BOXY.EXE: ISS Imagent and Oximeter Data Acquisition Program Version 0.80
Ascii Record File

#ACQ INFORMATION
2  Detector Channels 
16  External MUX Channels 
1  Auxiliary Channels 
5000  Waveform (CCF) Frequency (Hz)
1  Waveforms Skipped 
30  Waveforms Averaged 
1  Cycles Averaged 
16  Acquisitions per Waveform 
10.0806  Updata Rate (Hz) 

#FILE INFORMATION
TRUE -- External MUX Channel results are PARSED.
FALSE -- AC DC and Phase are NOT grouped.
TRUE -- Companion Program Settings File CREATED.
FALSE -- AC data not excluded
FALSE -- DC data not excluded
FALSE -- Phase data not excluded
FALSE -- Auxillary Chn. data not excluded
Tab delimiters

#CALIBRATION STATE
TRUE -- Waveform Calibration Values APPLIED.


#AUX CALIBRATION VALUES
Val Type	aux-1	

Term	1.0000e+00	
Factor	0.0000e+00	


#WF CALIBRATION VALUES
A = Detector Channel
Val Type	A-AC1	A-AC2	A-AC3	A-AC4	A-AC5	A-AC6	A-AC7	A-AC8	A-AC9	A-AC10	A-AC11	A-AC12	A-AC13	A-AC14	A-AC15	A-AC16	A-DC1	A-DC2	A-DC3	A-DC4	A-DC5	A-DC6	A-DC7	A-DC8	A-DC9	A-DC10	A-DC11	A-DC12	A-DC13	A-DC14	A-DC15	A-DC16	A-Ph1	A-Ph2	A-Ph3	A-Ph4	A-Ph5	A-Ph6	A-Ph7	A-Ph8	A-Ph9	A-Ph10	A-Ph11	A-Ph12	A-Ph13	A-Ph14	A-Ph15	A-Ph16	

Term	0.00000e+00	0.00000e+00	0.00000e+00	0.00000e+00	0.00000e+00	0.00000e+00	0.00000e+00	0.00000e+00	0.00000e+00	0.00000e+00	0.00000e+00	0.00000e+00	0.00000e+00	0.00000e+00	0.00000e+00	0.00000e+00	0.00000e+00	0.00000e+00	0.00000e+00	0.00000e+00	0.00000e+00	0.00000e+00	0.00000e+00	0.00000e+00	0.00000e+00	0.00000e+00	0.00000e+00	0.00000e+00	0.00000e+00	0.00000e+00	0.00000e+00	0.00000e+00	0.00000e+00	0.00000e+00	0.00000e+00	0.00000e+00	0.00000e+00	0.00000e+00	0.00000e+00	0.00000e+00	0.00000e+00	0.00000e+00	0.00000e+00	0.00000e+00	0.00000e+00	0.00000e+00	0.00000e+00	0.00000e+00	
Factor	1.00000e+00	1.00000e+00	1.00000e+00	1.00000e+00	1.00000e+00	1.00000e+00	1.00000e+00	1.00000e+00	1.00000e+00	1.00000e+00	1.00000e+00	1.00000e+00	1.00000e+00	1.00000e+00	1.00000e+00	1.00000e+00	1.00000e+00	1.00000e+00	1.00000e+00	1.00000e+00	1.00000e+00	1.00000e+00	1.00000e+00	1.00000e+00	1.00000e+00	1.00000e+00	1.00000e+00	1.00000e+00	1.00000e+00	1.00000e+00	1.00000e+00	1.00000e+00	X	X	X	X	X	X	X	X	X	X	X	X	X	X	X	X	

B = Detector Channel
Val Type	B-AC1	B-AC2	B-AC3	B-AC4	B-AC5	B-AC6	B-AC7	B-AC8	B-AC9	B-AC10	B-AC11	B-AC12	B-AC13	B-AC14	B-AC15	B-AC16	B-DC1	B-DC2	B-DC3	B-DC4	B-DC5	B-DC6	B-DC7	B-DC8	B-DC9	B-DC10	B-DC11	B-DC12	B-DC13	B-DC14	B-DC15	B-DC16	B-Ph1	B-Ph2	B-Ph3	B-Ph4	B-Ph5	B-Ph6	B-Ph7	B-Ph8	B-Ph9	B-Ph10	B-Ph11	B-Ph12	B-Ph13	B-Ph14	B-Ph15	B-Ph16	

Term	0.00000e+00	0.00000e+00	0.00000e+00	0.00000e+00	0.00000e+00	0.00000e+00	0.00000e+00	0.00000e+00	0.00000e+00	0.00000e+00	0.00000e+00	0.00000e+00	0.00000e+00	0.00000e+00	0.00000e+00	0.00000e+00	0.00000e+00	0.00000e+00	0.00000e+00	0.00000e+00	0.00000e+00	0.00000e+00	0.00000e+00	0.00000e+00	0.00000e+00	0.00000e+00	0.00000e+00	0.00000e+00	0.00000e+00	0.00000e+00	0.00000e+00	0.00000e+00	-2.63813e+02	-1.35610e+02	-1.20718e+02	-1.83142e+02	-1.03639e+02	-7.76492e+01	-1.58739e+02	-1.62015e+02	-6.67048e+01	-5.05097e+01	-1.74416e+02	-1.69969e+02	-1.82317e+02	-1.77446e+02	-7.21603e+01	-1.50100e+02	
Factor	6.34764e-05	1.25928e-04	3.90822e-05	1.62229e-01	1.76456e-06	1.41241e-06	1.55923e-01	5.22478e-02	2.01247e-06	1.74817e-06	8.59677e-02	2.68576e-02	3.53234e-02	8.80985e-03	1.52861e-06	1.26090e-02	2.79852e-06	2.94799e-06	8.21211e-07	8.30312e-02	3.20143e-08	3.23669e-08	7.47397e-02	2.68061e-02	3.19947e-08	3.24091e-08	4.26679e-02	1.33414e-02	1.79389e-02	4.54378e-03	3.21625e-08	6.28425e-03	X	X	X	X	X	X	X	X	X	X	X	X	X	X	X	X	



#DISTANCE SETTINGS
A = Detector Channel
A-1	A-2	A-3	A-4	A-5	A-6	A-7	A-8	A-9	A-10	A-11	A-12	A-13	A-14	A-15	A-16	

2.5000e+00	3.0000e+00	2.5000e+00	3.0000e+00	2.0000e+00	3.0000e+00	1.5000e+00	3.0000e+00	3.0000e+00	3.0000e+00	3.0000e+00	3.0000e+00	3.0000e+00	3.0000e+00	1.5000e+00	3.0000e+00	

B = Detector Channel
B-1	B-2	B-3	B-4	B-5	B-6	B-7	B-8	B-9	B-10	B-11	B-12	B-13	B-14	B-15	B-16	

1.0000e+01	1.0000e+01	1.0000e+01	1.4400e+00	1.0000e+01	1.0000e+01	1.5100e+00	1.9400e+00	1.0000e+01	1.0000e+01	1.9900e+00	2.4900e+00	2.4100e+00	2.9000e+00	1.0000e+01	2.9800e+00	




#DATA BEGINS
time	group	step	mark	flag	A-AC1	A-AC2	A-AC3	A-AC4	A-AC5	A-AC6	A-AC7	A-AC8	A-AC9	A-AC10	A-AC11	A-AC12	A-AC13	A-AC14	A-AC15	A-AC16	A-DC1	A-DC2	A-DC3	A-DC4	A-DC5	A-DC6	A-DC7	A-DC8	A-DC9	A-DC10	A-DC11	A-DC12	A-DC13	A-DC14	A-DC15	A-DC16	A-Ph1	A-Ph2	A-Ph3	A-Ph4	A-Ph5	A-Ph6	A-Ph7	A-Ph8	A-Ph9	A-Ph10	A-Ph11	A-Ph12	A-Ph13	A-Ph14	A-Ph15	A-Ph16	B-AC1	B-AC2	B-AC3	B-AC4	B-AC5	B-AC6	B-AC7	B-AC8	B-AC9	B-AC10	B-AC11	B-AC12	B-AC13	B-AC14	B-AC15	B-AC16	B-DC1	B-DC2	B-DC3	B-DC4	B-DC5	B-DC6	B-DC7	B-DC8	B-DC9	B-DC10	B-DC11	B-DC12	B-DC13	B-DC14	B-DC15	B-DC16	B-Ph1	B-Ph2	B-Ph3	B-Ph4	B-Ph5	B-Ph6	B-Ph7	B-Ph8	B-Ph9	B-Ph10	B-Ph11	B-Ph12	B-Ph13	B-Ph14	B-Ph15	B-Ph16	aux-1	digaux	

7097.917	1	1	0	256	0.15086	0.17647	0.22801	0.50768	0.22906	0.064695	0.16117	0.19608	0.22292	0.078284	0.065744	0.087152	0.11228	0.38111	0.24876	0.35844	-1.4146	-2.0958	-2.35	-1.5562	-2.3625	-2.0854	-1.8729	-2.625	-1.9958	-2.0833	-2.4875	-1.7938	-2.3333	-2.3021	-1.7396	-2.6562	18.292	30.197	129.605	195.507	173.442	24.276	134.045	128.223	-39.215	57.866	-67.471	182.187	43.147	166.114	19.902	91.700	0.0015633	0.00030198	0.00013144	786.12	4.0903e-06	8.1598e-06	607.55	286.55	9.7283e-06	3.7794e-06	261.52	103.82	108.09	46.165	1.373e-05	48.005	0.0009935	0.001081	0.00032739	777.2	1.458e-05	1.5657e-05	613.51	285.35	1.6931e-05	1.7175e-05	270.36	105.26	111.14	46.586	1.9294e-05	49.308	69.434	37.781	-39.168	-148.795	-30.426	84.207	-150.724	-143.035	-64.367	78.573	-145.881	-141.304	-138.753	-133.676	4.095	-136.883	-8191	255	
7098.036	1	1	0	0	0.10761	0.068367	0.12304	0.23199	0.10782	0.25096	0.18004	0.21114	0.29294	0.24022	0.076458	0.189	0.17119	0.14416	0.1977	0.25179	-1.5083	-2.1	-2.4062	-1.7167	-2.3688	-2.3208	-1.7437	-2.6229	-1.8708	-1.8771	-2.5479	-1.8312	-2	-2.4479	-1.7458	-2.5146	-114.397	-20.222	147.967	109.708	180.435	149.105	73.232	-101.370	128.256	33.365	79.213	102.324	-115.723	144.464	147.389	120.154	0.0014162	0.00059756	0.00035752	783.5	2.9145e-06	6.4249e-06	605.5	283.72	1.2162e-05	1.9339e-05	260.59	103.02	106.98	45.442	1.5208e-05	47.437	0.0018353	0.0019872	0.00057158	799.81	2.4986e-05	2.7458e-05	639.91	296.23	3.4662e-05	3.7833e-05	299.32	114.6	126.44	50.365	5.3145e-05	56.227	58.264	-70.395	-75.252	-148.831	128.339	3.515	-150.680	-143.124	-104.127	47.145	-146.109	-141.499	-138.833	-133.333	-24.938	-137.342	-8191	255	
7098.132	1	1	0	0	0.18742	0.095177	0.33024	0.1056	0.21927	0.19757	0.090898	0.37249	0.15189	0.24728	0.10579	0.22109	0.1413	0.18213	0.24984	0.087406	-1.5271	-1.8708	-2.3479	-1.7646	-2.1937	-2.2625	-1.95	-2.3688	-2.2854	-1.9375	-2.4125	-1.9	-2.2833	-2.4708	-1.5438	-2.4396	-144.138	145.861	-107.382	99.685	-98.840	162.343	157.088	-132.644	-34.214	175.840	163.877	101.038	-19.389	78.287	176.455	-40.075	0.0011383	0.0010024	0.00039497	812.96	1.9159e-05	1.1919e-05	626.51	295.56	1.2914e-05	1.205e-05	267.15	104.67	109.52	46.139	1.7711e-05	47.45	0.0053528	0.0058945	0.0017288	955.68	7.4961e-05	7.9363e-05	783.42	349.8	8.6403e-05	8.9113e-05	370.17	136.12	152.94	56.232	8.7146e-05	61.813	83.922	25.804	-15.892	-148.370	131.865	-45.013	-149.937	-142.893	-24.680	41.407	-145.345	-141.273	-138.866	-133.011	-94.484	-137.079	-8191	255	
7098.228	1	1	0	0	0.17192	0.34151	0.14867	0.073377	0.13848	0.18904	0.13066	0.11474	0.079336	0.15493	0.13427	0.36996	0.13638	0.27377	0.069197	0.090155	-1.6833	-1.6646	-2.5771	-1.9917	-1.9917	-2.4146	-1.8104	-2.4	-2.0563	-1.85	-2.5042	-2.0687	-2.0875	-2.6937	-1.9896	-2.2188	-28.550	144.784	48.515	-116.234	-30.835	92.354	42.889	114.300	22.434	-139.054	105.566	69.478	64.169	162.220	163.479	160.095	0.0024583	0.0011157	0.00018208	804	2.8866e-05	1.1991e-05	602.65	288.97	2.1062e-05	3.8818e-06	263.77	103.87	107.95	45.922	1.4137e-05	48.595	0.007312	0.0074176	0.00198	948.63	6.7931e-05	6.2282e-05	697.83	315.1	4.4551e-05	4.0477e-05	297.95	112	118.51	47.912	2.7276e-05	51.053	96.134	-109.847	21.370	-148.455	-79.831	-25.548	-150.201	-143.010	31.444	166.886	-145.362	-141.209	-138.994	-133.229	127.125	-137.474	-8191	255	
7098.324	1	1	0	0	0.19263	0.19409	0.072918	0.11239	0.29364	0.16232	0.1309	0.3534	0.22916	0.20214	0.21916	0.14197	0.12288	0.11386	0.27104	0.13122	-1.8563	-1.75	-2.5167	-2.1167	-1.9125	-2.2188	-1.7375	-2.3042	-2.3312	-1.5583	-2.4	-2.0354	-1.9292	-2.5875	-1.7729	-2.2021	-10.476	185.484	168.857	-137.021	-8.114	-13.848	-14.912	153.297	23.430	-10.779	-141.714	-15.139	-73.033	-142.838	-89.234	135.405	0.0015363	0.00089282	0.00024163	826.56	1.1654e-05	5.39e-06	641.87	301.43	3.9418e-06	3.9575e-06	274.6	107.87	111.53	47.912	1.1208e-05	50.545	0.0021528	0.0021195	0.00057994	837.85	2.1512e-05	2.1143e-05	651.18	302.14	2.0135e-05	1.9832e-05	285	109.68	114.45	48.003	1.701e-05	51.071	59.985	-100.012	46.812	-148.861	-66.430	-44.114	-150.147	-143.127	-90.136	71.045	-146.032	-141.455	-138.497	-133.459	-90.555	-137.403	-8191	255	
7098.420	1	1	0	0	0.11617	0.14283	0.14027	0.11941	0.32265	0.22922	0.14174	0.40326	0.21357	0.30576	0.20552	0.20065	0.22977	0.24281	0.30735	0.069444	-2.0146	-1.6812	-2.3563	-2.0417	-1.7521	-2.6042	-1.9042	-2.3042	-2.1042	-1.625	-2.3417	-2.2938	-1.6938	-2.6229	-1.8458	-2.1854	56.891	158.108	-114.236	169.394	28.055	71.961	-157.426	195.729	-7.848	-25.641	-117.205	24.340	183.255	198.375	-156.804	157.360	0.0011651	0.00056861	8.6448e-05	838.73	1.2188e-05	1.0763e-05	653.92	305.29	1.419e-05	5.8375e-06	280.68	109.56	112.03	48.06	8.1927e-06	50.533	0.0014703	0.0014487	0.00040475	832.55	1.5459e-05	1.5368e-05	650.19	302.4	1.5306e-05	1.5434e-05	284.25	109.92	113.78	48.058	1.6197e-05	50.902	54.096	166.327	156.889	-148.597	-55.292	-28.891	-150.338	-143.366	-43.838	-54.303	-146.068	-141.177	-138.854	-133.418	-61.924	-137.644	-8191	255	
7098.517	1	1	0	0	0.21886	0.093811	0.26273	0.096178	0.21833	0.14682	0.15668	0.29161	0.10959	0.20107	0.070243	0.12206	0.24091	0.29526	0.19835	0.24603	-1.9708	-1.6833	-2.2458	-2.1063	-1.7333	-2.3792	-2.1104	-1.9625	-2.4583	-1.6646	-2.4062	-2.3875	-1.7437	-2.2292	-1.875	-1.9333	-56.818	-79.053	197.071	-11.841	-76.432	18.070	27.680	166.100	169.539	45.881	153.448	100.862	160.148	-39.097	177.515	-95.915	0.0012919	0.00054368	0.00041449	843.51	1.905e-06	6.1616e-06	648.49	306.36	1.0224e-06	3.479e-06	280.03	109.24	112.57	48.107	1.7938e-05	50.308	0.001434	0.0014501	0.00039724	834.29	1.4571e-05	1.4248e-05	646	301.46	1.3513e-05	1.3932e-05	281.63	108.63	113.52	47.893	1.5982e-05	50.712	67.579	-103.263	-63.173	-148.855	46.909	78.966	-150.204	-143.319	-81.003	88.089	-145.702	-141.011	-138.889	-133.526	30.228	-137.256	-8191	255	
7098.613	1	1	0	0	0.025876	0.063958	0.26703	0.2004	0.20552	0.061042	0.25853	0.26906	0.17884	0.27743	0.11274	0.14999	0.045984	0.13962	0.13976	0.27515	-1.8	-1.725	-1.9667	-2.3146	-1.6063	-2.2979	-1.9438	-1.9	-2.4292	-1.7354	-2.1771	-2.2792	-1.6875	-2.3771	-2.1937	-1.9583	92.735	40.554	55.354	25.591	-126.210	-94.599	188.494	87.049	-5.041	157.182	70.863	177.693	-94.211	177.280	41.684	92.400	0.0015403	0.00040521	0.00030809	836.06	1.0989e-05	7.6302e-06	633.74	299.27	6.8968e-06	1.3732e-05	269.86	104.88	108.6	46.338	2.2384e-06	48.275	0.0015614	0.0016755	0.00049637	842.52	2.1754e-05	2.3845e-05	658.1	306.67	2.8361e-05	3.009e-05	296.2	112.54	120.54	48.94	3.4789e-05	52.545	75.129	18.050	-47.516	-148.503	-97.508	-63.571	-151.430	-144.312	-64.303	-1.811	-146.222	-142.055	-139.745	-133.673	131.337	-137.577	-8191	255	
7098.732	1	1	0	0	0.1819	0.049979	0.29295	0.10154	0.41462	0.12232	0.19921	0.13414	0.1219	0.14438	0.053521	0.15884	0.34207	0.22369	0.13796	0.29128	-1.95	-1.9146	-2.0208	-2.4125	-1.6187	-2.2562	-2.3208	-1.8771	-2.4792	-1.9	-1.7771	-2.5479	-1.6708	-2.2979	-2.2687	-1.9083	-37.285	111.977	-27.704	-56.485	-117.503	78.769	141.675	-130.065	-145.004	-129.795	29.570	142.089	143.418	155.645	-135.544	150.299	0.0018926	0.00063822	0.00018943	821.22	2.6018e-05	1.5408e-05	627.95	296.06	1.2354e-05	4.2179e-06	264.96	102.63	107.23	45.975	2.5494e-06	47.764	0.0031314	0.0033058	0.00092212	870.22	3.5215e-05	3.5927e-05	672.77	309.56	3.5627e-05	3.6647e-05	298.99	111.93	120.29	48.613	3.3559e-05	51.561	76.214	-0.496	-44.866	-148.762	-68.417	-50.250	-150.297	-143.270	86.148	-40.945	-145.267	-141.427	-139.148	-133.625	95.835	-137.105	-8191	255	
7098.828	1	1	0	0	0.1068	0.079776	0.14744	0.28402	0.09198	0.0772	0.10578	0.25859	0.21766	0.34007	0.18549	0.099302	0.080339	0.18756	0.10878	0.21003	-2.0938	-1.9792	-1.9396	-2.3708	-1.7437	-2.1896	-2.4833	-1.9354	-2.3563	-2.0938	-1.9333	-2.4958	-1.8792	-2.2042	-2.4583	-1.8292	-82.342	-136.271	-41.278	159.065	-63.515	-19.607	80.259	-114.862	-153.941	152.803	-79.294	164.666	-151.999	111.279	-6.774	166.894	0.0012138	0.0010313	0.000161	818.98	1.7189e-05	5.2909e-06	624.83	297.54	1.1103e-05	9.2455e-06	272.08	105.33	109.54	47.11	7.1046e-06	48.693	0.002685	0.0026374	0.00070296	843.73	2.5099e-05	2.484e-05	646.11	301.92	2.2968e-05	2.3325e-05	284.63	108.72	115.62	47.997	2.4118e-05	50.941	76.835	-53.724	162.870	-148.711	-44.370	-57.691	-150.117	-143.374	-72.105	-21.602	-146.217	-141.483	-138.824	-133.311	-108.149	-137.136	-8191	255	
7098.899	1	1	0	0	0.12562	0.091783	0.19539	0.039238	0.13716	0.017887	0.19557	0.20334	0.055786	0.049664	0.059339	0.18703	0.32745	0.274	0.34704	0.23678	-1.9854	-2.1604	-1.9125	-2.5521	-1.9042	-2.0917	-2.5375	-1.8813	-2.3167	-2.0604	-1.8375	-2.5917	-1.9792	-2.1437	-2.5125	-1.7563	170.976	181.991	51.332	-52.769	92.424	72.675	103.959	26.688	108.037	-19.105	142.626	-119.543	-156.742	168.220	70.010	139.827	0.0017077	0.00043722	0.00033585	822.46	5.7409e-06	6.7999e-06	621.64	297.63	1.6258e-05	1.3428e-05	269.03	105.92	111.25	47.21	8.25e-06	49.46	0.0021936	0.0022989	0.00064328	839.97	2.4942e-05	2.5118e-05	643.87	302.27	2.3592e-05	2.3153e-05	282.39	108.62	114.88	47.938	1.9955e-05	50.572	68.476	-24.364	-116.472	-148.533	-68.208	-19.914	-150.008	-143.133	-61.183	-71.405	-145.492	-141.134	-138.485	-133.375	-69.688	-137.141	-8191	255	
7098.997	1	1	0	0	0.14347	0.23894	0.17383	0.025573	0.10171	0.095736	0.14816	0.22631	0.11776	0.092962	0.12858	0.19356	0.25808	0.049834	0.088266	0.069735	-1.8708	-2.2188	-1.7229	-2.5896	-2.0271	-2.0333	-2.5167	-1.7417	-2.1437	-2.2188	-1.725	-2.4979	-1.9167	-1.8833	-2.3917	-1.8521	-110.375	-22.928	7.541	156.915	194.775	-80.919	194.431	94.158	60.510	194.002	-56.020	188.684	189.015	-63.716	183.070	-0.587	0.0016396	0.00026697	0.00026132	826.23	1.6079e-05	6.1614e-06	625.32	300.84	1.7013e-05	1.6589e-05	271.72	106.93	112.84	47.812	5.2021e-06	49.825	0.0016892	0.001689	0.00045608	821.89	1.71e-05	1.687e-05	626.95	298.36	1.5939e-05	1.6108e-05	276.69	107.76	113.24	47.686	1.5596e-05	50.347	58.587	98.775	113.435	-148.539	-95.077	15.262	-149.701	-142.985	-36.274	-40.976	-145.835	-140.707	-138.753	-133.141	26.855	-137.039	-8191	255	
7099.116	1	1	0	0	0.25847	0.24905	0.20135	0.15612	0.043455	0.23169	0.25752	0.34147	0.16021	0.29364	0.23069	0.1067	0.14442	0.13142	0.133	0.28972	-1.8396	-2.4042	-1.5833	-2.5187	-2.05	-1.8083	-2.4479	-2.0229	-2.0854	-2.5146	-1.8625	-2.45	-2.3375	-2.0083	-2.5938	-1.8625	65.093	17.639	131.293	174.858	-149.339	-81.680	97.167	110.439	-132.080	74.701	77.024	179.505	58.898	121.232	-78.056	135.094	0.0020454	9.6699e-05	0.00013697	828.29	1.5473e-05	6.4743e-06	633.4	302.72	1.3943e-05	1.4895e-06	279.34	109.18	112.45	48.453	1.1391e-05	51.143	0.0014182	0.0014429	0.00039754	820.6	1.4942e-05	1.4991e-05	634.41	298.71	1.4742e-05	1.4756e-05	279.9	108.38	113.16	47.946	1.3329e-05	51.031	67.971	-85.009	-114.177	-148.537	-65.091	17.140	-149.928	-142.818	-57.786	-59.270	-145.463	-141.111	-138.581	-133.221	-101.470	-137.198	-8191	255	
7099.212	1	1	0	0	0.19319	0.075126	0.16985	0.18478	0.029622	0.18746	0.20802	0.26363	0.31411	0.20952	0.16992	0.33698	0.14982	0.38108	0.19976	0.018401	-1.7979	-2.25	-1.7958	-2.4042	-2.2271	-1.7417	-2.6625	-2.075	-2.1375	-2.2271	-1.9937	-2.3333	-2.2229	-1.9312	-2.475	-2.1292	-62.319	-152.475	76.750	147.102	-47.301	85.307	168.575	176.062	96.485	-153.773	-152.370	165.651	2.975	148.578	-157.777	156.572	0.001026	0.00011775	6.0501e-05	837.54	6.5039e-06	1.0622e-05	640.16	304.92	7.3547e-06	1.1575e-05	277.1	108.46	112.67	47.719	4.6047e-06	50.11	0.0011935	0.0012216	0.00034435	823.53	1.3574e-05	1.3657e-05	638.45	300.97	1.4495e-05	1.4834e-05	280.4	108.76	113.88	47.9	1.6886e-05	50.949	60.769	-68.832	-40.682	-148.279	3.032	16.228	-149.964	-142.985	97.897	64.759	-145.758	-141.075	-138.638	-133.351	89.904	-137.003	-8191	255	
7099.309	1	1	0	0	0.24585	0.42732	0.079753	0.26929	0.2122	0.11394	0.12502	0.16495	0.30772	0.17064	0.22173	0.14379	0.25116	0.10018	0.040248	0.12527	-1.5146	-2.3708	-1.7625	-2.4104	-2.4396	-1.75	-2.6479	-2.0979	-1.8563	-2.5687	-1.85	-2.0062	-2.3812	-1.9083	-2.2229	-1.9354	125.803	122.626	-146.215	190.543	-102.380	156.913	140.568	-123.902	55.894	25.382	-63.103	-136.935	-142.571	-61.173	-99.973	106.517	0.0014719	0.0004656	0.00013141	820.11	1.8366e-05	6.875e-06	631.34	301.78	9.8514e-06	9.873e-06	272.53	106.41	111	47.355	4.0708e-06	49.801	0.0016244	0.0016994	0.00048118	824.09	1.9321e-05	1.9694e-05	639.22	301.22	2.038e-05	2.0768e-05	283.82	109.07	115.02	47.846	2.0129e-05	51.035	64.067	-83.372	-118.524	-148.549	24.861	7.169	-149.986	-142.792	-36.616	64.802	-145.720	-140.946	-138.489	-132.994	129.104	-136.800	-8191	255	
7099.429	1	1	0	0	0.088195	0.092856	0.062857	0.202	0.17075	0.33314	0.25656	0.30905	0.13421	0.081405	0.24958	0.31152	0.36454	0.15071	0.067286	0.0346	-1.45	-2.475	-1.8188	-1.9896	-2.5312	-1.6583	-2.4458	-2.3208	-1.6688	-2.5958	-1.8958	-2.1312	-2.3708	-1.6667	-2.25	-2.225	-137.074	31.841	108.890	164.418	174.951	144.965	182.067	-159.594	48.481	37.158	134.071	84.530	193.103	-159.592	-119.708	-104.154	0.0012949	0.00050069	0.0001371	817.06	7.9965e-06	4.8296e-06	622.28	301.34	1.1099e-05	1.7115e-06	272.91	107.52	111.2	47.295	1.821e-05	49.546	0.001806	0.0018508	0.0005132	821.16	1.9778e-05	1.9724e-05	633.19	301.31	1.9302e-05	1.9707e-05	283.89	109.59	115.08	47.889	2.0966e-05	51.106	63.083	149.558	-91.918	-148.278	148.531	134.562	-149.862	-142.545	-44.065	98.109	-145.399	-141.010	-138.162	-132.980	-19.450	-137.293	-8191	255	
7099.501	1	1	0	0	0.13446	0.095069	0.16815	0.14542	0.15452	0.2308	0.12487	0.11072	0.12065	0.048158	0.14079	0.12947	0.32345	0.28633	0.224	0.27145	-1.4271	-2.5312	-1.725	-1.9604	-2.5438	-1.7875	-2.3688	-2.2646	-1.9292	-2.4167	-2.0875	-2.0812	-2.55	-1.8333	-2.25	-2.4208	91.924	16.830	97.411	147.536	140.925	-12.680	54.625	-157.188	-39.607	-141.791	40.930	-159.289	-86.387	115.696	-123.939	-159.384	0.0012449	0.0017403	0.00034034	813.32	2.0157e-05	4.9867e-06	628.54	299.63	1.1816e-05	1.2643e-05	275.5	107.95	110.79	47.629	7.556e-06	50.509	0.00188	0.0019471	0.0005404	821.47	2.0621e-05	2.066e-05	640.31	301.76	1.9449e-05	1.9201e-05	284.99	109.48	113.92	47.739	1.7202e-05	51.221	71.444	-100.498	57.270	-148.460	-135.705	77.753	-149.923	-142.416	4.711	-3.506	-145.598	-141.135	-138.283	-133.052	-10.481	-136.762	-8191	255	
7099.597	1	1	0	0	0.043702	0.20348	0.12779	0.076846	0.30896	0.15176	0.18278	0.021233	0.054912	0.23462	0.098752	0.19717	0.20753	0.11288	0.1036	0.29984	-1.1375	-2.2354	-1.7646	-1.9875	-2.4437	-1.8125	-2.1562	-2.6104	-1.7542	-2.2687	-2.0708	-1.9021	-2.4875	-2.0208	-1.95	-2.2687	-16.429	9.251	-6.617	-148.134	5.449	-32.279	196.167	165.650	-91.061	-29.041	117.782	65.275	-153.524	135.901	190.214	71.125	0.0013304	0.00067855	0.00016179	829.57	5.782e-06	9.5902e-06	642.85	304.73	1.3146e-05	4.9445e-06	280.38	110.32	113.16	48.732	4.866e-06	51.331	0.0014591	0.0014735	0.00040319	820.4	1.5284e-05	1.5397e-05	640.46	301.25	1.4775e-05	1.4977e-05	283.71	109.93	113.84	48.159	1.3754e-05	51.19	63.940	-63.505	-72.631	-148.651	13.410	-17.420	-150.324	-143.018	-61.798	-114.932	-145.503	-141.070	-138.697	-133.038	-39.730	-136.904	-8191	255	
7099.718	1	1	0	0	0.10916	0.13408	0.12793	0.11276	0.1765	0.054086	0.21572	0.13536	0.11693	0.16876	0.095024	0.22833	0.17069	0.063991	0.10894	0.21745	-1.5896	-2.3146	-2.2333	-1.8312	-2.5333	-1.8917	-2.0729	-2.5229	-1.6708	-2.2062	-2.2625	-1.8417	-2.2917	-2.0021	-1.9979	-2.4313	151.265	170.441	-110.533	-98.158	-126.652	190.005	144.711	133.077	-13.556	-50.249	178.446	41.663	34.392	-14.512	-116.981	190.214	0.0013142	0.00045746	0.00020913	823.17	4.0377e-06	8.9402e-07	639.66	307.76	6.9597e-06	5.761e-06	283.01	110.43	113.98	48.675	4.7368e-06	51.142	0.0012201	0.0012193	0.00034295	814.63	1.3403e-05	1.3826e-05	636.12	301.48	1.3394e-05	1.3628e-05	283	109.55	113.29	48.097	1.3243e-05	51.023	75.576	7.254	-81.170	-148.562	-116.622	-3.480	-150.193	-142.612	84.319	71.049	-145.506	-140.796	-138.649	-133.382	-136.850	-137.043	-8191	255	
7099.812	1	1	0	0	0.11232	0.20449	0.25542	0.28243	0.12065	0.063029	0.29086	0.19542	0.15963	0.13734	0.18521	0.12081	0.29564	0.11602	0.16387	0.29776	-1.3	-2.1583	-2.1854	-1.8417	-2.4562	-1.8479	-1.9583	-2.55	-1.7958	-2.3708	-2.3229	-1.9167	-2.4583	-2.1396	-2.0187	-2.4062	-89.057	5.934	-43.461	126.752	-140.590	-58.246	153.404	192.865	136.225	-119.719	-66.321	-29.815	-141.545	-150.713	-64.440	198.075	0.0015178	0.00058146	0.00015241	824.65	7.7797e-06	2.4132e-06	630.39	305.08	7.4404e-06	3.3687e-06	277.26	109.14	112.59	47.962	5.8791e-06	50.259	0.0012137	0.0012524	0.00036042	812.87	1.4233e-05	1.47e-05	632.49	300.89	1.5007e-05	1.5504e-05	282.72	109.06	113.74	47.875	1.5886e-05	50.817	68.788	-33.065	-123.581	-148.604	-68.698	175.277	-150.005	-142.580	47.573	-91.194	-145.504	-140.835	-138.543	-133.329	157.082	-136.909	-8191	255	
7099.908	1	1	0	0	0.1712	0.095392	0.081113	0.23984	0.071761	0.0533	0.32237	0.35037	0.14186	0.051133	0.44009	0.0742	0.2002	0.25679	0.21107	0.19011	-1.4042	-2.2313	-2.4604	-1.8625	-2.4521	-2.1896	-1.8687	-2.5771	-1.9667	-2.0896	-2.3771	-1.8729	-2.2979	-2.2771	-1.8854	-2.5042	157.825	-151.001	110.150	-152.287	128.572	19.705	95.764	120.065	-152.623	-138.543	105.778	47.908	171.168	-118.583	-116.755	169.803	0.0017677	0.00041672	8.3069e-05	815.57	1.4378e-05	5.7795e-06	628.93	302.04	9.9567e-06	7.4529e-06	276.8	107.38	109.75	46.911	4.6482e-06	49.457	0.0014535	0.0015043	0.00042357	812.05	1.6903e-05	1.7628e-05	633.94	301.67	1.8894e-05	1.9694e-05	285.99	109.85	114.95	47.802	2.1582e-05	51.133	55.731	95.160	132.326	-148.489	-31.175	-94.193	-150.278	-142.766	38.454	-66.798	-145.487	-141.110	-138.405	-132.958	72.679	-137.087	-8191	255	
7100.029	1	1	0	0	0.092143	0.22988	0.1676	0.21012	0.17151	0.22308	0.13143	0.14555	0.18793	0.08188	0.12865	0.014045	0.046369	0.23256	0.23898	0.14044	-1.3542	-2.0583	-2.3312	-1.6292	-2.3	-1.9937	-1.575	-2.4667	-1.8271	-1.8479	-2.2625	-1.7292	-2.0875	-2.4562	-1.7417	-2.2833	24.251	-131.818	27.394	145.947	81.067	-16.658	109.450	184.211	175.211	35.315	45.764	-72.722	-13.571	-158.108	-5.312	20.401	0.0013975	0.00040711	0.00012506	804.34	4.2286e-06	1.9308e-05	625.35	299.78	8.8461e-06	8.4684e-06	274.52	106.23	109.82	46.877	1.1577e-05	49.091	0.0019317	0.002027	0.00055935	818.56	2.178e-05	2.1772e-05	636.25	301.96	2.1099e-05	2.1391e-05	286.41	109.78	115.06	47.66	2.1993e-05	51.161	74.590	-32.716	-28.226	-148.392	-2.610	6.287	-149.635	-143.080	146.796	32.620	-145.913	-141.391	-138.570	-133.235	12.425	-137.321	-8191	255	
7100.100	1	1	0	0	0.083746	0.27306	0.18966	0.074929	0.16785	0.17201	0.073275	0.071311	0.012074	0.22749	0.22502	0.11446	0.30613	0.18591	0.12547	0.39927	-1.6625	-1.8104	-2.4292	-1.7125	-2.1083	-2.2313	-1.6292	-2.5958	-2.2062	-1.8604	-2.6729	-1.8333	-2.125	-2.4125	-1.6729	-2.375	123.864	-95.781	-123.378	-124.593	-150.379	-106.043	-21.445	-152.911	-9.053	-147.826	128.760	-72.329	-137.762	177.102	6.690	-150.308	0.0010475	0.00039569	0.00017182	804.79	6.4965e-06	9.7807e-07	618.15	298.53	5.9898e-06	1.1635e-05	274.15	106.99	110.38	47.087	9.3111e-06	49.319	0.0019975	0.0020638	0.00058036	819.15	2.3363e-05	2.36e-05	639.11	302.88	2.3362e-05	2.348e-05	288.3	110.28	115.48	47.857	2.2008e-05	51.073	72.785	-86.940	-53.560	-148.732	-41.742	107.889	-150.384	-143.036	-97.283	-40.385	-145.704	-141.160	-138.696	-133.509	28.854	-137.210	-8191	255	
7100.197	1	1	0	0	0.040706	0.20047	0.020171	0.2935	0.026989	0.11653	0.28277	0.11022	0.20732	0.18729	0.25119	0.15652	0.068834	0.10731	0.26631	0.31284	-1.5229	-1.7437	-2.2313	-1.8813	-1.9833	-2.2958	-1.75	-2.3854	-2.2188	-1.5958	-2.5875	-1.9083	-1.7896	-2.5812	-1.6208	-2.4938	-160.889	-95.085	172.196	-150.830	31.597	-54.395	195.229	17.580	143.365	-105.644	129.346	-62.546	171.558	77.218	-45.772	188.202	0.0014488	0.00042794	0.0001786	805.52	1.2002e-05	1.0332e-05	620.4	301.06	1.3054e-05	5.6409e-06	277.56	108.04	110.47	47.465	1.1622e-05	49.562	0.0019328	0.0019659	0.00054042	816.73	2.1031e-05	2.0968e-05	634.82	302.47	2.0637e-05	2.0332e-05	286.25	109.65	114.35	47.746	1.9825e-05	51.017	68.338	-26.421	-114.640	-148.525	56.962	57.531	-150.172	-143.193	-61.818	117.297	-145.605	-141.237	-138.801	-133.442	84.615	-137.444	-8191	255	
7100.293	1	1	0	0	0.13329	0.073387	0.23304	0.13606	0.019964	0.20742	0.13419	0.18363	0.29079	0.24147	0.24741	0.21362	0.37746	0.43358	0.11394	0.26869	-1.7604	-1.8625	-2.3375	-2.0333	-1.9708	-2.5229	-1.9	-2.3396	-2.3063	-1.75	-2.5896	-2.0792	-1.9604	-2.4188	-1.8188	-2.1875	25.159	181.656	-134.901	-67.597	121.935	45.759	-130.973	78.445	38.443	-57.316	159.575	113.058	-153.150	105.103	15.477	157.846	0.0012604	0.00024182	0.00016453	802.76	3.7105e-06	8.8064e-06	623.27	299.8	7.032e-06	6.2073e-06	274.89	106.75	109.88	46.949	7.5218e-06	49.393	0.0018387	0.0018831	0.00052482	814.14	2.0455e-05	2.0592e-05	634.7	301.59	2.1057e-05	2.1443e-05	287.18	110.04	115.69	47.906	2.3375e-05	51.389	69.531	-118.559	198.950	-148.554	-58.453	-79.383	-150.249	-142.933	-13.635	5.978	-145.431	-141.243	-138.455	-133.272	-87.041	-137.345	-8191	255	
7100.412	1	1	0	0	0.11569	0.11075	0.10886	0.28374	0.06349	0.31907	0.20981	0.186	0.099738	0.17642	0.11716	0.26026	0.32341	0.34532	0.10949	0.19007	-1.7833	-1.5292	-2.35	-2.175	-1.9083	-2.6667	-1.85	-2.1167	-2.4229	-1.8563	-2.4688	-2.0896	-1.8229	-2.4458	-1.8771	-2.1021	-121.931	189.496	-148.241	132.166	57.413	30.474	42.868	73.492	109.855	-68.898	83.264	-132.891	-82.332	133.758	196.328	178.477	0.00084427	6.6573e-05	0.00041677	806.05	3.0514e-06	1.4106e-05	615.36	297.88	2.0137e-05	1.4202e-06	272.59	106.03	109.53	46.467	8.9973e-06	49.595	0.0021815	0.0022551	0.00064144	823.8	2.5414e-05	2.5881e-05	643.66	304.48	2.5911e-05	2.6194e-05	292.6	111.29	116.77	48.002	2.5353e-05	51.686	68.357	113.928	-57.309	-148.443	-102.901	-31.460	-150.384	-142.978	-15.012	-128.771	-145.624	-141.654	-138.446	-133.346	-91.879	-137.228	-8191	255	
7100.508	1	1	0	0	0.13917	0.057217	0.12286	0.29348	0.12336	0.12519	0.20033	0.19435	0.10948	0.031307	0.27507	0.1719	0.12557	0.21614	0.13774	0.050557	-2	-1.5333	-2.2792	-2.1792	-1.7854	-2.5083	-2.0521	-2.1312	-2.3354	-1.8729	-2.2583	-2.2708	-1.9792	-2.5167	-1.9646	-2.0687	-133.239	-13.467	174.463	171.394	196.299	87.641	-160.560	156.673	-26.836	37.223	154.928	175.244	-66.791	129.762	50.907	44.625	0.0010101	0.0005811	0.0001157	805.14	8.2201e-06	1.0203e-05	625.16	301.19	1.4716e-05	1.1968e-05	278.69	108.7	111.42	47.747	9.7418e-06	50.544	0.0021179	0.0021339	0.0005857	820.9	2.168e-05	2.1659e-05	638.96	302.86	2.0037e-05	1.9618e-05	287.54	110.55	114.15	47.882	1.7172e-05	51.139	67.692	-49.374	22.509	-148.617	-36.727	-3.243	-150.188	-142.996	-11.838	10.143	-145.999	-141.474	-138.609	-133.127	-102.939	-137.183	-8191	255	
7100.604	1	1	0	0	0.20526	0.13174	0.010949	0.3118	0.12189	0.10279	0.027831	0.11127	0.069818	0.15244	0.12718	0.17166	0.3827	0.33313	0.070297	0.46476	-2.0208	-1.6375	-2.2146	-2.2458	-1.6417	-2.5208	-2.125	-2.1458	-2.4854	-1.8271	-2.1	-2.3708	-1.8292	-2.5792	-2.2479	-1.7708	61.857	27.259	112.881	-159.727	101.139	-70.600	34.340	-95.722	-7.602	-71.220	-126.290	172.774	137.305	6.828	174.077	72.239	0.0014521	0.00095708	0.00011009	816.25	1.5298e-05	8.4049e-06	630.01	304.36	1.071e-05	9.2501e-06	279.05	109.13	111.27	47.682	7.9044e-06	50.328	0.0014795	0.0015047	0.00041857	812.02	1.6329e-05	1.699e-05	635.49	302.69	1.7516e-05	1.8111e-05	286.95	110.48	114.52	48.035	1.9601e-05	51.598	69.312	-46.938	-95.899	-148.550	-69.441	57.532	-150.003	-142.942	-55.724	-16.404	-145.888	-141.196	-138.987	-133.562	-0.061	-137.229	-8191	255	
7100.700	1	1	0	0	0.31245	0.17041	0.24137	0.33656	0.12921	0.019842	0.072221	0.24027	0.10255	0.098392	0.21265	0.17717	0.33618	0.41392	0.19514	0.26083	-2.0958	-1.7375	-2.1063	-2.5396	-1.8375	-2.3646	-2.2875	-1.7625	-2.3583	-1.9479	-2.0458	-2.5167	-1.7979	-2.2667	-2.2333	-1.95	45.535	-132.365	33.241	134.911	-128.840	-158.684	188.145	147.552	-129.801	-154.633	139.647	-55.038	128.628	127.399	49.703	170.686	0.0016302	0.00065532	0.00037788	808.67	8.0614e-06	5.1554e-06	623.83	299.92	1.4496e-05	6.1031e-06	275.58	107.1	109.84	46.685	8.9855e-06	49.367	0.001835	0.0019257	0.00054828	822	2.2477e-05	2.3259e-05	644.24	304.8	2.4222e-05	2.5013e-05	292.76	111.58	117.04	48.223	2.7205e-05	52.021	66.316	-82.785	23.175	-148.421	-89.651	86.821	-150.005	-143.180	21.467	-83.360	-145.751	-140.849	-138.982	-133.503	-37.664	-137.151	-8191	255	
7100.796	1	1	0	0	0.19882	0.28347	0.18838	0.20257	0.12164	0.13666	0.28881	0.25204	0.45936	0.40301	0.15358	0.18698	0.012376	0.40912	0.046624	0.25722	-2.0958	-2.1521	-2.1312	-2.4771	-1.7792	-2.2375	-2.2604	-1.8667	-2.3958	-2.0604	-1.9188	-2.4708	-1.5938	-2.3021	-2.4375	-1.8375	86.968	139.145	-71.456	180.387	-112.879	-50.666	-139.004	127.697	-6.465	49.271	-113.163	-150.835	70.968	-146.731	117.623	-149.520	0.0010587	0.0015453	0.00014571	808.22	1.1213e-05	1.0699e-05	620.37	300.24	9.1127e-06	3.9192e-06	274.78	106.62	108.76	46.478	1.2662e-06	49.231	0.0024487	0.0025636	0.00072088	832.02	2.8223e-05	2.8837e-05	650.93	307.58	2.8281e-05	2.8833e-05	296.51	112.43	117.66	48.136	2.7218e-05	51.84	65.295	-18.863	175.803	-148.439	-17.920	121.682	-149.928	-142.856	6.475	-160.093	-146.064	-140.816	-138.919	-133.479	-63.462	-137.208	-8191	255	
7100.892	1	1	0	0	0.11652	0.16212	0.11009	0.30864	0.2484	0.0054253	0.22336	0.42165	0.16465	0.146	0.14038	0.40473	0.18536	0.25699	0.11824	0.10065	-2.0438	-2.1167	-1.7729	-2.4167	-1.6896	-2.1729	-2.4562	-1.7646	-2.5938	-2.0625	-1.8563	-2.5292	-1.7646	-2.1229	-2.3854	-1.7771	108.021	-159.901	-21.416	178.540	78.183	10.617	-155.714	166.402	95.703	145.471	-126.306	-138.820	-103.343	-150.910	131.146	64.253	0.0015608	0.0005215	0.00032749	806.33	9.6481e-06	1.0457e-06	625.98	300.93	1.8317e-05	1.2893e-05	273.65	107.02	109.99	46.532	5.789e-06	49.03	0.0023134	0.002382	0.00064151	827.47	2.4716e-05	2.5121e-05	647.87	305.48	2.5366e-05	2.6206e-05	293.78	112.01	117.31	48.1	2.7495e-05	51.981	71.528	-86.260	5.448	-148.409	-103.080	131.877	-149.799	-142.984	-10.917	48.091	-145.708	-141.189	-138.556	-133.434	-99.819	-137.561	-8191	255	
7100.989	1	1	0	0	0.17763	0.12146	0.09231	0.033403	0.024746	0.14056	0.34037	0.2589	0.31926	0.24385	0.082771	0.23853	0.26436	0.15441	0.20154	0.1846	-1.8729	-2.2646	-1.6979	-2.4458	-1.9521	-2.1167	-2.4375	-1.9688	-2.3833	-2.1958	-1.8417	-2.6437	-1.9833	-1.9958	-2.4021	-1.8792	82.627	102.146	113.448	191.469	120.682	78.587	175.943	-77.763	110.003	67.114	-95.766	174.505	97.641	102.048	175.946	194.129	0.0015201	6.4708e-05	0.00014383	804.6	5.8896e-06	1.3067e-05	623.5	298.19	5.4013e-06	2.0742e-05	275.35	106.14	108.98	46.448	1.6504e-05	49.212	0.0025195	0.0026225	0.00072933	834.97	2.8844e-05	2.9155e-05	653.99	307.44	2.922e-05	2.9468e-05	297.09	112.66	118.6	48.371	2.9789e-05	52.291	59.694	89.592	26.267	-148.401	-74.329	107.598	-149.912	-143.043	-66.299	-24.884	-145.590	-141.138	-138.794	-133.421	-42.070	-137.065	-8191	255	
7101.109	1	1	0	0	0.17729	0.15996	0.077802	0.15222	0.082815	0.096919	0.19852	0.23128	0.22788	0.0037495	0.14816	0.23585	0.33931	0.3211	0.03928	0.20621	-1.8104	-2.2583	-1.8937	-2.6479	-2.0354	-2.0208	-2.7812	-1.9188	-2.2146	-2.2208	-1.9208	-2.4292	-2.0187	-1.8	-2.3396	-2.0146	-53.785	59.658	-23.427	-130.052	165.413	4.226	69.153	170.467	124.115	158.848	-2.610	-127.325	-146.420	84.260	68.134	148.939	0.001269	0.0019579	0.00020974	801.63	1.0052e-05	9.398e-06	615.53	298.43	5.5941e-06	1.2306e-05	273.01	106.1	107.85	45.934	7.6127e-06	48.665	0.0027022	0.0028299	0.00078807	837.29	3.1622e-05	3.1979e-05	654.83	308.71	3.208e-05	3.2608e-05	299.81	113.55	119.92	48.474	3.3402e-05	52.645	59.963	-73.024	-121.098	-148.467	92.054	-99.935	-150.223	-142.778	24.957	-6.842	-145.455	-140.979	-138.697	-133.346	196.708	-136.987	-8191	255	
7101.204	1	1	0	0	0.056588	0.061809	0.27663	0.29605	0.26142	0.18437	0.41245	0.19985	0.041147	0.12383	0.16239	0.26217	0.20925	0.1947	0.27279	0.030692	-1.6479	-2.3646	-1.6437	-2.4854	-2.1521	-1.7854	-2.4229	-1.9312	-1.9583	-2.5958	-1.75	-2.475	-2.1312	-1.7625	-2.4854	-2.2458	44.138	-101.557	-42.031	126.725	148.911	-35.567	157.783	-144.788	-133.645	0.271	-148.257	169.581	173.378	177.624	86.368	-106.819	0.0014912	0.00071699	0.00013324	800.7	1.2559e-05	9.2172e-06	615.3	295.79	1.3797e-05	5.1386e-06	273.98	105.85	107.83	46.036	1.5065e-05	48.585	0.0030229	0.00316	0.00088666	841.86	3.4673e-05	3.4586e-05	659.99	309.73	3.4515e-05	3.4969e-05	302.64	114.2	120.9	48.625	3.4789e-05	52.777	61.361	67.325	104.442	-148.088	133.537	29.312	-150.127	-142.550	45.468	176.318	-145.584	-141.448	-138.415	-133.359	0.620	-136.975	-8191	255	
7101.301	1	1	0	0	0.046672	0.10454	0.14275	0.012006	0.10674	0.34618	0.21004	0.059578	0.21536	0.13977	0.09955	0.31809	0.13461	0.46145	0.18896	0.027484	-1.55	-2.4375	-1.6542	-2.4062	-2.325	-1.6542	-2.3583	-1.9417	-1.9979	-2.5958	-1.9125	-2.4083	-2.3292	-2.0667	-2.4625	-2.1104	179.442	80.382	153.911	-17.738	-0.059	-94.650	146.303	-44.118	-137.668	41.489	185.210	-151.799	103.329	-91.595	89.642	170.056	0.0018929	0.0010092	0.00025572	799.9	1.6644e-05	9.9726e-06	618.05	298.96	1.0263e-05	1.478e-05	275.14	106.88	109.19	46.052	1.419e-05	48.719	0.0030434	0.0030902	0.00085157	839.89	3.2596e-05	3.2582e-05	657.61	308.68	3.0754e-05	3.0776e-05	299.43	113.28	118.33	48.092	3.0053e-05	52.068	70.944	-78.155	174.106	-148.809	-96.618	-75.477	-150.358	-143.114	10.536	162.631	-145.889	-141.316	-138.488	-133.427	-10.034	-137.376	-8191	255	
7101.396	1	1	0	0	0.28651	0.39903	0.098381	0.12814	0.22642	0.11277	0.14636	0.24997	0.17599	0.35761	0.093912	0.11871	0.15195	0.29269	0.16619	0.15775	-1.4646	-2.3187	-1.8854	-2.3917	-2.5312	-1.7833	-2.3979	-2.325	-1.9479	-2.6042	-1.8167	-2.2854	-2.5458	-1.8104	-2.3917	-2.325	49.905	32.579	-46.659	157.234	86.963	7.164	-150.778	164.375	-36.367	61.326	34.388	-4.921	158.699	-151.803	178.177	176.523	0.0015969	0.00021406	0.0002214	804.39	8.54e-06	1.0145e-05	622.18	297.67	8.767e-06	4.5499e-06	276.34	106.53	109.99	46.211	9.6073e-06	49.161	0.0026416	0.0027336	0.00076143	833.93	2.9066e-05	2.8824e-05	654.41	306.59	2.8354e-05	2.8559e-05	297.28	112.33	116.97	47.721	2.4955e-05	51.47	65.852	194.093	-64.214	-148.529	100.340	23.631	-149.970	-142.820	13.677	-56.317	-145.435	-140.887	-138.378	-133.198	-100.014	-137.042	-8191	255	
7101.492	1	1	0	0	0.12735	0.17213	0.21897	0.19186	0.17494	0.056976	0.048299	0.26885	0.11768	0.084093	0.27923	0.19289	0.18882	0.0481	0.13774	0.10147	-1.1458	-2.4604	-1.9104	-2.1667	-2.4083	-1.7229	-2.425	-2.2188	-1.9562	-2.45	-1.9583	-2.0375	-2.5417	-2.0292	-2.2083	-2.3937	92.253	73.852	172.634	115.869	-135.915	151.627	-0.165	135.881	-9.674	-13.315	152.097	49.057	149.058	41.249	108.857	191.572	0.0011252	0.00067867	5.0036e-05	808.82	7.7881e-06	9.96e-06	621.41	303.23	1.6225e-05	3.1771e-06	280.05	108.02	110.55	46.571	9.3738e-06	49.692	0.002092	0.0021085	0.0005801	821.01	2.2033e-05	2.1959e-05	640.53	304.19	2.1675e-05	2.1846e-05	291.38	110.97	115.29	47.446	2.1348e-05	50.994	60.912	-59.620	91.357	-148.736	-48.107	-25.039	-149.882	-142.705	-55.940	188.709	-145.264	-141.111	-138.416	-132.866	15.542	-136.568	-8191	255	
7101.588	1	1	0	0	0.40232	0.23359	0.20335	0.28035	0.2398	0.069055	0.27308	0.1799	0.22307	0.3118	0.28393	0.1565	0.20229	0.2357	0.12624	0.33385	-1.5125	-2.2771	-2.0958	-2.025	-2.5542	-1.9646	-2.5458	-2.3833	-1.9521	-2.3375	-2.2375	-1.8729	-2.5833	-1.9375	-2.1896	-2.4062	-1.662	67.691	92.913	-141.409	165.758	136.374	97.900	97.203	159.594	-150.836	194.215	136.837	115.444	150.931	-92.144	137.199	0.0014243	0.000882	0.00031699	814.8	1.8423e-05	2.833e-06	627.42	303.97	4.1958e-06	6.3571e-06	281.21	109.33	110.64	46.83	9.1051e-06	50.295	0.001788	0.0018031	0.00049818	817.23	1.8387e-05	1.8349e-05	638.06	302.52	1.7766e-05	1.8046e-05	288.68	110.4	113.88	47.178	1.8911e-05	51.03	76.154	-119.254	-34.088	-148.475	-125.638	37.848	-149.722	-142.498	-132.543	-8.309	-144.940	-141.015	-138.147	-132.952	-71.042	-136.740	-8191	255	
7101.709	1	1	0	0	0.18018	0.21928	0.23492	0.081321	0.022027	0.057991	0.12669	0.20147	0.2	0.24184	0.14689	0.1968	0.17058	0.074194	0.10882	0.16216	-1.275	-2.4021	-1.9875	-1.8333	-2.5083	-1.7667	-2.0604	-2.2979	-1.6896	-2.1729	-2.2	-1.8521	-2.4708	-1.9458	-2.0563	-2.4437	-57.656	-50.637	-136.889	130.960	147.550	138.937	120.510	172.218	122.962	-137.075	72.590	170.228	2.469	60.511	-109.129	118.982	0.0014698	0.00055467	0.00035987	815.13	1.2612e-05	1.0383e-05	631.47	303.81	1.6034e-05	1.4271e-05	282.75	109.08	111.38	46.9	4.0774e-06	50.083	0.0017315	0.0017904	0.00050404	819.04	1.957e-05	1.9905e-05	640.76	303.73	1.9123e-05	1.9343e-05	290.12	110.81	114.31	47.18	1.9482e-05	51.1	43.989	187.069	-20.505	-148.200	-104.200	-68.112	-149.963	-142.731	13.071	18.235	-145.382	-140.762	-137.922	-133.112	153.473	-136.515	-8191	255	
7101.805	1	1	0	0	0.095695	0.193	0.26083	0.074713	0.31805	0.12398	0.26472	0.29712	0.1986	0.03266	0.21544	0.019399	0.27583	0.17216	0.11824	0.18021	-1.2583	-2.1833	-2.1625	-1.8292	-2.4479	-2.0021	-2.2458	-2.5292	-1.8229	-2.1854	-2.5375	-1.9625	-2.5333	-2.1083	-1.925	-2.5792	-63.678	36.803	-130.011	-155.919	166.950	-47.682	135.004	74.628	68.107	32.427	199.056	-65.214	107.492	160.971	31.526	179.734	0.0013621	0.0015008	0.00024884	807.99	1.7669e-05	1.9197e-06	631.46	303.68	3.2049e-06	4.8707e-06	279.29	107.99	109.96	46.331	8.2446e-06	49.502	0.0017524	0.0018549	0.00053487	820.39	2.1597e-05	2.2049e-05	645.53	304.72	2.1746e-05	2.2236e-05	291.98	111.3	115.37	47.179	2.2143e-05	51.128	64.701	-111.297	-157.638	-148.530	-26.952	3.237	-149.914	-142.874	-134.179	125.772	-145.404	-141.268	-138.547	-133.416	-36.412	-136.693	-8191	255	
7101.901	1	1	0	0	0.26835	0.21666	0.16822	0.11042	0.26625	0.15334	0.36201	0.42727	0.059089	0.10402	0.26252	0.21081	0.23054	0.25555	0.18392	0.05327	-1.4	-2.2479	-2.1708	-1.9771	-2.3417	-2.0333	-1.8979	-2.5875	-1.8229	-1.9979	-2.3708	-1.6625	-2.4938	-2.1688	-1.9958	-2.5312	96.951	55.369	182.503	119.306	-160.507	-156.121	150.555	159.075	-25.099	-149.941	110.233	-15.661	-42.738	-155.963	-56.220	132.466	0.0015234	0.00045764	0.00018595	810.02	6.0514e-06	1.2227e-05	625.23	301.24	1.3563e-05	7.3431e-06	277.21	107.9	109.04	45.812	8.3886e-06	48.623	0.0020049	0.0020904	0.00058614	823.35	2.3862e-05	2.4828e-05	649.47	306.36	2.6348e-05	2.7548e-05	298.18	113.51	118.61	47.846	3.0429e-05	52.048	97.903	-51.574	-41.257	-148.515	-135.783	-112.646	-149.951	-142.605	-69.648	38.421	-145.509	-141.474	-138.309	-133.084	48.449	-136.842	-8191	255	
7101.997	1	1	0	0	0.19487	0.099934	0.17661	0.25132	0.014239	0.16482	0.12048	0.37609	0.25813	0.12825	0.14801	0.33376	0.039967	0.29402	0.16283	0.043105	-1.3438	-2.0042	-2.3333	-1.7229	-2.2396	-2.1021	-1.9458	-2.5625	-1.8708	-1.9979	-2.5125	-1.9646	-2.2542	-2.3792	-2.0812	-2.5271	117.576	77.395	-35.367	113.023	164.463	135.782	82.459	82.313	-35.105	21.326	154.581	146.563	-71.632	185.133	-43.352	-96.487	0.0013784	0.00069713	0.00012644	800.78	7.191e-06	1.0912e-05	618.94	299.69	1.7101e-05	2.0805e-05	276.9	107.24	108.93	45.676	1.0587e-05	48.769	0.0027881	0.0029334	0.00081003	837.06	3.2063e-05	3.2371e-05	657.28	310.26	3.2002e-05	3.2621e-05	303.03	114.96	121.17	48.42	3.4624e-05	53.099	61.184	141.522	-115.743	-148.461	141.683	-121.568	-150.251	-142.550	-98.770	-140.387	-145.188	-140.694	-138.608	-132.704	-53.831	-136.742	-8191	255	
7102.093	1	1	0	0	0.19024	0.17317	0.29768	0.15362	0.19832	0.18986	0.10366	0.23356	0.11908	0.17732	0.040802	0.34577	0.029641	0.14381	0.26651	0.24809	-1.7917	-2.0271	-2.2083	-2.0792	-2.2812	-2.3167	-1.8479	-2.5417	-2.0333	-2.0021	-2.5979	-1.7792	-2.2646	-2.35	-1.7188	-2.4583	-20.677	143.970	18.876	179.173	185.657	78.494	47.983	-154.978	-36.761	67.370	-84.190	-106.505	166.300	-105.210	147.654	140.147	0.0013468	0.00040831	0.00012735	793.71	3.8712e-06	6.6027e-06	609.72	299.19	9.6317e-06	8.1443e-06	275.38	106.93	108.51	45.661	1.6869e-05	48.401	0.0032116	0.0034052	0.00096167	847.09	3.8273e-05	3.9335e-05	667.12	315.66	3.9802e-05	4.0918e-05	314.07	118.15	125	49.28	4.2873e-05	54.332	79.332	-132.402	-10.102	-148.369	-54.957	-8.661	-149.597	-142.449	124.585	48.974	-145.194	-140.963	-137.991	-132.803	97.850	-136.720	-8191	255	
7102.188	1	1	0	0	0.029767	0.17175	0.19828	0.139	0.059309	0.038305	0.21243	0.15899	0.08771	0.23882	0.14584	0.071067	0.33421	0.17667	0.29313	0.073715	-1.8521	-1.75	-2.3271	-1.8271	-2.0417	-2.5042	-1.9292	-2.4188	-2.2979	-1.8	-2.5896	-2.0292	-1.9333	-2.4979	-1.6333	-2.3896	-13.857	126.681	168.533	133.601	171.443	152.315	187.276	-134.595	-107.689	142.354	182.084	-77.660	-145.630	-114.106	86.927	25.793	0.0013681	0.0014311	0.00044869	794.35	1.2742e-05	3.2446e-06	607.23	299.49	5.8055e-06	1.7604e-05	276.58	106.6	109.07	45.207	5.9962e-06	47.83	0.0039687	0.0042136	0.0011993	872.8	4.9307e-05	5.096e-05	699.07	328.51	5.5096e-05	5.6854e-05	337.04	125.96	135.59	51.736	6.1202e-05	57.71	78.125	54.113	175.590	-148.100	-69.913	166.453	-149.642	-142.821	-101.192	0.177	-145.439	-141.509	-140.001	-133.308	-107.021	-137.395	-8191	255	
7102.284	1	1	0	0	0.37467	0.26664	0.13982	0.050299	0.12909	0.20212	0.14418	0.31688	0.068635	0.066657	0.20258	0.12439	0.08743	0.35527	0.18842	0.11872	-1.7208	-1.6938	-2.4542	-2.0625	-2.0167	-2.4938	-1.7396	-2.5021	-2.35	-1.85	-2.5187	-2.0687	-2.1771	-2.4833	-1.7833	-2.2771	155.523	-42.251	-14.729	178.582	17.623	-138.440	-114.385	185.093	148.637	-138.380	-138.666	-59.420	161.427	49.743	100.110	47.828	0.0021059	0.00065718	0.0001162	801.13	2.0979e-05	2.5615e-05	610.63	301.37	2.5052e-05	2.0101e-05	275.17	107.21	108.59	45.435	1.8073e-05	48.082	0.0054755	0.0057214	0.0016014	920.55	6.3507e-05	6.4695e-05	730.51	339.63	6.512e-05	6.6285e-05	348.2	129.17	140.05	52.736	6.813e-05	58.935	56.920	-35.655	-117.342	-148.507	-64.822	63.323	-150.414	-143.290	-41.738	12.509	-145.673	-140.905	-138.299	-133.026	-77.961	-136.836	-8191	255	
7102.382	1	1	0	0	0.1679	0.29651	0.2145	0.16398	0.2886	0.0092444	0.13321	0.1246	0.19889	0.24671	0.04808	0.015148	0.12448	0.15935	0.18871	0.073935	-1.9333	-1.8104	-2.4083	-2.2583	-2.0062	-2.7	-1.8167	-2.0417	-2.5604	-1.8312	-2.4583	-2.2354	-1.775	-2.6542	-1.8479	-2.2229	123.075	-56.211	78.244	195.311	-12.306	-75.375	-135.566	170.381	-14.993	-144.523	-159.536	-81.933	182.254	27.954	44.537	195.988	0.0012615	0.001272	0.00068744	804.81	2.5038e-05	1.835e-05	609.59	298.99	2.7952e-05	2.569e-06	273.62	106.05	109.2	44.939	2.3313e-05	47.894	0.0060275	0.0063099	0.0017718	940.84	6.9042e-05	6.9322e-05	741.49	341.35	6.7378e-05	6.6946e-05	344.57	127.2	136.4	51.63	6.1213e-05	57.075	88.004	-44.734	-23.777	-148.207	21.480	-48.876	-149.516	-142.579	-15.621	-111.062	-145.040	-141.027	-138.266	-133.121	-146.495	-136.532	-8191	255	
7102.501	1	1	0	0	0.23657	0.1251	0.069549	0.24607	0.20006	0.050149	0.080668	0.20221	0.22707	0.26895	0.13973	0.20052	0.33664	0.02204	0.22287	0.042267	-1.8271	-1.9625	-2.2687	-2.1437	-1.8458	-2.6208	-1.9792	-2.2354	-2.5208	-1.8583	-2.2188	-2.3854	-1.9396	-2.6688	-2.0729	-2.0875	198.421	81.555	-152.078	-160.089	-73.772	31.781	-85.088	178.367	19.616	70.696	133.787	121.612	80.526	79.012	-68.455	-55.619	0.00035302	0.00017487	0.0004263	788.38	2.0622e-05	5.458e-06	599.5	295.09	4.4203e-06	1.0535e-05	272.21	105.9	106.23	44.826	1.4303e-06	47.745	0.00523	0.005385	0.001483	894.59	5.6326e-05	5.5862e-05	696.27	325.58	5.3876e-05	5.4446e-05	327.73	122.55	130.49	50.229	5.3625e-05	55.519	62.231	-58.451	-0.982	-148.319	6.331	58.077	-150.050	-142.563	178.651	46.143	-145.431	-140.905	-138.558	-133.145	-26.477	-137.077	-8191	255	
7102.597	1	1	0	0	0.18664	0.16205	0.14312	0.25511	0.20663	0.18468	0.26279	0.16422	0.24974	0.043778	0.087343	0.039967	0.13285	0.35628	0.33613	0.3519	-2.0646	-1.7979	-2.1833	-2.4521	-1.8354	-2.6125	-1.9208	-1.8708	-2.4125	-1.8854	-2.2479	-2.2833	-1.6667	-2.4437	-2.0687	-2.0229	-80.719	47.659	136.706	159.670	-25.939	165.044	121.929	98.618	119.612	113.111	145.538	91.024	106.514	-160.065	-63.443	147.811	0.0013549	0.0007866	0.00060619	785.88	4.0516e-06	2.9517e-06	601.99	294.67	3.2258e-05	1.5614e-05	272.85	105.55	107.71	44.732	1.4998e-05	47.546	0.0047049	0.0049933	0.0014044	890.17	5.5492e-05	5.7332e-05	706.23	329.65	6.0291e-05	6.2986e-05	342.45	127.01	137.8	52.144	6.8936e-05	58.875	72.104	9.437	67.453	-148.248	-89.892	-52.811	-149.532	-142.557	-115.668	98.052	-145.233	-140.972	-138.046	-133.375	-13.529	-137.010	-8191	255	
7102.669	1	1	0	0	0.12004	0.19412	0.14208	0.23346	0.30813	0.062265	0.16345	0.042761	0.1237	0.083461	0.12667	0.043776	0.074113	0.17483	0.16289	0.21802	-2.2333	-1.8146	-2.0708	-2.4688	-1.8021	-2.2354	-2	-1.8354	-2.475	-1.8083	-2.05	-2.3771	-1.7021	-2.3958	-2.0417	-1.7646	-32.979	10.763	34.752	-7.673	179.594	85.415	-113.153	160.034	65.253	170.304	-136.613	-159.285	182.402	-106.622	-106.055	112.379	0.0013313	0.00064705	6.9709e-05	802.82	1.1243e-05	1.2066e-06	607.41	299.49	1.9037e-05	1.0763e-05	273.65	106.39	107.67	44.719	4.0712e-05	46.983	0.0062187	0.0066182	0.0018789	949.54	7.4063e-05	7.6067e-05	755.05	347.18	7.5368e-05	7.721e-05	358.7	131.86	142.95	52.95	7.3913e-05	58.82	56.843	73.236	58.372	-147.855	95.683	-24.934	-149.467	-142.681	163.433	151.945	-145.163	-140.479	-138.057	-132.811	173.180	-136.895	-8191	255	
7102.789	1	1	0	0	0.2608	0.085244	0.094785	0.14679	0.22962	0.1882	0.08428	0.3015	0.13043	0.21892	0.1651	0.29553	0.037482	0.16955	0.40371	0.30585	-2.0854	-1.8396	-2	-2.5646	-1.6792	-2.2542	-2.5104	-1.7437	-2.3438	-2.0792	-1.9417	-2.5604	-1.9854	-2.1646	-2.4354	-1.65	180.432	-49.678	144.147	119.136	-38.751	-154.813	169.097	-136.134	133.472	-77.605	118.232	125.183	92.281	148.851	158.200	159.387	0.0014238	0.0013221	0.00013789	789.96	2.5919e-05	2.04e-06	600.95	293.68	4.637e-06	1.1105e-05	269.25	104.52	106.2	44.022	1.2639e-05	46.599	0.0062844	0.0065139	0.0017976	923	6.6969e-05	6.7847e-05	722.42	333.48	6.3761e-05	6.4309e-05	336.85	124.01	132.88	50.466	5.712e-05	55.19	50.357	-34.168	148.154	-148.021	-22.429	-56.346	-149.470	-142.679	-73.804	89.250	-145.213	-141.118	-138.217	-132.916	-70.720	-136.952	-8191	255	
7102.885	1	1	0	0	0.088204	0.1241	0.11158	0.43407	0.11557	0.27082	0.082745	0.14003	0.058023	0.10706	0.32595	0.24979	0.25861	0.082657	0.43671	0.13009	-1.8292	-1.9688	-1.9208	-2.4604	-1.8125	-2.1208	-2.4083	-1.8625	-2.2708	-2.1771	-2.0125	-2.6792	-1.8708	-2.1792	-2.45	-1.8937	-3.451	-5.443	100.184	88.434	92.752	147.280	-110.952	-156.458	-154.863	136.721	110.882	-76.473	199.332	-56.039	-35.246	-73.429	0.001872	0.002352	0.00066414	780.78	1.0335e-05	9.2905e-06	595.37	294.7	5.4909e-06	5.7019e-06	270.3	104.89	107.97	44.483	1.8201e-05	46.691	0.0048228	0.004947	0.0013594	872.84	5.149e-05	5.2301e-05	682.61	321.72	5.1851e-05	5.3281e-05	325.15	121.49	130.84	50.087	5.568e-05	55.467	66.826	30.451	-38.968	-148.139	168.787	-9.888	-149.767	-142.635	-137.584	-65.627	-145.063	-140.695	-138.104	-132.837	50.793	-136.769	-8191	255	
7102.981	1	1	0	0	0.13425	0.21973	0.14586	0.19839	0.056962	0.1238	0.06493	0.18245	0.36745	0.13738	0.1699	0.14644	0.3445	0.13367	0.14149	0.13558	-1.8542	-2.1729	-1.7583	-2.5	-2.0417	-2.1292	-2.4479	-1.8167	-2.1958	-2.3708	-1.8458	-2.4521	-1.9708	-2.0354	-2.3896	-1.7375	-5.272	162.814	-74.416	81.641	130.326	-48.937	-0.294	98.214	15.298	50.112	193.931	10.773	75.249	138.297	-146.817	181.085	0.0013324	0.0016924	0.00029939	775.25	2.0409e-05	4.6122e-06	595.95	291.66	1.5755e-05	1.1938e-05	269.84	104.86	107.14	44.293	1.6503e-05	46.592	0.0050124	0.0053303	0.0014878	889.25	5.904e-05	6.0316e-05	703.02	327.52	5.9655e-05	6.0503e-05	332.8	123.83	133.71	50.734	6.0699e-05	56.256	89.571	165.031	-83.364	-148.259	-71.296	149.366	-149.784	-142.806	-79.116	-25.233	-145.470	-140.807	-137.818	-133.223	-0.562	-136.496	-8191	255	
7103.102	1	1	0	0	0.2801	0.10072	0.11514	0.18626	0.15068	0.15061	0.28704	0.26491	0.21792	0.23333	0.18529	0.19899	0.30821	0.16231	0.072981	0.28211	-1.8604	-2.3187	-1.8229	-2.6521	-1.9188	-1.9562	-2.425	-1.9542	-2.1562	-2.2625	-1.6896	-2.5354	-2.025	-2.0125	-2.5271	-1.8104	88.440	-37.420	116.194	24.640	43.820	21.867	192.705	121.590	157.183	-39.894	-3.917	153.528	-91.278	176.375	-128.116	-144.528	0.0012737	0.00087775	0.00035068	777.34	6.9727e-06	7.4323e-06	594.35	293.27	2.166e-05	6.6865e-06	269.72	105.1	107.59	44.128	1.5135e-05	46.523	0.0053341	0.0056257	0.0015537	895.25	6.1721e-05	6.2409e-05	708	330.88	6.2928e-05	6.4132e-05	339.02	126.04	136.41	51.27	6.3585e-05	56.79	62.075	43.390	139.026	-148.030	80.533	59.018	-149.700	-142.801	-91.540	19.516	-145.966	-140.869	-138.501	-133.341	77.159	-136.810	-8191	255	
7103.198	1	1	0	0	0.084861	0.15863	0.15052	0.12517	0.074972	0.23257	0.11877	0.1602	0.13401	0.046176	0.1678	0.29266	0.17295	0.2862	0.11304	0.13824	-1.7646	-2.2708	-1.8271	-2.5438	-2.3104	-1.9667	-2.5583	-2.2354	-2.3563	-2.4875	-2.05	-2.4354	-2.3667	-1.8292	-2.4	-1.9896	29.082	51.232	-46.578	97.873	72.463	-57.731	-21.441	176.814	-17.876	-142.783	-42.358	-87.434	-104.532	184.039	-122.593	100.640	0.00080603	0.0011158	0.00049159	777.53	1.6678e-05	1.601e-05	592.07	294.23	2.0662e-05	2.9687e-05	269.79	105.49	107.21	43.928	2.1607e-05	46.652	0.0055996	0.0058067	0.0016147	898.24	6.2724e-05	6.2586e-05	704.45	329.86	6.1417e-05	6.2013e-05	335.87	125.38	135.15	50.822	6.2203e-05	56.532	70.625	-0.605	-63.307	-148.414	-72.095	3.055	-149.838	-142.497	-93.569	-46.938	-145.438	-140.876	-138.483	-133.137	-28.253	-136.691	-8191	255	
7103.270	1	1	0	0	0.24271	0.21148	0.17419	0.35652	0.24887	0.19495	0.16759	0.30581	0.085981	0.14787	0.086103	0.12737	0.1776	0.17673	0.22032	0.07148	-1.8479	-2.5146	-1.8354	-2.3917	-2.3042	-1.7979	-2.5292	-1.9833	-1.9979	-2.3833	-1.8687	-2.2833	-2.4208	-1.8813	-2.4979	-1.9292	-84.704	-1.329	97.515	172.591	170.187	-43.263	35.387	138.083	22.729	-27.545	-131.742	2.734	176.252	-11.473	186.612	-40.166	0.0016507	0.00074073	0.00041839	778.78	2.566e-05	1.2005e-05	593.63	292.03	2.3485e-05	4.3597e-06	269.29	104.58	107.95	44.079	1.2978e-05	46.797	0.0055048	0.005775	0.0016126	900.05	6.3461e-05	6.4193e-05	707.36	332.13	6.4729e-05	6.542e-05	340.05	126.43	137.74	51.534	6.7953e-05	57.873	83.657	-5.391	15.914	-148.467	-85.965	-64.498	-150.126	-142.741	-0.354	-66.527	-145.724	-141.134	-138.332	-133.093	-31.999	-136.872	-8191	255	
7103.389	1	1	0	0	0.11363	0.23996	0.12062	0.041746	0.20557	0.24838	0.16321	0.20784	0.072989	0.21024	0.16827	0.30519	0.23449	0.26944	0.15915	0.38336	-1.3979	-2.4917	-1.7375	-2.3521	-2.2542	-1.8521	-2.4	-2.0479	-1.9083	-2.6375	-1.9542	-2.3167	-2.475	-1.7062	-2.3625	-2.3563	36.818	129.098	41.291	-148.983	-100.586	-138.658	144.526	156.255	-73.730	114.172	117.821	115.545	123.632	145.039	103.539	-3.483	0.0013693	0.00026959	0.00060035	781.56	6.3023e-06	4.1091e-06	593.88	296.02	2.0757e-05	2.3762e-05	271.56	105.41	108.59	44.294	3.1466e-05	46.767	0.0061341	0.0064607	0.0018275	926.54	7.2887e-05	7.3794e-05	735.82	343.03	7.5127e-05	7.7033e-05	358.05	132.01	144.6	53.137	7.9247e-05	59.833	35.253	-24.523	-89.852	-148.376	-96.936	52.149	-149.969	-142.687	-92.611	-71.601	-145.404	-140.934	-138.586	-133.022	-1.916	-136.468	-8191	255	
7103.485	1	1	0	0	0.043934	0.19318	0.067739	0.27129	0.20715	0.12754	0.17809	0.065119	0.20739	0.045267	0.43485	0.14973	0.16344	0.14168	0.063101	0.18676	-1.2917	-2.4479	-1.9688	-2.2854	-2.575	-1.9208	-2.5333	-2.3729	-1.8417	-2.7146	-2.0958	-2.1542	-2.5292	-1.925	-2.3771	-2.3208	-18.639	6.377	10.888	-144.406	57.215	76.364	152.746	-112.216	109.005	177.458	154.647	-88.804	96.771	178.968	194.976	173.584	0.0012893	0.00044594	0.00036775	784.21	5.5562e-06	1.1234e-05	595.77	295.35	1.7689e-05	2.5124e-05	270.45	105.32	107.37	43.901	9.4074e-06	46.617	0.0069679	0.0073212	0.0020562	949.97	8.0273e-05	8.1443e-05	752.13	348.37	8.0178e-05	8.1163e-05	362.6	133.49	145.59	53.2	7.9639e-05	59.65	86.691	181.676	3.651	-148.350	-31.058	-0.093	-149.576	-142.266	178.875	18.191	-145.476	-140.790	-138.568	-132.777	7.236	-136.987	-8191	255	
7103.581	1	1	0	0	0.23834	0.13797	0.20799	0.31476	0.39801	0.17727	0.037633	0.24461	0.30185	0.091658	0.15673	0.14925	0.072256	0.29688	0.11048	0.29609	-1.4021	-2.6542	-1.9875	-1.9583	-2.3896	-1.7437	-2.3875	-2.5125	-1.7437	-2.7229	-2.1333	-2.1271	-2.5167	-1.9	-2.1542	-2.3479	193.850	31.828	140.500	-118.071	162.343	128.446	-34.418	116.738	87.479	-153.417	155.629	-69.778	146.349	179.644	-156.801	161.247	0.0013449	0.0016515	0.00060804	772.12	2.1319e-05	1.3554e-05	585.14	292.14	1.6093e-05	2.3228e-05	267.54	104.19	106.71	43.828	9.8451e-06	46.805	0.006776	0.00701	0.0019477	923.58	7.2685e-05	7.2823e-05	716.92	334.9	6.7271e-05	6.6954e-05	338.06	125.11	134.47	50.308	6.0157e-05	55.545	74.102	-137.618	-61.485	-147.863	-38.206	34.401	-150.340	-142.605	-83.540	22.201	-145.157	-141.201	-137.866	-132.736	165.207	-136.504	-8191	255	
7103.677	1	1	0	0	0.38822	0.12076	0.036596	0.20056	0.12914	0.18137	0.32342	0.16235	0.30083	0.13171	0.21159	0.21111	0.13722	0.13506	0.18733	0.067859	-1.2062	-2.3833	-2.0812	-2.1063	-2.6583	-1.875	-2.3063	-2.5833	-1.8021	-2.3833	-2.3812	-1.8583	-2.4708	-2.1021	-2.0938	-2.5208	80.592	132.182	-142.123	-157.821	133.085	146.729	160.533	136.174	96.003	79.563	-151.971	145.974	114.125	36.090	-14.381	-63.814	0.0010315	0.00061502	0.00033134	761.97	8.0945e-06	1.9175e-05	581.91	289.28	2.1192e-05	9.1842e-06	265.23	103.98	106.62	43.944	1.2031e-05	46.415	0.0050319	0.0052194	0.0014388	865.55	5.393e-05	5.4221e-05	674.8	319.13	5.2255e-05	5.288e-05	319.77	120.1	128.32	49.076	5.2593e-05	54.236	67.788	171.686	-95.863	-148.020	-129.926	-7.464	-149.696	-142.455	-55.322	32.232	-145.234	-140.534	-138.367	-132.862	-110.658	-136.634	-8191	255	
7103.798	1	1	0	0	0.19921	0.17783	0.12717	0.17935	0.10999	0.029232	0.26466	0.12816	0.018557	0.031311	0.19127	0.070248	0.13757	0.086404	0.11733	0.17339	-1.4625	-2.4688	-2.1688	-2	-2.5333	-1.9042	-2.3583	-2.775	-1.8583	-2.2542	-2.2583	-2.0062	-2.5396	-2.1521	-2.0896	-2.6958	-33.092	-1.584	93.742	28.986	-136.738	37.137	115.576	110.385	113.222	126.198	-32.721	155.676	193.342	167.835	-27.764	-121.888	0.0013823	0.00057233	0.00056302	770.7	9.5875e-06	1.4318e-05	584.22	291.11	1.9367e-05	1.8105e-05	267.26	104.31	105.73	43.779	9.1517e-06	46.728	0.0046271	0.0049145	0.0013737	863.81	5.3558e-05	5.4704e-05	677.88	319.55	5.3332e-05	5.4354e-05	321.56	120.16	128.19	49.045	5.1517e-05	54.018	74.273	176.088	-42.908	-148.187	173.714	-144.530	-150.028	-142.376	-99.322	39.403	-145.359	-140.747	-138.406	-133.012	-158.303	-136.507	-8191	255	
7103.894	1	1	0	0	0.14232	0.024249	0.18613	0.13191	0.32042	0.10035	0.41835	0.23046	0.12383	0.082145	0.07339	0.24102	0.18762	0.10714	0.2463	0.16354	-1.5521	-2.3833	-2.2604	-1.9104	-2.4875	-2.0938	-2.1604	-2.7417	-1.9021	-2.2292	-2.4417	-1.8229	-2.4104	-2.275	-1.7792	-2.6	45.411	-145.895	-159.446	-83.836	-92.322	179.776	158.570	-153.528	-68.674	189.357	-105.705	90.921	90.108	117.573	-26.770	33.566	0.0017722	0.0009688	0.00013936	769.14	2.0635e-05	3.2335e-06	589.17	291.48	2.0186e-05	4.7663e-06	266.71	104.57	106.53	43.975	6.7822e-06	47.03	0.0044403	0.0045993	0.0012592	850.13	4.7641e-05	4.7342e-05	662.74	313.74	4.4308e-05	4.3937e-05	308.7	116.14	122.46	47.562	3.9247e-05	51.905	63.302	-47.865	-136.550	-148.219	20.240	9.693	-149.887	-142.454	181.216	78.107	-145.073	-141.023	-138.541	-132.747	52.953	-136.988	-8191	255	
7103.966	1	1	0	0	0.13374	0.20015	0.21251	0.40928	0.2236	0.23383	0.16092	0.027214	0.06326	0.24461	0.128	0.14251	0.21613	0.14349	0.067896	0.20054	-1.3042	-1.9271	-2.3792	-1.7917	-2.3708	-2.325	-2.025	-2.5375	-1.9854	-2.1521	-2.6167	-1.9167	-2.4708	-2.4938	-1.8521	-2.5979	124.357	56.687	1.162	-160.587	-116.620	176.644	134.166	-154.019	145.928	59.848	-11.358	-113.688	33.378	163.230	-114.077	171.162	0.0010429	0.0010012	0.00019707	781.97	4.0331e-06	6.7672e-06	599.85	294.29	3.5979e-06	1.7979e-05	271.76	105.41	107.04	44.592	1.1567e-05	47.087	0.0032019	0.0032309	0.00089152	826.27	3.4433e-05	3.5051e-05	645.86	306.6	3.4001e-05	3.4325e-05	300.33	114.21	119.7	47.277	3.5247e-05	51.615	65.609	-83.763	-9.850	-148.213	137.598	23.855	-149.897	-142.698	-152.833	-3.781	-145.198	-140.897	-138.669	-132.901	62.279	-136.547	-8191	255	
7104.062	1	1	0	0	0.095643	0.11362	0.071735	0.40934	0.15309	0.028792	0.33461	0.18947	0.23815	0.18351	0.10931	0.1416	0.29222	0.10051	0.14297	0.2917	-1.7521	-2.1354	-2.45	-1.7271	-2.0271	-2.5042	-1.9188	-2.6042	-2.1417	-2	-2.4521	-1.9354	-2.3125	-2.4229	-1.6604	-2.6542	116.469	-76.255	-102.868	110.529	62.858	-4.267	32.930	76.797	154.156	94.685	34.231	184.029	196.470	167.534	187.672	141.618	0.0014379	0.00068319	0.00014756	784.68	1.1766e-05	4.0537e-06	594.53	292.63	1.8507e-05	1.2141e-06	268.83	105.28	106.72	43.953	2.2507e-06	46.955	0.0031573	0.0033393	0.00093407	832.49	3.732e-05	3.8175e-05	652.9	309.2	3.857e-05	3.9263e-05	304.53	115.47	122.08	47.591	3.8772e-05	52.166	77.772	-79.248	-97.876	-148.358	2.858	23.699	-149.657	-142.593	-22.598	-37.831	-145.308	-140.658	-137.966	-133.387	-118.248	-137.214	-8191	255	
7104.182	1	1	0	0	0.24223	0.084784	0.18503	0.3306	0.066136	0.19895	0.21219	0.39189	0.35472	0.1645	0.11697	0.27326	0.20557	0.09249	0.14252	0.11339	-1.7521	-1.7833	-2.5625	-1.7771	-2.4104	-2.4375	-1.9896	-2.5021	-2.1708	-1.8937	-2.5917	-2.2125	-2.2812	-2.6146	-1.9708	-2.55	128.570	94.781	107.820	168.594	-94.996	18.908	-150.928	178.257	53.722	-43.299	-108.000	-151.307	127.631	29.793	-8.437	39.281	0.0014398	0.0010359	0.00028174	776.85	7.4106e-06	1.0407e-05	593.29	293.52	7.7162e-06	2.7477e-05	268.86	105.17	107.28	44.487	4.7834e-06	46.633	0.0034777	0.0036323	0.001008	837.31	3.9319e-05	3.9104e-05	651.51	308.65	3.6791e-05	3.7099e-05	301.62	114.32	120.5	47.435	3.5874e-05	51.68	77.314	-150.494	-122.858	-148.037	-97.770	-27.094	-150.037	-142.535	-13.779	36.744	-145.001	-141.178	-138.480	-133.158	-140.084	-137.019	-8191	255	
7104.277	1	1	0	0	0.36748	0.051504	0.18448	0.016776	0.046923	0.068795	0.18956	0.18002	0.24854	0.1156	0.093298	0.086961	0.20543	0.19864	0.11714	0.15629	-1.8583	-2.0563	-2.5208	-1.9042	-2.0146	-2.4583	-1.8229	-2.4729	-2.2583	-1.8875	-2.4396	-2.1375	-1.975	-2.7875	-1.7542	-2.4646	100.131	-44.311	195.820	100.990	-43.443	-82.068	173.565	164.986	36.417	-140.465	-21.333	124.821	-116.786	167.050	138.148	142.317	0.0010618	0.00076062	0.00041438	774.75	1.1478e-05	7.926e-06	600.02	293.13	2.1684e-05	1.2654e-05	270.31	105.13	106.54	44.396	8.8191e-06	47.037	0.0032502	0.0033774	0.00094463	830.98	3.7834e-05	3.8191e-05	654.38	308.75	3.8313e-05	3.87e-05	304.15	115.17	120.84	47.608	3.8579e-05	52.19	74.326	-42.754	-36.635	-148.230	-49.142	-76.434	-149.982	-142.652	-21.604	-29.850	-145.312	-140.774	-138.186	-132.954	186.533	-136.627	-8191	255	
7104.373	1	1	0	0	0.11525	0.27123	0.18113	0.089116	0.14232	0.24631	0.1916	0.20259	0.16278	0.054733	0.38263	0.25123	0.2059	0.32735	0.16043	0.075023	-1.7479	-1.8021	-2.3125	-2.2208	-1.9583	-2.3771	-1.9667	-2.2979	-2.3792	-1.6271	-2.5396	-2.3125	-2.0062	-2.5708	-1.925	-2.2083	105.948	-110.943	-84.903	-153.822	-118.317	159.625	141.858	110.202	59.019	-97.093	165.769	110.079	-117.306	172.450	-71.633	93.901	0.0013317	0.0012739	0.00021281	781.15	4.3284e-06	1.0892e-05	602.64	293.59	1.2931e-05	2.1629e-06	270.04	104.98	106.99	44.079	8.9675e-06	46.543	0.0034595	0.0036378	0.0010264	844.94	4.1266e-05	4.2172e-05	665.61	313.95	4.3695e-05	4.5097e-05	314.96	118.46	125.84	48.588	4.8157e-05	53.74	83.279	-105.903	105.057	-148.229	69.371	-65.521	-149.739	-142.962	70.626	9.281	-145.482	-140.508	-138.310	-132.751	-8.311	-136.667	-8191	255	
7104.469	1	1	0	0	0.19032	0.19572	0.050622	0.13819	0.15747	0.14019	0.41481	0.26464	0.13607	0.096677	0.075227	0.24594	0.18308	0.15441	0.091791	0.15058	-2.1146	-1.7812	-2.3312	-2.1813	-1.7417	-2.6083	-1.9875	-2.15	-2.4229	-1.8542	-2.5187	-2.3354	-1.9479	-2.5563	-2.0354	-2.0646	48.655	193.869	179.674	154.191	-9.057	68.082	55.803	136.150	124.030	0.512	-44.698	149.271	171.935	44.696	-55.849	124.213	0.0012658	0.0016812	0.00029683	777.16	4.3081e-06	1.8037e-05	594.47	294.04	1.5054e-05	3.6965e-06	270.5	104.91	106.98	44.061	5.8593e-06	46.712	0.0043118	0.0045835	0.0013028	869.06	5.1378e-05	5.2873e-05	686.17	323.32	5.4041e-05	5.581e-05	328.6	122.82	132.36	50.204	5.9383e-05	56.012	39.972	-15.325	-14.402	-147.976	191.828	65.333	-149.746	-142.579	-77.793	-160.383	-145.305	-140.616	-138.233	-133.101	150.209	-136.671	-8191	255	
7104.565	1	1	0	0	0.28136	0.087877	0.12686	0.10015	0.04128	0.11649	0.10116	0.26515	0.067272	0.045177	0.31113	0.052297	0.037433	0.23541	0.037186	0.17173	-2.05	-1.8521	-2.3854	-2.2771	-1.7333	-2.4417	-2.1625	-2.1729	-2.4292	-1.8354	-2.3167	-2.4	-1.9604	-2.5583	-2.2188	-2.1771	158.000	165.884	-23.631	163.532	196.709	46.354	146.864	166.061	38.221	-14.598	105.135	107.345	191.360	107.335	124.028	77.981	0.0012658	0.00083463	0.00018278	774.66	1.3413e-05	9.0421e-06	586.86	294.26	2.11e-05	1.2614e-05	270.42	104.84	107.45	43.985	1.059e-05	46.57	0.0053326	0.0056235	0.0015968	897.18	6.3244e-05	6.4373e-05	709.58	333.57	6.4874e-05	6.6337e-05	342.64	126.76	137.18	51.189	6.6083e-05	56.955	71.380	-55.907	79.636	-147.993	-80.258	195.370	-149.958	-142.591	51.185	-6.914	-145.707	-141.123	-138.468	-133.290	25.852	-136.773	-8191	255	
7104.661	1	1	0	0	0.1638	0.076216	0.1357	0.33264	0.29451	0.073274	0.14548	0.060776	0.046791	0.094724	0.13829	0.18969	0.18073	0.2743	0.23545	0.15147	-2.0792	-1.8875	-2.1854	-2.3625	-1.8188	-2.4938	-2.1063	-1.9917	-2.625	-1.8979	-2.0354	-2.55	-1.8354	-2.7	-2.1458	-1.9854	-115.740	135.907	170.722	142.101	88.878	51.388	123.406	-75.661	-12.102	2.941	167.144	142.839	-111.707	-155.502	-77.994	146.331	0.0011039	0.00069322	0.0003839	775.22	1.7847e-06	7.8524e-06	589.8	293.33	1.833e-05	7.1784e-06	265.86	104.82	106.64	43.726	1.5812e-05	46.183	0.0057147	0.0060003	0.0016814	898.48	6.5069e-05	6.5976e-05	709.45	331.6	6.4433e-05	6.5641e-05	339.51	126.1	135.54	50.758	6.3317e-05	56.294	56.126	-85.445	24.095	-148.707	-76.480	-52.821	-149.472	-142.603	27.792	3.904	-145.960	-140.830	-138.449	-132.803	12.329	-136.941	-8191	255	
7104.782	1	1	0	0	0.1797	0.18151	0.21361	0.12914	0.24568	0.23217	0.15557	0.12052	0.13439	0.23666	0.22947	0.18237	0.21723	0.11361	0.11711	0.32253	-2.1542	-1.7729	-1.975	-2.5646	-1.8563	-2.2625	-2.3063	-2.1312	-2.5292	-2.1167	-2.1833	-2.675	-2.0229	-2.1958	-2.2208	-1.85	108.580	-98.538	-77.258	-80.684	83.668	143.676	43.625	198.018	-143.814	10.107	-120.449	-108.042	128.539	139.893	136.646	-109.245	0.0016456	0.00020043	0.00045073	768.88	6.371e-06	3.1922e-06	584.42	291.22	8.8302e-06	1.7122e-05	268.75	105.75	106.43	43.771	5.1663e-06	46.157	0.0054823	0.0057809	0.0016257	890.39	6.3333e-05	6.5434e-05	707.37	331.8	6.62e-05	6.8288e-05	345.62	128.23	139.14	51.568	7.1294e-05	57.718	58.300	125.423	171.067	-148.149	-10.325	-106.057	-149.505	-142.634	136.248	-115.564	-145.534	-141.073	-138.187	-132.822	10.552	-136.999	-8191	255	
7104.878	1	1	0	0	0.24449	0.084784	0.17549	0.24648	0.11913	0.17505	0.25673	0.33321	0.07462	0.11337	0.061788	0.28358	0.24125	0.12834	0.20803	0.070314	-2.1708	-2.0833	-2.0208	-2.4104	-1.8854	-2.1917	-2.4542	-1.8583	-2.3875	-1.9708	-2.1104	-2.7542	-2.0604	-2.2729	-2.45	-1.7042	-87.707	-17.611	23.940	193.326	37.238	38.728	121.266	193.859	-104.215	-45.558	-130.639	195.773	62.277	-57.843	87.556	48.075	0.0016255	0.0021149	0.00041204	768.5	1.4306e-05	7.0266e-06	584.15	291.68	7.8616e-06	1.8092e-05	267.52	104.74	105.83	43.346	1.7717e-05	46.122	0.0062228	0.0065214	0.0018027	906.73	6.896e-05	6.9624e-05	714.33	332.33	6.6863e-05	6.7522e-05	339.96	125.71	135.79	50.537	6.3507e-05	55.841	87.817	-128.777	-54.159	-148.254	-57.093	143.444	-149.614	-142.391	-0.866	59.774	-145.350	-140.613	-138.087	-132.743	-0.352	-136.579	-8191	255	
7104.974	1	1	0	0	0.11657	0.023253	0.11884	0.18239	0.056444	0.25653	0.028578	0.34225	0.20584	0.14743	0.16913	0.22301	0.1108	0.063638	0.16964	0.20684	-1.9312	-1.95	-1.6708	-2.4938	-2.0146	-1.9438	-2.3812	-1.7958	-2.4917	-2.1729	-2.1208	-2.6813	-1.9208	-2.0083	-2.4167	-1.8833	174.587	155.435	-32.847	96.975	119.339	-32.274	58.921	164.290	4.317	58.928	187.210	65.047	146.405	55.393	147.199	-151.540	0.0011992	0.00054095	0.00028103	767.03	1.5985e-05	1.2732e-05	585.34	290.2	5.2468e-06	2.2778e-06	266.93	103.85	106.72	43.427	1.6052e-05	46.034	0.0054918	0.0056922	0.0015547	879.17	5.9395e-05	5.9832e-05	687.43	322.67	5.6513e-05	5.6348e-05	323.99	120.52	129.19	48.852	5.235e-05	53.694	57.846	-120.451	-155.013	-148.482	-146.881	38.537	-149.763	-142.468	-58.433	-10.437	-144.651	-140.977	-138.336	-132.988	-128.813	-136.860	-8191	255	
7105.071	1	1	0	0	0.07368	0.060691	0.1947	0.19367	0.13695	0.08098	0.18568	0.42217	0.00050722	0.23886	0.11147	0.42103	0.066427	0.1462	0.083856	0.24805	-1.7542	-2.3396	-1.8604	-2.3979	-2.1917	-1.8375	-2.3563	-2.025	-2.3396	-2.4521	-1.8708	-2.4146	-2.0312	-2.0917	-2.3604	-1.8042	61.522	-96.826	-119.646	173.020	-64.786	78.212	-49.356	150.473	180.000	77.472	186.942	106.954	-34.158	75.520	96.318	-147.300	0.0013037	0.0002269	0.00051623	765.3	2.7444e-06	1.2839e-05	586.56	288.28	3.6047e-05	1.1796e-05	268.96	104.61	105.87	43.433	1.2104e-05	45.932	0.0045822	0.0047326	0.0013074	857.59	5.1256e-05	5.2114e-05	675.29	318.68	5.3206e-05	5.4665e-05	324.5	121.34	130.48	49.41	5.6808e-05	54.815	69.450	98.650	188.426	-148.295	169.265	50.213	-149.616	-142.634	-11.680	-61.079	-145.149	-140.605	-137.855	-133.104	4.481	-136.762	-8191	255	
7105.191	1	1	0	0	0.26216	0.053522	0.15259	0.18666	0.11766	0.27956	0.18952	0.04822	0.14472	0.12924	0.15904	0.046521	0.27808	0.21766	0.16722	0.10918	-1.8083	-2.3271	-1.7188	-2.6729	-2.0687	-1.825	-2.5375	-2	-2.3271	-2.3979	-1.9333	-2.4229	-2.1125	-2.0771	-2.4792	-2.1021	191.087	181.233	78.411	80.131	36.565	-62.556	102.707	141.452	71.900	14.956	121.110	-144.906	156.781	-125.375	138.754	154.911	0.0015562	0.00095043	0.00031609	763.4	5.1446e-06	8.2562e-06	585.45	290.78	6.9665e-06	6.5721e-06	267.94	104.88	105.72	43.362	2.2268e-05	46.095	0.0051557	0.0054011	0.0015099	880.06	6.1059e-05	6.1785e-05	697.84	327.82	6.2485e-05	6.3096e-05	336.02	125.01	134.97	50.225	6.3097e-05	56.085	60.621	-103.958	63.518	-148.046	-110.756	-112.876	-150.226	-142.577	198.940	-48.107	-145.670	-141.109	-138.870	-133.200	-20.324	-136.896	-8191	255	
7105.261	1	1	0	0	0.13494	0.14874	0.27885	0.27419	0.27202	0.12095	0.31071	0.077862	0.081537	0.13788	0.27085	0.13225	0.14342	0.13427	0.16467	0.34994	-1.5875	-2.2646	-1.7563	-2.5396	-2.2833	-1.8542	-2.6229	-2.0396	-2.0979	-2.5333	-1.9042	-2.3771	-2.5417	-1.8188	-2.5229	-2.2417	186.848	77.445	118.684	165.486	21.838	-51.111	197.627	98.047	-118.160	7.711	92.779	-127.630	-84.255	192.561	98.057	194.633	0.0016349	0.0025596	0.00057851	765.77	9.8346e-06	6.1831e-06	584.56	290.21	1.0773e-05	1.4266e-05	267.98	103.23	105.86	42.99	9.6229e-06	45.547	0.0055668	0.0057423	0.0015902	885.79	6.154e-05	6.1845e-05	695.42	326.16	6.0973e-05	6.1143e-05	332.25	123.51	133.16	49.673	6.0889e-05	55.467	59.276	-93.869	-15.047	-148.090	127.356	72.997	-149.441	-142.681	47.446	20.102	-145.548	-140.740	-138.192	-133.308	-108.533	-136.412	-8191	255	
7105.357	1	1	0	0	0.12233	0.098647	0.11598	0.059929	0.095744	0.18953	0.10126	0.30808	0.094599	0.13675	0.10579	0.20373	0.31581	0.26758	0.080296	0.21221	-1.6354	-2.5833	-1.7375	-2.3229	-2.2958	-1.8042	-2.5312	-2.1667	-1.9813	-2.5396	-2.1271	-2.1958	-2.4229	-1.75	-2.2896	-2.2146	139.150	177.456	68.457	107.013	-136.104	-149.321	95.856	188.236	-36.552	54.216	12.565	127.806	94.696	-158.756	171.948	140.796	0.0010797	0.0024532	4.0795e-05	761.02	1.2845e-05	2.2841e-05	583.94	288.55	1.1531e-05	1.3294e-05	267.56	103.2	105.71	43.279	4.5208e-06	45.741	0.0053757	0.0055654	0.0015496	878.74	6.0123e-05	6.0783e-05	691.99	325.23	6.0298e-05	6.1265e-05	332.74	123.2	133.06	49.775	6.1145e-05	55.282	81.154	-94.062	-57.347	-148.232	-138.831	19.789	-149.966	-142.043	-15.957	121.065	-145.892	-141.073	-138.424	-132.860	153.953	-136.479	-8191	255	
7105.478	1	1	0	0	0.13851	0.21207	0.28244	0.2132	0.1115	0.074682	0.20956	0.22855	0.10214	0.20766	0.12583	0.15701	0.12931	0.097713	0.11291	0.099961	-1.45	-2.5583	-1.9854	-2.2917	-2.4833	-1.8583	-2.5146	-2.3708	-1.875	-2.4667	-2.0187	-2.2396	-2.4854	-2.0438	-2.4479	-2.3104	-99.940	104.690	2.625	-56.236	-108.093	121.484	196.201	133.500	-59.603	-69.938	119.325	195.558	-20.830	89.910	136.364	139.290	0.0016104	0.00094308	0.00083147	763.06	1.3647e-05	2.1761e-05	581.96	290.94	2.3871e-05	2.58e-05	267.58	103.32	105.79	43.172	2.8784e-05	45.768	0.0053858	0.0056487	0.0015846	883.32	6.2679e-05	6.3892e-05	697.67	329.01	6.4244e-05	6.4815e-05	338.05	125.15	135.78	50.464	6.612e-05	56.422	55.567	-14.917	-111.053	-148.284	-50.475	-45.388	-149.588	-142.144	-41.441	-19.960	-145.502	-140.638	-138.280	-132.728	129.319	-136.591	-8191	255	
7105.574	1	1	0	0	0.013861	0.13946	0.092351	0.33266	0.057776	0.17811	0.18805	0.36628	0.22856	0.13584	0.10341	0.46698	0.20903	0.14351	0.1229	0.14319	-1.4937	-2.4833	-1.9146	-2.0687	-2.4042	-1.8854	-2.3396	-2.4562	-1.8208	-2.7604	-2.1437	-2.0938	-2.6771	-2.0646	-2.2062	-2.525	32.686	-66.849	93.362	-159.291	-34.248	127.456	-75.424	153.475	142.245	93.552	-92.283	55.069	-92.475	181.850	-32.765	86.525	0.0019403	0.0016245	0.00035523	763.67	1.0548e-05	1.9724e-05	581.06	291.54	3.7939e-05	1.2155e-05	265.61	103.43	105.34	43.208	4.8901e-06	45.869	0.0058654	0.0061777	0.0017351	896.12	6.8267e-05	6.9442e-05	712.99	335.19	7.0233e-05	7.2174e-05	347.31	128.48	139.91	51.519	7.4689e-05	57.966	65.175	27.054	81.084	-148.360	-7.837	103.075	-150.126	-142.453	-24.035	186.986	-145.281	-140.914	-138.320	-133.023	172.469	-136.840	-8191	255	
7105.670	1	1	0	0	0.097186	0.28145	0.19744	0.1711	0.34119	0.17217	0.11096	0.10465	0.14739	0.145	0.20584	0.16116	0.13568	0.11037	0.1512	0.10244	-1.4104	-2.4875	-2.1	-2.0667	-2.5229	-1.875	-2.2125	-2.6	-1.7104	-2.4292	-2.2812	-1.9854	-2.5021	-2.1771	-2.1083	-2.6063	103.561	-134.430	42.773	88.495	-63.396	-17.389	117.757	165.548	91.595	-47.880	-126.891	-140.044	190.837	188.070	-75.304	26.896	0.00081474	0.0012866	0.00015136	763.1	1.4773e-05	1.9411e-06	581.95	291.66	3.4756e-05	2.2694e-05	265.9	103.72	106.17	43.025	8.5333e-06	45.431	0.0065781	0.0069351	0.0019589	918.2	7.6675e-05	7.7937e-05	732.6	340.8	7.7486e-05	7.8451e-05	355.76	130.31	142.27	52.032	7.8078e-05	58.165	77.657	-135.020	-71.055	-148.064	58.270	183.424	-149.814	-142.135	149.725	-158.426	-145.290	-141.441	-138.159	-132.965	-50.333	-136.474	-8191	255	
7105.766	1	1	0	0	0.12374	0.14728	0.23033	0.13239	0.25423	0.10933	0.07022	0.20843	0.073564	0.089298	0.083596	0.053977	0.21979	0.22638	0.35999	0.29672	-1.3917	-2.3667	-1.9833	-1.9688	-2.3667	-2.0875	-2.1271	-2.7646	-1.7771	-2.2458	-2.2729	-1.9771	-2.5271	-2.0104	-2.1542	-2.5583	33.770	43.645	128.779	103.975	-51.558	156.507	46.109	185.823	147.401	1.328	186.381	-18.341	171.550	191.846	-35.825	142.334	0.0021199	0.00094268	0.0004894	752.71	6.9561e-06	1.3079e-05	576.18	288.7	2.6707e-05	2.5241e-05	265.12	102.78	104.08	42.603	1.2757e-05	44.59	0.0067043	0.0070674	0.0019702	911.81	7.5576e-05	7.6924e-05	722.66	336.95	7.4739e-05	7.6095e-05	348.25	127.43	138.64	50.759	7.1987e-05	56.37	69.089	-48.894	175.755	-148.722	-45.941	-50.657	-149.910	-142.564	-46.720	12.878	-145.161	-140.829	-138.264	-132.962	187.639	-136.560	-8191	255	
7105.862	1	1	0	0	0.14649	0.14883	0.050776	0.19221	0.28516	0.18735	0.10532	0.1436	0.19965	0.22621	0.12781	0.30196	0.089896	0.20356	0.16169	0.043023	-1.2521	-2.4896	-2.1583	-1.6521	-2.4125	-2.1792	-2	-2.7167	-1.7792	-2.2458	-2.4896	-1.7563	-2.4417	-2.0396	-1.8958	-2.5187	165.876	135.460	-90.885	59.423	90.822	109.693	178.750	123.777	35.584	137.136	-105.000	122.385	-152.396	161.702	95.331	103.255	0.0017038	0.0025815	0.00048191	748.66	1.2497e-05	5.6575e-06	571.55	285.99	1.3496e-05	1.6256e-05	264.15	102.1	105.35	42.792	2.6764e-05	44.823	0.0060857	0.0063725	0.0017611	884.37	6.6861e-05	6.7672e-05	695.78	325.87	6.5283e-05	6.6329e-05	334.45	123.49	134.36	49.865	6.3872e-05	55.094	88.160	100.970	-81.526	-148.201	-117.589	22.253	-149.653	-142.287	1.972	43.430	-145.293	-140.839	-138.275	-132.597	17.629	-137.003	-8191	255	
7105.959	1	1	0	0	0.32206	0.3487	0.16328	0.22892	0.14216	0.072683	0.054672	0.071287	0.15355	0.26451	0.11351	0.1101	0.22998	0.19432	0.10627	0.27288	-1.3438	-2.0417	-2.2896	-1.75	-2.5417	-1.9958	-1.8604	-2.525	-1.8417	-2.0104	-2.5354	-1.7917	-2.3563	-2.2583	-1.9708	-2.6625	-36.755	-113.068	12.946	196.782	118.104	-101.950	150.436	149.823	-81.507	-72.575	141.385	120.429	33.673	7.453	61.370	-147.711	0.0017302	0.00052992	0.00010609	754.37	7.2008e-06	1.5292e-05	574.6	287.28	5.0094e-06	2.0217e-05	262.72	102.51	105.24	42.788	7.3578e-06	45.581	0.005521	0.0057647	0.0015841	869.32	6.0572e-05	6.1875e-05	684.9	323.62	6.238e-05	6.3945e-05	332.49	123.41	134.63	49.989	6.5316e-05	55.718	51.723	-36.385	93.969	-148.197	-84.614	157.223	-149.628	-142.652	-37.124	8.707	-144.893	-140.825	-138.542	-132.507	-95.516	-136.730	-8191	255	
7106.055	1	1	0	0	0.094816	0.24083	0.16711	0.034738	0.22181	0.27893	0.11323	0.22999	0.40763	0.045293	0.13721	0.12285	0.22034	0.20933	0.058072	0.094492	-1.5562	-1.9229	-2.65	-1.9604	-2.2625	-2.2667	-1.9896	-2.7833	-1.9896	-1.9646	-2.5	-1.8854	-2.2125	-2.4062	-1.7292	-2.4396	187.097	8.626	193.152	-23.739	95.965	-18.636	-82.248	74.845	25.113	-70.062	48.800	194.660	-96.721	162.838	-32.875	1.237	0.00054635	0.0014695	0.00040416	757.88	2.0984e-05	5.7392e-06	575.69	289.46	1.9542e-05	7.1602e-06	265.34	103.69	105.05	43.078	1.5541e-05	45.622	0.0057775	0.0060668	0.0016888	882.94	6.6837e-05	6.8144e-05	700.35	330.59	6.8016e-05	6.989e-05	342.83	127.14	138.9	51.031	7.0901e-05	57.039	150.664	-33.454	49.431	-148.056	-16.669	76.855	-149.533	-142.605	-68.671	57.242	-145.661	-141.216	-138.241	-132.895	-74.330	-136.432	-8191	255	
7106.151	1	1	0	0	0.21068	0.21674	0.042125	0.30953	0.17445	0.28514	0.14852	0.086181	0.12256	0.20579	0.08404	0.11396	0.093843	0.06394	0.048015	0.14401	-1.4792	-1.7938	-2.5375	-2.1292	-2.0479	-2.5229	-2.0312	-2.5062	-2.1917	-1.9438	-2.5021	-1.7646	-2.0854	-2.3833	-1.7833	-2.3979	53.894	66.529	31.901	188.033	117.240	-52.462	13.381	147.612	-150.474	133.206	49.319	-150.600	-111.696	-101.584	23.826	193.550	0.001137	0.0019751	0.00048986	760.86	5.9183e-06	3.1539e-06	573.3	288.42	2.3062e-05	6.8398e-06	264.35	103.17	105.68	43.088	1.7609e-05	45.101	0.0062537	0.0065884	0.0018274	900.3	7.2412e-05	7.3248e-05	711.38	334.25	7.2123e-05	7.2761e-05	344.15	127.2	138.37	51.004	7.0386e-05	56.715	53.957	-16.168	-87.165	-147.819	-3.527	-12.901	-149.750	-142.547	-68.307	46.005	-145.375	-141.249	-138.452	-133.154	-131.111	-136.799	-8191	255	
7106.270	1	1	0	0	0.094769	0.21746	0.20899	0.22048	0.26026	0.10693	0.11252	0.13267	0.36331	0.043848	0.059457	0.13338	0.11086	0.1145	0.17311	0.12544	-1.7229	-1.7542	-2.4562	-1.9104	-1.9229	-2.3708	-1.8479	-2.4375	-2.2333	-1.6812	-2.6458	-2.0417	-1.925	-2.4708	-1.95	-2.4708	113.777	-12.465	-44.380	111.515	-106.223	-131.745	-83.316	131.736	93.019	49.760	100.707	-152.556	-108.720	-76.602	-22.778	162.258	0.0013344	0.00073858	0.00032918	750.48	2.1304e-06	1.0373e-05	567.21	287.13	3.811e-05	1.5624e-05	261.21	102.08	105.15	42.625	2.1668e-05	45.013	0.0062307	0.0065016	0.0018192	893.44	7.138e-05	7.1684e-05	702.34	331.29	6.9962e-05	7.0152e-05	338.61	125.05	136	50.148	6.6186e-05	55.465	66.283	18.939	-118.389	-148.254	1.074	-112.016	-149.841	-142.740	-12.170	-8.805	-145.688	-141.113	-138.706	-133.005	-49.573	-136.795	-8191	255	
7106.366	1	1	0	0	0.0825	0.075336	0.11354	0.22549	0.040434	0.16954	0.35605	0.21029	0.19427	0.090689	0.01827	0.061978	0.043583	0.17305	0.089814	0.18427	-1.75	-1.7792	-2.4146	-2.1271	-1.7563	-2.4875	-1.7917	-2.3333	-2.1271	-1.7479	-2.4479	-1.9813	-1.9083	-2.4542	-1.8312	-2.0125	76.841	-63.437	4.300	-78.807	20.296	-64.074	136.263	137.649	-110.477	-107.253	-35.171	140.602	-104.742	169.537	-98.701	109.378	0.0015704	0.00085316	0.00033727	744.64	1.9908e-05	1.77e-05	565.17	286.48	2.6614e-05	1.1232e-05	261.39	102.21	103.76	42.764	1.249e-05	44.96	0.0057794	0.0059949	0.0016756	876.24	6.581e-05	6.6349e-05	692.53	326.79	6.6384e-05	6.7176e-05	335.73	124.51	135.54	50.237	6.8772e-05	56.147	70.922	25.675	-27.973	-147.818	-78.973	173.028	-149.746	-142.739	-143.177	142.455	-144.759	-140.628	-137.837	-132.745	4.299	-136.631	-8191	255	
7106.462	1	1	0	0	0.095481	0.094378	0.14684	0.10339	0.29006	0.24663	0.19262	0.18971	0.20333	0.11706	0.036481	0.037192	0.11739	0.048132	0.087174	0.2345	-1.8625	-1.6396	-2.2979	-2.2167	-1.9167	-2.4792	-1.8521	-2.1542	-2.3854	-1.7271	-2.2458	-2.3542	-1.8646	-2.4562	-1.8854	-2.2396	68.886	-135.486	-19.435	71.738	-91.616	136.081	152.720	-146.674	132.069	185.875	-11.599	41.566	5.046	-152.769	-109.055	180.328	0.00091744	0.0011355	0.00014233	752.26	1.3042e-05	1.0206e-05	566.94	287.46	6.3954e-06	5.0185e-06	262.43	101.92	105.37	42.372	3.6799e-06	45.207	0.0060952	0.0064177	0.001812	894.35	7.0477e-05	7.1374e-05	702.77	331.69	7.1027e-05	7.25e-05	344.52	126.75	139.35	51.012	7.4219e-05	57.378	49.628	37.448	128.306	-147.966	-9.992	-140.147	-149.633	-142.693	197.563	94.469	-145.146	-140.747	-138.358	-132.749	102.201	-136.560	-8191	255	
7106.558	1	1	0	0	0.27026	0.18563	0.20448	0.13565	0.18373	0.04554	0.080945	0.14556	0.024582	0.11209	0.21319	0.072359	0.084195	0.26069	0.16173	0.26438	-2.0062	-1.65	-2.1625	-2.2979	-1.9375	-2.5187	-2.0187	-2.1063	-2.3771	-1.5146	-2.2771	-2.3271	-1.8896	-2.5021	-1.9521	-1.8625	20.310	127.265	-15.316	-104.540	22.808	89.633	152.041	112.146	3.759	105.739	120.082	162.051	-115.953	161.032	35.899	-128.832	0.0015628	0.0016954	0.000397	755.01	1.9044e-05	1.0118e-05	573.43	286.96	1.9972e-05	3.3015e-05	262.96	102.36	104.46	42.801	1.5391e-05	45.172	0.0065274	0.0068884	0.0019385	909.47	7.509e-05	7.6118e-05	718.26	335.14	7.4105e-05	7.4865e-05	348.19	127.37	139.03	50.908	7.3384e-05	57.03	70.417	42.916	106.939	-147.916	-35.966	-3.928	-149.490	-142.392	-156.326	23.172	-145.009	-141.495	-138.702	-133.662	57.948	-137.326	-8191	255	
7106.654	1	1	0	0	0.067857	0.12409	0.16371	0.36648	0.025649	0.058678	0.317	0.061905	0.27391	0.29831	0.26449	0.11642	0.15437	0.062992	0.1555	0.11522	-2.2313	-1.6208	-2.3333	-2.4083	-1.9146	-2.1937	-2.1979	-1.8854	-2.4917	-1.6833	-2.2646	-2.5479	-1.8188	-2.5167	-2.0729	-1.8292	-48.719	163.824	-52.842	185.523	131.166	82.653	172.253	176.974	108.429	19.522	169.780	99.401	159.039	-49.463	-89.942	-50.572	0.001444	0.00033311	0.00022452	751.37	1.3398e-05	1.823e-05	571.28	286.02	3.958e-06	5.5476e-06	262.2	102.91	104.92	42.478	1.6347e-05	44.653	0.0063913	0.0067357	0.0018859	899.65	7.3158e-05	7.4044e-05	710.16	333.18	7.2553e-05	7.3531e-05	343.99	126.97	138.37	50.833	7.2872e-05	56.567	56.283	-42.977	-134.828	-148.223	-6.067	-2.393	-149.308	-142.970	28.413	-8.596	-145.565	-140.450	-138.143	-132.737	84.553	-136.789	-8191	255	
7106.751	1	1	0	0	0.28088	0.32144	0.14156	0.56963	0.074564	0.20231	0.31467	0.17181	0.1757	0.0035438	0.16879	0.04323	0.29457	0.14629	0.14231	0.073325	-2.0667	-1.825	-1.8958	-2.6604	-1.7792	-2.375	-2.4188	-1.8646	-2.5271	-2.0771	-2.1167	-2.4979	-1.8479	-2.55	-2.0354	-1.8729	40.152	180.101	-119.531	156.537	5.849	-71.574	14.806	100.808	191.166	83.615	-148.344	-118.424	102.272	153.481	-159.895	103.771	0.00091173	0.00017986	0.00037305	747.46	1.1963e-05	1.4618e-06	563.41	286.35	5.4449e-06	2.2344e-05	259.7	102.96	104.97	42.783	2.3228e-05	44.466	0.0063224	0.0066356	0.0018308	892.47	7.1321e-05	7.3031e-05	706.71	332.32	7.1912e-05	7.339e-05	344.73	127.14	139.39	51.202	7.4181e-05	56.781	64.718	13.739	-92.579	-148.369	-42.274	65.856	-149.736	-142.785	138.575	-18.480	-145.579	-140.886	-138.373	-132.611	29.514	-136.527	-8191	255	
7106.871	1	1	0	0	0.24081	0.15154	0.31368	0.43232	0.13265	0.18521	0.14475	0.28982	0.056911	0.16426	0.10335	0.21684	0.36571	0.22961	0.19912	0.035546	-2.05	-1.9937	-1.6187	-2.5479	-1.7667	-2.3604	-2.4146	-1.7479	-2.3979	-2.2313	-2.2125	-2.5938	-1.9312	-2.2021	-2.3333	-1.7729	-88.395	57.750	43.031	127.004	-22.515	-107.251	95.989	149.920	-157.567	171.329	113.988	18.243	-155.509	192.955	-101.978	161.353	0.0013134	0.0016707	0.00031259	749.91	2.8695e-05	1.2257e-05	572.18	288.25	1.0903e-05	1.0164e-05	264.32	102.88	106.34	42.737	2.1241e-05	44.938	0.0064696	0.0068169	0.0018845	897.35	7.2648e-05	7.3473e-05	706.23	331.74	7.0999e-05	7.2174e-05	343.03	126.2	137.53	50.51	6.9362e-05	56.174	104.639	22.635	-69.024	-148.317	-153.546	5.633	-149.797	-142.482	113.541	79.375	-145.783	-140.565	-137.781	-132.955	2.122	-136.885	-8191	255	
7106.967	1	1	0	0	0.045673	0.16825	0.029838	0.072075	0.35833	0.14939	0.31242	0.24624	0.12036	0.17565	0.34575	0.066956	0.073757	0.072738	0.18173	0.078174	-2.0646	-2.2188	-1.9479	-2.7	-1.8312	-2.1167	-2.5729	-1.9167	-2.3229	-2.1937	-1.9625	-2.725	-2.0417	-2.1229	-2.4646	-1.7708	98.559	-22.664	-16.584	28.428	11.198	-11.801	191.933	120.295	-29.671	110.941	146.291	24.676	-128.567	174.087	-128.660	169.516	0.0020891	0.0012826	0.00043854	749.93	1.199e-05	1.5284e-05	565.76	286.03	2.9413e-05	5.4674e-06	264.3	102.7	105.67	42.631	6.4435e-06	45.214	0.0060896	0.0064163	0.0017789	884.46	6.8168e-05	6.9e-05	696.89	328.33	6.8062e-05	6.9331e-05	338.57	124.95	136.41	50.423	6.8357e-05	56.209	39.033	58.671	-151.920	-147.829	-107.683	4.484	-150.100	-142.740	-7.114	160.765	-145.663	-140.861	-137.976	-132.870	76.128	-136.791	-8191	255	
7107.062	1	1	0	0	0.20047	0.17726	0.19844	0.23204	0.37603	0.11542	0.18837	0.16585	0.12712	0.21556	0.26488	0.36471	0.16146	0.14794	0.097168	0.2089	-1.9062	-2.2687	-2.0417	-2.5604	-1.9188	-1.9875	-2.5729	-2.0167	-2.0646	-2.1875	-1.8646	-2.5125	-2.0042	-2.1	-2.5187	-1.9125	26.991	-140.869	13.831	-139.971	197.125	-94.915	89.279	-88.179	34.265	-26.171	198.887	115.327	197.090	156.495	-67.807	-155.974	0.0014136	0.00048954	0.00015846	754.25	1.8133e-05	1.2432e-05	568.54	286.82	2.2962e-05	1.4326e-05	262.44	102.21	104.77	42.818	3.7348e-06	45.017	0.0060976	0.006413	0.0017856	894.22	7.1276e-05	7.2585e-05	706.57	332.44	7.2053e-05	7.347e-05	343.88	127.02	139.26	51.137	7.3027e-05	56.684	64.892	-155.664	-135.466	-147.742	40.656	-84.091	-149.342	-142.558	46.710	26.543	-145.722	-141.277	-138.554	-132.909	-5.145	-136.738	-8191	255	
7107.135	1	1	0	0	0.16023	0.22707	0.124	0.077828	0.076352	0.30369	0.16369	0.038474	0.26976	0.10098	0.063832	0.31359	0.12938	0.22511	0.038832	0.080976	-2.0292	-2.2792	-1.8917	-2.6208	-1.9562	-1.9708	-2.5458	-2.0583	-2.1229	-2.5333	-1.8042	-2.4333	-2.2062	-2.0354	-2.4313	-1.8021	143.616	-68.848	-79.619	167.295	-152.484	-94.155	65.869	-10.741	136.961	-52.899	87.753	120.013	185.195	109.559	121.874	131.821	0.0015447	0.0014735	0.00017125	747.35	8.3865e-06	1.3314e-06	565.04	285.88	2.1282e-05	1.5168e-05	262.33	102.17	104.86	42.889	1.5466e-05	45.229	0.0064061	0.0066615	0.0018235	892.91	6.998e-05	6.9938e-05	696.6	328.55	6.7962e-05	6.8423e-05	336.74	124.95	137.18	50.645	7.0379e-05	56.637	62.887	-64.545	33.900	-148.341	144.705	46.467	-150.183	-143.131	176.900	-89.514	-145.458	-140.715	-138.035	-132.930	134.871	-137.430	-8191	255	
7107.254	1	1	0	0	0.25085	0.20379	0.19219	0.16509	0.17887	0.067773	0.075147	0.21691	0.072956	0.11066	0.10199	0.20831	0.28303	0.16364	0.081561	0.19328	-1.6667	-2.3167	-1.5354	-2.4646	-2.1146	-1.9188	-2.5646	-2.0583	-2.0938	-2.3604	-1.85	-2.4104	-2.2979	-1.8375	-2.6417	-2.1042	176.456	21.141	137.716	129.532	-82.156	67.737	-29.749	156.846	-89.853	-124.523	31.143	-153.114	-117.723	69.046	-67.030	165.647	0.0017885	0.0010681	0.00021686	756.69	2.4385e-05	1.1074e-05	569.71	287.36	6.3614e-06	3.7707e-05	266.21	103.21	106.52	43.028	2.3737e-05	45.162	0.0063559	0.0066827	0.0018813	904.76	7.5779e-05	7.6781e-05	718.47	338.87	7.846e-05	7.9374e-05	354.62	130.91	144.07	52.243	7.9655e-05	58.543	79.586	27.850	142.146	-148.124	-120.468	-22.564	-149.341	-142.485	111.248	69.550	-145.681	-140.904	-138.119	-133.173	13.150	-136.630	-8191	255	
7107.350	1	1	0	0	0.29159	0.21811	0.44552	0.16048	0.13855	0.12715	0.11649	0.12086	0.10636	0.053982	0.1378	0.3137	0.086868	0.28673	0.30999	0.36367	-1.6333	-2.4604	-1.7667	-2.4521	-2.3667	-1.9667	-2.5896	-2.1354	-2.0417	-2.5625	-1.9917	-2.2833	-2.5125	-1.8083	-2.5521	-2.275	181.390	-119.091	-127.556	194.501	-34.690	45.735	-88.718	50.392	-63.009	32.906	-95.705	-101.183	-63.115	110.922	-99.142	133.223	0.001547	0.0014976	0.00029898	756.61	1.8313e-05	2.5196e-05	568.53	289.72	2.2459e-05	9.8297e-06	265	103.63	105.57	42.985	9.62e-06	45.056	0.0070338	0.0073434	0.0020352	920.1	8.0229e-05	8.0799e-05	727.72	342.4	8.1339e-05	8.2546e-05	358.64	131.83	145.14	52.445	8.1769e-05	58.862	69.617	54.614	142.569	-148.140	45.978	-53.714	-150.369	-142.553	26.247	40.141	-145.566	-141.369	-138.786	-133.163	120.932	-136.572	-8191	255	
7107.446	1	1	0	0	0.029228	0.20618	0.11891	0.19249	0.046066	0.13822	0.38569	0.19641	0.23667	0.10544	0.34166	0.078862	0.033777	0.13652	0.21861	0.38565	-1.3729	-2.3688	-1.8521	-2.2583	-2.475	-1.6542	-2.5521	-2.2604	-1.8312	-2.5375	-1.9125	-2.1375	-2.3792	-1.8292	-2.2979	-2.3438	7.890	115.855	149.041	132.045	-56.968	-156.366	155.626	162.297	-126.975	-14.664	184.686	-134.506	136.938	-120.925	-86.066	108.413	0.0017822	0.00064806	9.3293e-05	750.38	1.9449e-05	1.8802e-05	567.54	286.13	3.2411e-05	1.1561e-05	260.59	101.89	105.53	42.196	2.0177e-05	45.073	0.0070989	0.007344	0.0020482	917.35	7.9472e-05	7.959e-05	724.69	338.65	7.8859e-05	7.9997e-05	353.82	129.57	142.32	51.6	7.8809e-05	57.734	78.568	-120.518	-23.450	-147.874	126.122	-141.860	-149.614	-142.346	96.933	142.184	-145.105	-140.666	-138.468	-132.761	-90.753	-136.846	-8191	255	
7107.542	1	1	0	0	0.12974	0.035503	0.25849	0.28058	0.051054	0.32503	0.26835	0.22632	0.10618	0.19697	0.12685	0.17386	0.27447	0.12642	0.423	0.17192	-1.3271	-2.3937	-1.8854	-2.0958	-2.4521	-2.0083	-2.4396	-2.3979	-2.0167	-2.3833	-2.1271	-2.2396	-2.4042	-2.05	-2.4667	-2.3896	-135.421	127.904	-141.012	158.879	53.724	62.513	-116.495	95.137	194.933	-9.347	-5.605	165.446	89.923	123.245	-36.683	-73.837	0.0019372	0.0014351	0.00031248	748.9	2.6001e-05	2.0931e-05	568.43	286.37	1.837e-05	2.1934e-05	261.59	101.85	104.4	42.477	6.6568e-06	44.874	0.0067449	0.0070269	0.001955	903.09	7.4174e-05	7.4647e-05	708.93	332.27	7.1743e-05	7.2872e-05	342.18	125.86	137.77	50.559	7.1024e-05	56.214	51.828	-79.146	-7.102	-148.484	-102.507	38.514	-149.679	-142.684	86.016	28.895	-145.663	-140.899	-138.480	-132.869	-138.971	-136.888	-8191	255	
7107.663	1	1	0	0	0.11154	0.27245	0.16192	0.43574	0.081814	0.21804	0.065008	0.1453	0.038771	0.34056	0.2061	0.30956	0.03493	0.33129	0.087381	0.29031	-1.5146	-2.4292	-1.9854	-2.0771	-2.35	-1.9188	-2.225	-2.6188	-1.8854	-2.4646	-2.2417	-2.1875	-2.5542	-1.9396	-2.0375	-2.5208	87.009	148.832	147.620	191.785	-83.456	-10.155	176.820	146.178	-77.204	-146.514	109.978	141.296	-31.432	160.403	181.099	122.965	0.0012277	0.00077937	0.00038704	745.96	1.8733e-05	5.5922e-06	566.91	286.91	1.2032e-05	1.261e-05	259.1	101.35	104.49	42.433	1.5715e-05	44.67	0.0061168	0.0064059	0.0017794	887.05	6.8898e-05	6.9883e-05	698.09	329.48	6.869e-05	7.0359e-05	339.33	125.11	137.59	50.709	7.3429e-05	56.816	69.529	-106.295	-98.550	-147.792	-113.515	-26.229	-149.884	-142.251	-30.156	39.851	-145.618	-141.444	-138.954	-132.603	66.013	-136.538	-8191	255	
7107.735	1	1	0	0	0.047806	0.1452	0.068855	0.1582	0.15522	0.24192	0.27709	0.33262	0.082572	0.018317	0.15397	0.24393	0.077599	0.13384	0.2361	0.20354	-1.2625	-2.3292	-2.2438	-1.9062	-2.5438	-2.0375	-2.0604	-2.4771	-1.7146	-2.3771	-2.1583	-1.8438	-2.5417	-1.9875	-2.0229	-2.3396	192.975	28.150	144.618	179.419	106.720	-3.982	134.396	131.228	170.793	167.312	139.057	149.306	86.974	-27.598	-101.741	46.549	0.0012557	0.0014172	0.0001109	749.71	1.2311e-05	1.765e-05	575.19	287.64	3.4447e-06	2.5348e-05	264.44	102.55	105.86	42.559	3.334e-05	44.741	0.0065857	0.007025	0.0019872	912.38	7.9038e-05	8.1432e-05	731.39	342.27	8.2249e-05	8.4561e-05	362.55	131.72	146.4	52.901	8.7007e-05	59.629	63.985	-74.048	-39.155	-148.153	65.553	-30.906	-149.706	-142.174	89.457	60.618	-145.443	-141.602	-139.029	-133.602	-148.402	-136.852	-8191	255	
#DATA ENDS
