BOXY.EXE: ISS Imagent and Oximeter Data Acquisition Program Version 0.80
Ascii Record File

#ACQ INFORMATION
2  Detector Channels 
16  External MUX Channels 
1  Auxiliary Channels 
5000  Waveform (CCF) Frequency (Hz)
1  Waveforms Skipped 
30  Waveforms Averaged 
1  Cycles Averaged 
16  Acquisitions per Waveform 
10.0806  Updata Rate (Hz) 

#FILE INFORMATION
TRUE -- External MUX Channel results are PARSED.
FALSE -- AC DC and Phase are NOT grouped.
TRUE -- Companion Program Settings File CREATED.
FALSE -- AC data not excluded
FALSE -- DC data not excluded
FALSE -- Phase data not excluded
FALSE -- Auxillary Chn. data not excluded
Tab delimiters

#CALIBRATION STATE
TRUE -- Waveform Calibration Values APPLIED.


#AUX CALIBRATION VALUES
Val Type	aux-1	

Term	1.0000e+00	
Factor	0.0000e+00	


#WF CALIBRATION VALUES
A = Detector Channel
Val Type	A-AC1	A-AC2	A-AC3	A-AC4	A-AC5	A-AC6	A-AC7	A-AC8	A-AC9	A-AC10	A-AC11	A-AC12	A-AC13	A-AC14	A-AC15	A-AC16	A-DC1	A-DC2	A-DC3	A-DC4	A-DC5	A-DC6	A-DC7	A-DC8	A-DC9	A-DC10	A-DC11	A-DC12	A-DC13	A-DC14	A-DC15	A-DC16	A-Ph1	A-Ph2	A-Ph3	A-Ph4	A-Ph5	A-Ph6	A-Ph7	A-Ph8	A-Ph9	A-Ph10	A-Ph11	A-Ph12	A-Ph13	A-Ph14	A-Ph15	A-Ph16	

Term	0.00000e+00	0.00000e+00	0.00000e+00	0.00000e+00	0.00000e+00	0.00000e+00	0.00000e+00	0.00000e+00	0.00000e+00	0.00000e+00	0.00000e+00	0.00000e+00	0.00000e+00	0.00000e+00	0.00000e+00	0.00000e+00	0.00000e+00	0.00000e+00	0.00000e+00	0.00000e+00	0.00000e+00	0.00000e+00	0.00000e+00	0.00000e+00	0.00000e+00	0.00000e+00	0.00000e+00	0.00000e+00	0.00000e+00	0.00000e+00	0.00000e+00	0.00000e+00	0.00000e+00	0.00000e+00	0.00000e+00	0.00000e+00	0.00000e+00	0.00000e+00	0.00000e+00	0.00000e+00	0.00000e+00	0.00000e+00	0.00000e+00	0.00000e+00	0.00000e+00	0.00000e+00	0.00000e+00	0.00000e+00	
Factor	1.00000e+00	1.00000e+00	1.00000e+00	1.00000e+00	1.00000e+00	1.00000e+00	1.00000e+00	1.00000e+00	1.00000e+00	1.00000e+00	1.00000e+00	1.00000e+00	1.00000e+00	1.00000e+00	1.00000e+00	1.00000e+00	1.00000e+00	1.00000e+00	1.00000e+00	1.00000e+00	1.00000e+00	1.00000e+00	1.00000e+00	1.00000e+00	1.00000e+00	1.00000e+00	1.00000e+00	1.00000e+00	1.00000e+00	1.00000e+00	1.00000e+00	1.00000e+00	X	X	X	X	X	X	X	X	X	X	X	X	X	X	X	X	

B = Detector Channel
Val Type	B-AC1	B-AC2	B-AC3	B-AC4	B-AC5	B-AC6	B-AC7	B-AC8	B-AC9	B-AC10	B-AC11	B-AC12	B-AC13	B-AC14	B-AC15	B-AC16	B-DC1	B-DC2	B-DC3	B-DC4	B-DC5	B-DC6	B-DC7	B-DC8	B-DC9	B-DC10	B-DC11	B-DC12	B-DC13	B-DC14	B-DC15	B-DC16	B-Ph1	B-Ph2	B-Ph3	B-Ph4	B-Ph5	B-Ph6	B-Ph7	B-Ph8	B-Ph9	B-Ph10	B-Ph11	B-Ph12	B-Ph13	B-Ph14	B-Ph15	B-Ph16	

Term	0.00000e+00	0.00000e+00	0.00000e+00	0.00000e+00	0.00000e+00	0.00000e+00	0.00000e+00	0.00000e+00	0.00000e+00	0.00000e+00	0.00000e+00	0.00000e+00	0.00000e+00	0.00000e+00	0.00000e+00	0.00000e+00	0.00000e+00	0.00000e+00	0.00000e+00	0.00000e+00	0.00000e+00	0.00000e+00	0.00000e+00	0.00000e+00	0.00000e+00	0.00000e+00	0.00000e+00	0.00000e+00	0.00000e+00	0.00000e+00	0.00000e+00	0.00000e+00	-2.51673e+01	-1.09131e+02	-1.36792e+02	-1.83698e+02	-1.38176e+01	-7.28325e+01	-1.57869e+02	-1.62015e+02	-6.96302e+01	-9.69870e+01	-1.72092e+02	-1.75791e+02	-1.89181e+02	-1.78194e+02	-7.65473e+01	-1.51485e+02	
Factor	2.82887e-05	9.62443e-05	2.62348e-05	1.61568e-01	9.06967e-07	1.03337e-06	1.67683e-01	6.49704e-02	1.10886e-06	1.02177e-06	1.02924e-01	3.36800e-02	8.03786e-02	9.68118e-03	9.66469e-07	1.40111e-02	7.08911e-07	7.21329e-07	2.01149e-07	7.90580e-02	7.90081e-09	7.90084e-09	7.70976e-02	3.12878e-02	7.89045e-09	7.89930e-09	4.70277e-02	1.53915e-02	3.30660e-02	4.62330e-03	7.91615e-09	6.40668e-03	X	X	X	X	X	X	X	X	X	X	X	X	X	X	X	X	



#DISTANCE SETTINGS
A = Detector Channel
A-1	A-2	A-3	A-4	A-5	A-6	A-7	A-8	A-9	A-10	A-11	A-12	A-13	A-14	A-15	A-16	

2.5000e+00	3.0000e+00	2.5000e+00	3.0000e+00	2.0000e+00	3.0000e+00	1.5000e+00	3.0000e+00	3.0000e+00	3.0000e+00	3.0000e+00	3.0000e+00	3.0000e+00	3.0000e+00	1.5000e+00	3.0000e+00	

B = Detector Channel
B-1	B-2	B-3	B-4	B-5	B-6	B-7	B-8	B-9	B-10	B-11	B-12	B-13	B-14	B-15	B-16	

1.0000e+01	1.0000e+01	1.0000e+01	1.4400e+00	1.0000e+01	1.0000e+01	1.5100e+00	1.9400e+00	1.0000e+01	1.0000e+01	1.9900e+00	2.4900e+00	2.4100e+00	2.9000e+00	1.0000e+01	2.9800e+00	




#DATA BEGINS
time	group	step	mark	flag	A-AC1	A-AC2	A-AC3	A-AC4	A-AC5	A-AC6	A-AC7	A-AC8	A-AC9	A-AC10	A-AC11	A-AC12	A-AC13	A-AC14	A-AC15	A-AC16	A-DC1	A-DC2	A-DC3	A-DC4	A-DC5	A-DC6	A-DC7	A-DC8	A-DC9	A-DC10	A-DC11	A-DC12	A-DC13	A-DC14	A-DC15	A-DC16	A-Ph1	A-Ph2	A-Ph3	A-Ph4	A-Ph5	A-Ph6	A-Ph7	A-Ph8	A-Ph9	A-Ph10	A-Ph11	A-Ph12	A-Ph13	A-Ph14	A-Ph15	A-Ph16	B-AC1	B-AC2	B-AC3	B-AC4	B-AC5	B-AC6	B-AC7	B-AC8	B-AC9	B-AC10	B-AC11	B-AC12	B-AC13	B-AC14	B-AC15	B-AC16	B-DC1	B-DC2	B-DC3	B-DC4	B-DC5	B-DC6	B-DC7	B-DC8	B-DC9	B-DC10	B-DC11	B-DC12	B-DC13	B-DC14	B-DC15	B-DC16	B-Ph1	B-Ph2	B-Ph3	B-Ph4	B-Ph5	B-Ph6	B-Ph7	B-Ph8	B-Ph9	B-Ph10	B-Ph11	B-Ph12	B-Ph13	B-Ph14	B-Ph15	B-Ph16	aux-1	digaux	

3226.610	1	1	0	768	0.062161	0.1069	0.092471	0.25287	0.21333	0.15115	0.31623	0.32285	0.098739	0.23449	0.11955	0.033861	0.22181	0.3621	0.26985	0.20025	-2.1542	-2.2042	-2.7562	-2.4729	-2.5167	-2.6583	-2.3792	-2.8563	-2.675	-2.2292	-2.9333	-2.4146	-2.5375	-2.8125	-2.1312	-2.85	169.905	158.705	248.405	324.462	21.315	15.753	246.831	265.458	274.906	323.262	312.051	111.353	226.181	-29.858	25.700	-2.778	0.00028025	0.00043262	0.00011529	1278.4	3.8665e-06	4.5795e-06	1289	337.56	5.2779e-06	3.4332e-06	388.83	129.06	111.47	39.048	4.0549e-06	48.66	0.00068068	0.00063773	0.00020484	1324.3	7.3573e-06	7.1215e-06	1332.1	354.55	7.4632e-06	7.06e-06	412.95	137.43	121.79	41.157	8.4336e-06	51.827	246.948	131.428	-5.626	-22.650	14.808	128.176	-22.454	-17.524	35.387	66.852	-18.558	-13.518	-12.284	-8.726	144.096	-9.871	-8191	255	
3226.706	1	1	0	0	0.15221	0.16833	0.031585	0.21542	0.049495	0.20688	0.21752	0.26477	0.16197	0.037449	0.39392	0.15206	0.099771	0.26097	0.26064	0.22172	-2.1021	-2.0896	-2.8146	-2.4333	-2.575	-2.95	-2.5667	-2.8312	-2.8292	-2.1937	-2.7458	-2.4833	-2.3417	-2.9688	-2.2104	-2.5729	318.735	-21.954	144.008	-26.862	137.887	143.715	293.886	231.900	115.371	109.742	310.878	-33.380	208.555	-32.166	242.422	295.885	0.00022024	0.00047985	4.6171e-05	1275.1	8.2353e-06	8.5945e-06	1287.2	338.37	2.6757e-06	6.4291e-06	389.22	128.93	111.21	39.045	7.5114e-06	48.659	0.00067294	0.00066421	0.00021487	1322	7.2598e-06	7.4256e-06	1334.5	353.79	7.3022e-06	7.4864e-06	414.09	136.43	121	41.416	8.4936e-06	51.478	270.449	74.865	161.330	-22.427	187.002	129.723	-22.591	-17.621	-13.301	149.694	-18.347	-13.547	-12.316	-8.912	37.659	-9.857	-8191	255	
3226.800	1	1	0	0	0.24397	0.34973	0.12	0.29639	0.25401	0.1415	0.27542	0.26663	0.29486	0.19946	0.12476	0.23364	0.074622	0.2023	0.036721	0.10756	-2.3104	-2.2042	-2.8583	-2.6979	-2.3146	-2.7521	-2.3937	-2.6021	-2.9104	-2.1396	-2.9021	-2.8083	-2.2333	-3.1396	-2.2875	-2.5292	172.520	221.218	114.884	302.615	150.236	-9.944	299.456	299.494	286.568	2.393	188.511	140.174	77.217	282.279	315.738	36.608	0.00018343	0.00068219	8.5908e-05	1278.2	3.5518e-06	9.7554e-06	1294.3	337.53	5.7638e-06	7.0885e-06	388.76	129.37	110.63	38.899	6.3473e-06	48.801	0.00065413	0.00070943	0.00021127	1318.2	7.0243e-06	7.8527e-06	1334.1	351.87	7.1089e-06	8.0131e-06	412.42	136.23	120.38	41.675	8.2224e-06	51.44	220.776	100.981	245.249	-22.698	80.272	169.079	-22.510	-17.593	90.823	167.182	-18.420	-13.416	-11.505	-8.740	52.838	-9.690	-8191	255	
3226.896	1	1	0	0	0.16301	0.12344	0.19275	0.055701	0.20531	0.07074	0.1557	0.26713	0.090413	0.091473	0.064838	0.14571	0.1514	0.13543	0.16884	0.20329	-2.4688	-2.1229	-2.6604	-2.8917	-2.2729	-3.0417	-2.6354	-2.4104	-2.8667	-2.1667	-2.7979	-2.9146	-1.9833	-2.8521	-2.3333	-2.45	238.364	181.463	275.973	264.401	41.867	60.870	176.777	305.346	159.833	81.440	163.773	-30.883	253.992	-34.495	29.211	180.360	0.0004247	0.00011897	0.00025702	1278.6	6.5891e-06	5.795e-06	1292	336.94	7.0894e-06	7.7984e-06	389.13	128.6	111.99	39.074	7.1307e-07	48.882	0.00064732	0.00075941	0.00020465	1317.8	7.139e-06	8.3006e-06	1331	351.11	7.2077e-06	8.4167e-06	409.58	135.68	121.27	41.894	7.8286e-06	51.253	242.627	144.409	11.438	-22.361	129.882	237.545	-22.533	-17.746	200.629	180.996	-18.502	-13.424	-11.742	-8.880	-1.048	-9.993	-8191	255	
3226.992	1	1	0	0	0.19045	0.22003	0.2089	0.19952	0.23571	0.2341	0.069616	0.095473	0.14261	0.2743	0.072486	0.10082	0.068646	0.23676	0.20427	0.25169	-2.4833	-2.2542	-2.6042	-2.6958	-2.1875	-2.9167	-2.5417	-2.4604	-2.85	-2.1208	-2.8083	-2.9042	-2.2104	-2.7604	-2.3542	-2.325	114.754	302.244	305.035	313.789	41.818	117.963	278.413	6.899	180.586	197.564	320.641	24.279	53.028	293.006	112.647	-22.027	0.00044942	0.00039775	0.00029025	1279.6	1.0948e-05	3.139e-06	1287.2	336.41	3.3831e-06	2.4683e-06	388.26	128.51	110.83	39.097	1.836e-06	48.663	0.00067251	0.00077891	0.00019544	1314.6	7.5775e-06	8.3971e-06	1326.7	350.31	7.6681e-06	8.4324e-06	407.06	135.18	123.58	41.801	7.5222e-06	50.99	265.331	109.026	-10.110	-22.514	276.358	40.367	-22.505	-17.706	257.904	-28.568	-18.321	-13.675	-11.737	-9.082	67.469	-10.275	-8191	255	
3227.090	1	1	0	0	0.22191	0.22571	0.11873	0.16851	0.12516	0.034186	0.32972	0.092409	0.13995	0.13871	0.3482	0.21401	0.1036	0.068496	0.19742	0.11781	-2.7104	-2.3792	-2.6958	-3.0292	-2.0333	-3.0771	-2.9208	-2.3187	-3.0667	-2.3563	-2.5667	-2.9333	-2.2896	-2.9146	-2.9042	-2.2583	62.154	-30.995	-32.564	266.061	120.419	78.789	303.142	213.356	47.324	292.564	195.646	313.960	-6.279	-3.781	223.626	303.610	0.00056342	0.00038264	0.0001018	1282.5	9.2463e-06	3.7746e-06	1289.4	336.2	4.3403e-06	2.34e-06	388.4	128.63	109.65	38.961	1.9915e-06	48.519	0.00071262	0.0007487	0.00018624	1312.5	8.0457e-06	8.0304e-06	1322.2	349.37	8.0541e-06	8.0415e-06	405.93	135.22	125.08	41.518	7.301e-06	51.097	269.066	78.174	-20.868	-22.530	208.821	56.920	-22.564	-17.776	132.315	69.409	-18.132	-13.273	-11.866	-8.738	64.697	-10.117	-8191	255	
3227.209	1	1	0	0	0.16729	0.074195	0.21259	0.17223	0.20232	0.18619	0.13436	0.30824	0.14423	0.15392	0.15173	0.16865	0.19077	0.14925	0.20579	0.15078	-2.5042	-2.2667	-2.5458	-3.0646	-2.1312	-2.65	-2.8292	-2.3458	-2.9104	-2.4292	-2.6208	-2.9521	-2.2583	-2.7854	-2.7958	-2.3563	283.549	91.884	-33.785	-17.282	20.849	91.691	63.481	263.208	236.966	10.579	175.899	197.867	124.773	219.126	112.844	226.935	0.00035742	0.0008913	9.7677e-05	1279.9	5.7422e-06	5.0153e-06	1288.7	335.19	9.1635e-06	6.9993e-06	388.05	128.81	111.71	39.145	5.4287e-06	48.699	0.00074563	0.00071395	0.00018166	1316	8.3665e-06	7.6162e-06	1321.3	350.66	8.2097e-06	7.6002e-06	405.14	136.03	125.93	41.289	7.1592e-06	51.53	269.514	52.834	53.259	-22.560	180.699	89.383	-22.569	-17.578	164.864	3.091	-18.452	-13.315	-12.494	-9.003	109.205	-9.879	-8191	255	
3227.305	1	1	0	0	0.14823	0.21851	0.11747	0.1567	0.043251	0.049209	0.45568	0.12815	0.21399	0.12146	0.11145	0.16113	0.092637	0.29761	0.30275	0.084752	-2.3604	-2.4792	-2.3563	-3.0563	-2.2208	-2.5708	-2.9125	-2.4583	-2.9042	-2.6292	-2.225	-2.9458	-2.3563	-2.5646	-2.6521	-2.1562	169.532	250.526	53.469	323.624	24.802	51.258	286.007	6.672	314.628	65.976	291.037	237.795	201.996	205.137	9.020	-27.349	0.00019445	0.0005199	0.00012555	1276.1	3.477e-06	9.1627e-06	1291.8	335.32	6.233e-06	5.0087e-06	387.62	128.2	111.41	39.063	2.8491e-06	48.483	0.00074923	0.00069191	0.00017798	1321.7	8.3633e-06	7.4207e-06	1321.1	353.52	8.164e-06	7.5424e-06	404.25	136.99	124.85	41.235	7.1398e-06	51.977	295.479	86.737	40.326	-22.416	253.729	62.144	-22.286	-17.638	43.274	37.743	-18.275	-13.172	-12.114	-8.844	201.177	-9.571	-8191	255	
3227.402	1	1	0	0	0.31117	0.13656	0.098925	0.27209	0.093142	0.029611	0.54121	0.31433	0.16878	0.18772	0.18466	0.19289	0.079269	0.13925	0.15507	0.052812	-2.4146	-2.5292	-2.2625	-3.0479	-2.2604	-2.4958	-2.8875	-2.3312	-2.6521	-2.5687	-2.4229	-2.9062	-2.4625	-2.4396	-2.7083	-2.2958	138.271	187.028	3.447	279.831	295.642	175.445	243.230	219.219	306.087	-1.584	282.087	268.054	12.126	-17.762	178.630	293.592	0.00020782	0.000387	0.00015552	1281.6	3.369e-06	3.7545e-06	1290.4	337.5	4.148e-06	5.1189e-06	387.29	128.71	110.68	39.032	1.2543e-06	48.682	0.00073173	0.00068057	0.00017822	1327.5	8.031e-06	7.2625e-06	1324	355.81	7.8569e-06	7.3914e-06	405.19	137.95	124.02	41.146	7.4996e-06	52.274	201.381	318.096	-22.882	-22.484	79.233	45.680	-22.390	-17.376	-31.130	53.034	-18.197	-13.466	-12.161	-8.784	250.005	-10.027	-8191	255	
3227.498	1	1	0	0	0.31051	0.0068368	0.074027	0.37037	0.21647	0.16615	0.039914	0.26505	0.34312	0.13444	0.13622	0.16317	0.21497	0.18609	0.33434	0.15936	-2.4562	-2.6021	-2.0938	-3.0646	-2.6896	-2.2979	-3.1542	-2.1854	-2.6771	-2.5708	-2.0917	-3.0229	-2.5479	-2.4062	-2.8812	-2.2083	236.045	278.873	218.953	265.556	140.818	46.253	49.783	-23.344	52.841	261.609	13.296	314.886	64.283	-35.236	287.525	231.030	0.00016936	0.00020306	0.00028118	1278.5	6.4863e-06	7.5942e-06	1286.5	336.12	7.9338e-06	3.0956e-06	388.55	129.12	111.39	38.897	5.8475e-06	48.538	0.00070247	0.00066713	0.00018958	1328.3	7.7713e-06	7.0749e-06	1325.2	355.75	7.4924e-06	7.2614e-06	408.12	137.88	122.72	40.923	8.031e-06	52.173	294.670	146.547	121.593	-22.467	146.679	120.717	-22.544	-17.702	131.807	219.871	-18.342	-13.805	-12.065	-8.919	229.512	-9.691	-8191	255	
3227.594	1	1	0	0	0.2338	0.151	0.078465	0.237	0.10889	0.14713	0.038768	0.13819	0.22352	0.27691	0.066654	0.13467	0.058027	0.1824	0.098717	0.368	-2.1833	-2.8	-1.9875	-3.0812	-2.4292	-2.3625	-3.2812	-2.1437	-2.5771	-2.6958	-2.2333	-2.7833	-2.6562	-2.3187	-2.8146	-2.375	-3.209	260.653	29.955	260.121	235.493	188.283	186.548	189.897	116.342	172.767	208.821	188.247	-28.785	200.570	-25.400	176.771	0.00026614	0.00029414	0.00019964	1279.9	7.168e-06	9.029e-06	1286.3	336.59	5.3849e-06	5.352e-06	390.49	129.29	110.92	39.204	2.4043e-06	48.584	0.00067639	0.00065799	0.00020364	1325.7	7.594e-06	7.0478e-06	1331	354.76	7.3335e-06	7.261e-06	412.41	137.41	122.11	41.096	8.3732e-06	51.835	237.455	100.079	115.162	-22.632	159.350	80.737	-22.700	-17.484	123.586	168.412	-18.507	-13.361	-12.031	-8.904	159.703	-9.546	-8191	255	
3227.690	1	1	0	0	0.1936	0.18998	0.19794	0.126	0.24896	0.1831	0.26699	0.049555	0.37751	0.14338	0.13268	0.17534	0.11514	0.094294	0.18587	0.12777	-1.9271	-2.8583	-2.0625	-2.7354	-2.6958	-2.2583	-3.0125	-2.4896	-2.2375	-2.8792	-2.1771	-2.5687	-2.6646	-2.2333	-2.9542	-2.3958	159.602	104.311	229.065	290.360	29.424	220.798	252.280	142.208	219.435	315.983	304.217	48.009	98.903	-16.621	164.457	-21.637	0.00027861	0.00066504	0.00010648	1276.7	1.9431e-06	5.7422e-06	1290.4	336.71	3.4304e-06	5.3098e-06	388.98	128.5	111.65	38.904	3.9079e-06	48.548	0.00065905	0.00067007	0.00021288	1320.6	7.3768e-06	7.2051e-06	1335.1	353.26	7.1064e-06	7.5129e-06	413.06	136.17	121.32	41.204	8.3877e-06	51.504	301.922	126.540	152.708	-22.529	197.998	129.191	-22.329	-17.324	300.477	132.293	-18.373	-13.593	-12.771	-8.759	55.928	-9.704	-8191	255	
3227.809	1	1	0	0	0.18567	0.14146	0.13912	0.228	0.07731	0.14611	0.16523	0.12598	0.17609	0.2175	0.14542	0.11055	0.023172	0.12799	0.079195	0.085439	-2.0771	-3	-2.1417	-2.7896	-2.7938	-2.2729	-2.9646	-2.6792	-2.3917	-2.8875	-2.375	-2.5208	-2.8667	-2.1312	-2.7042	-2.7625	255.121	208.385	293.306	247.655	252.745	157.305	271.789	129.085	183.988	246.595	-11.259	181.721	306.720	308.732	37.525	-16.200	8.4546e-05	0.00035159	0.00015464	1272.8	5.0323e-06	7.3821e-06	1289.1	336.11	1.6909e-06	7.5485e-06	387.48	129.02	111.88	39.001	4.7581e-06	48.609	0.00063092	0.00070542	0.00021271	1316.3	7.1443e-06	7.6556e-06	1331.9	352.03	6.9047e-06	7.9023e-06	411.92	135.57	120.72	41.6	8.0506e-06	51.394	248.323	110.164	-8.603	-22.711	98.859	147.008	-22.665	-17.601	223.042	93.183	-18.695	-13.659	-11.838	-8.666	301.924	-9.887	-8191	255	
3227.905	1	1	0	0	0.073758	0.14249	0.33249	0.25051	0.039021	0.25648	0.20525	0.11231	0.12175	0.23727	0.026975	0.24641	0.23958	0.2098	0.076451	0.12873	-1.8854	-2.9958	-2.3396	-2.575	-2.7354	-2.3375	-2.8125	-2.8542	-2.2729	-2.8104	-2.5167	-2.3208	-2.8438	-2.3187	-2.5708	-2.8521	118.618	-21.841	80.995	313.405	287.134	-20.660	259.211	278.500	-2.755	146.378	156.453	301.543	242.732	28.158	82.673	24.273	0.00048067	0.00031661	5.1237e-05	1279.7	2.5499e-06	4.3927e-06	1290.3	335.47	9.9952e-06	6.3856e-06	386.23	128.62	111.64	39.013	7.6209e-06	48.204	0.00062941	0.00074037	0.00020552	1315.1	7.1095e-06	8.1673e-06	1326.7	350.89	7.0241e-06	8.2212e-06	408.41	135.19	120.9	41.765	7.6552e-06	51.134	231.945	121.535	274.582	-22.520	183.108	239.505	-22.584	-17.453	201.311	157.568	-18.229	-13.606	-11.282	-8.836	100.901	-9.527	-8191	255	
3228.001	1	1	0	0	0.09268	0.21536	0.041952	0.35986	0.1967	0.028117	0.18667	0.29632	0.30201	0.12361	0.43566	0.24613	0.37045	0.17253	0.32157	0.18915	-1.8687	-2.8229	-2.3833	-2.4792	-2.8875	-2.2667	-2.6833	-2.7625	-2.0271	-3.0083	-2.5292	-2.3563	-2.8792	-2.2458	-2.5375	-3.0021	-32.707	275.213	-30.184	286.965	273.425	-35.044	285.252	289.462	243.247	152.436	207.966	224.153	54.292	20.430	157.075	271.658	0.00039989	0.00060185	0.00028541	1273.3	3.8729e-06	1.1583e-06	1285.7	336.09	3.6539e-06	3.8968e-06	387.28	128.72	111.19	39.09	1.5702e-06	48.618	0.00066247	0.00076353	0.00019689	1310.6	7.4679e-06	8.4332e-06	1322.9	350.32	7.5419e-06	8.2713e-06	407.71	134.99	122.97	41.79	7.4001e-06	51.002	243.396	38.622	-23.684	-22.645	253.074	-9.965	-22.427	-17.357	204.222	191.350	-18.334	-13.552	-11.618	-8.817	214.653	-9.470	-8191	255	
3228.097	1	1	0	0	0.30123	0.21239	0.058115	0.28834	0.13032	0.24813	0.15073	0.29151	0.15833	0.10918	0.24117	0.18639	0.045529	0.11399	0.21955	0.1232	-1.6958	-2.6958	-2.4292	-2.3375	-2.7583	-2.1396	-2.5687	-2.9354	-2.1542	-2.7125	-2.6542	-2.3271	-2.9729	-2.2583	-2.3187	-2.9708	98.921	317.632	88.142	294.219	292.271	-14.298	229.061	278.473	247.738	80.381	263.668	-30.264	124.496	269.903	219.709	192.230	0.00034563	0.00035392	0.00014527	1280.9	5.8286e-06	4.7214e-06	1286.9	335.9	7.9807e-06	6.4528e-06	389.03	128.93	111.31	38.839	1.5812e-07	48.654	0.00071255	0.00074372	0.00018903	1312.8	7.9329e-06	8.1687e-06	1321.6	350.09	8.0576e-06	7.9752e-06	406.47	135.11	124.91	41.546	7.2485e-06	51.106	255.116	64.150	13.119	-22.575	267.719	41.722	-22.643	-17.500	201.516	8.046	-18.188	-13.538	-12.412	-8.787	-7.396	-9.590	-8191	255	
3228.169	1	1	0	0	0.15632	0.2696	0.14022	0.13515	0.11572	0.18279	0.070221	0.12891	0.17663	0.092356	0.26628	0.22146	0.19497	0.25199	0.074651	0.45011	-1.8125	-2.6583	-2.6167	-2.3937	-2.8854	-2.5083	-2.4813	-2.9458	-2.2438	-2.4729	-2.9333	-2.1667	-2.8563	-2.5625	-2.2604	-2.9854	133.032	304.948	221.814	247.999	163.629	-10.352	296.940	268.778	84.205	71.643	266.993	287.535	278.164	-7.273	242.069	-25.557	0.0003901	0.0006538	8.7341e-05	1277	3.6874e-06	7.0401e-06	1286.7	336.53	5.2296e-06	7.707e-06	388.26	127.95	110.72	38.896	2.3547e-06	48.726	0.00075193	0.00071653	0.00018695	1315.8	8.3248e-06	7.9046e-06	1319.7	351.54	8.4702e-06	7.6747e-06	405.68	135.8	125.98	41.361	7.1461e-06	51.565	216.999	57.760	51.106	-22.581	132.583	19.518	-22.573	-17.589	105.991	82.973	-18.552	-13.173	-11.788	-8.669	108.155	-9.738	-8191	255	
3228.290	1	1	0	0	0.26957	0.23461	0.22059	0.17205	0.17645	0.30952	0.16487	0.1584	0.1684	0.28007	0.31947	0.26003	0.091776	0.25738	0.29459	0.21609	-1.7917	-2.7188	-2.5917	-2.3417	-2.7812	-2.5375	-2.6437	-2.9375	-2.3	-2.4333	-2.9562	-2.2167	-2.6771	-2.8167	-2.1896	-2.9292	318.095	38.730	282.870	304.384	82.651	166.375	270.332	292.601	176.794	129.995	313.418	244.378	23.398	303.085	165.776	312.798	0.00038989	0.00056525	0.00015994	1275.7	4.602e-06	5.7091e-06	1287.5	336.68	1.8506e-06	1.3636e-06	388.67	127.82	110.86	39.04	3.0592e-06	48.593	0.00076448	0.00068841	0.00018348	1320	8.3517e-06	7.5868e-06	1318.7	353.86	8.3697e-06	7.4729e-06	405	136.79	125.62	41.281	7.1008e-06	52.054	218.342	-22.705	-19.740	-22.378	205.258	41.543	-22.584	-17.550	50.748	251.125	-18.299	-13.288	-11.786	-8.685	145.641	-9.807	-8191	255	
3228.386	1	1	0	0	0.33898	0.17968	0.14349	0.17641	0.1532	0.14276	0.2337	0.10323	0.11864	0.10828	0.10278	0.075735	0.15336	0.19859	0.229	0.25576	-1.9083	-2.35	-2.7792	-2.3438	-2.875	-2.7417	-2.3604	-2.9604	-2.3125	-2.5125	-2.9292	-2.2125	-2.5146	-2.4958	-2.1188	-2.8854	80.997	178.641	177.318	239.602	131.136	141.136	295.926	298.025	32.412	277.283	294.827	272.310	292.514	28.312	226.448	185.520	0.00013091	0.00092073	6.6806e-05	1277.8	6.2071e-06	5.9402e-06	1288.2	337.1	2.4572e-06	9.6816e-06	386.96	129.17	110.16	39.036	2.2329e-06	48.667	0.0007491	0.00067914	0.00018411	1326.4	8.0777e-06	7.5049e-06	1318.9	355.92	8.0679e-06	7.2885e-06	406.21	138.02	123.73	41.225	7.319e-06	52.326	185.496	69.998	309.578	-22.459	102.675	33.511	-22.392	-17.501	-5.309	24.586	-18.135	-13.193	-11.637	-8.733	140.359	-9.664	-8191	255	
3228.482	1	1	0	0	0.090633	0.066528	0.11265	0.48281	0.45437	0.18158	0.37617	0.25285	0.14295	0.11793	0.24908	0.16238	0.2507	0.182	0.17818	0.22811	-1.9417	-2.2687	-2.875	-2.3833	-2.6354	-2.4771	-2.3104	-2.9958	-2.4313	-2.2479	-2.9396	-2.1667	-2.4583	-2.8063	-2.1396	-2.8625	-31.381	-24.329	244.336	315.527	58.811	-30.830	256.323	302.733	253.195	302.067	281.423	302.719	-1.241	32.029	132.472	299.812	0.0001708	0.00024536	0.00018682	1279.2	4.8881e-07	4.2779e-06	1286.9	337.53	8.1544e-06	7.6306e-06	386.52	129.22	111.33	39.081	2.7111e-06	48.816	0.00071673	0.00066127	0.00019182	1329.1	7.6964e-06	7.3593e-06	1323.2	356.29	7.757e-06	7.1428e-06	408.93	137.95	122.57	41.131	7.8425e-06	52.251	293.399	208.469	70.989	-22.644	182.436	148.489	-22.533	-17.179	55.737	22.621	-18.356	-13.653	-11.899	-8.867	166.117	-9.744	-8191	255	
3228.578	1	1	0	0	0.10292	0.090908	0.10985	0.16877	0.10998	0.085924	0.50017	0.083981	0.075215	0.20352	0.065622	0.1856	0.15935	0.32182	0.026726	0.24067	-2.2271	-2.1667	-2.8104	-2.3125	-2.5042	-2.8146	-2.2208	-3.0146	-2.5146	-2.2604	-2.7396	-2.4	-2.2792	-2.9042	-1.9521	-2.8604	262.164	160.052	236.801	311.317	67.152	-4.840	293.439	125.124	277.723	305.534	212.804	241.142	36.431	305.599	250.953	229.329	9.2599e-05	0.00041772	0.00013653	1281.6	8.8256e-06	2.1014e-07	1285.5	336.96	2.4138e-06	1.5672e-06	388.21	128.86	111.11	38.847	6.6378e-06	48.805	0.00069928	0.00064461	0.00020484	1327.8	7.4396e-06	7.2227e-06	1329.7	355.22	7.5576e-06	7.082e-06	413.16	137.58	121.77	41.143	8.3622e-06	51.957	279.236	75.411	44.521	-22.563	186.651	94.501	-22.467	-17.423	231.918	106.553	-18.328	-13.456	-12.020	-8.824	235.312	-9.610	-8191	255	
3228.697	1	1	0	0	0.031905	0.12211	0.17569	0.18586	0.2138	0.038093	0.32246	0.17295	0.27339	0.21569	0.19853	0.13944	0.42995	0.18809	0.21616	0.069878	-2.0396	-2.1333	-2.9229	-2.5229	-2.3	-2.9875	-2.3688	-2.9437	-2.7875	-2.1396	-3.0146	-2.5333	-2.2833	-2.9562	-2.1667	-2.6125	-17.253	-6.977	39.216	206.096	80.554	119.472	250.301	225.131	318.120	295.764	268.468	-8.597	26.468	319.498	62.238	283.496	0.00033012	0.00022774	0.00021252	1278.3	3.4025e-06	2.1585e-06	1288.5	336.38	6.9404e-06	8.3659e-06	388.03	128.94	111.35	39.147	1.7724e-06	48.601	0.00067942	0.0006517	0.00021454	1324.1	7.2501e-06	7.3997e-06	1334.5	353.55	7.4178e-06	7.3298e-06	413.85	136.69	120.86	41.433	8.4998e-06	51.529	261.664	150.530	79.718	-22.443	130.624	246.014	-22.361	-17.623	22.036	220.306	-18.113	-13.292	-12.092	-8.648	81.803	-9.887	-8191	255	
3228.770	1	1	0	0	0.34269	0.080238	0.10506	0.19292	0.25673	0.057861	0.22938	0.3053	0.27308	0.042072	0.10484	0.30166	0.078996	0.20355	0.12617	0.12921	-2.4479	-1.9875	-2.8646	-2.5458	-2.2625	-2.8875	-2.3542	-2.6229	-2.8354	-2.2583	-2.8063	-2.6146	-2.0708	-2.8771	-2.0729	-2.5271	122.401	231.134	-16.463	21.768	99.167	183.311	234.289	251.707	300.797	106.354	14.338	316.669	213.552	-1.309	73.709	291.881	0.0002907	0.0014227	0.00023509	1279.2	1.3921e-07	9.4836e-06	1289.1	336.55	2.1517e-06	4.5964e-06	388.87	129.15	111.46	38.939	6.7726e-06	48.471	0.00066312	0.0006933	0.00021469	1318.8	7.0328e-06	7.7512e-06	1334.2	352.15	7.1758e-06	7.9043e-06	412.87	136.22	120.4	41.725	8.4254e-06	51.429	260.443	139.985	40.697	-22.450	43.140	185.167	-22.556	-17.540	101.118	167.896	-18.522	-13.230	-11.760	-8.731	150.568	-9.522	-8191	255	
3228.891	1	1	0	0	0.13826	0.29886	0.096983	0.14394	0.095906	0.036706	0.2664	0.16028	0.15936	0.11808	0.063302	0.049171	0.18	0.19452	0.14768	0.12175	-2.3937	-1.9729	-2.5208	-2.7833	-2.0333	-2.8708	-2.4062	-2.4813	-2.6125	-2.0729	-2.5229	-2.6583	-2.1583	-2.7354	-2.2271	-2.4292	24.994	79.476	-31.953	-3.366	43.019	27.243	281.706	312.115	185.143	118.639	30.660	202.653	271.782	237.955	36.793	244.892	0.00027962	0.00071173	0.00011496	1280.2	5.9574e-06	7.5889e-06	1291.3	337.23	7.3183e-06	5.7139e-06	389.56	128.87	111.49	39.032	5.7867e-06	48.554	0.00066077	0.00075279	0.00021022	1319.1	7.1505e-06	8.4111e-06	1332.8	352.2	7.3389e-06	8.4589e-06	411.25	136.22	121.14	41.986	8.0534e-06	51.222	237.944	122.943	302.998	-22.506	274.566	191.348	-22.393	-17.603	180.672	154.457	-18.516	-13.610	-12.181	-8.541	16.044	-9.870	-8191	255	
3228.985	1	1	0	0	0.097275	0.18476	0.054874	0.18609	0.20291	0.13563	0.40707	0.11626	0.11261	0.08662	0.10196	0.22073	0.29092	0.066488	0.15265	0.11317	-2.4188	-2.0104	-2.4979	-2.6958	-2.1833	-2.8875	-2.5896	-2.4625	-2.9417	-2.1312	-2.6771	-2.9708	-2.2625	-2.8333	-2.475	-2.2417	161.053	18.635	240.729	267.188	25.578	238.139	303.788	291.823	295.515	-27.634	245.794	264.029	50.052	152.934	286.326	296.746	0.00036098	0.00038996	0.00012424	1280	1.1701e-05	9.8728e-06	1290.1	338.48	8.4687e-06	5.2471e-06	388.7	129.24	109.71	39.085	5.8279e-06	48.511	0.00068183	0.00078028	0.0001997	1319.6	7.5141e-06	8.583e-06	1329.8	352.01	7.7864e-06	8.6327e-06	409.37	136.01	123.5	41.963	7.8325e-06	51.218	239.612	112.456	36.445	-22.619	227.734	86.154	-22.723	-17.554	230.365	247.280	-18.445	-13.553	-11.800	-8.855	89.651	-9.777	-8191	255	
3229.082	1	1	0	0	0.23946	0.16943	0.22199	0.20836	0.19263	0.050026	0.32199	0.25776	0.11642	0.075197	0.20065	0.20205	0.32719	0.067479	0.027217	0.22238	-2.4917	-2.0604	-2.5187	-2.9083	-2.0292	-2.775	-2.6729	-2.2667	-2.8667	-2.2042	-2.725	-2.8021	-2.0938	-2.7875	-2.4333	-2.4104	14.272	213.429	-15.206	-31.084	2.766	323.032	291.954	278.828	-0.472	233.776	-10.548	305.040	276.499	-21.152	201.505	135.630	0.00045103	0.00057708	0.00010858	1280.5	1.2633e-05	7.165e-06	1293.6	337.48	7.3948e-06	6.0386e-06	388.12	129.27	110.54	39.223	6.6428e-06	48.578	0.00072759	0.00077888	0.00019355	1319.7	8.1205e-06	8.4141e-06	1330.1	351.73	8.3381e-06	8.4134e-06	408.13	136.12	126.22	41.855	7.6471e-06	51.245	250.355	24.122	40.856	-22.452	214.021	60.393	-22.559	-17.543	136.179	-25.677	-18.161	-13.815	-12.130	-8.755	75.344	-9.673	-8191	255	
3229.178	1	1	0	0	0.049394	0.14432	0.18452	0.25722	0.14708	0.12993	0.16235	0.23196	0.030316	0.13574	0.16415	0.20013	0.15188	0.29387	0.14603	0.36742	-2.4896	-2.1833	-2.4458	-2.9354	-2	-2.6437	-2.9562	-2.3104	-2.8542	-2.2792	-2.2833	-2.9125	-2.0312	-2.6792	-2.6646	-2.3854	-25.775	-5.097	286.804	292.308	28.355	113.676	257.238	215.617	133.672	-28.158	20.179	25.692	67.653	-28.363	43.162	245.709	0.00024427	0.00076337	0.00011517	1283.2	5.2065e-06	8.0711e-06	1292.6	338.78	7.5521e-06	6.6516e-06	389.11	128.24	112.18	39.133	2.7619e-06	48.804	0.00076986	0.0007467	0.00018924	1322.3	8.5201e-06	8.0193e-06	1329.6	352.85	8.5806e-06	7.9766e-06	406.92	136.48	127.61	41.621	7.4835e-06	51.665	256.185	-24.901	-5.026	-22.372	179.810	81.263	-22.533	-17.636	164.546	4.117	-18.315	-13.092	-11.634	-8.704	13.676	-9.583	-8191	255	
3229.298	1	1	0	0	0.20844	0.05077	0.2239	0.21069	0.24024	0.17225	0.30227	0.2998	0.22015	0.14701	0.07996	0.21499	0.22759	0.10166	0.32388	0.065215	-2.5146	-2.3917	-2.2667	-3.0375	-2.2771	-2.5875	-3.0271	-2.3354	-2.8792	-2.5333	-2.4938	-3.0229	-2.1437	-2.8438	-2.875	-2.1917	43.586	20.183	22.547	280.896	42.476	285.633	247.092	289.986	257.142	310.202	15.645	201.592	209.244	35.816	242.793	98.425	0.00021883	0.00068644	0.00015831	1283.5	3.1699e-06	4.2731e-06	1295.5	337.78	5.9185e-06	1.9909e-06	389.86	128.67	111.05	39.145	6.8691e-06	48.537	0.00078641	0.00072307	0.00018503	1328	8.728e-06	7.7607e-06	1328.6	355.07	8.6646e-06	7.9086e-06	407.3	137.85	127.3	41.563	7.5365e-06	52.239	247.632	36.812	9.672	-22.280	289.025	89.290	-22.340	-17.478	38.258	289.434	-18.200	-13.324	-12.281	-8.890	93.368	-9.441	-8191	255	
3229.394	1	1	0	0	0.21347	0.056313	0.23376	0.10333	0.14469	0.11174	0.11199	0.19058	0.15529	0.14633	0.28836	0.23891	0.15069	0.11689	0.1829	0.30875	-2.3229	-2.4833	-2.3271	-2.9875	-2.2875	-2.3625	-2.8896	-2.2229	-2.6312	-2.8312	-2.2875	-2.7917	-2.2646	-2.525	-2.6688	-2.2979	106.744	-29.325	222.441	114.881	104.883	207.583	244.087	273.201	265.880	197.826	221.442	276.791	4.332	266.232	98.833	-33.588	0.00012377	0.0006021	0.000123	1279.6	2.7789e-06	6.1103e-06	1290.5	338.22	4.0148e-06	3.5724e-06	388.62	129.37	111.46	39.251	3.6707e-06	48.703	0.00077402	0.00071707	0.00018556	1333.5	8.4622e-06	7.6489e-06	1327.9	357.63	8.2999e-06	7.7693e-06	407.5	138.94	125.93	41.429	7.6814e-06	52.676	261.578	57.155	98.638	-22.342	172.021	125.307	-22.355	-17.477	109.435	126.348	-18.727	-13.445	-12.304	-8.793	127.862	-9.441	-8191	255	
3229.466	1	1	0	0	0.11949	0.04189	0.26539	0.23752	0.045539	0.2653	0.27046	0.18586	0.19969	0.21943	0.28829	0.02725	0.16404	0.16654	0.16575	0.1406	-2.3667	-2.5271	-2.1854	-3.0125	-2.275	-2.3292	-2.8667	-2.2562	-2.4979	-2.6729	-2.2229	-3.0167	-2.35	-2.4833	-2.8771	-2.1729	291.451	13.107	241.762	274.446	-0.982	299.684	213.141	253.339	88.614	24.961	278.049	227.227	-24.529	-4.391	112.661	258.375	0.00024553	0.0001356	0.00012099	1283.4	7.4397e-06	3.2045e-06	1292.2	338.97	1.6237e-06	4.8165e-06	390.28	129.31	112	39.122	2.9162e-06	48.821	0.00073484	0.00070178	0.00019267	1336.6	8.1216e-06	7.3768e-06	1332	359.25	7.9698e-06	7.6314e-06	411.92	139.22	125.04	41.372	8.2937e-06	52.766	216.203	319.214	144.936	-22.422	105.043	102.098	-22.192	-17.696	-24.514	50.943	-18.671	-13.689	-11.620	-8.829	269.539	-9.761	-8191	255	
3229.587	1	1	0	0	0.40976	0.2786	0.11654	0.18965	0.2761	0.17394	0.19759	0.30175	0.15563	0.18016	0.36095	0.072997	0.38843	0.27481	0.21434	0.1454	-2.3146	-2.7354	-2.2313	-3.0729	-2.6104	-2.2917	-3.0187	-2.2583	-2.4667	-2.7333	-2.2875	-2.7021	-2.5333	-2.2313	-3.1	-2.4458	98.083	30.124	279.773	-29.848	145.089	103.992	273.672	222.536	-5.915	323.795	119.603	33.685	75.823	-19.790	278.342	48.572	0.00033709	0.00036757	0.00016685	1286.4	3.5447e-06	4.5122e-06	1289.2	338.69	6.9348e-06	4.6789e-06	389.34	129.26	110.85	39.027	8.6595e-06	48.736	0.0007164	0.00069938	0.00021094	1338.1	8.0183e-06	7.3586e-06	1339.7	358.46	7.8154e-06	7.5686e-06	415.15	138.75	123.93	41.311	8.7242e-06	52.419	228.268	39.887	92.488	-22.552	215.173	161.502	-22.320	-17.598	86.385	115.167	-18.340	-13.765	-12.133	-8.664	175.580	-9.725	-8191	255	
3229.683	1	1	0	0	0.051086	0.046193	0.21805	0.24558	0.13878	0.15628	0.13869	0.15958	0.14777	0.2839	0.17983	0.035596	0.16627	0.11631	0.21548	0.1565	-2.1771	-2.8375	-2.0312	-2.85	-2.5792	-2.0958	-3.2125	-2.4021	-2.3354	-2.8396	-2.2917	-2.8458	-2.5771	-2.2583	-2.7854	-2.1917	163.785	267.667	259.536	285.207	144.717	277.145	237.106	60.286	109.656	116.269	-17.224	279.799	58.305	-10.518	8.849	289.812	0.00034108	0.00027161	0.00014822	1286.2	3.8787e-06	4.9847e-06	1296.5	338.33	4.1947e-06	5.314e-06	388.15	128.96	111.99	39.231	9.103e-06	48.792	0.00069772	0.00069699	0.00022524	1333.1	7.8749e-06	7.6025e-06	1345.8	357.34	7.656e-06	7.8759e-06	417.97	137.91	124.23	41.686	8.9848e-06	52.1	249.490	73.946	144.726	-22.390	9.391	285.899	-22.223	-17.612	24.270	212.787	-18.214	-13.550	-11.656	-8.849	164.608	-9.961	-8191	255	
3229.779	1	1	0	0	0.19574	0.17779	0.27538	0.036587	0.14368	0.41872	0.075234	0.017003	0.17691	0.20261	0.1874	0.27955	0.087683	0.12666	0.16875	0.28882	-2.0333	-2.9708	-2.1583	-2.8479	-2.8208	-2.1396	-3.0521	-2.5021	-2.2146	-3.0021	-2.4021	-2.5021	-2.8	-2.2271	-2.6167	-2.4979	71.285	14.284	111.356	282.028	279.718	4.529	299.374	136.446	199.252	4.564	270.316	207.729	268.918	-27.990	51.756	250.835	0.00023222	0.00081038	0.00010533	1286.4	5.6421e-06	8.6055e-06	1294.4	338.65	5.8776e-06	7.0002e-06	389.95	129.78	112.05	39.15	7.6474e-06	48.85	0.00067596	0.00073694	0.00022589	1329.8	7.6578e-06	8.0137e-06	1344.5	356.19	7.3469e-06	8.3607e-06	418.18	137.76	123.74	42.138	8.9486e-06	52.226	231.587	166.230	144.744	-22.463	123.648	190.670	-22.288	-17.774	119.689	194.396	-18.135	-13.441	-11.519	-8.935	75.220	-9.763	-8191	255	
3229.873	1	1	0	0	0.060761	0.10548	0.16405	0.22519	0.11862	0.20185	0.29269	0.04028	0.11918	0.14949	0.20246	0.21512	0.25191	0.42865	0.18025	0.18336	-1.9062	-3.0833	-2.2396	-2.5938	-2.8354	-2.1937	-3.0896	-2.7771	-2.2188	-2.8625	-2.1771	-2.45	-2.9458	-2.2083	-2.7042	-2.7854	305.679	254.622	198.852	-5.176	-2.323	14.672	285.018	-7.234	39.248	274.457	125.834	258.376	112.214	271.404	215.372	296.987	0.00012552	0.00038557	0.00024728	1291	5.7852e-06	1.2198e-05	1301.7	340.38	5.8835e-06	4.892e-06	390.63	129.78	111.49	39.365	4.8149e-06	49.063	0.00069247	0.00081559	0.00023025	1334.8	7.9338e-06	9.0482e-06	1349.4	358.43	7.8302e-06	9.3157e-06	419.25	138.13	125.74	42.732	8.7841e-06	52.411	235.685	179.819	318.754	-22.409	247.810	225.981	-22.653	-17.516	168.552	143.868	-18.540	-13.488	-11.813	-8.608	279.955	-9.758	-8191	255	
3229.994	1	1	0	0	0.13884	0.20123	0.13012	0.38296	0.30309	0.32215	0.32021	0.086372	0.067705	0.091015	0.10919	0.13194	0.2674	0.29867	0.094529	0.02469	-1.7896	-2.8958	-2.3063	-2.3583	-2.7896	-2.2375	-2.8	-2.7354	-1.9771	-3.0021	-2.5979	-2.2521	-2.925	-2.3083	-2.6021	-2.7979	139.505	213.233	-7.401	268.150	90.112	199.662	263.784	320.005	150.380	235.693	305.094	290.283	-33.004	-30.865	68.465	321.854	0.00036634	0.00058775	0.00012606	1287.4	7.862e-06	6.535e-06	1303.1	340.88	9.0417e-06	4.2102e-06	393.54	129.84	110.88	39.685	2.9149e-06	49.171	0.00072362	0.00086215	0.00022387	1333	8.3756e-06	9.452e-06	1345.9	359.11	8.2858e-06	9.4296e-06	418.54	137.94	128.09	42.894	8.426e-06	52.372	261.760	100.662	322.760	-22.613	243.480	282.600	-22.376	-17.515	202.357	45.636	-18.348	-13.599	-11.400	-9.093	24.570	-9.657	-8191	255	
3230.066	1	1	0	0	0.043834	0.17508	0.26015	0.18793	0.13224	0.10712	0.21732	0.52189	0.45842	0.20917	0.19144	0.044456	0.10971	0.23682	0.068541	0.17008	-1.6812	-2.7917	-2.3937	-2.4417	-2.9021	-2.2104	-2.7188	-2.8333	-2.1604	-2.6042	-2.7188	-2.2438	-2.7875	-2.3	-2.5625	-2.9167	227.283	186.493	316.942	273.602	297.583	41.307	-23.906	-34.422	219.244	278.220	-13.970	141.827	287.720	268.828	167.606	244.490	0.00046362	0.00040521	0.00013782	1289.1	6.9833e-06	7.0248e-06	1297.2	341.57	7.3229e-06	4.0027e-06	393.21	130.29	112.57	39.562	6.0833e-07	49.237	0.00078188	0.00085648	0.0002177	1334.5	8.9975e-06	9.3823e-06	1344.7	358.99	9.0028e-06	9.1867e-06	417.02	138.31	130.71	42.701	8.1854e-06	52.445	274.442	-22.347	86.803	-22.613	277.177	61.789	-22.557	-17.504	171.282	324.250	-18.308	-13.215	-11.478	-8.939	81.402	-9.630	-8191	255	
3230.162	1	1	0	0	0.004986	0.015353	0.14327	0.30385	0.11542	0.10911	0.057699	0.16705	0.27766	0.1381	0.12009	0.10434	0.26727	0.30069	0.09655	0.14324	-1.7104	-2.675	-2.475	-2.2958	-2.9146	-2.3812	-2.4021	-2.9896	-2.2062	-2.6437	-2.8292	-2.2854	-2.8625	-2.3833	-2.3625	-2.8521	170.918	208.492	51.749	284.951	-22.751	312.664	233.516	295.213	245.360	108.097	176.562	307.316	283.613	302.693	103.526	18.346	0.00039691	0.00061324	0.00015166	1293.1	8.4357e-06	9.8547e-06	1298.9	342.98	1.4492e-05	5.1951e-06	392.1	129.69	112.24	39.642	6.2167e-06	48.994	0.00083163	0.00081185	0.00021028	1334.1	9.2688e-06	8.8058e-06	1339.4	360.02	9.2234e-06	8.5646e-06	415.17	138.47	131.32	42.396	7.8664e-06	52.629	239.842	20.640	120.632	-22.534	230.870	61.651	-22.409	-17.293	203.427	3.079	-18.420	-13.491	-11.739	-8.756	87.805	-9.851	-8191	255	
3230.258	1	1	0	0	0.39942	0.12919	0.081674	0.054523	0.14057	0.10159	0.10343	0.050807	0.16045	0.17129	0.035102	0.064291	0.077538	0.11368	0.23538	0.16186	-1.5771	-2.775	-2.6188	-2.2604	-2.8646	-2.4229	-2.6104	-2.925	-2.2542	-2.5646	-2.8063	-2.1958	-2.825	-2.5146	-2.1875	-2.9917	9.154	109.913	99.986	164.434	82.281	81.710	297.582	197.769	145.053	186.254	286.158	265.178	40.652	303.394	278.173	-30.830	0.00011213	0.00041792	9.5164e-05	1292.1	5.3789e-06	8.0036e-06	1299.7	341.79	5.947e-06	2.2897e-06	393.14	130.35	113.59	39.436	1.3958e-06	49.251	0.00084182	0.00076639	0.000203	1337.9	9.3062e-06	8.4482e-06	1338	361.7	9.2321e-06	8.1938e-06	413.84	139.42	130.5	42.239	7.696e-06	53.051	290.719	107.274	53.727	-22.465	178.834	114.750	-22.316	-17.326	31.240	98.013	-18.405	-13.408	-12.055	-8.620	123.726	-9.159	-8191	255	
3230.379	1	1	0	0	0.32023	0.088811	0.070012	0.11127	0.2578	0.33123	0.26756	0.15144	0.23647	0.22594	0.14515	0.14878	0.21286	0.076938	0.15443	0.26098	-1.6667	-2.4938	-2.6542	-2.3729	-2.6271	-2.5833	-2.3458	-3.0229	-2.2896	-2.3958	-2.9	-2.0875	-2.6792	-2.7479	-2.0708	-2.8167	162.218	112.028	-1.555	178.020	253.161	-12.908	312.248	243.134	309.037	-8.734	-32.753	-28.107	-26.922	205.252	154.298	303.635	0.00038684	0.0002288	2.0875e-05	1288.4	3.7044e-06	4.2137e-06	1296.2	340.89	9.9728e-06	4.3836e-06	392.98	130.03	113.38	39.619	9.3878e-06	49.268	0.00081844	0.00073513	0.00020017	1342.1	8.8586e-06	8.2313e-06	1336	363.29	8.8894e-06	8.0275e-06	414.88	140.5	128.57	42.171	7.8816e-06	53.554	225.947	31.240	41.585	-22.570	37.738	-18.626	-22.514	-17.618	17.236	57.858	-18.204	-13.253	-12.216	-9.036	191.966	-9.615	-8191	255	
3230.475	1	1	0	0	0.13164	0.075145	0.10268	0.33176	0.059405	0.21867	0.28923	0.02249	0.21155	0.24896	0.019894	0.10081	0.099008	0.095318	0.28693	0.18227	-1.9438	-2.25	-2.8708	-2.2958	-2.7625	-2.7896	-2.3375	-2.9021	-2.2625	-2.3292	-2.9875	-2.1312	-2.6292	-2.7604	-2.0646	-2.7833	78.703	259.311	53.303	306.577	-35.088	247.464	255.469	163.528	-10.599	171.453	171.917	48.062	305.297	313.576	124.975	300.186	0.00014023	0.00037509	0.00021438	1288.6	4.1291e-06	1.6242e-06	1301.7	340.47	3.174e-06	9.9923e-06	393.06	129.8	112.09	39.461	9.7058e-06	49.273	0.00078819	0.00072078	0.00020841	1347.6	8.4564e-06	8.0308e-06	1340.8	363.89	8.463e-06	7.715e-06	417.2	140.61	126.56	42.059	8.3871e-06	53.43	212.519	5.951	122.561	-22.582	127.850	10.507	-22.372	-17.697	151.792	2.612	-18.145	-13.544	-12.149	-8.607	227.350	-9.517	-8191	255	
3230.571	1	1	0	0	0.2391	0.19065	0.18604	0.24961	0.094841	0.21145	0.13068	0.21278	0.11022	0.1807	0.1699	0.10005	0.27381	0.12079	0.22211	0.17998	-1.9875	-2.0625	-2.8271	-2.2583	-2.4083	-2.8375	-2.1292	-3.0125	-2.3083	-2.2021	-3.1937	-2.3104	-2.4896	-2.8875	-2.0604	-2.8708	-9.282	249.895	41.074	268.298	3.505	268.254	199.985	209.402	144.761	188.061	234.682	298.108	121.603	-20.237	113.746	288.769	0.00028769	0.00082044	0.00034396	1294.7	4.8545e-06	3.652e-06	1298.1	341.8	5.5021e-06	8.4797e-06	392.26	130.1	112.33	39.479	1.0795e-05	49.224	0.0007646	0.00069969	0.00022302	1349.6	8.2203e-06	8.0195e-06	1348.1	364.1	8.4433e-06	7.7849e-06	421.83	140.83	126.75	42.138	9.2142e-06	53.334	243.467	11.181	125.681	-22.570	141.322	62.152	-22.320	-17.581	72.278	-10.125	-18.269	-13.551	-12.250	-8.824	131.330	-9.645	-8191	255	
3230.667	1	1	0	0	0.23156	0.14697	0.069027	0.14124	0.091585	0.18483	0.24825	0.24947	0.072404	0.17124	0.1364	0.27372	0.14987	0.21297	0.18557	0.18589	-2.1875	-2.2833	-2.9938	-2.5542	-2.3563	-2.9313	-2.1604	-2.7333	-2.7313	-2.3312	-2.9833	-2.2979	-2.2208	-3.0729	-2.2729	-2.6188	34.445	163.764	41.575	221.460	310.876	101.739	202.521	319.906	216.346	257.724	271.744	236.882	116.014	233.745	247.607	287.677	0.00015689	0.00094344	0.00018302	1294.5	4.5883e-06	2.8968e-06	1298.5	341.3	5.6329e-06	4.6698e-06	394.13	131.18	111.96	39.694	5.3016e-06	49.49	0.00076252	0.00072499	0.00023953	1347.5	8.2038e-06	8.2837e-06	1355.2	362.73	8.4209e-06	8.1911e-06	425.9	140.87	126.42	42.507	9.7279e-06	53.212	225.192	121.522	83.119	-22.517	215.870	231.561	-22.366	-17.370	221.981	170.903	-18.141	-13.588	-12.690	-8.744	149.773	-9.634	-8191	255	
3230.763	1	1	0	0	0.1108	0.16864	0.052678	0.085078	0.17465	0.078691	0.24292	0.20903	0.24333	0.072203	0.11603	0.19871	0.32904	0.27974	0.22466	0.092932	-2.2687	-2.1875	-2.875	-2.3854	-2.4792	-2.9354	-2.3688	-2.7396	-2.75	-2.1083	-2.9354	-2.5792	-1.9979	-2.95	-2.3646	-2.4271	230.989	-4.569	300.126	276.215	185.671	140.696	264.055	317.418	316.782	82.090	64.054	-9.350	290.207	-29.286	245.174	208.558	0.00033038	0.0008494	0.00010095	1292.3	3.853e-06	4.0061e-06	1302.8	342.48	3.9604e-06	5.4214e-06	393.85	129.56	112.25	39.567	5.9892e-06	49.434	0.00075509	0.00077838	0.00024605	1346.7	8.0614e-06	8.8598e-06	1358.8	361.88	8.2059e-06	8.7552e-06	425.84	139.98	125.43	42.834	9.4813e-06	52.889	221.615	207.441	87.341	-22.234	185.863	175.448	-22.518	-17.658	39.295	208.679	-18.401	-13.412	-12.288	-8.650	114.092	-10.000	-8191	255	
3230.859	1	1	0	0	0.14834	0.19484	0.023279	0.67067	0.10474	0.19892	0.27393	0.089021	0.14539	0.23035	0.090577	0.38325	0.12607	0.035593	0.1837	0.14413	-2.2979	-2.1042	-2.6458	-2.5938	-2.1979	-2.6188	-2.3792	-2.5042	-2.8229	-1.9354	-2.6708	-2.4875	-2.1146	-2.8875	-2.2271	-2.4292	142.326	164.056	250.480	300.399	274.382	266.415	259.262	26.518	322.863	166.877	260.084	265.458	-20.181	124.616	317.821	55.166	0.00014395	0.00045179	0.0001849	1292.4	1.2816e-06	7.5555e-06	1302.1	343.39	4.4529e-06	6.7473e-06	395.13	130.81	114.02	39.598	4.0675e-06	49.438	0.00074257	0.00083359	0.00023869	1342.9	7.9405e-06	9.3635e-06	1356.1	361.19	8.1808e-06	9.3378e-06	422.79	139.66	126.04	43.13	9.0259e-06	52.68	224.564	150.848	-16.850	-22.582	304.980	141.075	-22.368	-17.524	206.445	211.709	-18.107	-13.379	-11.789	-8.664	58.067	-9.979	-8191	255	
3230.978	1	1	0	0	0.20729	0.12603	0.1537	0.35404	0.11303	0.26569	0.39934	0.26016	0.059194	0.18177	0.32352	0.13211	0.19564	0.19092	0.033851	0.073149	-2.5167	-2.0917	-2.5542	-2.7062	-2.2083	-2.7354	-2.4667	-2.3833	-2.7729	-2.0396	-2.6458	-2.675	-2.0458	-2.7792	-2.4354	-2.4042	146.536	251.649	187.223	307.544	280.744	262.714	247.635	-27.868	36.037	13.475	277.601	278.591	14.922	89.430	262.037	177.634	0.00053309	7.6354e-05	0.00013789	1289.3	2.9456e-06	4.7892e-06	1304	342.42	2.8926e-06	1.0491e-05	394.72	130.98	112.69	39.713	4.0346e-06	49.351	0.00075269	0.00086782	0.00022411	1341.1	8.2097e-06	9.5587e-06	1352.8	360.65	8.544e-06	9.6076e-06	420.22	139.63	128.24	43.252	8.794e-06	52.574	226.272	164.803	1.823	-22.434	288.224	-17.515	-22.589	-17.628	139.637	73.090	-18.494	-13.184	-11.540	-8.601	68.110	-9.814	-8191	255	
3231.074	1	1	0	0	0.18973	0.2404	0.14474	0.26545	0.017695	0.12247	0.13981	0.1825	0.065158	0.05747	0.20954	0.30845	0.13348	0.35949	0.14088	0.45566	-2.3708	-2.0229	-2.425	-2.7354	-2.0667	-2.4458	-2.5187	-2.2646	-2.8604	-2.3688	-2.35	-2.9042	-1.9625	-2.7146	-2.425	-2.375	61.347	109.575	120.027	263.347	323.610	-16.086	2.598	244.220	173.696	293.113	315.296	312.977	26.236	295.745	116.071	198.416	0.00055726	0.00014598	0.00019897	1295.5	6.9001e-06	7.559e-06	1306.7	343.34	4.1093e-07	1.6126e-05	394.71	130.76	113.18	39.959	2.7356e-06	49.638	0.00081125	0.00087932	0.00021933	1341.9	8.9903e-06	9.6715e-06	1352.9	361.08	9.3167e-06	9.5846e-06	420.59	139.66	131.87	43.205	8.729e-06	52.75	238.740	37.170	-5.985	-22.376	244.502	-2.675	-22.477	-17.611	314.387	-29.037	-18.495	-13.347	-11.483	-8.686	103.415	-9.922	-8191	255	
3231.171	1	1	0	0	0.24907	0.2778	0.16432	0.10507	0.19492	0.10949	0.28866	0.25669	0.17356	0.16158	0.24304	0.18084	0.15589	0.33914	0.11063	0.40924	-2.4958	-2.2521	-2.3979	-2.8271	-2.1667	-2.5521	-2.8229	-2.2167	-2.8729	-2.1562	-2.2771	-2.85	-2.1312	-2.5792	-2.4854	-2.1437	125.196	212.576	294.962	166.496	10.340	-7.085	13.339	108.468	292.001	191.321	305.164	-26.287	-1.464	319.676	25.163	273.500	0.0004473	0.00077326	0.00013969	1290.4	7.151e-06	6.4999e-06	1299.6	341.2	9.2983e-06	9.4178e-07	393.89	130.73	113.15	39.819	1.6038e-06	49.565	0.00086946	0.00085573	0.00021352	1341.8	9.59e-06	9.1325e-06	1350.2	360.94	9.6565e-06	9.1496e-06	417.98	139.96	133.38	42.863	8.4059e-06	53.147	236.755	31.223	-3.096	-22.396	267.758	41.811	-22.449	-17.449	189.208	85.611	-18.460	-13.235	-11.826	-8.843	39.970	-9.767	-8191	255	
3231.291	1	1	0	0	0.1176	0.21253	0.2107	0.18993	0.17531	0.079258	0.082296	0.23668	0.25418	0.18137	0.10678	0.042514	0.25713	0.15621	0.27621	0.28293	-2.2792	-2.3729	-2.1625	-2.9833	-2.1813	-2.4396	-2.8312	-2.2021	-2.7812	-2.4562	-2.1896	-2.9125	-2.0229	-2.5021	-2.6417	-2.0875	253.481	-10.455	59.021	311.903	157.544	111.842	289.817	264.943	277.953	-11.632	3.278	71.847	245.336	236.629	53.886	250.078	0.00021391	0.00072698	0.00011948	1295	4.1265e-06	7.0509e-06	1305.9	343.32	1.0768e-05	6.1556e-06	395.92	131.28	114.17	39.872	5.5518e-06	49.379	0.00088394	0.00081984	0.00021013	1348.2	9.8255e-06	8.7947e-06	1348.3	364.28	9.7344e-06	8.8701e-06	417.57	141.63	133.54	42.713	8.2676e-06	53.573	232.310	63.706	161.061	-22.412	162.564	91.785	-22.352	-17.537	0.813	68.832	-18.538	-13.054	-12.388	-8.939	100.286	-9.732	-8191	255	
3231.363	1	1	0	0	0.25273	0.074111	0.26595	0.1625	0.059897	0.20814	0.11391	0.18112	0.11636	0.19789	0.11317	0.3209	0.12276	0.49807	0.1311	0.23658	-2.2083	-2.6354	-2.1625	-3.0396	-2.1458	-2.7479	-2.8646	-2.1625	-2.6688	-2.7042	-2.3354	-2.7313	-2.3333	-2.5312	-2.9479	-2.1958	321.342	80.372	206.790	288.810	-23.484	-30.938	292.013	312.322	218.471	-34.948	237.039	-22.866	148.450	289.734	17.315	289.696	0.00034804	0.00044708	0.00013824	1294.7	1.302e-05	3.2746e-06	1302.9	343.82	4.6379e-06	2.6497e-06	395.28	131.01	112.17	40.047	6.466e-06	49.512	0.00085975	0.00079191	0.00020592	1355.5	9.469e-06	8.4912e-06	1347.3	366.4	9.2448e-06	8.6077e-06	417.6	142.07	131.03	42.675	8.4059e-06	54.044	206.945	130.052	86.758	-22.243	95.320	103.384	-22.323	-17.525	65.060	-5.791	-18.260	-13.300	-12.035	-8.865	105.056	-9.824	-8191	255	
3231.459	1	1	0	0	0.16037	0.10805	0.32101	0.076009	0.22972	0.048899	0.45355	0.07197	0.059162	0.087559	0.18617	0.28531	0.36194	0.094815	0.24418	0.065167	-2.1396	-2.5458	-2.0083	-2.9667	-2.2104	-2.2667	-3.0917	-2.3167	-2.6271	-2.8271	-2.2062	-2.7812	-2.4771	-2.3583	-2.8521	-2.1833	257.406	252.938	-7.316	264.254	180.563	163.060	290.050	55.376	136.793	323.739	232.588	281.815	315.440	17.798	56.666	181.679	0.00024691	0.00060486	0.0001334	1300.8	4.8096e-06	6.2183e-06	1304.1	343.44	8.5282e-06	4.2577e-06	395.88	130.84	113.28	39.75	8.4228e-06	49.573	0.00082162	0.00077598	0.00021254	1360.6	9.1174e-06	8.2912e-06	1351	368.35	8.8599e-06	8.4477e-06	420.9	142.59	130.19	42.451	8.8899e-06	54.165	235.987	39.360	162.490	-22.357	67.842	100.851	-22.366	-17.596	72.852	49.337	-18.321	-13.659	-12.227	-9.235	195.334	-9.619	-8191	255	
3231.555	1	1	0	0	0.041494	0.20691	0.21758	0.39139	0.29972	0.076492	0.26991	0.13142	0.14215	0.23875	0.21722	0.15539	0.26819	0.091621	0.14606	0.040714	-2.1271	-2.7167	-1.9937	-3.0104	-2.3312	-2.0792	-3.1688	-2.1917	-2.3312	-2.6396	-2.0583	-2.7062	-2.6188	-2.2687	-2.8729	-2.2333	321.745	104.482	116.287	291.445	97.981	125.672	270.636	292.771	105.934	110.751	26.930	266.714	-15.794	123.876	-5.445	213.747	6.8655e-05	0.00013826	0.00020423	1293.6	2.1884e-06	2.6982e-06	1299.9	344.62	2.6569e-06	7.8936e-06	393.1	130.88	113.11	39.636	8.3768e-06	49.523	0.00079016	0.00075894	0.00022682	1358	8.7656e-06	8.1022e-06	1356.9	367.24	8.5598e-06	8.2404e-06	424.24	142.02	129.01	42.421	9.4978e-06	53.915	234.739	235.506	121.806	-22.459	96.408	129.328	-22.350	-17.364	204.919	40.783	-18.315	-13.598	-12.464	-8.891	183.177	-9.372	-8191	255	
3231.674	1	1	0	0	0.12458	0.055832	0.052139	0.068303	0.0716	0.29988	0.18723	0.29766	0.074174	0.13895	0.12343	0.13684	0.12204	0.10689	0.13973	0.23755	-2.1208	-2.7896	-1.9833	-2.8563	-2.6125	-2.3812	-3.0458	-2.4042	-2.4062	-2.7083	-2.1917	-2.7896	-2.6333	-2.2958	-2.9021	-2.5271	199.207	117.366	187.532	27.208	145.836	229.475	244.299	19.111	210.452	163.009	102.441	269.808	283.148	282.837	143.717	197.299	0.00020976	0.00072658	6.1258e-05	1293.4	4.5456e-06	5.7638e-06	1304.8	344.3	3.9166e-06	1.1642e-05	395.44	131.57	112.99	39.752	1.2058e-05	49.543	0.00076961	0.00075928	0.00024439	1353.7	8.6259e-06	8.2376e-06	1363.1	365.92	8.3768e-06	8.4584e-06	427.7	141.3	127.96	42.58	9.738e-06	53.424	292.028	144.800	163.642	-22.503	29.823	184.439	-22.273	-17.636	28.547	143.758	-18.605	-13.813	-12.133	-8.790	82.891	-9.704	-8191	255	
3231.770	1	1	0	0	0.093422	0.073953	0.23777	0.14482	0.063385	0.1087	0.45632	0.17294	0.089475	0.080899	0.17507	0.11604	0.2243	0.16584	0.23953	0.015641	-1.7875	-2.7042	-2.1063	-2.7021	-2.6208	-2.1146	-2.8917	-2.475	-2.2333	-2.9813	-2.3021	-2.5312	-2.7958	-2.2146	-2.8646	-2.675	-1.645	-29.836	276.527	234.473	14.518	135.359	265.568	193.995	201.974	312.017	257.094	215.498	100.525	6.388	240.714	307.038	0.00040148	0.00094611	0.00019394	1297.1	1.995e-06	6.8056e-07	1304.8	344.31	9.3329e-06	9.8603e-06	394	131.32	113.23	39.719	4.5816e-06	49.535	0.00074296	0.000783	0.00024752	1347.8	8.3055e-06	8.6293e-06	1364.7	364.46	8.0777e-06	8.8857e-06	426.74	140.59	127.25	42.945	9.5717e-06	53.26	214.626	114.882	39.893	-22.501	-29.434	153.918	-22.520	-17.598	59.179	142.780	-18.223	-13.176	-12.218	-8.782	33.492	-9.605	-8191	255	
3231.866	1	1	0	0	0.22753	0.12188	0.18138	0.057111	0.11121	0.085834	0.18299	0.10216	0.17054	0.11216	0.20224	0.19727	0.12933	0.23623	0.29587	0.40663	-1.9292	-2.8896	-2.2438	-2.6	-2.7	-2.2792	-3.0583	-2.7354	-2.0187	-2.8792	-2.4104	-2.4	-2.7708	-2.1458	-2.4979	-2.5042	317.467	56.248	50.698	79.211	256.893	243.936	290.658	-23.527	54.287	78.874	251.122	-28.543	-33.689	276.764	278.919	232.263	8.5013e-05	0.00055089	0.00017391	1299.9	2.4935e-06	1.074e-05	1310.5	344.54	7.1784e-06	3.1096e-06	396.02	131	112.71	39.65	5.1714e-06	49.387	0.00072715	0.00084235	0.00024253	1348.8	8.2471e-06	9.3366e-06	1361	363.78	8.085e-06	9.5102e-06	425.59	140.05	127.27	43.281	9.2152e-06	53.159	218.383	147.293	-13.296	-22.513	96.665	162.661	-22.470	-17.421	135.647	157.316	-18.541	-13.498	-11.702	-8.860	86.867	-9.733	-8191	255	
3231.940	1	1	0	0	0.10072	0.18102	0.14059	0.11174	0.15462	0.11051	0.2415	0.067456	0.13217	0.19463	0.23131	0.47091	0.16252	0.28368	0.20906	0.28138	-1.8771	-3.0292	-2.3208	-2.4708	-2.8208	-2.1604	-2.7812	-2.775	-2.0771	-2.8917	-2.5708	-2.2854	-2.8667	-2.1083	-2.4292	-2.925	258.266	206.489	161.803	-24.760	-11.994	248.456	309.484	167.820	73.421	12.776	-27.789	215.559	136.879	301.981	77.728	138.047	0.0005468	8.6033e-05	0.00011287	1298.2	3.138e-06	5.8056e-06	1310.4	343.73	1.2535e-05	4.8944e-06	394.82	131.2	112.68	39.969	3.617e-06	49.829	0.00075047	0.0008936	0.00023346	1345.1	8.5287e-06	9.7437e-06	1357.2	363.25	8.4954e-06	9.763e-06	422.55	139.72	129.49	43.399	8.7351e-06	53.065	263.028	210.535	291.334	-22.604	230.415	179.432	-22.525	-17.434	192.891	143.550	-18.298	-13.498	-11.731	-8.773	320.682	-9.462	-8191	255	
3232.059	1	1	0	0	0.20383	0.090995	0.17294	0.18606	0.07883	0.12952	0.26614	0.46569	0.27415	0.18923	0.25668	0.081302	0.27016	0.11528	0.13794	0.23578	-1.5604	-2.7375	-2.4604	-2.3896	-2.9188	-2.2396	-2.7042	-2.9208	-1.9958	-2.7438	-2.6417	-2.3	-2.7854	-2.2562	-2.2833	-2.9938	144.823	-6.520	165.288	283.173	125.715	41.188	257.629	316.136	86.301	210.936	243.988	229.458	51.828	268.229	-10.183	209.804	0.00049938	0.00050758	6.3851e-05	1303.1	4.9402e-06	5.7343e-06	1307.9	343.75	5.673e-06	1.4618e-06	395.31	130.79	113.24	39.756	3.4312e-08	49.251	0.00079438	0.00088729	0.00022384	1343.7	9.0544e-06	9.636e-06	1354.9	362.43	9.0061e-06	9.4904e-06	421.28	138.97	131.43	43.139	8.3753e-06	52.732	246.203	120.165	-14.370	-22.537	295.934	85.072	-22.471	-17.460	228.814	168.166	-18.326	-13.253	-11.855	-9.148	276.935	-9.622	-8191	255	
3232.155	1	1	0	0	0.25203	0.10027	0.2866	0.10726	0.17606	0.12067	0.20387	0.24763	0.12985	0.043046	0.096809	0.12833	0.15687	0.22309	0.18947	0.28168	-1.7083	-2.4125	-2.4688	-2.2125	-2.7792	-2.1167	-2.4896	-2.9104	-2.1771	-2.5625	-2.6479	-2.2625	-2.6458	-2.6188	-2.3812	-2.9229	145.555	324.656	147.909	171.587	59.792	124.193	323.258	37.428	59.047	295.670	289.676	275.444	314.456	234.628	256.560	263.561	0.00055719	0.0005592	2.8644e-05	1294	1.0032e-05	8.6244e-06	1304.2	344.34	1.1898e-05	1.038e-05	395.99	131.11	113.64	39.581	1.9285e-06	49.46	0.00083744	0.00083431	0.00021471	1339.7	9.4049e-06	9.0996e-06	1348.2	362.13	9.4154e-06	8.8831e-06	419.69	139.52	132.98	42.803	8.079e-06	53.037	236.474	22.210	-29.369	-22.557	271.860	100.651	-22.371	-17.297	115.895	51.830	-18.392	-13.323	-11.878	-8.836	113.528	-9.426	-8191	255	
3232.251	1	1	0	0	0.11629	0.13246	0.097474	0.23663	0.14109	0.21442	0.37256	0.31488	0.21936	0.083732	0.15202	0.01722	0.17298	0.10103	0.22403	0.19519	-1.8521	-2.4854	-2.5792	-2.4292	-2.7729	-2.325	-2.4437	-3.1562	-2.1917	-2.6021	-2.8646	-2.0687	-2.775	-2.5333	-2.1979	-2.9375	190.224	298.961	6.133	278.993	249.806	276.843	294.041	283.852	138.630	18.591	278.363	1.884	264.956	39.670	312.528	186.766	0.00037305	0.0011386	0.00017694	1293.4	7.3534e-06	1.157e-05	1307.6	344.06	4.5263e-06	2.6511e-06	395.87	130.99	112.71	39.856	5.4198e-06	49.362	0.00086235	0.0007891	0.00020887	1342.4	9.518e-06	8.6864e-06	1346	363.59	9.4772e-06	8.4755e-06	418.27	140.28	132.01	42.646	7.9013e-06	53.444	233.925	37.854	43.958	-22.578	238.529	1.657	-22.447	-17.484	229.700	45.284	-18.210	-13.288	-12.400	-8.993	62.517	-9.571	-8191	255	
3232.372	1	1	0	0	0.13241	0.048376	0.37791	0.42814	0.13982	0.1675	0.17288	0.34701	0.22753	0.31731	0.078367	0.31518	0.1479	0.21112	0.16856	0.24744	-1.8042	-2.3854	-2.8833	-2.3396	-2.7083	-2.4833	-2.4583	-3.025	-2.2917	-2.3521	-2.9313	-2.2792	-2.7854	-2.6312	-2.0229	-2.9042	108.795	304.008	-10.709	265.179	251.696	165.691	306.301	299.281	296.233	-12.503	253.525	240.558	266.762	26.873	95.111	191.418	0.00014854	0.00044999	0.00020912	1291.8	5.1983e-06	4.4244e-06	1305.8	342.44	1.2836e-05	4.6962e-06	396.21	130.57	113.26	39.727	4.5526e-06	49.37	0.00084815	0.00076399	0.00020555	1350.9	9.2385e-06	8.4827e-06	1343.9	365.66	9.2182e-06	8.2579e-06	418.49	141.6	130.53	42.524	7.9667e-06	53.881	251.696	17.625	82.917	-22.260	145.344	19.050	-22.505	-17.462	1.615	36.093	-18.239	-13.554	-11.841	-8.754	127.041	-9.721	-8191	255	
3232.468	1	1	0	0	0.17651	0.483	0.10056	0.11074	0.1538	0.067165	0.27307	0.054435	0.34311	0.10021	0.23271	0.27264	0.021973	0.25565	0.12824	0.083083	-2.0521	-2.3479	-2.8125	-2.425	-2.5708	-2.5958	-2.3688	-2.9792	-2.4083	-2.4292	-3.0187	-2.2667	-2.4229	-2.8542	-2.3125	-2.7896	279.920	154.208	180.089	260.253	22.683	118.533	264.123	-30.988	29.815	-9.508	239.847	318.040	188.562	247.240	323.567	308.924	0.00016169	0.00042578	0.00029285	1297.5	9.4636e-06	4.4212e-06	1304.7	344.84	1.3519e-05	7.303e-06	392.47	131.13	113.05	39.868	6.6095e-06	49.387	0.00081671	0.00074512	0.00020907	1356.6	8.815e-06	8.2564e-06	1347.2	367.1	8.7583e-06	8.0386e-06	418.91	142.1	128.45	42.438	8.4748e-06	53.84	227.324	144.238	120.655	-22.563	105.798	91.889	-22.468	-17.462	91.810	115.204	-18.238	-13.603	-11.935	-8.846	236.061	-9.777	-8191	255	
3232.564	1	1	0	0	0.32569	0.27031	0.12551	0.22333	0.065139	0.15498	0.34677	0.32494	0.25895	0.048705	0.095162	0.028717	0.10242	0.1937	0.087156	0.016971	-2.1208	-2.3396	-2.95	-2.2958	-2.5062	-2.7458	-2.3083	-2.8083	-2.5187	-2.1063	-3.0729	-2.55	-2.5062	-2.9458	-2.2542	-2.8438	7.470	18.332	296.653	214.646	-17.873	283.974	309.402	307.571	-6.516	-31.818	303.486	25.332	158.752	73.059	229.027	4.266	0.00019968	0.00025799	0.00010215	1295.9	5.8321e-06	4.1028e-06	1305.9	344.36	8.7152e-06	3.9101e-06	395.04	131.07	112.53	39.954	1.3012e-05	49.612	0.00077771	0.00072466	0.00022179	1356.7	8.4703e-06	8.0693e-06	1357.3	366.69	8.5383e-06	7.9009e-06	423.74	141.96	127.68	42.419	9.1652e-06	53.754	213.731	205.507	126.015	-22.421	110.000	123.801	-22.415	-17.482	17.685	101.264	-18.382	-13.519	-11.964	-9.036	169.732	-9.843	-8191	255	
3232.660	1	1	0	0	0.15986	0.16375	0.11782	0.36202	0.091167	0.20743	0.14344	0.17923	0.1404	0.37528	0.283	0.15823	0.09244	0.21054	0.12592	0.059102	-2.1375	-2.0229	-2.7771	-2.4771	-2.3812	-2.9792	-2.5708	-2.8271	-2.6083	-2.2833	-2.9583	-2.4313	-2.1896	-2.8708	-2.0792	-2.6958	212.545	205.029	229.903	308.326	266.133	168.867	-23.580	-35.506	146.424	274.051	273.875	299.590	239.198	63.008	-32.835	248.996	0.00033095	0.0011772	0.00022373	1296.1	3.0657e-06	7.1233e-06	1305.7	344.36	2.2269e-06	6.1169e-06	394.55	130.87	113.32	39.787	5.7175e-06	49.361	0.00076891	0.00073292	0.00023903	1353.6	8.4002e-06	8.2845e-06	1361.6	365.56	8.5277e-06	8.2545e-06	427.24	141.42	127.73	42.659	9.7129e-06	53.401	233.709	97.593	142.030	-22.350	190.704	176.356	-22.527	-17.613	257.801	136.340	-18.232	-13.379	-12.258	-8.833	261.162	-9.871	-8191	255	
3232.756	1	1	0	0	0.25963	0.18517	0.072637	0.070499	0.16778	0.14155	0.142	0.20607	0.21701	0.11264	0.25262	0.19592	0.015577	0.13858	0.23053	0.13923	-2.3646	-2.2979	-2.7875	-2.4875	-2.4375	-2.7458	-2.2896	-2.6583	-2.8333	-2.1437	-2.9729	-2.6479	-2.225	-2.9583	-2.2479	-2.7125	274.404	69.524	264.864	-16.399	119.939	86.037	244.523	186.089	221.857	228.503	210.746	322.054	175.737	262.756	211.135	64.108	0.00019211	0.00060296	0.00023064	1295.8	4.2977e-06	3.8641e-06	1306.1	343.54	1.081e-05	5.7146e-06	397.44	130.8	112.92	39.723	2.4698e-06	49.41	0.00075902	0.00077062	0.00024604	1349.7	8.1763e-06	8.6482e-06	1363.7	363.93	8.2398e-06	8.626e-06	427.31	140.07	125.82	42.894	9.469e-06	52.995	250.254	135.467	3.266	-22.440	225.996	102.792	-22.576	-17.406	121.072	242.474	-18.368	-13.675	-12.474	-8.794	110.705	-10.041	-8191	255	
3232.851	1	1	0	0	0.083706	0.12762	0.20786	0.19619	0.017024	0.10597	0.14529	0.0064419	0.18828	0.10466	0.19894	0.35296	0.32089	0.23276	0.16549	0.15465	-2.4437	-2.1083	-2.6958	-2.3667	-2.1312	-3.0687	-2.3771	-2.625	-2.7042	-1.9792	-2.8354	-2.6437	-2.3375	-2.9875	-2.2167	-2.4437	68.543	173.148	167.867	294.788	296.914	156.859	181.559	45.839	187.415	316.911	-21.658	278.590	183.184	321.778	128.393	256.533	0.00031862	0.00024492	0.00021246	1294.8	4.1559e-06	5.8079e-06	1309.5	343.1	2.0021e-06	5.9708e-06	394.73	130.55	113.92	39.698	6.1435e-06	49.469	0.0007323	0.00080805	0.00023723	1345.2	7.8291e-06	9.0753e-06	1357.5	361.47	7.9277e-06	9.0368e-06	422.8	139.43	125.16	43.064	8.9457e-06	52.707	249.010	49.347	-27.622	-22.337	81.942	185.499	-22.566	-17.545	179.981	285.680	-18.252	-13.193	-12.265	-8.729	148.051	-9.718	-8191	255	
3232.971	1	1	0	0	0.21726	0.11556	0.243	0.17103	0.082625	0.21468	0.1134	0.11621	0.33313	0.22025	0.15027	0.26584	0.25941	0.30335	0.091996	0.23196	-2.2354	-2.2	-2.7125	-2.6604	-1.9729	-2.8583	-2.5792	-2.4229	-2.8	-2.1958	-2.6854	-2.5583	-2.0167	-2.9271	-2.2479	-2.2417	110.844	238.642	36.379	3.907	51.476	148.847	262.123	54.123	189.921	280.649	33.152	272.420	-16.903	91.812	70.989	303.415	0.00028466	0.0005045	0.00023225	1296	4.4584e-06	6.3744e-06	1302	344.36	1.265e-05	5.2598e-06	392.91	130.34	112.71	39.939	2.1616e-06	49.629	0.00073306	0.00084811	0.00022441	1342.5	8.1027e-06	9.4883e-06	1353.1	361.11	8.3167e-06	9.4248e-06	419.83	139.05	127.31	43.17	8.6175e-06	52.573	241.755	189.600	13.896	-22.519	262.501	46.270	-22.515	-17.482	191.731	166.984	-18.511	-13.434	-11.815	-8.616	74.789	-9.643	-8191	255	
3233.067	1	1	0	0	0.10119	0.10831	0.1322	0.22962	0.10384	0.43057	0.23317	0.11492	0.34065	0.1326	0.10238	0.3251	0.17309	0.17144	0.16395	0.23003	-2.4813	-2.0333	-2.6146	-2.8458	-1.9875	-2.7042	-2.6125	-2.3083	-3.0021	-2.3063	-2.5104	-2.9729	-1.9979	-2.8625	-2.4333	-2.4146	223.112	207.585	174.820	314.597	125.954	8.375	247.323	296.016	25.630	28.203	148.385	263.337	229.666	80.354	316.587	204.175	0.00038893	0.00081424	0.00013245	1297.8	1.1793e-05	6.2119e-06	1306.2	344.38	8.8648e-06	1.9632e-06	395.66	131.34	113.68	39.822	4.5471e-06	49.552	0.00077475	0.00085301	0.00021296	1342.3	8.5437e-06	9.3065e-06	1351.8	360.18	8.8022e-06	9.2474e-06	419.1	139.39	130.12	43.111	8.4128e-06	52.599	252.141	-19.052	99.139	-22.286	239.151	123.481	-22.498	-17.596	225.835	127.351	-18.513	-13.593	-11.900	-8.844	108.670	-9.680	-8191	255	
3233.164	1	1	0	0	0.26816	0.065196	0.094314	0.087235	0.060441	0.2263	0.095412	0.34575	0.13296	0.14664	0.15884	0.11158	0.16953	0.3471	0.073635	0.25055	-2.4667	-2.2833	-2.4146	-3.1021	-2.0021	-2.6688	-2.8667	-2.275	-2.6896	-2.3146	-2.4604	-2.9646	-2.1604	-2.7687	-2.6188	-2.0417	89.397	100.582	-6.842	319.911	192.303	282.177	169.349	298.075	262.706	253.810	13.529	-3.117	223.479	304.303	194.545	266.935	0.00055919	0.00053986	0.00010949	1304.3	6.1249e-06	1.0672e-05	1308.4	344.5	3.2561e-06	1.002e-05	395.67	130.52	113.56	39.689	1.1674e-06	49.453	0.00083089	0.00082696	0.00020815	1347.3	9.1623e-06	8.9595e-06	1352.5	361.08	9.3388e-06	8.9875e-06	418.4	139.72	132.17	42.858	8.3008e-06	52.96	251.690	36.811	-3.801	-22.571	200.559	-24.327	-22.324	-17.592	124.797	3.234	-18.564	-13.451	-11.726	-9.096	44.901	-9.714	-8191	255	
3233.235	1	1	0	0	0.19352	0.19631	0.16487	0.3328	0.27056	0.22579	0.35298	0.40519	0.098857	0.19653	0.085543	0.10946	0.37697	0.20574	0.10237	0.092301	-2.45	-2.3583	-2.3396	-2.925	-2.0896	-2.65	-2.9062	-2.0229	-2.7396	-2.3542	-2.4437	-3.0938	-2.2083	-2.525	-2.6562	-1.9229	304.513	164.211	308.091	239.050	161.342	88.716	259.141	263.501	264.833	171.610	185.702	119.154	8.533	-28.921	89.252	137.858	0.00028221	0.00042271	0.00010524	1299	4.9855e-06	5.1849e-06	1309.8	342.98	8.7133e-06	3.4901e-06	396.36	131.51	113.84	39.828	3.0875e-06	49.377	0.00086734	0.00080594	0.00020729	1351	9.6236e-06	8.7094e-06	1352.4	364.03	9.6249e-06	8.7575e-06	418.91	141.23	132.95	42.728	8.2404e-06	53.356	251.796	-6.855	74.820	-22.447	211.872	108.566	-22.382	-17.622	118.819	7.307	-18.215	-13.374	-12.128	-8.883	85.378	-9.658	-8191	255	
3233.356	1	1	0	0	0.17999	0.13154	0.27305	0.264	0.11327	0.30795	0.38133	0.22547	0.047152	0.036387	0.24077	0.24807	0.17554	0.099679	0.24413	0.11835	-2.2583	-2.3542	-1.9937	-3.1146	-2.2375	-2.3896	-2.8958	-2.0708	-2.7125	-2.475	-2.3208	-2.8312	-2.1688	-2.3646	-2.6437	-2.0979	168.604	77.970	-26.678	261.961	313.672	56.020	261.589	269.754	-18.409	112.949	319.935	323.731	257.538	193.452	190.186	-29.978	0.00027315	0.00032738	9.5861e-05	1298.3	3.7221e-06	5.6905e-06	1309.8	344.66	7.9464e-06	1.4563e-06	398.03	131.6	113.94	39.683	4.0886e-06	49.301	0.00085334	0.00078895	0.00020271	1355.4	9.3514e-06	8.3928e-06	1349.7	366.13	9.1856e-06	8.4848e-06	417.65	142.08	131.41	42.503	8.2119e-06	53.871	199.083	139.503	13.160	-22.404	72.470	86.319	-22.390	-17.530	51.340	78.641	-18.501	-13.126	-12.059	-8.828	177.897	-9.611	-8191	255	
3233.452	1	1	0	0	0.063501	0.13399	0.097656	0.20853	0.31519	0.20491	0.25574	0.10245	0.019203	0.1036	0.12933	0.14121	0.022953	0.026924	0.14991	0.2899	-2.1562	-2.4583	-2.1125	-2.9875	-2.2771	-2.3396	-2.9771	-2.1729	-2.7042	-2.7687	-2.1937	-2.7292	-2.2521	-2.4021	-2.7167	-1.9312	12.470	229.575	34.350	27.121	85.625	106.376	279.905	250.107	177.470	64.800	66.561	308.816	298.811	294.213	236.965	321.819	0.00024772	0.00045323	0.00016042	1297.5	3.7404e-06	6.3479e-06	1312.3	343.13	1.085e-05	8.5791e-06	394.78	131.41	113.33	39.939	6.1764e-06	49.447	0.00081817	0.0007716	0.00020673	1361.5	8.9953e-06	8.2238e-06	1353.1	367.89	8.8152e-06	8.3382e-06	419.27	142.67	129.44	42.389	8.599e-06	54.038	240.188	57.456	88.037	-22.281	90.460	79.743	-22.380	-17.681	13.687	57.819	-18.127	-13.536	-12.021	-8.709	189.684	-9.967	-8191	255	
3233.548	1	1	0	0	0.069527	0.26825	0.29193	0.46472	0.17925	0.15538	0.42804	0.18157	0.10193	0.32314	0.32187	0.16348	0.16767	0.14938	0.31053	0.29696	-2.2313	-2.5625	-1.9417	-2.9458	-2.4062	-2.1854	-3.0292	-2.3771	-2.1958	-2.6875	-2.175	-2.7	-2.3937	-2.1813	-2.75	-2.2188	70.712	59.452	136.495	298.720	114.275	26.422	269.240	317.134	288.195	295.632	323.820	322.247	193.146	-12.901	265.699	258.299	0.00022053	0.00053252	0.00018763	1300.3	5.4021e-06	6.1647e-06	1309.8	344.43	6.7452e-06	8.0537e-06	395.1	131.03	114.27	39.867	6.2904e-06	49.526	0.00077872	0.00074966	0.00021907	1360.8	8.6297e-06	7.9477e-06	1359.1	366.98	8.4158e-06	8.1067e-06	423.68	141.8	128.38	42.351	9.1447e-06	53.776	228.863	37.049	58.351	-22.302	107.977	134.200	-22.428	-17.355	23.123	60.312	-18.400	-13.669	-11.770	-9.050	215.895	-9.707	-8191	255	
3233.644	1	1	0	0	0.020945	0.22099	0.17596	0.17706	0.27645	0.29805	0.30684	0.24996	0.19717	0.08237	0.18914	0.15746	0.18037	0.13225	0.1215	0.39824	-2.0187	-2.625	-1.9188	-2.925	-2.5542	-2.2042	-2.9208	-2.4542	-2.425	-2.75	-2.3271	-2.6458	-2.5021	-2.1688	-2.7646	-2.4896	80.286	100.896	230.649	-10.747	242.184	96.700	288.569	271.936	175.900	64.154	252.420	259.242	295.001	216.261	111.411	149.119	0.00029155	0.00047147	0.00014446	1294.7	2.5578e-06	4.0411e-06	1309.9	345.3	5.6845e-06	1.6112e-06	394.84	131	113.86	39.808	9.1599e-06	49.587	0.00075884	0.00073662	0.00023434	1354	8.4444e-06	7.9685e-06	1363	366.06	8.2305e-06	8.172e-06	425.93	141.17	127.36	42.382	9.4927e-06	53.351	267.533	16.010	142.380	-22.402	122.827	9.036	-22.518	-17.564	72.306	49.476	-18.275	-13.424	-12.122	-8.747	171.189	-9.789	-8191	255	
3233.740	1	1	0	0	0.012021	0.19857	0.081357	0.28377	0.34376	0.33733	0.16108	0.4505	0.1253	0.27925	0.10148	0.39631	0.12105	0.24419	0.11801	0.30942	-1.8583	-2.7875	-2.0396	-2.7021	-2.6979	-1.9646	-2.9542	-2.4938	-2.325	-2.8396	-2.1188	-2.5979	-2.7479	-2.2479	-2.5667	-2.4146	-20.787	212.623	119.170	276.281	34.815	179.767	230.787	261.725	322.055	53.377	21.880	235.276	235.705	228.513	260.486	284.719	0.00019547	6.0082e-05	0.00015325	1301.3	5.5567e-06	5.2259e-06	1308	344.4	3.9122e-06	8.1691e-06	395.08	131.77	113.21	39.773	9.4423e-06	49.203	0.00073576	0.00075907	0.00024173	1351.3	8.1573e-06	8.3765e-06	1363.9	363.75	8.0316e-06	8.6217e-06	426.91	140.44	126.7	42.79	9.4882e-06	53.125	225.659	137.110	47.660	-22.390	112.896	196.085	-22.388	-17.608	19.426	192.321	-18.354	-13.526	-12.150	-8.752	64.630	-9.693	-8191	255	
3233.837	1	1	0	0	0.20681	0.2754	0.16696	0.36864	0.25271	0.11108	0.067598	0.19117	0.017921	0.20934	0.19885	0.20895	0.15885	0.20746	0.11704	0.15493	-1.8125	-2.7646	-1.9646	-2.5667	-2.7417	-2.0354	-2.9042	-2.4792	-2.1875	-2.9813	-2.3063	-2.4792	-2.6083	-2.1271	-2.5917	-2.5438	53.166	-2.183	228.635	316.163	120.926	77.200	212.813	28.672	-25.619	-25.566	317.835	-34.428	226.507	287.781	151.897	239.412	0.00024228	0.0008513	0.00022055	1299.6	1.685e-06	7.7851e-06	1311.1	343.85	4.5696e-06	5.502e-06	393.45	130.76	113.1	39.966	8.4255e-06	49.54	0.00072247	0.00081781	0.0002391	1348.7	8.0505e-06	8.9828e-06	1361.8	362.57	7.872e-06	9.1111e-06	424.06	139.77	126.21	43.166	9.0839e-06	53.009	256.631	99.516	321.204	-22.540	169.925	184.209	-22.630	-17.500	19.460	116.534	-18.468	-13.694	-11.784	-8.911	48.594	-9.564	-8191	255	
3233.933	1	1	0	0	0.1577	0.22758	0.30206	0.19086	0.09975	0.13209	0.35834	0.12585	0.068287	0.043205	0.34121	0.11235	0.11096	0.079508	0.22518	0.22971	-1.7708	-2.8604	-2.1813	-2.4813	-2.6958	-2.0396	-2.7667	-2.6625	-2.2208	-2.7938	-2.225	-2.3479	-2.65	-1.9188	-2.625	-2.6896	293.760	209.568	216.824	251.223	71.961	274.299	275.057	231.584	298.446	57.706	310.248	322.873	312.074	191.522	26.318	321.593	0.00041708	0.00042952	0.00022473	1296.6	3.6845e-06	8.4848e-06	1306.6	344.32	7.8031e-06	8.681e-06	394.28	131.2	113.5	39.914	8.3137e-06	49.558	0.00073158	0.00086442	0.00023169	1344.2	8.2672e-06	9.5978e-06	1358.1	362.41	8.2937e-06	9.5808e-06	422.56	139.69	128.4	43.333	8.7006e-06	52.905	217.431	60.911	28.485	-22.450	267.940	182.252	-22.623	-17.379	186.390	166.385	-18.216	-13.588	-11.870	-9.007	25.430	-9.789	-8191	255	
3234.052	1	1	0	0	0.29526	0.22493	0.19978	0.15654	0.043363	0.25606	0.27346	0.25872	0.0597	0.066877	0.095196	0.1178	0.18745	0.25841	0.062652	0.053836	-1.6208	-2.8417	-2.4042	-2.2667	-2.6	-2.3187	-2.7125	-2.7687	-2.1312	-2.7708	-2.5	-2.3208	-2.875	-2.3	-2.3063	-2.7938	216.123	191.481	138.655	29.780	300.438	-4.432	201.244	-11.103	322.752	3.569	257.747	52.232	240.691	-18.829	-24.929	216.810	0.00043357	0.00022345	0.00019971	1300.7	8.8575e-06	3.4287e-06	1312.3	344.56	5.2626e-06	5.7458e-06	394.39	130.99	113.33	39.753	1.4353e-06	49.486	0.00077472	0.00087177	0.00022074	1345.2	8.7411e-06	9.5243e-06	1355	362.22	8.9062e-06	9.456e-06	420.44	139.15	131.04	43.138	8.5575e-06	52.901	254.325	224.643	117.791	-22.563	227.124	22.723	-22.570	-17.552	206.342	0.023	-18.420	-13.409	-11.602	-8.813	-5.615	-9.724	-8191	255	
3234.148	1	1	0	0	0.044039	0.082484	0.20743	0.30246	0.51478	0.32282	0.27105	0.053691	0.15173	0.085189	0.059667	0.23745	0.082073	0.17277	0.294	0.20891	-1.5167	-2.6896	-2.3312	-2.3104	-2.8875	-2.2021	-2.5667	-2.8229	-1.925	-2.5812	-2.7938	-2.0687	-2.8708	-2.3625	-2.3771	-2.8563	221.049	270.485	305.714	240.513	42.925	227.799	-31.917	60.387	59.187	87.217	1.135	166.161	299.809	198.037	136.826	185.226	0.00036728	0.00044706	1.1901e-05	1297.4	1.5434e-06	8.7195e-06	1310.9	344.37	8.1226e-06	1.0502e-05	396.82	130.87	113.26	40.034	1.1562e-06	49.42	0.0008421	0.0008536	0.00022049	1345	9.4516e-06	9.3649e-06	1354	363.05	9.577e-06	9.2276e-06	421.11	139.71	133.52	43.114	8.3905e-06	53.008	261.438	-24.460	61.460	-22.533	264.570	70.178	-22.411	-17.543	144.449	77.168	-18.061	-13.657	-11.725	-8.714	94.987	-9.525	-8191	255	
3234.244	1	1	0	0	0.054823	0.22369	0.29504	0.12346	0.17229	0.17159	0.14832	0.056536	0.18107	0.19454	0.28583	0.030961	0.073188	0.35836	0.25974	0.11525	-1.7	-2.5604	-2.5417	-2.2146	-2.65	-2.2021	-2.55	-2.7375	-2.0417	-2.6458	-2.6562	-2.3354	-2.7812	-2.2896	-2.1229	-2.6813	18.708	239.127	164.576	252.664	136.655	16.868	292.876	300.911	217.393	271.434	-31.287	142.667	294.734	-24.432	108.983	185.436	0.00022827	0.0004433	0.00013261	1299.7	3.5704e-06	8.3792e-06	1305.8	343.85	3.9929e-06	6.2e-06	395.35	131.31	113.84	39.927	3.7963e-06	49.442	0.0008773	0.00081402	0.00021377	1347.8	9.69e-06	8.9136e-06	1348.3	364.45	9.7157e-06	8.7245e-06	418.81	140.65	132.92	42.817	8.0674e-06	53.52	287.359	29.454	36.926	-22.544	161.989	19.916	-22.294	-17.565	155.132	37.400	-18.326	-13.335	-12.189	-8.675	-7.306	-9.819	-8191	255	
3234.340	1	1	0	0	0.20423	0.098877	0.16285	0.19212	0.13861	0.30686	0.17237	0.088234	0.13615	0.25488	0.22464	0.14377	0.23085	0.21394	0.20155	0.32444	-1.6292	-2.3396	-2.5208	-2.1125	-2.6021	-2.55	-2.2583	-2.925	-2.2333	-2.5521	-2.7083	-1.9771	-2.7979	-2.7146	-1.9042	-2.8438	296.062	38.008	219.085	290.714	237.144	110.922	203.423	-6.455	113.499	7.224	289.520	299.334	268.239	321.502	174.007	300.451	0.00037564	0.00082231	0.00024458	1299.1	6.23e-06	3.7216e-06	1305.9	343.89	1.4411e-06	1.0191e-06	397.92	130.67	113.67	39.97	3.861e-06	49.489	0.0008631	0.00078121	0.00020797	1353.6	9.4246e-06	8.6005e-06	1347.6	366.52	9.3816e-06	8.4786e-06	419.01	141.83	131.29	42.684	8.0662e-06	53.931	230.821	56.181	-2.477	-22.465	99.145	102.831	-22.453	-17.226	273.880	190.574	-18.279	-13.499	-11.781	-8.831	115.178	-9.507	-8191	255	
3234.461	1	1	0	0	0.20394	0.22171	0.1876	0.39427	0.20746	0.24568	0.59166	0.20958	0.14609	0.07187	0.17332	0.10146	0.1749	0.47817	0.29359	0.10227	-1.8813	-2.2792	-2.6667	-2.2729	-2.7313	-2.5896	-2.2104	-2.9646	-2.2979	-2.1958	-2.9292	-2.2	-2.5833	-2.85	-2.1396	-2.7271	129.833	150.117	57.629	-34.796	224.823	-2.386	295.763	289.995	193.057	-9.005	-15.571	213.012	64.044	20.262	309.783	315.844	0.00034136	0.00040467	0.00017311	1301.6	6.1412e-06	1.0056e-05	1308.3	345.64	4.1253e-06	5.8702e-06	394.38	131.17	113.18	39.813	1.1735e-05	49.703	0.00083104	0.00076417	0.0002081	1360.1	8.986e-06	8.3908e-06	1351.1	368.53	8.9688e-06	8.2141e-06	419.54	142.59	129.55	42.551	8.5637e-06	54.155	238.454	53.074	98.356	-22.434	91.506	135.299	-22.539	-17.353	64.417	156.957	-18.177	-13.346	-12.205	-8.809	139.711	-9.940	-8191	255	
3234.532	1	1	0	0	0.30865	0.26975	0.086706	0.2747	0.18133	0.098683	0.053514	0.21532	0.20694	0.17557	0.17621	0.34284	0.2472	0.28616	0.0814	0.11885	-1.9188	-2.25	-2.8312	-2.1896	-2.4292	-2.625	-2.3104	-2.8542	-2.5542	-2.2938	-2.9333	-2.1979	-2.4208	-2.9	-2.1063	-2.9708	218.784	-25.220	230.768	-10.930	23.304	180.385	33.196	297.661	277.010	297.521	5.138	267.754	249.481	298.934	85.966	-20.112	0.00014368	0.00026962	8.4627e-05	1300.1	4.1306e-06	3.2122e-06	1307.6	345.91	3.9795e-06	5.3378e-06	394.86	131.15	113.25	39.915	1.2551e-05	49.631	0.00080074	0.00074765	0.00022327	1361.2	8.7103e-06	8.2371e-06	1357	368.56	8.7167e-06	8.1476e-06	424.92	142.39	128.73	42.463	9.2356e-06	53.98	217.214	49.623	76.355	-22.431	93.702	34.954	-22.453	-17.458	134.803	59.471	-18.139	-13.541	-12.200	-8.839	200.019	-9.920	-8191	255	
3234.653	1	1	0	0	0.095037	0.069497	0.097937	0.23468	0.13853	0.13322	0.25211	0.22396	0.088101	0.14573	0.088361	0.12096	0.13827	0.049435	0.26822	0.12785	-2.2479	-2.0521	-2.9729	-2.2938	-2.2313	-2.9604	-2.2292	-2.7917	-2.6125	-2.0625	-2.8563	-2.3688	-2.1542	-2.8333	-2.1396	-2.6937	161.592	60.709	-24.704	-5.730	75.274	72.436	311.485	289.366	186.690	122.251	-0.227	89.774	270.128	287.483	-15.890	-16.781	0.00028967	0.00081819	0.00018093	1295.7	7.042e-06	4.7445e-06	1313.3	344.19	4.9572e-06	2.6261e-06	395.79	131.26	113.57	39.897	4.9212e-06	49.668	0.00078112	0.00073219	0.00023722	1357.2	8.3542e-06	8.1121e-06	1363.6	366.26	8.373e-06	8.0366e-06	426.49	141.34	126.93	42.508	9.5007e-06	53.446	232.485	31.490	127.869	-22.426	176.082	221.156	-22.577	-17.815	88.950	-9.688	-18.253	-13.441	-11.619	-8.814	208.853	-10.022	-8191	255	
3234.749	1	1	0	0	0.21112	0.2463	0.17287	0.1325	0.11028	0.15261	0.14539	0.092044	0.23041	0.15169	0.12455	0.067998	0.25027	0.10002	0.24483	0.17413	-2.0563	-2.2292	-2.7083	-2.7562	-2.175	-2.8042	-2.3896	-2.675	-2.7792	-2.1583	-3.0687	-2.6229	-2.3125	-2.8438	-2.2062	-2.5167	171.865	172.617	52.870	-18.246	140.325	137.264	276.520	204.825	57.375	158.290	262.973	321.590	291.478	318.638	194.319	314.363	0.00019875	0.00053147	0.00017084	1299.9	8.7264e-06	7.7221e-06	1309.7	346.29	1.1881e-05	1.9677e-06	396.1	130.78	112.85	39.628	7.6562e-06	49.516	0.00075272	0.00075324	0.00024476	1353.4	8.1586e-06	8.4884e-06	1366.5	364.45	8.1973e-06	8.5973e-06	426.56	140.42	126	42.768	9.5235e-06	53.116	236.130	66.917	96.453	-22.334	118.774	187.555	-22.450	-17.572	108.276	306.617	-18.456	-13.150	-12.093	-8.782	76.830	-9.729	-8191	255	
3234.844	1	1	0	0	0.13727	0.25549	0.27784	0.18567	0.11737	0.14623	0.059281	0.039188	0.19909	0.13101	0.10726	0.14834	0.13815	0.26515	0.25766	0.083228	-2.2979	-2.0812	-2.7542	-2.7292	-2.1292	-2.6667	-2.4625	-2.5896	-2.8	-2.1479	-2.8583	-2.4	-2.2792	-2.9125	-2.4042	-2.55	293.607	145.434	-16.115	323.000	183.878	96.845	297.183	88.375	179.460	199.056	255.473	311.202	46.331	232.707	121.872	-28.721	0.00023298	0.0011379	0.0001206	1296.2	6.6287e-06	5.3536e-06	1305.3	343.17	5.8899e-06	7.5575e-06	394.25	130.78	113.42	40.001	7.1074e-06	49.457	0.00072961	0.00080514	0.00023771	1347.3	7.9486e-06	9.0014e-06	1360.4	362.66	8.0291e-06	9.1092e-06	424.24	139.75	126.16	43.144	9.2372e-06	52.959	253.367	140.395	45.833	-22.241	207.764	241.793	-22.412	-17.565	155.540	127.714	-18.122	-13.332	-11.942	-8.557	55.429	-9.772	-8191	255	
3234.940	1	1	0	0	0.08697	0.093908	0.30972	0.08287	0.19354	0.27158	0.36185	0.083029	0.21234	0.052411	0.22773	0.16898	0.3402	0.1445	0.093929	0.16563	-2.3833	-2.1333	-2.6542	-2.725	-2.1292	-3	-2.4062	-2.3604	-2.7896	-2.2771	-2.5917	-3.0042	-2.1417	-2.8271	-2.2979	-2.2958	54.634	254.892	154.401	249.353	318.105	37.847	275.851	320.202	58.151	250.233	33.206	263.242	25.523	36.973	143.906	274.699	0.00053437	0.00086085	0.00019814	1293.4	5.4342e-06	6.0512e-06	1305.6	342.95	1.093e-05	4.9839e-06	394.71	130.94	113.06	39.804	4.5803e-06	49.611	0.00073796	0.00085755	0.00022968	1344	8.1095e-06	9.4548e-06	1356.5	361.28	8.3301e-06	9.5495e-06	421.95	139.66	127.7	43.307	8.783e-06	52.681	235.249	18.717	0.664	-22.484	264.132	226.152	-22.496	-17.425	232.278	187.886	-18.218	-13.364	-11.839	-8.940	44.499	-9.572	-8191	255	
3235.036	1	1	0	0	0.33029	0.1963	0.23506	0.35749	0.28865	0.13441	0.072258	0.12232	0.13732	0.065628	0.22662	0.0036041	0.075046	0.019911	0.30071	0.16053	-2.3979	-1.9208	-2.4938	-2.8625	-2.2438	-2.7625	-2.6771	-2.425	-2.9458	-2.1375	-2.4896	-2.9229	-2.1479	-2.8229	-2.4896	-2.3104	2.101	17.638	-1.302	261.949	51.286	41.012	202.920	226.261	312.058	259.778	289.851	225.934	-11.194	160.112	214.196	252.814	0.00043267	0.00036582	9.8438e-05	1297.7	1.1914e-05	5.5655e-06	1305	344.61	7.3137e-06	8.5219e-06	396.4	129.9	114.1	39.928	3.8013e-06	49.286	0.00077297	0.00087153	0.00021745	1344	8.5595e-06	9.4992e-06	1352.2	361.13	8.8565e-06	9.5128e-06	420.85	139.18	130.66	43.246	8.6393e-06	52.674	249.806	-32.807	264.417	-22.496	229.442	164.600	-22.376	-17.740	219.061	79.629	-18.388	-13.237	-11.812	-8.955	54.120	-10.061	-8191	255	
3235.132	1	1	0	0	0.067029	0.11336	0.27149	0.10665	0.17972	0.02698	0.07082	0.31355	0.034614	0.057574	0.073943	0.36836	0.060621	0.2302	0.13791	0.22998	-2.4938	-2.2313	-2.35	-2.9813	-2.0812	-2.7271	-2.7125	-2.1958	-2.9062	-2.3187	-2.4437	-2.8063	-2.1	-2.6292	-2.7146	-2.1312	91.400	304.282	-24.668	17.849	187.070	311.199	204.879	280.647	191.358	54.905	183.406	273.985	259.161	-32.235	319.258	282.385	0.00050014	0.0011881	0.00012712	1298.6	2.9228e-06	3.1474e-06	1310.8	343.15	5.5162e-06	1.3126e-05	395.39	130.99	114.03	39.88	8.4855e-06	49.545	0.0008374	0.00086377	0.00021617	1345.6	9.3566e-06	9.2495e-06	1354.1	361.49	9.443e-06	9.2148e-06	419.52	139.62	132.82	43.005	8.4947e-06	52.903	260.357	31.494	7.271	-22.343	143.046	296.064	-22.350	-17.656	176.495	5.707	-18.282	-13.417	-11.996	-8.830	53.407	-9.789	-8191	255	
3235.228	1	1	0	0	0.022891	0.20854	0.16735	0.22164	0.13857	0.12162	0.33302	0.23563	0.075462	0.44023	0.11232	0.15495	0.17226	0.095085	0.25359	0.24821	-2.4708	-2.2687	-2.2562	-2.9208	-2.1125	-2.625	-2.7854	-2.3354	-2.8521	-2.275	-2.3833	-2.8646	-2.2354	-2.5104	-2.9	-2.1708	318.441	45.955	4.054	264.141	69.682	-31.872	-27.769	265.155	200.096	302.466	152.364	309.412	295.088	21.701	244.372	306.901	0.00041634	0.00076299	9.8034e-05	1297.7	5.1841e-06	4.8346e-06	1308.5	344.5	4.5619e-06	7.4784e-06	394.49	131.02	113.14	39.77	7.6535e-06	49.481	0.0008712	0.00082516	0.00020995	1348.2	9.7045e-06	8.8103e-06	1351.7	363.35	9.6354e-06	8.8324e-06	418.07	140.52	133.56	42.823	8.3081e-06	53.517	218.070	73.372	125.723	-22.387	284.934	100.631	-22.146	-17.552	197.101	55.272	-18.447	-13.207	-11.887	-9.052	97.170	-9.648	-8191	255	
3235.324	1	1	0	0	0.065843	0.108	0.0251	0.068425	0.21074	0.18592	0.094725	0.056798	0.28971	0.012983	0.12492	0.32137	0.22161	0.30001	0.10977	0.2014	-2.3125	-2.3	-2.2042	-2.8604	-2.2896	-2.3625	-2.7938	-2.1521	-2.6271	-2.5146	-2.3	-2.8542	-2.1271	-2.4104	-2.8375	-2.2479	38.402	120.410	59.495	324.425	271.989	59.305	104.194	255.041	-9.714	257.785	39.222	-15.077	182.048	323.560	258.388	250.603	0.00011133	0.00067458	0.00016923	1299.7	4.2734e-06	7.9995e-06	1309.3	346.35	5.2915e-06	4.1372e-06	395.89	131.48	113.58	39.944	5.4388e-06	49.791	0.00087353	0.00080083	0.00020717	1358.3	9.6282e-06	8.6553e-06	1352.8	367.87	9.5088e-06	8.6972e-06	418.76	142.69	132.65	42.812	8.3952e-06	54.199	181.197	-32.723	14.400	-22.585	160.366	93.765	-22.433	-17.490	-13.190	54.757	-18.260	-12.997	-12.984	-8.808	76.425	-9.612	-8191	255	
3235.420	1	1	0	0	0.17599	0.17013	0.27709	0.33116	0.18462	0.23246	0.25059	0.15784	0.19263	0.10043	0.28008	0.032299	0.13757	0.1949	0.17786	0.12099	-2.3396	-2.5646	-2.1792	-2.9042	-2.3104	-2.3021	-2.9458	-2.4417	-2.4708	-2.7021	-1.9896	-2.7271	-2.2896	-2.1708	-2.8479	-2.4542	-22.378	249.083	242.784	-16.497	73.620	53.978	309.580	68.531	168.164	178.268	-7.230	242.739	219.043	287.637	103.478	323.897	0.00029319	0.00061165	0.00010694	1303.9	5.3083e-06	3.6794e-06	1306.6	345.56	4.9908e-06	5.867e-06	395.83	131.18	113	40.019	6.0158e-06	49.643	0.00085088	0.00079785	0.0002118	1366.3	9.3438e-06	8.519e-06	1354.5	370.06	9.123e-06	8.603e-06	420.71	143	131.08	42.664	8.7544e-06	54.421	200.073	67.066	40.168	-22.448	136.974	90.657	-22.304	-17.497	26.854	51.655	-18.153	-13.304	-12.126	-9.078	149.755	-9.841	-8191	255	
3235.541	1	1	0	0	0.12119	0.18431	0.11959	0.19153	0.11703	0.20652	0.15698	0.1673	0.34994	0.10081	0.22273	0.28146	0.047471	0.16034	0.32716	0.17646	-1.9375	-2.5958	-2.1437	-2.875	-2.2396	-2.3083	-3.1708	-2.2354	-2.3625	-2.7771	-2.2625	-2.8292	-2.6229	-2.2875	-2.8646	-2.2167	-17.312	154.786	175.741	-19.277	162.055	-18.421	238.166	303.623	53.137	34.950	44.742	263.090	186.503	64.972	225.560	150.885	9.0187e-05	0.00060545	0.00013256	1304.4	2.4376e-06	7.3866e-06	1310.5	345.71	5.5456e-06	5.8497e-06	395.53	130.37	113.44	39.898	7.4149e-06	49.497	0.00080358	0.00077339	0.00022302	1366.2	8.9474e-06	8.2477e-06	1361.2	369.25	8.756e-06	8.3515e-06	424.69	142.37	129.75	42.59	9.2924e-06	54.043	190.981	28.639	73.843	-22.517	187.262	95.517	-22.310	-17.540	-4.786	292.036	-18.153	-13.730	-11.788	-9.081	183.110	-9.873	-8191	255	
3235.637	1	1	0	0	0.13953	0.3162	0.19847	0.053959	0.29245	0.23446	0.2803	0.28345	0.13611	0.23056	0.1868	0.23965	0.17443	0.29728	0.3235	0.22607	-2.0729	-2.5375	-2.0958	-2.9083	-2.5833	-2.2229	-2.9417	-2.4021	-2.2979	-2.9083	-2.1875	-2.7812	-2.5312	-2.3771	-2.7042	-2.3875	122.580	38.393	33.567	302.555	74.944	230.603	262.566	-9.725	267.693	161.414	294.174	-32.274	29.167	6.541	298.173	318.415	0.00017612	0.00020582	0.00021354	1302.4	7.4805e-06	3.1627e-06	1307.6	343.7	5.2096e-06	4.7096e-06	394.55	131.08	112.87	39.854	6.0386e-06	49.609	0.00077625	0.00075658	0.00023983	1360.6	8.6217e-06	8.0891e-06	1365.2	366.31	8.4284e-06	8.2386e-06	427.05	141.19	128.46	42.592	9.7382e-06	53.808	239.936	84.517	133.322	-22.695	135.510	126.388	-22.379	-17.633	104.968	145.281	-18.538	-13.532	-12.231	-8.835	116.735	-9.507	-8191	255	
3235.733	1	1	0	0	0.21084	0.020809	0.17275	0.23465	0.23446	0.19585	0.32048	0.24931	0.038648	0.21314	0.16053	0.28231	0.054861	0.13551	0.068512	0.122	-1.8292	-2.8292	-1.9771	-2.7833	-2.7562	-2.0583	-3.0396	-2.4875	-2.1792	-2.6333	-2.1458	-2.5229	-2.7021	-2.2729	-2.7333	-2.3937	104.690	98.301	269.049	258.505	116.676	297.787	272.595	257.984	65.321	185.143	282.959	294.050	259.258	-32.315	51.329	154.583	0.00021264	0.0003814	0.00012517	1302.3	7.2229e-07	1.0225e-05	1309.5	345.55	7.57e-06	7.6437e-06	396.4	131.15	112.16	39.806	2.5246e-06	49.524	0.00076512	0.0007792	0.00024954	1355.7	8.4996e-06	8.5037e-06	1367.6	365.77	8.1817e-06	8.6735e-06	428.2	140.2	126.75	42.715	9.4805e-06	53.21	193.208	76.764	68.273	-22.490	292.463	151.105	-22.367	-17.438	39.981	147.781	-18.184	-13.338	-12.121	-8.837	181.746	-9.676	-8191	255	
3235.830	1	1	0	0	0.27452	0.2866	0.25035	0.34258	0.09694	0.29026	0.33342	0.11678	0.22429	0.25153	0.17813	0.11155	0.058262	0.13687	0.22196	0.1433	-1.8271	-2.8625	-2.1229	-2.6479	-2.6396	-2.1729	-2.9458	-2.4917	-2.1333	-3.0687	-2.2938	-2.5375	-2.675	-2.0417	-2.4896	-2.6208	281.735	172.253	-21.304	292.608	77.394	186.705	220.482	320.618	-25.677	216.063	243.992	275.481	126.192	202.351	254.455	-21.105	0.00026309	0.0012669	0.00010262	1302.9	3.405e-06	9.9393e-06	1312.9	344.01	4.6886e-06	4.9085e-06	396.45	130.87	113.12	39.868	1.1023e-06	49.533	0.00071788	0.00080144	0.00024028	1349.2	7.9891e-06	8.8589e-06	1363.3	363.05	7.8217e-06	9.0613e-06	424.76	139.78	126.37	43.156	9.1308e-06	53.043	201.266	174.896	244.295	-22.428	184.871	202.392	-22.561	-17.540	126.060	176.103	-18.199	-13.404	-11.767	-9.027	296.064	-9.689	-8191	255	
3235.924	1	1	0	0	0.1309	0.27256	0.24573	0.36671	0.21508	0.16391	0.27444	0.3013	0.3452	0.045757	0.22366	0.090429	0.077546	0.075617	0.20786	0.22177	-1.7896	-2.6063	-2.2167	-2.4833	-2.6	-2.0896	-2.6312	-2.5646	-2.1208	-2.9771	-2.4396	-2.4313	-2.8854	-2.3167	-2.3187	-2.6229	195.375	54.761	-21.537	296.458	108.000	40.033	-33.812	272.052	-3.436	49.606	236.298	64.229	52.577	219.824	190.969	218.155	0.0004171	0.0003986	0.00022045	1304.8	3.975e-06	8.1948e-06	1308.7	345.16	6.1501e-06	2.1071e-06	394.2	131.55	113.75	39.927	4.2104e-06	49.674	0.00072403	0.00085969	0.00023369	1348.9	8.2634e-06	9.5356e-06	1359.2	362.74	8.2405e-06	9.5728e-06	423.39	139.36	127.64	43.354	8.7262e-06	52.944	258.072	95.381	306.748	-22.445	248.893	184.005	-22.498	-17.652	171.275	205.450	-18.150	-13.441	-11.756	-8.750	22.446	-9.646	-8191	255	
3236.022	1	1	0	0	0.37064	0.16501	0.27005	0.43696	0.03139	0.30388	0.048509	0.12409	0.17003	0.099042	0.30352	0.15037	0.11657	0.2281	0.11713	0.15608	-1.75	-2.7271	-2.3604	-2.3229	-2.8792	-2.1042	-2.8688	-2.7188	-2.0812	-2.7167	-2.3458	-2.1354	-2.6479	-2.4104	-2.4688	-2.6896	26.338	173.839	113.979	272.180	164.209	277.740	247.579	313.589	115.869	233.890	203.743	202.725	314.625	289.141	278.887	227.218	0.00065503	0.00054115	0.00017256	1299.8	1.1106e-05	1.3957e-06	1310.6	345.12	1.0999e-05	4.3442e-06	393.16	130.72	113.84	39.767	5.6014e-06	49.464	0.00076548	0.0008718	0.00022305	1344.3	8.6672e-06	9.574e-06	1355.3	361.88	8.7424e-06	9.4156e-06	420.54	138.79	130.1	43.18	8.445e-06	52.769	241.828	96.338	86.871	-22.517	268.048	-32.811	-22.418	-17.441	217.438	38.414	-18.443	-13.403	-11.950	-8.592	57.796	-9.769	-8191	255	
3236.141	1	1	0	0	0.13645	0.070013	0.090403	0.12694	0.21218	0.14454	0.15754	0.31782	0.28125	0.14334	0.24734	0.20253	0.021595	0.1125	0.089639	0.11608	-1.7563	-2.6125	-2.3354	-2.2375	-2.8479	-2.2854	-2.5583	-2.825	-2.175	-2.7792	-2.7708	-2.1271	-2.7083	-2.2188	-2.3854	-2.8625	-0.147	277.474	300.869	-27.042	289.140	108.348	317.376	238.812	127.221	177.125	288.827	14.395	315.171	268.883	259.120	264.399	0.00045054	0.00017215	0.00027836	1299.9	3.8238e-06	9.6407e-06	1309.1	344.29	5.2955e-06	9.6735e-06	395.47	130.59	114.06	39.823	8.3656e-06	49.687	0.00081655	0.00084499	0.0002174	1343.8	9.2356e-06	9.214e-06	1349.9	361.65	9.2493e-06	8.9896e-06	419.1	139.01	132.05	42.899	8.1457e-06	52.861	236.808	33.081	15.977	-22.667	206.925	103.871	-22.387	-17.403	224.944	34.889	-18.342	-13.298	-11.746	-8.876	70.759	-9.609	-8191	255	
3236.237	1	1	0	0	0.13239	0.11224	0.15466	0.21567	0.3089	0.28275	0.22295	0.064667	0.17213	0.16198	0.11838	0.15772	0.17166	0.22947	0.066782	0.051913	-1.7833	-2.6292	-2.7417	-2.1479	-2.8667	-2.3646	-2.5979	-2.8708	-2.1458	-2.5438	-2.8521	-2.2667	-2.7938	-2.3854	-2.2417	-2.8521	231.051	106.802	101.821	-23.430	241.444	235.927	283.641	-19.998	275.974	-13.742	303.715	30.259	263.229	309.303	246.652	254.749	0.00031217	0.00073879	0.00010576	1303.4	4.5316e-06	3.9276e-06	1310.3	344.31	3.823e-06	5.4528e-06	394.69	131.08	113.52	39.823	2.8707e-06	49.46	0.00085585	0.00079958	0.00021003	1347.2	9.4573e-06	8.8169e-06	1349.5	363.01	9.4655e-06	8.5493e-06	417.74	139.93	131.96	42.718	7.8972e-06	53.213	243.179	-1.158	-14.046	-22.592	202.144	-5.309	-22.457	-17.470	27.890	76.822	-18.439	-13.250	-11.993	-9.006	5.776	-9.309	-8191	255	
3236.333	1	1	0	0	0.21152	0.052231	0.11847	0.53418	0.081962	0.063023	0.24602	0.16728	0.16005	0.085157	0.40428	0.037039	0.12933	0.25743	0.02377	0.16133	-1.75	-2.5458	-2.7938	-2.4833	-2.7771	-2.5292	-2.3542	-2.9625	-2.2188	-2.5	-2.8771	-2.025	-2.6458	-2.3187	-2.1583	-2.7708	208.094	173.569	224.128	271.980	265.832	154.033	237.436	4.363	47.922	96.462	223.538	306.301	181.201	304.818	-19.334	30.398	0.00015285	0.00045701	0.00017384	1304.1	3.4748e-06	5.5879e-06	1311.4	345.68	2.3457e-06	3.6315e-06	393.44	131.03	114.08	39.787	3.284e-06	49.592	0.00085164	0.00077044	0.00020552	1354.2	9.3544e-06	8.5477e-06	1347.2	366.03	9.3574e-06	8.3672e-06	416.65	141.37	131.18	42.562	7.9943e-06	53.89	230.986	6.714	44.802	-22.570	166.270	82.362	-22.438	-17.295	110.949	100.345	-18.181	-13.259	-12.313	-8.746	242.827	-9.457	-8191	255	
3236.429	1	1	0	0	0.045642	0.2174	0.20142	0.077395	0.28717	0.18341	0.3013	0.1267	0.18589	0.27044	0.28904	0.22787	0.053944	0.21829	0.054183	0.16465	-1.6729	-2.3604	-2.6562	-2.2771	-2.7104	-2.6063	-2.3271	-2.9896	-2.2729	-2.4104	-2.9396	-2.1063	-2.6604	-2.75	-2.2146	-2.8708	242.531	297.829	279.150	297.131	204.357	-28.052	310.290	258.876	57.908	91.160	-14.217	-17.470	27.805	-26.854	182.327	50.934	0.00026031	0.00073159	0.00017204	1303	2.4309e-06	4.55e-06	1309.1	344.16	6.8178e-06	4.7179e-06	397.57	131.1	112.42	39.817	8.3984e-06	49.623	0.00083015	0.00075707	0.00020733	1358.4	8.9264e-06	8.3743e-06	1349.7	367.55	8.9073e-06	8.1061e-06	419.48	141.99	128.92	42.427	8.2601e-06	54.024	207.370	33.005	52.137	-22.359	297.153	68.818	-22.617	-17.410	59.745	20.530	-18.140	-13.417	-12.305	-8.686	196.051	-9.764	-8191	255	
#DATA ENDS
