BOXY.EXE: ISS Imagent and Oximeter Data Acquisition Program Version 0.80
Ascii Record File

#ACQ INFORMATION
2  Detector Channels 
16  External MUX Channels 
1  Auxiliary Channels 
5000  Waveform (CCF) Frequency (Hz)
1  Waveforms Skipped 
30  Waveforms Averaged 
1  Cycles Averaged 
16  Acquisitions per Waveform 
10.0806  Updata Rate (Hz) 

#FILE INFORMATION
TRUE -- External MUX Channel results are PARSED.
FALSE -- AC DC and Phase are NOT grouped.
TRUE -- Companion Program Settings File CREATED.
FALSE -- AC data not excluded
FALSE -- DC data not excluded
FALSE -- Phase data not excluded
FALSE -- Auxillary Chn. data not excluded
Tab delimiters

#CALIBRATION STATE
TRUE -- Waveform Calibration Values APPLIED.


#AUX CALIBRATION VALUES
Val Type	aux-1	

Term	1.0000e+00	
Factor	0.0000e+00	


#WF CALIBRATION VALUES
A = Detector Channel
Val Type	A-AC1	A-AC2	A-AC3	A-AC4	A-AC5	A-AC6	A-AC7	A-AC8	A-AC9	A-AC10	A-AC11	A-AC12	A-AC13	A-AC14	A-AC15	A-AC16	A-DC1	A-DC2	A-DC3	A-DC4	A-DC5	A-DC6	A-DC7	A-DC8	A-DC9	A-DC10	A-DC11	A-DC12	A-DC13	A-DC14	A-DC15	A-DC16	A-Ph1	A-Ph2	A-Ph3	A-Ph4	A-Ph5	A-Ph6	A-Ph7	A-Ph8	A-Ph9	A-Ph10	A-Ph11	A-Ph12	A-Ph13	A-Ph14	A-Ph15	A-Ph16	

Term	0.00000e+00	0.00000e+00	0.00000e+00	0.00000e+00	0.00000e+00	0.00000e+00	0.00000e+00	0.00000e+00	0.00000e+00	0.00000e+00	0.00000e+00	0.00000e+00	0.00000e+00	0.00000e+00	0.00000e+00	0.00000e+00	0.00000e+00	0.00000e+00	0.00000e+00	0.00000e+00	0.00000e+00	0.00000e+00	0.00000e+00	0.00000e+00	0.00000e+00	0.00000e+00	0.00000e+00	0.00000e+00	0.00000e+00	0.00000e+00	0.00000e+00	0.00000e+00	0.00000e+00	0.00000e+00	0.00000e+00	0.00000e+00	0.00000e+00	0.00000e+00	0.00000e+00	0.00000e+00	0.00000e+00	0.00000e+00	0.00000e+00	0.00000e+00	0.00000e+00	0.00000e+00	0.00000e+00	0.00000e+00	
Factor	1.00000e+00	1.00000e+00	1.00000e+00	1.00000e+00	1.00000e+00	1.00000e+00	1.00000e+00	1.00000e+00	1.00000e+00	1.00000e+00	1.00000e+00	1.00000e+00	1.00000e+00	1.00000e+00	1.00000e+00	1.00000e+00	1.00000e+00	1.00000e+00	1.00000e+00	1.00000e+00	1.00000e+00	1.00000e+00	1.00000e+00	1.00000e+00	1.00000e+00	1.00000e+00	1.00000e+00	1.00000e+00	1.00000e+00	1.00000e+00	1.00000e+00	1.00000e+00	X	X	X	X	X	X	X	X	X	X	X	X	X	X	X	X	

B = Detector Channel
Val Type	B-AC1	B-AC2	B-AC3	B-AC4	B-AC5	B-AC6	B-AC7	B-AC8	B-AC9	B-AC10	B-AC11	B-AC12	B-AC13	B-AC14	B-AC15	B-AC16	B-DC1	B-DC2	B-DC3	B-DC4	B-DC5	B-DC6	B-DC7	B-DC8	B-DC9	B-DC10	B-DC11	B-DC12	B-DC13	B-DC14	B-DC15	B-DC16	B-Ph1	B-Ph2	B-Ph3	B-Ph4	B-Ph5	B-Ph6	B-Ph7	B-Ph8	B-Ph9	B-Ph10	B-Ph11	B-Ph12	B-Ph13	B-Ph14	B-Ph15	B-Ph16	

Term	0.00000e+00	0.00000e+00	0.00000e+00	0.00000e+00	0.00000e+00	0.00000e+00	0.00000e+00	0.00000e+00	0.00000e+00	0.00000e+00	0.00000e+00	0.00000e+00	0.00000e+00	0.00000e+00	0.00000e+00	0.00000e+00	0.00000e+00	0.00000e+00	0.00000e+00	0.00000e+00	0.00000e+00	0.00000e+00	0.00000e+00	0.00000e+00	0.00000e+00	0.00000e+00	0.00000e+00	0.00000e+00	0.00000e+00	0.00000e+00	0.00000e+00	0.00000e+00	-8.63402e+01	-1.28301e+02	-1.03800e+02	-1.75865e+02	-1.14073e+01	-9.31957e+01	-1.64450e+02	-1.61923e+02	-3.25388e+01	-6.50733e+01	-1.79394e+02	-1.69306e+02	-1.75795e+02	-1.70708e+02	-7.57699e+01	-1.59905e+02	
Factor	3.75157e-04	1.23413e-03	3.18699e-04	1.70450e-01	4.10421e-06	1.94945e-05	2.78808e-01	2.32519e-01	9.50602e-06	1.69483e-05	5.42727e+00	2.80746e-01	2.09241e-01	2.33913e-01	1.51734e-05	3.71430e-01	3.15923e-05	3.36516e-05	9.32732e-06	6.64208e-02	3.05018e-07	3.68882e-07	1.02746e-01	9.20121e-02	3.49895e-07	3.70854e-07	1.93302e+00	1.06642e-01	8.34840e-02	9.01328e-02	3.70025e-07	1.37825e-01	X	X	X	X	X	X	X	X	X	X	X	X	X	X	X	X	



#DISTANCE SETTINGS
A = Detector Channel
A-1	A-2	A-3	A-4	A-5	A-6	A-7	A-8	A-9	A-10	A-11	A-12	A-13	A-14	A-15	A-16	

1.0000e+01	1.0000e+01	1.0000e+01	1.4500e+00	1.0000e+01	1.0000e+01	1.5100e+00	1.9500e+00	1.0000e+01	1.0000e+01	2.0100e+00	2.5000e+00	2.4400e+00	2.9500e+00	1.0000e+01	3.0100e+00	

B = Detector Channel
B-1	B-2	B-3	B-4	B-5	B-6	B-7	B-8	B-9	B-10	B-11	B-12	B-13	B-14	B-15	B-16	

1.0000e+01	1.0000e+01	1.0000e+01	1.4500e+00	1.0000e+01	1.0000e+01	1.5100e+00	1.9500e+00	1.0000e+01	1.0000e+01	2.0100e+00	2.5000e+00	2.4400e+00	2.9500e+00	1.0000e+01	3.0100e+00	




#DATA BEGINS
time	group	step	mark	flag	A-AC1	A-AC2	A-AC3	A-AC4	A-AC5	A-AC6	A-AC7	A-AC8	A-AC9	A-AC10	A-AC11	A-AC12	A-AC13	A-AC14	A-AC15	A-AC16	A-DC1	A-DC2	A-DC3	A-DC4	A-DC5	A-DC6	A-DC7	A-DC8	A-DC9	A-DC10	A-DC11	A-DC12	A-DC13	A-DC14	A-DC15	A-DC16	A-Ph1	A-Ph2	A-Ph3	A-Ph4	A-Ph5	A-Ph6	A-Ph7	A-Ph8	A-Ph9	A-Ph10	A-Ph11	A-Ph12	A-Ph13	A-Ph14	A-Ph15	A-Ph16	B-AC1	B-AC2	B-AC3	B-AC4	B-AC5	B-AC6	B-AC7	B-AC8	B-AC9	B-AC10	B-AC11	B-AC12	B-AC13	B-AC14	B-AC15	B-AC16	B-DC1	B-DC2	B-DC3	B-DC4	B-DC5	B-DC6	B-DC7	B-DC8	B-DC9	B-DC10	B-DC11	B-DC12	B-DC13	B-DC14	B-DC15	B-DC16	B-Ph1	B-Ph2	B-Ph3	B-Ph4	B-Ph5	B-Ph6	B-Ph7	B-Ph8	B-Ph9	B-Ph10	B-Ph11	B-Ph12	B-Ph13	B-Ph14	B-Ph15	B-Ph16	aux-1	digaux	

1572.011	1	1	0	768	0.15888	0.19446	0.13938	0.40751	0.30998	0.16669	0.097751	0.046449	0.19691	0.26666	0.19539	0.043634	0.17995	0.087946	0.13158	0.10627	-2.0333	-2.9688	-2.0979	-2.6167	-2.6979	-2.0083	-2.8354	-2.7083	-2.0708	-3.025	-2.4896	-2.5062	-2.8875	-2.2958	-2.7188	-2.5312	205.574	225.865	450.953	346.608	366.058	365.108	302.824	335.838	510.507	327.576	195.097	319.972	254.781	510.033	495.837	299.140	0.00037734	0.00056223	0.00013068	588.05	3.5712e-06	7.4337e-06	602.96	207.45	7.4025e-06	1.2292e-05	231.32	95.328	79.413	29.192	8.5594e-06	35.667	0.0023165	0.0024045	0.00067063	591.24	2.2419e-05	2.6541e-05	610.92	214.88	2.5327e-05	2.6476e-05	358.5	104.65	85.95	35.287	2.6745e-05	44.472	185.213	279.308	231.958	164.880	288.600	197.075	163.321	171.057	322.491	306.019	169.861	172.523	175.635	179.568	242.494	176.406	-8191	255	
1572.107	1	1	0	0	0.1081	0.035193	0.041859	0.027346	0.053609	0.14067	0.057466	0.10077	0.14101	0.19082	0.20558	0.24929	0.19623	0.32019	0.080457	0.13666	-1.7458	-2.6958	-2.2125	-2.5479	-2.6188	-2.2729	-2.5896	-2.5542	-2.025	-2.8667	-2.4771	-2.5021	-2.825	-2.1521	-2.5854	-2.7	259.363	207.325	383.433	411.841	245.213	407.556	406.573	277.190	445.215	223.906	402.575	232.003	397.334	372.634	422.799	257.866	0.00030764	0.00063136	0.00018457	585.34	1.5431e-06	1.6234e-05	598.05	204.94	5.4004e-06	1.3513e-05	231.92	95.272	78.398	28.494	3.7341e-06	34.823	0.002318	0.0024233	0.00067291	588.62	2.2189e-05	2.6566e-05	607.87	213.5	2.5259e-05	2.6678e-05	357.46	103.66	85.264	34.883	2.6774e-05	44.086	219.922	213.010	257.491	164.875	307.755	261.304	163.486	171.507	333.604	290.030	167.960	172.509	175.650	179.616	352.172	176.743	-8191	255	
1572.203	1	1	0	0	0.21034	0.11207	0.16101	0.12696	0.30561	0.11369	0.12998	0.030446	0.088735	0.097512	0.032785	0.15052	0.090568	0.15997	0.024199	0.17519	-1.8875	-2.8396	-2.4542	-2.3042	-2.925	-2.1125	-2.6146	-2.6917	-2.2458	-2.8896	-2.4875	-2.2854	-3.0604	-2.3229	-2.5875	-2.5979	163.798	217.847	416.503	434.105	481.407	369.244	441.000	347.733	313.271	179.666	164.267	260.396	295.336	391.275	242.804	408.126	0.00043957	0.00045224	0.00011875	579.27	2.4438e-06	8.2042e-06	600.53	205.65	8.1107e-06	6.8318e-06	233.21	95.781	79.054	28.943	8.2589e-06	34.911	0.0022957	0.0024139	0.00067512	584.25	2.222e-05	2.6609e-05	608.85	213.64	2.5259e-05	2.6338e-05	357.05	103.83	85.524	34.954	2.6402e-05	43.754	214.489	249.314	293.751	165.052	354.587	224.839	163.297	171.178	318.387	288.017	167.839	172.553	175.610	179.411	193.295	176.337	-8191	255	
1572.299	1	1	0	0	0.14459	0.07037	0.093613	0.30318	0.1196	0.11394	0.16896	0.15409	0.24265	0.14834	0.1905	0.19228	0.073958	0.040046	0.084103	0.030124	-1.7292	-2.7958	-2.5438	-2.4	-2.7979	-2.1354	-2.6208	-2.6875	-2.2771	-2.9	-2.4083	-2.1333	-2.8896	-2.45	-2.5417	-2.8667	375.182	153.475	387.112	463.992	411.024	488.681	300.324	206.840	445.180	180.824	425.863	367.559	298.938	255.316	432.413	302.128	0.00047522	0.00052488	0.00018192	585.59	3.124e-06	1.306e-05	606.43	206.94	6.4165e-06	1.3705e-05	235.84	95.916	79.509	29.395	3.655e-06	35.168	0.0022645	0.0023632	0.000656	589.93	2.1695e-05	2.6065e-05	614.84	215.01	2.4719e-05	2.6022e-05	355.31	104.36	86.232	35.308	2.624e-05	44.215	253.439	228.163	239.191	165.034	300.336	273.742	163.407	171.436	331.259	340.618	167.616	172.576	175.515	179.489	227.553	176.404	-8191	255	
1572.395	1	1	0	0	0.11201	0.12469	0.099018	0.18994	0.11078	0.043597	0.12477	0.14815	0.054343	0.36986	0.068744	0.25029	0.031614	0.18521	0.29467	0.13295	-1.7521	-2.6562	-2.7354	-2.2896	-2.6833	-2.3458	-2.4354	-2.8583	-2.3	-2.7042	-2.7625	-2.0833	-2.775	-2.475	-2.3083	-2.9188	416.320	253.261	454.530	188.410	501.195	389.086	381.397	192.502	357.418	434.158	489.732	282.323	407.480	404.067	182.288	432.736	0.00050358	0.00062036	0.00018553	586.03	3.1001e-06	3.5896e-06	603.18	207.11	7.3647e-06	1.7087e-05	238.39	96.719	81.15	30.044	1.1994e-05	36.012	0.0022511	0.0023726	0.00065837	590.2	2.1707e-05	2.5972e-05	613.26	216.23	2.4681e-05	2.609e-05	355.72	105.52	87.298	36.02	2.6091e-05	44.861	236.245	216.632	228.849	165.063	328.119	475.115	163.731	171.438	301.095	316.055	168.600	172.165	175.625	179.962	324.423	175.439	-8191	255	
1572.492	1	1	0	0	0.11088	0.15091	0.074873	0.22401	0.21703	0.13375	0.069857	0.20732	0.1667	0.11222	0.15278	0.17899	0.02932	0.27341	0.15847	0.078983	-1.9396	-2.5208	-2.6021	-2.0667	-2.7583	-2.4021	-2.2438	-2.6792	-2.3438	-2.4354	-2.7167	-2.0042	-2.5667	-2.525	-2.1333	-2.8	172.369	278.252	476.181	475.313	492.620	322.919	270.977	268.718	392.742	315.309	507.741	172.756	513.095	292.442	287.477	250.996	0.00057862	0.00042785	0.000169	588.48	4.0544e-06	1.0131e-05	603.81	209.47	7.1631e-06	1.9072e-05	234.46	98.406	81.709	30.531	1.887e-06	36.447	0.0022507	0.0023611	0.00065697	591.4	2.1794e-05	2.5887e-05	611.33	217.05	2.4612e-05	2.597e-05	354.7	106.27	87.959	36.351	2.5576e-05	45.134	229.165	157.996	199.415	164.974	315.284	357.905	163.361	171.333	257.166	312.246	168.749	171.912	175.197	180.080	236.163	176.554	-8191	255	
1572.611	1	1	0	0	0.14046	0.29331	0.16109	0.093117	0.31079	0.26772	0.24601	0.14531	0.068595	0.27492	0.11141	0.21859	0.24631	0.11719	0.24822	0.075814	-1.8979	-2.4583	-2.9167	-2.3104	-2.7396	-2.6458	-2.0917	-2.9062	-2.3521	-2.3833	-2.8333	-2.15	-2.6083	-2.6688	-2.1875	-2.8479	314.089	209.822	331.305	236.309	186.532	166.835	389.218	258.585	464.099	504.718	333.281	503.261	334.663	261.236	360.839	197.619	0.00061283	0.00025327	7.0496e-05	582.85	2.6824e-06	1.8353e-05	594.31	209	2.5467e-06	6.8064e-06	234.99	97.644	81.336	30.608	4.0247e-06	36.698	0.0022387	0.002331	0.00064357	587.77	2.1511e-05	2.5445e-05	604.48	216.33	2.4496e-05	2.578e-05	352.85	105.71	87.739	36.355	2.5828e-05	45.449	263.834	174.393	275.285	165.229	463.372	252.757	163.457	171.127	389.061	351.176	167.771	172.438	175.602	179.946	498.051	176.455	-8191	255	
1572.707	1	1	0	0	0.15623	0.32776	0.10261	0.14243	0.17842	0.050339	0.11559	0.12583	0.35056	0.26998	0.053527	0.23029	0.098165	0.22713	0.14052	0.058429	-1.9958	-2.2771	-2.7354	-2.3271	-2.4396	-2.8667	-2.3812	-2.8458	-2.3271	-2.2646	-3.0438	-2.0083	-2.4271	-2.7229	-2.2354	-2.7188	194.678	158.313	494.336	446.055	271.693	355.383	162.265	304.434	477.962	366.004	487.617	263.202	206.362	443.720	413.666	469.831	0.00028808	0.00089996	7.4863e-05	582.65	4.6703e-06	5.9787e-06	594.77	209.05	7.7579e-06	1.5748e-06	231.54	97.966	81.338	30.742	4.9766e-06	36.579	0.0022603	0.0023645	0.000648	586.3	2.1762e-05	2.5697e-05	602.26	216.98	2.4868e-05	2.6026e-05	352.91	106.02	87.98	36.501	2.6024e-05	45.49	253.227	510.599	462.836	165.295	330.757	282.416	163.678	171.117	337.796	248.222	167.414	172.556	175.378	180.053	324.558	176.203	-8191	255	
1572.803	1	1	0	0	0.18086	0.12982	0.23955	0.22363	0.11372	0.16239	0.19164	0.15515	0.15889	0.22395	0.14445	0.29038	0.28829	0.10675	0.074419	0.081148	-2.2229	-2.2188	-2.7979	-2.2104	-2.6083	-2.8208	-2.1458	-2.6688	-2.4792	-2.0771	-2.85	-2.0938	-2.5375	-2.9333	-2.1667	-2.6188	459.590	173.703	437.444	427.001	190.898	185.761	402.335	213.433	293.332	195.699	395.305	434.318	481.836	170.243	215.433	233.756	0.00049968	0.00021329	0.00010342	583.49	4.9303e-06	1.668e-05	586.21	206.97	8.059e-06	1.0846e-05	234.62	97.921	81.579	30.342	6.8486e-06	36.655	0.0022564	0.00239	0.00065204	585.62	2.2046e-05	2.5726e-05	597.54	215.82	2.4572e-05	2.6071e-05	352.31	105.79	87.889	36.42	2.5744e-05	45.335	243.125	439.232	217.342	164.970	285.487	313.010	163.758	171.635	271.073	357.079	168.636	172.274	175.285	179.976	377.018	175.729	-8191	255	
1572.899	1	1	0	0	0.042598	0.14605	0.13338	0.060523	0.27917	0.15951	0.01512	0.13996	0.14136	0.12646	0.16942	0.27838	0.30547	0.25898	0.13424	0.24006	-2.2125	-1.9354	-2.7354	-2.4396	-2.3021	-2.7521	-2.1521	-2.5854	-2.4229	-2.1021	-2.7396	-2.3146	-2.2313	-2.7208	-2.3	-2.6083	434.527	350.790	240.405	205.665	345.463	512.246	192.426	172.085	492.010	232.757	320.310	490.242	225.162	269.775	252.787	180.793	0.00039546	0.00025853	0.00014128	580.65	1.5538e-06	9.9565e-06	589.22	208.78	2.1592e-07	1.8004e-06	236.82	98.769	81.667	30.741	8.4713e-06	36.738	0.0022455	0.0023726	0.00065283	583.41	2.2177e-05	2.5888e-05	596.58	216.24	2.4801e-05	2.6275e-05	355.31	106.67	88.238	36.605	2.6024e-05	45.686	228.627	191.635	436.976	165.108	253.756	333.653	163.338	171.329	183.074	406.791	168.234	172.449	175.465	179.903	176.575	175.156	-8191	255	
1572.995	1	1	0	0	0.19138	0.26352	0.070458	0.18047	0.13814	0.20433	0.11911	0.074056	0.18129	0.31342	0.36954	0.11401	0.13719	0.13702	0.23886	0.27898	-2.3896	-2.0604	-2.8479	-2.5333	-2.25	-2.8417	-2.2917	-2.4458	-2.7354	-2.0646	-2.7208	-2.425	-2.2083	-2.9417	-2.2583	-2.525	226.547	327.648	225.892	391.166	494.446	229.425	271.444	323.730	190.207	414.892	307.667	228.870	403.896	425.060	395.095	331.100	0.00031917	0.00024423	8.2799e-05	578.86	2.408e-06	1.5645e-05	583.94	208	7.2964e-06	7.1671e-06	234.14	97.596	81.589	30.766	2.5762e-06	37.365	0.0022365	0.0023685	0.0006507	582.28	2.1752e-05	2.5705e-05	594.22	216.02	2.4625e-05	2.5955e-05	353.37	106.06	88.082	36.691	2.5971e-05	45.723	287.448	354.112	325.996	165.152	330.604	186.764	163.631	171.279	319.400	222.553	168.816	172.583	175.803	180.387	510.044	175.573	-8191	255	
1573.091	1	1	0	0	0.072598	0.41456	0.25801	0.18326	0.044312	0.27494	0.25349	0.21455	0.20584	0.28737	0.18713	0.11779	0.12635	0.33367	0.10614	0.13457	-2.5458	-1.9875	-2.7208	-2.6083	-2.15	-2.8333	-2.3104	-2.3354	-2.7812	-2.15	-2.5729	-2.6833	-2.1521	-2.6854	-2.325	-2.2708	241.577	296.848	288.721	505.675	386.231	352.281	434.629	477.298	169.345	229.069	197.152	281.526	318.667	473.368	163.077	297.017	0.00026698	0.00092955	0.00018132	575.17	5.3946e-06	1.1909e-05	580.37	206.87	3.854e-06	8.8742e-06	229.1	97.029	81.409	31.096	1.0901e-05	36.501	0.002218	0.0023458	0.00064949	578.79	2.1509e-05	2.5276e-05	589.36	214.39	2.4104e-05	2.5616e-05	350.1	105.47	87.728	36.501	2.5667e-05	45.527	239.194	258.653	230.341	165.426	298.651	257.121	163.554	171.269	392.604	213.805	168.010	172.689	175.418	179.591	304.911	176.605	-8191	255	
1573.187	1	1	0	0	0.11576	0.24188	0.19044	0.42439	0.1272	0.15449	0.070761	0.12638	0.075033	0.21253	0.11538	0.089999	0.14661	0.17868	0.13885	0.33855	-2.525	-2.1167	-2.425	-2.6667	-2.2021	-2.7542	-2.5833	-2.3521	-2.8854	-2.1688	-2.6042	-2.5479	-2.0833	-2.7896	-2.3063	-2.3083	481.503	416.874	394.362	459.498	443.524	439.763	407.853	346.268	155.183	295.943	457.356	491.414	407.797	415.141	245.572	348.484	0.0004554	0.00011362	0.0001357	574.27	3.8682e-06	8.4954e-06	580.72	207.17	2.7307e-06	1.7767e-06	234.31	97.059	81.383	30.404	7.0749e-06	36.727	0.0022088	0.0023462	0.00065134	578.08	2.1583e-05	2.5441e-05	590.79	214.55	2.4328e-05	2.5752e-05	352.1	105.31	87.541	36.164	2.5867e-05	45.334	230.127	192.606	345.258	165.335	275.028	232.736	163.654	171.355	316.581	453.306	166.766	172.547	175.015	178.993	351.822	175.373	-8191	255	
1573.308	1	1	0	0	0.12473	0.021188	0.017293	0.15548	0.20367	0.1289	0.13837	0.054713	0.090185	0.18482	0.17208	0.33103	0.080976	0.18905	0.22332	0.25191	-2.6292	-2.1458	-2.4313	-2.7917	-2.1604	-2.575	-2.6229	-1.9896	-3.0104	-2.3854	-2.3396	-2.8333	-2.3125	-2.5479	-2.5938	-2.0687	158.994	213.393	282.388	410.854	422.059	268.386	455.626	386.171	302.145	376.505	356.629	455.109	306.721	184.336	200.123	320.322	0.00053318	0.00064318	8.2455e-05	577.21	3.1658e-06	1.0758e-05	586.63	208.16	4.6302e-06	5.7664e-06	240.59	97.497	81.643	30.501	2.1082e-06	36.088	0.002203	0.0023578	0.00065161	580.72	2.1727e-05	2.5674e-05	595.16	215.83	2.4329e-05	2.5709e-05	353.96	105.86	87.974	36.18	2.5497e-05	44.997	257.583	239.231	167.181	165.113	320.333	426.065	163.510	171.255	358.363	269.846	169.100	172.437	175.447	179.605	478.636	175.667	-8191	255	
1573.404	1	1	0	0	0.043915	0.15347	0.15738	0.16756	0.24072	0.16598	0.23812	0.12264	0.12467	0.012006	0.1739	0.11376	0.12686	0.08261	0.25495	0.17945	-2.3688	-2.1479	-2.3875	-2.8375	-1.9875	-2.5646	-2.6667	-2.1083	-2.7521	-2.3937	-2.3375	-2.7917	-2.2062	-2.5979	-2.4979	-2.1896	392.905	339.911	314.788	492.157	254.280	155.739	203.900	278.351	281.348	349.443	366.453	211.855	225.500	489.198	229.887	475.849	0.00037727	0.00074681	0.00018514	578.62	3.9178e-06	7.0124e-06	588.8	209.37	2.9164e-06	3.9592e-06	239.97	98.748	82.565	30.964	5.9618e-06	37.162	0.0021899	0.0023279	0.00064489	582.67	2.1459e-05	2.5477e-05	595.93	217.28	2.4143e-05	2.5497e-05	355.26	106.73	88.748	36.643	2.5508e-05	45.8	245.527	257.845	220.822	165.235	267.602	363.704	163.471	171.558	311.949	486.350	167.244	172.602	175.268	179.296	510.768	176.506	-8191	255	
1573.499	1	1	0	0	0.16416	0.16354	0.095852	0.11245	0.22226	0.18161	0.18937	0.14371	0.12593	0.23053	0.1201	0.2298	0.14771	0.12651	0.16322	0.038046	-2.3646	-2.4292	-2.2062	-2.9042	-2.2229	-2.4667	-2.7021	-2.0438	-2.6396	-2.5271	-2.2104	-2.8979	-2.1521	-2.3125	-2.6542	-2.0729	476.557	162.398	323.902	449.595	490.709	252.087	285.681	502.841	359.635	336.054	467.639	455.343	451.259	373.631	261.955	474.869	0.00037655	0.00010799	0.00028215	582.88	3.1326e-06	1.6256e-05	587.55	209.7	1.575e-06	7.425e-06	230.38	98.065	81.814	30.398	9.5509e-06	36.713	0.0022021	0.0023396	0.00064761	583.64	2.155e-05	2.5535e-05	595.16	217.45	2.4248e-05	2.5668e-05	353.81	106.33	88.442	36.386	2.5406e-05	45.664	208.698	333.783	208.701	164.822	317.054	220.686	163.561	170.916	383.183	288.734	167.756	172.826	175.730	179.622	240.525	176.468	-8191	255	
1573.572	1	1	0	0	0.17652	0.086427	0.097158	0.17767	0.11567	0.16866	0.14003	0.22572	0.19005	0.1174	0.30816	0.02154	0.14799	0.084115	0.13412	0.14124	-2.3979	-2.4792	-2.1167	-3.0021	-2.3667	-2.5875	-2.6229	-2.1917	-2.6042	-2.4854	-2.0417	-2.8833	-2.3396	-2.4583	-2.825	-2.0896	315.180	500.427	464.709	180.554	336.574	166.325	439.055	237.646	340.363	383.640	207.626	405.085	459.324	398.451	409.191	490.117	0.00040923	0.00065416	0.00019782	578.16	8.0065e-07	1.0859e-05	583.3	207.44	2.9249e-06	1.1645e-05	229.62	96.837	81.187	29.954	6.459e-06	36.412	0.0022091	0.0023239	0.00064823	580.46	2.1546e-05	2.5499e-05	591.57	216.42	2.4215e-05	2.5681e-05	350.57	105.42	87.725	35.954	2.5156e-05	45.137	236.800	175.488	297.323	165.248	299.793	184.515	163.487	171.434	215.567	308.523	168.418	172.471	175.496	180.170	213.186	176.267	-8191	255	
1573.691	1	1	0	0	0.098401	0.14399	0.20309	0.33533	0.10686	0.1286	0.074489	0.28924	0.24603	0.051524	0.048112	0.0553	0.25238	0.19587	0.24139	0.19026	-2.3438	-2.6604	-2.2167	-2.7	-2.4396	-2.4167	-2.925	-2.0854	-2.5708	-2.7062	-2.2167	-2.8667	-2.3875	-2.2292	-2.8937	-2.1208	173.203	294.089	282.989	433.182	262.177	399.387	219.397	420.308	406.634	399.939	310.623	256.834	325.470	162.157	383.138	260.760	0.00049324	0.0010615	6.929e-05	576.12	2.0995e-06	4.1528e-06	583.27	207.35	1.0197e-05	1.1534e-05	231.54	97.044	81.147	30.055	8.5383e-06	36.715	0.0022157	0.0023037	0.00064996	580.1	2.1727e-05	2.5653e-05	592.74	215.72	2.463e-05	2.573e-05	353.57	105.34	87.319	35.843	2.5351e-05	45.075	233.386	245.612	400.875	165.179	353.988	309.184	163.581	171.322	300.941	321.193	169.377	172.553	175.255	179.146	263.240	176.361	-8191	255	
1573.787	1	1	0	0	0.3098	0.24504	0.076998	0.13251	0.14627	0.1382	0.033844	0.28221	0.060764	0.16546	0.1908	0.082876	0.18439	0.088867	0.14231	0.050833	-2.1271	-2.7042	-2.1896	-2.7708	-2.2687	-2.2313	-2.8312	-2.0646	-2.5875	-2.7	-1.9771	-2.7479	-2.4542	-2.2	-2.7	-2.2167	415.851	322.864	192.491	325.047	263.356	327.904	228.187	508.553	315.976	198.501	182.941	205.160	207.728	167.618	267.413	404.276	0.00036391	0.00020049	0.00021589	579.03	2.8351e-06	1.8166e-05	583.97	208.22	4.718e-06	5.3645e-06	235.62	96.825	81.046	30.401	3.1949e-06	36.497	0.0022259	0.0023246	0.00064751	580.79	2.1579e-05	2.5743e-05	592.38	215.4	2.4539e-05	2.5626e-05	351.58	105.27	87.294	35.888	2.5549e-05	45.244	216.117	366.420	302.838	164.998	307.862	154.356	163.352	171.257	329.525	428.193	168.298	172.608	175.470	179.506	263.767	176.443	-8191	255	
1573.883	1	1	0	0	0.12565	0.13232	0.091623	0.079861	0.1006	0.074624	0.21468	0.087209	0.24327	0.074456	0.10781	0.093699	0.10226	0.17009	0.20212	0.10693	-2.1063	-2.8438	-2.1042	-2.8917	-2.4125	-2.2562	-2.9021	-2.2146	-2.4833	-2.7729	-2.2667	-2.8187	-2.6458	-2.0854	-2.9792	-2.45	421.081	417.523	188.746	466.988	422.067	374.771	157.878	442.333	357.082	269.294	204.616	286.195	437.818	493.056	361.151	188.579	0.000513	0.00016955	8.2846e-05	576.41	1.896e-06	2.8237e-06	580.7	206.36	1.0087e-06	8.3883e-06	230.29	96.977	80.928	30.047	9.2847e-07	36.25	0.0022516	0.0023447	0.000656	580.77	2.1833e-05	2.57e-05	590.56	215.16	2.4729e-05	2.5623e-05	352.62	105.55	87.407	36.03	2.5512e-05	45.214	242.080	506.455	285.847	165.184	296.248	302.924	163.684	171.583	348.619	445.014	167.561	172.426	175.680	180.239	190.597	175.197	-8191	255	
1574.004	1	1	0	0	0.058523	0.14219	0.40252	0.097586	0.20089	0.20414	0.17588	0.03222	0.13666	0.28405	0.11755	0.29561	0.29357	0.30948	0.38678	0.17781	-1.9729	-2.9417	-2.1646	-2.5979	-2.4917	-2.1437	-2.9646	-2.2896	-2.3354	-2.8479	-2.2771	-2.4292	-2.6542	-2.025	-2.6333	-2.4583	234.327	431.684	497.124	256.360	167.915	492.611	233.373	202.198	272.950	448.236	484.762	310.823	401.710	434.629	468.048	458.139	0.0004815	0.00045225	0.00018035	573.37	1.6308e-06	2.627e-06	575.15	204.64	6.213e-06	7.955e-06	229.85	96.327	80.718	29.737	9.72e-06	36.266	0.0022431	0.0023341	0.00065254	578.36	2.1806e-05	2.5845e-05	586.4	214.08	2.4697e-05	2.5895e-05	350.21	104.67	87.145	35.879	2.5808e-05	44.977	220.694	188.717	196.366	165.358	336.896	292.238	163.962	171.606	299.354	466.583	168.355	172.419	175.712	180.015	357.555	175.793	-8191	255	
1574.100	1	1	0	0	0.22585	0.089083	0.12291	0.12291	0.022085	0.19109	0.066029	0.23042	0.10278	0.22144	0.22843	0.080503	0.079239	0.15751	0.2128	0.21926	-1.8875	-2.9167	-2.0646	-2.5563	-2.5729	-2.1729	-2.8417	-2.5417	-2.1896	-2.9313	-2.2042	-2.3375	-2.8312	-2.15	-2.7354	-2.5479	450.582	399.410	399.007	446.669	385.728	346.281	467.262	500.582	200.015	456.411	416.531	221.883	197.636	186.308	484.213	322.645	0.00019568	0.0005036	9.3163e-05	571.13	1.1301e-06	4.0648e-06	579.59	206.28	5.2872e-06	5.0369e-06	230.33	96.202	80.754	30.375	6.2297e-06	36.029	0.0022589	0.0023457	0.00065754	576.55	2.1665e-05	2.5967e-05	584.94	213.55	2.4918e-05	2.5987e-05	351.76	104.65	86.804	35.892	2.6097e-05	44.94	212.931	219.736	226.783	165.400	326.276	203.127	163.208	171.164	332.701	372.862	168.960	172.331	175.445	180.049	232.233	176.118	-8191	255	
1574.172	1	1	0	0	0.1591	0.15143	0.15346	0.16009	0.078367	0.12824	0.2774	0.24649	0.21029	0.18416	0.1521	0.14104	0.20135	0.15015	0.098991	0.12223	-1.7583	-2.7083	-2.2479	-2.4313	-2.9125	-2.125	-2.5792	-2.5958	-2.0792	-2.7167	-2.2917	-2.0812	-2.6312	-2.1583	-2.4208	-2.7021	416.339	450.986	199.756	375.068	195.083	465.141	447.240	187.691	451.313	477.014	419.499	441.427	154.594	356.268	377.667	504.418	0.00020513	6.5773e-05	0.00030422	575.25	4.6637e-06	5.7928e-06	577.87	206.23	7.7502e-06	1.1458e-05	235.2	96.429	80.299	29.884	7.5644e-06	35.894	0.0022652	0.0023601	0.00066026	576.04	2.1739e-05	2.6062e-05	584.62	213.33	2.4842e-05	2.6323e-05	353.12	104.83	86.836	35.931	2.6303e-05	45.075	235.536	387.032	267.617	164.890	250.985	281.683	163.248	171.258	313.347	295.568	169.291	172.478	175.757	179.526	286.362	175.859	-8191	255	
1574.292	1	1	0	0	0.12127	0.12364	0.19653	0.078007	0.27676	0.1176	0.18117	0.077098	0.087629	0.098918	0.14243	0.26967	0.21169	0.069694	0.040647	0.2887	-1.7479	-2.8833	-2.6208	-2.5125	-3.0333	-2.275	-2.6583	-2.8	-2.1979	-2.8875	-2.4875	-2.2188	-3.0021	-2.2167	-2.3854	-2.9792	231.433	158.911	342.988	176.230	253.486	403.351	463.079	239.106	505.452	169.790	233.871	167.923	484.635	181.708	382.362	335.453	0.00044374	0.00039921	0.00016413	568.63	8.1894e-07	6.1252e-06	571.22	204.39	7.355e-06	4.6191e-06	229.52	97.111	80.171	30.055	2.4238e-06	37.006	0.002291	0.002384	0.00066261	575.26	2.2008e-05	2.6264e-05	583.63	213.28	2.5128e-05	2.6355e-05	354.28	105.34	86.955	36.092	2.64e-05	45.585	242.330	215.311	221.024	165.290	506.905	470.454	163.810	171.827	239.833	381.558	167.908	172.590	175.761	179.970	338.228	176.495	-8191	255	
1574.388	1	1	0	0	0.11165	0.14374	0.19262	0.13807	0.118	0.35918	0.036746	0.29148	0.069773	0.045763	0.28555	0.062039	0.14466	0.16689	0.14756	0.234	-1.8208	-2.725	-2.4417	-2.1396	-2.8979	-2.35	-2.6292	-2.6292	-2.1729	-2.7646	-2.5917	-2.1813	-2.7062	-2.2771	-2.2812	-2.7729	310.162	497.295	296.396	193.083	183.096	243.429	333.997	308.439	433.318	412.712	456.116	413.545	420.929	511.435	382.072	331.798	0.00021293	0.00044622	8.6624e-05	570.49	2.9189e-06	1.9112e-06	574.12	204.93	2.3768e-06	1.045e-05	232.72	97.326	80.867	29.627	1.0677e-05	36.38	0.0022906	0.0024039	0.00066533	575.18	2.211e-05	2.627e-05	582.77	213.66	2.5143e-05	2.6535e-05	353.75	105.59	87.293	36.101	2.6499e-05	45.495	285.198	298.339	251.627	165.422	344.879	366.075	163.618	171.734	361.876	272.380	167.751	172.197	175.863	179.590	270.327	176.311	-8191	255	
1574.485	1	1	0	0	0.24176	0.19855	0.087537	0.046596	0.18376	0.23081	0.31148	0.13549	0.19306	0.19821	0.070912	0.28325	0.07276	0.11694	0.18463	0.39231	-1.8833	-2.6271	-2.6396	-2.1854	-2.9375	-2.4042	-2.25	-2.9062	-2.025	-2.4771	-2.775	-2.1937	-2.8854	-2.4354	-2.2771	-2.8292	315.789	278.256	421.309	271.862	163.163	217.803	420.233	403.385	219.912	212.474	213.261	161.266	195.597	377.561	422.588	300.751	0.00046392	0.00057418	0.00011151	570.07	3.2085e-06	8.3928e-06	572.41	205.98	5.8775e-06	5.0828e-06	231.68	96.964	80.998	30.147	2.3084e-06	36.634	0.0022907	0.0024278	0.00066805	574.24	2.2045e-05	2.6503e-05	581	213.8	2.5481e-05	2.6629e-05	354.23	105.13	87.332	36.226	2.6516e-05	45.481	195.935	288.545	407.265	165.228	302.457	173.516	163.454	171.254	364.345	227.521	167.426	172.405	175.607	179.383	272.841	176.302	-8191	255	
1574.603	1	1	0	0	0.16279	0.28889	0.045317	0.11771	0.25303	0.35422	0.25652	0.13035	0.1947	0.1527	0.024158	0.14257	0.1135	0.10738	0.064652	0.18087	-1.8146	-2.5	-2.6417	-2.3438	-2.7021	-2.5833	-2.225	-2.8417	-2.2313	-2.4792	-2.8521	-2.2875	-2.7875	-2.4771	-2.1167	-2.7167	396.666	331.755	215.409	177.567	156.868	380.287	422.159	289.178	297.463	251.936	447.886	211.558	232.547	512.828	444.427	371.149	0.0004395	0.00062302	3.9245e-05	568.64	3.2642e-06	5.7038e-06	569.41	206.31	1.6948e-06	4.3216e-06	229.24	97.225	81.054	30.581	3.5e-06	36.77	0.0023109	0.0024272	0.00066428	573.43	2.2081e-05	2.6249e-05	579.73	213.9	2.5251e-05	2.6579e-05	352	105.34	87.505	36.228	2.6429e-05	45.643	239.509	272.400	220.222	165.341	318.622	213.801	163.692	171.456	381.467	287.648	167.228	172.454	175.577	179.974	422.353	175.945	-8191	255	
1574.700	1	1	0	0	0.14128	0.1314	0.14902	0.060584	0.074482	0.19976	0.13521	0.12157	0.25401	0.061318	0.015979	0.22749	0.1987	0.075054	0.1763	0.29741	-1.7354	-2.3708	-2.7646	-2.2854	-2.5667	-2.5979	-2.225	-2.7021	-2.2917	-2.1375	-2.6458	-2.2604	-2.5	-2.7125	-2.1854	-2.7438	376.678	496.737	207.934	462.086	512.772	336.065	427.610	348.051	167.264	180.183	159.612	480.857	330.165	402.233	421.631	356.191	0.00029809	0.00024852	0.00015403	568.35	4.2202e-06	1.0704e-05	567.98	205.16	5.682e-06	6.8186e-06	233.36	96.817	80.457	29.768	7.6056e-06	36.491	0.0022854	0.0024015	0.00066346	573.68	2.2122e-05	2.6086e-05	577.72	213.29	2.5235e-05	2.6498e-05	352.69	105.27	87.227	36.123	2.6348e-05	45.667	231.726	225.256	232.243	165.382	323.725	333.338	163.713	171.610	307.528	353.732	168.451	172.471	175.512	180.462	197.021	176.088	-8191	255	
1574.796	1	1	0	0	0.24679	0.18355	0.11549	0.051329	0.12424	0.16154	0.10336	0.087716	0.076917	0.35785	0.13013	0.19113	0.20094	0.13239	0.26974	0.27345	-1.8979	-2.4021	-2.9604	-2.2292	-2.4583	-2.7042	-2.2313	-2.6854	-2.4625	-2.1729	-2.7062	-2.3187	-2.4854	-2.7292	-2.2667	-2.7062	378.824	300.710	290.473	455.451	305.401	428.914	233.995	340.833	395.461	413.888	154.661	296.661	212.433	441.428	238.796	354.541	0.00040407	0.00019802	0.00016571	568.92	1.6093e-06	3.2579e-06	567.97	206.05	5.4307e-06	2.5623e-06	229.59	96.781	80.831	30.631	1.4369e-05	36.632	0.0022895	0.0024082	0.00066032	572.26	2.2183e-05	2.6192e-05	576.61	213.37	2.5172e-05	2.6698e-05	352.7	105.59	87.579	36.322	2.6436e-05	45.753	227.219	410.782	207.184	165.237	309.287	363.438	163.512	171.308	211.102	237.426	168.239	172.745	175.339	179.891	356.138	175.664	-8191	255	
1574.867	1	1	0	0	0.13066	0.24381	0.11849	0.34086	0.14681	0.17238	0.13363	0.16555	0.1693	0.17415	0.15947	0.11542	0.22019	0.15235	0.059334	0.34157	-2.1583	-2.0875	-2.6813	-2.225	-2.4417	-2.8167	-2.1104	-2.7083	-2.4958	-2.0708	-2.6979	-2.1	-2.4021	-2.675	-2.0771	-2.4958	396.976	486.946	328.773	492.203	175.043	231.234	208.110	509.456	359.142	366.424	199.410	403.155	267.910	459.457	479.072	489.471	0.00037672	0.00034291	1.9984e-05	566.17	2.0556e-06	1.3511e-05	564.53	204.39	2.3258e-06	4.9845e-06	231.09	96.686	79.849	30.232	3.8165e-06	36.793	0.002287	0.0024124	0.00066323	572.28	2.2329e-05	2.6206e-05	574.86	212.98	2.5229e-05	2.6568e-05	351.03	105.33	87.105	36.223	2.632e-05	45.697	225.197	245.039	459.414	165.453	165.485	311.082	163.790	171.738	266.994	470.556	167.765	173.076	175.886	180.318	491.843	175.598	-8191	255	
1574.988	1	1	0	0	0.22928	0.063946	0.27624	0.14644	0.1014	0.12175	0.11145	0.23438	0.12061	0.1421	0.20535	0.16072	0.25135	0.20966	0.094264	0.17999	-2.2958	-2.1271	-2.6354	-2.2812	-2.3167	-2.7708	-2.2208	-2.6958	-2.6208	-2.1979	-2.8563	-2.1854	-2.2875	-2.7375	-2.0333	-2.5542	477.257	280.822	477.199	175.118	320.911	442.544	456.157	402.049	452.419	227.486	241.207	415.124	348.801	266.486	334.253	249.180	0.00041282	0.00078563	0.000167	565.24	2.4081e-06	1.6655e-05	562.88	203.71	5.9605e-06	1.2216e-05	225.11	95.763	80.377	30.299	1.3488e-06	36.17	0.0022754	0.0023916	0.00066263	570.99	2.2135e-05	2.5998e-05	574.17	212.19	2.4961e-05	2.6242e-05	350.15	104.67	87.044	35.892	2.6085e-05	45.349	233.590	204.542	279.537	165.438	352.604	268.650	163.888	171.695	389.413	351.129	167.192	172.742	175.805	180.103	481.968	176.396	-8191	255	
1575.084	1	1	0	0	0.15688	0.13339	0.24029	0.030435	0.078657	0.32929	0.1563	0.19601	0.1915	0.30834	0.17878	0.15197	0.11902	0.11676	0.14083	0.1716	-2.1937	-1.9271	-2.8125	-2.3458	-2.2833	-2.8667	-2.1208	-2.4437	-2.825	-2.1083	-2.6875	-2.5	-2.1875	-2.6771	-2.3896	-2.3583	265.194	182.378	166.758	498.594	311.792	290.742	441.744	328.877	396.762	457.606	227.786	209.800	369.621	277.467	211.304	390.944	0.00040131	0.0004383	0.00011003	566.01	3.3243e-06	1.0022e-05	567.4	204.3	7.8142e-06	5.5899e-06	225.99	96.79	80.094	29.941	3.3931e-06	36.405	0.0022514	0.0023766	0.00066123	571.21	2.1999e-05	2.5867e-05	576.01	212.61	2.4837e-05	2.6243e-05	349.57	105.01	86.892	35.912	2.604e-05	45.345	231.736	508.314	457.124	165.501	294.757	268.211	163.528	171.483	295.207	403.925	169.280	172.578	175.678	180.024	263.572	176.460	-8191	255	
1575.180	1	1	0	0	0.042007	0.079906	0.16957	0.22129	0.062887	0.20895	0.038811	0.15567	0.12707	0.19877	0.24107	0.15224	0.1587	0.064585	0.087543	0.084876	-2.4188	-2.0896	-2.6396	-2.6083	-2.0854	-2.8979	-2.5771	-2.2958	-2.6979	-2.1208	-2.525	-2.3792	-2.1875	-2.6	-2.25	-2.3167	246.728	153.683	250.356	484.254	160.746	453.117	200.450	342.229	507.283	309.550	449.729	442.273	332.032	483.821	279.725	335.002	0.00029173	0.00097406	0.00027149	568.32	1.5726e-06	7.8274e-06	565.97	203.23	3.3235e-06	9.2205e-06	230.46	97.054	80.699	30.084	3.3839e-06	36.222	0.0022414	0.0023833	0.00066067	572.29	2.1918e-05	2.568e-05	574.91	212.4	2.4664e-05	2.6208e-05	351.63	105.15	86.988	35.988	2.6219e-05	45.401	249.616	186.938	291.705	165.358	336.469	271.664	163.762	171.666	332.949	382.940	167.941	172.580	175.551	179.634	395.652	175.938	-8191	255	
1575.276	1	1	0	0	0.23489	0.19756	0.024304	0.13534	0.31383	0.16864	0.1479	0.11052	0.11498	0.19699	0.096133	0.0937	0.1177	0.16751	0.21011	0.15804	-2.3083	-1.9833	-2.5563	-2.8167	-2.2438	-2.8208	-2.3375	-2.1833	-2.5917	-1.9875	-2.4229	-2.5917	-2.1667	-2.6521	-2.4396	-2.1854	340.634	214.716	290.740	436.816	421.399	154.770	362.089	290.138	315.750	507.772	464.636	336.496	187.586	389.927	186.659	394.907	0.00033068	0.00021168	0.00010915	571.6	4.062e-06	1.0789e-05	568.34	204.9	3.1707e-06	6.8001e-06	230.55	96.921	80.208	30.001	4.8031e-06	36.246	0.0022533	0.0024055	0.00066418	572.42	2.1933e-05	2.6009e-05	576.52	212.92	2.4758e-05	2.6311e-05	352.09	105.52	87.098	36.115	2.6173e-05	45.535	234.613	159.169	315.528	165.087	339.361	248.347	163.566	171.244	275.367	232.201	168.097	172.813	175.387	179.947	316.496	175.596	-8191	255	
1575.395	1	1	0	0	0.25667	0.15028	0.22143	0.15104	0.07352	0.15354	0.055068	0.18042	0.25434	0.20944	0.089147	0.082255	0.19506	0.13771	0.055695	0.090672	-2.3875	-2.1771	-2.35	-2.8479	-1.8583	-2.6042	-2.4917	-2.2875	-2.7375	-2.125	-2.3979	-2.6958	-2.3021	-2.5354	-2.6562	-2.1292	445.147	453.423	197.015	442.990	447.480	423.689	484.221	179.079	498.053	207.744	309.310	186.678	405.795	206.037	360.092	459.456	0.00034219	0.00028243	0.0001669	566.07	1.0886e-06	1.181e-05	564.78	204.23	1.3227e-06	1.2248e-05	227.12	96.104	79.793	30.233	2.4258e-06	36.362	0.002255	0.0023899	0.00066393	571.68	2.2011e-05	2.6144e-05	574.84	212.43	2.4853e-05	2.6313e-05	351.12	104.88	86.717	36.123	2.6275e-05	45.336	242.115	249.950	221.071	165.351	284.010	225.931	163.822	171.815	261.508	193.421	168.042	172.946	175.965	180.075	219.488	176.127	-8191	255	
1575.469	1	1	0	0	0.069985	0.080567	0.17409	0.094943	0.17417	0.075188	0.061391	0.091326	0.25359	0.15271	0.11136	0.12653	0.30152	0.16522	0.018584	0.23888	-2.4083	-2.2062	-2.3667	-2.9604	-2.2083	-2.4958	-2.6437	-2.0646	-2.8063	-2.3625	-2.1792	-2.8229	-2.1521	-2.375	-2.5312	-2.025	424.737	267.863	254.463	161.332	292.472	508.913	411.847	491.568	418.348	420.955	492.380	453.307	282.518	291.837	208.873	498.892	0.00045425	0.00054268	0.00015842	564.05	1.326e-06	3.0118e-06	563.96	202.34	5.6788e-06	2.7e-06	225.23	95.7	80.202	29.668	1.1789e-05	36.175	0.0022585	0.0023892	0.00066321	570.56	2.2045e-05	2.6073e-05	575.12	211.53	2.4802e-05	2.6419e-05	351.25	104.66	86.607	35.874	2.6143e-05	45.184	233.051	216.771	210.575	165.411	296.350	352.705	163.970	171.732	288.082	224.274	168.269	172.929	175.884	180.133	298.081	176.191	-8191	255	
1575.565	1	1	0	0	0.073429	0.22482	0.18333	0.17109	0.28563	0.24598	0.14094	0.1844	0.13349	0.2054	0.16599	0.24207	0.3234	0.31716	0.20455	0.089841	-2.2292	-2.2479	-1.9271	-2.8792	-2.1729	-2.45	-2.7646	-2.0854	-2.6063	-2.5	-2.1917	-3.0229	-2.2104	-2.3042	-2.625	-2.0875	204.461	163.801	193.512	423.574	344.953	323.061	426.434	170.454	423.768	493.526	233.351	232.766	441.187	482.235	459.887	351.812	0.00013758	0.00065903	0.00011053	566.9	3.0274e-06	4.2041e-06	566.21	203.98	2.6634e-06	9.3464e-06	228.24	96.675	80.371	30.08	7.9223e-06	36.156	0.0022726	0.0023898	0.00066391	571.91	2.2054e-05	2.6328e-05	576.32	212.18	2.4881e-05	2.6427e-05	352.7	104.92	86.731	35.894	2.5987e-05	45.328	275.684	315.429	276.861	165.446	250.670	292.377	163.822	171.690	287.468	348.702	168.134	172.553	175.477	179.875	357.922	175.912	-8191	255	
1575.684	1	1	0	0	0.14947	0.16202	0.20364	0.17072	0.21385	0.27627	0.074137	0.0676	0.18727	0.084763	0.25911	0.056775	0.11688	0.085436	0.23529	0.31772	-2.4333	-2.5	-2.1813	-2.9792	-2.2104	-2.3396	-2.9375	-2.0062	-2.6042	-2.4521	-2.2771	-2.8937	-2.3021	-2.4229	-2.8167	-2.0729	296.161	354.258	234.073	203.901	163.676	270.593	320.427	282.430	171.394	403.327	311.017	414.202	330.992	183.673	264.668	439.020	0.00044411	0.00035217	0.00012005	569.1	2.7074e-06	1.0536e-05	567.67	204.86	3.6966e-06	5.2428e-06	230.9	97.574	80.278	29.883	9.4471e-06	36.563	0.0022798	0.0024008	0.00067087	572.55	2.2156e-05	2.6456e-05	576.32	212.67	2.4992e-05	2.6521e-05	351.86	105.47	87.033	36.017	2.6017e-05	45.555	222.345	506.327	380.124	165.181	291.910	166.526	163.545	171.417	317.173	443.277	168.416	172.551	175.522	179.792	270.304	176.441	-8191	255	
1575.780	1	1	0	0	0.15332	0.20953	0.16588	0.070164	0.33676	0.15083	0.14649	0.070961	0.17052	0.1893	0.10873	0.20098	0.12914	0.10069	0.069459	0.26326	-2.3438	-2.6271	-1.9146	-2.9083	-2.3125	-2.2021	-2.8812	-2.075	-2.5583	-2.6333	-2.2188	-2.6771	-2.4021	-2.1854	-2.8104	-2.1437	209.714	431.860	365.306	254.011	461.273	193.850	507.060	326.330	187.370	234.318	232.804	163.597	420.525	178.847	335.697	205.254	0.00045114	0.0004253	6.95e-05	570.15	3.5721e-06	1.5985e-05	567.57	203.9	3.1709e-06	3.4443e-06	229.18	97.144	80.47	30.103	5.4678e-06	36.687	0.0022858	0.0024017	0.00066914	573.03	2.2278e-05	2.6458e-05	576.45	212.88	2.5249e-05	2.626e-05	353.31	105.74	87.13	36.158	2.6134e-05	45.642	223.200	170.205	202.940	165.214	307.373	199.126	163.682	171.734	335.969	360.728	166.846	172.948	175.809	179.675	334.921	177.181	-8191	255	
1575.876	1	1	0	0	0.36467	0.30522	0.16017	0.012972	0.042835	0.22176	0.1073	0.17412	0.014485	0.075734	0.14097	0.10163	0.13604	0.21105	0.077287	0.11621	-2.0292	-2.6562	-2.0687	-2.8042	-2.4458	-2.3688	-2.8917	-2.2146	-2.4938	-2.7083	-1.9854	-2.7021	-2.5458	-1.9562	-2.9042	-2.3563	364.434	260.405	179.618	361.897	197.126	373.368	233.098	430.737	169.402	352.679	250.482	375.511	353.917	230.625	207.469	460.236	0.000383	0.00034203	0.00012786	567.4	3.376e-06	9.2962e-06	566.77	204.46	6.2913e-06	1.0557e-05	232.06	96.204	80.051	29.912	8.9017e-06	36.266	0.0022859	0.0023913	0.00066772	571.29	2.2267e-05	2.6466e-05	574.64	212.62	2.5278e-05	2.6542e-05	353.31	105.13	86.928	35.936	2.6255e-05	45.38	245.891	251.780	167.913	165.317	345.332	207.479	163.467	171.584	275.388	283.985	167.238	172.676	175.909	179.867	474.148	176.375	-8191	255	
1575.972	1	1	0	0	0.060162	0.097477	0.21993	0.24257	0.30325	0.16055	0.12885	0.021882	0.090492	0.149	0.20084	0.19341	0.030219	0.32312	0.16607	0.19457	-1.8687	-2.6813	-2.0167	-2.65	-2.4833	-2.0354	-2.9042	-2.3208	-2.4417	-2.7583	-2.0229	-2.5458	-2.4667	-2.0375	-2.8833	-2.3688	333.787	163.076	444.203	158.694	169.371	246.969	463.659	473.423	196.010	406.964	392.777	451.653	180.524	177.430	181.063	413.015	0.00046567	0.00061346	9.1298e-05	567.85	2.5076e-06	9.8131e-06	565.27	203.91	1.9548e-06	1.3289e-05	227.33	97.168	80.561	29.961	3.02e-06	35.965	0.0023012	0.0024037	0.00066636	571.97	2.2198e-05	2.6456e-05	574.83	212.83	2.5354e-05	2.6508e-05	353.98	105.23	86.948	35.902	2.625e-05	45.305	230.931	484.361	500.413	165.260	339.017	160.656	163.754	171.689	483.516	311.491	167.441	172.569	175.962	180.215	243.288	176.505	-8191	255	
1576.068	1	1	0	0	0.19111	0.25728	0.024727	0.16337	0.078678	0.2182	0.062726	0.175	0.23513	0.21824	0.16163	0.22834	0.11781	0.26622	0.16983	0.037247	-2.0021	-2.6729	-2.0542	-2.7354	-2.6625	-2.0812	-2.8104	-2.3312	-2.2292	-2.8583	-2.1479	-2.4583	-2.7333	-2.0354	-2.5521	-2.575	399.268	208.752	342.840	193.044	306.592	409.626	230.368	421.287	294.707	305.675	425.649	220.597	384.129	403.186	441.326	179.080	0.00039478	0.0011585	0.0002033	566.81	3.074e-06	6.1871e-06	565.71	204.68	8.7871e-06	1.126e-05	226.72	97.242	80.702	29.667	1.1123e-05	36.089	0.0023074	0.0023889	0.00066873	571.77	2.2046e-05	2.6349e-05	574.76	212.72	2.53e-05	2.6174e-05	352.96	105.51	86.989	35.925	2.6459e-05	45.409	233.468	281.660	260.961	165.328	326.098	288.706	163.653	171.406	287.311	232.327	168.121	172.393	175.647	180.095	183.558	176.416	-8191	255	
1576.165	1	1	0	0	0.048118	0.099527	0.11396	0.27077	0.088124	0.25436	0.25691	0.14869	0.16441	0.16478	0.061528	0.1856	0.11892	0.057942	0.19144	0.044403	-1.8062	-2.75	-2.2562	-2.5083	-2.7958	-2.1583	-2.7188	-2.3854	-2.2625	-2.9042	-2.2812	-2.3917	-2.7146	-2.0271	-2.5646	-2.5687	181.262	217.187	386.078	465.942	190.208	420.626	445.385	497.243	502.025	241.682	228.889	326.787	402.758	354.826	417.419	198.661	0.00036049	0.00075013	0.00018221	569	1.9605e-06	4.8615e-06	566.21	205.13	4.8803e-06	7.1974e-06	234.16	97.534	80.512	29.955	4.7992e-06	36.311	0.0022882	0.0023866	0.00067275	572.22	2.2147e-05	2.6264e-05	575.46	213.65	2.5224e-05	2.6215e-05	354.14	106.09	87.245	36.084	2.6168e-05	45.719	232.127	354.338	323.208	165.149	232.418	213.368	163.592	171.517	320.340	299.361	168.870	172.208	175.369	179.836	315.606	176.560	-8191	255	
1576.285	1	1	0	0	0.081097	0.084084	0.1225	0.13591	0.011701	0.14762	0.20031	0.29253	0.25737	0.19377	0.17819	0.18073	0.25558	0.30165	0.11006	0.16401	-1.7333	-2.7479	-2.3042	-2.3792	-2.75	-2.175	-2.5208	-2.5771	-2.2771	-2.6917	-2.3896	-2.25	-2.7625	-2.1542	-2.6688	-2.7354	374.399	508.980	397.194	209.190	211.253	423.444	438.350	206.377	264.498	181.144	367.638	485.447	363.610	169.988	332.311	486.275	0.00031515	0.0012261	0.00030265	567.93	3.7126e-06	1.17e-05	566.17	206.65	4.7567e-06	7.6315e-06	228.16	96.966	81.198	30.436	1.0684e-05	36.623	0.0022808	0.0023956	0.00066892	572.31	2.195e-05	2.6364e-05	575.75	214.1	2.5044e-05	2.62e-05	354.3	105.76	87.357	36.083	2.6386e-05	45.368	219.125	245.767	196.510	165.352	287.191	237.901	163.525	171.535	304.693	330.483	168.177	172.847	175.596	179.300	246.515	175.642	-8191	255	
1576.381	1	1	0	0	0.21295	0.24689	0.22721	0.19934	0.18115	0.14313	0.29824	0.15691	0.087615	0.11248	0.088247	0.17827	0.18913	0.18895	0.0080354	0.14516	-1.8188	-2.7354	-2.3917	-2.3729	-2.8021	-2.1083	-2.5187	-2.7083	-2.0417	-2.7646	-2.5125	-2.1979	-2.8917	-2.2	-2.6146	-2.7917	156.009	351.795	437.660	473.902	207.116	241.615	379.357	477.399	226.367	268.124	490.581	384.585	178.560	368.900	369.023	317.881	0.00027979	0.00034433	5.7929e-05	566.89	3.2771e-06	6.1882e-06	566.17	205.24	2.8973e-06	6.1541e-06	231.46	97.309	80.943	29.969	1.5289e-05	35.93	0.0022753	0.0023801	0.00066562	570.82	2.1989e-05	2.6058e-05	574.17	213.28	2.5016e-05	2.6246e-05	351.59	105.36	87.029	35.848	2.6171e-05	45.034	241.170	197.005	416.326	165.275	326.601	171.805	163.353	171.498	229.523	477.037	168.007	172.558	175.680	180.238	334.912	177.011	-8191	255	
1576.477	1	1	0	0	0.12464	0.058033	0.10916	0.018595	0.21918	0.087105	0.15803	0.14789	0.14232	0.15901	0.32736	0.13004	0.16833	0.046524	0.28245	0.30935	-1.7687	-2.6104	-2.475	-2.2375	-2.7938	-2.1354	-2.5479	-2.7729	-1.9604	-2.7375	-2.6333	-2.1104	-2.7125	-2.3104	-2.3896	-2.9104	400.649	309.470	426.611	240.121	179.120	159.405	406.354	232.526	359.463	318.505	198.756	390.823	511.600	486.758	234.780	304.682	0.0004783	0.00025606	0.00017264	566.34	3.741e-06	1.2567e-05	562.87	204.6	5.9024e-06	1.4604e-05	230.6	96.726	79.578	29.733	1.2135e-05	36.195	0.0022499	0.0023621	0.00065614	571.35	2.1604e-05	2.5942e-05	574.6	213.04	2.451e-05	2.5811e-05	349.32	104.8	86.533	35.556	2.5865e-05	44.87	259.512	266.055	171.016	165.495	262.324	267.838	163.837	171.742	308.113	321.707	168.727	172.594	175.609	179.902	298.993	175.951	-8191	255	
1576.572	1	1	0	0	0.13263	0.20224	0.12804	0.23372	0.16655	0.29638	0.065492	0.26227	0.14329	0.12241	0.16277	0.12358	0.18509	0.03973	0.06974	0.14255	-1.7792	-2.6583	-2.6188	-2.0229	-2.6396	-2.3542	-2.3146	-2.8917	-2.0375	-2.6042	-2.7354	-1.8417	-2.8063	-2.45	-2.2604	-2.7979	286.041	399.961	264.052	305.018	246.932	367.825	388.629	438.482	383.379	331.084	348.880	274.758	372.434	345.943	410.895	288.990	0.00024017	0.00098436	0.00013496	567.85	1.8475e-06	9.5939e-06	565.84	205.08	4.2439e-06	4.6048e-06	225.96	96.533	79.597	29.748	8.9184e-06	36.066	0.0022213	0.0023412	0.00064704	571.11	2.1493e-05	2.5605e-05	573.96	212.34	2.4363e-05	2.5695e-05	347.67	104.77	86.474	35.522	2.5848e-05	44.885	268.739	184.742	238.443	165.122	295.726	216.501	163.557	171.447	346.700	286.414	168.290	172.482	175.627	179.658	302.309	176.265	-8191	255	
1576.693	1	1	0	0	0.13639	0.27702	0.22738	0.13639	0.24175	0.21457	0.25561	0.25878	0.10698	0.13253	0.14728	0.23187	0.2571	0.2542	0.064724	0.31194	-1.6146	-2.2979	-2.5563	-2.1479	-2.6562	-2.4188	-2.2521	-2.7354	-2.2125	-2.3917	-2.6458	-2.0812	-2.7479	-2.4417	-2.1417	-2.7875	499.474	335.501	334.685	442.150	158.171	486.024	167.017	216.353	174.956	200.826	266.571	170.329	200.379	379.736	494.732	415.626	0.0005092	0.00022779	0.00013788	564.59	2.845e-06	9.4165e-06	561.1	203.79	3.1208e-06	5.3124e-06	218.87	96.107	79.967	29.315	1.6125e-06	35.865	0.002235	0.0023536	0.00064932	570.12	2.1638e-05	2.5607e-05	572.3	212	2.441e-05	2.5817e-05	346.84	104.51	86.19	35.304	2.5328e-05	44.594	253.845	219.189	303.863	165.497	303.120	399.594	163.903	171.752	336.552	275.453	168.034	172.674	175.519	180.155	306.265	176.661	-8191	255	
1576.764	1	1	0	0	0.27865	0.038425	0.27192	0.2469	0.11733	0.054167	0.39176	0.03424	0.24425	0.22913	0.25995	0.15774	0.19517	0.13119	0.10314	0.086354	-1.7687	-2.4458	-2.8042	-2.0646	-2.5271	-2.4583	-2.2958	-2.6188	-2.3708	-2.2917	-2.6229	-2.0875	-2.725	-2.7771	-1.9937	-2.6292	324.564	337.154	201.203	499.177	331.971	421.734	209.952	478.320	334.073	506.641	198.776	246.844	290.133	201.572	303.828	184.634	0.00068129	0.00078174	0.00016923	561	3.5811e-06	4.0316e-06	561.78	202.92	1.0791e-05	1.2542e-05	226.31	95.409	79.116	29.453	6.9081e-06	35.777	0.0021863	0.0023093	0.00063101	567.99	2.107e-05	2.4946e-05	570.83	211.04	2.3768e-05	2.472e-05	340.31	103.82	85.493	34.846	2.4402e-05	44.143	244.773	202.566	284.840	165.631	327.710	484.348	163.642	171.745	316.359	264.492	169.254	173.016	175.902	180.185	213.399	176.145	-8191	255	
1576.860	1	1	0	0	0.17803	0.12695	0.069696	0.040515	0.17822	0.20839	0.086136	0.044832	0.10782	0.075399	0.078604	0.039015	0.19279	0.19796	0.1088	0.18348	-1.9375	-2.225	-2.7083	-2.2271	-2.4417	-2.7542	-2.0917	-2.7938	-2.5104	-2.3958	-2.9521	-2.1917	-2.3521	-2.6729	-1.9438	-2.8042	229.997	400.032	360.932	170.087	484.073	433.626	458.800	231.302	399.452	213.068	375.080	218.899	368.790	430.953	224.367	238.698	0.00034822	0.00068334	6.471e-05	559.67	2.8023e-06	1.4337e-06	557.48	201.8	5.4835e-06	8.2436e-06	227.52	95.172	79.61	29.315	3.4076e-06	35.588	0.0020919	0.0021826	0.00060237	565.8	2.0091e-05	2.3329e-05	566.29	209.69	2.2233e-05	2.3272e-05	330.35	102.72	84.827	34.427	2.2796e-05	43.168	233.196	219.592	504.458	165.728	346.972	183.596	163.827	171.860	341.651	355.683	167.766	172.639	175.399	180.068	360.198	176.287	-8191	255	
1576.957	1	1	0	0	0.093557	0.10776	0.26058	0.20157	0.17404	0.13282	0.11576	0.12549	0.15766	0.20298	0.2301	0.18542	0.17793	0.072299	0.12487	0.061413	-2.1167	-2.0354	-2.7604	-2.3667	-2.3708	-2.7125	-2.3229	-2.725	-2.6396	-2.1708	-2.825	-2.3792	-2.3833	-2.6979	-2.3771	-2.55	438.366	398.915	158.401	477.077	264.626	184.108	345.066	333.363	490.957	185.557	360.476	250.625	268.371	167.980	277.411	428.488	0.00048939	0.0010943	8.3238e-05	561.35	3.6586e-06	1.26e-06	555.84	201.94	3.9067e-06	9.7905e-06	216.35	95.301	79.515	29.377	4.8993e-06	35.578	0.0019616	0.0020441	0.00055935	565.28	1.8843e-05	2.1869e-05	563.68	208.9	2.0884e-05	2.213e-05	324.47	102.45	84.593	34.132	2.2026e-05	43.099	210.968	236.649	277.082	165.373	316.417	430.107	163.531	171.503	252.150	207.603	168.495	172.774	175.500	179.762	441.101	176.074	-8191	255	
1577.077	1	1	0	0	0.18346	0.22359	0.21588	0.2417	0.16398	0.25324	0.075536	0.0059565	0.039513	0.049724	0.093955	0.29564	0.14034	0.14086	0.23256	0.13424	-2.0458	-2.1021	-2.6333	-2.3083	-2.3146	-2.7438	-2.1979	-2.4521	-2.7021	-2.2354	-2.8208	-2.3271	-2.2292	-2.9188	-2.225	-2.6458	254.030	235.791	177.006	469.737	158.955	484.268	430.831	342.337	499.098	336.510	336.198	452.901	434.952	471.169	208.356	296.968	0.00052007	0.0006273	8.402e-05	561.13	3.8448e-06	1.859e-06	550.39	201.77	5.0136e-06	2.909e-06	226.38	95.205	79.523	29.25	1.0448e-05	35.598	0.0019039	0.0020124	0.00055303	563.67	1.8567e-05	2.1658e-05	557.75	208.84	2.0712e-05	2.1965e-05	325.67	102.86	84.919	34.386	2.1986e-05	43.342	246.496	218.315	329.832	165.277	321.775	412.313	163.635	171.220	340.794	423.532	168.515	172.927	175.557	179.668	257.677	176.191	-8191	255	
1577.173	1	1	0	0	0.097655	0.08533	0.10272	0.12313	0.22182	0.1409	0.19265	0.11752	0.1366	0.15893	0.10056	0.082992	0.25794	0.21635	0.29309	0.17779	-2.425	-2.1792	-2.7313	-2.5896	-2.3958	-2.9021	-2.325	-2.4854	-2.6188	-2.1417	-2.8	-2.6354	-2.0062	-2.6875	-2.2917	-2.4271	256.107	216.958	365.378	507.183	244.212	478.953	495.797	212.147	495.899	223.446	221.562	315.175	422.166	469.547	309.853	278.632	0.00014716	0.00046875	0.00021373	557.86	3.3922e-06	1.8485e-05	546.01	202.63	4.618e-06	6.0889e-06	219.52	95.501	79.902	29.606	8.036e-06	35.909	0.001899	0.0020108	0.00055744	560.15	1.8887e-05	2.2094e-05	553.1	209.43	2.1287e-05	2.2501e-05	329.16	103.18	85.166	34.655	2.2999e-05	43.773	247.863	358.404	268.747	165.198	308.115	252.460	163.555	171.604	310.198	451.638	168.510	172.877	175.705	179.782	285.386	176.493	-8191	255	
1577.269	1	1	0	0	0.086228	0.20157	0.18841	0.20659	0.082009	0.20973	0.18625	0.098192	0.14828	0.13542	0.11453	0.15494	0.22126	0.2018	0.097823	0.10992	-2.5021	-1.9542	-2.6021	-2.6833	-2.1458	-2.9083	-2.4	-2.2938	-2.6021	-2.0292	-2.3937	-2.6167	-2.2417	-2.75	-2.4688	-2.2521	404.775	185.087	319.165	356.984	240.626	425.991	256.474	484.696	352.410	177.061	329.939	266.422	224.579	366.993	286.746	318.965	0.00046768	0.00083019	0.00029464	553.24	4.126e-06	4.3958e-06	541.5	200.76	2.1556e-07	4.7507e-06	219.4	94.262	79.451	29.415	7.4976e-06	35.468	0.0020009	0.002128	0.00059139	557.67	2.003e-05	2.3666e-05	550.28	208.4	2.3015e-05	2.4563e-05	338.14	103.05	85.075	34.883	2.4466e-05	43.882	239.015	176.949	251.758	165.525	269.317	487.029	163.469	171.723	392.888	430.746	168.348	172.750	175.454	179.862	322.949	175.936	-8191	255	
1577.366	1	1	0	0	0.17919	0.076082	0.16427	0.22763	0.0926	0.035365	0.32443	0.21089	0.079387	0.18055	0.4084	0.13562	0.069188	0.17294	0.1807	0.10051	-2.3792	-2.1771	-2.4604	-2.8208	-2.0458	-2.8542	-2.3396	-2.3854	-2.9021	-2.2458	-2.525	-2.75	-2.0542	-2.6979	-2.5958	-2.1042	184.217	204.470	176.720	482.082	201.258	512.217	508.111	235.659	157.600	336.018	421.344	349.095	494.661	195.011	310.062	159.058	0.00028909	0.00041087	0.00011634	556.09	1.4092e-06	9.2428e-06	545.05	201.3	4.9929e-06	4.0992e-06	224.48	94.965	79.196	29.115	2.1427e-06	35.66	0.0020875	0.0022186	0.00061345	558.96	2.0261e-05	2.3997e-05	551.66	207.99	2.2629e-05	2.371e-05	332.56	102.33	84.503	34.271	2.2831e-05	43.154	240.247	262.864	316.921	165.261	229.597	241.732	163.353	171.194	274.239	306.284	168.398	172.584	175.466	180.474	349.295	176.078	-8191	255	
1577.462	1	1	0	0	0.43921	0.24002	0.11989	0.081659	0.21855	0.056442	0.31898	0.10898	0.3429	0.14001	0.050775	0.14358	0.22822	0.091221	0.15943	0.22676	-2.4125	-2.1	-2.2875	-2.6396	-2.05	-2.6063	-2.5187	-2.0667	-2.9688	-2.2646	-2.3542	-2.8	-2.1896	-2.7313	-2.6542	-2.1729	191.347	159.451	212.008	253.783	407.293	284.681	490.377	450.350	268.228	342.497	324.310	407.209	378.788	230.963	417.834	276.244	0.00042197	0.00084761	2.8043e-05	555.91	3.2667e-06	8.0775e-06	543.72	200.68	2.1419e-06	7.597e-06	223.81	95.859	79.133	29.252	6.9184e-06	35.746	0.0019415	0.0020331	0.00056504	558.41	1.8569e-05	2.178e-05	549.23	207.74	2.0505e-05	2.1665e-05	320.61	102.24	84.154	33.968	2.0427e-05	42.404	255.594	362.203	282.454	165.185	248.724	245.930	163.390	171.509	249.801	273.309	168.039	172.348	175.217	179.864	250.305	175.741	-8191	255	
1577.558	1	1	0	0	0.19034	0.17889	0.21529	0.25156	0.18908	0.053321	0.056985	0.1985	0.1526	0.16686	0.030256	0.079544	0.057545	0.13715	0.064176	0.12906	-2.2354	-2.2938	-2.2812	-3.025	-2.1479	-2.4958	-2.6417	-2.0854	-2.9042	-2.4729	-2.2292	-2.6208	-2.1292	-2.2771	-2.7125	-2.1042	376.673	454.823	285.037	483.316	211.827	503.214	464.254	229.501	277.128	361.036	199.553	201.448	375.710	153.536	215.305	426.333	0.00030943	0.0011577	8.4948e-05	554.58	2.4754e-06	3.2589e-06	540.25	202.07	2.371e-06	6.966e-06	223.99	96.521	79.572	29.787	5.6559e-06	36.087	0.0017761	0.0018662	0.00051256	555.82	1.7082e-05	2.0096e-05	545.59	207.58	1.8994e-05	2.0306e-05	315.26	102.24	84.317	34.013	1.9986e-05	42.586	249.513	217.833	217.393	165.124	279.243	299.793	163.245	171.178	347.494	188.849	168.791	172.247	174.949	179.292	295.363	175.683	-8191	255	
1577.654	1	1	0	0	0.28889	0.18005	0.21695	0.10993	0.13825	0.28997	0.13135	0.10402	0.23699	0.18573	0.38026	0.1518	0.21846	0.17747	0.13704	0.1711	-2.3542	-2.2625	-2.0479	-2.7958	-2.1021	-2.4417	-2.9021	-2.0458	-2.6542	-2.5125	-2.25	-2.8187	-2.1688	-2.2417	-2.7583	-1.9312	243.381	208.147	237.747	464.951	203.352	460.310	478.564	244.152	192.178	405.886	249.856	415.489	466.858	407.816	257.998	323.275	0.00034867	0.0007107	0.00024165	556.21	1.8822e-06	1.006e-05	544.94	203.19	8.5407e-07	1.0363e-05	227.07	96.629	79.599	29.859	1.1277e-05	36.188	0.0017186	0.0018325	0.00050947	555.84	1.7353e-05	2.0441e-05	546.56	208.41	1.9779e-05	2.0944e-05	319.66	102.72	84.525	34.319	2.0989e-05	43.033	243.521	272.643	340.293	164.940	368.770	245.561	163.141	170.883	450.495	337.340	167.564	172.351	175.173	179.402	255.875	175.449	-8191	255	
1577.773	1	1	0	0	0.40015	0.13671	0.13404	0.19412	0.1647	0.065485	0.29477	0.12903	0.17731	0.12687	0.083327	0.09359	0.10654	0.15723	0.17904	0.10431	-2.2958	-2.4458	-1.9729	-2.7833	-2.025	-2.1813	-2.6792	-2.1125	-2.7771	-2.5104	-1.975	-2.8354	-2.4292	-2.1813	-2.7792	-2.2271	254.142	263.126	383.165	511.801	437.023	375.384	487.306	402.547	503.704	225.890	327.855	440.148	439.647	177.250	222.424	338.345	0.0003836	0.00030232	0.00016274	557.48	4.0409e-06	9.3255e-06	541.83	202.58	9.1742e-06	1.939e-06	226.9	95.204	79.165	29.189	6.103e-06	35.51	0.001879	0.0019948	0.00056252	555.97	1.8889e-05	2.2797e-05	546.99	208.04	2.2207e-05	2.3571e-05	332.55	102.47	84.712	34.686	2.3781e-05	43.653	258.042	294.256	317.989	164.699	273.234	286.599	163.282	171.132	353.327	396.036	167.532	172.058	175.095	178.972	318.641	176.371	-8191	255	
1577.869	1	1	0	0	0.13724	0.25323	0.2396	0.13944	0.12183	0.10999	0.13454	0.041679	0.10702	0.28513	0.2812	0.25556	0.095028	0.024341	0.26119	0.31645	-2.2833	-2.6729	-1.9208	-2.8729	-2.5625	-2.325	-2.85	-2.0187	-2.4625	-2.6458	-1.9333	-2.675	-2.5938	-2.1375	-2.7375	-2.2125	352.339	469.031	209.420	250.132	289.130	231.666	464.881	306.179	186.547	253.666	203.871	358.695	209.527	464.406	511.554	239.466	0.00042609	0.0002866	3.9677e-05	558.71	1.5163e-06	7.6213e-06	546.35	201.19	5.3849e-06	8.862e-06	223.51	95.227	79.169	29.098	3.7058e-06	35.751	0.0021278	0.0022264	0.000617	558.37	2.0976e-05	2.4879e-05	551.51	208.35	2.437e-05	2.5476e-05	343.43	103.08	85.068	35.024	2.579e-05	44.378	248.032	277.397	438.995	164.957	495.728	478.702	163.251	171.176	167.745	295.905	166.846	172.225	175.333	179.547	260.994	175.733	-8191	255	
1577.965	1	1	0	0	0.20279	0.1472	0.056896	0.15836	0.1446	0.16101	0.098482	0.093002	0.17837	0.053116	0.072185	0.10618	0.10497	0.21473	0.11624	0.060845	-2.0396	-2.8646	-2.0604	-2.5396	-2.5083	-2.3125	-2.7104	-2.2562	-2.4271	-2.7375	-2.2062	-2.6521	-2.4708	-2.2333	-2.7604	-2.5104	164.521	444.003	167.510	454.527	497.308	475.351	418.406	451.873	446.928	292.103	271.018	414.926	353.540	182.769	307.483	358.385	0.00042933	0.00067489	0.00013687	559.16	5.2795e-06	8.0668e-06	543.63	202.08	4.1318e-06	7.9962e-06	223.02	96.11	79.101	29.557	6.1616e-06	35.88	0.0022856	0.0023806	0.00066861	557.77	2.2216e-05	2.6438e-05	548.15	208.66	2.5409e-05	2.6556e-05	348.31	103.7	85.439	35.423	2.6835e-05	44.874	223.283	367.857	162.461	164.690	329.632	435.933	163.133	171.160	428.240	175.073	167.354	172.247	175.242	179.745	408.574	176.327	-8191	255	
1578.061	1	1	0	0	0.27334	0.038849	0.13702	0.17428	0.060058	0.054513	0.14364	0.12991	0.10608	0.083413	0.075154	0.23263	0.052404	0.12059	0.30207	0.074826	-1.8771	-2.825	-1.9958	-2.6479	-2.525	-2.1521	-2.7708	-2.3375	-2.3771	-2.775	-1.9958	-2.7188	-2.7438	-2.0625	-2.6792	-2.2375	462.939	310.366	254.257	194.319	485.670	228.171	406.894	180.941	210.121	309.064	200.480	441.746	180.877	252.690	304.881	299.595	0.0003907	0.0001699	0.00010264	555.35	2.0245e-06	5.574e-06	542.83	202.82	4.3732e-06	6.1632e-06	230.34	96.778	79.947	29.622	3.2899e-06	35.772	0.0023365	0.0024311	0.00068241	555.4	2.2673e-05	2.701e-05	545.8	209.13	2.6053e-05	2.6863e-05	352.65	104.43	85.656	35.497	2.6939e-05	45.137	211.499	379.252	185.735	164.657	325.698	268.336	162.927	170.823	315.223	291.059	166.765	172.152	174.992	178.753	187.435	175.362	-8191	255	
1578.158	1	1	0	0	0.14996	0.16682	0.11204	0.31835	0.15061	0.042492	0.10608	0.22477	0.15469	0.25806	0.1553	0.14023	0.27274	0.26255	0.12357	0.18388	-1.8042	-2.7167	-2.0583	-2.4667	-2.575	-2.0854	-2.7583	-2.425	-2.2271	-2.9583	-2.0062	-2.4521	-2.7188	-2.0667	-2.7479	-2.2083	176.621	367.387	152.930	460.958	303.038	449.925	394.981	354.666	186.054	450.835	399.153	475.185	435.495	313.000	198.857	481.835	0.0004605	0.0010894	0.0001176	556.63	1.635e-06	5.9532e-06	542.25	202.01	5.4372e-06	7.8388e-06	227.51	95.415	79.527	29.59	1.9237e-06	35.692	0.0023532	0.0024626	0.00068637	555.73	2.2855e-05	2.7145e-05	547.58	208.93	2.6067e-05	2.7238e-05	352.74	103.84	85.441	35.525	2.7236e-05	44.824	223.404	200.201	257.616	164.702	317.018	503.376	163.036	170.781	368.457	288.795	168.036	172.366	175.198	179.847	307.380	176.239	-8191	255	
1578.254	1	1	0	0	0.29403	0.14524	0.19691	0.13475	0.096962	0.14569	0.24168	0.093696	0.12729	0.22196	0.27792	0.35298	0.090414	0.023304	0.15568	0.0097119	-1.7313	-2.7854	-2.1396	-2.5167	-2.5646	-2.0354	-2.6417	-2.6167	-2.2062	-2.7354	-2.2583	-2.2625	-2.6021	-2.1125	-2.3958	-2.4896	182.788	369.638	325.527	426.437	271.904	350.351	192.136	310.158	166.053	477.675	495.367	391.548	175.317	381.935	265.649	485.026	0.00031115	8.5201e-05	0.00018315	556.72	5.7802e-06	6.6922e-06	543.56	201.92	8.0355e-06	8.6136e-06	222.42	95.568	78.813	29.008	7.5646e-06	35.478	0.0023712	0.0024595	0.00068939	556.04	2.2634e-05	2.713e-05	548.3	208.37	2.5853e-05	2.7182e-05	351.11	103.29	85.048	35.275	2.7449e-05	44.659	265.413	271.199	262.657	164.908	317.115	258.737	162.982	171.058	315.090	255.645	167.958	172.161	175.198	179.649	303.828	176.236	-8191	255	
1578.374	1	1	0	0	0.21016	0.034195	0.21556	0.074248	0.089404	0.16378	0.063371	0.46969	0.13369	0.031808	0.097996	0.11492	0.070102	0.21411	0.43319	0.20665	-1.5854	-2.7229	-2.3375	-2.1833	-2.5979	-2.025	-2.3937	-2.6375	-1.9667	-2.7646	-2.4646	-2.3042	-2.6604	-2.2	-2.5917	-2.6417	475.544	275.562	261.816	355.832	301.433	210.567	404.488	415.897	397.555	481.580	350.356	221.337	408.883	330.555	202.237	490.261	0.000463	0.00015369	0.00016763	557.95	1.3475e-06	7.1922e-06	541.63	201.04	7.3896e-06	9.8517e-06	222.28	95.497	79.743	29.117	3.72e-06	35.331	0.0023633	0.0024681	0.00069042	557.06	2.2643e-05	2.727e-05	546.91	208.06	2.5892e-05	2.7166e-05	351.7	103.43	85.097	35.238	2.7436e-05	44.583	255.782	455.953	288.428	164.634	284.374	194.267	163.064	170.982	273.304	214.691	167.548	171.654	174.993	179.139	297.824	175.759	-8191	255	
1578.469	1	1	0	0	0.13804	0.25095	0.09965	0.17867	0.042801	0.057113	0.24501	0.24385	0.17776	0.029642	0.18005	0.098637	0.16373	0.21676	0.25545	0.28194	-1.6479	-2.9562	-2.4042	-2.1083	-2.9229	-2.3063	-2.4625	-2.875	-2.0687	-2.7396	-2.5708	-1.9583	-2.7271	-2.3083	-2.3875	-2.7167	338.288	321.940	283.788	175.242	446.853	195.048	390.285	399.558	316.087	280.111	290.806	314.501	168.089	209.186	273.213	282.001	0.00047793	0.00058268	0.00014318	555	1.8154e-06	5.0261e-06	540.29	200.93	7.1406e-06	7.3173e-06	224.97	95.882	79.267	29.419	8.2719e-06	35.978	0.002369	0.0024768	0.00069075	554.92	2.2603e-05	2.7263e-05	544.45	208.1	2.6002e-05	2.7389e-05	351.54	103.59	85.089	35.276	2.7355e-05	44.799	222.092	446.931	226.561	164.836	384.751	411.421	163.066	170.990	262.651	339.861	167.003	171.993	174.813	178.638	342.708	175.621	-8191	255	
1578.565	1	1	0	0	0.19468	0.069872	0.26862	0.060927	0.1884	0.083887	0.093567	0.13482	0.049476	0.27847	0.2605	0.21278	0.2115	0.11367	0.14202	0.10491	-1.6542	-2.7583	-2.6271	-2.1958	-2.9333	-2.2896	-2.3688	-2.8667	-2.1042	-2.6937	-2.7021	-2.0896	-2.8979	-2.2771	-2.1667	-2.725	445.813	295.397	328.671	214.699	256.382	372.114	189.390	384.777	288.478	466.786	367.442	390.966	327.493	298.110	279.415	342.101	0.00042613	0.00067554	0.00019213	554.59	3.8353e-06	6.306e-06	536.4	201.97	1.6197e-06	2.2e-06	221.98	96.608	79.302	29.385	9.9559e-06	36.06	0.0023639	0.0024778	0.00068711	553.16	2.2746e-05	2.7112e-05	541.92	208.33	2.5883e-05	2.7229e-05	350.64	104.05	85.366	35.439	2.7192e-05	44.812	267.829	159.123	321.827	164.568	334.591	277.486	163.024	171.049	214.494	158.864	167.466	172.025	175.208	179.046	284.729	175.889	-8191	255	
1578.638	1	1	0	0	0.27358	0.19131	0.19602	0.29861	0.039944	0.14526	0.0456	0.18317	0.13514	0.21309	0.16515	0.066995	0.061182	0.13536	0.085111	0.18695	-1.8396	-2.5646	-2.5896	-2.2708	-2.7625	-2.3729	-2.3667	-2.7417	-2.1104	-2.6396	-2.6063	-2.0229	-2.6021	-2.4521	-2.2396	-2.875	333.143	421.808	349.372	166.752	309.101	184.461	330.651	387.902	375.018	362.313	309.768	396.243	290.677	428.720	235.928	187.889	0.00047513	0.00050719	4.2762e-05	553.03	4.2263e-06	1.2153e-05	537.09	200.59	1.9991e-06	9.0492e-06	225.48	95.108	78.692	29.182	8.832e-06	35.618	0.0023477	0.0024752	0.00068103	552.67	2.2538e-05	2.7051e-05	541.44	207.55	2.5775e-05	2.7157e-05	349.29	103.14	84.94	35.28	2.7136e-05	44.445	255.611	277.814	300.599	164.806	328.379	299.556	163.121	171.110	415.135	296.716	167.543	171.884	175.100	179.305	263.980	175.451	-8191	255	
1578.734	1	1	0	0	0.13449	0.09514	0.26671	0.27908	0.28863	0.11664	0.2195	0.14302	0.17223	0.025138	0.21824	0.14158	0.15962	0.084802	0.1249	0.44715	-1.7563	-2.4938	-2.7667	-2.0021	-2.6771	-2.6333	-2.3729	-2.7188	-2.2687	-2.3458	-2.6813	-2.1125	-2.6396	-2.5792	-2.1417	-2.9292	207.285	391.788	499.928	490.716	333.326	271.625	480.055	317.423	291.445	200.353	209.633	341.789	258.192	198.412	505.312	238.066	0.00036238	0.001013	0.000229	554.06	3.6862e-06	1.0359e-05	536.93	200.35	5.9689e-06	6.9359e-06	218.45	95.832	79.166	29.29	1.3817e-05	35.631	0.0023279	0.0024414	0.00067598	553.33	2.252e-05	2.6676e-05	542.25	206.92	2.5583e-05	2.7061e-05	345.43	102.91	84.748	35.031	2.6821e-05	44.348	221.499	193.185	263.553	164.800	349.964	216.779	163.094	171.122	327.664	376.949	166.793	171.973	175.016	179.365	422.267	175.680	-8191	255	
1578.853	1	1	0	0	0.1819	0.071079	0.11922	0.22568	0.24404	0.13897	0.25035	0.079424	0.23886	0.19353	0.13416	0.16722	0.36052	0.095807	0.11614	0.17912	-1.8146	-2.1979	-2.7062	-2.2062	-2.4708	-2.4958	-2.2667	-2.7042	-2.2313	-2.2229	-3.0438	-1.9813	-2.4896	-2.4875	-2.1312	-2.7792	227.498	229.561	211.436	496.623	440.977	196.087	197.809	399.542	223.669	384.019	350.630	276.172	328.666	500.055	510.139	262.478	0.00038992	0.00027794	0.00016846	552.09	4.4676e-06	3.6139e-06	532.75	200.27	7.7354e-06	1.2128e-05	222.4	94.884	78.877	29.053	8.3322e-06	35.957	0.0023233	0.0024468	0.00067388	552.78	2.2405e-05	2.6524e-05	537.76	207.02	2.5369e-05	2.6749e-05	344.45	102.92	84.631	34.914	2.6787e-05	44.369	209.214	470.328	292.230	164.683	278.852	200.179	163.174	171.114	304.129	253.634	166.934	172.428	175.275	180.082	334.530	175.321	-8191	255	
1578.949	1	1	0	0	0.22242	0.12179	0.13738	0.13241	0.19798	0.23558	0.061238	0.091045	0.068219	0.27781	0.2134	0.259	0.29853	0.083082	0.075647	0.27262	-1.9271	-2.2542	-2.7188	-2.1437	-2.4062	-2.6375	-2.1125	-2.5938	-2.5187	-2.275	-2.7687	-2.1937	-2.45	-2.6396	-1.8708	-2.7646	313.285	380.338	485.502	501.027	323.759	227.461	319.285	282.347	507.976	401.219	280.400	156.823	323.971	319.127	504.610	373.544	0.00017303	0.00044856	4.6842e-05	549.78	1.4346e-06	7.2056e-06	529.75	200.65	1.0761e-05	6.4554e-06	227.54	95.555	78.9	29.125	2.7868e-06	35.977	0.0023139	0.0024359	0.00067656	549.51	2.2555e-05	2.6481e-05	535.48	206.7	2.5436e-05	2.6728e-05	345.81	103.24	84.849	35.036	2.6757e-05	44.641	235.785	190.809	448.754	164.759	338.636	294.982	163.034	171.058	349.847	196.661	167.947	172.041	175.194	179.676	356.837	175.458	-8191	255	
1579.046	1	1	0	0	0.093778	0.069061	0.22916	0.29328	0.087345	0.11291	0.10514	0.18579	0.14954	0.12037	0.12052	0.17158	0.11576	0.0938	0.22574	0.35587	-2.1979	-2.0312	-2.7646	-2.2	-2.4562	-2.8042	-2.1688	-2.7	-2.5771	-2.2333	-2.9542	-2.2958	-2.2812	-2.9208	-2.0583	-2.6021	462.669	454.187	171.528	457.185	171.474	356.312	416.847	387.433	376.015	348.319	430.790	371.556	163.929	373.645	191.819	204.275	0.00030387	0.00075307	0.00015455	547.19	1.9745e-06	7.6771e-06	529.34	200.58	2.7506e-06	1.2627e-05	225.53	95.341	78.547	29.154	9.012e-06	35.688	0.0023154	0.0024374	0.00067073	548.62	2.2411e-05	2.6419e-05	535.29	207.51	2.5665e-05	2.6813e-05	347.11	103.25	84.847	35.084	2.654e-05	44.597	243.615	322.235	220.573	164.921	272.510	257.732	163.227	170.896	284.993	309.837	167.618	172.294	175.268	179.880	344.878	175.646	-8191	255	
1579.166	1	1	0	0	0.17416	0.098398	0.15188	0.19116	0.3601	0.03893	0.15927	0.22962	0.1874	0.27345	0.21633	0.022626	0.11401	0.20074	0.15818	0.21887	-2.3625	-2.025	-2.8292	-2.4542	-2.3688	-2.8792	-2.0896	-2.5458	-2.5375	-1.9958	-2.7354	-2.4271	-2.1354	-2.7833	-2.2	-2.3083	169.569	339.793	352.955	357.609	198.365	365.569	332.798	361.515	374.836	379.216	382.611	307.782	192.207	496.818	228.362	179.091	0.00024655	0.00076342	0.00023185	548.77	7.7534e-07	1.357e-05	531.79	199.15	3.2522e-06	9.9127e-06	220.82	94.305	78.366	28.951	1.6191e-06	35.064	0.0023012	0.0024057	0.00066821	549.64	2.25e-05	2.6234e-05	536.89	206.55	2.5117e-05	2.6692e-05	346.48	102.51	84.639	34.892	2.6636e-05	44.094	223.079	203.592	236.296	164.959	299.813	359.343	163.273	171.191	324.864	279.783	167.915	172.232	174.882	179.655	280.448	176.155	-8191	255	
1579.238	1	1	0	0	0.35716	0.13637	0.074897	0.3004	0.11732	0.16489	0.13355	0.16903	0.20837	0.088167	0.14185	0.089246	0.16424	0.032362	0.11588	0.21512	-2.425	-2.3187	-2.5354	-2.5312	-2.1896	-2.9417	-2.2792	-2.2917	-2.6688	-2.1875	-2.7292	-2.6688	-2.1937	-2.6583	-2.4417	-2.5083	465.521	425.463	154.650	495.756	265.896	323.494	412.150	269.245	183.983	496.920	438.972	279.112	232.821	211.719	398.801	165.435	0.00041223	0.0003984	0.00012176	553.1	4.152e-06	1.2166e-05	536.88	199.39	6.2905e-06	9.1353e-06	220.16	94.468	78.529	28.943	2.1102e-06	35.522	0.002286	0.0024245	0.00066737	553.26	2.2187e-05	2.6217e-05	541.64	206.19	2.5125e-05	2.6733e-05	345	102.18	84.084	34.778	2.6534e-05	44.044	220.042	261.636	323.526	164.885	311.264	317.202	162.956	170.872	250.415	303.317	167.800	172.138	175.109	179.401	357.130	175.210	-8191	255	
1579.334	1	1	0	0	0.17272	0.22015	0.085661	0.1246	0.48878	0.055696	0.12814	0.052606	0.21491	0.13028	0.072104	0.049695	0.23215	0.066605	0.22555	0.16357	-2.4813	-2.1958	-2.6729	-2.7812	-2.25	-2.8792	-2.3438	-2.3854	-2.7646	-2.0167	-2.5396	-2.4896	-2.225	-2.6083	-2.4854	-2.3146	252.011	368.869	321.110	423.780	481.330	185.752	367.876	455.158	181.798	158.446	464.864	475.470	399.909	161.742	419.881	155.291	0.00027568	0.00065958	0.00013966	552.5	1.8925e-06	1.314e-05	534.92	198.89	5.331e-06	1.2866e-05	219.08	93.589	77.909	28.697	6.1196e-06	34.837	0.0022824	0.0024172	0.00067213	553.63	2.2389e-05	2.6161e-05	541.16	206.18	2.4962e-05	2.6482e-05	344.24	102.07	83.805	34.563	2.6607e-05	43.821	244.907	354.927	198.141	164.872	337.262	217.886	163.233	171.084	333.180	252.029	167.796	172.528	175.547	179.877	330.501	176.542	-8191	255	
1579.455	1	1	0	0	0.14814	0.15166	0.28995	0.10186	0.08316	0.27324	0.32202	0.20913	0.17654	0.14606	0.20041	0.33405	0.04144	0.17289	0.26756	0.22419	-2.4521	-2.2729	-2.575	-2.7479	-2.0187	-2.9188	-2.6083	-2.3	-2.9521	-2.3271	-2.5021	-2.8375	-2.0083	-2.6771	-2.7104	-2.2042	256.502	394.231	421.709	380.043	237.966	223.215	320.577	241.745	420.277	208.399	248.420	234.697	329.876	471.897	418.211	321.617	0.00031766	0.00033925	6.1434e-05	552.56	2.8938e-06	3.1704e-06	538.91	199.76	9.1958e-06	8.9514e-06	221.91	94.786	77.866	28.776	9.1905e-06	34.698	0.0022479	0.0024163	0.00066984	554.21	2.2156e-05	2.6284e-05	543.75	205.91	2.4918e-05	2.6402e-05	345.14	102.06	83.795	34.508	2.6442e-05	43.791	224.406	204.175	453.800	164.980	335.757	306.136	163.416	171.126	316.905	279.723	166.417	172.039	175.132	179.134	188.801	175.586	-8191	255	
1579.551	1	1	0	0	0.21568	0.13046	0.21881	0.074527	0.16219	0.14526	0.34584	0.25065	0.17596	0.14698	0.17701	0.24006	0.26419	0.1307	0.11371	0.0882	-2.3833	-2.3	-2.475	-2.9167	-2.2042	-2.7167	-2.7396	-2.3833	-2.7812	-2.1833	-2.3896	-2.7562	-2.0708	-2.5875	-2.5208	-2.0646	257.348	340.514	323.797	401.231	474.283	180.592	466.901	449.908	496.660	208.163	242.298	198.082	494.945	484.735	241.218	235.821	0.00020771	0.00010191	0.00017635	554.12	2.3426e-06	7.8985e-06	544.23	199.3	5.056e-06	1.5558e-06	220.37	93.777	77.427	28.701	5.732e-06	34.393	0.0022606	0.0024141	0.00066803	554.83	2.2152e-05	2.6268e-05	548.23	205.55	2.4945e-05	2.6568e-05	344.76	101.42	83.387	34.45	2.6291e-05	43.559	260.465	231.753	264.742	164.806	295.960	372.277	162.988	170.989	339.660	185.710	168.654	172.284	175.332	179.947	206.126	175.953	-8191	255	
1579.647	1	1	0	0	0.022941	0.17383	0.14774	0.051077	0.19935	0.11168	0.1867	0.37027	0.08898	0.3222	0.10876	0.11282	0.076502	0.14146	0.2043	0.09295	-2.2958	-2.425	-2.3187	-2.9458	-2.2188	-2.6042	-2.8417	-2.0812	-2.8208	-2.6042	-2.2562	-2.725	-2.2042	-2.4938	-2.9062	-2.2396	474.086	294.963	351.781	198.417	507.366	357.627	396.756	177.503	250.840	281.195	458.895	295.189	338.322	285.738	334.069	428.520	0.0004534	0.00049697	0.00010369	556.13	1.0901e-06	1.1871e-05	545.06	198	7.766e-06	1.0876e-05	221.03	93.024	76.818	28.498	3.907e-06	34.242	0.002284	0.0023919	0.00066383	556.51	2.2139e-05	2.6466e-05	550.77	204.84	2.5006e-05	2.6702e-05	343.98	100.69	83.066	34.222	2.6311e-05	43.218	222.358	283.051	327.416	164.903	285.076	458.287	163.196	171.209	335.813	317.760	166.603	171.992	174.984	179.819	299.600	175.606	-8191	255	
1579.766	1	1	0	0	0.10873	0.088644	0.15698	0.090821	0.15226	0.18498	0.11675	0.13086	0.0064704	0.27055	0.206	0.11305	0.2203	0.15104	0.23204	0.40099	-2.4271	-2.2938	-2.2104	-2.7771	-2.4271	-2.5021	-2.8104	-2.2417	-2.7021	-2.5542	-1.9771	-2.8875	-2.3729	-2.3146	-2.9667	-2.0479	442.880	220.451	270.519	361.639	223.752	370.509	177.606	303.946	353.980	438.609	210.579	216.942	235.039	378.189	495.921	288.623	0.00023001	0.00053675	0.0001028	557.28	3.7536e-06	7.1396e-06	544.48	197.71	9.5329e-06	5.4579e-06	218.82	93.105	76.775	28.185	5.1033e-06	34.364	0.0022911	0.0024124	0.00066531	556.92	2.2175e-05	2.6328e-05	550.42	204.05	2.5165e-05	2.6592e-05	343.02	100.34	82.794	34.119	2.6303e-05	43.191	213.345	286.656	235.042	164.787	342.391	512.056	163.013	171.012	332.624	280.702	167.158	171.751	175.116	179.114	367.970	175.480	-8191	255	
1579.862	1	1	0	0	0.32618	0.094945	0.038995	0.17233	0.17946	0.11031	0.18104	0.21035	0.25468	0.10346	0.085176	0.27726	0.091415	0.093961	0.14934	0.10477	-2.1167	-2.5646	-2.1479	-3.0583	-2.2458	-2.3333	-2.7562	-2.3312	-2.6354	-2.625	-1.9146	-2.7417	-2.1875	-2.2625	-2.8354	-2.1188	427.020	377.424	383.503	487.638	364.962	404.089	343.604	483.389	190.539	485.149	447.254	457.139	314.102	363.144	370.576	503.529	0.00044307	0.00026043	6.4464e-05	556.76	8.754e-07	6.1858e-06	539.65	197.58	4.0778e-06	1.5733e-05	219.99	93.474	77.169	28.318	6.1182e-06	34.579	0.0022968	0.0024123	0.00066964	555.99	2.2425e-05	2.6629e-05	544.79	204.25	2.5324e-05	2.6528e-05	345	100.87	83.005	34.213	2.6311e-05	43.469	250.865	313.022	333.120	164.659	316.216	287.777	163.124	170.873	322.979	229.437	167.343	172.224	175.428	179.594	277.155	175.656	-8191	255	
1579.934	1	1	0	0	0.069807	0.098606	0.25356	0.36803	0.17024	0.1532	0.38527	0.20094	0.11466	0.14318	0.20572	0.022694	0.14283	0.087462	0.051015	0.10217	-2.0979	-2.5396	-2.1479	-2.8292	-2.2917	-2.1	-2.7396	-2.0625	-2.4688	-2.7958	-2.1729	-2.6813	-2.4833	-2.325	-2.6896	-2.2021	489.475	502.993	389.578	433.039	271.562	239.188	297.525	459.787	452.962	225.261	267.130	282.589	357.941	349.135	350.025	373.798	0.00011641	3.2669e-05	8.9776e-05	553.52	2.9839e-06	1.1421e-05	534.33	198.15	4.3518e-06	1.0821e-05	220.34	94.478	77.696	28.739	7.2888e-06	34.396	0.0023057	0.0024103	0.00067054	554.03	2.2395e-05	2.6737e-05	540.01	205.63	2.545e-05	2.662e-05	348.01	102.18	84.11	34.76	2.6549e-05	43.964	184.986	339.974	338.674	164.819	303.316	395.661	163.215	171.259	287.027	271.364	166.977	171.987	175.090	179.561	331.572	175.314	-8191	255	
1580.054	1	1	0	0	0.17517	0.027175	0.18031	0.18122	0.226	0.31974	0.16207	0.20575	0.28893	0.23339	0.17249	0.033698	0.13557	0.1562	0.22733	0.12334	-1.8792	-2.7271	-1.8125	-2.7979	-2.275	-2.1875	-2.8542	-2.1708	-2.3146	-2.8604	-2.0667	-2.7896	-2.6729	-2.1792	-2.8167	-2.2292	234.172	325.980	457.290	470.192	217.604	270.324	394.416	365.935	198.920	238.121	246.338	212.026	254.718	409.834	386.242	265.974	0.00027024	0.00010836	0.00011124	551.3	1.7066e-06	6.5124e-06	529.73	197.91	2.4328e-06	4.4196e-06	220.53	94.143	77.799	28.483	1.0806e-05	34.193	0.0023399	0.0024277	0.00067372	551.38	2.254e-05	2.6799e-05	535.24	205.53	2.5808e-05	2.6804e-05	345.49	101.63	83.614	34.582	2.6901e-05	43.775	264.491	202.872	343.389	164.633	309.654	242.929	163.067	170.989	326.039	228.861	166.894	171.929	174.881	179.663	451.736	175.903	-8191	255	
1580.150	1	1	0	0	0.093939	0.25674	0.30161	0.13939	0.19024	0.10991	0.24294	0.032351	0.10865	0.17884	0.15995	0.3261	0.17827	0.053267	0.21902	0.23615	-1.9417	-2.9125	-2.2083	-2.6688	-2.5729	-2.1875	-2.8667	-2.2792	-2.2583	-2.975	-2.0312	-2.4021	-2.6479	-2.2354	-2.8229	-2.325	491.909	271.732	334.847	156.521	200.012	214.973	411.684	350.864	237.507	196.459	435.549	280.074	203.713	449.206	442.218	306.791	0.00030302	0.00098821	0.00018864	549.84	2.2863e-06	6.2104e-06	530.94	198.08	3.2014e-06	1.0932e-05	221.53	92.873	77.479	28.51	5.1972e-06	34.139	0.0023626	0.0024543	0.00068904	550.54	2.301e-05	2.7418e-05	536.36	205	2.6434e-05	2.7444e-05	349.33	101.09	83.461	34.511	2.7559e-05	43.796	264.206	270.616	417.411	164.778	301.201	315.143	163.119	171.004	347.048	308.275	167.165	172.173	175.098	178.725	364.058	175.481	-8191	255	
1580.247	1	1	0	0	0.31631	0.1362	0.029118	0.083773	0.088873	0.11475	0.27333	0.17101	0.11943	0.10588	0.13742	0.093007	0.35806	0.08983	0.11323	0.2051	-1.8062	-2.8	-2.1042	-2.4833	-2.5563	-1.9062	-2.6979	-2.7	-2.3208	-2.8708	-2.1063	-2.4271	-2.625	-2.0792	-2.6667	-2.4938	389.590	392.940	421.807	462.772	432.014	370.344	183.745	505.893	225.551	272.486	202.795	482.140	379.798	395.049	180.201	402.759	0.00016098	0.00048065	0.00016642	551.5	3.9847e-06	3.1505e-06	526.55	197.46	7.0985e-06	8.3143e-06	221.41	93.569	77.326	28.368	1.038e-05	34.474	0.0024131	0.0025216	0.00070377	551.75	2.3283e-05	2.7673e-05	534.14	204.97	2.64e-05	2.753e-05	347.69	101.23	83.378	34.444	2.7003e-05	43.528	311.830	177.585	220.702	164.837	308.947	163.907	163.241	171.167	318.236	220.697	168.474	172.227	174.968	179.566	292.702	175.974	-8191	255	
1580.343	1	1	0	0	0.12162	0.15676	0.16599	0.079832	0.14234	0.10576	0.27844	0.22417	0.02268	0.16601	0.14682	0.095512	0.18592	0.14426	0.26117	0.19178	-1.85	-2.8125	-2.2188	-2.2938	-2.8271	-1.9375	-2.7604	-2.4792	-1.9875	-2.8438	-2.4062	-2.3917	-2.8792	-2.2812	-2.65	-2.6667	300.778	458.503	450.811	465.670	204.996	336.987	479.949	448.491	345.759	299.658	224.915	444.119	361.416	401.950	337.863	191.294	0.00052768	0.00038047	0.000194	545.76	3.394e-06	9.6379e-06	520.74	196.8	2.5434e-06	1.2369e-05	223.45	94.258	77.398	28.606	1.1013e-05	35.012	0.0023346	0.0024225	0.00067392	547.2	2.2287e-05	2.6597e-05	527.77	204.61	2.5055e-05	2.6247e-05	342.49	101.73	83.744	34.641	2.6505e-05	43.731	230.743	296.381	253.051	164.806	286.019	371.080	163.330	171.358	327.154	254.088	168.240	172.223	175.372	179.718	266.962	175.803	-8191	255	
1580.439	1	1	0	0	0.21639	0.21728	0.08094	0.2203	0.23388	0.10551	0.034552	0.15073	0.34987	0.1546	0.18419	0.11949	0.038095	0.12709	0.2288	0.020212	-1.7771	-2.7438	-2.3563	-2.4417	-2.7417	-2.1437	-2.7188	-2.7687	-2.1188	-2.85	-2.3125	-2.2292	-2.9146	-1.9833	-2.4479	-2.7792	319.095	345.018	507.587	287.763	230.889	246.185	494.030	248.614	432.292	427.457	474.655	462.024	191.699	225.055	431.969	187.829	0.00041036	0.00086697	5.4483e-05	543.19	2.3615e-06	1.4783e-05	519.68	198.52	4.4142e-06	7.1492e-06	217.6	93.544	77.481	28.821	4.9882e-06	34.296	0.0022823	0.002392	0.00066871	543.4	2.1888e-05	2.631e-05	524.69	205.36	2.552e-05	2.7147e-05	347.48	101.7	83.848	34.755	2.7723e-05	44.077	208.767	304.942	312.935	164.694	298.050	398.745	162.955	171.280	371.163	388.793	167.665	172.179	175.253	179.818	321.562	175.060	-8191	255	
1580.535	1	1	0	0	0.36539	0.12912	0.046871	0.099739	0.21712	0.071635	0.13985	0.084135	0.099237	0.24182	0.33156	0.26362	0.33665	0.092877	0.15466	0.21356	-1.7542	-2.6188	-2.6688	-2.3458	-2.7667	-2.2833	-2.4062	-2.7375	-2.0646	-2.5646	-2.5479	-2.1875	-2.7292	-2.1958	-2.3063	-2.8854	244.384	246.247	293.941	422.618	384.322	275.413	455.855	421.342	496.716	320.678	240.395	421.036	276.571	484.492	477.728	447.073	0.00028255	0.00040083	0.00011524	544.69	4.2283e-06	4.7701e-06	522.39	198.37	1.8733e-06	5.3947e-06	217.6	93.843	77.931	28.706	1.1666e-05	34.125	0.0023933	0.0025385	0.00071443	545.07	2.3641e-05	2.8505e-05	527.64	205.19	2.7275e-05	2.8555e-05	353.01	101.44	83.84	34.913	2.8436e-05	44.019	205.646	261.966	202.481	164.812	279.488	367.630	162.944	170.985	243.273	320.433	168.928	171.749	174.759	179.124	234.374	174.686	-8191	255	
1580.629	1	1	0	0	0.12187	0.19899	0.21334	0.086718	0.12382	0.064846	0.12077	0.15663	0.046734	0.035901	0.093094	0.21189	0.079422	0.1385	0.29702	0.076988	-1.6375	-2.575	-2.6792	-2.0583	-2.7083	-2.3688	-2.45	-2.5792	-2.2583	-2.6667	-2.6813	-2.2271	-2.7375	-2.4292	-2.0708	-2.8354	310.631	369.329	509.409	486.758	161.662	482.847	427.479	368.584	255.180	261.296	472.187	312.220	233.240	366.209	355.156	497.719	0.00062727	0.00045841	5.4416e-05	547.27	1.6251e-06	1.5661e-05	523.83	197.9	7.4903e-06	7.6089e-06	220.16	92.81	76.727	28.112	4.6935e-06	34.467	0.002461	0.0025812	0.00071222	547.42	2.3624e-05	2.8429e-05	529.48	204.67	2.7252e-05	2.8814e-05	352.08	101.33	83.4	34.662	2.8583e-05	43.85	226.870	277.600	503.696	164.640	372.234	365.119	162.737	171.117	312.789	355.501	166.947	172.142	175.411	179.126	208.125	176.067	-8191	255	
1580.727	1	1	0	0	0.10937	0.20947	0.038896	0.22025	0.16789	0.24826	0.46648	0.17944	0.09587	0.19088	0.37184	0.2338	0.26963	0.1459	0.03993	0.080301	-1.8167	-2.4396	-2.6333	-2.2542	-2.6896	-2.4958	-2.2771	-2.9437	-2.1479	-2.4833	-2.8625	-2.1375	-2.6542	-2.45	-2.1896	-2.8292	388.423	156.717	382.904	472.546	359.951	302.830	207.600	458.462	432.287	200.911	360.049	242.946	482.794	438.829	353.748	413.603	0.00037401	0.00029492	0.00013112	546.82	4.4845e-06	7.8313e-06	522.12	196.8	8.2272e-06	1.1475e-05	218.92	92.721	77.339	28.295	6.0893e-06	34.597	0.0024653	0.0026042	0.0007148	546.82	2.3856e-05	2.8299e-05	527.58	204.64	2.7206e-05	2.8794e-05	352.33	101.42	83.662	34.722	2.8702e-05	44.149	250.678	357.171	233.199	164.686	256.775	220.474	163.173	171.075	345.760	333.907	168.565	172.437	175.070	179.749	245.439	176.022	-8191	255	
1580.846	1	1	0	0	0.11692	0.063054	0.34347	0.11785	0.18208	0.033496	0.19025	0.075636	0.15589	0.051157	0.16692	0.27333	0.21077	0.082233	0.076532	0.08488	-1.7812	-2.3042	-2.6396	-1.9562	-2.6562	-2.5271	-2.2188	-2.825	-2.4729	-2.4062	-2.7	-2.0354	-2.7	-2.8271	-2.0208	-2.8375	496.199	295.977	376.484	241.192	388.397	294.334	202.079	412.985	472.230	170.957	245.177	327.298	174.720	435.150	395.561	283.023	0.0002168	0.00029607	0.00015072	542.82	1.0949e-06	2.5812e-06	518.76	197.49	9.6482e-06	5.8133e-06	226.08	93.804	77.198	28.499	4.1528e-06	34.64	0.0024674	0.0026015	0.00071471	543.5	2.3809e-05	2.8369e-05	524.85	204.55	2.7569e-05	2.8983e-05	351.83	101.95	83.732	34.806	2.8698e-05	44.101	217.675	362.357	194.504	164.844	276.641	160.277	163.186	171.191	352.427	341.535	168.181	171.850	175.302	180.014	250.915	174.778	-8191	255	
1580.942	1	1	0	0	0.19229	0.38033	0.17266	0.25417	0.23134	0.28471	0.081641	0.1266	0.18616	0.1392	0.1905	0.18259	0.091889	0.14773	0.19056	0.10894	-1.8375	-2.2313	-2.7229	-2.2417	-2.4833	-2.5417	-1.925	-2.8646	-2.3646	-2.2771	-2.8792	-2.3208	-2.4688	-2.5646	-2.1833	-2.8063	438.689	287.297	280.412	180.262	502.539	194.952	162.595	404.785	211.303	408.393	315.072	386.248	190.379	512.034	423.951	227.981	0.00036562	0.00033075	0.00014832	545	3.2985e-06	1.1679e-05	522.1	197.78	8.3074e-06	7.2578e-06	221.12	93.85	77.24	28.295	7.8026e-06	34.284	0.0024637	0.0025987	0.00071589	544.47	2.3965e-05	2.8279e-05	526.11	204.8	2.7418e-05	2.8964e-05	351.35	101.43	83.578	34.787	2.8645e-05	43.892	247.821	175.746	322.916	164.582	359.273	274.832	162.881	170.857	305.104	304.089	167.102	171.653	174.820	179.581	302.786	175.612	-8191	255	
1581.039	1	1	0	0	0.23123	0.19611	0.20987	0.20005	0.28659	0.16071	0.26422	0.22554	0.22039	0.065021	0.12085	0.040311	0.12389	0.20246	0.21793	0.14791	-2.075	-2.1604	-2.7521	-2.2417	-2.3833	-2.7271	-2.1125	-2.5896	-2.4708	-2.1958	-2.9292	-2.1958	-2.3521	-2.7104	-2.0417	-2.7521	412.067	182.947	317.924	489.475	274.024	153.245	434.935	389.552	341.848	233.225	451.245	489.598	373.368	395.928	494.666	366.726	0.00053457	0.0006685	7.2701e-05	545.5	3.0657e-06	6.6212e-06	523.78	197.04	7.8179e-06	2.9834e-06	211.93	92.414	76.96	28.035	9.6241e-06	34.305	0.0024551	0.0025866	0.00068787	544.53	2.1989e-05	2.5349e-05	526.16	202.72	2.2707e-05	2.3557e-05	318.5	98.912	81.761	32.953	2.1976e-05	41.243	218.725	312.904	182.554	164.645	316.848	470.215	162.864	171.014	332.610	333.902	167.180	172.027	175.349	179.517	246.882	175.484	-8191	255	
1581.135	1	1	0	0	0.15242	0.19125	0.17027	0.17051	0.18351	0.29537	0.014386	0.42631	0.10545	0.32965	0.13183	0.065091	0.25346	0.18034	0.20461	0.051454	-2.0875	-2.0354	-2.6979	-2.2708	-2.3417	-2.725	-2.0708	-2.6292	-2.625	-2.1958	-2.9083	-2.4188	-2.3167	-2.8417	-2.0438	-2.4854	453.057	299.578	308.040	388.567	428.334	474.366	483.861	400.812	223.710	337.607	205.905	388.557	191.768	452.535	262.532	372.916	0.00035162	0.00042567	0.00013175	546.57	2.47e-06	8.0052e-06	523.2	197.27	4.5496e-06	9.8725e-06	216.17	93.127	77.139	28.182	6.4465e-07	33.947	0.001884	0.0020265	0.00055865	546.28	1.9332e-05	2.3186e-05	527.85	203.09	2.3199e-05	2.498e-05	330.75	99.836	82.514	33.752	2.5576e-05	42.713	239.138	318.207	292.575	164.817	318.715	213.175	163.052	171.060	350.710	352.464	167.899	171.788	175.049	179.861	450.984	175.801	-8191	255	
1581.231	1	1	0	0	0.1788	0.18705	0.15829	0.093313	0.030197	0.11339	0.18555	0.092449	0.016689	0.23538	0.11275	0.073962	0.24455	0.24734	0.1356	0.062632	-2.3917	-2.1875	-2.7854	-2.4375	-2.2896	-2.8187	-2.3646	-2.6542	-2.8438	-2.2083	-2.775	-2.5625	-2.2146	-2.6813	-2.2896	-2.4396	315.823	221.052	363.477	461.453	336.521	450.914	323.668	451.190	284.687	213.038	422.775	423.109	247.293	164.506	352.304	339.666	0.00044997	0.00022543	0.00019417	544.31	3.2763e-06	1.6425e-05	520.48	196.32	1.075e-05	9.4226e-06	216.31	92.52	76.74	28.251	1.0226e-05	34.083	0.0022156	0.0023465	0.00064279	544.8	2.1595e-05	2.5643e-05	525.36	203.48	2.4384e-05	2.5841e-05	335.42	100.34	82.527	33.537	2.4155e-05	42.246	200.156	378.054	256.829	164.897	357.288	267.476	163.203	171.304	363.088	275.574	167.597	171.893	175.478	179.285	347.051	175.931	-8191	255	
1581.327	1	1	0	0	0.10742	0.23033	0.16146	0.29609	0.14132	0.042991	0.15565	0.14836	0.066055	0.25811	0.14459	0.16085	0.10588	0.13687	0.15894	0.38449	-2.3937	-2.1604	-2.7604	-2.5104	-2.0604	-2.8542	-2.3917	-2.4688	-2.675	-2.0687	-2.7167	-2.475	-2.0875	-2.9042	-2.3625	-2.3375	322.511	325.374	321.790	416.532	201.392	466.086	476.930	245.650	389.487	409.026	256.498	371.623	157.128	428.259	395.425	401.386	0.00030532	0.00097798	6.5345e-05	541.83	3.0158e-06	3.8573e-06	518.24	196.38	7.8885e-06	8.3935e-06	214.39	93.56	77.079	28.717	1.3537e-05	34.728	0.002038	0.0021298	0.00057046	542.21	1.845e-05	2.1412e-05	522.98	202.52	1.9626e-05	2.0535e-05	305.19	99.1	81.534	32.385	1.8443e-05	40.188	262.382	498.352	463.719	164.943	341.962	448.199	163.233	171.225	342.549	332.454	167.966	172.145	175.340	179.842	312.322	175.237	-8191	255	
1581.448	1	1	0	0	0.062823	0.044839	0.21031	0.088765	0.18301	0.18675	0.13468	0.27286	0.10505	0.36852	0.075919	0.1103	0.18137	0.054456	0.022286	0.050584	-2.4833	-2.1021	-2.6625	-2.5896	-2.2583	-2.8979	-2.3458	-2.3625	-2.8604	-2.3292	-2.6167	-2.65	-2.1875	-2.7208	-2.4208	-2.2438	479.826	192.501	345.758	396.399	430.174	360.079	214.244	456.690	254.500	290.769	482.818	225.625	481.818	157.879	385.834	337.672	0.00035457	0.00040483	8.6305e-05	542.72	2.1483e-06	1.1857e-05	517.48	196.25	8.2104e-06	1.1144e-05	214.83	92.469	76.582	28.363	1.2345e-06	34.047	0.0014941	0.001556	0.00041491	540.87	1.3458e-05	1.5442e-05	520.61	200.47	1.4209e-05	1.4964e-05	275.69	96.676	79.832	30.882	1.3647e-05	37.947	248.769	196.909	221.242	164.936	337.166	164.729	163.273	171.029	334.448	325.674	166.957	171.933	175.410	178.955	375.933	176.257	-8191	255	
1581.544	1	1	0	0	0.13254	0.14058	0.32214	0.19796	0.10964	0.14827	0.15673	0.15119	0.08776	0.33062	0.10462	0.15472	0.26314	0.083653	0.14333	0.17011	-2.4562	-2.3896	-2.5958	-2.6917	-2.1229	-2.6729	-2.5438	-2.2229	-2.925	-2.2917	-2.4479	-2.6104	-2.1	-2.4229	-2.4062	-2.2583	159.067	277.132	205.416	416.739	236.868	430.568	427.770	271.154	387.539	421.613	436.611	345.681	372.231	295.640	502.159	278.162	0.00032082	0.00078257	8.6187e-06	543.7	1.8556e-06	4.6432e-06	519.85	195.97	1.026e-05	1.6797e-05	212.4	92.221	76.2	28.118	5.9685e-06	33.984	0.0011262	0.0011785	0.0003155	542.43	1.0502e-05	1.1999e-05	521.52	199.14	1.1178e-05	1.1857e-05	258.42	95.381	79.021	30.174	1.0821e-05	36.897	196.478	344.189	160.481	164.937	340.816	295.646	163.334	171.253	337.980	295.855	168.554	172.094	175.117	179.850	296.150	175.206	-8191	255	
1581.638	1	1	0	0	0.10331	0.11422	0.26787	0.29506	0.19765	0.041984	0.14831	0.078128	0.14743	0.1724	0.1416	0.23077	0.16973	0.11492	0.077934	0.1537	-2.5458	-2.1979	-2.3125	-2.6833	-2.125	-2.7271	-2.3688	-2.1896	-2.8333	-2.5104	-2.1854	-2.6542	-2.0167	-2.775	-2.5417	-1.9625	313.248	341.924	504.406	364.741	226.273	409.907	415.893	358.526	298.032	177.786	322.689	468.636	481.555	369.573	157.569	402.941	0.0002964	0.0006437	8.0886e-05	546.48	2.655e-06	8.5044e-06	520.25	196.29	9.2638e-06	1.2204e-05	217.01	92.379	75.846	28.002	5.5711e-06	34.181	0.00092427	0.00097547	0.00025969	543.45	8.8957e-06	1.0173e-05	520.97	198.92	9.5857e-06	1.0102e-05	252.45	95.131	78.44	29.782	9.5358e-06	36.402	204.172	437.732	358.384	164.850	349.742	207.462	163.220	171.148	321.895	327.445	167.615	172.395	175.570	179.340	256.334	175.355	-8191	255	
1581.734	1	1	0	0	0.022298	0.11991	0.06006	0.14454	0.079224	0.19353	0.023616	0.14607	0.044458	0.19938	0.056106	0.13478	0.10814	0.12015	0.086306	0.2268	-2.4146	-2.2729	-2.2792	-3.0625	-2.0979	-2.6125	-2.7562	-1.9667	-2.6542	-2.4604	-2.0687	-2.6188	-2.1396	-2.45	-2.7562	-2.1979	440.779	446.048	398.312	465.315	447.012	299.301	226.999	243.786	465.577	231.898	204.260	247.013	356.135	329.835	498.058	509.602	0.000387	0.00059596	0.00013493	543.52	2.3799e-06	5.039e-06	516.87	194.9	9.1366e-06	7.9033e-06	217.29	92.339	76.583	28.208	4.0317e-06	34.207	0.00082752	0.00086457	0.00023377	540.49	8.0004e-06	9.2374e-06	518.4	198.55	8.8873e-06	9.3726e-06	248.93	95.27	78.736	29.773	8.9831e-06	36.463	235.526	384.982	189.668	164.956	319.414	250.031	163.253	171.282	307.073	320.796	167.791	172.509	175.725	179.172	308.876	175.825	-8191	255	
1581.830	1	1	0	0	0.065702	0.46963	0.081554	0.016641	0.18003	0.072649	0.1277	0.033932	0.45424	0.096684	0.089064	0.091602	0.25494	0.17937	0.15436	0.27283	-2.3417	-2.3583	-2.1667	-2.75	-2.3604	-2.4062	-2.7625	-2.1417	-2.6292	-2.7771	-2.0792	-2.6292	-2.1792	-2.2625	-2.7479	-2.2333	379.940	346.954	276.254	497.524	462.832	365.879	167.090	335.712	458.096	489.492	160.859	268.289	268.747	291.332	357.872	282.227	0.00023168	0.00024502	0.00020267	541.25	3.6199e-06	1.6194e-05	514.61	195.73	2.3928e-06	8.9518e-06	218.4	92.292	76.605	28.095	7.8273e-06	34.174	0.00079073	0.00082811	0.00022457	539.03	7.7869e-06	8.8439e-06	517.02	198.79	8.7058e-06	9.1068e-06	247.82	95.325	78.742	29.791	8.7634e-06	36.383	218.543	506.831	218.727	164.961	317.938	314.125	163.316	171.256	315.007	325.927	168.344	172.277	175.074	179.506	294.332	175.991	-8191	255	
#DATA ENDS
