BOXY.EXE: ISS Imagent and Oximeter Data Acquisition Program Version 0.80
Ascii Record File

#ACQ INFORMATION
2  Detector Channels 
16  External MUX Channels 
1  Auxiliary Channels 
5000  Waveform (CCF) Frequency (Hz)
1  Waveforms Skipped 
30  Waveforms Averaged 
1  Cycles Averaged 
16  Acquisitions per Waveform 
10.0806  Updata Rate (Hz) 

#FILE INFORMATION
TRUE -- External MUX Channel results are PARSED.
FALSE -- AC DC and Phase are NOT grouped.
TRUE -- Companion Program Settings File CREATED.
FALSE -- AC data not excluded
FALSE -- DC data not excluded
FALSE -- Phase data not excluded
FALSE -- Auxillary Chn. data not excluded
Tab delimiters

#CALIBRATION STATE
TRUE -- Waveform Calibration Values APPLIED.


#AUX CALIBRATION VALUES
Val Type	aux-1	

Term	1.0000e+00	
Factor	0.0000e+00	


#WF CALIBRATION VALUES
A = Detector Channel
Val Type	A-AC1	A-AC2	A-AC3	A-AC4	A-AC5	A-AC6	A-AC7	A-AC8	A-AC9	A-AC10	A-AC11	A-AC12	A-AC13	A-AC14	A-AC15	A-AC16	A-DC1	A-DC2	A-DC3	A-DC4	A-DC5	A-DC6	A-DC7	A-DC8	A-DC9	A-DC10	A-DC11	A-DC12	A-DC13	A-DC14	A-DC15	A-DC16	A-Ph1	A-Ph2	A-Ph3	A-Ph4	A-Ph5	A-Ph6	A-Ph7	A-Ph8	A-Ph9	A-Ph10	A-Ph11	A-Ph12	A-Ph13	A-Ph14	A-Ph15	A-Ph16	

Term	0.00000e+00	0.00000e+00	0.00000e+00	0.00000e+00	0.00000e+00	0.00000e+00	0.00000e+00	0.00000e+00	0.00000e+00	0.00000e+00	0.00000e+00	0.00000e+00	0.00000e+00	0.00000e+00	0.00000e+00	0.00000e+00	0.00000e+00	0.00000e+00	0.00000e+00	0.00000e+00	0.00000e+00	0.00000e+00	0.00000e+00	0.00000e+00	0.00000e+00	0.00000e+00	0.00000e+00	0.00000e+00	0.00000e+00	0.00000e+00	0.00000e+00	0.00000e+00	0.00000e+00	0.00000e+00	0.00000e+00	0.00000e+00	0.00000e+00	0.00000e+00	0.00000e+00	0.00000e+00	0.00000e+00	0.00000e+00	0.00000e+00	0.00000e+00	0.00000e+00	0.00000e+00	0.00000e+00	0.00000e+00	
Factor	1.00000e+00	1.00000e+00	1.00000e+00	1.00000e+00	1.00000e+00	1.00000e+00	1.00000e+00	1.00000e+00	1.00000e+00	1.00000e+00	1.00000e+00	1.00000e+00	1.00000e+00	1.00000e+00	1.00000e+00	1.00000e+00	1.00000e+00	1.00000e+00	1.00000e+00	1.00000e+00	1.00000e+00	1.00000e+00	1.00000e+00	1.00000e+00	1.00000e+00	1.00000e+00	1.00000e+00	1.00000e+00	1.00000e+00	1.00000e+00	1.00000e+00	1.00000e+00	X	X	X	X	X	X	X	X	X	X	X	X	X	X	X	X	

B = Detector Channel
Val Type	B-AC1	B-AC2	B-AC3	B-AC4	B-AC5	B-AC6	B-AC7	B-AC8	B-AC9	B-AC10	B-AC11	B-AC12	B-AC13	B-AC14	B-AC15	B-AC16	B-DC1	B-DC2	B-DC3	B-DC4	B-DC5	B-DC6	B-DC7	B-DC8	B-DC9	B-DC10	B-DC11	B-DC12	B-DC13	B-DC14	B-DC15	B-DC16	B-Ph1	B-Ph2	B-Ph3	B-Ph4	B-Ph5	B-Ph6	B-Ph7	B-Ph8	B-Ph9	B-Ph10	B-Ph11	B-Ph12	B-Ph13	B-Ph14	B-Ph15	B-Ph16	

Term	0.00000e+00	0.00000e+00	0.00000e+00	0.00000e+00	0.00000e+00	0.00000e+00	0.00000e+00	0.00000e+00	0.00000e+00	0.00000e+00	0.00000e+00	0.00000e+00	0.00000e+00	0.00000e+00	0.00000e+00	0.00000e+00	0.00000e+00	0.00000e+00	0.00000e+00	0.00000e+00	0.00000e+00	0.00000e+00	0.00000e+00	0.00000e+00	0.00000e+00	0.00000e+00	0.00000e+00	0.00000e+00	0.00000e+00	0.00000e+00	0.00000e+00	0.00000e+00	-8.63402e+01	-1.28301e+02	-1.03800e+02	-1.75865e+02	-1.14073e+01	-9.31957e+01	-1.64450e+02	-1.61923e+02	-3.25388e+01	-6.50733e+01	-1.79394e+02	-1.69306e+02	-1.75795e+02	-1.70708e+02	-7.57699e+01	-1.59905e+02	
Factor	3.75157e-04	1.23413e-03	3.18699e-04	1.70450e-01	4.10421e-06	1.94945e-05	2.78808e-01	2.32519e-01	9.50602e-06	1.69483e-05	5.42727e+00	2.80746e-01	2.09241e-01	2.33913e-01	1.51734e-05	3.71430e-01	3.15923e-05	3.36516e-05	9.32732e-06	6.64208e-02	3.05018e-07	3.68882e-07	1.02746e-01	9.20121e-02	3.49895e-07	3.70854e-07	1.93302e+00	1.06642e-01	8.34840e-02	9.01328e-02	3.70025e-07	1.37825e-01	X	X	X	X	X	X	X	X	X	X	X	X	X	X	X	X	



#DISTANCE SETTINGS
A = Detector Channel
A-1	A-2	A-3	A-4	A-5	A-6	A-7	A-8	A-9	A-10	A-11	A-12	A-13	A-14	A-15	A-16	

1.0000e+01	1.0000e+01	1.0000e+01	1.4500e+00	1.0000e+01	1.0000e+01	1.5100e+00	1.9500e+00	1.0000e+01	1.0000e+01	2.0100e+00	2.5000e+00	2.4400e+00	2.9500e+00	1.0000e+01	3.0100e+00	

B = Detector Channel
B-1	B-2	B-3	B-4	B-5	B-6	B-7	B-8	B-9	B-10	B-11	B-12	B-13	B-14	B-15	B-16	

1.0000e+01	1.0000e+01	1.0000e+01	1.4500e+00	1.0000e+01	1.0000e+01	1.5100e+00	1.9500e+00	1.0000e+01	1.0000e+01	2.0100e+00	2.5000e+00	2.4400e+00	2.9500e+00	1.0000e+01	3.0100e+00	




#DATA BEGINS
time	group	step	mark	flag	A-AC1	A-AC2	A-AC3	A-AC4	A-AC5	A-AC6	A-AC7	A-AC8	A-AC9	A-AC10	A-AC11	A-AC12	A-AC13	A-AC14	A-AC15	A-AC16	A-DC1	A-DC2	A-DC3	A-DC4	A-DC5	A-DC6	A-DC7	A-DC8	A-DC9	A-DC10	A-DC11	A-DC12	A-DC13	A-DC14	A-DC15	A-DC16	A-Ph1	A-Ph2	A-Ph3	A-Ph4	A-Ph5	A-Ph6	A-Ph7	A-Ph8	A-Ph9	A-Ph10	A-Ph11	A-Ph12	A-Ph13	A-Ph14	A-Ph15	A-Ph16	B-AC1	B-AC2	B-AC3	B-AC4	B-AC5	B-AC6	B-AC7	B-AC8	B-AC9	B-AC10	B-AC11	B-AC12	B-AC13	B-AC14	B-AC15	B-AC16	B-DC1	B-DC2	B-DC3	B-DC4	B-DC5	B-DC6	B-DC7	B-DC8	B-DC9	B-DC10	B-DC11	B-DC12	B-DC13	B-DC14	B-DC15	B-DC16	B-Ph1	B-Ph2	B-Ph3	B-Ph4	B-Ph5	B-Ph6	B-Ph7	B-Ph8	B-Ph9	B-Ph10	B-Ph11	B-Ph12	B-Ph13	B-Ph14	B-Ph15	B-Ph16	aux-1	digaux	

1547.807	1	1	0	256	0.084873	0.13433	0.17192	0.37683	0.1253	0.10741	0.1209	0.13137	0.25685	0.10077	0.11802	0.21497	0.22893	0.27701	0.22683	0.14709	-2.4375	-2.0083	-2.4229	-2.9479	-2.0042	-2.8458	-2.6354	-2.0083	-2.9229	-2.3417	-2.3917	-2.7125	-1.8458	-2.8125	-2.4188	-2.2375	211.105	117.419	-24.093	183.082	-15.044	-8.265	131.319	181.519	20.150	-79.734	22.826	-9.553	5.148	66.131	21.466	152.151	0.00015096	0.00085112	0.00012217	857.74	4.492e-06	4.4182e-06	994.18	264.78	4.3135e-06	8.1971e-06	322.85	107.77	85.827	24.829	1.5386e-05	34.849	0.0022215	0.0023565	0.00065546	855.11	2.1896e-05	2.5836e-05	1000.9	272.13	2.4533e-05	2.6082e-05	437.63	115.26	92.101	30.695	2.5951e-05	43.411	183.577	-115.129	-86.851	-129.768	-32.143	-20.353	-131.294	-124.632	-36.403	-33.299	-126.164	-122.431	-119.757	-114.473	-15.830	-118.167	-8191	255	
1547.903	1	1	0	0	0.24052	0.31455	0.055502	0.35254	0.13147	0.15668	0.26353	0.15726	0.2977	0.19346	0.10252	0.13349	0.077722	0.1544	0.22751	0.18837	-2.4104	-2.3479	-2.325	-2.7667	-2.2729	-2.7875	-2.6083	-2.1146	-2.9729	-2.2604	-2.3667	-2.8667	-1.9312	-2.675	-2.6312	-2.1458	-63.029	192.283	17.789	196.040	-44.698	109.839	90.538	124.190	-132.569	178.429	8.531	109.063	-94.578	137.229	22.472	-36.355	9.8026e-05	0.00042229	0.00022534	862.12	2.8102e-06	1.2122e-05	1000.3	267.26	8.6517e-06	4.187e-06	330.1	108.8	86.748	24.755	4.9728e-06	34.759	0.0022456	0.0023698	0.00066098	859.58	2.1944e-05	2.5929e-05	1006	273.88	2.4649e-05	2.6269e-05	439.17	115.59	92.741	30.688	2.5935e-05	43.234	-49.212	-79.442	-75.395	-129.776	-29.291	2.933	-131.407	-124.452	-28.142	-33.306	-127.333	-122.461	-120.135	-114.633	25.421	-119.458	-8191	255	
1548.000	1	1	0	0	0.12844	0.03299	0.095421	0.070393	0.45745	0.12289	0.19889	0.15804	0.14924	0.15439	0.052394	0.083835	0.17869	0.15437	0.16873	0.093146	-2.3438	-2.3854	-2.2625	-2.9271	-2.3354	-2.7021	-2.9167	-2.1146	-2.9396	-2.4604	-2.2396	-2.8021	-2.0271	-2.5354	-2.7875	-1.9729	-84.951	17.658	-79.192	189.650	62.582	174.919	-25.153	207.061	-118.900	166.094	131.311	152.928	132.990	-114.726	56.005	-89.362	0.00014755	0.00060199	0.00017103	866.47	2.5527e-06	7.6157e-06	1003.1	267	2.1785e-06	3.3851e-06	330.08	108.2	86.454	25.249	4.0293e-06	34.52	0.0022535	0.002386	0.0006569	864.14	2.2129e-05	2.5862e-05	1010.7	274.45	2.4866e-05	2.6134e-05	439.56	115.43	92.594	30.625	2.5902e-05	43.17	212.693	-109.942	-47.740	-129.858	-15.660	-23.973	-131.351	-124.443	10.647	85.260	-126.233	-122.613	-119.988	-114.278	-122.709	-117.989	-8191	255	
1548.118	1	1	0	0	0.15249	0.060229	0.14662	0.18846	0.046295	0.035294	0.2021	0.21882	0.019498	0.17396	0.18212	0.29763	0.26295	0.24836	0.059083	0.37643	-2.2917	-2.5	-2.3396	-3.1021	-2.2458	-2.4229	-2.7583	-2.2062	-2.7562	-2.3583	-2.2687	-2.8	-2.0958	-2.3333	-2.7229	-2.1417	131.526	-71.968	110.354	-129.261	31.771	-74.663	10.967	-75.156	49.992	42.067	206.236	51.463	26.515	100.838	150.026	77.639	0.00018429	0.0003951	0.00023112	865.27	3.917e-06	4.412e-06	1003.7	266.45	1.5535e-06	6.1974e-06	329.89	108.35	86.884	24.974	7.6974e-06	34.962	0.0022165	0.002363	0.00065872	862.39	2.2053e-05	2.5871e-05	1011.5	274.43	2.4762e-05	2.5896e-05	441.32	116.05	92.797	30.744	2.5725e-05	43.533	-107.100	8.250	-29.006	-129.785	-38.605	-31.858	-131.255	-124.323	60.982	90.826	-127.342	-122.536	-119.662	-115.177	-21.543	-118.439	-8191	255	
1548.215	1	1	0	0	0.31552	0.19549	0.1731	0.17059	0.1448	0.15677	0.23907	0.13237	0.17609	0.21467	0.26203	0.040984	0.15364	0.23761	0.10333	0.21019	-2.2708	-2.4271	-2.1458	-3.0375	-2.4375	-2.4062	-2.9771	-2.2	-2.4125	-2.4625	-2.0312	-2.7583	-2.3312	-2.2854	-2.6958	-2.3042	177.866	-112.353	51.787	213.470	-40.042	-80.804	175.515	95.303	83.235	216.042	24.731	197.628	211.082	-96.808	109.127	-135.479	9.6772e-05	0.00067918	9.6925e-05	868.22	2.1572e-06	1.0514e-06	1013.5	268.69	3.8385e-06	9.3994e-06	337.97	110.1	87.566	25.415	9.8997e-06	36.067	0.0022357	0.0023616	0.00065779	866.1	2.2154e-05	2.5804e-05	1019.3	276.52	2.4609e-05	2.6092e-05	443.54	117.6	94.147	31.213	2.5641e-05	44.16	197.723	-33.360	63.726	-129.756	-74.730	133.897	-131.312	-124.583	-58.226	1.873	-126.524	-122.700	-119.548	-114.806	-38.479	-118.376	-8191	255	
1548.286	1	1	0	0	0.094594	0.20633	0.34959	0.13621	0.10606	0.30478	0.060708	0.32095	0.2261	0.13594	0.14139	0.12562	0.073252	0.12007	0.2071	0.25168	-2.2104	-2.6729	-2.0083	-2.8042	-2.4771	-2.2313	-2.7146	-2.1771	-2.4854	-2.6	-1.9312	-2.7354	-2.6	-2.3146	-2.85	-2.1375	-101.026	151.469	128.541	190.033	-100.868	100.793	39.524	89.815	-68.402	14.379	-107.783	-70.611	193.681	-116.023	99.020	14.975	0.00022895	0.00037019	0.00016257	874.42	3.0671e-06	6.2285e-06	1017.8	271.55	3.9468e-06	1.0207e-05	333.23	110.99	89.216	25.917	1.0593e-05	36.16	0.0022485	0.0023477	0.00065252	874.05	2.1984e-05	2.5783e-05	1027.1	279.44	2.4564e-05	2.5771e-05	446.71	118.88	95.658	31.661	2.5531e-05	44.726	-94.511	-39.816	-57.126	-129.655	30.112	-38.025	-131.257	-124.490	50.582	-11.457	-126.730	-122.543	-119.800	-115.215	-27.106	-117.868	-8191	255	
1548.384	1	1	0	0	0.20983	0.097165	0.17739	0.39736	0.14154	0.15802	0.28954	0.20595	0.1849	0.24449	0.15703	0.076939	0.1004	0.049311	0.18359	0.22031	-2.0208	-2.7396	-2.15	-2.9437	-2.6021	-2.2542	-2.8625	-2.2729	-2.3854	-2.8292	-1.9854	-2.7271	-2.4917	-2.1771	-2.8125	-2.3333	206.688	23.258	188.458	211.275	168.613	59.174	-119.062	-0.543	58.421	189.564	38.757	193.435	-60.432	13.102	8.414	-130.391	0.00015484	0.00070393	3.7608e-05	885.21	3.3928e-06	7.4565e-06	1030.4	276.06	6.7043e-06	4.3154e-06	344	113.05	90.315	26.082	7.2356e-06	35.995	0.0022358	0.0023548	0.00065322	882.65	2.1909e-05	2.5726e-05	1037.4	283.56	2.4529e-05	2.5572e-05	449.56	120.32	96.381	31.841	2.5529e-05	44.72	-46.357	215.944	22.523	-129.776	-38.287	-36.576	-131.268	-124.461	35.906	6.241	-126.828	-122.390	-120.008	-114.990	-89.339	-117.831	-8191	255	
1548.503	1	1	0	0	0.20996	0.21029	0.25959	0.21245	0.066225	0.43302	0.20296	0.09642	0.13809	0.21318	0.11601	0.012291	0.056931	0.10528	0.18355	0.084507	-1.975	-2.7083	-2.1792	-2.6437	-2.6771	-2.1229	-2.9396	-2.2854	-2.1813	-2.7417	-2.1104	-2.4688	-2.7229	-2.2292	-2.8083	-2.3937	19.480	-124.191	58.651	-102.389	-61.023	53.710	-137.963	-88.100	216.898	84.451	97.016	184.340	-31.315	-13.146	142.049	54.727	5.3356e-05	0.00025506	0.00016283	888.5	1.4203e-06	9.9199e-06	1031.3	275.52	2.0407e-06	4.6743e-06	335.37	111.97	89.943	25.809	6.8049e-06	35.852	0.0022336	0.002326	0.00065221	885.36	2.1612e-05	2.5589e-05	1038.7	283.05	2.4574e-05	2.5334e-05	447.3	119.7	96.014	31.452	2.5274e-05	44.334	-91.625	-57.411	-3.743	-129.811	-25.167	102.183	-131.211	-124.459	-101.907	95.164	-126.307	-122.749	-119.632	-114.574	54.261	-117.968	-8191	255	
1548.599	1	1	0	0	0.17794	0.14132	0.14437	0.14534	0.35711	0.16007	0.11939	0.059995	0.10137	0.17642	0.3062	0.17562	0.24552	0.10376	0.01992	0.2052	-1.8354	-2.85	-2.0396	-2.5792	-2.6646	-2.0187	-2.8083	-2.575	-2.25	-2.95	-2.3063	-2.4208	-2.7604	-2.1312	-2.7479	-2.5021	-137.207	-125.479	-71.230	-53.322	-59.930	-46.146	61.062	-23.161	-52.109	81.547	22.959	-97.608	114.604	-92.394	-43.607	111.714	0.0001833	0.00079693	0.000198	882.9	1.9194e-06	3.2167e-06	1028.7	275.09	1.3129e-05	7.6034e-06	343.87	112.68	90.248	26.07	1.3881e-05	36.383	0.0022155	0.0023075	0.00064852	881.41	2.1537e-05	2.5532e-05	1035.5	282.29	2.4516e-05	2.5386e-05	448.19	119.85	95.997	31.644	2.5439e-05	44.5	-121.572	-75.426	-56.164	-129.823	-58.217	91.955	-131.433	-124.356	-40.802	-68.724	-126.449	-122.715	-119.840	-114.592	82.283	-118.927	-8191	255	
1548.695	1	1	0	0	0.25297	0.18703	0.088136	0.32665	0.079577	0.37385	0.17579	0.19607	0.064825	0.24313	0.13106	0.26727	0.18994	0.15533	0.15503	0.1366	-1.9021	-2.95	-2.3021	-2.3146	-2.7604	-2.2625	-2.7771	-2.6854	-2.0271	-2.9646	-2.4333	-2.3208	-2.7854	-2.0312	-2.5583	-2.5854	34.520	-97.743	173.939	-112.640	-18.286	-96.863	-74.692	169.185	-69.570	41.159	213.005	122.967	45.943	145.844	149.446	-25.773	0.00042864	0.00081682	0.00014825	886.34	3.9877e-06	8.4308e-06	1030.5	275.19	8.4803e-06	1.5368e-05	336.57	112.88	90.443	26.07	1.2327e-05	36.636	0.0022042	0.0023007	0.00064854	883.41	2.1475e-05	2.5548e-05	1035.9	282.96	2.4466e-05	2.5435e-05	449.35	120.07	96.462	32.005	2.5613e-05	45.089	-109.718	-53.490	135.825	-129.940	-112.710	-68.167	-131.329	-124.389	-22.061	-16.969	-126.615	-122.543	-119.558	-114.444	-51.244	-118.654	-8191	255	
1548.791	1	1	0	0	0.16433	0.12633	0.12538	0.20884	0.15266	0.095341	0.051825	0.20942	0.053625	0.27644	0.2647	0.057718	0.21601	0.20067	0.1263	0.075208	-1.7208	-2.8917	-2.3729	-2.2812	-2.8792	-2.0521	-2.725	-2.7542	-2.2562	-2.8208	-2.3542	-2.2062	-2.8729	-2.2188	-2.3688	-2.65	182.428	33.073	61.680	99.783	101.365	-50.113	33.072	203.348	-110.179	53.528	115.747	-118.906	145.331	161.981	-125.076	-66.940	0.00013173	0.0004768	0.00011594	887.77	1.6511e-06	1.2366e-05	1029.7	276.28	6.5289e-06	3.8467e-06	341.87	112.93	90.972	26.331	3.928e-06	36.586	0.0022132	0.0023228	0.00064949	884.92	2.1364e-05	2.5401e-05	1036.2	283.93	2.4123e-05	2.5152e-05	446.03	119.81	96.589	31.866	2.4467e-05	44.407	133.827	-137.631	35.459	-129.859	-52.631	-33.343	-131.366	-124.329	34.428	213.378	-127.093	-122.509	-119.652	-114.585	-38.232	-118.743	-8191	255	
1548.912	1	1	0	0	0.17041	0.22123	0.11255	0.096657	0.22753	0.31053	0.14456	0.063763	0.20098	0.19529	0.12441	0.16297	0.14332	0.035686	0.14857	0.12566	-1.6146	-2.7146	-2.1188	-2.4542	-2.8229	-2.2875	-2.4875	-2.7167	-2.0687	-2.6479	-2.5625	-2.1021	-2.7979	-2.1542	-2.2687	-2.7104	196.962	214.263	-128.758	148.671	198.787	85.920	83.762	-109.046	62.797	98.094	-35.927	-131.344	-140.795	168.365	188.036	19.387	0.00028918	0.00016178	0.00021931	885.02	3.3851e-06	6.2162e-06	1026.2	278.15	6.0848e-06	6.4933e-06	338.76	111.97	90.472	26.089	7.7122e-06	36.604	0.0020721	0.0021363	0.00058708	885.31	1.9346e-05	2.2694e-05	1032.8	283.76	2.1567e-05	2.2377e-05	428.87	118.43	95.709	30.964	2.1648e-05	43.039	-70.386	25.136	-2.043	-129.653	-49.776	-10.310	-131.275	-124.350	-22.008	175.244	-126.889	-122.723	-119.647	-114.630	17.764	-118.484	-8191	255	
1548.984	1	1	0	0	0.084046	0.15368	0.11224	0.084367	0.25074	0.21839	0.21553	0.17532	0.091288	0.21247	0.047064	0.19711	0.13287	0.15417	0.10384	0.18293	-1.6125	-2.5312	-2.5146	-2.2854	-2.7729	-2.3917	-2.3625	-2.6208	-2.1583	-2.6125	-2.6167	-2.0104	-2.7625	-2.3625	-2.2354	-2.8208	14.418	10.670	86.096	37.833	77.730	-133.969	15.624	-30.965	200.062	-140.042	-36.802	61.692	-27.637	99.741	-135.211	-64.458	0.00041461	0.0007612	0.00021764	883.75	2.1353e-06	5.7282e-06	1022.6	274.47	5.6173e-06	7.7785e-06	329.32	111.64	90.076	25.942	4.1218e-06	36.497	0.0018303	0.0019097	0.00052468	881.42	1.7657e-05	2.0761e-05	1027.9	281.22	2.0746e-05	2.2066e-05	425.98	118.04	95.167	31.109	2.3466e-05	43.839	-114.785	-26.138	-16.542	-129.774	-54.379	52.428	-131.281	-124.333	46.637	-3.973	-127.294	-122.416	-120.109	-114.760	-44.493	-118.548	-8191	255	
1549.104	1	1	0	0	0.10826	0.081871	0.18621	0.063321	0.27467	0.17297	0.29396	0.097631	0.2084	0.070232	0.19136	0.049192	0.29325	0.13584	0.092372	0.058971	-1.8813	-2.4479	-2.6396	-2.3354	-2.8187	-2.5229	-2.3729	-2.925	-2.2375	-2.4292	-2.7958	-1.9708	-2.6771	-2.3875	-2.3458	-2.8833	34.655	140.660	-14.057	210.502	-110.764	-85.909	-88.919	72.501	-6.066	-5.880	164.052	-109.167	183.466	156.845	11.455	91.258	0.00020621	0.00056047	4.9384e-05	880.26	5.6374e-07	1.4339e-05	1016.4	274.48	2.6809e-06	1.1589e-05	334.93	111.31	89.866	26.198	1.7101e-06	36.445	0.0020756	0.0022132	0.00061856	878.04	2.1288e-05	2.5265e-05	1025.3	282.09	2.5156e-05	2.6745e-05	449.7	119.31	96.45	32.252	2.7581e-05	45.419	-126.137	102.276	144.885	-129.800	106.713	-3.545	-131.214	-124.350	-50.165	-34.500	-126.593	-122.447	-119.811	-114.913	-94.777	-119.087	-8191	255	
1549.199	1	1	0	0	0.22601	0.1029	0.15318	0.17673	0.18124	0.18184	0.34626	0.1096	0.042188	0.0077569	0.26793	0.26982	0.22292	0.33566	0.17227	0.24293	-2.0938	-2.4229	-2.8438	-2.0854	-2.6583	-2.4542	-2.3354	-2.8063	-2.3729	-2.3021	-2.7208	-2.0958	-2.5938	-2.5104	-2.1604	-2.8854	-85.110	-57.352	-44.575	190.636	183.270	179.124	140.010	9.020	111.508	-71.372	114.213	-37.033	-103.412	43.486	-16.434	-104.508	0.0002746	0.00049132	0.00012821	879.28	3.1235e-06	1.0533e-05	1014	274.06	4.1579e-06	9.2727e-06	334.99	112.35	90.21	26.244	5.0986e-06	36.349	0.0024219	0.002567	0.00071331	880.39	2.4293e-05	2.8877e-05	1027.6	283.76	2.8008e-05	2.9454e-05	465.14	120.79	97.438	33.002	2.9476e-05	46.235	-129.149	148.371	-98.779	-129.700	-85.278	-47.091	-131.119	-124.328	-50.798	122.059	-126.577	-122.515	-119.694	-114.305	69.716	-118.217	-8191	255	
1549.295	1	1	0	0	0.026514	0.19928	0.12541	0.16293	0.15574	0.13961	0.17294	0.2174	0.16244	0.1864	0.090749	0.10977	0.075944	0.030968	0.061489	0.1353	-2.0521	-2.3083	-2.7188	-2.1792	-2.4292	-2.6042	-2.2854	-2.8458	-2.4938	-2.2333	-2.825	-2.2083	-2.525	-2.7917	-2.0979	-2.6937	171.010	-3.486	204.988	-119.616	59.111	-119.151	202.137	-30.616	149.479	-80.679	164.185	48.867	-140.583	190.469	136.901	-69.842	0.00041872	0.00059453	1.4758e-05	881.84	4.0895e-06	4.195e-06	1020.1	275.93	3.1115e-06	9.1772e-06	334.02	111.93	91.116	26.209	1.0655e-05	36.229	0.0025667	0.0026916	0.00074273	882.32	2.4927e-05	2.9331e-05	1028	284.67	2.8266e-05	2.9706e-05	465.83	120.67	97.625	32.898	2.9484e-05	46.172	-68.173	-6.560	-141.870	-129.657	-38.319	-37.621	-131.175	-124.227	-69.492	-112.994	-127.080	-122.630	-119.965	-114.967	13.979	-118.414	-8191	255	
1549.391	1	1	0	0	0.40556	0.1251	0.17602	0.031605	0.067896	0.18102	0.061843	0.097381	0.026402	0.098648	0.12146	0.22644	0.23606	0.16488	0.10067	0.20935	-1.9729	-2.0792	-2.7938	-2.4125	-2.3958	-2.85	-2.2938	-2.6229	-2.4375	-2.2083	-2.7229	-2.2375	-2.3646	-2.6208	-2.0979	-2.7562	-12.917	103.368	170.043	0.682	-108.245	-100.140	-61.606	-132.867	-133.059	160.449	-1.552	137.141	-123.790	129.951	-132.311	-139.862	0.00032957	0.00073593	0.00011471	885.31	5.212e-06	8.1194e-06	1020.5	275.1	8.8421e-06	6.6547e-06	336.68	111.08	89.847	25.731	5.2306e-06	35.921	0.0025394	0.0026896	0.00074212	885.35	2.5064e-05	2.908e-05	1030.7	284.51	2.7884e-05	2.9291e-05	465.23	120.02	97.044	32.492	2.9417e-05	45.857	192.215	74.868	-53.660	-129.616	-60.491	-1.447	-131.162	-124.092	21.007	63.096	-127.026	-122.431	-119.797	-114.709	-55.940	-118.409	-8191	255	
1549.512	1	1	0	0	0.1139	0.21186	0.35003	0.14496	0.1533	0.014565	0.27912	0.10188	0.078585	0.048056	0.068645	0.19675	0.16079	0.16875	0.045968	0.17735	-2.1292	-2.1604	-3.0042	-2.4479	-2.3021	-2.825	-2.1167	-2.4875	-2.4083	-2.0292	-2.7771	-2.3958	-2.0958	-2.6958	-2.0563	-2.4292	116.250	1.199	-127.583	41.293	-1.194	54.756	194.370	-22.076	134.625	103.369	68.235	55.463	198.479	155.780	140.069	164.143	0.00018977	0.00082461	4.2938e-05	877.85	2.1571e-06	7.3947e-06	1017.4	273.26	6.6623e-06	1.1166e-05	334.14	111.15	89.32	25.68	1.0743e-05	36.145	0.0025167	0.0026517	0.00073301	879.75	2.4584e-05	2.867e-05	1027.6	282.55	2.7604e-05	2.8937e-05	462.54	119.55	96.099	32.137	2.8693e-05	45.708	-127.299	-88.735	-68.987	-129.572	-41.861	-6.023	-131.133	-124.557	101.485	146.771	-127.143	-122.689	-119.940	-114.783	-63.069	-118.688	-8191	255	
1549.583	1	1	0	0	0.071479	0.068429	0.047865	0.12784	0.17969	0.051696	0.13214	0.083908	0.068289	0.1874	0.25342	0.20663	0.096564	0.14292	0.22001	0.3381	-2.0917	-2.1646	-2.8729	-2.5646	-2.4146	-2.7417	-2.0979	-2.5729	-2.6167	-2.0625	-2.6312	-2.375	-2.275	-2.8396	-2.1667	-2.4188	152.053	-142.014	183.138	-117.752	40.020	86.231	-124.983	104.392	189.792	130.470	-52.351	-54.837	-26.016	6.983	67.465	156.456	0.00029756	0.00080821	0.00020728	879.29	2.6274e-06	6.6798e-06	1025.2	274.89	7.9319e-06	8.8559e-06	334.94	112.47	89.585	26.148	2.5658e-06	36.354	0.0024696	0.0026039	0.00072131	878.93	2.4269e-05	2.83e-05	1029.7	282.97	2.6975e-05	2.8466e-05	460.45	119.86	96.391	32.27	2.8374e-05	45.69	-98.479	-87.818	-31.741	-129.792	-23.696	185.044	-131.514	-124.673	-82.311	-10.797	-127.515	-122.837	-119.814	-115.073	-75.778	-118.309	-8191	255	
1549.680	1	1	0	0	0.12547	0.25598	0.039907	0.25032	0.018238	0.19163	0.058476	0.094467	0.16522	0.19965	0.17775	0.11779	0.16669	0.19532	0.19134	0.11334	-2.3354	-1.9375	-2.7604	-2.5896	-2.0646	-2.9958	-2.3271	-2.3063	-2.7271	-2.2354	-2.575	-2.5292	-2.1208	-2.9146	-2.1667	-2.2792	191.281	-63.941	169.036	-133.913	39.401	146.720	109.432	24.450	-82.349	121.817	-130.639	-35.233	-86.819	-60.609	-64.848	-113.125	0.00028851	0.00056093	0.00014914	883.67	3.1223e-06	4.1983e-06	1027.8	276.38	3.5755e-06	8.8115e-06	333.92	112.22	89.869	25.672	9.2917e-06	35.758	0.0024493	0.0025823	0.00071391	879.97	2.4039e-05	2.7943e-05	1030.2	283.05	2.6835e-05	2.8396e-05	460.52	120.1	96.317	32.117	2.8423e-05	45.41	-72.190	97.600	-14.959	-129.991	-80.391	-126.995	-131.531	-124.931	46.956	-45.603	-127.206	-123.190	-120.336	-114.652	-81.775	-119.367	-8191	255	
1549.776	1	1	0	0	0.3797	0.16105	0.16448	0.11752	0.22232	0.16553	0.28419	0.076315	0.15152	0.027619	0.0907	0.11733	0.22694	0.16184	0.14131	0.21289	-2.6042	-2.0375	-2.5375	-2.7687	-2.1979	-2.7562	-2.5083	-2.2833	-2.7667	-2.1083	-2.5667	-2.5708	-2.125	-2.6958	-2.4062	-2.3125	81.597	-11.643	-74.893	144.744	-15.315	216.200	196.494	102.685	106.598	-76.966	16.702	54.682	-123.442	133.433	13.239	18.614	0.00030002	0.00053137	0.0001574	880.55	9.1493e-07	8.1057e-06	1018.7	274.9	1.1647e-05	3.4552e-06	336.19	111.22	88.882	25.871	3.4601e-06	35.235	0.0024347	0.0025744	0.00071611	876.34	2.3878e-05	2.8073e-05	1023.1	281.48	2.679e-05	2.8479e-05	458.35	119.07	95.477	31.905	2.8223e-05	44.879	-111.559	-113.512	4.868	-129.902	1.266	-126.969	-131.515	-124.907	13.096	213.362	-127.640	-123.118	-119.963	-114.672	9.385	-118.774	-8191	255	
1549.896	1	1	0	0	0.30796	0.30097	0.11174	0.050037	0.13481	0.23585	0.046792	0.17695	0.14106	0.10782	0.20682	0.22597	0.21252	0.209	0.15992	0.06911	-2.3667	-2.1813	-2.4667	-2.8979	-2.025	-2.7167	-2.4729	-2.2375	-2.8333	-2.1833	-2.3333	-2.8063	-2.1771	-2.6063	-2.5438	-2.2375	195.569	0.753	-83.710	64.288	22.030	79.228	90.803	163.754	141.872	-31.787	88.209	-71.012	191.400	49.156	217.026	22.868	0.00024432	0.00049991	0.00021268	876.72	2.7694e-06	3.5974e-06	1015	272.97	6.287e-06	9.4401e-06	335.09	111	89.035	25.725	4.6391e-06	35.411	0.0024169	0.0025727	0.00071166	870.03	2.3988e-05	2.7924e-05	1017.2	279.33	2.6541e-05	2.8357e-05	455.91	118.26	94.913	31.599	2.8227e-05	44.734	-94.308	212.771	48.193	-130.033	-47.190	90.094	-131.668	-124.886	215.968	-139.117	-127.444	-122.840	-120.307	-114.990	103.828	-118.756	-8191	255	
1549.992	1	1	0	0	0.15219	0.012123	0.3225	0.012576	0.18809	0.3108	0.086527	0.22346	0.13381	0.18207	0.16204	0.18796	0.097144	0.29036	0.19826	0.19647	-2.4313	-2.2062	-2.35	-2.85	-2.1333	-2.5729	-2.5917	-2.25	-3.0271	-2.4708	-2.5271	-2.6542	-2.1042	-2.3812	-2.6646	-2.0958	161.806	-77.407	-32.152	-101.343	182.430	-45.035	163.338	177.738	19.020	-63.661	123.826	171.873	51.627	-46.428	77.552	197.612	0.00040906	0.0014084	9.2572e-05	869.1	4.4224e-06	4.049e-06	1008.2	271.09	5.4307e-06	4.9079e-06	335.01	110.67	88.419	25.8	1.2756e-05	35.471	0.0024285	0.0025621	0.00071603	865.05	2.3708e-05	2.814e-05	1011.7	278.03	2.6806e-05	2.8539e-05	453.86	118.17	94.988	31.829	2.8409e-05	44.968	-68.644	-59.444	-75.196	-130.027	-57.038	-3.748	-131.532	-124.691	2.741	141.089	-127.502	-122.709	-120.491	-114.445	-18.500	-118.531	-8191	255	
1550.087	1	1	0	0	0.032591	0.11239	0.099803	0.19385	0.090171	0.1797	0.2078	0.24152	0.099982	0.10949	0.10435	0.036879	0.33304	0.23191	0.14632	0.18796	-2.3125	-2.3083	-2.1958	-3.0187	-2.1688	-2.6271	-2.8688	-2.1	-2.8917	-2.5625	-2.1937	-2.8042	-2.2771	-2.5917	-2.6813	-2.025	94.462	158.638	-19.990	174.065	-35.716	124.654	135.254	153.449	-22.280	-31.453	-68.756	101.682	65.902	175.010	-95.328	208.785	0.00028449	0.00077429	0.00023768	873.03	2.0629e-06	2.7011e-06	1009.5	272.48	6.9467e-06	9.3612e-07	338.03	110.77	89.132	25.855	7.7493e-06	35.905	0.0024336	0.0025816	0.00071338	866.26	2.3973e-05	2.807e-05	1012.1	279.74	2.6801e-05	2.8336e-05	457.95	118.67	95.784	32.052	2.812e-05	45.151	-141.289	-42.555	-17.000	-130.128	-89.061	56.889	-131.657	-124.682	-114.671	9.187	-127.798	-122.805	-119.957	-115.063	18.409	-118.282	-8191	255	
1550.185	1	1	0	0	0.049751	0.15011	0.062597	0.10886	0.14345	0.34539	0.080415	0.0734	0.15619	0.19517	0.10375	0.31343	0.021878	0.083613	0.19285	0.12816	-2.5833	-2.3292	-2.2687	-3.1167	-2.4917	-2.5187	-3.0646	-2.0667	-2.8229	-2.6	-2.0625	-2.9396	-2.1729	-2.4104	-2.8292	-2.2417	62.799	8.589	96.903	119.631	-12.468	-12.254	45.739	-83.995	168.783	115.168	-42.056	213.576	-40.214	72.901	-56.941	27.915	0.00019613	0.00085228	1.8052e-05	871.3	2.8352e-06	8.6014e-06	1009.5	274.45	4.8902e-06	2.6597e-06	333.99	111.94	90.234	26.476	2.9586e-06	36.262	0.0024304	0.0025464	0.00070909	868.97	2.3912e-05	2.8037e-05	1015.2	281.79	2.6825e-05	2.8071e-05	458.49	119.77	96.742	32.513	2.7986e-05	45.562	-64.673	-83.879	-25.588	-129.725	-52.362	37.688	-131.527	-124.695	-76.724	213.912	-126.920	-122.756	-119.842	-115.242	-2.163	-118.517	-8191	255	
1550.279	1	1	0	0	0.29344	0.18305	0.1815	0.23595	0.13685	0.14038	0.27175	0.11206	0.19815	0.11425	0.25033	0.078356	0.067498	0.1109	0.081864	0.23099	-2.4542	-2.6021	-2.2021	-2.7938	-2.3146	-2.3229	-2.9354	-2.1937	-2.6542	-2.6437	-2.2542	-2.8083	-2.5062	-2.2438	-2.6604	-2.25	-1.520	25.412	208.160	61.831	3.527	-140.730	169.089	-33.218	-125.963	212.801	199.805	-135.032	-95.275	-3.459	-115.843	-79.590	0.0002096	0.00095357	0.0001543	875.37	1.1776e-06	1.7637e-05	1009.6	274.61	3.3072e-06	4.3439e-06	336.01	111.55	89.786	26.124	1.7646e-06	36.464	0.0024491	0.0025731	0.00071558	872.01	2.3984e-05	2.8345e-05	1017.3	282.26	2.6921e-05	2.8196e-05	458.89	119.76	96.659	32.489	2.797e-05	45.518	-86.666	-49.458	-24.056	-129.732	7.063	-30.712	-131.208	-124.442	21.344	-45.183	-126.700	-122.444	-119.721	-114.595	-139.606	-118.889	-8191	255	
1550.375	1	1	0	0	0.23353	0.15017	0.18503	0.1675	0.14017	0.29192	0.20502	0.35564	0.1427	0.22408	0.14408	0.32506	0.20518	0.14103	0.015161	0.20337	-2.0667	-2.6417	-2.1312	-3.0563	-2.6063	-2.1292	-3.0083	-2.0875	-2.5042	-2.7333	-1.9958	-2.6854	-2.3812	-2.2021	-2.8667	-2.2687	213.350	106.280	-126.017	147.500	191.802	-49.405	123.087	-125.143	-84.193	-47.968	153.358	125.720	197.899	-141.422	-141.296	-83.575	0.00015267	0.00073569	5.1507e-05	874.62	7.9196e-07	1.4775e-05	1013.4	274.38	6.2678e-06	1.2673e-05	340.12	112.54	90.293	26.081	1.9667e-05	35.757	0.0024529	0.0025621	0.00071269	872.03	2.3816e-05	2.824e-05	1019.7	282.38	2.7045e-05	2.826e-05	459.77	119.84	96.482	32.16	2.7965e-05	45.376	-46.173	-66.706	-93.916	-129.769	-54.189	-3.572	-131.335	-124.521	3.956	27.628	-126.496	-122.915	-120.115	-114.934	-37.571	-118.322	-8191	255	
1550.496	1	1	0	0	0.2624	0.35715	0.081517	0.147	0.17254	0.11727	0.22144	0.0697	0.12578	0.44094	0.19962	0.28363	0.19367	0.41306	0.21567	0.1114	-2.0125	-2.6813	-2.175	-2.6042	-2.4229	-2.2917	-2.95	-2.2438	-2.375	-2.7104	-2.0229	-2.6646	-2.625	-2.2208	-2.8396	-2.3604	15.198	-29.787	-72.907	145.048	-91.858	210.695	212.809	60.904	163.042	4.605	41.962	-49.232	-130.260	115.570	193.614	-111.710	0.00024043	0.00044542	0.00018283	875.74	1.8533e-06	1.685e-05	1016.5	275.17	8.924e-06	9.5077e-06	341.06	112.35	90.16	25.885	5.4779e-06	36.443	0.002449	0.0025566	0.00070843	871.14	2.3939e-05	2.8166e-05	1020.5	282.53	2.6956e-05	2.815e-05	459.21	120.14	96.77	32.32	2.7895e-05	45.689	-82.811	190.057	-44.523	-129.909	-35.504	-52.214	-131.560	-124.745	-26.126	22.748	-126.297	-122.646	-119.768	-114.955	29.012	-117.330	-8191	255	
1550.592	1	1	0	0	0.052733	0.07928	0.12121	0.1535	0.04914	0.17386	0.27816	0.31908	0.27847	0.074851	0.1377	0.23964	0.19783	0.068099	0.078749	0.10865	-1.8125	-2.6271	-2.0708	-2.6625	-2.6271	-2.0229	-2.7833	-2.4333	-2.3375	-2.675	-2.05	-2.5521	-2.575	-2.0125	-2.7396	-2.3667	216.539	99.019	158.955	123.653	-44.694	68.144	200.296	135.014	-46.385	-70.996	-61.391	173.955	36.436	117.691	197.981	-114.305	0.00026622	8.4876e-05	3.0849e-05	876.21	5.302e-06	1.4283e-05	1014.4	275.38	2.0962e-06	7.4293e-06	330.07	112.71	90.95	26.487	1.5349e-05	36.441	0.0024419	0.0025326	0.00071348	873.38	2.3704e-05	2.7893e-05	1020.8	283.58	2.6709e-05	2.8017e-05	459.11	120.85	97.512	32.603	2.8014e-05	45.786	-131.347	-90.621	76.564	-129.949	-40.463	-72.131	-131.293	-124.324	-42.047	11.197	-127.318	-122.622	-119.732	-114.424	132.500	-117.705	-8191	255	
1550.687	1	1	0	0	0.1073	0.088654	0.28672	0.2298	0.22155	0.36507	0.22577	0.23455	0.13063	0.16371	0.17507	0.041307	0.28397	0.335	0.20409	0.053792	-1.8896	-2.6083	-2.2271	-2.5062	-2.6813	-2.175	-2.8021	-2.4458	-2.1562	-2.8229	-2.3021	-2.4729	-2.8708	-2.0083	-2.7521	-2.425	100.875	150.086	62.246	183.756	-125.712	122.409	142.347	41.034	93.665	-130.733	-68.903	193.272	92.249	142.271	-119.042	129.663	0.00023137	0.00049583	3.4373e-05	876.15	1.7808e-06	4.896e-06	1013.1	275.66	5.2377e-06	1.4131e-06	332.73	112.07	90.485	26.175	9.1613e-06	36.22	0.0024395	0.0025324	0.00071	874.62	2.3525e-05	2.7861e-05	1021	283.99	2.6835e-05	2.7887e-05	457.5	120.42	97.144	32.554	2.8065e-05	45.53	-129.711	-93.996	-92.120	-129.672	-86.051	-90.500	-131.121	-124.288	0.303	-50.647	-126.867	-122.798	-119.616	-114.783	70.148	-118.066	-8191	255	
1550.783	1	1	0	0	0.1608	0.17501	0.11035	0.22676	0.088716	0.26464	0.28606	0.23369	0.17235	0.10074	0.2053	0.11534	0.13892	0.20852	0.14062	0.10526	-1.6771	-2.9771	-2.3563	-2.5042	-2.8875	-2.2313	-2.6167	-2.65	-2.0708	-2.8333	-2.3708	-2.2958	-2.8271	-2.2104	-2.6125	-2.6125	31.466	20.747	81.796	-41.591	131.149	16.060	36.258	-55.891	-23.691	91.595	-87.957	143.051	-57.928	41.284	33.050	-17.438	0.00045151	0.00092956	2.486e-05	877.55	9.3897e-07	7.5898e-06	1014.1	274.66	4.2107e-06	1.0155e-05	334.87	111.65	89.745	26.162	1.2092e-05	36.248	0.0024242	0.0025431	0.00071422	874.55	2.3594e-05	2.8246e-05	1020.2	283.13	2.6739e-05	2.7851e-05	458.3	119.88	96.722	32.285	2.8257e-05	45.278	-77.724	-72.830	-29.486	-129.860	16.723	-55.597	-131.294	-124.324	-45.817	-30.877	-126.949	-122.524	-120.056	-114.423	15.182	-118.720	-8191	255	
1550.879	1	1	0	0	0.18155	0.22864	0.16982	0.090816	0.25167	0.090431	0.4558	0.06246	0.034738	0.12144	0.066763	0.054957	0.18777	0.14583	0.12936	0.22596	-1.8208	-2.575	-2.05	-2.3271	-2.7521	-2.0229	-2.5021	-2.5896	-2.1042	-2.7604	-2.4583	-2.2958	-2.5771	-2.1354	-2.3688	-2.6375	169.432	0.113	83.940	177.048	-77.920	125.248	190.703	149.554	90.944	55.447	89.443	62.085	87.544	108.842	-118.766	2.681	0.00016594	0.00043179	0.00018453	876.61	2.8753e-06	1.6562e-06	1011.7	275.5	4.4021e-06	7.6684e-06	341.14	111.76	90.111	26.058	8.4838e-06	35.828	0.0024298	0.0025491	0.0007156	871.43	2.3622e-05	2.7996e-05	1017.1	282.39	2.6858e-05	2.7836e-05	458.52	119.79	96.467	32.19	2.8002e-05	45.172	-105.344	-25.949	-99.515	-130.029	-34.987	153.232	-131.503	-124.517	-33.226	158.951	-126.634	-122.711	-120.019	-115.213	92.412	-118.180	-8191	255	
1550.975	1	1	0	0	0.09017	0.1401	0.01433	0.31609	0.13041	0.10688	0.099698	0.08462	0.072561	0.10749	0.2745	0.055567	0.10353	0.17855	0.080015	0.086375	-1.7292	-2.6729	-2.4437	-2.2375	-2.6917	-2.275	-2.6688	-2.7417	-2.1375	-2.5271	-2.6271	-2.1	-2.9542	-2.1771	-2.2458	-2.9458	130.574	124.044	-7.128	188.853	52.441	163.292	104.468	-131.582	199.864	-32.956	140.480	105.467	-138.121	-140.992	160.450	201.796	0.00020263	0.00020216	7.6941e-05	872.56	3.3468e-06	7.9086e-06	1015.3	274.75	1.1336e-05	6.5806e-06	333.22	112.16	90.486	26.012	1.5167e-06	37.022	0.0024214	0.0025544	0.00070711	870.17	2.3603e-05	2.7899e-05	1020.2	282.49	2.6714e-05	2.8032e-05	459.96	120.52	97.062	32.463	2.7963e-05	45.711	216.643	-137.077	-38.182	-129.941	0.776	-14.149	-131.394	-124.508	-38.656	-20.462	-127.666	-123.064	-119.830	-114.513	-130.063	-118.528	-8191	255	
1551.071	1	1	0	0	0.20253	0.061538	0.39227	0.15007	0.21332	0.15265	0.2369	0.10574	0.28964	0.076498	0.16323	0.042346	0.14082	0.22712	0.12074	0.22442	-1.5354	-2.5625	-2.5479	-2.1271	-2.7417	-2.3312	-2.2313	-2.6021	-1.8521	-2.6729	-2.7062	-2.25	-2.7021	-2.3563	-2.3583	-2.9292	-10.372	20.606	-5.395	174.285	-123.613	56.257	212.949	178.389	46.448	-102.722	-67.853	15.546	49.640	-23.624	105.995	-5.115	0.00017019	0.00081692	8.556e-05	880.05	3.4573e-06	5.7823e-06	1027.6	277.62	8.0484e-06	1.3371e-05	339.83	114.33	91.446	26.71	1.2075e-05	36.985	0.0024233	0.002562	0.00071249	875.93	2.3532e-05	2.8212e-05	1029.4	284.82	2.678e-05	2.8317e-05	462.32	121.57	97.808	32.792	2.8201e-05	45.889	-72.461	145.651	-80.246	-129.973	-28.153	13.793	-131.691	-124.666	13.383	11.221	-126.903	-122.786	-119.961	-115.012	-71.634	-119.057	-8191	255	
1551.192	1	1	0	0	0.28696	0.16612	0.043838	0.37097	0.2147	0.052413	0.083316	0.040813	0.057762	0.33133	0.24379	0.084722	0.091688	0.11456	0.46366	0.071781	-1.7417	-2.3542	-2.6479	-2.2792	-2.725	-2.5604	-2.175	-2.8688	-2.2854	-2.5271	-2.6063	-2.1333	-2.8063	-2.4667	-2.1813	-2.8896	136.306	110.045	29.794	206.305	86.969	130.184	180.288	177.215	-89.527	-71.199	-82.610	-99.103	72.928	-92.027	0.998	60.948	3.4876e-05	0.0012995	0.00029776	884.02	6.4988e-06	5.0866e-06	1024.2	278.58	4.3086e-06	8.3905e-06	339.67	114.07	91.151	26.382	1.3088e-05	36.623	0.0024158	0.0025614	0.00070662	879.68	2.3523e-05	2.8025e-05	1028.8	285.77	2.6714e-05	2.8193e-05	460.91	121.42	97.788	32.676	2.8145e-05	45.699	119.869	-61.005	-33.365	-129.994	-42.244	29.048	-131.439	-124.654	22.051	64.557	-126.806	-123.000	-119.916	-114.656	-2.433	-117.728	-8191	255	
1551.288	1	1	0	0	0.37535	0.22219	0.12128	0.18647	0.20426	0.12812	0.1024	0.049608	0.16386	0.060439	0.23044	0.019747	0.005193	0.10618	0.1747	0.27935	-1.9125	-2.4854	-2.7812	-2.2604	-2.5729	-2.6354	-2.2375	-2.8438	-2.2521	-2.5625	-2.7792	-2.0229	-2.5521	-2.5229	-2.0479	-2.9854	168.842	19.288	-121.906	204.828	-135.241	122.132	75.838	-69.135	106.095	107.836	-72.125	98.264	121.446	-69.746	-109.585	76.793	0.00013874	0.00061607	0.00031995	883.34	3.5839e-06	6.6383e-06	1025.9	278.07	1.0727e-05	9.3826e-06	337.24	113.61	90.948	25.947	9.8866e-06	36.203	0.0024235	0.0025595	0.00070326	878.86	2.3584e-05	2.7872e-05	1030.2	285.23	2.6851e-05	2.7978e-05	459.61	121.02	97.412	32.381	2.7876e-05	45.486	-119.636	-32.868	-50.671	-129.970	-45.110	184.367	-131.502	-124.543	9.302	-90.334	-126.506	-122.543	-119.802	-114.383	-56.390	-117.991	-8191	255	
1551.384	1	1	0	0	0.054499	0.098258	0.18666	0.22372	0.20547	0.12037	0.12796	0.11045	0.013004	0.24106	0.07824	0.10036	0.077279	0.078973	0.17451	0.094486	-1.9958	-2.3563	-2.8521	-2.2417	-2.4437	-2.7188	-2.1708	-2.7979	-2.4062	-2.2167	-2.7521	-2.0833	-2.5167	-2.8146	-2.2854	-2.8333	-25.029	-115.072	142.708	169.361	115.135	-124.101	-56.485	-43.141	64.199	-72.311	25.849	176.939	-142.675	-67.545	119.840	-106.605	0.00024761	0.00096489	0.00020086	879.42	3.7012e-06	9.5901e-06	1021.7	276.79	4.1531e-06	2.3956e-06	339.31	113.22	90.647	26.071	1.13e-05	36.377	0.0024224	0.0025295	0.00069481	875.21	2.363e-05	2.7675e-05	1025	283.83	2.6491e-05	2.7932e-05	457.86	120.84	97.093	32.232	2.7643e-05	45.367	204.522	10.094	-133.475	-129.911	-103.987	182.482	-131.513	-124.681	-11.382	187.082	-126.871	-122.620	-120.146	-114.468	40.396	-118.356	-8191	255	
1551.456	1	1	0	0	0.40698	0.10691	0.17186	0.2934	0.1049	0.21343	0.26526	0.17804	0.093913	0.091064	0.13735	0.1227	0.078769	0.032082	0.12725	0.063029	-2.0417	-2.2938	-2.9229	-2.2375	-2.4792	-2.7438	-2.3646	-2.6229	-2.5438	-2.2729	-2.8396	-2.2229	-2.4188	-2.8312	-2.1146	-2.5979	153.119	-45.810	163.860	189.932	-109.098	88.766	59.519	91.942	-30.459	72.474	51.199	183.755	-11.532	166.368	-21.075	8.862	0.00034507	0.00024137	0.00012764	877.47	3.1723e-06	1.0065e-05	1021.7	277.67	8.0013e-06	1.713e-06	340.03	114.1	91.969	26.426	8.987e-06	36.665	0.0023839	0.0025078	0.0006909	875.04	2.3367e-05	2.72e-05	1026.9	284.82	2.6239e-05	2.7661e-05	458.47	121.64	97.845	32.562	2.7495e-05	45.71	-63.209	-28.881	-21.718	-129.793	-59.093	-100.259	-131.469	-124.574	-21.753	92.546	-127.181	-122.974	-120.247	-114.054	96.871	-118.712	-8191	255	
1551.575	1	1	0	0	0.28697	0.25035	0.15392	0.21124	0.22167	0.12884	0.13426	0.21716	0.16715	0.23905	0.26082	0.077949	0.11502	0.073635	0.13275	0.39891	-1.9854	-2.1979	-2.7604	-2.3021	-2.2646	-2.8667	-2.2417	-2.6396	-2.6125	-2.1917	-2.7583	-2.5792	-2.4042	-2.8937	-2.0646	-2.6021	202.757	63.364	159.704	196.021	173.000	-53.447	12.848	-59.016	66.074	92.713	214.880	45.468	190.604	123.475	159.821	-82.377	0.00021367	0.00077122	0.00025517	881.1	2.6889e-06	1.1548e-05	1024.3	277.68	9.7728e-07	7.8923e-06	338.64	114.01	92.217	26.581	3.9535e-06	37.01	0.0023605	0.0025024	0.00069032	878.21	2.3388e-05	2.7034e-05	1030.7	285.76	2.5924e-05	2.7282e-05	457.54	121.72	98.098	32.384	2.6298e-05	45.47	206.187	-54.165	-48.556	-129.755	-64.248	25.151	-131.372	-124.565	-58.075	-67.127	-127.737	-122.397	-119.882	-114.884	-36.471	-118.795	-8191	255	
1551.671	1	1	0	0	0.36472	0.11987	0.1579	0.13004	0.16426	0.24675	0.28217	0.38186	0.11733	0.14669	0.038398	0.17451	0.28666	0.063736	0.2601	0.11151	-2.1312	-1.9562	-2.7313	-2.5167	-2.1917	-2.7271	-2.3167	-2.4396	-2.8479	-1.9062	-2.6708	-2.3521	-2.1021	-2.7188	-2.1625	-2.3646	8.148	70.588	189.692	36.740	-107.552	-87.963	208.169	67.430	156.821	6.022	-53.195	-14.982	193.219	-7.879	162.163	-131.405	0.00017434	0.0004196	8.9928e-05	882.14	1.1912e-06	8.9064e-06	1024.1	277.45	5.6293e-06	2.5636e-06	333.96	113.08	91.895	26.425	4.4779e-06	36.782	0.0022122	0.0023297	0.00064036	878.76	2.0988e-05	2.4066e-05	1028.2	284.82	2.2213e-05	2.3011e-05	432.71	119.76	96.752	31.004	2.1577e-05	43.364	-91.450	-27.843	153.836	-129.904	-115.554	-12.295	-131.380	-124.498	-10.133	-73.360	-126.966	-122.695	-119.582	-114.382	-50.550	-118.127	-8191	255	
1551.767	1	1	0	0	0.089857	0.15074	0.18246	0.049577	0.12727	0.042537	0.3033	0.11278	0.068287	0.28796	0.33947	0.17057	0.19721	0.16088	0.1888	0.12438	-2.2729	-2.0833	-2.525	-2.7458	-2.1542	-2.75	-2.3563	-2.5042	-2.6979	-2.075	-2.525	-2.5521	-2.0333	-2.5854	-2.3667	-2.2375	15.848	36.269	198.227	84.051	-104.300	-43.320	174.037	81.303	-53.005	-107.755	-115.808	211.818	-104.470	67.306	55.584	207.275	0.00022975	0.00015809	0.00015543	878.6	3.5547e-06	1.193e-05	1021.2	277.36	5.8955e-06	2.9136e-06	339.39	113.79	91.263	26.233	6.4729e-06	36.205	0.0018355	0.0019164	0.00052973	875.34	1.7743e-05	2.0252e-05	1023.7	282.69	1.9203e-05	2.0108e-05	419.97	118.89	95.666	30.44	2.0837e-05	42.839	-129.512	-48.109	-30.349	-129.778	-18.827	-12.122	-131.266	-124.567	-93.871	48.384	-126.888	-122.671	-120.474	-114.860	87.737	-118.954	-8191	255	
1551.863	1	1	0	0	0.23189	0.11616	0.28207	0.20713	0.1392	0.14557	0.14691	0.16467	0.076268	0.050455	0.23257	0.2141	0.16606	0.16195	0.026697	0.11554	-2.4458	-2.0438	-2.4	-2.6875	-2.0167	-2.6708	-2.5417	-2.2604	-2.6375	-2.2896	-2.4604	-2.6333	-2.1521	-2.6312	-2.4458	-2.2062	43.166	-61.216	-5.298	178.613	-7.573	-128.526	201.282	-18.957	-121.161	-101.302	156.826	166.776	54.378	-107.893	-109.250	22.178	0.00026026	0.00064593	0.00018592	878.08	2.3477e-06	8.9514e-06	1016.9	276.97	2.7132e-06	7.4826e-06	340.34	113.38	91.046	26.218	7.4603e-06	36.536	0.0017941	0.0019283	0.0005356	871.29	1.8269e-05	2.1268e-05	1019.5	282.77	2.0308e-05	2.1829e-05	427.52	119.25	96.065	30.996	2.2581e-05	43.538	-137.681	-61.216	9.154	-130.007	-86.017	-1.363	-131.472	-124.684	-52.516	-80.278	-127.799	-122.553	-120.145	-114.543	0.924	-118.515	-8191	255	
1551.984	1	1	0	0	0.20918	0.077648	0.20903	0.086143	0.51861	0.094902	0.14526	0.18056	0.15976	0.074367	0.16848	0.25987	0.12361	0.23182	0.15998	0.13727	-2.3438	-2.2208	-2.4833	-2.7667	-2.0646	-2.5729	-2.5687	-2.1667	-2.8563	-2.0646	-2.425	-2.7625	-1.9562	-2.4917	-2.5729	-2.0792	192.251	-134.735	122.883	124.062	-112.788	104.903	149.898	119.718	32.138	204.680	29.164	23.945	-39.155	-56.015	187.333	198.934	0.00018306	0.00057416	0.00022912	873.26	3.8332e-06	6.0319e-06	1015.3	276.35	1.4987e-06	1.2023e-05	340.02	114.02	91.87	26.501	1.0124e-05	36.758	0.0019618	0.0020988	0.00058626	869.29	1.9749e-05	2.3159e-05	1017	282.84	2.2284e-05	2.3768e-05	437.27	120.39	97.101	31.676	2.3914e-05	44.326	-121.568	115.375	20.724	-129.854	-82.966	-35.310	-131.353	-124.682	-132.160	-15.276	-127.010	-122.894	-119.898	-114.761	14.050	-118.962	-8191	255	
1552.080	1	1	0	0	0.22814	0.091029	0.10148	0.20727	0.11575	0.13272	0.21731	0.028536	0.15543	0.26287	0.18214	0.12417	0.065241	0.097508	0.033763	0.049275	-2.3729	-2.2313	-2.3542	-2.9188	-2.1542	-2.7167	-2.5938	-2.1354	-2.6708	-2.3125	-2.2958	-2.7042	-2.2417	-2.6125	-2.55	-2.0729	-124.910	25.974	65.510	-101.735	-80.322	-120.019	175.842	173.930	29.656	72.967	95.564	-136.857	152.511	-116.592	-56.788	183.004	0.00015824	0.00066793	5.3131e-05	873.06	9.7891e-07	1.3224e-05	1013.4	276.97	9.7813e-06	1.5524e-06	342	113.39	91.745	26.327	2.5681e-06	36.769	0.0020727	0.0021884	0.00061042	869.86	2.0692e-05	2.4303e-05	1016.6	283.39	2.3115e-05	2.4594e-05	441.63	120.04	97.064	31.63	2.4358e-05	44.32	-101.459	27.014	-15.777	-129.826	41.338	-31.466	-131.465	-124.658	-19.433	128.362	-127.198	-123.045	-119.799	-115.246	184.324	-118.098	-8191	255	
1552.176	1	1	0	0	0.25008	0.04296	0.29709	0.20442	0.08489	0.10437	0.42601	0.16922	0.11168	0.28582	0.094052	0.017544	0.11897	0.17253	0.17053	0.17483	-2.425	-2.3833	-2.1479	-2.9062	-2.0312	-2.6083	-2.7854	-1.925	-2.6646	-2.5312	-2.1646	-2.7833	-2.2521	-2.6333	-2.7833	-2.025	148.477	131.722	-139.369	-73.516	57.766	-67.523	141.208	-11.835	85.049	107.060	117.655	70.196	23.074	194.389	-59.825	104.343	0.00025223	0.00036806	0.00015679	872.72	2.454e-06	4.7853e-06	1011	275.6	4.1586e-06	2.2066e-06	340.61	112.77	90.88	26.223	6.3828e-06	35.861	0.0020911	0.0022271	0.00061961	868.59	2.0863e-05	2.4425e-05	1015.1	282.38	2.3433e-05	2.4472e-05	440.25	119.61	96.383	31.474	2.4574e-05	43.986	-96.066	-35.459	-17.498	-129.937	-49.605	26.401	-131.416	-124.388	62.416	16.702	-126.498	-122.810	-119.727	-114.881	140.876	-118.746	-8191	255	
1552.272	1	1	0	0	0.17728	0.10195	0.24599	0.26169	0.20658	0.26918	0.25764	0.30661	0.055528	0.2208	0.2971	0.050673	0.078536	0.2265	0.29088	0.16272	-2.325	-2.4833	-2.1937	-2.8958	-2.2125	-2.4833	-2.8521	-2.0646	-2.6792	-2.5604	-2.2125	-2.8563	-2.3229	-2.2979	-2.8083	-2.0812	192.413	67.637	-124.443	209.670	-54.781	73.696	-128.964	102.123	-109.396	-107.801	17.113	181.447	-65.187	83.432	-136.860	-26.820	0.00026896	0.00052601	0.0001727	866.88	2.2114e-06	4.613e-06	1007.9	274.83	6.0012e-07	5.0782e-06	335.72	111.82	89.9	25.882	9.217e-06	35.589	0.0021229	0.0022476	0.00062555	865.54	2.1124e-05	2.4883e-05	1013.8	281.02	2.3883e-05	2.5015e-05	442.47	119.09	95.853	31.323	2.472e-05	44.146	-66.147	-93.480	208.062	-129.674	-29.505	-5.806	-131.283	-124.582	-16.281	-44.302	-126.659	-122.179	-119.843	-114.654	-25.852	-118.554	-8191	255	
1552.368	1	1	0	0	0.10215	0.042753	0.020606	0.16636	0.21463	0.1467	0.23715	0.16863	0.26742	0.17629	0.28582	0.15817	0.25342	0.10582	0.1195	0.26299	-2.3354	-2.5229	-2.1708	-2.9979	-2.3583	-2.2833	-2.9542	-2.1125	-2.6042	-2.8208	-2.175	-2.7021	-2.3479	-2.0646	-2.6188	-2.1583	12.129	-45.672	-10.223	-117.554	199.137	-138.920	181.490	121.014	154.232	128.787	133.917	-1.639	64.226	-90.545	156.678	-66.167	0.00022553	0.00058789	0.00032629	865.14	4.0931e-06	7.8528e-06	1004.8	272.65	1.1233e-05	4.4363e-06	332.03	112.11	89.856	25.849	3.1898e-06	36.232	0.0021586	0.0022711	0.00063117	863.34	2.1182e-05	2.4941e-05	1013.2	280.24	2.4017e-05	2.5104e-05	441.57	119.45	95.806	31.43	2.4901e-05	44.35	-103.179	56.989	-29.609	-129.641	-29.189	96.747	-131.162	-124.293	-27.671	25.397	-125.650	-122.290	-119.773	-114.952	6.690	-118.540	-8191	255	
1552.464	1	1	0	0	0.089734	0.34659	0.17273	0.38103	0.26085	0.084443	0.21406	0.33258	0.089912	0.1615	0.072834	0.23052	0.10516	0.21398	0.081661	0.12823	-1.9813	-2.6417	-1.9813	-2.8333	-2.4104	-2.3875	-3.0083	-2.2625	-2.4354	-2.6896	-2.075	-2.6813	-2.4667	-2.25	-2.7438	-2.1813	38.296	-81.985	11.851	170.334	46.414	29.928	105.063	161.505	45.476	213.875	91.784	214.250	23.225	39.655	144.022	84.946	0.00035746	0.00078859	0.00014877	867.85	4.3804e-06	5.9043e-06	1012.5	273.71	4.683e-06	8.8004e-06	334.78	112.26	90.324	25.881	3.6532e-06	35.634	0.0021687	0.002283	0.00063323	866.96	2.1369e-05	2.5013e-05	1018.7	281.11	2.396e-05	2.4856e-05	443.45	119.98	96.065	31.492	2.4933e-05	44.261	-75.072	-123.959	-33.596	-129.650	-27.699	82.065	-131.248	-124.283	-86.249	30.719	-126.814	-122.731	-119.968	-114.889	-77.217	-118.019	-8191	255	
1552.583	1	1	0	0	0.18214	0.20305	0.050709	0.062792	0.20544	0.045056	0.12222	0.12403	0.19001	0.095561	0.090652	0.085787	0.30493	0.077734	0.17611	0.18799	-2.0375	-2.7062	-2.0833	-2.7375	-2.4583	-2.0417	-2.8104	-2.1729	-2.3875	-2.8917	-1.8188	-2.5104	-2.5833	-2.2313	-2.8479	-2.2833	-27.822	7.533	159.264	188.220	-49.897	30.177	131.149	91.160	31.536	214.902	-43.853	-133.060	184.728	-128.626	0.575	134.054	0.00029666	0.0008302	0.00017966	867.86	1.1017e-06	3.6595e-06	1007.9	272.46	9.2566e-06	8.9959e-06	330.7	112.06	89.599	25.859	6.4457e-06	35.507	0.0021851	0.0022721	0.00063702	865.72	2.133e-05	2.5124e-05	1015.4	280.53	2.4065e-05	2.4992e-05	441.41	119.13	95.365	31.141	2.501e-05	43.854	-126.712	-31.042	-70.684	-129.738	-50.611	74.323	-131.165	-124.392	4.478	6.265	-126.529	-122.586	-119.840	-114.739	49.553	-118.910	-8191	255	
1552.679	1	1	0	0	0.16174	0.19154	0.067876	0.20446	0.39819	0.24954	0.23566	0.23237	0.17867	0.20729	0.11423	0.096744	0.245	0.17303	0.29052	0.18611	-1.775	-2.6104	-2.0354	-2.7479	-2.6937	-2.2958	-2.9521	-2.2292	-2.2792	-2.9333	-2.1229	-2.5896	-2.8417	-2.0958	-2.8667	-2.4313	-101.824	158.826	-108.676	160.518	-55.397	126.886	135.621	64.411	3.619	4.323	119.601	189.057	-103.309	20.698	-20.607	117.058	0.00029448	0.00043502	0.00025737	865.21	1.2439e-06	2.1671e-05	1007.9	271.48	4.6674e-06	8.4167e-06	335.15	111.25	88.551	25.042	8.339e-06	35.318	0.0021761	0.0022605	0.00063517	861.64	2.1233e-05	2.5145e-05	1013.1	278.11	2.3848e-05	2.5015e-05	440.83	118.21	94.315	30.741	2.4924e-05	43.481	-100.383	-44.348	-30.799	-129.857	50.726	-18.808	-131.406	-124.509	71.757	40.988	-127.082	-122.934	-119.631	-114.192	58.923	-117.695	-8191	255	
1552.751	1	1	0	0	0.26062	0.13785	0.32401	0.087657	0.1246	0.12179	0.043746	0.27789	0.27365	0.091675	0.16763	0.18015	0.24431	0.13287	0.079972	0.18426	-1.8104	-2.725	-1.9604	-2.6708	-2.7958	-2.1542	-2.7917	-2.4979	-2.2708	-2.9229	-2.3125	-2.5167	-2.7333	-2.0375	-2.5333	-2.6312	-64.624	-66.543	-68.239	91.245	105.774	71.609	-21.752	71.751	195.288	-117.928	-76.753	-67.119	129.015	-31.911	-111.610	-136.496	0.00030163	0.00068646	8.4149e-05	859.35	3.1733e-06	8.5458e-06	1002.8	268.88	5.7574e-06	7.0593e-06	331.49	110.69	88.311	25.207	4.7197e-06	35.559	0.0021732	0.0022598	0.00063214	857.94	2.1172e-05	2.4914e-05	1010.3	276.62	2.3884e-05	2.4752e-05	438.38	117.78	93.988	30.584	2.4914e-05	43.507	-91.809	-73.916	-57.442	-129.621	-66.490	-97.068	-131.121	-124.287	-11.249	74.115	-127.076	-122.548	-119.693	-114.517	-46.831	-118.162	-8191	255	
1552.872	1	1	0	0	0.080129	0.22931	0.17771	0.15829	0.18312	0.034119	0.096878	0.17445	0.075439	0.16289	0.15771	0.13406	0.11587	0.27679	0.012985	0.22812	-1.7354	-2.8458	-2.3021	-2.3729	-2.5875	-2.3521	-2.8125	-2.5271	-2.175	-2.9	-2.2458	-2.3021	-2.8521	-2.1729	-2.6562	-2.6271	29.621	165.860	210.211	-94.122	39.040	-108.738	188.404	-63.679	-19.214	183.935	41.137	-75.939	-58.508	-107.005	-52.534	-52.453	0.00046067	0.00027236	0.00016936	857.03	1.7878e-06	9.7613e-07	1003.6	269.55	8.5014e-06	1.1836e-05	333.76	111.13	88.289	25.122	1.0631e-05	35.258	0.0021653	0.0022531	0.00063117	856.32	2.1035e-05	2.4993e-05	1009.5	277.05	2.3914e-05	2.4815e-05	439.65	118.17	94.423	30.85	2.4943e-05	43.726	-111.394	-51.987	-25.473	-129.732	-19.179	-49.820	-131.304	-124.404	41.096	-30.459	-126.333	-122.601	-119.872	-114.631	-96.839	-117.983	-8191	255	
1552.968	1	1	0	0	0.25503	0.25577	0.26164	0.089647	0.089325	0.23034	0.21107	0.10147	0.30572	0.05642	0.15199	0.17675	0.11141	0.15676	0.063445	0.13917	-1.6625	-2.6562	-2.2354	-2.3417	-2.7292	-2.1833	-2.6771	-2.6771	-2.15	-2.8375	-2.3896	-2.1396	-2.7354	-2.1792	-2.5396	-2.7083	116.924	-22.256	66.814	150.662	119.051	36.810	182.248	-13.864	104.212	18.280	102.449	24.670	-19.127	202.037	-134.892	76.295	0.00018737	0.00071522	0.00017822	861.03	1.8564e-06	1.9771e-06	1007.3	270.51	4.0167e-06	8.7242e-06	335.02	111.69	89.373	25.617	9.7444e-06	35.333	0.0021495	0.0022476	0.00063334	860.77	2.1044e-05	2.4754e-05	1017.2	279.26	2.3933e-05	2.4905e-05	444.26	119.26	95.444	31.103	2.4995e-05	43.937	-76.582	-1.721	-63.771	-129.731	-41.494	-64.990	-131.038	-124.226	-104.706	-38.632	-126.731	-122.407	-119.512	-114.395	-119.696	-118.279	-8191	255	
1553.064	1	1	0	0	0.1062	0.20002	0.11318	0.21961	0.24326	0.15156	0.22534	0.18277	0.20509	0.32213	0.084021	0.33084	0.11814	0.28915	0.22077	0.15301	-1.6708	-2.5646	-2.4375	-2.4417	-2.7479	-2.2417	-2.5563	-2.8667	-2.1354	-2.4854	-2.6375	-2.2292	-2.8083	-2.2021	-2.4604	-2.8063	-27.021	-85.684	85.600	126.039	33.853	43.243	61.930	-110.797	-124.645	46.410	214.864	180.109	74.109	177.910	33.604	-28.670	2.8966e-05	0.00068408	0.00024084	864.07	2.7518e-06	4.3009e-06	1010.9	272.5	3.3594e-06	5.2579e-06	336.83	111.65	89.032	25.394	3.4913e-06	35.783	0.0021539	0.0022805	0.00063331	863.31	2.0992e-05	2.4964e-05	1016.5	279.69	2.3748e-05	2.4926e-05	441.95	118.84	94.914	30.904	2.488e-05	43.569	-20.395	-124.832	-42.963	-129.660	-3.548	18.186	-131.438	-124.403	-30.478	-119.575	-126.659	-122.862	-119.995	-114.557	21.866	-119.216	-8191	255	
1553.160	1	1	0	0	0.15986	0.27538	0.14679	0.16356	0.020877	0.26915	0.16567	0.18216	0.3203	0.096257	0.11695	0.10922	0.22272	0.1814	0.16475	0.051698	-1.7479	-2.5062	-2.5729	-2.1875	-2.8979	-2.4417	-2.3292	-2.675	-2.2292	-2.5292	-2.5292	-1.9958	-2.8708	-2.45	-2.3312	-2.7542	-117.993	86.629	49.412	-112.688	-122.231	-1.927	116.875	-103.829	-43.947	-58.443	101.756	-106.857	181.749	-41.488	-40.791	200.615	0.000198	0.0010434	4.0059e-05	863.96	1.6754e-06	1.2949e-05	1009.6	271.5	9.0279e-06	5.183e-06	334.6	110.77	88.81	25.342	6.4861e-06	34.769	0.0021499	0.0022725	0.00062691	859.99	2.0952e-05	2.4946e-05	1012.8	277.93	2.3742e-05	2.4928e-05	439.16	117.89	94.23	30.549	2.4953e-05	43.263	-93.675	-140.121	23.312	-129.947	-53.713	12.820	-131.452	-124.358	4.754	-141.611	-127.453	-122.838	-119.636	-114.347	-65.695	-118.382	-8191	255	
1553.281	1	1	0	0	0.17849	0.16242	0.17445	0.12012	0.12474	0.21318	0.18887	0.088773	0.37574	0.26403	0.16115	0.30003	0.19413	0.030309	0.24733	0.066863	-1.7458	-2.6104	-2.8417	-2.1583	-2.5667	-2.4813	-2.3146	-2.8542	-2.0375	-2.2896	-2.7188	-2.125	-2.7438	-2.6	-2.1583	-2.9313	-47.721	-110.838	31.447	144.935	11.406	-71.736	144.048	-141.805	216.733	1.141	-138.424	-117.410	-97.612	135.281	-137.861	5.553	0.00023266	0.0009306	0.00017952	853.83	3.3387e-06	1.0335e-05	1000.9	269.93	4.5953e-06	4.7248e-06	333.07	109.94	88.238	25.112	8.8354e-06	35.066	0.0021586	0.0022781	0.00062711	855.07	2.0973e-05	2.4719e-05	1009.3	276.83	2.387e-05	2.4941e-05	438.56	117.69	94.154	30.644	2.5013e-05	43.392	-98.169	-75.719	-65.821	-129.552	-48.385	-3.415	-131.350	-124.149	19.208	70.867	-126.719	-122.735	-119.836	-114.134	-19.362	-118.003	-8191	255	
1553.375	1	1	0	0	0.30611	0.11001	0.1488	0.23128	0.15323	0.25423	0.32889	0.14118	0.15571	0.15998	0.19983	0.16037	0.18015	0.18097	0.016955	0.10211	-1.675	-2.375	-2.7583	-2.3812	-2.7	-2.5625	-2.3771	-2.8083	-2.3667	-2.4833	-2.7271	-2.2271	-2.6188	-2.5146	-2.1229	-2.7583	-57.922	-110.399	204.412	21.873	-123.334	-62.592	117.326	-137.328	51.029	76.226	-58.230	-84.698	-119.853	172.768	-5.786	150.016	2.2462e-05	0.00023504	0.00019242	853.58	3.8297e-06	6.4818e-06	997.75	269.26	8.782e-07	8.062e-06	337.95	111.4	88.74	25.653	4.2075e-06	35.621	0.002164	0.0022809	0.00062615	856	2.1204e-05	2.4778e-05	1010.3	278.4	2.3974e-05	2.5087e-05	439.13	118.61	94.976	30.964	2.4894e-05	43.834	161.012	-97.927	-66.666	-129.407	-55.991	-41.630	-130.911	-124.059	-8.227	3.165	-125.585	-122.713	-119.808	-114.599	2.565	-118.630	-8191	255	
1553.449	1	1	0	0	0.30293	0.26027	0.14844	0.13571	0.14725	0.090953	0.15949	0.074547	0.28292	0.11538	0.080104	0.10942	0.077128	0.028339	0.27722	0.11872	-1.9729	-2.1792	-2.7146	-2.4479	-2.4958	-2.6063	-2.3021	-2.825	-2.3812	-2.0875	-2.7542	-2.1917	-2.5646	-2.7521	-1.925	-2.8563	43.785	80.719	26.489	152.611	-101.460	-138.540	198.288	-13.564	-68.086	119.863	-141.841	-4.550	124.771	138.778	183.101	-141.451	6.0909e-05	0.00066525	5.6747e-05	861.66	2.382e-06	1.2314e-05	1007.4	273.28	1.2968e-06	1.063e-05	340.35	111.29	89.286	25.591	4.3769e-06	35.515	0.002167	0.002265	0.00062734	859.8	2.1263e-05	2.5014e-05	1013.5	279.58	2.3918e-05	2.5201e-05	440.24	118.81	95.193	31.013	2.4899e-05	43.748	101.343	-73.330	-67.026	-129.773	23.786	101.913	-131.302	-124.427	34.495	-59.230	-126.898	-122.449	-119.940	-114.976	4.961	-118.040	-8191	255	
1553.545	1	1	0	0	0.17061	0.18203	0.22782	0.19618	0.12344	0.22496	0.095783	0.1907	0.12933	0.11855	0.10972	0.12529	0.085998	0.14438	0.17068	0.20622	-2.1708	-1.9833	-2.8354	-2.3875	-2.3458	-2.7875	-2.2438	-2.7104	-2.6312	-2.1813	-2.9958	-2.3479	-2.2854	-2.7875	-2.3042	-2.5687	198.457	-26.380	189.096	213.646	147.501	45.141	168.387	130.989	44.004	111.354	94.293	-17.875	-70.797	52.352	46.002	13.266	0.0002142	0.00061217	0.00026853	860.8	2.6799e-07	4.389e-06	1002	270.63	3.515e-06	6.4422e-06	333.31	110.76	88.547	25.048	6.6951e-06	34.908	0.0021657	0.0022961	0.00062619	859.89	2.1284e-05	2.4925e-05	1011.8	279.01	2.3915e-05	2.5162e-05	440	118.28	94.608	30.702	2.4984e-05	43.362	-87.622	-21.440	-52.072	-129.780	187.036	-5.947	-131.038	-124.225	18.852	-9.024	-126.054	-122.236	-119.623	-114.321	59.935	-118.147	-8191	255	
1553.664	1	1	0	0	0.22121	0.13106	0.31942	0.12369	0.072898	0.1557	0.1307	0.070969	0.029725	0.13304	0.31887	0.15958	0.1891	0.10707	0.046093	0.14314	-2.275	-2.2542	-3.1562	-2.5208	-2.3187	-2.9042	-2.4292	-2.7167	-2.7333	-2.1729	-2.9521	-2.5312	-2.3042	-2.8875	-2.3521	-2.6958	91.908	110.551	1.252	-93.003	18.327	139.095	35.421	-138.300	7.351	133.490	-37.569	-58.758	-110.470	-106.557	-66.683	84.162	0.00029837	0.00074818	0.00022809	855.19	3.1862e-06	2.8611e-06	996.18	267.91	6.2003e-06	9.382e-06	330.5	109.66	87.279	24.68	6.607e-06	34.315	0.0021733	0.002273	0.00062701	856.32	2.1293e-05	2.4545e-05	1008.2	276.8	2.3881e-05	2.5132e-05	438.88	117.23	93.796	30.387	2.515e-05	43.192	-86.479	174.027	-20.364	-129.416	-46.112	62.608	-131.011	-124.095	-14.764	5.509	-126.218	-122.055	-119.515	-113.647	50.029	-117.931	-8191	255	
1553.760	1	1	0	0	0.076887	0.10641	0.099987	0.23204	0.13735	0.10521	0.30313	0.076426	0.31643	0.34435	0.15988	0.22746	0.092975	0.03357	0.27449	0.14489	-2.4604	-2.0521	-2.7938	-2.5938	-2.1562	-3.0229	-2.4042	-2.5333	-2.5917	-2.0729	-2.7625	-2.4333	-2.2771	-2.8979	-2.2938	-2.4771	44.334	41.366	-30.712	115.170	65.053	173.838	72.950	-75.388	-107.818	-40.676	156.948	154.991	-3.229	12.326	-27.259	-134.331	0.00011463	0.00057897	0.0002421	848.1	3.8722e-06	7.2477e-06	995.54	267.93	3.6879e-06	8.7555e-06	330.61	110.76	88.728	25	3.7273e-06	34.967	0.0021532	0.0022894	0.00062581	851.79	2.1353e-05	2.4823e-05	1006.7	276.55	2.3958e-05	2.5073e-05	439.63	118.07	94.369	30.624	2.5344e-05	43.523	-81.560	-86.534	-57.124	-129.242	-12.206	137.600	-130.937	-124.090	-123.685	61.174	-126.256	-122.425	-119.786	-114.494	10.844	-118.696	-8191	255	
1553.856	1	1	0	0	0.074235	0.19096	0.13296	0.050471	0.20377	0.11485	0.22442	0.23981	0.050014	0.21713	0.19559	0.067825	0.17589	0.089522	0.15986	0.01843	-2.4729	-2.0667	-2.8083	-2.7208	-2.1562	-2.9813	-2.3958	-2.575	-2.8667	-2.1521	-2.7458	-2.7833	-2.2396	-2.9188	-2.425	-2.4708	32.192	168.015	-32.193	61.049	11.952	-93.859	207.689	54.474	-90.208	183.731	35.440	187.838	167.442	-65.477	-16.714	43.296	0.00013598	0.0005529	9.0953e-05	857.01	1.6176e-06	1.3056e-05	1003	270.98	3.3956e-06	5.2749e-06	337.2	111.62	89.04	25.365	3.6659e-06	35.823	0.0021574	0.0022826	0.00063564	857.24	2.1445e-05	2.4701e-05	1010.6	278.28	2.38e-05	2.5288e-05	441.12	118.86	94.92	31.027	2.5085e-05	43.923	-84.785	-41.822	-17.070	-129.545	74.106	-63.758	-131.208	-124.321	-60.358	-32.521	-127.102	-122.421	-119.619	-114.274	-76.151	-118.482	-8191	255	
1553.977	1	1	0	0	0.1518	0.17829	0.098386	0.27559	0.25882	0.13375	0.19736	0.18323	0.022063	0.16163	0.12728	0.066942	0.12369	0.25439	0.068227	0.066226	-2.4	-1.9896	-2.6771	-2.8354	-2.2417	-2.7979	-2.4896	-2.2854	-2.9021	-2.2271	-2.4833	-2.7625	-2.0521	-2.75	-2.2667	-2.3104	173.176	-3.242	138.390	129.714	-67.140	68.122	94.934	39.296	186.224	-89.976	-116.505	19.418	-116.131	31.594	145.713	125.901	0.00017503	0.00032173	0.00015137	861.44	2.0692e-06	1.164e-05	1003.7	270.85	5.731e-06	1.3733e-05	335.4	111.35	89.304	25.555	5.6978e-06	35.437	0.0021669	0.0022892	0.00063474	860.38	2.1336e-05	2.4985e-05	1013.3	279.07	2.3651e-05	2.5288e-05	442.69	118.78	95.032	31.028	2.5315e-05	43.763	-98.640	-97.067	15.618	-129.513	-33.843	-62.404	-131.057	-124.373	38.933	-62.500	-126.664	-122.525	-119.645	-114.604	-10.050	-118.517	-8191	255	
1554.048	1	1	0	0	0.10855	0.28906	0.24675	0.11143	0.24189	0.10294	0.26069	0.17168	0.32317	0.12062	0.43452	0.29966	0.23782	0.11562	0.12124	0.15301	-2.4729	-2.2021	-2.7479	-2.8854	-2.325	-2.7521	-2.7438	-2.2896	-2.9083	-2.4604	-2.4688	-2.7292	-2.0396	-2.7896	-2.6188	-2.2562	-61.304	-3.769	36.091	-125.427	116.610	102.049	62.259	-89.138	-135.173	163.190	-60.948	31.356	-98.023	-30.108	117.860	-36.732	0.00054412	0.00049798	0.00011822	862.57	1.479e-06	5.9197e-06	1003.4	270	5.708e-06	8.645e-06	332.98	110.88	88.456	25.15	2.1943e-06	35.172	0.0021635	0.0022927	0.00063579	860.42	2.1367e-05	2.5067e-05	1011.7	278.27	2.3885e-05	2.5264e-05	441.21	118.22	94.509	30.713	2.5038e-05	43.629	-129.770	-76.279	-49.791	-129.662	-57.254	171.479	-131.038	-124.303	-102.381	30.634	-126.804	-122.549	-119.492	-113.958	110.374	-117.744	-8191	255	
1554.144	1	1	0	0	0.044616	0.33109	0.12818	0.37921	0.32536	0.26086	0.069376	0.16444	0.046001	0.13302	0.26486	0.3053	0.042939	0.17952	0.18992	0.096451	-2.6521	-2.1063	-2.4	-2.9	-2.0271	-2.6312	-2.6875	-2.3292	-2.8146	-2.3083	-2.3542	-2.8292	-2.0208	-2.7062	-2.6854	-2.1146	202.863	166.026	62.120	96.188	47.871	201.163	-0.435	-4.058	-93.545	-84.766	-40.706	-14.128	-136.942	-2.601	113.695	153.897	0.00018541	0.00066587	7.4206e-05	855.32	8.8498e-07	2.08e-05	996.61	267.13	4.6894e-06	7.2406e-06	337.78	110.64	88.215	24.982	9.0106e-06	34.562	0.0021691	0.0022937	0.00063731	856	2.145e-05	2.4995e-05	1008	276.57	2.3965e-05	2.513e-05	441.27	118.11	94.254	30.592	2.5006e-05	43.344	-76.824	-47.656	-1.816	-129.459	-38.795	-41.636	-130.851	-124.169	-48.745	45.868	-126.527	-122.180	-119.895	-114.827	192.460	-118.893	-8191	255	
1554.265	1	1	0	0	0.25808	0.13789	0.28723	0.28952	0.10524	0.054437	0.13933	0.30631	0.10001	0.12363	0.17436	0.062816	0.091105	0.12379	0.15685	0.18515	-2.3125	-2.2313	-2.3125	-3.0271	-2.2271	-2.5292	-2.8542	-2.1521	-2.8354	-2.4688	-2.4542	-2.9333	-2.1229	-2.5896	-2.6896	-2.1	-103.189	193.832	-69.142	196.696	188.495	141.341	144.570	173.369	87.005	-59.721	-80.164	99.216	-57.268	193.887	-51.783	-9.195	0.00035701	0.00046937	0.00012254	855.67	2.2615e-06	4.7703e-06	1002.1	270.49	4.483e-06	1.0904e-05	330.79	111.31	88.562	25.05	5.4524e-06	35.151	0.0021738	0.0022894	0.00064086	855.27	2.1448e-05	2.5207e-05	1008.4	277.8	2.3837e-05	2.5157e-05	441.22	118.76	95.018	30.842	2.5018e-05	43.745	-64.333	156.669	-135.809	-129.548	-85.261	-67.287	-131.181	-124.391	69.218	-53.602	-126.393	-122.053	-119.416	-113.766	-5.253	-118.131	-8191	255	
1554.361	1	1	0	0	0.07468	0.13495	0.18916	0.16635	0.066396	0.0631	0.17307	0.35207	0.054575	0.10601	0.11144	0.14824	0.15638	0.22217	0.084123	0.015469	-2.4792	-2.5271	-2.2438	-3.0812	-2.3167	-2.5396	-2.8896	-2.1958	-2.8042	-2.6854	-2.2271	-2.9771	-2.2771	-2.3146	-2.8563	-2.1813	115.656	130.929	154.219	-19.184	-107.087	186.157	179.498	-33.048	-60.095	-72.911	8.898	56.303	40.698	92.524	-83.793	27.122	0.00030261	8.5263e-05	0.00011327	854.04	2.7958e-06	2.5805e-06	998.23	269.66	4.0837e-06	4.8138e-06	332.54	111.64	89.279	25.604	9.0285e-06	35.555	0.0021851	0.0022884	0.00063605	857.31	2.1375e-05	2.5192e-05	1012.9	278.86	2.403e-05	2.5173e-05	443.28	119.4	95.536	31.165	2.5168e-05	43.93	-130.977	135.474	-55.476	-129.311	-6.567	217.500	-130.872	-123.966	4.612	191.979	-125.796	-121.851	-119.562	-114.311	-2.014	-117.786	-8191	255	
1554.456	1	1	0	0	0.13682	0.25248	0.094154	0.097268	0.10295	0.18955	0.06542	0.085949	0.028908	0.094192	0.29122	0.2398	0.27823	0.069241	0.24235	0.23136	-2.4271	-2.8187	-2.3458	-2.9208	-2.4396	-2.5563	-2.9583	-2.2125	-2.6063	-2.8604	-1.9625	-2.9458	-2.3063	-2.3438	-2.8563	-2.2313	161.071	-118.314	57.881	-67.628	107.254	-39.000	204.360	118.460	171.047	12.003	22.720	201.273	88.353	-16.185	-108.711	-17.732	0.00027362	0.00034451	0.00013098	857.66	4.0745e-07	1.594e-05	1000.3	271.48	4.5835e-06	1.0679e-05	334.86	111.05	89.08	25.557	9.3933e-06	35.118	0.0022013	0.0022784	0.00063937	860.05	2.148e-05	2.5263e-05	1012.8	279.79	2.4054e-05	2.5224e-05	444.4	119	95.174	31.012	2.5073e-05	43.685	-89.271	-75.422	-38.469	-129.331	96.118	6.059	-130.816	-123.934	-26.279	33.740	-125.694	-122.063	-119.722	-114.073	-8.235	-118.029	-8191	255	
1554.576	1	1	0	0	0.085859	0.16226	0.15439	0.11935	0.21989	0.13151	0.25225	0.15772	0.18174	0.23583	0.22635	0.092463	0.090256	0.12778	0.039244	0.06468	-2.2083	-2.7438	-2.0729	-2.8833	-2.3771	-2.2167	-2.9979	-2.2375	-2.6	-2.8208	-1.9875	-2.7042	-2.5083	-2.2208	-2.7812	-2.2313	-42.081	-13.741	178.557	61.531	-36.538	109.332	103.897	-30.935	89.340	-91.148	-28.161	14.334	-38.980	-112.483	164.179	94.716	0.00030598	0.00037426	0.00019979	855.87	3.6617e-06	7.2355e-06	1001.4	269.6	6.9014e-06	8.306e-06	333.76	110.97	88.144	24.955	7.962e-06	35.28	0.0022061	0.0023004	0.00064287	857.45	2.1577e-05	2.5308e-05	1010.9	278.3	2.4148e-05	2.5216e-05	442.64	118.59	94.401	30.654	2.509e-05	43.455	-73.023	10.722	-33.260	-129.608	-74.179	-14.783	-131.111	-124.340	28.293	126.953	-125.884	-122.338	-119.356	-114.140	-40.930	-118.994	-8191	255	
1554.648	1	1	0	0	0.11496	0.21508	0.15701	0.096048	0.16395	0.076104	0.32742	0.062486	0.19343	0.049282	0.047885	0.040149	0.10704	0.1135	0.11405	0.15075	-2.1	-2.8146	-2.1771	-2.7021	-2.6917	-2.1917	-3.0271	-2.2104	-2.6021	-2.775	-2.0833	-2.6667	-2.5854	-2.2042	-2.8646	-2.3104	173.872	-47.358	13.753	186.748	205.120	-66.630	69.827	193.226	81.039	83.525	197.084	-3.346	142.440	134.393	172.813	147.119	7.8778e-05	0.00064795	7.6883e-05	854.31	4.6305e-06	1.1034e-05	995.88	268.55	4.754e-06	7.1817e-06	329.86	110.8	88.177	24.648	3.4373e-06	35	0.0021864	0.0022983	0.00064085	852.08	2.1508e-05	2.517e-05	1004.8	276.88	2.4356e-05	2.5252e-05	442.77	118.33	94.583	30.708	2.5282e-05	43.535	-74.185	-27.650	-75.989	-129.703	-14.183	-25.834	-131.116	-124.191	-73.975	-87.556	-126.912	-122.415	-119.700	-114.287	165.370	-118.455	-8191	255	
1554.744	1	1	0	0	0.2853	0.089822	0.14363	0.14324	0.23512	0.29796	0.22149	0.21397	0.11977	0.10537	0.12147	0.082208	0.20769	0.1315	0.20966	0.025999	-1.95	-2.8229	-2.0563	-2.5333	-2.5938	-2.0042	-2.9583	-2.3	-2.0646	-2.85	-2.1771	-2.5458	-2.5479	-2.2229	-2.8604	-2.2979	-102.095	-102.338	215.298	196.691	-138.790	-82.924	56.592	157.460	-88.265	-24.821	153.338	101.914	-103.325	156.125	46.925	115.519	0.00019956	0.00073671	9.2451e-05	848.93	2.5897e-06	8.4511e-06	996.35	269.14	9.8557e-06	7.5661e-06	330	110.37	88.855	25.185	7.4295e-06	35.264	0.0022013	0.0022925	0.00064191	851.16	2.1524e-05	2.5155e-05	1005.9	277.92	2.4392e-05	2.5363e-05	443.56	119.07	95.095	30.909	2.5557e-05	43.797	-140.487	-110.978	-84.683	-129.456	-16.755	-71.178	-131.128	-124.082	-6.183	18.701	-126.300	-122.469	-119.503	-113.764	-46.652	-117.859	-8191	255	
1554.840	1	1	0	0	0.082487	0.21499	0.10584	0.16262	0.12932	0.1638	0.15662	0.19746	0.032474	0.065797	0.21657	0.20542	0.014451	0.17708	0.071799	0.023448	-1.7917	-2.7271	-2.1917	-2.5729	-2.7687	-2.125	-2.8438	-2.3167	-2.2229	-2.7854	-2.2792	-2.3187	-2.7854	-2.1354	-2.5938	-2.6375	61.995	-120.782	-113.971	152.701	84.907	78.706	112.031	92.505	89.584	174.411	-125.694	193.347	134.181	162.173	154.146	73.103	0.00012366	8.2881e-05	0.00013336	851.83	2.4106e-06	5.4886e-06	999.37	271.2	6.9226e-06	9.0395e-06	337.77	111.81	89.858	25.774	1.0239e-05	35.87	0.0022219	0.0023154	0.00064757	854.33	2.157e-05	2.5533e-05	1009	279.57	2.4442e-05	2.5263e-05	445.75	119.9	96.058	31.303	2.5499e-05	43.976	-126.746	-20.539	-40.380	-129.404	-40.533	-55.539	-131.067	-124.019	147.073	89.839	-125.920	-122.204	-119.588	-114.720	-56.628	-118.095	-8191	255	
1554.936	1	1	0	0	0.2699	0.25083	0.20964	0.29119	0.17748	0.057528	0.21114	0.20097	0.12559	0.10517	0.057718	0.33963	0.29981	0.20925	0.2672	0.18885	-1.7771	-2.8812	-2.2479	-2.5438	-2.7104	-2.3458	-2.6875	-2.45	-2.2104	-2.7583	-2.4313	-2.3354	-2.6937	-2.1896	-2.5479	-2.7792	203.795	80.815	-74.064	142.931	91.418	123.999	193.354	-47.403	-23.201	-13.272	-56.320	64.831	-77.718	67.410	-84.458	107.865	0.00026722	0.00052443	0.00015138	856.06	3.6253e-06	6.132e-06	999.21	272.64	4.2666e-06	1.0704e-05	335.08	112.55	90.082	25.437	4.913e-06	34.936	0.0022157	0.002304	0.00064708	855.17	2.1549e-05	2.5497e-05	1007.1	279.57	2.4384e-05	2.5326e-05	445.07	119.69	95.731	31.164	2.538e-05	43.7	-48.100	185.930	-38.221	-129.666	-36.990	39.075	-131.189	-124.483	-17.254	40.387	-126.986	-122.358	-119.891	-114.896	-27.341	-118.609	-8191	255	
1555.057	1	1	0	0	0.079505	0.13141	0.050298	0.068659	0.14291	0.23316	0.23455	0.060711	0.023774	0.15567	0.094565	0.13802	0.18681	0.22537	0.043235	0.17895	-1.7354	-2.6813	-2.2354	-2.2979	-2.8229	-2.1896	-2.6562	-2.65	-2.0042	-2.8125	-2.2521	-2.3833	-2.8292	-2.1333	-2.5104	-2.6208	140.203	212.325	18.199	62.488	118.096	-116.279	-130.487	93.601	-26.376	-19.650	208.246	36.558	212.910	175.205	50.896	43.014	8.1784e-05	0.00013648	3.4129e-05	854.7	2.4101e-06	9.9974e-06	1001.6	271.17	4.1051e-06	1.5067e-05	336.27	111.97	89.097	25.245	4.4074e-06	35.301	0.002213	0.0023166	0.00064918	852.91	2.1576e-05	2.5429e-05	1007.2	278.47	2.4329e-05	2.5501e-05	445.58	119.33	95.131	30.874	2.5632e-05	43.689	-94.528	-29.351	37.758	-129.846	-104.668	29.262	-131.380	-124.536	-61.057	39.067	-126.499	-122.457	-119.986	-114.644	213.268	-117.960	-8191	255	
1555.153	1	1	0	0	0.1524	0.2679	0.13904	0.037789	0.26514	0.18296	0.19306	0.1852	0.25592	0.10958	0.15816	0.08582	0.16666	0.32551	0.10916	0.3046	-1.6625	-2.825	-2.5438	-2.2958	-2.8021	-2.1271	-2.5333	-2.8417	-1.9917	-2.8563	-2.5792	-2.2313	-2.8896	-2.4208	-2.4375	-2.6896	203.858	194.000	185.914	-87.758	151.533	196.370	113.989	156.000	155.634	79.088	185.823	-114.993	-88.539	34.924	89.175	163.648	0.00028333	0.00033452	7.9804e-05	852.12	3.3352e-06	9.4376e-06	1005.8	271.82	8.4421e-06	3.3016e-06	333.25	113.25	89.389	25.407	9.2137e-06	35.403	0.0022125	0.002322	0.0006437	850.8	2.1462e-05	2.5591e-05	1010	279.12	2.442e-05	2.5473e-05	444.3	120.32	96.063	31.215	2.5643e-05	44.031	-63.656	-108.975	15.463	-129.784	-24.535	66.545	-131.430	-124.447	-18.140	187.271	-126.408	-122.719	-119.570	-114.275	-31.794	-117.757	-8191	255	
1555.249	1	1	0	0	0.21178	0.29607	0.25578	0.15658	0.16084	0.41671	0.23722	0.27006	0.27463	0.31956	0.20914	0.15496	0.13922	0.19283	0.12223	0.096853	-1.5604	-2.7521	-2.5146	-2.3312	-2.8354	-2.4667	-2.5229	-2.7125	-2.4354	-2.3542	-2.5542	-2.2062	-2.7208	-2.4125	-2.1688	-2.9417	-99.453	34.151	95.174	162.552	-26.004	192.449	209.570	137.492	-119.869	42.960	-59.125	211.548	-120.895	-13.617	-126.889	-61.801	0.00028459	0.00031566	0.00013609	858.16	2.6665e-06	9.4592e-06	1011.3	273.15	6.9462e-06	5.2037e-06	342.77	114.78	90.543	25.823	5.8251e-06	36.357	0.0022079	0.0023239	0.00064001	856.46	2.1372e-05	2.5457e-05	1018.3	281.19	2.4187e-05	2.5479e-05	448.82	121.69	96.732	31.438	2.5382e-05	44.443	-42.147	-75.534	11.915	-129.815	-7.552	-46.412	-131.150	-124.331	-83.042	21.801	-127.169	-122.841	-119.469	-114.681	-71.066	-118.237	-8191	255	
1555.345	1	1	0	0	0.33955	0.21743	0.16045	0.13651	0.10813	0.033742	0.13471	0.19344	0.14557	0.069721	0.27415	0.33515	0.090625	0.19975	0.2823	0.076146	-1.7229	-2.5042	-2.6875	-2.2	-2.7938	-2.5104	-2.3021	-2.9	-2.2	-2.5833	-2.6146	-2.2271	-2.7667	-2.4521	-2.1583	-2.875	-0.278	-38.328	95.234	-5.339	89.457	-104.394	-127.003	147.578	-82.053	22.652	157.650	-68.852	184.683	201.783	159.741	-28.747	0.00030988	0.00064506	0.00043753	859.76	1.3122e-06	8.3323e-06	1009.2	273.73	3.0632e-06	4.523e-06	336.03	113.83	90.564	25.656	6.2924e-06	35.786	0.0022098	0.0023007	0.00063725	859.83	2.1398e-05	2.5228e-05	1022.5	281.77	2.3944e-05	2.5329e-05	446.48	121.33	96.662	31.229	2.5172e-05	44.193	-69.585	-80.302	0.451	-129.580	-118.839	52.453	-130.829	-124.038	-35.556	76.807	-126.356	-122.676	-119.895	-114.501	14.461	-118.576	-8191	255	
1555.442	1	1	0	0	0.20424	0.15804	0.05143	0.10489	0.16165	0.22169	0.13073	0.2434	0.11295	0.30433	0.33781	0.2196	0.10593	0.26511	0.094292	0.10293	-1.7042	-2.2958	-2.6354	-2.175	-2.7229	-2.8125	-2.3063	-2.9583	-2.5729	-2.5146	-2.8563	-2.2042	-2.6125	-2.6521	-1.9958	-3.0625	148.624	46.066	-6.126	143.071	-53.230	146.334	79.321	65.246	101.879	90.334	-85.585	-31.416	-103.683	-65.688	-8.625	-75.982	0.00020625	0.00022924	0.00012084	859.88	2.498e-06	2.9245e-06	1013.4	273.34	8.9842e-06	9.7481e-06	339.61	112.93	89.137	24.989	1.5001e-06	35.518	0.0021903	0.0023121	0.00063589	860.64	2.1439e-05	2.5054e-05	1023	280.73	2.4313e-05	2.5259e-05	444.45	120.33	95.728	30.818	2.5106e-05	43.715	-75.243	113.222	-44.274	-129.525	16.872	-26.144	-131.097	-124.009	3.887	86.048	-126.379	-122.152	-119.882	-114.220	31.702	-118.269	-8191	255	
1555.538	1	1	0	0	0.33752	0.40978	0.08377	0.2151	0.34044	0.18264	0.42667	0.18625	0.21688	0.22991	0.091731	0.10755	0.054545	0.10125	0.13863	0.12559	-2.0083	-2.2542	-2.75	-2.3833	-2.4729	-2.7958	-2.2438	-2.9979	-2.4458	-2.2792	-2.8354	-2.1583	-2.5667	-2.7042	-2.1917	-2.7604	47.534	-15.049	54.730	154.568	80.104	163.243	156.418	205.254	-2.476	73.296	-133.218	55.878	186.220	169.797	-131.853	-106.703	0.00058919	0.00059642	0.0002409	851.56	3.555e-06	8.6696e-06	1008	268.89	3.5292e-06	2.0508e-06	332.79	111.79	87.955	24.634	8.1729e-06	35.11	0.0021859	0.00231	0.00063012	853.84	2.1288e-05	2.4966e-05	1016.9	277.01	2.4028e-05	2.5242e-05	442.62	119.17	94.465	30.471	2.5065e-05	43.472	-63.642	-141.787	-40.236	-129.417	-22.289	27.205	-131.078	-124.165	-89.714	201.539	-126.350	-122.385	-119.399	-113.911	103.743	-117.711	-8191	255	
1555.657	1	1	0	0	0.0325	0.12784	0.062724	0.35092	0.31598	0.15972	0.16646	0.10158	0.51477	0.20754	0.12142	0.23844	0.15103	0.2327	0.21443	0.088699	-2.1917	-2.3521	-2.9292	-2.3417	-2.4917	-2.875	-2.3563	-2.7646	-2.6042	-2.1833	-2.825	-2.2146	-2.3104	-2.6875	-2.2708	-2.6312	-140.403	124.495	-59.374	179.920	109.059	137.764	-58.913	213.991	7.088	-91.562	-4.697	12.047	153.539	-52.660	-113.569	191.137	0.00030442	0.00049975	0.0002683	847.39	1.0699e-06	9.0736e-06	1001.1	266.98	8.8617e-06	1.2065e-05	331.63	111	87.436	24.963	6.7664e-06	34.734	0.0021836	0.002295	0.00062862	850.52	2.1363e-05	2.4786e-05	1013.9	275.77	2.3879e-05	2.5133e-05	440.82	118.91	94.37	30.604	2.4927e-05	43.61	-90.744	-27.450	-48.510	-129.395	206.983	-122.827	-130.936	-124.076	107.107	27.897	-127.018	-122.432	-119.439	-114.342	-52.422	-117.930	-8191	255	
1555.753	1	1	0	0	0.2887	0.12861	0.058673	0.34067	0.13322	0.19598	0.03581	0.068808	0.30187	0.1931	0.027302	0.056431	0.04797	0.12536	0.2097	0.17713	-2.3042	-2.1042	-2.8333	-2.4729	-2.3104	-2.7104	-2.1833	-2.65	-2.6667	-2.2042	-2.8604	-2.3354	-2.4125	-2.8021	-2.2521	-2.5021	122.656	183.021	-0.840	-123.355	-13.683	-35.107	-114.126	-25.829	178.032	-74.729	-115.226	158.161	-57.780	127.698	-83.535	66.577	0.00022416	0.00038708	6.3792e-05	849.08	9.8065e-07	7.0204e-06	999.32	267.83	1.7887e-06	1.9846e-06	334.11	111.31	88.41	24.57	3.9451e-06	34.588	0.0021734	0.0022908	0.00063243	851.25	2.1385e-05	2.4745e-05	1013.9	276.38	2.3752e-05	2.5099e-05	441.21	119.04	94.223	30.449	2.5102e-05	43.49	-54.875	-32.077	43.366	-129.354	-64.838	-132.868	-130.774	-123.996	-5.657	4.461	-126.297	-121.941	-119.548	-113.994	-103.539	-117.805	-8191	255	
1555.849	1	1	0	0	0.20708	0.12814	0.082236	0.22525	0.26137	0.037436	0.1815	0.14653	0.16398	0.19538	0.17967	0.092309	0.015326	0.1144	0.090538	0.21962	-2.3542	-2.1146	-2.7833	-2.4875	-2.1958	-2.85	-2.5333	-2.6146	-2.6625	-2.125	-2.8604	-2.45	-2.1813	-2.7479	-2.3625	-2.4729	149.239	-88.176	-81.681	182.689	-63.133	74.686	165.895	10.035	106.619	-88.280	21.780	-78.822	-110.252	144.075	80.122	214.396	0.00039124	0.00051272	5.9073e-05	845.38	2.5013e-06	8.8628e-07	997.62	266.34	9.1028e-06	9.4634e-06	332.4	109.61	86.656	24.646	5.3663e-06	34.578	0.0021432	0.0022912	0.00062818	849.05	2.1262e-05	2.48e-05	1010.5	275.77	2.3815e-05	2.5056e-05	438.84	118.19	93.608	30.278	2.5055e-05	43.144	-19.333	-102.941	-7.026	-129.234	-58.415	149.591	-130.867	-124.005	-33.520	9.087	-126.855	-121.767	-118.888	-113.936	3.906	-118.573	-8191	255	
1555.945	1	1	0	0	0.17499	0.20707	0.28221	0.21277	0.215	0.091706	0.092118	0.094603	0.16916	0.14774	0.22235	0.072234	0.17396	0.23299	0.061148	0.25643	-2.4271	-2.1083	-2.6542	-2.5667	-2.3292	-2.8542	-2.3708	-2.2792	-2.7292	-1.9854	-2.7792	-2.6312	-2.2521	-2.8854	-2.3521	-2.3542	43.340	30.087	-125.639	69.406	-80.689	-32.629	8.525	205.881	125.294	-60.665	11.633	-72.967	197.364	-96.679	195.993	-82.025	7.9048e-05	0.00046587	0.00018586	842.15	5.2413e-06	7.9135e-06	991.47	264.23	4.1215e-06	1.3281e-06	329.91	110.11	86.693	24.219	6.3904e-06	34.214	0.0021515	0.0022701	0.00062853	845.43	2.1328e-05	2.4558e-05	1004.9	273.8	2.3664e-05	2.5009e-05	438.68	117.41	92.981	30.042	2.524e-05	42.82	210.431	-111.646	50.445	-129.235	-22.372	-59.568	-130.864	-123.860	-3.685	201.420	-125.724	-122.178	-119.491	-114.796	-3.731	-117.468	-8191	255	
1556.041	1	1	0	0	0.063761	0.082828	0.16418	0.09846	0.18883	0.13858	0.31903	0.21212	0.030157	0.084143	0.32589	0.33032	0.11491	0.076015	0.17152	0.18179	-2.6042	-2.2188	-2.7292	-2.9313	-2.2271	-2.9313	-2.5687	-2.2104	-2.9646	-2.1625	-2.65	-2.6833	-2.1646	-2.6125	-2.5854	-2.325	-19.958	120.921	210.575	117.697	-139.461	-18.183	163.047	9.643	210.852	121.353	-62.556	186.295	110.076	15.004	72.399	-108.586	0.00029499	0.00064739	0.00019507	836.15	1.4242e-06	9.3038e-06	982.01	264.15	2.2895e-06	7.4678e-06	326.39	109.13	86.447	24.652	1.3916e-06	34.296	0.0021558	0.0022739	0.00063175	840.83	2.1163e-05	2.4676e-05	997.32	272.22	2.3713e-05	2.4951e-05	436.58	116.93	92.973	30.069	2.4997e-05	42.781	-126.218	-18.794	-87.987	-129.201	-67.140	-60.494	-130.637	-124.167	-109.483	35.898	-126.570	-121.784	-119.481	-114.359	-126.669	-118.197	-8191	255	
1556.137	1	1	0	0	0.12074	0.21133	0.22361	0.35272	0.12527	0.16583	0.16914	0.24962	0.10005	0.060197	0.071465	0.1715	0.091619	0.14562	0.36237	0.23528	-2.4896	-2.0792	-2.5333	-2.9854	-2.2687	-2.775	-2.6729	-2.3167	-2.7812	-2.2771	-2.4021	-2.6292	-1.9958	-2.7583	-2.5354	-2.1167	-71.020	205.679	97.707	156.663	-124.905	-71.626	-131.230	-137.315	85.621	53.122	29.364	121.843	-67.988	57.216	-125.883	-124.719	0.00042728	0.00044329	0.00011795	840.7	1.5833e-06	1.155e-05	982.67	264.98	6.6144e-06	3.4807e-06	328.93	109.83	87.269	24.972	8.5299e-06	34.266	0.00214	0.0022987	0.00063237	840.5	2.1202e-05	2.4744e-05	995.5	273.18	2.3642e-05	2.4883e-05	436.31	117.15	93.328	30.438	2.5084e-05	42.989	-122.962	-121.321	14.889	-129.540	-8.345	27.464	-130.776	-123.977	42.033	-21.905	-126.057	-122.265	-119.639	-114.281	10.124	-118.639	-8191	255	
1556.234	1	1	0	0	0.015869	0.042868	0.084755	0.1285	0.074909	0.29054	0.1471	0.14133	0.23082	0.095727	0.36547	0.20432	0.28454	0.092312	0.1166	0.28308	-2.3083	-2.1208	-2.3604	-2.9521	-2.1458	-2.5958	-2.5	-2.1813	-2.9125	-2.2875	-2.3417	-2.8146	-2.2646	-2.5104	-2.6396	-2.1937	214.752	195.631	51.383	-24.966	-96.452	200.758	181.227	-10.395	95.825	-22.609	193.506	-137.363	152.266	163.592	-118.455	-5.643	0.0003013	0.0010909	0.00025309	841.63	1.6921e-06	1.6709e-06	987.66	266.2	4.7624e-06	1.1682e-05	326.09	110	87.173	25.088	7.2736e-06	35.045	0.0021444	0.0022907	0.00063146	841.18	2.119e-05	2.509e-05	995.82	274.11	2.3756e-05	2.5138e-05	438.18	117.5	93.657	30.431	2.4974e-05	43.048	-92.520	28.457	-36.724	-129.480	-51.674	-120.134	-131.112	-124.440	-38.586	28.281	-126.913	-122.106	-119.366	-114.334	100.008	-117.598	-8191	255	
1556.354	1	1	0	0	0.19754	0.18924	0.16165	0.26082	0.38655	0.31574	0.13682	0.12186	0.17696	0.14997	0.21189	0.063621	0.033209	0.10968	0.23657	0.26267	-2.5271	-2.2771	-2.4521	-2.8771	-2.1667	-2.7812	-2.9042	-2.1375	-2.9021	-2.5042	-2.3208	-2.8604	-2.1771	-2.5458	-2.5708	-2.0729	106.387	53.351	105.461	87.650	48.207	-131.431	149.411	77.589	-3.406	-27.706	-57.531	-75.843	146.315	56.753	163.002	167.181	0.0002237	0.00064063	0.00016143	836.03	3.6441e-06	8.3933e-06	977.09	265.44	6.7466e-07	6.3993e-06	329.35	109	86.957	24.653	6.287e-06	34.195	0.0021405	0.0022783	0.00063537	838.48	2.1233e-05	2.4903e-05	990.03	272.87	2.3799e-05	2.5038e-05	435.43	116.6	93.276	30.171	2.4981e-05	42.877	-109.990	-140.565	-82.750	-129.430	-43.132	0.737	-130.948	-124.288	-58.008	-17.706	-126.574	-122.738	-119.207	-114.336	-41.827	-118.336	-8191	255	
1556.449	1	1	0	0	0.18753	0.15561	0.13119	0.38807	0.35735	0.23235	0.11465	0.12774	0.14054	0.17665	0.055018	0.085372	0.20188	0.15505	0.13493	0.097918	-2.3438	-2.4542	-2.1667	-3.0729	-2.0687	-2.3854	-2.8646	-2.0625	-2.8042	-2.5187	-2.2458	-2.8708	-2.225	-2.2542	-2.8375	-2.1188	48.785	54.875	-71.270	171.184	-48.809	50.051	206.308	214.500	121.356	-38.986	8.385	157.892	90.202	175.346	-35.663	59.712	0.00032967	0.0006767	0.00013172	833.61	3.1903e-06	4.0241e-06	977.42	262.22	5.8889e-06	5.1438e-06	325.03	108.32	86.259	23.95	9.5119e-06	33.748	0.0021527	0.0022932	0.00063583	836.08	2.136e-05	2.4933e-05	987.52	271.04	2.3907e-05	2.5125e-05	433.74	115.74	92.225	29.86	2.4761e-05	42.217	-119.729	-80.860	-90.697	-129.348	-85.506	36.460	-130.927	-124.150	-45.007	117.431	-126.862	-122.455	-119.640	-114.975	46.502	-118.628	-8191	255	
1556.545	1	1	0	0	0.12816	0.12454	0.19508	0.14139	0.13722	0.066484	0.20065	0.090251	0.13083	0.081386	0.16864	0.17624	0.15839	0.42319	0.3315	0.10886	-2.3792	-2.6979	-2.1646	-2.9375	-2.2833	-2.4458	-2.7917	-2.1646	-2.4458	-2.6708	-2.25	-2.9333	-2.4875	-2.2979	-2.9188	-2.2979	184.529	183.825	137.541	76.458	-105.491	-69.488	-99.241	-140.703	109.364	-99.919	19.746	-128.504	-116.890	76.491	-27.986	55.194	0.00013978	0.00037555	4.1368e-05	832.8	3.8325e-06	7.5424e-06	977.22	263.64	3.7717e-06	7.833e-06	329.79	108.1	86.771	24.253	3.306e-06	34.226	0.0021603	0.0022871	0.00063282	831.89	2.1337e-05	2.5067e-05	985.77	270.37	2.412e-05	2.517e-05	434.5	115.84	92.47	29.901	2.4899e-05	42.56	2.958	-33.735	-38.418	-129.647	17.476	-60.017	-131.152	-124.394	81.918	2.485	-126.997	-122.468	-119.889	-114.718	212.169	-118.127	-8191	255	
1556.618	1	1	0	0	0.23513	0.06472	0.42749	0.18366	0.27676	0.341	0.12014	0.23691	0.14039	0.32763	0.28585	0.10373	0.2296	0.1599	0.14173	0.43074	-2.2	-2.6542	-2.1	-2.8833	-2.3521	-2.3625	-2.9792	-2.1542	-2.475	-2.8875	-2.0396	-2.7521	-2.5958	-2.3583	-2.9146	-2.175	-86.329	-125.631	187.275	-37.552	77.559	102.572	-106.950	107.997	-137.271	-6.639	114.569	114.435	-135.499	82.582	194.026	2.815	0.00034405	0.00052881	6.1613e-05	833.79	2.4389e-06	5.0819e-06	981.32	263.16	7.5502e-06	5.9653e-06	325.32	108.48	86.747	24.178	5.3317e-06	34.417	0.0021819	0.0022756	0.00063465	834.38	2.143e-05	2.5165e-05	988.17	271.63	2.4093e-05	2.4916e-05	434.29	116.43	92.639	30.213	2.501e-05	42.745	-56.210	14.816	-96.350	-129.523	-32.332	53.988	-131.250	-124.009	-12.592	7.318	-126.829	-122.195	-119.573	-114.237	23.638	-118.102	-8191	255	
1556.737	1	1	0	0	0.16102	0.15712	0.12821	0.087429	0.16747	0.14063	0.13306	0.12655	0.14082	0.091	0.026174	0.21645	0.22321	0.20827	0.03037	0.14226	-1.9	-2.8146	-2.075	-2.7562	-2.5146	-2.1854	-3.0396	-2.45	-2.3229	-2.8125	-2.2292	-2.7708	-2.6125	-2.2146	-2.8021	-2.325	103.988	87.801	-120.479	-52.854	-126.232	88.767	112.166	178.662	-55.140	-2.365	67.652	-39.804	-11.413	73.674	-91.385	-21.792	0.00034486	0.00019895	8.4592e-05	836.41	1.7215e-06	7.7783e-06	980.17	263.89	8.3052e-06	1.651e-06	326.05	109.02	87.034	24.503	3.8397e-06	34.43	0.0021813	0.0022643	0.00063218	837.02	2.1333e-05	2.4977e-05	991.2	272.4	2.4088e-05	2.5009e-05	435.24	116.52	93.067	30.193	2.4985e-05	42.857	-79.156	-65.120	24.813	-129.520	-102.219	136.793	-130.952	-124.134	-44.969	-106.981	-126.286	-122.526	-119.479	-114.781	-84.490	-117.766	-8191	255	
1556.833	1	1	0	0	0.23973	0.24524	0.15797	0.02779	0.10699	0.1775	0.093111	0.16242	0.27901	0.36181	0.041766	0.04971	0.22388	0.18574	0.26173	0.06391	-1.9458	-2.7167	-2.1667	-2.7562	-2.7146	-2.0333	-2.7625	-2.475	-2.2167	-2.7271	-2.3042	-2.5563	-2.6708	-2.0792	-2.8333	-2.4625	156.376	60.167	-0.358	151.858	122.011	30.116	89.528	176.787	61.019	80.305	109.283	113.092	22.120	-13.784	87.560	-22.473	0.00016719	0.00098872	0.00022271	834.56	2.8916e-06	9.5849e-06	978.07	262.88	4.292e-06	8.2441e-06	321.19	108.31	86.303	24.152	2.9765e-06	34.132	0.00219	0.0022711	0.00063875	836.45	2.1233e-05	2.4993e-05	987.79	271.99	2.4125e-05	2.5063e-05	435.4	115.93	92.333	29.862	2.5008e-05	42.409	-117.675	-47.334	-13.813	-129.452	-13.259	95.494	-131.149	-123.983	-84.184	-30.406	-126.897	-122.355	-119.396	-114.679	-10.482	-117.424	-8191	255	
1556.929	1	1	0	0	0.37009	0.17274	0.26191	0.1627	0.13997	0.14929	0.31985	0.040061	0.11251	0.086584	0.17663	0.28146	0.26013	0.11273	0.17621	0.23473	-1.8229	-2.7979	-2.2125	-2.5708	-2.7771	-2.3333	-2.7917	-2.3937	-2.2375	-2.9437	-2.3896	-2.3438	-2.7979	-2.2438	-2.4688	-2.4854	50.506	-74.254	-63.879	161.187	47.931	38.116	211.214	-8.409	200.037	25.071	104.472	147.911	-78.748	-18.984	-91.259	-106.511	0.00016518	0.0005606	0.00014882	828.81	2.4424e-06	1.1028e-05	971.63	261.91	2.4128e-06	9.095e-06	323.15	107.41	85.387	24.116	3.5456e-06	33.73	0.002175	0.0022739	0.00064042	830.59	2.132e-05	2.5178e-05	982.73	269.65	2.4095e-05	2.4996e-05	432.6	115.26	91.618	29.659	2.5268e-05	42.055	-110.613	-141.383	-49.984	-129.498	-54.557	-14.277	-131.027	-123.908	-4.201	26.344	-126.218	-122.196	-119.411	-114.377	79.496	-117.070	-8191	255	
1557.025	1	1	0	0	0.26803	0.13171	0.29524	0.27319	0.22258	0.44366	0.10975	0.048949	0.080885	0.065907	0.15664	0.25336	0.20797	0.10257	0.012694	0.27652	-1.9271	-2.8438	-2.3271	-2.6104	-2.9313	-2.1917	-2.8146	-2.7562	-2.25	-2.9354	-2.1708	-2.1708	-2.9833	-2.0625	-2.6667	-2.9146	107.413	175.237	167.663	148.007	100.781	185.230	128.327	76.928	56.226	-76.963	95.223	42.370	176.961	33.428	-130.525	160.354	0.0002254	0.00031144	0.00018823	823.56	2.1155e-06	3.8157e-06	966.28	259.15	6.5958e-06	3.9035e-06	317.09	106.53	85.015	24.283	5.8845e-06	33.539	0.0021776	0.0022789	0.00064531	827.21	2.1278e-05	2.4989e-05	980.6	268.88	2.4071e-05	2.5201e-05	433.98	115.17	91.7	29.807	2.5449e-05	42.142	-66.812	88.337	-17.281	-129.172	-94.444	18.666	-130.868	-124.021	-4.873	-76.528	-125.527	-122.057	-119.488	-114.619	-116.863	-117.514	-8191	255	
1557.146	1	1	0	0	0.10149	0.11839	0.1183	0.037259	0.043527	0.060966	0.36149	0.26385	0.15203	0.25597	0.23225	0.25958	0.24678	0.23811	0.056818	0.19776	-1.7938	-2.7938	-2.4271	-2.5542	-2.9896	-2.2604	-2.6417	-2.8063	-2.1562	-2.9271	-2.5333	-2.1021	-2.8458	-2.2604	-2.4938	-2.8208	137.050	206.124	-77.989	-119.722	-119.384	44.519	206.294	134.709	-29.234	194.675	161.266	92.349	147.177	23.343	199.569	196.791	0.00030265	0.00020863	0.00022968	827.44	1.7575e-06	1.5927e-06	973.95	262.63	2.7876e-06	9.6131e-06	325.67	108.3	86.356	24.317	1.0889e-05	34.13	0.0021913	0.0022903	0.00063863	829.2	2.1173e-05	2.5402e-05	983.03	270.33	2.4188e-05	2.5213e-05	434.36	116	92.304	29.93	2.528e-05	42.537	-25.923	-90.695	-22.376	-129.415	-8.684	-118.425	-131.031	-124.054	-6.538	52.783	-126.359	-122.364	-119.461	-114.421	-3.424	-118.077	-8191	255	
1557.218	1	1	0	0	0.13041	0.15247	0.056817	0.29211	0.19968	0.19233	0.046021	0.1599	0.12706	0.088206	0.23686	0.092503	0.088078	0.086475	0.12139	0.125	-1.6125	-2.6833	-2.625	-2.5521	-3.0396	-2.1417	-2.5375	-2.7896	-2.0187	-2.8729	-2.5792	-2.1708	-2.9604	-2.2583	-2.2667	-2.875	141.606	47.762	41.398	193.243	-47.718	174.421	203.066	90.717	107.792	-65.358	-65.457	-70.102	-89.105	105.778	-31.850	200.109	0.00024111	0.00042127	0.00026445	828.58	1.0758e-06	9.7984e-06	971.18	261.48	4.3232e-06	6.3227e-06	328.87	107.74	85.536	24.131	9.6636e-06	33.179	0.0021878	0.0022908	0.00063612	829.69	2.1155e-05	2.5107e-05	982.96	270.31	2.3928e-05	2.5247e-05	433.72	115.43	91.805	29.782	2.523e-05	42.076	-106.138	-51.920	-81.883	-129.418	-99.430	41.941	-131.037	-124.089	-55.428	11.339	-126.915	-122.509	-119.579	-114.192	-40.201	-117.155	-8191	255	
1557.338	1	1	0	0	0.17262	0.11755	0.23343	0.052818	0.07767	0.084888	0.1424	0.32804	0.14781	0.084345	0.11266	0.11032	0.048685	0.084342	0.32533	0.01311	-1.75	-2.5833	-2.6042	-2.3042	-2.8438	-2.5333	-2.4833	-2.8125	-2.1646	-2.8458	-2.8812	-2.2979	-2.8333	-2.3688	-2.5417	-2.7792	155.539	-95.509	-138.641	180.731	-101.421	-134.971	147.632	-63.998	-121.505	-71.601	148.787	-102.041	-65.215	135.665	161.628	97.603	0.00016647	0.00036914	0.00011998	827.15	3.5983e-06	5.8118e-06	970.34	260.56	8.6154e-06	6.1436e-06	317.31	106.96	84.906	23.585	1.3464e-05	33.533	0.0021786	0.0022923	0.00063247	828.43	2.1348e-05	2.5085e-05	981.21	268.77	2.408e-05	2.5319e-05	431.75	114.74	91.225	29.53	2.5152e-05	41.753	178.480	-32.580	120.884	-129.551	-69.189	71.008	-130.994	-123.976	-10.545	147.011	-125.427	-122.169	-119.243	-114.406	34.276	-117.382	-8191	255	
1557.435	1	1	0	0	0.21977	0.19623	0.07185	0.16211	0.11373	0.29039	0.065638	0.067263	0.096861	0.1786	0.28935	0.045966	0.052818	0.24099	0.098783	0.070838	-1.925	-2.5354	-2.7958	-2.2521	-3.0167	-2.5333	-2.4188	-2.7708	-2.2062	-2.4375	-2.6479	-2.2062	-2.5708	-2.5896	-2.2021	-2.9896	-108.415	117.120	97.334	83.664	85.612	206.042	22.160	-78.049	131.024	-126.952	-73.175	-3.963	18.334	197.303	-69.077	146.830	0.00038967	0.00014398	0.00012148	822.74	2.0038e-06	3.8217e-06	962.8	258.12	4.9835e-06	8.3705e-06	319.62	105.89	84.533	23.792	3.1026e-06	33.168	0.0021787	0.0022906	0.00063455	826.39	2.126e-05	2.4919e-05	979.3	267.23	2.4044e-05	2.5385e-05	430.13	114.08	90.783	29.348	2.5079e-05	41.761	-74.847	-0.935	-132.119	-129.394	15.440	-83.819	-130.756	-123.802	100.393	-31.913	-125.886	-122.300	-119.835	-114.160	25.018	-117.690	-8191	255	
1557.531	1	1	0	0	0.011499	0.20823	0.086748	0.21312	0.13865	0.016888	0.085456	0.22839	0.28914	0.17615	0.11426	0.13666	0.13943	0.08678	0.12903	0.23036	-1.7083	-2.4417	-2.6208	-2.2875	-2.6333	-2.5667	-2.2979	-2.9625	-2.3354	-2.4771	-2.6625	-2.2812	-2.6021	-2.5979	-2.1958	-2.9354	142.563	-75.373	-117.234	121.042	107.729	-35.043	25.021	86.586	-3.426	76.985	113.405	57.567	177.958	-129.229	94.887	-133.035	0.00016511	0.00079263	0.00023583	825.88	1.1944e-06	7.9847e-06	972.78	261.1	5.1485e-06	5.9173e-06	323.27	107.55	85.298	24.029	2.3282e-06	33.53	0.0021822	0.0022945	0.00063185	827.4	2.1383e-05	2.5059e-05	982.7	268.27	2.4049e-05	2.5237e-05	430.88	115.07	91.285	29.604	2.5028e-05	42.131	-67.713	-85.737	10.452	-129.466	-26.759	-34.904	-131.137	-124.194	9.333	38.570	-125.977	-122.329	-119.871	-115.194	-97.965	-117.661	-8191	255	
1557.627	1	1	0	0	0.11061	0.072648	0.17848	0.07464	0.038092	0.16991	0.19281	0.13638	0.23606	0.13301	0.097198	0.2182	0.20801	0.04271	0.28369	0.045546	-1.9062	-2.3833	-2.8187	-2.3	-2.6146	-2.6583	-2.2354	-2.9396	-2.4792	-2.1646	-2.8104	-2.1729	-2.7042	-2.7667	-2.0875	-2.7271	10.339	79.795	-99.190	101.459	-5.563	2.250	166.959	-120.536	5.443	133.627	16.323	108.874	-51.539	-141.308	177.668	108.744	0.00022451	0.00051093	0.00010088	831.83	1.6685e-06	5.6315e-06	978.37	262.39	6.9744e-06	6.697e-06	322.61	107.79	86.226	23.86	7.1783e-06	33.851	0.002182	0.0022913	0.0006273	831.77	2.1468e-05	2.499e-05	986.24	270.29	2.3926e-05	2.5331e-05	433.09	115.43	92.146	29.771	2.5129e-05	42.155	-120.356	162.056	156.813	-129.581	-20.752	-35.125	-131.264	-124.243	-25.742	206.183	-126.376	-122.441	-119.203	-114.556	105.645	-118.181	-8191	255	
#DATA ENDS
