BOXY.EXE: ISS Imagent and Oximeter Data Acquisition Program Version 0.80
Ascii Record File

#ACQ INFORMATION
2  Detector Channels 
16  External MUX Channels 
1  Auxiliary Channels 
5000  Waveform (CCF) Frequency (Hz)
1  Waveforms Skipped 
30  Waveforms Averaged 
1  Cycles Averaged 
16  Acquisitions per Waveform 
10.0806  Updata Rate (Hz) 

#FILE INFORMATION
TRUE -- External MUX Channel results are PARSED.
FALSE -- AC DC and Phase are NOT grouped.
TRUE -- Companion Program Settings File CREATED.
FALSE -- AC data not excluded
FALSE -- DC data not excluded
FALSE -- Phase data not excluded
FALSE -- Auxillary Chn. data not excluded
Tab delimiters

#CALIBRATION STATE
TRUE -- Waveform Calibration Values APPLIED.


#AUX CALIBRATION VALUES
Val Type	aux-1	

Term	1.0000e+00	
Factor	0.0000e+00	


#WF CALIBRATION VALUES
A = Detector Channel
Val Type	A-AC1	A-AC2	A-AC3	A-AC4	A-AC5	A-AC6	A-AC7	A-AC8	A-AC9	A-AC10	A-AC11	A-AC12	A-AC13	A-AC14	A-AC15	A-AC16	A-DC1	A-DC2	A-DC3	A-DC4	A-DC5	A-DC6	A-DC7	A-DC8	A-DC9	A-DC10	A-DC11	A-DC12	A-DC13	A-DC14	A-DC15	A-DC16	A-Ph1	A-Ph2	A-Ph3	A-Ph4	A-Ph5	A-Ph6	A-Ph7	A-Ph8	A-Ph9	A-Ph10	A-Ph11	A-Ph12	A-Ph13	A-Ph14	A-Ph15	A-Ph16	

Term	0.00000e+00	0.00000e+00	0.00000e+00	0.00000e+00	0.00000e+00	0.00000e+00	0.00000e+00	0.00000e+00	0.00000e+00	0.00000e+00	0.00000e+00	0.00000e+00	0.00000e+00	0.00000e+00	0.00000e+00	0.00000e+00	0.00000e+00	0.00000e+00	0.00000e+00	0.00000e+00	0.00000e+00	0.00000e+00	0.00000e+00	0.00000e+00	0.00000e+00	0.00000e+00	0.00000e+00	0.00000e+00	0.00000e+00	0.00000e+00	0.00000e+00	0.00000e+00	0.00000e+00	0.00000e+00	0.00000e+00	0.00000e+00	0.00000e+00	0.00000e+00	0.00000e+00	0.00000e+00	0.00000e+00	0.00000e+00	0.00000e+00	0.00000e+00	0.00000e+00	0.00000e+00	0.00000e+00	0.00000e+00	
Factor	1.00000e+00	1.00000e+00	1.00000e+00	1.00000e+00	1.00000e+00	1.00000e+00	1.00000e+00	1.00000e+00	1.00000e+00	1.00000e+00	1.00000e+00	1.00000e+00	1.00000e+00	1.00000e+00	1.00000e+00	1.00000e+00	1.00000e+00	1.00000e+00	1.00000e+00	1.00000e+00	1.00000e+00	1.00000e+00	1.00000e+00	1.00000e+00	1.00000e+00	1.00000e+00	1.00000e+00	1.00000e+00	1.00000e+00	1.00000e+00	1.00000e+00	1.00000e+00	X	X	X	X	X	X	X	X	X	X	X	X	X	X	X	X	

B = Detector Channel
Val Type	B-AC1	B-AC2	B-AC3	B-AC4	B-AC5	B-AC6	B-AC7	B-AC8	B-AC9	B-AC10	B-AC11	B-AC12	B-AC13	B-AC14	B-AC15	B-AC16	B-DC1	B-DC2	B-DC3	B-DC4	B-DC5	B-DC6	B-DC7	B-DC8	B-DC9	B-DC10	B-DC11	B-DC12	B-DC13	B-DC14	B-DC15	B-DC16	B-Ph1	B-Ph2	B-Ph3	B-Ph4	B-Ph5	B-Ph6	B-Ph7	B-Ph8	B-Ph9	B-Ph10	B-Ph11	B-Ph12	B-Ph13	B-Ph14	B-Ph15	B-Ph16	

Term	0.00000e+00	0.00000e+00	0.00000e+00	0.00000e+00	0.00000e+00	0.00000e+00	0.00000e+00	0.00000e+00	0.00000e+00	0.00000e+00	0.00000e+00	0.00000e+00	0.00000e+00	0.00000e+00	0.00000e+00	0.00000e+00	0.00000e+00	0.00000e+00	0.00000e+00	0.00000e+00	0.00000e+00	0.00000e+00	0.00000e+00	0.00000e+00	0.00000e+00	0.00000e+00	0.00000e+00	0.00000e+00	0.00000e+00	0.00000e+00	0.00000e+00	0.00000e+00	-2.63813e+02	-1.35610e+02	-1.20718e+02	-1.83142e+02	-1.03639e+02	-7.76492e+01	-1.58739e+02	-1.62015e+02	-6.67048e+01	-5.05097e+01	-1.74416e+02	-1.69969e+02	-1.82317e+02	-1.77446e+02	-7.21603e+01	-1.50100e+02	
Factor	6.34764e-05	1.25928e-04	3.90822e-05	1.62229e-01	1.76456e-06	1.41241e-06	1.55923e-01	5.22478e-02	2.01247e-06	1.74817e-06	8.59677e-02	2.68576e-02	3.53234e-02	8.80985e-03	1.52861e-06	1.26090e-02	2.79852e-06	2.94799e-06	8.21211e-07	8.30312e-02	3.20143e-08	3.23669e-08	7.47397e-02	2.68061e-02	3.19947e-08	3.24091e-08	4.26679e-02	1.33414e-02	1.79389e-02	4.54378e-03	3.21625e-08	6.28425e-03	X	X	X	X	X	X	X	X	X	X	X	X	X	X	X	X	



#DISTANCE SETTINGS
A = Detector Channel
A-1	A-2	A-3	A-4	A-5	A-6	A-7	A-8	A-9	A-10	A-11	A-12	A-13	A-14	A-15	A-16	

2.5000e+00	3.0000e+00	2.5000e+00	3.0000e+00	2.0000e+00	3.0000e+00	1.5000e+00	3.0000e+00	3.0000e+00	3.0000e+00	3.0000e+00	3.0000e+00	3.0000e+00	3.0000e+00	1.5000e+00	3.0000e+00	

B = Detector Channel
B-1	B-2	B-3	B-4	B-5	B-6	B-7	B-8	B-9	B-10	B-11	B-12	B-13	B-14	B-15	B-16	

1.0000e+01	1.0000e+01	1.0000e+01	1.4400e+00	1.0000e+01	1.0000e+01	1.5100e+00	1.9400e+00	1.0000e+01	1.0000e+01	1.9900e+00	2.4900e+00	2.4100e+00	2.9000e+00	1.0000e+01	2.9800e+00	




#DATA BEGINS
time	group	step	mark	flag	A-AC1	A-AC2	A-AC3	A-AC4	A-AC5	A-AC6	A-AC7	A-AC8	A-AC9	A-AC10	A-AC11	A-AC12	A-AC13	A-AC14	A-AC15	A-AC16	A-DC1	A-DC2	A-DC3	A-DC4	A-DC5	A-DC6	A-DC7	A-DC8	A-DC9	A-DC10	A-DC11	A-DC12	A-DC13	A-DC14	A-DC15	A-DC16	A-Ph1	A-Ph2	A-Ph3	A-Ph4	A-Ph5	A-Ph6	A-Ph7	A-Ph8	A-Ph9	A-Ph10	A-Ph11	A-Ph12	A-Ph13	A-Ph14	A-Ph15	A-Ph16	B-AC1	B-AC2	B-AC3	B-AC4	B-AC5	B-AC6	B-AC7	B-AC8	B-AC9	B-AC10	B-AC11	B-AC12	B-AC13	B-AC14	B-AC15	B-AC16	B-DC1	B-DC2	B-DC3	B-DC4	B-DC5	B-DC6	B-DC7	B-DC8	B-DC9	B-DC10	B-DC11	B-DC12	B-DC13	B-DC14	B-DC15	B-DC16	B-Ph1	B-Ph2	B-Ph3	B-Ph4	B-Ph5	B-Ph6	B-Ph7	B-Ph8	B-Ph9	B-Ph10	B-Ph11	B-Ph12	B-Ph13	B-Ph14	B-Ph15	B-Ph16	aux-1	digaux	

7113.425	1	1	0	256	0.21612	0.081056	0.23366	0.28511	0.19493	0.13032	0.29162	0.24077	0.13186	0.15623	0.19269	0.30451	0.11311	0.12722	0.12294	0.19538	-1.5292	-2.2958	-1.6333	-2.3083	-1.9958	-1.9479	-2.5146	-1.9521	-1.9312	-2.5229	-1.8979	-2.3563	-2.3646	-1.9208	-2.4625	-2.0417	-34.087	50.841	-70.190	-144.269	177.164	-9.302	144.676	151.215	14.440	79.582	165.935	191.582	149.742	156.393	-124.208	135.181	0.0015055	0.00049141	0.00011954	943.86	4.6067e-06	5.3635e-06	734.8	339.58	1.3299e-05	4.7582e-06	322.74	114.2	122.58	53.638	3.7511e-06	55.226	0.00032909	0.00028907	8.0343e-05	895.96	3.2112e-06	3.1298e-06	698.97	324.56	3.181e-06	3.0843e-06	307.09	108.45	117.06	51.64	3.211e-06	52.528	68.976	-99.562	-58.225	-148.688	-89.206	-11.232	-150.658	-142.874	-54.354	0.225	-146.148	-141.760	-138.768	-133.417	-24.613	-137.330	-8191	255	
7113.497	1	1	0	0	0.14864	0.10792	0.2198	0.15375	0.15763	0.24151	0.067212	0.1213	0.052169	0.2326	0.053193	0.099722	0.12153	0.27162	0.25361	0.052321	-1.6167	-2.5812	-1.7125	-2.2562	-2.2771	-1.8396	-2.7083	-1.9562	-1.9	-2.4292	-1.8771	-2.3542	-2.4854	-1.6979	-2.3667	-2.2083	78.563	-138.614	-50.741	-148.490	173.861	-82.854	-86.901	130.394	73.274	-14.778	-98.146	76.904	192.402	162.453	158.628	147.012	0.0014437	0.00045185	0.00019852	943.56	1.2491e-05	6.7341e-06	738.54	340.68	5.9391e-06	8.6572e-06	322.26	114.18	122.78	54.003	3.1484e-06	55.214	0.00033719	0.00030822	8.5088e-05	898.99	3.2909e-06	3.3406e-06	704.74	324.81	3.4403e-06	3.3378e-06	307.28	108.7	116.93	51.707	3.5058e-06	52.605	70.209	-83.045	-98.217	-148.379	-64.027	-7.126	-150.363	-142.740	9.213	65.509	-144.706	-141.091	-137.988	-133.293	6.374	-137.050	-8191	255	
7113.593	1	1	0	0	0.065108	0.25532	0.17943	0.23309	0.074991	0.35878	0.22151	0.037653	0.16842	0.31368	0.19461	0.2609	0.17603	0.47008	0.058655	0.12073	-1.4604	-2.4188	-2.0021	-2.1521	-2.2188	-1.8229	-2.3563	-2.1979	-1.9312	-2.6583	-1.9333	-2.0563	-2.525	-1.7917	-2.2687	-2.3292	-43.768	118.988	34.697	154.453	16.765	108.760	136.334	45.635	1.188	58.491	-157.732	163.316	184.196	185.672	-44.197	-130.755	0.0017074	0.0005685	0.00022081	940.94	4.3936e-06	2.1194e-06	732.95	339.16	1.6324e-05	1.3498e-06	321.83	114.41	124.26	54.439	6.2213e-06	55.097	0.00034736	0.00031518	8.7211e-05	894.97	3.3799e-06	3.2506e-06	698.74	324.63	3.1405e-06	3.1014e-06	306.04	108.54	117.47	52.112	3.2186e-06	52.685	67.691	-74.539	-47.854	-148.083	-22.059	-24.295	-149.938	-142.334	-6.539	63.466	-145.228	-141.075	-138.244	-132.964	-20.460	-137.115	-8191	255	
7113.714	1	1	0	0	0.24339	0.24976	0.25841	0.17244	0.14454	0.19748	0.0867	0.24537	0.17328	0.014727	0.092532	0.31932	0.12605	0.050369	0.047952	0.14949	-1.3438	-2.3854	-1.95	-1.9188	-2.1896	-1.8	-2.3854	-2.2833	-1.7854	-2.5167	-2.05	-2.0479	-2.5167	-1.7	-2.0208	-2.4542	-111.981	76.992	-57.468	184.860	187.056	21.803	-70.217	160.907	-94.791	155.067	113.615	117.622	-39.903	30.472	74.213	74.413	0.0015494	0.00056398	0.00014212	932.99	8.8092e-07	5.6328e-06	724.65	340.59	6.8066e-06	5.4183e-06	317.46	112.36	123.36	54.008	1.9801e-06	54.817	0.00033531	0.00029633	8.343e-05	890.8	3.341e-06	3.2984e-06	692.71	324.34	3.5068e-06	3.5474e-06	303.06	107.35	117.05	51.968	3.7532e-06	52.446	68.709	-55.205	-65.093	-148.205	-117.803	12.804	-149.765	-142.781	-57.009	-14.151	-145.346	-141.531	-138.119	-132.770	-56.696	-137.069	-8191	255	
7113.810	1	1	0	0	0.022195	0.13689	0.2178	0.092942	0.067695	0.17683	0.21828	0.10315	0.11961	0.11304	0.28659	0.11425	0.17102	0.090952	0.20889	0.20275	-1.3271	-2.3792	-1.9354	-1.9542	-2.3708	-1.8521	-2.2854	-2.4938	-1.6729	-2.3646	-2.1542	-2.0292	-2.2896	-1.9792	-2.0979	-2.6083	-126.228	34.720	-79.975	-89.668	60.274	-115.069	175.652	184.502	43.478	0.806	179.707	-149.942	182.411	-18.367	-147.559	178.715	0.0014617	0.00031889	0.00019919	928.68	3.8773e-06	1.8269e-06	719.26	337.48	7.7995e-06	7.664e-06	317.99	112.76	122.28	53.862	4.8589e-06	54.813	0.0003788	0.00035568	9.9662e-05	887.51	3.8913e-06	3.9718e-06	687.75	323.5	4.054e-06	3.99e-06	303.17	107.5	116.5	51.799	3.5668e-06	52.62	69.152	-10.360	-84.630	-148.693	-119.585	-99.488	-150.293	-142.615	-14.328	24.213	-145.370	-141.134	-138.041	-132.898	-51.844	-136.802	-8191	255	
7113.906	1	1	0	0	0.25239	0.13144	0.25107	0.28447	0.141	0.23136	0.17582	0.35218	0.16982	0.08173	0.091363	0.2271	0.17283	0.090631	0.19492	0.20758	-1.375	-2.1437	-2.0417	-1.8687	-2.4917	-1.9813	-2.1333	-2.7583	-1.9	-2.125	-2.3688	-2.0583	-2.4813	-2.0479	-1.9583	-2.6125	-126.391	-74.630	-129.762	-150.470	147.462	1.453	46.160	149.778	-82.210	22.826	-158.720	182.183	172.231	-8.348	143.467	175.501	0.0016919	0.00023561	0.00012158	939.59	1.798e-06	4.4918e-06	730.18	343.12	9.7593e-06	5.5685e-06	325.72	114.63	125.37	55.101	6.6592e-06	55.835	0.00033394	0.00029121	7.8963e-05	894.24	2.9369e-06	2.9395e-06	697.77	327.29	2.8115e-06	2.7673e-06	308.91	109.39	118.28	52.785	2.9797e-06	53.433	71.756	-37.804	-69.089	-147.992	-32.375	-49.668	-149.829	-142.211	-19.652	2.258	-145.055	-141.351	-137.957	-132.561	5.653	-137.015	-8191	255	
7114.027	1	1	0	0	0.089296	0.083239	0.017343	0.14011	0.058819	0.24395	0.26791	0.47055	0.14273	0.20574	0.21516	0.10929	0.058655	0.10847	0.088483	0.079233	-1.2188	-2.0312	-2.4104	-1.9896	-2.5458	-2.0708	-2.0792	-2.6479	-2.0062	-2.1729	-2.4896	-1.9333	-2.3937	-2.3021	-1.8167	-2.4875	-89.164	-125.353	181.978	174.224	-106.461	-33.951	162.805	157.872	-48.163	125.264	197.695	46.591	-126.464	-89.048	22.167	-156.100	0.0016561	0.00025051	0.00014534	943.73	2.2813e-06	3.3313e-06	733.08	342.42	4.8828e-06	3.6877e-06	318.94	113.56	123.42	54.283	8.8933e-06	54.548	0.00030605	0.00028341	7.8227e-05	896.45	3.0846e-06	3.026e-06	698.38	327.03	3.3014e-06	3.33e-06	305.17	108.36	117.47	51.983	4.0527e-06	52.271	72.353	-97.907	-91.869	-148.086	14.538	2.931	-149.788	-142.106	-19.251	71.983	-145.185	-141.787	-138.241	-132.955	-30.117	-136.754	-8191	255	
7114.098	1	1	0	0	0.17083	0.30059	0.18051	0.42024	0.16764	0.069687	0.29223	0.15082	0.12323	0.13989	0.1429	0.13732	0.10751	0.13388	0.17037	0.15562	-1.5104	-2.075	-2.3688	-1.9771	-2.4042	-2.2812	-2.0062	-2.5	-1.9208	-2.1479	-2.4146	-1.9188	-2.4562	-2.3792	-1.7292	-2.7021	-156.023	162.680	76.482	165.863	-132.568	-158.576	89.249	-145.404	69.818	-43.415	94.252	74.421	70.311	152.336	-37.672	119.090	0.0015706	0.00025756	4.9473e-05	931.86	7.9164e-06	4.7179e-06	712.24	336.34	7.4554e-06	2.1834e-06	314.49	111.44	122.04	53.132	3.8024e-06	53.249	0.0004325	0.00042325	0.00011982	887.43	4.875e-06	5.0059e-06	685.06	322.87	5.0198e-06	4.8777e-06	302	106.93	116.22	51.293	5.0949e-06	51.518	64.513	-46.440	-130.723	-148.108	-53.923	40.307	-150.115	-142.175	-8.471	-31.498	-145.442	-141.068	-137.883	-132.638	-72.457	-136.792	-8191	255	
7114.194	1	1	0	0	0.42552	0.16818	0.038134	0.18073	0.088539	0.12171	0.18385	0.13644	0.1564	0.15343	0.044636	0.052991	0.075778	0.10859	0.24484	0.11147	-1.6125	-1.8604	-2.4292	-1.8604	-2.5104	-2.3667	-1.9958	-2.6458	-1.9125	-1.9562	-2.4854	-1.875	-2.3167	-2.5354	-1.8083	-2.5458	66.213	138.672	4.752	118.227	118.934	48.065	109.028	109.243	98.356	28.278	41.417	-140.740	87.349	68.479	-99.960	91.707	0.0015576	0.00062373	0.00012734	922.14	8.654e-06	4.1503e-06	700.05	336.4	3.332e-06	7.8398e-06	312.05	109.46	119.99	52.092	5.9513e-06	52.402	0.00050341	0.00049749	0.00014063	887.1	5.9951e-06	6.2056e-06	678.19	323.39	6.6344e-06	6.7518e-06	300.9	105.7	115.62	50.526	6.3099e-06	50.825	72.812	-144.892	-50.786	-147.964	-119.915	-62.705	-149.633	-142.049	-105.335	36.707	-145.343	-141.152	-137.688	-132.465	-32.837	-137.060	-8191	255	
7114.290	1	1	0	0	0.29592	0.20501	0.29407	0.10609	0.31526	0.12603	0.31475	0.37799	0.07114	0.35022	0.18506	0.1359	0.22513	0.15092	0.22265	0.066832	-1.6167	-1.9271	-2.6667	-1.7896	-2.2521	-2.4938	-1.75	-2.4479	-2.2354	-1.9	-2.5833	-2.1167	-2.2667	-2.3292	-1.8042	-2.6063	120.763	-107.451	58.648	198.467	137.533	-32.767	155.823	137.550	-37.245	-98.067	136.945	171.626	30.910	-125.882	75.285	157.898	0.0013797	0.00058499	0.00025105	922.39	1.0083e-05	5.3568e-06	709.81	336.46	1.8216e-06	9.9689e-06	312.92	111.63	121.02	52.612	4.1043e-06	52.662	0.00057662	0.00054165	0.00014433	883.51	5.435e-06	5.3364e-06	679.63	323.24	5.2286e-06	5.345e-06	301.55	106.69	115.82	50.681	5.5405e-06	50.977	71.252	-37.559	-51.895	-147.612	-102.677	-61.984	-149.583	-142.275	97.814	-22.121	-145.161	-141.006	-137.890	-132.571	-56.870	-137.110	-8191	255	
7114.387	1	1	0	0	0.081067	0.066699	0.097006	0.16502	0.20137	0.19408	0.11007	0.09571	0.20392	0.23561	0.3619	0.27647	0.03749	0.20483	0.23261	0.34954	-1.8667	-1.8813	-2.4229	-1.9292	-2.0812	-2.3688	-1.9688	-2.4042	-2.1229	-1.9438	-2.5104	-2.0021	-2.1875	-2.4583	-1.8083	-2.3708	-92.137	-152.062	80.240	70.881	147.992	148.293	179.742	-66.137	163.446	106.799	105.034	103.206	-88.643	174.212	-96.063	126.877	0.0017514	4.1313e-05	0.00018283	920.22	7.9629e-07	5.0541e-06	702.03	334.52	1.1918e-05	2.7841e-06	312.73	111.06	120.56	52.429	6.846e-06	52.385	0.00053885	0.00050256	0.00013899	883.57	5.4867e-06	5.4119e-06	679.33	323.44	5.6499e-06	5.6578e-06	301.42	106.91	115.73	50.569	5.6637e-06	50.678	77.595	70.973	-42.649	-148.399	64.057	-75.877	-150.406	-142.753	-33.800	56.931	-145.697	-141.426	-138.282	-132.928	-12.771	-136.765	-8191	255	
7114.506	1	1	0	0	0.27411	0.28085	0.23038	0.23547	0.085544	0.12164	0.13806	0.26751	0.13946	0.13504	0.1545	0.25719	0.25142	0.23645	0.30765	0.2347	-1.7083	-1.9208	-2.2687	-2.1042	-1.9542	-2.4958	-1.8875	-2.4229	-2.4167	-1.9688	-2.3333	-2.1125	-1.9854	-2.5938	-1.9104	-2.325	68.023	18.552	-92.024	-158.621	2.154	42.480	-124.531	168.476	-159.436	-50.519	146.659	149.689	44.769	160.369	-92.833	140.684	0.0013674	0.0005112	0.00023602	913.23	8.2085e-06	2.3382e-06	704	337.24	6.4471e-06	6.4123e-06	310.27	110.27	120.25	52.074	2.8748e-06	52.346	0.00053051	0.00050764	0.00014324	878.46	5.7602e-06	5.6349e-06	676.78	322	5.7189e-06	5.5289e-06	299.43	105.96	115.22	50.281	5.2308e-06	50.523	67.037	-95.083	-62.510	-147.790	6.635	79.753	-149.779	-142.467	-81.058	-29.488	-145.000	-140.892	-137.868	-132.476	-29.879	-136.668	-8191	255	
7114.602	1	1	0	0	0.18298	0.062887	0.11856	0.18672	0.25615	0.14324	0.13099	0.19109	0.11829	0.16745	0.1472	0.33118	0.13319	0.25071	0.040855	0.14631	-1.9979	-1.7437	-2.3458	-2.2167	-1.8646	-2.5375	-2.1333	-2.1917	-2.3042	-1.8021	-2.3604	-2.2604	-1.7375	-2.6479	-1.8521	-2.0771	-83.947	-62.777	184.029	173.056	57.620	147.912	-139.250	110.215	-27.948	170.052	-90.868	162.898	58.021	-142.377	-105.276	-150.721	0.0014056	0.00042786	0.00011335	910.68	4.7195e-06	7.0515e-06	707.01	336.87	8.2058e-06	2.7257e-06	313.01	110.86	120.22	52.431	3.3618e-06	52.679	0.00049596	0.00046883	0.00012941	874.59	5.053e-06	5.0291e-06	677.82	322.38	4.8591e-06	4.8381e-06	299.93	106.43	115.23	50.629	4.8449e-06	50.624	70.033	-105.470	-83.858	-147.987	-31.537	-44.098	-149.991	-142.402	-61.898	-10.935	-145.567	-141.179	-138.286	-132.630	-54.528	-137.382	-8191	255	
7114.698	1	1	0	0	0.12894	0.17265	0.33179	0.062672	0.24096	0.1044	0.07824	0.2555	0.12555	0.40963	0.041843	0.17572	0.14469	0.47393	0.07478	0.040212	-2.1146	-1.825	-2.2083	-2.3646	-1.8563	-2.6375	-1.9979	-2.1979	-2.6375	-2.025	-2.2792	-2.1896	-1.9562	-2.5646	-1.9146	-2.0875	-10.144	-133.337	-19.350	24.598	2.091	119.426	-114.291	-122.072	179.720	-135.413	83.184	138.641	167.460	165.275	99.224	-131.173	0.0013825	0.00057971	0.00013374	916.19	2.1489e-06	5.1195e-06	709.33	337.96	4.2146e-06	2.9345e-06	313.85	111.23	121.95	52.841	7.4698e-06	53.382	0.00046391	0.0004367	0.0001221	876.96	4.7699e-06	4.7248e-06	676.92	323.08	4.597e-06	4.543e-06	300.17	106.43	116.05	50.84	4.3461e-06	51.043	71.912	-100.754	-15.570	-148.033	-86.955	27.033	-149.446	-141.992	-70.937	62.547	-145.399	-140.876	-137.980	-132.515	-25.109	-136.755	-8191	255	
7114.794	1	1	0	0	0.24434	0.090721	0.26485	0.15987	0.21979	0.28375	0.085778	0.22511	0.12055	0.04986	0.15005	0.13572	0.17153	0.1891	0.14553	0.081032	-2.2167	-1.7208	-2.4271	-2.4938	-1.8813	-2.5021	-2.3063	-2.2083	-2.5479	-1.8771	-2.3812	-2.5187	-1.875	-2.5938	-2.0354	-1.8917	-122.367	-87.730	53.648	196.189	90.318	74.712	34.596	119.303	-10.999	100.787	-139.760	-131.304	-130.992	10.151	-96.601	164.624	0.001302	0.00046756	6.6095e-05	922.54	8.4565e-06	5.3873e-06	713.44	337.07	9.1917e-06	7.6184e-06	313.27	112.17	122.45	53.367	5.9361e-06	53.455	0.00041102	0.00039344	0.00010756	878.11	4.186e-06	4.2251e-06	679.62	322.95	4.212e-06	4.1194e-06	300.08	107.28	116.08	51.151	3.9398e-06	51.334	68.821	-100.816	-21.203	-147.629	-55.787	-12.372	-149.793	-142.288	-62.380	11.733	-145.659	-140.814	-137.758	-132.824	-14.496	-137.127	-8191	255	
7114.890	1	1	0	0	0.17389	0.17201	0.18329	0.14431	0.11568	0.17683	0.18438	0.31877	0.28257	0.045399	0.14853	0.27815	0.15293	0.1708	0.15815	0.15823	-2.1854	-1.7604	-2.0958	-2.5521	-1.8521	-2.4542	-2.3271	-2.0146	-2.5	-1.8021	-2.2333	-2.4604	-1.8375	-2.4125	-2.1708	-1.8	-151.713	-54.477	-16.903	165.573	162.084	-7.579	-107.073	185.600	106.639	31.685	137.744	119.965	83.776	155.908	-33.767	-94.429	0.0016193	0.00054765	0.00018562	917.91	8.964e-06	6.0162e-06	711.95	339.21	7.1919e-06	3.4397e-06	316.92	113.08	123.58	53.992	9.9132e-06	54.005	0.00037709	0.00034654	9.6473e-05	876.7	3.5226e-06	3.5303e-06	680.73	323.48	3.3687e-06	3.2974e-06	301.84	107.75	117.02	51.749	3.2386e-06	51.679	71.144	-92.465	-44.961	-147.982	-64.193	-4.135	-149.608	-142.410	-9.738	-62.651	-145.575	-140.875	-137.984	-132.781	-7.757	-137.131	-8191	255	
7114.986	1	1	0	0	0.20955	0.13458	0.18715	0.40204	0.18529	0.084793	0.36927	0.36983	0.17052	0.13187	0.20403	0.21293	0.26588	0.31285	0.069159	0.1846	-1.8667	-1.925	-1.9875	-2.6604	-1.9042	-2.2938	-2.3854	-2.025	-2.5438	-2.125	-2.1729	-2.4271	-1.6938	-2.3271	-2.3063	-2.0771	-153.214	-106.404	130.590	116.305	18.384	-132.832	-128.504	178.847	-135.076	-91.285	-71.257	153.730	134.856	174.178	-146.600	158.093	0.0015539	0.00070985	8.8452e-05	923.36	4.9359e-06	1.6088e-06	714.81	339.25	1.0927e-05	3.7993e-06	314.65	112.84	122.57	53.519	6.3322e-06	53.422	0.00032283	0.00029056	8.002e-05	878.47	3.3666e-06	3.1673e-06	678.52	323.56	3.3211e-06	3.2944e-06	300.52	107.38	116.42	51.467	3.6167e-06	51.285	68.948	-64.790	-51.577	-147.742	-11.693	-47.188	-149.881	-142.442	-50.904	-1.642	-144.976	-141.011	-137.793	-132.628	-4.946	-137.022	-8191	255	
7115.107	1	1	0	0	0.073767	0.24829	0.18175	0.077594	0.28178	0.081553	0.32374	0.029494	0.37678	0.17983	0.13128	0.14701	0.045262	0.10184	0.27291	0.15186	-2.0271	-2.0583	-1.8292	-2.8146	-2.075	-2.3083	-2.5167	-1.9021	-2.2854	-2.0229	-2.0708	-2.7458	-1.7875	-2.4042	-2.4875	-1.9188	-111.415	-121.985	-133.560	117.375	47.010	10.134	188.896	-49.828	-32.266	-140.314	113.729	155.057	-69.894	181.019	162.166	104.909	0.0015506	0.00061545	5.5176e-05	922.5	1.7378e-05	6.0607e-06	707.18	336.36	1.1093e-05	1.3376e-05	311.5	111.1	121.5	52.542	4.6093e-06	52.869	0.00036473	0.0003439	9.6515e-05	876.13	3.8848e-06	3.8932e-06	675.58	322.18	4.1236e-06	4.1925e-06	298.1	106.36	115.69	50.729	4.2001e-06	50.648	68.530	-40.081	-48.882	-147.498	-83.197	-41.070	-149.699	-142.476	19.046	5.737	-145.420	-141.655	-138.162	-133.181	-45.411	-137.504	-8191	255	
7115.203	1	1	0	0	0.17909	0.27431	0.31581	0.14946	0.084838	0.16082	0.1746	0.069101	0.096459	0.062095	0.17949	0.16439	0.13883	0.061977	0.099009	0.088664	-2.0083	-1.9917	-1.7479	-2.7	-2.2354	-2.0542	-2.5375	-1.9229	-2.3354	-2.3125	-2.0229	-2.5187	-2.0542	-2.1021	-2.5062	-1.7229	14.629	7.827	56.145	183.426	113.428	173.254	45.762	-128.200	-72.286	-38.192	-157.965	-95.095	85.689	-70.809	66.883	40.445	0.0015484	0.00061167	0.00013875	914.37	4.1343e-06	5.3876e-06	708.89	335.95	1.6315e-06	7.9894e-06	313.58	111.31	121.82	53.087	9.3265e-06	53.425	0.00041732	0.00038375	0.00010374	873.7	3.8562e-06	3.8843e-06	675.89	321.89	3.6979e-06	3.6248e-06	298.91	106.62	115.85	51.17	3.6126e-06	51.13	71.388	-86.421	-54.068	-147.925	-109.458	-10.522	-149.605	-142.320	-99.709	7.533	-145.787	-141.597	-138.029	-133.179	-47.454	-136.885	-8191	255	
7115.297	1	1	0	0	0.16608	0.24508	0.063362	0.11373	0.07095	0.17328	0.28372	0.34809	0.2398	0.22644	0.33753	0.36471	0.31776	0.14291	0.18188	0.28611	-1.8875	-2.15	-1.7771	-2.5958	-1.8875	-1.7354	-2.5875	-1.8875	-2.1146	-2.3688	-1.6479	-2.4875	-2.0208	-1.9188	-2.4771	-1.6729	187.701	87.614	165.548	-67.923	-90.439	70.189	147.732	101.395	139.026	23.709	-146.277	-128.944	125.569	155.212	23.302	151.586	0.0014315	0.00062818	0.00018303	923.52	3.3544e-06	3.2692e-06	702.9	337.07	7.5372e-06	7.4359e-06	311.64	111.09	121.19	53.346	4.0771e-06	53.427	0.00035299	0.00032312	9.1079e-05	875.7	3.6052e-06	3.7103e-06	674.8	321.68	3.8568e-06	3.8868e-06	297.7	106.24	115.76	51.138	3.6885e-06	51.05	67.245	-93.039	-46.006	-147.763	-54.490	-3.742	-149.708	-142.488	-39.072	-24.720	-145.354	-140.992	-137.794	-132.712	3.917	-136.602	-8191	255	
7115.394	1	1	0	0	0.45747	0.1785	0.058588	0.21157	0.21455	0.10914	0.32859	0.37597	0.29057	0.3779	0.095605	0.12311	0.11375	0.55976	0.30106	0.20848	-1.7563	-2.1979	-1.7125	-2.4104	-2.0812	-1.8646	-2.3521	-2.0417	-2.0833	-2.2583	-1.9208	-2.3958	-2.2229	-1.9417	-2.5792	-1.8937	-8.259	-145.716	66.897	-156.383	15.628	-131.224	-136.452	160.994	-41.026	-151.140	183.161	-110.644	100.089	-153.616	183.991	109.639	0.001221	0.00046359	0.00012264	919.63	8.84e-06	2.4215e-06	701.93	337.03	6.3304e-06	6.7464e-06	311.14	111.38	122.06	53.447	3.7622e-06	53.325	0.00035141	0.00032387	9.1707e-05	874.2	3.5446e-06	3.5805e-06	670	321.61	3.6511e-06	3.6158e-06	297.4	106.34	116.26	51.259	3.6372e-06	50.904	68.583	-87.277	-86.649	-147.785	-67.610	-35.087	-149.597	-142.258	-31.772	2.135	-145.307	-141.047	-137.874	-132.929	26.693	-136.818	-8191	255	
7115.490	1	1	0	0	0.187	0.11909	0.36254	0.22738	0.13576	0.19001	0.38731	0.23164	0.087603	0.1895	0.13058	0.23286	0.30331	0.2228	0.11844	0.23879	-1.4958	-2.2833	-1.6833	-2.4917	-2.2146	-1.8	-2.5417	-1.9792	-2.05	-2.4125	-1.8	-2.2042	-2.425	-1.8188	-2.55	-2.2812	-20.665	-130.554	2.587	111.419	-7.623	-114.486	117.750	74.061	-2.802	65.752	71.698	135.182	144.845	154.857	86.584	-143.981	0.0013785	0.00046203	0.00016155	919.39	4.3718e-06	5.5129e-06	704.07	338	5.2029e-06	8.8317e-06	312.84	112.94	122.76	54.124	5.8463e-06	53.816	0.00035812	0.00032082	8.7257e-05	873.56	3.4459e-06	3.3326e-06	672.31	322.15	3.3114e-06	3.1128e-06	297.93	107.17	116.55	51.836	3.0897e-06	51.512	66.575	-106.622	-25.383	-147.796	-65.371	1.621	-149.671	-142.225	-20.269	-8.487	-145.322	-141.128	-138.099	-132.888	-22.591	-136.955	-8191	255	
7115.586	1	1	0	0	0.13357	0.051024	0.098718	0.27207	0.31251	0.19126	0.16542	0.1018	0.337	0.1782	0.26745	0.10137	0.12355	0.40973	0.10477	0.36522	-1.2687	-2.5625	-1.7729	-2.3979	-2.3396	-2.0604	-2.7542	-2.1604	-1.9042	-2.3875	-1.9	-2.1458	-2.4917	-1.725	-2.3125	-2.0625	-101.132	15.452	-80.031	124.820	59.433	-116.396	111.880	-108.146	145.063	136.307	92.811	181.123	82.949	170.000	65.298	139.448	0.0013959	0.00035641	0.00019775	920.11	6.9707e-06	4.0091e-06	709.47	338.89	1.2742e-06	8.7388e-07	314.29	112.19	123.2	53.615	4.3484e-06	53.34	0.00031223	0.0002844	7.8467e-05	875.48	3.1258e-06	3.1024e-06	674.95	322.61	3.2229e-06	3.1522e-06	298.75	106.94	116.44	51.444	3.4433e-06	51.028	70.333	-72.101	-84.212	-147.789	-50.375	-0.752	-149.384	-142.370	-20.430	-30.135	-144.932	-140.916	-138.274	-132.849	-22.885	-136.762	-8191	255	
7115.682	1	1	0	0	0.15727	0.14744	0.11891	0.22434	0.07425	0.25382	0.16162	0.24888	0.079298	0.10534	0.14122	0.24424	0.26089	0.24993	0.07493	0.12679	-1.3333	-2.2458	-1.9562	-2.3187	-2.3771	-1.9083	-2.5271	-2.3104	-1.7292	-2.5479	-2.0208	-2.0604	-2.5875	-1.975	-2.3104	-2.4958	150.482	179.753	13.870	148.318	-73.340	136.324	155.925	170.621	160.219	-147.791	189.671	146.210	148.106	163.371	9.525	-131.395	0.001562	0.00032799	0.00017137	920.77	5.9826e-06	4.7911e-06	701.42	336.71	8.2573e-06	8.2602e-06	312.4	111.3	121.88	53.474	3.3885e-06	52.923	0.00034604	0.00031584	8.9307e-05	876.62	3.52e-06	3.5862e-06	673.28	322.46	3.5508e-06	3.62e-06	298.42	106.37	116.1	51.164	3.6199e-06	50.86	70.864	-34.563	-67.257	-147.846	-69.389	25.798	-150.184	-142.298	-69.861	25.451	-145.618	-141.383	-138.046	-132.757	23.785	-137.226	-8191	255	
7115.803	1	1	0	0	0.10803	0.22705	0.29097	0.2304	0.32111	0.089775	0.22245	0.1282	0.086735	0.29951	0.079951	0.14621	0.10433	0.11521	0.20198	0.11202	-1.3104	-2.4583	-1.9146	-2.1562	-2.4688	-1.9875	-2.2854	-2.3312	-1.8396	-2.3292	-1.9583	-2.075	-2.5312	-2.025	-2.2104	-2.5083	-76.472	-68.717	59.025	91.099	-7.866	108.137	31.214	174.044	-145.525	48.881	164.340	-48.859	-141.098	181.003	187.594	14.856	0.0015922	0.00027349	9.7429e-05	922.78	1.3619e-06	2.7633e-06	701.47	335.89	3.6132e-06	5.4389e-06	310.75	111.04	122.45	53.326	5.233e-06	52.951	0.00036489	0.00033256	9.3683e-05	876.33	3.7137e-06	3.7055e-06	671.23	322.05	3.831e-06	3.7042e-06	297.48	106.14	116.18	51.111	3.8562e-06	50.715	68.618	-48.110	-21.813	-147.934	-98.973	-15.496	-149.798	-142.005	-47.682	34.635	-145.307	-140.977	-137.879	-132.587	-57.465	-136.645	-8191	255	
7115.899	1	1	0	0	0.13925	0.23649	0.036857	0.11177	0.13988	0.18869	0.019309	0.18849	0.06825	0.20534	0.14395	0.13687	0.17633	0.12883	0.097793	0.25603	-1.3083	-2.5167	-2.0896	-1.9458	-2.6104	-1.875	-2.2042	-2.475	-1.7	-2.4979	-2.3	-1.9667	-2.7562	-2.0312	-2.3833	-2.3688	-16.461	-50.225	-56.177	119.656	-124.210	154.934	103.378	95.416	197.100	-96.090	146.584	62.829	105.801	-148.193	102.196	141.157	0.0014646	0.00037447	0.00012704	911.63	8.1754e-06	6.7594e-06	702.9	336.14	1.0153e-05	6.0503e-06	312.88	110.83	122.75	53.592	6.8568e-06	53.243	0.00038801	0.00035514	9.7946e-05	871.93	3.8597e-06	3.8022e-06	671.07	321.86	3.7656e-06	3.6311e-06	297.97	106.3	116.51	51.4	3.4291e-06	51.113	61.883	-35.237	-54.197	-148.344	-64.793	24.126	-150.396	-142.840	-8.128	13.966	-146.010	-141.639	-138.436	-133.370	-27.114	-137.371	-8191	255	
7115.970	1	1	0	0	0.083089	0.25605	0.21074	0.26265	0.31536	0.2087	0.10632	0.17331	0.17452	0.17537	0.062358	0.2964	0.075723	0.16814	0.27288	0.2841	-1.1708	-2.2979	-2.1917	-1.9229	-2.5	-1.9375	-2.0896	-2.5083	-1.7042	-2.2896	-2.4562	-1.9396	-2.6167	-2.1188	-1.8813	-2.6375	-69.874	-53.128	72.547	186.912	12.367	-108.723	152.731	94.928	62.865	-22.219	-31.250	120.835	151.124	191.462	3.795	110.138	0.0014654	0.00018679	0.00012215	926.06	4.8505e-06	3.7222e-06	712.52	340.35	9.6017e-06	1.1793e-05	317.38	113.96	123.32	54.219	6.4749e-06	54.041	0.00033621	0.0003016	8.0268e-05	877.55	3.1298e-06	3.161e-06	676.93	325.02	3.159e-06	3.0116e-06	300.46	107.91	117.24	51.944	3.0001e-06	51.742	69.323	16.425	-120.027	-148.676	-58.189	7.790	-150.198	-142.529	-67.131	23.531	-145.469	-141.201	-137.823	-132.368	-56.681	-136.738	-8191	255	
7116.067	1	1	0	0	0.23659	0.21199	0.09979	0.098007	0.16222	0.23624	0.1873	0.33954	0.24256	0.14513	0.12051	0.027788	0.29117	0.16129	0.28883	0.10929	-1.3667	-2.1625	-2.3646	-1.9646	-2.4708	-2.0021	-1.8583	-2.8625	-1.7354	-2.2896	-2.3104	-1.8813	-2.4146	-2.1896	-1.9	-2.6542	-91.567	91.185	-53.956	70.438	16.584	-132.491	-45.509	130.388	163.700	9.749	105.677	50.088	3.917	-57.149	89.466	125.650	0.0015428	0.00039418	0.00024733	929.66	7.9505e-06	6.3388e-06	712.87	341.09	9.331e-06	4.3862e-06	316.48	113.62	124.61	53.916	2.4636e-06	54.17	0.00030853	0.00028263	7.7247e-05	880.91	3.0784e-06	3.1114e-06	677	325.46	3.2253e-06	3.2267e-06	301.66	107.98	117.87	52.009	3.0791e-06	51.714	67.375	-71.394	-57.783	-147.904	-11.397	-25.654	-149.775	-142.103	0.809	-38.463	-145.154	-141.128	-138.004	-132.416	-100.470	-136.763	-8191	255	
7116.186	1	1	0	0	0.23045	0.16754	0.1342	0.20783	0.25486	0.18476	0.094398	0.33961	0.16609	0.12341	0.1559	0.1736	0.14947	0.13485	0.044071	0.17957	-1.3396	-2.1292	-2.4229	-1.7375	-2.5292	-2.0604	-2.0854	-2.4542	-1.8687	-2.1063	-2.5312	-1.8583	-2.4167	-2.3729	-1.9312	-2.7646	67.265	32.335	127.331	181.915	42.878	-115.193	41.782	160.479	158.550	195.496	-108.983	-74.776	108.243	-159.674	-61.439	-158.046	0.0013751	0.00047799	6.9472e-05	926.09	6.1214e-06	4.3763e-06	714.3	340.19	7.2501e-06	3.248e-06	317.33	114.05	124.03	54.732	5.0447e-06	54.388	0.00031619	0.00028681	7.8152e-05	878.58	3.055e-06	3.0418e-06	678.5	325.83	3.083e-06	3.1167e-06	302.47	108.4	118.14	52.475	3.1769e-06	51.998	68.577	-91.901	-139.297	-147.886	-98.420	-33.520	-149.868	-142.345	-38.807	97.845	-145.285	-141.213	-137.634	-132.590	-37.975	-136.725	-8191	255	
7116.282	1	1	0	0	0.21626	0.051272	0.19693	0.19741	0.086842	0.19062	0.12457	0.071839	0.26734	0.20435	0.092495	0.11341	0.26857	0.13165	0.061579	0.13028	-1.45	-1.9521	-2.45	-1.8896	-2.2646	-2.2396	-1.9208	-2.6479	-1.9854	-1.9854	-2.4708	-1.8771	-2.1917	-2.3625	-1.9188	-2.4313	32.032	-96.233	122.217	130.899	-109.449	-80.534	56.670	149.773	-55.567	177.204	-95.365	-132.219	136.711	143.064	-54.048	-83.877	0.0015957	0.00061188	0.00017145	925.01	6.836e-06	5.9952e-06	714.96	342.35	7.5961e-06	6.5114e-06	320.16	114.49	124.23	54.906	4.4651e-06	54.231	0.00031926	0.00027793	7.6491e-05	880.57	3.0828e-06	3.0525e-06	681.07	327.11	3.2037e-06	3.1193e-06	303.32	108.62	117.92	52.432	3.295e-06	51.963	74.916	-97.007	-75.946	-147.942	-71.077	-23.206	-149.692	-142.304	-65.413	8.985	-145.370	-141.122	-138.440	-132.751	-18.785	-137.161	-8191	255	
7116.378	1	1	0	0	0.049838	0.20001	0.20705	0.22778	0.1621	0.11833	0.13159	0.21597	0.1599	0.14637	0.1344	0.25478	0.34768	0.20266	0.095034	0.0060146	-1.6271	-1.9438	-2.4104	-1.9271	-2.0417	-2.4104	-1.9542	-2.625	-2.0854	-1.8813	-2.5146	-1.9125	-2.2083	-2.45	-1.8521	-2.5583	-45.751	39.735	60.584	80.581	178.144	-7.832	160.591	-127.465	47.234	39.704	25.594	175.263	93.250	173.951	139.007	71.703	0.0015375	0.00034137	7.8952e-05	927.88	6.165e-06	7.4739e-06	713.28	340.79	1.2202e-05	4.0012e-06	317.24	113.17	124.21	54.16	4.9796e-06	53.805	0.00033367	0.000306	8.2369e-05	881.61	3.4244e-06	3.3376e-06	679.11	325.82	3.459e-06	3.4982e-06	301.5	107.8	117.92	52.064	3.7404e-06	51.552	64.159	-85.663	-24.317	-148.386	-59.347	2.512	-150.205	-142.658	-5.853	1.609	-145.272	-140.882	-137.739	-132.481	-5.875	-136.497	-8191	255	
7116.476	1	1	0	0	0.11101	0.1589	0.20346	0.19983	0.38871	0.20423	0.15054	0.045044	0.073509	0.050075	0.20171	0.21878	0.13513	0.21817	0.26917	0.068157	-1.7437	-1.7687	-2.375	-2.0083	-2.0417	-2.3167	-2.0792	-2.4729	-2.25	-1.9042	-2.5333	-2.1479	-2.0833	-2.6667	-1.7687	-2.5062	181.385	-100.771	-100.547	127.568	-24.411	-80.923	-130.944	-102.832	15.050	193.590	-25.382	-152.066	196.824	150.753	175.497	66.522	0.0015868	0.0006202	0.0001763	915.34	4.6884e-06	9.213e-06	704.14	339.56	5.0979e-06	8.8089e-06	314.75	110.79	121.86	52.817	6.2343e-06	52.728	0.00038448	0.00035959	0.00010414	878.14	4.3199e-06	4.5041e-06	675.4	324.98	4.9732e-06	5.1153e-06	301.06	106.95	117.54	51.295	6.5018e-06	51.032	74.924	-71.974	-73.959	-147.967	-105.626	10.813	-149.945	-142.083	-28.194	57.164	-145.607	-141.107	-137.570	-132.406	-22.184	-136.556	-8191	255	
7116.595	1	1	0	0	0.083222	0.070628	0.076943	0.31563	0.10215	0.052209	0.15149	0.37506	0.11992	0.11913	0.13672	0.42589	0.14629	0.048844	0.25006	0.28674	-1.9021	-1.7917	-2.4792	-2.1021	-2.1104	-2.5833	-1.8729	-2.3979	-2.3563	-1.8458	-2.5417	-2.0542	-2.0583	-2.8312	-1.7417	-2.1917	188.058	-10.007	79.647	118.952	10.347	-61.556	131.178	141.833	116.288	-114.123	-17.413	135.157	-74.368	109.914	-49.350	95.151	0.0011337	0.00040355	0.00012101	912.7	7.1507e-06	7.4951e-06	697.85	335.33	4.9691e-06	5.9855e-06	308.77	110.41	121.6	52.897	4.22e-06	52.27	0.00065689	0.00065962	0.00018861	878.15	7.5487e-06	7.3538e-06	673.89	323.92	7.185e-06	7.1734e-06	300.73	107.15	117.66	51.318	7.0941e-06	50.879	90.786	-75.848	-141.901	-147.796	-12.162	-42.267	-149.757	-141.931	190.221	-14.780	-145.140	-141.094	-137.799	-132.525	-100.098	-136.767	-8191	255	
7116.666	1	1	0	0	0.10927	0.16654	0.085723	0.033623	0.30282	0.056514	0.17762	0.13178	0.041022	0.024632	0.14389	0.10638	0.47284	0.15582	0.065233	0.073535	-1.9042	-1.7771	-2.4188	-2.3187	-1.9042	-2.4542	-2.1396	-2.3104	-2.55	-1.7833	-2.4479	-2.4646	-1.9792	-2.7896	-1.9854	-2.1896	-133.702	-140.782	-70.028	-155.260	21.732	-25.082	100.813	181.177	-138.528	-46.072	-154.831	180.873	190.419	161.028	3.224	197.382	0.0016759	0.0004488	3.3005e-05	906.82	9.0259e-06	6.1523e-06	691.68	337.06	1.294e-05	2.0714e-06	309.06	110.94	121.2	53.152	1.1304e-05	52.356	0.00067061	0.00065246	0.00018488	872.63	6.905e-06	6.8347e-06	666.54	324.4	6.6855e-06	6.6907e-06	299.66	107.14	117.24	51.53	7.2675e-06	50.829	76.594	-47.567	99.129	-147.787	-24.613	-66.767	-149.762	-142.215	-53.821	92.377	-145.717	-141.074	-137.718	-132.536	21.875	-136.861	-8191	255	
7116.787	1	1	0	0	0.35993	0.19342	0.065405	0.1203	0.23715	0.15988	0.13254	0.090041	0.17459	0.25751	0.16993	0.23737	0.15697	0.23632	0.080404	0.011363	-2.0521	-1.7542	-2.4208	-2.3854	-1.7771	-2.6042	-2.2083	-2.1562	-2.5062	-1.6938	-2.4604	-2.45	-1.6688	-2.55	-2.0021	-2.225	127.145	160.097	34.161	-84.038	82.307	4.197	100.807	79.020	185.505	45.851	-112.265	157.721	-133.235	163.406	-103.939	140.556	0.0015294	0.00039436	0.00023734	903.12	6.8173e-06	6.681e-06	689.02	332.1	9.2101e-06	5.3797e-06	305.74	109.78	120.65	51.91	7.7937e-06	51.444	0.00070677	0.0007092	0.00020066	872.99	8.2458e-06	8.2171e-06	667.5	322.67	8.7584e-06	9.1504e-06	299.49	107.07	117.6	50.851	9.6524e-06	50.505	71.278	-79.337	-144.235	-147.734	-26.601	-33.180	-150.097	-143.034	-46.606	47.010	-145.750	-141.158	-137.734	-132.413	-110.209	-136.749	-8191	255	
7116.883	1	1	0	0	0.163	0.21374	0.12359	0.15505	0.37411	0.091032	0.094105	0.14895	0.3261	0.082344	0.24111	0.13054	0.23138	0.19707	0.060251	0.35336	-2.0542	-1.7979	-2.2313	-2.3646	-1.7104	-2.5604	-2.0896	-2.0687	-2.5479	-1.9583	-2.3187	-2.4521	-1.7708	-2.5458	-2.0625	-1.9958	-61.340	137.186	71.582	146.805	8.641	-97.585	-134.930	-139.919	120.503	6.161	118.393	-133.213	-95.655	-83.255	55.270	92.677	0.0015652	0.00070994	7.6419e-05	896.69	5.6058e-06	8.1249e-06	683.09	331.26	8.5873e-06	7.4038e-06	306.2	109.83	118.97	51.952	5.6497e-06	51.35	0.0009209	0.00092606	0.00026515	872.85	1.0472e-05	1.0702e-05	670.52	323.2	1.0787e-05	1.1344e-05	302.27	107.67	118.19	51.028	1.1869e-05	50.758	73.494	-95.489	-34.616	-147.745	-121.930	3.088	-149.812	-142.038	-26.689	6.365	-144.800	-140.436	-137.798	-132.541	-56.628	-136.937	-8191	255	
7116.979	1	1	0	0	0.26278	0.075227	0.1673	0.27454	0.10786	0.18335	0.13763	0.29926	0.18605	0.22442	0.20547	0.067946	0.12323	0.65873	0.16253	0.13766	-2.1188	-1.8792	-2.2271	-2.4979	-1.9375	-2.4354	-2.1375	-1.9312	-2.525	-2.0083	-2.0229	-2.5604	-1.8646	-2.3312	-2.125	-2.1604	-156.949	-46.754	43.078	122.796	163.221	-11.304	61.842	149.161	-114.051	108.594	149.459	-144.473	177.967	167.695	68.013	134.609	0.0014272	6.1107e-05	0.00020805	892.71	4.4159e-06	2.4235e-06	676.59	331.36	1.3415e-06	1.5391e-05	306.15	108.78	118.39	51.564	8.5886e-06	50.41	0.0010872	0.0011227	0.00032665	874.45	1.3221e-05	1.3841e-05	673.02	326.43	1.508e-05	1.5735e-05	308.4	109.57	120.84	51.43	1.7765e-05	51.259	64.536	-60.696	-159.873	-147.643	62.671	-97.164	-149.733	-142.038	2.670	48.833	-145.363	-140.727	-137.897	-132.148	-66.058	-136.718	-8191	255	
7117.075	1	1	0	0	0.061675	0.02405	0.11364	0.10228	0.14846	0.10693	0.15485	0.38263	0.15477	0.30169	0.46628	0.32096	0.30521	0.20397	0.25263	0.17316	-2.2083	-2.0604	-1.9854	-2.5542	-1.8042	-2.3104	-2.3229	-1.9479	-2.4021	-2.0979	-2.0521	-2.5083	-1.8542	-2.3417	-2.3	-1.7271	-6.878	193.930	86.872	176.133	161.790	179.481	137.657	167.104	18.538	-64.266	125.917	145.186	154.250	126.266	-16.246	131.788	0.001435	0.0008638	0.00033766	886.69	1.1251e-05	6.1478e-06	668.89	329.28	1.0617e-05	9.2121e-06	301.89	108.43	119.03	51.287	1.8618e-05	50.078	0.0016679	0.0017536	0.00049661	886.29	1.944e-05	2.0103e-05	678	329.1	2.0197e-05	2.0775e-05	311.98	110.69	123.28	51.81	2.2322e-05	51.707	77.246	109.141	-80.449	-147.647	-80.253	92.706	-149.483	-142.000	-148.355	10.125	-145.139	-141.228	-138.150	-132.266	-13.101	-136.554	-8191	255	
7117.196	1	1	0	0	0.11766	0.25333	0.12168	0.1621	0.1849	0.12831	0.12105	0.27564	0.09688	0.096713	0.18468	0.30663	0.16559	0.10047	0.20133	0.076566	-2.0771	-2.0125	-1.9542	-2.5542	-1.8312	-2.1521	-2.4479	-1.9583	-2.3812	-2.0875	-1.8375	-2.6042	-2.0333	-2.2521	-2.5687	-1.8417	-63.586	-85.214	145.625	163.307	75.739	51.928	-155.526	117.706	43.453	-8.903	158.169	-143.811	-124.204	-146.157	38.242	-29.069	0.0015514	0.00058538	0.00034448	871.16	1.2913e-05	6.6256e-06	660.42	327.84	1.406e-05	5.7507e-06	301.75	107.57	117.51	50.825	8.4807e-06	49.883	0.0019972	0.0020787	0.00057599	887.08	2.275e-05	2.2969e-05	678.27	330.21	2.3385e-05	2.3768e-05	314.15	110.99	123.01	51.577	2.2296e-05	51.393	65.842	-84.413	-86.513	-148.195	-0.801	-128.693	-149.694	-142.330	-102.100	2.132	-145.080	-140.738	-137.426	-132.158	33.477	-136.796	-8191	255	
7117.268	1	1	0	0	0.043514	0.11548	0.028408	0.22199	0.21941	0.16758	0.059677	0.048352	0.16942	0.27599	0.10373	0.25259	0.13498	0.18634	0.13239	0.20865	-2.2354	-2.3083	-1.7729	-2.5896	-1.8208	-2.0312	-2.4875	-1.8167	-2.3708	-2.3063	-1.8667	-2.3021	-1.9604	-2.2479	-2.3458	-1.9104	151.625	54.523	-137.042	176.717	95.418	-50.811	16.145	185.965	81.369	130.641	193.399	-56.946	-58.628	169.168	5.826	-8.889	0.0019288	0.00056755	0.00026358	877.54	1.1933e-05	1.785e-05	654.95	325.54	9.5663e-06	8.5181e-06	299.83	107.93	118.82	51.151	7.7408e-06	50.5	0.0019364	0.0019625	0.00052915	877.54	1.9674e-05	1.9459e-05	665.63	324.79	1.7637e-05	1.7552e-05	304.86	108.69	119.75	50.947	1.5781e-05	50.636	69.102	-13.252	23.490	-147.709	-49.493	-26.293	-149.629	-141.737	27.440	11.839	-144.943	-140.270	-137.225	-132.113	-31.788	-136.478	-8191	255	
7117.362	1	1	0	0	0.10466	0.18986	0.086067	0.38194	0.12366	0.34824	0.069439	0.02178	0.18562	0.12812	0.16127	0.12737	0.15497	0.16021	0.20982	0.30433	-1.9312	-2.2208	-1.7333	-2.6333	-2.1417	-1.8833	-2.5521	-1.9042	-2.1417	-2.4792	-1.8292	-2.6021	-2.0021	-1.9875	-2.6229	-1.8958	-38.727	-104.795	60.545	167.251	176.065	-136.803	153.661	143.870	61.610	181.387	-133.868	-1.897	122.747	168.837	-6.237	128.569	0.0015605	0.00087378	0.00031449	874.03	1.2424e-05	2.0492e-06	665.74	327.77	1.5769e-05	6.9496e-06	301.72	109.25	119.2	51.545	1.5366e-06	50.852	0.001423	0.0014586	0.00040554	867.22	1.5687e-05	1.5419e-05	664.6	322.91	1.4583e-05	1.4596e-05	303.42	108.93	119.59	51.145	1.4771e-05	50.86	69.591	-150.901	-61.285	-147.598	-15.189	176.564	-149.482	-142.002	-86.425	-20.789	-144.890	-141.085	-137.536	-132.163	-159.088	-136.581	-8191	255	
7117.458	1	1	0	0	0.10061	0.054507	0.15185	0.23852	0.17244	0.19363	0.059357	0.22698	0.11192	0.16979	0.068931	0.2501	0.28642	0.19771	0.11068	0.27906	-1.8646	-2.35	-1.8333	-2.6583	-2.3271	-1.9062	-2.7042	-1.9292	-1.9833	-2.4667	-1.8438	-2.4938	-2.0396	-2.0354	-2.5917	-2.0979	166.806	8.355	80.128	166.533	115.645	-119.515	-60.670	152.185	197.234	67.790	80.138	-157.567	-135.205	-61.066	-29.141	131.417	0.0014024	0.0008889	8.9352e-05	873.35	1.1111e-05	1.0522e-05	671.21	326.7	1.4802e-05	1.2813e-05	301.02	108.84	118.31	51.197	6.2245e-06	49.996	0.0013291	0.0013536	0.00038143	865.03	1.5103e-05	1.5565e-05	666.17	323.62	1.6025e-05	1.6272e-05	305.85	109.37	120.62	51.024	1.7605e-05	50.73	64.866	-109.945	-130.434	-147.451	193.334	5.429	-149.576	-141.806	18.106	19.377	-145.297	-140.830	-137.892	-132.400	-28.495	-136.428	-8191	255	
7117.579	1	1	0	0	0.088745	0.10642	0.21408	0.16795	0.14329	0.066977	0.22727	0.24323	0.071259	0.11705	0.12894	0.23874	0.15761	0.27518	0.21816	0.12334	-1.8146	-2.4271	-1.5438	-2.3271	-2.2458	-1.8083	-2.5792	-2.0292	-1.9688	-2.5333	-1.7542	-2.4271	-2.4188	-1.8312	-2.4646	-2.1833	-99.414	-133.990	-128.021	181.092	75.524	-46.112	153.591	195.075	-83.942	6.238	192.825	89.273	131.633	-154.820	-141.840	16.329	0.0015767	0.0007114	0.00017636	869.98	3.7932e-06	1.022e-05	658.71	325.61	5.788e-06	9.7821e-06	297.7	107.88	118.26	50.825	6.3902e-06	49.85	0.0016155	0.0016661	0.00046876	867.62	1.8367e-05	1.8541e-05	665.99	324.94	1.8779e-05	1.91e-05	306.88	109.76	121.29	51.035	1.9982e-05	51.003	66.189	-123.268	-54.000	-147.744	-106.783	32.143	-149.658	-141.578	-18.147	-107.958	-145.582	-141.353	-137.732	-132.617	65.894	-137.014	-8191	255	
7117.675	1	1	0	0	0.076313	0.2172	0.17134	0.088146	0.10041	0.1451	0.28052	0.16716	0.16316	0.29183	0.12448	0.20739	0.21438	0.21269	0.20265	0.24793	-1.4438	-2.475	-1.8833	-2.3604	-2.4208	-1.7104	-2.5771	-2.2021	-1.9458	-2.5167	-1.9771	-2.275	-2.5458	-1.7062	-2.1792	-2.2021	109.324	-17.137	78.839	40.794	181.823	-72.333	174.863	177.964	-98.113	12.057	159.438	28.978	81.700	86.953	199.490	-145.739	0.0013132	0.0015111	0.00017234	867.29	1.4525e-05	1.3648e-05	660.4	327.3	6.3073e-06	4.8509e-06	298	107.63	117.47	50.527	2.7029e-06	49.917	0.0018082	0.001859	0.00052589	874.32	2.0591e-05	2.0985e-05	669.87	326.73	2.048e-05	2.0554e-05	307.96	109.63	120.96	50.795	1.9253e-05	50.715	63.549	11.797	167.577	-147.846	-55.605	13.762	-149.717	-142.287	-135.560	109.762	-144.892	-140.765	-137.366	-132.275	-33.124	-136.703	-8191	255	
7117.771	1	1	0	0	0.12792	0.26585	0.27916	0.42104	0.2199	0.16663	0.37692	0.46922	0.097038	0.082567	0.046017	0.10072	0.24491	0.18891	0.37985	0.211	-1.4646	-2.3875	-1.7833	-1.8708	-2.2854	-1.7687	-2.4396	-2.2396	-1.9021	-2.6479	-1.9	-1.8729	-2.4625	-1.8271	-2.35	-2.3375	-57.479	-47.796	-122.552	191.138	-109.347	-1.529	-129.812	148.860	-10.677	97.901	-129.744	82.226	65.975	169.455	91.062	40.029	0.0013539	0.00088633	0.00013139	872.74	1.282e-05	3.9663e-06	658.42	324.34	3.799e-06	1.5822e-05	300.06	107.84	117.28	50.678	8.0105e-06	49.786	0.0016645	0.0016907	0.00046795	865.94	1.7972e-05	1.784e-05	660.99	323.67	1.7627e-05	1.7677e-05	304.8	109	119.52	50.588	1.7738e-05	50.499	66.349	-106.287	-95.465	-148.006	-143.490	118.953	-149.425	-142.078	-62.162	-24.621	-144.972	-140.964	-137.436	-132.304	-53.265	-136.551	-8191	255	
7117.867	1	1	0	0	0.23008	0.13321	0.11622	0.084027	0.17513	0.20603	0.24338	0.099141	0.16819	0.12783	0.18514	0.27584	0.08289	0.11528	0.12693	0.12155	-1.4	-2.5812	-1.9521	-2.125	-2.2812	-1.8875	-2.3271	-2.4625	-1.7958	-2.4833	-2.1063	-2.0646	-2.5708	-1.8646	-2.4208	-2.4833	150.607	-96.346	196.534	-147.296	-145.785	27.160	192.839	-40.841	88.891	-63.049	198.568	174.333	-139.985	-140.248	-134.184	123.305	0.001345	0.0006581	0.00014787	872.42	3.0748e-06	1.3501e-05	659.45	326.2	1.4327e-05	5.4199e-06	300.65	107.65	117.17	50.333	9.7414e-06	49.35	0.0015865	0.0016202	0.00045847	866.8	1.7568e-05	1.7921e-05	665.4	323.59	1.7564e-05	1.7966e-05	306.29	108.92	120.04	50.636	1.8599e-05	50.376	71.166	-157.545	-128.967	-147.500	-29.191	-148.535	-149.117	-141.695	-89.742	115.397	-145.238	-140.835	-137.261	-132.261	-58.268	-136.682	-8191	255	
7117.962	1	1	0	0	0.15218	0.23559	0.20528	0.11589	0.14562	0.31821	0.098873	0.061523	0.41085	0.19952	0.36235	0.065243	0.1083	0.15558	0.2231	0.073846	-1.2479	-2.2917	-2.05	-1.7958	-2.5187	-1.85	-2.2458	-2.725	-1.675	-2.3958	-2.275	-1.9604	-2.6229	-1.9875	-2.0979	-2.6167	56.225	-58.717	80.756	75.722	103.790	30.048	-121.635	188.522	65.562	-150.489	123.170	98.095	173.825	-109.806	135.785	100.191	0.0017237	0.00057177	0.00012275	866.44	1.1901e-05	3.8248e-06	660.13	325.1	7.4547e-06	3.9048e-06	299.17	106.95	118	50.637	7.5115e-06	49.425	0.0016249	0.001669	0.00046992	864.18	1.7736e-05	1.7904e-05	661.91	322.58	1.7633e-05	1.8012e-05	304.05	108.39	120.41	50.866	1.9412e-05	50.405	76.443	50.813	-99.524	-147.448	-83.026	133.282	-149.470	-141.719	-40.226	69.838	-144.594	-140.899	-137.337	-132.213	-55.197	-136.449	-8191	255	
7118.058	1	1	0	0	0.13213	0.15611	0.14038	0.10853	0.14428	0.075674	0.25294	0.24182	0.062469	0.15344	0.11381	0.12843	0.076426	0.2777	0.14992	0.052791	-1.3687	-2.3688	-2.2	-2.1854	-2.4729	-1.9896	-2.0479	-2.5812	-1.8604	-2.4354	-2.3688	-1.8479	-2.6208	-2.1833	-1.8354	-2.6688	28.010	-51.713	-54.718	194.729	-80.732	143.865	69.129	178.489	-55.608	-147.309	-118.082	140.654	-100.285	113.181	-18.606	-78.319	0.0012494	0.00030578	0.00014488	861.17	9.5652e-06	9.562e-06	647.97	326.84	8.1384e-06	8.2919e-06	298.28	107.19	116.97	50.151	2.1202e-05	49.252	0.0017625	0.0018436	0.00051597	867.09	2.0439e-05	2.1156e-05	664	326.32	2.1467e-05	2.2323e-05	309.54	109.94	122.1	51.042	2.2713e-05	50.87	59.589	-99.796	-68.358	-147.767	-0.743	-101.398	-149.791	-141.720	-67.213	-12.018	-144.718	-140.751	-137.085	-132.212	-27.360	-136.218	-8191	255	
7118.154	1	1	0	0	0.3239	0.063841	0.31324	0.034465	0.15338	0.2497	0.14474	0.31795	0.10874	0.1855	0.058566	0.30219	0.18082	0.17367	0.066904	0.16344	-1.3333	-2.1208	-2.3083	-2.0396	-2.2812	-2.1229	-2.1083	-2.6104	-1.8312	-2.2167	-2.4375	-1.7604	-2.5021	-2.2896	-2.0125	-2.6	-65.903	-1.502	119.746	168.573	151.441	127.593	101.139	171.663	48.817	69.400	6.648	128.250	101.926	130.745	113.587	-23.825	0.0012305	0.00037076	0.00015899	863.05	2.0053e-05	9.4467e-06	651.14	325.02	1.2023e-05	1.0447e-05	298.92	106.81	117.93	50.202	5.8249e-06	49.208	0.0020059	0.0020874	0.00057816	869.81	2.2204e-05	2.2629e-05	664.49	326.57	2.2121e-05	2.2436e-05	309.4	109.43	121.85	50.868	2.0953e-05	50.598	57.447	-18.898	-1.019	-147.636	-38.425	11.339	-149.613	-141.751	-63.823	62.949	-145.193	-140.668	-137.569	-132.269	-24.944	-136.794	-8191	255	
7118.275	1	1	0	0	0.18122	0.024274	0.3431	0.039294	0.10908	0.19013	0.065079	0.037245	0.18946	0.1285	0.1318	0.23691	0.080679	0.13491	0.13911	0.17909	-1.4792	-1.9979	-2.4583	-1.875	-2.4313	-2.1063	-2.1125	-2.85	-1.9042	-2.2687	-2.4917	-1.775	-2.325	-2.2396	-1.7583	-2.4188	-129.413	25.114	117.199	-152.370	-75.838	-37.804	-12.545	192.224	98.608	-101.333	56.749	196.223	138.502	110.551	58.694	-68.214	0.0011966	0.00077161	0.00018968	865.26	1.5479e-06	8.3434e-06	649.05	323.22	1.1171e-05	4.7793e-06	296.63	107.4	117.95	50.626	8.3678e-06	49.681	0.0018514	0.0018945	0.00051462	865.79	1.9576e-05	1.9715e-05	658.18	322.41	1.8249e-05	1.7767e-05	302.73	108.16	119.36	50.345	1.5593e-05	49.869	72.880	-118.732	-92.417	-147.641	-115.896	-30.370	-149.515	-141.757	-52.334	36.667	-144.921	-140.565	-137.554	-132.214	-13.058	-136.523	-8191	255	
7118.371	1	1	0	0	0.050957	0.12641	0.14916	0.20539	0.099615	0.16608	0.11968	0.24306	0.12705	0.028062	0.20917	0.080813	0.063942	0.048212	0.13317	0.16878	-1.6583	-1.8979	-2.4979	-1.7104	-2.2146	-2.2396	-1.8958	-2.6375	-2.0563	-2.1437	-2.5896	-1.5958	-2.2521	-2.3917	-1.6458	-2.5563	72.270	82.646	-93.227	-153.429	66.485	-154.920	191.390	113.264	115.644	164.356	148.162	110.799	78.363	189.744	-102.828	107.674	0.001631	0.00063148	0.0002359	864.29	8.5585e-06	6.178e-06	657.8	326.06	2.5729e-06	7.4969e-06	300.3	109.26	118.77	51.502	4.9539e-06	50.001	0.0013675	0.001343	0.00036213	851.56	1.3574e-05	1.3554e-05	650.09	320.1	1.2508e-05	1.2357e-05	298.17	107.24	117.51	50.504	1.1601e-05	49.608	73.606	-61.556	-42.146	-147.809	-17.028	31.650	-149.784	-141.789	22.810	-25.323	-144.882	-140.655	-137.284	-131.857	-67.202	-136.871	-8191	255	
7118.467	1	1	0	0	0.16826	0.058131	0.15326	0.28248	0.15113	0.11351	0.12878	0.13786	0.28633	0.13392	0.074884	0.16559	0.13802	0.18937	0.18199	0.096409	-1.5708	-2.0042	-2.5458	-1.9833	-2.0833	-2.3396	-1.9396	-2.7479	-2.2062	-1.9292	-2.5771	-1.9	-2.4437	-2.3438	-1.7667	-2.5563	-27.512	-126.152	-15.138	-141.766	123.456	116.805	-144.162	89.414	-124.692	14.921	118.016	167.625	167.264	103.242	-92.844	59.615	0.0013461	0.00068855	0.00012219	863.43	5.1542e-06	5.75e-06	661.28	329.12	8.8553e-06	5.5912e-06	302.11	108.61	118.78	51.779	6.8604e-06	50.219	0.0010217	0.0010098	0.00027548	845.06	1.0695e-05	1.0591e-05	648.48	319.53	1.0158e-05	1.0319e-05	296.73	106.85	117.31	50.633	1.0957e-05	49.733	71.371	-35.201	-52.723	-147.564	-154.981	-118.367	-149.740	-141.684	-101.657	25.574	-145.032	-140.965	-137.399	-132.134	45.709	-136.332	-8191	255	
7118.563	1	1	0	0	0.3145	0.05785	0.054973	0.094851	0.25069	0.29068	0.26171	0.2808	0.10001	0.073266	0.12261	0.094973	0.2892	0.28592	0.12198	0.10733	-1.7354	-1.7042	-2.4771	-2.0187	-2.1188	-2.5062	-1.75	-2.4917	-2.1354	-1.7938	-2.2958	-1.9646	-2.0708	-2.5104	-1.6583	-2.4188	-1.745	165.993	88.888	158.608	-13.353	32.491	-90.989	-140.960	27.576	-51.066	59.712	171.513	94.349	198.608	-47.916	125.154	0.0012928	0.0014198	3.0036e-05	870.05	1.4144e-05	6.0023e-06	663.36	329.22	3.8124e-06	1.2441e-05	301.04	108.08	118.8	51.476	9.6013e-06	50.382	0.0010527	0.0010833	0.00030202	850.72	1.2048e-05	1.2026e-05	651.98	320.26	1.2091e-05	1.1887e-05	298.3	106.9	117.76	50.595	1.1863e-05	49.849	61.158	-82.003	149.686	-147.679	-51.567	-53.174	-149.342	-141.819	-89.573	15.562	-145.063	-140.803	-137.484	-132.036	-22.514	-136.673	-8191	255	
7118.659	1	1	0	0	0.23054	0.17815	0.10622	0.23734	0.41078	0.21762	0.13303	0.15986	0.16662	0.24408	0.27558	0.22731	0.30131	0.52303	0.12883	0.16563	-1.8771	-1.5729	-2.5521	-1.9354	-1.9979	-2.5438	-1.8542	-2.3458	-2.2687	-1.8188	-2.5375	-2.0062	-1.9604	-2.5208	-1.6229	-2.2771	12.103	25.267	-106.686	-148.947	78.543	-32.737	191.021	169.209	-81.735	-8.531	168.152	-132.561	-99.615	179.923	-85.514	157.709	0.0014957	0.00031942	0.000223	871.24	9.1837e-06	3.5385e-06	665.63	329.53	1.1515e-05	5.1242e-06	302.61	109.95	118.61	51.922	7.0016e-06	51	0.001062	0.0010461	0.00028807	850.41	1.0892e-05	1.0673e-05	651.55	319.55	1.0107e-05	9.9861e-06	298.19	107.32	116.53	50.669	9.1891e-06	49.973	62.979	-4.288	36.212	-147.360	-93.811	122.401	-149.176	-141.896	-33.185	94.679	-144.954	-140.634	-137.424	-132.213	-40.354	-136.590	-8191	255	
7118.754	1	1	0	0	0.16827	0.16247	0.19324	0.20556	0.11153	0.15195	0.31919	0.27705	0.44222	0.40326	0.078123	0.098004	0.091461	0.24686	0.16785	0.24564	-1.9625	-1.7958	-2.4979	-2.1813	-1.8042	-2.6854	-1.9396	-2.2062	-2.3917	-1.9083	-2.5792	-2.4083	-1.8271	-2.5604	-1.9917	-2.1063	-79.774	-150.376	-132.993	-130.925	-61.211	-103.171	165.668	134.884	-24.135	-18.545	125.996	184.190	125.288	-150.358	124.837	-136.550	0.0014501	0.00041499	4.2394e-05	880.88	2.5908e-06	1.8085e-06	672.73	330.56	1.2913e-05	4.8243e-06	304.89	110.38	120.69	52.512	7.9188e-06	51.812	0.00081935	0.00078833	0.00021373	852.72	8.0303e-06	8.0115e-06	655.59	320.14	7.8958e-06	7.9568e-06	298.12	107.43	117.09	50.923	7.7114e-06	50.218	70.734	-110.413	184.885	-147.252	191.815	-149.660	-149.583	-142.075	8.090	-11.152	-144.794	-140.490	-137.756	-132.289	-18.755	-136.648	-8191	255	
7118.874	1	1	0	0	0.041215	0.26403	0.20711	0.22476	0.13922	0.24208	0.47695	0.30845	0.12339	0.13727	0.18623	0.13507	0.12082	0.12639	0.35838	0.17512	-2.0021	-1.8042	-2.2646	-2.3875	-1.8042	-2.6646	-2.0938	-2.2021	-2.375	-1.7938	-2.2917	-2.3021	-1.8667	-2.5958	-1.9875	-2.05	-25.082	185.071	-85.516	61.254	42.571	131.065	-156.367	140.161	-123.114	164.644	181.505	-132.417	149.664	-108.790	-36.413	-143.372	0.001778	0.00047363	0.00016623	881.17	5.6021e-06	4.38e-06	678.96	331.33	1.2507e-05	7.4231e-06	308.06	111.15	121.46	53.035	4.7678e-06	52.057	0.00069031	0.00066658	0.00018731	850.63	7.1475e-06	6.9897e-06	655.84	320.07	6.643e-06	6.7012e-06	297.48	107.4	116.88	51.179	6.0657e-06	50.387	69.881	-95.851	-48.709	-147.581	188.401	-10.338	-149.379	-141.911	-69.094	26.106	-145.145	-140.607	-137.511	-132.434	-36.913	-137.461	-8191	255	
7118.970	1	1	0	0	0.28772	0.15101	0.30852	0.3033	0.023945	0.28236	0.048055	0.12034	0.1199	0.22742	0.2122	0.16139	0.16505	0.32183	0.16876	0.22118	-2.0271	-1.7604	-2.2333	-2.2438	-1.8708	-2.3771	-2.2208	-2.1146	-2.3167	-1.8	-2.1542	-2.5	-1.9375	-2.3688	-2.2083	-2.1625	82.741	-143.508	185.795	155.581	147.446	133.377	121.335	-131.211	-64.910	81.121	-95.911	132.365	45.604	-159.075	169.881	150.847	0.0013205	0.00024554	8.9954e-05	891.38	5.6133e-06	2.2476e-06	683.4	332.92	7.4312e-06	8.4729e-06	307.6	110.17	121.24	52.732	6.9362e-06	52.11	0.00056304	0.00055204	0.00015505	855.39	6.1251e-06	6.1498e-06	659.94	320.64	6.2806e-06	6.3661e-06	297.41	106.92	116.46	51.086	6.5445e-06	50.381	70.861	190.613	167.924	-147.930	170.146	-80.578	-149.775	-142.351	-63.012	-40.054	-145.525	-141.065	-138.101	-132.865	11.073	-137.356	-8191	255	
7119.067	1	1	0	0	0.029834	0.24117	0.27382	0.28553	0.23181	0.15489	0.055078	0.093417	0.16067	0.2774	0.24577	0.2822	0.020909	0.36371	0.13127	0.13753	-2.1188	-1.8708	-2.0375	-2.5729	-1.8354	-2.3958	-2.1479	-2.125	-2.2417	-1.9271	-2.0187	-2.6708	-1.7396	-2.3688	-2.2875	-1.8917	97.085	28.380	68.757	140.166	176.601	-151.489	-116.481	178.352	67.271	95.165	-122.676	169.853	181.917	89.981	-20.305	40.353	0.0016586	0.00072098	0.00012943	888.2	3.3042e-06	6.5073e-06	684.26	331.94	7.5385e-06	1.029e-05	306.49	110.89	120.7	52.555	6.1676e-06	52.313	0.00062695	0.0006028	0.00016931	857.22	6.6091e-06	6.6774e-06	660.48	321.04	6.6776e-06	6.5317e-06	297.9	107.07	116.67	51.054	6.1201e-06	50.631	76.040	-9.429	-63.922	-147.519	-65.255	29.628	-149.211	-141.872	9.717	-3.443	-145.114	-140.574	-137.238	-132.386	-18.097	-136.594	-8191	255	
7119.138	1	1	0	0	0.23963	0.060577	0.25704	0.22402	0.1263	0.18945	0.24357	0.34034	0.34933	0.16651	0.025141	0.32356	0.26076	0.40332	0.20288	0.16124	-2.0729	-1.7437	-1.9375	-2.6146	-1.7687	-2.3229	-2.4375	-1.9021	-2.5438	-2.0708	-1.9979	-2.6	-1.9583	-2.3333	-2.3438	-1.9	95.306	59.987	-84.986	188.509	-70.174	-3.054	-156.079	104.897	136.561	157.292	-106.972	-110.418	152.508	191.456	96.106	186.425	0.0015016	0.0001324	6.8594e-05	891.62	2.65e-06	3.6329e-06	684.96	334.85	7.5782e-06	9.0681e-06	310.02	112.41	121.68	52.986	2.3045e-06	52.714	0.00056068	0.00054117	0.00014772	856.14	5.5528e-06	5.5755e-06	662.07	322.07	5.3924e-06	5.5395e-06	298.6	107.9	116.99	51.373	5.7425e-06	50.792	73.611	6.171	178.966	-147.490	-75.475	-27.420	-149.377	-141.969	-43.132	12.530	-144.874	-140.440	-137.622	-132.281	-44.425	-136.557	-8191	255	
7119.259	1	1	0	0	0.14758	0.12836	0.17156	0.30269	0.26713	0.24274	0.2262	0.054664	0.0081838	0.11598	0.28227	0.089867	0.14131	0.11855	0.096661	0.12997	-2.0708	-2.0563	-2.0125	-2.5917	-2.0646	-2.1063	-2.4021	-1.8188	-2.3667	-2.1792	-2.0333	-2.5458	-1.9333	-2.2833	-2.4458	-1.8438	-23.670	168.125	-87.425	155.081	68.509	-79.693	64.766	-34.540	39.844	-102.134	110.394	-158.913	172.877	-120.003	-19.546	86.205	0.0014589	0.00076694	0.00017488	897.09	9.0973e-06	3.91e-06	690.34	334.64	8.1557e-06	9.6916e-06	310.19	111.51	122.24	52.763	8.7791e-06	52.116	0.00055326	0.00055318	0.00015059	859.42	6.1383e-06	6.1939e-06	662.45	322.46	6.4731e-06	6.4942e-06	299.2	107.76	117.39	51.251	6.357e-06	50.491	67.750	-98.948	-90.778	-147.699	-7.268	-22.209	-149.394	-141.765	-43.392	7.699	-145.110	-140.911	-137.352	-132.225	-51.386	-136.840	-8191	255	
7119.355	1	1	0	0	0.26472	0.25333	0.22477	0.20317	0.053001	0.037848	0.22268	0.056074	0.10329	0.2335	0.19712	0.3051	0.30607	0.27037	0.2014	0.29242	-2.1125	-2.2979	-1.9167	-2.5854	-1.8667	-1.9979	-2.4667	-2.0167	-2.2917	-2.2167	-2.1146	-2.4104	-2.2812	-2.1396	-2.3979	-1.9188	68.373	-159.298	-36.952	179.344	65.440	185.208	135.839	178.611	-100.054	-60.821	75.753	127.845	-145.454	126.294	151.992	-98.533	0.0017422	0.00072556	6.5643e-05	893.87	1.2419e-05	6.0714e-06	689.23	334.71	6.2697e-06	8.7481e-06	309.64	111.61	121.95	53.368	4.0584e-06	52.377	0.0005904	0.00057245	0.00015532	858.66	6.0172e-06	6.0427e-06	662.18	321.97	6.0516e-06	5.9264e-06	298.41	107.63	117.14	51.567	5.629e-06	50.789	66.184	-66.911	-25.264	-147.505	-35.015	-42.544	-149.510	-141.970	-32.620	17.470	-144.933	-140.697	-137.428	-132.138	-34.438	-136.433	-8191	255	
7119.451	1	1	0	0	0.10053	0.14797	0.1415	0.11956	0.092376	0.1381	0.11403	0.18596	0.32678	0.12894	0.14544	0.25215	0.083551	0.16765	0.1365	0.062562	-1.9479	-2.1646	-1.65	-2.5146	-2.0333	-1.9396	-2.7146	-2.0479	-2.2	-2.1833	-1.8646	-2.3563	-2.2104	-1.9937	-2.6188	-2.0125	110.251	-139.642	110.957	101.647	-147.051	-74.401	118.589	117.415	-24.832	174.020	186.522	-32.103	113.079	67.801	-100.686	176.110	0.001447	0.00066944	0.00012783	893.88	7.7962e-06	3.5744e-06	690.24	336.19	1.0024e-05	1.7092e-06	310.55	111.82	122.62	53.732	5.1728e-06	52.806	0.00053372	0.00051796	0.00014378	857.35	5.7266e-06	5.6417e-06	662.68	322.54	5.6923e-06	5.6395e-06	299.84	108.02	117.6	51.739	5.2435e-06	51.05	62.941	-73.393	-48.162	-148.243	-87.262	-36.955	-149.924	-142.285	-28.096	-44.737	-145.585	-141.342	-138.140	-132.919	-105.699	-136.645	-8191	255	
7119.547	1	1	0	0	0.070322	0.040971	0.18622	0.19566	0.17987	0.069025	0.25415	0.28374	0.084591	0.10784	0.33486	0.30512	0.15734	0.18173	0.18924	0.16215	-1.5625	-2.4688	-1.5479	-2.5479	-2.0938	-1.95	-2.6646	-1.9042	-2.1458	-2.425	-1.825	-2.1083	-2.2542	-1.7917	-2.4833	-2.25	187.883	59.782	-127.073	191.021	86.122	0.050	69.378	145.628	89.436	-157.805	140.230	187.821	110.818	149.071	-63.704	182.726	0.0013777	0.00081045	0.00022104	895.54	3.3241e-06	4.8944e-06	694.59	335.25	1.0969e-05	6.7195e-06	313.21	114.02	123.64	54.428	6.2166e-06	53.606	0.00049796	0.00047165	0.00013399	859.76	5.1152e-06	5.1983e-06	667.21	323	4.9837e-06	4.8734e-06	300.41	108.84	118.15	52.151	4.3221e-06	51.715	70.178	-81.905	-80.107	-148.741	-106.127	-25.284	-150.149	-142.643	-31.123	15.478	-145.858	-141.540	-138.293	-133.177	-21.920	-137.430	-8191	255	
7119.666	1	1	0	0	0.22745	0.17746	0.10109	0.16007	0.11753	0.11427	0.17056	0.16251	0.21201	0.17395	0.28456	0.25677	0.088381	0.031741	0.16168	0.43994	-1.5688	-2.4042	-1.6313	-2.3125	-2.3958	-1.8229	-2.7542	-2.1479	-2.1625	-2.6417	-1.6646	-2.3083	-2.3396	-1.9396	-2.4604	-2.0542	-149.703	59.505	-133.539	-97.415	-126.192	-157.257	60.963	69.359	154.774	-154.033	199.350	112.646	60.712	-43.105	168.540	-160.055	0.0013504	0.00046609	0.00015385	907.16	5.1487e-06	6.0676e-06	703.67	339.15	7.1677e-06	5.5625e-06	314.78	114.3	123.92	54.385	1.7681e-06	53.706	0.00041535	0.00036903	0.0001059	864.28	4.1445e-06	4.0428e-06	673.36	324.57	4.0653e-06	4.0683e-06	301.62	109.4	118.43	52.363	4.4957e-06	51.789	63.195	-80.696	-68.348	-148.354	-106.489	-36.291	-149.951	-142.349	-54.605	76.208	-145.823	-141.638	-137.795	-133.090	15.351	-137.490	-8191	255	
7119.762	1	1	0	0	0.15285	0.013899	0.22104	0.21738	0.11151	0.23614	0.13666	0.15136	0.34368	0.17037	0.074868	0.097933	0.15761	0.31176	0.172	0.13911	-1.5792	-2.5104	-1.6354	-2.2875	-2.4979	-1.8646	-2.5667	-2.1458	-1.9479	-2.5229	-1.8917	-2.2062	-2.4792	-2.0687	-2.4292	-2.2604	155.717	185.783	-118.296	169.506	-109.651	74.920	148.269	157.264	103.611	-70.590	174.730	134.770	49.452	138.064	-52.882	1.786	0.0015422	0.0004187	0.00010602	903.7	9.6572e-06	1.289e-06	698.49	337.03	9.8457e-06	1.356e-05	314.04	112.58	121.93	53.887	3.5699e-06	53.106	0.00045272	0.00043549	0.00012317	865.53	5.0621e-06	5.1684e-06	672.44	323.94	5.4393e-06	5.341e-06	301.82	108.14	117.53	51.865	5.5345e-06	51.302	73.092	-94.335	-67.338	-148.475	-126.594	-88.738	-150.412	-142.674	-10.702	14.763	-145.619	-141.179	-138.478	-133.019	-39.504	-137.128	-8191	255	
7119.836	1	1	0	0	0.18482	0.080751	0.090318	0.041772	0.056836	0.045045	0.12697	0.035565	0.12005	0.11542	0.098546	0.28846	0.3352	0.22062	0.16392	0.47312	-1.45	-2.5687	-1.7792	-2.1646	-2.4562	-1.8333	-2.5292	-2.4	-2.0042	-2.6312	-2.15	-2.1396	-2.4917	-1.8458	-2.4375	-2.3167	131.514	137.917	60.162	102.492	121.830	-105.118	149.071	53.085	159.929	29.072	173.545	-141.835	74.639	134.798	-1.137	75.266	0.001783	0.00029609	0.00013827	900.89	7.5305e-06	2.4451e-06	696.19	338.21	1.4201e-05	8.2208e-06	313.67	113.37	122.94	53.664	7.2213e-06	53.134	0.00051234	0.00047592	0.00013188	863.73	4.9191e-06	4.9733e-06	670.51	324.32	5.0046e-06	4.8801e-06	301.1	108.58	117.91	51.859	5.0845e-06	51.327	70.475	-122.782	-94.336	-148.444	-49.148	-3.732	-150.425	-142.647	7.493	-11.906	-145.714	-141.623	-138.043	-132.851	-27.566	-137.402	-8191	255	
7119.955	1	1	0	0	0.2869	0.067453	0.22712	0.22172	0.19268	0.26169	0.055069	0.20244	0.19781	0.11675	0.24678	0.26006	0.14431	0.32384	0.39722	0.16459	-1.1292	-2.2729	-1.8771	-2.0167	-2.6146	-1.7313	-2.3646	-2.4604	-1.6667	-2.6625	-2.0208	-2.0458	-2.45	-1.7417	-2.0104	-2.5458	54.798	112.019	120.019	162.022	173.979	-16.225	101.765	177.171	-17.197	-51.997	174.647	149.903	189.501	140.955	-69.702	130.061	0.0014824	0.00037075	0.00029411	900.59	4.6687e-06	4.2644e-06	701.15	338.36	1.3096e-05	1.1261e-05	313.17	112.54	122.57	53.681	7.6047e-06	52.628	0.00048455	0.0004563	0.00012889	864.91	5.0316e-06	5.1063e-06	673.83	324.82	5.4248e-06	5.6222e-06	302.12	108.74	118.04	51.838	6.3876e-06	51.347	72.225	-44.980	-106.855	-148.545	-93.368	-46.466	-149.825	-142.253	-40.036	75.595	-145.565	-141.124	-137.717	-132.217	-58.853	-136.390	-8191	255	
7120.051	1	1	0	0	0.13613	0.15359	0.27574	0.24794	0.22868	0.024648	0.084206	0.43252	0.082235	0.3062	0.39803	0.21341	0.25811	0.082841	0.20825	0.34404	-1.35	-2.4688	-1.9729	-2.0375	-2.3688	-1.8813	-2.2729	-2.3896	-1.8833	-2.4708	-2.125	-1.9125	-2.4062	-2.0458	-2.0042	-2.5521	-2.132	-54.497	155.780	130.425	36.713	-19.874	108.784	-156.439	91.740	-23.796	79.494	172.916	198.420	114.057	162.867	133.913	0.0013292	0.00050481	0.00019993	902.52	7.1051e-06	9.8325e-06	697.33	337.66	1.4562e-06	1.035e-05	311.56	111.4	121	52.801	2.7979e-06	52.268	0.00062181	0.00061342	0.00017818	868.94	7.3142e-06	7.5774e-06	674.14	325.85	8.2344e-06	8.5811e-06	303.98	108.8	118.29	51.486	9.761e-06	51.153	73.946	156.878	-16.885	-147.482	-41.958	-34.023	-149.550	-142.023	-12.458	54.741	-144.509	-140.668	-137.177	-132.068	59.376	-136.378	-8191	255	
7120.147	1	1	0	0	0.075693	0.23549	0.27012	0.3027	0.17201	0.12789	0.24964	0.36881	0.24195	0.030221	0.11144	0.13123	0.04711	0.17816	0.17225	0.038247	-1.5458	-2.3812	-2.1854	-1.9375	-2.4146	-1.9562	-2.0312	-2.4854	-1.6417	-2.0521	-2.1583	-1.6604	-2.5833	-1.9104	-1.8396	-2.5187	-150.456	-50.468	-25.909	182.516	-59.223	34.202	199.554	172.108	48.226	-140.932	146.140	-136.665	170.528	188.037	-35.566	180.122	0.0016532	0.00070073	9.01e-05	887.88	1.1912e-05	2.6869e-06	682.94	333.72	1.6039e-05	7.6005e-06	310.94	110.71	120.69	52.34	1.013e-05	51.294	0.00090071	0.00093419	0.00026175	867.39	1.0348e-05	1.0711e-05	670.58	325.15	1.1337e-05	1.1645e-05	306.21	109.04	118.86	51.422	1.2317e-05	51.061	63.043	-82.718	-11.787	-147.432	-19.654	142.384	-149.745	-141.794	-9.519	-14.364	-144.730	-140.618	-137.237	-131.962	-30.077	-136.471	-8191	255	
7120.268	1	1	0	0	0.1962	0.36599	0.040702	0.076081	0.23026	0.10766	0.1811	0.14587	0.12544	0.13805	0.11842	0.090091	0.15426	0.2055	0.15568	0.18192	-1.2625	-1.9854	-2.2625	-1.8604	-2.4313	-2.1229	-2.1667	-2.6354	-1.9312	-2.1146	-2.5	-1.8667	-2.5771	-2.4437	-2	-2.6833	-121.832	-136.961	50.525	-135.514	77.158	-142.143	59.910	160.429	-123.167	-43.145	128.963	-104.731	67.742	73.179	69.365	131.809	0.001055	0.00065866	0.00022046	888.6	1.1814e-05	5.2927e-06	681.17	332.17	3.951e-06	8.0358e-06	307.14	109.37	120.27	51.918	4.4674e-06	50.966	0.0011415	0.0011754	0.00033179	870.47	1.3295e-05	1.357e-05	671.87	325.88	1.387e-05	1.4155e-05	307.45	109.27	120.26	51.404	1.5365e-05	51.263	64.280	-69.513	-54.127	-148.227	-70.343	-39.726	-149.478	-141.874	-89.225	-52.347	-144.989	-140.406	-137.354	-132.282	-102.987	-136.420	-8191	255	
7120.364	1	1	0	0	0.11848	0.070582	0.058915	0.1325	0.048966	0.23369	0.19126	0.14488	0.27995	0.08087	0.098235	0.28543	0.18541	0.23839	0.07463	0.25263	-1.5167	-2.1125	-2.3917	-2.0354	-2.4375	-2.1896	-1.9562	-2.6333	-1.8563	-2.2938	-2.5062	-1.9167	-2.4083	-2.3333	-2.0542	-2.6729	14.440	147.930	170.219	126.632	-109.159	-146.620	-0.425	158.020	-147.085	127.133	115.079	165.322	134.903	198.714	-72.367	56.718	0.0014429	0.00069227	0.00025049	877.69	5.4388e-06	7.7001e-06	674.29	330.01	1.301e-05	2.47e-06	305.41	109.35	119.42	51.431	8.7943e-06	50.596	0.0014497	0.0015474	0.00043586	874.89	1.7766e-05	1.851e-05	680.17	328.78	1.9332e-05	1.9849e-05	312.87	111.21	122.36	51.655	1.8882e-05	51.581	79.588	-62.910	59.600	-147.639	-129.184	-14.171	-149.420	-141.706	-20.339	71.485	-144.630	-140.383	-137.380	-131.953	-45.624	-136.682	-8191	255	
7120.435	1	1	0	0	0.23728	0.26207	0.097083	0.482	0.031086	0.166	0.27793	0.44484	0.24362	0.098591	0.1842	0.16898	0.33769	0.1408	0.1091	0.16271	-1.7646	-2.1271	-2.45	-1.9937	-2.3917	-2.3187	-1.8479	-2.6229	-2.0708	-2.0958	-2.7083	-1.8417	-2.3229	-2.5187	-1.9562	-2.7292	58.689	-93.266	188.663	169.611	137.867	-5.059	115.117	81.959	-152.232	53.622	-156.688	94.818	160.508	106.973	189.912	-76.044	0.0015587	0.00087226	0.00015788	879.51	1.2859e-05	5.2475e-06	672.04	332.29	5.1952e-06	9.4401e-06	306.1	110.42	120.18	51.694	8.3217e-06	50.899	0.0016692	0.0016946	0.00046732	876.07	1.7908e-05	1.8012e-05	676.34	328.44	1.7302e-05	1.7357e-05	310.32	110.55	120.99	51.394	1.5599e-05	51.15	80.313	-39.652	-39.217	-147.478	-8.104	-101.266	-149.492	-141.769	-58.750	-27.993	-144.968	-140.491	-137.713	-131.994	-28.124	-136.472	-8191	255	
7120.556	1	1	0	0	0.18964	0.15814	0.2601	0.20171	0.090964	0.13649	0.29011	0.12842	0.086313	0.086556	0.21222	0.11039	0.07905	0.34372	0.18926	0.1468	-1.6042	-1.9188	-2.4771	-1.9604	-2.2604	-2.4625	-1.7917	-2.7062	-2.1521	-1.9271	-2.5146	-1.9021	-2.0896	-2.6167	-1.7125	-2.5104	-148.261	113.836	-86.773	168.504	147.129	92.116	147.652	-156.853	23.991	-100.408	-125.054	111.647	-146.114	188.883	-112.229	-142.339	0.0016044	0.00067247	0.00029705	882.09	1.3764e-06	5.2601e-06	670.5	331.2	1.183e-05	1.4664e-05	304.13	109.29	119.45	51.237	9.3342e-06	50.449	0.0013838	0.0014211	0.00039415	867.32	1.592e-05	1.6188e-05	671.57	327.4	1.7182e-05	1.7717e-05	309.88	110.54	121.58	51.523	1.8438e-05	51.341	77.183	-118.517	-32.480	-147.515	-10.446	-26.579	-149.476	-141.818	-101.436	19.785	-144.664	-140.700	-137.627	-132.080	-26.408	-136.524	-8191	255	
7120.650	1	1	0	0	0.10187	0.23156	0.21285	0.33236	0.17725	0.020976	0.18167	0.08921	0.10985	0.42354	0.32693	0.38227	0.092476	0.20303	0.19511	0.1147	-1.7938	-1.8625	-2.6417	-2.1021	-2.1375	-2.4646	-1.9875	-2.4208	-2.2917	-1.8875	-2.65	-1.9167	-2.0833	-2.4271	-1.8146	-2.2729	-92.436	70.485	-122.247	177.476	21.581	-62.223	-124.137	95.367	100.147	70.250	89.616	177.990	-29.840	193.004	-77.654	156.436	0.0014314	0.0007029	0.0001729	878.54	1.2807e-05	2.8335e-06	669.36	329.14	1.6718e-05	5.5737e-06	302.83	109.79	118.32	50.974	1.1998e-05	50.121	0.0016643	0.0016992	0.00047091	870.06	1.8363e-05	1.8118e-05	671.64	325.29	1.793e-05	1.817e-05	308.35	110.3	121.15	51.229	1.8555e-05	51.161	49.199	-14.080	-30.722	-147.387	-31.226	-38.850	-149.658	-141.835	-82.942	-25.402	-145.066	-140.389	-137.832	-132.131	32.828	-136.630	-8191	255	
7120.747	1	1	0	0	0.24663	0.070682	0.097215	0.019724	0.13105	0.17781	0.34048	0.21107	0.17546	0.13968	0.1973	0.1277	0.25474	0.14002	0.13196	0.30515	-2.0187	-1.6729	-2.5167	-2.0646	-1.7521	-2.5062	-1.7021	-2.2417	-2.25	-1.65	-2.5312	-2.0396	-2.0062	-2.6937	-1.8146	-2.1354	-45.121	-157.419	-86.328	-80.000	92.431	42.000	130.931	133.915	151.177	-84.442	150.913	-40.274	-2.222	147.598	63.366	197.041	0.0015035	0.00014949	0.00012768	867.97	7.2175e-06	7.1544e-06	670.06	327.08	7.0445e-06	4.069e-06	303.35	108.3	118.32	50.778	1.3013e-05	49.331	0.001702	0.0017589	0.00049413	871.93	1.9929e-05	2.0392e-05	680.7	327.4	2.1188e-05	2.1565e-05	313.46	111.29	122.34	51.303	2.1976e-05	51.349	74.805	176.006	-77.499	-147.475	-15.547	48.622	-149.307	-141.883	43.663	-71.044	-145.160	-140.653	-137.497	-131.958	-77.821	-136.399	-8191	255	
7120.843	1	1	0	0	0.024651	0.20225	0.30262	0.28012	0.15446	0.049187	0.33138	0.074549	0.28577	0.31175	0.10684	0.1913	0.12574	0.32314	0.078937	0.36055	-2.0125	-1.725	-2.2125	-2.0479	-1.9667	-2.4333	-1.8854	-2.1833	-2.4708	-1.525	-2.4792	-2.2083	-2.1146	-2.7396	-2	-2.2271	-1.524	158.695	176.669	-118.315	-98.789	-14.660	134.984	116.328	-113.858	43.059	-143.753	80.202	9.910	175.181	172.376	186.694	0.0014031	0.00053268	2.4197e-05	867.01	1.0192e-05	6.1775e-06	669.51	325.82	6.2534e-06	9.5304e-06	303.41	107.83	117.76	50.293	1.3872e-05	49.642	0.0020038	0.0020792	0.00058775	881.28	2.3772e-05	2.4456e-05	688.37	330.98	2.5686e-05	2.6126e-05	320.26	113.19	125.12	51.765	2.7988e-05	52.495	66.533	-103.116	-53.446	-147.663	-69.144	85.999	-149.131	-141.841	-9.000	49.912	-145.362	-140.627	-137.692	-131.837	102.493	-136.153	-8191	255	
7120.963	1	1	0	0	0.25077	0.25096	0.07435	0.13802	0.35887	0.065991	0.19261	0.29657	0.10277	0.091757	0.11662	0.25242	0.16087	0.19905	0.21333	0.12299	-2.0521	-1.7292	-2.1771	-2.2479	-1.9042	-2.5687	-2.1417	-2.1125	-2.5417	-1.9729	-2.3063	-2.2354	-1.9667	-2.35	-1.9021	-2.0687	29.925	27.017	151.655	147.957	-155.282	19.508	-52.227	170.700	26.801	53.307	86.442	121.840	151.556	-14.234	-129.334	-132.203	0.001074	0.0015275	0.00014254	868.43	1.339e-05	1.4406e-05	666.55	326.62	6.2571e-06	8.2354e-06	304.07	108.34	116.9	50.202	1.4766e-05	49.459	0.0025506	0.0026714	0.00075281	896.74	2.9825e-05	3.0149e-05	698.23	335.71	3.0661e-05	3.1506e-05	328.18	115.55	128.16	52.464	3.3742e-05	53.341	52.525	-105.947	38.202	-147.836	-88.882	-97.493	-149.906	-142.134	33.025	31.231	-145.227	-140.663	-137.806	-132.287	-76.740	-136.501	-8191	255	
7121.059	1	1	0	0	0.13039	0.12189	0.13117	0.106	0.30984	0.080023	0.13574	0.12674	0.18061	0.13114	0.019125	0.27002	0.21076	0.36264	0.10521	0.17915	-2.2208	-1.8396	-2.2125	-2.3792	-1.7146	-2.4625	-2.1271	-2	-2.375	-1.8188	-2.4896	-2.5125	-1.9062	-2.6792	-2.3229	-2.0187	175.540	141.165	152.104	-152.467	-112.136	98.241	108.956	61.158	14.003	150.245	-65.189	113.730	133.631	-150.435	91.799	-108.551	0.0017903	0.0010166	0.00040356	868.34	5.8507e-06	5.5137e-06	664.14	328.25	2.0914e-05	1.1507e-05	301.48	108.26	118.69	50.315	8.9385e-06	49.225	0.0030051	0.0032094	0.00091419	911.65	3.6318e-05	3.77e-05	712.91	344.16	3.8459e-05	3.9857e-05	337.39	118.85	133.37	53.742	4.1607e-05	54.771	64.262	-35.354	32.269	-147.567	-110.106	6.047	-149.470	-142.025	9.695	90.074	-144.529	-140.420	-137.339	-131.977	94.919	-136.438	-8191	255	
7121.131	1	1	0	0	0.15232	0.32658	0.052152	0.24224	0.2924	0.061845	0.2213	0.29252	0.13568	0.15166	0.18346	0.19708	0.099942	0.12501	0.17679	0.23252	-2.25	-1.85	-2.3583	-2.575	-2.0021	-2.3979	-2.2646	-2.0312	-2.5458	-1.9125	-2.1625	-2.4417	-1.7646	-2.4396	-2.3292	-1.9479	67.377	-125.145	47.476	-148.998	-83.539	-35.983	-83.620	62.698	113.170	-156.403	75.678	190.430	-104.702	-121.002	173.748	180.562	0.001753	0.00028382	0.00017869	873.49	9.4813e-06	1.3625e-05	659.32	328.56	1.3533e-05	1.8688e-05	301.13	107.94	119.02	50.31	1.7794e-05	49.086	0.0036932	0.0039081	0.0010964	936.1	4.3215e-05	4.4751e-05	727.22	349.91	4.5367e-05	4.6178e-05	345.68	121.1	135.93	54.284	4.5651e-05	55.225	68.893	-82.441	-52.544	-147.312	-72.624	-42.363	-149.640	-141.789	-56.513	36.605	-145.065	-140.942	-137.947	-132.216	14.022	-136.509	-8191	255	
7121.227	1	1	0	0	0.11524	0.09073	0.25452	0.12303	0.046208	0.12441	0.10824	0.17821	0.088146	0.12844	0.44953	0.34604	0.32203	0.345	0.27417	0.1982	-2.2229	-2.1292	-2.1354	-2.6042	-1.8375	-2.2271	-2.5687	-1.9021	-2.55	-2.0021	-1.9604	-2.6437	-1.8979	-2.3187	-2.2958	-1.8583	-146.188	140.695	-109.337	-4.105	-75.852	33.963	22.270	104.459	102.263	123.200	125.107	125.891	3.757	82.879	82.135	-149.208	0.002176	0.0016945	0.00028944	862.71	1.6021e-05	1.2304e-05	650.47	328.21	1.5317e-05	2.1541e-05	300.22	108.41	118.34	50.215	6.6991e-06	49.079	0.0039172	0.0040893	0.0011321	928.27	4.3128e-05	4.3504e-05	714.09	345.66	4.1544e-05	4.1896e-05	337.82	119.04	133.58	53.79	4.1217e-05	54.79	56.089	-71.343	-3.870	-147.851	-149.057	90.894	-149.538	-142.120	-121.372	46.480	-145.063	-140.755	-137.655	-132.618	46.145	-136.510	-8191	255	
7121.348	1	1	0	0	0.056129	0.25044	0.21586	0.14888	0.11679	0.042726	0.073355	0.32332	0.09465	0.31929	0.073712	0.32952	0.12241	0.18341	0.19378	0.046204	-2.1292	-2.0542	-1.8188	-2.7687	-1.8208	-2.3458	-2.5708	-2.0187	-2.5104	-2.1292	-1.8854	-2.5146	-2.0938	-2.325	-2.5521	-2.0896	-15.149	174.184	102.640	24.750	-62.625	-93.095	-54.453	154.511	-29.479	118.692	175.789	136.479	-128.446	-116.781	-90.364	199.510	0.001283	0.00047652	0.00031597	854.26	3.0179e-06	1.0276e-05	647.92	328.62	2.4828e-05	1.9495e-05	301.59	109.64	117.86	50.294	1.5425e-05	48.947	0.0036903	0.0039119	0.0011146	923.18	4.5964e-05	4.8185e-05	727.65	353.84	5.0642e-05	5.282e-05	355.1	125.29	141.81	55.866	5.6144e-05	57.572	69.646	-70.911	18.650	-147.513	21.542	-2.762	-149.418	-142.319	-13.643	-3.570	-145.736	-141.113	-137.707	-132.598	48.066	-136.949	-8191	255	
7121.444	1	1	0	0	0.085167	0.32922	0.1485	0.13347	0.20344	0.11535	0.36728	0.17111	0.10678	0.020279	0.073324	0.097749	0.02026	0.36972	0.070206	0.27575	-1.9813	-2.1375	-1.775	-2.6437	-1.9542	-2.0417	-2.6021	-2.0104	-2.6396	-2.4271	-2.0458	-2.7417	-1.9167	-2.0792	-2.5521	-1.8979	-138.579	96.153	60.261	-87.424	-121.809	158.234	143.649	102.716	169.752	118.116	-80.559	197.003	119.679	157.006	-72.533	-142.571	0.0015066	0.00071623	0.00063573	867.62	1.1231e-05	1.1072e-05	654.67	329.33	1.3224e-05	6.056e-06	303.27	108.61	119.57	50.01	1.6863e-05	48.545	0.0050943	0.0054194	0.0015256	977.67	6.228e-05	6.4793e-05	770.39	368.56	6.8318e-05	7.0913e-05	380.04	132.8	152.93	58.417	7.5548e-05	61.065	55.469	61.070	164.696	-147.917	100.342	-29.071	-149.501	-142.338	-48.417	198.215	-145.008	-140.787	-137.321	-132.102	-28.707	-136.456	-8191	255	
7121.540	1	1	0	0	0.14058	0.058865	0.22266	0.3264	0.1562	0.19988	0.21247	0.1764	0.16419	0.25308	0.16294	0.15979	0.21445	0.043696	0.28833	0.099843	-1.9667	-2.4188	-2.0042	-2.7938	-1.8708	-2.025	-2.5375	-2.0896	-2.3292	-2.3917	-1.9333	-2.8396	-2.2146	-1.9125	-2.6146	-2.1771	-115.446	157.713	-2.674	186.388	120.279	74.402	149.784	94.400	106.928	33.815	-137.732	-110.781	169.934	-95.214	-18.874	119.504	0.0012721	0.0012465	0.00018669	870.22	2.4896e-05	8.0427e-06	655.17	330.11	1.5285e-05	6.1787e-06	301.79	109.11	119.27	50.145	9.3388e-06	48.65	0.0067872	0.0071115	0.0019928	1023.9	7.9378e-05	8.0705e-05	804.81	380.61	8.135e-05	8.2844e-05	394.22	137.02	158.29	59.581	8.3428e-05	62.708	60.200	-46.575	-5.063	-147.286	-29.368	-54.675	-149.009	-141.817	-105.660	-99.330	-144.365	-140.444	-137.097	-132.608	27.380	-137.352	-8191	255	
7121.636	1	1	0	0	0.24812	0.15132	0.23213	0.1636	0.17462	0.30994	0.025349	0.20245	0.072843	0.049456	0.027574	0.21833	0.14649	0.32267	0.20697	0.26141	-1.9021	-2.2313	-1.7354	-2.5875	-2.2583	-1.9208	-2.5438	-2.1146	-2.2167	-2.7167	-2.2062	-2.4562	-2.2979	-1.8521	-2.5167	-2.0021	72.102	-107.929	100.999	158.556	-10.652	61.929	142.269	104.291	-58.380	1.000	149.561	-76.340	76.776	-142.043	-99.588	-71.814	0.0021971	0.0010672	0.00027266	863.95	1.4558e-05	1.4874e-05	648.71	329.74	1.527e-05	1.186e-05	301.28	109.5	118.75	50.447	1.5377e-05	49.649	0.0074367	0.0078272	0.0021682	1042.7	8.5793e-05	8.6189e-05	814.77	384.09	8.5962e-05	8.706e-05	399.16	139.29	160.17	60.085	8.4735e-05	63.523	56.557	-109.933	-100.620	-148.103	-58.135	-1.257	-150.092	-142.372	76.699	132.189	-145.903	-141.232	-137.894	-132.763	97.632	-136.808	-8191	255	
7121.731	1	1	0	0	0.057092	0.14964	0.093812	0.1079	0.096909	0.15041	0.15262	0.32408	0.18055	0.14771	0.14694	0.12248	0.058534	0.16686	0.23917	0.22197	-1.6979	-2.3688	-1.9104	-2.5	-2.3292	-1.7958	-2.5812	-2.2083	-2.1417	-2.5875	-1.7667	-2.2708	-2.4437	-2.0583	-2.4542	-2.2458	-80.358	-60.549	16.665	-140.382	-54.388	194.452	140.843	144.428	45.421	-42.315	78.987	196.385	-81.967	130.258	14.839	64.442	0.0012354	0.0023527	4.4824e-05	866.19	3.4354e-05	1.2512e-05	651.47	328.33	2.6083e-05	1.8816e-05	303.13	110.5	120.22	50.577	1.9934e-05	49.594	0.0075132	0.0078124	0.002183	1042.3	8.5971e-05	8.623e-05	816.6	385.7	8.777e-05	8.8818e-05	403.96	142.33	164.32	61.608	9.2978e-05	65.733	28.452	-99.422	-78.092	-147.808	-21.650	67.591	-149.968	-142.427	-135.050	-32.540	-145.878	-141.161	-137.900	-132.992	-6.357	-136.528	-8191	255	
7121.829	1	1	0	0	0.11592	0.18321	0.073697	0.044449	0.26926	0.21367	0.11649	0.30858	0.16302	0.21608	0.23851	0.24903	0.40153	0.14536	0.11301	0.16236	-1.5042	-2.5812	-1.8958	-2.3604	-2.5125	-1.7646	-2.6146	-2.2646	-1.9312	-2.6208	-1.9625	-2.1854	-2.4646	-2.0146	-2.3792	-2.3563	147.533	-60.941	18.038	-98.002	64.862	-109.062	51.170	110.747	114.551	-39.038	171.520	-146.691	-144.094	-119.260	-140.340	27.660	0.0016667	0.0019759	0.0002992	853.41	1.0715e-05	3.0489e-05	647.73	326.91	2.25e-05	3.5786e-06	298.58	110.79	120.91	50.804	3.9173e-05	49.464	0.0084114	0.008885	0.0025072	1070.3	9.9544e-05	0.00010079	848.23	396.79	0.00010167	0.00010352	421.59	147.56	171.41	63.267	0.00010576	67.763	78.802	-20.755	135.184	-147.941	2.429	-32.122	-149.395	-142.019	-44.278	57.666	-145.386	-141.265	-137.497	-132.440	95.870	-136.904	-8191	255	
7121.948	1	1	0	0	0.075683	0.15266	0.23153	0.094368	0.10805	0.11146	0.25962	0.1421	0.16662	0.12691	0.2548	0.14325	0.18604	0.1757	0.10921	0.20912	-1.525	-2.5062	-1.9604	-2.4125	-2.6458	-1.9062	-2.5646	-2.5229	-1.9	-2.6437	-2.1958	-2.2042	-2.6354	-1.8813	-2.5146	-2.5458	173.107	169.015	11.647	123.028	48.005	185.006	75.265	44.189	164.993	151.932	-112.043	196.191	101.297	138.228	-7.210	-64.353	0.0018297	0.0014782	0.00023834	856.94	1.6447e-06	2.0333e-05	639.19	325.76	1.694e-05	1.2236e-05	296.31	108.5	120	50.256	2.314e-05	48.86	0.0093982	0.009949	0.0028027	1097.7	0.00011015	0.00011228	872.65	404.87	0.00011449	0.00011646	435.33	151.63	177.6	64.771	0.00011873	69.693	31.582	-111.351	-48.194	-147.585	48.866	169.245	-149.536	-141.416	-125.681	-75.605	-144.783	-140.811	-137.669	-132.694	-47.710	-136.603	-8191	255	
7122.044	1	1	0	0	0.27339	0.093513	0.22957	0.10548	0.073996	0.20865	0.30974	0.15178	0.072008	0.19742	0.099497	0.30166	0.03046	0.21444	0.13064	0.28128	-1.3125	-2.6229	-2.05	-1.9667	-2.5792	-1.9417	-2.3604	-2.5542	-1.8271	-2.5583	-2.2146	-2.1021	-2.5708	-1.9542	-2.1958	-2.5333	102.865	159.193	11.990	85.602	-64.500	-102.708	192.483	56.901	158.918	6.529	-94.685	199.233	-141.711	195.825	-126.170	140.840	0.00083722	0.00054883	0.00039256	856.77	5.6263e-06	9.559e-06	644.62	322.11	1.0121e-05	2.9637e-05	295.55	109.7	120.27	51.198	2.1898e-05	49.48	0.010352	0.010946	0.003053	1120.7	0.00011927	0.00012127	892.95	408.55	0.00012003	0.00012321	443.79	154.41	181.64	66.33	0.00012445	71.398	102.588	30.638	91.279	-147.895	107.426	11.373	-149.893	-142.251	89.266	65.274	-145.588	-140.949	-137.651	-132.952	-26.357	-136.852	-8191	255	
7122.140	1	1	0	0	0.37446	0.12186	0.34825	0.18686	0.14066	0.057686	0.04943	0.15653	0.28514	0.28379	0.24943	0.21295	0.22265	0.20853	0.16423	0.25424	-1.4271	-2.6708	-2.2458	-2.1688	-2.725	-1.9646	-2.35	-2.4875	-2.0417	-2.4417	-2.2562	-1.9896	-2.8417	-2.1375	-2.3458	-2.6	39.511	-5.544	-25.819	174.132	-116.726	165.612	142.627	-127.430	5.435	195.006	194.839	108.365	-158.730	196.628	-24.735	-68.442	0.0026253	0.0016859	0.00037297	857.14	5.2094e-05	8.2459e-06	646.82	322.9	3.7656e-05	2.4984e-05	296.8	109.6	120.07	51.15	3.4802e-06	49.447	0.010829	0.011418	0.0032038	1136.8	0.00012479	0.00012667	906.96	413.1	0.00012427	0.00012755	450.27	156.59	183.15	67.112	0.00012908	72.18	64.177	-19.216	-11.680	-147.652	162.604	80.451	-149.243	-141.593	31.659	-157.882	-144.150	-140.625	-136.668	-131.801	-124.366	-135.953	-8191	255	
7122.236	1	1	0	0	0.19418	0.15753	0.12971	0.2474	0.091156	0.096125	0.20666	0.18801	0.095464	0.19344	0.1371	0.076271	0.10157	0.22084	0.2	0.151	-1.4021	-2.4229	-2.325	-1.9771	-2.5563	-1.8937	-2.3833	-2.6729	-1.6958	-2.6521	-2.5833	-2.0979	-2.6896	-2.0979	-2.2083	-2.6688	136.721	87.869	-121.553	-137.187	124.290	-64.639	154.076	-152.948	86.400	-72.757	-140.025	-59.397	102.147	182.680	180.626	191.500	0.0028741	0.0017492	0.00067237	857.4	8.8939e-06	1.4216e-05	642.78	321.7	4.0831e-05	1.4813e-05	296.07	109.52	118.72	51.142	2.2173e-05	49.359	0.011169	0.011837	0.0033088	1145	0.00012802	0.00013147	915.63	415.62	0.00012999	0.00013365	456.06	158.4	186.3	67.603	0.00013375	72.991	38.829	-60.118	-17.801	-147.055	170.822	-70.961	-148.754	-140.925	5.136	21.065	-144.419	-139.977	-136.350	-131.695	-74.410	-135.829	-8191	255	
7122.332	1	1	0	0	0.062863	0.066767	0.15897	0.054641	0.19502	0.056049	0.14095	0.095767	0.27386	0.23567	0.17085	0.28767	0.035964	0.085251	0.11237	0.21707	-1.6229	-2.4313	-2.2958	-1.95	-2.5917	-1.9604	-2.125	-2.6583	-1.8979	-2.225	-2.5271	-2.0229	-2.4875	-2.3625	-2.1604	-2.6771	134.607	-66.861	60.402	171.389	-131.542	-67.680	90.433	18.529	170.468	10.087	-137.130	189.007	-29.928	-106.486	-1.624	195.630	0.0016315	0.0012941	0.00022226	845.58	5.7165e-06	2.5768e-05	640.94	319.54	1.6954e-05	2.3831e-05	295.16	109.39	119.61	50.936	2.2048e-05	49.286	0.011644	0.012366	0.0034579	1153.7	0.00013494	0.0001377	924.42	418.91	0.00013621	0.00013887	461.09	160.2	188.98	68.337	0.00013763	73.883	121.077	87.146	98.488	-147.518	45.333	194.563	-149.818	-141.435	-106.208	-39.444	-144.061	-140.396	-137.303	-131.940	-6.851	-135.984	-8191	255	
7122.428	1	1	0	0	0.089945	0.12985	0.037066	0.24907	0.052337	0.19584	0.44625	0.16123	0.2464	0.14604	0.15013	0.18117	0.10592	0.050016	0.094203	0.078632	-1.4146	-2.25	-2.4062	-1.8896	-2.6104	-2.2479	-1.9562	-2.6458	-2.1521	-2.1729	-2.5042	-2.1021	-2.3875	-2.4396	-1.9417	-2.8187	-27.423	193.865	-78.257	194.763	-145.474	10.701	118.454	184.917	-32.947	-39.377	-110.143	145.546	45.607	116.921	59.798	87.247	0.0019213	0.00069745	0.00055095	847.77	2.7603e-05	2.8842e-05	635.56	318.3	7.2635e-06	6.2424e-06	293.44	109.97	120.81	51.732	1.1104e-05	49.615	0.012044	0.012748	0.0035426	1157.8	0.00013879	0.00014139	930.2	420.58	0.00013928	0.00014218	464.23	161.73	191.7	69.319	0.00014123	75.022	83.939	-153.197	-109.627	-146.841	156.815	-56.555	-148.903	-141.410	-31.208	146.142	-144.371	-140.483	-136.942	-131.871	142.841	-135.995	-8191	255	
7122.524	1	1	0	0	0.21846	0.38576	0.1526	0.052287	0.17407	0.2071	0.15572	0.21344	0.10438	0.11849	0.2376	0.14972	0.16783	0.11118	0.25225	0.1213	-1.7083	-2.1104	-2.4729	-1.9146	-2.3958	-2.3667	-2.2083	-2.6813	-2.0396	-2.075	-2.7083	-1.9896	-2.3542	-2.4854	-1.7771	-2.625	146.427	-72.482	15.148	-28.185	-131.550	-137.638	-97.726	200.036	-7.703	156.071	-96.621	112.255	123.209	22.688	-90.062	-148.093	0.0012142	0.0010194	0.00012021	849.86	3.7417e-05	8.7913e-06	639.93	316.56	5.3026e-05	2.2763e-05	288.91	107.81	119.12	51.865	7.2162e-06	49.474	0.012541	0.013174	0.0036754	1177.3	0.00014596	0.0001475	946.11	423.91	0.00014695	0.00014992	471.51	164.94	195.98	70.841	0.00015043	76.795	75.837	86.558	-52.520	-146.749	-97.361	-28.240	-149.066	-141.231	-77.301	-3.228	-144.238	-140.141	-136.676	-131.556	5.112	-135.821	-8191	255	
7122.643	1	1	0	0	0.03085	0.02608	0.20255	0.094966	0.19878	0.060318	0.19633	0.20782	0.16389	0.21493	0.33265	0.2345	0.23971	0.1376	0.077285	0.34745	-1.8646	-2.0333	-2.8917	-1.9604	-2.3625	-2.6396	-1.9875	-2.5375	-2.2167	-2.1437	-2.7104	-2.1667	-2.3708	-2.7375	-1.6917	-2.675	149.725	-151.854	-52.897	-110.201	195.036	101.096	82.135	134.993	-28.184	55.445	182.637	159.429	-129.605	107.638	125.722	-152.985	0.0018126	0.00087612	0.00037796	854.79	1.3309e-05	4.396e-05	641.65	315.47	1.0222e-05	4.195e-05	288.3	107.89	118.81	51.757	2.1731e-05	49.602	0.013264	0.013928	0.0038583	1203.8	0.00015188	0.00015331	961.81	426.87	0.00015221	0.00015436	473.6	166.15	198.03	71.09	0.00015262	77.525	24.369	-119.683	84.160	-146.723	97.284	15.630	-149.097	-141.292	26.795	32.218	-144.495	-140.196	-136.579	-131.526	-71.037	-136.108	-8191	255	
7122.739	1	1	0	0	0.37202	0.15218	0.21776	0.063022	0.11835	0.083474	0.15054	0.30119	0.08577	0.051232	0.14278	0.067052	0.14216	0.24761	0.28248	0.16377	-2.0542	-1.9958	-2.5833	-2.0854	-2.4	-2.7313	-1.8875	-2.5333	-2.4521	-2.1354	-2.8187	-2.1	-2.3438	-2.7812	-1.8104	-2.575	127.947	68.691	-72.528	40.877	106.609	-97.787	160.720	152.576	56.385	-137.504	76.513	57.255	200.329	198.919	74.769	134.712	0.00098981	0.0010354	0.00050094	847.48	2.4529e-05	1.4532e-05	638.6	314.57	3.8237e-05	1.807e-05	289.87	107.99	119.15	51.794	1.6155e-05	49.333	0.013529	0.014174	0.0039377	1202.8	0.00015426	0.00015533	961.58	429.94	0.00015391	0.00015508	478.29	167.33	198.49	71.286	0.00015313	77.561	30.873	-95.604	44.603	-147.090	65.764	181.156	-149.249	-141.532	158.035	106.060	-144.195	-140.203	-137.191	-131.648	125.618	-136.085	-8191	255	
7122.836	1	1	0	0	0.2222	0.12435	0.11178	0.2315	0.13028	0.13962	0.16776	0.097308	0.21603	0.068045	0.16532	0.23267	0.053555	0.11309	0.19685	0.19269	-2.0583	-1.8271	-2.5854	-2.1583	-2.0958	-2.6146	-2.0958	-2.4958	-2.4813	-1.8333	-2.6083	-2.1917	-2.1813	-2.7125	-2.1688	-2.6	172.214	-77.399	23.727	197.631	107.154	-1.243	14.983	113.799	-100.179	-13.958	129.524	189.438	-154.890	96.287	127.414	-156.643	0.0023531	0.0013477	0.00042034	836.42	1.8734e-05	1.9176e-05	627.19	318.25	1.2048e-05	3.4326e-05	294.05	110.75	121.06	51.709	2.8672e-05	49.871	0.01345	0.01405	0.0039083	1192.3	0.00015233	0.00015372	949.56	430.62	0.00015075	0.00015151	478.38	166.94	197.07	70.581	0.00014786	76.414	78.893	160.011	98.820	-147.737	34.648	177.463	-148.823	-141.053	163.305	86.726	-144.464	-140.011	-136.981	-131.974	-29.757	-136.077	-8191	255	
7122.932	1	1	0	0	0.29204	0.050612	0.18627	0.15866	0.11238	0.056679	0.092499	0.26137	0.1586	0.21568	0.16359	0.24974	0.23131	0.37964	0.11473	0.14986	-2.0875	-1.8188	-2.5104	-2.3937	-1.8833	-2.5479	-1.9729	-2.2354	-2.3583	-2.0479	-2.7625	-2.3958	-2.0208	-2.6562	-2.0271	-2.3438	-41.927	125.219	-151.291	-153.568	80.940	136.813	-81.002	170.055	-56.929	-122.288	-94.893	176.048	177.856	137.390	-4.499	149.061	0.0019426	0.0024222	0.00090754	825.99	1.4584e-05	2.3426e-05	632.64	327.29	1.4835e-05	9.8322e-06	301.57	112.83	121.13	51.92	2.6295e-05	49.892	0.012812	0.013272	0.0037082	1160.7	0.0001428	0.00014292	930.07	430.9	0.00013986	0.00014068	472.27	165.04	192.67	69.337	0.000139	75.085	69.262	-95.823	118.951	-146.472	-91.410	169.552	-149.078	-141.549	56.347	-28.294	-144.540	-140.353	-137.226	-131.852	-113.451	-136.293	-8191	255	
7123.028	1	1	0	0	0.15221	0.14687	0.2213	0.11561	0.32848	0.18649	0.049971	0.1405	0.038141	0.14935	0.25977	0.083777	0.39602	0.16001	0.10688	0.1036	-2.1271	-1.8438	-2.45	-2.3167	-1.9708	-2.6604	-2.3354	-2.0583	-2.6	-1.7687	-2.4375	-2.4417	-2.0687	-2.7417	-2.1083	-2.2417	22.405	123.603	-107.894	101.063	174.013	26.548	-147.281	145.568	192.448	143.178	72.405	185.631	-146.428	66.788	-29.352	159.979	0.0017189	0.0016401	0.00076311	840.05	2.0672e-05	1.3599e-05	637.01	329.23	3.255e-05	2.2854e-05	306.04	114.14	122.75	52.061	5.3386e-06	50.308	0.012133	0.012713	0.0035572	1154.7	0.0001374	0.00013943	928	430.52	0.000138	0.00014018	474.86	166.19	193.36	69.87	0.00014213	75.78	42.302	-47.959	-155.674	-147.135	-25.582	-15.438	-148.837	-141.498	-72.582	-144.584	-144.316	-140.204	-137.281	-131.880	63.296	-136.271	-8191	255	
7123.124	1	1	0	0	0.29992	0.15314	0.13981	0.2041	0.46242	0.19439	0.16708	0.033034	0.11398	0.074431	0.40166	0.12736	0.23982	0.088382	0.15097	0.25702	-2.0312	-1.9979	-2.2396	-2.5396	-2.0146	-2.6646	-2.2812	-2.0875	-2.6208	-1.9438	-2.3667	-2.5167	-1.9729	-2.6521	-2.3917	-2.0771	-26.351	167.489	185.961	-19.374	-2.923	43.633	183.418	-140.166	92.793	197.090	-130.136	49.374	100.547	79.906	58.497	-33.954	0.0023504	0.0027118	0.00017502	834.89	1.2863e-05	2.0024e-06	634.98	324.21	3.098e-05	1.7042e-05	300.75	113.76	121.78	52.354	3.6932e-05	50.899	0.012406	0.013038	0.0036783	1162.4	0.00014272	0.00014569	940.11	432.27	0.00014466	0.00014763	479.56	168.04	196.18	70.734	0.00014754	77.115	82.687	-138.908	-10.269	-146.754	-58.076	-148.018	-148.686	-141.139	128.494	24.216	-144.849	-140.078	-136.766	-131.858	-107.589	-136.292	-8191	255	
7123.220	1	1	0	0	0.14633	0.086576	0.090981	0.32204	0.061461	0.23364	0.23491	0.11859	0.17449	0.18582	0.15321	0.1726	0.23332	0.30439	0.29859	0.092594	-2.3021	-2.0938	-2.2625	-2.7812	-1.9354	-2.4938	-2.3896	-2.1104	-2.4646	-1.9125	-2.2938	-2.7646	-2.0792	-2.6104	-2.5417	-2.0604	1.437	27.121	-12.956	193.343	176.117	-28.429	131.740	149.234	13.718	-120.593	90.804	143.842	110.437	143.191	-49.889	-8.632	0.0013165	0.0011787	0.00053822	823.23	1.6245e-05	1.0689e-05	628.28	322.34	2.5761e-05	3.9458e-05	293.55	112.96	121.97	52.607	1.9654e-05	50.664	0.012815	0.013583	0.0037941	1165.6	0.00014687	0.00014984	942.93	430.5	0.00014824	0.00015221	479.07	169.59	199.32	72.296	0.00015452	78.441	67.859	49.349	184.706	-146.905	32.410	121.836	-148.533	-141.017	-137.348	32.816	-144.540	-140.456	-136.731	-131.666	200.214	-136.633	-8191	255	
#DATA ENDS
