BOXY.EXE: ISS Imagent and Oximeter Data Acquisition Program Version 0.80
Ascii Record File

#ACQ INFORMATION
2  Detector Channels 
16  External MUX Channels 
1  Auxiliary Channels 
5000  Waveform (CCF) Frequency (Hz)
1  Waveforms Skipped 
30  Waveforms Averaged 
1  Cycles Averaged 
16  Acquisitions per Waveform 
10.0806  Updata Rate (Hz) 

#FILE INFORMATION
TRUE -- External MUX Channel results are PARSED.
FALSE -- AC DC and Phase are NOT grouped.
TRUE -- Companion Program Settings File CREATED.
FALSE -- AC data not excluded
FALSE -- DC data not excluded
FALSE -- Phase data not excluded
FALSE -- Auxillary Chn. data not excluded
Tab delimiters

#CALIBRATION STATE
TRUE -- Waveform Calibration Values APPLIED.


#AUX CALIBRATION VALUES
Val Type	aux-1	

Term	1.0000e+00	
Factor	0.0000e+00	


#WF CALIBRATION VALUES
A = Detector Channel
Val Type	A-AC1	A-AC2	A-AC3	A-AC4	A-AC5	A-AC6	A-AC7	A-AC8	A-AC9	A-AC10	A-AC11	A-AC12	A-AC13	A-AC14	A-AC15	A-AC16	A-DC1	A-DC2	A-DC3	A-DC4	A-DC5	A-DC6	A-DC7	A-DC8	A-DC9	A-DC10	A-DC11	A-DC12	A-DC13	A-DC14	A-DC15	A-DC16	A-Ph1	A-Ph2	A-Ph3	A-Ph4	A-Ph5	A-Ph6	A-Ph7	A-Ph8	A-Ph9	A-Ph10	A-Ph11	A-Ph12	A-Ph13	A-Ph14	A-Ph15	A-Ph16	

Term	0.00000e+00	0.00000e+00	0.00000e+00	0.00000e+00	0.00000e+00	0.00000e+00	0.00000e+00	0.00000e+00	0.00000e+00	0.00000e+00	0.00000e+00	0.00000e+00	0.00000e+00	0.00000e+00	0.00000e+00	0.00000e+00	0.00000e+00	0.00000e+00	0.00000e+00	0.00000e+00	0.00000e+00	0.00000e+00	0.00000e+00	0.00000e+00	0.00000e+00	0.00000e+00	0.00000e+00	0.00000e+00	0.00000e+00	0.00000e+00	0.00000e+00	0.00000e+00	0.00000e+00	0.00000e+00	0.00000e+00	0.00000e+00	0.00000e+00	0.00000e+00	0.00000e+00	0.00000e+00	0.00000e+00	0.00000e+00	0.00000e+00	0.00000e+00	0.00000e+00	0.00000e+00	0.00000e+00	0.00000e+00	
Factor	1.00000e+00	1.00000e+00	1.00000e+00	1.00000e+00	1.00000e+00	1.00000e+00	1.00000e+00	1.00000e+00	1.00000e+00	1.00000e+00	1.00000e+00	1.00000e+00	1.00000e+00	1.00000e+00	1.00000e+00	1.00000e+00	1.00000e+00	1.00000e+00	1.00000e+00	1.00000e+00	1.00000e+00	1.00000e+00	1.00000e+00	1.00000e+00	1.00000e+00	1.00000e+00	1.00000e+00	1.00000e+00	1.00000e+00	1.00000e+00	1.00000e+00	1.00000e+00	X	X	X	X	X	X	X	X	X	X	X	X	X	X	X	X	

B = Detector Channel
Val Type	B-AC1	B-AC2	B-AC3	B-AC4	B-AC5	B-AC6	B-AC7	B-AC8	B-AC9	B-AC10	B-AC11	B-AC12	B-AC13	B-AC14	B-AC15	B-AC16	B-DC1	B-DC2	B-DC3	B-DC4	B-DC5	B-DC6	B-DC7	B-DC8	B-DC9	B-DC10	B-DC11	B-DC12	B-DC13	B-DC14	B-DC15	B-DC16	B-Ph1	B-Ph2	B-Ph3	B-Ph4	B-Ph5	B-Ph6	B-Ph7	B-Ph8	B-Ph9	B-Ph10	B-Ph11	B-Ph12	B-Ph13	B-Ph14	B-Ph15	B-Ph16	

Term	0.00000e+00	0.00000e+00	0.00000e+00	0.00000e+00	0.00000e+00	0.00000e+00	0.00000e+00	0.00000e+00	0.00000e+00	0.00000e+00	0.00000e+00	0.00000e+00	0.00000e+00	0.00000e+00	0.00000e+00	0.00000e+00	0.00000e+00	0.00000e+00	0.00000e+00	0.00000e+00	0.00000e+00	0.00000e+00	0.00000e+00	0.00000e+00	0.00000e+00	0.00000e+00	0.00000e+00	0.00000e+00	0.00000e+00	0.00000e+00	0.00000e+00	0.00000e+00	-1.03216e+02	-1.25152e+02	-1.25868e+02	-1.82865e+02	-6.04897e+01	-6.49344e+01	-1.54989e+02	-1.62015e+02	-6.11299e+01	-6.62913e+01	-1.71271e+02	-1.71990e+02	-1.78556e+02	-1.76449e+02	-6.53663e+01	-1.49920e+02	
Factor	1.52475e-05	1.26475e-04	3.91416e-05	1.47571e-01	1.08256e-06	1.39530e-06	1.78824e-01	4.65638e-02	9.56661e-07	1.37542e-06	7.94626e-02	3.34463e-02	2.14415e-02	8.36087e-03	1.21821e-06	1.19018e-02	7.94530e-06	1.18163e-05	3.28482e-06	7.57692e-02	1.22064e-07	1.31521e-07	8.66940e-02	2.40788e-02	1.21780e-07	1.30007e-07	3.97303e-02	1.68291e-02	1.12558e-02	4.34762e-03	1.26379e-07	5.99549e-03	X	X	X	X	X	X	X	X	X	X	X	X	X	X	X	X	



#DISTANCE SETTINGS
A = Detector Channel
A-1	A-2	A-3	A-4	A-5	A-6	A-7	A-8	A-9	A-10	A-11	A-12	A-13	A-14	A-15	A-16	

2.5000e+00	3.0000e+00	2.5000e+00	3.0000e+00	2.0000e+00	3.0000e+00	1.5000e+00	3.0000e+00	3.0000e+00	3.0000e+00	3.0000e+00	3.0000e+00	3.0000e+00	3.0000e+00	1.5000e+00	3.0000e+00	

B = Detector Channel
B-1	B-2	B-3	B-4	B-5	B-6	B-7	B-8	B-9	B-10	B-11	B-12	B-13	B-14	B-15	B-16	

1.0000e+01	1.0000e+01	1.0000e+01	1.4400e+00	1.0000e+01	1.0000e+01	1.5100e+00	1.9400e+00	1.0000e+01	1.0000e+01	1.9900e+00	2.4900e+00	2.4100e+00	2.9000e+00	1.0000e+01	2.9800e+00	




#DATA BEGINS
time	group	step	mark	flag	A-AC1	A-AC2	A-AC3	A-AC4	A-AC5	A-AC6	A-AC7	A-AC8	A-AC9	A-AC10	A-AC11	A-AC12	A-AC13	A-AC14	A-AC15	A-AC16	A-DC1	A-DC2	A-DC3	A-DC4	A-DC5	A-DC6	A-DC7	A-DC8	A-DC9	A-DC10	A-DC11	A-DC12	A-DC13	A-DC14	A-DC15	A-DC16	A-Ph1	A-Ph2	A-Ph3	A-Ph4	A-Ph5	A-Ph6	A-Ph7	A-Ph8	A-Ph9	A-Ph10	A-Ph11	A-Ph12	A-Ph13	A-Ph14	A-Ph15	A-Ph16	B-AC1	B-AC2	B-AC3	B-AC4	B-AC5	B-AC6	B-AC7	B-AC8	B-AC9	B-AC10	B-AC11	B-AC12	B-AC13	B-AC14	B-AC15	B-AC16	B-DC1	B-DC2	B-DC3	B-DC4	B-DC5	B-DC6	B-DC7	B-DC8	B-DC9	B-DC10	B-DC11	B-DC12	B-DC13	B-DC14	B-DC15	B-DC16	B-Ph1	B-Ph2	B-Ph3	B-Ph4	B-Ph5	B-Ph6	B-Ph7	B-Ph8	B-Ph9	B-Ph10	B-Ph11	B-Ph12	B-Ph13	B-Ph14	B-Ph15	B-Ph16	aux-1	digaux	

13113.432	1	1	0	256	0.11615	0.12909	0.20356	0.12608	0.040536	0.17136	0.24093	0.11171	0.13687	0.28524	0.26605	0.17686	0.031891	0.18045	0.35393	0.32087	-1.7167	-2.7458	-2.3063	-2.4375	-2.6063	-2.1688	-3.05	-2.6958	-2.25	-2.8354	-2.4167	-2.3583	-2.6562	-2.2708	-2.5187	-2.6604	110.787	-12.069	143.880	277.002	147.232	208.818	195.140	8.466	13.198	72.975	302.571	2.817	221.939	-25.583	44.413	256.583	8.7115e-05	0.00024	8.2978e-05	1074.5	2.8353e-06	3.2228e-06	1159.2	223.95	8.7334e-07	2.6991e-06	280.01	76.921	61.628	17.841	3.1782e-06	25.005	0.00044431	0.00057614	0.00015988	1108.4	6.1464e-06	6.3149e-06	1207	234.12	6.1575e-06	6.3977e-06	295.44	82.463	65.293	19.22	6.1925e-06	26.799	170.178	66.648	61.913	-27.771	147.736	95.764	-27.365	-20.278	151.597	55.059	-20.365	-13.299	-13.461	-6.823	128.833	-6.389	-8191	255	
13113.528	1	1	0	0	0.076245	0.093214	0.077069	0.10316	0.077615	0.33013	0.15574	0.13128	0.057728	0.09521	0.24385	0.34206	0.045085	0.31457	0.17973	0.16078	-1.8375	-2.8375	-2.2958	-2.3208	-2.8312	-2.1479	-2.5792	-2.5479	-2.1667	-2.9896	-2.5062	-2.2417	-2.8958	-2.25	-2.7562	-2.8083	198.126	-11.388	167.924	311.243	6.667	183.219	230.943	38.069	145.418	259.452	98.602	-29.926	102.992	13.799	24.633	170.282	7.6029e-05	0.00027052	2.6493e-05	1062.7	1.7355e-06	1.6955e-06	1162.1	222.98	2.4701e-06	2.0107e-06	281.48	76.812	61.004	18.061	1.6013e-06	24.966	0.00045695	0.0005933	0.0001703	1105.7	6.4267e-06	6.8314e-06	1207.5	233.71	6.399e-06	6.5158e-06	295.03	82.592	65.138	19.353	6.5322e-06	26.815	161.909	68.013	48.416	-27.779	105.492	77.692	-27.260	-20.029	112.564	112.682	-20.220	-13.158	-13.171	-6.350	95.876	-7.004	-8191	255	
13113.625	1	1	0	0	0.21111	0.14104	0.12107	0.25257	0.11309	0.24107	0.073746	0.20491	0.13631	0.11007	0.13592	0.082874	0.21213	0.099124	0.094649	0.19172	-1.675	-2.9125	-2.4229	-2.4708	-2.8063	-2.2542	-2.5667	-2.875	-2.1167	-3.025	-2.7667	-2.2667	-2.8396	-2.3979	-2.6104	-2.8625	26.593	162.756	90.354	318.914	246.632	155.110	271.475	40.198	225.171	-2.924	278.568	18.849	66.493	289.319	-26.944	-30.981	0.00010693	0.00042309	6.3129e-05	1067.8	7.5582e-07	2.2789e-06	1153.4	223.05	2.717e-06	2.9739e-06	279.69	76.544	61.431	18.013	1.7702e-06	24.882	0.00046962	0.00060628	0.0001714	1105.4	6.4747e-06	6.5632e-06	1203.4	233.76	6.1923e-06	6.5047e-06	294.67	82.224	65.201	19.204	6.2697e-06	26.658	163.757	39.143	51.717	-27.560	204.245	65.730	-27.032	-19.989	152.065	64.737	-20.157	-13.511	-13.119	-6.232	110.827	-6.823	-8191	255	
13113.721	1	1	0	0	0.21645	0.14539	0.18735	0.42984	0.21547	0.11673	0.16864	0.32218	0.084606	0.083203	0.21688	0.22003	0.25079	0.22344	0.12101	0.099502	-1.7437	-2.8521	-2.4188	-2.2083	-2.7687	-2.3792	-2.4917	-2.9854	-1.9604	-2.5708	-2.7542	-2.2292	-2.7188	-2.4958	-2.3354	-2.9167	34.902	63.139	182.592	282.493	295.241	156.583	62.118	293.999	18.955	110.256	-10.865	-1.011	251.744	174.533	20.797	-17.683	8.6204e-05	0.000207	0.00011881	1063.7	2.7128e-06	4.4372e-06	1157.4	221.14	1.3589e-06	2.7222e-06	281.76	76.464	61.202	18.042	2.0967e-06	24.898	0.00045076	0.00058493	0.00016217	1102.1	6.1683e-06	6.516e-06	1203.5	232.78	6.362e-06	6.3787e-06	294.5	82.101	64.95	19.235	6.2918e-06	26.674	156.574	43.750	49.925	-27.624	115.853	86.825	-27.017	-19.892	151.659	95.263	-19.983	-13.749	-13.295	-6.620	130.625	-6.254	-8191	255	
13113.817	1	1	0	0	0.23182	0.3407	0.17611	0.14881	0.088044	0.17838	0.43025	0.18594	0.057601	0.32719	0.19571	0.14486	0.16509	0.054753	0.15563	0.31903	-1.6938	-2.3583	-2.8083	-2.3958	-2.6833	-2.5583	-2.2938	-2.6333	-2.2062	-2.4042	-2.8896	-2.225	-2.8625	-2.4313	-2.1833	-2.9229	74.600	101.696	116.134	67.532	88.564	163.287	260.871	163.270	259.785	189.795	251.494	1.130	15.450	309.769	129.083	146.373	0.00010926	0.00019531	0.00010417	1065.5	2.1472e-06	3.4634e-06	1147.9	221.53	1.8444e-06	3.5448e-06	280.01	76.518	60.754	17.848	1.656e-06	24.872	0.00045495	0.00058749	0.00016572	1102.1	6.2367e-06	6.5221e-06	1199	232.27	6.177e-06	6.3013e-06	293.99	82.113	64.751	19.109	6.341e-06	26.614	165.072	48.522	75.607	-27.628	48.223	112.987	-27.263	-20.054	130.789	132.466	-20.203	-13.553	-13.068	-6.797	155.502	-6.661	-8191	255	
13113.913	1	1	0	0	0.19842	0.32515	0.092118	0.35956	0.16979	0.14179	0.25258	0.24179	0.20258	0.22698	0.093836	0.036851	0.20125	0.13124	0.2061	0.11838	-2.0125	-2.3708	-2.8917	-2.1417	-2.7646	-2.575	-2.4979	-2.8125	-2.3438	-2.3396	-2.9354	-2.3375	-2.8229	-2.5729	-2.2125	-2.9396	46.554	81.907	254.186	249.880	232.191	19.362	263.565	307.830	74.540	284.991	90.271	199.039	308.046	256.021	63.786	-16.093	7.7098e-05	0.00025484	0.00010014	1058.3	2.964e-06	4.5659e-06	1147.2	220.47	1.6666e-06	3.7767e-06	280.07	76.332	60.955	17.874	3.0776e-06	24.679	0.00043873	0.00057011	0.00016001	1099.4	6.2596e-06	6.3503e-06	1196.6	231.35	6.1331e-06	6.2874e-06	293.33	81.891	64.891	19.04	5.904e-06	26.569	150.615	73.399	49.770	-27.575	167.791	100.743	-27.018	-20.103	229.906	138.750	-20.446	-13.402	-12.786	-6.291	126.629	-6.655	-8191	255	
13114.009	1	1	0	0	0.26019	0.031119	0.1507	0.086272	0.11042	0.015609	0.1013	0.34796	0.37482	0.082361	0.14704	0.1065	0.027338	0.14177	0.13201	0.28108	-2.125	-2.3521	-2.8604	-2.3563	-2.6	-2.6375	-2.3396	-2.8875	-2.3896	-2.3979	-2.9167	-2.275	-2.6292	-2.7208	-2.2271	-2.875	282.450	-12.377	35.137	-23.411	-4.997	109.787	164.009	40.969	177.330	178.514	-25.277	249.818	179.631	165.235	21.460	304.153	8.5194e-05	0.00019927	4.9972e-05	1057	1.9437e-06	2.4033e-06	1145.9	219.67	2.0154e-06	5.3855e-07	279.23	76.299	60.818	17.982	4.1954e-06	24.969	0.00044032	0.00055707	0.00015752	1096	5.9888e-06	6.236e-06	1197.7	231.09	6.0631e-06	6.1805e-06	293.38	81.971	64.705	19.155	6.1338e-06	26.608	155.800	149.902	49.357	-27.546	129.382	115.228	-27.111	-20.045	110.791	90.549	-19.911	-13.288	-13.171	-6.069	139.750	-6.902	-8191	255	
13114.130	1	1	0	0	0.20635	0.11448	0.049938	0.24812	0.12071	0.34096	0.36151	0.074546	0.17279	0.19884	0.21541	0.21769	0.11538	0.095353	0.16452	0.18916	-2.2271	-2.1625	-3.0521	-2.5062	-2.5917	-2.7583	-2.3396	-2.7417	-2.6792	-2.2062	-3.0667	-2.4625	-2.6333	-2.9	-2.1125	-2.8771	117.153	119.351	163.205	-15.884	211.488	96.050	276.807	-3.132	145.743	28.484	303.601	10.555	268.049	305.791	-28.521	95.862	8.7836e-05	0.00040953	3.0196e-05	1059.3	2.0352e-06	2.718e-06	1144.2	220.14	1.0956e-06	2.7396e-06	278.71	75.712	60.415	17.835	2.3703e-06	24.712	0.0004364	0.00055958	0.00015392	1098.1	6.2047e-06	6.1426e-06	1196.2	231.28	5.9819e-06	6.2766e-06	293.22	81.729	64.522	19.1	6.2599e-06	26.596	158.521	-12.699	58.186	-27.546	123.814	105.439	-27.080	-20.177	26.158	97.800	-20.052	-13.009	-13.351	-6.581	171.713	-6.457	-8191	255	
13114.224	1	1	0	0	0.10989	0.17645	0.25288	0.13062	0.11683	0.16862	0.19874	0.1747	0.083416	0.13667	0.15501	0.067164	0.22084	0.26254	0.31811	0.021754	-2.15	-2.3021	-2.9167	-2.2875	-2.3125	-2.8479	-2.3187	-2.7583	-2.7479	-2.125	-2.8375	-2.5042	-2.425	-3.0646	-2.1063	-2.525	69.247	102.505	306.651	311.865	76.605	123.427	251.229	294.964	256.444	132.623	250.667	-9.744	247.929	273.896	32.202	255.093	0.00010077	8.7216e-05	4.5261e-05	1058.7	2.353e-06	3.2924e-06	1143.4	219.48	2.0758e-06	2.1979e-06	277.32	76.024	60.299	17.753	2.0695e-06	24.761	0.00043482	0.00056896	0.00015547	1097	6.0758e-06	6.0352e-06	1194	230.84	5.8175e-06	5.9998e-06	291.89	81.615	64.314	19.076	5.6712e-06	26.496	160.482	112.991	57.695	-27.381	189.638	91.658	-27.069	-19.977	122.906	102.360	-20.197	-13.228	-13.173	-6.467	128.964	-6.526	-8191	255	
13114.320	1	1	0	0	0.089957	0.11621	0.30686	0.22051	0.14023	0.23745	0.19424	0.41479	0.31118	0.17634	0.1224	0.16725	0.12789	0.19454	0.43014	0.20574	-2.3667	-1.9583	-2.7958	-2.6458	-2.1813	-2.8125	-2.3438	-2.4354	-2.8604	-2.3042	-2.7354	-2.4167	-2.2812	-2.7313	-2.1292	-2.6312	222.893	-31.997	66.346	236.719	286.363	120.458	279.001	253.260	193.073	169.696	-3.638	291.741	276.484	303.897	193.782	189.626	0.00011463	0.00023751	0.00011878	1055.5	1.6724e-06	1.5167e-06	1152.5	218.93	2.5361e-06	3.4263e-06	277.93	76.337	60.731	17.858	1.4816e-06	24.649	0.00041446	0.00053646	0.00014265	1094.3	5.7106e-06	5.825e-06	1195.4	230.14	5.5816e-06	5.6878e-06	291.78	81.528	64.356	19.052	5.5051e-06	26.364	171.719	20.071	51.763	-27.338	53.248	71.847	-26.914	-19.712	128.341	100.918	-20.233	-13.261	-13.102	-6.368	155.932	-6.920	-8191	255	
13114.417	1	1	0	0	0.10351	0.08893	0.16154	0.076204	0.41895	0.1117	0.14858	0.1569	0.014925	0.14597	0.11668	0.17671	0.1007	0.16617	0.086572	0.12251	-2.4583	-2.0542	-2.6354	-2.6708	-2.325	-2.8896	-2.5896	-2.5312	-2.9562	-2.1667	-2.7875	-2.6396	-2.4042	-3.0438	-2.3208	-2.6479	191.708	119.801	168.002	292.070	285.513	26.542	314.916	173.358	95.083	159.726	-36.835	78.719	118.585	91.952	145.013	98.675	0.00010094	0.00040372	0.00012253	1064.2	1.1186e-06	2.5921e-06	1154	219.88	2.263e-06	3.6557e-06	278.35	76.036	60.95	17.923	3.3805e-06	24.558	0.00039965	0.00052521	0.00014227	1095.9	5.7558e-06	5.6551e-06	1195.2	229.92	5.5626e-06	5.8273e-06	291.9	81.272	64.479	18.992	5.7384e-06	26.407	158.018	14.699	68.635	-27.931	117.854	105.075	-27.442	-20.560	147.533	120.319	-20.481	-13.999	-13.635	-6.559	133.829	-7.446	-8191	255	
13114.513	1	1	0	0	0.13189	0.1789	0.088108	0.37544	0.2537	0.26919	0.28226	0.10939	0.11439	0.10641	0.23783	0.16859	0.32927	0.2536	0.15237	0.23674	-2.4729	-2.0979	-2.6396	-2.8708	-2.3042	-2.9208	-2.5729	-2.5125	-2.9729	-2.4354	-2.7042	-2.8563	-2.1937	-2.8292	-2.4188	-2.2729	89.489	215.921	277.184	-32.273	212.656	-25.147	237.791	139.219	307.358	199.597	116.474	221.600	176.383	59.390	26.641	248.073	6.2913e-05	0.00022134	0.00010889	1061.8	2.0242e-06	2.9993e-06	1153.3	219.73	6.9436e-07	2.03e-06	279.74	76.643	61.214	17.708	5.0776e-06	24.292	0.0003992	0.00051888	0.00014838	1094	5.7892e-06	5.6713e-06	1193.7	229.58	5.51e-06	5.4492e-06	291.83	81.449	64.497	18.973	5.6378e-06	26.344	154.931	27.984	64.138	-28.014	134.092	92.743	-27.558	-20.244	82.138	130.137	-20.580	-14.103	-13.609	-5.470	155.565	-6.199	-8191	255	
13114.609	1	1	0	0	0.017972	0.09281	0.1838	0.14682	0.23113	0.18819	0.22088	0.39779	0.10965	0.14125	0.11316	0.11701	0.24969	0.27737	0.3336	0.1908	-2.5333	-2.4604	-2.5729	-3.0333	-2.3333	-2.6437	-2.5042	-2.2812	-2.8979	-2.3396	-2.5896	-2.8333	-2.0062	-2.8708	-2.4667	-2.3396	23.784	66.100	215.420	248.710	272.497	188.521	1.386	282.675	-28.680	171.139	79.215	-24.628	18.120	100.448	33.639	102.246	6.155e-05	0.00011346	7.3692e-05	1049.4	1.982e-06	4.7961e-06	1121.2	212.7	2.5893e-06	1.9375e-06	270.31	73.547	58.439	17.2	4.7771e-07	23.815	0.00038871	0.00050635	0.00014021	1091.2	5.6239e-06	5.3652e-06	1184.4	227.49	5.3172e-06	5.4402e-06	289.11	80.757	63.552	18.816	5.215e-06	26.133	173.174	33.151	63.903	-26.808	170.491	128.980	-24.889	-17.605	112.577	187.512	-17.384	-10.204	-9.596	-2.545	301.293	-3.751	-8191	255	
13114.729	1	1	0	0	0.061362	0.2761	0.1843	0.47147	0.15607	0.20844	0.10563	0.11172	0.075166	0.30262	0.34096	0.046453	0.094839	0.26788	0.15846	0.12548	-2.6	-2.3937	-2.4354	-2.9042	-2.2354	-2.7521	-2.7375	-2.2979	-2.8083	-2.5438	-2.5208	-2.9729	-2.3417	-2.7792	-2.8521	-2.4375	247.001	231.164	169.237	310.166	196.717	301.249	-31.737	-27.136	-19.125	226.442	237.661	264.580	-35.245	-3.108	123.514	21.012	7.3504e-05	0.0003231	0.0001032	1020.3	2.0172e-06	3.8799e-06	1108.2	210.86	1.4627e-06	1.8013e-06	268.28	72.981	58.699	17.129	2.1659e-06	24.017	0.00036966	0.00048528	0.00013605	1080.4	5.1977e-06	5.3663e-06	1179.4	226.15	5.1932e-06	5.1526e-06	287.73	80.392	63.599	18.725	5.1578e-06	26.133	159.704	25.635	76.147	-24.384	192.392	168.743	-24.574	-17.504	194.415	194.672	-17.011	-10.256	-9.952	-3.747	127.049	-3.813	-8191	255	
13114.826	1	1	0	0	0.39004	0.18276	0.065937	0.30852	0.15405	0.17855	0.13275	0.2627	0.032516	0.10231	0.11034	0.16934	0.15193	0.095887	0.038351	0.2434	-2.5292	-2.4813	-2.5021	-2.9479	-2.2729	-2.5771	-3.2167	-2.2104	-2.7458	-2.8229	-2.3396	-2.9938	-2.3042	-2.5229	-2.9271	-2.5438	247.801	310.437	303.952	300.375	159.061	102.645	233.028	276.614	94.645	32.377	107.131	110.000	3.175	253.924	306.357	268.481	9.3206e-05	0.00037854	6.7903e-05	1015.7	2.8634e-06	4.1618e-06	1108.3	210.04	3.1677e-06	3.7204e-06	266.3	73.363	58.368	17.249	3.8229e-06	23.758	0.00037629	0.00048371	0.00013027	1078.1	5.2297e-06	5.2491e-06	1177.6	225.43	5.0201e-06	5.0952e-06	286.64	80.425	63.394	18.704	5.033e-06	26.006	174.809	-1.091	14.311	-24.745	136.651	151.353	-24.120	-17.035	147.486	123.264	-16.940	-10.346	-10.199	-2.848	147.058	-4.507	-8191	255	
13114.922	1	1	0	0	0.25505	0.1313	0.14905	0.1573	0.22248	0.28415	0.13267	0.29541	0.018374	0.17531	0.13439	0.18089	0.1681	0.14532	0.30092	0.069099	-2.5	-2.6542	-2.2667	-2.9313	-2.4313	-2.7146	-2.9542	-2.3604	-2.7542	-2.7708	-2.2917	-2.9917	-2.4708	-2.5729	-3.0021	-2.4333	229.042	166.632	256.370	253.481	241.354	313.703	144.344	236.745	287.433	54.256	323.609	189.594	314.517	183.242	253.034	159.303	9.4849e-05	9.9468e-05	3.8189e-05	1019.9	2.3859e-06	4.0021e-06	1104.4	208.45	1.8247e-06	4.1303e-06	268.02	72.724	58.092	17.023	3.8866e-06	23.497	0.00036029	0.00046492	0.00012574	1078.1	4.8935e-06	4.9578e-06	1176.4	224.32	4.6997e-06	4.7114e-06	286.93	80	63.053	18.532	4.6118e-06	25.857	164.754	47.186	78.604	-24.738	154.259	138.095	-23.963	-16.876	107.006	109.904	-17.504	-10.531	-10.034	-3.645	127.710	-3.943	-8191	255	
13114.993	1	1	0	0	0.082519	0.14097	0.070428	0.27519	0.23924	0.32271	0.21799	0.32176	0.18936	0.030634	0.22129	0.11253	0.099202	0.20778	0.24836	0.039426	-2.1646	-2.6021	-2.4021	-2.9917	-2.4313	-2.3229	-3.1271	-2.3854	-2.7708	-2.7167	-2.4271	-2.8667	-2.5167	-2.3	-2.925	-2.4354	143.040	77.024	27.780	299.817	-8.885	-32.329	213.864	302.590	-0.932	177.656	296.192	277.673	178.638	225.065	159.577	-2.798	8.4497e-05	0.00032703	0.00011124	1019.1	1.2536e-06	5.1767e-06	1104.2	209.16	2.0085e-06	3.1261e-06	266.22	73.004	57.83	17.007	2.215e-06	23.864	0.0003435	0.00043021	0.00012096	1077.1	4.8139e-06	4.8328e-06	1174.6	224.41	4.5934e-06	4.5895e-06	285.69	79.958	63.026	18.61	4.6497e-06	25.979	184.151	52.152	53.119	-24.780	99.555	128.614	-24.529	-17.112	119.461	127.966	-17.052	-10.353	-10.301	-2.959	111.409	-3.848	-8191	255	
13115.112	1	1	0	0	0.032974	0.25372	0.20441	0.141	0.11987	0.18247	0.126	0.26251	0.18656	0.28524	0.20282	0.21178	0.18675	0.19611	0.099437	0.032578	-2.1667	-2.7167	-2.1708	-2.9604	-2.7042	-2.3563	-3.0187	-2.3396	-2.5896	-2.8312	-2.3812	-2.7979	-2.5417	-2.3396	-2.8125	-2.4313	164.428	278.190	266.557	-35.028	203.949	221.001	305.465	245.238	7.179	105.301	259.957	135.717	267.382	-21.536	248.457	92.861	9.3737e-05	3.6503e-05	0.00010249	1016.9	1.5408e-06	6.3801e-07	1105.9	209.28	1.1275e-06	8.0582e-07	268.72	73.059	58.363	17.172	2.2722e-06	23.93	0.00033844	0.00043164	0.00011658	1076.1	4.7974e-06	4.7602e-06	1176.4	224.53	4.6999e-06	4.6946e-06	286.19	80.115	63.185	18.652	4.7416e-06	26.011	170.481	-2.531	90.961	-24.929	130.065	105.189	-24.314	-17.089	85.345	114.757	-17.566	-10.755	-10.241	-3.751	169.118	-3.647	-8191	255	
13115.208	1	1	0	0	0.19149	0.33752	0.14644	0.17649	0.2171	0.28451	0.1381	0.17247	0.30674	0.20303	0.098303	0.24294	0.19685	0.12524	0.22783	0.26991	-1.9896	-2.7958	-2.2812	-2.7604	-2.6562	-2.2021	-2.9146	-2.6875	-2.4875	-3.0438	-2.2229	-2.7396	-2.7521	-2.1979	-2.7208	-2.4813	251.894	293.324	-23.742	261.802	-6.584	321.765	223.181	-33.840	28.496	155.017	201.068	282.537	179.564	-19.237	72.208	275.325	9.4326e-05	0.00050971	8.2471e-05	1014.9	1.4945e-06	3.9272e-06	1105	209.06	2.2832e-06	3.3211e-06	266.4	72.738	58.216	17.217	1.3632e-06	23.658	0.00035612	0.00044949	0.00012463	1076.2	4.6555e-06	4.946e-06	1173.9	224.19	4.7644e-06	4.7813e-06	285.39	80.12	63.167	18.611	4.814e-06	26.007	157.605	34.320	10.491	-24.688	117.719	124.071	-24.313	-17.159	110.147	118.570	-17.362	-10.097	-10.150	-3.698	155.088	-4.071	-8191	255	
13115.305	1	1	0	0	0.29947	0.14855	0.135	0.21579	0.12941	0.26443	0.22408	0.24798	0.068761	0.20363	0.19813	0.15037	0.084001	0.099148	0.10869	0.19234	-2.0312	-2.8187	-2.3542	-2.8417	-2.8438	-2.2792	-2.9646	-2.5875	-2.175	-2.9667	-2.3333	-2.6562	-2.8583	-2.2021	-2.7	-2.6125	116.937	-6.964	276.131	294.315	179.254	300.024	268.674	124.535	-26.420	169.433	8.546	-19.448	180.679	120.960	230.393	76.151	9.3902e-05	0.0002967	6.463e-05	1019.8	2.4622e-06	2.7354e-06	1101.6	208.96	8.8931e-07	2.3296e-06	266	72.786	58.04	17.061	3.4473e-06	23.704	0.00035325	0.00043856	0.00012337	1076.5	4.5924e-06	4.7923e-06	1174.2	224.4	4.6769e-06	4.6588e-06	285.22	79.977	63.14	18.578	4.7163e-06	25.989	154.193	94.580	72.272	-24.785	161.980	132.635	-24.082	-16.941	148.113	167.286	-17.428	-10.682	-10.645	-3.853	138.276	-4.066	-8191	255	
13115.401	1	1	0	0	0.076824	0.1987	0.046188	0.18667	0.087097	0.074929	0.25463	0.053423	0.12706	0.030025	0.27346	0.103	0.22615	0.21253	0.052566	0.19547	-1.9292	-2.9125	-2.5229	-2.7396	-3.0583	-2.4062	-2.9	-2.7042	-2.2083	-3.2042	-2.5021	-2.4604	-2.9292	-2.2021	-2.8583	-2.8521	270.342	-31.499	280.739	295.921	-1.849	0.239	242.435	6.845	106.297	269.747	-7.609	320.525	304.595	219.181	268.319	216.640	7.1038e-05	0.00033234	9.0706e-05	1018.1	1.8061e-06	2.3903e-06	1103.1	208.96	2.0104e-06	2.1059e-06	265.3	73.703	57.851	17.102	2.8579e-06	23.693	0.00035661	0.00043792	0.00011782	1075.2	4.8706e-06	4.883e-06	1174.1	223.92	4.7976e-06	4.7006e-06	285.56	80.3	63.034	18.638	4.9082e-06	25.882	167.502	53.662	61.317	-24.933	174.598	88.230	-24.343	-17.012	157.744	138.360	-17.163	-10.163	-10.009	-3.319	107.923	-4.206	-8191	255	
13115.521	1	1	0	0	0.041187	0.080798	0.062049	0.057341	0.030187	0.15058	0.1031	0.30525	0.074545	0.18912	0.20223	0.20832	0.19714	0.22073	0.084897	0.11065	-1.8958	-2.9354	-2.3792	-2.5792	-2.825	-2.3458	-2.8187	-2.8083	-2.3063	-3.0229	-2.6896	-2.5833	-2.8229	-2.4146	-2.5062	-2.9875	-20.798	43.726	321.168	-20.992	155.859	192.055	258.427	272.969	60.721	67.156	-7.891	317.370	-9.373	316.072	-27.941	210.102	9.6409e-05	0.00026238	0.00010284	1014.2	2.3367e-06	1.5693e-06	1102.8	209.09	1.0842e-06	3.0667e-06	265.21	73.047	58.398	17.159	1.6839e-06	23.789	0.00035699	0.00044656	0.00012419	1074.2	4.7926e-06	4.7871e-06	1173	224.08	4.8382e-06	4.6889e-06	285.46	80.082	63.216	18.645	4.8358e-06	25.984	164.813	62.957	57.273	-24.438	147.452	172.327	-24.405	-16.603	186.573	98.821	-16.730	-10.485	-10.112	-2.611	139.162	-3.512	-8191	255	
13115.593	1	1	0	0	0.28744	0.21157	0.13635	0.25289	0.26883	0.12193	0.10555	0.1269	0.35527	0.16862	0.2841	0.1766	0.26122	0.1856	0.10949	0.24394	-1.8375	-2.8812	-2.5312	-2.5333	-3.0021	-2.3646	-2.75	-2.8833	-2.1833	-2.8125	-2.6562	-2.4083	-2.9521	-2.5	-2.5312	-2.8396	266.965	186.040	295.826	281.265	175.938	190.456	297.650	305.532	184.487	293.309	279.781	162.666	271.206	299.492	301.570	278.656	8.6707e-05	0.00033413	0.0001253	1011.6	1.2965e-06	2.1532e-06	1107.3	208.81	6.534e-08	3.0807e-06	266.32	73.272	58.083	17.1	3.1341e-06	23.532	0.00035621	0.00042233	0.00012483	1072.4	4.7882e-06	4.9715e-06	1174.5	224.02	4.8128e-06	4.723e-06	286.06	80.126	63.254	18.612	4.8614e-06	25.89	178.478	50.628	48.485	-24.607	167.888	118.372	-24.405	-16.904	-33.224	125.910	-17.194	-10.390	-10.016	-3.839	116.199	-3.855	-8191	255	
13115.689	1	1	0	0	0.16589	0.053931	0.16235	0.24825	0.28074	0.16543	0.17134	0.12739	0.059018	0.15888	0.088863	0.17914	0.060399	0.077137	0.04295	0.23935	-1.9625	-2.8146	-2.7583	-2.4875	-2.9333	-2.4458	-2.4604	-3.1188	-2.3083	-2.7812	-2.8937	-2.2708	-3.075	-2.4417	-2.5479	-3.0604	30.850	28.443	38.073	233.873	103.820	279.769	270.577	178.255	223.795	293.894	200.411	272.781	204.305	55.499	322.190	301.929	7.4597e-05	0.00032041	0.00011391	1018.9	2.9821e-06	1.1747e-06	1101	208.75	1.8706e-06	4.5478e-06	266.38	73.035	57.958	17.023	1.2637e-06	23.693	0.00034655	0.00045256	0.00012497	1075.6	4.6926e-06	4.8191e-06	1172.1	224.22	4.5685e-06	4.7092e-06	285.36	80.154	63.091	18.596	4.6857e-06	25.932	168.843	25.314	77.257	-24.617	131.793	118.963	-23.955	-16.878	163.273	89.281	-17.369	-10.757	-10.090	-3.407	93.047	-3.620	-8191	255	
13115.810	1	1	0	0	0.064085	0.14088	0.18999	0.16481	0.064743	0.053968	0.064154	0.08103	0.19613	0.22555	0.23015	0.11584	0.04126	0.11739	0.15764	0.11069	-1.7854	-2.7167	-2.8438	-2.35	-2.8833	-2.5375	-2.5792	-3.1813	-2.2333	-2.6562	-2.9708	-2.2625	-2.9104	-2.6417	-2.4729	-3.0438	122.355	63.633	128.833	285.207	239.759	66.736	277.689	219.992	115.511	77.329	244.998	68.761	34.833	48.436	229.318	301.709	0.00011678	0.00028009	7.9913e-05	1016.7	1.4694e-06	3.4587e-06	1102.7	208.37	1.2314e-06	3.9107e-06	266.37	72.371	57.525	17.084	3.333e-06	23.647	0.00035486	0.00042982	0.00011899	1074.7	4.5744e-06	4.8216e-06	1172.9	223.82	4.7355e-06	4.6244e-06	285.8	79.807	62.704	18.627	4.6771e-06	25.895	164.713	50.242	55.826	-24.724	185.789	120.345	-24.321	-16.697	151.868	120.902	-16.799	-10.475	-10.116	-3.144	159.562	-3.913	-8191	255	
13115.906	1	1	0	0	0.064222	0.11021	0.3362	0.09676	0.20942	0.38292	0.059814	0.17366	0.16604	0.26697	0.24165	0.11133	0.12055	0.17813	0.24116	0.076018	-1.8771	-2.4958	-2.9042	-2.6063	-2.8833	-2.5625	-2.5833	-2.8625	-2.5396	-2.5062	-3.2146	-2.0917	-2.7062	-2.7542	-2.2396	-2.8333	277.470	64.180	179.333	258.436	6.084	124.256	301.954	20.943	67.428	139.919	323.592	31.841	113.604	225.470	138.174	104.625	7.5329e-05	0.00038762	6.7385e-05	1014.4	1.9393e-06	2.4427e-06	1100.3	208.52	3.6152e-07	2.6678e-06	265.34	72.187	58.155	17.06	1.7813e-06	23.54	0.00034289	0.00041399	0.00011797	1073.9	4.5268e-06	4.6863e-06	1171.1	223.84	4.48e-06	4.6721e-06	285.22	79.912	63.008	18.616	4.5757e-06	25.789	184.834	21.697	46.077	-24.500	149.434	48.656	-24.105	-16.905	99.488	75.418	-16.619	-10.376	-10.140	-3.367	120.205	-3.553	-8191	255	
13116.002	1	1	0	0	0.3531	0.23669	0.19075	0.13554	0.07425	0.14124	0.19941	0.18511	0.31956	0.1718	0.16923	0.32724	0.093701	0.02352	0.16902	0.094716	-2.1188	-2.475	-2.8146	-2.5187	-2.7333	-2.7646	-2.4875	-2.9104	-2.3937	-2.4562	-3.075	-2.1146	-2.7812	-2.7771	-2.2146	-2.7896	199.561	224.813	90.058	-25.054	11.709	215.520	194.477	4.961	31.140	116.654	248.076	320.773	238.316	34.154	110.537	8.228	8.5814e-05	5.5229e-05	1.9026e-05	1015.9	2.8772e-06	2.2858e-06	1101.2	208.99	6.1125e-07	1.4427e-06	265.04	72.584	58.296	17.118	2.6538e-06	23.532	0.00032584	0.00043164	0.00011412	1073.5	4.6634e-06	4.6569e-06	1169.6	223.52	4.5779e-06	4.5435e-06	285.07	79.922	62.953	18.584	4.789e-06	25.823	165.860	34.908	13.476	-24.734	144.349	129.054	-24.441	-16.910	102.801	100.571	-17.306	-10.817	-9.918	-3.622	133.512	-4.195	-8191	255	
13116.121	1	1	0	0	0.16268	0.085454	0.1325	0.33761	0.1266	0.057288	0.18271	0.15546	0.023919	0.1543	0.13907	0.18626	0.11192	0.050972	0.051372	0.098537	-2.1583	-2.4917	-2.8563	-2.4	-2.6208	-2.9562	-2.4104	-2.9292	-2.5771	-2.3021	-2.9542	-2.4708	-2.4146	-2.7771	-2.2958	-2.8229	278.220	-0.053	278.758	302.553	-10.567	223.572	311.571	305.185	173.046	217.869	235.496	-19.738	214.795	96.222	288.453	45.994	9.6977e-05	0.00037878	0.00012988	1012	1.3875e-06	2.1507e-06	1104.9	208.19	1.126e-06	2.627e-06	266.84	72.788	58.45	17.083	1.7456e-06	23.709	0.00035223	0.00043843	0.00011917	1072.7	4.6583e-06	4.7011e-06	1171.9	223.72	4.6132e-06	4.5272e-06	285.94	79.859	63.061	18.577	4.6886e-06	25.919	169.648	42.445	90.667	-24.520	124.397	66.712	-24.344	-16.983	201.250	106.434	-17.266	-10.543	-10.360	-3.232	170.992	-3.093	-8191	255	
13116.217	1	1	0	0	0.11483	0.067924	0.11504	0.28639	0.15178	0.19251	0.15783	0.077395	0.11235	0.11366	0.33732	0.16646	0.18235	0.077322	0.10548	0.16329	-2.3604	-2.1	-2.8396	-2.5563	-2.5896	-2.7812	-2.3417	-2.6792	-2.7042	-2.425	-2.9521	-2.6063	-2.5354	-2.9813	-2.3667	-2.8667	215.602	-33.666	-2.323	281.435	14.005	52.481	120.572	205.582	82.256	91.020	-18.498	199.117	219.160	245.252	216.254	206.511	7.078e-05	0.00023232	8.657e-05	1014.4	7.0975e-07	5.0743e-06	1095.5	208.14	2.3793e-06	3.391e-06	264.34	72.914	57.764	17.07	4.2562e-07	23.633	0.00033344	0.00043792	0.00011714	1073.1	4.7013e-06	4.6416e-06	1169.4	223.41	4.5066e-06	4.641e-06	284.98	79.877	62.828	18.57	4.5117e-06	25.825	149.946	84.436	70.305	-24.593	109.669	119.415	-24.211	-17.008	172.080	85.306	-17.036	-10.479	-10.152	-3.349	121.704	-3.350	-8191	255	
13116.289	1	1	0	0	0.2599	0.17449	0.1902	0.14054	0.20313	0.38437	0.25676	0.28648	0.20837	0.1985	0.074742	0.013908	0.22067	0.18165	0.20777	0.071492	-2.2812	-2.2313	-2.9729	-2.6708	-2.4562	-3.0354	-2.2625	-2.6417	-2.825	-2.175	-2.9229	-2.6562	-2.4521	-2.9229	-2.3458	-2.6208	6.776	161.413	298.667	42.831	323.215	280.720	273.220	308.350	118.697	263.281	27.239	84.190	249.435	224.035	111.297	-2.628	8.3811e-05	0.00019677	8.4696e-05	1017.4	3.1242e-06	3.354e-06	1101.2	207.33	1.2751e-06	2.7872e-06	265.5	72.585	57.966	16.957	3.25e-06	23.621	0.00033667	0.00041854	0.00011611	1074.2	4.3956e-06	4.5092e-06	1171	222.9	4.2856e-06	4.5933e-06	284.97	79.804	62.944	18.516	4.5954e-06	25.811	176.259	42.605	40.431	-24.823	156.647	104.386	-24.489	-17.203	127.338	129.124	-17.096	-10.016	-10.639	-2.978	111.803	-3.682	-8191	255	
13116.385	1	1	0	0	0.27473	0.35468	0.19285	0.16494	0.17076	0.26924	0.10672	0.30769	0.12795	0.061339	0.18036	0.24261	0.20423	0.15721	0.38018	0.057736	-2.4688	-2.2667	-2.65	-2.6292	-2.3708	-2.8396	-2.6146	-2.5146	-2.8812	-2.2458	-2.8312	-2.8063	-2.4229	-3.0521	-2.3646	-2.5917	312.156	-25.437	285.199	26.616	25.058	240.830	107.858	204.817	249.131	-26.506	285.354	28.583	27.508	289.555	225.911	84.335	8.4438e-05	0.00020778	6.6588e-05	1013.4	1.2605e-06	3.6731e-06	1103.9	207.67	1.5436e-06	1.248e-06	265.05	72.973	58.116	17.079	1.7956e-06	23.741	0.00032495	0.00042874	0.00011626	1073.2	4.6204e-06	4.5336e-06	1171.8	222.81	4.395e-06	4.7626e-06	285.11	79.911	62.897	18.579	4.6141e-06	25.846	158.919	31.931	22.776	-24.455	151.190	130.933	-24.034	-16.790	154.427	83.447	-17.104	-10.125	-10.326	-3.066	101.230	-3.865	-8191	255	
13116.506	1	1	0	0	0.065693	0.30866	0.075305	0.09086	0.1359	0.17793	0.046789	0.14015	0.15061	0.28885	0.28781	0.2266	0.16984	0.16691	0.2333	0.039927	-2.4729	-2.3187	-2.7646	-2.8875	-2.2708	-2.9875	-2.6917	-2.6063	-2.7271	-2.2625	-2.7854	-2.8917	-2.4375	-2.9229	-2.5958	-2.35	274.981	235.296	97.816	284.723	150.101	105.930	-3.787	-5.506	264.518	263.928	321.700	166.554	114.604	227.092	87.511	129.426	0.00011006	0.0002581	4.695e-05	1013.8	2.2588e-06	3.7183e-06	1099	208.3	2.1277e-06	2.0944e-06	264.65	72.514	57.924	16.928	1.4299e-06	23.59	0.00034334	0.00042263	0.0001169	1074.3	4.5192e-06	4.6868e-06	1172.3	223.6	4.5655e-06	4.6477e-06	284.92	79.845	62.935	18.559	4.6328e-06	25.82	163.585	18.066	31.837	-24.446	114.989	102.058	-24.250	-17.214	113.562	153.363	-16.757	-10.407	-10.002	-2.990	108.718	-3.914	-8191	255	
13116.602	1	1	0	0	0.1423	0.25607	0.31556	0.12786	0.3531	0.16933	0.093115	0.36275	0.044471	0.12922	0.23661	0.1339	0.081632	0.18745	0.24113	0.15142	-2.7208	-2.3125	-2.6125	-2.9792	-2.3771	-2.9813	-2.8646	-2.3625	-2.9521	-2.3896	-2.5208	-2.9458	-2.3896	-2.8104	-2.7625	-2.475	122.619	254.306	50.238	254.905	114.048	164.841	185.120	263.414	36.975	323.710	2.838	212.810	31.380	276.774	85.309	8.138	8.3741e-05	0.00034202	7.312e-05	1012.7	2.046e-06	3.2774e-06	1100.9	208.32	2.6941e-06	1.6486e-06	264.81	72.931	57.646	17.08	2.281e-06	23.649	0.00032096	0.0004227	0.00011877	1075	4.5299e-06	4.5175e-06	1169.3	222.83	4.4949e-06	4.4915e-06	284.75	79.921	62.657	18.531	4.7237e-06	25.841	163.906	54.645	46.249	-24.434	147.549	119.705	-24.077	-16.818	153.196	90.558	-17.165	-10.133	-9.920	-3.001	73.903	-3.534	-8191	255	
13116.698	1	1	0	0	0.038326	0.062472	0.15425	0.032681	0.17018	0.02902	0.19486	0.32203	0.1285	0.13421	0.32966	0.092481	0.32398	0.14209	0.18196	0.094369	-2.4667	-2.5042	-2.4042	-3.1854	-2.2375	-2.8104	-2.9958	-2.5833	-3.1146	-2.3688	-2.6125	-3.0521	-2.4375	-2.6312	-2.8646	-2.3271	117.438	259.356	-21.736	317.387	285.181	66.798	247.558	67.476	238.296	180.863	64.255	237.958	2.267	139.352	26.133	16.834	9.4252e-05	0.00024149	4.4515e-05	1013.5	3.3366e-06	3.0043e-06	1099.3	207.58	1.3102e-06	1.1506e-06	267.29	72.527	58.117	16.946	2.2687e-06	23.415	0.0003367	0.00043698	0.00011884	1075.5	4.9332e-06	4.7093e-06	1170.4	223.1	4.6763e-06	4.6201e-06	285.15	79.854	62.938	18.574	4.612e-06	25.797	169.737	58.298	59.249	-24.073	144.228	130.614	-24.269	-17.148	169.364	158.672	-17.335	-10.025	-9.650	-2.994	131.448	-3.765	-8191	255	
13116.794	1	1	0	0	0.059023	0.31767	0.016656	0.051836	0.073082	0.32832	0.18045	0.039651	0.050172	0.10693	0.12155	0.16221	0.074844	0.34007	0.052082	0.066218	-2.6437	-2.6167	-2.4313	-2.8604	-2.2208	-2.7042	-2.9958	-2.3563	-2.9896	-2.6917	-2.4813	-3.1542	-2.4562	-2.5667	-2.8479	-2.3333	259.721	6.165	58.402	202.993	74.207	122.895	256.687	115.242	276.491	97.894	205.459	35.393	208.287	-14.139	19.705	99.971	0.00010201	0.00034921	5.6618e-05	1015.8	2.182e-06	1.7982e-06	1104.2	207.69	1.5831e-06	4.166e-06	264.53	72.766	58.573	16.959	2.626e-06	23.392	0.00035011	0.00043949	0.00012087	1075.7	4.9207e-06	4.8128e-06	1173.6	223.31	4.6784e-06	4.8371e-06	285.05	79.998	63.115	18.525	4.7679e-06	25.773	150.135	46.533	23.093	-24.249	127.110	106.448	-23.891	-16.991	170.034	134.720	-17.247	-10.404	-9.756	-2.996	133.118	-3.022	-8191	255	
13116.890	1	1	0	0	0.27249	0.13512	0.053648	0.20824	0.17968	0.40129	0.19383	0.15335	0.18392	0.20373	0.25129	0.26703	0.26671	0.25982	0.20533	0.010764	-2.3875	-2.7	-2.2708	-3.1167	-2.2625	-2.625	-2.9688	-2.4542	-2.7313	-2.725	-2.5042	-2.9437	-2.575	-2.6813	-2.8063	-2.4604	117.094	121.614	236.726	307.802	280.311	54.719	316.053	200.063	296.158	113.917	198.004	239.805	177.059	12.217	0.277	314.913	6.8487e-05	0.00031066	4.3532e-05	1017.3	1.3375e-06	1.3294e-06	1105.5	208.14	2.2074e-07	4.2016e-06	263.97	72.597	57.891	16.981	3.507e-06	23.712	0.00035714	0.00044048	0.00012397	1077.2	4.7336e-06	4.8317e-06	1176.1	223.2	4.7258e-06	4.7769e-06	284.6	79.944	63.083	18.556	4.756e-06	25.876	168.940	67.355	56.708	-24.393	93.027	134.110	-24.041	-17.015	258.480	118.389	-17.366	-10.060	-10.111	-2.858	133.238	-3.649	-8191	255	
13116.986	1	1	0	0	0.076986	0.14516	0.24307	0.092296	0.23032	0.41094	0.14534	0.16059	0.19012	0.19666	0.090238	0.059028	0.31964	0.066	0.31893	0.18151	-2.4146	-2.7021	-2.2875	-3.1146	-2.5979	-2.6417	-3.1854	-2.3875	-2.6688	-2.9042	-2.5458	-3.0896	-2.775	-2.2667	-3.0333	-2.4167	264.686	135.492	251.902	-1.687	192.803	52.512	314.415	24.363	218.381	45.676	12.968	245.584	212.841	245.877	195.492	248.456	8.6498e-05	0.00027284	7.0251e-05	1013.4	2.4175e-06	1.7934e-06	1097.6	208.59	1.2454e-06	3.157e-06	266.68	72.783	58.05	17.047	7.6502e-07	23.718	0.00035095	0.00043755	0.00012446	1076.1	4.8805e-06	4.9446e-06	1171.9	223.56	4.7814e-06	4.8858e-06	285.21	79.932	63.081	18.581	4.8503e-06	25.88	162.619	63.127	47.102	-24.432	160.246	110.503	-23.991	-16.715	114.409	126.169	-16.926	-9.792	-9.718	-3.302	161.372	-3.191	-8191	255	
13117.082	1	1	0	0	0.053155	0.082777	0.048655	0.16247	0.030287	0.14528	0.099729	0.040183	0.051	0.090525	0.045488	0.098141	0.18283	0.35775	0.22482	0.082978	-2.2083	-2.9437	-2.1542	-3.0771	-2.7	-2.225	-3.1271	-2.6646	-2.7271	-2.9938	-2.2313	-2.8646	-2.7812	-2.2708	-2.9708	-2.4479	281.186	88.025	183.634	270.250	93.736	253.665	274.587	276.051	319.470	322.748	-12.671	3.435	29.859	304.195	306.272	-12.957	8.9242e-05	0.00016413	7.3263e-05	1014.7	3.5901e-06	3.7225e-06	1106.1	209.43	1.2147e-06	3.4172e-06	265.36	72.482	57.811	17.031	3.5505e-06	23.612	0.00035853	0.00045845	0.00012483	1076.2	4.8439e-06	4.9578e-06	1174.2	223.93	4.911e-06	4.8579e-06	284.85	79.914	63.07	18.614	4.7647e-06	25.874	154.560	53.852	44.265	-24.486	123.081	109.141	-23.876	-17.201	133.929	155.282	-16.843	-9.979	-9.837	-3.091	110.417	-3.865	-8191	255	
13117.203	1	1	0	0	0.30205	0.16943	0.14682	0.11932	0.25535	0.13249	0.047135	0.1465	0.067205	0.024905	0.33762	0.27202	0.10852	0.23071	0.1344	0.070443	-2.0979	-2.8292	-2.3229	-2.8438	-2.8187	-2.375	-3.0229	-2.4917	-2.375	-2.9562	-2.2188	-2.6792	-3.0187	-2.3375	-2.9667	-2.5938	99.954	169.730	61.901	195.807	242.002	149.541	266.910	4.962	-8.894	225.972	296.642	318.417	254.357	257.526	97.134	251.263	9.8263e-05	0.00028084	0.00011106	1016.3	2.0139e-06	4.0694e-06	1101.4	208.75	1.0896e-06	1.3585e-06	264.95	73.389	57.932	16.89	2.2896e-06	23.612	0.00036543	0.00044491	0.00012637	1076.3	4.8849e-06	4.8287e-06	1175	223.94	4.6462e-06	4.6735e-06	285.58	80.06	63.082	18.535	4.611e-06	25.824	165.601	87.787	72.112	-24.070	154.763	117.495	-23.832	-16.538	107.369	122.308	-16.752	-9.590	-9.600	-3.330	98.279	-3.158	-8191	255	
13117.298	1	1	0	0	0.13899	0.31365	0.10224	0.15354	0.073948	0.21841	0.093474	0.22192	0.13288	0.061786	0.095747	0.043474	0.31147	0.19849	0.040171	0.095313	-1.9625	-2.8688	-2.3271	-2.7646	-2.8625	-2.4646	-3.0187	-2.6458	-2.4521	-3.0563	-2.4042	-2.5583	-3.0375	-2.2917	-2.7771	-2.7604	165.336	246.049	-6.835	178.476	-15.232	253.506	10.756	301.264	168.179	-3.618	58.097	0.413	141.207	221.043	151.219	272.324	8.4936e-05	0.00037692	6.1179e-05	1016.5	2.6487e-06	1.1154e-06	1103.3	208.11	5.163e-07	3.0478e-06	266.29	73.314	58.304	16.963	2.5263e-06	23.698	0.0003509	0.0004261	0.00012027	1079.5	4.7508e-06	4.8038e-06	1176	223.67	4.6155e-06	4.6919e-06	285.91	79.975	63.157	18.604	4.696e-06	25.864	179.058	66.345	78.401	-24.043	156.274	100.977	-23.712	-16.200	255.901	94.410	-17.221	-10.504	-10.130	-3.316	148.847	-3.571	-8191	255	
13117.394	1	1	0	0	0.15288	0.1461	0.068654	0.20421	0.078612	0.23922	0.19148	0.31265	0.066372	0.27086	0.209	0.041921	0.264	0.27254	0.17078	0.17379	-1.9146	-2.9021	-2.4646	-2.65	-2.8396	-2.1979	-2.925	-2.6333	-2.3125	-2.925	-2.4437	-2.4354	-2.8375	-2.3167	-2.7125	-2.7562	48.928	36.601	69.210	-33.214	142.122	141.090	291.716	183.619	310.453	-8.879	121.048	242.801	252.461	190.740	242.322	73.647	8.1671e-05	0.00035976	9.3918e-05	1014.3	3.5989e-06	9.1818e-08	1099.8	209.15	5.2976e-07	2.4272e-06	265.41	72.482	58.108	16.767	2.6158e-06	23.607	0.00036247	0.00045641	0.00012866	1078.4	4.938e-06	5.1751e-06	1174.4	224.03	5.0247e-06	5.3273e-06	285.65	80.07	63.206	18.587	5.0809e-06	25.927	176.724	74.600	28.983	-24.352	134.847	159.444	-23.871	-16.544	189.622	139.891	-16.888	-9.991	-9.880	-2.927	154.483	-3.146	-8191	255	
13117.490	1	1	0	0	0.15457	0.19056	0.11101	0.25763	0.087911	0.10786	0.21341	0.33508	0.26203	0.18035	0.28802	0.12791	0.27014	0.052251	0.12302	0.063031	-2.1729	-2.8583	-2.4083	-2.5958	-2.925	-2.2104	-2.9688	-3.0125	-2.3729	-2.7958	-2.5375	-2.3563	-3.2229	-2.2208	-2.5979	-3.0042	-5.915	209.656	179.937	279.002	-1.137	137.289	280.889	300.468	81.167	94.443	-29.603	-12.920	42.395	284.258	76.174	177.961	9.3779e-05	0.00034993	0.00010016	1013.8	1.8026e-06	3.9781e-06	1099.4	208.23	2.0312e-06	3.207e-06	266.07	72.322	58.22	16.997	2.6171e-06	23.592	0.00037545	0.0004794	0.00013342	1078.3	5.159e-06	5.3099e-06	1175.7	224.11	5.2173e-06	5.2517e-06	285.91	79.94	63.264	18.567	5.1968e-06	25.877	166.822	57.461	80.621	-24.079	135.338	149.071	-23.796	-16.570	91.005	89.570	-16.789	-10.305	-9.291	-3.429	142.035	-3.386	-8191	255	
13117.586	1	1	0	0	0.15335	0.30305	0.025029	0.14665	0.10023	0.31159	0.28644	0.1888	0.096114	0.13703	0.20389	0.032114	0.14455	0.24016	0.24876	0.081686	-1.7417	-2.7396	-2.5687	-2.4667	-3.0021	-2.2938	-2.4938	-2.8625	-2.1708	-2.7917	-2.6833	-2.2333	-3.0208	-2.3688	-2.4292	-2.9708	53.492	23.272	58.149	276.121	175.005	63.294	274.195	250.702	125.234	-11.965	88.913	316.528	276.441	31.846	228.713	-13.677	8.3471e-05	0.00036647	4.9705e-05	1016.7	3.7968e-06	2.2439e-06	1103	208.13	2.8858e-06	2.7775e-06	264.33	72.713	58.123	17.02	1.282e-06	23.796	0.00037055	0.0004761	0.00013148	1077.5	5.2221e-06	5.214e-06	1175	223.97	5.1807e-06	5.4478e-06	286.13	80.036	63.172	18.576	5.146e-06	25.927	163.410	56.653	32.130	-24.338	147.579	122.470	-24.000	-16.652	122.211	122.853	-16.917	-10.367	-9.813	-3.121	124.703	-4.014	-8191	255	
13117.680	1	1	0	0	0.27138	0.089954	0.23926	0.29905	0.11633	0.28849	0.42088	0.26657	0.063203	0.2001	0.11631	0.15218	0.22394	0.24826	0.037026	0.068794	-1.8854	-2.7125	-2.6833	-2.4688	-2.8354	-2.4	-2.5187	-3.0854	-2.1854	-2.8417	-2.7771	-2.2833	-2.8542	-2.5187	-2.3271	-3.0167	-28.199	54.498	97.222	185.164	263.301	114.737	204.566	93.073	194.235	24.507	302.311	264.088	172.103	-1.736	14.553	243.536	0.00011824	0.00017814	5.3854e-05	1016.2	2.7181e-06	2.6233e-06	1106.9	208.26	1.7212e-06	3.9173e-06	266.5	72.532	58.195	16.947	1.4665e-06	23.484	0.00039243	0.00048442	0.00013254	1078.3	5.264e-06	5.3743e-06	1175.6	223.93	5.0676e-06	5.187e-06	286.3	80.103	63.27	18.602	5.1486e-06	25.911	160.395	64.884	30.461	-24.347	139.025	150.891	-24.023	-16.655	184.036	108.301	-16.876	-10.204	-10.095	-2.938	97.791	-3.419	-8191	255	
13117.801	1	1	0	0	0.14802	0.14315	0.12619	0.35188	0.29812	0.13463	0.37113	0.1112	0.15623	0.080232	0.16998	0.095886	0.23658	0.16977	0.16194	0.1307	-1.7417	-2.6562	-2.6896	-2.3292	-2.9458	-2.6646	-2.4729	-3.0438	-2.2687	-2.6937	-3.0083	-2.4271	-2.9167	-2.6125	-2.2896	-2.9104	86.937	281.075	96.938	-7.794	90.133	126.435	258.773	-7.904	254.570	273.451	-4.168	179.489	306.280	103.557	306.875	-3.475	8.35e-05	0.00024447	8.0304e-05	1016	4.1779e-06	1.8592e-06	1104.8	208.53	1.641e-07	3.7896e-06	266.33	72.787	57.747	16.929	1.7048e-06	23.589	0.00036959	0.0004681	0.00012588	1075.5	4.9268e-06	4.966e-06	1175.5	223.98	4.7233e-06	4.8888e-06	285.51	80.032	62.972	18.587	4.7413e-06	25.802	175.825	39.963	58.653	-24.486	140.873	148.579	-24.354	-17.304	241.572	89.479	-16.848	-10.022	-10.056	-3.052	104.819	-3.256	-8191	255	
13117.897	1	1	0	0	0.099387	0.035641	0.16217	0.18943	0.13963	0.1139	0.31575	0.31819	0.037161	0.1149	0.29722	0.17047	0.10461	0.14626	0.16426	0.11611	-1.9771	-2.5771	-3.025	-2.4625	-2.6708	-2.5667	-2.5312	-2.9792	-2.3375	-2.4021	-3.0042	-2.4375	-2.6875	-2.6708	-2.1854	-2.9646	29.713	208.732	149.452	306.310	200.687	138.014	309.549	314.936	264.594	-13.361	276.964	232.198	-27.229	87.526	255.612	-24.274	9.4816e-05	0.00028958	0.00011625	1012.9	1.6256e-06	2.7442e-06	1110.1	207.85	1.653e-06	2.7392e-06	265.52	73.333	57.986	16.96	1.035e-06	23.676	0.00034663	0.00044417	0.00012454	1075.5	4.8632e-06	4.9279e-06	1177.1	223.4	4.7492e-06	4.8614e-06	285.1	80.105	63.116	18.517	4.9193e-06	25.905	182.429	79.152	38.784	-24.645	146.954	153.254	-24.131	-17.195	146.474	97.207	-17.196	-10.323	-9.900	-3.224	168.926	-3.721	-8191	255	
13117.993	1	1	0	0	0.23542	0.12891	0.19309	0.32835	0.16671	0.07885	0.25182	0.12798	0.078389	0.13171	0.12082	0.08942	0.28761	0.24965	0.16641	0.18964	-2.025	-2.3833	-2.9833	-2.3771	-2.5979	-2.725	-2.3979	-2.9458	-2.5021	-2.2396	-3.0396	-2.2667	-2.6792	-2.8667	-2.0292	-3.0479	187.024	145.736	96.113	256.845	261.529	12.786	273.758	302.570	189.964	-9.506	-1.432	199.332	273.735	281.032	106.563	155.196	9.9609e-05	0.00019845	8.9387e-05	1020.9	2.0297e-06	1.2428e-06	1106.4	208.75	8.8168e-07	4.1054e-06	266.83	73.314	58.396	16.972	2.162e-06	23.681	0.00035358	0.00045458	0.00012111	1079	4.7725e-06	4.763e-06	1176.9	224.2	4.7446e-06	4.891e-06	286.6	80.047	63.248	18.585	4.7497e-06	25.887	163.435	37.911	65.338	-24.568	139.390	121.184	-24.372	-16.999	152.634	109.388	-17.432	-9.605	-10.312	-3.532	76.904	-3.252	-8191	255	
13118.089	1	1	0	0	0.20683	0.11058	0.11372	0.32024	0.12717	0.10179	0.25729	0.18153	0.19103	0.2866	0.077438	0.10705	0.14027	0.15377	0.06048	0.22416	-2.2042	-2.3271	-2.8271	-2.4583	-2.6896	-3.0083	-2.4083	-2.9521	-2.8	-2.1604	-2.9792	-2.5271	-2.5	-3.0271	-2.3229	-2.8833	314.876	-8.434	62.788	257.925	142.002	17.417	240.108	256.372	186.980	15.491	6.505	29.938	252.369	75.910	92.260	292.673	8.6323e-05	0.00025367	0.00010212	1021.6	2.0974e-06	5.8621e-06	1104.1	208.67	2.8296e-06	1.4099e-06	267.37	72.438	58.217	16.82	1.2764e-06	23.532	0.00034757	0.00042832	0.00012237	1079.3	4.7313e-06	4.7898e-06	1176.4	223.54	4.5721e-06	4.7152e-06	285.71	79.933	63.067	18.573	4.705e-06	25.86	161.933	62.794	67.970	-24.381	141.992	130.826	-24.297	-16.926	174.423	100.207	-17.134	-10.256	-10.054	-2.905	129.784	-3.502	-8191	255	
13118.186	1	1	0	0	0.10053	0.33056	0.17023	0.35041	0.14846	0.18355	0.15887	0.31618	0.19075	0.22793	0.19061	0.11261	0.43996	0.18582	0.17058	0.17184	-2.2771	-2.3958	-3.15	-2.7229	-2.5042	-2.9833	-2.55	-2.7604	-2.825	-2.3438	-3.1229	-2.7687	-2.4146	-3.1125	-2.3042	-2.7667	80.068	126.994	197.943	-27.998	263.612	282.770	52.375	318.491	275.946	158.000	148.485	280.034	207.205	323.127	-9.824	299.893	9.4613e-05	0.00023675	1.0922e-05	1014.6	2.2383e-07	3.0949e-06	1102.1	209.25	2.1335e-06	2.1044e-06	266.96	73.406	58.014	16.963	1.1883e-06	23.527	0.00033774	0.0004313	0.00011932	1079.3	4.8337e-06	4.6821e-06	1176.9	224.18	4.5708e-06	4.6913e-06	286.16	80.067	63.204	18.586	4.8216e-06	25.812	160.684	50.758	96.321	-24.217	82.963	114.042	-23.837	-17.018	146.395	94.354	-16.977	-10.299	-9.883	-2.975	144.366	-3.859	-8191	255	
13118.282	1	1	0	0	0.15355	0.11842	0.076524	0.21203	0.19125	0.032149	0.21684	0.033965	0.19754	0.30568	0.032282	0.068565	0.17316	0.17828	0.025657	0.16761	-2.4688	-2.4396	-2.7729	-2.9313	-2.4313	-3.0312	-2.4625	-2.7458	-2.975	-2.3208	-2.9354	-2.6479	-2.3417	-2.9583	-2.475	-2.5417	154.011	27.894	285.866	292.966	275.952	37.787	279.971	-22.582	26.222	187.985	265.208	114.686	41.425	299.892	181.801	7.005	0.00012329	0.00031727	6.201e-05	1017.8	2.368e-06	3.6605e-06	1104.1	208.32	4.5087e-07	3.0146e-06	266.04	72.92	58.02	16.932	2.2023e-06	23.714	0.00035006	0.00042805	0.00011789	1078.8	4.7727e-06	4.6704e-06	1176.3	223.49	4.4909e-06	4.8799e-06	285.61	79.997	63.053	18.538	4.4764e-06	25.837	171.484	30.873	28.550	-24.351	122.716	108.409	-23.887	-16.871	192.166	110.149	-17.127	-10.433	-10.177	-2.984	132.489	-3.599	-8191	255	
13118.378	1	1	0	0	0.19033	0.099266	0.23478	0.24282	0.1707	0.14398	0.16754	0.18961	0.14675	0.115	0.097188	0.1458	0.16116	0.12767	0.25437	0.16188	-2.5792	-2.2729	-2.7375	-2.75	-2.3042	-2.8208	-2.4938	-2.5958	-2.9875	-2.2125	-2.8542	-2.8229	-2.3792	-2.9375	-2.3333	-2.4521	194.187	168.006	-6.341	318.126	156.522	71.448	174.537	271.357	-20.321	89.896	116.828	-14.713	307.882	136.303	192.270	314.915	8.6992e-05	0.00017869	3.9508e-05	1018.8	2.1025e-06	2.8922e-06	1107.5	208.39	1.8724e-06	1.8658e-06	268.21	72.615	58.219	16.937	3.3448e-06	23.74	0.00033178	0.00042568	0.00011329	1079.2	4.492e-06	4.6243e-06	1174.8	223.33	4.3881e-06	4.5543e-06	286.38	79.839	63.159	18.504	4.4641e-06	25.786	150.016	63.773	46.416	-24.457	125.401	112.740	-24.053	-17.306	110.326	135.991	-17.286	-10.181	-10.119	-2.943	131.410	-3.774	-8191	255	
13118.474	1	1	0	0	0.14249	0.35972	0.13513	0.33607	0.12932	0.20849	0.30447	0.24143	0.27821	0.24345	0.33781	0.12899	0.12512	0.12375	0.053226	0.10495	-2.4708	-2.3042	-2.5438	-2.9958	-2.2542	-2.7896	-2.8042	-2.5	-2.9542	-2.35	-2.5729	-2.8	-2.2333	-2.9917	-2.5354	-2.275	230.349	129.582	193.031	293.958	231.656	16.994	228.399	175.192	69.776	92.480	278.506	300.564	300.408	35.196	68.984	225.184	8.9845e-05	0.00030075	8.1757e-05	1019.7	1.4921e-06	3.445e-06	1104.5	208.12	1.7734e-06	3.9312e-06	266.07	73.305	57.645	17.043	2.4077e-06	23.564	0.00031622	0.0004039	0.00011455	1078	4.3735e-06	4.5972e-06	1175	223.06	4.2372e-06	4.4912e-06	284.84	80.042	63.031	18.506	4.4014e-06	25.781	155.669	73.944	55.967	-24.591	131.447	125.665	-23.997	-16.761	144.133	102.546	-17.296	-10.494	-10.034	-3.227	113.015	-3.691	-8191	255	
13118.593	1	1	0	0	0.16333	0.18535	0.1109	0.25712	0.084828	0.1507	0.20055	0.034902	0.16944	0.20487	0.10672	0.11852	0.24504	0.15959	0.23162	0.31692	-2.575	-2.4688	-2.5021	-3.1604	-2.1083	-2.7792	-2.7333	-2.3375	-2.9667	-2.5333	-2.4875	-2.8688	-2.1833	-2.8521	-2.6875	-2.2667	82.793	232.074	135.306	-12.907	296.032	-20.918	-32.319	268.245	173.213	161.684	246.894	269.212	29.277	47.393	-0.947	-34.176	8.4277e-05	0.00016452	8.9134e-05	1014.6	1.5191e-06	2.9655e-06	1099.7	208.85	6.8848e-07	2.9739e-06	264.4	72.732	57.77	16.958	2.8785e-06	23.402	0.00031967	0.00040833	0.00011004	1075.4	4.3282e-06	4.4591e-06	1172.7	223.16	4.4379e-06	4.4863e-06	284.55	79.78	62.947	18.528	4.4275e-06	25.78	150.273	74.359	78.450	-24.561	186.458	107.364	-23.917	-17.135	173.333	97.895	-17.119	-10.412	-10.315	-3.212	122.981	-3.492	-8191	255	
13118.689	1	1	0	0	0.23134	0.096386	0.14232	0.37981	0.21915	0.20279	0.15424	0.12161	0.34779	0.051241	0.21437	0.11634	0.16532	0.18156	0.064941	0.19928	-2.5104	-2.35	-2.4917	-3.025	-2.225	-2.7812	-2.6979	-2.4	-2.8542	-2.6771	-2.4292	-2.9708	-2.3917	-2.8	-2.85	-2.2708	213.673	253.164	291.739	264.134	-28.072	136.740	275.745	295.910	122.109	217.856	313.999	195.333	215.348	279.668	172.390	229.104	0.00010503	0.00015391	5.8991e-05	1012	1.1503e-06	3.0148e-06	1106.3	208.86	1.577e-06	2.3261e-06	264.73	73.053	57.84	16.996	2.7626e-06	23.638	0.00032642	0.00040527	0.00011495	1075	4.5927e-06	4.5402e-06	1174	223.56	4.5634e-06	4.5028e-06	284.73	80.123	62.897	18.525	4.4825e-06	25.781	172.278	43.402	46.273	-24.407	169.221	147.831	-24.182	-17.023	117.604	132.968	-17.038	-10.337	-10.012	-2.937	122.132	-3.691	-8191	255	
13118.763	1	1	0	0	0.12514	0.08878	0.23497	0.28273	0.24484	0.10762	0.12567	0.33694	0.16033	0.21455	0.086467	0.19613	0.16622	0.20192	0.19091	0.20559	-2.4437	-2.5	-2.1854	-3.0687	-2.15	-2.7708	-2.8833	-2.2479	-2.9333	-2.6188	-2.4062	-3.0729	-2.4375	-2.6792	-2.9729	-2.3521	151.497	-33.748	150.700	222.330	17.363	147.065	216.029	219.011	290.965	300.394	134.513	318.962	77.593	270.330	102.866	123.544	9.9648e-05	0.00034152	0.00013993	1015.9	2.7515e-06	3.9348e-06	1106	207.92	2.7966e-06	1.8163e-06	266.54	72.88	57.816	17.001	3.0306e-06	23.385	0.00033483	0.0004276	0.00012044	1076.3	4.7399e-06	4.6673e-06	1175.2	223.36	4.5528e-06	4.7182e-06	285.67	79.945	62.946	18.584	4.6744e-06	25.709	184.184	106.025	76.120	-24.434	135.861	164.462	-24.037	-17.403	157.921	133.457	-17.372	-9.824	-9.750	-3.265	110.336	-3.905	-8191	255	
13118.881	1	1	0	0	0.18792	0.17797	0.25172	0.217	0.25888	0.18845	0.1875	0.17307	0.054506	0.13951	0.24642	0.21827	0.18057	0.24856	0.24409	0.15241	-2.0021	-2.5125	-2.1521	-3.0646	-2.2687	-2.3083	-3.1292	-2.3563	-2.6521	-2.8438	-2.3729	-2.7417	-2.6771	-2.2917	-2.7167	-2.2125	9.615	36.739	316.105	-6.399	47.668	227.614	37.647	194.999	290.499	-6.373	291.070	-10.975	208.375	276.108	223.235	217.853	9.5843e-05	0.00021025	7.651e-05	1016.1	1.8032e-06	3.5116e-06	1097.8	208.13	1.544e-06	2.3545e-06	264.36	72.852	58.288	16.957	2.9168e-06	23.293	0.00034882	0.00042928	0.00012259	1076.7	4.6479e-06	4.7167e-06	1172.7	223.13	4.6632e-06	4.7008e-06	284.63	80.103	63.028	18.557	4.4643e-06	25.669	167.522	61.103	50.274	-24.272	129.209	91.256	-24.071	-16.929	126.155	118.623	-16.779	-10.123	-9.880	-2.923	113.702	-3.403	-8191	255	
13118.978	1	1	0	0	0.18314	0.097284	0.15468	0.12928	0.26364	0.17973	0.15557	0.091329	0.037724	0.15472	0.066668	0.36781	0.23806	0.18629	0.27147	0.079515	-2.4062	-2.8771	-2.0375	-2.9167	-2.3021	-2.375	-2.9521	-2.4229	-2.7917	-2.7875	-2.35	-2.7313	-2.5917	-2.2438	-2.8958	-2.2167	201.680	266.272	107.067	278.933	220.898	258.548	273.355	200.528	166.910	132.901	92.468	-19.506	211.931	135.469	75.388	157.597	7.3159e-05	0.00022908	9.1277e-05	1018.8	2.0408e-06	2.0523e-06	1104.3	208.34	1.7352e-06	2.8136e-06	264.66	72.636	57.595	16.935	2.3495e-06	23.432	0.00033576	0.00041817	0.00011617	1077.1	4.5525e-06	4.6986e-06	1174.3	223.19	4.3054e-06	4.485e-06	285.27	79.904	62.905	18.518	4.3893e-06	25.771	152.468	58.502	49.288	-24.514	166.448	96.087	-23.907	-16.583	91.764	112.989	-17.057	-10.003	-9.930	-3.170	115.864	-3.450	-8191	255	
13119.074	1	1	0	0	0.082998	0.11124	0.1564	0.12367	0.13556	0.067216	0.085848	0.43659	0.032504	0.17506	0.28092	0.10614	0.3426	0.1884	0.26359	0.049701	-2.1292	-2.7667	-2.1542	-2.7854	-2.4333	-2.3604	-3.0833	-2.4021	-2.4792	-2.7479	-2.3833	-2.6375	-2.6667	-2.4208	-2.9229	-2.4938	-16.770	128.708	228.568	288.414	218.991	221.001	70.004	279.596	282.056	102.903	-23.196	5.586	308.637	288.900	23.669	173.365	0.00011476	0.00015066	8.4481e-05	1013.3	1.5762e-06	1.6736e-06	1103.3	207.8	7.8074e-07	3.8509e-07	265.93	72.825	57.923	16.876	2.11e-06	23.663	0.00033268	0.0004197	0.00011476	1076.7	4.6486e-06	4.6676e-06	1172.9	222.99	4.4358e-06	4.4086e-06	285.67	80	63.073	18.469	4.4506e-06	25.795	169.389	27.698	71.073	-24.359	145.533	126.616	-24.025	-16.946	26.127	173.825	-16.990	-10.272	-9.828	-3.665	91.424	-3.726	-8191	255	
13119.170	1	1	0	0	0.23205	0.11778	0.14855	0.15425	0.051094	0.11926	0.077895	0.044042	0.32507	0.12171	0.14643	0.086543	0.17588	0.18362	0.27668	0.11491	-1.9542	-2.7229	-2.2271	-2.8021	-2.6271	-2.2583	-3.0229	-2.6562	-2.4271	-2.8896	-2.4125	-2.6042	-2.8063	-2.2771	-2.8312	-2.6646	292.743	43.225	171.277	57.317	76.112	239.056	118.107	47.197	270.208	85.398	320.067	322.997	52.749	146.617	15.727	156.534	8.445e-05	0.00037747	0.0001048	1017.7	1.3449e-06	1.5886e-06	1095.1	207.29	9.2291e-07	2.4939e-06	266.92	73.235	57.789	16.902	1.6647e-06	23.579	0.00033304	0.00041315	0.00011678	1076.6	4.6201e-06	4.4849e-06	1173.2	223.06	4.4363e-06	4.4571e-06	284.87	80.141	63.027	18.516	4.4367e-06	25.791	164.759	101.912	110.495	-24.297	177.740	117.187	-24.105	-17.034	148.578	122.481	-16.963	-10.305	-9.887	-3.420	89.880	-3.559	-8191	255	
13119.290	1	1	0	0	0.18263	0.14185	0.20533	0.32173	0.10527	0.10989	0.079501	0.14806	0.2304	0.12175	0.11009	0.11489	0.15567	0.1653	0.20885	0.19306	-1.8208	-2.9146	-2.0667	-2.6646	-2.8604	-2.2417	-2.8792	-2.7229	-2.3375	-2.9688	-2.4042	-2.5667	-2.9125	-2.1021	-2.7958	-2.8	48.947	-16.934	87.665	310.389	28.007	-32.193	140.378	264.528	67.091	52.670	54.086	298.125	38.126	207.020	142.801	256.085	0.0001048	0.00023317	0.00013004	1014.6	1.821e-06	1.7683e-06	1102.8	207.82	1.964e-06	1.918e-06	266.33	72.643	58.062	16.811	1.3568e-06	23.707	0.00032771	0.00040427	0.00011323	1073.9	4.4449e-06	4.6213e-06	1172.4	223.25	4.3699e-06	4.4598e-06	284.7	79.741	62.901	18.45	4.2942e-06	25.823	155.392	58.622	36.540	-24.514	153.407	66.933	-24.026	-16.644	153.239	52.929	-17.070	-10.320	-9.934	-3.017	138.986	-3.232	-8191	255	
13119.387	1	1	0	0	0.11688	0.20803	0.16175	0.15553	0.19152	0.18835	0.38595	0.43472	0.33833	0.13768	0.025711	0.19418	0.30997	0.35765	0.34611	0.080847	-1.8188	-3.0062	-2.425	-2.4333	-2.8354	-2.1208	-2.85	-2.75	-2.1083	-2.975	-2.5125	-2.475	-2.9146	-2.225	-2.7146	-2.7625	153.721	161.018	274.612	212.843	35.663	75.452	246.018	218.803	185.335	-15.544	165.267	28.768	289.471	204.828	71.463	71.123	0.0001017	0.00030184	4.8496e-05	1012.2	2.1362e-06	2.4382e-06	1099.6	208.57	3.5955e-06	2.3456e-06	264.92	72.632	57.775	16.985	1.9527e-06	23.502	0.00033077	0.00041685	0.0001166	1074	4.6562e-06	4.4879e-06	1170.6	222.98	4.7502e-06	4.5662e-06	284.91	79.767	62.835	18.503	4.4788e-06	25.777	163.084	48.596	62.148	-24.556	185.241	135.479	-24.087	-16.865	156.660	161.979	-17.133	-9.767	-9.676	-2.628	151.411	-3.140	-8191	255	
13119.483	1	1	0	0	0.23441	0.16228	0.0069632	0.34588	0.1372	0.12527	0.073995	0.26603	0.26828	0.22852	0.13601	0.082547	0.16049	0.21176	0.11417	0.13538	-1.8083	-2.8042	-2.4208	-2.6958	-2.95	-2.1979	-2.8083	-2.7792	-2.2833	-2.8729	-2.7083	-2.4188	-2.9021	-2.5333	-2.7146	-2.7458	84.400	229.733	21.826	229.112	-16.975	262.952	-3.348	305.067	44.838	73.675	203.524	184.287	324.034	-25.688	-11.398	317.717	9.6382e-05	0.00027206	6.0568e-05	1013.4	2.5953e-06	2.407e-06	1098.9	208.46	2.6304e-06	1.4825e-06	264.95	73.051	58.001	16.93	2.2323e-06	23.378	0.00033238	0.00041569	0.00011404	1074.2	4.463e-06	4.5002e-06	1171.5	223.4	4.3442e-06	4.2769e-06	284.39	79.971	63.077	18.518	4.3411e-06	25.711	156.419	64.084	90.855	-24.528	148.249	138.550	-24.203	-16.677	130.083	112.418	-17.030	-10.183	-9.503	-3.092	103.491	-3.754	-8191	255	
13119.579	1	1	0	0	0.31972	0.14801	0.22207	0.11958	0.14501	0.061134	0.47611	0.19202	0.15351	0.185	0.12562	0.1302	0.25455	0.13758	0.075198	0.10939	-1.7417	-2.7729	-2.425	-2.4313	-2.8542	-2.3688	-2.5146	-3.1646	-2.2729	-2.8229	-2.8521	-2.4792	-2.9437	-2.3917	-2.5271	-2.7604	-14.620	12.807	298.869	251.054	262.042	155.285	237.714	237.772	170.621	277.420	246.812	176.387	293.202	138.314	209.057	233.615	8.0107e-05	0.00027897	9.078e-05	1011.1	3.6385e-06	3.274e-06	1098.1	208.17	1.8102e-06	2.4177e-06	265.52	72.781	58.089	16.894	3.1362e-06	23.601	0.00032246	0.00039878	0.00011273	1072	4.5461e-06	4.5443e-06	1168.2	223.09	4.3123e-06	4.2163e-06	284.79	79.864	62.884	18.464	4.3669e-06	25.732	150.723	60.961	77.380	-24.527	166.994	99.316	-24.025	-16.796	134.984	104.899	-16.784	-10.578	-9.739	-2.950	127.967	-3.623	-8191	255	
13119.673	1	1	0	0	0.26855	0.11879	0.21367	0.4448	0.10257	0.03581	0.25314	0.22479	0.14096	0.33581	0.2663	0.13628	0.14248	0.22197	0.12458	0.20275	-1.7542	-2.7854	-2.5979	-2.4417	-2.9125	-2.4771	-2.6021	-2.9771	-2.3042	-2.5958	-2.7958	-2.3542	-2.8333	-2.525	-2.3792	-2.9729	276.036	70.894	80.223	304.540	15.764	190.528	318.684	239.828	238.928	153.760	301.196	299.873	205.682	309.243	159.921	4.487	9.5709e-05	0.00014203	9.1502e-05	1013.2	2.0771e-06	6.7852e-07	1101.1	206.37	1.9212e-06	1.2712e-06	265.81	73.098	57.872	16.862	3.007e-06	23.399	0.00033332	0.00040833	0.00011209	1072.8	4.3073e-06	4.5443e-06	1168.8	222.99	4.3478e-06	4.5123e-06	284.96	79.875	62.942	18.452	4.3432e-06	25.708	165.359	79.803	43.475	-24.370	165.943	233.038	-24.099	-16.938	113.804	137.370	-16.680	-10.303	-9.906	-2.930	106.576	-3.274	-8191	255	
13119.769	1	1	0	0	0.07334	0.13174	0.11127	0.19616	0.042159	0.12418	0.083473	0.24228	0.27717	0.14161	0.16992	0.046528	0.034577	0.16501	0.04319	0.16636	-1.8792	-2.4292	-2.8375	-2.1562	-2.8771	-2.7042	-2.5021	-2.8604	-2.4042	-2.6292	-2.8937	-2.3417	-2.9542	-2.6896	-2.3896	-3.0354	179.384	-17.624	75.045	25.487	252.387	193.750	117.950	297.651	116.111	143.915	192.072	231.187	294.055	255.901	96.055	-23.449	7.8848e-05	0.00026633	3.1662e-05	1007.5	2.7584e-06	3.6254e-06	1094.3	207.83	2.0806e-06	2.8463e-06	267.18	72.811	57.951	16.979	2.6769e-06	23.484	0.00032862	0.00041017	0.0001128	1071.3	4.5866e-06	4.5712e-06	1168.3	223.21	4.3212e-06	4.4094e-06	285.08	79.776	62.813	18.542	4.5288e-06	25.71	161.024	81.893	84.012	-24.393	130.756	134.029	-23.959	-16.661	119.299	106.660	-17.082	-10.296	-10.090	-2.801	115.084	-3.201	-8191	255	
13119.890	1	1	0	0	0.074106	0.056392	0.01411	0.39946	0.14141	0.16226	0.21718	0.31131	0.10742	0.2241	0.15337	0.16745	0.080534	0.047935	0.18041	0.21996	-1.9188	-2.4521	-2.9	-2.3958	-2.55	-2.7333	-2.3375	-3.1188	-2.3354	-2.4479	-3.0542	-2.1417	-2.5438	-2.7646	-2.2604	-2.875	177.617	162.463	212.350	303.902	138.787	142.746	141.609	301.583	156.788	-26.200	179.384	193.903	99.947	80.105	147.059	-34.902	7.6653e-05	0.00016918	6.6472e-05	1013.4	1.7416e-06	3.4394e-06	1100.6	208.05	1.7558e-06	3.2685e-06	265.44	72.538	58.189	16.951	2.0591e-06	23.474	0.00032604	0.00041815	0.00011205	1073.3	4.4503e-06	4.4347e-06	1169.8	222.78	4.5515e-06	4.401e-06	284.94	79.689	63.027	18.525	4.5644e-06	25.74	176.003	76.672	77.687	-24.609	138.877	96.738	-24.040	-17.009	182.194	94.827	-16.937	-10.149	-10.008	-2.653	132.740	-3.390	-8191	255	
13119.986	1	1	0	0	0.19685	0.12304	0.018517	0.13502	0.2356	0.1757	0.069272	0.3246	0.2585	0.2621	0.11238	0.19227	0.20662	0.10492	0.15052	0.11476	-2.1292	-2.375	-2.9917	-2.5229	-2.7104	-2.8521	-2.3771	-3.1167	-2.5521	-2.2917	-3.0833	-2.2708	-2.4729	-2.8271	-2.1958	-2.8521	199.737	318.918	301.711	24.765	116.006	282.173	216.020	287.513	39.547	319.906	-15.074	184.658	288.137	111.332	314.738	25.386	9.0926e-05	0.00031483	4.7623e-05	1013.5	1.3227e-06	5.0583e-06	1101	207.65	1.7952e-06	1.8436e-06	267.1	73.22	57.879	16.853	1.7037e-06	23.736	0.00032488	0.00042022	0.0001132	1074.7	4.61e-06	4.5224e-06	1172	222.82	4.3694e-06	4.5291e-06	285.2	79.912	62.883	18.523	4.6236e-06	25.831	145.006	78.154	51.638	-24.300	194.895	150.295	-23.916	-17.042	113.112	144.800	-16.957	-9.702	-9.929	-3.084	110.847	-3.506	-8191	255	
13120.058	1	1	0	0	0.15514	0.15997	0.26423	0.16858	0.37733	0.23624	0.40856	0.24259	0.23164	0.24071	0.14484	0.21457	0.15098	0.10257	0.062124	0.052025	-2.2292	-2.4146	-2.925	-2.2333	-2.3896	-3.1667	-2.3708	-2.7271	-2.6708	-2.4062	-3.0208	-2.4062	-2.4396	-2.7292	-2.3042	-2.7646	-28.877	286.154	152.345	265.321	250.035	251.468	227.555	259.179	157.757	48.577	285.672	188.834	142.805	240.838	270.263	56.202	6.9276e-05	0.00013093	9.9121e-05	1010.8	3.1721e-06	2.249e-06	1098.2	207.65	1.6115e-06	2.7568e-06	264.76	72.476	57.845	16.991	3.6848e-07	23.435	0.00032928	0.00041825	0.00011517	1072.8	4.5067e-06	4.4966e-06	1172.5	223.26	4.381e-06	4.5269e-06	284.94	79.856	63.045	18.526	4.4864e-06	25.732	167.796	75.841	67.953	-24.693	137.690	180.838	-23.857	-16.701	142.702	87.223	-16.991	-10.113	-9.931	-2.756	102.407	-3.719	-8191	255	
13120.154	1	1	0	0	0.26183	0.13874	0.20642	0.2862	0.045068	0.2023	0.15065	0.12074	0.15007	0.28671	0.12827	0.14295	0.091918	0.4178	0.046591	0.046775	-2.3083	-2.1542	-2.7979	-2.4604	-2.2562	-2.9875	-2.3542	-2.7125	-2.6104	-2.2562	-3.0812	-2.4729	-2.4042	-2.8896	-2.2417	-2.5583	177.803	195.691	274.487	269.955	91.484	185.341	265.057	120.608	42.903	-14.360	293.988	-30.848	278.539	303.827	122.515	146.634	0.00010458	0.00022794	7.8288e-05	1008.5	1.9279e-06	2.1448e-06	1103.8	207.43	1.5901e-06	1.7883e-06	265.05	72.691	57.888	16.892	3.3466e-06	23.534	0.00032308	0.00039875	0.00011333	1072.8	4.5039e-06	4.4558e-06	1173.1	223.1	4.294e-06	4.5009e-06	285.09	79.824	62.987	18.479	4.5712e-06	25.755	165.726	37.679	72.042	-24.386	194.354	135.743	-24.374	-16.682	150.026	112.597	-17.232	-10.362	-10.001	-3.069	129.218	-3.257	-8191	255	
13120.275	1	1	0	0	0.22834	0.091928	0.14386	0.050549	0.32075	0.031166	0.37429	0.063794	0.082588	0.042398	0.35231	0.086862	0.17823	0.11559	0.15994	0.15615	-2.4813	-2.2729	-2.7542	-2.9146	-2.2979	-2.8958	-2.4042	-2.5083	-2.6646	-2.2438	-2.8375	-2.5646	-2.4375	-2.9104	-2.3	-2.4854	318.206	-5.145	144.036	219.658	211.211	274.273	248.572	88.074	69.295	-5.441	265.585	5.527	32.952	146.863	283.585	309.344	8.2945e-05	0.00027544	0.00010724	1015.3	9.109e-07	2.0041e-06	1106	208.86	2.0629e-06	3.6196e-06	266.86	72.546	58.456	17.021	2.3214e-06	23.673	0.00033021	0.00042558	0.00011591	1074.2	4.4513e-06	4.5016e-06	1173.4	223.66	4.4825e-06	4.723e-06	285.73	79.717	63.109	18.562	4.6147e-06	25.84	161.111	56.685	43.105	-24.459	158.729	163.069	-24.179	-17.031	161.837	155.589	-17.086	-10.138	-10.259	-3.362	98.285	-3.729	-8191	255	
13120.371	1	1	0	0	0.19054	0.080203	0.052658	0.26608	0.11683	0.14792	0.20944	0.14813	0.24825	0.17092	0.1973	0.19094	0.26308	0.38485	0.087506	0.49487	-2.4688	-2.1542	-2.7	-2.7625	-2.2667	-2.8792	-2.5083	-2.525	-2.7938	-2.4708	-2.7188	-2.7667	-2.3146	-2.825	-2.5687	-2.4917	30.642	78.907	259.786	271.802	70.978	318.525	231.940	51.824	260.711	59.842	284.737	268.968	-11.878	183.428	130.362	243.861	0.0001138	0.0003741	7.304e-05	1013.6	9.0115e-07	3.0963e-06	1099.9	208.48	8.7889e-07	4.2626e-06	264.07	73.087	57.642	16.916	1.7108e-06	23.644	0.0003463	0.00043671	0.00011985	1074.7	4.7206e-06	4.7632e-06	1172.7	223.4	4.5779e-06	4.6068e-06	285	79.883	62.876	18.535	4.6107e-06	25.777	162.726	66.527	84.444	-24.465	135.888	111.907	-23.941	-16.938	181.834	147.402	-17.233	-9.677	-10.168	-3.045	96.600	-3.594	-8191	255	
13120.467	1	1	0	0	0.24875	0.040611	0.16941	0.055078	0.15947	0.31936	0.22205	0.099124	0.16533	0.12631	0.15869	0.032685	0.16423	0.11389	0.059306	0.12344	-2.4667	-2.1479	-2.6292	-2.8396	-2.1167	-2.8042	-2.6813	-2.4125	-3.0771	-2.3375	-2.7625	-2.85	-2.1458	-2.8625	-2.6583	-2.2771	69.109	53.128	36.215	138.930	183.449	-4.358	215.343	23.286	62.885	0.297	230.923	25.335	197.804	1.792	212.187	227.151	8.9565e-05	0.00037952	8.1423e-05	1011.9	6.4141e-07	2.2202e-06	1099.1	208.3	1.611e-06	4.907e-06	266.32	72.619	58.187	17.042	3.6422e-06	23.505	0.00033124	0.0004323	0.00011662	1072.3	4.6016e-06	4.5498e-06	1168.9	223.1	4.4716e-06	4.7599e-06	285.28	79.669	63.012	18.552	4.6913e-06	25.766	153.970	37.980	69.219	-24.459	146.095	173.727	-24.175	-17.272	155.969	126.211	-17.296	-10.498	-9.930	-3.203	90.545	-3.638	-8191	255	
13120.563	1	1	0	0	0.068243	0.074578	0.19356	0.27809	0.26139	0.25244	0.1597	0.060895	0.33828	0.20746	0.057144	0.23657	0.11102	0.3424	0.25212	0.20707	-2.5146	-2.3354	-2.5792	-3.1396	-2.2167	-2.8042	-2.8104	-2.2833	-3.0021	-2.4062	-2.55	-2.8688	-2.2521	-2.6521	-2.5854	-2.4229	152.316	178.634	-1.392	288.664	30.286	-18.331	289.030	-25.912	310.533	307.806	312.253	221.120	311.779	254.876	84.993	-28.301	7.536e-05	0.00041472	0.00011106	1013.8	3.2319e-06	2.4541e-06	1104.7	207.96	2.5137e-06	4.7218e-06	264.24	72.441	58.03	16.966	2.0434e-06	23.557	0.00034496	0.00043361	0.00011654	1074.5	4.6293e-06	4.5353e-06	1173.3	222.94	4.6073e-06	4.5562e-06	284.66	79.709	63.025	18.517	4.4451e-06	25.691	161.097	54.502	51.899	-24.323	142.796	121.511	-24.102	-17.095	110.848	122.367	-17.178	-9.890	-9.920	-3.167	174.079	-3.577	-8191	255	
13120.682	1	1	0	0	0.095197	0.27851	0.041544	0.11569	0.014653	0.083183	0.25132	0.23683	0.30228	0.12426	0.29066	0.086075	0.11665	0.202	0.18002	0.10669	-2.4167	-2.2333	-2.3271	-3.0667	-2.3833	-2.7125	-2.8396	-2.2917	-2.7146	-2.4375	-2.5479	-2.9542	-2.4917	-2.7896	-2.8167	-2.3375	96.860	50.837	253.344	210.131	99.750	317.515	-28.728	-12.464	246.263	63.564	241.607	-24.891	-15.429	62.872	63.988	320.589	9.507e-05	0.00021953	6.4221e-05	1011.8	1.3677e-06	3.532e-06	1101.1	206.85	9.5331e-07	3.5138e-06	265.55	72.7	58.19	16.945	1.7387e-06	23.543	0.00033064	0.00042214	0.00011519	1075.1	4.565e-06	4.5356e-06	1170.6	222.79	4.5376e-06	4.4852e-06	284.67	79.935	63.069	18.507	4.5831e-06	25.772	154.397	49.129	93.522	-24.437	123.396	57.502	-23.976	-16.681	162.365	147.142	-17.303	-10.159	-10.107	-3.459	135.333	-3.690	-8191	255	
13120.754	1	1	0	0	0.19286	0.15445	0.050623	0.37715	0.032311	0.21478	0.22544	0.34038	0.04928	0.059488	0.23926	0.12899	0.12512	0.12328	0.14664	0.049097	-2.4708	-2.4604	-2.4208	-2.9417	-2.3125	-2.6458	-2.9562	-2.2479	-2.9375	-2.5187	-2.3354	-3.0021	-2.3688	-2.7021	-2.7104	-2.2625	213.739	238.465	188.359	310.139	-3.790	7.096	285.997	320.229	105.484	299.028	273.819	68.701	115.642	231.350	130.314	316.067	9.4192e-05	0.0003077	0.00011948	1011.5	2.3751e-06	2.2239e-06	1095.6	208.31	1.2386e-06	2.8708e-06	266.6	72.983	58.455	16.988	2.4784e-06	23.674	0.00034223	0.00043787	0.00012133	1074.8	4.6583e-06	4.7663e-06	1170.3	223.2	4.6261e-06	4.5657e-06	284.8	80.127	63.083	18.583	4.6947e-06	25.871	175.760	33.276	58.204	-24.314	163.330	77.051	-24.091	-17.047	105.287	140.944	-17.493	-10.382	-10.166	-3.384	159.060	-3.607	-8191	255	
13120.852	1	1	0	0	0.2666	0.24949	0.2071	0.14303	0.034757	0.36471	0.26516	0.08698	0.2291	0.32052	0.17505	0.2871	0.4106	0.26984	0.15528	0.23682	-2.4667	-2.525	-2.1688	-3.0083	-2.3	-2.2896	-3.0271	-2.2562	-2.7229	-2.7021	-2.4604	-2.9333	-2.5687	-2.4708	-2.8083	-2.3708	-26.408	109.497	314.562	8.859	171.749	-24.915	250.875	260.803	219.374	309.703	93.351	3.084	44.098	289.892	271.148	67.471	0.00010924	0.00035028	0.00012869	1016.3	2.1707e-06	5.0561e-06	1104.7	209.1	1.1077e-06	2.3286e-06	264.23	72.776	57.987	16.985	2.8909e-06	23.474	0.00033289	0.00042374	0.00012132	1075.8	4.7175e-06	4.7065e-06	1172.1	223.25	4.5416e-06	4.5454e-06	284.43	79.864	63.081	18.565	4.5775e-06	25.757	174.117	38.093	64.430	-24.517	132.797	93.729	-24.090	-17.111	172.753	90.156	-17.060	-9.900	-9.748	-3.238	116.050	-3.616	-8191	255	
13120.970	1	1	0	0	0.31412	0.15288	0.2194	0.11072	0.10492	0.13761	0.15221	0.16142	0.27406	0.13908	0.14639	0.12222	0.25066	0.13476	0.048801	0.28268	-2.3937	-2.7979	-2.1479	-3.0458	-2.6167	-2.4729	-2.9104	-2.3896	-2.5729	-3.0438	-2.3	-2.8958	-2.55	-2.3583	-3.1104	-2.3667	-9.797	301.497	307.053	285.659	293.989	34.208	191.567	237.977	223.783	14.514	320.169	272.319	136.042	301.560	212.898	277.351	0.00011628	0.00019047	9.1401e-05	1018.7	2.5705e-06	4.8267e-06	1106.2	208.15	2.1191e-06	3.6423e-06	266.52	73.016	57.778	16.929	1.5187e-06	23.519	0.00034683	0.0004421	0.00011934	1075.2	4.7402e-06	4.9055e-06	1174.3	223.33	4.6431e-06	4.7431e-06	285.16	79.888	63.043	18.505	4.5849e-06	25.835	166.305	51.547	69.391	-24.434	115.421	111.356	-23.999	-16.872	185.998	81.693	-17.365	-10.149	-9.959	-3.402	170.693	-3.725	-8191	255	
13121.067	1	1	0	0	0.10717	0.099682	0.044049	0.14466	0.096398	0.17814	0.35554	0.069254	0.19149	0.14311	0.18457	0.33479	0.22382	0.089069	0.16294	0.031371	-2.2208	-2.8729	-2.15	-2.9125	-2.4188	-2.2333	-3.1542	-2.6188	-2.45	-2.8104	-2.3417	-2.7375	-2.7083	-2.2083	-2.8458	-2.5312	-22.202	281.456	249.510	315.965	188.901	156.540	304.726	284.119	72.730	315.802	46.236	280.660	108.719	222.753	105.158	184.487	7.9105e-05	0.00030617	7.1214e-05	1014.5	1.428e-06	2.7471e-06	1105.2	207.46	9.9731e-07	2.0984e-06	264.43	72.855	58.038	17.014	3.2622e-06	23.711	0.00034966	0.00043235	0.00012128	1075	4.7132e-06	4.8175e-06	1173.3	223.06	4.706e-06	4.6553e-06	284.7	80.019	63.026	18.556	4.6865e-06	25.847	167.086	56.685	50.456	-24.568	109.997	150.701	-23.935	-16.664	162.111	115.294	-16.891	-10.403	-9.741	-3.179	122.897	-3.595	-8191	255	
13121.163	1	1	0	0	0.048219	0.099042	0.22792	0.2357	0.083039	0.22574	0.22616	0.14086	0.18054	0.27173	0.075586	0.1837	0.19262	0.2538	0.15105	0.2546	-2.0167	-2.8375	-1.9146	-2.8083	-2.6104	-2.3521	-3.0083	-2.4458	-2.2729	-2.9583	-2.3187	-2.6646	-2.8167	-2.15	-2.8979	-2.6188	163.944	158.208	90.059	-13.788	294.046	195.171	255.865	304.735	-15.372	262.218	277.316	-11.281	253.162	-29.263	116.495	18.120	8.8438e-05	0.00021792	8.5972e-05	1009.5	1.5101e-06	1.7916e-06	1108.3	208.26	2.0148e-06	2.7791e-06	266.38	72.901	58.026	17.032	2.9572e-06	23.763	0.00034744	0.000405	0.00011847	1073	4.731e-06	4.712e-06	1175.4	223.22	4.5629e-06	4.6296e-06	285.36	79.868	63.13	18.574	4.5151e-06	25.877	170.501	91.242	84.860	-24.573	176.377	113.809	-24.047	-16.973	160.545	116.744	-17.274	-10.236	-9.851	-3.144	136.695	-3.301	-8191	255	
13121.283	1	1	0	0	0.24428	0.10715	0.26331	0.33952	0.24821	0.21847	0.15857	0.16473	0.068983	0.089342	0.092821	0.27693	0.082518	0.24115	0.29296	0.13275	-1.8375	-2.8896	-2.1625	-2.6958	-2.6667	-2.15	-2.9583	-2.5958	-2.1437	-3.0896	-2.4229	-2.5604	-2.7771	-2.075	-2.75	-2.625	253.080	164.830	186.129	322.899	258.802	82.622	168.603	233.311	199.203	5.300	246.364	309.261	90.188	120.438	318.383	-4.388	8.2537e-05	0.00019077	6.707e-05	1013.6	1.052e-06	2.0363e-06	1100.9	208.21	1.1783e-06	4.4005e-06	265.43	72.758	58.026	16.845	2.8829e-06	23.552	0.00033844	0.00043255	0.00011871	1075.2	4.5494e-06	4.655e-06	1172.3	223.48	4.6335e-06	4.5662e-06	284.97	79.899	63.099	18.517	4.5191e-06	25.812	163.854	33.510	52.274	-24.671	81.869	156.825	-24.164	-16.765	150.523	96.481	-17.463	-10.927	-9.852	-3.064	128.480	-3.767	-8191	255	
13121.355	1	1	0	0	0.086041	0.14561	0.041956	0.31108	0.20732	0.14839	0.22101	0.15011	0.11363	0.037053	0.086531	0.27185	0.095618	0.18548	0.15709	0.22545	-1.8146	-2.925	-2.25	-2.5104	-2.6896	-2.3833	-2.8625	-2.8937	-2.3125	-2.9521	-2.5042	-2.3208	-2.9813	-2.3354	-2.6792	-2.875	-23.848	313.883	266.378	263.091	-2.782	91.223	256.182	136.332	165.640	80.003	9.164	1.788	-9.985	146.690	196.801	159.568	0.00010534	0.0001225	4.593e-05	1019.4	2.814e-06	2.2117e-06	1101	208.8	5.6647e-07	3.032e-06	264.76	72.796	57.842	16.939	9.775e-07	23.727	0.00033677	0.00040808	0.00011524	1075.3	4.5975e-06	4.4849e-06	1172.3	223.65	4.5769e-06	4.4032e-06	285.28	79.964	63.022	18.572	4.6265e-06	25.828	160.871	1.742	46.988	-24.589	134.011	123.883	-24.316	-16.922	88.260	132.594	-17.345	-9.853	-9.884	-3.215	192.294	-3.259	-8191	255	
13121.451	1	1	0	0	0.47027	0.093855	0.094462	0.035082	0.10188	0.050624	0.27068	0.15546	0.22085	0.30352	0.13878	0.22287	0.29614	0.2513	0.19208	0.12023	-1.6792	-2.6979	-2.3083	-2.4083	-2.8729	-2.3	-2.8375	-2.7958	-2.1021	-2.7583	-2.6813	-2.2917	-2.8729	-2.1604	-2.5083	-2.9	155.651	213.569	4.447	-4.843	70.670	32.470	159.289	239.699	315.263	209.765	281.819	275.830	95.414	300.294	186.201	160.202	0.00010489	0.00029047	8.547e-05	1015.3	2.8059e-06	2.8985e-06	1099.9	208.91	1.3849e-06	2.1203e-06	265.89	73.135	58.178	17.011	9.4361e-07	23.465	0.0003416	0.00042069	0.0001213	1074.5	4.5754e-06	4.7504e-06	1173.6	223.39	4.6233e-06	4.6393e-06	285.2	79.8	63.096	18.608	4.5428e-06	25.798	172.445	43.927	59.807	-24.459	159.848	63.965	-24.140	-16.907	142.681	86.376	-17.096	-10.165	-10.001	-3.202	154.400	-3.661	-8191	255	
13121.547	1	1	0	0	0.26307	0.063801	0.1967	0.3246	0.081711	0.10141	0.24645	0.24229	0.025107	0.14623	0.15937	0.22758	0.14051	0.065062	0.40459	0.098198	-1.8	-2.8438	-2.4896	-2.2042	-2.9437	-2.3792	-2.5979	-2.9042	-2.2854	-2.6833	-2.8271	-2.3521	-2.9417	-2.6188	-2.4188	-2.9854	307.997	-21.331	288.393	307.623	276.824	286.613	10.601	218.978	203.326	-22.657	-14.659	69.484	15.858	41.358	303.789	53.383	8.3368e-05	0.0002902	6.5044e-05	1014.7	2.9958e-06	3.8401e-06	1099.4	208.06	5.0574e-07	2.1915e-06	266.17	73.154	58.275	17.128	1.049e-06	23.714	0.00033248	0.000413	0.00011722	1076	4.7142e-06	4.6693e-06	1174.5	223.59	4.5995e-06	4.6423e-06	285.82	80	63.229	18.576	4.6347e-06	25.872	167.067	32.349	46.820	-24.212	155.922	95.030	-24.051	-17.007	164.522	130.510	-16.658	-10.290	-10.154	-2.778	61.491	-3.577	-8191	255	
13121.666	1	1	0	0	0.18437	0.12351	0.1392	0.14988	0.11516	0.11594	0.19235	0.14247	0.2985	0.15536	0.18781	0.16173	0.2433	0.27024	0.20208	0.09202	-1.7458	-2.6646	-2.6104	-2.4208	-2.775	-2.4521	-2.6437	-2.9292	-2.1917	-2.65	-2.8937	-2.1604	-3.0958	-2.5542	-2.2979	-2.8521	32.154	166.773	167.725	62.062	117.811	271.092	39.472	267.222	218.854	106.390	250.479	86.646	-12.203	310.712	6.015	209.701	9.0576e-05	0.00026088	8.0696e-05	1018.3	1.9362e-06	1.7672e-06	1103.1	208.5	3.0772e-06	1.7443e-06	266.14	72.697	58.313	16.957	1.869e-06	23.872	0.00033883	0.00040631	0.00011627	1077.4	4.4963e-06	4.6909e-06	1172.3	223.94	4.5513e-06	4.6502e-06	285.72	79.725	63.12	18.58	4.4427e-06	25.898	151.796	55.694	32.474	-24.541	162.348	177.970	-24.023	-16.866	179.033	47.160	-16.985	-10.226	-9.968	-3.329	147.199	-3.420	-8191	255	
13121.762	1	1	0	0	0.23966	0.10457	0.26498	0.15323	0.10469	0.037921	0.090953	0.28768	0.18939	0.15391	0.15264	0.072515	0.15306	0.1669	0.068803	0.10765	-1.7354	-2.5333	-2.75	-2.3417	-2.6208	-2.6479	-2.4	-3.0146	-2.2854	-2.4833	-2.8792	-2.3021	-2.7396	-2.6167	-2.3354	-2.9396	66.207	19.210	-15.791	280.034	95.965	210.194	131.421	215.377	173.586	110.378	-29.941	291.692	323.154	2.448	211.936	178.926	0.00011311	0.00019167	2.443e-05	1020.1	1.9964e-06	3.7622e-06	1100.1	208.13	8.3762e-07	3.6396e-06	265.22	72.349	58.092	16.86	2.404e-06	23.765	0.0003469	0.00041761	0.00011461	1075.8	4.6018e-06	4.4761e-06	1174.3	223.62	4.5485e-06	4.5045e-06	285.77	79.779	63.119	18.535	4.5702e-06	25.912	158.138	63.693	31.436	-24.807	126.306	160.534	-24.003	-17.048	134.379	135.181	-17.274	-10.315	-9.841	-3.095	118.119	-3.575	-8191	255	
13121.859	1	1	0	0	0.215	0.20159	0.17773	0.016387	0.08839	0.074688	0.34076	0.098021	0.36996	0.1405	0.087505	0.044847	0.23154	0.15438	0.21581	0.23964	-1.9729	-2.4854	-3.0146	-2.3958	-2.7812	-2.675	-2.4292	-3.0458	-2.3646	-2.4333	-2.9208	-2.3583	-2.4979	-2.725	-2.1562	-3.0104	8.888	270.487	191.104	225.560	167.103	-15.077	262.977	282.216	69.242	223.949	322.169	84.363	158.462	85.191	171.580	-16.625	9.0776e-05	0.00026072	6.0368e-05	1013.1	3.2095e-06	3.0985e-06	1096.8	207.94	1.7852e-06	2.6706e-06	266.41	72.324	58.047	16.943	1.5042e-06	23.567	0.00032908	0.00042773	0.00011543	1074.7	4.6318e-06	4.5465e-06	1171.4	223.34	4.568e-06	4.6128e-06	285.14	79.784	63.065	18.527	4.631e-06	25.85	180.453	86.112	83.216	-24.203	165.918	146.062	-24.131	-16.808	144.917	115.358	-17.238	-10.391	-10.063	-2.806	157.898	-3.515	-8191	255	
13121.955	1	1	0	0	0.14534	0.26923	0.21042	0.14677	0.19476	0.19014	0.29801	0.071936	0.11497	0.27508	0.11097	0.14277	0.12641	0.19701	0.060474	0.27067	-2.1667	-2.3229	-2.6271	-2.5375	-2.5771	-2.8125	-2.3	-3.1167	-2.5312	-2.3708	-3.0375	-2.2896	-2.5563	-2.8438	-2.1271	-2.8604	133.641	0.466	-24.185	263.219	185.251	21.515	319.707	-32.062	283.628	70.103	255.039	45.285	318.359	262.571	-34.415	-32.026	8.7325e-05	0.00041406	7.4218e-05	1010.8	2.2739e-06	3.1674e-06	1102.8	207.88	2.4075e-06	3.0644e-06	264.4	72.57	57.975	17.044	3.0045e-06	23.479	0.0003311	0.00042172	0.00011415	1072.3	4.5299e-06	4.4355e-06	1172.8	223.63	4.6061e-06	4.4928e-06	285.14	80.028	63.151	18.584	4.6002e-06	25.788	164.901	60.899	13.996	-24.203	163.832	171.911	-24.255	-16.950	139.535	113.404	-17.073	-10.259	-9.789	-2.953	88.156	-3.670	-8191	255	
13122.051	1	1	0	0	0.074241	0.39157	0.1299	0.17704	0.067375	0.2833	0.17112	0.090204	0.071857	0.23133	0.044306	0.031493	0.14351	0.091048	0.17715	0.23523	-2.1	-2.2313	-2.8542	-2.6229	-2.4979	-3.0396	-2.4396	-2.9104	-2.6792	-2.3063	-2.8583	-2.3438	-2.5062	-2.8604	-2.2167	-2.6063	83.769	112.023	5.422	255.503	285.078	192.077	-8.911	7.996	209.644	69.337	120.154	222.401	-20.670	77.972	308.883	76.902	9.0165e-05	0.00015074	4.8493e-05	1014.5	2.2603e-06	3.3249e-06	1106.5	206.76	6.3768e-07	2.3793e-06	265.72	73.081	57.863	16.897	2.9935e-06	23.471	0.00033549	0.00043531	0.00011553	1075.1	4.4375e-06	4.526e-06	1173.7	223.26	4.5109e-06	4.6087e-06	285.31	79.998	63.023	18.512	4.5441e-06	25.793	164.775	22.002	24.982	-24.341	191.064	167.173	-23.755	-16.576	128.075	133.728	-16.792	-9.748	-9.821	-2.566	120.874	-3.027	-8191	255	
13122.147	1	1	0	0	0.12712	0.17857	0.1837	0.25062	0.11456	0.23404	0.25814	0.080404	0.13308	0.30034	0.30502	0.10205	0.070053	0.27149	0.066021	0.10284	-2.3667	-2.3021	-2.8708	-2.5292	-2.4	-2.9146	-2.4667	-2.6271	-2.8063	-2.2188	-2.9958	-2.6312	-2.1979	-3.0146	-2.3646	-2.6813	-25.713	-9.915	89.592	253.831	71.595	40.432	270.062	298.382	183.208	106.481	233.929	175.861	228.136	259.129	126.813	114.956	0.00010231	0.00041807	9.8259e-05	1014.2	1.2398e-06	1.1978e-06	1100.7	208.55	2.6361e-06	1.5812e-06	264.92	72.961	58.114	17.069	2.279e-06	23.43	0.0003358	0.00042384	0.00011615	1073.9	4.7188e-06	4.6676e-06	1170.9	223.56	4.7076e-06	4.6125e-06	284.8	80.04	63.018	18.554	4.5086e-06	25.777	159.565	50.117	51.415	-24.481	178.122	117.396	-23.961	-16.699	157.786	68.636	-16.772	-9.782	-9.883	-2.677	141.194	-3.501	-8191	255	
13122.243	1	1	0	0	0.27502	0.17045	0.12427	0.19852	0.22663	0.0084803	0.1893	0.18493	0.063351	0.079847	0.36223	0.077625	0.19796	0.15869	0.35841	0.26312	-2.5938	-2.25	-2.7687	-2.6896	-2.3667	-2.9271	-2.2687	-2.6063	-2.8375	-2.2562	-2.9458	-2.7062	-2.2708	-3.0625	-2.2292	-2.6104	272.253	301.368	157.572	284.535	-16.700	140.241	205.393	-29.998	-6.867	301.465	318.142	225.970	121.300	10.011	190.332	268.781	7.4935e-05	0.00031016	6.0623e-05	1018.3	2.5444e-06	4.0485e-06	1098.2	208.44	2.2631e-06	1.3038e-06	265.56	73.228	57.664	16.99	2.168e-06	23.508	0.00032774	0.0004216	0.00011625	1074.5	4.496e-06	4.5534e-06	1171.9	223.47	4.4358e-06	4.5993e-06	285.45	80.19	62.97	18.542	4.5051e-06	25.713	180.541	27.196	102.994	-24.420	136.320	106.574	-24.051	-16.951	133.697	101.431	-17.093	-9.845	-9.849	-3.381	111.359	-2.973	-8191	255	
13122.364	1	1	0	0	0.28467	0.20007	0.20274	0.22848	0.092215	0.10725	0.1092	0.076744	0.22941	0.21353	0.19243	0.0042817	0.40629	0.19915	0.17787	0.28204	-2.5083	-2.1125	-2.8271	-2.85	-2.3021	-2.8583	-2.45	-2.5333	-2.9021	-2.2604	-2.8354	-2.7729	-2.3167	-2.7521	-2.5708	-2.1813	68.938	252.726	192.565	6.696	49.532	265.907	271.017	229.506	101.333	106.281	-14.424	253.678	301.522	267.582	165.975	39.576	9.1326e-05	0.00027202	9.6611e-05	1019.6	1.902e-06	3.8376e-06	1102.3	209.24	2.3539e-06	3.2003e-06	263.99	72.951	57.658	17.07	8.9952e-07	23.56	0.00032046	0.00040589	0.00011416	1075.5	4.5492e-06	4.392e-06	1172.4	223.5	4.4087e-06	4.4416e-06	284.4	79.932	62.985	18.532	4.591e-06	25.804	175.187	63.173	15.414	-24.611	188.357	86.294	-23.965	-16.929	152.757	141.612	-16.729	-9.947	-9.907	-2.841	106.671	-3.730	-8191	255	
13122.460	1	1	0	0	0.2246	0.15269	0.073933	0.22918	0.24344	0.16403	0.076695	0.20105	0.32322	0.30078	0.13502	0.13015	0.18727	0.11147	0.39494	0.21196	-2.4437	-2.3438	-2.725	-2.9542	-2.2375	-2.9479	-2.7	-2.3896	-2.9062	-2.3042	-2.65	-2.8146	-2.375	-2.8125	-2.6896	-2.4167	292.407	285.574	237.367	290.683	-18.226	228.981	106.642	-6.875	19.709	139.003	247.849	115.395	0.331	268.999	145.031	243.073	9.4184e-05	0.00021159	6.6037e-05	1011.8	3.2633e-06	2.4455e-06	1103.9	208.52	1.6412e-06	3.554e-06	265.38	73.29	58.14	16.917	1.9758e-06	23.575	0.00033198	0.00041441	0.0001172	1074	4.5512e-06	4.4827e-06	1174.2	223.53	4.4338e-06	4.4086e-06	285.34	80.142	62.962	18.518	4.532e-06	25.781	166.278	88.217	83.406	-24.312	175.546	140.988	-23.847	-16.713	191.882	159.047	-16.905	-9.588	-9.527	-2.693	110.209	-3.362	-8191	255	
13122.554	1	1	0	0	0.16814	0.16725	0.15471	0.31067	0.069991	0.27691	0.23629	0.14654	0.088005	0.19924	0.033228	0.24356	0.10751	0.067677	0.068676	0.18806	-2.4437	-2.3354	-2.5354	-2.9062	-2.2917	-2.7167	-2.925	-2.4062	-2.8417	-2.4229	-2.5333	-3.0667	-2.4833	-2.6312	-2.7646	-2.2562	14.786	267.053	316.078	264.003	135.602	106.937	-9.965	277.539	254.749	114.244	272.190	-3.472	6.355	-3.541	-11.022	74.886	8.1649e-05	0.00023316	0.00010393	1010.4	2.9814e-06	1.8752e-06	1103.1	206.79	1.4603e-06	1.3178e-06	265.67	73.015	57.843	17.166	3.3493e-06	23.56	0.00034084	0.00041985	0.00012074	1075.4	4.5772e-06	4.7032e-06	1176	223.3	4.3151e-06	4.6372e-06	285.54	79.891	62.996	18.62	4.5799e-06	25.795	158.881	106.798	67.617	-24.075	151.223	92.745	-23.813	-16.864	132.186	68.543	-17.145	-9.718	-9.852	-2.826	132.912	-3.518	-8191	255	
13122.652	1	1	0	0	0.078272	0.077199	0.27594	0.10786	0.17043	0.22132	0.22584	0.25431	0.11502	0.14633	0.28468	0.24535	0.029001	0.23198	0.077572	0.10839	-2.4542	-2.3812	-2.3333	-2.9062	-2.1396	-2.6458	-2.9646	-2.3604	-2.7875	-2.5208	-2.5	-3.0563	-2.1875	-2.6292	-2.6583	-2.1937	191.026	266.061	131.231	-14.958	275.708	-13.543	179.716	154.696	48.462	95.562	231.480	18.109	277.940	321.926	278.689	13.718	8.754e-05	0.00032255	8.5849e-05	1016.9	2.3377e-06	3.118e-06	1102.2	208.78	1.7615e-06	1.5927e-06	265.96	72.771	58.202	17.027	3.0513e-06	23.545	0.00033438	0.00044528	0.00011855	1076.1	4.6593e-06	4.564e-06	1173	223.66	4.5713e-06	4.5613e-06	285.78	79.824	62.968	18.572	4.4993e-06	25.81	158.568	75.326	70.582	-24.390	142.480	111.914	-23.766	-16.689	145.665	113.897	-17.010	-9.833	-10.120	-3.017	123.624	-3.251	-8191	255	
13122.747	1	1	0	0	0.45873	0.13026	0.13671	0.26106	0.11548	0.11639	0.23968	0.22643	0.10006	0.096726	0.14578	0.18394	0.14832	0.13283	0.10497	0.26562	-2.4229	-2.6354	-2.3896	-2.9417	-2.3771	-2.6729	-2.9958	-2.3438	-2.8042	-2.6437	-2.4479	-2.7521	-2.4771	-2.3625	-2.9188	-2.2104	26.355	239.316	21.085	271.363	27.087	20.372	250.461	-25.724	44.311	241.373	-28.802	109.405	-12.687	5.493	101.326	307.884	8.224e-05	0.00027867	0.00011325	1010.5	1.412e-06	2.495e-06	1101	208.43	1.8104e-06	3.0559e-06	265.64	72.774	58.438	16.824	1.748e-06	23.583	0.00033238	0.00042157	0.00011652	1074.3	4.6774e-06	4.4997e-06	1173.7	223.34	4.552e-06	4.616e-06	285.74	79.973	63.092	18.543	4.5762e-06	25.866	151.559	45.619	74.248	-24.213	144.589	116.881	-23.972	-16.924	151.005	139.118	-17.014	-10.002	-9.524	-3.080	119.001	-3.515	-8191	255	
13122.843	1	1	0	0	0.07957	0.16177	0.19581	0.17026	0.16948	0.31069	0.055851	0.25262	0.1385	0.096767	0.12058	0.074292	0.19914	0.17127	0.12035	0.29136	-2.2687	-2.7542	-2.3563	-3.0062	-2.5125	-2.4146	-3.0187	-2.4208	-2.7646	-2.7104	-2.2792	-3.0563	-2.5708	-2.4292	-2.8563	-2.3937	259.191	175.522	-0.206	-28.204	92.321	198.570	123.997	252.988	284.880	322.179	163.563	158.278	312.588	201.531	301.828	314.738	8.1485e-05	0.00028284	0.00010474	1013.5	4.1944e-06	3.6934e-06	1105.4	208.51	9.5326e-07	2.1631e-06	265.51	72.532	58.11	17.015	7.2998e-07	23.464	0.00033996	0.00042613	0.00011705	1075.1	4.5965e-06	4.6901e-06	1175.6	223.69	4.6926e-06	4.5305e-06	285.08	79.967	63.288	18.592	4.5446e-06	25.838	175.136	71.964	42.602	-24.406	111.994	124.111	-23.797	-16.494	77.493	107.004	-17.172	-10.329	-10.381	-3.037	298.785	-3.170	-8191	255	
13122.963	1	1	0	0	0.089504	0.10176	0.45861	0.34713	0.038071	0.067003	0.18816	0.18033	0.19982	0.22338	0.15201	0.26846	0.028625	0.34215	0.14143	0.21298	-2.3083	-2.775	-2.1	-3.0687	-2.6479	-2.5896	-3.0875	-2.4188	-2.4104	-2.8354	-2.5521	-2.7375	-2.4958	-2.3812	-2.8771	-2.4583	145.691	61.577	84.573	259.429	189.541	89.468	241.714	233.180	32.316	19.257	175.311	112.842	128.668	95.975	271.306	252.717	8.7584e-05	0.00021206	6.6059e-05	1014.7	1.6686e-06	3.5333e-06	1100.9	208.49	2.0161e-06	1.6925e-06	265.72	73.089	58.04	17.058	1.0808e-06	23.801	0.0003468	0.0004277	0.00012317	1075.5	4.6662e-06	4.772e-06	1173.6	223.46	4.7682e-06	4.6987e-06	285.53	79.991	63.206	18.618	4.5415e-06	25.895	166.101	86.649	60.738	-24.641	141.221	98.015	-23.907	-16.954	143.081	73.364	-17.263	-10.306	-10.042	-3.106	102.501	-3.364	-8191	255	
13123.060	1	1	0	0	0.10653	0.033059	0.21288	0.087483	0.34904	0.22378	0.24898	0.1104	0.1817	0.1622	0.10677	0.16348	0.19986	0.12795	0.18272	0.14605	-2.2958	-2.8917	-2.2104	-2.7646	-2.5625	-2.3583	-3.025	-2.5729	-2.4042	-2.9604	-2.3667	-2.6729	-2.8521	-2.3583	-2.9958	-2.5375	270.315	146.665	300.919	283.528	194.961	178.201	10.534	216.027	244.290	56.857	295.985	40.284	214.552	306.779	290.998	271.409	9.3869e-05	0.00019677	2.7942e-05	1014.5	1.1272e-06	1.9909e-06	1104	207.33	2.3446e-06	2.0526e-07	266.33	73.145	58.139	17.015	3.5539e-06	23.495	0.0003514	0.00041783	0.0001226	1075.1	4.7524e-06	4.7605e-06	1174.2	223.64	4.6954e-06	4.6388e-06	285.74	80.082	63.182	18.535	4.6797e-06	25.841	151.991	54.000	33.512	-24.379	44.378	173.938	-23.764	-16.867	165.275	71.778	-17.022	-10.394	-9.687	-3.297	144.734	-3.448	-8191	255	
13123.156	1	1	0	0	0.23927	0.090699	0.25308	0.34404	0.10003	0.12607	0.094604	0.29073	0.18796	0.080086	0.14917	0.069279	0.22903	0.22297	0.098671	0.36946	-1.875	-2.7562	-2.3854	-2.7792	-2.8	-2.2458	-2.9583	-2.525	-2.2417	-2.8083	-2.3688	-2.6333	-2.7479	-2.3583	-2.9146	-2.5167	13.163	141.494	-16.163	1.387	60.017	164.574	293.876	265.152	153.820	131.459	64.825	31.651	296.306	36.685	297.520	303.322	9.0198e-05	0.00033294	1.4482e-05	1019.3	3.691e-06	2.0209e-06	1101.9	207.58	2.2133e-06	2.6508e-06	264.43	72.687	57.704	17.084	2.1789e-06	23.448	0.00035694	0.00044053	0.00012385	1077.3	4.8849e-06	4.8265e-06	1176.3	223.85	4.7103e-06	4.6943e-06	285.06	80.048	63.131	18.625	4.6671e-06	25.836	160.354	45.841	183.814	-24.601	137.153	142.387	-23.838	-16.838	132.852	78.691	-17.075	-9.961	-9.722	-3.419	111.578	-3.448	-8191	255	
13123.227	1	1	0	0	0.12938	0.027436	0.308	0.14853	0.10303	0.1841	0.23094	0.23404	0.29699	0.17359	0.15648	0.34296	0.064224	0.28173	0.048895	0.032162	-1.9542	-2.8292	-2.1875	-2.6708	-2.675	-2.2687	-3.0021	-2.6562	-2.2646	-2.8604	-2.6021	-2.5729	-2.8958	-2.2708	-2.8604	-2.5792	159.555	187.187	281.887	293.539	131.071	271.199	267.670	148.588	102.246	308.578	-31.530	303.613	281.476	138.270	203.953	225.912	0.00010145	0.00035292	5.2498e-05	1011.3	8.8559e-07	1.7549e-06	1105.9	208.57	2.2784e-06	3.5717e-06	266.7	73.08	58.231	16.912	2.8561e-06	23.64	0.00034597	0.00042622	0.00012512	1074.8	4.6786e-06	5.0359e-06	1174.9	223.97	4.8907e-06	4.7997e-06	285.37	80.175	63.392	18.594	4.9003e-06	25.894	174.947	33.114	115.059	-24.420	82.941	80.153	-23.715	-16.481	135.478	121.416	-16.932	-9.964	-9.819	-3.035	133.759	-3.411	-8191	255	
#DATA ENDS
