BOXY.EXE: ISS Imagent and Oximeter Data Acquisition Program Version 0.80
Ascii Record File

#ACQ INFORMATION
2  Detector Channels 
16  External MUX Channels 
1  Auxiliary Channels 
5000  Waveform (CCF) Frequency (Hz)
1  Waveforms Skipped 
30  Waveforms Averaged 
1  Cycles Averaged 
16  Acquisitions per Waveform 
10.0806  Updata Rate (Hz) 

#FILE INFORMATION
TRUE -- External MUX Channel results are PARSED.
FALSE -- AC DC and Phase are NOT grouped.
TRUE -- Companion Program Settings File CREATED.
FALSE -- AC data not excluded
FALSE -- DC data not excluded
FALSE -- Phase data not excluded
FALSE -- Auxillary Chn. data not excluded
Tab delimiters

#CALIBRATION STATE
TRUE -- Waveform Calibration Values APPLIED.


#AUX CALIBRATION VALUES
Val Type	aux-1	

Term	1.0000e+00	
Factor	0.0000e+00	


#WF CALIBRATION VALUES
A = Detector Channel
Val Type	A-AC1	A-AC2	A-AC3	A-AC4	A-AC5	A-AC6	A-AC7	A-AC8	A-AC9	A-AC10	A-AC11	A-AC12	A-AC13	A-AC14	A-AC15	A-AC16	A-DC1	A-DC2	A-DC3	A-DC4	A-DC5	A-DC6	A-DC7	A-DC8	A-DC9	A-DC10	A-DC11	A-DC12	A-DC13	A-DC14	A-DC15	A-DC16	A-Ph1	A-Ph2	A-Ph3	A-Ph4	A-Ph5	A-Ph6	A-Ph7	A-Ph8	A-Ph9	A-Ph10	A-Ph11	A-Ph12	A-Ph13	A-Ph14	A-Ph15	A-Ph16	

Term	0.00000e+00	0.00000e+00	0.00000e+00	0.00000e+00	0.00000e+00	0.00000e+00	0.00000e+00	0.00000e+00	0.00000e+00	0.00000e+00	0.00000e+00	0.00000e+00	0.00000e+00	0.00000e+00	0.00000e+00	0.00000e+00	0.00000e+00	0.00000e+00	0.00000e+00	0.00000e+00	0.00000e+00	0.00000e+00	0.00000e+00	0.00000e+00	0.00000e+00	0.00000e+00	0.00000e+00	0.00000e+00	0.00000e+00	0.00000e+00	0.00000e+00	0.00000e+00	0.00000e+00	0.00000e+00	0.00000e+00	0.00000e+00	0.00000e+00	0.00000e+00	0.00000e+00	0.00000e+00	0.00000e+00	0.00000e+00	0.00000e+00	0.00000e+00	0.00000e+00	0.00000e+00	0.00000e+00	0.00000e+00	
Factor	1.00000e+00	1.00000e+00	1.00000e+00	1.00000e+00	1.00000e+00	1.00000e+00	1.00000e+00	1.00000e+00	1.00000e+00	1.00000e+00	1.00000e+00	1.00000e+00	1.00000e+00	1.00000e+00	1.00000e+00	1.00000e+00	1.00000e+00	1.00000e+00	1.00000e+00	1.00000e+00	1.00000e+00	1.00000e+00	1.00000e+00	1.00000e+00	1.00000e+00	1.00000e+00	1.00000e+00	1.00000e+00	1.00000e+00	1.00000e+00	1.00000e+00	1.00000e+00	X	X	X	X	X	X	X	X	X	X	X	X	X	X	X	X	

B = Detector Channel
Val Type	B-AC1	B-AC2	B-AC3	B-AC4	B-AC5	B-AC6	B-AC7	B-AC8	B-AC9	B-AC10	B-AC11	B-AC12	B-AC13	B-AC14	B-AC15	B-AC16	B-DC1	B-DC2	B-DC3	B-DC4	B-DC5	B-DC6	B-DC7	B-DC8	B-DC9	B-DC10	B-DC11	B-DC12	B-DC13	B-DC14	B-DC15	B-DC16	B-Ph1	B-Ph2	B-Ph3	B-Ph4	B-Ph5	B-Ph6	B-Ph7	B-Ph8	B-Ph9	B-Ph10	B-Ph11	B-Ph12	B-Ph13	B-Ph14	B-Ph15	B-Ph16	

Term	0.00000e+00	0.00000e+00	0.00000e+00	0.00000e+00	0.00000e+00	0.00000e+00	0.00000e+00	0.00000e+00	0.00000e+00	0.00000e+00	0.00000e+00	0.00000e+00	0.00000e+00	0.00000e+00	0.00000e+00	0.00000e+00	0.00000e+00	0.00000e+00	0.00000e+00	0.00000e+00	0.00000e+00	0.00000e+00	0.00000e+00	0.00000e+00	0.00000e+00	0.00000e+00	0.00000e+00	0.00000e+00	0.00000e+00	0.00000e+00	0.00000e+00	0.00000e+00	-2.51673e+01	-1.09131e+02	-1.36792e+02	-1.83698e+02	-1.38176e+01	-7.28325e+01	-1.57869e+02	-1.62015e+02	-6.96302e+01	-9.69870e+01	-1.72092e+02	-1.75791e+02	-1.89181e+02	-1.78194e+02	-7.65473e+01	-1.51485e+02	
Factor	2.82887e-05	9.62443e-05	2.62348e-05	1.61568e-01	9.06967e-07	1.03337e-06	1.67683e-01	6.49704e-02	1.10886e-06	1.02177e-06	1.02924e-01	3.36800e-02	8.03786e-02	9.68118e-03	9.66469e-07	1.40111e-02	7.08911e-07	7.21329e-07	2.01149e-07	7.90580e-02	7.90081e-09	7.90084e-09	7.70976e-02	3.12878e-02	7.89045e-09	7.89930e-09	4.70277e-02	1.53915e-02	3.30660e-02	4.62330e-03	7.91615e-09	6.40668e-03	X	X	X	X	X	X	X	X	X	X	X	X	X	X	X	X	



#DISTANCE SETTINGS
A = Detector Channel
A-1	A-2	A-3	A-4	A-5	A-6	A-7	A-8	A-9	A-10	A-11	A-12	A-13	A-14	A-15	A-16	

2.5000e+00	3.0000e+00	2.5000e+00	3.0000e+00	2.0000e+00	3.0000e+00	1.5000e+00	3.0000e+00	3.0000e+00	3.0000e+00	3.0000e+00	3.0000e+00	3.0000e+00	3.0000e+00	1.5000e+00	3.0000e+00	

B = Detector Channel
B-1	B-2	B-3	B-4	B-5	B-6	B-7	B-8	B-9	B-10	B-11	B-12	B-13	B-14	B-15	B-16	

1.0000e+01	1.0000e+01	1.0000e+01	1.4400e+00	1.0000e+01	1.0000e+01	1.5100e+00	1.9400e+00	1.0000e+01	1.0000e+01	1.9900e+00	2.4900e+00	2.4100e+00	2.9000e+00	1.0000e+01	2.9800e+00	




#DATA BEGINS
time	group	step	mark	flag	A-AC1	A-AC2	A-AC3	A-AC4	A-AC5	A-AC6	A-AC7	A-AC8	A-AC9	A-AC10	A-AC11	A-AC12	A-AC13	A-AC14	A-AC15	A-AC16	A-DC1	A-DC2	A-DC3	A-DC4	A-DC5	A-DC6	A-DC7	A-DC8	A-DC9	A-DC10	A-DC11	A-DC12	A-DC13	A-DC14	A-DC15	A-DC16	A-Ph1	A-Ph2	A-Ph3	A-Ph4	A-Ph5	A-Ph6	A-Ph7	A-Ph8	A-Ph9	A-Ph10	A-Ph11	A-Ph12	A-Ph13	A-Ph14	A-Ph15	A-Ph16	B-AC1	B-AC2	B-AC3	B-AC4	B-AC5	B-AC6	B-AC7	B-AC8	B-AC9	B-AC10	B-AC11	B-AC12	B-AC13	B-AC14	B-AC15	B-AC16	B-DC1	B-DC2	B-DC3	B-DC4	B-DC5	B-DC6	B-DC7	B-DC8	B-DC9	B-DC10	B-DC11	B-DC12	B-DC13	B-DC14	B-DC15	B-DC16	B-Ph1	B-Ph2	B-Ph3	B-Ph4	B-Ph5	B-Ph6	B-Ph7	B-Ph8	B-Ph9	B-Ph10	B-Ph11	B-Ph12	B-Ph13	B-Ph14	B-Ph15	B-Ph16	aux-1	digaux	

2896.584	1	1	0	768	0.20028	0.29886	0.20455	0.23273	0.22821	0.14668	0.28035	0.13607	0.14606	0.15993	0.052087	0.23199	0.1301	0.17001	0.12017	0.1275	-1.9917	-1.9708	-2.7875	-2.2104	-2.0479	-2.5604	-2.1167	-2.4521	-2.3375	-2.3375	-2.8521	-2.3375	-2.1146	-2.8333	-2.0625	-2.55	216.573	217.858	-26.780	223.762	-72.412	158.317	155.857	172.138	-4.501	-36.275	92.571	180.632	-117.263	71.550	-63.567	-127.734	0.00021152	0.0020778	0.00017738	905.48	7.3678e-06	1.0719e-05	1109.3	269.12	1.6939e-05	8.6862e-06	438.08	174.99	98.055	42.445	9.4068e-06	88.1	0.002957	0.0028438	0.00095386	1180.9	3.1343e-05	3.171e-05	1386.4	380.19	3.1889e-05	3.1659e-05	611.23	221.96	203.1	56.562	3.7168e-05	103.99	-43.479	198.882	143.040	-115.413	139.374	229.476	-115.657	-110.647	37.736	196.100	-110.901	-106.278	-106.578	-101.308	190.244	-102.554	-8191	255	
2896.678	1	1	0	0	0.17951	0.17414	0.1573	0.090657	0.19818	0.1083	0.10066	0.10115	0.19525	0.30694	0.21665	0.27134	0.217	0.17998	0.096212	0.31516	-2.2	-2.0438	-2.7438	-2.4521	-2.175	-2.6979	-2.1625	-2.5708	-2.65	-1.9125	-2.875	-2.3479	-2.2604	-2.7729	-2.1375	-2.5667	22.202	181.171	159.282	-106.909	229.429	143.884	-107.890	125.355	-2.782	-106.700	218.876	193.434	146.674	-106.458	-122.843	181.115	0.0012632	0.0019278	0.0002509	900.8	1.1507e-05	2.1062e-05	1111.6	269.03	8.5953e-06	2.5951e-05	440.34	175.16	95.902	42.183	2.0898e-05	87.889	0.0027189	0.0028512	0.00092665	1142.1	2.9214e-05	3.2189e-05	1377	364.96	2.9882e-05	3.2937e-05	602.99	217.69	199.57	57.78	3.6989e-05	102.98	-47.816	185.505	-99.695	-115.272	63.344	-110.518	-115.205	-110.440	37.547	205.073	-110.749	-106.424	-105.919	-101.286	20.523	-102.472	-8191	255	
2896.774	1	1	0	0	0.13483	0.19058	0.097196	0.16231	0.16752	0.25144	0.097576	0.20182	0.090471	0.32117	0.16584	0.20003	0.254	0.23939	0.27938	0.24497	-2.2396	-2.0708	-2.6292	-2.4146	-2.0312	-2.9458	-2.3833	-2.5396	-2.3771	-2.1292	-2.7479	-2.3917	-2.1229	-2.9562	-2.2271	-2.3604	83.562	22.364	208.002	193.582	224.932	-17.994	188.006	187.985	81.152	-12.706	-117.428	-115.992	149.819	-39.128	-123.714	5.092	0.00053704	0.0029355	0.00083098	902.3	1.0301e-05	2.4436e-05	1117.5	265.11	1.2916e-05	1.4832e-05	435.09	172.32	94.877	41.535	3.73e-05	86.591	0.0027659	0.0032188	0.00094248	1146.1	3.06e-05	3.6951e-05	1387.7	369.17	3.2319e-05	3.8262e-05	605.35	218.31	208.79	60.063	3.7608e-05	103.18	-45.882	148.560	-11.995	-115.300	-49.729	-108.963	-115.304	-110.415	204.451	215.960	-110.601	-106.816	-106.249	-101.306	-15.196	-102.375	-8191	255	
2896.870	1	1	0	0	0.30794	0.01087	0.21713	0.38818	0.061984	0.15441	0.089105	0.34937	0.099414	0.10422	0.17568	0.2037	0.10401	0.16692	0.2998	0.26888	-2.1375	-2.0083	-2.4979	-2.5521	-2.1292	-2.7417	-2.3333	-2.2938	-2.8208	-2.2	-2.6729	-2.7229	-2.0833	-2.6937	-2.2917	-2.35	152.921	76.769	95.423	228.901	114.063	0.359	140.770	155.183	129.139	35.500	-82.309	217.623	-7.834	-18.830	188.012	212.866	0.0010846	0.00069385	0.00097384	899.98	1.7455e-05	2.0022e-05	1115.1	266.36	2.7783e-05	5.4076e-06	435.73	172.44	95.304	41.893	1.8481e-05	86.57	0.0030145	0.0036574	0.00094245	1157.6	3.4023e-05	4.1246e-05	1384.6	372.9	3.593e-05	4.2732e-05	611.52	224.67	235.14	63.796	4.0021e-05	106.4	-80.600	148.565	-20.464	-115.504	-75.530	-112.696	-115.322	-110.489	196.196	33.872	-110.718	-106.355	-105.376	-100.923	38.612	-102.300	-8191	255	
2896.966	1	1	0	0	0.1104	0.30927	0.19828	0.11479	0.1962	0.12983	0.081587	0.26361	0.059956	0.13355	0.18715	0.12832	0.14273	0.046024	0.22129	0.29838	-2.3438	-2.0271	-2.3229	-2.825	-1.9583	-2.7479	-2.5542	-2.2833	-2.7875	-2.3604	-2.5417	-2.7438	-1.9937	-2.8104	-2.4854	-2.3833	95.862	95.601	-62.810	159.003	105.883	123.287	129.281	146.535	-40.509	42.568	-5.788	132.365	187.080	215.202	63.019	184.183	0.0017516	0.0030737	0.00065072	894.54	3.4969e-05	1.2552e-06	1110.8	267.16	4.2079e-05	2.8848e-05	438	176.44	96.689	43.022	4.9217e-06	88.609	0.0036918	0.0042506	0.001027	1200.7	4.2386e-05	4.676e-05	1416.5	389.11	4.3517e-05	4.6524e-05	626.6	232.75	265.68	65.453	4.1926e-05	110.01	-73.892	3.526	-40.961	-115.727	-53.232	183.215	-115.315	-110.666	216.581	7.229	-110.599	-106.596	-107.743	-100.924	-7.970	-102.443	-8191	255	
2897.063	1	1	0	0	0.30666	0.10392	0.141	0.098762	0.30212	0.072856	0.057532	0.085853	0.076119	0.067605	0.036108	0.10753	0.04693	0.12025	0.3024	0.14792	-2.5271	-2.1667	-2.3458	-2.8354	-2.0167	-2.7583	-2.9167	-2.2604	-2.7833	-2.2188	-2.4104	-2.7479	-2.075	-2.6167	-2.5333	-2.1604	-59.007	156.085	10.529	97.295	-104.324	-48.003	-17.259	-94.527	204.778	162.315	-10.625	178.096	112.469	-122.451	-25.543	77.054	0.0015167	0.0036323	0.00035059	894.9	2.5591e-05	2.269e-05	1120.2	267.81	3.0861e-05	3.5938e-05	442.15	175.75	99.034	42.889	9.2559e-06	88.334	0.0043005	0.0044362	0.0010832	1240.4	5.011e-05	4.873e-05	1451.1	407.92	5.0791e-05	4.821e-05	641.82	240.78	290.95	65.404	4.2922e-05	113.16	-83.627	-18.680	-39.532	-115.582	201.307	44.200	-115.272	-110.548	-116.909	9.289	-110.318	-106.449	-106.626	-100.849	65.433	-102.800	-8191	255	
2897.183	1	1	0	0	0.22592	0.17005	0.20508	0.22612	0.20058	0.067359	0.23365	0.14532	0.14929	0.26688	0.1808	0.08817	0.10214	0.13018	0.13101	0.30741	-2.4604	-2.3167	-2.1958	-2.8542	-2.1396	-2.5896	-2.8125	-2.1437	-2.7542	-2.4542	-2.1854	-3.0104	-2.2583	-2.5417	-2.6521	-2.1917	42.315	102.448	112.285	157.290	132.117	-100.950	180.152	96.565	43.126	48.734	187.431	168.386	110.299	-106.753	118.469	192.890	0.00073476	0.0035214	0.00031107	895.15	1.1364e-05	2.9363e-05	1127.3	265.86	3.0386e-05	3.4438e-05	441.11	174.45	96.748	42.332	2.0311e-05	88.317	0.0046217	0.0042827	0.0010665	1274.2	5.3101e-05	4.7205e-05	1467.4	427.19	5.4315e-05	4.8183e-05	649.22	251.61	304	64.95	4.5143e-05	119.19	-47.948	-4.230	11.927	-115.260	-4.079	-12.147	-115.281	-110.903	-34.888	-27.149	-110.847	-106.979	-106.955	-101.348	76.003	-102.785	-8191	255	
2897.279	1	1	0	0	0.25284	0.17153	0.22874	0.14386	0.067069	0.31503	0.21427	0.27794	0.10703	0.16867	0.22919	0.18254	0.091701	0.068618	0.22343	0.15538	-2.4042	-2.2375	-2.0208	-3.0104	-2.1771	-2.3271	-2.8292	-2.0458	-2.6958	-2.4354	-2.3208	-2.9604	-2.2896	-2.3708	-2.7521	-2.2542	75.953	-34.322	47.561	-124.451	85.514	173.881	191.834	146.043	-65.712	-77.914	199.357	-71.634	194.754	137.724	19.451	172.402	0.00082728	0.001405	0.00040721	902.95	3.6177e-05	3.0263e-05	1122.5	265.95	3.8273e-05	3.4189e-05	434.35	174.28	99.958	41.463	5.1282e-06	88.096	0.0049108	0.0043646	0.0011247	1347.4	5.4854e-05	4.7609e-05	1482.8	454.53	5.5392e-05	4.9599e-05	663.28	265.17	308.66	65.257	4.7574e-05	123.67	-61.519	-43.565	24.294	-115.725	97.013	42.950	-115.632	-110.477	67.668	42.713	-110.881	-106.986	-105.788	-101.444	161.382	-102.798	-8191	255	
2897.375	1	1	0	0	0.22221	0.048213	0.18187	0.13285	0.22311	0.087685	0.18554	0.27865	0.3245	0.2636	0.1692	0.025707	0.22489	0.19402	0.37722	0.20208	-2.125	-2.5208	-1.9958	-2.8604	-2.2667	-2.375	-2.9021	-2.1667	-2.4771	-2.5792	-2.0625	-2.7938	-2.3542	-2.3958	-2.7417	-2.1792	183.633	117.560	105.670	210.635	68.429	-122.801	-112.775	-5.374	55.527	-76.060	-64.458	203.425	43.694	198.965	210.627	-125.540	0.00098808	0.00056212	0.00077992	901.81	3.8974e-05	2.8201e-05	1137.4	270.93	1.8664e-05	2.0139e-05	444.55	178.05	100.98	43.085	3.4515e-05	90.125	0.0047874	0.0043841	0.0011733	1394	5.2277e-05	4.6349e-05	1502.3	468.31	5.1173e-05	4.7303e-05	675.51	267.75	285.41	64.261	4.7425e-05	124.14	11.384	-125.699	173.669	-115.808	84.335	-52.406	-115.604	-110.440	52.105	27.966	-110.982	-106.410	-105.994	-101.543	229.967	-102.319	-8191	255	
2897.472	1	1	0	0	0.26111	0.080609	0.052477	0.074925	0.13898	0.34728	0.066739	0.15137	0.18738	0.072734	0.1162	0.33807	0.27168	0.18559	0.12904	0.42182	-2.0208	-2.525	-1.9458	-3.1458	-2.2521	-2.3125	-2.9083	-2.1146	-2.3458	-2.5979	-2.1896	-2.7792	-2.3937	-2.2083	-2.8563	-2.2188	199.095	190.291	217.537	-20.799	18.726	167.379	47.176	-106.214	182.812	25.212	207.961	171.163	217.000	126.375	142.703	128.797	0.00012423	0.0019087	0.00097128	915.14	6.8347e-06	2.0381e-05	1126.2	275.24	1.2664e-05	5.9671e-06	449.7	181.48	103.27	43.452	3.5355e-05	91.347	0.0043	0.0040808	0.001207	1380	4.7959e-05	4.3726e-05	1517.8	460.64	4.6083e-05	4.3964e-05	687.91	263.41	271.9	63.693	5.0115e-05	122.64	-57.951	35.869	131.410	-115.716	41.363	94.315	-115.787	-110.046	104.520	77.593	-111.223	-106.750	-105.888	-101.214	200.995	-102.079	-8191	255	
2897.568	1	1	0	0	0.20348	0.10219	0.24799	0.20048	0.46389	0.10719	0.17536	0.12512	0.30898	0.12521	0.23241	0.080287	0.18822	0.31675	0.054524	0.060537	-1.9521	-2.5938	-1.8937	-2.9333	-2.6063	-2.0875	-2.8167	-2.2	-2.4167	-2.5146	-2.2979	-2.5938	-2.4771	-2.1833	-2.8708	-2.3875	140.539	168.038	16.289	154.547	-2.996	64.056	107.236	176.308	-9.798	189.623	213.017	100.987	192.591	184.124	111.546	72.626	0.00065736	0.00018266	0.00057407	916.75	3.1637e-05	1.056e-05	1137.6	278.96	1.9017e-05	2.3808e-05	452.11	183.14	101.27	43.655	2.1385e-05	91.458	0.0039823	0.0039118	0.0012682	1344.4	4.4871e-05	4.22e-05	1542.7	447.13	4.3451e-05	4.3326e-05	707.26	257.71	264.04	64.236	5.1964e-05	120.07	7.707	-27.554	112.098	-115.236	113.779	-74.545	-115.415	-110.273	-20.157	191.223	-110.775	-106.674	-105.971	-101.693	214.701	-102.192	-8191	255	
2897.664	1	1	0	0	0.15655	0.067133	0.094235	0.15193	0.063351	0.073645	0.22154	0.075547	0.16828	0.1445	0.20302	0.19689	0.31718	0.18091	0.16611	0.092511	-1.6896	-2.6562	-2.0687	-2.7396	-2.3521	-2.2354	-3.05	-2.3875	-2.1896	-2.7188	-2.1	-2.6562	-2.6813	-2.0729	-2.5583	-2.5	212.373	-126.894	227.112	20.508	19.391	29.012	42.402	203.504	134.802	-89.868	166.083	-118.349	51.687	-82.251	90.850	-77.551	0.0003627	0.0015576	0.00069598	920.1	2.2303e-05	3.8814e-05	1133.4	275.98	1.0247e-05	2.2894e-05	450.78	179.88	99.65	42.782	3.0063e-05	89.468	0.0038822	0.0040797	0.0013524	1321.1	4.4905e-05	4.5743e-05	1573.1	440.39	4.3814e-05	4.7206e-05	719.89	251.11	262.63	66.267	5.4005e-05	117.34	-31.953	-101.581	126.245	-115.545	120.127	231.342	-115.345	-110.160	103.749	180.750	-111.078	-106.500	-105.768	-101.479	-22.142	-102.308	-8191	255	
2897.783	1	1	0	0	0.09781	0.09451	0.14455	0.070846	0.29232	0.0981	0.19948	0.31795	0.0074742	0.18875	0.30557	0.31742	0.1744	0.26431	0.19319	0.26783	-1.7021	-2.7938	-2.1625	-2.5062	-2.7021	-2.0208	-2.8083	-2.5167	-2.1833	-2.9417	-2.1979	-2.625	-2.5667	-2.1958	-2.5812	-2.6604	-4.287	53.249	68.037	36.984	137.987	-52.198	205.434	-108.901	-106.051	14.853	152.623	97.643	188.099	-109.530	-22.215	103.946	0.00058417	0.0024245	0.00024568	907	7.0508e-06	2.7186e-05	1125.8	272.4	4.5143e-06	4.6855e-05	447.1	177.42	97.007	42.611	3.8808e-05	89.235	0.0038861	0.0044453	0.0013595	1290.3	4.397e-05	4.9651e-05	1552	428.22	4.2899e-05	5.0255e-05	701.53	244.63	257.4	67.851	5.0445e-05	115.27	-88.452	179.346	-67.689	-115.493	-83.712	201.691	-115.462	-110.537	-22.897	179.765	-110.897	-106.913	-107.834	-101.066	59.898	-102.439	-8191	255	
2897.879	1	1	0	0	0.29021	0.14412	0.081638	0.26266	0.16264	0.15172	0.085603	0.15728	0.1199	0.1753	0.31141	0.18988	0.046044	0.21712	0.10136	0.18001	-1.6229	-2.7562	-2.1875	-2.325	-2.7313	-2.0125	-2.6479	-2.6854	-2.2021	-2.7562	-2.3979	-2.3708	-2.6542	-2.1292	-2.4917	-2.7833	50.732	181.111	155.500	-99.181	91.720	175.333	182.092	229.326	189.435	220.197	154.484	198.108	-70.088	217.956	115.076	206.425	0.0011755	0.0007424	0.00085727	903.35	1.5572e-05	1.9848e-05	1117.2	270.8	3.2823e-05	1.9352e-05	448.47	178.14	98.216	42.927	1.5104e-05	89.084	0.003809	0.0046652	0.0012767	1263.6	4.353e-05	5.1781e-05	1501.5	415.62	4.204e-05	5.0854e-05	669.74	238.21	254.25	67.446	4.4364e-05	111.65	-79.324	159.812	-16.702	-115.505	-28.457	211.955	-115.393	-110.028	-117.152	172.124	-110.905	-106.639	-106.373	-101.274	23.830	-102.683	-8191	255	
2897.975	1	1	0	0	0.20422	0.076127	0.11452	0.20017	0.114	0.020237	0.10248	0.32337	0.076872	0.25075	0.26895	0.058562	0.28996	0.23274	0.16136	0.24499	-1.7062	-2.7208	-2.2208	-2.1271	-2.6833	-2.2625	-2.5438	-2.6292	-1.925	-2.9333	-2.4813	-2.35	-2.7917	-2.1833	-2.5667	-2.85	141.429	11.144	-98.675	228.008	196.598	228.348	217.663	192.334	4.907	-96.465	-30.632	-43.303	100.526	134.826	207.078	222.060	0.0016887	0.0011101	0.0010976	898.67	1.0075e-05	2.4626e-05	1116.8	270.64	3.4147e-05	3.1793e-05	446.56	178.5	96.483	43.514	3.1796e-05	89.994	0.0037099	0.004423	0.0011034	1211.4	4.2257e-05	4.8459e-05	1434.5	400.5	4.2463e-05	4.7893e-05	640.7	232.94	258.8	66.371	4.0285e-05	110.48	-77.801	126.854	-29.369	-115.926	-95.141	131.972	-115.319	-110.865	225.766	-16.016	-110.613	-106.735	-107.028	-101.298	29.553	-102.300	-8191	255	
2898.071	1	1	0	0	0.09109	0.076209	0.092772	0.068864	0.092512	0.083099	0.1242	0.23353	0.37505	0.053886	0.23719	0.32311	0.15387	0.097595	0.070233	0.30326	-1.6562	-2.6146	-2.2938	-2.0875	-2.8229	-2.0125	-2.3896	-2.8583	-1.975	-2.6813	-2.5896	-2.1708	-2.7104	-2.2604	-2.4458	-2.8979	133.960	162.721	95.170	-97.752	171.895	98.983	200.551	206.220	125.640	12.388	229.135	224.055	138.152	59.131	37.781	-109.845	0.0019259	0.002633	0.00024351	901.86	2.4201e-05	3.3975e-05	1120.4	271.35	3.5685e-05	2.5711e-05	444.49	177.43	97.278	43.461	1.5826e-05	89.566	0.0038643	0.0041632	0.0010202	1193.5	4.3676e-05	4.4869e-05	1403.1	392.96	4.4022e-05	4.4017e-05	625.63	230.87	265.66	64.198	3.835e-05	110.49	-74.814	42.137	-47.646	-115.895	-90.768	48.400	-115.480	-110.287	215.299	48.512	-110.628	-106.819	-106.615	-100.949	-22.518	-102.554	-8191	255	
2898.143	1	1	0	0	0.048484	0.11533	0.0603	0.18548	0.17599	0.26583	0.1138	0.10209	0.14656	0.099214	0.12026	0.19162	0.19056	0.24626	0.18619	0.18442	-1.5083	-2.6042	-2.5062	-2.1688	-2.825	-2.2333	-2.3625	-2.8667	-1.8813	-2.6583	-2.7292	-2.0167	-2.8771	-2.2687	-2.3229	-3.0396	-9.122	-71.115	-23.959	167.165	128.042	37.138	-86.969	-44.157	-48.600	-79.408	2.407	211.937	203.596	-54.981	190.066	101.463	0.00099584	0.0029161	0.00027692	897.67	1.8748e-05	2.0427e-05	1118.8	268.47	2.6725e-05	1.5165e-05	441.32	174.97	99.818	43.021	8.1816e-06	88.784	0.0040847	0.0038875	0.00098673	1203.4	4.5534e-05	4.1862e-05	1387.8	395.07	4.5378e-05	4.0515e-05	612.15	231.77	266.09	61.73	3.6787e-05	111.36	-77.417	-40.264	63.425	-115.637	-124.186	38.349	-115.261	-110.701	-121.684	23.746	-110.698	-106.801	-106.220	-101.227	-17.605	-102.687	-8191	255	
2898.264	1	1	0	0	0.096607	0.070843	0.12642	0.21255	0.18375	0.076775	0.17214	0.23951	0.11029	0.28927	0.28523	0.073547	0.055428	0.13746	0.15528	0.14895	-1.7229	-2.4042	-2.7229	-2.1542	-2.7729	-2.3042	-2.2479	-3.0521	-2.0396	-2.525	-2.8312	-2.1042	-2.6854	-2.5563	-2.2396	-2.9125	-2.971	209.061	163.757	166.979	192.303	-50.130	-118.997	198.413	191.417	196.862	141.039	214.385	169.028	-98.043	82.995	168.463	0.00078399	0.0019014	0.00074191	901.28	4.1165e-06	1.6493e-05	1115.3	268.46	2.0762e-05	2.6379e-05	440.52	174.9	100.04	42.646	6.7428e-06	88.202	0.0041462	0.0036681	0.00096711	1237.6	4.5877e-05	4.0173e-05	1378.5	408.03	4.5042e-05	3.8799e-05	606.19	237.67	259.53	60.683	3.6219e-05	113.07	-8.942	-7.760	-78.205	-116.018	102.293	66.283	-115.584	-110.755	2.093	16.123	-110.690	-106.757	-105.863	-101.287	31.497	-102.347	-8191	255	
2898.360	1	1	0	0	0.16748	0.27501	0.1099	0.18949	0.033348	0.21686	0.22246	0.16523	0.07596	0.090236	0.27844	0.22269	0.19991	0.096313	0.33924	0.13406	-1.7521	-2.2771	-2.55	-2.1562	-2.6479	-2.425	-2.1292	-2.7729	-2.1729	-2.4354	-2.8458	-2.2146	-2.5375	-2.3792	-1.9479	-2.8708	151.109	-82.413	-36.759	163.148	32.604	-126.119	-117.002	115.805	-56.167	130.678	-46.659	215.616	-75.919	198.832	192.716	-124.527	0.00069865	0.0026971	0.00053096	900.65	2.3607e-05	2.3135e-05	1119	269.7	3.924e-05	1.3688e-05	440.41	176.63	100.28	43.029	2.4983e-05	88.199	0.0039153	0.0034264	0.00092862	1254.3	4.1965e-05	3.7282e-05	1369.1	413.38	4.1226e-05	3.6229e-05	604.4	241.56	245.67	59.802	3.6372e-05	113.98	2.168	27.364	175.848	-116.013	69.246	28.152	-115.335	-110.628	-4.014	-3.983	-110.929	-106.697	-106.803	-101.430	-113.508	-102.627	-8191	255	
2898.456	1	1	0	0	0.30315	0.20618	0.19541	0.33798	0.1344	0.062894	0.25479	0.20992	0.04216	0.17449	0.32625	0.28452	0.10908	0.21486	0.24237	0.26513	-1.5542	-2.2	-2.6229	-2.2583	-2.4458	-2.5896	-2.3042	-2.7146	-2.4542	-2.2271	-2.7	-2.2542	-2.3896	-2.7354	-1.9521	-2.8708	-85.431	-105.886	101.336	189.279	62.557	83.375	166.673	-106.988	145.962	100.386	-112.349	209.935	-113.650	219.474	-58.229	48.872	0.00093092	0.0025634	0.0005009	906.41	2.6462e-05	3.2933e-05	1110	269.8	2.8446e-05	1.1456e-05	435.3	174.05	98.569	42.077	2.3467e-05	87.837	0.0036118	0.0032865	0.00095548	1268.5	3.9456e-05	3.6776e-05	1389.8	418.66	3.9312e-05	3.5691e-05	618.94	241.25	235.14	58.733	3.9325e-05	113.45	-7.188	-23.799	144.770	-115.791	61.911	64.139	-115.626	-110.785	37.675	-48.157	-110.694	-106.713	-105.371	-100.885	210.128	-102.327	-8191	255	
2898.552	1	1	0	0	0.30398	0.25477	0.12129	0.27168	0.11345	0.1958	0.26531	0.16801	0.2661	0.1445	0.1085	0.14406	0.22308	0.058768	0.10183	0.080026	-1.8792	-2.1208	-2.8208	-2.1479	-2.4813	-2.7125	-2.0312	-2.7354	-2.4396	-2.2042	-2.9542	-2.2125	-2.3708	-2.7375	-2.0687	-2.8312	125.079	79.851	-14.349	-124.370	-86.220	169.543	168.684	152.368	72.324	-6.149	42.321	141.691	226.904	-13.249	108.664	219.343	0.00057667	0.0010617	0.001045	898.09	6.6765e-06	1.0256e-05	1115.2	268.77	1.8563e-05	7.5552e-06	437.6	174.42	97.832	41.888	2.1821e-05	87.081	0.0034413	0.0032104	0.0010264	1259.4	3.7501e-05	3.594e-05	1426.6	411.91	3.788e-05	3.5699e-05	639.43	237.97	230.45	58.579	4.2824e-05	111.2	-38.638	51.441	154.201	-115.367	56.679	-125.966	-115.615	-110.169	5.859	191.995	-110.978	-106.372	-106.016	-101.029	-85.490	-102.197	-8191	255	
2898.671	1	1	0	0	0.21697	0.098509	0.018577	0.2636	0.067834	0.27778	0.30243	0.20992	0.14149	0.31357	0.034989	0.33736	0.46452	0.27329	0.23899	0.17802	-2.0292	-2.0979	-2.8875	-2.225	-2.3396	-2.8604	-2.3521	-2.7875	-2.6063	-2.0563	-2.9521	-2.3438	-2.2313	-2.7583	-2.0812	-2.6688	169.361	-118.325	16.054	-112.032	57.155	231.183	122.965	158.560	218.758	5.741	57.615	228.911	-85.543	165.344	-110.664	181.004	0.00063114	0.00045242	0.00053291	903.18	2.209e-05	2.2891e-05	1110.9	266.19	1.5126e-05	1.1962e-05	439.15	172.59	96.796	41.348	2.0443e-05	87.105	0.0033591	0.0032582	0.001097	1234.7	3.6232e-05	3.6196e-05	1443.5	397.87	3.6367e-05	3.6346e-05	646.61	231.26	224.71	59.255	4.4121e-05	108.39	-49.674	221.750	135.632	-115.408	82.232	-112.052	-115.395	-110.321	9.286	213.145	-110.975	-106.343	-106.700	-101.199	-7.865	-102.251	-8191	255	
2898.744	1	1	0	0	0.13738	0.071707	0.31248	0.20888	0.15606	0.055756	0.28443	0.26352	0.1302	0.10543	0.10311	0.25559	0.20855	0.067407	0.1733	0.07869	-2.2833	-2.0417	-2.7	-2.4104	-2.3292	-2.6063	-2.2562	-2.4042	-2.6688	-1.8563	-2.7	-2.3917	-2.1458	-2.9646	-1.9813	-2.5146	-27.521	-124.041	-91.651	209.847	-46.477	105.941	209.275	77.280	-89.024	89.617	159.553	199.456	201.293	-10.830	23.698	206.059	0.0007117	0.0032823	0.00043013	904.95	1.1261e-05	2.5928e-05	1110.4	266.56	1.6281e-05	2.0029e-05	434.7	172.13	97.952	41.268	3.2769e-05	86.5	0.003278	0.003459	0.0011277	1216.1	3.5715e-05	3.9331e-05	1452.9	390.71	3.6056e-05	3.9784e-05	646.53	227.89	224.18	61.26	4.4167e-05	106.92	-15.055	161.261	69.833	-115.158	153.400	185.927	-115.266	-110.255	-109.126	208.050	-110.406	-106.542	-106.402	-101.036	63.086	-102.554	-8191	255	
2898.865	1	1	0	0	0.068044	0.059402	0.21642	0.18299	0.11318	0.18658	0.25365	0.046452	0.20119	0.20651	0.089709	0.28528	0.065203	0.19944	0.10871	0.29841	-2.2729	-2.0875	-2.8104	-2.4521	-2.2604	-2.9188	-2.4854	-2.4229	-2.6792	-2.0083	-2.6708	-2.5292	-2.3063	-2.75	-2.1979	-2.4396	-50.376	39.047	-1.981	203.381	-15.860	184.852	100.508	-115.381	42.429	-117.964	-37.149	202.852	81.520	216.204	37.802	-122.614	0.00063716	0.0014383	0.00032894	901.8	1.5162e-05	4.4552e-05	1110.7	265.68	1.4079e-05	1.851e-05	436.08	170.86	93.891	41.217	3.3524e-05	85.507	0.0032626	0.0038078	0.0011018	1204.2	3.5791e-05	4.3173e-05	1445.1	388.61	3.7254e-05	4.4115e-05	639.4	227.48	229.44	63.459	4.3141e-05	106.68	-63.602	181.529	2.046	-115.620	-63.417	211.982	-115.356	-110.388	-108.998	121.920	-110.576	-106.340	-106.901	-101.342	20.037	-102.288	-8191	255	
2898.959	1	1	0	0	0.21072	0.16428	0.14589	0.34321	0.21807	0.15185	0.18308	0.11618	0.041906	0.31217	0.35091	0.51687	0.1136	0.2911	0.28965	0.17154	-2.2833	-1.95	-2.4479	-2.6396	-1.9875	-2.8646	-2.3187	-2.2771	-2.775	-2.1396	-2.5833	-2.6854	-1.9771	-2.9	-2.2625	-2.2583	123.482	-87.006	87.868	186.719	-14.519	7.927	175.682	218.167	156.828	210.066	144.811	172.090	174.249	185.460	176.659	168.547	0.0013489	0.0014781	0.0010564	895.3	2.3507e-05	9.2109e-06	1114.6	265.12	8.2301e-06	2.9006e-05	431.62	169.32	92.334	40.932	4.0734e-05	85.677	0.0034679	0.0041907	0.0010778	1206.8	3.8966e-05	4.6836e-05	1433.5	389.03	4.0311e-05	4.7324e-05	629.89	226.91	244.05	64.337	4.1674e-05	106.45	-69.525	134.680	-15.918	-115.658	-93.966	3.180	-115.276	-110.569	-119.628	71.796	-110.353	-106.568	-107.168	-101.047	11.759	-102.469	-8191	255	
2899.055	1	1	0	0	0.25982	0.26171	0.10614	0.063972	0.10808	0.25378	0.14454	0.35432	0.24097	0.29433	0.13049	0.30857	0.18829	0.092444	0.067147	0.1132	-2.4708	-2.0812	-2.5312	-2.8333	-2.2854	-2.6542	-2.4813	-2.1958	-2.6771	-2.2417	-2.3667	-2.8229	-1.9771	-2.5896	-2.4875	-2.3104	134.440	209.695	-30.417	56.009	114.776	-10.310	170.450	178.668	171.045	158.585	229.865	181.580	-84.580	182.144	-67.358	177.929	0.0016541	0.0022684	0.00030103	892.7	3.2483e-05	3.2748e-05	1109.4	263.04	2.7444e-05	1.3729e-05	431.85	169.34	93.517	41.325	2.8817e-05	85.131	0.0038249	0.004346	0.0010491	1205.7	4.2989e-05	4.7067e-05	1417.2	387.5	4.4166e-05	4.6764e-05	621.59	225.76	260.81	63.64	4.1047e-05	106.8	-73.676	8.206	16.100	-115.271	-72.989	46.972	-115.346	-110.537	222.851	-72.488	-110.727	-106.435	-108.315	-100.927	44.341	-102.331	-8191	255	
2899.152	1	1	0	0	0.104	0.23521	0.062168	0.25548	0.035998	0.1303	0.25766	0.32424	0.068619	0.19634	0.37064	0.28695	0.15001	0.17809	0.14102	0.26906	-2.4375	-2.1896	-2.2917	-2.8	-2.0438	-2.6208	-2.6771	-2.1	-2.6833	-2.0083	-2.5396	-2.8292	-2.0667	-2.525	-2.6688	-2.1813	221.418	-55.989	211.099	156.628	-71.401	104.304	158.024	173.511	47.688	42.767	189.773	-126.786	225.561	124.313	27.282	162.405	0.0016162	0.0047389	0.00035764	893.16	3.6249e-05	3.0209e-05	1107	263.63	1.4759e-05	2.4846e-05	429.47	168.66	94.624	41.164	3.0375e-05	84.861	0.0041844	0.004252	0.0010392	1223.8	4.7956e-05	4.677e-05	1425.2	399.32	4.9728e-05	4.7555e-05	631.64	234.92	287.85	64.068	4.3093e-05	110.36	-94.784	-19.489	-42.824	-115.610	-83.955	39.987	-115.163	-110.771	159.865	38.530	-110.902	-106.281	-106.665	-100.942	-23.944	-102.510	-8191	255	
2899.272	1	1	0	0	0.28831	0.1539	0.30844	0.25872	0.21628	0.11544	0.070017	0.017314	0.10852	0.24228	0.23968	0.064763	0.13299	0.20808	0.18617	0.10049	-2.3604	-2.325	-2.2229	-2.8729	-2.0146	-2.5896	-2.8542	-2.0687	-2.75	-2.2313	-2.3083	-3.0771	-2.2521	-2.4354	-2.6813	-2.1396	84.112	-53.000	-102.046	-128.503	42.935	128.472	158.692	164.767	-46.991	-24.251	-108.596	227.972	173.430	83.916	207.452	121.366	0.0010933	0.0051325	0.00091212	893	6.6325e-06	2.6273e-05	1102.7	263.89	3.3122e-05	3.5371e-05	432.28	169.95	97.635	41.755	1.1083e-05	85.627	0.0046222	0.0042631	0.0010729	1270.6	5.2565e-05	4.6647e-05	1440.3	423.29	5.4138e-05	4.8327e-05	646.63	248.96	306.01	64.905	4.5134e-05	117.02	-62.772	-29.568	17.752	-115.837	30.096	5.424	-115.295	-110.937	18.727	-6.121	-110.829	-106.871	-105.117	-101.285	-0.062	-102.467	-8191	255	
2899.368	1	1	0	0	0.15967	0.25069	0.13726	0.17375	0.21684	0.11927	0.16765	0.17716	0.16708	0.091927	0.21459	0.30908	0.040454	0.15968	0.20602	0.1831	-2.3729	-2.5104	-2.0208	-2.7583	-2.1479	-2.3438	-2.6833	-2.0938	-2.6542	-2.5979	-2.125	-2.8646	-2.2583	-2.3333	-2.6375	-2.1937	-30.985	60.111	-53.039	54.412	59.730	105.785	83.110	216.379	91.346	-31.100	229.326	-119.514	-20.473	-128.043	134.304	180.603	9.9324e-05	0.0025864	0.00029298	891.42	3.8251e-05	1.7101e-05	1105.9	265.57	4.2974e-05	2.3023e-05	432.28	171.09	96.756	41.85	2.4184e-05	86.955	0.0049115	0.0043922	0.0011371	1345.1	5.4581e-05	4.7334e-05	1463.5	449.77	5.343e-05	4.7782e-05	652.98	259.74	300.13	65.004	4.6705e-05	122.86	11.958	10.028	133.038	-115.910	54.431	52.256	-115.353	-111.056	30.313	-34.446	-110.842	-106.484	-104.824	-101.050	206.030	-102.440	-8191	255	
2899.440	1	1	0	0	0.068788	0.093072	0.2867	0.13004	0.18157	0.25112	0.32904	0.091408	0.1077	0.16263	0.13166	0.14954	0.35789	0.04564	0.2402	0.088911	-2.1063	-2.3771	-2.25	-2.9688	-2.1896	-2.45	-2.9062	-2.1417	-2.4854	-2.5271	-2.2292	-2.8104	-2.3312	-2.1583	-2.7792	-1.9771	144.369	-125.705	119.300	-83.792	-2.455	-51.703	207.627	55.747	149.408	-89.540	64.903	-100.348	-55.777	34.947	103.580	187.946	0.0012447	0.0030149	0.00063858	896.05	1.8047e-05	1.4515e-06	1111.7	265.81	3.9799e-05	2.9847e-05	434	173.77	99.097	42.274	2.2576e-05	87.702	0.0048194	0.0044477	0.0012047	1400.8	5.3669e-05	4.7832e-05	1499.4	470.7	5.2678e-05	4.8926e-05	684.45	271.64	300.6	66.17	5.2146e-05	127.42	7.793	3.069	136.318	-115.549	93.118	45.717	-115.639	-110.387	68.702	-7.602	-111.261	-106.323	-106.456	-101.230	228.549	-102.420	-8191	255	
2899.561	1	1	0	0	0.25919	0.12314	0.090527	0.17208	0.15231	0.04929	0.22315	0.19529	0.4128	0.058582	0.21567	0.016126	0.039621	0.19832	0.23628	0.26633	-2.1646	-2.675	-1.9604	-2.775	-2.3021	-2.0396	-2.9396	-2.3396	-2.5271	-2.6417	-2.0167	-2.6854	-2.5396	-2.1437	-2.7833	-2.3042	-119.040	119.405	-118.501	93.074	31.664	107.158	81.535	181.345	148.512	185.792	138.584	116.022	165.570	-114.564	163.974	105.447	0.00060058	0.0025639	0.0015091	902.16	4.3442e-05	3.2637e-05	1115.2	269.02	3.5423e-05	2.0814e-05	435.83	176.48	100.02	42.365	3.6372e-05	88.848	0.0047599	0.0045289	0.0013398	1426.7	5.2447e-05	4.8008e-05	1550	473.3	5.0079e-05	4.7328e-05	703.15	267.4	286.19	65.083	5.4723e-05	124.42	5.911	12.496	151.467	-115.536	71.060	-0.416	-116.032	-110.267	10.636	-63.041	-111.094	-106.344	-105.992	-101.251	-115.839	-101.923	-8191	255	
2899.655	1	1	0	0	0.11045	0.15105	0.27149	0.15601	0.14333	0.047154	0.2255	0.19665	0.28885	0.11555	0.15124	0.088108	0.049045	0.23341	0.050799	0.18193	-1.8896	-2.6083	-2.2375	-2.8229	-2.4917	-1.9958	-2.9292	-2.3125	-2.3458	-2.6604	-2.0875	-2.6937	-2.5354	-2.3146	-2.8187	-2.3292	-83.784	113.554	231.139	195.598	32.640	29.368	202.131	166.882	-39.163	70.412	105.226	42.052	-52.133	-93.275	100.960	161.724	0.0003884	0.0008174	0.0010391	903.1	3.8886e-06	1.7683e-05	1115.4	270.04	2.8403e-05	1.7394e-05	444.23	177.98	101.83	42.897	1.1342e-05	90.365	0.0044109	0.0043364	0.0014144	1383.6	4.9412e-05	4.6704e-05	1576.8	460.63	4.8127e-05	4.7883e-05	733.06	264.09	283.18	66.689	5.8668e-05	124.52	-15.630	-18.854	150.683	-115.523	204.763	224.602	-115.696	-109.923	20.501	217.712	-111.420	-106.116	-105.569	-101.353	229.831	-102.200	-8191	255	
2899.751	1	1	0	0	0.0099457	0.15345	0.22175	0.24732	0.040055	0.11107	0.022879	0.16356	0.086685	0.17053	0.22059	0.12125	0.22627	0.17362	0.20421	0.33092	-1.9208	-2.5708	-1.9417	-2.7771	-2.5167	-1.9146	-2.9875	-2.2375	-2.2396	-2.8542	-2.0875	-2.6979	-2.6208	-2.2271	-2.775	-2.5729	-43.957	215.974	30.038	155.694	-6.219	-9.249	109.639	-38.359	101.108	15.699	116.564	-83.938	228.600	181.431	125.175	193.465	0.00069298	0.0044737	0.00095252	904.42	3.0127e-05	2.6081e-05	1121.4	272.99	1.078e-05	5.0471e-05	447.88	177.79	99.876	41.818	2.15e-05	89.387	0.0043837	0.0045699	0.0015135	1365	4.9902e-05	5.0972e-05	1629.1	462.17	4.9791e-05	5.4051e-05	769.93	265.61	295.8	71.196	6.4088e-05	124.88	-63.327	167.830	154.442	-115.466	107.499	-93.210	-115.373	-109.942	-26.675	173.429	-110.824	-106.183	-106.506	-101.706	20.450	-101.930	-8191	255	
2899.847	1	1	0	0	0.15572	0.27144	0.18142	0.15278	0.30742	0.35943	0.15878	0.17431	0.18861	0.10259	0.15222	0.1557	0.1974	0.20096	0.080361	0.14925	-1.8937	-2.775	-2.0812	-2.3458	-2.6354	-2.2125	-2.9042	-2.5187	-2.0125	-2.7333	-2.1063	-2.4938	-2.6688	-2.1854	-2.6021	-2.6271	83.958	64.776	-92.834	-83.723	81.573	110.579	151.921	47.260	37.851	153.545	-113.770	128.798	119.216	-86.641	-13.024	202.266	0.0011799	0.0021856	0.00090939	915.73	1.7152e-05	3.998e-05	1135.8	277.13	1.9069e-05	4.9788e-05	462.15	183.55	99.932	44.58	5.0232e-05	92.858	0.0046195	0.0052894	0.0016138	1379.9	5.131e-05	5.778e-05	1645.5	463.73	5.0412e-05	5.9653e-05	773.66	267.53	296.74	75.783	6.0915e-05	126.21	-24.765	154.240	-58.356	-115.884	41.386	218.741	-115.405	-110.067	218.880	192.258	-110.023	-106.622	-106.104	-100.983	42.703	-102.076	-8191	255	
2899.968	1	1	0	0	0.15968	0.11646	0.17355	0.25624	0.11934	0.19023	0.090976	0.075056	0.17426	0.3992	0.11326	0.14101	0.38679	0.16151	0.047943	0.28828	-1.8583	-2.7458	-2.3438	-2.5854	-2.7396	-2.0792	-2.6354	-2.6083	-2.2729	-2.875	-2.2875	-2.4854	-2.7083	-2.175	-2.5187	-2.8625	124.775	107.317	178.260	201.673	-57.856	0.665	-118.284	148.553	-82.718	5.352	-40.077	-103.059	47.391	-87.345	49.241	218.944	0.001202	0.0032343	0.0013067	913.43	1.8062e-05	1.8858e-05	1141.6	285.44	5.1752e-05	3.5411e-05	467.21	187.94	104.9	46.415	4.6301e-05	94.777	0.0046396	0.0056983	0.0015604	1379.2	5.3924e-05	6.4357e-05	1646.7	477.06	5.4566e-05	6.6303e-05	777.63	273.76	318.63	80.884	6.0231e-05	129.5	-55.291	193.097	-30.260	-115.626	-54.306	166.651	-114.946	-110.109	201.796	143.982	-110.309	-106.469	-107.417	-101.348	33.189	-102.263	-8191	255	
2900.040	1	1	0	0	0.10687	0.28597	0.17345	0.23357	0.26196	0.097086	0.17833	0.11778	0.20525	0.10606	0.08061	0.087	0.3326	0.34123	0.07938	0.22423	-1.6646	-2.9271	-2.4604	-2.5854	-2.8312	-2.2687	-2.7021	-2.7458	-2.0187	-2.5604	-2.5354	-2.3458	-2.6708	-2.2604	-2.4	-2.7604	60.002	-90.009	3.437	168.710	20.851	222.914	200.840	168.285	-66.035	231.546	132.927	216.017	110.956	-98.576	138.681	169.310	0.0023784	0.001551	0.0011318	916.17	5.1399e-05	2.555e-05	1130.6	286.68	3.49e-05	2.3388e-05	467.38	187.77	104.63	47.059	2.2319e-05	94.914	0.0051443	0.0061957	0.0015387	1387	5.9648e-05	6.8269e-05	1621.2	482.25	6.0867e-05	6.9316e-05	778.82	277.45	354.29	83.421	6.1238e-05	131.31	-88.502	33.916	-27.079	-115.389	-93.032	-0.173	-114.869	-109.953	211.822	4.996	-110.505	-106.630	-106.514	-100.889	-33.427	-102.375	-8191	255	
2900.136	1	1	0	0	0.067061	0.12628	0.15305	0.3566	0.061142	0.11254	0.16353	0.16804	0.20532	0.20365	0.2019	0.13501	0.092015	0.025929	0.11102	0.27062	-1.6354	-2.65	-2.4083	-2.2229	-2.6354	-2.3688	-2.6312	-2.6625	-2.0458	-2.6083	-2.5604	-2.1813	-2.8021	-2.2896	-2.4229	-2.9313	-128.413	118.975	-18.487	194.430	139.655	87.284	-27.513	217.471	165.597	-51.349	198.035	-53.237	158.229	201.962	-64.408	174.423	0.002034	0.0050524	0.00084214	904.28	2.7564e-05	3.0771e-05	1123	281.39	5.4115e-05	6.1076e-05	463.02	183.34	102.67	46.518	2.2947e-05	93.112	0.0059537	0.0064228	0.001573	1406.2	6.8468e-05	7.0395e-05	1631.1	492.62	7.0462e-05	7.0833e-05	786.85	284	390.78	82.832	6.2368e-05	133.36	-98.387	0.695	-39.293	-115.917	-100.709	39.409	-115.428	-110.748	190.266	12.788	-110.431	-107.043	-106.882	-101.311	20.837	-102.364	-8191	255	
2900.232	1	1	0	0	0.21482	0.14938	0.068749	0.031353	0.064861	0.12305	0.20113	0.21867	0.16821	0.016688	0.075284	0.14674	0.074934	0.11596	0.094921	0.34342	-1.6729	-2.3354	-2.5104	-2.1021	-2.8208	-2.2729	-2.5583	-2.8812	-2.0583	-2.6958	-2.8042	-2.0979	-2.8688	-2.5521	-2.325	-2.875	220.285	94.028	161.654	209.837	-10.590	112.909	147.016	156.223	173.039	75.192	54.657	-95.233	-85.492	119.645	178.140	210.388	0.0015951	0.0054708	0.00085704	895.47	3.0887e-05	5.2233e-05	1115.6	281.4	2.7641e-05	3.8634e-05	463.96	183.97	104.47	46.116	1.8713e-05	94.114	0.0065947	0.0062822	0.0015968	1447.3	7.475e-05	6.9159e-05	1636.9	513.34	7.7523e-05	7.008e-05	797.28	297.82	416.41	82.82	6.4274e-05	140.71	-80.035	-8.092	41.165	-115.769	-122.105	48.118	-115.350	-110.577	-10.870	-10.367	-110.587	-106.763	-105.817	-100.669	36.697	-102.466	-8191	255	
2900.353	1	1	0	0	0.1356	0.089498	0.14097	0.046736	0.10651	0.097397	0.076998	0.25583	0.28081	0.14126	0.32329	0.18801	0.20633	0.12046	0.038901	0.02432	-1.7833	-2.5958	-2.6667	-2.1604	-2.6	-2.2583	-2.1521	-2.95	-2.2104	-2.5042	-2.6896	-2.125	-2.7729	-2.6146	-2.2521	-2.9708	182.852	21.857	47.855	106.899	52.269	195.695	141.265	217.814	118.780	165.464	-120.731	165.604	40.033	-128.182	-62.578	222.855	0.00044236	0.0057227	0.00062124	892.08	4.827e-05	2.1629e-05	1119.1	282	4.1284e-05	3.3326e-05	462.13	185.96	109.42	46.913	1.4752e-05	95.637	0.0071475	0.0062826	0.001648	1530.9	7.7964e-05	6.8318e-05	1642.2	538.49	7.5861e-05	6.4974e-05	777.22	304.54	388.14	79.31	5.9314e-05	142.37	-7.764	-19.846	-85.770	-116.024	110.923	56.465	-115.303	-110.488	-3.786	10.245	-110.730	-107.134	-106.105	-100.921	74.212	-102.443	-8191	255	
2900.449	1	1	0	0	0.096243	0.1158	0.16234	0.3733	0.14677	0.13966	0.22155	0.18282	0.012795	0.2008	0.30323	0.138	0.22202	0.2752	0.081634	0.19032	-1.7271	-2.35	-2.6208	-2.2479	-2.4167	-2.4333	-2.2292	-2.7938	-2.2146	-2.3479	-2.85	-2.0312	-2.6188	-2.5042	-2.0312	-2.9542	-48.002	89.723	77.620	209.398	-90.984	144.182	180.805	175.503	-5.189	-14.056	157.517	-62.221	141.766	-124.229	93.140	-50.497	0.0010487	0.001676	0.00050494	888.26	3.4738e-05	2.3796e-05	1111.9	283.87	4.7211e-05	2.4235e-05	463.72	191.09	113.8	48.36	2.6685e-05	97.912	0.0063393	0.0055257	0.0014879	1510.2	6.6094e-05	5.8825e-05	1569.5	525.93	6.3619e-05	5.5547e-05	740.83	296.29	328.96	73.6	5.0989e-05	136.48	-40.274	21.428	167.910	-116.024	89.125	37.410	-115.726	-110.678	2.116	28.300	-111.050	-106.751	-104.986	-101.074	-123.875	-102.145	-8191	255	
2900.545	1	1	0	0	0.24944	0.13941	0.15075	0.19057	0.20197	0.076838	0.065228	0.2071	0.076796	0.36888	0.14691	0.10801	0.16271	0.1719	0.15013	0.15101	-1.9813	-2.1958	-2.6354	-2.3167	-2.3833	-2.5542	-2.0708	-2.8417	-2.2188	-2.1896	-2.7667	-2.2188	-2.5875	-2.6458	-2.0521	-2.7313	109.523	222.647	-5.639	-128.091	87.955	162.005	30.302	67.742	-72.990	25.668	74.152	207.169	6.384	229.867	156.286	48.049	0.00060085	0.0020217	0.00081737	899.86	2.6502e-05	2.0304e-05	1110.6	293.98	2.5156e-05	6.2176e-06	472.17	196.97	112.66	49.54	5.1575e-05	100.22	0.0049088	0.004436	0.0012885	1424.6	5.2823e-05	4.9223e-05	1529	500.94	5.2302e-05	4.7474e-05	729.67	287.12	295.73	71.743	5.1305e-05	135.23	-3.602	-81.626	160.226	-115.611	107.063	17.770	-115.620	-110.197	59.745	-62.467	-110.975	-106.313	-106.715	-100.798	192.656	-101.971	-8191	255	
2900.641	1	1	0	0	0.09082	0.050717	0.15839	0.25067	0.30576	0.0702	0.057009	0.18752	0.050631	0.12006	0.12362	0.27032	0.38847	0.23819	0.051235	0.24851	-1.9792	-2.1792	-2.7958	-2.2917	-2.4333	-2.6771	-2.1979	-2.8563	-2.5229	-2.1312	-2.9042	-2.5375	-2.2958	-2.9646	-2.2625	-2.8854	31.896	61.980	187.405	136.531	-19.409	131.433	124.444	-62.102	101.772	-5.619	231.660	216.045	87.217	204.802	-65.210	151.880	0.00016714	0.0013247	0.0014095	913.48	1.9065e-05	2.4803e-05	1120.4	296.67	2.8501e-05	7.8525e-06	478.67	198.1	116.52	49.927	3.3784e-05	101.33	0.0044912	0.0042286	0.0013537	1402.2	4.8859e-05	4.7011e-05	1562.8	490.1	4.9723e-05	4.723e-05	763.48	289.31	299.78	74.018	5.887e-05	136.2	-37.305	-101.497	153.244	-115.438	75.766	-56.026	-115.401	-109.878	3.616	-15.382	-110.707	-106.098	-105.664	-101.307	177.762	-101.818	-8191	255	
2900.737	1	1	0	0	0.28032	0.1006	0.23901	0.24151	0.3943	0.077439	0.32145	0.18012	0.4473	0.1563	0.2479	0.066701	0.061928	0.3245	0.25283	0.23546	-2.2667	-2.1813	-2.8708	-2.225	-2.3083	-2.8063	-2.2146	-2.6104	-2.3708	-2.1417	-2.8083	-2.3104	-2.2313	-2.8438	-2.1542	-2.7729	159.027	221.251	214.181	-59.257	95.064	72.135	-50.677	146.424	111.077	150.005	140.048	230.346	11.990	186.560	168.478	168.886	0.00082953	0.00048214	0.0001596	915.6	5.3147e-06	1.8373e-05	1130	297.35	1.1807e-05	2.7414e-05	485.04	199.83	114.33	50.27	2.1815e-06	102.23	0.004587	0.0044351	0.0014891	1388.9	4.8599e-05	4.8736e-05	1604.8	476.03	4.8308e-05	4.8409e-05	775.53	281.24	287.62	74.34	5.8625e-05	132.64	-31.189	142.148	227.773	-115.034	74.895	181.144	-115.221	-109.788	15.881	207.603	-110.285	-106.420	-105.637	-101.124	226.873	-102.008	-8191	255	
2900.833	1	1	0	0	0.24517	0.18902	0.044155	0.14715	0.1995	0.13772	0.32729	0.15894	0.17937	0.076165	0.20064	0.18494	0.095502	0.11312	0.24598	0.22068	-2.1792	-2.1271	-2.8187	-2.6167	-2.2583	-2.8667	-2.2625	-2.5604	-2.6625	-2.2604	-2.9875	-2.5625	-2.0521	-2.9167	-2.1583	-2.4833	190.105	-54.642	78.279	191.687	124.409	202.080	204.514	31.999	100.609	216.417	183.755	183.204	190.034	147.066	-84.410	-29.073	0.00052621	0.0047206	4.4772e-05	911.39	1.3907e-05	2.8982e-05	1138.9	296.69	1.6415e-05	2.9093e-05	484.87	200.87	115.5	50.562	2.9707e-05	101.67	0.0043479	0.0046144	0.0015017	1360.2	4.7265e-05	5.2132e-05	1615.8	463.8	4.6604e-05	5.1139e-05	761.36	272.17	273.41	75.18	5.3594e-05	127.51	-3.196	171.389	-101.633	-115.215	106.797	216.029	-115.101	-110.052	14.155	190.507	-110.631	-106.302	-105.972	-101.005	32.584	-101.783	-8191	255	
2900.952	1	1	0	0	0.078049	0.35702	0.10925	0.31944	0.19174	0.24739	0.49195	0.40089	0.15851	0.28259	0.12243	0.18217	0.090268	0.26978	0.37956	0.18313	-2.3104	-1.8979	-2.5833	-2.4688	-2.0563	-2.7396	-2.1792	-2.325	-2.7146	-2.0771	-2.725	-2.7167	-2.0708	-2.9646	-2.1562	-2.4604	25.413	117.113	42.145	208.508	-12.217	64.388	208.528	207.982	-69.641	-74.436	218.301	205.411	218.686	228.826	152.418	185.967	0.001301	0.0031331	0.0012945	916.94	1.209e-05	3.8022e-05	1141.4	299.48	1.697e-05	2.4181e-05	489.02	201.27	114.04	51.74	3.2571e-05	102.9	0.0039563	0.0046273	0.0013284	1298	4.2821e-05	5.1175e-05	1540.9	442.98	4.2684e-05	5.0495e-05	723.61	264.27	265.95	76.013	4.823e-05	125.93	-60.531	179.751	-63.481	-115.580	-5.676	196.957	-114.812	-109.883	132.119	218.018	-110.209	-106.585	-106.438	-101.110	14.079	-102.242	-8191	255	
2901.048	1	1	0	0	0.33933	0.13456	0.096947	0.35037	0.24953	0.12955	0.20699	0.097502	0.13248	0.24362	0.08134	0.12977	0.1839	0.15946	0.045649	0.036971	-2.2313	-1.9646	-2.6	-2.775	-1.95	-2.7687	-2.3917	-2.4354	-2.7938	-2.1646	-2.5583	-2.8438	-1.9813	-2.7812	-2.1979	-2.2625	152.099	134.021	160.665	80.225	-53.143	160.929	162.523	26.778	101.266	30.974	208.876	146.635	175.788	203.723	-88.947	-99.479	0.0010447	0.003171	0.00123	919.04	1.8218e-05	2.5313e-05	1145	303.97	3.5424e-05	5.9654e-06	485.32	201.16	112.49	51.364	3.8426e-05	101.98	0.0039031	0.0047264	0.0012255	1286.1	4.4725e-05	5.3966e-05	1522.9	446.28	4.6235e-05	5.3988e-05	714.16	265.42	286.03	77.655	4.8155e-05	126.14	-107.454	180.551	-32.478	-115.407	-81.589	-71.485	-114.915	-110.250	-119.682	163.157	-110.438	-106.453	-106.980	-100.852	28.298	-102.271	-8191	255	
2901.145	1	1	0	0	0.4779	0.10366	0.13765	0.30703	0.15342	0.14092	0.18499	0.47873	0.19497	0.29272	0.08819	0.057593	0.098223	0.23033	0.16824	0.19347	-2.4896	-2.0104	-2.25	-2.6771	-2.0375	-2.7417	-2.5563	-2.1646	-2.6625	-2.2021	-2.55	-2.7562	-2.125	-2.75	-2.3688	-2.4167	216.972	-108.459	-68.163	221.583	91.972	8.247	165.001	170.884	9.695	56.029	7.065	-0.425	-96.436	219.486	49.294	-76.923	0.0016005	0.00061936	0.00081886	917.87	3.2759e-05	3.0252e-05	1137.6	299.08	4.6063e-05	1.904e-05	485.11	199.12	114.02	50.996	1.165e-05	101.47	0.0044422	0.005043	0.0012186	1289.8	4.9925e-05	5.4558e-05	1506.1	444.18	5.1595e-05	5.47e-05	708.15	265.2	305.73	76.159	4.6355e-05	124.87	-91.810	-52.636	9.778	-115.350	-74.694	21.974	-114.889	-109.947	216.812	26.249	-110.644	-106.912	-106.432	-100.725	-1.360	-102.299	-8191	255	
2901.265	1	1	0	0	0.11858	0.17197	0.12132	0.34478	0.15515	0.13903	0.22347	0.064617	0.14817	0.18403	0.40199	0.20455	0.3192	0.28977	0.12728	0.14617	-2.3896	-2.0292	-2.4146	-2.9771	-1.9229	-2.5854	-2.7271	-2.1917	-2.8708	-2.3479	-2.3167	-2.7521	-2.0104	-2.6771	-2.6333	-2.2667	-100.024	20.334	-59.487	-98.548	41.357	-83.532	-92.271	-51.198	214.968	79.122	-124.523	183.514	135.503	-33.023	120.960	116.906	0.00076057	0.0029616	0.00020572	912.23	1.3348e-05	3.0956e-05	1135.2	299.28	1.913e-05	2.3066e-05	490.62	200.84	114.57	51.17	8.0369e-06	102.25	0.0045841	0.0045456	0.0010891	1250.2	4.8141e-05	4.5755e-05	1437.7	423.09	4.6237e-05	4.2849e-05	654.35	252.56	276.12	69.076	3.6597e-05	120.16	-85.007	-5.177	128.879	-115.445	-33.383	42.801	-115.037	-110.550	182.075	-30.160	-110.506	-106.342	-105.827	-101.013	-21.940	-102.496	-8191	255	
2901.337	1	1	0	0	0.11725	0.26868	0.087581	0.091265	0.23757	0.25327	0.21927	0.20177	0.17632	0.18479	0.2986	0.048055	0.2678	0.14231	0.28394	0.29492	-2.3771	-2.2792	-2.2812	-2.8208	-2.1125	-2.4771	-2.8187	-2.1542	-2.7687	-2.1875	-2.175	-2.7271	-1.9042	-2.5458	-2.4854	-2.0854	-109.120	-1.711	96.023	172.708	191.366	-53.100	192.943	-82.611	102.460	165.321	132.041	127.898	192.593	215.487	-48.340	169.142	0.00074982	0.0036316	0.00042945	920.1	6.5652e-06	2.3686e-05	1139.8	302.08	1.7328e-05	7.1826e-06	493.11	202.96	120.72	52.148	1.2153e-05	103.6	0.0038841	0.0035305	0.00087707	1206.1	4.1472e-05	3.6162e-05	1369.3	411.23	3.9444e-05	3.4283e-05	618.4	248.57	250.32	65.712	3.0866e-05	119.92	-38.623	-5.143	-14.352	-115.274	63.320	4.512	-115.002	-110.359	62.320	-19.503	-110.551	-106.685	-105.918	-101.190	48.580	-102.386	-8191	255	
2901.433	1	1	0	0	0.20636	0.31003	0.1973	0.10321	0.1372	0.18853	0.067987	0.21301	0.044877	0.12267	0.098896	0.15912	0.27411	0.1668	0.11747	0.12595	-2.3292	-2.4	-2.2604	-2.8458	-1.9896	-2.3	-2.7729	-2.1042	-2.8187	-2.2854	-2.1333	-2.9229	-2.1771	-2.2667	-2.6771	-2.1958	31.339	198.483	18.438	153.515	80.133	-63.632	-73.812	124.784	-71.698	132.890	179.328	-99.719	218.857	197.394	39.554	197.333	0.00093243	0.0018508	8.3451e-05	917.88	8.0431e-06	1.7366e-05	1130.5	303.03	2.3022e-05	1.1126e-05	490.31	204.15	120.01	52.996	1.4712e-05	104.71	0.0033665	0.0030251	0.00078672	1203.3	3.8025e-05	3.2925e-05	1345.1	421.06	3.759e-05	3.3382e-05	618.74	255.24	245.41	65.676	3.125e-05	122.68	-22.186	-59.196	204.964	-115.445	9.753	26.285	-114.747	-110.617	0.414	75.500	-110.645	-106.435	-105.658	-100.972	187.068	-102.431	-8191	255	
2901.529	1	1	0	0	0.13966	0.12064	0.040446	0.17979	0.11031	0.28414	0.064803	0.22236	0.27828	0.20661	0.15442	0.22185	0.26894	0.20793	0.1864	0.1507	-1.9792	-2.2667	-1.9229	-2.8667	-2.0125	-2.4188	-2.8	-1.9958	-2.525	-2.4833	-2.2833	-2.8396	-2.0542	-2.35	-2.825	-2.3167	72.889	196.843	22.780	138.434	21.373	-36.602	58.867	183.292	196.567	112.457	110.871	189.533	-29.495	-70.402	65.658	-87.976	0.00044671	0.0026687	0.00038888	914.18	1.8125e-05	5.8651e-06	1121.6	306.21	2.6873e-05	9.0233e-06	489.66	207.9	121.98	53.871	2.1976e-05	106.97	0.0031463	0.0028527	0.00076934	1198.6	3.343e-05	2.9508e-05	1319.7	413.73	3.1454e-05	2.8828e-05	608.74	251.9	221.23	63.744	2.9303e-05	121.4	5.798	-31.713	144.081	-115.452	74.770	-6.386	-114.854	-110.507	23.755	12.216	-110.718	-106.565	-106.577	-101.392	227.101	-102.045	-8191	255	
2901.648	1	1	0	0	0.1843	0.14515	0.36008	0.10388	0.27927	0.17835	0.49156	0.16769	0.12663	0.13749	0.083272	0.20563	0.066846	0.13631	0.20781	0.29051	-2.2896	-2.6229	-2.0917	-2.9125	-2.3792	-2.0917	-2.8646	-2.1937	-2.5167	-2.7792	-2.3021	-2.7417	-2.4125	-2.2979	-2.7875	-2.4521	58.393	2.825	51.021	-48.910	40.743	10.619	146.782	209.007	227.204	40.893	208.131	179.956	-36.836	-18.750	-96.901	193.304	0.0010926	9.2989e-05	0.00060658	905.36	1.7391e-05	7.4336e-06	1119.8	306.29	1.7403e-05	1.1471e-05	493	208.45	120.58	54.173	1.7911e-05	107.98	0.0026017	0.0024644	0.00073107	1154.3	2.8584e-05	2.6548e-05	1318.3	405.61	2.8789e-05	2.746e-05	616.43	248.41	211.43	63.4	3.0625e-05	120.74	-1.753	56.953	151.074	-114.996	58.444	-46.347	-114.938	-109.672	37.509	-1.848	-110.691	-106.280	-105.402	-101.274	185.819	-102.208	-8191	255	
2901.744	1	1	0	0	0.18397	0.048708	0.26763	0.187	0.11606	0.12919	0.24792	0.28518	0.096047	0.14487	0.071457	0.092255	0.077169	0.26437	0.28427	0.33263	-1.9062	-2.425	-2.0292	-2.7167	-2.5292	-2.0979	-2.8375	-2.075	-2.4292	-2.6521	-2.2562	-2.7833	-2.6312	-2.0979	-2.7646	-2.3729	-74.042	-45.930	-106.765	162.291	199.614	127.351	192.901	212.027	206.847	208.487	-69.724	-116.494	168.545	-121.896	109.959	156.807	0.00064135	0.0004387	0.00026269	897.7	1.4919e-05	1.1645e-06	1113.2	301.48	1.241e-05	9.9189e-06	489.19	206.14	118.25	52.985	1.8139e-05	106.63	0.0024487	0.0023696	0.0007701	1121.9	2.6973e-05	2.5613e-05	1320.2	391.38	2.6906e-05	2.691e-05	621.55	242.9	206.81	63.474	3.3175e-05	119.09	-39.940	16.951	164.389	-114.954	45.837	41.838	-115.206	-109.676	1.663	-98.794	-110.684	-106.076	-105.711	-101.355	183.444	-102.090	-8191	255	
2901.840	1	1	0	0	0.089291	0.11399	0.037847	0.23081	0.14241	0.15555	0.28781	0.099686	0.11416	0.141	0.29732	0.12708	0.073928	0.058182	0.33953	0.095601	-1.6938	-2.7958	-2.0479	-2.4646	-2.5833	-1.8792	-2.8146	-2.3083	-2.1208	-2.8396	-2.2271	-2.7438	-2.7417	-2.1562	-2.7438	-2.5646	213.786	-123.270	197.713	227.990	-104.107	-62.301	202.520	-102.674	147.491	-103.371	-107.865	42.206	-57.992	-46.221	153.494	120.718	0.00061164	0.00098625	0.00012167	879.78	1.566e-05	1.0738e-05	1087.6	294.11	1.93e-05	2.9418e-05	481.46	204.79	118.48	52.687	1.3043e-05	106.26	0.0024976	0.0025838	0.00084847	1096.8	2.7056e-05	2.7361e-05	1312.2	376.5	2.5497e-05	2.7341e-05	610.13	234.73	197.37	63.252	3.1181e-05	115.8	-98.139	113.795	136.925	-115.167	160.447	218.290	-114.785	-109.290	22.383	204.159	-110.511	-106.449	-106.026	-101.237	23.658	-102.334	-8191	255	
2901.914	1	1	0	0	0.072607	0.24416	0.18498	0.27794	0.021101	0.27231	0.14419	0.14038	0.20561	0.13442	0.12876	0.30555	0.31148	0.26202	0.25698	0.40126	-1.75	-2.6583	-2.1375	-2.5917	-2.6937	-2.0438	-2.5479	-2.4729	-2.0062	-2.7521	-2.125	-2.5104	-2.6521	-1.9875	-2.675	-2.5729	186.113	-113.464	177.356	147.004	76.522	-98.558	-95.678	157.397	-74.362	227.685	-36.361	8.565	180.677	221.646	-33.389	148.088	0.0010484	0.0026497	0.00030721	870.87	2.9989e-06	2.6356e-05	1084.4	294.4	7.9682e-06	1.2483e-05	484.72	205.86	117.9	53.126	1.3522e-05	106.8	0.0022616	0.0025718	0.0007811	1054	2.4434e-05	2.7243e-05	1272.5	362.16	2.2826e-05	2.6863e-05	586.91	228.25	185.08	62.745	2.6059e-05	112.91	-43.299	191.459	12.177	-115.051	-87.376	223.220	-115.025	-109.996	90.982	196.127	-110.583	-106.527	-105.599	-101.274	36.279	-102.381	-8191	255	
2902.033	1	1	0	0	0.10024	0.14122	0.27295	0.14827	0.2826	0.30494	0.020023	0.22404	0.23277	0.17125	0.35808	0.26773	0.21518	0.093282	0.052593	0.24048	-1.6167	-2.8125	-2.0938	-2.3563	-2.5521	-1.8937	-2.7479	-2.525	-1.9896	-2.7333	-2.4667	-2.4	-2.6479	-2.15	-2.4333	-2.6729	-103.250	65.181	-4.008	187.986	19.957	96.726	8.961	121.790	201.322	-74.090	200.606	199.842	54.554	219.954	-41.214	212.746	0.0012693	0.00063417	0.00081241	866.57	6.5183e-06	1.1304e-05	1087.8	295.14	1.192e-05	1.3101e-05	486.85	207.39	115.5	53.656	1.2112e-05	107.22	0.0019826	0.0024099	0.00065095	1014.2	2.2143e-05	2.6424e-05	1236.3	353.48	2.2007e-05	2.679e-05	573.82	227.19	187.13	63.647	2.4592e-05	112.92	-70.491	-89.091	-60.758	-115.243	-59.520	220.769	-114.745	-109.966	-84.670	176.922	-110.460	-106.430	-105.768	-101.230	23.137	-102.258	-8191	255	
2902.129	1	1	0	0	0.010792	0.35639	0.2642	0.086079	0.094099	0.15207	0.31136	0.18526	0.17368	0.069893	0.17254	0.14391	0.27942	0.11408	0.23248	0.094807	-1.6896	-2.5042	-2.2625	-2.225	-2.9813	-2.0687	-2.6021	-2.6542	-2.1708	-2.7646	-2.4417	-2.3625	-2.6437	-2.2125	-2.2708	-2.7271	59.112	-127.154	76.231	75.635	210.111	166.025	162.090	74.836	106.919	178.554	203.395	130.519	-106.958	108.817	203.107	164.965	0.0011793	0.0006669	0.00053759	858.18	1.5067e-05	1.0282e-05	1078.9	292.17	2.9296e-05	2.7264e-05	482.22	207.87	114.87	53.245	1.1513e-05	107.1	0.0021033	0.0024907	0.00061837	1004.2	2.401e-05	2.7613e-05	1222.3	351.72	2.4525e-05	2.7805e-05	570.01	227.5	197.52	63.819	2.4148e-05	113.04	-69.327	189.004	-76.265	-115.025	-92.360	-21.012	-114.800	-109.865	199.027	-13.664	-110.317	-106.408	-105.977	-100.871	17.393	-102.261	-8191	255	
2902.225	1	1	0	0	0.24086	0.064797	0.33842	0.15761	0.16514	0.18853	0.33192	0.35534	0.025925	0.24144	0.1652	0.072417	0.096816	0.11976	0.21937	0.45873	-1.5292	-2.5208	-2.4771	-2.3917	-2.7729	-2.2854	-2.2896	-2.6583	-1.9062	-2.7062	-2.5104	-2.2104	-2.7583	-2.2917	-2.2042	-2.8187	71.014	28.635	155.654	102.493	130.222	171.790	153.802	162.623	207.808	59.487	-74.223	165.786	-84.451	185.003	166.539	149.656	0.0012349	0.00093865	0.00076158	858.04	2.023e-05	2.1214e-05	1081.2	291.26	1.0595e-05	8.1156e-06	477.24	203.66	115.26	52.522	1.1778e-05	105.69	0.0023549	0.0025126	0.00061698	1006.2	2.6759e-05	2.7444e-05	1216.4	351.73	2.7119e-05	2.7205e-05	564.26	227.13	208.52	62.796	2.4321e-05	112.92	-77.547	26.004	-21.655	-115.196	-69.369	16.649	-115.046	-109.983	222.790	15.786	-110.236	-106.568	-106.459	-101.110	73.830	-102.591	-8191	255	
2902.346	1	1	0	0	0.17214	0.19904	0.025282	0.36955	0.17771	0.24443	0.10841	0.021259	0.05093	0.094171	0.27634	0.11779	0.019045	0.2707	0.05505	0.055464	-1.7437	-2.5438	-2.4083	-2.2667	-2.8479	-2.3083	-2.4396	-2.8917	-2.1104	-2.5729	-2.5333	-2.1167	-2.7396	-2.2104	-2.1896	-2.8812	123.979	121.602	-71.307	197.600	-21.388	-24.261	147.485	57.400	194.905	57.644	213.976	173.103	223.257	-101.779	135.057	111.003	0.0015675	0.0020566	0.00021378	853.06	1.5134e-05	2.7218e-05	1076.2	287.73	2.3945e-05	2.5625e-05	475.55	204.3	114.75	52.502	8.514e-06	106.03	0.002629	0.0025074	0.00063595	1024.1	2.9526e-05	2.7204e-05	1212.3	358.32	2.9399e-05	2.6116e-05	561.37	229.14	208.51	61.326	2.2492e-05	113.37	-78.986	-47.363	-11.569	-115.491	178.405	23.702	-115.050	-110.226	-102.129	19.956	-110.394	-106.733	-106.474	-101.013	16.486	-102.212	-8191	255	
2902.442	1	1	0	0	0.037626	0.1332	0.23321	0.13537	0.032826	0.13446	0.23515	0.10714	0.32471	0.30426	0.093985	0.10366	0.15591	0.11604	0.088814	0.13461	-1.7396	-2.5104	-2.5396	-1.8917	-2.6396	-2.4104	-2.2604	-2.6667	-2.0625	-2.4917	-2.8312	-2.1042	-2.5812	-2.3271	-2.1583	-3.075	188.637	205.287	-103.943	101.559	11.045	207.912	176.292	199.825	124.790	53.322	126.234	-9.574	-122.958	83.682	18.207	109.887	0.00096123	0.0011637	0.00075235	857.84	9.3642e-06	1.1728e-06	1068.1	290.53	4.0342e-06	1.596e-05	481.13	203.06	116.95	52.542	1.0523e-05	105.72	0.0024851	0.0021801	0.00057158	1025.4	2.7547e-05	2.4571e-05	1200.1	364.4	2.8158e-05	2.4222e-05	558.14	232.92	206	60.967	2.2942e-05	115.87	-39.592	10.320	18.682	-115.317	124.153	227.670	-115.091	-110.108	-27.624	28.070	-110.559	-106.923	-105.463	-101.037	188.479	-102.689	-8191	255	
2902.538	1	1	0	0	0.037727	0.10371	0.18778	0.31752	0.071538	0.10137	0.37478	0.039763	0.13302	0.024397	0.2209	0.066988	0.11585	0.37727	0.3014	0.24508	-1.7271	-2.2583	-2.4271	-1.9708	-2.4896	-2.4417	-2.1917	-2.7771	-1.9292	-2.2792	-2.9104	-1.9625	-2.8104	-2.4813	-2.0104	-2.9042	-82.924	172.051	212.262	182.668	190.970	91.943	191.584	60.004	18.103	15.490	196.590	147.718	-50.005	167.016	-110.318	151.876	0.00082808	0.002047	0.00024884	843.11	3.2965e-05	1.7242e-05	1057.2	281.56	2.2573e-05	1.6816e-05	463.12	197.83	112.62	50.099	1.7591e-05	101.05	0.0025703	0.0023062	0.00063739	1073.5	3.0317e-05	2.7905e-05	1231.7	387.63	3.3297e-05	3.0267e-05	591.93	250.34	237.48	64.366	3.4449e-05	124.08	-17.457	-35.000	216.581	-115.561	79.614	12.998	-115.250	-110.023	25.826	11.917	-110.441	-106.599	-106.501	-101.512	228.247	-102.661	-8191	255	
2902.634	1	1	0	0	0.083567	0.41134	0.12959	0.11836	0.18331	0.16852	0.1989	0.09588	0.063414	0.18305	0.17019	0.099845	0.10488	0.26107	0.19843	0.14121	-1.8312	-2.2562	-2.6437	-2.1813	-2.5062	-2.7271	-2.25	-2.7958	-2.1396	-2.2188	-2.8833	-2.1229	-2.4292	-2.7	-1.9583	-2.8	116.756	169.868	95.471	148.334	13.388	31.311	162.595	-101.053	49.036	20.404	138.493	177.099	-22.039	224.280	-93.719	-114.540	0.00066366	0.0023375	0.0008306	836.11	4.5677e-05	1.2697e-05	1041.6	272.53	3.7692e-05	6.4302e-06	445.1	190.76	107.62	47.824	3.6478e-05	98.31	0.0035652	0.0032801	0.00096977	1218.4	4.0902e-05	3.8416e-05	1354.4	433.09	4.2432e-05	3.8757e-05	648.16	263.89	257.02	65.64	4.3147e-05	125.67	-39.584	-8.609	132.771	-115.570	81.585	-1.806	-115.464	-109.808	18.947	18.366	-111.292	-106.789	-106.684	-101.385	215.096	-102.401	-8191	255	
2902.730	1	1	0	0	0.30236	0.11496	0.13415	0.23746	0.12231	0.21749	0.16724	0.34494	0.1226	0.22297	0.10549	0.10319	0.19753	0.11389	0.052766	0.31762	-1.8646	-2.1667	-2.7625	-2.4396	-2.4229	-2.6479	-2.2125	-2.7729	-2.3167	-2.3417	-2.9292	-2.1813	-2.3063	-2.7646	-2.125	-2.6583	31.690	51.158	-75.841	56.358	118.115	184.229	154.859	160.793	28.284	87.122	101.677	174.227	-39.496	3.873	83.427	168.446	0.0013353	0.00083194	0.0010089	848.65	2.5495e-05	2.3504e-05	1055.2	271.28	5.2136e-06	9.5294e-06	451.27	193.14	107.62	48.474	3.3647e-05	99.021	0.0037236	0.0034417	0.0010855	1222.7	3.8412e-05	3.6141e-05	1365	409.03	3.632e-05	3.3905e-05	637.4	249.65	229.49	63.101	4.0119e-05	119.92	-52.345	26.548	152.057	-115.232	108.522	2.507	-115.748	-109.713	-11.231	-80.558	-111.182	-106.388	-107.207	-101.649	191.050	-102.513	-8191	255	
2902.825	1	1	0	0	0.25877	0.16735	0.13862	0.11248	0.11572	0.090564	0.1956	0.1091	0.036463	0.059983	0.18807	0.08654	0.28001	0.14098	0.24789	0.14967	-1.8167	-2.0292	-2.7458	-2.3208	-2.2979	-2.6562	-2.1771	-2.5375	-2.6688	-1.95	-2.9667	-2.3104	-2.3521	-2.6375	-2.125	-2.775	31.682	9.578	129.133	213.005	103.614	72.184	151.367	-4.135	164.387	-51.716	116.701	114.169	34.227	-123.132	-29.551	105.896	0.0012042	0.00095437	0.00067892	850.56	1.3434e-05	2.0551e-05	1061	277.05	7.143e-06	3.4793e-05	456.45	196.23	109.79	49.303	7.172e-06	101.08	0.0031757	0.003087	0.0010403	1163.1	3.3938e-05	3.3788e-05	1364	392.99	3.2831e-05	3.2119e-05	633.85	240.55	212.65	62.531	3.732e-05	116.13	-46.242	184.506	136.288	-115.316	173.239	181.068	-114.969	-109.854	14.681	171.795	-110.790	-106.350	-106.200	-101.555	105.932	-102.597	-8191	255	
2902.945	1	1	0	0	0.12742	0.15897	0.19486	0.19558	0.26128	0.21415	0.048113	0.26419	0.12714	0.18656	0.29655	0.25854	0.072113	0.11945	0.14169	0.32095	-2.1854	-2.0167	-2.6208	-2.3771	-2.0229	-2.7708	-2.1521	-2.4146	-2.6083	-2.0625	-2.7021	-2.3771	-2.1562	-2.8167	-2.0375	-2.5958	0.531	-79.015	214.494	-99.980	204.607	-111.433	113.147	150.309	151.874	72.108	-80.977	145.166	103.941	-120.004	0.543	104.607	0.00087781	0.0011812	0.00019442	860.85	1.3804e-05	1.8359e-05	1074.6	281.66	1.0536e-05	4.7372e-05	465.99	197.44	108.77	49.135	2.3319e-05	101.56	0.0027822	0.002951	0.00096998	1120.8	3.1231e-05	3.469e-05	1375.7	390.64	3.3098e-05	3.6651e-05	654.29	243.97	221.54	66.069	4.0068e-05	117.56	-37.216	-122.425	-15.248	-115.177	35.922	227.074	-115.578	-109.712	49.414	184.307	-110.743	-106.474	-105.916	-101.239	-14.985	-102.593	-8191	255	
2903.041	1	1	0	0	0.083416	0.059947	0.034521	0.082138	0.18399	0.24762	0.27872	0.094731	0.076566	0.26709	0.15256	0.13298	0.1965	0.19475	0.077224	0.095044	-2.1104	-2.0625	-2.4396	-2.3458	-2.1729	-2.7938	-2.2958	-2.4417	-2.6521	-2.0083	-2.6917	-2.4417	-2.0604	-2.7083	-2.2167	-2.6125	-4.646	125.503	-108.831	159.327	111.944	150.993	127.383	182.977	25.615	178.674	-99.844	223.944	220.399	95.656	205.472	207.282	0.00099797	0.0017593	0.0011557	868.91	6.705e-06	5.092e-05	1093.8	285.01	1.9573e-05	2.8323e-05	476.52	199.74	110.24	49.921	3.0904e-05	103.33	0.0029964	0.0034997	0.0010183	1145.1	3.323e-05	3.9901e-05	1392.6	393.09	3.3685e-05	3.9705e-05	648.9	243.85	221.92	67.657	3.6926e-05	117.56	-49.880	190.008	-50.682	-115.272	-56.978	221.136	-115.125	-110.116	44.742	133.694	-110.808	-106.701	-106.893	-101.095	15.916	-102.501	-8191	255	
2903.137	1	1	0	0	0.054026	0.2399	0.2807	0.38784	0.13429	0.15644	0.064848	0.16029	0.13742	0.063167	0.083413	0.12512	0.11189	0.2701	0.1705	0.097462	-2.3646	-1.9896	-2.6875	-2.5812	-2.0833	-2.7229	-2.4042	-2.1354	-2.8208	-2.1625	-2.5271	-2.6521	-2.0938	-2.8354	-2.3458	-2.4083	-62.278	-126.194	135.974	147.570	203.983	201.442	118.634	138.545	122.881	63.795	53.359	32.640	40.543	-126.468	-26.841	216.256	0.0011727	0.0017713	0.00023308	892.69	6.7069e-06	1.0353e-05	1118.8	294.06	3.6747e-05	1.045e-05	492.53	204.34	114.82	51.875	1.059e-05	104.82	0.0029424	0.0035648	0.00091647	1142.6	3.2625e-05	3.9126e-05	1371.5	391.05	3.367e-05	3.9883e-05	644.1	245.62	235.53	69.942	3.5788e-05	118.89	-85.808	167.327	-48.443	-115.318	-104.191	217.749	-114.972	-109.976	224.971	40.048	-110.349	-106.614	-106.447	-100.920	8.635	-102.278	-8191	255	
2903.209	1	1	0	0	0.23137	0.24141	0.096023	0.073585	0.25258	0.2008	0.38846	0.089721	0.34959	0.18031	0.20929	0.25219	0.26348	0.401	0.068128	0.068322	-2.2667	-1.9667	-2.3812	-2.6958	-2.0292	-2.5667	-2.575	-2.3021	-2.7792	-2.0917	-2.4417	-2.8021	-2.1583	-2.6562	-2.4479	-2.3312	152.179	103.983	20.501	-26.622	54.455	-98.433	122.153	217.293	-66.937	148.424	120.449	88.027	50.277	-65.176	197.373	-108.575	0.0020171	0.0012429	0.00026856	901.28	1.5686e-05	1.9892e-05	1131.3	303.98	1.688e-05	2.1296e-05	505.92	208.81	118.38	53.761	2.7598e-06	107.91	0.0032258	0.0036562	0.00087683	1149.1	3.5431e-05	3.9016e-05	1369.2	397.04	3.6003e-05	3.8353e-05	642.9	247.16	244.56	69.621	3.2523e-05	120.07	-84.417	-61.145	-7.419	-115.550	-69.265	-22.381	-114.949	-110.641	-109.170	-5.417	-110.801	-106.607	-106.495	-100.809	214.649	-102.171	-8191	255	
2903.330	1	1	0	0	0.041056	0.24811	0.24287	0.15598	0.077846	0.11877	0.35573	0.24075	0.16473	0.14122	0.24818	0.098064	0.19078	0.17797	0.18948	0.37571	-2.3625	-2.1042	-2.3646	-2.8667	-2.0958	-2.6833	-2.5667	-2.2125	-2.7479	-2.2333	-2.4979	-2.6854	-2.0604	-2.9	-2.4813	-1.9625	86.821	46.513	-42.081	199.370	26.799	206.017	173.961	-115.503	-23.131	-80.075	154.115	21.255	170.169	218.021	198.992	162.784	0.0011542	0.0025204	0.00034359	923.8	1.1042e-05	3.2369e-05	1149	311.27	2.0578e-05	3.2682e-05	512.73	209.18	120.74	53.874	1.9545e-05	106.54	0.0032706	0.003314	0.00081154	1156.6	3.7405e-05	3.6903e-05	1375.6	411.01	4.0317e-05	3.8742e-05	657.81	255.02	270.84	70.499	3.5451e-05	123.55	-90.475	23.539	15.906	-115.139	203.785	37.482	-115.016	-110.170	-79.041	-1.989	-111.004	-106.624	-106.148	-100.792	15.886	-102.402	-8191	255	
2903.426	1	1	0	0	0.076276	0.26468	0.199	0.19087	0.35364	0.14631	0.20938	0.28415	0.23712	0.1126	0.095441	0.24874	0.18288	0.14001	0.14165	0.21212	-2.2604	-2.0979	-2.3354	-2.8458	-1.8875	-2.4583	-2.8146	-2.1292	-2.6667	-2.2042	-2.3167	-2.9042	-2.1292	-2.5375	-2.5833	-2.2521	117.577	-127.193	-99.527	207.690	-3.553	-128.003	189.856	-94.929	147.221	-44.620	178.029	209.595	172.775	129.809	140.067	174.628	0.0011316	0.0023738	0.0006762	916	5.8471e-06	1.4172e-05	1144.7	312.04	1.6215e-05	5.1387e-06	512.55	207.44	120.42	53.232	5.0911e-06	106.13	0.0038258	0.0035035	0.00087759	1206.3	4.1902e-05	3.6891e-05	1385.6	425.86	4.224e-05	3.7624e-05	657.74	261.52	276.78	69.74	3.6777e-05	127.37	-62.149	-13.893	17.269	-115.515	29.296	27.039	-115.034	-110.306	86.642	-14.470	-110.675	-106.740	-106.169	-101.089	-9.559	-102.493	-8191	255	
2903.522	1	1	0	0	0.13715	0.13396	0.12959	0.22721	0.22565	0.043685	0.26247	0.069328	0.18228	0.14393	0.1646	0.16614	0.17363	0.2879	0.12353	0.20436	-2.1021	-2.3292	-2.0271	-2.9688	-1.9979	-2.5021	-2.8292	-2.0125	-2.8125	-2.3625	-2.3542	-2.9875	-2.2333	-2.3292	-2.7604	-2.2438	-46.954	189.744	-97.626	109.703	-7.099	76.017	168.018	-9.203	30.548	86.915	122.585	135.540	125.211	-112.553	85.162	122.841	0.00068054	0.0023287	0.00048999	920.37	2.8154e-05	9.8421e-06	1146.8	307.29	2.5147e-05	2.3849e-05	502.67	204.87	120.63	51.7	2.0599e-05	102.99	0.0040233	0.0035928	0.00092817	1267.7	4.4589e-05	3.8762e-05	1416.7	450.11	4.471e-05	3.9698e-05	664.87	269.3	276.71	68.535	3.8272e-05	128.45	-40.930	-12.319	-3.209	-115.458	118.367	17.270	-115.309	-110.471	62.225	-19.815	-111.261	-106.371	-106.627	-100.799	185.831	-102.417	-8191	255	
2903.618	1	1	0	0	0.15924	0.10907	0.1255	0.14002	0.1941	0.28573	0.27997	0.33541	0.27179	0.13889	0.24731	0.2933	0.17902	0.24495	0.051342	0.39257	-2.1792	-2.4458	-1.9521	-2.6188	-2.2083	-2.1375	-2.9417	-2.0771	-2.7479	-2.7792	-2.1896	-3.1375	-2.3021	-2.3396	-2.7687	-2.275	117.562	166.138	207.888	130.980	-90.454	-54.071	126.140	154.178	136.424	53.984	89.093	170.073	166.860	-77.377	1.808	209.415	0.0002655	0.0029217	0.00060187	911.22	3.8349e-05	3.1539e-05	1136.1	303.35	3.4441e-05	1.3786e-05	494.24	200.39	119.23	50.931	3.8373e-05	103.09	0.0039868	0.0036577	0.00099749	1319.2	4.5127e-05	3.999e-05	1438	465.93	4.3989e-05	4.0352e-05	680.82	273.56	271.28	68.278	4.1265e-05	129.87	73.033	23.401	126.446	-115.618	108.140	-18.595	-115.126	-110.816	31.101	97.073	-111.186	-106.423	-105.624	-100.993	209.860	-102.180	-8191	255	
2903.714	1	1	0	0	0.090478	0.23576	0.18253	0.18123	0.17075	0.12935	0.12795	0.16002	0.10688	0.33809	0.27111	0.20361	0.1723	0.24265	0.1052	0.14825	-2.2167	-2.6625	-1.9917	-2.7792	-2.3125	-2.2062	-2.95	-2.175	-2.5542	-2.6521	-2.1771	-2.7542	-2.4875	-2.2292	-2.8271	-2.2188	94.775	61.311	165.917	146.862	-126.870	-21.801	112.637	222.677	153.481	151.551	-121.659	219.454	74.920	-119.428	162.808	-127.566	0.00074253	0.00021936	0.00041037	925.26	1.274e-06	2.3538e-05	1134.7	307.55	2.9115e-05	1.9785e-05	502.75	204.53	120.07	51.511	4.8706e-05	104.01	0.0037375	0.0035343	0.0010457	1315.1	4.1258e-05	3.7717e-05	1455.4	462.12	3.9924e-05	3.781e-05	694.82	269.99	256.87	67.414	4.232e-05	127.52	-33.167	-25.833	195.453	-115.424	217.422	-12.006	-115.386	-109.917	29.034	-77.887	-110.899	-106.351	-106.527	-101.139	211.709	-101.908	-8191	255	
2903.811	1	1	0	0	0.13743	0.28299	0.34283	0.20491	0.074141	0.11197	0.20838	0.1517	0.26067	0.15994	0.050008	0.27388	0.22476	0.17176	0.29796	0.30866	-2.1063	-2.5708	-2.0333	-2.6437	-2.3375	-2.2271	-2.9792	-2.2583	-2.4417	-2.7104	-2.1167	-2.7958	-2.425	-2.1937	-2.8479	-2.3792	-7.785	210.589	29.561	-87.342	109.821	-0.214	-107.413	107.446	210.692	22.671	-113.794	-101.481	-61.384	201.614	17.132	171.294	0.00038808	0.0020871	0.0011733	924.94	1.3523e-05	1.2286e-05	1143.8	310.44	4.791e-06	1.7701e-05	503.35	203.95	119.28	51.309	7.6546e-07	103.73	0.0033838	0.0033006	0.0010713	1275.4	3.808e-05	3.6048e-05	1474.4	449.5	3.7423e-05	3.7137e-05	707.71	262.69	249	67.565	4.4827e-05	125.71	22.475	87.109	150.209	-115.117	127.080	134.077	-115.280	-110.176	2.660	170.879	-111.040	-106.567	-105.761	-101.109	36.893	-101.851	-8191	255	
2903.907	1	1	0	0	0.16724	0.14559	0.20488	0.19879	0.21533	0.22232	0.21995	0.17979	0.11341	0.20591	0.31677	0.067436	0.041846	0.11207	0.22117	0.1958	-1.8042	-2.6562	-2.0542	-2.6458	-2.7562	-2.0563	-3	-2.3521	-2.3375	-2.8146	-2.2396	-2.7313	-2.6604	-2.0563	-2.8125	-2.4062	-43.820	157.821	189.342	-84.279	3.928	-124.920	189.428	149.019	9.538	185.016	212.358	-72.686	152.329	88.383	117.638	201.331	0.00063932	0.0021675	0.00045519	920.58	8.1268e-06	2.135e-05	1134.9	304.62	1.0925e-05	2.9469e-05	500.52	201.02	115.93	50.352	1.0301e-05	101.71	0.0033588	0.0034816	0.0011561	1254.7	3.8331e-05	3.933e-05	1504.3	444.4	3.8952e-05	4.2042e-05	730.53	260.59	254.77	69.892	4.8585e-05	124.79	27.299	161.286	-114.997	-115.273	96.578	191.267	-115.320	-110.057	-51.658	175.018	-111.098	-106.582	-106.508	-101.383	103.406	-102.142	-8191	255	
2904.026	1	1	0	0	0.25825	0.059937	0.29792	0.26889	0.40794	0.045584	0.058294	0.19603	0.14057	0.27142	0.20788	0.046609	0.075571	0.32964	0.22534	0.19027	-1.9188	-2.7625	-2.0292	-2.4458	-2.7396	-2.0917	-2.8292	-2.4313	-2.0312	-2.85	-2.3083	-2.5792	-2.5583	-1.9854	-2.6646	-2.4604	-60.642	92.606	-86.754	-27.410	104.875	24.930	210.565	109.252	108.735	-9.046	155.567	33.733	-127.878	220.402	103.541	158.452	0.00087827	0.0027643	0.00071007	905.52	2.0848e-05	1.936e-05	1118.9	300.16	8.8073e-06	4.3115e-05	487.55	196.54	112.39	49.153	1.96e-05	99.293	0.0035614	0.0040841	0.0012618	1254.6	4.0503e-05	4.5769e-05	1511.1	439.11	3.9505e-05	4.6411e-05	718.65	254.99	255.16	71.747	4.7572e-05	122.01	-75.842	168.335	-73.206	-115.415	-106.840	-116.358	-115.079	-110.196	-74.279	204.993	-110.427	-106.739	-105.797	-101.261	11.134	-102.130	-8191	255	
2904.122	1	1	0	0	0.15503	0.079869	0.08202	0.11932	0.22472	0.29175	0.20969	0.10326	0.13374	0.10079	0.1488	0.32077	0.095754	0.1239	0.28521	0.13921	-1.7313	-2.7667	-2.2021	-2.3625	-2.7417	-2.0542	-2.7458	-2.5208	-2.1896	-2.7375	-2.2875	-2.2042	-2.7333	-2.2875	-2.7604	-2.7979	-76.345	178.565	133.353	-101.542	-62.596	-42.118	155.293	-121.536	187.796	137.708	-76.565	198.084	166.679	222.328	183.414	123.998	0.0010237	0.0036753	0.00060899	897.97	1.7608e-05	7.7105e-06	1110.9	294.28	1.1169e-05	1.9963e-05	482.17	192.48	109.07	48.24	2.8351e-05	98.017	0.0035888	0.0044151	0.0012203	1241.1	4.1886e-05	4.9989e-05	1479.6	434	4.1599e-05	5.0587e-05	705.23	252.08	264.67	73.254	4.6046e-05	120.77	-82.364	149.815	-45.477	-115.655	216.634	201.910	-114.585	-110.063	148.236	138.180	-110.703	-106.785	-107.118	-100.772	27.462	-102.239	-8191	255	
2904.218	1	1	0	0	0.081562	0.38873	0.071082	0.14661	0.23935	0.13844	0.34002	0.1654	0.13343	0.27946	0.42391	0.23458	0.13122	0.15742	0.33827	0.15846	-1.6479	-2.7	-2.2812	-2.3812	-2.8479	-2.2812	-2.6813	-2.6042	-1.9875	-2.7146	-2.2771	-2.1333	-2.9188	-2.2042	-2.6167	-2.9646	37.323	47.833	76.069	171.655	90.281	76.181	190.656	199.580	217.411	143.197	157.250	109.546	-12.820	-52.381	212.147	173.059	0.0018311	0.00098824	0.00084881	895.53	4.7699e-05	2.0372e-05	1107.4	294.82	4.0011e-05	8.4109e-06	483	190.89	107.7	48.542	1.3299e-05	97.536	0.0038789	0.0046347	0.0011436	1221.7	4.3259e-05	4.9843e-05	1431.7	422.86	4.2965e-05	4.8571e-05	677.11	246.09	268.97	71.546	4.1624e-05	118.64	-104.788	129.216	-54.698	-115.454	-87.812	79.775	-115.183	-110.358	225.688	64.043	-110.544	-106.782	-106.672	-101.121	39.068	-102.173	-8191	255	
2904.314	1	1	0	0	0.040364	0.19455	0.14248	0.2514	0.058219	0.089283	0.12719	0.1741	0.15105	0.37137	0.30235	0.1133	0.085771	0.30129	0.16339	0.3213	-1.5729	-2.7604	-2.325	-2.3208	-2.9625	-2.3333	-2.5583	-2.7438	-1.9396	-2.6583	-2.4562	-2.3187	-2.9979	-2.2667	-2.4583	-2.9604	96.943	203.008	79.958	182.935	15.744	183.827	-86.400	-15.133	2.548	-37.516	89.330	127.977	-2.561	-64.724	182.832	130.181	0.002284	0.0035085	0.00043457	895.85	2.5005e-05	4.4155e-05	1104.5	291.02	5.6754e-05	2.5863e-05	481.89	193.03	109.66	49.04	3.046e-05	98.524	0.0040371	0.0043912	0.0010764	1207.3	4.6149e-05	4.7829e-05	1415.2	423.12	4.6953e-05	4.695e-05	672.66	248.56	287.11	71.178	4.1559e-05	120.52	-78.490	8.014	-30.685	-115.782	-106.541	39.782	-115.018	-110.546	193.786	-16.783	-110.683	-106.521	-106.501	-100.797	4.276	-102.266	-8191	255	
2904.435	1	1	0	0	0.16777	0.13151	0.072563	0.41407	0.29831	0.19776	0.17935	0.062888	0.11699	0.028162	0.33984	0.23707	0.10573	0.25613	0.25071	0.17051	-1.7	-2.5917	-2.3563	-2.3771	-2.8667	-2.1854	-2.4958	-2.6562	-1.8937	-2.5729	-2.5479	-2.1354	-2.8292	-2.3771	-2.3521	-3	192.946	-94.735	20.579	185.445	108.263	-66.095	123.916	-122.972	52.262	-6.421	153.672	170.347	15.135	166.639	-1.533	123.776	0.00086587	0.0032539	0.00028738	894.29	1.3242e-05	1.3352e-05	1098.6	290.83	3.548e-05	4.4251e-05	484.76	192.86	112.14	49.294	1.6007e-05	98.697	0.0044121	0.0042497	0.0010708	1227.2	4.9668e-05	4.5947e-05	1410.4	429.78	4.9398e-05	4.449e-05	669.37	254.26	294.14	69.674	4.0023e-05	122.84	-74.385	-12.072	-44.366	-115.878	-88.203	13.207	-115.413	-110.433	211.128	2.433	-110.683	-106.816	-106.055	-100.782	-57.661	-102.678	-8191	255	
2904.506	1	1	0	0	0.042025	0.33726	0.17752	0.1732	0.18383	0.11267	0.36569	0.21527	0.14081	0.29002	0.23478	0.23205	0.1624	0.24129	0.12556	0.18573	-1.6146	-2.4396	-2.5896	-2.1771	-2.5833	-2.2917	-2.2646	-2.9896	-2.1396	-2.3979	-2.5938	-2.0333	-2.8042	-2.4917	-2.1375	-2.8333	32.249	-55.197	-5.769	207.284	130.061	14.796	197.939	214.694	-92.164	63.673	166.533	-20.779	-33.430	-87.636	230.011	203.305	0.00078609	0.0026118	0.00045672	887.17	3.1003e-05	1.7671e-05	1111.4	294.85	3.2518e-05	1.7263e-05	482.51	193.29	112.39	48.939	1.1023e-05	99.014	0.0044547	0.0039604	0.0010398	1261.4	4.9844e-05	4.3655e-05	1406.6	446.87	4.9725e-05	4.2976e-05	668.27	263.43	292.25	68.957	4.0137e-05	126.28	18.237	-29.675	-51.903	-115.956	101.337	45.900	-115.517	-110.507	24.910	48.561	-110.737	-106.961	-105.736	-100.985	-18.600	-102.387	-8191	255	
2904.602	1	1	0	0	0.20352	0.043104	0.1136	0.11947	0.15503	0.13885	0.21454	0.12153	0.21526	0.17672	0.095422	0.084395	0.20159	0.34135	0.1016	0.17163	-1.7854	-2.4104	-2.7438	-2.1542	-2.525	-2.4125	-2.3187	-2.7292	-2.4375	-2.275	-2.8729	-2.2146	-2.6562	-2.5812	-2.1979	-2.975	-29.312	61.102	48.534	62.150	-94.936	38.490	-20.992	209.071	-83.997	43.955	-123.882	199.634	-77.180	205.215	70.779	130.650	0.00081922	0.0021651	0.00053259	889.92	4.4394e-05	1.2733e-05	1102.5	292.35	4.9618e-05	3.3347e-05	478.53	193.8	113.43	48.833	1.9102e-05	99.75	0.0043971	0.0038917	0.0010563	1308.2	4.8789e-05	4.3878e-05	1421.7	466.75	4.9429e-05	4.3625e-05	682.32	274.44	289.85	69.774	4.3669e-05	131.2	27.410	2.522	174.366	-115.669	83.506	6.008	-115.498	-110.545	14.667	16.564	-110.759	-106.845	-105.190	-101.002	216.086	-102.148	-8191	255	
2904.721	1	1	0	0	0.1216	0.1174	0.15805	0.21955	0.23256	0.31779	0.19506	0.19703	0.17051	0.20239	0.42247	0.13339	0.37193	0.29339	0.038207	0.27934	-1.8958	-2.3458	-2.6604	-2.2188	-2.6021	-2.5083	-2.2562	-2.8521	-2.3917	-2.3438	-2.9938	-2.3521	-2.5917	-2.6729	-2.1667	-2.75	-54.669	17.671	-17.481	164.561	200.328	-57.062	-100.189	205.515	56.956	-74.816	-99.674	-75.055	-123.010	183.757	-18.388	203.766	0.0008934	0.0025351	0.00031261	896.82	2.6011e-05	1.2532e-05	1106.9	292.65	4.3379e-05	1.2917e-05	476.27	193.1	111.31	48.765	3.7261e-05	99.267	0.0043716	0.0039572	0.0011457	1355.5	4.7479e-05	4.3996e-05	1460.1	475.55	4.7273e-05	4.3362e-05	705.16	278.79	284.29	69.792	4.9168e-05	132.52	18.854	-7.676	132.505	-115.704	54.613	-30.871	-115.326	-110.126	22.625	13.322	-111.357	-106.511	-106.047	-100.619	197.577	-102.131	-8191	255	
2904.817	1	1	0	0	0.10119	0.1118	0.073609	0.2793	0.099411	0.25669	0.28942	0.16839	0.087522	0.21804	0.2053	0.31496	0.16805	0.19214	0.18753	0.25324	-2.0354	-1.9979	-2.7375	-2.1958	-2.5271	-2.7771	-2.2458	-2.7938	-2.3063	-2.1583	-2.9938	-2.2875	-2.4521	-2.7562	-2.1312	-2.9188	-3.887	194.992	-13.189	215.138	141.990	0.616	-117.300	180.337	157.048	-117.368	175.878	-66.818	-76.872	209.005	116.402	204.897	0.00066029	0.0012136	0.0013497	904.95	5.1961e-06	4.8648e-06	1105.7	296.45	1.6609e-05	4.0907e-06	473.29	193.27	112.86	47.964	3.7348e-05	97.825	0.0043746	0.0041061	0.0013105	1383.9	4.7846e-05	4.5781e-05	1531.4	482.67	4.8323e-05	4.5148e-05	743.52	278.83	285.43	70.178	5.5083e-05	131.16	-2.475	115.301	149.252	-115.124	126.590	54.484	-115.674	-110.136	-21.407	176.164	-110.847	-106.515	-106.416	-100.952	215.357	-102.140	-8191	255	
2904.914	1	1	0	0	0.1048	0.088473	0.18722	0.10822	0.10857	0.14132	0.2234	0.13888	0.199	0.12613	0.15639	0.26147	0.038819	0.42899	0.2573	0.049337	-2.1729	-2.1688	-2.7708	-2.4437	-2.375	-2.675	-2.0896	-2.6833	-2.625	-2.2521	-2.9021	-2.3896	-2.2625	-2.9521	-2.2417	-2.7125	167.203	145.982	101.363	175.552	40.076	-100.811	172.103	159.580	226.739	94.749	230.922	167.887	55.331	132.493	206.629	60.464	0.00073511	0.0011128	0.00038591	901.44	2.8928e-05	3.2522e-05	1102	291.44	2.3796e-05	2.0873e-05	469.77	190.85	111.12	46.919	7.603e-06	96.029	0.0044104	0.0042846	0.0014558	1376.9	4.86e-05	4.876e-05	1590.2	477.07	4.9712e-05	4.9366e-05	773.57	275.01	287.89	71.687	5.9086e-05	127.43	-15.649	-99.032	155.519	-115.168	81.899	222.582	-115.690	-110.054	36.321	187.807	-110.237	-106.288	-105.223	-100.874	187.418	-102.167	-8191	255	
2905.034	1	1	0	0	0.15988	0.18108	0.28056	0.35179	0.17436	0.10586	0.092259	0.15818	0.083947	0.12912	0.30382	0.06393	0.17235	0.23903	0.084559	0.19636	-2.125	-2	-2.625	-2.4333	-2.2146	-2.6604	-2.4333	-2.4354	-2.6271	-2.05	-2.8646	-2.4125	-2.2438	-2.9708	-2.2	-2.7604	111.740	10.518	-104.150	-110.342	104.747	67.642	128.763	-83.920	34.018	183.182	194.549	27.234	-114.204	127.405	-80.757	195.339	0.00061375	0.0037458	0.00053179	898.29	4.9651e-06	3.0797e-05	1107.6	288.17	2.8325e-05	3.8458e-05	473.19	188.8	108.62	47.261	1.8894e-05	96.034	0.0043494	0.0045661	0.0014875	1331.9	4.6327e-05	5.0695e-05	1569.5	452.81	4.5861e-05	4.9779e-05	744.01	261.39	267.54	71.71	5.3878e-05	122.28	-61.974	152.102	103.450	-115.667	8.214	-115.875	-115.182	-110.211	16.884	189.967	-110.901	-106.808	-106.089	-101.229	-14.055	-102.464	-8191	255	
2905.106	1	1	0	0	0.15511	0.019126	0.19198	0.23228	0.10547	0.25712	0.19756	0.05179	0.10052	0.082692	0.1241	0.052296	0.12832	0.17789	0.2243	0.045402	-2.2938	-2.075	-2.6583	-2.5771	-2.1958	-2.9188	-2.4604	-2.5979	-2.6875	-2.1208	-2.9396	-2.6708	-2.225	-2.825	-2.1708	-2.4229	126.766	223.686	-121.542	163.020	116.866	131.475	144.734	117.896	-71.246	127.822	67.552	-23.944	-98.815	-123.338	-110.009	79.069	0.00077657	0.0045108	0.00083404	888.29	2.8709e-06	2.5399e-05	1094.7	289.79	3.5025e-06	3.9332e-05	473.69	191.27	108.64	48.01	2.9012e-05	97.356	0.0039532	0.0045982	0.0013436	1278.6	4.347e-05	5.1798e-05	1517.3	437.85	4.3859e-05	5.1809e-05	716.36	256.82	262.12	73.044	4.8877e-05	120.98	-28.430	197.798	-25.955	-115.151	28.850	219.105	-114.955	-110.294	-103.195	205.757	-110.637	-106.570	-105.839	-101.136	61.944	-102.116	-8191	255	
2905.202	1	1	0	0	0.069867	0.26057	0.31038	0.39116	0.12081	0.20721	0.070103	0.19982	0.032078	0.10796	0.26031	0.24803	0.1483	0.0977	0.40385	0.38855	-2.5667	-2.0729	-2.5396	-2.9167	-2.1312	-2.8292	-2.6146	-2.2833	-2.7562	-2.1688	-2.7188	-2.7542	-2.0896	-2.775	-2.3708	-2.4417	137.102	-18.408	6.396	182.506	-9.482	-52.172	-84.479	126.866	33.443	35.592	210.488	-124.503	36.900	127.889	127.053	-112.627	0.0010944	0.0021888	0.0015521	881.31	1.4778e-05	7.5865e-06	1085.5	287.02	1.8094e-05	2.0944e-05	473.65	191.08	104.91	47.381	2.1454e-05	96.253	0.0038627	0.0046755	0.0012177	1241.8	4.3558e-05	5.2572e-05	1463.6	429.12	4.4991e-05	5.3171e-05	696.66	254.96	274.69	73.649	4.6564e-05	119.34	-61.798	98.209	-35.748	-115.449	-92.871	125.196	-115.029	-110.300	-127.877	178.355	-110.450	-106.272	-106.089	-101.065	38.462	-102.013	-8191	255	
2905.298	1	1	0	0	0.1287	0.095053	0.16108	0.33156	0.1944	0.13584	0.14435	0.21113	0.19459	0.060709	0.082718	0.22946	0.076459	0.27792	0.084275	0.34106	-2.5167	-2.1667	-2.5312	-2.6729	-1.9937	-2.6833	-2.7771	-2.2333	-2.8479	-2.2646	-2.4354	-2.6792	-2.0062	-2.8521	-2.4021	-2.3354	-28.865	217.874	105.282	153.778	112.248	-71.913	185.254	-122.629	200.636	70.451	-72.414	208.968	229.752	-122.027	-35.559	200.074	0.001785	0.00055559	0.0003861	876.86	1.6475e-05	3.7725e-05	1086	283.97	4.1665e-05	3.1906e-05	466.41	189.81	106.14	47.639	2.7656e-05	96.028	0.0041493	0.0047274	0.0011328	1214.6	4.5413e-05	5.0115e-05	1422.3	416.44	4.6843e-05	5.0286e-05	670.57	249.36	283.55	71.224	4.3206e-05	117.66	-65.510	-75.755	-16.045	-115.435	-71.467	32.816	-114.992	-110.428	223.236	12.258	-110.925	-106.628	-106.220	-100.567	47.606	-102.244	-8191	255	
2905.394	1	1	0	0	0.30407	0.37941	0.0073495	0.33768	0.1082	0.099377	0.054846	0.40771	0.19924	0.17544	0.18185	0.11541	0.13368	0.068834	0.049999	0.41032	-2.4521	-2.1333	-2.5583	-2.7021	-2.1604	-2.6833	-2.8354	-2.2521	-2.8271	-2.3667	-2.3292	-2.8542	-1.9604	-2.5875	-2.5333	-2.3833	26.625	120.346	37.635	202.950	40.477	-16.498	-70.434	-124.427	109.227	181.022	-1.308	-37.371	168.619	-70.574	224.282	199.878	0.001205	0.0029961	0.00035323	865.71	1.0063e-05	4.6254e-05	1082.4	282.05	1.4995e-05	3.0637e-05	461.11	188.16	106.78	47.243	4.6673e-06	94.543	0.0042907	0.0043764	0.0010544	1198.2	4.7171e-05	4.5899e-05	1387.9	409.43	4.7223e-05	4.5102e-05	645.68	245.23	283.11	67.67	4.0231e-05	116.57	-61.429	-1.551	-11.414	-115.578	-114.884	57.879	-115.319	-110.494	-80.233	15.564	-110.645	-106.762	-107.071	-100.853	-41.083	-102.609	-8191	255	
2905.515	1	1	0	0	0.18876	0.26551	0.16567	0.07401	0.062717	0.036815	0.11654	0.10651	0.10967	0.04363	0.065195	0.11246	0.16587	0.17529	0.20463	0.3013	-2.3958	-2.1354	-2.0875	-2.9833	-2.1917	-2.6125	-2.7208	-2.1583	-3.0083	-2.5146	-2.4417	-3	-2.1188	-2.6354	-2.775	-2.3333	149.654	211.726	-103.365	125.681	-21.864	-95.612	-74.939	155.364	158.982	-72.354	132.206	-107.708	46.217	114.352	-66.307	151.998	0.0010346	0.004574	0.0002929	857.78	1.08e-05	1.9376e-05	1061.5	276.82	1.5899e-05	3.0119e-05	459.52	185.39	105.12	46.848	6.5075e-06	95.21	0.0043272	0.0040114	0.0010108	1206.9	4.849e-05	4.2882e-05	1365.3	416.15	4.8004e-05	4.2271e-05	631.87	247.61	277.09	64.967	3.7509e-05	117.59	-85.944	-7.086	-79.895	-115.354	-20.828	21.572	-115.592	-110.656	47.470	31.887	-110.704	-106.739	-105.908	-100.982	22.333	-102.556	-8191	255	
2905.611	1	1	0	0	0.05487	0.13115	0.065954	0.26659	0.14338	0.059334	0.20007	0.10519	0.13028	0.28035	0.23569	0.15476	0.19679	0.35616	0.15678	0.014778	-2.4146	-2.2542	-2.1125	-2.8333	-2.0729	-2.3729	-2.975	-2.1354	-2.5958	-2.5021	-2.1208	-2.9542	-2.4062	-2.3812	-2.6688	-2.2958	198.049	-38.449	41.440	205.381	110.732	90.119	155.681	145.142	78.378	73.967	127.886	205.806	89.068	227.603	100.688	-6.858	0.00048992	0.0030249	0.00043491	852.67	1.5086e-05	1.7611e-05	1066.6	280.28	7.3923e-06	1.1045e-05	463.09	189.64	108.89	47.331	5.4852e-06	96.06	0.0039783	0.0034906	0.00089323	1192.2	4.2614e-05	3.6721e-05	1320.2	412.77	4.1304e-05	3.6579e-05	612.74	248.3	253.15	62.88	3.4554e-05	118.39	-1.264	-26.062	-90.945	-115.846	95.278	22.596	-115.168	-110.692	-3.156	9.809	-110.817	-106.546	-105.826	-100.961	208.092	-102.547	-8191	255	
2905.707	1	1	0	0	0.17156	0.16045	0.2491	0.24788	0.067648	0.10924	0.066525	0.058698	0.23024	0.093573	0.099327	0.17134	0.18331	0.34556	0.040808	0.11115	-2.2313	-2.4667	-1.9438	-2.7062	-2.2042	-2.2396	-2.7021	-2.1917	-2.625	-2.4375	-2.3688	-2.8875	-2.4104	-2.3312	-2.7146	-2.325	95.906	-41.652	199.389	215.369	151.341	190.996	32.039	33.338	88.892	-121.182	-12.381	228.106	119.856	226.930	-113.103	161.233	0.00097544	0.00098536	0.00022765	858.48	2.9407e-05	6.2838e-06	1059.1	279.99	3.689e-05	9.4736e-06	459.23	191.31	110.44	47.601	2.0772e-05	97.144	0.0035275	0.0032063	0.00085856	1191.8	3.821e-05	3.3712e-05	1308.6	413.31	3.6936e-05	3.387e-05	609.51	248.47	234.91	61.316	3.4102e-05	117.81	7.787	-11.638	157.607	-115.960	83.673	79.910	-115.348	-110.417	41.808	-22.600	-111.115	-106.631	-106.147	-101.240	-125.021	-102.554	-8191	255	
2905.802	1	1	0	0	0.24756	0.26174	0.20043	0.16072	0.13798	0.30871	0.18998	0.22613	0.17573	0.15171	0.2992	0.25862	0.26654	0.080351	0.095349	0.26004	-2.2271	-2.6521	-2.1271	-2.8583	-2.3937	-2.2062	-2.7479	-2.1604	-2.6208	-2.5979	-2.3	-2.825	-2.4729	-2.1875	-2.7583	-2.3729	-114.767	6.950	40.579	-119.042	43.232	134.861	209.517	164.427	175.620	75.429	150.032	-100.510	54.554	173.106	24.611	-63.014	0.00043298	0.0011209	0.00074555	849.47	1.569e-05	1.7066e-05	1052	279.04	2.2549e-05	4.703e-06	458.62	188.01	106.34	46.692	2.2311e-05	95.784	0.0030688	0.002887	0.00084346	1157.8	3.3239e-05	3.0267e-05	1295.1	398.14	3.2139e-05	3.0623e-05	606.32	238.87	217.6	58.858	3.4386e-05	113.39	11.389	-76.158	174.303	-115.644	85.894	9.235	-115.535	-110.058	9.133	140.435	-110.853	-106.589	-105.243	-101.234	211.719	-102.346	-8191	255	
2905.898	1	1	0	0	0.18353	0.20695	0.0612	0.08927	0.18291	0.056724	0.068366	0.35639	0.19407	0.036383	0.2288	0.23178	0.070341	0.32416	0.1248	0.056415	-1.8875	-2.4458	-2.1458	-2.7917	-2.4583	-2.0667	-3.0563	-2.2604	-2.4375	-2.525	-2.1333	-2.6729	-2.4562	-2.2292	-2.7708	-2.3521	-100.023	-84.507	-101.385	224.159	-1.238	70.593	21.070	190.495	-54.738	-5.242	204.106	133.537	216.686	196.383	51.834	78.811	0.00065564	0.0005697	0.00049185	832.95	1.3997e-05	8.9488e-06	1037.4	270.44	1.8406e-05	2.0702e-05	445.24	186.38	104.31	45.895	2.4041e-05	94.5	0.0027408	0.002631	0.00083841	1094	2.8906e-05	2.688e-05	1262.4	367.13	2.7165e-05	2.6803e-05	583.29	224.34	197.05	56.699	3.3081e-05	108.58	-50.918	80.953	135.548	-115.553	23.960	-22.436	-115.511	-109.871	99.776	-108.995	-111.153	-106.579	-107.425	-101.445	197.535	-102.456	-8191	255	
2905.996	1	1	0	0	0.046551	0.10822	0.25293	0.27941	0.2512	0.094572	0.09106	0.22756	0.054321	0.10981	0.33496	0.1472	0.22146	0.42652	0.14911	0.28779	-1.8875	-2.7875	-2.0208	-2.6229	-2.3833	-2.0854	-2.9313	-2.4813	-2.1937	-2.8979	-2.2771	-2.5708	-2.5979	-2.1375	-2.6958	-2.4792	79.448	74.606	117.298	156.403	-74.081	199.962	78.004	150.377	-17.848	-83.399	210.231	-82.304	-20.101	222.983	52.068	213.628	0.00070855	0.001229	0.00052837	828.93	1.5531e-05	1.8759e-05	1030.1	267.86	1.1439e-05	1.3732e-05	443.98	183.3	102.42	45.157	1.6794e-05	92.932	0.0025143	0.0025967	0.0008602	1060.9	2.8241e-05	2.8539e-05	1273.9	361.08	2.7769e-05	2.993e-05	598.02	222.01	198.94	58.162	3.4854e-05	107.07	-9.759	193.171	173.974	-115.259	138.162	231.089	-115.406	-109.988	13.568	168.655	-110.564	-106.827	-106.343	-101.427	62.096	-102.226	-8191	255	
2906.115	1	1	0	0	0.074861	0.03103	0.049004	0.061708	0.15953	0.32737	0.23424	0.24609	0.12173	0.13187	0.16298	0.091722	0.15474	0.087285	0.058941	0.059529	-1.7917	-2.8125	-2.0667	-2.6333	-2.5833	-2.0062	-3.0146	-2.5271	-2.1979	-2.9229	-2.1542	-2.5021	-2.6396	-2.0083	-2.7479	-2.5646	119.155	139.038	-13.877	154.187	56.346	94.795	170.904	-99.020	8.224	-65.736	230.668	-62.837	-52.011	-114.756	166.669	82.441	0.00060666	0.0016646	0.00057083	818.09	2.5712e-05	2.6607e-05	1013.9	263.15	2.4701e-05	3.1158e-05	440.9	179.83	100.82	44.229	1.4801e-05	92.441	0.0025439	0.0028855	0.00088839	1043.9	2.8635e-05	3.2137e-05	1272.6	357.83	2.8681e-05	3.3804e-05	597.7	219.9	202.37	60.214	3.5635e-05	106.86	-38.194	193.215	-62.671	-115.396	145.255	-126.057	-115.312	-110.638	-13.802	203.897	-110.794	-106.775	-106.118	-101.295	74.347	-102.160	-8191	255	
2906.211	1	1	0	0	0.024269	0.19765	0.15987	0.045688	0.36257	0.19016	0.15277	0.1534	0.18869	0.18933	0.20305	0.077845	0.10038	0.12634	0.19254	0.21603	-1.8479	-2.9354	-2.2083	-2.6417	-2.6646	-2.2062	-2.7604	-2.7083	-2.0833	-2.8	-2.3688	-2.4	-2.5792	-2	-2.725	-2.6354	51.291	159.331	81.249	-23.279	-125.270	203.186	195.960	-74.877	-39.950	218.877	134.677	26.568	51.636	204.402	-75.399	169.794	0.0007287	0.0014048	0.00034277	808.88	1.7237e-05	2.3552e-05	1018.7	261.21	1.1635e-05	2.4658e-05	435.79	178.32	97.342	43.61	3.4406e-05	90.869	0.0026801	0.0032669	0.00090359	1049.9	3.0786e-05	3.691e-05	1273.8	361.45	3.135e-05	3.837e-05	598.26	220.59	213.54	61.665	3.4748e-05	105.49	-66.084	176.307	23.319	-115.620	-52.488	212.079	-115.044	-110.047	222.188	-127.421	-110.811	-106.521	-106.315	-101.100	34.117	-102.566	-8191	255	
2906.307	1	1	0	0	0.071473	0.24184	0.16739	0.11535	0.40074	0.12	0.062464	0.24503	0.11639	0.14476	0.19401	0.42907	0.068736	0.15878	0.11635	0.12023	-1.7437	-2.6521	-2.2667	-2.2562	-2.7521	-2.1625	-2.5583	-2.7854	-2.1708	-2.8771	-2.4542	-2.2521	-2.9229	-2.2521	-2.3125	-2.8875	-78.130	191.933	200.250	46.887	100.926	124.026	205.272	207.452	12.427	222.401	-62.373	187.014	130.919	135.052	52.756	-109.251	0.0013556	0.00045564	0.0009278	801.77	2.2657e-05	5.0124e-06	1010.6	260.78	3.4494e-05	2.5394e-05	437.1	177.95	98.269	44.365	1.6562e-05	91.037	0.0028525	0.003405	0.00084027	1027.4	3.1236e-05	3.5976e-05	1228.6	349.1	3.082e-05	3.5192e-05	567.83	213.18	211.15	59.956	3.0074e-05	103.08	-61.229	46.080	-33.724	-115.521	-97.327	196.421	-115.212	-110.239	218.813	34.230	-110.514	-106.964	-107.045	-101.083	32.418	-102.459	-8191	255	
2906.403	1	1	0	0	0.19677	0.21414	0.1154	0.29314	0.1752	0.22106	0.24718	0.27458	0.24803	0.11315	0.045945	0.17143	0.13033	0.33099	0.10792	0.18554	-1.6146	-2.5479	-2.2625	-2.1917	-2.8083	-2.1562	-2.5896	-2.8604	-1.9583	-2.6104	-2.5271	-2.1146	-2.5833	-2.5604	-2.3812	-2.9562	-110.372	226.675	131.091	201.377	-49.943	50.399	-76.995	-92.488	35.268	-31.876	20.692	166.655	-39.287	-112.019	72.174	223.657	0.0011227	0.0015005	0.00059796	797.95	2.1078e-05	1.7126e-05	1001.5	259.75	2.5508e-05	2.0768e-05	432.9	176.48	98.345	44.088	1.0012e-05	90.448	0.0028766	0.0031176	0.00075817	1004.9	3.2176e-05	3.3366e-05	1196.2	342.37	3.2552e-05	3.2885e-05	552.38	210.11	215.01	57.87	2.8314e-05	102.45	-84.210	-12.661	-40.469	-115.906	-88.264	29.637	-115.247	-109.834	193.860	-11.275	-111.146	-106.824	-106.932	-101.035	-47.914	-102.418	-8191	255	
#DATA ENDS
