BOXY.EXE: ISS Imagent and Oximeter Data Acquisition Program Version 0.80
Ascii Record File

#ACQ INFORMATION
2  Detector Channels 
16  External MUX Channels 
1  Auxiliary Channels 
5000  Waveform (CCF) Frequency (Hz)
1  Waveforms Skipped 
30  Waveforms Averaged 
1  Cycles Averaged 
16  Acquisitions per Waveform 
10.0806  Updata Rate (Hz) 

#FILE INFORMATION
TRUE -- External MUX Channel results are PARSED.
FALSE -- AC DC and Phase are NOT grouped.
TRUE -- Companion Program Settings File CREATED.
FALSE -- AC data not excluded
FALSE -- DC data not excluded
FALSE -- Phase data not excluded
FALSE -- Auxillary Chn. data not excluded
Tab delimiters

#CALIBRATION STATE
TRUE -- Waveform Calibration Values APPLIED.


#AUX CALIBRATION VALUES
Val Type	aux-1	

Term	1.0000e+00	
Factor	0.0000e+00	


#WF CALIBRATION VALUES
A = Detector Channel
Val Type	A-AC1	A-AC2	A-AC3	A-AC4	A-AC5	A-AC6	A-AC7	A-AC8	A-AC9	A-AC10	A-AC11	A-AC12	A-AC13	A-AC14	A-AC15	A-AC16	A-DC1	A-DC2	A-DC3	A-DC4	A-DC5	A-DC6	A-DC7	A-DC8	A-DC9	A-DC10	A-DC11	A-DC12	A-DC13	A-DC14	A-DC15	A-DC16	A-Ph1	A-Ph2	A-Ph3	A-Ph4	A-Ph5	A-Ph6	A-Ph7	A-Ph8	A-Ph9	A-Ph10	A-Ph11	A-Ph12	A-Ph13	A-Ph14	A-Ph15	A-Ph16	

Term	0.00000e+00	0.00000e+00	0.00000e+00	0.00000e+00	0.00000e+00	0.00000e+00	0.00000e+00	0.00000e+00	0.00000e+00	0.00000e+00	0.00000e+00	0.00000e+00	0.00000e+00	0.00000e+00	0.00000e+00	0.00000e+00	0.00000e+00	0.00000e+00	0.00000e+00	0.00000e+00	0.00000e+00	0.00000e+00	0.00000e+00	0.00000e+00	0.00000e+00	0.00000e+00	0.00000e+00	0.00000e+00	0.00000e+00	0.00000e+00	0.00000e+00	0.00000e+00	0.00000e+00	0.00000e+00	0.00000e+00	0.00000e+00	0.00000e+00	0.00000e+00	0.00000e+00	0.00000e+00	0.00000e+00	0.00000e+00	0.00000e+00	0.00000e+00	0.00000e+00	0.00000e+00	0.00000e+00	0.00000e+00	
Factor	1.00000e+00	1.00000e+00	1.00000e+00	1.00000e+00	1.00000e+00	1.00000e+00	1.00000e+00	1.00000e+00	1.00000e+00	1.00000e+00	1.00000e+00	1.00000e+00	1.00000e+00	1.00000e+00	1.00000e+00	1.00000e+00	1.00000e+00	1.00000e+00	1.00000e+00	1.00000e+00	1.00000e+00	1.00000e+00	1.00000e+00	1.00000e+00	1.00000e+00	1.00000e+00	1.00000e+00	1.00000e+00	1.00000e+00	1.00000e+00	1.00000e+00	1.00000e+00	X	X	X	X	X	X	X	X	X	X	X	X	X	X	X	X	

B = Detector Channel
Val Type	B-AC1	B-AC2	B-AC3	B-AC4	B-AC5	B-AC6	B-AC7	B-AC8	B-AC9	B-AC10	B-AC11	B-AC12	B-AC13	B-AC14	B-AC15	B-AC16	B-DC1	B-DC2	B-DC3	B-DC4	B-DC5	B-DC6	B-DC7	B-DC8	B-DC9	B-DC10	B-DC11	B-DC12	B-DC13	B-DC14	B-DC15	B-DC16	B-Ph1	B-Ph2	B-Ph3	B-Ph4	B-Ph5	B-Ph6	B-Ph7	B-Ph8	B-Ph9	B-Ph10	B-Ph11	B-Ph12	B-Ph13	B-Ph14	B-Ph15	B-Ph16	

Term	0.00000e+00	0.00000e+00	0.00000e+00	0.00000e+00	0.00000e+00	0.00000e+00	0.00000e+00	0.00000e+00	0.00000e+00	0.00000e+00	0.00000e+00	0.00000e+00	0.00000e+00	0.00000e+00	0.00000e+00	0.00000e+00	0.00000e+00	0.00000e+00	0.00000e+00	0.00000e+00	0.00000e+00	0.00000e+00	0.00000e+00	0.00000e+00	0.00000e+00	0.00000e+00	0.00000e+00	0.00000e+00	0.00000e+00	0.00000e+00	0.00000e+00	0.00000e+00	-8.63402e+01	-1.28301e+02	-1.03800e+02	-1.75865e+02	-1.14073e+01	-9.31957e+01	-1.64450e+02	-1.61923e+02	-3.25388e+01	-6.50733e+01	-1.79394e+02	-1.69306e+02	-1.75795e+02	-1.70708e+02	-7.57699e+01	-1.59905e+02	
Factor	3.75157e-04	1.23413e-03	3.18699e-04	1.70450e-01	4.10421e-06	1.94945e-05	2.78808e-01	2.32519e-01	9.50602e-06	1.69483e-05	5.42727e+00	2.80746e-01	2.09241e-01	2.33913e-01	1.51734e-05	3.71430e-01	3.15923e-05	3.36516e-05	9.32732e-06	6.64208e-02	3.05018e-07	3.68882e-07	1.02746e-01	9.20121e-02	3.49895e-07	3.70854e-07	1.93302e+00	1.06642e-01	8.34840e-02	9.01328e-02	3.70025e-07	1.37825e-01	X	X	X	X	X	X	X	X	X	X	X	X	X	X	X	X	



#DISTANCE SETTINGS
A = Detector Channel
A-1	A-2	A-3	A-4	A-5	A-6	A-7	A-8	A-9	A-10	A-11	A-12	A-13	A-14	A-15	A-16	

1.0000e+01	1.0000e+01	1.0000e+01	1.4500e+00	1.0000e+01	1.0000e+01	1.5100e+00	1.9500e+00	1.0000e+01	1.0000e+01	2.0100e+00	2.5000e+00	2.4400e+00	2.9500e+00	1.0000e+01	3.0100e+00	

B = Detector Channel
B-1	B-2	B-3	B-4	B-5	B-6	B-7	B-8	B-9	B-10	B-11	B-12	B-13	B-14	B-15	B-16	

1.0000e+01	1.0000e+01	1.0000e+01	1.4500e+00	1.0000e+01	1.0000e+01	1.5100e+00	1.9500e+00	1.0000e+01	1.0000e+01	2.0100e+00	2.5000e+00	2.4400e+00	2.9500e+00	1.0000e+01	3.0100e+00	




#DATA BEGINS
time	group	step	mark	flag	A-AC1	A-AC2	A-AC3	A-AC4	A-AC5	A-AC6	A-AC7	A-AC8	A-AC9	A-AC10	A-AC11	A-AC12	A-AC13	A-AC14	A-AC15	A-AC16	A-DC1	A-DC2	A-DC3	A-DC4	A-DC5	A-DC6	A-DC7	A-DC8	A-DC9	A-DC10	A-DC11	A-DC12	A-DC13	A-DC14	A-DC15	A-DC16	A-Ph1	A-Ph2	A-Ph3	A-Ph4	A-Ph5	A-Ph6	A-Ph7	A-Ph8	A-Ph9	A-Ph10	A-Ph11	A-Ph12	A-Ph13	A-Ph14	A-Ph15	A-Ph16	B-AC1	B-AC2	B-AC3	B-AC4	B-AC5	B-AC6	B-AC7	B-AC8	B-AC9	B-AC10	B-AC11	B-AC12	B-AC13	B-AC14	B-AC15	B-AC16	B-DC1	B-DC2	B-DC3	B-DC4	B-DC5	B-DC6	B-DC7	B-DC8	B-DC9	B-DC10	B-DC11	B-DC12	B-DC13	B-DC14	B-DC15	B-DC16	B-Ph1	B-Ph2	B-Ph3	B-Ph4	B-Ph5	B-Ph6	B-Ph7	B-Ph8	B-Ph9	B-Ph10	B-Ph11	B-Ph12	B-Ph13	B-Ph14	B-Ph15	B-Ph16	aux-1	digaux	

1282.144	1	1	0	256	0.1036	0.10902	0.093713	0.26091	0.019719	0.1697	0.18542	0.31858	0.15874	0.03081	0.18852	0.13833	0.09846	0.11935	0.11746	0.049954	-2.2125	-2.9	-2.4729	-2.8646	-2.6833	-2.1917	-3.1	-2.5479	-2.1417	-2.7062	-2.4146	-2.5396	-2.9229	-2.1771	-2.9729	-2.6063	-15.923	112.746	198.079	221.587	277.885	135.708	235.109	-6.446	207.258	176.121	149.801	258.925	291.924	236.111	182.740	-11.476	0.00025859	0.0011857	0.00013054	1323.7	4.2568e-06	4.4164e-06	1838.9	418.8	3.1921e-06	1.3086e-05	592.21	213.13	159.14	59.571	1.3942e-05	77.403	0.0044834	0.0047242	0.0013091	1317.3	4.3761e-05	5.1826e-05	1845.2	433.36	4.9463e-05	5.1762e-05	824.25	227.24	170.64	70.938	5.1681e-05	93.446	165.401	-7.613	18.012	-54.458	147.408	253.640	-55.359	-49.413	154.718	121.867	-51.465	-46.820	-44.079	-39.171	29.992	-42.888	-8191	255	
1282.240	1	1	0	0	0.28751	0.20448	0.11439	0.19688	0.17455	0.33887	0.092046	0.20579	0.098308	0.43555	0.24751	0.14753	0.063358	0.12768	0.12223	0.15887	-1.9021	-2.8396	-2.1417	-2.7896	-2.9729	-2.2167	-2.9896	-2.5938	-2.2667	-2.8854	-2.2771	-2.6833	-2.7812	-2.3604	-2.7104	-2.7271	289.584	-41.611	112.727	-44.178	67.181	125.485	200.782	224.146	267.847	146.728	36.301	248.486	202.268	-36.008	73.381	127.651	0.00022375	0.00078602	0.00036703	1308.8	1.1891e-06	7.3918e-06	1820.4	412.26	4.4033e-06	1.7961e-05	577.16	209.1	156.06	58.496	2.563e-05	75.245	0.0044895	0.004716	0.0013152	1302	4.3743e-05	5.1776e-05	1819.6	427.48	4.9367e-05	5.1985e-05	814.41	224.11	168.32	69.933	5.2392e-05	91.971	256.798	81.895	-1.288	-54.485	139.895	251.866	-55.461	-49.282	129.959	49.783	-50.346	-46.734	-43.614	-38.742	124.281	-42.342	-8191	255	
1282.336	1	1	0	0	0.24023	0.10167	0.17845	0.14164	0.030149	0.16024	0.38157	0.11738	0.29495	0.21804	0.19444	0.22557	0.31495	0.22538	0.26146	0.29581	-1.9354	-2.8688	-2.2854	-2.7417	-2.8438	-2.3625	-2.8604	-2.5417	-2.1875	-2.9521	-2.5125	-2.4417	-2.7812	-2.4	-2.6021	-2.7875	-22.375	207.098	-37.805	287.955	38.555	280.021	266.254	209.976	274.008	224.221	266.281	23.053	150.408	158.896	253.992	57.735	0.00024112	0.0003353	0.00044811	1263.9	3.0946e-06	3.044e-06	1748.8	395.22	1.2728e-06	8.3761e-06	575.49	204.63	151.6	56.952	1.0079e-05	73.948	0.0044887	0.004732	0.0013221	1259	4.3725e-05	5.2166e-05	1765.3	412.29	4.9776e-05	5.2324e-05	800.12	220.29	163.83	68.535	5.2402e-05	91.004	210.087	-25.808	48.239	-54.326	224.246	42.917	-55.086	-48.892	-48.659	71.390	-49.542	-46.384	-43.562	-38.552	139.261	-41.500	-8191	255	
1282.433	1	1	0	0	0.1559	0.086386	0.060644	0.22779	0.22123	0.16632	0.21757	0.18884	0.22499	0.27008	0.14753	0.15951	0.13778	0.055082	0.1634	0.27156	-1.9479	-2.8667	-2.5354	-2.6396	-2.8187	-2.2896	-2.6521	-2.8146	-2.2708	-2.9396	-2.6208	-2.4854	-3.0708	-2.2687	-2.5208	-2.8688	51.033	262.240	87.581	281.305	100.475	251.553	215.914	-49.768	106.600	-17.894	124.319	27.010	268.161	202.805	18.304	-31.987	0.00018219	0.00070588	0.0002561	1247.5	2.6758e-06	4.6323e-06	1730.3	392.99	3.0563e-06	1.373e-05	559.59	206.2	151.48	57.361	1.0875e-05	74.375	0.0045134	0.0047701	0.0013296	1244.7	4.3867e-05	5.1976e-05	1741.6	409.66	4.9653e-05	5.2042e-05	796.7	220.07	163.87	68.674	5.2006e-05	91.113	119.268	27.192	79.415	-54.294	263.885	211.876	-55.111	-48.945	278.276	137.720	-51.162	-46.461	-43.700	-38.864	43.785	-42.314	-8191	255	
1282.529	1	1	0	0	0.03133	0.086729	0.17029	0.17428	0.093709	0.109	0.14963	0.27795	0.15992	0.11208	0.12158	0.039478	0.066661	0.086543	0.032298	0.075456	-2.0417	-2.7729	-2.5667	-2.5146	-2.9875	-2.5312	-2.8	-2.8604	-2.1792	-2.6646	-2.7	-2.2313	-3.1021	-2.5521	-2.4542	-2.9854	291.522	-58.930	121.432	-35.631	19.541	161.634	272.008	153.032	71.378	-44.912	140.678	209.060	105.883	97.020	249.688	-56.685	0.00027446	0.0013577	0.00031823	1247.8	1.5139e-06	7.0705e-06	1733.5	397.13	4.5137e-06	2.6312e-06	567.96	206.52	151.69	57.696	1.2228e-05	74.476	0.0044825	0.00474	0.0013099	1244	4.3368e-05	5.1381e-05	1746.7	412.49	4.8906e-05	5.1338e-05	795.67	221.17	164.57	68.925	5.1299e-05	90.922	158.288	23.502	8.027	-54.205	-33.567	62.778	-55.036	-48.914	79.319	113.979	-51.065	-46.365	-43.444	-38.599	262.137	-42.155	-8191	255	
1282.625	1	1	0	0	0.23614	0.079606	0.25062	0.30612	0.19989	0.10856	0.15738	0.1349	0.072308	0.19385	0.14093	0.13943	0.28796	0.1443	0.076962	0.11925	-1.7771	-2.7521	-2.5417	-2.4104	-3.05	-2.6021	-2.6875	-3.025	-2.0146	-2.6437	-2.7771	-2.2167	-2.9333	-2.4875	-2.5354	-2.7958	-29.266	61.617	199.541	258.373	-22.256	-24.903	273.610	79.620	95.399	180.176	111.977	-38.796	86.699	-49.382	103.546	77.044	0.00026643	0.00073026	0.00020557	1256.6	1.9112e-06	1.3691e-05	1739	400.83	5.4742e-06	9.733e-06	568.85	207.83	152.8	57.575	4.1232e-06	74.172	0.0043934	0.00465	0.0012832	1244.6	4.2369e-05	5.0369e-05	1745.6	415.03	4.806e-05	5.0285e-05	792.47	221.01	164.83	68.305	4.9989e-05	90.29	232.676	-53.571	79.492	-54.672	239.770	245.023	-55.241	-49.104	31.617	23.731	-50.623	-46.701	-43.627	-39.100	48.311	-41.887	-8191	255	
1282.721	1	1	0	0	0.19813	0.11074	0.15896	0.22891	0.26262	0.28196	0.23606	0.16741	0.21993	0.063364	0.11151	0.11952	0.078493	0.21298	0.093767	0.20441	-1.8083	-2.5729	-2.8042	-2.2583	-2.9146	-2.6375	-2.4771	-2.9354	-2.3354	-2.5312	-2.7979	-2.2062	-2.8583	-2.6396	-2.4375	-3.0354	-32.724	16.766	266.364	272.660	197.232	97.560	268.674	288.628	160.424	16.185	67.713	-43.730	288.700	157.167	-47.330	187.897	0.00032421	0.0014878	0.00054356	1237.9	8.5381e-06	2.006e-05	1730.5	397.37	6.0928e-06	1.9758e-05	571.85	206.27	152.91	57.312	4.1188e-06	73.567	0.0042941	0.0045292	0.0012483	1235.9	4.153e-05	4.9253e-05	1737.6	412.95	4.6965e-05	4.9536e-05	786.84	219.86	164.09	68.019	4.9091e-05	89.712	138.148	86.495	14.843	-54.224	218.348	132.704	-55.136	-48.883	-5.072	59.203	-50.456	-46.518	-43.506	-38.842	284.439	-42.155	-8191	255	
1282.817	1	1	0	0	0.12178	0.16223	0.1531	0.10952	0.27327	0.11711	0.29726	0.057664	0.24791	0.2464	0.14027	0.039885	0.13967	0.14322	0.14139	0.038387	-1.9062	-2.4771	-2.8479	-2.2687	-2.6	-2.8563	-2.4188	-2.8542	-2.4542	-2.45	-2.8104	-2.1021	-2.7562	-2.6188	-2.1521	-2.8563	220.712	81.462	100.493	218.094	154.159	10.477	205.945	152.016	69.349	127.932	100.540	292.622	-11.775	155.520	-15.366	223.538	0.00035708	0.00082198	0.00036916	1251.7	1.9475e-06	1.7708e-05	1741.2	399.62	1.2426e-06	3.2096e-06	568.21	207.14	152.19	57.251	1.1823e-05	73.828	0.0042411	0.0044623	0.0012242	1248.6	4.097e-05	4.8668e-05	1748.7	415.77	4.6313e-05	4.8761e-05	783.1	220.62	163.73	67.643	4.8442e-05	89.308	200.956	46.371	29.645	-54.199	-30.601	43.534	-55.239	-49.035	37.032	132.797	-50.985	-46.371	-43.694	-38.610	-10.436	-42.521	-8191	255	
1282.936	1	1	0	0	0.30455	0.10305	0.18211	0.17862	0.42704	0.13714	0.19739	0.20158	0.13177	0.07809	0.12651	0.1436	0.11209	0.10049	0.15425	0.038205	-2.1021	-2.4521	-2.8417	-2.3646	-2.6042	-2.775	-2.5083	-2.8312	-2.5854	-2.3438	-2.9875	-2.2167	-2.7021	-2.8146	-2.3104	-2.9	33.525	14.286	-63.373	105.590	276.848	46.123	224.265	-57.832	263.176	166.657	72.283	43.467	-11.472	258.785	113.243	45.517	0.00012573	0.00015435	8.0732e-05	1230.7	5.206e-06	2.097e-05	1716.9	394.88	6.2762e-06	1.9721e-05	569	206.36	151.53	57.103	4.3871e-06	73.717	0.0041791	0.0044142	0.0012123	1228.1	4.0583e-05	4.7862e-05	1730.1	410.99	4.5787e-05	4.8319e-05	780.41	220.54	163.23	67.512	4.7871e-05	89.779	69.398	156.273	278.289	-54.276	262.663	215.191	-54.974	-48.928	120.666	200.949	-50.733	-46.373	-43.605	-38.225	115.588	-42.185	-8191	255	
1283.032	1	1	0	0	0.023442	0.17459	0.31376	0.1246	0.043367	0.16264	0.20779	0.099147	0.13039	0.14786	0.19139	0.069349	0.30438	0.18755	0.25724	0.10301	-2.1458	-2.3917	-2.8312	-2.6167	-2.6333	-2.9813	-2.3271	-2.7604	-2.6729	-2.3479	-2.9021	-2.3396	-2.4917	-2.8896	-2.0896	-2.8146	284.297	212.611	-21.389	199.251	-3.091	-26.827	251.246	-13.904	135.737	76.062	285.857	185.213	245.829	114.416	-17.190	156.655	0.00015268	0.00047678	0.00039725	1240.1	2.6076e-06	1.5387e-05	1744.2	404.37	6.1416e-06	1.3154e-05	575.85	208.4	153.77	58.098	5.9465e-06	74.47	0.0041377	0.0043511	0.0012025	1236.7	4.0356e-05	4.7442e-05	1748.4	417.82	4.5145e-05	4.798e-05	786.46	223.05	165.58	68.154	4.7612e-05	90.131	166.028	42.406	8.348	-54.095	80.681	54.697	-55.376	-49.532	283.185	73.507	-50.875	-46.151	-43.705	-38.815	231.727	-42.138	-8191	255	
1283.106	1	1	0	0	0.07868	0.16141	0.14627	0.63086	0.035043	0.1588	0.11078	0.26173	0.20427	0.1256	0.36459	0.14092	0.2134	0.20019	0.16564	0.14236	-2.2896	-2.1688	-2.875	-2.6479	-2.6958	-3.1063	-2.625	-2.9313	-2.725	-2.3958	-2.9313	-2.5208	-2.4833	-2.8312	-2.3229	-2.6833	57.192	41.323	170.186	-37.663	240.684	168.148	164.207	268.364	1.768	62.188	156.850	125.474	41.247	48.276	83.598	140.895	0.00033794	0.00077493	0.00010173	1240.8	6.1509e-06	1.0082e-05	1738.4	402.23	9.9052e-06	1.1163e-05	577.51	209.82	155.33	58.601	6.9395e-07	73.601	0.0041443	0.0043511	0.0012044	1240.7	4.0318e-05	4.7494e-05	1746.3	417.27	4.5742e-05	4.7982e-05	785.55	222.79	165.23	68.13	4.8161e-05	90.11	-10.723	49.561	121.639	-54.053	271.628	224.600	-55.265	-49.134	271.889	0.153	-50.725	-46.785	-44.350	-39.228	197.047	-41.990	-8191	255	
1283.225	1	1	0	0	0.11438	0.22608	0.26081	0.19513	0.030866	0.16589	0.11887	0.1986	0.13227	0.20585	0.221	0.21595	0.19978	0.23649	0.22475	0.038271	-2.2333	-2.2771	-2.9333	-2.6583	-2.2146	-2.9208	-2.3479	-2.6063	-2.7958	-2.2854	-2.875	-2.4917	-2.2062	-2.8667	-2.2396	-2.5938	290.093	-29.945	233.278	256.749	-52.597	18.645	-2.980	-25.679	193.948	267.980	211.849	182.627	233.355	44.981	60.790	-44.665	0.00039031	0.00076999	0.00023339	1232.1	2.1433e-06	1.9294e-05	1720.8	396.75	5.5247e-06	1.2581e-05	580.27	206.9	150.48	57.148	1.1157e-05	74	0.0041766	0.0044332	0.0012198	1228	4.0613e-05	4.8147e-05	1732.5	412.03	4.5981e-05	4.8627e-05	785.91	220.85	162.41	67.43	4.9066e-05	89.594	99.460	67.105	109.018	-54.174	-36.133	-10.233	-55.163	-49.012	175.338	149.327	-51.230	-46.451	-43.581	-39.161	74.299	-42.316	-8191	255	
1283.321	1	1	0	0	0.11408	0.24943	0.12465	0.34164	0.3048	0.27092	0.10709	0.17607	0.11715	0.34599	0.12056	0.1903	0.27672	0.17187	0.087246	0.15136	-2.4354	-2.1937	-2.8146	-2.7188	-2.4375	-3.0354	-2.4813	-2.5417	-2.8104	-2.3917	-2.875	-2.7542	-2.3292	-2.8312	-2.4271	-2.3937	79.736	91.370	107.164	262.256	168.183	275.515	-39.913	180.714	-34.208	80.780	108.645	233.239	283.030	244.127	-54.865	-57.111	0.00045287	0.00077721	0.00055284	1214.6	2.284e-06	1.4096e-05	1704	394.91	4.3686e-06	1.2102e-05	574.81	208.06	151.76	57.603	1.4192e-05	74.331	0.0042157	0.0044455	0.0012285	1212.9	4.1172e-05	4.8426e-05	1721.7	410.26	4.6374e-05	4.9025e-05	788.78	222.03	163.58	67.897	4.89e-05	90.24	228.783	-24.853	13.525	-54.104	269.528	105.079	-54.870	-48.883	189.613	257.111	-50.024	-46.439	-43.719	-38.867	-7.444	-42.317	-8191	255	
1283.417	1	1	0	0	0.23309	0.17678	0.18637	0.38162	0.18684	0.33401	0.061367	0.13017	0.17987	0.20868	0.16297	0.086377	0.083395	0.24104	0.18619	0.068344	-2.6896	-2.2438	-2.7938	-2.9292	-2.1708	-2.9854	-2.6312	-2.2896	-3.0979	-2.4146	-2.6937	-2.6896	-2.2979	-2.8187	-2.5854	-2.2896	-34.528	283.061	291.332	269.347	134.889	192.041	217.503	38.209	27.749	204.166	-64.528	-38.616	280.871	155.485	169.257	208.952	0.00032368	0.00053638	0.00018571	1222.6	2.9938e-06	1.4422e-05	1720.3	397.09	7.6284e-06	6.9878e-06	571.76	210.06	152.85	58.433	6.6943e-06	74.766	0.0042142	0.0044509	0.0012428	1225.6	4.1181e-05	4.8787e-05	1736.6	414.07	4.6317e-05	4.9369e-05	794.02	224.05	165.02	68.661	4.916e-05	90.931	224.517	-61.797	263.383	-53.817	247.586	65.233	-54.831	-48.813	43.108	-3.112	-50.518	-46.404	-43.623	-38.901	189.504	-42.326	-8191	255	
1283.537	1	1	0	0	0.21215	0.059267	0.088234	0.16226	0.086909	0.030855	0.25045	0.055586	0.23356	0.30388	0.090409	0.17718	0.0060354	0.16432	0.17463	0.12411	-2.6542	-2.2917	-2.7333	-3.0062	-2.2708	-2.7104	-2.7958	-2.1729	-3.0854	-2.3167	-2.6854	-2.8583	-2.1833	-2.675	-2.5521	-2.375	178.299	62.846	180.995	195.284	214.267	-2.998	258.915	121.349	-38.984	119.469	229.113	151.586	26.822	104.125	38.605	193.190	0.00024558	0.00044176	0.00031834	1235.3	2.9948e-06	7.6031e-06	1726.4	400.34	4.1803e-06	1.4452e-05	582.61	209.92	154.13	58.129	1.0168e-05	74.903	0.004207	0.0044781	0.0012392	1232.5	4.1151e-05	4.8825e-05	1739.8	417.16	4.6418e-05	4.9511e-05	798.75	224.78	166.11	69.038	4.9795e-05	91.096	228.037	139.391	24.098	-54.046	210.891	15.666	-55.005	-49.131	173.155	93.651	-49.626	-46.597	-43.678	-38.212	87.411	-42.279	-8191	255	
1283.634	1	1	0	0	0.15662	0.19625	0.29943	0.19026	0.085175	0.19992	0.14476	0.31128	0.24541	0.12408	0.084997	0.10233	0.17602	0.10841	0.067571	0.27645	-2.5667	-2.4125	-2.5854	-3.1562	-2.3354	-2.8604	-2.8646	-2.175	-2.975	-2.4771	-2.325	-2.8937	-2.3208	-2.7229	-2.8167	-2.4521	238.357	-15.293	230.778	276.321	-10.588	197.799	155.218	235.600	109.823	150.574	241.422	287.976	66.103	287.458	104.368	-36.938	0.00015808	0.0011497	0.00014209	1237.8	4.4292e-06	2.023e-05	1730.1	403.71	5.9528e-06	1.59e-05	588.68	210.73	155.24	58.384	7.0315e-06	75.172	0.0042725	0.004575	0.0012631	1236.1	4.1887e-05	5.0018e-05	1745.9	418.91	4.777e-05	5.0785e-05	808.12	225.31	166.9	69.447	5.1548e-05	91.862	159.243	-4.323	-31.492	-54.027	-61.235	179.700	-55.013	-49.042	242.647	82.541	-51.037	-46.343	-43.724	-39.012	110.678	-41.784	-8191	255	
1283.705	1	1	0	0	0.24739	0.13671	0.11983	0.25574	0.2818	0.088485	0.030289	0.16977	0.18658	0.20696	0.18286	0.15657	0.11558	0.25191	0.1977	0.093239	-2.3542	-2.3979	-2.2833	-3.2458	-2.3396	-2.7792	-2.9042	-2.0833	-2.8896	-2.5958	-2.4813	-3.0771	-2.325	-2.5312	-2.7771	-2.1042	13.313	188.656	269.117	226.156	270.249	75.786	236.543	181.811	283.871	254.513	243.797	96.856	13.515	-54.617	9.185	210.957	0.00011771	0.0010783	0.00017148	1230.6	4.3611e-06	6.9351e-06	1728.9	399.82	4.417e-06	6.9794e-06	577.69	209.51	153.46	58.157	1.5465e-05	75.102	0.0044724	0.0047618	0.0013184	1233.3	4.371e-05	5.2243e-05	1745	417.69	4.9724e-05	5.2526e-05	814.98	225.06	166.52	69.649	5.2456e-05	92.045	-56.693	7.220	59.051	-53.860	-45.919	99.724	-55.044	-48.706	189.909	84.788	-50.456	-46.253	-43.717	-38.938	23.928	-41.989	-8191	255	
1283.826	1	1	0	0	0.16772	0.20446	0.14219	0.28697	0.058639	0.1821	0.098633	0.044311	0.023944	0.11437	0.073086	0.20858	0.31773	0.19155	0.35155	0.058638	-2.6583	-2.4771	-2.3854	-3.1479	-2.3354	-2.6604	-3.0458	-2.3604	-2.9188	-2.6562	-2.3812	-2.9479	-2.5	-2.4979	-2.9833	-2.325	-11.074	69.472	-2.441	262.679	288.222	138.655	136.667	-3.173	38.317	29.547	-25.247	162.643	28.236	172.142	-57.338	267.592	0.00022741	0.0013352	0.00029099	1235.5	2.4742e-06	2.4086e-05	1730.2	400.15	6.4919e-06	2.7789e-06	591.53	211.18	154.19	58.102	3.6967e-06	75.498	0.0045372	0.0048015	0.0013336	1239	4.4332e-05	5.2737e-05	1754.7	419.65	5.0314e-05	5.3052e-05	820.36	225.96	166.87	69.844	5.2614e-05	92.609	86.508	87.937	15.036	-53.888	286.447	53.566	-54.668	-48.661	182.717	132.811	-50.704	-46.541	-43.578	-38.779	188.422	-41.790	-8191	255	
1283.920	1	1	0	0	0.12344	0.25874	0.15684	0.048859	0.075276	0.087667	0.023303	0.15833	0.19558	0.19555	0.15285	0.09626	0.27156	0.20711	0.10526	0.21475	-2.4833	-2.6937	-2.3083	-3.1792	-2.4479	-2.6271	-3.1437	-2.1937	-2.6083	-2.8604	-2.2833	-3.0812	-2.4646	-2.3812	-3.0312	-2.3458	-1.181	144.316	-7.150	201.850	127.507	242.520	161.281	43.176	115.508	193.848	-61.666	176.067	132.237	1.870	69.596	253.499	0.00026535	0.00047752	0.00014722	1241.1	3.2395e-06	5.2476e-06	1738.1	402.45	4.1553e-06	3.4516e-06	581.58	209.62	152.97	58.062	1.0096e-05	74.662	0.004582	0.0047906	0.0013392	1241.4	4.4434e-05	5.3169e-05	1753.2	419.82	5.0211e-05	5.2945e-05	817.05	225.67	166.53	69.666	5.2854e-05	92.103	284.242	276.008	91.226	-54.062	249.893	43.111	-54.871	-48.766	240.004	249.140	-50.814	-46.171	-43.410	-38.945	14.310	-41.847	-8191	255	
1284.016	1	1	0	0	0.22148	0.14408	0.29975	0.33862	0.27924	0.26395	0.095542	0.27049	0.11242	0.13386	0.080009	0.18719	0.080829	0.24909	0.14421	0.24189	-2.1229	-2.7104	-2.1771	-3.2375	-2.6604	-2.3312	-3.1417	-2.3646	-2.6104	-2.9292	-2.1917	-2.6854	-2.6146	-2.3854	-2.9708	-2.3583	64.149	59.548	-36.391	242.674	2.342	187.535	237.852	167.368	163.819	-62.204	-14.358	48.447	239.704	183.911	-19.934	191.390	7.3466e-05	0.00013263	0.00025975	1226.4	2.0984e-06	1.8473e-05	1713	397.84	6.2177e-06	1.8557e-05	570.05	208.67	153.25	58.249	1.3508e-05	74.426	0.0045588	0.0048163	0.0013337	1229.6	4.4468e-05	5.2733e-05	1735.7	416.32	5.0569e-05	5.2675e-05	812.86	224.61	166.95	70.036	5.2681e-05	92.451	-33.371	254.889	35.812	-53.798	28.185	93.493	-54.666	-48.724	192.024	69.236	-50.457	-46.244	-43.093	-38.918	72.090	-41.894	-8191	255	
1284.113	1	1	0	0	0.17509	0.1589	0.13108	0.18194	0.091947	0.15673	0.20105	0.11886	0.10422	0.21981	0.095574	0.38474	0.11595	0.17985	0.084963	0.1214	-2.2021	-2.8187	-2.1625	-3.0729	-2.5771	-2.2625	-3.1521	-2.4417	-2.6417	-2.825	-2.175	-2.5396	-2.5771	-2.2646	-2.8375	-2.3979	75.116	20.660	-21.654	131.965	276.789	-28.280	268.051	195.611	-29.283	132.805	-44.446	-59.647	42.455	228.523	154.696	222.328	0.0003269	0.00067187	5.5635e-05	1233	5.1081e-06	1.3096e-05	1728	403.97	7.7148e-06	1.3613e-05	579.26	210.41	155.76	59.005	8.0792e-06	75.219	0.0045949	0.0048064	0.0013377	1241.5	4.4325e-05	5.2839e-05	1751.1	420.94	5.0375e-05	5.2878e-05	814.16	225.37	168.08	70.35	5.3079e-05	92.38	141.926	-23.811	283.997	-53.579	271.085	11.928	-54.739	-48.879	80.591	49.388	-50.721	-46.655	-43.649	-39.272	117.272	-42.277	-8191	255	
1284.233	1	1	0	0	0.24407	0.079041	0.34236	0.072173	0.12568	0.16309	0.17891	0.26607	0.053615	0.16328	0.081702	0.028576	0.35321	0.34034	0.24763	0.26543	-2.1604	-2.8542	-2.0771	-2.8979	-2.7812	-2.425	-3.1667	-2.4396	-2.3667	-2.9875	-2.4271	-2.6396	-2.6771	-2.3104	-2.6813	-2.475	77.673	286.000	73.136	229.021	44.880	-40.147	217.730	224.041	145.598	97.844	195.660	-0.737	-4.984	240.832	53.607	190.504	0.00026686	0.0012761	0.00020465	1256	1.2309e-06	6.3169e-06	1747.5	406.38	6.8076e-06	1.0264e-05	575.49	209.31	154.95	58.43	8.4055e-06	75.176	0.0045897	0.0048221	0.0013444	1252.6	4.4591e-05	5.2818e-05	1757.7	421.52	5.0625e-05	5.2825e-05	814.85	224.67	167.25	69.962	5.3257e-05	92.257	207.282	41.270	32.462	-54.235	87.631	-43.424	-55.260	-49.097	197.512	158.820	-50.917	-46.902	-43.975	-38.962	113.043	-42.513	-8191	255	
1284.329	1	1	0	0	0.20135	0.15633	0.15403	0.14397	0.1382	0.21754	0.33344	0.20289	0.1141	0.16035	0.042898	0.18961	0.28969	0.090718	0.16123	0.19978	-1.6979	-2.7292	-2.3646	-2.7354	-2.7396	-2.2542	-3.0708	-2.625	-2.2708	-3.025	-2.3771	-2.4688	-2.8396	-2.1771	-2.6979	-2.6125	108.744	100.954	-17.451	260.579	174.398	9.725	224.522	286.372	-19.857	15.880	12.801	-14.439	57.818	109.677	-5.139	190.466	0.00019031	0.0013639	8.5531e-05	1252.3	5.5349e-06	9.4415e-06	1742.5	405.31	4.7912e-06	8.3891e-06	584.45	210.94	154.05	58.415	6.3067e-06	75.052	0.004597	0.0048282	0.0013468	1250.5	4.4448e-05	5.2794e-05	1756.8	421.04	5.0438e-05	5.2881e-05	819.75	225.28	167.19	69.993	5.3139e-05	92.507	138.838	43.045	208.956	-54.222	214.906	269.459	-54.952	-49.174	119.821	84.194	-49.428	-46.477	-43.393	-38.200	62.604	-41.913	-8191	255	
1284.401	1	1	0	0	0.12264	0.2667	0.19742	0.073988	0.13819	0.24946	0.095792	0.11069	0.20218	0.12819	0.24734	0.12879	0.13588	0.11695	0.1375	0.091173	-1.9667	-2.7083	-2.3875	-2.6646	-3.0021	-2.2375	-2.9917	-2.725	-2.2438	-3.05	-2.425	-2.4646	-2.8146	-2.0021	-2.6729	-2.875	16.036	265.729	14.803	188.724	280.957	207.687	-50.557	225.876	270.098	36.107	54.888	237.768	203.057	139.154	-35.038	-32.731	0.00011523	0.00069113	0.00051081	1258.1	4.8312e-06	2.508e-05	1755.7	405.67	6.5603e-06	9.3494e-06	583.74	211	154.87	58.802	2.243e-06	74.807	0.0045644	0.0048266	0.0013412	1254.5	4.4507e-05	5.2785e-05	1765.3	423.21	5.0132e-05	5.3105e-05	819.26	225.63	167.97	70.108	5.3341e-05	92.174	179.828	-1.803	25.647	-54.267	241.582	21.299	-55.225	-48.982	-11.349	110.560	-50.984	-46.836	-43.742	-38.704	-45.068	-41.192	-8191	255	
1284.497	1	1	0	0	0.013988	0.14995	0.066484	0.23874	0.074949	0.16375	0.25684	0.22255	0.17207	0.17593	0.08355	0.056391	0.067658	0.18069	0.041878	0.096569	-1.7625	-2.9771	-2.4792	-2.4688	-2.7875	-2.0812	-2.8458	-2.5292	-2.125	-2.7729	-2.6188	-2.2833	-3.075	-2.2729	-2.6562	-2.8063	96.687	111.057	197.638	-55.250	-58.396	156.517	248.698	201.897	279.340	244.035	280.981	181.808	31.284	51.586	5.455	15.867	0.00018816	0.00035578	6.2109e-05	1245.3	1.7455e-06	2.9593e-05	1732.9	400.89	6.4422e-06	2.1351e-05	581.41	208.44	152.98	58.346	9.5584e-06	73.932	0.004569	0.0048282	0.0013401	1243.5	4.4167e-05	5.2565e-05	1746.4	418.24	5.0111e-05	5.2949e-05	813.63	223.07	166.07	69.606	5.3192e-05	91.339	141.372	180.907	26.195	-54.254	-1.323	31.543	-55.028	-48.769	149.318	107.738	-49.833	-46.303	-43.581	-38.496	19.949	-42.046	-8191	255	
1284.618	1	1	0	0	0.13623	0.066668	0.067943	0.26407	0.067335	0.15096	0.22133	0.050979	0.17875	0.13035	0.10053	0.012275	0.17335	0.16372	0.060135	0.13974	-1.8188	-2.8229	-2.5583	-2.4813	-3.0208	-2.2542	-2.7083	-2.8667	-2.1813	-2.7729	-2.7729	-2.0979	-2.9188	-2.2625	-2.4792	-2.6896	136.398	35.517	188.771	-32.010	6.098	196.485	243.056	190.750	230.253	-25.696	147.724	178.555	151.899	184.983	280.461	177.985	0.0001502	0.0007619	0.00017162	1241.8	2.1151e-06	8.1377e-06	1719.7	397.02	4.2422e-06	2.0137e-05	569.43	205.04	151.79	57.711	7.3541e-06	73.756	0.0045477	0.0048111	0.0013373	1235.4	4.4003e-05	5.2663e-05	1736	414.49	5.0141e-05	5.318e-05	807.3	221.26	164.68	69.091	5.3036e-05	91.019	160.638	71.731	-9.018	-54.311	256.942	60.927	-54.938	-48.600	-61.811	99.048	-50.529	-46.237	-43.348	-38.711	-15.114	-41.798	-8191	255	
1284.714	1	1	0	0	0.13445	0.037591	0.21464	0.27654	0.12174	0.31695	0.23954	0.17521	0.06174	0.1881	0.12334	0.28103	0.36705	0.22041	0.1312	0.13638	-1.8625	-2.6667	-2.6292	-2.5	-2.8625	-2.2896	-2.5062	-2.9396	-2.1896	-2.7458	-2.6896	-2.1063	-2.9292	-2.6167	-2.5583	-2.9729	-42.134	120.930	205.705	276.740	173.236	141.002	217.468	215.563	69.390	105.755	174.582	127.650	213.813	142.287	-53.635	152.086	0.00016633	0.00072754	0.00018872	1239.6	1.6705e-06	1.032e-05	1740.4	399.63	3.8203e-06	1.4219e-05	571.53	206.96	152.06	57.433	2.0306e-05	74.298	0.00457	0.0048115	0.0013367	1242.2	4.4292e-05	5.2604e-05	1756.5	418.09	5.0093e-05	5.2793e-05	812.6	223.03	165.9	69.534	5.2914e-05	91.586	55.825	81.592	140.097	-53.949	185.530	54.044	-55.044	-48.677	258.804	-26.595	-50.435	-46.163	-42.828	-37.998	157.347	-42.104	-8191	255	
1284.808	1	1	0	0	0.10042	0.10497	0.12893	0.40996	0.20196	0.16188	0.071949	0.053596	0.16825	0.20989	0.20842	0.25705	0.10823	0.16859	0.076403	0.22605	-1.8	-2.5833	-2.8	-2.3458	-3.0417	-2.4562	-2.5396	-2.8958	-2.2604	-2.6667	-2.6542	-2.1667	-2.9542	-2.5354	-2.3688	-2.8167	265.687	113.388	46.637	249.762	257.799	237.168	-34.564	-11.680	32.631	140.472	26.583	217.214	47.416	217.225	78.775	69.629	0.00030137	0.0013878	0.00047945	1247.6	9.1288e-07	7.0728e-06	1748.7	404.09	7.6677e-06	5.1519e-06	583.96	208.56	154.91	58.604	6.1729e-06	75.551	0.0045384	0.004813	0.0013247	1252	4.4303e-05	5.2558e-05	1778.7	423.21	4.9922e-05	5.2864e-05	818.75	225.09	168.11	69.983	5.2476e-05	92.251	179.941	-10.106	75.818	-53.861	252.662	9.654	-54.495	-48.508	55.815	127.668	-50.708	-46.258	-43.654	-38.397	-13.533	-42.251	-8191	255	
1284.906	1	1	0	0	0.040727	0.14258	0.069185	0.12365	0.027526	0.11668	0.21853	0.10363	0.21265	0.059072	0.13774	0.0042748	0.13687	0.2002	0.043744	0.20445	-1.9604	-2.3208	-2.7833	-2.4479	-2.8563	-2.6479	-2.475	-2.975	-2.2208	-2.4521	-2.9083	-2.2854	-2.7708	-2.6979	-2.1917	-2.9583	-45.843	169.799	265.157	213.990	289.030	199.266	237.856	-36.030	240.427	-13.357	-50.528	273.206	49.285	51.113	6.158	122.254	0.00035207	0.00084395	0.00032079	1271.7	3.2882e-06	1.1158e-05	1785.8	410.88	6.933e-06	1.2095e-05	580.96	210.39	153.82	58.47	1.8926e-05	74.629	0.0045423	0.004827	0.00133	1263.8	4.3929e-05	5.233e-05	1792.4	426.2	5.0052e-05	5.2874e-05	819.54	225.61	168.4	70.225	5.2404e-05	91.998	289.572	67.083	3.247	-54.478	277.875	228.914	-55.445	-49.271	33.637	155.518	-50.762	-45.869	-43.077	-38.190	99.102	-41.396	-8191	255	
1285.001	1	1	0	0	0.053108	0.17444	0.12342	0.32147	0.069807	0.051116	0.28859	0.09334	0.36473	0.21132	0.19775	0.1771	0.12571	0.25253	0.15122	0.036995	-2.1146	-2.3875	-2.8396	-2.5208	-2.5083	-2.6271	-2.3458	-2.9542	-2.4958	-2.5104	-2.8375	-2.1604	-2.6771	-2.7104	-2.1646	-2.6604	22.886	254.448	57.443	244.537	251.130	163.575	285.674	281.968	-27.655	192.354	139.362	177.726	141.680	91.120	157.977	105.748	0.0002782	0.00094604	0.00018644	1259.7	3.7393e-06	2.7489e-05	1754.2	401.49	8.2061e-06	1.1687e-05	577.59	207.49	152.38	58.668	2.3005e-05	74.987	0.0045384	0.0048021	0.0013153	1258.1	4.404e-05	5.1999e-05	1780.5	421.89	5.0118e-05	5.2458e-05	814.99	223.99	166.55	69.471	5.256e-05	91.414	141.994	24.145	201.425	-54.124	159.930	53.580	-54.447	-48.514	260.331	68.096	-49.676	-45.991	-43.538	-39.172	95.671	-42.391	-8191	255	
1285.097	1	1	0	0	0.054852	0.19522	0.11434	0.19295	0.33785	0.050842	0.10255	0.19969	0.1476	0.11983	0.1274	0.15597	0.23695	0.37792	0.20057	0.15852	-2.0625	-2.1979	-2.8979	-2.45	-2.5625	-2.9833	-2.5	-2.8021	-2.55	-2.2458	-2.9437	-2.4604	-2.4292	-2.7812	-2.1667	-2.9042	188.333	209.395	33.658	261.076	256.957	40.331	107.478	211.034	177.724	-40.570	-61.348	-26.295	150.323	-15.742	187.522	205.765	0.00030801	0.00042082	0.00012353	1248.1	1.4351e-06	8.2463e-06	1754.7	399.64	1.1124e-05	1.2028e-05	576.84	207.7	151.91	57.536	8.7268e-06	73.155	0.0045305	0.0048011	0.0013185	1241	4.3994e-05	5.2052e-05	1766	416.36	4.9734e-05	5.2774e-05	808.64	222.36	164.81	68.681	5.2462e-05	90.822	181.965	120.768	244.760	-54.278	-56.080	39.155	-54.992	-49.066	289.236	-37.777	-49.972	-46.437	-43.602	-38.578	107.937	-41.652	-8191	255	
1285.217	1	1	0	0	0.090125	0.089153	0.12174	0.24722	0.072605	0.037512	0.1654	0.074741	0.069786	0.1019	0.29559	0.10696	0.047367	0.10469	0.13991	0.23797	-2.1437	-2.2292	-2.8042	-2.6521	-2.4354	-2.8812	-2.7021	-2.8417	-2.6333	-2.2208	-2.9146	-2.3937	-2.3812	-2.8271	-2.0687	-2.5896	143.167	285.569	174.143	258.707	145.249	247.078	9.001	86.827	79.591	192.507	21.061	78.295	58.220	45.828	184.387	94.976	0.00022087	0.0010633	0.00030374	1234.7	4.2159e-06	1.9658e-05	1763.8	401.63	6.8739e-06	8.5309e-06	584.2	208.59	152.59	57.818	8.2939e-06	74.528	0.0045024	0.0047712	0.0013184	1239.7	4.4033e-05	5.214e-05	1781.5	420.83	4.9722e-05	5.2514e-05	819.51	224.29	166.4	69.255	5.2519e-05	91.749	12.498	-8.538	-26.466	-53.722	248.546	53.237	-54.919	-48.573	26.260	53.314	-51.055	-46.424	-43.023	-38.485	68.944	-42.202	-8191	255	
1285.314	1	1	0	0	0.23506	0.24052	0.28245	0.17397	0.35281	0.35021	0.25487	0.25703	0.13192	0.51536	0.1976	0.14575	0.23129	0.0081736	0.10422	0.24274	-2.4917	-2.3187	-2.7938	-2.7979	-2.3229	-3.0917	-2.5187	-2.6146	-2.8896	-2.3646	-2.95	-2.65	-2.3021	-2.8729	-2.3937	-2.6417	-12.537	-61.890	208.208	258.913	-36.020	79.770	262.933	104.943	65.118	42.443	86.800	29.783	179.226	77.617	252.283	263.927	0.00023081	0.0002091	8.021e-05	1241.6	3.6546e-06	1.4439e-05	1763.8	400.86	2.3394e-06	6.1943e-06	586.78	208.55	152.55	57.16	4.3601e-06	73.509	0.0045088	0.0047848	0.0013233	1249.5	4.4017e-05	5.1743e-05	1793.7	422.36	4.9498e-05	5.2226e-05	817.2	224.81	165.75	68.956	5.2058e-05	91.302	214.357	118.445	161.820	-53.471	289.952	220.797	-54.446	-48.441	-4.374	21.636	-50.717	-46.152	-43.439	-38.071	-25.853	-41.733	-8191	255	
1285.410	1	1	0	0	0.22928	0.13681	0.054953	0.015042	0.18434	0.11276	0.042024	0.10086	0.079313	0.15668	0.069475	0.22328	0.18568	0.16037	0.37457	0.25254	-2.3083	-2.2438	-2.6542	-2.8396	-2.3042	-3.0854	-2.6021	-2.5875	-2.8542	-1.975	-2.7042	-2.6708	-2.35	-3.0208	-2.4208	-2.4646	90.751	261.498	275.933	-2.103	101.215	-49.646	-57.742	-41.512	234.653	179.938	200.277	115.411	276.759	199.998	232.517	195.209	4.7043e-05	0.00079114	0.00022575	1216.4	3.724e-07	7.1826e-06	1734.4	395.24	7.8636e-06	5.7756e-06	569.27	206.61	150.02	56.639	1.22e-05	73.585	0.0044941	0.0047533	0.0013219	1223.8	4.3836e-05	5.1869e-05	1762.3	413.95	4.9595e-05	5.2289e-05	810.04	222.48	163.42	68.19	5.2664e-05	90.358	150.583	8.436	-43.452	-53.477	-40.022	90.397	-54.458	-48.729	1.145	-41.843	-49.769	-46.088	-43.100	-37.936	136.397	-42.411	-8191	255	
1285.506	1	1	0	0	0.08027	0.15003	0.059519	0.16465	0.26358	0.22202	0.27338	0.35712	0.14181	0.13295	0.20236	0.18654	0.14586	0.18495	0.14112	0.054672	-2.3854	-2.5146	-2.6188	-2.8708	-2.4667	-3.0854	-2.6271	-2.3167	-2.8771	-2.2396	-2.6125	-2.7896	-2.2417	-3.1688	-2.4437	-2.3688	219.058	-50.400	104.806	152.616	-6.558	158.858	251.489	144.668	-20.833	-61.573	285.183	270.724	101.276	163.023	-42.268	-51.985	0.00024317	0.00087808	0.00025789	1222.8	7.4989e-07	3.0097e-05	1753.3	398.04	4.4217e-06	2.1564e-05	589.1	208.08	150.53	56.672	6.7775e-06	73.578	0.004502	0.0048	0.0013289	1209.9	4.4019e-05	5.2144e-05	1749.6	410.97	4.9683e-05	5.2778e-05	814.16	222.17	163.06	67.982	5.2716e-05	90.478	57.916	33.557	-11.910	-54.721	268.692	73.466	-55.559	-49.530	-58.937	40.192	-51.073	-46.625	-44.142	-38.792	186.829	-42.398	-8191	255	
1285.627	1	1	0	0	0.25585	0.032722	0.12264	0.13333	0.32549	0.26929	0.27087	0.18647	0.24957	0.3419	0.1815	0.25053	0.20768	0.21858	0.21472	0.13682	-2.5062	-2.2604	-2.5812	-3.2104	-2.2625	-2.9604	-2.8417	-2.4354	-2.7833	-2.4062	-2.7042	-2.9083	-2.2542	-2.9583	-2.6083	-2.1937	64.088	191.534	78.334	250.094	214.531	-49.619	211.675	120.267	144.703	-27.889	-25.740	166.795	194.913	83.673	181.579	50.278	0.00029558	0.00023529	0.00026726	1222.6	5.4945e-06	1.8485e-05	1731.7	395.08	1.1311e-05	9.914e-06	585.6	206.9	149.45	56.019	9.0384e-06	73.252	0.0044935	0.0048045	0.0013372	1214.8	4.4081e-05	5.2265e-05	1757	414.24	4.9537e-05	5.284e-05	816.32	222.38	162.98	67.818	5.2087e-05	90.061	242.733	114.395	82.544	-54.427	-62.459	-44.864	-54.519	-48.697	184.329	109.352	-50.693	-46.262	-43.093	-38.089	-9.830	-41.899	-8191	255	
1285.698	1	1	0	0	0.067572	0.19787	0.30489	0.21216	0.36293	0.2353	0.32535	0.1945	0.096293	0.15995	0.12632	0.22766	0.27402	0.15146	0.25754	0.24203	-2.5062	-2.4083	-2.4667	-3.0958	-2.1646	-2.7729	-2.5729	-2.3063	-2.9625	-2.3896	-2.375	-2.9458	-2.0146	-2.65	-2.8542	-2.1354	-61.492	-44.277	231.980	138.057	55.219	-31.015	-59.127	221.621	22.751	80.337	-20.427	-28.958	149.946	229.521	68.500	181.342	0.00037299	0.0011029	0.00023417	1215.2	2.5675e-06	1.9137e-05	1732.7	393.91	3.6791e-06	2.1027e-05	573.77	206.63	149.76	56.921	8.8132e-06	73.037	0.0044552	0.0047461	0.0013128	1210.7	4.3182e-05	5.1112e-05	1745.5	410.07	4.8336e-05	5.1048e-05	800.55	221.57	162.26	67.657	5.0135e-05	89.677	116.010	7.905	89.494	-54.220	197.061	78.670	-54.985	-48.881	133.314	104.221	-50.362	-46.161	-43.397	-39.090	71.208	-41.683	-8191	255	
1285.794	1	1	0	0	0.26152	0.13232	0.13097	0.25543	0.10731	0.048781	0.20449	0.12242	0.24163	0.14381	0.15255	0.079237	0.16996	0.13616	0.16125	0.26873	-2.5792	-2.65	-2.3333	-2.9854	-2.3375	-2.8042	-3.0458	-2.2271	-2.8708	-2.425	-2.0854	-2.8187	-2.3896	-2.525	-2.9583	-2.1958	232.902	219.773	197.746	269.258	258.259	229.647	264.998	278.068	136.892	57.771	-14.823	244.155	28.934	32.958	50.139	43.692	0.00032729	0.00087276	0.0003634	1204.9	2.713e-06	3.0529e-05	1728.6	395.59	4.0704e-06	3.3972e-06	587.98	209.04	151.24	57.261	2.1725e-05	73.773	0.0042752	0.0045751	0.0012651	1214.8	4.1628e-05	4.9249e-05	1756.4	414.31	4.6812e-05	4.9466e-05	799.79	223.14	164.28	68.007	4.9302e-05	89.816	179.118	-55.411	21.131	-53.494	213.192	53.777	-54.579	-48.802	138.523	-41.516	-50.632	-46.243	-43.492	-38.289	71.965	-42.416	-8191	255	
1285.891	1	1	0	0	0.26573	0.12695	0.043855	0.093874	0.18883	0.2235	0.23584	0.14433	0.074733	0.18335	0.31311	0.19274	0.10441	0.11949	0.13963	0.014847	-2.4875	-2.5146	-2.2562	-3.2208	-2.1208	-2.4958	-3.1667	-2.4062	-3.0375	-2.7604	-2.2167	-3.0708	-2.3146	-2.3125	-2.8625	-2.2604	52.241	-36.095	-30.787	-53.350	252.605	-13.048	218.590	185.955	-31.748	281.679	213.930	242.511	167.787	146.978	183.629	-38.662	0.00011104	0.00046557	0.00019125	1222.4	1.8479e-06	1.3552e-05	1762.5	403.23	6.4423e-06	2.4491e-05	580.08	209.47	152.01	57.433	2.1105e-05	72.956	0.0042783	0.0045379	0.001252	1230.4	4.1916e-05	4.9993e-05	1769.5	419.06	4.7761e-05	5.0588e-05	808.33	224.09	165.56	68.797	5.156e-05	90.697	126.760	200.202	7.475	-53.571	271.237	4.316	-55.148	-48.970	30.585	42.834	-50.327	-46.281	-43.501	-38.432	131.917	-41.434	-8191	255	
1286.009	1	1	0	0	0.085555	0.04446	0.06659	0.10611	0.17495	0.084478	0.15375	0.14805	0.10842	0.24679	0.12582	0.21386	0.072593	0.056466	0.079661	0.20021	-2.175	-2.575	-2.2062	-3.0833	-2.4583	-2.55	-3.1229	-2.2	-2.525	-2.7125	-2.2521	-2.9625	-2.4667	-2.4417	-2.925	-2.2083	197.707	115.500	60.891	135.201	5.513	79.906	237.450	205.960	73.368	145.433	196.928	249.115	-4.557	44.935	-0.277	75.067	8.1993e-05	0.00043071	0.00010421	1225.6	8.9654e-07	1.5481e-05	1761.7	400.8	1.3961e-05	1.2316e-05	586.89	210.35	153.06	57.018	1.5169e-05	73.651	0.0045255	0.0047951	0.0013338	1231.5	4.4844e-05	5.3734e-05	1776.7	419.13	5.2094e-05	5.5273e-05	833.93	224.92	166.02	69.5	5.648e-05	92.458	212.180	52.037	80.374	-53.854	292.069	55.159	-55.126	-49.022	-5.916	221.101	-50.691	-46.507	-44.062	-38.682	128.500	-42.461	-8191	255	
1286.106	1	1	0	0	0.19651	0.19139	0.18656	0.17286	0.02988	0.069829	0.22584	0.11847	0.087638	0.16389	0.19328	0.16015	0.078857	0.30608	0.11197	0.081785	-2.3458	-2.7875	-2.1521	-3.0563	-2.675	-2.3521	-3.0292	-2.3021	-2.7812	-2.9917	-2.1688	-2.8792	-2.5271	-2.4188	-3.0125	-2.3979	248.137	11.443	81.976	98.333	56.329	18.001	245.931	174.604	-61.859	147.011	147.940	110.244	59.604	39.560	99.722	118.966	0.00049049	0.00066209	0.00031752	1223.8	2.4105e-06	4.5551e-06	1753.8	399.57	5.7671e-06	1.5073e-05	586.06	209.09	152.59	57.826	1.3356e-05	73.602	0.0049425	0.0052131	0.0014548	1232.9	4.8281e-05	5.804e-05	1778.9	419.74	5.5571e-05	5.8443e-05	850.6	226.06	166.3	70.164	5.8565e-05	93.489	186.123	23.755	-54.258	-53.692	-36.480	172.675	-54.662	-48.812	-53.590	13.536	-51.125	-46.784	-43.913	-39.213	23.035	-42.543	-8191	255	
1286.202	1	1	0	0	0.18725	0.20274	0.03723	0.096181	0.074107	0.17891	0.0094013	0.25314	0.18444	0.097328	0.23505	0.13508	0.085913	0.20674	0.24107	0.1942	-2.1396	-2.9021	-2.1458	-2.8563	-2.4333	-2.3917	-3.1354	-2.3375	-2.5125	-3.0563	-2.225	-2.7792	-2.6104	-2.2292	-2.8563	-2.2604	76.310	105.323	285.863	29.076	264.533	57.434	136.198	78.531	12.583	111.764	9.871	227.567	97.870	195.823	0.466	-53.010	0.00028395	0.0015551	0.00024155	1242.6	3.7886e-06	1.6449e-05	1773.7	402.62	3.5837e-06	5.4184e-06	589.59	210.39	152.46	57.695	1.6767e-05	73.743	0.0051035	0.0053835	0.0014929	1237.6	4.9815e-05	5.9017e-05	1780.5	419.75	5.6482e-05	5.9129e-05	855.14	226.47	166.7	70.456	5.9398e-05	93.781	167.550	57.438	111.563	-54.477	275.934	38.993	-55.383	-49.235	88.790	-35.155	-51.256	-46.671	-43.576	-39.051	92.270	-41.972	-8191	255	
1286.298	1	1	0	0	0.23346	0.10031	0.10576	0.16332	0.041245	0.087643	0.089965	0.23642	0.17645	0.033901	0.047699	0.15393	0.12772	0.022349	0.061571	0.29261	-1.9813	-3.0792	-2.3063	-2.9375	-2.7083	-2.2604	-3.0958	-2.5458	-2.4583	-2.9104	-2.2833	-2.6063	-2.8125	-2.1354	-2.95	-2.5125	238.950	177.169	-49.095	256.442	98.715	153.249	211.264	182.495	40.911	215.479	200.766	262.082	-4.199	30.768	209.350	-30.039	0.00013114	0.00013882	0.00026316	1244.4	5.917e-06	2.0168e-05	1786.7	407.38	9.0512e-06	1.2332e-05	586.54	210.13	154.65	58.168	1.4973e-05	73.574	0.005147	0.0053941	0.0015027	1242.8	4.9665e-05	5.9086e-05	1798	424.36	5.6705e-05	5.9745e-05	860.55	227.77	168.78	71.158	5.9897e-05	93.963	-44.611	259.279	68.453	-54.248	292.373	21.239	-55.264	-49.213	191.287	87.140	-50.993	-46.754	-43.333	-38.893	98.140	-41.473	-8191	255	
1286.394	1	1	0	0	0.17664	0.10914	0.025583	0.10622	0.10863	0.10036	0.09348	0.3053	0.078619	0.2746	0.13762	0.085899	0.21237	0.19155	0.12452	0.16275	-2.1604	-2.9396	-2.3208	-2.7375	-2.8187	-2.3104	-3.3563	-2.6562	-2.3063	-3.0229	-2.2125	-2.7042	-2.9417	-2.1229	-2.9479	-2.6396	88.390	63.043	72.482	230.322	-17.131	-24.736	-6.337	222.204	53.105	33.121	215.287	126.068	90.285	83.210	289.893	10.171	0.00012736	0.00067983	5.4035e-05	1252	4.3685e-06	1.7055e-05	1779.4	403.15	5.4265e-06	1.7397e-05	579.09	209.05	153.13	57.82	6.7678e-06	73.839	0.0051646	0.005441	0.00152	1248.1	4.9944e-05	5.9378e-05	1799.8	422.83	5.7023e-05	5.9911e-05	858.11	226.03	167.78	70.938	5.9909e-05	93.689	-42.280	89.497	35.149	-54.366	287.428	101.911	-54.934	-48.919	124.163	-30.325	-51.208	-46.707	-43.781	-38.972	65.331	-42.524	-8191	255	
1286.490	1	1	0	0	0.17695	0.16348	0.086934	0.24976	0.11677	0.26355	0.12671	0.14868	0.11893	0.121	0.27326	0.10713	0.22035	0.020262	0.10582	0.16474	-1.7917	-2.9208	-2.3792	-2.7792	-2.9313	-2.3479	-2.8729	-2.5792	-2.3854	-2.9583	-2.3125	-2.5563	-2.875	-2.2979	-2.7771	-2.7	174.118	58.923	25.633	221.777	261.717	-17.318	201.229	214.112	76.372	244.806	195.626	101.062	-6.103	244.380	288.583	157.720	0.00025512	0.001569	0.00049099	1251.4	3.0424e-06	1.0088e-05	1788.3	402.28	2.0957e-06	7.6166e-06	590.59	207.56	151.39	57.507	9.7754e-06	73.23	0.005164	0.0054241	0.0015163	1250.1	4.9885e-05	5.9759e-05	1803.6	422.49	5.7029e-05	5.9844e-05	860.4	225.35	166.96	70.582	6.0479e-05	93.384	-48.777	51.807	55.137	-54.217	278.056	131.111	-55.055	-48.804	66.153	58.621	-49.850	-46.110	-43.484	-38.168	44.789	-41.876	-8191	255	
1286.586	1	1	0	0	0.2525	0.12972	0.12648	0.26682	0.25715	0.17412	0.11771	0.12474	0.1727	0.021684	0.1136	0.10993	0.12762	0.094079	0.084877	0.09673	-1.825	-3.0042	-2.4604	-2.5021	-2.8917	-2.3604	-2.8875	-2.8292	-2.3458	-3.1875	-2.6875	-2.2417	-3.0229	-2.2292	-2.5708	-2.6896	122.354	149.580	234.480	251.634	-49.409	262.111	233.459	-29.782	-46.860	243.447	-20.284	162.126	71.416	187.857	292.201	220.508	0.00024307	0.001058	0.00026128	1242.6	4.7693e-06	5.5079e-06	1778.2	405.29	8.0967e-06	5.9163e-06	581.83	205.67	150.76	56.793	4.5013e-06	73.132	0.0051727	0.0054656	0.0015236	1247.6	4.9998e-05	5.9898e-05	1804.1	422.94	5.7091e-05	6.0205e-05	859.17	225.4	166.84	70.587	6.0226e-05	93.555	178.340	7.678	106.911	-53.903	-63.586	119.061	-54.787	-49.358	-5.220	123.826	-50.421	-45.805	-42.995	-38.039	117.295	-41.941	-8191	255	
1286.707	1	1	0	0	0.069087	0.059299	0.21673	0.2625	0.1703	0.19502	0.52007	0.2495	0.13593	0.20046	0.12116	0.056373	0.25906	0.11535	0.13578	0.1139	-1.8604	-2.9146	-2.5646	-2.6292	-2.9917	-2.2979	-2.6437	-3.1125	-2.4167	-2.8563	-2.6271	-2.4875	-2.8208	-2.2979	-2.5604	-2.8229	188.395	237.156	272.194	-62.454	-6.848	259.862	223.660	240.155	164.820	102.578	-63.541	282.810	110.761	53.518	-31.496	162.586	0.00034818	0.0010097	0.00017261	1239.3	3.3553e-06	2.7132e-05	1779	402.5	4.2821e-06	6.3313e-06	595.41	207.29	152.8	57.505	1.2608e-05	73.243	0.0051674	0.0054714	0.001525	1247.5	5.0142e-05	5.9901e-05	1807.2	424.43	5.6967e-05	6.0509e-05	863.3	226.74	167.69	71.115	6.0462e-05	93.496	183.459	18.860	-26.408	-53.727	-58.460	-12.907	-54.631	-48.381	97.907	42.213	-50.150	-46.074	-43.652	-38.220	143.352	-41.560	-8191	255	
1286.801	1	1	0	0	0.1152	0.26488	0.035551	0.09966	0.30621	0.069093	0.15878	0.22934	0.20206	0.22824	0.089466	0.14297	0.040425	0.33248	0.20262	0.18623	-1.9396	-2.7062	-2.7167	-2.475	-3.0187	-2.6167	-2.5354	-3.0042	-2.3125	-2.7646	-2.7062	-2.2021	-2.7375	-2.7479	-2.4208	-2.9396	134.489	37.751	3.666	-15.959	92.317	105.147	287.967	148.555	156.414	152.954	278.542	125.044	24.867	288.503	262.779	131.834	0.00016788	0.00044882	0.00031043	1255.2	2.8836e-06	1.4358e-05	1791.3	405.22	9.0151e-06	8.4531e-06	582.52	207.63	153.38	57.718	8.5556e-06	73.935	0.005145	0.0054903	0.0015236	1250.6	5.0031e-05	6.0261e-05	1800.3	422.66	5.6902e-05	6.0176e-05	857.22	226.03	168.95	71.546	6.027e-05	93.953	128.466	202.347	5.281	-54.458	269.828	73.600	-55.165	-49.133	247.304	78.196	-50.718	-46.106	-43.244	-38.680	163.151	-42.217	-8191	255	
1286.899	1	1	0	0	0.20272	0.10852	0.095211	0.25093	0.22823	0.14497	0.17811	0.26451	0.23899	0.15052	0.099927	0.18323	0.12779	0.085835	0.058083	0.27809	-1.8229	-2.6042	-2.8063	-2.4667	-2.9125	-2.575	-2.4437	-3.1583	-2.4542	-2.6396	-2.8583	-2.4313	-2.9208	-2.5958	-2.3125	-3.1125	230.954	217.848	106.311	-60.835	34.291	67.362	232.622	51.225	118.305	252.067	267.811	212.277	33.358	184.737	49.658	173.583	0.0002783	0.00044101	0.00032284	1268.1	5.4392e-06	1.4494e-05	1801.6	407.15	7.3204e-06	1.4039e-05	580.72	207.29	154.27	57.81	2.8349e-06	73.278	0.0051859	0.0054984	0.0015209	1263.3	5.0257e-05	6.0112e-05	1810.6	426.12	5.7229e-05	6.037e-05	858.5	225.67	168.81	71.469	6.0309e-05	93.543	125.993	31.289	248.187	-54.427	226.526	32.921	-55.254	-48.796	200.603	8.903	-50.112	-46.240	-43.470	-38.523	43.355	-41.816	-8191	255	
1286.995	1	1	0	0	0.18199	0.14939	0.24593	0.079661	0.035474	0.3933	0.28326	0.18185	0.11148	0.095401	0.15128	0.21283	0.079352	0.20181	0.032559	0.12144	-1.9833	-2.4708	-2.9271	-2.4729	-2.6146	-2.5417	-2.4562	-3.0167	-2.4104	-2.5396	-2.975	-2.2479	-2.8229	-2.7083	-2.3229	-2.9479	111.564	183.878	-53.659	283.018	112.709	8.864	-62.253	-37.093	119.111	35.925	44.194	-51.850	9.348	123.836	84.405	4.582	0.00012894	0.00086983	0.0001856	1244.6	3.998e-06	1.0418e-05	1780.1	403.29	5.8909e-06	2.1381e-05	576.86	207.12	153.3	58.022	1.9799e-05	73.354	0.0051632	0.0054982	0.0015127	1255.2	5.0379e-05	6.0084e-05	1804.4	423.26	5.7121e-05	6.0564e-05	857.79	224.69	166.96	70.684	6.0026e-05	92.746	194.603	104.276	147.848	-53.628	214.312	24.062	-54.702	-48.750	146.890	15.225	-50.050	-46.302	-44.188	-38.765	151.942	-42.316	-8191	255	
1287.090	1	1	0	0	0.25102	0.079465	0.17033	0.24346	0.17745	0.11792	0.34593	0.36605	0.11557	0.060617	0.1301	0.10958	0.2321	0.16235	0.21199	0.1349	-2.0062	-2.225	-2.7354	-2.3125	-2.6646	-2.8917	-2.3125	-3.0375	-2.5083	-2.5417	-3.0458	-2.2396	-2.575	-2.8812	-2.1771	-2.8708	-7.697	-53.117	278.138	225.297	-6.887	54.185	218.040	247.575	143.227	86.560	274.721	230.684	39.486	48.143	-6.508	109.753	0.00021452	0.00083075	0.00017682	1239.9	2.5377e-06	2.4056e-05	1768.1	398.41	5.0918e-06	1.9687e-05	582.69	204.72	149.25	56.451	9.4717e-06	71.804	0.005189	0.0054963	0.0015121	1236.2	5.0121e-05	5.9557e-05	1791.5	417.47	5.7232e-05	6.029e-05	853.19	223.18	165.27	70.121	6.0301e-05	92.689	177.032	138.112	201.390	-54.291	280.715	35.590	-54.745	-48.999	204.415	43.204	-50.508	-46.043	-43.065	-38.329	75.257	-41.165	-8191	255	
1287.186	1	1	0	0	0.20168	0.10784	0.35077	0.10441	0.17615	0.13331	0.32943	0.17579	0.21306	0.17058	0.25572	0.30154	0.20548	0.26842	0.099495	0.16002	-2.1437	-2.2687	-2.8187	-2.45	-2.5354	-2.875	-2.2979	-3.0646	-2.6063	-2.4021	-2.85	-2.3708	-2.5167	-2.7958	-2.2833	-2.775	203.688	263.102	181.060	-4.867	-54.225	40.477	227.074	284.342	241.322	83.029	207.579	255.560	28.333	200.781	207.159	135.757	0.00011296	0.00094375	0.00019001	1242	6.6205e-06	5.5426e-06	1760	395.16	1.2218e-06	1.6146e-05	577.47	206.49	151.2	57.285	8.4588e-06	72.595	0.0051825	0.0054997	0.0015096	1238.5	5.042e-05	5.9661e-05	1794.5	419.23	5.668e-05	5.9979e-05	854.98	224.35	166.86	70.548	5.99e-05	93.114	159.395	-7.009	106.394	-54.256	257.107	66.690	-54.320	-48.127	161.649	61.194	-50.401	-46.152	-43.278	-38.210	-23.371	-42.439	-8191	255	
1287.307	1	1	0	0	0.09197	0.11046	0.19114	0.17101	0.25325	0.15023	0.14712	0.26954	0.043464	0.18873	0.22552	0.3799	0.1146	0.095008	0.3293	0.10708	-2.1708	-2.2979	-2.775	-2.6208	-2.3729	-2.7479	-2.4333	-2.7146	-2.7646	-2.1833	-2.8146	-2.3479	-2.5229	-2.9542	-2.2771	-2.8583	244.925	218.045	276.732	255.385	-55.113	-6.023	286.380	154.487	151.649	58.158	181.225	238.986	-61.473	77.986	222.170	275.821	0.00027023	0.00042203	7.5419e-05	1237.7	4.8387e-06	1.2654e-05	1774.5	398.78	3.446e-06	6.9939e-06	579.66	204.66	151.04	56.92	1.4201e-05	71.561	0.0051801	0.0054797	0.0015087	1241.8	5.0444e-05	5.9621e-05	1795.5	419.65	5.7086e-05	5.9896e-05	854.13	223.7	166.63	70.423	5.9945e-05	92.696	-27.660	-21.833	16.719	-53.906	251.169	19.687	-54.839	-48.569	10.915	183.964	-50.159	-45.924	-43.049	-38.367	188.944	-41.914	-8191	255	
1287.403	1	1	0	0	0.010328	0.25158	0.16595	0.52893	0.13729	0.14124	0.10233	0.075791	0.22358	0.23626	0.093853	0.076241	0.14742	0.059468	0.26354	0.13973	-2.5104	-2.1708	-2.8063	-2.5917	-2.3333	-2.8521	-2.5021	-2.75	-2.8667	-2.3292	-2.925	-2.5979	-2.4688	-3.0187	-2.4188	-2.6104	239.503	-39.890	35.018	282.231	158.881	-38.490	250.416	-19.736	274.465	211.910	-23.471	46.443	-53.015	54.936	103.901	52.221	0.00036788	0.00036739	1.1969e-05	1239.6	3.1696e-06	9.659e-06	1768.2	400.37	8.2319e-06	6.8874e-06	583.6	206.35	152.3	57.464	1.5098e-05	72.4	0.0051579	0.005437	0.0015	1240.8	5.0179e-05	5.9236e-05	1804.4	421.63	5.6783e-05	5.9996e-05	858.33	224.32	166.99	70.558	6.0241e-05	92.88	152.094	75.759	44.566	-54.048	220.651	39.017	-54.415	-48.468	235.544	-7.327	-50.371	-46.187	-43.354	-38.079	88.312	-42.244	-8191	255	
1287.499	1	1	0	0	0.30935	0.13516	0.18826	0.11695	0.16762	0.084332	0.30792	0.023811	0.090391	0.093402	0.20085	0.058965	0.089594	0.069182	0.13432	0.38948	-2.3271	-2.3125	-2.9292	-2.7104	-2.2458	-2.9062	-2.6396	-2.525	-2.9	-2.1771	-2.7396	-2.6375	-2.325	-2.8438	-2.5896	-2.6521	102.009	60.229	-26.012	-62.510	-42.940	268.488	193.427	209.250	61.605	47.814	-2.470	91.800	21.793	189.708	27.066	154.644	0.00026028	0.0012151	0.00022541	1247.6	2.3846e-06	6.917e-06	1791.3	401.6	1.2866e-05	1.7627e-05	593.32	208.84	153.5	57.301	1.732e-05	72.244	0.0051779	0.0054649	0.0015115	1251.9	5.0158e-05	5.9408e-05	1817.5	423.56	5.6472e-05	5.9976e-05	859.46	224.66	167.12	70.613	6.0312e-05	92.651	52.622	68.888	14.652	-53.931	-48.149	-44.902	-54.712	-48.654	179.683	28.586	-51.110	-46.875	-44.075	-38.859	98.107	-41.596	-8191	255	
1287.571	1	1	0	0	0.11256	0.15263	0.27514	0.068753	0.12025	0.022782	0.13381	0.06851	0.14472	0.041089	0.22367	0.24453	0.23121	0.18179	0.0849	0.23951	-2.5917	-2.2958	-2.6542	-3.0104	-2.1854	-3.0312	-2.7042	-2.4979	-3.0896	-2.3292	-2.6958	-2.8833	-2.0729	-2.7729	-2.5312	-2.2646	267.859	-15.150	167.034	-65.729	28.856	81.311	252.935	-6.960	-48.313	116.549	267.981	-5.783	120.217	107.571	265.753	126.561	8.3342e-05	0.00061147	0.0001899	1232.1	5.2229e-06	3.2394e-05	1784.8	395.34	5.9046e-06	1.793e-05	582.08	205.4	149.37	55.903	6.0663e-06	71.445	0.0051556	0.0054701	0.0015172	1237.9	5.0033e-05	5.9413e-05	1797	416.69	5.6536e-05	6.0014e-05	851.81	222.34	164.21	69.59	6.0309e-05	91.903	17.648	56.283	74.978	-53.842	237.592	-4.166	-55.350	-48.437	142.516	140.469	-50.454	-46.161	-43.731	-37.835	290.968	-41.766	-8191	255	
1287.691	1	1	0	0	0.31628	0.041986	0.24218	0.24181	0.16585	0.083765	0.2004	0.18051	0.085749	0.21954	0.083999	0.14722	0.28981	0.20771	0.12034	0.026336	-2.725	-2.35	-2.8854	-3.125	-2.075	-2.9688	-2.7896	-2.3667	-2.9625	-2.5479	-2.4667	-2.8021	-2.1479	-2.8625	-2.6146	-2.3542	179.711	143.114	230.925	258.283	216.181	229.896	249.173	126.196	49.793	274.588	255.147	138.308	284.777	171.342	12.343	-60.906	0.00055163	0.0007081	0.00037231	1215.6	2.6082e-06	7.5921e-06	1745.7	388.4	4.7213e-06	3.7339e-06	574.11	201.58	149.26	56.256	1.6909e-05	71.347	0.0051163	0.0054696	0.0015233	1212.4	5.0264e-05	5.9727e-05	1766.2	409.37	5.6509e-05	6.0214e-05	848.02	220.92	163.38	69.659	6.0043e-05	91.767	251.637	37.740	92.745	-54.245	254.377	-20.476	-54.847	-48.671	162.788	-49.428	-50.808	-45.858	-43.527	-38.146	47.955	-42.177	-8191	255	
1287.787	1	1	0	0	0.12107	0.15609	0.27386	0.17018	0.24703	0.098098	0.31069	0.33911	0.015536	0.12555	0.38062	0.10189	0.20008	0.18224	0.063558	0.11724	-2.6625	-2.3854	-2.4813	-2.9917	-2.1813	-2.7854	-3.0333	-2.0687	-2.9833	-2.4188	-2.3833	-3.0208	-2.2917	-2.8625	-2.6375	-2.2521	23.524	284.948	138.615	-10.622	62.040	272.769	262.004	186.377	276.003	227.859	17.689	228.615	202.692	281.190	75.654	11.736	0.00012586	0.0004195	0.00012614	1205.8	1.1945e-06	1.6678e-05	1769.3	395.83	5.0231e-06	1.21e-05	580.62	206.94	150.84	57.211	1.2607e-05	71.437	0.0051395	0.0054738	0.0015191	1208.3	5.0017e-05	6.0038e-05	1768.2	411.28	5.7185e-05	6.0448e-05	849.82	221.13	163.81	70.031	6.0318e-05	91.472	236.312	93.353	97.171	-53.944	-57.533	52.932	-55.574	-49.592	1.204	36.638	-51.093	-46.932	-44.234	-39.136	46.648	-42.667	-8191	255	
1287.882	1	1	0	0	0.12957	0.22397	0.20864	0.34088	0.16811	0.24132	0.37299	0.18353	0.055461	0.19358	0.16606	0.05551	0.035107	0.18711	0.063117	0.077948	-2.6208	-2.4917	-2.4792	-3.1104	-2.3854	-2.7708	-3.0312	-2.1688	-3.0604	-2.5271	-2.3667	-2.6125	-2.4396	-2.5146	-2.7313	-2.325	65.384	262.022	140.491	258.053	163.935	154.465	249.323	228.661	74.932	226.519	188.017	196.860	192.743	195.212	255.124	-38.910	0.00037071	0.00073035	0.00018682	1224.8	5.3937e-06	1.3482e-05	1768.5	395.37	5.6737e-06	1.4297e-05	574.91	201.86	148.91	56.1	1.2149e-05	70.923	0.0051825	0.0055238	0.0015301	1216.3	5.0306e-05	6.0501e-05	1776.1	412.69	5.6991e-05	6.0792e-05	850.28	220.26	163.96	69.893	6.0494e-05	91.249	-49.635	-26.491	162.115	-54.475	282.976	60.248	-55.216	-49.206	-28.301	171.507	-49.847	-46.354	-43.045	-38.414	-26.541	-41.880	-8191	255	
1287.980	1	1	0	0	0.17773	0.084021	0.062616	0.23771	0.14357	0.12415	0.099835	0.33515	0.12649	0.060741	0.17437	0.1216	0.057251	0.11579	0.11847	0.1245	-2.4708	-2.6	-2.2542	-3.1083	-2.4562	-2.5083	-2.9792	-2.1833	-2.8917	-2.7583	-2.4542	-3.0312	-2.4479	-2.6229	-2.6875	-2.4437	283.101	185.157	-30.749	-65.755	53.399	-11.751	-32.339	255.685	223.694	-65.978	114.470	-37.371	145.597	257.525	-12.919	205.037	3.2744e-05	0.0012128	0.00028565	1217.7	6.3531e-06	4.1919e-06	1760.2	397.29	1.549e-06	5.3267e-06	577.82	202.06	149.13	56.354	1.3849e-05	72.225	0.0051898	0.0055337	0.0015236	1223.8	5.0356e-05	6.0114e-05	1785.6	415.57	5.7047e-05	6.0081e-05	848.63	221.04	164.46	69.896	5.9044e-05	91.573	171.370	32.092	39.592	-53.638	-40.996	184.203	-54.608	-49.179	184.197	142.102	-50.837	-45.942	-43.238	-38.225	171.405	-42.386	-8191	255	
1288.098	1	1	0	0	0.15394	0.087511	0.065317	0.16859	0.13058	0.12869	0.061806	0.16356	0.028965	0.26201	0.091764	0.071943	0.32405	0.26401	0.30454	0.05571	-2.3479	-2.7667	-2.2229	-3.1146	-2.4042	-2.5354	-3.0896	-2.45	-2.8729	-2.8125	-2.3354	-2.8833	-2.2771	-2.5062	-2.8146	-2.3667	270.403	-4.425	190.113	257.645	257.719	117.350	-64.834	-10.053	141.675	-1.265	-65.276	158.429	226.188	223.080	265.800	97.659	6.0618e-05	0.00040132	0.00033997	1237.2	1.8447e-06	2.0083e-05	1758.7	397.25	4.9525e-06	1.3374e-05	577.98	204.49	150.47	57.105	1.4904e-05	71.221	0.005106	0.0054048	0.0014862	1231.8	4.908e-05	5.8362e-05	1785.4	415.89	5.501e-05	5.7584e-05	836.24	220.57	164.26	69.496	5.6718e-05	90.307	197.413	3.553	41.568	-54.213	-59.018	131.537	-54.603	-48.705	-50.925	96.713	-50.456	-46.458	-43.391	-38.258	42.754	-42.952	-8191	255	
1288.170	1	1	0	0	0.073104	0.090088	0.26817	0.28875	0.070859	0.15764	0.15427	0.27113	0.16224	0.20675	0.11121	0.1719	0.10405	0.11198	0.20681	0.075508	-2.3604	-2.8187	-2.3333	-3.2375	-2.6042	-2.2958	-3.2729	-2.3104	-2.7938	-2.9104	-2.125	-2.9417	-2.5667	-2.4104	-3.0604	-2.2375	238.748	241.661	78.612	243.093	100.152	148.289	-55.420	262.738	8.595	113.706	-7.741	97.434	-16.764	279.310	110.337	88.947	0.00017906	0.0011065	0.00017849	1219.2	2.6222e-06	1.3842e-05	1771.2	396.05	8.2218e-06	1.9745e-05	568.05	201.24	149.45	56.183	1.1367e-05	71.102	0.0048634	0.0051017	0.0014112	1222.6	4.6568e-05	5.516e-05	1776.6	413.57	5.186e-05	5.4638e-05	815.04	218.47	163.37	68.505	5.3625e-05	88.932	121.944	14.338	70.311	-53.906	256.451	-11.766	-55.292	-48.933	106.341	187.942	-50.893	-46.130	-42.878	-38.061	70.825	-42.489	-8191	255	
1288.266	1	1	0	0	0.071521	0.018875	0.10393	0.094853	0.24421	0.076097	0.15521	0.14315	0.075867	0.166	0.33912	0.084024	0.16254	0.10862	0.22181	0.22428	-2.2708	-2.8083	-2.1167	-2.9083	-2.6542	-2.1437	-3.0438	-2.4583	-2.5438	-3.0521	-2.2792	-2.8875	-2.6396	-2.375	-2.8479	-2.65	39.132	79.241	0.218	251.268	165.913	-25.708	275.597	66.815	192.392	58.960	-46.960	249.243	280.186	90.657	209.035	59.273	0.00013544	0.00062109	0.00022012	1207.5	3.1122e-06	1.4035e-05	1739.4	391.41	5.4512e-06	2.147e-05	587.03	204.28	150.36	56.576	4.6305e-06	71.121	0.0046575	0.0048728	0.0013568	1214.7	4.497e-05	5.3444e-05	1763.8	410.55	5.1238e-05	5.3666e-05	814.67	217.93	162.16	68.123	5.4357e-05	88.741	94.490	194.156	155.144	-53.570	-14.886	101.082	-54.634	-48.442	146.660	29.529	-51.129	-46.893	-43.693	-38.839	9.851	-42.840	-8191	255	
1288.387	1	1	0	0	0.13667	0.073314	0.07361	0.08559	0.0355	0.14076	0.05923	0.10918	0.045437	0.20242	0.23147	0.2317	0.10415	0.21919	0.11093	0.032399	-2.1188	-2.8771	-2.2188	-3.05	-2.7833	-2.1729	-3.1375	-2.4	-2.4833	-2.95	-2.2375	-2.7125	-2.6229	-2.3521	-2.7042	-2.4479	273.819	234.657	213.574	266.335	116.698	80.583	214.871	135.880	229.378	52.296	229.380	-65.394	98.062	181.908	22.356	172.128	0.00035054	0.00094512	0.00034047	1193.7	3.1807e-06	3.7464e-06	1724.4	385.14	1.1092e-05	1.422e-05	557.27	198.26	145.31	55.114	6.2679e-06	69.065	0.0047165	0.004961	0.0013853	1199.5	4.5607e-05	5.4598e-05	1747	404.56	5.2044e-05	5.414e-05	808.06	215.18	159.94	67.141	5.4476e-05	87.688	149.665	24.627	63.854	-53.698	-6.485	69.321	-54.711	-48.349	105.993	89.418	-49.911	-46.280	-42.826	-38.478	87.250	-41.793	-8191	255	
1288.483	1	1	0	0	0.066591	0.1088	0.025222	0.068536	0.42728	0.23167	0.20844	0.25505	0.058226	0.031237	0.30802	0.15098	0.13368	0.10877	0.10813	0.14377	-2.1167	-3.0625	-2.2396	-2.8354	-2.7479	-2.1688	-2.9771	-2.5312	-2.3896	-2.9167	-2.3167	-2.5958	-2.7521	-2.0875	-2.9021	-2.8937	46.462	77.518	-65.206	-5.754	273.860	184.556	266.535	-39.116	-40.908	-57.890	246.735	146.722	40.668	31.683	225.496	139.626	0.00014431	0.00053702	0.00026562	1210.7	3.7268e-06	2.2212e-05	1754.5	391.52	5.649e-06	5.8854e-06	564.05	203.19	148.81	56.204	6.9634e-06	70.477	0.0046776	0.0049387	0.0013752	1200.7	4.5557e-05	5.4259e-05	1752.9	406.11	5.1821e-05	5.4457e-05	812.71	216.52	161.17	67.755	5.4694e-05	88.575	276.912	53.338	66.324	-54.570	265.684	3.656	-55.530	-49.354	223.110	100.770	-50.372	-47.038	-44.038	-39.449	-4.865	-42.337	-8191	255	
1288.579	1	1	0	0	0.20771	0.28318	0.18817	0.11052	0.1374	0.084332	0.15174	0.070363	0.16087	0.095097	0.36082	0.066824	0.036197	0.122	0.18007	0.13603	-1.6833	-2.8646	-2.3104	-2.5438	-2.8312	-2.3417	-2.95	-2.8021	-2.2062	-3.1125	-2.3896	-2.5333	-2.8896	-2.3854	-2.7375	-2.85	173.592	101.675	238.566	-24.107	182.823	121.360	206.855	221.794	190.364	-47.227	-33.873	228.466	102.291	125.222	260.620	189.243	0.0002937	0.00029655	0.00022458	1222.8	1.9245e-06	1.3898e-05	1765.3	394.19	4.5679e-06	1.784e-05	581.28	202.09	148.96	56.224	1.4261e-05	70.546	0.0046946	0.0049905	0.0013818	1216.5	4.5578e-05	5.4146e-05	1772.9	411.6	5.1733e-05	5.451e-05	818.6	217.5	161.98	67.941	5.4651e-05	88.163	236.859	280.601	69.405	-54.452	284.351	101.367	-55.266	-49.193	176.215	213.981	-51.107	-46.472	-43.615	-38.556	-50.562	-42.060	-8191	255	
1288.700	1	1	0	0	0.23462	0.07061	0.23801	0.067207	0.063649	0.18364	0.23408	0.16442	0.16208	0.30317	0.10515	0.34607	0.13282	0.14342	0.17801	0.092425	-1.6167	-2.75	-2.3583	-2.5292	-3.0104	-2.1104	-2.9458	-2.7771	-2.2396	-2.9646	-2.5125	-2.3208	-3.0729	-2.4375	-2.7083	-2.8479	257.887	244.341	11.145	-59.743	241.135	218.564	235.885	-28.017	-33.412	239.074	84.070	227.215	-38.721	265.132	56.066	99.833	0.00021249	0.00109	0.00042338	1212.6	4.5205e-06	1.3855e-05	1730.1	386.89	4.9882e-06	1.8131e-06	564.36	198.79	146.41	55.367	7.5166e-06	68.884	0.0046848	0.0049473	0.0013857	1210.3	4.5654e-05	5.4236e-05	1753.2	407.03	5.1588e-05	5.4701e-05	811.06	214.83	160.38	67.301	5.4929e-05	87.221	247.516	67.139	56.766	-54.232	202.331	59.781	-54.691	-48.435	43.154	263.023	-51.472	-46.057	-43.113	-38.474	47.324	-42.167	-8191	255	
1288.796	1	1	0	0	0.25535	0.11461	0.20953	0.082108	0.29184	0.14129	0.1694	0.20794	0.14525	0.052848	0.10126	0.16168	0.10317	0.09683	0.17473	0.084539	-1.9229	-2.7854	-2.5542	-2.4854	-3.0542	-2.5125	-2.7229	-2.8937	-2.3167	-2.7792	-2.6104	-2.2	-3.05	-2.3042	-2.5458	-2.9042	180.101	-33.970	79.353	93.462	78.264	71.043	227.216	199.769	-17.297	51.880	77.589	179.093	20.830	216.481	52.765	53.372	0.00019797	0.0011188	0.00019824	1194.6	4.1753e-06	1.5881e-05	1715.7	384.94	7.0864e-06	6.7312e-06	556.84	198.53	146.65	54.555	2.7935e-05	68.836	0.0047136	0.0049839	0.0013885	1195.7	4.5826e-05	5.4886e-05	1739.3	403.59	5.2621e-05	5.5434e-05	810.86	214.36	159.55	67.049	5.5714e-05	87.299	185.108	-60.858	70.375	-53.966	237.393	74.700	-54.655	-48.684	-59.184	107.675	-50.717	-46.835	-43.450	-38.452	153.514	-42.160	-8191	255	
1288.868	1	1	0	0	0.12345	0.12661	0.048467	0.1616	0.036815	0.27996	0.31242	0.12508	0.028728	0.14882	0.065425	0.34264	0.20602	0.22438	0.2206	0.23115	-1.9479	-2.7104	-2.675	-2.4125	-2.8812	-2.3833	-2.8625	-2.9271	-2.1167	-2.6167	-2.7313	-2.0833	-2.8729	-2.4542	-2.3771	-2.9083	65.885	-54.789	120.419	193.485	156.400	224.873	280.810	185.686	281.196	-36.990	241.571	196.511	34.347	152.414	135.968	-40.040	0.00037691	0.00065537	0.00044937	1192.7	2.8354e-06	1.8965e-05	1721.9	387.03	4.9097e-06	1.4508e-05	565.03	199.66	146.74	54.976	1.152e-05	69.54	0.004774	0.0050632	0.0013975	1194.2	4.6181e-05	5.5163e-05	1736.7	403.4	5.2558e-05	5.5609e-05	811.58	214.32	159.62	67.14	5.5416e-05	87.559	131.083	-51.109	32.661	-53.998	-32.228	131.992	-55.019	-49.040	221.917	112.405	-50.424	-46.511	-43.673	-38.588	93.187	-42.659	-8191	255	
1288.987	1	1	0	0	0.10031	0.12876	0.09976	0.22221	0.089321	0.16468	0.31372	0.077375	0.24058	0.16626	0.081323	0.16778	0.22454	0.226	0.19098	0.1929	-1.9896	-2.6937	-2.875	-2.3417	-2.7917	-2.5125	-2.6479	-3.0062	-2.325	-2.6437	-2.8854	-2.3479	-3.0833	-2.7792	-2.3563	-3.0729	3.032	27.048	56.856	211.715	169.689	125.749	279.404	9.259	214.306	155.263	91.638	246.570	210.499	214.727	-42.564	163.582	9.0996e-05	0.00042694	0.00031701	1197	4.239e-06	1.3693e-05	1716.8	386.97	6.3906e-07	1.3811e-05	566.35	198.48	147.3	55.373	4.5256e-06	69.427	0.0047864	0.005066	0.001398	1200.4	4.6274e-05	5.5314e-05	1742.1	406.27	5.2456e-05	5.5787e-05	815.07	215.98	161.09	67.928	5.5238e-05	88.383	259.980	74.773	49.396	-53.887	190.387	92.158	-54.636	-48.707	71.661	28.842	-50.226	-46.328	-43.456	-38.630	233.206	-41.743	-8191	255	
1289.083	1	1	0	0	0.17984	0.11702	0.18085	0.12481	0.20422	0.085606	0.091109	0.095967	0.18519	0.21631	0.2886	0.13539	0.19905	0.033696	0.088821	0.22346	-2.1021	-2.5875	-2.9313	-2.5146	-2.75	-2.5958	-2.5542	-3.0438	-2.2687	-2.6958	-2.9729	-2.3708	-2.7521	-2.7188	-2.3958	-2.8937	64.995	128.102	180.195	268.895	98.916	-17.704	246.352	250.207	135.423	-1.310	-11.095	278.933	17.838	221.583	157.063	271.046	0.00010931	0.0014436	0.00027618	1205.7	4.0563e-07	1.1784e-05	1730.5	388.7	2.5467e-06	1.5704e-05	565.53	201.98	150.06	56.257	5.7803e-06	70.057	0.0047816	0.005051	0.0013949	1207.6	4.6414e-05	5.543e-05	1751.9	409.37	5.2647e-05	5.5743e-05	817.7	217.01	162.45	68.271	5.5437e-05	88.375	263.006	-33.173	8.358	-53.986	170.206	47.349	-54.885	-48.474	-13.143	144.131	-50.729	-46.451	-43.847	-39.087	195.194	-42.018	-8191	255	
1289.179	1	1	0	0	0.07712	0.17612	0.044765	0.22812	0.080891	0.23177	0.26431	0.22831	0.11966	0.21126	0.14636	0.15837	0.16572	0.12755	0.023832	0.082428	-2.075	-2.4208	-2.7125	-2.4458	-2.6708	-2.7521	-2.4417	-2.9562	-2.5146	-2.4417	-2.9938	-2.2438	-2.7458	-2.7417	-2.2667	-2.7771	277.234	69.215	292.817	-60.202	171.720	282.787	252.614	174.923	239.316	286.514	-45.425	-58.064	92.897	23.115	253.661	174.022	0.0001786	0.00089301	0.00021252	1201.5	1.3975e-06	1.9548e-05	1732.1	389.14	7.8868e-06	1.3066e-05	557.59	199.72	148.1	55.533	1.781e-05	69.482	0.0047877	0.0050599	0.0013911	1203	4.6363e-05	5.537e-05	1741.3	406.24	5.2801e-05	5.5372e-05	812.63	215.3	161.04	67.95	5.5351e-05	87.746	144.609	78.924	28.596	-53.909	225.751	241.871	-55.134	-49.020	219.681	83.160	-50.139	-46.528	-43.801	-38.717	81.547	-42.559	-8191	255	
1289.275	1	1	0	0	0.21835	0.041097	0.16946	0.13097	0.092015	0.095528	0.18443	0.24228	0.25458	0.060012	0.12773	0.11335	0.26941	0.070851	0.26715	0.21011	-2.3042	-2.225	-3.0146	-2.4729	-2.3479	-2.7646	-2.4333	-3.1	-2.5625	-2.2396	-2.9958	-2.3833	-2.6271	-2.8271	-2.275	-2.9688	44.581	1.494	-8.145	176.810	173.520	-7.633	219.351	274.746	108.299	165.910	66.533	139.108	285.097	80.076	113.471	262.961	0.00011385	0.00026779	0.00032382	1196.4	4.0911e-06	2.2653e-05	1742.8	391.5	4.8064e-06	9.4126e-06	565.11	198.98	147.87	55.738	7.9351e-06	69.158	0.0047989	0.0050722	0.0013938	1198.2	4.6572e-05	5.5082e-05	1742.2	406.28	5.2598e-05	5.5772e-05	812.35	215.03	161.4	68.004	5.5405e-05	87.96	156.975	121.743	13.314	-53.867	-38.867	73.406	-55.526	-49.508	65.848	233.013	-49.653	-46.315	-43.438	-38.329	-20.546	-41.665	-8191	255	
1289.396	1	1	0	0	0.18659	0.37288	0.1414	0.14419	0.12483	0.12196	0.2623	0.24814	0.12798	0.050349	0.057364	0.27617	0.1346	0.13613	0.24468	0.19769	-2.3229	-2.3479	-2.9437	-2.6542	-2.4292	-2.8833	-2.4042	-2.8542	-2.65	-2.3542	-2.9229	-2.3729	-2.4979	-2.9021	-2.2917	-2.6125	276.069	-29.787	-44.176	281.376	64.184	226.498	269.316	277.416	-12.100	33.711	248.408	20.149	240.331	159.440	265.739	29.851	0.00016452	0.00046328	0.0001328	1218.3	1.3047e-06	1.8427e-05	1754.5	394.05	1.5199e-06	2.1768e-05	573.84	202.88	150.7	56.93	8.1933e-06	70.63	0.0047929	0.0050401	0.0013957	1215.2	4.6594e-05	5.4987e-05	1762.7	412.33	5.2661e-05	5.5571e-05	820.81	217.41	163.55	68.82	5.5821e-05	88.825	49.817	270.354	27.877	-54.165	232.562	-14.415	-55.353	-48.736	51.126	15.624	-51.497	-46.667	-43.911	-38.704	139.919	-42.383	-8191	255	
1289.467	1	1	0	0	0.11764	0.071738	0.18473	0.12845	0.2525	0.26446	0.20191	0.042563	0.15948	0.24413	0.39938	0.1447	0.28041	0.15025	0.089547	0.28662	-2.1813	-2.1021	-2.8833	-2.7	-2.4854	-2.8937	-2.6021	-2.7771	-2.9125	-2.35	-3.0625	-2.4521	-2.4167	-2.9479	-2.3417	-2.4667	137.643	276.717	248.883	158.529	36.397	6.591	172.166	103.382	254.768	-60.924	253.397	-14.052	239.064	39.190	-66.340	141.746	0.00034	0.00099949	0.00023344	1230.9	1.2315e-06	5.8008e-06	1767.2	399.67	7.3183e-06	1.8381e-05	563.82	200.96	149.58	56.493	1.5636e-05	69.661	0.0047884	0.0050679	0.0014024	1226.4	4.6663e-05	5.5385e-05	1771.5	414.34	5.2653e-05	5.5606e-05	819	217.79	163.3	68.869	5.573e-05	88.654	139.741	33.041	74.320	-54.307	231.592	148.672	-55.411	-49.395	45.729	80.957	-50.050	-46.347	-43.470	-37.974	42.478	-42.262	-8191	255	
1289.563	1	1	0	0	0.089952	0.036989	0.13701	0.26415	0.26684	0.15007	0.28674	0.30388	0.061331	0.12247	0.18658	0.32983	0.01444	0.26611	0.09685	0.11926	-2.4625	-2.2146	-2.7458	-2.7313	-2.4417	-2.9521	-2.4375	-2.6021	-2.9042	-2.2833	-2.8937	-2.6958	-2.3208	-2.9313	-2.2313	-2.4104	63.306	121.280	64.095	276.205	264.336	163.500	196.907	-7.457	267.035	10.196	199.740	69.055	231.363	208.050	-21.466	211.248	0.00040806	0.0011752	0.00045813	1227.2	3.4726e-06	1.0644e-05	1752.8	394.29	3.1247e-06	5.3275e-06	574.41	201.61	149.29	56.307	1.2804e-05	69.905	0.0047754	0.0050658	0.0014058	1213	4.6759e-05	5.5165e-05	1751	409.7	5.2451e-05	5.562e-05	814.45	216.1	161.95	68.349	5.571e-05	88.013	142.917	-54.345	70.617	-54.692	221.228	41.632	-55.694	-49.420	111.163	-60.875	-51.260	-46.701	-43.812	-38.689	64.736	-42.683	-8191	255	
1289.660	1	1	0	0	0.23462	0.28332	0.12148	0.19828	0.050312	0.25326	0.18219	0.26049	0.025508	0.095066	0.15203	0.10267	0.11537	0.10984	0.22869	0.18929	-2.5292	-2.0667	-2.6917	-2.7979	-2.2812	-2.9396	-2.4479	-2.3542	-2.9583	-2.3063	-2.6271	-2.7917	-2.2146	-2.8021	-2.4854	-2.2708	45.984	170.636	32.308	233.786	39.266	-22.377	264.586	96.811	117.416	236.284	-63.715	-31.158	259.690	7.642	165.143	217.470	4.54e-05	0.0017285	0.00044208	1200.6	3.5123e-06	1.2252e-05	1725.8	389.49	3.4191e-06	2.1456e-05	562.38	200.62	147.96	56.24	2.3765e-05	68.991	0.0047691	0.0050663	0.0014071	1196.1	4.6551e-05	5.5202e-05	1731.7	405.28	5.281e-05	5.5867e-05	810.57	215.36	161.03	68.256	5.6042e-05	87.727	141.996	19.866	33.962	-54.130	250.429	-9.429	-55.235	-49.205	28.746	-19.903	-51.038	-46.583	-44.099	-38.779	80.954	-42.359	-8191	255	
1289.778	1	1	0	0	0.075092	0.14493	0.27938	0.39708	0.20228	0.22671	0.078748	0.1053	0.096491	0.044364	0.17285	0.10802	0.14221	0.076642	0.24521	0.25252	-2.3271	-2.3312	-2.7896	-2.8917	-2.1583	-2.9562	-2.7521	-2.4188	-2.8208	-2.3271	-2.6312	-2.7125	-2.25	-2.8	-2.4938	-2.3	229.809	272.406	238.941	282.693	-30.692	98.254	155.349	25.942	196.707	-57.318	93.135	164.514	95.131	119.252	177.775	115.838	0.00024692	0.0010772	0.00038059	1191.9	2.5873e-06	1.278e-05	1718.1	386.81	1.8082e-06	1.2678e-05	572.52	199.49	148.33	56.881	1.0426e-05	69.764	0.0047891	0.0050656	0.0014136	1186	4.6527e-05	5.5341e-05	1720.7	401.84	5.2198e-05	5.5888e-05	811.79	214.29	160.14	68.035	5.5848e-05	87.651	-40.473	32.666	51.196	-54.366	222.289	-17.452	-55.505	-49.125	-4.033	288.981	-51.451	-47.095	-44.085	-39.116	106.094	-42.152	-8191	255	
1289.875	1	1	0	0	0.1792	0.12658	0.037127	0.12798	0.049111	0.41299	0.14226	0.029397	0.10899	0.33066	0.11852	0.090759	0.088716	0.17627	0.15153	0.32638	-2.6479	-2.1625	-2.6583	-3.0292	-2.1479	-2.8854	-2.8458	-2.3083	-3.0021	-2.4271	-2.5083	-2.8563	-2.3187	-2.625	-2.5708	-2.3396	90.128	133.313	27.719	166.463	61.273	-59.526	165.997	-62.555	96.813	-1.456	-50.885	261.396	102.776	184.314	93.747	148.300	0.0004327	0.00065034	8.8844e-05	1196	3.7389e-06	2.5281e-05	1730.4	391.78	5.6603e-06	8.5983e-06	561.76	202.49	150.31	56.868	5.7067e-06	71.479	0.0047815	0.0050601	0.0014154	1192.4	4.6485e-05	5.5548e-05	1736.6	407.3	5.2549e-05	5.6082e-05	816.45	216.78	162.59	68.893	5.568e-05	88.777	211.552	92.921	-47.004	-54.335	8.667	-10.526	-55.338	-49.492	247.908	187.443	-51.461	-47.033	-44.217	-38.897	23.681	-42.546	-8191	255	
1289.971	1	1	0	0	0.26736	0.16506	0.27034	0.094631	0.1535	0.19436	0.10736	0.12217	0.12717	0.29821	0.18734	0.079534	0.27012	0.13502	0.16082	0.15051	-2.6	-2.4813	-2.4417	-3.1437	-2.2708	-2.9083	-3.0646	-2.3458	-2.9958	-2.4021	-2.2917	-2.8146	-2.3542	-2.8542	-2.8688	-2.1042	-19.411	-47.966	-47.514	236.127	49.009	222.637	156.755	97.392	198.834	71.078	126.506	121.478	192.240	239.637	274.392	162.503	6.89e-05	0.00033861	0.00015194	1221.4	4.273e-06	1.5911e-05	1762.7	400.51	2.0315e-06	9.2762e-06	581.75	204.9	153.03	58.189	3.3942e-06	71.809	0.0047697	0.0050756	0.0014041	1212.9	4.6506e-05	5.5312e-05	1765.4	415.36	5.282e-05	5.5963e-05	824.41	219.74	165.41	69.981	5.5515e-05	89.368	57.527	-6.346	-9.337	-54.443	270.258	137.100	-55.399	-49.173	189.408	217.914	-51.704	-46.993	-43.853	-39.226	27.942	-42.853	-8191	255	
1290.067	1	1	0	0	0.15326	0.18705	0.10375	0.090841	0.14702	0.053287	0.173	0.21695	0.29666	0.061885	0.12476	0.21334	0.1221	0.2301	0.14666	0.3517	-2.4417	-2.4875	-2.4313	-3.0104	-2.3875	-2.6021	-3.1417	-2.1479	-2.8729	-2.7417	-2.3208	-3.025	-2.4437	-2.4708	-2.8104	-2.3375	158.592	-45.991	257.988	260.652	167.702	190.591	-15.892	229.677	42.399	163.460	148.847	105.878	260.095	-31.221	118.031	-25.275	0.00024487	0.00050612	0.00033929	1235.6	5.2023e-06	7.2966e-06	1768.5	401.9	9.2887e-06	5.1878e-06	572.77	204.72	153.08	58.261	4.2772e-06	71.137	0.0047775	0.0050605	0.0014072	1225.9	4.6368e-05	5.5401e-05	1768.2	416.19	5.2872e-05	5.5829e-05	821.45	218.78	165.12	69.861	5.5427e-05	89.111	176.716	224.459	51.983	-54.541	247.282	70.886	-55.545	-49.437	21.916	262.360	-51.540	-46.988	-44.129	-38.913	89.004	-42.870	-8191	255	
1290.163	1	1	0	0	0.11932	0.073517	0.10749	0.22989	0.27505	0.13538	0.20024	0.15207	0.30254	0.12691	0.3147	0.24857	0.27421	0.097289	0.10126	0.30699	-2.2771	-2.7146	-2.225	-3.0292	-2.4271	-2.575	-3.2021	-2.4021	-2.9104	-2.8208	-2.3979	-2.9167	-2.4062	-2.4396	-2.9688	-2.3187	63.235	229.069	52.435	-28.925	217.734	228.901	276.019	45.607	99.832	3.493	210.881	-20.864	-52.258	37.063	190.607	-65.240	0.00014355	0.0012504	9.9402e-05	1232.8	2.945e-06	1.7738e-05	1760.3	398.61	8.3037e-06	1.6773e-06	569.76	202.7	151.62	57.833	5.941e-06	70.677	0.0048052	0.0050608	0.0013947	1219.4	4.6739e-05	5.527e-05	1756.7	413.56	5.2626e-05	5.5555e-05	816.67	217.39	164.44	69.589	5.4906e-05	88.706	226.633	33.851	98.392	-54.639	279.992	72.440	-55.560	-49.432	106.234	68.098	-50.809	-46.640	-43.933	-39.068	279.971	-42.535	-8191	255	
1290.259	1	1	0	0	0.34126	0.049312	0.2159	0.223	0.21338	0.2123	0.0069512	0.24329	0.033078	0.26469	0.17331	0.15754	0.27379	0.27635	0.159	0.11363	-2.3854	-2.6854	-2.3042	-2.9521	-2.5167	-2.2667	-3.15	-2.3854	-2.5312	-2.8625	-2.1708	-2.9458	-2.7229	-2.3688	-2.9208	-2.2292	17.848	173.139	184.969	213.786	-12.882	227.002	-32.541	187.643	-45.648	177.381	79.034	106.255	152.714	224.768	264.817	227.689	7.4467e-05	0.00067813	0.00050959	1221.6	2.0613e-06	1.2321e-05	1746.5	395.57	3.5551e-06	2.5137e-05	568.74	201.59	151.9	57.453	3.6087e-06	70.454	0.0047741	0.0050326	0.0013958	1214.5	4.6523e-05	5.512e-05	1747.5	411.01	5.2906e-05	5.5322e-05	810.63	215.81	163.29	69.195	5.5124e-05	88.41	110.624	23.186	107.618	-54.416	280.321	-19.049	-55.513	-49.231	165.804	111.556	-51.428	-46.976	-43.865	-39.130	232.047	-42.609	-8191	255	
1290.380	1	1	0	0	0.25284	0.24695	0.084504	0.15544	0.12664	0.071181	0.11476	0.31002	0.14121	0.098787	0.20762	0.19075	0.034874	0.1603	0.29113	0.033937	-2.2083	-2.8083	-2.1312	-2.9167	-2.5167	-2.3583	-3.1375	-2.3917	-2.6646	-2.8937	-2.225	-2.85	-2.6833	-2.3375	-2.6354	-2.3729	164.425	170.626	134.450	216.854	251.936	48.805	187.160	205.728	-65.418	57.824	72.586	76.985	96.910	-26.288	111.457	238.733	0.00024765	0.0017727	0.0001913	1220.2	3.5539e-06	3.1812e-05	1740.8	394.56	7.4986e-06	1.5382e-06	562.51	201.85	151.07	58.265	8.8956e-06	70.941	0.0047612	0.005012	0.0013968	1212.4	4.6191e-05	5.4943e-05	1746.1	410.75	5.2693e-05	5.5256e-05	813.13	216.95	164.18	69.752	5.5167e-05	88.748	193.961	-65.021	50.035	-54.422	255.187	71.966	-55.314	-49.006	84.968	67.195	-50.920	-46.654	-43.349	-38.967	34.925	-43.038	-8191	255	
1290.476	1	1	0	0	0.3239	0.073485	0.076591	0.2035	0.11063	0.23547	0.080177	0.39114	0.14226	0.1209	0.078783	0.25495	0.16241	0.24798	0.054802	0.029182	-2.0604	-2.95	-2.4042	-2.8375	-2.7646	-2.2646	-3.0563	-2.4854	-2.4833	-2.9979	-2.2833	-2.7625	-2.7229	-2.2438	-2.8604	-2.5438	262.283	274.761	263.660	270.071	116.784	218.270	-14.535	225.009	237.280	22.168	99.775	60.775	109.055	106.555	75.937	-10.732	0.00015449	0.00155	0.00015385	1230.3	2.7652e-06	1.2596e-05	1754.6	399.46	6.2232e-06	1.2791e-05	571.22	202.27	153.18	58.645	1.2354e-05	71.271	0.00476	0.0050206	0.0013945	1224.4	4.6091e-05	5.4652e-05	1758.9	414.69	5.2507e-05	5.4779e-05	814.73	217.28	165.4	70.207	5.4963e-05	88.917	216.845	9.907	135.707	-54.257	-32.103	77.326	-55.333	-49.184	246.606	35.166	-50.886	-46.785	-43.693	-38.858	122.908	-42.801	-8191	255	
1290.572	1	1	0	0	0.056107	0.15624	0.097735	0.28333	0.14098	0.15152	0.34729	0.060378	0.042051	0.064013	0.11145	0.11616	0.16925	0.32853	0.13125	0.16941	-1.8083	-2.6562	-2.1625	-2.8042	-2.8563	-2.2167	-3.1958	-2.6396	-2.625	-3.0708	-2.4021	-2.7771	-2.8333	-2.2062	-2.9625	-2.7021	-18.852	127.305	2.420	204.483	263.858	209.512	241.210	84.720	19.920	-22.105	47.674	59.145	-54.903	135.140	129.692	10.226	0.00062345	0.0016896	0.00022832	1234.5	3.6369e-06	3.3978e-06	1753.3	399.71	1.0726e-05	1.736e-05	564.8	202.5	152.78	58.572	2.1226e-06	70.725	0.0047359	0.0049939	0.0013942	1222.5	4.6196e-05	5.4678e-05	1748.4	413.98	5.2161e-05	5.4594e-05	810.12	216.65	165.32	70.12	5.4742e-05	88.598	106.598	-13.843	-29.124	-54.679	239.312	218.130	-55.578	-49.266	67.947	127.395	-50.934	-46.787	-43.585	-39.113	-21.729	-42.325	-8191	255	
1290.668	1	1	0	0	0.24383	0.17468	0.057306	0.14795	0.096933	0.090084	0.23419	0.14979	0.24929	0.06751	0.13594	0.15495	0.1655	0.070485	0.032356	0.12971	-2.0521	-2.8667	-2.2687	-2.725	-2.8604	-2.2854	-3.0062	-2.7438	-2.3063	-2.925	-2.4708	-2.4646	-2.9604	-2.2458	-2.7979	-2.6521	-36.546	71.154	291.086	248.930	142.011	157.017	249.475	246.593	64.626	39.210	171.137	259.381	-65.408	-27.603	154.546	151.917	0.00034605	0.0010864	0.00020593	1230.5	2.8484e-06	1.3271e-05	1737.8	395.69	8.6653e-07	1.5478e-06	558.68	201.01	151.59	58.546	8.8396e-06	70.196	0.0047441	0.0049877	0.0014016	1219.2	4.6193e-05	5.4708e-05	1737.1	410.63	5.2126e-05	5.4713e-05	806.56	215.06	164.1	69.782	5.4941e-05	88.089	67.357	16.645	23.966	-54.603	278.316	36.215	-55.549	-49.118	132.753	-2.897	-51.530	-47.086	-43.795	-38.751	156.483	-42.647	-8191	255	
1290.764	1	1	0	0	0.20679	0.14612	0.17618	0.22302	0.13879	0.070392	0.27047	0.15234	0.40064	0.21717	0.29897	0.18651	0.18793	0.27122	0.061219	0.056821	-1.6938	-3.2292	-2.2083	-2.5875	-2.9625	-2.2188	-2.7604	-2.9396	-2.0938	-2.9292	-2.7	-2.3396	-2.9583	-2.2938	-2.5917	-2.9062	50.343	274.211	-59.789	219.947	-51.801	55.746	290.898	172.245	64.732	271.442	177.278	-30.182	-14.435	72.352	96.911	160.983	0.00034004	0.0012517	8.7998e-05	1228.5	6.9738e-06	2.0298e-05	1740.2	398.17	6.1128e-06	9.0339e-06	565.67	202.22	152.42	58.42	1.215e-05	70.455	0.0047326	0.004978	0.0013956	1215.4	4.5892e-05	5.4664e-05	1739.1	411.27	5.2187e-05	5.486e-05	809.27	215.97	164.75	70.053	5.5298e-05	88.417	182.029	56.950	253.188	-54.609	257.279	50.614	-55.617	-49.250	156.038	204.890	-51.112	-47.185	-43.653	-38.776	83.710	-42.522	-8191	255	
1290.861	1	1	0	0	0.043095	0.48054	0.10974	0.12433	0.078257	0.17815	0.32176	0.15851	0.14803	0.25119	0.22607	0.15275	0.26006	0.43266	0.078943	0.070866	-2.0104	-2.8688	-2.6854	-2.5438	-2.8854	-2.2687	-2.8417	-2.8667	-2.1167	-2.775	-2.5646	-2.3063	-3.0542	-2.325	-2.4667	-2.85	-27.580	-19.288	24.280	284.434	-34.765	-20.951	284.166	271.205	189.915	220.747	101.779	257.349	186.164	5.839	23.588	201.822	7.2726e-05	0.00086476	0.00021862	1229.8	4.0867e-06	1.1091e-05	1743.1	398.84	1.4863e-06	1.3984e-05	564.84	202.34	153.03	58.572	1.2434e-05	71.34	0.0047369	0.0050262	0.0013959	1218.7	4.6006e-05	5.4783e-05	1740.6	412.25	5.2001e-05	5.5132e-05	808.84	216.37	164.84	70.113	5.5462e-05	88.546	188.155	-33.116	15.130	-54.578	263.083	286.042	-55.689	-49.342	236.175	151.844	-51.452	-46.802	-43.807	-38.848	85.032	-43.208	-8191	255	
1290.955	1	1	0	0	0.13148	0.16963	0.24574	0.38902	0.093502	0.061033	0.1905	0.23534	0.048935	0.12149	0.12442	0.19313	0.035801	0.046315	0.037454	0.15635	-1.7604	-2.7229	-2.7167	-2.3708	-2.8979	-2.2521	-2.55	-2.9479	-2.3292	-2.7604	-2.7396	-2.0229	-2.8542	-2.4271	-2.3667	-2.9208	208.592	32.962	73.471	-67.055	-64.588	42.125	-66.891	196.426	-38.431	244.493	53.650	214.292	-4.944	291.789	69.805	123.898	3.6059e-05	0.00058472	0.00027585	1225.8	4.639e-06	1.4186e-05	1739.3	398.38	2.7186e-06	1.0076e-05	562.07	201.95	153.09	59.363	1.7088e-05	71.134	0.0047348	0.0050067	0.0013916	1217	4.5848e-05	5.4963e-05	1737.4	412.81	5.2317e-05	5.5196e-05	811.41	216.13	165.46	70.474	5.5404e-05	88.431	96.694	43.069	1.644	-54.373	280.653	270.732	-55.431	-49.242	210.096	166.089	-51.148	-46.839	-43.934	-38.811	108.853	-42.766	-8191	255	
1291.076	1	1	0	0	0.071312	0.2248	0.12603	0.46493	0.2542	0.039863	0.22758	0.1189	0.22851	0.29265	0.25167	0.047395	0.21961	0.22974	0.26171	0.12384	-1.8979	-2.8292	-2.6875	-2.4979	-2.7313	-2.6854	-2.5333	-2.9875	-2.3167	-2.5271	-2.6604	-2.1896	-2.7958	-2.5333	-2.3083	-2.8354	201.726	34.542	92.246	281.896	101.897	-10.234	256.988	78.587	230.767	199.525	60.679	179.554	-30.417	45.371	238.268	242.449	0.00020713	0.0011793	0.00037686	1229.1	3.3606e-06	2.7436e-06	1739.8	400.49	1.0979e-05	4.8471e-06	564.45	203.55	154.75	59.577	1.2637e-05	71.034	0.0047497	0.0050214	0.0013871	1220.9	4.6065e-05	5.5046e-05	1744	415.68	5.233e-05	5.5299e-05	811.76	217.14	166.68	70.865	5.5128e-05	88.781	76.398	-53.524	97.724	-54.376	224.203	3.493	-55.480	-49.213	2.490	114.682	-50.366	-47.285	-43.904	-39.119	121.755	-42.740	-8191	255	
1291.172	1	1	0	0	0.18731	0.27524	0.18435	0.21079	0.074429	0.22691	0.17623	0.27532	0.29237	0.25407	0.18349	0.085404	0.26931	0.11261	0.05317	0.10211	-1.8771	-2.5771	-2.8208	-2.5771	-2.9333	-2.5833	-2.5312	-2.9542	-2.4979	-2.5833	-2.9104	-2.2479	-2.8083	-2.7375	-2.3604	-3.0125	266.610	273.006	229.346	230.339	224.593	259.678	249.320	131.261	-33.168	274.749	57.223	39.834	146.124	61.923	-6.468	261.856	0.00023287	0.00076958	0.00021525	1243.9	1.0027e-06	2.2503e-05	1752.2	402.81	3.0493e-06	1.8259e-05	565.85	201.71	152.95	58.114	1.5319e-05	69.856	0.0047419	0.0050707	0.0013863	1230.3	4.6217e-05	5.5066e-05	1752.9	416.89	5.2399e-05	5.5375e-05	809.7	216.28	165.61	70.23	5.5028e-05	88.149	247.336	29.467	63.583	-54.531	-54.998	26.082	-55.669	-49.449	244.225	66.049	-51.112	-46.997	-43.533	-38.035	70.481	-42.313	-8191	255	
1291.268	1	1	0	0	0.19375	0.29923	0.048356	0.22158	0.077145	0.029609	0.144	0.094698	0.16746	0.19339	0.11572	0.041146	0.12484	0.085532	0.11067	0.31721	-1.9438	-2.3187	-2.9604	-2.4458	-2.75	-2.7896	-2.35	-2.9562	-2.325	-2.4792	-2.8604	-2.3917	-2.675	-2.6813	-2.2708	-3.0021	9.185	104.918	194.268	256.262	53.988	212.463	230.764	-8.699	129.383	183.565	244.091	201.509	-29.162	101.950	268.525	89.893	0.00021527	0.0013978	0.00022094	1217.3	3.497e-06	2.1756e-05	1719.1	392.67	3.7213e-06	1.4428e-05	558.19	198.74	149.99	57.722	8.3978e-06	69.539	0.0047559	0.0050284	0.001388	1213.3	4.6231e-05	5.488e-05	1730.4	409.19	5.2479e-05	5.5454e-05	805.18	214.54	163.01	69.395	5.5093e-05	87.546	228.665	2.025	266.631	-54.191	250.448	67.452	-55.098	-48.902	263.045	98.287	-51.236	-46.565	-43.473	-38.407	-3.250	-42.600	-8191	255	
1291.340	1	1	0	0	0.29347	0.1572	0.095416	0.12786	0.030596	0.18011	0.1912	0.11977	0.099842	0.23393	0.13643	0.063125	0.32779	0.072168	0.11645	0.28038	-2.3417	-2.3187	-2.9292	-2.5271	-2.5771	-2.8917	-2.15	-2.8063	-2.6292	-2.4917	-2.9229	-2.3375	-2.5729	-2.7917	-2.1479	-2.8333	48.162	87.563	260.163	-33.907	63.291	190.379	170.300	209.206	257.477	-18.289	29.145	19.964	-14.829	25.085	221.315	47.025	0.00029341	0.0007685	0.00026751	1203.6	4.0729e-06	1.543e-05	1711.8	390.08	9.2901e-06	7.9676e-06	559.12	199.22	148.96	57.796	8.1919e-06	69.306	0.0047492	0.0050394	0.0013856	1195.4	4.6302e-05	5.4748e-05	1717.5	405.89	5.2344e-05	5.5287e-05	802.59	214.65	162.39	69.333	5.5191e-05	87.409	196.561	252.482	40.963	-54.340	258.110	42.396	-55.291	-48.938	228.728	121.485	-50.847	-46.689	-43.694	-38.415	-51.228	-42.551	-8191	255	
1291.460	1	1	0	0	0.18018	0.23491	0.061352	0.30648	0.13779	0.18926	0.25136	0.20689	0.076643	0.18639	0.33372	0.29084	0.10002	0.22079	0.12396	0.054245	-2.2333	-2.1542	-2.9313	-2.55	-2.5583	-2.7083	-2.4313	-2.7208	-2.7	-2.275	-3.0708	-2.5042	-2.3729	-2.9938	-2.3875	-2.6396	56.933	260.197	164.136	230.795	-42.665	255.990	189.915	221.323	78.108	217.519	31.493	71.926	267.855	252.783	283.552	205.520	0.00015157	0.00088085	0.00014693	1184.2	2.7169e-06	6.043e-06	1687.5	384.81	5.0406e-06	8.7894e-06	553.51	196.63	147.84	57.231	1.4146e-05	68.531	0.00475	0.0050397	0.0013955	1180.4	4.633e-05	5.4613e-05	1695.2	400.47	5.2411e-05	5.5351e-05	797.39	212.23	160.73	68.572	5.5144e-05	86.881	232.804	44.424	-48.873	-54.245	285.310	38.197	-55.201	-48.917	63.066	189.021	-51.091	-46.694	-43.378	-38.164	-12.013	-42.077	-8191	255	
1291.556	1	1	0	0	0.32235	0.2662	0.27579	0.29612	0.16743	0.050595	0.10445	0.10275	0.27392	0.11554	0.071261	0.14535	0.20951	0.12809	0.27756	0.27564	-2.3667	-2.2562	-3.0104	-2.6521	-2.4479	-2.8479	-2.5875	-2.8021	-2.575	-2.3583	-2.8563	-2.5896	-2.3104	-2.85	-2.0792	-2.6437	46.698	222.447	222.518	291.555	201.498	56.885	127.650	183.670	97.356	145.895	19.515	101.422	241.281	20.832	274.091	250.438	0.00011954	0.00058746	0.0001478	1177.1	9.6538e-07	1.4732e-05	1680.6	383.14	6.9035e-06	5.2054e-06	552.17	196.71	146.02	56.334	4.6546e-06	68.368	0.0047709	0.0050066	0.0013895	1174.5	4.6537e-05	5.4791e-05	1693.9	399.75	5.249e-05	5.5349e-05	798.33	212.17	160.29	68.505	5.5351e-05	86.764	234.382	22.043	63.096	-53.997	-61.785	33.968	-55.053	-48.862	219.709	126.717	-50.298	-46.272	-43.329	-38.258	67.548	-42.548	-8191	255	
1291.653	1	1	0	0	0.11329	0.24573	0.094335	0.068336	0.25541	0.20168	0.13294	0.24639	0.094056	0.064813	0.11587	0.11748	0.13076	0.081066	0.016575	0.14454	-2.4792	-2.2687	-2.9854	-2.7896	-2.3021	-3.0167	-2.4083	-2.4938	-2.8125	-2.1979	-2.6833	-2.6792	-2.1312	-2.775	-2.3604	-2.55	214.234	231.321	226.420	245.029	233.568	232.850	234.580	292.990	193.312	6.823	164.366	7.891	290.858	185.469	121.800	235.755	0.000173	0.0010328	0.00024035	1174.7	3.6055e-06	9.8111e-06	1686.2	382.79	9.3271e-06	8.8824e-06	546.49	196.7	147.77	56.55	1.5329e-06	67.668	0.0047412	0.0050618	0.0014033	1175.9	4.6588e-05	5.4969e-05	1699.4	400.65	5.2704e-05	5.5645e-05	799.98	211.76	160.16	68.276	5.5757e-05	86.393	-57.547	-25.226	65.546	-53.991	206.835	-47.962	-54.958	-48.808	105.283	-50.075	-49.482	-46.646	-43.684	-38.522	148.683	-42.675	-8191	255	
1291.749	1	1	0	0	0.2115	0.13421	0.22833	0.13689	0.29181	0.12416	0.067835	0.016298	0.12247	0.095235	0.07665	0.27096	0.13093	0.18769	0.10663	0.088874	-2.5104	-2.1354	-2.7812	-2.9542	-2.2188	-2.9396	-2.5646	-2.4208	-2.9479	-2.2354	-2.6042	-2.7104	-2.2708	-2.8625	-2.5	-2.4771	210.925	147.290	3.292	84.747	208.191	69.729	-40.902	81.117	-55.010	79.238	77.191	154.178	245.788	246.492	192.151	108.445	0.00017776	0.0011013	5.0619e-05	1171.8	2.9709e-06	1.8625e-05	1686.4	383.45	6.2264e-06	1.7726e-05	539.54	196.84	147.47	56.359	1.5435e-05	68.362	0.0047487	0.0050708	0.0014121	1171.2	4.6399e-05	5.5048e-05	1694.6	399.18	5.2526e-05	5.5728e-05	800.32	212.42	160.28	68.513	5.57e-05	86.817	209.910	14.889	-13.739	-53.952	283.559	149.373	-55.249	-49.209	189.693	63.295	-51.165	-46.401	-43.688	-38.698	90.981	-42.412	-8191	255	
1291.869	1	1	0	0	0.22073	0.25011	0.11176	0.21874	0.14699	0.20884	0.25421	0.17515	0.16445	0.19665	0.089152	0.14657	0.25359	0.065268	0.067354	0.30279	-2.6708	-2.2104	-2.7146	-2.8937	-2.2438	-3.0417	-2.8479	-2.5354	-2.8792	-2.2354	-2.5708	-2.6958	-2.3958	-2.8521	-2.5312	-2.4104	25.020	132.080	1.602	-59.711	284.047	-31.954	184.333	257.471	74.647	-21.983	284.427	32.532	79.062	158.667	209.895	107.699	0.00018814	0.00075872	9.4513e-05	1178.3	4.0491e-06	1.0818e-05	1682	382.53	2.7764e-06	1.1071e-05	550.82	198.67	148.55	56.64	1.1255e-05	68.622	0.004777	0.005081	0.0014093	1175.7	4.6825e-05	5.5467e-05	1696.8	400.44	5.2523e-05	5.5714e-05	803.99	213.64	161.49	68.712	5.5921e-05	86.982	10.861	87.170	89.497	-54.039	-21.608	-1.878	-54.882	-48.835	9.808	199.915	-50.950	-46.733	-43.351	-37.946	46.681	-42.209	-8191	255	
1291.964	1	1	0	0	0.030059	0.11014	0.092446	0.12113	0.1363	0.13306	0.28503	0.3053	0.13209	0.031149	0.23651	0.090602	0.16304	0.17032	0.37281	0.15287	-2.6729	-2.3125	-2.4875	-2.9896	-2.2167	-2.9771	-2.9583	-2.2896	-2.825	-2.3146	-2.4271	-2.9688	-2.3333	-2.8958	-2.6521	-2.2667	252.137	-51.380	96.439	86.402	22.091	291.325	197.915	160.675	77.325	184.634	246.567	195.918	289.084	165.809	188.959	7.421	5.9947e-05	0.00077741	0.00030084	1179.9	3.1025e-06	1.7218e-05	1691	384.15	4.0339e-06	1.6202e-05	554.26	197.74	148.52	56.862	1.7009e-05	68.415	0.0047583	0.0050803	0.0014083	1180.9	4.6405e-05	5.5516e-05	1700.8	402.49	5.2376e-05	5.5745e-05	804.41	213.28	161.82	69.097	5.5808e-05	86.898	263.470	111.937	113.484	-53.884	278.096	81.566	-55.115	-48.466	149.954	31.221	-51.204	-46.316	-43.542	-38.607	40.054	-42.174	-8191	255	
#DATA ENDS
