BOXY.EXE: ISS Imagent and Oximeter Data Acquisition Program Version 0.80
Ascii Record File

#ACQ INFORMATION
2  Detector Channels 
16  External MUX Channels 
1  Auxiliary Channels 
5000  Waveform (CCF) Frequency (Hz)
1  Waveforms Skipped 
30  Waveforms Averaged 
1  Cycles Averaged 
16  Acquisitions per Waveform 
10.0806  Updata Rate (Hz) 

#FILE INFORMATION
TRUE -- External MUX Channel results are PARSED.
FALSE -- AC DC and Phase are NOT grouped.
TRUE -- Companion Program Settings File CREATED.
FALSE -- AC data not excluded
FALSE -- DC data not excluded
FALSE -- Phase data not excluded
FALSE -- Auxillary Chn. data not excluded
Tab delimiters

#CALIBRATION STATE
TRUE -- Waveform Calibration Values APPLIED.


#AUX CALIBRATION VALUES
Val Type	aux-1	

Term	1.0000e+00	
Factor	0.0000e+00	


#WF CALIBRATION VALUES
A = Detector Channel
Val Type	A-AC1	A-AC2	A-AC3	A-AC4	A-AC5	A-AC6	A-AC7	A-AC8	A-AC9	A-AC10	A-AC11	A-AC12	A-AC13	A-AC14	A-AC15	A-AC16	A-DC1	A-DC2	A-DC3	A-DC4	A-DC5	A-DC6	A-DC7	A-DC8	A-DC9	A-DC10	A-DC11	A-DC12	A-DC13	A-DC14	A-DC15	A-DC16	A-Ph1	A-Ph2	A-Ph3	A-Ph4	A-Ph5	A-Ph6	A-Ph7	A-Ph8	A-Ph9	A-Ph10	A-Ph11	A-Ph12	A-Ph13	A-Ph14	A-Ph15	A-Ph16	

Term	0.00000e+00	0.00000e+00	0.00000e+00	0.00000e+00	0.00000e+00	0.00000e+00	0.00000e+00	0.00000e+00	0.00000e+00	0.00000e+00	0.00000e+00	0.00000e+00	0.00000e+00	0.00000e+00	0.00000e+00	0.00000e+00	0.00000e+00	0.00000e+00	0.00000e+00	0.00000e+00	0.00000e+00	0.00000e+00	0.00000e+00	0.00000e+00	0.00000e+00	0.00000e+00	0.00000e+00	0.00000e+00	0.00000e+00	0.00000e+00	0.00000e+00	0.00000e+00	0.00000e+00	0.00000e+00	0.00000e+00	0.00000e+00	0.00000e+00	0.00000e+00	0.00000e+00	0.00000e+00	0.00000e+00	0.00000e+00	0.00000e+00	0.00000e+00	0.00000e+00	0.00000e+00	0.00000e+00	0.00000e+00	
Factor	1.00000e+00	1.00000e+00	1.00000e+00	1.00000e+00	1.00000e+00	1.00000e+00	1.00000e+00	1.00000e+00	1.00000e+00	1.00000e+00	1.00000e+00	1.00000e+00	1.00000e+00	1.00000e+00	1.00000e+00	1.00000e+00	1.00000e+00	1.00000e+00	1.00000e+00	1.00000e+00	1.00000e+00	1.00000e+00	1.00000e+00	1.00000e+00	1.00000e+00	1.00000e+00	1.00000e+00	1.00000e+00	1.00000e+00	1.00000e+00	1.00000e+00	1.00000e+00	X	X	X	X	X	X	X	X	X	X	X	X	X	X	X	X	

B = Detector Channel
Val Type	B-AC1	B-AC2	B-AC3	B-AC4	B-AC5	B-AC6	B-AC7	B-AC8	B-AC9	B-AC10	B-AC11	B-AC12	B-AC13	B-AC14	B-AC15	B-AC16	B-DC1	B-DC2	B-DC3	B-DC4	B-DC5	B-DC6	B-DC7	B-DC8	B-DC9	B-DC10	B-DC11	B-DC12	B-DC13	B-DC14	B-DC15	B-DC16	B-Ph1	B-Ph2	B-Ph3	B-Ph4	B-Ph5	B-Ph6	B-Ph7	B-Ph8	B-Ph9	B-Ph10	B-Ph11	B-Ph12	B-Ph13	B-Ph14	B-Ph15	B-Ph16	

Term	0.00000e+00	0.00000e+00	0.00000e+00	0.00000e+00	0.00000e+00	0.00000e+00	0.00000e+00	0.00000e+00	0.00000e+00	0.00000e+00	0.00000e+00	0.00000e+00	0.00000e+00	0.00000e+00	0.00000e+00	0.00000e+00	0.00000e+00	0.00000e+00	0.00000e+00	0.00000e+00	0.00000e+00	0.00000e+00	0.00000e+00	0.00000e+00	0.00000e+00	0.00000e+00	0.00000e+00	0.00000e+00	0.00000e+00	0.00000e+00	0.00000e+00	0.00000e+00	1.28517e+01	-1.29853e+02	-1.21677e+02	-1.83139e+02	-6.87604e+01	-6.58281e+01	-1.58786e+02	-1.62015e+02	-3.78925e+01	-6.62887e+01	-1.74618e+02	-1.69957e+02	-1.81837e+02	-1.77561e+02	-6.52837e+01	-1.50666e+02	
Factor	4.19535e-05	1.47765e-04	4.14717e-05	1.57738e-01	1.79528e-06	1.54020e-06	1.56161e-01	5.11438e-02	2.10370e-06	1.42995e-06	8.44469e-02	2.60920e-02	3.29983e-02	8.55630e-03	1.62642e-06	1.22491e-02	7.88855e-06	9.80151e-06	2.73652e-06	8.23762e-02	1.02511e-07	1.08110e-07	7.62380e-02	2.67946e-02	1.02899e-07	1.07992e-07	4.29504e-02	1.32841e-02	1.72875e-02	4.52344e-03	1.05122e-07	6.26707e-03	X	X	X	X	X	X	X	X	X	X	X	X	X	X	X	X	



#DISTANCE SETTINGS
A = Detector Channel
A-1	A-2	A-3	A-4	A-5	A-6	A-7	A-8	A-9	A-10	A-11	A-12	A-13	A-14	A-15	A-16	

2.5000e+00	3.0000e+00	2.5000e+00	3.0000e+00	2.0000e+00	3.0000e+00	1.5000e+00	3.0000e+00	3.0000e+00	3.0000e+00	3.0000e+00	3.0000e+00	3.0000e+00	3.0000e+00	1.5000e+00	3.0000e+00	

B = Detector Channel
B-1	B-2	B-3	B-4	B-5	B-6	B-7	B-8	B-9	B-10	B-11	B-12	B-13	B-14	B-15	B-16	

1.0000e+01	1.0000e+01	1.0000e+01	1.4400e+00	1.0000e+01	1.0000e+01	1.5100e+00	1.9400e+00	1.0000e+01	1.0000e+01	1.9900e+00	2.4900e+00	2.4100e+00	2.9000e+00	1.0000e+01	2.9800e+00	




#DATA BEGINS
time	group	step	mark	flag	A-AC1	A-AC2	A-AC3	A-AC4	A-AC5	A-AC6	A-AC7	A-AC8	A-AC9	A-AC10	A-AC11	A-AC12	A-AC13	A-AC14	A-AC15	A-AC16	A-DC1	A-DC2	A-DC3	A-DC4	A-DC5	A-DC6	A-DC7	A-DC8	A-DC9	A-DC10	A-DC11	A-DC12	A-DC13	A-DC14	A-DC15	A-DC16	A-Ph1	A-Ph2	A-Ph3	A-Ph4	A-Ph5	A-Ph6	A-Ph7	A-Ph8	A-Ph9	A-Ph10	A-Ph11	A-Ph12	A-Ph13	A-Ph14	A-Ph15	A-Ph16	B-AC1	B-AC2	B-AC3	B-AC4	B-AC5	B-AC6	B-AC7	B-AC8	B-AC9	B-AC10	B-AC11	B-AC12	B-AC13	B-AC14	B-AC15	B-AC16	B-DC1	B-DC2	B-DC3	B-DC4	B-DC5	B-DC6	B-DC7	B-DC8	B-DC9	B-DC10	B-DC11	B-DC12	B-DC13	B-DC14	B-DC15	B-DC16	B-Ph1	B-Ph2	B-Ph3	B-Ph4	B-Ph5	B-Ph6	B-Ph7	B-Ph8	B-Ph9	B-Ph10	B-Ph11	B-Ph12	B-Ph13	B-Ph14	B-Ph15	B-Ph16	aux-1	digaux	

13411.056	1	1	0	256	0.14663	0.22549	0.048689	0.14651	0.19095	0.093157	0.42491	0.24674	0.05917	0.24997	0.26994	0.25097	0.11321	0.1844	0.094799	0.070457	-1.8542	-2.7979	-2.6708	-2.5521	-2.9729	-2.575	-2.7167	-3.225	-2.4729	-2.7708	-2.6937	-2.5021	-3.1146	-2.6813	-2.525	-3.1229	357.691	333.325	177.556	111.825	280.473	435.009	376.736	445.833	331.937	264.493	401.886	409.108	241.566	449.568	236.030	389.903	0.0016303	3.0428e-05	0.00023947	1407	1.0079e-05	1.0014e-05	1253.7	521.46	1.11e-05	5.3513e-06	493.02	182.39	184.25	68.787	1.0485e-05	69.212	0.0012245	0.0012419	0.00035128	1283.7	1.3653e-05	1.3498e-05	1142.7	477.21	1.3312e-05	1.4067e-05	453.03	166.5	168.81	63.589	1.3849e-05	63.973	313.432	171.504	229.243	116.234	242.419	265.650	114.624	120.920	266.523	274.464	118.594	123.058	125.352	129.651	271.461	125.957	-8191	255	
13411.150	1	1	0	0	0.15703	0.037605	0.053542	0.43493	0.38152	0.054537	0.24022	0.23743	0.097283	0.21686	0.096321	0.17961	0.2516	0.38772	0.29101	0.12734	-1.8896	-2.7625	-2.8292	-2.5687	-2.9292	-2.7083	-2.6937	-3.4021	-2.325	-2.7771	-3.0062	-2.5583	-3.1167	-2.6063	-2.3688	-3.0104	389.733	228.971	461.198	419.007	427.456	303.276	361.446	419.694	401.983	441.986	449.983	401.966	162.150	456.081	212.250	379.460	0.0015928	0.00080947	0.00020577	1402.4	1.2896e-05	9.2536e-06	1251.9	519.93	2.0747e-05	7.7905e-06	493.18	181.08	185.08	68.885	6.9526e-06	68.992	0.0012269	0.0012933	0.00035178	1285	1.3532e-05	1.4266e-05	1142.5	476.74	1.3263e-05	1.4088e-05	452.44	166.18	169.56	63.595	1.3903e-05	63.756	315.947	197.095	206.288	115.504	208.031	294.408	114.862	120.898	262.217	298.340	118.395	122.918	125.305	129.893	216.890	125.950	-8191	255	
13411.246	1	1	0	0	0.26368	0.082746	0.17687	0.40485	0.20269	0.18306	0.14884	0.31291	0.2622	0.21711	0.15438	0.12325	0.19301	0.23003	0.058121	0.29805	-1.9104	-2.6312	-2.8438	-2.4958	-2.7708	-2.675	-2.2687	-3.1417	-2.4917	-2.7	-3.0125	-2.3896	-2.9646	-2.8896	-2.4854	-3.1792	414.811	302.782	385.647	414.233	388.078	389.179	256.421	417.688	306.709	378.881	446.471	425.255	401.483	367.082	251.559	108.626	0.0017085	0.00080023	9.3734e-05	1409.6	1.0637e-05	8.9665e-06	1244.7	521.03	1.4653e-05	4.1323e-06	490.59	181.82	184.6	69.182	5.0934e-06	69.058	0.0012244	0.0013227	0.00036197	1287.3	1.3722e-05	1.4372e-05	1138.3	477.21	1.3804e-05	1.416e-05	450.46	166.24	169.77	63.986	1.4e-05	63.946	318.887	207.082	266.796	116.094	264.288	264.444	114.228	119.964	277.940	333.701	117.751	121.981	124.594	128.991	267.553	125.217	-8191	255	
13411.342	1	1	0	0	0.17434	0.20594	0.24552	0.089647	0.21628	0.22377	0.22723	0.23793	0.16424	0.22601	0.14593	0.40422	0.078439	0.12806	0.24134	0.16909	-2.1937	-2.4833	-2.9292	-2.55	-2.7396	-2.7271	-2.4562	-3.1542	-2.5354	-2.4	-2.9875	-2.4958	-2.7542	-3.0583	-2.1562	-3.0687	373.239	321.504	288.590	404.495	130.411	435.783	407.559	363.643	150.269	359.688	366.908	457.185	291.954	356.685	368.623	222.438	0.0016335	0.00050549	0.0001266	1396	1.4041e-05	2.541e-06	1242.5	520.03	1.5569e-05	4.5005e-06	493.52	180.68	185.11	68.701	1.1425e-05	68.79	0.0012624	0.0012961	0.00035774	1282.7	1.3489e-05	1.3793e-05	1136.2	475.3	1.3507e-05	1.4368e-05	452.01	165.86	168.96	63.705	1.391e-05	63.773	314.878	206.296	213.168	115.194	236.247	275.401	114.330	120.254	304.201	267.930	117.923	122.208	124.524	129.271	250.755	125.490	-8191	255	
13411.439	1	1	0	0	0.072789	0.37183	0.064824	0.098921	0.37699	0.14725	0.47313	0.31669	0.18381	0.26759	0.27313	0.28191	0.16346	0.044672	0.037005	0.18887	-2.2667	-2.3187	-3.0208	-2.5729	-2.6562	-3.0563	-2.4292	-3.1729	-2.475	-2.3	-3.0333	-2.3375	-2.8	-3.2104	-2.2458	-2.9833	302.489	228.103	396.032	414.954	110.321	170.727	424.139	376.194	426.985	114.716	459.424	424.524	446.207	418.259	445.830	454.590	0.0015631	0.00078297	0.00027759	1403.9	1.0801e-05	1.0597e-05	1248.6	520.97	1.9152e-05	7.0708e-06	492.62	181.46	184.11	68.45	5.5165e-06	69.511	0.0012294	0.0013022	0.00035639	1284.7	1.343e-05	1.3993e-05	1140.1	476.86	1.3707e-05	1.4412e-05	451.73	166.04	168.84	63.516	1.4271e-05	63.898	318.143	209.035	183.318	115.281	216.701	251.366	114.464	119.919	264.575	245.332	117.954	122.239	124.502	129.033	216.615	125.041	-8191	255	
13411.535	1	1	0	0	0.23895	0.12967	0.096514	0.20416	0.01355	0.18225	0.17343	0.15538	0.11137	0.13504	0.13412	0.1224	0.031136	0.07505	0.21472	0.20887	-2.2792	-2.3229	-2.9688	-2.6042	-2.5729	-2.9396	-2.55	-2.9229	-2.6708	-2.2833	-3.1312	-2.4229	-2.6896	-2.9646	-2.4208	-2.8354	196.186	458.003	401.950	432.157	109.679	102.561	406.361	381.236	205.970	224.070	155.939	110.164	406.583	240.628	290.730	423.303	0.0015489	0.00041696	0.0001347	1403.9	5.0674e-06	1.0414e-05	1251.1	519.44	1.5959e-05	1.2841e-05	494.28	183.06	186.1	69.196	5.8158e-06	69.55	0.0012323	0.001293	0.0003587	1283.8	1.3404e-05	1.4102e-05	1144.1	476.17	1.3772e-05	1.425e-05	453.56	167.26	170.36	64.101	1.4045e-05	64.399	319.753	128.259	165.954	115.021	289.258	259.329	114.301	120.162	289.959	248.385	118.079	122.336	124.523	129.177	223.687	125.268	-8191	255	
13411.631	1	1	0	0	0.29406	0.19873	0.026641	0.14281	0.21482	0.067363	0.13876	0.19019	0.079674	0.21498	0.37299	0.10164	0.34021	0.1914	0.20194	0.14852	-2.3833	-2.3417	-2.9313	-2.7438	-2.5771	-2.8208	-2.5521	-2.8667	-2.8354	-2.4792	-3.0292	-2.7229	-2.5375	-3.075	-2.4083	-2.8542	225.141	314.890	308.601	413.421	335.132	411.606	422.974	408.705	234.730	249.497	120.346	103.394	436.361	438.255	118.616	117.328	0.0016303	0.00042101	0.0002476	1404.6	1.4493e-05	7.6961e-06	1252.3	521.51	1.259e-05	7.3176e-06	491.33	183.21	187.49	70.011	1.0555e-05	70.091	0.001257	0.0013057	0.00036327	1288.4	1.368e-05	1.4548e-05	1142.6	478.81	1.4141e-05	1.4545e-05	452.4	167.57	171.5	65.024	1.4547e-05	64.908	318.538	197.894	215.595	115.313	277.513	223.927	114.353	120.244	310.280	255.365	117.712	122.376	124.605	128.772	258.950	125.388	-8191	255	
13411.727	1	1	0	0	0.2012	0.098518	0.26224	0.47374	0.072065	0.1915	0.3551	0.23003	0.18116	0.12814	0.27269	0.21766	0.2225	0.13263	0.16628	0.24652	-2.4667	-2.2292	-2.9146	-2.725	-2.3979	-3.15	-2.5833	-2.75	-3.0854	-2.1646	-2.8708	-2.7229	-2.4958	-3.1	-2.6188	-2.6854	405.223	332.436	104.690	443.985	376.655	204.083	396.409	411.501	377.476	362.855	413.057	119.509	437.193	427.996	355.396	375.764	0.0017423	0.00068554	0.00021786	1406.2	9.805e-06	4.9825e-06	1251.8	526.79	1.4137e-05	9.4391e-06	495.32	183.09	187.15	70.258	7.6292e-06	70.174	0.0012904	0.0013166	0.00036717	1286.6	1.4005e-05	1.4387e-05	1141.8	480.15	1.3907e-05	1.4443e-05	454.18	167.65	171.59	65.083	1.4178e-05	64.878	320.723	149.291	174.033	115.454	203.283	230.804	114.272	120.021	253.562	236.245	117.778	122.613	124.710	129.217	254.433	125.526	-8191	255	
13411.848	1	1	0	0	0.13898	0.074116	0.10983	0.033735	0.19781	0.19208	0.22638	0.2884	0.073619	0.097618	0.26459	0.066759	0.03362	0.14086	0.1609	0.22075	-2.4813	-2.2354	-2.9	-2.8875	-2.5	-2.9313	-2.6708	-2.6354	-2.9708	-2.1271	-2.9854	-2.9104	-2.4667	-3.1979	-2.7917	-2.7687	416.824	364.689	181.932	404.951	154.990	462.172	422.214	424.372	307.767	277.656	369.631	407.729	405.323	426.210	319.049	404.098	0.001705	0.00083384	0.00021751	1395.9	1.0298e-05	8.3552e-06	1246.7	521.35	1.4206e-05	5.8903e-06	496.08	182.9	187.14	69.858	6.1327e-06	70.103	0.0012977	0.0013423	0.00036733	1286.7	1.4098e-05	1.4264e-05	1139.8	479.07	1.4065e-05	1.4426e-05	454.92	168.1	171.66	64.838	1.4487e-05	64.839	315.512	183.423	192.286	115.490	255.192	264.307	114.814	120.396	276.344	234.602	118.203	122.596	124.822	129.227	269.070	125.470	-8191	255	
13411.944	1	1	0	0	0.041133	0.090763	0.10586	0.044796	0.1189	0.053482	0.16324	0.26892	0.059143	0.19317	0.18874	0.38154	0.30974	0.26974	0.21591	0.20405	-2.5354	-2.35	-2.575	-2.9542	-2.5167	-2.8583	-2.9688	-2.5896	-2.9583	-2.3979	-2.7917	-2.8646	-2.4771	-3.0542	-2.6979	-2.5563	461.990	215.213	109.169	381.325	241.746	429.997	456.445	432.387	252.749	170.263	223.780	386.053	385.159	430.538	133.198	455.433	0.0015045	0.00079572	0.00025866	1409.6	1.0708e-05	6.002e-06	1257.3	522.37	7.4223e-06	6.329e-06	493.53	182.76	188.37	70.095	1.428e-05	70.113	0.0012719	0.0013039	0.00037026	1290.8	1.4218e-05	1.4345e-05	1147.2	479.17	1.4163e-05	1.4368e-05	455.51	167.73	171.88	65.015	1.4509e-05	64.932	319.288	200.670	189.947	115.437	274.241	268.312	114.782	120.422	256.499	261.750	118.306	122.832	124.863	129.391	283.717	125.461	-8191	255	
13412.040	1	1	0	0	0.34038	0.14731	0.20716	0.27885	0.19197	0.21626	0.24715	0.2519	0.054646	0.074231	0.22971	0.15003	0.32654	0.1039	0.15998	0.20509	-2.6188	-2.3458	-2.6958	-3.1437	-2.3104	-2.9479	-2.9625	-2.6292	-3.0771	-2.5771	-2.7625	-3.0396	-2.4458	-2.8167	-2.6813	-2.4833	217.274	356.663	188.145	446.153	460.088	131.287	386.389	456.530	235.333	175.340	405.907	385.402	455.368	385.860	105.172	441.050	0.0016967	0.00081936	0.00019174	1412.2	1.0883e-05	6.4636e-06	1255.6	524.58	1.5917e-05	8.8198e-06	493.54	183.13	187.79	69.913	9.2143e-06	70.436	0.0012798	0.0013171	0.00037329	1291.8	1.4142e-05	1.4427e-05	1144	479.83	1.4096e-05	1.459e-05	453.47	167.99	172.22	64.85	1.4327e-05	64.924	322.069	174.299	228.443	115.608	212.091	300.013	114.790	120.834	276.347	299.232	118.694	122.978	125.359	129.385	250.664	125.505	-8191	255	
13412.136	1	1	0	0	0.37121	0.13629	0.090773	0.085881	0.14809	0.12314	0.13688	0.087682	0.089123	0.24859	0.14163	0.081759	0.16459	0.15285	0.14542	0.068395	-2.6833	-2.6625	-2.4208	-3.0687	-2.425	-2.6437	-2.9813	-2.6271	-3.05	-2.5479	-2.4333	-3.1958	-2.4583	-2.9667	-2.8542	-2.5104	193.977	432.716	354.265	380.237	143.757	285.517	380.636	129.591	276.636	435.693	406.131	448.544	444.886	404.764	248.801	149.755	0.0017353	3.9407e-05	0.00022876	1410.3	6.3392e-06	8.951e-06	1254.2	523.65	1.4144e-05	7.2352e-06	491.19	183.37	188.73	70.335	1.2188e-05	69.97	0.0013031	0.0013582	0.00037478	1290.5	1.3984e-05	1.4519e-05	1144.5	479.64	1.4454e-05	1.5016e-05	452.94	168.28	172.69	65.125	1.507e-05	64.759	320.650	346.084	198.866	115.768	248.273	294.277	114.875	120.652	278.575	257.020	118.382	122.773	124.972	129.444	236.144	125.676	-8191	255	
13412.231	1	1	0	0	0.23107	0.1452	0.10189	0.15034	0.31538	0.058743	0.2439	0.12998	0.28047	0.15619	0.19553	0.19177	0.22423	0.18948	0.019239	0.26012	-2.5083	-2.5958	-2.6583	-3.1937	-2.3646	-2.7458	-3.0417	-2.4813	-2.975	-2.7958	-2.5417	-3.225	-2.4437	-2.8042	-3.0062	-2.5438	422.923	377.849	446.403	403.967	110.823	220.127	403.075	451.833	421.786	175.616	189.319	440.740	170.906	455.278	449.665	335.178	0.001777	0.00079246	0.00019208	1409.4	1.1863e-05	6.0643e-06	1251	520.3	1.0184e-05	1.2876e-05	488.05	181.76	186.59	69.148	1.4383e-05	69.14	0.0012886	0.0013327	0.00037191	1289	1.4134e-05	1.4604e-05	1141.2	477.74	1.4549e-05	1.4568e-05	450.62	166.79	170.74	64.078	1.4462e-05	63.867	316.194	205.307	219.406	116.090	298.960	214.242	114.921	120.509	319.635	247.505	118.608	122.956	124.971	129.063	235.980	125.479	-8191	255	
13412.328	1	1	0	0	0.049421	0.27391	0.066506	0.30664	0.022772	0.23451	0.24983	0.42885	0.05997	0.084643	0.18187	0.21559	0.15116	0.21202	0.1172	0.24044	-2.4271	-2.7	-2.3708	-3.1208	-2.4896	-2.7833	-3.1396	-2.5042	-2.9688	-2.6979	-2.5375	-3.1063	-2.6333	-2.6562	-3.0333	-2.4458	130.773	144.462	148.577	428.074	259.302	196.087	394.589	407.651	294.550	307.785	433.441	110.210	391.540	454.964	402.705	111.747	0.0015063	0.00051603	0.0001691	1414.9	7.5371e-06	5.5101e-06	1249.2	515.58	1.2647e-05	1.9754e-06	489.4	180.03	184.14	67.82	1.5642e-05	67.717	0.0012718	0.0013382	0.00036417	1292.6	1.4042e-05	1.4321e-05	1142.3	473.6	1.403e-05	1.4816e-05	448.64	165.01	169.02	62.947	1.4324e-05	62.793	316.223	176.381	169.147	115.416	233.183	296.697	114.741	120.177	243.032	289.937	117.735	122.351	125.107	129.171	251.474	125.339	-8191	255	
13412.447	1	1	0	0	0.24686	0.21527	0.1018	0.051618	0.30841	0.10284	0.072849	0.15776	0.029009	0.19541	0.18841	0.086289	0.18304	0.514	0.022621	0.38709	-2.4042	-2.8229	-2.325	-3.0687	-2.6833	-2.5771	-3.35	-2.5583	-2.7375	-3.0167	-2.3896	-3.0271	-2.7792	-2.5104	-3.0125	-2.6125	380.793	231.094	357.171	338.957	135.938	354.702	452.744	408.814	155.912	306.982	111.620	119.155	207.188	402.351	193.602	377.263	0.0016185	0.00089937	0.00015537	1405.2	7.7226e-06	7.3305e-06	1248.2	517.49	1.4603e-05	3.8998e-06	490.56	179.99	183.77	67.112	7.3783e-06	67.9	0.001271	0.0012954	0.00036337	1289.4	1.3986e-05	1.4456e-05	1139.5	473.08	1.3795e-05	1.4107e-05	447.41	164.64	168.23	62.26	1.3918e-05	62.657	317.110	150.606	238.824	115.463	305.513	297.738	114.714	120.670	263.277	181.220	118.029	122.540	125.327	129.251	228.234	125.659	-8191	255	
13412.543	1	1	0	0	0.25018	0.095147	0.04329	0.25953	0.26312	0.1476	0.29378	0.2837	0.18716	0.085938	0.19762	0.18244	0.23259	0.32187	0.093177	0.11184	-2.1292	-2.8229	-2.3187	-3.0333	-2.6917	-2.4604	-3.2792	-2.5812	-2.6188	-2.9062	-2.5042	-2.9042	-2.7375	-2.5271	-2.8292	-2.7812	214.163	376.103	233.086	169.331	246.217	256.084	395.211	366.234	256.038	196.101	405.432	374.850	180.508	214.732	379.462	104.687	0.0015807	0.0010024	0.00023151	1402.5	1.7389e-05	1.0965e-05	1248.3	514.66	2.2792e-05	6.1497e-06	486.6	179.49	183.27	66.709	1.9211e-06	66.885	0.001245	0.0013389	0.00035962	1287.7	1.362e-05	1.4491e-05	1142	471.21	1.3666e-05	1.3941e-05	446.92	164.07	167.45	61.865	1.39e-05	61.984	321.323	213.771	207.698	115.293	252.990	240.685	114.837	120.534	264.925	210.595	118.273	122.819	125.311	129.544	234.455	125.955	-8191	255	
13412.640	1	1	0	0	0.26419	0.14529	0.15263	0.096107	0.22777	0.18386	0.30522	0.17698	0.10186	0.13244	0.49919	0.12693	0.31568	0.2079	0.072658	0.32933	-2.1292	-2.7729	-2.4	-3.1354	-2.7938	-2.4125	-3.1042	-2.6708	-2.5125	-2.8396	-2.3771	-3.0417	-3.0396	-2.3521	-2.9708	-2.5229	139.999	139.411	114.490	425.817	410.208	153.483	358.545	416.769	367.396	204.444	418.202	453.927	434.219	432.824	299.381	418.873	0.0016381	0.00061887	4.9614e-05	1403.1	7.2616e-06	6.5607e-06	1244.4	516.14	1.4214e-05	7.1667e-06	483.01	177.89	182.59	66.073	1.1794e-05	66.14	0.0012819	0.0012927	0.00035975	1285.3	1.3735e-05	1.4504e-05	1135.1	471.7	1.3793e-05	1.388e-05	443.01	162.37	166.42	61.222	1.4097e-05	61.222	314.527	212.864	105.610	115.616	213.117	202.522	115.258	120.741	276.366	269.235	118.247	122.537	125.467	130.213	261.451	126.143	-8191	255	
13412.736	1	1	0	0	0.17108	0.16878	0.10556	0.1493	0.1237	0.31285	0.27245	0.44354	0.10854	0.23974	0.24112	0.14967	0.32568	0.3368	0.10223	0.18034	-2.1271	-2.8812	-2.2188	-2.8208	-3.0312	-2.4229	-3.025	-2.7542	-2.5687	-2.975	-2.5396	-2.8146	-3.1042	-2.3958	-2.9625	-2.8542	390.064	170.298	353.153	441.472	384.522	170.753	418.063	411.746	332.111	193.387	442.177	190.801	370.906	384.805	284.091	129.402	0.0015304	0.0007313	0.00023366	1405.7	3.7676e-06	7.7522e-06	1242.9	511.2	1.2729e-05	6.518e-06	475.54	175.31	179.87	65.122	7.1044e-06	65.211	0.0012465	0.001274	0.00035743	1286.4	1.3787e-05	1.4097e-05	1132	467.84	1.3477e-05	1.4151e-05	439.21	160.26	164.57	60.308	1.3738e-05	60.179	318.175	141.760	215.723	116.201	229.593	265.909	115.003	120.960	286.918	287.787	118.788	122.884	125.460	129.820	244.641	125.909	-8191	255	
13412.832	1	1	0	0	0.17197	0.28905	0.13633	0.38735	0.12737	0.19634	0.21107	0.29329	0.096259	0.062412	0.031957	0.27106	0.06746	0.10384	0.25138	0.048987	-1.9042	-2.8417	-2.3646	-2.9167	-3.025	-2.2792	-3.1417	-2.9062	-2.4771	-3.1271	-2.5042	-2.6229	-3.1354	-2.4896	-2.7104	-2.9667	334.677	397.466	355.468	386.136	392.010	219.108	426.393	393.291	136.497	437.096	209.038	434.664	398.899	441.774	150.346	346.582	0.0015373	0.00034661	0.00022712	1404	8.206e-06	8.7264e-06	1240.8	511.79	1.8103e-05	9.7402e-06	477.09	175.37	179.48	65.206	8.4486e-06	65.332	0.0012144	0.0012846	0.00035368	1284.1	1.366e-05	1.3863e-05	1131.2	467.43	1.3885e-05	1.3823e-05	439.05	160.53	164.88	60.546	1.4033e-05	60.706	317.526	211.401	176.739	115.310	226.117	334.022	114.527	120.268	272.122	259.308	118.182	122.729	124.981	129.266	248.960	125.685	-8191	255	
13412.928	1	1	0	0	0.27424	0.13206	0.16175	0.167	0.21482	0.17317	0.14618	0.16626	0.061436	0.25974	0.055608	0.1815	0.11053	0.14416	0.1368	0.22628	-1.7875	-2.9437	-2.45	-2.6813	-2.7479	-2.3854	-3.0375	-3.0062	-2.3312	-2.9313	-2.7979	-2.4771	-2.9583	-2.4917	-2.6354	-2.9979	102.565	423.404	111.360	421.077	199.818	295.365	123.745	406.544	461.990	398.451	355.658	429.816	432.170	154.965	406.400	358.256	0.0015284	0.00068186	0.0002765	1404.1	1.0238e-05	7.9049e-06	1242.4	510.1	8.0805e-06	1.0189e-05	483.3	177.49	183.57	66.637	2.4188e-06	67.086	0.0011938	0.0012344	0.00034659	1283.6	1.3602e-05	1.3809e-05	1133.3	468.92	1.3685e-05	1.4074e-05	442.97	162.9	167.41	61.875	1.3936e-05	61.962	323.054	199.064	180.095	115.332	264.330	220.778	114.372	120.160	258.973	304.322	118.444	122.831	125.472	129.333	307.980	125.805	-8191	255	
13413.024	1	1	0	0	0.14144	0.20651	0.18853	0.23069	0.21657	0.13174	0.24551	0.076909	0.02674	0.12263	0.33872	0.14609	0.14346	0.24003	0.14193	0.22802	-1.9917	-3.0125	-2.7229	-2.7229	-2.9146	-2.4375	-2.8812	-2.9688	-2.3375	-2.9271	-2.7083	-2.5958	-3.3542	-2.6292	-2.7	-3.1479	401.309	255.840	173.011	385.855	188.041	396.885	356.337	362.170	447.078	125.354	338.154	397.079	438.015	349.608	186.007	374.736	0.0015869	0.00087033	0.00020261	1405.4	1.5944e-05	1.1868e-05	1249.1	513.4	1.6862e-05	8.158e-06	481.4	177.45	182.99	66.36	1.0324e-05	66.629	0.0012429	0.0013195	0.00035929	1286	1.3736e-05	1.3846e-05	1135.1	469.11	1.3832e-05	1.3979e-05	443.17	162.93	167.5	61.531	1.4093e-05	61.624	315.623	214.860	179.179	115.685	265.646	252.607	114.859	120.896	265.463	245.290	119.050	122.787	125.381	129.978	254.606	126.483	-8191	255	
13413.143	1	1	0	0	0.13758	0.084019	0.25996	0.30949	0.13588	0.16619	0.30903	0.14949	0.052976	0.080563	0.063219	0.040418	0.029228	0.18956	0.27858	0.19434	-2.0792	-2.9521	-2.6521	-2.4458	-3.0667	-2.6583	-2.6479	-3.2271	-2.4521	-2.9313	-2.8104	-2.3125	-3.0458	-2.7521	-2.5604	-2.9896	424.331	450.987	132.740	418.855	317.089	352.016	453.281	451.055	361.336	150.644	328.320	298.331	370.470	445.726	111.018	382.855	0.001537	0.0010591	0.00010315	1401.4	1.19e-05	6.7836e-06	1240.6	510.24	1.9972e-05	4.8972e-06	482.46	177.97	184.42	67.311	7.9041e-06	67.05	0.0012522	0.0012868	0.00037322	1283.5	1.3951e-05	1.4498e-05	1131	469.66	1.3749e-05	1.4258e-05	443.36	163.25	168.44	62.186	1.448e-05	62.065	319.555	201.864	213.451	116.222	251.712	257.866	114.981	121.113	289.037	239.209	118.697	123.271	125.473	129.857	250.494	126.622	-8191	255	
13413.239	1	1	0	0	0.29424	0.050513	0.16738	0.28053	0.067745	0.087145	0.26622	0.18118	0.094806	0.10748	0.040474	0.1946	0.101	0.13451	0.16685	0.15463	-1.9813	-2.6271	-2.65	-2.4875	-2.8479	-2.7333	-2.6583	-3.25	-2.2958	-2.675	-2.95	-2.2417	-2.9917	-2.7521	-2.3187	-3.1208	155.020	216.442	270.694	438.569	425.522	199.831	406.153	379.553	312.722	183.402	366.896	374.810	129.677	165.784	423.106	446.725	0.0015175	0.00077545	0.00033188	1404	1.745e-05	8.2433e-06	1234.5	512.81	1.3485e-05	4.6774e-06	474.37	177.22	182.64	66.214	1.2385e-05	66.305	0.0012492	0.0013222	0.00037363	1285.4	1.3879e-05	1.4564e-05	1128.8	469.98	1.3871e-05	1.4241e-05	438.89	162	167.27	61.38	1.4455e-05	61.074	319.146	232.524	227.625	115.829	249.355	284.972	115.291	121.081	275.326	264.612	118.477	122.554	125.478	129.311	245.681	125.836	-8191	255	
13413.311	1	1	0	0	0.1013	0.26495	0.1034	0.22126	0.16969	0.17256	0.22532	0.20889	0.071473	0.10261	0.20851	0.18513	0.13082	0.30955	0.23483	0.10451	-2.0062	-2.675	-2.8937	-2.6	-2.9021	-2.6396	-2.625	-3.1813	-2.5146	-2.6458	-3.1521	-2.35	-3.0438	-2.9354	-2.4313	-3.1333	254.390	269.260	420.081	413.901	345.059	168.048	385.229	433.537	414.597	343.096	449.471	261.625	442.416	124.027	365.034	288.645	0.0015162	0.00081079	0.00013646	1403.1	1.9373e-05	7.4422e-06	1238.3	507.42	1.4059e-05	4.1906e-06	477.13	175.58	181.74	65.017	1.1097e-05	65.377	0.0012319	0.0013221	0.00037225	1283.7	1.3905e-05	1.4373e-05	1129.2	466.03	1.4007e-05	1.4358e-05	437.09	160.83	165.89	60.486	1.4352e-05	60.35	322.073	236.236	189.470	115.956	268.227	267.721	114.961	121.050	284.293	202.578	119.019	122.968	125.479	129.913	226.510	126.502	-8191	255	
13413.409	1	1	0	0	0.26034	0.25999	0.27173	0.037608	0.16959	0.091637	0.27482	0.15476	0.17452	0.12072	0.15931	0.28906	0.38605	0.29598	0.064828	0.30066	-2.0396	-2.4375	-2.9625	-2.4062	-2.7229	-2.8563	-2.5563	-3.1396	-2.5708	-2.4333	-3.1979	-2.475	-2.9958	-2.9104	-2.1688	-3.1063	136.628	292.918	450.812	134.358	310.317	313.264	425.627	129.504	416.078	235.331	389.241	418.952	387.724	449.733	143.323	416.177	0.00172	0.00050317	0.00022733	1406.6	8.3555e-06	5.9265e-06	1235.7	508.69	2.0036e-05	5.9224e-06	475.28	176.14	181.69	65.976	5.5795e-06	65.643	0.0012446	0.0013165	0.00036719	1286.2	1.3789e-05	1.425e-05	1126.1	466.48	1.3929e-05	1.4398e-05	437.72	161.14	166.28	61.013	1.4335e-05	60.867	316.637	201.917	200.411	116.099	236.302	222.514	115.208	121.432	268.134	206.459	119.203	123.627	125.979	130.279	275.634	126.655	-8191	255	
13413.528	1	1	0	0	0.016976	0.077313	0.067918	0.10472	0.1388	0.18212	0.21011	0.16847	0.19187	0.064522	0.33828	0.19272	0.10105	0.17932	0.1454	0.14748	-2.2729	-2.3542	-2.9979	-2.6021	-2.6125	-2.9333	-2.4896	-3.0167	-2.5625	-2.5021	-3.0667	-2.3396	-2.5771	-3.0854	-2.1708	-2.9729	410.343	150.072	360.251	285.583	447.362	354.580	426.005	379.702	389.298	202.200	114.877	148.763	243.089	404.657	325.488	288.299	0.0015733	0.0012759	0.00020485	1405.8	7.0343e-06	9.6548e-06	1235.9	512.38	1.9218e-05	3.649e-06	480.41	178.08	183.49	67.667	4.0758e-06	67.645	0.0012589	0.0013127	0.00036879	1284.1	1.3634e-05	1.4254e-05	1128.7	469.58	1.4143e-05	1.4417e-05	442.41	162.84	168.4	62.46	1.4407e-05	62.494	321.590	178.609	194.049	115.853	232.429	220.086	114.956	120.781	279.217	296.948	118.986	123.057	125.278	129.725	215.918	125.862	-8191	255	
13413.624	1	1	0	0	0.19743	0.24836	0.20567	0.29788	0.05745	0.23964	0.19589	0.2159	0.23433	0.30847	0.12625	0.28653	0.18166	0.32008	0.18682	0.22505	-2.3083	-2.3208	-2.9542	-2.7021	-2.7083	-2.8667	-2.5417	-3.1521	-2.8333	-2.2396	-3.2333	-2.5375	-2.7083	-3.2146	-2.3875	-2.9771	333.928	164.968	192.127	448.739	206.294	105.573	401.623	399.852	164.460	211.478	416.135	441.332	428.656	114.022	234.080	411.299	0.0015337	0.00065646	0.00029673	1407.1	4.0375e-06	1.0371e-05	1234.8	513.6	1.3322e-05	7.3791e-06	481.13	177.81	184	67.291	1.4899e-05	66.665	0.0012675	0.0013703	0.00037439	1288.1	1.4226e-05	1.5086e-05	1128.6	470.97	1.4278e-05	1.4941e-05	441.55	163.26	169.15	62.501	1.4779e-05	62.089	317.285	197.579	169.043	115.943	264.205	250.231	115.304	120.473	287.971	223.556	118.464	123.130	125.399	129.410	267.800	125.920	-8191	255	
13413.720	1	1	0	0	0.048821	0.18777	0.19831	0.26484	0.14769	0.20522	0.12455	0.17931	0.044793	0.21241	0.21007	0.24705	0.17351	0.13282	0.10762	0.18516	-2.5979	-2.3917	-2.8042	-2.7396	-2.4562	-2.8979	-2.5854	-2.8958	-2.875	-2.4792	-3.0854	-2.775	-2.7833	-3.1458	-2.3396	-2.8625	153.553	406.323	221.300	402.446	213.075	103.930	420.874	376.525	109.974	256.029	400.247	397.306	447.999	428.244	332.163	450.236	0.0014923	0.0006963	0.00046774	1404.9	1.3351e-05	4.1792e-06	1236.3	513.52	1.5109e-05	7.6427e-06	482.52	178.01	184.47	67.592	9.9613e-06	67.091	0.0012938	0.0013388	0.00037488	1287.4	1.4367e-05	1.4831e-05	1128	470.52	1.468e-05	1.4599e-05	442.21	163.57	169.06	62.511	1.4658e-05	62.295	314.406	153.786	218.720	115.692	204.735	261.629	115.013	121.288	307.728	210.623	119.098	123.502	125.454	129.726	247.367	125.705	-8191	255	
13413.841	1	1	0	0	0.031465	0.055028	0.11775	0.19708	0.10316	0.16114	0.24565	0.32864	0.23314	0.11845	0.3137	0.12805	0.070766	0.28823	0.13424	0.21643	-2.4437	-2.2062	-2.8833	-2.8167	-2.3937	-3.0521	-2.6063	-2.775	-2.9146	-2.5833	-3.0312	-2.7896	-2.6396	-3.1479	-2.2125	-2.8354	459.568	146.813	428.160	434.913	344.416	164.548	369.150	399.195	440.657	418.199	402.500	418.377	223.064	428.936	182.226	356.260	0.0016735	0.00031029	0.00030942	1408.1	1.1908e-05	1.0364e-05	1237.8	513.52	1.3573e-05	4.6068e-06	483.26	178.85	185.33	67.763	9.6916e-06	67.751	0.0012978	0.0013592	0.00037576	1289.1	1.4316e-05	1.4646e-05	1131.5	470.73	1.4474e-05	1.4947e-05	443.72	164.23	169.45	62.887	1.479e-05	62.701	315.498	189.340	149.226	115.840	253.143	236.374	114.964	120.699	286.189	224.047	118.943	123.070	125.089	130.001	270.821	126.081	-8191	255	
13413.937	1	1	0	0	0.019477	0.026322	0.025023	0.20196	0.12174	0.18885	0.13046	0.16521	0.2135	0.055444	0.28298	0.095389	0.24169	0.20017	0.16171	0.19258	-2.6042	-2.1813	-2.7833	-3.0938	-2.4562	-3.0187	-2.6167	-2.6688	-2.9083	-2.4021	-2.8625	-3.0458	-2.4688	-3.1063	-2.5625	-2.7562	240.157	379.903	110.677	413.501	196.942	315.207	381.164	125.925	168.653	252.185	372.481	395.613	433.052	205.332	153.531	434.269	0.0017184	0.0010035	0.00018541	1405.4	6.3589e-06	5.8023e-06	1245.5	518.16	1.2802e-05	8.456e-06	482.65	180.48	186.01	68.299	8.7231e-06	68.275	0.0013049	0.001341	0.00037347	1287.2	1.4231e-05	1.4726e-05	1134.6	473.7	1.4657e-05	1.49e-05	444.62	165.1	170.36	63.357	1.4413e-05	63.212	317.575	174.840	196.859	115.750	260.592	233.495	115.123	120.270	317.535	262.800	118.337	122.542	125.123	129.463	276.295	125.663	-8191	255	
13414.008	1	1	0	0	0.16511	0.29906	0.21823	0.16989	0.14769	0.057495	0.29383	0.31856	0.26159	0.099188	0.29877	0.19065	0.17063	0.27617	0.21072	0.17316	-2.75	-2.475	-2.4896	-2.9229	-2.2708	-2.9917	-2.75	-2.5958	-2.9521	-2.4625	-2.8312	-3.0729	-2.3729	-3.0792	-2.7083	-2.4667	104.665	407.828	414.686	119.561	215.748	452.447	421.736	429.128	185.995	133.415	400.608	325.768	133.806	129.032	219.359	370.299	0.0015401	0.0011722	0.00017713	1409	1.1435e-05	8.876e-06	1244.5	516.89	1.064e-05	6.1588e-06	482.99	179.88	185.32	68.139	1.3184e-05	67.992	0.001288	0.0013207	0.00037749	1289.7	1.4371e-05	1.4763e-05	1131.8	473.4	1.4057e-05	1.4368e-05	444.73	164.5	169.7	63.04	1.4484e-05	62.921	321.616	207.262	187.809	115.931	265.858	256.119	115.314	121.141	289.224	249.571	118.628	123.044	125.507	129.599	270.401	125.665	-8191	255	
13414.129	1	1	0	0	0.081943	0.20963	0.095835	0.21473	0.037991	0.11145	0.4187	0.12839	0.15502	0.056665	0.24986	0.28433	0.19106	0.20991	0.086725	0.16884	-2.6396	-2.4979	-2.7208	-3.2167	-2.3563	-2.8917	-2.9	-2.5646	-3.0542	-2.5083	-2.7479	-3.2792	-2.4646	-3.1229	-2.9542	-2.4437	248.914	442.433	251.154	454.528	300.850	373.828	350.816	164.369	286.484	103.792	154.431	104.016	447.245	437.152	387.883	399.009	0.0016944	0.00098037	0.00028655	1400.8	7.5472e-06	7.6941e-06	1247.4	515.75	1.683e-05	5.5505e-06	486.36	180.42	185.57	68.58	1.1003e-05	68.527	0.0012742	0.0012956	0.0003715	1284.6	1.3922e-05	1.4312e-05	1135.6	472.75	1.3863e-05	1.4593e-05	446.98	165.65	169.66	63.445	1.4255e-05	63.436	319.669	229.820	180.167	115.665	271.429	249.188	114.861	120.640	262.839	234.389	118.265	123.159	125.299	129.324	276.541	125.784	-8191	255	
13414.223	1	1	0	0	0.28267	0.23923	0.03769	0.22877	0.18757	0.18467	0.048513	0.30053	0.083461	0.15233	0.38006	0.20178	0.25974	0.31035	0.15347	0.30375	-2.5375	-2.7062	-2.5958	-3.1646	-2.4771	-2.8646	-3.0042	-2.5521	-2.95	-2.5	-2.7333	-3.0333	-2.4833	-2.8604	-2.7854	-2.5375	436.730	141.669	293.209	428.826	315.755	289.991	385.733	378.205	443.065	330.125	454.565	419.971	110.895	424.189	197.251	427.355	0.0016602	0.00070155	0.00021079	1409.7	1.6374e-05	5.6721e-06	1250	517.32	1.362e-05	2.766e-06	487.54	182.02	186.62	68.712	1.017e-05	68.791	0.001237	0.0013041	0.00036247	1289.5	1.3805e-05	1.3997e-05	1140.4	474.65	1.3536e-05	1.4139e-05	448.35	166.37	170.35	63.629	1.3993e-05	63.862	314.343	165.748	189.306	115.670	239.106	241.665	114.379	120.277	263.188	218.901	118.377	122.931	125.004	129.571	230.995	126.045	-8191	255	
13414.320	1	1	0	0	0.063294	0.25578	0.14745	0.14928	0.25323	0.19107	0.44424	0.20498	0.27615	0.2816	0.20082	0.10917	0.42029	0.10266	0.14666	0.19977	-2.6813	-2.7229	-2.3125	-3.1937	-2.3521	-2.6792	-3.1333	-2.5708	-3.0979	-2.6792	-2.4604	-3.1625	-2.5396	-2.7771	-2.7125	-2.2	119.324	313.363	250.561	455.388	356.998	254.994	355.360	338.218	461.655	145.588	140.244	342.539	435.496	133.038	404.103	315.668	0.0015683	0.00076244	0.00015744	1404	1.1883e-05	1.3973e-05	1253.2	518.21	1.3414e-05	1.0226e-05	487.28	181.99	186.41	69.272	7.7013e-06	69.589	0.0012145	0.0012806	0.00036073	1287.3	1.3419e-05	1.4364e-05	1143.3	476	1.3777e-05	1.4379e-05	448.15	166.76	170.97	64.168	1.367e-05	64.309	324.625	179.871	196.284	115.429	284.271	244.024	114.827	120.705	278.228	222.582	118.479	122.913	125.231	129.336	254.893	125.752	-8191	255	
13414.440	1	1	0	0	0.097856	0.20152	0.14252	0.47241	0.066702	0.19414	0.2004	0.33311	0.31306	0.10471	0.044512	0.05171	0.050886	0.15923	0.14187	0.17018	-2.6833	-2.6063	-2.3542	-3.0521	-2.3292	-2.4396	-3.0208	-2.7687	-2.825	-2.725	-2.4021	-2.975	-2.7792	-2.6229	-2.8667	-2.5229	250.428	316.999	219.122	420.501	388.943	247.572	460.059	315.524	227.334	214.527	138.054	106.860	154.265	457.456	314.416	127.500	0.0015096	0.0007802	0.00025938	1406.5	7.6799e-06	8.6378e-06	1252	518.05	1.1767e-05	6.3382e-06	489.6	182.46	186.06	69.058	1.0222e-05	69.246	0.0012314	0.001273	0.0003577	1285.5	1.3579e-05	1.4217e-05	1142	476.67	1.3588e-05	1.4054e-05	449.59	166.96	170.81	63.857	1.3676e-05	64.069	314.608	218.848	175.003	115.651	258.523	238.072	114.106	120.021	299.027	256.924	117.857	122.315	124.788	129.091	252.616	125.302	-8191	255	
13414.536	1	1	0	0	0.13259	0.15411	0.23634	0.21163	0.29207	0.20129	0.27788	0.11496	0.11823	0.17267	0.3049	0.31372	0.28352	0.11119	0.22963	0.050749	-2.3646	-2.6937	-2.4021	-3.1583	-2.4458	-2.5229	-3.1271	-2.5563	-2.6625	-2.95	-2.3958	-3.0687	-2.7562	-2.6854	-2.9979	-2.4771	365.071	163.348	130.142	439.063	252.106	252.210	154.488	364.181	233.511	145.854	103.094	427.169	404.737	105.792	163.039	234.256	0.0016265	0.00074227	0.00027952	1405.6	6.9157e-06	8.3387e-06	1256.2	517.45	2.0651e-05	6.279e-06	489.15	182.62	186.45	68.506	1.0811e-05	69.034	0.0012337	0.0012973	0.00036035	1287.7	1.3496e-05	1.3862e-05	1146.3	475.79	1.362e-05	1.387e-05	450.85	166.89	170.44	63.468	1.3967e-05	63.954	318.709	205.193	192.265	115.434	259.996	253.270	114.601	120.521	266.826	238.801	118.286	122.509	124.769	128.776	252.935	125.703	-8191	255	
13414.608	1	1	0	0	0.32258	0.1513	0.090167	0.34994	0.3008	0.11127	0.45048	0.085619	0.17021	0.21229	0.12117	0.19933	0.12119	0.30952	0.17207	0.33612	-2.3917	-2.8854	-2.2458	-2.8958	-2.5479	-2.5542	-3.1042	-2.5708	-2.6479	-2.9167	-2.4479	-3.0958	-2.7896	-2.4708	-3.0563	-2.6125	329.376	111.292	122.296	412.773	175.195	188.553	360.476	364.923	293.802	346.412	446.620	327.969	127.774	122.504	338.972	405.265	0.0017669	0.00061956	0.00019959	1417.4	1.0241e-05	6.9751e-06	1261.7	522.07	7.3555e-06	8.6052e-06	489.06	182.01	186.4	68.483	6.3938e-06	68.342	0.0012172	0.0012926	0.00034657	1293.6	1.3315e-05	1.382e-05	1151.6	477.48	1.3584e-05	1.4261e-05	450.74	166.85	170.56	63.425	1.3921e-05	63.625	312.372	156.380	199.968	115.586	230.571	308.928	114.852	120.367	266.741	241.149	118.241	123.003	125.380	129.193	295.449	125.389	-8191	255	
13414.704	1	1	0	0	0.16241	0.22309	0.10563	0.35436	0.043859	0.26696	0.26166	0.29489	0.17261	0.11972	0.080146	0.026436	0.12678	0.06939	0.074814	0.17463	-2.175	-3.0292	-2.1292	-2.8854	-2.8771	-2.3479	-3.0521	-2.6625	-2.4604	-2.9854	-2.5125	-3.0938	-2.9125	-2.4792	-3.0771	-2.6917	145.416	254.935	429.201	433.380	173.106	292.224	415.237	129.029	118.269	111.945	136.949	353.456	385.649	113.978	456.572	410.149	0.0016555	0.00041947	5.7824e-05	1418.7	1.4624e-05	6.275e-06	1251	523.56	1.7185e-05	6.5221e-06	490.88	182.37	186.73	68.878	8.4406e-06	69.607	0.0012525	0.0012882	0.00035661	1294.9	1.3407e-05	1.4421e-05	1145.1	477.85	1.3754e-05	1.3734e-05	450.99	166.74	170.91	63.77	1.3873e-05	64.21	323.619	227.089	127.623	115.050	267.387	216.446	114.381	120.450	271.997	228.364	118.146	122.643	124.822	129.243	264.406	125.708	-8191	255	
13414.800	1	1	0	0	0.14127	0.21882	0.033126	0.23778	0.12463	0.13009	0.053962	0.1943	0.17025	0.25594	0.010403	0.26004	0.28604	0.026937	0.12777	0.18161	-1.9042	-2.7854	-2.3542	-2.9688	-2.8229	-2.2833	-3.2771	-2.8937	-2.2687	-3.0312	-2.5354	-2.8396	-2.9958	-2.4229	-2.9229	-2.6125	329.445	396.970	261.133	419.539	448.714	289.461	410.754	437.358	127.495	243.013	267.946	108.094	106.081	429.761	436.414	424.482	0.0016044	0.00070984	0.00017655	1411.1	7.9805e-06	2.3593e-06	1256.5	520.83	1.2311e-05	7.2806e-06	489.05	182.09	186.61	68.375	9.8396e-06	69.016	0.0012546	0.0013004	0.00036347	1293.2	1.3588e-05	1.4339e-05	1145	478.02	1.4157e-05	1.4745e-05	450	166.58	171.05	63.513	1.4096e-05	63.731	313.332	178.115	220.574	115.325	242.791	264.007	114.656	120.597	290.469	186.524	118.105	122.808	125.241	129.053	265.129	125.713	-8191	255	
13414.921	1	1	0	0	0.13729	0.052123	0.087478	0.29181	0.09813	0.078041	0.34532	0.23422	0.035541	0.086357	0.14432	0.19077	0.34667	0.29368	0.05886	0.31344	-2.0958	-3.0146	-2.5479	-2.8396	-2.8187	-2.3083	-3.0979	-3.1208	-2.3354	-3.2458	-2.5687	-2.6792	-3.0062	-2.4042	-2.9667	-2.9042	373.826	183.658	355.879	391.110	318.754	192.472	404.845	411.246	390.210	450.489	436.385	455.053	428.138	135.662	152.747	378.826	0.0017753	0.00085051	0.00017727	1415.8	1.1074e-05	1.5571e-05	1255.6	522.22	1.1089e-05	7.4946e-06	487.92	181.39	185.5	67.834	6.8398e-06	68.697	0.0012562	0.0013264	0.00035799	1295.2	1.4053e-05	1.4095e-05	1144.2	477.7	1.3899e-05	1.4336e-05	449.5	166.3	170.17	62.897	1.3752e-05	63.316	316.392	193.486	222.816	115.268	281.668	284.365	114.565	120.600	293.126	227.295	118.471	122.772	125.321	129.210	260.255	125.929	-8191	255	
13415.017	1	1	0	0	0.13445	0.22043	0.19223	0.15616	0.065744	0.2331	0.13834	0.1341	0.21274	0.15625	0.20509	0.20157	0.19377	0.25593	0.087252	0.17871	-1.9125	-2.8312	-2.4979	-2.4917	-2.9021	-2.3458	-3.025	-2.9313	-2.3646	-3.0979	-2.5917	-2.6437	-3.0167	-2.4688	-2.6833	-3.075	333.504	378.024	306.906	139.690	229.775	337.809	446.354	419.616	139.058	121.069	423.298	379.550	214.702	444.725	433.512	340.295	0.0017111	0.00092905	0.00015774	1412.6	1.126e-05	7.6269e-06	1251.7	517.9	1.2384e-05	5.91e-06	483.86	179.63	185.02	67.407	7.407e-06	67.663	0.0012715	0.0012999	0.00036644	1294.7	1.3763e-05	1.4549e-05	1144.2	475.28	1.4299e-05	1.4258e-05	445.33	164.69	169.12	62.304	1.4453e-05	62.546	321.230	238.190	207.629	115.755	235.104	285.047	115.120	121.067	282.073	296.688	118.927	122.779	124.928	129.144	214.464	125.444	-8191	255	
13415.113	1	1	0	0	0.24171	0.078388	0.1326	0.20313	0.12892	0.18781	0.32393	0.44008	0.40853	0.15447	0.041058	0.24773	0.15774	0.17258	0.077265	0.098951	-1.9458	-2.8063	-2.6688	-2.5083	-2.9437	-2.5042	-2.7188	-3.0167	-2.2854	-3.0042	-2.8396	-2.5271	-3.1937	-2.5417	-2.6229	-3.0229	129.670	333.323	425.342	410.641	124.239	420.394	407.459	408.746	211.764	238.247	192.606	120.646	424.839	450.707	329.317	408.418	0.0015604	0.00070856	0.00016308	1409.3	1.1852e-05	1.0636e-05	1242.7	520.84	2.0657e-05	8.5874e-06	487.58	180.2	185.68	67.516	1.1257e-05	67.692	0.0012741	0.0013066	0.00037326	1291	1.4198e-05	1.4602e-05	1138	476.06	1.4376e-05	1.4418e-05	447.18	164.89	170.03	62.669	1.5077e-05	62.602	319.172	208.673	171.548	115.614	211.946	246.399	114.826	120.900	278.301	254.099	118.780	122.374	124.875	129.242	257.349	125.522	-8191	255	
13415.209	1	1	0	0	0.036384	0.3606	0.086443	0.27509	0.11187	0.10749	0.18638	0.25306	0.064255	0.15444	0.28043	0.16166	0.15684	0.22146	0.17155	0.12115	-1.95	-2.9604	-2.6771	-2.6021	-3	-2.4729	-2.8688	-3.0687	-2.2979	-2.8833	-2.8458	-2.5521	-3.025	-2.6479	-2.6021	-3.1125	232.958	153.649	212.525	435.622	289.138	372.403	316.415	392.674	162.803	158.324	159.261	378.169	263.391	461.027	389.121	310.111	0.0017353	0.00040469	0.00011442	1415	1.3664e-05	1.0413e-05	1244.7	514.77	2.0027e-05	8.7411e-06	479.85	177.65	184.26	66.323	9.214e-06	66.494	0.001293	0.0013546	0.00038131	1294.8	1.4226e-05	1.484e-05	1137.6	472.39	1.4545e-05	1.4965e-05	441.91	163.03	168.45	61.625	1.4745e-05	61.698	319.640	204.683	198.074	115.337	247.090	266.961	114.026	120.040	265.475	245.988	117.965	122.531	125.209	129.200	273.307	126.154	-8191	255	
13415.304	1	1	0	0	0.20129	0.33947	0.048448	0.22365	0.22929	0.17662	0.24146	0.31408	0.17631	0.17294	0.25504	0.25174	0.13037	0.3804	0.22034	0.15673	-1.7625	-2.7208	-2.7833	-2.5875	-3.0292	-2.4604	-2.6979	-3.1937	-2.3396	-2.75	-2.9667	-2.4583	-3.1167	-2.5479	-2.4771	-3.1917	247.405	106.752	344.163	427.071	253.491	322.596	122.426	366.069	124.885	236.935	420.239	456.005	397.639	384.884	300.448	161.123	0.0016657	0.0011043	0.00039151	1406.2	9.6081e-06	5.9144e-06	1233.8	511.96	1.6956e-05	8.0923e-06	476.35	175.84	180.49	65.489	7.7339e-06	65.733	0.0012763	0.0013226	0.00037882	1288.1	1.369e-05	1.462e-05	1129.4	470.29	1.4111e-05	1.4625e-05	440.41	161.76	166.01	60.729	1.4607e-05	60.938	316.684	183.313	191.442	115.288	317.076	241.209	114.502	120.418	289.393	282.993	118.633	122.239	124.603	129.052	257.827	125.118	-8191	255	
13415.402	1	1	0	0	0.12291	0.40291	0.085213	0.35987	0.032212	0.2236	0.15638	0.16381	0.18849	0.17109	0.046952	0.24075	0.1047	0.22767	0.15212	0.2457	-2.0479	-2.5083	-2.9208	-2.4458	-3.0958	-2.7396	-2.4896	-3.2021	-2.3083	-2.6375	-2.9271	-2.4313	-3.025	-2.8458	-2.4833	-3.15	391.154	451.245	240.683	455.124	419.945	253.809	359.495	428.114	320.402	438.888	221.502	423.743	293.416	377.430	368.123	305.760	0.001529	0.00069588	0.00021564	1401.7	1.2596e-05	7.7657e-06	1239.6	511.24	1.4519e-05	7.2544e-06	476.15	175.77	181.33	64.852	1.0412e-05	65.226	0.0012444	0.0013073	0.00036591	1286.1	1.3654e-05	1.4447e-05	1129.5	468.34	1.404e-05	1.4325e-05	438.78	160.82	165.85	60.229	1.4358e-05	60.654	316.403	232.008	185.714	115.132	248.914	245.430	114.843	120.792	295.707	265.183	117.916	122.503	124.582	129.038	281.802	125.553	-8191	255	
13415.521	1	1	0	0	0.25801	0.10273	0.12018	0.24139	0.1597	0.13643	0.46208	0.24683	0.047828	0.1663	0.28917	0.21454	0.19926	0.25705	0.053056	0.084966	-1.9771	-2.7167	-3	-2.6437	-3.0062	-2.9458	-2.5125	-3.2	-2.4333	-2.65	-3.1021	-2.4833	-2.8042	-3.1063	-2.375	-3.0917	215.515	185.069	450.279	413.076	365.564	160.400	431.670	413.110	116.008	380.137	439.732	169.806	127.260	402.597	228.394	374.620	0.0014989	0.00078773	0.00027647	1402.4	1.6571e-05	3.6017e-06	1232.3	510.36	1.5443e-05	5.4818e-06	479.09	176.18	181.44	65.368	1.0093e-05	65.958	0.0012439	0.0013015	0.0003633	1284.4	1.3773e-05	1.4353e-05	1125.1	468.15	1.3872e-05	1.4083e-05	438.68	161.28	165.98	60.583	1.3845e-05	60.846	318.253	229.515	173.254	115.199	254.884	309.804	114.418	120.284	266.545	229.825	118.423	122.511	124.774	129.179	238.332	125.640	-8191	255	
13415.617	1	1	0	0	0.16513	0.26623	0.21524	0.12534	0.25322	0.20271	0.061897	0.099983	0.20737	0.074802	0.32411	0.26621	0.12766	0.18054	0.086453	0.083454	-2.2188	-2.3312	-3.1396	-2.6333	-2.8583	-2.7646	-2.4292	-3.1688	-2.6042	-2.4437	-3.1854	-2.675	-2.7875	-3.0208	-2.2292	-3.0667	254.979	206.075	215.339	430.832	357.535	282.392	342.362	432.961	136.483	327.352	453.746	108.114	371.220	162.488	457.540	151.576	0.0015836	0.00088344	0.00025725	1401.2	8.1052e-06	2.288e-06	1228.6	510.37	1.0299e-05	2.6401e-06	477.37	174.15	179.49	64.259	4.5129e-06	64.69	0.0012339	0.0013154	0.00035702	1281.9	1.3389e-05	1.4289e-05	1123.3	467.04	1.3561e-05	1.4036e-05	437.31	159.84	164.16	59.563	1.372e-05	59.852	320.752	213.578	217.954	115.179	251.614	213.786	114.342	120.597	248.663	184.129	118.304	122.807	125.071	129.276	194.189	125.757	-8191	255	
13415.713	1	1	0	0	0.067193	0.27673	0.015133	0.25975	0.038204	0.11363	0.079104	0.33484	0.26296	0.11174	0.25003	0.094019	0.36326	0.075583	0.20341	0.10185	-2.2708	-2.3917	-2.9792	-2.675	-2.5833	-2.9083	-2.4667	-2.9938	-2.875	-2.4	-3.0625	-2.4771	-2.7479	-3.0979	-2.3833	-2.8917	274.686	335.788	177.572	106.006	246.431	345.909	148.606	359.939	458.069	430.643	410.459	122.193	417.865	442.652	201.369	373.180	0.0015443	0.00045708	0.0002492	1396.9	1.0971e-05	6.8787e-06	1228.2	507.54	1.0666e-05	5.1171e-06	472.1	173.01	178.27	64.129	7.9281e-06	64.492	0.0012111	0.00125	0.00034686	1278.2	1.3428e-05	1.3479e-05	1118.8	463.58	1.3579e-05	1.3587e-05	434.23	158.7	162.96	59.102	1.3802e-05	59.546	323.988	197.055	155.149	115.140	251.294	269.645	114.126	120.481	314.038	266.935	118.456	122.642	124.984	129.479	272.211	126.014	-8191	255	
13415.809	1	1	0	0	0.06861	0.16677	0.42491	0.35717	0.18189	0.082899	0.082661	0.054188	0.12032	0.3259	0.13292	0.10322	0.096495	0.21183	0.030496	0.13501	-2.2313	-2.4333	-2.8958	-2.6125	-2.5771	-3.0812	-2.5792	-3.125	-3.0479	-2.3354	-3.025	-2.7292	-2.3625	-3.0104	-2.3438	-2.7396	266.689	269.499	104.934	458.369	132.162	295.860	411.932	393.045	172.911	409.099	447.182	143.641	221.024	405.584	327.087	368.498	0.0016493	0.00063533	0.00021814	1397.7	1.3042e-05	5.3151e-06	1218	506.52	1.3597e-05	2.3673e-06	475	174.51	178.22	64.478	1.1996e-05	64.389	0.0012294	0.0012643	0.00034743	1278.8	1.3496e-05	1.37e-05	1118.3	463.85	1.3647e-05	1.3793e-05	435.95	159.85	163.84	59.693	1.3702e-05	59.697	316.568	166.912	211.259	115.398	257.799	303.813	114.584	120.343	281.982	209.427	118.389	122.724	124.940	129.364	247.037	125.489	-8191	255	
13415.905	1	1	0	0	0.14675	0.075878	0.10456	0.11377	0.091092	0.15963	0.35303	0.20697	0.037406	0.27419	0.22596	0.29175	0.10731	0.061275	0.1994	0.18553	-2.625	-2.1813	-2.8542	-2.7667	-2.4688	-3.1063	-2.6208	-2.7021	-2.9458	-2.4729	-3.1479	-2.8833	-2.5042	-3.2646	-2.4792	-2.7562	134.863	425.875	301.000	181.926	225.496	277.825	382.844	381.988	410.510	416.749	106.847	109.790	187.373	174.573	197.999	358.556	0.0016602	0.00079302	0.00018938	1398.2	1.1894e-05	6.6299e-06	1225	507.72	5.8552e-06	2.5531e-06	471.34	176.44	181.22	65.478	6.9492e-06	65.82	0.0012274	0.0012996	0.00034964	1280.3	1.3664e-05	1.4147e-05	1117.3	465.49	1.3685e-05	1.3986e-05	435.38	160.85	165.96	60.749	1.4036e-05	60.852	321.066	192.572	164.370	115.593	241.944	300.873	114.571	120.290	271.520	273.840	118.228	122.468	124.449	129.129	249.559	125.154	-8191	255	
13416.001	1	1	0	0	0.16582	0.19389	0.053012	0.11845	0.3152	0.10222	0.14843	0.34439	0.33383	0.19266	0.12864	0.34703	0.34519	0.26345	0.28057	0.21538	-2.4958	-2.1792	-2.8542	-2.9813	-2.4125	-3.1375	-2.7417	-2.8646	-3.0396	-2.5271	-2.9646	-2.9917	-2.3271	-3.1875	-2.4542	-2.525	437.884	222.938	429.050	434.616	255.962	143.760	416.140	110.814	370.424	230.124	381.563	428.187	396.485	425.714	269.556	370.356	0.0016472	0.00089141	4.3091e-05	1395.4	1.3839e-05	8.8459e-06	1228.7	513.75	1.6103e-05	1.6855e-06	475.33	175.29	182.33	65.883	8.1133e-06	65.5	0.0012381	0.0013131	0.00036312	1280.3	1.3637e-05	1.4177e-05	1118.3	467.27	1.3888e-05	1.4225e-05	436.71	161.43	166.57	61.105	1.418e-05	60.935	323.205	178.802	180.103	115.933	258.596	229.578	115.087	120.796	270.755	205.596	118.553	122.966	125.305	129.307	229.792	125.897	-8191	255	
13416.122	1	1	0	0	0.20635	0.16923	0.031375	0.1638	0.15987	0.087651	0.45675	0.37881	0.053529	0.090581	0.16558	0.10681	0.13608	0.29224	0.27847	0.33873	-2.5146	-2.35	-2.8187	-2.9479	-2.3042	-2.9917	-2.7208	-2.6667	-3.1188	-2.3917	-2.9771	-3.1458	-2.5187	-3.0896	-2.6375	-2.4437	211.833	163.873	368.667	416.421	163.615	346.931	417.105	443.414	416.635	460.869	185.225	346.037	417.937	459.208	311.142	420.979	0.0012654	0.00059855	0.00016352	1392.3	8.0491e-06	8.0972e-06	1226.8	506.76	1.1867e-05	7.4264e-06	473.03	174.64	182.18	65.115	6.95e-06	65.527	0.0012459	0.0013152	0.00036229	1277.5	1.3566e-05	1.4221e-05	1118.9	463.96	1.3935e-05	1.3831e-05	434.36	160.04	165.62	60.436	1.4066e-05	60.4	321.477	187.983	158.101	115.658	250.519	321.716	114.820	120.767	250.267	273.857	118.742	123.381	124.935	129.430	234.193	126.293	-8191	255	
13416.218	1	1	0	0	0.19016	0.26662	0.12266	0.26371	0.20068	0.14247	0.17261	0.10427	0.080111	0.29535	0.030407	0.10579	0.37637	0.2916	0.34144	0.2131	-2.6562	-2.475	-2.5646	-3.2313	-2.2271	-2.6688	-2.6979	-2.5771	-3.1562	-2.3917	-2.7354	-2.9917	-2.3833	-3.1083	-2.6646	-2.2521	374.308	333.182	437.385	417.043	148.372	360.594	357.971	368.516	338.560	155.970	223.345	451.707	162.178	424.849	106.314	391.940	0.0015896	0.00094414	0.00037259	1388.5	1.0138e-05	8.2018e-06	1222.1	507.5	1.4598e-05	3.3433e-06	474.16	176.87	181.65	65.725	1.0214e-05	66.052	0.0012477	0.0013145	0.00036247	1276.3	1.3586e-05	1.4327e-05	1115.9	465.07	1.3515e-05	1.424e-05	435.63	161.49	166.21	60.865	1.3862e-05	61.039	319.134	222.432	200.893	115.862	231.721	191.067	115.072	120.790	293.256	243.041	118.390	122.594	125.158	129.275	258.716	125.657	-8191	255	
13416.313	1	1	0	0	0.13573	0.11062	0.034065	0.37985	0.19357	0.12274	0.3451	0.23134	0.03113	0.28184	0.32685	0.28369	0.2124	0.16537	0.16167	0.18292	-2.6708	-2.5208	-2.5938	-3.1271	-2.2833	-2.8812	-2.9792	-2.5208	-3.0042	-2.6083	-2.6	-3.2604	-2.5479	-2.9417	-2.9188	-2.7542	222.077	309.765	274.250	119.242	375.722	447.753	393.481	398.617	216.337	211.212	359.207	200.486	363.246	110.699	342.946	406.894	0.0013616	0.00082345	0.00027071	1391.8	1.8681e-05	6.5393e-06	1221.4	508.05	1.7988e-05	6.791e-06	473.02	176.4	182.04	66.082	4.5799e-06	66.55	0.0012394	0.0012979	0.00037184	1277.4	1.3965e-05	1.4351e-05	1115.5	465.9	1.412e-05	1.4043e-05	434.61	161.44	166.84	61.366	1.4012e-05	61.405	312.121	186.498	191.638	115.770	269.295	262.477	115.419	121.043	289.001	212.189	118.685	123.587	125.373	128.565	269.545	125.069	-8191	255	
13416.409	1	1	0	0	0.093636	0.18946	0.087617	0.1556	0.053382	0.077348	0.23266	0.041079	0.18771	0.16659	0.088891	0.074595	0.34622	0.22256	0.11723	0.2886	-2.5729	-2.5604	-2.4729	-3.1167	-2.4792	-2.6583	-3.0792	-2.6	-2.8833	-2.7812	-2.6188	-3.1771	-2.5875	-2.7583	-2.8771	-2.3063	214.958	382.526	173.862	360.944	305.808	291.671	366.796	431.367	149.977	171.072	409.314	117.327	114.366	440.701	181.527	400.206	0.0016467	0.00055049	0.00014916	1397.1	1.0799e-05	1.238e-05	1225.1	510.63	1.2639e-05	4.1723e-06	474.59	177.42	182.7	66.8	8.4512e-06	66.789	0.0012323	0.0012783	0.00036158	1279.3	1.3655e-05	1.4393e-05	1117	467.1	1.3776e-05	1.437e-05	437.46	162.29	166.95	61.718	1.392e-05	61.681	319.638	148.093	167.123	115.377	242.194	252.605	114.611	120.894	306.289	235.032	118.852	123.370	125.425	128.694	234.512	125.426	-8191	255	
13416.482	1	1	0	0	0.30531	0.15475	0.25543	0.24643	0.26162	0.27481	0.13358	0.10337	0.10004	0.18729	0.37111	0.10248	0.2195	0.27509	0.040381	0.19337	-2.5229	-2.7812	-2.2667	-3.2104	-2.5479	-2.5062	-3.0792	-2.625	-2.9292	-2.8063	-2.6437	-3.1771	-2.5521	-2.6125	-2.7792	-2.6208	214.566	249.782	377.010	431.842	135.345	445.675	449.734	434.297	224.753	318.400	148.549	418.361	437.629	431.962	159.705	137.385	0.0015789	0.00059786	0.00015581	1400	1.4714e-05	7.2248e-06	1223.2	508.85	1.6264e-05	7.8014e-06	477.84	177.36	180.49	65.725	7.5192e-06	66.24	0.0012495	0.0012772	0.00036197	1279.7	1.3661e-05	1.4152e-05	1118.9	466.62	1.3599e-05	1.4596e-05	437.86	162.49	166.2	60.913	1.3941e-05	61.299	316.361	190.436	204.950	115.226	256.215	220.470	114.486	120.057	288.443	280.864	117.941	122.527	124.826	128.724	226.294	125.201	-8191	255	
13416.601	1	1	0	0	0.091092	0.14637	0.078051	0.17525	0.06588	0.20189	0.18892	0.084639	0.20439	0.063264	0.1485	0.31061	0.2669	0.030866	0.30101	0.21519	-2.4562	-2.9229	-2.3187	-3.2396	-2.6479	-2.5187	-3.2625	-2.8	-2.8417	-2.8646	-2.7188	-3.2167	-2.6792	-2.5646	-3.1188	-2.4792	141.771	370.757	115.536	119.865	243.693	187.577	452.138	402.143	417.177	200.158	458.489	405.775	401.435	331.854	430.046	402.165	0.0014798	0.00074401	0.00021778	1392	1.3193e-05	6.319e-06	1227.2	509.12	7.6292e-06	5.7153e-06	477.82	177.85	182.32	66.271	6.3548e-06	66.787	0.0012335	0.001299	0.00036515	1277.2	1.3662e-05	1.4046e-05	1121.4	466.74	1.3721e-05	1.4065e-05	438.7	162.23	166.85	61.385	1.4123e-05	61.685	317.399	217.306	207.015	115.558	268.010	290.562	114.740	120.432	258.036	221.781	118.696	122.848	125.381	129.411	227.682	125.875	-8191	255	
13416.697	1	1	0	0	0.17495	0.168	0.096495	0.16103	0.34313	0.19758	0.12758	0.27649	0.048987	0.11305	0.20444	0.1273	0.20104	0.23604	0.074378	0.11003	-2.0917	-2.8625	-2.4229	-3.1813	-2.6646	-2.3812	-3.2438	-2.6646	-2.8458	-3.0146	-2.4979	-3.0604	-2.7958	-2.5187	-3.025	-2.5938	399.030	221.883	414.906	427.602	290.816	169.325	144.683	432.235	309.805	172.728	120.295	399.405	121.068	110.074	436.347	410.653	0.0016581	0.00053747	0.00016894	1395.7	1.1971e-05	5.9845e-06	1229.3	515.02	1.2222e-05	3.425e-06	477.37	178.29	184.49	67.621	1.2921e-05	68.129	0.0012575	0.0013198	0.00036137	1278.8	1.3919e-05	1.4162e-05	1121.3	469.16	1.4246e-05	1.4067e-05	438.8	163.65	168.62	62.343	1.4237e-05	62.684	321.667	186.809	209.476	116.157	260.147	309.369	115.411	121.104	250.661	352.542	118.906	123.066	125.154	129.188	267.620	125.881	-8191	255	
13416.793	1	1	0	0	0.23587	0.030583	0.038969	0.19781	0.14904	0.05322	0.2919	0.22316	0.21369	0.077232	0.086947	0.19614	0.21317	0.20156	0.070175	0.073762	-2.1792	-3.1375	-2.3667	-2.9875	-2.7958	-2.4729	-3.2583	-2.5667	-2.4667	-2.9833	-2.475	-2.8771	-2.925	-2.6625	-3.0229	-2.8125	255.773	107.980	424.574	433.574	335.237	109.193	413.905	371.969	176.601	336.913	112.730	127.817	159.765	428.451	306.306	174.614	0.001557	0.00093643	0.00011927	1399	1.1152e-05	8.8196e-06	1230	513.84	1.8954e-05	4.9992e-06	477.96	178.76	183.89	67.358	6.9992e-06	67.978	0.0012958	0.001322	0.00036593	1280.2	1.3964e-05	1.4595e-05	1123.6	469.19	1.4211e-05	1.4493e-05	440.1	163.85	168.34	62.316	1.4185e-05	62.693	321.513	228.315	270.019	115.946	224.056	252.488	115.404	121.458	297.292	257.519	118.925	123.185	125.282	129.515	264.863	125.812	-8191	255	
13416.889	1	1	0	0	0.16803	0.031291	0.13559	0.15413	0.33534	0.28239	0.22302	0.2124	0.20284	0.18813	0.21709	0.199	0.19875	0.27179	0.12898	0.1467	-2.0104	-3.0708	-2.35	-2.9188	-2.6625	-2.3167	-2.8646	-2.85	-2.275	-3.1771	-2.5625	-2.8271	-2.9354	-2.4062	-2.8667	-2.6521	255.184	313.338	223.971	117.112	397.811	358.969	357.061	404.935	340.795	198.895	410.357	412.959	384.923	433.240	411.912	441.505	0.0015329	0.00031606	0.00011476	1400.8	7.0616e-06	8.1839e-06	1232.2	515.73	8.145e-06	9.8783e-06	483.38	180.12	186.07	67.681	9.1381e-06	68.997	0.0012591	0.0013204	0.00036594	1282.3	1.4066e-05	1.4123e-05	1126.9	471.23	1.4163e-05	1.4321e-05	444.45	164.98	169.89	62.983	1.4125e-05	63.895	319.943	132.749	192.931	115.894	214.581	241.326	114.848	120.567	262.237	251.178	118.685	122.943	124.844	129.507	221.537	125.838	-8191	255	
13417.010	1	1	0	0	0.27277	0.11873	0.23903	0.21448	0.14398	0.10075	0.3462	0.36287	0.17065	0.017611	0.19616	0.21485	0.10832	0.21572	0.099835	0.11723	-2.0521	-2.8771	-2.3125	-3.0583	-2.9292	-2.4	-2.9938	-2.9625	-2.3083	-3.1437	-2.4917	-2.8729	-3.05	-2.5729	-2.7583	-2.9333	189.292	246.728	349.767	395.434	310.626	245.843	138.780	420.990	209.578	114.512	342.210	413.860	334.274	422.936	388.711	456.914	0.001557	0.00099577	9.9502e-05	1399.6	9.2863e-06	9.9094e-06	1247.4	516.61	1.6578e-05	6.3718e-06	482.31	180.42	185.33	68.031	1.276e-05	68.88	0.0012692	0.0013021	0.00035685	1282.5	1.3438e-05	1.43e-05	1135.2	473.24	1.3725e-05	1.3879e-05	444.69	165.94	169.95	63.07	1.4117e-05	63.863	318.835	193.592	159.108	115.323	242.876	240.021	114.738	120.564	278.718	232.990	118.253	122.255	124.732	128.756	237.824	125.336	-8191	255	
13417.104	1	1	0	0	0.24621	0.11008	0.053376	0.1403	0.15616	0.067351	0.19615	0.19285	0.12126	0.18037	0.15648	0.29339	0.13894	0.32944	0.1859	0.14798	-2.0542	-2.8333	-2.375	-2.6875	-2.8563	-2.3354	-2.8812	-3.075	-2.3438	-2.9542	-2.6292	-2.5792	-3.1479	-2.4958	-2.7646	-2.7917	350.929	300.964	258.363	135.449	252.434	402.789	375.816	381.840	459.524	177.225	299.314	420.316	419.153	419.419	175.729	391.271	0.0016432	0.00086528	0.00010968	1402.1	1.0014e-05	2.9866e-06	1237.7	516.05	4.6038e-06	7.7701e-06	483.47	181.43	186.58	68.332	1.0652e-05	69.485	0.0012544	0.0013028	0.00035933	1280.6	1.3377e-05	1.4064e-05	1130.7	473.45	1.395e-05	1.3941e-05	445.72	166.17	170.47	63.459	1.4059e-05	64.075	323.649	204.114	162.175	115.145	242.015	235.980	114.415	120.601	259.724	285.843	118.482	123.442	125.415	129.418	223.645	125.702	-8191	255	
13417.202	1	1	0	0	0.19286	0.08406	0.36877	0.19385	0.1818	0.15383	0.43076	0.31387	0.20538	0.14252	0.23771	0.38723	0.12007	0.12696	0.21193	0.078236	-2.0083	-2.9021	-2.5917	-2.5604	-2.9938	-2.2188	-2.7146	-3.1063	-2.3021	-2.9771	-2.8854	-2.5833	-3.0458	-2.6271	-2.5979	-2.9417	343.675	156.535	119.238	410.064	251.495	185.309	388.213	119.564	294.181	349.877	168.416	442.334	236.176	459.151	201.880	318.917	0.0016184	0.00029212	6.5817e-05	1402.3	8.6698e-06	3.9178e-06	1247.3	515.78	1.3509e-05	7.203e-06	483.5	179.6	184.29	67.459	1.1456e-05	68.431	0.001241	0.001267	0.00035519	1281.7	1.3662e-05	1.3556e-05	1133.9	471.59	1.3607e-05	1.3756e-05	444.37	164.68	168.82	62.532	1.3559e-05	63.396	318.562	179.830	166.972	115.984	261.619	247.982	115.124	121.216	263.783	227.833	118.873	123.005	125.464	129.253	230.317	126.062	-8191	255	
13417.298	1	1	0	0	0.04566	0.22097	0.064141	0.10778	0.13786	0.30083	0.094928	0.11905	0.17614	0.13422	0.16684	0.40713	0.15723	0.14648	0.027052	0.061873	-1.8771	-2.8417	-2.575	-2.3729	-2.95	-2.4437	-2.575	-3.1604	-2.2958	-2.9167	-2.8937	-2.5292	-3.1354	-2.7479	-2.3333	-3.0521	264.413	424.671	160.715	131.798	165.908	459.038	462.051	123.833	251.077	114.582	310.503	414.457	423.081	398.649	156.963	346.920	0.0017021	0.00057945	0.0002915	1404.9	3.2841e-06	1.2098e-05	1247.1	515.75	1.6036e-05	7.6622e-06	486.35	180.32	184.21	67.611	1.3169e-05	68.949	0.0012518	0.0012624	0.0003603	1284.5	1.3077e-05	1.3411e-05	1138	472.26	1.3501e-05	1.3773e-05	447.64	165.45	168.77	62.68	1.3729e-05	63.907	322.669	180.698	214.191	116.377	278.641	219.837	115.192	120.980	279.064	250.116	118.001	122.259	125.018	129.210	242.365	125.908	-8191	255	
13417.393	1	1	0	0	0.25428	0.10427	0.067513	0.21696	0.13877	0.10611	0.15882	0.42768	0.14289	0.14908	0.26195	0.20056	0.22841	0.25523	0.20579	0.32545	-1.9417	-2.5687	-2.7146	-2.4271	-2.9417	-2.5542	-2.6562	-3.1979	-2.2687	-2.6625	-2.925	-2.4437	-3.0958	-2.7438	-2.4042	-3.1271	114.946	192.948	405.557	111.170	461.664	372.696	380.784	405.788	456.560	360.552	403.441	329.326	426.786	420.873	353.123	117.622	0.0018394	0.00071515	0.00018584	1399.4	1.0592e-05	8.4288e-06	1249.6	517.5	1.4267e-05	2.747e-06	486.37	179.92	185.54	68.2	1.2115e-05	68.61	0.001207	0.0012493	0.00035121	1285.5	1.3296e-05	1.36e-05	1139.8	473.85	1.3141e-05	1.3649e-05	447.51	165.47	169.65	62.852	1.352e-05	63.629	317.416	166.423	197.803	115.631	257.334	207.867	114.802	120.842	298.963	259.460	118.615	122.886	125.674	130.144	270.809	126.201	-8191	255	
13417.489	1	1	0	0	0.18029	0.11658	0.057438	0.21701	0.17114	0.21056	0.46531	0.20756	0.35123	0.085091	0.24617	0.32452	0.020283	0.24971	0.25063	0.1654	-2.0062	-2.7542	-2.9875	-2.5458	-3.1	-2.6104	-2.5438	-3.1917	-2.4083	-2.625	-2.9917	-2.3563	-3.1437	-2.8479	-2.5854	-3.225	324.792	391.856	121.760	460.325	426.913	306.183	389.522	357.427	142.958	438.873	375.010	448.522	248.006	402.335	208.233	443.314	0.0017458	0.00074005	0.00026671	1404.1	1.0272e-05	2.8792e-07	1243	516.92	1.761e-05	7.4983e-06	487.98	180.69	184.61	67.885	5.209e-06	68.596	0.0012204	0.0012529	0.00035155	1285.4	1.3463e-05	1.3811e-05	1136.8	473.12	1.3454e-05	1.3731e-05	447.23	165.46	169.17	62.635	1.3541e-05	63.512	317.070	194.353	235.579	115.821	238.908	270.685	115.357	121.159	267.151	266.582	118.607	122.603	125.225	129.411	178.675	125.719	-8191	255	
13417.610	1	1	0	0	0.28208	0.19803	0.21457	0.2462	0.12663	0.13537	0.10184	0.36021	0.13562	0.19834	0.29265	0.15187	0.31856	0.16634	0.074051	0.21075	-2.1271	-2.4083	-2.95	-2.2521	-2.7229	-2.6958	-2.4896	-3.0312	-2.3375	-2.4188	-3.0542	-2.3875	-2.7479	-2.9292	-2.3021	-2.9771	417.680	127.801	174.490	410.653	203.751	157.572	387.052	425.601	341.282	449.142	104.755	384.549	105.813	112.638	429.315	462.365	0.0014401	0.0010737	0.00018836	1393.9	6.5087e-06	6.7585e-06	1245	518.78	1.5126e-05	4.8096e-06	488.03	181.4	185.66	67.53	7.9662e-06	68.63	0.0012244	0.0012764	0.00034883	1283.9	1.3219e-05	1.3606e-05	1134.8	474.03	1.3318e-05	1.3842e-05	447.45	165.54	169.39	62.72	1.3563e-05	63.397	315.459	175.729	204.226	115.613	175.614	241.238	114.418	120.582	244.826	291.710	117.914	121.922	124.506	129.368	280.085	125.634	-8191	255	
13417.706	1	1	0	0	0.11522	0.14146	0.13614	0.26118	0.098463	0.41471	0.5016	0.29548	0.2332	0.10276	0.27046	0.27623	0.20132	0.023419	0.093778	0.2368	-2.2167	-2.4542	-3.0187	-2.3979	-2.7667	-2.8375	-2.4771	-3.1292	-2.4917	-2.4333	-3.2708	-2.4208	-2.9188	-3.0187	-2.2854	-3.0292	238.320	442.767	222.908	452.213	288.905	148.196	422.370	446.751	219.239	368.129	415.539	430.809	413.404	243.459	362.153	347.353	0.0016044	0.00094489	0.0001286	1406.4	1.0274e-05	8.5956e-06	1245.9	516.92	5.3171e-06	5.2163e-06	488.92	179.89	184.43	67.367	1.0002e-05	68.36	0.0012205	0.0012266	0.00034909	1287.2	1.3327e-05	1.3672e-05	1139.2	473.91	1.3206e-05	1.3629e-05	450.1	165.15	168.62	62.503	1.3514e-05	63.305	315.994	232.453	182.901	115.605	276.213	271.908	114.422	120.587	247.310	257.943	118.220	122.701	124.952	129.537	249.002	125.922	-8191	255	
13417.777	1	1	0	0	0.11572	0.15512	0.31124	0.30334	0.071013	0.19435	0.12662	0.16365	0.14283	0.14916	0.31084	0.13023	0.17009	0.17711	0.061547	0.086131	-1.9958	-2.525	-2.8896	-2.5583	-2.6521	-2.7938	-2.4354	-3.075	-2.825	-2.4875	-3.0146	-2.8375	-2.6042	-3.0812	-2.3458	-2.9292	119.205	259.508	175.776	423.163	187.910	182.757	299.270	277.141	368.059	399.627	448.160	426.457	376.762	427.391	138.511	142.305	0.0017544	0.00093498	4.3254e-05	1411.6	8.8666e-06	7.9292e-06	1251.6	518.06	1.5683e-05	5.5818e-06	487.75	180.09	184.58	67.444	9.9162e-06	68.719	0.0012253	0.0012575	0.00034554	1288.3	1.3484e-05	1.3641e-05	1141.7	474.56	1.3443e-05	1.3678e-05	448.43	165.63	168.89	62.559	1.3597e-05	63.438	320.074	178.898	284.451	115.386	243.652	284.188	114.958	120.605	266.176	201.591	118.228	122.211	124.763	128.975	223.924	125.244	-8191	255	
13417.898	1	1	0	0	0.076372	0.12763	0.11789	0.20555	0.29046	0.071658	0.19976	0.14428	0.29636	0.16124	0.15185	0.23686	0.2841	0.32067	0.23686	0.27604	-2.3229	-2.3854	-2.8292	-2.6	-2.6542	-3.0375	-2.6708	-2.6958	-2.7354	-2.4	-3.1708	-2.6604	-2.35	-2.9896	-2.1479	-2.7375	163.980	160.559	133.406	448.762	417.754	256.077	374.810	392.625	462.238	340.423	405.737	403.250	341.838	130.281	235.220	427.986	0.0016598	0.0005659	0.0001409	1413	6.3202e-06	9.5365e-06	1248	520.07	1.5864e-05	6.3557e-06	489.77	181.76	185.42	68.021	1.092e-05	68.905	0.0012009	0.0012652	0.00034676	1288.8	1.3496e-05	1.3512e-05	1139.7	476.02	1.3382e-05	1.3945e-05	449.42	166.05	169.69	63.014	1.3966e-05	63.877	313.500	203.645	221.166	115.419	228.055	220.252	114.821	120.613	310.026	230.237	117.908	122.325	124.220	128.843	245.437	126.039	-8191	255	
13417.994	1	1	0	0	0.11442	0.18193	0.22382	0.094309	0.19231	0.15811	0.34211	0.18414	0.094233	0.20827	0.20433	0.076863	0.25467	0.17364	0.12055	0.13604	-2.4667	-2.3812	-2.9042	-2.8229	-2.4625	-3	-2.6417	-2.9	-2.8854	-2.2188	-3.1021	-2.8125	-2.375	-3.0708	-2.4604	-2.5438	385.761	394.388	213.295	390.671	174.733	198.226	345.912	355.299	220.905	216.179	191.246	330.461	434.612	367.443	123.344	409.052	0.0016692	0.0001903	0.00028457	1412.3	9.8838e-06	8.4025e-06	1249.3	519.25	2.1059e-05	8.796e-06	491.47	181.3	185.87	67.703	1.2856e-05	69.146	0.0012392	0.0012581	0.00035445	1290.4	1.35e-05	1.3914e-05	1141.3	475.64	1.3439e-05	1.3605e-05	450.86	166.15	169.78	62.799	1.3845e-05	63.766	317.228	228.066	194.198	115.832	289.429	252.679	115.252	120.775	298.676	245.340	118.656	123.451	126.144	130.559	260.671	126.180	-8191	255	
13418.090	1	1	0	0	0.18007	0.16805	0.067859	0.29829	0.089094	0.074635	0.175	0.092173	0.053519	0.41417	0.047317	0.43438	0.21012	0.28035	0.15783	0.28527	-2.3979	-2.2771	-2.9604	-2.6604	-2.3125	-2.9396	-2.6042	-2.6125	-2.8354	-2.1729	-2.8625	-2.925	-2.6583	-3.1479	-2.5312	-2.5312	351.006	289.914	289.847	411.374	416.771	280.835	377.869	303.673	193.644	358.123	170.026	130.685	426.246	416.468	114.422	382.204	0.0016888	0.0010652	0.00024869	1410.5	4.7202e-06	3.1352e-06	1253	520.35	1.6227e-05	8.7228e-06	488.47	180.45	183.9	67.612	5.9556e-06	68.863	0.0012224	0.0012595	0.00035336	1290.5	1.3455e-05	1.3748e-05	1146.3	475.88	1.3327e-05	1.3507e-05	450.14	165.98	168.96	62.519	1.3724e-05	63.653	319.610	231.805	179.794	115.701	241.476	298.000	113.475	119.361	261.983	194.261	117.659	122.342	124.086	128.954	290.754	125.458	-8191	255	
13418.185	1	1	0	0	0.24863	0.18934	0.13035	0.33845	0.049177	0.16468	0.054129	0.11457	0.21739	0.18151	0.10602	0.13085	0.17193	0.029537	0.021664	0.12039	-2.3979	-2.2708	-2.7875	-2.8625	-2.375	-2.8417	-2.6208	-2.5917	-2.9229	-2.2917	-2.8229	-3.0104	-2.3917	-3.1771	-2.6208	-2.4479	194.877	313.884	104.501	413.863	147.916	302.186	457.102	417.917	108.358	402.802	341.870	453.474	437.810	236.382	167.640	144.208	0.0014466	0.0012227	0.00023443	1405.3	1.1437e-05	7.3582e-06	1260.8	519.69	1.0253e-05	1.0368e-05	489.87	180.39	184.45	67.532	8.1707e-06	68.412	0.0012004	0.0012676	0.00035917	1290.6	1.3302e-05	1.3636e-05	1146.9	475.1	1.3375e-05	1.4029e-05	449.95	165.69	168.7	62.446	1.3768e-05	63.124	323.050	179.555	239.485	115.243	255.471	259.285	114.707	120.289	293.852	266.589	118.341	122.906	124.589	129.385	239.592	125.506	-8191	255	
13418.305	1	1	0	0	0.11215	0.2233	0.085045	0.14737	0.098011	0.21017	0.30288	0.27756	0.20353	0.20378	0.15039	0.17139	0.1104	0.34969	0.14539	0.12277	-2.5417	-2.3063	-2.6375	-2.925	-2.2208	-2.975	-2.7771	-2.5938	-2.8833	-2.4292	-2.6792	-2.9167	-2.2042	-3.0229	-2.7687	-2.4188	279.175	119.979	142.743	120.001	314.740	362.107	125.288	449.294	383.649	162.770	336.452	422.210	119.094	110.684	327.585	116.349	0.0016801	0.00073505	0.00022069	1414.7	1.2795e-05	5.4724e-06	1248	516.51	1.6981e-05	6.0077e-06	484.86	179.38	182.57	67.053	1.2955e-05	67.602	0.0012166	0.001276	0.00035102	1292.1	1.32e-05	1.3534e-05	1140.7	473.74	1.3425e-05	1.371e-05	445.91	164.6	167.58	62.006	1.3757e-05	62.598	316.772	181.762	143.600	115.350	233.962	223.473	114.980	120.619	274.149	230.132	118.294	122.572	124.634	128.839	248.641	125.167	-8191	255	
13418.402	1	1	0	0	0.15998	0.21606	0.19486	0.15718	0.2083	0.088109	0.17283	0.0087862	0.29621	0.34383	0.21172	0.14219	0.34614	0.082968	0.3273	0.22319	-2.6562	-2.2604	-2.5625	-3.0271	-2.1208	-2.6542	-2.8167	-2.4042	-2.9271	-2.3021	-2.5438	-3.0292	-2.3958	-2.8937	-2.6292	-2.425	400.539	457.840	155.354	443.708	458.489	229.989	122.497	243.721	327.366	110.594	351.723	352.174	158.598	461.294	257.811	270.135	0.0015615	0.0014107	0.00016201	1408.6	9.2743e-06	9.7708e-06	1245.2	511.58	8.7242e-06	1.3457e-05	480.44	178.43	180.65	65.117	6.458e-06	66.606	0.001221	0.0012552	0.00035138	1287.5	1.3164e-05	1.3532e-05	1136.4	469.61	1.3005e-05	1.3404e-05	441.7	162.92	165.52	60.516	1.3327e-05	61.419	317.542	174.995	172.312	115.184	214.801	240.738	114.131	120.116	270.278	211.190	117.974	122.675	124.607	129.200	218.181	125.820	-8191	255	
13418.473	1	1	0	0	0.1619	0.25254	0.19969	0.21678	0.17075	0.16862	0.13455	0.14186	0.2549	0.16938	0.090083	0.18959	0.095986	0.16228	0.14874	0.20591	-2.725	-2.4562	-2.4083	-3.125	-2.0854	-2.7	-2.9792	-2.5187	-2.9208	-2.7	-2.6292	-3.0625	-2.3417	-2.8042	-2.7854	-2.4813	434.467	168.148	180.889	407.940	358.502	244.025	366.699	130.688	292.147	372.180	387.529	437.042	412.777	441.959	122.763	390.252	0.0015015	0.00045872	0.00035759	1402.9	1.1669e-05	6.463e-06	1241.6	512.11	1.1341e-05	9.1968e-06	482	176.76	178.95	64.834	2.2918e-06	65.885	0.0011652	0.0012204	0.00033966	1286.2	1.2591e-05	1.347e-05	1135.7	468.02	1.2556e-05	1.3195e-05	442.03	161.65	163.54	59.888	1.3171e-05	60.701	319.806	194.783	202.338	115.799	235.995	288.333	114.993	120.599	257.472	257.330	118.565	122.966	125.023	129.548	257.475	126.414	-8191	255	
13418.569	1	1	0	0	0.078941	0.065709	0.14064	0.10168	0.11376	0.21502	0.31349	0.2131	0.13161	0.26132	0.12575	0.14275	0.23099	0.15476	0.16608	0.064348	-2.5583	-2.4521	-2.3458	-3.1292	-2.2292	-2.7104	-3.0646	-2.5958	-2.7708	-2.5958	-2.4833	-3.0687	-2.5812	-2.6271	-2.8417	-2.4146	434.365	359.829	371.648	381.448	398.649	197.433	377.540	341.320	312.623	391.029	448.685	362.041	443.398	370.101	331.017	197.555	0.0016102	0.0011586	0.00016439	1402.3	6.7711e-06	5.8093e-06	1243.5	507.62	1.2509e-05	5.3694e-06	477.06	174.51	179.09	63.763	5.3822e-06	64.851	0.0011606	0.0012238	0.00033571	1283.6	1.2741e-05	1.3166e-05	1133.9	465.8	1.2553e-05	1.326e-05	439.31	160.44	162.95	59.189	1.3082e-05	59.987	321.968	204.627	178.172	116.021	251.767	266.435	114.886	120.422	319.688	300.531	118.158	122.565	124.840	129.100	209.675	125.459	-8191	255	
13418.690	1	1	0	0	0.074266	0.087903	0.27939	0.19108	0.086931	0.28527	0.13659	0.39703	0.083834	0.16989	0.19096	0.23149	0.082689	0.15489	0.060695	0.15084	-2.5	-2.825	-2.375	-3.1042	-2.7021	-2.6792	-3.1542	-2.5583	-2.8229	-3.0125	-2.4708	-3.0875	-2.6667	-2.6729	-3.0146	-2.4667	125.391	392.324	245.724	438.415	332.914	135.940	308.987	411.889	176.941	257.351	441.691	432.109	324.567	390.593	289.898	443.893	0.0014605	0.00087598	0.00016863	1404.8	1.3077e-05	8.9133e-06	1245.5	505.34	1.6229e-05	6.0572e-06	471.8	174.45	177.45	63.648	1.012e-05	64.561	0.0011541	0.0011991	0.00034486	1285.1	1.2798e-05	1.3465e-05	1130.4	463.55	1.302e-05	1.3448e-05	435.17	158.93	162.17	58.981	1.2979e-05	59.694	320.600	191.058	224.944	116.369	251.271	235.781	116.010	121.583	270.680	255.430	119.414	123.806	125.467	130.286	261.262	126.281	-8191	255	
13418.786	1	1	0	0	0.039136	0.3149	0.20231	0.36065	0.14277	0.14055	0.18283	0.12331	0.11857	0.30024	0.25636	0.23633	0.088382	0.063819	0.13856	0.17699	-2.4354	-2.8312	-2.1271	-3.0667	-2.4958	-2.4333	-3.0708	-2.4938	-2.6771	-2.8521	-2.4688	-3.05	-2.6688	-2.4083	-2.9125	-2.6437	421.380	323.510	353.672	119.146	372.505	105.461	436.465	356.229	294.597	287.328	399.894	457.496	308.368	122.030	355.083	378.184	0.0015119	0.00060929	0.00023936	1400.4	1.4459e-05	3.2884e-06	1230.6	504.3	1.7302e-05	5.5252e-06	471.83	173.42	177.54	63.545	8.9987e-06	64.625	0.0011795	0.001243	0.00033408	1281.1	1.2793e-05	1.3143e-05	1124.2	461.8	1.2784e-05	1.3277e-05	435.86	158.57	162.62	59.106	1.3101e-05	59.777	319.047	162.140	198.648	116.173	270.846	222.968	115.469	121.278	292.680	247.045	118.406	123.049	125.307	129.291	276.602	125.712	-8191	255	
13418.882	1	1	0	0	0.072444	0.19171	0.16792	0.0897	0.19393	0.27098	0.24831	0.21532	0.17631	0.2269	0.25278	0.36808	0.25538	0.068415	0.093426	0.17155	-2.025	-2.8125	-2.0375	-3.0667	-2.6479	-2.2562	-3.2104	-2.4854	-2.65	-2.9708	-2.3646	-2.9333	-2.9083	-2.3396	-2.9938	-2.4979	454.668	373.980	115.913	420.566	106.842	221.835	394.962	348.951	238.874	370.759	361.531	413.309	208.528	372.551	381.371	365.927	0.0014398	0.00060115	0.0001397	1398.5	8.748e-06	1.439e-05	1236	507.34	1.0724e-05	6.4178e-06	473.36	174.58	176.89	63.704	7.5685e-06	64.953	0.0011835	0.0012121	0.00033385	1281.6	1.3025e-05	1.3235e-05	1125.1	462.93	1.2857e-05	1.3261e-05	435.08	159.01	162.41	58.937	1.3439e-05	59.77	322.235	170.864	194.365	115.602	214.986	254.677	114.628	120.367	305.171	251.620	118.667	123.001	125.182	129.601	249.314	126.321	-8191	255	
13419.003	1	1	0	0	0.16044	0.31046	0.17714	0.21635	0.18476	0.26638	0.21653	0.2701	0.19857	0.091216	0.18691	0.16035	0.2001	0.081541	0.34272	0.20906	-2.0271	-2.7188	-2.1396	-2.8271	-2.8292	-2.3521	-3.1292	-2.9354	-2.5271	-2.9479	-2.4375	-2.6813	-2.9125	-2.3146	-2.9042	-2.5583	270.662	234.375	227.365	397.037	350.780	358.748	431.087	375.565	311.486	264.793	370.422	387.434	452.526	377.988	250.660	371.558	0.0015801	0.00080773	0.00020296	1404.4	5.7795e-06	7.5755e-06	1226.4	506.19	7.1676e-06	4.7493e-06	474.7	173.64	179.05	64.104	6.4707e-06	64.893	0.0011885	0.0012018	0.0003481	1283.1	1.3069e-05	1.332e-05	1122.5	463.5	1.3064e-05	1.3495e-05	436.3	159.08	163.34	59.435	1.3537e-05	60.112	320.032	197.441	164.144	115.575	266.750	245.617	115.024	121.015	287.791	255.557	118.881	123.362	125.648	129.460	197.482	126.273	-8191	255	
13419.075	1	1	0	0	0.19061	0.1461	0.095723	0.41785	0.26855	0.060103	0.17579	0.24343	0.13924	0.14972	0.23844	0.18775	0.24683	0.26226	0.16783	0.18742	-1.8708	-2.825	-2.15	-2.9729	-2.8104	-2.1521	-2.9896	-2.9292	-2.5021	-2.8375	-2.4938	-2.8438	-3.0729	-2.5042	-2.8	-2.7667	294.542	429.882	446.973	442.466	293.875	271.110	396.268	455.992	194.968	133.869	454.606	426.300	105.332	153.519	110.707	362.910	0.0014669	0.00049355	0.00034129	1399.3	1.4238e-05	2.6685e-06	1232	506.94	1.4869e-05	7.6072e-06	474.92	174.26	179.88	64.246	9.0255e-06	64.91	0.0012043	0.0012619	0.00034128	1280.8	1.3441e-05	1.3574e-05	1125.5	464.28	1.3184e-05	1.3729e-05	435.52	159.33	164.17	59.702	1.3425e-05	60.04	319.717	196.471	201.665	116.021	254.347	220.909	115.222	121.287	297.445	264.807	119.194	123.406	125.611	129.929	242.398	126.321	-8191	255	
13419.171	1	1	0	0	0.14232	0.17652	0.2468	0.30516	0.088136	0.21848	0.18264	0.20582	0.17972	0.11058	0.38645	0.034546	0.15863	0.33073	0.15521	0.14122	-1.9917	-2.9062	-2.3917	-2.6188	-2.9042	-2.1583	-3.05	-2.8875	-2.3604	-2.9667	-2.6417	-2.5958	-3.0687	-2.4375	-2.8729	-2.9792	269.613	187.880	426.440	104.128	333.817	309.929	407.835	423.704	345.853	438.305	438.167	451.326	372.025	430.449	191.122	107.129	0.001473	0.00065799	0.00031326	1401.5	1.656e-05	1.7521e-06	1229.9	505.83	1.2028e-05	7.5518e-06	470.81	172.9	178.52	64.069	1.127e-05	65.06	0.0012084	0.0012248	0.00035083	1278.4	1.2944e-05	1.3461e-05	1121.4	463.75	1.3414e-05	1.3439e-05	433.96	159.15	163.61	59.42	1.3719e-05	60.038	318.820	189.577	243.378	115.968	235.698	225.382	115.331	121.159	284.057	276.975	119.017	123.445	125.849	129.638	254.264	126.745	-8191	255	
13419.290	1	1	0	0	0.10735	0.19151	0.28535	0.34137	0.087771	0.19028	0.3251	0.32407	0.29495	0.25334	0.23488	0.3112	0.21745	0.096265	0.1389	0.21614	-1.8542	-2.9333	-2.6667	-2.5604	-3.0062	-2.4833	-2.9792	-3.0375	-2.4458	-2.9917	-2.6417	-2.5333	-3.1021	-2.5625	-2.5854	-3.0333	386.756	292.754	110.110	449.904	161.480	149.628	403.703	373.677	371.003	131.545	350.542	411.088	129.115	111.796	106.778	359.333	0.0016372	0.00058429	0.00029616	1397.6	3.64e-06	9.1326e-06	1227.4	507.75	1.4757e-05	2.3528e-06	473.02	174.2	178.28	64.249	7.0056e-06	65.244	0.0011934	0.0012386	0.00034746	1277.9	1.2865e-05	1.3607e-05	1122.6	464.2	1.337e-05	1.3647e-05	435.14	159.3	163.25	59.496	1.3409e-05	60.16	312.978	166.859	178.169	115.923	292.911	213.682	115.242	121.115	295.041	295.462	119.224	122.927	125.015	129.561	253.822	126.179	-8191	255	
13419.386	1	1	0	0	0.25199	0.13709	0.1365	0.1852	0.098902	0.12869	0.13851	0.30865	0.18029	0.13023	0.23998	0.28627	0.32824	0.28595	0.18163	0.24605	-1.9396	-2.9896	-2.6292	-2.4979	-3.0708	-2.4708	-2.6854	-3.0771	-2.3187	-2.9042	-2.9	-2.5333	-2.9562	-2.6625	-2.6979	-3.0187	292.012	436.895	320.849	399.951	166.199	394.270	346.931	437.472	165.085	297.658	429.555	420.037	444.176	444.855	274.929	422.066	0.0016207	0.00046962	0.00027757	1396.1	2.9183e-06	6.182e-06	1224.1	505.89	1.4605e-05	1.3964e-05	473.07	173.81	178.01	64.026	6.4052e-06	64.728	0.0012116	0.0012315	0.00034501	1278.1	1.3155e-05	1.3402e-05	1122.1	462.89	1.3383e-05	1.3695e-05	434.55	159.29	163.58	59.522	1.3695e-05	60.075	318.421	194.124	199.055	115.754	296.776	263.994	114.695	120.820	298.787	240.427	118.502	122.607	124.841	129.545	235.235	125.835	-8191	255	
13419.482	1	1	0	0	0.16084	0.24784	0.29367	0.46384	0.043435	0.046651	0.11432	0.23347	0.161	0.17046	0.10617	0.17639	0.20825	0.21883	0.12981	0.070236	-1.8521	-2.8521	-2.75	-2.5292	-2.9729	-2.4667	-2.7875	-3.1792	-2.3417	-2.6542	-2.7479	-2.3604	-3.1292	-2.7562	-2.5458	-3.0979	157.899	358.623	324.670	450.185	118.616	189.658	414.457	425.720	183.819	294.601	437.052	416.682	144.600	386.414	282.190	239.757	0.0017078	0.00055451	0.00020391	1396.3	7.9213e-06	1.0471e-05	1229.4	507.9	5.2674e-06	4.2298e-06	471.63	174.16	178.69	64.474	1.712e-05	65.065	0.0011953	0.0012376	0.000357	1277.4	1.318e-05	1.3341e-05	1121.3	464.55	1.335e-05	1.3749e-05	434.59	159.49	163.6	59.668	1.3539e-05	60.153	315.951	230.440	191.933	115.640	258.434	272.434	114.916	120.646	279.924	222.586	118.769	123.024	125.379	129.565	258.273	126.351	-8191	255	
13419.603	1	1	0	0	0.18528	0.17149	0.11996	0.22074	0.074799	0.47314	0.064723	0.12569	0.074645	0.14808	0.28648	0.30585	0.25727	0.31171	0.10119	0.37637	-1.8979	-2.7125	-2.8292	-2.4188	-3.0687	-2.5771	-2.5542	-3.1271	-2.3833	-2.8521	-3.0646	-2.5146	-2.7625	-2.6437	-2.2333	-3.1479	176.237	304.463	345.661	429.385	306.573	383.311	455.339	378.448	123.510	284.746	431.317	132.750	429.542	443.792	319.103	352.150	0.0015586	0.00071312	0.00018255	1393.1	1.4241e-05	9.1969e-06	1225.9	505.48	1.332e-05	9.5838e-06	473.09	173.67	177.12	64.144	9.1665e-06	64.835	0.0011897	0.0012414	0.00034601	1276.6	1.295e-05	1.3454e-05	1120.5	461.96	1.3311e-05	1.3627e-05	434.15	159.04	162.73	59.303	1.3598e-05	59.926	318.556	156.433	210.129	115.842	246.664	243.773	115.312	121.204	270.054	230.068	118.610	122.407	124.984	129.381	286.716	126.003	-8191	255	
13419.674	1	1	0	0	0.15691	0.10993	0.31202	0.29442	0.10536	0.11246	0.49493	0.29627	0.12109	0.20787	0.41085	0.038493	0.045297	0.24966	0.15199	0.17117	-1.8625	-2.6292	-2.7979	-2.3875	-2.8792	-2.6208	-2.4083	-3.1	-2.5354	-2.7042	-3.1167	-2.4333	-2.7354	-2.8771	-2.2938	-3.1188	239.715	365.243	366.366	380.035	228.571	365.874	433.860	413.882	189.091	453.634	426.261	291.593	405.885	353.183	160.060	410.574	0.0016917	0.00047761	0.00021409	1395.7	7.059e-06	1.2831e-05	1229.9	504.04	8.5862e-06	5.608e-06	472.39	174.12	177.48	63.442	1.2564e-05	65.086	0.0011888	0.0012474	0.00034814	1275.5	1.3136e-05	1.3626e-05	1122.1	462.21	1.3122e-05	1.3532e-05	434.46	159.19	162.8	59.011	1.3545e-05	59.836	326.108	169.404	193.984	115.419	306.040	230.601	114.595	120.405	282.287	242.979	118.471	122.591	125.037	129.221	280.998	125.938	-8191	255	
13419.770	1	1	0	0	0.1383	0.19278	0.23838	0.20921	0.21247	0.2414	0.092073	0.13376	0.14943	0.1792	0.31842	0.089098	0.27273	0.40015	0.063807	0.11226	-2.2167	-2.5625	-2.9771	-2.5583	-2.5229	-2.7313	-2.475	-3.1417	-2.3792	-2.3896	-3.1146	-2.5167	-2.8167	-2.9458	-2.4062	-3.0729	133.870	237.912	202.633	436.988	155.438	127.408	261.965	374.897	263.558	400.377	428.707	382.214	116.322	408.469	441.646	116.282	0.0015111	0.00093453	0.00018821	1398.2	1.2246e-05	8.9108e-06	1231.6	503.36	1.6903e-05	4.4345e-06	472.61	174.5	179.1	64.386	6.2641e-06	65.164	0.0011862	0.0012726	0.00035003	1277.6	1.3703e-05	1.382e-05	1122.5	461.8	1.3551e-05	1.3823e-05	435.37	159.49	164.16	59.778	1.416e-05	60.386	318.221	162.659	204.425	115.673	273.960	246.141	114.837	120.620	272.989	249.376	118.217	123.043	125.091	129.579	202.925	125.757	-8191	255	
13419.867	1	1	0	0	0.085219	0.12547	0.29653	0.21113	0.074212	0.19636	0.35756	0.41739	0.21877	0.31084	0.0085727	0.096935	0.19108	0.20305	0.072983	0.16395	-2.1375	-2.3812	-3.0333	-2.2125	-2.625	-2.9813	-2.4604	-3.0875	-2.7583	-2.5896	-3.0208	-2.5187	-2.7104	-2.8792	-2.2938	-2.9375	164.193	218.582	391.670	447.956	150.250	306.840	420.634	410.985	310.651	345.390	369.546	364.639	338.065	429.253	374.006	108.203	0.0015499	0.000412	9.0814e-05	1397.3	8.948e-06	6.4653e-06	1235.7	507.75	1.7241e-05	4.933e-06	474.75	175.45	180.58	64.917	8.6176e-06	65.228	0.0012494	0.0012955	0.00036284	1279.8	1.3878e-05	1.4438e-05	1123.9	466.08	1.4211e-05	1.4281e-05	437	160.6	165.41	60.239	1.3823e-05	60.499	314.772	186.478	231.955	116.006	285.267	196.779	114.411	120.527	295.340	330.363	118.721	123.208	125.192	129.422	258.043	125.865	-8191	255	
13419.987	1	1	0	0	0.12248	0.0069647	0.14099	0.2414	0.22344	0.45798	0.15205	0.23195	0.046567	0.26103	0.11681	0.29063	0.34795	0.24106	0.14608	0.23578	-2.3542	-2.3271	-3.0771	-2.5125	-2.4354	-2.9583	-2.5625	-3.1813	-2.7938	-2.3937	-3.1312	-2.5438	-2.6333	-3.1542	-2.3667	-2.9104	193.311	293.976	411.279	449.178	306.415	435.045	373.151	423.550	226.911	437.779	354.511	437.516	413.887	459.610	172.657	392.724	0.0014709	0.0011646	0.00018258	1393.4	9.3094e-06	1.131e-05	1230.5	508.09	1.3176e-05	5.5565e-06	474	174.79	180.77	64.759	1.4075e-05	65.293	0.0012616	0.00133	0.00035503	1277.5	1.4209e-05	1.4529e-05	1122.7	465.01	1.4084e-05	1.4123e-05	436.66	160.52	165.06	60.044	1.4314e-05	60.493	318.239	192.076	134.015	116.201	240.219	253.187	115.161	120.764	282.512	255.733	118.831	123.090	125.276	129.638	254.922	126.582	-8191	255	
13420.082	1	1	0	0	0.11016	0.080696	0.1673	0.24593	0.089803	0.23211	0.15017	0.33826	0.22546	0.13351	0.2584	0.20014	0.12396	0.30315	0.32584	0.061052	-2.5062	-2.2188	-2.9188	-2.5333	-2.5062	-3.2229	-2.4479	-2.9938	-2.8646	-2.3563	-3.1083	-2.6875	-2.5229	-3.1396	-2.2667	-2.7521	232.168	287.659	353.759	430.894	165.136	324.658	438.024	403.312	423.936	235.798	381.060	288.122	285.308	443.449	248.460	444.223	0.001683	0.0010092	0.00025574	1394.4	5.8695e-06	4.739e-06	1233.8	506.63	8.9699e-06	3.0031e-06	472.93	174.11	179.09	64.273	1.0204e-05	65.445	0.0012306	0.001309	0.00035876	1277.7	1.3859e-05	1.4248e-05	1125	463.42	1.3974e-05	1.4349e-05	435.89	159.91	163.86	59.708	1.3945e-05	60.532	313.789	187.954	218.719	115.645	266.106	243.078	114.851	120.421	266.953	313.008	118.361	123.022	125.321	129.526	255.827	125.742	-8191	255	
13420.178	1	1	0	0	0.11738	0.13801	0.05909	0.083344	0.10821	0.23997	0.23467	0.23665	0.012884	0.072777	0.065082	0.26835	0.056421	0.09848	0.13494	0.39911	-2.6167	-2.4729	-2.9583	-2.8479	-2.4146	-2.9896	-2.4146	-2.8396	-2.9583	-2.3688	-3.0271	-2.9604	-2.6458	-3.1792	-2.4125	-2.6854	429.094	178.020	336.080	445.472	435.947	385.127	439.853	418.413	170.996	313.814	117.592	365.456	279.669	107.612	222.406	383.316	0.0014838	0.0012018	0.00038053	1399.2	4.2662e-06	8.4747e-06	1237.4	505.45	8.5415e-06	1.0534e-05	472.7	174.69	178.76	64.855	1.0437e-05	65.306	0.0012701	0.0013113	0.00036098	1280.6	1.3732e-05	1.4151e-05	1124.1	463.19	1.41e-05	1.4373e-05	435.69	160.48	164.31	60.024	1.4375e-05	60.537	316.866	201.032	170.251	115.561	235.531	216.896	114.699	120.265	295.192	263.927	118.528	123.111	125.252	129.323	242.062	125.710	-8191	255	
13420.274	1	1	0	0	0.2606	0.032508	0.17375	0.24556	0.097471	0.032701	0.27515	0.29445	0.08525	0.050924	0.09897	0.10115	0.17577	0.12814	0.14248	0.2998	-2.5833	-2.3583	-2.7062	-2.8521	-2.5438	-2.9437	-2.7375	-2.7812	-3.0708	-2.4188	-2.8083	-2.9417	-2.525	-3.2146	-2.7854	-2.5979	219.694	374.423	408.320	438.459	274.389	235.285	357.846	401.827	238.955	283.716	300.364	455.544	416.639	422.185	108.350	123.505	0.0015991	0.00090344	0.00012634	1387.3	6.0319e-06	3.7944e-06	1231.7	504.64	1.6265e-05	5.3537e-06	472.82	174.26	180.67	65.205	9.2087e-06	65.447	0.0012601	0.0013348	0.00037423	1276.8	1.4051e-05	1.4653e-05	1121.2	463.11	1.4172e-05	1.4563e-05	434.79	160.31	165.52	60.38	1.4406e-05	60.55	322.186	176.515	230.428	115.677	264.441	252.301	114.658	120.001	275.511	267.406	118.680	122.982	124.882	129.293	264.006	126.054	-8191	255	
13420.372	1	1	0	0	0.073233	0.12874	0.31922	0.13862	0.043346	0.18364	0.28352	0.15023	0.22767	0.18332	0.16354	0.30678	0.098765	0.25472	0.11221	0.23345	-2.7021	-2.3333	-2.6188	-3.0646	-2.3771	-2.8792	-2.8833	-2.5125	-3	-2.2938	-2.8667	-3.025	-2.3604	-3.0521	-2.7875	-2.6437	256.147	442.975	253.386	436.427	225.675	393.337	439.062	406.997	135.435	424.031	137.100	403.443	448.261	434.552	323.929	415.320	0.0013648	0.0005366	0.00016784	1398.8	1.2724e-05	6.9452e-06	1234.5	502.91	1.3928e-05	6.7103e-06	472.14	174.91	179.51	64.54	1.2478e-05	64.927	0.0012442	0.0013038	0.00037424	1280.1	1.3988e-05	1.4337e-05	1123.1	461.55	1.4032e-05	1.4711e-05	434.3	160.09	163.98	59.797	1.4207e-05	60.142	318.918	146.916	222.692	115.434	251.480	238.695	114.980	120.549	305.431	213.188	118.526	122.826	125.314	129.510	232.232	125.681	-8191	255	
13420.466	1	1	0	0	0.071078	0.30424	0.32728	0.21303	0.17399	0.16242	0.31756	0.14022	0.051754	0.048694	0.1746	0.44951	0.23697	0.044727	0.2064	0.26071	-2.7	-2.3917	-2.5021	-3.1854	-2.3521	-2.8688	-2.8563	-2.6396	-2.7104	-2.525	-2.7583	-2.975	-2.4979	-2.95	-2.7729	-2.4208	142.237	127.618	302.195	442.115	261.077	213.939	388.650	298.420	285.858	431.242	416.814	435.068	110.450	397.540	372.642	313.943	0.0016028	0.00055694	0.00027722	1400.6	1.2621e-05	6.2361e-06	1229.1	504.11	1.8599e-05	7.132e-06	472.41	175.3	178.32	64.314	1.1921e-05	64.8	0.001205	0.0013235	0.00036631	1278.7	1.3717e-05	1.3836e-05	1122.6	462.31	1.3438e-05	1.4222e-05	435.2	160.06	163.68	59.577	1.3895e-05	60.276	317.171	200.220	207.002	115.775	279.704	274.735	115.171	120.909	286.668	258.705	118.341	123.053	125.078	129.332	231.097	125.956	-8191	255	
13420.562	1	1	0	0	0.21615	0.11735	0.1212	0.23399	0.19265	0.080309	0.31122	0.1167	0.063278	0.11255	0.12094	0.1151	0.12909	0.12141	0.41144	0.15636	-2.5729	-2.4625	-2.55	-3.0729	-2.2875	-2.7292	-2.9938	-2.5854	-2.8625	-2.7521	-2.6333	-3.0833	-2.5146	-2.8958	-2.8521	-2.2958	445.384	433.908	173.515	441.177	129.615	297.335	412.196	381.463	381.605	264.109	354.404	355.307	417.181	416.607	445.260	443.583	0.0016813	0.00063635	0.00031462	1394.8	1.3104e-05	1.0793e-05	1236.8	504.7	9.9226e-06	2.6872e-06	473.25	173.81	178.33	64.078	1.0694e-05	64.566	0.0012328	0.0012696	0.00037324	1277.5	1.38e-05	1.4329e-05	1126.5	462.06	1.3914e-05	1.426e-05	435.11	159.79	163.34	59.287	1.4018e-05	60.01	318.227	123.764	206.823	116.239	253.353	257.629	115.240	120.584	292.892	208.843	118.287	123.343	125.481	129.207	236.146	125.373	-8191	255	
13420.683	1	1	0	0	0.13288	0.15548	0.088217	0.16748	0.28125	0.19263	0.21229	0.17267	0.061225	0.33579	0.22694	0.28455	0.12036	0.14297	0.13415	0.18701	-2.4646	-2.5146	-2.1854	-3.0812	-2.3187	-2.6063	-3.1167	-2.5062	-2.9208	-2.6708	-2.6646	-3.0917	-2.4625	-2.8667	-2.8812	-2.2896	287.468	118.095	445.879	444.212	297.133	208.620	109.791	438.735	163.885	203.702	420.948	410.015	196.017	455.664	250.192	439.184	0.0014972	0.0010699	0.00017413	1389.6	4.9254e-06	4.0428e-06	1232.3	501.87	1.567e-05	6.9202e-06	473.6	174.6	180.58	64.936	9.0483e-06	64.9	0.0012269	0.0012977	0.000366	1276.5	1.3808e-05	1.4199e-05	1123.3	461.35	1.389e-05	1.4375e-05	434.37	160.26	164.96	60	1.4078e-05	60.454	317.508	154.094	209.035	115.112	240.441	233.192	114.605	120.172	243.765	228.234	117.896	122.943	124.535	128.963	258.152	125.303	-8191	255	
13420.779	1	1	0	0	0.22122	0.50434	0.15322	0.34225	0.18394	0.23389	0.14829	0.19955	0.15824	0.21592	0.029831	0.14024	0.1093	0.33123	0.1516	0.2833	-2.5583	-2.7083	-2.2646	-3.0917	-2.4688	-2.6813	-3.0729	-2.4958	-2.8688	-2.6667	-2.5563	-3.125	-2.6688	-2.6896	-2.9875	-2.3083	426.271	138.532	333.379	420.966	166.084	254.183	389.143	355.995	260.183	454.117	103.573	388.378	332.617	127.895	187.262	410.052	0.0014844	0.00084418	0.00023605	1396.3	1.8057e-05	8.4501e-06	1227.4	504.07	1.3828e-05	9.4979e-06	471.88	174.68	178.63	64.59	1.1264e-05	65.068	0.00127	0.0013212	0.00037254	1279.5	1.4013e-05	1.4537e-05	1121.5	462.67	1.3948e-05	1.4428e-05	434.59	159.63	163.7	59.683	1.4109e-05	60.253	326.794	191.279	171.727	115.600	240.429	288.069	114.610	120.566	298.370	305.516	118.293	122.836	125.419	129.138	241.560	125.571	-8191	255	
13420.875	1	1	0	0	0.27357	0.041142	0.36451	0.39706	0.18003	0.12301	0.18073	0.11773	0.025046	0.14505	0.2764	0.35262	0.2129	0.29642	0.24932	0.33352	-2.3021	-2.825	-2.4708	-3.1063	-2.375	-2.3708	-3.1458	-2.5479	-2.5917	-2.9417	-2.5021	-3.1562	-2.7396	-2.5938	-3.1792	-2.4104	246.054	365.602	363.620	448.848	157.148	354.599	134.395	106.510	147.523	130.908	452.745	391.248	116.619	452.952	140.448	410.381	0.0014056	0.00087329	0.00022743	1395.2	1.3198e-05	5.0051e-06	1232.3	503.65	1.4473e-05	4.0009e-06	472.82	174.06	178.93	64.46	1.209e-05	65.18	0.0012477	0.0013193	0.00035883	1278.7	1.3743e-05	1.4315e-05	1124.7	461.34	1.3841e-05	1.4282e-05	435.62	159.67	163.81	59.587	1.3806e-05	60.382	317.202	194.579	197.743	116.052	261.174	277.106	114.768	120.711	279.979	321.787	118.196	122.825	124.941	129.154	265.642	126.066	-8191	255	
#DATA ENDS
