BOXY.EXE: ISS Imagent and Oximeter Data Acquisition Program Version 0.80
Ascii Record File

#ACQ INFORMATION
2  Detector Channels 
16  External MUX Channels 
1  Auxiliary Channels 
5000  Waveform (CCF) Frequency (Hz)
1  Waveforms Skipped 
30  Waveforms Averaged 
1  Cycles Averaged 
16  Acquisitions per Waveform 
10.0806  Updata Rate (Hz) 

#FILE INFORMATION
TRUE -- External MUX Channel results are PARSED.
FALSE -- AC DC and Phase are NOT grouped.
TRUE -- Companion Program Settings File CREATED.
FALSE -- AC data not excluded
FALSE -- DC data not excluded
FALSE -- Phase data not excluded
FALSE -- Auxillary Chn. data not excluded
Tab delimiters

#CALIBRATION STATE
TRUE -- Waveform Calibration Values APPLIED.


#AUX CALIBRATION VALUES
Val Type	aux-1	

Term	1.0000e+00	
Factor	0.0000e+00	


#WF CALIBRATION VALUES
A = Detector Channel
Val Type	A-AC1	A-AC2	A-AC3	A-AC4	A-AC5	A-AC6	A-AC7	A-AC8	A-AC9	A-AC10	A-AC11	A-AC12	A-AC13	A-AC14	A-AC15	A-AC16	A-DC1	A-DC2	A-DC3	A-DC4	A-DC5	A-DC6	A-DC7	A-DC8	A-DC9	A-DC10	A-DC11	A-DC12	A-DC13	A-DC14	A-DC15	A-DC16	A-Ph1	A-Ph2	A-Ph3	A-Ph4	A-Ph5	A-Ph6	A-Ph7	A-Ph8	A-Ph9	A-Ph10	A-Ph11	A-Ph12	A-Ph13	A-Ph14	A-Ph15	A-Ph16	

Term	0.00000e+00	0.00000e+00	0.00000e+00	0.00000e+00	0.00000e+00	0.00000e+00	0.00000e+00	0.00000e+00	0.00000e+00	0.00000e+00	0.00000e+00	0.00000e+00	0.00000e+00	0.00000e+00	0.00000e+00	0.00000e+00	0.00000e+00	0.00000e+00	0.00000e+00	0.00000e+00	0.00000e+00	0.00000e+00	0.00000e+00	0.00000e+00	0.00000e+00	0.00000e+00	0.00000e+00	0.00000e+00	0.00000e+00	0.00000e+00	0.00000e+00	0.00000e+00	0.00000e+00	0.00000e+00	0.00000e+00	0.00000e+00	0.00000e+00	0.00000e+00	0.00000e+00	0.00000e+00	0.00000e+00	0.00000e+00	0.00000e+00	0.00000e+00	0.00000e+00	0.00000e+00	0.00000e+00	0.00000e+00	
Factor	1.00000e+00	1.00000e+00	1.00000e+00	1.00000e+00	1.00000e+00	1.00000e+00	1.00000e+00	1.00000e+00	1.00000e+00	1.00000e+00	1.00000e+00	1.00000e+00	1.00000e+00	1.00000e+00	1.00000e+00	1.00000e+00	1.00000e+00	1.00000e+00	1.00000e+00	1.00000e+00	1.00000e+00	1.00000e+00	1.00000e+00	1.00000e+00	1.00000e+00	1.00000e+00	1.00000e+00	1.00000e+00	1.00000e+00	1.00000e+00	1.00000e+00	1.00000e+00	X	X	X	X	X	X	X	X	X	X	X	X	X	X	X	X	

B = Detector Channel
Val Type	B-AC1	B-AC2	B-AC3	B-AC4	B-AC5	B-AC6	B-AC7	B-AC8	B-AC9	B-AC10	B-AC11	B-AC12	B-AC13	B-AC14	B-AC15	B-AC16	B-DC1	B-DC2	B-DC3	B-DC4	B-DC5	B-DC6	B-DC7	B-DC8	B-DC9	B-DC10	B-DC11	B-DC12	B-DC13	B-DC14	B-DC15	B-DC16	B-Ph1	B-Ph2	B-Ph3	B-Ph4	B-Ph5	B-Ph6	B-Ph7	B-Ph8	B-Ph9	B-Ph10	B-Ph11	B-Ph12	B-Ph13	B-Ph14	B-Ph15	B-Ph16	

Term	0.00000e+00	0.00000e+00	0.00000e+00	0.00000e+00	0.00000e+00	0.00000e+00	0.00000e+00	0.00000e+00	0.00000e+00	0.00000e+00	0.00000e+00	0.00000e+00	0.00000e+00	0.00000e+00	0.00000e+00	0.00000e+00	0.00000e+00	0.00000e+00	0.00000e+00	0.00000e+00	0.00000e+00	0.00000e+00	0.00000e+00	0.00000e+00	0.00000e+00	0.00000e+00	0.00000e+00	0.00000e+00	0.00000e+00	0.00000e+00	0.00000e+00	0.00000e+00	-8.63402e+01	-1.28301e+02	-1.03800e+02	-1.75865e+02	-1.14073e+01	-9.31957e+01	-1.64450e+02	-1.61923e+02	-3.25388e+01	-6.50733e+01	-1.79394e+02	-1.69306e+02	-1.75795e+02	-1.70708e+02	-7.57699e+01	-1.59905e+02	
Factor	3.75157e-04	1.23413e-03	3.18699e-04	1.70450e-01	4.10421e-06	1.94945e-05	2.78808e-01	2.32519e-01	9.50602e-06	1.69483e-05	5.42727e+00	2.80746e-01	2.09241e-01	2.33913e-01	1.51734e-05	3.71430e-01	3.15923e-05	3.36516e-05	9.32732e-06	6.64208e-02	3.05018e-07	3.68882e-07	1.02746e-01	9.20121e-02	3.49895e-07	3.70854e-07	1.93302e+00	1.06642e-01	8.34840e-02	9.01328e-02	3.70025e-07	1.37825e-01	X	X	X	X	X	X	X	X	X	X	X	X	X	X	X	X	



#DISTANCE SETTINGS
A = Detector Channel
A-1	A-2	A-3	A-4	A-5	A-6	A-7	A-8	A-9	A-10	A-11	A-12	A-13	A-14	A-15	A-16	

1.0000e+01	1.0000e+01	1.0000e+01	1.4500e+00	1.0000e+01	1.0000e+01	1.5100e+00	1.9500e+00	1.0000e+01	1.0000e+01	2.0100e+00	2.5000e+00	2.4400e+00	2.9500e+00	1.0000e+01	3.0100e+00	

B = Detector Channel
B-1	B-2	B-3	B-4	B-5	B-6	B-7	B-8	B-9	B-10	B-11	B-12	B-13	B-14	B-15	B-16	

1.0000e+01	1.0000e+01	1.0000e+01	1.4500e+00	1.0000e+01	1.0000e+01	1.5100e+00	1.9500e+00	1.0000e+01	1.0000e+01	2.0100e+00	2.5000e+00	2.4400e+00	2.9500e+00	1.0000e+01	3.0100e+00	




#DATA BEGINS
time	group	step	mark	flag	A-AC1	A-AC2	A-AC3	A-AC4	A-AC5	A-AC6	A-AC7	A-AC8	A-AC9	A-AC10	A-AC11	A-AC12	A-AC13	A-AC14	A-AC15	A-AC16	A-DC1	A-DC2	A-DC3	A-DC4	A-DC5	A-DC6	A-DC7	A-DC8	A-DC9	A-DC10	A-DC11	A-DC12	A-DC13	A-DC14	A-DC15	A-DC16	A-Ph1	A-Ph2	A-Ph3	A-Ph4	A-Ph5	A-Ph6	A-Ph7	A-Ph8	A-Ph9	A-Ph10	A-Ph11	A-Ph12	A-Ph13	A-Ph14	A-Ph15	A-Ph16	B-AC1	B-AC2	B-AC3	B-AC4	B-AC5	B-AC6	B-AC7	B-AC8	B-AC9	B-AC10	B-AC11	B-AC12	B-AC13	B-AC14	B-AC15	B-AC16	B-DC1	B-DC2	B-DC3	B-DC4	B-DC5	B-DC6	B-DC7	B-DC8	B-DC9	B-DC10	B-DC11	B-DC12	B-DC13	B-DC14	B-DC15	B-DC16	B-Ph1	B-Ph2	B-Ph3	B-Ph4	B-Ph5	B-Ph6	B-Ph7	B-Ph8	B-Ph9	B-Ph10	B-Ph11	B-Ph12	B-Ph13	B-Ph14	B-Ph15	B-Ph16	aux-1	digaux	

1300.843	1	1	0	768	0.062284	0.2456	0.26917	0.28207	0.18424	0.14226	0.093992	0.30816	0.22459	0.082063	0.085268	0.082322	0.1921	0.24845	0.23464	0.060502	-2.2562	-2.6729	-2.3688	-2.9938	-2.3979	-2.3854	-3.2021	-2.1375	-2.5375	-2.7438	-2.1583	-2.8792	-2.4938	-2.3333	-2.8312	-2.2083	57.964	59.275	-13.072	161.517	-60.617	-65.627	161.989	173.981	25.296	112.471	-16.858	-62.315	215.278	184.323	-96.574	95.794	0.00049574	0.00074781	0.00030284	1208.1	3.4152e-06	3.2531e-06	1809.6	405.72	4.6506e-06	4.1013e-06	581.23	223.02	156.91	60.031	1.2369e-05	78.377	0.0045636	0.0047921	0.0013253	1196.4	4.4087e-05	5.2359e-05	1805	416.25	4.9904e-05	5.2537e-05	811.5	235.89	168.18	70.631	5.2403e-05	94.213	-99.262	-62.234	-2.453	-130.139	-92.407	211.028	-131.391	-125.657	57.326	135.940	-126.414	-122.673	-120.012	-114.870	-24.295	-118.224	-8191	255	
1300.939	1	1	0	0	0.1184	0.069999	0.13171	0.17791	0.15813	0.078983	0.26705	0.14602	0.2297	0.13802	0.11941	0.31098	0.078899	0.20718	0.27932	0.23317	-2.1896	-2.675	-2.1708	-2.9688	-2.5917	-2.3229	-3.0708	-2.5125	-2.4938	-2.9146	-2.1063	-2.6104	-2.5979	-2.2042	-2.9458	-2.3417	-139.278	-35.013	196.875	175.532	120.219	15.235	138.534	-118.718	200.680	11.423	41.240	153.790	112.490	100.005	5.490	-8.833	0.00052199	0.0010604	0.00021038	1225.1	2.7372e-06	1.2659e-05	1822.6	409.54	9.5578e-06	1.0616e-05	585.75	221.6	156.56	59.298	6.1176e-06	77.488	0.0045303	0.0047928	0.0013291	1214	4.3957e-05	5.2629e-05	1823.7	419.58	5.0211e-05	5.2739e-05	814.54	235.67	167.65	70.392	5.2506e-05	93.973	-106.938	-65.494	-57.122	-130.138	-66.417	190.833	-131.194	-125.436	-0.264	-13.317	-126.843	-122.539	-120.144	-114.906	138.628	-118.423	-8191	255	
1301.035	1	1	0	0	0.31671	0.18866	0.080989	0.21648	0.15972	0.32476	0.25447	0.051623	0.19941	0.139	0.19591	0.092745	0.088076	0.0040472	0.086737	0.18059	-2.0292	-2.7562	-2.1583	-2.9208	-2.7562	-2.1625	-3.2292	-2.5167	-2.3521	-2.9604	-2.1667	-2.7542	-2.7125	-2.1646	-2.9333	-2.4875	4.566	-135.043	-46.158	-61.420	-112.714	143.463	34.772	-19.155	36.643	56.276	165.626	162.766	-110.838	203.393	-13.723	175.666	0.00088881	0.001281	0.00021346	1214.6	2.7291e-06	9.5653e-06	1806.3	403.33	6.0823e-06	1.3519e-05	586.64	221.38	155.22	59.768	9.4104e-06	76.801	0.0045499	0.0047684	0.0013276	1201.4	4.4031e-05	5.2461e-05	1802.8	413.67	5.0131e-05	5.2555e-05	811.9	234.42	165.79	70.059	5.2437e-05	93.498	-86.368	-72.675	-48.645	-130.277	-19.977	26.939	-131.244	-125.597	-21.299	11.685	-126.660	-122.843	-120.041	-114.798	26.001	-117.756	-8191	255	
1301.131	1	1	0	0	0.088899	0.090541	0.25496	0.069034	0.16913	0.10731	0.14226	0.099506	0.37697	0.206	0.12876	0.14761	0.11188	0.16484	0.13551	0.12439	-1.9854	-3.15	-2.3812	-2.8167	-2.6583	-2.2542	-3.0729	-2.5771	-2.3229	-2.9062	-2.1854	-2.6312	-2.8625	-2.0062	-2.8042	-2.5208	-40.756	190.462	17.410	159.628	194.310	121.841	120.629	-134.184	-23.943	130.298	-37.997	-67.798	179.582	70.411	-7.993	-10.303	0.00043641	0.00090643	6.7368e-05	1207.6	4.8946e-06	1.622e-05	1794.6	402.29	8.5866e-06	4.6175e-06	580.01	222.45	155.78	60.105	1.5618e-05	77.68	0.0045473	0.004797	0.0013334	1195.7	4.3971e-05	5.2253e-05	1794.6	413.02	5.0119e-05	5.2356e-05	813.69	235.44	166.66	70.551	5.2802e-05	94.052	-90.693	23.131	67.666	-130.152	-23.476	-38.747	-131.350	-125.342	33.720	46.178	-126.889	-122.488	-119.884	-114.329	-3.640	-118.307	-8191	255	
1301.227	1	1	0	0	0.14252	0.11011	0.20853	0.06231	0.14327	0.068509	0.23407	0.10406	0.10924	0.2624	0.16257	0.20166	0.17435	0.098051	0.1209	0.086019	-1.9625	-2.8125	-2.425	-2.7354	-2.7396	-2.1875	-2.9354	-2.6854	-2.2667	-2.9437	-2.5125	-2.675	-2.8937	-2.1729	-2.7479	-2.5812	-110.077	184.217	53.608	-126.936	38.966	-126.896	158.023	145.141	-16.536	175.478	134.175	110.385	63.085	64.188	110.585	41.193	0.00038581	0.0020929	0.00027236	1208.9	3.1014e-06	9.8223e-06	1797	404.8	1.0339e-05	5.1473e-06	590.97	222.02	156.2	59.939	1.2708e-05	77.821	0.0045513	0.004776	0.0013334	1199.5	4.3902e-05	5.2406e-05	1796.7	414.9	5.0176e-05	5.2499e-05	814.59	235.82	167.26	70.911	5.2618e-05	94.154	-106.604	-64.330	-79.237	-130.007	12.079	-28.107	-131.142	-125.276	-31.603	216.273	-126.757	-122.534	-120.064	-114.196	-13.985	-117.662	-8191	255	
1301.323	1	1	0	0	0.079618	0.18802	0.16785	0.0381	0.15755	0.25337	0.21414	0.09496	0.079382	0.051114	0.076395	0.29979	0.057581	0.16408	0.17689	0.18562	-1.7437	-2.8375	-2.3542	-2.4667	-2.8063	-2.2792	-2.8792	-2.6979	-2.1479	-2.8354	-2.4062	-2.2562	-3.0021	-2.1854	-2.6312	-2.7396	-8.732	193.412	199.936	24.225	109.877	33.023	134.295	128.176	202.507	135.214	120.945	37.372	-41.950	182.414	45.320	-57.682	0.00055517	0.0011881	0.00029051	1211.6	1.3438e-06	6.4413e-06	1804.1	408.81	4.3028e-06	2.958e-06	589.67	224.57	159.39	60.914	5.6455e-06	78.356	0.0045208	0.004796	0.0013308	1202.9	4.378e-05	5.2178e-05	1807.8	419.65	4.9756e-05	5.2473e-05	820.34	238.76	170.26	71.837	5.2686e-05	95.245	-130.275	-116.273	4.661	-130.014	-65.056	-42.787	-131.212	-125.178	7.224	-26.862	-127.007	-122.423	-119.873	-114.343	-48.683	-117.716	-8191	255	
1301.444	1	1	0	0	0.16183	0.0053714	0.30985	0.28928	0.11827	0.14837	0.26345	0.21608	0.28615	0.24635	0.11337	0.20327	0.027045	0.063256	0.20016	0.29246	-1.8917	-2.9479	-2.5896	-2.4583	-3.0083	-2.5208	-2.8438	-2.925	-2.2521	-2.8271	-2.4062	-2.1688	-2.875	-2.2417	-2.6188	-2.9062	67.416	-24.922	7.655	134.931	-95.585	-103.042	194.790	101.004	-68.047	108.409	166.781	-28.309	138.741	-45.348	-134.897	119.459	0.00028387	0.0003493	0.0001833	1245.6	6.9109e-06	1.7567e-05	1852.6	420.51	1.3225e-06	1.1268e-05	596.47	228.52	162.26	61.923	1.1453e-05	80.542	0.0045284	0.0047927	0.0013316	1237	4.3781e-05	5.2302e-05	1855.1	432.45	4.97e-05	5.2351e-05	830.45	242.2	173.88	72.702	5.2497e-05	96.513	-100.010	-19.060	-17.884	-130.026	-76.703	-73.111	-131.178	-125.530	92.461	81.611	-126.410	-122.556	-119.947	-114.536	119.363	-117.864	-8191	255	
1301.539	1	1	0	0	0.30076	0.20107	0.15434	0.13232	0.08428	0.34843	0.21303	0.18361	0.14573	0.24729	0.11006	0.021334	0.055414	0.056375	0.19787	0.11862	-1.7437	-2.7771	-2.5271	-2.4042	-2.8833	-2.3729	-2.6188	-2.7667	-2.0958	-2.6625	-2.4646	-2.3208	-2.8812	-2.2292	-2.3729	-2.8292	-43.869	-4.387	110.065	-94.335	85.795	-0.608	149.886	146.577	41.835	62.719	-64.109	-47.352	139.343	42.300	185.437	-91.049	0.00082419	0.00088644	0.00018992	1280.6	7.1607e-06	2.8896e-05	1894.6	432.48	2.8422e-06	8.9659e-06	614.2	231.56	165.27	62.171	1.8217e-06	80.195	0.0045123	0.0047787	0.0013279	1272.9	4.3734e-05	5.2345e-05	1901.1	444.31	4.986e-05	5.2358e-05	840.88	245.07	176.44	73.049	5.2509e-05	96.825	-120.552	-84.079	103.803	-130.002	-37.704	-92.678	-131.256	-125.437	21.083	-49.451	-126.772	-122.906	-119.865	-114.487	-19.279	-117.051	-8191	255	
1301.635	1	1	0	0	0.14433	0.10617	0.39107	0.20173	0.29641	0.038691	0.18662	0.12277	0.34251	0.1555	0.28715	0.16006	0.15701	0.23327	0.13883	0.12965	-1.6104	-2.5125	-2.6292	-2.5438	-2.8583	-2.5083	-2.7188	-2.9437	-2.2625	-2.6792	-2.8229	-2.2479	-2.8563	-2.5187	-2.2104	-3.0083	176.327	89.163	-93.344	158.927	-108.758	113.968	122.326	89.419	139.033	147.903	-92.178	213.008	177.944	211.038	-142.679	-41.815	5.5927e-05	0.0010033	0.00032635	1280.7	6.6769e-07	1.4507e-06	1895.9	430.14	1.4995e-05	6.8545e-06	614.45	230.41	164.55	62.627	1.3607e-05	80.009	0.0045455	0.0047953	0.0013312	1275.3	4.3994e-05	5.2373e-05	1901.2	442.15	4.9944e-05	5.2846e-05	838.15	244.73	175.75	73.215	5.2224e-05	96.438	199.916	44.792	-21.789	-129.982	23.400	188.189	-131.183	-125.336	-46.467	-10.322	-126.222	-122.639	-120.237	-114.222	-75.231	-118.254	-8191	255	
1301.731	1	1	0	0	0.1859	0.059681	0.085931	0.11461	0.11251	0.046744	0.15898	0.1828	0.15769	0.22431	0.049386	0.048047	0.034191	0.22479	0.22037	0.1744	-1.8333	-2.4146	-2.6875	-2.4	-2.6937	-2.5271	-2.4708	-2.8396	-2.4083	-2.4354	-2.8083	-2.0708	-2.6583	-2.6271	-2.1729	-2.9792	213.054	-110.007	-85.564	-31.013	96.245	57.921	133.211	197.331	-35.153	-138.040	63.397	119.998	-0.137	73.352	98.310	-10.543	0.00055621	0.00085681	0.00018134	1275.6	2.7415e-06	1.8297e-05	1888.4	428.84	8.2031e-06	1.9394e-05	616.17	229.66	164.49	62.48	1.1789e-05	80.006	0.0045292	0.0047727	0.0013211	1271.2	4.3867e-05	5.2126e-05	1897.3	441.12	4.984e-05	5.2735e-05	837.31	244.1	175.69	73.193	5.2366e-05	96.748	-112.747	164.560	47.426	-129.889	-22.305	-129.382	-131.080	-125.346	-88.741	12.558	-126.272	-122.259	-119.988	-114.735	16.372	-117.770	-8191	255	
1301.827	1	1	0	0	0.0328	0.23965	0.32502	0.21516	0.27552	0.36376	0.25824	0.055367	0.089463	0.13452	0.15329	0.051279	0.22551	0.31603	0.14995	0.20929	-2.1188	-2.4417	-2.8104	-2.2917	-2.8042	-2.6688	-2.3125	-3.0021	-2.3125	-2.4042	-2.8146	-2.0417	-2.7125	-2.6521	-2.0687	-2.7396	-51.553	-94.513	195.431	130.894	-20.482	-84.934	-128.697	-136.393	6.756	45.267	-108.132	199.534	160.862	186.527	97.977	-26.357	0.00057544	0.00039156	0.00022622	1279.3	3.7368e-06	1.2233e-05	1894.8	429.82	7.8062e-06	4.7233e-06	605.92	231.51	164.64	61.977	9.1862e-06	80.064	0.0045244	0.0047879	0.0013126	1275.2	4.4085e-05	5.2031e-05	1903	442.95	5.0019e-05	5.2564e-05	837.3	244.82	176.42	73.136	5.2402e-05	97.032	-87.279	185.977	-81.736	-129.845	-15.576	-77.820	-131.065	-125.171	-129.213	-60.707	-126.671	-122.547	-119.810	-114.660	-61.943	-117.999	-8191	255	
1301.923	1	1	0	0	0.096893	0.15034	0.092514	0.18285	0.12454	0.0946	0.48458	0.17279	0.20689	0.18075	0.09262	0.14513	0.046268	0.20897	0.14538	0.092709	-2.2292	-2.2458	-3.0729	-2.525	-2.6833	-2.7458	-2.1896	-2.8458	-2.5687	-2.1729	-2.8833	-2.3438	-2.6396	-2.8896	-2.2021	-2.9	-14.808	51.757	6.853	156.100	52.937	-132.503	177.280	188.552	-13.497	115.068	102.763	190.353	38.708	146.243	163.823	48.384	0.00084621	0.00099782	0.00038292	1289.4	3.7343e-06	7.9444e-06	1908.4	434.05	1.7622e-05	2.4796e-05	610.53	232.76	165.86	62.377	1.6376e-05	80.523	0.0045569	0.0047639	0.0013217	1285.9	4.394e-05	5.2071e-05	1920.5	446.28	4.9956e-05	5.2774e-05	839.72	245.69	177.17	73.411	5.2389e-05	96.902	-70.806	-6.819	-41.387	-129.796	-27.318	-17.743	-131.098	-125.316	-35.583	17.533	-126.115	-122.612	-119.585	-114.422	-56.150	-118.166	-8191	255	
1302.019	1	1	0	0	0.16077	0.063545	0.18174	0.34458	0.086938	0.037946	0.28325	0.074174	0.057012	0.2296	0.11373	0.13088	0.17832	0.18058	0.039138	0.12046	-2.1604	-2.3417	-2.8563	-2.5521	-2.5146	-2.9271	-2.35	-2.8312	-2.5896	-2.35	-3.0604	-2.3979	-2.5146	-2.8229	-2.3458	-2.6542	-99.314	32.897	-80.020	200.830	85.061	138.447	75.650	103.377	-117.209	82.552	83.630	-13.081	-11.437	169.866	-136.436	115.885	0.00074122	0.00084673	2.2505e-05	1301.4	7.984e-07	2.2303e-05	1930.2	438.01	3.1688e-06	6.1743e-06	617.44	231.47	165.93	62.439	6.6851e-06	80.48	0.0045232	0.0047937	0.0013182	1295.9	4.4123e-05	5.2042e-05	1938.4	449.98	5.0084e-05	5.2813e-05	843.99	246.27	177.58	73.317	5.2459e-05	97.254	-84.004	-72.913	-122.810	-129.889	-109.480	-132.782	-131.121	-125.347	-71.388	36.684	-126.131	-122.160	-119.930	-114.041	-51.787	-117.647	-8191	255	
1302.140	1	1	0	0	0.17112	0.27983	0.14152	0.31231	0.14314	0.056697	0.049487	0.23839	0.26497	0.10254	0.22853	0.18152	0.075023	0.11389	0.21067	0.25027	-2.15	-2.2604	-3.0563	-2.7438	-2.6	-2.9188	-2.6229	-2.7583	-2.7208	-2.1354	-3.0167	-2.4042	-2.3375	-2.8729	-2.3271	-2.8312	121.656	-130.709	-133.330	174.155	177.493	-138.891	-43.596	190.151	24.214	-93.218	156.682	60.365	130.585	88.143	34.451	-54.724	0.00049637	0.00023364	0.00014684	1301.1	6.5346e-06	1.6887e-05	1928.6	435.87	5.0301e-06	9.2411e-06	624.18	230.67	164.51	62.409	1.5864e-05	80.514	0.0045546	0.0047642	0.0013195	1297.2	4.4141e-05	5.2223e-05	1937.8	448.7	4.9829e-05	5.2605e-05	844.64	246.25	177.54	73.469	5.2794e-05	97.539	-140.682	124.244	-43.585	-129.679	-48.291	-11.130	-131.103	-125.275	-31.050	-55.044	-126.488	-122.181	-119.698	-114.351	12.094	-118.043	-8191	255	
1302.236	1	1	0	0	0.2334	0.12013	0.058518	0.041404	0.038792	0.082932	0.089244	0.14612	0.18784	0.13579	0.17242	0.14157	0.16089	0.17085	0.27534	0.035349	-2.4688	-2.1771	-3.0146	-2.7854	-2.225	-3.0021	-2.45	-2.4875	-2.7313	-2.2438	-2.8917	-2.7062	-2.3854	-2.9188	-2.4021	-2.6104	171.501	9.597	-38.626	66.642	73.696	90.045	37.514	132.506	173.559	116.740	119.076	-5.073	72.803	-26.768	17.325	138.809	0.000542	0.00090691	7.2027e-05	1298.6	5.5537e-06	1.0066e-05	1917.4	432.95	1.0357e-05	1.2309e-05	615.65	232.22	164.91	62.089	7.9196e-06	80.027	0.0045464	0.0048152	0.0013286	1295	4.428e-05	5.2241e-05	1934.7	447.29	4.9871e-05	5.284e-05	842.48	246.03	177.09	73.493	5.2956e-05	97.2	-101.914	-64.298	-62.441	-129.684	-42.200	57.459	-130.811	-125.218	49.883	-36.476	-126.326	-122.050	-119.568	-114.182	-106.771	-117.422	-8191	255	
1302.332	1	1	0	0	0.37758	0.15362	0.17072	0.22782	0.20911	0.17351	0.064897	0.2827	0.18419	0.0041917	0.096874	0.15151	0.086672	0.17533	0.008926	0.27445	-2.4521	-2.3979	-2.8042	-2.9854	-2.2917	-2.6854	-2.7229	-2.4625	-2.9208	-2.3479	-2.6437	-2.7542	-2.2958	-2.8396	-2.4354	-2.4208	162.836	40.769	152.818	152.111	148.552	85.107	179.508	179.728	193.446	-126.092	177.123	129.278	-101.162	206.417	-26.583	43.500	0.00036345	0.00040156	0.00016991	1293.7	2.596e-06	3.1852e-05	1921	433.12	8.0769e-06	3.3671e-06	610.59	230.29	164.41	62.482	1.1936e-05	79.052	0.0045195	0.0048069	0.0013353	1295.3	4.4293e-05	5.2637e-05	1937	447.99	5.0093e-05	5.3036e-05	844.99	245.46	177.32	73.442	5.3075e-05	97.164	-112.458	-66.597	-122.890	-129.572	-52.529	-21.388	-130.747	-124.962	-85.062	120.175	-126.220	-122.153	-119.426	-114.268	-91.605	-117.110	-8191	255	
1302.404	1	1	0	0	0.17304	0.12612	0.1356	0.34501	0.23903	0.44204	0.20378	0.16481	0.095259	0.02116	0.31031	0.22505	0.13656	0.23798	0.052958	0.016383	-2.8208	-2.1521	-2.675	-2.9625	-2.2687	-2.9479	-2.8792	-2.3438	-2.9521	-2.4167	-2.7271	-2.7229	-2.2375	-3.0375	-2.6333	-2.3812	77.405	142.546	160.955	197.345	-80.846	-47.335	94.479	68.346	184.700	196.606	87.564	203.181	15.294	163.838	64.507	106.901	0.00062219	0.0015568	0.00027853	1301.1	3.7185e-06	2.0199e-05	1923.1	433.22	8.4607e-06	1.1543e-05	607.22	229.63	165.06	62.076	1.5361e-05	80.181	0.0045388	0.0048263	0.0013377	1301.5	4.4447e-05	5.2765e-05	1943.2	447.65	5.0281e-05	5.3394e-05	842.36	245.33	177.59	73.402	5.321e-05	97.331	-136.798	-81.723	139.254	-129.456	-77.374	17.247	-130.722	-124.935	-132.834	8.091	-126.416	-122.060	-119.582	-114.191	57.690	-117.746	-8191	255	
1302.523	1	1	0	0	0.18349	0.19582	0.14787	0.43195	0.20962	0.064542	0.18519	0.21264	0.15081	0.20599	0.1682	0.22219	0.16378	0.25641	0.05207	0.11983	-2.6542	-2.2875	-2.5271	-2.9979	-2.2875	-2.7354	-2.8625	-2.3771	-2.8104	-2.3208	-2.4938	-3.0542	-2.2917	-2.6917	-2.6562	-2.3708	-39.753	-75.599	197.507	208.449	98.741	-18.194	157.106	-135.097	-37.716	196.510	103.767	186.590	215.764	29.294	6.654	-38.804	0.00072405	0.0014408	0.00021092	1310.1	2.4967e-06	3.6218e-06	1951.6	439.19	1.0995e-05	8.3131e-06	618.28	233.64	167.9	63.497	4.5252e-06	82.261	0.0045629	0.0048552	0.0013463	1311.4	4.4563e-05	5.3131e-05	1961.3	452.03	5.0176e-05	5.3283e-05	849.5	247.7	179.67	74.423	5.3193e-05	98.873	-100.721	-86.391	-86.042	-129.589	-62.849	174.255	-131.026	-125.355	-72.401	-98.304	-126.687	-122.414	-119.997	-114.394	-110.625	-117.653	-8191	255	
1302.619	1	1	0	0	0.088343	0.15145	0.22126	0.40516	0.21185	0.069571	0.08724	0.13115	0.21527	0.1829	0.15164	0.37163	0.067421	0.068654	0.26353	0.22539	-2.4583	-2.35	-2.3625	-3.0708	-2.3312	-2.6063	-3.1	-2.2583	-2.7167	-2.4458	-2.4667	-2.8333	-2.15	-2.5312	-2.9	-2.225	16.735	14.897	109.592	154.751	-98.831	152.362	196.609	-35.355	-87.515	66.654	86.208	172.549	116.970	78.288	40.022	76.183	0.00049129	0.0016481	0.00018402	1340.6	3.0138e-06	7.0132e-06	1984.8	447.39	6.3955e-06	1.207e-05	628.66	234.42	169.85	63.898	1.017e-05	82.146	0.0045849	0.0048442	0.0013462	1336.7	4.4433e-05	5.2901e-05	1999.2	462.08	5.037e-05	5.3105e-05	857.56	250	182.16	75.118	5.3135e-05	99.385	-71.102	-89.072	1.053	-129.692	-56.051	-46.126	-130.927	-125.248	7.946	-56.145	-126.381	-122.107	-119.521	-114.075	-35.553	-117.713	-8191	255	
1302.717	1	1	0	0	0.062421	0.093452	0.168	0.15132	0.083409	0.15006	0.25931	0.15158	0.40088	0.095287	0.03157	0.12317	0.095914	0.030846	0.1223	0.06887	-2.4521	-2.6542	-2.2833	-3.1167	-2.1562	-2.675	-3.1437	-2.2958	-2.6708	-2.6104	-2.3667	-2.8479	-2.2146	-2.5479	-2.7146	-2.2083	113.180	70.379	-58.607	146.528	-26.338	97.263	160.080	180.045	60.097	159.987	178.965	128.220	118.677	81.136	91.472	168.945	0.00060252	0.00083797	0.0004684	1340.8	7.6681e-06	1.1839e-05	1977.3	445.71	6.2885e-06	1.5912e-05	621.77	233.86	168.05	63.336	2.0899e-05	80.538	0.0045713	0.0048479	0.001342	1343	4.4433e-05	5.2824e-05	1996.6	460.19	5.0378e-05	5.3165e-05	852.39	248.3	180.81	74.614	5.2611e-05	98.245	-115.636	193.423	-26.781	-129.358	-18.344	-37.555	-130.765	-124.945	-13.245	-33.176	-126.330	-122.063	-119.260	-114.072	-31.645	-117.678	-8191	255	
1302.836	1	1	0	0	0.17652	0.042865	0.29329	0.1824	0.13673	0.26803	0.32813	0.19272	0.17192	0.14575	0.11365	0.09433	0.23021	0.18611	0.23193	0.26476	-2.4458	-2.7292	-2.2146	-3.275	-2.3688	-2.4167	-3.2042	-2.1375	-2.7917	-2.6667	-2.2208	-2.8146	-2.2271	-2.5417	-2.8875	-2.1625	-50.278	185.959	-136.233	208.090	65.705	101.941	186.534	-19.535	-19.324	-10.637	-70.635	22.346	-47.013	199.506	72.741	133.760	0.0003999	0.0013431	0.00023978	1326.3	3.7243e-06	2.3511e-05	1962.8	440.83	8.8138e-06	1.8779e-05	619.52	234.18	167.77	63.542	7.0627e-06	82.1	0.0045873	0.004853	0.0013345	1328.3	4.4535e-05	5.301e-05	1983.2	455.68	5.0254e-05	5.3103e-05	849.54	247.51	179.78	74.435	5.276e-05	98.186	-134.403	-80.673	-43.523	-129.516	-43.927	-50.979	-130.627	-125.096	3.410	-55.059	-126.807	-122.498	-120.110	-114.676	-91.196	-117.957	-8191	255	
1302.932	1	1	0	0	0.10516	0.032719	0.17167	0.070793	0.16541	0.20358	0.086409	0.20327	0.17921	0.24892	0.093194	0.099322	0.15804	0.093321	0.13898	0.29225	-2.3083	-2.5646	-2.2208	-2.9208	-2.4792	-2.3625	-3.025	-2.1792	-2.6063	-2.7687	-2.2479	-2.9083	-2.3667	-2.3083	-3.0125	-2.4604	129.995	-58.621	-32.565	125.256	-113.238	-38.037	110.543	182.584	-37.453	48.820	81.668	-24.740	124.194	-31.970	94.446	-112.458	0.00046318	0.0010581	0.0001796	1334.7	6.2748e-06	9.6924e-06	1980.1	444.83	1.3253e-05	1.9519e-05	631.72	233.49	167.88	63.496	6.0652e-06	81.298	0.0046141	0.0048223	0.0013411	1327.8	4.4689e-05	5.2938e-05	1989.9	457.32	5.0606e-05	5.3343e-05	852.27	247.84	179.89	74.373	5.288e-05	98.549	-99.419	-18.379	90.972	-129.973	-12.117	19.183	-131.111	-125.317	-29.630	25.644	-126.355	-122.373	-119.859	-114.465	83.442	-117.961	-8191	255	
1303.004	1	1	0	0	0.11393	0.16359	0.18832	0.36623	0.087344	0.15875	0.25838	0.08558	0.11707	0.11157	0.22085	0.10215	0.13954	0.27293	0.023389	0.099028	-2.0979	-2.7042	-2.0292	-3.0438	-2.5687	-2.425	-3.2333	-2.2854	-2.7167	-2.8688	-2.2438	-2.825	-2.5979	-2.4292	-2.7625	-2.3479	169.818	-97.381	-83.996	164.948	-61.258	-133.781	151.140	103.560	87.201	-49.416	21.619	-74.669	-129.063	-31.764	-38.307	-118.218	0.00068369	0.00080087	0.00028671	1325.1	3.5861e-06	2.1145e-05	1968.3	441.25	2.5999e-06	1.9179e-05	622.62	233.94	168.08	64.022	6.3513e-06	81.575	0.0046135	0.0048421	0.0013433	1324.9	4.4786e-05	5.3025e-05	1986.7	455.75	5.0615e-05	5.3164e-05	850.92	248.81	180.17	74.527	5.2846e-05	98.892	-100.867	-66.222	26.078	-129.499	-31.462	-74.491	-130.814	-125.189	-31.592	1.002	-126.129	-122.413	-119.793	-115.172	-97.088	-117.871	-8191	255	
1303.124	1	1	0	0	0.22062	0.18546	0.17824	0.3104	0.17909	0.24554	0.12563	0.10645	0.081619	0.19034	0.27741	0.26768	0.11715	0.25287	0.22507	0.075123	-2.1958	-2.7792	-2.2104	-2.9	-2.7938	-2.2958	-3.3458	-2.4604	-2.5104	-2.9729	-2.1063	-2.7062	-2.6917	-2.1729	-2.925	-2.3271	129.771	-128.308	-129.063	174.958	-93.392	89.038	178.101	-69.656	-41.595	-104.900	116.517	-49.397	35.155	102.679	68.593	134.350	0.00060172	0.0011042	0.00012456	1328.8	2.8836e-06	1.2886e-05	1981.4	444.15	1.3465e-05	6.3543e-06	619.86	235.04	169.38	63.777	1.2663e-05	81.649	0.0046088	0.0048424	0.0013477	1330.3	4.4927e-05	5.2892e-05	1996.7	459.06	5.0713e-05	5.2834e-05	855.71	249.33	181.53	74.988	5.3116e-05	99.001	-102.830	-142.973	-49.242	-129.571	-67.820	-33.508	-130.913	-125.065	-129.028	36.918	-126.548	-122.489	-119.885	-114.478	-49.411	-117.882	-8191	255	
1303.220	1	1	0	0	0.24426	0.17004	0.080846	0.29753	0.12528	0.21282	0.25554	0.14424	0.22275	0.13223	0.18043	0.11002	0.020577	0.29563	0.055877	0.26775	-1.9458	-2.9313	-2.2125	-2.7354	-2.7396	-2.1437	-3.0167	-2.5646	-2.1833	-2.9562	-2.2917	-2.5458	-2.8458	-2.2667	-2.8396	-2.6771	26.329	68.047	69.103	183.337	93.383	157.263	192.495	184.196	-114.134	39.399	47.769	55.190	163.181	-57.382	-134.340	-89.240	0.00056917	0.00055731	0.00028548	1346.4	1.5386e-06	1.7178e-05	1993.5	447.35	5.2237e-06	1.058e-05	615.49	235.54	169.51	63.716	2.2316e-06	81.221	0.0046174	0.0048334	0.0013534	1339.8	4.466e-05	5.3284e-05	2002.8	461.72	5.0847e-05	5.306e-05	856.91	249.44	181.31	74.897	5.3566e-05	98.681	-109.120	-67.078	-47.908	-129.842	-57.566	191.964	-131.084	-125.319	-73.792	130.980	-126.612	-122.420	-119.977	-114.625	-38.643	-117.879	-8191	255	
1303.316	1	1	0	0	0.14762	0.18011	0.27256	0.093263	0.18887	0.21106	0.18106	0.19473	0.196	0.28818	0.16584	0.14916	0.1243	0.21682	0.14824	0.1452	-1.7979	-2.6	-2.2604	-2.7667	-2.9062	-2.2146	-3.0667	-2.6292	-2.1188	-2.9562	-2.3521	-2.5042	-2.9188	-2.2687	-2.6979	-2.75	10.838	-72.904	-100.263	-85.216	-24.460	197.182	151.063	122.580	-3.062	180.089	32.609	-87.834	216.317	104.605	116.966	-34.905	0.0003868	0.0002251	0.00022462	1334.9	6.8326e-06	1.4309e-05	1984.8	445.07	8.3002e-06	9.4023e-06	618.18	232.51	166.44	62.828	1.6898e-05	80.436	0.0046257	0.004861	0.0013547	1328.4	4.4368e-05	5.3113e-05	1990.9	456.94	5.0844e-05	5.3463e-05	855.17	247.28	178.82	73.977	5.3842e-05	97.807	-101.464	164.950	-15.265	-129.885	-63.804	-8.063	-131.153	-125.597	-11.386	-15.237	-127.170	-122.275	-119.683	-114.203	-0.968	-117.773	-8191	255	
1303.437	1	1	0	0	0.15769	0.099868	0.24385	0.10597	0.16128	0.31378	0.14336	0.27213	0.11149	0.17659	0.24769	0.2628	0.14371	0.15846	0.15966	0.16291	-1.8417	-2.825	-2.35	-2.7271	-2.8625	-2.3771	-2.8896	-2.7625	-2.4083	-2.9562	-2.4875	-2.4562	-3.0062	-2.2604	-2.7812	-2.7833	126.006	104.076	197.356	109.481	-118.775	69.499	162.635	157.529	-88.147	-73.112	101.637	-93.284	-76.101	-130.614	-89.790	-58.979	0.0005784	0.00082068	0.00023037	1319	2.1333e-06	1.1921e-05	1977.8	442.44	6.9012e-06	1.6334e-05	618.78	232.88	167	62.612	8.3164e-06	80.445	0.0046179	0.0048489	0.0013563	1314.4	4.4955e-05	5.3051e-05	1981.5	453.47	5.0668e-05	5.3704e-05	854.03	246.34	178.22	73.788	5.3952e-05	97.569	-79.798	-78.837	-46.501	-129.897	39.102	164.704	-131.347	-125.679	179.425	-30.320	-126.722	-122.549	-120.072	-114.209	48.655	-118.096	-8191	255	
1303.533	1	1	0	0	0.22506	0.11639	0.22177	0.38426	0.11433	0.082173	0.037326	0.066017	0.18548	0.17337	0.15989	0.25231	0.14074	0.13946	0.13399	0.19463	-1.8604	-2.7979	-2.65	-2.775	-2.8271	-2.3833	-2.95	-2.8333	-2.3667	-3.0187	-2.8083	-2.3187	-3.0167	-2.3125	-2.5062	-2.9146	-81.847	-60.441	-134.898	-133.602	-72.220	-28.382	170.310	132.699	-88.634	122.970	-33.746	-85.903	-86.095	94.977	-86.011	-32.864	0.00063129	0.0012184	8.6549e-05	1335.5	2.574e-06	1.2898e-05	2005.9	446.54	9.7084e-06	1.3201e-05	632.6	235.21	168.55	63.387	1.2767e-05	82.465	0.0046126	0.0048704	0.0013541	1327.2	4.4608e-05	5.3267e-05	2004.8	459.31	5.0693e-05	5.3629e-05	859.45	248.53	179.78	74.379	5.3772e-05	98.369	-111.496	-16.562	-69.775	-130.175	-53.303	-114.631	-131.410	-125.798	-71.216	29.489	-126.677	-122.429	-119.919	-115.020	-16.215	-117.990	-8191	255	
1303.628	1	1	0	0	0.075156	0.30543	0.12288	0.24293	0.072233	0.3047	0.20286	0.10815	0.21629	0.15484	0.19526	0.098368	0.047499	0.20534	0.15502	0.11907	-1.8333	-2.6625	-2.5125	-2.6417	-2.9042	-2.4354	-2.6854	-2.8292	-2.2188	-2.6042	-2.6417	-2.2396	-3.0208	-2.3521	-2.2854	-2.8896	150.352	-108.264	141.155	134.495	8.744	126.373	213.317	-125.222	118.910	156.529	-49.580	202.233	187.400	-79.952	59.223	-71.173	0.0011383	0.0015834	0.00013987	1340.1	3.979e-06	2.7065e-05	1993.8	447.08	9.3437e-06	1.75e-05	622.36	233.49	167.87	63.231	7.1269e-06	80.679	0.0046478	0.0048877	0.0013577	1330.2	4.485e-05	5.3679e-05	2000	458.38	5.0841e-05	5.3793e-05	855.09	246.6	179.15	74.027	5.3472e-05	97.801	-102.989	-60.136	9.321	-130.132	-50.525	32.234	-131.226	-125.591	-4.188	-98.309	-126.011	-122.719	-120.138	-114.717	-29.329	-117.932	-8191	255	
1303.699	1	1	0	0	0.22897	0.075244	0.30672	0.11227	0.24866	0.2845	0.067223	0.074111	0.05373	0.092466	0.12407	0.059375	0.33244	0.16086	0.24469	0.36099	-1.8333	-2.625	-2.9542	-2.4875	-3.0042	-2.4688	-2.7521	-2.9979	-2.3625	-2.7042	-2.6562	-2.15	-3.0438	-2.5271	-2.2646	-3.0167	-1.779	168.649	-63.727	196.658	162.541	159.545	-82.651	7.430	-142.577	205.189	69.426	95.420	-35.458	207.393	6.329	-14.034	0.00063995	0.00020413	0.00034338	1334.3	3.7511e-06	1.2346e-05	1990.3	443.77	1.6675e-06	1.5643e-05	613.66	232.51	167.37	62.229	5.9075e-06	79.978	0.0046214	0.0049079	0.0013493	1325.7	4.5028e-05	5.3586e-05	1994.1	455.74	5.1212e-05	5.4182e-05	849.38	245.5	178.02	73.368	5.3898e-05	96.766	-96.712	3.632	-20.095	-130.069	-59.168	-129.578	-131.285	-125.573	-74.979	8.579	-126.560	-122.603	-120.301	-114.282	141.715	-118.239	-8191	255	
1303.820	1	1	0	0	0.10479	0.30169	0.25944	0.10351	0.15417	0.23219	0.10932	0.25866	0.067406	0.16763	0.231	0.23384	0.16826	0.062486	0.047493	0.3288	-1.9042	-2.6042	-2.7604	-2.4354	-2.6646	-2.5458	-2.6958	-3.0479	-2.4521	-2.6125	-2.8167	-2.2458	-2.7875	-2.7021	-2.3812	-3.0979	-5.820	-51.574	89.650	94.507	132.287	142.390	191.333	-33.007	142.045	-123.901	-34.388	204.996	37.032	103.264	95.762	-141.491	0.00021799	0.00097216	0.00045893	1325.4	4.701e-06	1.6705e-05	1985.5	441.51	7.7666e-06	1.0152e-05	615.46	230.73	166.15	61.699	7.9272e-06	80.069	0.0046349	0.0048948	0.0013514	1315.6	4.5024e-05	5.3423e-05	1986	452.12	5.0833e-05	5.3758e-05	845.78	244.41	176.82	72.891	5.3545e-05	96.994	-115.336	-117.743	-72.931	-130.219	30.892	-36.714	-131.412	-125.546	-61.920	18.736	-126.397	-122.893	-120.309	-114.618	-18.803	-117.916	-8191	255	
1303.916	1	1	0	0	0.14977	0.08375	0.2306	0.069626	0.24251	0.18624	0.3627	0.14562	0.22941	0.11529	0.14657	0.2282	0.044506	0.10042	0.088737	0.15656	-2.0625	-2.6875	-2.9437	-2.5667	-2.8063	-2.7625	-2.6417	-3.1562	-2.5604	-2.4646	-3.0292	-2.5083	-2.6229	-2.5958	-2.2021	-2.9208	-7.035	-44.433	143.529	145.027	-18.281	205.394	193.927	216.350	-23.969	-67.688	121.259	-8.152	199.107	106.805	8.291	86.451	0.00043929	0.0016564	0.00018132	1335	4.6627e-06	1.171e-05	2000.8	446.21	1.0241e-05	2.4852e-05	620.99	232.52	168.45	62.647	1.5751e-05	81.316	0.0046379	0.0049024	0.0013496	1327.1	4.5235e-05	5.3631e-05	2003.6	457.25	5.1098e-05	5.3904e-05	853.72	246.45	178.84	73.555	5.3638e-05	97.691	177.236	-56.542	-72.442	-130.113	-5.970	35.930	-131.359	-125.550	-14.828	-1.162	-126.662	-122.629	-119.918	-114.524	-60.570	-118.280	-8191	255	
1304.012	1	1	0	0	0.21699	0.065365	0.11113	0.22832	0.17766	0.11692	0.25449	0.2568	0.059284	0.014771	0.33399	0.10269	0.11336	0.14619	0.13381	0.15471	-2.1896	-2.5625	-2.9604	-2.6813	-2.7438	-2.8625	-2.5375	-3.0646	-2.5792	-2.325	-2.8667	-2.3854	-2.6229	-2.6854	-2.2958	-2.8563	-111.058	4.586	21.533	165.710	45.286	-32.028	208.722	-20.927	203.599	207.225	50.076	2.457	92.580	94.500	103.595	183.892	0.00079769	0.0003816	0.00019319	1351.9	6.0606e-06	5.4606e-06	2020	450	1.0706e-05	6.7345e-06	633.93	235.08	168.49	63.199	9.4892e-06	80.921	0.0046575	0.0048935	0.0013468	1341.3	4.5232e-05	5.3519e-05	2020.7	461.73	5.1366e-05	5.3914e-05	857.36	248	180.27	74.124	5.3667e-05	97.888	-60.099	81.018	-89.825	-130.160	-40.142	-62.635	-131.273	-125.793	11.378	57.529	-126.865	-122.530	-119.995	-114.775	-6.308	-118.316	-8191	255	
1304.108	1	1	0	0	0.23539	0.34439	0.1471	0.12378	0.08757	0.15384	0.20868	0.16748	0.27784	0.011599	0.14627	0.15529	0.10541	0.14569	0.24858	0.18146	-2.1542	-2.3063	-3.0021	-2.6146	-2.6042	-3	-2.4896	-2.8146	-2.7625	-2.3187	-3.0354	-2.3875	-2.4833	-2.725	-2.2375	-2.6604	106.700	45.989	98.588	135.151	210.210	61.906	141.646	5.363	57.174	-112.088	62.536	117.073	105.395	76.522	-32.720	19.037	0.00073599	0.0012259	0.00038579	1360.4	3.6894e-06	1.172e-05	2021.1	452.1	1.6055e-05	1.1127e-05	629.19	233.65	170.39	63.184	7.6288e-06	81.234	0.004652	0.0049204	0.0013577	1351.3	4.5284e-05	5.3267e-05	2028	463.82	5.1138e-05	5.3958e-05	858.77	248.42	181.68	74.152	5.392e-05	98.351	-100.181	-93.124	-21.829	-129.957	15.179	-1.463	-131.260	-125.691	-8.850	-112.279	-126.808	-122.712	-120.367	-114.829	-2.675	-117.528	-8191	255	
1304.229	1	1	0	0	0.086217	0.20778	0.2608	0.14695	0.12577	0.10987	0.2413	0.040288	0.1413	0.22193	0.25376	0.25719	0.11161	0.15146	0.40772	0.17331	-2.2188	-2.3729	-3.0479	-2.7083	-2.4417	-3.025	-2.55	-2.7062	-2.7521	-2.3646	-2.7792	-2.3896	-2.4667	-2.9417	-2.4708	-2.6625	-60.942	-29.657	132.913	-93.229	185.694	174.634	163.765	160.813	-28.392	18.714	68.642	-137.439	187.932	145.074	169.418	208.940	0.00038233	0.00044499	0.00013503	1371.8	1.4281e-06	1.5643e-05	2035.4	453.76	7.0754e-06	5.4449e-06	631.32	233.98	170.12	63.103	9.0034e-06	81.462	0.0046422	0.0048953	0.0013568	1364.4	4.5431e-05	5.3484e-05	2038.2	465.46	5.1217e-05	5.3883e-05	859.92	247.81	181.23	74.147	5.3893e-05	97.767	-62.023	-62.086	-109.875	-129.972	-60.011	43.023	-131.337	-125.849	7.695	-51.030	-126.479	-122.705	-120.212	-114.518	-84.921	-117.928	-8191	255	
1304.301	1	1	0	0	0.053161	0.13281	0.089023	0.094215	0.24909	0.05402	0.19804	0.1787	0.048383	0.17503	0.32384	0.090867	0.1797	0.15308	0.081575	0.26734	-2.5312	-2.2354	-2.875	-2.8	-2.3229	-3.0187	-2.6063	-2.6458	-2.9	-2.2229	-2.9437	-2.5438	-2.4313	-2.7958	-2.4104	-2.5938	-140.572	58.390	36.675	130.928	-8.147	-131.331	147.374	82.913	188.244	38.901	-37.017	-10.202	-25.803	159.028	-72.235	-57.136	0.00071147	0.00045439	7.4609e-05	1364.7	2.6987e-07	1.7672e-05	2017.4	448.4	4.5849e-06	1.9386e-05	626.59	231.64	167.13	62.312	8.5846e-06	79.748	0.0046529	0.0049054	0.0013667	1356.1	4.5304e-05	5.3601e-05	2024.3	460.41	5.1123e-05	5.4221e-05	857.79	245.67	178.69	73.148	5.4036e-05	97.015	-86.435	-95.429	6.272	-130.073	-131.836	-16.186	-131.400	-125.607	11.881	56.185	-126.574	-122.402	-120.112	-114.889	76.538	-118.040	-8191	255	
1304.397	1	1	0	0	0.2002	0.11141	0.17219	0.068545	0.19492	0.082409	0.10802	0.16303	0.041843	0.0039046	0.21579	0.022822	0.11147	0.25944	0.17801	0.072025	-2.5646	-2.3771	-2.8021	-3.15	-2.4042	-3.1562	-2.7958	-2.5646	-2.8396	-2.375	-2.6958	-2.8229	-2.3	-2.9333	-2.5333	-2.525	-16.166	211.297	161.587	-82.211	5.809	33.557	-142.337	149.870	62.374	143.285	-62.838	51.347	-130.767	174.110	-92.711	190.662	0.00064556	0.00090982	0.0004632	1344.6	1.7925e-06	1.5264e-05	2000.5	444.16	3.2721e-06	1.9165e-05	626.7	232.37	167.47	62.965	2.2615e-05	80.809	0.0046432	0.0049116	0.0013615	1339	4.5558e-05	5.3355e-05	2012.1	456.1	5.0843e-05	5.4296e-05	854.84	246.12	178.8	73.727	5.4399e-05	97.855	-94.906	-117.737	-24.742	-129.853	-30.235	-6.415	-131.042	-125.568	-15.039	40.977	-126.974	-122.425	-120.106	-114.540	58.232	-118.431	-8191	255	
1304.517	1	1	0	0	0.085078	0.2006	0.065958	0.13892	0.059444	0.16377	0.32269	0.19795	0.34289	0.037916	0.17783	0.046619	0.10752	0.076451	0.096766	0.2453	-2.675	-2.4313	-2.8563	-3.1021	-2.4625	-2.9792	-2.8271	-2.5	-2.9146	-2.3208	-2.5792	-2.8958	-2.1083	-2.8167	-2.6813	-2.2562	112.675	143.561	-3.296	-130.585	57.494	97.581	192.984	184.425	158.851	-11.008	143.306	-136.668	192.007	-10.191	129.177	-50.065	0.00048268	0.0017317	0.00023996	1361.3	4.96e-06	6.6382e-06	2025.8	450.19	1.1579e-05	1.3351e-05	627.62	234.07	169.41	63.334	1.9087e-05	81.414	0.0046575	0.0049039	0.0013657	1348.9	4.5474e-05	5.3665e-05	2027.7	461.2	5.0931e-05	5.4013e-05	862.62	247.79	180.59	74.373	5.4044e-05	98.137	-60.249	0.314	15.988	-130.103	-76.324	73.790	-131.411	-125.721	-16.555	-47.779	-127.316	-122.755	-120.150	-114.600	-45.378	-118.269	-8191	255	
1304.612	1	1	0	0	0.045558	0.093268	0.039632	0.42025	0.19853	0.016957	0.077581	0.1288	0.21637	0.32344	0.2739	0.019958	0.13515	0.13247	0.20092	0.49605	-2.6208	-2.4313	-2.625	-3.1521	-2.3458	-2.9313	-2.7958	-2.4646	-2.9958	-2.4792	-2.4729	-3.0854	-2.2208	-2.7562	-2.7167	-2.4208	168.952	-7.832	200.429	140.507	183.760	4.922	-23.362	203.869	215.147	-103.125	141.300	-76.868	167.184	-138.852	178.094	172.494	0.000647	0.00070396	0.00027996	1364	1.6846e-06	2.1677e-05	2023.2	448.51	7.311e-06	5.1194e-06	627.16	233.87	168.38	63.249	6.3839e-06	80.242	0.0046514	0.004941	0.0013703	1353.6	4.5349e-05	5.3789e-05	2031.5	461.61	5.1017e-05	5.4163e-05	860.53	247.51	180.28	74.161	5.4124e-05	97.684	-131.540	212.334	27.168	-130.023	-44.645	13.191	-131.191	-125.486	-75.071	-105.021	-127.250	-122.544	-120.121	-114.096	79.991	-117.916	-8191	255	
1304.708	1	1	0	0	0.059313	0.15594	0.27058	0.14832	0.087494	0.15684	0.35761	0.22137	0.043383	0.24209	0.15471	0.14094	0.05838	0.012323	0.078029	0.2486	-2.525	-2.4938	-2.4146	-3.1333	-2.3521	-2.775	-3.0729	-2.3208	-2.9167	-2.7188	-2.5292	-2.8917	-2.4042	-2.7542	-2.7812	-2.1979	212.904	80.918	-60.605	-127.204	27.282	124.678	117.585	-95.278	37.248	125.262	-52.624	194.895	-123.503	-114.288	61.733	-9.069	0.00059183	0.00077314	0.00038846	1353.4	4.5657e-06	2.7856e-05	2009.3	445.73	3.8814e-06	9.9864e-06	610.28	230.38	166.95	62.322	2.4793e-06	79.521	0.0046565	0.0049309	0.0013712	1348.2	4.5383e-05	5.3792e-05	2022	458.91	5.1144e-05	5.4131e-05	855.02	245.95	179.17	73.702	5.3933e-05	97.467	203.986	-71.193	-26.532	-129.913	-60.018	-45.873	-131.049	-125.480	-135.012	-30.910	-126.234	-122.411	-119.901	-114.765	-16.415	-117.774	-8191	255	
1304.804	1	1	0	0	0.064802	0.20337	0.011579	0.066224	0.13045	0.16776	0.24259	0.097574	0.29627	0.16089	0.11973	0.12149	0.068036	0.25319	0.24429	0.17906	-2.4875	-2.4917	-2.475	-3.1875	-2.3229	-2.7	-3.1729	-2.3146	-2.9104	-2.8229	-2.5062	-3.0458	-2.3063	-2.6312	-2.8396	-2.2521	2.079	79.056	-93.555	-138.457	-78.984	187.996	107.898	-53.743	64.743	178.063	-83.085	-62.359	105.565	76.289	200.967	-41.334	0.00058052	0.00078522	0.0005227	1351.7	4.0362e-06	7.0426e-06	2021.4	447	4.8922e-06	2.5827e-06	620.48	232.36	168.72	62.686	5.9521e-06	80.23	0.0046766	0.0049454	0.0013754	1349.9	4.5466e-05	5.4191e-05	2029.5	460.45	5.138e-05	5.44e-05	859.81	247	180.28	73.948	5.4062e-05	97.922	-89.998	-25.774	-1.859	-129.734	-83.546	-97.142	-131.146	-125.522	99.271	60.425	-126.230	-122.130	-119.710	-114.309	-4.572	-117.645	-8191	255	
1304.900	1	1	0	0	0.22419	0.088241	0.087677	0.18489	0.13536	0.15888	0.27137	0.22765	0.23042	0.27788	0.20261	0.09566	0.20031	0.19104	0.1092	0.16633	-2.4958	-2.725	-2.3333	-3.1833	-2.15	-2.4604	-3	-2.1562	-2.6792	-2.7438	-2.2021	-2.8937	-2.4813	-2.2562	-2.6437	-2.2583	-43.462	-27.230	192.100	100.703	-127.746	-11.189	178.940	164.750	-82.788	147.316	64.732	133.770	124.628	-23.787	-29.692	-33.628	0.00069296	0.0017062	7.7429e-05	1363.9	3.8602e-06	1.8999e-05	2024.9	449.5	1.0744e-05	2.1386e-05	629.07	234.11	169.77	63.269	1.1483e-05	81.432	0.004689	0.0049343	0.001371	1357.9	4.5576e-05	5.4174e-05	2038.7	463.13	5.1653e-05	5.4312e-05	861.46	248.14	180.83	74.329	5.402e-05	98.169	-90.577	-54.343	17.701	-129.956	-71.995	213.113	-130.999	-125.542	-21.423	6.022	-126.823	-122.454	-120.086	-114.718	-10.139	-117.471	-8191	255	
1304.996	1	1	0	0	0.13405	0.063105	0.13153	0.23333	0.22946	0.065551	0.29853	0.20556	0.18922	0.089976	0.010291	0.15478	0.15902	0.04799	0.021206	0.18234	-2.2083	-2.5979	-2.0271	-2.9771	-2.5521	-2.1917	-3.1188	-2.2729	-2.5333	-2.8208	-2.2687	-2.8396	-2.6417	-2.3312	-3.0583	-2.4542	146.035	-75.336	-52.227	204.092	-30.804	158.992	120.149	209.943	-40.761	-16.009	21.016	88.091	0.535	106.754	5.774	57.468	0.00041851	0.00090363	0.00029689	1368.3	4.3908e-06	1.4596e-05	2036.8	451.46	6.3118e-06	1.9374e-05	628.52	233.54	169.51	63.603	7.8166e-06	81.445	0.0046951	0.0049397	0.0013713	1356.9	4.5852e-05	5.4097e-05	2037	462.19	5.1476e-05	5.4147e-05	860.2	247.92	180.74	74.227	5.3999e-05	98.152	-71.692	-49.703	-33.129	-130.184	-18.937	22.188	-131.385	-125.931	128.875	-11.112	-126.530	-122.957	-120.261	-114.884	-30.756	-117.835	-8191	255	
1305.117	1	1	0	0	0.10271	0.32291	0.060097	0.25209	0.044741	0.36901	0.18318	0.072134	0.27978	0.06474	0.3514	0.017038	0.10771	0.13011	0.015364	0.17864	-2.0083	-2.8375	-2.3125	-2.9104	-2.5083	-2.1104	-3.0604	-2.2104	-2.6312	-2.9292	-2.0646	-2.7229	-2.8354	-2.1708	-2.9542	-2.5354	177.605	-135.548	148.625	180.110	-45.809	40.168	-141.946	201.690	130.570	-139.661	169.830	128.973	-17.226	-68.544	-141.918	-17.076	0.00041912	0.0013208	0.00019876	1376.8	4.2182e-06	9.8816e-06	2036.5	452.05	2.8875e-06	1.7711e-05	631.66	233.51	169.13	63.712	1.026e-05	80.482	0.0047082	0.0049201	0.0013683	1362.3	4.5327e-05	5.3784e-05	2036.9	463.13	5.1599e-05	5.4031e-05	855.71	247.17	180.92	74.33	5.3862e-05	97.558	-115.825	-37.437	-48.716	-130.266	8.096	203.345	-131.396	-125.966	-32.141	36.085	-127.374	-122.740	-120.437	-114.903	61.280	-118.205	-8191	255	
1305.213	1	1	0	0	0.11478	0.10995	0.20788	0.24677	0.20843	0.17691	0.28451	0.23187	0.1647	0.092932	0.025225	0.071738	0.23009	0.013261	0.12006	0.14294	-2.2125	-2.8583	-2.1125	-2.9458	-2.6292	-2.2562	-3.1688	-2.5646	-2.2875	-2.9167	-2.25	-2.7687	-2.6937	-1.9979	-2.9458	-2.5229	-80.260	26.146	167.437	189.130	-62.944	-123.970	193.006	-66.073	19.221	-95.311	163.607	147.798	166.338	-126.475	54.035	-87.357	0.0006736	0.00024828	0.00032784	1371.6	3.2034e-06	4.7383e-06	2036	451.56	3.2664e-06	1.2584e-05	627.33	231.93	167.73	62.465	9.1747e-06	79.671	0.0046765	0.0048943	0.0013688	1358.8	4.5305e-05	5.3608e-05	2034.3	461.14	5.1504e-05	5.3938e-05	854.77	245.65	179.05	73.436	5.4007e-05	96.876	-133.449	86.789	32.788	-130.333	-11.186	-13.966	-131.452	-125.852	-36.945	1.780	-126.652	-122.817	-120.021	-114.746	91.777	-118.470	-8191	255	
1305.309	1	1	0	0	0.13203	0.021929	0.107	0.10398	0.048518	0.060757	0.12953	0.054863	0.13707	0.28234	0.12783	0.33765	0.087248	0.29736	0.13507	0.091614	-1.7854	-2.6479	-2.3979	-2.9583	-2.8125	-2.1042	-3.2917	-2.4854	-2.2354	-2.9167	-2.3937	-2.6458	-2.8958	-2.2729	-2.7083	-2.6479	-9.461	32.515	-117.226	107.195	11.986	67.747	94.473	120.232	186.225	115.913	-42.975	194.033	-76.061	41.674	26.724	9.878	0.00058955	0.0012853	0.00010233	1360	4.1772e-06	1.679e-05	2021	447.4	3.2667e-06	1.5639e-05	623.95	230.76	167.69	62.376	9.2513e-06	80.545	0.0046695	0.0048992	0.0013647	1347.9	4.5089e-05	5.3415e-05	2025	457.31	5.1131e-05	5.3792e-05	853.78	245.22	178.58	73.252	5.3903e-05	97.106	-66.999	-35.364	-14.994	-130.315	-40.738	52.860	-131.288	-125.699	-103.013	49.875	-126.861	-122.819	-119.945	-114.695	8.493	-117.476	-8191	255	
1305.404	1	1	0	0	0.24169	0.085803	0.18805	0.22325	0.013723	0.17238	0.20325	0.05514	0.042796	0.2455	0.28601	0.13395	0.14508	0.10423	0.15645	0.18337	-1.8208	-2.8563	-2.2333	-2.6958	-2.7896	-2.2792	-3.0167	-2.5938	-2.2208	-3.0375	-2.1708	-2.3396	-2.6333	-2.2042	-2.7104	-2.8292	-49.854	-96.683	146.000	174.980	-62.416	155.196	156.144	-58.637	-121.731	-127.850	-131.916	-45.697	-130.100	-54.147	63.499	98.827	0.00055877	0.00079125	0.00043163	1359.6	2.8578e-06	1.7398e-05	2027.2	449.1	4.1858e-06	5.6949e-06	635.89	232.38	168.37	62.6	7.1095e-06	79.818	0.0046608	0.0048966	0.0013601	1349.4	4.5037e-05	5.3502e-05	2033.9	460.63	5.0899e-05	5.3837e-05	858.38	246.71	179.66	73.787	5.3931e-05	97.197	-119.743	47.887	-1.793	-130.085	-20.152	21.892	-131.365	-125.573	4.596	-37.442	-127.295	-122.787	-119.884	-114.579	-67.477	-117.958	-8191	255	
1305.524	1	1	0	0	0.19551	0.071509	0.28177	0.29323	0.1833	0.032459	0.46559	0.11798	0.19878	0.092581	0.20769	0.19906	0.16338	0.23374	0.070554	0.15407	-1.7042	-2.8563	-2.3083	-2.5062	-2.7917	-2.0854	-2.8917	-2.7792	-2.0312	-2.8104	-2.4125	-2.4208	-2.8667	-1.9833	-2.5625	-2.9854	17.636	76.024	134.335	-114.235	43.400	28.319	108.795	-136.708	36.033	162.017	61.440	151.350	-7.965	178.368	121.180	78.958	0.00036962	0.00049078	0.00010572	1365.2	1.7355e-06	2.0951e-05	2027.9	448.75	1.4582e-05	1.2799e-05	618.71	232.15	167.99	62.684	6.881e-06	79.919	0.0046516	0.0048853	0.0013718	1353.3	4.4941e-05	5.3472e-05	2027.1	459.36	5.127e-05	5.4075e-05	853.22	245.43	178.72	73.435	5.3973e-05	96.516	-91.064	-55.730	-94.298	-130.204	-32.578	-101.763	-131.419	-125.831	23.684	91.536	-126.869	-122.928	-120.180	-114.555	-11.480	-118.117	-8191	255	
1305.596	1	1	0	0	0.055524	0.22524	0.12172	0.36843	0.21444	0.036756	0.35156	0.24556	0.042432	0.12035	0.19022	0.039086	0.060782	0.10882	0.19658	0.20386	-1.6208	-2.7729	-2.5438	-2.3583	-2.8083	-2.3688	-2.7812	-2.95	-2.1188	-2.7729	-2.3646	-2.2458	-3.0271	-2.3375	-2.7229	-2.8833	32.528	-73.769	175.523	201.427	159.659	-52.409	199.551	-89.559	141.733	148.970	167.883	158.115	74.004	-41.299	40.130	208.330	0.00050351	0.0009646	9.5582e-05	1352.7	4.3248e-06	1.4336e-05	2014	444.15	1.6181e-06	2.0299e-05	610.59	229.85	166.66	61.708	1.4305e-05	78.579	0.0046291	0.004899	0.0013721	1342.1	4.5195e-05	5.3779e-05	2017	456.19	5.1275e-05	5.4236e-05	853.87	243.96	178.01	72.837	5.4447e-05	95.801	-105.516	-42.394	214.189	-130.110	-3.661	-90.010	-131.285	-125.650	39.459	2.499	-126.573	-122.632	-120.108	-114.278	171.828	-118.160	-8191	255	
1305.692	1	1	0	0	0.043963	0.16946	0.049848	0.26293	0.17341	0.13391	0.37853	0.23556	0.079227	0.11407	0.26772	0.089121	0.27337	0.093557	0.14374	0.072694	-1.8271	-2.6312	-2.5604	-2.4771	-2.8458	-2.5146	-2.6813	-2.8688	-2.2271	-2.8854	-2.5896	-2.1729	-2.8979	-2.4292	-2.3688	-3.0021	149.179	-96.084	-75.303	178.660	91.866	-9.588	-129.593	-129.960	102.068	-53.037	8.251	-126.479	-127.741	-0.321	100.336	115.736	0.00064642	0.00093823	7.2176e-05	1349.3	2.6949e-06	1.1951e-05	2016.6	445.07	4.4337e-06	1.554e-05	618.54	229.4	165.37	61.665	8.9891e-06	78.832	0.004667	0.0049344	0.0013665	1339	4.513e-05	5.408e-05	2017.5	455.63	5.1611e-05	5.4463e-05	850.71	243.77	177.73	72.831	5.4346e-05	95.793	-90.627	-48.421	101.327	-130.125	-20.844	59.529	-131.443	-125.677	-14.927	6.228	-127.317	-122.466	-120.243	-114.793	-62.866	-117.978	-8191	255	
1305.788	1	1	0	0	0.1067	0.12764	0.07886	0.23349	0.12752	0.12264	0.092071	0.20263	0.066878	0.035067	0.098875	0.14464	0.12228	0.2333	0.20303	0.040026	-1.6292	-2.6396	-2.65	-2.3937	-2.8792	-2.3333	-2.3187	-2.9729	-2.1312	-2.4854	-2.7083	-2.2333	-2.8458	-2.5167	-2.4875	-2.9125	-99.924	29.341	117.391	86.487	-55.082	75.492	-84.385	-39.058	206.136	214.226	-95.003	109.850	109.923	88.296	193.803	112.348	0.00071377	0.0015838	0.00022	1350.6	5.4429e-06	4.2523e-06	2011.7	443.15	9.5274e-06	1.9792e-05	619.39	229.12	166.36	61.276	1.4822e-06	78.792	0.0047057	0.0049418	0.0013599	1341.5	4.514e-05	5.396e-05	2018.5	455.34	5.101e-05	5.4156e-05	852.06	243.67	177.56	72.519	5.3943e-05	95.634	-128.719	-68.320	-9.204	-129.989	-14.180	196.929	-131.201	-125.540	151.304	-38.145	-126.365	-122.658	-119.985	-114.081	-10.803	-117.757	-8191	255	
1305.909	1	1	0	0	0.17183	0.21051	0.13792	0.17305	0.15608	0.26988	0.11909	0.15174	0.12131	0.15128	0.12361	0.14578	0.13914	0.027461	0.19882	0.2378	-1.8542	-2.5979	-2.6792	-2.3875	-2.8042	-2.425	-2.5521	-2.9437	-2.2375	-2.5146	-2.9021	-2.1437	-2.6854	-2.6146	-2.1354	-2.8167	74.386	101.033	-37.946	-120.594	-135.037	203.016	43.928	149.778	158.460	-36.239	190.318	94.281	-34.933	-14.038	-49.462	171.402	0.00046967	0.00046702	0.00028107	1344.8	1.8668e-06	2.4161e-05	2003.8	440.74	6.7273e-06	5.7936e-06	610.39	228.6	165.22	62.06	1.119e-05	78.717	0.0046487	0.0049025	0.0013542	1340	4.504e-05	5.3408e-05	2018.9	455.65	5.1236e-05	5.3929e-05	849.86	244	178.32	72.859	5.3658e-05	95.819	-84.622	55.808	-68.332	-129.847	-80.911	-65.006	-130.961	-125.173	-28.650	-32.554	-126.981	-122.475	-119.871	-114.141	44.731	-118.456	-8191	255	
1306.005	1	1	0	0	0.15687	0.06313	0.23703	0.20797	0.037134	0.094178	0.1735	0.067063	0.29421	0.22393	0.18934	0.17648	0.29155	0.059133	0.14784	0.19638	-1.9646	-2.3479	-2.8458	-2.45	-2.6021	-2.6042	-2.4708	-2.9062	-2.3396	-2.3604	-2.9021	-2.075	-2.5667	-2.6042	-2.0833	-2.8792	-14.803	50.349	182.837	187.766	203.167	-44.478	73.075	137.600	-38.690	-74.205	200.577	-93.561	-115.771	-4.266	11.038	-90.663	0.00076825	0.0011174	0.00014402	1348.4	3.0607e-06	1.2996e-05	2013.8	446.46	4.2953e-06	8.8665e-06	619.74	231.5	168.25	62.368	1.0652e-05	79.147	0.0046591	0.0048956	0.0013465	1347.5	4.5212e-05	5.373e-05	2027.1	458.92	5.1241e-05	5.3887e-05	852.89	245.04	179.12	73.079	5.3507e-05	96.032	-77.605	-11.254	-113.161	-129.647	-45.884	14.298	-131.110	-125.623	17.391	-11.941	-127.243	-122.675	-120.118	-114.387	-3.121	-117.981	-8191	255	
1306.101	1	1	0	0	0.23618	0.070599	0.1661	0.38013	0.16452	0.19608	0.068846	0.093328	0.053683	0.16847	0.17269	0.15031	0.16405	0.16804	0.10198	0.11585	-2.1792	-2.2333	-2.7125	-2.3917	-2.4188	-2.9	-2.4	-2.9188	-2.5604	-2.3688	-2.8125	-2.425	-2.4062	-2.7625	-2.1958	-2.6437	-86.433	-141.779	-136.315	216.122	203.642	165.369	136.942	-28.592	-71.881	-39.748	154.828	-41.878	-132.779	74.648	33.094	-123.963	0.00042647	0.00011253	3.5033e-05	1356.8	7.7545e-06	1.4327e-05	2021.2	448.99	2.1577e-06	3.479e-06	614.25	230.07	166.37	61.333	5.3485e-06	78.129	0.0046423	0.0048786	0.0013454	1350.8	4.5093e-05	5.2911e-05	2031	460.18	5.0968e-05	5.349e-05	852.36	244.09	178.69	72.52	5.3433e-05	95.561	-76.968	-28.198	-72.441	-129.966	-46.615	45.162	-131.149	-125.536	213.897	-139.648	-127.178	-122.652	-120.017	-114.592	70.960	-118.032	-8191	255	
1306.197	1	1	0	0	0.08747	0.28744	0.026491	0.15667	0.088799	0.14814	0.12008	0.060257	0.12703	0.17548	0.15731	0.16187	0.13418	0.091956	0.4852	0.31628	-2.25	-1.9729	-2.9375	-2.7062	-2.3104	-2.8604	-2.4125	-2.6771	-2.5396	-2.3333	-2.9229	-2.2333	-2.45	-2.7417	-2.1229	-2.7479	21.463	3.489	-88.682	-138.107	84.563	98.784	212.478	-30.444	52.164	169.856	131.617	21.263	-84.407	98.912	66.697	43.456	0.00093179	0.00094957	0.00026243	1349.9	1.8535e-06	6.9153e-06	2010.5	443.08	5.5936e-06	1.3394e-05	616.22	226.99	165.96	61.62	7.5609e-06	78.301	0.0046229	0.0048791	0.0013363	1348.9	4.5173e-05	5.2984e-05	2029.8	458.36	5.0735e-05	5.3218e-05	850.74	243.02	178.2	72.55	5.3563e-05	95.601	-124.304	-3.930	-53.390	-129.628	9.445	88.079	-130.883	-125.337	-32.629	-6.368	-126.204	-122.202	-119.964	-114.263	-55.915	-117.955	-8191	255	
1306.294	1	1	0	0	0.17679	0.087912	0.14424	0.15469	0.17135	0.13377	0.24236	0.074664	0.17302	0.11808	0.10955	0.078649	0.091908	0.048446	0.25686	0.12895	-2.2604	-2.0104	-2.7208	-2.6188	-2.4437	-2.8312	-2.4458	-2.5396	-2.6104	-2.2521	-2.9667	-2.5854	-2.2438	-2.95	-2.4062	-2.5771	120.931	77.674	12.705	193.452	-54.194	104.017	204.073	78.467	175.597	141.857	-64.897	122.517	-78.303	107.454	-73.436	133.424	0.00039733	0.0012209	0.00016449	1352.5	4.7132e-06	2.2335e-05	2015.9	446	6.8945e-06	6.3068e-06	625.56	229.94	167.04	61.509	1.2099e-05	79.123	0.0045897	0.0048401	0.0013437	1354.8	4.4876e-05	5.2762e-05	2042.9	461.58	5.0652e-05	5.3024e-05	852.33	245.02	179.38	72.894	5.3347e-05	96.165	-103.369	-48.367	10.439	-129.451	-56.627	-3.137	-130.678	-125.171	-35.949	44.718	-126.783	-122.191	-119.510	-114.585	187.564	-117.718	-8191	255	
1306.390	1	1	0	0	0.14149	0.22044	0.11656	0.33298	0.19507	0.14147	0.1666	0.18405	0.15533	0.26517	0.065752	0.11908	0.15276	0.13056	0.19492	0.14896	-2.5542	-2.2729	-2.7646	-2.725	-2.3208	-2.8438	-2.6188	-2.5292	-2.8146	-2.2125	-2.8187	-2.5833	-2.3521	-3.0292	-2.2104	-2.6188	51.053	-131.916	-82.848	-125.187	197.921	103.724	151.358	119.386	200.577	-1.898	26.375	83.429	-81.208	54.428	160.999	14.585	0.00037227	0.00034702	0.00026162	1357.8	4.8401e-06	6.4749e-06	2025.8	446.75	2.4351e-06	9.4954e-06	619.63	226.3	164.2	60.841	1.6188e-05	77.613	0.0045873	0.004853	0.0013427	1361.1	4.4673e-05	5.2671e-05	2048.5	461.66	5.0389e-05	5.3385e-05	851.78	242.01	177.31	72.193	5.3364e-05	95.09	-81.970	-124.104	34.871	-129.529	-43.912	44.242	-130.837	-125.100	4.229	51.244	-126.104	-122.146	-119.259	-113.960	71.787	-117.461	-8191	255	
1306.486	1	1	0	0	0.079325	0.041739	0.2198	0.14256	0.34795	0.14194	0.25328	0.16399	0.11871	0.19639	0.20501	0.18701	0.31969	0.022253	0.18217	0.13461	-2.4688	-2.0687	-2.8333	-2.9562	-2.3021	-2.9313	-2.6333	-2.4167	-2.825	-2.3167	-2.7708	-2.7708	-2.2667	-2.8771	-2.4771	-2.2792	-9.214	0.874	189.004	132.893	117.889	58.927	128.048	-1.431	200.995	56.109	128.690	212.983	169.520	119.044	-4.823	-117.521	0.00029222	0.00092209	0.00027253	1330.6	4.1075e-06	1.0774e-05	1994.1	440.1	3.2838e-06	4.264e-06	611.99	224.73	162.61	60.723	1.768e-05	78.043	0.0045871	0.0048499	0.0013471	1336.2	4.4735e-05	5.2648e-05	2019.9	453.78	5.0335e-05	5.3168e-05	846.31	240.2	175.46	71.933	5.3335e-05	94.68	-54.288	-83.221	-10.454	-129.478	-90.691	2.005	-130.703	-125.240	-49.389	-68.946	-126.458	-122.286	-119.919	-114.430	-66.856	-117.625	-8191	255	
1306.605	1	1	0	0	0.065824	0.13465	0.28231	0.30849	0.19811	0.0661	0.40957	0.19823	0.16488	0.30854	0.15669	0.085732	0.090911	0.11048	0.18537	0.15203	-2.5	-2.1646	-2.625	-2.9354	-2.2604	-2.6813	-2.7562	-2.4292	-2.9396	-2.4583	-2.4313	-2.8667	-2.0625	-2.825	-2.6021	-2.3896	30.597	-116.671	100.728	-141.615	12.884	59.692	118.330	155.421	-27.048	179.858	-125.063	26.931	123.756	-119.624	143.137	157.627	0.00049432	0.0014505	0.00013135	1329.9	6.3513e-06	7.8802e-06	2000	436.27	4.237e-06	7.4433e-06	608.99	224.85	162.18	60.145	1.2794e-05	76.88	0.0045584	0.0048333	0.0013492	1328.6	4.4358e-05	5.2472e-05	2013.9	450.64	5.0378e-05	5.3242e-05	843.51	239.01	173.9	71.322	5.3477e-05	94.281	-78.037	-56.188	-112.827	-129.703	-53.834	23.954	-131.044	-125.498	35.753	-25.645	-126.715	-122.303	-119.879	-114.463	-47.310	-118.243	-8191	255	
1306.701	1	1	0	0	0.14113	0.11029	0.019833	0.20536	0.12113	0.1887	0.16911	0.13896	0.09762	0.12493	0.21958	0.20362	0.11302	0.19832	0.037917	0.053793	-2.6604	-2.2146	-2.3396	-3.2625	-2.2375	-2.9146	-2.9083	-2.3167	-3.0396	-2.3479	-2.4562	-2.7938	-2.2792	-2.8458	-2.7458	-2.2854	165.831	216.532	-41.194	140.549	-7.857	-29.258	76.174	205.964	-143.181	-138.709	204.470	133.661	-113.349	25.529	-33.565	15.069	0.00022273	0.0021792	0.00028217	1330.9	4.6147e-06	4.958e-06	1994.2	436.43	4.3765e-06	1.0985e-05	606.78	224.32	160.82	60.503	6.1466e-06	77.852	0.0045633	0.0048589	0.0013468	1329.6	4.4635e-05	5.3071e-05	2014.2	450.48	5.0503e-05	5.3576e-05	842.03	238.98	173.93	71.487	5.3256e-05	94.476	-36.255	-125.449	28.602	-129.756	-32.937	-142.379	-130.833	-125.249	19.032	-112.678	-126.999	-122.259	-119.635	-114.210	59.906	-117.783	-8191	255	
1306.797	1	1	0	0	0.15206	0.033479	0.085814	0.27555	0.11794	0.1252	0.089137	0.35664	0.19308	0.09417	0.22607	0.10144	0.19936	0.2368	0.11377	0.021953	-2.5208	-2.4583	-2.2979	-3.1042	-2.1896	-2.675	-3.0062	-2.3438	-2.8708	-2.6292	-2.4854	-2.7354	-2.275	-2.8083	-2.8146	-2.1646	-52.689	35.332	82.706	207.954	17.917	103.644	-35.926	140.396	-32.206	-68.268	0.462	129.985	-52.538	37.225	31.877	-1.302	0.00066371	0.00088718	0.00033409	1342.9	3.7736e-06	7.9865e-06	2018.3	441.8	9.3472e-06	9.4347e-06	612.64	227.74	164.01	61.455	9.2823e-06	78.51	0.0045865	0.0048696	0.0013524	1337	4.4768e-05	5.3236e-05	2027.1	453.81	5.0321e-05	5.3432e-05	846.33	241.07	175.77	72.373	5.3087e-05	95.365	-80.520	204.477	-19.020	-129.922	-19.999	205.715	-131.059	-125.570	-52.098	42.349	-125.884	-122.402	-119.941	-114.189	31.973	-118.466	-8191	255	
1306.893	1	1	0	0	0.093782	0.22132	0.17786	0.13773	0.073631	0.31497	0.27346	0.087215	0.2481	0.037133	0.20381	0.30095	0.23117	0.14236	0.13077	0.1721	-2.5833	-2.4021	-2.1292	-3.2	-2.2812	-2.4229	-3.1271	-2.375	-2.8438	-2.5854	-2.3146	-2.775	-2.4021	-2.55	-2.675	-2.3417	-46.308	81.088	168.928	94.655	-70.800	165.189	175.415	143.768	-2.398	59.526	74.785	-41.803	61.227	-25.890	81.597	-9.373	0.0002531	0.0010137	0.0002877	1347.9	3.6499e-06	1.2275e-05	2008.1	442.39	1.0499e-05	1.0054e-05	614.35	225.25	163.5	61.141	9.5949e-06	78.051	0.004569	0.0048517	0.0013412	1341.7	4.4698e-05	5.2606e-05	2025.4	454.92	5.0564e-05	5.3307e-05	845.38	240.58	175.66	72.504	5.2951e-05	95.297	194.986	10.052	-45.096	-129.884	-35.585	-124.169	-130.913	-125.533	12.638	177.713	-125.716	-122.277	-119.920	-114.268	-3.386	-117.874	-8191	255	
1306.989	1	1	0	0	0.21212	0.13967	0.15442	0.11906	0.20734	0.099185	0.20026	0.16236	0.22388	0.26865	0.11941	0.051344	0.2268	0.25059	0.20389	0.12522	-2.4521	-2.425	-2.1354	-3.2583	-2.3958	-2.5667	-3.0938	-2.3625	-2.7604	-2.8625	-2.2167	-3.0125	-2.3833	-2.3667	-2.8375	-2.1396	75.152	21.286	-9.283	8.511	113.397	-137.901	206.954	169.953	127.959	112.422	34.964	197.223	196.811	149.485	89.245	-129.899	0.00024817	0.00097596	0.00018574	1330.6	2.8209e-06	9.8588e-06	1998.5	437.55	6.7367e-06	3.2435e-06	610.85	225.78	162.4	61.202	7.9741e-06	76.932	0.0045662	0.0048478	0.0013365	1333.1	4.4554e-05	5.2841e-05	2016.3	451.4	5.0445e-05	5.2886e-05	841.84	239.61	174.62	72.083	5.2847e-05	94.607	-115.993	-86.508	-1.305	-129.554	-66.807	-49.396	-130.927	-125.435	22.343	-77.827	-126.064	-122.651	-119.844	-114.469	-14.453	-117.587	-8191	255	
1307.086	1	1	0	0	0.25906	0.20827	0.15378	0.34597	0.16281	0.054632	0.16655	0.054834	0.2077	0.06033	0.10987	0.099697	0.20281	0.065467	0.085063	0.32566	-2.3146	-2.8208	-2.2917	-3.2292	-2.5229	-2.3875	-3.0125	-2.4688	-2.6208	-2.7729	-2.2042	-2.7833	-2.6479	-2.2708	-2.9813	-2.3563	-134.223	-8.937	28.310	182.936	30.899	188.708	108.527	20.587	77.289	-84.085	91.563	212.106	182.349	-32.875	71.392	-104.142	0.0006036	0.00033236	0.00021621	1325.9	5.3959e-06	1.4751e-05	1987.2	435.2	1.3402e-05	1.6821e-05	608.57	224.8	161.8	60.967	3.1553e-06	77.899	0.0045721	0.0048065	0.0013421	1327.6	4.443e-05	5.2749e-05	2010.6	449.95	5.0689e-05	5.3017e-05	840.65	239.67	174.79	72.19	5.2766e-05	95.166	-124.478	105.791	71.887	-129.639	-37.269	-37.988	-130.651	-125.115	-60.002	29.742	-126.256	-122.447	-119.606	-114.209	-122.797	-118.047	-8191	255	
1307.182	1	1	0	0	0.14113	0.1741	0.21162	0.34032	0.13315	0.25449	0.062439	0.14203	0.27717	0.29744	0.2786	0.078256	0.087648	0.069923	0.37343	0.088299	-2.1188	-2.8521	-2.3083	-3.0292	-2.5646	-2.3417	-3.1646	-2.2979	-2.55	-2.9167	-2.4167	-2.9188	-2.6708	-1.9417	-2.9417	-2.4917	-23.048	19.479	-125.291	-105.918	182.171	-97.116	103.474	87.689	57.517	187.194	76.849	215.164	206.578	-120.904	129.315	114.288	0.00063931	0.0013632	0.00030384	1331.9	7.0163e-06	6.5795e-06	2007	439.13	9.6033e-06	2.2914e-05	611.23	226.85	163.61	61.343	7.8428e-06	78.987	0.0045892	0.0048392	0.0013415	1338.3	4.4551e-05	5.2914e-05	2024.7	454.22	5.0561e-05	5.2963e-05	846.5	241.59	176.21	72.775	5.3186e-05	96.183	-89.730	10.849	148.542	-129.524	-17.396	43.850	-130.847	-124.976	-4.006	36.905	-126.562	-122.181	-119.343	-114.075	-88.075	-117.650	-8191	255	
1307.302	1	1	0	0	0.22818	0.079859	0.17778	0.29179	0.18897	0.056222	0.19255	0.072498	0.23118	0.075569	0.069649	0.077451	0.34414	0.26805	0.18507	0.18477	-2.175	-2.8187	-2.1375	-2.9854	-2.8063	-2.3708	-3.1542	-2.3667	-2.5833	-2.8208	-2.2417	-2.7125	-2.6604	-2.15	-2.8646	-2.4146	178.555	-94.405	-105.865	142.609	102.772	107.578	104.297	13.123	35.761	-118.823	-47.174	216.220	-118.925	189.194	54.512	-116.186	0.00037004	0.00097011	0.00035264	1354.3	6.6478e-06	1.1618e-05	2031.9	446.98	1.5417e-06	1.0726e-05	621.35	229.56	166.29	62.834	1.2996e-05	80.029	0.0045948	0.0048045	0.0013445	1347.2	4.4407e-05	5.2708e-05	2039.9	458.58	5.0612e-05	5.2861e-05	851.56	243.49	178.25	73.49	5.2882e-05	96.49	-103.755	-90.967	-27.210	-130.037	-0.395	194.399	-131.318	-125.650	22.584	97.342	-126.122	-122.568	-120.046	-114.519	-31.188	-117.743	-8191	255	
1307.398	1	1	0	0	0.10073	0.06966	0.24321	0.14703	0.374	0.11379	0.34687	0.078264	0.033889	0.017903	0.084784	0.066617	0.05413	0.20408	0.11987	0.12202	-1.7042	-2.9083	-2.1083	-2.7271	-2.7208	-2.3146	-3.1792	-2.4229	-2.1833	-2.9958	-2.3563	-2.525	-2.7792	-2.2667	-2.8833	-2.6375	-44.861	-84.078	140.102	151.343	74.564	-69.108	161.837	-135.804	-7.929	-85.724	58.668	-50.850	-97.028	-7.203	37.594	-21.352	0.00062428	0.00051988	0.00021624	1370	1.9467e-06	1.3607e-05	2049.4	451.79	1.3631e-05	6.1638e-06	615.44	230.85	168.13	63.034	2.104e-05	80.428	0.0045933	0.0048075	0.0013435	1364.2	4.4301e-05	5.2925e-05	2054.5	464.3	5.0443e-05	5.2891e-05	852.46	244.44	180.16	74.218	5.3289e-05	97.251	-93.458	-33.239	-22.599	-130.008	-47.455	-38.060	-131.335	-125.718	-16.903	-12.779	-127.028	-122.665	-119.942	-114.488	-12.260	-117.956	-8191	255	
1307.470	1	1	0	0	0.038511	0.082022	0.13244	0.20313	0.2236	0.23863	0.22185	0.12499	0.10808	0.017234	0.16723	0.055941	0.091905	0.32152	0.19685	0.26712	-1.9438	-2.8875	-2.4313	-2.8125	-2.7521	-2.0979	-2.7896	-2.6458	-2.1562	-2.9229	-2.4042	-2.2792	-2.9875	-2.25	-2.7354	-2.775	-97.082	22.273	-45.843	186.223	48.012	-43.466	155.420	167.228	73.483	-106.680	106.498	195.011	160.666	152.845	12.628	-20.484	0.00025858	0.0013632	0.00018957	1382.5	5.1464e-06	2.7389e-05	2050	452.12	4.6378e-06	4.336e-06	617.07	229.85	168.68	63.453	1.1378e-05	80.636	0.0045869	0.0048176	0.0013485	1374.6	4.4413e-05	5.2965e-05	2063.4	466.41	5.0154e-05	5.3075e-05	856.59	245.01	181.17	74.783	5.3579e-05	98.149	200.861	-31.141	197.786	-130.027	-27.561	-51.135	-131.057	-125.172	42.013	174.390	-126.241	-122.416	-119.702	-114.368	4.934	-118.343	-8191	255	
1307.566	1	1	0	0	0.34204	0.17851	0.12008	0.31388	0.16161	0.047304	0.053454	0.20598	0.17512	0.13861	0.22197	0.18702	0.19707	0.10882	0.087447	0.13829	-1.8292	-2.9542	-2.4771	-2.5083	-3.0104	-2.3292	-2.8979	-2.8667	-2.0771	-2.875	-2.45	-2.4604	-2.9813	-2.4896	-2.3542	-2.8125	195.556	-17.000	131.934	153.508	92.766	24.460	-120.534	60.935	-8.697	-89.687	209.478	206.896	62.950	171.633	-69.585	-135.607	0.00050242	0.0014664	0.00038787	1374.1	5.8544e-06	1.1597e-05	2042.6	449.97	9.0914e-06	8.8533e-06	614.8	228.83	167.66	62.596	2.5749e-06	80.127	0.0046095	0.0048434	0.0013424	1372.8	4.4729e-05	5.2782e-05	2052.4	462.08	5.0522e-05	5.3065e-05	851.8	242.9	179.19	74.013	5.3435e-05	97.109	-140.099	-42.122	-1.004	-129.879	-35.565	33.935	-131.180	-125.494	-0.898	41.215	-126.133	-122.586	-119.607	-114.646	172.757	-117.833	-8191	255	
1307.685	1	1	0	0	0.24455	0.099731	0.016045	0.27709	0.16891	0.1125	0.028728	0.10305	0.308	0.10941	0.14968	0.022621	0.18002	0.10519	0.034277	0.24102	-1.8687	-2.8083	-2.3125	-2.3667	-2.8937	-2.2542	-2.7833	-2.8375	-2.1937	-2.7438	-2.6292	-2.3521	-2.7979	-2.3854	-2.6021	-2.8833	-85.016	172.328	203.231	-68.690	-108.463	113.238	-57.264	182.235	13.790	104.357	-40.815	-17.193	145.053	-63.180	129.643	57.952	0.00067968	0.00043674	0.00034095	1368.8	5.1302e-06	1.3343e-05	2036.1	450.51	1.0846e-05	1.9689e-05	626.12	228.92	167.67	63.089	5.8895e-06	81.291	0.0045884	0.004856	0.0013527	1366.4	4.465e-05	5.3052e-05	2053.2	463.19	5.0759e-05	5.3381e-05	855.37	244.66	180.32	74.451	5.349e-05	97.943	-66.650	205.538	6.404	-129.876	-8.221	41.993	-131.022	-125.331	-14.585	-0.482	-126.482	-122.506	-119.526	-114.085	113.742	-117.384	-8191	255	
1307.781	1	1	0	0	0.19319	0.12294	0.16372	0.22678	0.20691	0.033156	0.19921	0.12503	0.2417	0.11934	0.20323	0.24363	0.16461	0.099051	0.18293	0.16507	-1.6708	-2.5458	-2.7	-2.5187	-2.9854	-2.3667	-2.8917	-2.8521	-2.2667	-2.7438	-2.7812	-2.2479	-2.7979	-2.5062	-2.5417	-2.9479	-29.676	-85.134	-55.052	-105.979	131.229	189.215	24.105	136.788	111.874	110.808	-66.679	114.338	167.568	-102.906	181.168	-85.477	0.00032496	0.0012182	0.00022648	1374.8	8.2981e-06	9.8209e-06	2042.8	450.83	8.9398e-06	2.1919e-05	622.41	228.84	168.01	63.386	1.2878e-05	80.416	0.0045916	0.0048505	0.0013396	1373.5	4.4592e-05	5.3115e-05	2061.9	465.1	5.0369e-05	5.3598e-05	852.87	244.63	180.52	74.793	5.3399e-05	97.693	-46.342	-122.137	-108.030	-129.703	-23.189	-98.701	-130.839	-125.145	-48.142	62.631	-126.116	-122.170	-119.363	-114.340	58.877	-117.867	-8191	255	
1307.877	1	1	0	0	0.16841	0.1626	0.081327	0.069593	0.062427	0.20926	0.15685	0.080951	0.10581	0.34685	0.2573	0.12997	0.13464	0.10346	0.070909	0.2401	-1.8417	-2.575	-2.7833	-2.4292	-2.8229	-2.4583	-2.6625	-2.9708	-2.1875	-2.7646	-2.8708	-2.0167	-2.8833	-2.5896	-2.4021	-2.9437	181.608	75.625	-85.158	-120.772	127.769	-65.782	86.549	94.825	79.157	3.431	-47.088	90.405	59.435	27.459	98.949	62.721	0.00048487	0.0014927	0.00022301	1370.6	7.087e-06	2.4401e-05	2034.4	448.35	8.5701e-06	1.7145e-05	613.53	228.57	167.97	64.073	1.5448e-05	80.811	0.0046115	0.0048752	0.0013506	1368.5	4.4535e-05	5.3074e-05	2051.6	463.28	5.0835e-05	5.3685e-05	848.51	244.16	180.32	74.923	5.3253e-05	97.933	-83.233	-39.924	-58.680	-129.766	-9.929	23.814	-130.915	-125.247	41.634	10.432	-126.365	-122.177	-119.922	-114.426	78.776	-117.366	-8191	255	
1307.998	1	1	0	0	0.26074	0.043028	0.093912	0.25098	0.10906	0.16404	0.29622	0.08416	0.05946	0.24462	0.10708	0.092175	0.16509	0.11901	0.25675	0.14442	-1.8937	-2.4521	-2.8521	-2.5458	-2.7396	-2.7333	-2.5979	-2.7896	-2.5604	-2.5146	-2.9062	-2.2292	-2.7062	-2.8146	-2.3812	-2.9813	-43.996	89.316	42.572	177.409	163.945	51.486	67.518	-105.178	133.858	63.237	192.486	-6.577	-129.339	93.164	-48.874	-20.908	0.00072872	0.0010677	0.00024258	1362.1	4.0095e-06	5.5013e-06	2015.8	444.28	5.1225e-06	1.1585e-05	616.69	227.64	166.5	63.126	1.5378e-05	80.349	0.0046223	0.0048378	0.0013443	1358.5	4.4397e-05	5.3227e-05	2037.6	458.49	5.081e-05	5.3384e-05	847.14	242.42	178.41	74.323	5.3526e-05	97.315	-89.694	-90.205	-24.843	-129.736	9.240	-0.318	-130.891	-125.384	6.957	9.630	-127.150	-122.514	-119.836	-114.566	-48.926	-117.975	-8191	255	
1308.070	1	1	0	0	0.14043	0.18911	0.22107	0.2029	0.19928	0.058615	0.31059	0.083543	0.1114	0.12806	0.043471	0.18049	0.17913	0.079699	0.1827	0.072024	-1.8917	-2.4146	-2.8187	-2.4437	-2.7167	-2.8417	-2.3958	-3.0229	-2.4417	-2.4042	-2.9958	-2.1917	-2.3	-2.7042	-2.1667	-2.8812	129.952	176.417	135.874	-81.267	158.048	78.340	164.263	-63.346	68.230	-122.997	-20.400	-111.617	63.414	-33.499	-32.434	165.227	0.00041092	0.000158	8.0356e-05	1357.9	5.2972e-06	5.7066e-06	2015.7	442.77	9.2248e-06	6.9133e-06	616.36	227.36	165.99	62.921	1.2572e-05	80.068	0.0046197	0.0048673	0.0013432	1355.3	4.4654e-05	5.3217e-05	2039.1	458.13	5.0896e-05	5.3697e-05	847.42	242.9	178.69	74.009	5.3388e-05	96.873	-73.486	-15.938	-74.882	-129.762	-57.692	156.289	-130.787	-125.241	23.336	-46.053	-126.548	-122.098	-119.673	-113.839	-62.216	-118.233	-8191	255	
1308.166	1	1	0	0	0.1667	0.30384	0.28114	0.1145	0.12044	0.10294	0.18425	0.11322	0.16629	0.083313	0.052595	0.19117	0.19634	0.1626	0.11596	0.1587	-2.325	-2.3521	-2.8417	-2.4688	-2.7562	-2.9146	-2.3812	-2.8479	-2.5896	-2.3563	-3.0875	-2.4042	-2.4583	-2.8146	-2.2	-3.0083	130.314	173.054	38.866	-104.305	2.971	-95.734	136.234	164.195	-73.903	136.330	176.581	177.076	172.764	205.953	112.691	14.308	0.00018222	0.00041244	0.00031523	1349.9	5.0514e-06	2.4008e-06	2011.5	442.21	9.4906e-06	1.9238e-05	616.01	226.57	165.34	62.924	1.1449e-05	80.793	0.0046331	0.004882	0.0013389	1349.6	4.4863e-05	5.3238e-05	2033.2	457.03	5.0637e-05	5.3703e-05	847.35	243.12	178.59	74.298	5.3271e-05	97.469	-118.479	185.905	-31.437	-129.606	-7.694	-99.405	-130.886	-125.140	32.609	80.050	-125.922	-121.995	-119.629	-113.855	-86.267	-118.243	-8191	255	
1308.287	1	1	0	0	0.22777	0.18262	0.25447	0.088902	0.21668	0.16647	0.38114	0.064163	0.37008	0.027758	0.07709	0.23198	0.088132	0.17405	0.17708	0.30883	-2.3042	-2.2313	-2.95	-2.7021	-2.5854	-2.7396	-2.2188	-2.7604	-2.5604	-2.3458	-2.9896	-2.4333	-2.3604	-2.7771	-2.25	-2.7417	194.308	175.074	15.348	-110.567	161.937	85.093	103.981	146.844	-69.825	-122.054	155.686	182.306	19.188	45.718	185.626	-23.405	0.00063014	0.00029296	0.00016703	1352.6	5.1202e-06	9.4237e-06	2023.3	445.52	4.6011e-06	9.15e-06	612.27	228.74	166.93	63.404	8.439e-06	80.08	0.00462	0.0048715	0.0013441	1352.5	4.4959e-05	5.3193e-05	2037.2	458.83	5.0862e-05	5.351e-05	850.5	242.94	179.02	74.435	5.3291e-05	97.262	-74.158	-83.624	87.707	-129.634	-44.531	-95.966	-131.079	-125.282	76.265	-98.482	-126.322	-122.331	-120.076	-114.590	-0.182	-117.629	-8191	255	
1308.383	1	1	0	0	0.13903	0.019405	0.35654	0.13516	0.1038	0.069145	0.27057	0.10198	0.071101	0.063025	0.087403	0.27422	0.12494	0.11382	0.077114	0.17909	-2.2854	-2.3063	-2.9896	-2.6729	-2.4021	-2.9708	-2.4896	-2.7125	-2.9375	-2.2375	-2.9229	-2.4	-2.5479	-2.9062	-2.2667	-2.6583	181.907	109.054	192.933	191.909	166.432	-77.472	163.008	157.737	-91.011	162.806	182.268	79.597	-139.371	55.395	86.764	-26.422	0.00027297	0.00035106	0.00040319	1351.9	2.3097e-06	5.9152e-06	2013.9	443.29	5.1711e-06	9.9939e-06	618.86	228.33	166.55	63.453	1.8566e-05	80.069	0.0046198	0.0048725	0.0013447	1345.5	4.5031e-05	5.2838e-05	2024.8	455.69	5.063e-05	5.3534e-05	846.98	242.57	178.46	74.385	5.3515e-05	97.114	-67.616	147.650	3.766	-129.800	-30.591	107.612	-131.177	-125.548	-128.125	-13.672	-126.804	-122.423	-119.640	-114.236	-26.236	-117.833	-8191	255	
1308.479	1	1	0	0	0.3936	0.059796	0.088612	0.17574	0.093362	0.16508	0.052866	0.065836	0.10077	0.24224	0.14918	0.11082	0.22947	0.28176	0.10338	0.20163	-2.3271	-2.1771	-2.7313	-2.7417	-2.3167	-2.9875	-2.5604	-2.5625	-2.9979	-2.3187	-2.6813	-2.775	-2.2687	-2.775	-2.5042	-2.3792	96.554	207.300	167.783	176.255	119.277	22.811	216.367	-9.175	-18.016	-27.562	-68.409	126.993	88.854	214.984	134.834	18.605	0.00047086	0.00038894	0.00033025	1339.5	3.5705e-07	1.1041e-05	2000.9	439.45	7.2917e-06	5.4119e-06	600.22	225.09	165.98	62.79	1.9852e-05	80.329	0.0046099	0.0048632	0.0013447	1341.9	4.4885e-05	5.2749e-05	2022.2	454.44	5.0585e-05	5.3629e-05	847.18	241.64	177.69	74.056	5.3444e-05	97.154	-102.062	79.375	23.482	-129.452	-72.230	-48.667	-130.783	-125.272	42.198	-45.391	-126.311	-121.974	-119.762	-114.396	-34.631	-117.735	-8191	255	
1308.598	1	1	0	0	0.21141	0.073087	0.15125	0.36251	0.1379	0.21755	0.2428	0.30362	0.24373	0.35981	0.074691	0.076668	0.23562	0.16705	0.032881	0.14219	-2.4354	-2.2792	-2.5583	-2.9229	-2.2833	-2.9771	-2.475	-2.4333	-3.0167	-2.2958	-2.5708	-2.6917	-2.2354	-2.9375	-2.6458	-2.5563	186.103	-94.731	-128.859	206.665	202.020	-112.405	-126.495	-9.834	183.599	-108.362	-35.850	40.168	177.946	152.451	-101.969	66.434	0.0007825	0.0012587	0.00015641	1348.4	3.6001e-06	8.6903e-06	2016.8	441.06	5.1625e-06	9.826e-06	619.94	227.52	166.67	62.983	4.3715e-06	80.541	0.0045931	0.0048782	0.0013559	1344.2	4.5032e-05	5.3343e-05	2031.9	456.13	5.0374e-05	5.3598e-05	851.47	243.01	178.82	74.398	5.4059e-05	97.811	-129.415	-122.823	-33.469	-129.889	-34.881	17.324	-130.935	-125.190	-46.289	210.248	-126.039	-122.220	-119.476	-114.264	-94.923	-118.268	-8191	255	
1308.694	1	1	0	0	0.20322	0.11657	0.10498	0.020396	0.13373	0.072557	0.23892	0.10122	0.18493	0.21889	0.19949	0.015123	0.18966	0.26405	0.21011	0.18628	-2.6354	-2.2833	-2.6937	-3.1125	-2.1521	-2.9854	-2.7083	-2.3083	-3.0021	-2.2271	-2.6437	-2.7812	-2.1125	-2.6479	-2.6229	-2.1896	-103.117	143.866	41.190	-104.270	-114.884	100.624	90.245	87.136	167.086	-45.511	60.454	32.912	-36.078	-26.456	153.588	131.728	0.00025109	0.00060125	0.00039895	1358.4	4.0483e-06	1.8338e-05	2031	445.35	9.4032e-06	9.2302e-06	610.42	228.81	166.54	63.582	1.9538e-05	80.199	0.004617	0.0048772	0.0013551	1356.8	4.4749e-05	5.3227e-05	2049.7	460.55	5.0461e-05	5.3776e-05	853.68	244.29	179.64	74.852	5.3805e-05	97.829	-48.601	-118.901	-52.328	-129.699	-88.583	51.041	-130.873	-125.144	-73.576	25.182	-126.643	-122.284	-119.545	-113.953	10.507	-117.998	-8191	255	
1308.766	1	1	0	0	0.14349	0.12329	0.12141	0.18716	0.10455	0.060699	0.18001	0.096684	0.16411	0.00782	0.099321	0.079028	0.18746	0.17431	0.17931	0.28209	-2.4417	-2.3104	-2.5458	-3.1417	-2.2229	-2.825	-2.9958	-2.4	-2.9396	-2.3958	-2.4854	-2.8875	-2.3396	-2.6813	-2.8646	-2.1333	48.327	85.912	28.373	206.474	195.156	44.406	20.916	26.027	137.905	34.442	156.709	-94.940	-50.643	-123.961	93.316	52.913	0.00025769	0.0010048	7.5174e-05	1353.4	4.6774e-06	9.083e-06	2024.7	444.71	6.779e-06	1.308e-05	613.43	228.36	167.44	63.348	1.5672e-05	79.923	0.0045949	0.0049014	0.0013604	1355.8	4.4977e-05	5.3602e-05	2044.8	459.56	5.0664e-05	5.3678e-05	854.32	243.65	180.27	74.852	5.3822e-05	97.595	-108.754	35.938	100.728	-129.511	-87.558	159.018	-130.789	-125.097	1.257	97.741	-125.690	-121.988	-119.548	-113.733	2.999	-117.270	-8191	255	
1308.862	1	1	0	0	0.095382	0.33893	0.30187	0.19791	0.25029	0.15442	0.1024	0.18474	0.11933	0.069169	0.22701	0.17961	0.23819	0.28102	0.16293	0.15945	-2.4854	-2.1688	-2.4083	-3.1875	-2.2875	-2.6646	-3.0604	-2.2	-3.0104	-2.425	-2.3688	-2.975	-2.3979	-2.5417	-2.8812	-2.1958	-123.032	55.655	153.451	187.410	61.196	-57.930	180.464	72.965	-141.787	-0.729	58.023	73.905	-28.554	-17.496	59.301	79.068	0.00047468	0.00017147	0.00048934	1355.4	5.7836e-06	9.9791e-06	2017.2	443.71	6.762e-06	1.2104e-05	612.81	227.02	164.75	62.825	1.6663e-05	79.217	0.0046123	0.0048996	0.0013544	1359.2	4.5021e-05	5.3384e-05	2044.9	459.66	5.0845e-05	5.3687e-05	849.38	242.6	178.62	74.396	5.3583e-05	96.709	-104.199	169.789	-23.808	-129.430	7.963	-98.986	-130.631	-125.017	-1.463	3.977	-126.643	-122.010	-119.481	-114.096	113.433	-117.552	-8191	255	
1308.982	1	1	0	0	0.083227	0.1091	0.14662	0.11688	0.10335	0.094255	0.39034	0.51913	0.11035	0.096039	0.14147	0.083382	0.25806	0.050068	0.12046	0.26379	-2.4667	-2.4875	-2.2667	-3.0625	-2.2625	-2.5792	-3.1854	-2.4021	-2.6854	-2.7438	-2.3563	-2.9813	-2.1708	-2.6417	-2.7938	-2.175	-109.120	-107.401	167.603	152.454	-91.114	61.752	179.488	-23.924	180.601	-16.658	86.881	152.019	-138.902	101.552	49.008	186.573	0.00055341	0.0016073	1.2269e-05	1331.9	3.0431e-06	9.7932e-06	1999	435.06	8.8133e-06	2.5774e-06	605.3	224.14	163.04	61.715	1.1329e-05	78.166	0.0046481	0.0048957	0.0013571	1327.7	4.4948e-05	5.3768e-05	2010.3	448.02	5.087e-05	5.3851e-05	840.71	238.78	175.19	73.253	5.3627e-05	95.657	-104.714	-34.430	-119.431	-129.819	-60.676	23.255	-130.919	-125.361	-24.113	30.241	-126.706	-122.198	-119.748	-113.932	-20.974	-117.376	-8191	255	
1309.078	1	1	0	0	0.12949	0.16013	0.18702	0.19904	0.26121	0.20288	0.22093	0.062388	0.038311	0.18656	0.033507	0.19561	0.2116	0.082076	0.12416	0.1609	-2.5229	-2.4938	-2.2646	-3.2271	-2.3625	-2.5417	-3.1063	-2.1937	-2.7271	-2.7708	-2.3667	-2.8604	-2.525	-2.3479	-2.9104	-2.2958	159.290	-8.667	107.229	-131.349	-121.968	-65.761	99.076	-53.187	103.989	209.159	33.248	192.380	-127.977	57.733	184.029	94.927	0.00038636	0.00084878	0.00060169	1310.1	1.9334e-06	8.9602e-06	1969.9	428.6	6.5484e-06	9.9929e-06	600.43	223.56	161.94	61.04	1.7494e-06	77.404	0.0046328	0.0048967	0.0013485	1311.4	4.5203e-05	5.3761e-05	1996.1	443.46	5.1099e-05	5.3741e-05	838.79	238.78	174.6	72.916	5.3282e-05	95.415	-45.987	-23.520	-62.160	-129.568	-46.935	-71.214	-130.554	-124.969	-79.792	89.266	-125.647	-122.341	-119.260	-113.916	2.581	-117.233	-8191	255	
1309.175	1	1	0	0	0.17572	0.17579	0.14384	0.24563	0.18501	0.10459	0.2374	0.061977	0.2268	0.18301	0.070574	0.14069	0.23299	0.16491	0.22782	0.24346	-2.2958	-2.8021	-2.2188	-2.8896	-2.5104	-2.3854	-3.0375	-2.35	-2.5625	-2.8083	-2.2125	-2.8708	-2.5521	-2.4042	-3.0333	-2.2562	-35.431	-117.317	195.885	211.016	-126.030	-0.284	31.673	128.086	198.164	-32.195	38.978	50.706	-37.114	58.862	206.288	113.157	0.00035668	0.00077938	0.00014894	1316.5	4.0852e-06	1.5509e-05	1989.8	432.74	1.1394e-05	7.9744e-06	608.15	224.78	164.2	62.256	1.1078e-05	78.172	0.0046807	0.0049037	0.0013584	1317.3	4.5273e-05	5.3811e-05	2007.7	447.24	5.1601e-05	5.38e-05	842.92	239.98	176.68	73.719	5.344e-05	96.295	-87.058	-122.436	-124.915	-129.594	-68.231	-28.479	-130.753	-125.203	-105.263	-81.720	-126.265	-122.317	-119.587	-114.035	70.413	-117.509	-8191	255	
1309.271	1	1	0	0	0.27431	0.10191	0.092802	0.30177	0.13927	0.20602	0.10018	0.069106	0.26661	0.24425	0.15233	0.255	0.026732	0.1541	0.096703	0.10512	-2.1979	-2.8063	-2.2438	-3.1104	-2.5604	-2.2729	-3.3354	-2.4771	-2.5729	-2.8167	-1.9375	-2.8333	-2.7542	-2.1688	-3.0208	-2.55	-76.285	-24.207	-92.775	145.818	115.799	-26.057	178.244	189.427	-42.288	61.199	5.477	179.443	151.074	-6.580	-93.715	183.854	0.00026972	0.0005351	0.0002	1329.6	3.3105e-06	1.3875e-05	1996.7	435.24	1.0287e-05	4.5652e-06	595.21	222.63	161.41	61.467	6.5608e-06	76.783	0.0046728	0.0048894	0.0013582	1326.1	4.5232e-05	5.3302e-05	2007.6	448.44	5.1141e-05	5.3686e-05	839.88	238.76	174.74	73.011	5.3576e-05	95.023	-120.148	-91.865	-14.050	-129.747	-44.687	98.228	-131.048	-125.302	-0.340	55.059	-126.118	-122.340	-119.311	-113.999	17.569	-117.935	-8191	255	
1309.367	1	1	0	0	0.098889	0.034746	0.17104	0.25081	0.20406	0.14295	0.29206	0.33024	0.076751	0.16264	0.1829	0.32073	0.14156	0.1327	0.12117	0.19054	-2.0771	-2.8229	-2.2083	-3.0104	-2.7625	-2.2062	-3.175	-2.6125	-2.4833	-3.1354	-2.3875	-2.625	-2.7729	-2.3083	-3.0104	-2.5271	1.396	176.867	-20.488	145.057	33.066	207.456	146.279	-109.120	106.752	83.852	177.569	189.598	-95.263	-40.080	-70.019	116.829	0.00073407	0.00047684	0.0002872	1291.7	4.5587e-06	1.1869e-05	1950.5	421.44	1.0433e-05	1.0381e-05	596.48	219.01	158.81	59.924	7.2901e-06	75.353	0.0046772	0.0048923	0.0013603	1293.5	4.5126e-05	5.3549e-05	1971.5	436.36	5.1336e-05	5.3542e-05	833.18	235.25	171.36	71.615	5.3694e-05	93.782	-84.283	-52.222	-53.159	-129.468	-45.555	46.941	-130.651	-124.954	-32.225	-47.088	-126.400	-122.042	-119.252	-113.584	208.727	-117.355	-8191	255	
1309.463	1	1	0	0	0.2258	0.1759	0.19659	0.22582	0.1136	0.23543	0.080207	0.13517	0.050531	0.19236	0.15428	0.22007	0.15035	0.35033	0.19789	0.098375	-2.0938	-2.9854	-2.3625	-2.9625	-2.8396	-2.4188	-3.1271	-2.6854	-2.2604	-3.1521	-2.4188	-2.7167	-2.9292	-2.3708	-2.9208	-2.4562	43.689	82.862	70.628	158.707	27.534	-143.001	-118.151	-34.657	-3.893	92.015	-5.016	-9.473	-54.537	-16.717	-116.141	-82.609	0.00051497	0.00097783	0.00034687	1263.4	3.3233e-06	6.2978e-06	1920.6	412.52	4.7146e-06	1.2825e-05	581.75	215.62	152.98	58.641	1.0147e-05	74.967	0.004674	0.004861	0.0013646	1271.8	4.5124e-05	5.3532e-05	1944.6	428.47	5.1085e-05	5.3604e-05	824.59	231.56	167.21	70.441	5.3799e-05	92.649	-94.414	-80.041	-119.031	-129.315	-28.268	-115.622	-130.665	-124.997	10.445	3.222	-125.696	-122.028	-118.967	-113.731	-72.613	-117.510	-8191	255	
1309.559	1	1	0	0	0.16265	0.29196	0.010047	0.030645	0.035297	0.034832	0.077542	0.12384	0.23916	0.20836	0.1057	0.18577	0.087026	0.16525	0.083082	0.12456	-1.8479	-2.8729	-2.3167	-2.9167	-2.8729	-2.4437	-3.0312	-2.8	-2.1562	-2.9313	-2.4167	-2.3958	-2.8708	-2.1063	-2.9542	-2.7938	84.775	-85.356	-123.962	148.524	78.273	-56.317	-81.749	198.352	120.100	183.460	158.554	64.208	-62.385	11.246	43.628	-88.678	0.00043229	0.00055228	0.00024864	1257.1	1.783e-06	6.4005e-06	1921.6	414.13	1.013e-06	1.6983e-05	582.87	218.7	157.38	60.564	3.0112e-06	77.198	0.004668	0.0048678	0.0013643	1259.5	4.5216e-05	5.3585e-05	1943.6	428.26	5.1084e-05	5.3889e-05	829.83	234.01	170.29	71.69	5.4197e-05	94.493	-115.352	-44.341	-1.697	-129.431	-65.446	-2.442	-130.651	-125.005	6.833	-56.452	-126.465	-122.161	-119.590	-114.202	-60.539	-117.373	-8191	255	
1309.678	1	1	0	0	0.11016	0.2497	0.29449	0.2402	0.087849	0.31434	0.30842	0.18761	0.14715	0.046106	0.19137	0.17408	0.060987	0.030942	0.28319	0.078871	-1.7646	-2.7146	-2.4833	-2.6521	-2.9542	-2.2958	-2.7896	-2.6688	-2.1729	-2.8688	-2.4792	-2.4042	-2.9604	-2.3688	-2.6125	-3.025	-65.632	25.559	170.511	157.760	-8.325	-92.487	188.231	157.413	43.521	215.219	167.808	121.505	5.716	-114.106	-49.908	151.336	0.00047123	0.00094046	0.00017465	1303.8	2.8956e-06	4.9362e-06	1986.3	432.69	5.1649e-06	7.7553e-06	610.68	225.01	164.28	62.255	6.152e-06	80.051	0.0046437	0.0049038	0.0013729	1301.9	4.4895e-05	5.399e-05	2003.8	446.63	5.1173e-05	5.4131e-05	845.28	239.59	176.35	73.796	5.4132e-05	96.827	-77.781	-124.979	-141.292	-129.660	-23.799	-61.894	-130.940	-125.117	7.880	-45.027	-126.343	-122.422	-119.412	-114.370	180.230	-117.843	-8191	255	
1309.774	1	1	0	0	0.21911	0.16403	0.17257	0.21295	0.2528	0.13474	0.20413	0.17817	0.13088	0.08819	0.24237	0.13038	0.050549	0.057072	0.11496	0.042875	-1.7208	-3.0104	-2.5229	-2.5875	-2.9417	-2.4625	-2.7833	-2.7917	-2.2896	-2.9188	-2.5729	-2.3792	-2.9021	-2.2812	-2.4667	-2.9062	-136.287	67.501	176.093	170.391	-24.333	210.090	209.648	-12.113	-104.042	47.464	180.582	-108.186	199.423	203.316	20.320	215.570	0.0005369	0.0016649	6.9553e-05	1351.8	2.284e-06	2.2567e-05	2037.8	444.76	8.3069e-06	2.6783e-06	612	227.22	165.59	63.148	1.1639e-05	79.37	0.0046384	0.0049054	0.0013711	1347.1	4.4934e-05	5.3798e-05	2051.2	457.79	5.1273e-05	5.4096e-05	848.92	241.23	177.86	74.106	5.4275e-05	96.32	-91.621	-131.754	-19.917	-129.922	-4.626	17.504	-131.079	-125.504	-8.513	-90.561	-127.446	-122.438	-119.756	-114.051	-115.982	-117.629	-8191	255	
1309.870	1	1	0	0	0.30751	0.33178	0.21726	0.17487	0.1809	0.23535	0.23209	0.11339	0.12846	0.1368	0.10552	0.12031	0.23279	0.11106	0.082269	0.14852	-1.7896	-2.7792	-2.6875	-2.4625	-3.1542	-2.4771	-2.7292	-2.9938	-2.4437	-2.7104	-2.7812	-2.3375	-2.8854	-2.4229	-2.3708	-2.8833	14.348	165.510	27.033	146.623	15.406	22.684	188.631	159.552	115.895	-64.618	30.380	170.645	-55.049	168.040	-77.648	-7.944	0.00029032	0.00061769	0.00017259	1331.5	4.7174e-06	1.2874e-05	1998.3	427.03	9.7887e-06	1.6366e-05	587.46	215.99	156.06	58.98	1.5324e-05	74.922	0.0046512	0.0049139	0.0013659	1327.9	4.503e-05	5.3788e-05	2008.1	438.99	5.1074e-05	5.4037e-05	824.5	230.63	167.68	70.346	5.4033e-05	92.675	-100.979	-33.698	-31.036	-129.784	-2.995	121.252	-131.209	-125.387	-92.305	45.518	-126.093	-122.554	-119.575	-113.858	-82.506	-118.197	-8191	255	
1309.967	1	1	0	0	0.049968	0.19048	0.27863	0.22319	0.11154	0.2633	0.17489	0.30588	0.27488	0.15084	0.1829	0.090477	0.21595	0.061924	0.040313	0.13139	-1.9125	-2.7396	-2.8896	-2.3854	-2.7521	-2.55	-2.6312	-3.0625	-2.2917	-2.4437	-2.8187	-2.2396	-2.9188	-2.5833	-2.3896	-3.0521	-130.533	92.381	38.883	197.826	-46.806	-43.630	171.481	120.407	147.878	155.442	194.561	-43.019	-127.342	30.090	110.745	25.727	0.00028204	0.00064098	0.0002954	1257.9	4.1308e-06	1.2695e-05	1945.7	409.45	7.9748e-06	2.2975e-05	578.22	213.58	155.65	59.443	1.3651e-05	75.395	0.0046625	0.0049313	0.0013616	1252.9	4.5209e-05	5.3919e-05	1954.1	421.47	5.1107e-05	5.4291e-05	815.61	228.06	167.27	70.385	5.4079e-05	92.925	-90.454	51.367	-18.486	-129.733	-41.567	-44.458	-131.210	-125.386	-22.404	40.542	-126.307	-122.465	-119.605	-114.095	106.867	-117.646	-8191	255	
1310.063	1	1	0	0	0.23421	0.07322	0.26694	0.21847	0.037079	0.17088	0.34845	0.41832	0.16793	0.23819	0.30801	0.12088	0.12943	0.22035	0.14703	0.089461	-1.9062	-2.4979	-2.8667	-2.4042	-2.8208	-2.5542	-2.5729	-2.8729	-2.3292	-2.4062	-2.8229	-2.2104	-2.7333	-2.7667	-2.2771	-3.0229	-70.669	151.870	-133.819	127.983	197.080	70.649	187.821	-139.897	57.454	164.918	-28.138	51.598	-126.754	134.329	-132.507	152.565	0.00055279	0.00085267	0.00018599	1279.8	5.2657e-06	3.1012e-06	1964.5	414.96	6.5205e-06	7.4892e-06	583.94	214.27	156.42	59.161	1.5844e-05	74.511	0.0046738	0.004932	0.0013614	1273.5	4.5251e-05	5.3967e-05	1972.1	427.36	5.1365e-05	5.4379e-05	818.68	228.99	168.08	70.236	5.405e-05	92.36	-119.623	-8.886	-33.371	-129.845	16.952	146.287	-131.121	-125.352	-50.914	-41.514	-126.794	-122.261	-119.466	-113.892	4.204	-118.134	-8191	255	
1310.159	1	1	0	0	0.10334	0.31176	0.20393	0.092223	0.26672	0.057233	0.34435	0.19466	0.12401	0.21666	0.080213	0.049581	0.36742	0.067688	0.10645	0.22588	-2.1562	-2.2917	-2.8708	-2.3208	-2.7625	-2.7562	-2.5667	-3.0042	-2.55	-2.5479	-3.0333	-2.2271	-2.7208	-2.7562	-2.1979	-2.9708	197.615	76.555	-112.957	38.261	-85.812	121.318	136.314	-119.838	-105.278	-69.877	24.563	19.323	164.468	-106.497	21.284	-26.982	0.00060915	0.0012675	0.00018853	1278.9	1.2813e-06	2.015e-05	1954.7	413.02	2.8138e-06	1.3846e-05	577.34	214.65	154.74	59.398	1.5549e-06	76.046	0.0046717	0.0049386	0.0013535	1273.1	4.5414e-05	5.3801e-05	1966.2	426	5.1504e-05	5.43e-05	815.46	229.28	167.43	70.456	5.4199e-05	92.837	-89.702	-113.179	24.087	-129.652	-68.931	-76.935	-131.118	-125.253	39.461	16.182	-126.133	-122.339	-119.383	-114.268	178.478	-117.555	-8191	255	
1310.279	1	1	0	0	0.31793	0.18291	0.13018	0.10488	0.17903	0.056146	0.25021	0.10109	0.12044	0.063972	0.14922	0.07618	0.10157	0.10198	0.24028	0.14758	-2.1479	-2.4167	-3.0146	-2.5896	-2.7146	-2.8021	-2.3625	-2.9708	-2.5729	-2.5062	-2.7583	-2.3646	-2.625	-2.825	-2.1729	-2.8229	214.992	-93.210	97.022	-97.236	-31.262	-10.508	192.214	-67.466	24.255	-134.876	-137.747	140.599	-28.542	170.905	100.192	30.819	0.00047209	0.00087999	0.00033106	1269.3	4.3968e-06	1.3057e-05	1953.3	414.4	8.4505e-06	8.4991e-06	581.67	217.08	157.09	59.292	9.3845e-06	75.581	0.0046696	0.0049258	0.0013555	1263.6	4.5417e-05	5.3449e-05	1960.2	426.67	5.1278e-05	5.4263e-05	821.13	230.88	168.76	70.613	5.4097e-05	92.957	-93.261	-69.792	-9.269	-129.755	-29.089	12.404	-131.106	-125.065	10.770	-6.161	-127.180	-122.678	-119.766	-113.879	-109.037	-117.739	-8191	255	
1310.376	1	1	0	0	0.098334	0.31181	0.12517	0.040169	0.12621	0.17841	0.23477	0.19802	0.25982	0.095429	0.39443	0.04111	0.047713	0.28631	0.12977	0.27121	-2.0062	-2.2833	-3.0375	-2.5646	-2.5396	-2.9833	-2.3896	-2.7812	-2.5708	-2.2667	-2.8708	-2.6396	-2.5417	-2.8875	-2.2604	-2.6688	-71.959	-141.083	53.258	11.146	145.641	-27.131	144.784	157.220	79.821	-49.901	140.461	-12.920	-2.870	105.307	-75.042	139.815	0.00046954	5.7652e-05	6.5003e-05	1274.2	2.8838e-06	1.234e-05	1952.6	415.47	6.4339e-06	1.0594e-05	582.8	215.36	156.74	58.953	8.1366e-06	75.637	0.0046663	0.0049094	0.0013657	1270.3	4.5306e-05	5.3086e-05	1965.1	428.7	5.1297e-05	5.4158e-05	826.15	231.64	169.16	70.685	5.3815e-05	93.134	-88.042	25.477	7.362	-129.619	-36.367	-79.953	-130.815	-125.164	-4.281	134.351	-126.575	-122.096	-119.315	-114.079	-140.228	-117.389	-8191	255	
1310.470	1	1	0	0	0.15658	0.12812	0.039547	0.12324	0.035799	0.061821	0.34058	0.091614	0.063367	0.16557	0.089604	0.055002	0.13456	0.21954	0.21467	0.13618	-2.375	-2.2438	-2.9188	-2.7562	-2.4979	-2.6375	-2.7458	-2.55	-2.7917	-2.2125	-2.7958	-2.5167	-2.2292	-3.0229	-2.2375	-2.475	-70.843	149.435	9.311	171.481	140.194	211.047	103.729	-66.769	17.315	-22.503	-24.053	36.222	170.973	137.458	-27.702	46.510	0.00053255	0.00056387	0.00018598	1265.2	3.7364e-06	2.6245e-05	1930.2	411.57	1.1563e-05	2.5138e-05	580.96	214.31	154.78	59.265	5.2375e-06	74.327	0.0046911	0.0049055	0.0013614	1264.4	4.5342e-05	5.3245e-05	1946	425.09	5.1265e-05	5.407e-05	820.46	229.94	167.25	70.326	5.4046e-05	92.423	-95.921	34.890	-105.184	-129.376	-17.280	-26.998	-130.862	-124.992	-20.992	38.535	-126.073	-122.126	-119.275	-113.639	-138.707	-117.110	-8191	255	
1310.566	1	1	0	0	0.25638	0.088819	0.13169	0.31787	0.14271	0.12973	0.15395	0.06652	0.29616	0.23077	0.18883	0.23368	0.21683	0.28076	0.22772	0.11017	-2.5354	-2.2896	-2.8521	-2.8812	-2.1479	-2.9917	-2.7417	-2.5979	-2.8937	-2.1063	-2.7729	-2.7458	-2.275	-2.9333	-2.4333	-2.5375	-25.871	204.909	-64.146	183.302	125.929	98.554	156.902	-98.554	126.791	96.805	85.428	142.118	-0.956	-26.492	46.764	111.055	0.00058513	0.0011476	8.9743e-05	1238.8	1.092e-06	1.299e-05	1898.9	407.08	1.1249e-05	1.2128e-05	581.51	213.27	152.42	58.428	1.2937e-05	73.772	0.0046485	0.0049346	0.0013621	1241	4.5288e-05	5.3539e-05	1919.7	422.04	5.1221e-05	5.4114e-05	821.18	229.68	166.05	70.242	5.409e-05	92.612	-82.847	-87.650	-70.272	-129.227	14.104	28.466	-130.694	-124.867	6.295	46.891	-125.793	-121.679	-118.913	-113.580	-23.736	-117.158	-8191	255	
1310.662	1	1	0	0	0.2019	0.17346	0.097505	0.11405	0.27889	0.18208	0.12519	0.12197	0.11867	0.14778	0.1384	0.23376	0.16162	0.18001	0.20974	0.23457	-2.5125	-2.2646	-2.6625	-2.7438	-2.0667	-2.9938	-2.525	-2.4271	-2.8417	-2.2062	-2.7583	-2.5438	-2.3021	-3.0771	-2.3708	-2.4521	183.082	-141.866	75.557	208.549	53.294	32.604	-116.149	115.617	-94.526	34.192	18.502	193.442	102.088	210.107	-79.349	-54.970	0.00054214	0.0010873	0.00040235	1215.6	5.6354e-06	1.0007e-05	1863.9	398.14	8.1881e-06	2.4488e-05	577.69	212.98	151.01	58.325	5.3857e-06	73.372	0.0046672	0.0049304	0.0013772	1218.1	4.5317e-05	5.3936e-05	1885.2	413.98	5.1225e-05	5.4312e-05	817.96	228.07	163.8	69.736	5.4367e-05	92.367	211.020	-50.086	-37.245	-129.279	-38.183	28.143	-130.374	-124.805	-41.245	25.869	-126.459	-122.069	-119.325	-113.652	-40.615	-117.301	-8191	255	
#DATA ENDS
