BOXY.EXE: ISS Imagent and Oximeter Data Acquisition Program Version 0.80
Ascii Record File

#ACQ INFORMATION
2  Detector Channels 
16  External MUX Channels 
1  Auxiliary Channels 
5000  Waveform (CCF) Frequency (Hz)
1  Waveforms Skipped 
30  Waveforms Averaged 
1  Cycles Averaged 
16  Acquisitions per Waveform 
10.0806  Updata Rate (Hz) 

#FILE INFORMATION
TRUE -- External MUX Channel results are PARSED.
FALSE -- AC DC and Phase are NOT grouped.
TRUE -- Companion Program Settings File CREATED.
FALSE -- AC data not excluded
FALSE -- DC data not excluded
FALSE -- Phase data not excluded
FALSE -- Auxillary Chn. data not excluded
Tab delimiters

#CALIBRATION STATE
TRUE -- Waveform Calibration Values APPLIED.


#AUX CALIBRATION VALUES
Val Type	aux-1	

Term	1.0000e+00	
Factor	0.0000e+00	


#WF CALIBRATION VALUES
A = Detector Channel
Val Type	A-AC1	A-AC2	A-AC3	A-AC4	A-AC5	A-AC6	A-AC7	A-AC8	A-AC9	A-AC10	A-AC11	A-AC12	A-AC13	A-AC14	A-AC15	A-AC16	A-DC1	A-DC2	A-DC3	A-DC4	A-DC5	A-DC6	A-DC7	A-DC8	A-DC9	A-DC10	A-DC11	A-DC12	A-DC13	A-DC14	A-DC15	A-DC16	A-Ph1	A-Ph2	A-Ph3	A-Ph4	A-Ph5	A-Ph6	A-Ph7	A-Ph8	A-Ph9	A-Ph10	A-Ph11	A-Ph12	A-Ph13	A-Ph14	A-Ph15	A-Ph16	

Term	0.00000e+00	0.00000e+00	0.00000e+00	0.00000e+00	0.00000e+00	0.00000e+00	0.00000e+00	0.00000e+00	0.00000e+00	0.00000e+00	0.00000e+00	0.00000e+00	0.00000e+00	0.00000e+00	0.00000e+00	0.00000e+00	0.00000e+00	0.00000e+00	0.00000e+00	0.00000e+00	0.00000e+00	0.00000e+00	0.00000e+00	0.00000e+00	0.00000e+00	0.00000e+00	0.00000e+00	0.00000e+00	0.00000e+00	0.00000e+00	0.00000e+00	0.00000e+00	0.00000e+00	0.00000e+00	0.00000e+00	0.00000e+00	0.00000e+00	0.00000e+00	0.00000e+00	0.00000e+00	0.00000e+00	0.00000e+00	0.00000e+00	0.00000e+00	0.00000e+00	0.00000e+00	0.00000e+00	0.00000e+00	
Factor	1.00000e+00	1.00000e+00	1.00000e+00	1.00000e+00	1.00000e+00	1.00000e+00	1.00000e+00	1.00000e+00	1.00000e+00	1.00000e+00	1.00000e+00	1.00000e+00	1.00000e+00	1.00000e+00	1.00000e+00	1.00000e+00	1.00000e+00	1.00000e+00	1.00000e+00	1.00000e+00	1.00000e+00	1.00000e+00	1.00000e+00	1.00000e+00	1.00000e+00	1.00000e+00	1.00000e+00	1.00000e+00	1.00000e+00	1.00000e+00	1.00000e+00	1.00000e+00	X	X	X	X	X	X	X	X	X	X	X	X	X	X	X	X	

B = Detector Channel
Val Type	B-AC1	B-AC2	B-AC3	B-AC4	B-AC5	B-AC6	B-AC7	B-AC8	B-AC9	B-AC10	B-AC11	B-AC12	B-AC13	B-AC14	B-AC15	B-AC16	B-DC1	B-DC2	B-DC3	B-DC4	B-DC5	B-DC6	B-DC7	B-DC8	B-DC9	B-DC10	B-DC11	B-DC12	B-DC13	B-DC14	B-DC15	B-DC16	B-Ph1	B-Ph2	B-Ph3	B-Ph4	B-Ph5	B-Ph6	B-Ph7	B-Ph8	B-Ph9	B-Ph10	B-Ph11	B-Ph12	B-Ph13	B-Ph14	B-Ph15	B-Ph16	

Term	0.00000e+00	0.00000e+00	0.00000e+00	0.00000e+00	0.00000e+00	0.00000e+00	0.00000e+00	0.00000e+00	0.00000e+00	0.00000e+00	0.00000e+00	0.00000e+00	0.00000e+00	0.00000e+00	0.00000e+00	0.00000e+00	0.00000e+00	0.00000e+00	0.00000e+00	0.00000e+00	0.00000e+00	0.00000e+00	0.00000e+00	0.00000e+00	0.00000e+00	0.00000e+00	0.00000e+00	0.00000e+00	0.00000e+00	0.00000e+00	0.00000e+00	0.00000e+00	-8.63402e+01	-1.28301e+02	-1.03800e+02	-1.75865e+02	-1.14073e+01	-9.31957e+01	-1.64450e+02	-1.61923e+02	-3.25388e+01	-6.50733e+01	-1.79394e+02	-1.69306e+02	-1.75795e+02	-1.70708e+02	-7.57699e+01	-1.59905e+02	
Factor	3.75157e-04	1.23413e-03	3.18699e-04	1.70450e-01	4.10421e-06	1.94945e-05	2.78808e-01	2.32519e-01	9.50602e-06	1.69483e-05	5.42727e+00	2.80746e-01	2.09241e-01	2.33913e-01	1.51734e-05	3.71430e-01	3.15923e-05	3.36516e-05	9.32732e-06	6.64208e-02	3.05018e-07	3.68882e-07	1.02746e-01	9.20121e-02	3.49895e-07	3.70854e-07	1.93302e+00	1.06642e-01	8.34840e-02	9.01328e-02	3.70025e-07	1.37825e-01	X	X	X	X	X	X	X	X	X	X	X	X	X	X	X	X	



#DISTANCE SETTINGS
A = Detector Channel
A-1	A-2	A-3	A-4	A-5	A-6	A-7	A-8	A-9	A-10	A-11	A-12	A-13	A-14	A-15	A-16	

1.0000e+01	1.0000e+01	1.0000e+01	1.4500e+00	1.0000e+01	1.0000e+01	1.5100e+00	1.9500e+00	1.0000e+01	1.0000e+01	2.0100e+00	2.5000e+00	2.4400e+00	2.9500e+00	1.0000e+01	3.0100e+00	

B = Detector Channel
B-1	B-2	B-3	B-4	B-5	B-6	B-7	B-8	B-9	B-10	B-11	B-12	B-13	B-14	B-15	B-16	

1.0000e+01	1.0000e+01	1.0000e+01	1.4500e+00	1.0000e+01	1.0000e+01	1.5100e+00	1.9500e+00	1.0000e+01	1.0000e+01	2.0100e+00	2.5000e+00	2.4400e+00	2.9500e+00	1.0000e+01	3.0100e+00	




#DATA BEGINS
time	group	step	mark	flag	A-AC1	A-AC2	A-AC3	A-AC4	A-AC5	A-AC6	A-AC7	A-AC8	A-AC9	A-AC10	A-AC11	A-AC12	A-AC13	A-AC14	A-AC15	A-AC16	A-DC1	A-DC2	A-DC3	A-DC4	A-DC5	A-DC6	A-DC7	A-DC8	A-DC9	A-DC10	A-DC11	A-DC12	A-DC13	A-DC14	A-DC15	A-DC16	A-Ph1	A-Ph2	A-Ph3	A-Ph4	A-Ph5	A-Ph6	A-Ph7	A-Ph8	A-Ph9	A-Ph10	A-Ph11	A-Ph12	A-Ph13	A-Ph14	A-Ph15	A-Ph16	B-AC1	B-AC2	B-AC3	B-AC4	B-AC5	B-AC6	B-AC7	B-AC8	B-AC9	B-AC10	B-AC11	B-AC12	B-AC13	B-AC14	B-AC15	B-AC16	B-DC1	B-DC2	B-DC3	B-DC4	B-DC5	B-DC6	B-DC7	B-DC8	B-DC9	B-DC10	B-DC11	B-DC12	B-DC13	B-DC14	B-DC15	B-DC16	B-Ph1	B-Ph2	B-Ph3	B-Ph4	B-Ph5	B-Ph6	B-Ph7	B-Ph8	B-Ph9	B-Ph10	B-Ph11	B-Ph12	B-Ph13	B-Ph14	B-Ph15	B-Ph16	aux-1	digaux	

908.936	1	1	0	768	0.12505	0.1499	0.058461	0.24119	0.23019	0.29642	0.089699	0.34545	0.16746	0.13773	0.13054	0.24611	0.13602	0.049927	0.16297	0.27583	-1.9104	-2.7062	-2.1437	-2.4813	-2.7729	-2.0458	-2.4958	-2.7062	-2.2083	-2.7125	-2.3667	-2.1958	-2.7542	-2.1271	-2.5271	-2.7896	-98.849	138.712	157.411	-127.770	44.974	195.628	2.473	-127.629	-71.646	173.581	143.518	219.584	154.492	-6.875	14.120	-103.503	0.00028908	0.00046361	9.3605e-05	1330.8	4.3844e-06	7.0823e-06	1361.4	354.35	2.4023e-06	5.4838e-06	397.58	135.4	112.16	37.387	6.6923e-06	48.726	0.00054944	0.00053786	0.00015359	1341.6	5.8868e-06	6.0719e-06	1377.4	364.28	6.0656e-06	5.9143e-06	407.84	139.97	116.17	38.511	5.9952e-06	50.114	-95.596	-113.024	-21.007	-117.615	-50.120	-19.826	-117.517	-112.455	-97.336	58.166	-111.636	-107.424	-106.859	-102.830	62.000	-103.896	-8191	255	
909.032	1	1	0	0	0.20829	0.14369	0.09139	0.13222	0.12798	0.20756	0.14359	0.18783	0.050428	0.15897	0.048701	0.059484	0.10587	0.219	0.20198	0.3402	-1.6771	-2.6292	-2.3583	-2.4896	-2.8479	-1.9708	-2.5271	-2.8542	-2.1125	-2.6875	-2.55	-1.975	-2.6417	-2.3479	-2.2104	-2.6458	-2.661	-83.056	-99.139	168.214	60.898	-126.867	149.550	-66.833	189.413	179.906	22.737	-21.717	145.196	-106.693	36.597	32.590	0.00025835	0.00063197	0.00010163	1335.5	3.283e-06	8.4446e-06	1370.1	358.37	1.7069e-06	1.583e-06	404.65	137.83	113.54	37.405	2.8501e-06	48.593	0.00055701	0.00054046	0.00015231	1341.2	5.8888e-06	5.9913e-06	1378.8	364.83	6e-06	5.9344e-06	407.7	140.14	116.38	38.537	6.0106e-06	50.144	-97.539	-89.541	-44.030	-118.074	-59.201	38.297	-118.524	-113.671	-46.278	-54.941	-114.044	-109.165	-108.239	-103.103	-18.089	-103.753	-8191	255	
909.128	1	1	0	0	0.28762	0.016664	0.10547	0.39548	0.21606	0.1814	0.24926	0.070192	0.27536	0.090527	0.24633	0.10102	0.11856	0.094012	0.074193	0.22993	-1.4875	-2.4854	-2.5812	-2.1854	-2.6792	-2.4688	-2.3021	-2.9104	-2.0667	-2.3937	-2.5708	-1.9521	-2.7375	-2.2104	-2.2521	-2.8083	-123.874	-1.477	-23.452	175.415	18.937	148.642	-110.100	-100.598	37.782	180.235	-4.995	179.461	73.494	125.070	-86.659	182.491	0.00022765	0.00070932	4.872e-05	1318.5	4.1268e-06	8.6232e-07	1348.5	355.59	4.5606e-06	2.1215e-06	397.98	136.2	112.61	37.526	4.6143e-06	48.698	0.00055642	0.00054459	0.00014817	1339.9	5.9116e-06	5.9375e-06	1376.7	364.72	6.0371e-06	5.9862e-06	406.92	140.25	116.3	38.599	6.0214e-06	50.102	-100.014	-81.741	-57.584	-116.390	-42.397	-59.317	-116.427	-112.904	5.233	-56.085	-112.898	-108.167	-107.499	-102.623	-39.964	-103.970	-8191	255	
909.225	1	1	0	0	0.17434	0.1705	0.20399	0.28012	0.13696	0.25714	0.22859	0.049355	0.18659	0.11949	0.090927	0.12879	0.15461	0.13574	0.23885	0.10678	-1.5479	-2.375	-2.6917	-2.45	-2.6688	-2.2771	-2.3083	-2.7875	-2.0583	-2.5625	-2.4583	-1.9271	-2.7021	-2.275	-2.1167	-2.6833	36.804	56.394	-24.215	166.535	-17.190	-112.551	200.547	16.874	116.652	188.692	36.822	229.366	-21.190	215.982	12.296	35.177	0.00032877	0.00077645	0.00016504	1316.2	2.162e-06	2.22e-06	1349.4	353.44	4.643e-06	3.9813e-06	402.76	137.47	113.74	37.834	3.963e-06	49.435	0.00054885	0.00054249	0.00014768	1338.2	5.8335e-06	5.9428e-06	1376.5	364.47	6.0568e-06	5.9136e-06	407.75	140.19	116.36	38.503	6.0198e-06	50.121	-98.774	-42.205	-28.465	-116.338	-75.359	5.478	-116.679	-112.259	-22.548	-31.510	-113.582	-109.311	-108.492	-103.736	13.425	-105.244	-8191	255	
909.321	1	1	0	0	0.084577	0.22745	0.15218	0.20282	0.22848	0.13121	0.28603	0.19762	0.13502	0.12957	0.11939	0.35686	0.18627	0.1995	0.14156	0.35125	-1.75	-2.2729	-2.5208	-2.1312	-2.5042	-2.3833	-2.4042	-2.7854	-2.25	-2.2333	-2.7125	-2.0708	-2.4583	-2.4729	-2.1125	-2.6125	-8.176	-128.479	137.804	-91.909	-68.366	104.296	182.243	-130.949	168.686	197.395	-2.407	-21.907	94.536	-100.453	-82.000	180.918	0.00020111	0.00055565	9.5416e-05	1333.3	3.2072e-06	8.3395e-06	1359.1	356.93	2.026e-06	3.1163e-06	403.81	136.97	112.74	37.512	3.067e-06	49.125	0.00054563	0.00054319	0.00014945	1340.4	5.9637e-06	5.9774e-06	1377.3	364.86	6.008e-06	6.0936e-06	407.58	140.17	116.25	38.579	6.1386e-06	50.03	-67.414	-73.141	-35.565	-117.752	-26.064	26.834	-117.462	-113.212	-3.631	38.269	-113.427	-108.750	-107.597	-102.503	-22.670	-104.398	-8191	255	
909.417	1	1	0	0	0.17857	0.17497	0.24801	0.23937	0.03388	0.17091	0.16226	0.22172	0.18919	0.042737	0.17229	0.13905	0.044276	0.44203	0.078363	0.04077	-1.9979	-2.2771	-2.7167	-2.3	-2.6437	-2.8125	-2.0604	-2.6208	-2.3375	-2.3208	-2.825	-2.3167	-2.5396	-2.6937	-2.1479	-2.6083	-87.659	46.236	62.017	-127.017	-67.683	-45.445	-64.032	190.724	-5.991	111.217	-76.159	-15.016	-61.452	-49.737	-6.494	188.523	0.00015654	0.00018202	0.00014789	1327.4	2.6924e-06	4.7832e-06	1361.5	357.01	2.1641e-06	9.8239e-07	396.28	136.22	113.79	37.943	4.7391e-06	49.491	0.00054418	0.0005549	0.0001491	1339.6	5.9796e-06	5.9367e-06	1377.8	365.07	5.9934e-06	6.0526e-06	406.58	140.11	116.42	38.569	6.1062e-06	50.149	-102.416	-100.121	-27.494	-117.346	-44.438	-16.291	-117.681	-113.300	-54.112	1.385	-112.282	-108.145	-108.443	-104.400	-16.191	-105.588	-8191	255	
909.538	1	1	0	0	0.21046	0.27063	0.13386	0.29641	0.01017	0.13603	0.22783	0.16854	0.071554	0.15642	0.29854	0.19675	0.27264	0.15205	0.18395	0.13615	-1.9958	-2.1937	-2.7771	-2.5062	-2.5542	-2.7208	-2.1583	-2.8125	-2.4938	-2.1979	-2.825	-2.0021	-2.3312	-2.7333	-2.1125	-2.6771	-71.897	27.491	-130.268	177.936	21.314	-35.744	-116.199	171.808	147.809	212.665	52.056	80.647	120.051	108.595	25.804	-126.366	0.00037595	0.00077297	0.00014762	1342.1	3.2641e-06	5.0117e-06	1367.5	358.18	5.0546e-06	3.5856e-06	400.45	138.42	114.29	38.073	3.1911e-06	49.474	0.00053944	0.00055224	0.00015112	1342.2	6.0063e-06	5.8668e-06	1378.8	365.13	5.9169e-06	6.0573e-06	407.32	140.39	116.51	38.638	6.0969e-06	50.182	-98.021	-76.861	12.446	-118.426	-43.264	38.161	-118.286	-113.615	-31.654	41.203	-113.095	-109.852	-108.972	-104.479	44.977	-105.407	-8191	255	
909.632	1	1	0	0	0.26623	0.1571	0.064884	0.22487	0.1178	0.21553	0.27778	0.1667	0.022232	0.099522	0.15582	0.15997	0.24329	0.10016	0.13045	0.18269	-1.9125	-2.2125	-2.75	-2.5542	-2.4083	-2.8396	-2.1229	-2.7333	-2.6917	-2.0979	-2.7396	-2.3146	-2.2646	-2.7333	-2.0687	-2.6167	67.297	-65.609	83.453	139.356	220.577	24.191	107.044	110.243	9.677	-125.726	141.942	106.806	-15.135	36.847	54.448	-45.635	0.00031628	0.00086583	0.00010069	1335.2	3.5556e-06	5.4105e-06	1361.7	356.37	1.9179e-06	6.8537e-06	404.1	137.2	112.89	37.832	5.5175e-06	49.202	0.00054148	0.00055609	0.00015027	1341.7	6.0565e-06	5.9743e-06	1377.6	364.75	5.965e-06	6.0148e-06	408.01	140.26	116.38	38.604	6.0646e-06	50.156	-74.772	-77.775	-52.154	-117.830	-48.805	10.273	-117.610	-113.178	-58.784	19.834	-113.450	-109.126	-108.086	-103.522	42.324	-104.657	-8191	255	
909.728	1	1	0	0	0.23324	0.17672	0.067459	0.1105	0.057579	0.14756	0.11981	0.18284	0.022306	0.081263	0.092613	0.21281	0.16943	0.15489	0.21504	0.17389	-2.2583	-2.0229	-2.7375	-2.5604	-2.2062	-2.6458	-2.2167	-2.5854	-2.6292	-2.2313	-2.5938	-2.3833	-2.2562	-2.6604	-2.225	-2.5354	-114.410	153.268	226.349	169.652	2.491	38.242	161.615	173.213	114.880	7.151	17.865	174.955	-120.417	93.716	-88.675	-39.508	0.0002774	0.00064183	0.00014855	1329.8	2.6166e-06	3.7594e-06	1374.3	359.94	4.344e-06	6.6996e-06	406.52	138.46	114.01	37.862	1.6489e-06	49.22	0.00053931	0.00055735	0.00014988	1340.4	6.0762e-06	5.8706e-06	1378.6	365.13	5.9293e-06	6.1701e-06	408.38	140.26	116.49	38.595	6.0969e-06	50.149	-89.873	-84.786	13.492	-117.471	-54.069	38.849	-118.740	-114.258	-34.411	2.227	-114.571	-109.793	-108.826	-104.416	4.103	-105.541	-8191	255	
909.824	1	1	0	0	0.40762	0.12386	0.10583	0.30324	0.31152	0.12728	0.13931	0.10348	0.14328	0.33327	0.13505	0.047485	0.037739	0.17569	0.26823	0.14035	-2.1833	-2.0292	-2.8063	-2.7604	-2.2958	-2.725	-2.3396	-2.3937	-2.6708	-2.1021	-2.7542	-2.6271	-2.2188	-2.7729	-2.3167	-2.2188	226.447	56.958	133.987	199.311	-103.690	154.726	211.158	-109.598	-127.488	-51.713	-105.784	16.436	175.176	-32.062	182.117	-57.480	0.00020365	0.00035186	0.00019197	1341.5	2.9315e-06	2.5682e-06	1377.7	362.27	1.6343e-06	4.6073e-06	404.73	139.81	115.1	38.04	4.8727e-06	49.909	0.00053069	0.00056093	0.00015058	1341.9	6.04e-06	5.8645e-06	1378.7	365.33	5.8338e-06	6.1029e-06	407.53	140.39	116.52	38.626	6.0114e-06	50.257	-101.468	-50.016	-43.062	-118.327	-37.445	220.682	-118.908	-114.754	-18.413	22.158	-115.295	-110.669	-109.748	-104.847	32.767	-106.305	-8191	255	
909.920	1	1	0	0	0.10234	0.052773	0.087581	0.15758	0.057023	0.091648	0.27485	0.1043	0.2476	0.16415	0.25622	0.22002	0.25119	0.053502	0.079356	0.16737	-2.3354	-2.15	-2.5687	-2.7521	-1.9729	-2.9125	-2.4313	-2.1208	-2.9229	-2.2729	-2.6854	-2.7208	-2.0292	-2.7854	-2.3854	-2.3563	-9.043	9.391	56.894	185.387	138.981	221.026	165.856	75.921	128.870	215.430	95.886	93.249	-80.868	-119.109	89.355	193.425	0.00030273	0.00041487	0.00013012	1347.5	4.2402e-06	6.9503e-06	1373.2	360.35	1.8698e-06	2.1399e-06	407.01	138.61	113.89	37.908	3.8334e-06	49.511	0.00053523	0.00055511	0.00015066	1343.1	6.04e-06	5.889e-06	1378.5	365.02	5.8804e-06	6.0913e-06	408.38	140.41	116.35	38.617	5.9428e-06	50.156	-112.816	-67.815	-31.439	-118.798	-44.574	33.446	-118.535	-114.371	-28.858	-36.933	-114.321	-109.780	-108.897	-104.115	-58.171	-105.595	-8191	255	
910.017	1	1	0	0	0.11303	0.049357	0.029001	0.057015	0.12879	0.10047	0.12583	0.13761	0.194	0.16569	0.04949	0.032468	0.12499	0.32807	0.087359	0.10514	-2.2521	-2.15	-2.5292	-2.8542	-2.0625	-2.7667	-2.6937	-2.2021	-2.825	-2.2125	-2.3688	-2.8958	-2.2062	-2.6562	-2.4375	-2.125	90.264	-108.210	-125.588	94.814	202.468	-65.143	86.602	-75.375	193.975	-43.413	90.869	113.214	23.218	-46.857	37.647	-115.362	0.00035954	0.00068612	5.6129e-05	1340.5	2.8316e-06	7.7239e-06	1370.5	361.73	1.2122e-06	2.1676e-06	406.68	138.64	114.19	38.026	4.7578e-06	49.343	0.00052924	0.00054824	0.00015031	1341.5	6.0813e-06	5.8921e-06	1378	365.29	5.8483e-06	6.0573e-06	408.54	140.46	116.5	38.62	5.8356e-06	50.237	-118.026	-52.202	-36.995	-118.312	-51.832	6.818	-118.265	-114.835	-117.115	33.304	-114.668	-109.772	-109.024	-104.260	-1.620	-105.847	-8191	255	
910.137	1	1	0	0	0.16809	0.055872	0.22308	0.24923	0.17986	0.051075	0.16377	0.34968	0.1176	0.32498	0.055272	0.16414	0.024753	0.10351	0.037287	0.20892	-2.4646	-2.0271	-2.525	-2.9208	-2.0896	-2.6667	-2.6792	-2.1375	-2.75	-2.1167	-2.275	-2.6625	-2.0542	-2.5312	-2.6729	-2.1896	82.777	123.012	148.752	165.492	144.693	-73.942	67.915	132.521	102.964	-25.476	-85.440	207.880	57.214	-70.634	-56.919	-70.556	0.00024626	0.00050909	0.00017416	1350.3	3.2965e-06	5.8963e-06	1373	358.86	3.1371e-06	8.4311e-06	404.69	137.83	114.22	37.881	4.7216e-06	49.955	0.00053075	0.00054438	0.00015264	1343.8	6.0997e-06	5.9267e-06	1379.2	364.82	5.8819e-06	6.0241e-06	408.42	140.25	116.47	38.613	5.8788e-06	50.218	-78.631	-49.519	-31.100	-118.897	-21.001	12.597	-118.378	-113.919	14.519	18.084	-114.178	-109.551	-108.885	-104.041	15.717	-107.094	-8191	255	
910.233	1	1	0	0	0.17412	0.12628	0.11368	0.15491	0.028347	0.39603	0.058395	0.29509	0.33789	0.19524	0.14573	0.15093	0.18909	0.14667	0.19334	0.10494	-2.45	-2.175	-2.1958	-2.8646	-2.0312	-2.7	-2.7917	-2.0771	-2.7021	-2.3292	-2.1646	-2.6562	-2.1063	-2.5458	-2.7604	-2.2708	200.435	215.049	-113.151	145.110	-64.296	-19.841	58.690	45.867	52.483	-98.326	203.962	212.411	125.681	185.008	11.543	-57.484	0.00035202	0.00064274	0.00016294	1352.1	3.2577e-06	5.5644e-06	1380.5	362.18	1.427e-06	6.7831e-06	404.7	139.8	114.88	38.315	3.2638e-06	49.648	0.00053819	0.00054473	0.00015427	1343.5	6.1201e-06	5.9759e-06	1379.6	365.1	5.9424e-06	6.0395e-06	407.77	140.39	116.55	38.645	5.8911e-06	50.227	-103.585	-50.752	-18.337	-119.103	-34.235	30.870	-118.973	-114.801	-15.646	-11.040	-114.890	-110.821	-109.887	-105.162	-5.078	-106.034	-8191	255	
910.329	1	1	0	0	0.28334	0.24994	0.20739	0.23092	0.20946	0.21766	0.014589	0.40681	0.042074	0.038102	0.2041	0.19966	0.088132	0.12124	0.071436	0.19275	-2.2458	-2.3146	-1.9896	-2.9396	-2.1688	-2.5479	-2.8688	-2	-2.8125	-2.4813	-2.1458	-2.8146	-2.2	-2.1479	-2.7333	-2.0792	220.623	121.840	95.821	171.445	192.497	153.521	-103.550	-113.904	-64.872	211.682	109.488	-49.764	30.917	-26.167	-36.331	139.220	0.00031973	0.0003813	5.1282e-05	1354.9	2.1947e-06	9.4988e-06	1382.8	363.22	4.4957e-06	3.7816e-06	406.96	139.02	114.41	37.96	1.8426e-06	49.614	0.00053667	0.00054579	0.00015621	1344.3	6.0692e-06	5.9943e-06	1380	365.47	5.9424e-06	5.9978e-06	409.26	140.44	116.49	38.655	5.8456e-06	50.218	-82.355	-75.603	-68.064	-119.299	-58.614	-50.812	-119.218	-115.092	-33.017	34.696	-115.351	-110.446	-109.418	-105.122	30.216	-106.114	-8191	255	
910.426	1	1	0	0	0.090995	0.34071	0.1312	0.067952	0.019561	0.10224	0.34063	0.054029	0.28447	0.051726	0.52398	0.37634	0.19413	0.15052	0.26128	0.1021	-2.0917	-2.3458	-1.9562	-2.85	-2.2771	-2.1854	-2.8271	-2.2062	-2.5792	-2.5354	-2.1104	-2.9458	-2.2271	-2.1229	-2.7687	-2.0458	5.880	28.226	-110.545	157.224	-64.487	209.975	211.359	51.386	-110.696	3.288	184.606	-49.430	-131.580	-76.024	76.611	61.447	0.00022345	0.00021932	0.00016022	1352.7	3.1744e-06	8.6965e-06	1372.9	359.66	3.4959e-06	7.7113e-06	406.09	137.64	113.65	38.394	6.2757e-06	49.995	0.00054312	0.0005502	0.00015598	1343.3	5.9942e-06	5.9851e-06	1379.2	365.19	5.9497e-06	5.8796e-06	408.64	140.31	116.44	38.661	5.8379e-06	50.278	-74.944	-109.120	-12.340	-119.214	-62.885	14.985	-118.343	-114.067	-2.871	31.155	-114.244	-108.963	-108.422	-104.861	-1.069	-106.484	-8191	255	
910.520	1	1	0	0	0.03129	0.082045	0.30023	0.076756	0.10625	0.052856	0.1976	0.13104	0.10831	0.012613	0.2134	0.13119	0.13188	0.11899	0.14047	0.16824	-2.3271	-2.5417	-2	-2.95	-2.3604	-2.375	-3.0042	-2.0187	-2.6271	-2.5792	-2.1021	-2.6604	-2.2542	-2.3146	-2.4917	-2.3208	-95.296	-117.211	153.373	152.377	151.225	172.418	203.225	-5.996	17.445	154.390	70.580	-87.875	98.167	160.316	-123.094	34.993	0.00038637	0.00056786	0.00012912	1355.6	3.614e-06	5.7255e-06	1380.7	360.27	2.6875e-06	2.6687e-06	407.31	138.06	114.82	38.36	1.1708e-06	50.145	0.00055175	0.00053674	0.00015503	1343.1	5.9567e-06	6.0535e-06	1379.1	364.87	5.9642e-06	5.9769e-06	409.22	140.17	116.58	38.684	5.9189e-06	50.263	-101.333	-40.179	-49.146	-119.406	-23.780	-11.243	-119.054	-114.387	-97.643	23.155	-114.650	-109.634	-109.306	-105.481	80.432	-107.192	-8191	255	
910.616	1	1	0	0	0.18284	0.18686	0.06284	0.1537	0.13413	0.16967	0.28296	0.18111	0.21647	0.060491	0.14544	0.18692	0.34499	0.21959	0.17464	0.37266	-2.0187	-2.5958	-2.0917	-2.85	-2.5354	-2.0896	-2.9104	-2.1167	-2.45	-2.8896	-1.8854	-2.6208	-2.6021	-2.0812	-2.8542	-2.2021	162.970	-78.007	-22.438	150.445	82.656	72.805	173.568	49.263	-119.967	159.526	63.629	-39.604	211.577	-54.407	193.196	204.587	0.00038283	0.00070013	0.00024353	1363	3.8566e-06	7.0887e-07	1393.7	365.4	3.7163e-06	6.6248e-06	413.49	140.4	115.52	38.217	5.0144e-06	50.26	0.0005424	0.00053962	0.00015598	1344.3	6.0133e-06	6.1304e-06	1380.3	365.34	5.9774e-06	5.8178e-06	410.18	140.36	116.41	38.661	5.8788e-06	50.232	-86.757	-57.680	-37.741	-119.847	-39.183	47.941	-119.802	-115.514	-79.811	25.168	-115.757	-111.089	-110.242	-105.583	99.043	-106.657	-8191	255	
910.712	1	1	0	0	0.07211	0.11455	0.090438	0.092893	0.14165	0.12852	0.13563	0.16173	0.16533	0.10401	0.12066	0.29538	0.10693	0.11265	0.3535	0.16148	-1.8771	-2.7625	-2.0125	-2.8833	-2.5146	-2.0563	-2.9562	-2.4042	-2.0312	-2.7542	-2.2125	-2.3	-2.5896	-2.1	-2.7396	-2.1813	-11.750	-91.957	-91.223	179.722	203.632	-40.089	-111.266	-89.130	43.835	100.887	188.586	-56.980	134.242	108.864	126.294	-84.599	0.00022904	0.00044264	0.00020112	1359.7	1.9578e-06	6.544e-06	1389.6	364.35	2.2947e-06	2.1793e-06	407.09	140.17	115.98	38.333	2.1244e-06	49.915	0.00054247	0.00053534	0.00015485	1343	5.9351e-06	6.0412e-06	1379.4	365.32	6.0437e-06	5.8116e-06	408.25	140.43	116.55	38.664	5.8633e-06	50.217	-74.118	-42.284	-88.637	-119.771	-46.222	0.275	-119.734	-115.342	-58.354	-19.602	-115.184	-111.263	-110.269	-105.554	-37.303	-106.884	-8191	255	
910.808	1	1	0	0	0.091692	0.1375	0.3203	0.13038	0.14697	0.077001	0.039341	0.18116	0.25262	0.1333	0.23235	0.15727	0.27022	0.13635	0.06832	0.1485	-1.7104	-2.8521	-2.1875	-2.6646	-2.675	-2.0521	-2.9833	-2.3917	-2.3771	-2.7062	-2.2875	-2.2062	-2.6875	-2.0896	-2.6583	-2.4417	158.214	100.401	19.863	222.339	-81.166	146.911	45.456	188.302	149.373	-36.602	148.205	61.325	32.663	42.031	-122.990	193.137	0.00019112	0.00062831	9.9372e-05	1358.2	2.5016e-06	7.3126e-06	1376.6	360.42	1.8317e-06	3.4095e-06	401.83	138.59	113.33	37.868	3.5936e-06	49.398	0.00055168	0.00054298	0.00015295	1343.9	5.9364e-06	6.085e-06	1379.4	365.02	6.0299e-06	5.8255e-06	406.33	140.42	116.29	38.576	5.8765e-06	50.128	-51.306	-78.061	-28.971	-119.616	-40.119	101.504	-118.772	-114.177	-3.001	42.381	-114.391	-109.884	-108.211	-104.100	-11.423	-105.761	-8191	255	
910.905	1	1	0	0	0.12845	0.0376	0.28727	0.29298	0.10685	0.22388	0.095465	0.080321	0.17456	0.18939	0.093926	0.093896	0.059854	0.064304	0.25472	0.16167	-1.9333	-2.7938	-2.0917	-2.5708	-2.8937	-2.1875	-2.8021	-2.5104	-2.1896	-2.7604	-2.4354	-2.4437	-2.775	-2.1021	-2.4813	-2.5667	228.332	-48.424	196.829	-63.879	71.205	78.967	-30.147	-33.489	14.556	36.136	221.776	157.995	-21.643	126.778	179.580	71.231	0.00013849	0.00069009	0.00015722	1314.6	2.1005e-06	7.7769e-06	1351.7	353.35	2.7974e-06	4.8072e-06	399.94	136.13	113.14	37.7	3.4474e-06	48.515	0.00054753	0.00054368	0.00015338	1338	5.8462e-06	6.1204e-06	1376.5	364.16	6.0896e-06	5.8564e-06	407.34	140.07	116.35	38.657	5.9219e-06	50.02	-101.040	-79.161	-38.250	-116.104	-24.033	19.271	-116.851	-112.254	45.298	80.064	-113.164	-108.241	-107.742	-103.394	49.248	-103.858	-8191	255	
911.025	1	1	0	0	0.20521	0.23158	0.36917	0.16081	0.16819	0.16666	0.33395	0.043311	0.179	0.023257	0.077289	0.097182	0.19909	0.31041	0.08473	0.21809	-1.6417	-2.7396	-2.2833	-2.725	-2.7146	-2.1375	-2.6417	-2.7167	-2.0479	-2.8479	-2.4042	-2.2375	-2.7875	-2.1583	-2.4729	-2.7292	144.143	45.285	179.043	210.147	-119.981	-78.300	227.927	19.305	93.970	182.729	213.418	46.098	195.629	15.946	-35.842	133.684	0.00020085	0.00026772	0.00011227	1317	3.8869e-06	9.7002e-06	1368.1	358.99	3.1792e-06	9.3844e-06	399.3	135.47	111.79	37.714	3.2225e-06	48.136	0.0005528	0.00053611	0.00015285	1338.8	5.8729e-06	6.0766e-06	1377.9	364.77	6.1122e-06	5.9043e-06	407.07	139.9	116.12	38.536	5.9813e-06	49.951	-101.490	-31.256	-22.086	-116.330	-29.344	30.362	-118.239	-113.829	23.491	70.029	-112.232	-107.560	-106.762	-103.151	35.543	-102.522	-8191	255	
911.097	1	1	0	0	0.12181	0.12504	0.12159	0.16103	0.17115	0.22149	0.12006	0.20029	0.3714	0.17077	0.027349	0.28825	0.045614	0.22234	0.21646	0.054652	-1.7792	-2.7083	-2.2521	-2.3646	-2.7917	-2.2083	-2.6042	-2.5354	-2.1625	-2.7042	-2.3833	-2.2	-2.7083	-2.2125	-2.2417	-2.4688	160.318	142.698	95.242	138.814	-102.865	112.706	198.584	170.722	47.933	145.849	-98.766	108.987	187.011	-18.519	152.260	125.300	0.00018675	0.00047094	0.00016979	1328	3.2949e-06	3.5493e-06	1360.2	357.76	2.5373e-06	3.2548e-06	409.03	139.02	114.86	38.19	1.8446e-06	49.968	0.00054859	0.00054081	0.00015225	1338.6	5.8888e-06	5.992e-06	1377.5	364.71	6.0896e-06	5.8773e-06	407.7	140.37	116.48	38.628	6.026e-06	50.225	-93.196	-62.920	-36.372	-117.517	-29.569	32.367	-117.594	-113.469	36.582	192.990	-114.894	-110.444	-109.729	-104.866	-63.073	-106.221	-8191	255	
911.218	1	1	0	0	0.12239	0.26181	0.3304	0.053502	0.24729	0.11435	0.19507	0.042376	0.15929	0.23062	0.081453	0.22294	0.13143	0.1592	0.27559	0.22857	-1.5875	-2.6	-2.4729	-2.3063	-2.7292	-2.4521	-2.5208	-2.6792	-2.0625	-2.6312	-2.6854	-2.0438	-2.8354	-2.0062	-2.1292	-2.6479	43.985	-113.168	24.772	70.967	146.945	161.309	178.746	32.306	8.025	57.816	99.804	55.430	70.207	-78.318	23.452	49.145	0.00020426	6.3627e-05	0.00025497	1358	1.8119e-06	6.1385e-06	1390.5	363.86	3.4101e-06	2.7505e-06	411.86	141.09	116.51	38.849	5.4314e-06	50.5	0.00055352	0.00053969	0.00015097	1343.6	5.8729e-06	6.1473e-06	1380.2	365.13	6.0853e-06	5.9622e-06	407.67	140.47	116.66	38.7	6.0029e-06	50.251	-107.828	-39.503	-63.021	-119.652	-40.873	-11.372	-119.680	-115.192	-47.982	9.881	-116.201	-111.510	-110.882	-106.283	1.300	-107.297	-8191	255	
911.314	1	1	0	0	0.10756	0.022706	0.13669	0.30851	0.059652	0.091416	0.3263	0.10599	0.11213	0.30628	0.1095	0.082451	0.067708	0.029101	0.2426	0.054018	-1.625	-2.5917	-2.4854	-2.325	-2.7188	-2.3625	-2.4354	-2.7458	-2.0896	-2.4688	-2.5812	-2.1021	-2.4583	-2.1896	-2.0958	-2.7687	-44.830	-36.908	68.414	178.285	91.154	175.011	191.835	148.609	87.965	158.025	51.695	-69.124	72.461	189.550	-24.752	36.066	0.00045935	0.00060443	0.0002376	1367.7	3.171e-06	3.8581e-06	1401	367.06	3.1079e-06	5.4995e-06	410.28	141.44	116.86	38.715	5.0706e-06	50.333	0.00054971	0.00055252	0.0001493	1344.2	5.8945e-06	5.8844e-06	1380.3	365.55	6.0896e-06	6.055e-06	407.78	140.57	116.65	38.653	6.1108e-06	50.229	-106.358	-19.445	-17.925	-120.269	-42.000	-31.796	-120.261	-115.890	-11.780	36.546	-116.058	-111.787	-111.028	-106.190	41.402	-107.318	-8191	255	
911.410	1	1	0	0	0.041643	0.10732	0.20222	0.17716	0.24787	0.11439	0.24605	0.089221	0.12953	0.19774	0.16299	0.36462	0.30682	0.15835	0.099163	0.1156	-1.7313	-2.3812	-2.7229	-2.2062	-2.5896	-2.3812	-2.3354	-2.8125	-2.1896	-2.3833	-2.5812	-1.8958	-2.6417	-2.5646	-1.9583	-2.7687	140.397	142.686	113.153	-121.040	-58.941	-47.533	122.837	129.391	30.462	-29.117	211.886	163.609	183.833	-8.988	217.752	151.952	0.00017803	0.0004657	0.00015233	1368.4	4.1493e-06	4.5224e-06	1400.5	367.06	4.6338e-06	6.661e-06	411.81	140.68	115.76	38.577	2.6456e-06	50.687	0.00054642	0.00055497	0.000149	1343.9	5.9173e-06	5.9636e-06	1380.7	365.54	5.9992e-06	6.0604e-06	408.11	140.54	116.52	38.632	6.073e-06	50.314	-96.849	-81.244	-10.355	-120.321	-37.192	-29.409	-120.255	-115.760	-30.119	-4.648	-115.895	-111.501	-110.401	-105.754	219.539	-106.747	-8191	255	
911.506	1	1	0	0	0.023401	0.09569	0.044151	0.10714	0.070591	0.10418	0.17026	0.15072	0.075062	0.11162	0.086514	0.12207	0.26537	0.092465	0.27362	0.18046	-2.1	-2.1937	-2.7333	-2.3167	-2.5354	-2.4958	-2.1625	-2.6625	-2.0396	-2.2271	-2.6042	-2.2542	-2.4125	-2.5812	-1.9333	-2.7146	-104.075	-76.841	190.808	130.440	-106.838	132.472	210.680	73.234	221.290	147.507	-31.082	-49.773	-34.076	-26.917	-17.708	-77.547	0.00022247	0.00048911	0.00014615	1363.3	2.5418e-06	4.3944e-06	1393.3	365.37	4.2544e-06	7.2588e-06	408.58	139.98	115.92	38.307	1.6215e-06	49.791	0.00054674	0.00055448	0.00014998	1343	5.9904e-06	5.9144e-06	1379.3	365.29	5.9489e-06	6.1106e-06	407.59	140.29	116.59	38.602	6.181e-06	50.156	-90.234	-3.871	-38.942	-119.968	-15.672	105.962	-120.045	-115.580	16.154	5.624	-115.933	-111.045	-110.359	-105.443	93.915	-106.300	-8191	255	
911.625	1	1	0	0	0.2513	0.041107	0.093052	0.3367	0.14809	0.023905	0.2493	0.12453	0.25465	0.36182	0.075379	0.14689	0.15145	0.22105	0.1644	0.24855	-1.8479	-2.2062	-2.6813	-2.3625	-2.3458	-2.7417	-2.3625	-2.7771	-2.5187	-2.2667	-2.8521	-2.2188	-2.4313	-2.5979	-2.1521	-2.7375	128.656	40.648	97.769	180.761	-72.033	-7.437	134.815	12.569	-3.547	-4.463	68.562	55.397	150.153	96.168	-64.808	-128.138	0.00022853	0.00082738	0.0001471	1350.3	3.8672e-06	7.4244e-06	1364.6	358.44	3.4306e-06	5.1204e-06	399.85	136.77	112.89	38.058	3.9896e-06	48.286	0.00054523	0.0005542	0.00014926	1341.7	5.9421e-06	5.8937e-06	1376.8	364.7	5.938e-06	6.1183e-06	405.98	139.93	116.21	38.559	6.0291e-06	50.004	-97.970	-75.198	-11.325	-119.114	-55.870	-2.347	-118.116	-113.910	-13.016	-45.127	-113.266	-108.824	-108.356	-103.882	22.155	-102.743	-8191	255	
911.721	1	1	0	0	0.084544	0.24307	0.14957	0.17379	0.10359	0.26785	0.15983	0.14806	0.30626	0.32628	0.12953	0.021534	0.25612	0.070293	0.28948	0.13809	-2.2562	-2.0833	-2.7417	-2.3271	-2.5563	-2.6958	-2.3438	-2.6167	-2.6167	-2.2021	-2.7708	-2.4896	-2.3417	-2.7687	-2.1562	-2.5687	62.812	112.832	123.383	137.011	17.217	-72.226	221.816	193.697	99.987	161.744	164.008	90.920	184.818	-14.446	110.156	-22.973	0.00033105	0.00095936	0.00018164	1307.7	2.8232e-06	2.7972e-06	1339.2	353.5	2.0905e-06	5.9122e-06	397.12	135.04	112.84	37.475	3.2626e-06	49.059	0.00053799	0.00055441	0.00014825	1336.1	5.9892e-06	5.8913e-06	1373.7	364.03	5.9599e-06	6.0156e-06	407.08	139.79	116.24	38.468	6.0484e-06	50.218	-83.953	-26.853	-28.909	-115.508	-70.923	-8.634	-115.581	-112.240	-64.704	122.527	-111.930	-107.319	-107.991	-103.579	-5.016	-104.314	-8191	255	
911.817	1	1	0	0	0.16156	0.26566	0.26719	0.1024	0.040804	0.11362	0.12711	0.12155	0.099773	0.16366	0.27932	0.080814	0.2169	0.23054	0.26738	0.25884	-2.2646	-2.0125	-2.6958	-2.7604	-2.1937	-2.7604	-2.35	-2.4813	-2.6104	-2.0917	-2.6646	-2.4354	-2.0292	-2.6375	-2.1292	-2.325	-99.879	71.063	1.279	173.627	4.866	2.995	151.779	151.818	196.770	123.657	123.542	6.476	157.862	60.719	-93.206	-3.592	0.00025172	0.00043107	0.000149	1302.4	2.8638e-06	7.0258e-06	1339.4	350.71	1.5764e-06	2.7459e-06	396.68	136.07	113.07	37.785	3.7604e-06	48.98	0.00053213	0.00056065	0.00014898	1335.5	5.9809e-06	5.7838e-06	1374	363.79	5.8491e-06	6.0441e-06	406.42	139.94	116.18	38.536	6.1e-06	50.178	-87.579	-58.444	-68.297	-114.775	-49.783	-50.174	-115.604	-111.208	2.593	-31.040	-111.725	-107.925	-107.856	-103.531	-37.892	-104.660	-8191	255	
911.913	1	1	0	0	0.076663	0.10773	0.13813	0.081697	0.087289	0.097424	0.10751	0.078634	0.1351	0.1454	0.29814	0.13161	0.071569	0.17793	0.076506	0.13836	-2.2667	-2.0438	-2.6104	-2.4979	-2.2062	-2.8083	-2.325	-2.4521	-2.7604	-2.1688	-2.7792	-2.3417	-2.2146	-2.8271	-2.2687	-2.3563	96.737	-60.709	206.430	170.876	-75.531	134.878	8.250	-45.761	86.389	151.592	184.766	55.198	-74.064	-112.016	-43.523	-99.757	0.0001369	0.00072306	0.00016282	1312.1	3.1765e-06	6.5213e-06	1347.4	351.73	1.7548e-06	6.1674e-06	396.36	134.93	111.7	37.444	6.6864e-06	49.268	0.00053292	0.00055434	0.00014988	1336.7	6.0394e-06	5.8498e-06	1374.4	363.87	5.836e-06	6.0465e-06	406.32	139.88	116.14	38.482	6.0592e-06	50.127	-126.452	-27.996	-26.771	-115.877	-59.124	-10.167	-116.451	-111.616	-25.740	59.247	-111.240	-106.799	-106.470	-102.358	8.483	-104.881	-8191	255	
912.009	1	1	0	0	0.068034	0.15116	0.14296	0.074486	0.16332	0.0996	0.21567	0.20373	0.43209	0.133	0.20654	0.14499	0.23016	0.23508	0.17452	0.1591	-2.2771	-2.1292	-2.6042	-2.8208	-2.2792	-2.7646	-2.4271	-2.4229	-2.7583	-2.1104	-2.5917	-2.7	-2.3063	-2.8208	-2.4229	-2.2104	195.709	138.011	165.705	217.418	-112.658	116.968	184.050	-41.039	206.320	-54.836	-110.909	227.286	-125.066	-2.944	-7.771	-81.972	0.00033166	0.00054976	0.00011342	1321.7	3.1941e-06	3.0947e-06	1351.1	353.48	1.3551e-06	8.5333e-06	395.96	135.35	111.8	37.123	4.4115e-06	48.295	0.00053016	0.00055406	0.00015233	1338.4	6.054e-06	5.8114e-06	1375.2	364	5.8848e-06	6.0055e-06	406.04	139.83	116.07	38.467	5.9404e-06	50.052	-87.436	-24.763	-43.970	-116.860	-65.163	15.438	-116.784	-112.422	37.203	74.574	-111.769	-107.332	-106.694	-102.001	-43.815	-103.401	-8191	255	
912.106	1	1	0	0	0.22674	0.085157	0.17465	0.051164	0.22856	0.042102	0.1609	0.039826	0.20449	0.076758	0.15936	0.15474	0.067991	0.10077	0.020911	0.36537	-2.6146	-2.1146	-2.5146	-2.8812	-2.0208	-2.6896	-2.4625	-2.1458	-2.8708	-2.1875	-2.4042	-2.6021	-2.1229	-2.7146	-2.5312	-2.2604	45.618	27.806	108.600	77.949	137.977	156.245	114.889	168.072	12.623	-20.285	-57.243	-42.770	-69.006	-108.920	208.723	115.889	0.00022781	0.00069062	0.00015641	1309.3	3.0959e-06	1.0054e-05	1346.8	354.13	4.4196e-06	6.2515e-06	399.83	136.16	112.66	37.729	5.0895e-06	48.852	0.00052595	0.00055813	0.00015034	1337.1	5.9904e-06	5.8791e-06	1375.2	364	5.8068e-06	6.0156e-06	408.09	139.95	116.15	38.532	5.8765e-06	50.161	-82.110	-34.289	-25.980	-115.508	-47.618	-11.738	-116.351	-112.759	0.262	18.348	-113.161	-108.195	-107.761	-103.375	85.908	-104.772	-8191	255	
912.202	1	1	0	0	0.2572	0.057992	0.22564	0.13372	0.18372	0.1325	0.13056	0.087763	0.18802	0.14087	0.088536	0.25242	0.061951	0.21958	0.24987	0.19524	-2.3833	-2.2375	-2.3396	-3.0938	-2.1458	-2.7938	-2.7229	-2.2625	-2.8708	-2.3417	-2.3187	-2.7625	-2.1604	-2.4583	-2.6063	-2.1042	-15.522	225.953	-99.362	179.572	169.557	-1.331	227.679	97.990	101.832	-117.384	210.833	21.844	-99.351	204.676	-97.100	81.261	0.00032516	0.00055319	0.00016836	1332.1	3.752e-06	5.0025e-06	1356.1	355.66	3.5555e-06	4.2165e-06	396.97	135.78	112.18	37.492	4.0649e-06	48.579	0.00053312	0.00054859	0.00015293	1340	6.1118e-06	5.8491e-06	1375.9	364.23	5.8316e-06	6.0016e-06	408.15	139.88	116.1	38.518	5.8811e-06	50.075	-88.136	-33.867	-7.284	-117.673	-42.481	7.909	-117.249	-112.997	-19.972	47.726	-113.111	-107.773	-107.437	-102.910	49.307	-103.926	-8191	255	
912.322	1	1	0	0	0.29071	0.032798	0.15509	0.1256	0.13299	0.1113	0.15728	0.4306	0.13069	0.13574	0.1915	0.16824	0.18604	0.14094	0.15262	0.36766	-2.375	-2.2771	-2.2896	-2.9104	-2.175	-2.5479	-2.8646	-2.175	-2.8083	-2.4229	-2.2375	-2.8229	-2.1437	-2.3396	-2.725	-2.075	-115.498	111.147	-56.783	-56.593	-4.069	96.824	211.028	-111.986	142.521	-36.702	-106.782	122.040	-90.404	-20.271	-123.490	205.989	0.0002058	0.00070401	0.00016602	1324.8	2.0553e-06	3.4891e-06	1356.4	354.75	1.6928e-06	2.4567e-06	404.2	137.5	113.35	37.806	5.6806e-06	49.289	0.00053398	0.00055048	0.0001527	1338.9	6.0387e-06	5.9298e-06	1376.1	364.14	5.8615e-06	6.0349e-06	408.43	140.15	116.24	38.579	5.8572e-06	50.207	-95.300	-81.786	-35.271	-117.179	-33.894	31.176	-117.239	-112.954	-93.925	20.250	-112.966	-109.418	-108.462	-103.666	-8.397	-104.937	-8191	255	
912.394	1	1	0	0	0.030846	0.18687	0.23971	0.19307	0.33427	0.18855	0.10206	0.19864	0.062559	0.15914	0.2453	0.043269	0.27497	0.13144	0.12505	0.025571	-2.3563	-2.2708	-2.275	-2.9458	-2.0958	-2.3479	-2.8125	-2.0917	-2.5667	-2.5521	-2.3479	-2.7062	-2.3042	-2.3958	-2.7271	-2.0667	214.576	114.525	15.285	146.862	141.952	215.948	-94.255	12.594	108.625	58.289	77.295	136.730	127.995	-12.513	138.557	220.473	0.00026977	0.00063006	0.00016316	1328.7	3.1479e-06	1.9547e-06	1350	355.99	3.6469e-06	2.1363e-06	402.48	137.38	113.42	37.991	3.0526e-06	49.327	0.00053108	0.00054621	0.00015378	1339.9	6.08e-06	5.9759e-06	1375.8	364.26	5.8534e-06	5.9955e-06	407.37	140.18	116.28	38.618	5.8741e-06	50.161	-83.612	-55.372	-35.975	-117.370	-37.659	9.140	-116.670	-113.111	-2.814	-4.026	-113.554	-109.300	-108.483	-104.098	-33.516	-104.957	-8191	255	
912.490	1	1	0	0	0.18647	0.069674	0.22986	0.1917	0.20147	0.20093	0.14552	0.12018	0.22677	0.044231	0.23449	0.22573	0.015348	0.36472	0.00618	0.12496	-2.1375	-2.5812	-2.2229	-3.1729	-2.1604	-2.2979	-2.9375	-2.1458	-2.7833	-2.5396	-2.1479	-2.7979	-2.3167	-2.3167	-2.8875	-2.1188	165.042	184.043	47.330	185.945	135.872	18.690	119.504	216.019	19.092	-23.461	95.395	-41.119	58.014	-18.350	105.396	-68.024	0.00022872	0.00029792	0.00021097	1324.6	2.8635e-06	2.6097e-06	1366.8	358.23	3.7454e-06	1.392e-06	401.36	137.08	112.62	37.602	3.0044e-06	48.642	0.00053128	0.0005413	0.0001547	1340	5.939e-06	5.9567e-06	1378.6	364.67	5.9227e-06	5.8943e-06	408.6	140.11	116.25	38.605	5.8356e-06	50.159	-93.506	-34.622	-37.961	-116.923	-24.004	-73.388	-117.893	-113.772	-12.187	-25.746	-113.536	-108.572	-107.761	-103.134	42.215	-103.986	-8191	255	
912.586	1	1	0	0	0.11359	0.017959	0.12436	0.2973	0.17722	0.034319	0.24799	0.1152	0.15546	0.082916	0.088341	0.086231	0.14553	0.11655	0.057897	0.1949	-2.0312	-2.5708	-2	-2.9167	-2.5625	-2.2375	-2.9354	-2.2979	-2.4854	-2.6833	-2.1417	-2.8646	-2.3792	-2.1979	-2.7292	-2.1042	-113.638	-35.138	40.202	224.748	45.187	-70.553	158.426	-87.127	53.010	21.599	-2.148	191.256	81.387	-91.085	2.793	69.537	0.00015512	0.00059521	0.00010564	1323.2	3.2856e-06	4.9887e-06	1356.4	355.85	2.0567e-06	8.2215e-06	403.86	137.29	113.57	37.583	1.1826e-06	49.356	0.00053819	0.00052994	0.00015283	1339.7	5.9479e-06	5.9682e-06	1377.4	364.37	5.9664e-06	5.7861e-06	408.73	140.14	116.36	38.558	5.9081e-06	50.179	-77.333	-39.479	-28.622	-116.989	-38.709	79.293	-117.139	-113.196	-13.845	-18.196	-113.183	-109.348	-108.239	-103.567	-14.383	-105.334	-8191	255	
912.705	1	1	0	0	0.21151	0.010929	0.39085	0.098755	0.033322	0.17858	0.13461	0.30721	0.16786	0.056714	0.27046	0.11755	0.091061	0.166	0.20485	0.25672	-1.9208	-2.5875	-1.9896	-2.9146	-2.4104	-2.1729	-3.0396	-2.0625	-2.4375	-2.7562	-1.9875	-2.6437	-2.5771	-2.15	-2.7125	-2.2562	164.550	127.500	90.113	-80.038	203.878	117.358	105.743	-125.996	-68.185	-61.167	117.651	208.300	197.473	-110.321	105.490	-26.877	0.00023412	0.00031239	0.00010416	1335.6	4.4876e-06	1.8828e-06	1360.9	355.78	3.046e-06	6.1436e-06	400.77	136.87	113.06	37.712	7.1845e-06	48.683	0.00054016	0.00053913	0.00015386	1340.7	5.9612e-06	5.9751e-06	1377.8	364.5	6.0007e-06	5.8417e-06	407.12	140	116.2	38.599	5.9181e-06	50.031	-87.784	-14.467	-49.863	-118.030	-38.379	-36.276	-117.463	-113.083	-18.451	35.283	-113.568	-108.939	-108.144	-103.561	-8.087	-104.308	-8191	255	
912.801	1	1	0	0	0.19712	0.027204	0.045181	0.39116	0.094664	0.24409	0.17376	0.083984	0.26366	0.17179	0.11604	0.037127	0.10619	0.16579	0.13317	0.10412	-1.7271	-2.5417	-2.0563	-2.8292	-2.3646	-2.1646	-2.8812	-2.3229	-2.3167	-2.6979	-2.0354	-2.4417	-2.6583	-1.8188	-2.6917	-2.2667	100.828	-71.740	164.775	217.360	-27.222	7.621	-8.736	-110.318	202.162	161.040	-58.231	216.171	-99.902	-101.497	226.010	-24.387	0.00024127	0.00065622	0.00016409	1329.6	4.2304e-06	6.387e-06	1365.3	357.33	6.3199e-07	8.9726e-06	401.22	137.05	113.39	37.953	5.4768e-06	49.462	0.00054549	0.00053408	0.00015509	1340.1	5.9097e-06	6.0527e-06	1377.3	364.15	5.9905e-06	5.8749e-06	407.23	140.19	116.21	38.539	5.8472e-06	50.106	-95.483	-43.498	-22.926	-117.531	-47.069	-11.771	-117.974	-113.687	40.230	28.494	-113.703	-109.019	-108.284	-104.127	73.328	-105.363	-8191	255	
912.898	1	1	0	0	0.12712	0.1541	0.35344	0.055899	0.12606	0.19123	0.042727	0.19185	0.28078	0.045809	0.15458	0.18749	0.1222	0.045125	0.070822	0.13868	-1.825	-2.7125	-1.8687	-2.7438	-2.4146	-1.9896	-2.8312	-2.3292	-2.125	-2.8667	-2.0271	-2.4521	-2.6312	-1.9167	-2.5938	-2.4979	37.921	200.016	75.821	163.531	188.611	214.568	-108.492	3.098	-60.243	34.771	-65.468	89.112	122.320	165.665	151.038	87.997	0.00029388	0.00082998	0.00013572	1327.6	3.1345e-06	2.8426e-06	1351.4	353.91	3.389e-06	3.253e-06	400.05	136.99	113.49	37.551	1.893e-06	48.865	0.0005453	0.00053408	0.00015501	1339.4	5.8386e-06	6.0435e-06	1375.6	363.95	6.0284e-06	5.8904e-06	407.04	140.23	116.34	38.557	5.8795e-06	50.087	-117.754	-58.124	-59.365	-117.383	-32.505	52.060	-116.873	-112.235	39.408	-47.661	-113.558	-108.632	-108.267	-103.422	110.815	-104.044	-8191	255	
912.994	1	1	0	0	0.094243	0.14561	0.098557	0.13525	0.14013	0.29103	0.066629	0.081068	0.14793	0.064719	0.14212	0.022378	0.10348	0.011719	0.071632	0.12003	-1.6958	-2.65	-2.2208	-2.3875	-2.6604	-2.0312	-2.8354	-2.5167	-1.9125	-2.7271	-2.3812	-2.2583	-2.7854	-2.1396	-2.4562	-2.5792	104.684	-113.618	148.137	137.608	13.105	130.874	-70.429	161.178	-18.992	172.097	80.832	-93.156	100.620	109.505	7.247	-45.632	0.00027622	0.00062151	0.00018448	1324.1	3.0797e-06	3.4367e-06	1367.1	358.41	2.1274e-06	4.9068e-06	403.45	137.4	112.67	37.722	4.6086e-06	49.354	0.00054622	0.00053744	0.00015376	1339.4	5.9224e-06	5.9966e-06	1377.9	364.47	6.0554e-06	5.9228e-06	406.81	140.21	116.25	38.578	6.0114e-06	50.051	-85.436	-69.893	-4.071	-117.096	-50.663	54.871	-118.169	-113.925	17.936	23.090	-113.725	-109.160	-107.855	-103.535	19.561	-105.568	-8191	255	
913.090	1	1	0	0	0.19298	0.090504	0.17244	0.20956	0.1873	0.20174	0.10134	0.112	0.35684	0.2042	0.15388	0.18452	0.226	0.29054	0.21654	0.22083	-1.7938	-2.7083	-2.3563	-2.2646	-2.7229	-2.1188	-2.6771	-2.6417	-2.0354	-2.7625	-2.1333	-2.2854	-2.6833	-1.9958	-2.35	-2.625	84.138	-111.991	-54.399	210.530	186.210	17.826	217.832	50.326	-61.651	213.907	-29.776	128.733	-43.331	-35.333	75.356	-58.372	0.00014685	0.00052429	0.0001299	1352.1	3.1909e-06	8.2771e-06	1389.5	364.25	3.0491e-06	2.8282e-06	408.25	140.28	115.22	38.2	4.0198e-06	49.313	0.00055543	0.00053646	0.00015102	1342.3	5.8938e-06	6.0128e-06	1380	365.25	6.0911e-06	5.9537e-06	407.63	140.4	116.4	38.598	6.0137e-06	50.016	-108.691	-57.348	-37.891	-119.342	-35.781	-2.852	-119.721	-115.389	-49.077	60.507	-116.117	-111.293	-109.985	-105.369	-63.023	-105.214	-8191	255	
913.186	1	1	0	0	0.37213	0.16844	0.17432	0.24664	0.20807	0.33496	0.30546	0.12702	0.080243	0.14154	0.10994	0.22003	0.15992	0.12188	0.020908	0.28567	-1.6812	-2.6188	-2.3771	-2.1625	-2.5438	-2.0667	-2.5125	-2.6458	-1.9792	-2.575	-2.2521	-2.0771	-2.5979	-2.1125	-2.4229	-2.7812	-92.487	147.688	-38.821	175.027	-12.521	36.582	97.000	-11.078	65.363	50.900	185.490	187.693	-3.684	60.894	221.583	-52.395	0.00029639	0.0004224	0.0001405	1360.6	2.5479e-06	9.0373e-07	1395.2	365.42	3.0746e-06	6.7864e-06	411.79	140.73	116.44	38.623	4.0342e-06	50.602	0.00055319	0.00053667	0.00015196	1342.7	5.883e-06	6.0443e-06	1379.7	365.16	6.1253e-06	5.9051e-06	407.2	140.49	116.59	38.556	5.9859e-06	50.215	-92.748	-56.726	-24.414	-119.850	-40.528	-40.690	-120.149	-115.571	-25.679	24.950	-115.880	-111.795	-110.750	-105.810	14.657	-107.132	-8191	255	
913.307	1	1	0	0	0.1097	0.05751	0.47586	0.16398	0.14691	0.057367	0.090939	0.089303	0.2425	0.13517	0.071007	0.28224	0.052506	0.19115	0.28075	0.11661	-1.5312	-2.5729	-2.4708	-2.3063	-2.6667	-2.0521	-2.4667	-2.8896	-1.8687	-2.5	-2.5312	-1.9917	-2.6417	-2.1958	-2.1396	-2.7417	222.804	155.436	-42.127	105.078	224.234	120.791	180.821	-115.383	-28.902	-95.285	16.847	-109.608	-58.665	82.979	183.192	-84.351	0.00021094	0.00035684	0.0001274	1363.4	4.3535e-06	9.2159e-06	1393.7	364.94	2.7658e-06	4.6601e-06	412.6	141.19	116.34	38.74	4.9699e-06	50.471	0.00055227	0.00054509	0.00015124	1342.7	5.8786e-06	5.969e-06	1379.9	365.02	6.0452e-06	5.9437e-06	407.87	140.54	116.54	38.63	6.0954e-06	50.215	-105.055	-39.268	-31.806	-120.093	-52.919	-30.253	-120.008	-115.481	2.565	20.106	-115.339	-111.683	-110.699	-106.123	4.979	-107.846	-8191	255	
913.403	1	1	0	0	0.052286	0.19183	0.31759	0.10289	0.20105	0.21224	0.29477	0.13656	0.060209	0.34209	0.21074	0.079388	0.25736	0.14914	0.16807	0.24462	-1.7021	-2.3292	-2.375	-2.3167	-2.675	-2.2896	-2.4708	-2.6125	-2.0979	-2.6354	-2.6604	-2.0958	-2.625	-2.2354	-2.2438	-2.7792	-69.734	177.469	78.757	224.242	-124.438	-37.062	172.960	149.242	113.596	224.146	63.580	-86.474	-103.970	-108.456	-58.968	112.569	0.00022879	0.00043769	0.00017856	1367.8	3.2308e-06	5.0272e-06	1384.4	362.94	6.0523e-07	5.022e-06	408.27	138.71	113.72	37.518	1.9651e-06	48.436	0.00054911	0.00054431	0.00015077	1343.4	5.9053e-06	5.9667e-06	1379.1	364.8	6.0051e-06	5.9862e-06	407.33	140.19	116.41	38.505	6.0029e-06	50.065	-61.554	-109.211	-42.818	-120.290	-48.675	-12.177	-119.414	-114.935	-10.255	6.757	-115.482	-110.373	-108.476	-103.391	109.760	-103.461	-8191	255	
913.497	1	1	0	0	0.30589	0.088943	0.4805	0.46444	0.13069	0.13534	0.24683	0.16425	0.16395	0.13065	0.19735	0.11934	0.19255	0.28515	0.23495	0.3465	-1.8	-2.2188	-2.7521	-2.3042	-2.8	-2.4083	-2.4479	-2.6458	-2.3125	-2.4062	-2.6646	-2.0542	-2.5583	-2.4896	-2.0396	-2.7375	185.313	-100.624	65.188	215.137	-128.224	-68.158	152.550	201.293	106.884	-0.297	76.023	-67.178	-47.568	153.393	88.063	-68.865	0.00029779	0.00061296	0.0001103	1313.8	4.1276e-06	4.1473e-06	1350.7	352.64	3.2915e-06	4.4042e-06	398.54	135.85	112.05	37.19	1.029e-06	48.491	0.00053865	0.00053765	0.00014877	1336.6	5.8868e-06	5.8522e-06	1375.3	363.64	5.9183e-06	5.9862e-06	405.92	139.92	115.93	38.413	5.9998e-06	50.008	-99.800	-58.880	17.723	-116.295	-32.731	-12.499	-116.796	-112.023	-20.871	-8.824	-112.451	-108.136	-107.387	-102.666	-55.461	-104.129	-8191	255	
913.618	1	1	0	0	0.20958	0.029418	0.11526	0.13729	0.18288	0.19652	0.046667	0.12857	0.19925	0.14028	0.14685	0.034574	0.14983	0.1215	0.097355	0.046758	-1.8104	-2.1146	-2.8521	-2.45	-2.4792	-2.6667	-2.2125	-2.8458	-2.425	-2.2062	-2.775	-2.1167	-2.3604	-2.7562	-2.1917	-2.8875	157.751	198.427	172.084	190.620	-71.943	58.790	-39.148	221.557	-122.439	121.756	199.970	37.255	-14.884	45.241	-38.406	62.266	0.00028189	0.00058026	0.00019762	1317.3	3.6077e-06	3.8841e-06	1350.8	354.07	2.9955e-06	6.7502e-06	401.74	137.51	114.26	37.855	9.3076e-07	48.968	0.00053937	0.00055062	0.00014988	1337.5	5.9561e-06	5.856e-06	1375	363.93	5.9664e-06	6.0194e-06	405.16	140.08	116.42	38.506	5.9936e-06	50.046	-78.891	-68.479	1.652	-116.522	-36.365	20.131	-116.940	-112.666	-52.827	-6.808	-113.870	-109.791	-108.880	-104.229	98.626	-105.288	-8191	255	
913.689	1	1	0	0	0.23838	0.24138	0.28768	0.14361	0.14637	0.055992	0.19678	0.07885	0.071241	0.24972	0.33033	0.090627	0.22001	0.25093	0.13496	0.14932	-1.8729	-2.3479	-2.65	-2.3833	-2.3771	-2.5021	-2.275	-2.7354	-2.3208	-2.1146	-2.6458	-2.1125	-2.4229	-2.6604	-2.1063	-2.6792	152.561	87.148	72.649	-53.490	-122.256	-28.256	98.874	-58.312	146.013	131.252	28.390	194.666	78.985	10.913	223.481	90.815	0.00028105	0.00052	0.00021341	1327.6	2.4409e-06	3.0203e-06	1359.4	358.48	5.8372e-06	1.0345e-05	399.29	137.28	113.4	37.685	4.9616e-06	49.65	0.00053549	0.00055224	0.00014718	1338.6	5.9714e-06	5.8721e-06	1376.8	364.75	5.8811e-06	5.9885e-06	406	139.95	116.32	38.539	6.0692e-06	50.141	-67.097	-5.598	-22.586	-117.498	-45.239	169.221	-117.542	-113.853	-68.176	28.242	-113.017	-109.254	-108.493	-104.063	-49.743	-106.220	-8191	255	
913.786	1	1	0	0	0.1412	0.11566	0.20708	0.30089	0.31448	0.14798	0.21017	0.15766	0.19393	0.10948	0.2526	0.1245	0.22893	0.11703	0.15511	0.1974	-2.2062	-2.0458	-2.825	-2.3563	-2.3812	-2.5687	-2.4521	-2.6104	-2.4604	-2.2021	-2.8688	-2.2938	-2.1063	-2.7125	-2.1875	-2.4458	90.694	35.640	105.480	162.323	225.399	-25.805	-128.862	196.174	47.327	23.842	86.765	44.372	190.758	197.277	173.404	87.108	0.00021984	0.00070949	8.3552e-05	1335.5	1.8411e-06	5.4332e-06	1352.8	354.76	2.7098e-06	4.5549e-06	402.09	137.27	113.14	37.833	6.6878e-06	49.019	0.00053194	0.00055154	0.00014949	1339.9	5.9745e-06	5.7937e-06	1376.3	364.33	5.8819e-06	6.048e-06	407.29	140.03	116.37	38.585	6.0553e-06	50.09	-75.747	-40.584	-65.226	-118.019	-61.189	-6.947	-116.928	-112.670	11.078	-37.056	-112.693	-109.014	-108.234	-104.190	55.361	-104.890	-8191	255	
913.882	1	1	0	0	0.088344	0.10443	0.18418	0.22223	0.093036	0.030217	0.28339	0.13936	0.22421	0.15471	0.16668	0.24099	0.21974	0.19472	0.10909	0.17693	-2.2104	-2.1167	-2.5208	-2.5708	-2.25	-2.8958	-2.3229	-2.6229	-2.6437	-2.0042	-2.75	-2.4333	-2.1854	-2.8125	-2.3312	-2.525	-77.559	113.907	53.825	-126.511	127.995	-38.212	132.812	20.312	-36.442	95.505	-94.213	129.916	112.515	-69.088	-65.378	-100.060	0.00024367	0.00048628	0.00024259	1331.8	3.8315e-06	4.3094e-06	1365.1	356.18	1.5877e-06	2.7133e-06	403.82	137.67	113.41	37.437	1.8426e-06	49.609	0.00053667	0.00055434	0.00014862	1340.4	6.0375e-06	5.8744e-06	1377.1	364.37	5.8381e-06	6.0279e-06	406.57	140.15	116.24	38.489	5.9181e-06	50.164	-81.767	-12.259	-40.450	-117.667	-37.600	1.200	-117.923	-113.107	7.576	-29.121	-113.397	-109.058	-108.089	-103.491	54.345	-106.735	-8191	255	
914.002	1	1	0	0	0.1056	0.15833	0.27793	0.1996	0.22051	0.056621	0.22887	0.071882	0.12789	0.15369	0.27125	0.17169	0.30239	0.21074	0.10696	0.11047	-2.4167	-2.0542	-2.6646	-2.7354	-2.1375	-2.7521	-2.2667	-2.5	-2.6562	-1.9583	-2.7583	-2.4896	-2.1104	-2.7146	-2.1333	-2.3458	24.588	-131.772	1.259	220.176	137.714	223.572	108.175	5.789	-60.704	21.602	185.528	95.128	-42.900	119.429	108.393	204.325	0.00016677	0.00068189	0.00011086	1354.8	2.5507e-06	7.0424e-06	1387.5	363.79	3.5468e-06	3.7749e-06	407.29	139.6	114.66	38.111	3.9777e-06	49.301	0.00053036	0.00055343	0.00014976	1342.4	5.9987e-06	5.8237e-06	1379.1	365.09	5.8724e-06	6.058e-06	406.94	140.18	116.36	38.581	6.0183e-06	50.135	-93.666	-114.481	-80.005	-119.492	-59.205	2.936	-119.521	-115.208	-4.857	-23.809	-114.962	-110.919	-109.719	-104.668	38.829	-105.570	-8191	255	
914.099	1	1	0	0	0.23817	0.14893	0.15568	0.25201	0.34333	0.15075	0.25438	0.29343	0.32593	0.18668	0.19099	0.1701	0.15623	0.077827	0.10714	0.034895	-2.3729	-1.9562	-2.5667	-2.8187	-2.1688	-2.8917	-2.5563	-2.1854	-2.6688	-2.1479	-2.3771	-2.5875	-2.0854	-2.6292	-2.1625	-2.1813	-117.295	-2.362	43.802	137.707	-41.752	15.695	196.277	157.096	-14.467	120.130	219.394	182.224	-74.392	110.573	28.192	133.170	0.00038183	0.0007422	9.2995e-05	1338.9	2.9512e-06	7.4093e-06	1362.4	356.78	8.4753e-07	5.1815e-06	401.48	138.44	114.75	38.4	4.0103e-06	49.916	0.00052364	0.00055777	0.00015044	1340.3	6.0336e-06	5.7922e-06	1376.3	364.11	5.8053e-06	5.9955e-06	405.93	140.23	116.35	38.583	5.9559e-06	50.216	-93.177	-61.330	-0.351	-118.381	-27.604	-1.102	-117.834	-113.652	-70.708	-22.001	-113.627	-109.674	-109.777	-105.224	78.492	-106.992	-8191	255	
914.195	1	1	0	0	0.27942	0.12533	0.14484	0.057749	0.18667	0.19883	0.27276	0.1311	0.22661	0.067289	0.18035	0.19419	0.20225	0.11219	0.041503	0.1536	-2.4354	-2.0958	-2.3979	-2.7604	-2.2021	-2.7438	-2.6896	-2.1813	-2.8375	-2.2625	-2.2771	-2.5104	-2.1375	-2.5604	-2.3021	-2.2521	-67.967	-76.952	195.820	-28.748	151.367	123.093	176.131	58.093	47.717	-46.396	-42.308	-57.833	114.982	72.200	173.531	79.884	0.00028075	0.00036539	8.2833e-05	1353.1	3.0422e-06	5.6226e-06	1384.1	362.85	4.3073e-06	4.7412e-06	405.47	138.81	114.22	37.948	3.8694e-06	49.227	0.0005324	0.00055357	0.00015116	1341.2	6.0959e-06	5.8322e-06	1377.8	364.67	5.8644e-06	6.0171e-06	406.95	140.11	116.37	38.501	5.8703e-06	50.11	-103.868	-93.669	-41.575	-119.370	-18.238	44.810	-119.375	-115.081	-29.504	33.312	-114.897	-109.999	-109.172	-104.626	217.841	-104.859	-8191	255	
914.266	1	1	0	0	0.17248	0.21241	0.15526	0.29732	0.087761	0.061675	0.16749	0.18995	0.19013	0.14736	0.10674	0.23407	0.06616	0.044971	0.14644	0.10375	-2.3333	-2.2792	-2.2354	-2.875	-2.1646	-2.5708	-2.8042	-2.0875	-2.7125	-2.2938	-2.3792	-2.7854	-1.9813	-2.6521	-2.4875	-1.9833	9.454	-76.806	212.908	154.173	-94.017	200.493	173.408	172.346	49.582	60.701	-71.245	216.106	68.771	101.113	221.419	-34.959	0.00017682	0.0006478	0.00018033	1317.2	3.1744e-06	7.3715e-06	1354.8	356.19	9.9379e-07	1.2384e-05	398.45	137.54	114.31	38.148	6.9643e-06	49.373	0.00053233	0.00054593	0.00015145	1336.6	6.0368e-06	5.8798e-06	1374.2	363.93	5.8367e-06	5.9282e-06	406.16	140.14	116.39	38.484	5.9181e-06	50.15	-96.480	-55.165	-52.323	-116.537	-30.893	-28.485	-117.103	-113.447	16.386	15.443	-112.504	-109.407	-109.160	-104.358	44.980	-105.736	-8191	255	
914.387	1	1	0	0	0.14182	0.1384	0.18634	0.10198	0.1019	0.13747	0.033346	0.12414	0.13531	0.21029	0.081317	0.10284	0.13202	0.21311	0.18122	0.20804	-2.4583	-2.275	-2.3083	-2.925	-2.0333	-2.6437	-2.8292	-2.0312	-2.6771	-2.3417	-2.3292	-2.7646	-2.0625	-2.5062	-2.7792	-2.1417	-24.918	-128.356	103.833	205.673	157.106	124.935	56.872	171.839	-93.090	-4.930	154.826	-67.038	-41.610	-87.390	154.261	-13.880	0.00032777	0.00032486	8.0553e-05	1336.9	3.123e-06	5.7733e-06	1365	357.53	4.998e-07	4.7025e-06	401.73	136.53	113.32	37.905	2.3237e-06	49.26	0.00052707	0.00054985	0.00015161	1339.3	6.0425e-06	5.9113e-06	1376.3	364.07	5.8826e-06	6.0326e-06	407.89	139.93	116.18	38.559	5.9728e-06	50.194	-95.989	-74.423	-44.467	-118.211	-20.230	20.257	-117.957	-113.845	-97.408	-22.122	-113.579	-108.593	-108.322	-103.896	-67.669	-105.216	-8191	255	
914.483	1	1	0	0	0.10481	0.15687	0.16047	0.13193	0.20444	0.18252	0.17311	0.10364	0.24324	0.27482	0.17158	0.23952	0.1332	0.20843	0.12874	0.030448	-2.4458	-2.4042	-2.1708	-2.9875	-2.0833	-2.4604	-2.7292	-2.1104	-2.6771	-2.5021	-2.1896	-2.8333	-2.2646	-2.4896	-2.8312	-2.1958	18.032	153.265	-46.284	153.538	75.464	136.477	200.596	69.770	-25.277	125.319	-100.805	-33.724	39.133	76.122	184.482	185.480	0.00028702	0.0001123	0.0002192	1328.6	2.2804e-06	7.4564e-06	1358.8	359.15	1.8891e-06	4.8148e-06	405.19	138.38	113.94	37.77	5.4487e-06	49.4	0.00053259	0.00053892	0.00015462	1338.9	5.9758e-06	6.0474e-06	1376.3	364.39	5.9016e-06	5.9298e-06	408.36	140.16	116.4	38.566	5.8572e-06	50.176	-105.655	-45.921	-33.659	-117.519	-74.255	28.169	-117.565	-113.935	-91.356	-3.672	-114.558	-109.841	-108.922	-104.356	28.998	-105.341	-8191	255	
914.579	1	1	0	0	0.21294	0.15114	0.2499	0.26695	0.17689	0.072558	0.29395	0.14602	0.15019	0.20458	0.17543	0.17721	0.15782	0.026169	0.21426	0.15346	-2.1583	-2.425	-1.9958	-2.9521	-2.1479	-2.2646	-2.975	-2.0896	-2.5833	-2.6333	-2.2542	-2.775	-2.1958	-2.2438	-2.7833	-2.0521	202.921	104.465	21.529	157.818	100.305	50.564	-117.272	170.279	72.203	97.169	83.661	205.066	72.378	-23.617	46.552	142.360	0.00024202	0.00062969	0.00016306	1332.6	1.2932e-06	7.2756e-06	1367.8	358.25	2.3242e-06	3.9393e-06	399.78	138	113.47	37.815	5.048e-06	48.801	0.00054174	0.00054502	0.00015336	1338.9	6.073e-06	6.0258e-06	1376.7	363.99	5.9263e-06	5.8973e-06	406.67	140.08	116.24	38.537	5.9466e-06	50.121	-89.177	-52.657	-16.296	-117.846	-69.341	12.746	-118.137	-113.907	2.308	46.269	-113.251	-109.737	-108.499	-103.875	-19.076	-105.171	-8191	255	
914.698	1	1	0	0	0.22622	0.28403	0.041093	0.32505	0.10923	0.1019	0.17344	0.17356	0.16359	0.29439	0.21183	0.094268	0.16072	0.33211	0.2815	0.12898	-2.2	-2.7083	-1.9958	-2.9542	-2.1146	-2.1229	-3.0396	-2.0792	-2.5396	-2.7042	-2.0396	-2.9604	-2.1063	-2.1188	-2.5229	-2.2083	-85.005	101.305	-84.763	130.128	127.460	88.118	157.951	54.969	-47.989	28.146	-120.106	-32.713	68.433	196.306	-123.152	219.269	0.00018574	0.0003458	0.00017596	1350.4	3.2791e-06	8.0724e-06	1379.3	361.01	8.5155e-07	6.5605e-06	405.33	138.98	114.18	37.88	4.8809e-06	49.126	0.00053806	0.00053506	0.00015549	1341.2	5.951e-06	5.9951e-06	1377.9	364.58	5.9497e-06	5.8603e-06	407.19	140.33	116.29	38.556	5.8186e-06	50.014	-57.017	-112.778	-7.572	-119.261	-34.783	19.956	-118.969	-114.628	223.013	89.472	-114.639	-110.449	-108.921	-104.046	21.547	-104.912	-8191	255	
914.794	1	1	0	0	0.11397	0.13715	0.28468	0.048167	0.20758	0.23831	0.098366	0.16803	0.39073	0.14694	0.05464	0.10393	0.1724	0.04535	0.26064	0.12166	-1.9521	-2.65	-2.0458	-2.8771	-2.4417	-2.3937	-2.7667	-2.1729	-2.3812	-2.7854	-1.9958	-2.5875	-2.5146	-2.2625	-2.6771	-2.1937	105.158	111.564	116.063	-124.435	-18.451	-90.049	174.047	114.166	2.039	68.679	112.358	225.365	-70.769	-105.420	-91.693	142.634	0.00038031	0.00057148	8.8967e-05	1343.1	3.4406e-06	1.1878e-05	1384.8	362.98	2.6883e-06	2.0846e-06	407.38	139.4	114.73	38.157	3.65e-06	49.422	0.0005476	0.00054116	0.00015571	1339.8	5.9339e-06	6.1327e-06	1378.2	364.61	6.0342e-06	5.8479e-06	407.59	140.44	116.29	38.546	5.8819e-06	50.189	-91.445	-79.680	-10.551	-118.745	-58.250	-8.130	-119.450	-115.094	-13.564	-54.520	-115.073	-110.916	-109.619	-105.054	-58.672	-106.392	-8191	255	
914.890	1	1	0	0	0.098443	0.15438	0.10735	0.16924	0.18106	0.21768	0.11081	0.079553	0.21248	0.083154	0.21045	0.23114	0.10669	0.16108	0.1837	0.078104	-2.0292	-2.6375	-1.9958	-2.8042	-2.5292	-2.175	-2.7479	-2.2958	-2.2458	-2.875	-2.0083	-2.4083	-2.5312	-1.8062	-2.6229	-2.3937	104.272	188.569	-84.573	73.598	158.993	65.234	-102.676	134.773	191.428	-116.732	-33.368	195.923	-115.760	-125.516	55.450	1.075	0.00021955	0.00072034	0.00018899	1332.3	3.0612e-06	3.7678e-06	1365.4	358.39	3.5564e-06	5.4505e-06	401.68	136.13	112.49	37.376	5.1383e-06	49.178	0.00054905	0.00054144	0.00015631	1338.8	5.939e-06	6.0766e-06	1376.3	364.37	6.1086e-06	5.8742e-06	407.34	140.05	116.1	38.501	5.8502e-06	50.078	-82.390	-41.211	-31.668	-117.931	-35.593	74.378	-118.053	-113.889	-5.578	-14.465	-113.040	-108.384	-106.939	-102.659	63.643	-104.986	-8191	255	
914.987	1	1	0	0	0.15115	0.46198	0.33539	0.15259	0.13859	0.19618	0.28329	0.024362	0.17106	0.23651	0.040223	0.091625	0.18058	0.14532	0.11486	0.21168	-1.6771	-2.7604	-2.0875	-2.5271	-2.525	-1.9979	-2.9333	-2.4938	-2.0521	-2.8187	-2.0938	-2.4479	-2.5625	-2.0438	-2.5979	-2.4083	96.002	190.617	-58.504	-128.489	100.306	1.130	184.584	-24.485	68.170	121.427	-45.252	-68.545	-73.111	109.066	136.889	71.141	0.00025528	0.00040437	0.00025059	1327.6	2.9404e-06	3.9927e-06	1364.3	356.68	4.5474e-06	5.0628e-06	399.34	137.03	113.56	37.58	1.1751e-06	49.305	0.00055063	0.00054649	0.00015312	1338.4	5.9275e-06	6.1134e-06	1376.9	363.98	6.0379e-06	5.9051e-06	406.95	140.01	116.29	38.515	5.9466e-06	50.195	-90.396	-41.811	-15.247	-117.484	-46.536	20.560	-117.993	-113.509	-53.367	195.723	-113.863	-109.096	-108.345	-103.177	-0.430	-104.986	-8191	255	
915.083	1	1	0	0	0.019925	0.16912	0.1619	0.38237	0.1675	0.081331	0.1924	0.064892	0.25448	0.070152	0.13038	0.081375	0.11797	0.16201	0.21417	0.024736	-1.6646	-2.4875	-2.1479	-2.5438	-2.6729	-2.0958	-2.8854	-2.5563	-2.0792	-2.8646	-2.2375	-2.4125	-2.5667	-2.0771	-2.5438	-2.6562	-49.036	-125.047	42.930	219.970	14.684	148.221	187.575	49.579	-26.378	-6.229	92.340	-95.792	48.208	61.916	-89.051	-86.969	0.00034161	0.00033336	0.00016483	1336.5	2.6197e-06	8.2457e-06	1359.6	357.49	4.8082e-06	5.8123e-06	402.16	136.56	112.37	37.545	5.9875e-06	48.823	0.00054609	0.00053457	0.00015511	1340.2	5.8748e-06	6.095e-06	1377	364.2	6.1115e-06	5.8433e-06	407.99	140.05	116.18	38.483	5.9636e-06	50.031	-117.797	-72.266	-44.393	-118.197	-32.897	-1.176	-117.678	-113.615	-18.893	-15.909	-112.888	-108.341	-107.634	-103.326	-27.992	-104.394	-8191	255	
915.179	1	1	0	0	0.085848	0.045834	0.086412	0.26302	0.14393	0.26979	0.19813	0.097823	0.26711	0.12829	0.35734	0.21082	0.070899	0.087124	0.36043	0.11994	-1.6812	-2.6667	-2.1646	-2.4979	-2.6417	-2.0458	-2.6229	-2.5833	-1.8708	-2.7896	-2.2979	-2.2875	-2.7438	-2.0563	-2.4083	-2.5625	207.080	50.982	148.079	145.463	-41.388	-109.659	197.875	117.245	-78.014	136.809	-67.208	-103.268	-58.097	-67.582	41.757	143.721	0.00034901	0.0005863	0.00011935	1331.3	1.9903e-06	2.9805e-06	1362.6	354.8	3.2131e-06	4.3911e-06	399.47	136.52	112.49	37.392	3.2466e-06	49.259	0.00054865	0.00053843	0.00015297	1339.2	5.9409e-06	6.0773e-06	1376.9	364.01	6.0503e-06	5.9808e-06	407.44	139.97	116.16	38.534	6.0275e-06	50.14	-96.723	-39.269	-64.652	-117.810	-16.782	2.471	-117.867	-113.059	228.720	-11.436	-113.675	-108.574	-107.829	-103.192	104.463	-105.324	-8191	255	
915.300	1	1	0	0	0.14105	0.045621	0.31668	0.14183	0.19487	0.11055	0.19754	0.21029	0.16677	0.073466	0.21855	0.087296	0.26188	0.2015	0.21233	0.035192	-1.7062	-2.6646	-2.2542	-2.3104	-2.7875	-2.1646	-2.8354	-2.6646	-2.0646	-2.5938	-2.4521	-2.1271	-2.7458	-2.1375	-2.3771	-2.6937	172.527	49.223	121.389	52.156	-14.519	158.525	24.813	96.169	14.851	35.852	-122.263	93.062	-93.230	-34.480	131.402	-107.567	0.00025808	0.00051557	0.00014005	1334	2.8347e-06	4.3931e-06	1359.1	356.67	3.7441e-06	2.2418e-06	397.64	137.54	112.73	37.538	2.7943e-06	48.856	0.00054944	0.00054845	0.0001518	1339.5	5.9758e-06	6.0466e-06	1376.9	364.43	6.0955e-06	5.8873e-06	406.47	140.26	116.27	38.512	6.0584e-06	50.045	-68.791	-36.810	3.701	-118.114	-47.326	1.486	-117.520	-113.166	-2.595	94.941	-113.141	-109.134	-107.820	-102.924	22.987	-103.891	-8191	255	
915.396	1	1	0	0	0.15109	0.19995	0.13513	0.21217	0.030952	0.19448	0.28359	0.24661	0.01849	0.064807	0.043183	0.12383	0.10097	0.24242	0.079447	0.075786	-1.4813	-2.6208	-2.3979	-2.2938	-2.8979	-2.3354	-2.4167	-2.7625	-2.0104	-2.6167	-2.6458	-1.9458	-2.5875	-2.1667	-2.3208	-2.775	-40.676	-107.925	-9.655	188.538	112.552	-6.534	182.608	-118.450	132.055	191.318	-62.667	95.390	-3.369	-88.637	-127.311	-19.054	0.00020246	0.00040224	8.0911e-05	1325.9	3.0887e-06	6.634e-07	1354	355.54	1.7676e-06	1.0147e-05	399.95	137.34	113.07	37.662	3.5401e-06	49.151	0.00054958	0.00054488	0.00015011	1338	5.9186e-06	5.9851e-06	1375.6	363.95	6.0153e-06	5.9398e-06	406.64	140.27	116.26	38.542	6.1031e-06	50.12	-84.707	-85.036	-53.513	-117.271	-67.929	-20.828	-117.223	-112.941	-116.969	1.406	-113.988	-109.149	-107.967	-103.351	-121.230	-104.917	-8191	255	
915.490	1	1	0	0	0.2784	0.32042	0.18702	0.36698	0.19713	0.25155	0.21978	0.053308	0.05314	0.21418	0.20041	0.48484	0.15038	0.12986	0.19143	0.051808	-1.5896	-2.5062	-2.6333	-2.2458	-2.7271	-2.1583	-2.4958	-2.8792	-2.3021	-2.4833	-2.6562	-1.9833	-2.7375	-2.3542	-2.0938	-2.7146	-90.122	-101.629	114.115	175.123	28.503	73.381	197.750	185.487	172.657	85.231	32.737	17.172	60.341	215.423	50.664	120.659	0.00025175	0.00058107	0.00014612	1340.9	1.9713e-06	3.4572e-06	1373.3	359.17	2.3128e-06	5.5685e-06	401.82	137.39	113.01	37.747	3.0841e-06	49.246	0.00054938	0.0005502	0.00014939	1341.2	5.9116e-06	5.9751e-06	1378.5	364.67	6.0269e-06	5.9151e-06	406.98	140.13	116.25	38.54	6.1478e-06	50.143	-66.016	-61.052	-66.149	-118.581	-69.250	-120.461	-118.683	-114.009	37.466	25.035	-114.110	-109.233	-108.385	-104.001	-22.625	-104.793	-8191	255	
915.564	1	1	0	0	0.2605	0.11954	0.18383	0.21188	0.11707	0.30826	0.15773	0.2025	0.17451	0.28333	0.24648	0.048393	0.095435	0.055904	0.34228	0.14237	-1.7146	-2.3604	-2.85	-2.3479	-2.6396	-2.7188	-2.4208	-2.7104	-2.2812	-2.2792	-2.575	-2.0812	-2.4708	-2.7292	-2.2167	-2.9062	157.149	111.930	123.374	-60.542	183.464	91.140	151.839	-85.336	82.799	164.754	-63.260	12.922	200.475	118.128	-57.820	-116.418	0.00020513	0.00069219	0.00019661	1355.6	3.1821e-06	4.0794e-06	1388.8	363.83	1.8247e-06	7.1556e-07	410.22	140.07	115.75	38.229	1.9178e-06	49.725	0.00054642	0.00054866	0.00015318	1342.4	5.918e-06	5.8814e-06	1380.1	365.21	6.0517e-06	6.0326e-06	407.89	140.42	116.55	38.59	6.1725e-06	50.187	-79.012	-70.057	-34.626	-119.548	-36.748	2.799	-119.655	-115.249	-11.986	120.329	-115.387	-111.062	-110.155	-105.527	109.898	-106.250	-8191	255	
915.682	1	1	0	0	0.28369	0.14805	0.055227	0.22752	0.088519	0.21868	0.2836	0.18842	0.26631	0.12529	0.055009	0.034686	0.16102	0.32445	0.1967	0.11629	-1.8292	-2.2687	-2.55	-2.3604	-2.6354	-2.6146	-2.0958	-2.8271	-2.3563	-2.3917	-2.8146	-2.0417	-2.4833	-2.5354	-1.9125	-2.9458	-100.412	66.785	-104.944	162.587	198.233	159.787	-88.641	122.083	-28.604	-6.865	-20.788	168.271	206.844	-122.653	97.405	203.091	0.00023971	0.00058394	0.00011942	1350.5	1.7494e-06	2.9654e-06	1382.1	362.23	3.9796e-06	4.62e-06	411.4	140.18	116.12	38.548	1.65e-06	50.638	0.0005428	0.00055076	0.00015033	1341.4	5.9656e-06	5.8445e-06	1378.7	364.94	6.0517e-06	6.0627e-06	408	140.41	116.51	38.552	6.1694e-06	50.358	-80.552	-25.531	-21.036	-119.164	-51.559	-64.120	-119.362	-114.931	39.684	63.480	-115.225	-111.049	-110.482	-105.936	-75.080	-107.295	-8191	255	
915.779	1	1	0	0	0.11712	0.23669	0.020079	0.28804	0.12986	0.29121	0.26238	0.23811	0.13915	0.063435	0.16887	0.16673	0.094906	0.075906	0.32624	0.19644	-2.0083	-2.0667	-2.8083	-2.1542	-2.2833	-2.5229	-2.3042	-2.5958	-2.4396	-2.2812	-2.8187	-2.0687	-2.3875	-2.5729	-2.0021	-2.5958	88.866	-103.526	-82.324	222.438	-53.118	107.803	166.176	176.215	18.298	132.861	-35.069	19.971	-6.120	134.024	137.249	99.762	0.0002833	0.00035626	0.00011786	1360.9	2.6454e-06	3.8175e-06	1396.2	365.06	1.7952e-06	3.6139e-06	410.36	140.54	115.84	38.396	4.1064e-06	50.245	0.00054234	0.00055988	0.00014982	1342	6.026e-06	5.8514e-06	1380.6	365.2	5.9416e-06	6.0457e-06	407.85	140.49	116.63	38.528	6.1031e-06	50.254	-91.074	-40.907	-15.796	-119.937	-51.723	-12.978	-119.985	-115.618	-28.588	-21.869	-115.303	-111.146	-110.366	-105.593	217.738	-106.824	-8191	255	
915.875	1	1	0	0	0.14307	0.12733	0.22777	0.21028	0.14126	0.096037	0.2964	0.075467	0.37793	0.1114	0.074123	0.073615	0.12568	0.14813	0.17677	0.13514	-2.1167	-2.1292	-2.7604	-2.5187	-2.2521	-2.7396	-2.1042	-2.7521	-2.3688	-1.9896	-2.6229	-2.2771	-2.1667	-2.6583	-2.2125	-2.4437	187.139	74.179	-37.778	188.980	142.783	127.361	205.951	52.651	103.632	159.330	203.050	39.590	1.276	18.307	203.105	60.501	0.00029982	0.0004219	0.00024686	1351.1	1.6443e-06	8.3938e-06	1381.2	362.36	4.0899e-06	4.2194e-06	407.92	140.16	115.4	38.307	4.8565e-06	49.852	0.00054589	0.00055539	0.00015157	1341.5	6.0705e-06	5.9129e-06	1378.1	364.87	6.0051e-06	6.1168e-06	407.13	140.26	116.5	38.58	6.1069e-06	50.161	-107.674	-65.565	-23.276	-119.258	-33.030	-22.980	-119.237	-114.982	40.563	-16.847	-115.139	-111.068	-110.319	-105.080	-11.033	-106.477	-8191	255	
915.971	1	1	0	0	0.031297	0.12016	0.046251	0.25322	0.060088	0.048792	0.12678	0.072779	0.30716	0.40724	0.30422	0.3268	0.31258	0.17584	0.20157	0.22555	-2.1583	-2.1646	-2.8125	-2.6458	-2.2854	-2.6229	-2.3333	-2.4562	-2.5896	-2.0479	-2.6937	-2.4229	-2.2521	-2.5458	-2.2146	-2.3917	-71.201	169.745	-13.565	213.358	197.787	-103.767	108.798	-121.353	60.174	-115.206	32.605	101.446	215.460	110.883	182.239	-117.596	0.00022417	0.00072653	0.00013063	1339.3	4.5115e-06	3.3884e-06	1365.8	358.63	3.2509e-06	2.6775e-06	402.71	139.19	114.5	37.922	4.896e-06	49.375	0.00053602	0.0005542	0.00014935	1339.8	6.0387e-06	5.8122e-06	1376.9	364.38	5.9416e-06	6.0302e-06	406.75	140.42	116.41	38.505	6.036e-06	50.121	-115.274	-50.645	4.768	-118.409	-44.211	-37.688	-118.063	-113.839	34.749	11.638	-114.812	-110.575	-109.304	-104.579	12.953	-105.095	-8191	255	
916.091	1	1	0	0	0.36166	0.29001	0.22901	0.056131	0.12554	0.1853	0.15512	0.22732	0.14639	0.24614	0.16791	0.29599	0.2095	0.18354	0.14177	0.17025	-2.1188	-1.9229	-2.5042	-2.7229	-2.1021	-2.8146	-2.3688	-2.4521	-2.6896	-2.1292	-2.7938	-2.5083	-2.2479	-2.6104	-2.1917	-2.1958	-49.744	-41.998	22.127	-91.331	58.254	149.204	205.605	-60.903	208.004	-9.557	59.776	44.454	45.264	-30.398	-84.572	-16.153	0.00017961	0.00029308	5.9455e-05	1326.6	3.1889e-06	8.9577e-06	1347.9	351.38	2.1039e-06	1.7032e-06	397.99	136.07	112.25	37.159	2.6361e-06	48.387	0.00052858	0.00055981	0.00015312	1338.2	6.0857e-06	5.8268e-06	1374.8	363.47	5.8389e-06	6.0287e-06	406.44	139.95	116.12	38.434	6.0337e-06	50.046	-91.398	-77.463	-12.661	-117.377	-28.810	17.477	-116.517	-111.526	195.852	230.084	-112.554	-107.866	-107.034	-102.382	-3.362	-103.572	-8191	255	
916.163	1	1	0	0	0.26187	0.26177	0.042303	0.28777	0.22104	0.053678	0.13399	0.31098	0.33069	0.12345	0.1151	0.16811	0.26746	0.24797	0.095265	0.21348	-2.1688	-2.0438	-2.4771	-2.6604	-2.1854	-2.8125	-2.6396	-2.2625	-2.7417	-2.1125	-2.5917	-2.5563	-2.125	-2.5458	-2.225	-2.2208	20.905	-92.905	-27.312	172.513	-5.163	-50.696	97.155	217.430	-44.966	216.866	-64.365	78.564	185.280	219.952	94.494	-101.013	0.0002036	0.0004709	0.00019956	1328.2	2.6558e-06	5.6809e-06	1353.6	355.42	2.5111e-06	6.9915e-06	406.06	138.73	114.05	37.914	3.6608e-06	49.468	0.00053654	0.00055742	0.00015027	1339	6.0425e-06	5.8345e-06	1375.8	364.1	5.8411e-06	5.9939e-06	406.83	140.21	116.25	38.528	6.0114e-06	50.17	-107.531	-50.843	-12.707	-117.499	-36.929	58.575	-117.145	-112.893	18.398	-49.520	-114.638	-110.136	-109.126	-104.223	2.516	-105.826	-8191	255	
916.259	1	1	0	0	0.29805	0.046212	0.14987	0.12335	0.17537	0.10717	0.030134	0.082747	0.21362	0.14604	0.30044	0.37114	0.20457	0.10418	0.18882	0.075691	-2.1875	-2.0458	-2.4479	-2.7229	-2.0604	-2.5354	-2.5104	-2.2396	-2.8083	-2.1771	-2.4062	-2.8208	-2.0479	-2.6792	-2.4437	-2.1562	75.391	139.870	136.977	172.564	-12.040	176.402	77.602	27.874	177.076	90.371	-92.765	100.664	147.621	-1.193	-49.862	227.705	0.00023142	0.00055901	0.00016525	1340.1	2.5006e-06	4.8698e-06	1361.9	356.01	1.7909e-06	4.7915e-06	398.95	137.66	113	37.799	6.8054e-06	49.512	0.00053799	0.00055511	0.00015009	1340.2	6.0889e-06	5.8191e-06	1376.5	364.07	5.8163e-06	6.0248e-06	407.08	140.11	116.28	38.518	5.9296e-06	50.203	-93.926	-74.007	-47.602	-118.539	-64.559	-104.862	-117.717	-113.285	-81.879	21.059	-113.710	-109.450	-108.003	-103.886	70.998	-105.420	-8191	255	
916.380	1	1	0	0	0.26306	0.10385	0.16372	0.12068	0.21187	0.073822	0.063769	0.27346	0.16928	0.1609	0.11233	0.13851	0.1478	0.14214	0.12816	0.082205	-2.5125	-2.025	-2.375	-3.0312	-2.05	-2.5271	-2.6813	-2.2062	-2.7062	-2.175	-2.2833	-2.6063	-2.1417	-2.5833	-2.5479	-2.1979	18.247	-74.277	-67.282	147.626	-58.852	200.594	225.628	23.299	-15.415	45.804	-116.535	154.222	-115.061	-115.070	65.227	81.991	0.00030365	0.00048841	0.00015964	1335.4	4.5279e-06	3.6865e-06	1365.7	356.24	2.8801e-06	4.3396e-06	408.23	138.54	114.04	37.907	6.459e-06	49.388	0.00053582	0.0005535	0.00015252	1339.4	6.0273e-06	5.9805e-06	1376.8	364	5.9402e-06	6.0665e-06	408.27	140.17	116.21	38.469	5.9697e-06	50.208	-90.235	-48.175	-35.872	-118.078	-50.833	20.882	-118.110	-113.626	-27.536	6.220	-115.060	-110.127	-109.168	-104.507	-0.731	-105.101	-8191	255	
916.476	1	1	0	0	0.25571	0.13563	0.21477	0.32837	0.34707	0.21926	0.39866	0.32901	0.18239	0.23636	0.092448	0.13331	0.15613	0.21172	0.056295	0.077287	-2.3771	-2.2875	-2.2521	-3.0292	-2.0875	-2.6771	-2.7917	-2.1271	-2.7708	-2.4229	-2.1604	-2.8479	-2.1396	-2.4062	-2.8042	-2.0542	80.096	-71.065	-89.311	149.853	86.691	201.503	169.078	-95.140	-116.854	-66.476	-129.578	75.709	211.299	78.797	2.726	-95.472	0.00023756	0.00048954	0.00015911	1337.8	2.2661e-06	2.3664e-06	1375.1	359.46	2.735e-06	7.6046e-06	407.85	138.9	114.14	37.748	6.0113e-06	49.445	0.00053365	0.00055069	0.00015338	1339.7	6.0311e-06	5.9221e-06	1377.3	364.43	5.8775e-06	5.9692e-06	407.66	140.3	116.3	38.481	5.8934e-06	50.179	-101.012	-53.167	-14.974	-118.280	-33.465	77.762	-118.631	-114.461	-36.344	34.139	-114.310	-110.049	-109.229	-104.032	-5.633	-105.533	-8191	255	
916.570	1	1	0	0	0.21723	0.026423	0.23817	0.29905	0.29234	0.087181	0.1557	0.19576	0.098581	0.031212	0.087036	0.31107	0.13546	0.35726	0.17751	0.42424	-2.2854	-2.3292	-2.1458	-2.9813	-2.1042	-2.325	-2.7458	-2.0333	-2.6417	-2.5021	-2.1583	-2.8729	-2.3125	-2.2062	-2.6042	-1.9625	19.809	79.486	172.287	146.551	129.654	-112.272	165.320	109.750	197.899	126.112	69.728	15.160	173.986	-100.619	120.377	70.230	0.00030877	0.00071001	0.00012679	1345.4	2.2894e-06	6.2661e-06	1372.9	358.98	5.8674e-06	3.4125e-06	406.71	137.98	114.31	37.914	5.5385e-06	49.369	0.00053904	0.00055245	0.00015382	1340.2	6.0845e-06	5.9505e-06	1377.4	364.29	5.9067e-06	5.8896e-06	406.93	140.21	116.38	38.536	5.9821e-06	50.205	-104.137	-49.863	-37.302	-118.808	-39.409	-13.277	-118.626	-114.197	-6.042	94.933	-114.482	-109.737	-108.961	-104.331	19.921	-105.331	-8191	255	
916.668	1	1	0	0	0.22532	0.40521	0.32002	0.27372	0.22361	0.15755	0.099086	0.21336	0.14801	0.10249	0.029608	0.057332	0.13601	0.11263	0.14261	0.2357	-2.25	-2.2917	-1.8833	-2.9062	-2.1292	-2.2833	-2.9813	-2.0312	-2.5312	-2.7542	-2.0958	-2.8438	-2.2083	-2.1354	-2.6583	-2.125	-86.680	70.882	204.244	123.217	-127.162	53.915	-117.340	-6.284	-17.741	13.481	-13.575	203.174	126.470	167.494	-115.834	218.420	0.0001593	0.00070533	0.00013728	1347.6	3.7056e-06	4.6648e-06	1375	360.38	4.6946e-06	3.4915e-06	405.78	138.16	113.71	38.123	4.346e-06	49.029	0.00054115	0.0005413	0.00015518	1340.2	6.1029e-06	6.0873e-06	1377.6	364.52	5.9591e-06	5.9769e-06	407.34	140.14	116.24	38.526	5.8487e-06	50.11	-71.630	-48.900	-57.195	-118.931	-59.228	-47.236	-118.595	-114.483	-28.349	-2.198	-114.278	-109.669	-108.642	-104.243	37.415	-105.654	-8191	255	
916.787	1	1	0	0	0.075585	0.22459	0.20052	0.0075696	0.029745	0.21375	0.057817	0.11623	0.14406	0.1707	0.38213	0.064479	0.03894	0.023805	0.16901	0.14518	-2.1229	-2.6396	-2.175	-2.8563	-2.1708	-2.05	-2.8208	-2.0521	-2.3812	-2.5167	-2.0083	-2.5438	-2.2	-2.0854	-2.7687	-1.9896	-54.221	-80.577	-48.351	-22.094	200.309	-77.457	57.824	71.480	146.706	-49.636	-109.878	193.897	-49.269	-69.210	45.311	158.683	0.00037203	0.00057741	0.00013088	1338.8	1.9914e-06	2.869e-06	1370.7	356.9	1.0744e-06	2.0688e-06	402.82	137.58	113.88	38.023	6.0484e-06	49.583	0.0005428	0.00054214	0.00015565	1339.5	6.0406e-06	6.0927e-06	1377	363.96	5.9416e-06	5.8981e-06	406.3	139.94	116.22	38.554	5.9327e-06	50.158	-88.739	-23.748	-1.817	-118.405	-31.493	34.222	-118.428	-113.442	136.168	126.125	-114.193	-109.579	-108.846	-104.040	51.098	-105.838	-8191	255	
916.859	1	1	0	0	0.1678	0.038372	0.059996	0.21967	0.14817	0.010099	0.17491	0.090431	0.17031	0.19411	0.12813	0.17967	0.18983	0.058865	0.1525	0.17051	-2.0687	-2.5979	-2.0563	-2.7833	-2.4813	-2.025	-3.0333	-2.1083	-2.2438	-2.6646	-2.0708	-2.5312	-2.3333	-1.9896	-2.7146	-2.2167	-123.844	49.184	-3.309	201.601	23.309	-45.331	105.835	-47.411	56.467	199.013	-32.480	8.482	-51.672	-92.866	-101.242	188.102	0.00026941	0.0004365	8.7814e-05	1336.6	3.6365e-06	1.2752e-05	1365.8	356.91	3.0325e-06	6.2696e-06	405.19	139.1	114.56	37.751	3.829e-06	48.946	0.00054911	0.00054137	0.00015565	1339.7	6.0247e-06	6.0474e-06	1376.5	363.9	6e-06	6.014e-06	407.9	140.36	116.38	38.495	5.8263e-06	50.073	-119.057	-84.815	-74.788	-118.229	-52.509	-29.007	-118.126	-113.755	-73.161	67.996	-114.508	-110.327	-109.166	-104.385	-25.309	-105.245	-8191	255	
916.980	1	1	0	0	0.18724	0.3586	0.069869	0.29347	0.063767	0.11286	0.12388	0.32316	0.12675	0.20875	0.069128	0.061601	0.1682	0.30275	0.15637	0.23136	-1.7792	-2.6542	-2.2021	-2.6979	-2.6042	-2.1583	-2.8937	-2.4313	-2.2833	-2.8271	-2.1396	-2.4958	-2.5708	-2.0167	-2.7646	-2.2125	136.541	124.877	172.644	92.512	70.809	0.064	-89.083	165.018	-44.271	-45.064	-13.908	53.556	126.094	28.724	34.269	172.102	0.00025748	0.00047929	0.00014043	1339	3.6713e-06	2.7498e-06	1368.7	357.32	2.3403e-06	3.4135e-06	408.29	138.43	114.06	37.786	2.4335e-06	49.717	0.00054622	0.0005413	0.00015444	1339.7	5.9688e-06	5.9782e-06	1376.8	364.06	6.0043e-06	5.8224e-06	407.52	140.16	116.24	38.478	5.8965e-06	50.118	-81.155	-63.979	-36.999	-118.354	-44.462	51.660	-118.327	-113.815	-1.649	23.523	-114.771	-110.153	-108.946	-104.387	89.739	-106.264	-8191	255	
917.076	1	1	0	0	0.30478	0.11487	0.26104	0.20745	0.092146	0.16313	0.039297	0.085328	0.17789	0.20267	0.096162	0.25189	0.21748	0.095951	0.17928	0.096873	-1.7417	-2.6708	-1.975	-2.5396	-2.6854	-2.1042	-2.9188	-2.5271	-2.0375	-2.9021	-2.1063	-2.2958	-2.6167	-1.8604	-2.5729	-2.5167	-24.522	-99.171	93.874	201.303	224.802	-13.330	199.854	5.888	127.836	24.614	18.686	77.846	-118.961	190.643	184.106	67.163	0.00014912	0.0006863	0.00022595	1341.9	2.4858e-06	8.5118e-06	1374.2	360.51	3.9864e-06	1.8776e-06	404.66	138.01	114.25	37.945	1.7264e-06	49.6	0.00055181	0.0005373	0.00015328	1340.1	5.9383e-06	6.1211e-06	1378.5	364.59	6.0685e-06	5.9089e-06	407.92	140.29	116.43	38.589	5.9458e-06	50.148	-94.616	-64.314	-41.713	-118.594	-44.379	87.179	-118.559	-114.455	-23.858	21.974	-113.751	-109.596	-108.681	-104.189	7.879	-105.810	-8191	255	
917.172	1	1	0	0	0.30975	0.091337	0.23866	0.40959	0.084871	0.25752	0.24641	0.12722	0.075026	0.28759	0.20409	0.1061	0.20146	0.32734	0.29865	0.20067	-1.7604	-2.7708	-2.0458	-2.4958	-2.6396	-2.0062	-2.725	-2.5083	-2.15	-2.8	-2.2458	-2.1937	-2.6458	-1.8563	-2.5229	-2.5667	120.371	124.962	62.255	186.947	-73.006	180.142	89.379	-15.090	190.486	195.644	-73.017	-85.161	26.843	-129.479	-78.959	39.396	0.0002019	0.00062027	0.00013687	1337.4	3.3212e-06	4.8819e-06	1370.2	358.95	4.8496e-06	2.8885e-06	404.29	138.27	114.79	38.197	1.7541e-06	49.377	0.00055346	0.00053597	0.00015546	1340.2	5.8932e-06	6.145e-06	1377.2	364.27	6.094e-06	5.8549e-06	407.26	140.1	116.39	38.557	5.9798e-06	50.148	-94.062	-6.553	-29.972	-118.217	-50.180	5.104	-118.492	-114.084	-0.704	54.089	-114.246	-110.148	-109.479	-105.437	17.871	-105.554	-8191	255	
917.268	1	1	0	0	0.20686	0.22416	0.16013	0.11222	0.25016	0.18928	0.060885	0.11445	0.039315	0.26454	0.26926	0.075986	0.33526	0.19572	0.19383	0.27102	-1.5583	-2.8229	-2.1875	-2.5687	-2.8396	-2.0958	-2.4771	-2.6688	-1.9896	-2.6604	-2.3063	-2.0125	-2.5938	-2.1833	-2.4958	-2.7771	-60.298	-87.757	181.107	216.029	221.398	166.833	-123.537	-52.281	140.207	56.497	-86.758	174.543	-7.273	-107.051	-38.505	33.963	0.00029772	0.0001314	0.00015898	1336.2	3.8009e-06	8.1966e-06	1367.2	358.76	2.2978e-06	4.4206e-06	402.59	138.77	114.43	38.149	6.9858e-06	49.797	0.0005528	0.00054312	0.0001526	1339.4	5.8849e-06	6.0366e-06	1376.5	364.31	6.0998e-06	5.8618e-06	407.2	140.3	116.35	38.531	6.0083e-06	50.099	-87.129	-64.697	-31.454	-118.248	-28.924	-2.513	-118.369	-114.099	-28.025	92.024	-114.287	-110.230	-109.149	-104.661	38.092	-106.174	-8191	255	
917.364	1	1	0	0	0.13137	0.14942	0.19338	0.041964	0.080892	0.3314	0.30555	0.16232	0.2329	0.10254	0.28142	0.11812	0.23198	0.21085	0.13759	0.1029	-1.6104	-2.6333	-2.4396	-2.2917	-2.6417	-2.1146	-2.5375	-2.6021	-2.0958	-2.5417	-2.5687	-2.0312	-2.7375	-2.0563	-2.0792	-2.5979	-13.321	44.687	-16.289	-128.844	201.212	34.215	51.232	68.617	124.583	-91.457	-38.351	-132.889	224.943	-66.918	165.644	160.550	0.00025155	0.00051473	0.00010799	1353.1	2.5369e-06	1.393e-05	1389.2	363.78	1.573e-06	3.4992e-06	406.16	140.01	115.24	38.083	4.6168e-06	50.866	0.00054879	0.00053871	0.00015237	1341.2	5.9256e-06	5.9997e-06	1379.2	365.04	6.1567e-06	5.9723e-06	407.49	140.26	116.53	38.584	6.1193e-06	50.235	-92.191	-29.567	-40.174	-119.348	-66.070	-34.959	-119.681	-115.159	-17.942	182.337	-115.199	-111.262	-109.826	-105.815	-26.537	-107.923	-8191	255	
917.460	1	1	0	0	0.020969	0.19244	0.16342	0.11187	0.17181	0.34588	0.15549	0.2926	0.10196	0.1903	0.073028	0.1758	0.23153	0.056081	0.29476	0.14242	-1.6458	-2.5646	-2.4521	-2.3729	-2.6417	-2.2562	-2.5833	-2.725	-2.0521	-2.4271	-2.5208	-2.0938	-2.5729	-2.1396	-2.2062	-2.7979	70.828	130.936	154.689	129.255	68.639	-86.790	122.741	-65.137	7.268	199.654	-17.328	116.484	-66.682	-86.068	97.562	116.681	0.00025477	0.00067811	0.00014786	1372.1	3.25e-06	7.9343e-06	1403.2	366.83	2.4457e-06	2.9671e-06	414.35	140.97	116.55	38.552	3.5385e-06	50.523	0.00055484	0.00055357	0.00014994	1343.2	5.9663e-06	6.0481e-06	1380.8	365.22	6.1217e-06	5.9653e-06	407.32	140.55	116.6	38.589	6.1362e-06	50.233	-43.880	-58.678	-32.500	-120.607	-45.666	-6.542	-120.500	-115.901	-44.285	-5.027	-116.227	-111.722	-110.959	-105.890	7.556	-107.159	-8191	255	
917.556	1	1	0	0	0.18557	0.19469	0.033041	0.31097	0.29847	0.18726	0.14491	0.25633	0.16264	0.20932	0.14334	0.028632	0.22005	0.020321	0.23812	0.075153	-1.7687	-2.5792	-2.5771	-2.1771	-2.7875	-2.3333	-2.5208	-2.7167	-1.9333	-2.3771	-2.475	-2.1125	-2.6625	-2.4417	-2.1125	-2.7208	105.514	55.726	98.428	187.847	194.673	219.400	-81.940	141.749	75.666	204.393	62.113	117.971	-47.088	122.051	134.178	-41.915	0.00026956	0.00057744	0.00017754	1366.2	3.9316e-06	6.2551e-06	1399.1	366.15	5.3233e-06	7.2574e-06	410.97	140.76	115.97	38.571	3.9863e-06	50.487	0.0005451	0.00054677	0.00015042	1342.4	5.9358e-06	6.0635e-06	1381	365.28	6.0962e-06	6.0217e-06	407.76	140.5	116.59	38.524	6.0915e-06	50.207	-72.126	-43.267	-39.405	-120.262	-39.479	16.038	-120.248	-115.765	-10.448	41.341	-115.374	-111.474	-110.573	-105.943	13.828	-107.150	-8191	255	
917.653	1	1	0	0	0.25161	0.067992	0.096637	0.25295	0.16572	0.065504	0.032494	0.12537	0.14608	0.13176	0.074393	0.25095	0.17183	0.29862	0.24539	0.26952	-1.6792	-2.3792	-2.7562	-2.3563	-2.7	-2.4875	-2.1708	-2.9167	-2.1729	-2.3083	-2.7417	-2.1333	-2.5792	-2.4146	-2.1979	-2.7208	-46.157	-117.918	147.951	204.925	163.179	-111.376	170.145	-63.173	-20.196	-88.909	181.270	-129.009	210.687	-118.720	175.599	35.899	0.00022746	0.00063754	9.8517e-05	1352.7	3.0452e-06	2.1937e-06	1387.1	363.78	2.3349e-06	4.8722e-06	410.02	139.61	116.35	38.415	1.4879e-06	49.999	0.00055254	0.00055315	0.00015	1341.9	5.9599e-06	5.8767e-06	1379.5	364.91	6.0422e-06	6.0627e-06	407.53	140.39	116.64	38.571	6.1609e-06	50.21	-85.952	-43.369	-22.767	-119.290	-63.881	43.479	-119.558	-115.295	12.518	13.803	-115.854	-111.007	-110.563	-105.112	210.206	-106.618	-8191	255	
917.749	1	1	0	0	0.1504	0.053872	0.0917	0.35028	0.13783	0.19042	0.087672	0.049287	0.14091	0.15182	0.26706	0.042425	0.10206	0.20769	0.18743	0.083101	-1.7	-2.3292	-2.6604	-2.3521	-2.7542	-2.7125	-2.2208	-2.8667	-2.2083	-2.2896	-2.7771	-2.0521	-2.5146	-2.4437	-2.0417	-2.6937	-30.351	129.594	144.075	199.199	-56.988	-100.056	-114.702	0.497	-105.313	-115.575	-46.664	35.084	130.892	166.784	-84.301	87.040	0.00033451	0.0005349	0.00019482	1375	3.603e-06	5.5835e-06	1400.1	366.2	2.7541e-06	5.2392e-06	412.55	140.46	115.43	38.158	4.2032e-06	50.103	0.00054661	0.00056458	0.00014904	1344.4	6.0139e-06	5.906e-06	1381.9	365.59	6.0357e-06	6.0094e-06	408.17	140.6	116.58	38.563	6.0884e-06	50.218	-88.990	-53.499	-47.367	-120.585	-66.955	28.067	-120.217	-115.607	-17.685	13.614	-115.909	-111.160	-110.067	-105.255	51.070	-106.622	-8191	255	
917.868	1	1	0	0	0.040253	0.22384	0.18765	0.28736	0.14824	0.061234	0.15286	0.10661	0.18419	0.064968	0.19127	0.15008	0.068507	0.36662	0.40123	0.073887	-1.9062	-2.1458	-2.6958	-2.2438	-2.4583	-2.6833	-2.1833	-2.5854	-2.375	-2.3208	-2.5979	-2.1167	-2.2313	-2.7083	-1.8125	-2.7062	84.624	16.890	207.472	196.694	-35.703	138.191	164.282	69.977	94.884	86.330	-67.502	-40.769	-127.779	31.550	-41.190	-81.313	0.00020823	0.00018304	0.0001827	1353.5	2.3214e-06	4.0022e-06	1391.7	364.82	1.4432e-06	4.9115e-06	414.17	141.56	116.83	38.737	2.9796e-06	50.552	0.00054115	0.00055504	0.00015108	1342	6.0108e-06	5.9021e-06	1380.5	365.34	5.9621e-06	6.1253e-06	407.28	140.56	116.79	38.618	6.0653e-06	50.312	-107.481	7.930	-34.558	-119.303	-33.360	2.073	-119.812	-115.344	-62.438	26.693	-116.329	-111.651	-110.992	-106.149	10.158	-107.687	-8191	255	
917.964	1	1	0	0	0.045265	0.14433	0.11535	0.39297	0.1007	0.072244	0.11367	0.14392	0.26603	0.038888	0.23804	0.1363	0.074319	0.23434	0.11455	0.076509	-1.9917	-1.9583	-2.6625	-2.5125	-2.25	-2.6479	-2.0833	-2.5812	-2.4292	-2.2646	-2.6833	-2.1479	-2.4083	-2.6375	-1.9667	-2.5333	147.946	195.762	196.819	168.940	-102.420	-51.002	-115.792	222.922	203.539	-109.064	-122.341	206.881	167.944	88.111	115.579	118.495	0.00027894	0.00083579	5.2297e-05	1358.3	2.6341e-06	2.5061e-06	1392.6	368.03	1.0571e-06	7.1522e-06	414.24	141.71	116.56	38.205	5.6959e-06	50.199	0.0005397	0.00055266	0.00015015	1343.1	6e-06	5.9267e-06	1380.3	365.35	5.957e-06	6.075e-06	407.2	140.56	116.66	38.522	6.1e-06	50.293	-110.605	-55.000	-35.600	-119.671	-47.807	-47.503	-119.830	-116.052	-115.194	-23.687	-116.539	-111.749	-110.847	-105.545	35.429	-106.696	-8191	255	
918.060	1	1	0	0	0.16492	0.24831	0.020206	0.3805	0.021377	0.12287	0.045463	0.22649	0.10626	0.12286	0.16299	0.15162	0.1388	0.14479	0.19163	0.29191	-2.3458	-2.1354	-2.7583	-2.5187	-2.0958	-2.8312	-1.9958	-2.6271	-2.4313	-1.9896	-2.7521	-2.1958	-2.2021	-2.8812	-2.1625	-2.3063	10.559	145.809	72.279	155.366	107.827	-96.429	139.086	205.183	-50.331	80.382	203.186	-99.913	191.572	-44.304	-20.764	125.273	0.00031529	0.00045421	8.3736e-05	1355.3	3.1651e-06	8.4168e-06	1393	364.94	4.2283e-06	6.2178e-06	412.26	140.54	116.63	38.915	3.6314e-06	50.322	0.00053562	0.00055995	0.00015128	1343.1	6.0381e-06	5.8045e-06	1380.2	365.56	5.9446e-06	6.1098e-06	407.85	140.52	116.73	38.664	6.1247e-06	50.284	-103.981	-87.198	-61.396	-119.409	-50.753	25.092	-119.955	-115.520	-23.151	20.760	-116.332	-111.377	-110.905	-106.342	-35.899	-107.562	-8191	255	
918.156	1	1	0	0	0.20116	0.13967	0.075572	0.054483	0.17724	0.16001	0.16945	0.1378	0.13371	0.13282	0.26349	0.32799	0.28922	0.078354	0.12523	0.30696	-2.2292	-2.1688	-2.7646	-2.6354	-2.2083	-2.7313	-2.3167	-2.4188	-2.7313	-2.2833	-2.5729	-2.4813	-2.0917	-2.7313	-2.2021	-2.4333	-14.625	-91.704	168.343	194.781	79.317	-80.965	-69.034	37.695	183.909	165.718	-49.441	14.810	208.363	-17.513	142.292	-36.440	0.00025049	0.00045539	0.00017455	1361.3	2.5791e-06	3.7751e-06	1394.7	363.71	1.8677e-06	3.598e-06	409.62	139.92	115.74	38.709	1.3204e-06	50.775	0.00054332	0.00056135	0.00015025	1343.4	6.0718e-06	5.8767e-06	1380.8	365.17	5.8046e-06	6.0774e-06	406.68	140.53	116.7	38.572	6.0699e-06	50.34	-82.286	-67.093	-54.743	-119.769	-40.672	50.293	-119.936	-115.398	-1.314	-3.874	-115.686	-110.711	-110.363	-106.150	-64.717	-107.364	-8191	255	
918.252	1	1	0	0	0.19167	0.15204	0.056976	0.16848	0.16261	0.22563	0.10071	0.16221	0.10873	0.15027	0.13747	0.080212	0.19061	0.097096	0.27243	0.13149	-2.5062	-2.3104	-2.45	-2.6188	-2.1437	-2.6146	-2.5542	-2.2979	-2.5729	-2.1562	-2.6771	-2.4479	-2.1021	-2.6021	-2.375	-1.9729	-75.874	-107.487	123.650	-127.890	204.295	214.676	210.728	34.269	92.812	-93.241	16.408	22.353	-71.454	37.775	174.467	157.135	0.00027644	0.00040041	0.00014397	1365.1	3.5791e-06	5.6953e-06	1389.3	362.83	5.8204e-06	2.6598e-06	410.56	140.88	115.48	38.536	4.9208e-06	50.002	0.00054089	0.00055756	0.00015124	1343.7	6.0927e-06	5.8606e-06	1380	365.16	5.8811e-06	6.0596e-06	408.41	140.48	116.56	38.567	6.0098e-06	50.282	-107.791	-14.228	-18.458	-120.019	-44.405	26.277	-119.546	-115.298	-17.129	-15.149	-115.336	-111.335	-110.555	-105.750	57.414	-107.624	-8191	255	
918.348	1	1	0	0	0.22672	0.12851	0.076658	0.41827	0.10679	0.13921	0.19916	0.25103	0.17723	0.18066	0.20365	0.24539	0.13667	0.12628	0.18588	0.14962	-2.3812	-2.175	-2.3708	-2.95	-2.2271	-2.6958	-2.4917	-2.1417	-2.4313	-2.4062	-2.3104	-2.5375	-2.0979	-2.7375	-2.5083	-2.1458	192.835	21.523	-19.793	175.242	202.478	24.161	172.820	-60.060	62.130	192.428	199.596	-95.202	-19.179	-0.182	133.314	40.968	0.00030399	0.0007493	0.00018203	1368.3	2.6592e-06	2.3399e-06	1383.6	364.26	5.0365e-06	6.3852e-06	411.06	141.45	116.95	38.713	4.7738e-06	50.574	0.00053635	0.000557	0.00015021	1344.1	6.0241e-06	5.9413e-06	1379.4	365.11	5.8826e-06	6.1106e-06	407.8	140.49	116.68	38.595	5.9636e-06	50.431	-90.424	-77.681	-26.537	-120.208	-35.504	216.647	-119.219	-115.361	-30.924	35.016	-116.432	-111.767	-111.326	-106.452	-4.139	-107.493	-8191	255	
918.469	1	1	0	0	0.22709	0.14133	0.07547	0.29811	0.1437	0.17705	0.376	0.13384	0.089032	0.30503	0.031666	0.34787	0.16263	0.020931	0.20181	0.23448	-2.3104	-2.0687	-2.2521	-2.9771	-2.0604	-2.7104	-2.7271	-2.1937	-2.6896	-2.2083	-2.3604	-2.6104	-2.0312	-2.6688	-2.5833	-1.9312	169.011	212.849	-16.023	184.788	41.828	172.329	162.384	-66.943	120.417	19.766	17.249	74.832	222.919	92.050	-55.049	29.933	0.00015722	0.00070419	0.00015079	1368.3	2.7802e-06	3.8413e-06	1389.3	363.91	4.6085e-06	7.5607e-06	407.37	141.17	116.77	38.469	2.254e-06	50.448	0.00052996	0.0005542	0.00015285	1343	6.0915e-06	5.896e-06	1379.2	364.88	5.8505e-06	6.0488e-06	407.4	140.35	116.59	38.517	5.8811e-06	50.265	-86.874	-54.648	-36.649	-120.235	-40.218	-9.081	-119.650	-115.377	16.755	39.780	-115.700	-111.615	-111.254	-106.498	57.023	-107.530	-8191	255	
918.563	1	1	0	0	0.20959	0.061256	0.15698	0.099058	0.091815	0.0091427	0.21019	0.14834	0.138	0.22474	0.20448	0.15087	0.16334	0.055158	0.027523	0.06825	-2.2292	-2.0896	-2.325	-2.8208	-2.1667	-2.5292	-2.5042	-2.075	-2.7083	-2.3354	-2.225	-2.8	-2.0125	-2.4313	-2.6	-2.0521	-56.501	52.210	174.647	-114.087	-22.080	224.674	197.326	153.143	-89.237	-118.448	125.229	56.224	95.648	200.697	162.738	-112.412	0.00031757	0.00051501	0.00010699	1357.5	3.4443e-06	2.2789e-06	1386.5	366.35	3.9727e-06	6.4243e-06	415.02	140.58	115.98	38.36	2.921e-06	50.206	0.00053055	0.00054354	0.00015273	1342.2	6.0375e-06	5.9344e-06	1378.6	365.18	5.9212e-06	6.0434e-06	408.91	140.35	116.62	38.444	5.8695e-06	50.171	-94.952	-74.333	2.382	-119.574	-33.407	72.381	-119.459	-116.001	-32.042	-4.736	-115.963	-111.404	-110.506	-106.227	4.930	-107.497	-8191	255	
918.661	1	1	0	0	0.13418	0.040499	0.31914	0.15288	0.28024	0.20493	0.3129	0.11951	0.22772	0.23712	0.084414	0.12323	0.16967	0.17266	0.090242	0.045849	-2.3292	-2.3354	-2.1854	-2.9729	-2.0604	-2.475	-2.8542	-2.1042	-2.7146	-2.4813	-2.2146	-2.7208	-2.3063	-2.375	-2.6083	-1.9104	-31.517	-111.887	-44.366	195.399	22.365	146.999	106.915	224.220	-67.515	116.549	45.482	62.008	112.693	176.849	-27.595	-58.339	0.00013954	0.00059826	0.00015214	1378	3.7985e-06	3.9907e-06	1409.2	369.1	2.8348e-06	1.8644e-06	418.97	142.21	117.21	38.917	7.7091e-06	50.55	0.00052924	0.0005448	0.00015415	1344.2	6.0737e-06	5.9359e-06	1380.5	365.21	5.9438e-06	5.9707e-06	408.7	140.45	116.68	38.559	5.8395e-06	50.241	-121.957	-96.500	-37.410	-120.798	-64.295	-33.545	-120.825	-116.553	-1.856	-113.868	-116.856	-112.253	-111.307	-106.528	21.180	-107.834	-8191	255	
918.756	1	1	0	0	0.11979	0.05934	0.1419	0.20668	0.02422	0.29249	0.38104	0.059804	0.13854	0.22953	0.20596	0.062691	0.11351	0.4066	0.2432	0.13423	-2.0792	-2.3271	-2.0479	-3.0458	-2.0958	-2.2958	-2.8292	-2.0312	-2.55	-2.5125	-2.1354	-2.8	-2.1771	-2.3271	-2.6604	-2.1625	154.201	-132.560	58.744	152.079	49.443	108.784	211.759	101.483	-62.157	77.897	173.338	13.320	70.350	213.007	-101.233	187.124	0.00034551	0.00056899	9.5701e-05	1376.2	2.988e-06	5.6373e-06	1407.5	368.97	4.6567e-07	7.778e-06	415.86	142.23	117.37	38.975	6.8055e-06	50.674	0.0005295	0.00054403	0.00015406	1344.7	6.0298e-06	6.0166e-06	1381.2	365.43	5.876e-06	5.9205e-06	409.44	140.6	116.72	38.589	5.767e-06	50.166	-90.465	-76.787	-54.510	-120.637	-28.553	-13.225	-120.748	-116.412	19.941	-24.668	-116.735	-112.201	-111.338	-106.617	-67.311	-107.541	-8191	255	
#DATA ENDS
