BOXY.EXE: ISS Imagent and Oximeter Data Acquisition Program Version 0.80
Ascii Record File

#ACQ INFORMATION
2  Detector Channels 
16  External MUX Channels 
1  Auxiliary Channels 
5000  Waveform (CCF) Frequency (Hz)
1  Waveforms Skipped 
30  Waveforms Averaged 
1  Cycles Averaged 
16  Acquisitions per Waveform 
10.0806  Updata Rate (Hz) 

#FILE INFORMATION
TRUE -- External MUX Channel results are PARSED.
FALSE -- AC DC and Phase are NOT grouped.
TRUE -- Companion Program Settings File CREATED.
FALSE -- AC data not excluded
FALSE -- DC data not excluded
FALSE -- Phase data not excluded
FALSE -- Auxillary Chn. data not excluded
Tab delimiters

#CALIBRATION STATE
TRUE -- Waveform Calibration Values APPLIED.


#AUX CALIBRATION VALUES
Val Type	aux-1	

Term	1.0000e+00	
Factor	0.0000e+00	


#WF CALIBRATION VALUES
A = Detector Channel
Val Type	A-AC1	A-AC2	A-AC3	A-AC4	A-AC5	A-AC6	A-AC7	A-AC8	A-AC9	A-AC10	A-AC11	A-AC12	A-AC13	A-AC14	A-AC15	A-AC16	A-DC1	A-DC2	A-DC3	A-DC4	A-DC5	A-DC6	A-DC7	A-DC8	A-DC9	A-DC10	A-DC11	A-DC12	A-DC13	A-DC14	A-DC15	A-DC16	A-Ph1	A-Ph2	A-Ph3	A-Ph4	A-Ph5	A-Ph6	A-Ph7	A-Ph8	A-Ph9	A-Ph10	A-Ph11	A-Ph12	A-Ph13	A-Ph14	A-Ph15	A-Ph16	

Term	0.00000e+00	0.00000e+00	0.00000e+00	0.00000e+00	0.00000e+00	0.00000e+00	0.00000e+00	0.00000e+00	0.00000e+00	0.00000e+00	0.00000e+00	0.00000e+00	0.00000e+00	0.00000e+00	0.00000e+00	0.00000e+00	0.00000e+00	0.00000e+00	0.00000e+00	0.00000e+00	0.00000e+00	0.00000e+00	0.00000e+00	0.00000e+00	0.00000e+00	0.00000e+00	0.00000e+00	0.00000e+00	0.00000e+00	0.00000e+00	0.00000e+00	0.00000e+00	0.00000e+00	0.00000e+00	0.00000e+00	0.00000e+00	0.00000e+00	0.00000e+00	0.00000e+00	0.00000e+00	0.00000e+00	0.00000e+00	0.00000e+00	0.00000e+00	0.00000e+00	0.00000e+00	0.00000e+00	0.00000e+00	
Factor	1.00000e+00	1.00000e+00	1.00000e+00	1.00000e+00	1.00000e+00	1.00000e+00	1.00000e+00	1.00000e+00	1.00000e+00	1.00000e+00	1.00000e+00	1.00000e+00	1.00000e+00	1.00000e+00	1.00000e+00	1.00000e+00	1.00000e+00	1.00000e+00	1.00000e+00	1.00000e+00	1.00000e+00	1.00000e+00	1.00000e+00	1.00000e+00	1.00000e+00	1.00000e+00	1.00000e+00	1.00000e+00	1.00000e+00	1.00000e+00	1.00000e+00	1.00000e+00	X	X	X	X	X	X	X	X	X	X	X	X	X	X	X	X	

B = Detector Channel
Val Type	B-AC1	B-AC2	B-AC3	B-AC4	B-AC5	B-AC6	B-AC7	B-AC8	B-AC9	B-AC10	B-AC11	B-AC12	B-AC13	B-AC14	B-AC15	B-AC16	B-DC1	B-DC2	B-DC3	B-DC4	B-DC5	B-DC6	B-DC7	B-DC8	B-DC9	B-DC10	B-DC11	B-DC12	B-DC13	B-DC14	B-DC15	B-DC16	B-Ph1	B-Ph2	B-Ph3	B-Ph4	B-Ph5	B-Ph6	B-Ph7	B-Ph8	B-Ph9	B-Ph10	B-Ph11	B-Ph12	B-Ph13	B-Ph14	B-Ph15	B-Ph16	

Term	0.00000e+00	0.00000e+00	0.00000e+00	0.00000e+00	0.00000e+00	0.00000e+00	0.00000e+00	0.00000e+00	0.00000e+00	0.00000e+00	0.00000e+00	0.00000e+00	0.00000e+00	0.00000e+00	0.00000e+00	0.00000e+00	0.00000e+00	0.00000e+00	0.00000e+00	0.00000e+00	0.00000e+00	0.00000e+00	0.00000e+00	0.00000e+00	0.00000e+00	0.00000e+00	0.00000e+00	0.00000e+00	0.00000e+00	0.00000e+00	0.00000e+00	0.00000e+00	7.69092e+01	-1.57133e+02	-1.40298e+02	-1.83357e+02	-8.57923e+01	-9.61485e+01	-1.57811e+02	-1.62015e+02	-9.63076e+01	-7.94854e+01	-1.71773e+02	-1.76027e+02	-1.90442e+02	-1.78137e+02	-7.55781e+01	-1.51514e+02	
Factor	7.25629e-05	1.26310e-04	3.84968e-05	1.60158e-01	1.49291e-06	1.25563e-06	1.65719e-01	6.68398e-02	1.67473e-06	1.13955e-06	1.04063e-01	3.34377e-02	7.91682e-02	9.59968e-03	1.29691e-06	1.37347e-02	1.37806e-06	1.41268e-06	3.92199e-07	8.14832e-02	1.54144e-08	1.55321e-08	7.93246e-02	3.36794e-02	1.54806e-08	1.54730e-08	5.04826e-02	1.61872e-02	3.66616e-02	4.85886e-03	1.54390e-08	6.71243e-03	X	X	X	X	X	X	X	X	X	X	X	X	X	X	X	X	



#DISTANCE SETTINGS
A = Detector Channel
A-1	A-2	A-3	A-4	A-5	A-6	A-7	A-8	A-9	A-10	A-11	A-12	A-13	A-14	A-15	A-16	

2.5000e+00	3.0000e+00	2.5000e+00	3.0000e+00	2.0000e+00	3.0000e+00	1.5000e+00	3.0000e+00	3.0000e+00	3.0000e+00	3.0000e+00	3.0000e+00	3.0000e+00	3.0000e+00	1.5000e+00	3.0000e+00	

B = Detector Channel
B-1	B-2	B-3	B-4	B-5	B-6	B-7	B-8	B-9	B-10	B-11	B-12	B-13	B-14	B-15	B-16	

1.0000e+01	1.0000e+01	1.0000e+01	1.4400e+00	1.0000e+01	1.0000e+01	1.5100e+00	1.9400e+00	1.0000e+01	1.0000e+01	1.9900e+00	2.4900e+00	2.4100e+00	2.9000e+00	1.0000e+01	2.9800e+00	




#DATA BEGINS
time	group	step	mark	flag	A-AC1	A-AC2	A-AC3	A-AC4	A-AC5	A-AC6	A-AC7	A-AC8	A-AC9	A-AC10	A-AC11	A-AC12	A-AC13	A-AC14	A-AC15	A-AC16	A-DC1	A-DC2	A-DC3	A-DC4	A-DC5	A-DC6	A-DC7	A-DC8	A-DC9	A-DC10	A-DC11	A-DC12	A-DC13	A-DC14	A-DC15	A-DC16	A-Ph1	A-Ph2	A-Ph3	A-Ph4	A-Ph5	A-Ph6	A-Ph7	A-Ph8	A-Ph9	A-Ph10	A-Ph11	A-Ph12	A-Ph13	A-Ph14	A-Ph15	A-Ph16	B-AC1	B-AC2	B-AC3	B-AC4	B-AC5	B-AC6	B-AC7	B-AC8	B-AC9	B-AC10	B-AC11	B-AC12	B-AC13	B-AC14	B-AC15	B-AC16	B-DC1	B-DC2	B-DC3	B-DC4	B-DC5	B-DC6	B-DC7	B-DC8	B-DC9	B-DC10	B-DC11	B-DC12	B-DC13	B-DC14	B-DC15	B-DC16	B-Ph1	B-Ph2	B-Ph3	B-Ph4	B-Ph5	B-Ph6	B-Ph7	B-Ph8	B-Ph9	B-Ph10	B-Ph11	B-Ph12	B-Ph13	B-Ph14	B-Ph15	B-Ph16	aux-1	digaux	

7826.727	1	1	0	512	0.24978	0.072802	0.40956	0.11534	0.078987	0.19408	0.26017	0.11786	0.041215	0.11167	0.14732	0.33293	0.14696	0.27574	0.10602	0.17364	-2.5354	-2.2771	-2.4562	-3.0167	-2.2125	-2.7188	-2.4	-2.2833	-2.7812	-2.1979	-2.5687	-2.7979	-2.2542	-2.8667	-2.7208	-2.3187	105.189	199.967	-53.057	199.975	54.648	213.992	183.248	82.534	157.212	-30.131	66.628	-131.511	-1.330	-121.389	144.171	-128.122	0.0023143	0.00025884	0.00015307	668.74	2.4209e-06	4.5134e-06	745.48	284.84	5.8265e-06	3.8128e-06	385.72	177.47	119.07	55.203	3.491e-06	92.103	9.5215e-05	6.2691e-05	1.6551e-05	643.26	6.8761e-07	6.6834e-07	721.53	272.39	6.9047e-07	6.5099e-07	366.3	169.18	106.09	53.124	6.4683e-07	87.929	46.256	-109.470	-63.147	-126.967	-29.447	4.765	-127.713	-122.461	-51.021	5.127	-123.787	-119.237	-118.899	-113.074	-2.741	-115.363	-8191	255	
7826.848	1	1	0	0	0.14022	0.14121	0.16323	0.17837	0.23612	0.054625	0.17698	0.1976	0.11926	0.058139	0.2269	0.214	0.14878	0.32447	0.10562	0.24562	-2.5833	-2.1729	-2.3708	-2.8771	-1.9167	-2.7146	-2.7354	-2.3271	-2.9146	-2.2104	-2.2646	-2.9271	-2.0938	-2.8125	-2.5104	-2.4354	141.753	-47.208	-109.300	-66.581	175.747	0.199	163.061	-118.200	-33.731	-130.050	47.473	-115.812	120.054	104.878	-120.430	133.936	0.0022395	0.00062125	0.00015699	662.53	6.3454e-06	3.6433e-06	740.49	281.64	6.621e-06	3.6531e-06	380.93	175.88	118.02	54.799	3.2948e-06	91.537	9.7317e-05	5.7405e-05	1.5527e-05	640.31	6.8681e-07	6.3604e-07	715.11	268.96	6.9489e-07	6.4493e-07	361.29	167.49	105.13	52.647	6.5326e-07	87.535	46.026	-87.532	-59.179	-126.848	-8.560	-18.155	-127.865	-122.099	-46.016	-3.206	-123.769	-119.162	-118.835	-113.481	-21.965	-115.251	-8191	255	
7826.944	1	1	0	0	0.10349	0.081809	0.12635	0.28585	0.093706	0.038576	0.24602	0.01425	0.26788	0.12371	0.21094	0.11056	0.028964	0.17602	0.21506	0.21363	-2.4375	-2.3292	-2.3229	-2.9958	-2.1354	-2.5396	-2.7167	-2.1417	-2.9062	-2.2938	-2.2875	-2.9854	-2.2687	-2.6188	-2.6583	-2.3042	59.297	-76.549	116.062	202.876	-66.456	99.913	-103.431	175.343	-80.915	-105.690	76.431	118.966	135.205	-93.437	138.528	-120.259	0.0023033	0.00034796	0.00015053	660.58	3.4743e-06	3.8045e-06	736.53	280.25	7.1925e-06	3.9284e-06	382.64	175.53	117.87	55.195	3.8837e-06	92.455	9.6105e-05	5.8706e-05	1.5553e-05	636.9	6.8812e-07	6.4332e-07	712.46	268.81	7.0595e-07	6.3514e-07	361.97	168.02	105.27	52.916	6.3116e-07	88.085	46.513	-62.769	-76.608	-127.231	29.255	-15.393	-127.530	-122.077	-18.619	-10.198	-123.551	-119.307	-119.012	-113.320	-17.638	-114.922	-8191	255	
7827.015	1	1	0	0	0.1028	0.19433	0.079694	0.1165	0.059347	0.30472	0.34237	0.10489	0.089563	0.17155	0.24571	0.28245	0.10217	0.20077	0.32852	0.16336	-2.3042	-2.5479	-2.2062	-2.9167	-2.1833	-2.4958	-2.8042	-2.1604	-2.5729	-2.4813	-2.1667	-3.1	-2.3063	-2.4604	-2.6729	-2.2479	-27.590	-106.655	-37.807	-112.820	148.198	84.541	154.963	95.932	54.690	-109.704	129.017	149.061	115.808	137.330	169.532	202.223	0.0023083	0.00044518	0.00011802	664.59	5.513e-06	3.435e-06	738.88	281.96	5.3971e-06	1.6793e-06	383.2	176.89	118.27	55.371	3.901e-06	92.232	9.442e-05	5.7446e-05	1.5909e-05	640.38	6.8517e-07	5.9977e-07	715.76	270.18	6.6896e-07	6.2682e-07	363.3	168.67	105.57	53.06	6.4924e-07	88.164	47.426	-67.330	-65.281	-127.064	-4.154	-30.542	-127.835	-122.170	-26.131	31.674	-123.766	-119.455	-119.001	-113.433	-21.179	-115.182	-8191	255	
7827.136	1	1	0	0	0.19671	0.038339	0.10809	0.14853	0.39695	0.27478	0.29023	0.35027	0.0479	0.095484	0.28562	0.1594	0.22889	0.14254	0.29271	0.14362	-2.2188	-2.5125	-2.1479	-2.9646	-2.2833	-2.35	-2.9333	-2.1979	-2.5312	-2.6417	-2.2188	-2.8229	-2.3708	-2.2125	-2.8375	-2.4188	20.085	-74.723	-80.514	200.989	41.105	-90.460	-131.261	146.538	218.358	-129.994	-10.780	149.298	121.842	-72.338	86.033	-109.631	0.0023601	0.00038643	9.0898e-05	663.72	3.2429e-06	2.8406e-06	746.31	283.4	3.4014e-06	3.9466e-06	385.1	177.88	119.3	55.43	2.7524e-06	92.159	9.3926e-05	5.7399e-05	1.6038e-05	640.03	6.5781e-07	5.998e-07	717.81	271.6	6.5054e-07	6.1528e-07	365.86	169.46	106.04	53.215	6.7262e-07	88.079	48.697	-76.905	-48.772	-126.932	2.943	-4.178	-127.751	-122.211	-30.895	-8.571	-123.899	-119.626	-118.811	-113.269	-28.330	-115.106	-8191	255	
7827.230	1	1	0	0	0.082011	0.17962	0.23753	0.13614	0.22848	0.099471	0.15403	0.26047	0.20105	0.23853	0.16005	0.25012	0.24461	0.12915	0.04423	0.30707	-2.1312	-2.5583	-1.9583	-2.6896	-2.4896	-2.4854	-2.9	-2.2042	-2.4896	-2.6375	-2.2146	-2.7083	-2.4	-2.6188	-2.9125	-2.4458	-12.537	25.523	214.647	168.149	52.370	-102.510	-44.624	-80.650	16.777	92.172	103.490	-117.358	-24.287	196.965	50.980	201.014	0.0023282	0.00042701	0.0001894	660.19	3.4099e-06	5.4304e-06	737.59	279.49	3.3308e-06	4.4709e-06	378.73	174.74	117.85	54.498	4.8067e-06	90.254	9.125e-05	5.7534e-05	1.6047e-05	637.25	6.2971e-07	5.9288e-07	709.77	268.31	6.3925e-07	5.8175e-07	359.55	166.58	104.67	52.442	6.7854e-07	86.59	45.708	-73.204	-63.957	-127.269	-3.499	-9.093	-127.924	-122.147	-37.622	-5.317	-123.507	-119.177	-118.886	-113.311	5.666	-115.255	-8191	255	
7827.327	1	1	0	0	0.1085	0.12428	0.21696	0.14383	0.038837	0.31751	0.18202	0.13544	0.15204	0.15468	0.1088	0.18667	0.18038	0.1816	0.12045	0.10889	-1.9917	-2.5438	-1.9729	-2.8104	-2.5875	-2.2104	-2.95	-2.3688	-2.4146	-2.8521	-2.3083	-2.8	-2.4875	-2.325	-2.9062	-2.3833	42.164	-79.281	-94.503	7.600	199.488	49.403	218.988	20.164	123.592	144.495	27.122	-93.320	-118.851	-57.761	-78.536	-47.127	0.0023248	0.00046916	0.0001467	658.21	2.8988e-06	3.4946e-06	730.12	278.6	3.7927e-06	4.434e-06	376.81	174.64	116.81	54.961	4.4488e-06	91.437	8.7202e-05	5.5289e-05	1.6325e-05	633.17	6.0415e-07	5.9038e-07	706.11	267.16	6.2832e-07	5.8933e-07	357.87	166.37	104.57	52.749	6.8054e-07	87.369	46.533	-50.419	-73.331	-127.254	-27.727	4.755	-127.881	-121.807	-22.160	-22.199	-123.561	-119.189	-118.726	-113.516	-42.862	-115.188	-8191	255	
7827.423	1	1	0	0	0.27817	0.036923	0.10536	0.09981	0.27488	0.083394	0.23641	0.23287	0.21244	0.14678	0.1242	0.33596	0.26182	0.065728	0.22796	0.32836	-2.0042	-2.6979	-2.2083	-2.5625	-2.7083	-2.2417	-2.7812	-2.4062	-2.2	-2.7708	-2.3333	-2.7771	-2.7313	-2.3312	-2.7938	-2.8104	-77.569	104.042	-93.050	156.549	178.052	39.685	151.294	121.388	55.284	-15.902	203.713	182.498	156.884	146.467	104.390	129.663	0.0022923	0.000247	0.00011304	660.45	4.2184e-06	1.2916e-06	739.83	282	4.1208e-06	2.2957e-06	384.17	177.17	119.32	55.765	4.8125e-06	93.076	8.9393e-05	5.591e-05	1.6219e-05	637.43	6.0245e-07	6.2944e-07	715.56	269.82	6.1629e-07	6.2869e-07	363.63	168.78	106.6	53.602	6.7185e-07	89.065	48.472	-75.998	-43.902	-126.941	-8.765	18.869	-127.960	-121.985	-44.112	6.461	-123.604	-119.201	-118.404	-113.314	-0.839	-115.151	-8191	255	
7827.543	1	1	0	0	0.10826	0.19048	0.031879	0.32215	0.14576	0.13194	0.25415	0.15878	0.43761	0.21053	0.26734	0.051057	0.041553	0.1544	0.15864	0.27044	-1.7271	-2.8396	-2.1875	-2.5312	-2.6125	-2.125	-2.7375	-2.5583	-2.2521	-2.7646	-2.2083	-2.6479	-2.7042	-2.1833	-2.7958	-2.7792	-54.925	-50.104	84.790	165.986	46.318	196.524	76.084	118.532	101.542	132.524	130.842	212.771	-40.026	24.805	-67.469	206.429	0.0023392	0.00055121	0.0001729	666.67	3.0311e-06	4.297e-06	756.19	286.42	4.4364e-06	2.29e-06	391.05	180.25	121.63	56.44	3.4054e-06	94.319	9.03e-05	6.0663e-05	1.6821e-05	644.99	6.3042e-07	6.5792e-07	727.76	274.18	6.3113e-07	6.5647e-07	369.88	171.85	107.99	54.298	6.7954e-07	90.364	45.043	-87.568	-68.313	-127.375	-21.131	-29.059	-127.861	-121.786	-59.239	-11.121	-123.447	-119.543	-118.695	-113.543	1.596	-115.068	-8191	255	
7827.615	1	1	0	0	0.28359	0.10209	0.19433	0.17276	0.17117	0.12581	0.1558	0.28732	0.15489	0.18518	0.14254	0.15942	0.18208	0.15249	0.23826	0.18485	-1.8333	-2.7583	-2.3708	-2.4021	-2.8563	-2.4208	-2.8604	-2.675	-2.3021	-2.8521	-2.4333	-2.4813	-2.8333	-2.2208	-2.5062	-2.7938	151.651	174.019	175.405	142.320	-86.183	-97.973	-103.903	113.809	-27.803	-51.588	-121.600	161.205	163.545	161.270	-109.666	125.596	0.0023296	0.0005369	0.00012835	678.92	5.9321e-06	3.7583e-06	758.41	289.3	4.7916e-06	4.7486e-06	392.76	180.9	119.72	56.642	4.4423e-06	94.051	9.4661e-05	6.1487e-05	1.663e-05	651.84	6.6099e-07	6.9251e-07	733.79	276.88	6.6886e-07	6.6708e-07	371.99	172.63	107.42	54.453	6.7028e-07	90.115	46.031	-79.258	-58.795	-126.823	-17.976	6.071	-127.773	-122.074	-37.160	17.747	-123.536	-119.249	-118.657	-113.281	-23.483	-114.931	-8191	255	
7827.736	1	1	0	0	0.13036	0.057085	0.18825	0.04755	0.35205	0.097174	0.37056	0.28452	0.26078	0.059881	0.25873	0.20472	0.016484	0.27829	0.22059	0.1854	-1.7667	-2.6042	-2.4354	-2.3125	-2.9437	-2.1562	-2.6771	-2.9021	-2.0667	-2.6104	-2.4625	-2.5021	-2.9583	-2.1833	-2.4417	-2.9042	187.950	54.289	185.937	97.688	73.066	176.043	207.507	-95.337	-136.683	-130.797	165.730	153.020	-18.501	-65.186	115.531	127.599	0.0023508	0.00051569	0.00013394	676.15	4.2616e-06	3.8254e-06	752.91	287.17	4.9086e-06	3.9114e-06	386.95	178.55	119.29	55.869	3.532e-06	92.971	9.5959e-05	6.1693e-05	1.6466e-05	648.07	6.7746e-07	6.8584e-07	726.35	273.81	6.9379e-07	6.5219e-07	366.19	170.2	106.83	53.853	6.5722e-07	89.084	45.385	-73.641	-49.903	-127.047	-10.310	-32.781	-127.854	-122.275	-42.190	-3.382	-123.882	-119.524	-118.808	-113.615	-5.797	-114.951	-8191	255	
7827.832	1	1	0	0	0.099004	0.21135	0.17901	0.14319	0.23806	0.14322	0.2324	0.14432	0.11025	0.12165	0.18239	0.046424	0.18365	0.052769	0.10062	0.057592	-1.7292	-2.6917	-2.3646	-2.4333	-2.9375	-2.2958	-2.4979	-2.7313	-2.2875	-2.6292	-2.7188	-2.2521	-2.8604	-2.4896	-2.4021	-2.8167	136.456	-91.991	66.934	-75.198	-121.242	191.050	88.590	157.320	152.761	-100.522	189.687	171.119	216.928	152.308	-34.856	128.354	0.0022632	0.0003811	0.00014412	669.35	4.7502e-06	2.9071e-06	747.52	284.28	5.4748e-06	3.8132e-06	384.27	176.95	118.83	55.641	5.9046e-06	92.563	9.4997e-05	6.0221e-05	1.5891e-05	645.38	6.7634e-07	6.5504e-07	721.86	271	7.0382e-07	6.3417e-07	364.23	168.99	106.49	53.547	6.3663e-07	88.635	46.903	-75.773	-71.387	-127.003	-8.433	-33.115	-127.977	-122.324	-39.882	-4.625	-123.580	-119.339	-118.967	-113.454	-24.340	-115.020	-8191	255	
7827.928	1	1	0	0	0.051808	0.2256	0.28186	0.15241	0.12134	0.067924	0.11347	0.23612	0.1591	0.064734	0.18293	0.20697	0.22011	0.31037	0.27224	0.10415	-1.9375	-2.675	-2.6312	-2.1979	-2.7687	-2.4188	-2.2167	-2.9229	-2.15	-2.5687	-2.7771	-2.1437	-2.8208	-2.5667	-2.1479	-3.1	-124.735	162.250	-13.280	-102.345	-22.520	148.631	64.175	188.479	-32.765	18.803	166.302	203.988	-131.423	175.565	-136.606	192.883	0.0022273	0.00030278	0.0001236	671.68	5.0214e-06	5.49e-06	746.11	285.27	6.5226e-06	2.6945e-06	387.4	178.53	120.41	56.316	3.2846e-06	93.39	9.6062e-05	5.8968e-05	1.6115e-05	646.59	6.7823e-07	6.3086e-07	722.11	273.23	6.9972e-07	6.2785e-07	367.21	170.45	107.43	54.041	6.292e-07	89.562	47.738	-60.485	-106.794	-127.257	1.473	-26.243	-127.926	-122.127	-32.818	-1.928	-123.223	-119.761	-118.680	-113.181	-22.330	-115.049	-8191	255	
7828.024	1	1	0	0	0.072028	0.24615	0.24971	0.17995	0.074914	0.2801	0.29218	0.15233	0.08784	0.078744	0.17384	0.39146	0.25659	0.089347	0.22583	0.14626	-1.8125	-2.5104	-2.6437	-2.0167	-2.6958	-2.5938	-2.3187	-2.9708	-2.3792	-2.4938	-2.6667	-2.3354	-2.6708	-2.5187	-2.1646	-3.0687	144.852	-77.491	125.018	184.697	122.667	-97.415	75.930	-136.947	61.601	-31.536	-97.223	144.872	192.779	52.731	-58.957	64.530	0.0022475	0.00040404	9.6974e-05	670.79	7.2843e-06	4.1524e-06	751.2	287.77	5.888e-06	5.572e-06	394.88	181.4	121.27	56.886	5.0816e-06	95.086	9.6476e-05	5.7005e-05	1.543e-05	649.05	6.8845e-07	6.3776e-07	728.21	274.89	6.8076e-07	6.2366e-07	372.79	172.81	108.42	54.669	6.3322e-07	90.883	47.993	-78.650	-41.415	-127.391	-28.095	16.299	-128.175	-122.086	-34.818	6.212	-123.584	-119.300	-118.281	-112.866	-8.235	-115.138	-8191	255	
7828.143	1	1	0	0	0.03739	0.23324	0.25319	0.28512	0.27824	0.16137	0.13008	0.2328	0.36961	0.18308	0.071047	0.14739	0.14541	0.08694	0.071156	0.040923	-1.9104	-2.4188	-2.7771	-2.2604	-2.6312	-2.7062	-2.1875	-2.9354	-2.2083	-2.4146	-2.9292	-2.3396	-2.6063	-2.6833	-2.3646	-3.0958	92.297	12.031	-128.364	87.843	81.119	128.165	202.484	168.445	-60.683	-119.130	-128.614	-102.422	195.582	-119.378	102.437	-85.705	0.0023136	0.00046677	9.8134e-05	680.34	5.4517e-06	3.1944e-06	761.22	287.65	6.0008e-06	4.8487e-06	392.26	180.69	121.38	56.871	3.4654e-06	94.038	9.7923e-05	5.8205e-05	1.5765e-05	654.18	6.6988e-07	6.2627e-07	734.66	276.41	6.8202e-07	6.3307e-07	372	172.46	108.14	54.47	6.6934e-07	89.94	46.980	-73.151	-65.833	-127.075	-15.915	-11.911	-128.216	-122.290	-26.165	10.970	-123.796	-119.529	-118.754	-113.188	-35.311	-115.018	-8191	255	
7828.239	1	1	0	0	0.19667	0.21844	0.16061	0.26172	0.073951	0.10198	0.04736	0.21401	0.16762	0.053029	0.17775	0.050301	0.046536	0.18635	0.29206	0.2806	-2.1042	-2.1292	-2.775	-2.2542	-2.3708	-2.6479	-2.2979	-3	-2.3958	-2.2417	-2.9854	-2.4979	-2.4771	-2.9938	-2.1646	-2.9958	-11.433	172.271	51.004	-132.192	123.979	137.450	87.750	114.595	217.487	106.768	188.697	51.031	49.619	105.171	-119.305	176.209	0.0023301	0.00055537	0.00014163	669.14	3.4049e-06	2.9532e-06	753.42	283.88	5.6571e-06	4.9993e-06	383.92	178.01	119.3	56.076	3.8701e-06	92.702	9.293e-05	5.473e-05	1.6438e-05	647.91	6.3527e-07	6.1566e-07	725.18	272.14	6.5677e-07	5.903e-07	364.35	169.33	106.21	53.714	6.9176e-07	88.588	48.073	-79.760	-65.734	-126.843	-8.126	-3.816	-127.935	-122.147	-59.487	-8.160	-123.592	-119.449	-118.834	-113.216	-11.784	-115.363	-8191	255	
7828.311	1	1	0	0	0.40818	0.074384	0.28786	0.0489	0.01489	0.20973	0.15808	0.084912	0.29044	0.13028	0.085084	0.19992	0.16869	0.25132	0.1171	0.15109	-2.1229	-2.2271	-2.8	-2.3771	-2.4396	-2.8937	-2.1562	-2.7812	-2.6479	-2.3354	-3.0792	-2.4917	-2.425	-2.7125	-2.2667	-2.7729	33.004	19.276	76.715	27.339	-78.484	-12.434	136.205	189.333	33.052	149.045	145.411	191.494	-38.036	209.306	29.312	156.629	0.0021539	0.00039026	0.00014294	665.33	5.2776e-06	3.5673e-06	748.78	283.29	5.4612e-06	4.782e-06	386.12	177.84	119.92	56.193	4.9771e-06	93.122	9.2476e-05	5.5227e-05	1.6645e-05	644	6.3202e-07	6.0255e-07	722.11	271.57	6.2935e-07	6.1012e-07	365.9	169.65	106.29	53.904	6.9713e-07	88.878	45.823	-64.159	-63.670	-126.928	-13.395	-41.624	-128.164	-122.378	-24.863	3.812	-123.535	-119.467	-118.320	-113.149	1.920	-115.148	-8191	255	
7828.407	1	1	0	0	0.05775	0.23654	0.37542	0.06816	0.23268	0.40008	0.25635	0.32962	0.21926	0.35667	0.085134	0.048986	0.15481	0.038941	0.072371	0.027681	-2.2771	-2.1	-2.7687	-2.5167	-2.3542	-2.7687	-2.3396	-2.4958	-2.5042	-2.1583	-2.7375	-2.5	-2.2979	-2.8688	-2.0312	-2.6312	58.269	62.800	-131.378	184.053	-96.021	-28.446	196.459	-117.933	40.178	28.505	-99.873	61.224	125.409	113.252	-112.974	155.772	0.0022035	0.00045813	0.00015731	668.77	4.7159e-06	3.0233e-06	751.21	285.01	2.9676e-06	3.2063e-06	388.42	177.89	119.67	56.261	7.6227e-06	93.498	9.1957e-05	5.8503e-05	1.7387e-05	644.74	6.2322e-07	6.4238e-07	724.03	271.71	6.4096e-07	6.4142e-07	366.8	170.07	106.75	54.062	7e-07	89.367	45.090	-80.544	-45.695	-127.050	8.895	-18.521	-127.686	-122.059	-58.649	-0.727	-123.508	-119.399	-118.519	-113.091	4.372	-115.048	-8191	255	
7828.528	1	1	0	0	0.068706	0.47369	0.1111	0.20833	0.28217	0.13603	0.053985	0.28028	0.19363	0.08352	0.18386	0.11937	0.049736	0.26117	0.25356	0.26976	-2.3542	-2.3312	-2.75	-2.6021	-2.2792	-2.8187	-2.4021	-2.6021	-2.5229	-2.1688	-2.8042	-2.6021	-2.3521	-2.8396	-2.2354	-2.5896	126.464	215.783	-33.227	194.680	-110.935	15.872	-91.829	28.746	-130.144	-60.916	123.644	30.869	84.988	219.053	163.567	178.446	0.0023608	0.00045225	0.00020067	673.04	5.0652e-06	2.9891e-06	749.33	286.68	4.2471e-06	3.7319e-06	389.33	181.16	120.36	56.86	4.065e-06	94.562	9.0487e-05	5.9862e-05	1.6865e-05	648.07	6.2509e-07	6.5911e-07	726.68	273.99	6.4161e-07	6.6218e-07	370.26	172.36	107.66	54.626	6.8253e-07	90.459	48.339	-82.715	-73.030	-127.091	-14.153	-3.834	-128.075	-122.397	-43.489	-29.913	-123.617	-119.217	-118.438	-113.250	16.074	-115.166	-8191	255	
7828.624	1	1	0	0	0.21518	0.25948	0.28156	0.20926	0.13899	0.087792	0.28261	0.2212	0.14461	0.36399	0.14755	0.17108	0.11652	0.24727	0.30607	0.39352	-2.2042	-2.1104	-2.6292	-2.6542	-2.1854	-2.8667	-2.3312	-2.4375	-2.775	-2.0667	-2.7292	-2.6854	-2.1458	-2.9542	-2.2833	-2.55	98.638	109.125	-128.258	199.041	190.672	-114.118	191.446	153.050	188.733	9.573	85.521	161.415	54.892	-108.103	127.296	164.013	0.0022432	0.00045438	0.00015493	675.58	3.4816e-06	2.7043e-06	759.26	285.32	4.1027e-06	4.5285e-06	388.59	179.65	118.94	56.554	4.8699e-06	93.038	9.3788e-05	6.242e-05	1.6377e-05	650.41	6.5049e-07	6.8102e-07	731.15	273.93	6.4287e-07	6.6837e-07	369.48	171.31	106.83	54.31	6.7484e-07	89.414	44.048	-75.282	-71.165	-127.123	-33.301	-39.842	-127.773	-122.146	-30.095	1.837	-123.578	-119.043	-119.086	-113.419	-12.029	-115.084	-8191	255	
7828.720	1	1	0	0	0.26469	0.11548	0.25922	0.34598	0.43551	0.24862	0.39215	0.18164	0.30081	0.17791	0.2549	0.088012	0.034006	0.12801	0.11291	0.25978	-2.4688	-2.1542	-2.4354	-2.7687	-2.0854	-2.8667	-2.4938	-2.4417	-2.8354	-2.3063	-2.6708	-2.8438	-2.0708	-2.8708	-2.5812	-2.2687	162.742	174.737	-20.424	-1.212	118.476	-98.175	137.154	185.809	153.863	163.099	-51.081	-47.646	-91.772	39.521	-103.109	154.759	0.0023215	0.00039339	0.00013835	669.08	2.6677e-06	4.1678e-06	750.76	283.32	8.0035e-06	3.0738e-06	386.94	177.3	119.66	56.111	3.0666e-06	93.178	9.2692e-05	6.1054e-05	1.6393e-05	646.56	6.4667e-07	6.6005e-07	725.2	270.69	6.667e-07	6.7917e-07	365.47	169.37	106.28	53.94	6.5136e-07	89.067	48.326	-72.563	-50.317	-127.484	-12.564	-31.477	-128.016	-122.354	-53.405	-26.764	-123.637	-119.216	-118.968	-113.138	-17.070	-115.155	-8191	255	
7828.816	1	1	0	0	0.11971	0.17071	0.265	0.11535	0.0894	0.18266	0.23474	0.17397	0.052127	0.15861	0.2943	0.31781	0.12269	0.13023	0.32471	0.20555	-2.5563	-2.2833	-2.5062	-2.8	-2.1021	-2.6708	-2.6479	-2.2438	-2.9333	-2.3708	-2.7104	-2.6729	-2.0854	-2.8604	-2.6854	-2.2	160.596	109.178	219.282	212.995	141.583	101.581	180.753	207.779	81.762	70.747	121.080	184.080	-50.595	216.041	114.208	182.092	0.0023575	0.00041947	0.00010028	668.73	2.7262e-06	3.7046e-06	752.05	283.97	5.2351e-06	2.6306e-06	385.32	178.85	120.08	56.434	4.065e-06	93.915	9.5141e-05	5.968e-05	1.5691e-05	645.95	6.9692e-07	6.6135e-07	727.91	271.05	7.164e-07	6.4626e-07	367.31	170.77	107.03	54.289	6.5217e-07	89.841	48.952	-77.438	-48.334	-126.870	-25.624	-11.591	-127.799	-122.160	-15.687	-2.628	-123.289	-119.135	-118.298	-113.056	-19.476	-115.131	-8191	255	
7828.912	1	1	0	0	0.19879	0.11061	0.21135	0.14399	0.11741	0.23675	0.12413	0.24309	0.20449	0.12028	0.044106	0.10641	0.30065	0.25577	0.17335	0.14479	-2.3854	-2.1833	-2.2792	-2.8729	-1.9854	-2.6208	-2.7833	-2.1833	-2.8937	-2.4146	-2.3625	-3.0062	-2.3875	-2.7646	-2.6917	-2.2917	164.816	-96.766	7.006	174.463	-97.406	-51.874	125.125	-93.926	96.216	-29.956	113.134	-114.726	-28.568	173.445	-3.968	112.453	0.002399	0.00050564	0.00015167	671.85	4.6073e-06	5.1811e-06	761.25	286.98	5.7402e-06	4.0655e-06	390.88	181.79	120.34	57.356	2.9811e-06	95.147	9.856e-05	5.9135e-05	1.5647e-05	650.13	7.1404e-07	6.3643e-07	732.49	273.16	6.9663e-07	6.489e-07	371.56	173.09	107.72	54.979	6.4541e-07	91.116	49.838	-66.899	-59.200	-126.846	-6.576	-9.918	-127.355	-122.017	-27.776	-6.634	-123.405	-119.169	-118.352	-113.326	23.891	-115.000	-8191	255	
7829.008	1	1	0	0	0.19007	0.028004	0.11039	0.17475	0.14552	0.045243	0.19848	0.074913	0.093056	0.073239	0.20062	0.2221	0.16567	0.038347	0.030827	0.26946	-2.2938	-2.2458	-2.1583	-3.0396	-2.1562	-2.4917	-2.7792	-2.1937	-2.7208	-2.4521	-2.4688	-2.9562	-2.1583	-2.6146	-2.7188	-2.4208	66.034	-136.282	182.354	96.974	-24.189	-5.931	-135.381	128.284	-119.026	5.320	-77.890	-109.588	209.770	144.606	-89.924	71.506	0.0024582	0.00046234	0.00012834	680.45	3.8056e-06	3.6458e-06	766.05	288.29	4.971e-06	4.7269e-06	395.13	183.53	122.31	57.728	4.7407e-06	95.882	0.00010094	6.0881e-05	1.588e-05	654.45	6.9516e-07	6.3598e-07	738.03	275.95	7.0063e-07	6.4081e-07	376.09	174.68	108.78	55.383	6.4959e-07	91.84	49.765	-84.389	-35.427	-127.087	-7.714	-28.340	-127.938	-122.206	-48.350	-6.084	-123.345	-119.250	-118.673	-113.312	-13.921	-115.002	-8191	255	
7829.105	1	1	0	0	0.12394	0.22116	0.089762	0.18196	0.15697	0.26769	0.039658	0.053182	0.10233	0.12122	0.16715	0.14534	0.041708	0.21981	0.12264	0.15249	-2.3083	-2.4583	-2.3667	-3.0312	-2.2792	-2.3354	-2.8354	-2.4396	-2.8479	-2.5833	-2.5062	-3.0938	-2.3417	-2.4958	-2.7479	-2.3937	161.767	-100.840	73.600	125.764	153.518	97.583	-58.096	161.997	114.563	-99.073	-89.071	96.782	40.407	125.852	-92.814	117.965	0.0025065	0.00043504	0.00016843	677.65	4.8577e-06	3.8527e-06	762.65	285.61	1.9235e-06	4.2642e-06	390.87	182.05	120.26	56.906	3.5959e-06	94.458	9.7733e-05	5.9188e-05	1.5801e-05	654.79	6.9814e-07	6.351e-07	735.15	274.27	6.8005e-07	6.2524e-07	371.21	172.86	107.47	54.728	6.7591e-07	90.374	47.422	-90.647	-42.417	-127.098	-3.463	-10.287	-127.769	-122.181	-51.223	-0.242	-123.610	-119.139	-118.265	-113.254	-28.121	-115.057	-8191	255	
7829.223	1	1	0	0	0.085735	0.072581	0.41285	0.13271	0.14059	0.10995	0.11135	0.20192	0.079819	0.14491	0.11786	0.040187	0.25859	0.052301	0.16441	0.23981	-2.2604	-2.7687	-1.9417	-2.9062	-2.3333	-2.3208	-3.0042	-2.3125	-2.3812	-2.7083	-2.2354	-2.725	-2.4188	-2.3771	-2.9	-2.3792	15.359	120.275	-46.346	-29.794	131.105	-35.088	20.280	145.384	197.006	-127.006	102.878	4.774	-51.648	38.198	61.023	96.735	0.0023013	0.00035609	0.00013692	672.01	4.433e-06	3.9728e-06	759.09	284.68	3.8333e-06	2.8397e-06	385.94	179	118.09	56.604	3.1363e-06	93.767	9.6137e-05	5.7702e-05	1.7092e-05	648.63	6.598e-07	6.207e-07	731.02	271.67	6.6447e-07	5.9881e-07	366.52	170.49	106.24	54.236	6.8993e-07	89.698	47.103	-78.608	-49.567	-127.030	-35.413	-21.285	-127.538	-122.253	-88.446	3.858	-123.545	-119.403	-118.385	-113.248	18.130	-115.016	-8191	255	
7829.320	1	1	0	0	0.19466	0.14485	0.19341	0.1472	0.20005	0.084433	0.15317	0.2286	0.01538	0.14614	0.091217	0.091878	0.19023	0.086341	0.30339	0.18553	-2.0438	-2.5896	-1.9937	-2.8771	-2.4333	-2.3354	-3.025	-2.1979	-2.3104	-2.8521	-2.1813	-2.6229	-2.5375	-2.3271	-2.7354	-2.3583	150.757	-42.414	-133.308	101.310	-40.446	-110.828	94.225	-74.706	-84.015	-5.242	106.636	-131.290	142.911	-127.587	-138.247	199.315	0.0023411	0.00046537	0.00014339	673.3	6.2794e-06	2.2148e-06	757.46	283.33	4.8505e-06	4.2454e-06	387.11	180.18	120.95	57.034	1.3604e-06	94.836	9.2008e-05	5.6178e-05	1.7087e-05	648.19	6.7226e-07	6.186e-07	731.03	271.94	6.8399e-07	6.2337e-07	367.96	171.63	107.19	54.815	7.3293e-07	90.74	45.611	-86.263	-57.557	-127.044	-1.965	-17.355	-127.742	-122.258	-27.488	-0.369	-123.626	-119.452	-118.576	-113.288	-57.922	-114.931	-8191	255	
7829.416	1	1	0	0	0.062015	0.119	0.23114	0.1931	0.22226	0.24537	0.37105	0.11033	0.22473	0.20623	0.13017	0.12089	0.065542	0.19971	0.12489	0.23472	-2.0667	-2.7042	-2.0125	-2.5604	-2.6875	-2.2979	-3.0062	-2.4104	-2.5563	-2.7958	-2.1125	-2.6604	-2.5708	-2.2188	-2.8417	-2.4813	214.981	90.660	33.086	-101.264	-115.213	16.158	146.608	-66.100	191.105	28.083	-109.018	216.513	79.554	195.285	79.302	184.684	0.0024284	0.00043223	0.00011418	674.37	6.3034e-06	2.691e-06	763.39	286.18	6.7709e-06	8.5502e-07	393.18	182.25	121.52	57.723	2.8372e-06	95.827	9.4509e-05	5.8759e-05	1.7938e-05	651.05	6.5656e-07	6.5251e-07	737.19	273.64	6.7076e-07	6.586e-07	373.25	173.95	108.41	55.27	7.3078e-07	91.902	45.800	-69.557	-43.279	-127.208	13.421	-4.599	-128.195	-122.311	-65.932	22.207	-123.349	-119.212	-118.348	-113.325	-42.814	-115.063	-8191	255	
7829.512	1	1	0	0	0.066349	0.16292	0.19362	0.20783	0.083124	0.15603	0.15055	0.28161	0.10466	0.17665	0.20407	0.34003	0.18821	0.24411	0.32522	0.12231	-1.8792	-2.6917	-2.0375	-2.6458	-2.6625	-2.1437	-2.8021	-2.3937	-2.1958	-2.6875	-2.3458	-2.3625	-2.7083	-2.3604	-2.7083	-2.5375	205.928	87.634	208.329	168.656	52.516	96.705	117.155	19.130	-135.816	99.169	116.107	186.085	158.759	-109.825	57.618	200.873	0.0023249	0.00036663	9.4136e-05	678.57	6.8161e-06	3.9147e-06	778.67	290.25	4.5362e-06	4.7199e-06	403.9	185.19	123.1	58.348	4.698e-06	96.836	9.4687e-05	6.2496e-05	1.8224e-05	656.13	6.5367e-07	6.7031e-07	749.71	278.44	6.5535e-07	6.871e-07	382.62	177.08	109.97	55.913	7.0141e-07	92.8	47.480	-59.591	-49.353	-126.699	-4.606	-40.005	-127.926	-122.206	-41.299	1.349	-123.782	-119.333	-118.428	-113.196	-11.010	-114.741	-8191	255	
7829.608	1	1	0	0	0.37173	0.26205	0.11608	0.084305	0.023309	0.28169	0.14707	0.19015	0.21033	0.094766	0.14141	0.36414	0.10708	0.26375	0.092293	0.073252	-1.6625	-2.5687	-2.1917	-2.4167	-2.7562	-2.1021	-3.0083	-2.5333	-2.1667	-2.925	-2.3396	-2.6375	-2.8688	-2.0146	-2.7458	-2.9271	166.484	140.694	62.589	-58.942	-131.105	87.586	73.429	84.788	168.123	162.538	-133.844	187.710	101.767	182.428	129.481	16.664	0.0024099	0.00052561	0.00013386	683.84	5.8454e-06	4.6685e-06	772.96	289.01	3.1926e-06	1.5261e-06	395.68	183.2	121.77	57.663	4.7614e-06	95.437	9.4819e-05	6.3577e-05	1.7462e-05	658.28	6.5514e-07	6.8474e-07	745.9	277.17	6.6389e-07	7.057e-07	376.69	174.77	108.52	55.304	6.897e-07	91.398	48.700	-89.374	-74.537	-126.892	-14.039	-27.619	-128.101	-122.245	-26.274	-45.009	-123.270	-119.471	-118.561	-113.159	-23.963	-114.946	-8191	255	
7829.704	1	1	0	0	0.085473	0.1546	0.19883	0.23334	0.18115	0.13042	0.24162	0.20761	0.35947	0.10645	0.12864	0.13849	0.1662	0.25388	0.16059	0.053538	-1.5875	-2.8583	-2.3208	-2.3563	-2.6562	-2.0896	-2.6271	-2.8438	-2.15	-2.8104	-2.4979	-2.4521	-2.8271	-2.1479	-2.5896	-2.8354	-122.823	118.751	76.502	149.805	205.645	202.237	33.627	-91.376	205.832	-93.220	-88.594	213.348	-137.453	173.233	7.607	123.694	0.0023283	0.00064305	8.5506e-05	677	3.0417e-06	5.2596e-06	766.4	286.04	5.1154e-06	3.7784e-06	391.72	181.6	120.89	57.454	4.7314e-06	95.136	9.5244e-05	6.3318e-05	1.6504e-05	653.44	6.6471e-07	6.948e-07	741.66	274.15	6.9044e-07	6.782e-07	371.87	172.95	107.7	55.058	6.8777e-07	91.039	45.056	-92.880	-43.090	-127.403	8.192	-13.571	-127.666	-122.009	-43.095	5.185	-123.656	-119.409	-118.308	-113.304	4.397	-114.835	-8191	255	
7829.825	1	1	0	0	0.25947	0.082908	0.10253	0.091378	0.16728	0.24388	0.055655	0.04973	0.15616	0.31279	0.17637	0.22644	0.074349	0.14537	0.091492	0.13604	-1.7313	-2.7542	-2.3854	-2.1104	-2.9854	-2.1688	-2.7125	-2.6875	-2.1	-2.7438	-2.7458	-2.2958	-2.9229	-2.4271	-2.5875	-2.9437	154.903	202.129	-31.243	176.991	-22.373	-122.994	213.672	-39.554	96.326	28.765	-105.507	-121.909	-115.909	-58.322	170.311	-63.913	0.0023072	0.00034598	0.00012658	674.48	1.8536e-06	5.3746e-06	767.21	284.95	6.8484e-06	4.4066e-06	392.27	182.87	121.23	57.617	1.5028e-06	95.524	9.858e-05	6.2485e-05	1.6909e-05	652.83	7.0075e-07	7.0387e-07	739.88	273.58	7.203e-07	6.8981e-07	372.25	173.98	108.67	55.453	6.9173e-07	91.634	48.323	-56.878	-74.856	-126.984	-11.357	12.087	-127.888	-121.977	-25.384	-5.926	-123.096	-119.137	-118.679	-113.213	-12.139	-115.016	-8191	255	
7829.921	1	1	0	0	0.16057	0.060491	0.12488	0.01776	0.14355	0.24762	0.15079	0.24259	0.20679	0.19227	0.026044	0.027993	0.12573	0.25566	0.03917	0.11122	-1.8188	-2.7104	-2.5958	-2.1271	-2.8208	-2.4104	-2.5375	-2.9458	-2.0938	-2.6125	-2.8458	-2.2771	-2.7875	-2.3375	-2.2542	-3.0833	110.170	38.525	44.648	153.021	70.294	34.546	-96.365	160.740	90.335	219.743	-3.957	-48.920	12.635	-115.483	-51.691	-126.433	0.0024765	0.00052539	8.2031e-05	674.46	6.315e-06	3.8957e-06	765.08	287.23	3.7387e-06	2.8269e-06	395.71	182.95	122	57.941	4.2121e-06	96.137	0.0001034	6.2061e-05	1.6924e-05	650.84	7.4147e-07	6.9471e-07	736.86	275.29	7.4165e-07	6.6508e-07	374.04	174.75	108.9	55.6	6.586e-07	92.053	44.782	-83.957	-46.119	-127.272	-32.916	-7.089	-127.639	-121.843	-13.453	1.181	-123.259	-119.448	-118.646	-112.971	7.323	-114.767	-8191	255	
7830.017	1	1	0	0	0.093036	0.19057	0.10481	0.21115	0.31137	0.31181	0.17215	0.20605	0.14133	0.080214	0.069282	0.086478	0.056696	0.026396	0.3249	0.16933	-1.7042	-2.5563	-2.6896	-2.2771	-2.9271	-2.4667	-2.4417	-2.9729	-2.4542	-2.4896	-2.7771	-1.8062	-2.8833	-2.5896	-2.3604	-3.0208	178.833	-86.801	213.662	-101.350	-88.180	108.698	91.425	169.640	147.805	-87.069	-13.798	-100.330	-24.045	-74.110	-33.241	160.923	0.0024652	0.00056088	0.00015591	672.77	6.6996e-06	4.5265e-06	768.48	288.54	8.0159e-06	4.086e-06	397.23	184.9	122.73	58.069	3.6394e-06	96.589	0.00010159	6.119e-05	1.6047e-05	649.81	7.3986e-07	6.9448e-07	739.15	275.65	7.5797e-07	6.704e-07	376.14	175.87	109.4	55.799	6.7433e-07	92.532	49.213	-83.228	-79.608	-126.864	0.597	-1.124	-128.094	-121.896	-35.726	-5.749	-123.276	-119.223	-118.412	-112.851	-4.856	-115.046	-8191	255	
7830.111	1	1	0	0	0.12523	0.092858	0.107	0.090426	0.18398	0.19393	0.13139	0.2383	0.29625	0.15522	0.32873	0.27185	0.068649	0.41632	0.18063	0.057972	-1.8708	-2.4062	-2.6521	-2.2042	-2.725	-2.6437	-2.2458	-2.7875	-2.1292	-2.3354	-2.8792	-2.2625	-2.6646	-2.7062	-2.0812	-2.9292	76.890	166.845	-47.602	-121.844	-79.874	0.918	105.684	-38.581	-2.291	-118.773	98.683	200.836	-30.662	164.279	143.800	-86.753	0.0023593	0.00041977	0.00010918	671.95	4.7725e-06	2.8035e-06	762.45	285.85	5.0183e-06	2.6998e-06	391.27	182.2	121.03	57.614	4.8075e-06	95.502	0.00010188	6.1325e-05	1.6521e-05	649.43	7.0942e-07	6.4785e-07	733.77	273.81	7.1862e-07	6.3891e-07	371.5	173.83	108	55.269	6.8356e-07	91.528	46.404	-67.757	-39.550	-127.055	-17.567	-2.808	-127.757	-122.246	-34.817	11.370	-123.398	-119.310	-118.909	-113.014	-22.544	-114.956	-8191	255	
7830.185	1	1	0	0	0.22721	0.12266	0.12982	0.20207	0.018076	0.2108	0.25295	0.045524	0.051918	0.097648	0.32154	0.16636	0.28109	0.05126	0.1511	0.037039	-1.9208	-2.3042	-2.6083	-2.3333	-2.6479	-2.6625	-2.2104	-2.9083	-2.325	-2.3583	-2.9271	-2.2833	-2.5229	-2.9354	-2.1375	-2.9146	51.773	-93.376	-31.703	157.994	-129.553	-33.526	46.072	20.069	-55.862	190.204	176.777	190.660	-79.205	196.396	148.808	-119.497	0.0022959	0.00062332	0.00013355	669.96	4.9094e-06	4.3327e-06	753.48	285.71	4.7829e-06	2.6318e-06	389.71	180.35	120.4	57.555	2.1626e-06	95.361	9.6588e-05	5.8765e-05	1.6985e-05	647.63	6.6295e-07	6.2954e-07	729.86	272.65	6.8357e-07	6.3826e-07	369.28	172.26	107.49	55.082	6.9945e-07	91.339	44.286	-42.865	-65.450	-127.158	-7.396	-7.479	-127.894	-122.105	-69.103	-29.680	-123.186	-119.123	-118.110	-112.918	-33.558	-115.084	-8191	255	
7830.304	1	1	0	0	0.089828	0.062475	0.086068	0.11726	0.17137	0.24472	0.044267	0.16836	0.23662	0.13354	0.2392	0.12861	0.12765	0.32197	0.20113	0.18428	-2.1417	-2.2667	-2.9021	-2.3438	-2.5812	-2.925	-2.1833	-2.9083	-2.5	-2.0917	-2.9229	-2.2917	-2.5396	-2.9167	-2.2229	-2.8979	-117.981	-83.541	134.575	-17.833	-76.802	79.549	-93.412	35.936	111.095	-80.380	-31.447	162.080	-47.554	-138.246	87.365	146.645	0.0023694	0.00055087	0.0001884	671.84	4.6979e-06	5.3159e-06	758.24	286.28	5.154e-06	3.1673e-06	389.67	181.86	121.22	57.58	6.7661e-06	95.846	9.6553e-05	5.7581e-05	1.7022e-05	648.25	6.6593e-07	6.319e-07	733.23	274.16	6.8095e-07	6.3436e-07	371.67	173.64	107.95	55.439	7.1569e-07	91.933	49.159	-84.130	-65.371	-127.221	-36.537	-28.738	-127.955	-122.310	-73.479	-15.009	-123.511	-119.525	-118.430	-113.121	6.632	-114.798	-8191	255	
7830.400	1	1	0	0	0.049237	0.22316	0.19055	0.42055	0.34632	0.076994	0.065954	0.25197	0.068873	0.39193	0.26405	0.29019	0.072065	0.2121	0.094204	0.067089	-2.2125	-2.1167	-2.8021	-2.375	-2.3458	-2.7	-2.2646	-2.7229	-2.7896	-2.25	-3.0563	-2.3417	-2.2979	-2.7708	-2.1792	-2.7729	-118.699	-67.451	-106.545	-115.661	152.601	-26.241	209.362	159.900	178.935	182.495	132.643	164.550	49.614	100.994	52.794	193.449	0.002323	0.00036517	0.00012892	675.96	3.2686e-06	4.7093e-06	765.09	288.9	2.6242e-06	4.3568e-06	395.49	184.19	122.23	58.252	5.6407e-06	96.958	9.6593e-05	5.9444e-05	1.7526e-05	651.75	6.3922e-07	6.5513e-07	738.33	275.91	6.8589e-07	6.4938e-07	375.92	175.67	109.3	55.805	7.476e-07	92.773	46.877	-108.256	-41.046	-126.856	-11.087	-35.586	-127.922	-122.013	-19.931	-10.525	-123.640	-119.415	-118.655	-112.997	3.993	-115.118	-8191	255	
7830.496	1	1	0	0	0.094762	0.23994	0.18472	0.084688	0.20556	0.018039	0.099139	0.15345	0.13473	0.35376	0.072325	0.14051	0.097382	0.079441	0.24612	0.098748	-2.25	-2.1562	-2.8333	-2.4688	-2.3521	-2.8167	-2.4167	-2.6771	-2.7917	-2.1312	-2.8688	-2.625	-2.3208	-3.0938	-2.3	-2.7875	174.757	-34.529	-89.746	201.566	-37.633	-26.184	119.064	-131.513	-51.004	-130.136	-82.843	178.469	-137.289	197.571	200.280	98.107	0.0023955	0.00049151	0.00014197	679.67	5.9504e-06	4.7381e-06	768.56	289.89	4.8256e-06	3.3127e-06	401.41	186.18	122.85	58.591	4.6989e-06	97.763	9.6145e-05	6.232e-05	1.7952e-05	654.33	6.3581e-07	6.7283e-07	744.46	277.84	6.6138e-07	6.8968e-07	381.31	177.7	109.71	56.296	7.2644e-07	93.432	48.242	-54.693	-59.824	-127.247	-27.285	-26.817	-128.028	-122.038	-44.726	-12.790	-123.519	-119.144	-118.579	-113.148	-0.428	-115.236	-8191	255	
7830.617	1	1	0	0	0.054869	0.21626	0.12542	0.4147	0.31995	0.18833	0.19571	0.18688	0.24804	0.16981	0.12966	0.16434	0.16761	0.087809	0.19707	0.31989	-2.3229	-2.0958	-2.6437	-2.6667	-2.1042	-2.925	-2.4583	-2.5083	-2.8125	-2.2333	-2.875	-2.7521	-2.1604	-3.0875	-2.2667	-2.4625	149.923	118.021	121.394	136.665	88.433	90.586	95.548	195.655	173.094	40.310	-91.629	215.957	183.856	-75.045	-95.749	180.071	0.0024718	0.00038119	0.00014984	679.14	2.3691e-06	2.4558e-06	767.36	288.23	4.5229e-06	3.5544e-06	395.73	183.1	121.16	57.731	4.4527e-06	96.363	9.5738e-05	6.3035e-05	1.7084e-05	653.6	6.3552e-07	6.9108e-07	740.59	275.72	6.5947e-07	6.8062e-07	375.3	174.52	108.39	55.608	7.1856e-07	91.832	44.933	-100.224	-62.110	-127.201	-8.843	-33.271	-127.695	-122.225	-38.591	-27.067	-123.427	-119.093	-118.075	-112.992	-5.120	-115.074	-8191	255	
7830.713	1	1	0	0	0.24706	0.30207	0.11289	0.27573	0.11043	0.2329	0.1483	0.052124	0.147	0.064755	0.17205	0.11324	0.083688	0.12903	0.098886	0.056567	-2.5167	-2.2146	-2.7208	-2.5708	-2.0833	-2.9042	-2.45	-2.3458	-2.8042	-2.2062	-2.7667	-2.7687	-2.1063	-2.7979	-2.4437	-2.3833	-17.157	-41.286	37.661	-46.573	-7.174	52.761	53.391	2.542	162.435	99.540	212.933	114.433	178.106	110.450	196.719	-126.529	0.0023391	0.00029472	0.00010932	671.74	5.7118e-06	3.7397e-06	756.12	283.99	6.2566e-06	1.5303e-06	388.97	181.47	120.12	57.346	3.7208e-06	95.665	9.5939e-05	6.317e-05	1.6494e-05	647.97	6.7303e-07	6.8794e-07	730.82	272.48	6.8747e-07	7.0509e-07	369.34	172.83	107.44	55.051	6.6825e-07	91.252	45.368	-91.005	-63.014	-126.865	-6.787	-19.419	-127.649	-122.035	-42.347	22.414	-123.569	-119.305	-118.730	-112.871	-18.557	-114.913	-8191	255	
7830.785	1	1	0	0	0.20136	0.15132	0.089725	0.11469	0.055773	0.2347	0.15283	0.19183	0.3243	0.1676	0.049649	0.21451	0.2946	0.077452	0.038202	0.18608	-2.2062	-2.1208	-2.4938	-2.6667	-2.1604	-2.8937	-2.5292	-2.3583	-2.7167	-2.2438	-2.4771	-2.8417	-2.1917	-3.0396	-2.5187	-2.3125	13.694	-18.742	218.654	190.353	10.107	-73.132	165.384	160.998	-19.254	152.982	-121.531	130.678	98.386	-105.538	-43.458	181.195	0.0024084	0.00058549	0.00013009	671.46	4.8874e-06	2.7036e-06	758.14	284.4	4.3928e-06	4.1099e-06	389.49	181.43	121.21	57.659	5.8987e-06	95.782	9.6367e-05	6.388e-05	1.6663e-05	646.51	6.9336e-07	6.8914e-07	731.57	272.38	6.7502e-07	6.7485e-07	370.26	173.29	107.85	55.338	6.5844e-07	91.704	46.640	-75.638	-47.508	-127.212	-18.530	-14.376	-127.749	-121.965	-21.531	-12.147	-123.848	-119.302	-118.607	-112.987	-6.612	-115.134	-8191	255	
7830.905	1	1	0	0	0.046807	0.23785	0.20797	0.16675	0.25453	0.15242	0.18131	0.2783	0.057088	0.18515	0.2322	0.23038	0.19771	0.30508	0.064016	0.20622	-2.3167	-2.1021	-2.2687	-2.8479	-2.1125	-2.6813	-2.6708	-2.1458	-2.6917	-2.3625	-2.4313	-2.8458	-2.0854	-2.7062	-2.6979	-2.1125	112.141	-110.761	-71.528	98.190	143.311	171.365	153.964	129.435	152.142	-17.205	-138.439	113.580	183.114	125.071	31.688	160.191	0.0024818	0.00036743	0.00018772	668.98	2.786e-06	4.8814e-06	757.82	286.05	8.51e-06	2.3311e-06	395.2	184.51	120.86	58.262	4.1412e-06	97.348	9.9769e-05	6.1452e-05	1.6023e-05	647.34	7.2271e-07	6.8782e-07	733.8	274.28	7.2827e-07	6.615e-07	374.77	175.39	108.84	55.889	6.4863e-07	92.965	43.410	-86.082	-47.401	-127.191	-5.446	-0.156	-127.851	-122.092	-35.280	10.344	-123.442	-119.091	-118.665	-113.197	-22.918	-115.040	-8191	255	
7831.001	1	1	0	0	0.097105	0.13382	0.071596	0.19433	0.25195	0.22093	0.35291	0.32851	0.20649	0.42915	0.070966	0.13323	0.22002	0.13912	0.13511	0.23674	-2.3937	-2.325	-2.4646	-2.9354	-2.0708	-2.5729	-2.6729	-2.1896	-2.8917	-2.4271	-2.4646	-2.9521	-1.9896	-2.6562	-2.575	-2.3083	61.365	-16.543	148.570	138.300	-48.666	97.594	159.447	91.211	102.844	28.547	194.477	-86.523	216.058	205.609	51.676	165.513	0.0023755	0.00054101	0.00013256	677.78	5.6638e-06	3.7542e-06	769.46	289.89	4.0409e-06	3.3045e-06	399.35	185.18	122.57	58.45	2.7405e-06	97.243	9.8571e-05	6.096e-05	1.6289e-05	652.3	7.1333e-07	6.398e-07	741.71	276.63	7.1695e-07	6.4668e-07	379.07	176.87	109.35	56.076	6.384e-07	93.063	47.453	-80.274	-70.022	-127.002	-29.740	-15.334	-127.675	-121.490	-36.401	-15.007	-123.605	-119.171	-118.318	-113.187	-24.314	-114.879	-8191	255	
7831.097	1	1	0	0	0.1761	0.12644	0.10476	0.43989	0.10715	0.065606	0.126	0.23832	0.06147	0.24584	0.30062	0.11074	0.1574	0.22435	0.13541	0.25764	-2.2938	-2.5146	-2.2562	-2.7438	-2.2958	-2.5521	-2.875	-2.1896	-2.7146	-2.5021	-2.3375	-3.0687	-2.1854	-2.7104	-2.8292	-2.3542	115.099	-48.259	213.466	150.506	31.266	172.638	130.336	196.999	196.987	1.352	123.988	-103.832	129.417	173.337	-14.643	143.923	0.002471	0.00028565	0.00016697	673.22	3.9049e-06	4.179e-06	755.01	283.48	4.5113e-06	4.4652e-06	391.68	182.18	119.61	57.349	4.167e-06	95.184	9.7773e-05	5.7352e-05	1.615e-05	649.16	6.6979e-07	6.4772e-07	731.69	273.25	6.8421e-07	6.2808e-07	370.62	173.41	107.57	55.22	6.256e-07	91.3	47.758	-98.094	-69.063	-126.942	4.036	4.355	-127.884	-122.136	-52.853	7.895	-123.492	-119.350	-118.106	-113.202	0.895	-114.835	-8191	255	
7831.216	1	1	0	0	0.14641	0.12475	0.26726	0.035233	0.022769	0.3071	0.16568	0.22463	0.24408	0.16892	0.21699	0.29466	0.37081	0.020474	0.35682	0.21899	-2.4271	-2.7604	-2.1208	-2.7313	-2.4146	-2.4021	-2.9875	-2.3292	-2.6646	-2.6333	-2.2917	-2.8167	-2.3479	-2.45	-3.0187	-2.1437	142.256	176.411	-59.296	12.403	164.761	129.990	-136.777	144.443	165.204	95.998	213.665	-74.628	-98.252	-70.378	101.366	136.533	0.0022909	0.00049	0.00017724	668.27	3.8276e-06	5.4203e-06	753.67	281.78	4.4848e-06	3.0535e-06	387.4	180.61	119.72	57.195	4.2744e-06	95.289	9.4377e-05	5.5021e-05	1.5132e-05	645.09	6.3758e-07	5.9165e-07	726.49	269.76	6.4048e-07	5.9697e-07	366.45	172.1	106.67	54.973	6.5648e-07	91.205	48.349	-66.712	-62.220	-127.022	-24.911	-20.428	-127.627	-122.196	-31.623	-16.241	-123.454	-119.238	-118.520	-113.096	-30.414	-114.958	-8191	255	
7831.312	1	1	0	0	0.15537	0.17185	0.11981	0.25126	0.17875	0.28709	0.19767	0.14347	0.11352	0.090168	0.14067	0.23634	0.095244	0.16328	0.06958	0.10706	-2.25	-2.7792	-2.1354	-3.0167	-2.375	-2.2542	-2.9271	-2.3208	-2.4625	-2.6625	-2.3396	-2.7833	-2.3229	-2.3708	-2.9208	-2.4229	-119.436	36.067	-47.096	-93.423	-27.262	202.968	213.238	-117.363	-2.892	-134.034	-60.781	204.995	79.280	178.456	77.001	163.862	0.0023592	0.00055143	0.00013617	668.52	4.4409e-06	3.8585e-06	756.76	284.92	5.4243e-06	2.9854e-06	389.38	180.86	120.12	57.469	4.8643e-06	96.011	9.3513e-05	5.3997e-05	1.6147e-05	645.85	6.423e-07	5.8951e-07	729.62	272.13	6.2397e-07	5.7966e-07	370.38	173.23	107.25	55.207	6.7031e-07	91.914	44.931	-78.342	-63.766	-127.257	-24.929	-7.781	-127.942	-122.025	-29.320	5.873	-123.113	-119.406	-118.486	-113.298	-14.515	-114.975	-8191	255	
7831.409	1	1	0	0	0.18761	0.051625	0.10451	0.22043	0.31299	0.20906	0.089226	0.19222	0.088599	0.19797	0.30819	0.08234	0.36627	0.19302	0.13067	0.16295	-2.2333	-2.6958	-2.0146	-2.7229	-2.525	-2.1875	-3.0187	-2.2562	-2.3896	-2.7479	-2.2354	-2.8812	-2.5687	-2.125	-2.85	-2.4542	60.259	-45.098	105.361	-137.716	93.457	-1.305	201.096	174.558	190.818	24.038	172.243	-136.017	74.787	192.527	214.546	209.556	0.0023194	0.00030907	0.00012528	675.84	6.1778e-06	4.4915e-06	763.48	286.64	3.9545e-06	3.4394e-06	394.77	182.71	121.61	57.899	2.92e-06	97.283	9.2353e-05	5.5177e-05	1.6491e-05	649.15	6.2904e-07	6.0323e-07	737.72	273.59	6.269e-07	6.0986e-07	374.3	174.82	108.31	55.677	6.8179e-07	92.894	47.144	-74.999	-60.864	-126.926	16.630	-20.361	-128.027	-122.130	-2.320	16.892	-123.780	-119.233	-118.757	-113.095	-43.467	-115.095	-8191	255	
7831.480	1	1	0	0	0.10047	0.15548	0.12467	0.15221	0.049557	0.17707	0.20539	0.16018	0.15099	0.1686	0.27485	0.16426	0.22891	0.18307	0.36704	0.43612	-1.9667	-2.7458	-2.075	-2.7438	-2.5521	-2.1021	-2.9021	-2.5812	-2.475	-2.8417	-2.1604	-2.7125	-2.5625	-2.2167	-2.9146	-2.5333	-47.540	162.134	98.822	-112.610	-46.764	-91.319	83.119	-79.433	145.028	172.342	192.699	-91.429	-101.212	168.781	199.140	158.215	0.0024233	0.00035344	0.00014444	679.24	5.1712e-06	3.2233e-06	772.56	288.51	3.8072e-06	4.3289e-06	396.88	184.04	121.62	58.091	4.0527e-06	97.215	9.0952e-05	5.8017e-05	1.6711e-05	652.8	6.3051e-07	6.2426e-07	743.18	275.6	6.1729e-07	6.184e-07	377.27	176.26	108.53	55.9	6.8954e-07	92.989	46.429	-62.550	-64.107	-127.284	-8.580	-13.474	-127.905	-121.926	-50.585	-7.307	-123.481	-119.213	-119.009	-113.148	-13.855	-115.214	-8191	255	
7831.601	1	1	0	0	0.20981	0.14219	0.19731	0.24918	0.19031	0.099794	0.3635	0.20704	0.098425	0.18997	0.027504	0.17505	0.10659	0.096053	0.15813	0.33009	-1.8292	-2.75	-1.9854	-2.5687	-2.55	-2.2042	-2.8042	-2.5146	-2.1521	-2.75	-2.3333	-2.6167	-2.7854	-2.0021	-2.6958	-2.7021	180.115	-131.864	209.850	-106.204	86.445	-15.139	-50.906	172.507	-104.892	109.731	98.385	-119.977	-78.395	205.366	96.500	126.952	0.0024616	0.0005686	0.00015397	670.92	5.4865e-06	2.3448e-06	761.82	286.03	4.8089e-06	2.5296e-06	391.4	181.19	120.32	57.419	4.8819e-06	96.115	9.3918e-05	6.0942e-05	1.6887e-05	647.39	6.1487e-07	6.4986e-07	737.23	273.44	6.3522e-07	6.4648e-07	371.27	173.46	107.25	55.18	6.7671e-07	91.867	45.120	-57.601	-61.043	-126.952	-2.252	-22.076	-127.693	-122.025	-60.206	0.253	-123.479	-119.363	-118.778	-113.098	-30.153	-114.769	-8191	255	
7831.697	1	1	0	0	0.20577	0.24815	0.18711	0.06575	0.33529	0.17046	0.22457	0.26854	0.19644	0.024294	0.065767	0.070233	0.20969	0.097447	0.23501	0.22489	-1.7333	-2.8625	-2.25	-2.3958	-2.6396	-2.0854	-2.7708	-2.7417	-2.2771	-2.8625	-2.5333	-2.475	-2.7708	-2.2354	-2.7167	-2.6729	-95.450	139.362	77.969	53.389	173.432	10.054	157.489	199.825	1.182	201.360	-139.678	-117.359	-55.008	-113.821	47.404	113.746	0.0023486	0.00042349	0.00011701	671.71	4.9984e-06	5.1896e-06	755.71	281.42	6.8432e-06	4.354e-06	387.62	180.91	119.76	57.65	4.9578e-06	96.022	9.1991e-05	6.1325e-05	1.6284e-05	647.4	6.2159e-07	6.7283e-07	731.9	270.12	6.4041e-07	6.5789e-07	368.08	172.82	106.8	55.232	6.549e-07	91.882	47.201	-79.698	-45.268	-126.697	-24.568	-16.504	-127.934	-122.166	-29.005	14.726	-123.411	-119.003	-117.863	-113.076	12.828	-115.009	-8191	255	
7831.793	1	1	0	0	0.013171	0.19188	0.1599	0.19348	0.16678	0.13148	0.35137	0.25716	0.14703	0.04924	0.10304	0.19183	0.084334	0.33168	0.091973	0.248	-1.6625	-2.8375	-2.2375	-2.375	-2.8187	-2.2604	-2.5521	-2.6833	-2.0563	-2.7417	-2.6396	-2.2875	-2.8792	-2.3	-2.5417	-2.7354	103.575	-10.815	187.679	-100.360	195.417	190.993	194.983	-126.674	-59.857	-21.364	-125.481	-105.531	-129.566	154.136	95.845	160.441	0.0024245	0.00060423	0.00011615	670.69	4.1138e-06	3.7203e-06	759.15	283.38	5.8206e-06	4.1311e-06	392.52	182.77	120.84	57.847	4.4524e-06	96.977	9.4785e-05	6.1031e-05	1.5816e-05	647.16	6.4249e-07	6.8218e-07	734.79	271.06	6.9908e-07	6.6682e-07	372.09	174.52	107.86	55.535	6.4795e-07	92.7	44.579	-64.639	-80.362	-126.978	-13.189	-31.755	-128.092	-121.973	-33.042	-16.449	-123.133	-119.580	-118.318	-112.982	-3.851	-114.766	-8191	255	
7831.889	1	1	0	0	0.37962	0.15128	0.27006	0.10822	0.2917	0.20585	0.43787	0.2366	0.21772	0.14349	0.35201	0.20479	0.25082	0.12932	0.10362	0.1662	-1.7375	-2.7146	-2.4104	-2.4021	-2.85	-2.1229	-2.6333	-2.7333	-1.9271	-2.7521	-2.6542	-2.2708	-2.8125	-2.3208	-2.1396	-2.9625	-60.873	186.120	190.841	86.520	-14.163	210.537	154.761	-32.742	-23.360	113.372	185.147	-100.740	172.204	167.790	40.629	172.683	0.0024181	0.00048072	0.0001328	675.99	5.4795e-06	3.6574e-06	770.3	285.95	6.2661e-06	4.1238e-06	399.49	185.32	122.67	58.393	5.1953e-06	98.148	9.8663e-05	6.0889e-05	1.603e-05	652.7	6.7059e-07	6.574e-07	742.14	273.74	6.8924e-07	6.6089e-07	378.04	176.83	108.99	56.162	6.503e-07	93.887	45.783	-85.468	-40.101	-126.864	-3.557	-19.138	-127.747	-122.077	-50.911	19.700	-123.267	-119.299	-118.795	-113.150	-8.028	-114.834	-8191	255	
7832.008	1	1	0	0	0.07943	0.18524	0.15342	0.16815	0.15426	0.26472	0.18047	0.17299	0.075212	0.16435	0.092753	0.19386	0.16261	0.24982	0.10671	0.17318	-1.5833	-2.6875	-2.6813	-2.3312	-2.7708	-2.4229	-2.3271	-2.8167	-2.2042	-2.6562	-2.6625	-2.1375	-2.7354	-2.6229	-2.3625	-3.0875	-93.797	77.167	-88.742	147.464	-57.459	176.780	194.012	137.638	-91.167	168.791	112.199	145.539	209.197	211.255	204.146	197.567	0.0023566	0.00045113	9.3057e-05	681.26	3.5989e-06	2.7197e-06	777.87	290.56	8.1656e-06	3.0859e-06	403.06	186.9	122.78	58.606	3.7853e-06	98.259	0.00010196	5.7799e-05	1.6337e-05	655.78	6.9471e-07	6.5128e-07	750.98	277.51	7.2088e-07	6.4913e-07	382.95	178.57	109.51	56.348	6.3634e-07	94.304	44.851	-104.118	-83.785	-127.174	-9.251	-21.404	-127.873	-121.927	-47.594	5.357	-123.437	-119.352	-118.538	-112.644	-36.417	-115.102	-8191	255	
7832.082	1	1	0	0	0.2274	0.29769	0.24933	0.18263	0.078383	0.17512	0.18688	0.18779	0.37922	0.12018	0.23991	0.35461	0.19599	0.17117	0.18359	0.37643	-1.7083	-2.6	-2.9813	-2.25	-2.8312	-2.6	-2.4146	-3.0229	-2.1521	-2.6458	-2.875	-2.0917	-2.6417	-2.8187	-2.1042	-2.8812	-118.481	75.921	-35.603	-139.024	90.023	76.085	-80.218	53.923	80.434	174.919	123.082	140.429	-14.809	133.388	-42.521	159.070	0.0024679	0.00051143	0.00014677	677.53	3.3701e-06	6.6177e-06	777.7	287.31	7.6471e-06	3.5242e-06	399.92	184.85	121.11	58.198	5.0079e-06	97.142	9.9869e-05	5.9091e-05	1.5782e-05	654.84	6.687e-07	6.3594e-07	749.12	275.53	7.0014e-07	6.145e-07	378.48	176.69	108.28	55.839	6.3663e-07	93.209	47.152	-68.014	-66.928	-127.069	-22.413	0.749	-127.740	-121.985	-41.275	21.303	-123.209	-119.258	-118.260	-112.843	-17.938	-114.913	-8191	255	
7832.178	1	1	0	0	0.13388	0.25397	0.18446	0.16073	0.085418	0.1364	0.18919	0.12735	0.17884	0.21829	0.14551	0.13415	0.42917	0.13711	0.049312	0.107	-1.8813	-2.2458	-2.7375	-2.125	-2.7417	-2.6688	-2.3854	-2.9125	-2.1625	-2.3438	-3.0438	-2.3375	-2.7083	-2.9396	-1.9917	-2.9688	-90.057	20.990	13.734	137.537	181.975	215.233	136.539	45.536	-87.405	199.067	185.782	157.886	-124.356	52.484	12.667	-80.529	0.0024041	0.00050774	0.0001292	675.68	6.4939e-06	4.104e-06	770.33	285.66	1.043e-05	1.5954e-06	396.45	183.82	121.6	57.977	2.8567e-06	97.461	9.8569e-05	5.7732e-05	1.6013e-05	653.19	6.6115e-07	6.3653e-07	744.14	273.46	6.8063e-07	5.9868e-07	375.87	175.7	108.18	55.67	6.642e-07	93.241	47.555	-108.954	-70.017	-127.173	-31.806	-2.455	-127.789	-122.158	-12.161	-29.931	-123.398	-119.363	-117.962	-112.992	28.077	-115.119	-8191	255	
7832.297	1	1	0	0	0.1362	0.11545	0.21167	0.12342	0.32306	0.077944	0.022791	0.27794	0.34127	0.14489	0.19245	0.33746	0.1642	0.22694	0.15209	0.11716	-2.0563	-2.1583	-2.7958	-2.2042	-2.5792	-2.8271	-2.1958	-2.8063	-2.4833	-2.4042	-2.9938	-2.2896	-2.7792	-2.7417	-2.1875	-2.8979	-4.668	167.152	-101.303	73.235	89.811	-86.374	19.543	104.485	48.159	70.795	-107.448	203.687	-132.151	216.120	156.411	166.214	0.002335	0.00043948	0.00016699	677.09	5.0476e-06	2.5893e-06	775.21	284.61	5.4555e-06	3.0919e-06	397.74	185.07	121.87	58.255	3.7832e-06	98.624	9.622e-05	5.6905e-05	1.6822e-05	653.62	6.3755e-07	6.0145e-07	746.11	272.93	6.7283e-07	6.0477e-07	378.56	176.81	108.56	56.102	6.889e-07	94.297	46.997	-47.438	-75.001	-127.014	2.874	-4.754	-127.721	-122.083	-34.122	-22.289	-123.485	-119.422	-118.472	-113.011	-17.501	-115.030	-8191	255	
7832.393	1	1	0	0	0.10573	0.087829	0.041256	0.18555	0.19386	0.20242	0.037738	0.14947	0.11817	0.2549	0.12617	0.20405	0.15453	0.43012	0.17901	0.38607	-2.0833	-2.1937	-2.8875	-2.2042	-2.4896	-2.9646	-2.2396	-2.7354	-2.4646	-2.475	-2.9229	-2.5125	-2.4062	-3.0687	-2.2396	-2.8042	-39.160	-17.991	-120.077	73.810	-67.532	178.875	149.514	118.379	208.580	116.300	-93.337	109.572	-62.875	-139.220	-109.912	166.842	0.0025117	0.00068752	0.00013432	678.38	2.9676e-06	5.2063e-06	783.07	289.03	6.7886e-06	2.7707e-06	405.53	186.88	123.06	59.069	4.311e-06	99.742	9.5439e-05	5.6752e-05	1.6798e-05	657.21	6.529e-07	6.1342e-07	755.28	276.43	6.6831e-07	6.3684e-07	384.02	179.27	109.5	56.599	7.3145e-07	95.329	46.079	-76.082	-55.510	-126.887	3.967	-31.785	-127.578	-122.018	-17.816	4.861	-123.418	-119.039	-118.639	-112.950	12.631	-114.884	-8191	255	
7832.489	1	1	0	0	0.31231	0.10381	0.20625	0.28555	0.21469	0.15977	0.23428	0.16424	0.061257	0.22079	0.25933	0.34998	0.19587	0.099106	0.22909	0.048704	-2.1417	-2.3354	-2.8812	-2.4333	-2.2313	-2.9146	-2.3583	-2.6042	-2.6292	-2.0875	-3.0271	-2.3583	-2.4104	-3.0271	-2.1375	-2.6458	72.865	184.335	-59.860	-96.124	157.603	-103.954	161.848	43.484	136.916	216.390	186.599	135.915	154.897	160.711	177.617	-20.037	0.0024852	0.00045744	0.00011167	685.48	5.8717e-06	4.4753e-06	785.16	291.35	4.5137e-06	4.031e-06	406.49	188.71	123.73	59.106	7.0362e-06	99.704	9.5655e-05	5.9347e-05	1.7453e-05	661.23	6.4683e-07	6.6283e-07	760.03	279.2	6.4809e-07	6.5522e-07	386.62	180.08	109.81	56.737	7.3956e-07	95.102	47.284	-87.942	-46.251	-127.171	3.840	-21.409	-127.775	-122.062	-34.823	-31.535	-122.949	-119.105	-118.503	-113.108	-4.086	-114.945	-8191	255	
7832.585	1	1	0	0	0.19241	0.12198	0.08826	0.098922	0.083946	0.18857	0.1425	0.26415	0.096878	0.26108	0.078547	0.18586	0.10864	0.14089	0.18185	0.26219	-2.3375	-1.9104	-2.8875	-2.6	-2.3167	-2.8896	-2.1104	-2.575	-2.5854	-2.2042	-2.9979	-2.4813	-2.3083	-2.8417	-2.3104	-2.6354	185.216	122.355	95.457	189.516	167.872	22.529	137.604	67.638	6.572	115.730	83.912	197.869	72.135	187.627	20.207	155.223	0.0025042	0.0005705	0.0001802	682.64	4.5921e-06	5.2312e-06	781.61	288.25	6.8201e-06	3.0327e-06	401.33	187.06	122.55	58.333	2.1406e-06	98.326	9.5218e-05	6.0869e-05	1.7328e-05	659.27	6.2727e-07	6.5458e-07	753.94	276.57	6.1768e-07	6.6415e-07	380.06	177.87	108.72	55.995	6.9144e-07	94.03	46.155	-71.849	-51.059	-126.975	-21.194	3.266	-127.763	-121.668	-8.657	-3.095	-123.606	-119.018	-118.675	-112.967	-25.040	-114.836	-8191	255	
7832.681	1	1	0	0	0.2192	0.1617	0.059646	0.12396	0.10546	0.20862	0.13097	0.083674	0.080067	0.12467	0.163	0.32103	0.044115	0.30925	0.16557	0.24673	-2.3729	-2.1021	-2.7604	-2.7646	-2.1896	-2.9646	-2.5812	-2.7354	-2.8833	-2.3167	-2.8646	-2.7479	-2.2167	-3.0938	-2.4771	-2.5729	-5.006	194.814	-105.244	-90.495	-69.718	57.851	158.747	-135.042	-15.957	-44.301	173.779	116.564	101.128	209.243	147.064	138.181	0.002503	0.00038704	0.00012691	680.37	5.4321e-06	3.2176e-06	780.12	286.97	7.1366e-06	3.7722e-06	398.17	184.64	121.54	58.012	4.2372e-06	97.312	9.3674e-05	6.4062e-05	1.6688e-05	656.92	6.3144e-07	6.6604e-07	750.19	274.28	6.4548e-07	6.6595e-07	376.82	176.12	108.04	55.634	6.5857e-07	93.14	45.550	-94.060	-51.976	-126.735	-25.433	-65.148	-127.862	-121.947	-17.006	35.511	-123.174	-118.863	-118.280	-113.030	15.100	-114.976	-8191	255	
7832.777	1	1	0	0	0.13189	0.19924	0.23575	0.21843	0.11214	0.20632	0.15711	0.2639	0.082467	0.21213	0.14986	0.36126	0.21264	0.06051	0.1293	0.16227	-2.3771	-2.1688	-2.6167	-2.8417	-2.0896	-2.975	-2.6271	-2.4562	-2.7958	-2.15	-2.6437	-2.7687	-2.0271	-2.9583	-2.5125	-2.4333	15.954	25.329	-81.713	-44.222	203.784	71.102	200.734	145.602	-0.740	181.603	181.673	96.927	-124.031	-84.192	171.811	175.362	0.0025209	0.00042624	0.0001378	683.44	4.2498e-06	3.8128e-06	772	286.69	6.3288e-06	4.4439e-06	396.04	185.86	121.98	57.944	4.8984e-06	98.27	9.4977e-05	6.2223e-05	1.6229e-05	657.13	6.7367e-07	6.4863e-07	748.29	274.3	6.5993e-07	6.7308e-07	377.21	176.88	108.39	55.862	6.5172e-07	93.922	46.514	-59.663	-71.978	-127.036	-30.405	-6.836	-127.705	-121.977	-29.397	2.427	-123.564	-119.043	-118.261	-113.028	-6.676	-114.892	-8191	255	
7832.898	1	1	0	0	0.22358	0.12707	0.17459	0.16727	0.22476	0.24777	0.26193	0.13075	0.16704	0.20884	0.19812	0.31043	0.1557	0.16938	0.12165	0.17949	-2.5125	-2.1896	-2.5271	-2.6521	-2.1104	-2.7188	-2.7	-2.2271	-2.8771	-2.2583	-2.6083	-3.0583	-2.0854	-2.8458	-2.5354	-2.45	129.516	-74.732	206.329	179.405	52.686	-12.943	168.335	-39.719	161.743	8.580	136.602	143.635	34.596	-135.628	114.867	133.580	0.0025903	0.00031846	0.00017094	682.26	5.7861e-06	3.4875e-06	778.51	287.01	4.0364e-06	3.7582e-06	402.18	186.49	122.04	58.459	4.2359e-06	98.618	9.8732e-05	6.1016e-05	1.573e-05	656.25	7.0296e-07	6.4607e-07	748.97	275.23	6.9631e-07	6.6563e-07	381.1	177.6	109.01	56.075	6.4252e-07	94.14	48.998	-53.210	-75.836	-127.018	6.998	-39.326	-127.892	-122.206	-40.713	-2.067	-123.742	-118.830	-118.606	-113.235	-3.764	-115.005	-8191	255	
7832.994	1	1	0	0	0.064825	0.29605	0.10463	0.10285	0.24441	0.19085	0.17707	0.061285	0.054657	0.038274	0.20419	0.25603	0.21182	0.23394	0.32619	0.38874	-2.5042	-2.2729	-2.1458	-2.7188	-2.1042	-2.7208	-2.6354	-2.2458	-2.7604	-2.2542	-2.4875	-2.9813	-2.2167	-2.6063	-2.5938	-2.3479	169.735	116.242	90.935	186.698	-15.700	159.459	154.064	-52.956	23.636	181.596	-121.123	-84.213	166.927	-2.759	48.303	159.990	0.002489	0.00040548	0.00013188	680.2	6.805e-06	3.22e-06	776.75	288.33	7.3806e-06	5.5033e-06	404.15	187.53	121.73	58.243	4.9451e-06	97.733	0.0001003	6.1493e-05	1.5676e-05	655.34	6.9946e-07	6.3821e-07	751.2	276.82	7.0872e-07	6.3875e-07	381.96	178.46	108.6	55.944	6.3158e-07	93.809	45.193	-63.542	-104.221	-126.988	1.457	-21.272	-127.985	-122.076	-42.263	5.121	-123.267	-119.112	-118.803	-112.856	-34.573	-114.857	-8191	255	
7833.090	1	1	0	0	0.28993	0.25343	0.2175	0.13414	0.10885	0.085371	0.16574	0.080009	0.04658	0.13301	0.39735	0.2056	0.32145	0.13945	0.16176	0.14301	-2.2646	-2.4229	-2.2438	-2.9458	-2.1667	-2.6083	-2.7208	-2.2333	-2.7458	-2.5271	-2.375	-2.9271	-1.9979	-2.7417	-2.7917	-2.1958	40.304	-45.730	-74.154	181.416	-18.489	58.097	139.036	32.105	-120.229	-132.237	184.861	161.351	58.055	-83.423	-15.649	163.722	0.0024037	0.00052045	0.00015914	678.18	4.1115e-06	4.2584e-06	769.08	285.84	4.8415e-06	5.2665e-06	393.02	183.1	119.81	57.451	2.5789e-06	96.164	9.7119e-05	5.7714e-05	1.504e-05	653.3	6.6529e-07	6.0986e-07	741.96	273.11	6.7205e-07	6.1615e-07	374.01	174.68	107.08	55.077	6.0852e-07	92.151	45.985	-46.767	-70.049	-126.721	-22.661	-18.876	-127.791	-121.884	-47.966	2.493	-123.441	-118.995	-118.057	-112.980	-29.362	-115.141	-8191	255	
7833.185	1	1	0	0	0.19648	0.27431	0.30823	0.2137	0.02024	0.30688	0.22416	0.11451	0.15357	0.25083	0.085859	0.28097	0.061499	0.099183	0.11122	0.23569	-2.375	-2.5812	-2.1354	-2.8	-2.1604	-2.4313	-3.0083	-2.1979	-2.6312	-2.7042	-2.3875	-2.9104	-2.1896	-2.4604	-2.725	-2.3958	102.528	-10.020	-130.380	208.949	128.150	-14.570	205.967	-81.027	136.581	175.477	-74.340	88.946	170.552	-76.592	147.789	100.867	0.0022428	0.0004099	0.0001529	669.66	3.8785e-06	4.6998e-06	766.28	284.03	5.2013e-06	2.0592e-06	393.28	182.16	120.21	57.268	5.8061e-06	96.535	9.264e-05	5.6163e-05	1.5387e-05	647.91	6.4891e-07	5.8796e-07	737.07	271.07	6.7063e-07	5.9291e-07	372.18	173.77	106.84	55.026	6.2528e-07	92.347	46.228	-71.383	-44.864	-126.992	-33.790	-12.959	-127.780	-122.200	-23.545	15.960	-123.689	-119.117	-118.283	-113.119	-36.654	-114.802	-8191	255	
7833.305	1	1	0	0	0.23887	0.15244	0.22881	0.096717	0.055425	0.15654	0.22213	0.13907	0.12513	0.27845	0.23153	0.16023	0.29253	0.27581	0.22403	0.19474	-2.1188	-2.6229	-2.1604	-2.8458	-2.2771	-2.1958	-2.9521	-2.3833	-2.6146	-2.4813	-2.2917	-2.9396	-2.4583	-2.4042	-2.8688	-2.3771	24.029	119.394	161.554	160.749	-44.111	70.798	82.796	150.957	194.939	-79.677	104.858	-93.963	161.838	198.345	-33.677	55.832	0.0025063	0.00044242	0.00012507	674.22	8.0755e-06	3.4229e-06	768.49	283.58	8.4176e-06	2.8012e-06	391.81	184	120.83	57.75	4.6936e-06	97.354	9.4581e-05	5.4479e-05	1.5549e-05	649.46	6.3096e-07	5.7873e-07	739.81	271.68	6.3864e-07	5.8914e-07	373.25	175.17	107.3	55.36	6.6828e-07	93.044	46.909	-63.892	-60.046	-126.727	4.150	-26.475	-127.673	-122.151	-32.436	-0.118	-123.161	-119.126	-118.141	-112.938	-17.346	-114.859	-8191	255	
7833.377	1	1	0	0	0.09953	0.14928	0.038772	0.12626	0.14499	0.19268	0.038847	0.13258	0.2138	0.2278	0.15654	0.23655	0.264	0.16719	0.28323	0.42468	-2.1021	-2.6583	-2.0292	-2.7625	-2.4208	-2.1354	-3.0667	-2.1979	-2.5438	-2.5833	-2.0854	-2.7875	-2.6667	-2.3771	-2.8125	-2.4854	112.300	-113.823	132.744	62.719	-126.365	71.934	151.509	106.314	104.643	32.286	106.503	120.287	-130.036	12.698	-61.295	107.490	0.0022853	0.00068174	9.416e-05	672.72	3.9432e-06	2.0864e-06	767.48	286.03	4.3642e-06	3.076e-06	397.26	185.22	121.45	58.084	4.0168e-06	98.015	9.2712e-05	5.3891e-05	1.6802e-05	651.76	6.1927e-07	5.8537e-07	741.91	273.14	6.2442e-07	5.9352e-07	377.36	176.83	108.53	55.836	6.7388e-07	93.952	45.078	-85.476	-35.572	-126.793	-17.170	-36.289	-127.682	-121.835	-51.648	32.064	-123.620	-119.177	-118.063	-113.090	-5.164	-114.801	-8191	255	
7833.473	1	1	0	0	0.20101	0.21821	0.41606	0.25306	0.27089	0.046264	0.099195	0.091133	0.19675	0.073331	0.15259	0.33532	0.18453	0.26623	0.13217	0.20622	-1.8563	-2.5875	-2.0542	-2.7583	-2.4333	-2.1375	-2.9333	-2.5271	-2.2729	-2.825	-2.2875	-2.625	-2.6104	-2.2208	-2.7396	-2.5979	47.803	-19.633	-17.708	134.070	169.584	172.159	-36.580	51.622	-13.172	-139.201	198.829	165.294	62.108	176.733	161.401	150.373	0.0023077	0.00026424	0.00017027	676.86	5.4474e-06	3.1037e-06	773.67	289.55	5.3943e-06	4.2519e-06	401.17	186.73	121.66	58.282	6.4847e-06	97.962	9.1796e-05	5.4241e-05	1.7733e-05	653.88	6.3469e-07	6.0634e-07	749.67	276.42	6.3084e-07	5.9787e-07	380.88	177.56	108.2	55.87	6.8025e-07	93.641	45.175	-58.339	-79.740	-127.005	-44.647	-14.106	-127.982	-121.947	-40.813	4.298	-123.308	-119.387	-118.084	-113.193	-22.431	-115.144	-8191	255	
7833.569	1	1	0	0	0.13196	0.13496	0.18058	0.15646	0.10815	0.051235	0.15873	0.06791	0.22919	0.23121	0.5269	0.33567	0.067809	0.33711	0.16646	0.38895	-1.8167	-2.7958	-1.9188	-2.4854	-2.7021	-2.0917	-2.75	-2.3646	-2.3083	-2.7979	-2.2667	-2.5792	-2.8104	-2.3125	-2.5375	-2.4833	162.224	-39.131	39.891	184.030	190.639	-16.573	95.348	100.500	-2.890	-127.920	106.184	208.347	25.900	219.353	75.472	156.262	0.0024939	0.00046919	0.00012846	675.59	2.2491e-06	4.1545e-06	768.13	284.58	6.3677e-06	3.512e-06	394.79	183.55	120.48	57.652	5.0493e-06	96.301	9.026e-05	5.8035e-05	1.6563e-05	653.54	6.1266e-07	6.2847e-07	743.55	272.85	6.0239e-07	6.2127e-07	374.23	174.87	106.93	55.284	6.6854e-07	92.428	46.145	-76.086	-51.227	-127.272	-9.699	-34.911	-127.823	-122.009	-23.955	6.429	-123.431	-119.299	-118.512	-113.109	-12.597	-114.938	-8191	255	
7833.690	1	1	0	0	0.12624	0.15633	0.088015	0.29679	0.22128	0.11938	0.049987	0.19232	0.16794	0.13226	0.063532	0.20643	0.1965	0.20336	0.14353	0.22365	-1.8833	-2.925	-2.0771	-2.5812	-2.7667	-2.0938	-2.6479	-2.5542	-2.1188	-2.8917	-2.4542	-2.5438	-2.775	-2.2458	-2.5563	-2.8125	163.373	9.479	-77.634	212.945	-14.527	7.571	150.792	212.646	70.541	-67.266	-26.998	-135.659	97.365	215.922	-110.025	84.636	0.0024378	0.00042517	0.00012187	674.77	6.4983e-06	3.3851e-06	767.94	284.41	7.5292e-06	3.4185e-06	389.91	183.01	119.58	57.155	3.4045e-06	96.664	9.1492e-05	5.9029e-05	1.6292e-05	650.66	6.0633e-07	6.4733e-07	740.12	271.24	6.1723e-07	6.5032e-07	372.42	174.27	106.67	55.025	6.4577e-07	92.33	47.023	-83.401	-44.659	-126.941	-20.777	4.653	-127.780	-121.849	-24.159	-17.314	-123.193	-119.281	-118.493	-113.208	-9.006	-114.959	-8191	255	
7833.786	1	1	0	0	0.1688	0.1113	0.062631	0.13144	0.14111	0.10095	0.23117	0.038618	0.04804	0.18403	0.16582	0.17919	0.10701	0.11359	0.08409	0.20716	-1.6979	-2.8083	-2.3208	-2.2271	-2.8854	-2.0583	-2.7292	-2.7521	-2.1604	-2.8396	-2.3979	-2.5729	-2.8708	-2.3083	-2.5187	-2.9042	66.621	24.645	60.526	-70.808	-51.315	-106.693	108.571	136.332	33.555	-99.115	199.836	-97.505	-127.026	-117.509	-40.960	78.301	0.0022495	0.00030501	0.000178	678.56	3.4768e-06	5.5374e-06	768.6	285.82	6.3838e-06	4.8311e-06	396.71	185.21	119.52	57.618	2.1522e-06	97.567	9.1638e-05	6.0157e-05	1.6051e-05	653.42	6.2473e-07	6.5986e-07	742.2	273.5	6.3342e-07	6.214e-07	375.7	175.51	107.15	55.352	6.1624e-07	93.039	47.112	-62.649	-44.738	-127.131	-9.606	-10.030	-127.954	-121.814	-29.437	5.675	-123.478	-119.333	-118.365	-113.094	1.199	-114.861	-8191	255	
7833.882	1	1	0	0	0.077823	0.24188	0.12745	0.29801	0.098682	0.15247	0.22362	0.054099	0.17435	0.18635	0.18854	0.10375	0.20114	0.15858	0.2395	0.17383	-1.75	-2.6688	-2.2625	-2.2479	-2.8937	-2.2167	-2.6208	-2.775	-2.2021	-2.8396	-2.5167	-2.4083	-2.8604	-2.2479	-2.1667	-2.8604	-44.673	118.366	-49.290	-119.829	-57.197	83.952	81.674	20.435	74.098	30.934	20.574	187.156	-96.490	-46.665	194.846	158.673	0.0023268	0.00046544	0.00015313	677.94	4.007e-06	4.8824e-06	773.61	287.14	5.64e-06	4.8518e-06	398.22	184.69	121.09	57.953	2.0772e-06	98.377	9.5666e-05	5.9386e-05	1.5494e-05	654.85	6.3382e-07	6.463e-07	747.15	274.55	6.6173e-07	6.2846e-07	377.47	176.45	107.72	55.674	6.3062e-07	93.966	44.397	-74.836	-50.925	-127.041	-5.373	-18.053	-128.009	-121.858	-66.365	-0.417	-123.254	-119.267	-118.122	-113.039	-8.309	-114.698	-8191	255	
7833.978	1	1	0	0	0.12039	0.089711	0.19628	0.10507	0.11952	0.098912	0.22106	0.078475	0.21975	0.17018	0.17489	0.041939	0.25821	0.27371	0.21145	0.29864	-1.7771	-2.6146	-2.7417	-2.1771	-2.7729	-2.1792	-2.6333	-2.7875	-2.2438	-2.7521	-2.7792	-2.4875	-2.8583	-2.5146	-2.3208	-2.9271	103.446	156.966	190.313	189.771	83.148	-26.322	133.956	128.388	59.518	169.149	162.201	-123.163	-71.070	101.759	-75.651	186.191	0.0024578	0.00066808	0.00013685	679.86	6.123e-06	4.6189e-06	779.94	288.39	4.5555e-06	4.218e-06	400.01	185.77	121.15	58.031	5.4081e-06	97.802	9.6938e-05	5.7352e-05	1.5087e-05	656.6	6.5421e-07	6.3313e-07	749.57	275.87	6.7508e-07	6.2289e-07	379.26	176.87	108.2	55.555	6.1811e-07	93.559	48.156	-76.440	-75.087	-127.105	-16.897	6.169	-128.136	-121.741	-45.793	-0.408	-123.384	-119.270	-118.645	-113.062	-0.995	-114.808	-8191	255	
7834.075	1	1	0	0	0.17843	0.23974	0.22995	0.24683	0.050901	0.33367	0.12203	0.056742	0.058027	0.13378	0.086057	0.21362	0.029476	0.238	0.20571	0.23611	-1.8104	-2.6125	-2.4917	-2.35	-2.8708	-2.4104	-2.4333	-2.9292	-2.2229	-2.6188	-3.0854	-2.1333	-2.6833	-2.5729	-2.1688	-3.0854	58.098	187.592	59.235	85.371	107.658	-48.719	-125.683	-83.848	-122.793	-95.716	127.611	36.551	38.744	205.110	141.563	22.058	0.002396	0.00040139	0.0001252	678.79	4.6997e-06	3.6517e-06	767.57	284.79	5.7767e-06	4.9642e-06	396.19	182.49	119.07	57.281	3.9526e-06	96.428	9.7635e-05	5.4562e-05	1.4707e-05	653.49	6.4493e-07	6.1138e-07	741.97	272.67	6.7754e-07	5.9204e-07	374.23	174.39	106.41	54.943	5.998e-07	92.388	45.995	-92.348	-49.716	-126.948	-23.333	-4.959	-128.046	-121.912	-10.193	-3.275	-123.247	-119.301	-118.441	-112.988	-39.356	-114.917	-8191	255	
7834.171	1	1	0	0	0.061292	0.27625	0.1594	0.12345	0.099511	0.14205	0.24696	0.18348	0.085287	0.18202	0.041186	0.30395	0.10259	0.24077	0.21741	0.18414	-1.8083	-2.5583	-2.8667	-2.1521	-2.5729	-2.5125	-2.4646	-2.9417	-2.2417	-2.4479	-2.8646	-2.2958	-2.6021	-2.5021	-2.2562	-2.925	20.869	-78.729	175.306	-123.792	174.528	154.401	-116.996	201.292	10.793	145.479	-53.909	-131.195	7.179	170.941	-76.154	208.018	0.0023976	0.00027692	0.00017683	674.01	3.9552e-06	5.8708e-06	770.96	284.03	7.6668e-06	2.6243e-06	394.94	183.59	119.47	57.399	3.3261e-06	97.189	9.6481e-05	5.4827e-05	1.4699e-05	650	6.52e-07	5.887e-07	742.65	271.23	6.5331e-07	5.8746e-07	374.25	174.58	106.77	55.082	6.0804e-07	92.786	45.915	-78.296	-42.853	-126.972	-54.169	-33.067	-128.004	-122.248	-12.214	-20.766	-123.300	-118.973	-118.339	-113.184	-4.599	-114.969	-8191	255	
7834.267	1	1	0	0	0.13176	0.21219	0.18208	0.3022	0.29038	0.25272	0.13997	0.13754	0.44241	0.20977	0.23486	0.070794	0.14684	0.16778	0.088818	0.047988	-1.9646	-2.5083	-2.775	-2.2313	-2.5479	-2.6354	-2.1562	-3.0792	-2.3604	-2.3979	-2.8688	-2.1125	-2.4792	-2.7125	-2.1271	-3.0375	5.938	-29.927	208.237	127.797	-53.313	-139.321	203.834	-10.946	-3.673	200.113	199.906	136.511	200.235	210.967	63.935	-67.549	0.0023127	0.00042246	0.0001623	677.77	6.6784e-06	3.2402e-06	774.07	284.2	5.3146e-06	2.9826e-06	396.53	184.58	120.16	57.811	3.1906e-06	97.587	9.4704e-05	5.5698e-05	1.557e-05	653.28	6.2595e-07	5.7132e-07	746.95	272.01	6.3754e-07	5.6393e-07	375.57	175.63	106.98	55.522	6.2968e-07	93.503	47.060	-65.734	-38.499	-127.001	3.572	-7.694	-127.829	-121.995	-31.415	-15.437	-123.522	-119.241	-117.946	-112.870	-67.188	-114.767	-8191	255	
7834.386	1	1	0	0	0.1234	0.059016	0.23499	0.14306	0.20905	0.1892	0.088261	0.22114	0.2407	0.24132	0.20906	0.11653	0.15711	0.15193	0.12439	0.34046	-2.0187	-2.1771	-2.7646	-2.2833	-2.4813	-2.8417	-2.2542	-2.8292	-2.5875	-2.275	-2.9521	-2.2708	-2.4083	-2.8917	-2.0333	-2.9479	87.697	90.887	-49.783	110.254	-77.731	79.563	186.309	176.721	-137.168	-54.825	169.679	-74.257	-117.376	-81.745	-4.993	116.301	0.0024345	0.00046837	0.0001031	679.94	4.9587e-06	2.0196e-06	774.53	284.68	6.0201e-06	3.8503e-06	400.63	186.01	121.17	58.119	3.7982e-06	98.833	9.5017e-05	5.2843e-05	1.6423e-05	655.02	6.0929e-07	5.8844e-07	749.07	273.48	6.2513e-07	5.8872e-07	379.69	177.45	107.83	55.867	6.6593e-07	94.763	47.130	-83.276	-49.579	-127.046	-8.852	8.167	-127.815	-121.679	-37.787	-6.566	-123.655	-118.983	-118.398	-112.743	-15.344	-114.690	-8191	255	
7834.482	1	1	0	0	0.10685	0.082114	0.088339	0.29054	0.10429	0.038965	0.19516	0.083652	0.10642	0.24508	0.13578	0.14731	0.40985	0.16562	0.079138	0.11927	-2.2208	-2.1667	-2.9042	-2.4167	-2.4167	-2.7458	-2.2417	-2.7104	-2.6729	-2.2604	-3.0438	-2.3729	-2.3208	-3.1479	-2.1833	-2.6604	192.066	20.594	27.981	161.346	162.324	-63.742	194.011	-67.232	22.544	203.310	39.649	-37.627	218.042	203.873	140.027	104.599	0.002467	0.00038537	0.00015415	678.75	4.13e-06	3.4977e-06	779.88	286.88	6.1144e-06	2.7809e-06	400.15	184.73	120.12	58.262	4.6204e-06	98.33	9.4024e-05	5.6922e-05	1.6851e-05	658.16	6.283e-07	5.8527e-07	754.97	274.35	6.3016e-07	6.0042e-07	379.01	176.5	107.25	55.701	6.8781e-07	94.067	45.601	-55.984	-55.721	-127.168	-12.917	0.685	-127.956	-121.830	-45.453	22.139	-123.581	-119.011	-117.810	-112.806	3.388	-115.029	-8191	255	
7834.578	1	1	0	0	0.18856	0.073831	0.060959	0.2182	0.23079	0.1951	0.2559	0.36032	0.25938	0.15744	0.088554	0.12454	0.29266	0.18798	0.22242	0.24568	-2.2104	-1.9458	-2.6354	-2.4271	-2.225	-2.8125	-2.2562	-2.525	-2.6354	-2.2104	-2.7188	-2.45	-2.2667	-2.8646	-2.2146	-2.6562	210.509	-43.438	-46.556	199.836	-99.632	170.442	127.021	88.139	1.029	-21.846	166.095	-96.113	-110.146	-99.312	151.443	167.363	0.0023734	0.00031594	0.00012711	679.68	5.358e-06	4.8753e-06	774.35	283.25	4.9956e-06	3.8699e-06	395.22	182.73	118.86	57.682	5.0216e-06	97.513	9.4208e-05	5.5857e-05	1.6868e-05	651.65	6.0816e-07	6.3145e-07	747.53	270.6	6.3761e-07	6.2082e-07	374.51	174.58	105.93	55.167	6.7777e-07	93.216	46.659	-76.697	-55.862	-127.087	-2.249	-12.626	-127.842	-121.788	-54.906	-1.395	-123.113	-119.003	-118.272	-112.940	11.822	-115.002	-8191	255	
7834.674	1	1	0	0	0.24763	0.20952	0.03154	0.31318	0.31949	0.062662	0.23238	0.12102	0.10613	0.086085	0.28009	0.076316	0.12449	0.021981	0.16542	0.146	-2.3292	-2.0125	-2.6521	-2.5875	-2.0958	-2.7604	-2.2896	-2.5083	-2.6271	-2.1521	-2.8104	-2.6208	-2.1146	-2.8937	-2.1125	-2.4167	-75.034	-15.587	81.786	112.356	-53.018	-79.944	79.531	14.350	57.231	-46.291	219.491	-112.420	88.385	-76.533	194.989	20.511	0.0022956	0.00028884	0.00012843	675.3	5.2078e-06	4.4623e-06	778.58	281.34	5.2782e-06	3.6738e-06	395.08	183.54	119.56	57.796	3.4287e-06	98.052	9.0828e-05	5.9545e-05	1.6606e-05	650.57	6.1028e-07	6.5837e-07	748.57	269.25	6.2303e-07	6.7285e-07	374.93	175.12	106.17	55.382	6.7877e-07	93.752	44.208	-81.522	-33.517	-126.899	-27.975	-2.664	-127.916	-122.185	-39.921	2.331	-123.440	-118.949	-118.332	-112.946	14.909	-114.933	-8191	255	
7834.770	1	1	0	0	0.18947	0.087563	0.10316	0.37478	0.14691	0.084747	0.21034	0.19796	0.23674	0.13066	0.1318	0.26204	0.24212	0.075528	0.15179	0.011583	-2.3229	-2.0833	-2.6312	-2.5521	-2.2771	-2.8333	-2.2792	-2.3167	-2.8812	-2.15	-2.4833	-2.8021	-2.0687	-2.9729	-2.4062	-2.4229	141.729	-118.923	91.733	165.425	-61.221	22.867	-133.215	145.400	161.262	-83.111	-35.033	180.076	182.761	31.148	103.887	-56.445	0.0024399	0.00023275	0.0001218	674.35	4.6499e-06	3.8785e-06	780.61	281.57	3.312e-06	4.1654e-06	397.93	184.75	119.86	57.888	2.8008e-06	98.73	9.463e-05	6.2311e-05	1.6668e-05	650.18	6.4464e-07	6.9555e-07	752.74	270.17	6.6789e-07	7.0373e-07	377.68	176.01	106.73	55.738	6.7761e-07	94.704	47.080	-79.824	-76.506	-127.108	-31.593	-9.870	-127.675	-121.998	-29.417	6.788	-123.246	-118.831	-118.154	-112.992	6.437	-114.666	-8191	255	
7834.867	1	1	0	0	0.055565	0.27385	0.15451	0.22769	0.29559	0.18064	0.0072158	0.3011	0.14208	0.094583	0.075259	0.04682	0.07604	0.35472	0.10436	0.26723	-2.5354	-2.1354	-2.5458	-2.6688	-2.0667	-2.75	-2.4292	-2.4562	-2.9313	-2.1104	-2.6521	-2.7667	-2.2729	-2.7604	-2.6	-2.4479	-138.397	52.580	-96.683	138.962	-130.436	-71.946	-134.253	139.938	-9.617	26.572	-137.113	-18.223	175.589	209.533	-87.204	140.587	0.0024325	0.0007152	0.00015613	677.37	3.0827e-06	3.9184e-06	783.63	285.44	8.1511e-06	4.9967e-06	403.3	187.37	120.04	58.753	6.6732e-06	100.22	9.8046e-05	6.5101e-05	1.6321e-05	655.44	7.0103e-07	6.8151e-07	758.88	273.11	7.0369e-07	6.9574e-07	383.56	178.62	107.65	56.355	6.6922e-07	95.908	48.229	-84.670	-50.285	-126.851	-12.138	-14.642	-127.674	-122.084	-55.210	0.044	-123.191	-119.070	-118.022	-112.725	9.375	-114.871	-8191	255	
7834.987	1	1	0	0	0.076367	0.35015	0.19052	0.060886	0.18348	0.14874	0.14963	0.40415	0.11251	0.16147	0.37574	0.20943	0.09192	0.1106	0.16818	0.17492	-2.4042	-2.2833	-2.3729	-2.7979	-1.9979	-2.6917	-2.6437	-2.0875	-2.8208	-2.3729	-2.4854	-2.9083	-2.1979	-2.7521	-2.5208	-2.15	-76.466	91.956	-95.573	-68.776	129.519	73.058	149.573	-131.690	6.918	-99.761	184.948	162.183	160.270	206.616	158.935	140.881	0.0025334	0.00075032	0.00015181	684.99	5.1743e-06	5.8965e-06	793.01	287.78	6.3877e-06	3.1727e-06	406.53	188.36	119.63	58.224	2.9896e-06	99.903	9.9906e-05	6.2773e-05	1.6695e-05	659.87	7.2001e-07	6.5258e-07	766.14	275.32	7.0943e-07	6.7746e-07	386.23	179.05	107.28	56.109	6.4992e-07	95.551	45.540	-78.763	-51.751	-126.388	7.947	-19.016	-127.730	-122.127	-23.561	2.887	-123.272	-118.847	-118.285	-112.978	-24.606	-114.624	-8191	255	
7835.082	1	1	0	0	0.35773	0.14173	0.022224	0.13843	0.086889	0.1664	0.11687	0.10062	0.12497	0.1124	0.133	0.068878	0.018615	0.060844	0.3193	0.15344	-2.4896	-2.3625	-2.2875	-2.8021	-1.9729	-2.6521	-2.525	-1.9917	-2.975	-2.3812	-2.2562	-2.8667	-2.2625	-2.6583	-2.675	-2.3125	186.394	-104.953	-75.052	197.353	214.612	-50.514	177.093	123.517	-95.651	38.298	-40.778	147.079	-61.102	219.910	-66.665	151.191	0.0024995	0.00055354	0.00013457	680.08	2.841e-06	3.9532e-06	788.34	283.03	7.6929e-06	4.2761e-06	400.78	185.44	118.86	58.072	4.8193e-06	99.266	0.00010035	6.1602e-05	1.6169e-05	655.41	7.08e-07	6.5254e-07	761.37	271.61	7.163e-07	6.5931e-07	380.48	176.94	106.04	55.724	6.5741e-07	94.924	45.233	-85.550	-51.916	-126.889	-8.101	-18.892	-127.753	-121.985	-49.138	-18.616	-123.410	-118.959	-118.289	-112.644	2.837	-114.704	-8191	255	
7835.178	1	1	0	0	0.16242	0.30028	0.23396	0.18676	0.17033	0.51951	0.15955	0.10256	0.26505	0.15088	0.13291	0.20296	0.17245	0.31464	0.21352	0.29788	-2.4583	-2.4333	-2.2625	-2.9437	-2.2083	-2.4458	-2.7917	-2.1375	-2.8417	-2.5771	-2.2979	-2.8375	-2.1813	-2.4125	-2.7146	-2.25	0.443	146.788	-102.076	203.648	34.483	45.873	79.336	108.317	-16.106	195.571	-85.997	186.074	20.865	186.512	70.145	206.010	0.0025273	0.00055876	0.00013258	678.26	3.2752e-06	6.3726e-06	791.04	281.91	6.2775e-06	3.6213e-06	402.09	186.07	119.44	57.88	5.2944e-06	99.528	9.9077e-05	6.0192e-05	1.5904e-05	652.58	6.9814e-07	6.3481e-07	761.01	270.29	7.0176e-07	6.5486e-07	381.08	177.43	106.32	55.797	6.6417e-07	95.452	49.417	-92.727	-69.554	-126.932	-16.978	-16.887	-127.607	-122.057	-14.256	0.523	-123.331	-118.925	-118.222	-112.792	-24.838	-114.645	-8191	255	
7835.251	1	1	0	0	0.16552	0.092059	0.16712	0.071261	0.15231	0.11148	0.16632	0.36719	0.16913	0.18241	0.050473	0.16205	0.17187	0.30813	0.18951	0.31285	-2.2125	-2.5792	-2.0104	-2.8125	-2.3292	-2.2875	-2.9396	-2.0479	-2.6479	-2.6479	-2.2604	-3.0438	-2.4313	-2.3646	-2.9542	-2.2167	-77.633	208.123	2.746	-119.608	133.447	201.701	-24.033	201.174	-107.467	195.412	-12.910	24.886	-41.051	171.486	59.390	204.224	0.0025162	0.00035359	0.00014815	682.04	5.5534e-06	3.9757e-06	790.07	283.39	6.1226e-06	4.5674e-06	403.41	187.3	120.05	58.572	3.5587e-06	100.37	9.966e-05	5.8785e-05	1.6846e-05	656.34	6.8424e-07	6.5099e-07	764.21	272.01	6.7654e-07	6.6901e-07	384.3	178.4	107.27	56.26	6.9202e-07	96.289	43.563	-83.504	-53.967	-126.700	-3.687	-33.128	-127.810	-121.616	-55.504	14.337	-123.384	-119.017	-118.280	-112.866	3.493	-114.630	-8191	255	
7835.347	1	1	0	0	0.069713	0.077292	0.47443	0.23632	0.060712	0.14751	0.16871	0.053071	0.052712	0.1427	0.25511	0.17092	0.018604	0.071314	0.091933	0.16258	-2.0917	-2.7833	-2.0375	-2.7875	-2.5125	-2.2896	-2.8688	-2.35	-2.5542	-2.7896	-2.0354	-2.8271	-2.5917	-2.2771	-2.8417	-2.2812	193.094	-62.030	19.366	184.762	31.906	218.562	-122.235	-92.611	-6.453	191.828	64.122	199.850	-89.551	183.577	34.799	190.741	0.0025797	0.00035529	0.00010726	679.45	6.2571e-06	3.759e-06	798.18	285.94	7.9537e-06	4.1136e-06	408.14	188.77	120.6	59.171	4.6489e-06	101.48	0.00010079	5.8873e-05	1.7311e-05	656.92	6.8421e-07	6.5445e-07	771	274.06	6.9921e-07	6.4026e-07	388.96	180.26	107.32	56.74	7.2785e-07	97.274	46.236	-98.474	-64.559	-127.011	9.503	-10.105	-127.728	-121.975	-33.856	13.961	-123.303	-118.927	-118.082	-112.757	-23.066	-114.774	-8191	255	
7835.466	1	1	0	0	0.27541	0.23404	0.076632	0.27604	0.028765	0.18947	0.2488	0.032888	0.097794	0.25811	0.15909	0.25509	0.13272	0.16051	0.21831	0.24489	-1.9521	-2.6312	-2.0375	-2.7896	-2.5	-2.25	-2.7604	-2.4104	-2.3792	-2.8063	-2.3542	-2.6583	-2.7042	-2.3	-2.8521	-2.3542	103.126	132.539	194.211	199.265	204.162	137.568	157.450	189.239	199.191	36.059	200.294	-83.045	81.897	213.720	131.618	143.972	0.0024919	0.00050769	0.00011891	681.29	5.1855e-06	3.0488e-06	796.27	287.03	5.3971e-06	3.9676e-06	410.41	188.68	119.91	58.305	4.6955e-06	100.8	9.8939e-05	6.0316e-05	1.8601e-05	658.34	6.738e-07	6.4911e-07	771.01	274.93	6.9418e-07	6.6524e-07	389.7	179.6	107.04	56.285	7.549e-07	96.489	47.066	-103.247	-26.688	-126.918	-21.493	-52.841	-127.483	-121.562	-20.577	-0.810	-123.122	-118.849	-118.154	-112.844	-10.827	-114.650	-8191	255	
7835.562	1	1	0	0	0.24417	0.30186	0.17838	0.01371	0.23393	0.21239	0.37513	0.22682	0.24564	0.012436	0.10392	0.14548	0.20137	0.18401	0.31949	0.27344	-2.0354	-2.7562	-2.0563	-2.6354	-2.6583	-2.1708	-2.8583	-2.5083	-2.3667	-2.9229	-2.4833	-2.6	-2.6417	-2.3875	-2.7042	-2.5208	11.652	74.012	-37.112	-60.627	51.420	163.301	122.794	-124.269	-21.082	26.859	131.599	126.790	185.681	183.428	51.654	214.835	0.0025374	0.00033357	0.00019701	676.33	5.1795e-06	3.2031e-06	794.25	284.79	5.408e-06	3.9117e-06	405.27	185.74	118.21	58.319	2.4406e-06	99.938	9.659e-05	6.2279e-05	1.8694e-05	653.96	6.5775e-07	6.7141e-07	766.83	271.94	6.746e-07	6.6634e-07	383.73	177.35	105.82	55.805	7.523e-07	95.662	45.602	-72.216	-76.137	-126.953	-30.154	6.896	-127.536	-121.656	-45.170	9.869	-123.079	-118.791	-118.423	-112.537	-18.686	-114.613	-8191	255	
7835.658	1	1	0	0	0.13877	0.2826	0.024036	0.24792	0.15248	0.079667	0.089431	0.36368	0.1836	0.2099	0.13097	0.23007	0.15956	0.098844	0.1791	0.080127	-1.9042	-2.7667	-2.0833	-2.4062	-2.7292	-2.1979	-2.7771	-2.4729	-2.1937	-2.8542	-2.4042	-2.5583	-2.7188	-2.2125	-2.7729	-2.7792	-48.127	-22.628	-11.871	-89.910	156.797	12.671	46.071	160.546	-33.586	4.088	-55.625	181.671	-138.878	-110.623	56.231	134.672	0.0025026	0.00039535	0.00013786	673.96	2.6485e-06	1.8052e-06	794.8	282.55	5.3101e-06	4.2355e-06	402.88	186.3	118.53	58.25	2.0738e-06	100.31	9.763e-05	6.3471e-05	1.8246e-05	650.53	6.6253e-07	7.2868e-07	766.75	270.12	6.7937e-07	7.2607e-07	382.89	177.49	105.84	55.997	7.275e-07	96.145	46.662	-103.419	-61.765	-127.052	23.529	-53.538	-127.590	-121.778	-28.231	3.899	-123.244	-118.899	-117.489	-112.536	35.259	-114.709	-8191	255	
7835.779	1	1	0	0	0.28637	0.052423	0.32472	0.13212	0.21184	0.25613	0.090189	0.17192	0.26629	0.10114	0.2819	0.16142	0.15515	0.27902	0.05655	0.07327	-1.7833	-2.9583	-2.2417	-2.4708	-2.8958	-2.2062	-2.775	-2.6583	-2.0458	-3.0292	-2.6083	-2.5021	-2.8979	-2.3187	-2.7229	-2.7792	165.830	-76.534	-18.009	151.845	-94.225	143.735	54.812	138.887	2.426	-87.255	209.885	-130.337	-7.945	126.765	110.090	192.760	0.0025914	0.00040247	9.111e-05	674.22	4.0505e-06	6.1133e-06	798.27	284.18	8.2229e-06	2.788e-06	408.19	186.61	117.82	58.729	3.4031e-06	101.27	9.8672e-05	6.7358e-05	1.7925e-05	651.61	6.7801e-07	7.3726e-07	769.06	271.67	7.0318e-07	7.2684e-07	387.16	178.66	106.51	56.411	7.2866e-07	96.791	46.536	-50.727	-54.505	-126.951	-15.248	-5.139	-128.024	-121.536	-27.163	-1.268	-123.226	-119.039	-117.542	-112.628	13.681	-114.685	-8191	255	
7835.851	1	1	0	0	0.1517	0.18753	0.12081	0.26877	0.23031	0.15406	0.27596	0.23698	0.18268	0.056535	0.19659	0.3224	0.22084	0.09554	0.13538	0.040815	-1.7625	-2.4062	-2.3729	-2.4208	-2.8854	-2.1667	-2.45	-2.8	-2.2646	-2.8125	-2.5708	-2.4417	-2.7188	-2.1688	-2.6521	-2.8521	-53.687	3.264	167.067	170.470	177.862	76.356	196.503	124.344	58.979	49.514	206.778	-129.131	-95.122	-43.817	83.524	124.814	0.0023492	0.00049103	0.00011587	678.06	5.0882e-06	3.7935e-06	801.37	284.25	6.5155e-06	4.6147e-06	409.77	187.77	120.32	58.751	4.0681e-06	101.85	0.0001022	6.9922e-05	1.7959e-05	654.31	7.3819e-07	7.6583e-07	772.26	272.32	7.6958e-07	7.3274e-07	389.37	179.76	107.26	56.597	7.1022e-07	97.666	44.992	-55.321	-98.046	-127.046	-50.620	-13.434	-127.847	-121.765	-47.895	2.818	-123.004	-118.896	-117.900	-112.447	-9.933	-114.345	-8191	255	
7835.947	1	1	0	0	0.10824	0.018964	0.22177	0.34654	0.092865	0.31074	0.18659	0.18979	0.25745	0.14835	0.14083	0.28038	0.21932	0.35767	0.070325	0.28214	-1.7938	-2.7	-2.4188	-2.2646	-2.9021	-2.3958	-2.4646	-2.725	-2.1958	-2.675	-2.6917	-2.2125	-2.8937	-2.3187	-2.3333	-2.9833	14.809	-86.063	159.105	196.568	54.455	115.816	171.347	-118.686	78.693	182.295	125.418	29.841	-89.922	203.967	31.410	196.002	0.0025113	0.00061302	0.00014268	680.25	9.0867e-06	6.4884e-06	803.05	285.86	6.1196e-06	3.557e-06	409.22	187.67	119.15	58.466	4.2841e-06	101.29	0.00010471	6.8621e-05	1.7602e-05	654.99	7.8398e-07	7.2855e-07	774.59	273.58	7.7929e-07	6.9909e-07	389.98	179.31	106.81	56.235	7.081e-07	96.875	45.636	-80.380	-67.037	-127.067	-16.962	-29.013	-127.793	-121.455	-26.184	7.286	-123.042	-118.880	-118.004	-112.465	-6.672	-114.386	-8191	255	
7836.068	1	1	0	0	0.050377	0.13688	0.2425	0.13472	0.12785	0.066846	0.33466	0.19099	0.36265	0.10293	0.10494	0.14477	0.25366	0.3215	0.10548	0.17509	-1.7083	-2.7771	-2.6771	-2.2479	-2.7104	-2.4354	-2.5396	-2.8854	-2.0396	-2.5708	-2.8458	-2.0958	-2.7375	-2.3271	-2.2333	-3.0667	58.250	-37.607	149.599	208.587	55.797	215.635	169.267	65.807	65.288	79.243	144.741	114.372	-38.906	68.230	-34.337	-132.540	0.002502	0.00052478	0.00016864	678.65	3.9066e-06	4.041e-06	792.88	282.1	5.1144e-06	4.5209e-06	403.99	185.79	117.82	58.087	6.1502e-06	100.22	0.00010489	6.5857e-05	1.6826e-05	653.11	7.3479e-07	6.9345e-07	766.6	270.95	7.6926e-07	6.7404e-07	383.33	176.95	105.75	55.884	6.8391e-07	95.885	45.465	-92.855	-65.031	-127.016	7.791	-19.305	-127.633	-121.809	-52.982	-0.991	-123.280	-119.274	-118.198	-112.584	-26.261	-114.587	-8191	255	
7836.164	1	1	0	0	0.12544	0.22506	0.081893	0.13849	0.02134	0.099775	0.17599	0.31808	0.14922	0.069961	0.24854	0.098677	0.13975	0.41161	0.28023	0.36198	-1.75	-2.4646	-2.7229	-2.1333	-3.0167	-2.5792	-2.2229	-2.9271	-2.0917	-2.4313	-2.7958	-2.2104	-2.6125	-2.4833	-2.25	-2.8542	10.648	99.365	-89.544	-115.172	-35.999	-95.497	73.508	151.902	55.160	-67.287	90.935	162.730	93.448	182.400	52.616	212.565	0.0024854	0.00062264	7.9285e-05	673.42	5.375e-06	4.0971e-06	793.86	282.4	5.9632e-06	2.8797e-06	404.75	186.32	119.57	58.461	5.7243e-06	100.6	0.00010534	6.267e-05	1.6648e-05	650.89	7.2287e-07	6.7338e-07	767.35	271.15	7.5884e-07	6.7427e-07	384.22	177.54	106.09	56.045	6.8076e-07	96.298	46.948	-85.473	-62.213	-126.907	-8.663	8.622	-127.805	-121.781	-28.564	-3.582	-122.816	-119.108	-118.290	-112.350	-13.763	-114.815	-8191	255	
7836.260	1	1	0	0	0.11787	0.22606	0.28186	0.17144	0.22323	0.033622	0.12303	0.1802	0.13806	0.15995	0.17217	0.35011	0.30313	0.063145	0.19033	0.30792	-1.7646	-2.3125	-2.7729	-2.1375	-2.4021	-2.5042	-2.3312	-3.0604	-2.1896	-2.4417	-2.9521	-2.3312	-2.6562	-2.8458	-2.1229	-2.9562	-103.285	-51.105	-22.164	189.458	167.870	-58.843	216.744	132.182	210.427	52.618	7.054	155.287	208.848	197.503	-66.401	181.561	0.0025107	0.00042927	0.00013172	679.69	4.5063e-06	4.2412e-06	799.53	284.68	9.9616e-06	3.5225e-06	409.72	187.75	119.7	58.527	4.2601e-06	101.4	0.00010344	6.2496e-05	1.6977e-05	654.65	7.2637e-07	6.5762e-07	772.3	272.93	7.4026e-07	6.5341e-07	389.13	179.04	106.67	56.263	7.238e-07	97.249	46.365	-65.806	-50.575	-126.799	-36.569	8.743	-127.903	-121.697	-36.878	-16.455	-123.235	-118.818	-118.454	-112.503	-10.070	-114.704	-8191	255	
7836.379	1	1	0	0	0.24535	0.26487	0.19779	0.25174	0.24549	0.070273	0.076326	0.19725	0.019673	0.12008	0.49228	0.08392	0.23782	0.30059	0.36258	0.21377	-1.9562	-2.3917	-2.6604	-2.2042	-2.5333	-2.6063	-2.3229	-2.9146	-2.5917	-2.2458	-2.8312	-2.3333	-2.475	-2.7542	-2.0104	-2.8688	-72.351	215.001	-126.717	-137.257	-79.372	-71.863	18.305	192.015	-113.313	41.923	178.565	-134.401	-101.232	101.981	127.605	-135.716	0.0025229	0.00042471	0.00016837	680.38	3.5732e-06	3.5102e-06	806.89	286.72	9.7008e-06	5.4324e-06	414.9	189.47	119.23	58.915	5.5591e-06	102.25	0.00010211	6.1555e-05	1.7424e-05	657.38	6.9834e-07	6.6183e-07	776.78	275.12	7.2962e-07	6.5863e-07	394.18	181.04	107.08	56.594	7.6063e-07	97.739	45.803	-99.178	-59.665	-126.696	-5.866	-30.028	-127.766	-121.828	-35.968	10.590	-123.071	-118.823	-118.117	-112.630	-21.313	-114.574	-8191	255	
7836.475	1	1	0	0	0.18317	0.14799	0.16921	0.1519	0.33618	0.24014	0.21421	0.13886	0.12508	0.23009	0.21602	0.059966	0.12747	0.15508	0.25525	0.13862	-2.025	-2.3187	-2.7417	-2.3229	-2.4667	-2.6625	-2.1312	-2.9021	-2.4688	-2.2313	-3.0687	-2.4042	-2.3042	-2.9271	-2.1354	-2.7521	7.307	69.299	46.685	-121.974	41.019	-43.394	218.514	-48.934	179.179	-79.594	48.987	204.410	19.616	152.928	88.741	-38.360	0.0026455	0.00049289	0.00017156	679.24	5.6247e-06	1.1978e-06	798.03	285.61	5.8752e-06	3.1305e-06	411.06	187.4	118.09	58.811	6.0459e-06	100.82	0.00010225	6.1222e-05	1.8496e-05	655.74	7.0319e-07	6.6248e-07	773.53	273.63	7.0985e-07	6.6524e-07	390.63	178.64	105.73	56.236	7.6532e-07	96.693	45.185	-89.003	-85.557	-126.849	-9.120	-34.453	-127.784	-121.811	-63.235	-4.578	-122.880	-118.705	-118.059	-112.766	8.526	-114.515	-8191	255	
7836.547	1	1	0	0	0.11909	0.22979	0.095688	0.27594	0.035096	0.028893	0.071149	0.23521	0.16819	0.13928	0.2407	0.20296	0.27628	0.21362	0.2499	0.11583	-2.2562	-2.0271	-2.8021	-2.3833	-2.4083	-2.8271	-2.0854	-2.7833	-2.6146	-2.1188	-2.9437	-2.5104	-2.2271	-2.8958	-2.15	-2.6917	-16.307	-110.889	12.543	178.402	-16.693	187.054	56.916	104.126	59.751	168.597	102.445	169.696	100.514	194.632	47.925	219.400	0.0024379	0.00020042	9.0768e-05	671.9	3.4593e-06	3.5939e-06	790.71	281.09	3.709e-06	4.8669e-06	404.17	185.09	116.61	57.887	4.5188e-06	100.37	9.9361e-05	6.3647e-05	1.9031e-05	648	6.6908e-07	6.685e-07	764.42	268.95	6.8166e-07	7.2433e-07	383.23	176.05	104.58	55.764	7.7012e-07	95.934	46.727	-93.674	-70.515	-126.889	-4.396	-36.916	-127.860	-121.752	-44.160	-9.396	-122.958	-118.751	-117.783	-112.224	-18.376	-114.598	-8191	255	
#DATA ENDS
