BOXY.EXE: ISS Imagent and Oximeter Data Acquisition Program Version 0.80
Ascii Record File

#ACQ INFORMATION
2  Detector Channels 
16  External MUX Channels 
1  Auxiliary Channels 
5000  Waveform (CCF) Frequency (Hz)
1  Waveforms Skipped 
30  Waveforms Averaged 
1  Cycles Averaged 
16  Acquisitions per Waveform 
10.0806  Updata Rate (Hz) 

#FILE INFORMATION
TRUE -- External MUX Channel results are PARSED.
FALSE -- AC DC and Phase are NOT grouped.
TRUE -- Companion Program Settings File CREATED.
FALSE -- AC data not excluded
FALSE -- DC data not excluded
FALSE -- Phase data not excluded
FALSE -- Auxillary Chn. data not excluded
Tab delimiters

#CALIBRATION STATE
TRUE -- Waveform Calibration Values APPLIED.


#AUX CALIBRATION VALUES
Val Type	aux-1	

Term	1.0000e+00	
Factor	0.0000e+00	


#WF CALIBRATION VALUES
A = Detector Channel
Val Type	A-AC1	A-AC2	A-AC3	A-AC4	A-AC5	A-AC6	A-AC7	A-AC8	A-AC9	A-AC10	A-AC11	A-AC12	A-AC13	A-AC14	A-AC15	A-AC16	A-DC1	A-DC2	A-DC3	A-DC4	A-DC5	A-DC6	A-DC7	A-DC8	A-DC9	A-DC10	A-DC11	A-DC12	A-DC13	A-DC14	A-DC15	A-DC16	A-Ph1	A-Ph2	A-Ph3	A-Ph4	A-Ph5	A-Ph6	A-Ph7	A-Ph8	A-Ph9	A-Ph10	A-Ph11	A-Ph12	A-Ph13	A-Ph14	A-Ph15	A-Ph16	

Term	0.00000e+00	0.00000e+00	0.00000e+00	0.00000e+00	0.00000e+00	0.00000e+00	0.00000e+00	0.00000e+00	0.00000e+00	0.00000e+00	0.00000e+00	0.00000e+00	0.00000e+00	0.00000e+00	0.00000e+00	0.00000e+00	0.00000e+00	0.00000e+00	0.00000e+00	0.00000e+00	0.00000e+00	0.00000e+00	0.00000e+00	0.00000e+00	0.00000e+00	0.00000e+00	0.00000e+00	0.00000e+00	0.00000e+00	0.00000e+00	0.00000e+00	0.00000e+00	0.00000e+00	0.00000e+00	0.00000e+00	0.00000e+00	0.00000e+00	0.00000e+00	0.00000e+00	0.00000e+00	0.00000e+00	0.00000e+00	0.00000e+00	0.00000e+00	0.00000e+00	0.00000e+00	0.00000e+00	0.00000e+00	
Factor	1.00000e+00	1.00000e+00	1.00000e+00	1.00000e+00	1.00000e+00	1.00000e+00	1.00000e+00	1.00000e+00	1.00000e+00	1.00000e+00	1.00000e+00	1.00000e+00	1.00000e+00	1.00000e+00	1.00000e+00	1.00000e+00	1.00000e+00	1.00000e+00	1.00000e+00	1.00000e+00	1.00000e+00	1.00000e+00	1.00000e+00	1.00000e+00	1.00000e+00	1.00000e+00	1.00000e+00	1.00000e+00	1.00000e+00	1.00000e+00	1.00000e+00	1.00000e+00	X	X	X	X	X	X	X	X	X	X	X	X	X	X	X	X	

B = Detector Channel
Val Type	B-AC1	B-AC2	B-AC3	B-AC4	B-AC5	B-AC6	B-AC7	B-AC8	B-AC9	B-AC10	B-AC11	B-AC12	B-AC13	B-AC14	B-AC15	B-AC16	B-DC1	B-DC2	B-DC3	B-DC4	B-DC5	B-DC6	B-DC7	B-DC8	B-DC9	B-DC10	B-DC11	B-DC12	B-DC13	B-DC14	B-DC15	B-DC16	B-Ph1	B-Ph2	B-Ph3	B-Ph4	B-Ph5	B-Ph6	B-Ph7	B-Ph8	B-Ph9	B-Ph10	B-Ph11	B-Ph12	B-Ph13	B-Ph14	B-Ph15	B-Ph16	

Term	0.00000e+00	0.00000e+00	0.00000e+00	0.00000e+00	0.00000e+00	0.00000e+00	0.00000e+00	0.00000e+00	0.00000e+00	0.00000e+00	0.00000e+00	0.00000e+00	0.00000e+00	0.00000e+00	0.00000e+00	0.00000e+00	0.00000e+00	0.00000e+00	0.00000e+00	0.00000e+00	0.00000e+00	0.00000e+00	0.00000e+00	0.00000e+00	0.00000e+00	0.00000e+00	0.00000e+00	0.00000e+00	0.00000e+00	0.00000e+00	0.00000e+00	0.00000e+00	-8.95500e+01	-1.32442e+02	-1.21360e+02	-1.83856e+02	-5.84308e+01	-7.38836e+01	-1.57022e+02	-1.62015e+02	-5.39628e+01	-6.88787e+01	-1.76652e+02	-1.69899e+02	-1.78820e+02	-1.76458e+02	-6.33763e+01	-1.49634e+02	
Factor	1.19807e-05	1.12462e-04	2.91884e-05	1.32166e-01	8.52532e-07	1.20842e-06	1.31580e-01	3.77255e-02	7.48406e-07	1.22136e-06	6.98683e-02	2.06858e-02	1.82431e-02	6.64499e-03	9.18595e-07	9.55146e-03	5.69407e-06	8.09622e-06	2.26132e-06	5.65493e-02	8.44186e-08	8.95512e-08	6.09210e-02	1.91829e-02	8.50050e-08	8.97248e-08	3.41735e-02	1.02372e-02	9.40654e-03	3.40245e-03	8.67221e-08	4.72834e-03	X	X	X	X	X	X	X	X	X	X	X	X	X	X	X	X	



#DISTANCE SETTINGS
A = Detector Channel
A-1	A-2	A-3	A-4	A-5	A-6	A-7	A-8	A-9	A-10	A-11	A-12	A-13	A-14	A-15	A-16	

2.5000e+00	3.0000e+00	2.5000e+00	3.0000e+00	2.0000e+00	3.0000e+00	1.5000e+00	3.0000e+00	3.0000e+00	3.0000e+00	3.0000e+00	3.0000e+00	3.0000e+00	3.0000e+00	1.5000e+00	3.0000e+00	

B = Detector Channel
B-1	B-2	B-3	B-4	B-5	B-6	B-7	B-8	B-9	B-10	B-11	B-12	B-13	B-14	B-15	B-16	

1.0000e+01	1.0000e+01	1.0000e+01	1.4400e+00	1.0000e+01	1.0000e+01	1.5100e+00	1.9400e+00	1.0000e+01	1.0000e+01	1.9900e+00	2.4900e+00	2.4100e+00	2.9000e+00	1.0000e+01	2.9800e+00	




#DATA BEGINS
time	group	step	mark	flag	A-AC1	A-AC2	A-AC3	A-AC4	A-AC5	A-AC6	A-AC7	A-AC8	A-AC9	A-AC10	A-AC11	A-AC12	A-AC13	A-AC14	A-AC15	A-AC16	A-DC1	A-DC2	A-DC3	A-DC4	A-DC5	A-DC6	A-DC7	A-DC8	A-DC9	A-DC10	A-DC11	A-DC12	A-DC13	A-DC14	A-DC15	A-DC16	A-Ph1	A-Ph2	A-Ph3	A-Ph4	A-Ph5	A-Ph6	A-Ph7	A-Ph8	A-Ph9	A-Ph10	A-Ph11	A-Ph12	A-Ph13	A-Ph14	A-Ph15	A-Ph16	B-AC1	B-AC2	B-AC3	B-AC4	B-AC5	B-AC6	B-AC7	B-AC8	B-AC9	B-AC10	B-AC11	B-AC12	B-AC13	B-AC14	B-AC15	B-AC16	B-DC1	B-DC2	B-DC3	B-DC4	B-DC5	B-DC6	B-DC7	B-DC8	B-DC9	B-DC10	B-DC11	B-DC12	B-DC13	B-DC14	B-DC15	B-DC16	B-Ph1	B-Ph2	B-Ph3	B-Ph4	B-Ph5	B-Ph6	B-Ph7	B-Ph8	B-Ph9	B-Ph10	B-Ph11	B-Ph12	B-Ph13	B-Ph14	B-Ph15	B-Ph16	aux-1	digaux	

12588.158	1	1	0	256	0.10533	0.20866	0.059094	0.0094558	0.054212	0.058723	0.037395	0.055551	0.1679	0.15447	0.14402	0.23211	0.17771	0.28639	0.12645	0.18298	-2.4854	-2.15	-2.5958	-2.5458	-2.0312	-2.7562	-2.3917	-2.1958	-2.6729	-2.2854	-2.7062	-2.6771	-2.2271	-2.8167	-2.2979	-2.3458	228.838	358.435	406.237	458.134	331.852	317.107	509.738	453.789	155.142	446.416	460.084	389.591	213.621	150.660	255.079	203.937	0.00018388	0.00026873	6.5873e-05	995.94	2.3842e-06	1.899e-06	891.65	168.41	2.0127e-06	4.5061e-06	215.44	59.448	47.003	13.788	2.2939e-06	19.373	0.00032151	0.00037916	0.00010615	864.72	4.0131e-06	3.9442e-06	894.91	174.17	3.832e-06	3.8847e-06	222.61	62.193	49.007	14.595	3.7415e-06	20.498	229.666	270.617	288.889	160.179	322.374	300.187	160.422	168.161	333.201	325.719	167.475	174.884	175.144	182.220	280.785	181.456	-8191	255	
12588.254	1	1	0	0	0.12919	0.13722	0.12768	0.33463	0.14803	0.19445	0.21225	0.19274	0.096668	0.17451	0.15165	0.16213	0.31106	0.18076	0.095534	0.17637	-2.3125	-2.0542	-2.4292	-2.7313	-2.075	-2.5375	-2.5042	-2.1188	-2.8354	-2.3729	-2.4562	-2.8375	-2.1604	-2.7833	-2.5542	-2.1729	347.741	358.880	155.906	487.769	362.134	326.640	167.571	440.113	311.840	289.527	165.255	159.825	470.613	170.127	391.240	493.629	0.00017722	0.00027234	3.5154e-05	991.73	8.366e-07	1.835e-06	888.56	167.46	2.4478e-06	2.0063e-06	214.06	58.722	46.576	13.737	3.0178e-06	19.254	0.00030593	0.00034598	9.6031e-05	863.38	3.859e-06	3.7078e-06	891.49	174.04	3.8798e-06	3.8761e-06	221.96	62.129	48.964	14.544	3.7758e-06	20.399	236.012	219.360	307.939	160.331	294.905	375.068	160.724	168.309	308.077	318.144	167.698	175.007	175.595	182.069	323.061	181.391	-8191	255	
12588.351	1	1	0	0	0.17554	0.22734	0.31182	0.088043	0.11351	0.30217	0.42047	0.17382	0.23876	0.0072335	0.12228	0.31969	0.12534	0.018072	0.093662	0.25	-2.3354	-2.1188	-2.2562	-3	-2.2938	-2.45	-2.7	-2.2792	-2.7458	-2.2229	-2.3688	-2.7417	-2.1625	-2.5958	-2.6688	-2.1562	222.822	487.682	218.795	478.989	421.878	332.821	428.626	447.679	266.204	473.693	491.193	485.130	449.050	339.866	345.327	455.197	0.00015526	0.00024126	6.4257e-05	993.21	2.291e-06	1.0664e-06	887.8	167.74	1.4847e-06	2.0131e-06	214.27	59.359	46.564	13.735	3.1563e-06	19.294	0.0003016	0.00034215	9.3816e-05	861.19	3.6942e-06	3.6714e-06	889.95	173.32	3.5461e-06	3.5912e-06	221.69	62.067	48.723	14.484	3.3377e-06	20.381	238.342	240.890	241.544	160.253	307.631	293.331	160.408	168.114	298.377	304.332	167.742	174.230	174.945	182.403	289.724	181.510	-8191	255	
12588.471	1	1	0	0	0.24243	0.07421	0.34479	0.18867	0.25478	0.13336	0.2291	0.15246	0.14461	0.037276	0.098344	0.11933	0.4607	0.26655	0.068877	0.20575	-2.2938	-2.3021	-2.1104	-2.9896	-2.1417	-2.4729	-2.6417	-2.2042	-2.6333	-2.2812	-2.3312	-2.9021	-2.0187	-2.4604	-2.6917	-2.0042	320.413	162.467	466.459	490.310	428.413	184.072	426.663	449.243	278.013	442.306	461.734	496.300	169.835	239.788	262.941	491.181	0.00019966	0.00033185	4.1768e-05	990.43	2.1484e-06	1.8298e-06	881.64	166.46	7.5358e-07	1.6393e-06	212.49	59.105	46.512	13.802	3.2519e-06	19.308	0.0002834	0.00031592	8.7617e-05	858.23	3.64e-06	3.4746e-06	886.33	172.79	3.4514e-06	3.4127e-06	220.94	61.934	48.687	14.515	3.4835e-06	20.376	234.304	191.292	191.979	160.281	302.690	267.164	160.609	168.476	217.403	326.408	167.471	174.734	175.133	182.511	304.448	181.718	-8191	255	
12588.567	1	1	0	0	0.16152	0.26288	0.18373	0.25784	0.23906	0.15048	0.21611	0.045044	0.099351	0.16043	0.26906	0.13117	0.13914	0.054367	0.28009	0.19612	-2.1979	-2.3937	-2.2042	-2.9958	-2.0354	-2.4188	-2.6354	-2.0958	-2.6583	-2.3042	-2.2625	-2.9188	-2.3438	-2.5104	-2.7396	-2.1583	389.028	444.218	164.445	151.989	172.310	296.454	451.172	348.710	223.174	239.550	374.937	454.223	465.275	317.370	508.071	415.153	0.0001688	0.00012128	4.5037e-05	987.83	2.9087e-07	3.2131e-06	878.57	167.13	2.07e-06	1.7102e-06	215.03	59.247	46.883	13.76	1.9927e-06	19.31	0.00027997	0.00031887	8.7254e-05	857.26	3.3929e-06	3.4664e-06	886.77	172.85	3.5084e-06	3.5815e-06	221.52	61.768	48.781	14.501	3.3901e-06	20.384	240.114	218.577	273.635	160.337	223.802	305.076	160.835	168.356	286.332	319.779	167.394	174.208	174.858	182.608	221.862	181.707	-8191	255	
12588.664	1	1	0	0	0.056973	0.20518	0.090389	0.10634	0.036521	0.20879	0.074445	0.07066	0.29876	0.14202	0.14226	0.20282	0.15259	0.035249	0.11572	0.2153	-2.2396	-2.5417	-2.0687	-2.725	-2.35	-2.4396	-3.0458	-2.4188	-2.5438	-2.75	-2.2313	-2.6771	-2.3708	-2.1875	-2.7229	-2.4042	208.993	271.295	159.491	379.655	423.658	221.785	435.815	187.216	269.802	318.043	246.969	362.116	153.584	224.905	321.520	390.327	0.00016877	0.00022564	7.6326e-05	990.26	2.6959e-06	1.549e-06	882.49	167.98	2.4156e-06	1.1263e-06	211.54	58.832	46.395	13.821	2.2581e-06	19.237	0.00028714	0.00031719	8.8606e-05	857.99	3.5985e-06	3.5643e-06	886.82	173.03	3.4324e-06	3.4297e-06	220.62	61.757	48.696	14.49	3.4219e-06	20.377	231.846	204.151	249.875	160.157	278.690	321.751	160.705	168.229	298.931	296.382	167.636	174.966	175.214	182.562	315.345	181.600	-8191	255	
12588.735	1	1	0	0	0.056798	0.16453	0.093483	0.11811	0.27034	0.22086	0.17386	0.087103	0.31718	0.11731	0.13395	0.13431	0.23457	0.16518	0.19022	0.0333	-2.2229	-2.7188	-2.125	-2.8688	-2.3458	-2.175	-2.9646	-2.3354	-2.4667	-2.675	-2.1188	-2.8292	-2.5938	-2.1937	-2.7542	-2.2292	469.923	508.900	302.081	467.819	256.976	267.457	428.679	371.304	225.300	451.184	351.320	433.145	474.394	190.296	410.120	448.496	0.00019598	0.00017172	4.942e-05	987.84	1.4746e-06	4.6303e-07	880.57	166.68	3.054e-06	3.0248e-06	210.61	58.891	46.638	13.632	1.4587e-06	19.134	0.00028194	0.00031725	8.7895e-05	856.73	3.27e-06	3.3119e-06	884.41	172.32	3.3772e-06	3.3079e-06	220.05	61.626	48.55	14.445	3.172e-06	20.309	234.944	244.234	274.448	160.310	273.818	380.159	160.400	168.296	319.935	297.613	167.879	174.546	174.930	182.523	263.280	181.669	-8191	255	
12588.854	1	1	0	0	0.16368	0.19005	0.24251	0.30475	0.22	0.10992	0.3898	0.13487	0.18704	0.087451	0.23061	0.21492	0.098589	0.22409	0.36879	0.30442	-1.8354	-2.6125	-1.8854	-2.8271	-2.6542	-2.3292	-2.8833	-2.2958	-2.3646	-2.6896	-2.1729	-2.5917	-2.5729	-2.1917	-2.7917	-2.3167	197.033	284.960	189.075	455.179	178.588	456.877	462.875	501.176	196.285	487.637	325.706	300.816	310.087	169.287	397.534	201.610	0.00018734	0.0003184	0.00013137	986.02	1.1458e-06	2.7403e-06	878.52	165.93	1.7072e-06	4.31e-06	211.79	59.22	46.822	13.686	2.1545e-06	19.169	0.00027262	0.00030378	8.7357e-05	854.6	3.3203e-06	3.3475e-06	883.91	172.02	3.3065e-06	3.3955e-06	219.97	61.811	48.658	14.393	3.2299e-06	20.293	233.095	233.625	221.895	160.405	242.599	283.346	160.364	168.566	295.884	323.946	168.096	174.244	175.031	182.549	316.936	181.893	-8191	255	
12588.950	1	1	0	0	0.079948	0.26171	0.11246	0.12342	0.048285	0.17254	0.23444	0.21839	0.18821	0.034123	0.19144	0.15061	0.13615	0.1942	0.19374	0.20539	-1.7417	-2.6604	-2.0354	-2.7229	-2.6104	-2.1271	-2.8896	-2.3	-2.1396	-2.6854	-2.2958	-2.3979	-2.7938	-1.8354	-2.6792	-2.5917	298.058	220.775	462.195	509.215	156.597	218.167	498.430	481.451	241.304	386.630	300.515	344.461	469.244	182.003	478.026	300.033	0.00019535	0.00026037	4.4098e-05	984.11	2.2019e-06	3.7137e-06	876.72	166	1.5133e-06	3.4948e-06	211.96	58.619	46.451	13.674	1.6301e-06	19.188	0.00027751	0.00030956	8.5322e-05	853.68	3.3361e-06	3.3688e-06	881.08	172.02	3.2782e-06	3.2361e-06	220.07	61.506	48.537	14.399	3.228e-06	20.268	234.358	238.697	233.836	160.007	270.172	284.201	160.621	168.674	312.161	310.158	167.801	174.496	175.567	182.564	298.825	181.732	-8191	255	
12589.046	1	1	0	0	0.12189	0.10071	0.22578	0.41454	0.10556	0.18085	0.39382	0.28103	0.13619	0.23395	0.182	0.051153	0.16543	0.15278	0.082947	0.082352	-1.8937	-2.8604	-2.1646	-2.6229	-2.6688	-2.2271	-2.8604	-2.4271	-2.0938	-2.8021	-2.4229	-2.4146	-2.7292	-2.0208	-2.5083	-2.6667	379.801	368.783	466.877	490.101	481.905	283.003	396.243	499.603	417.323	403.734	440.093	382.370	164.362	282.008	443.976	183.071	0.00018589	0.00031869	4.6298e-05	977.31	2.5868e-06	1.4876e-06	875.13	164.83	2.035e-06	1.942e-06	210.11	58.448	46.509	13.59	2.0211e-06	19.182	0.00026998	0.00029394	7.8444e-05	849.14	3.2747e-06	3.1477e-06	878.8	171.25	3.2738e-06	3.1523e-06	218.95	61.388	48.361	14.334	3.0898e-06	20.193	232.864	236.104	223.443	160.441	289.607	331.367	160.771	168.863	260.836	320.201	167.895	174.604	175.178	183.078	247.782	181.881	-8191	255	
12589.144	1	1	0	0	0.12963	0.19649	0.10961	0.25492	0.1454	0.13598	0.20198	0.10578	0.27725	0.22898	0.25341	0.19981	0.037075	0.051467	0.15053	0.16516	-1.7896	-2.7125	-2.2583	-2.4771	-2.7625	-2.1083	-2.4354	-2.7354	-2.2062	-2.8542	-2.4188	-2.3354	-2.9875	-2.2375	-2.5375	-2.8083	487.623	159.829	428.658	426.497	468.263	377.512	503.584	297.696	206.896	298.665	420.285	416.095	416.676	317.907	457.900	409.083	0.00018806	0.00029742	6.631e-05	969.95	2.468e-06	7.0216e-07	868.98	165.28	2.6753e-06	3.4175e-06	210.12	58.447	46.138	13.546	1.1828e-06	19.079	0.00027072	0.00029008	7.9857e-05	846.85	3.2007e-06	3.0746e-06	874.87	171.18	3.0984e-06	3.1247e-06	218.52	61.41	48.293	14.313	3.1392e-06	20.194	235.832	287.344	233.693	160.456	273.595	277.100	160.759	168.712	295.687	278.294	167.956	174.507	175.391	182.599	331.392	181.680	-8191	255	
12589.263	1	1	0	0	0.062657	0.12509	0.22063	0.36601	0.13778	0.1984	0.16332	0.15021	0.36973	0.081529	0.11159	0.086923	0.15168	0.092316	0.13796	0.13473	-1.6917	-2.7417	-2.3271	-2.3604	-2.6708	-2.3438	-2.5396	-2.7604	-2.075	-2.6542	-2.5917	-2.2479	-2.8667	-2.2792	-2.3146	-2.95	159.542	414.574	468.577	480.106	482.576	452.396	507.642	446.917	385.977	264.686	225.301	473.842	249.353	474.206	202.678	241.648	0.0001697	0.00020483	6.2945e-05	970.58	3.418e-06	1.1288e-06	867.86	165.17	1.6797e-06	1.9293e-06	209.77	58.275	46.195	13.556	2.0286e-06	18.945	0.0002608	0.00027817	7.9514e-05	845.03	3.1511e-06	3.1002e-06	874.42	171.11	3.0258e-06	3.1432e-06	218.25	61.14	48.211	14.321	3.1195e-06	20.136	235.122	225.563	271.998	160.191	272.025	285.812	160.603	168.537	293.343	335.471	167.802	174.578	175.640	183.442	323.021	181.203	-8191	255	
12589.335	1	1	0	0	0.03697	0.024306	0.14342	0.2359	0.1323	0.14823	0.050906	0.17657	0.31059	0.2711	0.19865	0.13052	0.051196	0.20332	0.32371	0.3181	-1.6646	-2.6396	-2.6417	-2.2854	-2.8146	-2.4333	-2.6271	-2.9208	-2.1271	-2.4979	-2.6646	-2.1958	-2.8375	-2.3187	-2.1542	-2.7938	235.047	432.730	199.951	483.719	493.008	468.496	432.562	418.761	194.119	318.501	440.438	288.990	219.832	414.189	288.853	382.083	0.00019059	0.0002258	7.4554e-05	979.07	1.6742e-06	2.998e-06	868.94	165.65	2.7423e-06	4.141e-07	212.27	58.187	46.043	13.612	4.0681e-06	19.04	0.00026345	0.00028404	7.9033e-05	846.98	3.1662e-06	3.1203e-06	874.12	171.06	3.2334e-06	3.0764e-06	219.11	61.098	48.186	14.345	3.1874e-06	20.176	233.365	253.693	233.158	160.620	286.566	300.823	160.443	168.819	308.082	342.867	168.168	174.731	175.314	183.260	303.106	182.036	-8191	255	
12589.431	1	1	0	0	0.068244	0.061311	0.1534	0.069433	0.060735	0.046809	0.058546	0.19035	0.15273	0.14543	0.10553	0.13963	0.080076	0.14344	0.13441	0.065205	-1.5896	-2.4521	-2.4917	-2.2292	-2.6562	-2.4292	-2.3833	-2.95	-2.2438	-2.4458	-2.7104	-1.9937	-2.925	-2.4583	-2.2458	-2.9167	176.258	202.916	494.908	496.268	198.440	472.239	338.623	443.057	336.717	242.633	240.330	271.757	289.729	486.761	156.906	479.896	0.00020381	0.00030848	7.9645e-05	971.4	2.9568e-06	1.8778e-06	869.37	165.31	1.2451e-06	1.9433e-06	210.54	58.191	46.01	13.555	1.6867e-06	19.137	0.00027476	0.00029212	8.3292e-05	845.2	3.1692e-06	3.1418e-06	874.96	171.08	3.1448e-06	3.0469e-06	219.21	61.306	48.303	14.358	3.2011e-06	20.271	235.655	215.385	249.291	160.326	302.586	324.100	160.837	168.488	290.459	326.953	168.044	174.379	175.151	182.895	293.484	181.949	-8191	255	
12589.552	1	1	0	0	0.17529	0.047681	0.13577	0.28574	0.07323	0.049007	0.16191	0.023683	0.23734	0.2409	0.19809	0.18179	0.051141	0.086344	0.16873	0.10223	-1.8167	-2.4188	-2.6937	-2.1708	-2.7896	-2.4458	-2.5312	-2.9458	-2.2729	-2.3792	-2.8479	-2.2313	-2.6708	-2.6188	-2.1833	-2.9313	386.091	195.048	170.228	335.108	308.400	361.754	436.507	349.975	233.372	240.381	416.317	220.971	447.726	187.728	473.076	480.282	0.00018052	0.0002701	4.2804e-05	970.14	2.0895e-06	2.4067e-06	870.29	165.6	1.6854e-06	3.5487e-06	211.44	58.713	46.022	13.643	1.8172e-06	19.177	0.00027252	0.00029377	8.1318e-05	845.52	3.3532e-06	3.2567e-06	876.14	171.25	3.2371e-06	3.2664e-06	219.33	61.399	48.271	14.419	3.1962e-06	20.318	233.981	255.940	281.058	160.520	308.513	277.737	160.485	168.589	273.907	291.797	167.862	174.781	175.368	183.352	289.311	181.692	-8191	255	
12589.648	1	1	0	0	0.19641	0.20809	0.20897	0.218	0.10454	0.15682	0.33565	0.16246	0.42627	0.015244	0.16662	0.20589	0.25471	0.1743	0.030049	0.085023	-1.8792	-2.3271	-2.6437	-2.3729	-2.3812	-2.5979	-2.1125	-2.975	-2.3167	-2.3354	-2.9646	-2.1979	-2.6792	-2.7333	-1.8167	-2.8583	222.466	175.238	482.274	154.924	327.242	342.804	380.403	400.867	155.790	180.147	388.391	408.078	154.310	506.867	487.461	181.701	0.00019276	0.00016941	9.2081e-05	976.69	2.3848e-06	3.2316e-06	873.42	165.71	1.9478e-06	1.8691e-06	213.61	59.011	46.721	13.824	2.108e-06	19.465	0.00026973	0.00029781	8.1568e-05	849.71	3.203e-06	3.3007e-06	877.46	172.03	3.2125e-06	3.2495e-06	220.26	62.093	48.808	14.6	3.0649e-06	20.484	238.266	242.549	173.602	160.266	285.258	306.526	160.590	168.709	286.446	324.541	167.854	174.812	175.418	182.461	312.032	181.489	-8191	255	
12589.744	1	1	0	0	0.28261	0.099767	0.15691	0.13934	0.084078	0.13353	0.21741	0.11356	0.099463	0.16651	0.31635	0.091864	0.15526	0.11948	0.13234	0.22834	-1.7917	-2.2354	-2.825	-2.4188	-2.4958	-2.7833	-2.3688	-2.8667	-2.5479	-2.2646	-3.0104	-2.3542	-2.2812	-2.725	-2.1708	-2.5667	494.026	475.739	397.705	503.791	335.885	154.962	439.838	431.639	498.243	473.235	160.078	487.040	473.988	370.231	499.104	249.900	0.00019347	0.00021498	5.0954e-05	979.76	1.9644e-06	2.2493e-06	877.32	169.36	2.0233e-06	2.9976e-06	215.81	60.122	46.97	13.97	1.97e-06	19.674	0.00025552	0.0002821	7.4647e-05	850.89	2.9867e-06	2.8998e-06	881.98	176.23	2.9081e-06	2.9727e-06	223.91	62.896	49.398	14.799	2.8696e-06	20.783	234.009	223.045	242.324	160.388	288.921	323.041	160.363	168.348	322.573	290.830	168.089	174.307	175.249	182.451	284.853	181.529	-8191	255	
12589.865	1	1	0	0	0.12646	0.052261	0.094014	0.23764	0.15632	0.1159	0.16421	0.32868	0.1207	0.26632	0.28519	0.21395	0.2576	0.030075	0.11308	0.055868	-2.2708	-2.3104	-2.8063	-2.4208	-2.4458	-2.7687	-2.4333	-2.7521	-2.5021	-2.2	-3.0062	-2.3771	-2.3208	-2.8396	-2.0271	-2.4958	359.317	172.328	410.340	485.542	379.574	387.298	450.773	196.178	374.582	380.870	414.124	336.119	456.560	439.949	263.799	280.973	0.00018692	0.0002442	8.1976e-05	982.78	8.5007e-07	1.3479e-06	881.11	172.96	1.9383e-06	1.435e-06	218.21	60.49	47.761	14.161	1.9918e-06	19.771	0.00024336	0.00026466	7.3658e-05	854.11	3.0306e-06	2.936e-06	886.19	179.43	3.0078e-06	3.0828e-06	226	63.397	49.871	14.939	3.1374e-06	20.799	231.691	216.079	262.589	160.431	298.447	287.509	160.607	168.511	340.422	263.370	167.416	174.577	174.749	182.193	274.733	181.432	-8191	255	
12589.959	1	1	0	0	0.13195	0.23941	0.13533	0.24341	0.32571	0.069595	0.19379	0.13114	0.063383	0.13906	0.20062	0.22792	0.14339	0.075983	0.09394	0.045148	-2.35	-1.8813	-2.7396	-2.5708	-2.2604	-2.7479	-2.2354	-2.6521	-2.8479	-2.1208	-2.7292	-2.5521	-2.3375	-2.8083	-2.0646	-2.4583	270.727	155.518	457.262	491.054	345.120	348.163	444.875	169.543	154.661	342.978	469.766	506.681	368.755	432.681	491.917	275.978	0.00020725	0.00028393	6.7088e-05	992.84	3.2385e-06	3.3146e-06	889.61	174.29	1.1196e-06	4.872e-07	219.89	61.157	48.104	14.284	1.5682e-06	19.905	0.00027104	0.00029743	8.2868e-05	860.44	3.3665e-06	3.2722e-06	893.31	180.25	3.4771e-06	3.5666e-06	228.01	63.818	50.369	15.12	3.623e-06	21.143	233.991	255.834	246.510	160.236	316.267	294.297	160.106	168.120	320.913	217.987	167.410	174.087	174.887	181.977	277.531	180.747	-8191	255	
12590.031	1	1	0	0	0.28689	0.094623	0.064955	0.22024	0.26613	0.3386	0.1496	0.089496	0.063572	0.13318	0.22403	0.17752	0.33792	0.32954	0.22307	0.15825	-2.2667	-2.0354	-2.6229	-2.8708	-2.1625	-2.7042	-2.3896	-2.4792	-2.4792	-2.3	-2.8458	-2.4896	-2.275	-2.6437	-2.2896	-2.3604	354.279	198.699	336.554	499.188	210.191	239.329	438.383	437.933	470.397	204.942	189.905	170.679	251.573	452.428	466.828	385.295	0.00018283	0.00028116	5.7719e-05	1003.4	4.6119e-07	3.2752e-06	902.01	176.51	1.2199e-06	1.4514e-06	221.55	61.696	49.187	14.704	3.4957e-07	20.272	0.00030409	0.00034107	9.9446e-05	872.88	3.9415e-06	3.9492e-06	906.79	183	3.8543e-06	4.0372e-06	230.97	64.838	51.309	15.447	4.0306e-06	21.499	237.420	270.379	216.262	160.265	324.295	269.565	160.363	168.188	317.897	417.014	167.446	174.266	174.597	181.591	467.210	180.636	-8191	255	
12590.151	1	1	0	0	0.15026	0.075671	0.15798	0.22293	0.089631	0.1443	0.22853	0.10021	0.079219	0.17013	0.086417	0.16631	0.18428	0.01937	0.36731	0.10108	-2.3833	-2.0687	-2.5604	-2.5479	-2.2083	-2.95	-2.5104	-2.1729	-2.7042	-2.0458	-2.6354	-2.7354	-2.2917	-2.5417	-2.2313	-2.3625	223.135	465.020	272.526	471.990	475.770	374.993	441.980	508.812	223.800	164.652	176.762	182.117	475.375	287.837	213.611	328.228	0.00022061	0.0002259	4.7046e-05	1012.6	2.2969e-06	1.4464e-06	905.4	178.26	1.6803e-06	7.5168e-07	224.16	62.587	49.467	14.683	2.7454e-06	20.22	0.00033123	0.00036698	0.00010428	880.93	4.197e-06	3.9242e-06	913.71	185.06	4.056e-06	4.1707e-06	232.62	65.43	51.587	15.55	4.0432e-06	21.517	236.653	243.895	231.446	160.001	315.661	304.443	160.212	167.858	261.771	338.870	167.345	174.336	174.927	181.307	291.860	180.887	-8191	255	
12590.247	1	1	0	0	0.09823	0.11893	0.15667	0.10879	0.32359	0.19643	0.39521	0.086671	0.18137	0.26126	0.1319	0.1315	0.20184	0.02539	0.11143	0.093243	-2.4062	-2.1437	-2.6	-2.85	-2.2833	-2.7687	-2.6146	-2.3833	-2.8271	-2.1083	-2.5271	-2.7104	-2.2375	-2.8104	-2.5187	-2.2708	507.517	300.739	393.270	389.426	190.905	402.697	424.626	190.815	456.819	372.059	233.114	222.590	422.219	234.495	409.680	427.995	0.00019928	0.0003023	5.5457e-05	1018.2	1.7204e-06	2.3528e-06	909.54	178.93	1.9248e-06	4.2173e-06	225.83	62.783	49.525	14.758	1.9407e-06	20.177	0.00032328	0.00036745	0.0001047	884.04	3.98e-06	4.0169e-06	915.32	185.47	4.0229e-06	3.938e-06	232.62	65.384	51.653	15.577	3.8315e-06	21.538	236.298	257.787	268.804	160.062	239.008	241.535	160.407	167.904	307.444	273.243	167.409	174.275	174.753	181.806	310.519	180.889	-8191	255	
12590.344	1	1	0	0	0.24788	0.13337	0.076159	0.1433	0.2511	0.28863	0.19327	0.13152	0.26797	0.29332	0.24796	0.069376	0.10025	0.31614	0.05251	0.17875	-2.3292	-2.2	-2.5	-2.625	-1.925	-2.5729	-2.7	-2.2875	-2.8479	-2.3083	-2.4333	-2.7167	-2.1562	-2.6437	-2.5812	-2.1896	280.599	198.359	420.107	336.677	409.105	198.693	446.643	166.138	299.640	342.724	436.497	206.009	504.766	209.896	208.940	380.612	0.00020343	0.00027699	3.5649e-05	1018.5	1.4163e-06	2.8703e-06	912.6	179.35	2.4393e-06	3.107e-06	223.35	62.712	49.277	14.671	2.7038e-06	20.338	0.00030833	0.00034546	9.8353e-05	884.61	3.9587e-06	4.018e-06	914.36	185.18	3.9673e-06	3.9329e-06	231.82	65.549	51.533	15.517	3.7336e-06	21.479	231.813	247.623	215.915	160.216	294.687	283.823	160.439	167.999	306.613	313.767	167.333	174.122	174.525	181.731	296.121	180.781	-8191	255	
12590.440	1	1	0	0	0.15212	0.27478	0.087405	0.23691	0.047421	0.13798	0.26052	0.20917	0.076259	0.047597	0.12767	0.153	0.21113	0.10205	0.27799	0.13562	-2.35	-2.1833	-2.2833	-2.9875	-2.0583	-2.5979	-2.7229	-2.2021	-2.9104	-2.2562	-2.3896	-2.7729	-2.3625	-2.5292	-2.6813	-1.9875	207.291	162.874	208.791	489.562	215.329	222.767	407.422	457.937	375.442	215.687	451.176	209.856	491.104	306.575	433.159	329.380	0.00018882	0.00028288	9.26e-05	1018.4	2.6499e-06	1.3471e-06	908.75	177.79	3.1751e-06	2.9138e-06	222.98	62.351	49.3	14.62	2.8262e-06	20.219	0.00030218	0.00034063	9.5828e-05	883.83	3.6701e-06	3.7268e-06	912.6	184.37	3.5422e-06	3.6368e-06	231.17	65.235	51.475	15.462	3.4467e-06	21.397	238.505	247.773	218.609	160.189	305.885	287.933	160.382	167.847	280.421	266.081	167.118	174.339	174.510	181.457	323.930	181.046	-8191	255	
12590.560	1	1	0	0	0.094899	0.14122	0.092587	0.19785	0.11812	0.12802	0.10124	0.19354	0.28811	0.39236	0.12377	0.18321	0.12188	0.36103	0.043618	0.24495	-2.4437	-2.3396	-2.2917	-2.9646	-2.2417	-2.5271	-3.0312	-2.275	-2.5792	-2.7396	-2.2875	-2.9146	-2.2875	-2.5396	-2.7646	-2.1771	429.247	279.028	173.870	418.954	425.308	318.236	438.134	456.332	166.020	353.095	436.298	209.108	383.508	235.225	261.177	401.337	0.00021555	0.0003062	7.2292e-05	1015.6	2.4648e-06	2.0238e-06	906.71	178.03	2.3421e-06	2.7933e-06	221.81	62.755	49.279	14.747	8.8951e-07	20.291	0.00028799	0.00032321	9.0594e-05	880.79	3.5204e-06	3.4606e-06	911.32	184.25	3.4153e-06	3.4464e-06	231.03	65.262	51.393	15.532	3.4116e-06	21.517	233.972	226.596	266.149	160.169	281.006	280.540	160.509	168.235	263.732	259.580	167.660	174.489	174.845	181.085	294.676	180.934	-8191	255	
12590.632	1	1	0	0	0.19208	0.31656	0.1691	0.32845	0.094763	0.2531	0.30503	0.23384	0.12537	0.11461	0.076307	0.062605	0.16705	0.2672	0.04497	0.31162	-2.1979	-2.5229	-2.1083	-2.9771	-2.3688	-2.5542	-3.1083	-2.1937	-2.5229	-2.7125	-2.3542	-2.9167	-2.4458	-2.4062	-2.7687	-2.1229	384.220	430.786	503.617	485.113	509.784	504.885	443.136	206.439	403.107	396.736	316.673	214.483	463.635	436.101	416.663	440.941	0.00018994	0.0002696	5.6429e-05	1013.1	2.3829e-06	3.3964e-06	912.72	178.05	1.8251e-06	2.0396e-06	224.18	62.946	49.15	14.642	1.9535e-06	20.125	0.00027388	0.00029835	8.3132e-05	881.16	3.4325e-06	3.3654e-06	913.45	184.21	3.3386e-06	3.3331e-06	231.56	65.441	51.379	15.494	3.3193e-06	21.39	239.727	250.792	220.928	160.352	256.669	322.700	160.436	167.957	283.060	331.147	167.589	174.154	174.709	181.471	309.775	181.496	-8191	255	
12590.728	1	1	0	0	0.10652	0.12266	0.13307	0.27971	0.25768	0.19799	0.43786	0.30642	0.23063	0.069956	0.26322	0.19183	0.18978	0.27102	0.204	0.039769	-2.2646	-2.5229	-2.1521	-3.0292	-2.3625	-2.3104	-3.0167	-2.2833	-2.4854	-2.6479	-2.2792	-2.7771	-2.5021	-2.1604	-2.7833	-2.275	282.066	446.490	294.145	153.899	369.706	322.807	467.292	458.500	225.536	329.324	439.931	178.881	211.614	408.642	294.983	468.737	0.00019049	0.00012861	8.716e-05	1015.7	1.7916e-06	1.2571e-06	908.9	177.96	3.0909e-06	2.3476e-06	223.36	62.417	49.143	14.626	1.325e-06	20.161	0.00028063	0.00030769	8.3174e-05	880.23	3.3922e-06	3.369e-06	912.13	184.48	3.2606e-06	3.2516e-06	230.87	65.279	51.412	15.525	3.1189e-06	21.433	235.699	198.708	260.098	160.254	263.729	310.377	160.559	168.324	296.898	276.360	167.945	174.241	174.674	181.512	282.770	181.503	-8191	255	
12590.824	1	1	0	0	0.28054	0.11233	0.31136	0.30899	0.29974	0.27985	0.37668	0.19386	0.098446	0.028199	0.15269	0.2378	0.16327	0.10993	0.088256	0.068666	-2.0563	-2.8167	-2.1646	-2.9938	-2.6875	-2.2271	-2.9125	-2.4938	-2.5479	-2.7687	-2.1437	-2.7021	-2.5812	-2.2167	-2.8458	-2.4083	431.411	266.244	211.590	459.223	386.654	358.992	408.088	413.796	279.226	283.307	249.779	459.682	168.014	440.018	391.245	444.563	0.00019034	0.00023599	3.2184e-05	1012.7	2.4052e-06	3.0948e-06	904.3	177.05	2.724e-06	4.4451e-06	222.84	62.145	49.168	14.591	3.2358e-06	20.241	0.00027657	0.00028554	8.1676e-05	878.99	3.26e-06	3.2459e-06	909.01	183.19	3.224e-06	3.1864e-06	230.53	65.109	51.406	15.487	3.152e-06	21.433	229.129	265.958	253.964	160.257	264.311	289.752	160.369	168.333	320.306	281.791	167.201	174.647	174.982	181.825	285.629	180.847	-8191	255	
12590.943	1	1	0	0	0.25905	0.071357	0.038505	0.4	0.022791	0.19377	0.26798	0.22009	0.14227	0.10123	0.18209	0.39799	0.27546	0.23655	0.21733	0.089139	-1.875	-2.825	-2.1417	-2.5854	-2.5042	-2.2083	-3.0479	-2.3792	-2.2792	-2.6667	-2.3208	-2.4542	-2.8875	-2.1771	-3.0229	-2.5042	385.556	382.789	313.918	454.622	152.526	232.826	416.993	354.938	294.051	432.345	291.509	463.043	164.580	312.692	399.461	258.221	0.00018103	0.00040702	8.3664e-05	1012.4	1.5533e-06	2.808e-06	902.94	176.19	2.5794e-06	3.6514e-06	220.99	62.147	49.152	14.589	2.4837e-06	20.189	0.00027023	0.0002871	8.1516e-05	878.39	3.184e-06	3.2205e-06	909.08	183.25	3.3492e-06	3.0963e-06	230.14	65.089	51.312	15.448	3.1446e-06	21.43	233.051	248.356	273.629	160.261	308.176	300.633	160.621	168.257	293.793	303.344	167.958	174.664	175.111	181.517	312.609	181.010	-8191	255	
12591.039	1	1	0	0	0.1989	0.1335	0.17854	0.15115	0.27862	0.24641	0.32684	0.30118	0.31431	0.18382	0.20328	0.13515	0.042107	0.22062	0.093725	0.33732	-1.9271	-2.7042	-2.1937	-2.7708	-2.7646	-2.0708	-2.8646	-2.6875	-2.2125	-2.8875	-2.3333	-2.5021	-2.6562	-2.1833	-2.675	-2.4125	443.037	311.898	166.162	162.887	287.640	494.088	484.030	489.627	374.508	292.008	332.646	328.687	316.527	260.891	342.709	282.292	0.00017994	0.00025334	0.00012267	1011.5	1.3385e-06	2.2487e-06	903.27	176.42	2.2466e-06	2.2637e-06	223.04	62.228	48.753	14.653	1.0865e-06	20.148	0.00026385	0.00028635	7.8637e-05	878.86	3.2278e-06	3.2093e-06	908.86	183.03	3.1726e-06	3.105e-06	230.14	65.192	51.185	15.477	3.0514e-06	21.387	232.328	212.419	255.173	160.281	298.655	339.010	160.729	168.370	295.043	296.569	167.758	174.166	175.110	181.440	283.531	181.370	-8191	255	
12591.135	1	1	0	0	0.22578	0.16708	0.18008	0.1251	0.13138	0.17725	0.40521	0.23563	0.19375	0.03049	0.15634	0.2669	0.1968	0.16641	0.071471	0.079016	-1.9917	-2.7479	-2.3458	-2.4646	-2.7375	-2.2208	-2.7958	-2.6354	-2.0229	-2.8833	-2.4646	-2.2458	-2.9792	-2.1354	-2.5812	-2.8042	153.229	503.145	409.427	179.006	468.045	232.733	414.665	462.159	341.904	482.141	434.859	441.806	472.643	227.092	278.512	503.042	0.00021114	0.00024312	6.4368e-05	1007.7	1.8751e-06	3.4545e-06	903.58	177.17	5.5201e-07	2.5872e-06	222.18	62.524	49.036	14.662	2.6832e-06	20.317	0.00027254	0.00028541	8.0126e-05	876.39	3.191e-06	3.1285e-06	908.28	183.22	3.0276e-06	2.9648e-06	230.59	65.229	51.392	15.48	2.9699e-06	21.371	232.386	250.794	299.454	160.243	264.422	300.776	160.633	168.435	270.101	299.646	167.721	174.438	174.672	181.715	321.953	181.187	-8191	255	
12591.232	1	1	0	0	0.20831	0.21978	0.22482	0.094646	0.16385	0.23633	0.094692	0.30619	0.24779	0.16839	0.13485	0.076199	0.33469	0.14365	0.19227	0.22751	-1.6979	-2.5458	-2.3833	-2.25	-2.8125	-2.1333	-2.7771	-2.7292	-2.1708	-2.7417	-2.4604	-2.275	-2.7917	-2.2188	-2.3396	-2.8917	268.225	316.955	438.348	442.239	174.131	438.282	476.476	194.927	448.141	324.906	454.273	416.348	465.329	441.718	467.655	160.681	0.00021581	0.0003525	4.3177e-05	1009	3.0215e-06	2.2947e-07	899.8	175.43	1.3397e-06	2.5331e-06	220.79	62.179	49.177	14.675	2.9597e-06	20.171	0.00025832	0.00026513	7.6527e-05	874.73	3.0146e-06	3.022e-06	905.55	182.61	3.0163e-06	2.9766e-06	229.64	65.076	51.377	15.558	3.0309e-06	21.412	235.819	233.437	266.067	160.127	312.362	310.706	160.783	168.368	334.384	290.255	167.885	174.327	174.841	181.528	301.724	181.119	-8191	255	
12591.328	1	1	0	0	0.14183	0.20682	0.14356	0.12466	0.19726	0.19995	0.28199	0.24227	0.024879	0.14914	0.26743	0.20405	0.13789	0.15739	0.26053	0.10867	-1.7542	-2.7208	-2.4875	-2.4417	-2.875	-2.2188	-2.5958	-2.7583	-2.0896	-2.875	-2.7062	-2.1958	-2.7875	-2.3646	-2.2542	-2.875	402.400	216.507	213.380	429.280	494.508	322.372	500.535	198.594	448.494	484.851	216.120	474.190	331.100	263.603	267.500	355.375	0.00018424	0.00026566	8.0325e-05	1010.5	9.9813e-07	2.3035e-06	899.8	177.57	1.0809e-06	3.0566e-06	221.35	62.107	48.931	14.524	9.8057e-07	20.236	0.00026448	0.00027888	7.9132e-05	874.88	2.9856e-06	3.0638e-06	907.36	183.2	3.0097e-06	3.1303e-06	229.92	65.126	51.475	15.499	3.0501e-06	21.395	236.562	259.226	250.537	160.276	318.126	273.722	160.687	168.513	265.142	274.182	168.234	174.534	174.666	181.786	316.799	180.973	-8191	255	
12591.424	1	1	0	0	0.14719	0.15313	0.18097	0.26152	0.15091	0.055088	0.088981	0.11576	0.16104	0.19897	0.082352	0.11705	0.28801	0.039896	0.11389	0.22565	-1.7125	-2.5917	-2.5083	-2.5438	-2.9021	-2.6333	-2.5604	-2.9625	-2.1271	-2.7625	-2.7562	-2.2125	-2.9938	-2.4708	-2.1667	-2.8833	392.287	165.216	491.887	162.685	198.741	315.524	452.001	397.385	362.544	373.564	497.413	455.224	402.387	501.881	499.243	489.501	0.00018828	0.00016214	4.9113e-05	1002.9	1.5245e-06	2.84e-06	899.55	176.58	2.0441e-06	7.5092e-07	222.18	61.911	48.969	14.62	2.1462e-06	19.978	0.00026546	0.00026847	7.8336e-05	874.1	3.0255e-06	3.0311e-06	906.17	183.04	2.9543e-06	3.0525e-06	230.32	65.061	51.248	15.479	2.9175e-06	21.353	233.657	254.711	235.204	160.429	268.769	359.938	160.799	168.168	292.600	367.533	168.082	174.805	174.622	181.964	331.241	181.213	-8191	255	
12591.545	1	1	0	0	0.043696	0.063748	0.15013	0.19426	0.22096	0.33037	0.36967	0.13723	0.12856	0.16061	0.37207	0.40436	0.19153	0.16823	0.13875	0.033394	-1.8417	-2.4917	-2.6354	-2.1854	-2.8167	-2.4896	-2.2812	-2.925	-2.1583	-2.4979	-2.8292	-2.1083	-2.775	-2.4646	-2.1646	-2.7562	465.301	451.231	220.540	400.591	265.794	336.872	419.282	466.439	391.193	253.013	467.946	401.987	431.867	429.755	187.135	383.951	0.00020458	0.00035049	3.9877e-05	1004	2.1174e-06	1.9185e-06	899.36	176.83	2.1508e-06	3.3568e-06	220.57	62.184	49.203	14.577	1.8629e-06	20.115	0.00025996	0.00026328	7.476e-05	874.37	3.0315e-06	2.8992e-06	906.35	182.97	3.0565e-06	3.0217e-06	229.14	65.045	51.329	15.48	2.9809e-06	21.411	234.083	224.602	231.849	160.301	269.113	264.410	160.607	168.557	335.057	306.435	167.862	174.481	174.937	181.574	296.041	181.282	-8191	255	
12591.641	1	1	0	0	0.13752	0.23367	0.078839	0.016883	0.24307	0.047117	0.22082	0.15031	0.10159	0.19419	0.080323	0.21628	0.132	0.054437	0.24172	0.12445	-1.9354	-2.3042	-2.85	-2.2208	-2.7125	-2.5062	-2.3979	-3.1562	-2.3521	-2.3104	-2.9146	-2.1271	-2.7229	-2.6125	-2.1021	-2.8792	277.052	314.011	264.760	489.894	368.119	324.858	500.022	463.153	360.582	470.851	152.749	493.922	182.371	467.935	436.332	351.693	0.00018704	0.00030095	5.9638e-05	1004.6	2.1583e-06	1.2298e-06	899.97	177.12	1.7139e-06	2.2998e-06	221.61	62.277	49.127	14.681	2.0972e-06	20.189	0.000255	0.00026569	7.4468e-05	872.45	3.0032e-06	2.9494e-06	906.03	182.78	3.0194e-06	2.9991e-06	229.74	65.056	51.351	15.489	2.9182e-06	21.384	231.137	222.085	256.169	160.593	341.445	389.415	160.464	168.217	295.924	284.644	167.847	174.572	174.755	181.758	296.307	181.433	-8191	255	
12591.737	1	1	0	0	0.20087	0.32406	0.034751	0.20475	0.27432	0.043775	0.16788	0.22145	0.19864	0.21764	0.19949	0.3467	0.17197	0.19347	0.2827	0.031872	-1.9479	-2.2062	-2.7083	-2.3958	-2.75	-2.6146	-2.4792	-2.8187	-2.5625	-2.2917	-2.9688	-2.2396	-2.5417	-2.5604	-2.2042	-2.6792	296.937	155.450	280.819	429.244	460.666	453.788	446.212	410.962	213.796	293.380	438.588	451.701	159.153	265.754	337.240	261.350	0.00020737	0.00024314	5.5237e-05	1004.5	2.633e-06	2.8688e-06	897.65	176.17	2.2489e-06	4.3547e-06	222.19	61.935	49.155	14.678	1.7186e-06	20.049	0.00025734	0.00026881	7.3238e-05	874.17	3.0718e-06	2.9591e-06	904.99	182.83	2.9769e-06	3.0252e-06	229.58	65.128	51.385	15.494	3.0076e-06	21.398	234.234	224.201	282.936	160.722	298.042	325.210	160.774	168.811	297.546	303.919	167.593	174.776	174.837	181.623	306.068	180.998	-8191	255	
12591.833	1	1	0	0	0.26532	0.12494	0.22117	0.20688	0.28523	0.22856	0.29677	0.26447	0.066939	0.20492	0.36434	0.091966	0.047584	0.17401	0.07251	0.15906	-1.9438	-2.1875	-2.775	-2.3708	-2.4125	-2.7708	-2.2042	-2.9417	-2.3354	-2.1417	-2.8167	-2.3479	-2.4854	-2.7062	-2.25	-2.6188	392.264	354.539	463.120	497.021	332.802	230.384	426.801	453.790	273.018	187.314	476.221	509.678	494.384	485.844	156.199	205.562	0.00019931	0.00033435	5.0868e-05	1006.2	2.1732e-06	4.817e-07	896.31	176.33	1.2221e-06	2.6676e-06	221.44	62.062	48.75	14.677	3.0102e-06	20.017	0.00025825	0.00027512	7.4595e-05	874.07	3.0621e-06	3.0154e-06	905.29	183	2.9644e-06	2.9639e-06	230.31	65.074	51.325	15.535	2.9587e-06	21.387	234.637	230.169	244.116	160.353	299.040	330.593	160.719	168.660	323.128	301.796	168.068	174.614	174.555	181.533	275.324	181.425	-8191	255	
12591.927	1	1	0	0	0.096075	0.15044	0.15045	0.25057	0.26367	0.073609	0.16713	0.065049	0.17003	0.042817	0.20913	0.11136	0.18301	0.10325	0.052988	0.33694	-2.1229	-2.2417	-2.6437	-2.5292	-2.1854	-2.7771	-2.3167	-2.6208	-2.6542	-2.0521	-2.8417	-2.3896	-2.4292	-2.9146	-2.2167	-2.4542	460.540	452.815	342.637	471.716	282.403	303.013	451.509	440.714	196.651	409.790	391.272	357.622	446.013	265.604	396.801	453.248	0.00021034	0.00021444	2.7361e-05	1005.6	1.579e-06	3.4737e-06	898.28	177.06	1.7347e-06	1.8136e-06	220.96	62.214	49.077	14.672	1.4467e-06	20.258	0.00025759	0.00026576	7.6211e-05	873.84	3.0417e-06	2.9632e-06	905.66	183.22	3.0005e-06	2.9271e-06	229.45	65.183	51.417	15.552	2.9726e-06	21.48	231.975	265.393	317.658	160.512	319.588	307.652	160.713	168.493	312.964	274.980	167.868	174.592	175.472	182.066	335.875	180.958	-8191	255	
12592.024	1	1	0	0	0.13526	0.22417	0.14988	0.2051	0.24136	0.13372	0.40947	0.29928	0.29378	0.13854	0.052726	0.11634	0.075098	0.13279	0.26589	0.12849	-2.3438	-2.1063	-2.65	-2.4917	-2.3229	-2.9313	-2.3563	-2.6333	-2.775	-2.0146	-2.7792	-2.3208	-2.2687	-2.6771	-2.1813	-2.4667	360.320	186.800	167.282	476.314	287.708	305.016	432.677	168.050	489.061	161.101	285.126	388.480	366.837	163.840	381.304	507.863	0.00019279	0.00027762	8.4539e-05	1008.3	1.8933e-06	1.6655e-06	901.49	176.27	2.8942e-06	3.2386e-06	221.17	62.233	48.753	14.762	2.843e-06	20.176	0.0002547	0.00026333	7.2682e-05	875.06	2.9756e-06	2.9821e-06	907.69	182.86	2.9729e-06	2.9886e-06	230.32	65.266	51.287	15.576	3.0367e-06	21.499	231.878	216.678	270.296	160.506	289.324	262.408	161.022	168.553	309.014	293.584	167.878	174.894	175.136	181.788	283.263	181.582	-8191	255	
12592.120	1	1	0	0	0.18519	0.22215	0.25702	0.26183	0.13758	0.13011	0.4955	0.1096	0.19717	0.29855	0.15439	0.23568	0.089755	0.087166	0.039893	0.073326	-2.2938	-1.9417	-2.625	-2.7646	-2.1271	-2.8333	-2.4854	-2.4813	-2.9562	-2.1208	-2.5354	-2.7167	-2.1271	-2.8729	-2.2646	-2.4938	429.656	364.179	299.948	442.535	203.236	500.553	416.246	394.589	425.011	392.506	482.635	406.295	340.991	260.665	208.837	255.986	0.00020987	0.00038084	7.151e-05	1005.8	1.539e-06	2.715e-06	897.48	177.21	2.412e-06	3.6911e-06	220.63	62.249	48.958	14.633	1.6409e-06	20.209	0.00025799	0.00027885	7.3738e-05	874.58	3.0301e-06	2.8807e-06	907.3	183.21	2.9865e-06	3.0456e-06	229.94	65.408	51.366	15.601	2.8654e-06	21.414	227.898	237.495	245.917	160.668	266.755	316.023	160.920	168.929	316.766	292.936	167.810	174.740	175.087	181.649	313.227	181.465	-8191	255	
12592.240	1	1	0	0	0.21919	0.24592	0.37556	0.31856	0.13072	0.033926	0.24511	0.18689	0.19153	0.22918	0.34263	0.11416	0.19339	0.22575	0.1637	0.28385	-2.3937	-2.1625	-2.6396	-2.6417	-2.2	-2.7625	-2.4958	-2.475	-2.6229	-2.0104	-2.4625	-2.825	-2.0833	-2.7146	-2.3833	-2.2333	217.979	330.601	482.130	451.835	435.005	340.918	488.760	439.783	435.704	407.968	390.333	423.715	197.786	252.325	293.605	506.898	0.00016997	0.00035417	4.5159e-05	1003.5	3.334e-06	2.7871e-06	896.09	176.22	1.8519e-06	2.9477e-06	221.81	62.302	48.934	14.697	2.3524e-06	20.069	0.00025308	0.00027482	7.4996e-05	874.92	2.9594e-06	2.9929e-06	906.92	183.06	2.955e-06	2.9445e-06	230.69	65.385	51.356	15.574	2.825e-06	21.442	233.018	202.673	213.485	160.751	283.582	304.288	160.807	168.164	293.009	312.147	167.851	175.117	174.861	181.786	300.115	181.197	-8191	255	
12592.336	1	1	0	0	0.27457	0.11734	0.15596	0.13399	0.19769	0.25415	0.15681	0.23328	0.40989	0.25045	0.057523	0.20343	0.23043	0.18015	0.042346	0.20346	-2.4375	-2.025	-2.2167	-2.8708	-1.8875	-2.8083	-2.6312	-2.3229	-2.6729	-2.2542	-2.45	-2.7042	-1.9062	-2.7167	-2.5458	-2.1604	228.618	204.682	294.911	197.797	494.621	381.605	397.155	177.623	170.198	288.526	367.594	491.747	246.862	415.089	344.876	304.648	0.00018343	0.00027598	8.544e-05	1003.9	1.5834e-06	1.251e-06	896	176.91	2.7592e-06	1.9653e-06	219.54	61.804	48.882	14.605	2.8708e-06	20.309	0.00025379	0.00026726	7.2117e-05	873.8	2.9147e-06	2.7959e-06	906.7	183.14	2.8983e-06	2.9194e-06	229.3	65.071	51.216	15.505	2.8271e-06	21.454	235.691	237.742	241.656	160.821	283.688	295.777	160.900	168.443	300.562	300.715	168.228	174.661	174.692	181.802	334.394	181.302	-8191	255	
12592.433	1	1	0	0	0.22443	0.18642	0.087762	0.3047	0.031607	0.053522	0.19351	0.4823	0.15872	0.030114	0.17027	0.14938	0.16103	0.17498	0.075779	0.2125	-2.4021	-2.1167	-2.2188	-2.7479	-2.025	-2.5333	-2.7708	-2.3146	-2.8104	-2.1333	-2.1854	-2.8708	-2.125	-2.7417	-2.5625	-2.0167	315.449	378.846	438.233	508.990	324.801	224.768	482.625	461.240	247.884	350.683	206.714	157.637	181.768	482.062	383.416	508.236	0.00018402	0.00011357	6.9234e-05	1000.5	3.3066e-06	1.7973e-06	895.5	176.02	2.1765e-06	4.1335e-06	221.03	62.144	49.024	14.699	1.142e-06	20.183	0.00024642	0.00026692	7.4157e-05	872.81	2.9754e-06	2.9089e-06	905.56	182.3	2.8376e-06	2.8261e-06	229.58	65.202	51.324	15.57	2.8434e-06	21.4	232.835	255.318	253.137	160.547	305.519	278.486	160.848	168.619	297.802	273.471	167.903	174.820	175.131	182.124	297.539	181.281	-8191	255	
12592.504	1	1	0	0	0.30108	0.11192	0.11915	0.21941	0.15046	0.40522	0.058853	0.15674	0.33359	0.20805	0.13351	0.058668	0.1489	0.049451	0.14027	0.00074022	-2.3854	-2.4917	-2.4	-2.9458	-2.3604	-2.5563	-2.7896	-2.2417	-2.6875	-2.4542	-2.3833	-2.9021	-2.2917	-2.3979	-2.8042	-2.1417	367.660	267.914	253.184	162.834	451.755	376.968	191.062	443.235	467.923	250.404	501.552	273.906	189.151	445.228	434.111	180.000	0.00020835	0.00012123	3.7653e-05	1001.3	2.8243e-06	3.4756e-06	896.6	175.66	2.037e-06	2.6839e-06	220.56	62.119	49.051	14.645	1.5987e-06	20.14	0.00025358	0.00024975	7.2607e-05	873.85	2.99e-06	2.8515e-06	906.63	182.4	2.8905e-06	2.8347e-06	229.67	65.2	51.387	15.526	2.7858e-06	21.421	228.716	205.880	199.987	160.681	305.026	304.848	160.953	168.580	299.949	304.659	167.981	174.715	174.817	181.801	343.724	181.132	-8191	255	
12592.625	1	1	0	0	0.20264	0.11495	0.12717	0.46822	0.26803	0.15837	0.2355	0.11384	0.24697	0.14109	0.056546	0.059576	0.21545	0.21227	0.049208	0.19439	-2.2458	-2.3458	-2.2104	-2.9292	-2.25	-2.2375	-2.8104	-2.2062	-2.6042	-2.3438	-2.2521	-2.8479	-2.3354	-2.4896	-2.6646	-2.0417	387.489	397.074	350.848	509.058	398.288	485.398	433.767	391.161	316.249	263.058	185.681	470.152	499.641	170.439	463.776	419.314	0.00020028	0.00024269	0.00011153	1004.9	1.9835e-06	3.2077e-06	900.73	175.02	1.8388e-06	1.9845e-06	222.27	61.955	48.949	14.61	1.9182e-06	20.357	0.00024664	0.00025248	7.4044e-05	875.52	2.9299e-06	2.8175e-06	907.32	182.2	2.9084e-06	2.848e-06	229.83	65.238	51.372	15.531	2.7762e-06	21.455	233.236	241.977	257.961	160.800	283.142	326.237	161.046	168.553	288.757	321.259	168.073	175.083	175.276	181.782	290.936	181.181	-8191	255	
12592.721	1	1	0	0	0.12571	0.30816	0.15616	0.25288	0.17148	0.20974	0.28442	0.22141	0.05099	0.22745	0.11151	0.14913	0.3282	0.17107	0.34087	0.35845	-2.2146	-2.5854	-2.0938	-3.025	-2.2687	-2.1792	-2.9313	-2.3104	-2.5646	-2.7125	-2.0646	-2.8125	-2.3625	-2.0875	-2.8	-2.2083	354.301	347.142	195.370	481.757	333.053	375.970	447.628	472.797	227.810	283.465	386.299	412.979	241.075	493.875	394.079	505.226	0.00018824	0.00029505	6.3506e-05	1003.4	2.2615e-06	2.6132e-06	900.88	176.05	1.2362e-06	2.0649e-06	220.65	62.236	49.317	14.706	2.4227e-06	20.173	0.00024928	0.0002484	7.0473e-05	874.96	3.0139e-06	2.9003e-06	906.96	182.44	2.7565e-06	2.8392e-06	229.46	65.215	51.563	15.564	2.7657e-06	21.483	233.804	212.323	254.185	160.684	340.034	292.974	160.728	168.369	309.934	271.085	167.938	174.696	174.807	181.323	311.967	181.213	-8191	255	
12592.817	1	1	0	0	0.2821	0.12247	0.078843	0.26484	0.077319	0.19438	0.26209	0.076029	0.11235	0.28896	0.146	0.23488	0.20912	0.093562	0.21459	0.040505	-2.0396	-2.8812	-2.2333	-2.9042	-2.2979	-2.1146	-2.9333	-2.3167	-2.4771	-2.6979	-2.2208	-2.6708	-2.6063	-2.2146	-2.6896	-2.2958	216.270	394.589	229.134	461.073	201.511	473.529	464.562	505.557	334.044	391.980	470.284	426.720	375.505	360.262	173.616	410.193	0.00019852	0.00027039	5.2394e-05	1005.8	2.3593e-06	4.4947e-06	900.85	176.93	2.1509e-06	3.3264e-06	220.4	62.411	49.17	14.764	2.2881e-06	20.195	0.00024413	0.00025226	7.142e-05	873.91	2.913e-06	2.8798e-06	904.35	182.89	2.8073e-06	2.8673e-06	229.28	65.318	51.444	15.56	2.7814e-06	21.414	230.678	249.026	251.114	160.236	293.151	285.431	160.742	168.435	297.525	287.103	167.674	174.721	174.755	181.459	297.963	181.347	-8191	255	
12592.913	1	1	0	0	0.35372	0.27506	0.18164	0.16351	0.33263	0.21595	0.2247	0.3215	0.12214	0.28093	0.16101	0.16029	0.062105	0.16825	0.17197	0.16189	-2.0208	-2.6229	-2.0687	-2.7583	-2.5229	-1.8854	-2.9771	-2.3771	-2.3167	-2.8063	-2.1625	-2.4146	-2.675	-2.1583	-2.8542	-2.4125	317.419	240.437	212.303	182.931	214.036	153.122	449.774	450.328	506.218	192.784	199.781	337.703	182.909	165.402	495.330	188.685	0.00018376	0.00022929	6.3569e-05	1007.9	2.6012e-06	3.9017e-06	900.47	176.03	2.07e-06	3.3327e-06	221.03	62.386	49.119	14.675	2.4495e-06	20.284	0.0002413	0.00024683	6.9851e-05	873.19	2.8329e-06	2.7388e-06	906.05	182.35	2.7786e-06	2.725e-06	229.35	65.216	51.343	15.524	2.6747e-06	21.454	235.252	263.710	250.138	160.483	319.974	327.598	160.546	168.281	279.427	297.819	167.814	174.556	175.648	182.167	283.857	181.513	-8191	255	
12593.032	1	1	0	0	0.1805	0.068674	0.19253	0.024135	0.1188	0.57818	0.27825	0.1571	0.22114	0.15068	0.2541	0.15546	0.14204	0.34409	0.061122	0.15076	-1.825	-2.7104	-1.9917	-2.6417	-2.7625	-1.8896	-2.8875	-2.6646	-2.2562	-2.6896	-2.2271	-2.6854	-2.6188	-2.0771	-2.6021	-2.3812	260.962	220.830	281.200	157.824	491.975	300.277	445.392	380.642	211.924	440.423	261.538	290.817	369.141	196.135	253.104	327.168	0.00021235	0.00016635	4.9477e-05	1000.5	1.1164e-06	1.4255e-06	899.88	176.53	1.5445e-06	2.7875e-06	220.01	61.651	49.152	14.597	9.7937e-07	20.137	0.00023515	0.00024626	6.7604e-05	872.98	2.7696e-06	2.6714e-06	905.55	182.64	2.754e-06	2.6058e-06	229.25	65.088	51.409	15.522	2.6483e-06	21.402	234.415	205.606	277.697	160.837	300.995	329.642	160.940	168.707	341.764	306.027	168.406	174.882	175.708	181.589	304.254	181.171	-8191	255	
12593.128	1	1	0	0	0.13302	0.26714	0.26278	0.2218	0.24774	0.084972	0.14342	0.13173	0.22142	0.061962	0.30963	0.21989	0.12571	0.09752	0.058536	0.19382	-1.8354	-2.6833	-2.1458	-2.5687	-2.6729	-2.0729	-2.8354	-2.625	-2.2812	-2.8083	-2.375	-2.4479	-2.7167	-2.2042	-2.6979	-2.6229	334.856	288.807	461.712	433.065	391.376	343.630	431.526	258.334	430.641	398.081	469.568	170.278	407.561	186.014	322.276	475.179	0.00019992	0.00034729	3.9153e-05	999.69	1.8006e-06	2.1623e-06	894.95	175.42	1.8758e-06	2.9475e-06	218.5	62.302	49.055	14.554	1.4359e-06	20.077	0.0002381	0.00024587	6.8928e-05	870.66	2.665e-06	2.6647e-06	903.07	182.28	2.7156e-06	2.6132e-06	228.41	65.23	51.355	15.533	2.5746e-06	21.396	234.301	210.863	269.618	160.621	285.089	287.832	161.053	168.980	296.458	287.931	168.208	174.666	175.948	181.879	308.007	181.991	-8191	255	
12593.225	1	1	0	0	0.17272	0.19206	0.17362	0.22757	0.16167	0.24111	0.15261	0.54282	0.1761	0.14894	0.076308	0.18619	0.1083	0.47538	0.19507	0.16074	-1.7542	-2.825	-2.2333	-2.325	-2.8146	-2.1396	-2.5625	-2.6604	-2.1083	-2.8812	-2.5771	-2.2646	-2.7479	-2.2062	-2.3563	-2.7083	241.651	391.334	323.974	169.166	186.141	382.230	224.352	439.516	183.453	274.484	156.726	440.149	304.774	179.073	463.901	276.930	0.000193	0.00019383	9.0621e-05	994.64	1.5674e-06	1.8032e-06	892.02	175.22	2.6074e-06	1.9369e-06	220.2	61.47	48.573	14.69	1.8863e-06	20.152	0.00023938	0.00022963	6.8037e-05	869.31	2.7614e-06	2.691e-06	902.63	181.67	2.7113e-06	2.5889e-06	228.76	64.978	51.134	15.538	2.698e-06	21.38	233.923	278.432	204.807	160.667	306.475	319.107	160.952	168.662	284.721	314.703	168.152	174.665	175.178	181.839	243.736	181.499	-8191	255	
12593.321	1	1	0	0	0.10946	0.17946	0.19056	0.064374	0.056137	0.14774	0.12116	0.13053	0.30317	0.028069	0.10003	0.18894	0.17326	0.09338	0.1718	0.0095423	-1.7188	-2.6354	-2.3354	-2.2812	-2.7875	-2.3	-2.5375	-2.9604	-1.8354	-2.8792	-2.4667	-2.1396	-2.8146	-2.3167	-2.5792	-2.8792	496.952	352.371	474.066	427.234	191.130	420.367	342.969	460.706	343.618	201.517	465.441	470.062	243.007	194.850	375.028	491.028	0.00019046	0.00010252	8.0159e-05	995.93	2.0765e-06	1.6727e-06	891.93	174.62	2.3046e-06	6.5978e-07	220.24	61.793	49.054	14.488	3.047e-06	20.036	0.00023212	0.0002368	6.906e-05	867.47	2.5463e-06	2.6543e-06	901.7	181.33	2.6715e-06	2.5375e-06	228.96	64.966	51.224	15.448	2.4987e-06	21.334	233.070	242.196	251.020	160.839	257.463	277.595	161.069	168.867	292.336	233.682	168.119	174.627	175.655	182.316	302.045	182.027	-8191	255	
12593.417	1	1	0	0	0.28224	0.31552	0.18225	0.31982	0.35263	0.22054	0.22399	0.033879	0.14811	0.096111	0.30726	0.17173	0.15635	0.34384	0.14333	0.25339	-1.75	-2.5917	-2.6375	-2.2812	-2.7271	-2.0979	-2.4271	-2.9188	-2.0917	-2.7583	-2.6937	-2.1854	-2.9896	-2.4375	-2.1208	-2.7458	215.741	195.616	352.212	494.393	284.214	251.951	473.251	376.725	192.698	399.837	450.065	491.059	215.170	489.811	262.646	151.542	0.000198	0.0002444	7.5418e-05	994.8	1.3364e-06	1.4722e-06	889.42	174.09	1.7426e-06	7.6806e-07	219.94	61.436	48.731	14.557	2.6104e-06	19.901	0.00023368	0.00023958	6.4052e-05	867.08	2.5795e-06	2.6565e-06	899.31	181.51	2.6564e-06	2.533e-06	228.34	64.919	51.223	15.431	2.6999e-06	21.22	233.783	230.305	240.221	160.953	291.944	323.274	161.051	168.962	311.547	239.058	168.076	174.856	175.306	181.948	318.299	181.549	-8191	255	
12593.513	1	1	0	0	0.085192	0.10207	0.28819	0.24142	0.19784	0.13255	0.064235	0.088351	0.15448	0.14529	0.10601	0.2919	0.19298	0.088488	0.040148	0.21173	-1.8354	-2.4271	-2.6937	-2.5417	-2.6729	-2.5333	-2.4521	-2.9208	-2.2313	-2.5354	-2.7583	-2.2313	-2.8667	-2.6583	-2.4375	-2.7687	480.075	301.238	398.918	440.900	283.300	276.853	498.210	160.237	366.462	267.348	168.206	369.409	427.965	280.330	217.834	505.717	0.00017514	0.00018287	7.5544e-05	994.79	1.5656e-06	1.5276e-06	888.71	174.77	2.2107e-06	3.4615e-06	217.48	61.43	48.642	14.489	3.1623e-06	19.999	0.0002257	0.00023481	6.3901e-05	866.69	2.6815e-06	2.5082e-06	897.79	180.87	2.5937e-06	2.5598e-06	227.18	64.492	51.015	15.394	2.5659e-06	21.293	235.141	306.089	244.574	160.962	279.905	281.953	161.222	168.963	308.927	311.572	168.265	174.671	175.310	182.424	313.946	181.808	-8191	255	
12593.634	1	1	0	0	0.19822	0.020706	0.10345	0.12724	0.12827	0.07947	0.15938	0.12784	0.11195	0.22671	0.23445	0.11012	0.030273	0.22595	0.24568	0.20288	-1.8563	-2.2812	-2.6917	-2.2104	-2.55	-2.2938	-2.4854	-2.9833	-2.2667	-2.3292	-2.825	-2.1333	-2.7167	-2.7292	-2.2958	-2.8896	437.887	159.934	460.849	493.145	499.288	167.869	151.669	432.257	341.703	301.854	471.522	459.211	256.764	151.484	299.202	417.967	0.00020043	0.00028063	7.1101e-05	987.35	2.6239e-06	3.7128e-06	885.04	173.84	3.2506e-06	1.7517e-06	217.46	62.004	48.722	14.579	1.1666e-06	19.998	0.00023284	0.00023273	6.3755e-05	863.67	2.6274e-06	2.578e-06	896.27	180.83	2.5997e-06	2.5512e-06	226.93	64.713	50.934	15.427	2.6053e-06	21.252	229.652	249.153	257.128	160.856	279.048	311.007	161.051	169.017	296.538	293.702	168.336	174.566	175.855	182.394	282.686	182.192	-8191	255	
12593.730	1	1	0	0	0.20856	0.042155	0.16469	0.34866	0.088154	0.081233	0.060195	0.17436	0.15815	0.032002	0.082839	0.068706	0.21723	0.064487	0.3231	0.067439	-1.9021	-2.2396	-2.7438	-2.2208	-2.4688	-2.6708	-2.2313	-2.8333	-2.2146	-2.3021	-2.7896	-2.1333	-2.6604	-2.6083	-2.1375	-2.8438	382.653	274.607	269.610	186.638	161.242	496.011	466.359	277.487	296.058	153.590	455.938	469.374	198.623	455.792	232.070	162.751	0.00020406	0.00016532	4.7699e-05	986.32	2.6095e-06	2.0324e-06	886.49	173.34	1.7621e-06	2.8685e-06	218.53	61.559	48.339	14.484	1.9921e-06	20.145	0.00023494	0.00023133	6.2752e-05	864	2.6238e-06	2.4767e-06	896.23	180.62	2.5135e-06	2.5572e-06	227.38	64.805	50.798	15.395	2.5182e-06	21.243	233.079	228.484	211.762	161.209	278.954	266.277	161.347	168.720	310.692	330.374	168.456	175.035	175.213	182.361	301.261	181.803	-8191	255	
12593.801	1	1	0	0	0.09527	0.1632	0.27701	0.47204	0.11239	0.18857	0.45188	0.30937	0.014545	0.18545	0.072481	0.11557	0.16339	0.19439	0.046655	0.066703	-2.0104	-2.2771	-2.9271	-2.5125	-2.5604	-2.6375	-2.2729	-2.8396	-2.6375	-2.1042	-2.9	-2.1604	-2.4437	-2.725	-2.2604	-2.7604	433.507	339.418	388.185	422.443	266.162	187.522	391.651	198.712	208.689	363.667	452.354	188.249	287.640	238.399	473.434	311.581	0.00020386	0.00022457	4.6893e-05	988.48	2.2056e-06	2.57e-06	884.98	173.88	1.6034e-06	2.05e-06	218.48	61.58	48.271	14.4	2.6581e-06	19.828	0.00023169	0.00023938	6.3632e-05	864.18	2.6581e-06	2.4e-06	895.96	180.74	2.6137e-06	2.5633e-06	227.84	64.628	50.874	15.366	2.5462e-06	21.241	231.899	265.509	272.606	160.993	314.498	301.682	161.315	169.166	307.252	306.680	168.134	174.995	175.997	181.949	304.084	182.340	-8191	255	
12593.898	1	1	0	0	0.15041	0.11707	0.26468	0.26093	0.26556	0.096248	0.27012	0.13571	0.1511	0.10202	0.1503	0.26287	0.29554	0.21	0.29045	0.14592	-2.025	-2.0271	-2.7333	-2.2896	-2.4833	-2.6979	-2.0354	-2.7792	-2.5292	-2.1667	-2.7646	-2.2562	-2.4771	-2.6063	-2.2417	-2.6667	178.050	419.390	287.936	411.967	233.601	433.710	486.943	463.483	382.345	172.700	155.322	442.073	441.508	431.023	224.070	420.470	0.00019976	9.9978e-05	6.84e-05	989.88	2.2635e-06	2.1245e-06	888.52	172.8	1.6068e-06	2.658e-06	217.46	61.567	48.176	14.539	2.0969e-06	19.812	0.00023336	0.00023206	6.4594e-05	863.87	2.5855e-06	2.6153e-06	896.76	180.39	2.6095e-06	2.5265e-06	227.17	64.706	50.828	15.383	2.5428e-06	21.229	228.742	152.586	241.743	161.190	278.321	322.834	161.307	169.008	299.429	273.663	168.592	175.078	175.444	181.992	338.878	181.907	-8191	255	
12594.016	1	1	0	0	0.1671	0.29418	0.08898	0.35276	0.13534	0.22575	0.15401	0.19801	0.13582	0.18566	0.18376	0.22395	0.30384	0.2243	0.05587	0.11501	-2.2625	-2.1542	-2.8917	-2.325	-2.1979	-2.7562	-2.3896	-2.5458	-2.7646	-2.2812	-2.7167	-2.5708	-2.1875	-2.7542	-2.2687	-2.4417	244.269	450.524	465.344	498.413	208.331	284.750	401.317	374.852	159.920	178.402	447.560	477.646	444.152	433.018	284.586	314.451	0.00019749	0.00018707	5.5503e-05	986.15	2.6221e-06	2.2342e-06	883.23	173.43	9.3795e-07	1.156e-06	219.74	61.595	48.229	14.539	2.2151e-06	19.922	0.00022781	0.00023545	6.4919e-05	863.5	2.6108e-06	2.5005e-06	895.89	180.52	2.5452e-06	2.5867e-06	227.86	64.717	50.792	15.409	2.6165e-06	21.21	230.690	198.832	261.775	161.062	281.479	291.996	161.145	168.927	291.004	293.972	168.293	174.969	175.692	182.156	301.715	181.971	-8191	255	
12594.113	1	1	0	0	0.15554	0.011533	0.085148	0.22905	0.34493	0.10865	0.34004	0.05946	0.040907	0.20801	0.17705	0.27303	0.29736	0.20068	0.25063	0.10214	-2.4271	-2.0854	-2.7896	-2.4042	-2.3396	-2.7604	-2.3937	-2.5521	-2.7646	-2.2229	-2.7833	-2.7417	-2.3563	-2.8521	-2.1646	-2.525	229.318	485.991	314.306	474.168	186.259	497.786	486.291	402.971	458.647	305.064	210.870	413.487	157.929	178.990	378.123	215.151	0.00019088	0.00019092	0.00011127	989.02	2.6379e-06	2.7415e-06	882.69	173.15	2.0229e-06	1.6674e-06	218.29	61.204	48.059	14.395	3.629e-06	19.961	0.0002319	0.00024685	6.6775e-05	864.84	2.7181e-06	2.5222e-06	896.38	180.17	2.6553e-06	2.7564e-06	227.09	64.532	50.774	15.298	2.6757e-06	21.157	234.166	242.511	237.328	161.092	294.783	347.267	161.158	168.890	298.345	277.993	168.371	175.126	175.446	182.325	294.559	181.367	-8191	255	
12594.209	1	1	0	0	0.12596	0.12301	0.2404	0.29801	0.25932	0.10441	0.13146	0.22069	0.18272	0.03924	0.10559	0.22469	0.14122	0.086553	0.17462	0.24864	-2.4042	-2.15	-2.6271	-2.6312	-2.1958	-2.8396	-2.4896	-2.3083	-2.7333	-2.2125	-2.9	-2.8729	-2.2417	-2.7521	-2.5333	-2.3292	507.323	200.693	455.723	501.715	228.875	403.882	300.991	464.652	253.738	463.575	380.518	459.654	461.675	403.530	427.837	454.877	0.00021139	8.6338e-05	0.00010338	989.66	2.2712e-06	3.0274e-06	888.6	172.76	1.6404e-06	2.216e-06	217.97	61.362	47.909	14.427	2.6628e-06	19.735	0.00023502	0.00024348	6.7274e-05	863.58	2.7498e-06	2.5309e-06	896.13	180.34	2.5964e-06	2.594e-06	227.05	64.572	50.642	15.328	2.5993e-06	21.15	235.231	254.402	218.535	161.106	307.138	288.973	161.477	168.938	280.804	295.220	168.035	175.508	175.530	182.194	246.016	181.628	-8191	255	
12594.305	1	1	0	0	0.20201	0.078852	0.11893	0.22741	0.21718	0.39182	0.2626	0.27916	0.15826	0.063966	0.040619	0.089659	0.17536	0.12797	0.27353	0.25316	-2.2812	-2.0833	-2.4792	-2.7646	-2.1396	-2.7271	-2.6833	-2.4708	-2.9167	-2.3146	-2.5125	-2.7625	-2.2021	-2.5687	-2.7021	-2.2083	385.062	438.487	350.312	181.643	446.841	156.628	170.755	505.835	426.157	209.745	282.325	399.664	413.641	384.538	310.362	212.347	0.00016922	0.00036022	6.0116e-05	987.62	2.2994e-06	3.7978e-06	886.58	173.18	2.2343e-06	8.9507e-07	216.47	61.146	48.566	14.368	1.4556e-06	19.921	0.00022091	0.00023467	6.4024e-05	863.09	2.674e-06	2.5153e-06	896.05	180.16	2.5746e-06	2.6416e-06	226.5	64.51	50.847	15.293	2.5735e-06	21.202	232.562	241.333	200.969	161.018	286.222	290.395	161.233	168.858	302.737	304.786	168.227	175.175	175.702	181.954	283.071	181.530	-8191	255	
12594.401	1	1	0	0	0.15891	0.27276	0.1731	0.083484	0.064251	0.010136	0.29474	0.34779	0.12091	0.15494	0.21862	0.076772	0.48388	0.046514	0.11395	0.27628	-2.3583	-2.2792	-2.575	-2.925	-2.1583	-2.8146	-2.7021	-2.3708	-2.9208	-2.4313	-2.3771	-2.8917	-2.175	-2.7562	-2.725	-2.2938	369.246	265.785	443.252	355.049	256.658	336.344	471.063	151.112	350.502	197.578	422.002	164.615	461.175	419.450	430.004	403.017	0.00019121	0.0003633	4.6912e-05	987.4	2.9101e-06	3.4947e-06	882.32	173.34	2.5175e-06	2.2559e-06	218.01	61.693	47.891	14.3	1.5429e-06	19.81	0.00023853	0.00023644	6.9743e-05	862.66	2.799e-06	2.6977e-06	895.32	180.15	2.6667e-06	2.5603e-06	226.98	64.484	50.62	15.231	2.6468e-06	21.105	233.485	239.058	274.354	161.111	304.403	300.847	161.406	168.974	309.652	292.791	168.091	175.223	175.914	182.141	310.368	181.988	-8191	255	
12594.497	1	1	0	0	0.13651	0.029591	0.21366	0.17789	0.13115	0.11725	0.25633	0.13934	0.11133	0.16218	0.078204	0.15701	0.15398	0.27233	0.1622	0.19525	-2.4792	-2.2458	-2.2604	-3.1146	-2.1479	-2.5521	-2.8708	-2.4521	-2.8479	-2.3771	-2.4229	-2.9688	-2.2562	-2.7208	-2.8104	-2.1396	299.517	364.288	298.105	473.264	499.030	291.269	422.444	182.552	252.230	316.893	488.430	237.021	396.623	471.403	312.039	503.302	0.00020036	0.00012537	6.0374e-05	984.66	2.1689e-06	2.4786e-06	891.71	173.44	2.1931e-06	3.4259e-06	216.28	61.016	48.371	14.463	1.6005e-06	19.79	0.00023196	0.00023401	6.7062e-05	862.08	2.7209e-06	2.5912e-06	895.51	180.17	2.6298e-06	2.5437e-06	227.05	64.459	50.684	15.325	2.5672e-06	21.091	232.500	213.207	288.164	161.392	271.478	329.263	161.462	169.167	336.613	302.259	168.369	175.191	175.724	182.448	349.469	181.512	-8191	255	
12594.593	1	1	0	0	0.094861	0.2338	0.082049	0.23276	0.083297	0.2758	0.14597	0.21332	0.21945	0.13355	0.21916	0.16549	0.16312	0.3117	0.15797	0.35179	-2.4188	-2.3958	-2.3563	-2.8646	-2.2375	-2.4604	-3.0938	-2.0875	-2.5792	-2.7042	-2.4104	-3.0104	-2.4667	-2.5417	-2.7438	-2.3875	410.860	237.634	362.696	489.029	380.982	360.803	394.057	357.701	231.879	368.111	462.451	275.593	220.923	242.283	490.203	175.019	0.00020486	0.00026533	5.5587e-05	982.52	1.6066e-06	1.6284e-06	884.56	173.86	2.0505e-06	1.4063e-06	216.38	61.05	48.101	14.416	1.0921e-06	19.811	0.00023382	0.00025081	6.7298e-05	862.52	2.7378e-06	2.6845e-06	895.53	180.36	2.6808e-06	2.5953e-06	226.42	64.453	50.759	15.328	2.638e-06	21.142	228.344	253.607	231.655	161.396	291.217	248.668	161.504	169.108	286.094	341.590	168.517	175.337	175.636	181.918	275.971	182.219	-8191	255	
12594.714	1	1	0	0	0.051134	0.077764	0.23201	0.23714	0.19505	0.058822	0.23305	0.14353	0.14078	0.24945	0.22959	0.046562	0.27765	0.075354	0.11691	0.24443	-2.3646	-2.6354	-2.2	-2.9104	-2.4042	-2.3271	-3.1271	-2.3167	-2.7354	-2.725	-2.1479	-2.7542	-2.4542	-2.5938	-2.7979	-2.2521	290.828	217.427	260.302	152.693	467.851	506.837	151.998	322.049	348.036	233.097	151.917	431.158	494.541	263.456	414.318	429.331	0.00020446	0.00024833	7.8966e-05	988.98	2.0598e-06	3.1559e-06	884.23	173.22	2.063e-06	3.3037e-06	216.79	61.361	47.96	14.275	2.1282e-06	19.729	0.00022966	0.00024159	6.9634e-05	863.8	2.7186e-06	2.7016e-06	896.39	180.05	2.6605e-06	2.6559e-06	225.93	64.447	50.65	15.251	2.5746e-06	21.073	232.859	224.074	256.978	161.146	303.484	261.416	161.546	169.100	289.358	269.759	168.009	175.507	175.438	182.626	365.691	181.852	-8191	255	
12594.810	1	1	0	0	0.15299	0.17276	0.14965	0.14313	0.098119	0.17192	0.12932	0.47353	0.25571	0.12154	0.087183	0.25316	0.15231	0.14965	0.20326	0.098026	-2.2812	-2.6708	-2.3208	-2.8604	-2.4125	-2.3375	-3.0646	-2.4292	-2.4729	-2.8958	-2.2625	-2.7146	-2.7771	-2.2833	-2.9771	-2.4854	389.048	497.210	183.661	439.374	369.799	336.577	313.112	496.099	268.215	160.825	373.186	497.320	491.181	369.626	206.194	384.167	0.00021167	0.00035583	8.7792e-05	989.11	3.1984e-06	3.9088e-06	888.33	172.31	2.7526e-06	2.4235e-06	217.36	61.321	48.229	14.344	3.1469e-06	20.033	0.00024012	0.00023913	6.5639e-05	862.96	2.7272e-06	2.5804e-06	896.45	179.78	2.7111e-06	2.5992e-06	226.93	64.504	50.683	15.263	2.6205e-06	21.19	234.746	200.700	255.430	160.986	280.992	292.040	161.432	168.994	283.731	292.463	168.678	174.999	175.527	182.406	298.332	181.558	-8191	255	
12594.906	1	1	0	0	0.11367	0.20732	0.30982	0.026588	0.22683	0.20447	0.22986	0.36811	0.18815	0.09475	0.16812	0.34483	0.21404	0.2085	0.24488	0.15559	-2.0312	-2.7646	-2.3	-2.9167	-2.5333	-2.2167	-3.1229	-2.6021	-2.4604	-2.8271	-2.0479	-2.7458	-2.75	-2.2542	-2.9271	-2.4729	211.900	415.773	406.882	437.667	434.645	410.387	421.788	447.243	455.184	305.663	435.474	336.167	471.817	467.072	464.688	406.782	0.00019551	0.00012899	3.8881e-05	985.23	1.8037e-06	2.508e-06	881	173.21	2.9976e-06	2.8508e-06	218.58	61.464	48.194	14.398	2.2506e-06	19.753	0.00023412	0.00023535	6.7024e-05	862.88	2.681e-06	2.7145e-06	895.26	180.53	2.6428e-06	2.5415e-06	227.4	64.645	50.703	15.321	2.6024e-06	21.139	235.028	219.757	258.518	161.081	309.201	300.002	161.330	168.646	312.397	313.900	168.500	175.142	175.673	182.304	305.386	181.854	-8191	255	
12595.025	1	1	0	0	0.004764	0.17356	0.19827	0.16086	0.24103	0.08461	0.19468	0.16039	0.0957	0.089325	0.11519	0.24153	0.098328	0.20856	0.031289	0.29007	-2.1396	-2.7646	-2.2042	-2.7687	-2.7479	-2.2708	-2.85	-2.6521	-2.4667	-2.7083	-2.2167	-2.6792	-2.8312	-2.3854	-2.9208	-2.475	504.490	212.490	471.387	183.837	314.647	341.566	390.886	196.724	447.334	179.457	157.276	380.203	182.943	469.605	405.223	183.617	0.00019973	0.00018416	8.4798e-05	989.82	2.6053e-06	1.9828e-06	886.71	173.02	2.5977e-06	2.4565e-06	216.84	61.455	48.186	14.393	2.9329e-06	19.922	0.00023888	0.0002345	6.5357e-05	864.1	2.7501e-06	2.6474e-06	896.35	180.43	2.7512e-06	2.6783e-06	226.47	64.553	50.649	15.264	2.5493e-06	21.157	230.357	256.523	249.413	161.001	313.362	313.428	161.260	169.156	301.082	285.332	168.431	174.785	175.751	182.307	306.622	181.869	-8191	255	
12595.097	1	1	0	0	0.091289	0.17192	0.27714	0.12988	0.19228	0.16799	0.050484	0.27752	0.14989	0.17298	0.19834	0.15646	0.21584	0.072003	0.016254	0.23073	-1.9458	-2.7375	-2.2208	-2.7583	-2.8021	-2.1854	-2.9313	-2.5646	-2.2458	-2.9125	-2.3042	-2.5333	-2.8542	-2.3083	-2.7812	-2.6667	387.787	207.385	311.697	479.708	434.918	473.042	497.128	447.769	319.974	311.573	186.386	153.958	427.512	193.446	312.230	373.439	0.00017863	0.00023533	6.2327e-05	986.67	1.9857e-06	1.6742e-06	877.96	172.6	1.8377e-06	1.5029e-06	217.16	61.164	48.079	14.405	2.7048e-06	19.863	0.0002294	0.00023412	6.6398e-05	863.24	2.6098e-06	2.6362e-06	893.54	180.2	2.6226e-06	2.5953e-06	226.93	64.5	50.686	15.337	2.5207e-06	21.137	238.950	221.868	226.204	161.076	316.775	334.259	161.484	169.266	305.275	253.699	168.348	175.227	175.536	182.171	305.937	182.448	-8191	255	
12595.193	1	1	0	0	0.27302	0.07258	0.13841	0.13911	0.13707	0.27171	0.046967	0.32776	0.10809	0.13887	0.22358	0.22581	0.058777	0.055566	0.2401	0.22749	-1.7833	-3.0146	-2.3937	-2.4896	-2.6708	-2.1833	-2.8271	-2.8104	-2.0625	-2.8625	-2.4396	-2.3208	-2.9021	-2.0708	-2.7	-2.6625	233.149	438.675	503.244	230.280	324.839	176.959	485.421	424.077	155.292	453.210	500.671	235.292	455.624	311.962	451.614	474.560	0.00019418	0.00026923	4.85e-05	986.83	2.5809e-06	2.1108e-06	883.63	172.97	2.2739e-06	2.2514e-06	217.95	61.326	48.237	14.533	2.4751e-06	20.025	0.00023849	0.00024128	6.6153e-05	863.65	2.7327e-06	2.5862e-06	896.81	180.45	2.751e-06	2.6087e-06	227.54	64.627	50.835	15.378	2.5831e-06	21.203	234.070	209.867	266.985	161.134	292.149	279.229	161.293	169.057	281.621	294.155	168.742	175.122	175.486	182.371	319.818	181.866	-8191	255	
12595.314	1	1	0	0	0.11701	0.14074	0.16307	0.027977	0.084898	0.064166	0.1706	0.19875	0.1956	0.22925	0.043434	0.29216	0.10324	0.14591	0.2637	0.022959	-1.6771	-2.8458	-2.2667	-2.5417	-2.8083	-2.0521	-2.7479	-2.7479	-2.0438	-2.7687	-2.7188	-2.3312	-2.8667	-2.2562	-2.5875	-2.9	155.638	161.669	459.198	210.321	328.947	367.131	329.086	443.527	229.370	317.691	403.123	168.468	374.444	503.167	444.143	182.915	0.00018203	6.284e-05	6.2952e-05	992.47	2.1723e-06	1.186e-06	882.52	172.83	2.7452e-06	3.9239e-06	217.58	61.292	48.63	14.488	1.2655e-06	19.949	0.00023037	0.00023164	6.6643e-05	864.7	2.6462e-06	2.6996e-06	895.82	180.03	2.6601e-06	2.654e-06	227.22	64.637	50.887	15.322	2.6542e-06	21.247	234.985	167.679	248.670	161.144	299.578	307.939	161.221	169.235	292.168	333.131	168.532	174.690	175.718	182.310	262.894	181.826	-8191	255	
12595.410	1	1	0	0	0.15959	0.26598	0.15161	0.20976	0.12629	0.18736	0.29342	0.18481	0.25353	0.24859	0.29842	0.1315	0.15602	0.11948	0.12843	0.18803	-1.6979	-2.8229	-2.7188	-2.2646	-2.9833	-2.3125	-2.6437	-2.9521	-2.1813	-2.7417	-2.65	-2.2917	-2.8083	-2.1167	-2.3396	-2.8167	257.401	319.292	224.957	462.401	344.334	254.549	177.222	473.795	283.927	215.619	239.880	400.801	494.323	233.725	505.820	169.733	0.0001976	0.00016644	3.8072e-05	994.19	2.6145e-06	2.047e-06	887.13	173.05	2.7234e-06	3.731e-06	218.28	61.58	48.162	14.432	7.4215e-07	19.947	0.00023783	0.00024722	6.6252e-05	865.43	2.6747e-06	2.7084e-06	898.56	180.7	2.6438e-06	2.642e-06	227.58	64.634	50.752	15.391	2.5556e-06	21.198	233.172	233.527	234.744	160.985	296.025	352.010	161.206	169.192	295.131	288.480	168.535	174.890	175.429	182.136	243.869	181.952	-8191	255	
12595.506	1	1	0	0	0.25623	0.23718	0.17982	0.29282	0.29527	0.16615	0.029045	0.27988	0.18711	0.10243	0.31115	0.11414	0.086723	0.24575	0.15432	0.24871	-1.7396	-2.6021	-2.5292	-2.2125	-2.7917	-2.3167	-2.5021	-2.8979	-2.3417	-2.6792	-2.7938	-2.1667	-2.8083	-2.4188	-2.4208	-2.6917	404.867	256.159	443.723	174.055	191.917	389.354	225.728	466.036	504.907	452.346	359.985	169.008	300.252	361.564	389.888	432.288	0.0001982	0.00027415	7.1552e-05	992.6	2.9772e-06	3.3662e-06	885.8	173.64	2.5049e-06	3.9671e-06	217.56	61.686	48.622	14.39	2.1616e-06	19.825	0.00023318	0.00023675	6.5357e-05	865.98	2.6689e-06	2.5461e-06	897.06	180.72	2.762e-06	2.7411e-06	226.69	64.726	50.97	15.375	2.6526e-06	21.193	232.415	231.004	262.920	161.120	297.503	278.252	161.227	169.297	324.303	308.791	168.614	175.142	175.722	182.351	287.541	181.920	-8191	255	
12595.602	1	1	0	0	0.13426	0.14878	0.13334	0.47568	0.18115	0.29239	0.33269	0.25086	0.30783	0.20793	0.096786	0.24966	0.10656	0.056817	0.067433	0.25318	-1.7687	-2.4104	-2.6188	-2.2958	-2.7646	-2.5479	-2.5104	-3.0333	-2.3104	-2.6104	-2.7979	-2.2938	-2.8937	-2.5479	-2.1375	-2.9271	288.629	376.636	388.449	457.835	420.290	196.183	402.259	151.782	226.705	297.265	455.797	154.530	295.733	275.883	340.419	393.524	0.00020446	0.00030117	6.9679e-05	989.43	2.4839e-06	2.3996e-06	888.58	173.78	1.9416e-06	2.1514e-06	218.81	61.375	48.33	14.484	2.6806e-06	19.812	0.00024407	0.00024098	6.4867e-05	865.39	2.6397e-06	2.5828e-06	898.71	180.74	2.6828e-06	2.613e-06	227.67	64.724	50.93	15.374	2.752e-06	21.207	235.635	256.666	278.823	160.994	306.335	252.551	161.365	169.057	297.083	269.637	168.782	175.020	175.705	182.656	276.919	181.982	-8191	255	
12595.698	1	1	0	0	0.18452	0.13722	0.095866	0.11826	0.06648	0.16031	0.1304	0.18787	0.047719	0.14161	0.09969	0.071594	0.26162	0.19701	0.23555	0.14431	-1.9937	-2.3729	-2.7438	-2.4146	-2.6917	-2.575	-2.4583	-2.9333	-2.4188	-2.4938	-2.9625	-2.125	-2.5417	-2.7125	-2.1458	-2.7562	272.618	195.233	227.990	189.261	427.339	504.797	408.665	222.484	418.689	417.036	477.129	254.885	398.851	472.573	382.061	163.715	0.00018851	0.0003124	6.0731e-05	990.2	2.2757e-06	3.4514e-06	887.84	174.35	1.6322e-06	1.3005e-06	217.87	61.39	48.003	14.528	1.3594e-06	19.875	0.00023699	0.00023973	6.5635e-05	866	2.6277e-06	2.6132e-06	899.23	180.99	2.6162e-06	2.6545e-06	227.73	64.749	50.691	15.389	2.6649e-06	21.238	235.447	225.788	301.629	161.241	287.261	298.450	161.457	168.734	319.553	375.170	168.772	174.970	175.635	182.197	310.285	182.013	-8191	255	
12595.794	1	1	0	0	0.12354	0.074408	0.12395	0.33224	0.11382	0.22771	0.19713	0.15268	0.076339	0.3156	0.189	0.04928	0.27428	0.19826	0.015758	0.26888	-2.1979	-2.2292	-2.6583	-2.2042	-2.575	-2.6833	-2.3312	-2.75	-2.3937	-2.3771	-2.9729	-2.1562	-2.4313	-2.7875	-2.1833	-2.8875	235.752	370.267	492.342	491.958	286.384	255.058	439.439	371.112	271.407	458.407	161.097	492.361	450.229	490.761	167.316	203.836	0.00018164	0.0001602	2.3464e-05	986.19	2.7927e-06	2.7066e-06	885.08	173.47	2.2552e-06	3.1818e-06	217.4	61.415	48.578	14.42	2.5091e-06	19.889	0.00023397	0.00024218	6.6897e-05	864.56	2.7564e-06	2.5737e-06	898.62	180.83	2.6561e-06	2.6265e-06	227.49	64.775	50.971	15.387	2.5578e-06	21.252	236.148	199.184	288.151	161.174	292.126	263.717	161.253	169.119	280.666	348.146	168.338	174.910	175.726	182.143	308.601	181.969	-8191	255	
12595.891	1	1	0	0	0.24607	0.31678	0.14217	0.13666	0.15205	0.18501	0.22172	0.082738	0.081277	0.17742	0.32531	0.16703	0.29596	0.16752	0.1266	0.13024	-2.1188	-2.0875	-2.8896	-2.2208	-2.4792	-2.8333	-2.1562	-2.925	-2.5542	-2.1979	-2.8812	-2.4146	-2.4229	-2.8104	-2.1417	-2.6604	477.913	151.612	252.422	465.920	264.355	164.422	475.364	426.827	448.380	385.438	401.869	465.012	409.847	185.284	337.073	337.344	0.00018683	0.0002247	6.2843e-05	988.51	1.9676e-06	4.0427e-06	884.46	173.37	2.4719e-06	2.2131e-06	217.77	61.234	48.305	14.52	1.7854e-06	19.815	0.0002274	0.00023909	6.7288e-05	865.59	2.6412e-06	2.452e-06	897.7	180.92	2.6282e-06	2.6867e-06	226.97	64.75	50.939	15.447	2.6335e-06	21.238	236.672	204.867	249.747	161.143	281.354	276.433	161.453	168.944	318.970	352.793	168.500	175.520	175.711	182.637	281.271	181.873	-8191	255	
12595.987	1	1	0	0	0.10745	0.11137	0.11788	0.19149	0.12222	0.090694	0.32706	0.13156	0.17156	0.35032	0.050855	0.36629	0.1948	0.093453	0.34515	0.16233	-2.1646	-2.0917	-2.775	-2.4208	-2.3021	-2.8458	-2.5042	-2.7812	-2.7229	-2.1333	-2.9979	-2.575	-2.4979	-2.8063	-2.0687	-2.5187	446.524	433.751	198.378	392.920	412.816	356.020	152.974	172.388	374.427	483.202	474.188	174.556	300.222	444.735	366.981	414.503	0.00018535	0.0001597	4.6248e-05	991.8	2.7798e-06	1.7746e-06	887.62	174.02	2.323e-06	1.3151e-06	217.55	61.898	48.185	14.49	2.4078e-06	19.764	0.00022622	0.00023059	6.6775e-05	864.96	2.6692e-06	2.4798e-06	898.37	180.99	2.6229e-06	2.5659e-06	227.6	64.856	50.879	15.402	2.58e-06	21.164	230.515	224.868	249.381	160.928	313.046	339.916	161.348	169.181	302.253	299.455	168.452	175.247	175.703	182.070	292.086	181.784	-8191	255	
12596.106	1	1	0	0	0.23029	0.15529	0.21916	0.16122	0.14794	0.081689	0.41935	0.17548	0.11616	0.13379	0.028756	0.067949	0.066021	0.019357	0.14905	0.14966	-2.2208	-1.9146	-2.5979	-2.6021	-2.3292	-2.7542	-2.4	-2.55	-2.6667	-2.1292	-2.7687	-2.7167	-2.4104	-3.0375	-2.1354	-2.5542	276.230	418.279	164.094	492.194	337.097	407.718	469.932	403.409	454.861	495.185	357.847	308.328	216.098	280.459	494.408	204.651	0.00019121	0.00031695	6.7969e-05	987.55	1.6415e-06	2.5765e-06	885.53	172.24	2.0806e-06	2.7362e-06	218.83	61.311	48.741	14.382	2.1338e-06	19.897	0.00022785	0.00023661	6.5258e-05	864.6	2.6318e-06	2.4836e-06	896.48	180.38	2.6024e-06	2.6747e-06	227.82	64.786	50.805	15.384	2.539e-06	21.22	231.280	256.328	250.353	161.307	293.567	285.255	161.308	169.438	280.209	266.716	168.288	175.228	175.680	182.834	303.446	181.941	-8191	255	
12596.202	1	1	0	0	0.082999	0.22819	0.308	0.36424	0.23387	0.11663	0.32506	0.19598	0.17396	0.089529	0.28839	0.1038	0.17899	0.1452	0.12823	0.26576	-2.225	-2.1562	-2.6792	-2.5708	-2.2667	-2.9479	-2.4604	-2.5375	-2.9021	-2.2938	-2.75	-2.7062	-2.2042	-2.9313	-2.3917	-2.5938	426.673	404.224	227.571	153.342	272.474	240.814	431.800	210.115	436.411	214.995	245.471	468.026	452.928	151.812	283.025	331.119	0.00020277	0.00024234	5.5563e-05	989	2.1593e-06	1.2382e-06	883.99	173.34	1.9605e-06	3.322e-06	217.14	61.181	48.247	14.397	1.5277e-06	19.78	0.00022813	0.00023624	6.6092e-05	863.46	2.7165e-06	2.5647e-06	894.83	180.62	2.6027e-06	2.5772e-06	226.74	64.602	50.794	15.349	2.5726e-06	21.131	231.501	251.215	231.592	161.184	302.513	261.885	161.385	169.358	273.686	285.199	168.880	174.997	175.871	182.071	263.735	181.848	-8191	255	
12596.298	1	1	0	0	0.19964	0.14859	0.04423	0.23184	0.19849	0.17748	0.029493	0.17	0.1586	0.10826	0.19455	0.082735	0.087993	0.10187	0.19877	0.16822	-2.5625	-2.0667	-2.6833	-2.9646	-2.2417	-2.825	-2.5833	-2.2771	-2.9833	-2.2917	-2.5833	-2.8458	-2.3271	-2.7125	-2.6312	-2.4917	232.077	404.420	274.647	208.519	424.561	230.502	275.199	418.920	163.566	335.092	414.559	393.018	426.647	229.802	409.480	498.950	0.00022069	0.00039783	7.9353e-05	985.13	2.8739e-06	2.174e-06	887.32	173.09	1.7955e-06	2.5039e-06	217.12	61.52	48.121	14.463	2.4623e-06	19.787	0.00022866	0.00023796	6.4796e-05	863.07	2.6952e-06	2.5274e-06	896.95	180.25	2.5562e-06	2.5444e-06	227.06	64.603	50.673	15.352	2.5968e-06	21.167	234.512	250.723	223.192	161.677	300.380	280.415	161.307	169.115	287.849	270.902	168.702	175.377	175.833	182.614	309.321	181.655	-8191	255	
12596.394	1	1	0	0	0.11886	0.028541	0.094784	0.3911	0.15909	0.094596	0.32519	0.17801	0.10161	0.2866	0.13304	0.11909	0.21785	0.34796	0.25665	0.058104	-2.6063	-2.3146	-2.4938	-3.1	-2.2458	-2.7562	-2.6917	-2.2792	-2.7292	-2.4771	-2.5354	-2.7667	-2.1958	-2.8167	-2.4479	-2.1396	379.272	391.360	359.586	507.071	200.902	369.698	473.013	488.592	404.689	274.239	501.013	471.309	178.769	155.947	374.795	434.977	0.00020046	0.00036068	6.9619e-05	987.09	2.1199e-06	3.0569e-06	883.79	172.57	1.6075e-06	3.506e-06	216.95	61.116	48.233	14.482	1.0027e-06	19.833	0.00023233	0.00022722	6.531e-05	863.41	2.6309e-06	2.5597e-06	896.66	180.25	2.5808e-06	2.5813e-06	227.12	64.553	50.748	15.397	2.4956e-06	21.143	232.887	215.134	275.831	161.398	307.871	275.872	161.627	169.065	285.837	294.247	168.547	175.455	175.726	182.310	302.655	181.823	-8191	255	
12596.490	1	1	0	0	0.19038	0.16393	0.12874	0.12565	0.17258	0.21666	0.096644	0.31954	0.15447	0.30962	0.14163	0.15275	0.2991	0.2525	0.067861	0.20872	-2.5375	-2.3854	-2.5271	-2.9125	-2.3396	-2.7083	-2.8542	-2.2604	-2.8833	-2.4542	-2.5625	-2.7583	-2.2896	-2.7417	-2.7875	-2.1625	174.773	452.888	421.316	462.993	190.102	346.516	274.555	158.176	427.971	453.113	466.907	437.693	170.314	476.117	444.353	258.139	0.00018515	0.00019272	4.4251e-05	985.4	1.5305e-06	1.4073e-06	885.5	172.71	2.5564e-06	1.0946e-06	217.48	61.658	48.272	14.432	2.0105e-06	19.641	0.00022616	0.00023243	6.5729e-05	862.9	2.6822e-06	2.4871e-06	895.44	180.1	2.6584e-06	2.5572e-06	226.78	64.829	50.794	15.369	2.5419e-06	21.092	236.051	263.412	259.639	161.106	288.646	268.243	161.663	169.155	303.109	353.342	168.393	175.175	175.697	182.370	319.838	181.611	-8191	255	
12596.586	1	1	0	0	0.21748	0.093989	0.025827	0.42097	0.049614	0.057756	0.19152	0.1816	0.041943	0.21689	0.10068	0.17584	0.26578	0.23026	0.25649	0.089165	-2.5604	-2.4896	-2.1312	-3.0271	-2.2583	-2.7	-2.8146	-2.2604	-2.8688	-2.4021	-2.3896	-2.9229	-2.2812	-2.4875	-2.8771	-2.0438	327.093	310.066	194.668	188.949	496.007	393.355	396.588	164.125	209.047	288.726	230.144	385.904	212.019	190.423	414.323	440.457	0.00021531	0.00030139	7.1159e-05	989.33	2.852e-06	3.0865e-06	888.48	172.18	1.8934e-06	1.6633e-06	217.42	61.156	48.359	14.387	2.1759e-06	19.914	0.00023528	0.00023762	6.6304e-05	864.31	2.7353e-06	2.5365e-06	898.39	180.11	2.6458e-06	2.4581e-06	227.33	64.622	50.991	15.384	2.5449e-06	21.193	233.452	210.708	260.174	161.408	316.808	325.801	161.765	169.036	315.398	358.557	168.437	174.665	175.997	182.457	305.794	181.974	-8191	255	
12596.707	1	1	0	0	0.089333	0.096327	0.20074	0.17966	0.11277	0.11793	0.41622	0.42242	0.071025	0.13685	0.085497	0.05331	0.26064	0.37338	0.0948	0.053615	-2.4021	-2.3688	-2.1542	-3.1	-2.5875	-2.4	-3.0042	-2.35	-2.6021	-2.6979	-2.4833	-2.8167	-2.3187	-2.275	-2.8979	-2.2146	334.037	463.962	380.621	447.201	377.171	199.234	416.585	446.291	173.933	348.536	396.795	455.921	479.847	476.195	155.308	162.493	0.00018658	0.0001033	4.7232e-05	987.28	1.6715e-06	2.6574e-06	884.51	172.84	2.376e-06	2.9783e-06	216.81	61.572	47.881	14.304	5.3126e-07	19.931	0.0002218	0.00023697	6.6949e-05	864.55	2.6513e-06	2.4541e-06	895.42	180.23	2.5718e-06	2.5387e-06	226.85	64.734	50.702	15.32	2.6116e-06	21.176	230.432	228.521	231.059	161.367	311.629	304.919	161.516	169.397	299.962	311.493	168.334	175.493	175.490	183.002	247.518	181.974	-8191	255	
12596.803	1	1	0	0	0.21343	0.20115	0.21641	0.22909	0.10666	0.021628	0.10151	0.177	0.25941	0.067455	0.2528	0.53829	0.19913	0.10436	0.29772	0.27772	-2.3917	-2.6208	-2.175	-3.0458	-2.4708	-2.4333	-2.9792	-2.3042	-2.6188	-2.7313	-2.1021	-2.7854	-2.5312	-2.1625	-2.7833	-2.2167	163.236	477.578	418.598	417.257	317.438	195.533	336.887	162.579	364.708	446.772	252.061	382.649	162.781	465.323	432.141	423.353	0.000193	0.00023344	5.5914e-05	986.09	1.3291e-06	1.4918e-06	885.39	172.79	1.8838e-06	1.6062e-06	217.68	61.324	48.464	14.293	2.0263e-06	19.964	0.00021706	0.00022895	6.6219e-05	862.36	2.6734e-06	2.547e-06	896.47	180.05	2.5877e-06	2.4902e-06	227.25	64.746	50.807	15.309	2.5623e-06	21.182	236.362	230.257	276.268	161.257	312.426	311.340	161.441	169.226	304.004	256.138	168.340	175.653	175.964	182.356	286.939	181.425	-8191	255	
12596.897	1	1	0	0	0.090422	0.34341	0.25913	0.16447	0.17572	0.3017	0.32866	0.25528	0.080078	0.36186	0.039295	0.12287	0.14612	0.094349	0.08953	0.089678	-2.2188	-2.8125	-2.225	-2.7292	-2.55	-2.3979	-3.1	-2.5792	-2.45	-2.7625	-2.2396	-2.6854	-2.4625	-2.2729	-2.9688	-2.4333	501.659	393.025	424.795	297.656	313.300	439.656	186.094	428.015	170.986	230.537	419.422	450.135	450.254	170.574	315.523	453.316	0.00020024	0.00017344	6.2249e-05	982.92	2.6267e-06	2.4509e-06	887.8	172.92	2.5955e-06	2.4864e-06	216.07	61.175	48.285	14.422	2.052e-06	19.849	0.00022506	0.00023285	6.71e-05	862.47	2.5554e-06	2.561e-06	896.51	180.2	2.6259e-06	2.4816e-06	226.48	64.446	50.884	15.324	2.5054e-06	21.14	229.145	281.543	252.828	161.178	289.653	311.225	161.480	169.350	295.968	297.997	168.404	175.092	175.760	182.493	284.878	182.048	-8191	255	
12596.995	1	1	0	0	0.16598	0.21886	0.17297	0.19646	0.11362	0.24581	0.10133	0.10188	0.21144	0.18224	0.35396	0.098873	0.34058	0.28514	0.032411	0.17836	-2.0354	-2.7979	-2.0563	-2.8083	-2.5625	-2.2188	-2.9583	-2.4125	-2.1229	-2.8688	-2.4271	-2.6813	-2.7208	-2.1979	-2.8229	-2.4146	314.851	474.277	385.112	481.727	268.675	183.157	282.673	159.299	408.939	271.182	442.952	468.997	433.690	444.241	395.849	433.170	0.00019818	0.00019586	8.0134e-05	983.66	2.0306e-06	1.231e-06	879.17	172.82	2.1289e-06	3.3563e-07	216.68	61.493	48.23	14.373	3.4979e-06	19.759	0.00023159	0.00023356	6.5851e-05	863.97	2.6868e-06	2.4862e-06	896.36	180.25	2.6348e-06	2.5695e-06	226.49	64.497	50.784	15.346	2.542e-06	21.129	229.934	236.199	259.916	161.230	302.394	299.812	161.486	169.590	302.285	311.477	168.717	175.269	175.441	182.462	281.885	182.332	-8191	255	
12597.090	1	1	0	0	0.13121	0.090758	0.016325	0.049361	0.24575	0.22568	0.15931	0.2549	0.20845	0.091161	0.16106	0.27794	0.088227	0.22912	0.037861	0.25451	-1.9104	-2.6479	-2.1979	-2.7271	-2.5062	-2.2562	-3	-2.6833	-2.3479	-2.9479	-2.4208	-2.7	-2.6604	-2.1354	-2.5146	-2.5667	151.605	266.078	457.741	468.960	355.871	467.837	408.784	494.170	476.384	391.508	420.901	228.151	237.589	486.840	490.010	262.083	0.00019224	0.00035056	7.0506e-05	984.87	2.2496e-06	3.937e-06	879.73	172.92	1.7786e-06	2.9599e-06	216.85	61.2	48.502	14.43	2.5342e-06	19.72	0.00023482	0.0002318	6.7331e-05	863.46	2.6696e-06	2.5843e-06	893.79	180.24	2.5999e-06	2.5766e-06	226.88	64.615	50.879	15.345	2.6042e-06	21.093	229.651	257.411	244.174	161.038	307.371	299.146	161.472	169.322	274.014	294.772	168.758	175.510	176.113	182.498	275.173	182.258	-8191	255	
12597.186	1	1	0	0	0.15571	0.1106	0.31704	0.38998	0.20126	0.17599	0.065294	0.11787	0.20585	0.21416	0.22849	0.28005	0.12802	0.16809	0.17053	0.31427	-1.7687	-2.6729	-2.225	-2.4979	-2.7562	-2.15	-2.8563	-2.6896	-2.2562	-2.8271	-2.2021	-2.3979	-2.8583	-2.2146	-2.6542	-2.5125	469.423	449.320	186.999	480.604	429.755	441.493	379.209	459.020	178.810	327.308	153.407	494.132	152.118	463.749	205.506	277.141	0.00016353	0.00025125	5.459e-05	989.6	2.7218e-06	3.2785e-06	886.25	172.91	2.4573e-06	2.257e-06	218.07	61.004	47.942	14.445	1.3953e-06	19.805	0.00022982	0.00023238	6.6483e-05	863.22	2.6993e-06	2.6177e-06	896.77	180.25	2.6826e-06	2.6205e-06	227.14	64.629	50.708	15.347	2.6058e-06	21.149	232.705	260.625	235.182	161.221	304.539	307.769	161.777	169.237	302.855	276.964	168.601	175.173	176.314	182.675	323.423	182.174	-8191	255	
12597.282	1	1	0	0	0.10308	0.13231	0.20004	0.24822	0.12497	0.1006	0.16433	0.16862	0.13423	0.022633	0.27565	0.36842	0.0847	0.28092	0.18507	0.13537	-1.8833	-2.9479	-2.3187	-2.4354	-2.8438	-2.1354	-2.4729	-2.725	-2.0917	-2.925	-2.6979	-2.2	-2.7313	-2.2687	-2.5312	-2.7188	227.515	226.228	339.455	181.961	413.871	354.759	369.354	372.446	210.151	165.921	395.110	423.316	498.959	504.435	326.233	398.325	0.00018917	0.00028723	4.4322e-05	985.14	2.8295e-06	1.6015e-06	882.3	173.04	3.2596e-06	1.8521e-06	217.34	61.367	48.02	14.318	1.1398e-06	19.706	0.00023821	0.00023963	6.8268e-05	862.52	2.6574e-06	2.6612e-06	896.95	180.45	2.7914e-06	2.6611e-06	226.81	64.677	50.796	15.306	2.6579e-06	21.151	232.580	230.266	241.829	160.973	311.140	274.899	161.568	169.358	275.235	316.139	168.386	175.550	175.688	182.632	325.070	181.656	-8191	255	
12597.403	1	1	0	0	0.1044	0.25066	0.21426	0.19308	0.09689	0.21637	0.085305	0.23743	0.20706	0.2947	0.11168	0.16858	0.20812	0.063282	0.022563	0.36469	-1.7313	-2.5708	-2.4875	-2.4146	-2.7021	-2.2979	-2.5854	-2.7583	-2.0438	-2.8438	-2.7042	-2.25	-2.8792	-2.3958	-2.3521	-2.9042	184.869	367.020	288.156	491.830	450.276	380.389	457.135	460.146	166.655	239.071	335.225	226.213	484.914	346.622	339.472	405.641	0.00018894	0.00023983	7.6848e-05	987.71	2.758e-06	2.483e-06	883.96	171.98	2.9069e-06	2.8644e-06	217.3	61.091	47.907	14.34	2.5652e-06	19.825	0.00024264	0.00024702	6.7533e-05	863.84	2.7688e-06	2.7128e-06	897.66	180.27	2.7871e-06	2.7777e-06	226.74	64.558	50.698	15.301	2.7057e-06	21.191	233.803	268.348	296.636	161.538	275.401	260.913	161.350	169.292	284.161	278.835	168.622	175.602	175.683	182.772	306.679	182.205	-8191	255	
12597.499	1	1	0	0	0.13583	0.24769	0.098833	0.1256	0.063383	0.14634	0.20688	0.20837	0.2432	0.19783	0.16737	0.18365	0.13275	0.10064	0.28499	0.043891	-1.8188	-2.6021	-2.45	-2.2625	-2.8042	-2.2646	-2.6104	-2.9354	-2.2833	-2.775	-2.7167	-2.2771	-2.8479	-2.4042	-2.3	-2.8333	306.304	210.614	449.076	482.007	375.778	236.869	455.400	481.533	260.218	468.235	158.035	276.520	335.444	167.166	368.908	203.945	0.00018097	0.00037604	5.4243e-05	986.86	1.9079e-06	1.7799e-06	885.47	172.31	2.6027e-06	7.9128e-07	218.66	60.987	48.157	14.355	1.514e-06	19.74	0.00023686	0.00023978	6.6911e-05	864.02	2.7688e-06	2.7356e-06	897.38	180.14	2.8025e-06	2.6416e-06	227.21	64.526	50.567	15.321	2.7001e-06	21.11	230.016	250.947	247.374	161.138	317.495	271.544	161.495	169.351	273.610	294.867	168.736	175.488	175.595	182.465	317.728	181.943	-8191	255	
12597.571	1	1	0	0	0.13265	0.16732	0.1208	0.35243	0.11883	0.1163	0.14372	0.22482	0.044115	0.34186	0.17374	0.15857	0.19873	0.13568	0.30205	0.070107	-1.7979	-2.3979	-2.5687	-2.3438	-2.7938	-2.4958	-2.4354	-2.9604	-2.2542	-2.5896	-2.8792	-2.0979	-2.8604	-2.4854	-2.3729	-2.8896	421.491	337.546	207.339	151.543	259.208	187.838	372.663	412.263	370.764	499.406	476.364	406.891	437.154	462.808	461.148	348.838	0.0001912	0.00022418	4.5248e-05	984.98	3.3651e-06	4.2876e-06	882.46	172.78	1.9613e-06	2.1475e-06	218.13	60.776	48.134	14.276	2.0939e-06	19.741	0.00024214	0.00024061	6.792e-05	863.12	2.6903e-06	2.5811e-06	896.1	180.23	2.7267e-06	2.6289e-06	227.14	64.326	50.634	15.272	2.6826e-06	21.106	238.014	223.713	281.118	161.185	286.601	299.827	161.375	169.358	276.039	250.141	168.883	175.270	176.047	182.699	295.223	182.238	-8191	255	
12597.667	1	1	0	0	0.079997	0.053034	0.13691	0.17989	0.13956	0.17042	0.27499	0.2408	0.064928	0.087183	0.11985	0.10166	0.23229	0.25158	0.10949	0.054567	-1.9583	-2.3917	-2.4729	-2.3667	-2.7687	-2.65	-2.3542	-2.8958	-2.1875	-2.4	-2.7938	-2.2958	-2.7	-2.6208	-2.1708	-2.7917	201.045	421.140	231.582	441.385	468.472	386.722	177.258	472.143	203.148	298.854	445.397	230.134	482.193	500.707	396.311	282.300	0.0001848	0.00021117	6.9818e-05	986.31	1.981e-06	3.8905e-06	882.43	172.49	2.4599e-06	3.7359e-06	216	60.931	48.415	14.357	2.7424e-06	19.765	0.00024277	0.00025296	6.6492e-05	863.71	2.7867e-06	2.5794e-06	896.76	180.51	2.7666e-06	2.7239e-06	226.4	64.434	50.811	15.298	2.6627e-06	21.099	235.106	213.102	239.708	161.329	302.146	276.372	161.571	169.462	282.483	309.105	168.856	175.269	175.958	182.854	310.916	182.053	-8191	255	
12597.787	1	1	0	0	0.041345	0.079245	0.15343	0.18809	0.10069	0.28061	0.32075	0.20221	0.29504	0.23718	0.14855	0.20454	0.12816	0.28156	0.29527	0.15322	-2.0229	-2.4896	-2.75	-2.2354	-2.5563	-2.6562	-2.2812	-3.0896	-2.3083	-2.0979	-2.9688	-2.2938	-2.6521	-2.7521	-2.0938	-2.8833	352.681	281.360	253.421	433.054	456.093	432.774	446.976	484.771	357.587	350.005	424.963	420.346	379.037	348.767	389.067	375.004	0.00018985	0.00021375	4.8937e-05	989.85	1.477e-06	2.3918e-06	882.53	173.46	2.0818e-06	2.3224e-06	217.03	61.26	48.127	14.379	2.1747e-06	19.712	0.00023983	0.00025078	6.792e-05	865.66	2.7691e-06	2.6791e-06	897.47	180.49	2.7101e-06	2.6087e-06	227.15	64.575	50.673	15.329	2.7912e-06	21.101	231.647	223.173	253.692	161.307	292.260	332.087	161.372	168.858	323.609	318.114	168.911	175.790	175.687	182.636	296.157	182.104	-8191	255	
12597.883	1	1	0	0	0.27677	0.16323	0.076907	0.18964	0.1094	0.050642	0.49227	0.092182	0.1155	0.072865	0.065415	0.30921	0.058159	0.044084	0.20546	0.18611	-2.1542	-2.3042	-2.7896	-2.3333	-2.65	-2.8333	-2.275	-2.8292	-2.4958	-2.4646	-3.0187	-2.2354	-2.4292	-2.7604	-2.1688	-2.7875	300.229	412.253	506.430	434.879	296.238	285.931	408.336	372.430	417.732	444.022	347.092	161.579	347.919	165.298	306.677	254.987	0.00019652	0.0001992	3.8491e-05	985.46	1.2418e-06	1.4968e-06	882.07	172.95	2.6344e-06	1.9418e-06	217.7	60.823	48.027	14.301	1.9862e-06	19.709	0.00023444	0.00024709	6.8772e-05	864.15	2.7589e-06	2.6194e-06	895.83	180.48	2.7561e-06	2.7013e-06	227.13	64.402	50.664	15.246	2.6669e-06	21.065	232.795	230.402	223.087	161.531	284.292	328.333	161.469	169.427	308.061	303.303	168.529	175.099	175.541	182.493	232.919	182.225	-8191	255	
12597.978	1	1	0	0	0.18523	0.17266	0.055626	0.15328	0.29303	0.071368	0.066943	0.30314	0.026604	0.10738	0.16365	0.15606	0.10817	0.056668	0.19133	0.10228	-2.1646	-2.1396	-2.9208	-2.5396	-2.4396	-2.7812	-2.2896	-2.6979	-2.4583	-2.2833	-2.9688	-2.2125	-2.3396	-2.8625	-2.2021	-2.6312	225.358	264.600	367.177	505.520	189.484	266.139	454.133	393.968	335.646	237.960	391.047	494.123	204.475	410.342	205.029	187.731	0.00018785	0.00025524	4.3362e-05	985.33	2.7241e-06	3.7411e-06	884.73	172.5	3.2342e-06	2.8222e-06	216.22	61.162	48.129	14.338	1.8084e-06	19.917	0.00023341	0.00025162	6.7477e-05	863.6	2.8539e-06	2.6242e-06	896.43	180.17	2.7627e-06	2.716e-06	226.97	64.417	50.643	15.284	2.7231e-06	21.081	233.237	256.395	239.757	161.350	300.794	310.350	161.486	169.100	314.411	283.275	168.505	175.361	175.322	182.449	348.872	181.413	-8191	255	
#DATA ENDS
