BOXY.EXE: ISS Imagent and Oximeter Data Acquisition Program Version 0.80
Ascii Record File

#ACQ INFORMATION
2  Detector Channels 
16  External MUX Channels 
1  Auxiliary Channels 
5000  Waveform (CCF) Frequency (Hz)
1  Waveforms Skipped 
30  Waveforms Averaged 
1  Cycles Averaged 
16  Acquisitions per Waveform 
10.0806  Updata Rate (Hz) 

#FILE INFORMATION
TRUE -- External MUX Channel results are PARSED.
FALSE -- AC DC and Phase are NOT grouped.
TRUE -- Companion Program Settings File CREATED.
FALSE -- AC data not excluded
FALSE -- DC data not excluded
FALSE -- Phase data not excluded
FALSE -- Auxillary Chn. data not excluded
Tab delimiters

#CALIBRATION STATE
TRUE -- Waveform Calibration Values APPLIED.


#AUX CALIBRATION VALUES
Val Type	aux-1	

Term	1.0000e+00	
Factor	0.0000e+00	


#WF CALIBRATION VALUES
A = Detector Channel
Val Type	A-AC1	A-AC2	A-AC3	A-AC4	A-AC5	A-AC6	A-AC7	A-AC8	A-AC9	A-AC10	A-AC11	A-AC12	A-AC13	A-AC14	A-AC15	A-AC16	A-DC1	A-DC2	A-DC3	A-DC4	A-DC5	A-DC6	A-DC7	A-DC8	A-DC9	A-DC10	A-DC11	A-DC12	A-DC13	A-DC14	A-DC15	A-DC16	A-Ph1	A-Ph2	A-Ph3	A-Ph4	A-Ph5	A-Ph6	A-Ph7	A-Ph8	A-Ph9	A-Ph10	A-Ph11	A-Ph12	A-Ph13	A-Ph14	A-Ph15	A-Ph16	

Term	0.00000e+00	0.00000e+00	0.00000e+00	0.00000e+00	0.00000e+00	0.00000e+00	0.00000e+00	0.00000e+00	0.00000e+00	0.00000e+00	0.00000e+00	0.00000e+00	0.00000e+00	0.00000e+00	0.00000e+00	0.00000e+00	0.00000e+00	0.00000e+00	0.00000e+00	0.00000e+00	0.00000e+00	0.00000e+00	0.00000e+00	0.00000e+00	0.00000e+00	0.00000e+00	0.00000e+00	0.00000e+00	0.00000e+00	0.00000e+00	0.00000e+00	0.00000e+00	0.00000e+00	0.00000e+00	0.00000e+00	0.00000e+00	0.00000e+00	0.00000e+00	0.00000e+00	0.00000e+00	0.00000e+00	0.00000e+00	0.00000e+00	0.00000e+00	0.00000e+00	0.00000e+00	0.00000e+00	0.00000e+00	
Factor	1.00000e+00	1.00000e+00	1.00000e+00	1.00000e+00	1.00000e+00	1.00000e+00	1.00000e+00	1.00000e+00	1.00000e+00	1.00000e+00	1.00000e+00	1.00000e+00	1.00000e+00	1.00000e+00	1.00000e+00	1.00000e+00	1.00000e+00	1.00000e+00	1.00000e+00	1.00000e+00	1.00000e+00	1.00000e+00	1.00000e+00	1.00000e+00	1.00000e+00	1.00000e+00	1.00000e+00	1.00000e+00	1.00000e+00	1.00000e+00	1.00000e+00	1.00000e+00	X	X	X	X	X	X	X	X	X	X	X	X	X	X	X	X	

B = Detector Channel
Val Type	B-AC1	B-AC2	B-AC3	B-AC4	B-AC5	B-AC6	B-AC7	B-AC8	B-AC9	B-AC10	B-AC11	B-AC12	B-AC13	B-AC14	B-AC15	B-AC16	B-DC1	B-DC2	B-DC3	B-DC4	B-DC5	B-DC6	B-DC7	B-DC8	B-DC9	B-DC10	B-DC11	B-DC12	B-DC13	B-DC14	B-DC15	B-DC16	B-Ph1	B-Ph2	B-Ph3	B-Ph4	B-Ph5	B-Ph6	B-Ph7	B-Ph8	B-Ph9	B-Ph10	B-Ph11	B-Ph12	B-Ph13	B-Ph14	B-Ph15	B-Ph16	

Term	0.00000e+00	0.00000e+00	0.00000e+00	0.00000e+00	0.00000e+00	0.00000e+00	0.00000e+00	0.00000e+00	0.00000e+00	0.00000e+00	0.00000e+00	0.00000e+00	0.00000e+00	0.00000e+00	0.00000e+00	0.00000e+00	0.00000e+00	0.00000e+00	0.00000e+00	0.00000e+00	0.00000e+00	0.00000e+00	0.00000e+00	0.00000e+00	0.00000e+00	0.00000e+00	0.00000e+00	0.00000e+00	0.00000e+00	0.00000e+00	0.00000e+00	0.00000e+00	-2.63813e+02	-1.35610e+02	-1.20718e+02	-1.83142e+02	-1.03639e+02	-7.76492e+01	-1.58739e+02	-1.62015e+02	-6.67048e+01	-5.05097e+01	-1.74416e+02	-1.69969e+02	-1.82317e+02	-1.77446e+02	-7.21603e+01	-1.50100e+02	
Factor	6.34764e-05	1.25928e-04	3.90822e-05	1.62229e-01	1.76456e-06	1.41241e-06	1.55923e-01	5.22478e-02	2.01247e-06	1.74817e-06	8.59677e-02	2.68576e-02	3.53234e-02	8.80985e-03	1.52861e-06	1.26090e-02	2.79852e-06	2.94799e-06	8.21211e-07	8.30312e-02	3.20143e-08	3.23669e-08	7.47397e-02	2.68061e-02	3.19947e-08	3.24091e-08	4.26679e-02	1.33414e-02	1.79389e-02	4.54378e-03	3.21625e-08	6.28425e-03	X	X	X	X	X	X	X	X	X	X	X	X	X	X	X	X	



#DISTANCE SETTINGS
A = Detector Channel
A-1	A-2	A-3	A-4	A-5	A-6	A-7	A-8	A-9	A-10	A-11	A-12	A-13	A-14	A-15	A-16	

2.5000e+00	3.0000e+00	2.5000e+00	3.0000e+00	2.0000e+00	3.0000e+00	1.5000e+00	3.0000e+00	3.0000e+00	3.0000e+00	3.0000e+00	3.0000e+00	3.0000e+00	3.0000e+00	1.5000e+00	3.0000e+00	

B = Detector Channel
B-1	B-2	B-3	B-4	B-5	B-6	B-7	B-8	B-9	B-10	B-11	B-12	B-13	B-14	B-15	B-16	

1.0000e+01	1.0000e+01	1.0000e+01	1.4400e+00	1.0000e+01	1.0000e+01	1.5100e+00	1.9400e+00	1.0000e+01	1.0000e+01	1.9900e+00	2.4900e+00	2.4100e+00	2.9000e+00	1.0000e+01	2.9800e+00	




#DATA BEGINS
time	group	step	mark	flag	A-AC1	A-AC2	A-AC3	A-AC4	A-AC5	A-AC6	A-AC7	A-AC8	A-AC9	A-AC10	A-AC11	A-AC12	A-AC13	A-AC14	A-AC15	A-AC16	A-DC1	A-DC2	A-DC3	A-DC4	A-DC5	A-DC6	A-DC7	A-DC8	A-DC9	A-DC10	A-DC11	A-DC12	A-DC13	A-DC14	A-DC15	A-DC16	A-Ph1	A-Ph2	A-Ph3	A-Ph4	A-Ph5	A-Ph6	A-Ph7	A-Ph8	A-Ph9	A-Ph10	A-Ph11	A-Ph12	A-Ph13	A-Ph14	A-Ph15	A-Ph16	B-AC1	B-AC2	B-AC3	B-AC4	B-AC5	B-AC6	B-AC7	B-AC8	B-AC9	B-AC10	B-AC11	B-AC12	B-AC13	B-AC14	B-AC15	B-AC16	B-DC1	B-DC2	B-DC3	B-DC4	B-DC5	B-DC6	B-DC7	B-DC8	B-DC9	B-DC10	B-DC11	B-DC12	B-DC13	B-DC14	B-DC15	B-DC16	B-Ph1	B-Ph2	B-Ph3	B-Ph4	B-Ph5	B-Ph6	B-Ph7	B-Ph8	B-Ph9	B-Ph10	B-Ph11	B-Ph12	B-Ph13	B-Ph14	B-Ph15	B-Ph16	aux-1	digaux	

6464.603	1	1	0	768	0.17163	0.12956	0.083715	0.34203	0.10515	0.21338	0.25028	0.047666	0.45578	0.19193	0.22697	0.20347	0.10244	0.15991	0.086003	0.11862	-2.0375	-2.5646	-2.0021	-2.9938	-2.6396	-2.1521	-3.0229	-2.2417	-2.1521	-2.6208	-2.1896	-2.6271	-2.4313	-2.0896	-2.625	-2.4167	23.163	-125.249	-51.968	-154.922	191.433	110.223	150.403	151.784	-159.533	-17.506	109.745	-121.827	167.945	-122.657	24.407	-129.392	0.0015491	0.00047756	0.00015011	1442.2	7.2498e-06	6.7495e-06	1427.8	399.71	9.2217e-06	5.8274e-06	454.49	152.36	133.43	44.872	3.0862e-06	54.687	0.00043732	0.00040394	0.00011334	1452.1	4.4269e-06	4.4467e-06	1439.5	403.79	4.4557e-06	4.428e-06	459.1	154.27	134.42	45.712	4.4211e-06	56.168	65.100	-84.716	-58.219	-148.517	-54.944	-15.891	-148.739	-144.193	-31.298	-27.844	-144.466	-140.651	-140.211	-135.313	0.068	-135.640	-8191	255	
6464.698	1	1	0	0	0.25924	0.040886	0.12622	0.16883	0.026011	0.10201	0.26281	0.31591	0.11636	0.18642	0.41839	0.34859	0.23132	0.32767	0.08137	0.24167	-1.7417	-2.7396	-1.9854	-2.7083	-2.5625	-2.1979	-3.0792	-2.5354	-2.0083	-2.8271	-2.1562	-2.525	-2.5667	-2.1688	-2.7208	-2.5563	-82.675	-59.485	-74.951	192.708	-153.593	144.729	144.902	148.696	-14.674	-73.077	171.102	133.269	133.220	191.552	127.052	-144.990	0.001605	0.00023271	0.00015788	1443.1	5.2636e-06	6.2702e-06	1424	399.13	7.7696e-06	9.2015e-06	452.03	151.44	132.89	44.658	4.8708e-06	54.831	0.00043925	0.00040711	0.00011466	1450.9	4.4363e-06	4.5074e-06	1439.6	403.36	4.5364e-06	4.4242e-06	457.05	153.56	133.81	45.526	4.4537e-06	56.008	67.111	-42.769	-55.276	-148.475	-80.164	-23.814	-148.764	-144.115	-31.695	20.671	-144.686	-140.623	-140.159	-134.951	-0.088	-135.596	-8191	255	
6464.794	1	1	0	0	0.044084	0.18031	0.13753	0.19139	0.29463	0.019081	0.12977	0.014485	0.17577	0.057539	0.20375	0.20671	0.12363	0.2648	0.40575	0.17659	-1.7979	-2.7958	-2.1562	-2.6896	-2.5292	-1.9896	-2.8271	-2.7125	-2.1792	-2.9146	-2.2562	-2.6604	-2.8063	-2.1396	-2.7229	-2.4062	-149.365	-70.783	12.493	117.872	-104.690	10.412	139.713	-4.354	-79.115	-114.585	143.669	-133.428	87.974	148.451	-69.926	165.411	0.0015763	0.00040444	0.00012001	1430.8	5.5578e-06	5.5856e-06	1423	397.47	1.0831e-05	6.7209e-06	450.71	151.51	132.12	44.63	3.3989e-06	54.773	0.00043625	0.00040393	0.00011218	1443	4.4136e-06	4.3765e-06	1435.4	401.36	4.4274e-06	4.4681e-06	456.14	153.2	133.17	45.425	4.4546e-06	55.951	70.149	-74.785	-38.480	-148.409	-35.126	-15.064	-148.854	-144.046	-36.371	-12.957	-144.523	-140.551	-139.885	-135.020	0.233	-135.767	-8191	255	
6464.890	1	1	0	0	0.17424	0.33153	0.1111	0.11307	0.18364	0.13561	0.17322	0.1069	0.1325	0.21835	0.079739	0.28743	0.14179	0.162	0.16028	0.26853	-1.7396	-2.5563	-2.4062	-2.4229	-2.6917	-1.9	-2.7771	-2.6833	-2.0854	-2.7938	-2.4854	-2.3896	-2.7292	-2.1229	-2.4521	-2.5833	116.911	-161.814	-119.131	190.503	103.922	171.779	90.198	190.153	177.165	57.463	91.780	-145.069	194.569	149.050	-85.252	127.824	0.0014408	0.00057978	0.00012722	1432.8	8.4383e-06	2.2328e-06	1417.7	397.98	9.0196e-06	4.3995e-06	451.31	152.16	132.46	44.917	4.5994e-06	54.956	0.00043459	0.00040182	0.00011258	1443.5	4.528e-06	4.4359e-06	1432.4	401.45	4.5121e-06	4.4777e-06	456.57	153.68	133.39	45.606	4.5392e-06	56.057	68.442	-68.079	-62.124	-148.474	-69.195	-7.197	-148.741	-144.014	-45.741	1.495	-144.251	-140.481	-140.145	-134.987	-46.870	-135.683	-8191	255	
6464.986	1	1	0	0	0.18488	0.1265	0.18734	0.27187	0.37383	0.2117	0.13439	0.34486	0.36398	0.19544	0.16102	0.12467	0.18656	0.15606	0.24028	0.38809	-1.5208	-2.6	-2.1396	-2.3854	-2.8167	-2.2604	-2.6708	-2.9083	-1.8958	-2.7812	-2.4917	-2.4271	-2.8937	-2.4646	-2.3958	-2.6813	121.952	-51.986	-89.071	141.908	39.045	-158.314	146.877	153.168	158.992	-61.565	139.128	186.714	138.344	-146.463	122.341	124.134	0.0015451	0.00045157	0.00013085	1430.7	8.0875e-06	6.6792e-06	1417.1	396.43	1.0465e-05	8.101e-06	453.14	152.39	132.14	44.748	1.1944e-06	54.97	0.00044495	0.00041594	0.00011593	1444.7	4.4757e-06	4.5735e-06	1434.1	401.93	4.5457e-06	4.4721e-06	457.18	153.8	133.58	45.539	4.518e-06	56.049	67.261	-134.819	-52.572	-148.662	-90.418	-11.946	-148.951	-144.103	-47.707	13.360	-144.364	-140.767	-140.322	-135.152	125.867	-136.001	-8191	255	
6465.082	1	1	0	0	0.10606	0.0095732	0.1113	0.20927	0.029417	0.16523	0.47837	0.16251	0.1258	0.077936	0.19158	0.19384	0.42388	0.048688	0.10829	0.22478	-1.625	-2.4479	-2.3146	-2.25	-2.775	-2.1708	-2.4938	-2.8208	-2.1625	-2.65	-2.6063	-2.3083	-2.8354	-2.3875	-2.0604	-2.7292	22.351	138.199	-118.317	142.639	176.710	-156.386	74.887	130.570	166.105	-0.357	-124.065	157.716	123.832	57.254	140.369	155.238	0.0015525	0.00053361	0.00025136	1431.5	1.8186e-06	7.9175e-06	1415.5	397.33	6.8577e-06	7.4585e-06	449.79	150.73	132.39	44.634	5.8434e-06	54.963	0.0004337	0.00040403	0.00011329	1442.3	4.4061e-06	4.4314e-06	1432.8	400.92	4.5065e-06	4.412e-06	455.52	152.98	133.13	45.373	4.5386e-06	55.877	69.501	-91.300	-78.040	-148.636	-46.550	-27.925	-148.921	-144.120	-58.369	-33.791	-144.485	-140.673	-140.089	-135.254	-20.625	-135.915	-8191	255	
6465.203	1	1	0	0	0.085491	0.17094	0.28316	0.32653	0.033545	0.19307	0.31296	0.084111	0.067802	0.24664	0.2529	0.16534	0.042756	0.40229	0.19247	0.43846	-1.6	-2.3146	-2.4771	-2.1562	-2.5979	-2.1729	-2.4333	-2.7604	-2.1104	-2.5542	-2.625	-1.8604	-2.5938	-2.3521	-2.0917	-2.7417	-103.946	41.039	181.383	146.198	189.746	36.707	167.561	124.284	-56.059	-74.953	174.270	112.987	-75.525	107.894	-150.339	92.511	0.0015907	0.00029693	0.00025771	1427.6	5.3422e-06	8.7025e-06	1415	398.37	7.4248e-06	3.0124e-06	450.87	150.92	132.7	44.381	5.4178e-06	54.84	0.00044278	0.00040398	0.00011382	1440.9	4.4423e-06	4.4106e-06	1430	401.56	4.4565e-06	4.4832e-06	455.82	152.92	133.4	45.379	4.5916e-06	55.844	72.198	-65.591	-85.276	-148.681	-70.773	-35.301	-148.752	-144.066	-55.119	-59.159	-144.402	-140.717	-140.157	-135.101	1.319	-135.815	-8191	255	
6465.299	1	1	0	0	0.29477	0.10529	0.18536	0.30656	0.21144	0.068254	0.48252	0.18365	0.11616	0.15603	0.22252	0.23783	0.060925	0.20329	0.28593	0.15055	-1.9167	-2.2979	-2.7958	-2.3563	-2.7604	-2.5083	-2.2188	-3.0104	-2.3104	-2.5062	-2.8	-2.1813	-2.6896	-2.5542	-2.1125	-2.8667	-119.948	20.027	122.814	-153.775	-97.411	-5.585	134.316	159.674	-20.175	185.734	161.238	152.270	31.794	185.417	188.242	99.227	0.0015554	0.0003973	0.00010263	1431.9	7.2313e-06	6.3958e-06	1419.4	397.89	9.3177e-06	9.0811e-06	453.65	151.21	132.2	44.747	4.2965e-06	55.029	0.00044169	0.00040925	0.00011401	1443.2	4.5121e-06	4.46e-06	1432	402.03	4.552e-06	4.5779e-06	457.02	153.19	133.63	45.49	4.6183e-06	56.096	67.938	-83.479	-66.394	-148.365	-96.994	-45.721	-148.793	-144.064	-11.739	-8.226	-144.598	-140.787	-140.256	-135.042	-23.293	-135.835	-8191	255	
6465.395	1	1	0	0	0.1944	0.1203	0.023239	0.05515	0.11205	0.13616	0.34409	0.33759	0.077507	0.16744	0.059495	0.19558	0.20141	0.31868	0.12663	0.090268	-1.7708	-2.1167	-2.5292	-2.25	-2.3854	-2.4625	-2.4521	-2.8521	-2.3125	-2.3042	-2.7958	-2.0312	-2.5875	-2.7	-1.9771	-2.8458	-148.209	130.903	-135.084	127.161	59.642	-34.707	95.876	167.691	129.353	2.868	17.306	-155.662	86.925	164.409	44.890	41.272	0.0014201	0.00071733	0.0001384	1430.2	4.7077e-06	2.35e-06	1415.8	397.05	1.0174e-05	5.7439e-06	451.99	151.07	132.25	44.504	4.7661e-06	54.7	0.00044264	0.00041546	0.00011426	1444.1	4.5104e-06	4.568e-06	1431.8	401.57	4.5859e-06	4.5275e-06	456.33	153.04	133.22	45.372	4.6136e-06	55.877	64.506	-77.135	-66.670	-148.489	-71.355	-30.700	-149.049	-144.209	-43.775	-18.496	-144.472	-140.417	-140.383	-135.093	-32.374	-135.836	-8191	255	
6465.491	1	1	0	0	0.2304	0.13721	0.22072	0.10906	0.041741	0.16604	0.25832	0.54216	0.26008	0.26485	0.33669	0.14131	0.20055	0.32462	0.21802	0.22114	-1.9792	-1.9979	-2.8104	-2.4479	-2.4813	-2.8854	-2.1688	-2.7938	-2.525	-2.1583	-2.8729	-2.3208	-2.5667	-2.8438	-2.0646	-2.7917	8.359	-44.578	-30.876	30.994	-106.032	169.001	167.144	147.034	55.038	-155.413	177.226	170.680	121.173	139.789	50.218	139.171	0.0016198	0.00021834	0.00018984	1433.1	8.7984e-06	2.4423e-06	1415.4	396.2	2.4795e-06	7.5558e-06	451.92	150.62	131.82	44.497	5.2526e-06	54.672	0.00044357	0.00041909	0.00011729	1441.9	4.6354e-06	4.5684e-06	1429.4	400.4	4.7018e-06	4.6161e-06	455.77	152.76	133.05	45.265	4.6752e-06	55.818	72.819	-70.472	-89.286	-148.383	-67.659	-38.062	-148.667	-144.017	-2.532	-17.318	-144.677	-140.633	-140.135	-134.806	-45.589	-135.890	-8191	255	
6465.588	1	1	0	0	0.27412	0.25042	0.25437	0.41065	0.12716	0.16004	0.22443	0.1277	0.24821	0.22458	0.32134	0.23239	0.24718	0.16819	0.39199	0.021343	-1.8563	-1.9958	-2.7917	-2.3812	-2.2708	-2.6667	-2.2771	-2.6229	-2.4417	-2.2125	-2.7854	-2.3646	-2.3896	-2.8896	-2.1354	-2.8063	-160.455	37.028	-98.437	177.547	82.212	109.536	115.312	-113.706	-18.704	23.562	172.394	148.477	38.936	97.276	129.192	-42.328	0.0016142	0.00018057	9.1255e-05	1428.1	7.2973e-06	6.8599e-06	1409.9	393.66	1.1627e-05	1.3486e-06	448.61	149.95	131.23	44.05	5.9719e-06	54.289	0.00045148	0.00042841	0.00011657	1439.2	4.6367e-06	4.5716e-06	1427.5	399.19	4.6276e-06	4.5377e-06	453.56	151.69	131.81	44.806	4.5586e-06	55.383	72.988	0.691	-109.657	-148.528	-117.693	-27.801	-148.712	-144.145	-19.930	68.321	-144.546	-140.307	-140.143	-134.810	-26.490	-135.683	-8191	255	
6465.684	1	1	0	0	0.16489	0.17654	0.10553	0.17611	0.20238	0.085696	0.36757	0.23584	0.19707	0.34395	0.1171	0.078949	0.091019	0.37257	0.078435	0.20937	-2.175	-2	-2.8563	-2.5875	-2.3	-2.7271	-2.2333	-2.8063	-2.5687	-2.1063	-3.0667	-2.5854	-2.3896	-2.8146	-2.175	-2.5354	-27.575	-78.251	92.110	-64.065	-49.439	-92.107	182.640	174.429	-29.003	-28.530	-118.849	131.730	-152.525	153.159	83.737	-82.259	0.0015556	0.00030861	0.00013479	1422.3	6.9186e-06	6.315e-06	1398.9	393.01	8.1552e-06	1.7065e-06	445.25	148.42	128.96	43.471	6.6152e-06	53.869	0.00043375	0.00040838	0.00011155	1432	4.4712e-06	4.4315e-06	1419.5	396.12	4.4555e-06	4.3812e-06	449.86	150.27	130.38	44.389	4.4138e-06	54.944	69.400	-95.326	-69.885	-148.536	-66.107	-28.924	-148.742	-144.015	-34.184	-43.744	-144.578	-140.448	-140.008	-134.993	-52.500	-136.037	-8191	255	
6465.803	1	1	0	0	0.11178	0.084003	0.20711	0.02747	0.22493	0.1269	0.38558	0.3298	0.043121	0.1991	0.064097	0.20232	0.14946	0.091022	0.42189	0.13456	-2.0729	-1.9438	-2.5	-2.4958	-2.325	-2.8104	-2.4146	-2.5917	-2.6208	-2.1208	-2.6604	-2.7875	-2.1646	-2.9521	-2.0833	-2.3729	-91.579	-70.982	-9.633	178.074	172.810	63.693	143.086	107.640	31.505	130.531	97.815	168.485	-123.797	-111.633	170.260	82.009	0.0015709	0.00038065	0.00017306	1417.6	5.888e-06	6.8846e-06	1398.2	388.63	5.9521e-06	4.6989e-06	441.59	146.67	128.04	42.94	5.7438e-06	53.252	0.00042326	0.00039576	0.0001118	1425.1	4.321e-06	4.286e-06	1413.4	392.44	4.2375e-06	4.3178e-06	446.81	148.62	129.14	43.88	4.1923e-06	54.273	67.439	-52.055	-37.417	-148.317	-39.188	3.536	-148.711	-144.105	-6.477	-14.124	-145.913	-141.649	-141.401	-136.236	-8.004	-136.608	-8191	255	
6465.899	1	1	0	0	0.18165	0.25739	0.19706	0.35576	0.1918	0.019235	0.19332	0.11999	0.16811	0.14008	0.18755	0.22377	0.15278	0.054008	0.15969	0.17784	-2.1771	-1.9562	-2.4917	-2.7667	-2.2271	-2.6208	-2.4417	-2.4062	-2.7271	-2.0938	-2.4771	-2.7313	-2.1208	-2.6063	-2.3937	-2.2354	-22.527	-97.744	-86.849	-112.827	48.163	191.638	180.258	98.820	29.535	-10.064	-35.237	136.530	168.824	27.044	-68.159	-9.889	0.0015279	0.00042397	0.00013173	1401	3.7765e-06	5.3668e-06	1391.9	384.65	8.7593e-06	6.5495e-06	438.39	146.22	126.78	42.724	7.287e-06	52.65	0.00041335	0.00038535	0.00010702	1417.2	4.2185e-06	4.1737e-06	1405.9	389	4.1721e-06	4.1675e-06	443.15	147.85	128.06	43.542	4.1772e-06	53.956	70.014	-89.450	-67.168	-149.366	-110.762	-28.276	-149.504	-144.849	-25.599	-20.064	-145.218	-141.390	-140.444	-135.458	-22.585	-136.109	-8191	255	
6465.995	1	1	0	0	0.13955	0.19987	0.07804	0.16811	0.063156	0.20744	0.21936	0.29685	0.055633	0.13239	0.10203	0.094302	0.11254	0.24663	0.12888	0.10421	-2.2104	-2.1979	-2.6771	-2.7229	-1.8833	-2.5958	-2.6125	-2.2854	-2.8125	-2.0458	-2.3875	-2.7	-2.1271	-2.6583	-2.4188	-2.1979	-87.942	-86.847	146.865	-136.769	-62.216	-129.473	130.900	154.595	29.767	181.024	-153.340	-114.953	146.970	-137.619	187.099	195.284	0.0016622	0.00053698	4.5375e-05	1401.3	4.8419e-06	2.9241e-06	1387.8	383.44	9.323e-06	4.4115e-06	436.76	145.23	126.11	42.629	5.2551e-06	52.896	0.00041542	0.00038562	0.00010462	1411.6	4.1853e-06	4.133e-06	1401.8	387.62	4.21e-06	4.1575e-06	442.18	147.06	127.31	43.385	4.1613e-06	53.805	71.208	-70.013	-76.739	-148.987	-128.466	7.867	-149.134	-144.619	-37.098	18.619	-144.927	-140.778	-140.441	-135.157	2.707	-135.770	-8191	255	
6466.091	1	1	0	0	0.14586	0.14135	0.24386	0.10881	0.020181	0.3848	0.2826	0.24462	0.067001	0.21256	0.13285	0.31799	0.26535	0.035706	0.18687	0.25415	-2.2354	-2.0479	-2.3125	-2.6417	-2.0687	-2.5667	-2.7542	-2.1792	-2.625	-2.1354	-2.4042	-2.8167	-2.0583	-2.525	-2.5229	-2.15	-63.073	-45.815	169.523	133.802	-39.121	-137.597	113.630	94.940	194.939	25.713	-144.501	136.648	177.026	-54.729	-145.527	167.653	0.0015519	0.00022201	0.00015971	1403.3	6.111e-06	5.7018e-06	1386.7	382.74	1.2869e-05	7.2315e-06	436.96	144.94	126.17	42.39	3.1811e-06	52.649	0.00040353	0.00037682	0.0001042	1410.8	4.0883e-06	4.0739e-06	1398.3	386.65	4.102e-06	4.037e-06	440.65	146.54	126.9	43.196	4.1615e-06	53.621	67.069	-80.739	-90.142	-148.857	-40.923	-11.043	-149.044	-144.307	-48.083	-3.716	-144.725	-140.659	-140.114	-135.080	-24.996	-135.824	-8191	255	
6466.163	1	1	0	0	0.19269	0.093902	0.18063	0.14604	0.14548	0.20171	0.21069	0.17292	0.22546	0.33948	0.064001	0.19527	0.18457	0.079331	0.091815	0.35133	-2.4146	-2.3583	-2.0604	-2.9417	-1.9125	-2.6	-2.8	-2.1917	-2.6937	-2.2854	-2.3812	-2.6688	-2.1	-2.4917	-2.5167	-2.1917	9.512	-82.131	11.721	-159.760	-83.818	-54.194	142.921	115.449	151.956	113.800	-155.091	132.114	-41.475	-76.164	-13.215	146.447	0.001566	0.00066324	0.00015318	1398.1	3.4229e-06	4.6744e-06	1382.8	379.63	5.9447e-06	3.4965e-06	435.48	144.34	125.61	42.122	3.4383e-06	52.491	0.00039855	0.0003708	0.00010103	1406.5	4.0758e-06	4.0438e-06	1396.6	384.68	4.0574e-06	4.0744e-06	439.67	146.25	126.46	43.032	4.1122e-06	53.503	72.030	-76.699	-26.539	-148.692	-78.614	-40.471	-148.962	-144.173	-15.916	-27.470	-144.728	-140.462	-140.232	-134.817	-20.157	-135.947	-8191	255	
6466.283	1	1	0	0	0.23052	0.1207	0.28793	0.40378	0.18157	0.15854	0.20076	0.21228	0.087935	0.18784	0.25136	0.15653	0.16571	0.063184	0.18028	0.23393	-2.2979	-2.3729	-1.9813	-2.7604	-2.1458	-2.2417	-2.75	-2.25	-2.5417	-2.3146	-2.2854	-2.75	-2.1396	-2.275	-2.5917	-1.9354	54.328	-52.208	23.520	185.882	8.644	50.301	-151.342	-126.760	-86.247	72.287	164.373	195.621	71.164	173.973	-52.475	102.533	0.0014897	0.00020076	9.0784e-05	1401.4	6.4419e-06	3.4944e-06	1385.2	380.65	7.8022e-06	6.0427e-06	435.07	144.31	125.92	42.308	2.2622e-06	52.462	0.00040363	0.00038012	0.00010437	1408.9	4.1501e-06	4.1596e-06	1397	385.22	4.1071e-06	4.1677e-06	439.19	146.41	126.6	43.153	4.121e-06	53.517	68.369	-88.632	-38.519	-148.548	-95.637	-10.956	-148.684	-143.990	-42.297	-18.529	-144.362	-141.118	-140.051	-135.179	-6.653	-136.323	-8191	255	
6466.379	1	1	0	0	0.16778	0.14552	0.18519	0.13768	0.054267	0.3251	0.37092	0.052913	0.031176	0.069186	0.030429	0.13766	0.16911	0.20087	0.065512	0.136	-2.3479	-2.3063	-1.9229	-2.7	-2.1813	-2.4188	-2.7896	-2.1396	-2.4188	-2.5146	-2.1604	-2.7729	-2.3604	-2.3521	-2.7542	-2.275	88.013	-46.661	-127.819	-68.091	65.719	-155.424	114.914	17.632	60.874	77.025	10.082	182.455	189.118	176.768	-85.291	132.708	0.0013782	0.0006328	0.00018802	1395.2	5.8307e-06	5.4124e-06	1383.2	381.3	3.7415e-06	3.388e-06	434.79	144.62	126.28	42.207	2.3814e-06	52.311	0.00040482	0.00037942	0.0001043	1407.3	4.1771e-06	4.0997e-06	1394.4	384.82	4.1242e-06	4.0653e-06	439.52	146.34	126.7	42.982	4.1112e-06	53.443	69.758	-76.802	-77.859	-149.100	-57.080	-39.651	-149.327	-144.640	-43.667	51.831	-145.163	-140.808	-140.734	-135.473	-35.761	-136.034	-8191	255	
6466.476	1	1	0	0	0.14318	0.1964	0.26363	0.31268	0.42111	0.17185	0.10933	0.2897	0.23492	0.10323	0.14129	0.20213	0.19667	0.19077	0.1923	0.43167	-1.8813	-2.4104	-1.9229	-2.8792	-2.2979	-2.1604	-2.9479	-2.2604	-2.4188	-2.6542	-2.1479	-2.625	-2.4188	-2.1021	-2.7938	-2.2479	-122.038	179.295	-141.634	133.847	81.922	25.512	180.349	115.456	-82.618	95.038	148.163	191.525	13.163	-155.137	-121.286	154.555	0.0015538	0.00049397	0.00016346	1392.7	7.3602e-06	2.9394e-06	1377.1	380.76	9.7355e-06	5.3079e-06	432.11	143.89	125.37	42.246	4.4603e-06	52.261	0.00039677	0.0003636	0.00010241	1403.7	4.0667e-06	3.9595e-06	1391.5	384.07	4.008e-06	3.9711e-06	437.76	145.69	126.06	42.832	3.9268e-06	53.224	68.119	-38.489	-64.782	-149.035	-62.177	-47.797	-148.891	-144.089	-31.519	44.197	-144.706	-140.635	-140.035	-135.015	-7.775	-135.948	-8191	255	
6466.572	1	1	0	0	0.22159	0.068576	0.31259	0.221	0.17231	0.052532	0.1451	0.11615	0.18884	0.16	0.065954	0.099784	0.24692	0.20226	0.078826	0.45319	-1.9125	-2.65	-1.925	-2.7271	-2.4938	-2.0208	-2.9188	-2.4229	-2.1312	-2.7375	-2.2708	-2.7021	-2.4396	-2.1104	-2.6937	-2.3438	-162.136	1.650	-83.010	-143.967	71.129	-148.878	188.051	152.774	133.121	177.280	-48.908	90.688	-35.103	-143.740	-10.546	136.340	0.001662	0.00031459	0.00016701	1390.7	5.0708e-06	3.9954e-06	1379.6	380.03	1.3035e-05	3.588e-06	432.52	143.42	125.06	41.943	7.5193e-06	52.088	0.00039047	0.00036363	9.9574e-05	1402	3.9591e-06	3.9092e-06	1390.1	383.33	3.9786e-06	3.9266e-06	437.35	145.25	125.86	42.783	3.9732e-06	53.156	67.851	-107.615	-30.126	-148.632	-94.691	0.019	-148.875	-144.175	-30.329	-15.611	-144.459	-140.772	-141.109	-135.893	-26.524	-136.454	-8191	255	
6466.691	1	1	0	0	0.093197	0.17578	0.17766	0.22627	0.088615	0.12028	0.33328	0.21333	0.077371	0.13783	0.2738	0.10351	0.36159	0.1246	0.23688	0.022931	-1.7313	-2.5521	-1.9021	-2.5354	-2.5458	-1.9125	-2.7792	-2.4854	-2.1854	-2.6312	-2.2	-2.6188	-2.5208	-1.9562	-2.7521	-2.4229	-25.526	71.710	-64.190	100.414	67.484	188.633	133.930	166.779	156.531	-99.160	-152.789	52.793	180.722	-153.397	-6.872	-134.483	0.0015771	0.00057544	0.00010999	1390	4.4288e-06	2.7243e-06	1382.4	380.2	1.0787e-05	5.4695e-06	434.13	144.23	126.11	42.126	5.54e-06	52.304	0.00039402	0.00036105	0.00010071	1403.3	4.0175e-06	4.025e-06	1393.3	384.22	4.1421e-06	4.009e-06	438.76	145.97	126.68	42.977	4.1282e-06	53.401	64.589	-66.827	-74.148	-149.478	-78.285	-1.100	-149.734	-145.061	-9.340	-16.858	-145.227	-141.330	-141.034	-135.723	-15.828	-136.393	-8191	255	
6466.764	1	1	0	0	0.3847	0.055161	0.095694	0.39981	0.034024	0.1384	0.22432	0.0648	0.13656	0.083709	0.27624	0.071125	0.15076	0.12151	0.20349	0.083359	-1.8563	-2.4875	-1.9896	-2.6042	-2.4625	-2.125	-2.9125	-2.35	-2.0875	-2.7438	-2.1333	-2.4271	-2.6437	-2.1583	-2.4813	-2.3187	-3.131	-82.722	-140.991	-157.483	67.060	159.446	132.483	87.077	-64.087	-43.556	150.363	56.346	189.791	146.448	-117.356	121.935	0.0015608	0.00051793	0.00010405	1399.5	4.093e-06	6.0038e-06	1389.7	382.94	1.0098e-05	5.0237e-06	436.73	145.07	126.44	42.469	6.9188e-06	52.445	0.00041213	0.0003781	0.0001055	1410.1	4.1897e-06	4.1652e-06	1401.8	387.57	4.153e-06	4.1669e-06	442.12	146.91	127.09	43.184	4.2089e-06	53.574	70.518	-72.606	-21.515	-149.307	-83.069	4.874	-149.509	-144.839	-35.533	-23.176	-145.289	-141.309	-140.713	-135.647	-24.746	-136.673	-8191	255	
6466.883	1	1	0	0	0.088975	0.2181	0.41398	0.37515	0.16798	0.090156	0.19586	0.24598	0.22093	0.19564	0.38754	0.14861	0.11979	0.14882	0.12564	0.12168	-1.5562	-2.7583	-2.0417	-2.5208	-2.65	-2.1063	-2.8875	-2.7854	-1.9937	-2.5938	-2.4417	-2.3833	-2.7333	-1.9104	-2.4896	-2.6688	164.071	150.468	110.310	126.905	-157.480	149.212	132.745	-143.537	-18.592	61.879	-90.551	136.835	-46.020	-67.613	-45.642	-142.427	0.0015839	0.00047098	0.00010208	1397.5	5.4231e-06	3.7424e-06	1384.4	382.34	7.8771e-06	4.7077e-06	436.51	144.62	126.22	42.108	1.1816e-06	52.321	0.000409	0.00037809	0.00010342	1412.1	4.1117e-06	4.0332e-06	1400.2	386.86	4.1049e-06	4.0305e-06	440.94	146.41	127.26	42.997	4.1817e-06	53.483	71.132	-49.192	-51.116	-149.601	-69.806	19.864	-149.733	-144.669	-41.249	46.526	-145.464	-141.631	-141.241	-135.981	-39.368	-136.655	-8191	255	
6466.979	1	1	0	0	0.18633	0.19536	0.35615	0.26862	0.10633	0.12047	0.40313	0.049624	0.12025	0.20935	0.33889	0.2474	0.22822	0.11788	0.23773	0.15459	-1.5812	-2.6937	-2.2167	-2.3042	-2.5479	-2.0833	-2.5542	-2.7	-2.0833	-2.8396	-2.3667	-2.2146	-2.8563	-2.1792	-2.5583	-2.775	-88.406	142.825	83.203	171.382	101.670	-2.394	169.503	189.073	50.807	-3.117	116.085	93.454	-115.550	190.252	61.478	136.473	0.001347	0.00082296	0.0001616	1402.4	4.1355e-06	5.2182e-06	1386.8	381.3	7.0423e-06	1.0444e-05	436.78	144.62	126.74	42.431	3.3916e-06	52.427	0.00040073	0.00037083	0.00010356	1413	4.1561e-06	4.1031e-06	1400.3	386.28	4.1678e-06	4.0483e-06	440.99	146.48	127.32	43.283	4.1377e-06	53.506	72.653	-99.838	-59.380	-149.729	-45.001	-71.231	-149.967	-144.979	-36.507	0.289	-145.446	-141.709	-140.932	-135.970	-27.735	-136.763	-8191	255	
6467.075	1	1	0	0	0.084863	0.11604	0.15569	0.11188	0.24203	0.24087	0.15645	0.31458	0.25948	0.083694	0.43999	0.25622	0.11591	0.2851	0.26395	0.15376	-1.575	-2.4979	-2.4042	-2.2042	-2.7708	-2.2146	-2.5187	-2.7104	-1.9229	-2.5104	-2.525	-2.125	-2.8438	-2.1792	-2.2521	-2.6583	79.564	-154.516	-65.806	147.121	162.295	-9.265	182.394	117.484	-133.757	148.377	165.495	163.423	-156.276	93.006	-71.646	23.291	0.0014268	0.00015939	0.00015289	1400.6	6.6441e-06	3.2267e-06	1385.7	382.17	9.3054e-06	3.5915e-06	435.15	145.18	126.44	42.358	5.6374e-06	52.544	0.00039896	0.00037564	0.0001036	1411.8	4.1247e-06	4.1013e-06	1400.2	387.08	4.1401e-06	4.0765e-06	441.42	146.8	127.41	43.171	4.1869e-06	53.649	69.615	-94.957	-74.478	-149.751	-78.850	-86.414	-150.220	-145.136	-41.784	56.090	-145.530	-141.803	-141.155	-136.054	-58.362	-136.606	-8191	255	
6467.171	1	1	0	0	0.04592	0.020125	0.29612	0.13781	0.30288	0.19681	0.24394	0.17852	0.2408	0.063775	0.35307	0.19631	0.15065	0.066424	0.10411	0.084704	-1.4479	-2.4	-2.5104	-2.2562	-2.6562	-2.3104	-2.5	-3.0521	-1.9375	-2.5292	-2.4688	-2.1125	-2.6042	-2.3187	-2.2208	-2.7646	157.080	-149.040	172.953	116.339	14.345	128.498	108.202	159.018	-152.687	35.325	107.892	129.119	121.360	-150.657	-127.562	-50.921	0.0015929	0.00047365	0.00011697	1397.6	6.0756e-06	2.9762e-06	1385.3	383.23	7.9374e-06	4.229e-06	437.27	144.85	125.99	42.266	7.8604e-06	52.394	0.00040284	0.00037103	0.00010356	1410.5	4.0542e-06	4.1043e-06	1399.1	387.19	4.0851e-06	4.0562e-06	441.51	146.5	127.1	43.096	4.0291e-06	53.43	70.310	-79.037	-39.311	-149.623	-25.387	-6.257	-150.091	-145.103	-8.924	15.074	-145.733	-141.518	-140.937	-136.067	-36.453	-136.585	-8191	255	
6467.292	1	1	0	0	0.19345	0.13886	0.25074	0.07326	0.23295	0.2187	0.38296	0.32105	0.11153	0.1143	0.24811	0.21324	0.16823	0.28724	0.24151	0.086611	-1.8583	-2.3333	-2.6	-2.1083	-2.7062	-2.4688	-2.2021	-2.8104	-2.1854	-2.4083	-2.8021	-1.8854	-2.6063	-2.5792	-2.0938	-2.8021	185.014	33.485	71.228	194.816	63.985	139.494	116.070	155.617	7.749	-156.043	-146.262	-161.654	-72.093	-143.227	-21.750	171.829	0.0015437	0.00079489	9.9211e-05	1396.7	6.9114e-06	4.2816e-06	1379.6	382.62	8.0041e-06	8.0451e-06	437.43	144.95	126.07	42.028	2.8265e-06	52.484	0.00039923	0.00036467	0.00010146	1409.5	4.0281e-06	3.9574e-06	1397.3	386.68	4.0023e-06	4.0052e-06	440.75	146.37	126.4	42.962	4.0121e-06	53.44	70.553	-91.631	-47.751	-149.631	-88.362	6.019	-150.007	-145.039	-22.034	17.962	-145.777	-141.654	-141.076	-136.188	-24.107	-136.690	-8191	255	
6467.388	1	1	0	0	0.020828	0.066202	0.14391	0.27085	0.044095	0.20321	0.31965	0.032089	0.092194	0.1693	0.15159	0.16055	0.044917	0.040642	0.17469	0.092895	-1.6333	-2.2833	-2.4375	-2.3625	-2.4729	-2.4354	-2.3021	-3.0292	-2.1729	-2.3521	-2.7875	-2.2083	-2.4958	-2.5938	-2.0479	-2.8563	122.366	-126.058	-150.330	187.544	131.291	-157.591	153.129	-37.169	-123.783	-43.616	129.689	-155.398	76.683	-57.172	69.095	108.518	0.0015122	0.00066469	0.00011741	1390.6	4.9004e-06	4.1276e-06	1384	381.51	1.0229e-05	6.7665e-06	434.8	143.52	125.7	42.256	8.0142e-06	52.166	0.00039725	0.00036489	0.0001011	1405.2	4.0063e-06	4.0262e-06	1396.6	385.5	4.0517e-06	4.0662e-06	439.25	145.82	126.58	43.012	4.1475e-06	53.435	65.475	-66.085	-84.995	-149.686	-63.629	-0.428	-149.999	-144.962	-37.021	-6.677	-145.557	-141.775	-141.149	-135.872	-26.030	-136.598	-8191	255	
6467.460	1	1	0	0	0.23821	0.13821	0.21492	0.19031	0.1317	0.2412	0.48529	0.1366	0.13433	0.22789	0.41286	0.13445	0.24522	0.023886	0.18832	0.2894	-2.0792	-2.1792	-2.5417	-2.1083	-2.4771	-2.4938	-2.2229	-2.7958	-2.4625	-2.0583	-2.7479	-2.1208	-2.5208	-2.6979	-2.0042	-2.8021	-75.815	35.936	-153.349	131.543	65.271	-52.048	118.598	-111.338	-32.328	100.345	156.596	193.153	-115.708	126.913	183.678	-136.812	0.0015424	0.00063654	0.00017359	1392.1	7.7674e-06	7.1106e-06	1385.6	382.62	1.1696e-05	2.4016e-06	436.67	145.01	126.45	42.451	4.6222e-06	52.547	0.00040566	0.00037405	0.00010314	1407.2	4.1667e-06	4.15e-06	1399.1	386.75	4.2398e-06	4.2516e-06	441.65	146.97	127.63	43.286	4.2301e-06	53.753	75.148	-78.262	-70.229	-149.617	-76.305	-9.023	-149.945	-144.983	3.738	29.354	-145.702	-141.379	-141.375	-136.192	-64.020	-136.867	-8191	255	
6467.581	1	1	0	0	0.25686	0.27853	0.093298	0.25767	0.17758	0.090789	0.35698	0.09755	0.34035	0.22832	0.088971	0.095909	0.15454	0.12878	0.26349	0.086682	-1.8271	-1.9833	-2.4042	-2.3229	-2.3688	-2.5438	-2.1708	-2.9729	-2.4146	-2.2479	-2.7875	-1.9854	-2.3271	-2.8958	-1.8687	-2.5854	-9.837	-57.275	-18.163	-136.854	-81.235	39.274	121.322	-78.368	73.807	83.191	-152.714	113.089	-24.104	-100.603	-114.473	64.030	0.0014384	0.00066568	0.00013241	1399.3	3.9125e-06	3.6761e-06	1387.2	382.76	9.02e-06	8.7198e-06	437.47	144.45	126.25	42.295	4.8793e-06	52.316	0.00041601	0.00037829	0.00010614	1412.6	4.2098e-06	4.1067e-06	1403.2	387.6	4.145e-06	4.0268e-06	442.02	146.59	127.04	43.186	4.0227e-06	53.405	69.382	-95.371	-66.098	-149.587	-160.598	-35.809	-149.912	-145.419	-63.795	-13.945	-145.565	-141.533	-141.231	-136.085	-27.671	-136.866	-8191	255	
6467.677	1	1	0	0	0.051661	0.23853	0.14234	0.27744	0.20047	0.34589	0.054048	0.21826	0.13923	0.2538	0.19349	0.31252	0.17378	0.26729	0.10423	0.048878	-1.9958	-1.9604	-2.6375	-2.4938	-2.1375	-2.6792	-2.1312	-2.5875	-2.4333	-2.1604	-2.6083	-2.3563	-2.225	-2.8625	-1.8229	-2.625	196.804	-70.597	-125.022	-151.504	-42.139	-117.569	103.377	149.757	-151.891	111.106	-26.383	151.573	-161.538	182.780	-58.439	60.905	0.0014463	0.00058407	0.00015909	1389.9	7.6496e-06	3.3967e-06	1377.1	379.58	4.0422e-06	9.2101e-06	431.14	142.48	125.1	41.839	5.2202e-06	51.855	0.00038634	0.00036086	9.93e-05	1404.1	3.893e-06	3.8146e-06	1391.5	383.54	3.8011e-06	3.806e-06	436.93	144.85	125.54	42.632	3.8798e-06	53.029	68.878	-95.535	-110.514	-149.585	-51.128	-29.209	-149.900	-145.059	-38.075	0.765	-145.665	-141.527	-141.188	-135.910	-56.190	-136.817	-8191	255	
6467.771	1	1	0	0	0.054734	0.086231	0.21121	0.064365	0.21821	0.28236	0.27652	0.211	0.16028	0.27742	0.22936	0.16415	0.36585	0.28311	0.15903	0.31109	-2.4	-1.9458	-2.6708	-2.3729	-2	-2.9208	-2.3708	-2.5771	-2.5771	-1.9312	-2.8125	-2.4396	-2.1542	-2.5833	-2.175	-2.3	-121.026	-126.646	93.332	-122.365	-151.974	151.653	112.832	161.060	162.381	29.338	20.990	98.269	-142.427	-83.997	187.511	139.871	0.0014	0.00056154	7.6948e-05	1386	8.1869e-06	4.634e-06	1373.2	377.98	5.1589e-06	5.4141e-06	432.68	143.39	125.19	42.022	5.3111e-06	52.117	0.00037862	0.00035154	9.6427e-05	1394.2	3.9013e-06	3.8461e-06	1387	381.8	3.9791e-06	3.9033e-06	437.48	145.34	125.91	42.867	4.0253e-06	53.198	69.759	-89.404	-117.776	-149.551	-36.423	-15.408	-150.068	-144.988	-71.150	-57.358	-145.498	-141.444	-141.217	-135.982	-23.183	-136.978	-8191	255	
6467.892	1	1	0	0	0.078969	0.16423	0.031544	0.31929	0.18107	0.14616	0.51761	0.24203	0.080492	0.21487	0.05595	0.21651	0.13699	0.12226	0.16461	0.10599	-2.3417	-1.9625	-2.4729	-2.7562	-2.1562	-2.7208	-2.2542	-2.3583	-2.5125	-2.1958	-2.7417	-2.5146	-2.1854	-2.7167	-2.2792	-2.2417	45.647	5.622	72.000	-160.355	159.133	-160.071	111.178	157.665	-49.124	7.802	-131.949	133.799	166.571	148.565	-86.395	160.609	0.001315	0.00039307	0.00013326	1388.4	6.9743e-06	1.7414e-06	1372.5	379.42	4.9378e-06	5.4934e-06	432.06	143.35	124.5	41.968	6.8737e-06	52.036	0.00039585	0.00036529	0.00010159	1402	3.9924e-06	3.9488e-06	1390.7	383.58	4.0025e-06	3.9326e-06	437.42	145.56	125.58	42.783	3.9061e-06	53.131	72.353	-95.000	-47.380	-149.585	-50.737	-75.600	-149.880	-145.118	-39.691	15.331	-145.650	-141.374	-141.117	-135.843	-31.583	-136.820	-8191	255	
6467.988	1	1	0	0	0.098398	0.11436	0.23077	0.18819	0.06225	0.14086	0.35818	0.11956	0.34115	0.18478	0.19099	0.061363	0.2756	0.25443	0.1727	0.24608	-2.2438	-2.0021	-2.3979	-2.6104	-1.875	-2.6708	-2.4688	-2.1937	-2.4417	-1.9604	-2.3917	-2.6896	-1.9188	-2.7896	-2.5167	-2.2417	-90.602	-86.711	147.019	123.187	69.892	-116.046	103.108	161.107	56.989	-52.647	177.329	192.780	-122.589	182.457	64.500	115.083	0.0016476	0.00015011	8.6458e-05	1388.2	2.8647e-06	2.761e-06	1376	376.95	2.758e-06	5.9371e-06	431.82	142.6	124.75	41.853	4.9375e-06	51.675	0.00038288	0.00035267	9.7324e-05	1398.3	3.8586e-06	3.8197e-06	1385.8	381.57	3.7912e-06	3.8597e-06	436.09	144.67	125.37	42.637	3.8781e-06	52.899	68.842	-97.192	-74.652	-149.552	-77.008	-53.954	-149.747	-145.087	-77.741	58.103	-145.624	-141.498	-141.195	-135.772	-56.262	-136.459	-8191	255	
6468.060	1	1	0	0	0.19903	0.27645	0.07365	0.20774	0.1479	0.012606	0.52976	0.1843	0.15403	0.065783	0.24039	0.28891	0.2413	0.20189	0.10055	0.20797	-2.2062	-1.9979	-2.3417	-2.7562	-1.8563	-2.5271	-2.6625	-2.3625	-2.6312	-1.8875	-2.3333	-2.8042	-1.9583	-2.5542	-2.5271	-2.0667	-39.981	-43.493	-10.024	183.664	-22.580	-68.570	124.894	31.173	-136.786	-69.460	149.753	-70.032	-124.403	117.884	-94.890	187.913	0.0015546	0.00065845	0.00015434	1386.6	1.4735e-06	4.8601e-06	1374.3	377.01	8.6776e-06	1.7532e-06	429.68	143.76	124.62	41.97	2.1385e-06	52.025	0.00037953	0.00034821	9.6959e-05	1396	3.9552e-06	3.9273e-06	1387	381.88	3.9329e-06	3.9219e-06	435.98	145.33	125.55	42.733	3.8945e-06	53.111	72.808	-97.903	-76.315	-149.531	-41.060	11.147	-149.946	-145.233	-21.583	-81.843	-145.651	-141.440	-141.197	-135.884	37.574	-136.900	-8191	255	
6468.156	1	1	0	0	0.24364	0.024098	0.13218	0.29477	0.13834	0.096635	0.38543	0.23084	0.18002	0.20285	0.20584	0.11263	0.21002	0.061942	0.12027	0.35948	-2.1917	-2.0729	-2.1021	-2.6958	-1.9604	-2.4375	-2.5479	-2.1375	-2.6875	-2.1604	-2.2375	-2.7417	-2.0854	-2.3833	-2.3875	-2.1083	-137.186	-126.816	40.101	192.712	-37.157	-139.131	90.620	131.685	100.435	26.409	-130.577	-106.151	192.753	58.569	-149.439	117.612	0.0014043	0.00063929	9.337e-05	1389.4	7.3422e-06	4.9697e-06	1378.1	378.77	6.3751e-06	7.6046e-06	433.03	143.66	125.73	42.106	4.934e-06	52.084	0.00039306	0.00036354	9.8631e-05	1400	3.9299e-06	3.883e-06	1389.8	382.09	3.9174e-06	3.8584e-06	436.86	145.32	126.06	42.801	3.9319e-06	53.153	68.286	-91.070	-29.326	-149.524	-116.634	-17.126	-149.681	-145.071	-72.633	16.462	-145.565	-141.399	-141.136	-135.957	-12.791	-136.523	-8191	255	
6468.252	1	1	0	0	0.30561	0.056641	0.088762	0.074843	0.2065	0.27175	0.13039	0.26077	0.12688	0.1209	0.12759	0.16795	0.14554	0.25072	0.20499	0.27261	-2.075	-2.2229	-2.0771	-2.8292	-1.9479	-2.2104	-2.7104	-2.1354	-2.55	-2.2708	-2.1958	-2.6771	-2.0563	-2.3625	-2.5854	-1.9354	-58.119	103.206	2.059	132.064	-55.212	176.299	150.801	-133.811	-39.222	161.452	36.304	120.382	73.673	-161.515	120.567	167.949	0.0014529	0.00015916	0.00016182	1386.6	1.5297e-06	1.2329e-07	1375.1	379.37	7.2305e-06	5.0448e-06	432.74	143.37	125.25	41.933	5.4608e-06	52.101	0.00038714	0.0003632	0.00010021	1400.3	3.958e-06	3.931e-06	1389.6	382.88	3.9385e-06	3.9981e-06	437.33	145.28	126.19	42.733	3.9792e-06	53.141	66.859	-48.896	-68.699	-149.431	-46.506	-42.761	-149.696	-145.064	-31.407	52.763	-145.718	-141.490	-141.260	-136.048	-50.023	-136.487	-8191	255	
6468.372	1	1	0	0	0.06247	0.30009	0.25607	0.38883	0.15613	0.098324	0.091947	0.28943	0.039193	0.16739	0.033346	0.25197	0.23435	0.1777	0.14853	0.19061	-2.1396	-2.3104	-2.0146	-2.8458	-2.1813	-2.2188	-2.6188	-2.0812	-2.4917	-2.4479	-2.3146	-2.875	-2.275	-2.2562	-2.5875	-1.925	36.733	-86.917	69.074	146.966	-70.693	65.528	166.926	57.463	-151.918	65.836	20.548	186.831	173.454	-115.838	-151.175	65.581	0.0016283	0.00044176	0.00012077	1394.2	7.2984e-06	3.9511e-06	1376.5	378.35	5.8472e-06	6.655e-06	432.75	143.57	124.75	42.1	2.7608e-06	51.965	0.00038832	0.00035942	0.00010063	1402.1	3.9523e-06	3.9466e-06	1391.7	383.31	3.9726e-06	3.9595e-06	437.47	145.42	125.95	42.853	3.9787e-06	53.181	67.519	-61.647	-32.606	-149.726	-87.417	-38.545	-149.810	-145.132	-77.375	18.822	-145.806	-141.516	-141.013	-135.870	5.198	-136.534	-8191	255	
6468.469	1	1	0	0	0.13711	0.10942	0.22865	0.22396	0.12462	0.023699	0.21205	0.25587	0.11883	0.23098	0.12881	0.069067	0.32889	0.30418	0.072933	0.23523	-2.0771	-2.3104	-1.8083	-2.6625	-2.1229	-2.025	-2.9375	-2.0979	-2.4667	-2.2708	-2.0875	-2.6417	-2.2542	-2.2208	-2.5292	-2.0896	189.737	143.700	-98.645	187.457	61.679	-123.735	148.172	-153.058	21.959	29.718	120.881	-92.080	187.389	158.186	74.433	86.658	0.0014321	0.0004309	0.00012441	1398.5	4.1132e-06	4.4606e-06	1381.6	379.68	1.0202e-05	4.6026e-06	433.49	143.96	125.53	42.036	7.2024e-06	52.252	0.00038846	0.00035601	0.00010145	1406.1	4.0026e-06	3.9699e-06	1394.9	384.21	4.0541e-06	3.9846e-06	438.53	145.99	126.2	42.97	4.0114e-06	53.343	67.590	-78.752	-87.380	-149.696	-105.446	14.969	-149.859	-145.011	-39.955	-16.721	-145.508	-141.696	-141.187	-135.916	-26.385	-136.812	-8191	255	
6468.565	1	1	0	0	0.32846	0.14469	0.041614	0.036822	0.080265	0.18106	0.14227	0.23968	0.18681	0.16743	0.054693	0.13358	0.25648	0.06389	0.026887	0.047166	-1.7167	-2.3979	-1.8833	-2.7896	-2.3396	-2.1646	-2.9396	-2.3833	-2.1833	-2.6104	-2.2708	-2.7438	-2.325	-2.0938	-2.7521	-2.0333	-78.205	75.735	-88.961	103.170	192.201	-126.012	175.371	134.454	33.142	-158.605	113.280	29.707	-79.885	181.024	-87.856	-25.290	0.0016092	0.00035906	0.00010279	1399.4	1.0899e-05	6.7927e-06	1385.6	381.01	1.0519e-05	6.1141e-06	433.64	144.69	126.29	42.209	4.9485e-06	52.07	0.00040302	0.00037204	0.00010286	1408.8	4.0807e-06	4.0937e-06	1398.5	385.28	4.1162e-06	4.1129e-06	439.84	146.43	126.95	43.063	4.0011e-06	53.29	70.491	-62.088	-109.488	-149.685	-42.924	-1.686	-149.699	-145.132	-44.669	11.335	-145.552	-141.737	-140.965	-136.183	-50.445	-136.926	-8191	255	
6468.661	1	1	0	0	0.23599	0.39422	0.18448	0.07559	0.28529	0.23909	0.087954	0.12739	0.10221	0.1233	0.25837	0.1584	0.13283	0.016976	0.19374	0.1885	-1.7917	-2.5125	-1.8583	-2.5417	-2.2	-1.9979	-3.0479	-2.3083	-2.1271	-2.4354	-2.0854	-2.4521	-2.5062	-1.9917	-2.7417	-2.2708	194.352	-161.678	172.516	-122.110	-120.528	-149.663	176.394	143.316	-58.144	108.986	163.007	78.237	68.991	-44.386	-80.649	-155.008	0.0015743	0.00060283	0.00018571	1394.2	3.1659e-06	2.9036e-06	1381.6	378.1	8.6509e-06	4.9725e-06	432.75	143.67	125.95	41.884	2.5328e-06	51.926	0.00039792	0.00036729	0.00010197	1407.2	4.0309e-06	3.9521e-06	1395.9	383.27	4.0509e-06	3.9769e-06	437.8	145.3	125.88	42.72	3.9087e-06	53.06	66.984	-89.893	-39.777	-149.482	-56.660	-25.875	-149.862	-145.063	-51.166	-18.023	-145.292	-141.564	-141.002	-136.048	-54.326	-136.711	-8191	255	
6468.757	1	1	0	0	0.17802	0.19004	0.21238	0.10472	0.35326	0.10055	0.090528	0.24904	0.25493	0.13324	0.21181	0.095042	0.16733	0.089478	0.04973	0.26934	-1.4562	-2.6417	-2.0563	-2.4521	-2.4917	-1.9312	-2.7229	-2.3083	-2.1937	-2.6688	-2.2396	-2.4396	-2.5958	-1.9479	-2.3271	-2.275	173.805	-149.570	46.588	97.834	22.057	-132.365	-155.558	118.459	47.532	-113.405	165.068	60.588	163.335	-161.009	94.942	130.758	0.0014565	0.00037883	0.00020693	1388.8	5.0783e-06	6.5581e-06	1373.3	377.82	7.6251e-06	7.0933e-06	430.52	143.43	124.99	41.667	6.4995e-06	51.673	0.00039022	0.00035878	0.00010097	1400.4	3.9359e-06	3.8935e-06	1388.3	381.66	3.9606e-06	3.8487e-06	435.63	144.9	125.42	42.562	3.9164e-06	52.771	71.402	-59.314	-52.384	-149.676	-58.154	8.175	-149.804	-144.954	-43.215	-45.623	-145.521	-141.768	-140.955	-135.898	5.844	-136.495	-8191	255	
6468.853	1	1	0	0	0.19127	0.020428	0.132	0.34021	0.19241	0.16511	0.12692	0.33697	0.25631	0.2922	0.33306	0.1915	0.23397	0.2804	0.2071	0.18803	-1.6854	-2.6167	-1.9813	-2.3333	-2.6604	-1.6875	-2.7854	-2.6021	-1.8375	-2.675	-2.3688	-2.1958	-2.4146	-1.8	-2.3312	-2.5333	40.320	90.410	89.687	178.557	-36.736	-86.815	184.350	117.841	-2.629	141.251	80.114	179.213	156.325	165.921	37.236	125.451	0.0015409	9.0514e-05	9.8066e-05	1382.5	2.4152e-06	2.9115e-06	1368.1	375.96	1.116e-05	1.172e-06	429.28	142.74	124.05	41.495	6.5159e-06	51.787	0.00038454	0.00035124	9.8244e-05	1394.5	3.9046e-06	3.7789e-06	1382.9	380.68	3.863e-06	3.7831e-06	434.41	144.39	124.65	42.404	3.8007e-06	52.75	74.874	-124.960	-125.316	-149.578	-77.657	-39.695	-150.022	-145.003	-6.752	-58.570	-145.433	-141.723	-140.986	-135.882	-18.191	-136.908	-8191	255	
6468.972	1	1	0	0	0.12962	0.378	0.16693	0.15099	0.15155	0.089569	0.22076	0.28661	0.23706	0.25338	0.1826	0.13974	0.22018	0.22886	0.14487	0.29467	-1.5542	-2.4958	-2.1688	-2.3333	-2.5917	-1.9104	-2.775	-2.6125	-1.975	-2.7417	-2.2146	-2.1542	-2.7	-2.0458	-2.1521	-2.5521	166.641	17.089	-62.502	164.847	15.911	-133.425	108.157	125.891	91.185	98.821	184.700	191.564	146.720	-70.647	110.656	-146.286	0.0015175	0.00053452	0.00016012	1382.5	7.2149e-06	6.3467e-06	1365	375.13	3.9469e-06	4.3308e-06	429.24	142.22	123.56	41.437	4.6299e-06	51.662	0.00037068	0.0003383	9.4077e-05	1392.4	3.7397e-06	3.6994e-06	1380.4	378.5	3.7488e-06	3.6685e-06	432.23	143.73	124.37	42.236	3.736e-06	52.531	69.411	-78.528	-56.810	-149.778	-88.093	-48.017	-149.856	-145.091	-22.956	-34.598	-145.406	-141.524	-140.980	-135.977	-37.735	-136.448	-8191	255	
6469.068	1	1	0	0	0.041692	0.24686	0.082823	0.2934	0.15101	0.38779	0.15448	0.27406	0.010664	0.28884	0.29337	0.18121	0.23742	0.16131	0.28349	0.26174	-1.4333	-2.4917	-2.3125	-2.1188	-2.6271	-2.1333	-2.4458	-2.575	-1.7729	-2.5083	-2.4146	-2.1375	-2.675	-2.1167	-2.2917	-2.6312	-135.180	-84.112	174.268	132.472	130.868	73.181	126.792	107.005	179.837	-38.790	146.058	-134.804	-119.948	-157.017	-95.962	174.168	0.0014964	0.00070117	6.4314e-05	1377.1	5.8453e-07	4.6476e-06	1366	373.85	9.2821e-06	2.4198e-06	429	141.46	123.94	41.497	5.9016e-06	51.498	0.00037231	0.00034581	9.5519e-05	1386.9	3.764e-06	3.7713e-06	1376.7	377.97	3.8045e-06	3.788e-06	432.01	143.45	124.39	42.245	3.8623e-06	52.545	65.852	-92.873	-79.918	-149.567	-10.557	-7.267	-149.687	-144.907	-24.725	8.979	-145.360	-141.422	-140.975	-135.716	-21.577	-136.586	-8191	255	
6469.164	1	1	0	0	0.17282	0.077806	0.091874	0.26672	0.16572	0.10876	0.14078	0.073723	0.38678	0.38783	0.21871	0.11424	0.030682	0.32985	0.15953	0.1033	-1.4958	-2.5208	-2.375	-2.1729	-2.6917	-2.2542	-2.3917	-2.8375	-2.0167	-2.4958	-2.4521	-2	-2.6437	-2.2958	-1.9979	-2.6229	192.731	-161.480	2.520	152.571	113.958	83.806	157.268	-35.942	-162.379	-137.587	196.081	195.929	-115.689	156.161	-104.446	-1.235	0.0013041	0.00047661	0.00014058	1377	6.4719e-06	3.8466e-06	1364.1	373.38	5.9003e-06	2.2454e-06	427.11	141.83	123.6	41.354	1.9155e-06	51.513	0.00037698	0.00035306	9.6757e-05	1387.7	3.8572e-06	3.8353e-06	1377.7	378.34	3.8312e-06	3.7783e-06	432.07	143.8	124.28	42.27	3.8217e-06	52.597	68.592	-97.882	-41.506	-149.770	-39.063	-30.003	-149.834	-145.020	-40.479	-18.991	-145.423	-141.533	-141.003	-136.166	-125.359	-136.579	-8191	255	
6469.285	1	1	0	0	0.33826	0.091256	0.16605	0.14412	0.17505	0.19255	0.11793	0.30524	0.27938	0.16702	0.17645	0.13924	0.15849	0.12045	0.247	0.11661	-1.5187	-2.3458	-2.4229	-2.1875	-2.6604	-2.2958	-2.1542	-2.7542	-1.9896	-2.2313	-2.7438	-2.0021	-2.5	-2.5792	-1.8563	-2.6021	-44.970	52.038	10.733	-109.486	-124.655	112.037	82.758	-87.805	-20.644	15.033	-100.731	157.803	-76.045	160.055	192.528	137.111	0.0015087	0.00045613	8.2043e-05	1377.4	3.4166e-06	1.6539e-06	1361.8	373.74	8.0922e-06	7.6041e-06	427.01	142.17	123.26	41.253	4.3135e-06	51.564	0.00038057	0.00034397	9.569e-05	1388.1	3.8133e-06	3.7252e-06	1376	377.91	3.7936e-06	3.7543e-06	431.36	143.56	124.19	42.159	3.7739e-06	52.48	70.005	-56.375	-92.997	-149.546	-81.087	-13.410	-149.823	-144.893	-13.477	-3.505	-145.496	-141.640	-141.150	-135.577	-25.349	-136.730	-8191	255	
6469.357	1	1	0	0	0.1052	0.066963	0.040735	0.2014	0.10436	0.13589	0.15775	0.40919	0.13169	0.079288	0.29408	0.15591	0.31972	0.040293	0.17037	0.26863	-1.5125	-2.2687	-2.4958	-2.1792	-2.6458	-2.4542	-2.1104	-2.9292	-2.0417	-2.1146	-2.5333	-2.0938	-2.3917	-2.4542	-1.9708	-2.7062	46.172	115.567	-9.502	105.801	-70.977	77.867	157.409	143.233	-26.818	112.765	182.406	-72.706	-130.509	-22.381	85.073	151.475	0.001552	0.00041749	0.00010977	1374	6.0586e-06	5.4158e-06	1364.3	372.46	8.1255e-06	3.9178e-06	426.73	141.25	123.49	41.389	4.0937e-06	51.599	0.00036926	0.00034232	9.2629e-05	1385.3	3.7551e-06	3.6732e-06	1375.3	377.1	3.7714e-06	3.7505e-06	430.7	143.4	124.23	42.157	3.8019e-06	52.56	71.382	-73.575	-75.920	-149.437	-88.907	-11.944	-150.115	-145.125	-26.107	22.475	-145.379	-141.680	-141.099	-135.894	-38.413	-136.482	-8191	255	
6469.453	1	1	0	0	0.20817	0.062219	0.20704	0.3261	0.22595	0.19668	0.20596	0.1788	0.14213	0.16374	0.26172	0.21691	0.25649	0.22723	0.21963	0.26771	-1.9896	-2.1646	-2.4313	-2.2604	-2.4854	-2.5062	-2.1625	-2.8	-2.2458	-2.0083	-2.7188	-2.0917	-2.3104	-2.5833	-1.975	-2.6937	2.564	45.932	65.881	196.202	-45.759	-69.204	112.556	110.706	75.911	180.526	-50.666	144.130	-114.873	101.302	44.471	-119.862	0.0015675	0.00028247	0.00015525	1377.4	1.6749e-06	4.6915e-06	1363.6	373.8	8.9724e-06	9.6976e-06	428.06	142.76	123.73	41.467	4.3223e-06	51.557	0.00037463	0.00034608	9.5303e-05	1388.5	3.7588e-06	3.7468e-06	1376.8	378.19	3.8372e-06	3.7096e-06	431.65	143.68	124.41	42.251	3.7629e-06	52.535	66.466	-35.443	-56.651	-149.371	-74.346	-30.050	-149.782	-144.989	-68.756	0.838	-145.482	-141.511	-140.864	-135.543	-47.472	-136.490	-8191	255	
6469.549	1	1	0	0	0.061255	0.14271	0.26092	0.20569	0.058774	0.11155	0.27477	0.32285	0.16564	0.046423	0.22557	0.20257	0.079237	0.19505	0.30293	0.26881	-1.8937	-2.1417	-2.5229	-2.1229	-2.4042	-2.6104	-2.2917	-2.7333	-2.1437	-2.1	-2.8167	-2.1604	-2.2062	-2.6458	-2.1229	-2.5833	159.501	-126.959	-152.127	-120.001	-36.759	-120.533	131.888	141.799	-158.355	-108.211	28.936	113.788	-116.703	98.445	60.078	84.983	0.001662	0.00031492	0.00012943	1376.4	6.4851e-06	6.1188e-06	1364.6	372.73	8.7523e-06	2.2386e-06	427.27	141.35	124.01	41.257	8.0045e-06	51.385	0.00037452	0.00033988	9.5204e-05	1388	3.7691e-06	3.7496e-06	1377.7	378.08	3.788e-06	3.7591e-06	431.08	143.4	124.25	42.203	3.74e-06	52.504	67.597	-51.329	-92.519	-149.455	-72.709	-11.210	-149.977	-144.976	-60.148	65.898	-145.508	-141.424	-141.193	-135.575	-24.618	-136.718	-8191	255	
6469.668	1	1	0	0	0.068905	0.16871	0.11758	0.18656	0.096321	0.054894	0.284	0.1309	0.2389	0.19554	0.27379	0.22263	0.38533	0.20238	0.28058	0.014204	-1.8792	-2.0667	-2.5104	-2.1958	-2.0687	-2.6188	-2.1583	-2.7208	-2.3375	-1.8708	-2.7458	-2.3292	-2.3354	-2.6688	-1.975	-2.5521	-162.888	121.809	-19.202	139.785	130.420	56.142	142.822	187.136	87.763	-41.307	14.831	184.203	-121.910	-142.642	114.115	-117.119	0.0014794	0.00038878	0.00019099	1377.6	6.8309e-06	3.003e-06	1357.9	372.77	4.6578e-06	5.4452e-06	426.19	141.76	123.45	41.463	6.6636e-06	51.521	0.00037024	0.00034035	9.3016e-05	1388.1	3.7575e-06	3.6775e-06	1374.1	377.7	3.7129e-06	3.7406e-06	431.48	143.66	124.21	42.281	3.7899e-06	52.484	67.213	-72.256	-62.294	-149.480	-40.305	25.546	-149.645	-145.127	-9.879	30.334	-145.561	-141.396	-141.405	-135.691	-5.575	-136.682	-8191	255	
6469.764	1	1	0	0	0.22282	0.095771	0.07813	0.22349	0.10497	0.17751	0.12039	0.37976	0.12805	0.25167	0.35132	0.25722	0.013664	0.12198	0.061706	0.31788	-2.0187	-1.9417	-2.5354	-2.2167	-2.0396	-2.6229	-2.3208	-2.6063	-2.5021	-1.9417	-2.5083	-2.3167	-2.2542	-2.6542	-1.9792	-2.5854	99.569	-17.320	-39.995	158.068	-130.387	104.850	116.287	156.990	178.658	-21.242	169.568	196.650	-111.659	-132.722	185.226	163.164	0.001585	0.00054561	0.00018133	1377.3	6.1603e-06	4.0518e-06	1359.3	373.49	7.8235e-06	6.5363e-06	425.07	141.59	123.11	41.375	4.9646e-06	51.316	0.00037303	0.00034531	9.484e-05	1388.3	3.8031e-06	3.6659e-06	1375.4	377.72	3.7411e-06	3.7045e-06	431.19	143.55	124.21	42.255	3.7972e-06	52.572	68.465	-62.175	-75.844	-149.469	-46.080	-17.796	-149.878	-144.965	-21.136	-27.816	-145.307	-141.498	-141.071	-135.728	-44.781	-136.830	-8191	255	
6469.860	1	1	0	0	0.20803	0.036778	0.12107	0.12598	0.12249	0.15023	0.49759	0.3009	0.19787	0.2964	0.22577	0.38561	0.26195	0.050924	0.29313	0.13808	-2.1896	-1.8917	-2.3646	-2.5625	-1.9167	-2.8604	-2.3146	-2.3771	-2.4938	-1.8458	-2.7125	-2.4771	-1.9312	-2.7812	-2.1125	-2.1292	190.016	107.322	167.415	-133.217	-146.460	73.977	159.484	140.737	-9.219	-126.891	147.859	103.888	116.833	46.005	46.631	89.174	0.0016773	0.00081824	5.9357e-05	1371.9	2.8782e-06	8.6474e-06	1369	373.8	1.148e-05	4.6471e-06	428.65	141.71	123.61	41.561	4.8557e-06	51.49	0.00037628	0.00034162	9.4884e-05	1385.3	3.8031e-06	3.7301e-06	1377.4	378.13	3.7926e-06	3.7521e-06	432.59	143.6	124.3	42.264	3.7052e-06	52.491	73.034	-72.791	-104.062	-149.500	-112.720	-5.683	-149.992	-145.113	-20.615	-13.512	-145.392	-141.636	-141.146	-135.815	-3.460	-136.933	-8191	255	
6469.934	1	1	0	0	0.10455	0.17401	0.15577	0.24884	0.028133	0.12642	0.33383	0.19792	0.10569	0.13749	0.057872	0.028528	0.078904	0.24365	0.14847	0.13913	-2.0854	-1.8417	-2.4562	-2.5729	-1.7396	-2.7604	-2.1458	-2.2333	-2.6896	-1.9146	-2.3771	-2.6667	-2.0771	-2.5771	-2.0729	-2.2646	35.638	100.166	138.942	187.534	-0.406	142.869	145.203	-128.000	108.410	-147.070	-12.791	-106.921	160.910	171.470	16.942	183.669	0.0016211	0.00015244	0.00010319	1377.9	6.2109e-06	4.1939e-06	1364.4	372.88	8.1049e-06	4.4019e-06	427.84	142.08	123.59	41.466	4.3347e-06	51.355	0.00037143	0.00034308	9.5286e-05	1388.4	3.8248e-06	3.7571e-06	1376.5	378.01	3.783e-06	3.7147e-06	431.71	143.81	124.18	42.294	3.699e-06	52.497	63.972	-88.975	-75.948	-149.493	-72.981	-49.995	-150.004	-145.024	-16.984	30.686	-145.581	-141.580	-141.055	-135.798	-33.785	-136.576	-8191	255	
6470.052	1	1	0	0	0.16093	0.016267	0.086833	0.34877	0.27596	0.26887	0.06203	0.30818	0.10761	0.14876	0.39689	0.078831	0.23802	0.10795	0.058225	0.19041	-2.4146	-1.9125	-2.3229	-2.6458	-1.9771	-2.5062	-2.3958	-2.1667	-2.7417	-2.0604	-2.3583	-2.6667	-1.9958	-2.5646	-2.2229	-1.9458	-9.576	181.362	-90.033	131.104	-42.955	67.970	101.390	105.802	-118.721	-31.539	140.839	138.170	116.158	148.972	-53.582	93.953	0.0015675	0.00078936	0.00020944	1373.6	5.4847e-06	3.2348e-06	1360.3	372.42	8.9293e-06	5.1075e-06	427.93	141.64	123.71	41.536	7.1539e-06	51.614	0.00037312	0.00034547	9.5544e-05	1386.5	3.7755e-06	3.7063e-06	1374.7	377.67	3.7926e-06	3.7721e-06	431.8	143.32	124.04	42.313	3.7976e-06	52.525	69.834	-91.676	-68.463	-149.486	-72.503	-32.093	-149.869	-144.883	-13.076	-15.437	-145.503	-141.110	-141.419	-135.728	-22.079	-136.732	-8191	255	
6470.149	1	1	0	0	0.17104	0.23619	0.23973	0.17512	0.12093	0.24468	0.29535	0.083169	0.097377	0.10426	0.19595	0.10842	0.092051	0.083915	0.15609	0.12594	-2.2417	-2.0938	-2.0938	-2.6792	-2.1146	-2.35	-2.5583	-2.2333	-2.575	-2.2542	-2.3292	-2.7188	-2.0771	-2.575	-2.4958	-2.0604	-125.955	-51.454	-44.334	-143.346	-115.445	5.675	123.968	-161.410	179.026	89.294	181.005	165.567	117.701	166.427	133.670	21.050	0.0015686	0.00055598	0.00016746	1379.5	8.9536e-07	6.2024e-06	1358.6	374.16	7.8187e-06	6.5809e-06	428.78	143.02	123.79	41.544	4.7162e-06	51.713	0.00037417	0.00034585	9.6236e-05	1390.1	3.7837e-06	3.7735e-06	1379.9	378.83	3.8226e-06	3.8111e-06	433.01	144.18	124.51	42.416	3.8849e-06	52.764	72.680	-80.761	-55.147	-149.700	-142.238	-18.096	-149.769	-145.001	-27.833	17.766	-145.610	-141.180	-140.902	-135.926	-35.407	-136.492	-8191	255	
6470.245	1	1	0	0	0.08412	0.1177	0.076914	0.11271	0.26843	0.21754	0.29515	0.30684	0.033989	0.19903	0.028423	0.37334	0.13812	0.10377	0.16974	0.21822	-2.1917	-2.0542	-2.0125	-2.8229	-1.8667	-2.4771	-2.6042	-2.0521	-2.5792	-2.1979	-2.2708	-2.6	-2.0563	-2.3229	-2.5375	-1.9438	-36.428	-33.334	120.008	181.677	-15.777	158.673	95.835	-151.727	-95.754	84.759	121.516	-125.303	-81.086	123.819	50.796	-87.158	0.0015529	0.00023459	0.00011987	1381.6	7.1882e-06	6.48e-06	1366.3	374.71	7.1795e-06	4.3296e-06	430.49	142.59	123.8	41.702	4.7785e-06	51.754	0.00037227	0.00034773	9.7426e-05	1391.8	3.9174e-06	3.8331e-06	1380.7	378.95	3.826e-06	3.8476e-06	433.53	144.13	124.52	42.412	3.8033e-06	52.668	69.197	-60.252	-70.890	-149.491	-61.645	6.772	-149.807	-145.153	-39.872	20.922	-145.698	-141.588	-141.084	-135.911	-42.071	-136.719	-8191	255	
6470.365	1	1	0	0	0.22986	0.07152	0.028376	0.1699	0.020513	0.12633	0.21819	0.2786	0.27566	0.17172	0.15097	0.26811	0.080009	0.13375	0.094683	0.23537	-2.1833	-2.2354	-1.9854	-2.8396	-1.9875	-2.3688	-2.7479	-2.2375	-2.6083	-2.4979	-2.1417	-2.7833	-2.0438	-2.3125	-2.4042	-1.9562	168.005	178.412	190.071	160.842	152.647	-105.776	183.562	1.084	-134.005	44.928	156.494	122.594	142.771	189.238	118.864	-143.116	0.0015302	0.00058862	0.00015359	1383	6.9777e-06	3.6344e-06	1368.9	374.75	8.0916e-06	5.0552e-06	428.46	142.55	124.41	41.561	5.754e-06	51.714	0.00037995	0.00035052	9.7153e-05	1393.2	3.9094e-06	3.7737e-06	1383.2	378.93	3.8963e-06	3.827e-06	433.27	144.14	124.94	42.417	3.8947e-06	52.746	67.392	-75.334	-99.168	-149.551	-85.329	19.924	-150.040	-145.117	-36.748	17.474	-145.513	-141.524	-141.031	-135.750	-27.751	-136.803	-8191	255	
6470.462	1	1	0	0	0.090609	0.35905	0.13892	0.24358	0.19723	0.14481	0.29955	0.25983	0.093788	0.20101	0.31072	0.17679	0.10479	0.26321	0.17043	0.098287	-2.0563	-2.4604	-1.8292	-2.75	-2.3042	-2.2042	-2.7771	-2.1312	-2.3208	-2.6292	-2.1625	-2.7917	-2.0229	-2.3	-2.4771	-2.2125	-49.761	-32.099	-45.625	164.217	-91.728	148.555	114.965	168.598	141.233	131.218	137.406	111.954	-127.540	-155.536	130.635	-149.302	0.0015618	0.00051403	0.00011561	1386.5	8.9681e-06	7.5748e-06	1367	375.13	1.6701e-06	4.9841e-06	428.69	142.18	124.39	41.608	4.8969e-06	51.778	0.00038151	0.00035831	9.9808e-05	1395	3.9591e-06	3.8947e-06	1382.1	379.8	3.9085e-06	3.8418e-06	433.52	144.18	124.95	42.443	3.8865e-06	52.707	71.520	-87.822	-70.125	-149.530	-56.650	-14.125	-149.704	-144.952	-82.622	-20.855	-145.559	-141.418	-141.136	-135.858	14.795	-136.456	-8191	255	
6470.558	1	1	0	0	0.024761	0.067915	0.059526	0.16328	0.20612	0.21401	0.16267	0.29364	0.16975	0.096188	0.23133	0.26494	0.17997	0.50802	0.20332	0.39784	-1.9292	-2.4042	-1.9125	-2.6958	-2.3146	-2.2583	-2.7146	-2.0667	-2.1979	-2.5	-2.1125	-2.5375	-2.3063	-1.8792	-2.6479	-2.0458	-88.633	124.442	118.786	114.648	144.403	-72.160	173.636	140.560	-138.595	-125.158	130.158	126.636	192.371	-155.873	4.284	161.352	0.0015286	0.00021229	0.00016536	1379.2	8.2308e-06	6.8297e-06	1369.6	374.23	5.1827e-06	5.4942e-06	427.03	142.36	123.48	41.422	5.6339e-06	51.554	0.00038506	0.00035806	9.9007e-05	1391.6	3.9587e-06	3.8897e-06	1381.9	379.19	3.9329e-06	3.8214e-06	432.37	144.18	124.43	42.328	3.8714e-06	52.619	66.847	-68.630	-80.664	-149.642	-63.228	-0.710	-149.728	-144.854	-66.642	16.919	-145.615	-141.666	-140.912	-136.077	-58.805	-136.422	-8191	255	
6470.654	1	1	0	0	0.23365	0.094526	0.12778	0.23919	0.13395	0.1781	0.20005	0.47872	0.24453	0.14028	0.21138	0.25521	0.30455	0.15694	0.087854	0.11523	-1.8521	-2.4813	-1.7771	-2.6083	-2.3458	-2.0208	-2.8187	-1.9979	-2.1521	-2.4917	-1.9729	-2.4083	-2.5479	-1.9771	-2.5563	-2.2625	91.687	-74.622	-115.686	153.727	-14.678	134.850	-155.635	135.424	-99.595	-3.214	172.175	126.902	-68.990	-55.134	137.268	138.538	0.0014104	0.00027351	0.00011358	1380.9	4.8967e-06	3.3549e-06	1367.1	374.83	9.0184e-06	3.2272e-06	428.36	142.73	123.87	41.641	4.5819e-06	51.586	0.00038267	0.00034748	9.797e-05	1391.5	3.9494e-06	3.8349e-06	1380.4	378.45	3.8834e-06	3.8149e-06	432.89	144.13	124.73	42.45	3.876e-06	52.729	70.473	-75.999	-36.711	-149.550	-52.511	-13.300	-149.936	-144.892	-61.234	-16.435	-145.577	-141.393	-141.093	-135.681	-45.354	-136.444	-8191	255	
6470.748	1	1	0	0	0.20589	0.14533	0.1809	0.20749	0.05425	0.12441	0.12682	0.27246	0.077731	0.18973	0.14551	0.26117	0.029981	0.099808	0.15526	0.077957	-1.5375	-2.6167	-1.9042	-2.6063	-2.4479	-1.8563	-2.5708	-2.2458	-1.9937	-2.5042	-2.0375	-2.3187	-2.4146	-2.0417	-2.575	-2.2625	-161.223	-143.323	120.630	168.566	-89.072	47.924	117.232	150.250	47.088	-8.890	-64.190	114.830	95.561	-107.644	64.668	-35.949	0.0015335	0.00042388	0.00011685	1377.3	4.0245e-06	4.2413e-06	1370.6	375.65	6.9777e-06	5.1388e-06	428.86	142.16	123.87	41.493	2.5945e-06	51.693	0.00038105	0.00035222	9.826e-05	1391.2	3.9084e-06	3.8588e-06	1380.8	379.52	3.9242e-06	3.8123e-06	432.94	143.84	124.75	42.295	3.871e-06	52.698	68.583	-94.029	-62.628	-149.488	-66.778	-44.975	-149.863	-145.105	-62.523	11.393	-145.721	-141.526	-140.988	-135.830	-37.720	-136.622	-8191	255	
6470.844	1	1	0	0	0.063979	0.034214	0.051589	0.034633	0.21918	0.096598	0.30209	0.19611	0.10531	0.045188	0.25654	0.23159	0.3653	0.13253	0.047111	0.19352	-1.6854	-2.575	-1.9792	-2.2917	-2.5542	-1.8042	-2.7229	-2.3271	-2.1042	-2.5687	-2.1729	-2.3271	-2.6167	-2.0125	-2.4833	-2.5104	10.728	-2.640	-118.749	117.662	89.792	60.310	119.121	159.932	162.524	113.569	139.127	104.520	115.404	-148.581	-25.959	153.132	0.0015448	0.0008636	0.00012465	1381.1	1.35e-06	3.3794e-06	1368.7	374.33	5.3079e-06	9.0681e-06	429.35	142.29	123.77	41.507	4.8095e-06	51.803	0.00037912	0.00035072	9.7317e-05	1393.6	3.839e-06	3.8169e-06	1380.8	378.98	3.8277e-06	3.7949e-06	433.24	143.93	124.57	42.332	3.8969e-06	52.636	68.046	-87.756	-73.072	-149.577	185.171	17.506	-149.957	-144.771	-0.402	23.398	-145.478	-141.458	-140.861	-135.546	-30.292	-136.850	-8191	255	
6470.965	1	1	0	0	0.039534	0.22628	0.11186	0.33962	0.18882	0.042455	0.15364	0.1409	0.24447	0.27397	0.24518	0.4309	0.31692	0.11537	0.24686	0.050912	-1.5708	-2.6583	-1.9771	-2.4229	-2.6688	-1.7167	-2.6375	-2.6104	-2.0458	-2.8667	-2.2833	-2.2729	-2.6292	-2.2812	-2.3667	-2.6688	-39.892	-4.735	23.089	150.851	-156.596	72.602	114.393	182.394	-84.491	-117.203	-159.482	-108.471	177.647	26.782	-49.485	13.896	0.0014644	0.00082471	0.00016991	1383.8	3.9293e-06	5.5094e-06	1374.1	374.52	6.9035e-06	5.2447e-06	428.18	142.54	123.8	41.623	6.0618e-06	51.615	0.00038367	0.00034842	9.8826e-05	1394.8	3.9091e-06	3.8402e-06	1384.7	379.64	3.8994e-06	3.8838e-06	433.39	144.25	124.88	42.466	3.8734e-06	52.695	74.430	-86.603	-64.174	-149.511	-102.348	-10.635	-149.872	-144.834	-59.018	-2.238	-145.621	-141.773	-141.325	-135.788	-28.525	-136.671	-8191	255	
6471.061	1	1	0	0	0.15077	0.18398	0.25141	0.059452	0.024486	0.19605	0.26425	0.20317	0.44819	0.038624	0.42874	0.16595	0.073647	0.22902	0.10544	0.24722	-1.575	-2.5583	-2.2125	-2.2625	-2.8187	-1.9146	-2.5542	-2.5854	-1.75	-2.5812	-2.4562	-2.1708	-2.6646	-2.1229	-2.3604	-2.6188	131.322	25.695	-14.974	105.669	136.333	171.813	130.256	140.218	15.584	-13.635	113.266	188.092	-132.200	22.244	-102.989	110.574	0.0014662	0.00076905	0.00012886	1386.8	7.4428e-06	6.6741e-06	1368.5	376	6.7318e-06	6.7078e-06	428.75	142	124.36	41.625	6.3253e-06	51.504	0.00038199	0.00035579	0.00010003	1395.4	3.8899e-06	3.8458e-06	1384.9	380.38	3.8847e-06	3.8319e-06	433.96	144.03	124.89	42.428	3.8164e-06	52.606	65.023	-66.131	-69.187	-149.673	-67.756	-17.470	-149.837	-144.854	-39.040	32.179	-145.542	-141.627	-140.964	-135.764	16.681	-136.477	-8191	255	
6471.157	1	1	0	0	0.27765	0.067165	0.11449	0.18306	0.075802	0.052684	0.1925	0.21474	0.051581	0.052417	0.35295	0.24216	0.24114	0.19928	0.10694	0.22988	-1.5	-2.5125	-2.2875	-2.1875	-2.6188	-2.0271	-2.5979	-2.7375	-2.0312	-2.6167	-2.5333	-2.0104	-2.7146	-2.1625	-2.2188	-2.5625	83.303	-95.250	147.552	185.982	77.476	-11.180	143.975	168.013	123.878	183.210	-161.442	111.646	186.999	130.316	92.101	-150.751	0.0016087	0.00070813	0.00013312	1384.3	7.0324e-06	4.8127e-06	1365.9	375.19	4.8453e-06	5.6776e-06	426.74	142	124.07	41.437	5.1311e-06	51.473	0.00038087	0.00034641	9.4915e-05	1395.7	3.7651e-06	3.7922e-06	1381.6	379.24	3.7722e-06	3.751e-06	432.23	143.63	124.36	42.272	3.7597e-06	52.508	71.451	-93.021	-41.367	-149.605	-70.082	-24.074	-149.779	-144.872	28.194	9.237	-145.512	-141.603	-140.925	-135.886	-61.483	-136.611	-8191	255	
6471.229	1	1	0	0	0.29007	0.078297	0.070043	0.2911	0.23703	0.16423	0.27034	0.21961	0.16079	0.22162	0.091167	0.22109	0.12392	0.09222	0.042278	0.12768	-1.5021	-2.3083	-2.3896	-2.1063	-2.6	-2.0771	-2.4188	-2.7771	-2.0208	-2.4271	-2.5563	-2.1458	-2.7625	-2.4083	-2.0812	-2.8104	-62.834	16.590	-113.440	138.107	5.972	71.285	110.708	-155.859	-48.928	190.711	-139.647	150.075	-109.572	111.489	-154.367	111.293	0.0013945	0.00035124	0.00013764	1381.1	4.0943e-06	2.667e-06	1364.5	374.01	8.7573e-06	4.8103e-06	427.77	141.8	123.27	41.575	5.171e-06	51.329	0.00037408	0.0003484	9.4059e-05	1389.3	3.7707e-06	3.7227e-06	1379.8	378.47	3.7298e-06	3.7621e-06	432	143.57	124.19	42.235	3.7855e-06	52.506	69.855	-70.885	-45.551	-149.684	-75.309	-31.876	-149.966	-145.021	0.315	-46.007	-145.354	-141.495	-141.140	-135.480	-38.715	-136.591	-8191	255	
6471.350	1	1	0	0	0.16654	0.17647	0.22682	0.36117	0.27969	0.08399	0.3414	0.21439	0.21063	0.29823	0.1349	0.22869	0.088523	0.055096	0.38746	0.31799	-1.5604	-2.3271	-2.3042	-2.1271	-2.5333	-2.2729	-2.2062	-2.7125	-1.9042	-2.3042	-2.5354	-1.9083	-2.5979	-2.5021	-2.0479	-2.7104	-11.837	-147.555	-90.976	192.327	192.590	-47.150	135.692	140.395	-64.558	94.223	101.555	140.508	42.382	-7.570	66.815	176.383	0.0016256	0.00033079	0.00010811	1376.6	4.1508e-06	4.472e-06	1366.2	374.4	7.834e-06	7.0676e-06	427.16	142.28	123.39	41.427	6.0584e-06	51.287	0.00037609	0.00034071	9.667e-05	1387.4	3.7692e-06	3.7285e-06	1379.2	378.42	3.8024e-06	3.7894e-06	431.34	143.58	123.93	42.171	3.8039e-06	52.518	66.018	-88.856	-48.979	-149.493	-94.719	-30.946	-149.978	-144.902	-54.175	18.348	-145.534	-141.614	-141.151	-135.590	-11.000	-136.437	-8191	255	
6471.446	1	1	0	0	0.31429	0.19771	0.047842	0.16477	0.2263	0.044787	0.15273	0.185	0.11557	0.15564	0.27687	0.10637	0.092721	0.045821	0.12889	0.16427	-1.7583	-2.3	-2.6437	-2.1292	-2.4021	-2.4354	-2.3875	-2.8312	-2.1188	-2.1125	-2.7687	-2.0854	-2.4875	-2.4604	-2.0333	-2.6354	-28.702	195.596	84.250	-128.060	-154.744	69.618	87.820	139.365	-61.678	115.141	166.672	126.093	-141.576	-50.704	107.203	68.083	0.0014458	0.00050742	0.00019478	1374	5.6931e-06	5.3056e-06	1364.5	372.71	8.8271e-06	5.3957e-06	427.06	140.98	122.75	41.465	5.7098e-06	51.386	0.00037409	0.00033627	9.323e-05	1384.6	3.7261e-06	3.739e-06	1374.8	376.93	3.7258e-06	3.7315e-06	431.37	142.84	123.76	42.072	3.7175e-06	52.396	66.515	-106.873	-61.117	-149.520	-58.245	2.341	-149.772	-144.744	-50.095	2.395	-145.470	-141.218	-141.062	-135.874	-11.811	-136.393	-8191	255	
6471.542	1	1	0	0	0.078017	0.32996	0.16559	0.22991	0.099482	0.16836	0.23725	0.20941	0.062044	0.15846	0.12792	0.13957	0.068317	0.093719	0.097115	0.15375	-1.5896	-1.8542	-2.5854	-2.2417	-2.2625	-2.5125	-2.0833	-2.6833	-2.2438	-2.0521	-2.5958	-2.1	-2.3333	-2.4792	-1.9312	-2.5833	16.204	89.654	1.675	191.460	-34.849	77.778	48.544	150.660	24.042	186.937	68.499	-160.872	175.620	24.526	148.046	-47.402	0.0014757	0.00075476	8.6823e-05	1370.4	4.1041e-06	8.3221e-06	1363.6	372.66	6.5416e-06	4.4335e-06	426.74	141.3	123.12	41.314	6.9259e-06	51.362	0.00036779	0.00033747	9.2448e-05	1382.6	3.7087e-06	3.6219e-06	1376	376.69	3.7397e-06	3.6969e-06	431.47	143.04	123.61	42.087	3.7675e-06	52.362	69.112	-87.698	-74.138	-149.490	-94.423	-36.009	-149.867	-145.059	-21.240	42.345	-145.410	-141.279	-141.058	-135.823	-5.714	-136.499	-8191	255	
6471.638	1	1	0	0	0.055489	0.14993	0.14643	0.26727	0.50242	0.18943	0.16087	0.33598	0.21735	0.075405	0.20922	0.4545	0.1286	0.16569	0.041845	0.16172	-1.8708	-1.9458	-2.6729	-2.175	-2.3583	-2.3458	-2.0875	-2.7313	-2.3979	-2	-2.7875	-2.3646	-2.2854	-2.7021	-1.8542	-2.4542	-154.452	155.390	103.841	133.421	108.204	83.275	135.467	171.992	-121.000	-9.097	79.440	75.490	-151.556	148.237	108.518	106.647	0.0016423	0.00070128	0.00011852	1371.9	4.5559e-06	4.9375e-06	1360.2	370.88	6.1721e-06	6.1745e-06	424.78	141.33	122.71	41.332	5.8626e-06	51.395	0.00036648	0.00034673	9.35e-05	1382.9	3.7029e-06	3.6475e-06	1372.6	375.88	3.7378e-06	3.7394e-06	429.77	142.83	123.46	42.016	3.721e-06	52.351	65.250	-85.494	-94.127	-149.686	-119.187	16.757	-149.803	-144.945	-36.919	-15.369	-145.224	-141.288	-141.090	-135.542	32.755	-136.762	-8191	255	
6471.734	1	1	0	0	0.18114	0.13879	0.079155	0.22633	0.23968	0.1283	0.14305	0.18027	0.14218	0.15698	0.09993	0.31887	0.011209	0.36528	0.024834	0.18695	-1.925	-1.8417	-2.6167	-2.2854	-2.3042	-2.6562	-2.2583	-2.5667	-2.475	-1.85	-2.9	-2.2417	-2.1625	-2.7438	-1.8146	-2.4437	54.900	-120.829	-120.722	41.200	-96.120	-125.914	70.627	-8.064	26.627	-23.102	-141.435	-115.163	182.592	156.229	93.771	86.327	0.0014238	0.00039853	0.00013461	1371.5	6.8151e-06	3.2702e-06	1359.9	372.09	9.3088e-06	1.0939e-05	426.9	140.94	123.23	41.377	5.2714e-06	51.302	0.00037155	0.00033794	9.4675e-05	1382.7	3.8002e-06	3.7395e-06	1372.1	376.09	3.7209e-06	3.7284e-06	430.82	143.04	123.72	42.144	3.6944e-06	52.354	73.142	-72.463	-69.797	-149.674	-78.099	-27.750	-149.917	-144.965	-57.861	-40.188	-145.565	-141.268	-141.278	-135.585	-65.027	-136.861	-8191	255	
6471.830	1	1	0	0	0.28457	0.16855	0.1993	0.23711	0.31348	0.065893	0.31573	0.27216	0.22758	0.16938	0.10799	0.16225	0.13433	0.3022	0.15587	0.15738	-2.1229	-1.8896	-2.4375	-2.3146	-2.1333	-2.6042	-2.2687	-2.225	-2.525	-2.0229	-2.7708	-2.3771	-1.9667	-2.8396	-2.2188	-2.225	60.402	63.995	113.349	150.200	-84.218	-60.440	138.755	112.662	-15.388	140.776	117.565	95.004	84.187	-158.945	130.610	-97.577	0.0013338	0.00056911	0.00016744	1373.8	7.075e-06	5.1113e-06	1358.5	371.1	7.2282e-06	3.4593e-06	426.18	141.82	122.68	41.328	6.2306e-06	51.065	0.00037086	0.00033575	9.2809e-05	1384.2	3.7869e-06	3.6339e-06	1372.8	376.19	3.7033e-06	3.6449e-06	430.41	142.96	123.53	42.059	3.71e-06	52.213	67.594	-86.043	-57.908	-149.657	-83.177	17.909	-149.957	-145.151	-59.654	46.672	-145.562	-141.844	-141.281	-135.974	-26.311	-136.641	-8191	255	
6471.926	1	1	0	0	0.13142	0.087547	0.10045	0.33295	0.12226	0.31388	0.3224	0.1865	0.036845	0.47353	0.3569	0.2102	0.044303	0.12637	0.10876	0.12968	-1.9354	-1.8958	-2.4125	-2.3625	-2.0042	-2.6688	-2.4604	-2.2354	-2.6688	-1.9208	-2.5542	-2.5625	-1.9771	-2.7542	-2.0917	-2.2021	14.687	117.055	-73.343	141.008	46.406	-122.785	83.606	162.041	-9.456	-147.069	-149.296	180.491	95.474	-142.261	-89.874	54.016	0.0014903	0.00080793	0.00025248	1371.9	8.5161e-06	1.7804e-06	1359.3	373.02	9.0693e-06	1.045e-05	426.89	141.13	122.57	41.229	3.037e-06	51.092	0.00036667	0.0003352	9.4845e-05	1384.5	3.7238e-06	3.718e-06	1372.3	376.48	3.701e-06	3.7021e-06	430.16	142.9	123.79	41.987	3.7893e-06	52.3	65.317	-91.316	-50.777	-149.630	-49.142	38.542	-149.982	-145.171	-28.086	34.329	-145.758	-141.644	-141.042	-135.926	4.311	-136.761	-8191	255	
6472.045	1	1	0	0	0.15438	0.077929	0.31968	0.39831	0.21245	0.18969	0.23253	0.35587	0.063892	0.12882	0.33777	0.18494	0.1604	0.17153	0.26889	0.21366	-2.1354	-1.8208	-2.4125	-2.6625	-1.875	-2.6688	-2.4813	-2.3083	-2.6188	-2.0125	-2.2833	-2.6229	-1.9854	-2.7021	-2.3917	-2.0875	73.087	-132.166	-156.909	105.236	-133.711	6.130	138.509	130.487	-94.688	-6.953	127.289	155.058	86.025	94.718	37.108	-48.373	0.0015609	0.00055771	0.00012844	1369.2	7.5728e-06	4.9651e-06	1358.3	372.21	7.0325e-06	6.5848e-06	427.04	141.43	123.28	41.284	5.1336e-06	51.294	0.00037657	0.00034539	9.5892e-05	1383.7	3.8674e-06	3.8239e-06	1374.3	376.9	3.8329e-06	3.7911e-06	430.56	143.25	124	42.146	3.8736e-06	52.383	68.854	-83.820	-82.858	-149.674	-45.521	-51.385	-149.935	-145.396	-67.916	-8.695	-145.763	-141.477	-141.166	-135.996	-17.485	-136.764	-8191	255	
6472.142	1	1	0	0	0.080469	0.13013	0.18768	0.26127	0.1705	0.19436	0.14412	0.17321	0.070297	0.16608	0.14172	0.17973	0.1802	0.10508	0.43652	0.1607	-2.2125	-1.9813	-2.075	-2.7333	-1.9167	-2.5125	-2.5479	-2.1104	-2.5792	-2.3187	-2.4083	-2.7417	-1.8875	-2.6042	-2.4396	-2.1333	-50.268	122.636	-97.620	161.615	-51.292	-141.130	145.886	166.678	-66.502	-32.903	54.698	52.619	101.133	-95.484	168.616	95.841	0.0013423	0.00034497	0.00014617	1376.7	4.7451e-06	7.3861e-06	1362.5	372.87	8.5407e-06	3.4571e-06	426.95	141.34	123.65	41.393	2.3386e-06	51.238	0.00037581	0.00035036	9.5834e-05	1387.3	3.8899e-06	3.8445e-06	1375.8	376.69	3.8479e-06	3.8198e-06	430.98	143.27	124	42.205	3.8716e-06	52.338	67.398	-76.145	-16.872	-149.426	-74.461	-11.850	-149.936	-145.116	-31.053	32.986	-145.850	-141.393	-141.270	-135.897	-27.623	-136.631	-8191	255	
6472.238	1	1	0	0	0.28828	0.38693	0.21441	0.13046	0.22549	0.051165	0.2602	0.17788	0.022515	0.2355	0.01751	0.22409	0.11784	0.28533	0.028813	0.13876	-2.3708	-2.1625	-2.125	-2.6354	-2.0208	-2.3375	-2.5542	-2.1583	-2.6146	-2.0771	-2.1646	-2.6937	-2.0792	-2.4333	-2.4354	-1.9521	77.228	172.212	-113.915	170.332	-92.713	46.111	120.917	110.289	87.711	156.968	-36.630	156.795	165.868	184.638	43.491	91.266	0.0015379	0.00027573	0.00021416	1371	2.0803e-06	4.7084e-06	1361.6	372.12	7.2812e-06	4.0693e-06	426.8	141.93	123.18	41.447	7.0181e-06	51.268	0.00037786	0.00034436	9.7211e-05	1383.7	3.8104e-06	3.8004e-06	1373.6	376.44	3.8802e-06	3.773e-06	430.53	143.39	123.88	42.104	3.7732e-06	52.362	70.509	-82.273	-73.439	-149.499	-69.626	-41.929	-149.820	-145.128	-44.826	45.246	-145.516	-141.693	-141.026	-135.816	-10.893	-136.670	-8191	255	
6472.334	1	1	0	0	0.089071	0.045039	0.016992	0.11965	0.23796	0.099884	0.23635	0.38654	0.064848	0.094017	0.082796	0.43828	0.12409	0.15915	0.12807	0.16737	-2.2583	-2.1917	-1.9188	-2.9125	-2.0771	-2.3104	-2.7	-2.0292	-2.6417	-2.2979	-2.1208	-2.8375	-2.0979	-2.3125	-2.4958	-2.1188	-17.965	47.920	-143.431	-99.635	76.089	-61.074	102.963	134.339	149.697	110.261	196.764	142.731	-98.476	146.868	131.943	139.319	0.0014181	0.00049693	0.00016622	1375.1	7.0326e-06	4.4344e-06	1361.3	371.75	7.1751e-06	8.37e-06	425.55	141.17	122.44	41.389	4.6336e-06	51.24	0.00038439	0.00034384	9.7353e-05	1385.1	3.8453e-06	3.817e-06	1373.7	376.24	3.8567e-06	3.8085e-06	430.46	143.03	123.33	42.087	3.7526e-06	52.344	65.242	-94.576	-49.841	-149.441	-63.166	-20.475	-149.893	-145.074	-10.585	26.018	-145.563	-141.507	-141.121	-135.910	-35.610	-136.794	-8191	255	
6472.454	1	1	0	0	0.062508	0.043562	0.2201	0.20283	0.15471	0.12204	0.18141	0.22981	0.12131	0.14439	0.28571	0.15727	0.013673	0.14294	0.11436	0.36306	-2.2979	-2.3458	-2.0667	-2.6917	-2.1208	-2.2687	-2.8396	-1.9562	-2.6042	-2.5083	-2.0979	-2.8375	-2.1979	-2.0729	-2.5542	-2.0354	176.323	-49.544	-155.790	109.162	166.795	89.595	60.298	80.754	94.118	14.974	161.191	-139.291	-14.427	182.431	-46.579	80.478	0.0015371	0.00061076	0.00018213	1369.8	6.3139e-06	5.0808e-06	1356.1	371.33	7.2599e-06	2.5916e-06	426.69	141.1	122.66	41.289	3.5204e-06	51.21	0.00037384	0.00034005	9.4287e-05	1380.5	3.796e-06	3.7179e-06	1372.9	375.46	3.7553e-06	3.7602e-06	430.5	142.83	123.35	42.074	3.7246e-06	52.286	69.092	-112.040	-75.228	-149.512	-39.969	0.507	-149.719	-144.963	14.564	-12.290	-145.306	-141.391	-141.553	-135.847	-56.516	-136.673	-8191	255	
6472.526	1	1	0	0	0.053278	0.032839	0.44644	0.21414	0.15598	0.19323	0.17948	0.3397	0.025133	0.36558	0.25735	0.077043	0.26695	0.27679	0.15354	0.14662	-1.9875	-2.5229	-1.9875	-2.8312	-2.0438	-2.2042	-2.7271	-2.1083	-2.4146	-2.3167	-1.9958	-2.7521	-2.2438	-1.9229	-2.5917	-2.1292	109.982	17.971	78.743	173.295	-99.213	109.417	119.919	140.635	-19.819	26.586	154.897	-105.089	-25.857	130.167	19.644	141.052	0.0015082	0.00031305	0.00019326	1374.2	6.1508e-06	6.923e-06	1357.8	370.91	5.4883e-06	5.0674e-06	424.4	141.51	122.58	41.33	3.011e-06	51.295	0.000371	0.00033846	9.57e-05	1382.7	3.8008e-06	3.8028e-06	1374.3	375.88	3.7732e-06	3.8665e-06	429.53	143.15	123.48	42.096	3.8454e-06	52.351	69.328	-44.288	-70.834	-149.586	-25.729	-6.528	-149.640	-145.133	9.184	-16.166	-145.353	-141.154	-140.996	-135.861	-35.587	-136.542	-8191	255	
6472.647	1	1	0	0	0.20196	0.17288	0.27044	0.18202	0.18425	0.066525	0.085876	0.24845	0.31395	0.088716	0.35014	0.19944	0.20817	0.078968	0.17844	0.29921	-1.7229	-2.3792	-1.7604	-2.5812	-2.3438	-2.0521	-2.9042	-2.1917	-2.2771	-2.5417	-1.9458	-2.5708	-2.5271	-1.9417	-2.6688	-2.2521	137.628	32.026	-64.738	163.288	101.744	167.656	138.530	174.175	1.107	-139.360	-162.704	154.860	175.373	146.513	14.204	119.466	0.0015074	0.00056103	0.00016089	1371.3	7.8077e-06	4.9982e-06	1360.1	372.52	6.7617e-06	4.4845e-06	425.68	140.93	122.78	41.286	5.6353e-06	51.209	0.00037368	0.00034383	9.6526e-05	1383.8	3.8675e-06	3.7207e-06	1374.2	376.43	3.8149e-06	3.7085e-06	429.97	142.93	123.7	42.137	3.8033e-06	52.324	67.581	-78.967	-90.876	-150.153	-91.736	-33.018	-149.723	-145.126	-58.450	1.409	-145.371	-141.247	-140.725	-135.884	-30.161	-136.509	-8191	255	
6472.741	1	1	0	0	0.071244	0.1109	0.13104	0.25511	0.34	0.21217	0.14045	0.20712	0.33729	0.1322	0.1234	0.19181	0.257	0.1845	0.21863	0.30497	-1.6521	-2.5521	-1.8521	-2.4771	-2.35	-1.9312	-2.7542	-2.2583	-2.0625	-2.6625	-2.1562	-2.4854	-2.7083	-2.1292	-2.6333	-2.4917	39.138	-98.871	-128.152	93.628	73.209	114.271	118.334	116.517	103.494	98.533	115.691	122.466	-86.107	94.799	-3.367	171.800	0.0015338	0.00031819	0.0001448	1374.5	4.6797e-06	4.5066e-06	1365.9	372.94	4.8852e-06	5.2274e-06	425.83	140.85	122.46	41.354	3.0922e-06	51.325	0.00038059	0.0003425	9.4408e-05	1384.5	3.7932e-06	3.779e-06	1376.3	376.61	3.8452e-06	3.7515e-06	430.31	143.09	123.65	42.118	3.7737e-06	52.382	68.570	-55.894	-77.807	-149.442	-78.439	-4.056	-149.832	-145.031	-50.817	-11.642	-145.614	-141.436	-141.082	-135.763	-10.007	-136.390	-8191	255	
6472.837	1	1	0	0	0.051002	0.15225	0.015634	0.17434	0.04697	0.080753	0.32889	0.15878	0.27366	0.067726	0.3337	0.30038	0.10784	0.21679	0.14763	0.23842	-1.7458	-2.6125	-2.15	-2.7396	-2.4688	-1.9312	-2.8563	-2.6	-1.9917	-2.7229	-2.0875	-2.4604	-2.7562	-1.9271	-2.4917	-2.5833	193.902	33.121	88.060	163.857	143.871	46.565	115.436	-26.185	-75.792	170.496	122.806	167.642	163.906	142.987	9.801	172.017	0.0015379	0.0003093	0.00011989	1374.4	7.4201e-06	3.4622e-06	1361.3	372.27	6.9203e-06	3.146e-06	428.55	141.09	123.02	41.231	2.2756e-06	51.253	0.000375	0.00034114	9.3466e-05	1385.5	3.8302e-06	3.714e-06	1375.7	376.73	3.7702e-06	3.7485e-06	431.25	143.27	123.84	42.071	3.7697e-06	52.345	70.860	-120.207	-67.833	-149.748	-73.049	-18.999	-149.857	-144.894	3.634	-10.582	-145.398	-141.204	-140.985	-135.761	19.125	-136.429	-8191	255	
6472.933	1	1	0	0	0.33668	0.15761	0.072139	0.26427	0.19654	0.090422	0.375	0.24162	0.19293	0.064377	0.12304	0.30225	0.20597	0.12183	0.021972	0.048259	-1.7437	-2.6354	-2.0563	-2.475	-2.5396	-2.0792	-2.4521	-2.65	-2.0812	-2.8021	-2.2313	-2.3979	-2.6792	-1.9604	-2.3937	-2.5375	143.904	100.041	-9.708	-132.303	152.713	-20.784	153.028	134.962	-154.330	97.240	-160.305	-144.166	90.326	89.200	63.111	-151.810	0.0016047	0.00039395	8.7996e-05	1374.1	8.8754e-06	5.9142e-06	1363	372.04	7.3154e-06	6.1062e-06	426.18	141.17	122.96	41.325	5.8076e-06	51.227	0.00037263	0.000341	9.6626e-05	1386	3.775e-06	3.7608e-06	1376.7	376.81	3.8538e-06	3.7734e-06	430.52	143	123.78	42.084	3.8631e-06	52.26	64.489	-105.640	-98.674	-149.456	-95.985	-17.052	-149.840	-144.987	-25.107	-17.872	-145.176	-141.611	-140.842	-135.762	-57.154	-136.300	-8191	255	
6473.054	1	1	0	0	0.2499	0.36064	0.21761	0.05311	0.099173	0.17704	0.28368	0.15334	0.24119	0.18102	0.34775	0.11353	0.078724	0.2381	0.15602	0.20263	-1.4104	-2.5896	-2.1646	-2.3708	-2.7438	-2.2188	-2.6896	-2.5271	-2.0708	-2.7458	-2.525	-2.1021	-2.6354	-2.2021	-2.5333	-2.5542	-135.272	-28.479	42.394	67.376	-11.472	82.799	105.266	171.617	-103.122	-113.840	151.027	-34.515	-92.415	194.475	146.962	149.453	0.0014193	0.0005077	0.00013556	1374	4.5798e-06	3.3615e-06	1356.5	371.16	7.4019e-06	7.0174e-06	424.94	140.87	123.27	41.095	3.625e-06	51.041	0.00036955	0.00034872	9.6893e-05	1383.8	3.8547e-06	3.8253e-06	1372.5	375.8	3.87e-06	3.8394e-06	429.75	142.8	123.6	41.982	3.7945e-06	52.178	71.580	-94.052	-82.207	-149.195	-78.154	-55.533	-149.651	-144.895	-41.193	5.570	-145.505	-141.373	-140.728	-135.768	-40.299	-136.224	-8191	255	
6473.126	1	1	0	0	0.27037	0.18021	0.084971	0.16504	0.18918	0.14431	0.24196	0.13378	0.17072	0.11072	0.43551	0.19845	0.096145	0.18499	0.11036	0.16536	-1.6125	-2.425	-2.1104	-2.2229	-2.7208	-2.1937	-2.6063	-2.7979	-1.9771	-2.6896	-2.4979	-2.2	-2.5875	-2.3312	-2.1958	-2.8625	24.719	-92.301	-92.709	186.307	-155.991	62.033	194.921	165.098	-103.477	91.045	127.625	-86.478	-62.550	124.454	-78.211	-24.652	0.0017036	0.0005848	0.00017855	1376.7	7.5472e-06	1.8081e-06	1362.9	370.79	7.5456e-06	7.4308e-06	424.14	141.56	122.36	41.291	4.6256e-06	51.279	0.00037484	0.00034776	9.671e-05	1382.6	3.7797e-06	3.7236e-06	1374.8	375.95	3.7915e-06	3.7401e-06	429.56	142.8	123.59	42.019	3.7863e-06	52.262	72.337	-87.905	-41.679	-149.499	-61.726	-61.583	-149.810	-144.915	-66.603	-31.237	-145.353	-141.330	-140.832	-135.627	-0.243	-136.612	-8191	255	
6473.222	1	1	0	0	0.16412	0.11259	0.057349	0.27242	0.06167	0.23287	0.13717	0.26785	0.15509	0.29003	0.0064199	0.11017	0.19057	0.21244	0.19413	0.13802	-1.5063	-2.3563	-2.3833	-2.1146	-2.5583	-2.2146	-2.4854	-2.8708	-1.7437	-2.4479	-2.4979	-2.0833	-2.475	-2.2458	-2.1604	-2.6083	48.419	96.229	-37.128	193.354	85.494	-16.181	-152.623	-112.382	146.733	-5.714	-34.276	-108.600	145.928	159.191	-17.966	-58.942	0.0015461	0.00064644	0.00025608	1368.5	9.815e-06	4.6429e-06	1357.8	372.75	1.0895e-05	1.636e-06	425.28	141.35	123.6	41.337	3.5637e-06	51.204	0.00037543	0.0003451	9.5444e-05	1381.7	3.8154e-06	3.7738e-06	1371.6	376.33	3.8638e-06	3.7838e-06	429.41	142.85	123.75	42.063	3.8192e-06	52.252	73.376	-107.197	-70.049	-149.792	-80.447	-23.745	-149.708	-144.804	-40.379	40.056	-145.316	-141.344	-141.000	-135.815	2.151	-136.350	-8191	255	
6473.318	1	1	0	0	0.36262	0.33193	0.22133	0.20579	0.2911	0.092528	0.14578	0.28875	0.088602	0.13534	0.24489	0.19347	0.16661	0.1409	0.18935	0.16014	-1.5042	-2.3646	-2.3646	-2.1354	-2.3979	-2.3667	-2.2812	-2.7854	-2.0479	-2.0167	-2.6583	-2.0417	-2.6021	-2.4	-1.9646	-2.675	48.507	-141.546	68.031	187.601	150.461	-28.098	81.108	87.191	32.213	155.474	37.225	115.047	165.178	-112.674	97.204	46.148	0.0014737	0.00055633	0.00013772	1373.6	4.4e-06	4.4473e-06	1363	372.72	5.1995e-06	3.6423e-06	426.52	140.87	123.07	41.319	5.3889e-06	51.271	0.0003783	0.00034273	9.5444e-05	1383.7	3.7095e-06	3.765e-06	1373.9	376.54	3.8121e-06	3.7961e-06	430.2	142.71	123.45	42.042	3.777e-06	52.278	68.888	-53.804	-100.833	-149.538	-19.443	-42.270	-149.942	-144.843	-60.068	28.575	-145.282	-141.441	-141.225	-135.854	-31.147	-136.372	-8191	255	
6473.414	1	1	0	0	0.16782	0.10343	0.065202	0.18316	0.064589	0.11845	0.26498	0.24276	0.14013	0.094309	0.11606	0.24158	0.054596	0.055696	0.17332	0.30461	-1.6667	-2.1917	-2.6146	-2.3021	-2.6104	-2.3604	-2.1604	-2.8521	-2.0646	-2.1479	-2.5083	-2.0917	-2.3958	-2.5375	-1.9396	-2.5521	-155.229	-10.417	-15.303	166.610	169.019	124.229	162.060	164.565	-47.041	-79.998	150.143	75.298	-113.116	156.338	-67.433	143.495	0.0015196	0.00042255	0.00011167	1369.6	3.9228e-06	2.6467e-06	1364.9	372.85	7.0093e-06	6.2526e-06	423.98	141.04	122.86	41.294	6.288e-06	51.492	0.00036802	0.00034312	9.5089e-05	1382.8	3.7399e-06	3.7322e-06	1375	376.22	3.827e-06	3.7244e-06	429.46	142.85	123.7	42.053	3.8252e-06	52.35	65.741	-66.164	-59.482	-149.651	-138.110	19.475	-149.893	-144.853	-38.297	-19.402	-146.477	-141.930	-141.250	-135.906	7.269	-136.188	-8191	255	
6473.535	1	1	0	0	0.11755	0.18475	0.25511	0.17386	0.0017945	0.068452	0.37478	0.045511	0.1294	0.035954	0.30895	0.16642	0.23838	0.30703	0.09418	0.41534	-1.7208	-2.2125	-2.6042	-2.1625	-2.3417	-2.6458	-2.2792	-2.7125	-2.3021	-2.0563	-2.7313	-2.15	-2.4729	-2.6	-1.9958	-2.6917	96.294	-58.242	15.673	153.087	180.000	159.657	115.932	137.670	-17.545	115.814	184.668	35.638	135.844	133.604	191.458	52.880	0.0015254	0.00058303	8.0489e-05	1373	6.2397e-06	2.9194e-06	1355.9	372.01	7.3277e-06	6.2966e-06	425.58	141.45	123.31	41.326	5.5337e-06	51.33	0.00036265	0.00034528	9.6222e-05	1382.7	3.7805e-06	3.7053e-06	1373.4	376.38	3.773e-06	3.7646e-06	430.86	142.98	123.6	42.135	3.7798e-06	52.37	69.987	-106.323	-74.689	-149.578	-49.938	-26.318	-149.729	-144.751	-54.931	-6.578	-145.537	-141.635	-140.788	-135.572	-11.902	-136.535	-8191	255	
6473.631	1	1	0	0	0.044142	0.23968	0.061508	0.50746	0.041885	0.16441	0.30684	0.21772	0.12682	0.17585	0.22024	0.15327	0.22829	0.13068	0.24912	0.34264	-1.8563	-2.0708	-2.7792	-2.2	-2.3896	-2.4979	-2.3417	-2.7083	-2.4104	-1.975	-2.9271	-2.1562	-2.325	-2.7854	-2.0021	-2.525	-1.533	-132.239	178.998	-149.764	66.835	-125.899	-144.554	97.862	-129.129	-73.208	-124.526	-111.419	-130.171	-140.601	57.390	125.026	0.001519	0.00040908	0.00013748	1372.2	5.669e-06	8.5809e-07	1357.7	372.22	8.2566e-06	7.1171e-06	426.84	140.81	123.19	41.211	1.934e-06	51.264	0.0003789	0.00034942	9.7606e-05	1384.5	3.7883e-06	3.7554e-06	1373.3	376.69	3.8145e-06	3.7319e-06	430.57	142.89	123.67	42.034	3.8033e-06	52.341	64.722	-77.022	-64.903	-149.322	-30.505	142.433	-149.853	-144.880	-22.442	44.200	-145.242	-141.543	-141.143	-135.742	-102.899	-136.474	-8191	255	
6473.727	1	1	0	0	0.15523	0.03968	0.24152	0.25356	0.32587	0.11203	0.2418	0.20641	0.23876	0.13604	0.25782	0.18921	0.11758	0.35662	0.039516	0.24673	-1.9896	-1.9208	-2.6875	-2.4146	-2.2083	-2.5854	-2.2	-2.5812	-2.6625	-2.1125	-2.825	-2.2562	-2.1292	-2.7271	-1.7875	-2.5229	-6.363	-104.355	-7.114	168.627	-124.272	31.887	135.023	153.366	-89.732	46.755	-154.899	150.039	21.002	168.647	11.652	90.281	0.0014831	0.00051455	0.00010927	1378.6	1.0848e-05	5.6611e-06	1358.3	372.83	5.4346e-06	4.5975e-06	425.96	141.48	122.59	41.293	5.16e-06	51.026	0.00037065	0.00035045	9.6143e-05	1386.3	3.8733e-06	3.8113e-06	1373.1	376.37	3.8494e-06	3.7761e-06	430.28	143.04	123.65	42.061	3.8083e-06	52.292	69.620	-74.526	-42.191	-149.592	-77.993	-23.147	-149.777	-145.015	-46.200	17.708	-145.282	-141.475	-140.941	-135.652	-34.570	-136.666	-8191	255	
6473.823	1	1	0	0	0.014587	0.2423	0.078888	0.12869	0.21764	0.1458	0.19957	0.26259	0.073172	0.16466	0.28689	0.15943	0.21909	0.26294	0.072531	0.065454	-1.975	-1.9208	-2.8354	-2.3021	-2.2271	-2.7667	-2.4042	-2.475	-2.3458	-2.0333	-2.7729	-2.3375	-2.025	-2.5208	-2.075	-2.55	-160.962	-126.796	-36.273	-144.817	-108.087	100.394	126.485	99.648	79.568	163.804	-147.416	122.978	175.795	86.328	188.592	151.960	0.0015197	0.00049085	0.00025216	1378.1	6.582e-06	6.0427e-06	1356.1	371.87	4.272e-06	6.2689e-06	425.34	140.53	122.99	41.344	5.9177e-06	51.259	0.00037746	0.0003494	9.6379e-05	1386.1	3.826e-06	3.8471e-06	1372.3	376.53	3.7884e-06	3.7628e-06	430.52	142.98	123.74	42.053	3.78e-06	52.267	63.947	-83.313	-48.683	-149.380	-47.500	-17.283	-149.693	-144.659	-27.924	2.874	-146.562	-142.472	-141.475	-136.320	3.434	-136.972	-8191	255	
6473.918	1	1	0	0	0.054585	0.070777	0.19575	0.33029	0.24852	0.13422	0.40745	0.16586	0.10634	0.28968	0.20625	0.19506	0.24269	0.16078	0.1457	0.20541	-2.1542	-2.025	-2.2667	-2.5771	-2.0646	-2.6896	-2.2771	-2.3271	-2.6437	-2.0021	-2.5792	-2.6083	-2.0146	-2.675	-2.1729	-2.1354	-81.754	-101.468	59.932	187.093	71.224	8.330	78.182	-156.975	11.793	85.404	159.081	119.852	113.582	118.102	-122.550	100.183	0.0015219	0.00057	0.00014613	1369.5	4.8271e-06	4.2352e-06	1363.8	371.69	9.4914e-06	5.3987e-06	423.64	140.41	122.48	41.306	4.3322e-06	51.035	0.00037386	0.00034589	9.4542e-05	1381.1	3.8701e-06	3.7295e-06	1373	375.75	3.7282e-06	3.7741e-06	429.85	142.46	123.25	42.002	3.76e-06	52.179	68.754	-107.713	-59.911	-149.658	-51.839	-25.677	-149.559	-144.484	-17.381	46.336	-144.891	-141.630	-141.601	-136.061	-10.006	-136.419	-8191	255	
6474.016	1	1	0	0	0.47616	0.070389	0.12883	0.21647	0.35426	0.073763	0.48323	0.31156	0.096452	0.05403	0.23298	0.22478	0.13084	0.23631	0.063113	0.31769	-2.1708	-1.9583	-2.4729	-2.4271	-1.9417	-2.6021	-2.5021	-2.4	-2.5875	-1.9479	-2.4688	-2.7	-1.9	-2.8312	-2.2875	-2.125	195.995	-123.214	-103.879	150.347	165.048	-70.526	138.858	106.866	144.154	52.648	-120.682	75.481	-139.607	159.075	-15.915	-142.057	0.001491	0.00044559	0.0001832	1372.7	5.0876e-06	4.1246e-06	1361.5	373.08	9.411e-06	7.5718e-06	424.34	141.5	122.7	41.221	4.6026e-06	51.23	0.00037102	0.00034304	9.5274e-05	1382.3	3.8152e-06	3.7017e-06	1373.2	376.25	3.7451e-06	3.7316e-06	429.4	142.88	123.32	41.982	3.7682e-06	52.253	66.357	-70.438	-57.981	-149.226	-73.570	-34.502	-149.710	-144.759	-40.943	-26.911	-145.208	-141.156	-140.874	-135.597	-59.278	-136.559	-8191	255	
6474.134	1	1	0	0	0.22586	0.20976	0.11485	0.35584	0.042491	0.20718	0.24166	0.10547	0.15578	0.12057	0.13837	0.21611	0.13895	0.10728	0.15962	0.013342	-2.3604	-1.8937	-2.125	-2.6521	-2.0312	-2.55	-2.5479	-2.1479	-2.6125	-1.9562	-2.3458	-2.5958	-1.9813	-2.6354	-2.2646	-2.1917	12.323	79.254	132.444	151.653	-112.789	58.321	114.001	160.070	67.402	169.140	163.632	-149.608	123.443	-1.283	118.844	170.671	0.001435	0.00040392	9.6926e-05	1373.6	8.3358e-06	3.3196e-06	1361.8	371.4	8.1365e-06	6.596e-06	424.53	140.69	122.73	41.225	3.0147e-06	51.383	0.00037476	0.00034025	9.6066e-05	1383.9	3.8248e-06	3.7404e-06	1372.2	375.91	3.772e-06	3.7868e-06	428.95	142.59	123.32	42.075	3.7765e-06	52.3	70.087	-55.037	-94.587	-149.287	-51.618	-26.844	-149.523	-144.799	-39.797	-10.121	-145.691	-141.409	-140.714	-135.702	-5.835	-136.678	-8191	255	
6474.231	1	1	0	0	0.12645	0.089983	0.144	0.20151	0.078101	0.090388	0.13238	0.21815	0.11272	0.053672	0.11695	0.17101	0.079754	0.25139	0.29251	0.19089	-2.2833	-2.0021	-2.2125	-2.7979	-1.8583	-2.5771	-2.5583	-2.1	-2.6229	-2.1458	-2.1896	-2.8146	-1.8271	-2.35	-2.4313	-2.1458	50.467	179.421	179.768	139.898	157.375	8.329	113.768	150.058	73.000	-157.601	-135.245	91.934	-127.029	171.669	85.838	183.022	0.0016841	0.00069958	0.00019096	1370.4	4.557e-06	4.4405e-06	1359.5	371.94	1.1406e-05	3.9865e-06	424.83	141.27	122.18	41.298	5.2109e-06	51.241	0.00037121	0.00034656	9.4961e-05	1380.8	3.6922e-06	3.7111e-06	1371.7	375.44	3.7619e-06	3.7365e-06	429.24	142.88	123.27	41.967	3.7669e-06	52.233	70.657	-114.843	-72.688	-149.578	-70.496	-36.304	-149.827	-145.060	-33.810	36.213	-145.657	-141.306	-141.133	-136.058	-56.231	-136.533	-8191	255	
6474.327	1	1	0	0	0.1682	0.068148	0.10332	0.014808	0.40042	0.086592	0.21619	0.21862	0.13236	0.1504	0.056375	0.32724	0.20544	0.14429	0.098712	0.36998	-2.2667	-2.1042	-2.0563	-2.7292	-2.0542	-2.5542	-2.8396	-2.0583	-2.6312	-2.4417	-2.2958	-2.7062	-1.9375	-2.5208	-2.3521	-2.0812	-137.024	51.564	73.352	56.115	55.883	124.240	-153.655	154.271	-161.260	-162.607	-129.817	193.575	-152.437	187.329	-153.791	108.981	0.001465	0.00040006	8.6233e-05	1369.6	8.2939e-07	6.489e-06	1355.8	371.73	6.8893e-06	5.1751e-06	424.89	141.03	122.42	41.263	7.0262e-06	51.263	0.00036998	0.00034753	9.6598e-05	1381.5	3.8083e-06	3.7407e-06	1369.9	375.53	3.7992e-06	3.7744e-06	429.43	142.92	123.46	41.999	3.7707e-06	52.151	66.786	-54.939	-45.152	-149.195	-124.482	-22.546	-149.573	-145.475	-27.604	19.908	-145.096	-141.048	-140.565	-135.613	7.167	-136.247	-8191	255	
6474.423	1	1	0	0	0.162	0.093481	0.094658	0.36938	0.17902	0.15116	0.030211	0.39554	0.12397	0.047852	0.11836	0.15731	0.32598	0.083937	0.16687	0.095623	-1.8542	-2.2667	-2.0083	-2.7958	-2.1042	-2.4625	-2.8208	-2.2167	-2.6271	-2.3688	-2.1125	-2.7292	-2.0917	-2.3	-2.8063	-1.9625	141.087	26.410	196.170	179.060	73.721	58.638	-74.725	126.771	15.355	167.066	52.737	-111.000	142.776	59.863	67.431	-86.300	0.0015134	0.0003777	0.00014839	1371	4.9822e-06	6.5191e-06	1357.6	371.4	1.1177e-05	6.7394e-06	425.73	140.86	122.67	41.098	6.792e-06	51.106	0.00036976	0.0003423	9.4711e-05	1381.6	3.8047e-06	3.7235e-06	1371.1	375.63	3.7748e-06	3.7241e-06	429.01	142.92	123.35	41.908	3.7097e-06	52.1	69.712	-31.865	-71.553	-149.140	-82.695	-2.541	-149.325	-144.589	-49.879	18.562	-145.328	-141.168	-140.543	-135.737	-34.557	-136.351	-8191	255	
#DATA ENDS
