BOXY.EXE: ISS Imagent and Oximeter Data Acquisition Program Version 0.80
Ascii Record File

#ACQ INFORMATION
2  Detector Channels 
16  External MUX Channels 
1  Auxiliary Channels 
5000  Waveform (CCF) Frequency (Hz)
1  Waveforms Skipped 
30  Waveforms Averaged 
1  Cycles Averaged 
16  Acquisitions per Waveform 
10.0806  Updata Rate (Hz) 

#FILE INFORMATION
TRUE -- External MUX Channel results are PARSED.
FALSE -- AC DC and Phase are NOT grouped.
TRUE -- Companion Program Settings File CREATED.
FALSE -- AC data not excluded
FALSE -- DC data not excluded
FALSE -- Phase data not excluded
FALSE -- Auxillary Chn. data not excluded
Tab delimiters

#CALIBRATION STATE
TRUE -- Waveform Calibration Values APPLIED.


#AUX CALIBRATION VALUES
Val Type	aux-1	

Term	1.0000e+00	
Factor	0.0000e+00	


#WF CALIBRATION VALUES
A = Detector Channel
Val Type	A-AC1	A-AC2	A-AC3	A-AC4	A-AC5	A-AC6	A-AC7	A-AC8	A-AC9	A-AC10	A-AC11	A-AC12	A-AC13	A-AC14	A-AC15	A-AC16	A-DC1	A-DC2	A-DC3	A-DC4	A-DC5	A-DC6	A-DC7	A-DC8	A-DC9	A-DC10	A-DC11	A-DC12	A-DC13	A-DC14	A-DC15	A-DC16	A-Ph1	A-Ph2	A-Ph3	A-Ph4	A-Ph5	A-Ph6	A-Ph7	A-Ph8	A-Ph9	A-Ph10	A-Ph11	A-Ph12	A-Ph13	A-Ph14	A-Ph15	A-Ph16	

Term	0.00000e+00	0.00000e+00	0.00000e+00	0.00000e+00	0.00000e+00	0.00000e+00	0.00000e+00	0.00000e+00	0.00000e+00	0.00000e+00	0.00000e+00	0.00000e+00	0.00000e+00	0.00000e+00	0.00000e+00	0.00000e+00	0.00000e+00	0.00000e+00	0.00000e+00	0.00000e+00	0.00000e+00	0.00000e+00	0.00000e+00	0.00000e+00	0.00000e+00	0.00000e+00	0.00000e+00	0.00000e+00	0.00000e+00	0.00000e+00	0.00000e+00	0.00000e+00	0.00000e+00	0.00000e+00	0.00000e+00	0.00000e+00	0.00000e+00	0.00000e+00	0.00000e+00	0.00000e+00	0.00000e+00	0.00000e+00	0.00000e+00	0.00000e+00	0.00000e+00	0.00000e+00	0.00000e+00	0.00000e+00	
Factor	1.00000e+00	1.00000e+00	1.00000e+00	1.00000e+00	1.00000e+00	1.00000e+00	1.00000e+00	1.00000e+00	1.00000e+00	1.00000e+00	1.00000e+00	1.00000e+00	1.00000e+00	1.00000e+00	1.00000e+00	1.00000e+00	1.00000e+00	1.00000e+00	1.00000e+00	1.00000e+00	1.00000e+00	1.00000e+00	1.00000e+00	1.00000e+00	1.00000e+00	1.00000e+00	1.00000e+00	1.00000e+00	1.00000e+00	1.00000e+00	1.00000e+00	1.00000e+00	X	X	X	X	X	X	X	X	X	X	X	X	X	X	X	X	

B = Detector Channel
Val Type	B-AC1	B-AC2	B-AC3	B-AC4	B-AC5	B-AC6	B-AC7	B-AC8	B-AC9	B-AC10	B-AC11	B-AC12	B-AC13	B-AC14	B-AC15	B-AC16	B-DC1	B-DC2	B-DC3	B-DC4	B-DC5	B-DC6	B-DC7	B-DC8	B-DC9	B-DC10	B-DC11	B-DC12	B-DC13	B-DC14	B-DC15	B-DC16	B-Ph1	B-Ph2	B-Ph3	B-Ph4	B-Ph5	B-Ph6	B-Ph7	B-Ph8	B-Ph9	B-Ph10	B-Ph11	B-Ph12	B-Ph13	B-Ph14	B-Ph15	B-Ph16	

Term	0.00000e+00	0.00000e+00	0.00000e+00	0.00000e+00	0.00000e+00	0.00000e+00	0.00000e+00	0.00000e+00	0.00000e+00	0.00000e+00	0.00000e+00	0.00000e+00	0.00000e+00	0.00000e+00	0.00000e+00	0.00000e+00	0.00000e+00	0.00000e+00	0.00000e+00	0.00000e+00	0.00000e+00	0.00000e+00	0.00000e+00	0.00000e+00	0.00000e+00	0.00000e+00	0.00000e+00	0.00000e+00	0.00000e+00	0.00000e+00	0.00000e+00	0.00000e+00	-8.63402e+01	-1.28301e+02	-1.03800e+02	-1.75865e+02	-1.14073e+01	-9.31957e+01	-1.64450e+02	-1.61923e+02	-3.25388e+01	-6.50733e+01	-1.79394e+02	-1.69306e+02	-1.75795e+02	-1.70708e+02	-7.57699e+01	-1.59905e+02	
Factor	3.75157e-04	1.23413e-03	3.18699e-04	1.70450e-01	4.10421e-06	1.94945e-05	2.78808e-01	2.32519e-01	9.50602e-06	1.69483e-05	5.42727e+00	2.80746e-01	2.09241e-01	2.33913e-01	1.51734e-05	3.71430e-01	3.15923e-05	3.36516e-05	9.32732e-06	6.64208e-02	3.05018e-07	3.68882e-07	1.02746e-01	9.20121e-02	3.49895e-07	3.70854e-07	1.93302e+00	1.06642e-01	8.34840e-02	9.01328e-02	3.70025e-07	1.37825e-01	X	X	X	X	X	X	X	X	X	X	X	X	X	X	X	X	



#DISTANCE SETTINGS
A = Detector Channel
A-1	A-2	A-3	A-4	A-5	A-6	A-7	A-8	A-9	A-10	A-11	A-12	A-13	A-14	A-15	A-16	

1.0000e+01	1.0000e+01	1.0000e+01	1.4500e+00	1.0000e+01	1.0000e+01	1.5100e+00	1.9500e+00	1.0000e+01	1.0000e+01	2.0100e+00	2.5000e+00	2.4400e+00	2.9500e+00	1.0000e+01	3.0100e+00	

B = Detector Channel
B-1	B-2	B-3	B-4	B-5	B-6	B-7	B-8	B-9	B-10	B-11	B-12	B-13	B-14	B-15	B-16	

1.0000e+01	1.0000e+01	1.0000e+01	1.4500e+00	1.0000e+01	1.0000e+01	1.5100e+00	1.9500e+00	1.0000e+01	1.0000e+01	2.0100e+00	2.5000e+00	2.4400e+00	2.9500e+00	1.0000e+01	3.0100e+00	




#DATA BEGINS
time	group	step	mark	flag	A-AC1	A-AC2	A-AC3	A-AC4	A-AC5	A-AC6	A-AC7	A-AC8	A-AC9	A-AC10	A-AC11	A-AC12	A-AC13	A-AC14	A-AC15	A-AC16	A-DC1	A-DC2	A-DC3	A-DC4	A-DC5	A-DC6	A-DC7	A-DC8	A-DC9	A-DC10	A-DC11	A-DC12	A-DC13	A-DC14	A-DC15	A-DC16	A-Ph1	A-Ph2	A-Ph3	A-Ph4	A-Ph5	A-Ph6	A-Ph7	A-Ph8	A-Ph9	A-Ph10	A-Ph11	A-Ph12	A-Ph13	A-Ph14	A-Ph15	A-Ph16	B-AC1	B-AC2	B-AC3	B-AC4	B-AC5	B-AC6	B-AC7	B-AC8	B-AC9	B-AC10	B-AC11	B-AC12	B-AC13	B-AC14	B-AC15	B-AC16	B-DC1	B-DC2	B-DC3	B-DC4	B-DC5	B-DC6	B-DC7	B-DC8	B-DC9	B-DC10	B-DC11	B-DC12	B-DC13	B-DC14	B-DC15	B-DC16	B-Ph1	B-Ph2	B-Ph3	B-Ph4	B-Ph5	B-Ph6	B-Ph7	B-Ph8	B-Ph9	B-Ph10	B-Ph11	B-Ph12	B-Ph13	B-Ph14	B-Ph15	B-Ph16	aux-1	digaux	

1532.226	1	1	0	256	0.27345	0.17119	0.087048	0.094201	0.090652	0.057444	0.19643	0.12668	0.10777	0.2092	0.087927	0.14144	0.22429	0.031982	0.05874	0.25448	-2.1437	-2.7146	-1.9958	-2.7042	-2.5896	-2.0271	-2.8125	-2.1667	-2.3708	-2.9167	-2.1271	-2.8021	-2.5729	-2.2042	-2.8917	-2.3917	68.988	-54.259	97.886	-10.336	99.487	141.601	171.350	-1.370	-6.321	-51.200	-90.296	-92.404	-16.313	155.640	12.438	117.733	0.00023056	0.00011214	0.000172	626.01	8.0452e-07	1.3363e-05	764.24	214.14	3.8289e-06	5.4663e-06	274.98	97.179	75.694	22.195	7.3131e-06	30.271	0.0022098	0.0023063	0.00064833	628.02	2.1456e-05	2.5566e-05	774.23	221.97	2.4431e-05	2.5519e-05	391.53	104.84	82.084	28.017	2.5291e-05	39.082	-74.937	120.830	-88.291	-128.602	126.866	-62.211	-130.233	-123.060	31.381	156.428	-126.533	-121.371	-118.634	-113.393	0.881	-117.948	-8191	255	
1532.346	1	1	0	0	0.087357	0.043821	0.053408	0.23592	0.21195	0.26471	0.26716	0.049948	0.045379	0.16369	0.25163	0.21609	0.18576	0.38266	0.093573	0.25194	-1.9646	-2.775	-2.0333	-2.6604	-2.6271	-2.1021	-2.8896	-2.5396	-2.3583	-2.925	-2.0917	-2.5229	-2.7542	-2.0833	-2.7562	-2.6604	58.187	-58.829	27.063	114.130	52.757	101.070	214.407	-96.187	74.566	-119.134	-43.640	-39.693	143.552	-51.776	132.575	3.240	0.00015221	0.00017316	0.00023344	637.9	3.0781e-06	8.3724e-06	779.26	217.8	3.8247e-06	6.3608e-06	279.71	99.661	77.195	22.812	3.8834e-06	31.782	0.0021895	0.0023098	0.00064143	639.74	2.1419e-05	2.5331e-05	789.44	225.12	2.4069e-05	2.512e-05	393.5	107.26	83.699	28.606	2.495e-05	39.996	-63.532	-11.365	-19.964	-128.546	-107.115	50.315	-130.214	-123.227	27.852	-90.774	-125.287	-121.645	-118.634	-114.513	61.126	-118.219	-8191	255	
1532.418	1	1	0	0	0.19983	0.24334	0.23557	0.1662	0.1142	0.064625	0.31744	0.11175	0.25949	0.069616	0.13631	0.10359	0.15603	0.22562	0.032881	0.088459	-1.6292	-2.75	-2.1604	-2.5917	-2.8354	-2.175	-2.7479	-2.5187	-2.1083	-2.725	-2.2854	-2.2792	-2.7604	-2.125	-2.6813	-2.6229	-102.735	74.860	44.694	124.668	47.596	179.341	171.728	27.027	-119.045	63.750	-49.510	188.821	-66.517	129.635	15.201	43.156	0.00037769	0.00020866	0.00016326	652.93	1.7761e-06	1.6883e-05	806.54	222.76	1.0579e-05	5.9336e-06	287.71	102.2	79.499	23.909	8.1721e-06	32.425	0.0021746	0.0022441	0.0006361	655.69	2.0901e-05	2.4905e-05	813.4	231.09	2.3597e-05	2.4683e-05	399.28	109.81	85.887	29.369	2.4634e-05	40.733	-51.658	162.665	34.351	-128.661	-70.469	-8.696	-130.560	-123.191	-25.742	-76.766	-126.504	-121.530	-118.643	-113.649	62.102	-117.157	-8191	255	
1532.514	1	1	0	0	0.13844	0.39321	0.32995	0.29836	0.076848	0.20582	0.032938	0.22773	0.14198	0.26792	0.27649	0.072693	0.085393	0.15554	0.14255	0.063978	-1.9021	-2.8979	-2.3271	-2.4667	-2.8312	-2.2771	-2.6896	-2.675	-2.125	-2.7354	-2.4313	-2.3604	-2.7583	-2.1208	-2.5083	-2.6875	173.234	-81.667	-134.008	197.658	-12.498	69.723	33.832	197.937	100.308	129.874	216.053	211.345	173.292	-43.310	-61.281	121.457	0.00019669	0.0004404	0.00018655	666.71	2.2933e-06	8.2505e-06	818.16	226.82	3.884e-06	3.0952e-06	290.71	103.39	81.112	24.374	1.212e-05	32.575	0.0021558	0.0022356	0.00062359	667.1	2.0609e-05	2.4604e-05	826.81	235.27	2.3536e-05	2.4481e-05	399.59	111.38	87.169	29.728	2.4342e-05	40.895	-69.642	138.600	-18.496	-128.700	43.355	-50.717	-130.394	-123.270	-18.029	36.780	-125.483	-121.489	-118.834	-113.950	-33.502	-117.962	-8191	255	
1532.610	1	1	0	0	0.12723	0.15694	0.15701	0.1935	0.30575	0.13835	0.27232	0.031228	0.19493	0.26431	0.16943	0.067518	0.27292	0.099691	0.13789	0.10023	-1.7208	-2.6312	-2.3438	-2.4604	-2.8937	-2.3	-2.5521	-2.5125	-2.2313	-2.675	-2.5146	-2.1437	-2.85	-2.3396	-2.4167	-2.575	128.279	-87.862	59.547	130.509	146.986	-128.285	218.024	33.669	136.253	104.094	-95.449	104.516	161.841	118.766	-82.664	169.316	0.00028428	0.0008853	9.1056e-05	673.39	2.4264e-06	4.5876e-06	825.54	227.47	3.1451e-06	3.7987e-06	294.69	103.97	80.885	24.184	1.4157e-05	33.056	0.0021068	0.0022228	0.00061576	672.88	2.0453e-05	2.4413e-05	833.47	235.76	2.3328e-05	2.4397e-05	402.69	111.71	87.423	29.718	2.4574e-05	40.915	-81.286	12.171	14.220	-128.907	30.858	-21.212	-130.606	-122.969	-23.601	11.591	-127.462	-120.937	-118.395	-113.917	40.980	-118.037	-8191	255	
1532.729	1	1	0	0	0.30611	0.066306	0.055118	0.23207	0.23965	0.13182	0.32308	0.22732	0.082833	0.11993	0.11997	0.1276	0.099481	0.19034	0.096846	0.23021	-1.8125	-2.5729	-2.4125	-2.3187	-2.6896	-2.2625	-2.2458	-3.0583	-2.2292	-2.7771	-2.6	-1.9667	-2.8333	-2.2	-2.3937	-2.9083	90.646	206.161	-11.272	-123.262	-121.588	156.285	177.876	-42.401	201.550	-28.448	-99.172	-1.687	12.176	197.417	82.950	170.996	0.00022781	0.00060442	6.0924e-05	676.97	2.0915e-06	1.094e-05	824.25	228.09	6.3039e-06	6.2433e-06	294.78	103.94	81.89	24.523	2.1536e-06	32.461	0.0021143	0.0022345	0.00061852	677.13	2.0499e-05	2.4386e-05	835.74	236.96	2.3175e-05	2.4397e-05	403.54	112.13	87.92	29.884	2.4456e-05	41.022	-135.181	-81.542	-27.251	-128.819	-117.994	-88.034	-130.327	-122.951	-3.209	3.181	-126.281	-121.456	-119.050	-113.579	94.611	-116.989	-8191	255	
1532.825	1	1	0	0	0.12669	0.20283	0.11583	0.071673	0.19075	0.082653	0.065248	0.30023	0.17228	0.25862	0.25564	0.20721	0.10767	0.13603	0.1316	0.14312	-1.7625	-2.4375	-2.5	-2.2062	-2.8042	-2.3187	-2.2646	-2.9229	-2.1937	-2.5938	-2.7917	-2.0979	-2.6271	-2.3125	-2.2542	-2.8646	180.262	-10.985	170.240	-95.202	-73.037	173.979	-123.503	-130.872	183.901	-114.511	136.350	188.324	27.039	215.277	170.359	93.577	0.00030274	0.00056082	0.0002425	675.73	1.8118e-06	4.6494e-06	825.56	231.17	1.4552e-06	1.5707e-06	296.79	104.8	82.522	24.553	4.2308e-06	33.48	0.0021225	0.0022383	0.00061504	678.92	2.0534e-05	2.4473e-05	838.32	238.82	2.3342e-05	2.4465e-05	404.62	112.98	88.751	30.216	2.4521e-05	41.493	-138.993	211.052	11.899	-128.496	-58.431	11.821	-130.212	-122.786	-48.488	13.624	-125.831	-121.029	-118.587	-113.246	-53.153	-117.503	-8191	255	
1532.921	1	1	0	0	0.091481	0.11168	0.089225	0.14478	0.07259	0.30909	0.07225	0.17954	0.28169	0.30988	0.18148	0.15408	0.055387	0.088616	0.058118	0.11971	-1.8292	-2.475	-2.6437	-2.3479	-2.875	-2.4917	-2.1229	-2.7333	-2.2708	-2.4521	-2.925	-2.2771	-2.6729	-2.6021	-2.1271	-2.7292	46.432	30.805	207.309	139.066	21.638	-39.660	68.561	-90.821	127.216	19.332	94.140	206.172	-67.884	-30.363	171.152	123.039	8.9262e-05	0.00068583	8.3854e-05	680.47	1.555e-06	4.3989e-06	824.42	230.18	6.4056e-06	1.1462e-05	290.88	105.01	82.9	24.921	8.5371e-06	33.079	0.0021245	0.0022469	0.00061873	681	2.0643e-05	2.4678e-05	835.94	240.1	2.3387e-05	2.4741e-05	404.98	113.27	89.416	30.444	2.4821e-05	41.501	124.543	-11.520	-34.597	-128.787	-101.584	-93.318	-130.096	-122.635	-4.165	-9.101	-124.668	-121.288	-118.567	-113.397	75.574	-117.293	-8191	255	
1533.018	1	1	0	0	0.16827	0.045727	0.056793	0.045952	0.01953	0.15119	0.16138	0.10973	0.2656	0.08869	0.28177	0.050037	0.03023	0.16733	0.078716	0.13572	-2.1354	-2.375	-2.7188	-2.3667	-2.5312	-2.75	-2.325	-2.85	-2.3979	-2.5021	-2.875	-2.2479	-2.5396	-2.6896	-2.0687	-2.6979	53.221	145.606	184.338	-140.199	-38.252	-53.848	196.125	-4.211	203.815	-121.784	129.398	-42.282	-124.929	10.272	-46.970	180.227	0.00029166	0.00044023	0.00014672	677.53	3.4546e-06	8.2968e-06	821.91	232.23	4.2661e-06	1.2992e-05	300.62	105.58	83.287	25.167	4.489e-06	33.555	0.0021448	0.0022416	0.00061356	681.96	2.0806e-05	2.4398e-05	835.15	241.18	2.3275e-05	2.472e-05	403.95	113.48	89.598	30.416	2.4242e-05	41.698	-76.808	-27.544	-35.025	-128.408	-6.280	-40.428	-130.173	-123.173	42.228	107.165	-126.368	-121.343	-118.273	-113.237	122.465	-117.393	-8191	255	
1533.112	1	1	0	0	0.1077	0.20893	0.022876	0.37952	0.32712	0.050199	0.101	0.13676	0.10728	0.26706	0.018785	0.17758	0.14809	0.13583	0.083224	0.18653	-1.8917	-2.1792	-2.7896	-2.2625	-2.4646	-2.7542	-2.2833	-2.6833	-2.6625	-2.1312	-2.8937	-2.2854	-2.3563	-2.7687	-2.125	-2.7792	199.166	-100.457	-49.089	174.731	-89.656	8.946	120.971	121.483	51.976	206.235	126.589	96.686	-51.843	-5.284	-74.404	70.212	8.6331e-05	0.00053125	8.3539e-05	683.48	2.8922e-06	1.1507e-05	829.51	233.36	3.1092e-06	4.8087e-06	295.44	106.22	83.792	24.808	1.0901e-05	33.196	0.0020961	0.0022244	0.00060598	682.08	2.0394e-05	2.378e-05	835.74	240.5	2.2234e-05	2.3174e-05	394.54	113.03	89.23	29.911	2.2435e-05	40.876	-124.234	196.982	0.554	-128.930	-12.019	-27.432	-130.793	-123.499	-39.247	-24.483	-125.409	-121.579	-118.918	-114.370	-8.222	-117.287	-8191	255	
1533.208	1	1	0	0	0.10005	0.19475	0.075361	0.13249	0.15799	0.033375	0.12471	0.096629	0.27811	0.056048	0.051688	0.026462	0.40213	0.26499	0.22717	0.053203	-1.9958	-2.175	-2.6646	-2.4146	-2.4167	-2.8	-2.1562	-2.7354	-2.6208	-2.2188	-2.8708	-2.3271	-2.4646	-2.7938	-2.1562	-2.5938	-106.571	193.759	-70.029	-130.009	212.711	159.544	138.060	89.221	-51.069	43.356	70.593	200.241	185.776	-118.449	-34.333	168.934	0.00019907	0.00040694	0.00014648	683.11	2.6725e-06	7.3521e-06	829.4	233.47	2.0133e-06	8.2017e-06	297.02	106.76	84.576	25.089	4.8396e-06	34.173	0.0019346	0.0020399	0.00056712	682.95	1.9148e-05	2.2353e-05	836.89	241.19	2.1321e-05	2.2342e-05	392.36	113.59	89.652	29.904	2.1212e-05	40.811	-116.515	18.397	-66.640	-128.619	-22.226	-112.558	-130.463	-123.285	-100.965	-34.137	-126.432	-121.507	-118.603	-113.987	-25.142	-117.851	-8191	255	
1533.304	1	1	0	0	0.18237	0.12117	0.18562	0.053272	0.010994	0.10127	0.075008	0.18292	0.14499	0.2202	0.079029	0.18851	0.043341	0.14908	0.38162	0.30316	-2.2333	-2.1125	-2.7562	-2.4833	-2.2812	-3.0187	-2.2167	-2.4708	-2.7729	-2.3563	-2.7833	-2.5458	-2.4688	-3.0042	-2.4	-2.475	52.508	-123.253	120.666	35.944	51.985	30.730	-18.646	65.442	-8.797	161.516	80.700	-33.659	-48.074	-50.431	84.502	-109.887	0.00016082	0.00019054	0.00030175	683.1	1.3229e-06	6.8537e-06	827.73	234.32	1.3456e-06	7.7867e-06	296.22	106.88	84.197	25.411	2.5073e-06	33.435	0.0017765	0.0018701	0.00050655	682.63	1.7053e-05	2.0011e-05	833.92	241.55	1.9615e-05	2.0989e-05	387.43	113.69	90.105	30.321	2.2259e-05	41.311	-80.626	118.279	-62.003	-128.746	-113.873	-56.524	-130.523	-123.391	5.867	133.074	-125.843	-121.771	-118.711	-114.184	-45.340	-117.951	-8191	255	
1533.425	1	1	0	0	0.16423	0.08732	0.2206	0.20489	0.16178	0.14743	0.083025	0.17234	0.091166	0.21478	0.27858	0.13539	0.24185	0.19941	0.067728	0.26459	-2.3896	-1.9438	-2.7313	-2.575	-2.3646	-2.8187	-2.0979	-2.6042	-2.5917	-2.0083	-2.6688	-2.5125	-2.1083	-2.9854	-2.4854	-2.3833	-126.054	-70.657	28.254	169.559	47.109	13.583	120.445	-100.519	6.344	-48.196	88.230	199.296	-34.140	177.972	-119.294	78.611	0.00010522	0.0002941	0.00013108	679.57	1.3084e-06	2.1595e-06	819.25	235.21	5.2979e-06	6.1153e-06	297.58	106.9	84.53	25.227	2.3708e-06	33.703	0.0019539	0.0020934	0.00058535	679.85	2.0157e-05	2.3757e-05	826.01	242.72	2.3318e-05	2.4866e-05	408.11	114.29	90.865	31.271	2.596e-05	42.701	-91.131	-9.875	-16.457	-128.705	-0.988	179.119	-130.440	-123.321	-16.428	7.611	-126.681	-121.512	-118.935	-114.392	55.218	-117.573	-8191	255	
1533.521	1	1	0	0	0.11193	0.096199	0.16618	0.02142	0.30872	0.13303	0.21533	0.1092	0.10269	0.1663	0.28918	0.046881	0.22148	0.022411	0.15738	0.1314	-2.4271	-2.1896	-2.6708	-2.6	-2.2083	-2.8208	-2.3937	-2.3063	-2.9083	-2.1312	-2.4896	-2.5833	-2.2042	-2.8667	-2.4208	-2.1042	187.546	144.121	-137.251	127.868	-34.004	89.337	115.612	60.569	102.925	-95.054	-103.620	-62.530	-137.602	-65.813	-106.639	33.805	0.00028192	0.00067688	0.00016361	679.64	2.0831e-06	5.751e-06	813.44	234.52	6.0234e-06	1.0099e-05	293.47	106.1	84.725	25.275	5.1796e-06	33.441	0.0022471	0.0024179	0.00067229	680.42	2.2487e-05	2.6402e-05	825.67	243.07	2.5663e-05	2.735e-05	419.68	114.63	91.161	31.742	2.8093e-05	43.167	-88.453	48.584	214.280	-128.613	-53.375	-98.868	-130.297	-123.351	9.192	-70.695	-126.584	-121.409	-118.755	-114.208	-46.817	-116.777	-8191	255	
1533.617	1	1	0	0	0.24401	0.28134	0.15427	0.14462	0.24254	0.1053	0.16233	0.24029	0.21785	0.10209	0.12031	0.11272	0.15327	0.13815	0.20211	0.12975	-2.35	-2.1917	-2.6521	-2.8792	-2.1229	-2.7458	-2.5187	-2.0833	-2.8479	-2.1667	-2.5187	-2.7667	-2.1375	-2.7458	-2.5271	-2.1208	157.629	183.453	-40.748	120.635	-130.985	214.074	171.341	-63.146	-54.904	-21.404	87.644	-94.299	179.091	150.421	-16.629	-28.432	0.00018041	0.00039399	0.00011399	677.32	2.7719e-06	1.2415e-05	811.62	233.73	1.986e-06	4.3146e-06	292.45	106.52	84.219	25.47	9.2721e-06	33.768	0.0024357	0.002579	0.0007224	679.9	2.4151e-05	2.8509e-05	824.05	243.23	2.7349e-05	2.9021e-05	427.12	115.19	91.44	31.992	2.8654e-05	43.453	20.246	-39.062	-108.592	-128.528	9.991	45.095	-130.130	-123.308	-82.503	15.410	-126.509	-121.215	-118.650	-114.083	-29.250	-117.654	-8191	255	
1533.713	1	1	0	0	0.093293	0.083981	0.083617	0.1688	0.25763	0.23532	0.13644	0.11159	0.20635	0.088888	0.06988	0.12991	0.20303	0.10973	0.17361	0.20614	-2.4562	-2.2562	-2.3688	-2.7771	-2.1042	-2.7	-2.7354	-2.1375	-2.7938	-2.3458	-2.325	-2.7292	-2.2146	-2.6292	-2.4979	-2.1437	125.113	90.964	-106.592	151.840	108.196	-18.804	88.637	-12.329	171.295	68.463	-26.005	-139.171	-65.297	35.697	-29.614	214.362	0.0001021	0.00061104	0.00013303	681.92	2.1031e-06	1.0804e-05	819.49	235.07	4.9943e-06	7.3726e-06	298.64	107.84	85.225	25.649	3.4654e-06	34.063	0.0024643	0.0026243	0.0007264	681.17	2.4096e-05	2.8608e-05	825.33	243.75	2.7034e-05	2.8706e-05	426.91	115.65	91.877	32.127	2.8514e-05	43.719	-63.021	-67.586	155.115	-128.900	26.246	-27.365	-130.677	-123.514	-5.959	58.509	-126.369	-121.571	-118.913	-114.618	122.165	-118.101	-8191	255	
1533.810	1	1	0	0	0.026566	0.15691	0.15977	0.27867	0.08751	0.058874	0.089701	0.18625	0.2522	0.11884	0.13853	0.1608	0.30352	0.22495	0.17986	0.10992	-2.4458	-2.3979	-2.2646	-2.8	-2.1667	-2.7958	-2.65	-2.1125	-2.7938	-2.3208	-2.0521	-2.6417	-2.0917	-2.4417	-2.8042	-2.0083	94.284	-39.771	73.841	207.081	1.270	122.965	21.942	-21.208	67.745	50.317	-135.309	107.787	142.966	36.839	97.431	73.888	0.00018608	0.00079314	0.00022693	676.8	3.4122e-06	5.0292e-06	809.86	234.78	3.4342e-06	3.7216e-06	296.15	106.81	85.386	25.447	7.7196e-06	34.001	0.0024464	0.0025997	0.0007175	679.35	2.3853e-05	2.8325e-05	821.95	243.96	2.6943e-05	2.8281e-05	423.92	115.34	92.207	32.167	2.8153e-05	43.585	-94.457	-63.779	48.468	-128.503	-5.571	149.215	-130.282	-123.273	116.725	22.763	-126.595	-121.251	-118.666	-114.074	130.840	-117.761	-8191	255	
1533.906	1	1	0	0	0.17999	0.21454	0.18482	0.26879	0.24441	0.11837	0.21667	0.091224	0.19822	0.14872	0.020798	0.18705	0.21972	0.33385	0.24556	0.17401	-2.4292	-2.5604	-2.0687	-2.9229	-2.1771	-2.4458	-2.7583	-2.1854	-2.6937	-2.5542	-2.1063	-2.9229	-2.2917	-2.4646	-2.6646	-1.9688	13.355	14.603	113.648	-132.136	24.774	42.959	131.303	210.851	-130.645	191.004	-52.364	133.581	204.238	-47.371	-119.970	-21.855	0.00020806	0.00029812	0.000112	678.81	4.6619e-06	8.83e-06	812.09	236.45	1.9999e-06	6.8219e-06	294.91	106.83	85.156	25.831	1.7067e-05	34.141	0.0024246	0.0025844	0.00071595	679.61	2.3876e-05	2.841e-05	819.42	244.52	2.6935e-05	2.8173e-05	421.56	115.01	91.864	32.147	2.7964e-05	43.526	-92.089	-32.060	-90.012	-128.691	-28.075	46.133	-130.486	-123.520	-76.083	-81.308	-126.852	-121.758	-118.981	-114.634	61.360	-118.088	-8191	255	
1534.025	1	1	0	0	0.29481	0.10997	0.26179	0.10932	0.35568	0.0445	0.088525	0.12902	0.20212	0.13799	0.23706	0.043843	0.23281	0.089375	0.11997	0.22139	-2.3063	-2.65	-2.1458	-2.7083	-2.2521	-2.375	-2.8521	-2.3479	-2.4479	-2.8417	-2.1271	-2.8688	-2.3792	-2.2979	-2.9646	-2.1458	10.013	10.402	11.563	27.023	112.938	199.572	-73.718	-39.557	53.954	105.196	42.449	14.866	37.843	72.829	-28.271	41.104	0.0003686	0.00024484	0.00021807	681.17	3.5659e-06	1.1446e-05	808.61	235.73	7.2721e-06	1.0025e-05	298.85	106.21	84.925	25.744	6.845e-06	33.69	0.0024085	0.0025497	0.00070268	680.59	2.3358e-05	2.7856e-05	818.99	243.86	2.6492e-05	2.7965e-05	419.61	114.46	91.646	31.796	2.7322e-05	43.087	-118.237	-114.118	5.900	-128.889	-35.672	56.836	-130.457	-123.294	-48.911	57.986	-126.044	-121.757	-118.775	-114.232	138.586	-117.879	-8191	255	
1534.121	1	1	0	0	0.1717	0.24344	0.35106	0.25376	0.2634	0.15691	0.13794	0.070462	0.17329	0.093563	0.25419	0.13726	0.10143	0.18561	0.1058	0.17407	-2.1375	-2.7125	-2.0833	-2.9896	-2.4167	-2.2583	-2.7875	-2.2292	-2.5333	-2.8187	-2.1063	-2.5146	-2.4813	-2.1229	-2.7542	-2.2104	-66.686	-36.568	196.965	-11.595	108.003	115.493	151.984	23.831	-130.349	163.512	-123.116	-104.682	-129.075	120.759	176.402	136.857	0.00022499	0.00057414	3.263e-05	682.14	1.7135e-06	7.8895e-06	810.11	234.99	3.5198e-06	1.0691e-05	300.83	106.59	85.097	25.564	3.3235e-06	34.088	0.0023869	0.0025196	0.00069401	679.75	2.3326e-05	2.726e-05	818.49	243.75	2.6214e-05	2.7214e-05	418.66	114.47	91.584	31.791	2.7277e-05	43.107	-103.631	-41.348	-69.898	-129.007	-5.088	-77.477	-130.526	-123.553	-91.965	-107.072	-125.578	-121.956	-119.240	-114.536	-61.341	-117.764	-8191	255	
1534.217	1	1	0	0	0.10929	0.054188	0.035057	0.13478	0.14372	0.36261	0.18449	0.19587	0.055928	0.24082	0.096614	0.13166	0.2786	0.24524	0.068925	0.187	-2.125	-2.8563	-1.9542	-2.6271	-2.5792	-2.1708	-2.8187	-2.2729	-2.2917	-2.8417	-2.0604	-2.6875	-2.6437	-2.1479	-2.8125	-2.3667	91.591	-120.028	72.731	213.756	-7.428	-94.478	63.790	-59.572	183.401	-69.077	-60.679	97.738	-21.466	-92.507	118.804	22.314	0.00024834	0.00031947	0.00013987	683.87	1.898e-06	5.7779e-06	813.52	236.41	4.3658e-06	1.0976e-05	293.13	106.97	84.982	25.681	5.9928e-06	34.168	0.0023736	0.0024604	0.00068855	680.9	2.3063e-05	2.7292e-05	819.13	244.28	2.5977e-05	2.6928e-05	417.5	114.74	91.651	31.94	2.6933e-05	43.107	-101.352	-8.395	-35.589	-129.152	39.114	-79.101	-130.760	-123.571	13.990	203.942	-126.009	-122.315	-118.655	-114.233	-54.239	-117.737	-8191	255	
1534.313	1	1	0	0	0.072914	0.2568	0.13772	0.26082	0.054787	0.14235	0.25573	0.16693	0.076577	0.20901	0.15921	0.2312	0.068817	0.1368	0.20763	0.27964	-1.9667	-2.8854	-2.1063	-2.5917	-2.6854	-2.2042	-2.7812	-2.4396	-2.4375	-2.8625	-2.225	-2.5417	-2.7167	-2.0375	-2.7938	-2.3958	-110.176	-67.710	-13.090	169.713	17.927	-91.176	114.906	204.217	-100.208	76.800	201.607	209.218	105.599	-74.612	67.136	-27.653	0.00031743	0.0005338	0.00020308	680.88	2.4299e-06	1.8788e-05	808.71	235.64	1.7803e-06	4.4915e-06	295.06	106.31	84.921	26.112	3.5683e-06	33.66	0.0023425	0.0024364	0.00068544	680.12	2.2726e-05	2.6877e-05	816.29	243.71	2.5716e-05	2.6817e-05	415.41	114.23	91.815	31.913	2.6805e-05	42.94	-75.877	-53.978	-70.040	-128.931	-23.090	-13.775	-130.610	-123.321	29.480	-119.890	-126.183	-121.636	-118.829	-114.093	86.389	-117.394	-8191	255	
1534.385	1	1	0	0	0.035749	0.10421	0.12529	0.28158	0.19254	0.060987	0.098824	0.081314	0.086832	0.13201	0.034918	0.14052	0.18082	0.18786	0.034912	0.26313	-1.8083	-2.7854	-2.1417	-2.4458	-2.8208	-2.1729	-2.8458	-2.6562	-2.1604	-2.8	-2.3333	-2.2792	-2.8417	-2.0146	-2.7687	-2.4229	169.039	-81.320	173.606	-99.184	-83.802	-14.585	148.446	-77.293	128.067	-10.886	172.143	81.985	-122.644	134.202	-110.042	5.304	0.00029039	0.0002443	3.5069e-05	679.14	3.6863e-06	1.4594e-05	805.89	235.32	2.5101e-06	5.3195e-06	295.63	106.43	85.348	25.995	6.1361e-06	33.812	0.0023318	0.002434	0.00068006	679.71	2.2351e-05	2.6733e-05	814.58	243.67	2.5738e-05	2.669e-05	414.27	114.07	91.471	31.82	2.6601e-05	42.72	205.207	-38.889	-52.069	-128.908	-68.955	-22.352	-130.471	-123.516	174.449	-124.608	-126.370	-122.087	-118.886	-114.303	201.982	-117.236	-8191	255	
1534.505	1	1	0	0	0.38334	0.20678	0.19342	0.25569	0.166	0.031352	0.089116	0.12512	0.26726	0.27872	0.17488	0.043973	0.19051	0.17627	0.21994	0.099791	-1.5688	-2.8104	-2.3042	-2.5	-2.8854	-2.2479	-2.8604	-2.5833	-2.0062	-2.8146	-2.35	-2.3063	-2.8333	-2.0479	-2.4646	-2.5458	54.819	171.860	83.958	-94.912	116.173	85.845	94.721	-46.006	158.514	-141.001	-26.718	-99.398	78.748	166.053	-58.749	204.856	0.00014584	0.0010495	0.00023042	679.31	1.9151e-06	4.2999e-06	809.28	235.36	3.9938e-06	1.0278e-05	298.76	106.19	84.65	25.602	8.4868e-06	34.071	0.002305	0.0024153	0.00067083	678.69	2.228e-05	2.6421e-05	813.68	242.56	2.5342e-05	2.6429e-05	412.91	113.53	90.964	31.523	2.635e-05	42.577	-37.623	-78.498	-50.636	-129.059	15.483	-31.062	-130.888	-123.513	-51.475	-34.743	-126.580	-122.205	-119.200	-114.920	-25.915	-117.992	-8191	255	
1534.601	1	1	0	0	0.1692	0.15808	0.086963	0.16075	0.052669	0.25235	0.053972	0.18679	0.15967	0.074902	0.17098	0.079308	0.16275	0.2194	0.080243	0.19916	-1.7167	-2.9479	-2.2313	-2.5146	-2.6979	-2.1354	-2.675	-2.6604	-2.0167	-2.8542	-2.3021	-2.0375	-2.6208	-2.1521	-2.3667	-2.8	92.069	181.809	-39.553	193.795	63.198	-4.116	-93.515	176.438	49.210	131.135	-51.093	-122.792	-38.555	89.383	162.975	-77.544	0.00034394	0.00049064	0.00019885	677.73	3.5951e-06	1.9591e-06	804.94	234	2.7262e-06	1.1028e-05	289.3	105.69	84.069	25.102	6.6233e-06	33.376	0.0022913	0.0024145	0.00066959	676.72	2.2217e-05	2.6459e-05	811.02	241.54	2.5412e-05	2.6576e-05	411.68	113.17	90.541	31.329	2.6822e-05	42.499	-134.419	-81.276	-24.252	-128.875	-10.016	-24.769	-130.868	-123.421	-69.139	-27.346	-126.299	-122.007	-119.083	-114.212	117.380	-117.986	-8191	255	
1534.698	1	1	0	0	0.12739	0.24852	0.10033	0.22064	0.11316	0.11432	0.070463	0.15893	0.17144	0.27945	0.13375	0.2524	0.075649	0.18945	0.14442	0.066703	-1.6354	-2.7229	-2.5875	-2.3229	-2.6854	-2.3417	-2.4646	-2.7083	-2.1625	-2.8375	-2.7479	-2.2521	-2.7021	-2.3208	-2.3312	-2.8333	1.478	-114.646	158.037	214.859	-29.022	7.392	156.016	-95.448	110.101	-55.215	-51.371	90.334	102.620	90.313	217.338	108.848	0.00021413	0.00015786	0.00022948	675.81	7.2459e-07	6.9012e-06	800.5	233.17	2.988e-06	6.8707e-06	292.56	105.56	84.111	25.468	8.9839e-07	33.06	0.0023021	0.0024354	0.00067355	674.43	2.2301e-05	2.6544e-05	807.81	241.65	2.5252e-05	2.6773e-05	410.94	112.78	90.358	31.286	2.6762e-05	42.083	-101.448	155.515	-20.993	-128.879	-7.951	-23.462	-130.599	-123.282	15.687	5.083	-125.029	-121.948	-118.461	-115.155	-17.878	-117.692	-8191	255	
1534.818	1	1	0	0	0.10727	0.13445	0.29069	0.19427	0.019218	0.15143	0.24509	0.048389	0.11588	0.15109	0.14535	0.068077	0.11988	0.28283	0.049319	0.17986	-1.7188	-2.6437	-2.6854	-2.2208	-2.7125	-2.3604	-2.5958	-2.9417	-2.1333	-2.6146	-2.6688	-2.1479	-2.8021	-2.4188	-2.2313	-2.8958	-31.055	-64.806	160.241	162.710	122.452	104.637	136.683	15.668	-108.475	-37.736	-8.800	-7.661	66.998	-84.640	115.286	30.911	0.00014218	0.00051418	0.00010374	672.42	2.5557e-06	5.4362e-06	794.45	231.77	6.7043e-06	2.9309e-06	290.54	103.9	83.354	24.964	2.6618e-06	32.932	0.0023138	0.002425	0.00067487	671.21	2.243e-05	2.6815e-05	800.95	240.01	2.569e-05	2.6868e-05	409.15	111.95	89.912	31.158	2.6794e-05	41.957	-82.431	-81.595	-71.382	-128.964	-29.906	119.442	-130.636	-123.527	30.559	-20.354	-126.288	-122.021	-118.796	-114.459	200.082	-118.590	-8191	255	
1534.913	1	1	0	0	0.1109	0.28146	0.21929	0.12308	0.20075	0.31953	0.23434	0.089111	0.17978	0.15407	0.088014	0.054797	0.30758	0.052598	0.23708	0.056237	-1.7938	-2.5708	-2.8021	-2.1854	-2.6458	-2.4667	-2.425	-2.9375	-2.2125	-2.4708	-2.8125	-2.275	-2.7812	-2.6875	-2.2875	-2.95	99.587	-87.253	-69.893	69.870	199.559	-84.414	117.428	-60.375	162.831	-6.761	38.044	38.190	120.343	-106.972	136.342	-75.675	6.6125e-05	0.00064083	0.00012883	669.13	5.2919e-07	3.5271e-06	790.54	230.77	6.6061e-06	1.0788e-05	287.19	103.87	82.942	25.028	5.5685e-06	32.919	0.0023153	0.0024388	0.00067541	667.3	2.253e-05	2.6642e-05	795.73	238.8	2.5564e-05	2.7027e-05	406.42	111.2	89.264	30.985	2.6826e-05	41.954	-131.278	-30.177	-64.010	-129.061	-20.505	-21.917	-130.767	-123.574	-27.442	84.452	-125.824	-121.919	-118.890	-114.074	-3.228	-117.683	-8191	255	
1534.986	1	1	0	0	0.25279	0.15124	0.12672	0.25789	0.081895	0.13057	0.10496	0.25562	0.1169	0.29058	0.16558	0.23166	0.35431	0.16444	0.1903	0.10558	-1.7875	-2.4583	-2.8771	-2.2896	-2.7062	-2.6146	-2.1729	-2.9271	-2.2875	-2.3875	-2.7979	-2.1937	-2.5333	-2.7333	-2.0062	-2.8958	37.279	180.545	163.258	-138.207	48.746	142.901	22.342	211.980	61.204	118.841	59.134	-118.617	159.472	-36.210	164.816	-45.256	0.00015028	0.0008318	0.00018359	665.57	2.5227e-06	9.9166e-06	785.04	229.71	3.7067e-06	8.8452e-06	286.31	102.89	82.676	25.069	1.8452e-06	32.743	0.0023208	0.0024459	0.0006733	664.18	2.2569e-05	2.6773e-05	791.13	237.72	2.5413e-05	2.6952e-05	405.2	110.69	89.191	30.914	2.6929e-05	41.922	-98.431	-126.986	-80.152	-128.961	-47.238	-28.254	-130.684	-123.428	6.555	-62.413	-125.808	-121.936	-119.046	-113.714	-86.250	-117.679	-8191	255	
1535.107	1	1	0	0	0.1574	0.11695	0.14983	0.1667	0.095237	0.11878	0.21537	0.12778	0.092462	0.18092	0.22064	0.1114	0.070689	0.2966	0.032974	0.043092	-1.9688	-2.3208	-2.9313	-2.3083	-2.4583	-2.7083	-2.2021	-2.6021	-2.5146	-2.3667	-2.8812	-2.2521	-2.325	-2.6229	-2.2625	-2.7271	146.785	147.659	-57.045	-96.444	94.737	126.235	78.741	-126.838	133.132	162.651	161.401	-29.406	-40.714	-12.593	141.533	-131.817	0.00015146	0.00027116	5.2206e-05	662.53	2.6178e-06	3.3037e-06	776.85	229.17	1.3384e-06	3.8143e-06	282.31	102.59	82.616	25.316	9.9891e-06	33.125	0.0023406	0.0024411	0.00067163	663.29	2.273e-05	2.6805e-05	787.57	237.81	2.5787e-05	2.6916e-05	406.37	111.02	89.557	31.137	2.7104e-05	42.202	-36.155	124.837	-55.971	-128.838	-54.461	132.975	-130.537	-122.958	79.513	-65.871	-126.374	-121.643	-118.769	-113.406	-40.592	-117.643	-8191	255	
1535.201	1	1	0	0	0.05683	0.064728	0.095511	0.23471	0.15241	0.275	0.15563	0.19057	0.45473	0.062277	0.10123	0.20042	0.19162	0.072138	0.31657	0.25589	-2.2667	-1.9562	-2.9625	-2.3646	-2.2792	-2.7812	-2.0542	-2.6583	-2.5333	-2.3271	-2.9562	-2.3521	-2.35	-2.8083	-2.05	-2.7167	160.866	191.087	-136.811	115.861	187.372	168.237	106.767	-40.161	29.402	83.196	-66.009	-130.968	57.849	158.006	-110.060	69.639	0.0002103	0.00030901	7.0631e-05	662.97	1.9443e-06	1.0539e-05	778.95	230.61	7.6653e-06	1.1459e-05	284.06	103.31	82.682	25.062	1.2154e-05	32.836	0.0023523	0.0024808	0.00068396	663.79	2.2981e-05	2.7014e-05	786.35	238.72	2.573e-05	2.7194e-05	406.1	111.15	89.82	31.245	2.6892e-05	42.177	-138.870	-139.325	3.208	-128.774	-50.068	-82.983	-130.570	-123.390	98.750	27.417	-126.103	-121.598	-118.653	-113.699	32.192	-116.939	-8191	255	
1535.297	1	1	0	0	0.43931	0.16788	0.0518	0.10582	0.13444	0.23737	0.18308	0.15036	0.20077	0.17236	0.16629	0.073086	0.11618	0.11369	0.27369	0.11847	-2.2208	-2.1688	-2.7167	-2.3604	-2.2104	-2.7917	-2.3396	-2.6208	-2.6937	-2.1625	-2.6583	-2.3979	-2.3083	-2.8167	-2.05	-2.7146	-83.449	-135.644	-124.543	160.369	54.150	74.114	158.235	209.689	-91.245	-20.608	-92.399	-98.526	-27.852	-101.100	114.390	-43.498	0.00040719	0.00019183	0.00011152	659.28	2.7746e-06	3.7463e-06	771.65	228.93	3.6645e-06	1.2253e-05	284.73	102.47	82.866	25.061	1.0046e-05	32.344	0.0023301	0.0024798	0.00067922	663.21	2.2974e-05	2.692e-05	782.37	238.69	2.5602e-05	2.7184e-05	406.56	110.85	89.675	31.063	2.6954e-05	41.771	-128.428	-118.697	-77.563	-128.503	19.113	89.323	-130.361	-122.896	166.723	-15.974	-125.636	-121.850	-118.729	-113.648	127.574	-117.524	-8191	255	
1535.418	1	1	0	0	0.18076	0.2752	0.19512	0.13214	0.20387	0.16681	0.085525	0.19722	0.092782	0.13185	0.12245	0.005479	0.072229	0.1177	0.1947	0.12162	-2.2208	-1.9771	-2.5667	-2.4729	-2.2042	-2.8104	-2.4396	-2.5458	-3.0396	-2.2292	-2.7042	-2.4896	-2.3708	-2.9958	-2.3604	-2.3271	10.667	87.333	48.985	122.412	15.944	189.278	162.925	212.437	130.724	22.529	45.334	-2.858	171.086	198.195	-35.621	86.475	0.0001575	0.0012361	8.0414e-05	658.48	9.775e-07	7.1523e-06	768.36	229.88	7.0457e-06	4.1361e-06	280.47	101.75	82.344	24.746	1.2443e-05	32.411	0.0023301	0.0024592	0.00067985	662.03	2.2913e-05	2.7042e-05	778.77	238.67	2.5729e-05	2.7217e-05	405.99	110.28	89.537	30.996	2.7114e-05	41.68	-2.965	-78.814	-71.596	-128.320	199.831	56.243	-130.331	-123.351	-42.631	-56.388	-125.975	-121.448	-118.543	-113.789	-63.987	-117.204	-8191	255	
1535.514	1	1	0	0	0.042277	0.091499	0.27022	0.1778	0.10702	0.19454	0.2357	0.34349	0.20051	0.07098	0.25758	0.12787	0.32366	0.12828	0.094154	0.046026	-2.5333	-2.1021	-2.5687	-2.7604	-2.2958	-2.775	-2.375	-2.3771	-2.9125	-2.3229	-2.5687	-2.6542	-2.2771	-2.875	-2.4625	-2.2708	172.842	216.737	-93.966	120.672	-20.742	-135.105	166.514	15.560	178.765	171.263	-52.202	177.028	158.190	185.253	114.646	120.256	0.00025595	0.0003318	0.00016015	656.94	1.7076e-06	1.0444e-05	767.38	228.59	9.4825e-07	4.4978e-06	281.73	102.36	82.801	25.02	5.4676e-06	32.691	0.0023379	0.0024622	0.00067915	659.83	2.2836e-05	2.6686e-05	777.99	237.82	2.5583e-05	2.7206e-05	406.06	110.21	89.346	30.914	2.7171e-05	41.775	63.611	-104.128	-13.316	-128.353	28.348	32.505	-130.318	-123.044	-117.677	187.915	-126.975	-121.993	-119.065	-114.706	8.614	-117.647	-8191	255	
1535.586	1	1	0	0	0.24884	0.14004	0.16119	0.10749	0.1878	0.1351	0.15995	0.061942	0.046254	0.12403	0.23608	0.10627	0.20697	0.16192	0.32865	0.31666	-2.4146	-2.1146	-2.4688	-2.7729	-2.1979	-2.875	-2.5292	-2.2062	-2.9583	-2.1042	-2.6167	-2.6958	-2.0958	-2.8104	-2.2833	-2.1562	-79.133	172.895	19.660	135.451	-96.307	216.510	-119.141	208.790	-22.083	11.744	215.479	181.789	24.904	-87.092	-135.184	148.993	0.00025152	0.00031639	5.6226e-05	659.91	1.3452e-06	8.149e-06	773.62	230.07	4.6791e-06	7.4766e-06	289.74	102.1	82.859	25.141	4.8058e-06	32.716	0.0023244	0.0024557	0.00068527	660.9	2.285e-05	2.6743e-05	779.95	238.31	2.5464e-05	2.7036e-05	406.51	110.62	89.443	31.053	2.6989e-05	42.011	-60.411	155.825	70.135	-128.660	95.380	-82.910	-130.652	-123.484	20.062	6.891	-125.910	-121.816	-118.755	-113.649	-100.718	-118.152	-8191	255	
1535.682	1	1	0	0	0.16439	0.13559	0.14952	0.34781	0.18392	0.091542	0.27342	0.17969	0.13591	0.1619	0.081978	0.20949	0.27528	0.099224	0.2003	0.30858	-2.3	-2.3438	-2.3917	-2.8208	-2.0604	-2.8542	-2.7083	-2.0187	-2.8583	-2.2958	-2.475	-2.8458	-2.3646	-2.7021	-2.6021	-2.1937	-120.514	-54.051	137.264	-135.753	85.752	-97.657	150.601	-83.384	142.535	-113.284	90.662	-138.770	51.481	-100.299	-20.101	172.871	0.00048803	0.00041843	0.00016583	663.81	3.5901e-06	8.6482e-06	771.78	230.3	8.0835e-06	1.2121e-05	284.4	102.27	83.006	25.067	4.9106e-06	32.505	0.0022999	0.002465	0.00068159	662.48	2.268e-05	2.6715e-05	780.52	238.62	2.538e-05	2.701e-05	404.47	110.22	89.587	31.106	2.6589e-05	41.727	-90.403	-44.927	-33.216	-128.927	-40.054	65.851	-130.393	-123.367	-83.238	-60.634	-127.547	-121.426	-118.548	-113.995	29.186	-117.596	-8191	255	
1535.802	1	1	0	0	0.1544	0.23875	0.13745	0.10413	0.096741	0.2283	0.24744	0.093359	0.18801	0.15314	0.010213	0.19527	0.22514	0.26627	0.040086	0.12018	-2.6688	-2.2896	-2.3104	-2.9042	-1.9583	-2.5417	-2.7417	-2.1042	-2.8354	-2.3854	-2.3021	-2.7229	-2.1875	-2.5125	-2.6417	-1.95	149.132	-127.064	-73.158	-130.867	212.469	-44.910	115.335	38.160	167.996	9.261	48.675	23.303	76.739	-88.276	69.897	-130.550	0.00028131	0.000403	1.4826e-05	659.78	3.8481e-07	1.7742e-06	766.32	229.26	6.2858e-06	9.4293e-06	282.89	102.32	82.429	25.007	6.2533e-06	32.211	0.0023045	0.0024474	0.00067979	662.81	2.2586e-05	2.6747e-05	779.71	239.03	2.5436e-05	2.6759e-05	404.34	110.18	89.652	30.986	2.6387e-05	41.526	213.042	-79.146	-115.334	-128.302	36.374	-74.076	-129.995	-122.826	-92.318	69.279	-126.092	-121.422	-118.171	-113.331	30.969	-116.826	-8191	255	
1535.899	1	1	0	0	0.083686	0.23143	0.042714	0.13846	0.10297	0.33244	0.15409	0.071591	0.10078	0.14455	0.062593	0.13153	0.22918	0.27996	0.1882	0.1086	-2.3438	-2.3187	-2.3292	-2.7958	-2.0771	-2.4542	-2.7604	-2.1896	-2.7875	-2.5042	-2.1167	-2.825	-2.3292	-2.3063	-2.825	-2.1521	147.492	-119.771	58.974	40.181	159.693	36.970	2.817	-72.865	-66.324	-139.625	140.365	-48.204	-97.933	60.296	-30.484	87.670	0.00026207	0.00084158	0.00020148	656.89	6.5793e-07	2.1292e-05	765.63	227.26	5.7213e-06	6.3706e-06	283.45	101.42	82.157	24.959	5.3196e-06	32.051	0.0023097	0.0024294	0.00067122	662.85	2.2559e-05	2.6658e-05	778.75	238.12	2.5695e-05	2.6718e-05	403.8	109.84	89.233	30.877	2.6542e-05	41.347	-78.386	-55.606	-52.442	-128.017	74.343	71.691	-129.937	-122.498	-127.160	42.026	-125.301	-120.913	-118.045	-113.574	-74.363	-117.779	-8191	255	
1535.995	1	1	0	0	0.039015	0.14082	0.038295	0.074685	0.083577	0.30831	0.095344	0.1439	0.11575	0.014864	0.17891	0.23503	0.14319	0.11763	0.11523	0.22658	-2.2479	-2.5521	-2.0229	-2.9	-2.1708	-2.4625	-2.9313	-1.9854	-2.6354	-2.5333	-2.1312	-2.9229	-2.3979	-2.1875	-2.8875	-2.1896	49.801	-13.217	187.016	139.449	212.442	103.883	114.131	-95.261	112.972	-15.964	8.061	114.402	142.770	28.807	153.513	38.631	9.9635e-06	0.00037393	0.00013031	656.93	2.9979e-06	1.7371e-05	765.16	228.22	2.5913e-06	4.5081e-06	282.88	102.13	82.543	24.66	1.7255e-05	32.409	0.0023086	0.0024234	0.00067135	662.96	2.2649e-05	2.6599e-05	780.53	238.45	2.5495e-05	2.6542e-05	402.93	110.19	89.357	30.912	2.651e-05	41.551	-117.287	-13.549	-26.599	-128.153	-15.417	-18.276	-129.812	-122.620	-3.871	-47.146	-126.792	-121.504	-118.366	-114.079	-8.292	-117.350	-8191	255	
1536.114	1	1	0	0	0.23581	0.17447	0.34122	0.27733	0.18216	0.10159	0.16884	0.074467	0.16785	0.1817	0.36851	0.13497	0.17788	0.047755	0.25095	0.26898	-2.0167	-2.7833	-2.1167	-3.0062	-2.3833	-2.1188	-2.9062	-2.225	-2.3854	-2.6396	-2.2625	-2.8937	-2.5312	-2.1667	-2.9	-2.1813	-12.939	-6.466	-61.629	193.195	-83.277	121.665	-119.978	-114.416	-20.188	105.380	-104.297	-81.994	17.861	-47.708	-124.687	-103.157	0.00034708	0.0006141	0.00021095	662.09	2.0859e-06	5.446e-06	771.07	230.03	1.7804e-07	4.2208e-06	284.37	102.15	82.678	25.238	1.1104e-05	32.285	0.0023254	0.00242	0.00067347	664.9	2.269e-05	2.6735e-05	782.92	239.11	2.5564e-05	2.6614e-05	403.92	110.42	89.744	31.152	2.6581e-05	41.741	-108.447	12.304	196.463	-128.420	-3.792	-112.864	-130.119	-122.961	184.929	214.023	-125.777	-121.193	-118.037	-113.814	-1.263	-116.970	-8191	255	
1536.210	1	1	0	0	0.15491	0.17173	0.24327	0.14539	0.18376	0.322	0.12227	0.24162	0.32748	0.10621	0.11876	0.050329	0.10034	0.094356	0.24823	0.12977	-1.9813	-2.8021	-2.0208	-2.7833	-2.5292	-2.1917	-3.0604	-2.3063	-2.4708	-2.6562	-2.1917	-2.7333	-2.5417	-2.15	-2.8333	-2.4354	137.144	16.188	56.656	-113.732	51.268	206.058	-116.308	149.769	110.985	23.210	24.154	188.683	170.967	8.643	165.662	-96.123	0.00027952	0.00033301	0.00014713	658.51	4.7097e-06	1.0087e-05	763.46	228.77	4.3394e-06	2.8879e-06	289.6	101.49	82.372	25.109	1.2359e-05	32.351	0.0023226	0.0024225	0.00067594	664.61	2.2612e-05	2.6715e-05	780.1	239.11	2.5625e-05	2.659e-05	406.97	110.24	89.646	31.057	2.6637e-05	41.751	-106.823	-41.180	208.311	-128.056	-37.153	-35.122	-129.599	-122.649	-54.477	143.184	-125.965	-121.363	-117.882	-113.909	-25.552	-117.675	-8191	255	
1536.281	1	1	0	0	0.066046	0.27339	0.16336	0.20531	0.13689	0.11569	0.15143	0.39705	0.16989	0.24999	0.044534	0.22204	0.16019	0.30274	0.12075	0.13373	-1.8771	-2.8354	-2.1229	-2.6271	-2.475	-2.2021	-3.0542	-2.3521	-2.3396	-2.8312	-2.1229	-2.7	-2.7	-2.1771	-2.7938	-2.6646	141.715	39.966	200.530	167.066	-112.328	11.901	-8.701	215.364	134.690	161.995	-88.488	19.362	22.395	56.992	195.476	-140.739	0.00037571	0.00076058	9.5863e-05	660.12	2.383e-06	2.7125e-06	765.03	229.9	5.7174e-06	2.1255e-06	286.05	101.73	82.691	24.91	5.6079e-06	32.041	0.0023173	0.0024303	0.00067549	664.99	2.2407e-05	2.6604e-05	779.73	239.24	2.5591e-05	2.662e-05	404.49	110.22	89.552	30.891	2.667e-05	41.451	-120.330	-73.382	-120.964	-128.325	-36.795	43.041	-130.066	-122.973	-72.853	3.236	-126.299	-121.397	-118.366	-114.097	-16.823	-117.244	-8191	255	
1536.378	1	1	0	0	0.1786	0.24861	0.22211	0.26679	0.079835	0.14694	0.049329	0.086125	0.27651	0.12811	0.17155	0.3727	0.37658	0.34726	0.080082	0.32167	-1.9042	-2.9417	-2.1021	-2.6729	-2.9292	-2.1625	-2.7562	-2.3271	-2.3396	-2.8063	-2.2583	-2.4417	-2.6958	-2.1708	-2.9521	-2.5187	42.349	211.617	101.630	-83.521	177.846	117.060	166.077	144.158	177.921	-32.238	-74.362	59.083	-138.494	176.727	-78.308	107.338	0.00020436	0.0007173	0.00010725	661.06	2.6617e-06	1.0726e-05	774.64	232.41	3.7099e-06	8.0781e-06	279.71	102.39	82.916	24.881	5.4561e-06	32.139	0.0023196	0.0024182	0.00067703	663.54	2.2388e-05	2.6778e-05	777.28	239.02	2.5493e-05	2.6551e-05	402.74	109.95	89.28	30.899	2.6772e-05	41.325	-80.514	-19.420	18.494	-128.625	-48.940	165.278	-130.978	-123.718	181.477	-14.103	-127.399	-122.045	-119.262	-114.558	57.513	-118.534	-8191	255	
1536.498	1	1	0	0	0.12392	0.19418	0.074871	0.069405	0.13216	0.35804	0.16204	0.20495	0.2442	0.27344	0.15186	0.088621	0.24399	0.02793	0.15325	0.069314	-1.6625	-2.9646	-2.275	-2.5417	-2.8208	-2.1646	-2.725	-2.4625	-2.25	-2.8104	-2.3271	-2.275	-2.7729	-2.1625	-2.5396	-2.7042	9.424	106.171	173.032	-32.195	25.694	-10.269	85.924	-88.541	216.972	173.439	19.408	6.101	129.194	127.475	-13.201	134.828	1.7396e-05	0.00063794	0.00019922	657.71	3.9999e-06	5.9543e-06	766.81	229.91	1.6852e-06	8.1873e-06	284.09	101.69	83.129	24.964	9.5089e-06	32.134	0.0023139	0.0024244	0.00067602	661.94	2.2509e-05	2.6602e-05	776.66	238.66	2.5417e-05	2.6755e-05	403.99	110.4	89.91	31.114	2.6931e-05	41.779	58.570	17.657	-65.455	-128.520	-118.291	187.625	-130.253	-122.928	-111.123	107.388	-126.494	-121.433	-118.175	-114.002	-53.342	-117.391	-8191	255	
1536.594	1	1	0	0	0.1175	0.084218	0.12622	0.20983	0.26215	0.14156	0.25896	0.10374	0.12066	0.16618	0.033806	0.22283	0.083427	0.046282	0.071018	0.10961	-1.8854	-2.7646	-2.3688	-2.3708	-2.85	-2.1188	-2.8125	-2.6146	-2.1021	-2.75	-2.3979	-2.2104	-2.8688	-2.1417	-2.6083	-2.7646	107.572	46.538	26.879	-110.116	159.914	-106.560	-129.121	121.774	7.939	30.882	206.628	125.052	131.203	-106.971	115.879	-83.385	0.00011444	0.00074499	4.9709e-05	660.4	2.5462e-06	1.1334e-05	764.72	229.62	8.6473e-06	4.1974e-06	281.27	101.54	82.67	25.12	1.1342e-05	32.543	0.0023174	0.0024031	0.00067977	663.39	2.2416e-05	2.6683e-05	777.23	239.31	2.5421e-05	2.6814e-05	404.14	110.33	89.78	31.247	2.7085e-05	41.681	-139.065	190.182	-9.541	-128.520	-98.823	-28.337	-130.138	-122.776	-48.994	51.227	-127.142	-121.342	-118.252	-113.831	-52.610	-118.385	-8191	255	
1536.691	1	1	0	0	0.18764	0.032188	0.15428	0.17632	0.16591	0.13587	0.13703	0.085589	0.048192	0.22598	0.0925	0.13019	0.13192	0.13369	0.14792	0.028799	-1.5479	-2.7646	-2.425	-2.3104	-2.8354	-2.2812	-2.4271	-2.7313	-2.3229	-2.7646	-2.5	-2.05	-2.8167	-2.4417	-2.5542	-2.7917	-118.641	-59.252	-88.841	136.902	-91.983	91.429	-126.568	205.389	-132.992	-10.298	149.377	-121.608	-84.817	-127.967	208.230	162.907	0.00022089	0.0012318	0.0002353	657.11	2.5454e-06	1.2527e-05	762.61	229.11	2.2711e-06	5.3883e-06	284.37	101.72	83.608	25.257	3.104e-06	31.917	0.002333	0.0024354	0.00067961	662.05	2.232e-05	2.6673e-05	774.45	239.45	2.562e-05	2.7125e-05	405.18	109.91	89.905	31.124	2.7016e-05	41.549	-90.827	-15.462	-90.292	-128.358	-16.042	90.615	-130.104	-122.681	67.475	-92.937	-125.952	-121.602	-118.560	-114.202	-109.569	-118.180	-8191	255	
1536.787	1	1	0	0	0.16948	0.11294	0.22066	0.052376	0.22904	0.17775	0.23517	0.040731	0.28879	0.35309	0.10708	0.10877	0.089364	0.31744	0.34548	0.10636	-1.825	-2.7333	-2.6562	-2.3208	-2.7958	-2.4188	-2.5271	-2.6708	-2.1875	-2.5625	-2.5542	-2.1792	-2.8937	-2.2854	-2.3625	-2.8708	71.714	-93.683	68.084	106.465	191.270	-107.626	113.465	168.526	-42.844	-58.129	-123.800	200.766	-51.918	217.391	9.448	56.322	0.00019197	0.0003817	0.00014018	658.88	2.1376e-06	8.5069e-06	761.57	229.34	6.2593e-06	8.9707e-06	286.14	101.44	82.759	24.73	7.825e-06	32.644	0.0023303	0.0024567	0.00068047	662.52	2.2404e-05	2.6695e-05	773.9	239	2.5596e-05	2.7098e-05	404.28	109.93	89.64	31.02	2.6999e-05	41.508	-82.141	141.830	-84.800	-128.223	-47.085	-127.191	-130.192	-122.976	-52.252	-119.986	-126.159	-121.465	-118.433	-114.386	10.960	-117.528	-8191	255	
1536.883	1	1	0	0	0.23136	0.11581	0.041667	0.17722	0.18055	0.3187	0.13229	0.095492	0.11028	0.15877	0.11106	0.21234	0.14484	0.063077	0.13617	0.19445	-1.7583	-2.4396	-2.6021	-2.1312	-2.7313	-2.3854	-2.1979	-2.9396	-2.3854	-2.65	-2.6625	-2.0667	-2.7125	-2.3292	-2.1312	-2.8625	160.002	191.642	0.257	119.904	140.791	92.977	-140.006	147.801	9.726	200.473	-67.507	-18.974	16.483	14.388	181.684	171.753	0.00036235	7.2995e-05	0.00014754	656.55	1.102e-06	1.092e-05	759.49	230.15	3.4178e-06	2.5362e-06	282.6	101.18	82.756	24.963	3.1963e-06	31.962	0.002347	0.0024613	0.00067627	660.54	2.2697e-05	2.6949e-05	771.51	238.79	2.5663e-05	2.7134e-05	403.46	109.71	89.375	30.922	2.7078e-05	41.311	-110.768	-100.769	-122.702	-128.411	24.389	-30.271	-130.335	-123.114	-12.010	118.721	-126.274	-121.495	-118.257	-113.539	113.418	-117.726	-8191	255	
1536.979	1	1	0	0	0.10207	0.14628	0.094562	0.22997	0.30611	0.14789	0.15905	0.22906	0.066775	0.067011	0.19739	0.25985	0.21414	0.2098	0.17541	0.17339	-2.0583	-2.4333	-2.7771	-2.1667	-2.7396	-2.5438	-2.1542	-2.8187	-2.2812	-2.5146	-2.6	-2.0979	-2.6771	-2.6833	-2.1646	-2.7521	-139.751	137.322	-111.644	-129.928	-62.255	176.348	-89.857	121.908	155.544	-54.755	-36.949	-83.390	11.259	89.016	68.119	24.080	0.00039964	0.00053722	1.9784e-05	659.14	4.3111e-06	4.6111e-06	760.28	230.72	7.5759e-06	4.1616e-06	279.07	101.72	82.755	24.845	1.6324e-06	32.065	0.0023416	0.0024416	0.00067856	661.43	2.2617e-05	2.6679e-05	772.17	239.63	2.5536e-05	2.7116e-05	402.18	110.15	89.793	31.059	2.6915e-05	41.603	-111.538	-4.980	-103.131	-128.483	-36.538	81.684	-130.163	-123.156	-23.882	-93.790	-126.562	-121.497	-118.494	-113.881	102.201	-118.057	-8191	255	
1537.098	1	1	0	0	0.096359	0.1924	0.069157	0.037351	0.28742	0.084766	0.094179	0.20763	0.067245	0.095924	0.05401	0.1821	0.21163	0.15504	0.15638	0.17957	-1.7854	-2.2021	-2.8396	-2.3125	-2.5646	-2.7521	-2.3937	-2.8479	-2.5083	-2.2292	-2.7583	-2.2021	-2.5458	-2.8458	-2.0458	-2.7729	73.168	-122.394	-13.939	-109.294	63.492	190.867	-33.947	101.374	-91.458	175.509	80.268	-29.812	12.359	15.902	110.210	-38.014	0.00044032	0.00041841	0.00022987	656.64	3.0465e-06	1.3187e-05	759.77	230.71	1.0453e-05	3.9961e-06	280.09	101.59	82.881	24.742	2.9468e-06	32.211	0.0023269	0.0024558	0.00067578	661.7	2.2648e-05	2.6745e-05	773.66	239.5	2.5639e-05	2.7092e-05	401.77	109.98	89.862	30.966	2.6862e-05	41.411	-74.772	-81.244	-18.669	-128.286	-15.177	-14.884	-130.125	-122.845	11.624	-34.700	-125.234	-121.369	-118.038	-113.326	-86.886	-117.664	-8191	255	
1537.194	1	1	0	0	0.16556	0.046234	0.13481	0.18923	0.093271	0.18695	0.30595	0.195	0.2437	0.25823	0.30822	0.28463	0.14822	0.1945	0.15834	0.32077	-2.1271	-2.1229	-2.8396	-2.1667	-2.5312	-2.95	-2.1875	-2.5938	-2.5917	-2.2687	-2.8104	-2.2313	-2.25	-2.8854	-2.1667	-2.6833	-3.027	-132.649	179.146	-78.446	186.653	173.193	192.715	-43.948	96.592	137.665	-41.069	17.367	-111.051	3.278	14.034	102.115	0.00019857	0.00052368	0.00033267	660.22	8.4616e-07	1.0971e-05	760.06	229.9	8.8014e-06	6.1286e-06	281.4	101.56	82.569	24.621	4.4791e-06	32.23	0.0023166	0.0024414	0.00067318	663.01	2.2602e-05	2.6403e-05	773.65	239.05	2.5384e-05	2.6659e-05	400.74	109.43	89.492	30.752	2.6556e-05	41.309	-75.946	-128.078	-44.939	-128.481	-3.009	-78.672	-130.120	-123.033	-53.332	-62.689	-126.855	-121.749	-118.662	-113.859	174.495	-116.869	-8191	255	
1537.290	1	1	0	0	0.094929	0.23686	0.16546	0.21482	0.16234	0.20849	0.15075	0.26611	0.2981	0.086463	0.11113	0.26572	0.18497	0.13777	0.076049	0.2259	-2.2917	-2.2271	-2.7146	-2.5125	-2.4375	-2.75	-2.3792	-2.6292	-2.5604	-2.1667	-2.9292	-2.4021	-2.3104	-2.9771	-2.1604	-2.5062	144.410	25.267	-76.835	62.913	-73.633	-4.821	138.725	181.802	107.455	101.654	87.431	-126.931	134.114	178.419	134.605	64.371	0.00027065	0.0004871	0.00028234	660.88	2.2913e-06	1.1479e-05	767.96	230.12	4.558e-06	8.1814e-06	282.3	100.94	82.109	24.555	1.0513e-05	31.976	0.0022992	0.0024163	0.00066321	662.92	2.2376e-05	2.6211e-05	774.7	238.39	2.5305e-05	2.6469e-05	401.27	109.05	88.933	30.493	2.6518e-05	40.984	-108.976	-36.549	-24.352	-128.501	35.795	-66.107	-130.578	-123.460	13.618	-9.064	-125.549	-121.974	-118.448	-113.901	36.300	-117.769	-8191	255	
1537.386	1	1	0	0	0.22718	0.12739	0.045429	0.017178	0.14376	0.21534	0.31043	0.19738	0.03737	0.094204	0.32343	0.18113	0.13127	0.072803	0.17341	0.075022	-2.3312	-2.1354	-2.6875	-2.5646	-2.0854	-2.7729	-2.3896	-2.5	-2.7313	-2.2667	-2.6688	-2.4542	-2.2146	-2.7479	-2.3396	-2.4729	101.596	172.696	-42.297	203.715	39.171	57.271	-100.868	-90.830	186.777	80.542	10.805	185.842	-100.319	72.421	200.316	29.195	0.00041434	0.00089219	3.2597e-05	663.45	3.8115e-06	5.4593e-06	767.05	228.24	2.1343e-06	1.6949e-05	278.63	100.94	81.619	24.551	4.2007e-06	32.056	0.0022832	0.0024009	0.00066753	662.3	2.2543e-05	2.6299e-05	775.46	237.67	2.5162e-05	2.6603e-05	399.05	108.98	88.601	30.42	2.6474e-05	41.154	-76.253	-111.338	-6.074	-128.922	-6.410	43.880	-130.517	-123.001	-20.397	-33.669	-125.808	-121.494	-118.892	-114.171	24.046	-117.570	-8191	255	
1537.507	1	1	0	0	0.11897	0.13605	0.052368	0.23053	0.29984	0.10008	0.16255	0.25201	0.17141	0.090368	0.32226	0.28588	0.21749	0.015984	0.20997	0.085814	-2.3271	-2.1188	-2.6625	-2.4854	-2.1667	-2.7521	-2.1604	-2.4167	-2.8271	-2.1458	-2.5375	-2.7646	-2.1521	-2.7229	-2.4229	-2.4375	146.251	40.389	-84.644	208.039	7.760	111.529	35.712	-90.827	176.285	179.930	-53.021	106.714	144.113	-19.169	49.722	-120.157	0.00025715	0.00061878	9.3515e-05	661.89	3.1235e-06	1.1124e-05	766.98	229.26	2.9328e-06	4.2098e-06	283.03	101.71	82.383	24.842	1.501e-05	32.018	0.0022724	0.0024055	0.00067069	663.07	2.2358e-05	2.6161e-05	778.35	237.69	2.5072e-05	2.6612e-05	401.66	109.11	88.825	30.577	2.6441e-05	40.99	-63.851	-4.494	42.847	-128.522	-11.557	31.873	-130.285	-123.237	-63.479	-132.173	-127.113	-121.937	-118.906	-114.090	29.678	-119.190	-8191	255	
1537.579	1	1	0	0	0.12096	0.06169	0.1256	0.11903	0.14831	0.12321	0.2378	0.23832	0.14132	0.20926	0.096271	0.056291	0.13862	0.069312	0.15396	0.16947	-2.3271	-2.0833	-2.6125	-2.8375	-2.1708	-2.7833	-2.5438	-2.1479	-2.8937	-2.3104	-2.5229	-2.7354	-2.2104	-2.8083	-2.55	-2.1708	-108.937	182.420	58.719	98.819	-120.440	97.775	46.167	-124.105	-16.297	-12.304	169.575	-110.297	-56.386	6.035	13.039	178.401	0.00036017	0.00032982	0.0001487	662.91	3.836e-06	6.2653e-06	768.11	229.67	6.0308e-06	8.1168e-06	281.81	101.42	82.091	24.725	1.0294e-05	31.361	0.0022668	0.0024132	0.00066786	662.73	2.2292e-05	2.6183e-05	776.59	237.56	2.4847e-05	2.6524e-05	401.59	108.71	88.447	30.411	2.6499e-05	40.711	-86.654	-67.106	-46.291	-128.614	-50.480	46.560	-130.595	-123.355	-25.341	-23.088	-126.487	-122.130	-118.839	-114.623	41.447	-117.916	-8191	255	
1537.675	1	1	0	0	0.18905	0.080484	0.17419	0.19191	0.18829	0.24557	0.061609	0.094763	0.022256	0.15348	0.071234	0.17211	0.20882	0.17236	0.11793	0.051288	-2.4021	-2.0812	-2.4625	-2.8688	-2.4625	-2.8021	-2.7229	-2.2083	-2.9875	-2.4771	-2.3771	-2.7354	-2.2062	-2.7021	-2.675	-2.2646	34.680	104.466	-25.807	217.532	-137.057	-9.046	100.947	32.136	-128.838	0.039	-12.023	43.343	77.423	-105.989	195.745	64.722	0.00031744	0.0003322	0.00019598	659.34	1.8691e-06	5.3245e-06	765.73	227.33	7.3824e-06	8.8716e-06	277.47	100.76	81.556	24.001	7.2951e-06	31.653	0.0022652	0.0024079	0.00066916	661.18	2.2182e-05	2.6243e-05	775.45	236.01	2.4955e-05	2.6493e-05	400.38	107.97	87.785	30	2.6563e-05	40.507	-61.667	-9.371	-39.115	-128.539	-48.809	153.186	-130.260	-123.304	-37.098	155.111	-126.661	-122.128	-118.829	-113.606	-113.121	-117.560	-8191	255	
1537.771	1	1	0	0	0.15364	0.28964	0.12897	0.14289	0.241	0.017216	0.14049	0.26559	0.25613	0.26543	0.11911	0.15138	0.50044	0.19331	0.069571	0.15495	-2.5125	-2.1542	-2.2083	-2.8563	-2.1562	-2.6208	-2.7042	-2.1521	-2.9646	-2.5708	-2.3187	-2.8021	-1.9417	-2.4417	-2.5125	-1.9979	5.135	-90.062	159.143	179.438	143.356	60.928	-98.641	194.265	-118.204	-25.158	89.841	55.861	-37.752	195.799	26.674	-31.666	0.00021817	0.00057098	4.2211e-05	656.41	8.7879e-07	1.2433e-05	765.56	226.12	6.3932e-06	4.9146e-06	280.46	99.847	80.276	23.691	2.3023e-06	31.182	0.0022819	0.0024205	0.00067656	658.17	2.2301e-05	2.6413e-05	773.12	234.29	2.5181e-05	2.657e-05	398.34	107.39	87.107	29.838	2.6565e-05	40.431	-97.495	18.589	109.503	-128.372	-47.037	-31.750	-130.457	-123.386	-20.085	-10.742	-126.414	-121.693	-118.995	-114.605	63.572	-118.332	-8191	255	
1537.890	1	1	0	0	0.041326	0.14465	0.35498	0.11625	0.31885	0.19318	0.087931	0.28164	0.08364	0.1275	0.081389	0.14983	0.029531	0.24406	0.17151	0.34994	-2.4833	-2.4813	-2.4	-2.7812	-2.0438	-2.5021	-2.7833	-2.0708	-2.7417	-2.4458	-2.2083	-2.9917	-2.3667	-2.4688	-2.7333	-2.15	-82.425	112.026	-119.575	-88.318	-121.916	-109.408	189.267	155.736	59.353	-114.555	141.458	32.697	215.214	117.875	-129.717	-52.352	0.00035733	0.00099162	0.00022741	656.54	9.716e-07	7.1005e-06	762.02	225.69	4.5086e-06	8.6184e-06	282.09	99.327	80.98	23.948	5.6743e-06	31.172	0.002296	0.002412	0.00067444	657.34	2.2606e-05	2.6676e-05	771.56	234.45	2.5399e-05	2.6967e-05	399.93	107.51	87.442	30.169	2.6574e-05	40.501	187.893	93.968	-107.827	-128.682	-38.288	-20.298	-130.540	-123.354	1.250	7.415	-126.730	-121.429	-118.703	-114.417	210.170	-118.521	-8191	255	
1537.986	1	1	0	0	0.12945	0.051071	0.24514	0.26609	0.16749	0.17894	0.031109	0.076142	0.18191	0.16905	0.059146	0.20429	0.14136	0.25863	0.12511	0.10885	-2.4479	-2.6292	-2.1562	-2.9792	-2.1813	-2.4479	-2.8521	-2.1083	-2.8521	-2.7271	-2.2146	-2.8583	-2.4042	-2.4313	-2.7208	-2.0563	-49.742	38.971	40.218	132.623	165.213	-94.512	-32.152	153.155	-76.456	67.122	-129.798	96.616	127.871	-60.837	-42.274	13.502	0.00024222	0.00055467	0.00013491	659.03	3.2696e-06	7.4583e-06	767.63	227.91	4.6119e-06	1.094e-05	284.26	101.06	81.868	24.468	6.1431e-06	32.009	0.0023091	0.002424	0.00067823	659.51	2.2519e-05	2.6834e-05	774.64	235.7	2.5656e-05	2.6919e-05	401.6	108.28	88.276	30.414	2.6733e-05	40.735	-95.772	-23.113	-52.257	-128.645	-13.301	143.702	-130.582	-123.377	34.204	76.186	-127.036	-122.143	-119.304	-114.284	28.503	-118.834	-8191	255	
1538.082	1	1	0	0	0.13798	0.13708	0.26517	0.36085	0.1246	0.21611	0.37716	0.2485	0.1676	0.13529	0.2515	0.10762	0.02825	0.36877	0.03023	0.038881	-2.1396	-2.5146	-2.0812	-2.9396	-2.4375	-2.2375	-2.8542	-2.0083	-2.5229	-2.6896	-2.1708	-2.7125	-2.2958	-2.0792	-2.9021	-2.4083	212.486	-126.435	212.447	139.511	181.836	-42.081	172.808	-133.491	19.725	4.986	190.681	-57.723	-37.633	-117.482	188.819	210.483	0.00029627	0.00049996	9.8346e-05	665.4	2.0772e-06	8.7743e-06	767.75	228.89	2.6404e-06	5.5519e-06	279.8	100.1	81.774	24.057	8.3671e-06	31.792	0.0023243	0.0024395	0.00068062	660.95	2.2632e-05	2.6791e-05	772.37	236.22	2.5504e-05	2.6803e-05	401.12	107.92	88.227	30.3	2.6704e-05	40.75	-125.282	-90.106	-84.375	-129.226	-123.147	109.921	-130.783	-123.464	-95.440	58.012	-125.598	-121.811	-118.715	-114.137	44.704	-117.845	-8191	255	
1538.180	1	1	0	0	0.063087	0.099285	0.23597	0.084462	0.2087	0.12304	0.30885	0.22471	0.054786	0.050535	0.088866	0.16023	0.19748	0.12341	0.0044084	0.15841	-2.3042	-2.6646	-2.0229	-2.7708	-2.5479	-2.2917	-2.975	-2.1688	-2.5812	-2.7979	-1.9521	-2.5979	-2.6896	-2.0438	-2.8625	-2.3	-63.923	202.700	-136.251	165.477	-19.844	167.502	88.438	85.086	-64.510	39.101	134.807	112.883	-115.352	69.294	173.625	-113.768	0.00032569	0.00079061	0.00019716	660.25	4.5217e-06	6.9625e-06	763.39	227.11	6.9111e-07	1.1983e-05	279.35	99.532	80.641	24.069	4.7999e-06	31.077	0.0023135	0.0024122	0.00067823	660.55	2.2709e-05	2.6782e-05	771.9	235.94	2.5625e-05	2.6638e-05	399.81	107.42	87.788	30.058	2.6672e-05	40.437	-113.472	-29.665	-133.711	-128.707	-66.071	-10.380	-130.490	-123.078	58.213	-89.550	-126.382	-121.994	-118.234	-114.469	-27.295	-117.920	-8191	255	
1538.274	1	1	0	0	0.25236	0.11376	0.094857	0.23766	0.15585	0.11303	0.21584	0.15292	0.26687	0.1646	0.20588	0.3162	0.15701	0.10614	0.31774	0.22099	-1.9125	-2.7188	-2.0812	-2.9167	-2.6583	-2.2562	-2.6562	-2.3104	-2.325	-2.9521	-2.1833	-2.6021	-2.6458	-2.1562	-2.9271	-2.3583	-52.488	206.111	173.633	161.893	100.134	77.479	-134.503	72.739	201.224	-136.212	43.233	15.347	195.890	-66.272	-50.553	102.640	9.4115e-05	0.001106	0.00010534	661.85	3.2242e-06	9.3021e-06	768.46	229.66	2.5472e-06	6.8157e-06	279.08	99.665	81.324	23.996	1.4745e-06	31.352	0.0023392	0.0024369	0.00067841	661.2	2.2734e-05	2.6834e-05	773.02	236.18	2.5813e-05	2.6836e-05	399.91	107.81	87.928	30.122	2.669e-05	40.502	167.845	-91.507	-96.172	-128.849	-17.837	-109.391	-130.995	-123.582	-38.938	-116.674	-125.791	-121.748	-118.704	-114.165	-125.379	-118.331	-8191	255	
1538.371	1	1	0	0	0.28924	0.021727	0.27312	0.23165	0.39721	0.019906	0.2827	0.17283	0.15242	0.11543	0.15623	0.21639	0.038671	0.13503	0.11645	0.13821	-1.7542	-2.8458	-2.1583	-2.6167	-2.7021	-2.1	-2.7604	-2.5563	-2.2958	-2.9854	-2.2938	-2.4917	-2.7646	-2.175	-2.6813	-2.5187	-35.395	117.659	213.465	180.790	-19.695	121.446	173.936	-9.901	207.864	21.806	130.303	202.846	-119.734	-133.983	-77.563	-110.223	0.00014158	0.0011891	0.00015929	663.47	1.1131e-06	6.8885e-06	773.11	231.22	1.1494e-06	1.336e-05	282.53	100.41	81.741	24.528	2.7634e-06	31.966	0.0023342	0.0024231	0.00067761	662.79	2.2423e-05	2.6755e-05	775.09	237.64	2.5716e-05	2.6553e-05	402.56	108.66	88.459	30.432	2.6602e-05	40.741	-65.107	-70.482	25.849	-128.809	-102.736	30.054	-131.020	-123.608	-23.564	-49.064	-127.504	-121.946	-118.823	-114.529	216.059	-118.229	-8191	255	
1538.467	1	1	0	0	0.058785	0.091477	0.1193	0.25001	0.3564	0.075288	0.2232	0.26084	0.07506	0.16198	0.38	0.1022	0.097197	0.3688	0.26666	0.21014	-1.6771	-2.7583	-2.2	-2.35	-2.6417	-2.1542	-2.7812	-2.6125	-2.1188	-2.8625	-2.3937	-2.2958	-2.7958	-2.0687	-2.4958	-2.5563	171.015	-85.502	23.609	166.300	97.954	26.643	-45.021	129.879	-124.284	86.447	-96.527	94.152	138.511	-113.798	187.353	139.345	0.00031124	0.0012349	0.00011956	667.52	1.8367e-06	7.0641e-06	771.35	230.71	3.8527e-06	1.0441e-06	283.02	100.99	83.26	24.76	7.0461e-06	32.355	0.0022966	0.0024097	0.00067186	664.62	2.2137e-05	2.6327e-05	775.17	238.43	2.5116e-05	2.6226e-05	400.34	108.75	88.998	30.523	2.6107e-05	40.835	-128.777	-80.953	-60.770	-129.047	-17.686	48.202	-130.834	-123.352	-24.620	49.246	-126.698	-121.738	-119.178	-114.515	-61.871	-117.766	-8191	255	
1538.587	1	1	0	0	0.096733	0.086798	0.17224	0.12638	0.038499	0.057008	0.27145	0.11608	0.30735	0.12146	0.13186	0.083662	0.15107	0.23338	0.24591	0.081819	-1.7146	-2.7229	-2.3354	-2.3438	-3.0021	-2.0354	-2.7542	-2.7062	-1.9813	-2.7604	-2.1813	-2.2292	-2.7083	-2.3042	-2.4083	-2.8167	69.705	-9.415	26.530	-126.903	-52.972	-126.268	-102.009	2.833	6.622	-79.322	10.947	-27.418	-22.550	-33.271	6.878	133.059	0.00016407	0.00086821	0.00028333	662.08	2.7336e-06	9.5633e-06	763.61	229.77	1.2277e-06	5.8298e-06	284.31	100.46	82.318	24.679	5.3748e-06	31.404	0.0022363	0.0023086	0.00063987	664.49	2.1065e-05	2.4844e-05	772.42	237.56	2.3341e-05	2.4281e-05	387.78	107.47	88.24	29.773	2.3318e-05	39.438	-73.511	-91.982	-24.098	-128.422	-24.056	168.294	-130.374	-122.936	-99.843	-59.072	-125.906	-121.749	-118.616	-114.514	209.085	-117.967	-8191	255	
1538.683	1	1	0	0	0.28912	0.18386	0.10801	0.26761	0.085599	0.21598	0.2482	0.067027	0.29659	0.037321	0.30461	0.060963	0.095309	0.34285	0.12087	0.10326	-1.7417	-2.675	-2.5229	-2.2146	-2.8854	-2.1646	-2.5542	-2.7	-2.1875	-2.7354	-2.4562	-2.2687	-2.8646	-2.2062	-2.5333	-2.7875	51.319	64.184	192.061	132.526	-133.681	-118.277	185.395	-110.263	166.570	-17.735	196.418	-72.492	179.773	187.105	69.235	-83.316	0.00021935	0.00071853	0.00020498	664.82	2.0362e-06	1.3984e-05	764.89	229.17	5.4435e-06	5.4146e-06	282.45	100.35	81.578	24.374	7.7964e-06	31.387	0.0019865	0.002075	0.00057295	664.4	1.851e-05	2.1869e-05	770.87	236.16	2.0392e-05	2.1268e-05	370.4	106.43	87.085	28.87	2.0765e-05	38.382	-64.493	-46.752	2.695	-128.799	46.115	25.886	-130.718	-122.933	-49.030	24.200	-126.674	-122.116	-118.266	-114.357	12.731	-116.674	-8191	255	
1538.780	1	1	0	0	0.18266	0.056951	0.10863	0.14668	0.14635	0.11544	0.082282	0.15199	0.069875	0.14005	0.23014	0.15034	0.14458	0.23065	0.15001	0.019695	-1.7646	-2.6354	-2.3292	-2.2854	-2.9292	-2.2896	-2.4979	-2.7208	-2.1188	-2.6479	-2.6312	-2.1667	-2.6042	-2.4271	-2.1604	-2.8521	-2.270	189.447	176.886	-31.728	48.242	210.131	18.146	-121.760	75.177	123.607	138.416	24.504	189.147	-59.200	38.459	21.674	0.00023219	0.00026821	0.00020126	660.27	1.5231e-06	3.5576e-07	760.53	228.34	3.529e-06	1.8833e-06	276.96	99.437	81.615	24.163	1.2637e-06	31.768	0.0017786	0.0018368	0.0005054	662.06	1.65e-05	1.9423e-05	769.16	235.42	1.8582e-05	1.9556e-05	363.49	106.06	86.918	28.779	2.0641e-05	38.278	-109.892	1.330	-19.726	-128.477	-25.572	100.828	-130.202	-122.810	14.402	-89.315	-126.872	-121.407	-117.975	-113.545	142.051	-117.432	-8191	255	
1538.876	1	1	0	0	0.073537	0.30028	0.1088	0.15532	0.051086	0.046991	0.22283	0.22333	0.085752	0.16744	0.11552	0.19195	0.24215	0.3378	0.16999	0.31332	-1.6542	-2.5458	-2.65	-2.0396	-2.6667	-2.375	-2.5062	-2.6521	-2.1646	-2.4625	-2.8042	-2.0854	-2.7708	-2.3979	-2.1229	-2.8812	-50.063	160.849	52.008	156.195	2.024	94.359	49.745	-126.065	41.252	161.833	-96.584	67.253	173.446	-140.866	-14.512	17.247	8.4093e-05	0.00043739	0.00010291	664.99	1.443e-06	4.6949e-06	770.51	232.39	4.3255e-06	3.6952e-06	285.31	101.74	83.209	24.927	2.7058e-06	31.979	0.0017969	0.0018839	0.00052126	665.36	1.7765e-05	2.1059e-05	773.83	237.93	2.0679e-05	2.1661e-05	375.32	107.77	88.167	29.586	2.2592e-05	39.424	209.070	25.436	29.789	-128.588	-77.240	-19.780	-130.828	-123.362	-26.909	141.594	-126.454	-122.000	-119.116	-113.897	-91.468	-117.302	-8191	255	
1538.972	1	1	0	0	0.13494	0.13193	0.21349	0.3767	0.26524	0.071782	0.13291	0.32345	0.20106	0.20822	0.086895	0.20441	0.19502	0.27148	0.094842	0.18646	-1.65	-2.525	-2.8438	-2.1063	-2.5958	-2.6271	-2.1688	-2.8812	-2.3542	-2.2812	-2.7375	-2.1833	-2.5312	-2.5729	-2.2417	-2.9021	187.890	187.893	-118.100	182.545	98.821	34.547	-82.811	11.931	-135.036	-9.542	131.420	-84.916	-10.167	196.450	-107.213	27.973	0.00023607	0.00025029	4.7119e-05	667.21	2.18e-06	3.1004e-06	767.27	231.37	1.6219e-06	8.78e-06	282.26	101.2	82.91	24.564	7.1998e-06	31.909	0.0019762	0.0020792	0.00057433	666.96	1.9562e-05	2.3262e-05	773.3	238.96	2.2433e-05	2.3868e-05	385.08	108.2	88.975	30.061	2.4008e-05	40.009	-33.913	-101.639	96.040	-128.715	-30.033	99.224	-130.530	-123.154	30.136	24.562	-126.505	-122.091	-118.619	-114.485	-126.345	-118.023	-8191	255	
1539.066	1	1	0	0	0.081187	0.24326	0.17823	0.22238	0.18009	0.071739	0.066773	0.058591	0.078036	0.19343	0.13962	0.16109	0.033106	0.090681	0.18393	0.24726	-1.9458	-2.3396	-2.75	-2.4188	-2.5667	-2.6083	-2.2104	-2.6667	-2.3167	-2.2646	-2.7938	-2.1042	-2.5125	-2.5146	-1.8646	-2.8667	30.810	-119.578	-131.638	173.462	-55.057	99.252	-31.495	-130.261	85.020	139.542	79.775	102.957	121.966	38.222	42.522	24.627	0.00034767	0.00076844	0.00010692	666.11	1.3724e-06	7.9672e-06	763.43	231.16	4.7132e-06	9.1986e-06	288.59	100.52	83.064	24.478	9.5789e-07	31.705	0.0020987	0.00222	0.00060801	667.78	2.056e-05	2.4204e-05	772.4	239.23	2.354e-05	2.4792e-05	389.44	108.08	88.96	29.981	2.4691e-05	40.088	-56.243	183.278	35.662	-128.484	-59.023	11.815	-130.314	-123.049	-102.399	102.367	-127.465	-122.125	-119.292	-114.674	152.265	-118.022	-8191	255	
1539.187	1	1	0	0	0.19496	0.11264	0.12705	0.23964	0.17344	0.11313	0.15722	0.070969	0.27403	0.18431	0.16552	0.20192	0.16513	0.096587	0.21783	0.33571	-1.875	-2.3229	-2.5271	-2.2583	-2.2854	-2.7188	-1.9729	-2.6688	-2.2875	-2.1896	-2.6479	-1.925	-2.3812	-2.7271	-1.8667	-2.6583	-59.304	73.703	119.667	212.335	-46.714	33.304	-116.335	-108.595	123.474	77.179	67.570	203.778	-127.344	-53.542	-55.995	143.696	0.0002424	0.00069664	0.00017606	664.45	2.0203e-06	1.2278e-05	762.12	231.35	4.1879e-06	7.6194e-06	282.31	100.5	82.358	24.47	9.9998e-06	31.42	0.002157	0.0022622	0.0006191	666.04	2.0959e-05	2.4688e-05	771.38	238.55	2.3802e-05	2.507e-05	391.79	108.14	88.535	29.908	2.5045e-05	39.988	-40.802	112.463	95.913	-128.412	-12.712	-8.364	-130.338	-123.204	101.390	70.182	-125.265	-121.515	-118.670	-113.786	-36.402	-117.765	-8191	255	
1539.283	1	1	0	0	0.094864	0.11823	0.34227	0.062614	0.048145	0.33994	0.20085	0.089424	0.19438	0.10984	0.2838	0.35284	0.050497	0.13127	0.17827	0.13992	-2.0833	-2.1167	-2.8063	-2.3875	-2.4083	-2.7229	-2.2208	-2.6333	-2.6708	-2.2	-2.7812	-2.3542	-2.325	-2.7	-2.1271	-2.5542	-110.462	179.383	67.253	150.058	-79.772	-136.064	210.046	-96.908	104.936	49.344	63.154	55.317	-18.721	70.221	120.675	-19.418	0.00038618	0.00047637	0.00017299	663.91	2.9957e-06	2.0649e-06	760.73	230.88	7.9601e-06	3.8998e-06	280.74	100.24	82.868	24.846	5.5896e-06	31.784	0.0021729	0.0022856	0.00063066	666.12	2.1361e-05	2.4806e-05	771.08	239.55	2.419e-05	2.5297e-05	393.79	108.48	89.132	30.409	2.5757e-05	40.592	-132.972	162.337	-46.258	-128.434	-73.812	100.354	-130.193	-122.793	-14.047	-105.469	-124.780	-121.607	-118.426	-113.442	21.671	-117.476	-8191	255	
1539.379	1	1	0	0	0.24202	0.10851	0.11068	0.027813	0.54027	0.23662	0.22611	0.33732	0.092749	0.39781	0.053788	0.27611	0.41801	0.19044	0.026781	0.24632	-2.1688	-2.0979	-2.8208	-2.3167	-2.1833	-2.8625	-2.3021	-2.4479	-2.6208	-2.125	-2.875	-2.3625	-2.275	-2.8104	-2.0604	-2.3229	177.197	100.627	63.002	90.723	-88.210	13.019	99.375	27.323	159.577	200.737	9.385	160.677	60.061	187.382	211.121	-10.156	0.00017157	0.00041964	0.00019648	665.75	1.2703e-06	1.0416e-05	763.25	232.34	4.7635e-06	4.227e-06	278.1	101.11	82.916	24.902	2.9801e-06	31.846	0.0022153	0.0023527	0.00064701	667.45	2.1703e-05	2.5594e-05	772.3	240.51	2.4377e-05	2.5913e-05	398.88	109.09	89.502	30.48	2.6005e-05	40.71	-84.625	176.304	-25.434	-128.479	11.886	-63.403	-130.272	-123.096	14.745	-93.768	-126.865	-121.751	-118.528	-113.844	-137.358	-118.215	-8191	255	
1539.451	1	1	0	0	0.154	0.052734	0.11285	0.17212	0.16486	0.21134	0.25623	0.27092	0.12678	0.19512	0.34855	0.16912	0.12904	0.14318	0.18222	0.24444	-2.3042	-1.9833	-2.5333	-2.5292	-2.2333	-2.8708	-2.3292	-2.2021	-2.7229	-2.2208	-2.4396	-2.4375	-2.3125	-2.6479	-2.3458	-2.2458	-50.919	-135.812	-117.694	-99.471	76.252	165.883	23.353	-6.494	128.222	137.118	157.927	-128.974	197.453	-120.384	218.522	196.247	0.00050042	0.00078998	7.7057e-05	665.4	1.1245e-06	5.4234e-06	760.69	231.22	7.2383e-06	8.7503e-06	283.6	100.29	82.641	24.673	6.7059e-06	31.75	0.0022286	0.0023698	0.00065664	667.16	2.194e-05	2.5905e-05	770.84	240.3	2.474e-05	2.611e-05	399.42	108.69	89.258	30.33	2.622e-05	40.611	-68.276	1.917	27.468	-128.551	30.433	36.332	-130.370	-123.001	-44.291	53.726	-125.793	-121.702	-118.355	-113.879	-10.694	-117.362	-8191	255	
1539.572	1	1	0	0	0.18304	0.1597	0.041571	0.28086	0.069505	0.092917	0.20011	0.12011	0.1568	0.11719	0.052489	0.14887	0.05927	0.48084	0.11119	0.1928	-2.4562	-2.1604	-2.4625	-2.7479	-2.0729	-2.8417	-2.3	-2.3563	-2.9083	-2.1625	-2.5667	-2.6417	-2.0917	-2.5125	-2.1458	-2.0958	55.535	49.073	-63.211	155.310	-92.134	-14.951	-119.365	11.216	191.787	-10.809	44.815	101.498	153.845	119.809	111.268	-25.297	0.00015125	0.0005532	5.3168e-05	659.48	2.2535e-06	7.4406e-06	759.7	228.52	2.0634e-06	4.3844e-06	276.27	99.842	82.448	24.246	6.6676e-06	31.113	0.0022563	0.0023757	0.00066304	665.66	2.2264e-05	2.6036e-05	769.11	238.99	2.4834e-05	2.6422e-05	398.06	108.16	88.763	30.06	2.644e-05	40.256	-66.839	-6.822	-52.542	-128.041	-46.253	-12.026	-130.319	-122.720	19.013	95.096	-125.569	-121.583	-118.700	-114.058	97.094	-117.282	-8191	255	
1539.668	1	1	0	0	0.10435	0.14795	0.14234	0.18633	0.15275	0.1952	0.16437	0.1027	0.050129	0.16513	0.27136	0.4368	0.040084	0.23651	0.14124	0.012353	-2.3667	-2.15	-2.55	-2.7125	-1.9583	-2.5104	-2.3271	-2.2479	-2.6604	-2.1188	-2.4208	-2.6312	-1.9354	-2.7562	-2.3958	-2.1417	-118.293	-128.261	146.869	133.434	43.701	74.204	206.661	145.221	72.506	156.879	159.134	83.505	48.827	173.621	38.910	201.378	0.00028289	0.00049583	2.2469e-05	664.3	2.4322e-06	9.1462e-06	762.12	231.41	4.3182e-06	3.1277e-06	284.33	99.798	82.278	24.242	7.7876e-06	31.369	0.0022647	0.0023891	0.0006705	665.58	2.2235e-05	2.615e-05	769.29	238.97	2.4962e-05	2.6256e-05	400.52	107.96	88.566	29.926	2.6379e-05	40.253	-26.190	-30.645	-2.811	-128.631	-51.384	-63.211	-130.632	-123.541	19.282	26.884	-125.502	-121.669	-118.716	-114.720	-54.252	-118.132	-8191	255	
1539.764	1	1	0	0	0.1421	0.29146	0.066333	0.15438	0.16212	0.0893	0.048411	0.18933	0.21576	0.19685	0.14424	0.045476	0.10697	0.25889	0.30896	0.14267	-2.6021	-2.2417	-2.2896	-2.775	-2.0979	-2.6188	-2.3875	-2.1958	-2.9313	-2.325	-2.2354	-2.8375	-1.9292	-2.55	-2.4979	-2.2208	176.235	86.775	157.439	9.258	50.828	47.122	180.067	-93.040	39.492	-84.831	24.794	164.387	0.110	-104.991	176.698	-60.733	0.00019193	0.00021751	0.00021431	669.84	1.8401e-06	8.4123e-06	766.55	232.58	2.8599e-06	8.5232e-06	284.19	101.13	82.571	24.161	5.5888e-06	31.489	0.0022512	0.0024083	0.00066152	668.29	2.2167e-05	2.6038e-05	773.22	239.87	2.4744e-05	2.6211e-05	400.22	108.62	89.214	30.256	2.6111e-05	40.426	199.509	58.538	-36.913	-128.674	-31.379	-77.639	-130.598	-123.477	-60.598	183.170	-125.842	-121.749	-118.963	-114.121	45.949	-117.911	-8191	255	
1539.860	1	1	0	0	0.1178	0.21604	0.13283	0.12606	0.11692	0.23245	0.22732	0.25556	0.2107	0.089301	0.052177	0.045722	0.10064	0.15084	0.12376	0.32089	-2.3187	-2.3479	-2.1437	-2.975	-2.1208	-2.4333	-2.5271	-2.1063	-2.8583	-2.3833	-2.1854	-2.625	-2.2333	-2.5146	-2.7229	-2.1937	-17.267	37.670	122.071	137.536	60.759	63.033	-33.110	23.511	-132.128	99.984	-96.418	-50.920	-121.808	-104.642	157.079	5.619	0.00017722	7.4126e-05	0.00018483	672.05	1.0914e-06	1.3636e-05	769.58	233.1	6.4173e-06	3.0309e-06	282.35	100.44	83.047	24.448	6.9604e-06	32.029	0.0022439	0.0023847	0.00066189	670.3	2.2041e-05	2.6148e-05	775.42	241.03	2.467e-05	2.6297e-05	398.63	108.78	89.5	30.304	2.5791e-05	40.609	-119.294	-112.928	-55.669	-128.934	-19.098	-55.109	-130.549	-123.403	5.814	155.809	-125.937	-121.600	-118.700	-114.054	-54.096	-117.800	-8191	255	
1539.979	1	1	0	0	0.28393	0.1687	0.22142	0.14926	0.097988	0.18271	0.10244	0.15547	0.25731	0.20165	0.12843	0.17338	0.17646	0.039352	0.12173	0.10463	-2.3167	-2.1375	-2.0979	-2.8542	-2.2188	-2.4125	-2.6729	-2.0438	-2.5938	-2.5563	-2.1917	-2.7292	-2.2375	-2.2438	-2.7917	-2.0583	-20.590	-53.024	-91.763	-115.317	98.418	103.878	88.204	116.762	-38.781	73.194	151.780	32.345	152.251	138.537	-78.183	198.351	0.00011506	0.00021005	0.00032652	670.76	2.8528e-06	1.8649e-05	766.91	233.43	8.3576e-06	2.7724e-06	287.92	100.32	82.85	24.377	3.4542e-06	31.628	0.0022418	0.0023741	0.0006566	669.99	2.1968e-05	2.5972e-05	772.71	240.39	2.4609e-05	2.5927e-05	398.99	108.26	89.077	30.113	2.5579e-05	40.224	-113.295	80.657	-83.608	-128.506	-62.730	176.897	-130.635	-123.162	-12.196	-81.961	-126.422	-121.454	-118.726	-114.490	93.562	-117.696	-8191	255	
1540.052	1	1	0	0	0.093536	0.20768	0.16965	0.26179	0.18343	0.12292	0.23846	0.22135	0.174	0.28603	0.2707	0.25274	0.098097	0.25716	0.018581	0.21271	-2.1875	-2.5938	-2.0479	-2.9562	-2.3625	-2.3458	-2.7229	-2.2167	-2.5479	-2.5354	-2.1021	-2.7104	-2.3312	-2.4625	-2.7771	-2.0833	181.324	87.800	-82.555	172.829	-35.214	168.139	173.565	84.070	43.597	-120.216	-139.720	-80.551	-138.475	-44.579	-120.971	-125.809	0.00020318	0.00081907	0.0002847	668.74	1.7597e-06	1.7343e-06	766.29	230.84	2.7406e-06	6.223e-06	282.77	99.723	82.241	24.334	1.3872e-05	31.383	0.0022268	0.0023601	0.00064769	669.12	2.1649e-05	2.5723e-05	773.2	239.43	2.45e-05	2.5657e-05	394.84	107.65	88.334	29.819	2.5339e-05	39.853	-116.394	-46.480	-112.429	-128.654	-65.074	-90.690	-130.476	-123.020	-80.860	-127.346	-126.373	-121.628	-118.279	-114.052	-44.466	-118.712	-8191	255	
1540.148	1	1	0	0	0.22677	0.096253	0.15387	0.11163	0.13033	0.18929	0.20696	0.15597	0.19778	0.11101	0.25629	0.17301	0.14421	0.12908	0.20463	0.21323	-2.1375	-2.5521	-1.9583	-2.7646	-2.6271	-2.2375	-2.8625	-2.1354	-2.5083	-2.8479	-2.1146	-2.6708	-2.4479	-2.2125	-2.9437	-2.2833	16.427	-8.022	1.150	23.970	80.384	-20.312	-72.955	46.594	118.916	-28.489	142.653	-11.802	61.714	-25.995	-120.381	-20.801	0.00024233	0.00030417	0.00013586	666.36	6.0406e-06	5.8732e-06	769.62	231.23	2.918e-06	1.1733e-06	281.66	100.26	81.855	23.964	3.1114e-06	31.535	0.0022149	0.0023354	0.00064428	668.65	2.1539e-05	2.5471e-05	774.63	238.61	2.4445e-05	2.5338e-05	394.76	107.87	88.08	29.669	2.5048e-05	39.878	-128.152	12.114	-47.359	-128.397	-22.997	86.249	-130.676	-123.378	26.914	80.256	-125.217	-121.750	-118.722	-113.954	35.636	-118.230	-8191	255	
1540.267	1	1	0	0	0.2098	0.052377	0.21798	0.24866	0.248	0.24844	0.15249	0.050132	0.16345	0.067952	0.11954	0.048357	0.39596	0.21249	0.12468	0.15891	-2.1375	-2.6979	-2.0917	-2.75	-2.5083	-2.0625	-2.8563	-2.0958	-2.3417	-2.7583	-2.0542	-2.4646	-2.5563	-2.0833	-2.7708	-2.3479	9.704	44.238	205.525	86.563	-78.943	85.501	123.226	-2.996	-45.431	-135.613	56.917	-129.382	114.502	138.901	-8.164	-48.093	0.00014296	0.00020839	6.1434e-05	669.05	1.4326e-06	3.3678e-06	769.4	233.23	3.7338e-06	3.1167e-06	283.57	100.67	82.171	24.445	1.0465e-05	31.752	0.0021938	0.0022856	0.00063863	670.78	2.1349e-05	2.5331e-05	776.57	239.79	2.4225e-05	2.5169e-05	397.02	108.36	88.704	30.051	2.5132e-05	40.189	-93.300	-18.301	48.420	-128.411	-60.755	141.956	-130.488	-123.339	33.554	-92.613	-124.958	-121.617	-118.783	-113.715	-37.406	-117.564	-8191	255	
1540.363	1	1	0	0	0.074388	0.18824	0.043538	0.27456	0.12283	0.17766	0.040733	0.046656	0.0079465	0.19966	0.11958	0.2806	0.3104	0.1495	0.03135	0.17603	-2.0271	-2.6813	-2.1167	-2.6604	-2.5583	-2.0667	-2.95	-2.4333	-2.2687	-2.875	-2.1958	-2.5729	-2.6354	-1.9583	-2.8042	-2.55	-95.521	115.551	-48.413	200.725	158.811	-16.173	-20.660	-57.643	198.214	-98.205	106.526	-30.627	54.318	37.422	93.240	29.007	0.0001591	0.0010537	7.6053e-05	666.47	2.1595e-06	2.6106e-06	765.87	230.92	1.6001e-06	1.8893e-06	281.08	100.2	82.8	24.132	3.89e-06	31.552	0.0021929	0.0022852	0.00063628	670.29	2.1186e-05	2.5152e-05	774.91	239.7	2.4075e-05	2.5028e-05	394.23	107.99	88.721	29.901	2.4884e-05	40.067	217.167	84.387	202.699	-128.321	-50.970	-11.586	-130.105	-123.033	66.755	-114.477	-126.104	-121.972	-118.725	-113.790	52.609	-117.587	-8191	255	
1540.460	1	1	0	0	0.053101	0.069519	0.049381	0.14489	0.075536	0.17402	0.1527	0.21415	0.16697	0.15769	0.12892	0.18225	0.20678	0.11272	0.32906	0.15918	-1.7479	-2.7333	-2.0396	-2.5083	-2.8708	-2.1479	-2.7021	-2.5625	-2.2229	-2.7417	-2.1208	-2.4813	-2.8542	-2.1667	-2.6937	-2.6771	82.321	-98.029	137.030	-114.810	-102.685	-123.883	177.658	57.561	94.062	1.400	104.704	200.443	-87.924	155.957	-80.312	107.903	8.5948e-05	0.00019296	0.00020965	667.77	3.0341e-06	3.7758e-06	763.93	229.36	3.0121e-06	9.6664e-06	280.88	99.627	81.488	24.088	4.2941e-06	31.457	0.0021673	0.0022638	0.00063529	670.19	2.0999e-05	2.5062e-05	774.92	238.71	2.3796e-05	2.486e-05	390.85	107.49	87.861	29.6	2.4987e-05	39.692	-55.429	52.345	-79.274	-128.556	-46.634	16.560	-130.083	-122.526	-107.909	-7.539	-126.012	-121.285	-118.411	-113.843	34.083	-117.856	-8191	255	
1540.580	1	1	0	0	0.13509	0.14016	0.19145	0.2351	0.24153	0.2208	0.2876	0.20559	0.18244	0.22401	0.30511	0.089499	0.20433	0.20867	0.27448	0.13513	-1.6083	-2.8625	-2.2417	-2.3771	-2.6271	-1.85	-2.8333	-2.6729	-2.1437	-3.0187	-2.2875	-2.2313	-2.6604	-2.05	-2.5604	-2.7833	-100.584	207.178	113.683	92.204	110.768	166.983	148.961	-112.494	97.938	96.881	85.295	43.711	-19.249	-21.144	-62.815	148.727	0.0002785	0.00086869	0.00019036	665.09	3.8323e-06	5.7939e-06	769.49	229.29	5.9508e-06	2.1074e-05	280.49	98.946	80.596	23.7	4.3784e-06	31.023	0.0021718	0.0022657	0.00063111	668.83	2.0817e-05	2.4803e-05	776.48	237.07	2.3754e-05	2.5015e-05	389.54	106.76	87.14	29.358	2.5003e-05	39.527	-57.572	-16.304	-86.385	-128.348	-72.339	-139.830	-130.580	-123.107	1.903	-31.215	-125.415	-121.593	-118.361	-113.618	114.074	-117.301	-8191	255	
1540.676	1	1	0	0	0.14481	0.089866	0.29308	0.1047	0.18578	0.22083	0.18972	0.10897	0.11457	0.12515	0.14233	0.17291	0.33178	0.24326	0.13172	0.25979	-1.8542	-2.8917	-2.4979	-2.4083	-2.9708	-2.1354	-2.5896	-2.7542	-2.0292	-2.7188	-2.675	-2.1437	-2.8333	-2.3	-2.6437	-2.7208	-95.310	114.040	54.471	1.126	209.839	-121.775	63.907	162.582	-84.336	207.911	-24.230	197.187	-49.573	90.673	200.059	132.588	0.00028234	0.00055075	0.00012965	665.78	2.5327e-06	1.7698e-06	770.68	228.84	5.9609e-06	8.8114e-06	285.66	100.15	81.967	24.034	1.1071e-05	31.646	0.0021618	0.0022608	0.00062699	667.9	2.0844e-05	2.4794e-05	777.62	236.69	2.3753e-05	2.5016e-05	391.49	107.37	87.392	29.401	2.4976e-05	39.605	-67.890	-70.822	43.623	-128.529	2.428	172.629	-130.559	-123.539	-19.798	70.017	-127.268	-122.366	-119.070	-114.330	40.983	-118.248	-8191	255	
1540.748	1	1	0	0	0.047421	0.13352	0.25859	0.23255	0.25381	0.20452	0.22024	0.2067	0.0066864	0.066543	0.27956	0.098258	0.16843	0.1107	0.11206	0.10175	-1.5562	-2.6521	-2.4271	-2.4021	-2.8396	-2.275	-2.5396	-2.6979	-2.1437	-2.6708	-2.6958	-2.2021	-2.7188	-2.2646	-2.3521	-2.675	-21.290	37.500	211.126	-102.256	129.112	136.234	57.716	64.621	145.645	-7.378	-48.217	-25.789	-130.677	22.019	200.282	150.182	0.00010848	0.00055112	4.7037e-05	667.65	1.4199e-06	6.7868e-06	771.53	229.33	2.6992e-06	9.62e-06	281.03	100.2	81.61	23.399	9.7438e-06	30.92	0.002158	0.0022671	0.00062831	670	2.0837e-05	2.4909e-05	780.24	237.44	2.3575e-05	2.5011e-05	391.91	107.52	87.509	29.393	2.5106e-05	39.543	-43.093	-18.147	-107.163	-128.493	-52.895	10.916	-130.477	-123.338	112.248	37.537	-125.142	-121.782	-118.658	-113.938	53.325	-117.361	-8191	255	
1540.869	1	1	0	0	0.16342	0.15816	0.22815	0.25316	0.20183	0.06632	0.42002	0.083445	0.19804	0.25613	0.27849	0.19832	0.40344	0.19087	0.088862	0.29028	-1.5333	-2.6271	-2.5583	-2.2438	-2.7333	-2.2708	-2.35	-2.8063	-2.2021	-2.6083	-2.6458	-2.0917	-2.9062	-2.4313	-2.2979	-2.7833	135.099	80.741	-115.998	130.753	192.969	152.070	173.488	-83.608	13.764	5.502	-3.919	119.529	-91.827	57.377	116.210	-75.026	0.00015294	0.00041804	0.00010132	669.68	3.0239e-06	5.069e-06	768.72	228.28	2.4251e-06	9.4311e-06	282.63	99.217	80.93	23.81	2.0892e-06	31.216	0.0021631	0.0022793	0.00062522	669.63	2.1021e-05	2.481e-05	777.39	237.35	2.368e-05	2.5025e-05	390.07	106.91	87.369	29.462	2.5e-05	39.444	-92.469	164.877	8.467	-128.720	-76.023	15.909	-130.464	-123.021	-33.994	6.568	-124.979	-121.821	-118.698	-113.700	47.277	-117.736	-8191	255	
1540.963	1	1	0	0	0.2265	0.19782	0.23751	0.041946	0.082395	0.094065	0.046139	0.18948	0.27771	0.15428	0.15192	0.092182	0.071041	0.30573	0.17269	0.099121	-1.8062	-2.3104	-2.7729	-2.1833	-2.9688	-2.55	-2.2292	-2.8083	-2.0896	-2.575	-2.6688	-2.0854	-2.4854	-2.5521	-2.2708	-2.7083	-2.679	176.453	115.215	20.465	51.110	-89.247	-66.663	99.138	200.578	186.205	-98.737	62.102	109.380	-135.143	79.618	108.198	0.00021057	0.00053079	0.00012678	668.69	2.5709e-06	1.312e-05	768.12	228.83	5.5128e-06	5.3718e-06	275.84	99.039	81.113	23.841	5.5894e-06	31.1	0.0021696	0.0022744	0.00062666	668.67	2.0876e-05	2.489e-05	775.49	236.98	2.3891e-05	2.5064e-05	389.37	106.69	87.162	29.359	2.4968e-05	39.357	-105.767	-123.442	-22.923	-128.664	24.623	-36.955	-130.532	-122.997	-46.563	-16.906	-125.467	-121.536	-119.411	-113.888	-0.287	-118.405	-8191	255	
1541.059	1	1	0	0	0.26188	0.046787	0.13587	0.20377	0.14476	0.12155	0.14224	0.091783	0.13903	0.084344	0.15767	0.31647	0.13023	0.15954	0.097267	0.073462	-1.8375	-2.3063	-2.7521	-2.0792	-2.6083	-2.5646	-2.2	-2.6646	-2.2583	-2.3146	-2.8458	-2.0771	-2.525	-2.6375	-2.0979	-2.6292	-63.042	111.624	30.944	207.396	23.276	-23.317	-18.125	96.648	-49.986	55.516	-25.856	-74.310	174.011	93.726	111.594	103.998	0.00028281	0.00081256	9.0139e-05	664.09	9.2133e-07	6.2288e-06	766.11	228.97	3.6299e-06	2.2259e-06	280.56	99.618	81.561	23.582	1.4199e-06	31.192	0.0021583	0.0022871	0.00062629	667.16	2.1021e-05	2.4929e-05	774.02	237.03	2.407e-05	2.5174e-05	389.27	106.97	87.339	29.367	2.5169e-05	39.625	-47.807	9.827	-63.501	-128.458	158.352	106.225	-130.352	-123.065	-45.342	20.200	-125.799	-122.226	-119.361	-113.566	126.528	-118.468	-8191	255	
1541.155	1	1	0	0	0.08584	0.11621	0.049226	0.10448	0.077118	0.25866	0.21207	0.18401	0.12835	0.26371	0.31733	0.061235	0.13001	0.12937	0.2023	0.12062	-1.9917	-2.1937	-2.9375	-2.15	-2.375	-2.5979	-2.3042	-2.8604	-2.35	-2.0917	-2.6417	-2.2292	-2.4417	-2.7917	-2.1083	-2.6833	-46.275	-53.557	129.427	112.968	-80.936	26.481	217.543	175.677	107.963	-123.424	-131.433	136.080	51.614	64.163	-116.785	-58.482	4.7439e-05	0.00023379	0.0001898	669.88	2.0858e-06	5.6202e-06	764	229.79	4.6192e-06	4.0272e-06	279.57	100.78	82.158	24.455	2.6108e-06	31.599	0.0021924	0.0022997	0.0006293	669.79	2.1274e-05	2.5159e-05	773.81	237.89	2.4165e-05	2.5401e-05	392.82	107.8	88.203	29.818	2.5365e-05	40.016	-87.522	35.621	-15.606	-128.773	-46.004	13.602	-130.368	-123.130	-40.126	164.062	-126.260	-122.162	-119.004	-114.754	130.515	-117.760	-8191	255	
1541.276	1	1	0	0	0.071544	0.28674	0.16827	0.098763	0.20928	0.14228	0.17037	0.11558	0.14899	0.22073	0.12444	0.16325	0.15334	0.026405	0.25803	0.13968	-2.1604	-2.0687	-2.7333	-2.2979	-2.4104	-2.6771	-2.2292	-2.6625	-2.7333	-2.1146	-2.7833	-2.2062	-2.4062	-2.8146	-2.2333	-2.5958	-20.939	-44.237	-5.572	-34.461	-50.641	142.302	176.324	155.985	-74.789	-14.033	76.129	136.590	68.054	2.071	-139.832	-12.890	0.00033356	0.00055828	4.0074e-05	670.99	7.2792e-07	2.293e-06	770.98	231	4.7068e-06	7.2206e-06	281.19	100.55	82.549	24.533	1.9106e-06	31.36	0.0021783	0.0023112	0.00063513	672.94	2.1331e-05	2.5092e-05	777.9	239.61	2.4131e-05	2.5423e-05	394.56	108.06	88.705	29.935	2.54e-05	40.133	-105.965	-76.413	30.774	-128.464	178.085	-22.302	-130.736	-123.193	-38.436	-14.548	-126.362	-121.638	-118.740	-114.238	83.572	-117.526	-8191	255	
1541.348	1	1	0	0	0.25426	0.31329	0.10531	0.13534	0.083152	0.010702	0.17768	0.31903	0.25199	0.046584	0.21008	0.13823	0.21262	0.1162	0.12828	0.065502	-2.1708	-2.1063	-2.7292	-2.3708	-2.0563	-2.8271	-2.15	-2.5583	-2.6479	-2.025	-2.8104	-2.3104	-2.2667	-2.6688	-2.1271	-2.5354	77.984	-125.236	-90.286	-98.153	192.006	156.315	167.660	62.069	176.742	80.583	161.216	215.377	-109.847	-47.019	102.836	129.896	0.00022402	0.0008476	0.00024662	672.09	2.2355e-06	9.7987e-06	768.97	232.58	2.2496e-07	5.7578e-06	288.03	99.919	82.312	24.044	4.4635e-07	31.414	0.0021851	0.0023088	0.00063577	673.7	2.14e-05	2.517e-05	777.29	240.18	2.415e-05	2.5341e-05	394.33	107.95	88.476	29.744	2.5183e-05	40.008	-133.261	-135.467	-22.396	-128.437	21.604	-73.117	-130.551	-123.474	127.901	56.305	-125.908	-121.663	-118.822	-114.567	-51.299	-117.757	-8191	255	
1541.444	1	1	0	0	0.13342	0.2261	0.11617	0.035992	0.18565	0.12971	0.10839	0.34812	0.15727	0.52955	0.088043	0.024018	0.097822	0.36324	0.20181	0.12043	-2.1688	-2.1188	-2.7708	-2.4917	-2.1083	-2.8875	-2.2229	-2.4458	-2.6521	-2.1312	-2.8125	-2.3479	-2.2708	-2.8417	-2.1354	-2.325	150.498	52.027	-51.866	156.383	-20.260	80.014	130.631	162.649	42.386	76.173	-102.506	170.915	114.432	171.748	42.486	213.341	0.00011213	0.00037394	0.00016724	672.34	8.2185e-07	1.4805e-05	770.41	232.2	2.5685e-06	7.6417e-06	278.85	99.037	81.49	23.983	1.2903e-05	31.402	0.0021803	0.0023212	0.00063643	674.7	2.137e-05	2.502e-05	778.77	239.79	2.3966e-05	2.5206e-05	392.94	107.57	88.074	29.657	2.529e-05	39.832	32.598	86.490	-31.078	-128.406	-85.104	-1.392	-130.481	-123.509	56.295	-27.406	-126.381	-121.160	-118.442	-113.776	-32.423	-117.385	-8191	255	
1541.540	1	1	0	0	0.10783	0.10025	0.040228	0.26313	0.14252	0.10807	0.13879	0.20668	0.10879	0.078781	0.050294	0.14369	0.1452	0.28225	0.34495	0.31393	-2.2792	-1.9979	-2.5583	-2.7333	-2.2125	-2.7104	-2.4271	-2.2104	-2.5958	-2.0333	-2.4833	-2.3979	-1.9521	-2.7188	-2.3042	-2.3292	29.776	-99.629	112.001	-17.561	140.493	156.133	179.884	69.338	201.479	-30.456	102.788	118.682	191.212	211.371	-74.024	194.013	0.0004205	0.00055377	0.000127	671.06	1.3633e-06	1.3256e-05	773.9	231.53	5.7479e-06	3.1453e-06	281.56	100.45	82.476	23.868	9.0042e-06	31.507	0.0021844	0.0023159	0.00064203	673.99	2.136e-05	2.4969e-05	779.71	239	2.4091e-05	2.5302e-05	393.83	107.82	88.197	29.534	2.5338e-05	39.881	-115.389	-79.124	-75.396	-128.312	-140.684	-38.167	-130.651	-123.578	13.879	-67.043	-126.135	-121.951	-118.998	-114.286	-30.202	-118.139	-8191	255	
1541.661	1	1	0	0	0.1839	0.17211	0.10406	0.18531	0.33695	0.2322	0.080906	0.093842	0.20625	0.27114	0.12985	0.021097	0.2802	0.074167	0.20204	0.21248	-2.275	-2.0687	-2.5167	-2.6833	-2.0667	-2.8333	-2.4437	-1.9875	-2.7354	-2.1021	-2.3688	-2.7583	-2.0792	-2.7146	-2.4479	-2.0812	188.694	119.262	108.985	122.722	-91.595	99.937	182.267	132.420	-128.678	-66.521	28.235	-73.055	-43.813	-87.464	-55.373	-42.781	0.0001576	0.00069418	0.00021292	679.49	4.0476e-07	9.5558e-06	775.12	232.72	3.92e-06	4.3715e-06	279.04	100.94	82.988	24.308	5.1964e-06	31.815	0.0021722	0.0023036	0.00064428	677	2.1344e-05	2.5175e-05	781.14	240.06	2.3963e-05	2.5426e-05	396	108.39	88.892	29.913	2.5352e-05	40.375	-0.373	-0.296	-35.503	-128.934	-39.982	-61.385	-130.724	-123.435	-111.080	54.149	-126.401	-121.844	-119.078	-114.142	84.543	-117.399	-8191	255	
1541.757	1	1	0	0	0.35347	0.13926	0.20781	0.27897	0.10622	0.10299	0.080695	0.097694	0.012309	0.10378	0.19935	0.060709	0.32609	0.22318	0.20894	0.27334	-2.425	-1.9979	-2.3896	-2.75	-1.8813	-2.6625	-2.55	-2.0312	-2.9396	-2.325	-2.4833	-2.7146	-1.9521	-2.4771	-2.5458	-2.1083	-96.111	28.636	-137.168	134.466	161.328	78.035	136.427	59.907	8.026	131.140	63.469	-79.467	148.989	155.206	-136.192	101.474	3.4122e-05	0.00049959	0.00014014	680.05	2.1641e-06	3.5052e-06	777.93	234.32	2.2823e-06	9.7058e-06	287.68	101.95	82.969	24.403	5.3673e-06	31.681	0.0021753	0.0023019	0.00064419	679.38	2.1495e-05	2.527e-05	784.05	241.77	2.4079e-05	2.5689e-05	398.11	108.61	89.292	30.149	2.5325e-05	40.187	38.450	-73.911	-60.602	-128.772	-46.927	-35.717	-130.551	-123.488	-41.377	-42.703	-126.035	-121.550	-118.809	-113.873	72.608	-118.203	-8191	255	
1541.853	1	1	0	0	0.19762	0.12418	0.16643	0.22864	0.088984	0.3011	0.047585	0.22912	0.12161	0.26308	0.13201	0.25622	0.11728	0.14762	0.25066	0.13575	-2.4125	-2.3229	-2.3729	-2.8354	-2.0083	-2.6354	-2.7375	-2.0854	-2.7208	-2.275	-2.2208	-2.7542	-2.1562	-2.35	-2.6188	-2.0187	-68.152	6.478	-61.253	175.463	8.346	112.870	-107.952	21.976	84.779	-31.683	68.495	118.943	91.355	167.954	-23.940	210.682	8.7966e-05	0.00044473	0.00010914	681.07	2.1444e-06	7.1951e-06	777.07	234.76	1.9127e-06	6.531e-06	285.43	101.09	82.672	24.22	2.529e-06	31.564	0.0021899	0.0023239	0.00064625	679.43	2.1439e-05	2.55e-05	781.83	241.8	2.4192e-05	2.5757e-05	398.58	108.4	89.026	29.903	2.5337e-05	40.085	68.095	84.162	-29.725	-128.756	25.241	209.999	-130.670	-123.476	-9.414	44.938	-126.566	-121.760	-119.150	-114.553	98.454	-116.982	-8191	255	
1541.949	1	1	0	0	0.13624	0.048556	0.014923	0.086986	0.1172	0.16634	0.20405	0.18638	0.15693	0.14171	0.14482	0.28152	0.17923	0.36044	0.26638	0.20311	-2.3667	-2.3396	-2.1854	-2.7625	-2.0667	-2.6021	-2.5396	-2.325	-2.7646	-2.5812	-2.1854	-2.8458	-2.1583	-2.6063	-2.6229	-2.075	110.956	-99.908	64.896	103.438	11.362	100.040	155.700	-43.312	205.061	127.321	149.628	5.967	217.792	107.026	73.740	161.793	0.00012902	0.00068512	0.00029671	679.28	2.8606e-06	1.1335e-05	771.96	232.61	8.189e-06	1.2068e-05	284.92	100.78	82.521	23.881	9.9113e-06	31.032	0.0022046	0.0023383	0.00064302	678.13	2.1603e-05	2.56e-05	780.47	240.63	2.4571e-05	2.5696e-05	397.54	108.12	88.619	29.68	2.5396e-05	39.993	-80.977	-33.348	-77.198	-128.670	-85.854	119.913	-130.425	-123.141	-53.469	34.926	-126.135	-121.471	-119.005	-114.203	9.753	-118.116	-8191	255	
1542.045	1	1	0	0	0.20261	0.28574	0.15479	0.0031363	0.27286	0.15464	0.069783	0.13423	0.038567	0.092223	0.1741	0.1447	0.073141	0.23909	0.30217	0.24269	-2.3625	-2.4313	-2.2042	-2.8833	-2.3083	-2.45	-2.9333	-1.9833	-2.5792	-2.6896	-2.1021	-2.6833	-2.2396	-2.3187	-2.7292	-1.9667	179.860	193.801	206.002	109.283	57.974	33.987	185.318	196.152	87.913	-132.707	200.863	194.271	25.457	51.620	110.503	-39.116	0.00010994	0.0001559	0.00011668	679.26	1.0064e-06	1.0926e-06	774.69	233.13	4.369e-06	1.8718e-05	277.31	100.71	82.35	23.952	6.1398e-06	31.361	0.0022369	0.0023457	0.00065313	676.28	2.1891e-05	2.5711e-05	780.02	240.18	2.4776e-05	2.594e-05	396.09	108.37	88.818	29.863	2.5562e-05	40.174	-85.560	66.636	14.688	-128.941	-71.389	85.865	-130.824	-123.333	14.028	-41.152	-127.500	-121.743	-118.738	-114.336	-57.538	-118.192	-8191	255	
#DATA ENDS
