BOXY.EXE: ISS Imagent and Oximeter Data Acquisition Program Version 0.80
Ascii Record File

#ACQ INFORMATION
2  Detector Channels 
16  External MUX Channels 
1  Auxiliary Channels 
5000  Waveform (CCF) Frequency (Hz)
1  Waveforms Skipped 
30  Waveforms Averaged 
1  Cycles Averaged 
16  Acquisitions per Waveform 
10.0806  Updata Rate (Hz) 

#FILE INFORMATION
TRUE -- External MUX Channel results are PARSED.
FALSE -- AC DC and Phase are NOT grouped.
TRUE -- Companion Program Settings File CREATED.
FALSE -- AC data not excluded
FALSE -- DC data not excluded
FALSE -- Phase data not excluded
FALSE -- Auxillary Chn. data not excluded
Tab delimiters

#CALIBRATION STATE
TRUE -- Waveform Calibration Values APPLIED.


#AUX CALIBRATION VALUES
Val Type	aux-1	

Term	1.0000e+00	
Factor	0.0000e+00	


#WF CALIBRATION VALUES
A = Detector Channel
Val Type	A-AC1	A-AC2	A-AC3	A-AC4	A-AC5	A-AC6	A-AC7	A-AC8	A-AC9	A-AC10	A-AC11	A-AC12	A-AC13	A-AC14	A-AC15	A-AC16	A-DC1	A-DC2	A-DC3	A-DC4	A-DC5	A-DC6	A-DC7	A-DC8	A-DC9	A-DC10	A-DC11	A-DC12	A-DC13	A-DC14	A-DC15	A-DC16	A-Ph1	A-Ph2	A-Ph3	A-Ph4	A-Ph5	A-Ph6	A-Ph7	A-Ph8	A-Ph9	A-Ph10	A-Ph11	A-Ph12	A-Ph13	A-Ph14	A-Ph15	A-Ph16	

Term	0.00000e+00	0.00000e+00	0.00000e+00	0.00000e+00	0.00000e+00	0.00000e+00	0.00000e+00	0.00000e+00	0.00000e+00	0.00000e+00	0.00000e+00	0.00000e+00	0.00000e+00	0.00000e+00	0.00000e+00	0.00000e+00	0.00000e+00	0.00000e+00	0.00000e+00	0.00000e+00	0.00000e+00	0.00000e+00	0.00000e+00	0.00000e+00	0.00000e+00	0.00000e+00	0.00000e+00	0.00000e+00	0.00000e+00	0.00000e+00	0.00000e+00	0.00000e+00	0.00000e+00	0.00000e+00	0.00000e+00	0.00000e+00	0.00000e+00	0.00000e+00	0.00000e+00	0.00000e+00	0.00000e+00	0.00000e+00	0.00000e+00	0.00000e+00	0.00000e+00	0.00000e+00	0.00000e+00	0.00000e+00	
Factor	1.00000e+00	1.00000e+00	1.00000e+00	1.00000e+00	1.00000e+00	1.00000e+00	1.00000e+00	1.00000e+00	1.00000e+00	1.00000e+00	1.00000e+00	1.00000e+00	1.00000e+00	1.00000e+00	1.00000e+00	1.00000e+00	1.00000e+00	1.00000e+00	1.00000e+00	1.00000e+00	1.00000e+00	1.00000e+00	1.00000e+00	1.00000e+00	1.00000e+00	1.00000e+00	1.00000e+00	1.00000e+00	1.00000e+00	1.00000e+00	1.00000e+00	1.00000e+00	X	X	X	X	X	X	X	X	X	X	X	X	X	X	X	X	

B = Detector Channel
Val Type	B-AC1	B-AC2	B-AC3	B-AC4	B-AC5	B-AC6	B-AC7	B-AC8	B-AC9	B-AC10	B-AC11	B-AC12	B-AC13	B-AC14	B-AC15	B-AC16	B-DC1	B-DC2	B-DC3	B-DC4	B-DC5	B-DC6	B-DC7	B-DC8	B-DC9	B-DC10	B-DC11	B-DC12	B-DC13	B-DC14	B-DC15	B-DC16	B-Ph1	B-Ph2	B-Ph3	B-Ph4	B-Ph5	B-Ph6	B-Ph7	B-Ph8	B-Ph9	B-Ph10	B-Ph11	B-Ph12	B-Ph13	B-Ph14	B-Ph15	B-Ph16	

Term	0.00000e+00	0.00000e+00	0.00000e+00	0.00000e+00	0.00000e+00	0.00000e+00	0.00000e+00	0.00000e+00	0.00000e+00	0.00000e+00	0.00000e+00	0.00000e+00	0.00000e+00	0.00000e+00	0.00000e+00	0.00000e+00	0.00000e+00	0.00000e+00	0.00000e+00	0.00000e+00	0.00000e+00	0.00000e+00	0.00000e+00	0.00000e+00	0.00000e+00	0.00000e+00	0.00000e+00	0.00000e+00	0.00000e+00	0.00000e+00	0.00000e+00	0.00000e+00	-2.51673e+01	-1.09131e+02	-1.36792e+02	-1.83698e+02	-1.38176e+01	-7.28325e+01	-1.57869e+02	-1.62015e+02	-6.96302e+01	-9.69870e+01	-1.72092e+02	-1.75791e+02	-1.89181e+02	-1.78194e+02	-7.65473e+01	-1.51485e+02	
Factor	2.82887e-05	9.62443e-05	2.62348e-05	1.61568e-01	9.06967e-07	1.03337e-06	1.67683e-01	6.49704e-02	1.10886e-06	1.02177e-06	1.02924e-01	3.36800e-02	8.03786e-02	9.68118e-03	9.66469e-07	1.40111e-02	7.08911e-07	7.21329e-07	2.01149e-07	7.90580e-02	7.90081e-09	7.90084e-09	7.70976e-02	3.12878e-02	7.89045e-09	7.89930e-09	4.70277e-02	1.53915e-02	3.30660e-02	4.62330e-03	7.91615e-09	6.40668e-03	X	X	X	X	X	X	X	X	X	X	X	X	X	X	X	X	



#DISTANCE SETTINGS
A = Detector Channel
A-1	A-2	A-3	A-4	A-5	A-6	A-7	A-8	A-9	A-10	A-11	A-12	A-13	A-14	A-15	A-16	

2.5000e+00	3.0000e+00	2.5000e+00	3.0000e+00	2.0000e+00	3.0000e+00	1.5000e+00	3.0000e+00	3.0000e+00	3.0000e+00	3.0000e+00	3.0000e+00	3.0000e+00	3.0000e+00	1.5000e+00	3.0000e+00	

B = Detector Channel
B-1	B-2	B-3	B-4	B-5	B-6	B-7	B-8	B-9	B-10	B-11	B-12	B-13	B-14	B-15	B-16	

1.0000e+01	1.0000e+01	1.0000e+01	1.4400e+00	1.0000e+01	1.0000e+01	1.5100e+00	1.9400e+00	1.0000e+01	1.0000e+01	1.9900e+00	2.4900e+00	2.4100e+00	2.9000e+00	1.0000e+01	2.9800e+00	




#DATA BEGINS
time	group	step	mark	flag	A-AC1	A-AC2	A-AC3	A-AC4	A-AC5	A-AC6	A-AC7	A-AC8	A-AC9	A-AC10	A-AC11	A-AC12	A-AC13	A-AC14	A-AC15	A-AC16	A-DC1	A-DC2	A-DC3	A-DC4	A-DC5	A-DC6	A-DC7	A-DC8	A-DC9	A-DC10	A-DC11	A-DC12	A-DC13	A-DC14	A-DC15	A-DC16	A-Ph1	A-Ph2	A-Ph3	A-Ph4	A-Ph5	A-Ph6	A-Ph7	A-Ph8	A-Ph9	A-Ph10	A-Ph11	A-Ph12	A-Ph13	A-Ph14	A-Ph15	A-Ph16	B-AC1	B-AC2	B-AC3	B-AC4	B-AC5	B-AC6	B-AC7	B-AC8	B-AC9	B-AC10	B-AC11	B-AC12	B-AC13	B-AC14	B-AC15	B-AC16	B-DC1	B-DC2	B-DC3	B-DC4	B-DC5	B-DC6	B-DC7	B-DC8	B-DC9	B-DC10	B-DC11	B-DC12	B-DC13	B-DC14	B-DC15	B-DC16	B-Ph1	B-Ph2	B-Ph3	B-Ph4	B-Ph5	B-Ph6	B-Ph7	B-Ph8	B-Ph9	B-Ph10	B-Ph11	B-Ph12	B-Ph13	B-Ph14	B-Ph15	B-Ph16	aux-1	digaux	

4309.104	1	1	0	256	0.0921	0.10639	0.17958	0.16031	0.2584	0.35382	0.4255	0.22427	0.07579	0.1947	0.23831	0.011531	0.143	0.01482	0.17443	0.15363	-1.4917	-2.4521	-2.5979	-1.875	-2.5729	-2.3729	-2.0792	-2.85	-1.9646	-2.1896	-2.7917	-1.9958	-2.4375	-2.5583	-2.05	-2.7271	-52.664	180.638	233.825	178.786	-49.395	124.885	258.818	-67.042	63.379	125.164	224.622	7.172	97.153	172.825	39.006	269.899	0.00019695	0.002186	0.00069955	645.24	3.1542e-05	2.7321e-05	632.44	262.88	1.2516e-05	1.1741e-05	288.49	128.36	113.58	51.892	1.5525e-05	66.395	0.0040788	0.003885	0.0011087	1095.7	4.6651e-05	4.4953e-05	1043.5	441.21	4.6162e-05	4.322e-05	532.34	214.94	284.96	74.649	4.6823e-05	101	-23.165	22.776	195.183	-57.025	151.523	46.264	-57.967	-51.645	40.833	21.831	-53.814	-48.798	-46.543	-41.904	200.128	-45.526	-8191	255	
4309.200	1	1	0	0	0.29567	0.11993	0.094826	0.032725	0.35471	0.28118	0.20375	0.088074	0.017211	0.092242	0.12635	0.25722	0.20612	0.23453	0.1956	0.27348	-1.6812	-2.2271	-2.7854	-1.9583	-2.5708	-2.4875	-2.1312	-2.6896	-2.1958	-2.2479	-2.8187	-2.2438	-2.3917	-2.4667	-1.875	-2.7854	6.707	29.146	-69.557	-5.513	35.147	165.090	257.026	60.202	247.082	33.434	218.159	105.206	-15.303	137.846	-32.045	262.337	0.00029356	0.00069861	0.00073693	633.49	5.7299e-06	1.291e-05	623.86	258.21	1.3922e-05	6.7985e-06	276.09	125.2	110.35	50.811	2.1023e-05	64.868	0.0041803	0.0040186	0.0012016	1101.3	4.5378e-05	4.3665e-05	1044.4	429.42	4.4241e-05	4.199e-05	528.37	205.62	264.64	71.318	4.4624e-05	94.444	-41.013	154.444	115.093	-57.580	90.164	20.186	-57.628	-51.802	24.753	248.482	-54.012	-49.472	-45.712	-42.380	204.912	-45.245	-8191	255	
4309.296	1	1	0	0	0.052981	0.11484	0.10773	0.31524	0.16376	0.086399	0.33455	0.30136	0.16492	0.096819	0.17849	0.1804	0.055283	0.29273	0.18035	0.20428	-1.8229	-2.0521	-2.7313	-2.1688	-2.4333	-2.4729	-2.0646	-2.6604	-2.0958	-2.1042	-2.8104	-2.1354	-2.5104	-2.8521	-1.9	-2.5312	247.871	189.677	31.595	283.526	14.993	26.965	-59.450	250.361	120.948	-7.339	262.182	-19.332	-48.619	205.345	258.172	207.523	0.00045839	0.00099762	9.9901e-05	624.77	1.0011e-05	1.8465e-05	616.99	252.81	1.9136e-05	9.345e-06	280	125.38	107.3	50.73	1.5434e-05	64.248	0.0036468	0.0035335	0.0010912	1013.3	3.8657e-05	3.8063e-05	988.02	390.91	3.6577e-05	3.5671e-05	490.7	188.13	233.34	67.758	3.9429e-05	88.528	232.630	203.384	289.571	-57.899	85.486	223.032	-58.192	-51.773	58.713	211.812	-54.286	-49.119	-46.462	-41.969	177.049	-44.885	-8191	255	
4309.417	1	1	0	0	0.1152	0.10545	0.07832	0.25862	0.10909	0.20251	0.080543	0.1737	0.35037	0.30266	0.10808	0.35672	0.11172	0.081694	0.29988	0.071225	-1.8667	-1.9729	-2.8937	-2.2896	-2.1583	-2.6562	-1.8563	-2.8104	-2.5229	-2	-2.7729	-2.3542	-2.1833	-2.8521	-1.9521	-2.5792	-5.628	3.805	41.953	-8.030	255.546	31.239	241.910	141.282	20.860	113.203	108.227	269.950	274.742	272.566	184.250	278.167	0.00032367	0.001902	0.00033469	627.14	1.976e-05	1.6696e-05	621.84	256.43	1.6405e-05	1.6847e-05	285.92	127.21	108.33	51.476	1.0661e-05	65.593	0.0032254	0.0033347	0.0010333	971.75	3.592e-05	3.7707e-05	981.01	382.56	3.4722e-05	3.5714e-05	483.86	183.52	224.01	68.235	3.6325e-05	86.452	-65.443	202.590	86.153	-57.343	57.480	196.206	-58.277	-51.891	15.829	215.607	-53.846	-48.740	-45.482	-41.690	26.892	-45.495	-8191	255	
4309.488	1	1	0	0	0.032914	0.14093	0.14677	0.21198	0.23078	0.25917	0.29519	0.36437	0.2071	0.28973	0.050645	0.36842	0.12943	0.12368	0.19253	0.17013	-1.9896	-1.9562	-2.7188	-2.1229	-2.0604	-2.65	-2.1854	-2.5375	-2.6542	-2.0479	-2.6479	-2.3396	-2.2313	-2.8833	-2.1354	-2.4646	119.499	72.160	249.789	117.847	285.338	62.733	114.397	234.277	244.585	20.267	-44.372	186.482	-9.801	163.415	6.760	111.784	9.0574e-05	0.0019188	8.2579e-05	626.23	1.0791e-05	2.0481e-05	624.31	257.03	5.8641e-06	2.9498e-05	289.04	129.1	110.91	52.635	1.515e-05	67.477	0.0028687	0.00309	0.00088869	918.06	3.1382e-05	3.4773e-05	932.66	368.91	3.1874e-05	3.4968e-05	467.91	181.73	221.13	69.46	3.4475e-05	87.04	20.930	142.183	-50.128	-57.176	-9.237	189.066	-57.997	-51.242	171.728	169.120	-54.114	-48.429	-45.476	-41.798	-6.791	-45.187	-8191	255	
4309.607	1	1	0	0	0.32284	0.11746	0.040757	0.027905	0.15812	0.12168	0.32197	0.082675	0.17685	0.21162	0.16597	0.32007	0.17114	0.034452	0.093454	0.083611	-2.2104	-1.975	-2.7458	-2.3063	-2.2042	-2.825	-2.0187	-2.4083	-2.4604	-1.8188	-2.5146	-2.5167	-2.0625	-2.6958	-1.9521	-2.5021	219.917	45.345	169.437	189.300	-55.091	252.599	-56.907	8.271	-62.205	271.292	248.225	153.052	-43.798	-52.914	60.716	168.161	0.00056534	0.0014319	0.00028507	635.1	1.4469e-05	5.1244e-06	624.53	265.52	1.2398e-05	8.616e-06	295.29	131.6	114.2	54.035	1.3116e-05	68.346	0.0028548	0.0031522	0.00083274	902.9	2.9829e-05	3.2647e-05	885.69	358.23	2.8677e-05	3.1057e-05	438.25	174.33	207.58	67.697	2.8272e-05	83.204	265.058	47.801	-61.112	-56.990	260.640	243.777	-57.904	-51.541	177.923	100.090	-54.100	-48.536	-45.490	-42.352	91.506	-45.345	-8191	255	
4309.704	1	1	0	0	0.15099	0.28239	0.29144	0.14862	0.13374	0.41734	0.11716	0.37236	0.17241	0.093124	0.43673	0.10774	0.15304	0.15806	0.14849	0.16643	-2.2646	-1.9167	-2.5312	-2.5771	-1.8521	-2.5958	-2.0667	-2.3542	-2.7146	-1.8771	-2.5812	-2.6625	-1.9875	-2.9458	-2.1146	-2.2188	-27.962	-37.358	231.088	80.743	18.148	19.527	212.288	228.329	244.620	98.996	256.198	213.170	200.938	102.886	113.758	-67.507	0.00091592	0.0019643	0.00066042	632.56	1.0213e-05	6.4581e-06	629.53	267.39	1.8456e-05	8.6579e-06	295.15	132.74	114.09	54.967	4.8522e-06	68.807	0.0025034	0.0027062	0.00069099	859.77	2.7375e-05	2.904e-05	851.14	347.89	2.726e-05	2.8256e-05	420.55	170.86	208.6	67.629	2.7157e-05	83.489	259.035	-3.453	-35.860	-56.890	263.410	5.898	-57.805	-51.414	235.091	-16.974	-54.031	-48.603	-45.355	-42.271	205.446	-45.181	-8191	255	
4309.800	1	1	0	0	0.054586	0.047854	0.26405	0.33078	0.16755	0.27826	0.038591	0.29931	0.2704	0.41467	0.2325	0.13837	0.10358	0.13895	0.23631	0.30926	-2.3417	-1.9896	-2.4021	-2.7188	-2.0312	-2.8063	-2.4938	-2.0479	-2.7833	-2.1292	-2.5542	-2.8271	-1.8958	-2.7333	-2.3625	-2.1917	251.193	-67.596	79.163	186.601	156.456	181.221	259.755	171.320	-13.792	29.713	151.200	108.025	156.131	111.529	155.484	147.666	0.00075753	0.0013653	0.00032671	636.95	1.1843e-06	1.5419e-05	633.24	269.99	1.2724e-05	1.1574e-05	299.08	133.99	117.96	55.642	3.6123e-06	69.525	0.0025763	0.0026126	0.0006704	860.62	2.8046e-05	2.7565e-05	845.08	349.77	2.7671e-05	2.6799e-05	416.38	170.84	205.75	66.109	2.38e-05	82.044	280.873	-25.493	278.240	-57.240	119.607	45.028	-57.662	-51.779	176.870	45.672	-54.118	-48.794	-45.919	-42.016	93.990	-45.268	-8191	255	
4309.896	1	1	0	0	0.16209	0.29811	0.060867	0.060867	0.02889	0.16849	0.1237	0.028745	0.10651	0.10715	0.24323	0.31634	0.18938	0.17155	0.1461	0.2155	-2.4854	-1.9937	-2.1	-2.6396	-1.9312	-2.6458	-2.2313	-2.2438	-2.8271	-2.1083	-2.3833	-2.7146	-1.8979	-2.6375	-2.5333	-2.0771	0.866	114.376	148.277	65.532	8.395	77.360	277.755	131.166	75.212	-20.627	-1.600	175.365	174.744	231.436	198.214	232.338	0.00063924	0.00078091	0.00028821	638.63	6.9763e-06	3.9616e-06	634.9	271.79	1.4861e-05	3.6733e-06	305.31	136.84	120.68	56.247	1.5439e-05	70.264	0.002332	0.0022414	0.00058227	841.27	2.5565e-05	2.3818e-05	822.01	346.03	2.4695e-05	2.2881e-05	403.52	169.92	196.65	64.881	2.1676e-05	82.681	-56.308	-3.695	101.997	-56.815	258.118	-11.982	-58.070	-51.660	-63.313	48.972	-54.011	-48.451	-45.492	-41.982	176.869	-45.086	-8191	255	
4310.016	1	1	0	0	0.063965	0.19609	0.31906	0.51891	0.15458	0.16064	0.18213	0.22892	0.031349	0.26581	0.13464	0.48278	0.085765	0.11707	0.17152	0.076498	-2.2687	-2.0896	-2.2104	-2.7562	-1.7437	-2.3896	-2.6396	-2.0042	-2.5438	-2.3083	-2.3208	-2.8167	-1.9521	-2.5812	-2.4646	-2.0292	113.756	278.679	-10.134	224.689	207.891	2.649	237.932	138.619	61.906	111.844	-24.378	222.713	209.320	262.996	-17.225	92.624	8.507e-05	0.0011094	0.00014529	649.7	1.1968e-05	9.2084e-06	648.93	279.07	4.8791e-06	1.5836e-05	309.69	139.9	122.23	56.987	2.6949e-06	71.338	0.0021829	0.0020718	0.00055636	853.87	2.4783e-05	2.2905e-05	827.31	354.61	2.3976e-05	2.2695e-05	412.66	176.13	202.93	66.675	2.4156e-05	86.386	-3.043	-38.137	-50.468	-57.191	132.891	107.191	-57.726	-51.611	80.053	58.074	-54.167	-49.049	-45.407	-42.028	220.431	-45.177	-8191	255	
4310.088	1	1	0	0	0.12405	0.034063	0.098032	0.12701	0.16014	0.09567	0.18109	0.074119	0.1763	0.13908	0.066902	0.09895	0.16745	0.19081	0.20425	0.28893	-2.25	-2.2687	-1.9729	-2.8854	-1.9042	-2.2146	-2.6813	-1.9521	-2.5438	-2.3667	-2.0938	-2.7042	-1.9875	-2.5687	-2.7792	-2.0542	209.636	165.219	237.908	-31.498	275.581	131.177	191.748	197.561	261.333	220.407	-65.379	201.710	185.759	-62.497	1.192	-61.096	0.00040961	0.0011462	0.00053323	653.46	1.6307e-05	1.673e-05	644.87	278.15	2.7149e-05	5.0707e-06	303.15	136.46	120.45	56.172	1.5583e-05	69.624	0.0024135	0.0023687	0.00065754	912.47	2.8848e-05	2.7573e-05	887.57	387.26	3.1389e-05	3.0821e-05	461.98	193.61	237.29	70.667	3.3496e-05	93.134	281.407	277.204	74.686	-56.949	84.373	12.221	-57.620	-51.512	56.184	13.293	-53.823	-48.908	-46.710	-42.191	205.560	-45.569	-8191	255	
4310.184	1	1	0	0	0.26029	0.094688	0.085596	0.16291	0.10363	0.31134	0.18843	0.08158	0.12322	0.20563	0.28881	0.068698	0.23841	0.22263	0.20853	0.010664	-2.2583	-2.3042	-1.8729	-2.8812	-2.1646	-2.2104	-2.7	-1.9813	-2.5333	-2.4354	-2.0771	-2.7313	-2.2354	-2.3646	-2.6896	-1.9896	194.779	109.529	131.543	29.578	216.234	131.261	139.021	158.050	151.430	12.209	4.382	280.574	-46.189	142.468	207.106	-4.985	3.8092e-05	0.0018989	0.00062681	658.3	1.2965e-05	2.6076e-05	648.56	278.96	6.2902e-06	1.8045e-05	299.44	136.32	120.68	56.21	1.7543e-05	70.271	0.0030817	0.0030346	0.00087033	988.93	3.4339e-05	3.2427e-05	944.88	403.16	3.3264e-05	3.2484e-05	479.11	194.54	232.42	70.001	3.36e-05	91.275	-10.284	-14.610	129.649	-57.597	123.056	95.922	-57.949	-51.739	116.124	36.228	-53.950	-49.020	-46.245	-42.121	196.824	-45.390	-8191	255	
4310.280	1	1	0	0	0.15646	0.1203	0.28566	0.20467	0.051361	0.1025	0.020352	0.19007	0.32902	0.32479	0.097819	0.13938	0.16495	0.10558	0.16092	0.076093	-1.8396	-2.525	-1.9354	-2.9188	-2.1208	-2.3167	-2.8771	-2.1333	-2.3354	-2.7917	-2.1875	-2.6208	-2.1208	-2.2354	-2.7875	-2.2729	-4.732	86.747	217.906	176.553	160.645	35.909	-67.786	248.616	235.158	269.718	275.083	-45.489	139.256	273.852	-0.172	179.614	0.00025247	0.00079911	0.00038315	652.42	1.9829e-06	1.5002e-06	639.77	278.07	1.6509e-05	4.0512e-06	305.32	138.07	122.32	56.397	1.0465e-05	70.806	0.0028173	0.0027836	0.00083255	941.78	3.0444e-05	2.9151e-05	916.12	381.98	2.8313e-05	2.7859e-05	458.67	183.36	211.7	67.848	2.9603e-05	87.345	229.640	276.187	220.563	-57.418	-55.509	118.660	-57.840	-51.654	134.762	219.494	-54.037	-49.016	-45.904	-41.952	56.798	-45.450	-8191	255	
4310.399	1	1	0	0	0.066115	0.16327	0.27108	0.26255	0.11454	0.14344	0.29353	0.354	0.053811	0.44963	0.26085	0.24601	0.23426	0.16748	0.19837	0.09323	-2.0417	-2.5542	-1.9688	-2.7833	-2.3021	-2.0187	-2.7146	-2.1958	-2.4333	-2.5708	-2.1479	-2.5167	-2.3979	-2.2229	-2.6542	-2.2479	239.697	204.015	232.607	263.771	35.829	86.916	171.065	-64.351	269.911	-40.388	48.303	274.824	-49.138	213.914	86.090	-57.802	0.00041587	0.0016548	0.00022049	650.22	1.5024e-05	2.5715e-06	646.31	279.37	9.5972e-06	1.8581e-05	308.86	139.38	120.98	56.383	2.5393e-05	70.816	0.0023958	0.0024647	0.00074911	891.15	2.6726e-05	2.703e-05	899.88	371.08	2.6323e-05	2.7142e-05	453.33	179.33	205.04	67.805	2.8497e-05	85.827	240.006	83.518	130.019	-57.558	114.519	5.624	-58.096	-51.784	-7.073	215.997	-53.815	-48.955	-46.357	-41.990	41.399	-44.985	-8191	255	
4310.495	1	1	0	0	0.16097	0.2616	0.11105	0.083034	0.30942	0.12218	0.16791	0.13388	0.15019	0.077361	0.16665	0.15583	0.052537	0.081414	0.1157	0.10921	-1.875	-2.5583	-2.0354	-2.5542	-2.4625	-2.0208	-2.7375	-2.2938	-2.0083	-2.7292	-1.8729	-2.5042	-2.6625	-1.9833	-2.6229	-2.4354	-60.030	45.006	-52.355	242.081	197.974	184.405	179.478	-57.684	14.286	274.081	261.855	211.541	259.432	-28.097	-50.861	255.647	0.00028274	0.00080346	0.0002162	650.63	1.1147e-05	1.8111e-05	637.58	278.15	4.188e-06	2.8258e-05	304.65	137.53	118.5	56.007	4.5624e-06	70.783	0.0022416	0.0024092	0.00070651	867.64	2.5066e-05	2.6436e-05	868.13	357.36	2.3703e-05	2.5961e-05	432.95	172.97	193.44	66.486	2.4937e-05	82.987	-64.344	169.927	-12.365	-57.389	90.998	210.882	-58.038	-51.669	-59.218	152.421	-53.856	-49.070	-45.249	-42.029	78.154	-45.264	-8191	255	
4310.592	1	1	0	0	0.26671	0.19495	0.13164	0.13491	0.13943	0.04904	0.27429	0.21984	0.23037	0.20834	0.32691	0.30007	0.19774	0.17675	0.35494	0.1392	-1.7479	-2.8	-1.9208	-2.4604	-2.525	-1.875	-2.7104	-2.4917	-2.1292	-2.85	-2.0729	-2.3875	-2.3958	-2.0583	-2.5687	-2.4604	240.844	178.391	192.776	229.538	181.375	-35.259	270.031	239.922	83.597	-15.439	223.335	171.772	85.288	289.807	8.031	178.191	0.00030111	0.00099739	0.0004632	647.28	1.1279e-05	1.7197e-06	638	276.12	2.8633e-06	7.8062e-06	303.01	137.5	117.44	55.614	7.4381e-06	70.297	0.0020229	0.0022825	0.00062862	839.11	2.38e-05	2.6386e-05	849.06	354.13	2.4568e-05	2.7604e-05	433.63	173.98	202.5	68.037	2.6829e-05	85.005	223.862	109.289	10.177	-57.083	231.378	-59.188	-57.900	-51.759	96.226	285.187	-54.063	-49.202	-45.587	-41.959	34.745	-45.632	-8191	255	
4310.688	1	1	0	0	0.15461	0.2601	0.1335	0.14732	0.092409	0.24879	0.24469	0.10782	0.10783	0.21798	0.086766	0.20632	0.15823	0.21928	0.076789	0.17951	-1.6938	-2.7083	-2.0146	-2.4354	-2.7021	-1.8833	-2.675	-2.4062	-2.2625	-2.7438	-2.2062	-2.2667	-2.8	-1.8375	-2.45	-2.6604	250.981	133.954	189.451	255.031	103.650	10.861	204.544	260.262	-58.551	62.552	198.009	255.222	78.812	265.389	107.323	244.006	0.0006736	0.00092174	0.00032482	644.91	2.5823e-05	7.6657e-06	633.04	273.24	6.3394e-06	7.461e-06	302.77	135.84	115.5	54.98	1.6909e-05	69.795	0.0023874	0.0026927	0.00071565	872.63	2.8543e-05	3.124e-05	884.61	369.59	3.0496e-05	3.2767e-05	458.66	182	228.41	70.816	3.1673e-05	88.907	233.652	129.395	28.093	-57.245	257.568	131.631	-57.906	-51.821	-32.250	271.214	-54.129	-49.147	-45.742	-41.986	-35.158	-45.027	-8191	255	
4310.784	1	1	0	0	0.17092	0.088441	0.32607	0.075961	0.078511	0.24723	0.1526	0.31497	0.14503	0.052943	0.17218	0.27479	0.13004	0.033899	0.14839	0.1658	-1.3917	-2.6479	-2.1688	-2.3521	-2.7812	-2.0583	-2.4104	-2.6771	-2.0292	-2.6188	-2.2167	-2.025	-2.8271	-2.2396	-2.6104	-2.6375	51.354	21.611	199.866	123.636	153.204	47.484	31.646	276.484	-65.259	200.631	118.686	223.086	28.737	182.412	86.371	71.357	0.0012983	0.0015709	0.00012276	641.67	2.2936e-05	9.5165e-06	637.81	269.47	1.1596e-05	2.495e-05	303.57	135.37	114.56	54.841	5.8875e-06	69.989	0.0030333	0.0032043	0.00084804	928.11	3.6174e-05	3.7141e-05	936.61	387.55	3.7284e-05	3.7056e-05	480.51	189.02	247.03	71.442	3.2512e-05	89.805	246.761	32.927	0.126	-57.399	260.838	3.511	-58.032	-51.515	130.287	0.627	-54.497	-49.376	-46.057	-42.054	206.414	-45.189	-8191	255	
4310.880	1	1	0	0	0.15338	0.20925	0.10324	0.089725	0.20642	0.35094	0.44047	0.16997	0.14265	0.061993	0.17818	0.0322	0.13728	0.18595	0.24819	0.077438	-1.5667	-2.9188	-2.3917	-2.1021	-2.8771	-2.125	-2.4562	-2.6896	-1.8188	-2.5792	-2.5396	-2.0938	-2.8063	-2.3187	-2.2604	-2.8875	73.192	213.994	125.274	-41.132	199.270	-11.743	237.972	-67.037	-25.518	169.859	219.730	231.438	195.047	249.759	-36.886	141.803	0.0007195	0.0018634	0.00053832	636.95	9.6692e-06	1.5964e-05	631.9	270.9	9.8296e-06	1.7922e-05	300.47	134.47	115.2	54.452	1.103e-05	69.686	0.0030877	0.0029541	0.00077542	900.04	3.256e-05	3.0677e-05	871.1	366.52	3.0825e-05	2.8454e-05	434.14	176.55	214.11	66.101	2.5456e-05	84.77	259.051	36.347	281.357	-56.994	-50.699	17.374	-57.807	-51.651	9.847	12.730	-53.878	-48.819	-46.262	-42.042	30.630	-45.194	-8191	255	
4310.976	1	1	0	0	0.2532	0.053668	0.21491	0.3002	0.22258	0.25989	0.11742	0.14701	0.08771	0.30113	0.059992	0.29365	0.077766	0.095177	0.10513	0.2491	-1.6	-2.6875	-2.4583	-2.1354	-2.6917	-2.0229	-2.35	-2.8458	-2.2021	-2.6979	-2.6188	-1.9354	-2.7625	-2.2979	-2.1188	-2.7229	192.136	203.685	-22.067	196.531	142.621	207.424	128.431	248.884	225.674	157.151	2.285	263.750	287.943	-54.188	53.971	199.171	0.00030236	0.0015391	0.00019169	629.96	7.6499e-06	1.3748e-05	626.61	267.59	2.9619e-06	9.3436e-06	297.56	132.63	114.68	53.752	1.1355e-05	68.55	0.0024996	0.002314	0.00061675	842.38	2.5658e-05	2.3805e-05	807.33	345.56	2.4826e-05	2.2931e-05	403.52	168.93	195.34	63.171	2.2239e-05	81.897	-44.179	2.966	265.653	-57.062	99.324	140.301	-58.006	-51.290	234.141	47.025	-53.716	-48.805	-45.305	-41.932	125.298	-45.398	-8191	255	
4311.095	1	1	0	0	0.22109	0.23285	0.20257	0.03065	0.15568	0.042809	0.10624	0.23312	0.11871	0.22708	0.056249	0.17039	0.076307	0.26382	0.06508	0.12519	-1.5396	-2.2062	-2.4583	-2.1312	-2.8208	-2.325	-2.1979	-2.6833	-1.9937	-2.4125	-2.4604	-2.1167	-2.6688	-2.3396	-1.9729	-3.0542	73.691	-9.603	72.329	54.205	76.245	-22.605	52.315	170.817	30.005	-30.594	191.887	289.755	-21.559	-66.072	-13.441	268.961	4.1e-05	0.0012659	0.00010396	625.18	7.9728e-06	6.487e-06	623.21	267.73	7.6435e-06	1.3346e-05	296.1	132.57	113.43	53.443	1.5385e-06	68.954	0.0021544	0.0020085	0.00055017	822.31	2.2591e-05	2.1245e-05	786.57	338.13	2.1962e-05	2.0693e-05	392.76	166.29	183.08	61.757	2.1561e-05	81.961	83.796	188.123	114.342	-57.268	29.322	13.410	-57.869	-51.700	57.678	47.760	-53.768	-48.655	-46.111	-42.118	60.744	-45.294	-8191	255	
4311.191	1	1	0	0	0.26957	0.13348	0.1124	0.18045	0.20792	0.11026	0.41063	0.20803	0.15329	0.060738	0.24883	0.10483	0.088529	0.1034	0.21073	0.25214	-1.6792	-2.3917	-2.7375	-2.1458	-2.6667	-2.4188	-1.9792	-2.9583	-2.3688	-2.1896	-2.6604	-2.0396	-2.5479	-2.5646	-2.0875	-2.75	19.377	244.346	8.110	210.161	57.682	-4.920	210.562	189.639	210.350	186.548	89.972	223.639	44.765	225.339	196.224	216.306	0.00017701	0.00066564	3.7288e-05	626.19	9.5751e-06	2.5379e-06	626.64	266.71	5.7432e-06	1.0489e-05	296	133.59	114.31	53.262	1.0121e-05	69.335	0.0020809	0.0020384	0.0006036	854.36	2.517e-05	2.4924e-05	841.57	360.93	2.6732e-05	2.5535e-05	430.22	178.1	200.69	64.188	2.674e-05	85.448	25.823	287.452	106.463	-56.967	30.653	-45.889	-57.991	-51.229	111.066	84.643	-53.525	-48.926	-45.655	-41.864	260.112	-45.159	-8191	255	
4311.287	1	1	0	0	0.26568	0.071994	0.10465	0.1218	0.10711	0.067509	0.12761	0.24448	0.052412	0.075251	0.22388	0.038023	0.24443	0.1226	0.067482	0.19344	-1.7792	-2.2687	-2.6	-2.0042	-2.5625	-2.5354	-2.0021	-2.9542	-2.2958	-2.2542	-2.8729	-2.15	-2.3271	-2.7646	-1.9083	-2.9354	81.013	-69.652	-11.209	-12.564	-41.210	13.170	-32.181	160.921	5.605	144.045	25.072	213.679	234.959	241.077	61.059	188.340	0.00029149	0.001362	0.0005755	632.27	5.7732e-06	1.0937e-05	626.6	265.77	2.5287e-05	4.1119e-06	298.2	133.58	112.52	53.176	1.4472e-05	69.371	0.0023211	0.0022376	0.00067746	866.41	2.505e-05	2.4623e-05	846.44	352.58	2.4608e-05	2.3703e-05	427.7	172.97	190.69	62.841	2.53e-05	82.65	-50.032	82.688	97.706	-57.397	285.595	143.563	-57.858	-51.877	118.399	1.770	-53.727	-48.558	-45.903	-41.997	206.766	-45.351	-8191	255	
4311.384	1	1	0	0	0.14276	0.052306	0.11613	0.25843	0.091387	0.12545	0.20499	0.093187	0.12342	0.18134	0.29477	0.26808	0.14996	0.20048	0.15692	0.28589	-2.0583	-2.0583	-2.6646	-2.0833	-2.4229	-2.5604	-1.9813	-2.5646	-2.2396	-2.1521	-2.7833	-2.0438	-2.3917	-2.7917	-1.9333	-2.7083	1.509	-10.353	36.067	151.590	236.262	61.004	6.476	269.724	32.697	152.110	254.178	271.291	215.787	-41.179	238.675	221.113	0.00051681	0.00058913	0.00020806	629.1	3.0741e-06	1.1858e-05	621.4	267.75	6.493e-06	6.9884e-06	295.71	132.96	114.39	53.364	1.0851e-05	68.61	0.0020754	0.0020383	0.00062484	824.42	2.1719e-05	2.1651e-05	813.7	333.96	2.0728e-05	2.0435e-05	400.31	161.85	171.06	60.653	2.101e-05	78.048	289.962	30.783	59.361	-57.301	204.901	233.646	-57.529	-51.749	84.436	86.893	-53.743	-48.617	-46.177	-41.959	73.046	-45.068	-8191	255	
4311.480	1	1	0	0	0.31622	0.21874	0.042182	0.092077	0.069231	0.26088	0.23083	0.082251	0.21623	0.061653	0.18921	0.20237	0.20041	0.23928	0.23132	0.14911	-1.9104	-2.0792	-2.5333	-2.1333	-2.1375	-2.6396	-2.2146	-2.4562	-2.25	-2.1708	-2.8063	-2.4437	-2.2271	-2.7979	-1.8667	-2.7104	206.631	280.083	280.387	-22.448	128.629	93.944	90.228	48.312	75.719	8.911	59.756	189.401	202.340	236.676	166.088	215.879	0.00032648	0.00079756	0.00032206	628.57	7.3666e-06	4.4425e-06	621.57	266.36	1.4639e-05	8.7469e-06	298.66	133.4	114.16	53.211	7.7745e-06	69.202	0.0016847	0.0017492	0.00052391	780.37	1.8267e-05	1.9513e-05	786.31	324.66	1.8913e-05	2.0291e-05	396.64	161.42	173.29	62.13	2.2801e-05	79.912	-54.203	144.603	-9.516	-57.152	142.461	-58.746	-57.653	-51.519	-31.771	263.321	-54.192	-48.907	-46.389	-41.837	-11.393	-45.243	-8191	255	
4311.576	1	1	0	0	0.11679	0.099033	0.11366	0.2826	0.1692	0.31545	0.049022	0.12593	0.15051	0.083647	0.21539	0.17168	0.11581	0.12104	0.2316	0.2316	-2.0854	-1.8583	-2.7958	-2.3021	-2.2667	-2.8667	-1.9896	-2.5	-2.4917	-1.9833	-2.7062	-2.325	-2.0354	-2.9771	-2.0792	-2.4792	53.248	217.193	136.714	250.345	63.386	14.058	254.274	204.706	41.542	-12.176	-38.894	-9.252	222.167	261.477	-10.690	207.962	0.00044036	0.00087764	0.00055064	626.56	9.1773e-06	1.3964e-05	625.82	264.5	1.2558e-05	1.5031e-05	295.36	132.02	112.56	52.319	1.6156e-05	68.167	0.0019432	0.0021511	0.00061366	819.8	2.2457e-05	2.5204e-05	834.68	340.95	2.4552e-05	2.7764e-05	432.73	173.9	204.34	66.924	3.1304e-05	86.009	254.980	120.964	-10.684	-56.981	265.066	147.131	-57.517	-51.345	-55.314	93.101	-54.021	-48.665	-45.433	-42.000	59.367	-44.986	-8191	255	
4311.696	1	1	0	0	0.12459	0.096936	0.1457	0.16405	0.21222	0.069351	0.039577	0.12014	0.26313	0.14348	0.086005	0.30341	0.14471	0.15294	0.19044	0.11363	-2.2021	-2.0396	-2.7292	-2.6667	-2.1542	-2.7771	-2.2667	-2.5187	-2.7062	-2.1104	-2.6458	-2.5354	-2.2583	-2.9667	-2.3187	-2.3354	107.878	231.295	65.507	256.086	70.778	275.015	162.045	-18.770	17.896	175.284	82.087	-9.225	237.049	279.736	219.396	-44.408	0.00049741	0.00078768	0.00032227	627.26	1.4652e-05	1.7024e-05	624.71	260.18	1.8492e-05	8.7591e-06	291.58	129.22	108.65	51.339	3.1373e-05	66.771	0.0028076	0.0031706	0.00084925	916.03	3.3311e-05	3.8024e-05	952.74	384.62	3.8525e-05	4.279e-05	505.69	196.71	261.52	74.109	4.3238e-05	94.373	272.369	-58.615	-36.366	-57.223	254.889	0.075	-57.662	-51.763	-68.751	9.273	-53.990	-48.823	-45.574	-42.128	-17.247	-44.917	-8191	255	
4311.791	1	1	0	0	0.15028	0.08272	0.095036	0.27616	0.079803	0.24675	0.21627	0.20041	0.065451	0.12745	0.15205	0.17024	0.067855	0.19451	0.29231	0.1013	-2.4167	-1.9438	-2.6542	-2.6	-1.9625	-2.9188	-2.4437	-2.2271	-2.8063	-2.0875	-2.4688	-2.5729	-2.1625	-3.0687	-2.4625	-2.2854	-21.419	281.357	49.174	248.770	229.246	92.130	-54.708	150.270	209.161	139.654	23.274	289.288	234.453	-29.299	25.780	-68.526	0.00077239	0.00092586	0.00025483	623.26	4.6375e-06	3.5903e-05	622.87	251.3	1.8801e-05	1.2629e-05	282.84	126.07	103.61	50.408	4.0621e-06	65.563	0.0040138	0.0043492	0.0011205	1021.4	4.5926e-05	4.8099e-05	1025.9	404.39	4.6325e-05	4.6973e-05	510.6	196.93	272.07	72.448	4.1229e-05	91.379	258.192	171.541	-50.122	-57.409	245.929	53.825	-58.350	-51.619	233.425	21.036	-53.857	-48.817	-45.185	-41.548	235.321	-45.334	-8191	255	
4311.887	1	1	0	0	0.22195	0.14752	0.1762	0.16616	0.25473	0.17805	0.33127	0.05497	0.14794	0.14134	0.10061	0.26288	0.20178	0.17137	0.10856	0.084613	-2.5396	-2.0104	-2.3312	-2.5417	-2.1188	-2.6958	-2.5438	-2.2896	-2.8667	-2.1312	-2.5854	-2.7521	-1.9875	-2.7375	-2.3	-2.3187	84.512	98.734	192.332	261.306	-32.854	52.090	-66.884	-51.322	-58.387	204.783	259.732	180.491	-14.145	237.460	31.024	181.384	0.00069815	0.0022776	0.00035782	616.28	2.8743e-05	2.265e-05	613.21	247.69	9.0427e-06	1.3151e-05	280.68	125.47	104.68	50.144	5.2038e-06	65.438	0.0038736	0.0038632	0.00098877	964.84	4.1506e-05	3.9389e-05	930.71	370.08	3.7294e-05	3.4563e-05	440.5	174.77	220.76	63.606	2.7725e-05	81.637	260.882	14.050	-10.492	-57.359	253.583	22.935	-57.598	-51.373	197.555	22.552	-53.988	-48.819	-45.494	-41.919	191.377	-45.075	-8191	255	
4311.983	1	1	0	0	0.27843	0.15316	0.13447	0.047111	0.073195	0.17574	0.087855	0.16847	0.11669	0.16427	0.17985	0.14555	0.09009	0.10862	0.039037	0.22346	-2.4542	-2.2958	-2.5583	-2.8083	-1.7542	-2.4917	-2.7542	-2.1562	-2.6354	-2.0667	-2.2604	-2.7375	-2.0583	-2.5167	-2.5521	-2.1917	22.902	22.881	135.279	19.152	74.840	59.383	167.207	195.910	163.550	146.393	-36.059	-34.815	-26.631	-14.155	227.152	211.826	0.00037214	0.0012846	0.00011129	605.75	8.6605e-06	1.7541e-05	610.05	255.54	2.1268e-05	1.545e-05	288.19	128.88	108.6	51.499	9.7311e-06	67.074	0.0026224	0.0024449	0.00063039	832.06	2.7737e-05	2.5736e-05	816.3	340.11	2.7392e-05	2.555e-05	405.69	168.65	198.46	61.636	2.3372e-05	81.016	-41.090	-58.492	208.267	-56.829	158.448	41.952	-57.775	-51.598	56.446	107.692	-53.606	-48.316	-45.734	-42.005	-26.888	-44.743	-8191	255	
4312.079	1	1	0	0	0.15497	0.09901	0.065206	0.24421	0.074544	0.20523	0.21942	0.029333	0.090636	0.19931	0.10859	0.29458	0.31962	0.33938	0.10683	0.039746	-2.3833	-2.2833	-2.0583	-2.8438	-1.9771	-2.4771	-2.6333	-2.1083	-2.85	-2.2625	-2.2562	-2.8375	-2.0146	-2.6417	-2.7083	-2.175	-59.726	141.472	108.103	206.944	147.952	164.632	213.047	140.482	46.623	-21.735	7.207	-16.770	224.181	259.474	25.199	216.100	0.00014724	0.0015567	0.00028251	612.7	8.7634e-06	1.4691e-05	615.18	261.6	9.6764e-06	1.1266e-05	293.22	133.55	111.81	52.679	7.4567e-07	69.355	0.0022494	0.0021196	0.00056315	820.28	2.4054e-05	2.2182e-05	791.04	335.18	2.2669e-05	2.117e-05	387.21	164.95	179.97	60.179	2.0097e-05	80.294	53.223	3.125	98.884	-56.747	83.905	4.491	-57.335	-51.030	123.318	69.069	-53.681	-48.599	-45.623	-41.750	-37.386	-44.719	-8191	255	
4312.175	1	1	0	0	0.2057	0.27385	0.32139	0.12565	0.138	0.15193	0.17249	0.18578	0.14483	0.19606	0.076405	0.20399	0.090736	0.26558	0.059678	0.28885	-2.3271	-2.1042	-1.9667	-2.7292	-1.9021	-2.4458	-2.7542	-1.9125	-2.5333	-2.5083	-2.0646	-2.9042	-2.1688	-2.4729	-2.6625	-2.0375	224.960	259.899	-65.260	-52.249	87.277	79.889	278.208	183.710	99.092	281.333	150.330	52.686	0.851	182.793	136.398	247.504	0.00044134	0.0012046	4.2082e-05	619.13	1.6489e-05	1.1462e-05	622.38	263.19	8.0906e-06	1.1053e-05	295.5	132.86	111.22	52.269	6.7904e-06	68.648	0.0018872	0.0018255	0.00050253	798.08	2.0533e-05	1.9272e-05	773.77	328.32	1.9925e-05	1.9083e-05	382.82	162.11	170.21	59.056	1.9488e-05	79.082	283.850	71.007	102.903	-56.975	88.984	0.611	-57.284	-51.127	76.021	57.087	-53.816	-48.103	-45.622	-41.906	159.862	-44.883	-8191	255	
4312.272	1	1	0	0	0.089635	0.030545	0.1771	0.30271	0.22498	0.15064	0.38686	0.19397	0.33641	0.16016	0.20675	0.26844	0.22993	0.33953	0.046025	0.046773	-2.2167	-2.2917	-1.7646	-2.6917	-2.175	-2.2583	-2.9292	-1.9688	-2.5167	-2.5792	-2.1208	-2.7792	-2.2021	-2.275	-2.875	-2.1562	96.392	197.529	146.896	-40.166	191.948	262.015	276.061	242.932	114.131	-60.686	281.000	-34.211	79.058	249.848	79.412	188.430	0.0003217	0.00015083	0.00023685	615.06	4.2656e-06	1.0463e-05	614.78	259.77	4.02e-06	2.4579e-06	290.17	131.55	109.16	51.784	6.5768e-06	67.785	0.0017465	0.0017235	0.00050255	785.91	1.9629e-05	1.8786e-05	775.33	323.95	1.9297e-05	1.8994e-05	383.76	160.08	168.74	58.526	1.9938e-05	77.448	-63.592	-22.613	162.574	-56.617	131.530	136.921	-57.218	-51.205	53.563	147.069	-53.804	-48.318	-44.645	-41.985	128.560	-44.528	-8191	255	
4312.368	1	1	0	0	0.086611	0.018529	0.10743	0.05537	0.14823	0.076129	0.1814	0.17999	0.13198	0.1201	0.14396	0.19596	0.011466	0.34081	0.035031	0.1493	-2.1646	-2.5604	-1.9292	-2.7812	-2.1646	-2.3208	-3.0229	-2.0917	-2.4396	-2.5875	-2.0271	-2.6521	-2.2854	-2.1625	-2.7125	-2.0875	178.602	100.907	-39.539	229.169	113.623	25.931	98.676	188.436	157.296	236.994	246.555	-68.656	240.574	258.143	279.080	267.191	0.00034528	0.0005684	0.00040671	616.31	2.6994e-06	1.6461e-05	614.68	262.43	9.6812e-06	8.0368e-06	292.3	132.38	111.37	51.475	1.4462e-05	68.082	0.0016461	0.0016392	0.00049624	771.88	1.8461e-05	1.8047e-05	773.55	319.44	1.8282e-05	1.8482e-05	385.09	157.91	165.95	58.625	2.0581e-05	77.504	287.429	125.119	100.419	-56.627	162.930	110.615	-57.316	-51.083	198.437	244.866	-53.754	-48.981	-45.293	-42.069	289.355	-45.014	-8191	255	
4312.488	1	1	0	0	0.13669	0.11482	0.072141	0.12907	0.09159	0.10948	0.049883	0.26309	0.087824	0.19183	0.31592	0.11764	0.1777	0.23758	0.21935	0.33963	-1.7708	-2.6167	-1.7875	-2.6375	-2.3271	-2.1396	-2.8458	-2.1417	-2.4688	-2.6125	-1.825	-2.5708	-2.4167	-2.1208	-2.7438	-2.2625	-38.548	162.914	254.926	-35.274	34.649	71.845	62.635	286.939	166.646	36.137	266.169	178.058	225.268	231.150	183.190	217.605	0.00049425	0.00053502	0.00029763	618.66	6.1917e-06	1.2804e-05	618.18	260.26	1.2399e-05	3.054e-06	293.69	131.76	111.23	51.402	5.5205e-06	68.421	0.0016611	0.0017308	0.00052003	770.55	1.8469e-05	1.8815e-05	775.78	315.4	1.7602e-05	1.8322e-05	379.43	154.51	158.69	57.749	1.8077e-05	75.39	283.531	157.986	108.021	-56.958	-26.466	149.869	-57.664	-51.259	73.412	182.404	-53.688	-48.639	-45.694	-41.781	-5.688	-44.842	-8191	255	
4312.585	1	1	0	0	0.28601	0.15111	0.17046	0.15143	0.17441	0.10381	0.1403	0.076064	0.078832	0.068185	0.067063	0.30251	0.13156	0.23799	0.14925	0.23097	-1.9042	-2.7167	-1.9958	-2.5521	-2.6333	-1.9875	-2.8625	-2.1667	-2.1562	-2.7271	-2.0062	-2.5521	-2.4354	-1.8438	-2.6792	-2.3458	177.686	148.740	-56.552	-48.623	150.030	18.274	173.161	-46.732	255.825	187.995	-14.803	-61.985	282.238	-32.715	-7.633	275.747	0.00046247	0.0010321	0.0002579	614.17	8.6269e-06	9.0867e-06	620.09	261.88	5.8595e-06	4.246e-06	299.17	133.94	109.97	51.991	9.0262e-06	68.915	0.0014487	0.0015687	0.00045216	742.17	1.6123e-05	1.723e-05	751.31	307.03	1.5386e-05	1.6868e-05	368.88	152.09	151.91	57.425	1.5664e-05	74.286	283.323	137.350	202.071	-57.037	134.129	214.056	-57.507	-51.202	-54.022	176.600	-53.549	-48.492	-45.505	-41.381	12.244	-44.390	-8191	255	
4312.656	1	1	0	0	0.10048	0.046839	0.073977	0.054191	0.17652	0.34861	0.095391	0.15504	0.031175	0.04917	0.25493	0.25919	0.033332	0.12428	0.19194	0.17756	-1.6083	-2.7188	-1.8396	-2.4333	-2.5354	-2.1042	-2.5458	-2.3187	-1.9438	-2.5667	-2.075	-2.3	-2.7625	-2.0417	-2.5312	-2.3583	41.030	-12.618	-6.498	222.416	27.438	166.974	23.850	21.134	117.887	194.329	252.070	-40.037	229.005	216.365	89.805	189.980	0.00026548	0.00081102	0.00013629	611.26	4.7141e-06	7.0963e-06	613.6	258.99	3.9406e-06	1.3373e-05	294.72	132.37	109.95	51.295	1.1245e-05	68.25	0.0012709	0.0013875	0.00036379	704.89	1.3048e-05	1.3883e-05	702.36	288.98	1.2091e-05	1.3032e-05	337.67	142.57	135.46	54.381	1.1277e-05	70.461	-55.736	170.919	121.100	-56.768	-13.603	-36.030	-57.408	-51.301	210.737	136.371	-53.352	-48.509	-45.202	-41.814	163.116	-44.484	-8191	255	
4312.777	1	1	0	0	0.24436	0.21509	0.094894	0.25768	0.12816	0.18415	0.095047	0.19928	0.18862	0.060295	0.17898	0.1319	0.077486	0.26553	0.14708	0.22203	-1.575	-2.3771	-2.1292	-2.1729	-2.6	-1.85	-2.5396	-2.6125	-1.8937	-2.8625	-2.2854	-2.375	-2.7583	-2.0333	-2.4667	-2.4688	-56.161	94.040	17.694	286.016	30.844	-59.673	199.092	27.665	-16.916	10.589	-68.077	238.348	215.639	200.641	98.199	142.316	0.00026396	0.00029752	0.00016522	610.99	5.178e-06	1.1002e-05	618.01	260.64	1.3232e-05	1.4284e-05	296.64	132.99	110.22	51.313	5.9197e-06	68.177	0.0010062	0.0010812	0.00028326	677.91	1.1159e-05	1.1687e-05	684.02	282.86	1.0903e-05	1.1182e-05	329.35	140.3	132.69	53.568	1.0049e-05	69.732	236.568	227.055	-44.221	-56.956	287.385	23.135	-57.357	-51.199	111.711	24.857	-53.250	-48.674	-45.789	-41.767	-48.233	-44.695	-8191	255	
4312.871	1	1	0	0	0.17844	0.043077	0.18839	0.11336	0.1352	0.056324	0.26798	0.1962	0.3353	0.18446	0.18871	0.36726	0.098251	0.013111	0.2818	0.083489	-1.525	-2.6583	-2.0854	-2.025	-2.8292	-1.8604	-2.4104	-2.4271	-1.9562	-2.6354	-2.3271	-2.0292	-2.5479	-2.1042	-2.2812	-2.7042	91.146	106.137	157.556	-62.985	-42.139	118.428	64.252	-14.513	258.649	37.816	182.043	229.544	-22.559	41.971	189.646	137.846	0.00034693	0.00057441	0.0001862	613.81	3.2115e-06	4.8146e-06	622.63	262.36	4.7589e-06	9.8784e-06	297.75	133.44	110.59	51.467	6.9977e-06	68.643	0.00095285	0.00096961	0.00025612	674.22	1.0688e-05	1.0616e-05	681.42	283.01	1.0885e-05	1.0704e-05	330.19	141.4	135.28	53.738	1.0464e-05	70.69	270.087	19.079	72.189	-56.965	-49.235	38.107	-57.201	-51.133	138.891	38.411	-53.421	-48.549	-45.469	-41.858	29.135	-44.513	-8191	255	
4312.969	1	1	0	0	0.12213	0.081439	0.20765	0.26338	0.29958	0.12836	0.077743	0.07691	0.15417	0.23689	0.13197	0.18929	0.12178	0.32271	0.18354	0.10923	-1.6313	-2.6458	-2.1688	-2.1604	-2.8792	-2.0083	-2.3563	-2.6021	-1.7292	-2.5833	-2.4667	-2.0229	-2.7438	-2.1521	-2.1042	-2.7208	205.731	50.561	-59.746	264.188	156.203	153.973	133.864	-3.510	223.086	28.075	249.146	192.582	119.846	-58.662	124.354	278.188	0.00038106	0.0010372	0.00025337	610.1	5.604e-06	2.3315e-06	624.08	261.35	6.1257e-06	5.8743e-06	298.91	133.36	111.27	51.261	4.5759e-06	68.991	0.0010541	0.001018	0.00027408	684.09	1.181e-05	1.1276e-05	690.22	287	1.1906e-05	1.1072e-05	334.23	143.5	137.06	53.45	1.0466e-05	71.311	280.098	-10.402	6.564	-56.914	152.641	258.494	-57.282	-51.158	67.618	87.664	-53.538	-48.746	-45.620	-41.610	144.149	-44.813	-8191	255	
4313.088	1	1	0	0	0.13778	0.10062	0.045091	0.049949	0.26566	0.24957	0.18456	0.3576	0.19342	0.10811	0.050647	0.068887	0.12349	0.17685	0.15208	0.14554	-1.5771	-2.5104	-2.45	-2.0479	-2.7771	-2.0729	-2.2313	-2.6937	-1.9083	-2.4188	-2.6583	-2.1104	-2.575	-2.1958	-2.2208	-2.6521	174.092	-52.042	101.093	264.388	79.079	93.284	52.472	-52.800	269.121	132.734	30.839	-41.807	93.267	-44.612	14.754	-2.582	0.00026483	0.00089629	0.00043727	613.73	4.497e-06	2.8319e-06	619.22	262.25	3.625e-06	1.1542e-05	295.82	132.9	110.15	51.018	2.4577e-06	68.601	0.0010499	0.00097766	0.00026758	686.04	1.1345e-05	1.0664e-05	682.44	285.63	1.096e-05	1.0177e-05	327.21	141.9	131.15	52.739	9.4436e-06	70.183	274.276	-32.489	32.288	-57.082	227.557	82.889	-57.300	-51.177	36.575	1.875	-53.157	-48.414	-45.429	-41.783	247.583	-44.718	-8191	255	
4313.184	1	1	0	0	0.18239	0.042578	0.21429	0.29789	0.25559	0.24971	0.16902	0.17142	0.20354	0.31453	0.14134	0.20966	0.15983	0.27003	0.11073	0.27875	-1.5771	-2.2271	-2.475	-2.1646	-2.4583	-2.2167	-2.1125	-2.8354	-1.8062	-2.1708	-2.6021	-2.1333	-2.3875	-2.5563	-2.0833	-2.8958	35.792	60.202	-25.165	98.201	287.773	27.283	249.660	-40.398	220.685	-16.926	-34.187	25.267	170.287	253.534	266.227	152.007	0.00026222	0.00064044	0.00015841	611.58	7.0959e-06	3.8878e-06	620.87	261.21	1.1428e-05	4.914e-06	293.81	133.07	111.26	51.486	7.2978e-06	68.577	0.00089563	0.00083804	0.00023493	674.59	9.6076e-06	9.2898e-06	670.27	281.49	9.5087e-06	9.0735e-06	322.24	140.64	127.79	52.534	9.2608e-06	69.975	267.114	89.913	172.602	-56.577	109.751	45.509	-57.296	-50.971	65.335	280.791	-53.459	-48.339	-45.709	-41.570	179.280	-44.109	-8191	255	
4313.256	1	1	0	0	0.19695	0.24423	0.0035412	0.42062	0.11437	0.19878	0.039791	0.18949	0.23136	0.10513	0.20779	0.23186	0.15969	0.042167	0.12543	0.12141	-1.675	-2.1979	-2.6188	-2.2417	-2.6646	-2.2938	-2.0083	-2.7625	-2.1813	-2.1646	-2.6396	-1.8687	-2.6604	-2.6042	-1.9979	-2.7792	25.058	178.124	34.575	229.395	224.783	268.482	20.918	158.623	224.579	235.556	176.987	222.847	155.297	-24.916	271.598	101.553	3.2716e-05	0.0012132	0.00017764	615.89	4.8669e-06	1.2628e-05	619.03	260.14	3.386e-06	2.5053e-06	298.32	132.98	110.41	51.453	3.2662e-06	68.55	0.00086943	0.00083673	0.00024651	678.83	9.7711e-06	9.6499e-06	678.82	284.23	1.0071e-05	9.7276e-06	331.38	142.81	131.39	53.308	1.0943e-05	71.286	-9.559	43.080	110.167	-56.693	172.640	155.461	-57.613	-51.330	45.457	-65.760	-53.551	-48.468	-45.728	-41.573	277.510	-44.359	-8191	255	
4313.376	1	1	0	0	0.24838	0.022363	0.036832	0.03584	0.12799	0.061772	0.22715	0.13842	0.070916	0.44946	0.17922	0.15077	0.096687	0.10417	0.048003	0.18626	-1.8438	-2.0062	-2.6396	-2.125	-2.5021	-2.4813	-2.2313	-2.8708	-2.1354	-1.8563	-2.7188	-2.0563	-2.4	-2.7417	-2.0146	-2.6458	230.773	134.106	106.254	35.901	-14.021	265.102	223.758	140.141	-0.625	32.126	-46.610	152.657	262.685	-44.861	56.159	217.278	0.00040923	0.0010679	0.00018449	614.13	3.8713e-06	1.9538e-06	624.18	261.62	4.0196e-06	3.7172e-06	296.34	133.14	110.04	51.101	5.8062e-06	68.765	0.00098325	0.00096011	0.00029257	690.88	1.1054e-05	1.1151e-05	700.68	289.53	1.1671e-05	1.146e-05	343.04	145.89	137.65	54.31	1.3635e-05	73.015	248.407	24.491	78.222	-57.076	116.950	193.101	-56.987	-50.765	115.395	18.902	-53.443	-47.789	-45.006	-41.469	125.100	-44.139	-8191	255	
4313.473	1	1	0	0	0.081769	0.17742	0.15984	0.061432	0.14109	0.17046	0.14712	0.64981	0.10867	0.26798	0.28246	0.31055	0.22614	0.063205	0.19647	0.11084	-1.9	-2.1771	-2.6729	-2.1271	-2.3375	-2.7188	-2.1562	-2.4938	-2.2208	-2.1083	-2.8563	-2.0521	-2.3146	-2.7562	-1.8875	-2.5438	47.287	-4.515	101.496	51.730	264.409	71.438	219.040	248.511	277.649	64.314	-41.425	205.490	238.625	221.259	226.961	1.388	0.00049755	0.00072183	0.00015225	612.81	7.1146e-06	1.1875e-05	619.28	260.78	2.0982e-06	1.0825e-05	294.82	133.38	109.57	51.325	1.7715e-06	69.045	0.0011773	0.0011861	0.00036366	712.91	1.3102e-05	1.345e-05	721.8	294.47	1.2955e-05	1.301e-05	349.07	146.53	138.14	54.584	1.3198e-05	72.025	259.414	43.465	254.489	-56.871	120.586	42.972	-57.000	-50.892	144.274	207.583	-52.590	-47.973	-45.261	-41.191	-26.050	-44.409	-8191	255	
4313.569	1	1	0	0	0.19521	0.25038	0.28902	0.11265	0.2128	0.1707	0.19416	0.10755	0.053077	0.16759	0.20389	0.13308	0.17212	0.060286	0.19836	0.35897	-1.8417	-1.7833	-2.5729	-2.0917	-2.1937	-2.7021	-2.0438	-2.6604	-2.5625	-2.0854	-2.8167	-2.2396	-2.0125	-2.7687	-1.9042	-2.4521	154.920	55.029	143.717	-44.930	-57.702	11.246	-52.512	179.552	-45.670	126.573	263.175	223.526	-32.092	2.211	71.608	201.978	0.00041336	0.00060117	0.00018731	603.91	6.5118e-06	9.0757e-06	606.33	256.56	2.6487e-06	3.682e-06	291.88	131.08	108.22	51.176	8.5735e-06	68.347	0.0010718	0.0011274	0.00032883	688.49	1.1672e-05	1.2532e-05	696.23	285.13	1.2009e-05	1.2788e-05	340.65	143.52	136.72	54.609	1.2939e-05	71.08	266.498	35.376	286.143	-56.291	116.352	163.128	-56.629	-50.891	214.955	113.069	-52.807	-48.192	-45.013	-41.159	95.218	-44.444	-8191	255	
4313.665	1	1	0	0	0.37104	0.13853	0.13238	0.13544	0.14943	0.26866	0.27162	0.18963	0.38778	0.1396	0.17852	0.19769	0.068789	0.10997	0.11191	0.26663	-2.175	-1.8875	-2.6771	-2.125	-2.0479	-2.8125	-2.2313	-2.3917	-2.4875	-1.9604	-2.5	-2.3688	-1.9292	-2.8542	-2.1479	-2.3083	176.777	-31.233	266.643	187.822	208.015	178.988	215.925	263.846	100.458	-44.230	6.326	286.688	139.538	96.834	147.740	283.338	0.00022492	0.0011028	9.7476e-05	604.07	7.4649e-06	2.5087e-06	612.99	259.52	1.5937e-06	4.2994e-06	294.65	133.69	110.42	52.415	7.3455e-06	69.47	0.0010405	0.001105	0.00029689	677.64	1.0409e-05	1.1239e-05	678.41	279.75	9.9684e-06	1.0706e-05	326.97	141.03	128.75	54.303	1.0122e-05	70.584	271.889	138.414	-51.985	-56.911	-64.942	-52.199	-57.380	-51.437	290.461	23.879	-53.995	-48.957	-45.618	-42.060	38.638	-44.854	-8191	255	
4313.761	1	1	0	0	0.23636	0.28948	0.039129	0.17813	0.18478	0.19568	0.19174	0.24853	0.2882	0.18521	0.048226	0.18759	0.13571	0.20142	0.12072	0.35514	-2.2562	-1.8312	-2.5146	-2.4104	-2.0875	-2.7667	-2.1021	-2.1729	-2.6542	-1.9833	-2.5187	-2.55	-1.9729	-2.8042	-2.0542	-2.2771	69.864	34.422	174.122	219.701	-64.613	62.164	161.245	2.107	25.659	-19.355	228.263	-27.293	43.281	244.473	211.422	287.030	0.00034416	0.00041123	5.8019e-05	610.98	4.461e-06	5.9577e-06	616.38	263.42	2.3356e-06	3.9725e-06	296.88	135.7	111.43	52.638	4.8518e-06	69.547	0.00089032	0.0009611	0.00025225	669.2	9.6692e-06	1.0481e-05	674.95	281.7	1.0022e-05	1.064e-05	328.49	142.15	132.45	54.672	1.0349e-05	71.225	272.764	70.562	259.310	-57.172	282.494	141.556	-57.825	-51.427	148.734	95.420	-54.207	-48.714	-45.338	-41.882	21.483	-45.275	-8191	255	
4313.880	1	1	0	0	0.17752	0.045074	0.10936	0.24865	0.27093	0.2086	0.36159	0.29376	0.15528	0.18731	0.11593	0.19929	0.22893	0.44042	0.21665	0.34492	-2.4208	-1.8188	-2.5417	-2.4917	-1.9833	-2.7938	-2.2438	-2.2417	-3.0208	-2.0708	-2.6104	-2.4104	-1.9708	-2.6521	-2.2604	-2.0875	107.469	-44.822	-44.622	247.467	259.296	-4.057	196.103	268.446	116.676	0.890	169.537	256.347	-46.948	236.323	215.556	245.654	0.00023326	0.0015246	8.0495e-05	608.84	9.2194e-06	1.1101e-05	618.12	262.18	3.5855e-06	6.3045e-07	296.88	134.12	109.57	51.561	9.0373e-06	69.25	0.00097894	0.0010142	0.00026432	675.4	1.1157e-05	1.139e-05	686.98	284.52	1.1794e-05	1.1851e-05	334.49	143.61	137.41	54.289	1.1288e-05	71.367	259.173	2.276	211.736	-57.442	211.060	58.814	-57.884	-51.695	227.278	62.262	-53.885	-48.729	-46.074	-41.972	57.006	-45.215	-8191	255	
4313.953	1	1	0	0	0.16498	0.23519	0.077786	0.19797	0.09551	0.17074	0.089071	0.032203	0.15995	0.12639	0.12736	0.012031	0.11439	0.14774	0.16493	0.2127	-2.3646	-1.9167	-2.3604	-2.6063	-1.85	-2.5583	-2.2792	-2.1583	-2.7771	-2.1042	-2.3812	-2.5917	-1.7771	-2.6146	-2.3167	-2.1667	286.097	160.139	-53.291	67.854	13.360	-25.317	135.730	-28.026	13.221	-23.028	266.207	-64.329	-43.906	-27.444	39.694	3.107	0.00024675	0.00083952	0.00010832	601.11	4.4679e-06	1.6279e-05	613.05	256.83	4.3228e-06	1.7975e-05	291.98	130.86	108.76	51.117	2.4544e-06	68.124	0.0010911	0.0010772	0.00028056	679.21	1.212e-05	1.1579e-05	682.64	282.73	1.2255e-05	1.1803e-05	330.3	142.72	138.99	53.893	1.1305e-05	71.137	216.075	-65.144	275.734	-57.406	201.255	48.839	-57.555	-51.821	-13.722	3.567	-54.145	-48.696	-46.000	-42.335	231.499	-45.370	-8191	255	
4314.050	1	1	0	0	0.11786	0.19524	0.12369	0.15559	0.15648	0.16117	0.1888	0.16793	0.19699	0.2819	0.13693	0.16642	0.11726	0.023145	0.2037	0.18959	-2.3187	-2.1063	-2.2917	-2.6063	-1.8417	-2.4167	-2.6375	-1.9646	-2.6083	-2.3771	-2.3458	-2.7333	-1.9729	-2.5583	-2.4188	-2.0354	22.440	120.334	260.045	249.816	99.189	-6.073	246.515	247.029	79.178	259.874	-30.294	191.676	123.654	264.329	172.022	235.060	0.00052198	0.00071839	0.00014677	606.48	7.3345e-06	4.9871e-06	605.05	256.78	7.1185e-06	1.8458e-06	290.92	131.39	109.71	51.129	8.7283e-06	68.331	0.0011083	0.0010489	0.00027747	682.51	1.2099e-05	1.1222e-05	676.86	283.15	1.1878e-05	1.1298e-05	326.81	143.03	137.11	53.652	1.1088e-05	71.511	232.015	-12.439	68.245	-57.401	163.718	20.723	-57.683	-51.774	-7.949	258.806	-54.252	-48.554	-46.355	-42.181	180.190	-44.949	-8191	255	
4314.168	1	1	0	0	0.25809	0.13838	0.22389	0.21559	0.34938	0.39328	0.20656	0.18786	0.18745	0.20021	0.41631	0.14475	0.19255	0.10831	0.21233	0.25933	-2.1312	-2.1437	-2.1792	-2.8396	-2.0021	-2.5542	-2.5417	-2.0417	-2.7625	-2.2229	-2.2146	-2.7375	-2.1125	-2.6771	-2.6479	-2.3271	62.297	276.834	284.404	-63.825	139.098	226.273	233.533	49.969	-64.007	41.723	-43.459	-36.164	260.989	36.296	200.670	230.705	0.00041657	0.00057766	9.209e-05	601.43	1.0541e-05	5.4105e-06	609.56	255.35	1.3199e-05	9.1167e-06	290.31	131.04	108.4	50.195	6.9086e-06	67.492	0.00109	0.0010459	0.00028209	688.58	1.2184e-05	1.143e-05	682.69	286.5	1.2363e-05	1.1983e-05	332.81	145	139.39	53.281	1.2441e-05	72.11	243.172	107.123	-48.063	-57.109	127.541	0.099	-57.905	-51.612	22.397	46.123	-54.084	-48.866	-45.764	-42.062	228.340	-45.061	-8191	255	
4314.265	1	1	0	0	0.036437	0.19247	0.045436	0.25277	0.099583	0.027935	0.057216	0.35101	0.18908	0.27825	0.28536	0.45922	0.18766	0.49649	0.15423	0.079877	-2.4104	-2.4208	-2.1146	-2.6854	-2.0229	-2.2875	-2.7438	-1.9312	-2.6646	-2.35	-2.1729	-2.9083	-2.1854	-2.3667	-2.6146	-1.9583	220.897	256.636	166.886	-18.288	-11.758	41.689	111.307	215.564	204.926	-12.862	-13.417	235.162	38.501	250.540	215.979	111.212	0.0002881	0.00063059	5.1371e-05	602.98	1.6548e-05	4.8833e-06	603	254.45	8.3062e-07	3.5701e-06	293.29	130.64	107.26	50.103	9.7363e-06	67.646	0.0011678	0.0011426	0.00031819	700.45	1.2746e-05	1.1957e-05	688.89	288.35	1.2168e-05	1.1822e-05	336	144.25	135.11	52.451	1.1687e-05	71.013	248.688	6.403	136.919	-57.352	88.376	-40.619	-57.421	-51.501	56.305	72.630	-53.861	-48.268	-45.288	-41.514	226.608	-43.790	-8191	255	
4314.361	1	1	0	0	0.15801	0.063348	0.15547	0.099859	0.18154	0.062583	0.22916	0.18401	0.11496	0.12282	0.20517	0.25232	0.38612	0.13812	0.071589	0.16527	-2.1562	-2.4146	-1.9208	-2.7208	-2.1396	-2.1875	-2.6312	-2.2313	-2.4521	-2.4854	-1.9896	-2.6875	-2.0875	-2.1104	-2.8021	-1.95	74.108	50.223	78.833	172.133	115.564	50.531	198.680	193.550	221.215	162.933	248.672	290.463	38.589	200.440	47.162	202.188	0.00032683	0.00049892	0.00026916	599.14	3.8888e-06	1.0629e-05	610.18	258	3.8195e-06	2.4112e-06	295.98	132.41	107.76	50.414	7.2998e-06	68.343	0.00099406	0.00097187	0.00027944	676.19	1.0453e-05	9.8136e-06	674.8	278.46	9.2486e-06	8.8884e-06	322.54	138.53	121.41	50.962	8.707e-06	68.577	-44.175	106.883	75.006	-56.927	170.274	89.831	-57.113	-51.044	24.361	48.688	-53.175	-48.165	-45.196	-41.045	4.364	-44.413	-8191	255	
4314.457	1	1	0	0	0.19628	0.24259	0.06946	0.23323	0.12545	0.22956	0.19496	0.25959	0.18454	0.12474	0.15127	0.17593	0.029955	0.22926	0.34677	0.12784	-2.0208	-2.5938	-1.9667	-2.8271	-2.2625	-1.9896	-2.7542	-1.9333	-2.3271	-2.6813	-2.0042	-2.675	-2.2896	-2.2062	-2.7667	-2.1292	158.104	221.668	-8.228	-66.831	252.876	186.178	209.242	269.073	-37.550	169.020	173.227	242.335	220.009	262.277	150.786	12.336	0.00050378	0.0005331	8.5286e-05	609.57	3.6846e-06	9.4014e-06	622.99	262.03	6.0824e-06	3.805e-06	300.35	133.76	108.52	50.838	8.8966e-06	68.837	0.0007069	0.00070051	0.00020756	648.91	7.4415e-06	7.2683e-06	659.05	271.75	7.1261e-06	7.1581e-06	315.63	135.72	116.14	50.761	7.3444e-06	67.725	249.181	131.168	0.325	-56.272	185.938	192.817	-57.455	-50.870	-40.400	209.764	-52.937	-48.145	-45.637	-41.486	54.364	-44.444	-8191	255	
4314.553	1	1	0	0	0.16355	0.20015	0.12605	0.096765	0.19672	0.35181	0.29036	0.14002	0.087204	0.28544	0.16398	0.14512	0.11754	0.21767	0.19472	0.14919	-1.9667	-2.6854	-1.85	-2.5333	-2.4792	-2.2229	-2.6896	-2.2271	-2.2021	-2.5125	-1.9229	-2.5229	-2.5167	-2.0167	-2.6292	-2.1833	136.151	67.223	8.273	162.504	157.156	8.101	152.896	190.827	83.305	5.306	-18.614	-44.125	-28.304	273.714	274.291	-10.354	0.0003095	0.00081735	0.00019802	617.81	1.796e-06	4.8412e-06	634.18	264.18	7.8013e-06	5.9015e-06	303.35	135.49	111.26	51.063	6.2924e-06	69.139	0.00059852	0.00061511	0.000181	646.48	6.3818e-06	6.5686e-06	660.97	270.33	6.2879e-06	6.6695e-06	314.7	135.91	114.59	50.88	6.9806e-06	67.92	-58.712	109.759	55.451	-56.326	88.661	58.383	-57.324	-51.380	84.621	86.598	-53.829	-48.704	-45.524	-42.046	19.206	-44.840	-8191	255	
4314.649	1	1	0	0	0.19161	0.048395	0.17119	0.37987	0.056737	0.24423	0.16459	0.23169	0.14456	0.056087	0.12018	0.27488	0.17497	0.036275	0.16633	0.094987	-1.7563	-2.6729	-1.9271	-2.4104	-2.425	-1.9625	-2.7125	-2.3937	-2.275	-2.8563	-2.1979	-2.5521	-2.6333	-1.9479	-2.65	-2.275	64.683	165.773	252.657	265.640	36.309	172.322	26.239	111.813	-22.100	269.022	289.678	122.706	185.816	-6.016	180.967	148.462	0.00027914	0.00042252	0.00020226	621.26	2.5264e-06	4.3378e-06	636.99	264.51	1.0297e-05	4.0827e-06	307.13	136.45	109.95	51.182	4.189e-06	69.986	0.00058377	0.00063712	0.00018104	648.07	6.5776e-06	7.0369e-06	664.11	271.27	6.4772e-06	7.0103e-06	317.31	136.71	115.07	51.08	6.7793e-06	68.357	272.009	82.353	55.784	-57.298	181.335	106.296	-57.818	-51.441	132.011	99.976	-53.897	-49.091	-45.719	-42.143	154.665	-45.020	-8191	255	
4314.770	1	1	0	0	0.26349	0.11395	0.24242	0.081983	0.13416	0.1909	0.22002	0.19115	0.20504	0.28383	0.18298	0.14874	0.026104	0.11367	0.13424	0.3101	-1.5938	-2.6562	-1.8146	-2.4458	-2.6188	-2	-2.5646	-2.2438	-1.9438	-2.5812	-2.2229	-2.3729	-2.6271	-2.1458	-2.5042	-2.5583	-46.117	228.520	28.287	190.159	169.203	-66.139	-65.192	178.007	-44.713	225.174	178.167	238.077	282.308	277.602	103.657	218.541	0.00030109	0.00046948	8.863e-05	623.24	5.0189e-07	6.4479e-06	646.01	265.93	6.5375e-06	8.3218e-06	308.3	136.8	111.01	51.221	2.7867e-06	69.755	0.00058354	0.00064011	0.0001702	646.66	6.4723e-06	6.9578e-06	667.61	271.23	6.4569e-06	6.9455e-06	317.86	137.2	115.57	51.03	6.5553e-06	68.141	-65.603	73.290	31.084	-57.350	251.438	25.597	-57.928	-52.035	266.722	101.769	-54.108	-49.002	-45.874	-42.159	30.642	-44.818	-8191	255	
4314.864	1	1	0	0	0.50354	0.16279	0.18771	0.097031	0.17081	0.25592	0.38167	0.2319	0.29498	0.15999	0.15854	0.33397	0.23533	0.094729	0.0775	0.081942	-1.45	-2.8292	-2.1333	-2.2188	-2.6146	-1.9625	-2.6333	-2.3917	-1.9875	-2.5667	-2.1521	-2.3708	-2.6854	-2.1917	-2.5667	-2.5938	5.972	10.062	-22.182	97.178	158.297	170.227	285.085	270.034	149.083	146.463	274.390	193.850	197.495	11.918	243.172	-14.840	0.00054689	0.00059819	6.9882e-05	619.37	5.4956e-06	6.9556e-06	637.39	262.45	2.755e-06	9.1238e-06	302.11	133.22	108.26	49.847	3.5497e-06	68.15	0.0006022	0.00063252	0.00016544	642.69	6.5809e-06	6.819e-06	656.64	267.82	6.4928e-06	6.5789e-06	308.98	133.57	113.63	49.656	6.1653e-06	66.489	278.821	123.425	48.170	-57.476	91.163	88.314	-57.567	-51.732	7.332	23.415	-53.937	-48.890	-45.606	-42.123	36.391	-45.132	-8191	255	
4314.960	1	1	0	0	0.060642	0.088393	0.10646	0.17368	0.15153	0.13745	0.25048	0.19371	0.096916	0.042912	0.28155	0.11805	0.41451	0.14904	0.11588	0.24744	-1.4667	-2.75	-2.2521	-2.1625	-2.4771	-2.0479	-2.4354	-2.6458	-1.9375	-2.6542	-2.275	-2.0417	-2.8438	-2.0583	-2.3083	-2.5896	131.095	-22.188	0.502	205.837	174.906	-66.614	262.411	60.385	112.992	112.687	209.984	-67.655	-17.443	269.863	45.928	214.268	0.00048557	0.00045764	3.7649e-05	618.85	9.9866e-07	8.3466e-06	630.47	259.92	6.7713e-06	3.2482e-06	299.48	133.55	107.92	49.336	3.4675e-06	67.657	0.00059479	0.00059137	0.00015728	638.03	6.5268e-06	6.3837e-06	649.9	264.51	6.5529e-06	6.3709e-06	306.68	133.19	113.93	49.168	6.174e-06	66.511	256.971	7.763	-52.981	-57.792	-7.164	61.442	-58.189	-52.065	218.748	35.185	-54.272	-48.938	-45.997	-42.137	111.355	-44.883	-8191	255	
4315.056	1	1	0	0	0.27947	0.1671	0.20652	0.13752	0.24169	0.024011	0.12074	0.46311	0.14853	0.16052	0.12581	0.13882	0.28353	0.24961	0.074021	0.044019	-1.4479	-2.4875	-2.2646	-2.0583	-2.6917	-2.1437	-2.3667	-2.6771	-2.1188	-2.5292	-2.3688	-2.3458	-2.7333	-2.0854	-2.2417	-2.6667	86.619	113.752	-3.992	-62.431	13.986	-54.678	47.749	217.731	110.796	200.604	19.993	-64.196	69.497	281.535	176.390	93.523	0.00034483	0.00058023	0.00014875	610.9	5.7989e-06	2.8796e-06	631.81	258.08	4.1798e-06	2.4888e-06	300.8	132.46	105.55	48.681	7.6639e-06	67.47	0.00061608	0.00058758	0.00015934	637.98	6.7648e-06	6.4071e-06	650.06	264.2	6.7442e-06	6.3546e-06	306.28	133.13	112.75	48.413	6.151e-06	66.167	269.603	62.708	43.011	-57.566	148.897	31.873	-58.019	-51.882	173.511	21.309	-54.274	-49.247	-46.114	-42.259	218.772	-45.151	-8191	255	
4315.177	1	1	0	0	0.2464	0.2795	0.093211	0.15622	0.13359	0.14477	0.10999	0.11004	0.12894	0.31092	0.10801	0.16772	0.20675	0.10276	0.27408	0.15056	-1.5562	-2.3625	-2.3396	-2.0646	-2.7833	-2.2188	-2.2708	-2.6646	-1.8896	-2.3021	-2.6792	-1.8833	-2.7729	-2.2229	-2.1021	-2.9292	104.364	14.590	287.860	214.209	185.275	207.089	-64.076	282.853	-52.823	287.954	-60.887	176.217	65.427	176.256	141.309	105.228	0.00032293	0.00027263	0.00011452	604.81	9.8289e-06	6.1915e-06	624.48	254.07	1.1479e-05	1.7798e-06	295.73	131.57	104.83	47.961	6.3312e-06	67.476	0.00062371	0.0005821	0.00015918	634.53	6.6975e-06	6.3134e-06	647.6	261.52	6.6974e-06	6.3001e-06	305.06	133.37	111.52	47.869	6.2238e-06	66.404	278.494	101.594	266.140	-57.791	222.667	-51.752	-58.227	-52.168	93.377	59.505	-53.999	-49.210	-46.212	-42.195	162.420	-45.378	-8191	255	
4315.249	1	1	0	0	0.2647	0.17397	0.16845	0.18071	0.1316	0.20877	0.040299	0.088288	0.12846	0.077465	0.23539	0.038803	0.1733	0.10532	0.19416	0.079777	-1.6458	-2.3271	-2.4021	-1.7333	-2.6688	-2.2583	-2.1167	-2.8271	-2.0333	-2.5729	-2.5833	-2.1146	-2.4958	-2.5146	-2.0792	-2.8146	276.931	-26.391	108.989	225.566	76.988	280.042	196.237	-67.477	173.536	208.443	274.590	26.308	-49.297	-22.410	-46.922	236.445	0.00017184	0.00033079	0.00015404	598.29	2.8407e-06	5.1066e-06	615.96	250.87	4.7789e-06	4.3795e-06	291.29	129.94	103.2	46.93	6.8663e-06	65.914	0.00059667	0.00055967	0.00015677	627.26	6.3038e-06	6.0096e-06	635.21	256.77	6.0885e-06	5.8032e-06	298.23	130.42	106.93	46.717	5.9226e-06	64.754	252.499	-51.791	38.435	-57.608	171.375	-47.507	-58.060	-51.979	42.883	87.182	-54.301	-48.938	-46.269	-42.410	153.552	-45.044	-8191	255	
4315.345	1	1	0	0	0.2125	0.065958	0.20374	0.18989	0.1662	0.27563	0.25971	0.13665	0.22483	0.13896	0.18119	0.24176	0.18233	0.23406	0.18068	0.039931	-1.5958	-2.1437	-2.5833	-2.1646	-2.5958	-2.3208	-1.9542	-3.0271	-2.1896	-2.2562	-2.6937	-2.0146	-2.3979	-2.4208	-1.9188	-2.7917	58.562	38.969	256.295	164.506	274.479	43.321	73.710	187.902	17.888	-5.824	265.121	209.289	31.810	199.811	51.788	120.355	0.00014729	0.00021657	7.0226e-05	590.06	6.3395e-06	4.5151e-06	607.31	246.21	5.3731e-06	8.1916e-06	286.91	126.65	101.93	46.243	7.3268e-06	65.029	0.00054959	0.0005249	0.00015417	619.03	6.0325e-06	5.8772e-06	630.68	252.95	6.0433e-06	5.8195e-06	295.56	128.34	105.81	46.104	6.3224e-06	63.962	257.254	123.936	68.394	-57.718	164.489	122.112	-58.163	-51.767	262.159	86.700	-54.216	-48.933	-46.016	-42.469	133.532	-45.325	-8191	255	
4315.441	1	1	0	0	0.34088	0.12692	0.20777	0.18013	0.19573	0.053966	0.012876	0.22583	0.2362	0.21372	0.22856	0.10321	0.21109	0.094731	0.11606	0.44202	-1.9667	-2.1979	-2.6208	-2.0979	-2.5083	-2.5687	-2.1042	-2.6542	-2.0458	-1.9813	-2.725	-2.0854	-2.3354	-2.6646	-1.9792	-2.7729	29.628	250.828	186.186	259.765	-21.785	98.147	135.730	219.118	199.438	52.045	259.104	154.339	-64.899	-3.135	237.936	221.710	0.00035561	0.00037178	1.4023e-05	591.41	3.0406e-06	4.0532e-07	610.02	246.65	4.647e-07	6.3051e-06	287.24	125.91	101.06	46.132	4.3023e-06	64.77	0.0005577	0.00053802	0.00016478	618.63	6.097e-06	6.0593e-06	635.85	252.46	6.1509e-06	6.0857e-06	298.69	128.14	106.19	46.023	6.8093e-06	63.748	276.225	-23.314	127.185	-57.713	158.945	279.401	-58.348	-52.267	47.102	58.226	-54.203	-48.933	-46.555	-42.631	110.741	-45.137	-8191	255	
4315.562	1	1	0	0	0.039573	0.04201	0.12962	0.22939	0.074858	0.26594	0.37156	0.24272	0.1119	0.18059	0.26009	0.17229	0.027006	0.17173	0.15048	0.18659	-1.7563	-2.0042	-2.6854	-2.2188	-2.1792	-2.5229	-1.9813	-2.6937	-2.375	-1.8771	-2.6479	-2.2104	-2.0521	-2.7188	-1.8708	-2.7167	272.445	67.776	252.982	-60.674	30.924	-9.014	27.248	-67.099	25.680	271.699	-57.147	271.588	59.247	-44.677	51.286	241.816	0.00022427	0.00062311	9.9092e-05	586.92	5.8732e-06	2.0445e-06	606.69	242.95	2.6807e-06	3.4991e-06	287.65	126.4	99.804	45.826	7.2997e-06	65.054	0.00057663	0.00057495	0.0001744	614.78	6.3034e-06	6.395e-06	635.42	250.13	6.2219e-06	6.3987e-06	299.57	127.98	105.32	45.977	6.8755e-06	64.065	-68.110	74.572	79.281	-57.583	115.703	79.770	-58.069	-52.428	9.150	174.535	-54.147	-49.088	-46.351	-42.245	37.944	-45.311	-8191	255	
4315.658	1	1	0	0	0.072027	0.028955	0.43465	0.1327	0.23871	0.16396	0.18462	0.19788	0.27076	0.11391	0.023554	0.25145	0.16441	0.24907	0.19113	0.11205	-1.9479	-2.0187	-2.7042	-2.2479	-2.1104	-2.5563	-1.9833	-2.3292	-2.5083	-1.8417	-2.9104	-2.2521	-2.0396	-2.7167	-1.9646	-2.4979	166.634	67.741	78.947	-62.733	139.901	240.178	139.987	-17.591	27.784	285.816	-3.575	160.628	289.474	250.204	98.829	277.208	0.00022853	0.0009362	0.00023719	587.2	4.7403e-06	3.4517e-06	604.9	242.89	9.6737e-06	8.9455e-06	286.44	126.55	99.64	45.59	5.7408e-06	64.142	0.00057475	0.00060155	0.00017544	615.2	6.2469e-06	6.6817e-06	634.39	249.57	6.3433e-06	6.8022e-06	298.52	127.38	105.56	45.815	6.9433e-06	63.311	-69.080	131.997	-14.905	-57.748	254.305	105.903	-58.235	-52.170	200.337	133.053	-54.357	-49.103	-46.847	-42.521	44.381	-45.329	-8191	255	
4315.754	1	1	0	0	0.10775	0.19954	0.17992	0.186	0.04871	0.11973	0.32463	0.13388	0.31315	0.2231	0.22679	0.25213	0.20302	0.043456	0.14248	0.024721	-2.0458	-1.8521	-2.5771	-2.2646	-2.0729	-2.7104	-2.05	-2.4062	-2.5604	-1.7417	-2.7146	-2.5292	-2.0854	-2.8396	-2.0083	-2.4729	59.199	-4.120	235.304	266.363	-51.872	229.612	238.873	225.099	20.590	28.978	181.215	-43.326	-58.265	95.318	205.578	263.578	0.00039551	0.00029039	0.00015528	577.13	4.4185e-06	3.5954e-06	596.72	238	3.5122e-06	1.1193e-06	275.91	122.81	97.311	44.58	7.5611e-06	62.441	0.00059218	0.00064019	0.00017514	607.99	6.5251e-06	7.2142e-06	626.2	245.67	6.731e-06	7.3446e-06	291.6	125.14	106.11	45.352	7.2227e-06	62.155	274.002	206.631	71.607	-57.558	122.917	116.740	-58.149	-52.241	77.452	-49.436	-54.329	-49.114	-46.417	-42.821	72.079	-45.339	-8191	255	
4315.850	1	1	0	0	0.2831	0.18379	0.18821	0.13288	0.38654	0.2915	0.089672	0.095505	0.020201	0.3183	0.20238	0.24502	0.16822	0.17004	0.057411	0.26076	-2.0958	-1.9104	-2.5042	-2.3771	-2.0687	-2.6312	-2.2292	-2.2708	-2.725	-1.9729	-2.6146	-2.5021	-1.9542	-2.7375	-2.1292	-2.1875	-31.350	122.428	270.868	-25.041	106.674	0.948	192.256	172.390	-17.255	-14.655	217.248	-13.699	150.267	246.967	244.994	128.401	0.00027358	0.00088545	0.00023987	570.6	2.8474e-06	3.5678e-06	587.33	234.17	3.5521e-06	3.4035e-06	272.8	120.91	95.659	43.818	6.7257e-06	62.008	0.00065278	0.0007067	0.00018696	608.07	7.3743e-06	7.917e-06	623.59	244.39	7.595e-06	8.0483e-06	291.4	124.59	108.73	45.013	7.7176e-06	61.89	253.037	42.680	61.730	-57.914	237.827	65.392	-58.164	-52.308	278.990	247.242	-54.651	-49.080	-45.984	-42.250	-6.691	-45.449	-8191	255	
4315.945	1	1	0	0	0.14252	0.32305	0.06015	0.01333	0.068304	0.13583	0.30819	0.46253	0.17437	0.19884	0.16644	0.17808	0.17394	0.076695	0.1678	0.1563	-2.3354	-1.85	-2.5563	-2.5833	-1.8854	-2.6688	-2.4646	-2.1688	-2.7979	-2.0042	-2.4396	-2.6375	-1.875	-2.7188	-2.1375	-2.2	278.734	57.187	161.960	232.146	10.975	131.164	270.852	234.103	125.909	252.761	211.471	281.568	272.152	239.730	159.354	180.855	0.000324	4.4203e-05	9.1177e-05	569.36	9.2398e-06	7.3097e-06	587.11	232.78	1.474e-05	9.4516e-06	273.82	120.83	94.803	43.807	8.11e-06	62.007	0.00073185	0.00075577	0.00019525	609	8.0488e-06	8.0423e-06	623.38	243.76	8.0865e-06	7.9982e-06	291.69	124.8	109.62	44.855	7.6379e-06	62.118	223.308	170.920	33.937	-57.765	131.264	71.590	-58.386	-52.274	185.433	11.990	-54.159	-48.865	-46.034	-42.461	287.552	-45.374	-8191	255	
4316.041	1	1	0	0	0.16366	0.19271	0.15568	0.16898	0.23275	0.19829	0.23094	0.24631	0.19642	0.10201	0.20556	0.20623	0.16094	0.030134	0.24844	0.21476	-2.3708	-2.0312	-2.2708	-2.6979	-1.7771	-2.8104	-2.3146	-2.1958	-2.7521	-2.0062	-2.3625	-2.7	-1.8687	-2.5083	-2.4	-2.0687	142.969	91.761	265.626	188.027	68.181	-34.068	270.385	171.921	217.588	54.980	245.808	223.264	-35.568	120.723	-18.090	221.741	0.00026913	0.00071271	0.00010946	565.98	5.7121e-06	3.5525e-06	584.8	231.12	6.7768e-06	6.0283e-06	273.29	120.2	94.436	43.176	4.8288e-06	61.613	0.00074449	0.00072604	0.00018999	606.74	8.2268e-06	7.7471e-06	621.1	243.28	8.0669e-06	7.6525e-06	289.69	124.7	108.97	44.11	7.3522e-06	61.818	247.983	10.598	10.030	-58.013	263.791	19.349	-58.124	-52.275	-61.499	91.835	-54.458	-49.482	-46.344	-42.182	29.654	-45.657	-8191	255	
4316.137	1	1	0	0	0.12356	0.15031	0.138	0.13838	0.33032	0.11474	0.35582	0.32317	0.12496	0.21661	0.30129	0.17138	0.085086	0.19953	0.30231	0.11667	-2.3667	-2.2146	-2.2625	-2.5875	-1.7188	-2.5354	-2.5521	-2.0854	-2.7021	-2.1937	-2.3187	-2.7125	-2.2125	-2.5271	-2.4208	-1.9937	-8.067	188.955	13.376	232.697	219.288	35.236	244.927	265.542	64.878	-56.820	174.441	-13.562	225.940	194.071	180.327	-18.365	0.00025765	0.00069721	0.00022241	559.96	9.2221e-06	3.1776e-06	575.95	225.73	5.8838e-06	2.0968e-06	266.15	117.77	93.414	42.031	3.9532e-06	60.239	0.00073537	0.00069174	0.00018309	601.62	8.0555e-06	7.3568e-06	608.6	238.93	7.7389e-06	7.2189e-06	280.94	122.06	104.89	42.864	6.8754e-06	60.477	262.523	-1.266	14.145	-57.598	135.422	35.900	-58.149	-52.646	11.192	36.802	-54.466	-48.963	-46.488	-42.812	-27.660	-45.208	-8191	255	
4316.257	1	1	0	0	0.076644	0.10871	0.14678	0.2641	0.21641	0.21224	0.20822	0.25133	0.10068	0.14326	0.24611	0.15311	0.16348	0.18241	0.10124	0.10133	-2.2521	-2.2708	-2.0312	-2.6833	-1.9312	-2.4458	-2.5563	-1.9625	-2.6292	-2.2812	-2.2375	-2.8812	-2.0312	-2.3167	-2.4708	-2.1604	-39.574	277.865	238.844	239.297	148.399	168.434	248.352	251.449	195.310	13.051	121.744	7.739	264.346	80.329	167.120	110.175	0.00018549	0.00022871	0.00021431	556.44	9.27e-06	3.4688e-06	570.04	225.35	3.3611e-06	6.0906e-06	262.34	117.62	92.086	41.988	6.5832e-06	59.743	0.00066659	0.00063939	0.00017311	596.39	7.5285e-06	7.1282e-06	605.92	239.98	7.895e-06	7.6276e-06	283.53	122.89	106.87	43.026	7.7752e-06	60.72	279.374	214.016	-10.425	-58.076	116.215	38.280	-58.388	-52.429	27.709	75.539	-54.609	-49.224	-46.436	-42.626	129.119	-45.517	-8191	255	
4316.354	1	1	0	0	0.28557	0.26146	0.2134	0.14502	0.24656	0.19217	0.26018	0.077349	0.20565	0.034628	0.12943	0.15952	0.27207	0.37516	0.12008	0.14495	-2.1188	-2.2938	-1.9542	-2.7979	-1.8104	-2.3229	-2.6771	-1.8979	-2.5542	-2.4604	-2.0333	-2.6521	-2.25	-2.3937	-2.5667	-1.8479	116.549	-53.232	186.338	274.275	138.963	254.359	206.757	165.000	233.263	208.622	140.667	-16.149	250.573	24.731	111.841	13.409	0.00036306	0.00072785	0.00012406	554.51	7.2744e-06	5.7914e-06	571.27	223.8	3.2695e-06	3.8823e-06	264.02	117.27	91.461	41.833	3.6168e-06	59.662	0.00072319	0.00069812	0.00019796	604.86	8.0801e-06	7.6734e-06	612.93	241.46	8.0221e-06	7.7925e-06	287.32	123.35	106.53	42.907	8.3182e-06	61.041	-39.161	61.188	19.400	-58.077	156.338	52.133	-58.337	-52.302	143.278	150.620	-54.216	-49.347	-46.284	-42.471	181.266	-45.488	-8191	255	
4316.450	1	1	0	0	0.21167	0.26731	0.17089	0.018714	0.068369	0.24161	0.30919	0.18918	0.048518	0.26481	0.24454	0.12859	0.1934	0.14473	0.028254	0.2743	-2.1083	-2.3479	-2.0542	-2.8458	-2.0979	-2.2521	-2.7167	-1.9875	-2.4042	-2.5625	-1.8646	-2.6	-2.2562	-2.3	-2.5958	-2.175	23.259	22.778	132.283	-28.974	84.384	-68.296	278.234	86.152	278.789	166.625	80.085	196.672	196.509	4.213	219.364	262.919	7.062e-05	0.00096119	9.3414e-05	553.31	4.2156e-06	2.9386e-06	571.57	225.09	5.6729e-06	5.3109e-06	267.1	117.95	90.893	41.836	7.9395e-06	60.178	0.0007269	0.00071547	0.00021267	604.27	8.05e-06	7.6488e-06	616.31	240.66	7.7257e-06	7.5231e-06	288.89	122.97	104.16	42.651	7.9905e-06	60.652	258.988	87.083	143.422	-57.987	104.154	261.147	-58.184	-52.357	71.595	223.968	-54.471	-49.398	-45.974	-42.572	29.866	-45.508	-8191	255	
4316.546	1	1	0	0	0.06908	0.062487	0.1265	0.29814	0.072079	0.1041	0.21439	0.12069	0.043061	0.18184	0.34305	0.068251	0.044049	0.067631	0.058398	0.15767	-1.9896	-2.5042	-1.8604	-2.7938	-2.5583	-2.1688	-2.7458	-1.9875	-2.3625	-2.4062	-1.9396	-2.6063	-2.3479	-2.0938	-2.6458	-2.1271	71.045	29.185	224.104	268.070	176.098	29.999	166.647	282.781	56.855	-64.223	-63.636	-56.598	207.425	175.813	167.727	98.447	0.00023571	0.00039585	0.00014882	552.4	5.4523e-06	6.4364e-06	568.96	225.84	9.6986e-06	3.8266e-06	267.29	117.57	91.585	41.756	3.3576e-06	59.519	0.00066107	0.00066338	0.00019983	593.51	7.1289e-06	7.0282e-06	610.12	236.57	6.8576e-06	6.936e-06	285.07	120.86	101.19	42.476	7.5701e-06	59.717	235.381	-61.310	85.187	-57.890	100.282	197.812	-58.087	-52.200	35.400	-64.038	-54.669	-49.036	-46.605	-42.780	172.851	-45.296	-8191	255	
4316.642	1	1	0	0	0.16043	0.060624	0.15117	0.1586	0.074462	0.13344	0.12816	0.096557	0.14011	0.19759	0.23268	0.12249	0.23618	0.26328	0.1598	0.089789	-1.725	-2.5833	-1.95	-2.5812	-2.2708	-2.1521	-2.8125	-2.275	-2.3229	-2.5146	-2.1188	-2.5625	-2.2604	-2.1417	-2.5604	-2.1604	3.183	208.588	-52.009	125.781	62.817	136.172	186.529	245.774	182.946	173.116	-0.026	103.595	-5.678	136.553	221.959	42.410	0.00026458	0.00022538	0.00028738	557.82	4.3522e-07	1.076e-05	572.59	224.55	5.9857e-06	5.3278e-06	265.69	116.87	90.975	41.589	6.5705e-06	59.487	0.00061368	0.00064343	0.00019056	588.59	6.6771e-06	6.914e-06	606.8	234.6	6.3188e-06	6.7363e-06	281.39	118.88	98.638	42.106	6.7471e-06	58.879	261.005	-46.737	282.118	-58.053	17.988	246.769	-58.138	-52.596	176.431	119.990	-54.374	-49.124	-47.035	-42.800	95.975	-45.622	-8191	255	
4316.738	1	1	0	0	0.10112	0.095726	0.20493	0.42208	0.018788	0.12168	0.23333	0.38051	0.12044	0.25259	0.23318	0.16053	0.37189	0.39411	0.3536	0.074311	-1.7604	-2.5458	-1.7958	-2.5563	-2.5208	-1.9771	-2.6417	-2.325	-2.0062	-2.6646	-2.0458	-2.3792	-2.4646	-2.0604	-2.7083	-2.2	-9.140	233.664	135.322	274.217	-1.467	185.862	273.512	-43.117	59.974	218.496	-68.619	241.686	-67.508	266.507	271.316	-56.971	0.00028711	0.00049934	3.9454e-05	556.48	2.3414e-06	4.1891e-06	581.16	229.51	5.3335e-06	4.3653e-06	272.17	118.96	94.259	42.467	4.9654e-06	60.938	0.00055286	0.00060368	0.00016963	583.26	6.0626e-06	6.5546e-06	605.89	234.88	5.8768e-06	6.4432e-06	282.04	120.04	98.609	42.688	6.0251e-06	59.619	269.968	127.672	163.343	-57.709	94.871	255.792	-58.354	-51.979	180.703	174.268	-54.218	-49.322	-46.222	-42.592	61.814	-45.647	-8191	255	
4316.859	1	1	0	0	0.19002	0.10497	0.24784	0.32203	0.095883	0.10668	0.12485	0.11097	0.086017	0.068072	0.24944	0.14458	0.14666	0.1287	0.037901	0.15303	-1.7917	-2.6813	-2.0375	-2.2854	-2.4771	-1.8521	-2.6833	-2.3604	-2.2667	-2.5729	-2.0646	-2.1479	-2.6083	-1.95	-2.4979	-2.4938	227.165	82.617	3.011	265.635	-2.165	94.053	258.838	-45.545	272.518	204.308	-13.696	70.247	279.177	230.244	127.357	195.182	0.0002717	0.00033838	0.00023393	562.89	3.0411e-06	3.2927e-06	588.02	230.9	2.7159e-06	6.4762e-06	277.53	121.12	94.297	42.868	5.1103e-06	61.755	0.00051561	0.00056138	0.00014864	584.36	5.6043e-06	6.0651e-06	608.71	235.1	5.5795e-06	5.9471e-06	282.87	120.9	98.252	42.707	5.4105e-06	59.932	275.745	-43.247	-10.649	-57.993	211.448	-21.492	-58.253	-52.494	89.075	27.856	-54.417	-49.386	-46.271	-42.641	48.757	-45.210	-8191	255	
4316.953	1	1	0	0	0.036444	0.057854	0.32202	0.22703	0.083958	0.16861	0.29588	0.082705	0.19375	0.23215	0.16639	0.11944	0.22984	0.1868	0.1202	0.27322	-1.6313	-2.6646	-2.0292	-2.3021	-2.5292	-1.7083	-2.4875	-2.5354	-1.9229	-2.6646	-2.2021	-2.1417	-2.6188	-1.9396	-2.2188	-2.5375	235.568	-23.873	260.409	98.212	79.265	-45.579	-14.112	212.417	108.064	247.955	8.718	-69.174	69.071	252.487	2.521	211.805	0.00035132	0.00080294	0.00018528	573.41	3.1159e-06	5.9499e-06	602.95	235.18	7.0473e-06	5.9208e-06	282.44	122.57	93.917	42.655	5.7429e-06	61.775	0.0004908	0.00051465	0.00013468	588.1	5.4325e-06	5.5336e-06	615.7	236.3	5.3135e-06	5.3532e-06	284	121.05	96.901	42.227	4.8466e-06	59.606	264.950	47.605	-1.557	-57.998	238.645	272.244	-58.064	-52.434	199.483	13.324	-54.649	-49.322	-46.742	-42.749	99.916	-45.490	-8191	255	
4317.049	1	1	0	0	0.21059	0.1729	0.34314	0.30971	0.36141	0.047423	0.152	0.19926	0.29813	0.06288	0.25364	0.26059	0.23976	0.048601	0.1545	0.11372	-1.65	-2.525	-2.3292	-2.2229	-2.5375	-1.9542	-2.3792	-2.6271	-1.8125	-2.5042	-2.0687	-2.1104	-2.6437	-2.0542	-2.1646	-2.5979	269.276	-63.464	139.044	266.088	95.597	-61.490	1.027	262.933	121.157	279.922	-59.502	-56.894	275.091	95.573	210.194	243.468	0.00022501	0.00041163	5.8598e-05	569.61	8.6914e-06	2.9912e-06	597.33	230.14	9.2869e-06	4.5029e-06	273.97	119.97	92.875	41.998	4.9053e-06	60.55	0.00047062	0.00046301	0.00012317	581.15	5.1547e-06	5.0076e-06	603.82	231.79	5.1307e-06	4.9124e-06	275.66	118.4	95.257	41.334	4.5789e-06	58.495	274.602	3.839	-45.451	-58.142	200.523	43.180	-58.763	-52.588	81.162	-40.150	-54.861	-49.265	-46.586	-42.807	-67.284	-45.887	-8191	255	
4317.121	1	1	0	0	0.23554	0.12504	0.024125	0.13241	0.081305	0.15734	0.11274	0.16049	0.20266	0.22875	0.17365	0.10294	0.16996	0.13014	0.27274	0.033891	-1.3979	-2.4729	-2.2896	-1.9083	-2.7562	-2.0604	-2.3125	-2.4437	-1.8333	-2.55	-2.2396	-1.9875	-2.6042	-2.2125	-2.0938	-2.6729	177.525	213.836	9.581	282.548	17.520	193.266	260.473	98.024	188.743	251.621	227.429	-37.262	175.161	239.600	284.631	-50.205	0.00024503	9.2886e-05	8.7091e-05	571.27	2.818e-06	3.3426e-06	596	228.73	4.7389e-06	1.1456e-06	273.64	119.92	93.02	41.522	2.6601e-06	60.043	0.00045583	0.00042795	0.00011591	579.71	5.0009e-06	4.6775e-06	602.39	230.29	5.0016e-06	4.6384e-06	274.17	118.47	94.479	40.902	4.6265e-06	58.483	251.811	78.583	33.072	-58.191	0.242	211.362	-58.645	-52.378	179.460	137.479	-54.602	-49.541	-46.655	-42.749	-55.655	-45.698	-8191	255	
4317.242	1	1	0	0	0.21578	0.20517	0.21273	0.35482	0.3219	0.23926	0.22663	0.10415	0.031051	0.21159	0.1251	0.14402	0.033937	0.25333	0.23416	0.18143	-1.2875	-2.2646	-2.3875	-1.8542	-2.7292	-2.0438	-2.1792	-2.6	-1.8813	-2.3458	-2.5083	-2.0583	-2.4542	-2.1354	-1.8792	-2.5896	-14.662	76.240	29.854	190.815	286.854	59.247	208.848	273.340	57.372	284.232	282.885	233.331	36.840	234.374	65.889	-67.655	6.7688e-05	0.00086071	0.00010737	567.21	8.7546e-06	3.266e-06	595.4	225.37	3.5277e-06	4.923e-06	271.98	119.01	90.606	40.952	3.6943e-06	60.21	0.00046979	0.0004365	0.0001198	582.73	5.1168e-06	4.8061e-06	601.9	229.31	5.0324e-06	4.6956e-06	273.63	118.33	93.371	40.393	4.7253e-06	58.45	-23.494	-2.061	-37.180	-58.362	99.541	71.705	-58.569	-52.293	93.065	31.572	-54.525	-49.555	-46.741	-42.870	286.222	-45.411	-8191	255	
4317.338	1	1	0	0	0.031062	0.027728	0.1119	0.32533	0.27599	0.075465	0.29319	0.1457	0.081182	0.18079	0.24881	0.32408	0.027482	0.21723	0.16661	0.27304	-1.6396	-2.2417	-2.3854	-1.8937	-2.4	-2.3375	-2.0667	-2.7104	-1.9958	-2.3083	-2.6208	-1.9146	-2.4208	-2.2375	-1.8833	-2.6958	172.786	-6.558	41.012	223.082	206.847	184.570	-31.475	-0.118	197.255	283.048	232.097	236.041	127.925	286.573	-17.655	-26.540	0.00022414	0.00078432	3.5651e-05	565.97	1.0658e-06	4.7825e-06	598.11	227.19	4.6153e-06	1.2197e-06	275.46	118.98	91.022	40.594	5.3197e-06	59.915	0.00046233	0.00043713	0.00012306	581.58	5.0166e-06	4.8057e-06	606.08	229.84	5.0364e-06	4.7596e-06	278.51	119.01	92.408	40.045	4.9312e-06	58.323	263.137	27.445	-53.864	-58.245	112.876	4.631	-58.509	-52.688	128.274	87.997	-54.649	-49.554	-46.896	-42.752	169.818	-45.772	-8191	255	
4317.434	1	1	0	0	0.22487	0.31881	0.20728	0.24565	0.13311	0.23667	0.21335	0.33031	0.11726	0.14018	0.20251	0.20571	0.1041	0.10064	0.11361	0.07983	-1.5625	-2.2875	-2.4771	-1.8875	-2.5125	-2.2146	-2.0292	-2.8479	-2.1479	-2.3042	-2.6396	-1.9688	-2.3125	-2.5104	-1.8438	-2.7396	208.029	129.325	203.435	-49.299	11.338	78.720	159.221	251.278	264.367	160.747	144.633	-66.709	227.848	231.442	21.468	100.565	0.00029828	0.0004655	2.7452e-06	559.99	1.5938e-06	1.9962e-06	585.84	221.53	8.5857e-06	4.1516e-06	266.57	115.64	87.867	39.502	3.8051e-06	58.307	0.00045032	0.00042812	0.00012672	575.02	4.7641e-06	4.6758e-06	598.24	224.47	4.7273e-06	4.5333e-06	270.33	115.39	89.266	39.01	4.8888e-06	56.734	253.047	-15.619	144.844	-58.196	55.210	-29.216	-58.378	-52.611	20.470	37.744	-54.750	-49.222	-46.910	-42.957	257.376	-45.394	-8191	255	
4317.530	1	1	0	0	0.33509	0.046685	0.26292	0.17908	0.14954	0.33607	0.071292	0.11007	0.16568	0.2576	0.17209	0.28016	0.12556	0.1552	0.3452	0.11424	-1.7458	-2.0729	-2.6729	-1.9562	-2.3958	-2.3312	-1.8104	-2.5646	-2.3104	-1.9854	-2.6917	-1.9979	-2.2167	-2.6479	-1.9042	-2.6792	163.803	226.394	-46.442	-45.997	-36.339	259.877	200.465	47.788	72.212	-19.046	-43.030	70.522	272.786	245.578	72.319	-60.975	0.00025042	0.00086609	5.9457e-05	554.43	1.6033e-06	4.3952e-06	585.21	218.71	3.2015e-06	6.3885e-06	265.99	115.31	87.472	39.543	3.5083e-06	58.412	0.00042609	0.00040736	0.00012586	567.43	4.5661e-06	4.4999e-06	594.4	220.71	4.5459e-06	4.433e-06	268.7	114.4	88.096	38.843	4.8921e-06	56.522	266.874	170.871	101.737	-58.075	22.308	234.933	-58.872	-52.718	37.226	94.256	-54.735	-49.415	-46.616	-42.686	51.071	-45.457	-8191	255	
4317.651	1	1	0	0	0.21844	0.15113	0.14978	0.41199	0.16195	0.17238	0.087777	0.1079	0.28198	0.43286	0.09671	0.28679	0.13487	0.26606	0.082657	0.21956	-1.8188	-1.8937	-2.5917	-2.1292	-2.2271	-2.8125	-1.9292	-2.6396	-2.3208	-2.1583	-2.7771	-2.1958	-2.3167	-2.7125	-1.8521	-2.6229	147.577	228.490	101.071	252.651	219.218	196.913	114.441	289.076	215.219	-39.658	161.884	-57.975	74.847	283.758	109.970	142.325	0.00020532	0.00027619	6.1531e-05	553.67	5.9001e-06	1.7085e-06	587.37	220.02	3.4401e-06	2.3766e-06	268.68	116.07	87.893	39.296	3.9718e-06	58.482	0.00041104	0.00040647	0.0001247	567.02	4.4683e-06	4.644e-06	598.96	222.26	4.6308e-06	4.8073e-06	272.15	115.15	89.561	39.258	5.3193e-06	56.786	-68.889	142.108	86.379	-58.032	50.692	258.262	-58.657	-52.527	111.939	98.158	-54.491	-49.173	-47.124	-42.701	94.001	-45.709	-8191	255	
4317.722	1	1	0	0	0.32447	0.18651	0.25743	0.32893	0.17859	0.12816	0.1145	0.13806	0.1246	0.28803	0.072841	0.15939	0.19862	0.21105	0.35246	0.041086	-2.025	-1.7917	-2.6125	-2.225	-2.175	-2.4792	-2.0292	-2.5563	-2.6583	-1.9708	-2.5896	-2.0979	-1.9604	-2.7208	-1.8583	-2.5458	94.593	139.565	200.723	-60.329	155.976	205.715	273.930	237.800	-44.507	131.126	185.980	253.520	24.113	258.150	128.770	259.471	0.00029473	0.00025085	0.00016079	553.59	3.5644e-06	4.3472e-06	582.8	217.24	4.0779e-06	1.68e-06	265.71	115.02	86.749	38.865	3.5811e-06	57.976	0.00044627	0.00047739	0.00013823	569.77	5.0465e-06	5.4883e-06	600.94	222.13	5.2646e-06	5.7263e-06	273.68	115.53	91.272	39.226	5.8909e-06	56.893	288.437	180.050	-5.578	-58.376	173.482	121.999	-58.541	-52.582	109.327	212.692	-54.531	-49.650	-47.228	-42.677	67.965	-45.398	-8191	255	
4317.819	1	1	0	0	0.091755	0.24708	0.21614	0.10053	0.15761	0.15843	0.21943	0.19505	0.17529	0.11254	0.38588	0.077947	0.2533	0.3672	0.083448	0.21641	-2.1188	-1.7938	-2.5958	-2.2	-2.1063	-2.7771	-2.1	-2.3312	-2.6562	-1.8729	-2.7375	-2.2396	-2.0396	-2.8271	-2.1042	-2.4104	48.935	87.567	194.643	268.368	-26.179	257.728	198.448	222.165	257.411	0.074	258.679	-51.688	263.684	241.001	238.223	-52.129	0.00031226	0.00036529	5.6075e-05	552.16	4.2783e-06	3.3278e-07	576.8	214.01	9.528e-06	2.8266e-06	261.47	113.31	84.526	38.704	6.1192e-06	57.378	0.00051514	0.00056905	0.00015315	572.58	5.7038e-06	6.2505e-06	600.37	221.48	5.8007e-06	6.2122e-06	271.11	114.37	92.042	39.114	5.8555e-06	56.237	-59.450	30.278	12.372	-58.536	124.089	36.276	-58.723	-52.612	127.637	177.888	-54.728	-49.182	-46.631	-42.785	129.978	-45.544	-8191	255	
4317.939	1	1	0	0	0.13333	0.20631	0.17549	0.43671	0.136	0.2739	0.2044	0.068137	0.2201	0.045031	0.063564	0.11319	0.16774	0.20349	0.12603	0.23847	-2.3021	-1.875	-2.4604	-2.4333	-1.95	-2.7083	-2.1	-2.1333	-2.5208	-1.9729	-2.6104	-2.6354	-1.9604	-2.6979	-2.0021	-2.2729	193.140	-69.953	1.504	272.009	-41.994	86.929	210.136	168.197	90.797	182.211	97.006	103.298	-27.824	253.463	132.901	-39.089	0.00022366	8.5269e-05	6.3316e-05	544.8	4.6203e-06	3.3383e-06	569.6	213.41	2.1515e-06	6.2551e-06	257.25	112.79	85.401	38.625	8.5167e-06	56.94	0.00053516	0.00057077	0.00015015	565.94	5.8834e-06	6.2728e-06	590.46	219.65	5.9782e-06	6.2821e-06	266.73	113.37	93.308	39.134	5.7159e-06	56.034	242.417	213.730	-7.351	-58.379	285.326	-44.443	-58.514	-52.465	-16.129	282.506	-54.490	-49.383	-46.897	-42.735	-1.900	-45.564	-8191	255	
4318.034	1	1	0	0	0.19605	0.054096	0.21826	0.046273	0.20765	0.11715	0.11132	0.089694	0.27858	0.14605	0.15176	0.06524	0.18131	0.21512	0.10205	0.071262	-2.1875	-1.9979	-2.3021	-2.5354	-1.9396	-2.5292	-2.2896	-1.9604	-2.6979	-1.8625	-2.5458	-2.6021	-1.825	-2.6021	-2.2417	-2.0292	231.012	194.277	156.801	259.346	104.979	266.932	157.415	209.220	-46.752	110.761	262.538	175.116	111.677	279.438	23.259	5.843	0.00038552	0.00022861	0.0001391	543.6	3.7355e-06	5.7915e-06	572.16	218.4	5.8928e-06	4.2864e-06	261.75	114.32	87.036	39.634	3.5712e-06	57.874	0.00054482	0.00055354	0.00014353	566.89	6.0547e-06	6.0866e-06	592.2	223.34	6.2793e-06	6.2117e-06	271.06	115.57	96.628	39.99	6.1088e-06	57.104	277.220	132.423	16.196	-58.263	208.580	42.470	-58.844	-52.646	106.307	-38.571	-54.890	-49.171	-46.956	-42.882	78.948	-45.627	-8191	255	
4318.130	1	1	0	0	0.13816	0.095138	0.053758	0.088584	0.26444	0.39415	0.070832	0.27872	0.304	0.079325	0.144	0.16387	0.061538	0.072844	0.12619	0.18799	-2.2333	-1.9729	-2.4	-2.6771	-2.0271	-2.5229	-2.3229	-2.0333	-2.8042	-1.9813	-2.1708	-2.6188	-2.0563	-2.575	-2.2792	-2.1688	-16.613	112.862	-33.597	247.033	-33.272	129.638	13.284	160.723	136.731	242.888	276.750	260.774	-11.781	-2.570	212.724	259.410	0.00028583	0.00018668	8.5395e-05	545.89	7.1768e-06	1.1141e-06	573.68	219.44	2.3018e-06	3.7778e-06	262.67	115.78	88.403	39.73	2.1503e-06	57.911	0.00060878	0.00058843	0.00015698	575.46	6.9176e-06	6.5104e-06	597.62	228.18	6.965e-06	6.6716e-06	275.27	117.7	99.948	40.452	6.6215e-06	57.971	276.005	261.484	94.663	-57.788	11.593	-55.563	-58.238	-52.652	214.243	43.912	-54.620	-49.317	-46.777	-43.038	210.908	-45.523	-8191	255	
4318.250	1	1	0	0	0.13178	0.18967	0.30428	0.06793	0.089402	0.12193	0.36767	0.2617	0.1371	0.065448	0.27939	0.28768	0.1345	0.16426	0.24425	0.082186	-2.2188	-2.0375	-2.2708	-2.7812	-1.9667	-2.6458	-2.4396	-2.0542	-2.6417	-2.1688	-2.2938	-2.7458	-2.0375	-2.4646	-2.3208	-2.2146	100.401	193.876	67.013	-14.794	120.536	98.655	212.990	260.817	50.445	125.738	192.162	285.326	263.356	227.839	164.903	-44.287	0.00032086	0.0008414	0.00014283	547.29	9.6879e-06	5.863e-07	571.35	218.29	1.8654e-06	7.0255e-06	262.39	114.19	86.621	39.098	1.498e-06	57.264	0.00067557	0.00064224	0.00017152	584.96	7.5069e-06	6.9048e-06	603.26	230.51	7.418e-06	6.9737e-06	276.81	117.91	99.768	39.949	6.7979e-06	57.765	-68.763	100.390	10.419	-58.064	47.591	-23.480	-58.835	-52.615	214.428	40.877	-54.408	-49.294	-47.081	-42.935	112.925	-45.262	-8191	255	
4318.347	1	1	0	0	0.25478	0.1729	0.15084	0.16379	0.18313	0.24216	0.12424	0.1924	0.15189	0.047337	0.078609	0.20711	0.19377	0.2344	0.046673	0.14517	-2.3667	-2.1583	-2.1146	-2.7604	-1.9271	-2.5104	-2.6562	-1.8583	-2.5708	-2.3479	-2.0312	-2.8542	-2.1167	-2.2833	-2.5896	-1.8667	95.813	218.987	-22.714	-15.579	158.430	181.824	137.663	228.996	124.318	5.613	219.289	192.674	77.773	228.708	221.532	265.006	0.00015358	0.00017158	9.7601e-05	541.89	1.6466e-06	4.7649e-06	566.39	217.96	3.224e-06	4.6325e-06	259.69	113.35	88.01	39.488	5.7647e-06	57.178	0.0006573	0.00062409	0.00016988	581.69	7.113e-06	6.6902e-06	595.62	229.71	6.9722e-06	6.6291e-06	273.17	117.1	97.759	39.953	6.5108e-06	57.367	286.463	96.807	-41.668	-58.014	96.362	81.698	-58.489	-52.175	109.168	43.069	-54.813	-49.384	-46.499	-42.623	74.377	-45.592	-8191	255	
4318.418	1	1	0	0	0.11374	0.25622	0.05425	0.14533	0.086278	0.16547	0.13956	0.29227	0.25409	0.21468	0.074202	0.35131	0.12292	0.33213	0.0563	0.11317	-2.0479	-2.2125	-1.9292	-2.7542	-2.0417	-2.2917	-2.6333	-1.9979	-2.5354	-2.3187	-1.9167	-2.7792	-1.9542	-2.2313	-2.6208	-2.0375	13.160	-29.800	-4.279	249.998	249.192	76.800	178.953	221.386	175.794	277.699	203.622	232.443	-10.683	237.114	91.156	145.572	0.00015414	0.00025838	0.00012627	543.06	2.4759e-06	6.1914e-06	569.34	219.8	6.0069e-06	2.8681e-06	260.66	113.73	87.776	39.999	4.7156e-06	58.373	0.00059485	0.00058007	0.0001646	579.81	6.5156e-06	6.2081e-06	595.68	229.94	6.4129e-06	6.1946e-06	274.03	117.1	97.097	40.319	6.5509e-06	57.892	247.501	60.366	98.297	-58.217	33.489	110.173	-58.263	-52.786	15.627	144.604	-54.616	-49.702	-46.917	-42.936	103.788	-45.467	-8191	255	
4318.539	1	1	0	0	0.029681	0.19411	0.30103	0.2951	0.03033	0.023396	0.27158	0.28633	0.11566	0.13804	0.089491	0.22854	0.11075	0.1045	0.13969	0.29838	-2.1229	-2.3292	-1.8521	-2.7062	-2.0646	-2.0312	-2.8833	-2.0729	-2.3229	-2.2979	-2.1125	-2.4708	-2.2313	-2.2854	-2.5917	-1.8958	-39.792	282.975	-69.301	34.401	183.265	0.592	237.056	196.169	16.515	116.224	174.639	215.801	242.349	247.773	-59.317	201.363	0.00023975	0.00039083	0.00022884	548.24	2.2441e-06	2.1155e-06	570.86	220.64	1.0622e-05	5.1662e-06	263.58	113.96	88.418	40.008	6.3033e-06	58.32	0.00056933	0.00056018	0.00016628	581.39	6.2742e-06	6.059e-06	600.24	230.93	6.2361e-06	6.1562e-06	277.69	117.06	96.857	40.386	6.8817e-06	57.942	289.345	40.458	44.406	-57.904	127.874	123.331	-58.416	-52.392	72.778	-0.060	-54.481	-49.284	-46.693	-42.824	123.657	-45.672	-8191	255	
4318.635	1	1	0	0	0.016136	0.11076	0.14225	0.11896	0.13746	0.17292	0.096576	0.28115	0.17907	0.18648	0.16768	0.028775	0.058118	0.15566	0.1552	0.24953	-2.0229	-2.6333	-1.6292	-2.7625	-2.15	-2.1271	-2.7021	-2.0333	-2.3792	-2.575	-1.7583	-2.525	-2.2604	-2.0479	-2.5396	-2.2188	191.799	215.156	242.471	51.491	-11.418	154.687	127.044	258.841	217.552	41.100	85.588	267.758	230.203	231.566	252.783	270.993	0.00015072	0.00029218	0.00014506	551.47	3.8836e-06	4.9182e-06	574.19	222.08	1.3974e-06	2.2245e-06	266.2	114.95	89.415	40.038	5.9264e-06	58.538	0.00056989	0.00057966	0.0001755	581.57	6.2872e-06	6.249e-06	604.57	231.34	6.2058e-06	6.4175e-06	281	117.49	96.905	40.72	6.9471e-06	58.045	251.291	13.279	77.346	-58.064	127.408	231.201	-58.785	-52.570	239.091	73.633	-54.539	-49.560	-46.950	-43.007	74.079	-45.590	-8191	255	
4318.731	1	1	0	0	0.38173	0.091482	0.16612	0.15631	0.41917	0.1623	0.041746	0.25614	0.089204	0.28818	0.088343	0.21254	0.11569	0.095258	0.1176	0.12748	-1.9292	-2.6042	-1.8375	-2.4813	-2.2562	-1.8458	-2.5896	-2.0854	-2.0396	-2.7313	-1.9271	-2.5167	-2.3854	-2.1562	-2.6875	-2.3438	125.607	131.065	6.711	-43.987	27.999	283.279	287.646	193.766	-32.375	64.076	256.592	278.132	189.088	-50.199	150.919	250.066	0.00017567	0.00045363	0.00019751	548.57	5.9458e-06	2.3317e-06	573.48	220.83	4.4646e-06	6.4303e-06	261.38	114.02	88.808	39.84	1.005e-06	57.691	0.000565	0.00060044	0.00017593	579.57	6.3075e-06	6.6453e-06	603.94	229.79	6.2811e-06	6.8056e-06	277.78	116.51	97.062	40.646	7.1388e-06	57.475	-51.882	-9.870	9.903	-57.968	134.509	130.032	-58.596	-52.587	224.853	131.758	-54.842	-49.681	-46.984	-42.925	84.246	-45.600	-8191	255	
4318.827	1	1	0	0	0.18679	0.19492	0.15958	0.1539	0.19588	0.27609	0.1877	0.11914	0.087803	0.17543	0.17726	0.12229	0.23448	0.37601	0.20904	0.31369	-1.7771	-2.6521	-1.7833	-2.5125	-2.5979	-1.9813	-2.7729	-2.2062	-1.9646	-2.6646	-2.05	-2.4083	-2.3979	-1.9417	-2.4313	-2.1063	243.341	267.680	109.401	268.157	266.963	221.148	168.887	218.453	86.982	247.215	282.076	176.383	201.659	288.032	-59.394	214.972	0.00018537	0.00058516	0.00018728	541.55	1.7915e-06	9.4323e-07	566.67	216.74	1.8196e-06	5.823e-06	257.12	112.7	87.639	39.576	6.3574e-06	57.602	0.00059148	0.00064954	0.00018041	573.91	6.5026e-06	7.0773e-06	597.47	226.72	6.355e-06	7.0013e-06	273.04	114.57	95.942	40.36	6.5776e-06	57.006	265.522	183.350	-40.637	-57.997	147.489	-28.357	-58.625	-52.685	17.527	26.342	-54.652	-49.255	-47.209	-42.850	47.300	-45.593	-8191	255	
4318.946	1	1	0	0	0.23249	0.38982	0.26683	0.31	0.07525	0.23423	0.18281	0.14807	0.24931	0.30598	0.16061	0.23976	0.12112	0.1201	0.34109	0.16103	-1.6313	-2.4458	-1.9125	-2.3979	-2.4729	-1.8729	-2.5938	-2.0438	-2.0271	-2.85	-2.1667	-2.2146	-2.6833	-2.0812	-2.5854	-2.5417	-38.587	-2.373	180.142	-52.423	-53.461	-68.919	238.084	55.573	95.700	111.749	9.412	279.592	268.764	260.043	82.233	270.542	0.00012917	0.00020827	4.9651e-05	545.78	2.7159e-06	8.5227e-06	571.18	221.33	7.4298e-06	8.006e-06	263.19	114.66	90.003	40.688	1.6117e-06	58.462	0.00057965	0.00064018	0.00017004	575.68	6.5768e-06	7.1553e-06	600.66	230.66	6.7448e-06	7.228e-06	277.92	117.13	99.738	41.476	6.5966e-06	58.062	282.515	128.393	9.695	-58.325	278.957	88.351	-58.941	-52.730	59.514	51.455	-54.496	-49.329	-46.753	-42.939	148.993	-45.557	-8191	255	
#DATA ENDS
