BOXY.EXE: ISS Imagent and Oximeter Data Acquisition Program Version 0.80
Ascii Record File

#ACQ INFORMATION
2  Detector Channels 
16  External MUX Channels 
1  Auxiliary Channels 
5000  Waveform (CCF) Frequency (Hz)
1  Waveforms Skipped 
30  Waveforms Averaged 
1  Cycles Averaged 
16  Acquisitions per Waveform 
10.0806  Updata Rate (Hz) 

#FILE INFORMATION
TRUE -- External MUX Channel results are PARSED.
FALSE -- AC DC and Phase are NOT grouped.
TRUE -- Companion Program Settings File CREATED.
FALSE -- AC data not excluded
FALSE -- DC data not excluded
FALSE -- Phase data not excluded
FALSE -- Auxillary Chn. data not excluded
Tab delimiters

#CALIBRATION STATE
TRUE -- Waveform Calibration Values APPLIED.


#AUX CALIBRATION VALUES
Val Type	aux-1	

Term	1.0000e+00	
Factor	0.0000e+00	


#WF CALIBRATION VALUES
A = Detector Channel
Val Type	A-AC1	A-AC2	A-AC3	A-AC4	A-AC5	A-AC6	A-AC7	A-AC8	A-AC9	A-AC10	A-AC11	A-AC12	A-AC13	A-AC14	A-AC15	A-AC16	A-DC1	A-DC2	A-DC3	A-DC4	A-DC5	A-DC6	A-DC7	A-DC8	A-DC9	A-DC10	A-DC11	A-DC12	A-DC13	A-DC14	A-DC15	A-DC16	A-Ph1	A-Ph2	A-Ph3	A-Ph4	A-Ph5	A-Ph6	A-Ph7	A-Ph8	A-Ph9	A-Ph10	A-Ph11	A-Ph12	A-Ph13	A-Ph14	A-Ph15	A-Ph16	

Term	0.00000e+00	0.00000e+00	0.00000e+00	0.00000e+00	0.00000e+00	0.00000e+00	0.00000e+00	0.00000e+00	0.00000e+00	0.00000e+00	0.00000e+00	0.00000e+00	0.00000e+00	0.00000e+00	0.00000e+00	0.00000e+00	0.00000e+00	0.00000e+00	0.00000e+00	0.00000e+00	0.00000e+00	0.00000e+00	0.00000e+00	0.00000e+00	0.00000e+00	0.00000e+00	0.00000e+00	0.00000e+00	0.00000e+00	0.00000e+00	0.00000e+00	0.00000e+00	0.00000e+00	0.00000e+00	0.00000e+00	0.00000e+00	0.00000e+00	0.00000e+00	0.00000e+00	0.00000e+00	0.00000e+00	0.00000e+00	0.00000e+00	0.00000e+00	0.00000e+00	0.00000e+00	0.00000e+00	0.00000e+00	
Factor	1.00000e+00	1.00000e+00	1.00000e+00	1.00000e+00	1.00000e+00	1.00000e+00	1.00000e+00	1.00000e+00	1.00000e+00	1.00000e+00	1.00000e+00	1.00000e+00	1.00000e+00	1.00000e+00	1.00000e+00	1.00000e+00	1.00000e+00	1.00000e+00	1.00000e+00	1.00000e+00	1.00000e+00	1.00000e+00	1.00000e+00	1.00000e+00	1.00000e+00	1.00000e+00	1.00000e+00	1.00000e+00	1.00000e+00	1.00000e+00	1.00000e+00	1.00000e+00	X	X	X	X	X	X	X	X	X	X	X	X	X	X	X	X	

B = Detector Channel
Val Type	B-AC1	B-AC2	B-AC3	B-AC4	B-AC5	B-AC6	B-AC7	B-AC8	B-AC9	B-AC10	B-AC11	B-AC12	B-AC13	B-AC14	B-AC15	B-AC16	B-DC1	B-DC2	B-DC3	B-DC4	B-DC5	B-DC6	B-DC7	B-DC8	B-DC9	B-DC10	B-DC11	B-DC12	B-DC13	B-DC14	B-DC15	B-DC16	B-Ph1	B-Ph2	B-Ph3	B-Ph4	B-Ph5	B-Ph6	B-Ph7	B-Ph8	B-Ph9	B-Ph10	B-Ph11	B-Ph12	B-Ph13	B-Ph14	B-Ph15	B-Ph16	

Term	0.00000e+00	0.00000e+00	0.00000e+00	0.00000e+00	0.00000e+00	0.00000e+00	0.00000e+00	0.00000e+00	0.00000e+00	0.00000e+00	0.00000e+00	0.00000e+00	0.00000e+00	0.00000e+00	0.00000e+00	0.00000e+00	0.00000e+00	0.00000e+00	0.00000e+00	0.00000e+00	0.00000e+00	0.00000e+00	0.00000e+00	0.00000e+00	0.00000e+00	0.00000e+00	0.00000e+00	0.00000e+00	0.00000e+00	0.00000e+00	0.00000e+00	0.00000e+00	7.69092e+01	-1.57133e+02	-1.40298e+02	-1.83357e+02	-8.57923e+01	-9.61485e+01	-1.57811e+02	-1.62015e+02	-9.63076e+01	-7.94854e+01	-1.71773e+02	-1.76027e+02	-1.90442e+02	-1.78137e+02	-7.55781e+01	-1.51514e+02	
Factor	7.25629e-05	1.26310e-04	3.84968e-05	1.60158e-01	1.49291e-06	1.25563e-06	1.65719e-01	6.68398e-02	1.67473e-06	1.13955e-06	1.04063e-01	3.34377e-02	7.91682e-02	9.59968e-03	1.29691e-06	1.37347e-02	1.37806e-06	1.41268e-06	3.92199e-07	8.14832e-02	1.54144e-08	1.55321e-08	7.93246e-02	3.36794e-02	1.54806e-08	1.54730e-08	5.04826e-02	1.61872e-02	3.66616e-02	4.85886e-03	1.54390e-08	6.71243e-03	X	X	X	X	X	X	X	X	X	X	X	X	X	X	X	X	



#DISTANCE SETTINGS
A = Detector Channel
A-1	A-2	A-3	A-4	A-5	A-6	A-7	A-8	A-9	A-10	A-11	A-12	A-13	A-14	A-15	A-16	

2.5000e+00	3.0000e+00	2.5000e+00	3.0000e+00	2.0000e+00	3.0000e+00	1.5000e+00	3.0000e+00	3.0000e+00	3.0000e+00	3.0000e+00	3.0000e+00	3.0000e+00	3.0000e+00	1.5000e+00	3.0000e+00	

B = Detector Channel
B-1	B-2	B-3	B-4	B-5	B-6	B-7	B-8	B-9	B-10	B-11	B-12	B-13	B-14	B-15	B-16	

1.0000e+01	1.0000e+01	1.0000e+01	1.4400e+00	1.0000e+01	1.0000e+01	1.5100e+00	1.9400e+00	1.0000e+01	1.0000e+01	1.9900e+00	2.4900e+00	2.4100e+00	2.9000e+00	1.0000e+01	2.9800e+00	




#DATA BEGINS
time	group	step	mark	flag	A-AC1	A-AC2	A-AC3	A-AC4	A-AC5	A-AC6	A-AC7	A-AC8	A-AC9	A-AC10	A-AC11	A-AC12	A-AC13	A-AC14	A-AC15	A-AC16	A-DC1	A-DC2	A-DC3	A-DC4	A-DC5	A-DC6	A-DC7	A-DC8	A-DC9	A-DC10	A-DC11	A-DC12	A-DC13	A-DC14	A-DC15	A-DC16	A-Ph1	A-Ph2	A-Ph3	A-Ph4	A-Ph5	A-Ph6	A-Ph7	A-Ph8	A-Ph9	A-Ph10	A-Ph11	A-Ph12	A-Ph13	A-Ph14	A-Ph15	A-Ph16	B-AC1	B-AC2	B-AC3	B-AC4	B-AC5	B-AC6	B-AC7	B-AC8	B-AC9	B-AC10	B-AC11	B-AC12	B-AC13	B-AC14	B-AC15	B-AC16	B-DC1	B-DC2	B-DC3	B-DC4	B-DC5	B-DC6	B-DC7	B-DC8	B-DC9	B-DC10	B-DC11	B-DC12	B-DC13	B-DC14	B-DC15	B-DC16	B-Ph1	B-Ph2	B-Ph3	B-Ph4	B-Ph5	B-Ph6	B-Ph7	B-Ph8	B-Ph9	B-Ph10	B-Ph11	B-Ph12	B-Ph13	B-Ph14	B-Ph15	B-Ph16	aux-1	digaux	

7998.203	1	1	0	512	0.066869	0.25986	0.047501	0.38418	0.18739	0.25437	0.21995	0.25381	0.19996	0.43015	0.14187	0.10866	0.16634	0.090716	0.079314	0.099376	-2.15	-2.3896	-2.9542	-2.2938	-2.65	-2.9604	-2.2667	-2.8958	-2.6729	-2.5875	-3.0687	-2.5	-2.6271	-2.8479	-2.3187	-3.0375	238.751	56.468	298.353	347.809	97.751	392.132	305.730	327.078	73.216	352.816	343.454	332.268	111.339	172.090	335.838	315.147	0.0022263	0.0002224	0.00012822	757.59	7.2185e-06	2.0252e-06	823.51	268.97	9.0655e-06	4.7512e-06	369.32	156.45	100.83	47.568	7.7261e-06	86.953	0.0001788	0.000138	4.1687e-05	681.22	1.6096e-06	1.5776e-06	735.76	239.94	1.6323e-06	1.495e-06	327.85	138.04	83.997	42.733	1.7177e-06	77.048	359.063	120.892	158.634	59.960	191.498	146.546	59.839	65.004	186.643	188.767	64.895	69.282	70.758	74.600	195.876	72.744	-8191	255	
7998.322	1	1	0	0	0.22787	0.16778	0.10593	0.32904	0.30472	0.25121	0.18378	0.20783	0.17266	0.21897	0.068846	0.04459	0.067319	0.35634	0.316	0.24111	-2.3646	-2.1771	-2.9896	-2.2708	-2.5125	-2.9188	-2.2104	-2.875	-2.7062	-2.3958	-3.0375	-2.2583	-2.6833	-2.9896	-2.3292	-2.8458	220.259	334.800	64.454	368.664	110.720	181.787	304.035	300.190	285.739	215.430	150.226	357.036	341.366	61.961	380.247	322.113	0.002267	0.00064225	0.00031066	753.54	8.1385e-06	3.1467e-06	819.8	267.64	9.0398e-06	3.3369e-06	369.19	154.88	101.01	47.754	4.5554e-06	85.69	0.00017906	0.00014064	4.436e-05	679.68	1.5962e-06	1.5249e-06	733.76	239.66	1.6308e-06	1.5875e-06	326.72	136.92	83.69	42.751	1.7657e-06	76.272	360.896	73.651	132.223	60.196	145.858	186.158	60.106	65.264	125.638	233.991	64.446	68.866	70.317	74.736	171.244	72.872	-8191	255	
7998.418	1	1	0	0	0.18962	0.10226	0.045384	0.38532	0.45209	0.18154	0.35942	0.084963	0.16076	0.25734	0.1007	0.33223	0.2121	0.29702	0.2322	0.17822	-2.1958	-2.1792	-2.8125	-2.3917	-2.5083	-2.8479	-2.2771	-2.9021	-2.6646	-2.3729	-3.0125	-2.6458	-2.3646	-2.8833	-2.3375	-2.7208	128.821	245.652	97.639	387.834	322.805	80.264	330.379	104.123	200.236	385.086	392.802	395.087	358.170	73.946	224.802	332.282	0.0023778	0.00020614	0.00017204	753.6	1.0003e-05	5.7303e-06	821.09	271.32	8.3345e-06	6.1775e-06	368.3	155.12	100.42	48.052	5.5245e-06	87.192	0.00017849	0.00014661	4.4228e-05	680.09	1.5889e-06	1.5925e-06	735.95	240.64	1.6019e-06	1.6429e-06	326.94	137.49	83.944	42.909	1.7746e-06	77.299	360.202	121.171	146.679	60.126	185.614	165.326	59.718	65.578	255.926	196.105	64.490	68.662	70.347	74.522	183.574	72.904	-8191	255	
7998.516	1	1	0	0	0.16579	0.049287	0.41543	0.12043	0.029732	0.12364	0.10092	0.043533	0.17882	0.27821	0.34276	0.22757	0.03301	0.34643	0.33265	0.1696	-2.3104	-2.1188	-2.7333	-2.7292	-2.2833	-2.9	-2.3271	-2.6521	-2.75	-2.2521	-2.8625	-2.6833	-2.3958	-3.0479	-2.3833	-2.7354	134.405	75.191	72.265	229.012	293.294	357.495	374.585	173.453	53.377	315.400	356.356	342.433	384.933	379.979	377.618	323.527	0.0024801	0.00087655	0.00017109	767.12	5.3907e-06	5.2618e-06	826.48	274.36	7.1458e-06	6.4979e-06	375.29	159.08	103.09	49.266	7.7672e-06	88.977	0.00017409	0.0001524	4.3938e-05	687.1	1.5615e-06	1.6898e-06	744.26	243.89	1.5626e-06	1.7176e-06	332.02	140.26	85.897	44.063	1.6921e-06	79.109	366.040	87.967	110.388	60.208	249.446	202.954	59.939	65.545	124.550	170.059	64.765	69.279	70.140	74.562	180.078	72.799	-8191	255	
7998.635	1	1	0	0	0.13124	0.3102	0.22442	0.26169	0.3252	0.05722	0.30088	0.10788	0.23776	0.17857	0.10451	0.21331	0.11304	0.13118	0.058647	0.070058	-2.4437	-2.2646	-2.825	-2.5854	-2.4417	-2.9083	-2.5542	-2.5625	-2.9188	-2.3417	-2.9167	-2.7875	-2.2562	-2.9792	-2.3187	-2.5812	143.374	353.423	306.164	71.057	269.305	359.521	397.059	309.150	288.067	342.024	324.501	57.654	122.985	365.737	235.695	268.563	0.0023564	0.00071403	8.2997e-05	776.36	3.3648e-06	6.0966e-06	841.25	277.85	5.453e-06	2.3012e-06	379.5	160.31	104.25	50	7.1485e-06	89.714	0.00017676	0.00015832	4.3278e-05	696.37	1.6085e-06	1.7208e-06	754.12	246.66	1.6333e-06	1.7549e-06	336.47	142.09	86.892	44.77	1.6525e-06	79.689	359.125	139.445	203.388	60.511	83.892	160.348	60.198	65.067	172.828	174.758	64.438	69.152	70.323	74.521	214.757	72.754	-8191	255	
7998.731	1	1	0	0	0.01827	0.16495	0.083792	0.26272	0.085971	0.17251	0.36995	0.25534	0.030662	0.16434	0.24927	0.25134	0.047872	0.19245	0.27499	0.27405	-2.6188	-1.9854	-2.5125	-2.8146	-2.2146	-2.8063	-2.5896	-2.4646	-3.0354	-2.1125	-2.675	-2.6771	-2.3083	-3.0187	-2.6312	-2.4271	380.757	311.128	138.897	251.328	270.652	247.488	353.973	374.915	188.947	249.715	57.969	328.172	336.407	377.862	328.741	401.832	0.002244	0.0010231	0.0001686	776.72	4.833e-06	4.2879e-06	835.39	276.55	8.8941e-06	3.2385e-06	377.5	159.78	103.47	49.638	3.8966e-06	88.557	0.00018134	0.00016393	4.2066e-05	695.9	1.6851e-06	1.759e-06	749.66	245.96	1.6975e-06	1.773e-06	334.48	141.59	86.699	44.391	1.6404e-06	78.811	358.831	113.293	102.693	60.290	156.549	222.591	59.886	65.520	181.131	294.258	64.342	69.427	69.726	74.080	159.191	72.796	-8191	255	
7998.803	1	1	0	0	0.11671	0.29124	0.38376	0.17785	0.19275	0.2207	0.22694	0.16857	0.045291	0.29111	0.073566	0.03537	0.20166	0.28404	0.072687	0.30253	-2.6688	-2.2313	-2.7375	-2.8375	-2.2125	-2.8958	-2.6896	-2.475	-3.0104	-2.5083	-2.6437	-3.0583	-2.1167	-2.9271	-2.7167	-2.3896	117.425	272.551	374.485	391.784	105.426	374.322	53.155	290.692	404.596	292.438	102.557	310.206	81.274	335.392	369.354	317.646	0.0024033	0.00021143	0.00014754	771.39	6.8582e-06	3.5726e-06	832.82	275.33	9.1705e-06	4.9534e-06	377.31	158.7	103.87	49.168	3.5264e-06	88.3	0.00018713	0.00016354	4.11e-05	690.99	1.7745e-06	1.756e-06	744.67	245.15	1.7608e-06	1.7099e-06	333.22	140.44	86.34	44.09	1.671e-06	78.466	359.467	261.024	103.252	60.323	231.691	177.447	60.087	65.304	161.414	141.641	63.896	69.529	70.677	74.209	179.267	73.153	-8191	255	
7998.923	1	1	0	0	0.080698	0.17861	0.35465	0.16615	0.26673	0.35046	0.17628	0.15108	0.079365	0.15599	0.058283	0.10755	0.026024	0.27628	0.24248	0.21812	-2.7	-2.3688	-2.4646	-3.0479	-2.25	-2.6667	-2.8958	-2.4	-2.7771	-2.4333	-2.4958	-3.0771	-2.0938	-2.7958	-2.8396	-2.5646	180.223	268.909	100.050	83.150	214.431	193.519	202.721	357.629	75.991	58.174	97.473	350.932	312.585	359.631	194.911	54.742	0.0023964	0.00057962	0.00014605	772.05	4.5668e-06	8.7091e-06	829.56	278.59	8.2239e-06	1.4883e-06	378.95	160.93	103.8	50.141	7.099e-06	89.345	0.00020247	0.00016067	4.0231e-05	693.46	1.8449e-06	1.7035e-06	747.29	247.39	1.7951e-06	1.6908e-06	336.19	142.43	87.866	44.81	1.6345e-06	79.893	355.130	121.962	128.350	60.406	202.938	220.484	60.194	65.364	144.976	202.708	64.334	69.373	71.008	74.530	198.982	72.953	-8191	255	
7999.019	1	1	0	0	0.18614	0.15868	0.10838	0.13217	0.045558	0.1345	0.11437	0.11068	0.15678	0.13482	0.4935	0.28583	0.22388	0.20971	0.054521	0.17851	-2.5104	-2.4375	-2.3958	-3.0854	-2.1771	-2.7208	-2.7771	-2.2146	-2.95	-2.5229	-2.3979	-3.2604	-2.45	-2.7646	-2.7375	-2.3771	152.391	319.914	299.763	350.930	260.533	153.889	75.538	76.133	368.994	243.281	387.674	385.695	258.053	84.156	95.472	296.551	0.0024037	0.00025294	0.00016426	777.48	9.7631e-06	2.6039e-06	840.34	279.81	5.3849e-06	6.4066e-06	388.02	162.83	108.21	51.043	3.0219e-06	91.75	0.0002034	0.00015746	4.2183e-05	699.04	1.8568e-06	1.6652e-06	756.09	250.44	1.8423e-06	1.6952e-06	341.89	144.74	90.213	45.86	1.6924e-06	81.593	363.638	150.065	146.647	60.363	206.073	162.776	59.982	65.285	160.848	189.208	64.293	69.098	70.129	74.267	181.653	72.888	-8191	255	
7999.116	1	1	0	0	0.17126	0.15847	0.26716	0.28231	0.11937	0.092957	0.41341	0.20569	0.20642	0.082978	0.33066	0.065177	0.1039	0.16457	0.27279	0.21742	-2.4437	-2.6	-2.3333	-3.0667	-2.4958	-2.2854	-2.8521	-2.3	-2.8625	-2.5167	-2.3125	-3.0208	-2.4688	-2.55	-2.9313	-2.475	373.771	99.876	68.121	354.040	79.300	277.135	366.767	295.947	211.450	297.434	347.176	86.990	249.715	64.085	266.469	332.294	0.0025514	8.4275e-05	8.1929e-05	785.52	8.5111e-06	2.45e-06	851.02	283.69	4.0757e-06	4.469e-06	388.3	165.2	108	51.429	5.3174e-06	91.93	0.00020476	0.00015776	4.1812e-05	707.51	1.8421e-06	1.7169e-06	764.29	253.77	1.8454e-06	1.7551e-06	344.21	146.66	90.559	45.908	1.7446e-06	81.85	362.985	147.430	160.920	60.570	183.308	234.184	59.979	65.704	205.990	177.358	64.176	69.566	69.795	74.242	151.220	73.086	-8191	255	
7999.236	1	1	0	0	0.10715	0.34262	0.060438	0.06271	0.23286	0.14481	0.24521	0.13392	0.1087	0.22809	0.26044	0.024325	0.17655	0.25298	0.14132	0.016735	-2.4333	-2.725	-2.3083	-2.8542	-2.4688	-2.4729	-2.9396	-2.4604	-2.6479	-2.7292	-2.075	-2.8396	-2.3979	-2.5438	-2.8625	-2.3229	257.867	208.261	286.154	348.748	163.969	223.787	337.802	389.509	281.000	117.976	244.637	214.315	356.256	59.661	357.605	121.170	0.0026432	0.00059399	0.000176	783.75	6.8073e-06	6.725e-06	845.02	283.6	8.8518e-06	4.7684e-06	385.1	164.13	108.39	50.751	1.6781e-06	90.931	0.00019755	0.00015752	4.4313e-05	707.38	1.7786e-06	1.7065e-06	762.33	253.43	1.7861e-06	1.6691e-06	343.62	145.82	89.863	45.516	1.8078e-06	80.765	356.436	162.401	154.695	60.442	92.160	169.362	60.378	65.225	151.634	166.673	64.401	69.098	70.317	74.182	66.287	72.808	-8191	255	
7999.331	1	1	0	0	0.22209	0.077867	0.17626	0.16258	0.2889	0.032569	0.22767	0.076207	0.10875	0.19058	0.29892	0.22239	0.05026	0.26017	0.19328	0.23288	-2.2146	-2.7167	-2.1854	-2.8958	-2.5938	-2.3375	-3.0979	-2.3563	-2.5875	-2.7687	-2.3708	-3.0396	-2.6021	-2.4208	-3.0146	-2.5667	278.499	156.201	74.167	301.899	110.025	250.197	351.022	70.911	140.652	229.668	365.375	395.024	96.331	350.489	354.094	356.386	0.0026419	0.00066789	0.00016233	787.66	6.6657e-06	3.8755e-06	846.1	283.9	1.1157e-05	4.3001e-06	386.08	163.6	107.51	51.169	7.4206e-06	90.473	0.00018867	0.00014879	4.6436e-05	704.8	1.734e-06	1.6177e-06	759.1	253.06	1.7147e-06	1.7127e-06	342.74	144.98	89.686	45.681	1.9536e-06	80.812	360.440	110.828	81.111	60.267	154.164	209.908	60.369	65.436	149.296	217.054	63.842	69.070	70.218	74.446	201.509	73.155	-8191	255	
7999.402	1	1	0	0	0.10097	0.38567	0.18784	0.21155	0.098803	0.10501	0.030078	0.43413	0.070824	0.089027	0.18464	0.067939	0.11559	0.068173	0.055696	0.30566	-2.2854	-2.8563	-2.2083	-2.8271	-2.6063	-2.3063	-3.2396	-2.5812	-2.4604	-2.8063	-2.3	-2.9146	-2.6708	-2.4542	-2.8979	-2.7125	207.897	92.483	205.988	119.992	378.186	47.601	87.666	402.899	269.592	174.701	188.787	252.978	335.435	48.568	74.255	374.522	0.002301	0.00023724	0.00014413	785.06	1.1445e-06	4.5471e-06	849.54	283.81	6.2269e-06	1.4642e-06	390.98	166.07	109.04	51.933	3.049e-06	92.491	0.00018826	0.00015348	4.8181e-05	706.22	1.7501e-06	1.6916e-06	764.52	254.82	1.7054e-06	1.7185e-06	347.3	146.53	91.149	46.339	1.9106e-06	82.236	365.713	58.248	142.120	60.257	268.544	166.831	60.317	65.326	174.004	298.379	64.243	69.186	70.128	74.778	183.435	72.856	-8191	255	
7999.498	1	1	0	0	0.19861	0.28655	0.17317	0.25597	0.12671	0.12795	0.23579	0.23475	0.026284	0.2931	0.065356	0.16752	0.15001	0.24802	0.25671	0.46233	-2.0625	-3.025	-2.3646	-2.7687	-2.7792	-2.2792	-3.025	-2.6708	-2.4646	-3.0667	-2.2188	-2.8771	-2.7646	-2.3021	-2.9167	-2.6917	241.767	70.576	393.704	311.738	365.696	347.734	405.592	299.437	399.837	303.342	352.298	396.205	85.789	294.871	138.804	366.650	0.0026377	0.00058677	0.00013158	790.52	1.0765e-05	6.1659e-06	856.55	287.32	8.0652e-06	8.4463e-06	395.15	168.32	109.75	52.414	5.6624e-06	93.63	0.0001899	0.00015877	4.8417e-05	710.04	1.7155e-06	1.7798e-06	768.32	256.99	1.6914e-06	1.7946e-06	349.54	148.88	91.964	47	1.9112e-06	83.156	356.194	120.972	165.241	60.313	161.416	151.043	59.985	65.433	133.440	195.768	64.251	68.845	71.251	74.627	215.377	73.421	-8191	255	
7999.619	1	1	0	0	0.082866	0.089318	0.15431	0.22521	0.09956	0.18521	0.13368	0.22867	0.17574	0.19407	0.33062	0.24139	0.15345	0.10196	0.17603	0.39196	-1.9771	-3.0521	-2.3604	-2.8125	-2.8375	-2.4854	-2.9688	-2.8646	-2.2708	-3.125	-2.425	-2.5625	-3.0042	-2.4146	-2.7104	-2.7875	198.544	194.203	370.717	96.880	338.431	53.764	358.450	369.660	341.786	182.295	303.330	50.596	316.727	262.586	221.459	380.779	0.0024394	0.00068713	0.00020229	796.3	8.3552e-06	6.2159e-06	864.39	289.65	2.9258e-06	4.6276e-06	398.08	169.28	111.27	52.847	5.8134e-06	93.654	0.00018719	0.00017633	4.7796e-05	715.69	1.7034e-06	1.9049e-06	773.98	258.58	1.7565e-06	1.923e-06	353.19	150.14	92.597	47.25	1.8621e-06	83.279	360.633	109.587	88.854	60.164	205.298	208.860	60.158	65.840	170.085	212.580	64.816	68.708	70.501	74.393	140.333	73.200	-8191	255	
7999.715	1	1	0	0	0.11365	0.24933	0.22088	0.05538	0.01499	0.19862	0.087434	0.23511	0.25607	0.34351	0.20059	0.22168	0.15399	0.076541	0.30413	0.1616	-1.7875	-2.8937	-2.3937	-2.5062	-2.8688	-2.3812	-2.7354	-2.7229	-2.4521	-2.9604	-2.6	-2.4667	-2.9792	-2.3125	-2.6479	-2.9354	151.287	346.480	162.523	182.080	149.281	350.576	384.718	56.518	360.626	261.421	364.316	375.013	400.261	75.257	111.932	322.604	0.002808	0.00047912	0.00016355	791.98	5.7392e-06	4.4477e-06	856.4	286.57	4.7194e-06	7.053e-06	395.44	167.96	109.96	52.072	5.5697e-06	92.278	0.00019573	0.00017805	4.7015e-05	713.94	1.8319e-06	1.9556e-06	768.73	256.53	1.7989e-06	1.961e-06	349.52	148.53	91.695	46.454	1.8071e-06	81.874	363.116	141.737	148.750	60.080	209.862	194.955	60.096	65.254	122.952	211.120	64.921	69.142	71.051	74.476	192.653	72.939	-8191	255	
7999.811	1	1	0	0	0.085955	0.30325	0.18525	0.08224	0.12228	0.080561	0.23625	0.11055	0.098237	0.1344	0.14231	0.34063	0.2032	0.18418	0.07663	0.46049	-1.9167	-2.7417	-2.4958	-2.4208	-2.9104	-2.3021	-2.6917	-2.9042	-2.1729	-2.8604	-2.5417	-2.4	-2.8896	-2.2417	-2.4396	-3.1167	290.876	90.152	214.396	245.675	213.117	205.501	67.970	290.389	327.874	140.481	398.750	356.193	399.973	154.361	232.981	302.531	0.0026481	0.00027145	9.4023e-05	789.61	8.6268e-06	2.5698e-06	852.85	287.76	5.567e-06	2.1141e-06	394.06	166.32	109.44	51.915	3.3888e-06	91.647	0.00019904	0.00017428	4.4667e-05	708.97	1.8244e-06	1.9149e-06	765.44	255.62	1.8527e-06	1.8488e-06	347.81	147.32	91.322	46.289	1.742e-06	81.765	356.614	82.964	136.078	59.949	202.212	146.909	60.472	65.465	185.109	62.831	64.695	69.064	70.112	74.763	225.284	72.769	-8191	255	
7999.908	1	1	0	0	0.21728	0.11349	0.13826	0.35648	0.17922	0.18406	0.12374	0.14175	0.13087	0.10356	0.16077	0.32016	0.037892	0.045753	0.13015	0.25522	-1.9562	-2.7917	-2.5667	-2.4042	-2.9479	-2.425	-2.65	-2.95	-2.2167	-2.9396	-2.7687	-2.3812	-3.0104	-2.3917	-2.5229	-2.9708	367.265	346.332	231.532	345.306	308.411	187.948	122.748	401.980	349.184	311.628	53.785	379.595	69.780	377.425	89.903	327.395	0.0024767	6.7895e-05	5.9805e-05	793.73	4.0518e-06	4.7982e-06	860.95	290.39	8.7283e-06	2.235e-06	393.11	166.54	109.47	52.003	5.0624e-06	92.581	0.00021041	0.00017344	4.4736e-05	711.91	1.9464e-06	1.8919e-06	770.09	257.17	1.9759e-06	1.8556e-06	348.2	147.74	91.82	46.625	1.7506e-06	82.374	353.865	327.626	221.032	60.293	124.211	215.924	59.988	65.410	241.404	150.596	64.695	68.729	70.542	74.254	150.170	73.038	-8191	255	
8000.028	1	1	0	0	0.24388	0.07454	0.38476	0.17676	0.20037	0.12509	0.24308	0.096539	0.13373	0.032542	0.28846	0.23193	0.32485	0.15835	0.049335	0.28242	-1.8438	-2.8979	-2.7375	-2.3583	-2.8271	-2.5333	-2.5438	-3.0833	-2.3292	-2.7125	-2.8479	-2.4625	-3.1021	-2.5938	-2.3438	-2.9813	214.785	347.832	267.900	313.566	169.654	221.290	393.533	76.719	347.151	226.192	130.792	339.537	161.004	273.726	388.935	388.244	0.0025108	8.5878e-05	0.00013434	793.81	3.6879e-06	7.1901e-06	863.69	289.75	7.858e-06	5.6488e-06	395.99	168.07	110.12	52.51	7.2508e-06	93.229	0.00021441	0.00016489	4.4024e-05	714.08	1.9035e-06	1.8121e-06	773.92	259.07	2.0062e-06	1.789e-06	352.07	149.6	93.023	47.116	1.7259e-06	83.494	357.872	306.735	66.353	60.117	186.989	176.903	60.053	65.516	201.346	183.455	64.285	68.881	70.505	74.959	237.323	72.854	-8191	255	
8000.100	1	1	0	0	0.085169	0.10751	0.1411	0.08434	0.085653	0.16917	0.19083	0.20971	0.14184	0.047473	0.20052	0.056087	0.18286	0.079063	0.15276	0.31494	-1.9396	-2.5917	-2.7333	-2.1583	-2.8521	-2.5667	-2.2188	-2.9417	-2.4542	-2.6104	-2.9604	-2.3646	-2.8458	-2.8271	-2.4458	-2.9604	112.160	318.555	135.414	386.462	345.458	286.261	399.533	76.658	80.217	202.327	400.901	271.566	403.523	55.182	52.694	325.462	0.0027455	0.00037763	0.00028452	802.15	3.0319e-06	5.948e-06	864.12	292.61	1.0042e-05	6.2465e-06	398.52	169.24	109.9	52.28	3.9377e-06	93.137	0.00021293	0.00016725	4.4511e-05	720.76	1.9397e-06	1.8277e-06	777.36	259.9	1.8798e-06	1.7971e-06	352.24	150.14	92.363	46.793	1.7043e-06	83.006	363.473	115.236	120.828	60.371	174.023	231.565	60.156	65.579	162.256	173.091	64.582	69.159	70.420	74.799	216.092	72.767	-8191	255	
8000.196	1	1	0	0	0.095346	0.16665	0.35981	0.43189	0.29767	0.11421	0.20538	0.18736	0.14251	0.015	0.03651	0.21633	0.34039	0.074632	0.2031	0.16617	-1.8625	-2.5312	-2.7333	-2.2625	-2.8292	-2.6792	-2.4188	-2.9458	-2.3875	-2.475	-2.8354	-2.4021	-2.7354	-2.9292	-2.4833	-3.1417	316.905	207.738	393.321	395.569	235.738	79.366	241.451	397.418	56.510	188.178	237.635	68.615	56.702	283.359	126.434	387.385	0.0023533	0.00048915	0.00026929	794.12	6.5007e-06	2.1043e-06	861.86	286.1	2.2647e-06	4.011e-06	387.39	166.01	107.5	51.243	4.5195e-06	91.528	0.00020364	0.000163	4.3546e-05	713.08	1.8377e-06	1.7556e-06	770.05	255.56	1.8812e-06	1.7324e-06	346.94	147.14	90.254	45.986	1.7712e-06	81.693	358.489	173.067	119.952	60.188	143.472	103.687	59.976	65.369	178.963	187.710	64.664	69.204	70.750	74.552	152.919	72.978	-8191	255	
8000.317	1	1	0	0	0.40196	0.32399	0.11603	0.068351	0.061298	0.26682	0.26019	0.10109	0.10965	0.15795	0.16058	0.25111	0.27803	0.24846	0.22248	0.045312	-2.0021	-2.2812	-2.8833	-2.2979	-2.6437	-2.75	-2.3042	-2.9938	-2.4979	-2.3875	-3.0208	-2.3792	-2.6688	-2.6208	-2.2667	-2.9875	325.592	223.174	374.716	270.665	220.181	184.700	338.417	314.882	74.766	385.082	293.346	326.753	378.604	333.464	299.164	387.189	0.0026251	0.00061219	7.1465e-05	787.37	1.0494e-05	6.6058e-06	855.78	284.12	1.8026e-07	4.822e-06	389.86	164.83	108.05	50.888	7.8564e-06	90.55	0.00020026	0.00015347	4.5735e-05	709.58	1.7649e-06	1.6875e-06	767.3	254.31	1.836e-06	1.6755e-06	345.23	146.05	90.221	45.661	1.8783e-06	81.06	357.134	99.092	146.162	60.164	188.363	170.785	60.147	65.612	172.513	178.499	64.434	69.204	70.031	74.865	214.783	72.911	-8191	255	
8000.411	1	1	0	0	0.20485	0.22918	0.1946	0.074411	0.20497	0.1453	0.1291	0.11679	0.094051	0.32559	0.40307	0.17886	0.18814	0.29158	0.29008	0.1806	-2.2479	-2.1688	-2.8563	-2.4083	-2.5042	-2.9458	-2.3583	-2.9604	-2.5021	-2.3812	-2.9646	-2.3333	-2.3417	-3.0042	-2.1854	-2.9229	77.729	370.087	317.155	220.855	405.590	93.856	400.698	165.373	278.216	387.832	326.944	352.188	303.386	320.032	272.342	58.053	0.0023853	0.00047345	0.00017782	787.93	3.9322e-06	3.2146e-06	852.76	284.28	4.9804e-06	3.2436e-06	391.77	165.67	108.68	51.02	6.9699e-06	91.295	0.00019316	0.00015435	4.7123e-05	709.34	1.7101e-06	1.6943e-06	766.32	254.07	1.797e-06	1.7169e-06	346.64	146.85	90.624	45.807	1.9598e-06	81.501	365.917	149.567	124.728	60.364	195.443	167.103	59.894	65.502	133.071	169.841	64.204	69.280	70.306	74.249	208.172	73.149	-8191	255	
8000.507	1	1	0	0	0.097146	0.18465	0.44082	0.19725	0.10148	0.13602	0.12968	0.13004	0.1663	0.094328	0.097106	0.077511	0.077069	0.26351	0.15499	0.16909	-2.2354	-2.3063	-2.8229	-2.4875	-2.5479	-2.9167	-2.4896	-2.9292	-2.7188	-2.3917	-2.8125	-2.5062	-2.3917	-2.9938	-2.2417	-2.7208	357.320	286.193	190.910	397.050	327.920	87.634	308.633	373.490	93.408	290.083	219.574	86.081	193.162	321.456	159.868	74.722	0.0024534	0.00060656	0.00010136	790.44	3.262e-06	6.9752e-06	858.83	287.14	1.0527e-05	6.8795e-06	392.91	166.69	109.18	51.604	9.7614e-06	92.726	0.00019235	0.00016061	4.9999e-05	709.39	1.7374e-06	1.7614e-06	770.43	255.41	1.7223e-06	1.7589e-06	349.16	148.09	91.082	46.177	1.9545e-06	82.406	359.491	128.176	115.433	60.545	194.370	209.107	60.267	65.327	189.337	159.834	64.206	69.509	70.413	74.229	170.396	72.896	-8191	255	
8000.603	1	1	0	0	0.022746	0.14488	0.22484	0.36097	0.19807	0.16679	0.098955	0.23255	0.18494	0.27214	0.10341	0.20405	0.12771	0.17401	0.094147	0.24866	-2.4354	-2.3063	-2.9417	-2.3875	-2.3187	-2.8833	-2.2896	-2.6667	-2.7	-2.3625	-2.7917	-2.5875	-2.3083	-2.9104	-2.2812	-2.75	203.637	138.691	364.158	386.149	107.309	122.699	275.383	76.446	312.205	205.970	302.451	54.016	359.133	347.281	326.514	348.138	0.002847	0.00056291	0.00015531	792.17	7.7566e-06	4.7112e-06	861.98	286.52	1.3149e-06	1.9014e-06	392.34	167.33	109.39	51.691	4.3763e-06	92.459	0.00019221	0.00016701	4.8071e-05	713.02	1.6857e-06	1.8262e-06	773.77	256.6	1.7171e-06	1.8413e-06	349.72	148.38	90.968	46.198	1.8674e-06	82.186	356.323	103.251	145.988	60.334	183.120	209.997	59.989	65.278	149.164	225.327	64.777	69.154	70.444	74.622	172.829	73.039	-8191	255	
8000.699	1	1	0	0	0.11282	0.21008	0.20608	0.17448	0.10539	0.11979	0.1861	0.19505	0.13037	0.16876	0.14315	0.13763	0.24505	0.094485	0.061487	0.33645	-2.5396	-2.1417	-2.8833	-2.7208	-2.3417	-2.9854	-2.4917	-2.5292	-2.9229	-2.1937	-2.9167	-2.6583	-2.2604	-2.8271	-2.3917	-2.6292	207.847	129.142	164.458	324.245	187.170	316.815	339.807	319.194	328.094	297.189	52.103	325.464	399.797	74.758	122.630	330.125	0.0025778	0.0007789	0.00013502	784.63	6.1729e-06	5.6563e-06	848.95	283.69	4.5262e-06	6.9471e-06	391.22	165.82	107.51	50.804	7.3598e-06	91.002	0.00019139	0.0001717	4.6565e-05	708.88	1.6744e-06	1.8793e-06	765.5	253.83	1.6913e-06	1.8354e-06	346.29	146.36	90.064	45.434	1.821e-06	80.983	357.939	170.381	134.624	60.250	218.853	133.619	59.798	65.510	192.964	152.358	64.627	69.169	69.905	74.400	192.415	72.881	-8191	255	
8000.796	1	1	0	0	0.17218	0.22441	0.23822	0.098653	0.16304	0.096877	0.18363	0.16759	0.27788	0.088489	0.13744	0.14926	0.16178	0.2466	0.047261	0.17461	-2.4417	-2.3458	-2.7583	-2.8479	-2.2167	-2.9125	-2.6521	-2.3521	-2.8688	-2.4792	-2.6312	-2.9396	-2.3	-3.025	-2.5812	-2.4958	162.847	80.960	340.035	70.602	198.488	356.215	326.064	48.841	246.249	221.168	81.699	303.859	353.406	397.488	260.088	323.772	0.0023941	0.00031037	0.0001323	781.5	5.3925e-06	6.6241e-06	850.37	283.62	4.9744e-06	7.0236e-06	386.89	164.39	107.9	50.331	3.6574e-06	90.985	0.00019096	0.00017189	4.3592e-05	704.8	1.7804e-06	1.8457e-06	764.72	252.44	1.7657e-06	1.8829e-06	344.05	145.32	89.689	45.279	1.7343e-06	80.738	358.774	406.719	181.349	60.250	207.308	188.578	60.315	65.394	203.163	217.485	64.030	69.035	70.282	74.557	209.351	72.983	-8191	255	
8000.916	1	1	0	0	0.17751	0.13833	0.1859	0.12075	0.27027	0.16607	0.239	0.087708	0.093471	0.17802	0.047141	0.34033	0.07093	0.1435	0.0045623	0.020569	-2.5833	-2.2604	-2.7583	-2.9813	-2.4375	-2.7188	-2.7375	-2.3542	-2.8937	-2.4313	-2.8104	-2.7958	-2.2917	-2.8729	-2.6	-2.4479	134.492	187.242	84.451	280.215	172.778	264.928	328.780	231.951	275.287	152.006	298.387	81.728	139.250	147.971	384.755	120.796	0.0025623	0.00016046	0.0002299	786.79	5.7856e-06	1.9724e-06	855.28	284.07	7.7702e-06	6.5395e-06	386.88	164.45	106.74	50.661	4.5096e-06	90.874	0.00019951	0.00016716	4.2563e-05	706.19	1.7757e-06	1.8281e-06	766.45	253.36	1.8437e-06	1.7755e-06	344.03	145.67	89.945	45.402	1.7353e-06	81.047	362.243	82.930	131.401	60.337	201.083	188.632	60.041	65.669	151.032	226.651	64.529	69.157	69.993	74.476	170.326	72.871	-8191	255	
8001.012	1	1	0	0	0.23152	0.23776	0.28752	0.11427	0.064877	0.23229	0.094531	0.31412	0.28791	0.031936	0.23499	0.043932	0.34038	0.07423	0.0562	0.33243	-2.525	-2.2438	-2.475	-2.9542	-2.225	-2.8563	-2.85	-2.3	-2.9229	-2.3063	-2.6646	-2.9938	-2.2396	-2.6833	-2.6667	-2.4313	54.140	89.280	259.891	402.255	282.327	338.031	60.822	344.305	274.739	323.702	388.483	307.827	324.358	349.837	187.695	67.616	0.0024941	0.00046667	0.00016009	788.34	1.0464e-05	6.3625e-06	862.35	286.37	9.0321e-06	6.178e-06	389.43	166.07	107.27	50.908	8.481e-06	92.17	0.00020299	0.00016325	4.1957e-05	708.62	1.8402e-06	1.7405e-06	770.63	254.76	1.8673e-06	1.7514e-06	346.5	147.49	90.336	45.716	1.6651e-06	81.907	356.732	125.456	148.260	60.400	189.964	172.881	60.085	65.235	174.255	153.396	64.191	69.450	70.602	74.217	224.990	72.861	-8191	255	
8001.109	1	1	0	0	0.29047	0.16	0.079672	0.13242	0.17617	0.080989	0.26026	0.24907	0.14163	0.11659	0.035247	0.18954	0.083619	0.22623	0.094692	0.10596	-2.475	-2.2188	-2.3125	-2.9167	-2.3333	-2.7562	-2.9	-2.2687	-2.775	-2.4417	-2.4958	-2.8646	-2.2521	-2.7375	-2.6875	-2.4271	126.335	311.417	169.235	168.140	343.540	397.551	390.060	144.411	67.775	254.281	165.858	224.451	85.033	315.613	104.901	62.319	0.0023047	0.00040238	0.00014219	790.48	5.3492e-06	4.0129e-07	867.34	286.67	8.894e-06	4.8384e-06	395.09	167.76	109.47	51.128	6.5347e-06	92.212	0.00020786	0.00015934	4.1411e-05	713.93	1.8707e-06	1.7197e-06	775.76	256.57	1.8866e-06	1.7241e-06	350.19	148.77	91.25	45.842	1.6575e-06	82.072	352.841	129.685	150.183	60.410	171.380	164.009	60.174	65.679	153.545	83.352	64.854	69.195	71.128	74.590	195.126	73.165	-8191	255	
8001.205	1	1	0	0	0.085929	0.1884	0.12995	0.1769	0.17092	0.22029	0.20079	0.16005	0.23867	0.22561	0.33173	0.24979	0.14759	0.32239	0.22022	0.1557	-2.425	-2.3979	-2.2521	-3.1771	-2.5042	-2.6146	-2.8812	-2.2562	-2.7125	-2.5812	-2.3667	-2.9917	-2.3042	-2.5646	-2.8646	-2.2958	142.668	173.502	328.932	52.144	224.992	305.378	89.668	215.279	300.583	173.099	402.922	57.372	49.181	376.408	342.925	347.161	0.0025933	0.00012408	0.00021166	792.55	8.7281e-06	7.3055e-06	855.53	282.83	1.1315e-05	2.8166e-06	390.31	163.98	105.97	50.353	3.1339e-06	90.773	0.00019957	0.00015293	4.0954e-05	712.38	1.7937e-06	1.6718e-06	767.62	252.52	1.8577e-06	1.6742e-06	344.34	145.51	88.745	45.047	1.6729e-06	80.605	360.205	257.498	122.422	60.487	202.923	132.052	60.102	65.498	134.518	174.513	64.563	69.455	69.991	74.503	210.366	72.975	-8191	255	
8001.299	1	1	0	0	0.2366	0.23146	0.13605	0.20409	0.25329	0.037571	0.15561	0.21592	0.43326	0.030215	0.025136	0.12265	0.18434	0.32382	0.05568	0.11926	-2.1271	-2.6333	-2.2438	-3.0979	-2.2854	-2.4792	-2.9458	-2.325	-2.7646	-2.7125	-2.3729	-2.7708	-2.2313	-2.3688	-2.7875	-2.3104	212.635	105.643	71.196	80.821	303.668	282.913	295.134	399.596	359.201	333.606	334.278	315.997	343.863	341.820	236.024	380.943	0.0022105	0.00048776	0.00024333	784.4	4.5151e-06	6.2418e-06	855.6	282.51	8.4354e-06	2.587e-06	389.95	164.84	107.82	50.477	5.0553e-06	91.561	0.00019639	0.0001539	4.2637e-05	706.62	1.7776e-06	1.6491e-06	766.99	253.14	1.7511e-06	1.634e-06	345.26	146.23	89.916	45.289	1.7207e-06	81.141	359.001	135.279	116.267	60.224	213.731	162.512	60.264	65.322	167.665	159.576	64.610	69.041	71.006	74.556	164.659	73.074	-8191	255	
8001.395	1	1	0	0	0.18519	0.2247	0.33879	0.12851	0.12724	0.13009	0.25733	0.32336	0.19757	0.13946	0.066625	0.18693	0.11793	0.52916	0.1292	0.21527	-2.175	-2.65	-2.0417	-2.8187	-2.4542	-2.25	-3.0021	-2.2625	-2.6917	-2.6937	-2.2938	-2.9146	-2.3187	-2.4604	-2.9104	-2.4271	392.526	196.105	124.806	318.924	158.053	341.184	380.326	113.976	133.402	320.575	368.524	359.288	61.755	400.016	50.136	337.034	0.0022965	0.0004685	0.00018162	786.06	3.6875e-06	4.5854e-06	856.85	285.23	5.4793e-06	5.4915e-06	394.27	166.47	108.2	50.974	6.7874e-06	92.042	0.00018883	0.00015187	4.456e-05	709.65	1.7362e-06	1.655e-06	768.81	254.56	1.7347e-06	1.6784e-06	348.81	147.43	90.647	45.725	1.8299e-06	81.715	360.101	116.088	85.747	60.486	215.004	206.549	60.376	65.167	143.282	150.367	64.547	69.341	70.536	74.526	212.916	73.142	-8191	255	
8001.491	1	1	0	0	0.13276	0.25563	0.16704	0.18871	0.021404	0.068349	0.2355	0.49637	0.054755	0.34732	0.18784	0.26612	0.18198	0.036089	0.030252	0.17496	-1.9458	-2.7687	-2.2438	-3.1104	-2.5958	-2.2375	-3.1104	-2.1792	-2.425	-2.7625	-2.3125	-2.7438	-2.5417	-2.0938	-2.7625	-2.3333	372.643	122.411	389.677	163.866	54.099	189.800	396.395	63.984	367.541	373.388	332.275	323.700	292.891	70.983	319.441	68.098	0.002269	0.00043045	0.00014875	800.4	9.0854e-06	7.4244e-06	869.91	290.1	6.0484e-06	1.7804e-06	395.72	169.3	110.86	51.945	1.0902e-05	93.718	0.00019072	0.00015482	4.7728e-05	717.14	1.7741e-06	1.6704e-06	778.8	258.6	1.67e-06	1.7204e-06	352.44	150.14	92.672	46.538	1.9351e-06	83.021	361.348	135.313	100.367	60.331	166.182	172.714	60.120	65.638	181.861	295.574	64.632	69.372	69.905	74.476	232.688	73.093	-8191	255	
8001.588	1	1	0	0	0.12367	0.025647	0.058337	0.15169	0.2299	0.22922	0.15056	0.26001	0.13795	0.24533	0.088855	0.16336	0.23235	0.2507	0.22184	0.3858	-2.2354	-2.7479	-2.1896	-2.6896	-2.6792	-2.0875	-3.0708	-2.4708	-2.3021	-2.8937	-2.3354	-2.7208	-2.7083	-2.25	-2.7292	-2.6813	271.835	326.641	329.084	191.270	387.144	302.438	360.082	358.272	276.581	218.285	164.082	174.681	340.576	87.449	173.256	334.091	0.0026631	0.00074422	3.6317e-05	796.1	9.629e-06	2.3034e-06	872.44	290.51	9.7868e-06	2.4838e-06	399.39	168.63	110.74	51.77	6.5304e-06	92.83	0.00018598	0.00015905	4.8539e-05	718.94	1.6978e-06	1.7424e-06	782.86	259.6	1.6787e-06	1.7833e-06	354.41	149.97	91.984	46.398	1.8616e-06	82.652	352.698	59.939	54.424	60.531	176.676	52.781	60.412	65.386	158.960	255.116	64.381	69.090	70.830	74.488	132.985	73.001	-8191	255	
8001.684	1	1	0	0	0.20265	0.11356	0.22788	0.25369	0.25473	0.1005	0.10405	0.21637	0.20696	0.037912	0.062444	0.20795	0.12108	0.26831	0.10545	0.26876	-2.0229	-2.8396	-2.2313	-2.5854	-2.8167	-2.1729	-2.8396	-2.4792	-1.9604	-2.9875	-2.3292	-2.4583	-2.7896	-2.3625	-2.8063	-2.7375	79.540	272.313	94.519	57.505	239.515	59.778	396.366	398.763	263.665	398.693	321.681	272.042	187.531	364.800	305.198	312.551	0.0027228	0.00015399	5.0107e-05	789.87	1.9733e-06	2.8392e-06	866.54	288.85	7.745e-06	7.4657e-07	396.55	167.82	110.49	51.351	5.3807e-06	91.593	0.00018653	0.0001623	4.5209e-05	712.97	1.6443e-06	1.8172e-06	775.94	257.71	1.6675e-06	1.8191e-06	351.33	148.9	91.755	45.918	1.7949e-06	81.566	362.368	110.981	386.590	60.378	199.766	163.389	60.039	65.529	151.871	248.961	64.263	69.050	70.820	74.380	195.449	73.417	-8191	255	
8001.804	1	1	0	0	0.26475	0.2612	0.11491	0.28562	0.34666	0.098887	0.15795	0.20931	0.22886	0.34504	0.11702	0.22796	0.082427	0.11723	0.16966	0.361	-1.7458	-2.8479	-2.3729	-2.375	-2.7896	-2.2542	-2.8667	-2.7417	-2.2667	-3.0125	-2.4292	-2.5021	-2.8458	-2.3563	-2.7333	-2.9958	314.913	404.867	102.586	329.639	297.426	265.850	342.473	345.867	324.040	208.034	325.293	389.062	57.272	196.968	140.577	329.453	0.0023606	4.9521e-05	0.00012633	794.5	5.508e-06	3.8209e-06	865.8	287.65	4.3975e-06	5.2826e-06	395.74	167.46	110.7	51.564	5.587e-06	92.074	0.00018441	0.00016648	4.4955e-05	711.45	1.6459e-06	1.8751e-06	773.11	255.61	1.7154e-06	1.8758e-06	350.35	148.69	91.411	46.088	1.7467e-06	82.006	366.116	132.034	143.468	60.100	194.946	213.617	60.238	65.410	245.752	192.015	64.547	69.183	69.935	74.643	194.860	73.027	-8191	255	
8001.900	1	1	0	0	0.066405	0.023023	0.20521	0.071551	0.21833	0.20287	0.14157	0.02634	0.11996	0.12172	0.25645	0.20194	0.069755	0.05853	0.19537	0.16079	-1.9646	-2.8792	-2.3229	-2.4083	-3.0021	-2.3708	-2.8042	-2.8271	-2.1833	-2.8083	-2.6958	-2.4396	-3.0792	-2.4583	-2.5417	-3.0042	63.682	260.991	169.812	163.095	182.693	359.020	306.426	204.922	286.794	175.451	354.301	75.969	116.019	332.664	302.210	276.091	0.0025939	0.00074646	0.00025943	798.33	7.4984e-06	3.9822e-06	864.07	289.51	6.4045e-06	8.2027e-06	400.72	167.81	109.67	51.732	6.1087e-06	92.947	0.00019612	0.00017239	4.4206e-05	715.6	1.7548e-06	1.8654e-06	774.81	258.3	1.8085e-06	1.8199e-06	353.21	149.2	92.58	46.34	1.663e-06	82.661	360.368	97.125	119.461	60.673	201.853	119.041	60.479	65.404	171.295	194.109	64.614	69.113	69.863	74.530	212.462	72.754	-8191	255	
8001.997	1	1	0	0	0.13793	0.29634	0.19233	0.15935	0.062422	0.26923	0.38388	0.24164	0.25688	0.088443	0.19569	0.16008	0.26533	0.091043	0.069636	0.25282	-1.85	-2.8396	-2.4917	-2.525	-2.8438	-2.2917	-2.6146	-2.9167	-2.025	-2.8563	-2.7021	-2.2708	-2.8292	-2.3917	-2.425	-2.8896	61.117	270.844	114.026	276.687	120.554	284.124	291.698	381.413	138.725	243.925	121.092	95.542	398.993	158.044	95.461	357.985	0.0024972	0.0005367	0.00013526	794.96	5.7084e-06	6.4818e-06	863.64	291.15	6.7741e-06	4.2481e-06	398.59	168.9	110.86	51.344	6.8103e-06	92.52	0.00019809	0.00017009	4.3196e-05	715.55	1.8344e-06	1.7751e-06	777.09	258.68	1.8329e-06	1.7278e-06	351.3	148.83	92.337	46.022	1.6165e-06	82.499	356.883	64.728	73.467	59.992	187.187	157.386	60.021	65.382	175.829	182.603	64.707	69.101	70.700	74.260	203.682	73.224	-8191	255	
8002.093	1	1	0	0	0.16447	0.15255	0.15565	0.3263	0.13745	0.2034	0.028718	0.24565	0.18535	0.1097	0.33337	0.14238	0.25409	0.22921	0.25194	0.32076	-1.775	-2.7646	-2.5479	-2.3354	-2.7896	-2.2146	-2.4583	-3.0021	-2.1771	-2.8146	-2.9542	-2.3521	-2.9146	-2.5708	-2.3771	-3.0854	144.275	375.985	142.646	257.741	216.957	156.355	61.882	346.843	331.640	321.356	348.098	65.392	314.490	403.018	266.516	405.048	0.0027245	0.00045905	6.4952e-05	796.37	9.1518e-06	3.8335e-06	870.78	292.61	3.2037e-06	3.596e-06	400.01	168.13	109.8	51.428	5.9781e-06	92.767	0.00020131	0.00015825	4.1488e-05	717.28	1.8375e-06	1.725e-06	780.35	259.99	1.8385e-06	1.6762e-06	354.09	149.49	92.099	46.129	1.6017e-06	82.443	363.901	127.288	177.376	60.590	150.444	154.729	60.124	65.441	269.947	234.949	64.532	69.632	70.687	74.528	177.107	72.906	-8191	255	
8002.189	1	1	0	0	0.092707	0.083824	0.14691	0.15516	0.018439	0.098276	0.34003	0.31208	0.22694	0.17017	0.24662	0.23193	0.25213	0.40928	0.11726	0.08746	-1.8438	-2.5542	-2.6042	-2.4208	-2.8333	-2.55	-2.575	-2.8688	-2.4896	-2.7458	-2.725	-2.2458	-3.0729	-2.7604	-2.3208	-3.0604	184.408	332.211	239.420	381.439	403.108	178.775	395.327	369.849	300.289	48.912	365.244	50.896	79.520	389.909	236.331	131.426	0.0026274	0.00037716	0.00014633	796.09	7.2581e-06	1.7503e-06	861.19	289.34	1.0622e-06	4.8153e-06	395.05	166.68	109.35	50.634	5.6664e-06	90.982	0.00020156	0.00015344	4.2231e-05	716.12	1.8201e-06	1.6951e-06	772.68	257.64	1.839e-06	1.6594e-06	349.94	147.63	91.037	45.329	1.6447e-06	81.115	357.819	364.031	140.197	60.305	145.332	113.418	60.191	65.585	397.101	145.656	64.733	69.566	70.261	74.650	188.273	72.725	-8191	255	
8002.285	1	1	0	0	0.18936	0.26687	0.16398	0.12776	0.042541	0.048489	0.13552	0.17821	0.12282	0.18129	0.17237	0.12291	0.12137	0.29144	0.080502	0.36065	-1.8708	-2.5458	-2.7771	-2.3625	-2.7917	-2.4875	-2.4333	-2.9292	-2.175	-2.4271	-3.0021	-2.35	-2.6396	-2.7188	-2.1917	-3.1521	260.380	166.486	103.751	392.182	118.702	57.799	48.545	405.857	203.181	207.645	207.462	61.197	403.665	404.018	232.953	315.146	0.0023469	0.00069953	0.00024445	789.52	1.0832e-05	3.8367e-06	862.51	289.48	7.9342e-06	1.9202e-06	395.21	166.53	109.69	51.214	5.5735e-06	92.081	0.00019845	0.00015467	4.2855e-05	711.23	1.8027e-06	1.7033e-06	772.98	256.9	1.8509e-06	1.7048e-06	351.29	148.12	91.477	45.781	1.7679e-06	81.855	361.073	119.708	123.149	60.104	166.555	52.390	59.706	65.676	222.940	253.325	64.837	69.224	70.833	74.311	232.575	73.014	-8191	255	
8002.406	1	1	0	0	0.16384	0.35609	0.10128	0.23329	0.033725	0.067415	0.18208	0.17464	0.18716	0.30718	0.072446	0.11593	0.10406	0.096251	0.080845	0.097434	-1.7938	-2.1937	-2.9583	-2.2687	-2.75	-2.7	-2.2188	-3.0229	-2.4708	-2.2687	-2.9625	-2.3708	-2.7271	-2.8542	-2.2562	-3.0708	270.075	360.338	252.868	361.840	88.558	309.642	143.622	361.515	374.722	388.660	83.283	91.512	241.601	378.856	325.069	165.182	0.0028717	0.00078136	5.0693e-05	793.61	7.4273e-06	5.39e-06	867.65	292.24	6.7511e-06	2.4094e-06	400.63	168.89	110.39	52	3.6491e-06	92.843	0.00020073	0.00015425	4.4882e-05	716.54	1.7615e-06	1.6905e-06	778.17	260.25	1.7729e-06	1.6373e-06	355.2	150.32	92.477	46.506	1.7813e-06	82.989	355.748	89.469	180.631	60.500	187.060	158.280	60.400	65.233	148.231	219.079	64.691	69.093	70.883	74.486	217.650	72.685	-8191	255	
8002.500	1	1	0	0	0.092693	0.14124	0.30593	0.27947	0.13171	0.14511	0.10882	0.092083	0.17495	0.028386	0.27126	0.086156	0.1063	0.3365	0.064273	0.24691	-2.2438	-2.2958	-3.0229	-2.5667	-2.5625	-2.7646	-2.2812	-2.9188	-2.4875	-2.275	-3.0271	-2.4813	-2.4708	-2.9562	-2.2146	-3.1437	337.734	220.842	306.715	379.849	274.234	100.514	301.924	358.759	323.714	183.534	370.863	262.595	269.495	86.583	98.945	368.918	0.002443	0.00084157	0.00019426	797.82	6.1428e-06	5.3136e-06	875.09	293.36	3.2701e-06	4.3123e-06	403.84	170.34	111.59	52.507	1.312e-05	94.339	0.00019705	0.00015332	4.7582e-05	717.79	1.7052e-06	1.6763e-06	785.01	260.8	1.7666e-06	1.7096e-06	356.99	151.58	93.62	46.962	1.9469e-06	83.887	359.368	114.024	124.954	60.699	164.037	143.085	60.340	65.345	126.040	182.604	64.538	69.475	70.330	74.306	202.909	73.117	-8191	255	
8002.596	1	1	0	0	0.12931	0.040321	0.17951	0.24331	0.18647	0.30804	0.096964	0.13451	0.041119	0.1396	0.18696	0.38769	0.1726	0.20929	0.16581	0.14706	-2.3333	-2.2687	-2.8667	-2.6604	-2.3688	-2.8917	-2.3458	-2.9208	-2.9479	-2.1771	-2.9896	-2.6375	-2.3937	-2.8229	-2.1688	-2.8375	331.475	167.874	133.497	389.233	349.581	66.620	234.458	283.139	67.175	80.030	54.370	350.984	305.271	363.072	221.897	295.306	0.0025566	0.00090256	0.00027354	802.81	1.2156e-05	4.8993e-06	880.17	294.28	1.2418e-06	3.0668e-06	403.62	172.56	111.02	52.598	3.8898e-06	93.673	0.00018999	0.00015804	4.8464e-05	723.25	1.6755e-06	1.7222e-06	787.38	263.81	1.7564e-06	1.7163e-06	359.76	152.87	93.665	47.076	1.9304e-06	83.498	358.021	113.305	155.093	60.352	158.550	127.392	60.001	65.033	165.833	187.171	64.707	69.451	70.065	74.180	175.335	73.225	-8191	255	
8002.692	1	1	0	0	0.20987	0.27136	0.27581	0.10655	0.11868	0.23057	0.19733	0.15994	0.20245	0.15921	0.097731	0.2049	0.32706	0.22126	0.22078	0.19387	-2.3104	-2.275	-3.0375	-2.4229	-2.3708	-2.9917	-2.3792	-2.7896	-2.6708	-2.1667	-2.9792	-2.6562	-2.2896	-3.0479	-2.2146	-2.6333	64.739	190.227	101.522	199.679	141.495	171.841	306.389	257.022	268.212	332.548	335.319	348.719	353.704	53.847	117.179	247.593	0.0025213	0.00060975	6.1613e-05	798.17	9.4456e-06	6.5424e-06	868.47	291.32	6.9803e-06	7.985e-06	401.15	168.65	110.67	51.267	1.964e-06	91.806	0.00018867	0.00016502	4.8449e-05	717.69	1.6677e-06	1.8493e-06	779.21	259.83	1.734e-06	1.8114e-06	355.14	150.25	91.907	45.979	1.8921e-06	81.806	365.449	111.184	241.752	60.658	156.945	167.398	60.304	65.632	188.199	195.544	64.281	69.471	70.198	74.683	211.405	72.867	-8191	255	
8002.789	1	1	0	0	0.14616	0.38009	0.11448	0.21365	0.22744	0.021453	0.099973	0.062904	0.071323	0.18279	0.21774	0.11235	0.117	0.2696	0.083678	0.073052	-2.1437	-2.375	-2.6625	-2.5812	-2.3479	-2.8479	-2.2583	-2.6833	-2.775	-2.3125	-2.8042	-2.8125	-2.4104	-2.9021	-2.3979	-2.5917	319.411	351.690	119.762	325.978	331.159	328.179	100.099	354.548	76.885	128.007	309.101	174.619	71.128	313.185	200.175	357.322	0.0024995	0.00026692	0.00018981	792.89	8.7641e-06	6.7171e-06	866.74	288.87	1.1963e-05	6.0494e-06	399.03	167.92	110.87	51.436	5.7794e-06	91.985	0.00018735	0.00017173	4.6733e-05	715.15	1.6685e-06	1.8741e-06	778.78	258.45	1.704e-06	1.9226e-06	352.99	148.92	92.032	45.897	1.8586e-06	81.681	357.959	315.895	145.346	60.485	197.612	199.627	60.272	65.631	165.246	197.694	64.974	69.610	70.398	74.367	160.893	72.768	-8191	255	
8002.885	1	1	0	0	0.13927	0.097716	0.14691	0.15584	0.15119	0.092455	0.29187	0.27909	0.18271	0.34223	0.15733	0.23636	0.20256	0.32955	0.065941	0.14992	-2.4708	-2.0354	-2.6792	-2.8063	-2.2521	-2.8812	-2.5292	-2.4271	-2.9833	-2.2875	-2.8063	-2.9313	-2.1917	-2.9313	-2.5667	-2.3604	350.165	189.655	61.069	144.555	153.834	56.548	349.756	253.282	236.922	125.627	57.690	393.235	286.181	55.294	55.322	389.115	0.002456	0.00018207	0.00015677	796.59	8.1441e-06	2.7422e-07	867.68	291.1	9.8056e-06	5.7385e-06	398.23	168.88	110.92	51.89	3.6271e-06	92.608	0.00018991	0.00017552	4.501e-05	714.64	1.7436e-06	1.8974e-06	778.51	258.53	1.7294e-06	1.9113e-06	353.21	149.99	92.395	46.237	1.7665e-06	82.362	359.857	174.160	155.358	60.752	157.950	164.216	60.299	65.168	183.372	168.109	64.338	68.945	70.173	74.413	243.410	72.869	-8191	255	
8003.005	1	1	0	0	0.047358	0.27939	0.16165	0.21566	0.13111	0.15718	0.26396	0.11976	0.1454	0.27851	0.19032	0.28169	0.039283	0.11534	0.19912	0.5032	-2.6042	-2.3083	-2.6625	-2.8063	-2.1188	-2.6979	-2.675	-2.4104	-2.8958	-2.3396	-2.5896	-2.9354	-2.0854	-2.9167	-2.7458	-2.3708	146.088	361.198	164.597	402.264	142.733	291.644	319.883	348.682	406.419	59.580	365.427	313.713	191.892	66.366	363.366	309.298	0.0025743	0.00037251	0.00011912	805.08	4.3492e-06	1.4625e-06	869.51	291.51	9.6862e-06	2.4536e-06	401.13	169.8	111.42	51.987	5.4571e-06	93.667	0.00019913	0.00017686	4.3452e-05	719.08	1.875e-06	1.9051e-06	783.86	259.89	1.8268e-06	1.8756e-06	356.55	151.24	93.617	46.46	1.7591e-06	83.155	355.675	116.332	104.430	60.484	159.596	82.706	60.692	65.473	237.967	206.170	64.115	69.324	70.400	74.345	179.436	72.905	-8191	255	
8003.101	1	1	0	0	0.31145	0.12157	0.094538	0.20589	0.086976	0.13672	0.12753	0.24878	0.033858	0.10455	0.18341	0.18669	0.21748	0.14009	0.10305	0.36607	-2.4896	-2.2542	-2.2854	-2.9979	-2.3333	-2.925	-2.9771	-2.35	-2.8396	-2.4	-2.6708	-2.9062	-2.0563	-2.7438	-2.7583	-2.4188	60.698	101.514	182.941	382.824	89.972	183.499	93.415	50.915	309.878	333.032	314.675	365.039	81.179	339.258	149.483	341.985	0.0023997	0.00056613	5.0344e-05	803.81	9.777e-06	5.331e-06	872.15	292.42	3.5751e-06	2.3015e-06	401.74	169.99	111.25	51.77	2.8146e-06	93.181	0.00020483	0.00016339	4.2929e-05	721.28	1.918e-06	1.8416e-06	783.73	261.09	1.9449e-06	1.8102e-06	357.18	151.88	93.227	46.381	1.7401e-06	83.03	360.490	81.747	131.219	60.654	141.810	171.193	60.214	65.406	171.616	140.477	64.690	69.560	70.258	74.485	241.342	72.888	-8191	255	
8003.198	1	1	0	0	0.097221	0.086497	0.25072	0.11315	0.10517	0.25604	0.19788	0.31625	0.063654	0.22734	0.42923	0.38588	0.14664	0.20971	0.03081	0.10729	-2.4625	-2.5167	-2.3563	-2.9833	-2.2396	-2.7562	-2.8	-2.3063	-2.9292	-2.4417	-2.3312	-3.0167	-2.3021	-2.5646	-2.6688	-2.3583	303.505	340.143	265.085	253.068	342.697	57.570	140.740	265.184	219.294	240.632	389.807	369.441	210.976	375.679	360.524	361.820	0.002411	0.00066007	0.00015184	798.22	2.4673e-06	5.037e-06	866.36	290.38	1.0643e-05	3.3796e-06	399.76	168.94	110.97	51.172	5.1193e-06	92.26	0.0002093	0.00016022	4.1901e-05	718.63	1.9385e-06	1.7776e-06	778.97	259.06	1.918e-06	1.7086e-06	353.63	149.8	92.155	45.763	1.6429e-06	82.033	368.173	69.229	86.001	60.721	170.829	175.222	60.184	65.448	198.472	198.665	64.218	69.407	70.247	74.277	242.464	72.952	-8191	255	
8003.269	1	1	0	0	0.056555	0.27391	0.22452	0.2666	0.088247	0.14371	0.20846	0.15659	0.31619	0.17773	0.01168	0.38139	0.080522	0.13818	0.15482	0.28926	-2.4583	-2.3604	-2.3625	-3.0521	-2.3354	-2.4646	-2.8875	-2.2583	-2.825	-2.5521	-2.2979	-3.0167	-2.2896	-2.4562	-2.8333	-2.3583	78.087	133.047	363.467	390.157	283.290	345.394	404.617	268.574	72.196	206.061	96.248	65.882	151.616	118.339	162.867	351.894	0.0025838	0.00038422	0.00023692	792.75	1.0417e-05	4.7872e-06	866.18	287.77	5.4484e-06	5.1397e-06	400.54	168	109	51.553	5.873e-06	91.964	0.00020076	0.00015767	4.1598e-05	715.45	1.8127e-06	1.7354e-06	778.98	257.72	1.8227e-06	1.6389e-06	353.35	149.47	91.881	45.892	1.6898e-06	82.025	359.962	53.156	126.360	60.460	173.570	226.474	60.262	65.563	200.437	251.171	64.378	69.554	69.948	74.379	181.665	72.770	-8191	255	
8003.365	1	1	0	0	0.10721	0.016306	0.17306	0.082675	0.21691	0.11081	0.21036	0.021793	0.21599	0.055386	0.17137	0.25539	0.08303	0.21506	0.26228	0.10098	-2.2229	-2.4958	-2.1625	-3.1188	-2.45	-2.6604	-3.0417	-2.3667	-2.7521	-2.7313	-2.4042	-3.0687	-2.5062	-2.4396	-2.8479	-2.5417	219.093	275.427	262.402	270.837	230.756	134.734	340.192	48.190	157.853	323.655	387.306	74.578	357.844	401.893	102.625	375.461	0.0023956	0.00093121	0.00022523	800.59	8.438e-06	5.1904e-07	866.77	288.81	1.1126e-05	3.5627e-06	398.61	168.78	109.23	51.55	3.615e-06	92.5	0.00019325	0.00015552	4.3463e-05	718.95	1.8327e-06	1.6493e-06	778.6	258.96	1.7542e-06	1.6435e-06	354.32	150.37	91.557	46.07	1.7789e-06	82.596	360.866	92.250	102.146	60.664	176.275	188.193	60.242	65.552	178.085	162.708	64.790	69.271	70.459	74.552	102.334	73.383	-8191	255	
8003.484	1	1	0	0	0.12237	0.08205	0.3427	0.041538	0.083637	0.17599	0.37943	0.33172	0.084145	0.0047875	0.25987	0.20282	0.26072	0.1406	0.10063	0.18965	-2.3521	-2.8083	-2.225	-2.9437	-2.5354	-2.3583	-3.0896	-2.3083	-2.5938	-2.7542	-2.4396	-2.9708	-2.7146	-2.5625	-2.9562	-2.4021	111.434	320.169	354.219	300.515	59.092	380.111	298.942	51.492	146.426	54.918	391.499	48.204	74.121	177.210	271.178	385.035	0.0021481	0.00033727	3.6648e-05	795.13	5.8307e-06	2.7541e-06	875.59	291.85	2.6229e-06	4.7067e-06	404.72	172.67	112.04	52.235	7.8153e-06	93.16	0.00019279	0.00014999	4.5327e-05	718.09	1.7641e-06	1.632e-06	787.43	261.18	1.7964e-06	1.6101e-06	358.99	152.92	92.979	46.624	1.8525e-06	83.456	352.888	120.697	390.582	60.465	181.623	121.777	60.375	65.511	232.522	136.427	64.437	69.249	70.666	74.541	222.257	73.321	-8191	255	
8003.581	1	1	0	0	0.19041	0.076688	0.46222	0.13975	0.18181	0.084911	0.2508	0.10126	0.12103	0.073115	0.14604	0.2563	0.08105	0.26484	0.17264	0.1544	-2.0771	-2.6604	-2.1188	-2.8688	-2.4458	-2.4875	-3.0146	-2.6917	-2.4188	-2.9125	-2.1854	-3.0646	-2.6292	-2.4729	-2.9	-2.4833	221.012	241.622	240.340	263.927	351.508	55.606	375.204	147.273	167.433	129.854	329.273	390.847	259.564	98.160	100.156	374.144	0.0023113	0.00052728	0.00015335	807.6	7.0941e-06	5.3079e-06	880.31	292.02	8.2027e-06	3.2846e-06	404.38	172.65	111.86	51.916	5.6558e-06	93.633	0.00019187	0.00015217	4.7202e-05	725.46	1.7325e-06	1.6616e-06	790.75	261.9	1.716e-06	1.6593e-06	359.72	152.6	93.274	46.441	1.9201e-06	83.296	368.704	131.362	145.979	60.493	161.280	138.604	60.118	65.591	153.141	194.651	64.857	69.255	70.748	74.218	168.973	73.079	-8191	255	
8003.677	1	1	0	0	0.20366	0.15216	0.35119	0.2272	0.12055	0.11664	0.18834	0.35078	0.1093	0.21429	0.26862	0.21348	0.36984	0.19792	0.32228	0.14918	-2.1854	-2.9625	-2.1021	-2.7333	-2.5896	-2.2458	-2.9042	-2.4104	-2.5125	-2.8417	-2.1833	-2.7833	-2.8	-2.2917	-2.9604	-2.7604	70.764	206.113	288.410	243.435	188.781	403.125	379.225	402.215	321.902	371.281	68.665	402.605	73.978	90.006	263.027	381.847	0.0023355	0.00053025	0.00033759	801.63	9.5919e-07	4.3263e-06	871.67	290.26	8.4865e-06	4.6563e-06	397.65	169.84	110.29	51.412	2.4804e-06	91.897	0.00018346	0.00015928	4.8678e-05	721.22	1.6781e-06	1.7801e-06	783.62	259.92	1.6507e-06	1.7401e-06	355.4	150.44	92.196	46.037	1.8742e-06	82.001	360.368	115.889	121.975	60.633	269.709	158.106	60.303	65.792	181.659	154.657	64.733	69.195	70.508	74.708	180.048	73.142	-8191	255	
8003.797	1	1	0	0	0.062128	0.23254	0.18367	0.0424	0.10449	0.16742	0.19366	0.2764	0.23247	0.20453	0.36086	0.046555	0.14058	0.18524	0.1728	0.10193	-2.0604	-2.8458	-2.2958	-2.6604	-3.0042	-2.1917	-2.8917	-2.5167	-2.3667	-3.0625	-2.3729	-2.4833	-2.8479	-2.25	-2.8125	-2.9396	96.473	357.695	200.738	249.252	124.269	283.517	311.818	398.412	172.937	96.742	393.848	369.483	323.805	47.843	101.026	357.128	0.0026438	0.00033858	0.00022513	798.74	5.3657e-06	4.4116e-06	872.95	293.01	4.7462e-06	5.2184e-06	402.04	168.83	110.89	51.98	1.855e-06	93.348	0.00018411	0.00016354	4.68e-05	718.04	1.6634e-06	1.8152e-06	782.67	260.09	1.6841e-06	1.827e-06	355.65	150.44	92.76	46.459	1.867e-06	82.776	358.314	99.663	94.430	60.193	175.551	172.894	59.971	65.472	164.947	223.301	64.240	69.097	70.301	73.922	197.325	73.149	-8191	255	
8003.869	1	1	0	0	0.082133	0.15017	0.16403	0.1908	0.23124	0.16475	0.085813	0.32794	0.051356	0.014859	0.15741	0.18352	0.16744	0.11901	0.032234	0.45399	-1.8729	-2.8083	-2.4958	-2.4688	-2.8875	-2.3	-2.7958	-2.6917	-2.2646	-2.9854	-2.3896	-2.3875	-2.8458	-2.2875	-2.8292	-2.7771	117.679	201.665	80.904	52.333	210.041	224.182	61.994	68.089	164.365	315.922	121.742	400.038	363.731	389.797	396.590	394.464	0.0024827	0.00062567	0.00025365	811.18	7.981e-06	8.047e-06	878.3	295.63	1.1692e-05	3.2115e-06	404.15	171.9	112.88	52.554	5.2835e-06	94.399	0.00018646	0.00017179	4.6549e-05	726.69	1.7223e-06	1.9544e-06	789.06	263.07	1.7852e-06	1.89e-06	358.82	152.54	94.017	47.027	1.8101e-06	83.518	364.705	81.334	172.104	60.604	183.029	171.182	60.315	65.535	172.891	134.537	64.594	69.125	70.567	74.458	211.012	73.090	-8191	255	
8003.965	1	1	0	0	0.10767	0.076211	0.19719	0.28582	0.3711	0.01307	0.25303	0.091574	0.099521	0.13703	0.082083	0.037422	0.12427	0.25795	0.079758	0.26993	-1.6562	-2.675	-2.3958	-2.4667	-3.0417	-2.0667	-2.7104	-2.9396	-2.0958	-2.8438	-2.6354	-2.3792	-2.8833	-2.3167	-2.4833	-2.8688	149.373	346.287	375.671	84.433	173.643	358.747	407.664	51.788	331.655	105.602	75.774	106.564	348.535	381.020	207.795	367.645	0.0026798	0.00023574	8.1135e-05	811.05	3.8602e-06	3.7441e-06	884.33	295.76	5.7075e-06	5.6308e-06	411.33	174.48	114.2	53.066	5.6198e-06	95.533	0.00019674	0.00017455	4.5367e-05	730.32	1.8305e-06	1.9396e-06	794.42	265.23	1.8131e-06	1.9152e-06	363.39	154.15	95.284	47.51	1.7865e-06	84.772	357.832	322.813	126.009	60.448	158.985	265.116	60.416	65.998	192.124	226.884	64.639	69.221	71.031	74.509	257.170	73.354	-8191	255	
8004.086	1	1	0	0	0.10801	0.12194	0.32188	0.059454	0.21159	0.020976	0.16259	0.13089	0.17002	0.31943	0.25255	0.2994	0.19195	0.17464	0.099769	0.31237	-1.7417	-2.6833	-2.6125	-2.4854	-2.8812	-2.4958	-2.6	-2.9271	-2.075	-2.8542	-2.8438	-2.3333	-2.9729	-2.4104	-2.5021	-3.0958	392.703	121.057	280.112	377.773	195.556	252.379	400.743	364.906	59.062	226.068	101.612	399.675	154.978	316.215	92.859	341.822	0.0024778	0.00067399	0.00012161	818.27	9.1056e-06	1.1917e-06	889.03	298.78	6.2008e-06	1.9404e-06	408.93	174.75	114.64	53.073	6.0371e-06	95.074	0.00020318	0.00017555	4.4618e-05	734.97	1.9091e-06	1.8901e-06	799.59	266.21	1.9352e-06	1.8136e-06	362.92	154.49	95.7	47.465	1.7369e-06	84.493	361.849	105.614	149.077	60.312	173.830	50.790	60.052	65.363	164.668	123.144	64.698	69.413	70.958	74.894	202.461	73.366	-8191	255	
8004.182	1	1	0	0	0.20112	0.17272	0.1631	0.22584	0.27543	0.17288	0.35842	0.25462	0.24177	0.11569	0.10547	0.035196	0.03322	0.22689	0.17679	0.40636	-1.8813	-2.7625	-2.5938	-2.3771	-2.8917	-2.4542	-2.5104	-2.8708	-2.3792	-2.7583	-2.5521	-2.3333	-2.9333	-2.5542	-2.3875	-2.9562	380.968	96.914	304.517	158.182	191.138	296.984	400.666	334.461	152.687	187.832	406.320	88.232	220.905	50.187	139.415	370.967	0.0025048	0.00036905	0.00020368	811.66	6.7499e-06	6.7143e-06	886.44	297.97	6.117e-06	4.3593e-06	407.5	171.16	113.68	52.319	4.1034e-06	93.763	0.00021147	0.00016356	4.343e-05	730.08	1.9329e-06	1.7725e-06	793.16	264.85	1.9509e-06	1.8079e-06	359.92	152.58	94.375	46.782	1.6905e-06	83.213	363.397	91.759	70.386	60.281	167.723	199.077	59.946	65.512	170.415	108.427	64.598	69.424	70.076	74.622	196.443	73.230	-8191	255	
8004.278	1	1	0	0	0.10764	0.27527	0.13729	0.31454	0.15067	0.17299	0.26616	0.31708	0.15632	0.15667	0.11178	0.079461	0.08538	0.2171	0.3877	0.22749	-1.7792	-2.6417	-2.8229	-2.3	-2.8896	-2.5729	-2.525	-2.8792	-2.0021	-2.5438	-2.8812	-2.2812	-3.0458	-2.6646	-2.375	-3.0021	314.996	200.782	88.383	396.688	90.877	390.375	350.392	50.605	206.467	75.220	276.410	393.278	195.276	397.758	315.269	394.883	0.002475	0.0008834	0.00010767	802.79	9.2156e-06	5.6719e-06	879.75	294.18	5.3227e-06	7.0517e-06	401.74	168.75	110.16	51.337	7.6532e-06	92.514	0.00020662	0.00016265	4.3522e-05	725.07	1.9192e-06	1.7131e-06	786.09	262.09	1.8914e-06	1.7273e-06	355.47	150.08	92.909	45.895	1.6976e-06	82.118	356.613	74.672	138.028	60.114	184.632	144.577	60.050	65.728	221.107	191.556	65.143	69.211	71.038	74.434	182.831	73.214	-8191	255	
8004.397	1	1	0	0	0.23377	0.11176	0.099498	0.23796	0.16584	0.10462	0.16444	0.072289	0.08943	0.090412	0.20345	0.14358	0.1153	0.11087	0.14665	0.19852	-1.9667	-2.3542	-2.9521	-2.4396	-2.8146	-2.6833	-2.4104	-3	-2.4292	-2.5417	-3.0312	-2.1813	-2.6188	-2.7021	-2.0938	-3.1229	207.194	398.770	222.842	378.963	355.980	162.320	168.345	369.756	84.570	402.060	339.124	105.066	284.259	306.954	265.089	52.314	0.0024568	0.00044543	0.00016264	810.98	1.1778e-06	5.4454e-06	882.82	294.86	1.8505e-06	2.4729e-06	404.09	171.21	112.03	52.459	1.015e-05	93.612	0.00020479	0.0001562	4.3546e-05	728.09	1.8934e-06	1.7689e-06	790.34	263.3	1.9266e-06	1.7647e-06	358.79	152.45	93.945	46.845	1.8222e-06	83.444	362.892	101.853	140.216	60.263	180.695	143.764	60.102	65.441	109.497	222.454	64.662	69.268	70.627	74.706	198.451	73.353	-8191	255	
8004.469	1	1	0	0	0.26252	0.25161	0.14455	0.11471	0.063333	0.19611	0.15481	0.090671	0.13941	0.18714	0.047946	0.16641	0.12607	0.2804	0.1013	0.2216	-1.9021	-2.4188	-2.8167	-2.3625	-2.6562	-2.8312	-2.4271	-3.0958	-2.2875	-2.4042	-2.9458	-2.3271	-2.5917	-2.7833	-2.1417	-2.9542	119.624	74.237	280.301	109.292	298.020	158.225	237.288	219.756	144.617	173.681	287.194	78.951	124.334	72.460	379.544	305.628	0.0023813	0.00037821	0.00015036	816.78	8.169e-06	1.529e-06	886.82	297.6	7.3137e-06	4.919e-06	407.56	173.55	113.89	53.13	7.6795e-06	95.355	0.00020826	0.00016057	4.7092e-05	733.07	1.8496e-06	1.7422e-06	796.24	266.92	1.8843e-06	1.7181e-06	364.23	154.24	95.432	47.467	1.9153e-06	84.792	358.713	125.603	125.920	60.545	162.917	201.287	60.399	65.527	183.162	161.758	64.574	69.159	70.182	74.798	205.269	73.420	-8191	255	
8004.565	1	1	0	0	0.071636	0.18394	0.083079	0.11596	0.053824	0.13231	0.20309	0.34657	0.17673	0.13018	0.23978	0.044881	0.19404	0.12687	0.16542	0.132	-1.9937	-2.2396	-2.9104	-2.4688	-2.6583	-2.8979	-2.4688	-2.9542	-2.5521	-2.3708	-2.8208	-2.3458	-2.5604	-2.9688	-2.1813	-3.0042	389.175	186.966	259.512	202.883	363.934	217.551	247.822	335.550	385.787	372.960	168.816	155.447	299.705	307.081	198.223	373.723	0.0024145	0.00038571	2.6876e-05	823.48	5.4383e-06	3.0105e-06	899.56	301.89	1.0095e-06	5.5251e-06	414.86	175.2	115.57	53.08	6.0393e-06	94.696	0.00020156	0.00016042	4.9464e-05	739.4	1.8151e-06	1.7652e-06	806.58	269.66	1.8109e-06	1.7794e-06	367.5	155.82	95.71	47.614	1.9481e-06	84.236	363.226	132.435	301.958	60.401	209.390	176.942	60.200	65.470	62.848	214.341	64.612	69.321	70.585	74.717	206.900	72.688	-8191	255	
8004.661	1	1	0	0	0.10217	0.48442	0.094729	0.11795	0.02544	0.20129	0.15211	0.23211	0.1619	0.15984	0.096364	0.22804	0.13102	0.09674	0.044805	0.061118	-2.1729	-2.15	-2.9333	-2.425	-2.3542	-3.0979	-2.2521	-2.8042	-2.7792	-2.0729	-2.8729	-2.5396	-2.3958	-2.9167	-2.4958	-2.7708	331.781	210.023	309.197	63.537	320.405	194.162	321.850	311.873	278.882	246.408	247.096	320.858	176.738	89.270	86.035	65.584	0.0023765	0.0010141	0.0002228	818.69	6.8934e-06	6.8559e-06	888.22	298.42	6.1719e-06	1.3662e-06	411.44	174.77	113.18	53.195	7.5429e-06	94.311	0.00019857	0.0001594	4.8949e-05	735.81	1.7576e-06	1.8125e-06	798.93	267.35	1.7385e-06	1.7637e-06	365.39	154.62	95.124	47.575	2.0102e-06	83.934	366.687	110.990	129.102	60.484	185.380	142.131	60.150	65.596	146.676	138.416	64.783	69.178	70.943	74.486	183.499	72.959	-8191	255	
8004.780	1	1	0	0	0.18518	0.23222	0.19956	0.083933	0.10914	0.12415	0.31622	0.13263	0.17464	0.042759	0.16003	0.31425	0.11898	0.25637	0.2185	0.25583	-2.4562	-2.1521	-2.9625	-2.5875	-2.4292	-3.0104	-2.3917	-2.8042	-2.6188	-2.1208	-2.8583	-2.6375	-2.3125	-3.1479	-2.3396	-2.8542	343.235	179.747	286.331	176.805	144.413	87.664	68.374	337.845	271.092	97.290	71.882	55.357	136.770	399.967	338.274	54.294	0.0024497	0.00069165	0.00015724	818.2	5.8397e-06	7.2984e-06	890.81	299.79	1.3572e-05	4.9981e-06	412.21	174.47	114.23	53.143	2.4219e-06	94.375	0.00019222	0.00016421	4.9247e-05	736.47	1.7277e-06	1.8475e-06	798.61	266.98	1.7407e-06	1.8856e-06	364.73	154.42	95.224	47.556	1.9411e-06	83.971	364.036	117.785	162.310	60.287	178.086	158.026	60.420	65.870	174.847	210.985	64.264	69.333	70.021	74.585	161.385	72.894	-8191	255	
8004.876	1	1	0	0	0.14665	0.18732	0.26836	0.19146	0.2054	0.23804	0.024393	0.066919	0.2902	0.32544	0.18845	0.069379	0.25096	0.11951	0.15103	0.11362	-2.4854	-2.1458	-2.7771	-2.5396	-2.3563	-3.0187	-2.4375	-2.6167	-2.8625	-2.425	-2.8417	-2.7146	-2.3083	-2.9833	-2.5708	-2.6521	238.133	335.015	88.706	61.320	268.594	293.048	272.361	354.727	81.576	265.847	53.589	69.298	268.513	302.707	147.280	348.791	0.0024416	0.00076065	0.00026347	817.1	5.0353e-06	5.8866e-06	889.27	298.39	9.1402e-06	6.7683e-06	411.41	174.92	113.65	52.953	5.3865e-06	95.174	0.00019343	0.00017489	4.7119e-05	735.87	1.7319e-06	1.9317e-06	798.75	266.62	1.7345e-06	1.9479e-06	365.24	154.91	95.224	47.643	1.8747e-06	84.503	357.653	112.526	115.304	60.227	200.307	210.245	60.020	65.168	208.479	171.219	64.591	69.406	70.395	74.866	170.288	73.142	-8191	255	
8004.972	1	1	0	0	0.1934	0.13488	0.033804	0.18559	0.0096694	0.11744	0.1565	0.25348	0.039885	0.16577	0.20321	0.18187	0.1457	0.040627	0.1786	0.14045	-2.4396	-2.2542	-2.7375	-2.8083	-2.2417	-2.8792	-2.6792	-2.4625	-2.9833	-2.2125	-2.6354	-2.5979	-2.2938	-2.9437	-2.4292	-2.475	404.190	69.834	400.499	336.108	345.175	225.652	394.936	67.015	218.099	104.778	358.484	363.402	55.677	394.603	242.617	210.852	0.0025064	0.00064378	0.00020967	825.31	3.6544e-06	1.2637e-06	897.17	300.58	7.8738e-06	4.9957e-06	413.61	176.3	114.44	53.863	8.9581e-06	95.804	0.00019868	0.00018211	4.7874e-05	740.21	1.7847e-06	1.9475e-06	805.23	268.09	1.8035e-06	2.0111e-06	366.97	156.12	96.179	48.289	1.8647e-06	85.405	355.799	109.618	167.198	60.472	194.614	157.912	60.180	65.564	195.028	141.834	64.508	69.386	70.647	74.804	175.909	72.863	-8191	255	
8005.068	1	1	0	0	0.10722	0.17117	0.27489	0.21097	0.25594	0.059753	0.11843	0.1389	0.15503	0.25411	0.14526	0.11709	0.12519	0.1577	0.13715	0.37163	-2.7438	-2.2229	-2.4688	-2.7938	-2.4771	-2.8563	-2.6958	-2.5458	-2.8312	-2.3563	-2.7062	-2.8667	-2.1021	-3.0042	-2.4458	-2.575	169.824	191.953	189.654	407.280	94.758	92.444	267.612	49.334	160.707	142.074	356.906	317.925	304.427	399.174	98.457	335.793	0.0024788	0.00015747	0.00012431	826.86	8.8166e-06	8.5953e-06	899.08	304.19	6.7544e-06	6.3088e-06	412.63	177.34	114.5	53.907	4.5082e-06	95.377	0.00021105	0.00018091	4.5512e-05	744.68	1.9594e-06	1.9356e-06	806.49	269.87	1.9394e-06	1.9597e-06	367.2	156.68	96.443	48.19	1.7995e-06	84.984	353.267	304.110	188.392	60.682	201.125	169.181	60.462	65.567	249.478	184.735	64.366	69.746	70.293	74.764	187.610	73.117	-8191	255	
8005.164	1	1	0	0	0.18895	0.121	0.12212	0.289	0.20465	0.19393	0.11739	0.11416	0.14409	0.25087	0.13888	0.14351	0.06716	0.19483	0.18667	0.10075	-2.5542	-2.3104	-2.6312	-2.9958	-2.1521	-2.8688	-2.6979	-2.35	-2.8333	-2.5896	-2.6396	-2.8729	-2.3354	-2.8104	-2.6521	-2.3	277.008	180.826	242.206	390.466	387.716	383.578	153.568	248.377	340.910	138.860	325.395	365.080	300.655	350.567	245.130	73.068	0.0025697	0.00051567	0.00018409	825.35	6.8224e-06	4.472e-06	888.97	300.05	2.7634e-06	1.3998e-06	410.91	172.58	114.25	52.796	5.9908e-06	94.371	0.0002175	0.00017446	4.4669e-05	739.97	1.9569e-06	1.8425e-06	798.45	267	1.9474e-06	1.8299e-06	362.92	153.72	95.401	47.23	1.7446e-06	83.714	367.422	106.424	144.413	60.634	136.999	146.519	60.302	65.613	123.001	80.047	64.587	69.827	70.212	74.567	186.300	73.092	-8191	255	
8005.261	1	1	0	0	0.1893	0.036199	0.092624	0.073749	0.14482	0.055757	0.17509	0.15645	0.14746	0.22207	0.064031	0.070908	0.13369	0.12951	0.20904	0.2823	-2.4667	-2.5333	-2.4333	-3	-2.3708	-2.6583	-3.0146	-2.2833	-2.9833	-2.3458	-2.5917	-2.9729	-2.3438	-2.5854	-2.8625	-2.3979	386.649	181.710	48.947	281.816	338.596	336.803	300.947	57.547	359.016	185.560	311.554	341.352	284.032	280.713	164.957	314.870	0.0025575	0.00041621	0.00023242	816.53	1.8838e-06	4.2208e-06	888.5	296.53	1.1134e-05	6.3241e-06	410.81	173.92	114.11	53.233	5.7351e-06	94.276	0.00021124	0.00016555	4.2057e-05	733.24	1.9246e-06	1.7678e-06	796.93	264.71	1.9508e-06	1.7837e-06	362.77	153.62	95.02	47.399	1.7299e-06	83.667	359.851	108.332	130.934	60.450	77.988	165.130	60.466	65.620	182.297	205.948	65.030	69.258	70.467	74.455	128.330	72.962	-8191	255	
8005.357	1	1	0	0	0.085768	0.10759	0.28321	0.20052	0.19321	0.14361	0.030463	0.05852	0.048676	0.17597	0.19177	0.22335	0.056765	0.21448	0.054923	0.3494	-2.4208	-2.5187	-2.2333	-3.0146	-2.1375	-2.5896	-2.825	-2.2896	-2.8542	-2.6437	-2.5812	-3.1042	-2.3729	-2.6875	-2.7833	-2.4313	92.504	221.983	125.938	80.904	266.777	303.776	281.033	340.774	339.889	101.805	351.415	71.035	255.826	372.624	351.768	359.521	0.0026534	0.00063192	5.6332e-05	819.39	5.0819e-06	6.0558e-06	891.47	298.92	5.7799e-06	3.3627e-06	409.13	173.33	114.45	52.845	2.5436e-06	94.311	0.00020959	0.00015854	4.2317e-05	737.2	1.8841e-06	1.7407e-06	797.64	266.46	1.8785e-06	1.7364e-06	362.24	154.4	95.596	47.366	1.7189e-06	83.957	361.946	118.621	102.638	60.688	236.399	206.218	60.563	65.529	174.738	177.294	64.752	69.382	70.662	74.392	117.163	73.221	-8191	255	
8005.477	1	1	0	0	0.088941	0.19754	0.10486	0.089386	0.082989	0.15345	0.21563	0.17978	0.22569	0.097502	0.10155	0.084707	0.11843	0.1244	0.30484	0.029251	-2.4729	-2.65	-2.0625	-3.1063	-2.3771	-2.3854	-2.9396	-2.375	-2.7146	-2.8021	-2.3438	-2.9792	-2.4938	-2.4833	-2.8917	-2.4333	237.204	228.123	359.892	65.847	75.023	280.619	303.915	49.993	399.663	87.790	207.099	238.040	154.504	66.606	371.706	362.118	0.0027873	0.00031926	0.00021756	818.65	5.6702e-06	5.9121e-06	892.67	299.71	1.0467e-05	4.707e-06	408.03	174.1	113.35	52.981	4.0634e-06	94.687	0.00020317	0.00015843	4.2675e-05	737.45	1.7913e-06	1.6946e-06	798.8	266.21	1.8388e-06	1.7211e-06	362.32	154.48	94.794	47.342	1.7604e-06	84.243	365.067	152.959	122.250	60.743	213.910	156.130	60.298	65.729	129.819	242.083	64.766	69.567	70.652	74.442	188.386	73.061	-8191	255	
8005.573	1	1	0	0	0.35958	0.26629	0.19132	0.061718	0.32885	0.17397	0.18464	0.1905	0.18536	0.18275	0.32519	0.22087	0.13335	0.24035	0.062659	0.34451	-2.375	-2.8833	-2.2479	-3.0333	-2.6	-2.4271	-3.0979	-2.3521	-2.4417	-2.8729	-2.2104	-2.9646	-2.75	-2.6146	-2.9292	-2.575	214.707	265.735	373.250	240.010	357.977	315.970	283.467	51.289	159.491	131.471	402.968	352.212	153.912	281.353	103.942	291.638	0.0022702	0.00042154	0.00020699	820.7	3.6303e-06	6.4955e-06	886.3	297.36	2.2807e-06	2.6153e-06	406.55	172.86	112.22	52.59	1.0886e-05	94.024	0.00019095	0.00015541	4.3318e-05	736.78	1.7547e-06	1.6147e-06	798.49	265.36	1.7517e-06	1.632e-06	361.25	153.7	94.023	46.926	1.8151e-06	83.638	358.557	113.950	173.490	60.401	232.767	165.837	60.434	65.375	235.434	230.652	64.698	69.495	70.735	74.750	211.080	73.368	-8191	255	
8005.670	1	1	0	0	0.080375	0.051267	0.25708	0.13824	0.1689	0.08068	0.17068	0.16658	0.12082	0.17691	0.19682	0.040049	0.12608	0.3336	0.3785	0.030973	-2.1688	-2.8333	-2.1125	-2.8958	-2.7375	-2.1667	-3.0979	-2.1917	-2.5792	-2.8312	-2.1792	-2.7708	-2.5396	-2.325	-2.9792	-2.5812	69.989	180.638	190.721	58.498	110.511	270.249	329.675	383.856	196.294	376.895	63.447	362.308	398.820	397.109	301.638	246.118	0.0026322	0.00068738	0.000215	812.65	1.1602e-05	2.4194e-06	878.87	290.84	3.6795e-06	8.2458e-06	403.68	169.2	110.09	51.589	3.1044e-06	91.893	0.00018984	0.000149	4.6176e-05	729.66	1.6575e-06	1.581e-06	791.2	260.68	1.6493e-06	1.6082e-06	356.69	150.63	92.039	45.946	1.7886e-06	81.806	358.165	123.342	134.341	60.792	179.420	198.861	60.296	65.422	135.085	207.471	64.758	69.214	70.705	74.512	215.632	73.253	-8191	255	
8005.766	1	1	0	0	0.086466	0.084718	0.13338	0.074086	0.34813	0.23527	0.10625	0.2	0.040324	0.11559	0.291	0.054347	0.27697	0.38946	0.15251	0.25822	-2.0812	-2.8208	-2.2875	-2.7313	-2.7604	-2.2687	-2.8792	-2.4	-2.2875	-2.8729	-2.2958	-2.7396	-2.6542	-2.4958	-3.0854	-2.6792	287.553	400.954	47.945	257.003	271.221	387.666	68.718	83.627	332.887	89.489	372.677	339.064	85.088	146.263	174.066	360.404	0.0025931	0.00099635	0.00022264	802.61	2.4975e-06	8.1655e-06	874.06	291.11	8.1274e-06	7.2292e-06	400.67	168.37	110.36	51.385	8.5073e-06	91.549	0.00018025	0.00015114	4.741e-05	722.63	1.6557e-06	1.6563e-06	785.82	258.82	1.6635e-06	1.7355e-06	355.19	149.5	91.826	45.764	1.8412e-06	81.601	357.290	145.554	175.412	60.483	385.613	208.762	60.559	65.485	163.347	234.485	64.558	69.151	70.470	74.381	204.303	73.040	-8191	255	
8005.860	1	1	0	0	0.25942	0.055255	0.20054	0.18262	0.34593	0.15494	0.28506	0.2282	0.25773	0.21369	0.27463	0.16259	0.11084	0.17478	0.1182	0.48332	-1.7104	-2.8563	-2.1562	-2.5833	-2.6646	-2.1667	-2.8187	-2.5521	-2.1875	-3.0333	-2.3563	-2.6083	-2.9062	-2.2	-2.7979	-2.7792	99.455	292.437	313.852	358.258	127.804	169.356	348.741	320.408	326.319	291.031	306.368	364.420	273.392	355.391	72.683	366.553	0.0024737	0.0004365	0.00015919	809.13	2.5778e-06	2.9921e-06	868.31	290.8	1.3064e-05	2.6781e-06	398.56	168.51	108.86	51.36	4.2763e-06	91.593	0.000179	0.00016225	4.6139e-05	723.58	1.5886e-06	1.7525e-06	782.91	258.56	1.5882e-06	1.7475e-06	353.84	149.11	91.117	45.721	1.7787e-06	81.554	364.215	82.146	110.840	60.319	188.964	272.028	60.266	65.740	173.851	235.693	64.604	69.268	70.761	74.501	169.769	73.256	-8191	255	
8005.956	1	1	0	0	0.214	0.25502	0.25334	0.22504	0.14954	0.035148	0.19053	0.229	0.14778	0.081324	0.38027	0.20031	0.2042	0.31445	0.26224	0.16209	-1.7958	-2.8208	-2.2708	-2.4667	-2.6208	-2.1979	-2.8708	-2.5521	-2.225	-2.8458	-2.3438	-2.4417	-2.8604	-2.325	-2.6354	-2.9062	292.418	239.208	259.332	388.334	286.248	315.424	89.094	406.853	126.348	173.457	339.903	79.705	177.065	65.367	254.865	389.090	0.0024737	0.00089585	9.4911e-05	802.96	4.8104e-06	5.5655e-06	879.15	291.5	6.8819e-06	1.5418e-06	400.97	170.24	111	51.531	3.2104e-06	92.88	0.00017885	0.00016959	4.3971e-05	721.75	1.6422e-06	1.8495e-06	786.15	258.83	1.6558e-06	1.817e-06	354.33	150.13	91.774	46.006	1.6661e-06	82.407	359.214	97.754	184.229	60.331	210.967	158.630	60.383	65.576	196.531	194.711	64.704	69.142	70.675	74.559	166.504	73.263	-8191	255	
8006.077	1	1	0	0	0.2059	0.12293	0.19066	0.15116	0.18952	0.21691	0.27168	0.11596	0.15288	0.13593	0.23992	0.28151	0.1552	0.21467	0.051891	0.27894	-1.8	-2.7521	-2.375	-2.3458	-2.8021	-2.25	-2.6937	-2.7667	-2.3646	-2.9938	-2.4625	-2.3438	-2.9958	-2.2417	-2.4938	-2.7604	213.253	398.053	344.146	82.592	181.895	318.451	69.679	262.071	223.167	317.800	383.551	342.747	221.358	386.209	214.860	309.418	0.0026748	0.00058265	0.0001932	811.14	4.0196e-06	6.6051e-06	883.62	291.73	1.1157e-05	5.8189e-06	402.97	170.01	110.92	51.185	2.4926e-06	92.19	0.00018773	0.00016915	4.3372e-05	726.52	1.7376e-06	1.8233e-06	790.05	260.21	1.7256e-06	1.8244e-06	356.43	150.26	92.026	45.854	1.6907e-06	82.045	362.166	125.251	141.572	60.210	179.339	180.330	60.340	65.690	142.334	140.724	64.668	69.209	70.779	74.135	204.929	73.108	-8191	255	
8006.173	1	1	0	0	0.29606	0.10843	0.20028	0.093041	0.20149	0.27846	0.26128	0.22022	0.32386	0.21404	0.19362	0.16694	0.19116	0.42562	0.16565	0.29764	-1.5875	-2.9062	-2.5292	-2.3854	-2.8729	-2.35	-2.7375	-2.8563	-2.2646	-2.8792	-2.7396	-2.2083	-2.9104	-2.2625	-2.5833	-2.9	73.985	263.617	387.404	100.716	117.469	211.305	365.240	368.507	99.431	112.512	97.673	332.970	215.878	78.043	67.434	378.957	0.0027075	0.00035359	0.00018126	801.61	7.7307e-06	5.2187e-06	873.28	288.71	2.5027e-06	1.9328e-06	394.25	166.25	109.78	50.386	1.0582e-05	90.643	0.0001955	0.00016515	4.2778e-05	720.1	1.7542e-06	1.7807e-06	782.09	256.58	1.8208e-06	1.7185e-06	350.32	147.79	90.848	45.063	1.6023e-06	80.59	360.410	386.400	125.674	60.792	178.341	161.024	60.392	65.464	190.887	185.488	64.448	69.165	70.734	74.546	245.635	73.192	-8191	255	
8006.269	1	1	0	0	0.092828	0.047942	0.1608	0.49789	0.040825	0.19052	0.40174	0.2303	0.058276	0.073221	0.26666	0.098905	0.20023	0.19132	0.035025	0.21644	-1.9208	-2.6854	-2.4958	-2.4354	-2.9792	-2.3271	-2.3542	-2.8187	-2.1271	-2.7771	-2.7562	-2.2646	-3.0542	-2.3896	-2.3042	-2.7729	63.578	280.837	152.467	302.760	370.941	259.904	372.691	284.357	199.731	65.075	327.687	328.022	352.096	390.915	388.113	321.751	0.0022751	0.0004464	0.00016073	800.97	2.5005e-06	5.8019e-06	864.66	288.11	6.8688e-06	5.3337e-06	391.77	166.43	107.81	49.9	6.6666e-06	90.754	0.00019378	0.00015395	4.1694e-05	719.14	1.796e-06	1.691e-06	776.54	255.8	1.8113e-06	1.6328e-06	347.83	147.1	90.618	44.938	1.5838e-06	80.666	364.410	124.122	192.608	60.306	113.613	126.353	60.169	65.101	234.996	213.268	64.938	69.307	71.052	74.528	212.025	73.019	-8191	255	
8006.365	1	1	0	0	0.19411	0.14714	0.18796	0.2701	0.065624	0.1247	0.060101	0.21038	0.39774	0.1329	0.049569	0.21509	0.066631	0.19611	0.2249	0.076295	-1.9958	-2.5729	-2.6854	-2.425	-2.8688	-2.5042	-2.2729	-2.7938	-2.175	-2.675	-2.8646	-2.1813	-2.8979	-2.7458	-2.375	-3.0729	265.136	332.446	75.967	61.091	70.340	337.886	343.661	294.118	170.137	195.777	388.106	78.030	147.411	383.743	243.894	47.889	0.0026473	0.00035923	0.00016186	802.75	5.3922e-06	8.6048e-06	869.21	287.86	7.1573e-06	3.317e-06	398.22	167.31	107.6	50.709	9.0861e-06	91.838	0.0001958	0.00014564	4.0008e-05	721.4	1.8045e-06	1.655e-06	781.55	256.89	1.8068e-06	1.6367e-06	350.91	148.5	90.908	45.475	1.6113e-06	81.69	362.660	117.011	146.626	60.374	212.477	199.330	60.250	65.700	142.685	168.832	64.851	69.133	70.421	74.659	198.994	73.182	-8191	255	
8006.462	1	1	0	0	0.11618	0.090102	0.073123	0.14721	0.096952	0.1932	0.10729	0.12177	0.24204	0.076414	0.15743	0.10791	0.11779	0.16935	0.17914	0.11458	-1.9958	-2.5687	-2.6312	-2.3833	-2.7396	-2.6875	-2.3958	-3.0417	-2.1437	-2.55	-2.9458	-2.4062	-2.7625	-2.8729	-2.3125	-3.0271	280.452	143.309	84.061	357.360	229.642	326.397	117.017	315.653	154.726	160.842	316.167	156.609	401.048	362.327	52.588	372.217	0.0023164	0.00033227	0.00018986	807.28	8.0594e-06	4.3584e-06	883.24	291.39	5.813e-06	5.3732e-06	401.81	170.34	110.63	51.693	3.69e-06	93.31	0.00019627	0.00014662	3.9136e-05	728.7	1.7338e-06	1.6233e-06	791.39	260.01	1.7371e-06	1.5928e-06	355.49	150.46	92.61	46.251	1.6196e-06	83.007	356.534	57.991	143.559	60.356	197.376	164.514	60.050	65.734	134.841	177.245	64.880	69.532	70.892	74.901	217.667	73.513	-8191	255	
8006.558	1	1	0	0	0.18707	0.046518	0.14459	0.38081	0.10258	0.19789	0.22613	0.3025	0.042501	0.11507	0.13878	0.2483	0.099918	0.18847	0.19866	0.040509	-1.7896	-2.3146	-2.8458	-2.1917	-2.7646	-2.6729	-2.2125	-3.0146	-2.5417	-2.3792	-3.1729	-2.3187	-2.5646	-2.7188	-2.3125	-2.9146	399.056	230.654	115.521	347.489	223.456	86.036	356.003	370.423	75.924	346.701	318.409	372.906	368.763	97.978	102.438	318.051	0.0026104	0.00031528	0.000237	815.22	4.1315e-06	4.2624e-06	879.9	293.61	6.6908e-06	5.7181e-06	405.32	171.52	110.97	52.152	7.9987e-06	93.42	0.0001893	0.00014244	4.1804e-05	733.03	1.6577e-06	1.5742e-06	793.26	262.2	1.7134e-06	1.5517e-06	358.03	152.06	92.807	46.589	1.7512e-06	83.112	361.815	112.550	125.427	60.453	128.630	116.682	60.236	65.765	190.331	180.693	64.708	69.448	70.759	74.502	250.727	73.440	-8191	255	
8006.654	1	1	0	0	0.30238	0.18161	0.11906	0.16901	0.094442	0.073638	0.2947	0.18568	0.17608	0.033844	0.30377	0.3206	0.27189	0.078757	0.046666	0.10014	-2.1562	-2.2667	-2.8917	-2.3875	-2.6625	-2.8229	-2.2917	-2.8229	-2.5438	-2.375	-2.9875	-2.3708	-2.5	-2.85	-2.2979	-3.0417	295.063	356.190	205.872	369.510	289.722	178.873	186.236	362.445	150.588	303.048	306.535	350.774	318.738	342.114	188.642	311.820	0.0027034	0.00021631	0.0001329	808.82	4.5023e-06	4.2812e-06	876.11	292.16	1.1156e-05	2.9695e-06	402.12	169.48	110.42	51.268	7.1073e-06	92.02	0.00018391	0.00014288	4.3892e-05	731.49	1.6796e-06	1.5636e-06	789.64	260.73	1.6713e-06	1.609e-06	355.59	149.74	91.679	45.82	1.8048e-06	81.493	356.999	104.476	86.919	60.726	212.602	136.036	60.250	65.719	166.707	193.374	64.671	69.693	70.723	74.670	213.535	73.191	-8191	255	
8006.750	1	1	0	0	0.14794	0.26259	0.045951	0.092766	0.14797	0.16361	0.41227	0.089176	0.016647	0.14398	0.089854	0.10732	0.055929	0.32866	0.13391	0.15703	-2.1646	-2.2667	-2.7792	-2.4917	-2.5625	-2.9062	-2.3229	-2.8312	-2.8375	-2.4271	-3.0833	-2.4479	-2.5667	-2.9875	-2.1208	-2.9333	337.467	334.502	283.754	397.984	313.156	287.412	351.549	193.842	319.886	67.358	130.642	286.455	251.409	383.445	392.323	275.034	0.0022917	0.0009546	0.00032915	807.3	1.0503e-05	4.8306e-06	874.37	291.64	8.3049e-06	2.6349e-06	401.05	168.66	109.57	51.275	4.6322e-06	92.2	0.00018192	0.00014564	4.6168e-05	725.6	1.6301e-06	1.5929e-06	786.19	259.72	1.6309e-06	1.6115e-06	355.06	149.4	91.845	45.97	1.7984e-06	81.917	357.637	82.349	135.119	60.465	191.459	176.841	60.214	65.660	226.711	191.318	64.593	69.290	70.234	74.651	153.670	73.063	-8191	255	
8006.869	1	1	0	0	0.070156	0.15348	0.10293	0.13138	0.14634	0.14949	0.097208	0.14915	0.24655	0.19785	0.16076	0.096241	0.22208	0.11466	0.1475	0.28338	-2.25	-2.2521	-2.9938	-2.5271	-2.3875	-2.8792	-2.5771	-2.75	-2.7833	-2.3333	-2.7792	-2.6958	-2.4229	-3.0687	-2.3229	-2.8271	147.011	307.623	310.595	141.235	268.937	88.238	341.624	382.973	339.300	351.575	341.267	189.458	64.734	237.441	56.163	329.786	0.002479	0.0005179	0.00015617	812.71	6.8175e-06	6.8401e-06	875.58	293.67	7.7978e-06	5.0367e-06	403.28	170.59	111.03	51.896	8.5256e-06	93.663	0.00018013	0.0001497	4.5444e-05	729.55	1.5785e-06	1.6882e-06	789.04	261.71	1.6548e-06	1.7107e-06	357.68	151.13	92.938	46.384	1.8389e-06	82.757	359.024	56.762	137.552	60.390	211.233	167.294	60.429	65.297	170.904	208.032	64.678	69.128	70.873	74.815	253.167	73.428	-8191	255	
8006.965	1	1	0	0	0.14936	0.017815	0.14618	0.059403	0.37027	0.17152	0.10071	0.22207	0.19935	0.21588	0.19018	0.12091	0.1455	0.18589	0.050926	0.22123	-2.4479	-2.2104	-2.8708	-2.7562	-2.3104	-3.0729	-2.4917	-2.5458	-2.9062	-2.3208	-2.9125	-2.6833	-2.4313	-2.9792	-2.2458	-2.75	221.656	350.316	112.962	66.651	73.962	335.356	228.209	331.716	130.419	118.902	333.794	359.366	360.974	313.900	107.227	278.547	0.0023232	0.00085222	0.00017202	819.37	1.1563e-05	9.6349e-06	884.29	296.78	7.7374e-06	4.2895e-06	409.57	172.9	113.2	52.715	8.3724e-06	94.117	0.00018018	0.00015924	4.5281e-05	735.38	1.594e-06	1.805e-06	796.37	264.07	1.6755e-06	1.8116e-06	361.74	153.21	93.807	47.021	1.8081e-06	83.741	364.160	111.953	136.403	60.571	191.871	162.515	60.267	65.528	161.841	191.950	64.711	69.461	70.626	74.544	230.917	73.053	-8191	255	
8007.038	1	1	0	0	0.085638	0.19011	0.17493	0.070537	0.20502	0.42321	0.11148	0.26679	0.046203	0.12976	0.075894	0.17827	0.12271	0.14209	0.1091	0.15773	-2.4292	-2.0708	-2.7125	-2.8	-2.4437	-3.1	-2.3833	-2.5479	-2.8521	-2.4938	-2.8375	-2.8208	-2.1625	-2.9437	-2.6833	-2.4771	276.904	376.734	238.770	128.410	219.720	241.590	338.668	376.654	96.197	280.502	351.100	79.104	320.672	330.503	275.253	291.639	0.0024851	0.00053426	0.00010047	818.03	7.1176e-06	5.5414e-06	887.4	296.67	4.8856e-06	6.8036e-06	407.58	173.32	112.82	53.096	5.3669e-06	94.268	0.00018167	0.00016542	4.3681e-05	735.63	1.6325e-06	1.8069e-06	799.76	265.2	1.733e-06	1.8503e-06	362.61	153.91	94.581	47.367	1.7137e-06	83.717	363.699	101.455	185.410	60.257	193.585	188.852	60.239	65.862	142.917	188.953	64.873	69.310	70.584	74.773	180.723	73.349	-8191	255	
8007.157	1	1	0	0	0.16451	0.092495	0.046825	0.27114	0.27782	0.11087	0.13184	0.064595	0.07625	0.11604	0.13079	0.21258	0.29383	0.46475	0.14075	0.18353	-2.4375	-2.2854	-2.4083	-2.7354	-2.0521	-2.9625	-2.5312	-2.4	-2.8375	-2.2083	-2.6479	-2.8229	-2.0417	-3.0646	-2.6396	-2.3417	303.503	362.727	149.581	102.065	80.712	198.028	91.941	238.977	290.530	145.275	249.688	392.169	393.127	48.130	401.007	315.248	0.002676	0.00063627	5.8042e-05	818.98	4.6898e-06	5.9619e-06	881.69	294.63	5.7963e-06	4.5888e-06	404.58	170.78	111.97	51.921	6.4507e-06	92.759	0.00019181	0.00016585	4.287e-05	733.33	1.7501e-06	1.7926e-06	790.7	262.72	1.7482e-06	1.7792e-06	358.12	151.16	93.34	46.459	1.6736e-06	82.248	358.600	87.884	100.448	60.275	160.553	174.013	60.602	65.499	146.478	176.881	64.287	69.335	71.204	74.556	187.530	72.853	-8191	255	
8007.253	1	1	0	0	0.17586	0.25753	0.12217	0.12827	0.056432	0.093264	0.21019	0.27919	0.17012	0.054041	0.21234	0.12023	0.22469	0.27291	0.15456	0.14577	-2.55	-2.3438	-2.4167	-2.975	-2.2708	-2.6354	-2.8271	-2.3604	-2.9188	-2.6333	-2.5563	-2.8417	-2.1521	-2.7375	-2.8229	-2.4625	299.660	406.777	217.305	405.633	247.417	219.025	352.274	51.207	299.497	374.928	404.197	124.594	400.424	373.700	161.884	349.696	0.0025383	0.00020264	0.00010266	816.42	8.2349e-06	8.3196e-06	881.91	294.47	5.3736e-06	3.0954e-06	402.52	170.06	110.94	51.614	2.7779e-06	92.279	0.00019625	0.00015896	4.1044e-05	730.5	1.8306e-06	1.7368e-06	789.55	261.85	1.8337e-06	1.7343e-06	356.49	150.63	93.284	46.248	1.6563e-06	82.001	354.275	168.942	116.720	60.426	182.870	214.528	60.277	65.655	154.185	181.143	64.463	69.339	71.172	74.506	133.828	72.992	-8191	255	
8007.350	1	1	0	0	0.093314	0.12615	0.090429	0.21041	0.15994	0.14456	0.12818	0.070407	0.091691	0.16487	0.14983	0.22157	0.17106	0.11486	0.19828	0.19915	-2.5438	-2.3979	-2.3	-2.9958	-2.2146	-2.5729	-2.7562	-2.1542	-2.9771	-2.5354	-2.4021	-2.7521	-2.2458	-2.7333	-2.6	-2.2938	308.885	322.704	100.563	88.106	256.168	335.875	125.068	317.541	299.614	215.398	394.488	320.157	104.736	312.472	246.447	96.004	0.0022502	0.00071225	0.00019441	813.16	5.4039e-06	4.3882e-06	873.3	295.21	4.1011e-06	3.7279e-06	403.25	170.51	112.31	52.144	2.7658e-06	92.681	0.00019742	0.00015675	4.0848e-05	729.47	1.846e-06	1.6295e-06	785.2	262.15	1.8434e-06	1.6762e-06	356.95	151.16	93.744	46.55	1.6103e-06	82.46	362.720	138.252	138.475	60.640	192.639	205.759	60.528	65.307	168.430	172.066	64.270	69.289	70.572	74.578	215.850	72.905	-8191	255	
8007.470	1	1	0	0	0.13828	0.21884	0.1563	0.093942	0.14643	0.17093	0.033586	0.10401	0.13018	0.11837	0.18586	0.2959	0.16424	0.19986	0.36677	0.10209	-2.4167	-2.5042	-2.2333	-3	-2.3187	-2.3063	-2.8792	-2.2021	-2.8583	-2.6312	-2.4146	-2.9854	-2.3688	-2.6562	-2.9313	-2.3333	399.693	251.459	246.383	62.241	81.611	347.898	56.876	362.228	147.215	126.033	67.206	331.880	150.871	64.472	335.705	349.864	0.0027361	0.00050776	0.00022972	813.29	4.7632e-06	7.2169e-06	883.25	294.64	8.8893e-06	4.432e-06	403.65	170.85	111.12	51.95	4.8886e-06	92.875	0.0001987	0.00015037	4.0704e-05	734.6	1.759e-06	1.6322e-06	794.45	263.19	1.7861e-06	1.619e-06	357.04	151.22	93.14	46.457	1.6349e-06	82.513	360.654	123.432	117.999	60.740	204.487	133.332	60.480	65.518	190.588	178.729	64.429	69.742	70.945	74.905	161.904	73.388	-8191	255	
8007.566	1	1	0	0	0.24517	0.19102	0.088433	0.31822	0.10043	0.16043	0.1859	0.27564	0.11549	0.22487	0.043909	0.17797	0.049374	0.26526	0.251	0.17874	-2.4	-2.5771	-2.2083	-3.0687	-2.2917	-2.5208	-2.975	-2.0563	-2.6813	-2.5958	-2.1479	-2.9104	-2.2146	-2.4396	-2.875	-2.3563	80.718	183.459	203.159	47.838	322.371	141.980	231.709	326.666	352.846	242.317	59.619	320.613	369.970	127.134	187.882	406.871	0.0024097	0.00045775	0.00024413	820.3	9.2966e-06	5.0991e-06	882.87	294.89	7.3396e-06	7.3958e-06	400.81	170.51	111.46	51.265	7.9166e-06	91.798	0.00019183	0.00014945	4.0734e-05	737.72	1.7506e-06	1.6257e-06	792.16	263.29	1.7532e-06	1.5974e-06	355.79	150.73	92.612	45.942	1.7508e-06	81.647	365.501	87.509	151.768	60.835	190.096	157.430	60.535	65.623	162.643	191.279	65.162	69.595	71.320	75.031	184.762	73.248	-8191	255	
8007.638	1	1	0	0	0.39152	0.17512	0.10925	0.24379	0.24982	0.21317	0.2884	0.052756	0.19113	0.21332	0.2557	0.12434	0.22165	0.013245	0.13413	0.059249	-2.3396	-2.7479	-2.0771	-2.8625	-2.5208	-2.3583	-2.9646	-2.3167	-2.4021	-2.7979	-2.1312	-3.0187	-2.5125	-2.2708	-2.8521	-2.3167	114.635	212.756	176.058	344.380	167.119	407.127	283.614	266.736	353.377	308.215	60.137	293.516	203.194	133.757	285.855	389.519	0.0026034	0.00060544	0.00017115	812.45	6.1962e-06	2.1794e-06	870.26	290.01	8.1439e-06	6.1108e-06	393.72	166.09	108.31	50.47	4.6694e-06	89.676	0.00018573	0.00014577	4.21e-05	729.16	1.6584e-06	1.5472e-06	783.45	258.36	1.6014e-06	1.5539e-06	349.62	147.18	90.383	44.971	1.7059e-06	79.892	359.918	132.292	138.378	60.554	208.336	158.161	60.499	66.250	173.766	151.073	65.371	69.448	71.294	75.145	153.595	73.730	-8191	255	
8007.759	1	1	0	0	0.20546	0.25831	0.31091	0.14501	0.10625	0.25432	0.18718	0.37353	0.27298	0.13667	0.21822	0.14647	0.19622	0.11683	0.14043	0.087804	-2.1292	-2.7542	-1.9646	-2.875	-2.3396	-2.1979	-2.9229	-2.2687	-2.5146	-2.8375	-2.2333	-2.8896	-2.6875	-2.2208	-3.0208	-2.4833	67.754	235.147	370.835	72.123	366.136	360.623	404.921	370.285	303.717	186.346	405.225	362.476	70.495	386.080	274.549	132.610	0.0025458	0.00036606	0.00012459	810.13	7.1473e-06	6.2592e-06	871.44	287.93	3.9815e-06	5.8865e-06	390.76	165.5	107.77	50.2	3.6778e-06	89.588	0.0001777	0.00014328	4.3585e-05	726.4	1.6414e-06	1.5304e-06	779.33	256.9	1.5803e-06	1.5963e-06	347.13	146.03	90.031	44.838	1.7908e-06	79.374	361.300	186.552	162.946	61.117	183.414	166.500	60.879	66.211	184.522	229.146	65.425	70.138	71.554	75.045	200.609	73.392	-8191	255	
8007.853	1	1	0	0	0.19538	0.2127	0.098628	0.16665	0.02473	0.33286	0.413	0.074056	0.29294	0.1075	0.13535	0.28459	0.24462	0.26876	0.33664	0.20657	-1.8833	-2.8104	-2.1167	-2.7854	-2.8312	-2.3958	-3.0875	-2.5604	-2.3896	-3.0042	-2.4188	-2.8625	-2.8021	-2.4	-2.9292	-2.6229	244.832	336.188	343.911	107.377	113.268	352.414	368.068	196.999	59.054	223.753	346.184	398.204	209.683	59.241	50.318	285.714	0.0022731	0.00068016	0.00017309	808.01	5.7372e-06	1.9113e-06	868.88	286.5	7.6325e-06	5.4803e-06	394.6	164.92	107.78	50.473	3.3821e-06	89.769	0.00017791	0.00014664	4.4999e-05	722.56	1.622e-06	1.5867e-06	780.17	255.8	1.5481e-06	1.661e-06	348.19	146	89.667	44.865	1.7497e-06	79.829	361.528	142.592	132.463	60.993	202.836	149.367	61.083	66.616	172.407	173.465	65.538	70.095	70.980	75.009	238.826	73.910	-8191	255	
8007.949	1	1	0	0	0.21522	0.19894	0.042563	0.084896	0.13187	0.2248	0.22581	0.16128	0.22019	0.17833	0.16805	0.11997	0.10168	0.41611	0.1805	0.039661	-1.8937	-2.9125	-2.175	-2.6292	-2.7333	-2.2146	-3.0833	-2.6646	-2.4188	-3.1042	-2.475	-2.6479	-2.975	-2.3708	-2.9542	-2.6979	218.369	293.699	310.704	247.607	401.532	119.464	267.024	264.152	83.426	289.603	253.636	336.356	102.388	114.120	200.071	310.677	0.0025165	0.00043855	0.00015546	808.09	9.8064e-06	1.0154e-05	874.05	292.24	7.719e-06	4.8956e-06	395.62	167.26	110.41	50.914	2.564e-06	90.899	0.00017235	0.00015247	4.3566e-05	725.4	1.5514e-06	1.7214e-06	784.31	258.53	1.5444e-06	1.6868e-06	350.28	147.69	91.14	45.341	1.6987e-06	80.605	360.440	109.509	114.724	61.350	213.108	156.794	61.094	66.834	193.849	164.488	66.106	70.534	71.566	75.685	195.594	74.390	-8191	255	
8008.045	1	1	0	0	0.22621	0.053868	0.13498	0.28351	0.18507	0.20014	0.16472	0.20349	0.039052	0.24206	0.13074	0.12804	0.19345	0.15333	0.21174	0.14362	-1.8375	-2.9833	-2.4396	-2.4896	-2.7875	-2.1583	-3.0396	-2.7271	-2.2771	-2.9146	-2.6917	-2.6292	-2.8896	-2.3333	-2.8042	-2.9479	238.594	135.816	185.325	396.481	127.716	102.287	235.149	330.615	245.752	52.298	95.238	339.274	114.290	64.557	350.545	371.876	0.0025451	0.00035984	7.2232e-05	802.91	2.412e-06	8.1291e-06	877.22	287.51	1.0663e-05	2.6675e-06	394.61	166.38	109.28	51.09	3.5606e-06	91.413	0.00017352	0.00015456	4.2712e-05	721.99	1.589e-06	1.7227e-06	783.66	256.01	1.608e-06	1.6819e-06	348.82	146.8	90.697	45.44	1.5984e-06	80.851	356.731	110.905	96.008	61.581	208.591	175.040	61.523	66.790	155.461	135.200	66.158	70.767	71.613	75.769	224.258	74.709	-8191	255	
#DATA ENDS
