BOXY.EXE: ISS Imagent and Oximeter Data Acquisition Program Version 0.80
Ascii Record File

#ACQ INFORMATION
2  Detector Channels 
16  External MUX Channels 
1  Auxiliary Channels 
5000  Waveform (CCF) Frequency (Hz)
1  Waveforms Skipped 
30  Waveforms Averaged 
1  Cycles Averaged 
16  Acquisitions per Waveform 
10.0806  Updata Rate (Hz) 

#FILE INFORMATION
TRUE -- External MUX Channel results are PARSED.
FALSE -- AC DC and Phase are NOT grouped.
TRUE -- Companion Program Settings File CREATED.
FALSE -- AC data not excluded
FALSE -- DC data not excluded
FALSE -- Phase data not excluded
FALSE -- Auxillary Chn. data not excluded
Tab delimiters

#CALIBRATION STATE
TRUE -- Waveform Calibration Values APPLIED.


#AUX CALIBRATION VALUES
Val Type	aux-1	

Term	1.0000e+00	
Factor	0.0000e+00	


#WF CALIBRATION VALUES
A = Detector Channel
Val Type	A-AC1	A-AC2	A-AC3	A-AC4	A-AC5	A-AC6	A-AC7	A-AC8	A-AC9	A-AC10	A-AC11	A-AC12	A-AC13	A-AC14	A-AC15	A-AC16	A-DC1	A-DC2	A-DC3	A-DC4	A-DC5	A-DC6	A-DC7	A-DC8	A-DC9	A-DC10	A-DC11	A-DC12	A-DC13	A-DC14	A-DC15	A-DC16	A-Ph1	A-Ph2	A-Ph3	A-Ph4	A-Ph5	A-Ph6	A-Ph7	A-Ph8	A-Ph9	A-Ph10	A-Ph11	A-Ph12	A-Ph13	A-Ph14	A-Ph15	A-Ph16	

Term	0.00000e+00	0.00000e+00	0.00000e+00	0.00000e+00	0.00000e+00	0.00000e+00	0.00000e+00	0.00000e+00	0.00000e+00	0.00000e+00	0.00000e+00	0.00000e+00	0.00000e+00	0.00000e+00	0.00000e+00	0.00000e+00	0.00000e+00	0.00000e+00	0.00000e+00	0.00000e+00	0.00000e+00	0.00000e+00	0.00000e+00	0.00000e+00	0.00000e+00	0.00000e+00	0.00000e+00	0.00000e+00	0.00000e+00	0.00000e+00	0.00000e+00	0.00000e+00	0.00000e+00	0.00000e+00	0.00000e+00	0.00000e+00	0.00000e+00	0.00000e+00	0.00000e+00	0.00000e+00	0.00000e+00	0.00000e+00	0.00000e+00	0.00000e+00	0.00000e+00	0.00000e+00	0.00000e+00	0.00000e+00	
Factor	1.00000e+00	1.00000e+00	1.00000e+00	1.00000e+00	1.00000e+00	1.00000e+00	1.00000e+00	1.00000e+00	1.00000e+00	1.00000e+00	1.00000e+00	1.00000e+00	1.00000e+00	1.00000e+00	1.00000e+00	1.00000e+00	1.00000e+00	1.00000e+00	1.00000e+00	1.00000e+00	1.00000e+00	1.00000e+00	1.00000e+00	1.00000e+00	1.00000e+00	1.00000e+00	1.00000e+00	1.00000e+00	1.00000e+00	1.00000e+00	1.00000e+00	1.00000e+00	X	X	X	X	X	X	X	X	X	X	X	X	X	X	X	X	

B = Detector Channel
Val Type	B-AC1	B-AC2	B-AC3	B-AC4	B-AC5	B-AC6	B-AC7	B-AC8	B-AC9	B-AC10	B-AC11	B-AC12	B-AC13	B-AC14	B-AC15	B-AC16	B-DC1	B-DC2	B-DC3	B-DC4	B-DC5	B-DC6	B-DC7	B-DC8	B-DC9	B-DC10	B-DC11	B-DC12	B-DC13	B-DC14	B-DC15	B-DC16	B-Ph1	B-Ph2	B-Ph3	B-Ph4	B-Ph5	B-Ph6	B-Ph7	B-Ph8	B-Ph9	B-Ph10	B-Ph11	B-Ph12	B-Ph13	B-Ph14	B-Ph15	B-Ph16	

Term	0.00000e+00	0.00000e+00	0.00000e+00	0.00000e+00	0.00000e+00	0.00000e+00	0.00000e+00	0.00000e+00	0.00000e+00	0.00000e+00	0.00000e+00	0.00000e+00	0.00000e+00	0.00000e+00	0.00000e+00	0.00000e+00	0.00000e+00	0.00000e+00	0.00000e+00	0.00000e+00	0.00000e+00	0.00000e+00	0.00000e+00	0.00000e+00	0.00000e+00	0.00000e+00	0.00000e+00	0.00000e+00	0.00000e+00	0.00000e+00	0.00000e+00	0.00000e+00	-2.51673e+01	-1.09131e+02	-1.36792e+02	-1.83698e+02	-1.38176e+01	-7.28325e+01	-1.57869e+02	-1.62015e+02	-6.96302e+01	-9.69870e+01	-1.72092e+02	-1.75791e+02	-1.89181e+02	-1.78194e+02	-7.65473e+01	-1.51485e+02	
Factor	2.82887e-05	9.62443e-05	2.62348e-05	1.61568e-01	9.06967e-07	1.03337e-06	1.67683e-01	6.49704e-02	1.10886e-06	1.02177e-06	1.02924e-01	3.36800e-02	8.03786e-02	9.68118e-03	9.66469e-07	1.40111e-02	7.08911e-07	7.21329e-07	2.01149e-07	7.90580e-02	7.90081e-09	7.90084e-09	7.70976e-02	3.12878e-02	7.89045e-09	7.89930e-09	4.70277e-02	1.53915e-02	3.30660e-02	4.62330e-03	7.91615e-09	6.40668e-03	X	X	X	X	X	X	X	X	X	X	X	X	X	X	X	X	



#DISTANCE SETTINGS
A = Detector Channel
A-1	A-2	A-3	A-4	A-5	A-6	A-7	A-8	A-9	A-10	A-11	A-12	A-13	A-14	A-15	A-16	

2.5000e+00	3.0000e+00	2.5000e+00	3.0000e+00	2.0000e+00	3.0000e+00	1.5000e+00	3.0000e+00	3.0000e+00	3.0000e+00	3.0000e+00	3.0000e+00	3.0000e+00	3.0000e+00	1.5000e+00	3.0000e+00	

B = Detector Channel
B-1	B-2	B-3	B-4	B-5	B-6	B-7	B-8	B-9	B-10	B-11	B-12	B-13	B-14	B-15	B-16	

1.0000e+01	1.0000e+01	1.0000e+01	1.4400e+00	1.0000e+01	1.0000e+01	1.5100e+00	1.9400e+00	1.0000e+01	1.0000e+01	1.9900e+00	2.4900e+00	2.4100e+00	2.9000e+00	1.0000e+01	2.9800e+00	




#DATA BEGINS
time	group	step	mark	flag	A-AC1	A-AC2	A-AC3	A-AC4	A-AC5	A-AC6	A-AC7	A-AC8	A-AC9	A-AC10	A-AC11	A-AC12	A-AC13	A-AC14	A-AC15	A-AC16	A-DC1	A-DC2	A-DC3	A-DC4	A-DC5	A-DC6	A-DC7	A-DC8	A-DC9	A-DC10	A-DC11	A-DC12	A-DC13	A-DC14	A-DC15	A-DC16	A-Ph1	A-Ph2	A-Ph3	A-Ph4	A-Ph5	A-Ph6	A-Ph7	A-Ph8	A-Ph9	A-Ph10	A-Ph11	A-Ph12	A-Ph13	A-Ph14	A-Ph15	A-Ph16	B-AC1	B-AC2	B-AC3	B-AC4	B-AC5	B-AC6	B-AC7	B-AC8	B-AC9	B-AC10	B-AC11	B-AC12	B-AC13	B-AC14	B-AC15	B-AC16	B-DC1	B-DC2	B-DC3	B-DC4	B-DC5	B-DC6	B-DC7	B-DC8	B-DC9	B-DC10	B-DC11	B-DC12	B-DC13	B-DC14	B-DC15	B-DC16	B-Ph1	B-Ph2	B-Ph3	B-Ph4	B-Ph5	B-Ph6	B-Ph7	B-Ph8	B-Ph9	B-Ph10	B-Ph11	B-Ph12	B-Ph13	B-Ph14	B-Ph15	B-Ph16	aux-1	digaux	

3043.884	1	1	0	768	0.20444	0.13353	0.074471	0.14664	0.14328	0.10027	0.19295	0.081015	0.10516	0.12626	0.26113	0.21213	0.15814	0.073555	0.31157	0.19899	-2.3417	-2.4417	-2.2083	-2.9417	-2.1708	-2.2583	-2.9	-2.1833	-2.525	-2.4542	-2.2	-2.85	-2.1875	-2.2812	-2.6646	-1.9875	51.912	-118.846	1.228	-124.457	8.880	177.914	116.008	-103.676	224.633	83.700	150.817	-61.951	-46.539	-98.977	51.127	221.775	8.4031e-05	0.0010668	0.0002093	948.62	1.1603e-05	6.0578e-06	1235.8	176.77	2.2787e-05	4.4983e-06	284.2	80.726	42.145	14.988	2.3783e-05	34.829	0.0016467	0.0015089	0.00040163	1052.8	1.8035e-05	1.624e-05	1285	233.13	1.7611e-05	1.6237e-05	346.51	108.49	106.31	22.617	1.6543e-05	46.674	83.420	-60.049	-63.374	-115.339	159.485	-106.417	-115.396	-111.204	-5.033	38.670	-110.278	-102.960	-103.147	-97.595	226.611	-98.318	-8191	255	
3043.980	1	1	0	0	0.17981	0.12053	0.17271	0.20774	0.41596	0.21575	0.34875	0.1065	0.045877	0.092423	0.28983	0.12274	0.1802	0.21382	0.10397	0.26452	-2.2062	-2.55	-1.9479	-2.8542	-2.2083	-1.9417	-2.9604	-2.1896	-2.4021	-2.6729	-2.0438	-3.0187	-2.2354	-2.1333	-2.7646	-2.35	16.629	225.711	20.971	-122.729	-39.271	10.015	160.300	-121.922	-40.710	-14.170	207.549	228.306	-77.219	-9.729	126.053	133.816	0.00017211	0.0013088	0.00024773	971.73	5.1649e-06	8.2083e-06	1256.1	185.48	1.1438e-06	4.6224e-06	288.26	79.138	42.447	14.362	1.0514e-05	34.456	0.0015889	0.0014875	0.00042657	1078	1.7265e-05	1.5826e-05	1313.9	241.44	1.6798e-05	1.5671e-05	355.22	106.68	101.39	21.804	1.7149e-05	45.2	52.751	3.979	157.432	-115.387	-11.568	143.770	-115.427	-111.294	212.070	160.553	-110.178	-103.466	-103.260	-98.092	203.813	-98.025	-8191	255	
3044.076	1	1	0	0	0.054916	0.1341	0.20498	0.15645	0.10632	0.044308	0.22973	0.23892	0.2225	0.078069	0.084669	0.18297	0.14982	0.10843	0.12834	0.071535	-1.9771	-2.6333	-2.0062	-2.8042	-2.4229	-2.1771	-2.9458	-2.0687	-2.3458	-2.6354	-2.1	-2.5833	-2.3854	-2.0479	-2.7625	-2.2583	159.314	71.371	20.148	165.693	77.092	133.999	165.209	92.829	187.033	10.192	188.803	90.790	-38.704	-123.847	-43.263	136.414	0.00037126	0.00079129	0.00024935	998.42	5.0342e-06	9.365e-06	1269.9	188.47	3.8972e-06	8.0474e-06	291.43	78.514	41.276	14.018	6.5061e-06	33.741	0.0014648	0.0013919	0.00043792	1091.9	1.6037e-05	1.5089e-05	1338.2	241.01	1.5803e-05	1.5197e-05	361.62	103.76	97.321	21.214	1.7767e-05	43.499	-60.893	-8.230	130.255	-115.117	40.053	43.564	-115.123	-110.897	42.212	-82.323	-110.671	-103.020	-101.763	-97.602	190.916	-98.308	-8191	255	
3044.172	1	1	0	0	0.3681	0.18091	0.29276	0.3603	0.34018	0.12772	0.13669	0.25656	0.085275	0.1186	0.22485	0.12038	0.26491	0.1331	0.26071	0.33119	-1.925	-2.7583	-1.9854	-2.5354	-2.6271	-2.0062	-2.9042	-2.2938	-2.45	-2.6729	-2.0417	-2.55	-2.3937	-2.0021	-2.7396	-2.2667	37.868	66.971	176.757	196.384	135.609	182.313	185.616	-87.294	-70.711	-72.317	-83.515	-28.937	106.686	-71.044	103.933	168.999	0.00022254	0.00058831	0.0001322	1001.5	3.841e-06	7.8942e-06	1252.9	179.18	6.0854e-06	1.0166e-05	279.1	78.13	40.962	13.8	1.0007e-05	33.662	0.0013933	0.0013815	0.00045047	1073.6	1.5197e-05	1.4832e-05	1316.8	224.65	1.4634e-05	1.4823e-05	349.23	99.281	91.292	21.005	1.7191e-05	42.039	-43.270	45.767	-27.076	-115.270	-0.346	168.037	-115.264	-110.338	16.137	170.564	-109.755	-103.139	-102.283	-97.268	13.195	-98.345	-8191	255	
3044.269	1	1	0	0	0.10023	0.29858	0.23398	0.24917	0.19862	0.25432	0.30825	0.14513	0.10901	0.23218	0.21837	0.12949	0.24913	0.2898	0.090266	0.15896	-1.7646	-2.6063	-2.0312	-2.5875	-2.6792	-1.9688	-2.8937	-2.5271	-2.175	-2.7938	-2.1396	-2.4333	-2.625	-2.1375	-2.8354	-2.4271	58.143	174.013	179.675	-125.964	161.409	-85.849	215.847	63.076	-14.170	93.450	-62.145	204.451	27.917	-74.923	-124.622	-89.780	0.00048007	0.00054944	0.00030247	976.56	8.1153e-06	1.3174e-05	1250.6	180.57	6.4549e-06	1.6047e-05	283.53	77.887	39.444	14.058	1.9753e-05	33.98	0.0012852	0.0014059	0.00044616	1051.6	1.4873e-05	1.6246e-05	1319.3	226.99	1.5493e-05	1.7541e-05	364.52	102.12	98.591	23.288	1.9386e-05	43.889	-73.510	148.610	-61.128	-115.568	-113.819	167.217	-114.924	-110.938	156.053	185.884	-110.001	-103.474	-103.765	-98.267	51.326	-98.372	-8191	255	
3044.365	1	1	0	0	0.28639	0.20013	0.10986	0.1309	0.17739	0.22619	0.32658	0.059724	0.30456	0.13076	0.12123	0.21669	0.052409	0.23698	0.27699	0.25745	-1.6917	-2.7292	-2.075	-2.4875	-2.7375	-2.2	-2.5979	-2.4854	-1.9937	-2.5667	-2.1063	-2.4062	-2.7146	-2.0042	-2.775	-2.4813	18.122	119.400	195.577	48.186	85.128	123.761	165.892	-7.179	195.358	153.812	186.596	-85.831	-83.659	153.662	-85.480	80.551	0.0003255	0.00098475	0.00031584	983.38	1.1958e-05	1.1326e-05	1254.3	185.86	9.7703e-06	2.4556e-05	288.7	77.473	41.443	13.892	9.2133e-06	33.653	0.0014541	0.0017092	0.00048588	1067.8	1.6311e-05	1.8842e-05	1330.2	233.41	1.5831e-05	1.8771e-05	362.2	100.98	99.008	23.569	1.767e-05	42.876	-46.683	176.737	-38.099	-115.443	-58.427	-110.074	-115.103	-111.194	-115.554	161.523	-110.239	-103.637	-103.840	-97.595	28.076	-97.732	-8191	255	
3044.484	1	1	0	0	0.40314	0.26825	0.086394	0.23531	0.14215	0.12888	0.074753	0.11842	0.26626	0.21255	0.014452	0.19028	0.23746	0.18244	0.1116	0.046698	-1.7104	-2.75	-2.3667	-2.3438	-2.7125	-2.1813	-2.8333	-2.7292	-2.1125	-2.8333	-2.2979	-2.375	-2.8292	-2.05	-2.4313	-2.6375	-51.741	144.736	26.578	-65.912	19.366	6.652	118.037	-90.948	181.286	-4.335	83.601	184.372	162.864	68.363	-117.675	2.155	9.3453e-05	0.0002974	0.00057941	993.22	2.2227e-06	1.1264e-05	1266	188.86	9.9777e-06	9.9062e-06	291.2	77.955	39.495	14.085	1.1417e-05	33.487	0.0014318	0.0017117	0.00044282	1062.7	1.5973e-05	1.8586e-05	1318.5	230.78	1.6088e-05	1.8526e-05	353.28	98.718	99.324	23.017	1.6061e-05	41.545	-88.257	-62.985	-35.764	-115.652	-93.574	-127.577	-115.107	-111.204	227.173	82.176	-110.355	-103.011	-102.841	-97.232	18.041	-98.187	-8191	255	
3044.580	1	1	0	0	0.17377	0.22299	0.068875	0.066949	0.12774	0.0551	0.19477	0.30835	0.13895	0.30243	0.064843	0.24804	0.21541	0.060747	0.26453	0.24441	-1.5167	-2.7729	-2.3312	-2.3229	-2.7125	-2.2562	-2.5812	-2.6771	-2.0479	-2.7292	-2.4188	-2.175	-2.8771	-2.2604	-2.5292	-2.7042	21.943	205.032	58.433	18.439	186.135	45.415	-119.441	221.364	11.423	-40.578	83.680	-116.174	11.119	157.714	40.015	94.508	0.00045452	0.0010767	8.9493e-05	988.35	8.3352e-06	2.9456e-06	1253	182.95	2.2514e-05	8.5784e-06	284.55	78.313	39.092	14.209	5.0255e-06	33.875	0.0014486	0.0016042	0.00039512	1039.1	1.5928e-05	1.6961e-05	1288.5	220.02	1.5833e-05	1.6586e-05	339.27	96.492	100.84	22.473	1.5492e-05	41.893	-78.671	-34.233	-97.676	-115.446	-109.056	-32.853	-115.327	-111.337	215.719	35.700	-109.943	-103.193	-102.545	-97.693	-54.529	-98.296	-8191	255	
3044.676	1	1	0	0	0.19215	0.084549	0.021868	0.17245	0.098055	0.21663	0.12562	0.13327	0.1035	0.11097	0.065698	0.23347	0.058206	0.20772	0.029072	0.28562	-1.6979	-2.6021	-2.6	-2.25	-2.8375	-2.0417	-2.575	-2.8104	-2.1875	-2.6	-2.5229	-2.3583	-2.5771	-2.3688	-2.2771	-2.8458	168.675	199.300	173.160	201.314	55.202	-127.252	-44.256	131.676	79.504	155.492	-75.397	-126.000	-3.002	229.123	44.310	166.729	0.00060485	0.0017902	0.0002272	975.93	1.4002e-05	2.0706e-05	1257.8	193.21	5.8899e-06	1.2754e-05	294.57	77.932	39.55	14.314	9.7759e-06	33.921	0.0016202	0.0016597	0.0004262	1053.7	1.94e-05	1.8804e-05	1315.8	240.75	1.968e-05	1.8598e-05	359.06	102.11	114.11	23.18	1.6335e-05	43.421	-91.010	-6.588	60.815	-115.145	-79.370	45.774	-115.202	-111.794	220.651	-49.344	-110.697	-103.476	-104.432	-97.089	8.405	-98.379	-8191	255	
3044.772	1	1	0	0	0.20853	0.17573	0.068823	0.14284	0.27712	0.34472	0.1739	0.23766	0.13172	0.16988	0.17463	0.043107	0.23496	0.20275	0.12412	0.030409	-1.7292	-2.4604	-2.6583	-2.1708	-2.675	-2.3812	-2.3771	-2.8604	-2.25	-2.6375	-2.7354	-1.9813	-2.7521	-2.4875	-2.1562	-2.8604	206.306	-41.025	109.296	144.310	219.936	54.340	186.586	107.599	21.932	188.298	-129.088	218.907	-55.681	227.281	20.804	-115.323	0.00040432	0.0024961	0.00025642	973.16	7.841e-06	6.9161e-06	1245.7	181.53	8.4557e-06	8.2616e-06	283.42	78.506	41.1	14.46	3.1857e-06	34.182	0.001731	0.0015835	0.00040437	1055.3	1.8553e-05	1.6539e-05	1281.6	226.61	1.78e-05	1.5705e-05	335.25	100.3	103.66	21.814	1.4241e-05	43.221	-110.142	14.809	-71.706	-115.627	162.833	60.978	-115.075	-111.442	15.182	-0.016	-109.962	-103.638	-103.117	-96.915	-3.667	-98.105	-8191	255	
3044.868	1	1	0	0	0.097962	0.15961	0.12134	0.17653	0.21801	0.22996	0.14944	0.24545	0.15901	0.14304	0.16629	0.097662	0.055765	0.25072	0.052227	0.17065	-1.7687	-2.4354	-2.7812	-2.2	-2.7792	-2.4625	-2.4437	-2.8563	-2.1125	-2.4604	-2.9396	-2.1208	-2.7854	-2.5417	-2.1292	-2.8229	41.735	52.382	-74.358	48.211	-36.046	0.437	151.459	177.230	-23.565	-30.691	-40.367	-111.894	67.511	202.040	226.986	155.142	0.00029368	0.00082423	0.00023512	971.39	3.0731e-07	1.0253e-05	1241.7	180.94	1.2689e-05	9.8598e-07	286.51	78.466	40.751	14.234	1.2922e-05	34.18	0.0015355	0.0013692	0.0003603	1048.5	1.6617e-05	1.495e-05	1274.1	228.39	1.6483e-05	1.4688e-05	335.64	101.93	99.022	21.073	1.385e-05	43.33	28.428	-97.525	-20.858	-115.188	-1.124	-126.112	-115.366	-111.121	-6.400	6.526	-109.992	-103.900	-103.047	-96.843	-120.087	-98.796	-8191	255	
3044.964	1	1	0	0	0.17327	0.27093	0.15656	0.37617	0.15145	0.24554	0.19942	0.17562	0.1116	0.12056	0.17506	0.15443	0.13017	0.17123	0.1614	0.047496	-1.8146	-2.0896	-2.7625	-2.1354	-2.5687	-2.5938	-2.4292	-2.7958	-2.2896	-2.2479	-2.8	-2.15	-2.6021	-2.3	-2.0312	-2.8896	223.210	-47.564	55.103	193.696	-110.193	206.343	-124.940	-126.250	226.194	177.891	204.143	84.780	-25.015	-81.289	214.689	176.459	0.00031229	0.00049074	0.00016928	987.13	1.5188e-05	1.3878e-05	1253.4	192.73	1.7568e-05	6.6206e-06	293.81	79.148	42.072	13.954	2.4738e-06	33.536	0.001427	0.0012961	0.00035798	1065.5	1.5431e-05	1.4233e-05	1286.4	238.07	1.515e-05	1.3674e-05	343.3	102.03	93.867	20.49	1.4359e-05	43.08	20.267	50.709	226.129	-115.404	95.959	28.477	-115.103	-111.924	10.292	18.706	-110.618	-103.119	-102.917	-97.201	178.161	-98.060	-8191	255	
3045.085	1	1	0	0	0.01822	0.15243	0.10485	0.31893	0.053394	0.15177	0.18738	0.079307	0.092678	0.21517	0.078101	0.4642	0.25291	0.24643	0.16023	0.53312	-1.9125	-2.1167	-2.4896	-2.2188	-2.3833	-2.6354	-2.2604	-2.9667	-2.1896	-2.1708	-2.8917	-2.325	-2.4562	-2.6396	-1.9917	-2.6792	-97.804	41.647	28.578	175.085	31.857	47.495	167.656	-126.146	-61.522	-25.088	35.097	157.174	-117.447	100.672	-57.782	-102.049	3.3261e-05	0.00053481	0.00058814	979.82	1.1366e-05	2.8876e-06	1248.5	195.64	8.1327e-06	1.0859e-05	292.01	79.049	40.794	14.156	6.7165e-06	33.936	0.0013535	0.0012828	0.00038948	1070.7	1.563e-05	1.4908e-05	1303.7	247.72	1.6237e-05	1.512e-05	359.44	105.33	99.044	21.415	1.7524e-05	44.565	-104.281	-80.609	132.077	-115.440	15.990	20.268	-115.466	-111.640	72.725	88.068	-110.657	-103.358	-102.202	-97.350	-107.302	-98.469	-8191	255	
3045.179	1	1	0	0	0.10725	0.10053	0.051888	0.11835	0.086806	0.13223	0.062029	0.23561	0.032078	0.10336	0.2775	0.21393	0.02743	0.20197	0.075081	0.021516	-1.8833	-2.0583	-2.6271	-2.3083	-2.5229	-2.5563	-2.1562	-2.8917	-2.4208	-2.2667	-2.8104	-2.3042	-2.3542	-2.9667	-2.0312	-2.4917	35.705	-93.795	224.723	111.730	117.265	24.775	61.031	205.025	-90.914	-76.140	-94.752	-93.315	23.459	-24.313	-114.997	113.778	0.0003663	0.00057398	0.0004294	970.99	6.9047e-06	5.8978e-06	1246.2	192.04	9.7712e-06	2.6847e-06	290.09	79.218	41.25	14.318	2.1332e-05	34.555	0.001473	0.0014054	0.00046023	1069.4	1.6411e-05	1.5946e-05	1318.9	244.01	1.6282e-05	1.5614e-05	366.86	104.46	98.421	21.792	1.8178e-05	43.925	-58.235	147.250	215.328	-115.129	86.330	85.690	-115.121	-111.504	-84.682	-98.149	-110.694	-103.402	-102.009	-97.418	220.338	-97.872	-8191	255	
3045.275	1	1	0	0	0.28222	0.28498	0.22425	0.02097	0.13748	0.1169	0.22141	0.37247	0.087268	0.1634	0.14109	0.16003	0.049095	0.098942	0.14819	0.11745	-2.0438	-2.0854	-2.6813	-2.2562	-2.3125	-2.7854	-2.2458	-2.4583	-2.7188	-2.0187	-2.8688	-2.375	-2.3042	-2.7271	-2.0167	-2.5854	124.595	-122.756	143.475	205.351	69.525	-95.409	-66.740	185.949	-33.265	213.454	-104.738	-88.599	-62.451	99.576	-23.413	-1.243	0.00025346	0.00057728	0.00029243	982.85	3.8751e-06	1.0026e-05	1260.1	195.33	1.8954e-05	2.2745e-05	294.82	80.276	41.739	14.21	2.283e-06	34.44	0.0013731	0.0013812	0.00044676	1057.2	1.4571e-05	1.4923e-05	1321.3	235.76	1.443e-05	1.4995e-05	363.92	101.03	90.865	21.631	1.7123e-05	42.243	20.926	128.332	164.118	-115.364	-13.538	199.541	-115.201	-111.502	94.683	210.722	-111.140	-102.955	-102.781	-97.560	-44.435	-98.318	-8191	255	
3045.372	1	1	0	0	0.28759	0.34738	0.17588	0.075543	0.083716	0.081958	0.45327	0.24201	0.12106	0.072221	0.19872	0.26375	0.28569	0.079385	0.0088182	0.16565	-2.1625	-2.0375	-2.6604	-2.6417	-1.8729	-2.7687	-2.4313	-2.4417	-2.6437	-1.9375	-2.7917	-2.5917	-2.1958	-2.6583	-2.1208	-2.4938	28.981	-2.292	144.362	-88.924	33.049	201.511	107.316	167.404	198.679	1.926	-24.760	-97.586	127.956	214.807	65.263	-50.227	0.00030911	0.00082791	0.00045525	1003.9	8.2239e-06	9.996e-06	1274.7	201.88	6.0655e-06	2.3634e-05	304.43	80.086	41.48	13.709	1.3637e-05	33.472	0.001276	0.0013975	0.00042495	1064.1	1.3711e-05	1.5488e-05	1325.2	237.69	1.3667e-05	1.5524e-05	360.73	98.349	88.265	21.537	1.5773e-05	40.595	2.172	182.094	-73.558	-115.187	16.376	195.505	-115.084	-111.699	217.999	166.243	-110.253	-103.840	-104.560	-97.888	15.157	-98.642	-8191	255	
3045.445	1	1	0	0	0.20845	0.25709	0.1068	0.2236	0.084479	0.27558	0.15558	0.073354	0.24738	0.24742	0.30285	0.31201	0.17497	0.099125	0.18975	0.10949	-2.4354	-1.9771	-2.6562	-2.6708	-2.2375	-2.95	-2.3896	-2.3187	-2.6604	-2.0417	-2.6792	-2.6083	-2.1542	-2.7313	-2.2729	-2.4562	75.112	-40.330	207.551	175.135	146.484	-110.971	202.640	8.156	-121.426	-95.785	98.234	-114.959	73.648	201.585	198.455	141.678	0.00023575	0.00056042	0.00031003	1003.8	5.0666e-06	3.7581e-06	1264	200.46	6.3933e-06	1.5187e-05	298.63	78.613	39.893	13.905	1.279e-05	33.216	0.0012113	0.0014361	0.00039189	1051.3	1.3243e-05	1.5675e-05	1298.5	233.19	1.3384e-05	1.5776e-05	349.92	96.257	88.929	21.887	1.5283e-05	40.412	215.874	39.481	-91.283	-115.385	-121.791	-96.694	-115.074	-111.893	-127.170	181.937	-110.629	-103.567	-105.484	-98.045	-0.607	-98.139	-8191	255	
3045.564	1	1	0	0	0.11762	0.065767	0.088558	0.071462	0.19407	0.26873	0.071668	0.12636	0.12862	0.081039	0.17302	0.04559	0.16212	0.13433	0.17142	0.15947	-2.4688	-2.0667	-2.4396	-2.6521	-2.1479	-2.7167	-2.4167	-2.1604	-2.9583	-1.9333	-2.4833	-2.7687	-2.0187	-2.7313	-2.3042	-2.2479	-54.776	43.556	90.019	133.090	-46.577	-76.909	-109.727	227.007	92.062	-106.982	39.849	-89.077	229.651	87.227	69.652	123.396	0.0004157	0.00047926	0.00020822	994.22	4.0178e-06	1.9121e-05	1257.8	207.46	2.1074e-05	5.7329e-06	308.55	79.217	40.666	14.221	3.0282e-06	33.445	0.0013114	0.0015631	0.00039715	1053.3	1.5336e-05	1.7763e-05	1307	244.76	1.6044e-05	1.8164e-05	365.51	100.41	103.48	23.375	1.6746e-05	42.021	-105.638	227.008	-127.736	-114.957	194.427	22.551	-114.960	-112.188	-90.168	-77.634	-111.031	-103.154	-103.486	-97.472	7.577	-98.305	-8191	255	
3045.660	1	1	0	0	0.21619	0.12676	0.17468	0.10951	0.10034	0.23157	0.099473	0.33759	0.16915	0.14386	0.31705	0.10607	0.31517	0.29392	0.23259	0.14886	-2.3604	-2.2125	-2.375	-2.8479	-2.0938	-2.7812	-2.5458	-2.0896	-2.8125	-2.1937	-2.5104	-2.8438	-2.0771	-2.6437	-2.5833	-2.2146	146.174	-88.949	-72.625	-118.976	94.263	-34.336	-41.463	194.729	223.468	-53.557	-78.750	-110.975	64.390	-95.866	-32.264	172.866	0.00039697	0.00089641	0.00012546	1008	1.4607e-05	1.5745e-05	1271.5	218.02	2.3375e-05	1.8061e-05	311.92	80.739	42.391	14.246	1.0075e-05	33.617	0.0015927	0.0017272	0.00042966	1079.5	1.8372e-05	1.9153e-05	1328.2	259.53	1.8812e-05	1.8971e-05	373.77	102.5	111.3	23.235	1.6481e-05	42.285	-92.042	-2.255	206.766	-114.878	-85.757	33.939	-115.018	-112.897	180.433	8.751	-111.155	-103.433	-104.297	-98.063	9.279	-98.243	-8191	255	
3045.756	1	1	0	0	0.13885	0.16159	0.28719	0.17545	0.10588	0.21035	0.27057	0.058586	0.12866	0.13767	0.2376	0.22363	0.06322	0.15582	0.036789	0.19167	-2.4479	-2.2875	-2.1417	-2.9708	-2.0979	-2.8146	-2.5708	-2.0563	-2.7375	-2.2417	-2.3854	-2.9708	-2.1167	-2.7042	-2.4833	-2.1125	-113.461	-107.502	158.968	100.296	0.904	87.160	213.836	-56.979	156.410	-110.623	165.622	182.647	-125.020	-73.940	193.045	68.552	0.00029469	0.0022781	0.00022594	996.58	9.9618e-06	3.8008e-06	1259.8	206.64	1.4105e-05	6.546e-06	299.59	79.017	41.478	13.854	5.0391e-06	32.826	0.0016657	0.0016041	0.00039946	1065.8	1.7975e-05	1.6548e-05	1301.1	245.28	1.7337e-05	1.5855e-05	350	98.952	103.52	21.192	1.4199e-05	41.035	224.220	-1.140	-82.506	-115.201	-117.402	-7.224	-114.885	-112.386	61.977	84.319	-110.782	-103.656	-104.036	-97.303	-84.677	-98.544	-8191	255	
3045.852	1	1	0	0	0.15322	0.22293	0.10809	0.24501	0.14991	0.087779	0.093185	0.23394	0.13678	0.31081	0.064769	0.019459	0.23797	0.39063	0.078008	0.29245	-2.3688	-2.2208	-2.2812	-2.9188	-1.9188	-2.4667	-2.8625	-2.0417	-2.6875	-2.3937	-2.2021	-2.6833	-2.0604	-2.2958	-2.6896	-1.8083	206.048	-108.310	46.037	142.904	47.319	179.773	204.853	73.293	-0.700	-16.711	-88.384	160.326	-64.433	-67.135	144.817	97.421	2.3741e-05	0.00084799	0.00014153	1002.7	6.3829e-06	9.0229e-06	1261.6	207.62	2.0094e-05	1.244e-05	303.5	78.082	41.808	13.637	8.0507e-06	32.688	0.0015223	0.001375	0.00035172	1064.6	1.6668e-05	1.4788e-05	1289.2	247.38	1.6503e-05	1.4633e-05	346.8	99.787	99.926	20.345	1.343e-05	41.078	-20.959	5.613	-14.567	-115.342	82.283	78.722	-114.896	-112.137	65.895	-21.220	-111.048	-103.430	-104.344	-97.474	224.878	-98.926	-8191	255	
3045.973	1	1	0	0	0.10229	0.04222	0.182	0.11967	0.31705	0.0042724	0.22404	0.15018	0.087521	0.085882	0.10739	0.099405	0.26985	0.11742	0.15314	0.031955	-2.2812	-2.3479	-2.0146	-3.1042	-2.0729	-2.2917	-2.8771	-2.0646	-2.6896	-2.4417	-2.2792	-2.6875	-2.1917	-2.2896	-2.6396	-2.0812	78.679	-100.078	130.805	16.865	-20.479	174.781	187.146	40.485	-6.308	170.373	196.484	213.503	176.149	156.539	1.595	15.868	0.00042672	0.00073375	2.9447e-05	996.69	7.0583e-06	3.9392e-06	1239.5	195	1.2058e-05	9.5778e-06	287.43	76.762	41.325	13.43	6.0068e-06	32.47	0.0014102	0.0012765	0.00033143	1058	1.5187e-05	1.3491e-05	1264.3	235.26	1.4783e-05	1.3456e-05	330.57	98.504	92.782	19.707	1.3224e-05	41.48	29.377	120.087	223.037	-115.451	46.937	-93.981	-114.783	-111.964	34.897	5.554	-110.418	-103.345	-103.214	-97.534	-69.315	-98.562	-8191	255	
3046.045	1	1	0	0	0.13538	0.008301	0.19886	0.04605	0.16693	0.16461	0.22961	0.070064	0.094293	0.26105	0.04643	0.13317	0.21272	0.063254	0.07151	0.21565	-2.0271	-2.4771	-1.9167	-2.8792	-2.1125	-2.1646	-2.6771	-1.8792	-2.4938	-2.6688	-2.2146	-2.6667	-2.2792	-2.2208	-2.8708	-2.0667	97.744	-6.656	79.764	127.223	-19.765	85.895	118.493	-123.622	73.117	27.958	134.163	167.797	162.905	31.635	31.478	-98.737	0.00020052	0.00046794	0.00021476	983.99	7.4974e-06	1.5145e-05	1239.9	197.23	2.1459e-05	1.0663e-05	292.88	77.978	41.879	14.068	1.2346e-05	33.419	0.0013367	0.0012597	0.00035616	1063.7	1.5807e-05	1.4647e-05	1283.3	249.86	1.6292e-05	1.532e-05	354.54	105.15	100.87	21.301	1.6721e-05	44.605	32.441	73.520	177.198	-114.957	19.489	29.277	-114.944	-111.844	27.444	-6.790	-110.917	-103.490	-104.039	-97.159	209.329	-98.172	-8191	255	
3046.165	1	1	0	0	0.156	0.21485	0.18272	0.17747	0.09405	0.1142	0.16355	0.15506	0.20843	0.084802	0.13496	0.24091	0.15952	0.11054	0.042228	0.11758	-2.1104	-2.7125	-1.8917	-2.7771	-2.4042	-1.8333	-2.9208	-2.1375	-2.3771	-2.6312	-2.2125	-2.6688	-2.3021	-2.0542	-2.6375	-2.2812	31.964	70.341	97.294	7.888	159.974	104.053	204.811	199.703	-100.758	-101.844	-94.405	198.135	-114.571	75.082	3.112	1.833	0.00041288	0.00046554	0.00025891	990.36	4.8226e-06	1.1971e-05	1258.6	211.89	2.317e-05	7.1242e-06	310.07	80.835	44.189	14.006	7.36e-06	33.57	0.0015083	0.0014405	0.00044332	1092.9	1.7024e-05	1.5912e-05	1327.8	267.56	1.714e-05	1.6248e-05	384.39	108.03	104.91	21.818	1.878e-05	44.65	-52.244	-11.954	117.831	-115.238	80.122	-24.720	-114.949	-112.248	-78.145	36.495	-111.108	-103.828	-103.817	-97.779	-70.797	-98.078	-8191	255	
3046.260	1	1	0	0	0.084159	0.18959	0.10932	0.08852	0.14351	0.059662	0.13143	0.23622	0.26346	0.016207	0.2454	0.024988	0.10544	0.12595	0.2961	0.19675	-1.9021	-2.5958	-2.0042	-2.6479	-2.3312	-2.05	-2.8083	-2.0917	-2.2667	-2.6417	-2.0312	-2.475	-2.6583	-1.7979	-2.7562	-2.2792	176.652	30.688	118.995	78.458	22.101	216.345	206.184	50.860	34.923	28.201	24.371	175.298	-98.853	-103.486	-58.335	-76.849	0.00052668	0.00063524	0.00039891	986.47	1.2826e-05	1.3219e-05	1251.7	203.21	1.3445e-05	1.3402e-05	294.32	78.724	42.19	13.715	9.8491e-06	33.282	0.0014832	0.001439	0.0004684	1081.7	1.5985e-05	1.5179e-05	1321	249.2	1.5126e-05	1.4877e-05	363.48	100.98	93.586	20.794	1.7109e-05	41.741	-27.209	62.238	229.300	-115.080	78.563	-87.678	-114.708	-111.601	30.324	-94.880	-111.037	-104.013	-104.592	-97.008	-103.084	-98.140	-8191	255	
3046.356	1	1	0	0	0.24109	0.22936	0.09196	0.13859	0.035596	0.15481	0.2249	0.29645	0.24981	0.17437	0.14271	0.12546	0.27493	0.17133	0.1026	0.048371	-1.6896	-2.6708	-2.0312	-2.6521	-2.5438	-2.0646	-2.9271	-2.2104	-2.0146	-2.7188	-2.1396	-2.3854	-2.4396	-1.8542	-2.6896	-2.3875	-56.770	-34.472	-13.396	228.423	106.826	32.933	228.620	140.528	227.838	73.863	142.863	-99.138	155.309	-64.527	-81.538	-62.297	0.00014598	0.00067902	0.00021798	982.68	1.0897e-05	7.0974e-06	1242.4	193.67	8.6055e-06	1.4344e-05	291.56	77.941	41.716	13.562	1.2926e-05	32.943	0.001272	0.0013321	0.00042902	1045.5	1.393e-05	1.4568e-05	1299.3	232.43	1.3533e-05	1.4711e-05	352.82	97.076	87.788	20.752	1.6172e-05	40.43	-23.760	173.555	-13.435	-115.068	101.813	-46.281	-115.056	-111.518	37.308	179.570	-110.854	-103.453	-102.700	-98.120	48.260	-98.344	-8191	255	
3046.452	1	1	0	0	0.32213	0.062708	0.12561	0.058373	0.16054	0.14892	0.17375	0.18379	0.33789	0.065086	0.060601	0.021239	0.13459	0.25481	0.061102	0.060795	-1.6688	-2.7104	-2.25	-2.5708	-2.7625	-1.9625	-2.9646	-2.4583	-2.1771	-2.6333	-2.1583	-2.5708	-2.4479	-2.1021	-2.4958	-2.3958	66.266	72.476	57.736	-69.079	144.645	171.804	-100.311	-2.670	60.046	-114.709	57.081	-11.243	-58.440	-96.744	69.014	174.105	0.00045224	0.0017143	0.00036588	984.54	4.1425e-06	7.6228e-06	1242	193.08	1.2514e-05	1.3977e-05	292.01	78.073	40.729	13.545	3.7073e-06	33.038	0.0012002	0.0013774	0.00040715	1034.8	1.3298e-05	1.5188e-05	1285	227.81	1.2923e-05	1.5244e-05	346.01	95.597	85.975	21.066	1.5002e-05	40.037	-70.831	163.024	-22.945	-115.117	115.308	184.413	-114.881	-111.391	197.227	96.403	-110.456	-103.514	-103.732	-97.798	-10.581	-98.184	-8191	255	
3046.573	1	1	0	0	0.25182	0.10748	0.19829	0.21302	0.12881	0.18943	0.13119	0.17949	0.12929	0.12942	0.30199	0.024637	0.18576	0.20022	0.23718	0.12724	-1.5292	-2.7792	-1.9771	-2.4396	-2.6292	-2.0417	-2.7646	-2.5125	-2.2042	-2.6979	-2.2271	-2.2083	-2.6292	-1.9708	-2.5417	-2.5	154.138	89.946	218.648	-83.194	28.320	79.202	-89.823	153.670	166.636	64.543	137.289	166.859	60.783	3.967	148.321	200.193	0.00054224	0.00018206	0.00019378	985.17	5.3259e-06	1.8772e-05	1246.5	199.36	1.396e-05	6.7176e-06	297.73	78.598	41.285	13.95	1.6443e-05	33.414	0.0011838	0.0014371	0.00038331	1035.4	1.3603e-05	1.6141e-05	1289	233.95	1.4061e-05	1.6851e-05	353.85	97.753	95.217	22.641	1.585e-05	41.379	-88.467	145.967	-56.777	-115.175	186.596	163.811	-114.852	-111.906	221.692	51.030	-110.576	-104.287	-102.907	-97.439	-6.417	-98.150	-8191	255	
3046.669	1	1	0	0	0.52059	0.041753	0.12047	0.077472	0.30007	0.32032	0.16686	0.17084	0.076758	0.086685	0.32573	0.22619	0.15871	0.38356	0.086442	0.21363	-1.7167	-2.6792	-2.2167	-2.3438	-2.5687	-2.2208	-2.6	-2.5667	-2.0083	-2.7958	-2.4146	-2.1542	-2.6562	-1.9979	-2.5229	-2.6146	-79.402	173.046	22.443	-91.079	-111.013	44.413	206.581	218.471	153.202	105.429	173.057	175.676	115.314	-14.348	-128.656	130.693	0.00055449	0.00068556	0.00030998	985.77	1.7894e-05	9.7723e-06	1251.4	209.49	9.0026e-06	5.3911e-06	307.22	78.604	41.399	13.981	5.6618e-06	33.268	0.0014091	0.0016322	0.00041042	1048.6	1.639e-05	1.8263e-05	1304.1	250.14	1.7178e-05	1.8719e-05	368.97	100.33	106.62	23.259	1.6432e-05	41.833	-55.445	27.317	-36.803	-114.879	-76.644	-41.877	-114.878	-112.127	-122.577	30.470	-111.293	-104.182	-104.471	-97.710	-27.600	-98.474	-8191	255	
3046.740	1	1	0	0	0.11672	0.13187	0.15556	0.20575	0.11496	0.14522	0.10814	0.10229	0.23566	0.17526	0.39567	0.059317	0.38455	0.098005	0.07665	0.12605	-1.5542	-2.6917	-2.4188	-2.3958	-2.8146	-2.0958	-2.6042	-2.7208	-2.0187	-2.6188	-2.5104	-2.1521	-2.6937	-2.0854	-2.3021	-2.675	-37.466	205.513	154.400	218.504	147.672	-102.311	155.047	161.358	95.071	119.448	130.036	-78.299	-42.161	-30.286	48.245	180.795	0.00078712	0.0015973	8.9052e-05	1000.8	1.7582e-05	1.4486e-05	1265.6	218.05	7.187e-06	4.3052e-06	308.81	78.705	42.464	13.61	8.8446e-06	32.445	0.0015944	0.0016482	0.00041015	1062	1.7627e-05	1.7421e-05	1306	254.18	1.727e-05	1.6738e-05	361.48	98.269	104.72	21.608	1.4585e-05	40.404	-80.021	32.450	-70.324	-115.369	-60.617	-59.166	-114.578	-112.593	189.737	2.445	-111.006	-103.910	-104.431	-98.052	216.523	-98.384	-8191	255	
3046.861	1	1	0	0	0.32993	0.14764	0.015359	0.31829	0.093576	0.2391	0.12987	0.34266	0.15491	0.11036	0.17179	0.29681	0.20473	0.13505	0.11931	0.14437	-1.6063	-2.4396	-2.5792	-2.2021	-2.725	-2.3563	-2.4458	-2.7396	-1.9292	-2.525	-2.5438	-2.1354	-2.8167	-2.2146	-2.1188	-2.9771	136.718	-121.791	217.562	-109.360	-123.932	-127.611	142.272	158.675	46.496	75.857	118.724	155.321	161.384	178.947	44.936	47.421	0.00050449	0.0021564	0.00035627	986.05	2.087e-05	1.6766e-05	1244.8	205.26	5.2025e-06	1.4808e-05	294.4	77.926	41.179	13.649	8.5411e-06	32.862	0.0015198	0.0014209	0.00036095	1042.5	1.6493e-05	1.4964e-05	1269.1	239.03	1.6103e-05	1.431e-05	338.79	96.034	97.817	20.352	1.2977e-05	40.33	-76.090	-18.726	-27.762	-115.371	149.859	71.431	-114.922	-112.037	-62.436	-37.076	-111.100	-103.258	-102.723	-96.870	-6.553	-98.461	-8191	255	
3046.957	1	1	0	0	0.15827	0.26989	0.1769	0.20906	0.17419	0.14116	0.29855	0.11323	0.19431	0.11111	0.33264	0.11146	0.07395	0.15564	0.40608	0.21382	-1.7292	-2.2875	-2.5896	-2.3	-2.6312	-2.4813	-2.1458	-2.7542	-2.0625	-2.3604	-2.8917	-1.8813	-2.4729	-2.3521	-2.0938	-2.8479	-124.050	204.403	-59.395	-98.423	50.294	116.309	155.677	145.837	197.451	-13.089	206.264	12.354	49.796	34.858	93.335	-68.300	0.00035648	0.00044668	0.00011357	972.01	4.5072e-06	7.1941e-06	1231.7	195.76	1.2051e-05	7.1286e-06	291.95	77.365	40.735	13.525	8.0924e-06	32.721	0.0013951	0.0012398	0.00032566	1025.1	1.5075e-05	1.3417e-05	1247.4	232.74	1.5031e-05	1.3372e-05	334.31	97.582	94.292	19.842	1.2597e-05	40.694	-60.855	-23.745	33.381	-115.031	-99.733	-5.256	-114.891	-111.847	92.727	99.842	-110.492	-103.893	-103.545	-97.275	201.256	-98.310	-8191	255	
3047.053	1	1	0	0	0.064885	0.039869	0.058998	0.46695	0.01644	0.14455	0.12263	0.21986	0.30784	0.086995	0.2149	0.14273	0.093267	0.16856	0.1935	0.18282	-1.7479	-2.3229	-2.6813	-1.9625	-2.5354	-2.5125	-2.3833	-2.6896	-2.2625	-2.3896	-2.8312	-2.1375	-2.5979	-2.4375	-2.0479	-2.6917	121.827	-8.389	-44.901	-103.892	-6.281	173.176	145.298	229.394	40.070	-72.560	163.878	-5.579	-106.909	-113.436	-81.685	133.311	0.00054973	0.00065175	0.00026053	967.87	9.759e-06	5.7534e-06	1227.6	193.9	1.6217e-05	9.6799e-06	287.31	77.082	40.354	13.672	1.2368e-05	33.09	0.0013223	0.0011884	0.00031931	1033.5	1.4189e-05	1.2865e-05	1243.5	232.27	1.4022e-05	1.2649e-05	329.96	97.994	89.487	19.553	1.3142e-05	41.777	-18.758	-12.786	149.231	-115.391	100.386	-49.791	-114.884	-112.218	-9.477	1.532	-110.336	-103.945	-102.819	-97.372	-118.309	-97.836	-8191	255	
3047.150	1	1	0	0	0.18248	0.036905	0.15372	0.32242	0.10892	0.31704	0.18129	0.19209	0.4135	0.15122	0.2958	0.11282	0.18224	0.049161	0.20211	0.019381	-1.8354	-2.0521	-2.7083	-2.2062	-2.4104	-2.5458	-2.2021	-2.7479	-2.4062	-2.0771	-2.8896	-2.0479	-2.4125	-2.7667	-1.9833	-2.6396	-80.641	183.067	98.946	197.705	145.521	1.414	116.839	105.475	105.851	4.286	-30.657	-17.465	67.456	19.083	91.965	42.396	9.7425e-05	0.00066188	0.00015983	960.68	4.4623e-06	1.566e-05	1221.7	194.58	7.2113e-06	4.1776e-06	293.07	77.665	41.437	13.64	1.1447e-05	33.245	0.0013088	0.001235	0.00036246	1042.8	1.506e-05	1.4059e-05	1263	241.95	1.5351e-05	1.4135e-05	351.66	103.05	97.71	20.922	1.67e-05	43.676	64.589	-91.275	50.909	-114.951	31.226	14.413	-115.198	-111.581	-36.337	69.926	-110.513	-103.695	-103.147	-97.637	194.680	-98.453	-8191	255	
3047.268	1	1	0	0	0.26403	0.2311	0.11013	0.075071	0.095439	0.20795	0.35204	0.17602	0.13825	0.095602	0.092588	0.35377	0.19398	0.13252	0.079597	0.14723	-1.9375	-2.2333	-2.6562	-2.3104	-2.4396	-2.5958	-2.1937	-2.7375	-2.4708	-1.9729	-2.7021	-2.1937	-2.2875	-2.5938	-2.0187	-2.4188	55.137	-71.797	16.716	44.895	-120.586	109.708	171.578	155.863	73.398	105.725	129.153	-37.431	36.779	144.946	125.032	38.243	5.9181e-06	0.0010336	0.00054498	987.21	3.3666e-06	7.2747e-06	1259.3	220.03	8.573e-06	6.2525e-06	312.69	78.583	41.874	13.561	1.0179e-05	32.569	0.0014693	0.001379	0.00044308	1085.7	1.6181e-05	1.5434e-05	1321.2	268.74	1.6106e-05	1.5114e-05	381.43	103.9	97.708	20.834	1.7543e-05	42.32	-96.044	87.269	127.900	-114.773	125.413	133.089	-114.882	-112.424	-39.106	118.882	-110.747	-103.632	-102.782	-97.817	149.055	-97.951	-8191	255	
3047.342	1	1	0	0	0.20174	0.1073	0.13519	0.34124	0.058146	0.25901	0.2465	0.21396	0.093007	0.26601	0.080084	0.041865	0.072443	0.212	0.21817	0.32118	-2.1604	-2.1146	-2.9583	-2.2146	-2.3042	-2.6771	-2.2896	-2.7771	-2.6771	-2.0229	-2.8792	-2.425	-2.2125	-2.8208	-2.1167	-2.4646	181.447	105.073	165.976	197.204	10.570	75.217	213.282	-28.270	-23.721	198.524	164.399	91.219	113.335	-91.809	11.194	214.658	0.00019128	0.00069273	0.00011688	995.36	1.3436e-05	1.5018e-05	1242.8	209.24	9.4538e-06	1.4058e-05	302.09	78.163	41.283	13.413	8.1802e-06	32.527	0.001377	0.0013372	0.00043857	1067.5	1.4496e-05	1.4489e-05	1307.5	250.66	1.4181e-05	1.4205e-05	363.58	98.094	88.258	20.12	1.6264e-05	40.101	219.739	-121.453	98.699	-115.339	63.343	206.305	-115.019	-112.381	-110.643	210.457	-110.527	-103.629	-103.046	-97.107	126.772	-99.083	-8191	255	
3047.436	1	1	0	0	0.21375	0.14795	0.32542	0.065896	0.052385	0.01744	0.16583	0.013227	0.17066	0.062162	0.076099	0.24346	0.059557	0.16659	0.053712	0.20107	-2.0187	-1.9396	-2.5396	-2.3979	-2.1063	-2.7521	-2.3375	-2.4792	-2.5875	-1.9729	-2.7479	-2.4771	-2.1312	-2.7542	-2.0458	-2.4	219.972	-82.342	62.358	119.435	-76.205	67.209	88.112	75.754	-105.764	-58.241	112.518	-86.121	-81.162	71.453	11.169	121.926	0.0004254	0.00070672	0.00028093	968.63	1.044e-05	8.1402e-06	1225.3	195.92	3.827e-06	1.8872e-05	286.13	76.674	39.578	13.302	1.216e-05	32.648	0.001208	0.0012768	0.0004047	1024.6	1.3036e-05	1.4234e-05	1271.1	229.75	1.2934e-05	1.4251e-05	344.72	94.892	83.477	20.334	1.5093e-05	39.385	-104.554	218.855	21.684	-114.875	46.695	197.554	-114.943	-111.709	-93.091	173.531	-110.734	-103.231	-103.587	-97.771	181.658	-98.295	-8191	255	
3047.534	1	1	0	0	0.076778	0.15495	0.22927	0.30043	0.25832	0.16224	0.057402	0.11768	0.11758	0.2058	0.10317	0.083107	0.023215	0.15154	0.11433	0.13	-2.2333	-1.8333	-2.5104	-2.2708	-2.0354	-2.6104	-2.3208	-2.4375	-2.6437	-2.0104	-2.6937	-2.4375	-1.9771	-2.8812	-2.1688	-2.3292	-2.660	29.458	-34.091	-97.156	-27.851	28.582	15.324	-21.539	110.986	158.292	223.970	133.776	-3.429	77.615	-86.027	-43.072	0.00042017	0.00073892	0.00037178	968.68	8.9988e-07	1.0599e-05	1227.4	201.83	7.9992e-06	4.3636e-06	300.36	78.131	40.543	13.148	1.9211e-05	32.47	0.0011298	0.0013126	0.00037318	1017	1.2347e-05	1.4513e-05	1269.5	233.21	1.2574e-05	1.4786e-05	349.71	94.707	84.54	20.651	1.44e-05	39.035	-29.150	176.143	-3.637	-115.181	63.705	75.217	-114.751	-112.145	-27.141	154.863	-111.075	-103.473	-104.899	-97.437	67.646	-98.268	-8191	255	
3047.653	1	1	0	0	0.019868	0.10639	0.38324	0.15381	0.022168	0.17019	0.16911	0.19853	0.15863	0.053645	0.06532	0.16691	0.061987	0.17195	0.12586	0.1743	-2.325	-1.9875	-2.4646	-2.6083	-2.0083	-2.6583	-2.5563	-2.1792	-2.5604	-2.0271	-2.4979	-2.6292	-1.9917	-2.6937	-2.0792	-2.1625	-1.385	137.344	5.892	-119.387	-41.784	161.513	193.421	107.454	110.205	94.875	197.014	146.203	185.062	-105.674	38.517	-62.523	0.00030937	0.0013482	0.00042439	997.63	1.139e-05	2.2064e-06	1258.4	218.43	1.155e-05	9.8303e-06	311.53	78.201	41.202	13.133	7.344e-06	31.653	0.001177	0.001411	0.00036832	1038.8	1.3538e-05	1.6095e-05	1290.4	248.97	1.4187e-05	1.6417e-05	362.74	96.246	93.795	21.556	1.5098e-05	39.173	-79.315	72.452	-26.378	-114.977	-116.747	-122.577	-114.810	-112.586	158.457	160.264	-111.435	-103.546	-104.982	-97.725	-34.241	-98.895	-8191	255	
3047.749	1	1	0	0	0.14551	0.15041	0.32635	0.068565	0.21	0.24249	0.070182	0.27409	0.16671	0.10574	0.23502	0.22353	0.13634	0.18265	0.18128	0.06618	-2.2667	-2.0625	-2.45	-2.725	-2.0771	-2.5833	-2.375	-2.0417	-2.9062	-2.0583	-2.5396	-2.7167	-2.0896	-2.45	-2.4854	-2.1167	214.250	70.574	128.308	-124.449	-38.246	44.047	-41.048	146.940	-116.581	107.033	127.910	-71.333	-93.021	188.559	-0.319	196.787	0.00068043	0.0011174	0.00025739	998.88	1.4475e-05	8.6099e-06	1255.9	231.17	7.2828e-06	3.8893e-06	322.6	78.727	43.543	13.536	1.0031e-05	31.715	0.0013933	0.001578	0.00039528	1056	1.6417e-05	1.7989e-05	1308.1	266.2	1.7263e-05	1.833e-05	381.82	100.01	108.49	22.637	1.661e-05	40.595	-72.102	-31.787	-90.481	-115.159	-75.862	3.921	-114.356	-112.752	-106.214	110.661	-111.783	-103.835	-106.583	-97.458	11.187	-98.282	-8191	255	
3047.845	1	1	0	0	0.1909	0.11532	0.10921	0.26348	0.2334	0.07908	0.1003	0.17241	0.028991	0.12812	0.15547	0.14718	0.15167	0.19296	0.27804	0.2643	-2.4479	-2.1667	-2.3521	-2.8521	-1.9562	-2.4875	-2.725	-1.9979	-2.5792	-2.0625	-2.1729	-2.6937	-1.8708	-2.4146	-2.3667	-2.0875	-1.632	29.885	41.429	217.431	176.215	206.136	-51.396	164.081	76.902	108.532	173.695	224.108	153.657	202.899	71.095	212.241	0.00053922	0.0016231	0.000466	1014	1.3818e-05	1.4563e-05	1276.4	236.23	1.129e-05	1.3258e-05	324.49	78.446	43.115	13.538	1.5153e-05	32.215	0.0016636	0.0016777	0.0004147	1080.6	1.8309e-05	1.7597e-05	1320.9	271.58	1.7659e-05	1.6469e-05	373.81	98.541	103.7	20.852	1.3895e-05	39.433	-73.731	18.784	-33.181	-114.813	181.175	36.825	-114.711	-113.389	-83.915	-25.024	-112.016	-103.878	-105.405	-97.361	-4.109	-98.566	-8191	255	
3047.941	1	1	0	0	0.28986	0.1289	0.15232	0.17833	0.055162	0.27962	0.24833	0.14549	0.039348	0.18909	0.13041	0.11917	0.21326	0.10649	0.083426	0.11317	-2.2812	-2.175	-2.225	-2.7875	-2.0125	-2.4562	-2.6854	-2.2042	-2.6833	-2.1708	-2.0667	-2.7667	-1.9813	-2.4417	-2.5333	-2.1	-28.365	50.109	78.549	-127.708	-97.303	204.479	149.357	200.184	-127.597	212.603	190.906	133.413	141.008	60.343	35.540	73.706	0.0003352	0.0015797	3.0236e-05	1003.2	5.5046e-06	3.0354e-06	1257	219.27	9.0689e-06	2.431e-05	308.85	78.97	42.676	13.319	1.2332e-06	32.185	0.0014436	0.0013256	0.00033302	1051.1	1.5503e-05	1.3788e-05	1274.3	250.92	1.5303e-05	1.3674e-05	346.89	96.928	95.764	19.685	1.2668e-05	39.529	-99.392	6.274	67.084	-115.049	31.485	38.001	-114.722	-112.981	114.160	49.614	-111.016	-103.993	-104.059	-97.652	187.141	-98.419	-8191	255	
3048.038	1	1	0	0	0.32264	0.085415	0.15285	0.21012	0.14904	0.17602	0.2273	0.1382	0.033768	0.095052	0.096643	0.14822	0.13742	0.1785	0.19877	0.15665	-2.3771	-2.4688	-2.2104	-2.9437	-2.1646	-2.3458	-2.7625	-2.1146	-2.6583	-2.3729	-2.1833	-2.8625	-2.1271	-2.4167	-2.8521	-2.075	214.449	-30.928	160.126	-112.060	-114.347	62.979	103.602	122.093	-95.982	212.425	119.804	-115.033	-86.952	217.430	-83.865	-107.289	6.4263e-05	0.00055066	0.00020743	1005.5	8.9334e-06	6.5377e-06	1267.5	219.73	1.5085e-05	9.0656e-06	310.85	78.775	42.811	13.127	9.7458e-06	31.532	0.0013397	0.0012119	0.0003121	1058.7	1.4731e-05	1.3041e-05	1275.6	255.29	1.4522e-05	1.2954e-05	347.1	97.827	92.096	19.119	1.2318e-05	39.545	80.804	-27.123	-120.750	-115.012	73.703	55.712	-114.652	-113.165	67.156	75.956	-111.188	-103.780	-103.140	-97.437	68.719	-98.501	-8191	255	
3048.134	1	1	0	0	0.18125	0.13707	0.075922	0.097588	0.28432	0.15586	0.15165	0.15793	0.23502	0.067633	0.19797	0.24944	0.1028	0.20527	0.22312	0.18093	-2.0333	-2.4167	-2.1208	-2.8875	-2.2562	-2.2667	-3.0104	-2.0375	-2.4667	-2.6104	-2.2479	-2.7979	-2.2396	-2.3104	-2.65	-2.1583	-47.737	136.068	90.869	-76.313	-109.192	227.364	203.757	204.595	221.344	1.891	167.272	-76.361	180.864	194.091	122.261	213.054	0.00017548	0.001018	0.00025688	1007.2	1.5194e-05	4.0683e-06	1262	220	1.7463e-05	6.6787e-06	312.26	77.784	42.121	12.926	4.0237e-06	31.309	0.0012455	0.0011493	0.00031091	1062.6	1.3805e-05	1.2524e-05	1276.3	256.78	1.4141e-05	1.3478e-05	357.7	101.5	96.868	19.704	1.4868e-05	41.419	115.709	88.541	165.542	-115.108	21.488	-90.958	-114.766	-112.773	25.524	-40.431	-111.779	-103.753	-105.165	-97.814	207.819	-98.784	-8191	255	
3048.254	1	1	0	0	0.12196	0.1401	0.024445	0.39435	0.31045	0.11737	0.075643	0.10493	0.030666	0.14012	0.21068	0.18757	0.15847	0.28609	0.16949	0.10302	-2.1458	-2.5125	-1.9729	-3.0521	-2.2417	-2.3125	-3.0021	-2.2333	-2.1167	-2.6437	-2.2938	-2.8104	-2.3375	-2.0833	-2.825	-2.1688	15.067	223.781	195.537	155.848	210.609	-68.132	-110.019	222.680	221.947	-55.831	120.594	-100.446	4.539	24.732	23.769	-100.635	0.00018675	0.0012456	0.00010686	1005	1.0389e-05	3.7675e-06	1259.4	221.39	4.1369e-06	8.4435e-06	310.3	78.735	42.27	13.296	2.1704e-05	32.005	0.001383	0.0012995	0.00038074	1087	1.5182e-05	1.4171e-05	1301.5	266.63	1.5296e-05	1.4533e-05	370.51	103.56	97.895	20.201	1.6709e-05	42.176	157.629	-28.381	-128.647	-114.935	100.101	29.965	-114.803	-112.668	4.218	-76.924	-111.277	-103.408	-104.572	-97.560	193.881	-98.363	-8191	255	
3048.349	1	1	0	0	0.19169	0.20744	0.13894	0.20749	0.07619	0.099965	0.11858	0.081286	0.18511	0.091645	0.25655	0.064773	0.31057	0.27061	0.16672	0.31123	-1.9188	-2.6667	-1.8937	-2.8354	-2.3667	-2.1875	-2.8167	-2.1229	-2.4313	-2.6396	-2.3917	-2.7333	-2.4104	-2.0604	-2.6396	-2.3187	46.210	76.585	-97.130	216.308	131.188	189.439	129.024	138.875	154.188	213.494	183.434	-104.726	101.060	140.212	10.341	-50.083	6.6e-05	0.00049676	0.000295	999.36	7.473e-06	8.7846e-06	1254.2	219.14	3.5981e-06	9.7021e-06	311.69	79.459	42.943	13.282	9.1092e-06	32.422	0.0014007	0.0013374	0.00042993	1085	1.544e-05	1.455e-05	1316.1	262.76	1.4993e-05	1.4504e-05	375.37	101.87	94.392	20.198	1.7015e-05	41.275	-123.085	-58.719	107.754	-114.850	137.986	-78.903	-114.354	-112.544	-70.292	-115.198	-111.336	-103.843	-103.064	-97.975	220.782	-97.926	-8191	255	
3048.445	1	1	0	0	0.096218	0.020773	0.30324	0.098013	0.23434	0.19963	0.18902	0.10984	0.065792	0.24503	0.051693	0.084932	0.18075	0.21995	0.19593	0.21089	-1.7354	-2.7583	-2.0354	-2.4771	-2.6208	-2.2104	-2.875	-2.2521	-2.1667	-2.5729	-2.1667	-2.4688	-2.6479	-1.8937	-2.6458	-2.2875	122.253	-10.707	78.071	183.100	147.894	-91.792	191.488	-48.246	199.580	-107.563	88.344	-95.391	213.117	-106.006	115.326	42.531	0.00043527	0.00067451	0.00031807	1004.9	3.1554e-06	7.9865e-06	1259.1	214.27	4.3826e-06	2.2688e-05	308.19	79.352	41.543	13.241	1.0529e-05	31.966	0.001304	0.0013177	0.00042933	1070.3	1.4224e-05	1.4307e-05	1316	252.7	1.3789e-05	1.4328e-05	368.81	98.215	89.009	20.041	1.6003e-05	39.637	-47.292	144.555	79.715	-114.792	170.101	204.102	-114.551	-112.186	131.705	171.419	-110.830	-103.529	-104.457	-97.068	97.899	-97.901	-8191	255	
3048.566	1	1	0	0	0.039856	0.29047	0.22858	0.068708	0.041349	0.22252	0.19791	0.19795	0.23223	0.12886	0.016259	0.19752	0.16745	0.19184	0.27809	0.13277	-1.7417	-2.7458	-1.8875	-2.55	-2.6917	-2.1208	-2.8958	-2.2271	-2.1208	-2.7125	-2.1479	-2.2771	-2.6562	-1.9771	-2.7979	-2.3792	77.321	147.061	-85.225	185.046	17.083	41.594	117.511	198.683	121.091	10.196	61.852	133.309	1.168	34.788	-101.264	215.519	0.00038995	0.0013544	0.0001353	999.65	8.6325e-06	8.6366e-06	1250	203.8	6.9703e-06	1.3471e-05	294.65	76.682	40.111	12.641	1.8009e-05	30.741	0.0011673	0.0012876	0.00039694	1047.1	1.2736e-05	1.4222e-05	1289.3	236.52	1.2512e-05	1.4266e-05	348.39	93.941	82.748	19.554	1.4477e-05	37.642	-26.099	181.107	-129.795	-115.125	100.658	214.020	-114.871	-112.271	49.788	149.458	-110.359	-103.334	-103.069	-98.287	14.370	-98.440	-8191	255	
3048.637	1	1	0	0	0.097895	0.18437	0.169	0.22626	0.1314	0.16859	0.08518	0.2021	0.33232	0.10474	0.24544	0.23099	0.24624	0.27533	0.094221	0.13735	-1.825	-2.7271	-2.0167	-2.4604	-2.4375	-2.075	-2.85	-2.4188	-2.1667	-2.8604	-2.3146	-2.3063	-2.575	-1.9875	-2.5333	-2.6	-30.601	162.112	41.865	223.561	-56.544	219.180	121.822	116.063	-101.520	90.186	184.537	164.887	139.512	-96.975	122.514	-126.928	0.00042339	0.0010532	0.00052983	988.34	1.1233e-05	2.866e-06	1238.2	201.18	7.6193e-06	2.726e-06	294.96	77.274	40.279	12.525	1.6907e-05	30.235	0.0010972	0.0013137	0.00036513	1027.6	1.2555e-05	1.488e-05	1271.7	233.09	1.3011e-05	1.5726e-05	349.73	94.622	89.463	20.756	1.5418e-05	38.348	-57.166	207.967	-33.204	-115.044	-58.722	173.333	-114.279	-111.939	-95.162	22.605	-110.508	-103.572	-104.793	-98.882	6.074	-98.328	-8191	255	
3048.733	1	1	0	0	0.17313	0.091151	0.1854	0.25566	0.023217	0.036824	0.22179	0.058996	0.096471	0.096256	0.24854	0.2089	0.35328	0.17977	0.18363	0.036987	-1.6833	-2.6646	-2.2625	-2.35	-2.8667	-2.1937	-2.6229	-2.5958	-2.0312	-2.5938	-2.4688	-2.2667	-2.6646	-2.1146	-2.4208	-2.6979	37.462	86.007	112.377	-105.511	128.918	125.260	-111.259	-114.635	-38.346	145.677	137.563	195.683	1.809	225.118	-34.841	-61.858	0.00047879	0.00079066	0.00049144	988.03	1.291e-05	1.5907e-05	1237.2	202.6	1.4371e-05	5.1791e-06	296.48	76.632	39.602	12.461	1.5417e-05	30.328	0.0013037	0.0015706	0.00040284	1046.9	1.5483e-05	1.8109e-05	1288.1	242.48	1.618e-05	1.8425e-05	358.72	97.688	101.79	22.023	1.669e-05	39.453	-87.697	200.444	-21.871	-114.843	-101.072	15.745	-114.503	-111.748	183.172	-101.271	-110.142	-104.184	-103.172	-97.421	64.571	-98.319	-8191	255	
3048.830	1	1	0	0	0.10627	0.29427	0.1546	0.30396	0.29723	0.12329	0.1581	0.14966	0.12265	0.10818	0.40312	0.10937	0.24015	0.17752	0.17852	0.22089	-1.4104	-2.6813	-2.2021	-2.2979	-2.7167	-2.0583	-2.5083	-2.6	-1.9708	-2.5812	-2.4437	-1.95	-2.8271	-1.9979	-2.2687	-2.6604	223.631	2.564	-99.910	-71.042	28.276	85.663	-123.321	-2.751	-117.023	119.469	82.188	-4.580	69.160	223.728	33.173	160.835	0.00058053	0.0003024	0.0002967	970.87	8.1661e-06	1.7801e-05	1218.7	194.43	6.6547e-06	2.7333e-06	288.07	75.784	39.18	12.691	3.4419e-06	30.713	0.0015613	0.001719	0.00042889	1043.2	1.7962e-05	1.8875e-05	1276	237.65	1.8089e-05	1.8382e-05	350.47	97.557	106.95	21.675	1.6125e-05	39.908	-82.188	90.908	-57.708	-114.788	-93.832	25.038	-114.496	-111.563	-70.237	-47.519	-110.061	-103.554	-103.575	-97.394	-91.753	-97.868	-8191	255	
3048.950	1	1	0	0	0.049806	0.11495	0.095876	0.12826	0.15947	0.41099	0.32826	0.080847	0.087371	0.012063	0.22761	0.20758	0.1302	0.11843	0.14883	0.20526	-1.7396	-2.5563	-2.4625	-2.1479	-2.7021	-2.0479	-2.4562	-2.7521	-2.1021	-2.6083	-2.5917	-1.9312	-2.7104	-2.2771	-2.1021	-2.7146	-104.476	171.672	200.438	81.914	126.969	-123.810	142.985	130.991	-60.703	22.911	188.800	152.372	-78.484	39.306	208.876	136.065	0.00054114	0.0006494	0.0001291	962.37	2.1376e-05	1.3681e-05	1210.2	189.89	9.0682e-06	9.0801e-06	289.55	76.236	40.312	12.762	7.9509e-06	30.983	0.0016293	0.0015868	0.00039534	1024.5	1.7716e-05	1.6646e-05	1254.2	230.19	1.7242e-05	1.5927e-05	341.07	96.878	102.84	20.439	1.4221e-05	39.412	-44.411	-11.124	18.445	-114.881	-73.278	19.736	-114.774	-111.562	-61.797	-40.368	-110.365	-103.577	-103.659	-96.764	39.342	-98.490	-8191	255	
3049.046	1	1	0	0	0.33565	0.21469	0.14958	0.16129	0.15905	0.10926	0.29609	0.043114	0.12555	0.10911	0.25133	0.097566	0.10244	0.20472	0.080474	0.23373	-1.7521	-2.4167	-2.5646	-2.0792	-2.75	-2.4146	-2.4896	-2.85	-1.9833	-2.5792	-2.8	-2.0604	-2.6167	-2.2979	-2.1083	-2.8792	106.299	-11.550	-54.027	198.639	-12.553	218.985	221.255	168.167	-30.283	20.073	152.238	227.978	86.759	-7.733	0.688	148.262	0.00038112	0.0006425	9.8323e-05	994.68	9.7091e-06	1.1536e-05	1262.6	214.99	5.7379e-06	8.8737e-06	309.92	77.424	42.489	12.674	1.0656e-06	30.603	0.0015422	0.0013959	0.00036332	1062	1.7126e-05	1.5236e-05	1287.9	254.86	1.692e-05	1.4913e-05	354.03	98.828	100.57	19.743	1.3501e-05	39.423	-53.886	-11.009	-127.035	-115.170	48.794	2.355	-114.318	-112.311	-9.889	-24.668	-110.889	-104.040	-104.017	-97.249	194.804	-98.609	-8191	255	
3049.142	1	1	0	0	0.12554	0.19468	0.04847	0.16655	0.041929	0.080677	0.21715	0.19053	0.27598	0.055945	0.13692	0.16194	0.19473	0.10443	0.28881	0.081782	-1.5396	-2.3125	-2.6208	-2.1979	-2.65	-2.4167	-2.4604	-2.8979	-2.1375	-2.5292	-2.7938	-1.9937	-2.6021	-2.5042	-2.0917	-2.8438	-58.688	91.563	-71.785	-117.595	-26.875	-124.431	-126.206	148.907	57.208	78.840	83.669	-82.131	182.788	161.970	137.302	124.962	0.00027223	0.0005658	0.00019627	990.57	4.4556e-06	1.6831e-06	1234	201.7	1.158e-05	1.4967e-05	291.11	75.912	40.51	12.317	8.4114e-06	30.592	0.0014373	0.0012956	0.00034203	1059	1.5705e-05	1.403e-05	1258.8	242.09	1.538e-05	1.3804e-05	334.92	97.741	93.932	18.919	1.3282e-05	39.463	45.586	-54.712	0.126	-114.752	-19.164	-102.945	-114.737	-111.992	20.525	-14.381	-110.431	-103.815	-106.051	-96.639	-91.571	-98.402	-8191	255	
3049.214	1	1	0	0	0.12944	0.083719	0.039053	0.32089	0.25931	0.11967	0.3231	0.21817	0.080576	0.21209	0.094407	0.19241	0.224	0.10941	0.18112	0.085054	-1.7896	-2.1875	-2.6333	-2.1021	-2.5542	-2.4292	-2.2687	-2.7458	-2.2021	-2.2687	-2.9292	-2.1813	-2.3917	-2.4021	-2.1417	-2.8729	127.351	-27.825	27.995	223.568	228.653	215.197	159.757	167.545	130.225	60.150	86.381	229.921	54.776	79.433	-52.532	81.232	0.00038788	0.00085216	0.00021233	966.6	3.5477e-06	1.1455e-05	1202.6	190.33	2.3147e-06	7.4501e-06	283.43	75.862	40.714	12.46	5.6362e-06	30.663	0.0013354	0.0012316	0.00034327	1040.8	1.4789e-05	1.3811e-05	1241.2	237.66	1.5602e-05	1.4493e-05	342.69	101.81	98.144	19.872	1.6147e-05	41.724	27.488	31.421	218.944	-114.785	107.511	30.812	-114.459	-111.159	154.878	-89.026	-110.627	-103.587	-105.052	-97.320	-127.814	-98.583	-8191	255	
3049.333	1	1	0	0	0.12542	0.12106	0.11424	0.11836	0.35576	0.090985	0.12717	0.56933	0.016196	0.16681	0.16446	0.19681	0.33307	0.1531	0.069689	0.10644	-2.0167	-2.1188	-2.6646	-2.25	-2.5229	-2.6292	-2.3208	-2.6458	-2.4437	-2.2979	-2.8125	-2.2479	-2.3896	-2.7333	-1.9688	-2.7125	-114.471	-45.261	-79.396	211.386	29.915	-9.449	206.230	-116.454	-118.302	180.874	54.831	137.460	218.395	-115.578	194.827	128.507	0.00020806	0.00045342	8.8692e-05	966.19	7.6987e-06	8.9795e-06	1216.3	201.16	9.8021e-06	7.617e-06	292.22	76.257	40.924	12.415	2.2849e-05	30.626	0.00149	0.0014142	0.00043715	1071.9	1.698e-05	1.6022e-05	1286.8	255.58	1.717e-05	1.5926e-05	368.27	105.36	102.11	20.406	1.8683e-05	42.256	54.491	-43.241	54.997	-114.762	53.338	-47.994	-114.678	-111.643	-36.749	32.493	-110.597	-103.275	-103.099	-97.352	225.803	-98.357	-8191	255	
3049.429	1	1	0	0	0.10568	0.16763	0.14172	0.45748	0.077928	0.14658	0.44842	0.099682	0.22022	0.036666	0.29194	0.066191	0.23924	0.11883	0.30591	0.31114	-1.8708	-2.1042	-2.6854	-2.1646	-2.2396	-2.7542	-2.1979	-2.5646	-2.2938	-2.0438	-2.7479	-2.2208	-2.4417	-2.7854	-2.0125	-2.5667	113.491	74.386	206.828	-106.633	17.863	187.111	161.933	102.598	90.018	200.882	-99.101	105.132	-46.725	-120.233	212.003	103.889	0.00011427	0.00036232	0.00019434	965.39	6.6006e-06	7.8741e-06	1216.1	201.28	1.1291e-06	6.7147e-06	294.11	76.945	41	12.023	1.9603e-05	30.391	0.0015416	0.0014876	0.00048917	1071.9	1.7154e-05	1.6561e-05	1304.6	255.37	1.7181e-05	1.6729e-05	376.49	103.96	101.79	20.778	1.9892e-05	41.416	-28.559	89.486	161.257	-114.479	68.327	-64.610	-114.495	-111.748	86.505	-81.721	-110.717	-104.053	-102.883	-97.953	197.016	-98.140	-8191	255	
3049.525	1	1	0	0	0.078776	0.14526	0.13544	0.13141	0.058168	0.23456	0.26314	0.12811	0.07147	0.16078	0.1978	0.091865	0.19034	0.086721	0.16193	0.1326	-2.0729	-1.8937	-2.6917	-2.3229	-2.275	-2.7104	-2.3854	-2.7583	-2.5875	-2.2208	-2.8417	-2.2917	-2.1125	-2.9062	-2.2479	-2.4625	220.429	72.845	-60.909	0.007	-70.511	122.429	127.142	5.918	-56.468	228.985	-104.674	-102.016	134.422	147.721	125.698	15.779	0.00030423	0.0010898	0.0001655	961.89	1.0022e-05	1.4247e-05	1210.9	192.42	2.4495e-06	1.764e-05	280.04	75.248	38.893	12.197	5.5646e-06	30.705	0.0015072	0.0015356	0.00049715	1051.6	1.5756e-05	1.6235e-05	1283.6	236.57	1.4611e-05	1.526e-05	347.48	95.402	86.34	19.56	1.5977e-05	38.058	-26.830	177.731	-23.874	-114.772	49.911	213.614	-114.486	-111.595	-104.330	121.140	-109.773	-103.868	-103.015	-97.671	7.830	-98.613	-8191	255	
3049.646	1	1	0	0	0.14355	0.16425	0.052722	0.04934	0.14924	0.16696	0.30257	0.079945	0.020696	0.13106	0.063858	0.23962	0.15668	0.26385	0.31639	0.40778	-2.1396	-1.9937	-2.5917	-2.5042	-2.0917	-2.8583	-2.1625	-2.475	-2.5083	-2.0062	-2.6729	-2.5438	-2.1063	-2.6792	-2.1521	-2.3729	51.131	128.619	-24.087	-117.810	5.727	-27.182	143.893	-110.737	-100.417	155.430	62.440	-116.775	-85.435	22.322	-109.384	49.446	0.00021082	0.0014814	0.00037377	946.66	4.8836e-06	9.3759e-06	1183.4	180.26	5.2694e-06	1.3778e-05	272.16	74.423	38.511	12.565	9.6446e-06	30.858	0.0011663	0.0012941	0.00038516	992.61	1.2317e-05	1.4112e-05	1225.9	212.73	1.212e-05	1.3967e-05	324.52	90.513	79.067	19.217	1.3622e-05	36.773	-17.047	172.147	-57.930	-114.994	207.983	224.003	-114.682	-110.944	53.460	187.433	-110.367	-102.928	-103.259	-97.307	64.587	-98.369	-8191	255	
3049.742	1	1	0	0	0.25387	0.066171	0.12088	0.34828	0.17289	0.036626	0.14922	0.082119	0.072198	0.068501	0.24891	0.25134	0.094273	0.14186	0.23129	0.2014	-2.1167	-1.9042	-2.475	-2.5542	-2.0896	-2.7812	-2.3063	-2.1792	-2.8792	-1.9542	-2.6354	-2.5417	-2.0542	-2.7792	-2.2812	-2.4125	-59.207	-118.465	0.962	200.075	150.299	91.812	124.983	226.850	30.293	219.282	147.322	141.515	71.518	94.423	148.903	196.293	0.00032065	0.001398	0.00013114	941.86	1.1527e-06	1.0438e-06	1189.1	181.38	1.1939e-05	1.7234e-05	275.53	75.452	38.034	12.349	9.7248e-06	30.446	0.0010548	0.0012529	0.0003368	978.23	1.1545e-05	1.3724e-05	1210.6	208.69	1.1624e-05	1.3733e-05	318.42	89.175	78.761	18.986	1.2477e-05	36.008	-68.699	-124.923	13.341	-114.993	-1.381	-95.886	-114.493	-111.408	208.604	179.284	-110.402	-103.357	-104.536	-96.840	-0.276	-98.548	-8191	255	
3049.838	1	1	0	0	0.32347	0.12854	0.060383	0.21384	0.15769	0.33212	0.34996	0.31519	0.10193	0.36063	0.091665	0.24602	0.20771	0.33452	0.27868	0.10913	-2.3333	-2.0687	-2.4083	-2.4313	-1.7729	-2.8479	-2.3958	-2.3125	-2.8812	-2.2062	-2.4042	-2.5938	-1.9646	-2.7771	-2.3896	-2.2479	89.039	-28.694	150.381	205.794	-77.127	126.217	179.473	222.554	-27.849	43.362	146.863	-32.550	-23.439	229.919	110.287	213.428	0.00038769	0.0008254	2.9594e-05	945.37	8.9289e-06	1.3185e-05	1184.7	184.3	1.3404e-05	1.4131e-05	280.17	75.708	37.515	12.489	8.147e-07	30.863	0.0010771	0.0012516	0.00031118	972.52	1.2056e-05	1.3585e-05	1204	210.29	1.2648e-05	1.4034e-05	321.27	90.287	86.393	19.677	1.3483e-05	37.219	-41.019	194.477	183.514	-114.836	-36.566	0.379	-114.698	-111.295	183.644	57.834	-110.048	-103.412	-105.221	-98.026	222.830	-98.050	-8191	255	
3049.934	1	1	0	0	0.15148	0.24362	0.2035	0.17638	0.29337	0.26034	0.2207	0.24973	0.25944	0.22129	0.3739	0.032907	0.1807	0.10876	0.090197	0.029056	-2.225	-2.1458	-2.2354	-2.5354	-1.9542	-2.5833	-2.4729	-2.1417	-2.6271	-2.1333	-2.3771	-2.7833	-1.9458	-2.7417	-2.5375	-2.2062	93.282	140.798	159.345	98.596	155.945	134.599	-109.041	121.011	203.938	45.938	-4.318	221.999	136.003	75.504	-42.713	145.284	0.00037753	0.00034543	0.00011769	944.05	1.0671e-05	2.0239e-05	1191.9	189.55	1.1009e-05	1.4337e-05	280.47	74.966	37.351	12.365	1.8615e-06	30.215	0.0013379	0.0014388	0.00036109	994.57	1.5795e-05	1.6122e-05	1228.7	223.51	1.6377e-05	1.6447e-05	335.45	94.174	101.57	20.581	1.5267e-05	38.628	-74.449	114.733	-87.958	-114.926	-93.186	8.831	-114.396	-111.530	-54.438	49.237	-110.650	-103.528	-104.582	-97.521	-27.724	-98.866	-8191	255	
3050.031	1	1	0	0	0.035711	0.063153	0.10766	0.45667	0.20031	0.3788	0.17325	0.14688	0.26094	0.23924	0.36084	0.23328	0.042252	0.059116	0.1259	0.1024	-2.2729	-2.1604	-2.3625	-2.8438	-1.925	-2.5583	-2.5187	-2.0854	-2.8896	-2.2583	-2.2521	-2.7375	-1.9979	-2.5146	-2.5062	-2.1208	-20.454	187.947	62.520	205.987	3.740	-105.493	70.692	202.377	128.468	115.187	-20.320	144.803	-33.513	-69.428	-70.015	225.745	0.00019793	0.001002	0.00029967	923.99	8.3141e-06	1.4912e-05	1175.4	183.8	1.7097e-05	7.7672e-06	279.03	74.223	39.402	12.268	6.8671e-06	30.269	0.001615	0.0015633	0.00039412	1002.7	1.8527e-05	1.7227e-05	1227	230.5	1.9049e-05	1.7296e-05	341.2	98.691	110.48	20.928	1.6053e-05	40.422	41.773	17.139	-23.305	-114.641	133.974	37.346	-114.521	-111.817	193.006	21.101	-110.522	-103.757	-103.120	-97.032	49.548	-99.142	-8191	255	
3050.127	1	1	0	0	0.24013	0.13265	0.14644	0.03954	0.18643	0.087759	0.16702	0.10172	0.15105	0.020474	0.067407	0.22501	0.24985	0.17915	0.065195	0.072264	-2.2271	-2.1375	-2.1646	-2.8125	-2.1104	-2.2792	-2.7938	-2.1521	-2.7146	-2.4646	-2.0083	-2.7458	-1.8438	-2.4083	-2.5917	-2.1208	-117.014	205.640	-18.627	126.311	118.379	-27.427	104.663	156.930	225.051	90.711	-123.870	108.298	10.387	195.275	-36.505	211.246	9.1677e-05	0.0014946	0.00015864	946.08	2.3324e-05	8.2525e-06	1201.5	195.67	1.2779e-05	5.3554e-06	292.76	73.921	41.039	11.808	4.716e-06	29.074	0.0017421	0.0015769	0.00040895	1039.8	1.9247e-05	1.7101e-05	1257.1	248.47	1.9343e-05	1.7274e-05	353.45	103.23	113.14	20.82	1.6837e-05	41.581	100.356	-4.866	-0.283	-114.848	91.437	53.898	-114.194	-112.074	-4.876	47.004	-110.576	-103.772	-102.725	-98.195	34.434	-98.862	-8191	255	
3050.247	1	1	0	0	0.082381	0.068449	0.23938	0.22051	0.24649	0.25931	0.39219	0.21373	0.17449	0.12753	0.16021	0.10174	0.1247	0.013616	0.17087	0.24164	-2.2021	-2.3833	-1.9917	-2.7271	-2.2812	-2.3021	-2.7562	-1.8646	-2.5292	-2.3375	-2.225	-2.9437	-1.9792	-2.2812	-2.7729	-2.0479	-113.667	-46.730	137.702	217.707	36.757	19.565	153.629	150.153	58.861	34.065	-49.902	-118.735	-35.924	20.719	187.873	193.719	0.00021267	0.00043583	0.00019578	956.67	1.533e-05	1.0232e-05	1217.1	200.07	5.5838e-06	7.7422e-08	284.87	74.824	38.669	12.142	7.8708e-06	30.246	0.0017779	0.0016295	0.00042848	1074.5	1.9096e-05	1.6814e-05	1266	252.15	1.7254e-05	1.5246e-05	338.35	99.786	95.197	18.832	1.3683e-05	39.434	-56.457	202.016	191.387	-114.621	100.537	-74.798	-114.272	-111.797	-21.740	-87.350	-110.408	-104.004	-103.206	-97.928	-29.260	-98.716	-8191	255	
3050.342	1	1	0	0	0.19622	0.088177	0.15192	0.26409	0.057653	0.065648	0.077582	0.12287	0.12292	0.07878	0.098881	0.11648	0.1141	0.071182	0.045679	0.080879	-1.9813	-2.5042	-1.9667	-2.8	-2.2521	-2.1625	-2.7542	-2.0479	-2.5146	-2.6042	-2.0062	-2.7	-2.0417	-2.0667	-2.7396	-1.8937	18.533	4.740	-7.614	189.632	-90.615	-127.583	122.270	206.141	117.961	19.343	-99.734	132.322	223.396	185.520	-4.052	111.736	0.00041206	0.00076895	0.00020048	938.67	1.4781e-05	8.0237e-06	1173.9	175.59	5.3324e-06	3.6964e-06	268.16	75.109	37.349	12.76	5.8087e-06	31.096	0.0012933	0.001191	0.00033154	1008.4	1.3584e-05	1.2351e-05	1200.7	215.31	1.3035e-05	1.2021e-05	312.01	93.906	81.448	17.872	1.2459e-05	38.351	0.536	-91.163	91.121	-114.916	78.348	44.385	-114.485	-110.351	51.930	-83.388	-110.269	-103.420	-102.814	-97.064	173.789	-98.492	-8191	255	
3050.438	1	1	0	0	0.11188	0.113	0.18138	0.1516	0.14646	0.21595	0.15766	0.16117	0.38996	0.15446	0.087339	0.084054	0.045498	0.069211	0.092323	0.072322	-1.8521	-2.5062	-2.0187	-2.7479	-2.2896	-2.0563	-2.8792	-2.1104	-2.5125	-2.6417	-2.0125	-2.6667	-2.1625	-2.0625	-2.6229	-1.9312	184.558	-8.606	-30.614	157.903	11.086	12.991	147.053	228.100	230.655	-10.325	196.820	45.623	114.044	171.685	-49.093	-30.933	9.7796e-05	0.00017978	5.9563e-05	938.48	8.9352e-06	7.0058e-06	1183.3	178.26	3.4811e-06	6.5772e-06	279.25	76.705	39.437	12.632	4.3316e-06	30.839	0.0010768	0.0010173	0.00031608	987.28	1.1847e-05	1.1034e-05	1205.2	212.63	1.1826e-05	1.1231e-05	324.14	93.265	80.633	17.905	1.3523e-05	37.852	-68.014	8.657	-60.936	-115.030	208.258	171.017	-114.668	-110.446	-108.770	2.155	-110.028	-103.593	-103.837	-98.574	-103.717	-98.389	-8191	255	
3050.510	1	1	0	0	0.17809	0.11731	0.23355	0.37926	0.15309	0.16409	0.14393	0.11667	0.21195	0.16663	0.071259	0.22635	0.28235	0.14912	0.11579	0.10274	-1.7104	-2.5833	-1.8979	-2.6917	-2.4375	-2.1021	-3.0208	-2.1604	-2.3063	-2.6562	-2.1875	-2.6688	-2.3438	-2.0625	-2.6979	-2.2583	74.876	-37.480	81.949	-128.831	118.143	21.455	-104.524	123.697	156.052	180.405	213.893	-85.831	172.804	218.085	-44.232	16.865	0.00027305	0.00035824	0.00041449	983.13	7.1077e-06	5.0616e-06	1237.1	205.82	6.85e-06	5.6702e-06	296.96	77.798	40.105	12.563	4.7926e-06	30.865	0.0010854	0.0010718	0.00035378	1029	1.2145e-05	1.1848e-05	1268.1	236.24	1.2143e-05	1.2235e-05	347.82	94.142	82.663	18.544	1.4627e-05	37.568	224.310	-64.501	117.215	-114.947	154.016	162.452	-114.616	-111.928	97.023	203.243	-110.920	-103.754	-102.981	-98.008	-6.029	-98.755	-8191	255	
3050.630	1	1	0	0	0.24486	0.021198	0.062056	0.038604	0.28184	0.12822	0.14094	0.2475	0.041746	0.16515	0.26181	0.17502	0.092085	0.07555	0.15531	0.16722	-1.8604	-2.7625	-1.8479	-2.6021	-2.625	-1.8771	-3.0146	-2.2792	-2.1167	-2.6979	-2.1417	-2.3875	-2.5208	-2.0583	-2.5312	-2.5062	-37.484	-91.425	5.462	20.056	-54.518	12.359	160.005	-72.041	191.256	-12.947	91.280	131.655	201.070	7.643	39.383	228.639	0.0002986	0.0011216	0.00030286	977.17	6.209e-06	1.0153e-05	1209.5	187.82	5.8076e-06	9.5156e-06	278.58	76.735	40.523	12.766	4.0384e-06	31.157	0.0010845	0.0011398	0.00036604	1014.8	1.1724e-05	1.243e-05	1242.4	217.37	1.1393e-05	1.2541e-05	326.09	91.129	77.444	18.806	1.3527e-05	37.106	-7.273	153.381	9.890	-115.110	37.284	174.883	-114.460	-111.345	63.651	135.811	-110.399	-103.244	-104.377	-97.157	118.335	-98.023	-8191	255	
3050.726	1	1	0	0	0.18655	0.2737	0.20947	0.16961	0.11567	0.008163	0.28524	0.26695	0.38996	0.10178	0.15877	0.081315	0.14382	0.1316	0.22088	0.21907	-1.6562	-2.5354	-2.0187	-2.45	-2.6625	-2.0125	-2.8375	-2.4583	-2.1229	-2.8438	-2.2875	-2.3021	-2.6083	-1.9125	-2.6729	-2.5563	195.377	-124.798	16.467	-36.110	72.380	145.450	-83.878	-115.326	141.673	125.264	28.688	92.158	170.503	-13.233	28.169	178.720	0.00014354	0.00064434	0.00023453	937.66	9.0119e-06	9.3844e-06	1169.2	172.37	4.2943e-06	8.7255e-06	272.1	75.791	37.957	12.634	7.8715e-06	30.981	0.0010105	0.0011774	0.00034194	969.6	1.1485e-05	1.3391e-05	1201	204.73	1.1886e-05	1.4239e-05	323.71	92.176	81.836	19.911	1.4358e-05	37.793	-26.231	-52.847	8.565	-115.007	-62.518	116.548	-114.608	-110.620	-34.321	-48.187	-110.180	-103.416	-103.944	-97.707	-74.981	-98.275	-8191	255	
3050.822	1	1	0	0	0.055306	0.32596	0.096601	0.11347	0.19646	0.2463	0.31926	0.15334	0.14691	0.17309	0.052854	0.033824	0.24933	0.24869	0.26944	0.061039	-1.5042	-2.6458	-2.2062	-2.1	-2.5563	-2.0042	-2.7146	-2.5062	-1.9729	-2.8083	-2.3042	-2.2792	-2.8646	-2.1688	-2.4271	-2.7271	9.123	29.589	-40.332	225.545	-121.323	-77.536	170.626	133.531	208.774	92.985	25.232	143.741	5.456	44.379	13.627	224.659	0.000289	0.00041167	0.00044547	945.98	1.396e-05	1.174e-05	1199.8	191.94	1.0163e-05	1.6312e-06	285.99	75.859	38.409	12.31	1.0095e-05	30.048	0.0011543	0.0014106	0.00037198	993.38	1.343e-05	1.5903e-05	1237.3	224.86	1.3855e-05	1.6429e-05	341.46	93.864	91.092	20.713	1.4938e-05	37.587	-70.762	143.541	-41.709	-115.183	-69.639	214.519	-114.425	-111.347	145.964	83.995	-110.380	-103.432	-104.860	-97.953	31.190	-98.126	-8191	255	
3050.919	1	1	0	0	0.16141	0.3642	0.14172	0.016692	0.16802	0.040374	0.13228	0.14347	0.15923	0.20083	0.10433	0.10657	0.25347	0.057439	0.18598	0.1872	-1.6333	-2.875	-2.3458	-2.1479	-2.8604	-2.0417	-2.5792	-2.7042	-2.1562	-2.8271	-2.425	-2.0042	-2.7438	-2.1896	-2.3563	-2.8521	113.809	108.325	-107.590	143.333	188.553	126.467	226.641	-94.669	51.828	199.807	211.257	167.908	66.446	188.107	-20.151	-63.003	0.00064733	0.00040491	0.00028884	951.81	1.5649e-05	8.6521e-06	1202.9	191.15	1.9774e-05	2.4762e-05	285.23	74.479	37.81	12.079	7.6368e-06	29.309	0.0013293	0.0015176	0.00038017	1007.4	1.5282e-05	1.6968e-05	1245.3	228.02	1.5957e-05	1.7224e-05	341.21	93.846	99.038	20.679	1.5247e-05	37.507	-77.760	45.031	7.389	-114.718	-93.946	48.159	-114.261	-111.763	193.356	42.201	-110.078	-103.925	-105.172	-97.403	32.533	-98.212	-8191	255	
3051.015	1	1	0	0	0.14025	0.023529	0.15589	0.20352	0.11098	0.11764	0.18143	0.23741	0.14959	0.20826	0.30338	0.08375	0.18438	0.27196	0.085705	0.16665	-1.3708	-2.6188	-2.3604	-2.2271	-2.725	-1.975	-2.4562	-2.7062	-1.8396	-2.5708	-2.6354	-2.0708	-2.8187	-2.0167	-2.0792	-2.8354	-111.677	88.735	147.589	183.543	225.381	-46.565	12.272	-64.660	92.054	-106.650	137.814	97.529	41.041	16.780	227.026	145.031	0.00066619	0.0015516	9.6422e-05	946.34	7.8812e-06	1.0392e-05	1191.2	185.65	1.6147e-05	9.6917e-06	279.45	74.421	38.675	12.216	9.2229e-06	29.182	0.0015025	0.0015555	0.00038747	1005.3	1.6968e-05	1.6795e-05	1234	223.6	1.7322e-05	1.6747e-05	337.17	94.995	104.21	20.532	1.5419e-05	38.427	-87.333	-3.132	135.575	-114.642	188.467	118.581	-114.571	-111.474	212.424	23.485	-110.298	-103.176	-103.146	-98.097	128.519	-98.559	-8191	255	
3051.111	1	1	0	0	0.16854	0.1783	0.079451	0.39585	0.2066	0.0092599	0.17589	0.03893	0.23761	0.13394	0.27822	0.13088	0.22761	0.12525	0.36054	0.17215	-1.7208	-2.5583	-2.4583	-2.1958	-2.75	-2.2167	-2.4854	-2.8688	-2.1729	-2.4521	-2.7188	-2.2979	-2.8083	-2.3417	-2.1188	-2.7208	76.888	52.826	14.368	180.885	106.906	20.658	162.586	201.075	127.964	57.648	185.830	-92.262	-119.906	-40.997	8.700	71.703	0.00026937	0.0018092	0.00029762	954.9	6.1594e-06	1.4755e-05	1209	189.21	4.027e-06	2.5156e-05	285.52	74.749	39.494	12.162	5.168e-06	29.588	0.0016609	0.00158	0.00040398	1033.8	1.8881e-05	1.7218e-05	1258.3	235.53	1.8966e-05	1.6934e-05	345.38	99.286	109.89	20.72	1.5726e-05	40.165	-5.696	-19.394	-33.040	-114.722	47.253	11.034	-114.509	-111.733	141.857	-0.765	-110.380	-103.411	-103.154	-96.957	-34.356	-99.063	-8191	255	
3051.207	1	1	0	0	0.13353	0.10707	0.33351	0.18003	0.20903	0.22433	0.18409	0.16119	0.043339	0.24522	0.08396	0.1884	0.14129	0.35754	0.16139	0.16231	-1.8167	-2.4437	-2.6521	-2.1167	-2.7146	-2.45	-2.3	-2.8458	-2.2792	-2.4396	-2.8917	-2.05	-2.7083	-2.5833	-2.0563	-2.9167	80.448	-45.758	83.005	-47.348	-25.397	110.706	223.042	157.405	141.638	-66.260	-99.910	187.468	95.500	159.062	131.000	-38.876	0.0003279	0.00078681	0.0003383	969.49	1.3256e-05	1.5098e-05	1225.6	193.29	1.4459e-05	7.6726e-06	288.38	75.169	40.117	12.326	6.0508e-06	29.861	0.0017008	0.0015296	0.00040073	1060.7	1.8714e-05	1.6803e-05	1270.4	244.9	1.8672e-05	1.6728e-05	347.44	102.94	107.53	20.515	1.5565e-05	41.15	19.530	-61.561	12.953	-114.726	36.733	-44.423	-114.514	-111.304	-53.773	-3.107	-110.111	-103.960	-102.932	-97.475	169.214	-98.013	-8191	255	
3051.328	1	1	0	0	0.13616	0.16976	0.14346	0.026556	0.042406	0.063633	0.26734	0.27297	0.15813	0.12233	0.206	0.085874	0.065695	0.12822	0.1569	0.26644	-1.6167	-2.3833	-2.6854	-2.1521	-2.7438	-2.5979	-2.3979	-2.8167	-2.1937	-2.1437	-2.8792	-2.15	-2.625	-2.5042	-2.1583	-2.8625	202.380	-76.083	39.283	-60.232	-2.962	-92.208	188.843	190.541	51.900	57.564	157.797	4.382	33.326	226.956	-67.553	-127.927	0.00041135	0.0016706	0.00010535	967.6	8.8768e-06	1.1012e-05	1219.5	193.34	1.3038e-05	1.5373e-05	287.34	76.532	41.123	12.721	5.249e-06	30.176	0.0016163	0.001466	0.00039615	1066.8	1.758e-05	1.5873e-05	1266.4	244.91	1.6645e-05	1.5016e-05	341.09	101.59	96.056	19.465	1.4115e-05	39.781	69.707	-40.275	-0.947	-115.175	78.112	122.740	-114.495	-111.158	71.519	-51.333	-110.462	-103.355	-104.539	-97.062	147.044	-98.709	-8191	255	
3051.422	1	1	0	0	0.085633	0.35946	0.17964	0.026883	0.19582	0.17603	0.33842	0.28555	0.21785	0.13511	0.123	0.05484	0.18634	0.056853	0.10677	0.15928	-1.8667	-2.1063	-2.775	-2.0812	-2.6063	-2.6875	-2.1437	-2.8167	-2.5042	-2.1063	-2.9333	-2.2083	-2.5187	-2.7479	-1.9583	-2.775	27.118	166.238	41.992	6.171	-83.198	207.799	150.966	184.339	-63.531	27.881	-62.217	105.723	93.328	-4.064	104.162	83.772	0.00043311	0.00091385	8.3191e-05	971.94	9.2584e-06	5.9115e-06	1227.4	192.95	4.5556e-06	6.3396e-06	290.83	78.23	41.566	13.061	1.514e-05	31.081	0.0013376	0.0012454	0.00036281	1053.5	1.46e-05	1.3574e-05	1261.3	237.16	1.452e-05	1.3375e-05	344.26	100.61	91.474	19.392	1.4866e-05	39.854	15.279	-58.208	134.629	-114.671	129.360	56.572	-114.879	-111.065	45.349	70.579	-110.070	-103.260	-102.853	-97.061	198.126	-98.185	-8191	255	
3051.518	1	1	0	0	0.34187	0.16205	0.19868	0.10548	0.06993	0.18678	0.26062	0.029373	0.23861	0.078197	0.060469	0.046356	0.2717	0.037843	0.11366	0.26834	-1.9208	-2.1125	-2.9375	-2.1917	-2.525	-2.7667	-1.9458	-2.6021	-2.4458	-2.15	-2.8354	-2.2583	-2.3583	-2.6458	-1.9646	-2.6188	123.980	-6.224	150.722	-83.525	81.350	-75.265	-101.622	190.533	139.584	160.912	-128.228	-115.150	206.129	-100.954	-17.445	156.405	0.00022148	0.00029607	0.00018383	972.64	1.4438e-05	9.8932e-06	1216.4	191	1.1592e-05	1.3955e-06	286.74	78.843	42.886	13.093	6.451e-06	30.997	0.0012593	0.0011911	0.0003791	1041.2	1.3603e-05	1.291e-05	1258.7	229.56	1.365e-05	1.3031e-05	344.82	99.343	89.699	19.434	1.5774e-05	39.465	-27.472	17.930	140.590	-114.551	12.700	-45.534	-115.007	-110.651	62.561	144.169	-110.077	-102.940	-102.643	-97.708	95.497	-98.057	-8191	255	
3051.614	1	1	0	0	0.11458	0.22417	0.0027751	0.2778	0.45773	0.082214	0.27923	0.19216	0.22392	0.012171	0.2309	0.06413	0.26723	0.17493	0.16553	0.075811	-2.1875	-2.1208	-2.8875	-2.1583	-2.3458	-2.8438	-2.1937	-2.4354	-2.4896	-2.0083	-2.8583	-2.3708	-2.0604	-2.7646	-1.9458	-2.6396	56.411	86.323	154.593	120.656	179.969	-33.224	157.717	-93.212	50.695	166.111	151.486	141.606	213.201	200.996	-50.180	72.114	0.00031386	0.00061664	0.00033105	972.74	1.0397e-05	3.9884e-06	1217.3	190.27	1.0744e-05	1.4774e-05	290.87	80.181	42.569	13.164	7.3901e-06	31.483	0.0012354	0.0012243	0.0004043	1036.9	1.3402e-05	1.3455e-05	1266.3	227.25	1.3326e-05	1.3589e-05	350.66	99.103	89.394	20.254	1.6812e-05	39.97	-50.229	203.378	69.436	-114.655	89.548	214.742	-114.625	-111.067	-74.345	217.546	-109.930	-103.116	-104.479	-97.763	50.522	-98.205	-8191	255	
3051.735	1	1	0	0	0.20821	0.21656	0.076735	0.1203	0.16702	0.085606	0.21819	0.069494	0.030846	0.15122	0.13252	0.093142	0.12818	0.046593	0.012882	0.141	-2.2771	-2.125	-2.4958	-2.3646	-2.2125	-2.8604	-2.1188	-2.45	-2.6396	-2.1771	-2.8042	-2.3083	-2.0479	-2.7792	-2.1583	-2.3667	-87.938	-104.834	-5.653	18.138	-116.390	65.480	136.250	147.596	-57.376	-99.521	85.453	-104.908	120.386	59.578	117.274	-94.611	0.00026097	0.0014954	0.00012336	985.39	7.6165e-06	2.1504e-05	1231.6	195.78	3.8832e-06	1.7266e-05	297.96	79.18	42.969	13.142	1.4251e-05	30.866	0.001293	0.0014166	0.0004483	1058.1	1.4708e-05	1.6322e-05	1303.8	239.25	1.5031e-05	1.6976e-05	368.7	102.59	97.236	22.181	1.8723e-05	40.848	-65.756	196.666	38.875	-114.549	147.747	219.098	-114.287	-111.213	-14.715	213.121	-110.086	-102.712	-103.721	-97.825	48.436	-98.003	-8191	255	
3051.807	1	1	0	0	0.088466	0.11621	0.088451	0.12909	0.11396	0.13665	0.12184	0.35503	0.2553	0.12819	0.2803	0.13502	0.084444	0.14395	0.12281	0.31856	-2.1479	-1.8958	-2.5875	-2.3896	-2.0229	-2.8833	-2.2146	-2.3438	-2.6875	-2.0729	-2.5146	-2.6479	-2.0375	-2.8	-2.1271	-2.2896	30.095	71.457	146.856	1.874	22.283	141.789	166.367	188.493	-35.992	34.698	-102.886	-102.535	102.924	217.672	-12.335	154.897	0.00021756	0.0018237	0.00038559	990.48	3.0174e-06	5.7127e-06	1234.2	198.66	1.39e-05	2.5007e-05	294.98	78.853	41.754	13.223	1.6272e-05	30.636	0.0014409	0.0017021	0.00048318	1073.3	1.6347e-05	1.9516e-05	1320.8	247.26	1.6954e-05	2.0136e-05	375.39	104.7	105.79	23.847	1.9707e-05	41.344	227.823	60.308	18.769	-114.675	177.196	199.739	-114.517	-111.100	181.344	222.920	-110.263	-103.414	-104.277	-98.042	1.694	-98.454	-8191	255	
3051.927	1	1	0	0	0.037586	0.22443	0.19681	0.094618	0.058919	0.13	0.29143	0.11121	0.18745	0.17794	0.20744	0.35429	0.095694	0.12582	0.18606	0.19696	-2.3312	-2.0583	-2.5563	-2.6458	-2.0875	-2.7062	-2.4313	-2.3979	-2.875	-2.2396	-2.6167	-2.5542	-2.0792	-2.8	-2.5583	-2.2479	-54.498	-31.262	-11.374	74.939	-78.086	211.532	188.593	176.689	-124.740	108.037	219.736	209.363	-41.624	-106.410	177.480	219.618	0.00036833	0.00061993	0.00042881	979.08	1.8008e-05	5.8659e-06	1222.9	196.22	1.8073e-05	5.9009e-06	295.47	79.348	40.433	13.033	1.6805e-05	30.752	0.0016264	0.0019524	0.00050188	1073.5	1.8726e-05	2.1913e-05	1315.7	248.58	1.9325e-05	2.2158e-05	377.75	106.27	115.75	24.547	2.0177e-05	41.974	-78.831	-74.540	-70.354	-114.465	-100.608	156.319	-114.440	-111.042	-112.364	64.055	-109.663	-103.124	-103.999	-97.100	22.277	-97.743	-8191	255	
3052.023	1	1	0	0	0.080932	0.13436	0.10983	0.24103	0.18211	0.074139	0.18113	0.21152	0.1066	0.08611	0.19564	0.19346	0.09654	0.25525	0.32703	0.17336	-2.3271	-2.0396	-2.45	-2.8375	-2.1437	-2.7042	-2.3646	-2.2292	-2.7687	-2.0333	-2.4521	-2.7438	-2.0354	-2.6167	-2.2708	-2.1042	6.214	89.039	203.912	83.779	170.419	46.337	148.602	137.883	56.335	145.502	222.327	81.351	107.506	168.146	-96.585	-101.899	0.00070433	0.0016631	0.00010071	983.03	3.284e-05	4.223e-06	1236.9	197.01	5.1463e-06	5.2142e-06	293.54	79.689	41.876	13.068	1.4479e-05	30.509	0.0018527	0.0020643	0.00051061	1086.3	2.1165e-05	2.2659e-05	1327.2	252.56	2.1791e-05	2.2768e-05	379.09	107.92	126.29	24.628	2.0411e-05	42.453	-75.637	-9.027	52.954	-114.326	-108.827	203.234	-114.215	-111.064	156.155	38.971	-110.071	-103.271	-103.415	-97.555	36.875	-98.425	-8191	255	
3052.120	1	1	0	0	0.24407	0.31628	0.074055	0.19317	0.12699	0.26826	0.038907	0.35628	0.030748	0.28189	0.11553	0.21943	0.054306	0.084578	0.12637	0.22196	-2.3229	-2.1458	-2.3146	-2.8417	-2.1271	-2.5667	-2.7521	-2.2083	-2.9229	-2.1937	-2.3521	-2.75	-2.1688	-2.6021	-2.4521	-2.1521	192.715	50.383	80.882	183.684	68.351	84.216	-116.691	222.264	47.137	138.679	169.867	-81.068	2.836	-63.852	192.708	209.955	0.00063867	0.0011639	0.000372	972.87	1.829e-05	1.1928e-05	1224.4	193.08	1.6249e-05	1.2997e-05	289.13	78.62	41.141	12.851	7.0008e-06	30.355	0.0020454	0.0020437	0.00051119	1085.8	2.2907e-05	2.2048e-05	1316.8	249.66	2.3087e-05	2.1616e-05	369.49	107.89	128.55	23.761	1.9685e-05	42.831	-29.398	27.160	-18.144	-114.537	-105.621	16.555	-114.218	-110.728	201.949	8.641	-109.423	-103.136	-103.837	-97.791	18.466	-98.195	-8191	255	
3052.214	1	1	0	0	0.11678	0.077606	0.1872	0.083838	0.16993	0.088771	0.22979	0.19952	0.16309	0.1035	0.2728	0.27365	0.18222	0.083794	0.062002	0.10767	-2.4458	-2.0083	-2.2854	-2.9292	-2.05	-2.4833	-2.6708	-2.1229	-2.7292	-2.4417	-2.2333	-2.9062	-2.025	-2.5208	-2.65	-2.1646	126.009	-97.102	118.391	-93.054	-92.864	64.313	209.397	112.957	227.783	54.044	-29.732	-60.466	-110.770	18.686	122.545	102.701	0.00063694	0.00022656	0.00038835	960.62	2.1256e-06	1.4759e-05	1204.9	181.42	1.3144e-05	2.9039e-05	279.28	77.99	42.265	12.781	1.096e-05	30.498	0.0020948	0.0019127	0.00048927	1077.4	2.2819e-05	2.0199e-05	1280.1	242.41	2.2119e-05	1.9689e-05	353.81	108.51	123.28	22.541	1.7822e-05	42.6	-54.432	38.592	-69.133	-114.410	8.892	-0.658	-114.301	-110.102	197.701	3.082	-109.520	-102.976	-101.075	-97.300	15.048	-98.658	-8191	255	
3052.310	1	1	0	0	0.059507	0.13894	0.34772	0.20723	0.16535	0.097853	0.033418	0.25736	0.18208	0.22569	0.051465	0.20972	0.29318	0.27662	0.32012	0.33488	-2.1833	-2.3146	-2.1188	-2.9875	-2.2083	-2.4354	-2.9354	-2.1312	-2.5875	-2.4604	-1.9813	-2.8292	-2.2417	-2.1458	-2.5229	-2.0333	198.300	-94.894	26.916	201.387	37.563	-69.599	46.369	-97.100	-15.640	-113.589	-101.269	112.403	208.013	-125.293	-33.053	130.366	0.0005309	0.0006256	0.00021855	990.2	1.9003e-05	1.0069e-05	1243.4	195.6	1.926e-05	3.5869e-06	297.45	79.999	44.475	13.079	1.7812e-05	31.118	0.0018624	0.0016632	0.00043017	1099.2	1.9513e-05	1.7272e-05	1299.2	251.39	1.8962e-05	1.6945e-05	356.88	108.02	111.84	21.41	1.6196e-05	42.443	-11.249	-41.550	-34.840	-115.059	72.851	31.756	-114.555	-110.814	33.211	125.959	-110.007	-103.828	-104.543	-96.950	190.288	-98.623	-8191	255	
3052.406	1	1	0	0	0.079647	0.039519	0.15123	0.053013	0.14246	0.40609	0.12584	0.24633	0.11768	0.19934	0.10115	0.14677	0.15302	0.23347	0.18587	0.21635	-2.125	-2.5354	-2.1063	-2.7042	-2.2875	-2.25	-2.8583	-2.1896	-2.4292	-2.425	-2.1708	-2.9188	-2.2292	-2.1917	-2.6479	-2.0875	107.637	53.905	-80.164	69.763	111.055	-74.376	-112.416	206.344	-26.500	90.061	98.943	143.894	-52.786	-125.797	-73.551	145.828	0.00012676	0.00054631	6.4592e-05	1010	6.6298e-06	1.5265e-05	1252.5	198.39	2.1296e-05	1.5753e-05	293.43	81.145	43.214	13.262	1.8723e-05	30.979	0.0016184	0.0014793	0.00040103	1109.7	1.7376e-05	1.5857e-05	1294.1	252.49	1.7046e-05	1.5626e-05	353.6	107.8	103.49	20.723	1.625e-05	42.242	2.996	-18.336	155.819	-114.503	120.642	47.212	-114.543	-110.544	2.227	68.245	-109.589	-103.493	-103.470	-97.463	204.990	-97.902	-8191	255	
3052.502	1	1	0	0	0.047716	0.20417	0.065203	0.17974	0.16861	0.15884	0.081595	0.27374	0.040092	0.22732	0.16276	0.11867	0.22867	0.3061	0.033786	0.010722	-2.1271	-2.6729	-2.0146	-2.925	-2.35	-2.2667	-2.9646	-2.1146	-2.4458	-2.6521	-2.0438	-2.7042	-2.3292	-2.0438	-3.0375	-2.1937	-29.636	110.785	68.168	158.350	14.579	-100.495	-114.390	-94.443	-71.397	180.808	180.008	144.939	29.155	79.486	-37.838	-67.298	0.00017119	0.0010447	0.00051679	980.02	9.6966e-06	9.7671e-06	1219.7	187.91	1.1447e-05	1.5509e-05	287.41	80.894	43.204	13.181	2.444e-06	31.332	0.0014804	0.0013913	0.00041189	1072.3	1.603e-05	1.4846e-05	1267.7	238.23	1.5954e-05	1.5096e-05	353.76	107.22	102.16	20.876	1.834e-05	43.09	-45.484	-3.521	172.349	-114.994	27.621	97.724	-114.515	-110.526	47.370	38.367	-109.581	-102.784	-104.010	-97.228	-88.164	-98.315	-8191	255	
3052.599	1	1	0	0	0.045239	0.06729	0.09216	0.28276	0.19602	0.039209	0.28498	0.23411	0.11561	0.092092	0.13305	0.47185	0.13926	0.21299	0.080242	0.32281	-1.9813	-2.7646	-1.9125	-2.6729	-2.4146	-2.1292	-2.9521	-2.1813	-2.3063	-2.6646	-2.1375	-2.5646	-2.3146	-2.1333	-2.6604	-2.3729	110.504	-97.827	68.916	208.542	-14.720	-47.943	135.432	192.273	179.967	-33.580	106.687	230.216	19.526	77.373	69.483	96.375	0.00011697	0.00088446	0.00039135	988.24	6.8529e-06	1.9716e-05	1238.5	201.25	1.3066e-05	9.2095e-06	297.12	80.871	44.182	13.233	6.8082e-06	30.79	0.0015674	0.0015242	0.00049947	1103.5	1.8275e-05	1.7414e-05	1337	263.13	1.9013e-05	1.8761e-05	397.64	114.66	117.94	23.367	2.3884e-05	45.485	-94.699	142.844	144.488	-114.574	5.223	149.873	-114.399	-110.956	205.440	-105.731	-110.168	-103.178	-102.966	-97.698	-73.407	-97.898	-8191	255	
3052.695	1	1	0	0	0.048245	0.23234	0.19705	0.32809	0.38515	0.21807	0.30041	0.28881	0.1135	0.13063	0.18797	0.19765	0.16761	0.20705	0.14157	0.043557	-1.7854	-2.8063	-1.9375	-2.4437	-2.4542	-1.9083	-2.95	-2.35	-2.1792	-2.6896	-2.2417	-2.5438	-2.5917	-2.1437	-2.7	-2.7229	128.276	-64.386	56.868	216.186	196.050	179.908	162.256	159.765	-15.887	39.088	-78.728	229.048	-62.254	121.733	93.166	227.158	0.00015536	0.00085462	0.00024292	1005.9	1.2932e-05	1.6141e-05	1258.8	214.38	9.187e-06	2.0632e-05	306.59	80.734	43.826	12.767	4.0168e-06	30.198	0.0018646	0.0019051	0.00062922	1146.7	2.119e-05	2.1561e-05	1398.7	282.3	2.1049e-05	2.2177e-05	420.51	115.37	121.87	24.644	2.5389e-05	44.923	-31.154	148.249	-19.898	-114.226	170.882	196.911	-114.557	-111.114	31.414	219.724	-110.084	-103.374	-103.034	-98.334	172.264	-98.333	-8191	255	
3052.815	1	1	0	0	0.12937	0.12087	0.15433	0.082117	0.16255	0.13707	0.21078	0.22062	0.13499	0.13743	0.06641	0.15869	0.10788	0.27356	0.19736	0.030824	-1.8729	-2.7708	-2.2417	-2.5625	-2.5438	-2.0958	-2.925	-2.4875	-2.0958	-2.9979	-2.2021	-2.4917	-2.8063	-2.1417	-2.6542	-2.6604	160.980	-68.397	168.469	213.815	59.891	52.010	124.583	-45.236	-61.180	-80.425	37.177	-47.513	79.440	-100.423	-32.339	187.780	0.00013643	0.0015874	0.00034593	992.32	7.5658e-06	2.8531e-05	1236.3	196.66	5.0749e-06	1.1795e-05	289.17	78.698	40.414	12.597	1.6321e-05	29.949	0.0018813	0.0021083	0.00064468	1128.7	2.1042e-05	2.3705e-05	1376.5	266.17	2.1097e-05	2.4309e-05	406.64	113.71	121.81	25.792	2.5288e-05	44.843	192.306	179.667	16.870	-114.741	-107.678	222.202	-114.478	-110.236	214.120	191.237	-109.724	-103.053	-102.896	-98.040	20.994	-97.992	-8191	255	
3052.912	1	1	0	0	0.082014	0.15192	0.088591	0.22986	0.15822	0.16885	0.22651	0.12312	0.13344	0.059463	0.13269	0.21055	0.079416	0.11468	0.15765	0.1929	-1.7125	-2.6437	-2.0938	-2.3021	-2.725	-2.1437	-2.6875	-2.6063	-1.9792	-2.9	-2.1958	-2.2625	-2.6458	-2.2104	-2.6042	-2.7271	82.722	4.084	-94.258	117.178	59.791	-77.807	-127.286	18.376	-111.773	-48.292	15.771	-114.246	47.184	212.762	-15.142	178.272	0.00058196	0.00084976	0.0003734	973.42	1.4353e-05	2.3912e-05	1222.2	191.13	5.1981e-06	1.304e-05	287.6	78.821	40.47	12.653	2.0762e-05	30.336	0.0019362	0.0023258	0.00064009	1115.3	2.1933e-05	2.5969e-05	1361.9	261.05	2.2028e-05	2.6135e-05	397.66	112.46	124.53	26.409	2.3489e-05	43.93	-70.116	137.130	-15.429	-114.771	225.181	222.785	-114.458	-110.212	208.997	49.624	-109.128	-102.984	-105.750	-97.766	24.322	-97.745	-8191	255	
3053.008	1	1	0	0	0.049405	0.27654	0.31536	0.21511	0.034987	0.075101	0.17101	0.13663	0.19603	0.14398	0.11753	0.18895	0.085956	0.16406	0.14585	0.18067	-1.7687	-2.8083	-2.3	-2.3646	-2.6458	-2.2542	-2.6604	-2.7208	-2.1167	-2.6708	-2.4042	-2.3625	-2.6667	-2.0667	-2.2812	-2.5958	7.983	-53.805	208.688	151.338	59.975	221.733	159.671	97.320	-89.976	-97.149	137.835	190.520	-29.022	210.835	-9.968	-71.806	0.00049317	0.00047314	0.00034693	967.57	2.4492e-05	6.1219e-06	1225.9	188.39	2.6259e-05	1.2618e-05	285.88	79.048	40.711	12.919	2.4375e-06	30.634	0.0019247	0.0022437	0.00055868	1083.3	2.0843e-05	2.3732e-05	1324.8	245.57	2.0234e-05	2.2519e-05	368.06	105.23	114.85	23.794	1.8593e-05	40.736	-99.853	104.251	-36.328	-114.499	-95.494	157.245	-114.482	-110.755	228.124	68.411	-109.418	-102.804	-103.458	-98.007	31.023	-97.767	-8191	255	
3053.104	1	1	0	0	0.29746	0.2448	0.062145	0.30555	0.12806	0.1564	0.18262	0.10002	0.076991	0.026586	0.14534	0.16848	0.16076	0.24757	0.14414	0.2176	-1.4604	-2.6188	-2.3312	-2.2333	-2.7958	-1.9917	-2.5708	-2.6604	-1.8312	-2.4188	-2.5333	-2.0604	-2.7687	-2.1063	-2.2896	-2.7042	-20.789	179.478	-127.611	218.869	-109.986	94.744	230.899	-102.128	131.457	-102.485	214.111	-127.708	200.813	172.979	-120.535	150.161	0.00048377	0.0010288	0.00026594	983.7	1.1994e-05	2.6435e-06	1229.6	188.55	1.3795e-05	1.3096e-05	290.95	78.676	41.331	13.095	9.4511e-06	30.359	0.0017216	0.001849	0.00045518	1063.2	1.9025e-05	1.9768e-05	1296.2	235.02	1.9063e-05	1.9197e-05	355.18	101.55	112.72	22.447	1.6833e-05	39.952	-85.085	-1.769	-29.567	-114.700	-98.269	88.193	-114.206	-110.870	185.006	-22.011	-109.697	-103.911	-104.035	-97.608	29.738	-98.422	-8191	255	
3053.200	1	1	0	0	0.21762	0.10618	0.10366	0.1433	0.070444	0.16783	0.20831	0.39361	0.16499	0.021555	0.13345	0.1809	0.026537	0.12349	0.099276	0.070426	-1.4771	-2.3417	-2.4354	-2.0458	-2.7438	-2.0479	-2.4437	-2.8771	-1.9521	-2.6583	-2.4396	-2.1167	-2.65	-2.1375	-2.0938	-2.8354	47.181	-58.846	66.625	150.282	112.336	115.268	160.976	-125.005	-12.990	-102.542	103.950	109.890	203.602	127.638	114.519	215.568	0.00060462	0.0020829	0.00016857	989.41	5.6624e-06	2.0827e-05	1239.8	193.8	8.7354e-06	1.4768e-05	289.98	78.897	41.432	12.864	5.3677e-06	30.058	0.0017274	0.0016821	0.00042486	1067.8	1.9267e-05	1.8121e-05	1291.8	239.9	1.9302e-05	1.7769e-05	352.88	102.32	114.21	21.669	1.6111e-05	40.321	-44.041	-32.105	6.453	-114.872	3.426	53.077	-114.648	-111.045	-33.953	-11.401	-109.665	-104.093	-100.921	-97.037	26.898	-98.967	-8191	255	
3053.296	1	1	0	0	0.10907	0.3305	0.1106	0.12204	0.23076	0.24607	0.29495	0.11618	0.13405	0.041069	0.27078	0.20468	0.16076	0.11749	0.18557	0.097506	-1.8312	-2.3438	-2.5354	-2.1417	-2.6104	-2.3833	-2.2833	-2.7875	-2.1396	-2.6208	-2.6875	-2.2104	-2.7271	-2.35	-2.0146	-2.8396	-96.096	-42.044	78.769	-51.263	63.745	-89.092	148.927	116.841	34.432	187.229	170.511	204.604	-83.633	24.139	31.953	-59.594	0.0002282	0.0010345	0.00025472	982.48	3.3309e-06	6.6159e-06	1234.3	193.17	4.591e-06	1.1289e-05	286.94	77.726	42.897	12.815	1.4999e-05	30.261	0.0017436	0.0015832	0.00041287	1074.4	1.9601e-05	1.7607e-05	1286.4	246.25	2.006e-05	1.7845e-05	353.58	106.41	117.48	21.951	1.6985e-05	42.721	154.609	-6.993	19.029	-114.766	115.688	-23.831	-114.626	-110.700	54.273	-26.628	-110.481	-103.720	-103.957	-97.905	-33.838	-98.000	-8191	255	
3053.415	1	1	0	0	0.25161	0.083374	0.37863	0.06131	0.28168	0.19904	0.15652	0.21111	0.01633	0.1186	0.1189	0.28249	0.11778	0.20348	0.28366	0.089903	-1.5271	-2.3604	-2.3833	-2.0646	-2.65	-2.4938	-2.2771	-2.7625	-2.2875	-2.2792	-2.6083	-2.0146	-2.5146	-2.4917	-1.9708	-2.8896	-33.010	47.826	69.724	-5.009	-12.641	187.136	154.068	-109.817	-26.167	-47.113	178.876	214.739	99.541	178.617	58.431	16.914	0.00014813	0.0011463	0.00011674	974.36	3.0732e-06	2.6309e-05	1221.7	191.68	1.2918e-05	9.6612e-06	288.34	78.497	42.889	12.704	1.5825e-05	30.265	0.0018569	0.0016853	0.00045001	1101.6	2.1193e-05	1.9232e-05	1300.2	259.13	2.1784e-05	1.9895e-05	369.15	114.98	125.3	23.192	1.9927e-05	45.921	62.138	13.837	114.052	-114.597	114.567	-4.199	-114.456	-111.077	67.448	109.122	-110.203	-103.102	-103.538	-98.044	-91.749	-98.014	-8191	255	
3053.511	1	1	0	0	0.099097	0.29492	0.062065	0.08819	0.20979	0.22927	0.16874	0.11255	0.24088	0.093367	0.3135	0.22372	0.062539	0.098297	0.06468	0.19339	-1.8104	-2.0042	-2.6604	-2.1271	-2.6458	-2.425	-2.0938	-2.7646	-2.0458	-2.3125	-2.7646	-2.1354	-2.6688	-2.7271	-1.9667	-2.6937	31.257	227.952	216.632	137.719	178.782	117.854	-97.334	-95.314	-40.333	147.797	126.071	218.877	53.993	181.046	-106.322	-84.548	0.00027055	0.00043765	0.00039376	982.26	2.3046e-06	9.8475e-06	1227	193.9	1.6993e-05	1.0135e-05	284.17	78.167	42.607	12.792	9.582e-06	29.989	0.0020066	0.0018593	0.00052618	1142.7	2.2485e-05	2.0626e-05	1331	271.02	2.2203e-05	2.042e-05	380.85	117.32	123.66	23.102	2.1729e-05	46.154	90.742	208.795	110.366	-114.708	111.829	46.702	-114.613	-110.933	0.891	37.339	-109.870	-103.405	-104.160	-97.518	218.951	-97.940	-8191	255	
3053.607	1	1	0	0	0.28475	0.026799	0.26695	0.15794	0.060286	0.18333	0.32426	0.13667	0.062189	0.31575	0.36686	0.2694	0.075781	0.32662	0.095842	0.023938	-1.85	-1.9646	-2.6896	-2.3125	-2.3333	-2.5833	-2.225	-2.5375	-2.2062	-2.1729	-2.6708	-2.2229	-2.2542	-2.8417	-1.9896	-2.6896	100.680	-44.766	84.837	97.458	96.163	-76.271	175.493	-108.575	62.098	-119.263	172.245	117.018	173.963	159.848	216.738	134.173	0.00036526	0.001331	0.0004796	970.64	1.1351e-05	1.6279e-05	1212.8	188.31	6.1502e-06	1.1076e-05	283.47	78.547	41.717	12.594	1.5402e-05	30.111	0.0019645	0.0018469	0.0005709	1131.9	2.1619e-05	2.0293e-05	1331.4	264.32	2.143e-05	2.0011e-05	386.07	114.59	118.16	22.482	2.2089e-05	44.151	-45.083	-47.674	141.471	-114.326	18.355	95.293	-114.802	-110.845	-28.530	-127.878	-109.733	-102.997	-102.753	-97.508	197.748	-98.187	-8191	255	
3053.703	1	1	0	0	0.044875	0.11109	0.1112	0.10476	0.11	0.2815	0.30013	0.048044	0.14287	0.10318	0.036368	0.095457	0.024761	0.16618	0.20267	0.14057	-2.0333	-2.1875	-2.6104	-2.2625	-2.2604	-2.6063	-2.2	-2.8063	-2.4021	-2.1875	-2.8167	-2.0354	-2.0687	-2.7188	-2.0375	-2.6333	-70.749	27.336	-124.411	161.030	-48.815	54.711	-102.351	-32.298	46.354	-67.898	-113.883	-48.466	161.070	171.255	-123.526	-126.592	0.00038452	0.0013016	0.00041791	966.17	1.601e-06	1.0481e-05	1211.6	184.14	1.5361e-05	2.1606e-05	280.64	78.248	42.588	12.846	5.444e-06	30.461	0.0017349	0.0016511	0.00053435	1087.1	1.815e-05	1.7356e-05	1309.2	241.41	1.7258e-05	1.6878e-05	366.55	105.09	102.5	21.243	1.9547e-05	41.285	19.270	152.391	187.188	-114.721	-70.996	196.749	-114.617	-110.398	30.080	219.060	-109.437	-103.200	-103.003	-97.552	166.671	-97.928	-8191	255	
#DATA ENDS
