BOXY.EXE: ISS Imagent and Oximeter Data Acquisition Program Version 0.80
Ascii Record File

#ACQ INFORMATION
2  Detector Channels 
16  External MUX Channels 
1  Auxiliary Channels 
5000  Waveform (CCF) Frequency (Hz)
1  Waveforms Skipped 
30  Waveforms Averaged 
1  Cycles Averaged 
16  Acquisitions per Waveform 
10.0806  Updata Rate (Hz) 

#FILE INFORMATION
TRUE -- External MUX Channel results are PARSED.
FALSE -- AC DC and Phase are NOT grouped.
TRUE -- Companion Program Settings File CREATED.
FALSE -- AC data not excluded
FALSE -- DC data not excluded
FALSE -- Phase data not excluded
FALSE -- Auxillary Chn. data not excluded
Tab delimiters

#CALIBRATION STATE
TRUE -- Waveform Calibration Values APPLIED.


#AUX CALIBRATION VALUES
Val Type	aux-1	

Term	1.0000e+00	
Factor	0.0000e+00	


#WF CALIBRATION VALUES
A = Detector Channel
Val Type	A-AC1	A-AC2	A-AC3	A-AC4	A-AC5	A-AC6	A-AC7	A-AC8	A-AC9	A-AC10	A-AC11	A-AC12	A-AC13	A-AC14	A-AC15	A-AC16	A-DC1	A-DC2	A-DC3	A-DC4	A-DC5	A-DC6	A-DC7	A-DC8	A-DC9	A-DC10	A-DC11	A-DC12	A-DC13	A-DC14	A-DC15	A-DC16	A-Ph1	A-Ph2	A-Ph3	A-Ph4	A-Ph5	A-Ph6	A-Ph7	A-Ph8	A-Ph9	A-Ph10	A-Ph11	A-Ph12	A-Ph13	A-Ph14	A-Ph15	A-Ph16	

Term	0.00000e+00	0.00000e+00	0.00000e+00	0.00000e+00	0.00000e+00	0.00000e+00	0.00000e+00	0.00000e+00	0.00000e+00	0.00000e+00	0.00000e+00	0.00000e+00	0.00000e+00	0.00000e+00	0.00000e+00	0.00000e+00	0.00000e+00	0.00000e+00	0.00000e+00	0.00000e+00	0.00000e+00	0.00000e+00	0.00000e+00	0.00000e+00	0.00000e+00	0.00000e+00	0.00000e+00	0.00000e+00	0.00000e+00	0.00000e+00	0.00000e+00	0.00000e+00	0.00000e+00	0.00000e+00	0.00000e+00	0.00000e+00	0.00000e+00	0.00000e+00	0.00000e+00	0.00000e+00	0.00000e+00	0.00000e+00	0.00000e+00	0.00000e+00	0.00000e+00	0.00000e+00	0.00000e+00	0.00000e+00	
Factor	1.00000e+00	1.00000e+00	1.00000e+00	1.00000e+00	1.00000e+00	1.00000e+00	1.00000e+00	1.00000e+00	1.00000e+00	1.00000e+00	1.00000e+00	1.00000e+00	1.00000e+00	1.00000e+00	1.00000e+00	1.00000e+00	1.00000e+00	1.00000e+00	1.00000e+00	1.00000e+00	1.00000e+00	1.00000e+00	1.00000e+00	1.00000e+00	1.00000e+00	1.00000e+00	1.00000e+00	1.00000e+00	1.00000e+00	1.00000e+00	1.00000e+00	1.00000e+00	X	X	X	X	X	X	X	X	X	X	X	X	X	X	X	X	

B = Detector Channel
Val Type	B-AC1	B-AC2	B-AC3	B-AC4	B-AC5	B-AC6	B-AC7	B-AC8	B-AC9	B-AC10	B-AC11	B-AC12	B-AC13	B-AC14	B-AC15	B-AC16	B-DC1	B-DC2	B-DC3	B-DC4	B-DC5	B-DC6	B-DC7	B-DC8	B-DC9	B-DC10	B-DC11	B-DC12	B-DC13	B-DC14	B-DC15	B-DC16	B-Ph1	B-Ph2	B-Ph3	B-Ph4	B-Ph5	B-Ph6	B-Ph7	B-Ph8	B-Ph9	B-Ph10	B-Ph11	B-Ph12	B-Ph13	B-Ph14	B-Ph15	B-Ph16	

Term	0.00000e+00	0.00000e+00	0.00000e+00	0.00000e+00	0.00000e+00	0.00000e+00	0.00000e+00	0.00000e+00	0.00000e+00	0.00000e+00	0.00000e+00	0.00000e+00	0.00000e+00	0.00000e+00	0.00000e+00	0.00000e+00	0.00000e+00	0.00000e+00	0.00000e+00	0.00000e+00	0.00000e+00	0.00000e+00	0.00000e+00	0.00000e+00	0.00000e+00	0.00000e+00	0.00000e+00	0.00000e+00	0.00000e+00	0.00000e+00	0.00000e+00	0.00000e+00	1.28517e+01	-1.29853e+02	-1.21677e+02	-1.83139e+02	-6.87604e+01	-6.58281e+01	-1.58786e+02	-1.62015e+02	-3.78925e+01	-6.62887e+01	-1.74618e+02	-1.69957e+02	-1.81837e+02	-1.77561e+02	-6.52837e+01	-1.50666e+02	
Factor	4.19535e-05	1.47765e-04	4.14717e-05	1.57738e-01	1.79528e-06	1.54020e-06	1.56161e-01	5.11438e-02	2.10370e-06	1.42995e-06	8.44469e-02	2.60920e-02	3.29983e-02	8.55630e-03	1.62642e-06	1.22491e-02	7.88855e-06	9.80151e-06	2.73652e-06	8.23762e-02	1.02511e-07	1.08110e-07	7.62380e-02	2.67946e-02	1.02899e-07	1.07992e-07	4.29504e-02	1.32841e-02	1.72875e-02	4.52344e-03	1.05122e-07	6.26707e-03	X	X	X	X	X	X	X	X	X	X	X	X	X	X	X	X	



#DISTANCE SETTINGS
A = Detector Channel
A-1	A-2	A-3	A-4	A-5	A-6	A-7	A-8	A-9	A-10	A-11	A-12	A-13	A-14	A-15	A-16	

2.5000e+00	3.0000e+00	2.5000e+00	3.0000e+00	2.0000e+00	3.0000e+00	1.5000e+00	3.0000e+00	3.0000e+00	3.0000e+00	3.0000e+00	3.0000e+00	3.0000e+00	3.0000e+00	1.5000e+00	3.0000e+00	

B = Detector Channel
B-1	B-2	B-3	B-4	B-5	B-6	B-7	B-8	B-9	B-10	B-11	B-12	B-13	B-14	B-15	B-16	

1.0000e+01	1.0000e+01	1.0000e+01	1.4400e+00	1.0000e+01	1.0000e+01	1.5100e+00	1.9400e+00	1.0000e+01	1.0000e+01	1.9900e+00	2.4900e+00	2.4100e+00	2.9000e+00	1.0000e+01	2.9800e+00	




#DATA BEGINS
time	group	step	mark	flag	A-AC1	A-AC2	A-AC3	A-AC4	A-AC5	A-AC6	A-AC7	A-AC8	A-AC9	A-AC10	A-AC11	A-AC12	A-AC13	A-AC14	A-AC15	A-AC16	A-DC1	A-DC2	A-DC3	A-DC4	A-DC5	A-DC6	A-DC7	A-DC8	A-DC9	A-DC10	A-DC11	A-DC12	A-DC13	A-DC14	A-DC15	A-DC16	A-Ph1	A-Ph2	A-Ph3	A-Ph4	A-Ph5	A-Ph6	A-Ph7	A-Ph8	A-Ph9	A-Ph10	A-Ph11	A-Ph12	A-Ph13	A-Ph14	A-Ph15	A-Ph16	B-AC1	B-AC2	B-AC3	B-AC4	B-AC5	B-AC6	B-AC7	B-AC8	B-AC9	B-AC10	B-AC11	B-AC12	B-AC13	B-AC14	B-AC15	B-AC16	B-DC1	B-DC2	B-DC3	B-DC4	B-DC5	B-DC6	B-DC7	B-DC8	B-DC9	B-DC10	B-DC11	B-DC12	B-DC13	B-DC14	B-DC15	B-DC16	B-Ph1	B-Ph2	B-Ph3	B-Ph4	B-Ph5	B-Ph6	B-Ph7	B-Ph8	B-Ph9	B-Ph10	B-Ph11	B-Ph12	B-Ph13	B-Ph14	B-Ph15	B-Ph16	aux-1	digaux	

13488.593	1	1	0	512	0.17223	0.19171	0.08163	0.20373	0.18707	0.11702	0.23962	0.21483	0.2355	0.19217	0.048737	0.23431	0.2968	0.12124	0.16424	0.26859	-1.975	-2.1458	-2.7979	-2.2458	-2.4021	-2.6312	-2.175	-2.7396	-2.4625	-2.0417	-2.7271	-2.1958	-2.3563	-2.8021	-2.175	-2.7438	72.275	111.730	130.020	267.567	-54.660	228.824	245.255	172.577	96.425	265.689	239.980	-22.239	-25.688	139.855	214.812	285.723	8.8684e-05	0.00051311	0.00013602	1414.9	9.7215e-06	1.0017e-05	982.85	412.85	4.049e-06	1.9863e-06	328.16	95.653	111.53	35.103	8.6563e-06	35.674	0.0015773	0.0018995	0.00051718	1293.2	1.9829e-05	2.0764e-05	896.85	376.54	1.9842e-05	2.0697e-05	304.17	88.865	104.37	32.984	2.0327e-05	33.619	224.671	-32.673	59.803	-42.807	85.968	111.408	-43.427	-38.191	276.097	75.429	-39.702	-34.516	-33.429	-28.297	87.978	-30.777	-8191	255	
13488.689	1	1	0	0	0.24286	0.20295	0.051618	0.12545	0.042181	0.16995	0.090901	0.34975	0.14383	0.25034	0.057489	0.055646	0.097496	0.28872	0.12791	0.030097	-2.1021	-1.9875	-2.7	-2.4167	-2.2708	-2.7792	-2.2833	-2.6292	-2.4333	-2.175	-2.8458	-2.2	-2.1792	-2.8875	-2.175	-2.7188	113.767	-22.722	70.983	185.736	163.470	207.451	260.718	282.607	247.076	46.390	16.423	70.962	-37.022	221.557	242.703	178.464	0.00014834	0.00039026	0.00018081	1406.7	1.2922e-06	2.6763e-06	980.84	411.62	4.1809e-06	7.0613e-06	328.23	95.148	112.65	35.242	2.118e-06	35.447	0.0015746	0.0018783	0.00051279	1284.9	1.9894e-05	2.0356e-05	895.07	375.95	1.9966e-05	2.0974e-05	304.8	88.69	104.98	33.005	2.0247e-05	33.547	278.246	127.611	24.513	-42.865	93.817	212.651	-43.699	-38.551	35.311	41.128	-40.327	-35.062	-33.668	-28.164	165.859	-31.372	-8191	255	
13488.785	1	1	0	0	0.3602	0.13173	0.072524	0.25344	0.20336	0.12924	0.1972	0.29675	0.14009	0.13239	0.16619	0.16697	0.12676	0.27333	0.081706	0.022572	-2.2792	-1.9292	-2.7979	-2.6083	-2.1625	-2.9833	-2.1688	-2.5729	-2.625	-2.0854	-2.6417	-2.4125	-2.2271	-2.7812	-2.2	-2.6146	242.079	105.146	248.294	246.881	-30.168	130.446	145.820	-49.507	167.330	210.302	296.458	287.792	263.073	2.102	230.111	-30.691	0.00011583	0.00095904	0.00016509	1418.6	3.7803e-06	6.2198e-06	992.17	413.99	1.1686e-05	7.5531e-06	332.7	96.24	113.09	35.401	7.0224e-06	36.015	0.0015888	0.0018913	0.00052746	1296.7	2.0639e-05	2.1122e-05	907.46	380.54	2.04e-05	2.1139e-05	308.33	89.732	105.44	33.149	2.059e-05	33.873	-23.379	24.021	63.702	-42.951	73.307	86.265	-43.916	-38.362	93.696	94.063	-39.444	-34.323	-33.096	-27.712	126.138	-30.461	-8191	255	
13488.881	1	1	0	0	0.12579	0.1089	0.17711	0.17813	0.09885	0.078502	0.28004	0.24726	0.25929	0.13017	0.20561	0.23311	0.11341	0.24254	0.067425	0.13827	-2.2104	-2.1479	-2.5792	-2.8854	-2.1167	-2.6688	-2.2792	-2.325	-2.7708	-2	-2.7979	-2.5375	-1.9312	-2.6979	-2.2292	-2.4417	101.171	187.941	231.303	276.901	186.314	75.970	-49.231	179.560	256.309	199.000	129.033	234.859	212.829	88.614	223.565	82.599	8.3354e-05	0.00030694	0.00018691	1434.2	6.7614e-07	4.4111e-06	990.03	415.61	9.2663e-06	5.5957e-06	329.63	95.853	113.98	35.391	5.62e-06	35.927	0.0016138	0.001906	0.00053527	1305.7	1.99e-05	2.1085e-05	906.74	380.47	2.0041e-05	2.0505e-05	306.58	89.434	105.8	33.16	2.0119e-05	33.797	-42.143	85.072	124.873	-42.443	140.843	107.339	-43.009	-37.697	109.087	7.694	-38.814	-34.373	-33.238	-27.773	116.089	-30.098	-8191	255	
13489.002	1	1	0	0	0.14659	0.12429	0.14569	0.25634	0.16648	0.12952	0.20605	0.20186	0.064464	0.27207	0.076696	0.12623	0.18104	0.11183	0.15108	0.23145	-2.3688	-2.2146	-2.5438	-2.8375	-2.1396	-2.7771	-2.4417	-2.3833	-2.9	-2.0354	-2.5604	-2.8167	-2.0187	-2.7833	-2.2667	-2.1896	69.287	187.936	151.355	232.495	-44.319	53.468	220.510	198.518	98.876	31.962	258.279	213.386	32.395	226.478	21.412	177.404	0.00025123	0.00070215	0.00011871	1420.3	7.3798e-07	5.1716e-06	979.42	411.87	7.5769e-06	6.1104e-06	329.9	95.19	112.22	35.574	5.3729e-06	35.682	0.0015693	0.0019049	0.00052896	1298.4	1.9437e-05	2.0814e-05	899.37	378.13	1.9978e-05	2.0817e-05	304.88	88.918	104.65	33.209	2.0497e-05	33.571	254.553	64.285	48.630	-42.434	266.989	21.352	-43.693	-37.962	108.893	210.466	-39.595	-34.810	-33.341	-27.907	129.222	-30.794	-8191	255	
13489.096	1	1	0	0	0.26092	0.1183	0.095124	0.23598	0.12792	0.16049	0.32616	0.14124	0.06562	0.23726	0.10072	0.1338	0.37843	0.025565	0.15091	0.25125	-2.3688	-2.2188	-2.5333	-2.9375	-1.9208	-2.6625	-2.5208	-2.2979	-2.8937	-2.2917	-2.6479	-2.8667	-2	-2.6667	-2.4646	-2.1729	300.407	233.827	121.092	274.211	245.445	48.444	257.842	276.881	30.270	157.645	210.380	21.359	-41.536	243.744	-23.647	98.420	0.00011646	0.00047158	0.00019137	1410.5	2.2203e-06	5.0042e-06	981.63	413.96	2.898e-06	6.1655e-06	327.43	95.335	112.73	35.328	1.2011e-05	35.627	0.0015649	0.0018582	0.00052814	1293.5	1.9404e-05	2.0765e-05	899.28	378.41	1.9955e-05	2.0476e-05	305.36	89.046	105.14	33.149	2.0777e-05	33.666	-37.177	146.249	28.473	-42.723	79.427	150.336	-43.446	-37.687	157.236	89.759	-39.992	-34.699	-33.089	-28.028	193.981	-29.866	-8191	255	
13489.193	1	1	0	0	0.072854	0.16113	0.24659	0.16345	0.035401	0.11113	0.066924	0.35987	0.25923	0.22328	0.105	0.16432	0.13361	0.1093	0.060009	0.046344	-2.2708	-2.2229	-2.2625	-2.8708	-1.9479	-2.6667	-2.6813	-2.1896	-2.7812	-2.2708	-2.3	-2.7938	-2.2229	-2.7313	-2.7146	-2.3063	261.858	-41.352	183.188	248.079	-9.554	-4.873	28.592	-39.806	272.967	276.320	191.490	72.711	85.776	270.797	224.580	29.492	0.0001519	0.00086375	0.00014736	1430.3	4.8206e-06	2.4856e-06	995.18	417.45	8.9228e-06	1.2042e-05	332.38	95.811	113.77	35.515	1.036e-05	36.037	0.0015522	0.0019258	0.00053969	1303.8	2.0127e-05	2.1441e-05	909.45	382.03	2.0511e-05	2.1749e-05	308.35	89.759	106.12	33.274	2.1127e-05	34.027	-54.306	12.622	47.463	-42.081	-54.620	113.579	-43.049	-37.481	145.788	62.846	-39.880	-34.681	-33.154	-28.099	102.655	-30.362	-8191	255	
13489.264	1	1	0	0	0.12162	0.19278	0.068341	0.13345	0.17534	0.022506	0.24992	0.18473	0.14153	0.086257	0.27739	0.21016	0.24623	0.17733	0.20679	0.22392	-2.3104	-2.4146	-2.4125	-3.025	-2.1354	-2.4813	-2.7521	-2.2979	-2.7333	-2.4375	-2.3667	-2.9583	-2.2979	-2.3958	-2.7354	-2.1146	273.888	-11.070	97.572	277.856	37.050	233.689	279.794	270.454	-10.657	-38.449	226.291	-31.046	-27.946	259.312	42.567	182.316	0.00025562	0.0012835	0.00019272	1430.3	2.5771e-06	5.9344e-06	993.55	415.14	1.3864e-05	6.7989e-06	330.67	96.803	113.66	35.491	5.4973e-06	35.804	0.0016061	0.0019303	0.00054436	1307	2.0456e-05	2.168e-05	910.76	381.18	2.0436e-05	2.1645e-05	307.86	89.858	106.18	33.214	2.0447e-05	33.668	-18.723	31.151	42.908	-42.490	292.726	42.877	-43.516	-37.827	43.967	93.139	-39.729	-34.370	-32.689	-27.271	77.160	-30.389	-8191	255	
13489.385	1	1	0	0	0.14562	0.17291	0.1084	0.21594	0.077554	0.12575	0.23508	0.2253	0.2072	0.035548	0.30404	0.072058	0.26476	0.091307	0.062261	0.11379	-2.2625	-2.5125	-1.9542	-2.8958	-2.0938	-2.2854	-2.825	-2.2521	-2.5563	-2.4146	-2.2292	-2.8167	-2.4042	-2.5375	-2.4979	-2.1771	201.232	162.732	-36.185	297.513	260.589	249.133	-50.496	220.104	205.031	-20.188	272.198	264.500	290.347	225.751	255.501	261.042	0.00018972	0.0004342	0.00026718	1424.2	3.2167e-06	6.4578e-06	982.14	414.08	6.2885e-07	4.4367e-06	331.5	95.927	113.27	35.457	6.3583e-06	35.537	0.0016036	0.0019497	0.00053487	1300.6	2.0562e-05	2.123e-05	901.48	379.72	2.0516e-05	2.1028e-05	306.22	89.086	105.63	33.15	2.027e-05	33.64	271.755	118.253	43.154	-42.784	170.139	32.618	-43.395	-38.231	135.690	99.152	-39.997	-34.535	-33.068	-27.979	150.777	-29.933	-8191	255	
13489.481	1	1	0	0	0.061702	0.13158	0.22031	0.045462	0.035454	0.15366	0.17384	0.087425	0.23747	0.1384	0.24485	0.16011	0.061668	0.2499	0.40025	0.071162	-2.1375	-2.4146	-2.0583	-2.9458	-2.3833	-2.2354	-2.8667	-2.1354	-2.4188	-2.7562	-2.0312	-2.825	-2.2167	-2.2125	-2.7188	-2.2896	231.444	131.950	240.283	-38.318	144.475	256.004	288.446	133.226	249.824	94.730	278.955	255.488	59.782	270.842	-33.429	126.300	0.00025375	0.00076098	0.00018233	1421.2	7.3848e-06	8.0083e-06	988.53	414	9.244e-06	6.9029e-06	331.15	95.788	113.5	35.298	3.0732e-06	35.981	0.0016193	0.0019617	0.00052686	1295.1	2.0835e-05	2.1341e-05	903.35	379.43	1.9891e-05	2.1316e-05	306.32	89.332	105.84	33.12	2.0769e-05	33.815	259.449	61.975	12.044	-42.542	13.372	111.818	-43.063	-38.294	173.189	40.095	-39.702	-35.351	-33.498	-28.194	171.198	-30.806	-8191	255	
13489.577	1	1	0	0	0.18636	0.10222	0.19136	0.32758	0.19135	0.087655	0.059948	0.58663	0.10203	0.02448	0.10334	0.10052	0.10869	0.071748	0.1134	0.10985	-1.9562	-2.4667	-2.0062	-2.9125	-2.3021	-2.3583	-2.8292	-2.2729	-2.3812	-2.5646	-2.0438	-2.525	-2.4104	-2.3167	-2.7438	-2.225	277.652	171.803	156.200	-53.942	269.910	78.179	237.489	241.962	-24.235	298.501	266.073	-56.253	22.817	-53.295	-43.086	45.840	0.00044511	0.0010297	8.716e-05	1428.8	4.7001e-06	8.4367e-06	991.61	417.81	1.0633e-05	2.0607e-06	332.64	96.574	113.91	35.73	4.8636e-06	36.331	0.0016049	0.0019209	0.00052781	1307.1	2.0414e-05	2.1409e-05	910.64	382.32	2.0542e-05	2.0824e-05	309.85	90.163	106.39	33.387	2.0642e-05	34.073	273.856	45.729	-32.662	-43.013	109.528	104.209	-43.397	-38.273	167.561	186.031	-39.639	-35.062	-33.261	-28.038	61.363	-30.029	-8191	255	
13489.673	1	1	0	0	0.42608	0.16952	0.035203	0.20963	0.032347	0.14065	0.11343	0.11746	0.10508	0.19964	0.13244	0.17025	0.10778	0.22479	0.15034	0.28427	-1.6875	-2.7979	-2.0854	-2.7417	-2.6063	-2.075	-2.85	-2.3104	-2.3875	-2.8083	-2.2208	-2.6542	-2.7229	-2.2667	-2.7188	-2.425	95.170	-8.155	-35.884	293.751	98.855	122.632	183.453	165.413	272.084	45.235	197.697	-33.962	-39.854	-12.228	128.542	276.208	0.00013221	0.00039325	0.00010395	1438.3	1.1991e-05	4.2604e-06	1000.8	417.5	3.2741e-06	3.2809e-06	333.58	96.949	114.13	35.551	3.7618e-06	36.21	0.0016454	0.0019227	0.00054001	1312.1	2.0279e-05	2.1332e-05	913.55	382.64	2.0725e-05	2.1011e-05	309.51	90.291	106.51	33.382	2.0939e-05	34.176	282.988	9.048	30.036	-42.421	112.808	71.398	-42.558	-37.440	116.404	59.856	-39.142	-34.477	-32.958	-27.833	70.381	-30.151	-8191	255	
13489.794	1	1	0	0	0.14548	0.19566	0.11787	0.18254	0.22931	0.11093	0.12319	0.066996	0.11405	0.04857	0.13435	0.15495	0.13421	0.19009	0.22761	0.13167	-1.7208	-2.6896	-2.0312	-2.525	-2.5875	-2.0208	-2.7083	-2.5	-2.1083	-2.7708	-2.2375	-2.4396	-2.9	-2.2833	-2.7708	-2.4146	-53.800	292.559	106.980	-10.133	176.005	190.634	196.280	176.348	125.348	266.286	25.063	-28.365	289.813	252.988	11.341	298.430	0.00021317	0.00058746	6.351e-05	1428.4	6.0952e-06	3.4377e-06	989.7	415.88	1.23e-05	6.3304e-06	333	96.644	113.35	35.519	5.0697e-06	36.006	0.0016178	0.0019085	0.00053365	1305.1	2.0488e-05	2.1148e-05	906.29	381.35	2.0347e-05	2.0752e-05	307.99	89.798	105.73	33.384	2.0765e-05	34.03	266.336	56.356	183.006	-42.431	263.692	103.245	-43.095	-37.290	187.282	74.232	-39.806	-34.772	-33.182	-27.781	160.873	-29.583	-8191	255	
13489.866	1	1	0	0	0.20348	0.12641	0.045317	0.24674	0.25936	0.049997	0.2305	0.24657	0.14626	0.12489	0.15821	0.16894	0.19505	0.17463	0.11809	0.2669	-1.7458	-2.6354	-2.0812	-2.5438	-2.8417	-2.2146	-2.7417	-2.6375	-2.1333	-2.8104	-2.3042	-2.4167	-2.8937	-2.2062	-2.55	-2.7021	87.722	37.290	183.061	229.534	221.565	253.251	215.230	200.866	153.643	246.784	278.278	214.689	195.463	-48.748	154.732	266.169	0.00018251	0.00094503	0.00025442	1432.4	1.3099e-05	1.6839e-05	992.7	418.46	2.6483e-06	1.8642e-06	333.29	96.364	113.95	35.762	7.0673e-06	36.33	0.0015704	0.001934	0.00053106	1302.9	2.0262e-05	2.1674e-05	908.04	382.39	2.065e-05	2.1009e-05	309.69	90.212	106.59	33.401	2.0932e-05	34.225	274.645	-34.304	86.598	-42.269	62.503	109.776	-42.621	-37.116	13.445	99.295	-38.622	-34.186	-32.637	-27.252	99.920	-29.894	-8191	255	
13489.962	1	1	0	0	0.069826	0.17454	0.23131	0.31887	0.14865	0.07878	0.2216	0.2796	0.14609	0.04234	0.057337	0.086281	0.25082	0.10206	0.067825	0.25852	-1.6042	-2.6979	-2.1708	-2.2458	-2.9771	-2.0875	-2.7333	-2.7229	-2.2083	-2.7396	-2.4104	-2.375	-2.8937	-2.1896	-2.5479	-2.6833	183.931	54.622	-33.789	272.448	-48.947	119.684	266.048	-53.633	242.491	264.756	242.904	225.457	-46.246	146.052	46.941	220.039	0.00020833	0.00024454	0.00023379	1440.7	1.2588e-05	7.7868e-06	996.32	418.71	1.6933e-06	1.3832e-06	334.24	98.052	114.91	35.869	5.4274e-06	36.354	0.0015903	0.0019058	0.00054353	1311.8	2.0206e-05	2.1454e-05	913.24	383.65	2.044e-05	2.0876e-05	310.23	90.656	106.63	33.521	2.0238e-05	34.245	289.451	24.929	5.336	-42.921	-2.368	140.144	-43.454	-37.916	190.868	-42.170	-39.682	-34.654	-33.132	-27.810	97.605	-30.285	-8191	255	
13490.082	1	1	0	0	0.089729	0.015587	0.097418	0.18487	0.1295	0.10779	0.27958	0.10662	0.09436	0.036605	0.17509	0.10105	0.12821	0.2832	0.32486	0.089656	-1.6313	-2.6208	-2.4167	-2.3604	-2.6479	-1.9979	-2.55	-2.8292	-1.9771	-2.7271	-2.5583	-2.1937	-2.9313	-2.0833	-2.3667	-2.7021	-30.317	202.989	80.270	-55.623	239.190	29.926	222.101	-55.498	255.640	231.567	-45.229	-38.666	-10.429	4.616	134.123	47.100	0.00033562	0.00094116	0.00012982	1435.7	5.7929e-06	2.3281e-06	993.49	415.63	1.728e-06	3.5875e-06	335.01	96.238	114.99	35.675	3.1003e-06	35.975	0.0016122	0.0019122	0.00053361	1309.9	2.0054e-05	2.0657e-05	911.39	381.99	1.9837e-05	2.0752e-05	309.76	90.028	106.45	33.372	2.0158e-05	34.121	276.607	-6.015	21.204	-42.805	89.800	111.205	-43.332	-38.012	183.002	119.759	-39.862	-34.981	-32.906	-27.799	164.685	-30.402	-8191	255	
13490.177	1	1	0	0	0.21247	0.084745	0.11061	0.21675	0.056784	0.15755	0.14546	0.51039	0.1414	0.0673	0.26872	0.18259	0.045736	0.12902	0.098189	0.1217	-1.65	-2.5646	-2.5208	-2.2479	-2.7458	-2.2104	-2.3958	-2.8729	-2.1792	-2.7271	-2.6063	-2.075	-2.6937	-2.5563	-2.2354	-2.8625	190.700	244.961	138.068	3.695	283.689	85.367	235.198	257.283	221.613	194.056	246.127	252.873	147.998	28.916	88.559	7.543	0.00037057	0.00062467	9.7927e-05	1432.3	3.9491e-06	4.0889e-06	994.58	417.29	6.7237e-06	6.4248e-06	333.25	95.795	113.24	35.82	1.0493e-05	36.221	0.0015736	0.0018947	0.00052669	1302.9	1.9619e-05	2.0679e-05	907.45	381.23	1.9445e-05	2.0154e-05	307.85	89.982	105.84	33.496	2.0141e-05	34.093	294.143	25.222	4.912	-42.856	143.190	-14.636	-43.574	-37.743	141.029	109.724	-39.395	-34.720	-33.286	-27.771	147.621	-30.032	-8191	255	
13490.273	1	1	0	0	0.13489	0.20572	0.087632	0.23535	0.040041	0.23036	0.090518	0.3095	0.16324	0.23451	0.15628	0.077027	0.077917	0.19962	0.18649	0.038526	-1.6375	-2.5292	-2.5604	-2.275	-2.7354	-2.3917	-2.3812	-2.8958	-2.1562	-2.525	-2.65	-2.0875	-2.7417	-2.4083	-2.0854	-2.7812	-43.822	105.024	184.745	284.265	8.018	290.428	200.863	287.033	74.923	230.333	229.034	255.407	-8.686	174.605	134.381	153.387	0.00026041	0.00067387	6.3984e-05	1422.5	9.5654e-06	7.283e-06	994.97	417.87	6.9708e-06	4.5732e-06	331.06	95.618	113.6	35.549	4.0804e-06	36.127	0.0015445	0.0018801	0.00052371	1301.7	2.0079e-05	2.0811e-05	908.44	382.59	2.0241e-05	2.1115e-05	308.79	89.82	106.24	33.354	2.0495e-05	34.146	-48.436	54.056	94.384	-42.591	87.842	26.092	-43.499	-37.530	120.478	98.314	-39.250	-34.372	-33.225	-28.000	115.674	-30.185	-8191	255	
13490.369	1	1	0	0	0.12632	0.15587	0.11533	0.29721	0.22878	0.16513	0.095389	0.15435	0.28147	0.15015	0.0076586	0.16946	0.14251	0.17819	0.28615	0.14985	-1.8979	-2.4062	-2.525	-2.2687	-2.75	-2.4417	-2.3521	-3.0687	-2.1729	-2.3708	-2.8458	-2.0667	-2.7896	-2.6688	-2.1271	-2.8688	246.856	218.722	149.474	115.958	32.297	25.552	291.269	224.366	-2.121	134.698	-4.881	217.555	-0.752	-31.446	270.051	262.301	0.00031674	0.00057811	0.00037464	1431.1	7.1996e-06	1.0978e-05	999.91	419.61	6.7511e-06	6.2886e-06	336.68	96.199	113.58	35.646	4.6806e-06	36.073	0.0016249	0.0019181	0.00053215	1307.7	2.0081e-05	2.1005e-05	913.68	383.56	2.0562e-05	2.1114e-05	311.43	90.303	106	33.405	2.0659e-05	34.039	285.466	117.849	51.853	-42.513	136.685	71.201	-43.383	-37.975	67.660	44.114	-39.326	-34.867	-32.946	-27.732	67.177	-30.567	-8191	255	
13490.490	1	1	0	0	0.11801	0.086683	0.22113	0.31053	0.064767	0.12923	0.13695	0.18113	0.2638	0.2533	0.060327	0.053655	0.16121	0.17323	0.24689	0.28845	-1.8521	-2.3229	-2.6937	-2.2146	-2.8604	-2.6937	-2.15	-2.95	-2.4062	-2.1521	-2.7083	-2.2771	-2.7229	-2.7104	-2.2417	-2.8083	270.501	-36.872	290.641	292.027	-9.082	24.963	-10.470	249.932	230.149	149.632	208.823	200.508	-26.613	-55.238	119.922	160.752	0.00020536	0.0010981	0.00014051	1435.2	1.582e-06	8.0712e-06	996.67	418.45	6.1844e-07	3.1458e-06	334.42	95.659	113.38	35.573	1.0551e-05	35.632	0.0015921	0.001924	0.00053383	1312.5	2.0465e-05	2.1114e-05	910.35	382.98	2.0635e-05	2.1371e-05	308.47	89.593	105.97	33.315	2.0525e-05	33.67	289.053	-0.569	185.047	-42.329	173.263	93.599	-43.466	-37.739	91.528	71.411	-39.605	-34.274	-33.271	-27.858	62.712	-30.195	-8191	255	
13490.561	1	1	0	0	0.24911	0.040378	0.10061	0.36759	0.060645	0.10038	0.24686	0.058483	0.075759	0.11439	0.10474	0.41178	0.13192	0.10155	0.12283	0.21272	-1.8896	-2.1271	-2.6437	-2.1729	-2.3312	-2.65	-2.1604	-2.7542	-2.3563	-2.1458	-2.8021	-2.3083	-2.5125	-2.9188	-2.0417	-2.7479	89.593	126.073	46.972	291.493	24.815	-41.802	224.545	195.957	23.778	-11.514	129.873	272.105	-34.244	174.133	215.322	123.939	0.00040481	0.00086965	0.00024378	1427	8.6012e-06	1.2827e-05	989.94	415.27	2.2732e-06	8.6497e-06	332.99	95.422	113.17	35.311	1.3853e-05	35.491	0.0016182	0.0019342	0.00052818	1304.6	2.0169e-05	2.1107e-05	905.07	381.29	2.0528e-05	2.1072e-05	307.46	89.226	105.56	33.078	2.0716e-05	33.474	-43.239	25.392	67.510	-42.445	54.818	71.497	-43.454	-37.716	142.719	71.703	-39.320	-35.053	-32.780	-27.702	111.181	-30.423	-8191	255	
13490.682	1	1	0	0	0.25167	0.080347	0.23078	0.14794	0.17192	0.068793	0.21719	0.27241	0.20866	0.046273	0.12564	0.16659	0.092123	0.05416	0.079592	0.026856	-2.0938	-1.9854	-2.625	-2.4208	-2.2708	-2.7333	-2.0292	-2.7271	-2.4479	-2.1042	-2.925	-2.1271	-2.2708	-2.8458	-2.2292	-2.4583	292.449	-34.854	20.555	229.922	291.509	36.666	-47.957	295.286	39.748	122.178	200.240	132.429	276.919	92.506	295.133	164.555	0.00028979	0.00021211	0.00031941	1427.1	4.6223e-07	7.0109e-06	988.48	414.58	4.2815e-06	4.4127e-06	330.48	95.443	112.89	34.968	3.9018e-06	35.312	0.0016009	0.0018833	0.00052458	1302.2	2.0324e-05	2.0916e-05	902.28	380.32	2.0332e-05	2.0998e-05	305.83	89.146	105.32	32.788	2.0347e-05	33.249	218.412	18.508	31.583	-43.472	278.601	97.106	-43.407	-38.294	51.396	61.765	-39.229	-34.582	-33.286	-27.681	157.225	-30.249	-8191	255	
13490.778	1	1	0	0	0.084674	0.087662	0.091771	0.23419	0.18059	0.30245	0.21874	0.17845	0.27036	0.1881	0.23911	0.21493	0.2576	0.15243	0.19781	0.30052	-2.0479	-1.9062	-2.8438	-2.3	-2.2	-2.7271	-2.2313	-2.5896	-2.5833	-2.0062	-2.8438	-2.6208	-2.225	-2.8229	-2.2062	-2.4479	173.440	31.998	6.576	-47.420	-52.595	278.233	197.833	242.333	-2.211	-28.205	300.129	-35.703	265.118	62.824	-40.681	-12.764	0.00025209	0.00057379	0.000177	1425.3	8.2133e-06	9.6856e-06	984.24	413.78	1.6798e-05	3.9218e-06	328.75	96.178	112.74	34.745	5.8624e-06	35.094	0.0016042	0.0019101	0.00052135	1300.3	2.0405e-05	2.093e-05	901.57	379.64	2.0219e-05	2.0922e-05	305.63	89.036	105.22	32.588	2.0493e-05	33.171	254.274	34.386	0.463	-42.293	64.043	37.259	-43.027	-37.392	162.885	207.655	-39.246	-34.094	-33.112	-27.687	82.045	-30.221	-8191	255	
13490.874	1	1	0	0	0.029873	0.071311	0.045148	0.21226	0.34653	0.3143	0.21106	0.29376	0.096448	0.13541	0.1237	0.070049	0.16565	0.14527	0.21284	0.25046	-2.3146	-2.0812	-2.5708	-2.5521	-2.1875	-2.6646	-2.2896	-2.55	-2.675	-2.2021	-2.6771	-2.5979	-2.1708	-2.7562	-2.2208	-2.2083	-47.934	152.223	204.652	290.422	131.925	28.505	203.995	265.105	294.190	93.143	281.197	146.495	268.355	-14.438	24.675	32.933	0.00038407	0.0007611	0.00028398	1423.1	5.6234e-06	2.1969e-06	982.38	413.55	1.7685e-06	3.2117e-06	326.31	94.762	111.93	34.903	1.0098e-05	35.198	0.001623	0.0019498	0.00054002	1297.5	2.0374e-05	2.1232e-05	896.74	378.49	2.0223e-05	2.1245e-05	304.22	88.338	104.37	32.707	2.0779e-05	33.057	250.023	20.261	11.255	-42.109	237.955	170.146	-43.197	-37.675	253.206	64.355	-39.514	-34.663	-33.124	-27.284	112.419	-30.085	-8191	255	
13490.969	1	1	0	0	0.13503	0.080594	0.11549	0.19648	0.16421	0.22929	0.081927	0.13748	0.16128	0.049339	0.18946	0.16612	0.081414	0.11387	0.12558	0.13773	-2.3521	-2.0417	-2.4479	-2.7125	-2.1521	-2.8167	-2.4354	-2.4292	-2.8833	-2.1396	-2.5458	-2.6542	-2.1708	-2.7	-2.35	-2.2833	103.440	115.441	213.691	-12.147	75.354	288.576	140.899	47.279	83.780	110.438	76.412	284.753	10.137	279.990	146.193	37.620	0.00014159	0.00050247	0.00013933	1408.7	9.708e-06	3.3193e-06	969.86	410.07	9.88e-06	2.4567e-06	327.27	94.604	112.89	34.76	6.6031e-06	35.162	0.0016205	0.0019408	0.00053099	1287.6	1.9893e-05	2.1067e-05	889.91	376.4	2.0033e-05	2.1293e-05	303.07	88.368	104.7	32.685	2.0751e-05	33.064	296.037	-13.688	157.584	-41.886	99.745	62.942	-42.729	-37.636	12.166	217.587	-39.089	-34.308	-32.702	-27.816	136.624	-30.210	-8191	255	
13491.065	1	1	0	0	0.20341	0.38057	0.25857	0.18893	0.070467	0.25144	0.22503	0.15609	0.34563	0.26651	0.32937	0.08932	0.24152	0.1418	0.20952	0.25137	-2.3438	-2.2896	-2.3229	-2.7479	-2.1833	-2.7708	-2.6813	-2.2521	-2.9375	-2.1708	-2.4188	-2.7771	-2.2021	-2.7938	-2.4771	-2.225	24.363	62.520	164.980	8.066	171.896	270.203	195.800	273.280	-17.727	79.477	239.753	281.798	-9.492	191.555	278.327	180.758	0.00033884	0.00028549	0.00027035	1405.9	1.3099e-05	2.3451e-06	969.84	411.62	7.5513e-06	4.3937e-06	325.93	94.183	112.42	34.919	9.1366e-06	35.434	0.0015761	0.0019619	0.00053751	1282.9	2.0236e-05	2.1103e-05	891.65	377.1	2.012e-05	2.1323e-05	303.47	88.379	104.81	32.803	2.0921e-05	33.342	289.091	176.406	40.476	-42.234	84.836	224.905	-42.928	-38.218	218.619	109.367	-39.658	-34.544	-33.636	-27.971	127.878	-30.396	-8191	255	
13491.161	1	1	0	0	0.17898	0.085302	0.036713	0.1269	0.061068	0.23606	0.2054	0.16873	0.26092	0.13619	0.10362	0.050006	0.082448	0.13654	0.18001	0.17787	-2.3187	-2.1875	-2.1625	-2.9083	-2.1542	-2.725	-2.6167	-2.1479	-2.7125	-2.3563	-2.2646	-2.8833	-2.125	-2.5312	-2.3958	-2.0021	203.160	-36.920	267.988	210.234	-27.817	148.950	-42.623	-10.277	102.220	267.596	271.279	-36.177	215.840	234.540	-32.358	-27.381	0.00021223	0.00083514	9.0288e-05	1418.4	1.7407e-05	6.7093e-06	979.75	410.52	5.6623e-06	8.2501e-06	330.87	95.434	112.56	34.935	3.3152e-06	35.728	0.0016007	0.0019336	0.00055273	1293.4	2.053e-05	2.1436e-05	899.27	377.61	2.0171e-05	2.1228e-05	306.68	89.297	105.36	32.976	2.0706e-05	33.664	255.539	25.276	-53.887	-42.638	108.181	10.675	-43.739	-38.310	126.945	89.702	-39.658	-34.770	-33.525	-28.234	149.331	-31.036	-8191	255	
13491.257	1	1	0	0	0.02403	0.14558	0.3052	0.29807	0.16263	0.32152	0.25731	0.39757	0.1478	0.27486	0.1332	0.19567	0.24899	0.098088	0.17187	0.041303	-2.3417	-2.3979	-2.15	-2.9062	-2.15	-2.3417	-2.6396	-2.2396	-2.7562	-2.3083	-2.3	-2.7146	-2.1625	-2.5396	-2.5708	-1.9292	197.510	288.953	250.398	287.008	82.313	-42.018	256.678	295.999	168.197	81.953	-7.348	194.619	283.158	302.042	292.215	285.626	0.00020303	0.00021011	0.00022785	1417.6	1.6499e-06	7.5272e-06	983.87	414.75	1.1588e-05	4.0132e-06	332.08	96.275	113.09	35.279	6.6844e-06	35.958	0.0015855	0.0019069	0.00053274	1295.8	2.0411e-05	2.0979e-05	903.52	379.33	2.0164e-05	2.0745e-05	307.33	89.628	105.46	33.054	2.0565e-05	33.863	-2.869	291.620	26.679	-42.992	105.016	88.307	-43.494	-38.340	128.000	97.788	-39.409	-35.062	-33.173	-28.384	143.024	-30.437	-8191	255	
13491.353	1	1	0	0	0.31767	0.15579	0.1587	0.10174	0.20319	0.22792	0.099518	0.18243	0.17184	0.23547	0.35098	0.080673	0.18959	0.41458	0.057658	0.053718	-2.3375	-2.5542	-2.1021	-3.0708	-2.1771	-2.5896	-2.8417	-2.4042	-2.6021	-2.6	-2.3167	-2.7729	-2.3479	-2.475	-2.7562	-2.0146	284.104	88.477	-38.581	205.004	27.575	241.655	16.885	213.163	50.741	42.849	236.337	235.783	183.414	294.057	256.426	21.357	0.0003056	0.0010099	2.6432e-05	1423.7	6.475e-06	8.4746e-06	989.26	414.27	5.2059e-06	5.5619e-06	333.75	95.97	113	35.073	9.0656e-06	35.705	0.0016167	0.0019539	0.00054239	1299.1	2.019e-05	2.1228e-05	907.83	379.56	2.0613e-05	2.1527e-05	308.12	89.802	105.45	33.03	2.0861e-05	33.771	297.767	31.753	192.376	-41.781	125.664	77.156	-42.436	-37.317	284.032	164.668	-38.899	-33.655	-32.508	-27.122	76.424	-29.738	-8191	255	
13491.450	1	1	0	0	0.22829	0.34887	0.33319	0.15132	0.22052	0.25397	0.11992	0.2062	0.12286	0.23824	0.24514	0.17864	0.20219	0.20158	0.18822	0.15038	-2.2896	-2.2687	-2.0792	-3.0292	-2.2854	-2.3625	-2.9042	-2.1875	-2.6042	-2.5563	-2.0917	-2.7792	-2.1854	-2.2542	-2.7438	-1.9833	83.543	122.325	73.906	288.467	237.227	69.020	184.784	234.014	59.384	177.774	263.796	148.254	-51.339	285.664	251.412	203.399	0.00030647	0.00094429	0.00021398	1427.9	3.7468e-06	7.6362e-06	983.44	413.73	1.8265e-06	7.1059e-06	330.34	95.575	112.29	35.214	7.3182e-06	35.89	0.00162	0.001979	0.00054145	1298.9	2.0701e-05	2.1345e-05	901.9	379.47	2.0618e-05	2.1643e-05	306.21	89.483	105.2	33.098	2.0401e-05	33.771	237.159	26.478	-15.880	-42.149	57.879	66.156	-42.734	-38.102	20.925	37.807	-39.495	-34.995	-33.006	-28.237	60.495	-30.752	-8191	255	
13491.570	1	1	0	0	0.08469	0.078069	0.22826	0.24058	0.17189	0.19453	0.077485	0.19106	0.34837	0.011868	0.075995	0.16725	0.10206	0.077011	0.13324	0.13792	-2.0104	-2.5021	-2.0354	-2.7667	-2.4042	-2.175	-2.8583	-2.225	-2.4583	-2.5604	-2.3104	-2.6375	-2.3208	-2.0917	-2.725	-2.1813	125.696	188.884	296.595	268.337	260.137	-30.442	302.360	224.884	175.229	-25.104	180.854	258.466	233.885	-54.683	296.107	233.438	0.00045546	0.00084102	0.00023333	1408.6	9.857e-06	8.6414e-06	978.71	411.67	3.8596e-06	3.0285e-06	326.55	96.619	113.81	35.48	2.6085e-06	36.096	0.0015881	0.0018876	0.00051848	1288.9	2.0079e-05	2.0628e-05	896.03	377.17	2.0357e-05	2.0655e-05	304.79	89.711	105.53	33.17	2.0166e-05	33.977	273.062	51.895	73.477	-42.745	27.865	72.847	-43.370	-37.838	-29.646	169.179	-40.142	-34.836	-33.332	-28.132	124.253	-30.470	-8191	255	
13491.666	1	1	0	0	0.18384	0.11	0.11777	0.10767	0.12013	0.21518	0.0963	0.28107	0.22076	0.12786	0.32968	0.088966	0.12187	0.22588	0.36567	0.15702	-1.9125	-2.8	-2.0604	-2.6625	-2.5979	-2.1521	-2.8396	-2.2646	-2.1896	-2.8104	-2.1917	-2.7313	-2.5625	-2.0958	-2.7896	-2.3333	105.592	237.841	133.859	205.016	151.709	238.848	29.147	206.346	269.984	158.920	239.850	228.848	296.633	58.630	168.891	293.064	0.00010487	0.00075095	0.0001853	1419.7	9.4115e-06	6.2851e-06	988.68	416.25	5.0478e-06	7.4449e-06	333.7	96.503	114.15	35.679	7.1393e-06	36.347	0.0016064	0.001919	0.00053154	1294.8	2.039e-05	2.1148e-05	903.88	381.06	2.0539e-05	2.123e-05	309.24	90.168	106.52	33.372	2.1044e-05	34.123	281.378	70.633	71.085	-42.575	70.600	105.891	-42.974	-37.579	0.384	137.496	-38.956	-34.049	-32.471	-26.964	162.753	-29.800	-8191	255	
13491.762	1	1	0	0	0.086845	0.084762	0.13145	0.25263	0.38851	0.17063	0.21663	0.20348	0.13818	0.39565	0.10616	0.23631	0.088217	0.11433	0.17085	0.19122	-1.8729	-2.7229	-2.0729	-2.7438	-2.5604	-2.1396	-2.7333	-2.425	-2.2083	-2.7333	-2.0521	-2.4896	-2.7021	-2.0104	-2.4833	-2.4729	240.763	21.011	-32.369	261.919	282.802	121.885	210.152	261.943	182.072	228.357	238.838	174.379	282.861	234.124	27.609	230.040	0.00012443	0.0003716	0.00020354	1432.6	9.9035e-06	2.0552e-06	1004.3	418.97	7.375e-06	3.9224e-06	337.86	97.36	115.15	35.922	8.5947e-06	36.67	0.001612	0.00191	0.00053816	1307.4	2.0412e-05	2.0991e-05	913.86	383.83	2.026e-05	2.0939e-05	311.56	90.819	107.01	33.539	2.0226e-05	34.433	228.431	-30.331	30.737	-41.671	37.331	63.522	-42.585	-36.954	153.865	48.262	-39.781	-34.601	-33.189	-28.345	126.388	-30.517	-8191	255	
13491.859	1	1	0	0	0.085027	0.029139	0.1244	0.12603	0.11215	0.13528	0.31761	0.17367	0.059441	0.10626	0.09417	0.1674	0.069256	0.35791	0.26723	0.18941	-1.7729	-2.7542	-2.0271	-2.5125	-2.6021	-2.0979	-2.7917	-2.7458	-1.975	-2.725	-2.3937	-2.3417	-2.8042	-2.0062	-2.5458	-2.6125	166.664	85.509	72.025	261.449	-20.324	-19.864	208.875	244.741	119.175	-45.350	251.840	38.077	245.260	231.773	286.556	226.798	0.000164	0.00020644	2.638e-05	1423.8	1.4751e-06	7.9387e-06	997.69	419.03	1.1458e-05	3.6783e-06	335.35	97.625	114.91	36.163	1.2188e-05	37.076	0.0015488	0.001879	0.00051535	1302.5	2.0276e-05	2.0575e-05	912.36	383.75	1.9956e-05	2.084e-05	311.22	91.486	107.05	33.844	1.9978e-05	34.81	261.262	145.494	-17.634	-42.938	27.060	53.761	-43.530	-37.804	246.076	109.501	-39.305	-34.976	-33.251	-28.242	140.748	-30.543	-8191	255	
13491.955	1	1	0	0	0.033479	0.12781	0.23424	0.25158	0.073577	0.11139	0.1306	0.27468	0.033705	0.1904	0.077027	0.17934	0.049104	0.19286	0.15855	0.1344	-1.6917	-2.6583	-2.2729	-2.4729	-2.6833	-2.1021	-2.5958	-2.7708	-2.0583	-2.7625	-2.4021	-2.1688	-2.9	-2.2229	-2.5687	-2.5833	20.761	215.818	204.997	-41.193	155.316	140.628	292.544	-19.787	47.494	62.626	155.248	240.748	163.299	221.833	23.850	38.019	8.9148e-05	0.00095397	0.00018903	1433.8	1.5106e-05	8.3896e-06	995.41	418.89	1.3426e-06	3.1644e-06	337.69	98.091	114.07	35.755	6.718e-06	36.919	0.0015712	0.0018829	0.00053047	1304.4	2.0154e-05	2.1066e-05	912.73	384.51	2.0434e-05	2.1377e-05	312.64	91.484	106.84	33.662	2.0921e-05	34.694	-51.341	25.691	76.238	-42.631	34.061	129.706	-43.638	-37.966	45.645	91.974	-40.120	-35.048	-33.266	-27.967	88.151	-30.155	-8191	255	
13492.051	1	1	0	0	0.035973	0.24058	0.13476	0.021078	0.23477	0.043333	0.18689	0.088907	0.055339	0.2099	0.2142	0.25535	0.081451	0.35659	0.16895	0.13181	-1.4625	-2.6292	-2.1875	-2.2646	-2.7354	-2.0271	-2.6562	-2.8229	-2.15	-2.7375	-2.5438	-2.1562	-2.8375	-2.1896	-2.3875	-2.7625	246.128	273.881	187.201	288.954	40.028	97.872	250.792	208.844	36.533	160.851	280.187	-17.083	132.132	176.152	105.332	235.351	0.00030589	0.00029269	0.00016737	1429.3	3.9423e-06	1.9616e-06	989.57	418.05	2.3764e-06	6.5085e-06	333.79	97.26	113.88	35.979	2.1197e-06	36.889	0.0016475	0.0019898	0.0005479	1303.5	2.054e-05	2.1442e-05	906.74	382.59	2.0391e-05	2.1067e-05	310.64	90.948	106.42	33.706	2.0663e-05	34.687	281.720	52.731	60.415	-43.050	91.950	101.541	-43.140	-37.646	130.510	89.807	-39.838	-34.616	-33.058	-28.089	137.144	-29.954	-8191	255	
13492.170	1	1	0	0	0.18622	0.21938	0.16875	0.21904	0.12991	0.081243	0.11391	0.19682	0.11121	0.12347	0.1262	0.055054	0.041654	0.20663	0.13576	0.1392	-1.5646	-2.4792	-2.4	-2.4146	-2.7833	-2.3333	-2.5292	-2.9729	-2.2042	-2.6083	-2.65	-2.2062	-2.8021	-2.4333	-2.2313	-2.8396	179.427	190.364	112.647	245.767	248.353	-54.791	242.985	292.365	240.995	-25.548	-3.874	122.177	14.083	220.696	255.104	20.450	0.00035937	0.00092758	0.00018563	1432.6	4.619e-06	1.1853e-05	992.5	418.58	2.6691e-06	8.8903e-06	335.41	97.749	114.81	36.054	7.9306e-06	37.228	0.0015637	0.0019032	0.00053101	1302.9	1.9867e-05	2.0873e-05	909.61	384.25	1.9669e-05	2.1217e-05	311.99	91.356	107.17	33.88	2.073e-05	34.937	252.375	-28.342	28.900	-42.187	57.233	67.874	-42.706	-37.328	34.008	96.992	-39.129	-34.514	-32.192	-27.229	105.773	-29.828	-8191	255	
13492.266	1	1	0	0	0.11425	0.17272	0.16899	0.42733	0.17	0.13762	0.25307	0.093728	0.12037	0.24394	0.26175	0.27244	0.040775	0.083363	0.041587	0.13846	-1.6479	-2.6104	-2.5625	-2.2396	-2.8625	-2.3146	-2.2667	-2.8604	-2.0604	-2.4375	-2.7292	-2.2646	-2.8604	-2.4521	-2.1083	-2.7646	70.480	223.755	99.020	285.371	252.006	87.376	262.897	-51.678	139.148	212.726	282.838	221.739	188.551	171.227	76.761	-31.660	0.00043167	0.00023508	0.00022414	1437.6	9.1665e-06	9.9765e-06	1004.7	419.76	1.3348e-06	1.1453e-05	339.32	98.368	116.44	35.976	6.8082e-06	37.087	0.0015757	0.0019091	0.00052996	1310	1.9926e-05	2.0831e-05	914.36	384.73	2.0088e-05	2.1066e-05	313.64	91.629	107.91	33.958	2.0203e-05	34.967	209.900	-35.998	88.231	-42.320	89.922	108.924	-43.116	-37.287	69.499	73.851	-38.935	-34.546	-32.605	-27.782	111.055	-29.563	-8191	255	
13492.362	1	1	0	0	0.12692	0.21087	0.20557	0.09803	0.081331	0.31421	0.13361	0.24427	0.16082	0.040188	0.21899	0.11459	0.11636	0.19047	0.32175	0.24238	-1.6417	-2.425	-2.7104	-2.1396	-2.7313	-2.3521	-2.4708	-3.0458	-2.2438	-2.3854	-2.7833	-2.0479	-2.4042	-2.6354	-2.275	-2.7625	130.736	268.412	-33.713	220.974	266.268	-32.470	214.438	-20.621	67.060	12.517	37.961	237.372	236.336	-8.738	303.160	214.741	0.00028766	0.00064347	0.00028982	1434.3	7.0243e-06	8.5484e-06	1000.8	419.09	8.3474e-06	8.2794e-06	339.34	97.977	114.69	36.086	3.3956e-06	37	0.0015674	0.0019264	0.0005308	1310.6	2.0186e-05	2.1019e-05	915.24	385.06	2.0281e-05	2.0955e-05	313	91.465	107.05	33.89	2.0427e-05	34.837	258.037	96.551	94.884	-42.233	150.168	164.844	-43.015	-37.350	111.278	171.293	-38.973	-33.796	-32.308	-27.086	-17.629	-29.689	-8191	255	
13492.458	1	1	0	0	0.18373	0.21989	0.1448	0.41919	0.13655	0.035275	0.32546	0.25196	0.15444	0.1737	0.29272	0.24945	0.29164	0.16113	0.21407	0.050624	-2.2292	-2.2625	-2.8438	-2.2979	-2.6792	-2.5208	-2.2208	-3.0167	-2.4875	-2.0792	-2.9021	-2.1792	-2.4771	-2.6937	-2.1813	-2.8229	275.971	43.505	106.981	248.483	216.337	176.704	240.098	-4.045	290.618	238.954	296.907	272.806	275.936	-36.770	158.096	145.883	0.00026904	0.0007139	0.0001157	1431.2	1.2786e-05	1.0483e-05	989.88	419.42	7.0099e-06	4.921e-06	334.68	97.656	114.88	36.033	1.088e-05	36.695	0.001604	0.0019534	0.00052661	1305.2	1.9993e-05	2.0928e-05	909.87	383.94	2.0526e-05	2.1135e-05	310.69	91.298	106.72	33.716	2.0558e-05	34.672	216.610	65.302	40.876	-41.798	170.559	130.938	-42.185	-36.694	35.245	51.411	-38.344	-33.325	-31.909	-26.685	94.008	-29.107	-8191	255	
13492.554	1	1	0	0	0.16975	0.034735	0.18513	0.27606	0.063785	0.10043	0.17852	0.05537	0.078845	0.34465	0.15014	0.051235	0.14587	0.068623	0.06237	0.13601	-2.0958	-2.25	-2.7083	-2.1104	-2.5792	-2.5229	-2.1229	-2.8417	-2.3917	-2.1104	-3	-2.2458	-2.6562	-2.7208	-1.9792	-2.7229	242.855	-17.850	127.614	245.201	-22.048	108.600	-22.215	-41.874	291.693	214.525	63.624	200.102	151.233	3.339	55.004	90.314	0.00015599	0.00074245	0.00014726	1429.3	6.4443e-06	8.6378e-06	994.85	420.29	6.5059e-06	6.9658e-06	338.07	97.534	114.5	36.153	4.1417e-06	37.022	0.0016052	0.0018914	0.00052286	1304.4	2.0398e-05	2.1068e-05	908.49	384.04	2.0316e-05	2.0652e-05	311.38	91.227	106.88	33.735	2.0576e-05	34.752	284.538	25.242	180.422	-41.452	111.958	68.180	-42.212	-36.572	133.603	80.860	-38.716	-33.626	-32.192	-27.033	-40.421	-29.313	-8191	255	
13492.651	1	1	0	0	0.2325	0.39757	0.30355	0.11189	0.33259	0.13787	0.11979	0.23612	0.29434	0.16164	0.20939	0.18263	0.17241	0.12333	0.097369	0.19609	-2.1646	-2.1625	-2.7417	-2.4667	-2.4417	-2.7396	-2.1417	-2.7021	-2.4833	-2.1833	-2.8333	-2.2125	-2.3729	-2.9771	-2.1896	-2.6333	238.302	132.470	145.940	254.775	254.945	264.610	297.673	255.533	183.544	182.498	244.672	-8.714	38.801	300.069	-10.333	213.757	0.00039036	0.00058974	7.9397e-05	1431	6.3837e-06	7.3121e-06	1008.8	422.03	3.2483e-06	1.742e-06	337.16	98.565	115.53	36.06	1.4836e-05	37.17	0.0015935	0.0018915	0.00052547	1310.2	2.0076e-05	2.1006e-05	917.16	386.24	2.0389e-05	2.0953e-05	313.43	91.99	107.63	33.789	2.0709e-05	34.814	304.201	-43.456	31.420	-41.209	120.271	19.327	-42.076	-37.182	213.075	5.170	-39.141	-34.146	-33.066	-27.568	109.098	-30.537	-8191	255	
13492.747	1	1	0	0	0.15647	0.087251	0.25208	0.18208	0.097031	0.24324	0.39906	0.19026	0.23105	0.28777	0.10791	0.28428	0.16997	0.29733	0.1687	0.18402	-2.1854	-2.0438	-2.6479	-2.5979	-2.2687	-2.6958	-2.3729	-2.5646	-2.8187	-2.1437	-2.7687	-2.4833	-2.2958	-2.7979	-2.2313	-2.55	3.532	46.311	187.880	254.767	-53.660	49.386	291.114	233.415	252.260	42.787	191.630	271.664	89.633	-29.783	162.260	294.860	0.00035557	0.00033786	0.00022223	1444.7	9.9474e-06	6.7931e-06	1004.5	420.9	4.6307e-06	9.0781e-06	337.58	98.579	115.01	35.889	9.1499e-06	36.627	0.0016018	0.001864	0.00053107	1314.7	2.0156e-05	2.1e-05	919.6	386.77	2.0131e-05	2.0974e-05	313.13	91.655	107.26	33.694	2.0018e-05	34.666	261.233	101.558	33.516	-43.048	28.587	170.270	-43.404	-38.467	-39.090	83.673	-40.132	-35.127	-33.641	-28.315	163.051	-30.922	-8191	255	
13492.867	1	1	0	0	0.15266	0.070352	0.1775	0.27439	0.17776	0.30508	0.33021	0.29839	0.057576	0.27887	0.29633	0.17271	0.096009	0.12401	0.174	0.17666	-2.3937	-2.0042	-2.5438	-2.6083	-2.1667	-2.8375	-2.3583	-2.5125	-2.6896	-2.0896	-2.6354	-2.5958	-2.1792	-2.7917	-2.2333	-2.3604	-47.631	137.931	293.880	-24.657	39.676	74.145	181.522	297.516	129.941	62.457	226.712	-12.499	178.490	285.507	0.261	254.933	0.0002535	0.00078542	0.00035044	1431.3	6.6242e-06	3.724e-06	993.98	419.46	4.3479e-06	1.2653e-06	336.12	97.429	115.06	35.752	7.9982e-06	36.796	0.0016122	0.0018432	0.00053191	1309.3	2.0005e-05	2.0653e-05	908.44	384.63	1.9952e-05	2.0407e-05	311.91	91.122	107.08	33.534	1.9927e-05	34.634	278.954	54.610	36.750	-42.727	98.223	112.791	-43.224	-38.000	112.056	118.531	-39.556	-34.586	-32.956	-27.781	78.345	-30.356	-8191	255	
13492.962	1	1	0	0	0.026578	0.12395	0.12937	0.2319	0.10209	0.16385	0.41416	0.20882	0.1814	0.22691	0.24557	0.34601	0.10759	0.11631	0.17148	0.31856	-2.3125	-1.7875	-2.5896	-2.6854	-2.0333	-2.9104	-2.0979	-2.3958	-2.8042	-2.0354	-2.3854	-2.7687	-2.2917	-2.8104	-2.4583	-2.2062	202.751	205.587	138.875	210.559	117.905	25.242	242.576	131.832	151.241	69.793	-24.929	269.910	73.171	195.845	139.085	291.029	0.00035564	0.00096801	0.00018069	1428.7	1.2117e-05	5.2708e-06	994.34	419.55	7.6219e-06	4.5554e-06	338.01	97.969	116.07	35.996	8.1257e-06	36.94	0.0015593	0.0018655	0.00052347	1303.7	1.9634e-05	2.0256e-05	909.56	384.4	1.9776e-05	2.0114e-05	312.3	91.43	107.54	33.79	2.0208e-05	34.848	-42.790	16.894	26.827	-42.297	108.267	26.878	-43.147	-37.946	67.286	43.744	-39.364	-34.387	-33.318	-27.736	115.084	-30.143	-8191	255	
13493.035	1	1	0	0	0.18562	0.25274	0.27883	0.21045	0.25777	0.091848	0.10668	0.28096	0.14659	0.23775	0.40838	0.15107	0.14028	0.2496	0.29054	0.10166	-2.3604	-2.0687	-2.3771	-2.75	-2.1354	-2.625	-2.5958	-2.3354	-2.8458	-2.0187	-2.5292	-2.8271	-2.0438	-2.6917	-2.2542	-2.2458	207.583	147.215	270.423	230.218	96.944	-17.676	220.074	237.296	202.042	261.397	-37.319	248.541	143.163	223.547	6.908	175.160	0.00030825	0.0004577	0.00019844	1433.4	6.3629e-06	6.7179e-06	1001.6	423.22	6.4274e-06	2.2188e-06	339.85	98.723	115.86	35.994	3.2233e-06	37.223	0.0015624	0.0018708	0.00052991	1313.3	1.9717e-05	2.0331e-05	918.46	387.02	2.0307e-05	2.046e-05	314.63	92.369	107.56	33.963	2.0318e-05	35.014	235.503	20.123	6.247	-43.237	77.749	175.183	-43.924	-38.917	93.767	-35.620	-40.257	-35.409	-34.053	-28.555	183.197	-31.314	-8191	255	
13493.131	1	1	0	0	0.2903	0.18275	0.32062	0.31257	0.20821	0.16051	0.1399	0.23994	0.10629	0.12443	0.22478	0.25523	0.19263	0.23069	0.13582	0.12643	-2.3625	-2.1417	-2.3292	-2.75	-1.8708	-2.6542	-2.5521	-2.2396	-2.8229	-2.2667	-2.4042	-2.8312	-2.0708	-2.5417	-2.6354	-2.2292	137.959	271.794	-45.363	71.696	12.882	48.607	193.785	246.177	-42.422	190.570	258.491	-53.813	-55.004	281.548	97.042	172.047	0.00024954	0.00050334	4.9344e-05	1441.2	9.968e-06	6.0504e-06	1008.6	421.63	7.5859e-07	4.9033e-06	338.67	99.354	114.99	36.339	4.4348e-06	37.26	0.0015611	0.001897	0.00052612	1315.4	1.947e-05	2.0878e-05	922.68	387.19	1.9813e-05	2.0583e-05	314.54	92.323	107.64	34.131	2.0028e-05	34.919	274.466	6.211	65.180	-43.048	85.952	102.156	-43.679	-38.513	149.619	96.803	-39.799	-35.039	-33.474	-28.276	292.588	-30.686	-8191	255	
13493.250	1	1	0	0	0.20261	0.23955	0.057394	0.068425	0.23333	0.2276	0.1245	0.25685	0.30097	0.02195	0.051057	0.22474	0.18455	0.18537	0.17191	0.17632	-2.3	-2.2417	-2.3187	-2.9667	-2.0104	-2.45	-2.8812	-2.2333	-2.8646	-2.4	-2.2667	-2.75	-2.1562	-2.5312	-2.7292	-2.0458	226.536	143.511	-47.302	136.903	98.398	125.730	-33.601	244.554	75.125	82.362	285.438	237.979	266.527	-3.227	212.306	155.467	0.00022987	0.00021164	0.00019347	1441.5	6.2291e-06	5.6816e-06	995.18	420.51	5.1281e-06	7.9256e-06	337.28	98.53	115.56	36.329	5.406e-06	37.364	0.0015384	0.0018685	0.00052957	1313.2	1.9716e-05	2.1046e-05	912.45	386.36	1.9788e-05	2.0348e-05	312.91	92.013	107.75	34.028	2.012e-05	35.03	265.440	185.262	5.188	-42.936	144.921	64.404	-43.491	-38.120	101.994	74.018	-39.741	-34.696	-33.262	-27.967	89.744	-30.595	-8191	255	
13493.346	1	1	0	0	0.24062	0.14944	0.22008	0.16474	0.14259	0.19646	0.078892	0.099932	0.15445	0.12298	0.21953	0.11236	0.086891	0.2379	0.24581	0.096546	-2.2562	-2.5396	-2.0938	-2.9708	-2.2271	-2.5062	-2.7687	-2.2021	-2.8271	-2.5375	-2.2188	-2.775	-2.1875	-2.3792	-2.8771	-2.2479	-6.534	151.423	194.620	239.824	-51.522	115.667	-46.227	166.496	48.137	269.499	10.133	173.064	239.698	-54.668	232.849	198.405	0.00016617	0.00024823	0.00027186	1427.8	7.3738e-06	9.9549e-06	998.08	422.75	7.8716e-06	1.2601e-06	337.96	97.685	115.06	35.898	6.7101e-06	36.686	0.001595	0.0019309	0.00052441	1304.5	2.0198e-05	2.1099e-05	914.68	386.21	1.9953e-05	2.0821e-05	313.54	91.475	107.29	33.691	2.0291e-05	34.661	235.538	3.233	78.688	-42.234	171.958	40.881	-43.096	-37.931	-38.827	82.945	-39.634	-34.907	-33.779	-28.494	219.836	-31.057	-8191	255	
13493.442	1	1	0	0	0.19805	0.096778	0.17849	0.30692	0.17488	0.14955	0.16725	0.25861	0.10861	0.1333	0.15429	0.050824	0.16077	0.26878	0.2812	0.36547	-2.2021	-2.4208	-2.0729	-2.7167	-2.2542	-2.3	-2.8083	-2.2354	-2.4521	-2.525	-2.0146	-2.7896	-2.3604	-2.2146	-2.7021	-2.1833	-41.919	295.661	47.372	269.589	109.264	153.418	164.592	-23.724	141.216	299.268	133.502	221.316	275.023	247.104	252.121	73.572	0.00012822	0.00061624	9.5722e-05	1442.2	7.5578e-06	7.9622e-07	1003.2	421.7	9.9056e-06	4.3701e-06	338.53	97.804	114.52	36.12	6.1566e-06	36.906	0.0015958	0.0019401	0.00053202	1312.9	2.0274e-05	2.1559e-05	916.35	387.06	2.0796e-05	2.1326e-05	313.59	91.305	107.5	33.714	2.0446e-05	34.666	260.700	58.714	27.851	-42.528	86.412	165.459	-42.987	-37.526	162.550	100.188	-39.587	-34.503	-32.542	-28.002	53.408	-30.624	-8191	255	
13493.563	1	1	0	0	0.11304	0.10002	0.17843	0.31314	0.24798	0.27522	0.25374	0.14101	0.23133	0.14141	0.043181	0.19502	0.10987	0.026056	0.15328	0.12441	-2.1667	-2.5417	-2.0042	-2.825	-2.5917	-2.2146	-3.0229	-2.3125	-2.6542	-2.7062	-2.2188	-2.6479	-2.4	-1.9688	-2.7125	-2.3021	126.262	33.987	116.311	251.690	180.665	119.848	280.771	273.383	177.623	117.246	-18.673	278.955	220.202	271.264	-15.509	-41.224	0.0001487	0.00065357	0.00021963	1437.6	8.7735e-06	1.0163e-05	991.99	419.96	4.0451e-06	5.4312e-06	335.89	97.782	114.48	35.806	2.6737e-06	36.379	0.0016413	0.0019456	0.00054853	1310.7	2.0118e-05	2.1098e-05	911.73	384.79	2.0465e-05	2.1136e-05	311.8	91.026	107.17	33.431	2.0293e-05	34.319	289.861	-8.774	71.352	-42.343	134.201	81.558	-43.010	-37.642	144.133	232.581	-39.358	-34.587	-32.909	-27.460	-51.456	-30.365	-8191	255	
13493.659	1	1	0	0	0.14157	0.15278	0.072216	0.23381	0.12863	0.17232	0.28518	0.31028	0.26681	0.062393	0.2513	0.097042	0.16757	0.15418	0.048829	0.14498	-1.9583	-2.6375	-1.9646	-2.8021	-2.5521	-2.1042	-2.8271	-2.1792	-2.35	-2.8146	-2.1375	-2.6063	-2.7958	-2.2625	-2.8125	-2.4208	-26.876	233.475	67.262	-42.486	132.138	116.108	261.179	239.765	149.755	148.844	12.818	126.024	-36.200	-53.511	25.498	26.129	0.00019681	0.00078307	0.00018428	1421.4	9.7563e-06	4.7615e-06	993.28	418.21	1.3979e-05	8.2915e-06	334.15	96.477	113.43	35.33	1.219e-05	35.957	0.0016207	0.0019404	0.00053657	1303.3	2.006e-05	2.0793e-05	907.16	383.46	2.0327e-05	2.0427e-05	308.84	90.313	106.24	33.256	2.0267e-05	33.958	256.405	95.908	155.204	-42.049	94.149	253.885	-42.909	-37.403	90.349	74.292	-38.859	-34.277	-32.624	-27.839	99.812	-30.025	-8191	255	
13493.731	1	1	0	0	0.18887	0.24152	0.069492	0.023762	0.10851	0.077706	0.23965	0.31441	0.14437	0.050605	0.051398	0.35097	0.13707	0.19268	0.21719	0.082987	-1.8667	-2.7438	-1.9354	-2.5792	-2.6271	-2.0479	-2.9792	-2.6063	-2.2271	-2.8708	-2.3375	-2.6104	-2.6208	-2.1417	-2.7604	-2.4208	-51.363	263.277	166.689	69.962	129.932	26.279	206.296	273.087	16.432	21.770	246.843	197.794	13.348	-46.115	80.044	72.162	0.0002551	0.00075897	9.5111e-05	1426.9	8.6136e-06	3.325e-06	986.33	416.96	1.3892e-05	8.5905e-06	334.18	96.331	113.56	35.272	1.5318e-06	36.17	0.0016008	0.001865	0.0005271	1297.4	1.9839e-05	2.0649e-05	903.59	382.1	1.9791e-05	2.0496e-05	308.8	90.016	105.67	33.078	2.0032e-05	33.916	-16.460	26.367	-32.662	-42.321	49.222	101.069	-42.647	-37.341	128.871	20.239	-38.963	-34.301	-32.447	-27.723	130.000	-29.907	-8191	255	
13493.852	1	1	0	0	0.24588	0.24767	0.078869	0.45619	0.27871	0.13913	0.057456	0.36088	0.15489	0.21949	0.38995	0.29033	0.1426	0.26869	0.15931	0.098214	-1.7542	-2.8937	-2.1688	-2.5958	-2.625	-1.9854	-2.9521	-2.7604	-2.0646	-2.8875	-2.3	-2.4062	-2.9104	-2.0896	-2.8042	-2.6417	126.877	240.569	154.321	233.177	59.698	187.637	73.434	187.011	-45.144	117.132	290.206	257.233	288.739	275.154	129.961	180.099	0.00015557	0.00015117	0.0001625	1422.1	1.025e-05	5.6795e-06	981.55	415.94	1.5037e-05	2.9428e-06	332.42	96.954	113.94	35.385	1.2101e-05	35.747	0.0015561	0.0018258	0.00052543	1297.4	2.009e-05	2.0379e-05	900.45	381.2	1.9995e-05	2.0406e-05	307.69	90.224	105.9	32.995	2.0621e-05	33.733	244.541	10.922	4.785	-42.311	86.779	94.342	-42.666	-37.242	159.395	34.973	-38.984	-34.238	-32.445	-28.570	44.974	-31.026	-8191	255	
13493.948	1	1	0	0	0.1581	0.20798	0.15997	0.072078	0.087732	0.2115	0.25261	0.18263	0.32568	0.15361	0.3436	0.31659	0.28878	0.25845	0.29396	0.055887	-1.6896	-2.7104	-2.1708	-2.4313	-2.8083	-2.0417	-2.6625	-2.7146	-2.1312	-2.9542	-2.3812	-2.2083	-2.8417	-2.15	-2.4375	-2.5875	195.755	81.774	176.329	270.185	267.218	216.304	237.659	-13.036	263.260	119.947	-51.969	273.042	296.493	-47.647	71.349	99.377	0.00013155	0.0010917	6.8665e-05	1413.5	8.5712e-06	6.2989e-06	981.24	415.07	2.3663e-06	2.2804e-06	333.68	96.445	113.07	35.051	5.5821e-06	35.676	0.0015679	0.0019097	0.00053471	1292.6	2.0284e-05	2.1096e-05	899.66	380.17	2.0007e-05	2.0987e-05	307.76	89.562	105.28	32.804	2.0788e-05	33.618	260.586	35.189	174.529	-43.163	188.833	99.035	-43.345	-37.882	160.624	60.470	-39.606	-34.564	-33.261	-28.524	-29.945	-30.495	-8191	255	
13494.042	1	1	0	0	0.3264	0.2073	0.16225	0.31386	0.097772	0.22337	0.14815	0.11245	0.1877	0.16248	0.0092192	0.11273	0.35132	0.26818	0.20263	0.23543	-1.6604	-2.5333	-2.2875	-2.3667	-3.0458	-2.1604	-2.7354	-2.8271	-1.8896	-2.725	-2.4188	-2.1917	-2.8438	-2.2167	-2.3917	-2.7854	281.279	293.693	133.869	279.022	275.161	255.650	199.923	90.473	21.568	96.826	181.172	-34.231	2.595	49.389	221.504	-35.834	0.00011061	0.00060157	0.0002313	1413.2	5.1792e-06	1.5063e-06	973.66	413.12	8.8223e-06	5.2845e-06	328.76	95.059	112.29	34.851	1.0597e-05	35.475	0.0015982	0.0019256	0.00053705	1287.7	2.0102e-05	2.0978e-05	892.47	377.91	2.0281e-05	2.1281e-05	304.6	88.745	104.96	32.713	2.0853e-05	33.34	-24.841	38.386	22.540	-42.829	97.494	106.827	-43.568	-38.039	108.554	92.029	-39.365	-34.931	-33.397	-28.415	182.735	-31.107	-8191	255	
13494.163	1	1	0	0	0.28492	0.094011	0.13142	0.27833	0.061776	0.20818	0.23633	0.15153	0.10335	0.15731	0.25739	0.42484	0.14677	0.084901	0.18775	0.056207	-1.6792	-2.6292	-2.4979	-2.3021	-2.675	-2.0438	-2.5854	-2.8625	-2.1688	-2.7396	-2.7313	-2.0125	-2.7667	-2.3167	-2.1729	-2.7146	262.246	134.323	-43.858	291.588	182.330	106.023	266.689	272.541	63.811	35.388	293.763	247.107	203.323	11.530	31.180	122.518	0.00019559	0.00030429	0.00030261	1404.6	3.7168e-06	7.6111e-06	980.32	413.71	1.0084e-05	6.8028e-06	328.95	95.385	112.41	34.971	3.5557e-06	35.688	0.0016217	0.0019053	0.00054364	1282.5	2.0031e-05	2.127e-05	893.92	378.43	2.0348e-05	2.1355e-05	305.62	88.927	104.93	32.731	2.0588e-05	33.62	285.316	36.254	56.514	-43.181	274.418	29.612	-43.952	-38.072	14.009	132.869	-38.896	-34.730	-33.444	-28.098	97.439	-30.045	-8191	255	
13494.259	1	1	0	0	0.17078	0.12532	0.21746	0.33876	0.28648	0.11523	0.1677	0.21968	0.040194	0.25538	0.093659	0.12303	0.028797	0.24694	0.10301	0.25934	-1.5458	-2.4938	-2.6333	-2.25	-2.7896	-2.275	-2.1875	-2.7167	-2.2625	-2.4583	-2.7062	-2.1833	-2.9146	-2.4583	-1.9333	-2.9313	301.519	7.393	191.060	252.816	211.920	209.672	-36.915	212.490	266.887	269.872	-23.258	253.583	221.677	268.034	177.615	160.736	0.00022688	0.00037503	0.00015909	1418.7	1.2919e-05	9.3245e-06	990.32	415.47	3.5382e-06	5.0855e-06	333.31	96.71	114.1	35.294	8.7134e-06	36.168	0.0015917	0.0019589	0.00054743	1293.2	2.041e-05	2.1566e-05	903.36	380.41	1.9929e-05	2.1302e-05	308.34	89.819	106.06	33	2.0591e-05	33.945	-47.894	274.699	-3.036	-42.728	95.485	49.723	-43.512	-37.991	142.536	155.916	-39.840	-34.778	-33.390	-28.071	128.282	-30.621	-8191	255	
13494.331	1	1	0	0	0.15474	0.058427	0.12888	0.23086	0.075486	0.26521	0.2479	0.32151	0.04133	0.12607	0.23883	0.15833	0.26288	0.28029	0.21955	0.22153	-1.6521	-2.2708	-2.6021	-2.0625	-2.4938	-2.4333	-2.3625	-2.9167	-2.1708	-2.3729	-2.7812	-2.1396	-2.7646	-2.6479	-1.9583	-2.825	181.758	-35.094	-7.584	247.576	250.569	281.467	276.616	262.288	268.229	257.769	117.626	157.457	-48.706	126.938	179.546	190.423	0.00012847	0.0005683	6.4862e-05	1423.5	1.0724e-05	1.8094e-06	992.99	418.72	1.7099e-05	6.8327e-06	331.4	95.829	112.89	35.015	5.6358e-06	35.619	0.0016156	0.0018864	0.00053976	1299	2.0126e-05	2.1192e-05	906.16	381.79	2.0113e-05	2.0892e-05	308.04	89.521	105.59	32.945	2.1051e-05	33.516	121.817	203.608	294.969	-42.802	147.050	133.423	-43.307	-37.754	142.871	41.252	-39.363	-34.990	-33.422	-27.894	121.777	-30.334	-8191	255	
13494.427	1	1	0	0	0.2061	0.18481	0.19977	0.21462	0.12538	0.11886	0.3401	0.40881	0.14377	0.045971	0.16093	0.14077	0.25787	0.1197	0.13357	0.094604	-1.8208	-2.2708	-2.5271	-2.2958	-2.5917	-2.4458	-2.3292	-2.8937	-2.3833	-2.1813	-2.7438	-2.0333	-2.3917	-2.5812	-2.0146	-2.6833	282.883	-26.501	140.548	288.045	180.521	98.346	245.838	278.758	39.898	170.132	-51.394	221.269	-47.839	218.325	-5.480	249.976	0.00022765	0.00014851	0.00019213	1408.2	2.5052e-06	1.0837e-05	982.82	414.59	2.9093e-06	5.7877e-06	329.03	94.677	112.3	34.858	3.7463e-06	35.41	0.0016013	0.0019413	0.00053347	1292.8	2.038e-05	2.1444e-05	898.31	379.55	2.078e-05	2.1403e-05	306.14	88.941	105.05	32.867	2.07e-05	33.464	292.216	60.011	22.586	-42.379	39.097	87.298	-43.300	-37.878	118.255	101.331	-39.650	-34.713	-33.162	-27.933	221.659	-30.414	-8191	255	
13494.547	1	1	0	0	0.13305	0.32384	0.13187	0.25626	0.33343	0.17616	0.20219	0.099935	0.021268	0.12805	0.073767	0.3751	0.22795	0.31976	0.18375	0.074395	-2.0396	-2.2042	-2.6042	-2.2833	-2.3	-2.6208	-2.2792	-2.8937	-2.5104	-2.175	-2.8604	-2.1437	-2.3771	-2.7396	-2.0896	-2.8125	42.880	121.266	101.496	299.838	75.358	279.387	257.977	194.762	196.998	178.926	-32.959	231.610	265.367	167.430	160.332	206.303	0.00023086	0.001343	5.9449e-05	1409.6	3.8143e-06	5.1131e-07	981.24	412.82	5.0981e-06	5.4675e-06	329.68	95.82	112.98	35.301	5.6287e-06	35.976	0.0016052	0.0019557	0.00053107	1292.5	2.0693e-05	2.1367e-05	901.32	379.72	2.0254e-05	2.1531e-05	307.38	89.543	105.89	33.092	2.0986e-05	33.981	293.704	55.786	302.037	-42.104	128.536	-52.050	-42.939	-37.475	197.657	105.687	-39.333	-34.775	-32.652	-27.918	71.980	-30.205	-8191	255	
13494.643	1	1	0	0	0.060915	0.10747	0.23558	0.27884	0.12355	0.059218	0.26946	0.011487	0.084777	0.050422	0.22855	0.19509	0.37677	0.17108	0.20038	0.19013	-2.0708	-2.0375	-2.7604	-2.3187	-2.3688	-2.5396	-2.2479	-2.7833	-2.4646	-2.2083	-3.0667	-2.475	-2.3479	-2.8292	-2.0187	-2.5917	22.151	233.440	300.990	-13.787	172.398	58.482	261.715	142.702	5.444	302.983	231.925	160.849	262.210	298.513	280.613	235.905	0.00022783	0.00043521	0.00014113	1432.8	1.9167e-06	3.0005e-06	996.41	418.86	9.7201e-06	5.7422e-06	332.99	97.12	113.76	35.681	8.894e-06	36.322	0.0016418	0.0019825	0.00054803	1305.8	2.0674e-05	2.178e-05	912.02	383.51	2.1059e-05	2.1857e-05	310.83	90.725	106.36	33.28	2.0658e-05	34.184	217.579	116.784	101.593	-42.118	77.037	77.262	-43.384	-38.180	157.753	45.448	-39.542	-34.385	-33.147	-27.878	-19.638	-30.814	-8191	255	
13494.740	1	1	0	0	0.15497	0.013878	0.25326	0.094755	0.074773	0.11417	0.30422	0.090913	0.12124	0.29231	0.05459	0.10925	0.18824	0.084378	0.12375	0.13875	-2.1792	-2.1188	-2.6771	-2.4333	-2.2292	-2.8646	-2.2354	-2.5917	-2.7417	-2.25	-2.8937	-2.5042	-2.2542	-2.9521	-2.0208	-2.5021	97.549	66.457	270.252	-54.116	196.588	89.257	254.833	222.586	-52.093	120.677	266.826	179.865	244.051	276.508	47.056	170.200	0.00022699	0.00035982	0.00025465	1434.9	2.0893e-06	5.6645e-06	998.1	418.8	9.1085e-06	2.4837e-06	336.46	97.027	114.18	35.492	1.0226e-05	35.985	0.001645	0.0019487	0.00054188	1308.2	2.0124e-05	2.1176e-05	909.56	383.92	2.074e-05	2.1057e-05	310.37	90.645	106.27	33.372	2.0487e-05	34.037	226.711	-25.086	56.491	-42.257	76.337	139.634	-42.830	-37.763	211.619	166.831	-39.852	-35.440	-33.867	-28.296	100.341	-31.079	-8191	255	
13494.836	1	1	0	0	0.19691	0.24137	0.18489	0.25853	0.31641	0.13043	0.021258	0.16967	0.11653	0.32927	0.19204	0.06521	0.186	0.047614	0.22081	0.16509	-2.2479	-2.0958	-2.5667	-2.5042	-2.3312	-2.6667	-2.3208	-2.5042	-2.7333	-2.1833	-2.7125	-2.4979	-2.1458	-2.8917	-2.2458	-2.3417	193.564	123.941	226.818	200.683	279.962	-38.446	201.357	10.855	-23.863	153.725	276.321	-40.585	173.886	101.047	-10.376	161.463	6.6668e-05	0.0012142	0.00011742	1429.4	3.2197e-06	6.079e-06	988.06	415.3	1.6848e-05	5.3599e-06	333.18	94.948	112.68	35.254	4.0499e-06	35.675	0.0016247	0.0019219	0.00053535	1303.1	2.0444e-05	2.1037e-05	903.47	381.82	2.085e-05	2.1345e-05	308.13	89.459	105.51	33.08	2.1204e-05	33.826	282.917	47.960	4.820	-43.395	104.907	262.109	-43.986	-38.582	105.795	37.442	-40.158	-35.023	-34.093	-29.056	84.796	-31.371	-8191	255	
13494.955	1	1	0	0	0.21396	0.20603	0.25914	0.25268	0.20183	0.28881	0.14891	0.11697	0.12498	0.20805	0.064595	0.053969	0.20491	0.13644	0.20354	0.10582	-2.4354	-1.975	-2.6437	-2.6708	-2.1042	-2.7708	-2.5312	-2.5	-2.8104	-1.9646	-2.7146	-2.6458	-2.1667	-3.0021	-2.3896	-2.3458	157.091	17.845	59.741	284.162	213.305	96.302	243.116	193.633	294.424	162.411	231.341	52.260	295.216	198.174	133.744	205.115	0.0002028	0.00044525	5.9843e-05	1429	9.0814e-06	4.365e-06	981.33	415.99	6.3955e-06	4.4444e-06	333.62	96.885	113.87	35.592	5.8678e-06	36.276	0.0016421	0.0019505	0.00055301	1300.9	2.0504e-05	2.1383e-05	905.61	381.48	2.0634e-05	2.149e-05	309.42	90.429	105.98	33.295	2.0983e-05	34.205	-53.989	39.399	51.859	-43.321	28.106	84.967	-43.839	-38.505	185.085	165.271	-40.544	-35.308	-34.031	-28.255	121.296	-31.032	-8191	255	
13495.028	1	1	0	0	0.2154	0.037132	0.17037	0.41645	0.023889	0.066236	0.2486	0.026004	0.1623	0.41394	0.02858	0.098838	0.24926	0.24218	0.13768	0.16156	-2.3063	-2.1146	-2.3667	-2.8354	-2.1854	-2.6792	-2.625	-2.5292	-2.9542	-2.2562	-2.55	-2.7292	-2.0354	-2.75	-2.2708	-2.0875	2.409	-45.063	3.401	261.582	286.074	263.939	245.555	155.645	253.525	82.416	186.417	-27.332	258.364	-53.596	102.354	192.725	0.00013044	0.00054362	0.00014187	1431.6	5.5325e-06	3.6665e-06	997.02	417.53	8.1242e-06	2.0981e-06	335.43	97.361	114.8	35.756	4.9083e-06	36.213	0.0016024	0.0018906	0.00054025	1306.1	2.077e-05	2.1026e-05	912.16	383.75	2.0187e-05	2.1145e-05	311.66	91.29	106.81	33.361	2.0964e-05	34.279	163.082	81.275	36.178	-42.920	80.730	252.387	-43.620	-38.110	111.630	99.265	-39.660	-34.761	-33.680	-28.736	57.233	-31.029	-8191	255	
13495.124	1	1	0	0	0.21309	0.18729	0.16522	0.066752	0.032661	0.10779	0.33868	0.087849	0.25292	0.1047	0.13678	0.037075	0.32214	0.36941	0.17224	0.11092	-2.3375	-2.2021	-2.3812	-2.6688	-2.0292	-2.7687	-2.6958	-2.3083	-2.9313	-2.1188	-2.4104	-2.7292	-2.0396	-2.5083	-2.725	-2.1521	175.875	83.153	225.854	-46.566	216.692	303.490	244.698	261.066	298.202	245.446	256.076	-50.586	-42.765	265.731	203.694	-5.504	0.0002022	0.00061163	0.00016845	1425.6	5.6983e-06	4.713e-06	999.08	419.14	6.9344e-06	7.6142e-06	333.12	96.989	114.19	35.51	2.996e-06	36.217	0.0015864	0.0019042	0.00054323	1308.3	2.0138e-05	2.1707e-05	914.07	384.64	2.0361e-05	2.122e-05	310.85	90.822	106.49	33.334	2.0995e-05	34.196	282.492	261.071	38.315	-42.905	152.035	163.585	-44.183	-38.122	128.980	80.530	-40.096	-35.108	-33.625	-28.101	-25.806	-31.150	-8191	255	
13495.243	1	1	0	0	0.18302	0.080896	0.044763	0.11679	0.098844	0.25461	0.084301	0.23662	0.086273	0.28731	0.16813	0.11745	0.073006	0.14769	0.24799	0.010049	-2.15	-2.2062	-2.3104	-2.9729	-2.1875	-2.6125	-2.7333	-2.2062	-2.8292	-2.3917	-2.2042	-3.0021	-2.1104	-2.4708	-2.6833	-2.2562	141.855	-30.816	200.279	287.253	105.383	239.596	-14.431	267.538	270.184	153.749	201.332	175.730	278.143	265.476	144.326	283.403	0.00022553	0.00096773	0.00014047	1429.3	1.1593e-05	4.8908e-06	993.68	418.38	1.046e-05	3.1518e-06	335.19	97.399	113.92	35.735	4.4475e-06	36.158	0.0015618	0.0019267	0.00053389	1302.4	1.9848e-05	2.1055e-05	907.28	383.14	2.02e-05	2.0701e-05	310	90.918	106.16	33.399	2.0223e-05	34.036	234.173	40.972	67.687	-42.857	94.650	160.177	-43.453	-37.982	174.295	43.680	-40.244	-34.731	-33.421	-28.247	83.539	-30.945	-8191	255	
13495.339	1	1	0	0	0.10469	0.12966	0.11727	0.20645	0.20244	0.15741	0.43121	0.17347	0.11924	0.057531	0.1322	0.16871	0.10227	0.089356	0.20341	0.10507	-2.3375	-2.4188	-2.1333	-3.0042	-2.1854	-2.4667	-2.8229	-2.4479	-2.65	-2.5979	-2.125	-2.9667	-2.2292	-2.4875	-2.4875	-2.0292	286.501	140.981	127.751	284.973	-10.976	-10.330	195.959	261.814	28.626	0.194	121.209	253.856	-23.554	209.316	-15.089	-40.479	3.0707e-05	0.0010995	0.00017103	1425.5	5.6143e-06	6.9567e-06	996.69	416.46	7.8046e-07	8.8303e-06	335.34	97.112	114.36	35.875	3.4013e-06	36.302	0.0016008	0.0019486	0.00052871	1302.2	2.0033e-05	2.1324e-05	909.28	382.11	2.018e-05	2.1201e-05	310.71	90.8	106.64	33.471	2.048e-05	34.052	207.852	-25.878	58.632	-42.639	72.724	136.656	-43.278	-38.022	-45.940	139.485	-39.823	-34.679	-33.111	-28.014	13.921	-30.523	-8191	255	
13495.435	1	1	0	0	0.1913	0.090952	0.044594	0.19618	0.16849	0.43654	0.26205	0.41238	0.30439	0.24539	0.14262	0.024959	0.23163	0.061757	0.1411	0.17121	-2.1437	-2.5271	-2.2021	-3.0646	-2.4354	-2.3083	-2.8312	-2.175	-2.5854	-2.9188	-2.3375	-2.9417	-2.0687	-2.4146	-2.8812	-2.1375	67.700	93.015	116.488	-36.356	55.970	215.917	256.434	275.111	91.869	-27.572	208.070	96.672	-1.829	115.327	159.789	21.325	0.00030809	0.0010548	0.000214	1441.8	6.9736e-07	4.1771e-06	1004.7	420.91	7.8768e-06	2.5356e-06	339.19	97.583	114.77	35.796	6.1313e-06	36.364	0.0016	0.0019234	0.00053145	1312.8	2.0056e-05	2.1174e-05	916.76	385.69	2.0144e-05	2.0806e-05	313.64	90.845	107	33.471	2.0376e-05	34.164	240.713	31.873	-4.011	-42.886	194.795	144.087	-43.369	-37.814	214.429	33.093	-39.973	-35.523	-33.449	-28.651	125.550	-30.908	-8191	255	
13495.532	1	1	0	0	0.12638	0.25686	0.073282	0.43323	0.17712	0.12355	0.29382	0.28227	0.20748	0.086528	0.065856	0.12547	0.13811	0.27805	0.21044	0.21025	-2.2812	-2.6813	-2.1188	-2.9	-2.4375	-2.05	-2.9375	-2.0812	-2.5021	-2.6708	-2.1333	-2.75	-2.4479	-2.2125	-2.8937	-2.2104	250.301	256.528	274.541	-49.932	82.153	-45.913	288.743	228.621	253.102	113.532	288.320	0.329	178.864	237.254	97.497	295.751	0.00030889	0.00042441	8.7448e-05	1435.7	8.3551e-06	1.2966e-06	998.4	419.58	1.1424e-05	5.9404e-06	335.72	97.353	114.39	35.567	4.2971e-06	36.185	0.0015645	0.0019009	0.00052615	1312.9	2.0015e-05	2.0814e-05	914.46	384.56	2.0345e-05	2.0841e-05	311.35	90.88	106.6	33.351	2.0173e-05	33.97	265.493	16.423	55.090	-42.875	90.064	18.033	-43.765	-38.562	65.760	123.641	-40.076	-34.769	-33.217	-28.088	15.741	-30.692	-8191	255	
13495.628	1	1	0	0	0.052294	0.19419	0.081708	0.28323	0.18702	0.14004	0.14055	0.10963	0.12904	0.024417	0.14219	0.16181	0.22784	0.071652	0.050883	0.2697	-1.95	-2.7938	-2.1937	-2.8875	-2.4375	-2.4062	-3.0271	-2.3833	-2.4021	-2.7833	-2.1729	-2.7375	-2.6813	-2.1292	-2.9146	-2.2021	132.349	157.381	186.038	234.977	182.955	170.906	235.910	287.625	160.354	15.927	-36.158	-23.481	205.121	302.001	283.017	221.002	0.0001787	0.00026491	0.0003174	1436.2	8.2465e-06	9.0219e-06	988.63	418.07	4.8435e-06	1.3385e-05	333.44	96.912	113.61	35.827	5.4457e-06	35.945	0.0016051	0.0019229	0.0005289	1307.3	2.0285e-05	2.0785e-05	907.46	383.4	2.0059e-05	2.0592e-05	308.72	90.406	106.22	33.352	1.979e-05	34	245.295	79.146	41.988	-42.661	33.173	85.164	-43.080	-37.844	40.343	90.303	-39.767	-34.626	-33.325	-28.168	64.430	-30.512	-8191	255	
13495.724	1	1	0	0	0.18379	0.34066	0.16653	0.43094	0.16652	0.18318	0.048231	0.13002	0.090264	0.028546	0.15246	0.12442	0.14947	0.32991	0.21632	0.15943	-1.9292	-2.5833	-2.0521	-2.7812	-2.5458	-2.1354	-3.0125	-2.4771	-2.0646	-2.8292	-2.2354	-2.5312	-2.7583	-2.1708	-2.7021	-2.4313	179.668	296.591	132.662	277.881	112.875	122.068	161.610	291.334	109.680	168.436	245.221	-44.750	277.503	201.459	-39.796	230.254	0.00016591	0.00074736	0.0001936	1435	9.0937e-06	1.8775e-06	998.11	420.27	3.253e-06	1.0284e-05	334.72	97.177	115.07	35.888	1.9654e-06	36.267	0.0015752	0.0018491	0.00051694	1307	1.9906e-05	2.0441e-05	911.08	385.02	2.0013e-05	2.0762e-05	310.7	90.945	106.93	33.454	2.0606e-05	34.202	207.120	77.588	19.653	-42.499	35.201	88.517	-43.058	-37.604	178.314	177.292	-38.992	-34.786	-32.882	-27.877	152.203	-30.276	-8191	255	
13495.844	1	1	0	0	0.10411	0.16664	0.27432	0.023493	0.2222	0.060371	0.24567	0.45547	0.12218	0.091031	0.1939	0.055905	0.23256	0.15383	0.07266	0.22738	-1.7542	-2.7833	-2.175	-2.7354	-2.6208	-2.1833	-2.8958	-2.7542	-1.9937	-2.85	-2.4646	-2.2917	-2.7208	-2.1792	-2.6083	-2.7167	136.198	31.062	122.239	232.365	152.631	75.987	276.205	246.146	-35.205	64.715	149.052	300.927	185.315	-51.863	267.244	179.456	0.00026101	0.0011167	0.00012723	1437.9	5.2151e-06	2.8167e-06	1003.9	423.23	5.4021e-06	2.3816e-06	337.69	98.174	115.9	35.761	8.2416e-06	36.519	0.0015973	0.0018759	0.000534	1311.9	1.9807e-05	2.0757e-05	919.17	388.05	2.0146e-05	2.0952e-05	313.94	91.769	107.7	33.425	2.0694e-05	34.377	269.667	23.784	117.593	-42.296	258.802	26.860	-42.947	-37.471	229.475	294.331	-39.621	-34.724	-32.805	-27.954	99.144	-30.961	-8191	255	
13495.941	1	1	0	0	0.10814	0.10723	0.18942	0.274	0.047952	0.24295	0.10592	0.16595	0.22273	0.047057	0.17778	0.17243	0.11939	0.10118	0.09693	0.15556	-1.6437	-2.6229	-2.2396	-2.4604	-2.4625	-1.9562	-2.7333	-2.7438	-1.9625	-2.7229	-2.4354	-2.1771	-2.8812	-2.1	-2.6146	-2.5979	191.742	181.003	122.316	284.114	67.306	287.397	293.702	270.770	129.204	-34.005	188.357	234.792	-39.143	-48.069	262.550	86.373	0.00020226	0.00029177	3.7392e-05	1442.7	3.5715e-06	7.1719e-06	1003.6	422.6	8.5903e-06	3.6389e-06	337.25	97.094	115.06	35.689	5.6941e-06	36.096	0.0015848	0.0019021	0.00054567	1317.5	2.0096e-05	2.102e-05	918.11	387.71	2.0264e-05	2.1041e-05	313.11	90.753	107.28	33.334	2.0493e-05	34.108	252.257	38.138	60.571	-43.104	113.959	-1.834	-43.288	-37.885	10.954	99.574	-39.862	-34.744	-33.431	-27.962	72.026	-30.807	-8191	255	
13496.035	1	1	0	0	0.18812	0.21961	0.088647	0.10518	0.22382	0.15407	0.17624	0.072795	0.083257	0.14849	0.14419	0.21741	0.228	0.21401	0.12009	0.066834	-1.7188	-2.8104	-2.2	-2.4	-2.6083	-2.1542	-2.6583	-2.95	-2.1125	-2.825	-2.4583	-2.2958	-3.0333	-2.2333	-2.5187	-2.7625	-46.246	288.676	213.477	-26.740	38.058	93.452	254.959	78.537	-25.195	29.680	206.786	253.866	275.703	281.539	74.162	252.681	0.00019618	0.0004337	0.00029835	1430.6	9.04e-06	9.4448e-06	1000	421.07	8.8434e-06	3.6461e-06	334.92	96.194	114.85	35.651	6.9458e-06	36.018	0.001598	0.0019216	0.00052867	1307.8	1.9899e-05	2.0977e-05	911.26	385.84	2.0504e-05	2.0916e-05	310.67	90.52	106.63	33.274	2.0507e-05	33.974	275.884	24.620	2.052	-42.799	162.878	108.025	-43.258	-37.879	58.038	163.176	-39.896	-34.908	-33.072	-28.025	71.122	-30.524	-8191	255	
13496.131	1	1	0	0	0.3161	0.093119	0.20598	0.32472	0.012705	0.20681	0.17481	0.32146	0.22559	0.12572	0.088206	0.32834	0.073518	0.23802	0.1202	0.081969	-1.7812	-2.6813	-2.3667	-2.2521	-2.8708	-2.2333	-2.5396	-2.9771	-1.9958	-2.625	-2.6208	-2.1854	-2.8396	-2.2583	-2.2167	-2.8229	-50.254	225.876	243.499	301.615	65.458	-7.810	138.898	275.763	243.906	197.976	242.699	33.961	265.885	44.943	289.406	-45.263	0.00038004	0.0010665	0.00029176	1438.8	7.1414e-06	5.5113e-06	999.84	422.69	7.4243e-06	8.5646e-06	338.5	97.228	114.71	35.544	4.3832e-06	36.268	0.0015316	0.0019295	0.0005378	1310.6	2.0048e-05	2.0893e-05	913.86	387.1	1.9895e-05	2.1151e-05	312.94	90.774	107.15	33.306	2.0521e-05	34.027	265.445	12.441	47.915	-42.409	23.424	134.402	-42.968	-37.532	121.307	58.819	-39.054	-34.623	-33.111	-27.367	150.734	-30.324	-8191	255	
13496.227	1	1	0	0	0.12308	0.092702	0.08593	0.22384	0.123	0.089203	0.24987	0.21206	0.04526	0.22976	0.18025	0.15791	0.15198	0.06606	0.11426	0.097444	-1.7437	-2.5687	-2.6208	-2.3792	-2.7875	-2.3729	-2.3854	-2.9625	-1.9958	-2.6333	-2.8208	-2.15	-2.7542	-2.3354	-2.3375	-2.9104	-29.056	60.436	51.782	281.380	242.200	51.286	216.497	246.528	-35.859	3.715	281.048	137.523	260.025	233.083	-4.916	50.975	0.00018339	0.00058761	0.00017842	1445.9	2.8374e-06	6.3846e-06	1007.6	424.84	3.654e-06	4.5988e-06	338.94	97.59	114.63	35.24	1.1051e-05	35.769	0.0015733	0.0019305	0.00054197	1318.8	2.0207e-05	2.0998e-05	919.31	388.45	1.9997e-05	2.1498e-05	313.07	91.064	107.04	33.205	2.111e-05	33.771	284.711	84.999	60.497	-42.797	182.447	56.363	-43.536	-37.821	261.519	73.994	-39.481	-34.782	-33.160	-27.529	120.553	-30.173	-8191	255	
13496.323	1	1	0	0	0.42416	0.028056	0.11877	0.33456	0.25127	0.044391	0.14152	0.079418	0.093667	0.093185	0.23148	0.14275	0.15284	0.037117	0.072913	0.17186	-1.5479	-2.3708	-2.5854	-2.0146	-2.6437	-2.4583	-2.2125	-2.9125	-2.1771	-2.5083	-2.8021	-2.1458	-2.7083	-2.6375	-2.2229	-2.8438	159.820	-23.149	226.659	-34.701	81.580	4.560	-53.759	252.431	294.221	-9.150	223.413	11.381	-42.088	188.690	109.434	265.399	0.00018402	0.00020222	0.00017249	1440.1	5.9001e-06	1.1653e-05	1002.6	421.07	1.0656e-05	8.0971e-07	333.18	96.91	114.44	34.985	1.1766e-05	35.53	0.0016101	0.0019735	0.00053742	1314.2	2.0456e-05	2.1826e-05	916.13	385.81	2.0148e-05	2.1629e-05	310.64	90.047	106.79	32.906	2.0469e-05	33.487	284.400	65.078	19.350	-42.425	97.166	128.229	-43.244	-37.809	197.403	136.842	-38.787	-34.307	-33.124	-28.024	167.190	-30.958	-8191	255	
13496.420	1	1	0	0	0.088922	0.034468	0.19818	0.28394	0.11983	0.063438	0.13584	0.1362	0.24313	0.26974	0.050654	0.15208	0.19065	0.14929	0.38299	0.19186	-1.7313	-2.0396	-2.6312	-2.4854	-2.5312	-2.4708	-2.15	-3.0458	-2.05	-2.2708	-2.7979	-2.0979	-2.5208	-2.7	-2.1	-2.9521	-15.766	168.410	78.365	261.215	17.515	-24.354	250.875	-30.590	122.626	155.631	-52.823	228.155	276.711	54.440	-3.808	142.072	0.00022971	0.00056591	0.00021161	1434.6	6.2527e-06	1.5752e-06	994.31	417.48	4.7935e-06	4.1846e-06	334.47	96.355	113.05	34.857	2.009e-06	35.288	0.0016148	0.0019276	0.00052834	1310.4	2.0267e-05	2.0812e-05	909.7	383.84	2.009e-05	2.0985e-05	309.55	89.992	105.79	32.735	2.0367e-05	33.282	-14.202	-21.717	41.890	-42.686	216.394	-36.914	-43.190	-37.748	33.604	73.198	-39.764	-34.510	-33.999	-28.271	72.930	-30.823	-8191	255	
13496.516	1	1	0	0	0.15587	0.187	0.25978	0.10967	0.10824	0.056852	0.25317	0.17464	0.092569	0.12192	0.071449	0.25075	0.057625	0.051131	0.20935	0.32263	-1.8458	-2.1042	-2.7062	-2.4167	-2.4833	-2.6583	-2.2042	-2.8958	-2.2896	-1.9875	-3.1312	-2.1417	-2.4229	-2.4771	-2.1542	-2.7	127.478	-9.064	299.578	-10.794	-33.258	74.589	199.548	225.408	116.480	-4.263	194.012	-5.646	32.221	53.927	-26.834	43.455	0.00016657	0.0010996	0.00019543	1430.8	8.4602e-06	3.7038e-06	996.84	418.47	2.8073e-06	8.6237e-06	332.81	95.796	113.68	34.733	1.4613e-06	35.066	0.0016096	0.0019212	0.00053222	1308.7	2.017e-05	2.1013e-05	911.97	384.11	2.0903e-05	2.1493e-05	309.41	89.364	106.03	32.468	2.0878e-05	33.004	290.923	-24.351	31.411	-42.779	87.643	-27.391	-43.720	-37.975	-40.482	99.396	-39.844	-34.713	-33.214	-27.716	271.374	-30.615	-8191	255	
13496.612	1	1	0	0	0.15321	0.12592	0.094746	0.32074	0.063912	0.094825	0.21938	0.18891	0.21281	0.1735	0.036898	0.22593	0.26662	0.056981	0.3752	0.26167	-2.3063	-2.2313	-2.7687	-2.2812	-2.4688	-2.8521	-2.2146	-2.8021	-2.3375	-2.1292	-2.8625	-2.4646	-2.4062	-2.7875	-2.2146	-2.7604	151.599	166.285	-15.653	-36.451	182.898	64.710	263.881	222.519	185.398	172.379	28.727	232.303	1.062	296.360	-26.399	291.448	0.00025187	0.00038456	0.00034166	1440.6	7.8373e-06	4.0553e-06	1000.7	421.13	7.0479e-06	4.2586e-06	334.25	96	112.65	34.291	1.6263e-06	34.773	0.0016335	0.0019676	0.00053678	1314.7	2.0369e-05	2.1397e-05	916.76	384.74	2.068e-05	2.1219e-05	309.18	89.428	105.32	32.295	2.0869e-05	32.862	281.674	36.875	15.477	-42.115	155.574	163.879	-43.019	-37.690	89.336	146.490	-39.496	-34.283	-33.108	-28.178	248.191	-30.993	-8191	255	
13496.733	1	1	0	0	0.23315	0.2076	0.28975	0.35142	0.096143	0.082396	0.42677	0.21465	0.26826	0.28273	0.27516	0.048443	0.14826	0.2122	0.19004	0.28959	-2.0146	-2.1354	-3.0687	-2.5271	-2.2125	-2.7458	-2.1146	-2.6521	-2.5042	-1.9542	-2.9646	-2.4167	-2.3229	-2.925	-2.0271	-2.4375	-42.736	241.314	127.235	284.175	186.210	284.576	229.629	176.567	-12.133	121.204	172.800	281.785	266.118	192.050	-10.797	279.353	6.6592e-05	0.00045485	0.00021595	1433.7	2.5535e-06	4.7088e-06	985.16	418.12	2.5143e-06	6.1788e-06	332.48	94.755	112.5	34.551	4.1476e-06	34.258	0.0016392	0.0019222	0.00054253	1309.6	2.0222e-05	2.1028e-05	906.05	383.39	2.0511e-05	2.1008e-05	307.44	88.561	105.18	32.21	2.0543e-05	32.512	25.531	48.774	73.443	-43.245	92.212	121.326	-43.821	-38.344	113.112	44.919	-40.086	-35.394	-33.887	-28.455	120.453	-31.132	-8191	255	
13496.829	1	1	0	0	0.15032	0.1109	0.4165	0.36023	0.32567	0.29041	0.1028	0.030723	0.097645	0.235	0.19476	0.070331	0.29312	0.12327	0.19403	0.081337	-2.3146	-1.9833	-2.6542	-2.5042	-2.0646	-2.8417	-2.3063	-2.7146	-2.6042	-2.225	-2.7604	-2.4896	-2.3229	-2.8854	-2.175	-2.5792	70.610	99.396	92.586	249.899	258.388	5.104	254.592	263.847	296.726	95.319	269.390	203.340	271.047	272.077	209.647	227.541	0.00028541	0.00094036	0.00026575	1431.8	5.8786e-06	5.1499e-06	984.21	416.62	1.0533e-05	6.2405e-06	330.84	93.803	112.27	34.203	2.0675e-06	34.419	0.0015922	0.0019017	0.0005394	1306.3	2.0527e-05	2.1378e-05	903.92	381.74	2.0154e-05	2.1145e-05	305.56	87.795	104.72	32.088	2.1061e-05	32.339	286.164	37.359	51.875	-42.874	179.529	32.172	-43.592	-38.604	228.075	127.193	-39.844	-35.194	-33.511	-28.802	205.034	-31.163	-8191	255	
13496.925	1	1	0	0	0.10571	0.06381	0.2416	0.11586	0.28146	0.12723	0.25696	0.21648	0.31298	0.24655	0.16331	0.12641	0.32765	0.18461	0.13973	0.065922	-2.2812	-1.9958	-2.6562	-2.6188	-2.2021	-2.7833	-2.3854	-2.3125	-2.8667	-2.0854	-2.5312	-2.6042	-2.3167	-2.9521	-2.3021	-2.4104	211.322	-39.796	-41.674	7.873	240.404	-33.972	246.679	293.846	24.515	65.840	285.068	241.652	-18.755	-31.616	231.839	281.688	0.00029878	0.00062577	0.00015377	1420.3	9.602e-06	4.4816e-06	980.07	413.52	6.2474e-06	6.2699e-06	327.69	93.766	112.01	34.238	2.4693e-06	34.187	0.0016217	0.0018977	0.00054432	1300.7	2.0421e-05	2.1035e-05	899.01	379.01	2.0247e-05	2.0833e-05	304.95	87.518	104.28	31.92	2.089e-05	32.214	301.525	46.943	8.382	-42.503	40.631	271.361	-43.129	-37.958	161.815	56.552	-39.987	-34.750	-33.185	-28.519	-3.288	-30.613	-8191	255	
13497.021	1	1	0	0	0.15002	0.17326	0.036117	0.13697	0.11902	0.12298	0.29761	0.14007	0.20515	0.24283	0.055006	0.050328	0.19266	0.20307	0.31134	0.34072	-2.4562	-2.0208	-2.5604	-2.8271	-2.0708	-2.875	-2.4938	-2.2938	-2.5417	-2.0292	-2.3792	-2.7188	-2.1146	-2.7417	-2.3708	-2.1813	103.325	47.799	263.486	262.702	111.523	159.963	-38.573	192.427	90.418	-50.140	210.363	79.290	-28.871	284.704	95.433	-35.584	0.00032154	0.0006476	0.00022917	1419.1	8.6212e-06	1.0156e-05	986.35	414.32	2.2826e-06	7.3922e-06	330.56	93.719	111.23	33.853	3.9113e-06	34.253	0.0015752	0.0018965	0.00053462	1296.4	2.0435e-05	2.0977e-05	903.11	379.91	2.0055e-05	2.1191e-05	304.63	87.645	103.99	31.889	2.1114e-05	32.327	274.851	46.834	-25.617	-42.504	77.759	70.265	-43.180	-37.999	39.035	26.683	-40.115	-35.208	-33.560	-28.256	201.577	-31.096	-8191	255	
13497.115	1	1	0	0	0.34394	0.26469	0.20542	0.1759	0.068971	0.22185	0.34992	0.11613	0.065643	0.17712	0.11553	0.31288	0.12882	0.061097	0.13577	0.24062	-2.3208	-1.9562	-2.2708	-2.7333	-2.2229	-2.5625	-2.5146	-2.3438	-2.9354	-2.1229	-2.3833	-2.7854	-2.0125	-2.6604	-2.6437	-2.3438	9.352	277.818	79.485	302.089	108.009	-52.035	246.759	265.360	49.552	98.081	213.421	-47.742	213.376	9.963	224.851	296.026	0.000215	0.00047967	0.0001686	1419.1	6.4239e-06	1.0137e-05	980.33	414.33	5.6925e-06	9.6166e-06	325.3	93.142	111.07	33.894	5.3862e-07	33.934	0.0015858	0.0019463	0.00053255	1296.9	2.0274e-05	2.1145e-05	898.16	378.84	2.0234e-05	2.0915e-05	302.16	86.91	103.74	31.781	2.0723e-05	32.081	277.245	129.209	99.526	-42.785	70.705	138.894	-42.978	-38.027	85.819	68.380	-39.647	-34.995	-33.399	-28.439	75.869	-30.597	-8191	255	
13497.213	1	1	0	0	0.081198	0.2228	0.15541	0.16961	0.066579	0.25983	0.12973	0.13724	0.21051	0.21396	0.1706	0.036102	0.19367	0.15418	0.10436	0.0949	-2.4083	-2.2687	-2.0292	-2.9188	-2.1854	-2.5104	-2.6125	-2.0729	-2.8375	-2.2542	-2.4125	-3.0187	-1.9312	-2.6104	-2.7562	-2.2458	64.015	-15.129	137.691	-50.373	93.340	-28.424	266.852	-28.300	211.140	33.727	-9.848	267.463	-43.925	285.208	114.258	283.520	0.00026097	0.00030391	0.00017702	1413.5	5.8466e-06	2.8256e-06	970.66	410.44	4.3878e-06	6.5557e-06	325.45	93.676	111.49	33.779	5.4328e-06	34.224	0.001597	0.0019078	0.00054202	1289.6	2.0514e-05	2.1415e-05	892.61	376.76	2.0249e-05	2.1354e-05	301.34	87.247	103.96	31.678	2.0643e-05	32.041	204.335	7.632	13.979	-42.631	198.137	-17.696	-42.998	-38.006	158.695	186.182	-39.766	-34.468	-33.313	-27.831	180.612	-30.926	-8191	255	
13497.332	1	1	0	0	0.16071	0.16078	0.08738	0.033987	0.11118	0.27574	0.22979	0.4676	0.23176	0.1098	0.19546	0.26345	0.20807	0.053616	0.12636	0.15589	-2.3396	-2.5375	-2.0542	-2.9042	-2.0667	-2.3042	-2.7938	-2.1354	-2.7375	-2.5396	-2.3187	-2.8063	-2.2708	-2.3542	-2.8167	-2.0458	46.278	288.174	193.671	70.102	56.573	101.852	233.966	264.519	163.323	132.781	240.368	219.568	303.519	-51.706	-21.532	293.688	0.00010684	0.00021312	9.8075e-05	1415.5	3.0844e-06	4.9644e-06	982.47	415.18	1.4832e-05	1.9345e-06	328.39	93.833	111.18	33.896	6.4543e-06	34.357	0.001589	0.0019715	0.0005452	1295.2	2.0464e-05	2.0923e-05	900.41	379.87	2.0168e-05	2.0901e-05	304.47	87.729	104.14	31.967	2.1277e-05	32.351	253.185	-53.722	66.734	-42.759	167.102	93.668	-43.677	-38.192	124.864	96.066	-39.626	-34.646	-33.241	-28.359	64.718	-30.499	-8191	255	
13497.428	1	1	0	0	0.20395	0.15156	0.073196	0.23396	0.12366	0.1802	0.48343	0.26943	0.0056213	0.053168	0.23411	0.17956	0.1726	0.15322	0.16402	0.20225	-2.225	-2.5208	-2.2938	-2.9208	-2.2542	-2.4833	-2.9771	-2.2708	-2.5771	-2.5812	-2.2708	-2.8604	-2.2708	-2.2583	-2.8167	-2.3	72.949	219.458	34.863	292.138	170.376	194.515	230.601	-41.218	152.349	265.681	210.704	225.747	257.444	256.423	223.471	82.817	0.00024613	0.00041841	0.00022973	1427.1	1.0159e-05	6.257e-06	995.6	415.41	6.0735e-06	4.8242e-06	332.16	93.694	111.9	33.976	8.0618e-06	34.056	0.0016232	0.0019288	0.00054352	1305.3	2.0622e-05	2.1217e-05	908.47	380.98	2.0628e-05	2.1217e-05	305.74	87.985	104.9	32.05	2.0858e-05	32.396	280.800	-24.850	33.657	-42.197	99.185	71.417	-43.143	-37.806	148.384	24.171	-39.546	-35.188	-33.386	-28.455	100.556	-30.669	-8191	255	
13497.524	1	1	0	0	0.13586	0.21992	0.14782	0.26523	0.13039	0.32248	0.27236	0.25317	0.15526	0.11479	0.27126	0.31966	0.082327	0.15265	0.1825	0.19585	-2.2208	-2.5104	-2.1021	-3.1146	-2.4542	-2.2354	-3.0083	-2.2542	-2.3354	-2.6708	-2.2229	-2.7083	-2.4958	-2.0646	-2.7667	-2.3542	298.727	272.481	289.159	246.385	242.409	263.910	205.066	247.783	262.845	168.273	267.597	16.291	263.535	-11.195	267.811	277.018	0.00011841	0.00082271	0.00011176	1424.3	9.678e-06	3.4373e-06	987.35	413.01	3.7898e-06	8.9882e-06	326.42	93.447	111.59	33.864	2.3626e-06	34.036	0.0016112	0.0019567	0.00053129	1301.9	2.0017e-05	2.0975e-05	902.17	379.52	2.0667e-05	2.1241e-05	303.5	87.462	104.24	31.838	2.0919e-05	32.153	273.152	41.211	63.937	-42.812	81.739	137.396	-43.961	-38.548	97.920	104.814	-40.356	-35.518	-33.581	-28.525	85.214	-30.531	-8191	255	
13497.621	1	1	0	0	0.19235	0.12052	0.27002	0.43983	0.10854	0.11632	0.33875	0.21703	0.31017	0.13071	0.30262	0.15266	0.059316	0.25521	0.20458	0.24272	-2.0729	-2.6229	-2.125	-2.8833	-2.5417	-2.0687	-2.9979	-2.4521	-2.3854	-2.9313	-2.2042	-2.6104	-2.6271	-2.0604	-2.6104	-2.2021	205.109	8.929	210.324	-45.882	7.264	101.458	277.254	19.991	14.702	227.759	207.964	195.810	-48.066	253.904	193.789	269.939	0.00020308	0.0004596	0.00034364	1416.5	2.9388e-06	6.5771e-06	980.64	412.16	7.166e-06	8.1488e-06	326.26	93.417	111.66	34.055	2.7889e-06	34.306	0.0016557	0.0020076	0.00055658	1295.6	2.1089e-05	2.2161e-05	897.64	378.02	2.095e-05	2.1673e-05	303.32	87.234	104.2	31.851	2.1068e-05	32.326	299.859	35.970	21.055	-42.604	109.553	252.845	-43.237	-37.676	131.833	78.753	-40.063	-35.048	-33.605	-28.092	153.728	-30.307	-8191	255	
13497.717	1	1	0	0	0.063598	0.059101	0.20845	0.20063	0.18746	0.1003	0.34755	0.12224	0.036485	0.25124	0.19292	0.073825	0.23388	0.35114	0.11288	0.14819	-1.8438	-2.6813	-1.9521	-2.6583	-2.2729	-2.0938	-2.8375	-2.2042	-2.2646	-2.9042	-2.1562	-2.4792	-2.5292	-2.075	-2.7708	-2.2438	156.575	50.307	92.471	294.036	163.987	160.972	290.254	254.241	135.535	236.014	158.146	29.135	-44.154	274.158	197.404	209.971	0.0003811	0.0005116	0.0002006	1429.2	6.3012e-06	3.7714e-06	991.18	415.37	8.1977e-06	9.0213e-06	331.37	94.475	111.78	34.167	7.7912e-06	34.802	0.0016557	0.001921	0.00054222	1304.8	2.0541e-05	2.1827e-05	908.38	381.17	2.0743e-05	2.1601e-05	306.64	88.407	104.75	32.16	2.1107e-05	32.847	276.097	24.601	10.578	-42.619	-42.569	144.095	-43.335	-37.853	235.461	87.210	-39.670	-34.882	-32.832	-27.887	97.084	-30.285	-8191	255	
13497.813	1	1	0	0	0.1021	0.22966	0.19497	0.15472	0.212	0.14153	0.075117	0.36719	0.11387	0.17864	0.2603	0.22061	0.21201	0.10803	0.26186	0.18472	-1.7583	-2.7083	-2.1021	-2.6562	-2.75	-2.0229	-2.8896	-2.4938	-2.2333	-2.7396	-2.375	-2.475	-2.7188	-2.0146	-2.7167	-2.5833	70.264	-40.491	71.755	252.590	114.179	258.111	171.713	232.042	203.431	-34.775	-39.416	297.672	267.203	187.268	291.198	276.803	0.0002564	0.0012236	6.1493e-05	1439.3	5.0439e-06	4.1653e-06	999.09	419.57	4.9766e-06	4.7336e-06	332.33	95.218	112.78	34.525	1.2632e-05	34.965	0.0016763	0.0019405	0.00055426	1315.9	2.0834e-05	2.2187e-05	914.87	384.78	2.1418e-05	2.2292e-05	308.84	89.198	105.79	32.434	2.2432e-05	32.864	293.256	31.762	17.205	-42.770	161.294	109.650	-43.771	-37.843	101.692	91.966	-39.811	-35.429	-33.071	-27.849	89.383	-30.774	-8191	255	
13497.934	1	1	0	0	0.20296	0.029007	0.20075	0.23181	0.084205	0.086887	0.3362	0.1179	0.27856	0.27401	0.47336	0.24864	0.18733	0.12037	0.15562	0.048634	-1.8292	-2.725	-2.1146	-2.5	-2.8292	-2.1125	-2.9521	-2.7333	-2.1417	-2.9021	-2.5167	-2.3563	-2.9375	-2.0625	-2.5854	-2.7604	66.428	49.195	217.878	245.966	28.397	236.811	247.415	220.621	-42.522	-35.062	252.043	274.738	-9.741	14.187	290.743	207.420	0.00030347	0.00072475	0.00013027	1439	2.8752e-06	8.9593e-06	996.51	418.22	7.6761e-06	6.8339e-06	332.46	94.714	113.07	34.32	1.1959e-05	34.593	0.0016992	0.0020733	0.00058124	1314	2.2059e-05	2.2533e-05	912.03	383.29	2.2057e-05	2.2914e-05	308.16	88.566	105.31	32.292	2.2611e-05	32.72	256.313	-2.768	-9.166	-42.722	22.234	104.403	-43.296	-37.611	158.855	87.764	-39.610	-35.043	-33.346	-27.762	181.783	-30.328	-8191	255	
13498.028	1	1	0	0	0.040076	0.20501	0.13178	0.26292	0.065027	0.212	0.17006	0.40689	0.25934	0.18533	0.26083	0.1864	0.042155	0.17999	0.12962	0.1101	-1.5979	-2.7812	-2.2229	-2.4417	-2.8021	-2.2146	-2.6	-2.6792	-2.1	-2.6958	-2.5271	-2.2104	-2.9	-2.1354	-2.3187	-2.6688	-31.769	216.066	55.236	276.919	304.379	264.549	254.470	253.655	111.500	149.288	279.917	-13.003	43.947	32.094	203.250	231.103	6.359e-05	0.00039634	0.00020098	1431.5	6.8453e-06	3.2746e-06	991.69	417.86	7.4184e-06	1.1064e-05	329.9	94.162	113.05	34.531	2.5787e-06	34.475	0.0016853	0.0020357	0.00057408	1309	2.1065e-05	2.2346e-05	907.67	382.22	2.1359e-05	2.2173e-05	306.56	88.591	105.48	32.325	2.2869e-05	32.684	4.810	112.466	13.401	-42.358	59.041	110.206	-42.670	-37.335	232.179	77.643	-38.975	-34.183	-32.121	-26.911	22.386	-29.161	-8191	255	
13498.124	1	1	0	0	0.25834	0.12574	0.17558	0.21042	0.15937	0.29969	0.33091	0.046292	0.17597	0.14639	0.10355	0.21594	0.2321	0.4102	0.17169	0.31236	-1.6521	-2.4667	-2.4125	-2.3333	-2.7313	-2.3146	-2.6104	-2.7812	-2.0125	-2.5687	-2.4792	-2.2896	-2.8771	-2.3958	-2.25	-2.8958	141.047	248.209	190.764	297.711	-34.779	-43.472	-32.482	294.943	133.881	220.605	185.385	184.797	158.376	278.347	186.510	187.799	0.00036223	0.0004671	4.018e-05	1442.4	1.7048e-06	9.6965e-06	997.97	418.48	8.8824e-06	6.4381e-06	331.49	94.227	113.21	34.52	5.7974e-06	34.642	0.0017037	0.0020867	0.00058705	1313.6	2.2413e-05	2.3884e-05	913.84	384.64	2.2643e-05	2.3144e-05	308.99	88.449	106.19	32.365	2.2802e-05	32.826	-30.423	77.345	111.764	-42.047	45.688	76.110	-42.807	-37.514	44.685	137.867	-39.425	-34.807	-32.768	-28.025	93.553	-30.787	-8191	255	
13498.198	1	1	0	0	0.20693	0.17651	0.27362	0.11611	0.15045	0.098648	0.23896	0.231	0.099591	0.1877	0.2391	0.13728	0.12388	0.29873	0.074297	0.091226	-1.8646	-2.6188	-2.7333	-2.1896	-2.6167	-2.2771	-2.375	-2.775	-2.2396	-2.4729	-2.6625	-2.3167	-2.7625	-2.4542	-2.2875	-2.8875	32.190	95.416	297.707	227.698	174.859	15.845	-16.230	-38.043	87.924	-17.250	240.579	221.228	148.369	-41.176	-25.503	262.082	0.00029031	0.00030362	2.8596e-05	1437.9	4.9998e-06	4.6432e-06	998.98	418.41	1.1039e-05	5.09e-06	333.28	94.73	112.71	34.578	3.4077e-06	34.265	0.0017521	0.0021068	0.00059661	1316.8	2.1816e-05	2.2875e-05	915	384.19	2.1814e-05	2.2815e-05	308.99	88.77	105.65	32.421	2.2159e-05	32.677	302.070	-6.207	-43.755	-42.448	168.561	123.560	-43.519	-38.395	302.749	104.222	-40.125	-35.014	-34.293	-28.232	54.908	-30.901	-8191	255	
13498.294	1	1	0	0	0.15681	0.23432	0.088468	0.43016	0.17139	0.18185	0.32226	0.22371	0.067847	0.26492	0.10579	0.25874	0.17978	0.099512	0.22697	0.14152	-1.8854	-2.5917	-2.4792	-2.4813	-2.7354	-2.4229	-2.2917	-2.9896	-2.3667	-2.4021	-2.8937	-1.9979	-2.6125	-2.4146	-2.0667	-2.8875	125.756	-9.775	25.671	263.269	-37.114	277.348	262.434	-43.876	151.403	220.517	274.167	272.059	297.255	43.085	143.688	-34.176	0.00024093	0.00089725	0.00018755	1434.1	1.1071e-06	5.1514e-06	992.27	418.12	2.4308e-06	5.6463e-06	331.51	95.061	112.68	34.609	8.1508e-06	34.672	0.0017038	0.0020335	0.00056639	1310.7	2.1348e-05	2.266e-05	907.97	383.54	2.1554e-05	2.21e-05	307.5	88.612	105.3	32.454	2.1509e-05	32.798	295.670	99.150	84.128	-42.967	51.692	159.146	-43.868	-38.099	116.007	94.530	-40.177	-35.173	-33.118	-28.010	108.530	-30.236	-8191	255	
13498.413	1	1	0	0	0.18496	0.16174	0.12525	0.17397	0.17618	0.069158	0.055111	0.23442	0.17678	0.32832	0.31583	0.1157	0.36634	0.15677	0.13901	0.11536	-1.9562	-2.2333	-2.7687	-2.3271	-2.5792	-2.7146	-2.4	-2.9604	-2.275	-2.1396	-2.9542	-2.2125	-2.6708	-2.5687	-2.075	-2.5708	244.358	6.606	266.227	8.637	160.781	-48.634	3.428	215.137	42.682	32.202	292.714	-53.130	299.231	-3.654	136.269	16.844	0.00023011	0.00035906	0.00030649	1428.7	1.4329e-05	9.0664e-06	993.49	416.61	1.8428e-06	8.0314e-06	332.18	95.26	113.93	34.66	7.5179e-06	35.055	0.0016321	0.0020117	0.00054941	1303.7	2.1048e-05	2.1966e-05	907.9	382.71	2.086e-05	2.1538e-05	307.84	89.021	105.78	32.617	2.1218e-05	33.092	300.900	88.246	26.831	-41.698	142.759	184.258	-42.294	-36.708	181.267	88.106	-39.443	-34.770	-33.253	-27.997	109.637	-30.764	-8191	255	
#DATA ENDS
