BOXY.EXE: ISS Imagent and Oximeter Data Acquisition Program Version 0.80
Ascii Record File

#ACQ INFORMATION
2  Detector Channels 
16  External MUX Channels 
1  Auxiliary Channels 
5000  Waveform (CCF) Frequency (Hz)
1  Waveforms Skipped 
30  Waveforms Averaged 
1  Cycles Averaged 
16  Acquisitions per Waveform 
10.0806  Updata Rate (Hz) 

#FILE INFORMATION
TRUE -- External MUX Channel results are PARSED.
FALSE -- AC DC and Phase are NOT grouped.
TRUE -- Companion Program Settings File CREATED.
FALSE -- AC data not excluded
FALSE -- DC data not excluded
FALSE -- Phase data not excluded
FALSE -- Auxillary Chn. data not excluded
Tab delimiters

#CALIBRATION STATE
TRUE -- Waveform Calibration Values APPLIED.


#AUX CALIBRATION VALUES
Val Type	aux-1	

Term	1.0000e+00	
Factor	0.0000e+00	


#WF CALIBRATION VALUES
A = Detector Channel
Val Type	A-AC1	A-AC2	A-AC3	A-AC4	A-AC5	A-AC6	A-AC7	A-AC8	A-AC9	A-AC10	A-AC11	A-AC12	A-AC13	A-AC14	A-AC15	A-AC16	A-DC1	A-DC2	A-DC3	A-DC4	A-DC5	A-DC6	A-DC7	A-DC8	A-DC9	A-DC10	A-DC11	A-DC12	A-DC13	A-DC14	A-DC15	A-DC16	A-Ph1	A-Ph2	A-Ph3	A-Ph4	A-Ph5	A-Ph6	A-Ph7	A-Ph8	A-Ph9	A-Ph10	A-Ph11	A-Ph12	A-Ph13	A-Ph14	A-Ph15	A-Ph16	

Term	0.00000e+00	0.00000e+00	0.00000e+00	0.00000e+00	0.00000e+00	0.00000e+00	0.00000e+00	0.00000e+00	0.00000e+00	0.00000e+00	0.00000e+00	0.00000e+00	0.00000e+00	0.00000e+00	0.00000e+00	0.00000e+00	0.00000e+00	0.00000e+00	0.00000e+00	0.00000e+00	0.00000e+00	0.00000e+00	0.00000e+00	0.00000e+00	0.00000e+00	0.00000e+00	0.00000e+00	0.00000e+00	0.00000e+00	0.00000e+00	0.00000e+00	0.00000e+00	0.00000e+00	0.00000e+00	0.00000e+00	0.00000e+00	0.00000e+00	0.00000e+00	0.00000e+00	0.00000e+00	0.00000e+00	0.00000e+00	0.00000e+00	0.00000e+00	0.00000e+00	0.00000e+00	0.00000e+00	0.00000e+00	
Factor	1.00000e+00	1.00000e+00	1.00000e+00	1.00000e+00	1.00000e+00	1.00000e+00	1.00000e+00	1.00000e+00	1.00000e+00	1.00000e+00	1.00000e+00	1.00000e+00	1.00000e+00	1.00000e+00	1.00000e+00	1.00000e+00	1.00000e+00	1.00000e+00	1.00000e+00	1.00000e+00	1.00000e+00	1.00000e+00	1.00000e+00	1.00000e+00	1.00000e+00	1.00000e+00	1.00000e+00	1.00000e+00	1.00000e+00	1.00000e+00	1.00000e+00	1.00000e+00	X	X	X	X	X	X	X	X	X	X	X	X	X	X	X	X	

B = Detector Channel
Val Type	B-AC1	B-AC2	B-AC3	B-AC4	B-AC5	B-AC6	B-AC7	B-AC8	B-AC9	B-AC10	B-AC11	B-AC12	B-AC13	B-AC14	B-AC15	B-AC16	B-DC1	B-DC2	B-DC3	B-DC4	B-DC5	B-DC6	B-DC7	B-DC8	B-DC9	B-DC10	B-DC11	B-DC12	B-DC13	B-DC14	B-DC15	B-DC16	B-Ph1	B-Ph2	B-Ph3	B-Ph4	B-Ph5	B-Ph6	B-Ph7	B-Ph8	B-Ph9	B-Ph10	B-Ph11	B-Ph12	B-Ph13	B-Ph14	B-Ph15	B-Ph16	

Term	0.00000e+00	0.00000e+00	0.00000e+00	0.00000e+00	0.00000e+00	0.00000e+00	0.00000e+00	0.00000e+00	0.00000e+00	0.00000e+00	0.00000e+00	0.00000e+00	0.00000e+00	0.00000e+00	0.00000e+00	0.00000e+00	0.00000e+00	0.00000e+00	0.00000e+00	0.00000e+00	0.00000e+00	0.00000e+00	0.00000e+00	0.00000e+00	0.00000e+00	0.00000e+00	0.00000e+00	0.00000e+00	0.00000e+00	0.00000e+00	0.00000e+00	0.00000e+00	-1.03216e+02	-1.25152e+02	-1.25868e+02	-1.82865e+02	-6.04897e+01	-6.49344e+01	-1.54989e+02	-1.62015e+02	-6.11299e+01	-6.62913e+01	-1.71271e+02	-1.71990e+02	-1.78556e+02	-1.76449e+02	-6.53663e+01	-1.49920e+02	
Factor	1.52475e-05	1.26475e-04	3.91416e-05	1.47571e-01	1.08256e-06	1.39530e-06	1.78824e-01	4.65638e-02	9.56661e-07	1.37542e-06	7.94626e-02	3.34463e-02	2.14415e-02	8.36087e-03	1.21821e-06	1.19018e-02	7.94530e-06	1.18163e-05	3.28482e-06	7.57692e-02	1.22064e-07	1.31521e-07	8.66940e-02	2.40788e-02	1.21780e-07	1.30007e-07	3.97303e-02	1.68291e-02	1.12558e-02	4.34762e-03	1.26379e-07	5.99549e-03	X	X	X	X	X	X	X	X	X	X	X	X	X	X	X	X	



#DISTANCE SETTINGS
A = Detector Channel
A-1	A-2	A-3	A-4	A-5	A-6	A-7	A-8	A-9	A-10	A-11	A-12	A-13	A-14	A-15	A-16	

2.5000e+00	3.0000e+00	2.5000e+00	3.0000e+00	2.0000e+00	3.0000e+00	1.5000e+00	3.0000e+00	3.0000e+00	3.0000e+00	3.0000e+00	3.0000e+00	3.0000e+00	3.0000e+00	1.5000e+00	3.0000e+00	

B = Detector Channel
B-1	B-2	B-3	B-4	B-5	B-6	B-7	B-8	B-9	B-10	B-11	B-12	B-13	B-14	B-15	B-16	

1.0000e+01	1.0000e+01	1.0000e+01	1.4400e+00	1.0000e+01	1.0000e+01	1.5100e+00	1.9400e+00	1.0000e+01	1.0000e+01	1.9900e+00	2.4900e+00	2.4100e+00	2.9000e+00	1.0000e+01	2.9800e+00	




#DATA BEGINS
time	group	step	mark	flag	A-AC1	A-AC2	A-AC3	A-AC4	A-AC5	A-AC6	A-AC7	A-AC8	A-AC9	A-AC10	A-AC11	A-AC12	A-AC13	A-AC14	A-AC15	A-AC16	A-DC1	A-DC2	A-DC3	A-DC4	A-DC5	A-DC6	A-DC7	A-DC8	A-DC9	A-DC10	A-DC11	A-DC12	A-DC13	A-DC14	A-DC15	A-DC16	A-Ph1	A-Ph2	A-Ph3	A-Ph4	A-Ph5	A-Ph6	A-Ph7	A-Ph8	A-Ph9	A-Ph10	A-Ph11	A-Ph12	A-Ph13	A-Ph14	A-Ph15	A-Ph16	B-AC1	B-AC2	B-AC3	B-AC4	B-AC5	B-AC6	B-AC7	B-AC8	B-AC9	B-AC10	B-AC11	B-AC12	B-AC13	B-AC14	B-AC15	B-AC16	B-DC1	B-DC2	B-DC3	B-DC4	B-DC5	B-DC6	B-DC7	B-DC8	B-DC9	B-DC10	B-DC11	B-DC12	B-DC13	B-DC14	B-DC15	B-DC16	B-Ph1	B-Ph2	B-Ph3	B-Ph4	B-Ph5	B-Ph6	B-Ph7	B-Ph8	B-Ph9	B-Ph10	B-Ph11	B-Ph12	B-Ph13	B-Ph14	B-Ph15	B-Ph16	aux-1	digaux	

13048.033	1	1	0	768	0.18919	0.058829	0.051071	0.53755	0.11887	0.088858	0.071622	0.35753	0.17352	0.10334	0.097331	0.36591	0.061104	0.39069	0.031805	0.13822	-2.2167	-2.1854	-2.9208	-2.7792	-2.4271	-2.9042	-2.45	-2.5833	-2.7875	-1.9729	-2.8604	-2.6312	-2.4104	-2.8667	-2.35	-2.5187	46.849	182.388	220.843	268.673	295.615	264.050	199.328	252.916	-7.699	-44.131	200.356	-28.003	164.811	-16.627	-14.591	224.727	0.00013609	0.00071976	0.00014518	1372	4.0366e-06	6.2453e-06	1368.6	369.14	2.328e-06	4.5484e-06	421.76	139.33	121.91	41.9	1.2745e-06	52.102	0.00046854	0.00054417	0.00014957	1381.4	5.808e-06	5.8412e-06	1377.1	374.27	5.8218e-06	5.9879e-06	427.82	142.94	124.31	42.9	5.9079e-06	53.16	172.946	38.657	60.374	-32.768	117.970	121.212	-32.509	-27.922	129.341	107.127	-28.673	-23.962	-23.501	-19.179	109.323	-20.009	-8191	255	
13048.129	1	1	0	0	0.34879	0.18503	0.17161	0.28378	0.20341	0.16542	0.064523	0.23611	0.23139	0.23866	0.20617	0.32344	0.21977	0.17556	0.12436	0.15106	-2.4021	-2.3875	-2.6271	-2.7333	-2.2375	-2.7667	-2.5396	-2.5333	-2.85	-2.15	-2.6896	-2.8063	-2.3125	-2.8104	-2.4292	-2.1333	116.192	58.344	1.755	-8.409	-26.842	252.336	289.083	253.108	64.342	256.661	293.072	301.060	280.898	-10.119	22.050	264.871	0.00014368	0.00062212	0.00015444	1375.3	3.9472e-06	4.8651e-06	1365.9	369.09	2.7233e-06	5.1431e-06	420.74	139.37	121.6	42.117	4.8656e-06	51.934	0.00046548	0.00053498	0.00015198	1381.6	5.9478e-06	5.8288e-06	1378	373.93	5.7224e-06	5.7146e-06	426.5	142.89	124.34	42.994	5.9253e-06	53.17	170.072	52.496	53.586	-32.553	127.830	102.165	-32.697	-27.977	109.769	116.432	-28.747	-24.064	-23.518	-19.218	119.182	-19.922	-8191	255	
13048.225	1	1	0	0	0.10923	0.053755	0.19559	0.27648	0.24429	0.071536	0.15524	0.41695	0.15248	0.087771	0.22993	0.32123	0.3361	0.14712	0.12504	0.26708	-2.4854	-2.1021	-2.4542	-2.8812	-2.1292	-2.8187	-2.8	-2.3292	-2.7271	-2.3542	-2.6104	-2.8604	-2.2167	-2.9188	-2.5896	-2.5667	252.969	24.884	27.946	-5.126	116.288	3.127	79.138	211.659	235.025	133.443	274.771	267.438	-43.664	28.414	309.408	262.052	0.00014298	0.00048542	9.1614e-05	1370.7	3.6406e-06	4.3297e-06	1359.9	369.11	2.8951e-06	5.0762e-06	425.17	139.36	122.04	42.345	4.2613e-06	52.302	0.00045369	0.00054037	0.00014852	1380.5	5.8509e-06	5.8373e-06	1375.9	374.31	5.8662e-06	5.7869e-06	427.8	142.82	124.36	43.043	5.751e-06	53.216	172.527	48.236	11.808	-32.895	113.726	93.576	-32.649	-28.199	125.518	99.806	-28.693	-23.928	-23.691	-19.374	120.369	-20.221	-8191	255	
13048.321	1	1	0	0	0.14155	0.10092	0.41644	0.23637	0.15412	0.18946	0.087975	0.18709	0.13913	0.09606	0.33126	0.031663	0.10054	0.30931	0.25394	0.076836	-2.4479	-2.2708	-2.4667	-2.9333	-2.1875	-2.6167	-2.875	-2.5167	-2.8438	-2.2708	-2.4813	-2.9938	-2.3375	-2.7208	-2.7958	-2.1063	91.197	225.426	-14.957	269.413	88.251	239.040	305.823	266.186	-3.912	83.107	280.990	8.571	276.952	-4.340	186.500	-8.647	0.00014894	0.00057518	0.00013058	1373.3	3.6805e-06	4.104e-06	1368.1	369.5	1.8526e-06	7.024e-06	422.07	139.47	121.73	42.018	4.0084e-06	52.062	0.00046445	0.00052868	0.00015135	1381.7	5.8316e-06	5.951e-06	1378	374.32	5.7434e-06	5.6881e-06	427.09	143.01	124.32	42.846	5.7339e-06	53.187	170.031	44.565	51.102	-32.793	118.226	120.847	-32.723	-28.139	134.695	117.466	-28.993	-24.029	-23.780	-19.484	118.974	-20.001	-8191	255	
13048.417	1	1	0	0	0.049459	0.17323	0.26843	0.30407	0.22665	0.282	0.086757	0.31768	0.27822	0.23028	0.19187	0.14787	0.13592	0.2343	0.16931	0.13116	-2.4542	-2.3917	-2.2396	-2.9562	-2.2604	-2.7354	-2.8771	-2.525	-2.9208	-2.6146	-2.3917	-2.9188	-2.3896	-2.6146	-2.7229	-2.2896	231.738	85.928	167.713	226.373	16.539	183.872	307.537	308.080	313.144	96.518	107.319	268.785	-42.299	-22.893	-29.019	183.198	0.00014237	0.00066384	0.00012912	1372.5	3.1247e-06	5.8448e-06	1365.1	369.08	2.2396e-06	5.4171e-06	420.37	138.96	121.63	41.989	3.1556e-06	51.897	0.00045927	0.00053013	0.00014821	1379	5.8782e-06	6.0746e-06	1378.4	374.11	5.78e-06	5.7745e-06	426.66	142.94	124.29	42.905	5.7723e-06	53.069	172.547	34.877	24.402	-32.798	132.517	112.309	-32.674	-28.132	80.260	95.215	-28.653	-23.861	-23.524	-19.412	93.045	-20.000	-8191	255	
13048.513	1	1	0	0	0.17117	0.11718	0.17352	0.094749	0.10548	0.055547	0.14542	0.22262	0.18178	0.045517	0.085874	0.085286	0.11665	0.22043	0.2143	0.18676	-2.4604	-2.4396	-2.1	-2.9958	-2.2938	-2.5604	-3.0375	-2.3875	-2.8312	-2.4854	-2.3146	-2.7333	-2.3937	-2.6188	-2.8187	-2.3812	147.096	237.159	95.515	303.100	87.884	269.524	210.643	254.458	51.345	43.054	111.987	303.780	253.850	285.560	7.050	28.193	0.00017391	0.00051345	0.00017848	1365.9	3.8379e-06	5.5615e-06	1363.7	366.64	2.6166e-06	3.5156e-06	421.54	138.26	121.6	41.918	1.4049e-06	51.877	0.00046449	0.00053437	0.00015128	1379.6	5.9323e-06	5.8669e-06	1379.1	373.44	5.8997e-06	5.6677e-06	426.96	142.51	124.32	42.948	5.8669e-06	53.119	177.067	71.402	41.087	-32.722	117.691	107.172	-32.604	-28.164	128.905	100.715	-28.766	-24.149	-23.347	-19.445	159.884	-19.621	-8191	255	
13048.632	1	1	0	0	0.070448	0.12172	0.15876	0.2647	0.18997	0.092107	0.047822	0.29192	0.01235	0.22619	0.088483	0.25503	0.20733	0.17481	0.11165	0.16854	-2.2583	-2.6958	-2.3646	-3.0104	-2.4521	-2.4792	-3.15	-2.4625	-2.4875	-2.7521	-2.3146	-2.9104	-2.5687	-2.3979	-2.8937	-2.4313	27.829	215.262	123.687	-5.812	141.152	214.248	-34.671	249.180	152.130	127.632	45.520	27.062	289.090	230.224	266.130	-3.278	0.00012921	0.00038128	0.00015341	1359.2	2.9034e-06	6.2479e-06	1356.1	366.22	1.4568e-06	1.7076e-06	418.36	138.66	120.88	41.883	3.2582e-06	51.954	0.0004695	0.00053656	0.00014555	1378.1	5.7103e-06	5.9894e-06	1375.5	372.94	5.8401e-06	5.84e-06	426.33	142.81	123.99	42.897	5.7576e-06	53.085	173.805	46.012	52.302	-32.677	126.652	104.384	-32.318	-27.991	107.448	121.481	-28.572	-24.039	-23.432	-19.072	115.492	-19.827	-8191	255	
13048.728	1	1	0	0	0.095676	0.11761	0.1579	0.28922	0.17503	0.042114	0.074319	0.029923	0.174	0.10414	0.10352	0.30301	0.12894	0.078319	0.19512	0.19955	-2.1958	-2.8021	-2.2271	-2.9083	-2.3479	-2.3417	-3.0938	-2.3563	-2.4958	-2.925	-2.1479	-2.8354	-2.7979	-2.4729	-2.9646	-2.4458	302.561	54.377	252.801	284.160	110.462	312.000	242.559	249.407	-40.046	243.291	208.122	3.711	28.241	0.704	-2.058	223.201	0.00013151	0.00040855	0.00015344	1365.4	3.1094e-06	5.3726e-06	1357.7	366.25	3.4298e-06	3.58e-06	419.69	138.1	121.27	41.974	3.2504e-06	51.627	0.00045901	0.00053107	0.00015133	1379	5.8939e-06	5.8097e-06	1375.2	372.98	5.8503e-06	5.8265e-06	425.98	142.57	124.31	42.934	5.9158e-06	53.037	170.359	51.879	42.293	-32.491	128.193	114.712	-32.353	-28.007	127.775	115.306	-28.234	-24.056	-23.543	-19.302	88.758	-19.868	-8191	255	
13048.825	1	1	0	0	0.12094	0.15282	0.20211	0.073282	0.065653	0.21789	0.31516	0.2902	0.057432	0.051758	0.17422	0.14423	0.12968	0.15269	0.095875	0.021407	-2.0854	-2.825	-2.1896	-2.8438	-2.6896	-2.1917	-2.975	-2.4771	-2.5333	-2.8708	-2.3854	-2.7	-2.7438	-2.2521	-2.6625	-2.4208	148.988	51.308	37.156	267.480	292.341	-6.374	230.705	228.679	81.202	63.705	270.765	229.214	250.481	17.018	209.434	139.633	0.00015182	0.00039935	0.00016144	1362.2	4.3485e-06	5.361e-06	1353.5	366.85	2.3823e-06	4.7471e-06	419.93	137.47	120.88	41.818	4.3291e-06	51.529	0.0004528	0.00053176	0.00014397	1377	5.767e-06	5.8669e-06	1374	372.77	5.8272e-06	5.6556e-06	426.2	142.59	124.07	42.832	5.7586e-06	53	176.680	39.732	41.360	-32.724	132.402	113.569	-32.288	-27.851	140.511	88.657	-28.518	-24.123	-23.468	-19.087	120.936	-19.667	-8191	255	
13048.921	1	1	0	0	0.095337	0.22732	0.37594	0.23985	0.14411	0.17324	0.10479	0.15171	0.34669	0.090543	0.2771	0.34335	0.31863	0.074605	0.21001	0.29882	-1.9708	-2.9917	-2.0812	-2.6875	-2.7771	-2.0687	-2.8604	-2.6333	-2.2667	-2.8833	-2.3896	-2.6229	-2.825	-2.1604	-2.975	-2.6813	204.971	109.449	107.013	270.983	170.284	176.326	166.474	306.029	104.822	77.644	243.977	246.740	295.965	299.714	170.192	261.619	0.00016582	0.00045043	0.00018751	1361.4	3.5144e-06	6.6674e-06	1353.5	366.51	2.3096e-06	5.4938e-06	420.94	138.27	120.58	41.784	3.7413e-06	51.612	0.00046379	0.00052762	0.00014804	1376.7	5.588e-06	5.8179e-06	1375	373.3	5.7998e-06	5.5965e-06	426.87	142.58	124.04	42.851	5.717e-06	52.977	169.363	35.215	35.811	-32.736	130.317	127.846	-32.607	-28.009	135.105	91.728	-28.431	-24.025	-23.312	-18.909	116.370	-19.837	-8191	255	
13049.017	1	1	0	0	0.2552	0.1972	0.084587	0.28159	0.12904	0.041898	0.19852	0.19747	0.15975	0.07647	0.12077	0.25738	0.15732	0.11599	0.17535	0.37253	-1.8917	-2.8729	-2.2771	-2.6521	-2.7208	-2.2021	-2.8187	-2.6437	-2.1396	-3.05	-2.5771	-2.4583	-2.8438	-2.2313	-2.6417	-2.5604	165.973	68.136	281.725	255.619	296.349	298.503	200.034	270.601	33.403	302.764	-31.316	183.027	272.031	276.626	66.232	255.149	0.00016471	0.00046717	0.00015447	1368.3	3.498e-06	6.1182e-06	1360	367.42	1.8127e-06	5.7728e-06	421.33	138.26	121.48	41.822	3.2989e-06	51.86	0.00045447	0.00052521	0.00014528	1380.9	5.6651e-06	5.7768e-06	1376.6	373.61	5.7942e-06	5.8121e-06	427.12	142.49	124.4	42.818	5.6428e-06	53.165	172.627	32.049	30.285	-32.710	112.760	118.354	-32.460	-28.131	120.661	113.256	-28.501	-23.921	-23.308	-18.861	109.976	-19.841	-8191	255	
13049.113	1	1	0	0	0.34715	0.01677	0.36398	0.28931	0.24604	0.25825	0.24416	0.3819	0.18475	0.10474	0.14463	0.15592	0.21373	0.14622	0.061147	0.18972	-1.6729	-2.7521	-2.1875	-2.7521	-2.7687	-2.2771	-2.75	-2.7021	-2.1188	-2.6771	-2.4146	-2.4979	-3.1604	-2.2562	-2.5896	-2.9042	29.648	-42.981	18.379	-20.509	7.814	158.068	230.272	244.893	213.288	-28.303	-38.666	-38.998	-24.754	-9.790	310.125	257.282	0.00016055	0.00050756	0.00010208	1358.2	1.919e-06	6.0284e-06	1360	365.44	3.3208e-06	4.0088e-06	418.61	138.44	121.14	41.71	5.724e-06	52.072	0.00045354	0.00052142	0.00014838	1376.4	5.6696e-06	5.6535e-06	1378.3	373.06	5.7845e-06	5.6672e-06	425.87	142.56	124.29	42.846	5.7244e-06	53.115	172.467	65.504	62.417	-32.776	107.793	107.372	-32.540	-27.806	97.526	94.375	-28.705	-24.018	-23.355	-18.990	99.267	-19.899	-8191	255	
13049.234	1	1	0	0	0.19252	0.2134	0.30299	0.17668	0.11635	0.2118	0.26256	0.074947	0.064127	0.16432	0.080763	0.13567	0.26222	0.085487	0.07397	0.2652	-1.9417	-2.7938	-2.475	-2.4583	-2.8292	-2.2687	-2.7229	-2.8875	-2.0687	-2.775	-2.7062	-2.3458	-3.0833	-2.4521	-2.5771	-2.8479	184.886	177.224	221.830	277.479	212.557	301.658	269.109	293.819	159.187	168.396	222.836	12.403	247.589	249.823	53.066	277.229	0.00015931	0.00032815	0.00012261	1364.9	2.0584e-06	4.9486e-06	1362.7	367.46	1.0663e-06	6.3016e-06	417.99	137.95	121.17	41.643	5.0528e-06	51.937	0.00045566	0.0005148	0.00014802	1377.6	5.7271e-06	5.8291e-06	1379.3	373.86	5.7318e-06	5.7452e-06	426.1	142.65	124.31	42.835	5.8632e-06	53.135	168.093	49.750	50.092	-32.806	118.915	92.372	-32.547	-27.920	174.665	112.668	-28.253	-23.928	-23.613	-19.239	119.783	-20.094	-8191	255	
13049.330	1	1	0	0	0.26787	0.15834	0.27499	0.26498	0.3148	0.16762	0.25294	0.083773	0.038438	0.074581	0.27781	0.15901	0.37872	0.11057	0.17255	0.17245	-1.6958	-2.5812	-2.5687	-2.5438	-2.8458	-2.2979	-2.6729	-3.0917	-2.0292	-2.8021	-2.7729	-2.3729	-3.0833	-2.3521	-2.575	-2.9646	268.123	170.148	135.373	274.575	214.127	32.970	225.453	89.152	289.796	-22.267	262.826	57.474	-42.095	221.347	51.937	254.176	0.00014371	0.00058888	0.00012057	1364	3.5045e-06	7.1455e-06	1353.1	364.53	1.8132e-06	3.4276e-06	417.47	137.7	120.81	41.727	4.3379e-06	51.643	0.00045783	0.00053077	0.00014725	1377.5	5.7235e-06	5.9289e-06	1375.4	373.06	5.7285e-06	5.6759e-06	426.04	142.71	124.11	42.939	5.9079e-06	53.097	168.470	51.156	50.796	-32.726	126.635	106.918	-32.531	-27.617	127.776	104.426	-28.173	-23.885	-23.335	-18.884	94.841	-19.398	-8191	255	
13049.424	1	1	0	0	0.24147	0.43744	0.024506	0.33527	0.13328	0.10854	0.29474	0.28745	0.12682	0.11453	0.14509	0.28974	0.27437	0.2278	0.29718	0.3515	-1.8271	-2.8937	-2.8833	-2.2083	-2.9208	-2.4979	-2.5812	-2.9521	-2.1312	-2.7021	-2.8583	-2.225	-3.0729	-2.4583	-2.2708	-2.9583	176.121	56.170	293.448	265.924	-3.760	58.660	219.616	283.518	137.867	261.759	123.030	250.620	225.505	205.354	293.549	249.405	0.00012858	0.00050805	0.00018805	1358.2	3.686e-06	5.5425e-06	1346.4	365.36	1.9937e-06	5.707e-06	419.49	137.12	120.91	41.685	3.5726e-06	51.484	0.00046389	0.00053781	0.00014739	1376.6	5.7299e-06	5.7779e-06	1373.3	373.13	5.7473e-06	5.6445e-06	426.37	142.13	124.28	42.858	5.7673e-06	53.006	169.598	50.778	39.010	-32.476	120.371	117.405	-32.255	-27.527	104.038	91.548	-28.098	-23.756	-23.423	-18.732	127.128	-19.417	-8191	255	
13049.520	1	1	0	0	0.20955	0.37614	0.27571	0.19978	0.13893	0.13409	0.3697	0.34502	0.067718	0.29113	0.15975	0.12776	0.0461	0.187	0.12427	0.028312	-1.8563	-2.5104	-2.8292	-2.3354	-2.8542	-2.4813	-2.5875	-3.0333	-2.3542	-2.5354	-2.9229	-2.2687	-2.8063	-2.6146	-2.1896	-2.9208	7.263	214.131	235.194	277.865	118.066	5.362	250.721	247.397	169.855	12.731	-27.489	-5.529	-19.060	202.391	159.417	-34.985	0.00014651	0.00057865	0.00019487	1359.6	2.9087e-06	5.1726e-06	1348.8	365.86	2.7647e-06	5.0935e-06	418.91	137.85	120.51	41.813	3.2331e-06	51.551	0.00046005	0.00053555	0.00014833	1377.8	5.8601e-06	5.6853e-06	1372.9	373.68	5.7505e-06	5.8869e-06	426.08	142.57	124.08	42.915	5.7981e-06	53.033	170.951	49.328	36.015	-32.521	125.583	99.934	-32.489	-27.798	133.956	93.477	-28.164	-23.869	-23.558	-19.053	103.665	-19.450	-8191	255	
13049.594	1	1	0	0	0.10727	0.11583	0.20878	0.22536	0.17895	0.092136	0.23528	0.17053	0.17954	0.36829	0.36018	0.068301	0.079506	0.072638	0.076744	0.23117	-1.9333	-2.2396	-2.7021	-2.5625	-2.5229	-2.7562	-2.5375	-3.1396	-2.3729	-2.425	-3.0292	-2.3479	-2.8167	-2.8125	-2.1625	-3.0812	20.658	80.704	146.653	308.121	176.544	162.827	250.857	290.673	245.076	209.618	271.520	-37.274	309.350	266.917	49.293	287.512	0.00015217	0.00051479	0.0001352	1357.5	3.3107e-06	4.2234e-06	1352.8	365.48	1.8276e-06	5.3984e-06	420.34	139.23	120.56	41.798	2.8077e-06	51.658	0.00045184	0.00053104	0.00014319	1375.6	5.753e-06	5.8453e-06	1374	373.39	5.7072e-06	5.7669e-06	426.23	142.86	124.15	42.968	5.8176e-06	53.066	170.064	43.899	52.913	-32.690	125.347	104.025	-32.420	-27.863	123.844	110.630	-28.295	-23.820	-23.227	-18.898	142.752	-19.714	-8191	255	
13049.713	1	1	0	0	0.0027037	0.26861	0.12262	0.30248	0.4163	0.17606	0.37587	0.31531	0.053492	0.13012	0.049552	0.092106	0.27413	0.2989	0.17084	0.14623	-1.9771	-2.2708	-2.7458	-2.3458	-2.6417	-2.6771	-2.2	-2.9625	-2.5104	-2.3083	-3.0563	-2.275	-2.6375	-2.8187	-2.3438	-2.8917	-26.210	253.724	179.233	243.926	-41.770	6.050	265.800	276.442	238.888	267.455	31.963	-9.143	-39.499	313.576	28.864	257.874	0.00015491	0.00023958	0.00016891	1362.6	2.5986e-06	4.4492e-06	1359.4	367.64	2.8771e-06	5.1395e-06	419.2	138.15	121.62	41.677	2.7201e-06	51.535	0.00046172	0.00051448	0.00014034	1378	5.6528e-06	5.6666e-06	1375.9	373.81	5.6417e-06	5.8481e-06	426.69	142.72	124.42	42.951	5.9111e-06	52.989	169.067	46.075	56.190	-32.509	115.940	123.230	-32.379	-27.911	143.932	115.919	-28.304	-23.718	-23.441	-18.902	118.673	-19.554	-8191	255	
13049.809	1	1	0	0	0.21377	0.24506	0.24345	0.46412	0.38177	0.22992	0.2259	0.19542	0.28041	0.18237	0.20124	0.22227	0.21522	0.26458	0.25724	0.17443	-2.1417	-2.2313	-2.7146	-2.375	-2.4208	-2.6708	-2.3083	-2.6854	-2.4979	-2.2333	-3.1375	-2.6042	-2.4667	-3.0271	-2.2729	-2.8521	230.943	76.831	185.431	293.658	299.704	267.050	231.973	225.885	52.558	179.305	-2.999	200.805	313.352	-15.760	117.886	274.449	0.00016223	0.00023669	0.00017132	1359.3	3.1837e-06	3.3897e-06	1357.5	365.85	2.3342e-06	3.2385e-06	421.01	138.59	120.83	41.808	1.7026e-06	51.698	0.00045068	0.00053609	0.0001452	1378.5	5.9122e-06	5.6639e-06	1376.9	373.53	5.6536e-06	5.8013e-06	427.34	142.91	124.24	42.922	5.8605e-06	53.028	170.740	67.320	53.109	-32.511	117.059	111.076	-32.325	-27.838	129.860	110.736	-28.217	-23.950	-23.614	-19.157	156.537	-19.823	-8191	255	
13049.905	1	1	0	0	0.18581	0.11697	0.13454	0.41066	0.10925	0.047215	0.16782	0.139	0.044965	0.16172	0.17895	0.21904	0.28004	0.062796	0.14415	0.21202	-2.3146	-2.1	-2.9729	-2.8354	-2.35	-3.0229	-2.4104	-2.7917	-2.6083	-2.15	-3.05	-2.5354	-2.5312	-2.9167	-2.2687	-2.7271	120.732	130.932	303.950	273.024	211.947	258.403	248.065	306.315	202.384	240.272	220.212	240.299	188.390	-12.349	258.561	212.319	0.00015316	0.0003549	0.00015426	1363.3	4.0335e-06	4.5294e-06	1358	366.6	3.2175e-06	4.8961e-06	420.06	137.85	120.84	41.854	3.7381e-06	51.776	0.00046498	0.00054136	0.00014858	1380.2	5.9618e-06	5.9439e-06	1379.9	373.8	5.9294e-06	5.8744e-06	427.48	142.74	124.47	42.964	5.9382e-06	53.189	173.499	53.234	52.772	-32.376	101.225	91.776	-32.312	-27.881	148.298	125.780	-28.328	-23.760	-23.369	-18.866	121.811	-19.725	-8191	255	
13050.001	1	1	0	0	0.055148	0.18206	0.12562	0.14467	0.045035	0.15219	0.2742	0.18269	0.11425	0.19341	0.19759	0.14798	0.13997	0.1961	0.10093	0.043079	-2.2417	-2.1771	-2.8167	-2.6625	-2.25	-2.8104	-2.5708	-2.8063	-2.8542	-2.1458	-2.825	-2.5521	-2.3812	-3.0354	-2.275	-2.4188	189.556	-43.424	308.708	124.204	234.462	250.298	195.713	286.932	47.984	176.519	189.972	154.273	-0.849	216.832	306.150	152.560	0.00015256	0.00037758	0.00013473	1367.5	4.0838e-06	4.4205e-06	1358.6	365.47	2.1704e-06	6.4543e-06	419.62	137.82	120.64	41.71	4.1055e-06	51.694	0.00045641	0.00053454	0.00014329	1383.5	5.8466e-06	5.819e-06	1380.1	373.93	5.7741e-06	6.0339e-06	427.46	142.82	124.23	42.954	5.8071e-06	53.071	166.642	69.702	37.422	-32.510	102.206	95.405	-32.205	-27.737	128.524	118.644	-28.298	-23.786	-23.485	-18.937	110.280	-19.813	-8191	255	
13050.122	1	1	0	0	0.27478	0.29228	0.16301	0.20161	0.20702	0.14463	0.26466	0.12318	0.034203	0.059574	0.03733	0.055026	0.20067	0.2345	0.014534	0.29863	-2.3583	-2.0729	-2.5708	-2.7729	-2.3646	-3.0042	-2.5292	-2.6979	-2.7479	-2.2792	-2.6937	-2.8625	-2.4083	-2.9292	-2.5896	-2.6396	123.106	38.160	169.785	294.943	35.243	40.620	278.269	90.798	9.631	-6.496	132.249	304.579	244.371	299.684	156.699	228.824	0.00015173	0.00036395	0.00016738	1360.2	3.2893e-06	4.3225e-06	1360.3	365.84	3.9966e-06	3.9918e-06	419.62	137.59	120.1	41.614	2.1376e-06	51.433	0.00045141	0.00054276	0.00014881	1380.5	5.8728e-06	5.8009e-06	1379.7	373.67	5.7374e-06	5.8676e-06	427.25	142.68	124.06	42.915	5.7731e-06	53.071	175.521	54.087	55.528	-32.553	119.374	103.801	-32.381	-27.979	95.386	56.168	-28.131	-24.064	-23.482	-18.836	111.919	-19.467	-8191	255	
13050.193	1	1	0	0	0.19347	0.24256	0.2316	0.22134	0.1155	0.31859	0.10041	0.11068	0.051748	0.18421	0.16312	0.23746	0.36093	0.18689	0.15036	0.28773	-2.4292	-2.2208	-2.4833	-2.9417	-2.225	-2.7833	-2.6771	-2.3333	-3.0333	-2.0917	-2.6792	-2.9	-2.2854	-2.7	-2.4813	-2.3083	307.351	139.136	147.345	-32.939	224.081	250.875	146.056	224.260	206.180	7.075	302.954	-18.676	308.530	-43.472	272.067	39.001	0.0001403	0.00040798	0.00016245	1362.5	4.4677e-06	3.8349e-06	1358.1	365.24	1.7765e-06	2.7332e-06	419.17	137.98	120.39	41.741	4.064e-06	51.669	0.0004548	0.00054197	0.00014872	1380.9	5.8487e-06	5.8025e-06	1376.5	373.16	5.8234e-06	5.8771e-06	426.49	142.53	124.13	42.961	5.998e-06	53.071	167.932	29.222	43.816	-32.512	118.802	122.146	-32.224	-27.850	131.659	116.469	-28.468	-23.823	-23.583	-18.750	134.069	-19.653	-8191	255	
13050.314	1	1	0	0	0.14784	0.053625	0.16497	0.0089502	0.094232	0.23591	0.32375	0.36429	0.17004	0.13692	0.17536	0.18173	0.19873	0.17118	0.26641	0.21754	-2.5208	-2.3125	-2.5417	-3.0167	-2.1833	-2.7208	-2.9771	-2.4271	-2.7979	-2.3104	-2.3292	-2.7854	-2.3688	-2.7208	-2.4833	-2.4104	268.360	302.060	300.921	4.821	-1.718	283.706	221.539	284.370	99.014	15.643	273.651	254.056	264.958	279.880	208.672	248.674	0.00013426	0.00027924	0.00013109	1356	4.6432e-06	6.2488e-06	1358	365.49	2.1029e-06	4.1058e-06	417.08	137.61	121.33	41.786	4.5527e-06	51.472	0.00046392	0.00053555	0.00015036	1377.6	5.9544e-06	5.8223e-06	1378.7	373.27	5.8226e-06	5.746e-06	426.34	142.6	124.29	42.877	5.929e-06	53.012	163.969	33.605	34.147	-32.414	129.499	101.842	-32.437	-27.863	141.953	152.807	-28.333	-23.872	-23.369	-19.051	116.777	-19.528	-8191	255	
13050.410	1	1	0	0	0.22421	0.11327	0.096814	0.11869	0.29324	0.29114	0.068559	0.17852	0.1408	0.18934	0.18899	0.348	0.21954	0.21553	0.065899	0.020682	-2.4521	-2.3021	-2.3833	-3.1354	-2.0896	-2.625	-2.975	-2.4292	-2.775	-2.425	-2.4917	-2.6208	-2.2854	-2.5646	-2.7313	-2.4375	-34.406	133.337	239.623	265.731	269.578	266.066	-22.826	289.119	230.763	202.735	233.597	228.680	300.699	282.623	-45.178	85.337	0.00015144	0.00052647	0.00017611	1364.4	2.5733e-06	4.1695e-06	1353.8	366.03	1.7968e-06	3.2244e-06	416.98	138.01	120.73	41.662	4.6861e-06	51.574	0.00045902	0.00052757	0.00015164	1380.1	5.7716e-06	5.8549e-06	1376.2	373.1	5.6425e-06	5.8219e-06	425.96	142.82	124.1	42.849	5.8571e-06	53.023	170.334	56.821	47.603	-32.471	102.722	74.242	-32.403	-27.899	125.382	113.836	-28.267	-23.640	-23.435	-18.961	118.933	-19.765	-8191	255	
13050.505	1	1	0	0	0.18659	0.093121	0.16998	0.22271	0.21713	0.25304	0.18122	0.15824	0.020611	0.21756	0.084341	0.20414	0.31535	0.089115	0.29236	0.068631	-2.4146	-2.475	-2.2521	-3.1292	-2.325	-2.5542	-2.8875	-2.275	-2.8125	-2.4938	-2.2854	-3.0708	-2.4792	-2.5833	-2.8146	-2.2812	7.118	21.766	4.135	256.565	-11.641	2.096	270.813	-34.669	130.653	296.863	233.168	244.859	193.053	235.038	240.906	203.338	0.00015808	0.00046167	0.00014552	1360.4	3.6252e-06	5.3654e-06	1357.3	366.53	2.7072e-06	2.4534e-06	418.19	137.38	120.51	41.745	4.0573e-06	51.629	0.0004629	0.00053745	0.00014825	1378.9	5.9199e-06	5.8357e-06	1377.8	373.57	5.8711e-06	5.8281e-06	425.85	142.31	123.99	42.955	5.9245e-06	53.014	172.472	21.788	56.468	-32.439	116.196	118.068	-32.200	-27.868	161.148	125.710	-28.731	-23.704	-23.535	-19.003	120.760	-19.914	-8191	255	
13050.602	1	1	0	0	0.072696	0.097998	0.27135	0.11602	0.11276	0.13585	0.25811	0.15625	0.15944	0.23332	0.095778	0.13743	0.37883	0.043685	0.081221	0.34666	-2.2583	-2.6	-2.2333	-2.9396	-2.3604	-2.3104	-3.1042	-2.3187	-2.5604	-2.4938	-2.3417	-2.7687	-2.3625	-2.3229	-2.9813	-2.1708	-16.473	39.514	261.604	52.103	148.312	-28.443	240.384	246.281	257.275	103.818	8.523	180.704	-40.804	289.818	236.326	289.286	0.0001496	0.00044228	0.00014074	1360.2	2.5245e-06	4.6329e-06	1362.5	366.08	1.1151e-06	6.8033e-06	420.72	137.35	120.66	41.852	3.1453e-06	51.907	0.0004606	0.00052728	0.00014455	1379.9	5.911e-06	5.9075e-06	1378.2	373.14	5.8064e-06	5.7978e-06	426.71	142.29	124.11	42.908	5.8521e-06	53.038	173.292	15.114	55.289	-32.638	120.277	109.121	-32.385	-27.900	144.206	109.688	-28.461	-23.788	-23.575	-19.252	94.849	-19.598	-8191	255	
13050.721	1	1	0	0	0.19556	0.28211	0.0597	0.40534	0.27065	0.17506	0.16667	0.26051	0.23544	0.19929	0.12413	0.19713	0.37961	0.18413	0.13337	0.020029	-1.9396	-2.5479	-1.8583	-3.1229	-2.3479	-2.3333	-3.2	-2.3563	-2.6063	-2.8646	-2.2188	-2.8792	-2.525	-2.3479	-2.9521	-2.2354	-19.414	71.453	-31.572	-27.080	259.419	116.500	236.232	285.164	274.806	53.821	258.715	167.929	312.051	244.608	116.673	277.060	0.00015772	0.00045931	0.0001709	1362.2	3.1995e-06	6.2877e-06	1353.2	365.77	2.2434e-06	4.3288e-06	426.84	140.87	122.96	42.461	1.5804e-06	52.703	0.00045757	0.00051588	0.00014877	1380.2	5.7271e-06	5.9563e-06	1377	373.23	5.8584e-06	5.739e-06	427.84	143.37	124.68	43.064	5.7365e-06	53.291	169.998	45.447	75.244	-32.690	118.608	91.614	-32.419	-27.685	162.815	98.083	-28.991	-24.618	-23.842	-19.455	81.987	-20.216	-8191	255	
13050.818	1	1	0	0	0.053943	0.073426	0.23831	0.22992	0.1643	0.057058	0.11436	0.14252	0.083341	0.23235	0.094169	0.2109	0.20553	0.15249	0.14796	0.16044	-2.0625	-2.8917	-2.1146	-2.8937	-2.4396	-2.1312	-3.0542	-2.4604	-2.4854	-2.7313	-2.4083	-2.7687	-2.8021	-2.3625	-2.9313	-2.3521	281.189	-33.328	218.317	-17.260	66.796	25.663	253.953	267.608	6.009	143.706	63.986	277.742	300.017	270.624	284.498	177.794	0.00015368	0.00056704	0.00012302	1384.2	3.2555e-06	4.0889e-06	1380.5	370.67	1.5493e-06	3.5644e-06	424.26	139.65	122.47	42.267	4.8531e-06	52.52	0.00046252	0.00052142	0.00014829	1385.4	5.7218e-06	5.8245e-06	1383.6	373.94	5.9231e-06	5.8462e-06	427.49	142.86	124.6	43.001	5.771e-06	53.196	177.619	35.207	40.621	-32.998	111.696	99.934	-32.580	-28.408	118.971	121.562	-28.866	-24.240	-23.780	-19.622	111.683	-20.163	-8191	255	
13050.914	1	1	0	0	0.15692	0.28287	0.074817	0.069692	0.19291	0.19989	0.27993	0.17163	0.06504	0.2496	0.27097	0.36539	0.37018	0.067806	0.086337	0.17889	-2.1354	-2.875	-2.175	-2.9583	-2.5625	-2.275	-2.9229	-2.6729	-2.4188	-2.825	-2.3625	-2.7333	-2.8375	-2.2667	-2.8021	-2.55	307.939	253.704	23.048	43.513	207.879	272.415	264.523	300.221	297.052	141.026	-26.605	306.305	310.498	226.399	100.360	68.513	0.00013656	0.00031768	0.00015106	1378.5	4.5232e-06	5.4777e-06	1375.2	369.82	2.1877e-06	5.2035e-06	421.91	138.9	121.76	41.948	2.6375e-06	52.289	0.000469	0.0005324	0.00014602	1384	5.9417e-06	5.8313e-06	1382.9	373.78	5.8688e-06	5.6745e-06	426.75	142.9	124.38	42.909	5.9195e-06	53.208	171.554	58.116	32.386	-32.877	131.193	127.156	-32.841	-28.365	106.764	111.179	-28.658	-24.037	-23.669	-19.168	102.332	-19.663	-8191	255	
13051.010	1	1	0	0	0.17338	0.076571	0.18484	0.19405	0.099365	0.12959	0.33081	0.29908	0.13736	0.13942	0.16207	0.04504	0.2891	0.012022	0.1313	0.23279	-1.9229	-2.8812	-2.3042	-2.6354	-2.725	-2.3292	-2.8958	-2.7479	-2.2542	-2.6292	-2.6583	-2.6729	-2.9437	-2.2583	-2.7854	-2.6396	193.552	140.084	93.418	225.919	202.872	35.845	270.465	282.615	67.494	120.046	-43.896	225.771	270.861	283.393	115.680	163.793	0.00014823	0.00057265	0.00011504	1371.1	2.4796e-06	3.7242e-06	1357.6	367.79	3.1157e-06	3.8863e-06	421.25	138.39	120.82	41.881	4.1955e-06	51.787	0.00046894	0.00053533	0.00014747	1381.3	5.7228e-06	5.7962e-06	1377.6	373.3	5.8013e-06	5.7401e-06	426.55	142.46	123.99	42.912	5.7723e-06	53.067	175.279	40.164	54.142	-32.811	114.487	107.496	-32.715	-27.915	132.941	113.803	-28.329	-23.947	-23.336	-19.269	103.115	-19.668	-8191	255	
13051.106	1	1	0	0	0.22875	0.086165	0.086577	0.55266	0.056	0.25809	0.074542	0.23619	0.27787	0.064175	0.16318	0.097087	0.15428	0.32862	0.21581	0.262	-1.7833	-2.8812	-2.3604	-2.6604	-2.8187	-2.1896	-2.8479	-2.7271	-2.4146	-2.8229	-2.3542	-2.3937	-2.8479	-2.4292	-2.7042	-2.7896	310.664	280.212	114.808	253.786	308.336	-9.055	9.527	-36.420	-20.631	47.135	53.575	286.389	305.421	72.764	-8.918	217.728	0.00014072	0.00052701	0.00012194	1366.1	4.6993e-06	2.6832e-06	1360.2	368.57	2.5406e-06	5.3597e-06	420.56	138.62	121.41	41.725	5.0109e-06	51.889	0.00045427	0.00051529	0.00014596	1380.3	5.7548e-06	5.6812e-06	1379.8	373.45	5.7064e-06	5.6751e-06	426.61	142.63	124.3	42.885	5.735e-06	53.062	164.490	36.676	41.174	-33.033	148.697	100.878	-32.576	-28.004	150.528	115.428	-28.627	-24.107	-23.595	-19.245	102.976	-19.585	-8191	255	
13051.202	1	1	0	0	0.080254	0.096255	0.07897	0.19218	0.35028	0.2425	0.18856	0.32362	0.3081	0.092026	0.0074198	0.29175	0.14644	0.33324	0.1158	0.14446	-1.6729	-2.8438	-2.3167	-2.5854	-2.8854	-2.2646	-2.9562	-2.8458	-2.1729	-3.0062	-2.6104	-2.6104	-2.8896	-2.4583	-2.5062	-2.8729	129.540	172.504	112.248	252.932	76.265	46.433	304.072	270.717	34.979	-38.332	98.591	229.952	261.661	284.616	147.107	-9.345	0.00014104	0.00061987	0.0002141	1369.9	2.9676e-06	2.8956e-06	1369.1	367.09	1.3928e-06	3.481e-06	419.58	138.01	121.32	41.902	5.4236e-06	51.854	0.00046948	0.00051667	0.00014606	1381.9	5.9214e-06	5.779e-06	1379.9	373.4	5.8104e-06	5.5916e-06	425.9	142.38	124.24	42.947	5.706e-06	53.084	171.831	34.559	46.173	-32.637	145.762	101.878	-32.460	-27.912	121.120	133.003	-28.389	-23.947	-23.526	-19.192	108.744	-19.889	-8191	255	
13051.298	1	1	0	0	0.22768	0.35964	0.16974	0.3347	0.14512	0.15341	0.35381	0.52998	0.25048	0.16781	0.32112	0.17397	0.23324	0.13426	0.031926	0.1232	-1.4833	-2.7354	-2.6292	-2.4854	-2.8833	-2.3792	-2.7958	-2.9917	-2.2062	-2.775	-2.6458	-2.4229	-2.9979	-2.3958	-2.3979	-2.8917	201.981	-41.955	-12.123	287.962	275.500	292.717	286.001	271.400	58.817	241.996	131.662	252.328	295.203	240.132	162.276	16.260	0.00015904	0.00056223	0.00011545	1366.4	3.517e-06	3.8587e-06	1366.7	367.19	2.4532e-06	4.1799e-06	420.9	138.96	121.25	41.977	1.9809e-06	51.887	0.00044725	0.0005213	0.00014661	1379.3	5.7129e-06	5.7595e-06	1380.1	373.48	5.8279e-06	5.5767e-06	426.86	143.16	124.29	42.943	5.7468e-06	53.049	171.528	49.581	42.067	-32.812	150.027	114.095	-32.806	-27.847	125.611	131.476	-28.023	-24.222	-23.450	-19.050	138.591	-19.482	-8191	255	
13051.417	1	1	0	0	0.45452	0.19531	0.097791	0.28566	0.20122	0.17473	0.29615	0.05694	0.096996	0.1763	0.11892	0.20506	0.11415	0.38878	0.30595	0.10128	-1.7458	-2.7646	-2.6937	-2.4437	-2.9167	-2.3625	-2.6271	-2.9104	-2.1146	-2.7042	-2.6583	-2.1937	-2.9333	-2.5646	-2.4021	-3.0354	138.679	-27.819	228.039	310.680	294.877	-19.655	262.753	4.840	140.112	119.868	306.540	220.861	-30.124	-11.677	74.216	78.764	0.00014318	0.00039623	0.00010768	1369.4	3.6413e-06	4.8822e-06	1365	369.19	3.4921e-06	4.944e-06	421.58	138.32	121.49	41.906	4.3831e-06	52.125	0.00044376	0.00052558	0.00014044	1382.6	5.7566e-06	5.6633e-06	1380.7	373.82	5.7866e-06	5.6707e-06	426.68	142.63	124.19	42.849	5.7966e-06	53.112	172.463	55.695	31.081	-32.777	140.617	88.161	-32.594	-28.020	127.198	97.552	-28.297	-24.314	-23.515	-19.209	93.508	-19.700	-8191	255	
13051.491	1	1	0	0	0.21745	0.23418	0.051043	0.15	0.25473	0.13595	0.10009	0.39024	0.1555	0.01119	0.087739	0.14612	0.2375	0.13805	0.39995	0.26543	-1.9167	-2.4958	-2.7229	-2.5021	-2.7333	-2.3521	-2.3312	-3.0771	-2.2625	-2.5417	-2.8708	-2.1729	-2.7792	-2.6	-2.2292	-3.0146	205.562	308.378	84.973	273.652	289.222	54.566	307.802	238.421	249.373	61.791	185.449	90.785	212.874	277.050	64.257	179.450	0.00014281	0.00032505	0.00011044	1365.7	3.2856e-06	4.2086e-06	1365.2	368.41	2.0154e-06	5.4394e-06	421.04	139.26	121.5	42.036	3.9401e-06	51.907	0.0004505	0.00052346	0.00014208	1380.7	5.5582e-06	5.6965e-06	1379	373.96	5.6351e-06	5.5933e-06	427.07	142.98	124.2	42.899	5.8832e-06	53.076	172.624	69.862	62.117	-32.718	136.178	101.396	-32.718	-27.981	110.681	104.275	-28.340	-24.035	-23.702	-19.072	103.886	-19.889	-8191	255	
13051.587	1	1	0	0	0.24457	0.19725	0.11343	0.28757	0.14554	0.017171	0.28709	0.1737	0.18088	0.057956	0.081234	0.21097	0.43403	0.14085	0.028407	0.16837	-2.075	-2.4479	-2.8229	-2.2021	-2.675	-2.4646	-2.5729	-3.0521	-2.2229	-2.5667	-2.9833	-2.4479	-2.6833	-2.8833	-2.1875	-3.1167	-25.509	142.810	218.086	271.070	198.109	278.530	280.017	270.717	-34.130	4.287	140.305	62.198	222.321	-40.185	69.277	79.623	0.00015167	0.00037446	0.00010043	1368.3	4.2314e-06	4.1311e-06	1361.2	367.98	2.0551e-06	3.1461e-06	421.54	138.86	121.35	41.915	3.5858e-06	52.061	0.00045879	0.00053471	0.00014107	1379	5.5921e-06	5.7464e-06	1380.3	373.6	5.6739e-06	5.7785e-06	426.66	142.73	124.18	42.883	5.9953e-06	53.099	172.128	35.097	39.645	-32.833	119.799	110.248	-32.650	-28.102	130.695	135.451	-28.513	-24.214	-23.801	-19.095	99.176	-19.789	-8191	255	
13051.683	1	1	0	0	0.23531	0.049724	0.09857	0.20155	0.11955	0.10981	0.12397	0.26591	0.19327	0.15063	0.2949	0.2713	0.23356	0.17647	0.26703	0.30956	-2.0417	-2.2938	-2.8146	-2.35	-2.65	-2.5729	-2.5021	-2.9479	-2.4125	-2.45	-3.1188	-2.2146	-2.6625	-2.9833	-2.2062	-2.9604	130.107	-0.260	305.696	283.367	-2.148	103.514	-14.719	254.755	-32.299	43.407	267.024	259.656	264.518	6.491	257.716	50.008	0.00013305	0.00049672	0.00012252	1374.1	2.835e-06	3.4073e-06	1363.7	367.18	3.1994e-06	7.0599e-06	420.23	138.86	121.77	41.809	3.966e-06	52.089	0.00045027	0.0005369	0.00014845	1381.2	5.7764e-06	5.8617e-06	1378.5	373.53	5.6656e-06	5.7615e-06	426.91	142.86	124.26	42.81	5.8479e-06	53.177	171.204	56.345	43.537	-32.788	98.339	97.073	-32.656	-28.076	124.040	98.129	-28.306	-24.508	-23.653	-18.893	122.880	-19.609	-8191	255	
13051.802	1	1	0	0	0.43715	0.2181	0.22944	0.047121	0.18111	0.25656	0.44267	0.24598	0.15443	0.066368	0.21684	0.049193	0.24378	0.077029	0.032866	0.39001	-2.0312	-2.1417	-2.9771	-2.4188	-2.2396	-2.9479	-2.4583	-2.8625	-2.5062	-2.1958	-3.0083	-2.5229	-2.6854	-2.8937	-2.2	-2.8375	-42.673	91.273	104.421	-11.819	205.313	298.096	232.543	277.007	91.330	174.198	304.876	-35.865	239.541	33.778	241.611	252.736	0.0001366	0.00041672	9.0077e-05	1369.2	3.1552e-06	4.7799e-06	1364	367.53	7.9971e-07	4.913e-06	420.37	138.7	121.42	41.782	3.0261e-06	51.843	0.00046093	0.00053292	0.00014831	1380.9	5.8009e-06	5.7609e-06	1378.6	373.68	5.8107e-06	5.8002e-06	426.53	142.53	124.19	42.852	5.7718e-06	53.106	177.396	52.150	41.285	-32.749	116.471	130.040	-32.733	-28.140	87.541	105.758	-28.369	-24.181	-23.736	-19.118	75.523	-19.792	-8191	255	
13051.898	1	1	0	0	0.07996	0.13304	0.13177	0.41299	0.29602	0.3821	0.19328	0.19256	0.043009	0.069201	0.32256	0.16269	0.1898	0.16159	0.074632	0.23834	-2.1063	-2.1479	-2.6292	-2.7458	-2.5563	-2.9	-2.1646	-2.7542	-2.5542	-2.1021	-3.0792	-2.4667	-2.5208	-2.8688	-2.2125	-2.7479	250.390	226.622	-29.874	245.304	279.612	213.654	266.678	-38.868	135.729	57.846	301.988	-21.672	-36.612	225.581	-9.492	289.573	0.00013466	0.00048192	0.00011891	1366.6	3.184e-06	5.4537e-06	1363.9	367.67	3.3301e-06	3.3142e-06	421.78	137.99	121.24	42.087	3.7266e-06	51.995	0.0004547	0.00051787	0.00014392	1380.9	5.7719e-06	5.8735e-06	1378	373.74	5.7851e-06	5.7755e-06	426.91	142.37	124.22	42.923	5.8426e-06	53.071	181.053	47.842	45.740	-32.706	147.900	111.236	-32.552	-27.909	106.665	119.979	-28.611	-24.098	-23.836	-19.250	126.819	-19.807	-8191	255	
13051.994	1	1	0	0	0.054788	0.34524	0.056925	0.20813	0.188	0.19408	0.16639	0.38469	0.11747	0.099719	0.079508	0.070192	0.26338	0.095784	0.41841	0.10287	-2.2875	-2.1917	-2.6583	-2.8	-2.2562	-2.9542	-2.3771	-2.7062	-2.5979	-2.1688	-2.9792	-2.6625	-2.1958	-3.1	-2.2125	-2.6917	-30.210	242.698	148.306	6.737	77.011	155.602	-30.198	234.879	70.501	80.858	66.178	203.814	269.793	250.191	224.333	58.410	0.00014962	0.00040107	0.00013766	1375.5	3.1866e-06	6.2918e-06	1372.8	369.08	2.0903e-06	3.482e-06	423.02	138.99	121.71	42.103	4.1335e-06	51.888	0.00045773	0.0005289	0.00014786	1384.3	5.7096e-06	5.5896e-06	1381.9	374.37	5.7863e-06	5.752e-06	427.48	143.07	124.34	42.977	5.8168e-06	53.084	158.802	64.072	23.093	-32.734	119.794	117.728	-32.753	-27.988	120.845	116.890	-28.380	-24.122	-23.688	-19.126	124.618	-19.969	-8191	255	
13052.090	1	1	0	0	0.08414	0.13728	0.04928	0.24666	0.074367	0.046544	0.17405	0.17341	0.17436	0.14585	0.24794	0.12784	0.25241	0.18268	0.39855	0.20449	-2.3875	-2.1917	-2.5729	-2.7729	-2.2687	-2.8937	-2.625	-2.5271	-2.8375	-2.1958	-2.7708	-2.6167	-2.2604	-2.8333	-2.3146	-2.3896	133.275	186.236	10.819	176.994	2.955	257.514	305.296	-43.057	255.471	-41.912	218.739	45.979	281.569	220.590	42.593	16.652	0.00013463	0.00054897	0.00013716	1373.5	2.6784e-06	3.4021e-06	1365.2	368.13	2.6395e-06	3.5929e-06	421.03	139.73	121.74	42.152	2.8382e-06	52.214	0.00045419	0.00052066	0.0001477	1384.2	5.8532e-06	5.8962e-06	1380.1	374.07	5.8399e-06	5.6908e-06	427.26	142.98	124.42	42.986	5.7876e-06	53.119	174.706	54.401	42.957	-32.826	129.257	76.396	-32.775	-28.129	139.419	97.853	-28.574	-23.856	-23.592	-19.483	76.530	-19.691	-8191	255	
13052.186	1	1	0	0	0.30701	0.11836	0.32403	0.17623	0.19724	0.26559	0.22703	0.25181	0.059987	0.15104	0.15217	0.0292	0.064628	0.39091	0.11457	0.083726	-2.2979	-2.0396	-2.6208	-2.8979	-2.025	-2.9688	-2.5312	-2.6729	-2.7896	-2.2667	-2.7917	-2.7125	-2.3042	-2.7625	-2.5125	-2.4	88.303	308.661	47.721	-41.068	144.901	231.003	285.697	256.837	183.408	51.430	-22.331	91.010	113.640	305.756	-26.900	97.925	0.00014267	0.00033364	0.0001585	1375.7	2.5253e-06	4.02e-06	1370.6	368.32	3.6183e-06	4.1714e-06	421.27	138.77	121.77	42.188	2.4937e-06	52.024	0.00045545	0.00052309	0.00014244	1383.4	5.7304e-06	5.6264e-06	1380.4	373.8	5.7145e-06	5.6526e-06	426.35	142.52	124.44	43.043	5.8869e-06	53.135	171.485	37.150	43.458	-32.615	107.603	126.656	-32.574	-28.009	104.466	107.096	-28.812	-24.267	-23.576	-19.432	88.832	-19.902	-8191	255	
13052.282	1	1	0	0	0.18448	0.12387	0.050032	0.28563	0.15483	0.16539	0.36124	0.39751	0.093609	0.17842	0.094246	0.33779	0.15099	0.39516	0.20331	0.12774	-2.5542	-2.1729	-2.4771	-3.1417	-2.1688	-2.8	-2.7833	-2.4604	-2.8688	-2.3979	-2.5646	-2.9354	-2.2479	-2.8604	-2.6312	-2.2792	139.860	-33.434	298.296	244.324	165.049	44.797	254.837	305.803	65.099	194.014	218.228	279.366	-43.174	295.606	266.499	59.276	0.00014084	0.00044162	0.00016671	1373.8	4.0944e-06	5.0865e-06	1367.2	367.71	2.9911e-06	3.5378e-06	420.4	139.11	121.13	41.818	3.4066e-06	51.929	0.00045098	0.00053109	0.00014352	1383	5.7708e-06	5.6727e-06	1379.5	373.56	5.6506e-06	5.7179e-06	426.45	142.81	124.08	42.939	5.751e-06	53.066	168.377	35.045	54.631	-32.762	133.801	106.968	-32.603	-28.194	93.641	83.485	-28.760	-24.211	-23.452	-19.061	119.311	-19.561	-8191	255	
13052.403	1	1	0	0	0.17463	0.11506	0.16247	0.2186	0.082958	0.1584	0.18596	0.22834	0.22348	0.13914	0.19284	0.095636	0.077404	0.098663	0.044912	0.066909	-2.3208	-2.3917	-2.4208	-2.8458	-2.0583	-2.7562	-2.8042	-2.4042	-2.8979	-2.4042	-2.5021	-2.6937	-2.3625	-2.9167	-2.6479	-2.425	52.825	76.233	-35.421	-42.286	170.960	-9.960	255.172	289.317	161.927	200.136	309.468	294.391	311.505	298.048	39.272	251.131	0.00015467	0.00058309	0.00018135	1376.3	2.8949e-06	5.6825e-06	1363.1	367.96	2.8804e-06	4.587e-06	420.8	138.93	121.61	42.035	1.9503e-06	52.268	0.00045095	0.0005195	0.00014747	1384.2	5.793e-06	5.7094e-06	1378.8	373.76	5.6587e-06	5.7582e-06	427.2	142.95	124.37	42.909	5.7629e-06	53.131	168.804	47.226	33.037	-32.781	130.868	102.822	-32.701	-28.169	130.197	106.064	-28.433	-24.307	-23.787	-19.108	140.664	-19.828	-8191	255	
13052.498	1	1	0	0	0.039873	0.073494	0.062707	0.22154	0.11195	0.14305	0.18159	0.15109	0.10201	0.030906	0.047255	0.18818	0.11353	0.18099	0.30114	0.076516	-2.6708	-2.4188	-2.45	-3.225	-2.0521	-2.5396	-2.9583	-2.3875	-2.7292	-2.6229	-2.3563	-3.0896	-2.4292	-2.7938	-2.8167	-2.3021	283.794	304.079	99.464	307.539	138.675	231.426	269.118	229.186	39.647	-13.914	250.260	-17.872	206.373	285.095	107.691	-9.187	0.00015886	0.00050283	0.00014275	1374.7	2.5098e-06	4.6513e-06	1363.3	368.43	2.7787e-06	6.0441e-06	423.31	139.11	121.16	42.102	4.4686e-06	51.973	0.0004601	0.00052107	0.00014949	1383.2	5.8042e-06	5.8653e-06	1379.2	373.68	5.9347e-06	5.8617e-06	427.46	142.83	124.19	42.966	5.8255e-06	53.05	175.260	55.048	55.669	-32.790	123.673	121.249	-32.417	-28.042	117.280	102.368	-28.523	-23.905	-23.784	-19.375	119.412	-19.898	-8191	255	
13052.594	1	1	0	0	0.15903	0.14223	0.16685	0.62084	0.17528	0.24791	0.1572	0.12641	0.23463	0.31263	0.17634	0.047049	0.15419	0.25869	0.18223	0.19389	-2.3792	-2.6583	-2.3896	-3.0812	-2.3354	-2.4313	-3.0771	-2.4708	-2.8958	-2.6937	-2.5	-2.9521	-2.5854	-2.5292	-2.9167	-2.1646	90.182	156.382	33.784	313.347	226.741	210.711	273.763	41.501	-14.311	259.722	190.770	42.353	309.825	283.998	215.196	-24.238	0.00014731	0.00045896	0.00017987	1376.9	4.8184e-07	5.9396e-06	1364.5	368.14	2.8018e-06	4.7036e-06	422.29	138.58	121.5	42.047	5.3294e-06	52.161	0.0004553	0.00053503	0.00014713	1386.1	5.8418e-06	5.7828e-06	1380.7	373.5	5.6283e-06	5.8354e-06	426.92	142.72	124.32	42.972	5.6812e-06	53.125	169.588	34.536	39.751	-32.840	176.976	93.469	-32.531	-28.176	125.271	122.654	-28.695	-24.058	-23.771	-19.471	117.286	-19.849	-8191	255	
13052.714	1	1	0	0	0.22799	0.154	0.14715	0.17448	0.17493	0.42726	0.31157	0.16111	0.15949	0.23298	0.21368	0.21731	0.21132	0.2803	0.20577	0.28481	-2.2875	-2.5604	-2.2458	-3.1542	-2.4396	-2.4292	-2.9688	-2.4583	-2.6625	-2.8396	-2.3979	-2.8979	-2.5875	-2.4062	-2.9458	-2.4833	70.844	-3.863	80.103	18.958	307.740	-22.918	230.273	287.016	183.658	-29.905	308.215	-42.275	291.996	307.585	182.128	142.137	0.00014386	0.00036595	0.00015577	1374.4	1.982e-06	4.8409e-06	1371.9	367.76	3.1662e-06	5.4482e-06	421.38	138.7	121.61	42.012	3.3089e-06	52.137	0.00045396	0.00052765	0.00014591	1385.3	5.87e-06	5.7025e-06	1382.2	373.4	5.7698e-06	5.7363e-06	426.62	142.83	124.48	42.917	5.815e-06	53.107	162.624	64.515	40.418	-32.854	108.034	93.219	-32.539	-28.238	151.494	106.113	-28.932	-24.258	-23.564	-19.253	108.294	-19.818	-8191	255	
13052.786	1	1	0	0	0.19444	0.20409	0.15333	0.11106	0.13491	0.18714	0.049432	0.030401	0.090127	0.073795	0.14094	0.062064	0.2402	0.31299	0.058862	0.1837	-2.2958	-2.7438	-2.1146	-3.1354	-2.6229	-2.2167	-3.075	-2.4708	-2.6083	-2.8792	-2.2979	-2.7125	-2.7042	-2.3583	-2.9562	-2.625	238.112	246.868	45.253	301.280	113.555	235.408	267.313	165.516	216.753	55.433	261.081	312.351	290.622	-24.014	21.428	0.809	0.00012236	0.00036918	0.00014989	1375.6	4.0633e-06	3.1814e-06	1368.7	368.36	2.7856e-06	6.709e-06	419.87	138.88	121.28	42.062	4.8477e-06	51.747	0.0004521	0.00052767	0.00014637	1383.7	5.7299e-06	5.6392e-06	1382.6	373.79	5.8277e-06	5.5553e-06	426.1	142.91	124.19	42.952	5.8611e-06	53.058	168.531	33.216	59.211	-32.686	127.534	108.899	-32.847	-28.079	80.967	124.687	-28.741	-24.306	-23.522	-19.079	111.560	-20.000	-8191	255	
13052.882	1	1	0	0	0.2125	0.25509	0.013103	0.24896	0.21307	0.17222	0.08391	0.13453	0.23698	0.14993	0.20374	0.1286	0.11297	0.26079	0.20047	0.16611	-2.2062	-2.6562	-1.9562	-2.9292	-2.5167	-2.3563	-3.1188	-2.5292	-2.1771	-2.8625	-2.4875	-2.7125	-2.8187	-2.35	-2.9188	-2.4208	279.339	-21.716	126.435	-42.705	85.643	209.772	258.157	-10.733	68.497	231.577	215.329	-26.952	-12.409	296.281	139.401	63.291	0.00013983	0.00040123	0.00015248	1376.4	4.055e-06	6.3672e-06	1363.6	367.76	8.4917e-07	3.8213e-06	419.19	138.34	121.5	41.894	4.7258e-06	51.756	0.00045834	0.00052654	0.00014713	1384.7	5.7408e-06	6.0132e-06	1380.7	373.44	5.8069e-06	5.7606e-06	426.16	142.59	124.26	42.877	5.7752e-06	53.126	169.620	42.962	43.788	-32.678	115.248	102.453	-32.733	-27.969	93.782	128.141	-28.496	-24.153	-23.516	-19.164	117.650	-19.954	-8191	255	
13052.978	1	1	0	0	0.25095	0.2155	0.25308	0.16061	0.058185	0.0068792	0.33455	0.11475	0.093547	0.19286	0.20296	0.31887	0.10472	0.32052	0.30801	0.073269	-1.7229	-2.7104	-2.2354	-2.7958	-2.6979	-2.1292	-2.9833	-2.5542	-2.0625	-2.7042	-2.3604	-2.5417	-2.9188	-2.375	-2.6979	-2.6625	243.863	275.084	210.532	286.906	50.219	-43.634	291.110	288.241	7.435	203.001	24.694	265.490	292.432	261.378	122.629	233.875	0.00014187	0.00049288	0.00010452	1368.2	2.2886e-06	5.3359e-06	1362.7	367.12	2.4728e-06	6.3491e-06	419.98	138.41	121.48	41.783	2.3831e-06	52.094	0.00046611	0.00053508	0.00014571	1381.5	5.8006e-06	5.9223e-06	1381.6	373.26	5.9302e-06	5.6721e-06	426.44	142.82	124.23	42.846	5.8463e-06	53.092	172.011	53.591	61.559	-32.685	87.640	107.950	-32.512	-28.051	112.704	113.848	-28.466	-23.965	-23.530	-19.147	125.107	-20.024	-8191	255	
13053.099	1	1	0	0	0.23746	0.091777	0.17549	0.24071	0.24194	0.223	0.2137	0.16792	0.15734	0.23759	0.0862	0.17394	0.34056	0.097642	0.1545	0.23871	-2.05	-2.8042	-2.2562	-2.6333	-2.7313	-2.3021	-2.8667	-2.7062	-2.2125	-2.9854	-2.4542	-2.5083	-2.9125	-2.1917	-2.8021	-2.6063	80.130	-24.867	219.249	248.481	-22.450	206.837	246.722	243.460	72.325	-15.232	20.293	294.155	-27.536	167.454	10.402	-20.166	0.00014495	0.00042526	0.00016399	1390.5	2.0541e-06	5.0813e-06	1376.3	373.03	1.812e-06	6.3534e-06	422.67	139.37	121.87	42.228	4.1473e-06	52.202	0.0004717	0.00053476	0.00015019	1388.2	5.9773e-06	6.0256e-06	1384.5	375.02	5.9733e-06	5.9421e-06	427.22	142.8	124.35	42.92	5.8626e-06	53.157	170.722	76.069	47.418	-33.137	140.768	108.951	-32.966	-28.221	119.850	90.673	-28.833	-24.537	-23.852	-19.329	100.847	-20.021	-8191	255	
13053.195	1	1	0	0	0.096544	0.25424	0.09196	0.29344	0.16174	0.16325	0.19307	0.16355	0.276	0.031878	0.18412	0.088646	0.069753	0.28559	0.11892	0.24018	-1.9438	-2.7938	-2.2687	-2.5438	-2.8063	-2.3104	-2.7229	-2.8563	-2.2313	-2.9062	-2.5333	-2.4792	-2.9792	-2.3063	-2.6604	-2.7854	-10.199	261.499	208.045	-39.388	126.684	237.164	260.674	-22.824	110.861	134.383	278.005	58.781	9.200	-16.110	134.137	-37.560	0.00013692	0.0004628	0.00013579	1380	1.2314e-06	4.578e-06	1375.4	370.41	2.4047e-06	3.9605e-06	422.62	139.36	121.87	42.144	4.4932e-06	52.216	0.00046861	0.00052524	0.00015005	1384.9	5.8105e-06	6.0237e-06	1381.7	374.82	5.8774e-06	5.8969e-06	427.5	142.93	124.55	42.936	5.8942e-06	53.163	164.507	33.924	54.510	-33.002	166.586	104.324	-33.078	-28.060	116.073	112.438	-28.577	-24.352	-23.599	-19.223	114.533	-19.927	-8191	255	
13053.291	1	1	0	0	0.27745	0.064617	0.091326	0.1728	0.013578	0.082822	0.3929	0.16825	0.18988	0.12562	0.13471	0.10765	0.38184	0.08786	0.26573	0.18722	-1.9875	-2.6479	-2.4896	-2.3604	-3.0583	-2.1604	-2.8167	-2.9833	-2.0938	-2.8063	-2.7104	-2.4938	-2.9021	-2.3438	-2.6458	-2.925	-15.574	43.114	21.343	269.203	268.727	174.121	285.797	242.517	142.038	37.573	277.577	258.892	288.431	-45.410	57.465	288.486	0.00013812	0.00038775	0.00015113	1366.9	2.957e-06	5.8449e-06	1350.3	366.24	3.0846e-06	5.5755e-06	418.05	137.88	121.12	41.567	3.3671e-06	51.469	0.00045853	0.00053277	0.00015144	1380.4	5.6882e-06	6.0571e-06	1377.9	373.66	5.8137e-06	5.9297e-06	426.54	142.62	124.3	42.807	5.9037e-06	52.99	173.529	50.205	47.101	-32.643	112.256	105.008	-32.223	-27.744	149.143	100.417	-28.079	-23.725	-23.284	-18.538	136.889	-19.425	-8191	255	
13053.363	1	1	0	0	0.12743	0.13219	0.22562	0.11102	0.055961	0.10675	0.38909	0.1663	0.14775	0.065953	0.075888	0.098792	0.20092	0.10605	0.21549	0.14302	-1.75	-2.5646	-2.4917	-2.4354	-2.9958	-2.3771	-2.6708	-2.9688	-2.1729	-2.6979	-2.5479	-2.3479	-2.9979	-2.4521	-2.4688	-3.0104	190.276	235.102	155.393	196.628	141.296	306.900	237.638	199.648	197.460	213.825	17.570	79.031	250.385	169.779	108.995	-28.931	0.00018445	0.00047117	0.00016604	1362.1	3.4833e-06	4.6244e-06	1355.1	365.13	2.7481e-06	4.9602e-06	417.41	138.08	120.59	41.574	5.2068e-06	51.516	0.00046843	0.00054333	0.00015007	1379.7	5.7884e-06	5.8236e-06	1377.8	373.27	5.8477e-06	5.7896e-06	425.48	142.65	124.22	42.766	5.9219e-06	53.038	169.072	58.279	59.822	-32.603	112.422	103.049	-32.404	-27.455	113.430	121.835	-28.361	-23.825	-23.280	-18.912	124.679	-19.664	-8191	255	
13053.482	1	1	0	0	0.1001	0.24795	0.12776	0.44049	0.042204	0.23325	0.24533	0.27159	0.18119	0.31613	0.1249	0.22627	0.18251	0.05465	0.19357	0.027853	-1.8583	-2.5062	-2.5854	-2.325	-2.8	-2.5375	-2.6208	-2.9562	-2.2	-2.5875	-2.9188	-2.1458	-2.8979	-2.6792	-2.2896	-3.0438	103.925	70.251	248.995	253.310	23.281	52.837	214.119	209.610	110.620	125.329	270.716	15.591	-24.509	290.698	-38.599	61.695	0.00014387	0.00048083	0.00010643	1361.9	4.2444e-06	4.2901e-06	1355.3	366.7	3.1436e-06	4.3798e-06	418.49	138.01	121.26	41.753	4.0599e-06	51.39	0.00046083	0.0005288	0.00015025	1380.4	5.8672e-06	5.922e-06	1376.6	373.71	6.0005e-06	5.9348e-06	426.37	142.61	124.17	42.851	6.0362e-06	53.06	179.087	43.497	58.154	-32.623	116.113	99.155	-32.355	-27.762	118.184	98.524	-28.354	-24.028	-23.427	-19.086	103.384	-19.599	-8191	255	
13053.578	1	1	0	0	0.17134	0.1598	0.293	0.28184	0.17718	0.24299	0.20788	0.13694	0.28644	0.16469	0.080622	0.15807	0.38203	0.21779	0.14063	0.32772	-1.8375	-2.4146	-2.8438	-2.4646	-2.8292	-2.3771	-2.5875	-3.0292	-2.2104	-2.5354	-2.8958	-2.3792	-2.7625	-2.6375	-2.1375	-2.8458	196.952	291.665	120.887	280.510	146.259	-9.390	305.043	-28.207	147.631	3.656	144.752	309.390	289.443	280.277	199.334	-7.382	0.00014788	0.00030584	0.00016785	1364.4	3.4115e-06	3.322e-06	1356.5	366.97	1.4929e-06	5.2472e-06	419.41	137.59	120.58	41.623	3.2751e-06	51.694	0.0004672	0.00053572	0.00014902	1380.9	5.9277e-06	5.828e-06	1378.6	373.3	5.7747e-06	5.7848e-06	425.94	142.45	124.06	42.875	5.9516e-06	52.985	171.395	54.603	43.171	-32.733	122.293	105.078	-32.565	-27.800	128.938	87.037	-28.306	-23.965	-23.527	-18.906	97.035	-19.420	-8191	255	
13053.676	1	1	0	0	0.19289	0.081894	0.1887	0.28632	0.16366	0.078552	0.3603	0.070145	0.12151	0.13682	0.15194	0.068198	0.27417	0.11436	0.26738	0.1255	-1.8833	-2.3563	-2.9104	-2.5521	-2.5438	-2.8292	-2.4896	-2.9354	-2.4417	-2.3854	-3	-2.2854	-2.5104	-2.7938	-2.2625	-3.1063	34.741	174.292	10.649	233.286	277.702	302.780	221.591	119.410	119.281	-23.745	255.321	224.138	-29.170	255.193	2.143	260.223	0.00016535	0.00049077	0.00018449	1361.7	3.8065e-06	4.1746e-06	1353	363.31	1.3302e-06	5.5833e-06	416.61	137.62	120.68	41.669	3.833e-06	51.705	0.00046851	0.00054522	0.00015216	1380.4	5.9677e-06	5.9812e-06	1377.7	372.82	5.9269e-06	6.0277e-06	425.61	142.54	124.11	42.872	6.2086e-06	53.052	169.713	55.214	56.454	-32.522	145.352	125.247	-32.319	-27.524	159.376	117.166	-28.225	-23.921	-23.352	-18.685	123.552	-19.555	-8191	255	
13053.795	1	1	0	0	0.22246	0.015143	0.057815	0.39643	0.2044	0.019144	0.25277	0.10949	0.20586	0.14582	0.16776	0.23896	0.18045	0.11369	0.11364	0.18185	-2.2375	-2.3896	-2.8937	-2.3208	-2.5292	-2.9229	-2.5312	-2.9688	-2.3208	-2.2208	-3.1125	-2.5771	-2.7792	-3.0687	-2.2333	-2.8375	281.631	89.008	-44.919	280.350	173.869	70.523	237.425	255.443	139.370	-5.712	272.278	271.705	78.161	286.032	109.222	-38.301	0.00014549	0.0005546	0.0001211	1361.2	4.5908e-06	5.5846e-06	1353.1	365.44	3.0776e-06	4.7273e-06	419.08	137.69	120.81	41.626	3.1769e-06	51.549	0.0004675	0.00055291	0.00014966	1380.5	6.0646e-06	6.0398e-06	1377.2	373.25	5.9231e-06	5.8638e-06	425.8	142.59	124.17	42.929	5.9759e-06	52.957	175.257	48.079	33.473	-32.603	130.540	91.882	-32.250	-27.833	111.031	110.629	-28.055	-23.932	-23.550	-18.943	108.234	-19.556	-8191	255	
13053.891	1	1	0	0	0.055267	0.20566	0.23776	0.089478	0.1006	0.15623	0.28532	0.087699	0.092559	0.06696	0.016071	0.043326	0.14651	0.070105	0.24097	0.45615	-2.2521	-2.0104	-2.8625	-2.5042	-2.3563	-2.9292	-2.3792	-2.6542	-2.7625	-2.1229	-3.2271	-2.6	-2.5417	-3.0104	-2.1479	-2.8438	-44.947	-6.315	68.825	240.439	289.392	72.684	217.002	104.558	166.301	70.512	177.556	214.898	263.273	50.678	124.447	233.366	0.00015932	0.00038995	0.00013727	1361.3	2.8419e-06	4.5328e-06	1362.7	365.81	1.6301e-06	4.1605e-06	417.68	138.12	121.13	41.902	4.8235e-06	51.76	0.00046745	0.00055416	0.000148	1379.6	6.0216e-06	6.0182e-06	1379.5	373.24	5.8959e-06	5.9058e-06	426.78	142.52	124.35	42.919	6.0875e-06	53.078	175.039	39.078	37.109	-32.601	115.705	112.804	-32.616	-27.684	124.570	108.414	-28.242	-23.719	-23.603	-19.087	118.040	-19.704	-8191	255	
13053.987	1	1	0	0	0.22846	0.12347	0.12845	0.18352	0.26273	0.22559	0.33242	0.08101	0.11373	0.057872	0.21239	0.10971	0.31273	0.10792	0.11866	0.26369	-2.15	-2.3042	-2.8292	-2.4813	-2.3417	-2.9104	-2.5125	-2.8438	-2.6354	-2.1042	-2.9875	-2.6458	-2.4229	-2.9437	-2.1667	-2.7229	177.544	74.748	291.972	278.256	89.687	240.145	247.796	181.481	13.584	-6.046	299.024	117.053	221.579	137.643	-31.360	-22.371	0.00014824	0.00052303	0.00014001	1365.8	4.2986e-06	3.0301e-06	1357.3	364.87	2.2028e-06	4.0175e-06	416.79	137.54	120.99	41.584	3.4241e-06	51.73	0.00046838	0.00056036	0.00015135	1382	5.9756e-06	5.9478e-06	1377.8	372.86	5.8746e-06	5.9819e-06	425.72	142.58	124.15	42.827	5.9485e-06	53.144	166.575	57.793	41.414	-32.694	115.935	126.071	-32.485	-27.814	114.942	127.076	-28.480	-23.865	-23.680	-18.861	94.173	-19.749	-8191	255	
13054.083	1	1	0	0	0.25907	0.13876	0.22662	0.22251	0.084671	0.095638	0.44796	0.26277	0.24033	0.27081	0.27085	0.024306	0.19173	0.28029	0.1831	0.33827	-2.4958	-2.1958	-2.8063	-2.7875	-2.2333	-3.0542	-2.3896	-2.7021	-2.8146	-2.2479	-3.075	-2.7313	-2.6021	-3.0979	-2.3771	-2.4208	278.898	308.920	277.329	307.488	177.765	235.223	305.442	231.395	312.753	184.543	266.230	209.092	-27.946	-39.698	-4.778	265.824	0.00015292	0.00044239	0.00015922	1364.4	2.7098e-06	6.3191e-06	1354.6	365.9	3.5468e-06	3.1347e-06	417.16	138.32	121.24	41.644	2.7405e-06	51.717	0.00046162	0.00054513	0.00015116	1380.8	6.048e-06	6.073e-06	1377.2	372.96	5.6993e-06	6.0055e-06	425.77	142.58	124.29	42.865	6.0917e-06	53.004	171.759	29.509	45.290	-32.519	112.164	107.003	-32.469	-27.771	130.424	106.841	-28.541	-23.719	-23.361	-18.905	104.880	-19.694	-8191	255	
13054.179	1	1	0	0	0.26636	0.12885	0.1706	0.2494	0.23776	0.077525	0.19537	0.046096	0.23747	0.10237	0.21457	0.12975	0.12676	0.27511	0.10965	0.17591	-2.4354	-2.1667	-2.5979	-2.9708	-2.0792	-2.9313	-2.4333	-2.6458	-2.8979	-2.2458	-2.8312	-2.8063	-2.4313	-2.9938	-2.4896	-2.5083	-6.104	-3.498	15.852	233.940	135.928	207.095	289.608	288.164	196.764	22.960	-32.308	285.172	269.153	297.931	64.558	311.106	0.00014639	0.0006725	0.00010366	1361.9	2.4023e-06	2.9256e-06	1353.9	365.51	2.0552e-06	4.1617e-06	417.84	137.89	121.01	41.734	3.9799e-06	51.755	0.0004655	0.00055945	0.00015167	1380	6.018e-06	5.9919e-06	1378.3	372.92	5.9555e-06	5.8741e-06	425.82	142.46	124.08	42.854	6.0256e-06	53.035	167.527	59.755	71.313	-32.355	100.574	82.700	-32.255	-27.927	163.395	114.520	-28.051	-23.789	-23.607	-18.996	141.680	-19.766	-8191	255	
13054.275	1	1	0	0	0.26477	0.19542	0.060487	0.11552	0.011375	0.10889	0.031825	0.42614	0.0937	0.1687	0.07753	0.1976	0.19577	0.23757	0.071824	0.22185	-2.5083	-2.2583	-2.55	-3.0667	-2.1604	-2.8937	-2.7125	-2.4375	-2.9458	-2.3271	-2.6458	-2.7729	-2.3958	-2.7271	-2.5292	-2.4271	307.793	-2.705	306.196	-0.075	-38.973	262.441	257.735	285.029	-33.619	253.417	153.905	293.410	295.643	250.014	-29.354	265.252	0.00013452	0.0005506	0.00014153	1365.6	3.1142e-06	3.4464e-06	1359.4	365.16	2.2086e-06	3.616e-06	419.98	138.53	120.98	42	3.2681e-06	51.733	0.0004673	0.0005433	0.00015185	1380.7	5.8937e-06	5.9724e-06	1378.6	372.71	5.8642e-06	5.9987e-06	426.18	142.58	124.03	42.938	5.9556e-06	53.084	171.696	43.629	32.999	-32.743	121.223	97.198	-32.145	-28.088	101.873	116.897	-28.509	-23.950	-23.556	-18.926	110.079	-19.706	-8191	255	
13054.396	1	1	0	0	0.13975	0.1196	0.0073069	0.22743	0.18338	0.10726	0.15179	0.11733	0.2036	0.079576	0.090583	0.23744	0.10702	0.094952	0.27062	0.19939	-2.3896	-2.0042	-2.2562	-3.0187	-2.025	-2.7146	-2.8771	-2.3688	-3.0354	-2.3312	-2.425	-3.0312	-2.2979	-2.7125	-2.6	-2.3271	158.616	241.323	143.848	244.059	264.149	98.521	254.981	267.459	71.176	-44.006	161.404	-32.699	250.025	0.064	155.586	274.846	0.00016247	0.00036283	0.00015327	1368.4	4.8021e-06	6.2603e-06	1357.8	364.63	3.1569e-06	5.1238e-06	418.21	137.9	121.19	41.761	4.3891e-06	51.403	0.00045755	0.00055071	0.00015114	1382.6	6.0534e-06	5.9113e-06	1377.5	372.94	6.0905e-06	5.9706e-06	425.67	142.47	124.18	42.926	5.92e-06	52.992	174.708	45.380	40.587	-32.391	133.654	109.811	-32.401	-27.785	128.097	113.436	-28.762	-23.860	-23.354	-18.991	108.095	-19.967	-8191	255	
13054.490	1	1	0	0	0.074932	0.11264	0.29325	0.10402	0.15878	0.096215	0.23242	0.25275	0.082112	0.19728	0.13099	0.16158	0.2014	0.41745	0.27829	0.19592	-2.5312	-2.3563	-2.4125	-3.1375	-2.2292	-2.6729	-2.8896	-2.5125	-2.8417	-2.4021	-2.5312	-2.9479	-2.3167	-2.6417	-2.6083	-2.2729	233.802	294.474	296.616	304.263	189.957	202.387	284.001	278.596	160.236	196.386	78.600	221.015	313.396	304.519	261.935	281.491	0.00014343	0.00043427	0.00014042	1367.9	4.0115e-06	3.9024e-06	1361.1	365.94	3.3478e-06	5.1863e-06	419.3	138.23	121.52	41.651	2.7984e-06	51.714	0.00047515	0.0005549	0.00015157	1382.8	5.9606e-06	6.0311e-06	1380.1	373.53	5.865e-06	6.0296e-06	425.38	142.69	124.2	42.875	6.0035e-06	53.06	175.356	35.146	42.741	-32.715	128.728	111.340	-32.300	-27.809	106.858	104.969	-28.411	-23.854	-23.408	-19.066	106.914	-19.579	-8191	255	
13054.587	1	1	0	0	0.23798	0.11832	0.12607	0.17854	0.063091	0.22879	0.22672	0.1786	0.078114	0.081968	0.14576	0.24434	0.39299	0.054779	0.081724	0.32887	-2.3042	-2.5083	-2.3229	-2.9417	-2.4396	-2.4896	-3.0458	-2.4271	-2.8146	-2.5167	-2.4313	-2.8646	-2.4854	-2.475	-2.7354	-2.1771	152.643	10.234	190.545	-18.742	240.115	125.799	-21.885	298.525	290.432	102.435	0.875	3.265	301.091	253.594	189.730	299.205	0.0001464	0.00060264	0.00014842	1365.5	2.5529e-06	5.5235e-06	1359.5	365.08	8.7696e-07	3.2633e-06	420.47	138.45	120.62	41.748	3.5994e-06	51.612	0.00047003	0.0005485	0.00015463	1381.4	5.999e-06	6.0108e-06	1380.6	372.94	6.0223e-06	5.9129e-06	426.79	142.7	124.13	42.879	6.0893e-06	53.038	176.014	47.352	49.400	-32.517	114.388	105.472	-32.482	-27.788	165.090	98.236	-28.299	-24.071	-23.288	-18.977	110.987	-19.707	-8191	255	
13054.660	1	1	0	0	0.14444	0.14175	0.12135	0.32943	0.091862	0.20347	0.26144	0.09176	0.21454	0.31046	0.30472	0.1183	0.58222	0.17257	0.20474	0.29242	-2.5167	-2.3771	-2.1583	-2.9417	-2.2188	-2.5062	-3.0542	-2.4083	-2.6917	-2.6583	-2.3604	-2.9021	-2.4958	-2.5083	-3.0708	-2.25	172.989	66.484	258.130	248.394	-37.111	186.825	-33.640	135.276	187.218	194.718	254.573	82.445	287.672	-45.132	126.720	302.856	0.0001393	0.00036893	9.3426e-05	1372.3	4.4362e-06	5.2313e-06	1365.8	365.78	1.9248e-06	3.1222e-06	420.34	138.54	121.19	41.731	4.0526e-06	51.765	0.00047918	0.00053639	0.00015615	1384.1	6.1203e-06	6.1385e-06	1381.2	372.61	6.0002e-06	5.9974e-06	426.87	142.87	124.22	42.876	6.0127e-06	53	168.907	57.793	56.197	-32.584	145.733	114.581	-32.637	-27.911	144.538	73.072	-28.548	-24.012	-23.537	-19.481	133.355	-19.829	-8191	255	
13054.756	1	1	0	0	0.054202	0.1636	0.18016	0.17356	0.29799	0.10277	0.20471	0.12156	0.051984	0.21962	0.15909	0.19601	0.086329	0.11467	0.19262	0.45836	-2.1333	-2.7083	-2.125	-2.9375	-2.3667	-2.275	-3.0625	-2.2521	-2.4792	-2.8042	-2.225	-2.9375	-2.6312	-2.5042	-2.9021	-2.3917	13.022	212.701	251.363	270.101	68.571	128.380	295.684	198.299	278.402	298.809	-37.653	225.639	242.571	289.872	228.281	236.613	0.00013893	0.00057297	0.00013491	1370.6	3.5746e-06	5.0423e-06	1368.2	366.42	2.5196e-06	3.6873e-06	420.82	138.26	120.67	41.717	5.55e-06	51.47	0.00047205	0.00054138	0.00015455	1383.9	6.0808e-06	6.2497e-06	1381.7	373.09	6.2222e-06	5.9004e-06	426.06	142.8	124.1	42.855	5.9711e-06	52.998	172.817	33.672	38.606	-32.723	136.719	107.535	-32.421	-27.813	140.115	110.743	-28.625	-23.914	-23.414	-19.232	98.340	-19.844	-8191	255	
13054.875	1	1	0	0	0.31061	0.099123	0.1436	0.088191	0.11307	0.04736	0.23078	0.12707	0.16337	0.30888	0.25074	0.28806	0.095544	0.15986	0.2481	0.19405	-2.2792	-2.8	-2.1708	-3.0771	-2.6688	-2.2271	-3.1	-2.4104	-2.4625	-2.8812	-2.2417	-2.6208	-2.8229	-2.4083	-2.85	-2.6146	221.360	-37.055	43.107	246.688	241.191	74.686	291.687	189.682	-27.216	48.385	282.769	225.102	190.212	194.087	-28.663	271.306	0.00017761	0.00051541	9.4808e-05	1366.7	3.752e-06	5.0765e-06	1354.9	365.44	2.8034e-06	6.3599e-06	419.78	138.08	120.91	41.759	4.0373e-06	51.631	0.00047463	0.00054163	0.00015473	1382.2	5.9344e-06	6.0804e-06	1379.8	373.28	5.9865e-06	5.957e-06	426.33	142.41	124.23	42.881	5.8669e-06	52.997	174.109	49.680	52.543	-32.521	121.114	78.611	-32.311	-27.855	116.092	89.947	-28.235	-23.736	-23.471	-18.984	120.732	-19.513	-8191	255	
13054.971	1	1	0	0	0.03381	0.13596	0.14595	0.18796	0.057521	0.042063	0.11368	0.34532	0.14495	0.29709	0.44452	0.12733	0.068048	0.25382	0.1393	0.30938	-2.1146	-2.7521	-2.0563	-2.8896	-2.575	-1.9792	-3.0104	-2.4292	-2.3083	-2.8104	-2.3187	-2.5396	-2.8479	-2.3521	-2.8354	-2.6042	72.177	117.899	254.302	-12.717	244.528	204.594	201.775	264.267	22.833	9.434	304.001	197.790	180.290	-19.455	269.003	298.189	0.00015623	0.00045833	8.8151e-05	1370.3	3.9177e-06	3.0019e-06	1367.1	367.08	1.7566e-06	5.6355e-06	418.02	138.25	121.04	41.882	4.8767e-06	51.732	0.0004728	0.00053385	0.0001502	1383.4	5.9984e-06	6.0385e-06	1381.4	373.39	6.0593e-06	6.0098e-06	425.58	142.66	124.2	42.924	6.1333e-06	53.041	174.974	55.273	47.056	-32.936	124.264	114.930	-32.492	-28.077	135.461	92.225	-28.432	-24.028	-23.470	-19.120	109.387	-19.617	-8191	255	
13055.067	1	1	0	0	0.12138	0.31125	0.12161	0.22177	0.1385	0.15175	0.14765	0.17037	0.079305	0.086283	0.14419	0.1682	0.211	0.13288	0.12934	0.070442	-1.8771	-2.775	-2.4	-2.7229	-2.8187	-2.3458	-3.0333	-2.7521	-2.25	-2.9917	-2.4646	-2.85	-2.8979	-2.4062	-2.8271	-2.7729	111.530	18.717	161.432	-34.325	302.485	-12.505	250.896	297.992	159.242	90.062	278.373	310.403	235.740	313.925	65.310	308.406	0.00015604	0.00034034	0.00011274	1368.5	3.7484e-06	2.7278e-06	1362.8	365.79	2.4157e-06	7.5781e-06	418.15	137.73	120.68	41.545	2.588e-06	51.489	0.00045982	0.00055465	0.00015413	1382.9	5.9155e-06	5.9639e-06	1380.8	373.21	6.056e-06	5.9779e-06	425.54	142.48	124.13	42.796	5.9235e-06	52.948	169.269	46.767	11.815	-32.675	138.009	77.115	-32.351	-27.739	125.540	112.763	-28.402	-23.980	-23.083	-18.952	102.955	-19.696	-8191	255	
13055.163	1	1	0	0	0.16299	0.16199	0.075778	0.11078	0.071576	0.074384	0.30583	0.19959	0.20817	0.091116	0.22106	0.14773	0.41303	0.44274	0.16213	0.13887	-1.9979	-2.8458	-2.4813	-2.6021	-2.9	-2.4271	-3.0687	-2.6937	-2.275	-2.975	-2.5354	-2.7438	-3.0646	-2.4021	-2.8292	-2.7542	123.026	147.568	156.401	52.707	153.260	238.316	301.667	288.722	104.532	254.662	207.941	258.596	311.620	204.208	118.810	-22.694	0.00013981	0.00035405	0.00015054	1362.5	4.0931e-06	3.2476e-06	1361.4	366.45	2.2576e-06	4.0046e-06	418.29	137.73	120.16	41.824	4.3898e-06	51.663	0.00047162	0.00055529	0.00015133	1379.3	5.8441e-06	5.8297e-06	1378.9	372.27	6.0621e-06	5.8116e-06	425.99	142.32	123.72	42.846	6.0596e-06	52.966	179.648	70.374	47.519	-32.643	119.549	99.877	-32.502	-27.596	83.529	105.895	-28.374	-23.979	-23.478	-18.831	130.611	-19.732	-8191	255	
13055.260	1	1	0	0	0.22418	0.14119	0.070098	0.21523	0.2071	0.24787	0.13005	0.23076	0.21135	0.11928	0.16209	0.032842	0.19695	0.088549	0.12749	0.091064	-1.925	-2.8979	-2.425	-2.6583	-2.9313	-2.2354	-2.7562	-3.0333	-2.0104	-2.7542	-2.6813	-2.2083	-3.1208	-2.1333	-2.4854	-2.8208	19.240	80.392	224.955	-23.724	60.326	59.745	-42.021	222.066	214.898	56.901	217.246	216.708	299.665	71.615	-33.811	201.411	0.00014635	0.00042672	0.00013468	1362	4.2488e-06	5.1746e-06	1358.5	365.12	1.6951e-06	4.3868e-06	417.88	138.28	121.05	41.87	3.5356e-06	51.843	0.000474	0.00053114	0.00015416	1379.8	5.8543e-06	5.8193e-06	1377.2	372.81	5.9588e-06	5.7114e-06	425.84	142.56	124.14	42.896	5.9508e-06	53.012	174.619	42.513	46.958	-32.513	141.402	115.134	-32.501	-27.792	75.024	116.632	-28.407	-24.149	-23.440	-18.923	136.883	-19.602	-8191	255	
13055.356	1	1	0	0	0.12367	0.15918	0.093748	0.41335	0.26443	0.12031	0.28955	0.12041	0.12837	0.20191	0.049927	0.35429	0.35478	0.23832	0.069717	0.098815	-1.7958	-2.7042	-2.6417	-2.6417	-2.9104	-2.5021	-2.6729	-2.9958	-2.2083	-2.6479	-2.9042	-2.2562	-2.8958	-2.4479	-2.6125	-2.8688	309.006	124.138	-36.025	290.727	261.359	230.839	247.317	125.289	287.937	-33.544	272.943	281.036	306.649	290.901	157.122	3.818	0.00013115	0.00035771	0.00013956	1357.1	2.7028e-06	4.7052e-06	1351.3	365.26	2.8332e-06	4.6651e-06	417.43	138.24	120.91	41.54	4.2059e-06	51.957	0.000467	0.00053491	0.00015052	1379.6	5.911e-06	5.8423e-06	1375.5	372.77	5.9944e-06	5.8405e-06	425.79	142.69	123.89	42.711	5.7276e-06	53.053	170.847	33.567	49.286	-32.687	107.941	89.690	-32.472	-27.836	127.852	94.603	-28.196	-23.969	-23.384	-19.133	125.714	-19.697	-8191	255	
13055.476	1	1	0	0	0.41132	0.30961	0.12501	0.25944	0.15635	0.31563	0.33059	0.30749	0.27388	0.065269	0.14345	0.076298	0.10597	0.08813	0.043986	0.3089	-1.7625	-2.8104	-2.5979	-2.4271	-2.9479	-2.35	-2.5312	-3.1125	-2.1458	-2.5563	-2.7875	-2.2812	-2.8667	-2.3875	-2.4479	-2.8479	52.127	274.877	122.532	217.232	281.711	-2.781	277.080	289.887	-6.267	290.082	36.648	120.238	237.201	-35.167	149.182	274.958	0.00014702	0.00067567	0.00016904	1363.3	3.727e-06	5.7213e-06	1352.7	366.24	4.8935e-07	5.9062e-06	418.38	138.32	120.64	41.562	4.9567e-06	51.528	0.0004606	0.00054069	0.00014717	1380	5.7037e-06	5.8256e-06	1375.6	373.07	5.835e-06	5.8687e-06	425.57	142.43	123.94	42.792	5.8413e-06	53.039	168.522	58.553	44.531	-32.815	109.694	97.903	-32.502	-27.822	110.925	101.910	-28.166	-23.989	-23.196	-18.959	128.542	-19.350	-8191	255	
13055.571	1	1	0	0	0.0077335	0.12851	0.073064	0.31079	0.15779	0.18423	0.35135	0.2903	0.30454	0.11263	0.24689	0.24755	0.12133	0.30883	0.054314	0.079607	-1.8375	-2.6437	-2.6958	-2.3854	-2.9521	-2.4604	-2.3833	-2.9708	-2.3396	-2.6396	-2.7771	-2.2625	-2.8875	-2.7104	-2.0563	-2.9833	196.340	143.562	127.153	290.703	-40.377	299.290	261.309	275.726	0.076	280.327	275.584	18.603	184.425	-16.829	32.363	293.487	0.00016527	0.00056047	0.00014898	1364.6	3.8704e-06	3.3368e-06	1353.6	364.74	2.0317e-06	3.3091e-06	417.77	137.31	120.42	41.518	4.1878e-06	51.233	0.00047769	0.00053521	0.00014832	1378.9	5.825e-06	5.8223e-06	1376.9	372.52	5.886e-06	5.892e-06	425.51	142.21	123.91	42.702	5.7763e-06	52.937	156.921	30.859	76.226	-32.675	129.100	112.222	-32.715	-27.821	127.073	109.254	-28.060	-23.784	-23.521	-18.874	101.191	-19.601	-8191	255	
13055.667	1	1	0	0	0.11348	0.18693	0.14916	0.093128	0.11377	0.22362	0.45311	0.14819	0.055685	0.28662	0.1872	0.34872	0.2071	0.36067	0.1597	0.088977	-1.7896	-2.3333	-2.7562	-2.2562	-2.7438	-2.6292	-2.4417	-2.9583	-2.35	-2.4833	-2.9667	-2.3292	-2.825	-2.9271	-2.15	-2.9625	196.035	206.386	160.209	-37.290	191.253	261.818	256.640	266.555	22.154	313.181	287.994	-41.524	302.534	286.842	294.166	239.000	0.00014123	0.00046669	0.00014163	1356.7	3.8672e-06	4.5534e-06	1346.2	364.79	2.2247e-06	5.6231e-06	417.65	136.75	119.96	41.529	4.541e-06	51.577	0.00045912	0.00054057	0.00014941	1376.6	5.8517e-06	5.6916e-06	1371.8	371.94	5.8206e-06	5.8002e-06	425.04	141.97	123.57	42.694	5.7297e-06	52.85	171.131	52.970	38.096	-32.729	114.100	113.679	-32.413	-27.990	121.158	119.034	-28.374	-23.867	-23.361	-18.616	92.405	-19.638	-8191	255	
13055.763	1	1	0	0	0.12914	0.13614	0.18955	0.32914	0.17257	0.42239	0.26	0.30929	0.23748	0.10084	0.020432	0.14954	0.1391	0.19375	0.14238	0.1545	-1.975	-2.375	-3.0292	-2.2896	-2.6333	-2.7292	-2.5521	-2.9833	-2.4542	-2.1688	-3.0062	-2.3625	-2.6979	-2.8771	-2.1583	-2.8917	160.825	247.797	35.257	265.699	11.113	-10.416	235.917	272.228	-7.961	63.440	282.433	78.460	45.781	305.362	284.239	265.059	0.00014884	0.00029316	0.00015933	1363.2	3.3873e-06	5.1798e-06	1349.9	363.57	2.1808e-06	5.4481e-06	418.13	137.94	120.02	41.57	3.1193e-06	51.508	0.00045778	0.0005244	0.00014544	1378.1	5.541e-06	5.7839e-06	1371.7	371.65	5.7878e-06	5.6388e-06	425.07	142.11	123.6	42.736	5.8071e-06	52.83	170.320	48.152	44.310	-32.624	139.479	105.038	-32.571	-27.792	125.952	74.043	-28.142	-23.946	-23.443	-19.076	101.755	-19.651	-8191	255	
13055.884	1	1	0	0	0.27167	0.26177	0.22157	0.065315	0.1594	0.20018	0.11215	0.18051	0.28526	0.15181	0.40371	0.28698	0.26039	0.051562	0.25865	0.17158	-2.2458	-2.3688	-2.6042	-2.4917	-2.4333	-2.7521	-2.2292	-2.8104	-2.5	-2.2479	-2.8792	-2.4333	-2.5583	-3.0312	-2.1979	-2.7687	50.198	309.731	60.956	1.499	45.651	50.947	254.161	203.641	295.729	240.323	182.488	312.415	9.363	278.633	72.639	-30.290	0.00015414	0.000357	0.00017092	1356.1	3.3472e-06	4.9173e-06	1347.2	364.23	2.7566e-06	4.22e-06	416.64	136.92	120.1	41.492	2.7543e-06	51.266	0.0004498	0.00052575	0.00014312	1373.8	5.7508e-06	5.6422e-06	1372.4	371.29	5.7949e-06	5.6103e-06	424.74	141.92	123.51	42.682	5.8634e-06	52.841	168.825	29.698	43.434	-32.428	132.684	118.710	-32.535	-27.792	134.884	111.328	-28.144	-23.666	-23.756	-18.752	127.627	-19.462	-8191	255	
13055.955	1	1	0	0	0.035542	0.22064	0.18938	0.10578	0.062799	0.12536	0.18648	0.26341	0.18549	0.16341	0.38045	0.058427	0.19557	0.088988	0.096671	0.15549	-2.1937	-2.1667	-3.0729	-2.4625	-2.3479	-2.7	-2.3479	-2.8917	-2.7458	-2.2833	-2.9479	-2.3312	-2.5125	-3.1479	-2.2042	-2.725	146.305	230.420	155.586	258.730	187.185	13.395	275.884	286.567	194.548	225.526	287.910	-5.560	238.093	-20.568	-19.771	238.304	0.00015708	0.00038559	9.9764e-05	1359	3.5839e-06	3.245e-06	1342.7	363.86	2.0007e-06	5.3496e-06	415.38	136.94	120.05	41.492	6.0308e-06	51.354	0.00045924	0.00053646	0.00014195	1376.5	5.8525e-06	5.816e-06	1370.9	371.42	5.7282e-06	5.7864e-06	424.09	141.97	123.55	42.732	5.9974e-06	52.811	162.926	57.520	66.513	-32.456	99.785	103.415	-32.467	-27.726	156.562	105.262	-28.227	-23.888	-23.369	-19.013	104.543	-19.721	-8191	255	
13056.052	1	1	0	0	0.1229	0.21383	0.26707	0.036706	0.2946	0.2392	0.19981	0.14415	0.17262	0.14389	0.26321	0.21411	0.32492	0.13578	0.10899	0.29349	-2.2083	-2.0104	-2.7729	-2.5604	-2.2146	-2.7792	-2.5458	-2.7729	-2.7958	-2.1646	-2.9229	-2.6542	-2.5083	-2.9979	-2.3229	-2.5771	49.353	23.690	-30.177	89.227	14.301	272.809	233.515	264.295	118.106	48.597	221.854	300.639	308.714	227.735	209.527	-38.318	0.00013389	0.0004343	0.00014069	1355.8	3.4187e-06	4.3494e-06	1349.1	362.81	2.4917e-06	2.0648e-06	415.22	136.76	119.95	41.523	3.839e-06	51.311	0.00045359	0.00053934	0.00014787	1374.9	5.7642e-06	5.7321e-06	1371.4	371.53	5.6998e-06	5.5575e-06	424.08	141.59	123.38	42.675	5.8537e-06	52.741	170.111	33.383	47.785	-32.386	126.290	111.740	-32.252	-27.737	144.985	109.139	-28.272	-23.646	-23.450	-18.867	113.882	-19.761	-8191	255	
13056.172	1	1	0	0	0.09763	0.038422	0.30917	0.37694	0.25237	0.098092	0.14806	0.35135	0.26557	0.15803	0.14408	0.091626	0.28875	0.29797	0.34845	0.14275	-2.3583	-2.1479	-2.7771	-2.9458	-2.3396	-2.95	-2.4437	-2.7562	-2.7646	-2.2667	-2.8438	-2.7875	-2.3917	-2.9792	-2.4979	-2.5958	-8.090	218.388	102.527	244.694	104.718	277.910	186.737	238.140	24.988	99.593	107.990	259.063	-44.971	-40.589	41.431	221.612	0.00016395	0.0005058	9.1978e-05	1353	4.1832e-06	3.528e-06	1346.4	362.51	2.7272e-06	6.0906e-06	415.65	136.76	119.68	41.34	3.1159e-06	51.3	0.00044716	0.00052937	0.00014329	1374.1	5.7736e-06	5.7524e-06	1372.6	370.87	5.8094e-06	5.671e-06	424.33	142.07	123.55	42.638	5.8313e-06	52.801	173.218	52.668	51.562	-32.356	140.402	99.735	-32.243	-27.674	112.221	107.732	-28.320	-23.385	-23.307	-18.694	142.759	-19.857	-8191	255	
13056.268	1	1	0	0	0.1898	0.3161	0.09751	0.20723	0.35573	0.1646	0.085977	0.028747	0.077336	0.14364	0.22408	0.16247	0.2083	0.083675	0.091374	0.20572	-2.4792	-2.2208	-2.8	-2.8812	-2.3021	-2.7729	-2.5792	-2.5604	-2.875	-2.3875	-2.8625	-2.6625	-2.2604	-3.0354	-2.3083	-2.5	163.661	254.266	-26.021	295.140	200.856	23.340	137.325	-19.054	105.041	58.450	-30.123	240.400	199.713	-31.477	44.796	281.272	0.00015476	0.00033952	0.00016677	1354.9	4.1734e-06	5.3739e-06	1346.4	363.92	1.0918e-06	5.1824e-06	416.51	137.69	119.89	41.35	2.0579e-06	51.243	0.00045404	0.0005322	0.00014937	1375.4	5.8896e-06	5.6598e-06	1369.9	370.92	5.6968e-06	5.8817e-06	424.14	142.3	123.47	42.638	5.8371e-06	52.806	168.952	68.403	53.636	-32.476	91.122	95.266	-32.524	-27.824	155.789	90.829	-28.489	-23.644	-23.577	-19.016	116.255	-19.427	-8191	255	
13056.364	1	1	0	0	0.27475	0.085882	0.24686	0.26954	0.13031	0.13861	0.08645	0.087285	0.2439	0.26669	0.29701	0.14601	0.10099	0.10109	0.023402	0.26539	-2.4542	-2.1646	-2.5083	-3.2771	-2.0687	-2.65	-2.7687	-2.4458	-2.9271	-2.2417	-2.8	-2.675	-2.5125	-2.95	-2.5021	-2.3396	-1.626	1.932	-25.999	259.005	42.013	179.414	227.432	-44.460	283.009	142.347	293.099	298.688	308.762	179.200	192.972	175.361	0.00015164	0.00048358	0.00012963	1357.4	4.3906e-06	3.5802e-06	1348	362.86	2.2037e-06	4.0126e-06	416.92	136.52	119.77	41.488	3.069e-06	51.241	0.0004624	0.00053641	0.0001494	1375.3	5.7617e-06	5.8746e-06	1371.8	371.59	5.6724e-06	5.502e-06	424.57	141.76	123.48	42.742	5.775e-06	52.795	174.494	50.615	67.961	-32.389	127.350	119.174	-32.172	-27.751	146.144	83.858	-28.449	-23.717	-23.339	-18.878	123.333	-19.808	-8191	255	
13056.485	1	1	0	0	0.18464	0.091881	0.18329	0.21706	0.24423	0.16911	0.2024	0.22326	0.17587	0.067141	0.12162	0.12772	0.31474	0.098759	0.21003	0.28851	-2.5208	-2.2583	-2.3104	-2.8417	-2.1104	-2.5854	-2.7958	-2.2208	-2.8854	-2.4688	-2.5625	-3.1604	-2.4896	-2.8521	-2.6167	-2.35	79.566	28.379	257.661	304.118	116.285	251.509	241.205	264.282	59.495	269.966	208.776	-41.971	20.350	264.763	214.969	-3.008	0.00014369	0.0005214	0.00017491	1356	3.0105e-06	4.1136e-06	1353.2	362.49	1.254e-06	6.0206e-06	416.82	136.53	120.19	41.432	3.9823e-06	51.168	0.0004501	0.00053156	0.00014751	1375.6	5.9351e-06	5.8436e-06	1373.4	370.98	5.6579e-06	5.8124e-06	424.46	142.08	123.58	42.69	5.8816e-06	52.8	170.981	45.492	29.297	-32.431	130.024	124.101	-32.414	-27.757	95.467	106.217	-28.249	-23.621	-23.465	-18.722	131.369	-19.585	-8191	255	
13056.555	1	1	0	0	0.13925	0.11065	0.13238	0.11486	0.082854	0.32775	0.40797	0.22626	0.087395	0.1685	0.11073	0.26999	0.34053	0.095401	0.2157	0.13914	-2.3354	-2.2958	-2.2562	-3.1229	-2.1146	-2.675	-3.0229	-2.6417	-2.7646	-2.5458	-2.5042	-2.9708	-2.4229	-2.4958	-2.8458	-2.4208	291.251	66.443	133.029	247.714	266.533	225.215	261.285	282.299	252.191	170.033	221.723	293.366	296.360	253.705	293.106	-13.027	0.00014679	0.00047239	0.00017956	1353.9	1.8676e-06	4.0033e-06	1348.1	361.11	2.7552e-06	5.7312e-06	414.42	136.61	119.89	41.329	2.2344e-06	51.381	0.00046566	0.00054323	0.00014839	1376.5	5.8883e-06	5.9494e-06	1375.2	370.28	5.6427e-06	5.9418e-06	423.97	141.8	123.44	42.617	5.8761e-06	52.875	176.823	48.696	47.014	-32.539	120.298	105.508	-32.197	-27.495	96.269	117.762	-28.207	-23.951	-23.065	-18.640	100.022	-19.333	-8191	255	
13056.653	1	1	0	0	0.11399	0.085554	0.10087	0.077002	0.064034	0.10287	0.18176	0.14117	0.22386	0.13507	0.22422	0.12442	0.19658	0.072581	0.18912	0.12545	-2.3708	-2.4604	-2.3187	-3.1188	-2.1396	-2.4729	-2.95	-2.2854	-2.7562	-2.7104	-2.3479	-2.8833	-2.4562	-2.4562	-3.0354	-2.3729	-4.689	-29.477	-23.988	311.204	-32.771	279.534	237.866	245.823	211.709	272.150	282.640	24.862	200.344	279.299	205.166	260.844	0.00015008	0.00053518	0.00012557	1353.2	3.0013e-06	4.5414e-06	1347	363.11	3.1784e-06	2.803e-06	416.02	136.72	119.59	41.2	3.289e-06	51.387	0.00046207	0.00054589	0.00014784	1375.5	5.842e-06	5.9642e-06	1372.3	371.44	5.7665e-06	5.6241e-06	424.06	142.01	123.49	42.649	5.8139e-06	52.84	167.440	34.542	41.733	-32.393	122.205	88.169	-32.498	-27.560	127.782	110.979	-28.107	-23.889	-23.068	-18.951	77.820	-19.590	-8191	255	
13056.747	1	1	0	0	0.053206	0.30888	0.053185	0.20217	0.078147	0.18446	0.20331	0.14172	0.24492	0.16578	0.17608	0.18515	0.064161	0.16716	0.14102	0.068045	-2.3208	-2.6271	-2.2188	-3.0583	-2.4479	-2.5229	-3.1271	-2.5167	-2.7562	-2.8354	-2.35	-2.9542	-2.6729	-2.4042	-3.0312	-2.4667	217.742	40.598	61.876	284.498	204.080	159.035	287.707	307.246	5.919	42.025	306.638	283.553	78.463	-28.717	76.663	239.033	0.00014726	0.0003553	0.00011933	1355.3	3.8461e-06	5.7025e-06	1348.1	361.94	1.9316e-06	5.7308e-06	415.5	136.28	119.75	41.352	4.2175e-06	51.666	0.00045388	0.00053747	0.0001477	1376.2	5.7724e-06	5.908e-06	1374.1	371.18	5.7538e-06	5.8996e-06	424.54	141.71	123.55	42.642	5.8282e-06	52.87	169.687	39.345	40.404	-32.450	121.555	121.499	-32.042	-27.571	169.676	132.590	-28.180	-23.651	-23.162	-18.893	127.825	-19.394	-8191	255	
13056.845	1	1	0	0	0.3109	0.32631	0.062371	0.22215	0.36102	0.20621	0.22875	0.16963	0.2098	0.092523	0.33665	0.14282	0.14726	0.099702	0.075362	0.25471	-2.275	-2.8354	-2.2188	-3.0542	-2.6	-2.2333	-3.1917	-2.5333	-2.4667	-2.9896	-2.3375	-2.8187	-2.7104	-2.4458	-2.9292	-2.5583	178.796	189.159	109.794	251.820	178.873	221.045	259.096	233.833	236.858	150.208	195.330	-25.492	128.241	181.523	24.131	12.431	0.00017602	0.00050518	0.00013384	1354.1	3.8878e-06	2.9288e-06	1349	363.49	2.3349e-06	5.0562e-06	414.73	137.14	120.14	41.447	3.1632e-06	51.203	0.00046836	0.00053565	0.00015268	1375.6	5.8591e-06	5.8749e-06	1374.9	371.59	5.7681e-06	5.7715e-06	423.73	142.23	123.7	42.671	5.9443e-06	52.722	165.384	60.278	25.063	-32.422	121.547	116.926	-32.335	-27.770	109.207	91.212	-28.334	-23.882	-23.091	-18.939	111.402	-19.424	-8191	255	
13056.964	1	1	0	0	0.32904	0.30372	0.17145	0.33711	0.14947	0.20005	0.22341	0.21147	0.085181	0.18532	0.10232	0.14287	0.11963	0.013957	0.12628	0.16824	-2.1771	-2.9437	-2.1083	-2.9	-2.7167	-2.3542	-2.9271	-2.675	-2.3583	-3.0438	-2.2271	-2.7438	-2.7646	-2.3958	-2.9604	-2.6937	60.051	249.072	210.670	286.965	231.967	-28.367	200.334	289.775	226.311	36.458	90.391	313.575	35.583	312.202	268.118	6.314	0.00015036	0.00045281	9.3164e-05	1357.7	3.769e-06	3.4261e-06	1349.4	361.67	2.7364e-06	4.5446e-06	415.07	136.53	119.92	41.411	2.806e-06	51.583	0.00047129	0.00053218	0.00015162	1377.7	5.7744e-06	5.9299e-06	1373.2	370.57	6.0246e-06	5.8909e-06	423.74	141.98	123.52	42.721	5.8721e-06	52.926	170.530	48.998	60.131	-32.522	141.067	87.004	-32.483	-27.797	106.391	125.602	-28.291	-23.757	-23.284	-18.949	128.396	-19.485	-8191	255	
13057.060	1	1	0	0	0.21924	0.026807	0.2945	0.089447	0.13923	0.073013	0.33188	0.35034	0.20573	0.04474	0.18877	0.11058	0.015978	0.17323	0.055445	0.21934	-2.0375	-2.9417	-2.3	-2.9833	-2.5958	-1.9979	-2.9333	-2.6083	-2.3875	-2.8875	-2.5125	-2.7646	-2.8542	-2.35	-2.8667	-2.7833	72.976	199.998	194.444	270.915	312.612	120.826	267.922	273.347	3.548	-3.533	264.655	9.366	124.154	136.702	28.703	-32.869	0.00015547	0.00064831	0.00019631	1352.8	2.4804e-06	3.0134e-06	1353.7	364.24	1.1664e-06	4.2203e-06	414.19	137.26	119.91	41.354	3.1885e-06	51.259	0.00046081	0.00055027	0.0001516	1376.4	5.8082e-06	5.9406e-06	1375.2	371.99	5.8771e-06	5.8154e-06	423.49	142.11	123.66	42.683	5.9045e-06	52.756	179.570	46.324	44.351	-32.554	100.146	77.490	-32.411	-27.714	113.713	91.374	-28.182	-23.697	-23.285	-19.010	114.675	-19.464	-8191	255	
13057.156	1	1	0	0	0.21462	0.35347	0.11694	0.24186	0.1493	0.17822	0.55872	0.10629	0.051101	0.097482	0.21898	0.2684	0.13124	0.14099	0.15111	0.20385	-1.7271	-2.8979	-2.2583	-2.6813	-2.7646	-2.3667	-2.9729	-2.8083	-2.2687	-2.9104	-2.4792	-2.5812	-2.8875	-2.3063	-2.5062	-2.7292	32.405	-13.109	291.749	21.721	248.380	262.097	243.910	296.724	204.610	-34.493	-18.502	218.383	279.893	183.007	53.620	204.264	0.00012993	0.00051793	0.00012784	1354.9	2.754e-06	5.9252e-06	1348	362.04	1.5908e-06	4.6575e-06	415.29	136.63	119.95	41.383	2.3918e-06	51.251	0.00046579	0.00053136	0.00015081	1376.1	5.84e-06	5.9439e-06	1372.4	371.22	5.9099e-06	5.9584e-06	424.17	141.93	123.55	42.61	5.9788e-06	52.723	176.638	31.119	48.249	-32.390	85.503	111.821	-32.309	-27.689	119.836	99.764	-28.144	-23.724	-23.352	-18.710	116.979	-19.499	-8191	255	
13057.253	1	1	0	0	0.17248	0.12288	0.16874	0.3616	0.26786	0.12051	0.16159	0.26651	0.2488	0.17692	0.08759	0.18511	0.19085	0.14375	0.22273	0.24573	-1.8021	-2.8125	-2.3875	-2.4042	-2.8667	-2.2042	-2.7542	-2.9125	-2.3375	-2.8646	-2.4479	-2.4125	-2.9917	-2.4875	-2.6396	-2.9458	128.229	9.465	281.701	285.732	244.995	-27.460	72.207	212.944	-26.808	204.728	148.510	260.579	216.419	251.880	264.669	198.056	0.00015255	0.00046293	0.00019653	1351.3	4.5719e-06	5.679e-06	1341.2	362.53	1.6254e-06	5.573e-06	413.88	136.69	120.45	41.3	3.64e-06	51.131	0.00046841	0.00053964	0.00015014	1375.8	5.9567e-06	6.1171e-06	1371.3	371.36	6.0098e-06	5.9825e-06	423.66	141.71	123.66	42.678	5.8555e-06	52.742	177.088	52.229	61.304	-32.424	124.987	99.428	-32.260	-27.654	150.931	109.465	-28.072	-23.758	-23.410	-18.880	125.281	-19.434	-8191	255	
13057.349	1	1	0	0	0.10035	0.17613	0.21249	0.2411	0.18058	0.081218	0.13619	0.37471	0.12784	0.20932	0.1971	0.023834	0.059441	0.36255	0.1762	0.22132	-1.7479	-2.8125	-2.4396	-2.5375	-2.8417	-2.3625	-2.7771	-3.0917	-2.3896	-2.7167	-2.7146	-2.4958	-3.0229	-2.4208	-2.55	-2.7708	244.266	181.465	-7.331	271.468	114.290	-13.770	259.425	268.549	46.926	37.284	271.446	108.845	-6.232	187.773	-44.255	259.444	0.00013889	0.00033526	0.00016509	1351.7	3.0438e-06	3.9274e-06	1347.5	360.91	2.9019e-06	5.2329e-06	414.2	135.97	119.88	41.332	2.0481e-06	51.303	0.00046697	0.00055049	0.00015093	1376	5.8494e-06	5.9905e-06	1374	370.85	5.9454e-06	5.9462e-06	424.12	141.77	123.66	42.62	5.9851e-06	52.789	164.151	51.506	45.347	-32.429	122.321	110.028	-32.355	-27.567	143.197	131.340	-28.188	-24.012	-23.189	-18.498	109.100	-19.518	-8191	255	
13057.445	1	1	0	0	0.15299	0.013685	0.34777	0.12518	0.081926	0.23114	0.09003	0.26391	0.084448	0.10125	0.20861	0.26587	0.15254	0.27055	0.3001	0.07258	-1.6458	-2.7125	-2.6271	-2.4521	-2.875	-2.3187	-2.5771	-2.9104	-2.1125	-2.8312	-2.9042	-2.3167	-2.9188	-2.7125	-2.2792	-2.8458	230.213	237.425	163.050	271.294	165.827	209.980	207.087	284.114	248.571	-30.077	245.831	-35.504	196.519	-11.516	271.812	205.877	0.00015597	0.00041709	0.00017167	1354.8	2.7026e-06	5.4256e-06	1346.5	361.78	2.3813e-06	5.6252e-06	415.69	136.96	119.69	41.321	4.7672e-06	51.053	0.00045881	0.00053614	0.00014969	1375.5	5.7897e-06	6.1048e-06	1373.2	371.62	5.9599e-06	5.9047e-06	424.41	141.78	123.52	42.657	6.0493e-06	52.78	169.758	20.224	41.577	-32.507	141.061	97.030	-32.279	-27.522	80.366	104.797	-27.871	-23.770	-23.284	-19.053	100.714	-19.278	-8191	255	
13057.565	1	1	0	0	0.26444	0.14004	0.16676	0.29093	0.1484	0.11559	0.14042	0.12485	0.074219	0.21208	0.32323	0.11718	0.14408	0.20669	0.20698	0.090656	-1.8396	-2.4854	-2.6521	-2.425	-3.0021	-2.4896	-2.4792	-3.0271	-2.1896	-2.6021	-2.9167	-2.3771	-3.1188	-2.4938	-2.3771	-2.8583	205.703	293.876	180.462	-15.864	300.246	129.054	263.918	163.773	173.144	281.930	-33.004	228.667	-32.278	291.438	214.805	54.116	0.00014342	0.00048812	0.00014228	1349.9	4.6837e-06	5.2911e-06	1346.5	362.16	1.5423e-06	5.0428e-06	413.17	136.32	119.79	41.124	2.7963e-06	51.002	0.00047246	0.00054739	0.000153	1374.4	5.9766e-06	5.9119e-06	1372.5	371.8	5.8046e-06	5.9023e-06	423.91	142.01	123.68	42.611	6.0451e-06	52.854	163.612	48.821	63.450	-32.275	112.571	115.521	-32.233	-27.349	100.764	82.402	-28.074	-23.653	-23.186	-18.473	137.509	-19.400	-8191	255	
13057.660	1	1	0	0	0.35214	0.1327	0.076456	0.47276	0.11009	0.20947	0.11222	0.2401	0.16661	0.15343	0.23512	0.26897	0.087518	0.11385	0.080856	0.17797	-1.9937	-2.4375	-2.8271	-2.3958	-2.7354	-2.5604	-2.4938	-3.1292	-2.3167	-2.4083	-2.9104	-2.4458	-2.8438	-2.7521	-2.25	-3.0708	0.475	253.019	269.005	289.026	-35.733	214.528	173.924	-29.082	268.716	48.700	247.879	290.706	289.831	-1.243	269.230	215.378	0.00014444	0.00044514	8.8947e-05	1349.8	4.5488e-06	4.5975e-06	1342	361.87	3.2299e-06	5.3975e-06	412.37	136.46	119.43	41.329	2.7746e-06	51.094	0.00047268	0.00055308	0.00014848	1375.4	6.0203e-06	6.0406e-06	1372.9	371.77	5.9457e-06	5.9334e-06	424.17	141.83	123.54	42.74	6.0778e-06	52.839	158.969	39.334	36.351	-32.233	134.191	91.462	-32.156	-27.317	139.967	117.147	-27.828	-23.389	-23.082	-18.717	117.095	-19.257	-8191	255	
13057.756	1	1	0	0	0.089581	0.14024	0.027091	0.3385	0.21302	0.2792	0.23376	0.11672	0.084894	0.037894	0.25643	0.097537	0.13733	0.25479	0.15546	0.095169	-1.9292	-2.325	-2.8833	-2.475	-2.6229	-2.7354	-2.4708	-3.1542	-2.4354	-2.5563	-3.0167	-2.3521	-2.7542	-2.9854	-2.3021	-2.9542	176.426	-34.607	56.787	-30.351	201.136	70.816	165.002	293.011	49.405	278.691	258.400	172.604	237.302	235.155	226.184	255.246	0.00013561	0.00037273	8.0149e-05	1354.8	3.3574e-06	6.35e-06	1349.1	363.07	2.6512e-06	4.6135e-06	414.04	137.2	119.93	41.308	1.4302e-06	50.991	0.00047525	0.00054175	0.00015222	1377.8	6.0152e-06	6.1601e-06	1375.9	371.82	6.1301e-06	6.0618e-06	423.97	142.05	123.92	42.697	6.0454e-06	52.75	171.593	58.577	34.929	-32.397	138.297	122.379	-32.285	-27.633	115.456	85.762	-27.927	-23.630	-23.241	-18.708	88.095	-19.007	-8191	255	
13057.852	1	1	0	0	0.25818	0.24753	0.19055	0.18326	0.030066	0.054783	0.066022	0.15224	0.16133	0.12531	0.23758	0.28188	0.13308	0.11945	0.089012	0.10212	-2.0938	-2.2479	-2.8063	-2.35	-2.6771	-2.6771	-2.2958	-2.9437	-2.625	-2.1292	-3.1042	-2.3396	-2.65	-2.7188	-2.0146	-2.8958	166.822	310.918	77.826	2.868	74.684	306.324	279.254	280.356	235.731	75.620	274.095	259.199	280.956	168.507	-13.006	243.762	0.00013682	0.00051229	0.00013322	1350.3	3.0324e-06	6.2347e-06	1344.5	361.12	3.0063e-06	4.627e-06	415.58	136.82	119.39	41.265	4.1424e-06	51.252	0.00046864	0.00054646	0.00015003	1376.7	5.9962e-06	5.9713e-06	1374	371.12	5.8964e-06	5.9714e-06	424.8	142.03	123.57	42.703	5.9809e-06	52.793	169.500	44.992	29.605	-32.152	120.942	104.996	-32.081	-27.530	116.992	119.488	-27.843	-23.500	-22.899	-18.565	100.569	-19.315	-8191	255	
#DATA ENDS
