BOXY.EXE: ISS Imagent and Oximeter Data Acquisition Program Version 0.80
Ascii Record File

#ACQ INFORMATION
2  Detector Channels 
16  External MUX Channels 
1  Auxiliary Channels 
5000  Waveform (CCF) Frequency (Hz)
1  Waveforms Skipped 
30  Waveforms Averaged 
1  Cycles Averaged 
16  Acquisitions per Waveform 
10.0806  Updata Rate (Hz) 

#FILE INFORMATION
TRUE -- External MUX Channel results are PARSED.
FALSE -- AC DC and Phase are NOT grouped.
TRUE -- Companion Program Settings File CREATED.
FALSE -- AC data not excluded
FALSE -- DC data not excluded
FALSE -- Phase data not excluded
FALSE -- Auxillary Chn. data not excluded
Tab delimiters

#CALIBRATION STATE
TRUE -- Waveform Calibration Values APPLIED.


#AUX CALIBRATION VALUES
Val Type	aux-1	

Term	1.0000e+00	
Factor	0.0000e+00	


#WF CALIBRATION VALUES
A = Detector Channel
Val Type	A-AC1	A-AC2	A-AC3	A-AC4	A-AC5	A-AC6	A-AC7	A-AC8	A-AC9	A-AC10	A-AC11	A-AC12	A-AC13	A-AC14	A-AC15	A-AC16	A-DC1	A-DC2	A-DC3	A-DC4	A-DC5	A-DC6	A-DC7	A-DC8	A-DC9	A-DC10	A-DC11	A-DC12	A-DC13	A-DC14	A-DC15	A-DC16	A-Ph1	A-Ph2	A-Ph3	A-Ph4	A-Ph5	A-Ph6	A-Ph7	A-Ph8	A-Ph9	A-Ph10	A-Ph11	A-Ph12	A-Ph13	A-Ph14	A-Ph15	A-Ph16	

Term	0.00000e+00	0.00000e+00	0.00000e+00	0.00000e+00	0.00000e+00	0.00000e+00	0.00000e+00	0.00000e+00	0.00000e+00	0.00000e+00	0.00000e+00	0.00000e+00	0.00000e+00	0.00000e+00	0.00000e+00	0.00000e+00	0.00000e+00	0.00000e+00	0.00000e+00	0.00000e+00	0.00000e+00	0.00000e+00	0.00000e+00	0.00000e+00	0.00000e+00	0.00000e+00	0.00000e+00	0.00000e+00	0.00000e+00	0.00000e+00	0.00000e+00	0.00000e+00	0.00000e+00	0.00000e+00	0.00000e+00	0.00000e+00	0.00000e+00	0.00000e+00	0.00000e+00	0.00000e+00	0.00000e+00	0.00000e+00	0.00000e+00	0.00000e+00	0.00000e+00	0.00000e+00	0.00000e+00	0.00000e+00	
Factor	1.00000e+00	1.00000e+00	1.00000e+00	1.00000e+00	1.00000e+00	1.00000e+00	1.00000e+00	1.00000e+00	1.00000e+00	1.00000e+00	1.00000e+00	1.00000e+00	1.00000e+00	1.00000e+00	1.00000e+00	1.00000e+00	1.00000e+00	1.00000e+00	1.00000e+00	1.00000e+00	1.00000e+00	1.00000e+00	1.00000e+00	1.00000e+00	1.00000e+00	1.00000e+00	1.00000e+00	1.00000e+00	1.00000e+00	1.00000e+00	1.00000e+00	1.00000e+00	X	X	X	X	X	X	X	X	X	X	X	X	X	X	X	X	

B = Detector Channel
Val Type	B-AC1	B-AC2	B-AC3	B-AC4	B-AC5	B-AC6	B-AC7	B-AC8	B-AC9	B-AC10	B-AC11	B-AC12	B-AC13	B-AC14	B-AC15	B-AC16	B-DC1	B-DC2	B-DC3	B-DC4	B-DC5	B-DC6	B-DC7	B-DC8	B-DC9	B-DC10	B-DC11	B-DC12	B-DC13	B-DC14	B-DC15	B-DC16	B-Ph1	B-Ph2	B-Ph3	B-Ph4	B-Ph5	B-Ph6	B-Ph7	B-Ph8	B-Ph9	B-Ph10	B-Ph11	B-Ph12	B-Ph13	B-Ph14	B-Ph15	B-Ph16	

Term	0.00000e+00	0.00000e+00	0.00000e+00	0.00000e+00	0.00000e+00	0.00000e+00	0.00000e+00	0.00000e+00	0.00000e+00	0.00000e+00	0.00000e+00	0.00000e+00	0.00000e+00	0.00000e+00	0.00000e+00	0.00000e+00	0.00000e+00	0.00000e+00	0.00000e+00	0.00000e+00	0.00000e+00	0.00000e+00	0.00000e+00	0.00000e+00	0.00000e+00	0.00000e+00	0.00000e+00	0.00000e+00	0.00000e+00	0.00000e+00	0.00000e+00	0.00000e+00	-8.63402e+01	-1.28301e+02	-1.03800e+02	-1.75865e+02	-1.14073e+01	-9.31957e+01	-1.64450e+02	-1.61923e+02	-3.25388e+01	-6.50733e+01	-1.79394e+02	-1.69306e+02	-1.75795e+02	-1.70708e+02	-7.57699e+01	-1.59905e+02	
Factor	3.75157e-04	1.23413e-03	3.18699e-04	1.70450e-01	4.10421e-06	1.94945e-05	2.78808e-01	2.32519e-01	9.50602e-06	1.69483e-05	5.42727e+00	2.80746e-01	2.09241e-01	2.33913e-01	1.51734e-05	3.71430e-01	3.15923e-05	3.36516e-05	9.32732e-06	6.64208e-02	3.05018e-07	3.68882e-07	1.02746e-01	9.20121e-02	3.49895e-07	3.70854e-07	1.93302e+00	1.06642e-01	8.34840e-02	9.01328e-02	3.70025e-07	1.37825e-01	X	X	X	X	X	X	X	X	X	X	X	X	X	X	X	X	



#DISTANCE SETTINGS
A = Detector Channel
A-1	A-2	A-3	A-4	A-5	A-6	A-7	A-8	A-9	A-10	A-11	A-12	A-13	A-14	A-15	A-16	

1.0000e+01	1.0000e+01	1.0000e+01	1.4500e+00	1.0000e+01	1.0000e+01	1.5100e+00	1.9500e+00	1.0000e+01	1.0000e+01	2.0100e+00	2.5000e+00	2.4400e+00	2.9500e+00	1.0000e+01	3.0100e+00	

B = Detector Channel
B-1	B-2	B-3	B-4	B-5	B-6	B-7	B-8	B-9	B-10	B-11	B-12	B-13	B-14	B-15	B-16	

1.0000e+01	1.0000e+01	1.0000e+01	1.4500e+00	1.0000e+01	1.0000e+01	1.5100e+00	1.9500e+00	1.0000e+01	1.0000e+01	2.0100e+00	2.5000e+00	2.4400e+00	2.9500e+00	1.0000e+01	3.0100e+00	




#DATA BEGINS
time	group	step	mark	flag	A-AC1	A-AC2	A-AC3	A-AC4	A-AC5	A-AC6	A-AC7	A-AC8	A-AC9	A-AC10	A-AC11	A-AC12	A-AC13	A-AC14	A-AC15	A-AC16	A-DC1	A-DC2	A-DC3	A-DC4	A-DC5	A-DC6	A-DC7	A-DC8	A-DC9	A-DC10	A-DC11	A-DC12	A-DC13	A-DC14	A-DC15	A-DC16	A-Ph1	A-Ph2	A-Ph3	A-Ph4	A-Ph5	A-Ph6	A-Ph7	A-Ph8	A-Ph9	A-Ph10	A-Ph11	A-Ph12	A-Ph13	A-Ph14	A-Ph15	A-Ph16	B-AC1	B-AC2	B-AC3	B-AC4	B-AC5	B-AC6	B-AC7	B-AC8	B-AC9	B-AC10	B-AC11	B-AC12	B-AC13	B-AC14	B-AC15	B-AC16	B-DC1	B-DC2	B-DC3	B-DC4	B-DC5	B-DC6	B-DC7	B-DC8	B-DC9	B-DC10	B-DC11	B-DC12	B-DC13	B-DC14	B-DC15	B-DC16	B-Ph1	B-Ph2	B-Ph3	B-Ph4	B-Ph5	B-Ph6	B-Ph7	B-Ph8	B-Ph9	B-Ph10	B-Ph11	B-Ph12	B-Ph13	B-Ph14	B-Ph15	B-Ph16	aux-1	digaux	

1515.658	1	1	0	768	0.23749	0.12558	0.22951	0.41558	0.032295	0.075815	0.14809	0.083578	0.19856	0.25535	0.056081	0.12869	0.11704	0.27664	0.18006	0.2733	-2.3812	-2.6375	-2.2792	-2.8875	-2.2	-2.6125	-2.8896	-2.2687	-2.6729	-2.6292	-2.2521	-2.9958	-2.4396	-2.2771	-2.7833	-1.9833	178.133	-95.787	133.073	134.933	89.362	158.071	119.651	149.276	-45.455	12.881	-76.965	196.609	65.730	-63.779	110.302	51.264	0.00018446	0.00041833	0.0001408	906.26	2.0242e-06	4.0673e-06	1116.1	338.18	3.2657e-06	1.0722e-05	430.97	170	139.74	53.297	4.0875e-06	65.011	0.0023533	0.0024744	0.00068832	899.67	2.3203e-05	2.7147e-05	1120.3	346.81	2.6069e-05	2.7393e-05	544.68	177.71	146.39	58.802	2.7045e-05	73.101	-121.493	26.879	72.025	-130.128	-43.497	111.465	-131.719	-124.509	-66.067	-38.233	-126.976	-122.531	-119.838	-115.146	135.240	-118.436	-8191	255	
1515.754	1	1	0	0	0.010346	0.035813	0.18571	0.16772	0.23699	0.082205	0.31647	0.12769	0.16904	0.17133	0.34965	0.29812	0.22158	0.24266	0.18191	0.34925	-2.3604	-2.6	-2.0583	-3.1146	-2.6792	-2.3375	-3.0229	-2.3417	-2.8271	-2.8833	-2.0563	-2.7729	-2.3042	-2.3917	-2.9771	-2.0583	-25.615	-114.324	-28.487	196.978	166.523	19.888	152.433	147.984	-140.803	103.588	143.143	25.197	194.296	42.162	-44.924	79.989	0.00045196	0.00092217	0.00024862	902.74	3.7638e-07	8.7113e-06	1111.4	339.25	6.9006e-06	6.7952e-06	432.8	170.16	139.87	53.808	4.1555e-06	65.568	0.00237	0.0024589	0.00068657	898.42	2.3084e-05	2.7207e-05	1116.4	347.42	2.6103e-05	2.7213e-05	542.78	178.05	146.86	58.963	2.7266e-05	73.147	-99.802	-44.955	-32.032	-129.994	-39.329	-59.400	-131.619	-124.474	-8.610	-112.503	-127.022	-122.835	-120.046	-115.196	-118.534	-118.664	-8191	255	
1515.850	1	1	0	0	0.1575	0.10069	0.31953	0.13592	0.060358	0.089069	0.061229	0.085024	0.14045	0.16926	0.47544	0.14563	0.35005	0.1698	0.019415	0.2156	-2.45	-2.7646	-2.0812	-3.0521	-2.4646	-2.3896	-2.9417	-2.2542	-2.6208	-2.9708	-2.2521	-2.8708	-2.4313	-2.2	-2.9104	-2.2146	134.362	211.633	83.631	-132.961	197.712	100.533	217.125	-89.044	-59.827	176.512	103.428	194.731	121.133	-132.452	99.991	-25.140	0.00023024	0.00064266	5.6572e-05	905.05	1.2594e-06	8.6156e-06	1121.1	340.29	7.3079e-06	8.8738e-06	433.89	172.56	141.15	54.401	5.94e-06	66.819	0.0023754	0.0024769	0.00069129	900.91	2.3223e-05	2.7325e-05	1126.9	348.32	2.6281e-05	2.7355e-05	546.96	180.57	147.8	59.427	2.72e-05	74.644	-85.553	-91.430	19.817	-130.035	-94.508	-21.618	-131.593	-124.532	17.039	-14.517	-127.034	-122.606	-120.040	-115.024	-15.134	-118.608	-8191	255	
1515.947	1	1	0	0	0.22992	0.088796	0.089904	0.098132	0.23223	0.22521	0.21088	0.28812	0.49209	0.068245	0.086552	0.11625	0.086989	0.34356	0.078778	0.19467	-1.9958	-2.675	-2.1042	-2.9562	-2.6583	-2.2208	-3.0563	-2.4188	-2.3458	-2.9854	-2.1688	-2.7	-2.4875	-2.1479	-2.9604	-2.4313	206.315	-47.453	-16.905	-126.462	45.189	9.935	117.062	-142.343	-84.429	150.784	125.626	-86.159	-130.087	-27.146	212.594	17.666	0.00039049	0.0010039	6.7203e-05	925.32	2.5615e-06	5.1148e-06	1160.8	348.02	7.3892e-06	4.237e-06	451.38	178.69	145.2	55.592	5.1051e-06	68.753	0.0023856	0.0024808	0.00069288	920.66	2.3356e-05	2.728e-05	1166.2	355.63	2.6435e-05	2.7242e-05	562.33	186.06	151.63	60.969	2.7235e-05	76.5	-95.001	-94.537	-112.815	-130.132	-69.882	-9.775	-131.744	-124.493	-66.309	85.631	-127.186	-122.742	-119.834	-114.945	-14.425	-118.785	-8191	255	
1516.043	1	1	0	0	0.11515	0.031609	0.38252	0.27111	0.069674	0.35271	0.21063	0.22355	0.054383	0.082928	0.21429	0.050751	0.21927	0.17913	0.2421	0.044069	-1.9542	-2.8063	-2.2188	-2.7396	-2.7479	-2.0604	-3.125	-2.5021	-2.3396	-3.0292	-2.3875	-2.55	-2.5958	-2.0979	-3.1042	-2.4958	77.833	-100.996	130.534	195.822	204.909	84.087	-101.217	134.219	75.839	-84.624	-131.386	87.525	188.539	186.368	-119.613	-19.875	0.0006107	0.0006797	0.00015929	935.76	3.4307e-06	7.6516e-06	1167.9	351.32	6.6793e-06	5.3332e-06	450.53	180.15	145.65	55.819	6.8739e-06	68.951	0.0024036	0.0024826	0.00069189	932.16	2.3167e-05	2.7341e-05	1172.4	358.92	2.6211e-05	2.7113e-05	560	187.19	152.27	61.247	2.7365e-05	76.758	-95.408	199.906	-40.259	-130.114	-29.020	-40.439	-131.783	-124.633	10.589	43.919	-127.020	-122.926	-119.907	-115.126	48.068	-118.886	-8191	255	
1516.139	1	1	0	0	0.26154	0.1103	0.071886	0.25268	0.25312	0.16008	0.17336	0.14813	0.093883	0.28815	0.07569	0.22329	0.11133	0.40961	0.10381	0.19465	-1.8667	-2.9417	-2.0958	-2.6958	-2.7875	-2.2417	-2.9354	-2.4292	-2.3354	-2.9208	-2.4292	-2.5917	-2.9021	-2.2583	-2.6771	-2.8604	-135.148	23.433	10.555	-118.983	49.826	195.001	206.263	185.371	184.502	53.976	-97.211	-75.951	-50.855	4.466	188.747	-37.367	0.00038829	0.0003559	0.00025257	937.2	2.6687e-06	5.6499e-06	1172.5	349.8	5.2232e-06	6.7564e-06	452.92	177.62	145.27	55.713	3.4566e-06	68.168	0.0023906	0.0024557	0.00069024	932.62	2.3135e-05	2.7194e-05	1176	357.78	2.6058e-05	2.6806e-05	561.03	185.89	151.14	60.621	2.7101e-05	75.919	-99.221	-136.624	-51.873	-130.289	-39.737	-44.348	-131.841	-124.495	-61.678	70.762	-126.661	-122.762	-120.000	-115.014	207.745	-118.684	-8191	255	
1516.259	1	1	0	0	0.18096	0.085878	0.065376	0.026027	0.156	0.078543	0.33647	0.070186	0.08121	0.088014	0.025742	0.11379	0.10955	0.1051	0.02673	0.19716	-1.8604	-2.85	-2.5104	-2.7208	-2.8438	-2.2458	-2.9771	-2.7479	-2.2208	-2.9813	-2.6562	-2.4188	-3.05	-2.1854	-2.6771	-2.6542	169.077	77.521	-102.028	-126.885	-21.141	38.276	157.547	136.787	190.763	63.628	96.159	204.026	-12.382	173.902	5.060	-115.841	0.00033467	0.00067571	0.00017379	931.84	2.0157e-06	6.0255e-06	1174.8	346.52	5.9653e-06	4.0469e-06	446.03	176.49	142.36	54.239	1.3001e-05	67.88	0.0023544	0.0024329	0.00068657	925.99	2.2592e-05	2.6711e-05	1177.9	354.14	2.5442e-05	2.6504e-05	556.08	184.31	148.6	59.58	2.6578e-05	74.698	214.986	-42.164	-39.713	-130.115	22.006	-10.419	-131.823	-124.545	18.136	-106.043	-126.127	-122.557	-119.629	-115.285	11.794	-118.629	-8191	255	
1516.356	1	1	0	0	0.11046	0.11406	0.31196	0.14262	0.085341	0.35943	0.27365	0.12305	0.22838	0.20638	0.23224	0.13679	0.27811	0.22984	0.10578	0.26146	-1.9438	-2.9208	-2.2938	-2.4771	-2.8604	-2.25	-2.8125	-2.925	-1.9375	-2.9375	-2.5375	-2.3708	-2.8958	-2.1917	-2.7396	-2.9083	47.687	103.624	177.334	63.927	156.260	-114.758	156.861	97.098	-117.995	-63.864	-131.337	97.622	-70.535	-54.100	-89.638	-54.112	0.0004587	0.00016615	0.00013319	927.08	1.3808e-06	7.288e-06	1165.7	342	3.6432e-06	1.7204e-05	444.07	175.21	141.36	54.173	1.0913e-05	66.394	0.0022873	0.0023638	0.00065725	921.65	2.1802e-05	2.5597e-05	1169.8	349.87	2.4175e-05	2.5099e-05	545.64	182.56	146.89	58.723	2.4635e-05	73.153	-125.999	198.197	-8.672	-130.132	-20.530	-7.743	-131.729	-124.420	5.803	-16.439	-127.003	-122.537	-119.875	-114.695	-80.371	-118.704	-8191	255	
1516.450	1	1	0	0	0.14529	0.27884	0.051203	0.23602	0.080746	0.17981	0.080454	0.23039	0.042356	0.28229	0.19415	0.065335	0.20703	0.052249	0.41359	0.12551	-1.8375	-2.7625	-2.6646	-2.4875	-2.9167	-2.1896	-2.5062	-2.8833	-2.0604	-2.7062	-2.6562	-1.9104	-3.0208	-2.2792	-2.3292	-2.9146	-18.243	-141.466	182.507	203.381	-123.366	190.843	151.674	211.069	158.488	14.981	-98.066	117.171	-86.154	-88.701	-62.139	-34.811	0.00035322	0.00032386	0.00029458	909.57	4.0773e-06	1.5181e-05	1115.9	337.71	4.6713e-06	2.0853e-06	433.01	169.51	138.93	53.409	1.3262e-05	63.837	0.0021268	0.0022137	0.00061453	900.82	2.0443e-05	2.3834e-05	1115.9	344.09	2.2803e-05	2.365e-05	520.44	176.32	144.68	57.662	2.3372e-05	70.72	-96.644	-82.705	-48.475	-130.305	-3.937	-9.963	-131.917	-124.578	-84.081	45.909	-127.166	-122.772	-119.720	-114.680	-24.462	-118.570	-8191	255	
1516.548	1	1	0	0	0.07081	0.25942	0.10772	0.20076	0.027613	0.24488	0.071506	0.18307	0.26711	0.14228	0.044093	0.21966	0.17421	0.19126	0.074431	0.16648	-1.8042	-2.5042	-2.6917	-2.3146	-2.9375	-2.5312	-2.3854	-2.9958	-2.3917	-2.6646	-2.6979	-2.0896	-2.9604	-2.6312	-2.2354	-2.8438	-74.186	-128.424	112.187	-138.387	-122.458	196.082	143.807	110.556	-6.067	211.343	-126.524	-70.552	-99.023	187.488	22.429	7.553	0.0003841	0.00025637	0.00015351	891.18	2.0103e-06	1.3314e-05	1088.3	334.92	7.4101e-06	1.4812e-06	425.17	167.12	138.35	53.26	1.0722e-05	63.316	0.0020145	0.0021276	0.00058379	883.93	1.9416e-05	2.3017e-05	1090.6	341.31	2.2163e-05	2.2994e-05	511.51	173.61	143.83	57.324	2.2672e-05	69.808	-117.959	1.621	0.754	-130.160	-35.289	-9.691	-131.764	-124.519	-35.198	121.286	-126.754	-122.800	-120.061	-114.817	-13.888	-119.038	-8191	255	
1516.642	1	1	0	0	0.2015	0.2073	0.025774	0.10004	0.22883	0.21792	0.21588	0.13524	0.23713	0.19305	0.076533	0.048879	0.19242	0.22397	0.17959	0.038348	-1.9625	-2.6312	-2.75	-2.1896	-2.9021	-2.6312	-2.4	-2.8438	-2.4104	-2.5625	-2.8083	-2.2313	-2.8229	-2.7229	-2.1771	-2.725	166.386	9.394	90.327	-14.366	-122.513	127.498	183.159	-137.958	-16.388	-108.212	-124.605	-89.268	-27.005	84.788	10.853	170.160	0.00039976	0.00035882	0.00025014	872.59	2.7625e-06	1.1957e-05	1060.2	330.73	4.4818e-06	6.5261e-06	418.98	165.42	138.58	53.272	3.0743e-06	63.256	0.0019783	0.0020599	0.00056456	867.27	1.9207e-05	2.2424e-05	1062.9	337.27	2.1696e-05	2.2665e-05	501.8	171.82	143.24	57.072	2.2586e-05	69.44	-83.463	212.761	-109.338	-130.034	11.330	98.801	-131.703	-124.575	25.652	70.030	-127.310	-122.981	-120.355	-115.114	-36.699	-118.971	-8191	255	
1516.738	1	1	0	0	0.125	0.12527	0.060523	0.095679	0.30483	0.21128	0.14016	0.050311	0.17562	0.036438	0.086573	0.12263	0.12634	0.097291	0.22419	0.21526	-1.8604	-2.5708	-2.7583	-2.4771	-2.7458	-2.8104	-2.3333	-2.7583	-2.3792	-2.3167	-2.9562	-2.3354	-2.5792	-2.6104	-2.2354	-2.8583	197.214	108.760	-8.278	-141.636	196.222	-51.478	48.529	-8.401	44.204	-90.386	85.176	123.283	49.078	-18.962	-85.400	7.990	0.00040458	0.0004633	0.0001817	873.31	1.8664e-06	1.7365e-05	1061	332.87	6.1168e-06	4.1594e-06	417.1	167.28	139.04	53.733	1.2205e-05	63.695	0.0019654	0.0020654	0.00056607	866.1	1.9152e-05	2.241e-05	1062.9	338.24	2.1666e-05	2.282e-05	503.42	172.75	143.99	57.419	2.2461e-05	69.987	-111.099	42.722	-19.765	-130.127	61.176	-6.596	-131.854	-124.907	-39.784	215.703	-127.295	-122.906	-120.274	-114.759	13.249	-119.409	-8191	255	
1516.835	1	1	0	0	0.30866	0.39961	0.080578	0.19946	0.28193	0.19151	0.18401	0.22166	0.21103	0.36182	0.10464	0.20016	0.099097	0.22462	0.2075	0.24215	-1.85	-2.2896	-2.9062	-2.2333	-2.5542	-2.7208	-2.25	-2.8563	-2.4167	-2.2812	-2.95	-2.2708	-2.575	-2.7083	-2.1646	-2.8354	135.578	213.556	-10.130	-135.980	81.048	90.601	122.000	104.355	-68.126	-69.349	-19.328	154.150	163.743	165.856	14.462	155.476	0.00040775	0.00053814	0.00039062	872.82	3.8837e-06	1.2179e-05	1057.6	331.46	4.0834e-06	4.1811e-06	417.87	166.58	138.52	53.975	7.8205e-06	64.682	0.0019753	0.0020573	0.00056463	866	1.9176e-05	2.2318e-05	1057.9	337.58	2.1511e-05	2.2669e-05	502.87	172.6	144.23	57.726	2.2279e-05	70.788	-107.324	-43.818	6.652	-130.145	-44.313	-57.045	-131.908	-124.556	-16.742	-92.255	-127.401	-123.045	-120.218	-115.339	-30.236	-118.672	-8191	255	
1516.955	1	1	0	0	0.077004	0.1226	0.071075	0.2374	0.17189	0.089174	0.10553	0.17588	0.26392	0.23675	0.11539	0.16464	0.24098	0.041551	0.17133	0.26442	-2.0792	-2.3312	-2.6958	-2.4771	-2.3958	-2.8646	-2.3417	-2.7042	-2.7271	-2.2396	-2.8521	-2.2542	-2.2479	-2.8375	-2.2958	-2.6417	44.121	192.800	-52.996	145.906	-38.868	-21.746	-0.935	124.135	-117.557	104.422	-19.623	-16.889	-15.424	-57.945	-56.877	-70.321	0.00044891	0.00076558	0.0001375	872	1.5754e-06	7.6158e-06	1047.8	334.07	3.7442e-06	7.388e-06	418.06	167.32	140.27	54.479	1.2274e-05	65.168	0.0019699	0.0020509	0.00055896	866.17	1.9299e-05	2.2242e-05	1048.5	339.57	2.1703e-05	2.26e-05	500.42	172.97	145.31	58.304	2.2512e-05	71.153	-95.408	1.603	-73.019	-130.142	-10.011	0.138	-132.074	-124.568	1.919	-6.219	-127.266	-123.253	-120.414	-115.177	-50.564	-119.436	-8191	255	
1517.051	1	1	0	0	0.079288	0.032321	0.23338	0.12844	0.16698	0.24341	0.16856	0.28423	0.28166	0.48899	0.11031	0.10045	0.16329	0.18539	0.037078	0.050361	-2.2167	-2.3333	-2.825	-2.5271	-2.3229	-2.9042	-2.3854	-2.7917	-2.6021	-2.2083	-2.7417	-2.4604	-2.1625	-3.0083	-2.1437	-2.7271	-76.776	-92.783	211.086	212.894	172.114	208.503	150.377	193.064	104.921	96.688	133.122	165.244	-51.443	145.966	-0.514	180.536	0.00047562	0.00071381	0.00024943	872.15	3.0594e-06	1.5783e-05	1032.7	335.06	4.0324e-06	1.507e-05	413.57	168.63	140.43	54.995	3.055e-06	65.772	0.001951	0.0020497	0.0005684	865.47	1.9163e-05	2.2195e-05	1030.6	340.56	2.1338e-05	2.2611e-05	502.5	174.5	146.14	58.895	2.2564e-05	71.744	-101.832	-13.123	-57.158	-130.239	-86.955	-19.546	-131.959	-124.859	113.053	3.767	-127.246	-123.125	-120.117	-115.171	-7.709	-119.264	-8191	255	
1517.148	1	1	0	0	0.28617	0.069113	0.20379	0.35271	0.23285	0.27786	0.14604	0.088952	0.13971	0.28042	0.08389	0.22429	0.27767	0.20627	0.10674	0.020308	-2.4104	-2.1917	-2.7333	-2.6167	-2.2292	-2.8042	-2.425	-2.5792	-2.8083	-2.1063	-2.5792	-2.5625	-2.3021	-2.6917	-2.2167	-2.5333	110.379	19.471	68.395	163.586	174.702	198.126	156.994	-83.241	-107.856	137.232	199.096	63.588	125.400	-49.800	175.969	182.160	0.00053293	0.0013111	0.0001369	879.22	1.6599e-06	1.3777e-06	1039.7	334.95	7.0298e-06	3.294e-06	423.87	170.23	141.64	55.224	4.7432e-06	66.027	0.0019591	0.0020557	0.00057167	873.68	1.9393e-05	2.2463e-05	1041.4	342.11	2.1667e-05	2.3052e-05	508.56	176.14	146.98	59.159	2.3055e-05	72.529	-98.191	-67.535	-43.760	-130.201	-85.811	7.810	-132.007	-124.704	-22.098	195.175	-127.387	-122.753	-120.427	-115.258	99.426	-119.027	-8191	255	
1517.219	1	1	0	0	0.16594	0.17661	0.054857	0.052098	0.20779	0.19299	0.090897	0.15258	0.060877	0.10033	0.18348	0.044585	0.018047	0.15133	0.062378	0.27617	-2.4313	-2.0812	-2.7583	-2.6604	-2.2417	-2.8688	-2.5458	-2.3333	-2.9917	-2.1604	-2.8208	-2.8146	-2.2146	-2.7646	-2.3542	-2.3896	-121.768	109.711	162.984	-75.922	-34.514	105.867	204.760	-141.148	76.522	51.314	167.791	108.633	-113.346	200.960	186.731	-99.561	0.00032875	0.0010695	0.00011373	887.89	3.2812e-06	5.0604e-06	1055.2	337.22	5.3288e-06	1.0515e-05	424.98	170.07	141.79	55.306	2.8644e-06	66.384	0.0019991	0.0020988	0.00058173	881.42	1.9655e-05	2.2692e-05	1057.7	343.66	2.1891e-05	2.3207e-05	513.88	176.8	147.53	59.391	2.3443e-05	73.148	-101.897	-24.752	-37.055	-130.129	18.067	55.451	-131.973	-124.523	0.957	-18.235	-126.907	-122.693	-120.010	-115.255	-120.093	-119.150	-8191	255	
1517.340	1	1	0	0	0.089935	0.08762	0.11357	0.052377	0.10245	0.17207	0.063882	0.29548	0.16375	0.23114	0.13742	0.28239	0.1014	0.19339	0.29562	0.15615	-2.3104	-2.1562	-2.5625	-2.8354	-2.2125	-2.8646	-2.5146	-2.5625	-2.8667	-2.4021	-2.5812	-2.8729	-2.1188	-2.9688	-2.4833	-2.1333	62.130	-62.075	-126.978	90.395	-71.934	162.659	-139.637	167.286	192.262	-82.700	-69.365	141.724	65.741	134.580	27.664	-33.552	0.00015589	0.00060749	2.6579e-05	896.14	3.1451e-06	9.5697e-06	1078	339.86	7.7323e-06	7.0895e-06	429.25	171.74	142	55.573	1.1359e-05	66.483	0.0020137	0.0021328	0.00059092	890.98	2.0021e-05	2.3337e-05	1080.4	346.51	2.2428e-05	2.3699e-05	520.43	177.94	147.94	59.684	2.3907e-05	73.413	-62.775	-110.863	-82.605	-130.107	-86.535	-3.214	-131.788	-124.621	1.061	-29.114	-127.467	-122.932	-120.169	-115.114	-39.974	-118.766	-8191	255	
1517.436	1	1	0	0	0.21388	0.052951	0.039919	0.17703	0.25267	0.23405	0.073212	0.07905	0.18255	0.20004	0.21552	0.11709	0.045172	0.16439	0.13207	0.28505	-2.6937	-2.2771	-2.4167	-3.1042	-2.0729	-2.8354	-2.6979	-2.2583	-2.9979	-2.4146	-2.3771	-2.8063	-2.2479	-2.7917	-2.6167	-2.1354	191.101	144.689	21.472	31.069	73.096	48.483	55.930	80.535	-21.036	32.912	-63.926	-118.321	93.896	-56.236	67.071	-3.206	0.00060228	0.00013396	2.3923e-05	889.13	2.0285e-06	9.976e-06	1067.6	337.77	7.0737e-06	6.3087e-06	431.17	170.06	141.54	54.604	4.9201e-06	66.31	0.0020734	0.0022057	0.00061007	885.72	2.0593e-05	2.4183e-05	1071.1	345.24	2.3078e-05	2.4492e-05	521.94	177.35	147.54	59.514	2.4328e-05	73.247	-107.010	215.515	-50.854	-130.050	-13.704	-37.673	-131.715	-124.643	-117.432	-8.437	-127.225	-123.099	-120.128	-114.943	-98.395	-118.674	-8191	255	
1517.532	1	1	0	0	0.16835	0.23367	0.18553	0.1921	0.04073	0.14435	0.21096	0.22966	0.16107	0.13029	0.069825	0.10259	0.091808	0.1547	0.2818	0.16396	-2.4625	-2.3979	-2.3396	-3.0458	-2.0417	-2.6167	-2.8396	-2.0208	-3.0104	-2.4104	-2.4271	-2.9042	-2.1646	-2.5708	-2.8	-2.2833	184.837	-9.619	135.918	153.979	-79.035	105.059	-135.104	29.126	7.034	92.970	-98.524	79.724	131.760	122.986	104.103	-48.504	0.00027041	0.0011221	0.00012353	890.49	6.4695e-07	6.041e-06	1070.9	338.38	9.5869e-06	1.3384e-05	426.68	170.5	142	55.113	1.3671e-05	66.552	0.0021195	0.0022308	0.00062355	885.91	2.1001e-05	2.4338e-05	1074.9	345.37	2.3322e-05	2.465e-05	523.29	177.69	147.87	59.567	2.4153e-05	73.518	-114.115	-81.691	-55.221	-130.085	64.862	169.544	-131.678	-124.584	-49.402	-8.874	-127.640	-122.848	-119.948	-115.342	23.437	-118.993	-8191	255	
1517.651	1	1	0	0	0.23308	0.19359	0.13797	0.12615	0.10321	0.30148	0.048721	0.23077	0.23612	0.1122	0.24291	0.097567	0.13429	0.040804	0.030029	0.16043	-2.3542	-2.4896	-2.3833	-2.9354	-2.2562	-2.6375	-3.0646	-2.0625	-2.7812	-2.4979	-2.3417	-2.9062	-2.3146	-2.4188	-2.8396	-2.1021	-122.911	-68.437	8.670	109.358	181.991	-130.284	-105.701	85.784	-60.905	133.390	-140.432	-44.023	205.154	73.064	208.136	-56.207	0.00036076	0.00039522	0.00012742	895.56	3.3008e-06	9.968e-06	1078.8	339.55	1.0252e-05	1.526e-05	432	171.1	142.07	55.039	5.535e-06	67.029	0.0021031	0.0022285	0.00061914	891.14	2.0647e-05	2.4382e-05	1082.4	346.41	2.3111e-05	2.4513e-05	522.14	178.2	148.09	59.605	2.4104e-05	73.827	-113.040	-126.433	197.196	-130.000	-38.558	-31.783	-131.779	-124.604	-25.065	6.748	-126.950	-122.894	-119.971	-115.345	-22.459	-118.975	-8191	255	
1517.747	1	1	0	0	0.19649	0.30917	0.18801	0.23541	0.1694	0.1979	0.22401	0.11281	0.27174	0.046434	0.15802	0.27559	0.076167	0.051286	0.17818	0.087234	-2.3729	-2.4729	-2.2771	-2.9729	-2.1479	-2.4	-2.9729	-2.0542	-2.7833	-2.7125	-2.2104	-2.8771	-2.3	-2.2188	-2.8937	-2.0396	186.108	52.897	-76.318	-80.863	-103.679	198.171	160.046	-113.580	11.267	105.956	-92.100	192.007	-12.667	123.934	-38.167	7.724	0.00054779	0.0011899	0.00017621	905.09	1.7723e-06	6.997e-06	1103	342.31	5.3463e-06	7.595e-06	436.53	174.17	142.89	55.322	5.8797e-06	68.014	0.002104	0.0022029	0.00061315	900.33	2.0474e-05	2.404e-05	1103.3	349.52	2.3097e-05	2.3953e-05	529.26	180.23	149.24	60.089	2.382e-05	74.618	-114.751	-64.055	-36.252	-130.100	-27.810	-64.420	-131.834	-124.591	-18.409	-44.563	-127.513	-122.875	-119.979	-115.296	-46.934	-118.899	-8191	255	
1517.821	1	1	0	0	0.051221	0.064443	0.10744	0.13625	0.39719	0.077043	0.20798	0.11992	0.17288	0.35222	0.25288	0.1324	0.10192	0.24067	0.20819	0.086816	-2.325	-2.4458	-2.1813	-2.9875	-2.6271	-2.4229	-2.8958	-1.9604	-2.5563	-2.6333	-2.2833	-2.8292	-2.5354	-2.2667	-2.8583	-2.2146	8.250	110.360	-70.319	69.101	-55.281	-85.125	84.194	135.470	41.017	97.669	-54.063	180.735	55.798	192.990	115.715	32.812	0.00050749	0.0005367	6.9878e-05	912.72	2.9011e-06	1.9085e-06	1104.3	344.07	4.1174e-06	1.3891e-05	439.85	173.83	143.71	55.667	2.1747e-06	68.323	0.0020852	0.0021649	0.00059959	905.66	2.038e-05	2.3762e-05	1107	350.84	2.2641e-05	2.3609e-05	527.37	179.83	149.38	60.007	2.3698e-05	74.31	-104.153	-92.838	-69.931	-130.201	-10.978	-110.264	-131.760	-124.654	-35.550	-25.588	-127.557	-122.820	-120.030	-115.465	182.672	-119.098	-8191	255	
1517.939	1	1	0	0	0.2311	0.044519	0.070377	0.039135	0.035798	0.20414	0.15565	0.48873	0.24496	0.05236	0.074253	0.066318	0.18163	0.12702	0.1214	0.10895	-2.1146	-2.9562	-2.0625	-2.8667	-2.5312	-2.4375	-2.9417	-2.4521	-2.4188	-2.8937	-2.1521	-2.875	-2.575	-2.2875	-2.8521	-2.3438	125.726	-22.856	171.971	51.078	-67.192	104.450	110.237	-141.697	-56.994	-73.270	55.855	157.585	-10.255	115.219	182.178	-130.818	0.00045444	0.00021965	0.00027516	909.93	2.8866e-06	1.3276e-05	1103.6	345.2	3.7068e-06	9.2753e-06	438.06	173.56	144.46	55.61	5.7376e-06	67.728	0.0020854	0.0021569	0.00060198	903	2.0325e-05	2.3801e-05	1102.8	350.95	2.284e-05	2.3735e-05	527.73	180.29	149.84	59.895	2.3652e-05	74.308	-109.226	-121.835	-44.270	-130.134	-42.243	26.722	-132.030	-124.821	-38.555	62.458	-127.901	-123.018	-120.052	-115.158	194.667	-119.024	-8191	255	
1518.036	1	1	0	0	0.17835	0.23437	0.21037	0.1388	0.087829	0.11532	0.12252	0.2107	0.26121	0.23705	0.24104	0.37819	0.18745	0.084425	0.062108	0.078941	-2.0479	-2.7771	-2.1771	-2.8479	-2.5187	-2.2	-2.9583	-2.5479	-2.4062	-2.7917	-2.2146	-2.7229	-2.9521	-2.2854	-2.9292	-2.5354	-140.697	210.154	89.636	211.882	179.453	106.429	160.092	170.010	48.163	93.065	33.217	-126.272	-25.277	-65.677	125.918	-27.163	0.00050402	0.00058321	0.00015127	914.39	4.3508e-06	1.1595e-05	1111	346.29	3.8305e-06	8.8357e-06	434.37	174.86	144.89	55.395	5.4799e-06	67.792	0.0020811	0.0021515	0.00060039	907.45	2.016e-05	2.3658e-05	1110.9	352.6	2.2915e-05	2.3547e-05	529.17	181.37	150.22	59.829	2.3617e-05	74.299	-110.573	-55.417	-26.631	-130.188	-14.593	-67.783	-131.909	-124.676	-32.418	-1.444	-127.176	-123.024	-120.042	-115.225	-44.716	-119.074	-8191	255	
1518.132	1	1	0	0	0.048338	0.063042	0.059686	0.097284	0.10229	0.2667	0.36027	0.11827	0.13703	0.28879	0.14734	0.019048	0.13939	0.40265	0.24431	0.11617	-1.9875	-2.7313	-2.0354	-2.6104	-2.7146	-2.1833	-2.9562	-2.4562	-2.225	-2.9229	-2.2396	-2.5271	-2.9875	-2.1396	-2.8542	-2.6896	-130.936	122.088	-124.200	183.766	204.998	76.035	83.275	148.607	100.022	180.800	112.947	102.585	124.350	-13.807	-74.092	103.203	0.00046068	0.00055853	0.00013285	922.21	1.536e-06	7.0334e-06	1131.1	347.88	9.4887e-06	9.3212e-06	441.28	175.8	145.21	55.661	7.2428e-06	68.307	0.0020779	0.0021514	0.00060255	915.55	2.0068e-05	2.3574e-05	1131.4	354.06	2.2726e-05	2.3524e-05	535.27	182.85	150.44	59.773	2.2603e-05	74.487	-97.708	-50.229	6.085	-130.189	-57.194	72.449	-131.900	-124.637	-58.616	-72.916	-127.365	-122.883	-120.189	-115.267	-36.090	-118.640	-8191	255	
1518.252	1	1	0	0	0.25474	0.052002	0.26525	0.15464	0.070552	0.11236	0.19825	0.18142	0.34552	0.16806	0.19952	0.07071	0.16239	0.065353	0.039233	0.25857	-1.6375	-2.7125	-2.1688	-2.5	-2.7375	-2.1896	-2.7479	-2.6271	-2.1167	-2.6979	-2.2708	-2.4562	-2.8312	-2.0438	-2.7354	-2.4729	73.777	-49.851	-127.358	-30.729	24.339	151.021	201.730	0.753	-63.118	-58.347	46.916	-95.561	9.298	-9.784	18.071	119.665	0.00033058	0.00044818	0.00014179	936.39	5.0762e-06	1.2744e-05	1155.8	350.98	2.8523e-06	1.1636e-05	451.46	178.25	146.07	56.173	4.1201e-06	69.244	0.0019261	0.0019604	0.00054308	926.95	1.7848e-05	2.0891e-05	1153.9	356.16	2.0064e-05	2.0763e-05	525.63	183.99	150.66	59.517	2.0702e-05	74.488	-107.243	-40.390	-54.489	-130.339	-1.578	-9.842	-131.862	-124.801	16.641	12.988	-127.126	-122.874	-120.202	-115.334	6.388	-119.112	-8191	255	
1518.349	1	1	0	0	0.15383	0.21164	0.15166	0.065125	0.046375	0.13477	0.097754	0.093878	0.26356	0.21236	0.25662	0.08371	0.010151	0.3493	0.23795	0.065328	-1.8188	-2.95	-2.3958	-2.4625	-2.7583	-2.0979	-2.5896	-2.7333	-2.0542	-2.8167	-2.3875	-2.2625	-2.8812	-2.0542	-2.5479	-2.7062	39.445	57.325	-98.508	-44.066	-76.935	-141.837	-15.575	187.186	-142.170	36.061	47.484	213.588	-8.473	193.165	-102.456	68.601	0.00033685	0.00086441	0.00022998	936.23	1.0297e-06	9.8624e-06	1153.7	352.1	4.7991e-06	4.9526e-06	452.08	178.42	145.95	56.18	7.1716e-06	69.7	0.0017842	0.0018321	0.00050871	925.43	1.704e-05	1.9874e-05	1150	355.93	1.8672e-05	1.9187e-05	513.63	182.77	150.18	59.226	1.9917e-05	74.209	-87.606	-62.580	-13.044	-130.378	17.349	-23.047	-131.971	-124.748	-95.883	-87.494	-126.740	-122.890	-120.203	-114.757	-134.705	-118.854	-8191	255	
1518.443	1	1	0	0	0.39296	0.22558	0.096386	0.15592	0.17824	0.094513	0.12571	0.1319	0.065777	0.072626	0.10121	0.10632	0.053466	0.17028	0.1148	0.1097	-1.7271	-2.7979	-2.425	-2.4542	-2.8708	-2.2167	-2.5833	-2.925	-2.2354	-2.8479	-2.4354	-2.3771	-3.0708	-2.1646	-2.3917	-2.9542	0.252	167.031	182.897	67.526	31.020	158.367	-70.180	60.859	30.804	203.442	212.000	-111.745	-140.610	7.773	-25.424	111.708	0.00034711	7.5738e-05	0.00017678	929.36	8.4808e-07	4.3306e-06	1147.8	350.11	6.7095e-06	4.876e-06	451.33	179.52	146.47	56.437	1.2488e-05	69.357	0.0018021	0.001889	0.00053446	920.18	1.8571e-05	2.2086e-05	1143.4	356.11	2.2011e-05	2.3401e-05	537.38	184.31	151.8	60.64	2.4411e-05	76.067	-98.825	-26.402	-14.610	-130.321	21.611	21.440	-132.060	-124.751	-23.156	-9.534	-126.596	-123.031	-120.317	-115.368	-27.625	-118.814	-8191	255	
1518.516	1	1	0	0	0.16322	0.18134	0.036738	0.10879	0.19	0.049666	0.093156	0.34789	0.20553	0.011215	0.16249	0.026593	0.13001	0.31373	0.25236	0.34251	-1.6688	-2.6958	-2.6979	-2.3625	-2.8563	-2.475	-2.4417	-2.7875	-2.0563	-2.6437	-2.5979	-2.3792	-2.8896	-2.4417	-2.1792	-2.7438	22.382	-8.169	32.655	68.739	-87.992	142.566	122.869	177.226	-130.822	111.377	189.647	131.758	-49.432	27.777	-57.432	87.899	0.00050834	0.00026402	0.00019235	933.84	2.6911e-06	9.5349e-06	1152.3	352.21	6.6241e-06	9.123e-06	457.38	179.18	147.04	56.26	7.9243e-06	69.721	0.0021672	0.002289	0.00063657	924.18	2.1618e-05	2.5586e-05	1150.9	357.81	2.5086e-05	2.6634e-05	554.85	185.63	152.51	61.263	2.7485e-05	77.135	-115.785	134.327	-34.724	-130.408	-5.474	194.841	-132.021	-124.742	-74.646	74.383	-126.924	-123.155	-120.205	-115.642	-46.681	-119.242	-8191	255	
1518.635	1	1	0	0	0.33298	0.26886	0.11504	0.19061	0.065857	0.20355	0.18304	0.14408	0.12889	0.046205	0.04307	0.17887	0.22886	0.050471	0.19929	0.084313	-1.6854	-2.4958	-2.7229	-2.4229	-2.8875	-2.7042	-2.3312	-2.9396	-2.1479	-2.6688	-2.725	-2.1646	-2.8271	-2.6208	-2.3083	-2.9062	-65.654	208.367	-125.837	-140.493	83.035	-108.248	-72.056	-122.748	105.385	132.467	-80.698	-44.166	35.819	-124.464	26.771	-57.971	0.00058266	0.00071184	0.00015234	938.02	2.5419e-06	1.5702e-05	1168.1	353.92	6.5989e-06	9.5807e-06	455.58	179.87	147.26	56.123	2.1141e-06	69.845	0.0024068	0.0025298	0.00069331	929.61	2.3266e-05	2.7497e-05	1164.3	359.46	2.6343e-05	2.7376e-05	563.74	186.96	152.81	61.255	2.7133e-05	77.434	-90.990	-72.508	-13.695	-130.408	-21.856	-11.386	-132.037	-124.850	18.906	-7.794	-127.510	-122.864	-120.307	-115.097	-55.935	-118.873	-8191	255	
1518.731	1	1	0	0	0.086875	0.12942	0.087687	0.10202	0.16876	0.13161	0.23863	0.070281	0.34246	0.099309	0.13579	0.16866	0.32278	0.15175	0.13053	0.048937	-1.8896	-2.4083	-2.7646	-2.3458	-2.7146	-2.5917	-2.3229	-3.025	-2.3333	-2.3937	-2.8146	-2.2042	-2.5646	-2.65	-2.2021	-2.9437	-30.090	-27.162	-98.629	165.483	176.140	153.804	130.502	-112.207	127.998	202.616	70.991	203.262	-129.524	119.642	32.964	75.720	0.00031852	0.0004053	6.2373e-05	944.59	4.2392e-06	4.9253e-06	1180.6	354.87	5.5723e-06	7.5575e-06	461.76	180.98	147.53	56.967	7.1413e-06	70.072	0.0023586	0.0024616	0.00067096	936.25	2.2758e-05	2.6595e-05	1179.2	360.8	2.5429e-05	2.6824e-05	559.51	187.65	152.94	61.474	2.6458e-05	77.355	-92.273	150.334	149.909	-130.306	-39.827	69.539	-132.015	-124.857	-21.037	-19.060	-127.081	-122.989	-120.188	-115.234	-27.819	-118.868	-8191	255	
1518.828	1	1	0	0	0.15352	0.21501	0.20037	0.15949	0.13745	0.2253	0.29074	0.17264	0.051736	0.22297	0.38231	0.22551	0.16876	0.19741	0.19885	0.056891	-2.2062	-2.2083	-2.7021	-2.0479	-2.5229	-2.7958	-2.2583	-2.9229	-2.4271	-2.3396	-2.7583	-2.1021	-2.5479	-2.7812	-2.0333	-2.7062	32.336	38.077	97.797	122.999	188.932	88.931	212.178	190.671	121.352	8.268	133.299	157.528	191.364	159.259	-86.116	-23.456	0.00021733	0.0004038	0.00022214	938.6	2.4591e-06	1.3247e-05	1160.6	354.36	3.2451e-06	1.0265e-05	454.21	178.87	146.89	56.325	3.7117e-06	70.067	0.0022974	0.0024143	0.00066261	929.54	2.2344e-05	2.5973e-05	1159.3	359.47	2.5216e-05	2.6401e-05	553.39	185.97	152.83	61.121	2.6482e-05	77.01	-101.068	-98.192	-66.342	-130.311	-39.908	-14.527	-131.972	-124.837	69.956	-4.704	-127.173	-122.908	-120.050	-115.086	-26.646	-118.797	-8191	255	
1518.924	1	1	0	0	0.17916	0.15714	0.14383	0.16008	0.20286	0.15881	0.43781	0.056464	0.23036	0.096362	0.076713	0.029938	0.092347	0.074866	0.28999	0.035069	-2.1604	-2.225	-2.6937	-2.5771	-2.5771	-2.7125	-2.2979	-2.7188	-2.4542	-2.2167	-2.8542	-2.2604	-2.4625	-2.5604	-2.0542	-2.5917	93.670	191.176	-86.215	94.183	-46.951	85.296	146.126	86.380	-44.098	-19.124	95.195	-17.376	163.934	185.004	13.924	-133.455	0.00058837	0.0011084	0.00012045	938.01	1.3735e-06	8.4895e-06	1166.6	354.03	4.8366e-06	1.4427e-06	457.33	180.85	147.48	56.624	9.6344e-06	69.592	0.0023046	0.0024102	0.00066104	928.93	2.2364e-05	2.6089e-05	1164.9	360.26	2.5241e-05	2.6553e-05	556.4	187.19	153.15	61.186	2.6478e-05	77.261	-109.513	-101.679	-7.424	-130.310	-35.814	-71.808	-131.992	-124.899	36.848	-131.328	-127.014	-122.877	-120.249	-115.117	-11.306	-119.392	-8191	255	
1519.044	1	1	0	0	0.066351	0.12337	0.059456	0.084789	0.21849	0.21712	0.09079	0.14341	0.082821	0.21042	0.1937	0.16185	0.14842	0.21607	0.29982	0.12913	-2.2229	-2.0083	-2.8583	-2.3708	-2.5542	-2.7667	-2.3917	-2.6688	-2.5021	-2.0104	-2.7917	-2.3042	-2.2646	-2.9958	-2.0812	-2.5208	6.856	202.439	-80.468	182.541	38.094	-57.554	159.639	124.262	199.679	-22.548	-34.706	-13.943	94.573	153.127	46.919	215.995	0.00045761	0.00045259	0.00019627	944.4	2.2173e-06	9.7883e-06	1176.3	356.3	2.8748e-06	2.4734e-06	461.76	182.21	148.02	56.918	5.7774e-06	69.936	0.0023022	0.0024116	0.00066247	936.08	2.2555e-05	2.6134e-05	1176.2	361.9	2.5385e-05	2.6514e-05	562.96	188.37	153.69	61.238	2.6535e-05	77.52	-97.396	-56.924	42.917	-130.336	-18.733	18.892	-132.034	-124.824	-55.346	61.114	-127.804	-123.021	-120.121	-115.384	-19.480	-119.348	-8191	255	
1519.116	1	1	0	0	0.063384	0.33762	0.12518	0.24823	0.20099	0.13218	0.18578	0.17748	0.035913	0.073633	0.24734	0.32889	0.17433	0.2623	0.076914	0.12244	-2.275	-2.0354	-2.625	-2.6083	-2.1896	-2.8729	-2.175	-2.4896	-2.6063	-2.0312	-2.7979	-2.4875	-2.2104	-2.8417	-2.1813	-2.4313	-17.544	202.861	-15.398	202.501	3.883	191.653	186.203	-87.234	99.054	30.639	-91.733	-118.731	-53.840	123.265	44.429	29.550	0.00022814	0.00025068	0.00014697	951.91	3.2522e-06	5.3034e-06	1197.1	357.14	8.52e-06	1.0759e-05	460.7	183.2	148.68	56.89	8.2522e-06	70.833	0.0023068	0.0024	0.00067001	942.73	2.2527e-05	2.6047e-05	1193.2	363.66	2.5086e-05	2.6212e-05	564.75	189.71	154.16	61.356	2.6147e-05	78.048	-109.034	153.307	-54.351	-130.341	-13.553	121.398	-131.922	-124.808	42.601	-36.046	-126.397	-122.970	-120.196	-115.352	71.899	-119.130	-8191	255	
1519.212	1	1	0	0	0.091264	0.209	0.18961	0.26997	0.27044	0.16347	0.42472	0.16431	0.17035	0.29978	0.051775	0.086273	0.050476	0.22884	0.12298	0.16758	-2.3063	-2.1146	-2.6583	-2.7021	-2.2979	-2.7708	-2.3833	-2.5271	-2.6562	-1.9604	-2.5521	-2.5667	-2.2458	-2.8563	-2.3896	-2.2354	-31.943	-31.987	98.760	142.011	-124.514	-54.488	201.555	151.605	-59.249	45.882	-134.913	2.896	-135.665	-39.200	193.249	139.693	0.00027507	0.0010135	8.5696e-05	955.99	4.0974e-06	1.4668e-05	1196.1	358.2	7.0043e-06	1.026e-05	464.25	182.93	148.51	56.743	2.5248e-06	70.456	0.0022638	0.0023795	0.00065793	948.04	2.231e-05	2.5798e-05	1195.8	364.65	2.47e-05	2.6018e-05	561.71	189.14	154.15	61.384	2.6066e-05	77.586	-122.765	-10.223	-18.687	-130.181	-20.090	-23.341	-131.969	-124.781	28.505	70.739	-127.735	-122.648	-120.197	-115.225	-18.654	-119.116	-8191	255	
1519.333	1	1	0	0	0.15617	0.10457	0.080077	0.27764	0.14305	0.13534	0.11837	0.12413	0.18745	0.24071	0.15048	0.288	0.14824	0.23118	0.096884	0.12925	-2.375	-2.0792	-2.6125	-2.7333	-2.2354	-2.8375	-2.5396	-2.2583	-2.6167	-1.9708	-2.5104	-2.5854	-2.0354	-2.9	-2.6188	-2.1937	-102.120	93.540	-132.375	170.949	21.649	-39.122	27.341	75.775	132.991	12.516	132.165	-120.039	163.587	206.608	31.569	-24.641	0.00048547	0.00051744	0.00017122	945.22	2.4754e-06	1.1554e-05	1181.7	358.51	5.0571e-06	1.1797e-05	459.29	182.93	148.75	56.898	1.0925e-05	70.395	0.0022452	0.0023718	0.00065744	936.4	2.192e-05	2.5721e-05	1178.6	363.89	2.453e-05	2.5987e-05	560.77	188.97	154.4	61.401	2.5832e-05	77.718	-99.859	-3.180	-45.016	-130.246	-36.741	-89.179	-131.966	-124.907	-13.056	-12.708	-127.321	-122.927	-120.413	-115.035	-0.869	-119.125	-8191	255	
1519.427	1	1	0	0	0.042039	0.19654	0.13886	0.16244	0.29096	0.26926	0.35012	0.18551	0.17405	0.30051	0.21135	0.14599	0.18347	0.15668	0.11695	0.30825	-2.4458	-2.3063	-2.5458	-2.9792	-2.1188	-2.6729	-2.6479	-2.4313	-2.775	-2.2604	-2.4771	-2.8937	-2.1667	-2.7625	-2.3937	-2.2146	-62.572	204.413	4.499	92.897	8.034	174.030	100.739	-82.626	-121.854	-141.317	24.770	-21.431	-12.912	180.885	-134.118	168.883	0.00030374	0.00069292	0.00028714	949.54	2.4868e-06	5.6346e-06	1187	358.29	8.1678e-06	5.0073e-06	463.14	182.87	148.78	56.713	2.5884e-06	70.239	0.0022513	0.0023733	0.00065561	940.37	2.2229e-05	2.5907e-05	1186.7	364.44	2.4766e-05	2.6393e-05	564.83	190.03	154.58	61.369	2.6121e-05	77.746	-83.114	-3.505	-25.251	-130.192	-23.376	-114.726	-131.839	-124.742	-21.839	207.485	-127.638	-122.849	-120.006	-115.334	-82.796	-118.690	-8191	255	
1519.523	1	1	0	0	0.10615	0.18964	0.1537	0.36349	0.10823	0.07031	0.21836	0.085418	0.056037	0.064779	0.053289	0.036861	0.27277	0.38668	0.30111	0.073443	-2.3958	-2.1958	-2.4688	-2.95	-2.0833	-2.6083	-2.7083	-2.1021	-2.8	-2.2708	-2.3063	-2.9479	-2.1979	-2.6063	-2.5896	-2.1958	-67.681	23.883	50.667	-56.145	151.270	-139.509	116.125	-39.405	167.846	200.418	130.915	-80.303	157.166	-129.475	38.028	119.455	0.00079306	0.00066475	0.00016031	953.71	2.7508e-06	8.2343e-06	1200.1	358.87	6.7307e-06	8.3852e-06	464.91	184.03	149.11	56.603	7.477e-06	70.706	0.0022519	0.0023826	0.00066271	946.53	2.225e-05	2.5814e-05	1199.4	365.33	2.4582e-05	2.6022e-05	565.24	190.6	154.73	61.259	2.575e-05	77.674	-100.380	-118.995	-20.871	-130.151	-52.375	46.359	-131.952	-124.760	-46.277	85.691	-127.215	-122.528	-120.166	-115.362	68.303	-119.295	-8191	255	
1519.621	1	1	0	0	0.16825	0.027217	0.12794	0.26388	0.063525	0.23102	0.075592	0.16338	0.025962	0.087477	0.088568	0.12513	0.38561	0.16727	0.19875	0.14866	-2.3854	-2.3438	-2.325	-2.95	-2.2542	-2.6396	-2.8542	-2.0396	-2.7604	-2.4146	-2.2021	-2.7188	-2.1562	-2.4458	-2.8125	-2.1542	-32.384	-11.603	213.883	-98.920	-37.789	138.179	126.077	-94.710	-87.126	-127.966	48.084	184.163	-76.352	170.658	67.207	-122.419	0.00018814	0.00034162	4.9054e-05	954.99	3.5075e-06	9.8085e-06	1206.1	358.95	5.4471e-06	7.0129e-06	474.41	183.83	148.68	56.083	4.774e-06	70.561	0.0022345	0.0023517	0.00064978	948.99	2.1853e-05	2.5703e-05	1208.2	365.74	2.444e-05	2.5639e-05	567.74	191.12	154.48	61.062	2.5504e-05	77.876	-135.067	7.937	-36.563	-130.138	10.693	22.030	-131.717	-124.717	43.598	-34.275	-126.979	-122.707	-119.912	-115.059	130.169	-118.893	-8191	255	
1519.716	1	1	0	0	0.16765	0.20967	0.19513	0.10788	0.11434	0.15662	0.26851	0.25851	0.078553	0.043779	0.16418	0.19093	0.16311	0.097892	0.21939	0.18467	-2.5021	-2.6125	-2.0458	-3.125	-2.3271	-2.4229	-3.0229	-2.2896	-2.6083	-2.4667	-2.1021	-2.975	-2.2146	-2.1625	-2.925	-2.0125	-84.640	180.267	-30.578	111.303	-11.554	22.786	120.498	-93.822	129.289	198.790	154.681	92.721	129.791	-44.469	110.835	119.057	0.00041233	0.00061797	0.00017658	954.19	4.602e-06	1.4882e-05	1199.8	357.43	7.9373e-06	2.9233e-06	462.59	183.61	147.78	56.215	1.1215e-05	69.926	0.0022252	0.0023416	0.00065142	946.73	2.1905e-05	2.5345e-05	1201.4	364.23	2.4509e-05	2.57e-05	563.53	189.68	153.68	60.821	2.5438e-05	76.936	-73.420	-68.464	-115.426	-130.153	-27.282	-31.983	-131.818	-124.751	-6.339	-77.273	-127.048	-122.858	-120.105	-114.811	-2.807	-118.609	-8191	255	
1519.812	1	1	0	0	0.096249	0.080902	0.26171	0.29834	0.24734	0.15587	0.048918	0.17517	0.28043	0.18836	0.13039	0.18688	0.21557	0.29499	0.18828	0.11572	-2.1208	-2.6208	-2.2333	-2.9521	-2.4729	-2.3458	-2.8458	-2.2458	-2.5542	-2.7229	-2.2104	-2.8812	-2.4125	-2.2188	-2.8646	-2.2333	33.104	-72.597	14.639	183.763	-68.198	50.182	132.739	-120.379	-131.543	20.305	-117.703	27.208	-103.755	46.734	150.914	57.823	0.00028282	0.00061508	0.0001391	942.86	1.8151e-06	1.8338e-05	1184.6	355.4	6.5995e-06	5.1912e-06	453.73	181.89	147.69	56.182	5.391e-06	69.732	0.0022378	0.0023361	0.00064807	936.47	2.1805e-05	2.5597e-05	1184.5	361.55	2.4646e-05	2.5547e-05	559.27	188.66	153.2	60.582	2.5546e-05	76.948	-115.834	-105.175	185.025	-130.101	-82.525	-5.994	-131.830	-124.900	-15.826	87.703	-127.264	-122.960	-120.128	-115.241	57.246	-118.915	-8191	255	
1519.932	1	1	0	0	0.31285	0.17045	0.45545	0.092348	0.085721	0.056273	0.28002	0.096177	0.19293	0.13841	0.080361	0.14986	0.090355	0.024927	0.29362	0.14265	-2.2125	-2.9833	-2.1417	-3.15	-2.4146	-2.4146	-3.1125	-2.3146	-2.525	-2.8583	-2.1854	-2.7417	-2.5167	-2.45	-2.9333	-2.3375	152.786	-99.673	35.156	-127.498	-28.401	44.110	196.777	-79.498	-6.325	37.537	144.238	-111.207	128.729	-81.578	179.445	-111.162	0.00057212	0.00101	0.0001003	946.21	1.9528e-06	1.0953e-05	1190.7	354.33	2.591e-06	3.7444e-06	458.33	182.25	146.7	55.828	2.7017e-06	69.572	0.00225	0.00234	0.00064819	939.41	2.1916e-05	2.5916e-05	1190.8	361.21	2.4765e-05	2.5832e-05	560	188.8	152.9	60.51	2.5603e-05	76.76	-85.557	-79.685	-23.772	-130.215	-49.044	-37.005	-131.902	-124.815	61.440	35.856	-127.469	-122.791	-119.993	-115.065	-72.833	-119.108	-8191	255	
1520.029	1	1	0	0	0.066547	0.24322	0.098763	0.18802	0.15567	0.085819	0.19427	0.091115	0.27891	0.15454	0.065794	0.089156	0.13963	0.23377	0.12756	0.22095	-2.2438	-3	-2.2125	-2.7792	-2.6833	-2.25	-3	-2.4208	-2.2708	-2.7083	-2.1354	-2.6542	-2.5729	-2.0542	-2.8479	-2.3646	189.492	57.261	22.404	135.922	-118.085	41.330	-140.061	176.859	202.170	4.288	-38.227	-6.757	-45.105	9.469	-131.803	-119.136	0.00055413	0.00079375	0.00015102	948.9	1.7802e-06	1.0759e-05	1199	354.99	4.8365e-06	1.2867e-05	459.06	182.57	147.03	55.875	7.5965e-06	70.021	0.0022429	0.0023227	0.00065427	941.6	2.1806e-05	2.5573e-05	1199.2	361.56	2.4665e-05	2.549e-05	562.4	189.37	152.94	60.524	2.5517e-05	77.339	-122.218	-11.729	-30.894	-130.280	4.078	-49.284	-131.873	-124.648	-44.344	1.852	-126.967	-122.775	-119.799	-115.230	-29.378	-118.546	-8191	255	
1520.125	1	1	0	0	0.16884	0.33198	0.14361	0.099791	0.20608	0.0092406	0.09773	0.11074	0.25816	0.13312	0.12782	0.14747	0.15229	0.15353	0.12138	0.24282	-1.9417	-2.7146	-2.1833	-2.6437	-2.5917	-2.1583	-2.8875	-2.4667	-2.3833	-2.8458	-2.3	-2.4208	-2.7875	-1.9625	-2.8771	-2.3896	-91.759	-131.651	31.633	134.826	-41.237	40.358	199.969	150.451	-47.170	181.088	95.078	48.166	97.708	96.117	122.990	211.489	0.00032441	0.00074371	9.7467e-06	953.94	1.0938e-06	1.0751e-06	1208.3	356.17	7.3009e-06	5.122e-06	469.01	184.12	147.99	56.425	8.4596e-06	70.972	0.0022322	0.002324	0.00064603	947.59	2.1797e-05	2.5596e-05	1209.8	363.44	2.4717e-05	2.5552e-05	566.32	190.64	153.86	60.87	2.5488e-05	77.615	-97.214	-66.290	169.554	-130.147	12.871	155.762	-131.722	-124.662	-46.489	47.151	-127.108	-122.862	-120.084	-115.020	108.831	-119.118	-8191	255	
1520.221	1	1	0	0	0.027	0.069551	0.28657	0.068681	0.20286	0.24491	0.2121	0.35924	0.11364	0.24418	0.42133	0.012923	0.17283	0.17104	0.12613	0.23922	-1.9708	-2.7938	-2.0604	-2.5312	-2.8875	-2.1937	-2.9125	-2.4396	-2.0708	-2.8229	-2.2729	-2.3646	-2.9458	-1.9354	-2.9313	-2.4208	-54.904	10.877	86.378	103.060	94.022	74.273	-34.616	127.507	53.626	122.733	81.082	156.115	5.949	103.853	107.978	130.961	0.00043994	0.00088799	0.00015644	951.64	3.2129e-06	1.0073e-05	1194.7	355.42	7.5183e-06	1.3677e-05	464.83	182.63	147.78	56.392	4.7634e-06	70.641	0.0022458	0.0022929	0.00064802	942.1	2.1536e-05	2.5477e-05	1191.8	362.12	2.437e-05	2.5419e-05	559.38	189.05	153.27	60.804	2.5181e-05	77.15	-66.086	-48.132	-57.678	-130.354	15.774	198.720	-131.977	-124.640	41.832	-5.721	-126.604	-123.095	-120.270	-115.352	-80.459	-118.797	-8191	255	
1520.341	1	1	0	0	0.072044	0.16853	0.2881	0.14789	0.2388	0.0897	0.1226	0.21284	0.31853	0.21201	0.061335	0.21036	0.035724	0.093541	0.22985	0.24477	-1.85	-2.8375	-2.1667	-2.4708	-2.8312	-2.025	-2.7958	-2.5625	-2.0438	-2.9417	-2.3458	-2.4958	-2.8125	-2.0583	-2.4917	-2.7188	206.764	-28.867	-115.035	-102.798	-60.569	126.232	148.119	5.151	-120.129	50.096	197.246	208.129	-68.420	172.933	164.065	108.332	0.00029369	0.00066384	0.00024522	947.74	1.4875e-06	1.1074e-05	1192.8	356.68	6.7329e-06	1.0667e-05	462.35	182.66	147.59	56.385	1.0682e-05	70.394	0.0022109	0.0022831	0.00064493	940.84	2.1421e-05	2.5048e-05	1194.2	362.97	2.3962e-05	2.5067e-05	558.82	189.2	153.53	60.812	2.5111e-05	77.155	-124.252	-59.866	-59.789	-130.292	108.153	-66.462	-131.885	-124.629	-21.353	-54.214	-127.496	-122.757	-119.803	-114.767	14.868	-118.568	-8191	255	
1520.413	1	1	0	0	0.27937	0.21643	0.22283	0.17353	0.15847	0.25033	0.25534	0.11601	0.10969	0.28372	0.11454	0.25017	0.17065	0.2339	0.10908	0.11472	-1.5146	-2.8979	-2.3937	-2.5125	-2.7542	-2.2438	-2.7938	-2.7562	-2.0167	-2.7479	-2.4083	-2.0812	-2.7625	-2.3083	-2.4313	-2.8333	-48.704	120.671	-11.154	107.445	146.709	78.157	33.533	210.144	27.592	99.020	93.435	210.716	155.331	110.825	163.615	122.002	0.00054235	0.0010901	5.6957e-05	951.13	2.1693e-06	5.4197e-06	1199.1	356.58	5.9437e-06	1.2845e-05	465.91	182.57	147.85	56.585	4.4743e-06	70.954	0.0021807	0.0022911	0.0006355	943.65	2.1112e-05	2.5034e-05	1200.4	363.36	2.371e-05	2.4758e-05	558.16	189.52	153.4	60.531	2.4173e-05	76.865	-97.272	-34.772	-28.704	-130.286	-7.459	33.264	-131.937	-124.549	-1.124	38.401	-126.798	-122.825	-119.851	-114.821	151.439	-118.455	-8191	255	
1520.509	1	1	0	0	0.050113	0.17388	0.22712	0.21068	0.17329	0.16085	0.15432	0.096388	0.2156	0.15385	0.12555	0.22104	0.11075	0.25087	0.057241	0.28363	-1.6854	-2.6792	-2.5375	-2.5125	-2.7417	-2.5146	-2.6375	-2.8167	-1.8729	-2.7854	-2.6667	-2.1917	-2.7667	-2.1813	-2.4292	-2.8646	92.219	-115.457	-110.888	187.779	69.428	-47.033	171.347	94.126	170.819	156.625	-29.990	-104.929	74.078	118.205	160.393	-10.643	0.0004435	0.00084414	0.00025937	954.03	2.9974e-06	4.3596e-06	1205.1	358.17	1.937e-06	2.9223e-06	464.2	184.09	148.05	56.592	1.178e-05	71.278	0.0020655	0.0021598	0.00059038	946.67	1.955e-05	2.2764e-05	1206.8	363.47	2.0992e-05	2.1617e-05	540.54	189.59	153.13	59.761	2.0399e-05	75.716	-105.642	-107.477	-42.312	-130.197	-30.002	69.059	-131.878	-124.550	-35.022	161.926	-127.185	-122.584	-119.745	-114.907	-38.293	-118.908	-8191	255	
1520.604	1	1	0	0	0.12168	0.29065	0.14918	0.22992	0.096251	0.11665	0.10867	0.23565	0.079386	0.22127	0.049883	0.24309	0.15566	0.15862	0.14631	0.24453	-1.7979	-2.4958	-2.7146	-2.3271	-2.9229	-2.1813	-2.5083	-2.8729	-2.0312	-2.6792	-2.7	-2.1063	-2.6396	-2.4729	-2.2396	-2.9729	69.319	-92.726	110.918	179.009	5.172	-94.088	157.092	136.301	54.154	-113.001	209.624	69.127	-18.050	-67.254	95.615	-67.627	0.00026128	0.00073467	0.00017164	956.77	3.1919e-06	8.2367e-06	1212.1	358.62	4.2505e-06	6.6117e-06	464.58	184.08	148.94	56.952	1.5442e-06	70.896	0.0017396	0.0017637	0.00048689	949.59	1.6306e-05	1.8707e-05	1214.3	363.9	1.7646e-05	1.7956e-05	523.05	188.98	152.66	59.205	1.69e-05	74.487	-81.298	-35.363	-81.345	-130.118	-24.195	-12.829	-131.667	-124.416	-50.740	-27.889	-127.211	-122.835	-119.681	-114.932	-63.098	-118.479	-8191	255	
1520.724	1	1	0	0	0.15368	0.13356	0.35978	0.18651	0.22575	0.12614	0.069552	0.28433	0.12981	0.16902	0.18753	0.19376	0.19012	0.031065	0.20382	0.24099	-1.7208	-2.4917	-2.8229	-2.2354	-2.7812	-2.5104	-2.2687	-2.8854	-2.1833	-2.4854	-2.8417	-2.0917	-2.7938	-2.4917	-2.1562	-2.8812	62.644	110.771	19.088	147.725	-130.735	115.200	184.468	-102.312	10.406	117.330	138.429	174.595	106.256	40.931	-91.355	-38.145	0.00034212	0.00095344	0.0002185	949.65	3.7182e-06	1.1468e-05	1197	357.31	2.0758e-06	9.7158e-06	463.14	183.24	148.09	56.647	9.5281e-06	70.874	0.001469	0.0015468	0.00042995	942.65	1.4925e-05	1.7341e-05	1197	362.36	1.752e-05	1.8546e-05	524.83	188.14	152.73	59.61	1.8693e-05	75.315	-82.526	-59.338	-41.584	-130.046	-40.043	-72.770	-131.699	-124.512	-21.808	-7.248	-126.781	-122.611	-119.692	-114.965	28.670	-118.786	-8191	255	
1520.820	1	1	0	0	0.19727	0.28819	0.16595	0.0791	0.14436	0.20116	0.13681	0.11645	0.26651	0.12667	0.1533	0.065562	0.14425	0.13025	0.020773	0.19907	-1.9292	-2.4583	-2.75	-2.2583	-2.8604	-2.5167	-2.2438	-2.8896	-2.2854	-2.3812	-2.8667	-2.1792	-2.45	-2.6562	-2.1646	-2.8354	-121.185	146.467	-89.610	-69.515	4.678	-96.297	-15.267	53.959	105.294	11.339	-31.188	-71.651	103.933	189.714	-112.528	-43.595	0.00046235	8.0209e-05	0.00011311	951.06	2.5602e-06	4.1031e-06	1201.8	358.53	5.1566e-06	5.0578e-06	470.74	184.87	149	56.554	5.2844e-06	70.979	0.0016481	0.0017201	0.00047548	943.49	1.6339e-05	1.8774e-05	1200.9	363.19	1.8561e-05	1.9551e-05	532.56	189.19	153.33	59.958	2.0348e-05	76.081	-76.736	-107.037	-40.739	-130.051	-40.877	-121.282	-131.859	-124.684	22.434	-27.455	-127.528	-122.797	-119.950	-114.936	-16.304	-118.921	-8191	255	
1520.917	1	1	0	0	0.09542	0.29017	0.14631	0.035228	0.16121	0.092622	0.052423	0.27616	0.12823	0.021171	0.12631	0.23707	0.077159	0.072404	0.069585	0.29309	-2.0187	-2.2083	-2.8042	-2.3563	-2.3812	-2.8	-2.3479	-2.8458	-2.4688	-2.2687	-2.9437	-2.1542	-2.4896	-2.6708	-2.0354	-2.7208	-72.964	212.044	-114.808	22.635	-26.104	24.145	200.728	144.443	84.178	154.853	140.534	187.508	35.148	171.951	212.155	95.068	0.00052519	0.00049576	9.6666e-05	953.3	2.2727e-06	1.9231e-05	1207.9	358	5.5189e-06	2.8256e-06	466.45	184.22	148.26	56.559	7.4721e-06	70.594	0.0018017	0.001882	0.00051646	947.56	1.7865e-05	2.0671e-05	1210.7	364.35	2.0222e-05	2.1211e-05	541.22	190.18	153.62	60.027	2.1219e-05	76.353	-101.768	-74.400	69.793	-130.020	-8.986	-28.913	-131.635	-124.440	6.618	51.091	-126.282	-122.806	-119.880	-114.960	-29.283	-118.967	-8191	255	
1521.013	1	1	0	0	0.14843	0.21998	0.10788	0.23796	0.18491	0.12079	0.12032	0.24926	0.21853	0.03214	0.084369	0.19226	0.057242	0.25452	0.22017	0.1295	-2.0521	-2.1583	-2.7188	-2.6042	-2.5396	-2.7583	-2.3583	-2.7708	-2.5646	-2.1375	-3.0167	-2.2188	-2.35	-2.6854	-2.2042	-2.6771	-2.900	46.527	-34.917	200.168	-1.354	-96.637	145.029	213.090	15.782	-47.775	-111.337	201.054	-64.530	-66.555	23.105	49.319	0.0005436	0.0001793	0.00014167	959.99	3.3254e-06	9.4109e-06	1215.7	358.24	9.2719e-06	6.3428e-06	470.96	185.99	149.97	56.659	9.2105e-06	71.873	0.0018636	0.0019378	0.00053562	952.38	1.8457e-05	2.1138e-05	1219.2	365.27	2.0592e-05	2.1555e-05	545.51	191.77	154.44	60.542	2.1586e-05	77.353	-109.923	-30.345	-90.706	-130.079	-64.336	0.703	-131.495	-124.586	-56.029	27.118	-127.111	-122.569	-119.970	-115.056	50.394	-118.669	-8191	255	
1521.109	1	1	0	0	0.33861	0.17316	0.16774	0.20928	0.29066	0.32815	0.07331	0.09834	0.040275	0.101	0.18444	0.28175	0.05558	0.19516	0.30108	0.27357	-1.9917	-2.0938	-2.6458	-2.5125	-2.3729	-2.6917	-2.375	-2.725	-2.7833	-2.2188	-2.7104	-2.2396	-2.3042	-2.8021	-2.2375	-2.6	24.480	18.992	154.521	203.936	171.658	191.098	110.699	152.009	-30.247	-60.705	101.933	-134.303	126.857	-94.040	29.051	67.639	0.00033421	0.00011396	0.00019634	960.86	2.8537e-06	5.7664e-06	1219.3	359.95	3.6243e-06	5.6113e-06	471.67	185.31	148.98	56.75	9.0846e-06	70.794	0.0018976	0.0019909	0.00054748	954.75	1.8794e-05	2.161e-05	1220.5	366.09	2.0969e-05	2.2208e-05	551.16	191.38	154.35	60.611	2.2323e-05	77.016	-91.940	3.760	-69.690	-130.074	18.691	-108.529	-131.817	-124.659	10.310	-48.016	-126.509	-122.582	-119.742	-114.502	36.007	-118.603	-8191	255	
1521.205	1	1	0	0	0.15843	0.17862	0.21783	0.09077	0.15085	0.10345	0.081443	0.18502	0.14598	0.10846	0.16432	0.16502	0.12489	0.25569	0.20979	0.19052	-2.2979	-2.0479	-2.8438	-2.6833	-2.1396	-2.8167	-2.4083	-2.5417	-2.9167	-2.0375	-2.6937	-2.5729	-2.1437	-2.7687	-2.3104	-2.2542	-96.613	196.471	157.876	215.333	-27.816	160.221	-101.715	-90.128	23.764	-37.297	20.765	103.462	112.534	93.740	165.432	-117.133	0.00061774	0.00079626	0.00024178	955.49	2.7859e-06	6.6441e-06	1207.4	359.07	6.1521e-06	1.3943e-05	468.12	185.4	149.23	56.605	5.0588e-06	70.998	0.0019391	0.0020424	0.00055906	947	1.9207e-05	2.2141e-05	1206.5	365.4	2.1558e-05	2.2534e-05	550.97	191.3	154.39	60.661	2.2793e-05	77.25	-97.399	-122.592	-30.345	-129.996	-17.578	-21.948	-131.867	-124.633	-25.264	23.766	-127.268	-122.534	-119.609	-114.718	56.265	-118.710	-8191	255	
1521.301	1	1	0	0	0.27468	0.16023	0.10356	0.38033	0.24441	0.17896	0.29441	0.16802	0.088387	0.15133	0.15981	0.15842	0.20838	0.21289	0.014553	0.13911	-2.4896	-1.9271	-2.7625	-2.6417	-2.0938	-2.8375	-2.3688	-2.2938	-2.9396	-2.2604	-2.6667	-2.7833	-2.1937	-2.7104	-2.2458	-2.3604	-40.339	56.666	-74.941	132.941	-66.777	38.215	191.204	59.525	-22.609	59.940	-46.610	6.580	-128.926	30.055	-19.404	-41.194	0.00017924	0.0015514	7.1375e-05	954.77	2.6301e-06	5.3778e-06	1210.5	359.32	7.9921e-06	4.3663e-06	467.43	185.18	149.73	56.715	8.1574e-06	71.681	0.0019969	0.002092	0.00058259	949.57	1.9622e-05	2.2739e-05	1211.6	365.92	2.1917e-05	2.3147e-05	555.09	191.98	155.06	61.063	2.3339e-05	77.852	-69.346	-42.821	37.077	-130.016	-12.987	-31.423	-131.603	-124.571	-21.081	-105.205	-126.989	-122.602	-119.699	-114.491	-97.918	-118.551	-8191	255	
1521.422	1	1	0	0	0.053629	0.19115	0.20009	0.31897	0.2217	0.19367	0.13275	0.25633	0.068812	0.2395	0.050274	0.05394	0.12173	0.1866	0.19195	0.12853	-2.4479	-1.9146	-2.5646	-2.7604	-1.9521	-2.75	-2.4437	-2.4521	-2.9813	-2.0917	-2.3792	-2.725	-1.9167	-2.8438	-2.3417	-2.3896	207.664	139.740	-75.591	112.957	7.706	-72.226	134.073	203.221	55.758	56.094	63.165	62.710	-136.382	-79.117	23.978	72.942	0.00045013	0.00038442	7.4695e-05	955.05	2.7769e-06	5.6732e-06	1210	359.91	8.3581e-06	3.3771e-06	471.33	186.05	149.69	57.239	1.0208e-05	72.356	0.0020269	0.0021329	0.00059269	951.03	2e-05	2.3106e-05	1213.4	366.55	2.2264e-05	2.3505e-05	556.84	192.26	155.11	61.18	2.3571e-05	78.348	-115.920	7.978	-11.224	-129.911	-25.459	15.115	-131.577	-124.474	-15.563	39.309	-127.031	-122.551	-120.070	-114.904	-44.404	-118.456	-8191	255	
1521.516	1	1	0	0	0.10113	0.15196	0.085874	0.13892	0.13119	0.26952	0.1524	0.074567	0.0465	0.1534	0.23157	0.27343	0.096052	0.24377	0.40925	0.29669	-2.5208	-2.2396	-2.3833	-2.9229	-2.0812	-2.6354	-2.7417	-2.2	-2.65	-2.3521	-2.5083	-2.85	-2.2979	-2.7604	-2.6958	-1.9917	61.242	85.251	32.802	158.031	-104.554	-115.395	157.604	189.849	130.553	135.294	-95.236	7.984	141.909	112.342	-112.385	154.405	0.00050939	0.0010624	0.00019831	956.97	6.114e-06	1.2058e-05	1221.2	362.33	4.0858e-06	1.1944e-05	474.63	187.76	150.8	57.234	1.0076e-05	73.062	0.0020275	0.0021519	0.00059469	953.61	2.0099e-05	2.3524e-05	1223.7	367.8	2.2445e-05	2.3714e-05	561.52	193.6	155.69	61.525	2.3698e-05	79.138	-115.712	-79.626	-30.443	-129.836	-39.128	83.509	-131.616	-124.627	16.624	4.658	-126.650	-122.568	-119.897	-115.232	10.629	-118.865	-8191	255	
1521.612	1	1	0	0	0.16693	0.21598	0.19022	0.23212	0.060176	0.03176	0.09626	0.1348	0.032806	0.04623	0.16496	0.16505	0.078655	0.2074	0.15197	0.18704	-2.6375	-2.3521	-2.5208	-2.8333	-2.1813	-2.6271	-2.8896	-2.2146	-2.7625	-2.3792	-2.1854	-2.8438	-2.1979	-2.7625	-2.7333	-2.1083	170.583	198.317	179.557	180.786	182.393	-136.711	-22.939	-62.510	44.930	-75.409	140.442	9.919	-82.598	-93.267	-50.277	-16.471	0.00056973	0.00081929	0.00024831	957.46	2.4266e-06	1.3665e-05	1204.8	359.17	7.5809e-06	4.5621e-06	469.88	185.44	149.27	57.511	5.8771e-06	71.987	0.0020505	0.0021706	0.00060288	950.88	2.033e-05	2.369e-05	1208.3	366.26	2.2683e-05	2.3946e-05	557.86	191.94	155.3	61.465	2.3837e-05	78.412	-124.749	-26.825	-41.187	-129.920	-13.393	-22.444	-131.607	-124.603	17.373	-55.145	-127.154	-122.574	-119.637	-115.083	14.617	-118.689	-8191	255	
1521.709	1	1	0	0	0.2709	0.11931	0.078283	0.030477	0.11944	0.066927	0.17902	0.064841	0.08865	0.044661	0.08784	0.13977	0.27461	0.11994	0.077713	0.1176	-2.6312	-2.4125	-2.1917	-2.8542	-2.1667	-2.5125	-2.8646	-2.1458	-2.8812	-2.3667	-2.4604	-2.6458	-2.1354	-2.3521	-2.7917	-2.0792	-121.846	117.580	153.433	-127.525	78.755	11.862	155.927	-55.516	121.729	31.987	-46.067	-65.966	55.593	128.551	201.635	62.573	0.00041406	0.00080019	0.00016574	946.52	2.5534e-06	4.5784e-06	1195.5	359.73	2.1429e-06	1.4402e-05	469.52	185.04	149.8	57.055	1.3075e-05	71.592	0.0020653	0.0021646	0.00060319	941.79	2.0269e-05	2.3789e-05	1198.3	365.81	2.2621e-05	2.3806e-05	558.05	191.26	155.19	61.501	2.3588e-05	78.326	-110.869	-23.907	-59.580	-129.950	5.390	-108.170	-131.427	-124.444	23.294	62.919	-126.836	-122.452	-120.059	-114.866	11.225	-118.130	-8191	255	
1521.805	1	1	0	0	0.18778	0.22158	0.25396	0.087623	0.44048	0.10289	0.089188	0.064827	0.14472	0.18978	0.19148	0.052351	0.1775	0.098993	0.075829	0.058181	-2.4188	-2.5271	-2.2229	-3	-2.3292	-2.5646	-2.9521	-2.225	-2.7438	-2.6729	-2.2042	-2.7875	-2.4188	-2.2896	-2.8854	-2.0354	-46.420	64.836	136.122	214.224	-36.059	173.614	102.538	89.953	-14.661	212.466	212.315	-51.605	-133.357	-136.664	90.388	49.205	0.00054747	0.00073527	0.00026488	949.05	2.0563e-06	9.8187e-06	1198.1	358.39	3.7572e-06	1.2249e-05	470.49	186.01	149.67	57.602	7.971e-06	72.967	0.002076	0.0021672	0.00060462	945.47	2.0297e-05	2.4013e-05	1203.9	366.11	2.2879e-05	2.4122e-05	557.34	192.72	155.78	61.785	2.3764e-05	78.934	-91.604	-29.349	-111.084	-129.867	-53.602	20.922	-131.411	-124.172	78.296	33.524	-127.037	-122.486	-119.704	-114.967	-44.897	-118.637	-8191	255	
1521.901	1	1	0	0	0.24857	0.072729	0.26844	0.045619	0.23948	0.3839	0.31889	0.15795	0.19315	0.093449	0.23049	0.1359	0.19503	0.11376	0.077479	0.092583	-2.1521	-2.7625	-2.1937	-3.1208	-2.4292	-2.3917	-3.0438	-2.0021	-2.5417	-2.8958	-2.0292	-2.8812	-2.4813	-2.2333	-2.825	-2.2229	8.877	194.137	-100.946	-84.081	130.786	144.240	-135.411	184.665	-116.293	20.258	149.372	-51.909	130.597	164.280	21.652	58.850	0.00027707	0.00097446	0.00012794	953.32	1.6731e-06	1.1194e-05	1206.9	361.04	6.3986e-06	5.3889e-07	468.08	187.36	150.71	58.146	4.5282e-06	73.054	0.0020871	0.0021795	0.00060832	948.86	2.0417e-05	2.4017e-05	1208.9	367.37	2.3014e-05	2.4019e-05	560.57	193.47	156.17	62.12	2.3759e-05	79.528	-73.974	-78.462	-61.988	-130.026	-71.303	13.627	-131.638	-124.367	15.243	-53.757	-126.580	-122.701	-119.869	-115.559	-34.570	-118.440	-8191	255	
1522.022	1	1	0	0	0.18868	0.168	0.23906	0.16816	0.058454	0.23273	0.23133	0.10162	0.20355	0.12542	0.12517	0.019778	0.14549	0.4051	0.28781	0.08701	-1.9729	-2.6208	-2.1646	-2.9458	-2.6021	-2.0229	-2.9875	-2.2292	-2.4292	-2.7083	-2.1208	-2.6833	-2.4771	-2.2208	-2.7208	-2.1917	38.871	97.306	97.241	111.994	191.052	215.518	135.655	-1.724	-40.488	11.021	-53.612	-24.844	-124.427	94.618	-87.193	-135.401	0.00054428	0.00048241	0.00022378	960.28	2.7096e-06	3.0779e-06	1213.4	361.16	3.5885e-06	2.918e-06	470.55	187.97	150.84	58.154	1.6291e-05	73.376	0.0021046	0.0021904	0.00060661	952.68	2.0613e-05	2.3699e-05	1218.1	368.99	2.3147e-05	2.381e-05	561.43	194.74	156.89	62.221	2.3955e-05	79.741	-86.913	209.252	-28.380	-130.139	-45.699	-112.769	-131.725	-124.354	56.824	-110.290	-126.254	-122.586	-119.600	-114.811	-32.123	-118.729	-8191	255	
1522.118	1	1	0	0	0.18221	0.3683	0.23619	0.16151	0.20477	0.060203	0.22178	0.30452	0.13934	0.224	0.090736	0.2863	0.06312	0.13196	0.048242	0.01004	-1.8729	-2.7687	-1.9625	-2.7667	-2.6083	-2.2229	-3.1042	-2.4458	-2.2292	-2.9437	-2.0625	-2.5792	-2.6125	-2.1875	-2.8438	-2.2708	134.484	-30.850	194.557	133.557	96.528	144.159	205.659	92.939	21.116	166.832	-116.219	192.991	165.712	-8.735	-120.473	-127.112	0.00052574	0.00074426	0.00023527	946.46	4.3518e-06	1.5065e-06	1190.5	358.26	3.5462e-06	4.9763e-06	469.35	185.63	150.93	57.864	6.4985e-06	72.13	0.0020997	0.002177	0.00060808	944.54	2.0552e-05	2.3801e-05	1195.8	367.32	2.3105e-05	2.3927e-05	559.52	192.89	156.54	62.278	2.3962e-05	79.194	-102.209	-94.187	-67.160	-129.707	17.002	199.329	-131.422	-124.157	-51.156	-49.062	-126.644	-122.701	-119.695	-114.844	3.611	-118.336	-8191	255	
1522.214	1	1	0	0	0.048887	0.14489	0.081638	0.21195	0.11078	0.20833	0.29713	0.098749	0.23271	0.060919	0.18848	0.12058	0.24391	0.14359	0.20439	0.2827	-1.9562	-2.7333	-2.075	-2.6813	-2.7104	-2.2438	-2.8563	-2.5042	-2.2812	-2.7	-2.2604	-2.5438	-2.725	-2.1813	-2.7354	-2.5917	0.075	12.691	195.704	158.532	-39.038	207.225	162.395	198.939	-99.701	137.590	39.648	47.693	-14.567	30.445	183.393	27.352	0.00056068	0.00050567	0.0002021	947.42	2.5144e-06	1.2742e-05	1195	358.38	7.4621e-06	8.8266e-06	462.29	185.57	150.53	57.844	8.7165e-06	72.29	0.0021046	0.0021796	0.00060783	942.93	2.0469e-05	2.3785e-05	1197.9	367.61	2.2988e-05	2.3744e-05	560.44	193.36	156.67	62.205	2.4016e-05	79.378	-92.439	-13.939	-79.164	-129.886	-6.183	-15.313	-131.606	-124.206	-31.799	12.714	-126.935	-122.456	-119.426	-114.696	-86.322	-118.270	-8191	255	
1522.285	1	1	0	0	0.31477	0.31429	0.081072	0.11769	0.077495	0.020102	0.16196	0.015531	0.038948	0.17094	0.32669	0.31659	0.29851	0.24092	0.1801	0.095246	-1.825	-2.9208	-2.175	-2.4271	-2.8521	-2.0479	-2.8521	-2.4979	-2.3667	-2.9354	-2.3792	-2.2646	-2.8438	-2.075	-2.6042	-2.5625	-36.244	-82.052	102.025	115.947	190.113	106.003	171.861	208.324	172.952	-71.827	-92.515	11.110	-141.988	-108.531	-43.224	87.689	0.00028962	0.00049514	0.00021355	951.33	2.2761e-06	1.2803e-05	1202	359.89	6.9721e-06	8.4186e-06	470.38	187.46	150.61	57.538	8.0103e-06	73.025	0.0020978	0.0021806	0.00061315	947.26	2.031e-05	2.4183e-05	1209.6	368.72	2.325e-05	2.405e-05	564.25	194.61	156.88	62.021	2.4123e-05	79.642	-138.386	4.186	-26.635	-129.862	-67.813	-2.187	-131.448	-124.282	-39.499	26.297	-126.943	-122.541	-119.496	-115.165	65.789	-118.333	-8191	255	
1522.382	1	1	0	0	0.18103	0.23591	0.062321	0.27072	0.026227	0.31998	0.23508	0.13123	0.12172	0.34417	0.17563	0.13248	0.06534	0.057481	0.11692	0.30127	-1.8646	-2.8688	-2.2271	-2.725	-2.9083	-2.2417	-2.8479	-2.6521	-2.1375	-2.8542	-2.45	-2.2979	-2.7479	-2.2125	-2.3229	-2.8896	-118.627	-93.458	167.881	158.731	-35.310	192.560	68.494	-98.072	30.418	-73.120	49.075	167.834	6.125	91.787	105.417	146.571	0.00047216	0.00015596	0.00010668	955.93	3.2041e-06	1.0581e-05	1220.5	362.95	3.4384e-06	1.2651e-05	472.94	189.16	151.18	57.858	1.1699e-06	73.415	0.0021148	0.0021802	0.00061397	953.45	2.0467e-05	2.4003e-05	1225.2	370.56	2.3067e-05	2.3926e-05	568.45	196.02	157.42	62.259	2.4102e-05	80.129	-88.469	157.866	-86.959	-129.906	-17.556	-71.350	-131.558	-124.270	72.159	25.243	-127.359	-122.253	-119.714	-114.669	-22.295	-117.993	-8191	255	
1522.502	1	1	0	0	0.37419	0.055296	0.15206	0.39777	0.13517	0.24481	0.27425	0.35116	0.21692	0.21258	0.20097	0.21754	0.23188	0.2369	0.19824	0.12729	-1.7229	-2.8146	-2.4896	-2.4688	-2.8208	-2.3438	-2.6625	-2.9042	-1.8417	-2.7646	-2.6542	-2.1854	-2.8125	-2.275	-2.4167	-2.7625	178.218	127.042	119.368	193.748	216.179	-103.631	171.927	168.395	93.160	77.205	100.842	-39.151	116.601	-135.767	71.170	206.010	0.00040961	0.00094605	0.00019501	965.59	2.3664e-06	1.125e-05	1230.8	365.02	5.2625e-06	6.0772e-06	473.2	188.44	151.36	57.566	8.5235e-06	73.193	0.0020871	0.0021764	0.0006021	959.06	2.0277e-05	2.4051e-05	1230.3	371.67	2.303e-05	2.4017e-05	567.54	195.53	157.74	62.096	2.4074e-05	79.763	-114.859	-77.104	-62.828	-130.063	-38.982	44.195	-131.926	-124.555	-57.095	17.935	-126.696	-122.485	-119.290	-114.703	-43.017	-118.734	-8191	255	
1522.597	1	1	0	0	0.11249	0.068026	0.1447	0.05706	0.3063	0.1904	0.12958	0.17011	0.31913	0.20298	0.30636	0.044465	0.097268	0.083887	0.17317	0.17647	-1.8	-2.6979	-2.6021	-2.4146	-2.7646	-2.35	-2.5563	-2.8958	-1.9458	-2.5375	-2.6167	-2.2083	-2.7771	-2.2958	-2.3792	-2.8854	215.235	-83.207	156.523	-111.806	65.550	188.823	165.625	-123.013	151.180	-19.124	-39.612	28.640	82.298	-15.788	137.386	213.930	0.00051117	0.00053375	0.00022234	947.39	3.9891e-06	1.0893e-05	1197.9	360.63	4.5082e-06	4.8211e-06	465.33	186.07	150.53	57.47	5.2794e-06	72.979	0.0020894	0.0021885	0.00060843	944.59	2.0336e-05	2.4127e-05	1205.2	368.95	2.3046e-05	2.409e-05	561.76	194.01	156.87	61.869	2.4078e-05	79.46	-101.524	-49.449	-34.710	-129.822	-63.588	27.448	-131.475	-124.150	7.118	-106.242	-126.775	-122.535	-119.354	-114.462	120.881	-118.405	-8191	255	
1522.695	1	1	0	0	0.22962	0.35486	0.3361	0.084257	0.053667	0.09239	0.13182	0.1058	0.33911	0.23407	0.21533	0.29215	0.095568	0.1924	0.12122	0.19764	-1.7354	-2.6042	-2.6479	-2.4021	-2.6521	-2.3937	-2.4771	-2.8958	-2.1042	-2.4979	-2.7313	-1.9438	-2.7917	-2.4479	-2.2687	-2.8979	176.077	150.482	-73.455	178.629	204.173	117.113	9.025	63.702	74.254	8.899	-94.248	198.393	202.162	138.085	-122.099	-24.182	0.00041098	0.0012159	0.00018942	949.65	3.0096e-06	1.1318e-05	1203.5	361.37	3.4695e-06	1.2139e-05	472.11	187	151.15	56.98	3.6169e-06	72.278	0.0020984	0.0022061	0.00060703	944.67	2.0277e-05	2.3671e-05	1209.1	368.18	2.2901e-05	2.3853e-05	560.83	193.79	156.25	61.469	2.3698e-05	78.823	-127.361	7.051	-11.941	-129.994	-11.889	-103.120	-131.671	-124.418	47.936	33.089	-127.124	-122.605	-120.007	-114.706	-97.237	-118.578	-8191	255	
1522.813	1	1	0	0	0.1365	0.17813	0.25975	0.048688	0.61085	0.16364	0.090384	0.19241	0.30124	0.22048	0.16894	0.048964	0.21443	0.070961	0.19662	0.10496	-1.8521	-2.4479	-2.6729	-2.2812	-2.6562	-2.4979	-2.3229	-2.825	-2.2792	-2.6333	-2.7396	-2.1833	-2.6896	-2.5708	-2.2458	-2.8125	139.056	60.540	173.620	142.388	8.551	214.632	75.884	186.232	5.420	128.895	159.298	134.167	-49.467	37.277	-76.655	-26.817	0.00040949	0.0010209	0.00023012	950.7	2.0368e-06	3.9605e-06	1211.9	359.36	8.0383e-06	1.0072e-05	474.06	187.4	149.83	56.697	7.0714e-06	72.646	0.002079	0.0021753	0.00059254	946.26	2.0257e-05	2.3596e-05	1215.9	367.14	2.3284e-05	2.4379e-05	563.48	194.23	156.09	61.595	2.4688e-05	79.478	-108.575	-23.944	-9.123	-129.854	-5.813	-41.551	-131.614	-124.239	22.154	-29.700	-126.513	-122.548	-119.549	-114.466	67.419	-118.158	-8191	255	
1522.885	1	1	0	0	0.14408	0.10469	0.13869	0.056207	0.17301	0.13665	0.21436	0.19165	0.1344	0.18614	0.15961	0.17806	0.044064	0.23043	0.085642	0.25738	-2.0208	-2.3063	-2.8417	-2.3771	-2.6229	-2.6729	-2.3229	-3.0083	-2.3	-2.3438	-2.7542	-2.0979	-2.7	-2.7479	-2.2229	-2.8	166.403	-71.629	124.129	105.377	-133.180	211.198	185.411	-116.415	85.342	107.213	-98.502	153.358	112.624	-138.102	175.718	11.696	0.00035821	0.00047672	4.4252e-05	949.55	1.1885e-06	8.1531e-06	1205.2	358.38	7.1811e-06	7.0076e-06	474.65	187.52	149.91	57.543	1.3856e-05	72.077	0.0021559	0.0022792	0.00062926	946.71	2.1434e-05	2.5332e-05	1217.2	367.5	2.4488e-05	2.5785e-05	572.36	195.4	156.69	62.185	2.5666e-05	80.342	-121.302	-58.349	-91.965	-129.737	-129.318	27.217	-131.175	-124.327	15.559	8.649	-126.336	-122.443	-119.422	-114.758	-73.761	-118.354	-8191	255	
1522.981	1	1	0	0	0.15544	0.21902	0.071599	0.32647	0.12924	0.1242	0.094566	0.24178	0.33485	0.15617	0.17619	0.16494	0.22261	0.24806	0.12949	0.16556	-2.1042	-2.4208	-2.8937	-2.3979	-2.5	-2.8042	-2.4437	-2.8104	-2.5458	-2.4479	-2.7458	-2.1146	-2.475	-2.8063	-2.2792	-2.7	177.659	-112.959	-34.147	197.213	202.901	144.279	208.529	85.373	-63.447	25.275	-12.020	-107.104	71.811	58.700	5.644	86.607	0.00045713	0.00024585	0.00011592	944.9	5.1398e-06	1.2285e-05	1194.5	355.47	1.213e-05	1.1212e-05	469.43	185.54	150.05	57.561	4.9627e-06	72.443	0.00225	0.0023684	0.00064955	945.41	2.2096e-05	2.5882e-05	1208.7	366.53	2.4963e-05	2.6341e-05	571.74	193.94	156.04	62.34	2.6341e-05	80.246	-72.420	-93.199	-41.496	-129.578	-19.116	-68.142	-131.095	-124.005	25.506	4.769	-125.705	-122.285	-119.920	-115.433	40.191	-118.742	-8191	255	
1523.102	1	1	0	0	0.13461	0.31978	0.060012	0.1693	0.10179	0.2311	0.16886	0.020852	0.091403	0.14511	0.10852	0.19743	0.17053	0.079892	0.2701	0.28985	-2.0958	-2.1896	-2.9104	-2.4562	-2.3312	-2.8292	-2.4646	-2.6979	-2.6562	-2.1271	-2.8542	-2.4437	-2.4562	-2.8125	-2.2542	-2.6312	47.905	112.745	60.462	-117.679	87.689	104.481	184.191	168.800	143.959	-128.911	-136.781	75.124	54.492	68.002	88.120	-31.201	0.00057173	0.00053151	0.00030219	942.87	2.3031e-06	1.334e-05	1194.9	358.01	4.2422e-06	3.8738e-06	465.6	185.12	149.7	56.603	7.1009e-06	72.182	0.0022941	0.0024186	0.00066152	937.31	2.2554e-05	2.6295e-05	1197	365.42	2.5326e-05	2.6573e-05	572.03	193.55	155.87	62.126	2.6735e-05	80.201	-95.431	-64.841	-79.971	-129.934	-37.487	11.786	-131.796	-124.571	4.109	-42.716	-126.238	-122.438	-119.598	-114.793	-0.749	-118.743	-8191	255	
1523.198	1	1	0	0	0.050804	0.056251	0.35637	0.091554	0.10245	0.027786	0.14315	0.096245	0.10757	0.042213	0.27285	0.36444	0.23963	0.11413	0.096328	0.074475	-2.3458	-2.0604	-2.9208	-2.4417	-2.4188	-3.0104	-2.2833	-2.6958	-2.8104	-2.1833	-2.6813	-2.4583	-2.2729	-2.7833	-2.2958	-2.5333	-112.628	115.810	128.733	40.283	154.173	143.227	110.886	-58.110	207.817	6.107	146.757	-137.579	-66.451	-95.475	71.268	168.085	0.00040462	0.00068645	0.000311	940.11	3.3922e-06	5.6325e-06	1194.3	355.73	7.8845e-06	2.3366e-06	467.27	185.38	148.41	56.262	6.9667e-06	72.846	0.00231	0.0024389	0.00067246	938.45	2.2808e-05	2.6442e-05	1204.2	365.19	2.5658e-05	2.7124e-05	577.93	193.85	155.73	61.942	2.7441e-05	80.251	-109.240	-21.052	-23.079	-129.692	-31.606	100.564	-131.364	-124.201	42.600	62.300	-125.982	-122.117	-119.341	-114.063	2.552	-118.082	-8191	255	
1523.294	1	1	0	0	0.14396	0.16986	0.097366	0.19572	0.16501	0.19815	0.12017	0.2629	0.16841	0.10497	0.20048	0.15596	0.13384	0.12675	0.17327	0.36249	-2.3604	-1.9708	-2.6729	-2.4875	-2.1937	-2.7521	-2.3771	-2.5771	-2.8875	-2.2208	-2.6542	-2.3667	-2.2417	-2.8063	-2.4583	-2.3458	146.072	157.099	-20.705	147.724	-110.962	111.863	193.544	-11.287	49.158	-31.423	107.277	166.988	197.279	2.959	208.655	53.073	0.00035344	0.00067566	0.00011798	942.58	4.2288e-06	1.0979e-05	1206	356.74	4.5325e-06	6.3139e-06	465.76	186.97	148.44	56.517	1.4112e-06	72.15	0.0023531	0.0024901	0.00069205	942.57	2.3336e-05	2.7071e-05	1214.9	365.67	2.6168e-05	2.7584e-05	580.8	194.84	155.79	62.201	2.7678e-05	80.767	-97.537	-103.780	-54.241	-129.662	-42.836	-47.474	-131.195	-124.231	34.466	21.354	-126.973	-122.111	-119.287	-114.544	-0.371	-117.897	-8191	255	
1523.415	1	1	0	0	0.13602	0.20226	0.31	0.24542	0.15266	0.16177	0.2484	0.23435	0.033434	0.11802	0.19169	0.072819	0.059014	0.17809	0.22309	0.0626	-2.3625	-2.0625	-2.5583	-2.6604	-2.2042	-2.9458	-2.4646	-2.3896	-2.8146	-2.2854	-2.4208	-2.7583	-2.1083	-2.8646	-2.3396	-2.4604	80.377	138.679	-80.476	204.501	143.192	-14.819	-58.510	68.965	203.100	-8.210	82.384	173.622	109.499	33.187	59.167	58.950	0.00054284	0.00031244	0.00010705	947.15	4.3105e-06	1.5176e-05	1214.2	357.94	1.9231e-06	1.5642e-05	469.64	187.56	148.9	57.354	8.6201e-06	73.378	0.0023773	0.0025192	0.00070175	946.41	2.3531e-05	2.7429e-05	1224	366.88	2.6369e-05	2.7801e-05	584.32	195.96	156.32	62.709	2.7851e-05	81.546	-105.705	172.987	57.923	-129.661	-20.934	33.878	-131.261	-124.051	-34.348	-14.359	-126.185	-122.189	-119.707	-114.549	37.126	-117.930	-8191	255	
1523.511	1	1	0	0	0.10051	0.43538	0.28403	0.14691	0.041809	0.14023	0.32191	0.34158	0.17621	0.048383	0.021851	0.096593	0.12892	0.063363	0.12499	0.20976	-2.475	-1.8958	-2.5729	-2.9708	-2.0896	-2.9062	-2.6896	-2.1771	-2.8542	-2.2958	-2.55	-2.7521	-2.1333	-2.7375	-2.3833	-2.2375	-47.400	82.034	-99.148	172.271	-100.537	59.855	113.094	158.427	-7.281	-34.313	119.735	61.994	-83.693	146.204	-64.056	-55.731	0.00038986	0.00071158	8.0194e-05	944.53	3.6011e-06	1.2938e-05	1199.3	356.68	5.6674e-06	1.5434e-06	465.99	187.8	150.35	57.237	1.938e-05	72.947	0.0024125	0.0025449	0.00070991	941.32	2.3796e-05	2.7867e-05	1205.6	365.71	2.6693e-05	2.8271e-05	582.22	194.72	156.56	62.849	2.8291e-05	81.014	-95.975	-71.568	-31.629	-129.863	-51.458	20.768	-131.445	-124.423	0.417	210.660	-127.381	-122.591	-119.883	-114.851	0.068	-118.649	-8191	255	
1523.581	1	1	0	0	0.042322	0.053904	0.1749	0.22149	0.15306	0.28764	0.28123	0.036681	0.070122	0.042219	0.10848	0.18711	0.20087	0.21528	0.39278	0.20114	-2.5396	-2.1917	-2.3438	-2.8083	-2.0167	-2.7396	-2.7188	-2.3083	-2.9313	-2.3312	-2.3833	-2.8104	-2.1937	-2.4646	-2.5375	-2.0667	214.308	81.361	166.306	-85.122	1.974	46.246	188.358	-93.817	-122.528	21.609	-13.559	-44.239	115.247	96.462	49.203	-24.195	0.00035002	0.00075619	0.00013397	940.09	9.7983e-07	9.5356e-06	1192	357.03	7.8607e-06	1.0668e-05	466.6	186.2	149.93	57.782	8.2836e-06	73.227	0.0024515	0.0025867	0.0007226	936.44	2.4106e-05	2.824e-05	1200.9	365.6	2.7084e-05	2.8607e-05	584.69	194.58	156.58	62.848	2.8526e-05	81.349	-73.187	-47.587	-35.132	-129.829	-15.171	-3.849	-131.382	-124.270	-6.781	-53.771	-127.171	-122.245	-119.625	-114.529	12.234	-118.555	-8191	255	
1523.677	1	1	0	0	0.21837	0.099674	0.07166	0.17171	0.32705	0.061171	0.23582	0.30978	0.10266	0.086478	0.30599	0.12625	0.17169	0.10046	0.18597	0.14282	-2.4771	-2.3896	-2.3458	-3.1146	-2.1104	-2.6188	-2.8396	-2.1125	-2.9625	-2.3667	-2.3792	-2.6896	-2.2167	-2.5042	-2.7062	-2.0333	186.748	-112.515	176.205	17.716	10.613	126.542	162.609	178.069	137.940	-90.182	-141.754	70.932	183.917	40.003	145.968	174.839	0.00038841	0.00028251	0.00020106	941.84	1.7342e-06	1.1085e-05	1196.6	355.2	7.2993e-06	7.6055e-06	473.73	185.63	147.68	56.712	9.5135e-06	72.664	0.0024583	0.0025913	0.00072751	938.1	2.4191e-05	2.8418e-05	1205.9	365.18	2.7234e-05	2.8745e-05	585.53	194.71	156.08	62.766	2.8527e-05	81.427	-88.498	-75.316	-28.546	-129.904	8.385	-45.805	-131.235	-123.953	-10.715	2.361	-126.644	-121.941	-119.172	-114.331	108.643	-118.100	-8191	255	
1523.798	1	1	0	0	0.22556	0.21011	0.25204	0.35365	0.089606	0.15775	0.20904	0.1583	0.33307	0.22313	0.17561	0.1792	0.0015865	0.21023	0.23399	0.2011	-2.4396	-2.2979	-2.1854	-2.9625	-2.1667	-2.4646	-2.9688	-2.1437	-2.7958	-2.6167	-1.9937	-2.7875	-2.2062	-2.5	-2.8167	-2.2292	82.883	71.564	217.104	-141.249	-10.772	-84.505	177.258	40.092	42.970	188.371	29.703	135.925	180.000	69.846	126.103	206.793	0.00065054	0.001012	0.00031996	945.85	1.997e-06	4.0475e-06	1206.8	357.07	5.2618e-06	7.6013e-06	472.41	187.28	148.71	56.89	6.5612e-06	73.071	0.0024967	0.0026093	0.00072497	941.92	2.4382e-05	2.8544e-05	1214.4	366.11	2.7402e-05	2.874e-05	587.79	195.92	156.6	62.795	2.8467e-05	81.901	-92.000	-106.295	-32.642	-129.848	43.796	79.089	-131.397	-124.284	13.072	167.339	-127.206	-121.969	-119.015	-114.260	-42.672	-117.994	-8191	255	
1523.894	1	1	0	0	0.093044	0.20024	0.10536	0.041121	0.14973	0.31732	0.17908	0.045179	0.19632	0.12511	0.036444	0.14594	0.1084	0.20657	0.11424	0.20691	-2.275	-2.5979	-2.0875	-3.0417	-2.3146	-2.3312	-2.9188	-2.3667	-2.6771	-2.7208	-2.4229	-2.9313	-2.35	-2.3563	-2.9292	-2.3354	-130.996	137.441	172.609	192.587	129.960	103.386	150.333	86.904	37.187	165.195	191.399	186.776	51.480	29.352	163.970	-25.203	0.00037352	0.00063548	0.00014145	950.06	2.6807e-06	9.734e-06	1219.3	358.62	3.7198e-06	6.4038e-06	477.94	186.71	149.37	57.412	1.6566e-06	73.027	0.0024979	0.0025958	0.00072751	946.19	2.4346e-05	2.858e-05	1224.4	367.5	2.7459e-05	2.8649e-05	589.58	196.13	156.93	63.021	2.8326e-05	81.916	-100.662	-28.239	-74.830	-129.837	-45.475	41.290	-131.503	-124.395	83.308	-59.542	-126.645	-122.144	-119.381	-114.126	-0.729	-118.171	-8191	255	
1523.990	1	1	0	0	0.048665	0.047526	0.053567	0.14853	0.18234	0.071753	0.39716	0.19575	0.18701	0.11655	0.11314	0.094643	0.23745	0.27247	0.19885	0.13306	-2.2687	-2.4917	-2.2417	-2.9917	-2.5542	-2.4292	-3	-2.1208	-2.5042	-2.8021	-2.1708	-2.7875	-2.4104	-2.0687	-2.775	-2.1708	173.834	108.819	-22.293	195.099	3.652	188.222	-134.724	197.476	-30.466	110.286	205.568	193.344	100.348	-128.234	-48.004	80.046	0.00053609	0.00047918	9.7572e-05	931.65	1.3823e-06	1.1064e-05	1181.9	354.3	5.1144e-06	6.4637e-06	464.58	184.5	149.3	56.975	3.6164e-06	72.521	0.0024946	0.0025958	0.00072168	934.86	2.4289e-05	2.8626e-05	1198.5	365.27	2.7485e-05	2.8486e-05	583.91	194.63	156.68	62.827	2.8328e-05	81.606	-104.672	-114.316	-53.324	-129.519	-50.067	-24.598	-130.936	-123.810	-26.011	2.155	-125.791	-121.949	-119.108	-114.790	6.856	-117.504	-8191	255	
1524.086	1	1	0	0	0.12687	0.11294	0.12086	0.24537	0.12137	0.059639	0.050094	0.1401	0.23089	0.10418	0.10645	0.069518	0.14091	0.11766	0.25341	0.23564	-2.3667	-2.5312	-2.0979	-2.9625	-2.5771	-2.1125	-2.9813	-2.3354	-2.5125	-2.8292	-2.1521	-2.5333	-2.5938	-2.0938	-2.9938	-2.3438	83.950	15.505	103.480	125.977	-18.639	88.261	214.800	-136.012	3.060	138.200	-4.043	-26.238	-7.056	-6.770	161.596	-80.017	0.0003778	0.00052743	0.00026367	930.23	1.1043e-06	9.3292e-06	1192.7	354.51	5.3855e-06	6.1714e-06	464.07	185.17	148	56.765	8.2169e-06	72.659	0.0024909	0.0026052	0.00072322	934.23	2.4243e-05	2.8676e-05	1202.5	365.15	2.742e-05	2.8423e-05	583.97	195.11	156.52	62.784	2.8409e-05	81.831	-117.130	60.927	-29.186	-129.373	11.202	-57.592	-131.354	-123.728	-49.021	-43.904	-126.494	-121.624	-118.792	-113.721	-16.235	-117.692	-8191	255	
1524.182	1	1	0	0	0.11038	0.10746	0.26082	0.1803	0.052491	0.039945	0.2325	0.19617	0.12122	0.17556	0.18038	0.039194	0.15695	0.16281	0.056705	0.17806	-2.1437	-2.8333	-2.2167	-2.7062	-2.7562	-2.1708	-2.8646	-2.5542	-2.5375	-2.9833	-2.1917	-2.6354	-2.7687	-2.2125	-2.7583	-2.3396	-17.128	-109.118	211.261	-140.594	-14.679	88.955	-134.078	126.397	212.140	159.481	26.253	-109.851	-28.064	101.914	25.843	65.066	0.00053366	0.00031013	0.00012423	934.9	3.4633e-06	6.2091e-06	1191.1	353.32	9.0362e-06	9.0406e-06	466.77	186.33	148.05	56.718	4.2412e-06	73.298	0.0025048	0.0025912	0.00072559	937.2	2.4325e-05	2.8267e-05	1206.5	365.09	2.7516e-05	2.8431e-05	586.2	195.58	156.3	62.619	2.8536e-05	81.983	-76.526	28.093	-89.197	-129.445	-23.742	175.687	-130.831	-123.853	-28.881	32.920	-126.065	-122.038	-119.043	-113.795	-49.032	-117.744	-8191	255	
1524.278	1	1	0	0	0.054881	0.20451	0.10332	0.13492	0.16267	0.25631	0.23896	0.15374	0.087185	0.18372	0.073155	0.14647	0.11871	0.17913	0.076536	0.079828	-1.8271	-2.7687	-2.1312	-2.8396	-2.7	-2.1354	-2.9292	-2.5104	-2.2833	-2.7292	-2.2167	-2.4062	-2.7021	-2.2417	-2.8667	-2.6167	130.204	12.312	55.016	136.389	-113.712	-15.390	146.777	92.554	185.138	93.830	4.019	-111.459	-36.677	63.789	46.527	216.776	0.00034239	0.00051862	9.975e-05	942.62	2.4248e-06	7.2698e-06	1211.2	356.68	2.3808e-06	7.6605e-06	479.35	188.01	150.05	56.782	8.8628e-06	73.777	0.0024881	0.0025745	0.00072673	941.95	2.4257e-05	2.8425e-05	1219.8	366.16	2.7478e-05	2.8505e-05	591.08	196.92	156.91	62.95	2.8561e-05	82.503	-90.719	-92.377	3.060	-129.709	-40.464	-90.253	-131.351	-124.364	-27.967	73.946	-126.132	-122.182	-119.704	-114.620	9.131	-117.923	-8191	255	
1524.375	1	1	0	0	0.1869	0.18547	0.32896	0.28153	0.11199	0.27451	0.16073	0.062328	0.23824	0.12585	0.16301	0.26809	0.17645	0.017253	0.11413	0.21065	-1.7375	-2.7458	-2.3	-2.575	-2.7417	-2.1688	-2.9	-2.5542	-2.1625	-2.9125	-2.2292	-2.2208	-2.7958	-2.2438	-2.6063	-2.7396	136.527	-13.854	74.590	212.328	71.352	-73.367	-141.475	89.383	11.847	-83.751	75.563	-126.884	91.036	96.942	115.822	-18.953	0.00037631	0.00044749	0.00015253	944.59	3.2118e-06	1.1648e-05	1208.2	357.08	4.9558e-06	1.1369e-05	468.14	187.57	149.16	57.413	1.2818e-05	74.018	0.002485	0.0025913	0.00072283	941.93	2.3938e-05	2.8597e-05	1214.5	366.17	2.7086e-05	2.8438e-05	585.55	195.92	156.61	63.012	2.8453e-05	81.865	-104.488	-54.289	26.525	-129.819	-47.132	-19.020	-131.336	-124.349	-13.897	-9.662	-126.495	-122.407	-119.714	-114.950	4.726	-118.267	-8191	255	
1524.495	1	1	0	0	0.17817	0.19449	0.099849	0.081152	0.20768	0.23177	0.17391	0.045153	0.090287	0.1812	0.17665	0.1189	0.22091	0.19474	0.22288	0.16581	-1.7313	-2.7812	-2.2167	-2.3646	-2.7812	-2.2792	-2.6229	-2.6646	-2.0917	-2.5854	-2.4208	-2.2396	-2.9562	-2.2188	-2.55	-2.7562	7.201	-132.222	-6.240	146.560	1.397	188.642	-42.269	135.823	-21.463	-131.053	161.186	210.098	-100.441	189.752	71.755	-109.322	0.00052384	0.00038916	0.00018644	932.08	2.8248e-06	1.375e-05	1187.8	355.97	7.6107e-06	7.0587e-06	465.74	186.22	148.98	56.577	1.9326e-05	73.632	0.0024628	0.0025736	0.00071964	930.23	2.3956e-05	2.8413e-05	1193.7	364.75	2.7146e-05	2.8453e-05	581.84	195.16	156.63	62.85	2.8432e-05	81.816	-100.245	-45.478	38.016	-129.946	-53.255	8.392	-131.546	-124.266	-11.756	-21.660	-126.574	-122.181	-119.484	-114.226	-10.507	-117.761	-8191	255	
1524.590	1	1	0	0	0.12583	0.20177	0.10491	0.30145	0.17374	0.15747	0.087637	0.36332	0.23794	0.20767	0.059673	0.11748	0.12476	0.09935	0.10569	0.075553	-1.8396	-2.6542	-2.5	-2.2729	-2.8187	-2.2625	-2.4917	-2.7646	-2.2333	-2.8625	-2.6625	-2.0708	-2.9688	-2.3292	-2.2521	-2.8625	94.387	46.751	36.004	129.885	54.151	213.209	215.824	95.326	57.250	133.115	26.209	205.046	74.094	-43.331	-114.402	194.819	0.00037709	0.00049774	0.00030067	933.66	2.2337e-06	1.2764e-05	1189.5	355.51	5.813e-06	7.6988e-06	465.73	185.88	147.99	56.369	4.7704e-06	73.322	0.0024777	0.0025753	0.00072116	931.27	2.389e-05	2.8377e-05	1198.5	364.58	2.6998e-05	2.8398e-05	584.7	195.24	156.24	62.731	2.8375e-05	81.589	-62.446	-28.448	-46.356	-129.754	-92.590	-72.406	-131.388	-124.209	-53.723	14.702	-127.038	-122.001	-118.995	-114.108	-73.190	-117.338	-8191	255	
1524.686	1	1	0	0	0.21252	0.27881	0.21169	0.19797	0.10922	0.055737	0.089094	0.074938	0.21526	0.14418	0.12577	0.2511	0.057239	0.042435	0.23001	0.068984	-1.7375	-2.8354	-2.5563	-2.2646	-2.7833	-2.4208	-2.375	-2.7667	-2.0229	-2.5771	-2.7875	-2.1875	-2.7562	-2.3438	-2.1208	-2.7458	91.698	186.270	55.486	179.910	-94.960	135.416	156.361	-5.291	-91.389	-27.002	-17.006	116.317	104.864	-68.823	-46.260	59.450	0.00019288	0.00092188	0.00015183	933.27	2.995e-06	2.354e-05	1190.4	351.83	5.3159e-06	1.7333e-05	467.51	185.28	147.97	56.907	9.453e-06	73.387	0.0024605	0.0025759	0.00071197	934.11	2.3758e-05	2.8236e-05	1206.6	364.27	2.7161e-05	2.8321e-05	584.95	195.88	156.14	62.682	2.8389e-05	81.764	-102.964	-72.440	-3.684	-129.680	-18.971	-19.296	-130.807	-123.573	-31.892	19.876	-126.191	-121.767	-118.996	-114.242	-4.027	-117.969	-8191	255	
1524.782	1	1	0	0	0.22866	0.058637	0.054582	0.17739	0.29132	0.18413	0.074485	0.13559	0.16503	0.2683	0.18261	0.035246	0.26549	0.18178	0.07329	0.2145	-1.8167	-2.475	-2.7896	-2.1167	-2.6479	-2.4146	-2.4208	-2.9417	-2.1833	-2.5104	-2.7333	-1.9917	-2.8979	-2.5687	-2.0708	-2.8396	48.888	126.750	208.121	13.157	217.342	181.292	29.157	150.309	77.382	-105.958	-126.375	-53.044	205.238	-44.122	38.017	183.558	0.00045771	0.00084819	0.00020901	934.81	3.4685e-06	1.6004e-06	1204	354.6	3.8559e-06	2.3732e-06	472.4	188.59	149.03	56.839	3.8059e-06	73.128	0.0024558	0.00258	0.00070946	937.99	2.3864e-05	2.8223e-05	1217.8	365.82	2.706e-05	2.8297e-05	587.9	197.49	156.93	62.903	2.8261e-05	82.442	-102.958	-44.962	-46.946	-129.537	-17.924	96.847	-130.920	-123.780	-90.313	19.477	-126.148	-121.645	-119.343	-113.899	-27.806	-117.622	-8191	255	
1524.878	1	1	0	0	0.11074	0.16547	0.15735	0.20735	0.10719	0.12132	0.16944	0.1016	0.29936	0.16057	0.02598	0.26148	0.13132	0.20081	0.1314	0.16617	-1.975	-2.6063	-2.7542	-2.2854	-2.7604	-2.7271	-2.2667	-2.7792	-2.2646	-2.4313	-2.6562	-2.1396	-2.7417	-2.6833	-2.125	-2.8292	97.210	-40.792	50.096	180.668	181.256	85.447	151.149	-127.099	189.936	-127.768	131.165	-112.619	180.268	-116.040	97.171	-3.233	0.00037692	0.001524	0.00013947	936.14	2.62e-06	1.2437e-05	1199.4	357.13	4.4222e-06	1.1598e-05	466.57	187.4	149.32	57.317	1.3725e-05	73.588	0.0024649	0.0025734	0.00070736	935.61	2.3857e-05	2.7892e-05	1207.3	365.46	2.7058e-05	2.8372e-05	583.53	196.18	156.5	62.942	2.8224e-05	81.97	-127.658	-88.632	-22.039	-129.765	-50.780	-3.763	-131.381	-124.350	-51.425	-56.812	-125.603	-122.244	-119.501	-114.994	-27.267	-118.368	-8191	255	
1524.974	1	1	0	0	0.24143	0.093355	0.26939	0.18196	0.10681	0.30546	0.15382	0.14291	0.11325	0.21419	0.085058	0.14575	0.15459	0.23052	0.30105	0.040455	-1.9	-2.4083	-2.8729	-2.4417	-2.6208	-2.6458	-2.3333	-2.925	-2.3	-2.1771	-2.8167	-2.0771	-2.4688	-2.7354	-2.0292	-2.8958	-84.107	141.283	80.961	117.988	-0.212	-77.985	184.533	115.433	-85.595	107.869	110.184	-79.323	-138.356	-112.177	12.850	182.985	0.00066925	0.00080687	0.00023335	928.16	1.001e-06	7.7458e-06	1187	355.38	7.9663e-06	6.6575e-06	462.21	187.25	149.72	57.097	1.0527e-05	73.798	0.0024541	0.0025549	0.00070493	928.33	2.3854e-05	2.795e-05	1196.1	364.37	2.71e-05	2.8257e-05	581.7	195.8	156.72	62.782	2.8215e-05	82.172	-87.298	2.727	0.575	-129.587	1.326	3.474	-131.376	-124.164	16.507	-13.243	-125.632	-121.959	-119.234	-114.477	-35.389	-118.178	-8191	255	
1525.095	1	1	0	0	0.035925	0.019883	0.23979	0.19687	0.086694	0.080395	0.17364	0.014491	0.18388	0.22808	0.28802	0.27001	0.28159	0.41255	0.037355	0.16291	-2.1396	-2.3146	-2.8229	-2.3646	-2.5021	-2.7542	-2.3604	-2.7583	-2.5229	-2.1813	-2.9625	-2.1562	-2.2917	-2.6354	-2.0396	-2.7104	-23.631	76.653	-84.856	211.550	77.539	-23.548	161.216	189.594	-17.413	101.553	151.860	153.214	9.825	47.299	-131.757	-83.857	0.00036307	0.00019213	0.00010229	927.71	2.3782e-06	1.3537e-05	1189.9	353.13	8.4971e-06	1.066e-05	469.55	187.67	149.41	56.836	6.41e-06	73.503	0.0024378	0.0025614	0.00070647	930.49	2.396e-05	2.761e-05	1203.2	364.43	2.6779e-05	2.8132e-05	582.82	196.5	157.09	62.695	2.8039e-05	82.168	-141.768	-13.992	-6.187	-129.311	-79.869	-16.579	-131.052	-123.746	5.995	-25.043	-125.743	-121.814	-119.308	-114.116	8.451	-117.719	-8191	255	
1525.191	1	1	0	0	0.22063	0.12854	0.12519	0.25509	0.21377	0.045187	0.24036	0.080203	0.18712	0.1959	0.066736	0.15108	0.14744	0.24173	0.079416	0.13013	-2.2021	-1.9521	-2.7062	-2.4396	-2.5396	-2.775	-2.3063	-2.8354	-2.6625	-2.0292	-2.7687	-2.4562	-2.3125	-2.9292	-2.2812	-2.6229	49.811	-12.105	207.221	151.565	-52.005	22.867	217.601	-15.590	-124.837	-79.154	119.015	37.350	64.767	62.594	56.621	135.266	0.00036827	0.0006937	6.8083e-05	932.78	3.7243e-06	8.6465e-06	1200.2	354.82	5.5259e-07	1.2358e-05	478.43	188.23	150.12	57.43	1.6145e-05	74.559	0.0024333	0.0025528	0.00070482	935.13	2.3809e-05	2.7712e-05	1212.5	365.83	2.6712e-05	2.8131e-05	584.91	197.46	157.04	62.84	2.8027e-05	82.565	-90.805	-12.666	-51.711	-129.394	-66.394	12.361	-131.003	-124.027	26.574	1.043	-126.673	-121.705	-119.362	-114.395	-43.682	-118.142	-8191	255	
1525.287	1	1	0	0	0.17056	0.29153	0.17426	0.11775	0.33217	0.11854	0.10218	0.15804	0.14931	0.11034	0.35778	0.28307	0.24613	0.16411	0.2958	0.21487	-2.3042	-2.1604	-2.6437	-2.6312	-2.3312	-2.8146	-2.3646	-2.5312	-2.6208	-2.1333	-2.7938	-2.6521	-2.3438	-2.6396	-2.3458	-2.525	77.857	149.752	133.303	64.925	166.683	171.636	137.972	136.158	183.652	58.324	148.238	3.068	-18.718	194.345	-101.727	-30.856	0.00030327	0.0012738	8.0082e-05	941.46	5.0915e-06	9.3239e-06	1215.3	359.14	2.7614e-06	7.3688e-06	475.53	189.79	150.15	57.521	1.2506e-05	74.212	0.002427	0.0025489	0.00070192	939.5	2.3732e-05	2.7506e-05	1225.2	367.53	2.6725e-05	2.7811e-05	591.78	198.61	157.63	63.002	2.799e-05	82.7	-88.804	-105.913	5.098	-129.744	-13.519	121.560	-131.308	-124.507	34.414	40.037	-126.848	-122.086	-119.041	-114.169	54.323	-118.195	-8191	255	
1525.383	1	1	0	0	0.19107	0.17432	0.098866	0.19943	0.065642	0.15332	0.29984	0.10737	0.06354	0.23295	0.10812	0.16021	0.22584	0.2715	0.12884	0.25753	-2.4521	-2.1396	-2.7438	-2.6688	-2.2708	-2.8979	-2.3729	-2.4021	-2.7875	-1.9042	-2.6562	-2.6458	-2.1667	-2.6917	-2.3438	-2.1417	86.359	49.506	197.707	-60.102	24.365	-121.674	138.047	-36.185	2.293	-58.562	215.522	201.110	-127.573	167.991	28.061	-138.481	0.00056425	0.00041012	7.6567e-05	933.34	3.349e-06	8.6754e-06	1194.1	354.58	6.7176e-06	1.2211e-05	472.74	187.18	149.4	56.896	4.5115e-06	73.538	0.002415	0.0025693	0.00070765	933.28	2.381e-05	2.7734e-05	1205.8	365.5	2.6583e-05	2.8134e-05	586.31	197.08	157.13	62.831	2.7885e-05	82.233	-114.015	-89.925	-25.668	-129.556	50.801	-68.505	-131.125	-123.894	-11.223	164.577	-126.639	-121.777	-119.262	-114.013	-30.100	-117.576	-8191	255	
1525.478	1	1	0	0	0.23153	0.23978	0.044672	0.14638	0.28521	0.2861	0.038314	0.099898	0.12301	0.13148	0.32427	0.13876	0.082327	0.21098	0.11225	0.077878	-2.3833	-2.2313	-2.5333	-2.9188	-2.0729	-2.7229	-2.5854	-2.3438	-2.8271	-2.2958	-2.6229	-2.5833	-2.1562	-2.8396	-2.4167	-2.2396	54.119	29.792	38.070	156.445	216.346	-13.764	-126.560	-98.679	-119.968	112.610	-5.947	-122.158	-136.702	108.132	-116.093	169.523	0.0005872	0.00077599	0.00021291	926.14	3.6025e-06	9.6402e-06	1187	354.23	4.9588e-06	8.5013e-06	468.53	187.33	149.51	56.546	3.648e-06	73.696	0.0024157	0.0025429	0.00071364	929.2	2.373e-05	2.7725e-05	1204.1	365.33	2.649e-05	2.8016e-05	585.8	197.21	157.36	62.701	2.8171e-05	82.284	-97.921	-133.802	181.171	-129.312	2.277	-112.699	-130.744	-123.815	-29.400	21.993	-126.970	-121.549	-119.104	-114.713	-34.642	-117.607	-8191	255	
#DATA ENDS
