BOXY.EXE: ISS Imagent and Oximeter Data Acquisition Program Version 0.80
Ascii Record File

#ACQ INFORMATION
2  Detector Channels 
16  External MUX Channels 
1  Auxiliary Channels 
5000  Waveform (CCF) Frequency (Hz)
1  Waveforms Skipped 
30  Waveforms Averaged 
1  Cycles Averaged 
16  Acquisitions per Waveform 
10.0806  Updata Rate (Hz) 

#FILE INFORMATION
TRUE -- External MUX Channel results are PARSED.
FALSE -- AC DC and Phase are NOT grouped.
TRUE -- Companion Program Settings File CREATED.
FALSE -- AC data not excluded
FALSE -- DC data not excluded
FALSE -- Phase data not excluded
FALSE -- Auxillary Chn. data not excluded
Tab delimiters

#CALIBRATION STATE
TRUE -- Waveform Calibration Values APPLIED.


#AUX CALIBRATION VALUES
Val Type	aux-1	

Term	1.0000e+00	
Factor	0.0000e+00	


#WF CALIBRATION VALUES
A = Detector Channel
Val Type	A-AC1	A-AC2	A-AC3	A-AC4	A-AC5	A-AC6	A-AC7	A-AC8	A-AC9	A-AC10	A-AC11	A-AC12	A-AC13	A-AC14	A-AC15	A-AC16	A-DC1	A-DC2	A-DC3	A-DC4	A-DC5	A-DC6	A-DC7	A-DC8	A-DC9	A-DC10	A-DC11	A-DC12	A-DC13	A-DC14	A-DC15	A-DC16	A-Ph1	A-Ph2	A-Ph3	A-Ph4	A-Ph5	A-Ph6	A-Ph7	A-Ph8	A-Ph9	A-Ph10	A-Ph11	A-Ph12	A-Ph13	A-Ph14	A-Ph15	A-Ph16	

Term	0.00000e+00	0.00000e+00	0.00000e+00	0.00000e+00	0.00000e+00	0.00000e+00	0.00000e+00	0.00000e+00	0.00000e+00	0.00000e+00	0.00000e+00	0.00000e+00	0.00000e+00	0.00000e+00	0.00000e+00	0.00000e+00	0.00000e+00	0.00000e+00	0.00000e+00	0.00000e+00	0.00000e+00	0.00000e+00	0.00000e+00	0.00000e+00	0.00000e+00	0.00000e+00	0.00000e+00	0.00000e+00	0.00000e+00	0.00000e+00	0.00000e+00	0.00000e+00	0.00000e+00	0.00000e+00	0.00000e+00	0.00000e+00	0.00000e+00	0.00000e+00	0.00000e+00	0.00000e+00	0.00000e+00	0.00000e+00	0.00000e+00	0.00000e+00	0.00000e+00	0.00000e+00	0.00000e+00	0.00000e+00	
Factor	1.00000e+00	1.00000e+00	1.00000e+00	1.00000e+00	1.00000e+00	1.00000e+00	1.00000e+00	1.00000e+00	1.00000e+00	1.00000e+00	1.00000e+00	1.00000e+00	1.00000e+00	1.00000e+00	1.00000e+00	1.00000e+00	1.00000e+00	1.00000e+00	1.00000e+00	1.00000e+00	1.00000e+00	1.00000e+00	1.00000e+00	1.00000e+00	1.00000e+00	1.00000e+00	1.00000e+00	1.00000e+00	1.00000e+00	1.00000e+00	1.00000e+00	1.00000e+00	X	X	X	X	X	X	X	X	X	X	X	X	X	X	X	X	

B = Detector Channel
Val Type	B-AC1	B-AC2	B-AC3	B-AC4	B-AC5	B-AC6	B-AC7	B-AC8	B-AC9	B-AC10	B-AC11	B-AC12	B-AC13	B-AC14	B-AC15	B-AC16	B-DC1	B-DC2	B-DC3	B-DC4	B-DC5	B-DC6	B-DC7	B-DC8	B-DC9	B-DC10	B-DC11	B-DC12	B-DC13	B-DC14	B-DC15	B-DC16	B-Ph1	B-Ph2	B-Ph3	B-Ph4	B-Ph5	B-Ph6	B-Ph7	B-Ph8	B-Ph9	B-Ph10	B-Ph11	B-Ph12	B-Ph13	B-Ph14	B-Ph15	B-Ph16	

Term	0.00000e+00	0.00000e+00	0.00000e+00	0.00000e+00	0.00000e+00	0.00000e+00	0.00000e+00	0.00000e+00	0.00000e+00	0.00000e+00	0.00000e+00	0.00000e+00	0.00000e+00	0.00000e+00	0.00000e+00	0.00000e+00	0.00000e+00	0.00000e+00	0.00000e+00	0.00000e+00	0.00000e+00	0.00000e+00	0.00000e+00	0.00000e+00	0.00000e+00	0.00000e+00	0.00000e+00	0.00000e+00	0.00000e+00	0.00000e+00	0.00000e+00	0.00000e+00	-2.51673e+01	-1.09131e+02	-1.36792e+02	-1.83698e+02	-1.38176e+01	-7.28325e+01	-1.57869e+02	-1.62015e+02	-6.96302e+01	-9.69870e+01	-1.72092e+02	-1.75791e+02	-1.89181e+02	-1.78194e+02	-7.65473e+01	-1.51485e+02	
Factor	2.82887e-05	9.62443e-05	2.62348e-05	1.61568e-01	9.06967e-07	1.03337e-06	1.67683e-01	6.49704e-02	1.10886e-06	1.02177e-06	1.02924e-01	3.36800e-02	8.03786e-02	9.68118e-03	9.66469e-07	1.40111e-02	7.08911e-07	7.21329e-07	2.01149e-07	7.90580e-02	7.90081e-09	7.90084e-09	7.70976e-02	3.12878e-02	7.89045e-09	7.89930e-09	4.70277e-02	1.53915e-02	3.30660e-02	4.62330e-03	7.91615e-09	6.40668e-03	X	X	X	X	X	X	X	X	X	X	X	X	X	X	X	X	



#DISTANCE SETTINGS
A = Detector Channel
A-1	A-2	A-3	A-4	A-5	A-6	A-7	A-8	A-9	A-10	A-11	A-12	A-13	A-14	A-15	A-16	

2.5000e+00	3.0000e+00	2.5000e+00	3.0000e+00	2.0000e+00	3.0000e+00	1.5000e+00	3.0000e+00	3.0000e+00	3.0000e+00	3.0000e+00	3.0000e+00	3.0000e+00	3.0000e+00	1.5000e+00	3.0000e+00	

B = Detector Channel
B-1	B-2	B-3	B-4	B-5	B-6	B-7	B-8	B-9	B-10	B-11	B-12	B-13	B-14	B-15	B-16	

1.0000e+01	1.0000e+01	1.0000e+01	1.4400e+00	1.0000e+01	1.0000e+01	1.5100e+00	1.9400e+00	1.0000e+01	1.0000e+01	1.9900e+00	2.4900e+00	2.4100e+00	2.9000e+00	1.0000e+01	2.9800e+00	




#DATA BEGINS
time	group	step	mark	flag	A-AC1	A-AC2	A-AC3	A-AC4	A-AC5	A-AC6	A-AC7	A-AC8	A-AC9	A-AC10	A-AC11	A-AC12	A-AC13	A-AC14	A-AC15	A-AC16	A-DC1	A-DC2	A-DC3	A-DC4	A-DC5	A-DC6	A-DC7	A-DC8	A-DC9	A-DC10	A-DC11	A-DC12	A-DC13	A-DC14	A-DC15	A-DC16	A-Ph1	A-Ph2	A-Ph3	A-Ph4	A-Ph5	A-Ph6	A-Ph7	A-Ph8	A-Ph9	A-Ph10	A-Ph11	A-Ph12	A-Ph13	A-Ph14	A-Ph15	A-Ph16	B-AC1	B-AC2	B-AC3	B-AC4	B-AC5	B-AC6	B-AC7	B-AC8	B-AC9	B-AC10	B-AC11	B-AC12	B-AC13	B-AC14	B-AC15	B-AC16	B-DC1	B-DC2	B-DC3	B-DC4	B-DC5	B-DC6	B-DC7	B-DC8	B-DC9	B-DC10	B-DC11	B-DC12	B-DC13	B-DC14	B-DC15	B-DC16	B-Ph1	B-Ph2	B-Ph3	B-Ph4	B-Ph5	B-Ph6	B-Ph7	B-Ph8	B-Ph9	B-Ph10	B-Ph11	B-Ph12	B-Ph13	B-Ph14	B-Ph15	B-Ph16	aux-1	digaux	

2815.639	1	1	0	768	0.12981	0.31159	0.19681	0.24655	0.1533	0.0084072	0.20503	0.20631	0.23899	0.017947	0.19994	0.13879	0.14945	0.055868	0.2279	0.15738	-2.1625	-2.4146	-1.7896	-2.9229	-2.1667	-2.1354	-2.8646	-2.0917	-2.4562	-2.5833	-2.175	-2.7396	-2.1375	-2.0708	-2.5938	-2.2271	-31.015	129.985	-28.362	151.592	30.692	250.533	237.786	-38.961	152.452	-73.639	199.258	195.409	71.793	192.414	266.004	245.580	0.00032137	0.00077244	0.00012626	1375.8	6.2487e-06	2.2129e-06	1370.4	368.46	3.0047e-06	8.7766e-06	423.65	140.67	121.81	42.004	2.3604e-06	52.076	0.00052558	0.00049772	0.00014349	1390.5	5.7097e-06	5.2968e-06	1381.8	376.99	5.6047e-06	5.3393e-06	428.44	144.44	123.03	42.7	5.9959e-06	53.569	-55.582	2.245	52.547	-74.962	47.526	64.637	-75.023	-70.251	104.616	23.700	-70.726	-66.336	-65.159	-61.561	-69.417	-62.502	-8191	255	
2815.735	1	1	0	0	0.33045	0.077336	0.15699	0.14788	0.26308	0.1938	0.21116	0.052305	0.093568	0.22179	0.11528	0.084069	0.1357	0.11485	0.17919	0.084785	-1.8875	-2.5271	-1.9125	-2.9938	-2.3792	-1.9771	-2.7438	-2.2146	-2.1792	-2.5708	-2.2542	-2.6188	-2.4667	-2.0208	-2.7417	-2.2938	149.218	24.093	86.813	134.784	50.960	90.525	177.059	218.822	68.842	197.404	218.834	227.763	24.121	85.139	-79.365	239.103	0.00028986	0.00084333	3.6998e-05	1371.2	9.2838e-06	7.3141e-06	1369.3	370.94	1.6973e-06	1.7302e-06	422.42	140.9	121.68	42.227	4.4913e-06	52.012	0.00050641	0.00048694	0.00015325	1387.4	5.5661e-06	5.245e-06	1388.1	376.88	5.4459e-06	5.3331e-06	430.11	143.86	122.43	42.805	6.2619e-06	53.38	-39.091	37.360	73.897	-74.925	166.433	146.739	-75.037	-69.896	63.186	159.190	-70.476	-66.135	-65.308	-61.668	22.375	-61.907	-8191	255	
2815.831	1	1	0	0	0.28528	0.031575	0.086217	0.18106	0.23679	0.23338	0.18558	0.0091825	0.12115	0.17585	0.34265	0.2188	0.23095	0.21076	0.37213	0.22363	-1.6333	-2.5833	-2.0812	-2.6354	-2.4917	-2.1083	-3.0729	-2.35	-2.2562	-2.6208	-2.1229	-2.6021	-2.3187	-2.0104	-2.6063	-2.3271	38.196	208.452	-43.809	-83.918	157.106	50.679	234.752	64.692	120.889	196.390	-33.117	-54.191	70.364	-55.661	-84.888	245.949	0.00020825	0.00015321	0.0001545	1371.1	1.7757e-06	4.1497e-06	1376.7	371.04	1.1879e-06	3.7157e-06	420.66	140.83	120.79	42.008	2.4514e-06	52.211	0.00049421	0.0004964	0.00016043	1385.4	5.4782e-06	5.4457e-06	1391.3	375.44	5.3399e-06	5.5888e-06	430.78	143.3	121.57	42.88	6.3109e-06	53.015	247.699	219.428	16.606	-74.662	36.850	166.124	-74.798	-70.169	103.748	111.634	-70.703	-66.210	-64.821	-61.271	140.011	-62.306	-8191	255	
2815.927	1	1	0	0	0.18537	0.24258	0.31654	0.15591	0.26143	0.14483	0.24243	0.098656	0.043779	0.057277	0.30198	0.17009	0.15301	0.11829	0.45322	0.42421	-1.6562	-2.6604	-2.0583	-2.5062	-2.5542	-2.1042	-2.8271	-2.2771	-2.0771	-2.7979	-2.1458	-2.2979	-2.5854	-2.0854	-2.7417	-2.5	213.391	-58.912	70.449	223.163	-39.675	241.929	-77.530	228.215	167.301	167.938	-61.257	216.218	-42.127	153.315	101.073	164.609	0.00024949	8.5663e-05	0.00013923	1371.5	2.2743e-06	3.9554e-06	1375.6	370.78	5.3052e-06	3.0934e-06	425.28	142.23	123.03	42.805	8.8619e-06	53.093	0.0004811	0.00052628	0.00016062	1380	5.3682e-06	5.9031e-06	1390.1	375.66	5.2892e-06	6.0943e-06	433.31	144.33	123.38	43.928	6.3384e-06	53.99	-57.291	-77.876	-42.931	-74.745	128.045	147.388	-74.901	-70.070	264.757	-67.296	-70.648	-66.100	-65.180	-61.360	51.448	-62.410	-8191	255	
2816.024	1	1	0	0	0.034447	0.16441	0.074633	0.16654	0.079735	0.091333	0.26435	0.36891	0.09012	0.055665	0.13335	0.22099	0.12198	0.35931	0.12186	0.24043	-1.6146	-2.6792	-1.9458	-2.4333	-2.6625	-1.9917	-2.7917	-2.5042	-2.2125	-2.625	-2.2229	-2.1521	-2.6271	-2.1292	-2.5417	-2.6854	-33.857	211.113	79.454	-22.657	57.754	132.964	233.229	128.797	267.972	20.704	81.728	251.987	-84.511	240.683	113.674	267.697	0.00013432	0.00041556	0.00021918	1375	6.6841e-06	3.0203e-06	1380.5	373.93	3.5389e-06	6.8207e-06	426.91	142	123.97	42.803	4.9568e-06	52.569	0.00049812	0.00058364	0.00016268	1389.5	5.614e-06	6.4831e-06	1396.8	378.5	5.6197e-06	6.5882e-06	433.9	144.48	124.98	44.214	6.1125e-06	53.718	-42.161	75.275	-59.783	-74.974	221.275	115.951	-74.961	-69.986	174.824	99.831	-70.825	-66.652	-65.297	-61.621	18.648	-62.260	-8191	255	
2816.120	1	1	0	0	0.042023	0.20219	0.20882	0.054587	0.14088	0.1453	0.28216	0.086129	0.087086	0.019092	0.25715	0.24	0.19079	0.17521	0.075051	0.3037	-1.35	-2.7188	-2.4542	-2.3563	-2.9813	-2.0312	-2.6833	-2.7042	-2.1542	-2.725	-2.4917	-2.1979	-2.8042	-2.1417	-2.2958	-2.7792	208.805	52.784	264.457	215.682	29.847	109.291	259.621	-40.941	-27.702	74.400	132.379	236.944	219.663	212.072	68.794	-39.420	0.00030536	0.00048665	0.00015235	1375.8	1.8368e-06	7.0132e-06	1370.9	370.73	2.8809e-06	1.0305e-05	424.24	140.92	122.05	42.785	3.3623e-06	52.628	0.00052393	0.00060242	0.00015383	1384	5.8188e-06	6.5739e-06	1384.8	374.7	5.8959e-06	6.5237e-06	428.73	143.07	125.39	43.962	5.8404e-06	53.488	260.484	53.777	-57.708	-74.773	31.313	54.171	-74.765	-70.245	231.458	5.397	-71.092	-66.414	-65.327	-61.559	26.009	-62.288	-8191	255	
2816.240	1	1	0	0	0.11635	0.21427	0.11933	0.18644	0.13782	0.17165	0.14843	0.14577	0.23832	0.16063	0.029454	0.26063	0.29173	0.020289	0.14132	0.1887	-1.6042	-2.5125	-2.4458	-2.3125	-2.65	-1.9792	-2.4729	-2.7354	-2.0708	-2.4854	-2.5146	-2.1667	-2.8521	-2.2229	-2.3937	-2.7938	-25.905	101.200	192.379	232.373	201.220	54.026	269.279	-51.212	-56.068	33.750	187.643	255.459	-83.810	69.428	65.206	-43.170	0.00034169	0.00047513	0.00020652	1388.7	5.2418e-06	7.5887e-06	1379.4	376.06	2.7135e-06	5.2281e-06	428.66	143.03	124.94	43.292	1.6338e-06	53.255	0.00056211	0.00059696	0.00015004	1390.8	6.3303e-06	6.5445e-06	1392.6	380.03	6.4138e-06	6.4285e-06	434.4	145.35	129.4	44.372	5.8527e-06	54.109	-83.932	-26.498	10.893	-75.016	41.286	39.145	-74.991	-70.044	27.696	-22.067	-71.020	-66.278	-65.265	-61.627	242.304	-62.269	-8191	255	
2816.335	1	1	0	0	0.20898	0.17234	0.15978	0.25792	0.18541	0.093199	0.37349	0.14313	0.15742	0.14669	0.11111	0.095142	0.090178	0.092303	0.10011	0.047351	-1.4667	-2.4313	-2.4875	-2.2771	-2.7	-2.1875	-2.2562	-2.8063	-2.1	-2.5604	-2.75	-2.0938	-2.675	-2.2313	-1.975	-2.7292	224.015	-12.383	145.080	244.557	101.417	-53.292	241.170	195.822	211.483	74.168	140.171	-54.309	182.497	208.367	111.743	-50.459	0.00021937	0.00075017	0.00013761	1385.4	3.6183e-06	8.6532e-06	1386.2	377.6	3.6443e-06	5.1618e-06	429.81	143.97	125.63	43.331	4.1575e-06	53.309	0.00061043	0.00058347	0.00015069	1394.6	6.7582e-06	6.3982e-06	1395.8	383.66	6.8073e-06	6.2457e-06	435.21	146.54	130.68	44.359	5.7093e-06	54.372	-75.549	7.718	-44.587	-74.955	238.185	35.507	-74.956	-70.268	187.194	25.396	-70.756	-66.158	-65.342	-61.611	40.945	-62.200	-8191	255	
2816.431	1	1	0	0	0.16177	0.16686	0.16167	0.1766	0.367	0.17283	0.29909	0.038303	0.1943	0.13753	0.26867	0.17701	0.073709	0.25984	0.25247	0.085608	-1.5708	-2.3521	-2.3187	-2.0333	-2.5312	-2.2646	-2.3667	-2.8292	-2.0458	-2.4167	-2.8104	-1.9438	-2.5333	-2.5729	-1.9854	-2.7771	6.110	198.698	62.679	-68.111	77.492	95.620	161.348	162.049	-18.407	269.179	206.490	123.281	154.698	214.611	7.629	51.482	0.00024464	0.00015726	6.0512e-05	1384.4	3.5145e-06	3.6563e-06	1383.5	378.54	5.5901e-06	5.3452e-06	431.1	144.15	125.85	43.539	3.4997e-06	53.587	0.0006126	0.00054924	0.00014552	1399.4	6.7023e-06	6.0473e-06	1394.6	385.4	6.7429e-06	6.0174e-06	435.86	147.93	130.65	44.517	5.7076e-06	55.179	-60.736	4.469	32.787	-74.950	49.804	96.643	-75.181	-70.174	0.014	41.653	-70.970	-66.494	-65.521	-61.569	38.002	-62.238	-8191	255	
2816.529	1	1	0	0	0.14853	0.07115	0.10261	0.26684	0.34845	0.41968	0.25646	0.16948	0.080696	0.061548	0.18759	0.1603	0.11594	0.19575	0.28832	0.022556	-1.7333	-2.2896	-2.575	-2.25	-2.6083	-2.3667	-2.1312	-2.8021	-2.1542	-2.2833	-2.6875	-2.0812	-2.6542	-2.5542	-2.025	-2.8667	236.020	-4.402	-82.299	240.356	95.896	59.495	228.449	-27.339	73.059	99.076	250.014	-42.504	232.525	62.425	209.707	103.183	0.00011987	0.00059357	6.0449e-05	1390.9	9.2152e-06	8.8646e-06	1397.3	381.49	7.7641e-06	4.2734e-06	435.71	145.33	127.42	43.987	6.2693e-06	53.966	0.00061205	0.00055317	0.0001488	1415.9	6.6926e-06	6.1154e-06	1404.7	391.6	6.6411e-06	6.0096e-06	440.53	150.19	130.82	44.85	5.9759e-06	55.748	-12.225	32.842	13.590	-74.914	132.236	27.025	-75.103	-70.210	16.750	28.285	-70.932	-66.821	-65.474	-61.564	159.819	-62.357	-8191	255	
2816.623	1	1	0	0	0.12266	0.11823	0.1102	0.21774	0.29869	0.131	0.053	0.27421	0.25982	0.33077	0.15797	0.1175	0.12873	0.15306	0.037794	0.11141	-1.8292	-2.1771	-2.7083	-2.2458	-2.4396	-2.5625	-2.1646	-2.8125	-2.3292	-2.1146	-2.8604	-1.9667	-2.5187	-2.5896	-1.95	-2.7542	255.369	24.399	-78.520	177.637	228.072	240.525	221.433	242.720	-84.127	98.893	173.971	228.717	-2.458	47.022	-53.862	37.655	0.00030168	0.00031645	0.00015012	1399.5	3.7272e-06	5.085e-06	1395.6	382.82	5.9762e-06	6.1556e-06	434.96	146.27	127.77	44.188	2.7336e-06	54.47	0.00059144	0.00054108	0.00015547	1422.9	6.4033e-06	6.0401e-06	1410.4	392.98	6.4101e-06	5.9079e-06	443.44	151.19	130.75	45.032	6.4403e-06	56.158	-49.899	42.091	227.964	-74.873	12.014	74.137	-75.162	-70.284	-7.188	34.440	-70.881	-66.426	-65.460	-61.819	9.155	-62.541	-8191	255	
2816.719	1	1	0	0	0.24745	0.089011	0.15218	0.36654	0.089612	0.17658	0.19674	0.27836	0.19646	0.12797	0.17928	0.17474	0.23996	0.19122	0.051589	0.10884	-1.9208	-2.0229	-2.8604	-2.175	-2.275	-2.5271	-2.0625	-2.7146	-2.2458	-2.0958	-2.7333	-2.1146	-2.2458	-2.6583	-1.9625	-2.7417	89.473	139.629	250.832	255.622	259.795	153.424	-53.864	223.521	223.756	-51.108	260.131	235.086	210.208	151.033	256.138	215.116	0.00027378	0.00011613	0.00013885	1410.5	1.6408e-06	3.5876e-06	1404.1	385.54	4.5263e-06	3.0703e-06	438.59	146.38	128.06	44.056	1.1852e-06	54.052	0.00058059	0.00054171	0.00016975	1431.6	6.3083e-06	6.0139e-06	1424.6	395.74	6.366e-06	5.9186e-06	449.02	151.13	129.85	44.93	6.7878e-06	55.612	-60.223	110.856	182.344	-74.962	-47.506	-31.737	-74.975	-70.425	63.261	114.737	-71.116	-66.465	-65.448	-61.702	-86.511	-62.375	-8191	255	
2816.840	1	1	0	0	0.10245	0.23301	0.1075	0.37181	0.16373	0.13827	0.16567	0.20931	0.13524	0.17587	0.34034	0.11886	0.17227	0.38787	0.36977	0.04711	-1.8771	-2.0125	-2.7708	-2.4938	-2.075	-2.7896	-2.05	-2.6646	-2.5292	-1.9146	-2.8021	-2.3187	-2.1542	-2.9021	-1.9167	-2.6208	-15.389	224.559	207.667	180.885	241.856	139.970	205.459	-66.588	237.578	28.498	179.835	-39.319	107.517	-86.449	38.240	-35.958	0.00027372	0.0001324	0.00014117	1397.7	4.7077e-06	3.453e-06	1383.1	381.37	2.566e-06	2.1675e-06	432.49	144.03	126.4	43.282	2.7996e-06	53.189	0.00055167	0.00053	0.00017366	1415.1	5.8873e-06	5.8422e-06	1409.4	387.13	5.9535e-06	5.8888e-06	442.37	147.75	126.77	44.247	6.8788e-06	54.558	-73.538	47.416	90.996	-74.946	104.398	73.934	-74.808	-70.344	143.725	38.028	-70.580	-66.586	-65.082	-61.555	223.008	-62.335	-8191	255	
2816.936	1	1	0	0	0.17319	0.058893	0.16179	0.27546	0.15101	0.18562	0.032757	0.25882	0.071688	0.31171	0.34842	0.21292	0.1961	0.25393	0.37171	0.13038	-2.1167	-1.8521	-2.5396	-2.4833	-2.0792	-2.775	-2.2479	-2.5792	-2.6104	-2.0792	-2.8854	-2.4021	-2.1417	-2.7104	-1.9813	-2.4167	-73.249	216.728	252.842	222.094	257.814	-80.395	188.150	204.915	188.136	151.732	261.064	157.110	263.783	270.655	141.493	131.360	0.00017588	0.00045602	0.00021809	1388.9	5.48e-06	2.2187e-06	1376.5	374.39	4.2411e-06	5.5183e-06	427.76	142.21	123.04	42.434	6.1787e-06	52.551	0.00053174	0.00055023	0.00017388	1399.8	5.7067e-06	6.1105e-06	1396.6	380.23	5.6976e-06	6.1461e-06	436.19	144.8	123.4	43.594	6.6041e-06	53.521	-44.876	98.958	-16.222	-75.023	109.280	230.293	-74.885	-70.424	46.947	193.172	-70.978	-66.367	-65.387	-61.573	-2.878	-62.245	-8191	255	
2817.032	1	1	0	0	0.29345	0.22456	0.020151	0.11593	0.10792	0.16661	0.10663	0.049047	0.059252	0.1917	0.16548	0.043509	0.11541	0.068955	0.194	0.22187	-2.1063	-1.9167	-2.5687	-2.6729	-2.1833	-2.7667	-2.4208	-2.3208	-2.6521	-1.9104	-2.8458	-2.6167	-2.0125	-2.8292	-1.8563	-2.2792	242.673	219.479	86.105	236.705	165.409	163.399	185.051	-78.136	-31.400	24.910	121.621	-33.925	104.378	60.815	166.512	191.680	0.000128	0.00010631	0.00025269	1364.9	1.6856e-06	6.137e-06	1368.6	370.02	6.2428e-06	3.1236e-06	423.18	141.34	122.42	42.181	3.4922e-06	52.18	0.0005112	0.00057595	0.0001647	1381.3	5.4981e-06	6.3851e-06	1383.4	374.92	5.5427e-06	6.4303e-06	430.13	143.12	122.53	43.503	6.2344e-06	52.998	-64.185	-13.434	-18.002	-74.686	105.219	134.032	-74.759	-69.910	-8.670	48.820	-70.954	-65.958	-65.092	-61.221	64.998	-62.300	-8191	255	
2817.128	1	1	0	0	0.019479	0.18728	0.37302	0.26616	0.054136	0.089739	0.20082	0.14502	0.084229	0.065907	0.18754	0.063979	0.13138	0.15649	0.063762	0.090441	-2.2875	-1.8167	-2.3771	-2.7167	-2.0833	-2.5333	-2.3563	-2.4104	-2.6271	-1.9833	-2.5396	-2.7021	-1.8583	-2.7979	-2.25	-2.2438	34.447	161.825	58.857	203.121	-61.638	93.708	-67.809	238.901	132.186	26.629	251.905	251.538	110.268	77.978	199.957	-80.887	0.00035394	0.00076501	0.00016272	1368.1	2.6885e-06	1.1797e-06	1361.9	370.91	1.5836e-06	1.7978e-06	423.58	140.76	121.86	42.408	2.3071e-06	52.199	0.00051222	0.00059617	0.0001554	1377	5.6842e-06	6.569e-06	1376.4	374.38	5.7683e-06	6.5956e-06	429.02	143.06	124.2	43.718	5.9608e-06	53.039	-73.153	100.910	9.791	-74.837	-60.459	83.841	-74.671	-70.382	159.508	96.509	-70.895	-66.568	-65.264	-61.526	-26.249	-62.502	-8191	255	
2817.200	1	1	0	0	0.26117	0.069909	0.20036	0.12564	0.39187	0.37036	0.1158	0.20077	0.075673	0.25685	0.19282	0.11515	0.26809	0.16653	0.12055	0.1253	-2.2792	-2.1167	-2.3167	-2.7125	-2.0354	-2.6521	-2.4854	-2.1604	-2.4979	-2.1042	-2.1854	-2.5729	-1.9896	-2.5312	-2.2667	-2.1771	265.357	37.419	67.564	-35.751	155.698	183.008	208.893	260.446	106.376	16.057	267.469	-65.572	208.313	177.217	-24.699	-84.223	0.00028557	0.00084875	0.0001571	1364.4	5.0571e-06	6.8066e-06	1362.9	370.71	9.2527e-06	4.7689e-06	422.39	141.4	121.88	42.226	4.4296e-06	52.205	0.00054454	0.00059892	0.00014814	1376.6	6.0683e-06	6.4991e-06	1376.4	374.48	6.1634e-06	6.4759e-06	427.11	143.12	126.18	43.557	5.7804e-06	53.053	-76.864	-77.137	-11.979	-74.889	-52.003	34.818	-75.063	-70.327	191.712	-10.342	-70.933	-66.367	-65.312	-61.541	52.255	-62.531	-8191	255	
2817.321	1	1	0	0	0.13992	0.067648	0.021804	0.13282	0.043022	0.068199	0.20045	0.25982	0.062045	0.22979	0.18942	0.28121	0.16449	0.20303	0.16175	0.21194	-2.3312	-2.1312	-2.3229	-2.8646	-1.9	-2.6333	-2.6917	-2.1625	-2.8375	-2.0625	-2.225	-2.6437	-2.0771	-2.5729	-2.2979	-1.9104	15.242	246.934	168.521	229.346	151.055	125.188	206.139	234.006	205.703	188.374	152.730	-59.633	158.784	231.948	236.919	242.640	0.00024968	0.00039434	0.00016737	1367	2.339e-06	3.1581e-06	1365.3	369.53	1.5432e-06	7.7664e-06	425.41	140.84	123.26	42.419	2.9695e-06	52.38	0.00057958	0.00057855	0.00014443	1376.5	6.4041e-06	6.1876e-06	1374.8	374.39	6.461e-06	6.1604e-06	427.19	143.44	127.63	43.439	5.6348e-06	53.278	244.374	-22.428	-65.782	-75.125	235.290	42.164	-74.921	-70.223	170.858	-33.846	-70.934	-66.546	-65.451	-61.629	30.566	-62.360	-8191	255	
2817.417	1	1	0	0	0.16525	0.29665	0.23444	0.34115	0.043786	0.18892	0.045485	0.09836	0.26693	0.25106	0.21581	0.30464	0.063255	0.16993	0.10742	0.13343	-2.2208	-2.15	-1.9479	-2.7479	-2.0438	-2.5167	-2.6667	-2.1125	-2.6708	-2.3875	-2.2771	-2.7188	-2.0875	-2.2562	-2.4188	-2.0271	-13.847	-74.971	208.184	-70.446	181.946	-30.975	212.790	21.540	124.934	34.710	265.150	-64.620	54.706	147.934	-14.623	196.064	0.00024833	0.00048832	0.00017487	1363.7	2.2004e-06	1.1746e-06	1362.9	369.05	2.7858e-06	2.0442e-06	423.58	141.51	123.44	42.764	1.7059e-06	52.451	0.00059514	0.00054522	0.00014055	1378.6	6.5687e-06	5.8728e-06	1373.1	375.44	6.5103e-06	5.8751e-06	425.99	144.7	127.68	43.491	5.5119e-06	53.887	252.961	30.163	-58.090	-74.958	137.014	27.460	-74.931	-70.149	25.985	84.097	-71.050	-66.394	-65.106	-61.815	-73.310	-62.304	-8191	255	
2817.511	1	1	0	0	0.041018	0.20071	0.13803	0.26307	0.16588	0.26718	0.2345	0.20671	0.049114	0.06466	0.12764	0.1613	0.01533	0.099143	0.089435	0.15513	-2.0021	-2.1937	-1.9417	-2.8312	-1.95	-2.225	-2.7625	-2.0771	-2.5938	-2.2	-1.9958	-2.7354	-2.2021	-2.2104	-2.6688	-2.0438	247.128	240.110	15.865	235.320	-61.412	123.183	262.389	268.556	-54.285	-74.285	186.581	-59.998	232.911	238.702	-39.974	225.368	0.00024024	0.00062598	5.1283e-05	1371.1	2.5e-06	9.7443e-06	1369.4	372.21	7.0705e-06	2.0732e-06	425.41	142.17	123.55	42.8	3.8902e-06	52.505	0.00058405	0.0005292	0.00013882	1388.7	6.4134e-06	5.6836e-06	1376.9	379.6	6.3141e-06	5.7099e-06	427.24	145.87	126.89	43.511	5.5288e-06	54.22	-77.367	6.502	24.084	-74.806	12.257	34.511	-74.966	-70.271	88.392	-28.459	-70.788	-66.253	-65.885	-61.421	5.514	-62.304	-8191	255	
2817.609	1	1	0	0	0.31148	0.27116	0.18569	0.12065	0.13358	0.34391	0.078288	0.14597	0.1204	0.069997	0.14772	0.13782	0.1105	0.11062	0.043411	0.25693	-1.8958	-2.3312	-1.8375	-2.75	-1.8354	-2.125	-2.9104	-1.9875	-2.5021	-2.4542	-2.0396	-2.8646	-2.3708	-2.2896	-2.6646	-2.0438	45.018	248.337	198.219	142.359	-87.536	262.685	141.015	99.189	62.407	225.347	133.299	5.594	-79.723	226.809	179.849	190.504	0.00019755	0.000481	8.3657e-05	1371.9	5.0283e-06	7.9428e-06	1368.8	373.05	6.0872e-06	5.1571e-06	424.29	142.76	123.93	42.764	5.9969e-06	52.514	0.00055986	0.00051475	0.0001404	1391.4	6.0717e-06	5.5436e-06	1379.9	380.83	5.9466e-06	5.5833e-06	429	146.51	125.62	43.413	5.7762e-06	54.298	-28.700	16.234	-15.639	-74.894	106.496	-6.956	-74.831	-70.240	93.509	35.000	-70.975	-66.230	-64.950	-61.553	219.073	-62.288	-8191	255	
2817.728	1	1	0	0	0.24073	0.19852	0.17011	0.10142	0.11402	0.21327	0.089225	0.1115	0.084832	0.051247	0.13418	0.31012	0.074249	0.17507	0.088561	0.24269	-2.0187	-2.5438	-1.9917	-2.95	-2.325	-2.1792	-2.9938	-1.9958	-2.3958	-2.7625	-2.2375	-2.6937	-2.4396	-2.2396	-2.7792	-2.2375	2.877	111.680	258.511	225.974	109.256	220.773	209.894	175.375	107.384	174.932	177.820	264.416	157.227	-44.092	220.793	197.099	0.00016214	0.00080808	7.8113e-05	1378.1	4.4916e-06	3.2767e-06	1368.9	372.53	5.3414e-06	3.4022e-06	424.09	142.15	123.4	42.987	3.3306e-06	52.814	0.00053281	0.00050308	0.00014941	1395.1	5.8127e-06	5.3803e-06	1384.4	381.27	5.7464e-06	5.4713e-06	431.59	146.07	124.84	43.412	6.1903e-06	54.137	-47.793	23.759	94.486	-74.913	121.240	31.742	-74.678	-70.336	2.993	0.491	-70.883	-66.361	-65.339	-61.347	158.984	-62.190	-8191	255	
2817.800	1	1	0	0	0.15818	0.18722	0.15421	0.15606	0.26435	0.20849	0.15104	0.22661	0.057682	0.030243	0.23527	0.086654	0.035765	0.26031	0.062964	0.21255	-1.8604	-2.6771	-2.1125	-2.6917	-2.4	-2.0854	-2.9542	-2.2854	-2.1625	-2.6104	-1.9833	-2.5854	-2.6458	-2.0271	-2.8333	-2.3292	212.757	-55.076	93.402	-63.003	100.566	185.080	240.516	168.870	126.322	90.911	-14.358	-44.395	50.061	195.227	-83.597	168.677	0.00020121	0.00053606	1.3487e-05	1371.7	6.0516e-06	3.7339e-06	1369.1	372.72	7.5372e-06	2.5727e-07	424.34	142.26	122.99	42.816	7.9867e-06	52.871	0.00051113	0.00049344	0.00015911	1388.3	5.6499e-06	5.3997e-06	1387.1	378.85	5.5436e-06	5.4965e-06	433.14	145.35	124.17	43.4	6.4665e-06	53.904	262.833	-38.832	-7.359	-74.747	104.937	192.415	-74.765	-70.043	36.269	204.128	-70.690	-66.396	-64.918	-61.559	100.013	-61.990	-8191	255	
2817.920	1	1	0	0	0.31331	0.091883	0.059291	0.41444	0.18688	0.33701	0.085238	0.31352	0.09548	0.32641	0.38811	0.18949	0.25394	0.0925	0.17156	0.14054	-1.5458	-2.7979	-1.7708	-2.5917	-2.5333	-1.9708	-2.8146	-2.2083	-2.0625	-2.8208	-2.1354	-2.5542	-2.4313	-1.9292	-2.6229	-2.3271	-72.317	234.021	22.167	236.476	15.474	267.398	193.148	198.473	260.296	65.540	212.512	-29.217	-81.807	153.923	-24.624	254.622	0.00026675	0.00062617	0.00022399	1371.7	2.2804e-06	3.1082e-06	1368.6	372.87	5.1811e-06	5.5902e-06	423.7	141.61	123.8	42.603	6.5881e-06	52.623	0.00050002	0.00051307	0.00016591	1384.8	5.5265e-06	5.6348e-06	1387.2	377.67	5.4205e-06	5.781e-06	432.78	144.5	123.68	43.606	6.4483e-06	53.672	260.814	8.605	17.391	-74.815	113.790	227.857	-74.761	-70.077	-29.855	165.961	-70.622	-66.247	-65.301	-61.414	9.464	-62.328	-8191	255	
2818.017	1	1	0	0	0.39311	0.36688	0.20989	0.098913	0.16699	0.058286	0.27889	0.26779	0.12412	0.11351	0.2454	0.48844	0.15596	0.19897	0.15122	0.22904	-1.6313	-2.7479	-1.7979	-2.3979	-2.6292	-1.8479	-2.8563	-2.4562	-1.975	-2.6083	-2.1875	-2.3438	-2.7229	-2.0729	-2.5187	-2.4	127.461	128.282	7.789	-66.336	206.871	48.106	200.582	167.938	238.998	202.396	261.430	244.924	57.444	209.952	219.387	-63.996	0.00013753	0.00013265	3.7777e-05	1373.1	3.5823e-06	6.0649e-06	1369.1	372.24	4.2216e-06	4.7111e-06	424.3	142.66	123.56	42.879	6.7114e-06	52.933	0.00049171	0.00054732	0.00016388	1383.2	5.4565e-06	6.0669e-06	1387.2	377.65	5.3853e-06	6.2444e-06	432.89	144.76	123.92	43.981	6.2528e-06	53.682	233.988	108.715	134.207	-74.864	132.298	128.424	-74.770	-69.919	191.649	22.047	-70.717	-66.514	-65.295	-61.284	82.528	-61.987	-8191	255	
2818.113	1	1	0	0	0.18157	0.1179	0.14226	0.31738	0.098572	0.27236	0.14524	0.41843	0.039114	0.10609	0.14727	0.29339	0.2335	0.090907	0.0091912	0.25125	-1.5125	-2.7583	-2.0771	-2.4854	-2.5708	-1.8813	-2.9583	-2.7292	-1.9583	-2.6937	-2.0521	-2.2854	-2.6979	-2.2771	-2.4125	-2.5604	124.056	200.277	254.964	217.171	45.889	140.777	153.083	257.737	-61.568	172.481	-51.536	165.429	253.156	242.541	17.246	202.399	0.00042839	0.00034204	0.00016755	1371.4	4.1688e-06	4.8746e-06	1370.2	373.3	5.6196e-06	4.547e-06	426.56	142.24	123.65	42.896	4.3919e-06	52.757	0.00049494	0.00058339	0.00015883	1380.6	5.5716e-06	6.4337e-06	1385.7	377.74	5.554e-06	6.5356e-06	432.3	144.5	124.75	44.166	5.9432e-06	53.587	-63.501	56.822	-33.904	-74.698	208.759	49.461	-74.819	-69.848	-55.355	189.245	-70.694	-66.236	-65.104	-61.574	-33.466	-61.961	-8191	255	
2818.209	1	1	0	0	0.24582	0.16711	0.25658	0.082187	0.27479	0.10301	0.32102	0.40482	0.17561	0.098158	0.14433	0.1839	0.14487	0.015163	0.079609	0.17991	-1.3875	-2.8187	-2.1521	-2.2146	-2.8	-2.0271	-2.6292	-2.8187	-1.7938	-2.7292	-2.3875	-2.2792	-2.7542	-2.1042	-2.3146	-2.7146	160.345	5.426	169.779	34.818	-87.403	263.882	183.963	244.930	76.225	95.779	237.738	-24.318	-19.845	267.034	219.388	-73.243	0.00038837	0.0003432	0.00024321	1375.1	8.6858e-07	2.3338e-06	1372.3	374.37	8.0969e-06	8.9703e-06	423.51	142.71	123.31	42.904	1.2232e-06	53.118	0.00052373	0.00060302	0.00015195	1382.1	5.883e-06	6.5932e-06	1382.9	377.67	5.9541e-06	6.51e-06	430.63	144.78	126.4	44.152	5.7596e-06	53.698	265.112	149.248	-34.294	-74.808	254.731	68.147	-74.682	-70.096	200.799	24.819	-70.691	-66.273	-64.776	-61.595	56.493	-61.848	-8191	255	
2818.329	1	1	0	0	0.13583	0.20631	0.20477	0.21908	0.10412	0.23999	0.39702	0.24426	0.060589	0.097119	0.41414	0.17083	0.18702	0.067445	0.15787	0.04607	-1.4229	-2.4229	-2.3354	-2.4083	-2.6354	-2.0563	-2.4833	-2.8542	-2	-2.575	-2.3708	-2.1771	-2.65	-2.2583	-2.2104	-2.5687	63.487	32.971	-34.312	243.580	210.530	24.144	220.996	208.804	-34.057	52.734	-78.748	13.989	252.998	267.194	227.253	266.140	0.00039952	0.00056942	0.00010833	1371.2	4.2446e-07	3.2101e-06	1371.3	372.67	4.7278e-06	5.5527e-06	425.85	141.93	123.24	42.853	5.3019e-06	52.734	0.00056542	0.0005849	0.00014777	1381	6.2848e-06	6.3582e-06	1379	377.07	6.3436e-06	6.2298e-06	429.8	144.42	128.16	43.899	5.6098e-06	53.648	259.104	-41.777	26.199	-74.742	194.428	63.235	-74.692	-69.889	200.442	41.148	-70.795	-66.034	-65.268	-61.287	56.333	-61.915	-8191	255	
2818.424	1	1	0	0	0.077717	0.25311	0.084592	0.34463	0.096141	0.12882	0.084976	0.11772	0.42327	0.29002	0.18126	0.1982	0.16052	0.15137	0.30102	0.25626	-1.5375	-2.3958	-2.4208	-2.0812	-2.6813	-2.1437	-2.4167	-2.8917	-2.0646	-2.4896	-2.5646	-2.0042	-2.7917	-2.1979	-2.1063	-2.7708	214.385	59.458	71.159	258.484	-62.923	205.544	172.731	249.141	-64.263	107.970	237.819	256.618	236.446	214.637	66.975	213.778	0.00039902	0.00048097	9.0969e-05	1368.5	3.7919e-06	3.0328e-06	1372.6	373.1	4.1721e-06	9.4696e-06	424.55	142.81	123.85	42.785	2.6804e-06	52.473	0.00058711	0.0005537	0.00014425	1380.7	6.5246e-06	6.0435e-06	1375.7	377.75	6.5209e-06	5.9108e-06	427.92	145.06	128.59	43.722	5.4762e-06	53.811	-83.707	62.930	208.299	-74.913	62.672	18.742	-74.684	-69.879	107.695	-35.145	-70.479	-66.177	-65.194	-61.059	210.784	-62.334	-8191	255	
2818.497	1	1	0	0	0.078578	0.13323	0.25826	0.08914	0.099554	0.13694	0.2718	0.067455	0.15579	0.13589	0.2009	0.10863	0.16708	0.17755	0.1187	0.31438	-1.4021	-2.3042	-2.45	-2.2062	-2.5021	-2.325	-2.3729	-2.7646	-2.1604	-2.1458	-2.6646	-2.0958	-2.5292	-2.3979	-2.1	-2.7333	230.800	158.137	55.416	-2.992	259.773	17.187	-56.517	159.168	-43.544	47.225	206.670	208.734	-61.096	11.911	217.058	168.699	9.7137e-05	0.00035747	9.3416e-05	1369.9	7.9121e-06	1.7067e-06	1369.4	373.67	7.9628e-06	3.3283e-06	429.37	142.91	124.48	42.875	5.4918e-06	52.979	0.00059733	0.00053083	0.00014132	1385.1	6.5151e-06	5.8373e-06	1377.3	380.21	6.4756e-06	5.7617e-06	429.61	146.29	128.36	43.776	5.4422e-06	54.371	-49.367	-44.128	-22.083	-74.739	91.142	-50.567	-75.078	-70.147	13.450	-0.367	-70.508	-66.651	-65.166	-61.500	78.558	-62.126	-8191	255	
2818.616	1	1	0	0	0.19966	0.042928	0.043875	0.17715	0.13627	0.25012	0.32295	0.1461	0.27521	0.20789	0.12524	0.066346	0.19041	0.3413	0.18812	0.30433	-1.6021	-2.1458	-2.4896	-2.2542	-2.5125	-2.275	-2.3229	-2.85	-2.0583	-2.0167	-2.6979	-2.0917	-2.525	-2.5917	-1.8896	-2.6896	216.435	89.042	17.308	239.053	31.174	105.512	263.126	271.880	85.476	-70.849	253.652	70.010	-70.323	248.376	-82.582	245.719	0.00016677	0.00074116	3.3517e-06	1373.3	2.618e-06	1.7727e-06	1375.8	375.6	2.2189e-06	6.0906e-06	427.31	142.64	125.25	43.178	3.8599e-06	53.528	0.00058089	0.00051765	0.00014142	1393.3	6.3064e-06	5.774e-06	1383	383.34	6.2509e-06	5.6989e-06	431.51	147.48	128.12	43.963	5.728e-06	54.997	-33.568	43.750	250.300	-74.873	76.785	-55.248	-75.088	-70.114	80.808	41.761	-71.081	-66.701	-65.234	-61.799	234.033	-62.339	-8191	255	
2818.712	1	1	0	0	0.062367	0.22031	0.2169	0.3087	0.095807	0.27503	0.15534	0.13673	0.18952	0.19918	0.033448	0.34642	0.081584	0.24	0.16299	0.2555	-1.7	-1.9583	-2.6042	-2.1083	-2.5125	-2.4875	-2.3667	-2.8042	-2.2375	-2.0521	-2.7854	-2.1833	-2.5646	-2.6188	-1.9146	-2.5917	-74.721	206.685	191.576	241.828	227.999	111.517	-86.002	108.341	221.417	127.550	-80.696	232.602	210.391	203.158	-84.690	-45.734	0.00027837	0.00063301	0.00012474	1385.3	5.0571e-06	7.2916e-06	1377.1	375.9	1.0925e-05	8.7544e-06	428.84	143.54	125.26	43.362	2.6319e-06	53.561	0.00056499	0.00051641	0.00014914	1404.3	6.0895e-06	5.7031e-06	1389.9	385.56	6.0603e-06	5.5695e-06	435.38	148.19	127.17	44.125	6.1573e-06	55.06	-45.467	36.373	80.385	-75.036	204.490	22.907	-75.154	-70.389	27.302	81.155	-70.956	-66.917	-65.644	-61.604	98.567	-62.388	-8191	255	
2818.808	1	1	0	0	0.14255	0.097213	0.19969	0.028334	0.20348	0.10931	0.11866	0.33836	0.13643	0.069897	0.12576	0.32714	0.15753	0.10596	0.18953	0.15298	-1.8687	-2.0583	-2.5917	-2.2062	-2.2708	-2.4396	-2.3021	-2.5646	-2.4354	-1.95	-2.5938	-2.2062	-2.1604	-2.4292	-1.8208	-2.5729	112.005	-56.274	270.727	-67.667	-21.369	218.124	261.147	196.102	-16.112	-57.403	109.924	218.284	216.411	202.759	162.086	181.454	0.00025381	0.0002568	9.3597e-05	1383.2	6.6779e-06	6.1632e-06	1375.2	379.12	5.5902e-06	4.0303e-06	430.58	144.61	125.58	43.535	4.9882e-06	53.57	0.00054666	0.00050934	0.00016156	1405.6	5.8832e-06	5.6345e-06	1395.5	386.19	5.9046e-06	5.5785e-06	439.11	148.21	126.56	44.241	6.6062e-06	54.901	-74.938	151.770	213.482	-75.042	87.014	-27.112	-75.166	-70.411	125.180	-2.064	-70.859	-66.226	-65.116	-61.267	168.113	-61.970	-8191	255	
2818.905	1	1	0	0	0.071685	0.11524	0.21902	0.21612	0.083665	0.18554	0.24621	0.28361	0.17834	0.2368	0.11229	0.22136	0.23527	0.29629	0.1712	0.16373	-2.1521	-1.9562	-2.5792	-2.1771	-2.275	-2.7271	-2.2417	-2.4562	-2.4104	-1.9167	-2.8104	-2.2	-2.15	-2.6083	-1.9729	-2.5292	65.613	-70.714	2.932	265.060	41.012	160.661	-82.759	177.022	45.138	126.398	227.547	6.275	222.280	211.211	72.009	4.936	0.00030927	0.00025647	7.3691e-05	1389.3	4.8217e-06	2.7623e-06	1379.5	379.3	1.0416e-06	1.7757e-06	428.74	144.18	124.76	43.624	6.6038e-06	53.484	0.00053802	0.00051747	0.00017019	1403.4	5.7606e-06	5.7904e-06	1401.3	384.89	5.7983e-06	5.8146e-06	440.62	147.48	126.18	44.45	6.7677e-06	54.585	-82.822	-19.798	87.338	-74.735	78.074	105.438	-74.738	-70.019	92.285	36.461	-70.727	-66.131	-65.415	-61.528	79.452	-62.167	-8191	255	
2819.025	1	1	0	0	0.090877	0.28376	0.11931	0.11867	0.10679	0.26557	0.29394	0.24177	0.071387	0.15843	0.0625	0.20423	0.35046	0.25898	0.14288	0.23076	-2.0583	-1.875	-2.6479	-2.3396	-1.9771	-2.6688	-2.2104	-2.3958	-2.6229	-2.0125	-2.8604	-2.4625	-2.1875	-2.7604	-2.0062	-2.4	-60.860	19.328	191.304	79.613	256.187	-71.195	203.410	188.338	84.436	258.440	156.191	98.655	209.487	212.741	132.877	224.020	0.00012325	0.00086623	0.00012233	1382.4	2.0834e-06	1.7161e-06	1378.9	378.94	5.6367e-06	4.4826e-06	432.34	143.96	125.36	43.315	5.218e-06	53.43	0.00052235	0.00054719	0.00017133	1398.8	5.6284e-06	6.1487e-06	1400.2	384.31	5.6556e-06	6.1584e-06	440.58	147.05	125.51	44.557	6.6163e-06	54.353	269.121	171.245	39.313	-74.955	74.904	136.688	-75.008	-70.353	29.015	214.371	-71.138	-66.426	-65.638	-61.482	37.548	-62.242	-8191	255	
2819.097	1	1	0	0	0.22194	0.13937	0.067552	0.30748	0.020127	0.22572	0.11129	0.091456	0.17834	0.12307	0.27439	0.22802	0.15726	0.14859	0.03864	0.17706	-2.2104	-1.9854	-2.7167	-2.4604	-1.9917	-2.6729	-2.15	-2.3604	-2.6771	-1.9354	-2.7438	-2.4625	-2.0833	-2.8583	-2.0667	-2.3187	-37.005	114.878	142.683	256.196	156.576	60.154	197.994	-62.343	-27.050	46.510	212.452	204.071	183.170	175.359	-18.698	187.177	0.00023454	0.00042671	0.0001873	1384.8	1.1167e-06	5.0144e-06	1379.2	377.55	4.1596e-06	2.1081e-06	429.19	144.35	125.09	43.266	2.62e-06	53.241	0.00051254	0.00058434	0.00016587	1396.4	5.5933e-06	6.5174e-06	1397.8	383.21	5.6913e-06	6.5612e-06	437.75	146.62	125.7	44.615	6.3119e-06	54.166	268.299	148.823	-26.205	-74.932	193.545	165.753	-74.785	-70.296	107.370	-87.295	-70.853	-66.206	-65.172	-61.561	11.429	-62.243	-8191	255	
2819.193	1	1	0	0	0.17637	0.13876	0.17376	0.29293	0.09846	0.32266	0.29764	0.19248	0.06893	0.16824	0.085708	0.22668	0.13693	0.072499	0.13393	0.086583	-2.2583	-1.7958	-2.4729	-2.6854	-1.9896	-2.7438	-2.4271	-2.25	-2.8	-2.0812	-2.5396	-2.4938	-1.8521	-2.7646	-2.5312	-2.2833	-60.283	-42.771	7.527	221.322	21.403	-34.364	239.280	-54.626	-84.666	82.725	270.407	-41.991	3.801	-47.897	203.140	-58.403	0.00029508	0.00022398	0.0001799	1383.4	5.1503e-06	1.5321e-06	1378.8	376.65	1.1055e-05	6.5945e-06	430.77	143.56	125.24	43.166	1.8617e-06	53.362	0.0005218	0.00060868	0.0001558	1393.9	5.7202e-06	6.6665e-06	1392.4	380.76	5.8887e-06	6.6747e-06	435.19	145.86	127.09	44.553	6.0141e-06	53.976	271.545	40.242	-19.564	-74.790	-75.054	175.797	-74.695	-69.961	164.461	4.710	-70.606	-66.297	-65.469	-61.508	72.126	-62.362	-8191	255	
2819.289	1	1	0	0	0.086136	0.173	0.056139	0.23394	0.17377	0.035931	0.1391	0.13296	0.071026	0.18447	0.28568	0.12855	0.27637	0.28802	0.13838	0.083215	-2.4313	-2.0812	-2.4042	-2.7188	-1.9542	-2.7167	-2.75	-2.3708	-2.7167	-1.9188	-2.4979	-2.875	-1.8542	-2.6333	-2.4625	-2.2146	128.197	110.896	-31.063	150.954	112.387	207.840	-6.924	258.545	88.217	203.032	244.558	241.393	18.073	-70.587	-63.906	-7.961	0.00038458	0.00064159	0.00011299	1382	5.8032e-06	5.7471e-06	1372.8	377.44	4.2622e-06	6.1196e-06	430.74	143.76	124.97	43.155	3.7736e-06	53.059	0.00055442	0.00060899	0.00014886	1388.9	6.1495e-06	6.5554e-06	1386.7	380.26	6.2915e-06	6.5234e-06	433.39	145.46	128.55	44.38	5.8256e-06	53.82	-83.743	36.575	28.439	-74.941	271.125	37.780	-74.929	-70.402	158.198	19.177	-70.957	-66.226	-65.129	-61.818	105.410	-62.280	-8191	255	
2819.408	1	1	0	0	0.19763	0.14527	0.053944	0.20951	0.21849	0.11181	0.45682	0.15473	0.17679	0.33524	0.056289	0.34942	0.066424	0.22066	0.24142	0.18811	-2.3271	-2.1271	-2.2458	-2.7104	-1.8813	-2.5021	-2.6604	-2.1063	-2.6688	-2.2042	-2.2771	-2.7229	-2.125	-2.6625	-2.4458	-2.2583	41.979	145.690	186.038	210.611	18.982	43.222	167.534	243.478	129.077	231.166	148.077	-57.036	168.211	87.056	222.538	84.441	0.00032842	0.00024441	0.00012173	1380.2	4.6217e-06	6.0882e-06	1379	377.85	2.5725e-06	9.8531e-06	428.24	143.81	124.35	42.984	4.7983e-06	53.358	0.00059093	0.00058532	0.00014515	1391.7	6.537e-06	6.2454e-06	1387.6	381.27	6.6051e-06	6.2193e-06	431.94	145.88	129.69	44.193	5.6829e-06	54.177	-75.502	17.610	-69.401	-74.662	210.789	79.351	-74.673	-70.150	92.091	40.572	-70.948	-66.231	-64.989	-61.579	-37.567	-62.060	-8191	255	
2819.504	1	1	0	0	0.18178	0.28711	0.3188	0.25679	0.41177	0.34643	0.094468	0.06724	0.088107	0.20663	0.273	0.28418	0.14624	0.12477	0.29246	0.19094	-2.3479	-2.1	-2.1354	-3.0167	-1.9292	-2.4188	-2.7167	-2.0396	-2.6542	-2.2583	-1.9125	-2.7958	-1.7958	-2.4188	-2.5729	-2.0646	83.156	-32.987	-27.396	214.011	-22.648	180.323	260.389	23.713	-18.445	232.036	212.220	255.382	204.570	194.282	129.441	114.327	0.00020792	0.00095315	0.00015354	1378	4.0037e-06	5.4661e-06	1377.2	377.7	3.5713e-06	3.8982e-07	430.43	144.07	124.48	43.447	2.9436e-06	53.378	0.00060844	0.00055565	0.0001432	1394	6.7411e-06	5.9774e-06	1386.1	383.26	6.6521e-06	6.0055e-06	432.59	147.2	129.95	44.288	5.6361e-06	54.693	240.859	-11.692	9.126	-74.676	161.590	55.181	-74.863	-69.961	45.466	-62.352	-70.884	-66.074	-65.328	-61.597	-10.342	-62.433	-8191	255	
2819.600	1	1	0	0	0.0905	0.076627	0.066072	0.28581	0.013363	0.26816	0.24806	0.13177	0.20663	0.34593	0.19983	0.3143	0.14461	0.1369	0.043924	0.22465	-2.1875	-2.2979	-1.9312	-2.8896	-1.9354	-2.3063	-2.7521	-2.0917	-2.5667	-2.275	-2.0312	-2.8	-2.225	-2.3208	-2.5625	-1.9458	214.716	244.241	-36.217	255.477	-79.264	-44.194	257.363	160.537	-21.150	-51.812	-7.335	169.678	70.826	162.737	15.144	-86.146	0.00022535	0.00071775	0.00013361	1383.7	6.1578e-06	5.9596e-06	1379.5	376.74	1.7635e-06	6.0938e-06	431.23	143.88	125.06	43.404	3.4678e-06	53.397	0.0006003	0.00054195	0.00014136	1401.6	6.588e-06	5.8273e-06	1388.9	385.13	6.4482e-06	5.8599e-06	434.11	148.15	129.17	44.229	5.7139e-06	55.068	-26.994	23.426	20.452	-74.744	165.953	20.943	-74.847	-70.117	44.265	-60.873	-71.033	-66.291	-65.513	-61.650	104.716	-62.188	-8191	255	
2819.697	1	1	0	0	0.14299	0.083297	0.26664	0.22907	0.14154	0.10295	0.16122	0.18333	0.15453	0.14226	0.1667	0.17978	0.15867	0.062688	0.048889	0.067364	-1.9813	-2.2396	-1.7854	-2.8417	-1.9958	-2.1063	-2.7896	-1.9521	-2.3417	-2.3875	-2.1333	-2.7854	-2.1604	-2.1271	-2.5187	-2.0021	-69.081	-28.392	105.646	222.139	-6.067	223.742	190.263	66.796	221.802	160.759	224.053	269.386	172.112	269.888	211.770	226.189	7.2924e-05	0.00056191	0.00012403	1384.3	4.9722e-06	5.8315e-06	1380.7	378.72	5.1911e-06	7.2967e-06	430.41	144.3	126.36	43.807	4.5135e-06	53.602	0.00057498	0.00053011	0.00014556	1407.4	6.2963e-06	5.688e-06	1391.9	387.31	6.1211e-06	5.7451e-06	435.68	148.63	128.31	44.278	5.9978e-06	55.152	-78.316	44.126	98.822	-74.754	36.029	24.702	-74.645	-70.440	47.997	-20.448	-71.003	-66.122	-65.440	-61.616	-67.807	-62.464	-8191	255	
2819.793	1	1	0	0	0.16611	0.16635	0.21412	0.26214	0.10724	0.046004	0.46283	0.12977	0.21466	0.12041	0.083927	0.28599	0.16946	0.074127	0.32945	0.11669	-1.9792	-2.5625	-1.9	-2.8646	-2.0875	-2.0917	-3.025	-2.1792	-2.3417	-2.7354	-2.0646	-2.625	-2.2979	-2.1	-2.6042	-2.0833	265.933	247.514	-15.689	193.074	-48.397	220.504	190.741	-75.134	-70.438	-47.416	130.046	146.531	25.346	233.937	-13.200	8.664	0.00032026	0.00047815	0.00018469	1386.4	3.7604e-06	3.3534e-06	1381.8	379.25	6.4092e-06	1.0699e-06	431.17	145.14	125.51	43.538	3.477e-06	53.377	0.00054736	0.00052163	0.00015421	1407.6	6.0291e-06	5.6027e-06	1397.4	387.38	5.8906e-06	5.6415e-06	438.11	148.58	127.31	44.154	6.4467e-06	55	-59.018	38.922	67.902	-74.906	122.600	-36.889	-74.668	-70.095	19.986	211.742	-70.863	-66.209	-65.769	-61.345	207.784	-61.994	-8191	255	
2819.889	1	1	0	0	0.24999	0.20804	0.14714	0.26198	0.12806	0.18831	0.071459	0.084203	0.18939	0.06117	0.30483	0.21148	0.17826	0.38405	0.15956	0.19181	-1.9146	-2.65	-1.8958	-2.6167	-2.4042	-2.0042	-3.0458	-2.1958	-2.05	-2.6083	-2.2958	-2.5479	-2.3812	-2.1437	-2.6292	-2.1042	95.798	31.459	264.568	260.160	-87.606	48.694	83.814	-84.901	5.850	231.888	223.204	267.168	-52.994	215.592	-19.749	-51.382	0.00027569	0.00092904	8.8248e-05	1388.6	3.6826e-06	2.7331e-06	1382.1	378.65	3.2379e-06	1.9737e-06	431.83	144.89	125.8	43.632	2.983e-06	53.554	0.00053113	0.00051719	0.0001654	1404.2	5.8496e-06	5.6166e-06	1402	386.47	5.7693e-06	5.7235e-06	440.31	148.1	127.05	44.317	6.7178e-06	54.752	-73.656	-2.135	8.917	-74.738	163.715	265.008	-74.568	-70.081	-6.272	196.204	-70.710	-66.087	-65.153	-61.438	12.947	-62.350	-8191	255	
2820.009	1	1	0	0	0.17909	0.07737	0.019071	0.36412	0.14414	0.12979	0.11963	0.20811	0.031018	0.14812	0.15876	0.24076	0.14884	0.28152	0.24929	0.085507	-1.5792	-2.5938	-1.9583	-2.6979	-2.5333	-2.0979	-2.8979	-2.3208	-1.9417	-2.625	-2.1312	-2.4562	-2.4854	-1.9167	-2.725	-2.2729	138.510	77.480	101.926	236.445	208.585	-47.417	-87.412	205.985	151.289	-2.451	184.395	193.045	182.358	-87.673	244.898	221.533	0.00019151	0.00041603	0.00010005	1386.4	2.8515e-06	3.9812e-06	1384.6	379.35	6.4926e-06	1.6814e-06	431.84	145.46	126.53	43.703	2.3163e-06	53.525	0.00052153	0.0005309	0.00017327	1404.1	5.7897e-06	5.9168e-06	1404.8	385.34	5.6746e-06	6.0498e-06	442.11	147.89	127.02	44.619	6.7579e-06	54.678	-55.210	161.042	-25.136	-74.775	115.925	-61.981	-74.721	-70.136	39.939	78.850	-70.699	-66.375	-65.097	-61.753	31.949	-61.978	-8191	255	
2820.106	1	1	0	0	0.36097	0.17633	0.17058	0.1231	0.18366	0.11058	0.18945	0.34892	0.26397	0.1835	0.077992	0.10261	0.28102	0.13739	0.21411	0.21588	-1.6042	-2.6958	-1.9167	-2.5417	-2.5021	-1.8583	-2.6542	-2.2562	-1.8417	-2.625	-2.0563	-2.3979	-2.5458	-1.9083	-2.5375	-2.3521	-29.549	21.290	185.382	226.467	22.545	181.469	210.677	200.692	8.051	23.876	-62.923	204.145	157.721	228.618	28.349	218.181	0.00020299	0.00065041	0.00016775	1387.9	2.0876e-06	2.7494e-06	1388.2	379.58	3.2125e-06	5.619e-06	432.8	145.7	126.77	43.568	1.033e-05	53.661	0.00051265	0.00057595	0.00017042	1399.2	5.6729e-06	6.3e-06	1403.4	384.74	5.6076e-06	6.4691e-06	440.74	147.52	127.2	44.905	6.5141e-06	54.496	-50.343	142.333	1.450	-74.846	81.756	271.166	-74.604	-70.058	250.913	43.755	-70.799	-66.114	-65.148	-61.352	59.355	-62.197	-8191	255	
2820.202	1	1	0	0	0.16475	0.17467	0.16173	0.23817	0.17336	0.172	0.046061	0.031058	0.1666	0.12456	0.20914	0.21095	0.26325	0.12135	0.22697	0.15414	-1.5854	-2.5896	-2.0667	-2.2562	-2.5229	-2.0792	-2.6208	-2.5062	-1.9104	-2.4729	-2.1271	-2.2625	-2.7229	-2	-2.3646	-2.6771	-61.451	-11.880	235.008	-49.812	195.169	32.856	259.906	237.101	217.778	-48.713	64.339	208.435	-40.869	151.833	268.459	230.375	0.0002483	0.00012771	0.00024907	1387.8	5.1127e-07	6.6037e-06	1389.7	381.74	2.759e-06	3.0868e-06	434.78	144.45	126.4	43.627	2.2322e-06	53.585	0.0005168	0.00060778	0.0001645	1399.2	5.7408e-06	6.7306e-06	1401.1	384.94	5.743e-06	6.7504e-06	439.08	146.85	127.67	44.959	6.1453e-06	54.449	-67.205	27.531	-14.686	-74.707	-36.828	9.908	-74.659	-69.945	219.322	122.829	-70.617	-66.222	-65.094	-61.348	-20.776	-62.347	-8191	255	
2820.322	1	1	0	0	0.21853	0.10878	0.025995	0.18992	0.089953	0.22159	0.41634	0.12347	0.048538	0.14045	0.17971	0.063344	0.10001	0.14404	0.18527	0.13283	-1.4958	-2.5729	-2.2479	-2.2958	-2.4604	-1.9146	-2.4896	-2.6688	-1.9625	-2.7812	-2.4375	-2.0354	-2.7812	-2.2833	-2.2583	-2.8125	-84.014	62.462	106.900	229.588	182.397	92.891	225.771	155.325	200.888	19.067	6.046	-34.330	127.181	173.715	29.832	-28.013	0.00028171	0.00049221	0.00011824	1386	5.3981e-06	7.1387e-06	1387.2	381.42	2.7861e-06	7.4427e-06	434.75	144.93	126.51	43.679	8.8271e-06	53.601	0.00054564	0.00062025	0.00015616	1396.4	6.1343e-06	6.7835e-06	1397.8	384.99	6.207e-06	6.7367e-06	438.84	147.27	129.78	45.082	5.9887e-06	54.517	-67.293	23.897	29.152	-74.869	255.959	2.702	-74.662	-69.998	113.227	3.510	-70.708	-66.351	-65.437	-61.503	31.996	-62.068	-8191	255	
2820.394	1	1	0	0	0.050344	0.14853	0.11537	0.17812	0.22468	0.29867	0.16303	0.28008	0.10467	0.2887	0.31129	0.17771	0.065146	0.15217	0.20316	0.23356	-1.5583	-2.4458	-2.2062	-2.1771	-2.5896	-2.2896	-2.4208	-2.5292	-1.9583	-2.4104	-2.4021	-2.0292	-2.675	-2.0125	-2.2188	-2.7521	176.960	68.078	251.220	159.686	-40.836	243.602	-76.590	231.337	124.788	239.650	256.000	-32.889	217.190	189.259	-71.058	-3.417	0.00042274	0.00065469	0.00023953	1391.9	5.32e-06	4.7224e-06	1384	380.21	2.1334e-06	7.4692e-06	432.46	144.67	126.63	43.613	4.0141e-06	53.699	0.00058776	0.00061123	0.00015383	1399.9	6.5436e-06	6.6256e-06	1396.7	385.31	6.6501e-06	6.4875e-06	437.58	147.25	131.3	44.835	5.8519e-06	54.559	-74.475	-59.889	-36.641	-74.868	168.061	56.441	-74.879	-70.129	82.527	21.731	-70.746	-66.315	-65.447	-61.383	6.764	-62.167	-8191	255	
2820.488	1	1	0	0	0.094859	0.070632	0.24417	0.2496	0.11665	0.18836	0.11457	0.10938	0.15104	0.10441	0.14419	0.23001	0.1665	0.17994	0.31983	0.13757	-1.5187	-2.4667	-2.4104	-2.3354	-2.5479	-2.1771	-2.3771	-2.6937	-1.8917	-2.3167	-2.4562	-2.0729	-2.7687	-2.3	-2.1146	-2.7458	183.892	102.833	128.575	246.079	141.588	68.035	-65.339	127.391	45.019	51.250	-52.886	221.429	118.977	265.660	-36.268	181.809	0.00047282	0.00082664	0.00013469	1386.7	3.8244e-06	6.5945e-06	1377.2	380.58	1.0978e-06	5.1408e-06	432.51	144.58	125.43	43.53	3.494e-06	53.533	0.00061504	0.00058117	0.00014936	1399.3	6.8394e-06	6.2852e-06	1392.9	385.39	6.8201e-06	6.1681e-06	436.39	147.6	131.56	44.529	5.7059e-06	54.813	271.426	-19.352	33.603	-74.737	250.597	56.239	-74.760	-70.205	-67.180	-30.495	-70.528	-66.271	-64.946	-61.445	3.363	-62.136	-8191	255	
2820.585	1	1	0	0	0.062282	0.30175	0.13564	0.4765	0.15129	0.17021	0.24329	0.24738	0.13826	0.3518	0.034239	0.34087	0.12136	0.10956	0.14379	0.10675	-1.675	-2.1312	-2.3708	-2.0146	-2.5917	-2.15	-2.2708	-2.7417	-1.8687	-2.2062	-2.6312	-2.0646	-2.5104	-2.4167	-2.0458	-2.8146	182.622	-71.986	-3.235	267.316	159.814	149.991	236.262	-28.897	103.123	241.556	162.440	97.107	245.764	248.793	123.556	192.014	0.0001943	0.00098763	0.00023725	1384.4	5.0798e-06	8.7546e-06	1381.2	378.09	5.1247e-06	3.4911e-06	428.23	143.46	125.38	43.468	2.0532e-06	53.303	0.00062011	0.00055302	0.00014556	1401	6.7542e-06	6.0353e-06	1390.2	385.72	6.7397e-06	5.9629e-06	434.07	147.84	130.3	44.352	5.6476e-06	55.014	-70.888	1.329	-24.624	-74.780	66.194	20.017	-74.740	-70.023	185.515	-41.194	-70.561	-66.264	-65.293	-61.544	237.419	-62.165	-8191	255	
2820.705	1	1	0	0	0.11031	0.21262	0.17494	0.070285	0.081982	0.036301	0.22274	0.27308	0.32321	0.25691	0.25191	0.072834	0.20145	0.12893	0.32957	0.12361	-1.5042	-2.3271	-2.6625	-2.0583	-2.5417	-2.5146	-2.1979	-2.7313	-2.1083	-2.2229	-2.5687	-1.8937	-2.3187	-2.4917	-2.0062	-2.7417	-18.601	171.328	-5.436	258.536	-9.662	-64.673	166.320	243.884	83.298	214.318	12.393	125.102	200.126	-41.408	172.232	267.712	0.00016795	0.00046384	0.00015595	1384.5	7.922e-06	4.1199e-06	1381.2	379.27	4.5878e-06	7.1462e-06	429.41	143.69	125.96	43.509	4.0443e-06	53.416	0.00059371	0.00053779	0.00014604	1405.2	6.4293e-06	5.8846e-06	1388.9	387.06	6.3643e-06	5.7736e-06	434.65	148.44	128.75	44.212	5.8442e-06	55.108	-57.586	-1.230	-2.192	-74.776	14.837	43.639	-74.727	-70.131	45.763	18.603	-70.739	-65.813	-64.760	-61.401	167.826	-61.940	-8191	255	
2820.801	1	1	0	0	0.080008	0.061366	0.15074	0.23726	0.12312	0.092679	0.29757	0.31197	0.08201	0.30704	0.047119	0.18169	0.11659	0.057308	0.22906	0.20831	-1.5833	-2.225	-2.5438	-2.0583	-2.3708	-2.3792	-1.9688	-2.7083	-1.9438	-1.9979	-2.7062	-2.1167	-2.2021	-2.5625	-1.9417	-2.6188	182.161	258.194	87.817	219.886	43.771	227.792	264.092	267.964	167.725	89.192	14.021	228.837	169.670	109.680	253.209	193.081	0.00019053	0.00030588	4.3468e-05	1379	2.959e-06	1.1243e-05	1375.8	380.04	5.4928e-06	4.7521e-06	429.46	144.36	125.19	43.285	7.7511e-06	53.308	0.00057098	0.00052323	0.00015268	1404	6.1286e-06	5.772e-06	1390.9	387.64	6.139e-06	5.6611e-06	437.37	148.44	127.67	44.081	6.3056e-06	54.976	-70.044	-28.707	199.799	-74.422	90.038	37.540	-74.959	-70.191	-1.305	-12.551	-70.617	-66.258	-65.578	-61.471	186.509	-62.258	-8191	255	
2820.898	1	1	0	0	0.35875	0.32904	0.080929	0.13007	0.25771	0.11117	0.13262	0.082994	0.33698	0.26117	0.20704	0.4707	0.29106	0.1944	0.26605	0.17757	-1.8062	-1.9375	-2.55	-2.2479	-2.3125	-2.5812	-2.1937	-2.4917	-2.3375	-2.1083	-2.9938	-2.2979	-2.2542	-2.7333	-2.0146	-2.6729	212.314	204.522	237.146	193.774	205.233	203.249	171.748	-80.033	22.734	5.642	148.472	208.786	236.756	-70.401	62.589	-74.002	0.00029286	0.00074171	0.00017366	1385.4	6.2773e-06	1.0914e-06	1378.6	378.22	7.4475e-06	5.5577e-06	429.98	144.26	124.53	43.442	4.7808e-06	53.336	0.00055121	0.00051439	0.00016294	1403.4	5.956e-06	5.6939e-06	1395.6	386.54	5.9517e-06	5.6601e-06	439.36	148.08	127.03	44.132	6.7074e-06	54.831	-42.630	54.203	129.580	-74.791	120.683	137.392	-74.727	-70.279	49.940	23.254	-70.730	-66.345	-65.536	-61.315	183.079	-62.415	-8191	255	
2820.969	1	1	0	0	0.11318	0.02707	0.13849	0.021705	0.043204	0.3376	0.4214	0.27815	0.074101	0.21488	0.18952	0.098322	0.2149	0.10384	0.43524	0.093706	-1.8771	-2.05	-2.6417	-2.1042	-1.9458	-2.6417	-1.9771	-2.5854	-2.3875	-1.9792	-2.8333	-2.4313	-2.0458	-2.7521	-1.9	-2.4625	-5.803	-35.634	219.316	26.934	116.372	130.817	232.579	256.321	143.720	190.842	269.942	172.056	223.905	-5.194	163.309	157.973	0.00024471	0.00023089	0.00014827	1385.9	4.1834e-06	2.7515e-06	1378.7	379.18	3.7774e-06	5.005e-06	430.95	143.98	126.42	43.137	4.1107e-06	53.717	0.00053907	0.00052908	0.00017416	1402.9	5.8741e-06	5.8959e-06	1401.8	385.49	5.8912e-06	5.93e-06	442.02	147.7	126.77	44.277	6.9171e-06	54.702	241.085	145.029	16.483	-74.743	132.767	177.526	-74.696	-69.897	66.480	-7.058	-70.598	-66.154	-65.043	-61.221	208.193	-61.954	-8191	255	
2821.090	1	1	0	0	0.16277	0.16541	0.088178	0.29772	0.13391	0.20384	0.16956	0.067836	0.19971	0.108	0.32061	0.16443	0.04914	0.41648	0.071777	0.26984	-2.1125	-1.8333	-2.6292	-2.3646	-1.9708	-2.6729	-2.0167	-2.4708	-2.5167	-1.8854	-2.8875	-2.3833	-2.0104	-2.9229	-2.0333	-2.4625	39.189	143.823	137.071	-83.340	-27.641	161.157	217.018	-4.725	243.723	29.272	234.019	-61.287	226.472	237.871	215.949	-85.248	0.00020448	0.0001384	0.00022274	1381.6	3.713e-06	4.6668e-06	1384.1	379	3.7338e-06	8.0495e-06	431.69	144.19	124.79	43.203	3.6983e-06	53.604	0.00052804	0.00055944	0.00017532	1396.7	5.7605e-06	6.2707e-06	1403	384.28	5.7269e-06	6.4344e-06	441.61	147.07	126.05	44.542	6.7807e-06	54.458	-79.656	190.133	36.304	-74.594	156.942	125.477	-74.566	-70.002	-34.582	132.483	-70.655	-65.941	-65.093	-61.492	-5.537	-62.506	-8191	255	
2821.186	1	1	0	0	0.11385	0.39145	0.088927	0.14793	0.1483	0.18918	0.1757	0.067767	0.16293	0.26761	0.32556	0.20185	0.25891	0.21828	0.19891	0.093663	-2.1375	-1.9937	-2.5438	-2.6375	-1.9896	-2.7708	-2.425	-2.3604	-2.8083	-1.8833	-2.6292	-2.4417	-1.8208	-2.6396	-2.0208	-2.1542	59.400	-77.495	64.278	198.727	163.740	-20.598	188.933	244.998	251.892	106.477	241.568	-16.446	126.359	224.990	-27.920	201.127	0.00020959	0.00021346	0.00021629	1380	3.0121e-06	7.7044e-06	1377	377.45	3.2898e-06	5.9533e-06	431.59	143.95	125.3	43.327	8.0728e-06	53.248	0.00052649	0.00060072	0.000169	1393.8	5.7125e-06	6.6987e-06	1397.1	383.04	5.8085e-06	6.7564e-06	438.33	146.72	126.75	44.723	6.4895e-06	54.189	-83.734	-3.226	-48.056	-74.569	44.193	143.237	-74.766	-69.880	127.447	169.787	-70.815	-66.213	-64.955	-61.523	78.503	-62.097	-8191	255	
2821.282	1	1	0	0	0.14229	0.04956	0.1907	0.1589	0.19139	0.030561	0.19365	0.23378	0.10699	0.13216	0.17989	0.17952	0.10318	0.25402	0.055319	0.31531	-2.1771	-1.8438	-2.3729	-2.4688	-1.7667	-2.675	-2.3833	-2.1854	-2.8312	-2.0354	-2.2812	-2.4104	-1.8396	-2.6854	-2.175	-1.9917	-72.605	15.951	163.380	215.626	-34.617	234.719	224.403	221.579	238.402	146.452	261.429	164.568	246.314	177.098	124.755	163.159	0.00040413	0.00026058	0.0001476	1382.9	6.8334e-06	3.8261e-06	1375.7	375.75	8.3793e-07	4.0368e-06	429.79	144	124.75	43.069	2.6883e-06	53.149	0.00053907	0.00062893	0.00016131	1395.6	5.957e-06	6.8659e-06	1392.3	381.05	6.1029e-06	6.935e-06	435.3	146.2	127.69	44.54	6.2268e-06	54.012	256.827	234.703	7.508	-74.512	217.482	129.037	-74.667	-69.841	219.074	21.441	-70.799	-66.236	-65.167	-61.243	-26.872	-62.348	-8191	255	
2821.403	1	1	0	0	0.14414	0.07544	0.26422	0.041099	0.16176	0.097679	0.19385	0.23995	0.13371	0.060582	0.19126	0.26048	0.1128	0.15052	0.17965	0.18279	-2.1771	-1.8937	-2.2167	-2.8063	-1.9083	-2.5438	-2.5104	-1.9937	-2.7646	-2.0167	-2.3146	-2.4562	-1.875	-2.6583	-2.2875	-2.05	-35.377	-75.200	130.033	121.338	-26.146	27.806	258.605	176.369	32.537	262.282	181.700	244.980	124.490	236.088	-19.491	86.251	0.00049858	0.00048911	0.00013528	1378.4	4.9149e-06	7.5839e-06	1377.3	374.92	3.0132e-06	4.9804e-06	427.95	143.3	124.23	42.743	2.2457e-06	52.821	0.00057685	0.00062502	0.00015503	1390.7	6.4162e-06	6.7533e-06	1388	380.27	6.5561e-06	6.7004e-06	433.35	145.16	129.01	44.164	5.9918e-06	53.826	268.836	-3.985	14.864	-74.690	-79.622	-54.969	-74.533	-69.863	244.582	63.210	-70.708	-66.076	-64.985	-61.455	97.649	-61.984	-8191	255	
2821.497	1	1	0	0	0.12207	0.087842	0.11237	0.11276	0.055345	0.057187	0.17421	0.27125	0.19497	0.14828	0.1346	0.097912	0.30242	0.20434	0.10484	0.04385	-2.2625	-1.9708	-2.0854	-3.0021	-1.9646	-2.2979	-2.5187	-1.9896	-2.4708	-2.1167	-2.1125	-2.7396	-1.9146	-2.5312	-2.4479	-2.0583	-14.334	200.291	120.527	-31.546	38.928	260.443	216.051	32.710	129.127	29.000	167.051	267.915	243.100	226.422	-12.120	-74.016	0.00035126	0.00046744	9.9913e-05	1375	3.5227e-06	9.6978e-06	1371.8	372.77	3.9322e-06	5.3701e-06	425.93	141.96	123.31	42.639	7.9587e-06	52.325	0.00061142	0.00060148	0.00014986	1385.7	6.7635e-06	6.4392e-06	1384.2	378.53	6.842e-06	6.4267e-06	431.06	145.22	129.45	43.733	5.9179e-06	53.852	-77.384	56.776	-51.712	-74.470	104.887	29.357	-74.654	-70.145	244.610	3.489	-70.948	-66.320	-65.424	-61.384	72.695	-62.630	-8191	255	
2821.593	1	1	0	0	0.20755	0.16071	0.25125	0.3374	0.11561	0.045648	0.44508	0.11201	0.19063	0.071202	0.29904	0.21733	0.21821	0.22001	0.08624	0.20492	-2.2271	-2.1188	-1.9792	-2.9292	-1.6583	-2.3417	-2.7188	-1.9896	-2.575	-2.1479	-2.1229	-2.6063	-1.8104	-2.1729	-2.5563	-1.7188	-79.065	260.534	242.231	252.859	-44.873	-69.083	224.987	206.340	145.444	-17.234	191.005	-66.275	28.284	-79.481	163.013	91.708	0.00023913	0.00036944	6.0228e-05	1369.9	6.7175e-06	8.8101e-06	1369.1	373.31	9.4628e-07	3.9203e-06	425.39	141.94	123.14	42.644	3.079e-06	52.703	0.00062753	0.00057216	0.00014797	1385.3	6.9173e-06	6.1706e-06	1378.6	379.94	6.8447e-06	6.1323e-06	428.68	146.01	129.12	43.579	5.792e-06	54.174	-49.023	-32.500	129.276	-74.683	120.105	72.503	-74.724	-70.232	130.861	53.699	-70.831	-66.398	-65.274	-61.544	34.772	-62.507	-8191	255	
2821.689	1	1	0	0	0.20054	0.18981	0.26432	0.26902	0.12087	0.081868	0.23205	0.055571	0.27875	0.1346	0.12241	0.095135	0.34617	0.032325	0.17957	0.25627	-2.0083	-1.9896	-1.8104	-2.9521	-1.9958	-2.1833	-2.6792	-2.0104	-2.5062	-2.4042	-2	-2.7167	-2.0292	-2.2729	-2.5062	-1.8583	87.268	133.309	157.736	228.080	-19.977	151.022	-59.404	113.590	-83.001	204.520	-54.820	123.190	257.285	-59.908	-61.552	160.126	4.7885e-05	0.00077	9.4247e-05	1368.3	1.4388e-06	6.7616e-06	1363.5	372.47	1.0417e-05	5.7351e-06	424.48	142.15	122.39	42.382	2.5969e-06	52.369	0.00061825	0.00055738	0.0001463	1389.3	6.7561e-06	6.039e-06	1374.5	380.64	6.6521e-06	6.0245e-06	428.43	146.35	127.83	43.367	5.9128e-06	54.347	-65.061	23.226	-0.544	-74.705	157.040	54.196	-75.025	-70.204	58.154	-35.409	-70.991	-66.262	-64.707	-61.389	-78.343	-62.174	-8191	255	
2821.786	1	1	0	0	0.15772	0.30777	0.15297	0.13003	0.10216	0.070095	0.23517	0.21463	0.242	0.31541	0.14631	0.05302	0.086565	0.21256	0.12879	0.13133	-1.9917	-2.3583	-1.8125	-2.8167	-2.075	-2.2458	-2.85	-2.075	-2.4396	-2.4688	-1.9125	-2.7021	-2.1708	-2.0396	-2.6833	-1.9625	234.839	183.255	207.047	192.237	35.587	266.978	254.519	228.353	161.685	121.755	21.662	124.439	243.302	-65.515	-52.893	-24.120	0.00016707	0.00057878	5.664e-05	1364.9	5.5294e-06	8.9291e-06	1361.2	371.75	6.5756e-06	4.7886e-06	423.25	140.94	123.09	42.385	3.1037e-06	52.391	0.00059105	0.00054927	0.00015034	1388.6	6.4727e-06	5.8805e-06	1375.8	381.19	6.3293e-06	5.9391e-06	430.18	146.32	126.52	43.259	6.2058e-06	54.387	-10.428	0.163	54.651	-74.856	121.810	35.134	-74.766	-69.986	45.889	38.443	-70.897	-66.057	-65.450	-61.552	238.586	-62.263	-8191	255	
2821.882	1	1	0	0	0.21417	0.10647	0.14307	0.3529	0.18602	0.2129	0.40406	0.24283	0.13253	0.01943	0.075994	0.090094	0.023842	0.20883	0.21606	0.14816	-1.7479	-2.4417	-1.9333	-2.7521	-2.1688	-2.025	-2.8042	-2.1042	-2.1667	-2.7292	-2.0479	-2.675	-2.3917	-2.25	-2.7146	-2.1146	1.421	-74.044	229.009	-85.689	-18.020	98.480	198.227	150.725	49.487	-1.801	194.315	196.750	-8.442	-35.140	108.053	195.900	0.0003447	0.00042563	0.00014761	1362.5	6.9673e-07	2.4573e-06	1361.3	369.32	3.0819e-06	5.8199e-06	421.92	140.73	123.05	42.088	9.7871e-06	52.626	0.00056447	0.00053238	0.0001606	1386.7	6.1515e-06	5.7464e-06	1380.1	380.02	6.0823e-06	5.7725e-06	432.02	145.51	125.32	43.046	6.6306e-06	54.158	-52.642	-12.759	59.970	-74.799	25.319	17.635	-74.797	-70.132	128.278	82.880	-70.577	-65.986	-64.767	-61.325	204.454	-61.771	-8191	255	
2822.002	1	1	0	0	0.02499	0.15686	0.25045	0.57187	0.10279	0.055831	0.060413	0.2626	0.29175	0.28838	0.10954	0.17958	0.24252	0.15745	0.058204	0.28665	-1.7771	-2.6854	-1.6521	-2.5979	-2.2583	-2.0396	-2.9479	-2.1646	-2.1667	-2.5875	-2.0146	-2.4854	-2.3917	-1.9833	-2.5792	-2.1688	220.655	98.513	222.568	227.936	101.331	13.444	-17.083	218.397	-19.694	187.031	8.764	-69.102	207.397	-26.053	119.685	233.461	0.00013641	0.00036428	7.3451e-05	1366.6	2.2903e-06	5.2568e-06	1358.5	369.93	4.1664e-06	4.0685e-06	421.8	141.58	122.15	42.277	2.8286e-06	52.811	0.00054788	0.00052518	0.00017049	1384.3	6.0385e-06	5.7968e-06	1381.4	378.22	5.886e-06	5.8456e-06	434.09	145.05	124.53	43.206	6.9204e-06	53.916	260.113	83.823	114.873	-74.656	109.354	73.846	-74.613	-69.767	115.427	9.658	-70.460	-66.168	-64.871	-61.426	204.945	-61.848	-8191	255	
2822.099	1	1	0	0	0.019105	0.1635	0.11773	0.15968	0.22448	0.14999	0.1562	0.12951	0.35649	0.12248	0.065187	0.15133	0.12177	0.1958	0.21747	0.0551	-1.7583	-2.45	-2.0667	-2.6396	-2.6354	-1.8667	-2.9917	-2.2167	-2.0979	-2.8333	-2.0708	-2.2729	-2.4813	-1.6938	-2.5229	-2.3875	0.521	173.410	88.684	266.526	87.196	-85.320	150.495	209.226	142.047	95.064	183.748	-55.762	81.035	194.987	10.285	94.269	0.0001232	0.00032655	0.00031724	1364.8	6.9459e-06	1.7832e-06	1361.6	371.33	9.0843e-06	1.0258e-05	423.74	141.01	121.1	42.18	4.9412e-06	52.337	0.00053476	0.00055108	0.00017627	1380.2	5.8773e-06	6.0683e-06	1383.6	377.58	5.7281e-06	6.1852e-06	433.9	144.29	123.93	43.317	6.8664e-06	53.562	-45.007	-15.663	9.402	-74.577	115.859	233.965	-74.579	-69.903	12.445	151.961	-70.745	-66.109	-65.152	-61.267	29.241	-62.319	-8191	255	
2822.195	1	1	0	0	0.065452	0.21494	0.13247	0.26825	0.22513	0.051326	0.11245	0.28387	0.2689	0.38082	0.39043	0.19233	0.20859	0.11486	0.18048	0.13783	-1.6562	-2.55	-2.1437	-2.5292	-2.4417	-1.8333	-2.7896	-2.3354	-1.8771	-2.7083	-2.1063	-2.3604	-2.5396	-1.9292	-2.3833	-2.3396	229.767	-10.000	50.559	-77.869	54.642	85.793	-63.162	270.877	229.979	-34.669	202.176	222.225	166.537	269.962	-24.255	97.927	0.00029438	0.00073806	0.00013435	1360.5	1.4645e-06	5.2576e-06	1355.5	367.61	6.4006e-06	3.2747e-06	419.6	140.59	120.7	41.938	8.3551e-06	51.963	0.00052162	0.0005851	0.00017375	1374.9	5.7581e-06	6.5225e-06	1379.5	375.21	5.7233e-06	6.6423e-06	430.17	143.28	123.31	43.389	6.5806e-06	53.182	-75.497	133.783	7.167	-74.976	200.553	148.689	-74.851	-69.937	122.515	112.163	-70.520	-66.177	-65.006	-61.327	16.492	-61.804	-8191	255	
2822.266	1	1	0	0	0.082337	0.31137	0.24678	0.28806	0.12049	0.26441	0.12141	0.069811	0.22455	0.10826	0.22251	0.12501	0.1063	0.13732	0.36385	0.051836	-1.4667	-2.6042	-1.9583	-2.2646	-2.4458	-1.725	-2.6375	-2.5375	-1.8542	-2.5604	-2.3458	-2.2979	-2.5438	-1.7896	-2.4417	-2.6958	239.188	203.236	91.809	266.761	25.143	97.361	153.050	260.583	48.884	57.876	212.455	133.927	152.933	-46.575	30.319	159.790	0.00034347	0.00040047	0.00026916	1357.4	2.7354e-06	3.8642e-06	1349.1	366.12	4.6168e-06	4.2247e-06	417.25	139.88	119.54	41.798	8.3746e-06	52.001	0.00052373	0.00061958	0.0001662	1369.1	5.8839e-06	6.8035e-06	1369.5	373.01	5.9061e-06	6.8877e-06	427.29	142.37	123.9	43.322	6.2356e-06	53.002	-62.205	54.207	-52.102	-74.655	-57.746	82.837	-74.866	-69.923	77.988	94.438	-70.374	-66.081	-65.141	-61.253	73.091	-62.027	-8191	255	
2822.385	1	1	0	0	0.060018	0.075126	0.2029	0.51602	0.24247	0.081372	0.15674	0.093961	0.16047	0.11219	0.14515	0.23135	0.29528	0.25291	0.1451	0.10094	-1.5229	-2.5542	-2.2333	-2.1063	-2.825	-1.9479	-2.4083	-2.6229	-1.8042	-2.5833	-2.5083	-1.9729	-2.5667	-2.0417	-2.3417	-2.7292	215.058	35.522	181.051	252.150	172.109	-84.817	256.358	243.114	180.058	168.959	-27.896	181.465	220.068	234.201	114.923	219.908	0.00032237	0.00049376	0.00025686	1352.6	5.5623e-06	9.6501e-07	1349.1	365.89	3.8122e-06	5.962e-06	416.5	140.04	121.14	41.714	5.3712e-06	52.007	0.0005538	0.00062709	0.00015784	1364.6	6.2878e-06	6.8999e-06	1364.6	371.2	6.3174e-06	6.8648e-06	424.59	142.02	125.75	43.143	6.0974e-06	52.969	243.862	-42.312	-55.203	-74.756	-83.570	-22.150	-74.476	-69.663	204.802	49.518	-70.923	-66.663	-64.844	-61.658	57.694	-62.119	-8191	255	
2822.481	1	1	0	0	0.14846	0.14563	0.15107	0.38897	0.14201	0.032898	0.30991	0.21685	0.2489	0.22864	0.19561	0.23444	0.12506	0.14687	0.06861	0.38212	-1.4688	-2.4958	-2.275	-2.2833	-2.6042	-1.9271	-2.4375	-2.5875	-1.8667	-2.35	-2.3396	-1.8979	-2.7417	-2.0687	-2.1354	-2.5958	38.620	1.246	215.631	223.962	186.588	178.583	155.147	245.333	-86.412	211.330	225.124	267.482	258.875	77.920	159.475	190.786	0.00042824	0.00027617	0.00016838	1349	2.4551e-06	7.7793e-06	1347.1	366.87	3.8031e-06	7.0188e-06	420.04	139.93	121.51	41.652	2.9851e-06	51.803	0.0005979	0.00061724	0.00015536	1363.1	6.7119e-06	6.7225e-06	1363.1	372.27	6.7716e-06	6.6057e-06	425.46	142.45	127.36	43.049	5.933e-06	53.042	264.758	9.092	-11.261	-75.083	202.584	0.496	-75.070	-70.631	182.884	-49.212	-70.938	-66.323	-65.344	-61.861	86.953	-62.203	-8191	255	
2822.578	1	1	0	0	0.11088	0.091958	0.28797	0.47282	0.18098	0.24053	0.40867	0.17241	0.071909	0.056109	0.054381	0.19921	0.13197	0.062252	0.039887	0.087968	-1.5104	-2.3438	-2.1917	-2.0583	-2.5146	-2.2083	-2.4813	-2.75	-2.1167	-2.5854	-2.4625	-2.0146	-2.7208	-2.2	-2.1813	-2.8042	228.035	56.134	117.340	-62.424	-48.732	185.120	213.364	24.985	149.071	156.387	68.327	57.376	52.476	80.613	245.084	-5.367	0.00032082	0.00054265	0.00022955	1349.3	2.9002e-06	6.9362e-06	1345.9	365.54	1.443e-06	5.7895e-06	416.82	139.04	120.85	41.574	1.3146e-06	51.502	0.00062929	0.0005848	0.00015173	1364.5	6.9027e-06	6.3267e-06	1359.9	372.76	6.9501e-06	6.2191e-06	423.56	142.62	127.25	42.717	5.7356e-06	53.184	-57.773	15.553	-18.519	-75.224	10.761	93.088	-75.132	-70.125	208.467	46.739	-70.978	-66.547	-65.300	-61.578	-26.563	-62.266	-8191	255	
2822.674	1	1	0	0	0.032411	0.17939	0.26113	0.28238	0.15284	0.13295	0.10232	0.33195	0.20459	0.13436	0.097865	0.2797	0.25796	0.23298	0.092631	0.33236	-1.7313	-2.2542	-2.4521	-2.0021	-2.475	-2.2958	-2.0667	-2.7917	-1.9167	-2.2833	-2.7292	-1.8708	-2.675	-2.2125	-1.925	-2.7438	-5.828	32.506	-31.887	266.841	-67.345	-51.426	164.688	233.988	123.424	129.015	232.730	239.085	171.178	-71.731	117.855	2.262	0.00028256	0.00036195	0.00012142	1345.4	5.9001e-06	7.8031e-06	1341.4	363.6	6.9178e-06	4.6866e-06	414.59	138.41	120.19	41.467	4.6707e-06	51.512	0.00062526	0.00055486	0.00014707	1363.6	6.7808e-06	6.0594e-06	1353.8	372.91	6.7559e-06	5.9819e-06	421.48	142.84	125.4	42.444	5.6875e-06	53.374	-79.539	237.723	-79.169	-75.192	103.234	57.102	-75.037	-70.374	14.998	6.090	-70.900	-66.421	-65.829	-61.625	48.671	-62.178	-8191	255	
2822.770	1	1	0	0	0.17839	0.089222	0.049564	0.2284	0.037829	0.16652	0.17549	0.2629	0.098578	0.21196	0.14087	0.09312	0.097944	0.086843	0.22849	0.1463	-1.5979	-1.9667	-2.3708	-2.0042	-2.4625	-2.4562	-2.0208	-2.8229	-1.9167	-2.1	-2.6729	-2.0896	-2.3542	-2.5333	-1.9417	-2.7917	24.934	-44.377	31.950	-74.846	-17.002	211.497	242.384	197.344	168.466	29.248	192.314	-31.731	237.944	265.079	-56.344	214.765	0.00017814	0.00039522	3.619e-05	1338.1	5.2624e-06	6.8955e-06	1339.8	364.05	2.3552e-06	4.0754e-06	414.92	138.85	120.19	41.307	3.9852e-06	51.498	0.00060008	0.00054272	0.00014732	1363.9	6.4807e-06	5.9259e-06	1351.2	373.82	6.4192e-06	5.8357e-06	421.61	143.3	124.28	42.312	5.9178e-06	53.535	-47.575	-26.723	238.144	-74.989	68.722	58.608	-75.078	-70.264	129.803	34.736	-70.919	-66.617	-65.519	-61.993	-18.653	-62.316	-8191	255	
2822.866	1	1	0	0	0.10432	0.078962	0.22585	0.36458	0.08297	0.025457	0.14686	0.30455	0.11801	0.12039	0.12753	0.30913	0.23917	0.11053	0.11806	0.18531	-1.7	-2.2333	-2.6312	-2.1562	-2.2917	-2.4	-2.1	-2.6771	-2.2292	-2.0583	-2.8	-2.175	-2.2542	-2.5104	-1.9542	-2.6146	-8.097	258.193	76.200	-46.704	242.185	198.225	172.457	261.086	231.755	11.095	189.019	249.445	231.978	-26.512	3.760	110.506	0.00017887	0.00013375	0.0001481	1342.7	6.976e-06	2.9622e-06	1338.3	364.42	1.1316e-05	2.5176e-06	415.1	138.52	120.53	41.35	4.2065e-06	51.48	0.00057016	0.0005279	0.00015449	1366.2	6.1438e-06	5.792e-06	1357	373.7	6.1237e-06	5.7072e-06	424.25	143.25	123.37	42.313	6.3374e-06	53.468	268.393	-34.078	129.469	-75.114	84.104	86.125	-75.130	-70.378	10.257	9.381	-70.866	-66.512	-65.695	-61.613	-80.520	-62.240	-8191	255	
2822.962	1	1	0	0	0.065047	0.1374	0.10097	0.18289	0.20769	0.08345	0.13441	0.30856	0.091587	0.10958	0.13184	0.21461	0.037582	0.15373	0.23452	0.11914	-1.7854	-1.8125	-2.6271	-2.2021	-2.2646	-2.6104	-2	-2.6792	-2.3521	-2.0125	-2.7229	-2.0417	-2.1708	-2.5438	-1.9042	-2.6333	231.792	5.790	240.138	232.201	200.866	-32.127	201.289	247.692	234.589	203.900	63.393	115.266	107.932	-58.153	-69.638	114.935	0.00019842	0.00047501	0.00015668	1343.6	3.8171e-06	4.4114e-06	1340.3	365.85	2.4652e-06	1.641e-06	416.21	137.57	119.93	41.216	2.5133e-06	51.705	0.00054948	0.00051639	0.00016621	1366.5	6.0011e-06	5.7322e-06	1361.8	373.36	5.982e-06	5.7141e-06	427.65	142.78	122.65	42.253	6.7987e-06	53.261	-80.082	3.234	106.744	-75.149	81.480	58.772	-75.219	-70.408	205.506	204.677	-71.406	-66.718	-65.416	-61.481	101.289	-62.487	-8191	255	
2823.083	1	1	0	0	0.092171	0.14911	0.3373	0.070452	0.26743	0.23058	0.31632	0.29394	0.087368	0.0056387	0.082862	0.18009	0.26414	0.26072	0.16897	0.018451	-1.9729	-1.8813	-2.6833	-2.4813	-2.1792	-2.6	-2.0979	-2.5583	-2.4229	-1.8646	-2.8271	-2.3854	-2.1979	-2.7375	-1.9833	-2.4354	156.570	4.015	200.151	232.736	28.732	-14.046	237.880	243.880	251.983	-58.399	39.863	-62.257	214.307	257.542	221.667	246.703	0.00024355	0.00017416	0.00010907	1345.4	3.4413e-06	4.9263e-06	1340.1	365.06	1.1429e-05	2.0804e-06	415.94	138.44	120.23	41.432	1.0091e-05	51.705	0.00054014	0.00052905	0.0001747	1364	5.8166e-06	5.911e-06	1365.1	371.87	5.8624e-06	5.9743e-06	428.26	142.38	121.83	42.539	6.8988e-06	52.934	-32.333	122.145	99.796	-75.284	164.487	106.193	-75.271	-70.455	122.894	110.182	-71.212	-66.524	-65.375	-61.660	53.954	-62.454	-8191	255	
2823.179	1	1	0	0	0.17567	0.1505	0.17796	0.12299	0.13127	0.06002	0.41638	0.20868	0.13576	0.14401	0.076503	0.2463	0.26994	0.19784	0.20282	0.1823	-2.2167	-2.0667	-2.425	-2.4729	-2.0333	-2.6417	-1.9688	-2.3542	-2.4188	-1.9333	-2.6063	-2.3875	-1.8021	-2.5896	-1.7625	-2.3271	167.559	38.740	-43.558	256.505	-44.665	206.813	225.993	257.552	159.111	240.699	-74.178	201.107	216.214	48.380	51.617	152.500	8.2944e-05	0.00043691	0.00014673	1343	2.25e-06	3.8999e-06	1337.9	364.83	7.6099e-06	3.4074e-06	417.17	138.62	119.45	41.255	1.7048e-06	51.691	0.00052753	0.00056395	0.00017486	1360.3	5.7147e-06	6.3e-06	1363.3	370.64	5.758e-06	6.396e-06	427.7	141.69	121.39	42.779	6.7207e-06	52.775	201.294	180.187	86.519	-75.264	185.716	-2.986	-75.178	-70.615	28.477	132.387	-71.283	-66.603	-65.738	-61.760	24.525	-62.617	-8191	255	
2823.275	1	1	0	0	0.23341	0.014625	0.069942	0.15386	0.21371	0.13655	0.12504	0.22707	0.32829	0.26071	0.038686	0.30649	0.25321	0.049997	0.12596	0.13178	-2.1042	-1.8687	-2.5083	-2.5979	-2.1417	-2.6188	-2.3229	-2.2938	-2.7167	-1.9	-2.4875	-2.4229	-1.9625	-2.7625	-2.2562	-2.1688	245.054	77.078	-31.858	-22.021	190.634	263.664	202.700	263.734	6.858	125.351	152.395	159.465	-79.690	90.849	118.920	211.835	0.00024113	0.00028132	0.00010526	1343.7	2.9415e-06	2.4704e-06	1340.7	364.09	4.926e-06	6.3019e-06	416.22	138.51	119.06	41.457	6.6719e-06	51.786	0.00052316	0.00060351	0.00016898	1360.6	5.7131e-06	6.6976e-06	1360.9	369.95	5.752e-06	6.7761e-06	425.39	141.51	122.08	42.941	6.4112e-06	52.636	268.285	164.532	-80.129	-75.232	153.615	213.095	-75.230	-70.629	248.114	-86.744	-71.106	-66.742	-65.444	-61.968	26.288	-62.745	-8191	255	
2823.371	1	1	0	0	0.17132	0.12495	0.16523	0.059778	0.16193	0.11664	0.31437	0.077444	0.083528	0.10057	0.17919	0.061854	0.064773	0.29131	0.07602	0.22707	-2.1979	-1.8854	-2.3417	-2.5563	-1.8062	-2.6771	-2.3063	-2.3542	-2.6896	-1.9667	-2.3896	-2.5604	-1.9104	-2.5812	-2.1667	-2.2042	260.077	209.609	-24.691	146.699	154.390	257.492	225.651	7.933	232.265	-32.116	217.575	-50.109	259.337	191.410	55.976	270.132	0.00037448	0.00043271	0.00014613	1349.2	6.9734e-06	3.2921e-06	1342.5	363.11	9.0576e-07	2.2425e-06	415.95	138.4	120.04	41.357	4.3549e-06	51.529	0.00054053	0.00062916	0.00015876	1357.8	5.9557e-06	6.8363e-06	1358.9	368.58	6.1046e-06	6.8747e-06	423.08	141.09	124.12	42.896	6.1545e-06	52.48	-68.312	-39.418	-13.557	-75.335	230.734	202.050	-75.247	-70.460	-86.391	20.027	-71.146	-66.771	-65.648	-61.806	62.903	-62.556	-8191	255	
2823.490	1	1	0	0	0.055639	0.2982	0.1249	0.17547	0.05215	0.25945	0.27444	0.2697	0.14579	0.26253	0.085135	0.099691	0.15854	0.27484	0.21455	0.26141	-2.1729	-2.1271	-2.3167	-2.825	-1.9188	-2.5229	-2.5229	-2.2292	-2.5812	-2.1667	-2.3625	-2.6708	-1.9146	-2.5125	-2.4375	-2.0271	257.373	57.637	154.065	212.339	12.005	159.428	264.398	202.239	-1.634	156.269	-66.132	206.210	125.350	233.679	122.021	213.215	0.00019935	0.00098601	0.00013891	1343.4	4.7948e-06	9.2758e-06	1337.4	363.52	3.0665e-06	3.488e-06	417.66	138.84	119.42	41.593	3.8713e-06	51.523	0.00057642	0.00062275	0.00015357	1356.1	6.4443e-06	6.7264e-06	1357.1	368.75	6.5499e-06	6.6754e-06	422.52	141.35	126.1	42.897	6.0208e-06	52.609	-70.117	-9.466	21.732	-75.332	220.855	77.453	-75.210	-70.626	207.690	-45.426	-71.418	-66.609	-65.675	-61.943	95.030	-62.634	-8191	255	
2823.562	1	1	0	0	0.30482	0.13448	0.22742	0.23311	0.10443	0.17925	0.16404	0.08193	0.15271	0.38948	0.19873	0.05557	0.1522	0.12365	0.0064535	0.10392	-2.1688	-2.0771	-2.2271	-2.7521	-1.9438	-2.4562	-2.6396	-1.9771	-2.5938	-2.0833	-2.2542	-2.6396	-1.8521	-2.5333	-2.5604	-2.0062	174.260	222.155	122.628	267.061	172.114	9.334	232.289	131.569	-74.902	268.005	245.545	245.387	61.351	212.082	9.498	134.654	0.00034468	0.00069803	0.00012024	1346.2	5.8006e-06	7.4586e-06	1343.2	364.88	5.7026e-06	8.8576e-06	416.86	138.5	120.67	41.463	1.3291e-06	51.523	0.00060988	0.00059618	0.00015103	1359.3	6.8024e-06	6.3981e-06	1358.1	370.41	6.8768e-06	6.3764e-06	422.47	141.93	127.05	42.698	5.9148e-06	52.895	262.122	13.187	37.971	-75.271	163.874	39.124	-75.368	-70.689	-7.894	63.754	-71.381	-66.851	-65.370	-62.225	-10.930	-62.829	-8191	255	
2823.682	1	1	0	0	0.10325	0.023826	0.17162	0.083401	0.23285	0.15695	0.2197	0.24658	0.045254	0.21433	0.082333	0.14478	0.21896	0.17351	0.25313	0.18757	-2.3083	-2.2896	-2.0271	-2.7583	-2.0208	-2.4062	-2.75	-1.9771	-2.5563	-2.1375	-2.0083	-2.4313	-2.0417	-2.1979	-2.6333	-1.8813	176.124	1.713	-73.123	-77.365	264.427	209.862	224.362	181.565	148.833	96.249	-26.041	-74.198	-77.286	174.867	247.618	156.030	0.00014011	0.00046324	0.00027907	1343.9	6.1045e-06	4.3151e-06	1340.9	363.98	3.3491e-06	3.8675e-06	416.87	139.26	120.17	41.487	2.07e-06	51.713	0.00062656	0.00057012	0.00014658	1363.9	6.9024e-06	6.0914e-06	1357.4	372.3	6.8156e-06	6.1651e-06	421.79	143.08	126.65	42.654	5.7819e-06	53.372	-86.851	-31.787	-48.715	-75.229	151.414	21.841	-75.384	-70.672	81.723	27.889	-71.388	-66.807	-65.922	-61.962	268.858	-62.565	-8191	255	
2823.779	1	1	0	0	0.11461	0.07034	0.1568	0.29064	0.14289	0.32236	0.21092	0.026398	0.13187	0.21978	0.15358	0.095809	0.058522	0.11654	0.15884	0.11995	-2.1229	-2.1854	-1.9312	-3.0229	-2.0521	-2.0812	-2.7	-2.1521	-2.3896	-2.4771	-2.1	-2.9938	-2.1417	-2.2896	-2.6937	-1.9083	-81.690	64.861	-30.172	199.026	-8.315	85.672	218.463	195.815	157.796	48.467	84.774	115.469	77.582	77.629	202.804	76.574	0.00020266	0.00024148	0.00019193	1347.8	5.2594e-06	4.8697e-06	1340.5	364.78	7.878e-06	4.5002e-06	417.31	139.08	120.53	41.682	6.0224e-07	51.746	0.00061035	0.00055584	0.00014586	1372.4	6.7294e-06	5.9563e-06	1357.9	374.54	6.5628e-06	6.0312e-06	422.45	144.02	125.61	42.606	5.904e-06	53.669	-77.431	-65.400	18.640	-75.603	149.659	91.975	-75.348	-70.633	12.377	24.217	-71.350	-66.735	-65.860	-62.097	172.323	-62.502	-8191	255	
2823.875	1	1	0	0	0.083208	0.18438	0.063411	0.35049	0.18695	0.16791	0.14082	0.21817	0.11359	0.27173	0.18285	0.19841	0.029069	0.11652	0.36307	0.15911	-2.1	-2.5333	-1.9667	-2.8292	-2.2083	-2.1458	-2.7562	-2.0583	-2.55	-2.6146	-2.0583	-2.8729	-2.1333	-2.1229	-2.7146	-2.1125	170.776	96.386	126.781	249.842	27.040	31.680	192.502	-84.416	-66.618	2.107	178.482	230.079	179.653	264.181	255.945	-37.185	0.0001721	0.00065815	0.00022995	1349.6	7.2399e-06	3.618e-06	1342.7	364.03	6.8677e-06	4.0859e-06	417.48	138.78	120.56	41.677	2.7654e-06	51.466	0.0005815	0.00054703	0.00015008	1374.7	6.4085e-06	5.8184e-06	1360.7	375.25	6.2479e-06	5.8806e-06	424.43	144.08	124.59	42.505	6.2017e-06	53.676	-23.019	-8.478	1.507	-75.401	76.270	-52.675	-75.430	-70.570	3.624	24.715	-71.681	-66.889	-65.285	-62.119	104.917	-62.655	-8191	255	
2823.971	1	1	0	0	0.0927	0.031061	0.34578	0.27834	0.18033	0.45044	0.35364	0.058205	0.10725	0.20066	0.30182	0.22954	0.049004	0.10301	0.32802	0.095445	-2.0062	-2.5021	-1.8146	-2.825	-2.2458	-2.0625	-2.8458	-2.3125	-2.3021	-2.4646	-1.9646	-2.5083	-2.3792	-2.1042	-2.8229	-2.2562	-53.017	168.039	188.040	228.225	66.725	94.857	251.047	211.035	114.695	251.754	215.396	216.538	164.000	236.720	132.454	13.374	0.00026317	0.0002013	0.00013047	1351.3	4.7969e-06	5.9037e-06	1343.8	365.75	9.0843e-06	1.4883e-06	416.43	139.23	121.21	41.503	3.959e-06	51.768	0.00055987	0.00053135	0.00016085	1374.9	6.1151e-06	5.707e-06	1366.8	374.83	6.0416e-06	5.7888e-06	426.9	143.86	123.8	42.426	6.7037e-06	53.464	-72.000	-56.390	120.629	-75.445	62.831	62.092	-75.592	-70.726	52.490	39.279	-71.440	-66.675	-65.795	-62.123	222.050	-62.698	-8191	255	
2824.067	1	1	0	0	0.41105	0.13234	0.056167	0.44361	0.051562	0.16877	0.091255	0.18508	0.090287	0.21825	0.09293	0.19423	0.29009	0.33805	0.12763	0.21849	-1.9312	-2.4833	-1.7854	-2.7188	-2.3417	-1.9125	-2.9188	-2.0292	-2.3042	-2.5146	-2.1604	-2.5208	-2.5417	-1.9333	-2.5667	-2.2146	41.183	-42.069	61.649	213.493	73.351	63.377	215.654	200.179	19.603	20.207	8.312	-25.886	-51.309	237.736	-40.996	259.309	0.00029743	0.00054493	0.00013846	1355.4	9.2569e-07	7.339e-06	1346.3	365.44	4.7113e-06	3.1798e-06	419.57	139.34	120.25	41.663	9.125e-06	51.521	0.00054424	0.0005306	0.00017155	1375.7	6.0047e-06	5.788e-06	1371	374.48	5.902e-06	5.8934e-06	430.33	143.33	123.02	42.616	6.9113e-06	53.237	263.558	40.544	104.490	-75.526	-15.758	97.564	-75.467	-70.777	71.428	46.190	-71.323	-66.861	-65.825	-62.116	105.142	-63.030	-8191	255	
2824.163	1	1	0	0	0.28315	0.17171	0.32148	0.17449	0.34663	0.070677	0.30453	0.039549	0.071513	0.23643	0.26673	0.17232	0.067616	0.10913	0.12698	0.096204	-1.6417	-2.7375	-1.9854	-2.7146	-2.5312	-1.8875	-2.7583	-2.3271	-2.0312	-2.5854	-1.9375	-2.2729	-2.4917	-1.9583	-2.6646	-2.3042	79.313	19.155	86.162	-39.588	191.078	170.991	225.140	194.543	242.189	21.222	230.979	-63.090	73.238	-45.751	22.084	166.149	0.0002061	0.00033082	8.9351e-05	1349.7	3.7962e-06	5.2756e-06	1347.7	365.63	9.789e-06	4.0985e-06	417.83	138.67	121.08	41.612	4.7936e-06	51.735	0.00053009	0.0005522	0.00017651	1366.9	5.8726e-06	6.1046e-06	1371	372.27	5.7693e-06	6.2191e-06	429.31	142.43	122.76	42.799	6.8447e-06	53.077	-58.141	122.269	12.910	-75.522	125.761	149.133	-75.273	-70.763	46.314	158.982	-71.138	-66.834	-66.286	-62.147	128.077	-62.562	-8191	255	
2824.259	1	1	0	0	0.034581	0.18427	0.076979	0.34128	0.042561	0.13087	0.32027	0.25987	0.12484	0.1776	0.027001	0.2522	0.1181	0.32779	0.10064	0.38537	-1.675	-2.5396	-1.8167	-2.3042	-2.4979	-1.8208	-2.8333	-2.6042	-1.8729	-2.4479	-2.1813	-2.1333	-2.5333	-2.1542	-2.4771	-2.2979	98.090	-19.896	-36.124	234.229	205.313	50.902	216.502	220.989	173.977	233.031	235.711	234.781	181.609	218.963	-0.034	216.211	0.00029493	0.00027358	0.00010083	1344.1	1.9347e-06	4.8076e-06	1345.7	365.52	2.6531e-06	2.0608e-06	418.18	139.27	120.51	41.465	5.5798e-06	51.851	0.00051908	0.00059037	0.00017317	1362.2	5.7586e-06	6.553e-06	1368.5	372.19	5.695e-06	6.7069e-06	428.6	142.32	122.78	43.127	6.56e-06	52.998	-77.467	99.378	7.666	-75.615	121.005	266.746	-75.408	-70.764	-51.739	235.596	-71.458	-67.012	-65.893	-62.148	44.452	-62.658	-8191	255	
2824.355	1	1	0	0	0.2101	0.2506	0.14949	0.23589	0.10332	0.25023	0.09825	0.236	0.16845	0.12461	0.10512	0.23501	0.12085	0.16749	0.12957	0.16216	-1.7167	-2.6479	-1.9792	-2.1458	-2.6333	-1.825	-2.5542	-2.6292	-1.8458	-2.5333	-2.1771	-2.1208	-2.475	-1.9333	-2.1854	-2.6167	219.023	-15.809	-64.829	227.236	216.258	150.980	230.890	215.497	148.747	96.503	212.174	181.454	213.818	216.707	75.300	-69.088	0.00027454	0.00015834	9.814e-05	1348.9	2.6807e-06	3.4548e-06	1344.3	366.18	4.7434e-06	2.8225e-06	417.59	139.23	119.68	41.605	4.5752e-06	51.885	0.00052638	0.00062221	0.000166	1363.9	5.9674e-06	6.9058e-06	1365	371.55	5.961e-06	6.9219e-06	426.54	141.82	123.78	43.197	6.2342e-06	52.911	271.390	129.706	-69.852	-75.568	202.919	187.505	-75.515	-70.458	159.390	107.413	-71.464	-67.168	-65.795	-62.104	85.560	-62.755	-8191	255	
2824.452	1	1	0	0	0.2072	0.081092	0.15836	0.2053	0.06585	0.17805	0.17627	0.38635	0.2798	0.048345	0.11433	0.15774	0.17569	0.069226	0.22032	0.3423	-1.5125	-2.5625	-2.1146	-2.1562	-2.7313	-1.9146	-2.3583	-2.6042	-1.975	-2.6854	-2.4	-2.1375	-2.7333	-2.0375	-2.3521	-2.5938	156.523	166.898	34.420	232.556	-25.767	83.637	-82.303	-49.695	214.637	18.156	101.927	166.246	-43.470	192.563	77.957	226.143	0.00026959	0.000554	0.00015116	1349.2	5.5594e-06	3.1762e-06	1344.1	363.78	4.0985e-06	4.0117e-06	416.85	138.81	120.21	41.619	5.7074e-06	51.86	0.00055669	0.00062765	0.00015811	1362.7	6.294e-06	6.9216e-06	1363	371.02	6.3656e-06	6.8106e-06	424.42	141.52	125.5	43.079	6.0147e-06	52.762	-60.935	-9.634	-67.762	-75.435	209.800	94.096	-75.592	-70.617	56.591	59.729	-71.409	-66.667	-65.496	-61.969	54.507	-62.708	-8191	255	
2824.570	1	1	0	0	0.14269	0.24682	0.10727	0.10483	0.32105	0.36666	0.21341	0.046216	0.086811	0.070615	0.24288	0.14847	0.16229	0.37004	0.052164	0.3461	-1.4542	-2.4125	-2.2917	-2.0062	-2.6333	-2.025	-2.4146	-2.8125	-1.8333	-2.375	-2.5167	-2.0042	-2.8542	-2.2062	-2.2292	-2.6312	71.726	231.643	187.257	-59.860	3.466	-86.751	-27.871	263.071	33.747	252.237	177.313	3.446	228.578	-52.734	151.620	245.793	0.00044051	0.00048374	0.00013197	1345	3.2888e-06	7.4532e-06	1344.7	366.55	3.0352e-06	9.7315e-06	418.76	138.64	120.16	41.552	8.1889e-06	51.825	0.00060062	0.00061158	0.00015413	1359.1	6.6975e-06	6.61e-06	1359.7	371.39	6.7954e-06	6.5221e-06	423.92	141.81	126.56	42.818	5.8849e-06	52.836	-82.201	13.706	-41.983	-75.476	31.930	78.730	-75.714	-70.583	244.068	29.938	-71.326	-67.043	-65.498	-61.797	49.215	-62.707	-8191	255	
2824.667	1	1	0	0	0.070277	0.22956	0.051419	0.44908	0.10568	0.24789	0.13161	0.21821	0.11104	0.31532	0.11064	0.2143	0.15712	0.1805	0.15623	0.25345	-1.3937	-2.2417	-2.3	-2.0687	-2.5917	-2.2521	-2.1979	-2.675	-1.8021	-2.3292	-2.6771	-1.9625	-2.8708	-2.3167	-2.0521	-2.7938	131.942	134.921	71.918	255.763	201.303	80.690	225.075	176.326	35.185	128.469	142.231	239.654	150.881	-45.701	169.080	125.723	0.00028496	0.00031214	0.00010242	1347.5	6.4722e-06	1.0689e-05	1346.8	364.78	5.3471e-06	4.4626e-06	417.11	138.27	119.08	41.338	2.635e-06	51.705	0.00062455	0.00058388	0.00015062	1362	6.9242e-06	6.3123e-06	1358.1	371.41	6.8896e-06	6.1873e-06	422.57	142.38	126.76	42.588	5.7538e-06	53.206	-79.287	110.520	-3.828	-75.596	164.179	40.891	-75.617	-70.568	10.070	47.597	-71.215	-66.816	-65.939	-62.240	109.459	-62.567	-8191	255	
2824.763	1	1	0	0	0.32579	0.23088	0.065189	0.24673	0.16672	0.2257	0.28565	0.17559	0.083151	0.30126	0.10237	0.27073	0.057739	0.20147	0.17502	0.21028	-1.5208	-2.1063	-2.3875	-2.1708	-2.4917	-2.275	-2.0875	-2.7625	-1.9229	-2.3083	-2.6479	-1.9792	-2.4313	-2.275	-2.0312	-2.8396	117.510	15.853	63.051	213.599	221.864	126.365	222.885	-72.185	23.829	39.090	220.737	179.944	63.551	70.706	40.980	209.590	0.00030764	0.00067618	0.0001564	1347.8	3.5158e-06	7.1579e-06	1345.3	364.81	6.2211e-06	2.1861e-06	416.69	138.71	120.53	41.55	6.5232e-06	51.476	0.00062492	0.00055417	0.00014751	1366.9	6.8063e-06	6.0845e-06	1356.4	373.35	6.731e-06	5.9734e-06	422.13	143.41	126.07	42.636	5.7663e-06	53.431	-87.559	41.535	-67.367	-75.669	87.811	80.667	-75.492	-70.983	132.859	-41.147	-71.450	-66.940	-66.014	-61.790	220.954	-62.802	-8191	255	
2824.859	1	1	0	0	0.093949	0.037991	0.24878	0.3328	0.13026	0.15568	0.33107	0.26222	0.13001	0.13184	0.18734	0.16858	0.06311	0.25696	0.13408	0.093935	-1.6167	-1.9958	-2.6375	-2.0729	-2.3583	-2.3917	-2.0938	-2.6708	-2.0646	-2.1375	-2.775	-2.0021	-2.3187	-2.5125	-1.8625	-2.7604	184.461	243.400	230.436	228.272	-16.661	267.281	223.254	181.854	39.428	31.797	-17.669	-65.322	143.327	-17.884	140.926	-32.554	0.00013378	0.00058557	0.00016498	1343.9	5.5368e-06	4.9876e-06	1341.3	362.58	6.8123e-06	4.9801e-06	416.78	138.81	119.67	41.369	3.1955e-06	51.897	0.00059963	0.00054019	0.00014804	1370.7	6.4383e-06	5.9111e-06	1356	374.13	6.3994e-06	5.8374e-06	423.23	143.66	124.2	42.388	5.9639e-06	53.647	-80.719	15.746	4.402	-75.416	73.846	127.567	-75.549	-70.588	17.428	-6.201	-71.417	-66.793	-66.332	-61.841	-86.568	-63.028	-8191	255	
2824.955	1	1	0	0	0.30187	0.052789	0.16731	0.21159	0.099848	0.15346	0.32874	0.19072	0.49973	0.15693	0.1544	0.051828	0.33545	0.11169	0.26511	0.034514	-1.6271	-1.9979	-2.5646	-2.1625	-2.3021	-2.4688	-1.9771	-2.7625	-2.0729	-1.9146	-2.8958	-1.9771	-2.2125	-2.7167	-1.8896	-2.6354	227.915	165.685	-29.879	270.346	170.927	203.639	247.229	-86.405	184.234	165.790	129.596	114.894	-35.595	14.293	101.591	270.564	0.00028462	0.00044808	6.9469e-05	1341.1	4.8904e-06	5.6033e-06	1340.1	365.3	3.6049e-06	6.8456e-06	416.86	138.29	119.73	41.593	1.4662e-06	51.574	0.00057043	0.00052637	0.00015496	1370	6.1537e-06	5.7944e-06	1360.2	374.75	6.1508e-06	5.6697e-06	426	143.63	123.33	42.457	6.434e-06	53.477	-83.721	41.607	-56.348	-75.491	91.395	75.705	-75.471	-70.770	167.558	25.514	-71.571	-67.061	-65.867	-61.863	119.126	-62.773	-8191	255	
2825.051	1	1	0	0	0.12517	0.30509	0.1842	0.37402	0.29736	0.28239	0.096615	0.30034	0.0028396	0.087781	0.13463	0.23466	0.049973	0.064218	0.22011	0.11077	-1.8021	-1.7583	-2.6583	-2.2188	-2.1188	-2.4688	-2.0979	-2.5375	-2.3	-1.9792	-2.9271	-2.2042	-2.3187	-2.5958	-1.9083	-2.7042	-46.720	131.766	156.547	212.200	-31.227	-55.730	163.880	232.355	-11.371	18.014	222.081	264.249	97.644	199.295	187.731	158.142	0.00025432	8.4337e-05	4.5939e-05	1341.9	2.2046e-06	2.0245e-06	1344.2	365.91	1.0797e-05	2.123e-06	417.23	138.88	120.73	41.454	4.2078e-06	51.737	0.00055502	0.00052022	0.00016668	1369.9	5.9992e-06	5.7086e-06	1366.7	374.12	6.0636e-06	5.7156e-06	428.16	143.25	123.09	42.495	6.7947e-06	53.275	-51.893	196.098	101.406	-75.547	65.479	-77.525	-75.569	-70.773	57.338	188.288	-71.446	-67.090	-66.295	-61.868	7.676	-63.034	-8191	255	
2825.172	1	1	0	0	0.10442	0.17313	0.11319	0.56491	0.099145	0.2576	0.31553	0.20935	0.20752	0.133	0.12754	0.24543	0.14446	0.16464	0.19957	0.048173	-2.1146	-1.7437	-2.5271	-2.1958	-2.1792	-2.6396	-2.0896	-2.5875	-2.4292	-1.7	-2.6083	-2.3167	-2.1125	-2.6958	-1.8583	-2.2667	129.776	229.690	-77.765	248.116	82.581	217.128	204.940	186.741	53.242	15.646	18.867	237.148	159.848	-72.775	-15.164	235.154	0.00035363	0.00023188	0.00014399	1344.7	5.6408e-06	1.8173e-06	1342.3	364.91	4.1614e-06	7.0172e-06	418.3	139.08	119.97	41.485	2.5387e-06	51.681	0.00054252	0.00053347	0.00017388	1367.2	5.8591e-06	5.9716e-06	1369.3	372.68	5.84e-06	5.9934e-06	430.07	142.82	122.57	42.672	6.9344e-06	53.017	-82.227	94.070	-42.961	-75.551	-45.757	161.664	-75.526	-70.839	-11.815	231.772	-71.228	-66.889	-66.190	-61.747	53.123	-62.914	-8191	255	
2825.268	1	1	0	0	0.26148	0.26077	0.10502	0.12467	0.069626	0.271	0.16783	0.1646	0.32863	0.2038	0.11185	0.082917	0.24756	0.30974	0.23789	0.33734	-2.0104	-1.9354	-2.7333	-2.2417	-2.1	-2.6792	-2.0646	-2.4167	-2.4667	-1.9021	-2.5854	-2.2208	-1.9333	-2.675	-2.0938	-2.4146	-66.980	270.375	115.043	269.680	5.072	-1.431	145.183	180.201	117.680	226.691	269.628	222.106	-81.858	252.139	163.106	160.270	0.00032518	0.00040687	0.00012202	1343.6	3.3468e-06	7.8111e-06	1343.2	364.17	3.6295e-06	5.9375e-06	419.69	138.79	120.01	41.622	4.5611e-06	51.477	0.00052838	0.00056682	0.00017454	1363.3	5.7662e-06	6.369e-06	1369.5	371.85	5.7514e-06	6.4583e-06	429.07	142.25	122.09	43.039	6.7339e-06	52.9	-86.147	234.515	30.518	-75.451	106.532	152.172	-75.521	-70.787	83.464	70.043	-71.158	-66.839	-65.702	-62.012	52.656	-62.929	-8191	255	
2825.364	1	1	0	0	0.24231	0.21936	0.30785	0.11089	0.1494	0.11488	0.12611	0.26038	0.24309	0.23239	0.40102	0.25904	0.14945	0.18037	0.18052	0.27868	-2.1396	-1.7812	-2.4229	-2.5	-1.8542	-2.8417	-2.2792	-2.3104	-2.6542	-1.8667	-2.6333	-2.5375	-1.9708	-2.6729	-2.1542	-2.2583	66.187	180.891	122.206	198.292	-35.231	-3.473	-80.412	162.497	81.993	77.095	245.888	200.705	157.643	213.641	182.555	146.783	0.00023239	0.00049531	0.00022651	1347.5	3.5397e-06	3.1098e-06	1345.7	364.82	1.8933e-06	4.0106e-06	417.38	138.93	119.25	41.441	7.3965e-06	51.587	0.00052872	0.00060785	0.00016798	1363.7	5.7176e-06	6.7308e-06	1366.1	371.69	5.8132e-06	6.835e-06	426.38	141.88	122.87	43.103	6.3989e-06	52.751	-68.661	138.209	-7.619	-75.489	160.262	-55.303	-75.397	-70.897	3.436	173.906	-71.600	-67.132	-65.970	-62.149	25.801	-62.704	-8191	255	
2825.459	1	1	0	0	0.13271	0.064331	0.32245	0.19569	0.14032	0.074649	0.37848	0.34139	0.084303	0.34541	0.16821	0.27455	0.25151	0.27152	0.069432	0.3155	-2.2229	-1.875	-2.2604	-2.5042	-1.8813	-2.6271	-2.5104	-2.1396	-2.6021	-1.9667	-2.4396	-2.6729	-2.0021	-2.6875	-2.3208	-1.9917	156.802	226.579	-18.600	214.591	101.559	191.284	225.922	234.817	186.856	-2.398	253.984	131.769	209.596	223.466	242.994	199.533	0.00040512	0.00047705	0.00017147	1349.9	4.8688e-06	5.738e-06	1345.1	365.47	8.8577e-06	5.7003e-06	418.62	139.54	120.07	41.702	3.5867e-06	51.803	0.00054546	0.00062895	0.00015902	1363.2	6.0095e-06	6.8985e-06	1362.4	371.12	6.1652e-06	6.9118e-06	424.86	141.96	124.71	43.179	6.1922e-06	52.655	-74.185	149.236	-65.962	-75.553	236.381	12.725	-75.514	-70.770	157.240	39.814	-71.495	-66.815	-66.108	-62.136	8.636	-62.910	-8191	255	
#DATA ENDS
