BOXY.EXE: ISS Imagent and Oximeter Data Acquisition Program Version 0.80
Ascii Record File

#ACQ INFORMATION
2  Detector Channels 
16  External MUX Channels 
1  Auxiliary Channels 
5000  Waveform (CCF) Frequency (Hz)
1  Waveforms Skipped 
30  Waveforms Averaged 
1  Cycles Averaged 
16  Acquisitions per Waveform 
10.0806  Updata Rate (Hz) 

#FILE INFORMATION
TRUE -- External MUX Channel results are PARSED.
FALSE -- AC DC and Phase are NOT grouped.
TRUE -- Companion Program Settings File CREATED.
FALSE -- AC data not excluded
FALSE -- DC data not excluded
FALSE -- Phase data not excluded
FALSE -- Auxillary Chn. data not excluded
Tab delimiters

#CALIBRATION STATE
TRUE -- Waveform Calibration Values APPLIED.


#AUX CALIBRATION VALUES
Val Type	aux-1	

Term	1.0000e+00	
Factor	0.0000e+00	


#WF CALIBRATION VALUES
A = Detector Channel
Val Type	A-AC1	A-AC2	A-AC3	A-AC4	A-AC5	A-AC6	A-AC7	A-AC8	A-AC9	A-AC10	A-AC11	A-AC12	A-AC13	A-AC14	A-AC15	A-AC16	A-DC1	A-DC2	A-DC3	A-DC4	A-DC5	A-DC6	A-DC7	A-DC8	A-DC9	A-DC10	A-DC11	A-DC12	A-DC13	A-DC14	A-DC15	A-DC16	A-Ph1	A-Ph2	A-Ph3	A-Ph4	A-Ph5	A-Ph6	A-Ph7	A-Ph8	A-Ph9	A-Ph10	A-Ph11	A-Ph12	A-Ph13	A-Ph14	A-Ph15	A-Ph16	

Term	0.00000e+00	0.00000e+00	0.00000e+00	0.00000e+00	0.00000e+00	0.00000e+00	0.00000e+00	0.00000e+00	0.00000e+00	0.00000e+00	0.00000e+00	0.00000e+00	0.00000e+00	0.00000e+00	0.00000e+00	0.00000e+00	0.00000e+00	0.00000e+00	0.00000e+00	0.00000e+00	0.00000e+00	0.00000e+00	0.00000e+00	0.00000e+00	0.00000e+00	0.00000e+00	0.00000e+00	0.00000e+00	0.00000e+00	0.00000e+00	0.00000e+00	0.00000e+00	0.00000e+00	0.00000e+00	0.00000e+00	0.00000e+00	0.00000e+00	0.00000e+00	0.00000e+00	0.00000e+00	0.00000e+00	0.00000e+00	0.00000e+00	0.00000e+00	0.00000e+00	0.00000e+00	0.00000e+00	0.00000e+00	
Factor	1.00000e+00	1.00000e+00	1.00000e+00	1.00000e+00	1.00000e+00	1.00000e+00	1.00000e+00	1.00000e+00	1.00000e+00	1.00000e+00	1.00000e+00	1.00000e+00	1.00000e+00	1.00000e+00	1.00000e+00	1.00000e+00	1.00000e+00	1.00000e+00	1.00000e+00	1.00000e+00	1.00000e+00	1.00000e+00	1.00000e+00	1.00000e+00	1.00000e+00	1.00000e+00	1.00000e+00	1.00000e+00	1.00000e+00	1.00000e+00	1.00000e+00	1.00000e+00	X	X	X	X	X	X	X	X	X	X	X	X	X	X	X	X	

B = Detector Channel
Val Type	B-AC1	B-AC2	B-AC3	B-AC4	B-AC5	B-AC6	B-AC7	B-AC8	B-AC9	B-AC10	B-AC11	B-AC12	B-AC13	B-AC14	B-AC15	B-AC16	B-DC1	B-DC2	B-DC3	B-DC4	B-DC5	B-DC6	B-DC7	B-DC8	B-DC9	B-DC10	B-DC11	B-DC12	B-DC13	B-DC14	B-DC15	B-DC16	B-Ph1	B-Ph2	B-Ph3	B-Ph4	B-Ph5	B-Ph6	B-Ph7	B-Ph8	B-Ph9	B-Ph10	B-Ph11	B-Ph12	B-Ph13	B-Ph14	B-Ph15	B-Ph16	

Term	0.00000e+00	0.00000e+00	0.00000e+00	0.00000e+00	0.00000e+00	0.00000e+00	0.00000e+00	0.00000e+00	0.00000e+00	0.00000e+00	0.00000e+00	0.00000e+00	0.00000e+00	0.00000e+00	0.00000e+00	0.00000e+00	0.00000e+00	0.00000e+00	0.00000e+00	0.00000e+00	0.00000e+00	0.00000e+00	0.00000e+00	0.00000e+00	0.00000e+00	0.00000e+00	0.00000e+00	0.00000e+00	0.00000e+00	0.00000e+00	0.00000e+00	0.00000e+00	1.28517e+01	-1.29853e+02	-1.21677e+02	-1.83139e+02	-6.87604e+01	-6.58281e+01	-1.58786e+02	-1.62015e+02	-3.78925e+01	-6.62887e+01	-1.74618e+02	-1.69957e+02	-1.81837e+02	-1.77561e+02	-6.52837e+01	-1.50666e+02	
Factor	4.19535e-05	1.47765e-04	4.14717e-05	1.57738e-01	1.79528e-06	1.54020e-06	1.56161e-01	5.11438e-02	2.10370e-06	1.42995e-06	8.44469e-02	2.60920e-02	3.29983e-02	8.55630e-03	1.62642e-06	1.22491e-02	7.88855e-06	9.80151e-06	2.73652e-06	8.23762e-02	1.02511e-07	1.08110e-07	7.62380e-02	2.67946e-02	1.02899e-07	1.07992e-07	4.29504e-02	1.32841e-02	1.72875e-02	4.52344e-03	1.05122e-07	6.26707e-03	X	X	X	X	X	X	X	X	X	X	X	X	X	X	X	X	



#DISTANCE SETTINGS
A = Detector Channel
A-1	A-2	A-3	A-4	A-5	A-6	A-7	A-8	A-9	A-10	A-11	A-12	A-13	A-14	A-15	A-16	

2.5000e+00	3.0000e+00	2.5000e+00	3.0000e+00	2.0000e+00	3.0000e+00	1.5000e+00	3.0000e+00	3.0000e+00	3.0000e+00	3.0000e+00	3.0000e+00	3.0000e+00	3.0000e+00	1.5000e+00	3.0000e+00	

B = Detector Channel
B-1	B-2	B-3	B-4	B-5	B-6	B-7	B-8	B-9	B-10	B-11	B-12	B-13	B-14	B-15	B-16	

1.0000e+01	1.0000e+01	1.0000e+01	1.4400e+00	1.0000e+01	1.0000e+01	1.5100e+00	1.9400e+00	1.0000e+01	1.0000e+01	1.9900e+00	2.4900e+00	2.4100e+00	2.9000e+00	1.0000e+01	2.9800e+00	




#DATA BEGINS
time	group	step	mark	flag	A-AC1	A-AC2	A-AC3	A-AC4	A-AC5	A-AC6	A-AC7	A-AC8	A-AC9	A-AC10	A-AC11	A-AC12	A-AC13	A-AC14	A-AC15	A-AC16	A-DC1	A-DC2	A-DC3	A-DC4	A-DC5	A-DC6	A-DC7	A-DC8	A-DC9	A-DC10	A-DC11	A-DC12	A-DC13	A-DC14	A-DC15	A-DC16	A-Ph1	A-Ph2	A-Ph3	A-Ph4	A-Ph5	A-Ph6	A-Ph7	A-Ph8	A-Ph9	A-Ph10	A-Ph11	A-Ph12	A-Ph13	A-Ph14	A-Ph15	A-Ph16	B-AC1	B-AC2	B-AC3	B-AC4	B-AC5	B-AC6	B-AC7	B-AC8	B-AC9	B-AC10	B-AC11	B-AC12	B-AC13	B-AC14	B-AC15	B-AC16	B-DC1	B-DC2	B-DC3	B-DC4	B-DC5	B-DC6	B-DC7	B-DC8	B-DC9	B-DC10	B-DC11	B-DC12	B-DC13	B-DC14	B-DC15	B-DC16	B-Ph1	B-Ph2	B-Ph3	B-Ph4	B-Ph5	B-Ph6	B-Ph7	B-Ph8	B-Ph9	B-Ph10	B-Ph11	B-Ph12	B-Ph13	B-Ph14	B-Ph15	B-Ph16	aux-1	digaux	

13442.506	1	1	0	256	0.32	0.19779	0.21058	0.46468	0.15976	0.042769	0.21658	0.40226	0.20812	0.15509	0.12356	0.2491	0.11294	0.28724	0.23189	0.17128	-1.825	-2.8729	-2.3625	-2.4604	-2.9542	-2.2583	-2.7438	-2.9896	-2.225	-2.9146	-2.6813	-2.3	-3.0062	-2.2667	-2.5167	-2.8812	125.193	397.382	105.693	449.584	255.579	201.262	344.536	403.281	138.574	265.173	400.487	425.479	220.723	437.517	146.636	371.416	0.0014435	0.00063148	0.00020358	1456.6	8.5888e-06	6.0371e-06	1355.1	515.84	1.1116e-05	8.7661e-06	507.45	170.41	162.26	55.569	1.3754e-05	57.656	0.0011598	0.0012482	0.00034228	1337.1	1.2471e-05	1.3439e-05	1235.3	472.16	1.2806e-05	1.3395e-05	465.09	156.41	148.49	51.468	1.3347e-05	53.482	320.589	197.702	287.180	115.291	251.533	272.564	114.978	120.751	297.995	278.859	118.975	123.264	125.747	130.504	232.630	126.737	-8191	255	
13442.602	1	1	0	0	0.057389	0.046504	0.27086	0.37686	0.10716	0.066508	0.26156	0.21056	0.20283	0.21346	0.19189	0.18671	0.20338	0.3623	0.16494	0.2137	-1.7854	-2.7125	-2.6021	-2.4417	-2.9104	-2.3208	-2.8271	-3.1271	-2.3396	-2.8771	-2.9917	-2.5146	-2.9167	-2.5521	-2.5812	-3.1208	445.242	229.966	325.179	107.857	384.639	293.734	382.803	420.484	123.792	326.948	347.260	406.842	410.011	406.829	114.164	134.890	0.0014073	0.00042506	0.00016777	1464.7	6.6745e-06	5.6597e-06	1353.6	514.53	1.024e-05	8.0177e-06	503.49	169.8	161.38	55.236	1.2147e-05	57.911	0.001134	0.0012107	0.00034426	1335.1	1.2764e-05	1.3318e-05	1235.3	470.52	1.2614e-05	1.3093e-05	463.92	155.8	147.64	51.14	1.2999e-05	53.433	317.126	175.639	185.192	115.646	269.028	219.976	114.617	120.259	263.147	232.610	118.452	123.180	125.285	129.894	283.939	126.155	-8191	255	
13442.698	1	1	0	0	0.032109	0.11114	0.22999	0.31296	0.14644	0.18093	0.26028	0.084254	0.059217	0.24689	0.31037	0.11207	0.2292	0.40986	0.10267	0.072384	-1.8188	-2.6604	-2.525	-2.3375	-2.8167	-2.3646	-2.6792	-3.1896	-2.1708	-2.6875	-2.8708	-2.2542	-3.0104	-2.6042	-2.2792	-2.8937	222.311	306.584	210.390	418.879	417.460	183.869	406.444	409.429	262.297	257.472	140.491	300.312	119.577	431.769	313.606	396.788	0.0013502	0.0008067	0.00026625	1451.8	1.0309e-05	3.8868e-06	1352.1	511.28	1.1391e-05	7.8893e-06	503.5	168.94	161.05	54.459	2.8704e-06	56.974	0.0011221	0.0011905	0.00033232	1333.7	1.2456e-05	1.2962e-05	1232.4	469.13	1.2452e-05	1.3126e-05	464.2	155.14	146.99	50.474	1.2823e-05	52.826	320.647	211.188	190.256	115.491	247.526	211.227	114.777	120.947	289.086	273.042	119.050	123.362	125.773	130.267	226.169	126.922	-8191	255	
13442.794	1	1	0	0	0.1495	0.065901	0.20314	0.30404	0.11172	0.23623	0.25526	0.31165	0.15131	0.15884	0.34405	0.19898	0.12554	0.1086	0.046361	0.14031	-1.5833	-2.7083	-2.6625	-2.2479	-2.9188	-2.6458	-2.475	-3.2	-2.3063	-2.5667	-2.7292	-2.3021	-2.7729	-2.7729	-2.2812	-3.0208	337.096	454.311	339.003	414.685	316.798	248.976	387.097	417.022	349.654	358.058	347.845	411.339	436.529	296.758	276.633	105.495	0.0012964	0.00075249	0.00032814	1459.8	1.1515e-05	6.0463e-06	1347.9	512.48	2.0602e-05	5.7407e-06	503.09	169.18	160.35	54.918	1.3964e-05	56.848	0.0011172	0.0012021	0.00032818	1334.5	1.2522e-05	1.318e-05	1230.9	467.46	1.2571e-05	1.3268e-05	461.79	154.55	146.78	50.762	1.2825e-05	52.896	320.384	155.465	197.606	115.492	263.992	218.469	114.796	120.821	274.673	208.610	118.892	123.274	125.464	129.716	248.949	127.332	-8191	255	
13442.890	1	1	0	0	0.20117	0.18906	0.051329	0.11845	0.098294	0.1047	0.044029	0.27763	0.13782	0.014587	0.30539	0.2802	0.18035	0.15363	0.27252	0.29015	-1.9958	-2.4354	-2.6771	-2.275	-2.6646	-2.7292	-2.4	-2.8625	-2.5771	-2.4917	-2.8604	-2.2771	-2.7542	-2.85	-2.2271	-2.9833	103.105	139.152	279.885	379.145	114.080	378.968	207.126	394.300	425.154	268.555	388.987	360.533	281.916	353.841	418.468	402.931	0.001332	0.00078021	6.7489e-05	1451.5	1.0986e-05	4.5471e-06	1351.3	510.92	1.2344e-05	3.1987e-06	501.29	170.19	160.6	55.12	9.4016e-06	57.525	0.0011105	0.0011797	0.00032525	1328.1	1.2413e-05	1.3197e-05	1229.1	468.78	1.2656e-05	1.3088e-05	462.09	155.84	147.52	51.211	1.2852e-05	53.368	316.168	207.347	240.708	115.207	246.273	241.523	114.486	120.670	313.159	327.294	118.466	123.084	125.432	130.082	295.940	126.416	-8191	255	
13443.011	1	1	0	0	0.14743	0.13384	0.11622	0.13843	0.14447	0.14513	0.20756	0.20699	0.29876	0.052307	0.20615	0.18645	0.11759	0.075072	0.15789	0.17759	-1.9937	-2.2292	-2.7146	-2.4521	-2.6167	-2.7042	-2.3667	-3.0604	-2.3021	-2.3	-3.0187	-2.3354	-2.6833	-2.9042	-2.0396	-2.9458	147.229	145.536	312.272	412.779	344.044	392.506	456.668	397.389	419.002	170.117	352.084	400.441	430.058	343.690	219.229	109.880	0.0014104	0.0014953	0.00011303	1452.9	1.19e-05	1.0056e-05	1343.7	511.77	1.1962e-05	6.8005e-06	502.77	170.57	162	55.355	1.1616e-05	58.07	0.0011098	0.0011573	0.00032958	1328.2	1.2539e-05	1.2828e-05	1227.4	468.22	1.2527e-05	1.3044e-05	463.34	156.12	148	51.338	1.2143e-05	53.652	314.659	187.079	192.513	115.667	248.335	236.934	115.220	121.108	271.661	258.148	118.915	123.244	125.550	130.434	246.847	126.410	-8191	255	
13443.105	1	1	0	0	0.14673	0.31835	0.11479	0.12907	0.17654	0.2116	0.25268	0.2237	0.17855	0.073714	0.24329	0.11734	0.14433	0.1392	0.22408	0.24835	-2.0458	-2.1521	-2.7458	-2.4813	-2.5021	-2.8958	-2.4	-2.9396	-2.5187	-2.1208	-3.0667	-2.5104	-2.5667	-3.0083	-2.125	-2.6104	166.429	210.366	395.078	425.670	221.729	125.310	432.816	407.408	363.650	180.973	123.905	393.279	407.485	400.789	450.832	402.315	0.0013606	0.00055365	0.00021427	1450.7	1.4819e-05	4.9123e-06	1352.3	512.16	1.5041e-05	7.1609e-06	504.14	171.72	161.01	54.876	4.614e-06	57.818	0.0010954	0.0011824	0.0003196	1329.1	1.2594e-05	1.2779e-05	1234.1	468.97	1.2535e-05	1.2637e-05	464.02	156.56	147.61	51.072	1.2843e-05	53.462	323.144	157.135	214.814	115.550	226.591	318.375	114.399	120.130	280.099	264.068	118.258	123.339	125.373	129.640	197.392	125.589	-8191	255	
13443.203	1	1	0	0	0.065442	0.054652	0.18564	0.20406	0.14035	0.16266	0.25287	0.23369	0.2025	0.14555	0.34466	0.37498	0.21414	0.36528	0.16581	0.14168	-2.0792	-2.0979	-2.8292	-2.4375	-2.5542	-2.8187	-2.2125	-2.6875	-2.7958	-1.9	-2.85	-2.4292	-2.4958	-2.9917	-2.0312	-2.6083	356.560	366.787	206.599	150.229	160.552	437.352	405.223	401.683	440.767	439.746	440.187	413.429	164.634	102.735	297.451	189.602	0.0013684	0.00072458	0.0001615	1457.4	1.1083e-05	4.0536e-06	1347.6	512.13	7.2108e-06	5.4243e-06	503.78	171.27	161.39	55.293	3.6694e-06	57.945	0.001118	0.0011868	0.0003299	1331.5	1.2795e-05	1.2647e-05	1233	468.54	1.2595e-05	1.2822e-05	461.93	156.36	148.15	51.274	1.2998e-05	53.561	313.139	168.190	179.830	114.962	228.022	227.997	114.081	119.633	246.577	249.686	118.071	122.273	124.870	129.336	254.209	126.181	-8191	255	
13443.299	1	1	0	0	0.11556	0.10104	0.13301	0.20722	0.15399	0.17898	0.35706	0.35521	0.17824	0.30608	0.19181	0.45059	0.14706	0.25973	0.11183	0.13219	-2.1854	-2.1667	-2.7562	-2.5021	-2.1937	-2.7083	-2.2167	-2.575	-2.6771	-1.9083	-2.7833	-2.55	-2.15	-3.0208	-2.1	-2.7292	338.117	253.399	357.714	387.934	433.128	114.226	371.442	388.661	266.643	152.179	435.395	109.725	406.009	372.308	114.282	134.464	0.0014704	0.00043551	0.00012987	1454.9	6.3153e-06	8.038e-06	1345.5	512.48	1.0611e-05	5.8952e-06	505.05	170.43	163.6	55.499	6.3798e-06	57.656	0.0011708	0.0011793	0.0003374	1329.3	1.2986e-05	1.2947e-05	1228.1	470	1.3125e-05	1.3339e-05	464.03	156.45	148.91	51.498	1.3186e-05	53.418	322.046	279.745	211.868	114.918	218.878	207.095	113.911	119.858	279.328	267.320	117.690	122.621	124.969	129.472	251.514	126.130	-8191	255	
13443.394	1	1	0	0	0.25552	0.13119	0.045301	0.35764	0.26421	0.1612	0.30463	0.2694	0.035641	0.18111	0.29656	0.15931	0.26887	0.24766	0.15995	0.27334	-2.3646	-2.0021	-2.575	-2.65	-1.9271	-2.7271	-2.4792	-2.5042	-2.7042	-2.0917	-2.6542	-2.5271	-2.1896	-2.8187	-2.3063	-2.3646	373.223	321.261	343.386	428.107	457.698	244.689	386.821	395.249	299.425	259.074	111.317	441.290	417.219	441.853	264.359	380.369	0.0014849	0.00050652	0.00019369	1451.7	1.3838e-05	1.0492e-05	1351.2	511.77	6.4024e-06	8.4448e-06	504.01	170.39	160.99	55.58	8.6568e-06	57.411	0.0011448	0.0012044	0.00033613	1329.3	1.2877e-05	1.3043e-05	1230.2	469.38	1.2657e-05	1.3155e-05	464.05	156.16	147.78	51.408	1.3354e-05	53.337	318.260	182.611	197.433	115.029	254.601	234.960	114.395	120.077	290.079	249.875	117.925	122.983	124.995	129.610	225.896	126.050	-8191	255	
13443.490	1	1	0	0	0.10718	0.079281	0.14897	0.21601	0.14017	0.26917	0.056778	0.13195	0.18579	0.046273	0.20392	0.22446	0.15086	0.26573	0.24262	0.13669	-2.2875	-2.0292	-2.4271	-2.7375	-2.0708	-2.9229	-2.4458	-2.4604	-2.9042	-2.2083	-2.7167	-2.7708	-2.3917	-2.8812	-2.4167	-2.3104	220.589	297.159	239.376	382.314	118.287	214.156	452.415	125.347	102.628	324.671	102.917	401.361	134.661	128.498	173.282	438.224	0.0013912	0.00082347	0.00023769	1453.6	4.6658e-06	1.0016e-05	1352.9	511.57	9.0986e-06	1.3037e-06	505.06	170.75	161.79	55.169	9.9559e-06	57.585	0.0011185	0.0012019	0.0003429	1331.2	1.2886e-05	1.3045e-05	1233.6	468.54	1.2787e-05	1.3516e-05	464.96	156.45	147.8	51.196	1.3407e-05	53.446	319.297	151.410	188.030	115.398	264.433	281.094	114.382	119.974	297.901	253.056	117.879	122.502	124.654	129.243	257.247	126.296	-8191	255	
13443.610	1	1	0	0	0.040676	0.18805	0.15555	0.31636	0.10806	0.053628	0.22846	0.25157	0.11377	0.13407	0.23721	0.26075	0.13927	0.18347	0.18142	0.24176	-2.4833	-2.1771	-2.3063	-2.8438	-2.1208	-2.7875	-2.7979	-2.3667	-2.8271	-2.2479	-2.55	-2.9042	-2.2979	-2.9167	-2.4313	-2.1875	251.444	169.979	212.869	131.848	397.164	136.574	385.038	375.558	433.068	400.249	453.651	425.833	334.398	225.713	223.448	452.185	0.0015157	0.00093171	7.7572e-05	1450.8	7.7203e-06	4.1324e-06	1351.4	511.18	2.0476e-05	8.5901e-06	504.19	169.86	161.94	55.209	1.1141e-05	57.425	0.0011591	0.0012365	0.00034504	1329.9	1.2466e-05	1.3395e-05	1232.8	468.85	1.2828e-05	1.3782e-05	463.34	156.34	148.01	51.254	1.3362e-05	53.276	316.510	198.175	197.545	115.317	206.556	239.339	114.403	120.314	262.254	240.397	118.372	122.890	125.815	129.986	253.906	126.292	-8191	255	
13443.707	1	1	0	0	0.19747	0.13926	0.14135	0.085606	0.21054	0.22801	0.11201	0.075189	0.21461	0.11117	0.24576	0.28136	0.31406	0.058805	0.11536	0.28481	-2.4792	-2.275	-2.4042	-2.8271	-2.0917	-2.45	-2.6937	-2.2104	-2.8021	-2.3083	-2.5583	-2.9104	-2.3312	-2.7	-2.5854	-2.2271	343.660	165.458	285.548	149.978	158.200	384.650	353.141	319.355	295.898	296.197	419.797	404.716	436.753	441.546	275.254	434.038	0.001401	0.00076066	0.00024936	1449.5	1.0595e-05	8.6792e-06	1346.2	514.55	7.0765e-06	1.0874e-05	505.37	170.23	161.82	55.351	8.3199e-06	57.418	0.0011664	0.0012634	0.00035053	1330.1	1.3134e-05	1.3795e-05	1228.9	470.51	1.3275e-05	1.3605e-05	463.92	156.41	148.39	51.438	1.3655e-05	53.319	319.112	198.755	180.422	115.714	254.225	261.267	114.283	120.063	284.036	253.562	118.077	122.439	124.859	129.326	249.306	125.842	-8191	255	
13443.803	1	1	0	0	0.19758	0.12185	0.18384	0.32621	0.15747	0.2805	0.16946	0.2566	0.10463	0.10894	0.28068	0.15727	0.16396	0.24362	0.13132	0.089232	-2.3833	-2.1896	-2.2667	-2.8854	-2.0854	-2.5542	-2.725	-2.3146	-2.6604	-2.3396	-2.2854	-2.9583	-2.1792	-2.5563	-2.7458	-2.2313	369.621	383.443	311.582	393.800	453.872	415.040	234.435	452.293	194.217	264.727	441.818	438.165	365.283	146.355	423.617	462.067	0.0013726	0.00041499	0.00019411	1452.8	1.0247e-05	9.9066e-06	1350	510.92	1.7149e-05	5.8217e-06	502.78	170.56	162.01	55.04	4.6183e-06	57.56	0.001161	0.0012424	0.00034578	1330.4	1.3353e-05	1.3926e-05	1231.3	468.97	1.3181e-05	1.3653e-05	462.46	156.22	148.03	51.094	1.3272e-05	53.222	325.902	171.017	190.734	115.389	234.250	235.672	114.556	120.340	291.892	270.447	118.272	122.886	125.166	129.782	275.211	126.282	-8191	255	
13443.874	1	1	0	0	0.15697	0.12185	0.092323	0.30258	0.10749	0.089113	0.20563	0.37998	0.24926	0.26587	0.29324	0.21814	0.30512	0.20086	0.14957	0.1651	-2.2521	-2.3479	-2.0062	-2.8729	-2.0375	-2.3917	-2.7875	-2.2229	-2.6146	-2.4854	-2.35	-2.9771	-2.2646	-2.4375	-2.6125	-2.2646	447.974	231.780	228.609	118.728	455.043	130.094	449.589	403.620	288.820	116.511	448.452	252.737	119.642	369.218	126.285	131.301	0.0014763	0.00075277	0.00015496	1449.1	1.2579e-05	8.9422e-06	1357.4	508.55	7.1471e-06	4.7118e-06	505.29	169.44	162.09	54.983	1.0031e-05	57.338	0.0011629	0.0012536	0.00034825	1330.1	1.3363e-05	1.3629e-05	1235.7	467.84	1.3496e-05	1.3784e-05	464.39	156.01	147.73	51.084	1.3522e-05	53.182	316.660	201.567	210.723	115.650	305.482	263.626	115.069	120.556	250.875	235.414	118.592	123.041	125.635	129.798	262.536	126.683	-8191	255	
13443.995	1	1	0	0	0.35984	0.21691	0.15389	0.27207	0.036493	0.15317	0.24749	0.19406	0.16987	0.092538	0.19626	0.092236	0.2178	0.204	0.051342	0.3453	-2.225	-2.4021	-2.0792	-2.9437	-2.1833	-2.2667	-2.8229	-2.0646	-2.5354	-2.5896	-2.1813	-2.7792	-2.375	-2.4333	-2.7833	-2.2354	340.137	444.311	356.893	337.675	420.430	105.496	440.227	393.481	142.458	373.634	421.814	336.019	112.031	148.931	272.376	422.115	0.0015841	0.00025692	0.00027184	1451.5	1.2936e-05	5.6644e-06	1346.5	511.13	4.9708e-06	4.7826e-06	503.69	170.48	162.12	55.063	8.7775e-06	57.114	0.0011831	0.0012649	0.00034747	1331.4	1.3494e-05	1.3834e-05	1230.4	469.41	1.3387e-05	1.4006e-05	462.68	155.86	148.31	51.009	1.3656e-05	52.951	320.322	205.877	197.909	115.940	255.594	234.677	115.111	120.819	281.327	268.112	118.867	123.788	126.054	130.403	246.707	127.164	-8191	255	
13444.091	1	1	0	0	0.12635	0.1599	0.13959	0.19828	0.21158	0.21768	0.11198	0.20625	0.10562	0.14783	0.042582	0.12627	0.12403	0.07289	0.13141	0.1755	-2.2833	-2.65	-2.15	-2.7917	-2.4208	-2.2188	-3.0187	-2.1937	-2.3833	-2.5917	-2.1458	-2.9042	-2.5083	-2.1688	-2.7812	-2.3167	273.440	368.495	265.523	448.218	394.064	177.773	430.295	127.109	199.109	264.439	388.481	432.270	455.789	360.142	270.844	410.181	0.0013108	0.00082589	0.00024402	1451.9	1.5187e-05	8.2237e-06	1344.7	510.69	4.7946e-06	7.3493e-06	503.75	169.89	161.25	54.821	7.593e-06	57.181	0.0011956	0.0012589	0.00034774	1331.4	1.3814e-05	1.4086e-05	1228.2	468.81	1.3788e-05	1.3881e-05	461.74	156.16	148.25	51.032	1.3635e-05	52.879	311.595	236.863	200.181	114.516	259.712	251.506	113.944	119.923	267.209	224.866	117.987	122.509	125.114	129.425	228.456	126.379	-8191	255	
13444.187	1	1	0	0	0.25867	0.20863	0.11193	0.24405	0.091369	0.084477	0.20371	0.39343	0.26851	0.22783	0.3267	0.36595	0.51736	0.26521	0.13053	0.2677	-1.9792	-2.6833	-2.0667	-2.7812	-2.4625	-2.1021	-2.9	-2.5375	-2.1583	-2.6042	-2.1667	-2.7292	-2.5083	-2.05	-2.7875	-2.4583	303.265	426.722	336.058	108.119	198.925	207.355	405.030	436.179	367.415	409.659	396.920	112.099	389.747	449.034	420.094	431.658	0.0013563	0.00096366	0.00011409	1446.7	1.8327e-05	6.9834e-06	1347.9	512.56	1.5242e-05	7.3199e-06	502.92	169.8	160.9	54.626	1.0304e-05	56.457	0.0012209	0.0012692	0.00035488	1328.1	1.3332e-05	1.3839e-05	1229.7	468.44	1.3846e-05	1.3973e-05	461.71	155.19	147.29	50.514	1.3745e-05	52.519	311.858	219.838	191.823	115.070	257.295	246.853	114.228	120.230	283.805	275.123	118.184	122.796	125.274	129.551	244.716	126.056	-8191	255	
13444.283	1	1	0	0	0.26189	0.16658	0.12329	0.24533	0.26109	0.18686	0.31722	0.21529	0.33839	0.14351	0.10243	0.29621	0.081622	0.35289	0.13013	0.24596	-1.8229	-2.6667	-1.9562	-2.5938	-2.5521	-1.9333	-2.8208	-2.35	-2.0417	-2.725	-2.3417	-2.5271	-2.7646	-2.0396	-2.6771	-2.5521	286.695	265.113	131.365	452.945	116.504	268.699	402.426	382.898	141.651	272.041	443.190	120.617	202.079	365.116	443.542	119.349	0.0014143	0.0012	0.00028402	1452.9	1.0303e-05	9.2865e-06	1348.6	511.68	8.2821e-06	4.774e-06	500.22	168.83	160.05	54.385	2.9948e-06	56.565	0.0011836	0.0012727	0.00035355	1329.9	1.3483e-05	1.3621e-05	1230.2	468.43	1.39e-05	1.3612e-05	460.95	154.86	146.66	50.425	1.3542e-05	52.534	321.005	187.574	183.806	115.313	202.347	249.941	114.265	120.325	262.100	263.768	118.626	122.882	125.608	129.583	245.439	126.175	-8191	255	
13444.402	1	1	0	0	0.18663	0.19932	0.36517	0.17178	0.15151	0.20605	0.073204	0.3295	0.10243	0.098109	0.12953	0.36356	0.11448	0.082091	0.3485	0.22933	-1.6521	-2.7771	-2.0792	-2.4875	-2.6271	-1.8083	-2.8354	-2.6604	-2.075	-2.6854	-2.5375	-2.3333	-2.7333	-2.2562	-2.6167	-2.5563	111.352	452.146	448.109	406.288	322.794	144.135	278.782	430.150	300.927	314.844	419.495	389.275	459.863	190.098	460.838	406.960	0.0012996	0.00026374	0.00010707	1446.7	9.2583e-06	5.3748e-06	1343	511.23	1.5597e-05	7.975e-06	505.63	170.14	161.24	55.194	9.4553e-06	57.553	0.0011763	0.0012311	0.0003495	1326.2	1.3212e-05	1.3869e-05	1229.1	467.99	1.3603e-05	1.3995e-05	462.06	155.47	148.08	50.979	1.3927e-05	53.134	312.390	213.287	202.029	115.198	233.662	278.616	115.043	120.551	267.481	252.732	118.632	123.097	125.528	130.104	257.081	126.708	-8191	255	
13444.474	1	1	0	0	0.28713	0.071252	0.18039	0.22471	0.25998	0.18369	0.38718	0.23068	0.13107	0.15173	0.22363	0.13725	0.2649	0.21145	0.017809	0.21481	-1.7229	-2.7354	-2.2104	-2.5208	-2.5062	-2.0208	-2.7292	-2.7458	-2.0771	-2.6583	-2.2625	-2.3458	-2.6896	-2.175	-2.575	-2.6458	404.341	295.895	190.787	150.397	246.849	247.277	380.867	363.906	387.569	360.535	441.771	391.382	397.538	351.212	285.773	329.243	0.0015054	0.00072087	0.00024283	1448.8	9.3723e-06	8.3134e-06	1343.7	513.09	7.3241e-06	7.5e-06	506.38	170.46	160.77	55.279	6.649e-06	57.444	0.0012196	0.0012767	0.00036101	1329	1.372e-05	1.4211e-05	1228.8	469.98	1.3925e-05	1.3894e-05	463.79	156.42	148.31	51.227	1.3996e-05	53.24	318.269	214.214	185.993	115.567	261.542	255.642	114.495	120.424	302.418	233.853	118.444	122.813	125.321	129.816	255.947	126.628	-8191	255	
13444.572	1	1	0	0	0.30005	0.15114	0.064876	0.32838	0.21942	0.24678	0.16989	0.17059	0.14107	0.097187	0.22972	0.14742	0.03914	0.062406	0.077512	0.16404	-1.4042	-2.6771	-2.2875	-2.5125	-2.7833	-2.0438	-2.5938	-2.7625	-2.0771	-2.7667	-2.6	-2.3646	-2.8708	-2.3729	-2.5729	-2.7292	289.233	200.987	444.689	414.712	161.155	401.862	404.625	400.536	343.140	417.227	409.061	431.195	353.505	337.863	107.471	406.451	0.0014365	0.00086069	0.00032734	1447.8	4.7643e-06	7.9926e-06	1349.2	516.18	9.2708e-06	1.0175e-05	502.26	170.21	161.07	54.774	4.0143e-06	56.966	0.0011932	0.0012783	0.00035647	1325.4	1.3553e-05	1.4215e-05	1230.4	471.64	1.3765e-05	1.4133e-05	462.86	155.92	147.74	50.88	1.3792e-05	53.054	322.219	259.323	180.850	115.448	322.015	223.371	114.369	120.199	310.440	262.313	118.118	122.447	125.325	129.553	239.135	126.474	-8191	255	
13444.691	1	1	0	0	0.43136	0.15881	0.068191	0.21537	0.28485	0.31998	0.24905	0.22582	0.26195	0.064755	0.16025	0.070722	0.046268	0.44917	0.16101	0.17319	-1.7042	-2.5417	-2.3042	-2.275	-2.7333	-2.1562	-2.525	-2.9229	-2.225	-2.7042	-2.5583	-2.2313	-2.7687	-2.4854	-2.1333	-2.7792	156.399	312.059	246.478	411.487	414.961	201.877	393.726	433.281	150.012	425.988	399.121	136.531	218.474	453.045	144.718	193.778	0.0013429	0.00080837	0.00026793	1447.6	1.2536e-05	5.7332e-06	1352.6	512.34	1.5991e-05	8.3653e-06	502.72	170.36	162.04	54.797	5.9629e-06	57.216	0.0011888	0.0012867	0.00035799	1326	1.3108e-05	1.4406e-05	1233.2	469.32	1.3627e-05	1.418e-05	463.84	155.91	147.8	50.806	1.4016e-05	53.091	324.100	139.923	214.749	115.518	298.532	235.158	114.728	120.522	281.252	228.686	118.250	122.889	125.418	129.935	237.229	126.744	-8191	255	
13444.787	1	1	0	0	0.10154	0.11499	0.06707	0.22255	0.096814	0.17673	0.25238	0.32992	0.17429	0.23609	0.0093168	0.1968	0.26503	0.16285	0.15457	0.29094	-1.6042	-2.4333	-2.4208	-2.1125	-2.5854	-2.3563	-2.5187	-2.8396	-2	-2.4229	-2.7812	-2.1146	-2.8125	-2.4229	-2.3292	-2.8	344.584	343.456	152.297	461.607	239.813	144.562	417.486	392.016	108.534	400.061	202.315	395.442	439.029	158.184	434.364	384.141	0.0014026	0.00087016	9.8808e-05	1460.2	9.0803e-06	5.2635e-06	1361.1	513.55	4.0639e-06	6.6521e-06	505.12	170.06	160.34	54.912	9.1236e-06	57.46	0.0011733	0.0012813	0.00035787	1328.6	1.3255e-05	1.4011e-05	1232.5	468.44	1.3388e-05	1.4042e-05	463.44	155.8	147.33	50.967	1.4034e-05	53.133	318.415	210.416	187.538	115.469	236.314	245.830	114.834	120.969	316.168	287.313	118.956	123.029	125.307	129.819	228.484	126.690	-8191	255	
13444.883	1	1	0	0	0.11225	0.13258	0.12983	0.17466	0.194	0.10653	0.30832	0.29315	0.086894	0.16279	0.23509	0.21493	0.1561	0.45677	0.098033	0.051847	-1.6104	-2.4479	-2.6437	-2.4188	-2.5875	-2.3937	-2.2729	-2.7812	-2.3292	-2.2604	-2.7583	-2.2146	-2.6625	-2.5458	-1.9875	-2.825	171.971	436.824	137.903	139.352	250.161	145.449	437.482	430.244	292.452	405.046	396.360	409.654	349.884	423.688	351.665	232.596	0.0013842	0.00047654	0.00017881	1442.7	4.2865e-06	8.5669e-06	1346.1	512.52	1.1615e-05	5.9012e-06	505.09	171.18	161.41	55.032	9.7419e-06	57.179	0.0012202	0.0012746	0.00035788	1323.9	1.3488e-05	1.3961e-05	1228.1	469.83	1.3831e-05	1.4418e-05	464.14	156.33	148.28	51.198	1.3717e-05	52.996	317.106	200.003	189.927	115.611	279.655	259.165	114.725	120.841	272.487	258.771	118.717	123.263	124.900	129.633	259.131	126.764	-8191	255	
13445.004	1	1	0	0	0.24838	0.11733	0.1343	0.1279	0.19861	0.12374	0.037404	0.30526	0.16012	0.027209	0.19682	0.11316	0.060779	0.27702	0.0094614	0.1359	-1.7729	-2.3375	-2.6708	-2.1562	-2.7292	-2.5812	-2.3792	-2.9104	-2.4	-2.3979	-2.8063	-2.275	-2.6479	-2.6771	-1.95	-2.8396	364.062	340.748	453.647	410.762	458.194	311.590	116.729	377.900	436.680	379.194	140.878	433.583	115.273	133.951	336.568	360.683	0.0015384	0.0010234	0.00011422	1447.7	7.4641e-06	1.8356e-06	1351.1	509.6	8.433e-06	8.8928e-06	503.21	168.98	160.55	54.595	7.8057e-06	57.001	0.0012503	0.0013104	0.00035236	1326.4	1.3863e-05	1.3762e-05	1232.7	467.36	1.3702e-05	1.4049e-05	462.63	154.94	147.22	50.677	1.3489e-05	52.92	321.046	199.553	210.174	115.288	214.986	316.352	114.687	120.695	279.175	247.472	118.345	122.673	125.546	130.348	245.413	127.060	-8191	255	
13445.075	1	1	0	0	0.17245	0.18751	0.074587	0.46002	0.094083	0.089433	0.24195	0.16058	0.22781	0.078965	0.17535	0.13659	0.31873	0.14517	0.31287	0.42978	-1.875	-2.1521	-2.7375	-2.15	-2.3854	-2.5896	-2.1458	-2.9313	-2.3333	-2.1042	-2.8125	-2.2208	-2.4437	-2.7917	-2.0792	-2.7812	380.727	205.625	240.672	412.759	265.450	447.443	143.822	395.501	356.867	397.453	376.948	151.723	117.376	294.785	404.460	446.529	0.0012807	0.00070996	0.00023277	1435.2	9.896e-06	5.8295e-06	1354.9	510.05	1.23e-05	7.2755e-06	503.42	169.89	160.65	54.197	7.7864e-06	57.368	0.0012035	0.001279	0.00035416	1321.6	1.3531e-05	1.3813e-05	1231.3	466.7	1.3557e-05	1.3985e-05	462.6	155.21	147.08	50.481	1.3649e-05	52.851	319.775	204.256	201.238	115.589	210.302	270.578	114.485	120.859	351.417	289.530	118.905	123.296	125.923	130.319	221.711	125.990	-8191	255	
13445.172	1	1	0	0	0.054781	0.091944	0.10026	0.52861	0.18279	0.11676	0.23485	0.21928	0.052301	0.16191	0.10687	0.064703	0.30701	0.18004	0.24955	0.3556	-2.0083	-2.1896	-2.8979	-2.35	-2.5563	-2.7313	-2.2708	-2.925	-2.2979	-2.05	-2.9146	-2.3708	-2.3937	-2.8354	-1.9542	-2.6958	403.242	247.900	157.654	108.917	399.944	390.449	156.577	395.756	419.013	163.985	109.169	440.738	368.635	426.285	405.899	417.501	0.0013826	0.00085021	0.00027838	1445.8	1.1593e-05	6.6293e-06	1341.4	511.83	1.7653e-05	7.2269e-06	500.13	169.17	161.45	54.612	1.1076e-05	56.923	0.0012246	0.001293	0.0003569	1325.3	1.3398e-05	1.4181e-05	1227.8	468.27	1.388e-05	1.4055e-05	460.04	155.13	147.28	50.625	1.4018e-05	52.627	317.651	220.694	198.937	115.091	239.529	252.571	114.520	120.255	270.134	244.209	118.367	123.102	125.338	129.727	234.615	126.316	-8191	255	
13445.290	1	1	0	0	0.10248	0.11828	0.095275	0.25429	0.031947	0.12697	0.081208	0.17807	0.2509	0.02824	0.088923	0.08091	0.20492	0.2259	0.22269	0.12055	-2.2	-2.1583	-2.7125	-2.4583	-2.1854	-2.7167	-2.2896	-2.725	-2.6167	-2.2208	-3.0812	-2.3875	-2.0896	-2.7396	-2.1292	-2.6083	228.521	188.799	250.105	103.284	171.537	137.898	182.814	339.422	414.331	161.072	414.090	345.410	437.452	356.447	334.939	203.702	0.0013653	0.001056	0.00025606	1439.5	8.5502e-06	1.0078e-05	1335.4	509.01	1.1495e-05	5.8834e-06	499.89	168.23	159.99	54.752	8.2027e-06	56.909	0.0012361	0.0012542	0.00036486	1320.9	1.3632e-05	1.4071e-05	1222.4	467.7	1.3532e-05	1.3912e-05	459.77	154.78	147.22	50.732	1.3885e-05	52.599	324.315	184.932	194.391	115.273	248.193	245.574	114.743	120.329	269.928	244.142	118.331	122.821	124.750	129.711	322.395	126.378	-8191	255	
13445.387	1	1	0	0	0.38147	0.086565	0.088834	0.46398	0.069356	0.031931	0.35889	0.063037	0.22408	0.13634	0.10387	0.34337	0.1514	0.20602	0.21913	0.11536	-2.2479	-2.0646	-2.6854	-2.4542	-2.2625	-2.75	-2.3563	-2.6063	-2.6813	-2.0479	-2.8167	-2.5333	-2.3021	-2.9104	-2.1854	-2.5062	343.783	116.273	243.286	435.388	445.195	366.120	423.996	124.169	425.371	287.559	397.301	363.275	265.857	426.358	158.920	347.566	0.0013481	0.00097161	9.7486e-05	1437.3	1.3031e-05	4.2164e-06	1336.9	506.88	2.0686e-05	7.3659e-06	497.56	168.35	157.46	53.844	2.1661e-06	56.229	0.0012051	0.0012594	0.00035205	1320.1	1.3338e-05	1.3468e-05	1221.2	463.96	1.3092e-05	1.3347e-05	458.79	153.94	145.21	50.005	1.3208e-05	52.02	316.805	214.255	229.732	115.338	258.648	242.891	114.898	120.649	277.261	248.878	118.454	123.018	125.462	129.808	326.796	126.461	-8191	255	
13445.483	1	1	0	0	0.27206	0.061272	0.10688	0.38088	0.25601	0.071793	0.14432	0.20038	0.24118	0.17861	0.092877	0.065965	0.14202	0.10358	0.24692	0.22051	-2.2208	-1.9229	-2.8229	-2.6688	-2.1125	-2.8292	-2.2687	-2.5583	-2.7479	-1.9729	-2.6146	-2.7333	-2.35	-2.9875	-2.2271	-2.3563	203.328	121.695	438.257	443.773	295.607	115.341	385.824	460.218	438.858	357.231	343.436	133.829	439.400	396.811	334.154	155.400	0.0013381	0.00059536	0.00026954	1437.1	9.3701e-06	6.9387e-06	1341.2	507.58	1.399e-05	4.3144e-06	499.08	168.03	158.09	53.287	7.6351e-06	56.122	0.0011583	0.0012319	0.00033353	1317.9	1.2786e-05	1.3285e-05	1226.7	462.99	1.2816e-05	1.3073e-05	458.47	153.17	144.22	49.567	1.2733e-05	51.947	318.927	204.005	181.867	115.411	276.480	247.909	114.528	120.333	273.722	248.745	118.482	123.325	125.495	129.841	256.563	126.426	-8191	255	
13445.579	1	1	0	0	0.11569	0.19626	0.19376	0.25088	0.20764	0.14158	0.34705	0.22524	0.25424	0.1736	0.26239	0.14922	0.17385	0.34827	0.15929	0.34775	-2.4667	-1.9104	-2.3458	-2.5396	-1.9208	-2.7354	-2.4271	-2.5354	-2.8083	-2.0042	-2.6229	-2.7062	-2.1417	-2.7167	-2.4208	-2.3729	181.692	427.220	168.151	104.759	270.630	306.327	462.256	426.394	451.211	324.650	432.171	418.003	439.944	128.333	377.014	380.214	0.0014939	0.0004626	0.00021497	1446.5	7.3491e-06	5.9296e-06	1341.6	505.21	1.0413e-05	8.9279e-06	495.09	166.33	157.93	53.27	8.1196e-06	55.946	0.0011124	0.0011669	0.00033976	1322.4	1.2442e-05	1.3267e-05	1225.3	461.67	1.2431e-05	1.2863e-05	455.87	152.13	144.07	49.349	1.2754e-05	51.381	319.826	242.793	177.867	115.606	220.024	276.209	114.300	120.350	325.925	293.477	118.389	123.271	125.228	130.393	225.590	126.661	-8191	255	
13445.700	1	1	0	0	0.14244	0.17657	0.050982	0.1052	0.096432	0.18738	0.32527	0.041526	0.072319	0.26795	0.19018	0.30499	0.20785	0.21421	0.03932	0.099932	-2.3667	-1.8729	-2.2938	-2.5938	-1.9833	-2.75	-2.5083	-2.4062	-2.9167	-2.4292	-2.5729	-2.9708	-2.2687	-2.7833	-2.4271	-2.3229	144.078	192.633	286.924	416.080	107.442	444.617	361.923	156.670	152.878	131.357	415.834	417.478	169.681	396.935	355.834	138.394	0.0013431	0.00065389	0.00018488	1443.5	1.353e-05	4.3994e-06	1329.6	504.39	7.4477e-06	7.9321e-06	493.01	165.4	156.11	52.592	9.0631e-06	55.451	0.0011265	0.0012244	0.00033566	1317.8	1.29e-05	1.3204e-05	1217	460.81	1.2576e-05	1.352e-05	452.37	151.3	143.53	49.068	1.2731e-05	51.117	320.923	175.842	198.929	115.834	205.163	163.611	115.075	120.565	293.969	250.121	118.245	123.178	125.606	129.753	255.569	126.678	-8191	255	
13445.771	1	1	0	0	0.21959	0.12751	0.20542	0.45073	0.06124	0.24662	0.46103	0.26524	0.23244	0.18455	0.023552	0.19643	0.13134	0.23875	0.23244	0.22442	-2.4333	-2.2104	-2.3021	-2.8625	-2.1292	-2.6667	-2.7687	-2.2583	-2.8	-2.4062	-2.4292	-3.0042	-2.0208	-2.7104	-2.4458	-2.4458	389.873	352.971	188.002	432.667	228.632	141.095	398.849	421.934	432.475	459.812	353.086	458.253	386.318	384.067	223.878	397.443	0.0013322	0.00036123	0.00026763	1443.1	1.349e-05	8.2673e-06	1333.5	500.54	7.1593e-06	7.1877e-06	492.05	163.94	155.77	52.684	7.2984e-06	54.87	0.00112	0.0011858	0.0003357	1317	1.2515e-05	1.3091e-05	1213.1	457.8	1.2738e-05	1.2909e-05	452.06	150.14	142.66	48.774	1.2691e-05	50.752	316.748	169.665	190.058	115.902	255.909	275.901	114.908	120.536	297.972	267.186	118.749	123.224	125.666	130.174	321.066	126.921	-8191	255	
13445.867	1	1	0	0	0.15401	0.29007	0.18491	0.53841	0.13015	0.091221	0.052943	0.21392	0.11058	0.11907	0.14785	0.10339	0.081964	0.30347	0.27784	0.15466	-2.2833	-2.3396	-2.3187	-2.9	-1.8813	-2.5604	-2.8688	-2.3312	-2.6437	-2.3479	-2.2812	-2.8688	-2.2083	-2.4521	-2.5979	-2.1937	168.766	310.464	356.408	412.489	439.516	339.866	430.505	121.131	425.239	447.886	445.194	383.918	408.636	118.572	412.138	109.984	0.0013288	0.0011271	0.00029174	1437.3	4.7589e-06	8.4092e-06	1332.5	500	1.5177e-05	6.5214e-06	492.78	164.65	156.51	52.568	7.6032e-06	55.381	0.0011533	0.0011761	0.00033015	1315.1	1.2753e-05	1.2991e-05	1217.2	458.61	1.269e-05	1.2829e-05	452.97	150.93	142.97	48.757	1.2437e-05	51.062	318.015	161.728	164.286	115.302	254.221	265.230	114.630	120.342	250.528	265.563	118.483	122.680	125.142	129.629	236.645	126.433	-8191	255	
13445.963	1	1	0	0	0.29158	0.23085	0.20212	0.16292	0.19079	0.1382	0.36673	0.3247	0.19289	0.28947	0.25908	0.24013	0.14129	0.29627	0.055235	0.26711	-2.2354	-2.3438	-2.1125	-2.7333	-2.1729	-2.3479	-2.7062	-2.2188	-2.6146	-2.4167	-2.1312	-2.8354	-2.2687	-2.525	-2.6479	-2.2708	440.510	432.888	114.755	336.242	457.174	294.546	423.050	428.342	316.590	396.155	410.635	384.497	254.183	359.064	404.263	418.532	0.0013115	0.00070922	9.5574e-05	1442.2	7.8011e-06	9.413e-06	1342.5	502.17	1.4871e-05	4.0116e-06	493.57	165.76	156.85	52.725	4.0033e-06	55.131	0.0010907	0.0011848	0.00032673	1316.3	1.2534e-05	1.3064e-05	1222.4	458.96	1.2754e-05	1.3054e-05	455.12	151.81	143.65	49.052	1.2731e-05	51.259	319.062	197.924	231.297	115.286	229.828	225.914	114.537	120.301	250.976	245.555	118.607	123.197	125.377	129.888	252.940	125.986	-8191	255	
13446.082	1	1	0	0	0.16587	0.24773	0.1171	0.34432	0.047657	0.18972	0.28494	0.091099	0.081352	0.33483	0.44733	0.19284	0.12811	0.20698	0.2472	0.12449	-2.1479	-2.5312	-2.1646	-2.8375	-2.2958	-2.3625	-2.7896	-2.3146	-2.3167	-2.7417	-2.1146	-2.7062	-2.1917	-2.4979	-2.8688	-2.1271	227.482	354.984	125.593	435.877	224.048	333.847	314.148	432.006	383.849	249.719	118.228	449.290	115.903	361.852	439.042	413.941	0.001353	0.00075146	2.0534e-05	1440.4	5.0292e-06	9.8367e-06	1346.7	504.16	1.3527e-05	8.1445e-06	500.36	167.83	157.5	53.566	7.2186e-06	55.903	0.0011119	0.0011983	0.00032379	1316.2	1.2859e-05	1.3125e-05	1230.8	461.5	1.3066e-05	1.3051e-05	458.92	153.44	144.54	49.632	1.3019e-05	51.848	329.254	189.433	444.671	115.607	219.061	251.206	114.969	121.021	288.540	268.146	118.393	123.084	125.674	130.270	231.568	126.140	-8191	255	
13446.179	1	1	0	0	0.10323	0.14843	0.018056	0.066658	0.16165	0.15879	0.2909	0.30473	0.29812	0.18464	0.10951	0.20829	0.21542	0.0048813	0.28313	0.05738	-1.9854	-2.5125	-1.9625	-2.725	-2.2896	-2.0854	-3	-2.1604	-2.3854	-2.7062	-2.2188	-2.8312	-2.2417	-2.2292	-2.775	-2.4625	417.771	289.922	296.193	137.474	267.719	145.353	423.051	108.158	197.122	433.057	116.964	436.485	445.200	384.372	121.875	285.487	0.0014245	0.00010457	0.00015534	1437.5	2.9058e-06	8.2355e-06	1350.6	506.26	7.765e-06	9.9177e-06	500.83	167.79	159.36	53.991	7.7997e-06	56.13	0.0011626	0.0012306	0.00033929	1319	1.3221e-05	1.3415e-05	1228.5	464.14	1.3064e-05	1.337e-05	460.56	153.93	145.59	49.927	1.3183e-05	52.024	315.116	297.421	236.987	115.510	258.007	289.364	114.806	120.905	271.328	248.928	118.723	123.288	125.715	129.977	257.349	126.555	-8191	255	
13446.275	1	1	0	0	0.13849	0.25535	0.1508	0.2265	0.4279	0.042415	0.10053	0.33182	0.27088	0.21307	0.18032	0.15236	0.067275	0.084069	0.18883	0.18558	-1.8708	-2.6896	-1.9625	-2.8312	-2.4167	-2.2479	-2.825	-2.4667	-2.3458	-2.6896	-2.3708	-2.6479	-2.5646	-2.2771	-2.8625	-2.2958	235.605	313.789	125.142	394.554	400.065	112.896	387.216	436.912	257.214	440.544	337.874	121.841	324.019	436.445	230.581	384.211	0.0011917	0.00054648	0.00017779	1442.6	9.8883e-06	2.6476e-06	1341.3	508.51	8.508e-06	1.1857e-05	499.62	168.84	159.25	54.496	4.9268e-06	56.745	0.0011644	0.0012178	0.00034266	1317.2	1.3194e-05	1.3426e-05	1223.2	464.75	1.3261e-05	1.3517e-05	459.51	154.54	146.2	50.324	1.3589e-05	52.385	316.379	177.556	153.481	115.720	283.892	257.618	114.507	120.526	309.644	226.732	118.565	122.942	125.354	129.596	277.312	126.844	-8191	255	
13446.371	1	1	0	0	0.25189	0.12478	0.037366	0.35267	0.2213	0.16752	0.26419	0.2539	0.074466	0.35802	0.29874	0.31979	0.25635	0.3167	0.22547	0.19961	-1.875	-2.8167	-1.9438	-2.7375	-2.6396	-2.1521	-2.8458	-2.5187	-2.1646	-3.025	-2.2625	-2.5542	-2.7438	-2.1271	-2.7438	-2.5583	384.571	258.274	261.647	424.770	290.328	341.281	408.230	361.694	431.497	457.679	109.644	455.973	430.827	354.343	286.084	407.303	0.0012853	0.001235	0.00028173	1442.2	1.2838e-05	1.3245e-05	1341.8	505.88	8.647e-06	1.1665e-05	499.75	169.59	159.56	54.456	6.5736e-06	56.759	0.0011847	0.0012331	0.00034693	1317.5	1.3139e-05	1.3352e-05	1223.2	464.27	1.3296e-05	1.326e-05	460.54	154.81	146.46	50.386	1.362e-05	52.647	318.288	194.655	185.409	115.571	267.340	249.935	114.968	121.140	293.596	266.021	119.021	123.324	125.685	130.078	221.366	126.702	-8191	255	
13446.467	1	1	0	0	0.19231	0.14783	0.068567	0.30557	0.11111	0.31518	0.406	0.11772	0.29171	0.089082	0.23238	0.22104	0.064951	0.28045	0.42001	0.20567	-1.8625	-2.8063	-2.2229	-2.7333	-2.7083	-2.1104	-2.7292	-2.5396	-2.1354	-2.9313	-2.2521	-2.5396	-2.7062	-2.1688	-2.6042	-2.6208	197.693	281.368	248.145	385.315	388.631	397.390	433.153	391.835	162.552	188.124	372.247	462.107	162.143	356.499	245.999	431.948	0.0014419	0.0010947	0.00015319	1439.4	6.3778e-06	1.0348e-05	1339.7	506.5	1.7735e-05	6.4317e-06	501.64	169.21	160.72	54.367	7.2412e-06	57.555	0.00117	0.0012677	0.0003511	1316.8	1.301e-05	1.3708e-05	1224.3	464.77	1.3191e-05	1.3763e-05	461.52	155.14	146.67	50.537	1.3508e-05	53.137	317.558	197.971	167.596	115.646	211.343	235.146	114.364	120.255	291.561	258.531	118.374	123.031	125.793	129.595	211.050	126.292	-8191	255	
13446.563	1	1	0	0	0.11662	0.10124	0.10034	0.28208	0.05924	0.097539	0.20587	0.24512	0.05457	0.054681	0.13606	0.21455	0.27217	0.19084	0.10109	0.032894	-1.7729	-2.6646	-2.2583	-2.2542	-2.7396	-2.0375	-2.6292	-2.6229	-2.0479	-2.7708	-2.5375	-2.4729	-2.6854	-2.1208	-2.35	-2.5479	416.191	236.731	168.186	425.189	153.556	345.013	332.726	423.591	179.841	194.333	384.685	381.730	120.397	126.198	424.133	283.635	0.001228	0.00072832	7.8974e-05	1437.4	5.294e-06	8.4036e-06	1350.8	510.86	1.0272e-05	4.4893e-06	504.74	170.22	160.05	54.192	1.344e-05	57.414	0.0011762	0.0012441	0.00035163	1316.7	1.3108e-05	1.3735e-05	1233.8	466.99	1.3278e-05	1.3515e-05	464.59	155.77	146.74	50.316	1.3592e-05	53.105	316.541	174.242	238.416	114.870	241.044	218.969	114.528	120.429	235.438	225.844	118.643	123.138	125.209	130.175	250.700	126.377	-8191	255	
13446.684	1	1	0	0	0.23463	0.14734	0.13464	0.21158	0.065381	0.20135	0.27731	0.21471	0.16521	0.094237	0.029064	0.24996	0.12443	0.28231	0.18256	0.22053	-1.6292	-2.6667	-2.2833	-2.3375	-2.8312	-2.1021	-2.5854	-2.7958	-2.2313	-2.6729	-2.5354	-2.2625	-2.7646	-2.2896	-2.3917	-2.5917	376.932	124.739	229.332	340.942	249.151	183.877	448.474	454.224	371.731	438.310	292.352	391.883	113.595	105.436	269.160	414.710	0.0013141	0.0008544	0.00020428	1431	7.3651e-06	3.5753e-06	1352	509.56	8.9351e-06	1.1803e-05	502.13	169.47	159.45	54.19	2.0408e-06	57.033	0.0011685	0.0012774	0.00035188	1316.7	1.3265e-05	1.3939e-05	1231.9	466.23	1.3302e-05	1.3679e-05	462.59	155.5	146.48	50.343	1.3676e-05	52.876	321.764	188.867	172.200	115.175	259.033	269.630	114.606	120.772	251.707	275.874	118.513	123.037	125.724	130.168	227.002	126.438	-8191	255	
13446.780	1	1	0	0	0.10914	0.18226	0.2259	0.19408	0.053104	0.13539	0.12086	0.50918	0.043824	0.28697	0.1925	0.18414	0.15864	0.29516	0.15928	0.21736	-1.6604	-2.4688	-2.3479	-2.3292	-2.7438	-2.2208	-2.4375	-2.8833	-2.1208	-2.7979	-2.6479	-2.1604	-2.9125	-2.4875	-2.2333	-2.9583	422.159	295.154	452.120	422.564	250.374	314.885	429.325	415.427	423.582	351.296	410.958	416.798	284.472	102.807	177.545	429.955	0.0015744	0.00099045	0.00015956	1438	1.1683e-05	7.9027e-06	1341.6	509.2	2.3824e-05	2.1279e-06	504.12	170.49	160.59	54.83	8.8105e-06	57.229	0.0012032	0.0012711	0.00035717	1314.7	1.3356e-05	1.3905e-05	1227.3	466.48	1.3476e-05	1.4034e-05	462.93	155.78	147.5	50.823	1.3908e-05	53.129	317.458	159.868	187.657	114.940	259.312	258.502	114.478	120.568	281.513	230.587	118.668	123.020	125.346	129.757	280.785	126.661	-8191	255	
13446.876	1	1	0	0	0.12076	0.078939	0.086184	0.2918	0.39716	0.12327	0.16641	0.12994	0.27429	0.10027	0.030712	0.13673	0.17936	0.25946	0.17043	0.25719	-1.6667	-2.4958	-2.5917	-2.3458	-2.65	-2.2542	-2.3417	-2.9375	-1.8667	-2.675	-2.7292	-2.1521	-2.7062	-2.3604	-2.1146	-2.85	384.418	193.110	423.128	422.776	420.847	330.802	437.880	286.905	146.397	128.666	460.283	425.930	187.923	397.182	271.464	430.080	0.0013949	0.00064507	0.00027074	1435.5	2.7555e-06	6.6883e-06	1338.6	504.66	8.1159e-06	1.0028e-05	501.28	168.72	158.67	53.905	9.3697e-06	56.195	0.0011807	0.0012771	0.00035502	1315.2	1.3469e-05	1.3877e-05	1223.5	464.61	1.3521e-05	1.4034e-05	460.99	154.88	145.86	50.161	1.3872e-05	52.385	320.274	173.771	194.442	115.621	301.539	237.600	114.406	120.387	295.411	236.156	118.712	122.738	125.346	129.726	252.630	126.254	-8191	255	
13446.972	1	1	0	0	0.14344	0.091664	0.076598	0.18892	0.058252	0.12939	0.097362	0.19315	0.2573	0.22383	0.42849	0.19888	0.067386	0.081252	0.17616	0.28563	-1.7583	-2.2812	-2.7625	-2.2	-2.7792	-2.3604	-2.3271	-2.9667	-2.1125	-2.4604	-2.8771	-2.1979	-2.8396	-2.5875	-2.1688	-2.9583	429.125	455.339	229.720	410.627	280.803	128.278	328.688	123.894	448.362	248.647	406.458	395.484	430.168	428.642	336.964	133.601	0.0013107	0.00099139	0.00020573	1446.8	1.3042e-05	4.1659e-06	1338.4	508.26	7.0483e-06	1.0271e-05	497.83	168.54	159.9	54.262	5.9719e-06	57.175	0.0012135	0.0012861	0.00035155	1318.8	1.3818e-05	1.445e-05	1224.7	464.75	1.3728e-05	1.4318e-05	460.46	154.92	146.48	50.419	1.422e-05	52.959	324.326	160.956	208.815	115.509	260.234	295.233	114.429	120.635	297.462	237.977	118.802	123.083	125.280	129.994	254.838	126.718	-8191	255	
13447.068	1	1	0	0	0.13472	0.20465	0.18366	0.11521	0.12186	0.094035	0.2575	0.1665	0.17344	0.32794	0.27322	0.16298	0.2656	0.15927	0.2321	0.078246	-1.8583	-2.2417	-2.6167	-2.2438	-2.6458	-2.6333	-2.3542	-3.0292	-2.2375	-2.1042	-2.6562	-2.2146	-2.6583	-2.6917	-1.9417	-2.9104	286.325	155.586	384.542	412.325	322.330	331.684	429.201	434.948	183.851	379.566	381.170	434.474	376.919	442.454	132.065	248.534	0.0012418	0.00093078	0.00012178	1441.2	5.3911e-06	5.6949e-06	1348.9	509.37	1.235e-05	3.2167e-06	502.36	170.08	160.45	54.344	1.4421e-05	56.973	0.0012194	0.0013219	0.00036359	1317.5	1.4333e-05	1.4789e-05	1229.3	467.18	1.4492e-05	1.4585e-05	462.66	155.61	147.02	50.514	1.4261e-05	52.989	319.733	214.209	173.312	115.199	248.060	156.409	114.669	120.698	286.154	240.034	118.608	123.368	125.727	129.490	234.460	126.406	-8191	255	
13447.163	1	1	0	0	0.1917	0.1368	0.15589	0.39833	0.404	0.25933	0.28239	0.30134	0.34665	0.24876	0.13543	0.27339	0.46367	0.2365	0.1598	0.1502	-1.8042	-2.0042	-2.6167	-2.2562	-2.7083	-2.5771	-2.1396	-2.7625	-2.325	-2.0396	-2.8854	-2.3375	-2.5125	-2.7562	-2.1208	-2.8208	254.529	307.954	349.531	459.775	167.678	358.961	447.193	409.768	196.341	231.443	129.682	437.044	390.602	122.288	190.051	420.210	0.0013524	0.00083835	0.0002388	1444.7	1.6191e-05	6.3863e-06	1340.4	510.53	1.2851e-05	4.9634e-06	501.98	169.53	160.27	54.63	7.8748e-06	56.811	0.0012367	0.0013674	0.00037128	1320.5	1.4852e-05	1.4875e-05	1225.7	467.74	1.4737e-05	1.5384e-05	463.53	155.76	147.14	50.738	1.4524e-05	52.884	320.324	180.673	187.126	116.010	243.006	246.872	113.912	119.982	263.808	269.763	118.344	122.638	125.211	129.901	271.229	126.789	-8191	255	
13447.259	1	1	0	0	0.029564	0.093323	0.18836	0.30123	0.12135	0.13529	0.23829	0.072728	0.2687	0.27105	0.28095	0.095814	0.1529	0.058425	0.21174	0.099553	-1.9188	-2.1188	-2.6708	-2.2917	-2.25	-2.5979	-2.1292	-2.8187	-2.3417	-2.0667	-2.7729	-2.3688	-2.3167	-2.8229	-1.9438	-2.5854	249.028	367.921	353.402	115.528	459.652	179.780	407.405	319.442	454.224	354.055	105.452	457.245	363.600	379.397	382.286	167.308	0.0014236	0.00062252	0.00014798	1438.4	3.5331e-06	1.1242e-05	1332.3	509.76	7.6602e-06	3.1043e-06	499.4	169.19	158.86	54.144	9.8165e-06	56.212	0.001281	0.0013879	0.00037843	1316.8	1.4334e-05	1.4762e-05	1222.2	466.32	1.4782e-05	1.4612e-05	460.45	154.83	146	50.286	1.4577e-05	52.304	318.897	202.633	218.800	115.780	287.879	252.736	115.019	120.824	284.754	275.456	118.184	122.789	124.875	129.917	252.014	126.018	-8191	255	
13447.380	1	1	0	0	0.27509	0.12399	0.045641	0.15869	0.40948	0.19201	0.15621	0.15596	0.21081	0.060794	0.11926	0.22983	0.31019	0.089016	0.19837	0.12161	-2.05	-1.9896	-2.6271	-2.35	-2.2562	-2.6437	-2.2625	-2.6813	-2.4625	-2.0375	-2.7854	-2.2729	-2.2104	-2.7604	-2.0229	-2.3542	212.278	461.201	315.575	409.638	128.085	213.828	399.348	407.934	397.702	203.337	450.468	224.774	338.714	401.244	129.242	364.708	0.0013884	0.00046287	0.00014476	1438.7	4.7239e-06	1.0702e-05	1337.5	506.86	1.1236e-05	1.177e-05	500.77	167.75	158.11	53.549	5.6784e-06	56.499	0.0012307	0.0013403	0.0003717	1316.3	1.4195e-05	1.4184e-05	1222.2	464.08	1.4125e-05	1.4445e-05	460.6	154.59	145.48	49.976	1.4337e-05	52.521	327.927	216.811	156.563	114.977	239.440	252.151	114.364	119.926	239.058	236.110	118.476	122.561	125.064	129.726	266.608	126.439	-8191	255	
13447.476	1	1	0	0	0.21473	0.16506	0.04891	0.22901	0.039837	0.17133	0.24107	0.062	0.04296	0.0036825	0.14375	0.2368	0.30515	0.28377	0.087721	0.21819	-2.1229	-2.075	-2.575	-2.4625	-1.9625	-2.8125	-2.4417	-2.4	-2.6042	-2.0292	-2.7146	-2.4396	-2.1521	-2.9083	-1.9542	-2.5479	342.687	260.708	109.229	439.786	309.285	169.193	459.927	117.152	121.531	397.214	148.387	155.863	383.098	461.360	123.408	254.793	0.0013652	0.00068765	0.00023055	1435.5	1.2279e-05	6.0331e-06	1337.5	505.99	1.8683e-05	1.6427e-06	501.91	168.4	158.88	54.165	8.7112e-06	56.618	0.0012361	0.0013318	0.00038067	1317.4	1.435e-05	1.4706e-05	1225	465.2	1.4332e-05	1.4549e-05	460.54	155.09	146.07	50.197	1.4945e-05	52.588	317.416	231.872	179.832	115.315	260.991	243.916	114.497	120.107	289.028	251.745	118.225	122.837	124.977	129.794	225.670	126.072	-8191	255	
13447.572	1	1	0	0	0.18235	0.23954	0.10745	0.16171	0.061695	0.28659	0.15347	0.06228	0.01824	0.44968	0.18118	0.45729	0.073612	0.085854	0.075102	0.018687	-2.4521	-2.0062	-2.65	-2.6646	-2.3521	-2.6354	-2.4146	-2.4021	-2.85	-2.0896	-2.6562	-2.7146	-2.1063	-2.7438	-2.3021	-2.2146	220.672	435.242	236.170	455.649	424.178	146.233	414.550	331.655	257.811	111.327	444.254	436.902	236.534	372.152	246.959	338.042	0.0013555	0.0010136	0.00018919	1439.9	9.6766e-06	4.8681e-06	1329.4	505.44	1.1712e-05	3.8298e-06	499.07	168.77	160.27	54.255	5.793e-06	56.513	0.001228	0.0013452	0.00038111	1316	1.4216e-05	1.4766e-05	1217.4	464.21	1.4576e-05	1.4946e-05	460.35	155.07	146.46	50.334	1.4687e-05	52.556	315.180	152.812	230.899	115.446	286.314	303.075	114.412	120.223	275.041	247.986	118.460	123.208	125.079	129.925	267.105	126.250	-8191	255	
13447.644	1	1	0	0	0.19142	0.071433	0.2581	0.26083	0.23868	0.23997	0.13872	0.1741	0.035592	0.063469	0.073238	0.094016	0.24029	0.26614	0.1009	0.20649	-2.4979	-1.875	-2.5354	-2.6479	-2.0958	-2.8854	-2.475	-2.3604	-2.8292	-2.3542	-2.5771	-2.7646	-2.1292	-2.925	-2.4313	-2.3833	157.328	333.594	401.531	436.352	129.252	215.302	106.829	346.835	302.751	108.360	266.233	325.356	258.913	444.801	381.924	158.155	0.0014335	0.00089834	0.00025737	1433.4	1.667e-05	8.1152e-06	1338.3	506.07	1.805e-05	6.2199e-06	497.43	167.93	158.61	54.38	1.1884e-05	56.568	0.0012332	0.0013233	0.00038312	1314.2	1.4254e-05	1.4905e-05	1220.9	464.02	1.4512e-05	1.4694e-05	458.62	154.64	145.71	50.195	1.4601e-05	52.525	322.137	183.147	200.312	115.048	234.037	269.474	114.855	120.397	303.946	240.958	118.447	122.687	125.033	129.539	264.877	126.654	-8191	255	
13447.764	1	1	0	0	0.038381	0.064073	0.24805	0.31286	0.1291	0.13863	0.24957	0.23685	0.25007	0.19226	0.15383	0.17544	0.30134	0.10973	0.1297	0.34292	-2.2417	-2.0458	-2.3479	-2.8937	-2.1479	-2.8333	-2.5896	-2.3542	-2.8271	-2.0896	-2.4542	-2.8521	-2.1604	-2.7375	-2.2562	-2.3	127.385	120.962	102.168	457.933	174.204	447.982	454.201	114.543	451.070	357.703	398.608	187.740	411.925	146.179	232.188	445.043	0.0014404	0.00060771	0.0002236	1435.2	1.5923e-05	7.8954e-06	1341.9	506.76	8.4706e-06	3.0863e-06	501.39	168.6	159.05	53.672	4.894e-06	56.447	0.0012467	0.0013473	0.00038124	1315.7	1.434e-05	1.4711e-05	1224.7	464.18	1.4348e-05	1.5069e-05	461.14	155.03	145.74	49.865	1.4754e-05	52.323	315.253	226.459	196.716	115.179	248.983	196.662	114.650	120.062	293.558	222.746	118.325	122.874	125.308	129.886	252.320	126.368	-8191	255	
13447.860	1	1	0	0	0.090487	0.37952	0.17465	0.12596	0.32011	0.3073	0.25558	0.14209	0.039658	0.11937	0.19302	0.35775	0.23411	0.20185	0.2924	0.074684	-2.425	-2.1271	-2.3063	-2.7479	-2.0167	-2.5604	-2.8042	-2.0958	-2.7979	-2.2292	-2.3812	-2.9167	-2.0646	-2.6333	-2.4875	-2.2208	459.659	435.897	378.387	146.265	390.509	307.675	399.332	368.893	353.188	159.104	328.198	417.116	365.076	239.708	178.398	315.577	0.0013478	0.00072694	0.00017766	1446.1	1.8178e-05	1.0894e-05	1341	506.77	5.6058e-06	3.7166e-06	499.92	168.25	157.69	53.575	8.6607e-06	56.034	0.0012435	0.0013694	0.00038146	1318	1.4704e-05	1.5099e-05	1223.2	463.64	1.4644e-05	1.4834e-05	459	154.37	144.92	49.745	1.4725e-05	52.074	313.793	165.413	176.408	115.801	250.094	245.145	114.803	120.378	253.905	206.243	118.765	123.158	125.139	129.758	251.593	126.599	-8191	255	
13447.956	1	1	0	0	0.36223	0.15763	0.11379	0.14168	0.063777	0.42683	0.13343	0.37681	0.11427	0.24156	0.32803	0.38394	0.1662	0.17277	0.067887	0.13285	-2.4375	-2.2875	-2.175	-2.8729	-2.1729	-2.4396	-2.7542	-2.1437	-2.675	-2.2917	-2.3229	-2.9708	-2.3125	-2.6	-2.5146	-2.1396	461.750	387.585	155.441	255.694	325.748	338.168	177.825	438.918	460.310	231.773	417.111	390.374	205.113	442.279	210.616	369.439	0.0012287	0.0011512	0.00021672	1435.2	1.2962e-05	6.699e-06	1333.4	504.96	1.3403e-05	8.2805e-06	499.38	168.07	158.5	53.737	8.7115e-06	56.492	0.0012793	0.0013795	0.00038699	1315.3	1.4709e-05	1.5396e-05	1220.3	463.77	1.4868e-05	1.5478e-05	458.85	154.21	146.12	50.009	1.5458e-05	52.289	314.927	191.570	252.094	115.489	239.086	252.141	114.725	120.444	243.568	287.934	118.636	123.260	125.631	129.908	291.551	126.372	-8191	255	
13448.053	1	1	0	0	0.091704	0.11113	0.34801	0.28414	0.052874	0.14224	0.095238	0.11543	0.25125	0.10451	0.20837	0.16202	0.095934	0.30715	0.057959	0.14124	-2.3854	-2.4417	-2.2083	-2.7938	-2.0458	-2.3812	-2.9896	-2.1688	-2.5104	-2.375	-2.1208	-2.9313	-2.2667	-2.4021	-2.7396	-2.1813	373.369	233.903	453.635	145.046	232.355	452.178	450.603	451.531	133.218	238.830	378.972	424.448	367.140	392.996	110.239	378.431	0.0015316	0.0006829	0.00019466	1437.9	7.1329e-06	5.8564e-06	1328.7	506.82	1.8049e-05	6.6335e-06	498.91	168.68	158.11	53.648	1.0054e-05	55.729	0.0013158	0.0014364	0.00039442	1317.7	1.4919e-05	1.5881e-05	1218	463.37	1.5332e-05	1.5466e-05	458.37	154.14	145.44	49.805	1.5179e-05	51.844	320.308	195.143	232.924	115.416	219.897	259.718	114.765	120.205	278.851	245.889	118.326	123.129	124.957	129.117	250.434	126.062	-8191	255	
13448.173	1	1	0	0	0.4018	0.29522	0.1803	0.045876	0.18681	0.083218	0.20903	0.23217	0.11926	0.07007	0.14765	0.27143	0.14508	0.2732	0.12043	0.47454	-1.9062	-2.4583	-2.0333	-2.9083	-2.3375	-2.2562	-2.8917	-2.1479	-2.6271	-2.5167	-2.2979	-2.7146	-2.2542	-2.3229	-2.8042	-2.1688	103.957	385.538	227.286	325.013	389.403	114.879	415.691	361.609	330.965	182.451	135.066	426.054	129.595	132.963	197.471	391.828	0.001405	0.00097207	0.00025986	1436.1	1.5833e-05	9.7692e-06	1334.6	505.27	9.0729e-06	2.7062e-06	496.81	167.47	157.72	53.35	9.8451e-06	55.739	0.0013444	0.0014115	0.00038242	1314.8	1.4964e-05	1.5491e-05	1220.1	463.05	1.4878e-05	1.5222e-05	457.61	153.74	144.89	49.44	1.4922e-05	51.93	315.098	190.155	202.739	115.117	223.170	290.995	114.756	120.242	276.349	289.245	118.297	122.675	125.286	129.905	212.206	126.216	-8191	255	
13448.245	1	1	0	0	0.24802	0.15174	0.1232	0.29441	0.12695	0.091386	0.30461	0.19268	0.1829	0.19402	0.41697	0.42708	0.086009	0.15353	0.083991	0.13125	-2.1792	-2.4583	-2.0667	-2.8812	-2.3854	-2.3583	-2.9896	-2.2958	-2.4667	-2.7354	-2.1542	-2.5833	-2.5312	-2.2125	-2.7292	-2.0521	318.714	297.442	364.282	153.634	439.796	234.749	365.657	394.000	172.802	131.961	390.704	395.933	135.182	429.551	240.256	431.387	0.0013985	0.00060114	0.00022119	1440.7	9.0051e-06	5.3977e-06	1336.8	505.1	1.7736e-05	1.463e-06	499.23	167.2	158.46	53.306	6.983e-06	55.51	0.0013192	0.0014124	0.00039063	1315.7	1.5103e-05	1.5539e-05	1221.1	462	1.4894e-05	1.5113e-05	457.25	153.03	144.67	49.364	1.4902e-05	51.659	315.670	247.955	230.271	115.343	266.671	254.019	115.017	120.973	296.807	228.435	118.895	123.435	125.905	130.412	234.485	127.221	-8191	255	
13448.364	1	1	0	0	0.18989	0.15884	0.13735	0.24011	0.16407	0.05107	0.10788	0.09702	0.13058	0.18859	0.53331	0.072355	0.30436	0.24086	0.14781	0.14773	-1.8375	-2.5854	-2.0604	-2.775	-2.5354	-2.1083	-2.9146	-2.4042	-2.3896	-2.6333	-2.1188	-2.6625	-2.475	-2.3521	-2.5604	-2.4146	209.258	224.890	222.944	420.172	440.995	179.709	416.044	236.981	124.043	233.044	398.849	443.105	458.970	422.289	270.585	360.399	0.001428	0.00069848	9.6401e-05	1437.2	1.1009e-05	1.5826e-06	1332.7	502.62	9.7527e-06	4.2439e-06	495.02	166.4	156.55	52.796	9.2676e-06	55.039	0.0012969	0.0013567	0.00039189	1313.2	1.4639e-05	1.5155e-05	1215.2	461.17	1.5036e-05	1.4892e-05	454.9	152.38	143.82	49.051	1.4936e-05	51.298	324.139	209.469	176.678	115.878	246.093	117.667	114.880	120.485	294.505	300.457	118.125	122.782	124.767	129.228	267.504	126.323	-8191	255	
13448.460	1	1	0	0	0.087989	0.1209	0.41321	0.18901	0.057396	0.28479	0.36472	0.11955	0.23318	0.20395	0.30219	0.18138	0.085044	0.17093	0.19196	0.11515	-1.5938	-2.6604	-1.9917	-2.5604	-2.3604	-2.0312	-2.8792	-2.2313	-2.0667	-2.8146	-2.25	-2.6958	-2.3917	-2.1604	-2.7583	-2.3063	407.922	109.687	320.511	105.502	230.919	348.168	428.075	339.912	417.883	445.398	458.203	449.171	444.788	108.322	134.530	364.624	0.0013672	0.00081276	0.00024126	1428.8	8.595e-06	5.7763e-06	1323.3	499.93	1.0209e-05	2.757e-06	493.49	165.59	155.28	52.412	9.0842e-06	54.537	0.001285	0.0013756	0.00038271	1310.3	1.4666e-05	1.4689e-05	1210.4	459.39	1.4608e-05	1.4942e-05	453.91	151.42	142.7	48.655	1.4607e-05	50.797	313.517	208.103	194.332	115.433	287.031	264.719	114.413	120.623	303.907	248.881	118.281	123.075	125.417	130.295	253.211	126.855	-8191	255	
13448.556	1	1	0	0	0.29864	0.20202	0.22054	0.44308	0.3239	0.19748	0.17867	0.33948	0.22336	0.18914	0.22531	0.2126	0.17761	0.16692	0.13139	0.081391	-1.7687	-2.6375	-2.0354	-2.4354	-2.65	-2.0083	-2.7542	-2.4437	-2.1042	-2.8771	-2.2938	-2.3667	-2.8063	-2.1104	-2.5354	-2.6146	358.041	386.870	339.962	415.426	102.470	371.365	423.028	425.887	439.013	402.756	399.156	366.153	129.322	126.040	253.025	124.538	0.0013984	0.00055854	0.0001016	1422.9	1.0877e-05	2.9733e-06	1324.6	500.03	1.1468e-05	1.0001e-05	492.39	164.24	154.52	51.871	9.4826e-06	54.493	0.0012601	0.001362	0.00038474	1303.4	1.3887e-05	1.4652e-05	1210.1	458.22	1.4398e-05	1.4834e-05	453.44	150.8	141.94	48.254	1.4407e-05	50.633	313.950	229.335	203.551	115.461	260.722	339.360	114.355	120.029	304.570	307.726	118.569	122.936	125.623	129.760	227.359	126.579	-8191	255	
13448.652	1	1	0	0	0.18734	0.055948	0.018221	0.20708	0.18093	0.12551	0.34978	0.19992	0.10654	0.06287	0.37965	0.13605	0.22244	0.10607	0.073389	0.11233	-1.5833	-2.775	-2.2604	-2.4	-2.7667	-2.0479	-2.7542	-2.7542	-2.0521	-2.6896	-2.2271	-2.2438	-2.7729	-2.2167	-2.3292	-2.575	236.421	205.857	106.328	443.283	245.931	379.214	390.025	146.818	230.219	282.199	103.476	118.792	107.854	233.252	377.245	411.282	0.0013157	0.00051175	0.00027634	1424.8	1.3221e-05	1.0275e-05	1316.6	496.61	1.1467e-05	8.1682e-06	489.12	163.83	154.11	52.084	6.4672e-06	54.26	0.0012208	0.0013182	0.0003683	1301.9	1.4038e-05	1.4584e-05	1208.1	456.15	1.3723e-05	1.4354e-05	451.31	150.27	141.73	48.152	1.4556e-05	50.361	314.088	258.888	170.751	115.329	243.376	235.139	114.655	120.431	293.343	255.440	118.393	122.741	125.461	129.387	212.340	126.451	-8191	255	
13448.773	1	1	0	0	0.086771	0.1824	0.11813	0.077998	0.12964	0.11608	0.32287	0.17417	0.25315	0.24717	0.16639	0.26928	0.064707	0.32568	0.15098	0.25984	-1.4729	-2.6	-2.2438	-2.3458	-2.6437	-1.925	-2.6792	-2.7	-2.15	-2.6521	-2.5292	-2.1646	-2.8125	-2.1479	-2.1646	-2.6625	170.315	247.073	249.998	158.260	352.538	160.409	455.396	114.109	299.556	234.188	462.130	431.244	401.284	452.368	462.222	461.335	0.0012597	0.00048205	0.00028747	1414.5	6.9225e-06	6.08e-06	1311	498.69	1.2036e-05	3.2732e-06	490.19	163.1	154.59	51.866	5.023e-06	54.476	0.0012074	0.0013036	0.00037414	1300.6	1.3603e-05	1.4509e-05	1202.2	455.56	1.3765e-05	1.3924e-05	451.18	149.6	141.49	48.088	1.4076e-05	50.428	321.976	181.179	225.841	115.062	285.095	201.774	114.585	120.553	247.866	269.230	118.524	122.803	125.333	129.581	226.705	126.071	-8191	255	
13448.869	1	1	0	0	0.068657	0.14156	0.10838	0.40114	0.20624	0.083791	0.29001	0.13334	0.11364	0.066528	0.24618	0.11811	0.069019	0.068769	0.20087	0.14661	-1.5229	-2.4062	-2.3521	-2.425	-2.7687	-1.9104	-2.4271	-2.7521	-1.9042	-2.7	-2.5354	-2.0417	-2.7083	-2.2458	-2.1625	-2.6833	212.892	219.144	375.944	431.167	103.424	406.994	391.829	444.318	421.203	147.728	357.182	261.889	344.849	333.294	181.063	217.765	0.0014597	0.00060314	0.00027029	1416.5	3.0199e-06	5.1594e-06	1324.2	495.89	1.756e-05	1.191e-05	491.35	163.22	153.35	51.456	7.9647e-06	54.43	0.0012459	0.0013123	0.00037887	1299.7	1.3597e-05	1.4388e-05	1204.5	455.52	1.3915e-05	1.435e-05	451.13	149.51	141.32	47.903	1.3587e-05	50.365	320.189	203.473	166.860	115.188	239.590	282.623	114.424	120.331	284.960	246.590	118.210	122.935	125.666	129.748	259.510	126.865	-8191	255	
13448.941	1	1	0	0	0.15316	0.15034	0.1716	0.1	0.13319	0.2774	0.15926	0.48338	0.1873	0.10578	0.38322	0.035817	0.15464	0.26231	0.21716	0.18608	-1.5729	-2.45	-2.5062	-2.2146	-2.8771	-2.2938	-2.45	-2.8563	-2.0125	-2.525	-2.7396	-1.9583	-2.7625	-2.5271	-2.1	-2.875	190.795	400.862	389.587	159.158	240.039	138.087	366.052	420.667	327.815	117.427	405.569	158.061	162.775	145.620	425.527	229.069	0.0014599	0.0005438	0.00033686	1425.5	1.0785e-05	4.8015e-06	1315.5	498.29	1.5268e-05	6.5882e-06	490.16	163.68	154.55	51.893	9.6782e-06	54.666	0.0011869	0.0013059	0.00035817	1300.4	1.3842e-05	1.4249e-05	1207.1	456.52	1.372e-05	1.4291e-05	451.75	149.9	141.68	48.127	1.4147e-05	50.394	323.872	213.682	238.359	115.251	229.205	292.294	114.682	120.746	278.806	284.150	119.306	123.193	125.596	130.118	264.364	126.379	-8191	255	
13449.037	1	1	0	0	0.067144	0.17585	0.10876	0.29402	0.13186	0.072499	0.2292	0.14386	0.24432	0.13399	0.3626	0.12752	0.059485	0.19166	0.06837	0.12602	-1.6771	-2.3438	-2.4792	-2.3771	-2.6333	-2.3854	-2.3	-2.9083	-2.0833	-2.45	-2.7375	-2.0542	-2.5917	-2.4583	-2.05	-2.7625	193.202	330.071	358.738	429.125	237.989	184.869	407.241	413.493	285.812	413.678	413.211	457.134	444.132	409.029	356.914	220.900	0.0012367	0.00049509	0.00022687	1423.4	1.1358e-05	1.1954e-05	1321.8	496.48	1.1e-05	3.5998e-06	491.94	163.35	153.67	51.44	9.3798e-06	53.893	0.0012338	0.0012978	0.0003557	1300.2	1.3868e-05	1.4478e-05	1207.5	455.37	1.3799e-05	1.4206e-05	451.9	149.8	141.13	47.794	1.3994e-05	50.072	329.791	177.179	240.982	115.376	238.011	278.507	114.741	120.716	308.599	210.034	118.838	122.967	125.408	130.208	279.588	127.023	-8191	255	
13449.156	1	1	0	0	0.053547	0.17853	0.25088	0.17179	0.14948	0.045621	0.45926	0.37888	0.10084	0.097139	0.10436	0.25284	0.040124	0.33532	0.32517	0.18561	-1.6083	-2.1688	-2.5104	-2.2229	-2.6229	-2.3396	-2.4042	-2.8896	-2.2417	-2.1396	-2.6625	-2.0875	-2.5458	-2.4833	-2.0708	-2.8771	295.576	282.563	451.383	418.152	372.784	425.997	419.110	331.504	109.634	304.247	401.293	426.047	398.311	454.856	210.544	382.723	0.0010825	0.00055108	0.00022753	1420.8	4.1072e-06	1.0205e-05	1316.7	498.26	9.6293e-06	9.7939e-06	490.81	163.92	155.2	52.12	8.1811e-06	54.202	0.0011934	0.001335	0.00036352	1298.5	1.386e-05	1.4165e-05	1203.1	455.81	1.3819e-05	1.4208e-05	450.92	150	141.77	48.229	1.3672e-05	50.359	319.011	218.577	213.911	115.823	241.216	274.748	114.835	120.785	288.441	259.582	118.651	123.715	125.853	130.394	247.828	127.096	-8191	255	
13449.252	1	1	0	0	0.10531	0.30501	0.21739	0.3016	0.095646	0.18144	0.11571	0.37002	0.13175	0.14158	0.11049	0.26316	0.094949	0.50651	0.13904	0.16599	-1.7083	-2.1792	-2.7313	-2.2229	-2.575	-2.6667	-2.0375	-2.8208	-2.3417	-2.2458	-2.8688	-2.2917	-2.475	-2.7396	-2.0812	-2.6771	423.032	443.078	116.004	456.602	145.349	386.806	383.138	383.629	323.991	177.437	136.848	393.568	347.869	420.060	383.167	382.057	0.0012949	0.00086835	0.00027448	1418.6	1.3692e-05	3.1974e-06	1326.2	496.27	1.4344e-05	5.4353e-06	492.95	165.48	154.64	51.895	1.0283e-05	54.748	0.001218	0.0013081	0.00035618	1297.2	1.3748e-05	1.3855e-05	1205.7	455.59	1.3803e-05	1.3968e-05	452.79	151.1	141.9	48.266	1.3795e-05	50.835	322.362	218.316	226.721	116.025	207.679	170.028	114.951	121.140	291.471	259.142	118.949	123.530	125.308	129.369	269.475	126.014	-8191	255	
13449.348	1	1	0	0	0.24658	0.096899	0.42443	0.060042	0.092966	0.22589	0.21096	0.2837	0.26335	0.21439	0.34355	0.17585	0.10869	0.30102	0.1643	0.153	-1.9604	-2.1167	-2.6042	-2.3708	-2.3042	-2.5854	-2.1354	-2.6125	-2.4104	-2.1813	-2.8708	-2.1583	-2.3708	-2.8021	-1.8188	-2.6521	413.261	212.542	204.551	122.377	414.834	312.223	395.195	376.913	327.800	395.717	425.131	386.849	194.999	115.310	315.857	133.013	0.00142	0.0010499	0.00013193	1414.4	1.4237e-05	4.6457e-06	1331.2	495.58	8.2582e-06	8.9678e-06	495.1	164.69	153.01	51.662	7.277e-06	55.15	0.0011734	0.0012497	0.00034903	1294.4	1.3358e-05	1.3879e-05	1211.8	454.94	1.3549e-05	1.3503e-05	454.14	151.09	140.64	48.106	1.3683e-05	51.133	319.545	189.967	238.014	114.916	258.461	198.219	114.644	120.439	289.509	224.842	118.566	123.167	125.546	129.651	261.634	126.708	-8191	255	
13449.444	1	1	0	0	0.22641	0.071775	0.19053	0.37037	0.30811	0.097613	0.4336	0.34947	0.056353	0.10301	0.16618	0.3496	0.10391	0.065401	0.33344	0.2833	-2.1146	-1.8687	-2.7313	-2.3417	-2.2167	-2.725	-2.2229	-2.8271	-2.4375	-2.1167	-2.8021	-2.3104	-2.3563	-2.8354	-2.1042	-2.4708	379.476	356.675	388.537	383.781	316.084	175.636	383.709	405.857	321.274	360.278	374.905	387.242	124.331	210.598	317.814	427.975	0.001397	0.00088561	0.00027603	1408.4	6.9517e-06	5.7892e-06	1328.3	498.21	1.0934e-05	5.4443e-06	494.35	165.21	155.51	52.1	4.6878e-06	55.525	0.0011844	0.0012567	0.00036255	1294.6	1.3235e-05	1.3502e-05	1214.2	456.21	1.3543e-05	1.3882e-05	454.97	151.83	142.11	48.517	1.3628e-05	51.427	315.130	210.573	207.025	115.768	224.501	201.864	114.145	120.044	294.557	255.547	118.379	123.001	125.207	130.175	220.492	127.142	-8191	255	
13449.540	1	1	0	0	0.075006	0.074999	0.063055	0.045528	0.031706	0.22093	0.45837	0.12272	0.023891	0.089038	0.19902	0.069867	0.35865	0.26511	0.20821	0.043097	-2.0896	-2.0167	-2.6542	-2.2854	-1.9021	-2.8583	-1.9562	-2.575	-2.6042	-2.0271	-2.75	-2.3729	-2.2062	-2.8604	-2.0417	-2.5687	393.010	356.194	126.032	393.301	379.379	342.187	378.044	395.995	342.308	436.379	409.142	223.694	124.943	420.826	287.345	283.156	0.0012817	0.00053431	0.00014451	1418.5	9.0275e-06	5.6146e-06	1328.5	500.21	7.6245e-06	9.9814e-06	498.82	167.72	154.94	52.818	3.944e-06	55.889	0.0011985	0.0012814	0.00035642	1296.4	1.3379e-05	1.3954e-05	1212.5	457.88	1.3621e-05	1.403e-05	456.88	153.15	142.86	49.064	1.4021e-05	51.871	316.039	138.105	245.152	116.049	237.773	285.415	115.507	121.238	249.029	252.413	118.948	123.268	125.403	129.769	224.991	126.388	-8191	255	
13449.636	1	1	0	0	0.25491	0.066014	0.25622	0.22159	0.070687	0.14447	0.26595	0.055904	0.11503	0.14035	0.22572	0.1899	0.13417	0.23033	0.084397	0.23784	-2.2167	-1.9604	-2.7208	-2.5938	-2.0708	-2.675	-2.3667	-2.5438	-2.8771	-2.0312	-2.7625	-2.5333	-2.1833	-2.7062	-2.1792	-2.3396	252.625	129.638	314.490	445.647	321.611	206.574	403.308	460.713	299.270	316.325	429.219	428.245	336.816	131.182	457.635	452.963	0.0013884	0.00095133	0.0002217	1417	6.8757e-06	1.234e-05	1328.5	500.6	8.5158e-06	8.4799e-06	494.31	167.04	156.24	53.013	4.1691e-06	55.873	0.0012045	0.001282	0.00035414	1296.9	1.364e-05	1.4101e-05	1213.9	458.08	1.3422e-05	1.3759e-05	456.79	153.02	142.95	49.168	1.3912e-05	51.978	315.878	225.526	183.194	115.374	226.267	292.221	115.063	120.946	286.137	255.712	119.335	123.913	126.383	130.511	172.278	126.506	-8191	255	
13449.733	1	1	0	0	0.13302	0.16804	0.014511	0.13738	0.20972	0.042444	0.24173	0.21754	0.097745	0.16286	0.15061	0.091977	0.11287	0.068366	0.34658	0.39925	-2.35	-2.1688	-2.4542	-2.7938	-2.0167	-2.5833	-2.3542	-2.3292	-2.5646	-1.9	-2.5938	-2.6958	-1.9813	-2.7812	-2.3187	-2.1042	285.929	116.816	304.499	365.782	127.671	277.894	396.954	401.364	264.250	226.151	427.927	292.643	351.416	242.643	410.649	155.607	0.0013527	0.00071306	0.00020473	1420	1.5896e-05	3.1055e-06	1336.2	499.45	1.1976e-05	9.6651e-07	496.46	166.76	155.94	52.66	1.0403e-05	56.051	0.0011955	0.001283	0.00037121	1299.8	1.3674e-05	1.4068e-05	1217	457.28	1.3854e-05	1.4686e-05	456.62	152.86	142.8	48.83	1.4334e-05	51.821	314.875	187.359	163.419	115.983	236.940	282.401	115.539	120.749	236.037	307.531	119.062	123.450	125.633	130.539	238.120	126.792	-8191	255	
13449.853	1	1	0	0	0.21619	0.095635	0.14828	0.2098	0.17503	0.12065	0.27528	0.058377	0.26556	0.18374	0.35895	0.32729	0.060611	0.35788	0.11977	0.16342	-2.225	-2.0208	-2.1875	-2.7771	-1.9813	-2.5563	-2.6979	-2.1833	-2.7167	-2.125	-2.4062	-2.6583	-2.0375	-2.6521	-2.5208	-2.1646	354.175	234.729	218.335	361.625	158.182	196.553	429.520	438.777	110.387	279.169	406.717	112.230	225.862	419.493	123.197	420.230	0.0014785	0.00093136	0.00017865	1419.9	1.7917e-05	1.0342e-05	1331.1	500.68	1.0083e-05	8.4849e-06	497.61	168.3	157.87	53.713	8.0921e-06	56.771	0.0012267	0.001291	0.00037323	1299.3	1.4182e-05	1.4356e-05	1218	459.58	1.3891e-05	1.4645e-05	459.01	154.61	144.99	49.819	1.4738e-05	52.614	319.166	201.693	211.802	115.657	239.550	217.335	114.783	120.666	301.038	239.195	118.588	122.722	125.016	129.585	267.287	126.428	-8191	255	
13449.949	1	1	0	0	0.21987	0.20823	0.089101	0.11047	0.065221	0.35208	0.34198	0.267	0.1736	0.18402	0.23816	0.31739	0.15112	0.3179	0.14049	0.27133	-2.3021	-2.0479	-2.1063	-2.775	-2.0208	-2.5646	-2.5187	-2.1021	-2.6771	-2.1063	-2.2729	-2.825	-2.05	-2.6958	-2.5125	-2.0583	422.833	311.018	273.450	121.741	201.250	102.950	457.460	413.346	340.610	452.517	356.737	457.482	167.491	380.567	289.462	424.416	0.0013322	0.00085151	0.00034311	1418.3	4.842e-06	9.3732e-06	1335.9	501.26	5.1999e-06	8.5836e-06	497.77	169.77	158.98	53.82	1.2442e-05	57.17	0.001252	0.0013669	0.00038823	1302.5	1.4316e-05	1.5079e-05	1217.4	460.19	1.4617e-05	1.5206e-05	458.82	155.64	145.49	49.959	1.5052e-05	52.769	318.087	213.935	170.344	115.065	181.303	257.170	114.596	120.316	300.193	197.433	118.573	123.212	125.581	129.877	268.679	126.563	-8191	255	
13450.046	1	1	0	0	0.16242	0.1832	0.13475	0.1947	0.29584	0.15238	0.1874	0.37203	0.098552	0.24914	0.027082	0.095634	0.28322	0.17159	0.0353	0.40481	-2.2062	-2.1417	-1.9542	-2.8708	-1.9646	-2.3438	-2.5938	-2.1437	-2.7958	-2.1042	-2.1104	-2.7146	-2.0729	-2.4958	-2.6875	-1.8104	420.163	389.525	391.563	447.436	388.181	247.328	388.488	357.385	422.263	269.027	457.227	347.770	294.958	424.953	128.071	384.507	0.0013365	0.00044215	0.00018908	1417	1.32e-05	5.044e-06	1331.7	500.86	1.3235e-05	3.4852e-06	497.23	168.98	156.94	53.089	6.411e-06	56.134	0.0012827	0.001355	0.00038482	1298.2	1.4387e-05	1.5033e-05	1216.7	459.49	1.4502e-05	1.4771e-05	458.1	154.37	144.15	49.307	1.4743e-05	52.317	317.664	232.185	199.336	116.085	256.583	318.015	115.610	121.001	233.486	275.677	117.996	122.298	124.845	129.429	252.946	126.094	-8191	255	
13450.164	1	1	0	0	0.37377	0.21443	0.18933	0.14703	0.1207	0.15558	0.074747	0.40392	0.19625	0.1284	0.11916	0.2439	0.25228	0.12931	0.066015	0.41792	-2.2188	-2.2458	-1.9833	-2.8042	-2.0833	-2.1896	-2.8229	-2.2229	-2.4729	-2.4458	-2.0417	-2.8708	-2.1042	-2.3667	-2.6104	-2.025	202.341	334.765	225.236	408.610	134.809	265.554	455.511	411.588	139.806	368.882	435.615	339.873	436.125	454.397	171.465	403.936	0.0013425	0.00048644	0.00014917	1419.1	7.0144e-06	6.9088e-06	1339.5	499.43	2.0246e-05	7.1653e-06	496.95	166.73	155.58	52.481	1.104e-05	55.284	0.0012728	0.0013849	0.00037918	1299.2	1.4316e-05	1.5062e-05	1219.1	458.58	1.4336e-05	1.4857e-05	457.6	152.98	142.59	48.683	1.4563e-05	51.549	319.445	182.641	174.573	115.170	230.865	244.165	114.701	120.367	271.922	220.562	118.478	123.510	125.220	129.642	264.432	126.668	-8191	255	
13450.236	1	1	0	0	0.22662	0.095599	0.40879	0.071927	0.091693	0.1846	0.14449	0.21325	0.19309	0.13607	0.25439	0.19433	0.17784	0.10867	0.089162	0.12461	-2.0646	-2.3688	-1.9979	-2.9313	-2.3083	-2.1937	-2.8521	-2.3083	-2.3438	-2.4313	-2.1813	-2.9083	-2.2938	-2.2292	-2.7229	-2.1271	302.570	195.594	126.504	450.809	299.396	304.203	369.244	461.645	417.854	165.382	142.967	385.089	421.129	413.777	446.712	147.237	0.0014779	0.001031	0.00017613	1422.9	6.1633e-06	1.15e-05	1329.4	496.51	1.3143e-05	5.3382e-06	496.41	165.94	153.7	52.194	5.8425e-06	55.476	0.0012511	0.0013416	0.00036303	1299.2	1.4393e-05	1.4867e-05	1218.1	457.11	1.4637e-05	1.4783e-05	456.59	152.43	142.3	48.658	1.4432e-05	51.53	319.566	178.084	164.257	114.845	249.637	248.497	114.306	119.882	247.810	235.505	117.660	122.305	124.756	128.915	284.484	125.837	-8191	255	
13450.332	1	1	0	0	0.17243	0.090434	0.1081	0.39496	0.19001	0.105	0.14494	0.13321	0.19182	0.1657	0.32832	0.16599	0.18002	0.23835	0.15967	0.28759	-2.0375	-2.4708	-2.1417	-2.7292	-2.2333	-2.0917	-2.8354	-2.2396	-2.3292	-2.5938	-2.0687	-2.8083	-2.3708	-2.2625	-2.6125	-2.3063	303.460	303.876	383.457	456.667	161.582	178.467	378.108	127.149	403.736	151.332	428.697	424.115	124.317	420.683	279.659	453.325	0.0014124	0.00036305	0.00021108	1409	1.6082e-05	4.3553e-06	1324.3	498.41	1.1152e-05	3.9545e-06	494.19	166.39	156.95	52.704	1.5231e-05	55.483	0.0012849	0.0013554	0.00037937	1296.2	1.4313e-05	1.4806e-05	1213.3	456.9	1.4709e-05	1.4729e-05	456.01	152.77	143.29	48.857	1.4433e-05	51.533	325.716	198.634	178.098	114.956	247.002	240.725	114.472	120.435	290.960	202.037	118.631	122.820	125.269	129.889	270.044	126.584	-8191	255	
13450.453	1	1	0	0	0.2165	0.27651	0.15664	0.29758	0.04291	0.14013	0.18244	0.3053	0.23679	0.053006	0.028257	0.3153	0.10562	0.25777	0.08303	0.070303	-1.7354	-2.4833	-1.925	-2.6354	-2.3646	-1.9208	-3.1042	-2.4583	-2.3937	-2.75	-2.0271	-2.4917	-2.4271	-2.2292	-2.6042	-2.3563	274.465	226.875	423.069	106.080	136.403	128.925	379.285	406.332	341.710	348.842	133.158	394.090	102.645	122.249	208.504	431.670	0.0013313	0.00043398	0.00024211	1415.5	1.4209e-05	5.1323e-06	1330.5	497.95	1.1542e-06	4.1534e-06	494.67	165.9	154.91	51.873	6.2509e-06	55.138	0.0012377	0.0013186	0.00038376	1295.3	1.4238e-05	1.4595e-05	1213.7	455.07	1.427e-05	1.4836e-05	454.78	151.98	141.91	48.336	1.4483e-05	51.108	324.363	184.473	185.276	115.506	284.724	279.364	114.096	120.617	309.320	281.832	118.641	122.716	125.820	129.760	287.312	126.257	-8191	255	
13450.549	1	1	0	0	0.20787	0.062319	0.11294	0.12477	0.14253	0.21062	0.044775	0.13645	0.11358	0.18137	0.13677	0.16086	0.12678	0.27607	0.19693	0.14208	-1.6896	-2.4771	-2.0438	-2.5563	-2.4896	-2.0958	-2.7479	-2.4125	-2.1521	-2.7104	-2.1458	-2.525	-2.6083	-2.1479	-2.6562	-2.3688	191.312	106.931	373.337	432.028	274.054	324.099	277.618	112.717	106.493	253.134	423.202	390.026	115.623	457.396	396.253	408.935	0.0012492	0.00087861	0.00018784	1420.3	5.4735e-06	2.5353e-06	1326.4	496.75	1.1971e-05	7.5723e-06	494.65	164.75	154.83	51.565	6.8081e-06	54.877	0.00123	0.0012874	0.00036937	1299.2	1.3928e-05	1.425e-05	1215.2	454.83	1.4249e-05	1.449e-05	455.25	151.3	141.67	48.037	1.4414e-05	51.095	326.418	197.710	166.713	115.248	248.963	213.917	114.696	120.110	263.670	236.355	118.546	123.167	125.233	129.925	254.231	126.869	-8191	255	
13450.645	1	1	0	0	0.20446	0.26496	0.27372	0.20085	0.36173	0.24647	0.096556	0.14138	0.1243	0.020768	0.36225	0.34223	0.22617	0.26604	0.29476	0.092863	-1.7667	-2.7604	-1.9688	-2.5479	-2.6125	-1.9542	-2.7833	-2.5458	-1.9042	-2.7667	-2.2979	-2.5875	-2.7917	-2.1688	-2.5875	-2.5812	167.652	446.687	375.174	449.259	434.619	141.608	317.162	154.759	171.163	459.570	408.494	124.300	149.403	440.661	138.371	386.693	0.0013918	0.00051429	0.00018902	1415.9	9.3425e-06	3.8981e-06	1334.1	494.36	1.8107e-05	1.1271e-05	489.19	163.36	153.53	51.522	7.0071e-06	54.343	0.0012584	0.0013206	0.00036828	1296.2	1.4011e-05	1.4368e-05	1216.6	454.15	1.4029e-05	1.4609e-05	452.98	150.82	141.36	47.986	1.4554e-05	50.794	321.435	172.902	219.831	115.575	234.424	263.696	115.307	121.373	303.887	249.995	120.248	124.754	127.185	131.318	291.444	128.217	-8191	255	
13450.741	1	1	0	0	0.067757	0.13213	0.2039	0.22713	0.074192	0.18078	0.17785	0.36547	0.13353	0.040589	0.30483	0.3467	0.21661	0.10412	0.035731	0.12769	-1.8083	-2.7542	-2.1854	-2.3792	-2.6667	-2.0583	-2.6958	-2.6979	-2.2042	-2.6813	-2.1167	-2.325	-2.8771	-2.0333	-2.5458	-2.4958	140.314	213.219	427.076	378.525	343.509	174.679	370.138	434.473	355.520	252.524	133.626	396.976	304.319	203.176	408.614	126.906	0.0012696	0.00064627	9.8269e-05	1413.5	1.2087e-05	6.075e-06	1329.2	497.72	1.4425e-05	5.4857e-06	498.02	165.32	155.79	52.155	1.0215e-05	54.893	0.0012273	0.0013165	0.00037874	1292	1.4253e-05	1.4609e-05	1212.3	454.76	1.4371e-05	1.4637e-05	455.48	151.85	142.29	48.387	1.4655e-05	51.077	325.906	183.133	207.825	115.620	237.658	231.826	115.237	121.014	277.370	251.925	119.234	123.361	126.038	130.501	252.267	127.466	-8191	255	
13450.837	1	1	0	0	0.066923	0.15083	0.42791	0.31036	0.32904	0.15835	0.14801	0.16372	0.35703	0.21333	0.33386	0.14441	0.15701	0.05635	0.23354	0.12805	-1.6	-2.5271	-2.1667	-2.25	-2.8042	-1.9229	-2.4896	-2.7208	-1.9833	-2.8021	-2.4333	-2.0479	-2.7458	-2.2521	-2.3354	-2.75	248.041	150.672	398.359	141.607	425.481	279.221	447.385	443.616	270.587	193.956	453.463	442.671	155.747	410.625	228.230	308.314	0.0012708	0.00062143	0.00018522	1412.6	9.4353e-06	7.0993e-06	1326.6	495.44	1.2006e-05	5.3658e-06	495.19	165.6	153.69	51.724	5.8509e-06	55.285	0.0012332	0.0013343	0.00035518	1293.6	1.4107e-05	1.4663e-05	1215	454.5	1.4058e-05	1.4516e-05	455.29	151.66	141.42	48.2	1.4354e-05	51.236	321.601	218.718	221.622	115.957	237.953	281.492	114.596	121.063	268.459	219.851	119.007	123.374	125.772	129.723	302.707	126.354	-8191	255	
13450.934	1	1	0	0	0.15948	0.043847	0.1739	0.42773	0.066996	0.19963	0.087311	0.34843	0.29693	0.066927	0.34354	0.12933	0.09019	0.39722	0.015305	0.019832	-1.6604	-2.5604	-2.3979	-2.2958	-2.6104	-2.2333	-2.4938	-2.8583	-2.0917	-2.5917	-2.5438	-2.1937	-2.7833	-2.0833	-2.0604	-2.7812	408.889	384.278	269.465	395.180	191.851	190.644	135.527	381.561	178.818	137.374	133.788	117.797	364.734	447.955	249.795	338.312	0.0012539	0.00068817	0.00018935	1409.1	1.4101e-05	6.8915e-06	1335.9	495.07	1.3686e-05	4.5009e-06	494.9	165.24	153.65	51.898	5.9485e-06	55.182	0.0012268	0.0013264	0.00037463	1292.4	1.4129e-05	1.482e-05	1219.2	453.18	1.4015e-05	1.4865e-05	455.76	151.52	141.01	48.112	1.4551e-05	51.271	318.270	161.310	223.247	115.130	256.201	256.243	113.904	119.845	315.309	240.157	118.298	123.004	125.804	130.178	254.485	127.022	-8191	255	
13451.030	1	1	0	0	0.22933	0.068485	0.04346	0.32727	0.12763	0.13537	0.13512	0.18248	0.44592	0.066315	0.13562	0.064734	0.14096	0.28875	0.029628	0.12329	-1.6021	-2.4167	-2.4333	-2.2	-2.6396	-2.3292	-2.3708	-2.8229	-2.1042	-2.3458	-2.6542	-2.1542	-2.8583	-2.4271	-2.0875	-2.7854	370.224	136.855	178.741	403.016	197.160	406.670	397.496	401.696	372.082	300.591	419.174	284.854	375.033	400.793	187.170	440.987	0.0011575	0.00035977	0.00023346	1417.2	7.0505e-06	6.3036e-06	1330.7	495.19	8.9635e-06	7.5276e-06	494.65	165.42	154.4	52.015	9.3724e-06	55.111	0.0012508	0.0013376	0.00037736	1293.7	1.4236e-05	1.4812e-05	1216.5	454.4	1.4527e-05	1.489e-05	455.67	151.66	141.58	48.269	1.448e-05	51.206	314.807	231.858	214.742	115.440	248.920	259.002	115.061	121.404	318.271	233.457	119.220	123.636	125.745	130.433	246.359	127.527	-8191	255	
13451.126	1	1	0	0	0.22709	0.27264	0.051581	0.35707	0.082838	0.07752	0.039552	0.34828	0.1715	0.096655	0.062719	0.2459	0.072954	0.23799	0.28022	0.070348	-1.6146	-2.2896	-2.5458	-2.2208	-2.5625	-2.4458	-2.4083	-2.8812	-2.1	-2.55	-2.8458	-2.1354	-2.7458	-2.7896	-2.0604	-2.8854	228.148	402.349	327.898	462.574	420.782	232.879	150.850	411.980	326.966	173.963	392.252	152.925	158.816	155.431	237.046	412.892	0.0013057	0.0005791	0.00024718	1415.5	5.3204e-06	6.3503e-06	1332.4	496.65	2.0795e-05	8.8484e-06	498.19	166.35	154.64	52.078	1.8407e-05	55.32	0.001265	0.0013251	0.00037288	1293.8	1.4226e-05	1.4955e-05	1214.2	454.44	1.436e-05	1.4891e-05	456.19	152.08	141.71	48.361	1.4448e-05	51.138	318.760	211.015	235.807	116.302	145.992	257.747	115.025	121.326	288.476	289.225	119.843	123.889	126.608	131.318	273.106	128.103	-8191	255	
13451.245	1	1	0	0	0.11023	0.18957	0.14571	0.26284	0.19966	0.25664	0.26596	0.15895	0.41611	0.063638	0.20319	0.29168	0.061825	0.10384	0.0997	0.15871	-1.7833	-2.2604	-2.6667	-2.3125	-2.6667	-2.3167	-2.4604	-2.7687	-2.1437	-2.2792	-2.8042	-2.2375	-2.6562	-2.6667	-1.9354	-2.8604	350.159	119.206	266.259	381.095	433.387	422.833	394.257	436.070	386.219	231.124	106.847	457.529	300.536	124.334	336.325	204.711	0.0012708	0.00091388	0.00023434	1410.3	7.5511e-06	7.4738e-06	1331.2	497.36	1.3891e-05	7.6698e-06	493.77	165.68	153.11	51.808	9.7219e-06	55.125	0.0012467	0.0013448	0.00036763	1292	1.3868e-05	1.4717e-05	1215.9	453.97	1.4287e-05	1.4616e-05	454.77	151.5	140.48	48.06	1.3885e-05	51.151	315.956	213.934	224.662	116.756	253.853	281.923	115.281	121.116	271.664	237.818	119.297	124.022	126.420	131.143	250.868	128.329	-8191	255	
13451.341	1	1	0	0	0.08942	0.2281	0.15205	0.31241	0.15916	0.084204	0.16326	0.3748	0.1845	0.2041	0.39681	0.19382	0.18828	0.35915	0.14569	0.096694	-1.7854	-2.0833	-2.6979	-2.2167	-2.3563	-2.5083	-2.25	-2.8167	-2.2625	-2.0771	-2.8563	-2.2542	-2.425	-2.6667	-1.8729	-2.5354	183.275	198.972	410.708	402.252	422.282	157.026	387.565	376.055	208.991	160.271	427.865	121.538	235.080	134.574	441.660	309.294	0.0013913	0.00087544	0.00030714	1410.8	1.2798e-05	2.3904e-06	1332.9	493.42	1.5787e-05	7.1021e-06	501.69	165.47	152.83	51.669	1.0177e-05	55.35	0.0012225	0.0013015	0.00037289	1291.6	1.4127e-05	1.4463e-05	1217.8	453	1.4084e-05	1.4218e-05	457.44	151.87	140.61	47.986	1.4104e-05	51.26	321.987	209.567	214.816	116.938	263.329	271.411	115.982	121.947	252.173	227.816	118.466	122.826	125.121	129.598	270.766	126.119	-8191	255	
13451.414	1	1	0	0	0.15673	0.15722	0.15279	0.18835	0.21293	0.16804	0.16082	0.30672	0.16162	0.086078	0.22145	0.22175	0.25915	0.11095	0.022743	0.38495	-1.9708	-1.9833	-2.6833	-2.2562	-2.2958	-2.4188	-2.2125	-2.6937	-2.5479	-2.1042	-2.9708	-2.225	-2.4562	-2.7062	-1.8021	-2.575	411.995	225.335	368.736	442.214	164.554	162.086	453.447	396.134	155.337	251.493	349.973	387.166	454.206	326.080	322.448	383.157	0.0016161	0.00054852	0.00018251	1414.8	8.1116e-06	5.0712e-06	1336.3	493.96	1.2293e-05	8.437e-06	496.58	163.6	152.12	51.133	1.6533e-05	54.853	0.00124	0.0013083	0.0003657	1293.9	1.391e-05	1.4293e-05	1218	452.33	1.4128e-05	1.3914e-05	455.12	150.57	139.43	47.403	1.4201e-05	50.542	318.264	213.440	194.430	115.189	257.415	223.476	114.368	120.258	306.094	257.006	118.261	123.101	125.254	130.438	272.100	127.281	-8191	255	
13451.533	1	1	0	0	0.245	0.22785	0.13811	0.30155	0.3053	0.17551	0.12237	0.38953	0.33071	0.21617	0.13045	0.19586	0.38246	0.36239	0.24959	0.28152	-1.9854	-1.8937	-2.7833	-2.3958	-2.3583	-2.675	-2.3	-2.7458	-2.4417	-2.2021	-2.8729	-2.4958	-2.2229	-2.9688	-1.9813	-2.5563	427.612	240.587	197.859	399.987	387.071	294.139	372.049	387.575	167.888	399.838	363.997	374.947	118.839	433.033	176.314	407.792	0.0013255	0.00043892	0.00025944	1410.3	9.9262e-06	4.0229e-06	1327.2	491.22	6.5877e-06	8.0257e-06	492.12	164	151.87	50.545	2.9531e-06	53.747	0.0012249	0.0012962	0.00035771	1291.6	1.3712e-05	1.3911e-05	1211.8	449.9	1.3765e-05	1.3822e-05	452.24	150.01	138.97	47.05	1.3529e-05	49.98	319.999	179.947	142.498	115.989	252.248	272.878	114.457	120.595	215.774	244.631	118.705	123.486	125.969	130.305	338.313	127.074	-8191	255	
13451.629	1	1	0	0	0.24061	0.28856	0.38736	0.09205	0.11238	0.19055	0.38317	0.31651	0.12908	0.18744	0.18119	0.51717	0.21709	0.13388	0.19096	0.13514	-2.0917	-2.0958	-2.7521	-2.3104	-2.2042	-2.7521	-2.3937	-2.4813	-2.6333	-1.9792	-2.625	-2.4125	-2.1937	-2.6833	-1.9813	-2.3646	454.421	462.124	313.503	423.772	333.585	152.371	416.838	401.894	187.795	350.853	422.641	108.908	363.727	382.048	129.672	405.742	0.0012472	0.00071153	0.00016524	1403.8	1.1183e-05	4.2973e-06	1334.5	492.25	7.0814e-06	5.3464e-06	490.19	161.93	149.87	50.146	1.5895e-06	53.008	0.0011959	0.0012458	0.00034672	1285	1.3423e-05	1.3611e-05	1213.4	448.01	1.3367e-05	1.3502e-05	450.17	148.34	137.37	46.546	1.3307e-05	49.443	319.563	184.144	207.466	116.123	232.952	275.280	114.916	121.079	268.821	272.742	118.873	123.756	125.803	130.043	336.349	126.930	-8191	255	
13451.726	1	1	0	0	0.22278	0.28627	0.010079	0.12186	0.092169	0.10807	0.11073	0.34315	0.12785	0.31605	0.14871	0.28286	0.023988	0.27111	0.091558	0.28082	-2.0646	-1.7667	-2.3646	-2.5646	-1.9375	-2.7875	-2.2125	-2.3708	-2.6646	-1.8667	-2.6271	-2.5833	-2.0021	-2.7938	-2.2021	-2.3563	111.345	158.378	153.586	412.066	347.767	372.384	387.570	427.854	345.116	455.052	109.782	388.510	298.686	461.394	259.441	387.212	0.0012426	0.00062288	0.00016809	1409	1.3702e-05	9.7038e-06	1331.1	487.88	1.9628e-05	4.0038e-06	489.17	161.65	148.71	49.571	7.6254e-06	52.855	0.0011485	0.00123	0.00035075	1285.7	1.2563e-05	1.3385e-05	1214.1	445.45	1.3237e-05	1.3378e-05	448.91	147.56	136.33	46.075	1.3021e-05	48.967	326.412	176.744	182.057	116.100	244.619	265.342	114.948	120.808	291.662	273.030	119.209	123.808	125.972	130.204	309.878	126.213	-8191	255	
13451.846	1	1	0	0	0.40293	0.10019	0.10982	0.18862	0.17992	0.080704	0.37703	0.33859	0.092935	0.037919	0.33307	0.17359	0.17765	0.11447	0.10829	0.30161	-2.15	-2.0104	-2.2146	-2.5958	-2.0438	-2.675	-2.3146	-2.1229	-2.6458	-1.6562	-2.4729	-2.6396	-2.1083	-2.7604	-2.2562	-2.1354	385.976	355.482	367.987	408.818	139.231	193.969	390.680	455.433	106.140	243.302	417.001	104.863	278.612	339.228	197.942	449.094	0.0013319	0.00060468	7.6648e-05	1409.3	1.5027e-05	8.1462e-06	1317.1	486.47	1.3089e-05	5.9231e-06	488.54	160.91	149.97	50.331	4.6742e-06	53.369	0.0011529	0.0012221	0.00034438	1286.4	1.294e-05	1.2927e-05	1205.7	446.08	1.3008e-05	1.3276e-05	448.6	147.64	137.21	46.55	1.3475e-05	49.308	321.795	178.334	186.399	115.308	252.407	175.324	114.567	120.286	281.746	226.316	118.295	123.248	125.385	129.534	257.829	126.619	-8191	255	
13451.942	1	1	0	0	0.099391	0.12032	0.17447	0.12315	0.17754	0.2267	0.25796	0.034135	0.021419	0.14177	0.11596	0.33497	0.34999	0.067961	0.19703	0.20155	-2.2146	-2.0438	-2.2083	-2.7667	-1.9083	-2.6417	-2.4708	-2.2021	-2.7667	-2.0646	-2.4375	-2.7667	-1.9083	-2.6688	-2.4229	-2.125	391.331	339.455	372.394	133.531	271.218	147.651	407.313	435.871	338.618	420.856	257.860	438.682	107.082	377.708	111.064	136.050	0.0012582	0.00067343	0.00025633	1399.3	1.6127e-05	1.1452e-06	1317	489.43	1.5406e-05	8.681e-06	488.24	163.38	151.07	50.462	7.2189e-06	53.663	0.0011337	0.0012266	0.0003389	1283.3	1.3065e-05	1.338e-05	1207.2	448.07	1.3069e-05	1.3528e-05	448.58	149.05	138.34	46.927	1.3167e-05	49.788	323.696	159.352	226.456	115.348	231.060	128.888	114.276	120.304	281.804	265.969	118.319	123.285	125.135	129.630	236.873	126.504	-8191	255	
13452.038	1	1	0	0	0.25889	0.28092	0.2268	0.18807	0.12511	0.30029	0.16272	0.39763	0.20955	0.069918	0.21712	0.29711	0.33056	0.13898	0.24277	0.094079	-2.2812	-2.0396	-2.0604	-2.7562	-2.0271	-2.5396	-2.6542	-1.9688	-2.6396	-2.2083	-2.3937	-2.9521	-2.1375	-2.5687	-2.5229	-2.2083	229.899	150.691	451.950	382.527	435.804	104.725	338.298	428.504	174.705	291.192	381.790	441.419	200.884	402.704	227.438	410.867	0.0013445	0.00064498	0.00019543	1403.5	6.4548e-06	2.0352e-06	1331.2	488.56	1.1471e-05	5.0823e-06	490.35	162.87	150.53	50.995	6.2452e-06	54.196	0.0011465	0.0012517	0.00034987	1282.2	1.3062e-05	1.3802e-05	1210.5	448.19	1.3201e-05	1.3414e-05	451.12	149.59	138.11	47.15	1.3353e-05	50.223	322.689	230.858	244.874	115.442	275.421	128.544	115.541	121.273	276.250	235.028	118.960	123.635	126.154	130.520	280.620	127.338	-8191	255	
13452.135	1	1	0	0	0.038823	0.11686	0.31043	0.47192	0.1519	0.31311	0.039617	0.29183	0.24861	0.18889	0.0072779	0.20421	0.09751	0.212	0.11326	0.11228	-2.1917	-2.3063	-2.0625	-2.9062	-2.0875	-2.4146	-2.6312	-2.3979	-2.6562	-2.3292	-2.1771	-2.9333	-2.2542	-2.3937	-2.7021	-2.1542	135.177	412.581	160.882	405.524	342.146	185.778	207.636	378.050	280.564	146.257	150.870	215.500	214.356	450.209	104.381	356.128	0.0013385	0.00018915	0.00025031	1405.9	4.8909e-06	7.8544e-06	1333.8	488.46	1.5054e-05	5.0982e-06	491.87	165.06	151.07	50.499	9.6481e-06	54.027	0.0011559	0.0012464	0.00034604	1284	1.2969e-05	1.3703e-05	1217.7	447.53	1.3201e-05	1.3501e-05	452.1	150.04	138.04	46.974	1.3319e-05	50.175	320.614	208.036	216.333	116.506	228.123	275.064	115.535	121.583	302.523	281.268	119.548	124.238	126.430	130.612	246.662	127.472	-8191	255	
13452.229	1	1	0	0	0.072206	0.21941	0.21013	0.039608	0.24572	0.18447	0.024781	0.1591	0.14424	0.2715	0.16062	0.066947	0.10305	0.21042	0.086039	0.18018	-2.0417	-2.325	-2.1292	-2.825	-2.1625	-2.2146	-2.7271	-2.2729	-2.7417	-2.4771	-2.0396	-2.7313	-2.2104	-2.2812	-2.6604	-1.9979	416.532	159.989	327.504	145.121	196.145	138.198	354.732	441.694	156.230	233.334	111.891	433.747	462.466	396.037	305.502	371.161	0.0012552	0.00016028	0.00010699	1405	6.4426e-06	5.2849e-06	1333.6	489.82	1.9247e-05	4.6191e-06	491.37	164.21	152.19	50.707	2.6655e-06	53.806	0.0011623	0.0012688	0.00034337	1283.2	1.3288e-05	1.3899e-05	1215.8	448.29	1.3734e-05	1.3778e-05	452.2	149.73	138.62	47.027	1.3657e-05	49.993	316.161	218.901	201.713	116.755	216.082	202.816	115.548	121.396	286.411	244.434	119.177	123.597	126.294	130.197	217.748	127.054	-8191	255	
13452.325	1	1	0	0	0.1078	0.22305	0.099974	0.27905	0.035469	0.12468	0.096266	0.33744	0.067825	0.15673	0.12299	0.24312	0.13649	0.014885	0.11046	0.13602	-2.1521	-2.5333	-2.0438	-2.8187	-2.0875	-2.4229	-2.7771	-2.175	-2.3542	-2.5583	-2.1667	-2.7729	-2.3042	-2.3792	-2.6229	-2.2188	201.921	324.788	302.169	380.327	417.094	145.234	282.291	105.772	333.054	319.780	444.746	428.959	377.506	238.053	346.196	354.205	0.0012839	0.00076172	0.00019903	1402.2	7.6793e-06	6.5885e-06	1331.4	490.22	1.5552e-05	6.186e-06	492.27	164.94	150.7	50.638	4.6893e-06	54.207	0.0011951	0.0012778	0.00034846	1281.6	1.3285e-05	1.4024e-05	1210.9	448.04	1.3587e-05	1.4093e-05	451.36	150.31	138.55	47.089	1.3222e-05	50.181	313.650	209.697	193.469	116.320	216.848	248.639	115.255	120.876	278.653	210.388	119.030	123.896	126.071	130.203	269.721	127.128	-8191	255	
#DATA ENDS
