BOXY.EXE: ISS Imagent and Oximeter Data Acquisition Program Version 0.80
Ascii Record File

#ACQ INFORMATION
2  Detector Channels 
16  External MUX Channels 
1  Auxiliary Channels 
5000  Waveform (CCF) Frequency (Hz)
1  Waveforms Skipped 
30  Waveforms Averaged 
1  Cycles Averaged 
16  Acquisitions per Waveform 
10.0806  Updata Rate (Hz) 

#FILE INFORMATION
TRUE -- External MUX Channel results are PARSED.
FALSE -- AC DC and Phase are NOT grouped.
TRUE -- Companion Program Settings File CREATED.
FALSE -- AC data not excluded
FALSE -- DC data not excluded
FALSE -- Phase data not excluded
FALSE -- Auxillary Chn. data not excluded
Tab delimiters

#CALIBRATION STATE
TRUE -- Waveform Calibration Values APPLIED.


#AUX CALIBRATION VALUES
Val Type	aux-1	

Term	1.0000e+00	
Factor	0.0000e+00	


#WF CALIBRATION VALUES
A = Detector Channel
Val Type	A-AC1	A-AC2	A-AC3	A-AC4	A-AC5	A-AC6	A-AC7	A-AC8	A-AC9	A-AC10	A-AC11	A-AC12	A-AC13	A-AC14	A-AC15	A-AC16	A-DC1	A-DC2	A-DC3	A-DC4	A-DC5	A-DC6	A-DC7	A-DC8	A-DC9	A-DC10	A-DC11	A-DC12	A-DC13	A-DC14	A-DC15	A-DC16	A-Ph1	A-Ph2	A-Ph3	A-Ph4	A-Ph5	A-Ph6	A-Ph7	A-Ph8	A-Ph9	A-Ph10	A-Ph11	A-Ph12	A-Ph13	A-Ph14	A-Ph15	A-Ph16	

Term	0.00000e+00	0.00000e+00	0.00000e+00	0.00000e+00	0.00000e+00	0.00000e+00	0.00000e+00	0.00000e+00	0.00000e+00	0.00000e+00	0.00000e+00	0.00000e+00	0.00000e+00	0.00000e+00	0.00000e+00	0.00000e+00	0.00000e+00	0.00000e+00	0.00000e+00	0.00000e+00	0.00000e+00	0.00000e+00	0.00000e+00	0.00000e+00	0.00000e+00	0.00000e+00	0.00000e+00	0.00000e+00	0.00000e+00	0.00000e+00	0.00000e+00	0.00000e+00	0.00000e+00	0.00000e+00	0.00000e+00	0.00000e+00	0.00000e+00	0.00000e+00	0.00000e+00	0.00000e+00	0.00000e+00	0.00000e+00	0.00000e+00	0.00000e+00	0.00000e+00	0.00000e+00	0.00000e+00	0.00000e+00	
Factor	1.00000e+00	1.00000e+00	1.00000e+00	1.00000e+00	1.00000e+00	1.00000e+00	1.00000e+00	1.00000e+00	1.00000e+00	1.00000e+00	1.00000e+00	1.00000e+00	1.00000e+00	1.00000e+00	1.00000e+00	1.00000e+00	1.00000e+00	1.00000e+00	1.00000e+00	1.00000e+00	1.00000e+00	1.00000e+00	1.00000e+00	1.00000e+00	1.00000e+00	1.00000e+00	1.00000e+00	1.00000e+00	1.00000e+00	1.00000e+00	1.00000e+00	1.00000e+00	X	X	X	X	X	X	X	X	X	X	X	X	X	X	X	X	

B = Detector Channel
Val Type	B-AC1	B-AC2	B-AC3	B-AC4	B-AC5	B-AC6	B-AC7	B-AC8	B-AC9	B-AC10	B-AC11	B-AC12	B-AC13	B-AC14	B-AC15	B-AC16	B-DC1	B-DC2	B-DC3	B-DC4	B-DC5	B-DC6	B-DC7	B-DC8	B-DC9	B-DC10	B-DC11	B-DC12	B-DC13	B-DC14	B-DC15	B-DC16	B-Ph1	B-Ph2	B-Ph3	B-Ph4	B-Ph5	B-Ph6	B-Ph7	B-Ph8	B-Ph9	B-Ph10	B-Ph11	B-Ph12	B-Ph13	B-Ph14	B-Ph15	B-Ph16	

Term	0.00000e+00	0.00000e+00	0.00000e+00	0.00000e+00	0.00000e+00	0.00000e+00	0.00000e+00	0.00000e+00	0.00000e+00	0.00000e+00	0.00000e+00	0.00000e+00	0.00000e+00	0.00000e+00	0.00000e+00	0.00000e+00	0.00000e+00	0.00000e+00	0.00000e+00	0.00000e+00	0.00000e+00	0.00000e+00	0.00000e+00	0.00000e+00	0.00000e+00	0.00000e+00	0.00000e+00	0.00000e+00	0.00000e+00	0.00000e+00	0.00000e+00	0.00000e+00	1.28517e+01	-1.29853e+02	-1.21677e+02	-1.83139e+02	-6.87604e+01	-6.58281e+01	-1.58786e+02	-1.62015e+02	-3.78925e+01	-6.62887e+01	-1.74618e+02	-1.69957e+02	-1.81837e+02	-1.77561e+02	-6.52837e+01	-1.50666e+02	
Factor	4.19535e-05	1.47765e-04	4.14717e-05	1.57738e-01	1.79528e-06	1.54020e-06	1.56161e-01	5.11438e-02	2.10370e-06	1.42995e-06	8.44469e-02	2.60920e-02	3.29983e-02	8.55630e-03	1.62642e-06	1.22491e-02	7.88855e-06	9.80151e-06	2.73652e-06	8.23762e-02	1.02511e-07	1.08110e-07	7.62380e-02	2.67946e-02	1.02899e-07	1.07992e-07	4.29504e-02	1.32841e-02	1.72875e-02	4.52344e-03	1.05122e-07	6.26707e-03	X	X	X	X	X	X	X	X	X	X	X	X	X	X	X	X	



#DISTANCE SETTINGS
A = Detector Channel
A-1	A-2	A-3	A-4	A-5	A-6	A-7	A-8	A-9	A-10	A-11	A-12	A-13	A-14	A-15	A-16	

2.5000e+00	3.0000e+00	2.5000e+00	3.0000e+00	2.0000e+00	3.0000e+00	1.5000e+00	3.0000e+00	3.0000e+00	3.0000e+00	3.0000e+00	3.0000e+00	3.0000e+00	3.0000e+00	1.5000e+00	3.0000e+00	

B = Detector Channel
B-1	B-2	B-3	B-4	B-5	B-6	B-7	B-8	B-9	B-10	B-11	B-12	B-13	B-14	B-15	B-16	

1.0000e+01	1.0000e+01	1.0000e+01	1.4400e+00	1.0000e+01	1.0000e+01	1.5100e+00	1.9400e+00	1.0000e+01	1.0000e+01	1.9900e+00	2.4900e+00	2.4100e+00	2.9000e+00	1.0000e+01	2.9800e+00	




#DATA BEGINS
time	group	step	mark	flag	A-AC1	A-AC2	A-AC3	A-AC4	A-AC5	A-AC6	A-AC7	A-AC8	A-AC9	A-AC10	A-AC11	A-AC12	A-AC13	A-AC14	A-AC15	A-AC16	A-DC1	A-DC2	A-DC3	A-DC4	A-DC5	A-DC6	A-DC7	A-DC8	A-DC9	A-DC10	A-DC11	A-DC12	A-DC13	A-DC14	A-DC15	A-DC16	A-Ph1	A-Ph2	A-Ph3	A-Ph4	A-Ph5	A-Ph6	A-Ph7	A-Ph8	A-Ph9	A-Ph10	A-Ph11	A-Ph12	A-Ph13	A-Ph14	A-Ph15	A-Ph16	B-AC1	B-AC2	B-AC3	B-AC4	B-AC5	B-AC6	B-AC7	B-AC8	B-AC9	B-AC10	B-AC11	B-AC12	B-AC13	B-AC14	B-AC15	B-AC16	B-DC1	B-DC2	B-DC3	B-DC4	B-DC5	B-DC6	B-DC7	B-DC8	B-DC9	B-DC10	B-DC11	B-DC12	B-DC13	B-DC14	B-DC15	B-DC16	B-Ph1	B-Ph2	B-Ph3	B-Ph4	B-Ph5	B-Ph6	B-Ph7	B-Ph8	B-Ph9	B-Ph10	B-Ph11	B-Ph12	B-Ph13	B-Ph14	B-Ph15	B-Ph16	aux-1	digaux	

13370.769	1	1	0	512	0.37165	0.16804	0.051503	0.21583	0.16282	0.2437	0.29765	0.34653	0.11891	0.11586	0.10958	0.22385	0.27974	0.16347	0.067356	0.42698	-2.5396	-2.5062	-2.5208	-2.9792	-2.2146	-2.6937	-2.9229	-2.5271	-2.9	-2.5896	-2.6146	-2.9771	-2.3063	-2.8792	-2.9333	-2.3958	327.174	269.793	450.403	113.379	218.928	387.753	451.474	383.403	266.621	114.607	406.068	374.548	445.054	410.816	292.051	414.781	0.0016266	0.0007159	0.00014297	1295.9	1.2432e-05	5.0602e-06	1179.9	527.9	5.8759e-06	7.9461e-06	496.06	186.74	189.35	71.847	9.5442e-06	73.955	0.0013534	0.001383	0.00039546	1190.9	1.4533e-05	1.5521e-05	1077.5	484.44	1.4727e-05	1.5193e-05	457.18	171.25	174.08	66.946	1.5225e-05	68.698	319.475	218.267	167.745	116.038	223.871	260.393	114.910	120.649	317.051	269.546	118.505	122.700	125.408	129.593	267.359	125.725	-8191	255	
13370.842	1	1	0	0	0.23617	0.10575	0.088989	0.46616	0.2511	0.10113	0.39574	0.23961	0.18992	0.061589	0.25331	0.23084	0.13354	0.25377	0.19036	0.11222	-2.55	-2.4792	-2.3396	-3.1125	-2.3104	-2.7354	-3.0875	-2.4	-2.7417	-2.5875	-2.6063	-3.0146	-2.475	-2.7854	-2.9042	-2.3187	377.834	401.243	115.000	426.618	160.832	440.393	386.392	451.329	411.149	337.663	427.301	385.051	401.049	392.518	250.181	194.850	0.0017064	0.00080917	0.00046438	1300.9	1.0007e-05	8.9616e-06	1181.3	536.4	1.4743e-05	3.5606e-06	503.01	191.2	192.59	73.711	1.0292e-05	75.791	0.0013696	0.0014271	0.00039225	1192.7	1.4908e-05	1.5524e-05	1077.8	491.11	1.5026e-05	1.5621e-05	462.41	174.38	176.67	68.622	1.5647e-05	70.059	316.338	204.270	193.737	116.104	256.376	258.780	115.742	121.406	273.562	300.470	119.248	123.831	126.469	130.941	281.815	125.503	-8191	255	
13370.961	1	1	0	0	0.017181	0.1418	0.066262	0.19731	0.11242	0.089103	0.37147	0.26076	0.095711	0.10564	0.15807	0.041245	0.32185	0.16509	0.036449	0.29883	-2.3438	-2.7521	-2.4208	-3.1167	-2.5354	-2.4083	-2.9604	-2.3229	-2.7583	-2.7208	-2.5062	-3.0292	-2.4708	-2.7	-2.9625	-2.2771	265.643	420.499	362.097	449.952	352.024	376.661	449.603	366.293	371.620	319.724	379.433	165.523	436.096	148.710	240.609	400.614	0.0018338	0.00075768	0.00017216	1294.1	1.0223e-05	1.1718e-05	1181	535.77	1.6979e-05	9.1769e-06	503.42	189.58	193.32	75.091	9.8367e-06	77.384	0.0013884	0.0014004	0.00039564	1190.7	1.4697e-05	1.6014e-05	1079.4	492.07	1.5085e-05	1.558e-05	463.18	174.56	177.4	69.658	1.498e-05	71.384	319.408	240.660	192.852	116.114	242.304	251.483	115.476	121.206	287.318	316.512	117.781	122.156	124.760	128.909	280.975	124.964	-8191	255	
13371.057	1	1	0	0	0.13273	0.094274	0.054888	0.26902	0.41517	0.2576	0.1977	0.28442	0.10155	0.03571	0.25828	0.17992	0.18101	0.23151	0.11395	0.17873	-2.3125	-2.8417	-2.3771	-3.0792	-2.5771	-2.4562	-2.9979	-2.5625	-2.4771	-2.8208	-2.3	-3.0521	-2.4104	-2.2812	-3.1437	-2.3271	242.805	108.809	274.824	116.484	409.510	321.614	293.759	388.772	390.248	454.406	394.249	418.529	420.597	412.304	131.652	250.299	0.0017277	0.0010302	0.00025303	1297.1	1.2213e-05	1.1303e-05	1197.8	544.24	1.4302e-05	5.9914e-06	515.45	195.85	198.56	78.731	1.2555e-05	81.307	0.0013512	0.0014139	0.00039088	1187.6	1.4719e-05	1.5498e-05	1089.2	498.56	1.484e-05	1.5117e-05	474.85	180.24	182.49	73.029	1.4895e-05	75.044	315.297	191.108	196.101	115.205	234.192	229.383	114.559	120.204	270.722	271.370	117.899	122.306	124.885	129.108	273.317	125.595	-8191	255	
13371.153	1	1	0	0	0.14376	0.15126	0.1019	0.33389	0.24367	0.40494	0.12804	0.18735	0.0947	0.03807	0.11311	0.23115	0.070433	0.16293	0.16056	0.25474	-2.1771	-2.7521	-2.2812	-3.0896	-2.7	-2.35	-3.2125	-2.5833	-2.5875	-2.9188	-2.3333	-2.875	-2.6146	-2.5438	-3.1458	-2.5917	258.409	364.373	311.394	448.607	337.615	454.909	357.981	418.477	117.220	378.593	143.535	400.906	407.156	444.442	126.492	387.620	0.0019308	0.00067157	6.6563e-05	1289.5	1.3511e-05	7.7144e-06	1208.9	545.44	1.1539e-05	8.4789e-06	520.22	199.57	200.16	78.558	7.9432e-06	80.549	0.0013756	0.0013598	0.00039218	1189.2	1.4744e-05	1.5063e-05	1099.8	502.28	1.484e-05	1.5043e-05	478.76	182.3	183.07	72.796	1.4644e-05	74.252	320.560	190.832	186.582	116.038	259.872	236.819	114.769	120.721	290.248	259.285	118.745	123.843	126.566	130.736	242.181	127.153	-8191	255	
13371.250	1	1	0	0	0.068442	0.19625	0.24169	0.30203	0.18294	0.068763	0.33517	0.41221	0.17566	0.18904	0.16753	0.24942	0.10544	0.16438	0.22681	0.21555	-2.1375	-3.0167	-2.2625	-3.0292	-2.7562	-2.3333	-3.3167	-2.6188	-2.4125	-2.8833	-2.3312	-2.7333	-2.9146	-2.4708	-3.0271	-2.5917	451.687	334.774	322.641	392.218	437.430	134.422	317.164	426.416	188.534	437.575	134.282	377.648	124.273	459.258	246.068	355.174	0.001755	0.0007995	0.00018115	1296.7	8.0424e-06	8.3835e-06	1197.9	540.28	7.5398e-06	1.0302e-05	507.29	191.36	195.72	74.066	6.7481e-06	75.59	0.0013559	0.0013828	0.00038579	1190.8	1.4788e-05	1.5262e-05	1091.4	496.84	1.4888e-05	1.509e-05	467.9	175.55	178.28	68.766	1.5191e-05	69.812	322.114	241.261	212.551	115.932	230.897	214.918	114.810	121.263	259.386	257.239	118.991	123.236	125.636	129.962	272.017	126.537	-8191	255	
13371.370	1	1	0	0	0.18447	0.19166	0.20488	0.27319	0.052346	0.1006	0.24391	0.28121	0.22864	0.13854	0.090594	0.30596	0.26965	0.29159	0.085296	0.27573	-2.0021	-3.0167	-2.2646	-2.8333	-2.825	-2.3375	-2.9958	-2.8688	-2.4688	-3.1292	-2.6833	-2.9729	-3.1	-2.4396	-2.7792	-2.7396	340.167	337.275	436.347	114.037	322.174	447.933	385.056	430.238	422.976	148.221	448.477	449.794	403.767	140.812	418.783	452.211	0.0018932	0.00091144	0.00020035	1301.3	1.5316e-05	7.2338e-06	1177.7	536.68	1.0951e-05	7.2717e-06	506.35	190.17	194.71	74.902	9.5795e-06	77.214	0.001379	0.001371	0.00038668	1190.4	1.4917e-05	1.5461e-05	1077.2	491.42	1.5108e-05	1.5311e-05	463.48	174.76	177.49	69.479	1.5249e-05	71.374	317.769	187.865	169.184	116.429	239.419	306.148	114.649	120.915	297.585	307.419	118.993	123.347	126.045	129.323	270.000	125.213	-8191	255	
13371.442	1	1	0	0	0.13842	0.060859	0.055499	0.14957	0.24811	0.053769	0.34037	0.15309	0.046899	0.02134	0.33276	0.10931	0.11821	0.19739	0.14755	0.12714	-1.9458	-2.9542	-2.4313	-2.6042	-2.8125	-2.4083	-2.9625	-2.7687	-2.2062	-2.9625	-2.5583	-2.7125	-2.9875	-2.4313	-2.8417	-2.9125	304.808	159.591	269.128	415.017	209.010	356.038	367.901	330.156	325.457	171.526	394.921	419.556	461.718	423.979	418.885	358.234	0.0019742	0.00029331	0.00041107	1295.2	8.9876e-06	1.37e-05	1193.3	544.92	1.1326e-05	2.8754e-06	518.03	197.53	200.96	79.618	9.6763e-06	81.671	0.0013803	0.0013761	0.00039356	1187.4	1.4621e-05	1.5466e-05	1088.1	500.4	1.4551e-05	1.5455e-05	477.41	181.75	184.03	73.776	1.4689e-05	75.502	322.733	156.359	195.724	115.480	259.317	235.292	114.471	120.388	333.557	323.753	118.017	122.391	124.901	129.089	268.601	125.184	-8191	255	
13371.538	1	1	0	0	0.099958	0.27443	0.058769	0.29438	0.19724	0.22092	0.17568	0.14893	0.34738	0.1118	0.21145	0.077099	0.077625	0.27998	0.056233	0.24611	-1.9667	-2.9646	-2.3042	-2.6063	-3.1021	-2.225	-2.7646	-3.0083	-2.3375	-2.9771	-2.7958	-2.4771	-3.0729	-2.5438	-2.6458	-3.0229	269.008	304.504	367.374	429.863	261.610	147.351	195.642	416.849	121.418	110.245	389.732	183.752	217.497	429.236	198.634	399.654	0.0018617	0.0011282	0.00023257	1300.3	1.3124e-05	7.174e-06	1198.4	547.34	1.052e-05	1.2295e-05	517.06	196.61	199.09	77.334	1.19e-05	78.767	0.0013438	0.0013906	0.00038315	1189.8	1.479e-05	1.504e-05	1098	501.56	1.4822e-05	1.4874e-05	475.78	180.33	181.71	71.532	1.4937e-05	73.077	318.075	173.262	227.793	115.537	223.153	231.478	114.382	120.411	310.555	237.490	118.636	122.433	125.623	129.719	258.015	126.328	-8191	255	
13371.657	1	1	0	0	0.060125	0.0048106	0.20313	0.33028	0.34841	0.13074	0.099634	0.16905	0.22151	0.056099	0.1666	0.25975	0.12781	0.12996	0.11988	0.5738	-1.9083	-2.9083	-2.7375	-2.4792	-2.8688	-2.4604	-2.7667	-3.1125	-2.1562	-2.8958	-2.8042	-2.4396	-2.9813	-2.6521	-2.65	-3.0396	137.868	407.854	419.847	374.329	424.656	225.990	342.959	168.225	453.078	233.047	383.139	104.433	425.918	105.771	147.022	404.276	0.001954	0.0004749	6.8774e-05	1303.1	1.1753e-05	1.3892e-05	1187	545.46	1.9335e-05	1.1038e-05	516.97	196.2	198.64	78.242	7.7996e-06	80.105	0.0013711	0.0014037	0.00039114	1193.7	1.497e-05	1.5324e-05	1088.8	500.18	1.4964e-05	1.5627e-05	475.39	179.88	182.4	72.496	1.5563e-05	74.226	321.021	186.135	192.933	115.470	255.161	245.471	115.036	121.149	260.979	281.156	118.534	122.777	125.638	129.582	270.918	125.925	-8191	255	
13371.753	1	1	0	0	0.34379	0.16661	0.047512	0.25541	0.19049	0.05968	0.13784	0.33402	0.1552	0.04102	0.28966	0.12176	0.21088	0.30008	0.16976	0.24253	-1.8667	-2.8021	-2.5854	-2.5104	-2.9604	-2.5333	-2.6833	-3.0917	-2.2833	-2.8854	-3.1188	-2.4667	-3.1	-2.6542	-2.4604	-3.0292	200.443	104.997	129.285	411.994	427.849	405.268	438.771	407.406	275.765	351.734	431.404	121.715	429.537	413.400	138.944	380.147	0.001629	0.0011541	0.0002168	1296.4	1.3667e-05	6.1731e-06	1196.1	548.73	1.4827e-05	6.6693e-06	516.48	197.32	199.24	78.57	6.052e-06	80.31	0.0013506	0.0014241	0.00039935	1191.7	1.5423e-05	1.5802e-05	1090.8	502.11	1.5107e-05	1.5912e-05	475.87	180.51	182.9	72.842	1.5616e-05	74.337	314.119	185.306	201.983	116.100	237.447	248.117	114.736	120.904	262.773	293.092	118.694	122.665	125.493	129.321	237.569	125.818	-8191	255	
13371.849	1	1	0	0	0.13936	0.090922	0.13457	0.27917	0.067975	0.24606	0.21536	0.39423	0.14239	0.14435	0.047821	0.20157	0.19957	0.26547	0.088076	0.21184	-1.9375	-2.5812	-2.7729	-2.4979	-2.9708	-2.7125	-2.6083	-3.0958	-2.4896	-2.8958	-2.8688	-2.3812	-3.1	-2.7417	-2.2646	-3.0521	194.607	457.352	125.636	116.414	427.103	265.252	459.701	376.790	445.354	329.803	462.622	429.550	362.683	414.505	231.464	357.530	0.0018561	0.00090645	0.00029942	1302	1.7381e-05	1.114e-05	1198.2	546.25	1.6932e-05	4.6436e-06	518.77	196.66	198.78	77.838	5.6078e-06	79.691	0.0013929	0.0014471	0.00039822	1191.7	1.5215e-05	1.552e-05	1092	501.58	1.5134e-05	1.566e-05	476.55	180.27	182.32	72.24	1.5593e-05	73.767	314.485	226.198	187.797	115.914	257.346	281.334	114.925	121.102	277.873	164.003	118.476	122.621	125.124	129.610	218.402	125.758	-8191	255	
13371.945	1	1	0	0	0.20658	0.36008	0.077975	0.27494	0.025201	0.18204	0.1603	0.05339	0.40345	0.17853	0.083969	0.070331	0.39952	0.41062	0.19503	0.19213	-1.9562	-2.5812	-2.9917	-2.4958	-2.9646	-2.7208	-2.5771	-3.1021	-2.5917	-2.7625	-2.9313	-2.4437	-2.9229	-2.7958	-2.4271	-3.1437	351.169	349.559	245.680	451.799	217.854	392.592	396.126	416.430	204.509	226.635	182.808	385.510	392.912	459.317	434.336	440.728	0.0018648	0.00065216	0.00024858	1298.6	1.2429e-05	6.285e-06	1195.9	547.89	1.8021e-05	4.7203e-06	520.92	198.35	199.47	79.452	1.2502e-05	82.033	0.0014062	0.0014348	0.00040001	1192.8	1.5063e-05	1.5661e-05	1097.4	503.26	1.5112e-05	1.5611e-05	480.69	182.14	183.93	73.857	1.5464e-05	75.896	314.591	228.435	223.178	116.002	264.153	249.407	114.249	120.148	273.187	279.721	117.920	122.176	124.780	129.220	278.126	125.592	-8191	255	
13372.041	1	1	0	0	0.015799	0.17836	0.054796	0.30446	0.098728	0.034078	0.24378	0.30859	0.26899	0.38346	0.17713	0.11259	0.040039	0.28658	0.1541	0.26033	-2.0438	-2.4729	-3	-2.5771	-2.6021	-2.7125	-2.3375	-3.1792	-2.5771	-2.4104	-3.1125	-2.4104	-2.8208	-2.9062	-2.1354	-3.075	298.017	177.293	414.805	122.337	264.923	452.765	399.667	412.372	346.880	213.082	406.506	458.840	456.060	456.540	458.669	373.953	0.0018496	0.001223	0.00027634	1295.2	9.4916e-06	7.4513e-06	1205.5	552.63	1.8595e-05	1.2093e-05	524.03	203.39	202.6	81.687	1.376e-05	83.685	0.0013874	0.0014341	0.00039295	1188.8	1.5347e-05	1.549e-05	1098.5	506.59	1.5204e-05	1.6013e-05	483.63	185.41	186.62	75.838	1.5819e-05	77.49	319.340	192.169	187.840	115.900	254.392	231.106	114.706	120.582	291.977	261.072	118.308	122.761	125.635	129.788	268.380	125.873	-8191	255	
13372.138	1	1	0	0	0.2347	0.083353	0.038383	0.096276	0.11315	0.081555	0.13229	0.15348	0.11614	0.14126	0.096136	0.33851	0.09143	0.27719	0.17776	0.28533	-2.1917	-2.3312	-2.9354	-2.3708	-2.4146	-2.7792	-2.3729	-3.0062	-2.5521	-2.3146	-3.1083	-2.5187	-2.7333	-3.1333	-2.1708	-2.8708	316.825	253.968	359.899	326.967	272.596	442.027	313.070	419.161	299.019	306.394	120.182	429.898	451.507	439.498	399.280	435.327	0.0019482	0.0012166	0.00016389	1294.5	6.5384e-06	3.8866e-06	1199.3	552.84	1.4265e-05	1.0936e-06	530.42	205.09	204.91	82.525	4.4112e-06	83.957	0.0014273	0.0014366	0.00039735	1184.7	1.5309e-05	1.5658e-05	1095.2	507.8	1.539e-05	1.5664e-05	487.53	187.11	188.16	76.363	1.5453e-05	78.004	319.881	190.698	226.154	115.839	215.121	228.866	114.713	120.767	294.592	315.122	118.395	122.920	125.253	129.602	290.157	125.590	-8191	255	
13372.234	1	1	0	0	0.16095	0.21782	0.26176	0.38951	0.12492	0.090116	0.31417	0.33681	0.22772	0.17793	0.35247	0.21093	0.14197	0.42448	0.18685	0.29169	-2.2687	-2.1958	-2.8021	-2.55	-2.4229	-2.7313	-2.4688	-2.8521	-2.7188	-2.3792	-3.0125	-2.6708	-2.4771	-3.0229	-2.3583	-2.9542	330.347	303.310	295.934	360.874	282.019	260.936	406.699	419.184	176.164	103.013	401.095	353.659	350.000	420.465	305.371	104.545	0.0019724	0.001113	0.00032363	1294.1	1.138e-05	6.583e-06	1198.8	555.26	2.0054e-05	3.6374e-06	532.69	204.89	204.37	82.557	1.6811e-05	84.926	0.0013801	0.0013858	0.0003852	1184.7	1.4884e-05	1.5418e-05	1100	509.63	1.513e-05	1.5374e-05	489.58	187.94	188.33	76.738	1.5045e-05	78.665	317.856	196.350	207.212	116.013	273.625	234.963	115.144	120.982	301.490	289.478	118.661	123.234	125.518	129.990	269.382	126.235	-8191	255	
13372.330	1	1	0	0	0.1503	0.079938	0.13356	0.35337	0.20794	0.13055	0.15933	0.33948	0.14	0.082067	0.064605	0.40213	0.027778	0.27217	0.13824	0.19438	-2.3375	-2.1708	-3.0708	-2.5292	-2.4146	-2.9813	-2.5604	-2.8917	-2.9	-2.175	-3.0792	-2.7958	-2.5542	-3.1083	-2.2125	-2.6396	164.608	237.889	163.218	428.739	114.333	246.493	458.873	409.665	108.941	151.581	151.805	437.391	313.542	463.135	141.701	451.201	0.0018788	0.00080603	0.00025337	1295	1.3928e-05	1.0838e-05	1205.5	556.78	1.9092e-05	4.1632e-06	532.33	205.3	205.52	81.94	1.3303e-05	85.024	0.0013873	0.0014139	0.00039413	1189.2	1.5262e-05	1.5198e-05	1106.6	510.41	1.5059e-05	1.5557e-05	489.63	188.47	188.3	76.253	1.5252e-05	78.381	322.281	210.022	216.315	116.669	216.006	236.428	115.291	121.367	273.093	302.898	119.055	123.099	125.682	130.132	225.484	125.592	-8191	255	
13372.449	1	1	0	0	0.19167	0.17408	0.17946	0.40916	0.20613	0.11959	0.26497	0.33545	0.12776	0.3415	0.047338	0.11774	0.30216	0.048872	0.19907	0.15593	-2.5542	-2.1167	-2.6104	-2.8417	-2.2438	-2.9813	-2.5354	-2.7458	-3.0125	-2.2604	-2.9562	-2.7562	-2.3937	-3.0604	-2.2979	-2.6437	354.902	242.014	461.503	425.092	317.978	432.991	414.899	399.548	211.648	219.651	456.821	424.529	461.748	108.162	391.610	289.969	0.0021367	0.00077218	0.00014204	1295.5	1.5833e-05	1.0964e-05	1206	555.2	3.0499e-06	8.3573e-06	529.59	204.26	205.36	81.795	8.0764e-06	83.624	0.001374	0.0014096	0.00039609	1190.8	1.5272e-05	1.5207e-05	1104.7	509.86	1.521e-05	1.5552e-05	487.77	187.33	187.53	75.951	1.5125e-05	77.373	321.367	188.961	171.050	115.279	248.785	217.426	114.405	120.140	273.776	247.547	117.833	121.997	124.485	129.209	225.502	125.123	-8191	255	
13372.545	1	1	0	0	0.22324	0.20181	0.16173	0.22152	0.081796	0.26304	0.22964	0.2031	0.21923	0.2003	0.14235	0.45616	0.11367	0.36994	0.10442	0.22459	-2.525	-2.1229	-2.7896	-3.0187	-2.2771	-3.0312	-2.7396	-2.6292	-3.0646	-2.2812	-2.9292	-3.0625	-2.3229	-2.9583	-2.5229	-2.5396	348.942	153.305	170.555	130.064	271.979	102.996	373.372	400.385	195.174	227.806	428.128	412.918	162.684	443.111	240.333	158.811	0.0018865	0.00074182	0.00034068	1306.3	1.1037e-05	7.6524e-06	1204.8	551.21	1.7593e-05	8.4491e-06	525.54	201.63	201.25	78.775	1.2397e-05	79.776	0.0013618	0.0014084	0.00039211	1195.6	1.4686e-05	1.5138e-05	1102.8	505.61	1.5245e-05	1.4926e-05	482.89	184.27	184.45	73.123	1.5459e-05	73.859	321.928	177.486	175.259	115.611	253.021	248.599	114.378	120.227	291.462	229.375	117.700	121.972	124.610	128.969	209.900	125.309	-8191	255	
13372.641	1	1	0	0	0.29555	0.11976	0.10183	0.32322	0.081629	0.13055	0.016012	0.37033	0.22177	0.072588	0.19102	0.14527	0.22202	0.30828	0.28537	0.37633	-2.3875	-2.2042	-2.2833	-3.0563	-2.1458	-2.9125	-2.7021	-2.6354	-2.9646	-2.3104	-2.8896	-2.9854	-2.2458	-3.025	-2.5458	-2.4458	152.275	440.709	120.099	396.687	326.573	246.252	204.027	383.851	249.994	280.510	362.712	413.702	442.814	153.590	401.398	420.416	0.0017399	0.00084088	0.00036773	1305.4	8.3665e-06	9.5746e-06	1195.3	537.62	8.0518e-06	1.8439e-06	506.84	191.55	194.35	74.367	6.3035e-06	77.637	0.0013653	0.0013593	0.00039536	1195.5	1.4823e-05	1.563e-05	1092.1	493.33	1.4599e-05	1.5206e-05	465.1	175.63	177.79	69.04	1.5081e-05	71.753	321.212	192.632	202.442	115.495	244.413	198.658	114.194	120.300	275.343	428.997	118.025	122.617	124.736	129.199	243.858	124.973	-8191	255	
13372.737	1	1	0	0	0.086258	0.17482	0.062833	0.30216	0.16786	0.095839	0.10772	0.18368	0.21526	0.10249	0.22842	0.14742	0.34778	0.14679	0.20139	0.25087	-2.6	-2.3229	-2.4458	-3.0208	-2.3021	-2.7979	-2.7042	-2.5979	-2.9521	-2.4938	-2.6896	-2.9583	-2.3646	-2.9604	-2.7729	-2.5583	313.771	329.116	298.826	452.928	420.524	379.979	215.607	420.010	181.013	207.443	356.881	361.857	460.138	414.209	418.059	349.059	0.0017736	0.001076	0.00026377	1302.6	1.4118e-05	9.2078e-06	1200.3	547.89	1.6582e-05	3.9233e-06	520.14	199.2	200.04	78.459	1.5159e-05	80.226	0.0013346	0.0013753	0.00039795	1194	1.4872e-05	1.5471e-05	1098.3	501.81	1.4768e-05	1.5566e-05	478.24	182.8	183.17	72.758	1.5226e-05	74.11	318.314	196.523	207.310	115.660	281.206	288.222	114.886	120.728	274.113	270.987	118.631	122.711	125.311	129.330	238.457	125.384	-8191	255	
13372.833	1	1	0	0	0.16222	0.099249	0.1687	0.27391	0.18627	0.084451	0.17642	0.27237	0.11976	0.1373	0.094742	0.07096	0.40814	0.15707	0.027423	0.1671	-2.6604	-2.3917	-2.4771	-3.1292	-2.4021	-2.6854	-2.9458	-2.5563	-2.8146	-2.6333	-2.4542	-3.1896	-2.3708	-2.7646	-2.8563	-2.3042	420.628	407.988	407.358	416.245	462.017	422.738	420.161	431.793	351.348	162.396	121.853	421.979	111.037	401.315	184.343	413.158	0.0018708	0.0010648	0.00016873	1304.7	1.0092e-05	8.6237e-06	1197.2	545.17	1.7717e-05	7.5676e-06	515.35	196.25	198.67	77.248	1.6154e-05	79.526	0.0013288	0.0013855	0.00039984	1193.6	1.4433e-05	1.5714e-05	1094.7	500.06	1.4986e-05	1.5967e-05	474.52	180.25	181.98	71.906	1.5527e-05	73.463	321.075	194.036	175.291	115.919	273.529	232.909	114.911	120.484	293.054	314.392	118.221	122.783	125.261	129.308	250.428	126.200	-8191	255	
13372.954	1	1	0	0	0.36816	0.2478	0.11217	0.16145	0.095847	0.2253	0.32622	0.31744	0.072567	0.28449	0.34747	0.29373	0.28684	0.23128	0.13914	0.098149	-2.5208	-2.6208	-2.3646	-2.9583	-2.2042	-2.5687	-3.0938	-2.4896	-2.8917	-2.5563	-2.4625	-3.0687	-2.5438	-2.7875	-2.9792	-2.4938	379.401	397.888	306.046	426.428	383.919	445.541	411.097	418.152	443.315	461.052	457.270	126.814	133.990	103.355	286.615	435.504	0.0018881	0.00060703	0.0001543	1299.9	1.455e-05	2.6882e-06	1194.2	545.44	1.6528e-05	3.1135e-06	511.35	195.84	199.06	77.673	6.2347e-06	79.365	0.0013816	0.0013988	0.00039396	1191.2	1.4697e-05	1.5315e-05	1090.3	499.09	1.4934e-05	1.5484e-05	472.09	179.6	181.8	71.994	1.526e-05	73.406	314.834	194.474	208.584	116.239	256.028	227.849	115.421	121.017	264.186	221.030	118.556	122.865	125.503	129.570	248.789	125.822	-8191	255	
13373.050	1	1	0	0	0.42048	0.19976	0.14912	0.32753	0.092646	0.19138	0.16947	0.33824	0.13969	0.13298	0.081889	0.18166	0.11356	0.21633	0.14389	0.17063	-2.2396	-2.5854	-2.3458	-3.0417	-2.3354	-2.6562	-3.0896	-2.4229	-2.7042	-2.8729	-2.5208	-3.1813	-2.7542	-2.7104	-2.8979	-2.6167	260.710	174.152	458.697	429.640	143.608	112.787	408.658	383.728	413.393	325.749	405.855	108.750	357.276	452.480	117.224	413.782	0.001675	0.0002869	0.00018968	1291	1.5348e-05	1.3593e-05	1193.1	542.8	1.7019e-05	7.1355e-06	512.09	195.88	196.83	77.552	1.3394e-05	79.153	0.0013535	0.0013813	0.00039257	1189	1.4339e-05	1.524e-05	1090.4	498.6	1.4729e-05	1.529e-05	471.54	179.66	181	71.816	1.4858e-05	73.228	321.046	282.901	172.409	116.179	252.093	241.853	115.484	121.082	274.508	240.705	118.641	123.362	126.069	130.029	263.320	125.690	-8191	255	
13373.145	1	1	0	0	0.28856	0.13979	0.070963	0.33285	0.18099	0.19524	0.33484	0.22522	0.22896	0.13075	0.21113	0.050002	0.15948	0.19471	0.18914	0.19134	-2.4333	-2.9729	-2.3458	-3.1063	-2.5146	-2.4833	-3.2188	-2.2958	-2.6646	-2.8958	-2.3458	-3	-2.6063	-2.5792	-2.9417	-2.5625	417.904	282.958	360.296	457.615	359.130	407.771	426.233	318.416	150.735	390.329	409.088	358.751	456.707	445.491	439.398	154.003	0.0018837	0.0010172	9.3542e-05	1299.2	3.6043e-06	5.1924e-06	1195	542.69	1.2345e-05	7.033e-06	510.72	194.99	196.69	76.394	8.7593e-06	78.139	0.0013547	0.0013991	0.00038596	1190.9	1.4507e-05	1.5488e-05	1090.6	497.43	1.4739e-05	1.5184e-05	470.36	178.52	180.01	70.834	1.5062e-05	72.171	322.890	189.701	155.603	116.611	233.029	230.921	115.188	120.802	287.100	246.832	118.748	123.250	125.899	130.017	251.175	126.405	-8191	255	
13373.241	1	1	0	0	0.13972	0.10256	0.11975	0.37007	0.22227	0.05022	0.047165	0.11355	0.17969	0.049231	0.17842	0.080727	0.19411	0.31583	0.2104	0.23316	-2.2542	-2.7417	-2.3479	-3.0604	-2.675	-2.3646	-3.3375	-2.7042	-2.4062	-2.9271	-2.4708	-2.9437	-2.8688	-2.5354	-3.0646	-2.5854	396.331	213.321	286.684	209.356	150.720	343.809	289.069	424.315	268.451	152.950	117.192	123.154	178.933	426.582	223.568	369.741	0.0018611	0.00096448	0.00020196	1293.7	1.3776e-05	1.1083e-05	1182.3	541.52	1.7585e-05	5.4014e-06	507.29	193.72	195.55	76.354	7.4966e-06	77.955	0.001334	0.0013736	0.00038388	1189.7	1.4853e-05	1.4985e-05	1084	495	1.4814e-05	1.5628e-05	466.7	177.41	179.72	70.775	1.4801e-05	72.013	326.456	190.260	230.648	116.802	259.871	252.267	115.878	121.707	294.989	279.272	119.328	123.772	126.407	130.814	230.316	127.015	-8191	255	
13373.337	1	1	0	0	0.22625	0.16329	0.22849	0.1388	0.10419	0.15569	0.2488	0.26873	0.15213	0.32743	0.20605	0.20981	0.30353	0.13394	0.24318	0.21032	-2.2458	-2.9583	-2.2271	-2.9292	-2.8083	-2.2438	-3.1437	-2.7667	-2.4771	-3.0042	-2.3042	-2.9	-2.9792	-2.5354	-2.9104	-2.6333	361.269	443.019	212.656	453.559	402.507	401.604	448.042	426.615	399.633	303.705	182.923	400.435	416.026	427.858	425.982	427.440	0.0020308	0.00091905	0.00029093	1301.4	1.2288e-05	4.2987e-06	1183.6	539.13	1.7825e-05	5.2153e-06	503.05	191.74	194.66	75.248	1.1237e-05	76.549	0.0013355	0.001337	0.00037253	1191.4	1.4473e-05	1.4702e-05	1081.8	493.62	1.477e-05	1.486e-05	463.46	175.49	178.01	69.809	1.4655e-05	70.94	316.581	199.906	198.718	117.214	229.094	292.126	115.050	120.911	276.191	199.103	118.532	122.812	125.087	129.448	278.259	126.051	-8191	255	
13373.433	1	1	0	0	0.18835	0.22391	0.099733	0.36254	0.1393	0.084349	0.11556	0.29405	0.30223	0.086621	0.37037	0.13454	0.040272	0.098485	0.12513	0.10368	-2.1521	-3.0604	-2.2812	-2.8104	-2.8958	-2.1917	-3.1667	-2.7146	-2.5062	-3.0062	-2.5875	-2.7	-2.8563	-2.5729	-2.9	-2.6354	303.229	339.713	189.489	431.879	420.465	113.212	379.604	415.325	157.971	216.021	103.646	113.656	220.675	434.095	243.956	113.350	0.0018419	0.00058655	0.00022395	1291.5	1.5427e-05	6.4706e-06	1185.8	536.16	1.587e-05	1.227e-05	502.83	190.07	192.65	75.034	1.3917e-05	77.046	0.0013203	0.0013718	0.00036613	1185.6	1.4227e-05	1.4952e-05	1079.9	491.57	1.4171e-05	1.4368e-05	462.62	174.3	176.69	69.362	1.4386e-05	70.88	318.824	180.586	228.691	116.146	204.557	281.592	115.141	121.033	278.633	272.312	119.087	123.030	125.748	130.151	252.017	126.210	-8191	255	
13373.529	1	1	0	0	0.23998	0.24246	0.16599	0.10443	0.15803	0.18529	0.39043	0.30885	0.18444	0.16843	0.30602	0.17668	0.22329	0.075005	0.076298	0.27385	-1.9521	-3.0271	-2.3688	-2.6771	-2.9917	-2.45	-3.0812	-2.9813	-2.2333	-2.9396	-2.5917	-2.6521	-3.0042	-2.5187	-2.8333	-2.9042	462.516	257.519	333.366	287.462	319.317	433.025	343.201	423.211	460.972	359.672	435.090	262.255	422.146	115.393	271.268	123.070	0.0020362	0.00056977	0.00023349	1295.9	1.3188e-05	9.1636e-06	1183.4	531.8	1.0156e-05	7.6453e-06	500.32	188.19	190.16	73.859	5.9992e-06	75.194	0.001295	0.0013341	0.00037241	1185.8	1.424e-05	1.4603e-05	1078.2	489.24	1.4417e-05	1.4848e-05	460.92	172.95	175.27	68.407	1.4581e-05	69.629	318.227	142.191	207.410	116.492	229.423	265.132	114.664	121.120	265.746	238.827	118.368	122.148	125.025	129.383	245.077	125.741	-8191	255	
13373.625	1	1	0	0	0.26681	0.031727	0.24648	0.11807	0.22941	0.17406	0.22328	0.24133	0.043127	0.055524	0.046477	0.11072	0.0072264	0.18347	0.11232	0.29925	-2.0646	-2.9167	-2.5479	-2.4646	-3.0854	-2.3354	-2.7667	-2.9521	-2.3146	-2.9542	-2.6063	-2.5708	-3.0917	-2.6396	-2.6458	-3.0938	283.823	282.484	451.098	383.763	104.733	461.305	126.954	406.718	313.923	341.998	248.118	441.959	174.976	430.005	304.055	365.558	0.0020528	0.0013326	0.00011334	1288.5	7.1739e-06	1.102e-05	1174.5	530.96	2.7422e-06	8.2623e-06	497.86	187.45	190.79	73.787	1.5376e-05	74.965	0.0013373	0.0013134	0.00038743	1182	1.4302e-05	1.4797e-05	1072.4	487.18	1.4499e-05	1.4682e-05	457.94	171.62	175.21	68.363	1.493e-05	69.185	318.902	180.207	250.437	115.848	248.227	257.617	114.973	121.135	315.225	224.534	118.921	123.016	125.949	130.210	256.122	126.653	-8191	255	
13373.721	1	1	0	0	0.12763	0.22841	0.089071	0.25771	0.042537	0.25598	0.097483	0.3357	0.04457	0.15693	0.22948	0.055682	0.13001	0.1387	0.24266	0.088694	-1.8854	-2.7792	-2.6417	-2.5417	-2.8542	-2.5292	-2.6854	-3.225	-2.225	-2.9708	-2.9729	-2.5333	-3.1083	-2.8063	-2.55	-3.1063	313.781	323.929	376.140	104.518	249.261	156.125	122.563	450.639	420.462	194.606	460.201	399.782	158.233	194.707	458.042	202.572	0.0017718	0.0006832	0.00033621	1285.5	8.5149e-06	4.5784e-06	1172.8	529.92	6.4306e-06	3.6174e-06	494.24	185.44	188.58	72.422	6.0701e-06	74.496	0.0013159	0.0013556	0.00038999	1182.5	1.4574e-05	1.4907e-05	1069	485.58	1.4398e-05	1.5072e-05	454.06	170.16	173.55	67.499	1.4724e-05	68.744	318.733	181.473	202.328	116.713	233.108	295.637	114.910	121.250	232.891	254.420	118.457	122.603	124.894	129.867	274.998	126.538	-8191	255	
13373.842	1	1	0	0	0.17255	0.073723	0.16457	0.15989	0.12247	0.11793	0.4945	0.1066	0.05058	0.24675	0.23721	0.19323	0.20686	0.44349	0.13314	0.088027	-1.8917	-2.9583	-2.5354	-2.3958	-2.8854	-2.375	-2.5854	-3.1604	-2.2729	-2.7812	-2.6521	-2.4437	-2.9021	-2.6937	-2.25	-3.2021	206.260	397.417	436.772	316.271	441.418	138.278	388.812	448.272	245.545	116.500	461.983	391.291	104.886	107.315	302.384	127.787	0.0017862	0.001208	0.0004118	1292.2	8.9329e-06	1.1231e-05	1170.1	528.14	1.6602e-05	1.0679e-05	494.71	184.39	189.15	72.885	8.6227e-06	74.444	0.0013316	0.0013747	0.0003928	1180.8	1.4151e-05	1.4952e-05	1065.9	484.46	1.4415e-05	1.5013e-05	453.2	169.78	173.28	67.747	1.4742e-05	69.03	317.696	193.829	201.772	116.681	255.808	243.496	114.557	120.472	281.608	237.476	118.171	122.205	124.697	128.977	265.901	125.214	-8191	255	
13373.936	1	1	0	0	0.18622	0.22628	0.25209	0.24355	0.31545	0.18202	0.033863	0.21809	0.24676	0.093191	0.098439	0.12377	0.040691	0.2428	0.15396	0.018405	-1.9583	-2.525	-2.6604	-2.4208	-2.95	-2.5229	-2.5771	-3.1188	-2.3354	-2.6958	-3.1188	-2.4437	-2.8979	-2.7479	-2.425	-3.0833	354.491	106.839	213.649	426.858	274.292	121.878	342.173	452.265	117.583	121.064	400.926	393.108	153.705	448.720	191.082	311.361	0.0018182	0.0011049	0.00017822	1286.1	1.0763e-05	8.3276e-06	1176.5	529	9.7654e-06	9.5423e-06	493.74	185.65	190.64	73.23	8.695e-06	74.411	0.0013365	0.0013798	0.00039229	1180.2	1.4465e-05	1.5296e-05	1070.8	484.49	1.484e-05	1.5279e-05	455.01	170.64	174.34	68.071	1.5242e-05	69.25	321.414	170.326	181.634	116.259	255.078	228.995	115.432	120.726	291.086	216.695	118.212	122.425	124.699	129.176	264.735	125.656	-8191	255	
13374.034	1	1	0	0	0.12705	0.15421	0.13928	0.081934	0.20904	0.0091322	0.068826	0.30081	0.12058	0.072851	0.16289	0.29092	0.1059	0.37708	0.27679	0.24979	-2.0958	-2.45	-2.9688	-2.3792	-2.7708	-2.6021	-2.4208	-3.1417	-2.5354	-2.5333	-3.275	-2.5333	-2.8979	-3.0521	-2.3646	-2.9854	344.195	176.224	407.603	391.585	364.980	248.075	370.558	431.721	419.798	418.442	381.062	417.091	413.433	459.505	147.083	310.537	0.0019057	0.0010003	0.00014092	1293.1	1.9381e-05	5.7916e-06	1166.2	527.33	2.2507e-05	2.3682e-06	491.15	185.84	190.44	73.819	7.2459e-06	74.944	0.0013234	0.0013912	0.00039356	1181.2	1.4926e-05	1.5198e-05	1065.5	484.93	1.4782e-05	1.557e-05	453.32	169.96	174.3	68.557	1.5071e-05	69.185	322.445	171.755	215.898	115.715	234.129	211.397	114.314	120.845	283.649	305.936	118.662	122.961	125.375	129.565	239.556	125.756	-8191	255	
13374.131	1	1	0	0	0.083283	0.17627	0.24258	0.16567	0.23977	0.1122	0.12589	0.2266	0.055888	0.19535	0.28994	0.10256	0.10231	0.11546	0.05614	0.2091	-2.0771	-2.5625	-2.6583	-2.3292	-2.7458	-2.8104	-2.5208	-3.1417	-2.4354	-2.575	-3.0896	-2.5021	-2.7583	-3.0125	-2.375	-3.1042	176.435	214.335	134.437	431.017	189.566	418.858	339.411	446.959	149.600	446.942	393.294	163.938	166.676	146.443	361.615	133.266	0.001947	0.0010249	0.00014703	1284.8	1.4321e-05	6.3923e-06	1163.8	528.9	8.8237e-06	3.8238e-06	493.1	185.61	189.87	74.052	9.4368e-06	74.863	0.0013413	0.0014104	0.00038874	1177.3	1.4553e-05	1.5454e-05	1062.7	484.02	1.4593e-05	1.5267e-05	452.89	170.13	174.39	68.77	1.4931e-05	69.203	320.279	212.778	190.575	116.122	245.876	252.347	114.905	121.084	257.897	239.961	118.606	123.106	125.243	129.808	284.302	126.344	-8191	255	
13374.225	1	1	0	0	0.11724	0.22763	0.10338	0.13843	0.20885	0.20548	0.29663	0.27909	0.20004	0.15729	0.16194	0.22683	0.1679	0.22787	0.18351	0.11118	-2.1562	-2.4104	-2.9708	-2.5292	-2.6792	-2.9479	-2.3208	-3.2188	-2.5062	-2.3542	-3.075	-2.6562	-2.6937	-3.0167	-2.2646	-2.8542	445.401	112.967	398.066	309.978	170.238	161.311	358.162	457.367	446.122	301.722	149.474	444.539	455.458	449.545	223.135	451.995	0.0018025	0.00092753	0.00033433	1282.8	1.3869e-05	7.3386e-06	1169.9	525.33	1.6498e-05	7.6118e-06	494.36	185.36	190.19	73.874	9.4144e-06	74.982	0.001336	0.0013486	0.00037939	1176.7	1.4705e-05	1.4785e-05	1065.5	482.32	1.48e-05	1.5212e-05	453.03	170.2	174.09	68.374	1.4748e-05	69.478	322.015	225.401	200.208	115.738	241.264	249.426	115.102	121.370	298.296	222.201	118.732	123.611	125.816	130.029	234.262	125.790	-8191	255	
13374.321	1	1	0	0	0.37039	0.14879	0.14282	0.20669	0.16471	0.18541	0.11089	0.20551	0.014881	0.16058	0.21425	0.14268	0.043798	0.30386	0.051738	0.08584	-2.2812	-2.2667	-2.7396	-2.6063	-2.6646	-2.9396	-2.4521	-2.9021	-2.8042	-2.3083	-3.0479	-2.5938	-2.5146	-3.1042	-2.2792	-2.8646	317.100	377.201	257.474	381.917	421.065	193.210	462.924	422.127	298.826	147.370	454.528	429.103	376.339	410.809	302.818	363.641	0.0018762	0.00074708	0.00012377	1285.4	1.2614e-05	4.359e-06	1174.5	528.05	1.3424e-05	8.8612e-06	494.93	186.35	190.62	74.179	8.1127e-06	75.283	0.0013294	0.001399	0.00036972	1178.9	1.4602e-05	1.5089e-05	1068.1	484.49	1.4354e-05	1.4977e-05	455.33	170.89	174.84	68.94	1.4561e-05	69.771	319.839	173.457	176.434	115.250	227.274	276.713	115.095	121.318	305.245	261.534	118.650	123.161	125.521	129.943	235.033	126.358	-8191	255	
13374.442	1	1	0	0	0.1022	0.060692	0.056899	0.029805	0.19836	0.09978	0.15352	0.31467	0.1314	0.121	0.15822	0.53256	0.35704	0.31713	0.21426	0.080159	-2.4542	-1.9771	-2.7062	-2.6146	-2.5271	-3.0625	-2.4562	-2.9583	-2.7708	-2.2208	-3.0958	-2.7062	-2.2917	-3.0625	-2.4354	-2.8417	449.433	255.869	155.254	163.636	277.547	286.319	426.379	446.911	333.706	344.813	127.321	429.349	451.461	463.103	160.798	340.602	0.0018018	0.00047013	0.00043753	1279.4	8.825e-06	3.8707e-06	1165.1	527.94	1.2711e-05	4.1326e-06	491.98	186.72	190.55	74.504	9.2958e-06	75.028	0.0013305	0.0013787	0.00037101	1175.9	1.4479e-05	1.4919e-05	1065.8	484.27	1.4663e-05	1.4996e-05	453.49	170.94	174.69	68.875	1.4566e-05	69.488	318.602	209.789	205.025	116.509	266.817	271.853	115.296	121.419	280.667	228.862	118.583	122.760	125.041	129.952	247.195	125.191	-8191	255	
13374.538	1	1	0	0	0.13992	0.10125	0.14425	0.11939	0.22387	0.11421	0.48495	0.22333	0.15634	0.1454	0.18169	0.27795	0.19838	0.49196	0.19877	0.1604	-2.3792	-2.2687	-2.7687	-2.7854	-2.1521	-3.1063	-2.5542	-2.6813	-2.8812	-2.2396	-3.0333	-2.7854	-2.4396	-3.1896	-2.4375	-2.6792	336.075	255.824	401.848	370.415	324.603	307.377	417.319	447.324	270.292	156.286	114.237	431.172	145.317	449.960	440.097	191.011	0.0018015	0.00097093	0.00020093	1277.9	9.663e-06	1.2004e-05	1163.2	527.63	9.2303e-06	9.2179e-06	492.99	186.25	191.06	74.418	1.0899e-05	75.608	0.0013147	0.0013622	0.00037751	1177.6	1.4304e-05	1.4874e-05	1065.4	484.16	1.4652e-05	1.5138e-05	453.83	170.94	174.78	69.067	1.4867e-05	69.902	322.011	195.037	227.552	115.465	270.228	258.104	114.416	120.132	266.081	275.699	118.108	122.868	125.333	129.777	248.695	125.952	-8191	255	
13374.634	1	1	0	0	0.17067	0.24526	0.16557	0.25923	0.12934	0.20061	0.45622	0.19265	0.1774	0.23049	0.21073	0.24062	0.21039	0.26444	0.11723	0.33896	-2.7062	-2.1417	-2.8854	-2.9146	-2.1646	-2.8854	-2.5771	-2.4875	-2.8333	-2.3625	-2.8792	-2.9313	-2.3625	-2.9917	-2.3542	-2.6604	377.977	284.906	146.324	369.534	161.244	190.358	425.488	420.066	277.235	128.724	394.458	403.565	106.460	406.195	458.653	390.560	0.0017939	0.00065274	9.0237e-05	1282	4.0858e-06	9.3832e-06	1171.4	531.56	1.4234e-05	7.6732e-06	497.26	188.28	191.91	74.977	8.4254e-06	75.797	0.001341	0.0013555	0.00037697	1176.1	1.4204e-05	1.4704e-05	1069.5	485.89	1.4379e-05	1.4727e-05	457.24	172.18	175.67	69.535	1.4977e-05	70.184	322.528	206.835	253.850	115.774	245.310	251.721	115.353	121.023	273.542	256.923	118.422	123.038	125.429	129.803	290.114	125.728	-8191	255	
13374.730	1	1	0	0	0.33604	0.28529	0.21937	0.17536	0.22681	0.25584	0.2356	0.40946	0.12223	0.29614	0.15511	0.23604	0.15277	0.45649	0.1919	0.45574	-2.475	-2.1167	-2.4917	-3.1104	-2.3458	-2.7687	-2.7562	-2.5229	-2.825	-2.3896	-2.7333	-2.9917	-2.4521	-2.9625	-2.8167	-2.5125	384.943	244.257	367.293	148.630	346.533	405.620	364.774	404.605	214.418	156.213	422.493	446.133	440.036	445.279	113.913	415.909	0.0016907	0.00087577	0.00015669	1285.7	9.8032e-06	7.6997e-06	1174.2	532.92	2.0723e-05	2.8815e-06	499.96	187.65	192.77	74.937	6.2448e-06	76.29	0.0013326	0.0013449	0.00037868	1180.7	1.4514e-05	1.5248e-05	1073	487.84	1.4721e-05	1.4928e-05	458.76	172.32	176.36	69.712	1.4955e-05	70.672	318.631	175.169	186.151	115.941	209.023	275.221	114.346	120.474	259.477	316.973	118.210	122.753	125.462	129.656	211.370	125.859	-8191	255	
13374.826	1	1	0	0	0.12035	0.32821	0.14292	0.19984	0.091221	0.069397	0.075872	0.085917	0.19594	0.2521	0.30672	0.14679	0.26827	0.36467	0.20916	0.29954	-2.4458	-2.3458	-2.6167	-2.8729	-2.3354	-2.7854	-3.0042	-2.5229	-2.9688	-2.45	-2.5062	-3.0708	-2.4708	-2.9583	-2.6875	-2.3896	362.071	344.514	378.084	134.034	388.246	339.013	355.171	430.432	330.599	289.975	163.999	434.561	189.459	368.653	339.566	408.416	0.0015808	0.00094217	0.0002701	1288	1.3087e-05	1.0048e-05	1164.4	531.54	1.3991e-05	8.2237e-06	495.33	186.96	190.27	74.252	8.6517e-06	75.534	0.0013268	0.0013888	0.0003825	1181.7	1.4367e-05	1.4825e-05	1069.3	487.63	1.4565e-05	1.5481e-05	455.94	171.53	175.14	69.161	1.5146e-05	69.685	320.793	162.280	178.588	116.120	255.051	220.435	114.618	120.326	299.715	217.183	118.430	122.669	125.253	129.463	267.802	124.935	-8191	255	
13374.922	1	1	0	0	0.25356	0.16398	0.1087	0.23475	0.15123	0.23643	0.30716	0.36033	0.40767	0.27719	0.15591	0.16441	0.246	0.2549	0.13307	0.24457	-2.4479	-2.5875	-2.275	-3.0062	-2.3646	-2.8854	-2.8917	-2.4958	-2.7562	-2.4917	-2.5021	-3.1854	-2.3854	-2.6729	-2.8646	-2.5187	329.581	200.734	214.617	399.382	214.171	325.493	429.699	446.660	253.189	341.843	369.913	141.220	387.970	457.494	143.112	431.913	0.0015929	0.00068238	0.00028069	1285.5	1.5663e-05	8.2576e-06	1166.1	528.77	1.3919e-05	8.6722e-06	493.28	186.66	190.17	74.489	6.5043e-06	75.278	0.0013298	0.0014079	0.00039347	1178.7	1.4585e-05	1.5264e-05	1068.2	485.51	1.429e-05	1.5006e-05	454.83	170.97	174.69	69.063	1.4765e-05	69.554	321.665	219.512	172.832	115.260	244.001	286.070	114.463	120.481	274.139	245.749	118.335	122.529	125.075	129.308	272.091	125.966	-8191	255	
13375.019	1	1	0	0	0.086018	0.072654	0.23152	0.20048	0.095571	0.16824	0.1851	0.16853	0.2402	0.18218	0.41975	0.28627	0.21689	0.3068	0.16986	0.35382	-2.4	-2.5438	-2.3875	-2.9354	-2.2167	-2.6521	-2.9708	-2.5021	-2.9354	-2.6354	-2.3958	-3.0021	-2.5042	-2.7604	-2.9833	-2.4271	417.585	133.026	227.425	424.265	200.303	347.754	409.354	445.761	295.349	398.729	445.350	104.821	429.788	460.646	446.479	452.936	0.0018127	0.0011983	0.00015783	1288.2	1.4415e-05	8.3722e-06	1170.2	528.98	1.3619e-05	7.3427e-06	497.81	187.78	191.97	74.228	6.6761e-06	75.567	0.0012939	0.00135	0.00038784	1179.8	1.4599e-05	1.4953e-05	1069.5	486.11	1.4135e-05	1.4812e-05	457.19	172.13	175.37	69.151	1.4667e-05	70.051	320.442	167.509	219.177	115.828	280.666	270.460	115.387	120.616	267.743	260.763	118.346	122.715	125.390	129.334	225.552	125.483	-8191	255	
13375.137	1	1	0	0	0.03257	0.12829	0.055013	0.27769	0.056453	0.089194	0.19687	0.37081	0.2022	0.15949	0.12581	0.29653	0.13978	0.06942	0.22667	0.32231	-2.1854	-2.8146	-2.4521	-3.1458	-2.2708	-2.725	-2.9792	-2.2625	-2.6604	-2.6542	-2.4479	-3.1771	-2.5375	-2.7208	-2.9729	-2.4583	188.716	254.285	305.094	438.540	347.980	403.477	269.418	374.323	377.295	418.821	424.868	458.276	445.208	238.498	281.520	119.211	0.0017197	0.00093476	0.00015645	1287.8	8.2049e-06	9.9686e-06	1168.3	531.77	1.4751e-05	9.5946e-06	498.78	188.7	191.7	74.365	5.8324e-06	76.316	0.0013073	0.0013582	0.00037912	1179.7	1.4492e-05	1.5015e-05	1073.9	487.25	1.4321e-05	1.4577e-05	458.95	172.57	175.61	69.105	1.4633e-05	70.466	320.324	204.971	178.038	115.830	252.022	228.425	115.317	120.974	285.943	267.327	118.205	122.593	125.484	129.496	279.010	125.833	-8191	255	
13375.209	1	1	0	0	0.25373	0.16827	0.10266	0.070216	0.26348	0.1352	0.32112	0.21148	0.29549	0.25699	0.47125	0.032637	0.21422	0.23875	0.10098	0.090075	-2.2417	-2.75	-2.1604	-3.1271	-2.4188	-2.4896	-3.2021	-2.5375	-2.5979	-2.9604	-2.4458	-3.0354	-2.7229	-2.5687	-2.8875	-2.5375	380.152	217.478	278.340	246.100	222.707	399.252	392.170	281.052	445.025	240.859	399.700	105.976	122.978	398.073	209.728	403.927	0.0018417	0.0013083	0.0003443	1286	1.4303e-05	9.7508e-06	1167.9	530.16	8.4306e-06	6.4384e-06	496.84	187.63	191.78	74.887	9.8886e-06	76.582	0.0013205	0.0013457	0.00037306	1178.2	1.3993e-05	1.4819e-05	1067.8	487.45	1.4334e-05	1.4613e-05	458.99	172.54	176.1	69.629	1.4275e-05	70.751	315.677	186.266	180.279	116.100	255.739	223.410	115.152	120.887	249.241	259.621	118.042	122.513	124.940	129.415	259.795	125.915	-8191	255	
13375.305	1	1	0	0	0.34199	0.08217	0.13802	0.31752	0.18769	0.096054	0.17246	0.1567	0.27114	0.087532	0.18165	0.073053	0.20243	0.33241	0.12544	0.34479	-2.2854	-2.7667	-2.2854	-3.175	-2.6813	-2.2125	-3.3167	-2.6083	-2.4521	-3.0333	-2.2729	-3.1063	-2.8396	-2.475	-2.9083	-2.5146	160.282	219.245	115.367	434.298	391.600	444.162	412.997	407.502	343.189	227.766	109.927	410.184	321.424	419.456	145.808	321.952	0.0017832	0.0008092	0.00034703	1283.4	8.8391e-06	8.8723e-06	1174.2	535.32	1.4586e-05	8.2602e-06	503.07	189.21	192.4	75.436	9.5548e-06	76.999	0.0012838	0.0013295	0.00036698	1175.4	1.4081e-05	1.4435e-05	1070.3	489.74	1.3701e-05	1.4441e-05	462.08	173.98	176.71	69.869	1.3954e-05	70.959	318.190	196.547	204.596	115.183	289.018	253.501	114.237	120.563	272.707	254.823	118.082	122.611	124.947	128.972	292.620	125.349	-8191	255	
13375.403	1	1	0	0	0.24143	0.26869	0.36095	0.16974	0.32492	0.20437	0.41131	0.29051	0.22111	0.19351	0.16078	0.16947	0.14812	0.37644	0.028353	0.2389	-1.9292	-2.9479	-2.3979	-3.0458	-2.6063	-2.2979	-3.1146	-2.7375	-2.5667	-2.9167	-2.575	-2.9479	-2.8979	-2.4896	-2.8604	-2.7146	154.278	438.537	459.240	147.801	223.698	395.080	429.155	427.576	267.098	413.007	402.144	396.384	369.331	400.946	421.362	448.455	0.0017599	0.00085603	0.00022686	1283.3	5.8241e-06	8.2933e-06	1182.7	534.85	4.6599e-06	8.2555e-06	502.82	191.12	192.17	74.979	6.0671e-06	76.685	0.0012881	0.0012985	0.0003537	1176.6	1.3987e-05	1.3809e-05	1078.3	489.75	1.3897e-05	1.3856e-05	463.44	174.77	176.14	69.608	1.3632e-05	71.155	311.701	235.796	212.058	116.037	200.081	269.665	114.700	120.916	343.566	247.325	118.144	122.594	125.368	129.344	242.014	125.711	-8191	255	
13375.522	1	1	0	0	0.021224	0.31301	0.14289	0.2962	0.11163	0.16373	0.16112	0.35017	0.22	0.097665	0.083989	0.1927	0.19002	0.23436	0.10186	0.11244	-1.925	-3.0521	-2.1354	-2.7354	-2.9667	-2.3271	-3.1271	-2.7354	-2.3375	-3.075	-2.3688	-2.4104	-2.8542	-2.5438	-2.8896	-2.7208	347.820	107.229	116.269	136.375	372.882	420.538	365.567	403.591	407.871	400.026	110.582	403.885	427.058	176.554	196.884	451.899	0.0017065	0.00097344	0.00023976	1291.7	8.5773e-06	1.0705e-05	1187.3	535.95	5.8357e-06	5.2186e-06	509.63	193.08	194.13	75.373	9.448e-06	77.579	0.0012656	0.0012694	0.00036116	1179.7	1.3501e-05	1.3945e-05	1085	491.39	1.3341e-05	1.3769e-05	468.41	176.27	177.48	69.935	1.3999e-05	71.681	312.334	159.151	186.582	115.204	254.446	252.564	114.895	120.920	309.675	277.138	118.421	122.394	125.335	129.329	269.342	125.560	-8191	255	
13375.618	1	1	0	0	0.10682	0.016613	0.080052	0.28425	0.07429	0.094042	0.30747	0.080575	0.10851	0.12612	0.085812	0.13755	0.035451	0.4509	0.12076	0.042606	-1.8646	-3.025	-2.3271	-2.7313	-3.0104	-2.1583	-3.0312	-2.9229	-2.2313	-2.9458	-2.5792	-2.5917	-2.9354	-2.2625	-2.7958	-2.9375	196.912	451.740	322.429	307.951	392.896	292.704	387.945	389.771	157.295	255.006	417.278	349.198	120.256	453.852	423.717	316.149	0.0018759	0.0004142	0.00022411	1282.5	1.722e-05	6.0256e-06	1184.7	532	1.7584e-05	9.5948e-06	508.28	191.87	193.99	75.652	1.2225e-05	77.669	0.0012589	0.0012757	0.0003573	1179.6	1.3508e-05	1.3713e-05	1082.8	490.55	1.383e-05	1.4223e-05	467.7	176.3	177.83	70.069	1.3842e-05	71.629	316.491	215.409	217.814	115.688	242.415	299.766	114.861	120.573	310.177	223.353	118.164	122.336	125.039	129.096	230.739	125.580	-8191	255	
13375.714	1	1	0	0	0.31877	0.30264	0.10613	0.19394	0.030968	0.066278	0.25696	0.43688	0.16159	0.10685	0.33754	0.19026	0.039227	0.13275	0.11175	0.23276	-1.95	-2.9958	-2.3771	-2.5187	-2.8771	-2.2875	-2.8333	-3.0771	-2.3187	-2.7792	-2.6063	-2.5896	-3.0458	-2.4583	-2.6167	-3.1375	313.621	416.734	419.117	163.357	324.054	447.422	443.570	414.621	228.208	249.247	404.210	435.923	461.156	131.581	306.533	400.284	0.0018558	0.00098108	0.00021212	1287.6	1.378e-05	1.6766e-06	1185.3	537.11	1.0436e-05	1.0506e-05	509.15	191.63	194.72	75.872	1.1573e-05	78.163	0.0012555	0.0012583	0.00036306	1179.8	1.3512e-05	1.3813e-05	1082.1	492.95	1.3794e-05	1.3699e-05	467.99	176.21	178.39	70.448	1.386e-05	72.011	317.354	165.476	188.115	115.735	260.017	163.453	114.552	120.415	340.941	251.195	118.217	122.078	125.100	129.208	270.385	125.584	-8191	255	
13375.835	1	1	0	0	0.18616	0.33666	0.32387	0.074332	0.18758	0.1701	0.04084	0.074192	0.062003	0.027072	0.20092	0.32765	0.32121	0.10408	0.17196	0.40948	-1.8583	-2.6937	-2.725	-2.3083	-2.9333	-2.275	-2.7604	-2.9229	-2.2208	-2.7729	-2.7938	-2.3333	-3.0687	-2.7083	-2.5333	-2.9479	457.518	129.905	392.851	432.007	314.139	314.724	269.504	448.872	270.632	364.229	454.629	433.820	435.017	221.541	420.875	413.203	0.0018251	0.00097435	0.00034518	1288.3	8.1452e-06	8.5456e-06	1187.7	539.19	1.0961e-05	6.4223e-06	509.31	193.61	195.2	75.557	1.1268e-05	77.82	0.001253	0.0012732	0.00036058	1179.8	1.3256e-05	1.3882e-05	1086.2	493.91	1.3773e-05	1.4019e-05	469.53	177.1	178.65	70.362	1.4137e-05	72.039	320.856	185.133	217.607	115.574	257.386	252.184	114.475	120.579	264.899	230.204	118.161	122.209	124.536	129.409	238.151	125.300	-8191	255	
13375.907	1	1	0	0	0.32505	0.080827	0.28472	0.17315	0.32742	0.16758	0.42452	0.21688	0.16363	0.1989	0.16988	0.32195	0.20472	0.23969	0.027945	0.21245	-1.7875	-2.6917	-2.7854	-2.4583	-3.0208	-2.3125	-2.6813	-3.1854	-2.2479	-2.6729	-2.9104	-2.2562	-3.1417	-2.6875	-2.3542	-2.9437	215.377	301.169	166.689	405.437	112.127	435.616	386.393	413.035	269.807	370.945	168.135	448.884	200.458	109.233	384.759	459.353	0.0018214	0.00095131	0.00030274	1288	1.1059e-05	1.1532e-05	1193.6	540.25	1.7889e-05	6.3869e-06	515.63	194.05	195.36	76.307	1.5161e-05	78.686	0.0012501	0.0012585	0.00036355	1181	1.3283e-05	1.402e-05	1089.6	494.97	1.3587e-05	1.4071e-05	472.44	178.08	179	70.68	1.42e-05	72.557	319.010	182.096	185.315	115.317	224.000	314.868	114.320	120.426	284.391	273.833	118.280	122.146	125.020	129.302	220.575	125.630	-8191	255	
13376.003	1	1	0	0	0.045041	0.12892	0.13367	0.24538	0.24872	0.087103	0.084272	0.30055	0.22155	0.27564	0.12505	0.2431	0.16897	0.29782	0.17696	0.39354	-1.9562	-2.5875	-2.8312	-2.375	-2.9313	-2.5083	-2.5708	-3.0563	-2.3125	-2.6917	-3.1479	-2.4583	-2.8896	-2.7458	-2.175	-3.1854	326.577	159.382	211.856	420.085	223.457	125.393	124.220	418.247	447.915	211.487	123.248	394.541	401.010	388.035	180.187	412.736	0.0019101	0.00085925	0.0003872	1291.3	1.5601e-05	1.3014e-05	1190.5	541.76	1.8017e-05	1.0275e-05	511.89	193.57	195.37	76.442	4.7448e-06	77.866	0.0012702	0.0012962	0.00036928	1184.7	1.3474e-05	1.4114e-05	1089.4	494.31	1.3954e-05	1.4399e-05	471.37	177.25	179.06	70.768	1.4026e-05	72.09	315.482	214.547	203.504	115.739	213.948	289.408	114.355	120.695	255.567	209.548	118.350	122.120	125.312	129.916	273.400	126.015	-8191	255	
13376.123	1	1	0	0	0.1371	0.10736	0.18566	0.21974	0.34487	0.13623	0.068274	0.35189	0.41459	0.12952	0.08704	0.23099	0.11386	0.35839	0.0788	0.18373	-1.9583	-2.3292	-2.9062	-2.4708	-2.7375	-2.6688	-2.3833	-3.1813	-2.2979	-2.4917	-3.0563	-2.5208	-2.8937	-3.1396	-2.4917	-3.0875	329.992	211.021	217.681	438.567	234.645	120.132	397.649	407.427	382.141	363.419	129.692	401.362	460.674	126.157	339.773	455.965	0.0017732	0.00067291	0.0003598	1287.1	1.8662e-05	8.2908e-06	1184.6	539.21	1.479e-05	1.0926e-05	511.52	193.07	194.72	76.192	8.7834e-06	77.654	0.0012732	0.0012851	0.00036831	1182.4	1.363e-05	1.4611e-05	1083.5	494.83	1.4087e-05	1.4446e-05	469.68	177.14	178.91	70.87	1.4332e-05	71.873	318.187	214.300	194.187	116.066	239.722	281.200	114.751	121.086	300.620	228.355	118.332	123.010	125.339	129.580	247.485	125.526	-8191	255	
13376.218	1	1	0	0	0.22107	0.33179	0.11911	0.30204	0.28506	0.20696	0.032108	0.054254	0.085759	0.032653	0.3552	0.19576	0.22366	0.35654	0.10616	0.40201	-1.9958	-2.3667	-2.9104	-2.3937	-2.6396	-2.9	-2.575	-3.1104	-2.5854	-2.3833	-3.1729	-2.5979	-2.6146	-3.0208	-2.1813	-3.0417	168.408	405.085	165.139	408.797	141.152	330.828	163.722	250.781	355.652	215.613	421.477	416.928	396.858	427.191	245.449	427.876	0.0017636	0.00047811	0.00026793	1289.3	8.4932e-06	6.1506e-06	1185.6	534.95	1.8824e-05	5.3269e-06	508.47	191.92	194.25	75.393	5.6884e-06	77.16	0.0013126	0.0012884	0.0003675	1181.8	1.3544e-05	1.4313e-05	1079.5	492.08	1.3831e-05	1.4513e-05	467.33	176.14	178	69.919	1.354e-05	71.232	313.499	394.296	173.333	115.777	209.074	225.097	114.976	120.846	286.480	222.203	118.445	122.629	125.301	129.627	231.577	126.084	-8191	255	
13376.314	1	1	0	0	0.14883	0.020673	0.12592	0.11956	0.22661	0.21953	0.31089	0.18575	0.20633	0.17713	0.20735	0.32707	0.13953	0.25633	0.24971	0.18858	-2.075	-2.5229	-2.8312	-2.4875	-2.6875	-2.9833	-2.5	-2.9375	-2.7125	-2.5792	-3.1292	-2.5938	-2.6271	-2.9938	-2.0542	-3.025	232.209	278.300	239.390	432.986	242.201	148.718	430.600	415.486	111.092	355.969	397.761	437.665	166.499	443.085	228.353	320.234	0.0019538	0.00042372	0.00017581	1289.2	1.2759e-05	8.3204e-06	1183	534	1.0142e-05	7.2867e-06	504.61	190.06	193	74.167	8.18e-06	76.189	0.0012817	0.0012804	0.0003568	1181.6	1.3726e-05	1.3821e-05	1079.3	489.53	1.3675e-05	1.4131e-05	463.87	174.13	176.26	68.734	1.3658e-05	70.267	318.908	210.811	200.477	116.029	246.360	259.983	114.770	120.519	276.369	283.895	118.492	122.608	125.197	129.726	234.675	125.528	-8191	255	
13376.435	1	1	0	0	0.092616	0.24419	0.095566	0.28085	0.19659	0.21272	0.16392	0.28771	0.13448	0.080342	0.27517	0.23296	0.38378	0.17876	0.193	0.11275	-2.3854	-2.1375	-3.1083	-2.4167	-2.3438	-2.9542	-2.4354	-2.9771	-2.7687	-2.2	-3.0771	-2.7687	-2.4146	-3.2479	-2.2646	-2.9167	437.181	262.509	430.115	433.281	176.449	386.315	429.749	425.520	419.701	147.854	401.629	429.108	152.641	459.998	305.741	387.222	0.0017287	0.00077618	8.5804e-05	1291.5	1.2694e-05	6.4249e-06	1188.8	530.98	1.393e-05	8.9557e-06	501.46	190.6	190.69	73.253	1.3775e-05	75.114	0.001262	0.0012609	0.00035181	1181	1.3605e-05	1.4323e-05	1082.3	487.4	1.3938e-05	1.3991e-05	461.7	173.77	174.75	67.889	1.3681e-05	69.313	322.432	202.596	203.903	115.775	215.974	256.172	114.653	120.667	308.082	243.403	117.958	122.202	124.514	129.266	283.034	125.455	-8191	255	
13376.506	1	1	0	0	0.03966	0.15214	0.19442	0.21153	0.1874	0.25781	0.14745	0.1971	0.057467	0.23737	0.42528	0.0086118	0.33244	0.34491	0.22871	0.23465	-2.4979	-2.2729	-2.8104	-2.7562	-2.4938	-2.9813	-2.5521	-2.7146	-2.6229	-2.3521	-2.9771	-2.8042	-2.3021	-3.2062	-2.4188	-2.8104	414.374	387.317	145.460	117.886	242.981	349.800	366.176	332.893	169.270	322.877	452.280	152.841	129.217	107.361	371.404	436.955	0.001629	0.00078747	0.00032203	1290.9	1.2344e-05	4.0187e-06	1171.5	529.48	1.8484e-05	7.4149e-06	496.45	187.55	188.99	72.346	1.5804e-05	74.591	0.0012554	0.0012917	0.00034969	1180.7	1.3624e-05	1.4212e-05	1074.3	485.41	1.3763e-05	1.4082e-05	457.22	171.69	173.47	67.38	1.3959e-05	68.827	314.493	156.642	189.322	115.644	248.572	242.879	114.216	120.329	266.580	277.241	118.129	122.090	125.028	129.476	270.446	125.352	-8191	255	
13376.602	1	1	0	0	0.37255	0.12009	0.23183	0.11042	0.098404	0.24543	0.11207	0.39906	0.044947	0.11007	0.27678	0.46572	0.26693	0.33067	0.26576	0.12074	-2.5604	-2.2646	-2.6854	-2.7687	-2.3854	-3.0521	-2.5104	-2.7583	-2.9042	-2.3063	-2.9771	-2.9521	-2.3896	-3.0438	-2.3292	-2.6542	105.650	249.624	395.669	422.666	342.720	288.331	354.829	370.147	197.698	138.455	293.085	402.660	434.772	430.758	386.085	452.013	0.0017968	0.00116	5.4766e-05	1283.4	8.7008e-06	3.3556e-06	1167.7	526.35	1.3541e-05	8.0558e-06	495.53	186.09	188.94	72.304	1.4933e-05	73.71	0.0012546	0.0012946	0.00036171	1177.5	1.3748e-05	1.395e-05	1067.3	483.19	1.3845e-05	1.3846e-05	456.03	170.72	173.07	67.057	1.3877e-05	68.132	316.468	207.909	219.216	115.406	225.473	254.883	115.005	120.763	283.144	249.571	118.349	123.111	125.217	129.527	235.514	126.045	-8191	255	
13376.699	1	1	0	0	0.27099	0.28901	0.18623	0.38015	0.081194	0.21291	0.30781	0.23349	0.094319	0.15298	0.13381	0.2262	0.17893	0.074219	0.058826	0.26738	-2.5896	-2.2021	-2.5375	-2.8854	-2.4167	-2.9708	-2.6104	-2.6083	-2.7583	-2.5458	-2.8917	-2.8542	-2.4875	-3.0687	-2.3979	-2.5354	231.234	419.894	387.797	403.081	199.707	402.533	371.004	107.636	369.617	173.188	428.007	379.068	271.844	109.003	344.794	392.017	0.0017878	0.00079174	0.00017677	1279.2	3.3513e-06	5.2525e-06	1173.7	526.52	1.2207e-05	2.7453e-06	491.87	184.39	186.91	71.6	1.4572e-05	73.39	0.0012293	0.0012594	0.00035291	1173.2	1.3377e-05	1.3522e-05	1068.8	481.36	1.3512e-05	1.3859e-05	452.74	169.38	171.23	66.245	1.3464e-05	67.628	321.416	179.255	212.959	115.872	224.508	293.767	114.566	121.030	286.096	281.422	118.209	122.847	125.361	129.434	252.671	126.069	-8191	255	
13376.819	1	1	0	0	0.18671	0.20303	0.24093	0.14308	0.047802	0.26577	0.27451	0.4005	0.037986	0.059948	0.43634	0.24527	0.37361	0.29093	0.11866	0.29118	-2.6708	-2.2771	-2.5542	-2.95	-2.1792	-2.9604	-2.8417	-2.6646	-3.0083	-2.3875	-2.6958	-3.0167	-2.2708	-2.9792	-2.8333	-2.3771	137.608	306.264	259.441	310.737	120.581	198.292	431.724	459.360	406.119	196.393	412.971	390.902	451.135	456.688	336.610	425.995	0.0016459	0.00091308	0.00018211	1285.8	9.0593e-06	8.1702e-06	1168.8	526.72	2.0483e-05	7.1091e-06	499.36	186.48	188.86	71.854	1.0404e-05	74.236	0.0012238	0.0012595	0.00035063	1176.7	1.3261e-05	1.379e-05	1068.3	482.45	1.3377e-05	1.3369e-05	457.12	170.7	172.55	66.704	1.3749e-05	68.456	315.021	189.749	162.308	116.450	288.591	309.850	115.273	121.060	283.754	281.736	118.322	122.998	125.609	129.689	266.759	125.620	-8191	255	
13376.915	1	1	0	0	0.17445	0.27956	0.2193	0.11251	0.10659	0.17076	0.019816	0.1699	0.19866	0.12973	0.11457	0.11207	0.26052	0.33185	0.051213	0.35761	-2.6312	-2.4104	-2.55	-3.1521	-2.2521	-2.8458	-2.9708	-2.4354	-3.1	-2.5687	-2.7188	-3	-2.1813	-3.075	-2.7458	-2.4917	222.112	280.354	136.517	455.060	115.482	346.440	245.281	400.434	197.460	287.853	280.665	359.178	398.132	123.513	314.508	383.689	0.0017849	0.00073311	0.00024198	1281.9	1.086e-05	7.3395e-06	1174.9	527.35	6.3555e-06	6.7804e-06	500.97	187.8	189.62	73.075	1.1154e-05	75.214	0.0012187	0.001247	0.00034668	1177.9	1.2902e-05	1.3762e-05	1074.4	484.04	1.3371e-05	1.3723e-05	460.82	172.46	173.98	67.838	1.3796e-05	69.673	318.258	161.482	213.897	115.491	258.273	261.481	114.409	120.175	259.536	229.570	118.346	122.975	125.374	129.438	228.501	125.587	-8191	255	
13377.012	1	1	0	0	0.040186	0.22268	0.059267	0.17524	0.07473	0.099719	0.24413	0.24093	0.21955	0.12578	0.20827	0.31111	0.18844	0.51831	0.19118	0.48531	-2.5292	-2.6479	-2.5208	-3.1042	-2.3833	-2.675	-2.8125	-2.5083	-2.9938	-2.7083	-2.65	-3.0771	-2.6188	-2.9042	-2.9	-2.4625	150.262	172.164	253.811	419.830	220.489	139.567	364.352	410.397	223.872	381.199	356.855	154.577	419.637	431.506	402.481	424.974	0.0017736	0.0010769	0.00025139	1282.9	1.5854e-05	1.2314e-05	1181	529.54	1.7127e-05	1.148e-05	501.26	189.25	190.76	73.567	1.0437e-05	75.819	0.0012125	0.0012548	0.00036312	1179	1.3446e-05	1.4256e-05	1081	485.67	1.373e-05	1.3934e-05	460.31	172.84	174.18	68.187	1.3817e-05	69.756	321.021	197.591	220.241	115.720	239.947	257.249	114.857	120.629	271.827	235.121	118.247	122.852	125.086	129.525	244.950	125.693	-8191	255	
13377.106	1	1	0	0	0.25384	0.1564	0.13229	0.20781	0.13083	0.25536	0.24684	0.44505	0.11606	0.079967	0.21476	0.35988	0.23976	0.26896	0.086939	0.1519	-2.4375	-2.4625	-2.2833	-3.1708	-2.4896	-2.6333	-3.1667	-2.4729	-2.9479	-2.6021	-2.4417	-3.125	-2.6063	-2.7542	-2.8458	-2.4896	365.505	329.147	159.349	437.847	316.822	303.968	409.451	408.221	180.945	326.993	435.932	413.722	113.290	365.610	266.333	386.580	0.0017952	0.00070709	0.00024746	1289.4	3.4096e-06	9.2283e-06	1174.8	529.43	1.8092e-05	5.2872e-06	497	187.05	190.25	73.319	7.4707e-06	75.494	0.001232	0.0012885	0.00036183	1179	1.3211e-05	1.4141e-05	1072.9	484.92	1.3338e-05	1.4233e-05	457.32	171.69	174.1	68.253	1.3633e-05	69.548	316.423	180.678	152.233	115.694	277.621	248.010	114.670	120.624	266.874	283.274	118.341	122.597	125.440	129.451	228.752	125.679	-8191	255	
13377.202	1	1	0	0	0.30934	0.19885	0.21466	0.27456	0.086809	0.15498	0.12946	0.38821	0.20283	0.077983	0.041518	0.25209	0.072823	0.24102	0.3409	0.25311	-2.1562	-2.7958	-2.4917	-3.2	-2.3729	-2.3312	-3.0458	-2.6833	-2.8021	-2.8771	-2.3771	-3.2208	-2.5854	-2.6167	-2.9458	-2.5458	389.239	113.137	384.018	412.818	133.377	425.395	412.600	414.323	346.897	388.333	111.524	455.644	309.666	443.359	302.857	339.535	0.0020065	0.00053148	0.00019116	1292.6	6.1762e-06	1.319e-05	1173.6	527.03	1.0009e-05	1.3447e-05	495.43	186.75	190.12	73.515	4.105e-06	74.411	0.0012484	0.0012851	0.00035609	1176.7	1.3631e-05	1.3986e-05	1071.7	483.67	1.331e-05	1.4083e-05	456.07	170.91	173.68	67.997	1.3912e-05	69.059	322.926	164.542	205.727	115.844	240.368	242.625	115.069	120.789	298.491	261.900	118.703	122.860	125.393	129.177	243.876	125.515	-8191	255	
13377.298	1	1	0	0	0.10708	0.13448	0.18865	0.27932	0.16866	0.1009	0.313	0.31362	0.24571	0.28375	0.2844	0.20514	0.34317	0.51799	0.11572	0.32913	-2.4125	-2.7562	-2.4104	-3.1354	-2.65	-2.5583	-3.0354	-2.6479	-2.4958	-2.8729	-2.3625	-3.0729	-2.7917	-2.4542	-3.0167	-2.4437	325.115	400.277	391.457	108.553	398.206	109.729	388.549	416.011	327.681	439.434	409.044	320.365	412.432	459.191	267.071	364.439	0.0016722	0.00057516	0.0002724	1279.6	5.7787e-06	8.9484e-06	1176.7	528.2	1.9119e-05	1.3686e-06	496.47	187.85	188.45	72.875	8.0726e-06	74.891	0.0012707	0.0012542	0.00034644	1173.1	1.3421e-05	1.4027e-05	1074.1	483.58	1.3667e-05	1.3903e-05	457.44	171.84	173.11	67.778	1.3339e-05	69.339	316.383	183.929	219.267	115.910	253.009	276.101	115.038	121.184	321.712	184.119	118.831	122.953	124.844	129.347	259.705	126.086	-8191	255	
13377.394	1	1	0	0	0.065571	0.13232	0.14705	0.10002	0.33092	0.15367	0.14654	0.21026	0.01201	0.17365	0.087023	0.28502	0.096348	0.30916	0.13019	0.094516	-2.1917	-2.7313	-2.2979	-2.9896	-2.8104	-2.4583	-3.075	-2.625	-2.5021	-3.1333	-2.4417	-2.9583	-2.8104	-2.2792	-2.9771	-2.55	258.424	316.660	379.810	156.543	442.815	182.511	373.582	410.461	174.584	243.923	130.308	108.499	112.548	417.487	289.186	151.476	0.0017757	0.00082255	0.00030756	1286	1.0109e-05	1.43e-05	1187.2	526.32	9.4299e-06	6.7903e-06	500.84	188.34	189.78	73.121	7.5282e-06	74.977	0.0012237	0.0012712	0.00034276	1176.4	1.3224e-05	1.4022e-05	1079.6	483.73	1.3456e-05	1.3498e-05	459.2	172.28	173.67	67.8	1.3616e-05	69.422	315.194	182.344	189.684	115.544	258.395	236.966	114.435	120.790	305.357	263.492	118.424	122.729	124.801	129.739	262.001	125.807	-8191	255	
13377.515	1	1	0	0	0.098954	0.046009	0.089702	0.086657	0.30047	0.031015	0.2666	0.37875	0.083378	0.17954	0.28588	0.15137	0.1581	0.28238	0.12205	0.27111	-2.1542	-2.9354	-2.4125	-2.7396	-2.8563	-2.4708	-3.0979	-2.775	-2.4562	-2.8812	-2.4938	-2.8333	-2.9604	-2.6	-2.9792	-2.6354	322.771	382.053	150.143	338.048	426.047	425.500	392.023	455.997	302.141	368.154	407.754	394.227	389.255	133.210	340.266	456.832	0.0016141	0.00099632	0.00019008	1278.6	1.6254e-05	1.2688e-06	1187.8	528.64	1.0397e-05	8.0246e-06	498.56	188.81	188.94	73.463	1.1501e-05	75.003	0.0012407	0.0012827	0.0003444	1175.4	1.3651e-05	1.3687e-05	1078.2	484.95	1.3338e-05	1.3757e-05	459.47	172.24	174.04	68.014	1.3759e-05	69.506	314.494	226.496	214.550	115.684	246.726	167.273	115.094	120.916	251.465	218.050	119.251	122.961	125.818	129.594	239.615	125.944	-8191	255	
13377.611	1	1	0	0	0.1762	0.1599	0.2734	0.17663	0.060536	0.10751	0.081955	0.11161	0.12681	0.098758	0.041705	0.42036	0.10227	0.12493	0.083104	0.31204	-1.9167	-2.9188	-2.2646	-2.8292	-3.0187	-2.3146	-3.0917	-2.7771	-2.2958	-3.0208	-2.2896	-2.6917	-3.2396	-2.475	-2.8479	-2.7729	358.739	371.985	137.307	390.297	424.825	192.902	442.730	148.279	397.948	126.625	330.270	431.470	332.154	378.258	225.084	454.089	0.0018014	0.0011503	0.00023366	1282.7	1.3368e-05	5.5769e-06	1176.1	529.83	1.8027e-05	7.3862e-06	497.6	187.63	189.31	73.47	1.0638e-05	74.988	0.0012466	0.0012481	0.00035575	1173.1	1.3403e-05	1.3752e-05	1073.6	485.01	1.3723e-05	1.3859e-05	457.4	171.57	173.96	68.142	1.3663e-05	69.515	328.002	182.634	171.073	116.243	212.657	255.387	115.094	120.776	273.731	268.464	118.903	123.478	126.017	130.348	253.927	126.435	-8191	255	
13377.707	1	1	0	0	0.15634	0.075404	0.060559	0.13606	0.38683	0.12072	0.084596	0.15297	0.40053	0.16287	0.093035	0.25185	0.075432	0.28988	0.066924	0.15895	-1.9292	-3.1188	-2.4917	-2.7646	-2.9729	-2.3083	-2.9625	-3.1562	-2.2708	-2.9188	-2.6813	-2.5146	-3.0479	-2.6875	-2.8167	-2.875	125.462	365.441	355.128	378.507	440.721	236.139	111.349	409.656	461.650	366.994	450.172	368.464	419.660	462.437	405.450	459.412	0.0016231	0.00099156	0.00020673	1277.5	6.4383e-06	1.2332e-05	1177.5	529.45	1.5131e-05	3.5078e-06	500.93	187.75	190.71	73.407	1.0458e-05	75.606	0.0012414	0.0012464	0.00035013	1171.8	1.3344e-05	1.3479e-05	1075.3	485.08	1.348e-05	1.3596e-05	460.21	171.75	174.03	68.225	1.3575e-05	69.833	313.491	188.046	188.556	115.342	292.431	244.087	114.764	120.737	271.030	240.811	118.622	122.727	125.621	129.420	257.332	125.662	-8191	255	
13377.803	1	1	0	0	0.16934	0.079535	0.069616	0.39057	0.28202	0.2652	0.27302	0.33721	0.14545	0.13244	0.16598	0.21577	0.17449	0.14009	0.052883	0.16774	-1.9729	-2.8646	-2.5729	-2.4188	-3.075	-2.4667	-2.6458	-2.7938	-2.2417	-2.9604	-2.8104	-2.5521	-3.1979	-2.725	-2.6562	-3.0458	146.923	364.236	348.208	382.826	301.624	161.592	406.261	386.554	434.783	210.883	451.872	418.755	399.216	411.709	123.235	437.141	0.0018897	0.00094582	0.00020063	1278.3	8.9019e-06	8.2554e-06	1182.8	529.13	9.4089e-06	1.2844e-05	502.94	189.06	189.88	73.453	1.0593e-05	75.671	0.0012363	0.0012779	0.00035332	1173.8	1.3035e-05	1.3806e-05	1081.2	485.98	1.3315e-05	1.3839e-05	461.8	172.76	174.31	68.466	1.3679e-05	70.177	319.693	212.563	231.886	115.774	267.224	260.037	115.124	120.884	277.916	226.606	118.140	122.826	125.232	129.191	251.394	125.628	-8191	255	
13377.900	1	1	0	0	0.041463	0.13458	0.25716	0.28987	0.21151	0.15915	0.1146	0.37224	0.018085	0.28713	0.16679	0.33095	0.095746	0.15915	0.026371	0.078358	-1.7313	-2.8521	-2.5979	-2.5417	-3.1479	-2.3354	-2.8896	-3.1646	-2.4396	-2.7812	-2.9083	-2.5438	-3	-2.5083	-2.6542	-2.9729	387.091	452.883	375.043	453.563	377.732	127.672	364.218	394.146	408.918	163.122	421.908	395.575	362.411	453.549	357.124	154.907	0.0019	0.0006196	0.0002267	1286.2	9.138e-06	1.1291e-05	1187.7	532.3	1.2907e-05	9.5069e-06	503	190.25	192.59	74.869	5.5903e-06	76.376	0.0012292	0.0012506	0.00034676	1179.6	1.3225e-05	1.3443e-05	1084.7	489.11	1.3387e-05	1.3414e-05	464.42	174.19	175.69	69.228	1.3536e-05	70.54	316.885	202.291	165.816	115.254	261.701	282.679	114.824	120.792	275.686	242.586	118.634	122.557	125.192	129.821	288.082	125.794	-8191	255	
13377.996	1	1	0	0	0.1082	0.14492	0.19952	0.19587	0.28878	0.29751	0.10867	0.45875	0.27355	0.37569	0.23128	0.25343	0.18882	0.35914	0.055673	0.17503	-1.7812	-2.4646	-2.7167	-2.4708	-2.8167	-2.5062	-2.6729	-3.0667	-2.175	-2.7125	-3.1562	-2.1813	-3.1458	-2.6813	-2.4042	-3.1312	217.073	196.271	211.449	419.419	221.799	229.543	254.565	413.671	443.990	245.652	112.992	428.950	158.618	451.888	303.716	448.111	0.0017109	0.00022223	0.00021258	1286.3	1.5995e-05	9.8022e-06	1188.5	535.53	9.3319e-06	7.1145e-06	505.38	190.06	192.79	75.08	4.6554e-06	77.125	0.0012457	0.0012362	0.00035229	1177.3	1.3036e-05	1.3999e-05	1082	489.73	1.3169e-05	1.3844e-05	464.7	174.19	176.04	69.623	1.373e-05	71.087	317.921	199.730	210.819	115.708	243.705	225.390	114.494	120.802	273.805	257.144	118.343	122.398	125.176	129.522	245.028	125.770	-8191	255	
13378.115	1	1	0	0	0.29625	0.076957	0.2048	0.45962	0.067945	0.099643	0.27706	0.3888	0.11402	0.079383	0.029366	0.11544	0.054096	0.15396	0.097689	0.034754	-1.9292	-2.4792	-2.8187	-2.4146	-2.8625	-2.5687	-2.6437	-2.9813	-2.4417	-2.7396	-3.0354	-2.55	-3.0604	-2.7729	-2.3229	-3.0563	307.472	317.872	323.760	413.299	285.160	428.837	460.637	406.497	282.764	300.792	184.225	221.403	104.825	380.759	439.020	223.830	0.0017719	0.000817	0.00021268	1293.9	1.2963e-05	1.1979e-05	1188.8	535.29	1.674e-05	4.1368e-06	507.81	191.2	191.81	74.741	1.2402e-05	76.783	0.0012039	0.0012511	0.0003509	1179.2	1.3061e-05	1.3712e-05	1084.8	490.5	1.3267e-05	1.378e-05	466.61	174.35	176.07	69.38	1.3373e-05	70.863	320.457	223.372	237.320	115.889	222.126	282.664	114.947	121.028	277.983	257.804	118.492	122.225	125.142	129.744	269.526	125.830	-8191	255	
13378.211	1	1	0	0	0.24422	0.12951	0.12419	0.073249	0.33811	0.17652	0.33286	0.28429	0.084775	0.23152	0.058685	0.22202	0.060272	0.30997	0.1428	0.13584	-2.1104	-2.4833	-2.8896	-2.5792	-2.7271	-2.9375	-2.3187	-3.2396	-2.4083	-2.3688	-3.0854	-2.4188	-2.8312	-2.8854	-2.275	-3.0646	304.690	431.584	444.499	119.110	292.950	375.474	440.511	416.457	348.983	353.253	446.756	443.455	180.719	431.222	438.378	352.507	0.0019486	0.0012056	0.00022899	1281.9	1.0435e-05	6.2268e-06	1191.2	534.26	1.1399e-05	2.1306e-06	507.04	191	192.12	74.163	1.2134e-05	76.001	0.0012178	0.0012492	0.00033925	1175.4	1.2586e-05	1.346e-05	1087.1	489.21	1.309e-05	1.3577e-05	466.68	174.41	175.49	68.756	1.3267e-05	70.444	322.656	190.346	235.394	115.763	247.546	244.243	114.643	120.926	313.217	236.968	118.242	122.853	125.212	129.773	254.423	125.789	-8191	255	
13378.307	1	1	0	0	0.28222	0.12696	0.13406	0.077492	0.037764	0.22496	0.39521	0.31717	0.07141	0.19412	0.12674	0.28989	0.23169	0.21442	0.19724	0.1923	-2.0833	-2.4479	-3.0604	-2.4708	-2.8125	-2.8625	-2.3438	-2.95	-2.5667	-2.3292	-3.0563	-2.5812	-2.725	-3.0604	-2.1854	-3.0563	408.416	455.488	139.039	148.926	118.376	298.156	371.852	438.858	462.135	252.150	205.400	357.561	451.805	412.479	301.376	405.838	0.0017345	0.00071658	0.00022934	1291.6	7.3812e-06	5.4704e-06	1196.6	533.92	1.5124e-05	4.1251e-06	506.22	189.95	191.49	73.628	1.3331e-05	75.547	0.0012263	0.0012422	0.00034424	1179.2	1.3045e-05	1.3306e-05	1091.5	488.66	1.3142e-05	1.3335e-05	466.36	174.01	175.13	68.181	1.3364e-05	69.75	316.463	187.719	156.081	115.926	254.186	281.605	114.522	120.421	313.858	292.915	118.412	122.705	125.243	129.306	250.314	125.614	-8191	255	
13378.379	1	1	0	0	0.28179	0.088063	0.2011	0.24814	0.093985	0.26706	0.31712	0.39571	0.079489	0.14868	0.49978	0.28134	0.20664	0.34674	0.093856	0.13551	-2.3833	-2.4167	-3.0729	-2.6125	-2.6417	-2.9	-2.3458	-2.9	-2.6292	-2.4104	-3.1333	-2.4813	-2.6229	-3.1208	-2.4271	-2.9813	257.733	326.736	363.709	414.489	130.193	359.566	383.870	413.950	184.465	443.985	363.712	442.229	407.329	107.042	257.629	406.493	0.0017743	0.00087046	0.00016316	1281.2	1.5587e-06	1.2335e-05	1187.4	532.28	1.6228e-05	7.3263e-06	505.94	189.11	189.32	73.094	1.0711e-05	75.07	0.0012202	0.0012265	0.00033403	1177.7	1.3125e-05	1.3587e-05	1084.3	488.14	1.3162e-05	1.2966e-05	464.26	172.99	173.81	67.776	1.3262e-05	69.25	320.017	206.171	213.369	115.932	195.551	284.960	114.690	120.914	234.260	298.496	118.299	122.767	125.156	129.616	239.507	125.676	-8191	255	
13378.499	1	1	0	0	0.2241	0.17409	0.083739	0.16755	0.083865	0.22475	0.16485	0.099651	0.13309	0.33805	0.17026	0.24701	0.1832	0.08701	0.19353	0.21753	-2.2083	-2.1729	-2.7542	-2.7125	-2.5521	-3.2208	-2.2812	-3.0458	-2.875	-2.4437	-3.0792	-2.7333	-2.5542	-3.2313	-2.3771	-2.6146	138.551	120.921	273.302	392.462	429.711	430.616	103.559	390.708	120.580	244.250	104.033	421.419	410.729	197.563	429.864	401.342	0.0018222	0.00069162	0.0003079	1290.1	7.8312e-06	6.1329e-06	1192.5	529.4	1.2917e-05	6.1146e-06	505.7	188.51	189.85	73.121	6.8769e-06	75.267	0.001194	0.0012251	0.00033066	1179.8	1.2658e-05	1.3093e-05	1086.1	486.18	1.2962e-05	1.3078e-05	464.4	172.74	173.74	67.656	1.2986e-05	69.349	320.873	225.097	173.602	115.760	275.664	246.597	114.679	120.579	271.851	256.634	118.441	122.803	125.194	129.528	254.756	125.611	-8191	255	
13378.595	1	1	0	0	0.25741	0.070338	0.18251	0.1971	0.012505	0.12286	0.17286	0.26809	0.082773	0.13535	0.20022	0.24468	0.31395	0.26554	0.08974	0.11015	-2.4396	-2.3937	-2.9938	-2.7708	-2.3333	-2.9688	-2.4125	-2.8937	-2.8604	-2.2854	-2.9854	-2.7583	-2.4854	-3.1646	-2.3979	-2.7958	221.122	126.060	183.715	438.189	327.459	442.618	361.596	339.216	356.117	122.815	356.039	107.293	417.575	446.254	164.732	316.240	0.0019068	0.00060629	0.00027505	1290.2	1.6148e-05	6.3021e-06	1198.9	530.33	8.0585e-06	2.9694e-06	506.83	190.6	191.36	72.921	1.1359e-05	75.717	0.0011895	0.0011839	0.00032813	1180.6	1.2728e-05	1.2761e-05	1093.3	486.94	1.2897e-05	1.282e-05	466.56	174.15	174.21	67.522	1.2674e-05	69.718	319.599	195.277	171.749	115.655	259.776	249.472	114.745	120.673	221.702	249.763	118.131	122.749	124.779	129.125	257.780	125.586	-8191	255	
13378.692	1	1	0	0	0.20421	0.067091	0.064967	0.17391	0.25379	0.23505	0.15628	0.24391	0.076004	0.066142	0.13278	0.29236	0.16499	0.12392	0.03735	0.073507	-2.2917	-2.1292	-2.7438	-2.9146	-2.3771	-3.0312	-2.5604	-2.5938	-3.0083	-2.0979	-2.9271	-2.9104	-2.5646	-3.0896	-2.2771	-2.7417	405.938	316.289	137.907	390.905	404.037	383.464	457.879	452.279	320.334	311.034	457.819	419.034	437.659	428.450	179.105	222.897	0.0019391	0.00090815	0.00020063	1290.8	1.1679e-05	7.6286e-06	1200.8	532.35	1.8992e-05	7.1938e-06	506.79	190.45	189.29	72.797	5.7264e-06	74.672	0.0011803	0.0011748	0.0003365	1183.6	1.271e-05	1.2913e-05	1095	488.06	1.2819e-05	1.3122e-05	466.19	173.66	173.7	67.442	1.2929e-05	69.146	322.092	185.962	179.279	115.855	260.447	252.447	114.423	120.513	301.063	253.099	118.589	123.282	125.303	129.509	237.886	125.687	-8191	255	
13378.788	1	1	0	0	0.23804	0.050973	0.08188	0.17343	0.18376	0.10127	0.27987	0.16381	0.084584	0.028437	0.20671	0.10551	0.28151	0.24902	0.38461	0.16969	-2.6792	-2.1729	-2.7562	-2.9938	-2.2979	-3.0708	-2.7188	-2.5563	-2.9521	-2.2146	-2.8146	-2.9292	-2.4875	-3	-2.7021	-2.5104	457.184	202.420	183.855	167.775	295.625	324.565	361.928	417.787	403.473	218.594	440.391	317.596	106.987	133.596	415.402	431.582	0.0017259	0.00089037	0.00024658	1288.4	1.1548e-05	8.7888e-06	1192.1	532.46	1.4507e-05	2.4029e-06	504.52	188.75	190.31	73.371	1.1861e-05	75.047	0.0011832	0.0011839	0.00033881	1178.9	1.2818e-05	1.3118e-05	1088.9	487.78	1.291e-05	1.2896e-05	463.51	173.15	174.46	67.977	1.3395e-05	69.282	317.672	198.638	176.586	115.897	233.528	250.343	115.015	120.704	257.790	269.895	118.544	122.739	124.868	129.548	247.757	125.881	-8191	255	
13378.908	1	1	0	0	0.2417	0.1718	0.23431	0.33653	0.088662	0.1313	0.17104	0.20073	0.15473	0.056017	0.20595	0.16984	0.37157	0.15339	0.16221	0.1485	-2.3937	-2.2667	-2.5208	-2.9583	-2.3229	-2.9854	-2.8375	-2.7604	-2.8458	-2.5479	-2.6104	-3.0583	-2.2854	-3	-2.5812	-2.5854	259.010	232.930	199.895	111.301	266.924	233.792	416.035	442.786	438.210	452.551	111.487	133.394	397.072	434.862	406.921	416.479	0.0018499	0.00099838	0.0002746	1282.6	9.9132e-06	7.5922e-06	1192.8	529.47	1.223e-05	1.1089e-05	505.04	188.94	191.02	73.139	5.8766e-06	74.931	0.001188	0.0011932	0.00034927	1177.4	1.2928e-05	1.3138e-05	1086.7	486.92	1.3178e-05	1.3039e-05	463.36	172.9	174.13	67.617	1.3508e-05	69.226	321.116	207.178	210.785	116.106	256.559	253.193	114.894	121.056	299.900	270.798	118.495	123.078	125.033	129.769	265.650	125.634	-8191	255	
13379.003	1	1	0	0	0.21167	0.099209	0.092948	0.22176	0.12831	0.13958	0.29571	0.28009	0.16269	0.17401	0.43433	0.16424	0.068131	0.15756	0.053817	0.18626	-2.5854	-2.2708	-2.3604	-3.1333	-2.2625	-2.7313	-2.9562	-2.4146	-3.0417	-2.3583	-2.6646	-3.0125	-2.3521	-2.9208	-2.8896	-2.3937	426.408	177.858	305.815	418.360	299.104	147.619	381.388	384.348	243.417	282.996	374.807	373.068	391.869	176.466	425.322	105.613	0.0018529	0.00099627	0.00012018	1290.4	1.1291e-05	4.7931e-06	1193.5	532.83	1.4225e-05	8.5147e-06	502.83	189.13	188.76	72.453	1.1082e-05	74.754	0.00121	0.0011911	0.00034363	1180.8	1.2638e-05	1.3145e-05	1089.6	486.22	1.3019e-05	1.3297e-05	462.75	173.15	173.72	67.362	1.3347e-05	69.142	318.424	214.143	190.352	116.191	270.120	198.510	115.014	120.959	253.058	243.946	118.066	122.790	125.272	130.040	266.693	125.735	-8191	255	
13379.076	1	1	0	0	0.14649	0.032764	0.17208	0.07908	0.077614	0.1564	0.25249	0.21738	0.31713	0.076926	0.27384	0.096924	0.15961	0.22124	0.23367	0.055158	-2.7167	-2.7875	-2.2458	-3.0667	-2.2583	-2.5875	-3.0083	-2.5687	-2.8604	-2.6854	-2.6167	-3.0875	-2.4708	-2.8208	-2.7979	-2.4188	117.705	110.138	174.554	320.559	219.272	188.744	432.447	402.365	166.179	429.337	400.350	198.044	121.042	426.608	144.461	405.848	0.001592	0.00077778	0.0002828	1291.7	1.1537e-05	5.8753e-06	1193.5	531.01	1.8204e-05	6.9679e-06	505.04	188.83	190.42	73.005	9.5004e-06	75.074	0.001205	0.001237	0.00034335	1182.8	1.3064e-05	1.3887e-05	1090.9	486.32	1.3154e-05	1.3557e-05	463.63	173.05	174.31	67.692	1.3538e-05	69.334	315.796	206.768	199.092	116.060	291.541	216.688	115.142	120.916	268.609	253.994	118.612	122.797	125.459	129.937	255.473	126.404	-8191	255	
13379.197	1	1	0	0	0.065792	0.24364	0.10191	0.19638	0.17016	0.1772	0.18073	0.3332	0.29904	0.22899	0.14103	0.1331	0.18165	0.17231	0.093096	0.16772	-2.525	-2.6917	-2.3271	-3.3187	-2.35	-2.5083	-3.1375	-2.4646	-2.6854	-2.8604	-2.3854	-3.0104	-2.5854	-2.5792	-2.85	-2.2646	437.503	205.961	252.572	452.703	205.318	201.737	408.135	395.813	119.299	114.208	432.105	409.587	115.700	440.804	145.604	433.036	0.0018217	0.0010776	0.00032978	1284.1	8.9556e-06	5.7707e-06	1191.3	531.59	1.3145e-05	9.757e-06	503.82	188.52	191.77	73.168	1.161e-05	75.157	0.0012226	0.0012505	0.00034676	1178.2	1.3104e-05	1.404e-05	1085.5	486.96	1.3456e-05	1.3653e-05	462.99	172.87	174.84	67.951	1.3365e-05	69.434	319.463	219.758	212.239	116.333	256.711	211.192	115.506	121.161	248.485	255.558	118.932	123.168	125.657	129.775	252.174	125.827	-8191	255	
13379.291	1	1	0	0	0.068343	0.2935	0.17753	0.2221	0.42565	0.10064	0.32781	0.17445	0.10229	0.12174	0.17063	0.16066	0.049515	0.13419	0.1355	0.1892	-2.4021	-2.6604	-2.2083	-3.0396	-2.3812	-2.6042	-3.1979	-2.4125	-2.8187	-2.8312	-2.5458	-3.1188	-2.5917	-2.4792	-3.0396	-2.3854	175.053	318.660	353.500	405.755	110.141	184.885	411.071	456.177	369.112	190.168	240.697	413.263	430.529	409.294	167.748	364.642	0.0017287	0.0010554	0.00022588	1286.1	1.1636e-05	7.6282e-06	1189.6	530.8	1.9052e-05	4.2507e-06	499.5	188.62	187.65	72.251	5.5e-06	74.266	0.0012408	0.0012604	0.0003429	1179	1.3308e-05	1.3911e-05	1082.9	485.89	1.3157e-05	1.3817e-05	459.76	171.89	172.84	66.931	1.3476e-05	68.295	320.592	182.647	175.842	115.656	246.341	250.467	115.310	121.441	268.268	271.871	118.915	123.317	125.609	129.698	270.423	125.366	-8191	255	
13379.387	1	1	0	0	0.18012	0.16805	0.12733	0.11199	0.095612	0.096655	0.24276	0.48701	0.11518	0.075331	0.16242	0.29602	0.073261	0.19252	0.22891	0.020107	-2.2854	-2.8604	-2.1458	-3.0208	-2.6625	-2.3563	-3.0187	-2.5021	-2.5896	-2.675	-2.4979	-2.925	-2.6458	-2.3063	-2.9667	-2.5271	189.780	383.793	239.143	103.071	249.062	256.961	428.663	447.888	153.401	420.998	411.627	109.452	422.445	403.214	218.600	283.189	0.0018254	0.0010164	0.00019162	1286.4	1.3235e-05	1.1387e-05	1182.4	526.28	1.7606e-05	7.2398e-06	495.73	185.95	187.39	71.068	1.2891e-05	72.895	0.0012361	0.0012184	0.00034477	1177.2	1.327e-05	1.3533e-05	1079.4	482.13	1.3022e-05	1.307e-05	456.98	170.23	171.17	65.835	1.313e-05	67.293	316.733	186.991	208.589	115.658	248.923	233.595	114.287	120.261	263.401	223.841	117.818	122.154	124.799	128.869	236.921	125.533	-8191	255	
13379.483	1	1	0	0	0.19573	0.10743	0.17363	0.41425	0.14644	0.054549	0.20383	0.2856	0.061862	0.32456	0.50596	0.18052	0.16797	0.1432	0.071103	0.11526	-2.1625	-2.7271	-2.225	-2.7625	-2.4896	-2.3125	-3.2375	-2.6979	-2.4271	-3.0062	-2.4375	-2.7542	-3.0333	-2.4104	-2.9604	-2.6292	213.056	235.740	283.586	367.503	121.355	141.425	355.626	402.389	394.616	187.023	389.202	312.128	380.367	453.932	243.194	144.028	0.0018168	0.0006449	0.00028823	1277	1.0827e-05	4.4016e-06	1181	522.93	1.4505e-05	5.7883e-06	495.43	184.34	185.49	69.819	9.5499e-06	71.671	0.001191	0.0012025	0.0003434	1172.5	1.3143e-05	1.3498e-05	1076.8	480.39	1.316e-05	1.2993e-05	453.37	168.45	169.81	64.783	1.3161e-05	66.105	318.721	143.843	223.246	115.664	248.652	266.349	114.712	120.622	276.929	267.088	118.126	122.648	125.166	129.345	279.470	125.945	-8191	255	
13379.604	1	1	0	0	0.24859	0.33969	0.22392	0.064348	0.05292	0.22573	0.075993	0.21582	0.33863	0.052441	0.29479	0.21015	0.23224	0.063692	0.084867	0.2256	-2.0396	-2.775	-2.2812	-2.8271	-2.8979	-2.3583	-3.0687	-2.7021	-2.4854	-3	-2.4333	-2.7208	-2.8937	-2.4437	-2.8563	-2.9125	371.567	169.187	460.754	131.790	138.129	255.885	130.280	394.080	215.619	129.655	434.624	376.095	430.472	108.928	160.183	172.392	0.0017037	0.00073006	0.00018142	1280.2	6.0269e-06	6.6087e-06	1173.3	518.69	1.3025e-05	6.4901e-06	491.89	181.4	185.3	69.741	8.993e-06	71.303	0.0011867	0.0012084	0.00034574	1171.7	1.272e-05	1.3458e-05	1067.3	476.88	1.3097e-05	1.3628e-05	450.64	166.54	169.36	64.723	1.3325e-05	65.828	318.829	160.695	198.769	115.915	209.229	224.498	114.917	120.737	285.251	266.523	118.372	122.664	125.182	129.734	266.440	125.971	-8191	255	
13379.676	1	1	0	0	0.20718	0.14816	0.52844	0.087349	0.34208	0.2271	0.15492	0.10165	0.18481	0.091875	0.23369	0.15739	0.20627	0.20818	0.076612	0.095773	-1.8417	-2.7375	-2.4875	-2.6146	-2.7812	-2.2229	-3.1708	-2.8833	-2.3167	-3.1458	-2.5396	-2.7042	-2.8917	-2.6771	-2.9021	-2.8688	458.390	172.498	415.323	416.695	259.166	189.766	433.746	332.571	304.647	118.582	418.210	302.404	127.376	415.536	371.282	248.320	0.0016426	0.0012606	0.00025739	1275.3	9.2471e-06	6.6932e-06	1165.4	518.85	9.5643e-06	5.381e-06	488.11	180.77	182.54	69.15	8.911e-06	70.232	0.0012035	0.0012293	0.00033905	1169.1	1.2849e-05	1.346e-05	1066.8	475.75	1.2992e-05	1.3028e-05	447.44	165.73	168.14	64.123	1.3144e-05	65.183	317.180	189.238	202.681	115.114	218.139	267.052	114.496	120.122	295.352	251.037	118.500	122.369	124.828	129.057	306.084	125.500	-8191	255	
13379.796	1	1	0	0	0.014335	0.094254	0.23779	0.16271	0.23461	0.11682	0.18174	0.43626	0.19851	0.21587	0.11569	0.030242	0.31043	0.29546	0.097296	0.067814	-2.0104	-3.0292	-2.4792	-2.6375	-2.8771	-2.2562	-2.875	-3.0563	-2.3063	-3.0875	-2.675	-2.6437	-3.1917	-2.3958	-2.575	-2.9479	325.604	114.393	330.900	425.326	262.915	339.403	359.126	446.032	236.033	425.728	102.871	366.493	433.615	390.691	128.873	401.208	0.0016572	0.00079689	0.00022174	1271.9	6.8687e-06	1.1152e-05	1167.1	516.27	1.6005e-05	1.1396e-05	486.46	181	183.25	69.226	1.4367e-05	71.233	0.0011981	0.0011932	0.00033533	1166.5	1.2772e-05	1.3475e-05	1064.5	474.09	1.2912e-05	1.3098e-05	448.22	166.01	168.11	64.363	1.3244e-05	65.685	315.330	201.518	228.635	115.542	248.322	245.790	114.218	120.448	298.908	278.961	118.651	122.399	125.130	129.256	254.086	125.423	-8191	255	
13379.893	1	1	0	0	0.1746	0.14704	0.15265	0.37164	0.13848	0.062587	0.21646	0.32834	0.21578	0.20955	0.28856	0.13566	0.063766	0.31594	0.14334	0.16894	-1.9188	-2.9167	-2.4354	-2.5104	-2.9437	-2.3583	-2.8333	-3.1125	-2.2146	-2.8625	-2.7625	-2.4938	-3.0396	-2.3979	-2.7208	-2.9771	383.689	258.410	234.550	397.857	174.824	342.010	354.003	415.289	386.751	355.420	395.192	382.400	114.271	408.479	193.609	110.313	0.0017423	0.00088734	0.00029496	1273.6	3.4163e-06	7.0156e-06	1165.3	519.11	1.514e-05	7.5293e-06	489.87	181.69	183.63	70.373	1.5595e-05	71.523	0.0011971	0.0012113	0.00032806	1166.9	1.2931e-05	1.3275e-05	1066.1	476.38	1.3141e-05	1.3264e-05	449.84	166.63	168.61	65.204	1.3485e-05	66.079	314.519	211.681	190.605	115.558	219.168	218.256	114.653	120.518	268.751	246.198	118.377	122.366	125.000	129.143	266.981	125.578	-8191	255	
13379.989	1	1	0	0	0.015083	0.066148	0.15624	0.4244	0.06386	0.19972	0.12948	0.23334	0.13774	0.1033	0.19021	0.33636	0.40245	0.33903	0.27415	0.13827	-1.8563	-2.6688	-2.6354	-2.5062	-3.0354	-2.4771	-2.7667	-3.0542	-2.25	-2.8917	-2.8667	-2.3542	-3.1979	-2.6521	-2.4417	-3.2188	116.696	408.058	450.007	455.304	424.369	388.564	403.492	453.032	145.668	327.265	426.964	357.173	458.097	129.701	306.617	353.101	0.0017681	0.00050855	0.00026155	1276.1	8.2702e-06	7.3033e-06	1169.4	519.03	6.2371e-06	1.4446e-05	487.57	182.15	185.15	70.174	4.9086e-06	72.025	0.0012108	0.0012105	0.0003492	1169.6	1.3022e-05	1.3509e-05	1063.9	475.99	1.3257e-05	1.3569e-05	447.52	166.1	169.31	65.267	1.3518e-05	66.37	322.582	147.154	161.235	115.605	243.768	232.783	114.149	120.623	230.356	238.288	118.269	122.674	125.329	129.651	250.988	125.621	-8191	255	
13380.083	1	1	0	0	0.22489	0.13226	0.32802	0.25153	0.19216	0.22112	0.11715	0.21514	0.15896	0.164	0.063027	0.27727	0.089348	0.19513	0.16951	0.2056	-1.9604	-2.8792	-2.7333	-2.4646	-2.9562	-2.4167	-2.3854	-3.0583	-2.4813	-2.7833	-2.9208	-2.3688	-3.1042	-2.8479	-2.3833	-3.1271	294.644	220.929	393.890	333.157	384.314	281.277	328.850	412.171	418.009	226.635	446.752	397.252	376.894	409.779	371.326	431.176	0.0017064	0.00099992	0.00020263	1279	5.6219e-06	6.206e-06	1162.6	518.87	7.3437e-06	8.3114e-06	484.46	180.84	184.58	71.144	8.432e-06	71.967	0.0012033	0.0012265	0.00035111	1167.5	1.3071e-05	1.351e-05	1060.3	475.67	1.2959e-05	1.3455e-05	446.6	166.32	169.14	65.867	1.3395e-05	66.546	321.359	189.404	271.291	115.825	309.611	229.381	114.806	120.786	266.368	249.055	117.986	122.475	124.805	129.433	255.413	125.562	-8191	255	
13380.204	1	1	0	0	0.28748	0.075974	0.067795	0.32356	0.28847	0.044299	0.38954	0.24706	0.12115	0.20247	0.26269	0.036321	0.15587	0.1226	0.08417	0.13503	-1.8687	-2.4104	-2.9208	-2.4583	-2.9354	-2.6188	-2.6188	-3.1958	-2.2792	-2.5333	-2.9729	-2.4646	-3.0271	-2.7896	-2.4521	-3.0458	301.624	163.829	287.137	328.782	386.822	419.390	425.205	418.355	428.960	353.547	268.240	221.433	379.210	426.910	366.652	427.887	0.0016783	0.00040062	0.0001663	1271.1	1.5867e-05	3.8941e-06	1168.6	519.22	1.138e-05	4.1041e-06	488.86	182.49	184.55	70.426	1.0259e-05	71.862	0.0012003	0.001232	0.00034521	1166.9	1.3016e-05	1.3728e-05	1065.4	476.63	1.3297e-05	1.3739e-05	448.6	166.53	168.72	65.422	1.3209e-05	66.344	313.345	238.707	231.074	115.904	226.686	299.130	114.628	120.697	315.336	309.999	117.880	122.665	124.981	129.486	229.600	126.005	-8191	255	
13380.300	1	1	0	0	0.074127	0.17184	0.095863	0.19549	0.12015	0.084499	0.20794	0.12118	0.16402	0.18199	0.073445	0.11094	0.20375	0.0034012	0.084435	0.38611	-2.1146	-2.5458	-2.9437	-2.2979	-2.7833	-2.7521	-2.5187	-3.2417	-2.3042	-2.4375	-3.1417	-2.4792	-2.8458	-2.8458	-2.3854	-2.9375	370.177	154.848	347.844	374.100	110.902	258.777	437.651	362.131	323.901	375.282	344.864	357.367	461.521	110.785	134.868	437.823	0.0016573	0.0008883	0.00029815	1275.3	4.3677e-06	2.3653e-06	1164.4	519.58	1.4439e-05	8.0974e-06	484.81	180.8	185.63	71.259	1.0045e-05	71.861	0.0011993	0.0012202	0.00033965	1166.5	1.3234e-05	1.3562e-05	1062.5	475.47	1.3664e-05	1.3528e-05	446.5	166.25	169.62	65.836	1.3459e-05	66.572	318.615	194.030	173.609	115.995	215.297	230.162	114.698	120.816	278.994	233.658	118.413	122.523	124.736	129.233	270.961	124.804	-8191	255	
13380.372	1	1	0	0	0.074544	0.17861	0.17237	0.30181	0.19536	0.23593	0.22784	0.39656	0.18665	0.30445	0.15189	0.37778	0.050278	0.19394	0.066267	0.28553	-2.2	-2.6458	-2.9833	-2.4604	-2.825	-2.8104	-2.3771	-3.1417	-2.6437	-2.225	-3.05	-2.4479	-2.8625	-2.9396	-2.2542	-3.1333	417.123	401.599	333.991	393.875	191.075	310.365	371.009	438.574	125.250	389.299	387.946	392.811	123.337	411.751	382.327	433.282	0.0016562	0.00096443	0.00014643	1267.3	1.2172e-05	8.1132e-06	1164.3	520.41	1.4272e-05	6.7121e-06	485.84	181.76	186.47	71.788	1.4333e-05	72.648	0.001239	0.0012469	0.00034617	1165.3	1.3249e-05	1.3681e-05	1061.2	476.47	1.3501e-05	1.3775e-05	447.06	166.37	170.44	66.416	1.3279e-05	67.082	319.038	193.125	203.726	115.679	266.290	265.685	114.422	120.451	270.883	281.163	118.232	122.172	124.860	129.219	247.072	125.274	-8191	255	
13380.468	1	1	0	0	0.017846	0.072555	0.15116	0.14078	0.24458	0.12866	0.25157	0.28483	0.21951	0.045475	0.11408	0.31196	0.24632	0.27397	0.17507	0.22404	-2.4479	-2.2146	-2.8688	-2.7083	-2.7125	-3.0062	-2.6	-3.0333	-2.4729	-2.3	-3.1625	-2.6312	-2.5396	-2.9917	-2.2479	-2.9979	370.903	252.503	288.783	144.552	288.400	144.157	404.739	419.653	202.727	111.448	389.723	359.747	113.781	438.612	307.625	189.225	0.0018325	0.00051856	0.00032267	1272.2	1.4234e-05	4.4165e-06	1163.7	521.86	1.0475e-05	3.5788e-06	490.37	182.93	186.92	71.907	1.1573e-05	73.376	0.0012327	0.001253	0.00033957	1164.3	1.3498e-05	1.3404e-05	1061.2	478.07	1.3403e-05	1.3403e-05	450.25	167.58	170.77	66.651	1.3331e-05	67.44	319.762	178.286	210.641	115.756	268.563	252.216	114.764	120.886	285.322	269.771	118.422	122.865	125.374	129.605	275.020	125.585	-8191	255	
13380.564	1	1	0	0	0.22613	0.15759	0.040317	0.14704	0.12808	0.11476	0.2843	0.33045	0.022476	0.33538	0.17437	0.11246	0.089579	0.25508	0.21535	0.18857	-2.4667	-2.2313	-2.8208	-2.7896	-2.3812	-3.1583	-2.4521	-2.7062	-2.8271	-2.4375	-3.1125	-2.7396	-2.65	-3.2833	-2.2604	-2.6604	359.932	111.182	267.304	337.873	294.550	276.066	147.984	395.971	451.837	363.463	366.759	404.592	458.685	414.294	251.546	365.914	0.0017386	0.00068041	0.00019751	1266.8	1.0881e-05	8.9734e-06	1165.6	520.29	1.1563e-05	4.7607e-06	490.45	182.86	186.31	71.584	5.9007e-06	72.507	0.001213	0.0012648	0.00034501	1165	1.3079e-05	1.3461e-05	1065.3	477.45	1.3082e-05	1.3789e-05	450.79	167.68	170.51	66.35	1.3291e-05	67.154	314.277	140.750	185.320	116.699	273.438	252.575	114.567	120.597	261.297	232.097	118.022	122.306	124.753	129.187	262.331	125.669	-8191	255	
#DATA ENDS
