BOXY.EXE: ISS Imagent and Oximeter Data Acquisition Program Version 0.80
Ascii Record File

#ACQ INFORMATION
2  Detector Channels 
16  External MUX Channels 
1  Auxiliary Channels 
5000  Waveform (CCF) Frequency (Hz)
1  Waveforms Skipped 
30  Waveforms Averaged 
1  Cycles Averaged 
16  Acquisitions per Waveform 
10.0806  Updata Rate (Hz) 

#FILE INFORMATION
TRUE -- External MUX Channel results are PARSED.
FALSE -- AC DC and Phase are NOT grouped.
TRUE -- Companion Program Settings File CREATED.
FALSE -- AC data not excluded
FALSE -- DC data not excluded
FALSE -- Phase data not excluded
FALSE -- Auxillary Chn. data not excluded
Tab delimiters

#CALIBRATION STATE
TRUE -- Waveform Calibration Values APPLIED.


#AUX CALIBRATION VALUES
Val Type	aux-1	

Term	1.0000e+00	
Factor	0.0000e+00	


#WF CALIBRATION VALUES
A = Detector Channel
Val Type	A-AC1	A-AC2	A-AC3	A-AC4	A-AC5	A-AC6	A-AC7	A-AC8	A-AC9	A-AC10	A-AC11	A-AC12	A-AC13	A-AC14	A-AC15	A-AC16	A-DC1	A-DC2	A-DC3	A-DC4	A-DC5	A-DC6	A-DC7	A-DC8	A-DC9	A-DC10	A-DC11	A-DC12	A-DC13	A-DC14	A-DC15	A-DC16	A-Ph1	A-Ph2	A-Ph3	A-Ph4	A-Ph5	A-Ph6	A-Ph7	A-Ph8	A-Ph9	A-Ph10	A-Ph11	A-Ph12	A-Ph13	A-Ph14	A-Ph15	A-Ph16	

Term	0.00000e+00	0.00000e+00	0.00000e+00	0.00000e+00	0.00000e+00	0.00000e+00	0.00000e+00	0.00000e+00	0.00000e+00	0.00000e+00	0.00000e+00	0.00000e+00	0.00000e+00	0.00000e+00	0.00000e+00	0.00000e+00	0.00000e+00	0.00000e+00	0.00000e+00	0.00000e+00	0.00000e+00	0.00000e+00	0.00000e+00	0.00000e+00	0.00000e+00	0.00000e+00	0.00000e+00	0.00000e+00	0.00000e+00	0.00000e+00	0.00000e+00	0.00000e+00	0.00000e+00	0.00000e+00	0.00000e+00	0.00000e+00	0.00000e+00	0.00000e+00	0.00000e+00	0.00000e+00	0.00000e+00	0.00000e+00	0.00000e+00	0.00000e+00	0.00000e+00	0.00000e+00	0.00000e+00	0.00000e+00	
Factor	1.00000e+00	1.00000e+00	1.00000e+00	1.00000e+00	1.00000e+00	1.00000e+00	1.00000e+00	1.00000e+00	1.00000e+00	1.00000e+00	1.00000e+00	1.00000e+00	1.00000e+00	1.00000e+00	1.00000e+00	1.00000e+00	1.00000e+00	1.00000e+00	1.00000e+00	1.00000e+00	1.00000e+00	1.00000e+00	1.00000e+00	1.00000e+00	1.00000e+00	1.00000e+00	1.00000e+00	1.00000e+00	1.00000e+00	1.00000e+00	1.00000e+00	1.00000e+00	X	X	X	X	X	X	X	X	X	X	X	X	X	X	X	X	

B = Detector Channel
Val Type	B-AC1	B-AC2	B-AC3	B-AC4	B-AC5	B-AC6	B-AC7	B-AC8	B-AC9	B-AC10	B-AC11	B-AC12	B-AC13	B-AC14	B-AC15	B-AC16	B-DC1	B-DC2	B-DC3	B-DC4	B-DC5	B-DC6	B-DC7	B-DC8	B-DC9	B-DC10	B-DC11	B-DC12	B-DC13	B-DC14	B-DC15	B-DC16	B-Ph1	B-Ph2	B-Ph3	B-Ph4	B-Ph5	B-Ph6	B-Ph7	B-Ph8	B-Ph9	B-Ph10	B-Ph11	B-Ph12	B-Ph13	B-Ph14	B-Ph15	B-Ph16	

Term	0.00000e+00	0.00000e+00	0.00000e+00	0.00000e+00	0.00000e+00	0.00000e+00	0.00000e+00	0.00000e+00	0.00000e+00	0.00000e+00	0.00000e+00	0.00000e+00	0.00000e+00	0.00000e+00	0.00000e+00	0.00000e+00	0.00000e+00	0.00000e+00	0.00000e+00	0.00000e+00	0.00000e+00	0.00000e+00	0.00000e+00	0.00000e+00	0.00000e+00	0.00000e+00	0.00000e+00	0.00000e+00	0.00000e+00	0.00000e+00	0.00000e+00	0.00000e+00	-8.63402e+01	-1.28301e+02	-1.03800e+02	-1.75865e+02	-1.14073e+01	-9.31957e+01	-1.64450e+02	-1.61923e+02	-3.25388e+01	-6.50733e+01	-1.79394e+02	-1.69306e+02	-1.75795e+02	-1.70708e+02	-7.57699e+01	-1.59905e+02	
Factor	3.75157e-04	1.23413e-03	3.18699e-04	1.70450e-01	4.10421e-06	1.94945e-05	2.78808e-01	2.32519e-01	9.50602e-06	1.69483e-05	5.42727e+00	2.80746e-01	2.09241e-01	2.33913e-01	1.51734e-05	3.71430e-01	3.15923e-05	3.36516e-05	9.32732e-06	6.64208e-02	3.05018e-07	3.68882e-07	1.02746e-01	9.20121e-02	3.49895e-07	3.70854e-07	1.93302e+00	1.06642e-01	8.34840e-02	9.01328e-02	3.70025e-07	1.37825e-01	X	X	X	X	X	X	X	X	X	X	X	X	X	X	X	X	



#DISTANCE SETTINGS
A = Detector Channel
A-1	A-2	A-3	A-4	A-5	A-6	A-7	A-8	A-9	A-10	A-11	A-12	A-13	A-14	A-15	A-16	

1.0000e+01	1.0000e+01	1.0000e+01	1.4500e+00	1.0000e+01	1.0000e+01	1.5100e+00	1.9500e+00	1.0000e+01	1.0000e+01	2.0100e+00	2.5000e+00	2.4400e+00	2.9500e+00	1.0000e+01	3.0100e+00	

B = Detector Channel
B-1	B-2	B-3	B-4	B-5	B-6	B-7	B-8	B-9	B-10	B-11	B-12	B-13	B-14	B-15	B-16	

1.0000e+01	1.0000e+01	1.0000e+01	1.4500e+00	1.0000e+01	1.0000e+01	1.5100e+00	1.9500e+00	1.0000e+01	1.0000e+01	2.0100e+00	2.5000e+00	2.4400e+00	2.9500e+00	1.0000e+01	3.0100e+00	




#DATA BEGINS
time	group	step	mark	flag	A-AC1	A-AC2	A-AC3	A-AC4	A-AC5	A-AC6	A-AC7	A-AC8	A-AC9	A-AC10	A-AC11	A-AC12	A-AC13	A-AC14	A-AC15	A-AC16	A-DC1	A-DC2	A-DC3	A-DC4	A-DC5	A-DC6	A-DC7	A-DC8	A-DC9	A-DC10	A-DC11	A-DC12	A-DC13	A-DC14	A-DC15	A-DC16	A-Ph1	A-Ph2	A-Ph3	A-Ph4	A-Ph5	A-Ph6	A-Ph7	A-Ph8	A-Ph9	A-Ph10	A-Ph11	A-Ph12	A-Ph13	A-Ph14	A-Ph15	A-Ph16	B-AC1	B-AC2	B-AC3	B-AC4	B-AC5	B-AC6	B-AC7	B-AC8	B-AC9	B-AC10	B-AC11	B-AC12	B-AC13	B-AC14	B-AC15	B-AC16	B-DC1	B-DC2	B-DC3	B-DC4	B-DC5	B-DC6	B-DC7	B-DC8	B-DC9	B-DC10	B-DC11	B-DC12	B-DC13	B-DC14	B-DC15	B-DC16	B-Ph1	B-Ph2	B-Ph3	B-Ph4	B-Ph5	B-Ph6	B-Ph7	B-Ph8	B-Ph9	B-Ph10	B-Ph11	B-Ph12	B-Ph13	B-Ph14	B-Ph15	B-Ph16	aux-1	digaux	

1019.976	1	1	0	768	0.34939	0.20954	0.14933	0.24796	0.24372	0.21567	0.368	0.074212	0.093509	0.39914	0.052531	0.36198	0.028539	0.16556	0.2684	0.19375	-1.8729	-2.1292	-2.4292	-2.4792	-2.1875	-2.5833	-2.0938	-2.3458	-2.5375	-2.1479	-2.6813	-2.1458	-2.1771	-2.5729	-1.7833	-2.2708	223.470	60.375	210.060	-56.597	257.428	63.207	265.157	99.050	196.491	6.326	260.941	281.825	272.865	43.481	10.113	106.971	5.5149e-05	0.00034339	6.7747e-05	1449.4	2.8167e-06	6.4847e-06	1873.2	307.48	2.4651e-06	7.5947e-06	440.56	125.74	81.474	21.749	5.95e-06	36.835	0.00067068	0.00069645	0.00018855	1423.1	7.4354e-06	7.5559e-06	1852.7	310.82	7.5278e-06	7.7779e-06	444.5	126.31	82.979	22.989	7.7135e-06	38.267	59.492	-22.678	58.769	-53.083	281.568	11.814	-52.985	-45.917	206.723	64.749	-46.797	-39.832	-38.111	-31.211	11.395	-33.640	-8191	255	
1020.072	1	1	0	0	0.094463	0.17833	0.10198	0.40231	0.33013	0.10256	0.16334	0.20507	0.16916	0.050173	0.27551	0.10845	0.19389	0.23532	0.11024	0.17416	-1.9083	-2.0729	-2.6979	-2.3104	-1.9521	-2.8458	-2.1375	-2.3208	-2.7104	-2.1188	-2.6083	-2.1917	-2.0604	-2.6208	-2.0333	-2.3604	-5.182	178.396	-42.936	260.607	98.170	128.403	203.719	-19.198	210.799	95.638	13.993	-5.267	-44.749	291.674	26.091	222.763	0.00017211	0.00039253	6.3171e-05	1452.2	1.8779e-06	4.581e-06	1879.2	309.45	1.6647e-06	5.5271e-06	436.35	125.32	81.103	21.905	3.5006e-06	36.955	0.0006616	0.000705	0.00018676	1422.4	7.4234e-06	7.5275e-06	1853.9	311.04	7.5592e-06	7.8111e-06	444.31	126.3	82.802	23.035	7.7004e-06	38.215	129.672	34.147	50.854	-53.250	270.812	20.966	-53.142	-46.257	-4.967	49.467	-46.791	-39.715	-38.150	-31.443	117.202	-33.312	-8191	255	
1020.168	1	1	0	0	0.068622	0.06659	0.30872	0.24862	0.13285	0.14096	0.17427	0.17179	0.090003	0.13806	0.25934	0.32801	0.11581	0.1236	0.16315	0.12909	-2.1167	-1.9354	-2.4188	-2.5604	-2.0854	-2.675	-2.1188	-2.0625	-2.5542	-2.0729	-2.4854	-2.3479	-2.0021	-2.6896	-2.1708	-2.1646	-7.730	181.769	53.796	236.936	-8.419	115.070	227.767	192.354	82.796	-62.773	245.980	97.057	21.657	167.286	267.365	225.860	0.0001392	0.0004688	0.00013611	1454.4	1.4263e-06	6.687e-06	1873.5	307.76	2.4519e-06	5.091e-06	445.43	125.24	81.261	21.677	6.629e-07	36.637	0.00065798	0.00070367	0.0001914	1423.8	7.5117e-06	7.4837e-06	1853	310.9	7.5016e-06	7.7941e-06	446.23	126.14	82.953	22.975	7.7505e-06	38.202	228.648	16.562	9.506	-53.194	285.826	-14.145	-52.969	-45.976	282.429	106.475	-47.006	-39.996	-38.258	-30.849	273.096	-33.244	-8191	255	
1020.264	1	1	0	0	0.092345	0.25437	0.031598	0.11067	0.22868	0.073126	0.20585	0.10325	0.10292	0.18045	0.05199	0.16734	0.14701	0.18991	0.32345	0.086834	-2.3667	-1.9104	-2.4396	-2.6542	-2.0229	-2.825	-2.3937	-2.3812	-2.8187	-1.8271	-2.2875	-2.5917	-2.0438	-2.5833	-2.3625	-2.1458	166.728	-0.022	175.304	-61.860	258.371	-33.362	225.111	61.973	168.478	148.738	276.109	165.630	-37.945	31.449	102.157	111.343	0.00010367	0.0002195	3.5941e-05	1457.4	3.8643e-06	1.3801e-05	1884.7	309	3.5066e-06	4.6148e-06	445.29	126.12	81.604	21.783	1.3731e-06	36.817	0.00067042	0.00070002	0.00018969	1423.2	7.5359e-06	7.4868e-06	1853.5	310.82	7.4549e-06	7.7748e-06	445.27	126.46	82.941	23.056	7.6834e-06	38.265	168.252	19.045	-64.434	-53.320	281.556	41.593	-53.362	-46.374	209.314	104.961	-46.456	-40.032	-38.608	-31.423	164.775	-33.789	-8191	255	
1020.359	1	1	0	0	0.11352	0.081663	0.14997	0.25668	0.24353	0.028949	0.1729	0.14745	0.10444	0.2437	0.2924	0.13832	0.073657	0.1264	0.2255	0.070144	-2.2188	-2.0208	-2.4625	-2.8	-1.85	-2.3812	-2.5375	-2.1292	-2.5563	-1.9729	-2.2333	-2.5708	-1.8417	-2.425	-2.2708	-2.0687	178.049	-46.248	194.234	252.774	147.043	229.951	264.988	-9.177	-60.792	111.223	24.388	-45.748	200.356	-11.668	172.492	177.660	0.00010037	0.00047782	2.3937e-05	1459.2	2.9808e-06	7.9418e-06	1886.6	309.62	4.1439e-06	5.9103e-06	442.07	125.33	81.778	22.019	3.339e-06	37.168	0.00066884	0.00068993	0.0001903	1423.4	7.4958e-06	7.4391e-06	1855.7	310.82	7.4076e-06	7.7872e-06	445.48	126.24	82.933	23.007	7.6217e-06	38.356	4.498	34.865	276.711	-53.377	284.669	71.429	-53.283	-46.468	241.537	162.337	-46.573	-39.735	-38.468	-30.828	141.025	-33.255	-8191	255	
1020.455	1	1	0	0	0.14364	0.23175	0.22156	0.23316	0.11325	0.12619	0.12738	0.28433	0.16202	0.18304	0.35491	0.1906	0.12066	0.14283	0.13131	0.11801	-2.3604	-1.9833	-2.1958	-2.7521	-2.0563	-2.5812	-2.6063	-2.2271	-2.6229	-2.2646	-2.3021	-2.6063	-1.9375	-2.4042	-2.6375	-2.0271	-33.651	205.817	2.880	226.819	289.741	25.162	213.830	212.340	193.305	84.381	89.908	28.766	171.076	67.619	78.997	-29.317	4.8183e-05	0.00045736	8.3218e-05	1455.4	3.2808e-06	5.7511e-06	1882.7	308.88	4.0996e-06	9.1847e-06	441.79	125.5	81.159	22.017	2.7734e-06	37.185	0.0006641	0.00068516	0.00019313	1423.7	7.3922e-06	7.4822e-06	1854.7	311.04	7.3733e-06	7.6612e-06	444.95	126.28	82.908	23.125	7.5323e-06	38.326	251.714	-33.181	91.511	-53.275	-50.262	98.432	-53.187	-46.335	261.347	106.133	-46.892	-39.775	-38.450	-31.534	119.772	-33.122	-8191	255	
1020.575	1	1	0	0	0.070398	0.10825	0.058501	0.062784	0.029662	0.013027	0.12109	0.17263	0.082487	0.16246	0.2643	0.054462	0.26689	0.10722	0.12924	0.31998	-2.4562	-2.075	-2.0729	-2.9583	-2.0458	-2.45	-2.7229	-1.9542	-2.8042	-2.1312	-2.3	-2.6771	-2.1354	-2.1562	-2.425	-1.9562	75.940	-9.654	198.040	239.122	-45.960	240.336	243.489	295.861	31.194	-16.326	292.552	117.687	172.070	209.182	-29.865	260.161	0.00013975	0.00099016	0.00024344	1445	3.0842e-06	4.8071e-06	1866.9	305.74	2.0753e-06	2.4104e-06	439.71	125.3	81.258	21.843	3.24e-06	36.936	0.00066429	0.00069498	0.00019257	1423.3	7.4259e-06	7.3945e-06	1853.4	310.55	7.436e-06	7.6095e-06	445.55	126.31	82.835	23.032	7.5847e-06	38.302	-42.027	50.874	-0.026	-52.860	292.862	-12.752	-52.746	-45.608	97.098	24.485	-46.419	-39.883	-38.228	-31.328	79.111	-33.011	-8191	255	
1020.671	1	1	0	0	0.20704	0.1964	0.20408	0.072464	0.16115	0.15016	0.30215	0.10873	0.14169	0.32328	0.20436	0.14337	0.14213	0.16034	0.099062	0.22349	-2.1375	-2.1229	-2.1292	-2.8792	-2.0042	-2.4625	-2.7062	-2.025	-2.6021	-2.3708	-2.0125	-2.5729	-2.1271	-2.2604	-2.4146	-1.9396	180.641	-49.472	71.431	162.616	193.348	54.191	286.930	-38.804	231.986	274.707	19.481	216.935	15.825	20.746	292.199	65.875	0.00018472	0.00020598	6.1577e-05	1444.3	4.318e-06	4.3274e-06	1863.1	305.85	2.7107e-06	5.3999e-06	439.13	123.9	80.812	21.627	6.3991e-06	36.659	0.00066752	0.00068916	0.00019378	1421.7	7.3814e-06	7.5313e-06	1852.2	310.49	7.3901e-06	7.5538e-06	445.63	126.01	82.777	23.013	7.4922e-06	38.224	196.419	-23.661	94.721	-52.842	-60.223	40.600	-52.524	-45.616	233.074	119.189	-46.044	-39.371	-37.781	-30.624	-9.858	-32.958	-8191	255	
1020.768	1	1	0	0	0.039748	0.32703	0.10257	0.055667	0.14952	0.22346	0.24423	0.227	0.17321	0.45797	0.15491	0.1827	0.30782	0.14185	0.084458	0.09302	-2.2021	-2.3708	-1.9458	-2.9479	-2.2042	-2.3312	-2.9792	-2.0604	-2.2958	-2.3667	-1.9604	-2.5021	-2.1854	-2.1417	-2.6562	-2	53.424	152.839	41.459	287.959	124.430	212.431	-37.616	286.329	149.091	191.589	164.703	122.965	101.418	-13.992	154.972	198.394	5.2081e-05	0.00033204	0.00012684	1444	4.1678e-06	3.1837e-06	1854.5	303.81	3.5013e-06	4.6954e-06	434.49	123.86	80.485	21.757	1.2772e-05	36.296	0.00066272	0.00068649	0.00019195	1422.7	7.3802e-06	7.5221e-06	1852.8	310.22	7.4805e-06	7.5546e-06	443.98	126.18	82.737	23.015	7.483e-06	38.205	115.756	30.649	105.487	-52.776	-59.769	265.796	-52.374	-45.438	92.692	57.657	-46.137	-39.208	-37.366	-31.005	129.136	-32.698	-8191	255	
1020.864	1	1	0	0	0.05959	0.20902	0.25027	0.11362	0.17986	0.11549	0.18884	0.13022	0.11857	0.19998	0.10018	0.11453	0.081089	0.25736	0.16458	0.22153	-1.95	-2.5146	-1.9479	-3.0917	-2.2438	-2.1729	-2.8125	-2.0146	-2.2896	-2.4625	-1.9375	-2.6375	-2.2708	-2.0792	-2.6417	-2.0792	-6.203	165.747	188.528	267.729	124.228	151.245	224.181	202.665	-18.722	19.178	279.172	-11.457	81.836	40.660	76.950	177.664	0.00014726	0.000193	0.00016434	1447.3	2.5682e-06	6.2338e-06	1882.1	308.72	2.342e-07	7.6545e-06	442.48	125	81.41	21.855	6.8864e-06	36.632	0.00066364	0.00067633	0.00019284	1422.4	7.3141e-06	7.5713e-06	1854.7	310.51	7.5082e-06	7.5492e-06	445.6	126.06	82.919	23.076	7.5354e-06	38.311	143.456	193.477	28.994	-53.085	268.978	18.937	-53.198	-46.139	-27.869	114.328	-46.273	-39.842	-38.024	-31.319	114.765	-33.034	-8191	255	
1020.960	1	1	0	0	0.15883	0.11362	0.13325	0.31481	0.14893	0.11394	0.27029	0.16508	0.26717	0.065564	0.19826	0.1356	0.084781	0.10737	0.16589	0.10798	-1.7667	-2.5354	-1.8354	-2.8312	-2.3021	-2.3375	-2.8563	-2.2271	-2.3063	-2.6667	-1.9958	-2.4417	-2.2125	-1.9542	-2.5104	-2.2958	76.813	117.742	41.236	264.298	33.735	-7.213	274.229	109.070	111.912	214.613	92.845	84.791	224.306	-3.210	289.217	270.894	0.00015018	0.0003771	0.00010898	1452.3	3.0826e-06	8.4119e-06	1878.9	307.15	5.2915e-07	2.7649e-06	438.37	123.98	80.676	21.792	1.7627e-06	36.888	0.00067555	0.00067696	0.0001914	1423.2	7.3331e-06	7.5667e-06	1855.3	310.38	7.6139e-06	7.56e-06	445.79	126.15	82.794	23.03	7.5277e-06	38.212	160.333	118.882	58.471	-53.198	277.230	105.087	-53.067	-45.951	215.205	213.351	-46.119	-39.527	-37.764	-30.699	-50.023	-33.267	-8191	255	
1021.056	1	1	0	0	0.17414	0.35653	0.12374	0.16234	0.20074	0.1763	0.15772	0.090682	0.30642	0.22602	0.034517	0.11544	0.31225	0.2831	0.20752	0.14479	-1.8042	-2.4188	-1.9604	-2.6458	-2.5604	-1.9917	-2.8917	-2.2604	-2.3521	-2.6292	-2.0042	-2.4125	-2.5583	-1.8	-2.6437	-2.1917	24.169	236.427	278.394	179.687	269.642	174.692	222.069	56.278	-13.608	198.761	54.898	38.333	248.052	222.947	168.942	262.943	4.0387e-05	0.00052076	5.5442e-05	1445.3	4.0304e-06	6.1997e-06	1872.9	308.31	6.9331e-07	5.7483e-06	438.59	124.58	81.228	21.708	5.6474e-06	36.933	0.0006741	0.00068502	0.00019263	1422.9	7.2486e-06	7.6435e-06	1854.6	310.7	7.5308e-06	7.4457e-06	445.75	126.19	82.862	23.017	7.5516e-06	38.189	-44.254	47.041	-25.705	-52.944	-61.814	52.277	-52.893	-46.136	15.327	55.507	-46.482	-39.604	-37.917	-31.210	104.750	-33.225	-8191	255	
1021.152	1	1	0	0	0.054629	0.10224	0.089792	0.18209	0.12981	0.20543	0.33973	0.14123	0.12298	0.21446	0.10947	0.062431	0.1096	0.25856	0.15309	0.25603	-1.6667	-2.7354	-1.8833	-2.625	-2.6917	-1.9208	-2.8063	-2.3042	-2.1729	-2.7292	-2.0854	-2.3083	-2.5375	-1.8771	-2.575	-2.5625	254.186	-49.246	-54.854	202.811	45.903	286.819	182.926	62.706	290.144	13.964	37.992	243.707	43.675	284.102	-42.778	110.983	4.3494e-05	0.00053122	0.0001089	1444.2	2.6242e-06	1.0705e-05	1871.9	306.38	1.9536e-06	3.9946e-06	439.99	124.12	80.849	21.924	8.2198e-06	36.656	0.00067463	0.00068109	0.00018933	1422.5	7.3001e-06	7.5874e-06	1854.9	310.58	7.5067e-06	7.5237e-06	444.77	126.11	82.946	22.996	7.5408e-06	38.152	30.500	41.368	95.945	-52.896	260.884	9.587	-52.897	-45.998	194.952	139.813	-46.301	-39.615	-37.737	-29.947	94.897	-32.979	-8191	255	
1021.271	1	1	0	0	0.32395	0.17783	0.13794	0.39328	0.069476	0.06424	0.18716	0.14933	0.22879	0.073151	0.10868	0.14595	0.074319	0.14644	0.12554	0.095891	-1.4979	-2.7125	-2.0312	-2.5083	-2.6042	-2.0062	-2.5333	-2.4917	-2.1458	-2.7812	-2.2083	-2.2667	-2.6083	-1.9271	-2.3958	-2.4417	-22.540	-61.088	221.490	168.292	28.957	188.481	260.850	-19.130	71.880	180.171	-34.942	195.841	227.799	240.733	-30.337	55.956	0.00012473	0.00031774	0.00011845	1440.3	1.7362e-06	1.1172e-05	1861.7	303.54	3.0246e-06	4.401e-06	432.49	123.2	79.754	21.142	5.6543e-06	36.299	0.00067614	0.00067864	0.00019117	1421.2	7.173e-06	7.6351e-06	1852.6	310.1	7.5482e-06	7.4874e-06	443.23	125.92	82.677	22.902	7.6163e-06	38.141	192.872	10.519	-6.842	-52.792	-41.994	56.530	-52.495	-45.225	195.453	111.613	-45.473	-38.955	-36.783	-29.518	50.321	-31.828	-8191	255	
1021.367	1	1	0	0	0.19884	0.14718	0.095088	0.17129	0.18168	0.17217	0.40104	0.20844	0.017042	0.32053	0.20712	0.20413	0.10429	0.21285	0.36295	0.15842	-1.4604	-2.5333	-2.0271	-2.2521	-2.7	-2.0938	-2.6583	-2.4083	-2.0917	-2.6208	-2.1833	-2.2375	-2.5187	-1.95	-2.2896	-2.5667	-7.332	31.906	2.779	279.238	274.235	115.705	187.727	219.115	256.013	-52.361	-54.787	238.554	266.712	-0.488	-12.222	107.084	0.00010225	0.00035993	4.1602e-05	1424.4	2.8974e-06	7.0942e-06	1846.2	302.11	2.2019e-06	5.1108e-06	430.46	122.08	79.712	21.546	4.0763e-06	35.976	0.00067726	0.00067808	0.000191	1419.7	7.2238e-06	7.5644e-06	1851.2	309.89	7.5679e-06	7.6187e-06	443.88	125.96	82.64	22.958	7.6418e-06	38.168	170.803	18.282	136.881	-52.101	235.363	-44.477	-52.040	-44.845	163.860	30.783	-45.672	-38.561	-37.171	-29.873	139.091	-31.803	-8191	255	
1021.463	1	1	0	0	0.15132	0.25152	0.17072	0.23239	0.23996	0.058416	0.297	0.15204	0.074972	0.23738	0.36824	0.11284	0.19814	0.17025	0.070714	0.26226	-1.75	-2.4271	-2.4104	-2.2042	-2.4437	-2.1	-2.5104	-2.55	-1.8875	-2.5375	-2.2917	-1.9542	-2.5917	-1.9833	-2.2438	-2.5542	149.212	181.933	292.380	204.881	6.359	125.284	295.254	59.461	206.891	154.373	217.621	129.619	171.669	262.071	135.802	79.861	7.0983e-05	0.00063327	6.0614e-05	1449.7	2.9039e-06	1.0095e-05	1859.7	307.9	6.6584e-06	3.8403e-06	445.21	125.8	81.235	21.814	3.3793e-06	37.117	0.00067542	0.00068376	0.00018905	1422.1	7.2785e-06	7.5836e-06	1854	310.6	7.5082e-06	7.6342e-06	444.08	126.21	82.776	23.015	7.6171e-06	38.2	287.932	11.644	20.768	-53.110	277.402	67.755	-52.526	-46.057	294.317	28.512	-47.165	-40.045	-38.450	-31.409	83.274	-33.699	-8191	255	
1021.535	1	1	0	0	0.15902	0.23338	0.14834	0.23873	0.22638	0.20933	0.12241	0.21139	0.053478	0.061291	0.095041	0.16296	0.2817	0.15113	0.241	0.14473	-1.4708	-2.325	-2.525	-2.2562	-2.5833	-2.2625	-2.4417	-2.6708	-2.0292	-2.4396	-2.4479	-2.0417	-2.5917	-2.2271	-2.1271	-2.6958	289.362	-31.360	256.842	241.070	-32.384	238.716	-11.152	26.232	141.904	81.586	6.347	18.594	98.648	131.917	263.830	238.915	0.00011296	4.4166e-05	0.00013611	1453.6	3.1203e-06	2.9306e-06	1870	305.6	2.1221e-06	9.5086e-06	434.81	123.7	80.466	21.41	4.0454e-06	36.54	0.00067594	0.00068775	0.00018795	1422.6	7.2651e-06	7.4968e-06	1854.8	310.37	7.6532e-06	7.5816e-06	444.09	126.14	82.719	23	7.6749e-06	38.156	214.781	275.789	78.535	-53.317	263.631	64.122	-52.911	-45.619	172.983	128.730	-45.918	-39.103	-37.028	-29.719	1.185	-32.874	-8191	255	
1021.656	1	1	0	0	0.15833	0.1757	0.07384	0.23329	0.027515	0.11907	0.10628	0.016983	0.029569	0.03429	0.18011	0.090951	0.16873	0.16209	0.30676	0.11691	-1.5896	-2.2958	-2.5229	-2.1458	-2.675	-2.1813	-2.3271	-2.7625	-2.2354	-2.1729	-2.475	-1.9312	-2.6104	-2.2479	-2.0312	-2.4854	81.939	281.494	258.564	278.305	28.067	12.269	211.938	250.645	-36.416	114.929	102.426	283.162	62.567	176.225	60.530	44.800	7.0545e-05	0.00080083	7.9224e-05	1430.7	4.4117e-06	2.0952e-06	1852.8	302.82	1.8416e-06	1.5466e-06	438.55	122.49	80.284	21.664	6.5059e-06	36.194	0.00067061	0.00068376	0.00018398	1419.9	7.2582e-06	7.526e-06	1852.1	309.9	7.5308e-06	7.5886e-06	443.17	126.01	82.604	22.967	7.6942e-06	38.091	174.701	16.345	47.510	-52.402	293.157	7.780	-52.267	-45.102	251.239	165.063	-46.123	-39.092	-37.286	-30.540	72.108	-32.861	-8191	255	
1021.752	1	1	0	0	0.15927	0.15965	0.070546	0.32645	0.32733	0.27064	0.22821	0.14102	0.22312	0.22354	0.14233	0.028061	0.17348	0.088953	0.23211	0.26841	-1.6063	-2.0396	-2.6583	-2.2125	-2.5417	-2.4	-2.1396	-2.7708	-2.0563	-2.1771	-2.5708	-1.7875	-2.4188	-2.3896	-2.1063	-2.7208	77.231	241.156	126.980	223.990	191.293	91.015	228.068	130.922	214.503	162.120	286.138	-58.568	-2.677	100.574	79.856	64.073	0.00015131	0.00019824	9.8252e-05	1447.8	3.4316e-06	6.7342e-06	1871.7	307.15	2.8373e-06	3.433e-06	442.73	124.67	80.667	21.76	2.7314e-06	37.054	0.0006716	0.00068831	0.00018612	1420.9	7.2912e-06	7.3876e-06	1853.1	310.41	7.5366e-06	7.5785e-06	444.08	126.1	82.756	22.95	7.6896e-06	38.23	85.372	18.302	56.677	-53.161	252.503	28.642	-53.051	-45.967	270.466	289.542	-46.258	-39.874	-37.941	-30.921	89.610	-33.462	-8191	255	
1021.848	1	1	0	0	0.076503	0.17687	0.42936	0.18889	0.061573	0.26404	0.32754	0.071685	0.3271	0.12963	0.14014	0.15542	0.16202	0.26609	0.12084	0.11746	-1.8458	-2.2125	-2.5271	-2.275	-2.5083	-2.5208	-2.2542	-2.7729	-2.0146	-2.1396	-2.4896	-1.8312	-2.2854	-2.4417	-1.8646	-2.4208	210.815	154.407	115.490	250.534	261.335	211.289	242.760	-40.222	-58.435	51.958	-29.250	-11.793	-36.274	-38.866	20.744	-1.451	0.00015861	0.00080815	0.0001738	1443.4	3.009e-06	1.0104e-06	1864.8	305.87	4.5393e-06	2.8884e-06	444.23	124.8	81.011	21.762	1.0622e-06	36.781	0.00066726	0.00069175	0.00018734	1420.4	7.3033e-06	7.3469e-06	1851.4	310.16	7.4287e-06	7.8072e-06	444.65	126.01	82.784	22.978	7.7374e-06	38.185	194.037	52.510	70.000	-52.994	280.143	284.821	-52.737	-45.686	244.214	81.344	-46.874	-39.341	-37.880	-31.154	184.404	-33.236	-8191	255	
1021.969	1	1	0	0	0.22795	0.058284	0.032866	0.27103	0.10912	0.052375	0.25359	0.22608	0.15187	0.16258	0.2539	0.14238	0.49133	0.25334	0.095123	0.22563	-1.8771	-2.0271	-2.625	-2.2625	-2.1583	-2.5479	-2.1937	-2.5333	-2.1396	-2.0563	-2.6833	-1.9979	-2.25	-2.6292	-2.0104	-2.5208	55.252	143.605	241.628	-8.972	234.383	294.928	-37.491	290.360	-32.551	81.957	200.528	44.542	52.512	-5.206	-22.812	-56.061	0.00011828	0.00045096	0.00022562	1445.2	2.1998e-06	1.9149e-06	1873.2	307.44	2.4962e-06	1.0016e-05	443.76	124.78	81.582	21.747	4.5002e-06	37.122	0.00066614	0.00069154	0.00018713	1419.4	7.309e-06	7.2854e-06	1851.3	310.32	7.487e-06	7.7045e-06	443.94	125.92	82.799	22.971	7.7551e-06	38.25	154.425	217.600	33.286	-53.033	290.721	61.061	-53.070	-45.987	-12.981	133.163	-46.192	-39.699	-38.317	-31.727	67.482	-33.512	-8191	255	
1022.063	1	1	0	0	0.24888	0.16156	0.1171	0.048045	0.088629	0.18322	0.22207	0.25611	0.18829	0.16776	0.18434	0.078698	0.039739	0.22766	0.17636	0.12931	-1.9562	-1.9625	-2.6333	-2.3792	-2.2042	-2.5875	-2.0542	-2.4271	-2.3333	-2.0458	-2.7167	-2.2188	-1.9937	-2.5771	-1.9583	-2.2729	99.869	32.939	243.842	274.783	266.445	225.484	-26.064	243.841	174.099	251.073	89.168	14.239	238.984	-48.777	38.366	-33.270	0.00010258	0.00070828	4.961e-05	1446.8	2.2776e-06	4.8022e-06	1872.9	307.76	2.7406e-07	5.6609e-07	440.06	124.66	81.124	21.971	4.5575e-06	36.439	0.00066127	0.00069217	0.00018655	1419.9	7.4145e-06	7.3261e-06	1850.6	310.07	7.3055e-06	7.6628e-06	444.47	125.93	82.7	22.968	7.614e-06	38.105	131.518	29.521	107.274	-53.110	279.918	47.848	-53.085	-46.053	222.721	-31.664	-46.341	-39.555	-37.879	-31.311	54.793	-32.994	-8191	255	
1022.136	1	1	0	0	0.16345	0.18388	0.263	0.35807	0.15504	0.23604	0.40438	0.11102	0.24772	0.30318	0.10687	0.065939	0.27851	0.084675	0.12826	0.18872	-2.1417	-1.9521	-2.6104	-2.3583	-1.8958	-2.5146	-2.1604	-2.2	-2.4021	-1.9458	-2.5146	-2.4854	-2.1167	-2.5833	-2.0417	-2.1	40.490	-33.567	39.877	277.733	267.825	18.238	-60.749	188.961	280.579	29.325	29.580	248.551	127.835	276.267	172.948	128.782	6.6727e-05	0.00058525	4.8234e-05	1440.9	2.7554e-06	1.0655e-05	1862.2	305.09	1.3331e-06	6.7903e-06	433.69	124.16	80.88	21.438	2.156e-06	36.513	0.00065521	0.0006961	0.00018684	1419.1	7.3789e-06	7.3592e-06	1851.5	310.11	7.3908e-06	7.7045e-06	444.79	126.08	82.789	22.852	7.6549e-06	38.187	101.204	20.159	89.543	-52.792	281.889	37.377	-52.617	-45.727	-49.329	83.144	-45.928	-39.179	-37.740	-30.266	25.867	-33.212	-8191	255	
1022.257	1	1	0	0	0.12118	0.16005	0.20724	0.26833	0.1129	0.28387	0.316	0.10661	0.10819	0.22471	0.23336	0.090956	0.14273	0.16122	0.12885	0.26138	-2.275	-1.7833	-2.4688	-2.6562	-2.1458	-2.5354	-2.2854	-2.3208	-2.6208	-2.0104	-2.3542	-2.5458	-1.9083	-2.5979	-2.1083	-2.2333	48.854	44.060	282.547	243.561	-52.559	15.350	221.049	180.132	-60.827	153.510	189.724	129.406	106.832	-63.414	170.772	100.161	2.5993e-05	0.00040129	0.00019689	1437.5	3.4318e-06	1.6512e-05	1867.7	305.8	2.7582e-06	5.0804e-06	437.69	123.95	80.061	21.554	4.7131e-06	36.614	0.00065831	0.00069715	0.00018921	1419.5	7.3503e-06	7.4529e-06	1852.9	310.16	7.2275e-06	7.73e-06	444.63	125.95	82.663	22.936	7.6348e-06	38.132	61.143	87.259	77.574	-52.778	275.220	76.188	-52.843	-45.800	-55.646	72.017	-45.716	-39.085	-37.609	-30.653	151.906	-32.638	-8191	255	
1022.351	1	1	0	0	0.097185	0.11549	0.18145	0.081239	0.22396	0.207	0.14364	0.21014	0.12196	0.057507	0.25483	0.18188	0.14206	0.12632	0.19627	0.25827	-2.1771	-1.8521	-2.2667	-2.6	-1.9896	-2.6354	-2.4792	-1.9375	-2.6188	-2.0146	-2.275	-2.6208	-1.8292	-2.4708	-2.3521	-1.9438	226.079	63.722	87.453	144.461	71.755	59.195	268.224	255.126	195.560	79.963	255.192	36.530	12.005	116.386	152.821	191.058	3.5188e-05	0.00041706	5.2007e-05	1430.7	3.3173e-06	9.505e-06	1875	308.57	5.7227e-07	3.6058e-06	442.25	124.73	81.245	21.515	8.6469e-06	36.047	0.00064771	0.00068902	0.00019036	1419.6	7.2791e-06	7.3638e-06	1852.6	310.3	7.3441e-06	7.6411e-06	444.78	126.02	82.824	22.917	7.456e-06	38.213	41.995	-43.702	-25.691	-52.321	289.588	37.129	-53.027	-46.246	189.323	68.203	-46.487	-39.618	-38.110	-30.692	142.752	-31.818	-8191	255	
1022.448	1	1	0	0	0.42239	0.041565	0.29098	0.15226	0.063233	0.21431	0.23741	0.14457	0.089575	0.16891	0.25669	0.094242	0.29437	0.18772	0.20293	0.30119	-2.2646	-1.9583	-2.2	-2.7479	-2.0771	-2.6083	-2.5438	-2.0563	-2.7396	-2.2625	-2.0875	-2.5333	-1.7958	-2.4708	-2.3208	-1.925	0.851	143.370	-34.445	-32.342	-1.055	81.876	236.185	38.513	-23.194	257.749	-52.290	268.520	70.542	78.145	189.256	124.304	5.5447e-05	0.00027442	0.00012382	1434.6	2.3212e-06	9.9946e-06	1849.7	303.28	3.1037e-06	2.1058e-06	430.65	123.98	80.901	21.705	4.7899e-06	36.604	0.00065469	0.00069939	0.000191	1420.3	7.3217e-06	7.3792e-06	1850.2	309.81	7.2953e-06	7.5894e-06	444.41	126.13	82.735	22.981	7.5554e-06	38.18	-53.677	60.051	70.082	-52.519	280.918	55.968	-52.143	-45.069	277.746	75.020	-45.501	-38.893	-37.549	-30.796	139.428	-33.719	-8191	255	
1022.568	1	1	0	0	0.21632	0.023361	0.15952	0.19233	0.11969	0.18909	0.17517	0.031674	0.17422	0.03692	0.14972	0.076111	0.078357	0.27442	0.17972	0.16836	-2.2062	-1.9771	-2.1792	-2.7167	-1.9104	-2.4917	-2.7104	-2.0583	-2.5146	-2.2375	-2.0938	-2.7	-1.9042	-2.1354	-2.5938	-1.9667	250.552	167.425	-48.703	244.369	91.494	257.481	222.011	280.740	17.136	164.289	252.671	144.540	-38.692	114.451	120.484	295.621	0.00016498	0.00032023	0.00010897	1436.8	2.0382e-06	5.391e-06	1866.4	305.04	1.6279e-06	1.2605e-05	438.41	124.33	80.833	21.505	2.722e-06	36.203	0.00065548	0.00069105	0.00019006	1420	7.3287e-06	7.5436e-06	1853.2	310.12	7.3565e-06	7.5801e-06	445.14	126.12	82.679	22.943	7.4398e-06	38.101	109.070	6.026	63.336	-52.668	271.973	37.401	-52.577	-45.681	265.260	130.808	-46.300	-39.483	-37.985	-30.474	83.640	-31.959	-8191	255	
1022.664	1	1	0	0	0.096079	0.070769	0.16973	0.16653	0.19429	0.07967	0.20281	0.069995	0.053509	0.1646	0.32677	0.30868	0.17752	0.20907	0.28257	0.30293	-2.1688	-2.2729	-2.0625	-2.8438	-2.0187	-2.35	-2.7729	-2.0271	-2.5896	-2.3125	-2.1188	-2.8333	-2.0687	-2.0229	-2.5229	-1.8875	207.989	257.674	88.857	293.576	-60.367	86.744	246.228	82.721	229.682	266.666	194.837	220.725	110.945	176.760	240.094	205.585	8.8617e-05	0.00031233	0.00011515	1419.5	1.7554e-06	9.4453e-06	1843.4	302.3	3.6794e-06	4.9768e-06	428.62	123.42	80.673	21.59	4.9957e-06	36.705	0.00065146	0.00068369	0.00019162	1418.1	7.2956e-06	7.4207e-06	1850.6	309.78	7.4032e-06	7.6125e-06	443.68	126.03	82.821	22.925	7.5053e-06	38.177	165.734	33.333	19.512	-51.835	269.928	52.251	-52.023	-45.179	-1.367	-8.852	-45.550	-38.462	-37.717	-31.150	158.237	-32.771	-8191	255	
1022.761	1	1	0	0	0.29748	0.068006	0.32642	0.077874	0.24882	0.10403	0.18267	0.25079	0.37796	0.13744	0.079468	0.10167	0.36864	0.20827	0.23955	0.29543	-2.1729	-2.3083	-1.9708	-2.9271	-2.3042	-2.2083	-2.7792	-2.0354	-2.6125	-2.3708	-1.9354	-2.7083	-2.1354	-2.2375	-2.6833	-1.9229	93.395	179.344	102.208	208.285	141.294	282.867	28.420	202.624	170.709	118.601	74.201	153.017	200.244	-56.891	36.356	223.524	0.00012821	0.00068816	1.7513e-05	1436.6	3.7327e-06	3.6211e-06	1863.8	307.29	2.7624e-06	6.8177e-06	438.13	123.85	80.13	21.683	4.1423e-06	36.192	0.00065811	0.00068039	0.00019323	1419.5	7.2651e-06	7.5682e-06	1852.3	310.2	7.4382e-06	7.5237e-06	443.47	126	82.728	22.953	7.4568e-06	38.038	118.762	54.649	-43.554	-52.663	-63.102	20.072	-52.699	-46.186	290.399	208.309	-46.405	-39.081	-37.426	-30.298	149.755	-32.851	-8191	255	
1022.832	1	1	0	0	0.067176	0.12378	0.16221	0.21885	0.2225	0.2344	0.22059	0.39509	0.26656	0.13288	0.34292	0.15828	0.14288	0.14689	0.056304	0.15262	-2.0208	-2.4833	-1.9312	-2.8458	-2.1542	-1.9438	-2.8292	-1.8292	-2.3583	-2.5458	-2.0938	-2.7	-2.175	-1.9854	-2.6063	-2.1	-1.597	235.611	-60.267	228.876	-58.612	138.621	-9.772	159.486	-3.182	-23.917	252.598	265.293	177.532	126.943	13.195	254.743	9.9951e-05	0.00054924	3.3609e-05	1451	2.013e-06	9.7705e-06	1865.2	305.42	3.1099e-06	8.6762e-07	437.42	123.55	80.059	21.546	5.9705e-06	36.612	0.00066673	0.00068229	0.00018975	1420.8	7.3312e-06	7.559e-06	1851.7	309.91	7.4221e-06	7.499e-06	443.4	125.93	82.628	22.984	7.5292e-06	38.117	153.573	-19.838	207.562	-53.277	243.335	60.147	-52.765	-45.590	219.535	258.238	-46.157	-38.890	-36.950	-30.180	117.697	-32.657	-8191	255	
1022.953	1	1	0	0	0.10898	0.21254	0.13879	0.55608	0.19669	0.12665	0.29776	0.18541	0.084587	0.13039	0.17658	0.15582	0.16881	0.14919	0.16755	0.12683	-1.8792	-2.4771	-1.8458	-2.7083	-2.0979	-1.8813	-2.9313	-2.1	-2.0854	-2.55	-1.925	-2.4083	-2.1833	-2.1292	-2.6875	-2.0938	176.000	246.597	293.403	254.034	-31.934	1.312	-52.824	76.323	154.389	-39.665	204.348	147.731	127.732	58.579	100.855	29.269	1.8749e-05	0.00019217	0.0001813	1433.4	3.0602e-06	1.0043e-05	1864.8	304.39	2.3671e-06	9.7629e-06	446.05	125.06	81.648	21.932	5.9068e-06	36.875	0.00066041	0.00068004	0.00019158	1418.4	7.2664e-06	7.5298e-06	1851	309.51	7.4775e-06	7.458e-06	446.35	125.93	82.703	22.903	7.4521e-06	38.125	88.796	87.537	68.281	-52.516	-57.938	45.794	-52.622	-45.484	234.302	163.988	-46.620	-39.762	-38.136	-31.611	67.006	-32.708	-8191	255	
1023.049	1	1	0	0	0.18396	0.11309	0.19438	0.32919	0.099526	0.37455	0.41416	0.17474	0.11576	0.067398	0.14851	0.17581	0.24206	0.20374	0.34524	0.08682	-1.7167	-2.4562	-1.8104	-2.6917	-2.3729	-1.8687	-2.85	-2.1813	-1.9979	-2.55	-1.8979	-2.2396	-2.5396	-1.9479	-2.3875	-2.0896	190.248	70.225	-61.293	295.327	26.206	247.196	228.653	211.104	132.433	42.444	255.028	33.323	128.292	72.000	65.826	-21.907	2.1795e-05	0.00039317	0.0001895	1449	3.3433e-06	5.0145e-06	1878.1	306.88	1.1182e-06	5.5529e-06	440.2	125.2	81.702	21.667	7.1781e-06	36.864	0.00067351	0.0006731	0.00019311	1420.5	7.2048e-06	7.612e-06	1852.3	309.81	7.5563e-06	7.5561e-06	444.56	126.06	82.731	22.992	7.4498e-06	38.063	-53.896	51.594	54.174	-53.250	270.536	1.805	-53.120	-46.167	106.702	171.628	-46.596	-39.801	-38.019	-30.979	152.822	-33.486	-8191	255	
1023.145	1	1	0	0	0.2072	0.010182	0.16622	0.1347	0.064484	0.26594	0.19913	0.19801	0.067372	0.16297	0.18539	0.27095	0.14924	0.11511	0.13828	0.072544	-1.7917	-2.6854	-1.9667	-2.4479	-2.5187	-2.0625	-2.6479	-2.2229	-1.9438	-2.4021	-2.1063	-2.2125	-2.3979	-1.8396	-2.4896	-2.2792	-53.339	180.644	124.346	227.658	0.885	-12.671	236.282	193.122	52.303	46.063	282.444	268.378	141.189	197.390	182.402	130.530	0.00013721	0.00030017	0.00014173	1450	3.2848e-06	7.9628e-06	1876.8	307.24	3.9032e-06	2.5093e-06	436.59	125.3	80.842	21.858	5.6895e-06	36.776	0.0006666	0.00067135	0.00019078	1420.2	7.2194e-06	7.5667e-06	1851.7	310.01	7.5198e-06	7.4851e-06	443.29	126.24	82.6	22.963	7.4552e-06	38.06	153.134	-1.947	142.463	-53.254	255.814	59.279	-53.099	-46.007	163.894	115.439	-46.410	-39.761	-37.744	-30.624	74.387	-32.648	-8191	255	
1023.240	1	1	0	0	0.16961	0.086472	0.13283	0.15822	0.12019	0.20797	0.30552	0.08406	0.12065	0.14131	0.11694	0.19954	0.18441	0.18704	0.35222	0.21754	-1.4604	-2.7042	-2.0979	-2.4917	-2.55	-2.1521	-2.575	-2.3875	-1.9562	-2.6312	-2.0625	-2.2083	-2.4	-1.8708	-2.3187	-2.3271	92.963	178.751	-38.295	-57.527	-16.124	133.523	227.735	263.850	21.288	245.444	68.751	58.470	248.642	45.898	171.926	276.715	0.00021063	0.00039955	0.00010064	1449.9	2.8317e-06	5.6608e-06	1875.6	306.51	2.2145e-06	9.8583e-06	446.96	124.5	80.691	21.513	2.1993e-06	36.679	0.00066601	0.00067485	0.00019137	1419.8	7.1539e-06	7.5044e-06	1852.4	309.97	7.4754e-06	7.4155e-06	445.1	126	82.596	22.923	7.4722e-06	38.074	144.148	69.193	-23.233	-53.233	-59.112	122.934	-53.015	-46.012	196.379	32.786	-46.402	-39.621	-37.891	-30.438	204.123	-32.830	-8191	255	
1023.360	1	1	0	0	0.12162	0.15213	0.18254	0.19856	0.06789	0.24725	0.23082	0.15822	0.17612	0.21964	0.16246	0.21254	0.19528	0.10732	0.19395	0.23521	-1.5854	-2.5	-2.2	-2.5854	-2.5875	-2.0333	-2.6021	-2.5604	-1.8062	-2.6167	-2.1437	-2.1854	-2.7292	-1.75	-2.3896	-2.5771	105.530	259.431	-5.289	-8.589	250.640	-0.192	248.349	225.952	-62.655	88.974	-16.826	192.811	247.106	-2.617	255.370	252.822	8.0512e-05	0.00023917	0.0001908	1440.6	2.4721e-06	5.8042e-06	1861.7	304.35	3.4015e-06	8.6288e-06	434.87	122.67	79.426	21.328	5.4932e-06	36.52	0.00067627	0.00066756	0.00018929	1418.8	7.2035e-06	7.4883e-06	1851.7	309.65	7.4921e-06	7.5291e-06	443.36	125.88	82.467	22.849	7.4475e-06	37.991	200.880	-59.652	72.218	-52.921	-61.983	-38.530	-52.663	-45.316	-61.636	86.041	-45.835	-38.462	-36.640	-30.022	138.337	-32.884	-8191	255	
1023.432	1	1	0	0	0.36346	0.18777	0.19957	0.15371	0.12898	0.11155	0.17778	0.20791	0.1058	0.10873	0.13599	0.26011	0.075762	0.06991	0.19867	0.12467	-1.6938	-2.5292	-2.4542	-2.3521	-2.8271	-2.0958	-2.1854	-2.4646	-1.9062	-2.475	-2.1729	-1.9958	-2.6458	-1.9813	-2.2313	-2.5062	148.319	240.732	289.026	252.581	184.094	1.186	269.827	71.290	43.660	-22.306	156.389	258.867	227.848	130.949	3.422	-22.349	0.00012675	0.00041497	0.00012278	1429.7	2.5711e-06	4.1412e-06	1851	304.34	2.8844e-06	7.48e-06	444.35	124.35	80.816	21.545	4.0683e-06	36.318	0.00067529	0.00067093	0.00018686	1417.6	7.1387e-06	7.443e-06	1850.1	309.67	7.5023e-06	7.5353e-06	443.69	125.99	82.625	22.921	7.6379e-06	38.079	117.940	-2.294	96.456	-52.426	-59.542	259.568	-52.365	-45.407	-16.012	126.892	-46.171	-39.747	-37.748	-30.620	118.340	-33.063	-8191	255	
1023.528	1	1	0	0	0.059039	0.17853	0.22407	0.19708	0.23429	0.21739	0.33121	0.20384	0.30953	0.16682	0.10999	0.047651	0.0461	0.073176	0.25893	0.076642	-1.6292	-2.3917	-2.3063	-2.1354	-2.5604	-2.275	-2.4125	-2.7875	-2.0542	-2.4542	-2.6083	-2.0646	-2.6375	-2.0333	-2.05	-2.5396	279.892	183.226	52.548	237.261	-15.862	8.009	223.749	16.162	214.177	119.829	46.484	-26.741	129.135	-33.993	-1.475	38.916	0.00024806	0.00049933	0.00018232	1448.2	2.6833e-06	8.4565e-06	1878.3	307.37	2.2036e-06	6.3788e-06	442.92	124.92	81.217	21.879	5.3243e-06	36.45	0.00067344	0.00067787	0.00018754	1420.3	7.1927e-06	7.4245e-06	1854.2	310.04	7.4564e-06	7.5384e-06	444.27	126.13	82.625	22.971	7.5763e-06	38.056	150.291	1.385	19.906	-53.234	283.038	111.495	-53.131	-46.043	235.740	56.784	-46.916	-39.901	-38.261	-30.903	154.920	-33.156	-8191	255	
1023.649	1	1	0	0	0.036875	0.083396	0.2355	0.17984	0.14751	0.22992	0.079976	0.099221	0.1622	0.2849	0.12832	0.082954	0.16918	0.15762	0.21913	0.1275	-1.3813	-2.2687	-2.4708	-2.1542	-2.6167	-2.2667	-2.2833	-2.6229	-1.9917	-2.2583	-2.2771	-1.8563	-2.4479	-2.3	-1.9458	-2.4125	-9.868	260.997	118.850	182.328	208.758	190.425	288.485	94.327	231.647	-58.871	284.299	258.954	-48.712	35.767	-32.374	234.057	0.00020514	0.00021223	0.00012797	1448.8	2.8456e-06	1.5448e-05	1873.7	308.19	2.2176e-07	3.9233e-06	435.65	125.55	81.582	21.905	1.7836e-06	37.105	0.00066917	0.00068264	0.00018569	1420.8	7.1539e-06	7.3308e-06	1852.3	310.38	7.4746e-06	7.5021e-06	443.09	126.16	82.734	22.857	7.5616e-06	38.129	141.608	287.516	26.098	-53.170	273.224	36.216	-53.057	-45.954	100.446	16.990	-46.079	-39.912	-37.876	-30.922	202.675	-33.184	-8191	255	
1023.745	1	1	0	0	0.081504	0.21534	0.25242	0.19132	0.3488	0.29552	0.10494	0.21401	0.087028	0.10403	0.0426	0.15249	0.1421	0.11753	0.13208	0.10461	-1.7396	-2.1854	-2.5354	-2.1896	-2.5042	-2.4083	-2.2708	-2.5958	-2.0812	-2.0583	-2.7375	-1.9	-2.3563	-2.2583	-1.9479	-2.6125	179.224	184.978	73.157	-57.793	-44.861	132.036	290.963	96.091	-54.823	232.521	103.962	-36.359	-20.419	236.561	117.960	60.692	5.3931e-05	0.00015587	7.1684e-05	1451.1	2.8675e-06	9.143e-06	1877.5	307.36	1.8033e-06	6.4237e-06	443.81	124.74	81.329	21.643	8.9141e-07	36.942	0.00067285	0.00067955	0.00018711	1420.6	7.1838e-06	7.433e-06	1852.8	310.1	7.3974e-06	7.5986e-06	445.43	126.02	82.74	22.922	7.6934e-06	38.103	134.199	-28.306	73.327	-53.298	276.169	95.352	-53.196	-46.097	234.549	44.864	-46.302	-39.852	-38.087	-30.701	-31.041	-33.008	-8191	255	
1023.841	1	1	0	0	0.11171	0.1738	0.17847	0.265	0.18322	0.14015	0.2298	0.11115	0.13675	0.28784	0.074524	0.13691	0.35283	0.063803	0.014927	0.3856	-1.7479	-2.0604	-2.5667	-2.3104	-2.225	-2.4646	-2.1417	-2.5021	-2.2208	-2.0917	-2.5833	-2.2104	-2.3146	-2.425	-1.7563	-2.4917	47.903	215.464	208.995	269.611	-26.746	-2.490	218.228	129.624	28.711	68.613	-11.253	264.104	95.186	156.710	113.469	-34.825	0.00010774	0.00053076	0.00010032	1445.1	3.322e-06	5.4157e-06	1869.5	306.13	3.8827e-06	7.2925e-06	439.21	123.99	80.47	21.721	4.0633e-07	36.477	0.00065831	0.00068719	0.00018511	1419.6	7.255e-06	7.3231e-06	1853.3	310.1	7.3886e-06	7.6334e-06	443.39	125.94	82.705	22.939	7.6811e-06	38.101	124.435	48.355	74.104	-53.089	290.417	102.050	-52.863	-45.815	1.772	188.857	-46.577	-39.602	-37.940	-30.926	270.678	-32.764	-8191	255	
1023.937	1	1	0	0	0.19876	0.14439	0.25528	0.21151	0.057597	0.39433	0.3599	0.23846	0.064166	0.37597	0.065212	0.092398	0.10988	0.1102	0.19341	0.26044	-1.8521	-1.9729	-2.5854	-2.3937	-2.0896	-2.6979	-2.1333	-2.5042	-2.2021	-1.9937	-2.6417	-2.1	-2.2708	-2.5	-1.8479	-2.3937	168.121	-30.721	90.597	229.101	-62.920	102.521	-22.328	253.320	193.827	130.581	-8.350	165.247	-2.827	49.931	-44.498	218.365	0.00012097	0.00022765	0.00015082	1456.1	2.237e-06	3.118e-06	1883.8	308.9	5.3668e-06	6.7357e-06	444.22	125.29	81.452	21.851	3.1981e-06	36.882	0.00066219	0.00068867	0.00018489	1420.7	7.2467e-06	7.3607e-06	1851.9	309.99	7.3784e-06	7.7006e-06	445.2	125.89	82.747	22.943	7.6372e-06	38.094	256.493	-1.712	-48.956	-53.446	278.469	80.284	-53.379	-46.245	-54.064	148.556	-47.357	-39.832	-38.454	-30.929	145.041	-33.417	-8191	255	
1024.033	1	1	0	0	0.1271	0.28011	0.27858	0.40091	0.042735	0.20287	0.1778	0.052779	0.16084	0.13699	0.2317	0.14836	0.084196	0.092242	0.088847	0.052472	-2.0187	-1.7896	-2.6229	-2.3146	-2.2083	-2.7229	-2.0938	-2.3312	-2.3312	-1.9875	-2.725	-2.1167	-1.95	-2.5167	-1.7708	-2.4521	128.816	81.331	208.089	-29.115	267.421	178.832	254.200	111.941	134.848	287.331	206.593	34.454	261.358	236.984	157.018	25.177	0.00014396	0.00059117	0.00023824	1455.1	2.6872e-06	4.8392e-06	1882.9	309.51	9.2901e-07	1.6678e-06	445.58	125.21	81.578	21.937	9.827e-07	37.05	0.00065422	0.00068754	0.00018575	1420.3	7.2982e-06	7.2708e-06	1852.5	310.27	7.3529e-06	7.6257e-06	444.02	126.04	82.77	22.893	7.5084e-06	38.101	105.552	-4.779	49.087	-53.416	262.460	46.134	-53.320	-46.319	68.459	268.372	-46.741	-39.858	-38.385	-31.202	137.359	-33.677	-8191	255	
1024.129	1	1	0	0	0.11559	0.22498	0.35831	0.12958	0.36632	0.24687	0.13706	0.13965	0.16374	0.21328	0.197	0.1509	0.30649	0.033609	0.19184	0.17994	-1.925	-1.8021	-2.3333	-2.4437	-2.075	-2.6771	-2.2896	-2.3688	-2.4562	-2.0708	-2.45	-2.2083	-2.0146	-2.6021	-2.0229	-2.2896	84.679	11.603	230.221	216.246	252.818	32.317	237.301	3.300	58.869	111.247	-43.117	222.617	294.386	38.040	-48.767	271.297	0.00014469	0.00037946	0.00013076	1455.9	3.4583e-06	7.5887e-06	1886.3	309.7	4.2289e-06	3.7353e-06	439.52	125.69	81.691	21.896	2.5544e-06	36.744	0.00064942	0.00069434	0.00018585	1419.8	7.3192e-06	7.3208e-06	1853.2	310.22	7.3288e-06	7.6821e-06	443.34	126.02	82.755	22.931	7.5261e-06	38.081	144.822	86.398	41.188	-53.410	285.035	84.238	-53.363	-46.343	194.874	127.910	-46.886	-39.967	-38.399	-31.274	105.899	-33.443	-8191	255	
1024.250	1	1	0	0	0.075561	0.07476	0.08975	0.28876	0.34387	0.20497	0.25948	0.095085	0.21733	0.20497	0.11052	0.2179	0.042891	0.07974	0.080295	0.019621	-2.1312	-1.7292	-2.2167	-2.4583	-1.9438	-2.5875	-2.3667	-2.2208	-2.5354	-1.975	-2.3292	-2.45	-2.0479	-2.575	-2.0438	-2.1104	75.979	240.244	-45.286	280.089	30.776	-16.576	249.434	-14.937	206.542	13.103	118.692	219.572	131.119	112.437	140.698	13.787	9.5623e-05	0.00044314	2.4236e-05	1456.1	2.4977e-06	5.5455e-06	1889.7	310.07	3.9251e-06	2.2042e-06	446.41	125.45	81.809	21.884	6.8933e-06	37.073	0.00065225	0.00068705	0.00018528	1420.4	7.3274e-06	7.2839e-06	1853.6	310.39	7.2596e-06	7.7238e-06	444.8	126.04	82.731	22.935	7.4976e-06	38.058	172.959	50.714	8.450	-53.488	260.356	86.418	-53.348	-46.508	177.744	70.402	-46.759	-39.702	-38.303	-31.303	65.352	-34.585	-8191	255	
1024.344	1	1	0	0	0.081427	0.1635	0.22395	0.30271	0.08769	0.20519	0.23235	0.027955	0.14506	0.093883	0.069355	0.10586	0.20435	0.24107	0.10057	0.10765	-2.1479	-2.1437	-2.4021	-2.8271	-1.8542	-2.5958	-2.2458	-1.9688	-2.5125	-2.1146	-2.3771	-2.3542	-1.9208	-2.4729	-2.225	-2.0146	130.990	107.360	221.598	203.976	-55.778	286.432	245.727	70.603	241.740	-58.918	7.281	190.424	22.281	-61.120	147.830	260.564	0.00010024	0.00017841	0.0001748	1458.4	2.37e-06	7.5894e-06	1890.1	309.88	1.8523e-06	4.0167e-06	446.33	126.03	81.694	21.98	4.0074e-06	36.828	0.00064606	0.0006771	0.00018659	1420.7	7.3414e-06	7.3108e-06	1853.6	310.27	7.2778e-06	7.5832e-06	444.5	126.01	82.673	22.989	7.3858e-06	38.107	-10.803	-10.997	62.952	-53.504	-51.651	38.636	-53.345	-46.489	174.871	95.773	-46.992	-40.067	-38.476	-31.202	97.828	-33.739	-8191	255	
1024.441	1	1	0	0	0.27244	0.032363	0.20015	0.35839	0.10528	0.20798	0.14036	0.40796	0.33173	0.085174	0.25511	0.21962	0.11161	0.1075	0.069831	0.031854	-2.1063	-1.875	-2.3542	-2.6167	-1.9604	-2.575	-2.4354	-2.0604	-2.6646	-2.1562	-2.225	-2.5625	-1.9688	-2.4646	-2.2375	-1.8521	279.267	-41.156	175.504	294.014	-57.939	-26.745	216.549	286.402	89.454	265.002	-43.853	-4.595	201.627	89.437	12.202	30.455	0.00015187	0.00021534	9.7036e-05	1458.6	2.2924e-06	5.3434e-06	1888.4	309.17	2.9887e-06	4.0319e-06	440	125.39	81.835	22.021	3.2994e-06	36.837	0.0006558	0.00068362	0.00018754	1421.4	7.2524e-06	7.3968e-06	1852.4	310.19	7.3281e-06	7.5531e-06	443.56	125.85	82.743	22.927	7.3828e-06	38.104	155.968	234.202	105.068	-53.456	263.176	90.097	-53.430	-46.486	290.795	92.119	-46.600	-40.075	-38.421	-31.738	85.763	-33.937	-8191	255	
1024.537	1	1	0	0	0.16883	0.027304	0.16555	0.19415	0.10503	0.24076	0.10891	0.1181	0.13846	0.21784	0.16526	0.031806	0.28672	0.079633	0.23328	0.14964	-2.1458	-2.1896	-2.0583	-2.8375	-1.9479	-2.4146	-2.5729	-2.0021	-2.5812	-2.0646	-2.0375	-2.5896	-1.975	-2.1375	-2.4104	-1.9208	276.979	122.461	284.448	-52.252	140.081	163.759	108.068	197.419	259.893	144.084	13.887	204.097	94.145	9.000	173.461	199.488	0.00011538	0.00017105	0.0002011	1458.4	2.7976e-06	6.4259e-06	1887.1	309.78	1.7273e-06	4.2077e-06	447.18	125.58	81.889	21.963	4.6164e-06	37.417	0.00064685	0.00067717	0.00018901	1420.9	7.3592e-06	7.3838e-06	1852.9	310.21	7.2261e-06	7.5353e-06	444.61	126.18	82.795	22.986	7.3273e-06	38.22	163.414	120.062	52.752	-53.521	260.054	54.431	-53.350	-46.529	-42.754	86.057	-46.972	-40.015	-38.256	-30.986	67.777	-33.374	-8191	255	
1024.657	1	1	0	0	0.11077	0.13446	0.10999	0.25512	0.11753	0.15513	0.14028	0.23495	0.075061	0.14417	0.14778	0.22729	0.25523	0.081837	0.12274	0.15873	-2.1375	-2.0604	-2.0479	-2.8458	-2.0583	-2.4542	-2.6833	-1.8813	-2.5354	-2.2313	-2.0062	-2.4833	-1.8896	-2.2458	-2.55	-1.9625	116.238	26.766	32.765	219.693	95.643	262.948	263.091	203.111	161.141	118.290	286.155	132.887	40.568	-42.046	179.916	64.765	1.3602e-05	8.9895e-05	0.00013261	1455.3	3.2343e-06	6.5323e-06	1883.7	309.13	1.0921e-06	6.6575e-06	440.73	125.5	81.475	21.949	9.1468e-07	37.342	0.00064521	0.00068186	0.00019092	1421	7.3192e-06	7.3085e-06	1852.7	310.2	7.3245e-06	7.4997e-06	443.49	126.02	82.831	22.954	7.4907e-06	38.29	-8.149	175.202	66.401	-53.414	280.661	17.007	-53.255	-46.291	164.975	37.212	-46.642	-39.879	-38.477	-30.986	144.177	-33.128	-8191	255	
1024.729	1	1	0	0	0.15454	0.19367	0.098764	0.35534	0.11896	0.080773	0.14809	0.16671	0.1646	0.091084	0.28715	0.093772	0.3904	0.10598	0.09749	0.0947	-2.0563	-2.2958	-2.0583	-2.8896	-1.9979	-2.0687	-2.8042	-1.9479	-2.2521	-2.4229	-1.9708	-2.6771	-2.1979	-2.0312	-2.5312	-2.0375	24.091	-45.524	291.108	269.812	5.370	191.904	202.235	159.874	49.958	157.938	54.282	167.271	41.208	155.774	110.586	159.036	0.00018479	0.00095413	8.499e-05	1457.6	2.2938e-06	3.7015e-06	1887.9	308.58	3.3666e-06	5.4745e-06	444.83	125.78	81.49	21.857	1.9887e-06	36.813	0.00064791	0.00068151	0.00019067	1421.8	7.234e-06	7.4176e-06	1855	310.37	7.3463e-06	7.3916e-06	445.53	126.07	82.767	22.985	7.3727e-06	38.12	117.280	21.766	36.083	-53.455	294.764	31.507	-53.277	-46.274	197.107	87.165	-47.212	-39.997	-38.321	-31.560	49.811	-33.222	-8191	255	
1024.825	1	1	0	0	0.13646	0.091029	0.10165	0.12454	0.1203	0.18799	0.29725	0.20602	0.13452	0.16371	0.32539	0.19011	0.11575	0.28931	0.079364	0.17037	-1.8667	-2.3417	-1.7958	-2.9333	-2.0583	-1.9875	-2.8354	-1.8542	-2.2646	-2.2979	-1.8417	-2.5312	-2.2354	-1.9688	-2.625	-1.9688	219.316	133.676	130.621	273.780	3.815	88.938	220.070	-0.794	85.064	281.661	288.767	0.231	268.099	77.065	270.777	128.716	7.858e-05	0.00028042	5.2899e-05	1456.6	3.4076e-06	8.2409e-06	1884.3	308.14	3.624e-06	5.4134e-06	445.55	125.49	80.96	21.709	3.2685e-06	36.775	0.00065725	0.00067324	0.00019405	1421.7	7.18e-06	7.5098e-06	1854.5	309.84	7.4892e-06	7.3761e-06	444.69	126.12	82.689	22.975	7.4437e-06	38.132	86.941	-3.290	-3.024	-53.422	289.121	55.686	-53.217	-46.357	205.813	196.705	-46.287	-39.867	-37.845	-31.339	107.731	-32.879	-8191	255	
1024.921	1	1	0	0	0.073568	0.030486	0.030462	0.27298	0.36694	0.19794	0.21362	0.27046	0.22518	0.0018575	0.087453	0.064188	0.16798	0.087133	0.057094	0.092241	-1.6521	-2.4437	-1.7313	-2.7333	-2.0833	-2.1354	-2.8438	-2.1604	-2.0583	-2.5896	-1.8854	-2.7167	-2.2146	-1.9958	-2.5875	-2.1417	277.152	159.527	267.999	250.196	217.182	176.691	243.681	-57.958	271.639	180.000	1.701	67.350	12.515	-5.658	-29.744	203.613	0.00012428	6.0242e-05	0.00014699	1452.8	2.8511e-06	1.1138e-05	1884	308.25	8.0463e-07	2.0003e-06	440.2	125.78	81.225	21.929	1.2179e-06	36.755	0.00065666	0.00066911	0.00018942	1420.5	7.1921e-06	7.4437e-06	1853.3	309.92	7.3507e-06	7.4356e-06	444.25	125.95	82.689	22.986	7.4067e-06	38.004	212.064	74.077	31.969	-53.332	-61.886	54.148	-53.235	-46.225	8.856	38.214	-46.672	-40.075	-38.196	-31.184	-1.639	-33.605	-8191	255	
1025.040	1	1	0	0	0.17744	0.30264	0.1084	0.26112	0.1127	0.19905	0.3173	0.1122	0.17935	0.16812	0.14813	0.15615	0.20839	0.16501	0.039773	0.12936	-1.8396	-2.4375	-1.7687	-2.65	-2.3458	-1.9021	-2.8875	-2.2167	-1.9	-2.6167	-1.9396	-2.4375	-2.2438	-1.95	-2.4208	-2.2125	286.032	88.574	282.530	209.749	26.344	-4.242	-60.263	27.386	153.972	281.745	0.001	-44.737	-26.721	82.998	255.923	290.979	0.00014083	0.00089407	0.00020061	1451.8	3.7832e-06	1.0891e-05	1883.4	308.38	3.1796e-06	6.815e-06	439.13	124.7	81.37	21.833	5.3843e-06	36.658	0.00065896	0.0006642	0.00018814	1419.8	7.1266e-06	7.5213e-06	1854.3	310.04	7.4192e-06	7.3823e-06	443.51	126.02	82.757	22.981	7.3812e-06	38.065	-38.808	-13.841	31.540	-53.337	259.232	16.858	-53.268	-46.250	276.004	123.846	-47.017	-39.992	-38.159	-30.867	-18.051	-33.694	-8191	255	
1025.136	1	1	0	0	0.26028	0.22927	0.13225	0.23801	0.16587	0.18884	0.044085	0.072026	0.16019	0.16743	0.06359	0.098016	0.20124	0.19696	0.078215	0.24144	-1.5458	-2.6896	-1.7792	-2.2521	-2.4437	-1.9062	-2.9188	-2.2958	-2.0271	-2.4146	-1.8458	-2.1688	-2.4896	-1.9146	-2.4771	-2.325	23.313	195.560	-33.341	249.928	286.332	64.646	-47.760	223.243	176.630	-1.091	58.698	139.310	88.430	-14.385	223.797	40.466	3.8418e-05	0.00052878	0.00016346	1453.9	4.3532e-06	7.4647e-06	1884.6	308.82	2.8346e-06	9.3747e-06	441.77	124.89	81.568	21.972	3.8426e-07	36.96	0.00066127	0.00066532	0.00018684	1420.6	7.1673e-06	7.5029e-06	1853.6	309.98	7.3755e-06	7.3429e-06	443.08	125.99	82.647	23.001	7.3658e-06	38.153	131.103	-21.551	50.985	-53.322	289.407	11.447	-53.283	-46.369	106.695	125.935	-46.996	-40.028	-38.258	-30.497	12.233	-33.582	-8191	255	
1025.232	1	1	0	0	0.27165	0.12883	0.13486	0.21491	0.02772	0.23075	0.38654	0.082524	0.13394	0.17883	0.26555	0.20015	0.10925	0.14212	0.11271	0.08036	-1.5208	-2.6083	-2.0104	-2.325	-2.5833	-1.8479	-2.6375	-2.4292	-1.8146	-2.4896	-1.9021	-2.025	-2.5354	-1.9333	-2.425	-2.4271	223.170	102.691	171.236	251.623	110.301	101.283	247.325	86.943	-50.721	56.337	124.421	-3.220	70.401	227.544	140.903	71.159	0.00014537	0.00070596	0.00014103	1456.3	3.2092e-06	1.0928e-05	1886.9	309.7	1.7883e-06	5.8022e-06	446.09	125.21	81.864	21.909	6.4975e-06	37.119	0.00066456	0.00065936	0.00018453	1421.4	7.0421e-06	7.4491e-06	1854.2	310.36	7.385e-06	7.3483e-06	444.13	126	82.924	22.984	7.4205e-06	38.094	119.024	4.952	62.441	-53.533	274.820	34.694	-53.450	-46.282	215.312	74.917	-46.642	-40.056	-38.500	-31.542	152.636	-33.814	-8191	255	
1025.330	1	1	0	0	0.18172	0.18488	0.12786	0.23097	0.17249	0.22275	0.22323	0.12624	0.1714	0.27551	0.10712	0.046103	0.12683	0.20864	0.20112	0.13354	-1.5667	-2.475	-2.1521	-2.3521	-2.5958	-1.9833	-2.4938	-2.3312	-1.8729	-2.4042	-2.1479	-2.0229	-2.4625	-1.9312	-2.2188	-2.3208	142.137	157.351	36.334	203.791	128.751	-17.224	200.269	-23.994	98.654	201.621	265.952	225.877	50.688	199.690	9.201	47.356	2.6287e-05	0.00046873	0.00020129	1460.1	2.7566e-06	1.2478e-05	1888.4	309.17	1.7462e-06	4.0156e-06	446.85	125.68	81.464	21.962	6.3907e-06	37.015	0.00065179	0.00067135	0.00018676	1420.9	7.1025e-06	7.3846e-06	1854.8	309.86	7.4921e-06	7.3916e-06	444.37	126.09	82.739	22.908	7.4267e-06	38.087	158.314	10.066	-12.022	-53.627	281.516	56.402	-53.464	-46.240	103.886	158.796	-47.285	-39.981	-38.503	-31.536	-11.487	-33.727	-8191	255	
1025.425	1	1	0	0	0.31643	0.10345	0.085729	0.2473	0.078266	0.19935	0.31451	0.15974	0.16623	0.1476	0.1308	0.062267	0.056595	0.11163	0.24217	0.1053	-1.3479	-2.5812	-2.0354	-2.2146	-2.5125	-1.9667	-2.4958	-2.3771	-1.9083	-2.4604	-2.1	-1.7896	-2.4125	-1.7875	-2.0458	-2.4729	50.313	-4.992	106.212	-56.814	198.712	-47.872	221.786	271.156	84.752	22.495	212.346	70.567	261.214	-30.146	251.322	246.708	0.00014384	0.00036518	5.1095e-05	1459.6	3.7104e-06	1.0989e-05	1890.2	309.56	1.2359e-06	8.95e-06	442.56	125.6	81.709	21.998	2.2802e-06	36.77	0.00066291	0.00066343	0.00018526	1421.2	7.1215e-06	7.2539e-06	1855.3	310.4	7.385e-06	7.4325e-06	444.59	126.04	82.739	22.937	7.53e-06	37.965	140.993	15.158	119.515	-53.582	286.302	53.247	-53.505	-46.314	137.986	164.098	-46.661	-40.194	-38.390	-31.538	139.098	-33.760	-8191	255	
1025.521	1	1	0	0	0.33188	0.18791	0.25363	0.15294	0.23024	0.07685	0.16148	0.046591	0.16508	0.11663	0.06522	0.15055	0.21645	0.18699	0.14346	0.12949	-1.4229	-2.1688	-2.3854	-2.1229	-2.4896	-2.2979	-2.1583	-2.5458	-1.9042	-2.1917	-2.3792	-1.9271	-2.6708	-2.0687	-2.0333	-2.6646	69.195	52.386	-53.001	64.207	77.884	47.856	292.685	259.537	244.815	-32.858	91.404	117.864	16.339	121.878	150.352	69.525	0.00016263	0.00033672	0.00011323	1457.3	1.6496e-06	1.716e-06	1888.2	310.13	1.8186e-06	4.2211e-06	441.17	125.34	81.296	21.908	6.3593e-06	36.733	0.00065811	0.00067401	0.00018524	1421	7.0504e-06	7.3192e-06	1854.8	310.51	7.253e-06	7.3862e-06	442.92	126	82.701	22.939	7.5354e-06	37.955	159.912	7.933	91.683	-53.557	-53.814	134.459	-53.423	-46.449	-60.774	38.143	-45.984	-39.859	-38.188	-30.959	34.631	-32.896	-8191	255	
1025.617	1	1	0	0	0.24055	0.16466	0.18311	0.28737	0.062716	0.18805	0.21595	0.071668	0.23477	0.4157	0.081264	0.07759	0.12653	0.18051	0.31954	0.095863	-1.4042	-2.1354	-2.275	-2.1146	-2.3937	-2.25	-2.3063	-2.5938	-2.0917	-2.1708	-2.4708	-1.9854	-2.3458	-2.2104	-2.05	-2.6188	68.698	39.540	113.469	258.728	252.795	156.847	275.558	153.379	89.177	-59.265	271.723	270.534	51.974	-32.783	262.324	247.434	0.0001622	0.00025976	7.4686e-05	1454.4	2.1645e-06	1.0827e-05	1883.9	308.94	9.7391e-07	4.8437e-06	443.07	125.1	81.69	21.946	4.1963e-06	36.848	0.00065817	0.00066223	0.0001833	1420	7.0313e-06	7.3377e-06	1853.1	310.05	7.3317e-06	7.5422e-06	442.98	125.94	82.768	22.905	7.5177e-06	38.055	152.506	36.202	17.900	-53.398	269.403	85.129	-53.337	-46.254	234.204	127.082	-46.702	-39.815	-38.326	-31.536	143.932	-33.106	-8191	255	
1025.738	1	1	0	0	0.051726	0.049202	0.08322	0.22913	0.15195	0.10927	0.30628	0.18237	0.17614	0.2748	0.11721	0.073928	0.082953	0.25048	0.023361	0.11453	-1.475	-2.1333	-2.3812	-1.9896	-2.4833	-2.1979	-2.2479	-2.4833	-1.8687	-2.2042	-2.5187	-1.825	-2.3417	-2.4833	-1.9646	-2.6312	95.802	99.916	284.244	80.896	31.186	195.419	232.061	199.768	51.622	49.799	133.298	16.848	162.138	273.632	-27.179	105.737	7.6064e-05	0.00046293	6.6942e-05	1458.3	2.2446e-06	3.2696e-06	1882.4	308.09	1.3594e-06	2.4996e-06	444.32	125.74	82.133	21.847	3.7258e-06	36.421	0.00065613	0.00067941	0.00018293	1421	7.0923e-06	7.3023e-06	1853	309.86	7.2822e-06	7.4742e-06	442.92	125.96	82.757	22.869	7.4583e-06	37.995	172.460	54.444	-2.222	-53.542	285.395	-32.794	-53.299	-46.159	224.469	125.958	-46.541	-39.825	-38.080	-30.984	121.607	-33.199	-8191	255	
1025.834	1	1	0	0	0.14077	0.20261	0.24038	0.28297	0.1593	0.26661	0.25696	0.024279	0.27648	0.20889	0.088075	0.081455	0.080127	0.13291	0.19371	0.17643	-1.6958	-2.0687	-2.4958	-2.2292	-2.4542	-2.4062	-2.075	-2.5438	-2.1688	-2.1437	-2.6229	-2.1188	-2.4104	-2.4167	-2.0583	-2.4729	282.073	141.369	86.264	227.265	21.852	50.871	-62.540	226.770	49.038	192.501	-16.112	182.544	-24.992	239.099	290.380	-54.522	4.7787e-05	0.00025649	0.00011855	1452.7	1.9799e-06	2.856e-06	1876.9	307.85	6.7337e-06	6.3901e-06	440.36	124.46	81.515	21.821	8.7163e-06	36.825	0.00065317	0.00068067	0.00018398	1418.9	7.119e-06	7.2232e-06	1851.7	309.79	7.3412e-06	7.5979e-06	441.58	125.84	82.599	22.88	7.5547e-06	38.041	193.479	80.307	32.273	-53.267	258.357	-48.235	-53.121	-46.059	258.470	98.560	-46.513	-39.793	-38.006	-31.524	135.911	-33.745	-8191	255	
1025.930	1	1	0	0	0.21983	0.2154	0.1151	0.087699	0.078625	0.0847	0.34744	0.099683	0.30539	0.16683	0.094842	0.20335	0.13275	0.031509	0.097879	0.10397	-1.8729	-1.9188	-2.5625	-2.3167	-2.1521	-2.4792	-2.0438	-2.4813	-2.2562	-2.0646	-2.5521	-2.0917	-2.1604	-2.5312	-1.9917	-2.3417	59.551	18.734	98.016	135.117	121.917	-33.536	261.981	-28.974	72.482	71.424	276.691	19.908	260.814	39.501	13.913	156.277	3.9881e-05	0.00023081	0.0001883	1454.6	4.0358e-06	8.2159e-06	1876.8	307.01	1.0304e-06	2.8256e-06	434.6	124.83	81.075	21.835	6.5741e-06	36.365	0.00064725	0.00068151	0.00018262	1419.9	7.2505e-06	7.2562e-06	1850.6	310	7.2231e-06	7.567e-06	441.69	125.92	82.659	22.922	7.5462e-06	37.926	247.633	5.333	64.566	-53.477	273.043	119.947	-53.106	-45.986	84.818	61.101	-46.894	-39.585	-38.014	-31.092	110.108	-33.493	-8191	255	
1026.026	1	1	0	0	0.040532	0.033919	0.27652	0.25793	0.12466	0.032193	0.36548	0.21708	0.20616	0.35384	0.11793	0.17277	0.24602	0.18337	0.39285	0.096014	-1.8792	-2.175	-2.4979	-2.1896	-2.1604	-2.6229	-2.1271	-2.4688	-2.45	-1.8979	-2.8208	-2.2146	-2.0146	-2.6542	-1.9354	-2.2125	213.666	101.800	72.465	249.762	245.801	266.912	281.864	21.193	118.472	173.750	50.230	-8.021	229.494	122.856	127.404	141.478	9.5709e-05	0.00019869	0.00015148	1453.7	2.685e-06	5.8749e-06	1872.9	307.72	1.6681e-06	3.2132e-06	442.1	125.15	81.097	21.779	4.6798e-06	36.299	0.00065877	0.00069498	0.00018484	1419.5	7.2804e-06	7.4199e-06	1850.2	309.95	7.3135e-06	7.5569e-06	443.37	126.01	82.62	22.942	7.5994e-06	38.055	138.594	24.748	69.902	-53.322	-61.969	10.260	-53.050	-46.225	265.428	64.808	-45.985	-39.488	-38.075	-31.764	169.290	-33.220	-8191	255	
1026.122	1	1	0	0	0.13823	0.30643	0.26488	0.076848	0.12311	0.23514	0.21962	0.068402	0.12757	0.043681	0.13097	0.24078	0.087432	0.22402	0.32064	0.055814	-2.0708	-1.9021	-2.5938	-2.4062	-1.9937	-2.9042	-2.1958	-2.3438	-2.5375	-1.8542	-2.625	-2.3021	-2.0125	-2.4625	-1.8062	-2.1396	-58.856	253.114	178.954	240.277	254.749	222.974	291.615	-10.955	189.213	203.090	133.727	286.604	95.764	244.660	177.308	172.977	0.00012287	0.00062199	8.7096e-05	1444.1	2.8549e-06	2.4159e-06	1868.7	305.18	1.1072e-06	1.5689e-06	441.71	125.04	81.269	21.845	2.9793e-06	36.734	0.00065107	0.00068698	0.00018561	1419.1	7.3592e-06	7.2224e-06	1850	309.53	7.2632e-06	7.6048e-06	443.61	125.87	82.734	22.841	7.5292e-06	38.006	125.518	55.847	33.177	-52.986	287.203	132.139	-52.838	-45.919	200.869	200.357	-46.496	-39.563	-38.062	-30.434	195.010	-33.425	-8191	255	
1026.217	1	1	0	0	0.14385	0.092619	0.13587	0.30411	0.091593	0.11174	0.069334	0.10817	0.13838	0.13595	0.41088	0.2226	0.10357	0.097706	0.14342	0.10023	-2.2208	-1.8333	-2.3958	-2.4688	-2.0521	-2.7521	-2.3042	-2.2458	-2.6958	-1.8271	-2.5417	-2.3604	-2.1125	-2.4333	-2.1458	-2.0396	294.215	20.315	288.096	-57.333	279.959	289.395	234.529	292.586	73.259	-8.963	65.330	69.244	-47.373	173.958	3.884	66.924	9.3942e-05	8.9217e-05	0.00012742	1456.3	2.5208e-06	7.0522e-06	1888.6	308.28	1.7962e-06	3.57e-06	442.49	125.17	81.48	21.635	3.5327e-06	36.764	0.00064909	0.00068909	0.00018575	1419.9	7.3382e-06	7.2593e-06	1853.7	310.1	7.2625e-06	7.6079e-06	444.41	125.91	82.701	22.851	7.5516e-06	38.153	31.745	64.485	46.524	-53.434	258.219	32.813	-53.435	-46.273	265.537	50.404	-46.276	-39.617	-38.204	-31.205	115.491	-33.427	-8191	255	
1026.337	1	1	0	0	0.050931	0.14248	0.29308	0.082527	0.071879	0.12944	0.26629	0.32805	0.063028	0.090798	0.26713	0.16495	0.38421	0.18506	0.10822	0.089656	-2.0271	-1.8958	-2.3979	-2.5979	-1.8354	-2.4688	-2.3708	-2.1229	-2.5854	-1.8583	-2.1958	-2.4479	-1.9146	-2.5062	-2.2542	-1.9167	-43.993	148.115	212.680	-55.333	153.760	232.518	225.483	282.922	273.943	96.235	201.532	275.014	-46.975	193.838	145.450	-63.426	0.0001313	0.00022817	0.00020802	1440.7	2.1017e-06	7.4075e-06	1866.1	305.66	2.0815e-06	4.7023e-06	434.77	125.25	81.712	21.754	4.0491e-06	36.41	0.0006533	0.00069182	0.0001881	1418.7	7.3459e-06	7.2455e-06	1850.8	309.6	7.3062e-06	7.5901e-06	443.52	125.81	82.645	22.881	7.4491e-06	38.008	170.924	118.522	140.659	-52.762	276.108	23.003	-52.785	-45.852	28.711	114.715	-46.065	-40.148	-38.229	-31.870	93.587	-33.637	-8191	255	
1026.433	1	1	0	0	0.096613	0.23695	0.03577	0.33989	0.098013	0.17987	0.24724	0.1343	0.24415	0.27594	0.062937	0.14569	0.20304	0.17175	0.12651	0.17787	-2.3438	-1.8937	-2.2458	-2.6542	-1.9458	-2.4458	-2.5375	-1.9792	-2.6792	-2.2021	-2.1979	-2.4688	-1.8229	-2.325	-2.1083	-1.9083	142.238	172.986	101.635	-49.511	156.402	14.717	241.422	157.386	231.544	278.650	-18.078	90.790	204.087	18.773	66.913	77.551	0.00011904	0.00045053	0.00013031	1456.2	3.3386e-06	7.1794e-06	1880.9	306.76	2.506e-06	1.041e-05	439.68	124.46	80.251	21.601	2.987e-06	36.621	0.00064455	0.00068453	0.00018911	1419.8	7.3706e-06	7.3039e-06	1852.1	309.8	7.2086e-06	7.6241e-06	444.14	125.9	82.589	22.886	7.335e-06	38.083	155.026	119.657	51.795	-53.411	266.936	35.297	-53.166	-46.083	260.198	134.182	-46.054	-39.535	-37.429	-30.352	31.465	-32.956	-8191	255	
1026.530	1	1	0	0	0.22662	0.061995	0.16591	0.21583	0.10725	0.066192	0.039222	0.11987	0.030526	0.12355	0.30589	0.17224	0.12688	0.076457	0.072269	0.49144	-2.1	-1.8771	-1.9021	-2.6875	-2.0479	-2.3875	-2.6125	-1.8292	-2.6875	-2.2083	-2.1604	-2.4188	-1.7354	-2.3458	-2.3417	-1.9875	42.185	66.712	140.107	278.178	217.553	261.582	153.179	286.126	34.493	-56.369	202.841	100.569	81.968	37.837	-63.224	265.885	0.0001522	0.00050974	0.00013818	1458	2.9153e-06	7.6688e-06	1890.6	309.78	4.2374e-06	9.0535e-06	448.7	126.12	82.233	22.065	3.0438e-06	37.223	0.00065673	0.00068916	0.00018968	1421	7.2791e-06	7.4045e-06	1853.8	310.13	7.3529e-06	7.4866e-06	444.31	126.08	82.74	22.857	7.436e-06	38.118	268.875	-2.849	2.630	-53.588	241.489	64.536	-53.557	-46.680	232.394	168.604	-46.908	-40.194	-38.440	-31.634	156.057	-33.904	-8191	255	
1026.601	1	1	0	0	0.33882	0.15427	0.18303	0.30363	0.12607	0.22408	0.26831	0.26882	0.15693	0.22544	0.089063	0.06323	0.2132	0.20371	0.16862	0.30341	-2.2542	-2.0438	-2.0812	-2.8937	-1.8687	-2.0896	-2.7292	-1.8958	-2.475	-2.2167	-1.7542	-2.4083	-1.9896	-1.9729	-2.4042	-1.8104	137.816	124.857	123.333	188.363	222.650	54.564	250.264	232.523	189.011	45.157	46.522	182.383	-0.454	-53.661	154.022	157.328	5.8886e-05	0.00048766	0.00012888	1466	4.2176e-06	7.2546e-06	1894.2	310.73	3.5022e-06	4.8466e-06	443	127.02	82.151	21.824	3.7617e-06	36.849	0.00066114	0.00067205	0.00019051	1421	7.377e-06	7.4376e-06	1852.1	310.23	7.2545e-06	7.475e-06	443.76	126.07	82.873	22.903	7.4822e-06	38.163	54.778	88.835	37.739	-53.781	281.816	61.180	-53.714	-46.852	-53.951	35.391	-46.871	-40.510	-38.512	-31.983	107.719	-33.922	-8191	255	
1026.697	1	1	0	0	0.1383	0.11175	0.20793	0.34075	0.10121	0.23363	0.26876	0.24609	0.028199	0.17106	0.17622	0.11852	0.35885	0.21415	0.11174	0.074058	-2.0271	-2.25	-1.7875	-2.7354	-2.0854	-2.0458	-2.7	-1.9354	-2.3958	-2.2313	-2.0167	-2.6021	-1.8813	-2.2271	-2.4354	-1.8958	45.005	211.532	38.583	254.861	-16.431	87.084	202.557	151.002	280.037	250.976	293.489	237.149	-33.960	107.705	201.202	277.932	0.00012426	0.00037261	8.576e-05	1464.2	4.233e-06	6.5868e-06	1892.1	310.18	7.1593e-07	2.7115e-06	439.62	126.16	82.025	21.963	8.463e-06	37.072	0.00065574	0.00067661	0.00019105	1420.8	7.2391e-06	7.4237e-06	1852.8	309.96	7.3317e-06	7.4657e-06	443.26	126.05	82.668	22.929	7.3697e-06	38.093	-12.819	38.136	134.995	-53.731	265.141	56.680	-53.567	-46.515	120.222	108.941	-47.338	-40.268	-38.460	-31.554	98.372	-33.644	-8191	255	
1026.818	1	1	0	0	0.24584	0.086454	0.13922	0.22284	0.22024	0.22596	0.24118	0.079711	0.20739	0.14883	0.099439	0.22959	0.23415	0.24024	0.2923	0.17651	-1.9583	-2.3667	-1.7146	-2.7979	-2.0438	-1.8771	-2.625	-2.0458	-2.3792	-2.3646	-1.6729	-2.5479	-2.1104	-2.1208	-2.8917	-1.9958	160.517	-39.883	284.113	272.922	-38.905	62.967	-15.510	236.811	282.415	98.229	66.059	-45.095	176.987	113.163	147.481	127.656	9.0593e-05	0.00021025	4.6868e-05	1466.1	3.0091e-06	7.5302e-06	1895.4	310.15	3.9918e-06	2.3517e-06	450.8	126.25	81.571	22.048	5.7562e-06	37.051	0.00064863	0.00067913	0.00018983	1421	7.1775e-06	7.4583e-06	1853	309.78	7.3711e-06	7.4271e-06	445.13	126.1	82.568	22.943	7.3149e-06	38.143	211.958	7.418	147.467	-53.781	288.522	1.733	-53.602	-46.636	146.318	292.496	-47.079	-40.377	-38.585	-31.325	176.482	-33.593	-8191	255	
1026.914	1	1	0	0	0.13305	0.02635	0.18072	0.30849	0.25424	0.1832	0.32237	0.084029	0.039577	0.14399	0.16262	0.14194	0.046925	0.26806	0.12476	0.17829	-1.8563	-2.3333	-1.6979	-2.6937	-2.1292	-1.9667	-2.5708	-1.9438	-2.2708	-2.3563	-1.7812	-2.3667	-2.2917	-1.8667	-2.7604	-1.9708	209.818	291.527	-37.814	-60.142	227.918	7.395	-52.608	215.712	-31.042	68.159	197.337	144.211	16.023	70.411	94.190	190.041	0.0001042	0.00051416	0.00010644	1460.6	2.5497e-06	7.9548e-06	1894.4	309.78	3.0891e-06	4.0409e-06	442.81	125.29	81.778	21.792	5.3741e-07	37.05	0.00065844	0.00066974	0.0001883	1420.1	7.1864e-06	7.4161e-06	1853.8	309.98	7.3099e-06	7.4457e-06	444.52	125.99	82.679	22.866	7.3928e-06	38.015	-35.035	11.170	71.192	-53.614	256.257	95.352	-53.554	-46.471	225.635	76.068	-47.104	-40.280	-38.576	-32.031	10.257	-34.132	-8191	255	
1027.010	1	1	0	0	0.20624	0.17326	0.084037	0.36093	0.15419	0.029668	0.14653	0.1189	0.19877	0.14556	0.27666	0.15685	0.15071	0.10518	0.10618	0.068953	-1.7646	-2.35	-1.9375	-2.6729	-2.3354	-1.9167	-2.7812	-2.1562	-2.0312	-2.5854	-1.9021	-2.2896	-2.3208	-1.7812	-2.5583	-2.0938	-0.483	26.797	184.091	264.497	49.079	266.647	186.300	-45.095	272.216	127.213	-18.586	81.986	-0.526	2.909	226.572	75.908	0.00011386	0.00021845	4.0644e-05	1457.6	3.0307e-06	3.1112e-06	1890.6	309.54	1.3586e-06	9.4059e-06	440.31	124.63	81.032	22.137	2.3078e-06	36.776	0.00065646	0.00066988	0.00018678	1420	7.1558e-06	7.5052e-06	1853.1	309.96	7.4367e-06	7.3754e-06	444.53	125.79	82.513	22.933	7.392e-06	38.092	147.061	-28.630	92.619	-53.562	262.454	238.030	-53.396	-46.385	239.032	80.588	-46.057	-40.097	-38.053	-31.322	135.502	-32.775	-8191	255	
1027.131	1	1	0	0	0.3012	0.12141	0.25594	0.17048	0.36196	0.21276	0.14571	0.25668	0.055963	0.033631	0.045229	0.32147	0.17167	0.094916	0.14754	0.17432	-1.5021	-2.5667	-1.8104	-2.475	-2.4	-1.9354	-2.6375	-2.1833	-1.9271	-2.8083	-1.9958	-2.1	-2.5062	-1.8146	-2.3937	-2.3521	143.159	44.786	264.799	264.916	141.723	240.099	234.010	1.648	87.372	-58.515	60.062	270.607	93.648	29.116	36.097	177.805	0.00016981	0.00073267	0.00015174	1452.4	2.9414e-06	4.8487e-06	1872.6	307.85	1.5106e-06	2.9215e-06	441.87	125.01	81.118	21.774	3.1548e-06	36.708	0.00066304	0.00066819	0.00019002	1419.5	7.1222e-06	7.4545e-06	1851.7	309.76	7.4484e-06	7.3885e-06	443.78	125.9	82.673	22.926	7.3943e-06	38.112	124.557	9.885	90.367	-53.420	279.116	77.451	-52.913	-45.974	152.443	128.035	-45.772	-39.706	-37.911	-31.349	166.174	-33.130	-8191	255	
1027.203	1	1	0	0	0.22336	0.30829	0.059776	0.28165	0.080595	0.32497	0.10537	0.28172	0.10848	0.24425	0.083975	0.12855	0.13107	0.29172	0.20629	0.13086	-1.5146	-2.6104	-1.875	-2.4938	-2.4542	-1.8958	-2.6688	-2.3521	-2.0604	-2.5625	-1.9188	-2.1063	-2.4125	-1.675	-2.2333	-2.4458	-53.740	170.810	167.271	237.403	292.625	234.362	185.380	265.884	200.286	20.856	100.771	24.370	-21.730	210.377	221.675	-45.482	5.4427e-05	0.00082275	9.9115e-05	1451	1.7919e-06	4.9202e-06	1872.4	307.49	3.6781e-06	5.7489e-06	438.02	124.34	80.428	21.518	2.2108e-06	36.33	0.00066917	0.00066111	0.00018876	1419.9	7.0669e-06	7.3046e-06	1851	309.69	7.4258e-06	7.3607e-06	444.06	125.8	82.62	22.846	7.3635e-06	37.969	104.300	69.730	60.776	-53.336	277.268	74.547	-53.046	-46.008	169.432	117.050	-45.995	-39.589	-37.583	-30.174	207.235	-32.340	-8191	255	
1027.299	1	1	0	0	0.20621	0.28006	0.0907	0.011179	0.22142	0.088293	0.16472	0.33242	0.093392	0.18027	0.20214	0.29694	0.22857	0.085562	0.16337	0.26498	-1.3	-2.5083	-2.0604	-2.2458	-2.4354	-1.9167	-2.4896	-2.2771	-1.9604	-2.5542	-2.2146	-2.0458	-2.4333	-1.8417	-2.1896	-2.3208	37.642	52.724	144.135	265.523	266.293	86.089	216.244	22.317	-63.600	94.730	196.496	280.436	211.011	189.259	29.916	-43.438	0.00011699	6.9943e-05	8.5833e-05	1457.9	2.4175e-06	6.5905e-06	1883.4	308.12	1.5403e-06	2.3509e-06	434.4	123.78	81.066	21.741	3.3458e-06	36.709	0.00066133	0.00066904	0.00018604	1419.3	7.1686e-06	7.4991e-06	1852.7	309.98	7.4513e-06	7.3978e-06	442.02	125.79	82.672	22.894	7.5192e-06	37.981	90.434	207.352	5.276	-53.597	275.499	67.283	-53.372	-46.279	-18.338	129.158	-46.024	-39.087	-37.666	-31.148	107.474	-32.377	-8191	255	
1027.418	1	1	0	0	0.13155	0.22579	0.30532	0.16954	0.18967	0.07508	0.084499	0.13949	0.053859	0.19051	0.22028	0.11897	0.2544	0.35976	0.1112	0.24031	-1.4417	-2.4917	-2.0687	-2.2396	-2.7125	-1.8792	-2.4521	-2.5167	-1.8542	-2.4646	-2.1104	-2.0271	-2.575	-1.9229	-2.1542	-2.2604	13.174	-56.003	185.296	253.187	-36.199	107.174	168.100	150.071	90.526	-27.912	-62.439	99.681	145.499	195.533	253.011	125.848	4.94e-05	0.00051223	0.00015604	1457.3	2.6926e-06	6.744e-06	1886.6	308.87	2.1057e-06	8.9016e-06	444.32	126.21	81.688	21.948	2.3287e-06	36.864	0.00066245	0.00066609	0.00018639	1419.4	7.1736e-06	7.3354e-06	1852.3	309.95	7.4812e-06	7.3831e-06	442.6	126.03	82.71	22.948	7.6017e-06	38.018	256.846	79.894	75.909	-53.584	271.620	70.963	-53.515	-46.120	111.306	94.048	-46.831	-40.025	-38.269	-30.741	110.266	-33.838	-8191	255	
1027.514	1	1	0	0	0.15985	0.14703	0.23706	0.33689	0.25965	0.12422	0.31862	0.23329	0.12265	0.13719	0.13252	0.076868	0.06262	0.16381	0.20719	0.24464	-1.3125	-2.3563	-2.2583	-2.3542	-2.4938	-1.9833	-2.3271	-2.4062	-1.9167	-2.1396	-2.4625	-1.6354	-2.5354	-2.0729	-1.9229	-2.6333	145.865	71.236	228.735	281.700	272.740	40.286	191.744	-61.535	202.842	193.236	35.661	-39.622	-34.608	292.903	234.544	264.143	0.00013634	0.00044793	0.00014234	1460.9	3.1494e-06	3.9841e-06	1888.6	309.51	6.4976e-07	9.1349e-06	448.49	125.61	81.863	21.977	3.0452e-06	37.194	0.0006639	0.00067436	0.00018363	1420.3	7.1279e-06	7.3822e-06	1852.5	310.13	7.3682e-06	7.3923e-06	444.53	125.92	82.66	22.937	7.5932e-06	38.053	150.237	64.117	20.585	-53.669	275.291	206.999	-53.549	-46.450	32.574	118.117	-46.855	-40.086	-38.382	-31.065	145.879	-33.732	-8191	255	
1027.610	1	1	0	0	0.14269	0.1347	0.24515	0.10597	0.12514	0.20637	0.24168	0.12777	0.075262	0.1511	0.2207	0.050076	0.034345	0.079024	0.25442	0.1613	-1.5271	-2.0812	-2.4083	-2.1375	-2.4708	-2.2292	-2.1479	-2.4979	-1.9646	-2.2146	-2.5354	-1.8083	-2.4708	-2.1688	-1.8979	-2.5792	269.105	211.508	232.649	-61.865	18.555	280.201	220.354	15.398	-52.302	19.070	162.937	277.576	-15.049	13.097	259.927	-9.219	0.00011904	0.00097647	0.00011213	1460.4	1.3862e-06	9.668e-06	1889.6	309.85	2.1164e-06	3.3666e-06	444.08	126.52	81.919	21.915	1.3995e-06	36.985	0.00066186	0.00067563	0.00018256	1420.2	7.2575e-06	7.4176e-06	1852.3	310.02	7.4309e-06	7.4874e-06	444.05	126.04	82.622	22.848	7.6233e-06	37.997	181.017	24.544	52.517	-53.629	287.386	41.399	-53.535	-46.465	178.356	242.381	-47.050	-40.074	-38.421	-31.221	93.099	-34.033	-8191	255	
1027.731	1	1	0	0	0.16027	0.28353	0.2398	0.21018	0.22604	0.11132	0.26813	0.23547	0.15524	0.038335	0.076744	0.17855	0.038552	0.15344	0.11976	0.086048	-1.5125	-2.1188	-2.575	-2.1417	-2.5	-2.2562	-2.1229	-2.6583	-2.0875	-2.0979	-2.5771	-1.775	-2.3292	-2.5104	-1.8208	-2.4667	104.146	21.150	197.925	204.432	131.824	261.942	248.165	127.065	-26.970	293.151	123.998	151.463	80.849	62.299	71.355	-42.486	0.00010091	0.00081696	0.00016605	1459.8	2.5579e-06	2.3491e-06	1889.1	309.02	3.9565e-06	2.9771e-06	444.6	125.38	81.426	21.657	7.7456e-06	36.468	0.00065594	0.00067997	0.00018532	1419.7	7.1927e-06	7.34e-06	1852.3	310.1	7.3777e-06	7.5531e-06	443.05	125.87	82.629	22.814	7.4992e-06	37.934	62.229	27.556	-8.432	-53.721	253.868	57.916	-53.487	-46.273	190.722	68.101	-47.141	-40.141	-38.180	-30.646	60.012	-33.198	-8191	255	
1027.827	1	1	0	0	0.27001	0.31201	0.29393	0.29149	0.030877	0.1894	0.22003	0.16779	0.15293	0.20573	0.054756	0.14275	0.46354	0.1305	0.283	0.047986	-1.7375	-1.9417	-2.475	-2.2542	-2.4021	-2.3771	-1.9792	-2.6917	-2.2875	-2.1271	-2.4437	-1.9146	-2.1979	-2.3542	-1.8813	-2.5187	256.367	135.845	-57.804	-52.913	16.403	195.038	212.930	47.494	56.155	222.313	132.357	198.187	168.443	-4.976	74.124	171.133	0.00012176	0.00039228	0.00012358	1451.6	2.7005e-06	7.5187e-06	1882.6	308.53	3.3695e-07	3.1488e-06	442.69	124.65	81.209	21.803	3.7612e-06	36.677	0.00065784	0.00068271	0.00018517	1418.8	7.2219e-06	7.35e-06	1850.3	309.86	7.4127e-06	7.645e-06	443.56	125.92	82.646	22.899	7.685e-06	38.085	167.438	6.123	103.733	-53.399	288.139	94.797	-53.302	-46.288	76.997	238.017	-46.669	-39.878	-37.898	-30.146	194.268	-32.744	-8191	255	
1027.898	1	1	0	0	0.10426	0.12504	0.19997	0.24255	0.1526	0.26691	0.26388	0.095746	0.20327	0.25714	0.19128	0.12162	0.099306	0.10098	0.059918	0.092917	-1.8417	-1.9979	-2.5625	-1.9958	-2.2104	-2.3396	-2.2104	-2.4375	-2.2917	-2.1479	-2.5687	-1.8937	-2.1833	-2.3583	-1.8333	-2.3854	74.503	29.919	158.291	268.836	252.621	-43.643	212.965	107.301	119.337	206.885	60.442	-3.695	229.475	241.738	-8.545	225.034	7.5297e-05	0.00018829	0.00011475	1444.9	4.4862e-06	2.1341e-06	1864.2	305.42	5.6087e-06	3.7427e-06	436.02	123.94	80.32	21.565	1.5746e-06	36.519	0.00065376	0.00069266	0.00018462	1418.8	7.2372e-06	7.277e-06	1848.7	309.46	7.2968e-06	7.6388e-06	443.05	125.77	82.59	22.795	7.614e-06	38.073	192.092	219.983	10.107	-53.080	279.248	39.733	-52.795	-45.612	210.258	147.628	-46.424	-39.359	-37.536	-30.021	-2.998	-32.806	-8191	255	
1027.995	1	1	0	0	0.23553	0.18098	0.16345	0.35611	0.12927	0.1876	0.095361	0.10122	0.1808	0.11838	0.22781	0.25946	0.14319	0.092344	0.22577	0.042466	-1.9833	-1.6688	-2.3958	-2.1896	-2.1479	-2.4938	-2.2208	-2.4146	-2.5167	-2.0542	-2.6562	-2.1521	-2.0583	-2.5771	-1.9042	-2.3104	172.987	71.728	230.298	253.726	204.944	234.538	282.001	255.950	126.005	123.883	3.266	14.031	41.376	116.653	277.943	70.146	0.00021817	0.0001208	0.00017504	1438.3	1.7854e-06	4.9011e-06	1858.9	304.39	3.1382e-06	5.8259e-06	434.27	123.64	80.609	21.877	6.2939e-06	36.769	0.00064942	0.0006914	0.00018425	1417.7	7.2435e-06	7.2355e-06	1849.4	309.46	7.2931e-06	7.5646e-06	443.34	125.76	82.517	22.832	7.503e-06	38.029	167.284	100.108	59.424	-52.764	-56.403	167.726	-52.623	-45.461	101.179	122.978	-46.085	-39.248	-37.563	-31.539	142.720	-33.034	-8191	255	
1028.113	1	1	0	0	0.04445	0.19293	0.13831	0.35212	0.19203	0.076902	0.31821	0.19387	0.22292	0.1466	0.17474	0.13687	0.14156	0.19037	0.2135	0.21748	-2.0438	-1.9167	-2.4646	-2.3979	-1.9583	-2.6042	-2.2625	-2.2438	-2.4729	-1.9396	-2.5687	-2.35	-1.8708	-2.4958	-1.9521	-2.0771	32.391	91.966	131.778	288.444	208.354	252.745	258.982	253.499	58.616	88.040	143.681	-16.514	247.084	-45.870	241.433	4.051	6.0759e-05	0.00015794	6.1784e-05	1432.9	4.0191e-06	9.96e-06	1870.6	306.23	2.2152e-06	2.5472e-06	441.9	125.38	81.575	21.457	6.7995e-06	36.886	0.00064745	0.00068123	0.00018734	1417.4	7.2893e-06	7.2201e-06	1851.2	309.73	7.2144e-06	7.5554e-06	443.15	126	82.683	22.797	7.5524e-06	38.083	143.354	61.600	77.188	-52.564	264.357	10.199	-52.997	-45.844	-50.452	-30.602	-46.099	-39.570	-38.226	-31.064	134.886	-33.074	-8191	255	
1028.210	1	1	0	0	0.3306	0.14404	0.18348	0.18826	0.054134	0.18739	0.099236	0.12722	0.068603	0.079008	0.109	0.35878	0.13783	0.019133	0.15185	0.13221	-1.9896	-2.0271	-2.3833	-2.4188	-1.8479	-2.5563	-2.3125	-2.2938	-2.4958	-1.9854	-2.3771	-2.3646	-1.8521	-2.5833	-2.1688	-1.9396	116.127	46.130	-47.312	235.428	183.333	-52.026	244.680	145.346	27.542	222.290	243.888	141.483	113.186	63.774	205.219	143.948	6.3336e-05	0.00027332	0.00014094	1435	1.295e-06	6.3025e-06	1853.2	303.79	3.3893e-06	5.2317e-06	435.72	123.26	80.694	21.505	4.8566e-06	36.77	0.00065067	0.00068341	0.00018557	1417.6	7.3382e-06	7.3138e-06	1848.5	309.61	7.1422e-06	7.4163e-06	442.73	125.81	82.504	22.82	7.5485e-06	38.115	84.673	-21.060	97.934	-52.556	271.578	35.323	-52.375	-45.361	42.463	61.092	-46.440	-38.849	-37.562	-30.417	76.647	-33.430	-8191	255	
1028.306	1	1	0	0	0.065892	0.18981	0.27996	0.41404	0.13869	0.095358	0.073297	0.18441	0.12549	0.22018	0.21593	0.099712	0.27241	0.21764	0.033668	0.46317	-2.0938	-1.8042	-2.4229	-2.6417	-1.7958	-2.5833	-2.4583	-2.1625	-2.7021	-2.0229	-2.2583	-2.4	-1.7583	-2.3125	-2.0104	-2.0229	283.927	-4.082	273.803	244.949	166.912	238.005	163.079	266.221	224.868	35.119	284.032	71.163	215.884	17.983	43.396	202.137	5.0455e-05	0.00022646	6.5443e-05	1433	2.7783e-06	8.7599e-06	1847.2	302.55	1.4039e-06	3.2014e-06	432.07	122.78	79.451	21.145	8.1515e-06	35.806	0.00064257	0.00068803	0.00018567	1416.9	7.2868e-06	7.3039e-06	1848.4	309.23	7.2173e-06	7.5306e-06	442.09	125.51	82.359	22.708	7.4992e-06	38.014	113.069	240.633	71.187	-52.541	258.095	78.359	-52.097	-45.213	116.902	137.072	-45.686	-38.922	-36.664	-30.159	68.012	-32.339	-8191	255	
1028.402	1	1	0	0	0.13187	0.076835	0.35855	0.19381	0.18347	0.17742	0.13425	0.15044	0.17283	0.28815	0.23917	0.11726	0.24724	0.16419	0.084798	0.084285	-2.1396	-1.8438	-2.3187	-2.6333	-1.7083	-2.4333	-2.4771	-1.9792	-2.6333	-1.9146	-2.1688	-2.5354	-1.6958	-2.3417	-2.225	-1.9396	224.296	-9.822	267.653	145.582	101.550	291.239	248.515	214.011	118.711	-47.665	122.378	188.193	246.185	180.863	129.452	232.810	0.00011984	0.0004259	9.7295e-05	1434.4	1.5611e-06	4.6217e-06	1869.1	304.86	5.0025e-06	6.1924e-06	439.37	122.87	80.006	21.378	2.5206e-06	36.203	0.00063902	0.00068355	0.00018816	1416.2	7.33e-06	7.3423e-06	1849.7	309.35	7.2931e-06	7.5932e-06	444.4	125.54	82.391	22.783	7.4321e-06	38.043	207.632	16.221	71.652	-52.719	-12.273	58.766	-52.889	-45.920	187.680	55.418	-45.980	-38.672	-37.107	-30.394	107.073	-32.597	-8191	255	
1028.498	1	1	0	0	0.14164	0.23152	0.29017	0.24152	0.23645	0.099848	0.14294	0.138	0.10838	0.18175	0.25473	0.052831	0.07388	0.29681	0.20288	0.13951	-2.1271	-2.0812	-2.0458	-2.7375	-1.8542	-2.4833	-2.5625	-2.0938	-2.5396	-2.1417	-2	-2.5687	-1.9021	-2.4354	-2.4646	-1.85	87.500	237.887	259.049	285.520	142.471	136.022	223.131	256.365	231.467	84.348	21.758	44.210	256.035	88.092	197.305	186.497	6.685e-05	0.00038631	4.4229e-05	1423.6	2.7555e-06	1.1454e-05	1851.9	301.64	1.3117e-06	2.9608e-06	431.44	123.06	80.08	21.56	3.4655e-06	36.388	0.00065725	0.00067759	0.00018892	1416.3	7.2149e-06	7.3138e-06	1848.5	308.94	7.1947e-06	7.4495e-06	443.53	125.67	82.485	22.893	7.3704e-06	38.017	174.815	-45.010	46.513	-52.089	289.825	34.681	-52.316	-45.194	193.430	67.025	-44.741	-38.478	-37.196	-30.578	130.858	-32.883	-8191	255	
1028.594	1	1	0	0	0.26197	0.10318	0.082599	0.031202	0.031314	0.31207	0.2173	0.14472	0.23628	0.13162	0.19562	0.30839	0.25936	0.071889	0.18892	0.097854	-2.2062	-2.2833	-1.9875	-2.7854	-1.9854	-2.2896	-2.5687	-2.0208	-2.5417	-2.1896	-2.1042	-2.7167	-1.8479	-2.1021	-2.475	-1.7	174.088	123.612	53.591	119.451	-50.195	244.861	195.246	-3.404	249.789	118.543	71.244	103.290	220.687	-7.828	269.185	254.746	7.8187e-05	0.00051323	1.2888e-05	1434	4.1194e-06	1.0141e-05	1872.6	305.86	1.2882e-06	3.5877e-06	436	124.33	81.074	21.591	2.2431e-06	36.767	0.00064508	0.00067717	0.00018944	1417.4	7.2709e-06	7.4921e-06	1850.3	309.49	7.272e-06	7.424e-06	442.94	125.93	82.554	22.783	7.3288e-06	38.06	105.883	-24.177	208.320	-52.593	287.680	120.986	-52.959	-45.799	23.941	145.998	-46.681	-39.307	-38.110	-30.280	44.168	-32.863	-8191	255	
1028.690	1	1	0	0	0.12239	0.077535	0.10817	0.1558	0.14285	0.22504	0.27361	0.13536	0.1476	0.03047	0.20897	0.089064	0.064947	0.14158	0.12204	0.079383	-2.0375	-2.0563	-2.1708	-2.8271	-1.9458	-2.3063	-2.8958	-1.9583	-2.4604	-2.4375	-1.9021	-2.6833	-2.1021	-2.0375	-2.5542	-1.7271	-4.933	283.614	166.902	-29.955	-19.767	110.879	-47.112	-33.472	87.632	250.756	121.006	67.090	266.200	170.802	154.070	292.041	4.8396e-05	0.00066244	9.3098e-05	1456.5	2.6518e-06	5.7392e-06	1884.7	308.35	3.6966e-06	7.9457e-06	439.73	125.67	81.096	21.757	4.6751e-06	36.958	0.00064745	0.00067184	0.0001894	1419.6	7.2632e-06	7.4122e-06	1851	309.51	7.2691e-06	7.5136e-06	444.16	125.92	82.613	22.844	7.4121e-06	38.099	33.277	-21.245	55.570	-53.495	293.770	65.107	-53.290	-46.292	143.787	76.259	-46.599	-39.517	-38.315	-31.767	151.776	-33.063	-8191	255	
1028.811	1	1	0	0	0.32195	0.30402	0.18464	0.27653	0.10977	0.03089	0.16582	0.09117	0.12016	0.16326	0.11944	0.10429	0.19451	0.18122	0.1045	0.11698	-1.7917	-2.3812	-1.7771	-2.7125	-1.9333	-2.0417	-2.6771	-1.9083	-2.1562	-2.3333	-1.9604	-2.4771	-2.1875	-1.8146	-2.7	-2.1813	165.626	-11.416	36.368	-44.420	210.038	272.879	266.369	167.939	289.268	242.542	74.470	254.641	-24.489	-49.316	110.353	152.304	0.00028316	0.00032234	0.00010186	1454.7	3.1513e-06	7.4149e-06	1885.4	308.73	2.7745e-06	2.6126e-06	446.6	124.97	81.331	21.736	5.1639e-06	36.757	0.00066087	0.00067906	0.00019088	1418.7	7.241e-06	7.4491e-06	1851.8	309.68	7.4374e-06	7.4086e-06	443.36	125.83	82.611	22.844	7.409e-06	38.046	138.757	41.946	13.641	-53.405	280.867	-43.865	-53.311	-46.346	246.911	-29.024	-46.664	-39.833	-37.964	-31.394	150.531	-33.261	-8191	255	
1028.907	1	1	0	0	0.23001	0.09133	0.17506	0.39129	0.32575	0.1865	0.24804	0.28477	0.1883	0.14534	0.033469	0.058212	0.24334	0.24351	0.22357	0.21814	-2.0208	-2.4479	-1.7708	-2.875	-2.3625	-2.0521	-2.8125	-2.2146	-2.1562	-2.3187	-1.8	-2.4313	-2.3937	-1.8479	-2.5604	-1.9813	272.756	213.360	74.100	281.053	201.512	2.734	-36.283	277.117	246.084	89.767	-28.811	266.358	41.202	48.504	60.748	-13.739	1.1946e-05	0.00040794	6.6972e-05	1450.4	4.2341e-06	1.8132e-06	1874.7	307.16	2.35e-06	3.8635e-06	440.68	125.29	81.112	21.941	5.04e-06	36.955	0.00066291	0.000671	0.00018993	1419.1	7.2346e-06	7.5728e-06	1851.2	309.46	7.3135e-06	7.3375e-06	443.52	125.8	82.534	22.883	7.3118e-06	38.036	168.115	27.213	23.104	-53.275	292.697	-57.619	-53.037	-46.119	-52.701	100.273	-46.269	-40.233	-38.424	-30.862	-20.341	-33.606	-8191	255	
1029.003	1	1	0	0	0.21571	0.2252	0.1616	0.36955	0.048933	0.18729	0.1422	0.023751	0.11434	0.20703	0.13778	0.20175	0.14272	0.13673	0.085171	0.085248	-1.75	-2.3542	-1.8312	-2.6396	-2.3729	-1.9354	-2.9333	-2.1312	-2.0687	-2.5708	-2.0708	-2.3771	-2.4479	-1.9333	-2.5375	-2.0187	135.349	133.332	262.967	244.420	94.925	60.156	219.926	154.775	-63.576	197.973	165.841	-21.105	179.581	21.768	279.279	113.550	3.831e-05	0.00049512	3.5542e-05	1449.1	1.7356e-06	4.5449e-06	1872.5	307.24	1.7428e-06	4.3743e-06	442.03	124.79	81.404	21.554	4.6951e-06	36.722	0.00065824	0.00067499	0.00018709	1418.9	7.2213e-06	7.5736e-06	1850.9	309.63	7.3274e-06	7.4086e-06	443.78	125.86	82.633	22.848	7.3365e-06	38.132	285.471	29.860	45.092	-53.137	280.101	15.948	-52.941	-45.804	104.768	38.961	-46.095	-39.702	-38.265	-30.492	105.952	-32.925	-8191	255	
1029.099	1	1	0	0	0.17023	0.068183	0.17164	0.1695	0.26887	0.25847	0.13495	0.067977	0.03616	0.050819	0.10605	0.2949	0.21919	0.14902	0.30699	0.23885	-1.6146	-2.5833	-1.9833	-2.4146	-2.6875	-2.0542	-2.9	-2.3917	-2.1146	-2.6188	-2	-2.3979	-2.4646	-1.875	-2.4688	-2.1042	218.457	3.448	77.382	-56.125	-50.141	231.764	177.432	22.925	-55.259	-29.884	75.841	75.756	-52.838	-53.240	205.922	9.275	3.3832e-05	0.0004818	0.00010927	1445.2	2.3823e-06	3.5885e-06	1868.1	305.48	2.4188e-06	1.0055e-05	437.06	124.75	80.963	21.817	2.8352e-06	36.766	0.00066482	0.00066749	0.00018969	1418.1	7.2162e-06	7.5636e-06	1851	309.42	7.4732e-06	7.3939e-06	444.18	125.87	82.608	22.878	7.476e-06	38.081	62.107	35.966	-12.031	-53.121	269.615	-3.480	-52.794	-45.513	100.805	105.587	-45.964	-39.712	-37.473	-31.003	177.911	-33.357	-8191	255	
1029.196	1	1	0	0	0.031557	0.11778	0.061573	0.31355	0.23099	0.045497	0.2832	0.21472	0.33648	0.10224	0.33462	0.13718	0.1034	0.20508	0.20663	0.15365	-1.4583	-2.5542	-2.0896	-2.3292	-2.4417	-1.9583	-2.6396	-2.4333	-1.9292	-2.5125	-2.0687	-2.1667	-2.4083	-2.0542	-2.2938	-2.4042	136.694	164.594	207.429	221.418	198.093	64.657	263.453	2.821	213.430	39.021	230.757	239.536	200.614	75.878	141.131	234.092	0.00010502	0.00050095	0.00016139	1452.1	2.8292e-06	8.9589e-06	1863.9	304.21	9.0093e-07	1.1397e-05	438.6	123.92	81.24	21.812	2.97e-06	36.289	0.00067529	0.00066939	0.00018861	1418.2	7.1965e-06	7.4599e-06	1849.3	309.29	7.4579e-06	7.3506e-06	443.29	125.82	82.543	22.876	7.4622e-06	37.945	94.465	52.002	65.221	-53.332	267.977	86.123	-52.736	-45.515	-27.013	82.090	-46.011	-39.441	-37.864	-31.012	-41.323	-32.623	-8191	255	
1029.290	1	1	0	0	0.16136	0.1178	0.19895	0.37534	0.035337	0.17807	0.085287	0.018372	0.22037	0.24894	0.20288	0.37293	0.22249	0.039565	0.088749	0.066831	-1.5125	-2.6667	-2.2292	-2.5333	-2.6271	-1.7521	-2.4521	-2.4729	-1.8229	-2.6437	-2.2917	-1.9854	-2.5604	-1.8083	-2.2042	-2.3042	279.132	110.914	81.674	281.878	292.426	44.566	119.998	-10.308	194.414	204.615	267.185	270.885	102.905	155.723	159.738	128.815	0.00016668	0.00033254	0.00014407	1445.3	2.5851e-06	5.768e-06	1871.4	306.32	5.3886e-06	6.9441e-06	437.83	124.11	80.873	21.696	7.7946e-06	36.079	0.00066838	0.00066252	0.00018837	1417.8	7.1317e-06	7.4599e-06	1849.9	309.43	7.4688e-06	7.4341e-06	443.05	125.71	82.537	22.868	7.5107e-06	37.859	127.320	15.169	28.224	-53.133	288.010	91.620	-52.992	-45.923	234.433	62.225	-46.483	-39.185	-37.745	-31.051	72.634	-32.522	-8191	255	
1029.411	1	1	0	0	0.23326	0.098916	0.27834	0.37155	0.022897	0.17103	0.1666	0.20498	0.20507	0.20595	0.31515	0.1131	0.23617	0.19824	0.15442	0.20346	-1.3646	-2.4229	-2.0521	-2.2562	-2.5	-2.0042	-2.5583	-2.4	-2.0062	-2.2896	-2.2812	-1.9292	-2.5167	-2.0146	-1.9333	-2.7458	224.449	76.127	63.490	295.019	284.937	-14.851	218.290	166.339	199.045	76.540	247.927	29.657	37.425	223.419	76.600	156.408	0.00010291	0.00097463	2.9614e-05	1437.4	2.632e-06	4.523e-06	1861.1	303.75	1.6232e-06	4.2861e-06	435.24	123.11	80.222	21.296	2.8152e-07	36.398	0.00067292	0.00068046	0.00018746	1417	7.269e-06	7.4407e-06	1849.4	309.25	7.4579e-06	7.516e-06	442.01	125.68	82.433	22.817	7.5123e-06	37.959	191.590	27.122	40.981	-52.903	254.466	100.551	-52.632	-45.466	173.878	146.513	-46.013	-39.096	-37.481	-29.949	-52.623	-32.561	-8191	255	
1029.507	1	1	0	0	0.089462	0.095496	0.35297	0.011896	0.094549	0.13714	0.20157	0.2216	0.13868	0.3039	0.41403	0.097585	0.081961	0.11526	0.050303	0.029624	-1.4375	-2.3875	-2.275	-2.3312	-2.5021	-2.1437	-2.4146	-2.6229	-1.8312	-2.2833	-2.4333	-2.0833	-2.5833	-2.1188	-1.8937	-2.5458	252.302	-37.005	196.478	40.313	223.950	116.020	-44.239	51.687	249.724	278.314	195.360	289.962	-58.376	175.837	-34.441	176.726	0.00015832	0.00068801	8.5899e-05	1424.2	2.2517e-06	1.1332e-05	1839.2	300.28	1.7502e-06	2.3412e-06	437.63	124.78	81.602	21.906	7.6424e-06	36.726	0.0006714	0.00067934	0.00018783	1416.3	7.1393e-06	7.3784e-06	1847.2	308.75	7.4724e-06	7.5747e-06	443.06	125.65	82.48	22.825	7.5539e-06	37.98	165.606	47.309	86.211	-52.189	-41.864	89.875	-51.891	-44.722	184.159	51.547	-46.215	-39.903	-38.085	-31.191	92.056	-33.669	-8191	255	
1029.603	1	1	0	0	0.17614	0.21059	0.29565	0.17544	0.15076	0.067812	0.2704	0.25959	0.2614	0.060157	0.093699	0.25103	0.11154	0.2429	0.20926	0.16168	-1.6854	-2.1854	-2.3146	-2.2229	-2.3958	-2.0458	-2.2313	-2.5667	-1.9583	-2.4833	-2.5208	-1.9042	-2.4479	-2.2521	-2.0062	-2.6729	-34.333	253.086	-61.572	291.808	133.300	76.763	178.432	-45.498	39.585	-26.638	-33.201	-45.171	-5.530	54.554	137.352	6.940	9.1994e-05	0.0002406	7.315e-05	1451.7	2.0024e-06	1.0385e-05	1876.1	307.14	2.3855e-06	3.8246e-06	434.72	124.42	80.84	21.532	1.0005e-05	36.477	0.0006693	0.00067513	0.00018635	1417	7.1546e-06	7.363e-06	1849.7	309.47	7.3886e-06	7.5237e-06	442.26	125.82	82.504	22.783	7.5801e-06	38.102	27.689	-15.713	18.151	-53.528	266.075	43.152	-53.126	-46.040	178.188	60.843	-46.550	-39.615	-37.771	-30.737	84.046	-31.947	-8191	255	
1029.699	1	1	0	0	0.18162	0.28189	0.16278	0.23622	0.13319	0.18336	0.41425	0.093668	0.22115	0.11353	0.21027	0.17012	0.14334	0.19605	0.18451	0.20171	-1.5562	-2.2979	-2.5563	-2.1354	-2.4208	-2.4167	-2.1688	-2.7542	-2.0896	-2.2729	-2.5583	-1.8625	-2.575	-2.4562	-1.7687	-2.5187	84.550	61.631	258.680	237.942	254.767	194.964	205.140	-45.217	195.084	86.698	11.690	135.376	87.957	104.175	226.697	41.829	0.00011506	0.00069722	5.9871e-05	1417.4	2.3756e-06	6.5461e-06	1833.6	302.33	3.3615e-06	1.038e-05	438.14	123.12	79.998	21.341	2.4957e-06	36.234	0.00066798	0.0006825	0.00018402	1414.2	7.1444e-06	7.3976e-06	1846.1	309.13	7.3842e-06	7.5793e-06	443.3	125.73	82.461	22.773	7.587e-06	37.971	105.174	5.894	48.726	-51.882	263.904	54.795	-51.649	-45.321	290.894	67.241	-45.893	-38.859	-37.224	-30.452	168.611	-32.988	-8191	255	
1029.795	1	1	0	0	0.29083	0.11048	0.27598	0.29947	0.13845	0.15457	0.35753	0.25994	0.057494	0.15459	0.31356	0.11844	0.072927	0.017367	0.13415	0.065685	-1.8229	-2.2104	-2.8021	-2.2521	-2.2708	-2.3917	-2.0583	-2.5667	-2.2562	-2.075	-2.8375	-2	-2.3167	-2.3896	-1.8042	-2.4813	211.543	17.519	278.559	247.241	76.636	206.695	-60.692	-44.458	-46.305	142.472	28.060	-60.674	54.796	89.610	216.827	4.574	8.9804e-05	0.00038914	7.3639e-05	1423.1	2.9585e-06	1.2821e-05	1839.9	302.31	2.3575e-06	1.2479e-06	434.03	123.78	80.179	21.464	4.9108e-06	36.561	0.00065515	0.00068222	0.00018524	1414.6	7.1323e-06	7.2762e-06	1846.8	309.12	7.2844e-06	7.6133e-06	441.91	125.56	82.43	22.831	7.557e-06	37.975	186.624	-0.524	215.200	-52.166	280.039	38.897	-52.044	-45.310	47.121	91.129	-45.994	-39.238	-37.882	-30.813	112.593	-32.562	-8191	255	
#DATA ENDS
