BOXY.EXE: ISS Imagent and Oximeter Data Acquisition Program Version 0.80
Ascii Record File

#ACQ INFORMATION
2  Detector Channels 
16  External MUX Channels 
1  Auxiliary Channels 
5000  Waveform (CCF) Frequency (Hz)
1  Waveforms Skipped 
30  Waveforms Averaged 
1  Cycles Averaged 
16  Acquisitions per Waveform 
10.0806  Updata Rate (Hz) 

#FILE INFORMATION
TRUE -- External MUX Channel results are PARSED.
FALSE -- AC DC and Phase are NOT grouped.
TRUE -- Companion Program Settings File CREATED.
FALSE -- AC data not excluded
FALSE -- DC data not excluded
FALSE -- Phase data not excluded
FALSE -- Auxillary Chn. data not excluded
Tab delimiters

#CALIBRATION STATE
TRUE -- Waveform Calibration Values APPLIED.


#AUX CALIBRATION VALUES
Val Type	aux-1	

Term	1.0000e+00	
Factor	0.0000e+00	


#WF CALIBRATION VALUES
A = Detector Channel
Val Type	A-AC1	A-AC2	A-AC3	A-AC4	A-AC5	A-AC6	A-AC7	A-AC8	A-AC9	A-AC10	A-AC11	A-AC12	A-AC13	A-AC14	A-AC15	A-AC16	A-DC1	A-DC2	A-DC3	A-DC4	A-DC5	A-DC6	A-DC7	A-DC8	A-DC9	A-DC10	A-DC11	A-DC12	A-DC13	A-DC14	A-DC15	A-DC16	A-Ph1	A-Ph2	A-Ph3	A-Ph4	A-Ph5	A-Ph6	A-Ph7	A-Ph8	A-Ph9	A-Ph10	A-Ph11	A-Ph12	A-Ph13	A-Ph14	A-Ph15	A-Ph16	

Term	0.00000e+00	0.00000e+00	0.00000e+00	0.00000e+00	0.00000e+00	0.00000e+00	0.00000e+00	0.00000e+00	0.00000e+00	0.00000e+00	0.00000e+00	0.00000e+00	0.00000e+00	0.00000e+00	0.00000e+00	0.00000e+00	0.00000e+00	0.00000e+00	0.00000e+00	0.00000e+00	0.00000e+00	0.00000e+00	0.00000e+00	0.00000e+00	0.00000e+00	0.00000e+00	0.00000e+00	0.00000e+00	0.00000e+00	0.00000e+00	0.00000e+00	0.00000e+00	0.00000e+00	0.00000e+00	0.00000e+00	0.00000e+00	0.00000e+00	0.00000e+00	0.00000e+00	0.00000e+00	0.00000e+00	0.00000e+00	0.00000e+00	0.00000e+00	0.00000e+00	0.00000e+00	0.00000e+00	0.00000e+00	
Factor	1.00000e+00	1.00000e+00	1.00000e+00	1.00000e+00	1.00000e+00	1.00000e+00	1.00000e+00	1.00000e+00	1.00000e+00	1.00000e+00	1.00000e+00	1.00000e+00	1.00000e+00	1.00000e+00	1.00000e+00	1.00000e+00	1.00000e+00	1.00000e+00	1.00000e+00	1.00000e+00	1.00000e+00	1.00000e+00	1.00000e+00	1.00000e+00	1.00000e+00	1.00000e+00	1.00000e+00	1.00000e+00	1.00000e+00	1.00000e+00	1.00000e+00	1.00000e+00	X	X	X	X	X	X	X	X	X	X	X	X	X	X	X	X	

B = Detector Channel
Val Type	B-AC1	B-AC2	B-AC3	B-AC4	B-AC5	B-AC6	B-AC7	B-AC8	B-AC9	B-AC10	B-AC11	B-AC12	B-AC13	B-AC14	B-AC15	B-AC16	B-DC1	B-DC2	B-DC3	B-DC4	B-DC5	B-DC6	B-DC7	B-DC8	B-DC9	B-DC10	B-DC11	B-DC12	B-DC13	B-DC14	B-DC15	B-DC16	B-Ph1	B-Ph2	B-Ph3	B-Ph4	B-Ph5	B-Ph6	B-Ph7	B-Ph8	B-Ph9	B-Ph10	B-Ph11	B-Ph12	B-Ph13	B-Ph14	B-Ph15	B-Ph16	

Term	0.00000e+00	0.00000e+00	0.00000e+00	0.00000e+00	0.00000e+00	0.00000e+00	0.00000e+00	0.00000e+00	0.00000e+00	0.00000e+00	0.00000e+00	0.00000e+00	0.00000e+00	0.00000e+00	0.00000e+00	0.00000e+00	0.00000e+00	0.00000e+00	0.00000e+00	0.00000e+00	0.00000e+00	0.00000e+00	0.00000e+00	0.00000e+00	0.00000e+00	0.00000e+00	0.00000e+00	0.00000e+00	0.00000e+00	0.00000e+00	0.00000e+00	0.00000e+00	-8.95500e+01	-1.32442e+02	-1.21360e+02	-1.83856e+02	-5.84308e+01	-7.38836e+01	-1.57022e+02	-1.62015e+02	-5.39628e+01	-6.88787e+01	-1.76652e+02	-1.69899e+02	-1.78820e+02	-1.76458e+02	-6.33763e+01	-1.49634e+02	
Factor	1.19807e-05	1.12462e-04	2.91884e-05	1.32166e-01	8.52532e-07	1.20842e-06	1.31580e-01	3.77255e-02	7.48406e-07	1.22136e-06	6.98683e-02	2.06858e-02	1.82431e-02	6.64499e-03	9.18595e-07	9.55146e-03	5.69407e-06	8.09622e-06	2.26132e-06	5.65493e-02	8.44186e-08	8.95512e-08	6.09210e-02	1.91829e-02	8.50050e-08	8.97248e-08	3.41735e-02	1.02372e-02	9.40654e-03	3.40245e-03	8.67221e-08	4.72834e-03	X	X	X	X	X	X	X	X	X	X	X	X	X	X	X	X	



#DISTANCE SETTINGS
A = Detector Channel
A-1	A-2	A-3	A-4	A-5	A-6	A-7	A-8	A-9	A-10	A-11	A-12	A-13	A-14	A-15	A-16	

2.5000e+00	3.0000e+00	2.5000e+00	3.0000e+00	2.0000e+00	3.0000e+00	1.5000e+00	3.0000e+00	3.0000e+00	3.0000e+00	3.0000e+00	3.0000e+00	3.0000e+00	3.0000e+00	1.5000e+00	3.0000e+00	

B = Detector Channel
B-1	B-2	B-3	B-4	B-5	B-6	B-7	B-8	B-9	B-10	B-11	B-12	B-13	B-14	B-15	B-16	

1.0000e+01	1.0000e+01	1.0000e+01	1.4400e+00	1.0000e+01	1.0000e+01	1.5100e+00	1.9400e+00	1.0000e+01	1.0000e+01	1.9900e+00	2.4900e+00	2.4100e+00	2.9000e+00	1.0000e+01	2.9800e+00	




#DATA BEGINS
time	group	step	mark	flag	A-AC1	A-AC2	A-AC3	A-AC4	A-AC5	A-AC6	A-AC7	A-AC8	A-AC9	A-AC10	A-AC11	A-AC12	A-AC13	A-AC14	A-AC15	A-AC16	A-DC1	A-DC2	A-DC3	A-DC4	A-DC5	A-DC6	A-DC7	A-DC8	A-DC9	A-DC10	A-DC11	A-DC12	A-DC13	A-DC14	A-DC15	A-DC16	A-Ph1	A-Ph2	A-Ph3	A-Ph4	A-Ph5	A-Ph6	A-Ph7	A-Ph8	A-Ph9	A-Ph10	A-Ph11	A-Ph12	A-Ph13	A-Ph14	A-Ph15	A-Ph16	B-AC1	B-AC2	B-AC3	B-AC4	B-AC5	B-AC6	B-AC7	B-AC8	B-AC9	B-AC10	B-AC11	B-AC12	B-AC13	B-AC14	B-AC15	B-AC16	B-DC1	B-DC2	B-DC3	B-DC4	B-DC5	B-DC6	B-DC7	B-DC8	B-DC9	B-DC10	B-DC11	B-DC12	B-DC13	B-DC14	B-DC15	B-DC16	B-Ph1	B-Ph2	B-Ph3	B-Ph4	B-Ph5	B-Ph6	B-Ph7	B-Ph8	B-Ph9	B-Ph10	B-Ph11	B-Ph12	B-Ph13	B-Ph14	B-Ph15	B-Ph16	aux-1	digaux	

12564.942	1	1	0	131840	0.089744	0.038731	0.26467	0.12792	0.22768	0.069472	0.11732	0.18838	0.1499	0.30215	0.26279	0.27168	0.11689	0.093624	0.16643	0.27764	-1.7708	-2.8979	-2.5875	-2.5104	-2.9	-2.3708	-2.6229	-2.9458	-2.1562	-2.675	-2.6917	-2.4042	-2.9979	-2.6042	-2.4625	-2.9917	310.804	186.366	196.162	147.770	426.249	421.202	490.288	422.848	421.974	332.203	454.647	440.457	168.213	174.961	238.733	466.112	0.00052785	0.00038296	0.00017063	1378.5	4.8056e-06	5.6116e-06	1385.4	376.78	4.6617e-06	3.0533e-06	432.88	144.07	125.7	43.058	5.3448e-06	53.053	0.00054849	0.00053909	0.00014674	1379.1	5.7946e-06	5.7606e-06	1380.5	375.43	5.8744e-06	5.696e-06	429.32	144.07	125.48	43.179	5.7079e-06	53.461	228.522	186.097	250.884	152.951	287.417	274.090	152.829	157.871	290.269	292.982	157.240	161.422	162.308	166.558	297.556	165.713	-8191	255	
12565.039	1	1	0	131072	0.12656	0.021958	0.15885	0.1429	0.17105	0.20527	0.24991	0.32795	0.12986	0.16311	0.24618	0.19576	0.22273	0.23999	0.058211	0.19266	-1.6708	-2.7271	-2.65	-2.4979	-2.8187	-2.5938	-2.8708	-3.0812	-2.3042	-2.6125	-2.6937	-2.2729	-2.975	-2.7167	-2.3417	-2.9646	196.225	308.431	324.217	146.485	442.284	173.771	408.944	455.076	323.308	474.531	448.739	487.180	340.439	152.181	274.263	420.047	0.0004888	0.00051239	0.00018136	1378.3	3.3778e-06	5.0001e-06	1389.4	378.68	5.9985e-06	6.0918e-06	432.19	144.15	125.42	43.133	5.4004e-06	53.483	0.00053563	0.00052745	0.00014631	1379.9	5.8281e-06	5.8445e-06	1381.6	376.35	5.8345e-06	5.9959e-06	429.68	144.06	125.44	43.231	5.763e-06	53.563	229.283	242.550	222.533	153.006	289.563	263.154	152.624	157.804	287.830	283.683	157.159	161.407	161.824	166.395	291.202	165.889	-8191	255	
12565.135	1	1	0	131072	0.12831	0.22736	0.095906	0.1715	0.21736	0.21244	0.20725	0.45492	0.18744	0.077325	0.15673	0.10702	0.29364	0.16033	0.20621	0.26773	-2.0104	-2.55	-2.8688	-2.5417	-3.0021	-2.7625	-2.7042	-3.4083	-2.2646	-2.6708	-3.0438	-2.3063	-2.9437	-2.7646	-2.4417	-3.1729	477.704	419.543	401.696	176.781	154.577	151.513	472.316	450.232	381.244	365.456	455.740	470.598	180.036	478.919	451.986	144.607	0.00053919	0.00057295	0.00013765	1380.1	4.8953e-06	5.0285e-06	1381.2	377.75	4.0728e-06	4.9816e-06	428.32	144.24	124.91	42.755	6.5208e-06	53.101	0.00054287	0.00053273	0.00014782	1378.7	5.8528e-06	5.8507e-06	1380.3	376.15	5.8457e-06	5.8605e-06	428.69	143.82	125.08	43.121	5.7092e-06	53.45	229.000	243.278	241.912	153.055	270.717	258.568	152.954	157.905	284.012	250.223	157.451	161.573	162.239	166.909	292.272	166.098	-8191	255	
12565.231	1	1	0	131072	0.087364	0.28698	0.20232	0.5058	0.23559	0.049643	0.14453	0.29473	0.13661	0.094408	0.1185	0.36593	0.1381	0.067421	0.12879	0.11047	-1.8667	-2.3646	-2.7604	-2.5083	-2.6771	-2.6542	-2.5917	-3.1292	-2.2771	-2.5396	-3.2146	-2.4333	-2.7333	-2.7375	-2.1813	-2.9333	248.085	377.162	224.715	442.013	295.219	247.334	493.806	432.650	453.220	283.604	227.051	461.450	421.177	364.592	427.079	319.515	0.00051834	0.0006627	0.00010277	1380.1	2.8715e-06	7.1024e-06	1378.9	378.07	4.9727e-06	4.92e-06	431.7	143.39	124.93	42.722	3.5137e-06	53.134	0.0005402	0.00053297	0.00014441	1378.2	5.8256e-06	5.724e-06	1378.2	375.78	5.826e-06	5.745e-06	428.66	143.48	125.06	43.101	5.6454e-06	53.39	228.804	213.464	256.794	152.967	278.019	275.485	153.063	157.960	293.058	299.515	157.232	161.540	162.182	166.903	283.078	165.964	-8191	255	
12565.327	1	1	0	131072	0.087501	0.15261	0.096718	0.29105	0.25981	0.21991	0.18931	0.32302	0.0066255	0.16942	0.067743	0.31418	0.17373	0.11985	0.21087	0.31012	-2.1292	-2.2292	-2.8187	-2.6042	-2.7646	-2.8417	-2.6021	-2.9813	-2.4917	-2.5292	-3.0938	-2.4208	-2.8646	-2.8438	-2.1646	-3.0563	365.236	463.858	433.137	425.551	315.708	296.545	471.912	484.685	413.297	254.356	397.287	147.041	169.836	271.736	241.018	471.767	0.00053761	0.00031922	0.00015499	1380.1	3.4008e-06	4.6826e-06	1386.5	374.57	5.9069e-06	6.2816e-06	429.11	143.28	124.69	42.767	4.1704e-06	53.191	0.00054004	0.00053742	0.00014414	1378.6	5.8048e-06	5.613e-06	1379	374.8	5.6573e-06	5.7824e-06	428.84	143.72	125.03	43.183	5.7798e-06	53.421	227.686	217.530	233.208	153.122	301.353	275.784	152.945	158.095	300.514	300.172	157.206	161.611	162.198	166.893	300.470	165.916	-8191	255	
12565.423	1	1	0	131072	0.25969	0.2571	0.32112	0.21911	0.085096	0.052846	0.37594	0.25115	0.12155	0.18319	0.080877	0.38298	0.19065	0.4069	0.20702	0.33508	-2.1896	-2.2167	-2.8417	-2.5875	-2.3917	-2.75	-2.3333	-2.9958	-2.4917	-2.3312	-3.0333	-2.5375	-2.8312	-2.8521	-2.0458	-2.7479	281.861	250.413	404.901	432.515	420.001	346.437	437.241	438.716	201.715	299.854	319.908	470.961	414.857	462.633	357.416	148.622	0.0005299	0.0004273	0.00015566	1377.3	5.9231e-06	4.7412e-06	1383.3	375.5	3.9212e-06	4.0879e-06	432.51	144.27	124.9	43.196	6.056e-06	53.17	0.00053677	0.00054137	0.00014313	1378.8	5.8323e-06	5.6337e-06	1378.3	375.1	5.7387e-06	5.7992e-06	429.42	143.86	124.99	43.238	5.8915e-06	53.374	229.182	231.264	251.085	153.268	274.455	295.835	153.002	157.651	294.429	293.301	157.311	161.483	162.131	166.754	290.375	165.591	-8191	255	
12565.542	1	1	0	131072	0.31953	0.05174	0.13504	0.35795	0.16926	0.096932	0.11082	0.24363	0.14113	0.12241	0.037554	0.03137	0.17373	0.11586	0.029973	0.18769	-2.1896	-2.2521	-3.0042	-2.3812	-2.6042	-2.95	-2.5271	-2.825	-2.6	-2.2979	-3.1125	-2.5	-2.5979	-2.7708	-2.2313	-2.8292	318.035	489.732	172.360	496.927	426.168	222.596	455.603	434.932	232.360	183.402	141.162	320.463	217.012	307.354	442.499	143.569	0.00051159	0.00058874	0.00013628	1382.6	4.0373e-06	7.5477e-06	1386.6	377.9	4.5132e-06	4.9392e-06	432.36	143.77	125.37	42.909	5.1677e-06	53.151	0.00053311	0.00053211	0.00014722	1377.4	5.8842e-06	5.7057e-06	1380.4	375.91	5.7435e-06	5.7564e-06	429.32	143.52	125.06	43.196	5.8387e-06	53.336	229.942	243.648	225.685	152.929	283.801	289.797	152.760	157.640	280.906	271.334	156.910	161.631	162.160	166.720	301.447	165.828	-8191	255	
12565.638	1	1	0	131072	0.17399	0.16089	0.070136	0.23951	0.098555	0.19511	0.14631	0.21846	0.23568	0.26526	0.14606	0.13774	0.18052	0.025703	0.15861	0.053347	-2.4917	-2.1063	-2.9271	-2.7104	-2.2896	-3.0062	-2.55	-2.7896	-2.7938	-2.2417	-3.0021	-2.6354	-2.2313	-3.1562	-2.15	-2.7229	253.862	250.140	260.908	458.223	463.096	314.619	498.399	475.976	184.640	255.984	442.541	282.755	367.411	421.114	346.864	320.282	0.00050137	0.00061183	9.8676e-05	1381.3	3.5904e-06	7.1624e-06	1383.8	378.53	5.5729e-06	5.771e-06	431.81	143.96	124.92	43.075	3.7045e-06	53.069	0.00052588	0.00052582	0.00014184	1379.4	5.8036e-06	5.685e-06	1378.6	375.42	5.8563e-06	5.7372e-06	428.95	143.62	124.97	43.137	5.6882e-06	53.412	227.131	225.364	217.055	152.957	280.155	289.129	152.787	157.542	295.733	268.663	156.993	161.507	161.733	166.912	306.083	165.998	-8191	255	
12565.734	1	1	0	131072	0.29903	0.14927	0.2783	0.25325	0.21344	0.14531	0.25909	0.17747	0.17425	0.25974	0.16306	0.21601	0.19065	0.049964	0.16069	0.052451	-2.4229	-2.2646	-2.8688	-2.8042	-2.2188	-2.9229	-2.6021	-2.7875	-2.7792	-2.0604	-3.0021	-2.6625	-2.3021	-2.9917	-2.2229	-2.4896	361.694	258.268	442.558	396.062	238.246	152.863	414.174	446.685	260.571	403.540	148.597	160.087	212.994	144.946	287.037	340.096	0.00053008	0.00055649	0.00014989	1381.9	5.1378e-06	7.0219e-06	1383.5	377.58	5.6268e-06	4.7185e-06	431.31	144.73	124.41	42.916	5.4931e-06	53.334	0.00052651	0.00051499	0.00014847	1379.3	5.7906e-06	5.7354e-06	1379.3	375.21	5.6397e-06	5.7676e-06	428.67	143.99	124.61	43.09	5.838e-06	53.48	229.038	235.578	255.701	152.805	296.147	269.271	152.935	157.810	289.958	292.847	157.127	161.654	162.124	166.807	285.394	165.561	-8191	255	
12565.830	1	1	0	131072	0.23603	0.06024	0.18366	0.038592	0.23718	0.17108	0.29268	0.049225	0.22837	0.054186	0.090771	0.093223	0.10372	0.12508	0.091587	0.30305	-2.4542	-2.2375	-2.7542	-2.8229	-2.2125	-3.025	-2.7	-2.7146	-2.7854	-2.2938	-2.9583	-2.9083	-2.3646	-2.9396	-2.3479	-2.3271	476.133	153.460	284.454	149.552	274.714	225.520	417.839	467.234	375.571	389.232	427.003	417.794	234.908	446.649	187.912	428.080	0.00051703	0.00055212	0.00022364	1382	3.2915e-06	6.2192e-06	1385.8	377.21	4.6046e-06	6.2907e-06	431.66	143.8	124.99	42.93	6.9553e-06	53.219	0.00054434	0.00051345	0.00014646	1378.1	5.7929e-06	5.6317e-06	1379.5	374.83	5.681e-06	5.6917e-06	428.57	143.85	124.85	43.12	5.8321e-06	53.384	228.677	225.020	243.953	153.310	275.372	275.039	152.927	157.720	300.358	295.589	156.930	161.599	162.259	167.083	296.449	165.709	-8191	255	
12565.927	1	1	0	131072	0.13732	0.12357	0.14018	0.30026	0.15983	0.0080189	0.10877	0.2582	0.11948	0.12492	0.22573	0.22029	0.31651	0.29992	0.1905	0.054679	-2.4292	-2.1646	-2.4938	-3.0563	-2.2521	-2.7375	-2.6396	-2.5812	-2.9146	-2.3937	-2.6562	-2.9833	-2.4271	-2.9562	-2.6042	-2.5646	218.613	454.607	246.535	475.027	326.935	310.705	455.282	449.171	298.392	292.369	194.265	496.250	495.695	440.056	421.176	393.813	0.00052017	0.00067745	0.00016705	1381.6	4.0908e-06	6.0908e-06	1384.1	378.63	5.447e-06	4.1283e-06	430.14	143.49	125.35	43.043	4.7264e-06	53.387	0.00053185	0.00053675	0.00014685	1379.2	5.7111e-06	5.7913e-06	1381	375.43	5.6868e-06	5.6685e-06	428.26	143.7	124.86	43.103	5.6955e-06	53.432	228.090	231.955	224.569	153.254	291.277	282.723	153.085	157.675	291.702	280.567	156.994	161.549	161.979	166.496	263.044	165.650	-8191	255	
12566.023	1	1	0	131072	0.17531	0.15149	0.10859	0.34037	0.22762	0.23247	0.12418	0.42584	0.058606	0.071859	0.25589	0.22461	0.14417	0.1625	0.15263	0.16406	-2.4521	-2.4313	-2.475	-3.1479	-2.3333	-2.7958	-2.8021	-2.4854	-3.1125	-2.4896	-2.5958	-3.0146	-2.4146	-2.9313	-2.8229	-2.3063	450.039	455.987	283.329	498.090	342.600	203.943	438.597	455.148	423.435	346.678	426.781	418.442	148.439	424.349	300.176	411.856	0.00052351	0.00050532	0.00015805	1379.5	4.9493e-06	4.8416e-06	1383.7	376.15	4.4417e-06	5.1664e-06	430.48	143.7	124.63	42.915	2.7482e-06	53.249	0.00054146	0.00053565	0.00014825	1377.4	5.8293e-06	6.0178e-06	1379.6	374.89	5.8122e-06	5.78e-06	428.25	143.73	124.76	43.122	5.7056e-06	53.386	226.402	213.126	243.911	153.215	267.202	255.493	152.983	157.764	279.409	294.191	157.243	161.849	162.246	166.643	291.400	166.009	-8191	255	
12566.119	1	1	0	131072	0.19432	0.32134	0.060025	0.49725	0.14267	0.14768	0.063389	0.3161	0.11557	0.14981	0.12104	0.14746	0.055234	0.19739	0.22866	0.071367	-2.3375	-2.4208	-2.3896	-3.2021	-2.45	-2.6896	-3.1146	-2.5542	-2.9292	-2.5167	-2.475	-3.025	-2.4583	-2.7375	-2.6646	-2.3812	303.347	235.799	448.441	480.202	214.479	487.352	146.054	480.983	442.311	206.076	151.562	152.467	318.254	147.162	469.454	390.962	0.00051942	0.00050212	0.00016415	1380.9	4.4995e-06	4.7536e-06	1384.7	378.09	5.7925e-06	4.3536e-06	430.2	144.03	124.78	42.913	3.1966e-06	53.132	0.00054206	0.00051656	0.00015113	1378.1	5.8365e-06	5.8483e-06	1377	375.03	5.8864e-06	5.8179e-06	428.13	143.82	124.85	43.051	5.7502e-06	53.332	229.684	219.557	239.933	153.345	283.958	291.145	152.944	157.765	314.617	273.801	157.365	161.852	161.983	166.466	307.972	165.878	-8191	255	
12566.238	1	1	0	131072	0.08583	0.27059	0.30882	0.067719	0.04224	0.30689	0.44625	0.37538	0.17025	0.18464	0.2607	0.09017	0.18464	0.19289	0.14978	0.18892	-2.2313	-2.6375	-1.9875	-2.9833	-2.4417	-2.4938	-3.0333	-2.525	-2.7729	-2.7812	-2.2854	-2.7854	-2.6083	-2.5687	-2.9083	-2.2958	241.529	456.083	482.638	426.990	286.885	162.448	443.062	452.755	229.421	373.006	176.818	292.830	450.439	434.531	208.607	372.739	0.00047951	0.00066785	0.00017476	1380.4	3.6338e-06	6.8581e-06	1382.2	375.95	5.4558e-06	6.6994e-06	428.22	143.07	124.58	42.747	4.4713e-06	52.947	0.00052989	0.00052185	0.0001487	1377.8	5.767e-06	5.7423e-06	1378.4	374.91	5.7474e-06	5.7895e-06	428.28	143.59	124.62	43.059	5.6743e-06	53.331	231.590	207.119	232.898	152.979	294.200	276.901	152.929	157.837	288.847	290.302	157.090	161.748	162.197	166.769	315.305	165.854	-8191	255	
12566.334	1	1	0	131072	0.20406	0.11244	0.13303	0.38863	0.13644	0.16699	0.41254	0.17471	0.027271	0.188	0.25431	0.10985	0.17585	0.096806	0.15207	0.059298	-2.4333	-2.7208	-2.1375	-3.2708	-2.1437	-2.4208	-2.9771	-2.2562	-2.6312	-2.6375	-2.2958	-3.025	-2.4562	-2.3417	-2.7958	-2.2646	250.748	173.723	207.224	478.202	275.534	435.445	438.619	403.802	454.070	492.220	150.466	396.235	422.025	168.535	424.108	156.152	0.00053688	0.00060543	0.00015327	1377.8	5.2699e-06	5.2916e-06	1383.4	375.74	5.1294e-06	6.7174e-06	429.04	143.1	124.95	42.824	3.6894e-06	53.058	0.00054299	0.00054226	0.0001464	1378.7	5.8896e-06	5.7201e-06	1377.8	374.8	5.8397e-06	5.7923e-06	427.53	143.57	124.98	43.031	5.7238e-06	53.331	228.961	240.996	235.183	153.235	281.049	282.995	153.073	157.852	284.878	281.653	157.342	161.706	162.419	166.310	297.452	165.861	-8191	255	
12566.430	1	1	0	131072	0.25869	0.24893	0.057154	0.22583	0.14668	0.1213	0.14719	0.20147	0.12171	0.19683	0.32965	0.20313	0.15514	0.4169	0.089237	0.22271	-2.1396	-2.6688	-2.0229	-3.0021	-2.6104	-2.3417	-3.0625	-2.45	-2.6	-2.9292	-2.4104	-3.0062	-2.7854	-2.5479	-2.9375	-2.2896	431.848	220.743	245.769	420.843	256.566	416.414	426.654	403.316	499.508	332.394	152.770	348.882	427.459	484.700	472.573	318.266	0.00053227	0.00035904	0.00012322	1379.6	4.8624e-06	5.7991e-06	1382.6	376.3	3.0059e-06	5.1745e-06	430.02	144.11	124.99	42.992	5.3514e-06	53.062	0.0005392	0.00053612	0.00014301	1378.6	5.8266e-06	5.8313e-06	1379.2	375.04	5.8462e-06	5.8415e-06	428.49	143.88	124.82	43.148	5.7502e-06	53.337	227.417	209.241	249.376	153.145	290.024	277.563	153.170	157.989	281.758	285.719	156.990	161.471	162.141	166.698	298.530	165.735	-8191	255	
12566.528	1	1	0	131072	0.20725	0.21667	0.27752	0.2369	0.089222	0.17152	0.37156	0.029543	0.1461	0.28133	0.094358	0.22891	0.27608	0.26583	0.057341	0.15769	-1.9833	-2.7708	-2	-2.9375	-2.6188	-2.2354	-3.3021	-2.6937	-2.2938	-2.7417	-2.3438	-2.875	-2.8229	-2.3521	-2.975	-2.4437	425.610	312.357	160.540	434.508	261.523	243.389	441.916	473.477	285.174	174.784	312.116	143.381	421.884	467.272	189.163	330.942	0.00050291	0.00062375	0.00012769	1382.5	4.3733e-06	4.3554e-06	1387.9	377.43	4.1762e-06	5.6752e-06	432.93	144.37	125.47	42.96	5.2925e-06	53.075	0.00053934	0.00052865	0.0001495	1378.5	5.7428e-06	5.7484e-06	1379.3	375.36	5.7557e-06	5.6048e-06	428.95	143.81	124.84	43.104	5.8312e-06	53.36	229.759	235.257	234.167	152.914	302.236	296.118	152.873	157.838	291.641	320.765	157.223	161.333	162.151	166.616	313.954	165.566	-8191	255	
12566.622	1	1	0	131072	0.19017	0.12833	0.19714	0.3122	0.11243	0.062411	0.36569	0.13352	0.2619	0.21271	0.080668	0.070303	0.03884	0.35161	0.28286	0.25985	-1.9417	-2.9229	-2.2021	-2.9979	-2.7375	-2.0687	-3.3	-2.625	-2.3937	-2.8583	-2.4125	-2.7979	-2.8958	-2.3833	-2.7958	-2.6479	364.923	190.535	187.333	434.050	191.879	350.170	448.880	388.098	438.195	169.452	454.717	221.485	175.106	147.665	166.059	480.398	0.00049973	0.00044962	0.00013837	1382.8	2.0137e-06	6.0901e-06	1384.8	378	3.625e-06	5.6208e-06	430.97	144.16	125.03	42.931	3.7535e-06	53.132	0.00053079	0.0005165	0.00014642	1377	5.777e-06	5.8501e-06	1379.3	375.15	5.9229e-06	5.7353e-06	428.45	143.66	124.77	43.085	5.8288e-06	53.291	230.815	211.836	241.397	152.721	312.321	295.611	152.717	157.741	265.542	294.353	157.059	161.377	162.037	166.504	252.019	165.826	-8191	255	
12566.719	1	1	0	131072	0.25906	0.37752	0.18369	0.25677	0.12644	0.062576	0.13172	0.16197	0.075594	0.20642	0.09685	0.15744	0.38672	0.16539	0.15485	0.18524	-1.9292	-3.0438	-2.3333	-2.6688	-2.7479	-2.3583	-3.0729	-2.7208	-2.2167	-2.9104	-2.5083	-2.5729	-2.9021	-2.3146	-2.6396	-2.85	143.265	389.020	470.932	482.558	403.271	482.213	447.329	439.736	412.212	472.181	409.740	169.333	158.937	477.400	314.074	432.385	0.00051671	0.00059925	0.00014299	1381.1	3.8372e-06	6.3752e-06	1383.3	376.65	4.5746e-06	3.6036e-06	428.08	143.25	124.48	42.562	6.0363e-06	52.82	0.00053546	0.0005375	0.00015162	1377.5	5.6119e-06	5.735e-06	1378	374.75	5.7934e-06	5.5805e-06	426.83	143.27	124.31	42.858	5.8602e-06	53.251	230.113	232.828	244.019	152.958	254.724	264.117	153.030	157.816	272.159	303.241	157.524	161.657	162.251	166.924	284.835	166.087	-8191	255	
12566.815	1	1	0	131072	0.045527	0.13488	0.026166	0.32946	0.056351	0.10976	0.35601	0.11857	0.21624	0.18457	0.19021	0.023359	0.18079	0.13177	0.19982	0.19421	-1.9125	-2.8917	-2.5146	-2.7917	-2.8729	-2.3604	-2.9813	-2.9729	-2.3125	-2.7896	-2.4437	-2.3833	-3.0479	-2.4625	-2.5521	-3.1708	252.971	332.588	355.377	461.829	165.105	290.075	440.775	483.459	439.950	142.295	262.764	452.429	359.958	456.061	484.628	336.870	0.00049958	0.00037646	0.00012343	1380	4.5592e-06	4.8859e-06	1383.4	375.39	4.4963e-06	3.8679e-06	427.52	142.79	123.98	42.622	4.6064e-06	52.739	0.00053338	0.00051747	0.00014912	1377.6	5.7276e-06	5.6218e-06	1378.3	374.66	5.7927e-06	5.6889e-06	426.73	142.98	124.34	42.862	5.7804e-06	53.148	226.851	247.068	236.863	153.032	288.888	300.515	152.927	157.976	295.867	287.286	157.377	161.668	162.386	166.929	284.346	166.006	-8191	255	
12566.911	1	1	0	131072	0.079322	0.13721	0.16787	0.22786	0.080983	0.10157	0.20394	0.26313	0.11205	0.25197	0.13229	0.054671	0.082355	0.17421	0.22253	0.19032	-1.8583	-2.6354	-2.3458	-2.5458	-2.6813	-2.2958	-2.7938	-2.8917	-2.225	-2.8479	-2.9313	-2.3063	-3.1813	-2.425	-2.5104	-2.9979	305.669	354.042	465.178	483.831	362.059	147.725	467.222	424.775	216.859	428.274	392.954	162.522	168.772	418.820	426.821	486.906	0.00051833	0.0005946	9.0239e-05	1381.4	6.173e-06	3.7944e-06	1384.6	376.75	5.167e-06	5.854e-06	430.64	143.19	124.64	42.741	6.6358e-06	53.096	0.00053083	0.00052027	0.00014405	1376.8	5.661e-06	5.6781e-06	1375.1	374.18	5.7488e-06	5.5983e-06	427.72	143.1	124.47	42.901	5.6055e-06	53.248	228.385	212.338	227.476	152.923	291.669	286.316	152.851	157.468	288.126	301.543	156.947	161.491	162.055	166.697	267.672	165.667	-8191	255	
12567.031	1	1	0	131072	0.032759	0.076527	0.1414	0.33853	0.31166	0.060599	0.40237	0.28972	0.40517	0.097733	0.23688	0.27733	0.11592	0.069471	0.21818	0.18687	-1.9083	-2.6271	-2.5208	-2.5187	-2.7771	-2.2208	-2.7188	-2.9271	-2.1104	-2.6188	-2.6937	-2.3292	-3.0146	-2.5875	-2.4188	-2.7812	454.049	160.632	374.734	441.166	142.497	329.136	438.964	436.815	323.258	253.078	498.240	417.486	216.094	472.214	436.895	462.279	0.00050775	0.00062433	0.00010157	1382.8	5.761e-06	4.4145e-06	1384.6	377.54	4.5001e-06	5.7307e-06	429.33	143.2	124.19	42.539	3.441e-06	52.751	0.00052903	0.0005129	0.00014233	1376.8	5.7575e-06	5.6994e-06	1375.8	374.71	5.8384e-06	5.7446e-06	427.06	143.04	124.36	42.833	5.7771e-06	53.111	227.636	229.642	229.755	152.729	279.528	313.385	152.793	157.523	291.058	273.633	156.986	161.444	162.079	166.794	279.481	166.060	-8191	255	
12567.103	1	1	0	131072	0.1838	0.19148	0.26693	0.15216	0.19338	0.13568	0.1597	0.10558	0.091132	0.22651	0.19415	0.2172	0.24212	0.12337	0.21991	0.32214	-1.9042	-2.6354	-2.8063	-2.5792	-2.8917	-2.45	-2.6458	-3.075	-2.1333	-2.7042	-3.0875	-2.1771	-2.9396	-2.4021	-2.3854	-3.0458	433.610	296.956	488.784	163.898	353.169	496.956	405.823	451.905	306.888	338.167	433.114	493.477	178.619	143.255	477.417	485.921	0.00051528	0.00042602	0.00015228	1380.8	4.5863e-06	5.4195e-06	1380.8	374.79	4.1525e-06	4.194e-06	426.53	142.92	124.19	42.613	5.5111e-06	52.632	0.00053729	0.00052765	0.00014261	1375.7	5.7355e-06	5.6096e-06	1375.2	373.67	5.7327e-06	5.6228e-06	426.83	142.94	124.29	42.849	5.7919e-06	53.008	230.767	223.127	249.342	153.001	283.461	281.290	153.071	158.019	298.499	294.251	157.425	161.370	162.074	166.991	284.798	165.989	-8191	255	
12567.224	1	1	0	131072	0.032207	0.14724	0.099009	0.35465	0.085765	0.070563	0.38648	0.39062	0.32541	0.1713	0.19336	0.20577	0.19163	0.14557	0.23735	0.15354	-1.8625	-2.5083	-2.8479	-2.4437	-2.8208	-2.5646	-2.4417	-2.9854	-2.2208	-2.5792	-3.0312	-2.2833	-2.9146	-2.7438	-2.1625	-3.1229	163.346	223.426	246.256	434.853	309.093	259.081	443.623	447.564	206.416	256.007	187.757	406.272	454.011	166.476	498.431	450.609	0.00051311	0.0006312	0.00016157	1380.9	3.8779e-06	6.4614e-06	1382.2	375.21	4.6027e-06	5.7791e-06	428.26	142.38	124.06	42.65	3.9772e-06	52.618	0.0005234	0.00051649	0.00014126	1375.6	5.5982e-06	5.6192e-06	1374.8	373.82	5.6468e-06	5.653e-06	427.31	142.77	124.21	42.847	5.5784e-06	53.015	226.340	222.124	242.236	153.233	284.588	295.584	153.070	157.580	289.282	277.171	157.395	161.499	162.086	166.698	287.096	166.178	-8191	255	
12567.320	1	1	0	131072	0.16683	0.091305	0.16026	0.23196	0.24305	0.16927	0.31274	0.36721	0.27273	0.10301	0.22067	0.21242	0.39764	0.21898	0.078004	0.091485	-1.8271	-2.4375	-2.9292	-2.5604	-2.6979	-2.6833	-2.4938	-3.0312	-2.2896	-2.2458	-3.2104	-2.3292	-2.7417	-2.8771	-2.3396	-3.1042	490.197	477.328	446.300	495.240	162.364	392.815	178.423	435.456	404.393	184.230	454.867	144.220	472.572	494.942	323.445	472.762	0.00051744	0.00063163	0.00010852	1382.5	3.0491e-06	4.5259e-06	1375.3	373.28	5.6397e-06	5.4616e-06	426.15	142.28	123.48	42.339	4.8529e-06	52.495	0.0005218	0.00050418	0.00014075	1374.8	5.6712e-06	5.6361e-06	1372.2	373.21	5.6755e-06	5.6502e-06	426.66	142.89	124.01	42.733	5.6975e-06	52.997	223.960	218.111	252.368	153.393	251.458	271.710	153.175	158.068	287.233	297.402	157.406	161.989	162.537	167.105	286.235	166.044	-8191	255	
12567.414	1	1	0	131072	0.16287	0.32718	0.14544	0.21093	0.10305	0.20875	0.19322	0.31646	0.10361	0.1217	0.12539	0.14744	0.095211	0.29154	0.15536	0.22236	-1.9604	-2.4854	-2.9146	-2.4479	-2.5021	-2.6104	-2.4354	-2.9688	-2.4792	-2.2042	-3.05	-2.4	-2.8479	-3.075	-2.0417	-3.0792	199.302	309.480	275.323	448.939	278.935	178.684	424.456	465.140	282.236	482.013	420.135	486.139	310.203	148.592	296.790	468.412	0.0005039	0.0004147	0.00013346	1380.8	5.5309e-06	5.0873e-06	1378.1	374.83	4.7424e-06	4.9009e-06	425.28	142.85	123.8	42.451	5.6927e-06	52.608	0.00053003	0.00053052	0.00014569	1375.6	5.7498e-06	5.6279e-06	1374.9	373.78	5.7295e-06	5.8018e-06	426.23	143.04	124.05	42.86	5.6078e-06	53.107	229.781	209.674	255.980	153.338	292.429	284.539	153.104	157.975	287.724	283.064	157.654	161.777	162.168	167.010	286.678	166.131	-8191	255	
12567.512	1	1	0	131072	0.13864	0.040003	0.16142	0.29028	0.04736	0.09753	0.23895	0.36392	0.11499	0.027188	0.081635	0.11015	0.30622	0.088513	0.3118	0.25218	-2.2042	-2.3208	-2.7771	-2.6521	-2.3812	-2.9917	-2.7229	-2.9938	-2.4313	-2.2896	-2.8958	-2.6437	-2.4417	-3.1604	-2.1667	-2.6521	199.906	146.968	405.719	455.127	273.879	159.500	396.337	400.170	161.103	154.477	258.062	480.281	140.727	246.325	442.034	468.352	0.00053757	0.00047833	0.00015388	1381.3	4.9992e-06	7.2116e-06	1382.4	373.81	5.862e-06	6.7565e-06	428.89	142.12	123.85	42.69	4.9035e-06	53.153	0.00053593	0.00050229	0.00014757	1374.8	5.8587e-06	5.6781e-06	1374.9	373.42	5.8437e-06	5.7469e-06	427.02	142.75	124.2	42.865	5.7403e-06	53.175	228.658	242.356	232.781	153.450	289.704	291.597	153.014	157.985	277.872	307.865	157.345	161.856	162.359	166.919	272.033	165.618	-8191	255	
12567.631	1	1	0	131072	0.28355	0.25269	0.24207	0.46594	0.032997	0.14549	0.09008	0.094753	0.14929	0.17995	0.20233	0.20969	0.43076	0.13712	0.11427	0.2043	-2.2333	-2.0792	-2.7062	-2.5833	-2.4313	-2.8208	-2.3583	-2.675	-2.675	-2.2104	-3.0229	-2.6125	-2.4729	-3.1458	-2.0896	-2.6229	472.824	217.707	331.206	457.009	461.207	292.735	452.115	458.458	303.362	186.258	427.761	463.424	490.342	192.657	407.079	495.240	0.00050349	0.00050729	0.00013889	1393.6	4.1365e-06	5.4934e-06	1395	381.55	6.0241e-06	4.5175e-06	435.04	145.2	126.6	43.666	5.0097e-06	53.644	0.00052968	0.00051168	0.00014078	1376.7	5.7656e-06	5.5542e-06	1377.7	375.25	5.5583e-06	5.6852e-06	428.36	143.48	124.82	43.086	5.6046e-06	53.305	228.213	216.441	223.793	152.178	284.462	296.788	152.194	157.176	282.420	297.161	156.551	161.089	161.539	165.905	288.673	164.948	-8191	255	
12567.727	1	1	0	131072	0.16287	0.33892	0.088941	0.23908	0.1154	0.15555	0.21294	0.34321	0.27491	0.23525	0.029976	0.27491	0.38933	0.051141	0.2047	0.16181	-2.4062	-2.1875	-2.8812	-2.7917	-2.3063	-2.8208	-2.5083	-2.5938	-2.9062	-2.2667	-2.9104	-2.8083	-2.3	-3	-2.2604	-2.5292	353.825	446.850	362.956	148.086	317.318	441.374	387.274	155.964	369.094	365.916	464.738	456.589	159.059	139.713	435.551	198.734	0.00048917	0.00035624	0.0001093	1392.3	4.9428e-06	3.9458e-06	1397.2	381.35	2.9279e-06	4.4471e-06	434.05	145.12	125.71	43.165	4.8877e-06	53.506	0.00052103	0.00050913	0.00014178	1376.9	5.6355e-06	5.5098e-06	1377.7	375.23	5.6422e-06	5.5837e-06	428.63	143.79	124.55	43.032	5.4297e-06	53.333	227.652	228.659	238.571	152.355	270.773	314.200	152.320	157.023	309.510	279.462	156.606	161.143	161.796	166.594	270.451	165.554	-8191	255	
12567.823	1	1	0	131072	0.09157	0.12301	0.22811	0.17367	0.29183	0.078405	0.15586	0.33077	0.093588	0.13738	0.25742	0.14367	0.17671	0.12088	0.013997	0.1946	-2.5396	-2.1396	-2.8479	-2.9208	-2.3396	-3.0771	-2.6104	-2.7771	-2.8312	-2.2875	-2.9292	-2.9833	-2.4729	-3.1396	-2.2896	-2.5833	157.030	156.674	304.982	468.422	497.579	212.578	172.353	451.291	334.622	393.438	166.369	409.889	171.595	281.250	305.006	221.986	0.00050605	0.00061453	0.00010255	1387.6	5.7163e-06	7.0275e-06	1392.2	378.22	3.9212e-06	5.1738e-06	432.49	144.95	125.34	42.993	4.1997e-06	53.287	0.00052362	0.00051893	0.00013828	1377.2	5.4823e-06	5.4802e-06	1377.1	374.65	5.4832e-06	5.4538e-06	427.77	143.62	124.35	43.004	5.4741e-06	53.234	227.929	227.713	216.774	152.719	292.218	282.245	152.790	157.400	290.618	274.448	156.643	161.454	161.689	166.433	277.576	165.272	-8191	255	
12567.920	1	1	0	131072	0.079439	0.08941	0.27764	0.27466	0.069997	0.12019	0.12528	0.11003	0.10385	0.28239	0.22874	0.17038	0.20066	0.025523	0.15833	0.23759	-2.3958	-2.2479	-2.6833	-3.0938	-2.1146	-2.8417	-2.6417	-2.5625	-2.8979	-2.2229	-2.7542	-2.9188	-2.3063	-3.0667	-2.4667	-2.3854	477.459	148.009	415.943	447.020	423.460	192.882	354.441	489.512	294.099	366.217	472.737	163.391	483.005	487.706	159.436	487.264	0.00053209	0.00050991	0.00014175	1387.5	4.6179e-06	4.9495e-06	1389.6	379.61	4.772e-06	5.1118e-06	432.61	144.47	125.33	42.989	4.8118e-06	53.226	0.00051466	0.00050497	0.00014228	1375.6	5.6082e-06	5.396e-06	1377.3	375.01	5.5126e-06	5.6889e-06	427.88	143.54	124.64	43.018	5.6516e-06	53.216	227.534	237.563	252.403	152.810	294.512	274.568	152.631	157.210	274.431	281.410	156.588	161.518	161.887	166.597	309.458	165.702	-8191	255	
12568.016	1	1	0	131072	0.038479	0.14177	0.044518	0.23631	0.38055	0.050056	0.12887	0.3675	0.12744	0.27937	0.14018	0.20243	0.27783	0.33458	0.20134	0.16958	-2.5812	-2.2313	-2.4708	-3.2042	-1.9208	-2.8146	-2.8104	-2.4146	-2.9562	-2.5396	-2.6188	-2.8667	-2.3083	-2.8021	-2.8063	-2.4208	243.306	451.703	240.361	492.676	387.969	477.011	396.143	462.161	433.167	190.577	334.072	430.761	394.627	445.837	428.635	433.115	0.000477	0.00063541	0.00013298	1385.5	5.7881e-06	5.6671e-06	1389.2	376.76	6.5908e-06	4.2753e-06	430.58	144.4	124.57	42.831	5.0967e-06	53.326	0.0005163	0.00050838	0.0001426	1376.4	5.5342e-06	5.6149e-06	1375.9	374.19	5.5735e-06	5.4717e-06	427.76	143.6	124.4	42.911	5.6178e-06	53.206	230.655	234.490	247.176	152.941	279.000	280.816	152.900	157.379	307.028	322.777	156.902	161.373	161.877	166.650	299.696	165.600	-8191	255	
12568.112	1	1	0	131072	0.13151	0.2341	0.11611	0.066917	0.10184	0.23476	0.094821	0.33803	0.19828	0.1579	0.13249	0.1983	0.39501	0.11776	0.24933	0.28114	-2.4188	-2.325	-2.5	-2.9396	-2.3542	-2.5646	-3.0125	-2.4938	-2.6979	-2.3854	-2.4646	-2.9479	-2.4583	-2.6312	-2.8333	-2.3312	380.469	314.218	467.627	162.778	301.162	340.198	480.726	478.975	207.646	142.891	405.634	431.912	452.572	348.678	366.433	439.208	0.00051351	0.00043792	0.00017336	1386.1	5.0659e-06	5.4933e-06	1386	376.66	2.4955e-06	6.838e-06	430.47	143.34	124.43	42.77	4.2074e-06	53.211	0.00052709	0.00051575	0.00014295	1374.6	5.5419e-06	5.5475e-06	1375.2	374.07	5.7014e-06	5.4799e-06	426.61	143.05	124.29	42.925	5.5437e-06	53.213	231.748	207.411	222.871	152.942	277.176	296.459	152.733	157.414	317.175	274.024	156.766	161.279	162.034	166.527	279.928	165.383	-8191	255	
12568.208	1	1	0	131072	0.1844	0.2764	0.28441	0.31054	0.19992	0.14977	0.23368	0.2638	0.18349	0.11547	0.10972	0.24641	0.16429	0.040305	0.099318	0.2833	-2.4125	-2.55	-2.3333	-3.1042	-2.1937	-2.6042	-3.0042	-2.4646	-2.85	-2.5479	-2.5354	-3.0812	-2.6708	-2.6417	-2.8917	-2.3625	207.362	437.719	450.521	429.051	169.876	323.054	395.103	442.648	430.355	153.586	171.886	156.981	348.584	143.459	400.505	182.169	0.0005225	0.00050404	0.00012119	1385.9	3.4197e-06	5.3266e-06	1386.9	376.84	5.4017e-06	5.5943e-06	429.21	143.78	125.19	42.943	6.2807e-06	53.095	0.00052326	0.00050875	0.00014471	1376	5.792e-06	5.513e-06	1374.3	373.91	5.605e-06	5.5839e-06	425.93	143.29	124.6	42.994	5.6306e-06	53.198	229.541	219.468	241.859	153.041	262.854	282.479	152.686	157.550	286.655	298.259	156.718	161.393	161.907	166.418	291.032	165.555	-8191	255	
12568.327	1	1	0	131072	0.26238	0.084404	0.096682	0.27827	0.06926	0.16212	0.39185	0.41673	0.18746	0.33108	0.15992	0.095376	0.27296	0.20508	0.14337	0.21192	-2.4083	-2.7188	-2.5104	-3.15	-2.3604	-2.4042	-3.0854	-2.4917	-2.6625	-2.7458	-2.3563	-3.1312	-2.625	-2.5854	-2.8833	-2.3792	416.909	197.882	496.854	472.650	267.862	144.348	432.751	441.974	157.928	190.464	142.294	257.906	452.986	469.671	235.582	377.737	0.00051938	0.00076922	0.00013813	1387.4	3.6157e-06	4.3543e-06	1385.2	376.49	4.3647e-06	4.1156e-06	428.65	143.79	124.46	42.866	5.3157e-06	52.95	0.00052555	0.00050942	0.00014357	1375.5	5.699e-06	5.4643e-06	1375.7	373.56	5.6328e-06	5.5052e-06	426.42	143.28	124.3	42.905	5.4572e-06	53.188	230.140	226.833	226.328	152.901	300.113	286.027	153.067	157.683	286.263	287.695	157.154	161.655	162.187	166.242	281.711	165.753	-8191	255	
12568.400	1	1	0	131072	0.055174	0.1005	0.19012	0.045563	0.090435	0.20034	0.21373	0.1111	0.19786	0.15944	0.14956	0.085562	0.19937	0.25954	0.080783	0.20638	-2.2333	-2.65	-2.2958	-3.1771	-2.4562	-2.4313	-3.4021	-2.6417	-2.475	-2.7417	-2.2875	-2.9688	-2.6854	-2.4354	-2.9	-2.4208	156.916	337.298	483.168	286.456	291.724	239.857	166.468	375.431	405.814	227.931	352.031	172.772	478.138	463.899	168.382	173.730	0.00049038	0.00051737	0.00012931	1383.4	5.961e-06	7.0897e-06	1387.2	376.03	4.5852e-06	5.2948e-06	430.8	143.57	124.73	42.928	3.0821e-06	52.927	0.00051742	0.00050733	0.00013957	1376.2	5.7037e-06	5.6363e-06	1375.8	373.93	5.7359e-06	5.6829e-06	426.67	143.21	124.65	42.959	5.5867e-06	53.175	228.802	231.814	223.435	152.842	288.505	290.937	152.900	157.705	303.244	271.134	157.087	161.440	162.141	166.553	292.319	165.527	-8191	255	
12568.495	1	1	0	131072	0.17758	0.087095	0.15585	0.16538	0.10774	0.26549	0.21284	0.39122	0.12666	0.2665	0.1046	0.16491	0.10283	0.39994	0.16839	0.12986	-2.2396	-2.8229	-2.0833	-3.1458	-2.5583	-2.3708	-3.2646	-2.6083	-2.4208	-3.0125	-2.4875	-2.9604	-2.9062	-2.2542	-2.9896	-2.5167	338.056	462.810	336.676	435.388	352.425	448.644	428.288	477.637	195.557	246.438	275.244	391.420	271.328	493.911	241.503	422.135	0.00050585	0.00049609	9.5451e-05	1387.5	5.0305e-06	5.1938e-06	1387.2	377.03	5.0799e-06	4.6632e-06	429.22	143.54	124.26	42.841	4.202e-06	53.111	0.00051878	0.00049802	0.00014406	1374.8	5.4369e-06	5.4378e-06	1377.7	373.74	5.658e-06	5.3599e-06	426.98	143.54	124.42	42.959	5.5417e-06	53.341	228.487	211.204	234.559	153.069	282.731	268.749	152.882	157.672	294.069	265.098	157.056	161.354	162.050	166.358	295.383	165.854	-8191	255	
12568.593	1	1	0	131072	0.25054	0.24096	0.24779	0.04151	0.18998	0.047429	0.15681	0.068951	0.18801	0.12007	0.25856	0.051978	0.21477	0.24732	0.14594	0.016607	-2.025	-2.7687	-2	-2.9854	-2.675	-2.2208	-3.1396	-2.6167	-2.4938	-2.7	-2.5687	-2.8396	-2.9125	-2.3688	-2.8292	-2.4646	476.523	358.643	392.524	448.548	391.050	417.159	397.747	236.987	302.253	329.390	481.038	480.988	452.823	150.010	392.020	447.389	0.0005314	0.00081016	0.00013428	1383.5	4.6164e-06	5.7917e-06	1382.3	376.07	4.5533e-06	6.4518e-06	427.15	144.06	124.17	42.811	3.5749e-06	52.748	0.00052143	0.00050222	0.00014271	1376.5	5.5845e-06	5.5969e-06	1375.4	373.8	5.5831e-06	5.4044e-06	426.73	143.31	124.43	42.923	5.5419e-06	53.154	228.298	196.961	261.918	153.043	288.082	266.031	152.802	157.546	292.261	273.032	157.180	161.449	162.343	166.716	276.283	165.613	-8191	255	
12568.711	1	1	0	131072	0.12948	0.1334	0.11349	0.36739	0.069288	0.047101	0.16606	0.0082908	0.14968	0.18528	0.18903	0.20426	0.42699	0.17381	0.16387	0.43902	-2.0375	-2.8125	-2.2896	-2.6688	-2.5854	-2.2271	-3.1646	-2.7542	-2.3167	-3.0333	-2.6208	-2.7458	-2.9292	-2.3125	-2.7938	-2.7188	477.766	223.802	212.451	490.461	254.689	199.731	462.469	348.460	298.002	366.281	367.656	166.490	495.411	438.435	147.206	456.485	0.00051381	0.00061697	0.00012351	1384.3	4.8321e-06	5.2216e-06	1376.8	373.13	4.4637e-06	4.9565e-06	425.97	142.56	124.08	42.814	4.2263e-06	52.837	0.00052279	0.00050598	0.00014084	1375.8	5.6589e-06	5.3748e-06	1375.1	373.02	5.6024e-06	5.5605e-06	426.21	142.95	124.46	42.962	5.5945e-06	53.096	228.864	245.092	218.858	153.013	286.558	292.616	153.234	158.254	286.645	284.181	157.316	161.433	162.334	166.755	286.244	165.896	-8191	255	
12568.808	1	1	0	131072	0.17782	0.17365	0.21572	0.29866	0.09514	0.14372	0.4066	0.16151	0.1326	0.10057	0.38025	0.16621	0.20106	0.24787	0.15917	0.10166	-1.8729	-2.7417	-2.3229	-2.6917	-2.7938	-2.2167	-2.8354	-2.7812	-2.2	-2.8271	-2.4708	-2.4333	-3.1521	-2.2729	-2.6021	-2.7708	168.656	156.605	296.499	482.007	490.491	191.615	465.423	384.916	412.862	193.707	417.515	326.035	493.607	482.215	410.844	251.011	0.00051356	0.00051918	9.6762e-05	1380.7	4.7516e-06	6.5843e-06	1382.7	373.84	4.738e-06	5.2054e-06	427.8	142.93	124.87	42.384	5.344e-06	52.838	0.00052308	0.00050849	0.00014329	1374.3	5.5162e-06	5.5113e-06	1374.5	373.38	5.662e-06	5.7119e-06	425.8	143.07	124.56	42.858	5.6962e-06	53.141	228.491	231.680	243.933	153.134	283.961	283.397	153.047	157.823	292.484	288.707	157.241	161.581	162.260	166.860	290.551	166.129	-8191	255	
12568.904	1	1	0	131072	0.13529	0.14605	0.17389	0.27602	0.16683	0.15446	0.20751	0.16507	0.16095	0.20231	0.15137	0.15374	0.33305	0.30764	0.11281	0.25885	-1.85	-2.7792	-2.5042	-2.5417	-2.8896	-2.2646	-3.0208	-2.8937	-2.1188	-2.6583	-2.5062	-2.4938	-2.9292	-2.4229	-2.6042	-2.7125	264.778	181.559	273.903	467.647	481.906	442.818	468.431	453.479	295.767	480.516	373.328	462.082	489.891	429.461	228.968	468.006	0.00049788	0.00028304	0.00012488	1383.5	4.4406e-06	6.3877e-06	1380.9	373.63	5.2705e-06	4.2877e-06	428.51	142.49	123.82	42.659	5.9667e-06	52.364	0.00052973	0.00048743	0.00014296	1374.7	5.4422e-06	5.5996e-06	1373.8	373.42	5.7139e-06	5.6166e-06	426.75	142.91	124.3	42.926	5.6787e-06	53.031	230.782	238.987	232.878	152.971	284.081	286.780	153.032	158.201	297.086	289.689	157.361	161.589	162.428	167.065	292.891	166.054	-8191	255	
12569.000	1	1	0	131072	0.22952	0.071803	0.18164	0.29432	0.11277	0.013991	0.206	0.14748	0.043604	0.29963	0.054225	0.20365	0.085074	0.1678	0.34876	0.22496	-1.6437	-2.7729	-2.3396	-2.5167	-2.9854	-2.2562	-2.7542	-2.8812	-2.1604	-2.8396	-2.7938	-2.3708	-3.0958	-2.4125	-2.5312	-2.8958	253.325	143.718	319.378	438.814	300.121	389.326	425.497	407.884	241.727	338.953	169.018	464.169	195.876	146.180	334.253	484.391	0.00053808	0.00042048	0.00013371	1382	5.6735e-06	5.2677e-06	1383.1	373.82	4.7488e-06	7.7865e-06	429.31	142.87	124.3	42.691	5.3148e-06	53.158	0.00052636	0.00050777	0.00014065	1374.8	5.4756e-06	5.59e-06	1373.2	372.98	5.6162e-06	5.5429e-06	427.17	143	124.31	42.935	5.6646e-06	53.232	225.647	254.809	232.928	153.193	272.378	274.249	152.931	157.970	292.926	301.690	157.415	161.885	162.018	166.988	265.755	165.871	-8191	255	
12569.096	1	1	0	131072	0.11857	0.10841	0.26798	0.17781	0.20072	0.27296	0.34643	0.31486	0.15639	0.18432	0.4712	0.19008	0.19537	0.29112	0.078521	0.28864	-1.8979	-2.7042	-2.7729	-2.5167	-2.9125	-2.3021	-2.7104	-3.0667	-2.2188	-2.5271	-2.8021	-2.4167	-3.0125	-2.6833	-2.3521	-3.1167	383.791	383.969	314.759	470.994	425.046	354.226	392.641	451.571	171.230	308.967	436.211	434.490	175.897	434.041	406.751	473.130	0.00051413	0.00051088	0.00016833	1383.8	4.9078e-06	5.6322e-06	1386.4	375.1	5.0278e-06	4.3587e-06	429.29	143.29	124.03	42.74	6.0318e-06	53.022	0.00052671	0.00050531	0.00014369	1375	5.582e-06	5.5593e-06	1375.6	373.36	5.6009e-06	5.5016e-06	426.98	143.13	124.36	42.941	5.6142e-06	53.272	230.894	231.593	230.271	153.041	304.656	268.293	152.693	157.786	289.685	297.619	157.177	161.495	162.248	166.605	285.840	166.042	-8191	255	
12569.192	1	1	0	131072	0.036247	0.17771	0.20294	0.2203	0.087904	0.095962	0.28882	0.093491	0.25862	0.0448	0.1899	0.32121	0.31489	0.25962	0.19108	0.21911	-1.7646	-2.5354	-2.775	-2.4771	-2.7417	-2.3792	-2.6021	-3.0187	-2.15	-2.6042	-3.0104	-2.2729	-2.8521	-2.6646	-2.2375	-3.0042	420.863	268.651	344.653	157.833	475.655	200.310	444.126	461.307	380.040	479.292	480.509	486.374	377.129	357.975	305.715	465.221	0.00051373	0.00073925	0.00011662	1385.1	6.0874e-06	2.7918e-06	1383.9	375.52	5.1303e-06	6.1071e-06	428.39	142.99	124.01	42.609	4.3504e-06	52.9	0.00051716	0.00052082	0.00014291	1374.8	5.5486e-06	5.4718e-06	1373.6	373.11	5.4888e-06	5.5736e-06	426.86	143.16	124.25	42.91	5.5898e-06	53.176	231.824	218.734	245.599	152.903	284.854	312.198	152.930	157.804	282.194	272.942	157.374	161.579	161.929	166.828	302.658	165.817	-8191	255	
12569.313	1	1	0	131072	0.11056	0.12218	0.16901	0.17319	0.22901	0.19903	0.5387	0.33762	0.25763	0.14615	0.069407	0.23215	0.34269	0.171	0.11439	0.35983	-1.8729	-2.3375	-2.6021	-2.6396	-2.6021	-2.5042	-2.4167	-3.1292	-2.2646	-2.4313	-3.0229	-2.4271	-2.7687	-2.7646	-2.1646	-2.95	340.088	479.616	463.109	431.368	211.331	498.573	458.000	459.834	436.362	302.131	199.397	470.782	489.560	479.432	476.244	467.218	0.00052479	0.00061338	0.00018858	1384.2	4.5633e-06	5.132e-06	1382	374.84	5.6791e-06	4.9365e-06	428.69	143.33	123.89	42.811	4.3794e-06	52.822	0.0005241	0.00051505	0.00014157	1375.3	5.61e-06	5.5455e-06	1373.8	373.49	5.5236e-06	5.4947e-06	427.13	143.04	124.2	42.932	5.5105e-06	53.218	230.451	225.403	237.591	153.116	289.614	294.944	152.955	157.816	294.129	262.931	157.440	161.656	162.262	166.607	282.080	165.769	-8191	255	
12569.407	1	1	0	131072	0.075458	0.19229	0.18238	0.33091	0.085527	0.30202	0.19087	0.31767	0.16679	0.16475	0.16844	0.31117	0.014954	0.20849	0.20409	0.15215	-1.9042	-2.3312	-2.8042	-2.2812	-2.6792	-2.55	-2.4875	-2.8271	-2.4625	-2.1292	-3.1188	-2.2687	-2.6229	-2.9125	-2.2917	-2.9125	351.304	261.890	484.671	486.488	197.249	168.821	440.349	443.981	466.737	497.611	404.190	446.731	362.940	469.103	171.904	499.473	0.00052024	0.00053883	0.00011441	1384.1	4.0211e-06	6.1619e-06	1385	377.41	4.6166e-06	4.7275e-06	430.73	143.23	124.31	42.85	3.7051e-06	52.826	0.00052017	0.0005006	0.0001382	1375.1	5.4316e-06	5.4749e-06	1375.5	374.5	5.5423e-06	5.5966e-06	427.13	143.12	124.5	42.991	5.3916e-06	53.114	232.451	218.311	241.530	153.093	275.265	298.842	152.718	157.793	295.943	311.739	157.303	161.595	162.022	166.645	293.889	165.596	-8191	255	
12569.503	1	1	0	131072	0.22622	0.046042	0.20404	0.30969	0.040551	0.21813	0.10384	0.2244	0.30699	0.16735	0.14821	0.12575	0.19155	0.52213	0.27316	0.32128	-2.2438	-2.1292	-2.7313	-2.5354	-2.55	-2.7792	-2.5958	-2.7771	-2.5458	-2.3438	-2.9104	-2.6083	-2.7583	-2.8271	-2.0104	-2.7188	266.045	230.194	402.222	448.441	197.135	467.738	199.654	161.106	384.697	425.256	432.008	412.909	412.958	146.137	405.846	414.043	0.00052064	0.00039985	0.00013932	1383	5.3052e-06	6.2046e-06	1382.7	376.18	4.3997e-06	3.1848e-06	428.15	143.61	124.18	42.632	6.0177e-06	53.096	0.00051052	0.00049085	0.00013748	1374.8	5.5094e-06	5.5712e-06	1372.5	373.37	5.5717e-06	5.4087e-06	426.33	143.22	124.28	42.904	5.4785e-06	53.151	227.441	228.523	224.975	152.948	281.259	304.426	153.009	157.703	287.547	265.949	157.106	161.528	162.113	166.428	292.263	165.569	-8191	255	
12569.624	1	1	0	131072	0.28821	0.21334	0.20191	0.17581	0.15012	0.24154	0.18488	0.13773	0.18241	0.24444	0.28332	0.4224	0.22136	0.36666	0.076736	0.39742	-1.9229	-2.2687	-2.8312	-2.7167	-2.2521	-2.7708	-2.3312	-2.7313	-2.6396	-2.1542	-3.0354	-2.4375	-2.4375	-3.0167	-2.1562	-2.6	288.228	308.061	367.682	433.433	306.741	178.174	474.854	428.904	222.912	378.703	493.236	484.002	142.408	480.243	283.958	482.489	0.00052546	0.00044516	0.000176	1385.2	5.3462e-06	5.6059e-06	1385.1	376.36	3.8763e-06	5.8153e-06	431.51	143.44	124.58	43.04	4.179e-06	53.088	0.00051192	0.00048714	0.00014003	1374.3	5.5474e-06	5.3356e-06	1374.7	374.04	5.5965e-06	5.2792e-06	426.7	143.13	124.36	43.019	5.3939e-06	53.109	228.268	216.959	230.283	153.027	266.930	302.377	152.726	157.768	291.904	284.735	157.178	161.813	161.991	166.635	291.260	165.704	-8191	255	
12569.696	1	1	0	131072	0.21318	0.23081	0.11133	0.39274	0.05399	0.0027933	0.083656	0.37066	0.24116	0.13463	0.14989	0.30427	0.1238	0.15719	0.15567	0.23475	-2.2583	-2.0271	-2.7	-2.6729	-2.4062	-2.8438	-2.4792	-2.8896	-2.7708	-2.1688	-2.9313	-2.4208	-2.2958	-2.9271	-2.2625	-2.5083	282.605	231.603	371.506	484.155	387.138	286.518	472.219	360.116	152.483	395.760	446.980	473.410	145.102	183.751	367.101	375.773	0.00050616	0.00054873	0.00015519	1386.4	5.0839e-06	8.1786e-06	1381.4	374.87	5.0638e-06	4.6786e-06	429.07	143.36	124.23	42.906	5.5174e-06	52.969	0.0005079	0.00048952	0.00013719	1374.8	5.4886e-06	5.3563e-06	1374.5	372.96	5.3771e-06	5.3622e-06	427.16	142.94	124.27	42.98	5.3741e-06	53.159	230.186	202.325	246.513	153.142	273.974	273.847	152.975	157.630	304.014	287.938	157.100	161.533	162.043	166.907	267.199	165.901	-8191	255	
12569.792	1	1	0	131072	0.12331	0.017237	0.1698	0.50508	0.16428	0.080853	0.25216	0.096486	0.14438	0.12372	0.08706	0.2788	0.30765	0.11027	0.22334	0.12333	-2.4125	-2.0604	-2.5	-2.8875	-2.2021	-2.8208	-2.6479	-2.8479	-2.7562	-2.3	-2.9813	-2.7521	-2.3833	-2.9167	-2.3146	-2.5208	388.431	414.938	404.257	490.203	412.421	149.391	454.750	424.345	282.284	355.681	466.242	464.769	490.767	487.107	440.102	489.146	0.0004953	0.00059739	0.00018632	1381.8	6.9238e-06	5.3793e-06	1382.7	373.77	5.3315e-06	3.1858e-06	426.13	142.51	123.86	42.713	3.6136e-06	52.75	0.00050358	0.00047958	0.00013721	1374.5	5.4682e-06	5.3121e-06	1373.9	372.32	5.3594e-06	5.3025e-06	425.31	143.01	124.13	42.926	5.3106e-06	53.001	228.681	231.193	236.075	153.290	294.473	319.277	153.091	157.792	290.010	325.530	157.178	161.545	162.276	166.954	283.741	166.034	-8191	255	
12569.888	1	1	0	131072	0.26261	0.030146	0.0061016	0.13352	0.038949	0.076317	0.28369	0.33466	0.12178	0.091388	0.15827	0.16444	0.29494	0.11119	0.16559	0.027374	-2.4167	-1.8792	-2.5333	-2.7896	-2.0417	-2.7729	-2.7687	-2.5292	-2.7771	-2.3063	-2.6479	-3.0104	-2.2979	-2.8958	-2.3854	-2.4458	328.795	442.985	344.832	424.539	452.745	447.429	471.105	448.290	251.131	496.369	326.195	459.762	156.880	337.542	354.499	409.704	0.00053187	0.00046808	0.00016431	1383.9	3.2749e-06	6.6071e-06	1378.6	373.97	4.7422e-06	5.0663e-06	428.57	142.36	124.15	42.621	4.9957e-06	52.947	0.00050334	0.00049066	0.00013763	1374.9	5.3147e-06	5.2947e-06	1372.2	372.88	5.2613e-06	5.284e-06	426.36	142.77	124.29	42.888	5.2478e-06	53.179	228.760	245.108	258.595	153.349	293.090	291.945	153.219	157.914	288.187	278.427	156.957	161.787	162.117	166.954	279.444	165.699	-8191	255	
12570.009	1	1	0	131072	0.12227	0.071494	0.069552	0.25233	0.26527	0.075912	0.43583	0.37521	0.16917	0.18111	0.034082	0.12639	0.29003	0.11635	0.1519	0.33687	-2.2021	-2.1354	-2.4813	-2.9958	-2.0792	-2.7896	-2.7771	-2.3979	-2.9146	-2.4396	-2.6937	-2.8208	-2.5208	-2.8	-2.5229	-2.5125	311.402	148.265	451.047	476.960	284.556	310.806	441.881	441.394	470.900	164.558	180.737	197.211	189.625	242.128	330.576	486.218	0.00052449	0.00037948	0.00013331	1384.9	5.3788e-06	4.9413e-06	1385.4	373.64	3.7948e-06	6.4196e-06	425.49	142.97	124.18	42.705	5.0041e-06	52.961	0.0004954	0.00048508	0.00013984	1375.1	5.2654e-06	5.2835e-06	1373.7	372.94	5.2499e-06	5.2644e-06	425.8	142.97	124.22	42.977	5.4649e-06	53.092	229.497	260.557	224.077	153.136	277.319	299.406	153.106	157.851	284.904	302.214	157.023	161.814	162.032	166.685	284.739	165.830	-8191	255	
12570.105	1	1	0	131072	0.2825	0.29875	0.22299	0.18203	0.068885	0.10829	0.30012	0.10253	0.04407	0.027079	0.1613	0.23195	0.37057	0.11512	0.19859	0.075601	-2.3792	-2.3458	-2.325	-3.1437	-2.1604	-2.8187	-2.7667	-2.4188	-2.7687	-2.3833	-2.3937	-3.1104	-2.2583	-2.7542	-2.6188	-2.4979	322.927	464.002	336.088	140.196	237.877	275.792	453.701	217.241	203.625	325.709	382.360	421.141	480.167	340.995	166.388	448.487	0.00053195	0.0005217	7.7729e-05	1381.9	6.7192e-06	4.5283e-06	1380.7	372.55	4.5711e-06	5.6339e-06	426.17	142.44	123.75	42.586	3.8677e-06	52.56	0.0005028	0.00048063	0.00013166	1374.5	5.4371e-06	5.2285e-06	1372.3	372.2	5.3504e-06	5.2728e-06	424.73	142.76	124.24	42.865	5.2407e-06	53.034	227.392	229.486	214.767	153.253	290.192	273.154	153.091	157.899	281.732	272.279	157.199	161.810	162.626	166.984	272.524	165.962	-8191	255	
12570.201	1	1	0	131072	0.2452	0.14713	0.11463	0.32542	0.20425	0.14646	0.25515	0.22432	0.11424	0.071034	0.28395	0.17655	0.062409	0.086298	0.077452	0.32021	-2.3771	-2.4979	-2.3708	-3.1625	-2.2917	-2.525	-2.9146	-2.3458	-2.7938	-2.5125	-2.3625	-3.0917	-2.4125	-2.5021	-2.8292	-2.5438	277.105	432.897	351.155	158.331	441.761	384.178	409.346	447.230	355.383	464.772	145.017	452.452	439.723	324.184	140.175	451.922	0.00051573	0.00051616	0.00011268	1381.7	4.5537e-06	5.6015e-06	1377.9	370.43	4.7252e-06	4.8959e-06	425.73	142.29	123.09	42.405	2.8883e-06	52.257	0.00050212	0.00049228	0.00013762	1373.9	5.298e-06	5.2363e-06	1371.2	371.47	5.2283e-06	5.1139e-06	425.05	142.88	123.75	42.791	5.2897e-06	52.994	230.013	214.391	263.037	153.591	303.529	285.830	153.400	157.984	301.978	288.138	157.574	162.275	162.242	166.938	272.444	166.268	-8191	255	
12570.273	1	1	0	131072	0.12629	0.13601	0.2367	0.3524	0.26974	0.092029	0.21324	0.3997	0.19462	0.23176	0.26177	0.23468	0.26567	0.17414	0.29287	0.22681	-2.3812	-2.4146	-2.2521	-2.9333	-2.2812	-2.4583	-3.2708	-2.3875	-2.775	-2.7521	-2.3812	-3.0021	-2.4167	-2.5312	-2.8125	-2.3146	261.586	159.149	178.235	410.875	225.949	255.591	402.177	455.352	303.563	439.130	472.417	181.421	444.130	485.502	484.777	420.769	0.00051453	0.00053551	0.00011934	1383.5	2.0698e-06	4.4707e-06	1378.4	372.88	5.1898e-06	7.3595e-06	424.21	141.72	123.37	42.423	4.6262e-06	52.638	0.00050161	0.00048576	0.00013282	1372.9	5.3813e-06	5.224e-06	1371	372.32	5.5381e-06	5.2631e-06	424.89	142.65	123.87	42.831	5.3945e-06	53.104	229.200	204.388	240.542	153.374	300.096	282.547	153.466	157.843	288.314	289.010	157.346	161.803	162.550	166.939	315.226	166.066	-8191	255	
12570.393	1	1	0	131072	0.054484	0.4347	0.10318	0.40807	0.15643	0.18582	0.52861	0.28246	0.27134	0.17478	0.2124	0.13375	0.14566	0.27965	0.17379	0.32654	-2.225	-2.6104	-2.1583	-3.2042	-2.3042	-2.3688	-3.0187	-2.3896	-2.3417	-2.7125	-2.2604	-3.0479	-2.4688	-2.4396	-2.8625	-2.5312	486.790	359.797	181.962	495.340	185.685	169.106	393.154	444.210	275.967	247.216	140.621	482.941	176.912	200.413	218.462	444.568	0.00052798	0.00048963	0.00011944	1381.9	2.6725e-06	3.8294e-06	1377.6	372.43	3.476e-06	5.3821e-06	424.66	141.72	122.77	42.432	5.1634e-06	52.245	0.00050965	0.00046695	0.00013478	1374	5.337e-06	5.2975e-06	1372	371.56	5.3858e-06	5.2278e-06	424.97	142.57	123.59	42.827	5.1171e-06	52.835	227.448	244.609	245.585	153.373	284.702	325.578	153.437	158.059	301.750	278.796	157.639	161.796	162.461	166.810	284.060	166.048	-8191	255	
12570.488	1	1	0	131072	0.16636	0.044723	0.24789	0.15945	0.081578	0.23207	0.22155	0.34997	0.29623	0.1746	0.091926	0.095006	0.38156	0.072826	0.15597	0.093738	-2.2125	-2.7396	-1.9958	-3.0125	-2.4229	-1.9729	-3.1167	-2.4542	-2.3854	-2.8396	-2.4271	-3.1083	-2.6271	-2.3958	-2.7854	-2.3979	290.958	325.096	455.671	443.738	311.118	232.572	430.470	424.109	491.857	446.258	403.630	450.770	479.138	242.756	238.570	248.239	0.00051121	0.00047755	0.00016479	1383.3	4.9123e-06	4.0126e-06	1376	371.34	4.7995e-06	6.18e-06	423.35	141.44	122.61	42.353	3.8064e-06	52.253	0.0005021	0.00047913	0.00013585	1371	5.3662e-06	5.1287e-06	1370.2	371.95	5.4022e-06	5.3306e-06	424.47	142.53	123.9	42.789	5.1005e-06	52.981	228.220	213.216	217.486	153.480	288.391	259.960	153.318	158.387	298.418	294.682	157.721	161.974	162.596	167.106	293.769	166.194	-8191	255	
12570.586	1	1	0	131072	0.051479	0.13937	0.12923	0.21118	0.16299	0.46745	0.54823	0.32236	0.25479	0.14362	0.16345	0.12449	0.17401	0.2708	0.22777	0.20953	-1.9542	-2.7062	-2.1437	-3.0229	-2.4208	-2.2833	-3.0479	-2.6625	-2.3146	-2.9333	-2.4333	-2.825	-2.85	-2.2625	-2.7896	-2.4917	471.380	483.596	457.219	429.342	456.872	439.930	438.034	145.605	199.635	150.547	444.711	150.031	472.266	485.796	225.433	344.025	0.00052869	0.00034029	0.00013067	1381	6.2949e-06	3.8804e-06	1374.2	370.97	4.1661e-06	5.7547e-06	424.08	141.8	123.41	42.145	4.5052e-06	52.533	0.00051268	0.00048604	0.00013277	1372.7	5.2236e-06	5.2527e-06	1370.1	371.92	5.3282e-06	5.3347e-06	425.4	142.87	124.04	42.726	5.1853e-06	53.056	230.841	229.840	220.588	153.594	288.340	294.954	153.382	158.115	274.328	288.913	157.283	161.997	162.671	167.044	278.720	166.552	-8191	255	
12570.704	1	1	0	131072	0.29869	0.36579	0.15899	0.14471	0.2971	0.19785	0.23689	0.1596	0.055607	0.20999	0.32702	0.15513	0.11821	0.082543	0.13779	0.2698	-1.8396	-2.8083	-2.0062	-2.9417	-2.6458	-2.1771	-3.1042	-2.5125	-2.3292	-2.9583	-2.3083	-2.6333	-2.925	-2.3063	-2.6937	-2.6271	345.261	493.345	298.148	462.266	412.879	156.767	393.773	422.864	251.260	440.328	242.381	467.921	489.134	214.973	381.459	490.351	0.00051055	0.00057374	0.0001248	1380.7	4.9978e-06	4.6054e-06	1377.6	370.32	5.2904e-06	5.4427e-06	425.73	141.48	123.99	42.372	3.3148e-06	52.411	0.0005118	0.00047621	0.00013407	1372.7	5.3599e-06	5.2268e-06	1370.4	371.77	5.2705e-06	5.276e-06	424.88	142.51	124.09	42.737	5.2559e-06	53.026	230.657	217.231	226.714	153.432	298.643	282.631	153.271	158.088	296.663	294.954	157.699	162.015	162.758	166.970	301.459	166.254	-8191	255	
12570.801	1	1	0	131072	0.20788	0.17674	0.13077	0.27277	0.15685	0.24149	0.18143	0.24882	0.10817	0.13315	0.21537	0.20514	0.34955	0.13999	0.17006	0.25078	-1.9167	-3.0458	-2.2833	-2.7771	-2.6292	-2.1708	-2.8563	-2.8396	-2.0771	-2.6979	-2.4417	-2.4938	-2.8042	-2.2167	-2.5375	-2.7542	495.713	215.417	214.278	485.765	444.946	425.469	440.427	437.936	389.955	174.364	458.308	494.314	177.308	468.572	210.225	448.178	0.00050259	0.0005979	0.00012186	1379.3	5.3094e-06	7.5722e-06	1380	372.88	4.0127e-06	4.688e-06	423.08	141.57	123.29	42.261	5.2306e-06	52.605	0.00049659	0.00048323	0.00013324	1374	5.4452e-06	5.2552e-06	1371	372.53	5.4007e-06	5.1784e-06	424.55	142.63	124.1	42.796	5.2013e-06	53.019	228.349	241.452	228.948	153.644	272.796	285.090	153.323	158.246	286.839	305.215	157.936	161.812	162.645	167.155	274.364	166.235	-8191	255	
12570.897	1	1	0	131072	0.18575	0.22919	0.16242	0.3713	0.24777	0.1684	0.079644	0.23191	0.12682	0.23723	0.33977	0.1782	0.080314	0.2352	0.12912	0.16684	-1.7771	-2.7375	-2.3688	-2.8458	-2.8625	-2.2979	-2.8312	-2.8688	-2.1896	-2.8104	-2.4354	-2.3563	-2.9146	-2.2521	-2.4896	-2.875	309.698	142.188	262.958	474.586	203.754	341.467	486.459	464.670	400.554	205.076	397.497	438.581	289.132	170.385	467.702	436.555	0.00052725	0.00049164	0.00011316	1381.7	4.6274e-06	4.7951e-06	1375.4	371.62	4.5075e-06	5.9276e-06	424.07	141.95	123.06	42.439	4.836e-06	52.612	0.00050413	0.00046735	0.00012918	1372.4	5.2515e-06	5.2983e-06	1370.8	372.4	5.3316e-06	5.0951e-06	425.12	142.81	124.21	42.918	5.3007e-06	53.061	229.242	221.273	245.170	153.347	277.143	301.452	153.280	158.377	289.720	300.469	157.624	161.929	162.404	166.961	316.776	165.777	-8191	255	
12570.993	1	1	0	131072	0.34471	0.058238	0.16837	0.32734	0.22737	0.36161	0.10693	0.016253	0.25016	0.10704	0.21808	0.094417	0.21972	0.41842	0.13273	0.21444	-1.7458	-2.7188	-2.325	-2.5062	-2.7938	-2.3354	-2.7438	-2.9229	-2.1188	-2.6708	-2.7083	-2.4688	-3.0938	-2.4771	-2.4167	-2.9479	419.346	214.170	166.513	435.721	194.537	224.942	448.892	445.151	323.730	291.091	459.900	433.387	149.421	465.693	438.194	408.689	0.00050258	0.00038275	0.00013427	1383.5	5.2643e-06	4.5596e-06	1379	372.45	4.7924e-06	5.0834e-06	424.51	142.31	123.77	42.315	4.0279e-06	52.403	0.00050206	0.00048247	0.00013367	1373.4	5.2171e-06	5.244e-06	1371.5	372.23	5.3164e-06	5.1195e-06	424.83	142.87	124.02	42.775	5.0389e-06	53.026	229.900	250.503	237.028	153.396	288.014	252.778	153.272	157.987	296.684	306.232	157.352	161.894	162.574	166.885	256.224	166.390	-8191	255	
12571.089	1	1	0	131072	0.09282	0.21656	0.18495	0.22942	0.10437	0.11078	0.3052	0.24318	0.16233	0.1816	0.28901	0.070631	0.022817	0.18719	0.32798	0.069336	-1.7792	-2.6979	-2.3875	-2.4646	-2.7375	-2.3833	-2.5625	-2.8083	-2.1521	-2.7333	-2.7313	-2.4667	-3.0583	-2.6458	-2.375	-2.8521	215.133	445.627	392.848	464.575	321.942	184.644	428.715	435.870	329.433	337.044	175.791	408.821	164.901	460.311	457.685	403.336	0.00050658	0.00033967	0.00017985	1383.4	5.1483e-06	5.6624e-06	1378.3	372.99	4.75e-06	5.1497e-06	425.6	141.87	123.36	42.535	2.8343e-06	52.566	0.00049438	0.00048218	0.00013429	1372.6	5.1407e-06	5.2121e-06	1371.8	372.11	5.2593e-06	5.2293e-06	425.31	142.43	123.96	42.816	5.283e-06	53.043	229.382	218.006	221.800	153.295	307.805	281.366	153.140	158.282	282.861	294.511	157.702	161.723	162.540	167.153	278.974	166.023	-8191	255	
12571.185	1	1	0	131072	0.21848	0.094272	0.13211	0.36903	0.063381	0.12348	0.26075	0.36645	0.2399	0.17809	0.14112	0.38385	0.10449	0.11853	0.10087	0.073381	-1.875	-2.7083	-2.6688	-2.4854	-2.8521	-2.4146	-2.6583	-2.975	-2.2271	-2.6396	-2.8083	-2.3583	-2.9229	-2.425	-2.1417	-2.9	366.185	478.308	321.766	480.542	192.531	228.641	420.117	431.048	415.912	243.091	474.847	141.308	448.848	474.127	157.213	304.276	0.00052678	0.00059791	0.00012854	1383.4	4.5618e-06	6.877e-06	1375.7	370.22	3.9542e-06	5.3533e-06	425.01	142.08	123.21	42.219	4.4435e-06	52.108	0.00050198	0.00048275	0.00013199	1371.3	5.295e-06	5.3675e-06	1369.6	371.57	5.2184e-06	5.1702e-06	425.5	142.66	123.87	42.766	5.1195e-06	52.939	229.470	211.147	234.541	153.455	282.593	289.743	153.203	158.244	290.575	260.197	157.460	162.079	162.443	167.391	291.683	166.473	-8191	255	
12571.306	1	1	0	131072	0.12703	0.10383	0.070083	0.044922	0.23195	0.10358	0.20298	0.017163	0.11625	0.1846	0.17393	0.16538	0.20363	0.23092	0.15602	0.20581	-1.8208	-2.4813	-2.6437	-2.3937	-2.7042	-2.6	-2.3458	-3.0583	-2.2875	-2.3458	-2.9354	-2.2646	-2.6854	-2.5104	-2.1562	-2.8104	460.615	414.365	480.421	189.933	325.563	491.595	473.369	383.321	339.825	455.660	162.079	436.057	429.790	447.412	173.935	187.236	0.000506	0.00063001	0.00019753	1381.8	4.604e-06	5.8979e-06	1374.1	370.93	4.0101e-06	4.9014e-06	423.29	142.14	123.14	42.272	5.107e-06	52.371	0.00048892	0.00047756	0.00013249	1371.7	5.3423e-06	5.1699e-06	1370.4	371.92	5.2664e-06	5.2063e-06	424.81	142.81	123.94	42.757	5.2899e-06	52.939	227.715	226.750	242.551	153.295	283.996	281.025	153.305	158.213	295.219	318.611	157.655	161.843	162.720	167.215	269.750	166.395	-8191	255	
12571.400	1	1	0	131072	0.14008	0.061262	0.13899	0.31333	0.064232	0.14155	0.2145	0.20298	0.30468	0.042887	0.15293	0.17754	0.0552	0.081268	0.10639	0.050719	-1.9458	-2.225	-2.7062	-2.3771	-2.5812	-2.6021	-2.2729	-2.9208	-2.2417	-2.1875	-3.0438	-2.1708	-2.7146	-2.7146	-2.0292	-2.9417	433.938	484.556	463.142	467.461	236.601	354.377	466.986	411.065	381.419	221.484	486.417	467.344	449.220	229.499	401.315	370.317	0.00050535	0.00070519	0.00010947	1382.3	5.6935e-06	4.7433e-06	1241.5	325.31	4.4559e-06	4.2121e-06	372.84	123.86	107.37	37.03	3.7298e-06	45.66	0.00050236	0.00046619	0.00012935	1372.5	4.7257e-06	4.6845e-06	1228.6	330.66	4.6969e-06	4.5707e-06	377.73	126.6	109.89	37.997	4.5292e-06	46.99	230.885	210.180	234.280	153.505	288.325	289.380	155.139	159.776	288.649	293.738	159.306	163.690	163.859	168.907	292.453	167.925	-8191	255	
12571.496	1	1	0	131072	0.17058	0.12519	0.28911	0.35879	0.032777	0.085073	0.29212	0.12877	0.27303	0.17311	0.070259	0.1924	0.098538	0.078668	0.037243	0.037581	-1.8979	-2.0729	-2.925	-2.5104	-2.6208	-2.6729	-2.4188	-3.0083	-2.4062	-2.2333	-2.8854	-2.2458	-2.4521	-2.8271	-2.1271	-2.8688	474.105	294.121	308.033	412.674	473.034	455.675	450.735	412.336	458.575	161.851	370.985	448.199	260.729	142.222	289.001	181.909	0.00045302	0.00050061	0.00010768	1427.5	4.9257e-06	4.7296e-06	1232.5	324.42	4.9261e-06	4.618e-06	370.1	123.98	107.29	37.173	2.373e-06	45.673	0.00044404	0.00043416	0.00011508	1270.9	4.6483e-06	4.5992e-06	1221.3	330.41	4.6866e-06	4.6991e-06	376.72	126.56	109.98	38.027	4.6993e-06	47.027	233.534	238.259	258.313	154.799	300.816	292.527	154.903	159.805	301.860	307.015	159.103	163.543	164.220	168.940	284.617	167.787	-8191	255	
12571.568	1	1	0	131072	0.22259	0.1023	0.17701	0.2905	0.12439	0.056872	0.13385	0.21424	0.19478	0.060956	0.19621	0.14324	0.2311	0.29262	0.045496	0.11475	-1.9375	-2.2208	-2.9	-2.4708	-2.25	-2.675	-2.1729	-2.8354	-2.5083	-2.1521	-2.9875	-2.4167	-2.475	-2.9896	-2.1667	-2.6958	156.001	491.672	349.146	422.973	481.947	328.880	459.838	452.059	466.151	200.394	495.154	335.523	172.667	203.315	335.550	423.633	0.00044197	0.00053027	0.00014768	1428.9	3.2581e-06	4.9886e-06	1237.7	324.1	4.0038e-06	4.0086e-06	369.83	123.27	107.19	36.895	5.474e-06	45.981	0.00044517	0.00043301	0.00011787	1270.9	4.8961e-06	4.5636e-06	1221.9	329.64	4.7442e-06	4.6717e-06	376.74	126.54	109.92	37.994	4.7554e-06	47.101	228.325	219.054	222.134	154.745	303.457	272.756	154.899	159.826	294.049	279.825	159.099	163.676	164.086	168.709	283.269	167.990	-8191	255	
12571.666	1	1	0	131072	0.23899	0.33126	0.031786	0.3676	0.16185	0.18215	0.34263	0.16559	0.26167	0.11718	0.094687	0.11339	0.18562	0.41228	0.17302	0.35525	-2.3979	-2.0917	-2.8458	-2.5375	-2.1667	-2.7375	-2.375	-2.7479	-2.6271	-2.0646	-2.8875	-2.6458	-2.3833	-3.0167	-2.2667	-2.625	161.467	382.991	171.098	143.549	229.162	142.161	421.798	180.331	427.673	437.622	325.807	229.664	150.358	436.161	389.885	384.539	0.00044107	0.00055981	0.00011924	1426.3	3.0547e-06	2.605e-06	1232	323.21	2.9019e-06	3.8153e-06	370.58	123.19	107.58	36.903	3.6281e-06	45.842	0.00044372	0.00042252	0.00011867	1270.2	4.6935e-06	4.6061e-06	1222.4	329.73	4.6622e-06	4.6679e-06	377.45	126.44	110.09	37.939	4.7208e-06	47.018	227.441	209.170	235.066	154.739	290.429	287.946	154.922	160.028	276.957	322.127	159.385	163.715	164.281	168.884	290.787	167.899	-8191	255	
12571.785	1	1	0	131072	0.094976	0.20825	0.13254	0.32434	0.10867	0.23736	0.32375	0.30695	0.14212	0.1309	0.22497	0.25366	0.20271	0.060238	0.078299	0.2027	-2.3604	-2.1437	-2.6854	-2.925	-2.3167	-2.9313	-2.4313	-2.6833	-2.6896	-2.1042	-2.6271	-2.6875	-2.1396	-2.9813	-2.1375	-2.4854	286.610	259.608	142.059	461.245	142.551	283.508	453.392	443.958	149.793	222.315	423.651	155.778	418.904	474.837	396.752	194.396	0.00042949	0.000718	0.00015951	1426.8	4.9276e-06	3.9466e-06	1227.5	323.55	4.1881e-06	7.4792e-06	368.07	122.3	95.834	32.325	2.142e-06	39.744	0.00043334	0.00042338	0.00011634	1269.8	4.6671e-06	4.6013e-06	1221.2	329.35	4.7376e-06	4.7358e-06	376.57	125.87	100.03	33.656	4.008e-06	41.484	229.159	230.847	229.694	154.835	290.955	276.665	154.814	159.814	287.256	299.069	159.236	177.523	169.854	170.874	279.810	169.664	-8191	255	
12571.881	1	1	0	0	0.17326	0.27506	0.18145	0.23931	0.13454	0.25232	0.44336	0.31558	0.25918	0.22787	0.25151	0.29465	0.061416	0.14499	0.17115	0.10446	-2.2896	-2.1937	-2.7812	-2.8438	-2.2208	-2.7208	-2.4208	-2.3521	-2.8333	-2.2417	-2.6813	-2.7438	-2.2146	-2.9396	-2.3417	-2.4792	225.335	208.659	149.814	308.667	282.505	496.562	457.281	437.497	272.574	365.466	235.501	374.444	433.172	160.562	312.694	158.337	0.00039637	0.00043858	0.00012898	1299.2	3.7206e-06	5.2879e-06	1066.4	279.83	3.9629e-06	4.3224e-06	322.88	107.27	93.399	32.031	3.1385e-06	39.613	0.00038768	0.00038521	0.00010374	1132.3	4.142e-06	4.0541e-06	1074.6	290.42	4.2267e-06	4.1225e-06	332.25	111.4	96.901	33.48	4.2525e-06	41.405	230.139	241.678	234.803	156.492	293.492	296.819	156.487	161.434	301.462	294.562	160.542	165.299	165.669	170.494	277.751	169.252	-8191	255	
12571.977	1	1	0	0	0.096489	0.12889	0.20012	0.19364	0.21903	0.18347	0.35295	0.26324	0.16135	0.15222	0.27552	0.29479	0.13367	0.16923	0.25778	0.30291	-2.2667	-2.0062	-2.5292	-2.9667	-2.0812	-2.6833	-2.6188	-2.425	-2.7	-2.1292	-2.6063	-2.7625	-2.2188	-2.7708	-2.4417	-2.3083	339.562	466.248	351.441	481.752	435.886	150.066	476.374	401.978	159.204	382.861	173.273	477.513	493.194	454.847	312.731	270.890	0.00039239	0.00029689	5.3206e-05	1299.9	3.0298e-06	4.2996e-06	1067.2	280.86	3.0083e-06	6.6079e-06	321.59	107.7	93.382	32.057	3.3637e-06	39.626	0.00039316	0.00038808	0.0001047	1132	4.1826e-06	4.1175e-06	1075	290.64	4.0902e-06	4.1352e-06	331.92	111.53	96.875	33.466	4.2085e-06	41.401	231.262	235.420	209.956	156.464	293.716	302.728	156.335	161.346	288.088	276.995	160.831	165.217	165.797	170.448	304.558	169.299	-8191	255	
12572.098	1	1	0	0	0.25215	0.40953	0.1674	0.17262	0.098486	0.16206	0.27478	0.13129	0.04951	0.08357	0.022201	0.099955	0.042027	0.151	0.18483	0.077207	-2.3729	-2.1	-2.2062	-2.9625	-2.2083	-2.6583	-2.8479	-2.3854	-2.8063	-2.2792	-2.4813	-2.8083	-2.3292	-2.7917	-2.5458	-2.2958	397.702	162.921	365.371	474.202	479.940	487.523	424.730	466.526	420.087	404.382	260.594	462.780	178.257	171.999	263.528	446.427	0.00038975	0.00046695	8.7609e-05	1297.4	2.6964e-06	5.2914e-06	1063.4	280.03	3.9679e-06	2.6677e-06	320.95	107.31	93.028	32.012	4.2958e-06	39.493	0.00039364	0.0003789	0.00010629	1132.4	4.2359e-06	4.0598e-06	1073.9	290.01	4.1644e-06	4.2552e-06	331.48	111.52	96.895	33.514	4.2246e-06	41.311	232.810	249.360	232.882	156.327	294.215	284.710	156.565	161.380	300.252	266.888	160.809	165.409	165.449	170.407	290.168	169.535	-8191	255	
12572.169	1	1	0	0	0.19432	0.22675	0.45129	0.1365	0.15048	0.102	0.33279	0.27625	0.070663	0.18245	0.27855	0.41395	0.17778	0.25983	0.15673	0.10552	-2.4479	-2.375	-2.2333	-3.0854	-2.3229	-2.5167	-2.8833	-2.2729	-2.85	-2.3417	-2.5292	-3.0625	-2.1396	-2.6396	-2.7625	-2.2833	429.712	240.587	168.249	490.441	153.872	473.785	466.532	482.498	483.551	413.109	466.602	502.315	441.592	481.930	460.536	415.716	0.0003879	0.00026768	8.4188e-05	1296.2	2.3135e-06	2.298e-06	1066.9	280.91	4.0258e-06	3.9578e-06	323.18	107.99	93.33	32.21	4.1664e-06	39.588	0.00039389	0.00038602	0.00010724	1131.4	4.2234e-06	4.0442e-06	1075.2	290.29	4.1553e-06	4.1273e-06	332.51	111.69	96.901	33.467	4.1509e-06	41.385	227.101	212.522	260.407	156.344	280.537	281.902	156.366	161.423	292.526	290.562	160.756	165.037	165.812	170.411	278.058	169.410	-8191	255	
12572.266	1	1	0	0	0.22106	0.048262	0.33217	0.072238	0.22368	0.31491	0.39252	0.14997	0.049356	0.048197	0.1326	0.32245	0.21654	0.080275	0.2487	0.050534	-2.1771	-2.4417	-2.0729	-3.0375	-2.2333	-2.4854	-2.9646	-2.1292	-2.7229	-2.5333	-2.1562	-3.0208	-2.4979	-2.3583	-2.625	-2.2583	396.309	500.857	246.882	247.723	275.046	438.603	461.027	465.086	405.159	403.610	440.889	377.869	377.933	423.335	170.312	183.287	0.00041528	0.00043778	0.00012407	1295.6	4.1182e-06	3.3855e-06	1070.1	279.97	2.9973e-06	4.7976e-06	321.48	107.25	93.533	31.957	3.2607e-06	39.496	0.00039404	0.00037295	0.00010379	1131.9	4.2304e-06	4.1304e-06	1076.4	290.18	4.1511e-06	4.0954e-06	332.14	111.6	96.996	33.47	4.1231e-06	41.321	231.037	223.073	228.476	156.415	299.432	307.699	156.719	161.530	300.565	283.423	160.726	165.361	166.085	170.517	288.459	169.317	-8191	255	
12572.386	1	1	0	0	0.14461	0.10821	0.077049	0.26086	0.076979	0.053497	0.31236	0.10742	0.17518	0.073048	0.3163	0.29425	0.27169	0.48872	0.18669	0.12679	-2.2104	-2.5833	-2.0208	-2.9562	-2.2542	-2.3396	-2.8896	-2.2188	-2.6042	-2.7167	-2.4292	-2.9667	-2.6146	-2.3833	-2.8667	-2.4	231.175	188.710	144.874	494.053	160.908	434.963	454.809	148.661	405.636	239.525	173.424	148.531	487.814	187.414	199.335	414.972	0.00039372	0.00030561	6.0193e-05	1299.6	4.2674e-06	2.9515e-06	1066.1	279.51	3.7323e-06	4.1423e-06	320.19	107.78	93.483	31.988	2.6736e-06	39.625	0.00039186	0.00038096	0.00010966	1131	4.2244e-06	4.0708e-06	1074	289.85	4.3082e-06	4.0051e-06	331.44	111.62	96.975	33.459	4.1188e-06	41.386	228.274	235.630	222.321	156.384	295.191	257.993	156.542	161.457	296.569	315.184	160.760	165.326	166.145	170.647	282.509	169.587	-8191	255	
12572.481	1	1	0	0	0.27065	0.29306	0.11741	0.27928	0.05548	0.08065	0.041415	0.39132	0.11549	0.33933	0.054367	0.18204	0.35564	0.023472	0.13295	0.27972	-1.9937	-2.4979	-2.0958	-3.0229	-2.4042	-2.3375	-2.9	-2.3438	-2.4833	-2.6688	-2.0875	-2.8583	-2.4354	-2.2062	-2.7729	-2.3688	201.214	161.953	455.987	485.090	433.845	333.000	336.185	455.109	228.977	205.663	428.737	437.375	426.697	250.341	220.587	473.337	0.00037065	0.00047776	0.00010468	1291.3	3.9228e-06	3.7273e-06	1059.5	279.8	4.0061e-06	2.7392e-06	318.68	106.97	93.371	31.966	1.4471e-06	39.694	0.00039262	0.00038138	0.0001067	1130.3	4.1152e-06	4.0869e-06	1073.2	289.98	4.2796e-06	4.0971e-06	331.33	111.35	96.97	33.466	4.1218e-06	41.396	228.784	230.054	272.568	156.653	290.353	259.705	156.539	161.644	289.343	303.611	160.858	165.444	165.987	170.538	265.530	169.459	-8191	255	
12572.577	1	1	0	0	0.14649	0.054911	0.17139	0.07997	0.10991	0.2522	0.13978	0.12053	0.069766	0.29936	0.25875	0.20614	0.19742	0.29965	0.44851	0.35877	-2.0062	-2.6688	-2.0667	-3.0042	-2.5333	-2.2188	-3.2	-2.4958	-2.4271	-2.8958	-2.1729	-2.8958	-2.7625	-2.2479	-3.0354	-2.4542	311.742	295.334	457.965	205.931	193.433	399.068	434.597	465.308	189.185	164.574	161.010	448.380	183.995	155.704	177.994	472.045	0.00040462	0.00043744	0.00010926	1295.2	3.0064e-06	3.6621e-06	1065.1	279.51	3.4899e-06	4.0344e-06	320.1	106.8	92.826	32.063	3.9482e-06	39.341	0.00039816	0.00037342	0.00010436	1131.6	4.1713e-06	4.0981e-06	1075.1	289.95	4.2297e-06	4.1533e-06	331.34	111.3	96.834	33.45	4.1983e-06	41.304	231.387	217.220	249.795	156.453	293.779	289.980	156.534	161.675	305.249	265.666	160.838	165.350	166.193	170.579	314.445	169.563	-8191	255	
12572.673	1	1	0	0	0.27538	0.21605	0.20932	0.32123	0.041743	0.29995	0.079233	0.34495	0.25608	0.21229	0.12157	0.18329	0.21694	0.164	0.27306	0.24119	-1.9104	-2.6333	-2.2333	-2.65	-2.6146	-2.0563	-3.0917	-2.4771	-2.2958	-2.9208	-2.3167	-2.6792	-2.725	-2.2375	-2.5854	-2.4104	149.736	407.838	373.159	455.849	443.586	386.688	406.528	463.630	199.151	278.343	305.528	425.965	315.664	363.861	496.087	461.416	0.00039096	0.00054561	0.00011633	1296.6	3.5078e-06	5.2074e-06	1064	279.37	3.386e-06	5.5353e-06	320.35	107.01	92.508	31.926	2.0386e-06	39.606	0.00039367	0.00037118	0.00010438	1131.3	4.1791e-06	4.1074e-06	1073.8	289.94	4.124e-06	3.9933e-06	331.62	111.47	96.676	33.441	3.9917e-06	41.373	230.044	231.164	242.797	156.379	284.621	283.483	156.516	161.575	283.502	285.233	160.650	165.352	165.901	170.607	271.971	169.218	-8191	255	
12572.793	1	1	0	0	0.11516	0.20487	0.078918	0.19439	0.047975	0.22758	0.060509	0.15728	0.29603	0.1415	0.17095	0.081516	0.18186	0.44202	0.18136	0.03183	-1.8458	-2.7146	-2.2	-2.8833	-2.6979	-2.1354	-2.8271	-2.6146	-2.1188	-2.9437	-2.325	-2.7021	-2.8896	-2.4792	-2.6875	-2.5542	207.454	360.841	167.707	371.168	450.351	217.176	335.505	263.358	378.534	234.161	344.042	373.167	388.104	471.341	190.913	358.567	0.00040532	0.00035085	8.379e-05	1300	4.3903e-06	3.8924e-06	1064.7	280.22	4.3393e-06	3.5161e-06	318.68	106.94	93.322	32.023	3.1096e-06	39.562	0.00039302	0.00036382	0.00010729	1131	4.0746e-06	3.9975e-06	1073.1	290.15	4.1304e-06	3.9643e-06	330.89	111.49	96.909	33.431	3.9928e-06	41.377	230.439	238.491	244.600	156.453	276.796	286.609	156.469	161.861	286.847	295.813	160.766	165.529	165.826	170.243	268.067	169.644	-8191	255	
12572.865	1	1	0	0	0.11566	0.01999	0.16232	0.15618	0.064283	0.40897	0.222	0.23142	0.17118	0.058765	0.2206	0.15339	0.20739	0.25363	0.18766	0.16929	-1.7771	-2.8521	-2.1646	-2.6042	-2.7062	-2.2229	-2.7771	-2.7083	-2.25	-2.6625	-2.5333	-2.5667	-3.0021	-2.1396	-2.5146	-2.8438	169.578	347.275	233.106	451.308	265.763	425.364	437.798	475.702	447.550	306.772	433.589	494.345	280.916	468.078	249.290	466.378	0.00039466	0.00033015	0.00014074	1293.9	2.894e-06	4.8536e-06	1065.9	279.93	4.6775e-06	3.7321e-06	320.53	106.96	93.29	32.236	3.0247e-06	39.693	0.00038401	0.00035635	0.00010488	1129.5	4.0401e-06	4.0634e-06	1073.8	289.9	4.0882e-06	3.9724e-06	331.25	111.42	96.934	33.484	4.1796e-06	41.419	231.388	246.939	248.034	156.424	286.703	272.497	156.300	161.624	292.929	283.406	160.827	165.075	165.903	170.413	289.742	169.388	-8191	255	
12572.986	1	1	0	0	0.21557	0.16016	0.21735	0.32895	0.19349	0.050933	0.10612	0.25294	0.18342	0.055026	0.32571	0.13697	0.1051	0.27319	0.30098	0.087467	-1.7625	-2.7687	-2.2896	-2.4604	-2.8187	-2.2562	-2.7083	-2.7375	-2.2417	-2.7854	-2.6375	-2.5042	-2.8063	-2.2292	-2.5729	-2.9	396.060	493.904	469.174	448.787	218.130	403.345	341.423	445.949	489.989	290.611	151.290	501.995	296.578	490.348	161.955	475.409	0.00038275	0.00039137	9.8363e-05	1292.9	3.2841e-06	4.293e-06	1066.9	280.44	2.5776e-06	3.5703e-06	320.13	107.09	92.759	31.866	3.8096e-06	39.614	0.00038792	0.00036661	0.00010326	1129.6	3.9759e-06	4.0462e-06	1073.3	289.96	4.0794e-06	3.9685e-06	331.34	111.3	96.863	33.386	4.0958e-06	41.382	227.604	241.495	258.424	156.168	287.022	288.382	156.304	161.652	291.388	317.028	160.784	165.437	166.153	170.707	295.722	169.575	-8191	255	
12573.082	1	1	0	0	0.19508	0.2042	0.26095	0.46231	0.034158	0.035789	0.40952	0.18256	0.22802	0.14601	0.11317	0.28791	0.1653	0.20275	0.31224	0.16824	-1.7812	-2.6437	-2.5104	-2.4958	-2.9938	-2.2646	-2.5542	-3.0833	-2.275	-2.6208	-2.7062	-2.1437	-2.8833	-2.5104	-2.3187	-2.8438	380.848	468.998	291.798	461.236	231.041	271.948	446.618	459.987	440.221	354.682	180.526	470.020	178.044	453.370	242.074	451.293	0.00037335	0.00040615	0.00016369	1298.6	4.5987e-06	2.8225e-06	1060.7	279.94	2.9081e-06	4.8373e-06	319.77	107.31	92.949	31.824	3.2079e-06	39.577	0.00038476	0.00035681	0.00010335	1131	3.9635e-06	4.0412e-06	1072.4	290.36	4.0014e-06	3.9967e-06	331.77	111.52	96.714	33.409	4.0062e-06	41.325	229.153	237.817	244.695	156.199	277.703	311.825	156.261	161.783	289.145	279.562	160.931	165.311	166.009	170.537	301.018	169.511	-8191	255	
12573.178	1	1	0	0	0.0503	0.18816	0.33533	0.14077	0.10096	0.28024	0.11239	0.28395	0.19532	0.34226	0.19406	0.35327	0.30096	0.32697	0.21312	0.31562	-1.6208	-2.6333	-2.6229	-2.3729	-2.9083	-2.4125	-2.475	-2.8729	-2.1667	-2.6708	-2.7562	-2.1979	-2.9	-2.5146	-2.4771	-2.9875	309.502	444.702	441.398	164.398	440.955	315.465	473.235	411.862	221.600	263.320	154.249	470.792	393.789	489.889	295.228	478.113	0.00038382	0.00046068	0.00010157	1289	2.9548e-06	3.4378e-06	1065.5	279.58	2.2144e-06	4.2692e-06	320.98	107.45	93.307	32.145	4.2667e-06	39.515	0.00039154	0.00036123	0.00010276	1128	4.0152e-06	4.0388e-06	1073	289.85	4.0526e-06	3.9127e-06	331.17	111.34	96.91	33.482	4.047e-06	41.371	230.074	224.829	240.104	156.280	286.982	285.912	156.471	161.758	287.824	286.568	160.858	165.068	166.003	170.473	298.917	169.718	-8191	255	
12573.274	1	1	0	0	0.073369	0.087886	0.33167	0.20645	0.1343	0.23666	0.088516	0.092547	0.15664	0.21965	0.10114	0.19051	0.20842	0.31532	0.3388	0.12181	-1.9521	-2.5042	-2.5542	-2.4313	-2.6583	-2.6458	-2.5042	-3.0187	-2.275	-2.4	-2.9062	-2.2354	-2.8375	-2.6896	-2.3896	-2.9688	381.352	275.167	474.328	480.961	210.364	361.944	475.423	462.395	482.584	245.954	407.056	148.941	470.763	175.809	483.951	409.409	0.00038222	0.00039435	0.00011226	1296.3	4.1452e-06	3.1065e-06	1065.4	281	3.5713e-06	4.6436e-06	319.51	106.83	93.158	31.805	3.7011e-06	39.419	0.00038191	0.00036553	0.00010314	1129.1	4.0644e-06	4.0462e-06	1073.4	290.44	4.0512e-06	3.9225e-06	331.65	111.17	96.779	33.395	3.9435e-06	41.351	229.798	216.820	266.025	156.329	298.763	260.929	156.482	161.724	299.267	289.738	161.026	165.373	166.082	170.771	273.790	169.496	-8191	255	
12573.370	1	1	0	0	0.039231	0.15702	0.13817	0.29573	0.17619	0.14287	0.18545	0.12929	0.2817	0.080384	0.1621	0.26484	0.31273	0.10522	0.15253	0.26944	-1.9	-2.3167	-2.7271	-2.4813	-2.7604	-2.5875	-2.4854	-3.0479	-2.4292	-2.4688	-2.7875	-2.1146	-2.7542	-2.7687	-2.3146	-2.8229	279.874	466.498	497.138	492.743	335.750	482.942	444.372	171.139	147.254	410.147	182.398	408.004	466.391	443.113	336.759	410.853	0.00040211	0.00035284	8.8606e-05	1289.4	3.422e-06	3.579e-06	1061.6	279.3	3.5816e-06	4.7426e-06	319.09	107.18	93.003	32.065	3.5102e-06	39.467	0.00038468	0.00036649	0.00010213	1127.7	3.974e-06	3.9509e-06	1072.2	290.03	4.0985e-06	3.9942e-06	331.49	111.36	96.802	33.458	3.9567e-06	41.397	228.929	227.591	258.171	156.473	298.395	302.246	156.486	161.722	299.260	304.119	161.326	165.352	165.932	171.181	284.355	169.571	-8191	255	
12573.465	1	1	0	0	0.032639	0.17812	0.36092	0.23276	0.36122	0.10677	0.030033	0.32724	0.39786	0.1506	0.30613	0.27774	0.1906	0.23138	0.20407	0.123	-2.0458	-2.2583	-2.9604	-2.6312	-2.6333	-2.6437	-2.4021	-2.9188	-2.5958	-2.2313	-2.9583	-2.2208	-2.7062	-2.8	-2.0375	-2.8083	169.381	496.443	497.991	145.556	349.724	213.820	162.389	475.417	404.540	161.286	429.426	191.513	437.148	470.761	261.291	403.497	0.00040058	0.0003444	0.00013706	1289.6	3.3512e-06	4.7028e-06	1061.3	279.35	3.8297e-06	4.8421e-06	318.3	106.57	92.641	32.113	3.3406e-06	39.302	0.00038586	0.00036431	0.00010077	1127.4	4.1024e-06	3.9365e-06	1071.1	289.89	3.9747e-06	4.0539e-06	330.64	111.14	96.594	33.448	4.0461e-06	41.341	231.697	227.409	229.197	156.634	290.957	320.968	156.433	161.710	294.240	283.767	160.613	165.502	166.211	170.857	270.624	169.838	-8191	255	
12573.561	1	1	0	0	0.20319	0.14859	0.089312	0.27216	0.02787	0.12547	0.16186	0.14755	0.41242	0.12651	0.22454	0.19058	0.11803	0.30644	0.080813	0.075555	-2.0625	-2.0979	-2.9958	-2.5417	-2.5458	-2.7979	-2.3854	-3.0417	-2.4938	-2.325	-2.8083	-2.4333	-2.6188	-2.7583	-2.1437	-2.625	350.175	413.905	293.991	475.555	421.075	316.827	446.053	176.590	434.470	325.895	487.414	456.375	236.429	167.258	153.671	406.432	0.00037728	0.0003242	0.00010737	1286.3	4.1343e-06	5.5651e-06	1055.5	278.62	3.4826e-06	3.9305e-06	320.2	106.83	93.091	31.886	4.3168e-06	39.395	0.000376	0.00036718	0.00010139	1127.1	4.0141e-06	3.7925e-06	1069.2	289.5	4.0418e-06	3.9156e-06	331.32	111.22	96.781	33.397	3.8716e-06	41.263	229.863	225.537	229.484	156.625	308.880	283.382	156.644	161.980	276.102	310.724	160.952	165.515	166.135	170.868	299.710	169.619	-8191	255	
12573.657	1	1	0	0	0.13844	0.028564	0.12515	0.17168	0.2658	0.041627	0.20827	0.2201	0.14201	0.065418	0.12015	0.16792	0.33821	0.25055	0.10716	0.28921	-2.0708	-2.0375	-2.7708	-2.6188	-2.2708	-2.6813	-2.6083	-2.7	-2.5771	-2.1875	-2.9667	-2.5458	-2.4333	-2.9062	-2.0896	-2.6688	182.988	259.924	170.263	496.296	382.609	502.859	457.998	441.958	420.912	450.235	165.811	495.064	147.311	479.133	181.411	420.429	0.0003828	0.00027385	9.3234e-05	1289.3	3.6759e-06	2.2159e-06	1058.7	278.47	4.351e-06	4.4663e-06	319.31	106.83	92.923	31.956	3.3876e-06	39.388	0.00037558	0.00035947	9.9602e-05	1127.2	3.935e-06	3.7716e-06	1071.7	289.49	3.9772e-06	3.9804e-06	331.37	111.24	96.61	33.453	3.9375e-06	41.307	229.436	251.012	248.475	156.626	273.872	258.463	156.520	161.977	283.646	323.689	160.656	165.686	166.008	170.918	277.916	169.376	-8191	255	
12573.753	1	1	0	0	0.098642	0.086938	0.16931	0.41152	0.03391	0.23293	0.23304	0.20884	0.15294	0.32786	0.10185	0.13836	0.084474	0.13618	0.099269	0.24047	-2.2479	-2.1271	-2.7979	-2.6312	-2.3438	-3.0438	-2.2896	-2.775	-2.7833	-2.0917	-2.9458	-2.6146	-2.4313	-2.9792	-2.4083	-2.6271	200.565	195.241	149.443	153.456	441.120	370.530	492.384	367.104	277.552	381.954	404.191	477.772	153.854	455.391	224.477	367.323	0.00038822	0.00045704	0.0001202	1289.5	3.1624e-06	4.508e-06	1059.5	278.99	3.5427e-06	3.6008e-06	318.4	107.33	92.903	32.021	3.9944e-06	39.441	0.00038073	0.00035878	9.8801e-05	1126.8	4.0461e-06	3.8274e-06	1072.4	289.9	3.9612e-06	3.9492e-06	331.29	111.5	96.666	33.491	3.8875e-06	41.341	228.091	228.700	239.007	156.610	308.283	296.935	156.581	161.664	287.032	299.488	161.031	165.360	166.223	170.633	295.007	169.776	-8191	255	
12573.874	1	1	0	0	0.073266	0.1032	0.049362	0.28647	0.14819	0.045158	0.18069	0.24822	0.072315	0.066545	0.26643	0.099308	0.18813	0.044137	0.011581	0.23691	-2.2917	-2.2479	-2.6354	-2.7562	-2.3667	-2.9646	-2.5375	-2.5458	-2.5792	-2.0646	-2.65	-2.8312	-2.3417	-2.8833	-2.4437	-2.4	248.113	245.904	350.646	444.472	285.822	170.206	375.785	475.248	351.161	253.524	185.737	264.721	456.128	274.610	441.418	469.950	0.0003948	0.00047091	6.6804e-05	1292	3.4896e-06	2.1449e-06	1062.8	279.54	3.0799e-06	3.7268e-06	320.19	106.98	92.843	31.979	3.6099e-06	39.434	0.00037532	0.00035407	9.8904e-05	1130	4.0658e-06	4.0117e-06	1072.6	289.74	3.8851e-06	3.9256e-06	331.67	111.32	96.657	33.433	3.9748e-06	41.401	226.696	210.403	242.594	156.660	299.086	273.463	156.401	161.669	282.921	275.915	160.654	165.245	165.991	170.976	277.288	169.759	-8191	255	
12573.970	1	1	0	0	0.12785	0.23849	0.18158	0.36585	0.17777	0.18264	0.1199	0.12297	0.22357	0.029435	0.17092	0.14513	0.16877	0.065921	0.041422	0.039888	-2.4604	-2.0271	-2.5083	-2.8958	-2.0687	-2.95	-2.6833	-2.4	-2.9062	-2.2646	-2.6875	-2.7625	-2.3083	-2.9188	-2.4479	-2.4583	207.784	346.952	198.495	460.098	379.438	413.772	490.025	496.687	411.153	416.573	455.471	427.761	173.076	454.344	399.339	460.306	0.00038461	0.00043354	4.9863e-05	1292.1	3.2053e-06	4.1365e-06	1059.8	279.31	3.4755e-06	4.7989e-06	317.72	106.62	92.974	31.899	3.3721e-06	39.45	0.000373	0.00036772	0.00010037	1128	4.0262e-06	3.999e-06	1072	289.52	4.0664e-06	3.903e-06	330.34	111.24	96.698	33.372	3.9332e-06	41.273	229.766	218.685	248.648	156.753	291.670	294.326	156.534	161.489	299.541	303.595	160.930	165.492	166.185	170.559	298.625	169.409	-8191	255	
12574.066	1	1	0	0	0.14356	0.25051	0.12988	0.3114	0.1033	0.22253	0.17238	0.114	0.34357	0.28011	0.066235	0.11513	0.19965	0.22381	0.19428	0.089696	-2.2188	-2.2542	-2.5083	-3.0208	-2.1479	-2.6854	-2.7062	-2.3958	-2.9917	-2.4833	-2.5104	-2.9188	-2.3583	-2.9562	-2.5229	-2.2188	219.804	191.238	278.107	448.938	447.213	293.497	473.607	418.242	252.224	437.167	432.829	339.217	429.366	391.389	423.739	398.494	0.00039929	0.00042164	6.2276e-05	1287.3	2.9888e-06	1.9519e-06	1060.8	278.08	3.3402e-06	4.0509e-06	317.43	106.29	92.38	31.905	4.0047e-06	39.435	0.00037877	0.00036118	0.00010099	1127.1	4.086e-06	3.8815e-06	1070.6	288.82	3.9262e-06	3.969e-06	330.41	111.04	96.471	33.366	3.8893e-06	41.362	230.111	225.057	225.354	156.631	298.378	292.451	156.827	161.696	297.480	295.368	160.833	165.688	166.198	170.837	302.254	169.649	-8191	255	
12574.162	1	1	0	0	0.25675	0.36604	0.19127	0.042176	0.022076	0.26365	0.26406	0.24817	0.079341	0.34236	0.084036	0.20719	0.41975	0.071284	0.012585	0.48839	-2.4771	-2.3979	-2.3146	-3.0979	-2.2333	-2.7729	-2.9271	-2.3125	-2.7271	-2.3167	-2.3854	-2.9417	-2.325	-2.6396	-2.7	-2.2104	339.722	219.118	193.188	501.721	180.566	409.591	474.508	449.090	496.194	210.970	498.633	438.002	426.439	422.380	232.097	446.307	0.0003802	0.00051705	8.9687e-05	1289	3.7647e-06	4.2032e-06	1057.7	279.33	3.3473e-06	2.9366e-06	317.76	106.72	92.437	31.927	3.8341e-06	39.57	0.00037267	0.00036134	9.7029e-05	1127	3.8929e-06	3.7899e-06	1070.7	289.55	3.8428e-06	3.9092e-06	330.07	111.14	96.578	33.348	3.8481e-06	41.353	231.149	232.224	224.352	156.705	296.055	272.016	156.792	161.751	281.114	301.725	160.561	165.338	166.004	170.520	282.493	169.936	-8191	255	
12574.258	1	1	0	0	0.1324	0.27194	0.28095	0.1676	0.088526	0.28187	0.065695	0.36414	0.1497	0.11434	0.14671	0.14969	0.26468	0.20516	0.086177	0.08742	-2.4542	-2.1562	-2.0271	-3.1583	-2.2687	-2.3979	-2.9208	-2.4062	-2.8688	-2.5604	-2.3208	-3.0687	-2.225	-2.7146	-2.7125	-2.4083	296.666	433.047	396.097	487.806	202.750	263.605	400.062	153.747	167.008	475.147	314.745	452.899	503.497	220.916	213.154	298.871	0.00039859	0.0003876	0.00010451	1287.5	2.678e-06	3.163e-06	1059.1	279.21	3.0833e-06	4.6167e-06	318.51	106.52	92.32	31.737	3.8517e-06	39.183	0.00037548	0.00035497	9.882e-05	1128.3	3.9014e-06	3.7888e-06	1070.9	289.54	3.8431e-06	3.8137e-06	330.65	111.28	96.517	33.332	3.8058e-06	41.258	229.291	209.101	260.319	156.752	289.521	296.875	156.671	161.972	284.772	319.715	161.105	165.494	166.183	170.748	268.157	169.769	-8191	255	
12574.355	1	1	0	0	0.21231	0.088916	0.12682	0.45777	0.097867	0.18898	0.24009	0.27189	0.044328	0.11194	0.18054	0.026371	0.10461	0.12031	0.14277	0.070137	-2.3729	-2.5479	-2.1583	-3.0604	-2.2354	-2.4417	-2.9979	-2.3146	-2.6688	-2.6875	-2.275	-3	-2.4979	-2.4833	-2.8729	-2.3833	151.787	350.124	366.169	485.876	361.714	227.656	434.149	167.101	399.491	206.822	386.767	188.741	201.329	171.954	169.456	257.194	0.00038472	0.00050054	9.2288e-05	1289.6	4.0021e-06	2.6275e-06	1060.7	278.39	3.2125e-06	4.2074e-06	318.11	107.03	92.795	31.907	2.1906e-06	39.413	0.00037524	0.0003537	9.8443e-05	1127.4	3.919e-06	3.8787e-06	1072.2	289.25	3.9246e-06	3.8053e-06	330.45	111.3	96.609	33.385	3.8635e-06	41.339	231.197	242.438	241.376	156.740	291.734	263.671	156.767	161.728	307.000	274.085	161.209	165.600	166.035	170.802	284.650	170.041	-8191	255	
12574.474	1	1	0	0	0.28449	0.014081	0.10199	0.23221	0.14109	0.1604	0.33703	0.23151	0.10273	0.085763	0.16893	0.22274	0.050495	0.14575	0.11174	0.11496	-2.2896	-2.4417	-2.0771	-3.0479	-2.2229	-2.2938	-3.0021	-2.275	-2.6188	-2.7833	-2.3417	-2.8833	-2.7292	-2.4667	-2.9208	-2.3542	379.477	317.905	497.078	438.733	441.261	412.798	491.688	444.073	315.970	300.765	463.822	408.042	251.211	294.112	239.027	239.316	0.00040516	0.00043762	0.00010303	1291.7	5.0296e-06	4.1513e-06	1061	278.09	2.6247e-06	3.9262e-06	317.42	106.82	92.508	31.948	2.4275e-06	39.553	0.00036716	0.00034239	9.8056e-05	1129.2	3.9596e-06	3.8518e-06	1070.9	288.86	3.9294e-06	3.8681e-06	330.07	111.22	96.585	33.404	3.7935e-06	41.3	228.206	256.986	225.796	156.425	286.586	316.473	156.783	161.894	284.136	283.531	160.962	165.354	166.233	170.884	309.791	169.641	-8191	255	
12574.570	1	1	0	0	0.1408	0.29839	0.30892	0.17575	0.17372	0.28043	0.22969	0.1479	0.12442	0.18923	0.184	0.073547	0.29063	0.25809	0.14316	0.34247	-2.0875	-2.5979	-2.0396	-2.9396	-2.4354	-2.4771	-3.2708	-2.3333	-2.475	-2.7042	-2.2375	-3.0542	-2.7583	-2.1729	-2.8458	-2.2875	187.628	426.786	478.317	463.837	380.989	286.789	423.326	421.524	168.270	164.022	478.011	156.941	502.521	413.718	148.332	194.757	0.00038126	0.00054494	0.00012206	1288.5	3.5812e-06	5.0718e-06	1060.9	278.26	2.9663e-06	5.3947e-06	318.29	106.98	92.247	31.846	4.8812e-06	39.15	0.00037861	0.00035175	9.9211e-05	1127.6	3.9286e-06	3.9201e-06	1070.9	288.97	3.9242e-06	3.7726e-06	330.72	111.17	96.508	33.384	3.8805e-06	41.234	232.585	231.406	251.873	156.670	301.443	273.059	156.530	161.894	291.188	288.096	161.062	165.488	166.298	170.959	286.244	169.717	-8191	255	
12574.666	1	1	0	0	0.22492	0.063727	0.28646	0.029059	0.19731	0.087028	0.32754	0.12002	0.055147	0.20842	0.22284	0.11692	0.22608	0.063583	0.053718	0.20117	-2.2396	-2.7354	-2.2292	-3.05	-2.6896	-2.2646	-3.0563	-2.5563	-2.3083	-2.8458	-2.2938	-2.8396	-2.9292	-2.275	-2.7646	-2.5396	491.925	351.617	237.953	468.025	351.202	214.096	465.115	376.863	299.513	150.573	501.335	446.655	446.005	388.617	364.119	477.004	0.00039778	0.0004748	0.00011795	1286.6	5.0729e-06	4.0205e-06	1057.4	279.18	4.5305e-06	5.7742e-06	317.63	106.97	92.637	31.601	4.3237e-06	39.296	0.00037482	0.00034365	9.8556e-05	1127.3	3.799e-06	3.7707e-06	1070.1	289.17	3.9499e-06	3.8086e-06	330.39	111.18	96.495	33.28	3.7991e-06	41.239	230.190	236.442	232.661	156.588	290.038	272.343	156.643	162.024	306.050	299.277	161.129	165.434	166.155	170.527	297.119	169.798	-8191	255	
12574.762	1	1	0	0	0.073787	0.14338	0.080244	0.21068	0.13281	0.10057	0.26639	0.2064	0.16869	0.064438	0.18841	0.062493	0.17887	0.35097	0.16472	0.082396	-2.0229	-2.7917	-2.2042	-2.8667	-2.5792	-2.1271	-3.0479	-2.4021	-2.2208	-2.8146	-2.3438	-2.6167	-2.8063	-2.1875	-2.7229	-2.525	242.461	437.757	249.075	469.426	402.693	397.262	455.104	488.962	322.144	425.012	465.012	448.342	160.438	493.325	369.434	479.061	0.00038864	0.00053944	0.00010604	1282	4.2579e-06	4.7043e-06	1056.5	278.4	3.6055e-06	3.2393e-06	317.73	106.37	92.545	31.676	4.0617e-06	39.419	0.00037189	0.00034945	9.922e-05	1126.5	3.9494e-06	3.7356e-06	1071.5	289.19	3.9595e-06	3.7249e-06	329.78	111.13	96.612	33.36	3.8434e-06	41.301	229.850	215.805	228.114	156.666	304.234	288.285	156.815	162.117	305.635	300.759	161.219	165.613	166.429	170.885	298.209	169.850	-8191	255	
#DATA ENDS
