BOXY.EXE: ISS Imagent and Oximeter Data Acquisition Program Version 0.80
Ascii Record File

#ACQ INFORMATION
2  Detector Channels 
16  External MUX Channels 
1  Auxiliary Channels 
5000  Waveform (CCF) Frequency (Hz)
1  Waveforms Skipped 
30  Waveforms Averaged 
1  Cycles Averaged 
16  Acquisitions per Waveform 
10.0806  Updata Rate (Hz) 

#FILE INFORMATION
TRUE -- External MUX Channel results are PARSED.
FALSE -- AC DC and Phase are NOT grouped.
TRUE -- Companion Program Settings File CREATED.
FALSE -- AC data not excluded
FALSE -- DC data not excluded
FALSE -- Phase data not excluded
FALSE -- Auxillary Chn. data not excluded
Tab delimiters

#CALIBRATION STATE
TRUE -- Waveform Calibration Values APPLIED.


#AUX CALIBRATION VALUES
Val Type	aux-1	

Term	1.0000e+00	
Factor	0.0000e+00	


#WF CALIBRATION VALUES
A = Detector Channel
Val Type	A-AC1	A-AC2	A-AC3	A-AC4	A-AC5	A-AC6	A-AC7	A-AC8	A-AC9	A-AC10	A-AC11	A-AC12	A-AC13	A-AC14	A-AC15	A-AC16	A-DC1	A-DC2	A-DC3	A-DC4	A-DC5	A-DC6	A-DC7	A-DC8	A-DC9	A-DC10	A-DC11	A-DC12	A-DC13	A-DC14	A-DC15	A-DC16	A-Ph1	A-Ph2	A-Ph3	A-Ph4	A-Ph5	A-Ph6	A-Ph7	A-Ph8	A-Ph9	A-Ph10	A-Ph11	A-Ph12	A-Ph13	A-Ph14	A-Ph15	A-Ph16	

Term	0.00000e+00	0.00000e+00	0.00000e+00	0.00000e+00	0.00000e+00	0.00000e+00	0.00000e+00	0.00000e+00	0.00000e+00	0.00000e+00	0.00000e+00	0.00000e+00	0.00000e+00	0.00000e+00	0.00000e+00	0.00000e+00	0.00000e+00	0.00000e+00	0.00000e+00	0.00000e+00	0.00000e+00	0.00000e+00	0.00000e+00	0.00000e+00	0.00000e+00	0.00000e+00	0.00000e+00	0.00000e+00	0.00000e+00	0.00000e+00	0.00000e+00	0.00000e+00	0.00000e+00	0.00000e+00	0.00000e+00	0.00000e+00	0.00000e+00	0.00000e+00	0.00000e+00	0.00000e+00	0.00000e+00	0.00000e+00	0.00000e+00	0.00000e+00	0.00000e+00	0.00000e+00	0.00000e+00	0.00000e+00	
Factor	1.00000e+00	1.00000e+00	1.00000e+00	1.00000e+00	1.00000e+00	1.00000e+00	1.00000e+00	1.00000e+00	1.00000e+00	1.00000e+00	1.00000e+00	1.00000e+00	1.00000e+00	1.00000e+00	1.00000e+00	1.00000e+00	1.00000e+00	1.00000e+00	1.00000e+00	1.00000e+00	1.00000e+00	1.00000e+00	1.00000e+00	1.00000e+00	1.00000e+00	1.00000e+00	1.00000e+00	1.00000e+00	1.00000e+00	1.00000e+00	1.00000e+00	1.00000e+00	X	X	X	X	X	X	X	X	X	X	X	X	X	X	X	X	

B = Detector Channel
Val Type	B-AC1	B-AC2	B-AC3	B-AC4	B-AC5	B-AC6	B-AC7	B-AC8	B-AC9	B-AC10	B-AC11	B-AC12	B-AC13	B-AC14	B-AC15	B-AC16	B-DC1	B-DC2	B-DC3	B-DC4	B-DC5	B-DC6	B-DC7	B-DC8	B-DC9	B-DC10	B-DC11	B-DC12	B-DC13	B-DC14	B-DC15	B-DC16	B-Ph1	B-Ph2	B-Ph3	B-Ph4	B-Ph5	B-Ph6	B-Ph7	B-Ph8	B-Ph9	B-Ph10	B-Ph11	B-Ph12	B-Ph13	B-Ph14	B-Ph15	B-Ph16	

Term	0.00000e+00	0.00000e+00	0.00000e+00	0.00000e+00	0.00000e+00	0.00000e+00	0.00000e+00	0.00000e+00	0.00000e+00	0.00000e+00	0.00000e+00	0.00000e+00	0.00000e+00	0.00000e+00	0.00000e+00	0.00000e+00	0.00000e+00	0.00000e+00	0.00000e+00	0.00000e+00	0.00000e+00	0.00000e+00	0.00000e+00	0.00000e+00	0.00000e+00	0.00000e+00	0.00000e+00	0.00000e+00	0.00000e+00	0.00000e+00	0.00000e+00	0.00000e+00	-2.63813e+02	-1.35610e+02	-1.20718e+02	-1.83142e+02	-1.03639e+02	-7.76492e+01	-1.58739e+02	-1.62015e+02	-6.67048e+01	-5.05097e+01	-1.74416e+02	-1.69969e+02	-1.82317e+02	-1.77446e+02	-7.21603e+01	-1.50100e+02	
Factor	6.34764e-05	1.25928e-04	3.90822e-05	1.62229e-01	1.76456e-06	1.41241e-06	1.55923e-01	5.22478e-02	2.01247e-06	1.74817e-06	8.59677e-02	2.68576e-02	3.53234e-02	8.80985e-03	1.52861e-06	1.26090e-02	2.79852e-06	2.94799e-06	8.21211e-07	8.30312e-02	3.20143e-08	3.23669e-08	7.47397e-02	2.68061e-02	3.19947e-08	3.24091e-08	4.26679e-02	1.33414e-02	1.79389e-02	4.54378e-03	3.21625e-08	6.28425e-03	X	X	X	X	X	X	X	X	X	X	X	X	X	X	X	X	



#DISTANCE SETTINGS
A = Detector Channel
A-1	A-2	A-3	A-4	A-5	A-6	A-7	A-8	A-9	A-10	A-11	A-12	A-13	A-14	A-15	A-16	

2.5000e+00	3.0000e+00	2.5000e+00	3.0000e+00	2.0000e+00	3.0000e+00	1.5000e+00	3.0000e+00	3.0000e+00	3.0000e+00	3.0000e+00	3.0000e+00	3.0000e+00	3.0000e+00	1.5000e+00	3.0000e+00	

B = Detector Channel
B-1	B-2	B-3	B-4	B-5	B-6	B-7	B-8	B-9	B-10	B-11	B-12	B-13	B-14	B-15	B-16	

1.0000e+01	1.0000e+01	1.0000e+01	1.4400e+00	1.0000e+01	1.0000e+01	1.5100e+00	1.9400e+00	1.0000e+01	1.0000e+01	1.9900e+00	2.4900e+00	2.4100e+00	2.9000e+00	1.0000e+01	2.9800e+00	




#DATA BEGINS
time	group	step	mark	flag	A-AC1	A-AC2	A-AC3	A-AC4	A-AC5	A-AC6	A-AC7	A-AC8	A-AC9	A-AC10	A-AC11	A-AC12	A-AC13	A-AC14	A-AC15	A-AC16	A-DC1	A-DC2	A-DC3	A-DC4	A-DC5	A-DC6	A-DC7	A-DC8	A-DC9	A-DC10	A-DC11	A-DC12	A-DC13	A-DC14	A-DC15	A-DC16	A-Ph1	A-Ph2	A-Ph3	A-Ph4	A-Ph5	A-Ph6	A-Ph7	A-Ph8	A-Ph9	A-Ph10	A-Ph11	A-Ph12	A-Ph13	A-Ph14	A-Ph15	A-Ph16	B-AC1	B-AC2	B-AC3	B-AC4	B-AC5	B-AC6	B-AC7	B-AC8	B-AC9	B-AC10	B-AC11	B-AC12	B-AC13	B-AC14	B-AC15	B-AC16	B-DC1	B-DC2	B-DC3	B-DC4	B-DC5	B-DC6	B-DC7	B-DC8	B-DC9	B-DC10	B-DC11	B-DC12	B-DC13	B-DC14	B-DC15	B-DC16	B-Ph1	B-Ph2	B-Ph3	B-Ph4	B-Ph5	B-Ph6	B-Ph7	B-Ph8	B-Ph9	B-Ph10	B-Ph11	B-Ph12	B-Ph13	B-Ph14	B-Ph15	B-Ph16	aux-1	digaux	

6418.498	1	1	0	256	0.088801	0.062613	0.22618	0.064478	0.14888	0.06909	0.44751	0.022967	0.094129	0.099267	0.11006	0.33459	0.30082	0.2774	0.31546	0.19774	-2.4313	-1.8979	-2.6479	-2.8208	-1.9271	-2.5646	-2.3312	-2.2521	-2.6937	-2.1063	-2.4021	-2.5792	-2.1229	-2.7292	-2.2333	-2.2604	-21.830	140.375	-21.240	245.627	48.901	63.509	262.787	266.303	56.475	294.177	-11.047	233.448	198.817	254.714	64.747	293.309	0.00061774	0.00058839	0.0001969	1395.5	7.7772e-06	5.6538e-06	1388.4	386.51	7.6078e-06	6.3316e-06	442.56	151.83	131.58	45.752	6.046e-06	55.892	0.00035838	0.00034091	9.7546e-05	1401.1	3.8925e-06	3.9289e-06	1394.7	390.72	4.0814e-06	4.0729e-06	444.99	153.75	132.88	46.408	4.233e-06	56.648	19.798	-9.591	5.030	-48.926	68.062	101.689	-49.217	-44.536	111.475	116.135	-44.940	-40.543	-40.309	-35.694	88.182	-36.352	-8191	255	
6418.595	1	1	0	0	0.095351	0.17149	0.11369	0.26662	0.24264	0.19958	0.35405	0.025825	0.33111	0.25389	0.25298	0.11886	0.22191	0.15976	0.13194	0.1585	-2.3479	-1.9729	-2.5062	-2.6542	-1.8854	-2.7062	-2.5583	-2.3208	-2.7833	-2.1021	-2.6896	-2.7854	-2.275	-2.8146	-2.4146	-2.2438	-3.824	192.170	39.834	-36.239	278.069	175.115	243.236	164.247	222.406	177.675	200.944	75.481	215.465	233.226	279.088	272.714	0.00053538	0.00012768	0.00011675	1372.1	1.0072e-05	2.2058e-06	1370.4	380.39	3.9996e-06	3.5235e-06	433.65	147.92	128.51	44.388	3.3163e-06	54.623	0.00040671	0.00038832	0.00010713	1381	4.1912e-06	4.1231e-06	1379.6	383.14	3.9859e-06	3.9769e-06	437.14	149.57	129.26	44.998	3.7077e-06	55.267	26.535	34.158	38.581	-48.955	68.487	61.682	-48.787	-44.338	105.630	85.919	-44.936	-40.252	-40.117	-35.619	83.257	-36.102	-8191	255	
6418.715	1	1	0	0	0.11792	0.19045	0.18168	0.18058	0.15737	0.11881	0.25808	0.20671	0.12272	0.052013	0.026793	0.26739	0.10412	0.21667	0.24021	0.018726	-2.2938	-1.9188	-2.1583	-2.9146	-1.8813	-2.5812	-2.8333	-2.0521	-2.7479	-2.1896	-2.4146	-2.6937	-2.0396	-2.35	-2.4792	-1.9979	102.603	-60.847	110.665	284.672	56.605	28.729	172.120	245.227	161.692	231.732	274.719	261.131	201.246	-53.615	121.067	56.267	0.00047407	0.00044656	0.00015118	1366.9	8.4942e-06	4.4998e-06	1362.4	375.49	5.5888e-06	7.2814e-06	429.64	146.02	126.49	43.468	4.5831e-06	53.76	0.00034782	0.0003279	8.9651e-05	1372.5	3.5882e-06	3.5305e-06	1369.8	378.32	3.5039e-06	3.5529e-06	432.87	147.49	127.2	44.101	3.5832e-06	54.453	31.473	4.119	44.979	-48.747	82.378	54.690	-49.015	-44.210	62.682	84.025	-44.713	-40.341	-39.747	-35.449	117.860	-36.014	-8191	255	
6418.811	1	1	0	0	0.21418	0.17665	0.20889	0.22909	0.092081	0.20538	0.18201	0.24439	0.23357	0.36847	0.14685	0.15639	0.078113	0.10744	0.35285	0.1172	-2.45	-2.0771	-2.2271	-2.8167	-2.1417	-2.475	-2.8375	-2.1917	-2.5438	-2.2542	-2.3	-2.8812	-1.9542	-2.5563	-2.4771	-2.0271	-58.119	202.020	1.018	262.921	33.092	92.049	282.433	-41.345	262.026	170.395	223.788	231.081	-29.143	217.099	281.510	221.996	0.00053056	0.00055428	0.00026887	1361	4.1674e-06	3.7075e-06	1360.8	371.65	5.0231e-06	5.5276e-06	426.31	143.19	124.44	42.613	8.3019e-06	53.047	0.00033565	0.00032526	9.1984e-05	1367.5	3.6489e-06	3.5767e-06	1364.3	375.36	3.5719e-06	3.6358e-06	429.55	144.8	125.15	43.353	3.6452e-06	53.646	29.255	-1.978	40.213	-48.550	63.398	91.068	-48.708	-44.229	108.449	69.937	-44.579	-40.326	-39.792	-34.732	71.497	-35.715	-8191	255	
6418.908	1	1	0	0	0.13841	0.025001	0.11225	0.10881	0.18348	0.085682	0.081219	0.12393	0.20458	0.12327	0.27794	0.047147	0.10613	0.13076	0.081001	0.12309	-2.3063	-2.3229	-2.0563	-2.8083	-2.0979	-2.3792	-2.8812	-2.1896	-2.6792	-2.1958	-2.1937	-2.8312	-2.1583	-2.3708	-2.6083	-2.0583	164.811	25.316	-42.801	294.991	198.160	67.019	294.755	-56.601	26.681	182.648	265.188	42.031	-49.137	-30.266	184.299	187.316	0.00048228	0.00047197	0.00015056	1353.3	3.8957e-06	3.38e-06	1353	369.67	3.8557e-06	3.3442e-06	423.03	142.03	122.68	42.094	3.5794e-06	52.084	0.00034093	0.00032454	9.1319e-05	1358.8	3.5638e-06	3.556e-06	1359.1	372.5	3.4809e-06	3.469e-06	425.82	143.38	123.67	42.801	3.4464e-06	53.048	12.815	18.701	23.170	-48.344	107.528	85.727	-49.104	-44.261	59.292	87.956	-44.847	-40.655	-40.252	-35.306	45.758	-36.209	-8191	255	
6419.026	1	1	0	0	0.054559	0.050179	0.12268	0.20198	0.15943	0.15867	0.23564	0.19255	0.25376	0.049395	0.18531	0.25233	0.12241	0.10771	0.23759	0.12026	-1.9792	-2.3812	-2.0354	-3.0167	-2.1646	-2.3833	-3.0792	-2.3187	-2.5687	-2.6458	-2.1458	-2.7354	-2.3833	-2.2208	-2.7396	-2.0646	-31.307	69.041	155.541	248.382	56.232	160.311	201.824	222.686	-29.376	-3.009	260.132	-38.618	44.948	270.179	111.723	39.755	0.00048366	0.00063755	9.9644e-05	1350.9	4.4764e-06	4.2854e-06	1342.6	366.89	4.0741e-06	7.4751e-06	421.24	141.05	121.8	41.693	3.7839e-06	52.259	0.00032825	0.00031319	8.609e-05	1357.3	3.4451e-06	3.4322e-06	1351.8	370.07	3.4458e-06	3.3849e-06	423.29	142.23	122.57	42.433	3.4663e-06	52.807	25.741	25.939	50.693	-48.921	39.138	87.601	-48.978	-44.048	94.434	128.993	-44.761	-40.263	-40.007	-35.254	127.260	-35.681	-8191	255	
6419.098	1	1	0	0	0.11324	0.14339	0.062904	0.32359	0.20322	0.10268	0.17639	0.030503	0.15554	0.17048	0.051136	0.19449	0.21892	0.096646	0.087602	0.19188	-2.0667	-2.5083	-1.8729	-2.8146	-2.2771	-2.1562	-2.9062	-2.1292	-2.3146	-2.6667	-2.1417	-2.7562	-2.6	-2.2271	-2.9167	-2.2188	232.275	-20.944	284.096	201.984	117.492	290.173	232.100	208.865	78.133	10.248	-48.128	169.085	260.681	-56.442	49.569	1.926	0.0004751	0.00059374	7.7534e-05	1340.6	2.2658e-06	5.6523e-06	1337.5	363.59	4.6269e-06	3.0888e-06	418.46	139.53	120.89	41.455	4.0587e-06	51.976	0.00032671	0.00031525	8.5473e-05	1348	3.4281e-06	3.4455e-06	1345.2	367.3	3.4526e-06	3.4508e-06	420.96	141.17	121.72	42.173	3.4418e-06	52.521	22.819	27.327	48.793	-48.817	79.521	56.806	-48.926	-44.079	105.747	109.323	-44.692	-40.267	-39.855	-35.120	150.012	-35.722	-8191	255	
6419.196	1	1	0	0	0.16649	0.1609	0.34144	0.1324	0.065756	0.11581	0.26116	0.5241	0.038656	0.14786	0.29156	0.10897	0.1902	0.17107	0.089185	0.16751	-1.8958	-2.6917	-1.9562	-2.6375	-2.6271	-2.2167	-2.9208	-2.3604	-2.1604	-2.7354	-2.3479	-2.5479	-2.4208	-2.2562	-2.5625	-2.2083	94.229	69.595	-56.511	236.332	197.203	276.814	268.788	261.043	49.740	133.513	228.992	193.849	145.331	194.695	199.554	114.564	0.00039318	0.00060248	0.00019671	1343.7	5.4382e-06	7.0852e-06	1332	362.51	5.5347e-06	8.251e-06	417.15	139.13	120.33	41.547	6.2356e-06	51.642	0.00032884	0.00030817	8.5974e-05	1345	3.4488e-06	3.455e-06	1340.6	365.24	3.4669e-06	3.3365e-06	419.77	140.56	121.13	42.017	3.4868e-06	52.322	17.653	3.900	44.942	-48.737	89.097	104.812	-48.690	-43.924	106.330	97.098	-44.787	-40.081	-39.644	-35.049	113.535	-35.656	-8191	255	
6419.315	1	1	0	0	0.12541	0.19249	0.20659	0.1996	0.11431	0.13121	0.27908	0.36133	0.12571	0.1837	0.28874	0.32546	0.086846	0.04519	0.18927	0.21118	-1.8417	-2.6833	-2.0625	-2.8312	-2.475	-2.0917	-2.6271	-2.3312	-2.3438	-2.7146	-2.2917	-2.6125	-2.6979	-2.0938	-2.7771	-2.6042	176.829	-52.512	236.939	265.420	144.143	167.106	214.564	224.396	134.034	-7.882	240.968	242.090	-43.152	276.978	105.234	295.435	0.00040603	0.00044118	0.00019087	1340.9	1.9289e-06	5.5386e-06	1333	360.52	5.6663e-06	7.7745e-06	418.39	139.42	120.61	41.554	2.7874e-06	51.551	0.00032953	0.00031259	8.6874e-05	1346.2	3.4469e-06	3.3614e-06	1339.7	365.01	3.4168e-06	3.3868e-06	420.12	140.66	121.24	42.041	3.4299e-06	52.284	19.732	24.191	19.381	-48.626	92.493	73.351	-48.631	-43.957	71.720	102.597	-44.737	-40.393	-39.533	-35.011	89.581	-35.487	-8191	255	
6419.411	1	1	0	0	0.13441	0.08489	0.074021	0.37863	0.074169	0.13262	0.2679	0.20042	0.23888	0.11673	0.10412	0.11948	0.24695	0.24591	0.1094	0.13977	-1.6646	-3.0187	-2.2583	-2.5062	-2.7271	-1.8708	-2.7917	-2.6833	-2.2479	-2.7292	-2.4854	-2.5563	-2.8333	-2.1542	-2.6167	-2.3833	49.323	-59.275	292.213	278.423	81.459	96.972	255.766	216.298	284.414	289.945	274.058	-61.833	4.041	294.172	147.464	208.685	0.00063316	0.00056851	7.9757e-05	1336.4	6.2098e-06	4.9493e-06	1337.6	363.39	7.5065e-06	8.9358e-06	417.69	138.72	120.5	41.349	5.6084e-06	51.586	0.00032332	0.00030546	8.6793e-05	1344.9	3.4026e-06	3.4504e-06	1343.4	365.73	3.462e-06	3.3991e-06	419.58	140.11	121.17	41.961	3.4438e-06	52.253	13.735	37.315	30.276	-48.795	73.249	62.603	-48.902	-44.103	89.764	81.920	-44.695	-40.157	-39.452	-34.949	110.286	-35.511	-8191	255	
6419.507	1	1	0	0	0.37612	0.18654	0.052622	0.32015	0.089589	0.27293	0.14569	0.1029	0.20292	0.066858	0.22392	0.21958	0.11604	0.073774	0.15031	0.35135	-1.6271	-2.8083	-2.2292	-2.675	-2.6646	-2.0375	-2.7667	-2.8604	-2.1188	-2.7771	-2.3563	-2.4208	-2.6417	-2.0021	-2.3167	-2.6396	170.458	82.290	184.200	227.532	207.841	254.927	282.183	170.714	-33.964	-3.938	146.587	288.059	-14.036	-15.793	111.816	-32.725	0.00048118	0.00022614	0.0001333	1340.9	4.0298e-06	3.8048e-06	1333.4	360.98	4.4775e-06	6.5447e-06	415.9	138.34	119.67	41.251	1.4539e-06	51.202	0.00033086	0.00031791	8.8547e-05	1345	3.4864e-06	3.428e-06	1340.3	364.15	3.4851e-06	3.354e-06	417.89	139.87	120.68	41.821	3.4605e-06	51.953	25.210	39.954	47.194	-48.640	63.809	53.118	-48.870	-43.678	92.411	111.533	-44.540	-40.469	-39.706	-34.725	161.996	-35.705	-8191	255	
6419.628	1	1	0	0	0.1624	0.075557	0.079424	0.33022	0.19753	0.23684	0.10121	0.089595	0.21667	0.071195	0.063153	0.27093	0.16556	0.14319	0.12979	0.16206	-1.5521	-2.4875	-2.2167	-2.3375	-2.7167	-2.1125	-2.8354	-2.6562	-1.9479	-2.5333	-2.4313	-2.2042	-2.8937	-2.3125	-2.4083	-2.7729	197.383	-28.268	291.546	241.354	76.045	144.256	243.543	266.492	197.791	-49.042	55.293	227.336	137.122	228.450	-28.961	166.484	0.00057776	0.00033309	0.00013291	1332.8	6.8842e-06	3.3257e-06	1332.7	358.3	9.6163e-06	3.4748e-06	413.56	137.66	118.82	40.942	6.9972e-06	51.144	0.00032278	0.00031656	8.5864e-05	1338.7	3.4162e-06	3.4512e-06	1336.1	362.31	3.4006e-06	3.3946e-06	416.33	139.25	119.99	41.622	3.3811e-06	51.875	23.692	26.431	35.739	-48.658	114.951	106.455	-48.764	-43.642	87.807	148.390	-44.250	-40.118	-39.703	-34.685	102.501	-35.433	-8191	255	
6419.699	1	1	0	0	0.24297	0.059467	0.1061	0.083593	0.12885	0.020232	0.33379	0.16784	0.31641	0.21801	0.25707	0.060632	0.02677	0.29525	0.12309	0.1601	-1.5208	-2.6771	-2.4208	-2.2562	-2.8438	-2.1458	-2.6063	-2.8708	-1.9646	-2.7917	-2.6354	-2.3833	-3	-2.3396	-2.3208	-3.0521	87.711	139.043	33.106	-22.403	245.872	-19.776	230.564	160.130	-10.792	-25.686	245.574	125.232	137.653	-54.813	68.334	186.986	0.00049913	0.00057364	0.00027435	1331.4	3.1157e-06	5.5279e-06	1328.3	357.87	3.0039e-06	6.7169e-06	414.08	137.69	118.89	41.031	5.247e-06	51.351	0.0003169	0.00030986	8.4277e-05	1337.3	3.3296e-06	3.3516e-06	1332	361.16	3.3297e-06	3.2957e-06	416.08	139.08	119.77	41.581	3.3005e-06	51.835	30.317	23.260	21.512	-48.721	46.453	109.854	-48.729	-43.852	287.259	107.933	-44.362	-39.829	-39.153	-34.901	100.434	-35.461	-8191	255	
6419.796	1	1	0	0	0.16779	0.25093	0.047023	0.22976	0.099065	0.060382	0.22898	0.19471	0.30006	0.047544	0.052595	0.24842	0.17027	0.20092	0.15373	0.096211	-1.5938	-2.5521	-2.5292	-2.2833	-2.5896	-2.2354	-2.6125	-2.75	-1.9729	-2.5187	-2.7625	-2.2375	-2.7417	-2.5167	-2.1042	-2.8875	220.142	184.984	295.861	289.403	286.306	17.996	193.352	115.486	-59.358	236.851	-56.837	225.395	294.270	239.772	64.945	271.391	0.00043566	0.00053298	0.00011401	1337.2	2.4647e-06	3.4221e-06	1320.5	357.33	4.9332e-06	2.5085e-06	411.74	137.04	118.58	40.674	3.7748e-06	51.132	0.00031415	0.00030065	8.4236e-05	1337.5	3.3088e-06	3.2726e-06	1332.1	361.15	3.3896e-06	3.3019e-06	414.69	138.72	119.72	41.492	3.3172e-06	51.719	25.987	18.085	39.763	-48.756	107.526	62.125	-50.869	-45.729	114.041	122.616	-46.376	-42.024	-41.533	-36.814	67.186	-37.424	-8191	255	
6419.892	1	1	0	0	0.24905	0.29162	0.23179	0.4014	0.10202	0.20893	0.11562	0.16988	0.18332	0.16039	0.144	0.15137	0.10341	0.21119	0.10969	0.14237	-1.6542	-2.4042	-2.6833	-2.0979	-2.6188	-2.2333	-2.2833	-2.7646	-2.2771	-2.3646	-2.6646	-2.1542	-2.7333	-2.4729	-2.2313	-2.8333	220.975	274.641	102.086	267.039	231.132	-15.219	236.113	260.670	144.325	247.432	86.551	281.828	264.353	261.920	290.351	-5.502	0.00064667	0.00049197	0.00018857	1325.6	9.7174e-06	4.4369e-06	1323.5	356.92	4.5143e-06	6.5206e-06	414.41	137.36	118.59	41.024	7.6487e-06	51.033	0.00031367	0.00030023	8.2889e-05	1333.8	3.3374e-06	3.3672e-06	1332.5	360.6	3.362e-06	3.3208e-06	415.49	138.95	119.76	41.563	3.2957e-06	51.799	20.749	3.552	58.562	-50.619	85.966	101.247	-50.392	-45.438	163.203	118.217	-45.111	-40.570	-40.598	-35.437	99.618	-36.329	-8191	255	
6420.011	1	1	0	0	0.20232	0.14292	0.19769	0.48703	0.28243	0.065896	0.22109	0.15459	0.26283	0.0936	0.13982	0.2993	0.24864	0.35056	0.12276	0.14979	-1.6646	-2.3604	-2.7167	-2.375	-2.6875	-2.4896	-2.3688	-3.075	-2.3271	-2.35	-2.7625	-2.2125	-2.6562	-2.5167	-2.0271	-2.7958	89.013	-4.910	186.087	280.268	-6.072	137.025	216.097	220.420	150.785	54.269	187.265	-19.593	192.591	273.649	249.728	272.966	0.00055419	0.00028059	0.00014817	1327.1	5.5584e-06	3.6247e-06	1325.4	357.7	5.3512e-06	3.7489e-06	411.77	136.26	118.46	40.717	5.1607e-06	51.056	0.00031802	0.00030406	8.35e-05	1334	3.316e-06	3.2394e-06	1331.7	360.53	3.2613e-06	3.2182e-06	414.53	138.44	119.55	41.364	3.1793e-06	51.631	27.918	30.230	82.101	-49.087	85.382	106.118	-49.419	-44.238	116.112	116.361	-44.721	-40.448	-39.962	-35.377	94.084	-36.156	-8191	255	
6420.107	1	1	0	0	0.22365	0.099241	0.25001	0.29579	0.15096	0.10753	0.29194	0.14638	0.19501	0.10502	0.080093	0.14823	0.1554	0.095332	0.095891	0.038297	-1.8917	-2.0833	-2.5021	-2.2583	-2.5792	-2.4833	-2.4021	-2.675	-2.3958	-2.3187	-2.8958	-2.2562	-2.55	-2.7333	-1.925	-2.8771	-36.205	168.267	290.956	271.547	62.346	147.582	238.598	16.345	2.729	147.430	10.327	288.887	150.836	266.092	212.055	-23.877	0.00042666	0.00048301	0.00019512	1328.1	2.6571e-06	5.2377e-06	1323.3	356.67	6.1773e-06	6.9291e-06	410.8	136.63	118.31	40.752	5.1935e-06	50.938	0.00029922	0.00028545	7.9136e-05	1331.3	3.2128e-06	3.0666e-06	1328	359.4	3.1704e-06	3.1217e-06	413.37	138.27	119.26	41.339	3.1814e-06	51.571	17.536	48.214	42.404	-49.259	31.932	47.308	-49.158	-44.163	60.603	93.373	-44.909	-40.426	-39.826	-35.118	119.484	-35.826	-8191	255	
6420.203	1	1	0	0	0.090139	0.090945	0.22939	0.2361	0.20901	0.089831	0.32215	0.11034	0.12143	0.18825	0.31758	0.11704	0.27255	0.22421	0.13454	0.080801	-1.9396	-1.8771	-2.6396	-2.3146	-2.3729	-2.7667	-2.2521	-2.8521	-2.5146	-2.3042	-2.9625	-2.4708	-2.6167	-2.8146	-2.0812	-2.8292	-3.524	97.615	215.561	-48.293	150.333	271.111	229.896	-56.813	-62.234	39.397	28.688	247.555	3.099	-28.862	106.658	252.668	0.00053596	0.0005314	7.6018e-05	1327.3	4.8526e-06	6.601e-06	1317.7	356.9	1.0662e-05	7.7977e-06	411.71	136.28	118.87	40.884	1.4704e-06	50.948	0.00030555	0.00029657	8.0612e-05	1330.7	3.2298e-06	3.2104e-06	1326	359.57	3.2418e-06	3.2614e-06	414.39	138.15	119.43	41.423	3.282e-06	51.605	17.732	25.932	42.985	-48.961	94.306	60.832	-49.165	-44.281	75.473	123.586	-44.575	-40.375	-39.790	-35.388	90.240	-35.944	-8191	255	
6420.299	1	1	0	0	0.1399	0.098033	0.23119	0.20524	0.20047	0.16725	0.21355	0.16869	0.14806	0.098232	0.047462	0.20353	0.20808	0.17133	0.10384	0.19065	-1.9854	-1.9521	-2.7458	-2.175	-2.1604	-2.6521	-2.225	-2.725	-2.5646	-2.1771	-2.9062	-2.4583	-2.2958	-2.8708	-2.1396	-2.4333	-60.001	241.871	229.750	274.501	213.595	-11.469	196.764	-53.878	250.798	284.888	21.836	262.972	153.294	-45.314	143.534	-57.294	0.00050584	0.00033091	0.00018805	1325.5	7.3971e-06	3.8657e-06	1321.5	356.93	6.8022e-06	5.4956e-06	411.5	136.81	118.15	40.617	7.6733e-06	50.878	0.00031221	0.00030202	8.1996e-05	1330.7	3.2919e-06	3.2571e-06	1329.6	359.89	3.3478e-06	3.2697e-06	413.74	138.23	119.11	41.296	3.2632e-06	51.589	20.843	39.429	-7.983	-48.916	49.149	88.159	-49.154	-44.128	117.370	98.449	-44.879	-40.379	-40.196	-35.223	93.886	-35.851	-8191	255	
6420.395	1	1	0	0	0.12756	0.15591	0.28705	0.29963	0.070568	0.24191	0.19158	0.67124	0.19872	0.099838	0.1084	0.094073	0.23505	0.079958	0.067245	0.12511	-2.1688	-1.9958	-2.6312	-2.5375	-2.1542	-2.7188	-2.4083	-2.4104	-2.6521	-2.05	-2.8708	-2.4375	-2.1521	-2.675	-2.1792	-2.6063	-37.078	3.329	114.226	251.293	242.607	257.879	242.961	223.015	71.579	173.877	-49.597	104.567	290.733	250.006	135.205	269.644	0.00030185	0.00027657	0.00013969	1324.6	2.728e-06	3.6314e-06	1319.5	356.3	3.0768e-06	4.9298e-06	412	136.68	118.5	40.625	3.9481e-06	50.771	0.00031662	0.00029554	8.2751e-05	1331.6	3.2368e-06	3.181e-06	1327.6	359.24	3.2529e-06	3.2064e-06	413.51	138.38	119.17	41.357	3.1211e-06	51.463	39.001	54.153	27.046	-48.848	80.744	68.452	-49.097	-44.270	118.847	140.926	-44.688	-40.333	-39.826	-35.154	112.848	-35.992	-8191	255	
6420.490	1	1	0	0	0.11638	0.079268	0.25777	0.08358	0.16083	0.25456	0.31395	0.024503	0.23811	0.13288	0.16152	0.24655	0.21617	0.19285	0.01471	0.32871	-2.2333	-2.15	-2.6292	-2.7521	-2.2062	-2.9208	-2.5292	-2.4375	-2.5958	-1.8979	-2.6813	-2.625	-2.2583	-2.7521	-2.225	-2.3646	275.203	104.800	243.651	256.052	108.446	126.147	237.824	38.517	51.779	-23.150	-44.735	-30.336	26.467	268.553	248.277	268.768	0.00049387	0.00050363	0.0001029	1321.2	3.961e-06	4.1375e-06	1312.7	355.51	4.8477e-06	6.2562e-06	409.53	136.85	117.86	40.734	1.9095e-06	50.82	0.0003021	0.0002871	7.9654e-05	1328.9	3.2278e-06	3.0364e-06	1321.6	358.95	3.1249e-06	3.0814e-06	412.93	138.19	119.04	41.294	3.0864e-06	51.493	25.938	19.475	27.714	-48.913	86.194	84.160	-49.235	-44.313	80.125	132.271	-45.035	-40.156	-39.696	-35.277	151.669	-35.974	-8191	255	
6420.588	1	1	0	0	0.02813	0.15408	0.18351	0.041587	0.28587	0.1514	0.18847	0.17035	0.20856	0.21738	0.19839	0.35116	0.079482	0.035779	0.24608	0.1268	-2.2479	-2.0583	-2.55	-2.8396	-2.0938	-3.0125	-2.5729	-2.4604	-2.8187	-1.875	-2.5458	-2.5979	-2.025	-2.8333	-2.2542	-2.2146	289.822	29.481	-32.650	225.551	2.475	247.687	243.978	257.202	32.006	144.040	6.421	221.951	162.426	55.927	135.033	146.198	0.00053883	0.00036284	0.00011	1324.7	3.596e-06	5.691e-06	1318	354.24	3.5274e-06	5.2021e-06	408.81	135.98	118.32	40.627	3.0968e-06	50.701	0.00029368	0.00027508	7.5907e-05	1327.9	3.0979e-06	3.0273e-06	1324.2	357.97	3.0332e-06	3.0391e-06	412.54	137.73	118.99	41.253	3.0071e-06	51.369	20.000	16.523	50.819	-48.778	68.322	65.797	-49.127	-44.208	93.199	113.350	-46.657	-41.739	-41.562	-36.643	139.598	-37.156	-8191	255	
6420.706	1	1	0	0	0.096287	0.15798	0.26277	0.3799	0.17238	0.077175	0.2346	0.1862	0.068199	0.11009	0.34941	0.24747	0.16094	0.089997	0.23952	0.092582	-2.2188	-1.775	-2.35	-2.7917	-2.0625	-2.6208	-2.6042	-2.1979	-2.6583	-2.2833	-2.5417	-2.6792	-2.1125	-2.6562	-2.2729	-2.3396	191.521	25.147	177.245	232.071	239.319	209.849	264.043	295.320	48.984	215.168	280.625	236.700	239.271	224.885	176.659	54.253	0.0005761	0.00048861	0.00012266	1316	4.7123e-06	3.2634e-06	1308.7	354.87	6.6652e-06	5.7451e-06	408.86	136.4	118.25	40.558	4.4563e-06	50.908	0.00028944	0.0002731	7.5652e-05	1324.2	3.0611e-06	2.9711e-06	1320.9	357.86	3.0218e-06	3.0446e-06	412.35	137.87	118.86	41.205	3.0176e-06	51.486	32.535	16.894	49.612	-50.409	64.147	119.417	-50.530	-45.727	51.706	119.615	-46.302	-41.702	-41.148	-36.787	71.497	-37.487	-8191	255	
6420.803	1	1	0	0	0.17072	0.16703	0.10196	0.34269	0.027774	0.046305	0.1181	0.064527	0.11254	0.18682	0.35967	0.39301	0.079466	0.25812	0.16344	0.083689	-2.2313	-2.2583	-2.0687	-2.8542	-2.0271	-2.5667	-2.6937	-2.3917	-2.9104	-2.325	-2.3542	-2.7896	-2.0833	-2.7354	-2.6292	-2.2146	241.678	92.806	-4.184	285.704	180.666	151.333	139.191	61.128	42.847	286.141	205.560	263.322	64.593	248.024	152.045	211.333	0.00059389	0.00042937	0.00019015	1318.5	5.6304e-06	4.7854e-06	1316.6	353.11	5.145e-06	6.2486e-06	410.11	136.44	117.72	40.49	8.115e-06	50.684	0.00029061	0.00027397	7.6321e-05	1326.2	3.0882e-06	3.0257e-06	1321.5	357.55	3.1008e-06	3.029e-06	412.85	137.85	118.76	41.243	3.0422e-06	51.432	41.743	8.480	39.647	-50.272	39.690	108.055	-50.205	-45.724	77.255	100.515	-45.270	-40.912	-40.083	-35.339	85.484	-36.080	-8191	255	
6420.899	1	1	0	0	0.14997	0.09468	0.054865	0.16428	0.26168	0.074848	0.28076	0.31079	0.17948	0.24072	0.34776	0.19859	0.15052	0.092865	0.27116	0.074062	-2.5187	-2.3438	-2.2333	-3.0417	-2.0687	-2.5312	-2.8187	-2.0104	-2.8271	-2.2583	-2.2917	-2.7687	-2.1479	-2.5417	-2.7125	-2.0792	-61.622	71.061	-22.230	272.643	76.408	-8.539	220.398	-55.881	6.234	131.274	229.742	-58.030	281.583	276.046	134.167	201.273	0.00054718	0.00043874	8.5395e-05	1323.6	2.5162e-06	3.9445e-06	1317.7	355.86	2.7978e-06	2.9123e-06	411.04	136.33	117.91	40.789	3.615e-06	50.683	0.00028806	0.00027462	7.5936e-05	1325.9	2.9826e-06	2.9777e-06	1321	358.06	2.9898e-06	2.9742e-06	412.84	137.84	118.81	41.273	3.0099e-06	51.396	28.637	11.400	-7.140	-48.750	116.222	86.368	-48.826	-44.007	110.531	64.899	-44.709	-39.995	-39.522	-34.985	52.094	-35.497	-8191	255	
6420.995	1	1	0	0	0.068626	0.075018	0.24098	0.078383	0.16795	0.11679	0.14944	0.086107	0.14504	0.21535	0.18666	0.16801	0.18553	0.11606	0.14786	0.15684	-2.0583	-2.3854	-2.1417	-3.0062	-2.2521	-2.35	-2.9854	-2.2625	-2.6792	-2.5	-2.1958	-2.85	-2.1917	-2.4958	-2.775	-2.1562	80.386	246.335	114.790	-22.927	177.007	139.236	139.444	273.984	120.033	231.627	-7.678	221.751	-23.119	-29.651	41.634	245.760	0.00038602	0.00040327	0.00019183	1321.2	5.2599e-06	3.2193e-06	1312.6	354.03	4.48e-06	4.3088e-06	408.48	136.32	117.4	40.605	3.3759e-06	50.696	0.00029372	0.00027215	7.6012e-05	1325.4	3.019e-06	3.0022e-06	1322.1	357.59	3.0268e-06	3.0084e-06	411.63	137.91	118.71	41.244	3.0881e-06	51.399	21.808	101.439	33.461	-48.741	18.986	108.077	-48.700	-44.055	89.878	77.083	-45.112	-40.406	-39.971	-35.017	91.771	-35.757	-8191	255	
6421.091	1	1	0	0	0.087262	0.17613	0.09469	0.27934	0.14506	0.11036	0.18129	0.30311	0.1313	0.20337	0.093201	0.18332	0.13886	0.28233	0.21931	0.21841	-2.0417	-2.3542	-2.0646	-3.025	-2.0875	-2.3292	-2.9833	-2.0938	-2.6	-2.675	-2.1917	-2.9813	-2.4521	-2.2979	-2.7958	-2.2521	166.977	263.065	281.195	266.974	12.381	-48.706	-51.297	226.232	193.407	247.760	-53.342	71.718	-60.039	275.151	171.305	209.321	0.00052399	0.00048628	0.00017525	1318.8	3.3264e-06	3.9797e-06	1319.8	355.01	5.2016e-06	4.9049e-06	408.63	136.69	117.73	40.731	3.8578e-06	50.804	0.00029043	0.0002771	7.6751e-05	1324.3	3.0161e-06	3.0435e-06	1323.4	357.91	3.0706e-06	3.0362e-06	412.04	137.97	118.72	41.249	3.0219e-06	51.472	11.718	32.230	50.762	-48.726	105.312	98.797	-48.947	-44.007	65.279	113.133	-44.651	-40.212	-39.706	-35.024	75.452	-35.563	-8191	255	
6421.187	1	1	0	0	0.13536	0.13922	0.060976	0.18692	0.13724	0.32098	0.046244	0.17563	0.15458	0.06313	0.19227	0.21399	0.20534	0.26624	0.19327	0.19381	-2.1333	-2.4604	-2.1937	-2.7812	-2.3	-2.2354	-3.025	-2.1813	-2.3937	-2.675	-2.1917	-2.8021	-2.325	-2.225	-2.6646	-2.35	-12.709	23.838	163.618	256.326	273.100	184.256	256.408	271.944	-27.301	147.017	276.545	254.715	285.866	240.469	286.601	-55.658	0.00046555	0.00043345	0.00017947	1318.6	2.3493e-06	2.4075e-06	1314.9	354.53	9.2041e-07	2.1332e-06	410.09	136.46	117.84	40.635	1.4884e-06	50.821	0.00029563	0.00028246	7.7341e-05	1325	3.1196e-06	3.078e-06	1321.6	358.07	3.1482e-06	3.0687e-06	412.41	137.91	118.83	41.209	3.065e-06	51.392	28.481	55.467	21.325	-48.797	122.666	104.824	-48.892	-44.045	96.191	85.277	-44.661	-40.155	-39.572	-35.123	62.819	-35.770	-8191	255	
6421.308	1	1	0	0	0.13843	0.20996	0.21411	0.30368	0.16576	0.12687	0.1949	0.084051	0.2338	0.022802	0.29947	0.3593	0.22337	0.10876	0.22636	0.1613	-1.9042	-2.5812	-2.0604	-2.7375	-2.4229	-2.0229	-2.9042	-2.3667	-2.2812	-2.6979	-2.2938	-2.7729	-2.5083	-2.1437	-2.7708	-2.4104	273.382	257.191	30.637	278.465	277.573	288.649	244.729	209.552	156.397	-11.608	242.000	271.234	148.709	208.953	49.094	26.857	0.00053861	0.0005218	0.00010628	1322.4	8.124e-06	2.1512e-06	1318.8	355.02	4.0216e-06	4.6733e-06	409.02	136.6	118.14	40.846	3.7334e-06	51.111	0.00030128	0.0002854	7.8284e-05	1327.2	3.1466e-06	3.0899e-06	1322.4	357.83	3.0929e-06	3.0283e-06	412.64	137.93	118.96	41.315	3.124e-06	51.551	35.480	8.660	6.309	-48.692	97.830	80.152	-48.853	-43.981	132.772	130.048	-44.613	-40.262	-39.615	-35.038	50.175	-35.665	-8191	255	
6421.402	1	1	0	0	0.15027	0.070524	0.36417	0.069226	0.080422	0.075328	0.19738	0.091579	0.31566	0.095716	0.22445	0.053543	0.10423	0.22484	0.22502	0.13041	-1.8667	-2.6021	-2.1479	-2.7271	-2.5042	-2.1667	-2.825	-2.3479	-2.1875	-2.9333	-2.1771	-2.5229	-2.8292	-1.9792	-2.6125	-2.4396	274.031	194.507	-5.798	80.068	-28.702	95.043	228.272	261.755	60.926	57.217	215.804	-53.221	218.292	-5.803	288.806	270.612	0.00050327	0.00062142	0.00014245	1324.7	4.6215e-06	5.7063e-06	1315	355.86	7.6667e-06	5.4542e-06	411.31	136.07	118.57	40.73	1.9241e-06	50.711	0.00030033	0.00027901	7.8203e-05	1326.9	3.1547e-06	3.0601e-06	1322.9	358.46	3.086e-06	3.0839e-06	412.68	137.81	118.89	41.302	3.0483e-06	51.392	27.961	30.973	24.056	-48.741	69.816	89.814	-48.927	-43.973	61.072	146.845	-44.715	-40.398	-39.715	-35.050	66.337	-35.523	-8191	255	
6421.498	1	1	0	0	0.14932	0.26918	0.35425	0.36876	0.040363	0.13636	0.23423	0.28375	0.075552	0.1277	0.069384	0.17317	0.094661	0.27453	0.18927	0.075382	-1.7958	-2.6875	-2.0708	-2.5375	-2.6063	-2.1208	-2.9604	-2.4771	-2.1437	-2.6979	-2.2792	-2.4083	-2.7208	-2.025	-2.5917	-2.5354	197.107	289.567	147.599	239.181	-41.473	45.861	231.150	271.736	-47.184	98.400	222.543	185.482	234.892	264.268	192.577	246.215	0.00047452	0.00038732	0.00021159	1321.3	5.7186e-06	4.1436e-06	1319.4	355.32	6.624e-06	7.2304e-06	410.61	136.51	118.06	40.605	4.7822e-06	51.01	0.00029347	0.00028147	7.7553e-05	1326	3.0708e-06	3.0378e-06	1323.5	358.13	3.0795e-06	3.0251e-06	412.41	138.03	118.99	41.257	3.0802e-06	51.484	15.674	18.872	32.895	-48.889	72.573	69.156	-48.830	-43.670	118.545	123.837	-44.787	-40.251	-39.471	-35.066	72.823	-35.568	-8191	255	
6421.594	1	1	0	0	0.39368	0.04051	0.21435	0.36882	0.23419	0.040062	0.31745	0.14097	0.13991	0.099593	0.11241	0.24706	0.15393	0.25267	0.12268	0.14124	-1.6208	-2.6333	-2.3	-2.5646	-2.8333	-2.0667	-2.9188	-2.7979	-2.025	-2.7438	-2.5	-2.2542	-2.6625	-2.2062	-2.5042	-2.825	186.871	51.150	-38.826	-0.821	205.735	138.096	284.375	166.410	271.237	138.821	17.197	38.107	285.029	-3.731	-17.018	265.442	0.00039509	0.00058784	0.00014342	1323.4	5.62e-06	4.7657e-06	1315.6	354.79	6.311e-06	7.3635e-06	410.32	137.07	119	40.701	4.0079e-06	51.042	0.00028889	0.00027361	7.5596e-05	1327.4	3.015e-06	2.9829e-06	1322.2	357.8	3.0235e-06	2.96e-06	411.91	137.9	119.08	41.196	3.0394e-06	51.533	25.869	25.655	44.626	-48.943	119.125	76.351	-48.774	-43.930	83.230	94.391	-44.863	-40.542	-39.487	-34.747	112.911	-35.717	-8191	255	
6421.691	1	1	0	0	0.26156	0.10133	0.25108	0.078491	0.27068	0.17855	0.22695	0.29731	0.046733	0.053547	0.12234	0.076739	0.14036	0.035454	0.15265	0.22292	-1.7313	-2.5687	-2.3167	-2.3604	-2.6292	-2.1583	-2.6083	-2.8167	-2.1146	-2.7083	-2.5167	-2.2167	-2.825	-2.3354	-2.4354	-2.7208	202.225	259.082	29.679	-24.782	80.263	8.123	195.443	264.945	286.167	-7.254	95.219	285.623	179.549	155.079	-48.424	-12.500	0.00039374	0.00028567	9.3705e-05	1320.2	5.3615e-06	7.0658e-06	1314.8	354.64	4.2417e-06	6.872e-06	409.26	136.3	118.38	40.531	3.6954e-06	50.772	0.00029475	0.00027106	7.5247e-05	1325	2.9756e-06	3.026e-06	1320.3	358.21	3.0632e-06	2.9647e-06	411.91	138.02	118.93	41.241	3.0028e-06	51.453	30.336	8.388	58.718	-49.504	80.242	80.277	-49.343	-44.421	98.090	76.355	-46.248	-41.901	-41.392	-36.419	69.460	-37.120	-8191	255	
6421.787	1	1	0	0	0.15742	0.24279	0.083029	0.31172	0.21879	0.033035	0.43577	0.27806	0.22945	0.11654	0.16986	0.34006	0.069797	0.12395	0.16946	0.27202	-1.6458	-2.6208	-2.3917	-2.2438	-2.6479	-2.2208	-2.4813	-2.8063	-1.8229	-2.5292	-2.55	-2.225	-2.8271	-2.3375	-2.3417	-2.9125	126.848	51.668	48.114	253.864	94.952	24.012	244.629	295.680	-46.627	294.669	21.056	280.912	239.342	87.942	232.493	275.674	0.00058015	0.00041718	0.00013939	1318.8	4.7593e-06	5.7574e-06	1312.5	353.67	4.3577e-06	6.101e-06	410.42	136.32	117.82	40.741	4.2899e-06	50.592	0.00028993	0.00027521	7.5105e-05	1323.5	3.03e-06	2.9769e-06	1321.3	357.21	2.9998e-06	2.9599e-06	412.35	137.61	118.8	41.249	2.978e-06	51.338	41.130	12.471	38.075	-49.531	47.030	77.112	-49.312	-44.206	125.839	117.600	-44.493	-40.558	-39.981	-35.299	107.550	-35.791	-8191	255	
6421.883	1	1	0	0	0.10616	0.1216	0.24079	0.36587	0.26498	0.19325	0.39208	0.38176	0.17617	0.34447	0.20457	0.024461	0.090308	0.055258	0.13833	0.12027	-1.5562	-2.5625	-2.6375	-2.2938	-2.8146	-2.3896	-2.3229	-2.7771	-2.0708	-2.4958	-2.6063	-2.175	-2.6646	-2.4542	-2.2125	-2.8167	280.867	-18.863	188.228	-45.694	175.613	176.637	280.179	221.589	177.221	-28.463	278.868	267.747	291.745	294.812	160.667	266.756	0.00042492	0.00047156	0.00014964	1318.5	2.9718e-06	6.6465e-06	1312.1	354.94	7.3295e-06	4.8301e-06	410.43	136.2	117.81	40.367	6.0355e-06	50.904	0.00028339	0.00027185	7.3899e-05	1322.9	2.9778e-06	2.9277e-06	1319.7	357.78	3.0092e-06	2.9354e-06	412.44	137.63	118.78	41.126	2.9183e-06	51.41	6.267	9.847	10.689	-48.823	27.278	51.621	-48.970	-44.081	123.092	88.348	-44.537	-40.251	-39.856	-34.906	86.277	-35.853	-8191	255	
6421.979	1	1	0	0	0.30156	0.12938	0.05226	0.20438	0.13217	0.17547	0.33363	0.20142	0.0096101	0.2547	0.27429	0.034755	0.34158	0.35806	0.14634	0.21294	-1.7188	-2.4604	-2.7271	-2.2042	-2.6958	-2.3083	-2.4708	-2.8937	-2.0875	-2.3833	-2.9021	-2.0896	-2.7521	-2.4813	-2.075	-2.7375	225.637	239.798	241.160	149.797	141.555	2.187	-51.025	294.939	260.520	125.959	-58.995	-50.299	1.060	253.467	235.180	245.766	0.00046415	0.00066565	9.4037e-05	1317.5	4.1325e-06	4.4613e-06	1314.4	353.41	3.8695e-06	3.3485e-06	407.65	136.25	118.49	40.548	5.5533e-06	50.892	0.00028026	0.00026631	7.2314e-05	1322.1	2.923e-06	2.8649e-06	1320.8	357.21	2.9131e-06	2.903e-06	411.49	137.64	118.77	41.183	2.9134e-06	51.431	41.642	28.180	29.409	-49.003	67.338	75.783	-49.057	-43.842	113.732	78.603	-44.576	-40.352	-39.616	-34.599	107.333	-35.788	-8191	255	
6422.100	1	1	0	0	0.052393	0.16921	0.36532	0.47072	0.26478	0.18496	0.19121	0.2365	0.25095	0.073266	0.20366	0.30319	0.18294	0.16337	0.22635	0.1701	-1.8792	-2.2562	-2.4958	-2.3229	-2.5458	-2.5729	-2.1688	-2.9021	-2.1833	-2.3271	-2.5625	-2.0979	-2.6521	-2.6562	-1.9625	-2.7833	169.947	164.087	235.404	239.908	275.117	-12.659	275.119	266.033	277.821	31.504	78.825	-50.225	251.489	201.684	253.484	37.773	0.0004894	0.0004913	0.0001393	1311.6	3.9459e-06	4.3681e-06	1308	355.16	5.7424e-06	4.5068e-06	410.15	136.13	118.37	40.584	4.8421e-06	50.785	0.00027545	0.00026009	7.3669e-05	1320.1	2.8995e-06	2.827e-06	1316.8	357.76	2.8871e-06	2.8627e-06	412.18	137.7	118.55	41.181	2.9707e-06	51.396	22.633	26.074	33.605	-48.659	77.203	89.887	-48.972	-44.061	58.605	81.868	-44.693	-40.460	-39.651	-34.832	107.124	-35.435	-8191	255	
6422.196	1	1	0	0	0.21956	0.015432	0.049742	0.23635	0.048727	0.21747	0.36821	0.33368	0.26183	0.22805	0.14833	0.025892	0.028476	0.075405	0.040197	0.10967	-2.0042	-2.0229	-2.9062	-2.3229	-2.4437	-2.4479	-2.225	-2.8396	-2.1979	-2.275	-2.7854	-2.2875	-2.4792	-2.5812	-2.1271	-2.7292	203.466	201.665	-26.553	294.935	-56.173	98.419	202.790	274.510	139.000	18.725	230.158	-35.435	274.647	-41.190	106.265	132.507	0.00046054	0.00056896	0.00010091	1315.7	2.2203e-06	2.6718e-06	1310.4	354.27	4.0722e-06	2.8244e-06	408.39	135.65	117.62	40.749	3.7436e-06	50.943	0.00028074	0.00026693	7.3818e-05	1320.3	2.9274e-06	2.9104e-06	1317.2	357.4	2.9771e-06	2.9263e-06	411.74	137.49	118.49	41.234	2.9553e-06	51.486	6.740	30.765	73.320	-48.705	75.602	22.363	-48.861	-43.954	92.334	73.320	-44.548	-39.961	-39.856	-34.878	87.760	-35.618	-8191	255	
6422.268	1	1	0	0	0.20599	0.19468	0.095584	0.15455	0.14616	0.16157	0.081387	0.2601	0.17443	0.12629	0.31413	0.2353	0.27638	0.14531	0.14232	0.23314	-1.8458	-2.1458	-2.6875	-2.3187	-2.2	-2.7542	-2.3625	-2.7438	-2.5271	-2.1792	-2.8688	-2.3271	-2.3271	-2.8229	-2.0021	-2.5438	85.724	-18.160	23.785	260.922	-8.363	255.060	106.280	254.855	207.844	283.934	238.722	84.646	222.958	148.405	-10.213	279.532	0.00048396	0.00032655	0.00025299	1316.3	3.2078e-06	5.0827e-06	1311.7	353.81	3.7532e-06	5.1821e-06	409.95	136.45	118.48	40.568	2.635e-06	50.819	0.00028828	0.00026588	7.3717e-05	1322.8	2.925e-06	2.9445e-06	1318	357.41	2.9637e-06	2.9255e-06	411.99	137.75	118.81	41.226	2.868e-06	51.328	16.858	14.869	32.607	-48.694	49.062	83.364	-48.776	-43.978	8.275	59.942	-44.714	-40.389	-39.758	-34.858	138.749	-35.607	-8191	255	
6422.388	1	1	0	0	0.14901	0.16989	0.069282	0.23351	0.24775	0.14841	0.22942	0.080843	0.17806	0.43556	0.25296	0.20938	0.05735	0.36064	0.11578	0.15195	-2.1104	-2.0458	-2.7812	-2.3417	-2.1562	-2.6979	-1.9104	-2.5812	-2.4417	-1.8917	-2.5979	-2.3812	-2.2896	-2.6104	-2.1063	-2.6104	297.555	115.095	-9.217	274.054	144.461	212.542	217.339	272.272	19.464	-61.888	175.606	219.552	-3.591	207.870	-16.997	182.103	0.00051229	0.00040627	0.00015691	1318	8.5497e-06	4.2701e-06	1314.3	355.93	3.828e-06	2.8829e-06	409.02	136.14	118.05	40.73	7.8202e-06	50.643	0.00028143	0.00026665	7.2973e-05	1322.5	3.0093e-06	2.8789e-06	1318.5	357.7	2.9344e-06	2.8723e-06	411.33	137.51	118.65	41.225	2.9253e-06	51.34	29.441	3.375	86.288	-48.579	49.471	68.351	-48.824	-43.919	99.762	67.802	-44.682	-40.044	-39.367	-34.914	81.859	-35.582	-8191	255	
6422.483	1	1	0	0	0.20265	0.055092	0.26773	0.40362	0.27345	0.17738	0.32888	0.55142	0.14309	0.0028959	0.35508	0.35073	0.11017	0.19491	0.13873	0.18811	-2.1583	-1.9479	-2.7021	-2.3875	-2.3187	-2.6104	-2.2042	-2.5438	-2.7396	-2.0604	-2.6875	-2.3042	-2.2146	-2.5667	-2.0687	-2.3812	103.271	110.537	-56.460	273.379	-27.447	6.799	270.916	238.923	145.326	213.866	224.282	289.927	87.210	-59.298	19.148	208.688	0.00047798	0.00039651	8.7661e-05	1318.2	4.4268e-06	3.0264e-06	1310.3	354.46	6.2241e-06	3.8777e-06	409.57	135.99	117.63	40.719	5.2183e-06	50.795	0.00027815	0.00026759	7.3208e-05	1321.5	2.949e-06	2.9499e-06	1318.7	357.05	2.9796e-06	2.9097e-06	411.93	137.57	118.6	41.262	2.9142e-06	51.447	17.761	33.159	38.124	-48.736	81.801	84.228	-48.578	-43.963	72.532	114.765	-45.004	-40.458	-39.857	-34.593	62.336	-35.423	-8191	255	
6422.579	1	1	0	0	0.18515	0.1279	0.064643	0.3318	0.15783	0.18551	0.17072	0.29852	0.07237	0.24393	0.075465	0.17204	0.15774	0.12136	0.20071	0.27014	-2.2979	-1.8646	-2.5062	-2.5333	-2.1063	-2.7958	-2.3458	-2.2958	-2.7	-2.1021	-2.7583	-2.6375	-2.225	-2.8667	-2.2104	-2.3438	243.583	29.763	250.286	271.700	173.580	117.790	293.851	-33.257	-60.243	267.808	231.914	-39.821	230.288	-6.680	0.311	262.613	0.00045794	0.00042141	0.00016178	1316.3	2.9823e-06	3.6445e-06	1314.9	354.64	3.1727e-06	6.8841e-06	410.53	136.02	118.11	40.537	5.3372e-06	50.619	0.00028506	0.00026444	7.4448e-05	1322	2.9448e-06	2.8723e-06	1319.1	356.95	2.9654e-06	2.9328e-06	411.55	137.52	118.78	41.221	2.9352e-06	51.334	16.060	-1.651	18.450	-48.376	90.405	103.051	-48.327	-43.702	69.862	90.543	-44.721	-40.169	-39.820	-35.120	66.217	-35.684	-8191	255	
6422.699	1	1	0	0	0.1131	0.41481	0.18588	0.37576	0.3433	0.18842	0.23392	0.30827	0.25041	0.02038	0.2052	0.33028	0.073163	0.26468	0.17603	0.17475	-2.2708	-2.0604	-2.5292	-2.7271	-1.8937	-2.7417	-2.4958	-2.525	-2.5354	-2.0667	-2.6271	-2.6646	-2.1854	-2.7479	-2.4292	-2.2542	171.432	87.664	282.027	215.744	107.595	258.499	258.270	207.688	-60.407	157.193	277.567	236.832	-8.470	-55.750	-19.582	228.178	0.00045455	0.00046262	0.0001366	1315.9	2.734e-06	3.6866e-06	1313.5	354.25	4.2182e-06	7.5213e-06	410.09	136.72	117.84	40.765	3.3198e-06	50.774	0.00028155	0.00026985	7.4412e-05	1320.3	2.9397e-06	2.9508e-06	1317.9	357.47	2.9254e-06	2.9583e-06	411.81	137.8	118.76	41.313	3.0212e-06	51.449	25.904	9.970	27.497	-48.625	79.324	64.842	-48.616	-43.808	109.110	120.007	-44.662	-40.085	-39.511	-34.706	56.385	-35.861	-8191	255	
6422.795	1	1	0	0	0.27085	0.21322	0.32019	0.12377	0.17726	0.064344	0.095799	0.072546	0.11288	0.10106	0.14052	0.12912	0.38375	0.059898	0.053986	0.076635	-2.3083	-2.0042	-2.2479	-2.7333	-2.0583	-2.6604	-2.6896	-2.1354	-2.7687	-2.2208	-2.3667	-2.7667	-2.1875	-2.7562	-2.4333	-2.1458	201.303	147.130	262.323	291.352	198.008	-11.780	224.116	26.500	146.700	241.432	282.576	120.782	275.254	194.697	60.181	145.795	0.00050003	0.00038371	0.00010155	1321.9	4.937e-06	5.0645e-06	1311.9	354.61	4.5639e-06	4.8892e-06	411.01	136.78	118.04	40.637	5.2899e-06	50.697	0.00028701	0.0002696	7.4395e-05	1323.2	2.9595e-06	2.8928e-06	1320.2	357.6	2.9119e-06	2.8754e-06	412.15	137.87	118.72	41.323	2.8467e-06	51.441	21.314	18.541	68.881	-48.640	27.747	86.195	-48.621	-44.019	127.689	130.621	-44.673	-40.130	-39.435	-34.835	94.558	-35.671	-8191	255	
6422.867	1	1	0	0	0.17034	0.094158	0.13561	0.24809	0.25438	0.09423	0.33817	0.095294	0.26278	0.092061	0.32876	0.26684	0.24421	0.16252	0.075765	0.35282	-2.2792	-2.1583	-2.2521	-2.7229	-2.0458	-2.6063	-2.7562	-2.2333	-2.8208	-2.275	-2.3708	-2.7438	-2.025	-2.4917	-2.3833	-2.0854	66.053	194.111	265.759	265.736	40.358	253.837	246.238	266.335	-14.747	14.310	218.976	283.146	3.050	-16.241	179.494	174.276	0.00054962	0.00041763	8.5809e-05	1318.1	2.777e-06	6.054e-06	1316.9	353.91	2.1341e-06	5.316e-06	412.19	136.72	118.34	40.712	7.9909e-06	50.658	0.00027606	0.00025855	7.3259e-05	1322	2.9076e-06	2.8384e-06	1320.6	357.17	2.8591e-06	2.924e-06	412.94	138.04	118.81	41.33	2.9335e-06	51.4	18.772	21.267	2.076	-48.317	72.197	91.501	-48.437	-43.628	69.622	115.585	-44.213	-39.655	-39.380	-34.877	88.020	-35.240	-8191	255	
6422.988	1	1	0	0	0.12023	0.14693	0.20881	0.18918	0.27782	0.26999	0.091072	0.28489	0.12945	0.070192	0.10077	0.21928	0.22188	0.36867	0.16823	0.02606	-2.3146	-2.2521	-2.0583	-3.0042	-2.0646	-2.575	-2.7375	-2.2396	-2.7479	-2.4167	-2.3167	-2.8792	-2.1083	-2.4646	-2.5604	-2.1875	88.449	13.144	89.790	288.294	249.225	77.767	276.654	249.753	154.323	26.645	192.979	217.858	74.315	272.964	262.053	245.405	0.00052099	0.00055775	0.00012543	1325.8	4.4576e-06	5.564e-06	1314.2	354.86	7.9425e-06	5.3252e-06	410.8	136.14	118.33	40.823	4.1302e-06	50.938	0.00028424	0.00026817	7.453e-05	1327.1	2.9759e-06	2.9682e-06	1321.1	357.53	2.9037e-06	2.9448e-06	412.24	137.97	118.98	41.363	3.0035e-06	51.517	27.686	19.939	16.204	-48.300	69.294	77.239	-48.433	-43.533	100.759	168.268	-44.423	-39.724	-39.507	-34.438	65.628	-35.374	-8191	255	
6423.084	1	1	0	0	0.18254	0.29851	0.24951	0.044127	0.044637	0.040135	0.37489	0.079728	0.13171	0.10587	0.47679	0.21741	0.01581	0.1163	0.1504	0.12382	-2.1625	-2.1917	-2.1208	-2.8187	-1.9875	-2.4646	-2.9208	-2.3271	-2.6271	-2.4625	-2.2458	-2.8875	-2.3833	-2.2812	-2.6312	-2.175	72.275	113.193	113.309	30.630	116.909	286.726	285.208	251.352	134.079	128.772	214.510	172.099	-12.200	231.249	264.267	195.579	0.00058025	0.00020881	0.00021686	1323.9	6.3564e-06	6.8504e-06	1318.5	354.45	4.9468e-06	3.042e-06	411.85	136.89	118.09	40.784	6.554e-06	50.705	0.00029284	0.00027537	7.712e-05	1325.9	3.0298e-06	2.9281e-06	1324	358.03	3.0544e-06	2.9806e-06	412.89	138.25	118.97	41.302	3.0046e-06	51.403	13.747	22.791	45.615	-48.360	77.253	88.466	-48.539	-43.541	45.703	58.540	-44.407	-39.739	-39.217	-34.730	55.479	-35.640	-8191	255	
6423.180	1	1	0	0	0.11546	0.12102	0.11355	0.27736	0.030112	0.16123	0.16892	0.10878	0.12944	0.17577	0.16103	0.18144	0.15129	0.13935	0.19307	0.32346	-2.125	-2.4375	-2.0854	-2.9667	-2.0875	-2.3333	-3.0312	-2.3667	-2.5208	-2.4771	-2.1813	-2.7521	-2.3333	-2.1354	-2.5771	-1.9417	52.316	96.824	60.411	226.307	177.195	19.603	257.632	237.219	4.138	43.713	131.570	-21.225	294.737	266.750	227.759	269.840	0.00057086	0.00056118	0.00013403	1319	2.2104e-06	4.1659e-06	1316	355.4	5.8511e-06	7.073e-06	409.66	137.04	118.04	40.876	3.6666e-06	50.909	0.00028949	0.00027264	7.6179e-05	1324.6	3.0077e-06	2.9767e-06	1323.2	358.09	3.0138e-06	2.996e-06	412.44	138.26	118.98	41.329	2.9723e-06	51.485	24.708	0.333	60.184	-48.618	98.338	65.067	-48.627	-43.864	103.848	92.222	-44.835	-40.270	-39.812	-34.808	119.597	-35.566	-8191	255	
6423.276	1	1	0	0	0.19129	0.13196	0.2537	0.23759	0.12788	0.15362	0.28598	0.11099	0.12853	0.15815	0.16401	0.23817	0.13318	0.11771	0.10009	0.24596	-2.1813	-2.5479	-1.9667	-2.8854	-2.3208	-2.1437	-3.0375	-2.3292	-2.3812	-2.6937	-2.1437	-2.6354	-2.3833	-2.2896	-2.5354	-2.1813	-30.167	180.279	-4.432	271.022	287.473	87.093	232.375	252.822	256.117	-33.697	13.750	-13.682	-7.682	234.721	127.316	256.338	0.00054218	0.00059442	0.00012003	1326.7	5.5226e-06	4.1658e-06	1320.6	355.73	2.4068e-06	3.9277e-06	410.94	136.94	118.78	40.871	2.7186e-06	51.101	0.00028768	0.00026804	7.4946e-05	1328.9	3.0324e-06	2.9611e-06	1326.5	358.75	3.0496e-06	2.9031e-06	412.18	138.04	119.23	41.446	2.9568e-06	51.552	29.223	8.689	27.036	-48.653	11.719	50.986	-48.606	-43.988	61.237	88.999	-44.527	-39.922	-39.438	-35.120	76.515	-35.677	-8191	255	
6423.395	1	1	0	0	0.20243	0.022385	0.14652	0.26	0.14286	0.20223	0.45537	0.1796	0.15643	0.10159	0.12253	0.20402	0.10707	0.081864	0.16179	0.13525	-2.0354	-2.6542	-1.8896	-2.7313	-2.2771	-2.075	-2.9313	-2.5479	-2.3688	-2.8292	-2.1813	-2.5417	-2.6333	-2.1854	-2.7271	-2.3063	226.964	-26.122	116.577	256.915	77.661	41.114	212.701	-60.380	180.832	58.984	50.291	197.604	218.858	175.899	43.028	77.089	0.00027183	0.00045242	0.00020162	1321.7	4.4019e-06	4.7974e-06	1320.5	354.94	3.1114e-06	2.6835e-06	412.17	136.35	117.96	40.975	4.3954e-06	50.969	0.00028643	0.00027104	7.5894e-05	1325.8	3.0136e-06	2.8885e-06	1324.6	357.93	3.0515e-06	2.9777e-06	413.09	137.89	118.88	41.396	3.037e-06	51.46	33.191	6.078	58.308	-48.479	91.966	38.267	-48.976	-44.039	45.248	116.909	-44.436	-39.850	-39.234	-34.851	83.431	-35.125	-8191	255	
6423.491	1	1	0	0	0.27495	0.068186	0.10887	0.20804	0.12825	0.050426	0.11988	0.29137	0.25041	0.145	0.0935	0.19935	0.20433	0.16063	0.083739	0.21401	-1.9833	-2.8125	-2.0604	-2.7333	-2.4583	-1.9875	-3.0646	-2.3625	-2.1333	-2.5646	-2.0875	-2.4854	-2.6625	-2.1229	-2.7458	-2.5146	110.867	54.201	248.762	218.474	219.804	214.056	201.691	190.333	72.484	-26.479	191.057	-26.146	-26.178	122.657	-43.998	169.382	0.00041252	0.00036099	0.00015352	1325.9	5.0995e-06	4.33e-06	1316.9	355.51	4.0037e-06	6.4825e-06	409.7	136.76	118.74	40.855	4.1859e-06	51.017	0.00029292	0.00027397	7.6278e-05	1326.3	3.0478e-06	2.985e-06	1323.2	358.21	3.0341e-06	2.9468e-06	411.41	138.09	119.08	41.377	3.0429e-06	51.546	6.703	6.768	26.627	-48.598	95.521	62.062	-48.555	-43.609	91.388	77.030	-44.202	-39.917	-39.370	-34.757	135.192	-35.261	-8191	255	
6423.563	1	1	0	0	0.051034	0.28615	0.19667	0.2977	0.16751	0.078307	0.18306	0.25675	0.095815	0.1346	0.31795	0.22849	0.20915	0.30869	0.29172	0.049932	-1.8667	-2.6708	-2.0896	-2.6458	-2.4979	-2.1271	-2.8333	-2.4646	-2.0896	-2.7854	-2.4625	-2.4104	-2.8917	-2.3854	-2.5187	-2.6583	92.479	-35.359	167.010	225.011	154.297	114.646	294.510	183.361	-31.033	-28.417	283.405	236.037	259.082	261.988	-5.555	160.808	0.0004469	0.00048816	7.4407e-05	1322.9	2.9884e-06	5.4918e-06	1322.3	357.07	8.2411e-06	3.4062e-06	409.93	136.93	118.43	40.881	4.7056e-06	50.948	0.0002933	0.0002684	7.6222e-05	1327.7	2.9988e-06	2.9626e-06	1325.9	358.66	2.9958e-06	2.9408e-06	412.29	138.28	118.86	41.412	2.9912e-06	51.515	39.947	20.619	93.562	-48.812	78.828	70.033	-48.638	-43.545	104.233	108.950	-44.241	-40.069	-39.144	-34.784	99.354	-35.514	-8191	255	
6423.659	1	1	0	0	0.10863	0.083058	0.14626	0.11235	0.14917	0.19698	0.26772	0.23126	0.18505	0.18397	0.15384	0.15547	0.2657	0.14431	0.18105	0.27414	-1.475	-2.7021	-2.2	-2.45	-2.7208	-1.9354	-2.7604	-2.5146	-2.1208	-2.8021	-2.4458	-2.0333	-2.7417	-2.2042	-2.275	-2.5917	78.374	-27.370	110.347	179.636	109.359	170.540	260.449	169.407	57.055	239.619	234.061	239.140	246.815	271.793	6.433	206.682	0.00043039	0.0004712	0.00014223	1318.5	3.5481e-06	3.8992e-06	1316.8	355.61	7.2736e-06	1.9341e-06	409.47	136.05	118.49	40.852	5.5271e-06	50.758	0.00029101	0.00027781	7.5796e-05	1323.8	3.0169e-06	3.0378e-06	1324.5	358.32	3.0396e-06	2.9874e-06	412.68	137.7	118.85	41.392	3.0147e-06	51.505	7.292	42.079	28.672	-48.493	39.958	140.502	-48.588	-43.672	56.184	106.902	-44.475	-40.147	-39.617	-35.043	73.741	-35.695	-8191	255	
6423.780	1	1	0	0	0.25846	0.29902	0.12271	0.35744	0.11691	0.1378	0.40397	0.28314	0.046511	0.41405	0.10512	0.2646	0.27375	0.13524	0.35082	0.062132	-1.6313	-2.5083	-2.3104	-2.3208	-2.6875	-2.0792	-2.6417	-2.6917	-1.95	-2.7167	-2.4313	-2.1417	-2.8	-2.0833	-2.2146	-2.6771	-0.128	139.630	185.974	243.425	162.883	116.908	243.447	186.932	286.494	273.804	291.895	109.303	253.940	192.594	164.850	22.718	0.00055228	0.0004443	0.00016037	1320.6	2.8125e-06	4.3509e-06	1315.2	355.77	5.9511e-06	7.1254e-06	411.13	137.05	118.1	40.728	5.59e-06	50.65	0.00029614	0.00027277	7.6367e-05	1325.3	3.0816e-06	3.0449e-06	1323.2	358.5	3.0798e-06	2.9962e-06	412.58	138.09	119.04	41.298	3.0899e-06	51.416	5.702	42.311	27.585	-48.990	79.333	71.947	-48.902	-43.720	23.417	112.321	-44.283	-40.458	-39.268	-34.608	93.103	-35.259	-8191	255	
6423.876	1	1	0	0	0.11458	0.088504	0.26376	0.33121	0.1522	0.25841	0.28236	0.29947	0.222	0.10387	0.35282	0.092674	0.14317	0.034429	0.017075	0.12039	-1.45	-2.475	-2.3604	-2.25	-2.6958	-2.0333	-2.5833	-2.8438	-1.9125	-2.6354	-2.6375	-2.3229	-2.6958	-2.3896	-2.2188	-3.0208	284.159	4.134	264.728	244.774	153.699	245.086	255.152	277.181	162.053	222.603	272.125	-5.962	255.637	-42.987	-24.546	140.965	0.00046577	0.00048673	0.00018783	1321.2	5.8667e-06	4.45e-06	1325.2	355.8	5.0254e-06	6.0179e-06	410.83	136.74	118.92	40.748	2.9938e-06	50.832	0.00029277	0.00027631	7.7343e-05	1326.4	3.0541e-06	3.0457e-06	1326.3	358.67	3.0434e-06	3.0425e-06	412.79	138.13	119.21	41.353	3.1513e-06	51.491	35.954	4.606	7.831	-48.699	97.278	56.506	-48.846	-43.663	8.002	81.629	-44.806	-40.141	-39.370	-34.910	124.179	-35.372	-8191	255	
6423.972	1	1	0	0	0.071797	0.28845	0.35913	0.29686	0.18265	0.20932	0.34213	0.28742	0.21378	0.2116	0.29861	0.22584	0.18808	0.15122	0.2022	0.16315	-1.6833	-2.4167	-2.4542	-2.2729	-2.6188	-2.4375	-2.5396	-2.8187	-2.1312	-2.3083	-2.7	-2.1583	-2.775	-2.4313	-2.0708	-2.8063	-6.079	1.349	113.611	262.331	234.945	-24.588	258.689	233.931	285.071	194.158	-22.191	-14.199	138.648	142.941	155.475	2.587	0.00051266	0.00054574	0.00011195	1320.2	5.0933e-06	5.6953e-06	1320.3	355.49	7.8299e-06	4.2358e-06	410.33	136.68	117.74	40.951	5.8479e-06	51.044	0.00029835	0.00028116	7.6578e-05	1326.6	3.0686e-06	3.0367e-06	1324.2	358.63	3.0833e-06	3.0003e-06	411.98	138	118.59	41.369	3.0737e-06	51.485	32.846	16.022	19.330	-48.638	44.461	81.457	-48.765	-43.584	132.388	164.021	-44.070	-39.919	-39.414	-34.591	65.547	-35.296	-8191	255	
6424.068	1	1	0	0	0.14637	0.11014	0.22779	0.26791	0.16216	0.12908	0.10604	0.15065	0.23127	0.24385	0.062317	0.27084	0.20388	0.037058	0.24294	0.15078	-1.4188	-2.25	-2.4792	-2.0292	-2.6833	-2.5438	-2.4083	-2.8417	-2.1667	-2.1708	-2.7812	-2.0583	-2.475	-2.5125	-2.0396	-2.8333	57.569	201.813	-23.669	222.636	127.878	225.976	229.625	198.939	115.486	52.646	37.055	-31.342	-54.244	201.329	-5.752	110.951	0.00046036	0.00038158	0.00013586	1320.7	3.8535e-06	3.4781e-06	1318.5	356.04	4.3162e-06	5.9846e-06	410.4	136.38	118.35	40.74	1.4764e-06	50.924	0.00029169	0.0002794	7.6367e-05	1325	3.1111e-06	2.9807e-06	1323.5	358.8	3.0838e-06	3.0452e-06	412.75	137.77	118.92	41.369	3.0317e-06	51.512	21.304	43.191	13.336	-48.312	133.182	107.347	-48.524	-43.585	96.031	136.344	-44.153	-39.933	-39.401	-34.489	124.008	-35.196	-8191	255	
6424.164	1	1	0	0	0.045435	0.13056	0.26098	0.33042	0.059946	0.07953	0.18063	0.14927	0.13349	0.030615	0.20964	0.2029	0.25202	0.30838	0.11552	0.066907	-1.8646	-2.3729	-2.6333	-2.1875	-2.5583	-2.4979	-2.2104	-2.8563	-2.4229	-2.2812	-2.9292	-2.0854	-2.6271	-2.4417	-2.1625	-2.8958	265.147	289.484	256.607	-37.684	148.180	223.887	210.296	288.016	16.992	-7.846	261.678	197.947	73.206	257.386	28.134	-19.550	0.00043961	0.00035169	0.00010947	1324.3	4.2597e-06	1.5592e-06	1310.8	355.57	8.3673e-06	6.8742e-06	409.99	136.05	118.19	40.764	2.8659e-06	50.82	0.00029678	0.0002804	7.6809e-05	1327.1	3.0936e-06	3.0302e-06	1323	358.53	3.1303e-06	3.0409e-06	411.75	137.78	118.89	41.396	3.0897e-06	51.462	33.666	19.993	41.702	-48.305	58.207	119.618	-48.552	-43.561	122.713	126.126	-44.077	-39.743	-39.351	-34.295	69.166	-35.464	-8191	255	
6424.260	1	1	0	0	0.17905	0.15834	0.089115	0.17796	0.22895	0.08187	0.16562	0.11287	0.27903	0.23455	0.10689	0.11129	0.37401	0.037805	0.18539	0.15912	-1.8771	-2.0917	-2.7542	-2.0583	-2.5	-2.7917	-2.1875	-2.6312	-2.2333	-2.15	-2.8937	-2.2875	-2.4479	-2.8854	-2.2875	-2.8438	71.727	17.088	95.339	70.653	105.533	297.107	260.728	25.705	50.539	284.338	181.098	294.239	256.963	87.183	185.177	200.340	0.00052185	0.00050578	0.00012701	1327.5	6.3584e-06	2.7102e-06	1321.3	355.12	6.9705e-06	6.7833e-06	409.61	137.34	118.1	40.757	3.9911e-06	51.283	0.00029549	0.00028427	7.8049e-05	1327.8	3.1726e-06	3.0933e-06	1325.9	358.12	3.114e-06	3.0666e-06	412.54	138.17	119	41.352	3.0588e-06	51.691	25.076	9.499	44.481	-48.182	72.964	90.565	-48.382	-43.419	100.818	91.996	-43.739	-39.817	-39.118	-34.255	48.440	-35.041	-8191	255	
6424.381	1	1	0	0	0.12261	0.1061	0.095283	0.097046	0.10157	0.079109	0.15024	0.13995	0.29912	0.12507	0.20963	0.041457	0.31828	0.10825	0.15511	0.16945	-2.2313	-2.1583	-2.725	-2.075	-2.4604	-2.6375	-2.275	-2.5938	-2.4458	-2.0458	-2.7229	-2.175	-2.3896	-2.5708	-1.9458	-2.8375	-4.140	-21.973	297.957	208.273	113.958	-25.489	246.984	257.698	-32.512	146.395	115.553	296.436	267.267	97.359	120.189	174.111	0.00047384	0.0001981	9.1771e-05	1324.3	3.3094e-06	3.8756e-06	1319.6	355.72	4.4343e-06	7.6566e-06	411.43	136.21	118.14	40.76	2.1999e-06	50.95	0.00029586	0.00028323	7.6557e-05	1328.5	3.0952e-06	3.0324e-06	1325.5	358.65	3.1464e-06	3.0531e-06	413.49	137.72	118.81	41.399	3.1004e-06	51.555	18.577	22.872	46.180	-48.052	46.046	73.377	-48.286	-43.195	107.308	118.985	-44.011	-39.397	-38.961	-34.250	120.886	-35.016	-8191	255	
6424.477	1	1	0	0	0.27446	0.13267	0.26731	0.30602	0.094311	0.05328	0.22473	0.2374	0.046493	0.17751	0.11667	0.17915	0.12558	0.438	0.074631	0.22198	-2.2146	-2.0042	-2.5771	-2.3479	-2.1458	-2.8104	-2.3167	-2.5812	-2.4896	-2.1167	-2.9938	-2.4333	-2.0854	-2.9271	-2.0292	-2.3729	84.690	270.698	266.010	240.939	-52.351	60.028	203.045	182.453	146.526	143.449	-31.853	276.252	195.757	218.549	281.151	270.858	0.0005471	0.00053989	0.00017659	1325.8	5.4415e-06	4.5785e-06	1321.4	355.96	4.0555e-06	9.7031e-06	411.41	136.8	118.49	40.569	3.0607e-06	50.587	0.00030022	0.00027881	7.9789e-05	1328.8	3.2063e-06	3.1134e-06	1324.7	358.55	3.1406e-06	3.1664e-06	413.61	138.12	119.2	41.296	3.2094e-06	51.454	27.149	46.035	28.147	-48.066	54.939	73.381	-48.037	-43.401	77.655	81.605	-43.581	-39.723	-41.756	-36.716	67.063	-37.021	-8191	255	
6424.572	1	1	0	0	0.18469	0.10846	0.17745	0.16399	0.11031	0.20375	0.088576	0.30632	0.065466	0.088925	0.25313	0.034186	0.34082	0.18917	0.18023	0.21082	-2.1167	-1.9188	-2.7729	-2.4208	-2.1188	-2.7354	-2.1771	-2.5646	-2.5875	-1.9875	-2.6521	-2.4771	-2.1146	-2.825	-2.1292	-2.4437	-23.324	8.423	148.994	96.223	60.155	-40.416	66.411	247.167	256.482	194.431	-51.667	44.436	235.930	-53.230	15.391	265.217	0.00036257	0.00047989	9.9154e-05	1325.5	2.1024e-06	1.3282e-06	1321.6	356.26	8.2167e-06	6.4334e-06	410.26	136.53	118.6	40.69	6.4416e-06	50.757	0.00030429	0.00028849	7.9596e-05	1329.2	3.2149e-06	3.1326e-06	1328.5	359.02	3.2045e-06	3.214e-06	413.18	138.32	119.34	41.424	3.2321e-06	51.597	43.077	-17.066	18.485	-49.346	93.485	32.772	-49.348	-44.474	69.567	123.114	-45.110	-40.667	-40.235	-35.413	108.102	-36.097	-8191	255	
6424.668	1	1	0	0	0.11661	0.019601	0.10845	0.23357	0.13907	0.10686	0.15939	0.24313	0.16748	0.13283	0.30367	0.25501	0.24407	0.36348	0.10688	0.23108	-2.2292	-1.8771	-2.4875	-2.5833	-2.1292	-2.7354	-2.4188	-2.5021	-2.6104	-1.8083	-2.3729	-2.575	-1.925	-2.9062	-2.1792	-2.2167	153.237	-7.022	-37.605	-52.768	234.728	166.784	261.079	244.014	273.038	-47.801	-47.547	-60.890	289.481	275.841	-21.892	-19.332	0.00038703	0.00057741	0.00014223	1319.7	4.9489e-06	7.2199e-06	1320.8	356.21	3.216e-06	6.0892e-06	410.5	136.31	117.99	40.693	4.4955e-06	50.886	0.00030928	0.00029371	8.1657e-05	1330.6	3.2548e-06	3.2123e-06	1328.4	359.45	3.2247e-06	3.2417e-06	413.21	138.05	119.15	41.379	3.2146e-06	51.633	41.039	27.768	1.224	-49.338	59.603	82.479	-49.293	-44.412	74.288	95.519	-45.023	-40.576	-39.931	-35.334	130.687	-36.473	-8191	255	
6424.788	1	1	0	0	0.09331	0.25401	0.03512	0.040871	0.27342	0.27935	0.30939	0.18364	0.09947	0.11803	0.14543	0.13969	0.15547	0.27112	0.24356	0.21283	-2.2812	-2.0521	-2.2542	-2.7729	-2.1188	-2.5625	-2.3896	-2.0563	-2.6854	-2.1583	-2.5375	-2.5292	-2.0667	-2.6813	-2.3792	-2.2333	247.046	131.098	71.030	-49.421	243.682	31.834	257.137	15.025	207.240	-30.516	262.233	209.374	190.859	273.684	181.622	239.874	0.00042746	0.00047931	6.3983e-05	1324.9	5.4327e-06	3.711e-06	1323.1	356.41	4.5122e-06	3.6243e-06	412.26	136.76	118.24	40.73	3.6636e-06	50.845	0.00030853	0.00029281	8.1692e-05	1331.3	3.224e-06	3.2003e-06	1328.3	359.33	3.1883e-06	3.1962e-06	413.79	138.31	119.12	41.354	3.224e-06	51.58	41.572	16.129	7.761	-49.066	112.890	94.196	-49.232	-44.356	126.887	104.664	-45.080	-40.673	-40.177	-35.473	82.566	-36.165	-8191	255	
6424.860	1	1	0	0	0.30916	0.16778	0.22445	0.22261	0.1714	0.11561	0.264	0.29815	0.1482	0.13802	0.26656	0.25576	0.24702	0.22811	0.25824	0.25932	-2.3479	-2.0208	-2.3187	-2.9729	-2.1104	-2.5042	-2.7313	-2.2583	-2.75	-2.0021	-2.4625	-2.7125	-2.0812	-2.5208	-2.4313	-2.0917	62.300	252.025	63.191	286.615	178.036	10.455	-59.327	293.182	-38.689	234.215	252.080	249.570	142.593	-31.284	-40.302	234.555	0.00039207	0.00037572	0.00012379	1329.1	5.3208e-06	3.7223e-06	1318.8	355.77	3.9763e-06	3.5536e-06	410.9	136.12	118.9	40.666	4.8962e-06	51.034	0.00030779	0.00029248	8.13e-05	1333.1	3.2767e-06	3.2349e-06	1327	358.87	3.2523e-06	3.2423e-06	414	137.81	119.52	41.438	3.2594e-06	51.708	27.461	-3.285	22.593	-49.140	38.119	100.274	-48.992	-44.286	51.209	103.684	-45.006	-40.559	-40.057	-35.302	100.906	-35.962	-8191	255	
6424.956	1	1	0	0	0.13088	0.080501	0.059391	0.18375	0.12184	0.21705	0.31997	0.18814	0.10649	0.12523	0.046762	0.14291	0.29307	0.21326	0.13267	0.04828	-2.425	-2.1625	-2.2083	-2.7354	-2.2542	-2.3083	-2.8271	-2.0292	-2.8417	-2.2146	-2.2792	-2.7687	-1.9562	-2.4875	-2.5479	-2.15	62.928	261.182	94.629	287.144	167.850	27.171	222.264	278.754	127.647	66.702	64.770	243.461	281.745	246.946	248.844	160.889	0.00057895	0.00040108	0.00013424	1329.2	6.473e-06	5.4715e-06	1320	355.66	4.4537e-06	5.1326e-06	411.33	136.55	118.34	40.805	8.6998e-06	50.833	0.0003145	0.00029146	8.1801e-05	1332.2	3.2773e-06	3.2442e-06	1329.1	359.36	3.2318e-06	3.232e-06	413.88	138.23	119.09	41.489	3.3147e-06	51.521	29.473	21.799	24.652	-49.097	43.808	85.614	-49.246	-44.484	163.069	65.113	-45.073	-40.248	-40.001	-35.304	98.285	-36.080	-8191	255	
6425.077	1	1	0	0	0.074338	0.22883	0.17128	0.21967	0.28613	0.24463	0.20132	0.4024	0.13616	0.12641	0.090123	0.17076	0.22243	0.11932	0.10107	0.14947	-2.1479	-2.2854	-2.1833	-2.8125	-2.0187	-2.3	-2.6458	-2.1188	-2.6813	-2.3958	-1.9979	-2.7146	-2.0792	-2.4667	-2.8458	-2.0417	-27.426	28.160	275.768	264.309	204.706	171.933	256.491	196.774	174.004	-37.159	-19.920	-13.712	253.011	277.935	-53.291	212.880	0.00034455	0.00056385	5.3154e-05	1328.1	5.0359e-06	2.2001e-06	1319.6	355.89	8.0313e-06	2.4762e-06	411.58	136.4	118.53	40.935	7.8985e-06	50.746	0.00031153	0.00029843	8.331e-05	1331.7	3.3193e-06	3.2283e-06	1329.4	359.15	3.2672e-06	3.2223e-06	413.83	138.2	119.19	41.465	3.2944e-06	51.584	29.019	3.520	42.812	-49.077	91.322	133.629	-49.261	-44.327	80.570	160.215	-45.142	-40.563	-40.181	-35.475	88.257	-35.986	-8191	255	
6425.173	1	1	0	0	0.34065	0.28134	0.12964	0.11705	0.11108	0.1379	0.22185	0.10445	0.2075	0.094657	0.13939	0.12151	0.31742	0.32424	0.25516	0.12621	-2.1354	-2.4625	-2.0229	-2.8271	-2.1021	-2.1979	-2.8354	-2.1188	-2.4938	-2.4583	-2.2542	-2.6813	-2.3688	-2.3708	-2.7792	-2.1292	140.389	269.459	64.474	237.798	62.691	136.399	198.860	240.354	212.846	6.499	267.100	19.800	268.232	270.551	175.549	-52.570	0.00049164	0.00059551	0.00016119	1324.8	5.8503e-06	5.2895e-06	1320.6	356.95	4.8422e-06	4.7019e-06	412.28	136.91	118.3	40.83	5.4714e-06	50.644	0.00030979	0.00029519	8.4467e-05	1332.4	3.2986e-06	3.32e-06	1328.1	359.52	3.3239e-06	3.2847e-06	414	138.03	119.48	41.461	3.3651e-06	51.499	37.836	18.781	0.343	-48.945	44.120	96.851	-49.228	-44.321	76.752	105.604	-45.099	-40.282	-39.671	-35.167	116.995	-36.037	-8191	255	
6425.269	1	1	0	0	0.15646	0.32445	0.044598	0.26878	0.15047	0.10418	0.1436	0.068692	0.18906	0.1277	0.27506	0.19981	0.053982	0.1053	0.17938	0.1545	-2.05	-2.4167	-2.1688	-2.7542	-2.2542	-2.0521	-2.8438	-2.1771	-2.3604	-2.625	-2.1625	-2.6396	-2.3688	-2.2104	-2.6771	-2.1167	192.106	162.529	-51.939	250.440	274.832	-32.395	239.069	218.643	17.504	277.282	274.249	199.072	295.979	1.663	259.725	246.314	0.00056434	0.00063968	5.8019e-05	1328.9	6.3582e-06	2.3579e-06	1326.4	355.23	6.9559e-06	5.502e-06	410.52	136.87	118.58	40.704	6.6772e-06	50.949	0.00031601	0.00030101	8.3584e-05	1334.4	3.3776e-06	3.3075e-06	1330.1	359.03	3.313e-06	3.2218e-06	413.37	138.36	119.33	41.421	3.3011e-06	51.61	15.916	26.112	11.134	-49.116	0.160	75.692	-49.013	-44.564	120.376	100.275	-44.878	-40.631	-39.708	-35.342	105.310	-35.895	-8191	255	
6425.364	1	1	0	0	0.14754	0.15708	0.33187	0.32361	0.040159	0.054308	0.37963	0.17891	0.050392	0.29488	0.22124	0.075505	0.040457	0.31577	0.060996	0.095988	-1.975	-2.4896	-1.9625	-2.8229	-2.4146	-2.0583	-2.8563	-2.4146	-2.3479	-2.4813	-2.2792	-2.7021	-2.5771	-2.2396	-2.6771	-2.3458	-20.597	2.059	202.563	262.693	237.931	186.026	269.091	259.344	-49.902	109.490	192.577	140.405	293.630	282.918	-10.017	119.305	0.00058501	0.00034781	0.00016659	1327.1	4.8668e-06	5.2077e-06	1324.7	356.52	4.5386e-06	3.2354e-07	410.15	136.33	117.78	40.785	6.0007e-06	50.917	0.00031738	0.00030225	8.3784e-05	1334	3.2809e-06	3.2786e-06	1329.9	359.38	3.2817e-06	3.2494e-06	413.36	138.21	119.12	41.444	3.3007e-06	51.603	22.561	38.972	40.606	-49.024	37.938	67.592	-49.023	-44.261	55.052	293.475	-44.696	-40.451	-39.865	-35.132	99.413	-36.055	-8191	255	
6425.461	1	1	0	0	0.10515	0.179	0.065617	0.38865	0.16768	0.30954	0.089506	0.14893	0.12248	0.030959	0.30912	0.13856	0.30743	0.35338	0.1191	0.22095	-1.9229	-2.4708	-1.9646	-2.8958	-2.4708	-2.0438	-2.8979	-2.55	-2.125	-2.6354	-1.9729	-2.55	-2.7146	-2.125	-2.8	-2.4208	207.322	24.822	111.302	-48.145	-43.974	31.217	276.571	5.053	244.682	184.985	250.967	60.908	215.972	290.533	205.577	215.041	0.00048919	0.00066391	0.0002145	1325.7	4.9336e-06	4.4397e-06	1320.5	357.01	7.3284e-06	3.3345e-06	410.1	136.56	119.16	40.895	5.3346e-06	51.117	0.00031606	0.00029764	8.2462e-05	1332.1	3.3811e-06	3.2748e-06	1328.4	359.61	3.3558e-06	3.2345e-06	412.85	138.07	119.47	41.48	3.2573e-06	51.627	31.861	17.528	8.838	-48.982	44.389	72.209	-49.091	-44.068	111.624	97.308	-45.009	-40.393	-39.952	-35.394	149.713	-35.567	-8191	255	
6425.556	1	1	0	0	0.04467	0.18863	0.068931	0.11429	0.060075	0.13883	0.18068	0.092742	0.030782	0.1104	0.1901	0.31786	0.19263	0.10932	0.19727	0.10304	-1.6063	-2.7979	-1.9417	-2.6479	-2.5312	-2.0438	-2.7292	-2.5604	-1.9354	-2.4667	-2.3646	-2.375	-2.7	-2.1958	-2.5062	-2.4229	177.329	150.974	110.832	259.840	214.768	208.802	237.359	268.887	267.587	-29.460	199.301	-14.144	8.292	246.644	198.230	252.817	0.00052664	0.00050612	0.00012717	1327.9	4.7019e-06	2.5355e-06	1318.4	355.78	6.0979e-06	7.7234e-06	411.97	136.99	118.18	40.858	4.8296e-06	50.754	0.00031694	0.00029549	8.2788e-05	1333.1	3.2865e-06	3.2519e-06	1328.4	359.62	3.3088e-06	3.1978e-06	413.6	138.4	119.07	41.339	3.2877e-06	51.551	23.920	31.141	21.775	-49.126	19.263	108.410	-49.135	-44.493	124.044	124.164	-44.891	-40.613	-39.928	-35.425	65.477	-35.826	-8191	255	
6425.652	1	1	0	0	0.12421	0.22186	0.14359	0.20169	0.033729	0.05243	0.36121	0.32386	0.12646	0.13615	0.13302	0.36941	0.25604	0.12881	0.16789	0.32231	-1.5958	-2.5563	-2.1708	-2.5583	-2.6312	-2.0021	-2.7667	-2.6312	-1.9625	-2.6188	-2.25	-2.3708	-2.7521	-2.1958	-2.4396	-2.6688	39.320	179.965	-5.104	-32.542	285.720	208.160	218.547	214.198	183.612	156.481	62.196	280.993	15.467	248.420	66.777	146.100	0.00053164	0.00077754	0.00014071	1322.5	3.6101e-06	4.7197e-06	1318.9	356.2	4.4765e-06	6.1999e-06	411.55	136.47	118.86	40.963	5.2458e-06	50.978	0.00031498	0.00029953	8.3945e-05	1331.2	3.3383e-06	3.2325e-06	1328	359.3	3.2695e-06	3.2686e-06	413.38	138.01	119.48	41.466	3.2902e-06	51.632	26.968	16.036	15.064	-49.195	66.427	75.974	-49.343	-44.127	164.722	135.975	-44.856	-40.602	-40.116	-35.186	80.834	-36.092	-8191	255	
6425.748	1	1	0	0	0.094392	0.27693	0.17036	0.30298	0.10976	0.051481	0.36754	0.16047	0.045411	0.22389	0.40329	0.19854	0.27638	0.2306	0.20703	0.073237	-1.5875	-2.6646	-2.1521	-2.4188	-2.7062	-2.1125	-2.5542	-2.8	-2.1063	-2.6604	-2.3875	-2.2812	-2.7854	-2.1562	-2.4333	-2.4646	-18.613	27.753	210.496	253.305	-39.024	240.678	-59.196	291.522	164.119	266.465	259.614	-52.733	181.407	150.046	65.402	59.340	0.00036775	0.00053615	0.00012552	1327.9	5.341e-06	5.5355e-06	1322.1	355.48	6.4012e-06	3.6718e-06	409.14	136.96	118.39	40.854	7.2267e-06	50.668	0.00030927	0.00030022	8.252e-05	1332.7	3.2583e-06	3.2484e-06	1328.1	359.16	3.2658e-06	3.1918e-06	412.82	138.14	119.24	41.394	3.2445e-06	51.498	6.325	0.767	9.236	-49.400	71.291	78.783	-49.035	-44.124	114.680	101.652	-45.178	-40.545	-39.886	-35.152	106.681	-35.604	-8191	255	
6425.869	1	1	0	0	0.10561	0.2509	0.10615	0.26074	0.23999	0.20271	0.23367	0.17243	0.21479	0.089041	0.06994	0.15449	0.19984	0.010261	0.048596	0.13525	-1.6375	-2.8375	-2.1396	-2.3396	-2.8208	-2.0208	-2.575	-2.6813	-2.1562	-2.6625	-2.4854	-2.25	-2.8104	-2.3438	-2.3	-2.6375	203.177	165.291	-5.498	283.264	279.796	95.277	217.766	-36.905	164.764	199.429	-21.289	192.212	107.539	14.024	278.550	69.738	0.00054582	0.00056107	0.00014163	1324.4	4.2495e-06	6.9035e-06	1319	356.34	2.8107e-06	3.794e-06	412.01	136.03	117.88	40.787	4.9678e-06	50.924	0.00031205	0.00029661	8.1539e-05	1331.7	3.2418e-06	3.2099e-06	1328.1	359.3	3.3301e-06	3.2323e-06	413.98	138.11	119.05	41.397	3.2995e-06	51.578	9.832	40.001	24.474	-49.184	61.847	64.084	-49.011	-44.207	168.464	61.801	-44.838	-40.464	-39.693	-35.108	75.707	-35.810	-8191	255	
6425.965	1	1	0	0	0.10494	0.016351	0.23323	0.057294	0.03498	0.18301	0.14765	0.28846	0.11774	0.21245	0.065313	0.1767	0.089356	0.24359	0.17335	0.16005	-1.5042	-2.3042	-2.5271	-2.1146	-2.5833	-2.1646	-2.6458	-2.6396	-2.2625	-2.6562	-2.5729	-2.1021	-2.7271	-2.4042	-2.0229	-2.8563	92.263	109.796	-38.495	289.435	282.931	-3.418	297.608	227.750	258.458	2.801	294.165	251.512	280.973	285.779	135.244	91.217	0.00057968	0.00056956	0.00022043	1323	7.7264e-06	2.6576e-06	1326.5	354.79	8.8406e-06	6.0272e-06	411.21	136.59	118.17	40.837	6.0188e-06	50.993	0.00031703	0.00029823	8.3403e-05	1328.6	3.3436e-06	3.2876e-06	1328.6	359.19	3.2723e-06	3.3086e-06	413.61	138.06	119.18	41.447	3.3389e-06	51.6	29.014	15.690	44.645	-48.951	64.911	132.632	-49.244	-44.275	69.710	128.607	-44.930	-40.385	-39.940	-35.594	68.417	-35.795	-8191	255	
6426.061	1	1	0	0	0.10365	0.1179	0.23105	0.1684	0.0059989	0.043196	0.38684	0.054299	0.19532	0.21416	0.10842	0.31199	0.12164	0.35968	0.12578	0.054532	-1.5708	-2.4479	-2.525	-2.1688	-2.7	-2.3104	-2.2229	-2.9292	-2.1833	-2.1917	-2.6937	-2.0979	-2.6667	-2.2938	-2.0833	-2.9208	275.856	156.830	229.323	239.193	-12.213	125.075	227.105	56.020	131.226	88.605	248.471	259.601	111.872	186.225	196.747	-35.977	0.0004858	0.00047756	0.00017016	1325.9	3.9517e-06	3.024e-06	1324.6	355.53	2.8298e-06	4.2121e-06	411.72	136.51	118.91	40.935	3.7039e-06	50.847	0.00031946	0.0002989	8.3264e-05	1331.3	3.2823e-06	3.2447e-06	1328.6	359.15	3.339e-06	3.226e-06	413.43	138.13	119.28	41.476	3.2845e-06	51.579	28.480	29.254	17.650	-48.802	6.127	32.510	-49.094	-44.282	57.512	141.701	-44.941	-40.607	-39.806	-35.005	76.501	-35.753	-8191	255	
6426.157	1	1	0	0	0.06697	0.17859	0.1352	0.31093	0.2814	0.068181	0.11121	0.33554	0.15173	0.29119	0.33638	0.29702	0.12366	0.093798	0.22587	0.095774	-1.6521	-2.3937	-2.7687	-2.2646	-2.5375	-2.2938	-2.35	-2.775	-2.1729	-2.2708	-2.6646	-2.0479	-2.5729	-2.5542	-2.0958	-2.9979	170.401	221.106	-40.806	230.618	201.065	218.259	132.874	277.116	281.150	111.905	-59.243	-3.995	131.524	223.985	122.176	157.547	0.00051157	0.00039197	0.00015623	1324.8	3.3119e-06	3.1705e-06	1323	358.06	8.2249e-06	5.1991e-06	410.26	136.1	118.59	40.821	2.2774e-06	51.018	0.0003119	0.00030136	8.213e-05	1332.4	3.2374e-06	3.2715e-06	1328.2	359.87	3.3438e-06	3.2989e-06	412.77	138.16	119.18	41.461	3.2009e-06	51.669	0.911	8.771	36.632	-49.097	96.964	62.749	-49.261	-44.079	101.371	136.453	-44.816	-40.730	-39.962	-35.243	121.843	-35.831	-8191	255	
6426.253	1	1	0	0	0.3558	0.23101	0.10162	0.24371	0.10028	0.091108	0.17004	0.18535	0.082193	0.27721	0.25674	0.15426	0.14436	0.16398	0.053243	0.26257	-1.8792	-2.1021	-2.8312	-2.4208	-2.5667	-2.5625	-2.0958	-2.7438	-2.2667	-2.2188	-2.8271	-2.3146	-2.4125	-2.7604	-1.9646	-2.8958	53.609	63.023	-60.340	289.984	92.801	-2.329	262.400	271.141	259.805	240.000	279.688	227.978	250.842	286.819	161.913	-51.102	0.00055637	0.00070798	0.00013283	1325.3	3.0428e-06	3.3511e-06	1319.1	357.55	3.428e-06	6.1299e-06	411.88	136.67	118.58	40.961	2.867e-06	50.843	0.00031136	0.00029829	8.2835e-05	1330.6	3.3072e-06	3.2009e-06	1327.5	359.69	3.3197e-06	3.2577e-06	414.01	138.22	119.09	41.52	3.3089e-06	51.574	20.785	8.554	42.304	-49.083	103.592	66.159	-49.033	-44.151	58.356	87.031	-44.806	-40.638	-40.026	-35.007	57.730	-35.698	-8191	255	
6426.350	1	1	0	0	0.057495	0.079123	0.065736	0.11951	0.13693	0.16992	0.41203	0.2342	0.059306	0.25776	0.24076	0.037263	0.17624	0.064455	0.10491	0.22982	-2.0312	-2.1437	-2.7146	-2.3479	-2.3833	-2.7562	-2.2792	-2.75	-2.2833	-2.1333	-2.9958	-2.0854	-2.4688	-2.7229	-2.1979	-2.7375	162.233	13.042	240.765	266.504	222.562	-58.304	190.443	262.760	180.451	287.718	-49.036	-12.087	-38.082	110.618	-5.526	-49.654	0.00055349	0.00048327	0.00014324	1326	5.1431e-06	5.6991e-06	1320.6	357.03	3.9768e-06	2.8492e-06	410.26	136.78	118.34	40.766	3.4624e-06	50.767	0.00031142	0.00030186	8.2982e-05	1331	3.3041e-06	3.2406e-06	1328.2	359.36	3.2851e-06	3.3251e-06	413.16	138.1	119.21	41.443	3.2804e-06	51.616	33.218	22.262	44.941	-49.015	89.017	64.120	-49.038	-44.159	205.718	112.212	-44.924	-40.342	-39.720	-35.142	101.225	-35.698	-8191	255	
6426.468	1	1	0	0	0.068837	0.077871	0.15535	0.094967	0.26852	0.13033	0.19865	0.15453	0.043879	0.27898	0.33501	0.064726	0.19253	0.15809	0.15582	0.026803	-1.9396	-2.05	-2.6813	-2.2958	-2.3438	-2.7292	-2.2479	-2.6854	-2.5125	-1.975	-2.8875	-2.2062	-2.4313	-2.7542	-2.0104	-2.6292	-10.870	126.083	37.257	-33.286	-33.907	189.597	224.457	222.675	-41.797	46.977	246.899	247.079	246.659	48.438	177.687	148.529	0.00053247	0.00056996	6.5825e-05	1326.5	4.7433e-06	4.1257e-06	1321.7	356.17	5.6714e-06	6.2887e-06	410.73	136.92	118.53	40.735	1.8669e-06	50.928	0.00031235	0.00029815	8.3007e-05	1332.8	3.2385e-06	3.2201e-06	1329.5	359.22	3.2521e-06	3.2329e-06	413.82	138.11	119.3	41.379	3.2924e-06	51.562	30.419	10.016	31.864	-49.015	73.722	70.922	-49.352	-44.753	72.760	109.179	-45.013	-40.459	-39.968	-35.165	45.671	-35.768	-8191	255	
6426.565	1	1	0	0	0.26733	0.16275	0.13375	0.13965	0.15881	0.22655	0.29499	0.16556	0.34142	0.1801	0.21469	0.081472	0.24432	0.11564	0.18756	0.19642	-2.0687	-1.7646	-2.6875	-2.5	-2.1917	-2.7687	-2.2771	-2.8187	-2.6333	-1.9833	-2.8937	-2.3646	-2.2083	-2.7646	-2.325	-2.5938	157.035	-60.591	273.474	213.423	244.430	242.706	232.935	166.868	-34.235	227.041	266.306	-18.421	262.242	130.347	49.749	-57.779	0.00050084	0.00061047	0.00013454	1323.9	2.3861e-06	6.072e-06	1317.7	356.26	4.7791e-06	6.1781e-06	411.11	136.93	118.2	40.714	5.8866e-06	50.969	0.00031012	0.00029808	8.2001e-05	1330.5	3.282e-06	3.2424e-06	1326.8	359.58	3.2856e-06	3.3031e-06	413.98	138.04	119.08	41.488	3.2073e-06	51.611	18.700	-9.909	32.551	-48.801	-0.901	69.187	-49.028	-44.035	102.545	105.751	-44.686	-40.441	-40.077	-35.226	94.897	-35.871	-8191	255	
6426.661	1	1	0	0	0.22558	0.12365	0.19468	0.15215	0.18128	0.10369	0.092135	0.25368	0.20096	0.17719	0.13703	0.29752	0.3698	0.13333	0.088841	0.16131	-2.1917	-1.9	-2.7354	-2.6583	-1.9875	-2.7542	-2.2167	-2.4604	-2.5042	-1.9354	-2.7417	-2.6542	-2.0625	-2.9104	-2.0333	-2.2583	8.280	23.841	235.400	162.039	-8.569	289.639	293.797	277.582	37.337	295.360	230.170	193.311	288.132	185.621	73.740	-51.803	0.00049348	0.00067711	0.00013254	1322.4	4.0521e-06	5.1235e-06	1322.8	356.97	4.3305e-06	6.8015e-06	411.75	136.1	118.45	40.954	2.3526e-06	51.012	0.00031584	0.00029719	8.458e-05	1329.5	3.3337e-06	3.2509e-06	1329.3	359.25	3.3079e-06	3.2816e-06	413.5	138	119.33	41.497	3.3119e-06	51.586	32.773	21.383	21.236	-48.995	107.981	76.634	-48.919	-44.212	104.842	92.541	-44.849	-40.754	-39.774	-34.933	62.336	-36.034	-8191	255	
6426.732	1	1	0	0	0.1016	0.026144	0.099709	0.31104	0.16229	0.18153	0.16976	0.17351	0.065634	0.3473	0.12318	0.11088	0.15454	0.23801	0.0579	0.1556	-2.1521	-1.8646	-2.55	-2.6417	-1.9688	-2.7729	-2.4813	-2.3771	-2.8125	-2.15	-2.4792	-2.5	-2.1604	-2.7792	-2.2479	-2.0521	198.426	240.545	15.055	-20.459	244.962	22.568	275.605	137.544	176.896	135.772	296.096	142.656	-60.628	-33.105	-6.235	-45.935	0.00037349	0.00061202	6.028e-05	1327.1	7.0683e-06	2.4829e-06	1321.2	355.49	7.5788e-06	6.3697e-06	412.14	136.69	117.96	40.828	2.9025e-06	50.822	0.0003112	0.00029747	8.4277e-05	1331.9	3.3091e-06	3.3086e-06	1328.2	359.22	3.3262e-06	3.2825e-06	413.94	138.21	119.23	41.423	3.2777e-06	51.495	8.262	16.290	47.705	-48.933	54.239	45.700	-48.940	-44.174	74.801	87.073	-44.870	-40.441	-39.652	-35.080	85.814	-35.623	-8191	255	
6426.853	1	1	0	0	0.11922	0.26373	0.16206	0.31696	0.019756	0.078445	0.16436	0.10235	0.082969	0.16092	0.065699	0.15841	0.34814	0.12474	0.1289	0.19236	-2.2625	-1.7208	-2.4271	-2.6979	-1.9125	-2.5875	-2.5729	-2.1646	-2.7146	-2.0792	-2.6896	-2.8104	-2.2229	-2.8146	-2.3083	-2.2292	54.870	-27.962	116.323	233.652	-10.696	87.494	262.237	285.746	7.180	195.446	191.326	113.858	-27.918	178.048	60.882	204.447	0.0004107	0.00036674	0.00011722	1324.4	5.7846e-06	7.8905e-06	1323.2	356.58	4.7819e-06	2.5655e-06	410.44	136.73	118.38	40.881	6.0939e-06	50.906	0.00031707	0.00030232	8.2369e-05	1332.5	3.3456e-06	3.2734e-06	1328.5	359.43	3.3101e-06	3.2614e-06	414	138.41	119.15	41.443	3.326e-06	51.577	25.867	21.741	37.090	-48.808	42.542	47.488	-48.985	-44.227	96.281	131.666	-44.571	-40.183	-39.794	-35.165	111.098	-35.889	-8191	255	
6426.949	1	1	0	0	0.082515	0.082545	0.04096	0.106	0.057182	0.16181	0.13097	0.1641	0.083054	0.2884	0.26434	0.066581	0.10285	0.2621	0.044723	0.06275	-2.3167	-2.0667	-2.1979	-2.8146	-2.1312	-2.6125	-2.4813	-2.0854	-2.8812	-2.4146	-2.3271	-2.8438	-2.1958	-2.475	-2.3625	-2.2687	50.030	91.205	270.556	-13.231	149.991	56.286	-32.429	260.088	-32.644	20.726	200.925	15.792	147.456	280.288	255.920	101.824	0.00044769	0.00023336	0.00014894	1328.8	4.3944e-06	3.7816e-06	1315.5	356.47	5.4968e-06	7.1933e-06	412.47	136.36	118.15	40.969	2.3856e-06	51.052	0.00031514	0.00029859	8.4609e-05	1331.3	3.3398e-06	3.267e-06	1327.4	359.46	3.3235e-06	3.2296e-06	413.68	138.33	119.1	41.47	3.3024e-06	51.642	29.727	24.257	26.609	-48.732	66.777	98.216	-48.694	-44.389	40.814	105.021	-44.592	-40.023	-39.697	-34.947	-4.049	-35.910	-8191	255	
6427.045	1	1	0	0	0.090625	0.13012	0.072119	0.29641	0.16532	0.22981	0.11725	0.17789	0.094289	0.21053	0.2384	0.12146	0.17049	0.19619	0.074012	0.31321	-2.4104	-2.2375	-2.1375	-2.7875	-1.9833	-2.5208	-2.825	-2.2354	-2.45	-2.2646	-2.3604	-2.6917	-1.9688	-2.4917	-2.6042	-2.1	233.863	-15.159	-24.026	258.124	43.753	-33.026	-52.255	-23.675	270.293	186.833	278.986	222.516	-10.013	79.921	210.177	235.547	0.00057854	0.00041382	0.00013667	1321.9	5.3812e-06	5.5724e-06	1320.9	357.25	6.5903e-06	4.2506e-06	410.25	135.95	118.29	40.749	2.8267e-06	51.096	0.00031436	0.00029958	8.3897e-05	1332.2	3.2962e-06	3.2107e-06	1329.5	359.89	3.2773e-06	3.2543e-06	413.58	138.15	119.29	41.379	3.2591e-06	51.628	31.507	25.287	59.545	-48.689	63.631	68.578	-48.804	-44.045	88.107	90.501	-44.842	-40.223	-39.775	-35.134	41.362	-35.702	-8191	255	
6427.141	1	1	0	0	0.30165	0.22764	0.32245	0.17382	0.089925	0.21608	0.20485	0.065064	0.37778	0.15901	0.13787	0.24467	0.038443	0.096739	0.14644	0.1548	-2.2271	-2.4521	-2.0438	-2.7104	-2.0708	-2.3979	-2.7188	-2.2188	-2.5958	-2.3083	-2.1083	-2.7562	-2.1583	-2.2146	-2.6104	-1.8729	40.665	14.591	-28.740	271.201	265.413	68.027	-21.393	75.380	173.738	-21.533	241.377	-16.341	-51.627	275.637	189.871	-26.389	0.00055283	0.00039874	8.9293e-05	1332.2	5.0285e-06	6.134e-06	1320.1	356.69	4.4291e-06	7.0314e-06	409.53	136.41	118.43	40.883	6.2056e-06	51.024	0.00031161	0.00030225	8.2462e-05	1335.1	3.3265e-06	3.2613e-06	1328	359.84	3.2933e-06	3.24e-06	413.18	138.14	119.13	41.442	3.3196e-06	51.602	22.697	16.305	46.116	-48.716	46.865	91.901	-48.872	-44.246	153.794	80.028	-44.902	-40.024	-39.271	-34.922	100.621	-35.530	-8191	255	
6427.260	1	1	0	0	0.14637	0.16097	0.10749	0.33987	0.22048	0.15084	0.24622	0.053646	0.14324	0.23543	0.21063	0.29404	0.1993	0.18463	0.11141	0.18045	-2.1917	-2.2812	-1.9854	-2.9396	-2.0417	-2.1833	-2.7979	-2.1083	-2.4729	-2.3917	-2.1063	-2.7	-2.2646	-2.2062	-2.5458	-1.9833	77.082	121.601	-12.755	281.943	-28.169	-54.674	263.698	89.512	-38.772	-58.113	216.442	266.884	37.746	291.108	293.307	-54.141	0.00039779	0.00045833	0.00010461	1328.1	6.7072e-06	4.8271e-06	1321	355.82	6.1331e-06	5.4769e-06	412.53	136.52	118.13	40.854	3.3871e-06	50.803	0.00031464	0.00030193	8.2862e-05	1332.2	3.3122e-06	3.285e-06	1330.5	359.18	3.3316e-06	3.22e-06	414.07	138.2	118.85	41.418	3.3074e-06	51.462	24.690	7.306	60.000	-48.722	74.976	53.582	-49.158	-44.328	66.115	143.690	-44.562	-40.225	-39.667	-35.081	67.459	-35.788	-8191	255	
6427.334	1	1	0	0	0.10692	0.23061	0.20704	0.16783	0.16557	0.040667	0.35693	0.19196	0.14969	0.11883	0.083828	0.11039	0.082798	0.057605	0.16036	0.10612	-1.8375	-2.3187	-1.9396	-2.7917	-2.1312	-2.0021	-2.8833	-2.15	-2.3583	-2.5167	-2.0333	-2.65	-2.2771	-2.1083	-2.5375	-2.1417	56.600	156.065	230.179	254.796	221.431	288.834	223.389	237.557	-18.580	49.498	277.450	269.571	234.357	296.747	176.188	-33.038	0.00046712	0.00040358	0.00017993	1328.8	3.7981e-06	9.4609e-06	1321.3	355.37	6.634e-06	7.5604e-06	411.17	136.14	117.59	40.742	1.2399e-06	50.904	0.00031458	0.00029765	8.2593e-05	1333.6	3.3363e-06	3.3326e-06	1330.4	358.38	3.3137e-06	3.2842e-06	413.25	138.03	118.91	41.363	3.3091e-06	51.578	33.192	15.858	46.746	-48.652	38.186	74.917	-48.897	-44.093	81.311	78.984	-44.987	-40.296	-39.824	-35.069	24.220	-35.474	-8191	255	
6427.430	1	1	0	0	0.0651	0.19675	0.31118	0.46494	0.2034	0.12992	0.33647	0.076661	0.17874	0.23889	0.3521	0.22901	0.19536	0.14783	0.1648	0.10943	-1.7271	-2.3604	-1.7896	-2.6146	-2.5604	-2.0375	-2.8771	-2.2812	-2.0812	-2.5521	-2.0167	-2.7188	-2.4208	-2.0875	-2.7562	-2.2417	140.115	-17.427	161.638	261.816	256.579	182.300	218.123	216.990	-19.522	173.374	249.950	250.521	162.435	266.245	-52.502	194.998	0.0003486	0.00043939	0.0001399	1329.4	8.4934e-06	3.0313e-06	1322.3	355.25	4.3663e-06	8.1245e-06	410.49	136.18	118.22	40.827	6.068e-06	50.976	0.00032132	0.0003025	8.3763e-05	1333.1	3.3272e-06	3.3261e-06	1328.9	358.81	3.3157e-06	3.249e-06	413.21	137.85	119.29	41.356	3.3491e-06	51.6	24.045	39.809	33.142	-48.858	26.707	82.266	-48.656	-44.046	87.534	123.297	-44.798	-40.332	-39.570	-35.178	99.317	-35.655	-8191	255	
6427.549	1	1	0	0	0.087958	0.21282	0.13181	0.083255	0.027265	0.10994	0.19885	0.11226	0.089558	0.099906	0.21851	0.23467	0.17148	0.18338	0.27172	0.22123	-1.9146	-2.5583	-1.9062	-2.4062	-2.3625	-1.9104	-2.7771	-2.3167	-2.225	-2.7083	-2.075	-2.4208	-2.5104	-1.8479	-2.5146	-2.5625	9.047	47.759	225.674	271.536	256.091	37.381	197.909	259.445	267.110	227.701	248.450	246.185	-33.857	-60.661	235.772	-51.065	0.00033207	0.00063082	0.00012211	1329	4.6494e-06	1.3986e-06	1319	356.31	5.6144e-06	4.7675e-06	409.49	136.32	118.07	40.835	1.7714e-06	50.899	0.00031858	0.00030281	8.3497e-05	1332.1	3.3476e-06	3.3303e-06	1326.9	358.95	3.3581e-06	3.265e-06	412.96	137.9	118.97	41.36	3.3461e-06	51.483	30.335	24.367	36.651	-48.834	75.376	56.251	-48.889	-44.028	78.248	104.654	-44.719	-40.696	-40.614	-35.620	65.671	-36.129	-8191	255	
6427.645	1	1	0	0	0.34615	0.13164	0.15475	0.11881	0.20523	0.16408	0.32263	0.21479	0.11077	0.073765	0.095016	0.086504	0.14953	0.085608	0.11663	0.18144	-1.3771	-2.6896	-2.0479	-2.4042	-2.4396	-2.0042	-2.7396	-2.3792	-1.9813	-2.6417	-2.1896	-2.2292	-2.45	-2.1083	-2.4688	-2.5	99.071	138.801	1.547	281.530	67.123	176.524	259.664	257.035	132.948	249.020	228.795	264.577	197.378	241.684	285.495	252.857	0.00058562	0.00074384	6.0278e-05	1324.8	7.8299e-06	4.2888e-06	1321.9	355.2	3.9917e-06	3.2987e-06	411.21	136.41	118.07	40.65	4.6511e-06	51.001	0.00031754	0.00030165	8.4651e-05	1331.2	3.3671e-06	3.3144e-06	1328.4	359.02	3.3636e-06	3.2599e-06	412.72	138.02	118.92	41.303	3.3089e-06	51.521	26.341	21.113	39.706	-48.751	84.312	91.065	-48.908	-43.879	64.001	137.847	-44.736	-40.294	-39.701	-35.203	84.583	-35.836	-8191	255	
6427.741	1	1	0	0	0.092123	0.14759	0.28876	0.11101	0.13969	0.10862	0.39743	0.14128	0.16867	0.1616	0.13362	0.24156	0.16612	0.054353	0.053104	0.22609	-1.4625	-2.4583	-2.0687	-2.3729	-2.6375	-1.9625	-2.6958	-2.3812	-2.0042	-2.6354	-2.2625	-2.1813	-2.5146	-1.8917	-2.6229	-2.5271	273.185	291.879	227.164	-47.598	247.628	195.666	202.138	113.326	184.851	130.943	202.415	228.946	222.522	99.418	194.917	81.346	0.00036685	0.00034695	0.00011116	1326	5.7056e-06	3.6682e-06	1317.8	356.45	6.9428e-07	3.8725e-06	411.13	135.93	118.24	40.659	2.1652e-06	51.024	0.00031686	0.00030385	8.4323e-05	1331.4	3.3679e-06	3.3012e-06	1326.9	359.68	3.3589e-06	3.2793e-06	412.95	137.88	119.06	41.306	3.3166e-06	51.563	26.524	-4.442	10.187	-48.877	49.899	105.866	-48.754	-43.995	35.599	81.827	-44.677	-40.465	-39.844	-35.226	146.024	-35.790	-8191	255	
6427.862	1	1	0	0	0.11289	0.049972	0.10193	0.35477	0.055522	0.2297	0.26444	0.36549	0.34293	0.068944	0.16178	0.18389	0.033238	0.09952	0.056992	0.032969	-1.4458	-2.5667	-2.1625	-2.1167	-2.6521	-1.9854	-2.7146	-2.7521	-1.9083	-2.5625	-2.4021	-2.1979	-2.7083	-2.0687	-2.2417	-2.6771	57.205	-8.928	130.948	-52.494	145.020	150.351	276.418	248.673	198.696	140.436	225.204	133.705	121.935	127.920	211.907	276.818	0.00048042	0.00047753	0.00010469	1325.6	5.8906e-06	4.317e-06	1323.2	355.67	6.6799e-06	3.9501e-06	410.36	136.57	117.78	40.576	8.0972e-06	50.887	0.00031614	0.00029832	8.3348e-05	1328.6	3.3304e-06	3.2891e-06	1328.5	358.71	3.3236e-06	3.3259e-06	413.59	138.03	118.93	41.283	3.4152e-06	51.486	8.309	-10.880	34.783	-49.559	41.652	97.605	-49.134	-44.392	116.202	104.400	-44.583	-40.480	-39.236	-35.040	97.733	-35.756	-8191	255	
6427.958	1	1	0	0	0.033264	0.042811	0.09523	0.17043	0.07957	0.15001	0.29291	0.18864	0.10079	0.1376	0.11825	0.17103	0.19971	0.25621	0.23012	0.075101	-1.4896	-2.5083	-2.2771	-2.2687	-2.8208	-2.0563	-2.4938	-2.6063	-1.7104	-2.4771	-2.3354	-2.0333	-2.6979	-2.2458	-2.2167	-2.7438	-17.715	229.158	-31.936	226.156	224.724	272.531	279.358	291.696	136.311	235.251	283.127	243.546	190.445	-42.898	68.544	-44.279	0.00049879	0.0005973	5.6999e-05	1326.6	3.0893e-06	3.7868e-06	1321.5	356.94	7.2129e-06	5.8853e-06	410.81	136.46	118.81	40.822	4.4727e-06	50.76	0.00032211	0.00030839	8.3293e-05	1330.5	3.3626e-06	3.3274e-06	1327.7	358.91	3.4688e-06	3.3539e-06	413.6	137.86	119.39	41.363	3.4017e-06	51.475	28.413	33.131	58.667	-48.725	36.881	72.698	-48.872	-44.181	84.141	120.081	-44.295	-40.351	-39.676	-35.167	90.323	-35.602	-8191	255	
6428.030	1	1	0	0	0.1948	0.079052	0.16021	0.26536	0.24289	0.27935	0.025944	0.10185	0.1341	0.11413	0.29726	0.32605	0.21313	0.22428	0.21878	0.091071	-1.6479	-2.475	-2.5021	-2.2146	-2.5854	-2.0646	-2.4062	-2.7792	-1.9458	-2.5292	-2.6542	-2.0771	-2.6583	-2.3792	-2.1688	-2.7562	-38.751	266.689	210.203	250.938	221.365	188.867	232.123	-59.029	194.526	2.296	157.221	284.415	242.564	225.648	202.319	206.944	0.00041843	0.0004087	0.00014849	1324.6	5.8474e-06	5.6716e-06	1324.6	356.56	3.1566e-06	7.0508e-06	411.55	136.06	118.99	40.688	1.483e-06	50.585	0.00032218	0.00030498	8.4778e-05	1330.3	3.3569e-06	3.3279e-06	1328.9	359.13	3.3282e-06	3.3855e-06	413.53	137.95	119.17	41.374	3.409e-06	51.498	27.922	12.024	35.386	-48.956	64.865	53.512	-48.866	-44.053	188.080	107.011	-44.649	-40.378	-39.839	-34.879	92.714	-35.592	-8191	255	
6428.150	1	1	0	0	0.14498	0.17788	0.077041	0.14451	0.19265	0.31565	0.28402	0.15165	0.17191	0.15228	0.11911	0.14387	0.19384	0.19634	0.13689	0.24168	-1.5	-2.4667	-2.3583	-2.1	-2.5708	-2.45	-2.2562	-2.8042	-2.0271	-2.1562	-2.7313	-2.0271	-2.725	-2.4333	-2.0771	-2.6562	25.516	38.207	124.371	250.085	202.570	288.340	217.503	200.794	8.387	190.736	118.402	282.479	24.073	239.209	277.859	210.213	0.00047695	0.00070975	4.619e-05	1328.1	6.5483e-06	4.0412e-06	1325.6	356.57	2.2903e-06	5.4001e-06	410.77	135.77	118.24	40.754	4.8034e-06	50.904	0.0003202	0.00030266	8.4095e-05	1331.1	3.3926e-06	3.3099e-06	1328.6	359.05	3.3722e-06	3.3716e-06	413.33	137.62	118.86	41.356	3.3927e-06	51.516	30.673	18.542	-10.012	-48.712	16.763	48.751	-48.977	-44.100	45.820	105.053	-44.496	-40.354	-39.672	-35.157	140.491	-35.880	-8191	255	
6428.246	1	1	0	0	0.081463	0.20825	0.10743	0.19987	0.18763	0.21112	0.32518	0.061798	0.29995	0.077048	0.1611	0.14812	0.081871	0.23774	0.35343	0.045422	-1.6958	-2.2042	-2.5542	-2.1229	-2.5771	-2.4437	-2.1729	-2.6958	-2.0708	-2.2083	-2.5458	-1.9562	-2.4771	-2.6042	-2.0917	-2.8104	132.241	-52.439	265.206	278.858	-49.542	90.223	253.003	223.092	100.996	-11.385	79.696	25.451	-45.653	181.436	239.835	22.625	0.00046207	0.00062137	0.00013276	1323.2	7.4913e-06	4.737e-06	1324.6	355.99	7.8527e-06	4.3873e-06	411.48	136.25	118.16	40.918	6.9032e-06	51.044	0.00032009	0.00031287	8.6475e-05	1330.3	3.4281e-06	3.3633e-06	1329.9	358.9	3.3823e-06	3.3425e-06	413.43	137.88	118.99	41.398	3.3853e-06	51.544	20.410	12.575	65.911	-48.837	49.756	70.213	-48.801	-44.233	58.274	104.112	-44.454	-40.173	-39.504	-34.933	60.607	-35.710	-8191	255	
6428.341	1	1	0	0	0.078841	0.24773	0.12637	0.36106	0.23172	0.10212	0.38853	0.17149	0.0989	0.21933	0.12438	0.204	0.24289	0.050609	0.16546	0.31981	-1.7333	-2.1688	-2.5187	-2.1583	-2.4813	-2.3958	-2.1479	-2.7417	-2.0438	-2.1958	-2.9813	-2.2125	-2.3604	-2.65	-1.9188	-2.8417	112.559	-13.227	88.199	271.034	244.911	146.706	195.686	294.441	34.626	36.526	174.765	276.280	233.098	236.023	257.755	-61.795	0.00046909	0.00041377	0.00013431	1326.9	6.4311e-06	6.5194e-06	1319	355.67	5.0451e-06	7.7367e-06	410.94	135.77	118.54	40.913	6.1977e-06	50.843	0.00031676	0.00030793	8.6005e-05	1331.7	3.3619e-06	3.3426e-06	1328.1	359.26	3.4341e-06	3.3443e-06	413.39	137.92	119.05	41.395	3.3927e-06	51.442	30.695	32.509	9.592	-48.685	74.358	73.975	-48.769	-44.085	84.987	136.830	-44.559	-40.191	-39.758	-34.762	112.642	-35.656	-8191	255	
#DATA ENDS
