BOXY.EXE: ISS Imagent and Oximeter Data Acquisition Program Version 0.80
Ascii Record File

#ACQ INFORMATION
2  Detector Channels 
16  External MUX Channels 
1  Auxiliary Channels 
5000  Waveform (CCF) Frequency (Hz)
1  Waveforms Skipped 
30  Waveforms Averaged 
1  Cycles Averaged 
16  Acquisitions per Waveform 
10.0806  Updata Rate (Hz) 

#FILE INFORMATION
TRUE -- External MUX Channel results are PARSED.
FALSE -- AC DC and Phase are NOT grouped.
TRUE -- Companion Program Settings File CREATED.
FALSE -- AC data not excluded
FALSE -- DC data not excluded
FALSE -- Phase data not excluded
FALSE -- Auxillary Chn. data not excluded
Tab delimiters

#CALIBRATION STATE
TRUE -- Waveform Calibration Values APPLIED.


#AUX CALIBRATION VALUES
Val Type	aux-1	

Term	1.0000e+00	
Factor	0.0000e+00	


#WF CALIBRATION VALUES
A = Detector Channel
Val Type	A-AC1	A-AC2	A-AC3	A-AC4	A-AC5	A-AC6	A-AC7	A-AC8	A-AC9	A-AC10	A-AC11	A-AC12	A-AC13	A-AC14	A-AC15	A-AC16	A-DC1	A-DC2	A-DC3	A-DC4	A-DC5	A-DC6	A-DC7	A-DC8	A-DC9	A-DC10	A-DC11	A-DC12	A-DC13	A-DC14	A-DC15	A-DC16	A-Ph1	A-Ph2	A-Ph3	A-Ph4	A-Ph5	A-Ph6	A-Ph7	A-Ph8	A-Ph9	A-Ph10	A-Ph11	A-Ph12	A-Ph13	A-Ph14	A-Ph15	A-Ph16	

Term	0.00000e+00	0.00000e+00	0.00000e+00	0.00000e+00	0.00000e+00	0.00000e+00	0.00000e+00	0.00000e+00	0.00000e+00	0.00000e+00	0.00000e+00	0.00000e+00	0.00000e+00	0.00000e+00	0.00000e+00	0.00000e+00	0.00000e+00	0.00000e+00	0.00000e+00	0.00000e+00	0.00000e+00	0.00000e+00	0.00000e+00	0.00000e+00	0.00000e+00	0.00000e+00	0.00000e+00	0.00000e+00	0.00000e+00	0.00000e+00	0.00000e+00	0.00000e+00	0.00000e+00	0.00000e+00	0.00000e+00	0.00000e+00	0.00000e+00	0.00000e+00	0.00000e+00	0.00000e+00	0.00000e+00	0.00000e+00	0.00000e+00	0.00000e+00	0.00000e+00	0.00000e+00	0.00000e+00	0.00000e+00	
Factor	1.00000e+00	1.00000e+00	1.00000e+00	1.00000e+00	1.00000e+00	1.00000e+00	1.00000e+00	1.00000e+00	1.00000e+00	1.00000e+00	1.00000e+00	1.00000e+00	1.00000e+00	1.00000e+00	1.00000e+00	1.00000e+00	1.00000e+00	1.00000e+00	1.00000e+00	1.00000e+00	1.00000e+00	1.00000e+00	1.00000e+00	1.00000e+00	1.00000e+00	1.00000e+00	1.00000e+00	1.00000e+00	1.00000e+00	1.00000e+00	1.00000e+00	1.00000e+00	X	X	X	X	X	X	X	X	X	X	X	X	X	X	X	X	

B = Detector Channel
Val Type	B-AC1	B-AC2	B-AC3	B-AC4	B-AC5	B-AC6	B-AC7	B-AC8	B-AC9	B-AC10	B-AC11	B-AC12	B-AC13	B-AC14	B-AC15	B-AC16	B-DC1	B-DC2	B-DC3	B-DC4	B-DC5	B-DC6	B-DC7	B-DC8	B-DC9	B-DC10	B-DC11	B-DC12	B-DC13	B-DC14	B-DC15	B-DC16	B-Ph1	B-Ph2	B-Ph3	B-Ph4	B-Ph5	B-Ph6	B-Ph7	B-Ph8	B-Ph9	B-Ph10	B-Ph11	B-Ph12	B-Ph13	B-Ph14	B-Ph15	B-Ph16	

Term	0.00000e+00	0.00000e+00	0.00000e+00	0.00000e+00	0.00000e+00	0.00000e+00	0.00000e+00	0.00000e+00	0.00000e+00	0.00000e+00	0.00000e+00	0.00000e+00	0.00000e+00	0.00000e+00	0.00000e+00	0.00000e+00	0.00000e+00	0.00000e+00	0.00000e+00	0.00000e+00	0.00000e+00	0.00000e+00	0.00000e+00	0.00000e+00	0.00000e+00	0.00000e+00	0.00000e+00	0.00000e+00	0.00000e+00	0.00000e+00	0.00000e+00	0.00000e+00	-1.41723e+02	-1.33427e+02	-1.27657e+02	-1.82643e+02	-7.29312e+01	-5.90420e+01	-1.56437e+02	-1.62015e+02	-7.50620e+01	-6.54826e+01	-1.75898e+02	-1.69904e+02	-1.79084e+02	-1.76332e+02	-7.30813e+01	-1.49000e+02	
Factor	2.19948e-05	1.76772e-04	4.22463e-05	1.51783e-01	1.32281e-06	2.01978e-06	1.85373e-01	5.47419e-02	1.24077e-06	1.63382e-06	9.98567e-02	3.00697e-02	2.75195e-02	9.87689e-03	1.39127e-06	1.39770e-02	7.96078e-06	1.06646e-05	2.96347e-06	7.91364e-02	1.10375e-07	1.18425e-07	9.07823e-02	2.86722e-02	1.12129e-07	1.17383e-07	5.04514e-02	1.53297e-02	1.45971e-02	5.20825e-03	1.14524e-07	7.14204e-03	X	X	X	X	X	X	X	X	X	X	X	X	X	X	X	X	



#DISTANCE SETTINGS
A = Detector Channel
A-1	A-2	A-3	A-4	A-5	A-6	A-7	A-8	A-9	A-10	A-11	A-12	A-13	A-14	A-15	A-16	

2.5000e+00	3.0000e+00	2.5000e+00	3.0000e+00	2.0000e+00	3.0000e+00	1.5000e+00	3.0000e+00	3.0000e+00	3.0000e+00	3.0000e+00	3.0000e+00	3.0000e+00	3.0000e+00	1.5000e+00	3.0000e+00	

B = Detector Channel
B-1	B-2	B-3	B-4	B-5	B-6	B-7	B-8	B-9	B-10	B-11	B-12	B-13	B-14	B-15	B-16	

1.0000e+01	1.0000e+01	1.0000e+01	1.4400e+00	1.0000e+01	1.0000e+01	1.5100e+00	1.9400e+00	1.0000e+01	1.0000e+01	1.9900e+00	2.4900e+00	2.4100e+00	2.9000e+00	1.0000e+01	2.9800e+00	




#DATA BEGINS
time	group	step	mark	flag	A-AC1	A-AC2	A-AC3	A-AC4	A-AC5	A-AC6	A-AC7	A-AC8	A-AC9	A-AC10	A-AC11	A-AC12	A-AC13	A-AC14	A-AC15	A-AC16	A-DC1	A-DC2	A-DC3	A-DC4	A-DC5	A-DC6	A-DC7	A-DC8	A-DC9	A-DC10	A-DC11	A-DC12	A-DC13	A-DC14	A-DC15	A-DC16	A-Ph1	A-Ph2	A-Ph3	A-Ph4	A-Ph5	A-Ph6	A-Ph7	A-Ph8	A-Ph9	A-Ph10	A-Ph11	A-Ph12	A-Ph13	A-Ph14	A-Ph15	A-Ph16	B-AC1	B-AC2	B-AC3	B-AC4	B-AC5	B-AC6	B-AC7	B-AC8	B-AC9	B-AC10	B-AC11	B-AC12	B-AC13	B-AC14	B-AC15	B-AC16	B-DC1	B-DC2	B-DC3	B-DC4	B-DC5	B-DC6	B-DC7	B-DC8	B-DC9	B-DC10	B-DC11	B-DC12	B-DC13	B-DC14	B-DC15	B-DC16	B-Ph1	B-Ph2	B-Ph3	B-Ph4	B-Ph5	B-Ph6	B-Ph7	B-Ph8	B-Ph9	B-Ph10	B-Ph11	B-Ph12	B-Ph13	B-Ph14	B-Ph15	B-Ph16	aux-1	digaux	

4298.643	1	1	0	256	0.17544	0.26006	0.17714	0.29243	0.083145	0.17749	0.23228	0.1063	0.21653	0.15528	0.11135	0.25019	0.074098	0.11159	0.17815	0.2634	-1.9104	-2.5812	-2.8792	-2.4375	-2.8833	-2.8292	-2.4292	-2.8229	-2.4583	-2.5833	-2.95	-2.2188	-2.7875	-2.7521	-2.2104	-2.9125	168.920	3.262	70.419	190.763	47.749	227.288	226.384	158.927	192.227	94.107	-65.825	-69.066	240.613	99.176	156.777	150.319	0.00018626	0.0003314	3.118e-05	688.92	2.4614e-06	4.2132e-06	634.89	187.28	2.3271e-06	5.4399e-06	235.04	113.07	79.318	32.211	3.1339e-06	47.38	0.00030826	0.00028446	8.0934e-05	709.86	3.0178e-06	3.1242e-06	657.54	194.73	3.2195e-06	3.2774e-06	244.01	117.92	82.612	33.434	3.3217e-06	49.196	167.258	-40.035	-14.655	-75.556	77.522	91.527	-76.523	-71.636	34.725	56.825	-73.078	-70.224	-68.510	-64.633	32.432	-66.016	-8191	255	
4298.716	1	1	0	0	0.20428	0.16023	0.015676	0.16927	0.13456	0.13779	0.082889	0.13922	0.10719	0.089424	0.17633	0.075786	0.058611	0.046237	0.076208	0.23419	-2.1667	-2.3417	-2.9813	-2.3854	-2.7729	-2.7396	-2.2687	-3.0417	-2.3521	-2.5312	-2.9979	-2.4875	-2.6458	-2.9667	-2.3708	-2.9396	116.442	-20.438	73.592	246.468	12.943	151.004	-18.476	185.433	133.297	18.624	138.402	226.490	246.232	-61.831	83.615	12.985	0.00018442	0.00020312	0.00011683	692.63	3.2062e-06	3.5555e-06	639.85	188.92	2.402e-06	6.1917e-06	231.91	109.77	77.082	30.94	2.1614e-06	46.354	0.00029661	0.0002833	7.8902e-05	712.68	3.1404e-06	3.0561e-06	658.78	195.26	2.9819e-06	3.0544e-06	240.11	114.08	80.346	32.282	3.0848e-06	47.996	174.387	-1.976	41.263	-75.658	99.639	33.823	-76.515	-71.516	73.921	31.984	-73.384	-70.133	-68.473	-64.465	58.635	-65.533	-8191	255	
4298.835	1	1	0	0	0.094881	0.16434	0.092962	0.11495	0.064079	0.072349	0.31741	0.16788	0.046837	0.14223	0.15324	0.18072	0.14766	0.14096	0.31138	0.28577	-2.1	-2.4042	-2.9229	-2.5396	-2.725	-2.6813	-2.3	-2.9396	-2.6396	-2.2604	-3.0917	-2.5521	-2.7208	-2.9313	-2.3604	-3.0354	67.491	124.580	201.334	213.156	-17.683	218.987	163.101	-45.134	144.291	164.225	-15.408	-80.164	263.981	54.592	104.326	225.514	0.0001701	0.00041234	0.00012069	691.48	2.8121e-06	4.7403e-06	629.46	183.48	1.3893e-06	1.9613e-06	226.45	107.12	74.87	30.836	3.579e-06	45.855	0.00030337	0.00027197	7.6556e-05	709.43	2.9473e-06	3.03e-06	650.62	190.04	3.1555e-06	3.0664e-06	233.02	111.61	78.647	32.112	3.2472e-06	47.695	177.190	8.833	6.165	-75.749	30.358	46.815	-75.935	-71.597	76.237	31.993	-72.776	-70.160	-68.923	-64.950	53.998	-66.093	-8191	255	
4298.931	1	1	0	0	0.23708	0.28867	0.12346	0.14327	0.22961	0.19044	0.10488	0.21032	0.171	0.10579	0.3708	0.19295	0.21385	0.40106	0.29049	0.027013	-2.3937	-2.3563	-2.8979	-2.425	-2.6521	-2.9708	-2.2	-2.8396	-2.8375	-2.1312	-3.0687	-2.4729	-2.5708	-3.0667	-2.3125	-2.5667	-87.538	-24.064	198.498	228.244	166.151	223.621	66.002	-57.504	25.320	153.777	-29.730	160.173	-70.977	261.711	-77.733	63.235	0.00020487	0.00058729	6.4662e-05	692.13	1.7226e-06	5.8973e-06	633.01	187.3	2.1938e-06	3.0626e-06	231.62	110.56	77.798	31.8	1.5183e-06	47.07	0.00029321	0.00029019	7.4531e-05	712.69	3.0045e-06	3.0033e-06	653.03	193.28	3.0275e-06	3.0277e-06	240.14	115.72	81.071	32.961	3.1661e-06	49.061	177.424	-2.334	3.806	-75.413	85.327	74.518	-76.306	-71.711	129.596	32.246	-73.194	-70.217	-69.239	-64.266	0.513	-65.633	-8191	255	
4299.027	1	1	0	0	0.20508	0.033823	0.22449	0.097658	0.022172	0.1268	0.1403	0.19508	0.163	0.18781	0.18533	0.12812	0.19928	0.048183	0.10724	0.33475	-2.2687	-2.1771	-2.8729	-2.5729	-2.2479	-2.8937	-2.2146	-2.7229	-2.6771	-2.2271	-2.9854	-2.5792	-2.4458	-2.8542	-2.2167	-2.6688	-25.199	-45.990	81.382	168.546	124.669	-52.106	147.191	239.894	197.833	119.816	248.690	197.615	-85.450	208.810	-40.169	-79.168	0.00016469	0.00041069	0.00010155	695.8	1.1494e-06	2.435e-06	635.28	184.59	2.4441e-06	3.8576e-06	222.79	106.08	74.577	30.693	3.938e-07	45.999	0.00030236	0.00027892	7.7495e-05	715.97	3.0965e-06	2.9406e-06	657.25	190.34	3.0906e-06	3.0094e-06	230.98	110.38	77.454	31.846	3.2272e-06	47.691	176.122	7.000	-10.897	-75.550	100.004	32.990	-76.451	-71.920	11.130	59.079	-73.337	-70.199	-68.773	-64.902	3.305	-66.308	-8191	255	
4299.123	1	1	0	0	0.051791	0.13636	0.10081	0.14282	0.17503	0.073228	0.11548	0.31528	0.22816	0.17932	0.012264	0.24143	0.27374	0.21369	0.1533	0.12664	-2.5167	-2.4333	-2.9	-2.7792	-2.3083	-2.8563	-2.3271	-2.6104	-2.7833	-2.2146	-2.8937	-2.8667	-2.3125	-2.9833	-2.2167	-2.7292	226.688	163.646	159.234	260.268	-70.921	-84.500	0.867	227.502	33.108	237.286	130.801	188.542	126.740	32.370	86.272	231.107	0.00018968	0.00037218	0.00010767	701.74	9.953e-07	3.1183e-06	630.84	181.92	2.1397e-06	3.3549e-06	218.23	99.705	77.729	33.325	2.6675e-06	49.042	0.00028878	0.00028994	7.6229e-05	719.18	3.0112e-06	3.1072e-06	653.11	188.45	3.0371e-06	3.0789e-06	226.46	101.79	77.789	34.023	3.6514e-06	50.541	172.104	-46.323	16.636	-75.606	83.561	9.389	-76.430	-71.968	30.306	48.387	-73.731	-79.245	-79.279	-67.640	80.693	-67.848	-8191	255	
4299.244	1	1	0	0	0.11016	0.038862	0.18826	0.1064	0.21708	0.33909	0.077936	0.18103	0.4031	0.12734	0.44623	0.3822	0.08992	0.14159	0.31642	0.10708	-2.5229	-2.175	-2.5938	-2.6917	-2.2958	-2.8333	-2.6271	-2.3542	-3.0229	-2.0208	-2.8958	-2.6875	-2.3625	-3	-2.5062	-2.6083	148.524	72.490	-32.062	-54.119	159.653	130.330	2.764	-3.983	105.028	120.831	210.036	-36.336	-10.441	3.002	-46.088	195.919	0.00019645	0.00052062	8.85e-05	789.4	4.4738e-06	4.5802e-06	704.36	201.82	2.2098e-06	3.146e-06	236.6	112.4	78.887	32.924	2.7337e-06	48.341	0.00032077	0.00031703	8.783e-05	797.82	3.495e-06	3.403e-06	716.23	205.5	3.4216e-06	3.329e-06	242.69	114.97	81.579	33.638	3.5529e-06	49.917	178.323	-6.086	-6.560	-77.259	59.863	79.573	-77.829	-73.482	31.292	47.298	-74.917	-71.664	-70.476	-66.154	78.505	-68.040	-8191	255	
4299.316	1	1	0	0	0.039788	0.16974	0.055074	0.23369	0.13226	0.2064	0.10038	0.063634	0.066055	0.03188	0.15789	0.23244	0.06769	0.39395	0.37024	0.20962	-2.6271	-2.3417	-2.6562	-2.775	-2.2062	-2.8	-2.7271	-2.3937	-2.8354	-2.2875	-2.8187	-2.8104	-2.2646	-2.8375	-2.5667	-2.4583	-85.816	148.984	34.040	209.530	-0.140	217.826	-43.466	61.933	83.709	205.150	-90.329	130.172	137.949	231.312	248.999	171.804	0.00019455	0.00047369	0.00012762	791.05	2.6107e-06	4.3603e-06	707.19	202.51	3.7541e-06	2.1228e-06	245.8	118.14	83.669	35.265	2.8359e-06	52.244	0.00031296	0.00030912	8.4687e-05	799.05	3.3646e-06	3.3877e-06	720	206.9	3.2688e-06	3.4968e-06	251.14	121.86	86.117	35.776	3.4966e-06	53.199	176.312	-13.920	27.884	-77.032	56.570	78.568	-77.648	-73.798	83.242	48.307	-74.770	-71.709	-70.458	-66.319	44.038	-67.989	-8191	255	
4299.412	1	1	0	0	0.044587	0.0085855	0.13734	0.14616	0.11639	0.23713	0.1039	0.12586	0.10392	0.24542	0.21397	0.077641	0.11309	0.26679	0.093909	0.23792	-2.65	-2.2896	-2.475	-3.0938	-2.1396	-2.8208	-2.7417	-2.3875	-2.8771	-2.5542	-2.6583	-2.9875	-2.3021	-2.7729	-2.6125	-2.4625	49.444	-71.045	200.030	-16.517	-18.768	144.472	-14.313	136.934	31.418	183.159	-67.873	165.437	222.594	230.441	51.114	195.811	0.00018418	0.00023071	0.00017607	794.78	1.8148e-06	3.0603e-06	715.8	207.4	3.6265e-06	2.679e-06	253.44	124.52	87.039	36.789	3.0901e-06	53.862	0.0003287	0.00031696	8.962e-05	801.02	3.4876e-06	3.6324e-06	730.23	211.41	3.437e-06	3.5611e-06	260.35	127.66	89.733	37.75	3.7731e-06	55.146	177.840	-72.337	-5.890	-77.032	84.187	39.096	-77.672	-73.509	60.914	-34.048	-74.717	-71.586	-70.431	-66.498	35.324	-67.729	-8191	255	
4299.533	1	1	0	0	0.097189	0.037307	0.17581	0.23853	0.23774	0.24263	0.12599	0.25266	0.16268	0.2061	0.27871	0.30953	0.36512	0.16438	0.11478	0.14643	-2.5854	-2.4021	-2.4125	-2.9521	-2.2458	-2.7687	-2.8563	-2.2396	-2.9729	-2.5479	-2.5208	-3.0646	-2.2687	-2.6396	-2.9625	-2.3479	-21.022	85.734	-52.691	193.096	-41.270	14.658	237.453	255.509	212.072	127.355	-46.796	265.691	240.324	26.173	71.416	186.786	0.00019978	0.00043931	0.00016315	790.14	2.8032e-06	4.4703e-06	795.97	234.79	3.416e-06	4.3137e-06	286.52	140.44	99.185	42.164	3.7353e-06	60.767	0.00033949	0.00031976	9.3664e-05	800.75	4.0101e-06	3.9944e-06	797.59	235.28	3.9927e-06	3.9487e-06	288.68	142.45	100.97	42.574	3.9833e-06	61.447	173.050	1.417	33.169	-77.049	49.355	77.039	-80.938	-75.006	56.335	45.305	-76.187	-73.030	-71.875	-67.826	18.011	-69.192	-8191	255	
4299.629	1	1	0	0	0.12692	0.24682	0.2549	0.055929	0.16853	0.27152	0.090341	0.35533	0.08973	0.17817	0.18014	0.23246	0.33242	0.31073	0.19004	0.13321	-2.5563	-2.4583	-2.6083	-3.1792	-2.275	-2.6562	-3.0479	-2.5187	-2.9208	-2.7313	-2.5833	-3.0438	-2.3979	-2.7125	-2.9458	-2.3292	-31.989	-22.340	12.115	33.243	-54.025	123.065	-83.955	224.705	-12.550	138.184	236.785	-43.929	-86.824	258.554	97.572	93.783	0.0002171	0.00073912	7.4141e-05	891.94	4.2377e-06	7.0648e-06	808.59	235.76	4.0346e-06	5.1142e-06	289.18	144.36	101.79	43.965	5.1285e-06	61.989	0.00038261	0.00037231	0.00010157	892.48	4.0634e-06	3.9783e-06	809.66	236.06	3.86e-06	3.8744e-06	291	146.24	103.18	44.426	4.1792e-06	62.567	165.101	22.973	-19.938	-78.523	45.170	68.191	-79.011	-74.483	43.975	35.005	-76.154	-72.599	-71.414	-67.667	10.892	-68.860	-8191	255	
4299.723	1	1	0	0	0.22309	0.14331	0.15778	0.4017	0.072725	0.17313	0.03687	0.22393	0.10481	0.13389	0.2609	0.25902	0.23853	0.2058	0.047288	0.091489	-2.5812	-2.6354	-2.0854	-3.1604	-2.3646	-2.3792	-3.0292	-2.4979	-2.8646	-2.7917	-2.5125	-2.9542	-2.5833	-2.5104	-2.875	-2.5	-75.096	224.603	-51.116	192.310	8.018	192.240	-75.913	-59.475	-1.015	131.942	140.252	-35.513	219.399	180.653	95.412	224.527	0.0002062	0.00066778	0.00011965	893.87	3.827e-06	3.6745e-06	805.55	237.8	2.6479e-06	4.3864e-06	295.02	149.4	106.08	44.971	3.414e-06	63.344	0.00039155	0.00037519	0.00010281	892.39	4.0673e-06	4.2075e-06	810.67	239.15	3.8638e-06	3.9191e-06	298.58	151.15	107.12	45.385	4.0828e-06	64.49	182.886	15.715	11.066	-78.459	28.770	73.500	-79.254	-74.536	51.232	51.399	-76.218	-72.887	-71.242	-67.730	66.016	-69.097	-8191	255	
4299.819	1	1	0	0	0.10005	0.11568	0.099072	0.33537	0.13667	0.18547	0.25602	0.30052	0.13201	0.35989	0.18183	0.15232	0.22882	0.10847	0.14705	0.12611	-2.3	-2.9396	-2.2854	-3.0812	-2.6208	-2.3104	-3.0521	-2.4437	-2.7646	-2.9354	-2.2021	-2.9062	-2.8625	-2.5625	-2.85	-2.4104	-1.346	112.829	97.654	231.366	-88.721	189.360	-88.820	198.604	-92.133	-74.150	-37.998	243.593	85.032	49.192	171.460	79.966	0.00022755	0.00075719	0.00012953	889.89	3.6336e-06	4.5289e-06	803.82	244.33	3.929e-06	4.9735e-06	306.66	153.01	107.64	45.648	1.7808e-06	73.01	0.00039966	0.00036104	0.00010312	887.19	3.8935e-06	3.8666e-06	815.62	244.85	4.0016e-06	3.8881e-06	306.95	154.66	108.96	43.058	4.4538e-06	72.162	182.131	-34.731	19.305	-78.416	26.255	60.660	-79.079	-74.638	70.674	82.201	-75.414	-72.651	-71.307	-82.708	-25.267	-70.791	-8191	255	
4299.915	1	1	0	0	0.14454	0.18141	0.20361	0.3654	0.18847	0.080971	0.19888	0.27383	0.057302	0.051335	0.13071	0.1273	0.086483	0.16726	0.18066	0.27632	-2.3583	-2.9979	-2.2687	-3.0125	-2.7833	-2.6083	-3.0771	-2.5687	-2.55	-3.0729	-2.4083	-3.0917	-2.8187	-2.4583	-3.0125	-2.8292	219.721	-80.996	-14.221	215.030	-33.089	-39.907	202.634	-51.360	154.209	39.804	83.783	237.058	-70.699	177.170	60.267	214.155	0.00025349	0.00060403	0.00011039	1004.8	6.1584e-06	8.7513e-06	918.61	273.6	8.6514e-07	5.83e-06	336.93	170.32	120.12	52.146	4.4559e-06	72.184	0.0004361	0.00040923	0.00011967	989.67	4.5247e-06	4.7261e-06	908.3	269.58	4.597e-06	4.5591e-06	335.14	170.42	120.23	51.625	4.6738e-06	72.172	177.615	7.103	27.009	-79.872	26.891	43.442	-79.981	-75.697	-51.217	67.467	-76.889	-73.903	-72.503	-68.437	71.666	-69.987	-8191	255	
4300.012	1	1	0	0	0.17464	0.0087509	0.17431	0.11461	0.20963	0.13027	0.28288	0.21363	0.17399	0.14013	0.097895	0.15169	0.25909	0.49954	0.091003	0.30193	-2.0208	-2.9229	-2.2792	-3.0812	-2.8937	-2.3896	-3.2229	-2.6583	-2.3708	-3.1667	-2.3958	-2.7104	-2.9604	-2.4083	-2.9062	-2.6667	6.526	87.145	18.278	-74.476	18.212	260.069	194.020	241.042	-59.428	173.948	181.336	136.531	-25.498	254.554	131.651	257.330	0.00031433	0.00040638	0.00023998	1008	6.348e-06	6.2626e-06	914.04	273.38	2.3242e-06	6.3974e-06	337.16	169.02	118.87	51.103	3.924e-06	70.372	0.00045217	0.00042907	0.00011552	990.19	4.6404e-06	4.662e-06	904.28	268.37	4.4931e-06	4.5994e-06	333.11	168.21	119.17	50.734	4.6871e-06	70.187	188.851	-11.004	-9.470	-80.057	29.515	25.092	-80.082	-75.494	42.986	44.256	-77.114	-74.168	-72.342	-68.814	28.475	-69.861	-8191	255	
4300.132	1	1	0	0	0.18101	0.1685	0.12529	0.25775	0.27173	0.2115	0.18976	0.24569	0.21123	0.11134	0.15963	0.067494	0.18903	0.33511	0.18746	0.058166	-1.8875	-3.0021	-2.3583	-2.8375	-2.7562	-2.3312	-3.1125	-2.7833	-2.4708	-2.9458	-2.5271	-2.7646	-3.0083	-2.5125	-2.7479	-2.8063	129.265	180.701	231.168	13.143	65.051	-5.072	-92.144	194.646	25.916	191.126	208.167	101.663	203.828	-9.108	177.982	-19.134	0.00030461	0.00071795	0.00014972	993.59	3.7989e-06	9.4162e-06	899.75	266.98	2.5364e-06	3.5351e-06	330.19	166.54	117.34	49.591	2.8287e-06	69.631	0.00045255	0.00042792	0.00011801	980.44	4.5072e-06	4.773e-06	889.48	264.71	4.5522e-06	4.6114e-06	328.12	166.06	117.28	49.515	4.6187e-06	68.997	177.158	-1.778	17.436	-79.933	107.970	48.443	-80.317	-75.413	-10.934	70.455	-76.846	-74.067	-72.762	-68.466	0.966	-70.053	-8191	255	
4300.228	1	1	0	0	0.20325	0.37329	0.28651	0.17969	0.10665	0.11263	0.11296	0.16888	0.27518	0.049107	0.22181	0.19823	0.19155	0.097211	0.10819	0.18465	-1.8208	-2.9104	-2.45	-2.775	-2.9146	-2.2687	-3.0104	-2.8354	-2.4271	-2.9521	-2.6229	-2.6604	-3.025	-2.4062	-2.9062	-2.9646	223.889	128.665	-27.839	-74.020	51.611	83.260	256.424	192.149	-11.434	247.905	216.085	259.159	-69.528	-82.007	-84.754	-71.966	0.00021973	0.00082297	0.00014827	986.88	5.3615e-06	2.5102e-06	895.6	261.03	1.7427e-06	5.9274e-06	315.85	158.51	111.98	46.798	6.4196e-06	67.712	0.00042613	0.00039988	0.00011914	968.7	4.4879e-06	4.4444e-06	880.04	258.98	4.622e-06	4.5972e-06	315.13	157.68	111.13	46.68	5.0133e-06	62.639	177.804	-33.833	18.451	-79.602	73.632	5.383	-80.432	-75.428	31.072	66.480	-76.891	-74.192	-72.754	-68.547	37.283	-85.174	-8191	255	
4300.324	1	1	0	0	0.31572	0.098965	0.22518	0.18199	0.34444	0.26039	0.39032	0.16797	0.061842	0.21297	0.14883	0.063901	0.11168	0.22948	0.1898	0.13792	-1.9875	-2.7854	-2.6813	-2.7542	-3.0125	-2.3604	-3.0583	-3.0083	-2.4146	-3.1458	-2.7917	-2.7792	-3.2167	-2.6562	-2.5938	-3.0062	-18.187	259.137	-29.936	135.904	-24.190	108.100	194.731	85.475	111.143	44.574	96.607	-61.503	-52.162	-85.473	-62.763	-21.411	0.00026617	0.00081433	0.00011474	1085.8	2.3151e-06	6.9634e-06	979.37	285.04	1.4467e-06	3.0061e-06	344.94	168.69	119.32	49.603	2.7933e-06	71.205	0.00047269	0.00045638	0.00013183	1053.8	4.8457e-06	5e-06	951.22	276.8	4.9556e-06	4.7207e-06	336.6	165.72	116.68	48.494	4.7551e-06	70.055	177.462	-8.149	-19.348	-80.930	92.964	33.541	-81.744	-77.178	109.858	94.920	-78.350	-75.199	-74.037	-69.825	64.541	-71.462	-8191	255	
4300.421	1	1	0	0	0.18797	0.080313	0.22181	0.20414	0.24164	0.065515	0.1627	0.068418	0.15494	0.11518	0.33124	0.10163	0.10828	0.045067	0.11365	0.30233	-1.9854	-2.8937	-2.5333	-2.6333	-3.1562	-2.5583	-2.6354	-3.1104	-2.4208	-2.9604	-2.8396	-2.4896	-3.2646	-2.6688	-2.725	-2.9917	-41.182	116.434	-27.259	-46.426	21.319	4.417	110.277	-71.370	171.426	150.833	211.716	84.890	70.142	185.781	9.862	254.193	0.00021413	0.00071605	0.00013077	1083.6	2.8423e-06	2.2843e-06	963.67	282.6	4.2937e-06	5.4498e-06	343.49	164.33	115.72	47.872	4.2267e-06	69.24	0.00044703	0.00042505	0.00012362	1049.2	4.6273e-06	4.7365e-06	945.57	274.92	4.6942e-06	4.734e-06	334.45	161.82	114.21	46.993	4.7656e-06	68.052	177.592	-1.451	-54.421	-81.028	59.664	64.224	-81.588	-77.293	45.331	65.320	-78.108	-75.582	-73.828	-69.644	37.085	-71.426	-8191	255	
4300.541	1	1	0	0	0.12539	0.24202	0.073616	0.073506	0.086655	0.18068	0.2417	0.10722	0.13254	0.068967	0.11362	0.19934	0.17799	0.029299	0.13797	0.10468	-1.8375	-2.925	-2.8063	-2.5854	-3.0833	-2.4854	-2.7458	-3.125	-2.3208	-2.8771	-2.9938	-2.4667	-3.0854	-2.6562	-2.5354	-3.0708	140.846	-52.010	94.558	-72.035	-89.951	27.792	-81.992	222.582	2.860	245.089	10.795	175.307	105.450	-13.722	-43.061	-1.446	0.00025824	0.0003358	0.00019108	1078	5.7982e-06	1.1048e-05	959.72	277.42	3.6181e-06	6.1157e-06	330.13	158.93	112.08	46.192	5.2574e-06	66.818	0.00043638	0.00043314	0.0001166	1043.4	4.6388e-06	4.739e-06	934.97	270.74	4.7807e-06	4.7063e-06	322.54	155.32	110.51	45.192	4.7616e-06	65.773	180.174	-12.915	-29.887	-80.941	35.051	67.051	-81.683	-76.915	9.616	57.931	-78.328	-75.604	-74.398	-70.163	-13.010	-71.600	-8191	255	
4300.613	1	1	0	0	0.20147	0.21497	0.17926	0.30906	0.086955	0.18687	0.068149	0.1815	0.30347	0.15182	0.12104	0.20872	0.11375	0.20383	0.031027	0.067645	-1.9458	-2.7854	-2.8542	-2.6646	-3.1479	-2.6104	-2.5312	-2.9938	-2.4083	-2.8104	-2.8688	-2.4771	-2.9958	-3.0167	-2.5292	-3.325	137.783	218.183	66.395	-50.691	-77.563	72.893	118.484	208.787	108.674	259.205	160.649	234.374	-26.646	211.739	6.429	83.222	0.00020254	0.00045886	0.00015125	1075.6	2.8621e-06	3.9811e-06	947.55	274.52	3.0525e-06	5.7564e-06	325.89	155.29	110.34	44.626	2.8636e-06	72.01	0.00045434	0.00043427	0.00012571	1043.2	4.5408e-06	4.7113e-06	925.93	267.75	4.8493e-06	4.7496e-06	318.46	152.13	108.24	43.749	5.2571e-06	68.467	180.922	29.008	-1.076	-81.053	35.659	139.919	-81.701	-77.114	84.142	51.474	-78.400	-75.315	-74.096	-69.764	50.372	-76.563	-8191	255	
4300.707	1	1	0	0	0.098739	0.1349	0.15285	0.12711	0.3634	0.13168	0.04469	0.22087	0.15789	0.31617	0.18571	0.38623	0.21116	0.056966	0.35555	0.2105	-2.0896	-2.6146	-2.8771	-2.5979	-3.0938	-2.775	-2.5396	-3.1458	-2.6	-2.6958	-3.1063	-2.3458	-3.1146	-2.8792	-2.4125	-3.1937	70.777	-49.815	145.806	253.309	-54.417	217.467	118.976	128.144	55.976	147.616	250.686	209.259	137.846	115.486	61.345	164.374	0.00029431	0.00045886	0.00014995	1190.9	3.722e-07	8.7923e-06	1044.9	301.54	2.3527e-06	4.7795e-06	357.3	171.05	121.38	49.393	4.4416e-06	73.511	0.00047493	0.00047286	0.00013159	1132.7	5.0945e-06	5.1868e-06	1004.1	289.88	5.3331e-06	5.3182e-06	345.96	165.56	117.18	47.674	5.2135e-06	70.627	189.543	0.782	-24.637	-81.916	95.796	57.846	-82.414	-78.083	37.842	51.906	-79.163	-76.236	-75.026	-70.938	63.672	-72.224	-8191	255	
4300.803	1	1	0	0	0.26338	0.19749	0.26725	0.1357	0.077184	0.1427	0.065645	0.38966	0.1199	0.070108	0.12325	0.36438	0.22785	0.043216	0.068101	0.16306	-2.1708	-2.6354	-3.0312	-2.5917	-2.8271	-2.7438	-2.4292	-3.1188	-2.7313	-2.5583	-3.1417	-2.4667	-2.9562	-2.8083	-2.5208	-3.1042	25.250	221.464	206.047	224.217	152.178	5.360	152.861	217.463	-92.631	258.263	233.730	245.129	-51.021	-20.538	-85.272	236.063	0.00023897	0.00094583	0.00016546	1183.3	5.7628e-06	8.6344e-06	1051.4	305.87	3.3749e-06	5.732e-06	364.19	174.45	121.86	49.549	6.1568e-06	74.003	0.00049038	0.00046089	0.00013096	1132.5	5.1791e-06	5.3067e-06	1007.7	291.68	5.2378e-06	4.9386e-06	350.45	167.67	118.32	47.988	5.0918e-06	71.23	172.499	-18.918	-11.940	-81.955	43.114	67.795	-82.233	-78.119	54.290	80.713	-79.292	-76.687	-75.342	-70.780	66.090	-72.482	-8191	255	
4300.924	1	1	0	0	0.096464	0.13649	0.13032	0.39654	0.11553	0.14208	0.26695	0.034822	0.11301	0.26593	0.22419	0.25057	0.14592	0.10061	0.053556	0.30721	-2.3146	-2.5083	-3.1646	-2.7	-2.7438	-2.9917	-2.6146	-3.0708	-2.6437	-2.6437	-3.1354	-2.5604	-2.8021	-3.0062	-2.3646	-3.0896	-11.326	132.372	169.392	242.070	22.260	71.944	232.689	-10.697	-6.815	190.132	243.380	168.660	75.120	237.722	-80.343	-77.758	0.00023692	0.00065279	0.00010646	1182.6	3.9811e-06	5.0019e-06	1040.6	304.2	3.2243e-06	8.7113e-06	362.04	172.2	122.1	49.493	5.58e-06	72.984	0.00048138	0.00046351	0.00013083	1128.2	4.9963e-06	5.2813e-06	1000.7	291.86	4.9671e-06	5.0433e-06	348.42	166.38	117.91	47.551	4.816e-06	70.596	180.743	-11.279	-0.616	-81.715	84.792	18.063	-82.383	-78.058	-1.431	34.918	-79.324	-76.479	-75.431	-71.256	52.021	-72.616	-8191	255	
4301.020	1	1	0	0	0.11083	0.2371	0.26677	0.23801	0.10548	0.084878	0.20853	0.040714	0.17303	0.17015	0.11842	0.14761	0.058842	0.043156	0.13858	0.088031	-2.3396	-2.3875	-2.8688	-2.8542	-2.4875	-3.0292	-2.5687	-3.0312	-2.8875	-2.4146	-3.1667	-2.6375	-2.8708	-3.0958	-2.3458	-2.9917	111.735	2.043	107.759	178.751	-85.623	-56.876	174.340	-85.643	18.919	16.657	-22.637	-65.061	-91.787	170.228	-32.632	157.842	0.00027991	0.00055429	0.00016683	1187	3.8534e-06	7.5138e-06	1043.9	304.53	3.1356e-06	5.6528e-06	366.11	170.87	121.31	48.163	3.319e-06	80.687	0.00046609	0.00046518	0.00012848	1128.6	4.8508e-06	4.6314e-06	1002.6	292.02	4.8349e-06	4.8685e-06	350.47	165.95	117.28	44.237	5.3168e-06	76.876	178.409	-36.718	18.265	-82.091	67.007	32.880	-82.804	-78.215	17.558	74.539	-79.445	-76.323	-74.734	-82.952	-62.953	-74.230	-8191	255	
4301.116	1	1	0	0	0.078645	0.15341	0.11758	0.24699	0.27686	0.057895	0.18809	0.14195	0.08859	0.062598	0.09315	0.021661	0.070525	0.19888	0.19968	0.099039	-2.5771	-2.4875	-3.0187	-2.8604	-2.5375	-2.9521	-2.4542	-2.9417	-2.9667	-2.0812	-3.1271	-2.6875	-2.5771	-3.2292	-2.2604	-2.8208	178.511	-89.722	170.635	260.348	69.189	49.701	232.877	246.549	-63.883	180.154	224.159	-32.382	-81.817	-91.542	34.014	-39.859	0.00029571	0.00057911	0.00013911	1309.1	3.274e-06	6.6906e-06	1159.6	339.34	6.5046e-06	3.8926e-06	407.14	194.19	136.99	55.522	3.1193e-06	82.845	0.00051055	0.00049284	0.00013831	1232.2	5.1959e-06	5.3173e-06	1098.4	321.82	5.3011e-06	5.2463e-06	385.93	184.7	130.36	52.775	5.3263e-06	79.085	174.998	-3.811	9.056	-83.115	52.573	63.176	-83.561	-79.169	13.385	35.653	-80.309	-77.124	-75.937	-71.524	102.300	-73.137	-8191	255	
4301.213	1	1	0	0	0.10945	0.03494	0.14235	0.38932	0.19249	0.083609	0.31391	0.22616	0.23045	0.21248	0.17059	0.20963	0.2795	0.039492	0.17083	0.16825	-2.4521	-2.3479	-2.9708	-2.9771	-2.3375	-3.1229	-2.7604	-2.9562	-2.9729	-2.4313	-3.0792	-2.8833	-2.6208	-3.1583	-2.6917	-2.8729	104.407	168.118	22.141	197.177	35.202	181.993	147.057	212.744	112.346	112.077	18.444	254.830	67.220	-21.921	-5.707	211.761	0.00031968	0.00095823	0.00021595	1325.3	3.3662e-06	6.314e-06	1172.4	341.06	4.8659e-06	8.8983e-06	406.27	190.93	135.75	54.297	4.3717e-06	81.428	0.00051609	0.0005133	0.00013307	1243	5.3836e-06	5.2618e-06	1108	322.42	5.2341e-06	5.3747e-06	386.57	182.04	129.17	51.852	5.375e-06	77.715	184.066	-14.811	-4.238	-82.786	9.428	24.537	-83.227	-79.282	60.931	45.482	-80.331	-77.493	-76.317	-72.026	9.250	-73.218	-8191	255	
4301.309	1	1	0	0	0.26429	0.1081	0.1015	0.10779	0.060443	0.15559	0.30374	0.29007	0.42532	0.39186	0.11518	0.14494	0.17614	0.2045	0.17678	0.35258	-2.4188	-2.5583	-2.7854	-3.0375	-2.5271	-3.0062	-2.7229	-2.8063	-3.0771	-2.3396	-3.0646	-2.8771	-2.4958	-3.1042	-2.8646	-2.6042	-24.902	109.465	229.786	205.316	6.770	121.989	211.347	-88.273	222.831	222.857	103.279	212.528	241.039	210.330	-65.050	227.990	0.00031523	0.0011154	0.00012018	1320.1	6.9261e-06	7.2484e-06	1162.4	335.62	3.6084e-06	6.2431e-06	395.87	177.78	127.08	50.54	7.8118e-06	76.246	0.00048732	0.00048066	0.00013038	1245.7	5.0039e-06	5.2531e-06	1104.9	318.44	5.1944e-06	5.1504e-06	373.19	169.73	121.09	48.093	5.1743e-06	72.778	188.058	-32.114	-33.147	-82.859	37.261	30.063	-83.293	-79.107	33.654	25.479	-80.744	-77.644	-75.918	-72.094	32.216	-73.404	-8191	255	
4301.405	1	1	0	0	0.19353	0.096861	0.25059	0.16541	0.27911	0.085941	0.37222	0.27747	0.18568	0.12766	0.099863	0.069144	0.1973	0.1835	0.25576	0.13329	-2.7062	-2.4292	-2.8063	-3.0771	-2.3083	-3.1437	-2.7958	-2.6833	-3	-2.6562	-2.6188	-3.0396	-2.6312	-3.2417	-2.6896	-2.6437	132.187	148.896	43.021	221.022	241.166	183.259	123.887	230.532	-49.707	-89.941	-98.251	217.954	249.884	213.299	207.058	152.603	0.00027351	0.00079721	0.00036369	1322.7	4.8245e-07	7.2773e-06	1129.4	350.44	3.5674e-06	9.9751e-06	421.72	185.78	133.97	53.311	4.7656e-06	80.718	0.00047443	0.00043991	0.00013137	1243.7	5.0352e-06	4.9891e-06	1036.8	318.86	5.466e-06	5.5123e-06	393.6	174.49	125.94	49.859	5.4051e-06	75.663	192.920	-0.767	6.395	-82.769	69.855	85.111	-92.613	-86.975	68.726	43.401	-81.066	-77.885	-76.446	-72.490	40.648	-73.995	-8191	255	
4301.501	1	1	0	0	0.19482	0.10874	0.24944	0.21647	0.18886	0.043658	0.21338	0.23423	0.19569	0.30695	0.16106	0.16465	0.10033	0.31099	0.31508	0.060613	-2.6708	-2.3521	-2.6271	-3.3208	-2.6208	-2.9688	-2.9833	-2.4479	-3.0812	-2.6375	-2.6625	-3.1667	-2.4208	-2.9771	-2.8563	-2.5792	181.597	223.189	-93.975	182.003	-48.014	221.973	-96.180	185.275	-78.222	195.091	160.808	183.786	246.613	165.721	-76.037	89.749	0.00033665	0.00040833	0.00017799	1464.9	4.3967e-06	7.9164e-06	1273.5	362.01	4.1302e-06	5.5555e-06	424.52	187.18	135.49	53.409	2.132e-06	81.645	0.00049692	0.00048291	0.00013496	1357.8	5.4158e-06	5.264e-06	1193.9	338.6	5.2215e-06	5.3324e-06	395.89	176.43	127.66	50.231	5.3831e-06	76.709	178.477	-56.972	-2.557	-83.255	37.019	65.725	-83.673	-79.893	16.421	66.723	-80.780	-77.613	-76.737	-72.265	34.680	-73.844	-8191	255	
4301.622	1	1	0	0	0.15204	0.11383	0.15534	0.15664	0.18229	0.034643	0.17162	0.14814	0.16319	0.15208	0.016236	0.064468	0.14889	0.082741	0.14642	0.26918	-2.6813	-2.5479	-2.4833	-3.275	-2.3563	-2.6937	-3.1521	-2.475	-3.0708	-2.725	-2.7938	-3.2583	-2.4625	-2.8896	-3.0729	-2.5062	219.248	-0.746	-77.818	255.319	-59.754	109.933	173.296	231.168	177.128	231.894	228.220	-42.959	-89.312	39.601	15.779	-96.971	0.00023392	0.0007927	0.00012582	1454.4	5.2121e-06	6.1526e-06	1272.7	361.67	6.4617e-07	1.1374e-05	425.01	189.95	137.05	54.683	3.7884e-06	83.581	0.00050017	0.00049068	0.00013578	1353.4	5.3121e-06	5.7229e-06	1190.1	338.41	5.6396e-06	5.4434e-06	396.34	179.41	129	51.345	5.3793e-06	78.833	181.490	-25.700	20.020	-83.452	47.718	59.842	-83.545	-80.096	48.180	37.617	-80.706	-77.972	-76.502	-72.641	51.331	-73.710	-8191	255	
4301.716	1	1	0	0	0.046631	0.10228	0.21718	0.19607	0.096297	0.18959	0.056848	0.19528	0.12693	0.11076	0.2068	0.076928	0.2474	0.12485	0.071671	0.35111	-2.7104	-2.7542	-2.5354	-3.3208	-2.4	-2.85	-3.125	-2.4396	-3.0146	-2.6937	-2.6479	-3.1583	-2.4708	-2.8208	-2.9979	-2.5542	239.054	-16.986	13.797	245.524	58.932	-36.566	82.647	212.774	212.006	258.601	-54.692	-93.687	-30.027	194.542	38.274	221.943	0.00032536	0.00099899	0.00010571	1448.9	4.7359e-06	6.1177e-06	1280.8	369.05	1.7213e-06	1.1445e-05	435.86	196.27	139.74	55.796	5.2518e-06	87.276	0.00051345	0.0005159	0.00014459	1347.7	5.4355e-06	5.3494e-06	1196.1	343.61	5.431e-06	5.5033e-06	406.84	185.08	131.59	52.502	5.5422e-06	76.195	184.601	-9.819	-47.483	-83.583	62.178	56.338	-84.106	-79.815	74.320	41.289	-81.283	-78.107	-76.658	-72.523	60.379	-88.782	-8191	255	
4301.812	1	1	0	0	0.13521	0.041693	0.047639	0.31037	0.1832	0.1197	0.17059	0.01485	0.15949	0.28703	0.21304	0.098904	0.21606	0.41189	0.31336	0.059394	-2.5875	-2.7583	-2.4375	-3.2667	-2.7292	-2.8646	-3.2229	-2.6104	-2.9854	-2.9104	-2.6354	-3.3187	-2.775	-2.7708	-3.1312	-2.6042	-22.899	12.237	186.155	238.570	-94.697	157.348	259.606	117.187	192.682	-41.551	225.398	187.634	198.919	200.008	92.243	148.185	0.00037962	0.00088624	0.00028428	1601.4	4.965e-06	4.8719e-06	1408.7	408.13	4.5884e-06	4.2234e-06	474.12	212.51	152.14	60.926	6.0491e-06	92.425	0.00054346	0.00053421	0.00015134	1474	6.0911e-06	6.075e-06	1303.8	375.23	5.9489e-06	5.6608e-06	434.87	196.88	140.87	56.493	6.0457e-06	85.988	180.950	-23.954	-24.979	-83.776	30.550	14.693	-84.451	-80.672	20.854	60.480	-81.441	-78.156	-76.977	-73.194	10.835	-74.284	-8191	255	
4301.908	1	1	0	0	0.15021	0.16165	0.030685	0.29227	0.053999	0.075088	0.25739	0.086669	0.32922	0.15088	0.356	0.094893	0.27695	0.047371	0.12722	0.2287	-2.5625	-2.8458	-2.4542	-3.3583	-2.6146	-2.7042	-3.2958	-2.4458	-2.7938	-3.0875	-2.5542	-3.2021	-2.8479	-2.6937	-3.1375	-2.7917	-84.174	-61.063	128.863	242.808	198.328	193.848	210.440	248.251	67.203	205.113	213.552	-84.994	-7.681	191.929	35.550	139.215	0.00031809	0.00059062	0.00018376	1617.1	2.7351e-06	1.0391e-05	1405.6	400.17	4.4573e-06	6.3827e-06	456.98	207.96	149.06	60.657	7.6114e-06	91.604	0.00055973	0.00055451	0.00015193	1485.3	5.7936e-06	6.0037e-06	1302.5	369.53	6.0531e-06	5.9745e-06	424.31	192.37	138.56	55.988	5.9665e-06	85.233	189.718	-23.611	-33.829	-84.038	46.423	28.272	-84.588	-80.347	9.925	85.582	-81.210	-78.667	-77.521	-73.245	16.334	-74.586	-8191	255	
4302.004	1	1	0	0	0.19135	0.1965	0.18787	0.30093	0.25035	0.098794	0.1785	0.23307	0.33218	0.2234	0.1909	0.18627	0.069225	0.080943	0.12491	0.41523	-2.45	-3.2188	-2.5312	-3.2292	-2.7438	-2.5542	-3.3271	-2.7021	-2.8208	-3.1833	-2.75	-3.3063	-2.9437	-2.5708	-3.0875	-2.6688	-58.792	-9.955	-46.944	256.898	-93.264	145.878	244.081	199.180	258.053	124.481	189.509	-20.803	-75.672	-63.920	206.022	234.774	0.00043333	0.0010707	0.00020312	1612.4	4.701e-06	1.0777e-05	1395.2	399.44	5.5356e-06	6.5623e-06	462.05	208.59	151.43	61.529	6.2415e-06	93.013	0.00055591	0.00056018	0.00015161	1477	6.199e-06	5.9195e-06	1286.7	368.28	6.2031e-06	6.3692e-06	424.2	193.71	140.02	56.783	6.1254e-06	86.498	174.259	-21.782	-19.586	-83.991	79.456	51.642	-84.510	-80.198	9.091	54.387	-81.393	-78.519	-77.093	-72.982	30.798	-74.383	-8191	255	
4302.101	1	1	0	0	0.18125	0.17385	0.2128	0.30531	0.28324	0.25392	0.080224	0.13447	0.15264	0.14873	0.094482	0.10058	0.12236	0.061311	0.1932	0.30449	-2.4083	-3.0438	-2.3771	-3.0375	-2.8729	-2.5896	-3.3563	-2.9146	-2.8063	-3.0271	-2.5292	-2.8917	-2.9708	-2.6	-3.2229	-2.8438	10.528	-8.955	44.946	-87.377	-68.853	173.304	183.331	227.144	171.382	218.442	-101.296	-83.461	230.562	226.087	208.838	193.710	0.00034359	0.00052763	0.00018929	1613	3.0678e-06	9.9076e-06	1400.6	389.14	4.6595e-06	6.1797e-06	505.28	228.37	163.4	67.384	5.2687e-06	101.99	0.0005781	0.00055725	0.00016274	1474.7	6.1907e-06	6.3972e-06	1290.5	354.95	6.7006e-06	6.8794e-06	459.93	208.8	150.58	61.632	6.9881e-06	93.928	186.603	-14.085	-36.647	-83.808	27.928	48.332	-84.352	-85.739	-11.494	50.404	-82.189	-78.577	-77.714	-73.635	25.976	-74.638	-8191	255	
4302.221	1	1	0	131072	0.19732	0.22038	0.10764	0.14891	0.12535	0.10682	0.2668	0.42778	0.2505	0.10952	0.36954	0.11657	0.16303	0.09675	0.15007	0.11928	-2.1708	-3.1417	-2.4646	-3.15	-2.8854	-2.4875	-3.1271	-2.9437	-2.7417	-3.0708	-2.5042	-3.0417	-3.2542	-2.65	-3.0229	-2.8396	180.941	241.828	248.655	197.680	-79.498	31.151	230.224	204.273	95.736	43.308	230.020	218.859	211.229	235.633	56.619	55.019	0.00032871	0.0014143	0.00015469	1762.8	4.3784e-06	1.6061e-05	1531.2	442.01	3.0189e-06	7.0651e-06	501.13	227.97	164.68	67.947	2.7686e-06	101.29	0.00064336	0.00062175	0.00017017	1607.3	6.6722e-06	6.7312e-06	1399.7	403.02	6.724e-06	6.7894e-06	460.85	208.71	151.67	61.898	6.9397e-06	93.04	179.827	-13.823	4.833	-84.454	107.068	40.536	-84.936	-80.751	61.307	60.039	-81.669	-78.990	-78.043	-73.639	37.385	-74.642	-8191	255	
4302.317	1	1	0	131072	0.091471	0.16964	0.11016	0.21156	0.098171	0.27561	0.16667	0.15465	0.27381	0.085704	0.068186	0.26859	0.26919	0.31652	0.074037	0.23501	-2.125	-3.0479	-2.5438	-2.9333	-2.9688	-2.3937	-3.1312	-2.9271	-2.6	-2.9417	-2.7229	-2.7875	-3.2708	-2.4542	-2.9708	-2.8583	30.355	156.864	50.706	232.651	251.943	90.402	220.973	178.104	94.721	-15.468	200.912	254.823	227.695	-91.344	107.879	-84.532	0.00036853	0.00057706	0.0003587	1762.7	1.1384e-05	7.3828e-06	1551.9	446.4	2.1398e-06	6.3228e-06	511.55	227.9	166.69	68.305	1.1263e-05	101.16	0.00062537	0.00060053	0.00017117	1609.2	6.6349e-06	6.4369e-06	1411.4	405.71	6.4479e-06	6.367e-06	463.76	209.22	153.12	62.254	6.5804e-06	92.603	171.420	-42.429	-5.216	-84.328	53.721	24.296	-84.787	-80.791	4.179	74.589	-81.538	-78.809	-77.524	-73.760	24.483	-74.705	-8191	255	
4302.414	1	1	0	131072	0.030071	0.16477	0.043493	0.50274	0.20051	0.19786	0.46188	0.38928	0.22922	0.15858	0.276	0.061453	0.046735	0.21765	0.15115	0.33975	-2.0792	-2.9813	-2.3521	-2.7438	-3.1188	-2.2667	-3.0563	-3.0854	-2.2333	-2.9708	-2.6813	-2.7375	-3.3167	-2.55	-2.7167	-2.9292	2.667	-28.610	-17.763	217.934	29.659	90.115	237.632	245.384	-73.045	228.888	196.174	29.072	-72.837	167.728	113.792	176.551	0.00033341	0.001271	0.00020076	1767.6	3.8691e-06	9.082e-06	1561.4	454.66	3.0714e-06	9.9565e-06	508.95	226.07	166.93	68.486	2.5362e-06	100.59	0.00059565	0.00060106	0.00016364	1626	6.3597e-06	6.5092e-06	1428.8	412.03	6.3736e-06	6.2494e-06	467.36	208.36	153.1	62.345	6.4947e-06	87.378	180.168	-11.627	-0.634	-84.532	45.687	36.874	-84.776	-80.590	24.075	45.851	-81.539	-79.413	-77.657	-73.843	82.234	-87.935	-8191	255	
4302.485	1	1	0	131072	0.17472	0.48767	0.16836	0.38339	0.14594	0.20946	0.30259	0.17898	0.062106	0.15895	0.14313	0.2536	0.38786	0.24756	0.20879	0.10812	-2.1292	-2.9042	-2.7042	-2.6521	-3.0062	-2.5187	-3.0708	-2.8896	-2.375	-3.0146	-2.7229	-2.3583	-3.1208	-2.5854	-2.4833	-3.1771	-53.762	77.193	1.809	250.724	214.605	72.798	214.654	251.576	-26.793	96.962	183.051	-91.370	207.209	254.750	213.488	-15.186	0.00033453	0.0016035	0.00032897	1800.5	7.7152e-06	3.7297e-06	1708.7	496.78	1.5055e-06	1.0269e-05	564.79	250.68	184.82	76.623	6.1616e-06	113.25	0.00064429	0.00063408	0.00017141	1725.7	6.9911e-06	7.0127e-06	1546.4	446.92	7.1094e-06	6.7084e-06	510.65	228.19	167.94	68.946	7.2031e-06	102.72	210.603	-16.747	-6.159	-84.439	57.522	-24.362	-84.889	-81.490	-89.925	68.647	-82.253	-79.080	-77.935	-73.957	44.460	-75.161	-8191	255	
4302.581	1	1	0	131072	0.095688	0.067589	0.16131	0.43899	0.23696	0.068347	0.1675	0.30151	0.11922	0.16569	0.22511	0.1966	0.42221	0.14138	0.22992	0.076526	-2.0042	-2.8083	-2.8187	-2.7333	-3.025	-2.5938	-2.7958	-3.1063	-2.3896	-2.8667	-2.8937	-2.5938	-3.1958	-2.6354	-2.4542	-3.3021	-95.109	147.464	66.153	-86.802	-89.999	185.636	232.126	211.293	220.151	68.636	176.677	218.186	214.854	210.278	219.689	-71.772	0.00041224	0.00098509	0.00013527	1795.8	5.3514e-06	6.7776e-06	1735.6	503.46	6.065e-06	8.5589e-06	582.15	258.3	191.95	78.904	9.4412e-06	116.44	0.00065101	0.00065345	0.00017084	1736.5	7.1162e-06	7.1097e-06	1566.8	452.8	7.2043e-06	7.0012e-06	524.05	235.59	173.45	71.384	7.368e-06	105.74	179.718	-31.494	28.708	-84.471	9.008	59.532	-85.085	-81.081	11.473	60.181	-82.241	-79.209	-78.158	-74.341	57.558	-75.005	-8191	255	
4302.700	1	1	0	131072	0.11291	0.21627	0.11411	0.37291	0.32577	0.032309	0.12316	0.10431	0.2068	0.26536	0.2829	0.055025	0.34549	0.1365	0.20716	0.31662	-1.9271	-2.7938	-2.9292	-2.6042	-3.0479	-2.8333	-2.7438	-3.2875	-2.1604	-2.7375	-3.0833	-2.6063	-3.0167	-2.8708	-2.4708	-3.1958	115.555	-34.004	67.329	223.072	147.865	175.108	186.911	16.827	52.627	-34.675	239.303	191.027	182.241	-97.999	235.168	183.887	0.00045426	0.0010946	0.00031232	1796.5	3.9076e-06	1.2646e-05	1745.6	513.71	6.7893e-06	1.197e-05	596.05	270.47	197.6	81.332	6.1297e-06	119.11	0.00064754	0.00063388	0.0001834	1737.6	6.9254e-06	7.0184e-06	1573.7	460.76	7.123e-06	6.917e-06	535.88	245.69	179.6	73.897	6.6827e-06	107.81	192.103	-11.036	-18.835	-84.361	8.577	95.523	-84.821	-81.289	32.662	67.640	-81.496	-79.328	-78.477	-74.087	14.198	-75.196	-8191	255	
4302.796	1	1	0	131072	0.086728	0.11693	0.18251	0.30764	0.22597	0.1041	0.062533	0.32158	0.20823	0.094034	0.32621	0.14328	0.17796	0.15648	0.16222	0.09135	-2.0396	-2.7021	-2.8208	-2.7375	-2.8438	-2.7062	-2.6979	-3.1333	-2.2875	-2.6292	-3.1813	-2.5833	-2.9	-2.9437	-2.5521	-3.1667	204.922	-25.792	-66.594	229.108	67.533	244.980	-47.744	239.874	-83.861	151.611	180.814	-98.818	260.911	252.196	150.125	-44.656	0.00040849	0.00099952	0.00020495	1799.1	8.0701e-06	1.6587e-05	1749.5	510.94	3.877e-06	1.144e-05	595.22	273.18	200.58	81.946	2.9063e-06	119.71	0.00067434	0.00061737	0.00017514	1734.9	7.0677e-06	7.0125e-06	1579.2	460.35	7.0693e-06	7.1701e-06	536.3	248.67	181.79	74.451	7.2926e-06	108.24	183.992	-8.404	-23.948	-84.184	40.677	33.430	-85.319	-81.034	-15.283	47.316	-82.079	-79.442	-78.294	-74.060	-20.946	-75.015	-8191	255	
4302.893	1	1	0	131072	0.17899	0.013208	0.16454	0.31746	0.17702	0.19891	0.23441	0.1826	0.1739	0.15191	0.11063	0.40478	0.13584	0.28732	0.32672	0.1192	-2.2812	-2.5292	-2.9729	-2.6021	-3.0271	-2.8333	-2.7083	-3.2667	-2.5583	-2.5625	-3.1167	-2.6854	-3.025	-3.1375	-2.4208	-3.0896	240.302	227.779	-43.129	-97.825	167.570	31.299	172.650	232.360	101.893	-45.833	-64.321	238.448	245.049	246.615	125.605	208.177	0.0004291	0.00064271	0.00039135	1793.8	6.3145e-06	6.7962e-06	1749.2	506.23	3.6953e-06	1.1428e-05	595.6	271.68	196.64	81.273	8.1313e-06	118.01	0.00067285	0.00065292	0.00017973	1732	6.8621e-06	6.9259e-06	1576.1	456.99	7.0552e-06	6.9168e-06	536.01	246.15	179.05	73.637	6.8753e-06	107.02	183.410	-38.347	0.515	-84.364	3.630	94.416	-84.832	-81.239	26.530	60.866	-81.994	-79.130	-78.344	-74.152	60.076	-75.128	-8191	255	
4303.013	1	1	0	131072	0.33748	0.29016	0.069721	0.57356	0.067283	0.2385	0.18309	0.071665	0.19155	0.23914	0.29809	0.086784	0.19972	0.22957	0.24615	0.27194	-2.3563	-2.5563	-2.9938	-2.5792	-2.7896	-2.8563	-2.55	-3.0021	-2.65	-2.6188	-3.2313	-2.5938	-2.7583	-2.8646	-2.4417	-3.1104	134.852	248.758	38.492	239.442	119.282	256.848	184.283	220.320	30.171	40.772	-89.859	254.875	235.938	179.778	212.288	168.706	0.00036354	0.0012537	0.00014139	1797.4	5.5666e-06	1.226e-05	1750.9	507.16	1.2279e-06	9.4389e-06	585.62	271.01	197.04	80.939	2.6915e-06	117.95	0.00065817	0.00065327	0.00017388	1732.1	7.0247e-06	6.9286e-06	1574.5	455.43	7.0013e-06	7.1337e-06	531.8	246.06	178.83	73.242	7.1303e-06	107.55	182.388	-36.813	-35.736	-84.214	27.732	76.083	-85.207	-81.564	-68.024	83.234	-82.094	-79.285	-78.009	-74.367	0.386	-74.967	-8191	255	
4303.085	1	1	0	131072	0.1231	0.16296	0.099942	0.29941	0.24494	0.0846	0.30581	0.20784	0.048597	0.13892	0.42078	0.48399	0.32608	0.26091	0.090958	0.14833	-2.3604	-2.3979	-2.9625	-2.8146	-2.7333	-3.0187	-2.5208	-3.1458	-2.8396	-2.3896	-3.0771	-2.6417	-2.7229	-3.1792	-2.4313	-3.0563	245.808	-93.926	12.319	250.007	161.955	211.870	239.481	-70.650	201.164	69.774	-41.966	195.477	-92.642	117.842	89.563	229.006	0.00034685	0.001289	0.00010528	1798.1	5.7202e-06	4.3624e-06	1737.8	509.43	3.6424e-06	7.7461e-06	548.3	245.82	179.17	73.679	7.785e-06	107.04	0.00066071	0.00065105	0.00017139	1733.1	6.9573e-06	7.4363e-06	1570.2	455.31	7.0849e-06	6.3519e-06	505.77	226.64	164.22	67.227	6.6025e-06	98.106	174.654	-37.481	18.775	-84.371	38.388	83.071	-84.975	-80.961	-2.350	76.860	-77.240	-78.139	-77.948	-73.677	18.442	-75.229	-8191	255	
4303.181	1	1	0	131072	0.10848	0.049443	0.1134	0.16688	0.10278	0.11759	0.40492	0.22912	0.28725	0.089748	0.21401	0.33431	0.11779	0.25139	0.059193	0.1805	-2.5646	-2.3708	-3.1646	-2.7833	-2.4375	-2.9979	-2.6354	-2.9875	-2.8271	-2.4083	-3.1604	-2.7646	-2.4667	-3.1312	-2.325	-2.8333	-25.296	109.166	147.029	243.052	11.746	146.604	218.463	247.520	149.550	2.316	221.294	218.476	192.958	229.505	-5.854	136.827	0.00038038	0.00067918	0.00019728	1771.2	7.5263e-06	9.16e-06	1592.2	460.59	7.9276e-06	6.4219e-06	531.61	243.06	175.27	72.43	4.7071e-06	106.73	0.00061041	0.00058224	0.00016469	1635.8	6.6287e-06	6.5403e-06	1449.6	418.58	6.3862e-06	6.1584e-06	485.73	223.38	161.93	66.332	6.4572e-06	97.171	183.907	2.378	-62.747	-84.443	48.552	64.066	-85.041	-80.523	12.392	46.210	-81.619	-79.098	-77.874	-73.833	31.764	-75.099	-8191	255	
4303.302	1	1	0	131072	0.1225	0.14197	0.030123	0.41988	0.12015	0.083389	0.27048	0.40496	0.14255	0.21305	0.19824	0.21407	0.16216	0.11449	0.2296	0.26616	-2.4188	-2.3083	-2.8792	-2.9208	-2.525	-3.1188	-2.7042	-2.7646	-2.9625	-2.4	-3.1167	-2.7708	-2.6125	-3.1667	-2.5021	-2.8854	126.617	-81.609	128.422	-78.771	215.247	35.374	-78.676	203.800	217.312	-76.539	193.964	203.141	172.344	207.617	39.971	238.203	0.00042505	0.0011276	0.00022039	1777.5	7.3314e-06	1.9533e-05	1588.2	459.62	5.1466e-06	7.2378e-06	531.56	243.29	176.81	73.038	8.5997e-06	105.9	0.00061786	0.00059622	0.00016076	1635.8	6.2999e-06	6.1766e-06	1447.2	417.29	6.2194e-06	5.8246e-06	485.99	223.96	162.37	66.63	6.7235e-06	97.544	187.577	-2.581	8.991	-84.183	91.627	62.673	-84.559	-80.874	9.346	77.611	-82.010	-78.769	-78.101	-73.942	66.536	-75.149	-8191	255	
4303.398	1	1	0	131072	0.19078	0.26039	0.19028	0.41178	0.051683	0.19703	0.26714	0.25979	0.26326	0.26958	0.49106	0.33601	0.049038	0.14615	0.18991	0.073239	-2.5187	-2.1604	-2.7604	-2.925	-2.3333	-2.9667	-2.6063	-2.5292	-2.9333	-2.3438	-2.9396	-3.0312	-2.5062	-3.1979	-2.4188	-2.8021	31.835	-63.614	-43.913	-96.595	-49.464	-15.800	186.336	196.701	151.931	189.406	198.992	-96.707	259.271	83.837	-18.416	-34.005	0.00039738	0.00091906	0.00013444	1775.7	8.1704e-06	7.8602e-06	1594.4	458.03	3.0688e-06	1.0736e-05	538.46	250.07	181.15	74.626	1.0683e-06	108	0.00061386	0.0005818	0.00016158	1631	6.2213e-06	6.4588e-06	1451.1	416.15	6.0634e-06	6.5299e-06	490.46	230.22	166.36	68.23	6.8624e-06	99.319	184.893	-33.487	-21.590	-84.197	47.753	67.287	-84.860	-80.908	14.184	81.215	-81.247	-78.797	-77.709	-73.703	-26.335	-74.935	-8191	255	
4303.494	1	1	0	131072	0.14661	0.30563	0.07671	0.23152	0.22514	0.1238	0.18328	0.19285	0.22971	0.14283	0.17598	0.080735	0.34606	0.15993	0.1963	0.45687	-2.6333	-2.2438	-2.7062	-2.8854	-2.3396	-3.0333	-2.8125	-2.5583	-2.9583	-2.4104	-2.7646	-3.0896	-2.3667	-3.0646	-2.5687	-2.7604	113.137	229.512	7.182	219.055	-74.947	65.189	232.296	205.496	9.884	191.131	-11.986	154.025	202.550	26.123	80.836	217.817	0.00038519	0.00076773	0.00023873	1777.2	9.5682e-06	1.6077e-05	1593.7	462.47	5.1927e-06	1.0354e-05	542.5	253.5	183.81	75.589	6.1583e-06	99.421	0.00063142	0.00060933	0.00016005	1633.9	6.7941e-06	6.5758e-06	1456.2	418.17	6.5072e-06	6.483e-06	495.56	232.44	168.08	70.975	6.1332e-06	92.527	200.877	-3.978	-22.747	-84.264	79.126	37.370	-84.766	-80.639	20.527	31.466	-82.102	-78.953	-77.594	-62.423	68.293	-73.340	-8191	255	
4303.613	1	1	0	0	0.091104	0.1745	0.11872	0.20477	0.089867	0.21661	0.18476	0.21898	0.076457	0.012271	0.10552	0.37557	0.17704	0.20896	0.11862	0.42714	-2.7458	-2.3771	-2.6	-3.1458	-2.3917	-3.0417	-2.8333	-2.4979	-2.925	-2.5833	-2.4521	-3.0125	-2.3187	-3.0021	-2.9292	-2.5771	-15.671	96.778	71.130	218.219	40.423	-10.004	138.693	-90.985	205.584	-70.763	50.690	229.267	-19.542	-69.029	86.369	246.758	0.00037615	0.00080704	0.00019277	1651.8	6.0708e-06	7.8449e-06	1454.8	415.54	3.0901e-06	1.1015e-05	496.78	229.63	166.92	68.957	2.304e-06	98.532	0.00057331	0.00056536	0.00016153	1518.4	6.0734e-06	6.2168e-06	1341.2	385.38	6.1785e-06	6.0848e-06	455.47	214.33	155.17	63.666	6.0125e-06	91.626	181.038	-9.150	-17.442	-83.877	30.157	95.121	-83.898	-80.740	44.424	40.102	-81.341	-78.377	-77.186	-73.127	73.791	-74.308	-8191	255	
4303.709	1	1	0	0	0.11694	0.11375	0.20502	0.35894	0.17347	0.15619	0.14762	0.13277	0.27296	0.23862	0.059867	0.18117	0.31089	0.14807	0.24053	0.3121	-2.7875	-2.6333	-2.55	-3.1104	-2.3958	-2.7875	-2.9229	-2.6854	-3.0292	-2.6417	-2.6688	-3.0208	-2.6583	-2.9104	-2.7792	-2.3708	-35.657	-3.409	101.076	236.703	30.829	85.653	255.742	219.718	68.229	-76.907	63.830	142.376	-70.098	153.500	70.311	254.071	0.00033897	0.00083416	0.00029839	1648.1	9.0074e-06	1.8915e-05	1457	416.6	4.3716e-06	8.0872e-06	488.53	232.88	168.17	69.071	6.7112e-06	89.81	0.00055307	0.00054414	0.00015858	1513.5	5.9147e-06	6.1569e-06	1338.7	383.62	6.0465e-06	6.3441e-06	454.1	215	155.89	65.308	5.8813e-06	85.184	184.866	-1.762	-8.284	-83.438	55.697	40.666	-84.279	-80.636	57.240	41.302	-81.171	-78.427	-77.487	-66.380	23.925	-72.589	-8191	255	
4303.781	1	1	0	0	0.1485	0.22662	0.15649	0.25811	0.12432	0.048575	0.14967	0.21199	0.25335	0.45527	0.1472	0.35075	0.26902	0.04404	0.09309	0.20334	-2.7125	-2.3625	-2.3646	-3.2083	-2.4	-2.65	-3.175	-2.6292	-3.0854	-2.5563	-2.6354	-3.2021	-2.5458	-2.85	-2.7812	-2.475	23.987	178.394	9.315	224.977	122.106	159.206	210.143	185.187	177.175	-24.570	246.596	220.017	-94.890	253.070	188.654	148.120	0.00032505	0.0006943	0.00010166	1485.6	5.0104e-06	1.2775e-05	1304	377.5	3.3499e-06	8.3193e-06	444.83	208.84	151.78	62.792	4.3482e-06	89.06	0.00053871	0.0005175	0.00014162	1385.2	5.6565e-06	5.6222e-06	1222.9	352.26	5.6324e-06	5.7909e-06	416.94	197.24	143.05	58.737	5.3927e-06	84.023	189.803	-12.125	-9.694	-83.062	39.409	41.274	-83.429	-79.734	57.759	51.783	-80.838	-77.865	-77.067	-72.616	79.906	-74.172	-8191	255	
4303.877	1	1	0	0	0.087557	0.34406	0.23836	0.18971	0.080022	0.10607	0.082685	0.24599	0.027321	0.20546	0.048444	0.27282	0.13661	0.084325	0.16479	0.34413	-2.5271	-2.7083	-2.1792	-3.2604	-2.2812	-2.5208	-3.075	-2.6583	-2.7188	-2.5896	-2.4	-3.1458	-2.6271	-2.7146	-2.9167	-2.5667	11.836	242.141	248.278	-42.631	236.938	22.199	49.947	217.864	128.731	23.271	-24.402	204.197	239.265	245.016	190.374	174.771	0.00029538	0.00086044	0.00025386	1488.3	1.2644e-06	1e-05	1317.7	377.04	5.2539e-06	2.8142e-06	442.29	205.72	151.2	61.854	3.5996e-06	88.477	0.00053604	0.00052952	0.00014338	1387.4	5.7444e-06	5.6454e-06	1228.4	351.69	5.6704e-06	5.7398e-06	415.52	194.75	141.98	58.066	5.7167e-06	83.67	191.683	8.053	5.756	-83.523	87.859	48.609	-83.981	-80.017	38.389	67.418	-80.802	-78.034	-76.108	-72.746	76.356	-73.515	-8191	255	
4303.997	1	1	0	0	0.12561	0.19064	0.31017	0.26862	0.19938	0.14537	0.27719	0.47344	0.11949	0.15027	0.34131	0.15438	0.35836	0.22985	0.080723	0.16026	-2.4646	-2.7854	-2.3229	-3.3375	-2.3979	-2.6583	-2.9188	-2.6	-2.6958	-2.7979	-2.4104	-3.0167	-2.6917	-2.675	-3.0333	-2.3708	134.578	-78.100	-43.761	262.365	256.366	58.425	247.124	197.522	249.759	27.148	221.012	177.091	165.550	192.227	-66.627	205.630	0.00038009	0.00069536	0.00016301	1494.6	9.0984e-06	5.7628e-06	1190.2	343.17	4.4781e-06	8.7508e-06	402.68	188.2	136.72	56.309	3.847e-06	80.39	0.00054125	0.00053108	0.00014988	1430.5	5.2695e-06	5.2482e-06	1127.9	324.67	5.2112e-06	5.2397e-06	381.71	179.44	130.77	53.449	5.1846e-06	76.655	184.413	9.788	-25.906	-67.679	60.157	34.336	-82.970	-79.287	52.977	36.832	-80.260	-77.370	-75.977	-72.381	78.828	-73.136	-8191	255	
4304.094	1	1	0	0	0.13079	0.076696	0.066887	0.14578	0.13318	0.23065	0.096957	0.13393	0.14933	0.042063	0.056076	0.16407	0.058251	0.066047	0.11527	0.14385	-2.2646	-2.8646	-2.2438	-3.0833	-2.6937	-2.3771	-3.3417	-2.6479	-2.7021	-2.9625	-2.5458	-3.1625	-2.8104	-2.5229	-2.9792	-2.6542	74.866	19.535	-17.406	230.102	139.730	3.666	2.467	131.583	149.090	-71.202	146.331	206.534	163.915	-71.870	30.219	182.430	0.00036601	0.00076248	0.00027059	1352.9	5.2385e-06	1.6396e-06	1189.5	343.2	2.3998e-06	9.4835e-06	404.31	186.55	135.52	56.012	7.254e-06	80.022	0.00048528	0.00047322	0.00013509	1274.5	5.3406e-06	5.375e-06	1127.3	323.82	5.3383e-06	5.0553e-06	382.03	178.31	129.54	53.341	5.4358e-06	76.009	173.690	-35.227	12.559	-82.664	10.627	99.592	-83.009	-78.929	35.923	63.821	-80.036	-77.424	-75.724	-72.020	31.614	-73.237	-8191	255	
4304.190	1	1	0	0	0.083305	0.10499	0.20165	0.21988	0.12682	0.34169	0.25547	0.26272	0.075817	0.068319	0.28832	0.62176	0.1606	0.10256	0.22129	0.14154	-2.1833	-3.0542	-2.3417	-3.0646	-2.8167	-2.4771	-3.0375	-2.6875	-2.6896	-2.9125	-2.5042	-3.0542	-2.9792	-2.6208	-3.0292	-2.8312	252.150	250.849	-80.779	-83.051	194.895	-20.429	161.081	188.162	-59.155	85.362	236.028	201.988	-92.585	130.645	84.038	195.324	0.00026454	0.00056371	0.00013164	1363.1	1.7071e-06	8.251e-06	1188.8	345.8	3.5615e-06	7.6172e-06	401.43	187.7	137.01	56.675	2.1917e-06	80.51	0.00050669	0.00048571	0.00013617	1283.9	5.3838e-06	5.3114e-06	1127	324.07	5.4224e-06	5.3903e-06	379.57	178.61	130.42	53.686	5.1121e-06	76.776	190.528	-8.876	-91.410	-82.830	36.005	57.418	-83.138	-79.194	56.369	56.410	-79.918	-77.181	-75.793	-72.160	84.975	-73.627	-8191	255	
4304.286	1	1	0	0	0.20023	0.16813	0.35057	0.13148	0.33323	0.38857	0.2352	0.1564	0.034783	0.19502	0.11358	0.15363	0.19111	0.25409	0.13334	0.17157	-2.2604	-3.075	-2.1188	-2.9396	-2.9437	-2.2479	-3.1417	-2.7646	-2.4292	-2.8583	-2.4208	-2.8812	-3.1771	-2.4625	-2.9708	-2.8333	249.719	144.404	172.562	-96.550	91.618	7.019	200.852	119.242	92.367	218.884	114.732	237.123	125.961	192.440	195.607	152.012	0.00032983	0.00051172	0.0002834	1364.3	6.7572e-06	3.0575e-06	1199.1	344.57	3.5295e-06	1.1365e-05	405.24	189.92	138.71	57.233	5.1298e-06	81.165	0.00050057	0.00048322	0.00013889	1280	5.3311e-06	5.2502e-06	1134.9	324.85	5.2215e-06	5.1132e-06	384.73	181.23	132.28	54.368	5.531e-06	77.342	187.875	-30.091	8.969	-82.920	57.878	55.248	-83.249	-78.827	42.933	63.534	-79.881	-77.356	-75.402	-72.241	6.635	-73.315	-8191	255	
4304.382	1	1	0	0	0.072259	0.18393	0.12522	0.23056	0.10821	0.1342	0.38741	0.15811	0.079749	0.10566	0.19035	0.16882	0.079792	0.33306	0.27898	0.1743	-1.9729	-3.1042	-2.5042	-2.9313	-2.7854	-2.2958	-3.0521	-2.8	-2.5479	-3.0292	-2.6646	-2.6917	-3.1292	-2.5208	-2.9229	-2.8542	66.697	82.961	-54.479	236.007	164.472	-38.686	217.420	123.129	86.826	136.354	159.881	3.570	211.332	-86.463	48.555	234.054	0.00026707	0.00026002	0.00010645	1371.5	3.305e-06	6.2583e-06	1207.9	343.06	3.9966e-06	7.8171e-06	408.53	191.23	138.74	57.125	3.0167e-06	81.034	0.00049582	0.00049135	0.00013434	1288.4	5.5041e-06	5.374e-06	1142.8	325.69	5.453e-06	5.4395e-06	387.31	182.36	132.87	54.537	5.3876e-06	77.826	170.712	2.354	-7.442	-82.571	111.486	30.488	-83.251	-78.755	65.877	66.631	-79.940	-77.367	-76.021	-71.831	70.906	-73.034	-8191	255	
4304.478	1	1	0	0	0.17703	0.1698	0.10856	0.1104	0.34226	0.08702	0.094587	0.26249	0.03883	0.073826	0.142	0.15756	0.23538	0.20042	0.061066	0.11558	-2.0042	-2.8354	-2.4313	-2.8688	-3.0792	-2.3271	-2.9229	-2.9104	-2.4	-3.1625	-2.6375	-2.6417	-3.1896	-2.4833	-2.6875	-3.0104	13.552	156.064	242.498	-80.997	106.867	56.585	183.005	188.013	143.773	53.069	229.067	250.145	213.358	-93.689	-96.436	171.850	0.00026116	0.0010235	0.00024126	1366.9	2.581e-06	4.0975e-06	1197.4	348.03	4.8132e-06	7.5829e-06	408.12	188.79	138.68	57.477	2.9538e-06	80.405	0.00051029	0.00047078	0.00013481	1286.7	5.1469e-06	5.4966e-06	1141.1	328.62	5.3756e-06	5.404e-06	385.7	180.15	132.09	54.437	5.3876e-06	76.884	174.383	-8.093	-5.109	-82.659	7.197	95.728	-83.007	-79.199	44.056	39.808	-79.951	-77.418	-75.533	-71.643	26.489	-73.361	-8191	255	
4304.574	1	1	0	0	0.072095	0.25363	0.40607	0.22219	0.2308	0.32452	0.12216	0.32527	0.21465	0.20835	0.23611	0.25406	0.18359	0.07242	0.17586	0.088853	-1.9271	-3.025	-2.65	-2.8333	-3.1917	-2.2375	-2.9458	-2.9562	-2.2896	-3.0729	-2.675	-2.5771	-3.2812	-2.5979	-2.6396	-3.0563	97.611	-66.684	241.484	188.105	24.968	111.425	70.734	259.881	-86.263	-7.075	3.467	248.714	-61.804	161.967	-19.032	89.948	0.00028424	0.001011	1.8348e-05	1368.6	1.0895e-06	8.5603e-06	1198.5	347.67	2.8942e-06	6.9219e-06	409.03	190.71	139.4	57.156	6.1656e-06	81.865	0.00048941	0.00049155	0.00013912	1287.6	4.9885e-06	5.3025e-06	1138.3	328.04	5.1848e-06	4.9411e-06	387.6	182.66	133.3	54.534	5.3602e-06	77.595	179.699	-6.823	40.373	-82.784	73.977	48.114	-83.133	-79.035	-10.208	9.235	-80.119	-76.966	-76.039	-71.630	31.652	-73.493	-8191	255	
4304.695	1	1	0	0	0.31612	0.13702	0.15856	0.24909	0.15045	0.070837	0.28482	0.085866	0.18801	0.080676	0.09217	0.22148	0.18095	0.18914	0.19286	0.13118	-2.0563	-2.9208	-2.7854	-2.6875	-2.9833	-2.2604	-2.9125	-3.2083	-2.2812	-2.7354	-2.9833	-2.5938	-3.2	-2.7521	-2.6771	-3.0979	-0.166	101.487	-11.153	219.647	224.078	83.294	232.991	171.175	87.915	227.933	94.317	217.875	212.550	231.631	-15.574	250.332	0.00023115	0.00076841	0.00022039	1361	6.5661e-06	1.4043e-06	1201.2	346.72	3.1205e-06	8.0354e-06	408.3	192.23	139.73	57.409	4.5941e-06	81.304	0.00049773	0.00048122	0.00013347	1284	5.2318e-06	5.1959e-06	1140.9	327.78	5.1818e-06	5.2849e-06	387.17	182.41	132.97	54.699	5.255e-06	77.509	178.200	-0.784	4.188	-82.828	50.019	87.660	-83.320	-78.857	55.704	77.936	-80.239	-77.241	-75.817	-71.861	70.263	-73.236	-8191	255	
4304.789	1	1	0	0	0.23122	0.051418	0.32042	0.41902	0.13905	0.13508	0.057066	0.17317	0.073836	0.22577	0.13862	0.21057	0.27548	0.072226	0.29956	0.081498	-1.9083	-2.8167	-2.7396	-2.6	-2.9604	-2.425	-2.7188	-3.1708	-2.3854	-2.7854	-2.7479	-2.5375	-3.2208	-2.6792	-2.6146	-3.0812	27.215	148.075	167.949	210.234	164.380	153.288	106.819	172.999	-31.155	150.009	-78.913	-53.994	175.862	212.466	78.169	225.195	0.00026609	0.0010271	0.00012784	1367.3	6.4786e-06	9.047e-06	1211.4	348	2.2635e-06	3.9068e-06	416.78	191.22	140.94	57.805	3.2664e-06	81.815	0.00049825	0.00048591	0.00013636	1287.6	5.3252e-06	5.3733e-06	1148	329.46	5.3819e-06	5.2808e-06	391.65	182.95	134.49	55.001	5.3984e-06	77.86	184.526	-37.646	-12.625	-82.721	62.700	76.739	-83.127	-78.945	53.386	63.116	-80.255	-77.314	-76.036	-71.938	80.135	-73.119	-8191	255	
4304.886	1	1	0	0	0.04844	0.1189	0.081884	0.15597	0.11691	0.16752	0.069209	0.054406	0.14301	0.14109	0.194	0.12276	0.16607	0.26046	0.16023	0.22821	-2.0083	-2.7979	-2.8854	-2.6083	-3.0917	-2.8063	-2.55	-3.0958	-2.1875	-2.7292	-3.0583	-2.5583	-3.1562	-2.825	-2.4792	-3.2375	177.753	-21.139	129.837	205.836	184.415	115.564	202.305	105.329	11.507	94.495	-49.827	167.807	-56.884	178.251	62.376	183.684	0.00030829	0.00065229	0.00023127	1370.9	8.5306e-06	7.0731e-06	1223.4	354.23	2.1175e-06	7.1434e-06	419.83	192.07	141.74	57.778	5.0523e-06	81.162	0.00050861	0.00050184	0.00012531	1295.4	5.1849e-06	5.3696e-06	1154.5	334.42	5.307e-06	5.1871e-06	396.17	184.26	135.12	54.974	5.3872e-06	77.525	175.438	-21.645	8.080	-82.927	57.190	46.034	-83.268	-78.963	67.438	86.698	-79.975	-77.479	-75.956	-71.664	18.391	-72.890	-8191	255	
4304.982	1	1	0	0	0.2476	0.31462	0.063614	0.04763	0.16947	0.4371	0.23968	0.10235	0.034865	0.12814	0.19632	0.029267	0.16572	0.16388	0.13609	0.17087	-2.1188	-2.7438	-2.9729	-2.5729	-2.9479	-2.9104	-2.5833	-3.2396	-2.6375	-2.6604	-3.1417	-2.5646	-2.9521	-2.9229	-2.4708	-3.1604	67.315	-60.370	252.712	107.616	244.571	153.741	185.199	15.372	-91.177	101.512	143.116	251.421	114.489	220.731	24.102	78.568	0.00034504	0.00046252	0.00025022	1378.4	6.6813e-06	7.123e-06	1219.2	350.04	4.3065e-06	3.39e-06	411.95	192.94	140.26	57.325	3.6262e-06	81.081	0.00050453	0.00046853	0.00013341	1295.2	5.2861e-06	5.283e-06	1153.3	332.8	5.3261e-06	5.2243e-06	391.73	183.87	134.47	54.76	5.323e-06	77.221	184.799	18.552	-4.136	-83.145	46.952	56.076	-83.431	-79.185	27.252	69.288	-79.873	-77.223	-75.959	-71.687	16.026	-73.351	-8191	255	
4305.076	1	1	0	0	0.2291	0.29316	0.183	0.14361	0.25338	0.11815	0.30093	0.2156	0.22569	0.051291	0.27167	0.41568	0.27982	0.24261	0.27178	0.12588	-2.0187	-2.4333	-2.7604	-2.5083	-2.8583	-2.825	-2.4792	-3.1896	-2.6958	-2.7646	-3.1146	-2.5833	-2.8458	-3.1146	-2.3083	-3.0646	253.443	141.775	-84.320	166.475	184.003	191.221	174.798	179.071	-1.522	205.504	224.804	-89.716	260.660	-69.800	217.574	138.756	0.00017918	0.00092982	0.00023119	1378.8	1.9188e-06	9.9194e-06	1207.4	351.07	1.2463e-06	7.0346e-06	412.02	190.73	141.39	57.866	4.5973e-06	81.44	0.00050188	0.00048395	0.00013423	1298.4	5.2973e-06	5.1673e-06	1151.8	332.46	5.2789e-06	5.2062e-06	391.97	183.64	134.64	54.886	5.2373e-06	77.596	178.076	-40.972	-3.624	-82.639	-53.332	68.123	-83.309	-78.689	90.453	47.288	-80.158	-77.036	-75.993	-71.744	-1.708	-73.475	-8191	255	
4305.172	1	1	0	0	0.082425	0.19303	0.15876	0.24807	0.14919	0.29483	0.20003	0.32477	0.17784	0.38812	0.046177	0.16883	0.38526	0.047621	0.45996	0.15803	-2.2979	-2.3708	-3.0729	-2.6521	-2.6437	-3.0271	-2.4437	-2.8792	-2.8604	-2.4208	-3.2625	-2.6813	-2.7979	-3.0104	-2.4375	-2.95	61.132	49.647	53.320	198.605	178.788	231.981	-48.384	225.868	95.296	235.551	235.709	261.624	229.222	155.133	-1.306	-90.872	0.00030071	0.00065483	0.00014429	1376.4	2.9632e-06	1.0126e-05	1217.6	352.9	1.2858e-06	8.6325e-06	416.32	194.95	141.56	58.161	8.2438e-06	82.215	0.00050529	0.00046362	0.0001397	1297.6	5.2465e-06	5.1841e-06	1154.6	332.19	5.1867e-06	5.5375e-06	393.56	185.43	135.15	55.468	5.4397e-06	78.607	178.868	-5.150	-2.051	-82.886	84.527	92.946	-83.268	-78.904	106.957	99.883	-79.874	-77.234	-75.779	-71.410	25.310	-72.924	-8191	255	
4305.293	1	1	0	0	0.24716	0.1252	0.045963	0.025889	0.085058	0.072278	0.091923	0.20457	0.072418	0.22097	0.26651	0.28267	0.23019	0.17562	0.10628	0.31804	-2.4875	-2.3833	-3.2208	-2.8958	-2.6312	-3.1583	-2.4646	-2.7896	-2.9333	-2.4375	-3.0687	-2.6521	-2.5229	-3.2854	-2.4333	-2.9	48.517	-92.019	212.828	250.853	-88.764	123.645	204.674	-88.239	-53.394	248.425	230.197	-43.745	194.861	206.133	18.561	258.269	0.00032685	0.0009854	0.00023741	1385.7	4.2508e-06	1.1532e-05	1220.2	356.49	6.4481e-06	1.018e-05	421.35	197.3	143.37	59.48	6.6365e-06	82.395	0.00050713	0.00049319	0.00014226	1305.7	5.4581e-06	5.3353e-06	1163.2	335.42	5.5656e-06	5.1467e-06	399.52	187.51	136.87	56.305	5.2729e-06	78.744	176.644	-4.554	-18.284	-82.486	16.971	73.527	-82.947	-79.317	31.740	36.047	-80.050	-76.963	-75.890	-71.670	18.794	-73.118	-8191	255	
4305.389	1	1	0	0	0.26082	0.090009	0.065667	0.18368	0.092255	0.34422	0.16391	0.14322	0.085041	0.094517	0.085815	0.1923	0.29316	0.15638	0.052131	0.37564	-2.6792	-2.5417	-2.9813	-2.9	-2.4917	-3.2958	-2.5604	-2.7812	-3.0938	-2.5417	-3.1479	-2.8146	-2.5979	-3.2062	-2.5375	-3.0812	142.669	156.481	67.725	-21.821	254.584	149.493	236.679	253.189	111.819	170.089	-88.382	256.830	232.457	260.887	51.416	208.002	0.00035159	0.00051015	0.00013061	1385.5	6.4348e-06	3.8894e-06	1231.3	355.62	5.8953e-06	6.8755e-06	420.61	194.28	143.59	58.732	9.0758e-06	81.9	0.0005002	0.00049757	0.00013103	1308.4	5.1994e-06	5.321e-06	1166.9	335.61	5.2614e-06	5.3106e-06	397.73	185.66	136.47	55.713	5.4869e-06	78.005	186.608	-60.669	-11.037	-82.686	55.748	-6.998	-83.258	-78.680	16.894	40.845	-79.891	-77.076	-75.554	-71.957	9.478	-73.330	-8191	255	
4305.485	1	1	0	0	0.1138	0.26838	0.1369	0.13792	0.069517	0.13656	0.24911	0.2092	0.048492	0.073629	0.05697	0.077779	0.20221	0.15157	0.30138	0.13005	-2.6583	-2.3083	-3.0146	-3.1354	-2.4604	-3.0125	-2.6042	-2.8979	-3.0563	-2.4271	-2.9792	-2.8771	-2.4375	-3.3187	-2.4583	-2.9396	140.284	92.746	-46.381	-90.950	159.982	-74.246	255.664	9.183	-55.682	101.824	64.964	220.011	-75.171	236.179	38.489	146.140	0.00030367	0.00062221	0.00018542	1384	2.9729e-06	3.2433e-06	1228.3	353.98	4.3099e-06	1.2024e-05	419.67	194.64	143.28	58.353	2.5209e-06	82.108	0.00051128	0.00047089	0.00013575	1306.2	5.247e-06	5.2635e-06	1164.6	334.83	5.2371e-06	5.1311e-06	397.58	185.7	136.79	55.887	5.2378e-06	78.253	178.696	22.757	-24.578	-82.570	66.073	26.043	-83.043	-78.802	49.748	51.317	-79.728	-77.090	-76.266	-71.841	52.416	-73.075	-8191	255	
4305.581	1	1	0	0	0.26676	0.14288	0.035231	0.20173	0.061717	0.33088	0.13934	0.097879	0.13728	0.056858	0.088252	0.20165	0.31253	0.11886	0.14825	0.041449	-2.6021	-2.4875	-2.8312	-3.1646	-2.3125	-3.2333	-2.7042	-2.6562	-2.9938	-2.5729	-2.9667	-2.9875	-2.4562	-3.1792	-2.6333	-2.65	93.017	-22.877	-46.834	-92.388	39.726	19.214	-77.714	230.390	144.773	-92.609	235.019	240.655	253.263	-55.610	-45.539	203.562	0.00031173	0.00080116	0.00015752	1387.3	7.3231e-06	6.6922e-06	1227.3	355.62	4.0221e-06	7.5969e-06	425.08	196.5	145.82	59.389	4.3291e-06	83.125	0.00048942	0.00048706	0.00013312	1307.1	5.2387e-06	5.1317e-06	1167.5	336.23	5.0857e-06	5.2001e-06	402.62	188.37	138.67	56.532	5.4e-06	79.243	189.899	-32.071	4.090	-82.691	29.450	31.331	-83.374	-78.932	0.377	67.289	-79.983	-77.063	-75.967	-71.627	49.487	-73.238	-8191	255	
4305.677	1	1	0	0	0.1016	0.1678	0.19903	0.38418	0.13502	0.21776	0.097704	0.051455	0.14314	0.27022	0.07771	0.021259	0.10045	0.39075	0.14128	0.25394	-2.5667	-2.3958	-2.6583	-3.2438	-2.4562	-2.9917	-2.7042	-2.65	-3.1792	-2.5667	-2.6917	-3.0687	-2.6917	-3.0396	-2.6771	-2.575	15.372	150.225	-1.937	222.987	-0.731	247.102	244.263	122.455	-46.020	43.085	-66.782	7.978	226.818	232.699	100.932	47.539	0.00027508	0.00075753	0.00021721	1394.4	5.5295e-06	1.1165e-05	1245.7	359.19	4.0123e-06	5.911e-06	425.32	198.69	146.83	59.82	3.015e-06	83.255	0.00049125	0.00050937	0.00013281	1313.8	5.3413e-06	5.0915e-06	1179	339.4	5.1177e-06	5.1181e-06	405.39	190.1	139.31	56.778	5.3874e-06	79.147	185.558	2.047	-10.879	-82.616	23.493	82.452	-83.015	-79.122	25.357	51.224	-80.411	-76.844	-76.009	-71.780	9.249	-73.502	-8191	255	
4305.774	1	1	0	0	0.16656	0.14551	0.078081	0.15609	0.17019	0.12445	0.20382	0.098223	0.076658	0.25601	0.11899	0.094737	0.20377	0.3516	0.079709	0.26964	-2.6646	-2.5792	-2.5875	-3.0583	-2.3708	-2.9	-2.7833	-2.525	-3.1167	-2.6208	-2.6479	-3.0333	-2.475	-2.8229	-2.8458	-2.6146	121.924	214.734	143.571	233.949	125.713	256.310	171.096	248.441	-64.668	-90.349	3.057	252.285	246.347	-90.276	62.025	191.907	0.00026875	0.0011335	0.00019295	1394.2	2.8687e-06	3.0608e-06	1246	357.82	4.3899e-06	7.578e-06	430.45	198.18	145.15	59.478	4.0377e-06	82.805	0.00050004	0.00048711	0.00013379	1316.8	5.3935e-06	5.1663e-06	1181	339.53	5.4298e-06	5.2842e-06	405.46	189.21	138.62	56.566	5.3261e-06	78.69	189.987	-7.666	-27.991	-82.570	65.226	58.725	-83.200	-78.546	40.157	50.546	-80.056	-77.333	-75.792	-71.656	-3.757	-73.527	-8191	255	
4305.870	1	1	0	0	0.18417	0.081581	0.036729	0.29776	0.24298	0.11198	0.1396	0.11676	0.21391	0.09822	0.19803	0.17839	0.12875	0.27282	0.27016	0.074483	-2.7375	-2.5875	-2.4188	-3.1646	-2.3625	-2.7396	-2.9792	-2.4625	-2.9625	-2.6583	-2.5958	-3.2146	-2.65	-2.9104	-2.9729	-2.475	-24.263	142.892	-12.486	-85.822	3.935	-8.970	243.634	192.268	208.447	-46.305	17.419	203.812	-33.312	203.547	90.064	31.260	0.00029652	0.0010266	0.00015974	1400.3	4.4902e-06	5.9148e-06	1237.5	359.22	5.846e-06	3.7894e-06	425.03	195.97	145.05	59.445	3.3553e-06	81.758	0.00051443	0.00048075	0.00013415	1319.8	5.479e-06	5.3851e-06	1177.5	339.46	5.4525e-06	5.2844e-06	403.28	187.74	138.34	56.386	5.4361e-06	78.337	173.859	-8.264	-7.720	-82.639	62.237	37.483	-83.244	-78.799	3.828	39.820	-80.052	-76.843	-75.883	-71.657	68.013	-73.157	-8191	255	
4305.966	1	1	0	0	0.28611	0.085266	0.14155	0.54393	0.0139	0.081898	0.27371	0.13829	0.2358	0.13423	0.098448	0.12279	0.082607	0.1591	0.19435	0.11441	-2.6437	-2.5417	-2.1562	-3.1458	-2.3229	-2.6417	-3.1208	-2.4771	-2.8708	-2.9604	-2.5417	-3.2188	-2.6354	-2.6813	-3.0708	-2.3333	-28.851	142.611	-33.222	188.705	126.003	176.264	158.890	-45.429	195.363	61.964	-81.221	135.929	128.157	-89.741	93.306	-17.183	0.00033932	0.0011243	0.00022585	1394.2	4.0168e-06	8.0181e-06	1240.8	358.72	2.5095e-06	6.6479e-06	427.54	197.97	144.16	59.161	2.7452e-06	83.409	0.00048664	0.00050892	0.00013419	1315.2	5.1573e-06	5.1895e-06	1178.2	340	5.0841e-06	5.1612e-06	402.8	188.91	138.4	56.368	5.1753e-06	78.964	175.768	-25.547	23.363	-82.525	24.513	77.273	-83.134	-78.617	53.148	63.914	-79.912	-77.174	-75.628	-72.101	44.864	-73.525	-8191	255	
4306.085	1	1	0	0	0.35414	0.096214	0.059954	0.24146	0.082582	0.12405	0.032869	0.16634	0.13989	0.043977	0.17837	0.10974	0.21024	0.14817	0.13365	0.26998	-2.3833	-2.8896	-2.1583	-3.1125	-2.5896	-2.5062	-3.0979	-2.5021	-3.0208	-2.8812	-2.5958	-3.1729	-2.6479	-2.4562	-3.0833	-2.3979	-46.913	112.985	-19.498	262.823	-3.089	-70.212	-84.931	106.702	41.080	-38.335	-27.036	199.492	-81.650	-79.428	186.639	-80.569	0.00030468	0.00043516	0.00024796	1392	7.0356e-06	9.7716e-06	1239.5	361.57	5.0072e-06	3.9437e-06	424.81	198.13	145.74	59.248	1.537e-06	83.015	0.00048118	0.00048091	0.0001327	1316.1	5.2707e-06	5.3072e-06	1178.5	339.39	5.2733e-06	5.1805e-06	404.37	189.24	138.7	56.644	5.2058e-06	79.138	177.831	18.364	21.868	-82.554	52.235	64.707	-83.360	-78.994	0.664	-2.160	-79.971	-77.130	-76.054	-71.664	-2.145	-73.219	-8191	255	
4306.181	1	1	0	0	0.21858	0.40035	0.039477	0.19151	0.19694	0.082997	0.29138	0.23148	0.21958	0.24898	0.33018	0.18291	0.23558	0.36618	0.14067	0.23092	-2.2042	-2.8292	-2.3458	-3.1667	-2.6854	-2.5167	-3.2146	-2.7271	-2.7479	-3.0583	-2.4333	-2.95	-2.7292	-2.5104	-3.0833	-2.4813	160.840	63.109	209.760	163.983	247.105	194.743	185.049	201.223	57.016	208.837	248.609	240.236	247.715	249.459	20.071	138.603	0.00030489	0.00047259	0.00018446	1408.6	1.5242e-06	7.8051e-06	1242.5	358.93	2.0496e-06	1.1903e-05	430.58	199.76	145.27	59.899	4.627e-06	82.331	0.00050198	0.00046142	0.00013001	1320.9	5.2433e-06	5.317e-06	1178.4	340.1	5.114e-06	5.3365e-06	406.8	189.92	139.08	56.644	5.1517e-06	78.933	181.417	-21.205	11.397	-82.523	39.048	64.160	-83.196	-78.978	-10.048	81.637	-80.027	-76.875	-75.683	-72.100	52.857	-73.294	-8191	255	
4306.254	1	1	0	0	0.16801	0.18203	0.096302	0.19741	0.061622	0.21786	0.074847	0.53736	0.056469	0.098391	0.083274	0.084115	0.18093	0.10668	0.090087	0.12991	-2.3688	-3.0104	-2.2188	-3.1917	-2.8	-2.4375	-3.2	-2.7104	-2.7521	-3.1208	-2.5312	-3.0396	-2.8375	-2.7104	-3.0625	-2.7833	41.216	184.272	-43.049	170.995	138.487	96.300	248.997	150.933	-21.490	-96.622	198.735	176.114	254.522	235.351	94.121	-84.691	0.00028656	0.00088119	0.00024691	1401.4	5.031e-06	4.81e-06	1239.7	355.94	3.7881e-06	3.796e-06	422.35	193.45	143.17	58.684	5.7636e-06	81.139	0.00049974	0.00047164	0.00012892	1315.8	5.1941e-06	5.0935e-06	1176.1	337.03	5.1797e-06	5.178e-06	399.67	185.6	136.57	55.493	5.1803e-06	77.364	186.935	-2.513	-17.517	-82.511	55.889	41.257	-82.836	-79.028	8.063	33.244	-80.006	-77.260	-75.931	-71.825	87.966	-72.968	-8191	255	
4306.373	1	1	0	0	0.077896	0.15977	0.17589	0.25062	0.087943	0.20543	0.10853	0.32192	0.16381	0.14334	0.17485	0.091409	0.22352	0.12039	0.26613	0.38741	-2.1417	-3.0083	-2.4729	-2.9021	-2.8917	-2.2521	-3.2729	-2.7458	-2.4417	-3.2104	-2.4896	-2.9583	-3.0396	-2.6479	-3.05	-2.825	232.403	223.669	146.493	-10.780	142.411	124.661	223.823	144.827	226.699	216.629	219.761	37.797	-63.189	-63.527	19.895	191.228	0.00033152	0.00076621	0.00021966	1398.2	5.202e-06	7.5215e-06	1234.8	356.08	5.4443e-06	4.4053e-06	418.83	191.31	141.46	57.496	5.5935e-06	80.348	0.00050362	0.00048173	0.0001326	1315.8	4.9039e-06	5.2346e-06	1172.4	336.74	5.2521e-06	4.9372e-06	396.64	183.34	134.79	54.572	5.0379e-06	76.364	193.463	5.919	-16.666	-82.995	54.430	54.820	-83.394	-78.685	21.588	54.128	-80.441	-76.866	-75.786	-72.166	37.508	-73.417	-8191	255	
4306.469	1	1	0	0	0.18535	0.20821	0.044562	0.24312	0.19929	0.076302	0.11748	0.11106	0.207	0.13746	0.065162	0.21185	0.11121	0.06518	0.23477	0.24755	-2.2542	-3.1	-2.2938	-2.8979	-2.9125	-2.3354	-3.1208	-3.0292	-2.3625	-3.1375	-2.5646	-2.9125	-3.0333	-2.3187	-2.8563	-3.0104	23.925	129.757	-24.675	233.356	-69.569	154.730	230.488	-57.518	59.347	86.867	9.425	246.251	210.774	39.967	-12.102	104.124	0.00026075	0.00037133	0.00018032	1390.1	5.473e-06	1.0059e-05	1238	357.8	3.2099e-06	4.3954e-06	421.87	193.36	141.36	57.805	7.0053e-06	80.053	0.00048433	0.00046073	0.00012989	1314.3	4.8685e-06	4.9346e-06	1175.3	337.06	4.9068e-06	4.8765e-06	399.28	184.64	135.4	54.854	5.3891e-06	76.989	189.630	17.116	-8.536	-82.919	47.453	76.080	-82.985	-78.909	39.494	4.187	-80.191	-77.242	-75.664	-72.283	35.256	-73.323	-8191	255	
4306.566	1	1	0	0	0.10241	0.27969	0.13497	0.24824	0.15668	0.093256	0.36198	0.34003	0.16975	0.14237	0.10552	0.091231	0.44066	0.27334	0.17717	0.18575	-1.9438	-2.9167	-2.5729	-3.0771	-3.0104	-2.4021	-3.1312	-3.125	-2.4062	-2.7854	-2.8063	-2.7771	-3.2396	-2.5521	-2.9083	-2.8875	102.517	148.485	-28.891	249.481	-96.395	127.591	189.695	-79.201	-49.983	16.363	-75.719	248.371	-78.762	245.234	245.975	178.948	0.0003201	0.0005764	0.00023663	1396	5.1853e-06	6.541e-06	1249.5	359.17	7.1104e-06	5.0322e-06	425.31	195.14	141.97	58.677	7.6692e-06	81.159	0.00047428	0.00047482	0.00012953	1314.2	4.9319e-06	5.1823e-06	1181	337.54	5.2238e-06	5.271e-06	400.73	185.78	135.68	55.574	5.3998e-06	77.365	178.239	-9.137	-23.044	-82.707	86.153	32.775	-83.098	-78.863	40.921	20.189	-80.172	-77.266	-75.754	-71.846	31.502	-73.490	-8191	255	
4306.686	1	1	0	0	0.01901	0.2214	0.15631	0.18736	0.088061	0.40585	0.26249	0.159	0.10188	0.18526	0.02919	0.15961	0.14656	0.20567	0.18285	0.17505	-1.9042	-3.0396	-2.5729	-2.6583	-3.1375	-2.4021	-2.8438	-3.1417	-2.4354	-2.9521	-2.6292	-2.7375	-3.1688	-2.4979	-2.6917	-3.1542	-86.660	104.235	-86.829	235.503	103.712	-14.347	235.816	153.245	136.213	52.908	160.880	245.392	199.348	-95.336	162.744	-90.823	0.00032582	0.001023	0.0001492	1402.4	5.8013e-06	1.0192e-05	1251.2	355.25	5.3672e-06	4.1497e-06	419.91	192.11	143.26	58.5	6.4496e-06	81.464	0.00049214	0.0004997	0.00013165	1321.2	5.015e-06	5.3521e-06	1181.4	336.7	5.2294e-06	5.2096e-06	397.6	183.97	135.78	55.563	5.3521e-06	77.556	183.808	-22.395	35.213	-82.810	37.214	53.015	-82.990	-79.149	58.427	39.098	-80.229	-77.054	-75.930	-72.006	12.221	-73.121	-8191	255	
4306.782	1	1	0	0	0.13892	0.26234	0.13725	0.18767	0.24173	0.060975	0.33177	0.052996	0.16724	0.15841	0.22168	0.30703	0.2201	0.22602	0.29393	0.37674	-1.9125	-2.9792	-2.7042	-2.6771	-3.0646	-2.3937	-2.7708	-3.0729	-2.5583	-2.8688	-2.7833	-2.4917	-3.2396	-2.6542	-2.575	-3.2771	-95.229	159.871	-76.046	-75.441	193.832	111.479	255.878	238.089	155.282	-28.813	249.732	217.132	257.145	184.735	232.825	252.503	0.00028759	0.00040679	0.00013786	1393.2	9.4753e-07	6.7301e-06	1241.5	356.2	5.3865e-06	9.7202e-06	421.25	194.84	144.53	58.956	4.5426e-06	81.857	0.00049417	0.00048893	0.00013216	1318.7	5.3291e-06	5.3844e-06	1177.5	336.89	5.2177e-06	5.2654e-06	399.51	186.18	137.45	56.208	5.1374e-06	78.296	193.272	-43.310	-5.030	-83.044	64.145	28.651	-83.130	-79.039	46.755	53.351	-79.902	-77.126	-75.708	-72.163	6.765	-72.821	-8191	255	
4306.878	1	1	0	0	0.1513	0.066437	0.16376	0.2976	0.22155	0.18632	0.020469	0.17264	0.072943	0.13108	0.072376	0.32034	0.23246	0.26307	0.25285	0.21639	-2.0625	-2.7104	-2.7833	-2.6021	-2.9771	-2.8104	-2.6562	-3.2479	-2.4542	-2.8625	-3.0833	-2.5125	-3.1521	-2.8375	-2.3563	-3.1833	-81.218	-81.031	100.021	208.429	-18.533	156.583	-40.429	214.816	51.695	138.495	-70.394	184.439	194.610	220.700	-62.500	154.146	0.00028265	0.00078193	0.00013956	1408.8	3.245e-06	8.3739e-06	1243.9	356.17	5.2041e-06	6.4122e-06	426.56	199.29	146.35	60.015	1.4852e-06	83.394	0.00049483	0.0004746	0.00013792	1322.3	5.3247e-06	5.41e-06	1178.4	338.11	5.0787e-06	5.1176e-06	404.04	189.29	139.18	57.202	5.245e-06	79.363	179.272	12.646	-0.522	-82.819	77.949	71.367	-83.139	-78.615	10.416	51.507	-79.665	-77.252	-75.806	-72.008	24.221	-73.230	-8191	255	
4306.975	1	1	0	0	0.18719	0.076492	0.14409	0.42926	0.288	0.25174	0.27888	0.32523	0.12157	0.090272	0.26525	0.29585	0.15947	0.11949	0.03526	0.35216	-1.9375	-2.9	-2.8917	-2.3063	-3.1354	-2.6937	-2.6604	-3.2792	-2.6354	-2.8083	-2.9042	-2.4854	-3.075	-2.875	-2.3688	-3.0958	141.579	162.666	93.606	250.498	92.482	-82.597	194.050	150.681	28.880	225.038	-71.021	186.699	258.831	191.147	120.125	185.332	0.00031658	0.0010661	0.0001356	1406	6.0447e-06	5.3914e-06	1249	363.07	3.1515e-06	1.0004e-05	429.99	198.58	146.58	60.378	3.5566e-06	83.025	0.00049516	0.00049435	0.00013642	1324.4	5.1274e-06	5.1342e-06	1189.2	341.96	5.56e-06	5.4082e-06	406.36	189.94	139.53	57.563	5.5253e-06	79.382	171.011	8.011	-52.516	-82.735	46.438	50.597	-83.348	-78.757	27.885	70.357	-79.569	-77.111	-75.626	-71.529	61.977	-73.238	-8191	255	
4307.069	1	1	0	0	0.20436	0.16235	0.073907	0.35116	0.03314	0.12352	0.26992	0.35918	0.24703	0.03632	0.055989	0.30742	0.16575	0.21199	0.34721	0.079564	-2.2	-2.7083	-3.1188	-2.5125	-3.1188	-2.8979	-2.6771	-3.2271	-2.6063	-2.7854	-3.1271	-2.5021	-3.0458	-3.0812	-2.4521	-3.2104	212.695	162.900	-32.919	169.165	-16.625	54.176	258.685	251.856	80.353	-75.638	205.801	243.200	121.267	122.763	166.251	186.715	0.00027766	0.00090937	0.00021624	1412.2	7.2797e-06	8.323e-06	1262	362.93	3.2386e-06	9.6354e-06	437.61	201.89	148.41	61.523	4.2664e-06	84.381	0.0005037	0.00049475	0.00013375	1332.8	5.4305e-06	5.3494e-06	1197.7	344.41	5.445e-06	5.4338e-06	413.4	193.15	141.43	58.36	5.4964e-06	80.229	182.260	11.283	-44.043	-82.628	58.658	46.290	-83.742	-78.717	-0.356	61.748	-79.886	-77.308	-75.650	-71.417	13.570	-72.798	-8191	255	
4307.165	1	1	0	0	0.084786	0.14759	0.24677	0.10566	0.097924	0.20251	0.16812	0.061837	0.17201	0.20123	0.32023	0.223	0.090047	0.42206	0.34477	0.13182	-2.2875	-2.7854	-3.15	-2.5917	-2.8146	-2.8104	-2.4646	-3.0375	-2.5563	-2.5563	-3.1604	-2.4437	-2.9146	-2.9583	-2.3979	-3.1562	212.881	-43.140	41.154	241.729	94.919	173.280	91.316	247.778	88.534	36.423	-89.857	-57.611	95.702	236.560	86.515	178.474	0.00027892	0.00049374	0.00016651	1427.7	3.5272e-06	8.8208e-06	1266.8	366.95	3.3294e-06	1.5821e-06	435.44	201.41	149.55	61.401	5.107e-06	84.027	0.00052687	0.00048575	0.00014005	1338.4	5.3778e-06	5.3656e-06	1202.8	345.59	5.1105e-06	5.1695e-06	412.13	192.66	142.25	58.288	5.4194e-06	80.048	172.365	-13.821	21.056	-82.862	52.884	90.108	-83.051	-79.021	44.132	85.460	-79.669	-76.913	-75.666	-71.677	46.511	-73.194	-8191	255	
4307.261	1	1	0	0	0.1168	0.11949	0.11864	0.37112	0.060162	0.091923	0.33378	0.12437	0.073597	0.098516	0.23437	0.3024	0.1748	0.27533	0.068869	0.08739	-2.2875	-2.3438	-3.0729	-2.6104	-2.8396	-2.9604	-2.5083	-3.0896	-2.7229	-2.3583	-3.1792	-2.6479	-2.7771	-3.1917	-2.4375	-2.9146	-82.815	98.219	103.649	191.390	-31.638	100.232	191.143	160.336	32.617	-76.744	187.488	220.260	211.454	259.365	-30.744	22.873	0.00031661	0.0010237	0.00024326	1423.3	3.7203e-06	9.0604e-06	1273.3	366.51	2.4953e-06	4.3659e-06	439.62	201.63	149.19	61.927	6.1539e-06	83.914	0.0005112	0.00048504	0.00013556	1340.9	5.2799e-06	5.2531e-06	1210.8	347.32	5.4551e-06	5.2453e-06	414.25	192.95	142.37	58.871	5.4578e-06	80.125	173.131	-13.181	-2.232	-82.581	63.781	79.004	-82.946	-78.582	-47.519	63.371	-80.183	-77.033	-75.724	-71.574	43.118	-73.301	-8191	255	
4307.382	1	1	0	0	0.046074	0.1412	0.076925	0.11896	0.085564	0.30931	0.22983	0.21102	0.24811	0.13032	0.26694	0.31932	0.14863	0.41099	0.10088	0.12175	-2.3563	-2.5	-3.0312	-2.6646	-2.6771	-2.8979	-2.4479	-2.8854	-2.8146	-2.3792	-3.1542	-2.8042	-2.525	-3.1167	-2.3625	-2.9979	59.677	31.010	211.811	121.126	24.220	20.776	-45.484	204.103	239.264	147.694	-76.646	231.122	35.199	-21.147	12.991	206.900	0.00035062	0.0010427	9.4436e-05	1421.3	1.4947e-06	1.1058e-05	1279.2	368.98	5.8177e-06	7.6075e-06	441.64	203.31	150.83	62.273	4.024e-06	84.073	0.000497	0.00049375	0.00013232	1343.2	5.4049e-06	5.3077e-06	1215.9	349.57	5.3798e-06	5.0854e-06	417.9	194.02	143.34	59.062	5.4924e-06	80.397	172.209	-8.935	-9.827	-82.596	107.653	46.234	-83.211	-79.171	19.870	38.311	-79.703	-76.763	-75.691	-71.555	81.806	-72.827	-8191	255	
4307.478	1	1	0	0	0.16109	0.11443	0.077499	0.32071	0.2532	0.13164	0.12731	0.10572	0.14348	0.10218	0.21659	0.26733	0.19492	0.0089264	0.26312	0.25403	-2.4708	-2.4271	-3.0271	-2.7938	-2.3771	-3.0479	-2.6	-2.9562	-2.8542	-2.3312	-3.0458	-2.9646	-2.6917	-3.2021	-2.3354	-2.9104	116.935	174.038	233.270	237.371	53.246	92.287	155.122	-77.046	118.367	221.175	223.224	235.524	185.418	191.645	127.999	34.722	0.00026272	0.00091113	0.00015029	1439.4	5.0689e-06	7.8388e-06	1280.8	372.82	5.4481e-06	8.3262e-06	445.56	206.2	152.06	62.677	3.1687e-06	85.275	0.00051992	0.00049124	0.0001347	1355.7	5.3688e-06	5.1939e-06	1220	351.93	5.4523e-06	5.1529e-06	422.31	196.94	145.1	59.712	5.3984e-06	81.354	179.293	-32.319	25.291	-82.573	47.652	67.600	-82.834	-78.871	23.496	15.623	-79.782	-76.827	-75.818	-71.566	98.530	-72.735	-8191	255	
4307.550	1	1	0	0	0.15587	0.15352	0.20849	0.37763	0.027871	0.20059	0.063619	0.18392	0.099116	0.21112	0.37549	0.25856	0.393	0.16695	0.2647	0.091192	-2.4417	-2.3729	-2.9792	-2.9104	-2.5729	-2.9896	-2.5854	-2.7583	-2.9792	-2.5125	-3.1229	-2.9083	-2.4958	-3.2042	-2.4625	-2.8771	132.830	186.797	50.341	227.913	28.908	110.783	132.302	232.807	10.981	30.509	235.635	-93.684	207.775	239.679	123.458	238.937	0.00033148	0.00095459	0.00028372	1442.5	3.2871e-06	6.6672e-06	1290.9	369.95	2.2312e-06	4.6967e-06	441.85	204.17	150.17	62.487	7.3131e-06	84.197	0.00050917	0.00048355	0.00013718	1358.3	5.2782e-06	5.339e-06	1225.8	350.84	5.4829e-06	5.383e-06	419.32	195.78	143.67	59.522	5.4163e-06	80.505	176.787	15.733	6.560	-82.616	49.720	91.635	-83.041	-78.944	41.507	33.539	-80.163	-76.618	-75.678	-71.839	53.693	-72.738	-8191	255	
4307.646	1	1	0	0	0.022168	0.18299	0.12494	0.35223	0.16121	0.25387	0.034959	0.069095	0.042076	0.20175	0.24882	0.29363	0.37574	0.30321	0.34676	0.20804	-2.4708	-2.2583	-2.8042	-3.0646	-2.4021	-2.9979	-2.7292	-2.6917	-2.8625	-2.3146	-2.9354	-2.975	-2.6167	-3.175	-2.5271	-2.8708	0.522	160.952	-54.684	232.619	197.433	4.656	210.926	232.213	183.014	-92.637	-9.640	259.383	162.766	253.385	61.403	-68.164	0.00029381	0.00048262	0.00029423	1440.5	5.6372e-06	8.4628e-06	1289.9	372.66	6.1231e-06	7.0261e-06	445.5	204.63	152.04	62.703	3.5693e-06	84.744	0.00050508	0.00048017	0.00013256	1353.9	5.143e-06	5.2534e-06	1223.6	352.9	5.2537e-06	5.2529e-06	422.09	196.72	145.25	59.558	5.1333e-06	80.785	180.342	12.864	-1.820	-82.555	62.906	71.943	-83.258	-79.064	34.488	34.256	-80.046	-76.938	-76.029	-71.574	69.045	-73.087	-8191	255	
4307.767	1	1	0	0	0.17372	0.28168	0.11521	0.26649	0.15233	0.056121	0.16015	0.20713	0.25441	0.22831	0.26613	0.17604	0.076618	0.011683	0.025966	0.087363	-2.6625	-2.5292	-2.6625	-3.025	-2.3688	-3.0354	-2.7396	-2.5479	-2.8312	-2.3229	-2.7062	-3.1688	-2.3604	-3.2021	-2.6958	-2.5708	-5.143	235.547	44.829	219.852	12.746	-74.959	173.245	176.506	178.224	34.940	-43.712	170.177	-54.444	171.961	220.402	204.833	0.00030702	0.0005835	0.00021388	1442.5	8.2085e-06	1.2613e-05	1300.4	379.48	9.9455e-07	4.4236e-06	450.47	208.22	154.65	63.056	4.3603e-06	84.351	0.00050563	0.00049195	0.00013195	1357.6	5.5291e-06	5.2926e-06	1229.5	356.19	5.2927e-06	5.2717e-06	428.29	198.87	146.82	59.902	5.1641e-06	80.905	185.701	-31.617	-14.993	-82.590	63.132	48.444	-82.994	-79.218	15.384	77.171	-79.836	-76.867	-75.880	-71.641	52.346	-73.119	-8191	255	
4307.863	1	1	0	0	0.14988	0.22646	0.38116	0.30703	0.10348	0.069388	0.31309	0.27879	0.31915	0.41542	0.18535	0.048447	0.19434	0.28451	0.062953	0.14817	-2.4542	-2.4792	-2.5979	-3.25	-2.3187	-2.8583	-2.9646	-2.7292	-2.9458	-2.5854	-2.7313	-3.1375	-2.5292	-3.0125	-2.9	-2.5208	252.688	131.870	248.163	243.873	-52.883	111.301	151.598	189.541	63.158	112.653	44.908	136.389	142.312	246.964	-1.389	259.176	0.00034368	0.00088617	0.00021144	1445.8	2.2003e-06	3.8249e-06	1317.4	380.22	2.9943e-06	6.3031e-06	453.39	208.91	154.33	63.095	5.2324e-06	85.006	0.00049609	0.00048555	0.00013489	1365.5	5.3534e-06	5.2874e-06	1242.9	360.43	5.032e-06	5.2839e-06	432.02	199.25	147.03	59.958	5.3977e-06	80.781	184.373	-25.043	-7.820	-82.524	-37.528	15.932	-82.981	-78.801	16.769	37.330	-80.307	-76.715	-75.766	-71.924	46.534	-73.174	-8191	255	
4307.959	1	1	0	0	0.02897	0.18336	0.16506	0.29479	0.18612	0.1431	0.11452	0.31571	0.14125	0.12074	0.16173	0.26516	0.28663	0.058619	0.19464	0.30591	-2.6271	-2.4979	-2.7687	-3.2313	-2.3125	-2.6542	-2.9458	-2.5771	-3.0938	-2.5146	-2.6292	-3.2021	-2.4	-2.95	-2.7854	-2.5875	-17.127	-53.250	44.309	175.698	80.858	-46.435	156.491	-92.302	-54.929	96.696	-34.318	100.616	-84.548	26.491	-60.609	202.548	0.00033311	0.00064267	0.00022623	1457.1	2.359e-06	3.8602e-06	1315.8	382.04	3.4584e-06	6.6806e-06	460.55	211.21	155.91	64.16	4.1775e-06	85.483	0.00050072	0.00048015	0.0001355	1372.7	5.1863e-06	5.1579e-06	1248.7	362.11	5.2458e-06	5.1986e-06	436.44	201.34	148.77	60.747	5.3087e-06	81.468	185.418	-37.261	-29.476	-82.711	17.969	100.635	-83.129	-78.695	48.607	84.385	-79.904	-76.811	-75.457	-71.483	30.384	-73.363	-8191	255	
4308.055	1	1	0	0	0.21481	0.16835	0.12734	0.27885	0.17721	0.18635	0.44776	0.25157	0.14112	0.11632	0.17715	0.31124	0.12213	0.42184	0.15211	0.14403	-2.5	-2.6188	-2.4771	-3.1688	-2.4833	-2.7667	-3.175	-2.5	-3.0167	-2.7667	-2.5208	-3.0812	-2.6792	-2.8958	-2.9771	-2.4917	115.030	1.150	54.111	234.425	173.302	-64.234	188.009	191.999	124.644	59.386	-94.654	243.531	193.034	250.489	115.277	-26.540	0.00027194	0.00087179	0.00026761	1452.2	6.6068e-06	1.143e-05	1314.6	382.05	3.1374e-06	9.7118e-06	458.56	209.45	154.19	63.355	6.7294e-06	83.709	0.00051516	0.00047937	0.00013228	1373.2	5.2824e-06	5.5001e-06	1248.9	361.35	5.295e-06	5.1587e-06	433.45	199.6	147.18	60.166	5.4344e-06	80.09	182.798	2.953	2.772	-82.563	61.253	50.087	-83.058	-78.885	-26.461	37.567	-80.260	-76.680	-75.274	-71.902	27.544	-72.850	-8191	255	
4308.174	1	1	0	0	0.13607	0.21832	0.090805	0.16038	0.31114	0.025525	0.26355	0.13711	0.21288	0.0094728	0.19593	0.036206	0.14118	0.046785	0.13323	0.41226	-2.5333	-2.6729	-2.3396	-3.1875	-2.4437	-2.6958	-3.0479	-2.4146	-3.0208	-2.8	-2.4333	-3.1875	-2.7104	-2.8167	-2.925	-2.5271	-51.238	235.022	69.061	187.504	-44.789	-45.041	87.497	-91.833	64.150	22.104	182.896	-63.306	207.926	197.521	-79.671	195.588	0.00032994	0.0010026	0.00025531	1474.9	4.4057e-06	1.2236e-05	1327.7	389.1	4.266e-06	4.0245e-06	466.03	209.65	156.83	63.415	5.0268e-06	83.734	0.00050393	0.00048608	0.00013551	1385.3	4.9993e-06	5.1283e-06	1254.7	367.92	5.2046e-06	4.9291e-06	441.33	200.5	149.01	60.042	5.2614e-06	80.122	182.885	-9.986	-4.908	-82.565	43.909	65.526	-83.034	-79.035	35.214	27.417	-80.076	-77.037	-75.644	-71.379	11.908	-73.153	-8191	255	
4308.247	1	1	0	0	0.12755	0.18178	0.0488	0.3071	0.19949	0.075265	0.25612	0.1592	0.24762	0.23329	0.16431	0.27627	0.076956	0.35936	0.10426	0.014922	-2.475	-2.5646	-2.3021	-3.0896	-2.7042	-2.6875	-3.2625	-2.6083	-2.8146	-2.8937	-2.4542	-3.0479	-2.7729	-2.7208	-3.2042	-2.5792	-0.891	15.182	138.315	247.152	29.676	-16.332	196.301	-77.242	236.002	132.037	-53.278	-13.692	195.635	233.492	121.128	-78.909	0.00034079	0.00082315	0.00017212	1481	2.3885e-06	8.0059e-06	1343.2	393.83	1.7436e-06	3.7689e-06	469.23	208.27	154.56	61.783	5.5599e-06	82.499	0.00047385	0.00045904	0.00012807	1388	5.1828e-06	5.0814e-06	1266.1	371.68	5.0117e-06	5.1279e-06	444.25	198.15	147.89	58.429	5.1405e-06	78.668	184.756	-19.708	-10.827	-82.768	30.581	24.022	-82.919	-78.676	-1.081	25.805	-79.806	-76.878	-76.048	-71.855	35.908	-73.033	-8191	255	
4308.366	1	1	0	0	0.16426	0.084329	0.090478	0.39778	0.092271	0.089367	0.29986	0.17454	0.22616	0.10866	0.16903	0.094967	0.041373	0.11755	0.16682	0.05104	-2.2646	-2.7	-2.4125	-3.2062	-2.6042	-2.45	-3.1833	-2.6854	-2.6271	-3.1979	-2.525	-3.2354	-2.9	-2.6958	-3.2979	-2.8625	224.051	-10.696	84.923	230.040	-22.613	156.557	253.653	194.740	118.046	226.339	197.064	256.190	260.522	262.309	229.954	52.142	0.00032662	0.0012112	0.00024302	1473.9	3.1287e-06	5.7593e-06	1329.5	388.58	6.3282e-06	3.8169e-06	464.62	206.63	156.27	61.742	4.9536e-06	84.086	0.00049536	0.00048628	0.00012832	1385.2	5.2327e-06	5.0452e-06	1260.5	367.27	5.2397e-06	5.2575e-06	440.64	197.37	148.43	58.78	5.3514e-06	80.039	186.242	-25.578	4.957	-82.972	8.696	66.233	-83.122	-78.666	28.799	45.405	-79.779	-76.899	-75.848	-72.028	22.757	-72.832	-8191	255	
4308.462	1	1	0	0	0.1835	0.10802	0.032534	0.39848	0.11305	0.028562	0.21452	0.28718	0.32441	0.2081	0.27741	0.29174	0.32296	0.27826	0.093204	0.068519	-2.3812	-3.0854	-2.3667	-3.1625	-2.8854	-2.5312	-3.2208	-2.8542	-2.5271	-3.0583	-2.4979	-3.0896	-2.9708	-2.3333	-3.0896	-2.7729	117.302	149.904	-68.091	243.885	202.162	49.708	212.838	234.363	63.162	260.883	224.660	261.964	-56.829	256.520	209.940	-10.424	0.00034242	0.00121	0.00022028	1473	7.6138e-06	1.0501e-05	1345.1	396.82	4.6249e-06	6.5535e-06	479.76	215.52	161.94	64.533	5.9514e-06	86.456	0.00049692	0.00045684	0.00012971	1390.9	5.1175e-06	5.1577e-06	1276.2	376.95	5.2778e-06	5.1653e-06	456	205.61	153.93	61.332	5.2593e-06	82.375	185.480	-18.771	-13.501	-82.780	66.523	60.014	-83.111	-78.908	32.060	53.103	-80.059	-77.040	-75.535	-71.626	24.516	-72.969	-8191	255	
#DATA ENDS
