BOXY.EXE: ISS Imagent and Oximeter Data Acquisition Program Version 0.80
Ascii Record File

#ACQ INFORMATION
2  Detector Channels 
16  External MUX Channels 
1  Auxiliary Channels 
5000  Waveform (CCF) Frequency (Hz)
1  Waveforms Skipped 
30  Waveforms Averaged 
1  Cycles Averaged 
16  Acquisitions per Waveform 
10.0806  Updata Rate (Hz) 

#FILE INFORMATION
TRUE -- External MUX Channel results are PARSED.
FALSE -- AC DC and Phase are NOT grouped.
TRUE -- Companion Program Settings File CREATED.
FALSE -- AC data not excluded
FALSE -- DC data not excluded
FALSE -- Phase data not excluded
FALSE -- Auxillary Chn. data not excluded
Tab delimiters

#CALIBRATION STATE
TRUE -- Waveform Calibration Values APPLIED.


#AUX CALIBRATION VALUES
Val Type	aux-1	

Term	1.0000e+00	
Factor	0.0000e+00	


#WF CALIBRATION VALUES
A = Detector Channel
Val Type	A-AC1	A-AC2	A-AC3	A-AC4	A-AC5	A-AC6	A-AC7	A-AC8	A-AC9	A-AC10	A-AC11	A-AC12	A-AC13	A-AC14	A-AC15	A-AC16	A-DC1	A-DC2	A-DC3	A-DC4	A-DC5	A-DC6	A-DC7	A-DC8	A-DC9	A-DC10	A-DC11	A-DC12	A-DC13	A-DC14	A-DC15	A-DC16	A-Ph1	A-Ph2	A-Ph3	A-Ph4	A-Ph5	A-Ph6	A-Ph7	A-Ph8	A-Ph9	A-Ph10	A-Ph11	A-Ph12	A-Ph13	A-Ph14	A-Ph15	A-Ph16	

Term	0.00000e+00	0.00000e+00	0.00000e+00	0.00000e+00	0.00000e+00	0.00000e+00	0.00000e+00	0.00000e+00	0.00000e+00	0.00000e+00	0.00000e+00	0.00000e+00	0.00000e+00	0.00000e+00	0.00000e+00	0.00000e+00	0.00000e+00	0.00000e+00	0.00000e+00	0.00000e+00	0.00000e+00	0.00000e+00	0.00000e+00	0.00000e+00	0.00000e+00	0.00000e+00	0.00000e+00	0.00000e+00	0.00000e+00	0.00000e+00	0.00000e+00	0.00000e+00	0.00000e+00	0.00000e+00	0.00000e+00	0.00000e+00	0.00000e+00	0.00000e+00	0.00000e+00	0.00000e+00	0.00000e+00	0.00000e+00	0.00000e+00	0.00000e+00	0.00000e+00	0.00000e+00	0.00000e+00	0.00000e+00	
Factor	1.00000e+00	1.00000e+00	1.00000e+00	1.00000e+00	1.00000e+00	1.00000e+00	1.00000e+00	1.00000e+00	1.00000e+00	1.00000e+00	1.00000e+00	1.00000e+00	1.00000e+00	1.00000e+00	1.00000e+00	1.00000e+00	1.00000e+00	1.00000e+00	1.00000e+00	1.00000e+00	1.00000e+00	1.00000e+00	1.00000e+00	1.00000e+00	1.00000e+00	1.00000e+00	1.00000e+00	1.00000e+00	1.00000e+00	1.00000e+00	1.00000e+00	1.00000e+00	X	X	X	X	X	X	X	X	X	X	X	X	X	X	X	X	

B = Detector Channel
Val Type	B-AC1	B-AC2	B-AC3	B-AC4	B-AC5	B-AC6	B-AC7	B-AC8	B-AC9	B-AC10	B-AC11	B-AC12	B-AC13	B-AC14	B-AC15	B-AC16	B-DC1	B-DC2	B-DC3	B-DC4	B-DC5	B-DC6	B-DC7	B-DC8	B-DC9	B-DC10	B-DC11	B-DC12	B-DC13	B-DC14	B-DC15	B-DC16	B-Ph1	B-Ph2	B-Ph3	B-Ph4	B-Ph5	B-Ph6	B-Ph7	B-Ph8	B-Ph9	B-Ph10	B-Ph11	B-Ph12	B-Ph13	B-Ph14	B-Ph15	B-Ph16	

Term	0.00000e+00	0.00000e+00	0.00000e+00	0.00000e+00	0.00000e+00	0.00000e+00	0.00000e+00	0.00000e+00	0.00000e+00	0.00000e+00	0.00000e+00	0.00000e+00	0.00000e+00	0.00000e+00	0.00000e+00	0.00000e+00	0.00000e+00	0.00000e+00	0.00000e+00	0.00000e+00	0.00000e+00	0.00000e+00	0.00000e+00	0.00000e+00	0.00000e+00	0.00000e+00	0.00000e+00	0.00000e+00	0.00000e+00	0.00000e+00	0.00000e+00	0.00000e+00	-2.40346e+02	-8.60789e+01	-1.37580e+02	-1.81794e+02	-9.56072e+01	-6.15362e+01	-1.55227e+02	-1.62015e+02	-7.62495e+01	-2.08821e+01	-1.76015e+02	-1.69664e+02	-1.83008e+02	-1.76920e+02	-1.10967e+02	-1.49451e+02	
Factor	4.41567e-05	7.28733e-05	1.84622e-05	1.45759e-01	5.45265e-07	6.77868e-07	1.58711e-01	4.73567e-02	6.69312e-07	6.60670e-07	1.20289e-01	2.57934e-02	2.57211e-02	8.47169e-03	7.26230e-07	1.17836e-02	2.97384e-07	2.98781e-07	8.31620e-08	7.06932e-02	3.27491e-09	3.27375e-09	7.22083e-02	2.26007e-02	3.28093e-09	3.27436e-09	4.87179e-02	1.14701e-02	1.15018e-02	3.84075e-03	3.27804e-09	5.10611e-03	X	X	X	X	X	X	X	X	X	X	X	X	X	X	X	X	



#DISTANCE SETTINGS
A = Detector Channel
A-1	A-2	A-3	A-4	A-5	A-6	A-7	A-8	A-9	A-10	A-11	A-12	A-13	A-14	A-15	A-16	

2.5000e+00	3.0000e+00	2.5000e+00	3.0000e+00	2.0000e+00	3.0000e+00	1.5000e+00	3.0000e+00	3.0000e+00	3.0000e+00	3.0000e+00	3.0000e+00	3.0000e+00	3.0000e+00	1.5000e+00	3.0000e+00	

B = Detector Channel
B-1	B-2	B-3	B-4	B-5	B-6	B-7	B-8	B-9	B-10	B-11	B-12	B-13	B-14	B-15	B-16	

1.0000e+01	1.0000e+01	1.0000e+01	1.4400e+00	1.0000e+01	1.0000e+01	1.5100e+00	1.9400e+00	1.0000e+01	1.0000e+01	1.9900e+00	2.4900e+00	2.4100e+00	2.9000e+00	1.0000e+01	2.9800e+00	




#DATA BEGINS
time	group	step	mark	flag	A-AC1	A-AC2	A-AC3	A-AC4	A-AC5	A-AC6	A-AC7	A-AC8	A-AC9	A-AC10	A-AC11	A-AC12	A-AC13	A-AC14	A-AC15	A-AC16	A-DC1	A-DC2	A-DC3	A-DC4	A-DC5	A-DC6	A-DC7	A-DC8	A-DC9	A-DC10	A-DC11	A-DC12	A-DC13	A-DC14	A-DC15	A-DC16	A-Ph1	A-Ph2	A-Ph3	A-Ph4	A-Ph5	A-Ph6	A-Ph7	A-Ph8	A-Ph9	A-Ph10	A-Ph11	A-Ph12	A-Ph13	A-Ph14	A-Ph15	A-Ph16	B-AC1	B-AC2	B-AC3	B-AC4	B-AC5	B-AC6	B-AC7	B-AC8	B-AC9	B-AC10	B-AC11	B-AC12	B-AC13	B-AC14	B-AC15	B-AC16	B-DC1	B-DC2	B-DC3	B-DC4	B-DC5	B-DC6	B-DC7	B-DC8	B-DC9	B-DC10	B-DC11	B-DC12	B-DC13	B-DC14	B-DC15	B-DC16	B-Ph1	B-Ph2	B-Ph3	B-Ph4	B-Ph5	B-Ph6	B-Ph7	B-Ph8	B-Ph9	B-Ph10	B-Ph11	B-Ph12	B-Ph13	B-Ph14	B-Ph15	B-Ph16	aux-1	digaux	

1006.964	1	1	0	768	0.32265	0.19892	0.17697	0.12103	0.16012	0.13752	0.071476	0.32424	0.080224	0.047466	0.20313	0.020651	0.38383	0.13541	0.40658	0.20739	-2.3417	-3.3958	-2.7354	-3.1083	-3.4333	-2.5687	-3.2646	-3.375	-2.7521	-3.3708	-3.0687	-2.7521	-3.4354	-2.8042	-2.9708	-3.5438	-54.011	91.559	179.828	-101.715	-13.568	158.560	-96.698	173.074	-59.627	-12.284	62.712	180.081	170.273	-93.978	-99.626	102.847	0.00094429	0.00047089	6.765e-05	1138.4	1.6834e-06	1.6607e-06	1152.8	321.27	3.2882e-06	2.5865e-06	366.25	121.9	104.94	36.97	2.2456e-06	45.852	0.00022362	0.00021781	6.0837e-05	1093.1	2.3836e-06	2.3838e-06	1106.8	305.95	2.3881e-06	2.3888e-06	330.49	114.39	97.394	34.386	2.3785e-06	42.56	83.863	-73.300	-26.580	-141.567	-78.463	9.207	-141.773	-137.086	-112.938	199.594	-137.779	-132.958	-133.099	-128.008	-70.275	-129.099	-8191	255	
1007.060	1	1	0	0	0.21229	0.14417	0.06553	0.14903	0.20373	0.23083	0.36208	0.22164	0.11593	0.19838	0.15394	0.31567	0.28432	0.27965	0.15803	0.16049	-2.1937	-3.3854	-2.9354	-2.7604	-3.375	-2.6667	-3.3021	-3.4167	-2.6854	-3.1479	-3.275	-2.7458	-3.2729	-2.7771	-2.9	-3.3583	1.715	-101.910	111.330	129.937	139.685	25.029	81.170	-70.786	-96.979	202.379	103.140	165.436	188.222	151.995	187.789	114.024	0.0010617	0.00045821	0.00011354	1137	3.261e-06	1.73e-06	1154	321.73	5.3116e-06	1.7873e-06	369.58	122.25	105.78	36.839	5.5495e-06	46.066	0.00022143	0.00021838	6.0944e-05	1092.9	2.3838e-06	2.4018e-06	1107.2	305.93	2.4164e-06	2.3859e-06	330.8	114.42	97.51	34.318	2.3894e-06	42.609	92.262	-9.876	-10.479	-141.179	-22.539	177.197	-141.835	-137.045	-20.123	-145.572	-137.443	-133.451	-132.757	-127.983	-86.517	-129.032	-8191	255	
1007.156	1	1	0	0	0.21201	0.18305	0.23051	0.29413	0.12943	0.21783	0.17364	0.25508	0.064634	0.1271	0.14901	0.3641	0.18863	0.15833	0.09516	0.053965	-2.3458	-3.15	-3.1771	-2.7479	-3.275	-2.9708	-3.0604	-3.5333	-2.8333	-3.0854	-3.4792	-2.8771	-3.6458	-2.9146	-2.7979	-3.4354	-104.750	172.944	101.944	-144.867	140.979	92.452	168.181	200.945	-64.577	-96.445	132.536	-118.043	198.775	151.059	-152.451	98.944	0.00076404	0.0002236	8.6687e-05	1136.5	2.3649e-06	1.3099e-06	1146.9	320.55	3.3786e-06	2.4115e-06	368.55	121.96	105.54	36.828	3.0636e-06	45.992	0.0002218	0.00021829	6.0868e-05	1091.4	2.3936e-06	2.3902e-06	1104.7	306.04	2.4099e-06	2.4002e-06	331.27	114.6	97.601	34.317	2.3886e-06	42.509	98.818	-89.034	-119.071	-141.584	-95.384	180.420	-141.601	-136.906	-87.242	-46.846	-137.710	-133.111	-133.214	-128.212	-17.852	-128.741	-8191	255	
1007.251	1	1	0	0	0.2476	0.12471	0.027935	0.25734	0.31572	0.17381	0.247	0.1848	0.21275	0.15718	0.32879	0.25031	0.12886	0.1092	0.11403	0.19507	-2.325	-3.1208	-3.3937	-2.8583	-3.3875	-3.0563	-2.9688	-3.6521	-2.5	-2.9083	-3.3688	-2.8521	-3.475	-3.1583	-2.8167	-3.5625	41.017	-40.963	-19.371	-153.043	169.668	103.252	166.414	154.742	-82.408	108.875	185.084	67.811	91.369	146.656	108.922	58.200	0.0011535	0.0006171	5.9741e-05	1135.4	7.3219e-07	4.5556e-06	1149	320.77	2.8548e-06	4.7318e-06	368.52	121.83	105.54	36.821	2.7059e-06	45.611	0.00022181	0.00021858	6.0958e-05	1092.7	2.4008e-06	2.41e-06	1107.1	306.1	2.4223e-06	2.3973e-06	331.18	114.48	97.748	34.367	2.4137e-06	42.402	112.075	108.240	-27.081	-141.694	-58.916	-4.088	-141.850	-136.958	-55.217	-4.868	-137.443	-133.398	-132.854	-128.081	87.015	-128.868	-8191	255	
1007.347	1	1	0	0	0.21864	0.10674	0.09788	0.12427	0.22045	0.23449	0.21987	0.15875	0.063611	0.15579	0.16683	0.30722	0.27608	0.11684	0.25049	0.14954	-2.3417	-3.0417	-3.3021	-2.6271	-3.3625	-3.0479	-2.8396	-3.6562	-2.7896	-2.9562	-3.5167	-2.7646	-3.2562	-3.5104	-2.6771	-3.6292	80.062	62.592	190.790	-108.228	151.380	74.675	-136.054	162.468	14.664	31.392	-146.606	74.583	157.443	116.839	-121.688	132.887	0.00097197	0.00029221	7.9558e-05	1133.7	4.3883e-06	8.2502e-07	1144	320.43	2.7697e-06	7.3089e-07	368.39	122.04	105.85	36.661	3.8901e-06	45.982	0.00022205	0.00021892	6.1205e-05	1091.5	2.3983e-06	2.3755e-06	1103.9	305.84	2.3909e-06	2.3633e-06	330.52	114.48	97.67	34.246	2.3924e-06	42.506	69.290	23.309	-59.049	-141.340	-69.412	168.902	-141.926	-137.051	-55.504	49.517	-137.211	-132.987	-132.586	-128.041	-29.447	-128.827	-8191	255	
1007.445	1	1	0	0	0.1769	0.17635	0.13191	0.092722	0.017449	0.15429	0.2267	0.2686	0.059228	0.09929	0.26829	0.44235	0.39283	0.21768	0.15578	0.074768	-2.4958	-2.8396	-3.4729	-2.8354	-3.0521	-3.3125	-2.7042	-3.475	-2.8792	-2.7938	-3.5438	-2.8958	-2.9479	-3.4146	-2.675	-3.4167	186.562	-4.461	-64.310	-148.696	-110.787	130.199	78.613	154.924	-6.623	-137.157	84.260	157.649	173.033	-29.473	-50.001	174.967	0.0010519	0.00049906	2.4192e-05	1137.5	5.2329e-06	5.4974e-06	1155.2	320.7	6.9768e-06	1.6757e-06	366.18	121.71	105.81	36.792	3.1896e-06	45.826	0.00022222	0.00021588	6.0371e-05	1093	2.392e-06	2.382e-06	1106.7	305.88	2.4134e-06	2.4107e-06	330.13	114.44	97.788	34.302	2.4047e-06	42.548	93.846	-62.669	-81.196	-141.624	-77.973	-43.124	-141.892	-136.851	-51.694	-122.731	-137.205	-132.906	-132.706	-127.814	-41.959	-129.343	-8191	255	
1007.564	1	1	0	0	0.088126	0.079987	0.045785	0.30208	0.16863	0.10087	0.33895	0.057067	0.079702	0.14271	0.1163	0.080734	0.017629	0.076717	0.22458	0.26957	-2.5771	-2.7875	-3.2229	-2.95	-3.0375	-3.3833	-2.8542	-3.4938	-3.0417	-2.775	-3.4146	-2.8521	-2.8729	-3.3125	-2.5833	-3.3208	-92.110	159.782	191.522	139.635	-27.621	-150.499	174.029	-82.876	195.476	12.967	159.955	110.258	-120.831	-124.743	-108.810	124.811	0.0011831	0.00030318	0.00010608	1137.5	1.2918e-06	2.3673e-06	1149.2	320.66	3.8138e-06	2.0613e-06	369.82	121.33	105.49	36.72	4.1846e-06	45.672	0.00022317	0.00021782	6.1124e-05	1093.2	2.4109e-06	2.4016e-06	1105.9	306.04	2.4196e-06	2.404e-06	331.5	114.11	97.379	34.286	2.4093e-06	42.444	87.120	-135.584	-28.292	-141.522	-59.869	128.269	-141.977	-136.939	204.794	-48.617	-137.513	-133.411	-132.792	-128.198	-73.940	-128.946	-8191	255	
1007.660	1	1	0	0	0.12109	0.14392	0.26188	0.36279	0.15618	0.088318	0.11948	0.11112	0.18293	0.089538	0.1372	0.14886	0.073966	0.03904	0.12436	0.14122	-2.7604	-2.7687	-3.3375	-2.975	-2.8167	-3.4125	-2.7396	-3.3958	-3.1271	-2.6021	-3.6542	-2.9292	-2.8896	-3.4792	-2.6292	-3.2562	47.011	-20.147	-34.558	186.878	-52.406	191.719	180.318	-48.756	75.609	-75.523	78.956	145.710	78.226	85.822	2.013	-108.762	0.0010071	0.00024272	0.00011393	1132.7	9.1807e-07	2.4955e-06	1149.1	321	2.1381e-06	1.2364e-06	366.43	121.23	105.01	36.738	5.5217e-06	45.82	0.00022417	0.00022202	6.1441e-05	1091.7	2.4232e-06	2.4341e-06	1105.3	306.03	2.4317e-06	2.428e-06	331.28	114.23	97.64	34.265	2.4381e-06	42.503	115.360	19.395	23.818	-141.561	182.152	76.033	-141.939	-136.758	-41.046	150.345	-137.592	-133.347	-133.186	-127.902	-110.148	-129.117	-8191	255	
1007.756	1	1	0	0	0.23468	0.073866	0.014397	0.17864	0.25809	0.15445	0.24796	0.34111	0.20276	0.045118	0.42308	0.23139	0.17432	0.11416	0.12198	0.3864	-2.9958	-2.5667	-3.1729	-3.0021	-2.7146	-3.3042	-2.9104	-3.1437	-3.3396	-2.55	-3.3354	-3.1229	-2.7604	-3.5021	-2.7708	-3.1813	-20.245	-83.117	79.805	147.022	198.038	200.082	152.849	130.473	-91.242	-120.726	109.369	-116.336	183.665	171.397	31.847	186.760	0.00093056	0.00047222	7.8314e-05	1134.6	2.5269e-06	1.9982e-06	1149.7	321.62	3.7586e-06	2.2351e-06	368.98	121.49	105.77	36.871	2.614e-06	46.117	0.0002239	0.00022294	6.1479e-05	1092.8	2.4228e-06	2.4122e-06	1105.9	305.76	2.3909e-06	2.3933e-06	330.62	114.04	97.637	34.357	2.3904e-06	42.528	85.795	-11.878	-32.383	-141.671	-33.516	43.083	-142.049	-137.096	-40.205	39.946	-137.151	-133.391	-132.709	-128.132	201.299	-128.888	-8191	255	
1007.852	1	1	0	0	0.22291	0.19564	0.14553	0.10733	0.12877	0.34092	0.044513	0.12428	0.22579	0.12506	0.088456	0.36954	0.056346	0.26401	0.1832	0.25552	-2.8646	-2.575	-3.1375	-3.025	-2.6896	-3.4292	-2.8937	-3.0062	-3.3625	-2.5854	-3.3292	-3.2812	-2.5438	-3.4896	-2.9062	-2.9792	165.751	97.086	-49.732	-89.384	112.899	118.479	-151.439	187.122	170.842	115.654	-126.728	162.321	182.792	186.595	17.972	196.321	0.00098014	0.00023937	7.1252e-05	1132.3	6.4727e-07	5.3844e-06	1148.4	320.77	2.6826e-06	3.4604e-06	368.08	121.99	105.38	36.999	7.1347e-06	46.12	0.00022057	0.0002172	6.0471e-05	1091.5	2.391e-06	2.3735e-06	1104.4	306.24	2.3821e-06	2.3827e-06	329.97	114.3	97.541	34.346	2.3824e-06	42.586	74.890	12.076	153.806	-141.826	-89.335	7.527	-141.793	-136.809	161.783	37.205	-137.605	-133.343	-133.303	-128.055	-27.626	-128.720	-8191	255	
1007.948	1	1	0	0	0.064096	0.10321	0.086331	0.20833	0.20168	0.14967	0.40097	0.26395	0.13571	0.049978	0.19267	0.2822	0.041627	0.30286	0.32756	0.16551	-3.1937	-2.5396	-3.1063	-3.3875	-2.6813	-3.3979	-3.2292	-2.925	-3.4375	-2.7583	-3.2708	-3.2083	-2.7708	-3.4917	-2.8229	-3.0062	-146.241	42.093	-32.253	163.923	-91.629	198.850	125.387	165.541	45.033	27.893	118.528	158.740	-101.189	-111.655	172.436	201.844	0.0011418	0.00043047	8.2571e-05	1133.9	5.3838e-06	4.8807e-06	1145.8	321.38	8.3717e-07	1.6977e-06	367.89	122.06	105.58	37.021	1.9647e-06	45.843	0.00021946	0.00021564	5.9809e-05	1091.8	2.3624e-06	2.3784e-06	1104	306.13	2.3717e-06	2.3749e-06	330.51	114.27	97.541	34.363	2.3652e-06	42.54	87.973	-33.625	-85.203	-141.622	-100.294	-139.660	-141.959	-136.965	1.494	195.033	-137.646	-133.440	-133.047	-127.676	-30.127	-129.036	-8191	255	
1008.044	1	1	0	0	0.17305	0.23161	0.15222	0.10675	0.15442	0.27074	0.56459	0.27258	0.13442	0.26063	0.097122	0.045808	0.10761	0.20915	0.058032	0.1498	-3.0521	-2.5958	-3.0812	-3.5479	-2.7562	-3.2521	-3.1271	-2.8937	-3.3771	-2.8292	-2.9813	-3.3417	-2.7125	-3.3917	-3.1354	-2.7979	122.318	200.268	-98.372	166.035	175.752	82.044	120.126	95.449	-17.552	30.388	-16.172	52.961	167.524	122.037	-72.826	74.684	0.00069108	0.00068563	7.3871e-05	1131.3	3.1501e-06	3.981e-06	1149.7	321.48	2.9792e-06	5.2215e-06	366.29	122.36	106.16	36.92	4.192e-06	46.013	0.0002197	0.00021554	6.0018e-05	1093	2.3739e-06	2.3573e-06	1104	305.98	2.3741e-06	2.357e-06	329.77	114.52	97.674	34.379	2.3511e-06	42.564	97.779	-71.250	137.445	-141.505	73.924	47.833	-141.756	-136.807	-106.889	21.636	-137.467	-133.023	-132.703	-127.422	-8.293	-128.578	-8191	255	
1008.140	1	1	0	0	0.13257	0.14519	0.078413	0.14713	0.073414	0.14582	0.1085	0.071982	0.14795	0.1308	0.26781	0.23327	0.19441	0.099183	0.13151	0.07174	-3.075	-2.6458	-2.7833	-3.5271	-2.5667	-3.4188	-3.275	-2.8375	-3.4583	-2.7625	-2.9771	-3.5229	-2.8521	-3.3104	-3.3271	-2.7313	187.199	78.842	-138.782	180.829	-37.428	26.281	132.284	192.542	161.063	0.771	157.807	189.936	111.300	179.191	-16.963	180.930	0.00053041	0.000118	0.0001248	1137.2	2.3359e-06	4.9262e-06	1147.9	322.22	1.6718e-06	3.2084e-06	368.13	122.08	106.02	36.988	1.9719e-06	46.012	0.00021689	0.00021486	5.9791e-05	1091.7	2.3438e-06	2.3352e-06	1105.7	306.42	2.3608e-06	2.341e-06	330.36	114.26	97.619	34.365	2.3469e-06	42.615	103.983	9.937	-69.266	-141.442	-113.330	8.328	-141.790	-136.763	-28.442	77.122	-137.314	-133.176	-132.559	-127.598	-89.042	-128.749	-8191	255	
1008.259	1	1	0	0	0.12654	0.19526	0.21328	0.21026	0.010797	0.062986	0.13655	0.19161	0.12863	0.13169	0.1051	0.42379	0.20035	0.24941	0.10287	0.16783	-2.8833	-2.8021	-2.7729	-3.6417	-2.575	-3.0646	-3.5458	-2.7062	-3.3021	-3.0042	-2.8104	-3.4396	-2.9417	-3.1146	-3.2687	-2.7042	-128.224	21.548	-69.343	183.587	51.212	181.874	175.733	152.211	-75.707	-66.900	197.795	188.535	-152.679	-100.152	-34.229	147.562	0.0012315	0.00025691	9.4606e-05	1136.8	5.0773e-06	5.1306e-06	1149.6	321.56	5.4096e-06	3.166e-06	369.07	122.59	105.74	37.001	2.6506e-06	45.998	0.0002185	0.00021547	5.9737e-05	1092.8	2.3504e-06	2.3406e-06	1105.4	306.27	2.3616e-06	2.3612e-06	330.85	114.31	97.467	34.402	2.3587e-06	42.528	74.025	-22.452	-47.976	-141.326	-11.570	-43.275	-141.770	-136.825	-37.649	90.179	-137.302	-132.905	-133.219	-127.550	-54.851	-128.791	-8191	255	
1008.355	1	1	0	0	0.32076	0.22827	0.10129	0.1905	0.18762	0.10579	0.16144	0.17258	0.15933	0.28266	0.39654	0.094824	0.36641	0.086815	0.20787	0.048711	-2.7292	-3.0854	-2.7042	-3.6625	-2.8187	-3.0187	-3.4792	-2.7792	-3.3583	-3.1354	-2.7146	-3.5146	-2.9021	-2.9625	-3.5042	-2.6896	-18.841	147.929	24.286	90.242	18.641	-119.202	62.407	139.258	-78.853	184.249	-150.391	190.903	-111.479	89.185	-6.400	-7.284	0.00091641	9.8574e-05	0.00012955	1133	1.6859e-06	2.1449e-06	1150.6	321.23	2.3079e-06	2.3109e-06	369.57	121.94	105.8	36.893	5.7578e-06	45.821	0.00021887	0.00021549	5.9088e-05	1091.2	2.3571e-06	2.3729e-06	1105.4	306.3	2.3676e-06	2.369e-06	330.33	114.36	97.487	34.37	2.3743e-06	42.566	78.423	-50.710	-67.939	-141.416	-111.023	141.783	-141.548	-136.698	59.520	125.464	-137.076	-132.747	-132.529	-127.502	-60.299	-128.581	-8191	255	
1008.452	1	1	0	0	0.13412	0.11152	0.050022	0.13632	0.23603	0.23361	0.084554	0.1485	0.18453	0.17812	0.17571	0.24293	0.13443	0.19942	0.12571	0.168	-2.9062	-3.2229	-2.625	-3.4771	-2.7542	-2.8396	-3.5	-2.7292	-3.0917	-3.3354	-2.6854	-3.5729	-3.0375	-2.7292	-3.5125	-2.8729	-110.327	109.366	123.246	-119.842	-142.544	-60.133	179.954	-103.999	-7.343	203.215	113.053	192.625	77.100	184.124	-74.821	-123.206	0.0006478	0.00014981	0.00014298	1134.8	3.3777e-06	3.8134e-06	1146.2	321.04	2.9518e-06	2.4145e-06	368.81	122.01	105.45	36.82	6.5566e-06	45.818	0.00022063	0.00021663	6.0271e-05	1093.7	2.3773e-06	2.3941e-06	1105.5	306.28	2.3891e-06	2.3962e-06	330.98	114.51	97.516	34.364	2.403e-06	42.493	95.110	8.434	-105.009	-141.323	-96.562	35.860	-141.923	-136.775	-7.895	-131.302	-137.717	-133.104	-132.465	-127.919	161.721	-128.747	-8191	255	
1008.525	1	1	0	0	0.32817	0.18963	0.12161	0.17068	0.13001	0.22405	0.31344	0.4062	0.24323	0.12915	0.19079	0.15307	0.21679	0.13102	0.075191	0.068941	-2.5979	-3.225	-2.5042	-3.3479	-3.1396	-2.9958	-3.5875	-2.9708	-3.0875	-3.4625	-2.625	-3.2979	-3.15	-2.6521	-3.6063	-2.9958	90.227	-154.868	-35.189	142.642	-26.645	-52.715	129.461	184.648	110.325	50.377	-20.502	102.087	199.246	-79.620	32.204	-8.561	0.00092808	0.00090916	6.6464e-05	1138.3	7.0114e-07	8.7613e-06	1145.8	321.32	9.9567e-07	4.6631e-06	367.19	121.68	105.35	36.807	2.0575e-06	45.857	0.00022189	0.00022015	6.0829e-05	1094.2	2.3818e-06	2.4047e-06	1105.7	306.17	2.4132e-06	2.3786e-06	330.86	114.51	97.472	34.329	2.3971e-06	42.553	70.163	-49.295	125.012	-141.514	98.695	-27.016	-141.870	-136.922	179.713	-48.402	-137.616	-133.164	-133.137	-127.791	-58.726	-128.922	-8191	255	
1008.644	1	1	0	0	0.30514	0.041981	0.026856	0.1963	0.09015	0.16203	0.098848	0.27126	0.075891	0.086502	0.11515	0.26911	0.044994	0.20735	0.082126	0.19336	-2.4062	-3.3646	-2.8021	-3.4375	-3.2083	-2.7	-3.7729	-2.8542	-2.8271	-3.4542	-2.7854	-3.3292	-3.2833	-2.5708	-3.4458	-3.0042	149.598	9.228	55.713	144.447	35.134	-5.062	126.787	139.242	167.038	-8.257	128.916	101.284	-151.752	80.274	-77.799	135.583	0.00096877	0.00048244	7.8867e-05	1137.1	2.5769e-07	5.6971e-06	1145.1	319.62	2.7194e-06	2.2989e-06	367.77	121.68	105.53	36.63	3.4488e-07	45.618	0.00022355	0.00021793	6.119e-05	1093.3	2.3949e-06	2.4076e-06	1104.8	306.02	2.407e-06	2.3987e-06	330.56	114.25	97.459	34.238	2.3792e-06	42.473	97.861	-123.779	-63.174	-141.538	-4.784	-61.906	-141.897	-136.982	24.571	120.526	-137.441	-133.199	-133.063	-127.844	-14.554	-128.884	-8191	255	
1008.740	1	1	0	0	0.10326	0.16707	0.15367	0.33543	0.12765	0.21005	0.37454	0.27648	0.095565	0.2	0.054851	0.46577	0.077558	0.15856	0.073871	0.13442	-2.4396	-3.4021	-2.6604	-3.3	-3.3125	-2.7083	-3.5646	-3.1292	-2.7208	-3.5146	-2.7125	-3.0604	-3.4854	-2.6917	-3.3812	-3.1104	2.503	166.017	194.334	-142.447	-151.875	-10.349	157.904	146.799	35.606	-110.503	163.322	165.158	107.350	31.863	147.480	94.293	0.0011294	8.7387e-05	0.00016896	1133	1.9073e-06	3.8835e-06	1149	321.9	1.5258e-06	3.7483e-06	366.93	121.71	105.43	36.731	3.5618e-06	45.651	0.00022065	0.00021854	6.0804e-05	1093.9	2.3867e-06	2.3914e-06	1106.3	306.39	2.4101e-06	2.3978e-06	330.36	114.2	97.474	34.267	2.4107e-06	42.446	90.351	165.778	-55.397	-141.428	84.922	55.875	-141.925	-137.143	-26.811	54.691	-137.675	-133.398	-132.844	-127.678	-63.113	-128.949	-8191	255	
1008.836	1	1	0	0	0.15437	0.10246	0.19278	0.056949	0.16918	0.13014	0.2328	0.060255	0.1686	0.09336	0.18878	0.37552	0.14825	0.20075	0.039409	0.07839	-2.3333	-3.3083	-2.9333	-3.1104	-3.2917	-2.5563	-3.4667	-3.1583	-2.7083	-3.5	-2.85	-2.9771	-3.5083	-2.8438	-3.3271	-3.3208	103.126	108.201	141.961	153.572	61.701	-16.989	120.347	92.584	-44.856	118.840	168.380	-135.838	156.589	135.148	-4.717	-97.228	0.0010163	0.0008215	0.00011565	1131.6	4.1625e-06	2.756e-06	1143.1	319.8	3.9889e-06	4.7518e-06	366.68	122.4	105.56	36.674	2.2975e-06	45.513	0.00022334	0.00022067	6.0923e-05	1091.5	2.4029e-06	2.4188e-06	1103.3	305.8	2.4098e-06	2.3993e-06	330.29	114.19	97.475	34.223	2.4057e-06	42.385	103.196	34.499	164.283	-141.636	-6.054	197.435	-142.088	-137.134	-20.539	33.691	-137.859	-133.321	-133.094	-128.315	-153.227	-128.998	-8191	255	
1008.957	1	1	0	0	0.021136	0.23964	0.074603	0.23193	0.044105	0.046524	0.11114	0.25525	0.13531	0.175	0.078385	0.096933	0.12267	0.19804	0.088258	0.11887	-2.2667	-3.5062	-2.9292	-3.0979	-3.3271	-2.6917	-3.325	-3.5375	-2.5729	-3.4521	-3.0292	-3	-3.4646	-2.7771	-3.1	-3.3667	75.877	-140.629	-28.049	199.748	160.451	-59.114	60.567	-147.489	-116.156	155.034	96.611	-137.010	39.574	147.184	186.856	-91.591	0.00096481	0.00034889	0.00015894	1135.8	8.0507e-07	3.0864e-06	1147.8	320.75	2.0929e-06	5.3561e-06	364.7	121.77	105.48	36.495	3.5403e-06	45.639	0.00022461	0.00022045	6.1453e-05	1093.3	2.4386e-06	2.4313e-06	1103.6	305.92	2.4324e-06	2.4313e-06	330.23	114.16	97.353	34.21	2.4141e-06	42.402	98.812	-138.780	-129.468	-141.751	-89.938	69.241	-142.056	-137.170	-27.931	54.379	-137.609	-133.468	-133.467	-128.152	-88.800	-129.186	-8191	255	
1009.051	1	1	0	0	0.33816	0.10337	0.11912	0.28045	0.088299	0.15909	0.33087	0.11196	0.11417	0.30796	0.098258	0.42152	0.20349	0.25744	0.24637	0.26505	-2.2479	-3.2354	-2.9813	-2.8833	-3.325	-2.7229	-3.3042	-3.6104	-2.525	-3.3271	-3.3021	-2.7604	-3.4958	-2.7229	-3.025	-3.5438	175.008	-77.399	122.121	146.880	-31.962	-24.035	184.370	-116.599	199.686	-102.454	188.998	191.041	37.807	193.072	-0.436	135.523	0.00090683	0.00026043	8.7863e-05	1132.9	2.9895e-06	5.071e-06	1144.2	318.66	1.5893e-06	5.5512e-06	365.85	121.36	105.89	36.497	1.6151e-06	45.643	0.00022674	0.00022323	6.2264e-05	1090.9	2.4461e-06	2.4304e-06	1103.7	305.25	2.4445e-06	2.43e-06	330.34	114.13	97.514	34.194	2.4311e-06	42.454	76.143	-122.241	-49.785	-141.708	-67.461	-129.226	-142.022	-137.199	-42.040	24.778	-137.792	-133.380	-133.280	-128.501	-110.503	-129.509	-8191	255	
1009.125	1	1	0	0	0.08672	0.15178	0.12825	0.22437	0.16653	0.17001	0.13965	0.017443	0.27356	0.25891	0.054972	0.18432	0.21871	0.22651	0.014665	0.11441	-2.1896	-3.2	-3.1396	-2.7292	-3.375	-2.8375	-3.0583	-3.3375	-2.5187	-3.1875	-3.3458	-2.5625	-3.3312	-2.9813	-2.7729	-3.5438	-27.593	119.707	-77.782	177.098	-24.472	2.539	181.222	155.175	131.511	-8.464	-55.702	-100.832	87.147	164.959	11.199	1.254	0.00082196	8.1675e-05	2.504e-05	1131.4	1.4601e-06	2.4476e-06	1143.9	319.76	4.3006e-06	2.4783e-06	367.15	121.15	105.18	36.628	3.9654e-06	45.534	0.00022576	0.00022479	6.2046e-05	1092.1	2.4439e-06	2.429e-06	1102.5	305.35	2.4456e-06	2.4427e-06	329.68	114.01	97.241	34.187	2.4448e-06	42.385	102.181	-152.854	-78.945	-141.634	190.641	197.402	-142.018	-137.214	-118.400	1.343	-137.514	-133.552	-133.098	-128.326	-89.020	-128.939	-8191	255	
1009.245	1	1	0	0	0.19572	0.30301	0.073698	0.28414	0.091779	0.070053	0.13986	0.19046	0.16321	0.15612	0.077963	0.095193	0.18234	0.15699	0.046305	0.21655	-2.1583	-3.0208	-3.1813	-2.6021	-3.4896	-2.8021	-3.1813	-3.5583	-2.7042	-3.1104	-3.4188	-2.675	-3.4792	-3.1417	-2.7375	-3.5875	-11.709	76.602	125.759	159.814	85.245	125.712	-106.707	105.507	39.264	194.214	201.017	130.435	154.050	193.405	167.850	153.128	0.00088706	0.00023979	0.00010698	1131.6	4.8558e-06	2.7177e-06	1142.4	318.54	3.5154e-06	2.0487e-06	369.9	121.55	104.78	36.586	4.4832e-06	45.654	0.00022637	0.00022146	6.1526e-05	1090.5	2.4357e-06	2.4201e-06	1102.6	305.49	2.4155e-06	2.399e-06	330.85	113.87	97.105	34.173	2.4183e-06	42.375	94.761	-58.851	-107.238	-141.587	-120.161	144.309	-141.990	-137.223	165.364	76.526	-137.488	-133.402	-133.141	-128.148	-60.011	-129.129	-8191	255	
1009.340	1	1	0	0	0.11659	0.26842	0.097146	0.35881	0.18857	0.072399	0.17264	0.1137	0.31875	0.18734	0.13795	0.13115	0.23301	0.12756	0.21041	0.14198	-2.425	-3.0354	-3.3292	-2.8083	-3.35	-2.9979	-2.9083	-3.4562	-2.7562	-2.8146	-3.3896	-2.7333	-3.4271	-3.2687	-2.8312	-3.6708	139.311	-9.139	165.084	138.494	-72.576	-33.360	79.887	-144.863	197.580	92.763	-144.009	175.102	183.762	125.686	132.008	118.983	0.00091966	0.00030939	0.00012888	1131.1	3.8919e-06	1.8319e-06	1146.1	319.47	5.6963e-06	6.1326e-06	366.1	120.84	104.94	36.436	4.5398e-06	45.665	0.00022392	0.00021922	6.1468e-05	1090.7	2.4198e-06	2.4154e-06	1103.3	305.48	2.4318e-06	2.4193e-06	330.06	113.9	97.171	34.139	2.4349e-06	42.391	93.142	-136.446	-7.114	-141.508	-128.437	34.455	-141.974	-137.089	-36.272	37.916	-137.509	-133.260	-133.092	-128.006	-32.012	-129.293	-8191	255	
1009.436	1	1	0	0	0.10602	0.3261	0.1127	0.35508	0.12968	0.2484	0.12436	0.03085	0.10389	0.156	0.14095	0.20062	0.42281	0.11773	0.11232	0.24106	-2.5854	-2.8812	-3.1583	-2.7313	-3.4125	-3.2438	-3.0438	-3.5042	-2.9771	-2.7146	-3.5333	-2.7583	-3.0208	-3.325	-2.8	-3.4583	49.811	-74.693	-111.436	164.361	-70.386	7.272	162.484	190.564	-36.991	-120.083	-13.228	66.434	189.766	9.934	-110.274	201.916	0.00096765	0.00016303	0.00013006	1130.2	3.0096e-06	1.16e-06	1146.9	320.54	2.382e-06	6.2964e-06	365.49	121.39	105.06	36.613	5.0487e-06	45.849	0.00022454	0.00022133	6.1782e-05	1090.4	2.4294e-06	2.4338e-06	1101.5	305.67	2.44e-06	2.4222e-06	329.51	113.96	97.27	34.152	2.4073e-06	42.417	98.753	25.059	-54.017	-141.757	204.814	120.594	-141.989	-137.067	-55.211	48.324	-137.912	-133.554	-132.809	-128.092	22.178	-128.872	-8191	255	
1009.556	1	1	0	0	0.044556	0.036403	0.056141	0.31709	0.22173	0.11994	0.30596	0.20092	0.12534	0.24226	0.12825	0.32735	0.050441	0.20172	0.18483	0.14679	-2.7646	-2.8958	-3.5208	-2.8292	-3.0854	-3.325	-2.9667	-3.4271	-3.1104	-2.8042	-3.4938	-2.8396	-3.1125	-3.3792	-2.5292	-3.5292	45.173	-16.703	197.330	132.204	-140.422	-123.051	189.544	69.739	4.502	147.856	107.442	151.078	-128.726	-146.954	11.811	183.034	0.00090178	0.00050111	8.6376e-06	1133.4	4.448e-06	8.117e-06	1141.9	321.25	2.903e-06	1.4485e-06	366.74	121.09	105.12	36.571	5.1842e-06	45.632	0.00022382	0.00021999	6.1629e-05	1090.1	2.4395e-06	2.4146e-06	1103.4	305.73	2.4304e-06	2.429e-06	329.7	113.87	97.346	34.206	2.4495e-06	42.401	94.074	-58.746	165.152	-141.800	-59.480	-9.306	-142.231	-137.034	-74.625	196.169	-138.009	-133.479	-133.273	-128.385	167.745	-129.186	-8191	255	
1009.653	1	1	0	0	0.21384	0.12204	0.17552	0.03116	0.10072	0.18989	0.11693	0.17297	0.131	0.16202	0.046599	0.10935	0.033567	0.17796	0.11986	0.11149	-2.75	-2.6562	-3.4313	-3.0979	-2.8167	-3.4396	-2.9729	-3.2938	-3.2687	-2.7521	-3.5167	-3.0271	-3.0917	-3.55	-2.8042	-3.4146	109.300	197.719	-104.003	-140.753	-148.619	62.996	-104.029	8.947	-124.446	28.256	-38.303	-122.685	-125.167	-113.489	83.961	51.015	0.00094988	0.00041071	7.6687e-05	1137.2	3.8179e-06	3.7887e-06	1143.3	318.89	4.7586e-06	4.1924e-06	367.18	121.3	104.99	36.465	2.4355e-06	45.525	0.0002249	0.00022311	6.1436e-05	1092.2	2.4421e-06	2.4281e-06	1102.3	305.44	2.4207e-06	2.418e-06	330.33	113.83	97.15	34.167	2.4005e-06	42.366	101.512	-63.994	-44.054	-142.067	-40.688	19.635	-142.383	-137.330	-25.083	41.162	-137.646	-133.846	-133.220	-127.968	-95.977	-129.161	-8191	255	
1009.749	1	1	0	0	0.16655	0.1302	0.26738	0.28528	0.19691	0.18095	0.19256	0.090837	0.046108	0.17769	0.16435	0.22405	0.23727	0.12527	0.25586	0.13418	-2.9958	-2.6437	-3.3896	-2.9313	-2.8375	-3.4125	-2.8396	-3.35	-3.3875	-2.5979	-3.475	-2.9188	-2.8479	-3.5021	-2.7458	-2.8688	116.852	128.178	157.432	136.416	44.644	133.462	178.328	152.456	170.924	170.378	-27.120	-145.457	-137.427	191.092	-123.914	153.142	0.00074466	0.00024473	3.3148e-05	1131.5	4.6722e-06	7.0858e-07	1140.8	318.14	1.0093e-06	4.1586e-06	368.83	121.21	105.33	36.71	1.1739e-06	45.524	0.00022332	0.00022062	6.1381e-05	1090.2	2.4137e-06	2.4036e-06	1101.8	304.72	2.4145e-06	2.4203e-06	330.57	113.82	97.229	34.208	2.4189e-06	42.378	84.501	-4.668	110.842	-141.930	-83.489	-119.522	-142.227	-137.210	-117.024	6.242	-138.121	-133.624	-133.598	-128.346	67.226	-129.173	-8191	255	
1009.820	1	1	0	0	0.18332	0.24822	0.050201	0.26452	0.085904	0.098949	0.20616	0.42435	0.17956	0.052513	0.30212	0.29148	0.12457	0.19193	0.13178	0.13935	-2.9625	-2.6479	-3.3667	-3.1854	-2.6979	-3.3479	-2.9583	-2.9521	-3.3146	-2.6604	-3.2812	-3.2687	-2.6917	-3.5479	-2.9396	-3.0708	137.486	171.675	100.206	134.509	25.956	24.632	188.190	126.206	-66.501	-87.888	-96.405	193.582	177.493	174.730	-70.424	-122.418	0.00092904	0.00032083	8.9755e-05	1132.7	1.6056e-06	1.2728e-06	1147.2	320.59	2.6549e-06	1.9087e-06	366.25	121.23	105.33	36.728	1.9812e-06	45.745	0.00022339	0.00022048	6.0997e-05	1090.1	2.4179e-06	2.4084e-06	1102.9	305.34	2.4181e-06	2.4198e-06	329.7	113.89	97.275	34.171	2.4189e-06	42.398	75.878	55.455	-112.471	-142.049	48.340	63.790	-142.247	-137.167	-26.472	34.118	-137.556	-133.180	-133.091	-128.272	-137.158	-129.056	-8191	255	
1009.941	1	1	0	0	0.24617	0.16921	0.046219	0.3537	0.18846	0.10707	0.14375	0.58003	0.083369	0.17182	0.28583	0.15803	0.14796	0.15962	0.20782	0.041549	-3.0333	-2.8333	-3.1688	-3.2146	-2.8083	-3.525	-3.0771	-2.95	-3.5125	-2.875	-3.2271	-3.3833	-2.8208	-3.4458	-3.1271	-2.6458	-125.194	-116.445	45.549	138.420	95.280	181.053	104.060	168.827	-47.217	-140.671	-134.718	-137.574	166.229	154.048	67.376	89.569	0.0009935	6.0109e-05	2.4056e-05	1131.7	8.1518e-07	6.274e-07	1146.4	319.8	5.0971e-06	2.4976e-06	369.12	120.98	104.35	36.848	6.6416e-06	45.741	0.00022271	0.0002201	6.0776e-05	1090.8	2.4055e-06	2.4014e-06	1103.5	306	2.405e-06	2.4051e-06	330.78	113.86	97.145	34.262	2.412e-06	42.426	109.624	-75.322	170.886	-141.876	-133.701	-60.878	-142.071	-137.254	-7.653	-34.459	-137.436	-133.568	-132.968	-128.009	-67.436	-128.997	-8191	255	
1010.037	1	1	0	0	0.04895	0.15929	0.23059	0.16256	0.1781	0.1835	0.24849	0.1011	0.096646	0.11347	0.12814	0.15268	0.1427	0.33394	0.072048	0.23	-2.9479	-2.7687	-3.1292	-3.3563	-2.6229	-3.2417	-3.175	-2.8396	-3.3771	-2.7521	-2.9437	-3.4083	-2.8167	-3.4688	-3.2208	-2.8979	148.277	-150.899	165.579	135.106	-91.433	88.770	154.513	197.239	103.976	7.771	101.916	122.291	79.482	-135.720	127.116	32.700	0.0008607	0.00026505	0.00011182	1137.5	2.6049e-06	5.222e-06	1144.1	320.27	4.7097e-06	2.3892e-06	366.29	121.8	105.02	36.627	4.1516e-06	45.758	0.0002219	0.00021728	6.1221e-05	1093.1	2.3972e-06	2.3845e-06	1102	305.4	2.3938e-06	2.3816e-06	330.47	114.33	97.233	34.175	2.3998e-06	42.359	81.413	127.308	-50.326	-141.716	-99.684	-19.949	-142.043	-136.972	-68.138	46.295	-137.181	-133.354	-133.135	-127.986	-74.542	-129.395	-8191	255	
1010.133	1	1	0	0	0.088146	0.1783	0.022848	0.25538	0.1638	0.067778	0.11469	0.2936	0.28298	0.057997	0.028127	0.23543	0.18702	0.15842	0.14858	0.056763	-3.175	-2.9021	-2.9708	-3.6688	-2.7188	-3.2292	-3.5542	-2.8479	-3.4042	-2.9062	-3.1292	-3.6125	-2.8625	-3.3187	-3.2104	-2.7	29.449	61.399	-41.971	-140.341	-57.083	-107.735	28.129	177.916	179.926	146.244	-85.731	173.153	160.675	-91.873	102.798	43.071	0.00064829	0.00048291	0.00010314	1135.1	1.0131e-06	5.0832e-06	1143.7	319.31	4.6717e-06	7.2268e-06	366.69	121.42	105.26	36.7	1.1331e-06	45.615	0.00022252	0.00021819	6.0841e-05	1093.7	2.3975e-06	2.3791e-06	1103.6	305.42	2.3914e-06	2.3806e-06	329.75	114.02	97.129	34.19	2.3968e-06	42.427	85.252	-38.013	-100.726	-141.655	163.549	-7.159	-142.055	-137.050	-66.784	64.574	-137.702	-133.315	-133.295	-128.149	108.349	-128.938	-8191	255	
1010.228	1	1	0	0	0.021249	0.21228	0.060857	0.22435	0.068595	0.20715	0.28313	0.05363	0.14215	0.19456	0.34722	0.12199	0.12732	0.27264	0.28503	0.18815	-3.0938	-2.9292	-2.6937	-3.6083	-2.6729	-3.0771	-3.4958	-2.7687	-3.2917	-3.0333	-2.7729	-3.5021	-2.8417	-3.2208	-3.3479	-2.8542	-123.568	-93.538	-94.606	107.121	200.946	136.269	162.718	-66.668	150.982	101.774	179.131	-16.432	130.813	188.951	-114.324	144.476	0.0010347	0.00046351	0.00012028	1137	3.7454e-06	2.9305e-06	1147.9	319.95	2.5673e-06	8.0937e-07	366.41	121.6	105.27	36.997	7.5774e-06	45.655	0.00022097	0.00021741	6.0231e-05	1095.8	2.3901e-06	2.372e-06	1102.8	305.36	2.3983e-06	2.3706e-06	330.39	113.79	97.248	34.345	2.3748e-06	42.464	79.789	51.353	-133.432	-141.635	-56.316	-4.162	-142.365	-137.264	-100.743	-34.591	-137.865	-133.663	-133.422	-128.156	-78.901	-129.135	-8191	255	
1010.348	1	1	0	0	0.16111	0.14391	0.020732	0.18013	0.19976	0.12959	0.16751	0.24424	0.14479	0.084875	0.28062	0.024141	0.45079	0.074683	0.048271	0.17877	-3.1208	-2.9875	-2.6188	-3.7562	-2.8167	-3.1479	-3.5729	-2.7438	-3.1375	-3.1125	-2.8312	-3.4229	-3.0687	-3.0812	-3.4229	-2.7542	-131.596	-110.522	-149.437	186.951	129.639	-108.341	12.957	95.429	-53.333	-116.197	143.022	54.035	149.727	-41.621	-116.199	-117.096	0.00088382	0.00056065	7.1898e-05	1136.6	3.3396e-06	5.1286e-06	1146.9	320.8	5.0439e-06	3.6518e-06	368.32	121.81	105.67	36.763	3.8763e-06	46.008	0.00021947	0.00021752	6.0364e-05	1093.8	2.3796e-06	2.3722e-06	1105.8	305.63	2.382e-06	2.3549e-06	330.19	113.99	97.455	34.302	2.348e-06	42.466	95.117	-27.350	-77.808	-141.764	-120.076	86.349	-142.161	-137.040	-98.382	-55.575	-137.395	-133.430	-133.235	-128.190	-65.606	-128.960	-8191	255	
1010.420	1	1	0	0	0.1425	0.06885	0.083696	0.16799	0.062159	0.11214	0.10198	0.10417	0.26714	0.20031	0.19268	0.33741	0.3423	0.27223	0.081564	0.10309	-2.9188	-3.0271	-2.75	-3.6771	-2.8667	-2.9021	-3.4625	-3.0479	-3.1542	-3.2271	-2.5854	-3.3688	-3.1583	-2.7188	-3.4917	-2.5854	48.181	-54.907	-49.493	-138.147	-106.177	-77.898	155.250	185.177	-91.170	123.894	198.624	185.888	104.768	165.972	119.733	101.786	0.00099046	0.00032118	0.00011362	1132.4	2.9703e-06	4.651e-06	1145.1	319.87	4.0096e-06	6.3496e-06	368.83	122.43	104.9	36.968	5.1717e-06	45.926	0.00021548	0.0002125	5.9653e-05	1092.3	2.32e-06	2.3193e-06	1103.2	305.37	2.3466e-06	2.3511e-06	330.47	114.15	97.112	34.281	2.3665e-06	42.442	111.035	38.280	-49.006	-141.735	-40.601	-114.941	-142.405	-137.037	-67.676	5.452	-137.677	-133.604	-132.871	-128.021	-61.212	-128.825	-8191	255	
1010.516	1	1	0	0	0.058127	0.11734	0.12838	0.05171	0.25844	0.029548	0.26311	0.18807	0.11453	0.068718	0.13913	0.10015	0.29129	0.010476	0.033955	0.15733	-2.8354	-3.0896	-2.7375	-3.5708	-3.1125	-2.75	-3.5375	-2.8917	-2.975	-3.4396	-2.6792	-3.3042	-3.1021	-2.8292	-3.2375	-2.6729	111.509	-114.389	-120.716	-54.127	93.367	112.439	124.157	138.934	-46.419	-149.300	155.118	-58.371	185.054	110.345	-138.697	-104.989	0.00093367	0.00057049	6.5912e-05	1133.4	5.0056e-06	4.1082e-06	1141.9	320.81	2.5095e-06	4.4979e-06	368.92	121.9	105.21	36.74	3.85e-06	45.722	0.00021974	0.00021505	6.0309e-05	1092.1	2.4035e-06	2.407e-06	1103.9	306	2.4131e-06	2.3724e-06	330.88	114.28	97.062	34.259	2.4007e-06	42.429	93.306	-29.972	-94.458	-141.849	-79.565	0.604	-142.070	-136.929	-99.151	80.995	-137.540	-133.444	-132.959	-127.912	-92.595	-129.354	-8191	255	
1010.637	1	1	0	0	0.043008	0.13813	0.095734	0.24333	0.25226	0.24193	0.29924	0.18855	0.11514	0.23168	0.18916	0.17372	0.1451	0.20629	0.16846	0.24092	-2.6042	-3.3063	-2.5208	-3.4229	-3.0938	-2.5938	-3.4854	-2.9396	-2.8771	-3.4458	-2.7875	-3.2833	-3.4104	-2.8021	-3.3458	-3.0667	-110.074	20.040	92.876	-125.274	31.367	-138.344	155.261	184.621	-78.192	-70.553	-132.805	-15.833	111.097	-53.976	125.840	128.884	0.0013364	0.00033649	4.8939e-05	1136	5.4031e-06	5.1522e-06	1146.6	320.55	1.3194e-06	4.6345e-06	366.99	121.58	104.98	36.794	2.0448e-06	45.447	0.000223	0.00021861	6.0889e-05	1092.5	2.4139e-06	2.4135e-06	1106.6	306.03	2.4213e-06	2.4229e-06	330.44	114.29	97.274	34.277	2.4141e-06	42.351	85.863	-77.335	-12.496	-141.873	35.211	27.352	-142.085	-137.289	-132.994	153.057	-137.652	-133.355	-133.024	-128.043	-38.327	-129.153	-8191	255	
1010.733	1	1	0	0	0.070805	0.16287	0.21319	0.3119	0.16003	0.1159	0.21112	0.25397	0.1449	0.20585	0.10068	0.091541	0.13005	0.1064	0.17113	0.20717	-2.4208	-3.4396	-2.7313	-3.275	-3.2979	-2.5687	-3.5938	-2.9896	-2.6896	-3.5042	-2.7188	-3.2896	-3.2458	-2.6917	-3.3438	-3.2062	160.941	78.178	-21.932	165.955	-144.686	-10.043	94.019	145.548	189.060	84.912	161.760	-143.442	145.684	-154.459	174.025	135.101	0.00089311	0.0002784	0.00015558	1138.1	1.0066e-06	3.2e-06	1146.5	318.71	5.0572e-06	4.5965e-06	367.51	121.74	105.02	36.454	4.5155e-06	45.841	0.00022353	0.00021998	6.1169e-05	1095.1	2.4378e-06	2.4281e-06	1105.5	305.27	2.4306e-06	2.4277e-06	330.8	114.03	97.261	34.1	2.4409e-06	42.391	99.081	-53.817	-77.308	-141.854	192.467	159.489	-141.987	-137.137	0.456	-2.935	-137.993	-133.297	-133.062	-128.121	-19.265	-129.073	-8191	255	
1010.829	1	1	0	0	0.19473	0.047202	0.068555	0.3269	0.029922	0.096937	0.10155	0.15916	0.2701	0.13799	0.11059	0.055319	0.18032	0.27787	0.13739	0.29911	-2.25	-3.5792	-2.7667	-3.0333	-3.35	-2.4917	-3.4854	-3.1083	-2.8333	-3.4354	-2.9229	-2.9375	-3.575	-2.7938	-3.2354	-3.2562	90.823	30.639	87.883	178.595	-95.384	80.775	73.054	156.232	187.834	116.077	-146.394	134.748	-86.336	61.138	114.100	155.176	0.0010684	0.00096377	0.00022098	1132.4	1.9037e-06	1.2049e-06	1146.1	320.25	3.2512e-06	1.4886e-06	367.64	121.45	104.54	36.664	4.0919e-06	45.643	0.00022679	0.00022247	6.1978e-05	1092.4	2.4499e-06	2.4303e-06	1104.7	305.34	2.4366e-06	2.4285e-06	330.53	113.95	96.972	34.191	2.4133e-06	42.353	93.973	-40.925	-102.083	-141.639	-153.174	84.988	-142.110	-137.044	28.404	-30.486	-137.691	-133.266	-133.032	-128.027	-151.014	-129.267	-8191	255	
1010.925	1	1	0	0	0.074099	0.17294	0.23503	0.16921	0.21001	0.28015	0.20422	0.088899	0.25567	0.0649	0.23725	0.10792	0.13872	0.20107	0.19198	0.214	-2.2167	-3.4521	-2.7729	-2.9104	-3.2771	-2.6542	-3.2979	-3.3396	-2.6958	-3.3875	-3.0521	-2.8375	-3.6208	-2.9729	-3.3937	-3.3708	46.337	154.690	-65.983	103.293	51.793	171.207	187.965	-153.647	21.361	-96.225	-115.023	159.727	128.603	-30.046	68.785	-153.196	0.00098197	0.00014511	9.7007e-05	1132.2	2.1049e-06	7.1073e-06	1144	317.94	4.3796e-06	3.0506e-06	365.78	121.03	104.99	36.504	6.7581e-06	45.539	0.00022262	0.00022123	6.1582e-05	1091.6	2.409e-06	2.417e-06	1103.1	304.65	2.4301e-06	2.4303e-06	329.77	113.67	97.153	34.032	2.4234e-06	42.332	88.877	-41.572	-104.032	-141.607	-24.654	-12.871	-142.165	-137.073	113.477	-150.855	-137.797	-133.337	-133.057	-128.217	-122.696	-129.158	-8191	255	
1011.021	1	1	0	0	0.14159	0.15609	0.10127	0.35742	0.24814	0.065237	0.084148	0.28685	0.12614	0.056083	0.32178	0.1187	0.10413	0.13805	0.14831	0.034768	-2.2042	-3.4437	-2.9708	-2.9667	-3.475	-2.6917	-3.2271	-3.5271	-2.6229	-3.3354	-3.0938	-2.7896	-3.6083	-2.8458	-3.1813	-3.6667	92.601	4.315	135.725	190.940	48.917	138.247	184.689	-88.975	-84.565	4.834	118.111	-146.085	-137.689	26.377	164.519	-98.878	0.00090693	0.00024644	0.00010148	1130.1	1.1917e-06	5.112e-06	1145.3	319.85	1.6689e-06	3.6025e-06	367.29	121.35	105.27	36.695	2.6303e-06	45.717	0.0002242	0.00022113	6.1006e-05	1088.7	2.4025e-06	2.401e-06	1103	304.95	2.3936e-06	2.4089e-06	329.68	113.98	97.103	34.218	2.4041e-06	42.329	115.578	15.734	-143.710	-141.476	-103.486	9.741	-141.974	-137.401	191.463	-1.753	-137.447	-133.467	-132.917	-128.331	-112.361	-129.080	-8191	255	
1011.118	1	1	0	0	0.13249	0.13935	0.22611	0.078529	0.26018	0.18951	0.21698	0.2245	0.19603	0.051901	0.061048	0.14895	0.49062	0.17406	0.32627	0.064344	-2.225	-3.3125	-3.0687	-2.9583	-3.4729	-2.8333	-3.2042	-3.6333	-2.5208	-3.3292	-3.2208	-2.8104	-3.5333	-2.9354	-2.8021	-3.4646	119.251	-137.676	204.772	96.901	46.381	-106.042	100.152	91.537	-74.463	74.862	26.657	166.197	117.801	-151.625	174.383	112.291	0.001132	0.00057652	0.00010351	1134.1	3.9706e-06	3.8065e-06	1144.6	318.55	1.764e-06	1.9931e-06	367.71	121.19	105.14	36.562	3.8689e-06	45.477	0.0002224	0.00021935	6.1494e-05	1090.2	2.4146e-06	2.4109e-06	1100.4	304.75	2.4187e-06	2.4173e-06	329.84	113.81	97.27	34.143	2.4279e-06	42.364	96.235	-3.445	-27.056	-141.603	16.155	66.876	-141.681	-136.984	-107.300	70.085	-137.528	-133.251	-133.065	-128.031	-10.425	-129.183	-8191	255	
1011.236	1	1	0	0	0.09946	0.22104	0.064013	0.31936	0.23842	0.0099335	0.19808	0.20103	0.15134	0.034935	0.11432	0.061549	0.17746	0.052512	0.10506	0.17238	-2.1083	-3.475	-3.1271	-2.8937	-3.4167	-3.0271	-2.925	-3.6083	-2.7083	-3.1729	-3.6083	-2.8396	-3.4813	-3.0396	-2.8354	-3.4083	-28.643	-60.756	160.177	122.975	154.203	-79.720	158.832	198.464	60.373	198.934	-4.495	-123.471	-75.928	115.579	-143.233	50.476	0.00070637	0.00038344	0.00012277	1135.2	4.1899e-06	2.9184e-06	1144.7	318.47	1.5712e-06	2.0116e-06	365.2	121.67	104.89	36.677	2.3024e-06	45.428	0.00022531	0.00022061	6.1557e-05	1090.9	2.4383e-06	2.4135e-06	1102.8	304.96	2.4446e-06	2.4215e-06	330.24	113.95	97.311	34.188	2.4396e-06	42.367	68.998	-138.435	-80.652	-141.575	-29.716	-48.638	-141.813	-137.010	105.682	35.504	-137.641	-133.341	-133.237	-128.161	122.957	-129.349	-8191	255	
1011.333	1	1	0	0	0.33363	0.041575	0.199	0.2069	0.17162	0.15797	0.17259	0.25011	0.17306	0.20756	0.12844	0.317	0.27777	0.42859	0.083126	0.1072	-2.1396	-3.2062	-3.2604	-2.7833	-3.3646	-2.9813	-2.8979	-3.5271	-2.7729	-2.9479	-3.3792	-2.8542	-3.3063	-3.1958	-2.8542	-3.4854	202.411	63.577	-144.001	-112.998	85.745	66.051	92.415	114.489	198.885	131.266	191.843	-146.741	-154.233	177.904	-30.418	-44.079	0.0011078	0.00016105	9.401e-05	1132.2	4.1074e-06	4.1558e-06	1144.8	318.46	6.5421e-07	4.8709e-06	365.72	121.61	105.64	36.51	2.0897e-06	45.512	0.00022571	0.00022217	6.1938e-05	1089.6	2.4183e-06	2.4288e-06	1103	305.21	2.4383e-06	2.4233e-06	329.81	114	97.279	34.154	2.4227e-06	42.324	93.304	11.115	-67.462	-141.551	-16.076	41.212	-141.825	-137.059	-136.197	79.315	-137.622	-133.257	-132.921	-128.041	-108.336	-128.855	-8191	255	
1011.429	1	1	0	0	0.2163	0.1098	0.10977	0.15099	0.18126	0.059132	0.35397	0.14015	0.18214	0.38051	0.22609	0.24133	0.23627	0.13718	0.12829	0.30032	-2.4042	-2.7375	-3.2625	-2.7062	-3.3	-3.2667	-2.8271	-3.6479	-2.9875	-2.9188	-3.6167	-2.7229	-3.3229	-3.3479	-2.7646	-3.4229	-52.213	64.342	189.047	-75.888	24.849	200.050	92.471	164.889	-86.013	19.170	111.855	-126.193	-143.659	114.668	74.807	41.798	0.00098943	0.00020844	7.8568e-05	1130.5	3.655e-06	5.3878e-06	1142	318.85	7.3173e-06	5.1625e-06	364.53	121.1	104.89	36.437	7.4779e-06	45.532	0.00022597	0.00022097	6.1576e-05	1089.5	2.4157e-06	2.4105e-06	1101.4	304.81	2.4224e-06	2.4275e-06	329.1	113.77	96.954	34.042	2.4411e-06	42.293	101.713	49.297	-71.636	-141.596	14.718	4.476	-142.072	-136.919	-104.534	-63.285	-137.568	-133.629	-133.157	-127.929	-149.793	-128.808	-8191	255	
1011.525	1	1	0	0	0.19563	0.1315	0.15501	0.15798	0.17223	0.09405	0.18156	0.077432	0.268	0.15628	0.14207	0.16425	0.18165	0.36748	0.36846	0.06366	-2.5354	-2.8042	-3.4792	-2.8125	-3.0208	-3.4396	-2.8187	-3.5208	-3.0396	-2.7604	-3.4417	-2.7979	-3.1896	-3.4625	-2.5396	-3.3667	-23.130	-36.097	173.950	82.583	-99.733	19.856	118.630	77.416	132.547	-149.332	101.868	129.840	41.326	203.884	-18.456	189.318	0.00071947	0.00037331	0.0002658	1132	4.1836e-06	1.3081e-06	1140	318.76	8.9541e-06	4.8856e-06	366.86	121.66	104.62	36.226	3.9388e-06	45.536	0.00022659	0.00022266	6.1826e-05	1090.4	2.4528e-06	2.4386e-06	1102.3	305.11	2.4558e-06	2.4546e-06	329.92	113.78	96.964	34.063	2.4549e-06	42.25	90.639	-3.420	-78.211	-141.603	-115.712	-145.826	-141.947	-136.624	-50.165	30.410	-137.327	-133.054	-132.462	-127.881	-138.312	-128.744	-8191	255	
1011.646	1	1	0	0	0.12369	0.14278	0.093464	0.21485	0.10889	0.14693	0.35633	0.13649	0.35413	0.2113	0.13017	0.14969	0.17042	0.061602	0.30009	0.20953	-2.8792	-2.6333	-3.4458	-3.0417	-2.9604	-3.3979	-2.7604	-3.3146	-3.1875	-2.5479	-3.5563	-2.9646	-2.9042	-3.4062	-2.7667	-3.4313	146.267	40.124	79.553	127.548	-124.969	-113.097	159.682	-127.132	93.174	-144.702	154.009	-79.295	150.561	68.091	-88.748	150.548	0.0009409	0.00064195	0.00013167	1126.9	1.0957e-06	2.5103e-06	1145.2	317.81	3.6004e-06	9.3225e-07	367.71	121.32	105.24	36.445	4.3363e-06	45.614	0.00022697	0.00022449	6.2296e-05	1088.1	2.4434e-06	2.4407e-06	1101.8	304.32	2.4469e-06	2.4499e-06	330.23	113.62	97.054	34.082	2.4315e-06	42.286	76.504	-8.635	-52.768	-141.696	147.352	12.989	-141.955	-136.967	-117.325	-18.150	-137.505	-133.530	-133.135	-127.808	-138.925	-128.837	-8191	255	
1011.717	1	1	0	0	0.19489	0.14396	0.13564	0.17961	0.2379	0.17156	0.19781	0.16915	0.0041589	0.17877	0.18954	0.19541	0.069575	0.16764	0.31043	0.069472	-2.8542	-2.7354	-3.5646	-3.1521	-2.7458	-3.4875	-2.8479	-3.3563	-3.2104	-2.8	-3.45	-3	-2.7792	-3.4417	-2.7229	-3.2313	145.221	160.346	-125.203	-123.776	160.631	7.823	9.712	148.998	172.614	175.182	-90.110	165.881	-35.074	-135.372	-146.463	94.626	0.00097872	0.00079398	0.00012779	1130	2.0503e-06	1.7587e-06	1144.1	318.72	5.923e-06	4.8951e-06	365.75	121.56	104.71	36.629	3.1616e-06	45.476	0.00022561	0.00022389	6.2016e-05	1088.5	2.4551e-06	2.435e-06	1101.6	305.1	2.4501e-06	2.4469e-06	330.51	113.93	96.979	34.124	2.4393e-06	42.234	68.546	-48.821	-52.550	-141.757	17.752	-93.125	-141.959	-136.930	-27.633	178.601	-137.393	-133.370	-132.627	-127.755	-31.265	-128.750	-8191	255	
1011.813	1	1	0	0	0.044946	0.043168	0.11617	0.36086	0.21675	0.079065	0.083985	0.13084	0.22348	0.20438	0.11603	0.35509	0.32172	0.035145	0.083447	0.11597	-2.8292	-2.6958	-3.2833	-3.2833	-2.8417	-3.4167	-3.2438	-3.2125	-3.4354	-2.6896	-3.3312	-3.1229	-2.9833	-3.5646	-2.8937	-3.025	10.878	74.675	8.311	142.228	120.802	131.102	101.248	64.475	31.339	136.101	-1.593	180.384	182.609	-20.671	-37.155	154.321	0.00080636	0.00016115	6.3721e-05	1136.5	3.3278e-06	4.5773e-06	1142.7	319.69	1.5938e-06	6.4092e-06	368.97	121.17	104.62	36.55	4.359e-06	45.571	0.00022414	0.00022219	6.175e-05	1090.5	2.4443e-06	2.4202e-06	1100.2	305.1	2.4297e-06	2.4401e-06	330.72	113.68	97.109	34.182	2.4267e-06	42.381	83.095	-22.796	15.437	-141.558	-11.430	-60.392	-142.036	-136.622	-59.806	23.227	-137.551	-133.572	-132.834	-127.832	67.782	-128.822	-8191	255	
1011.910	1	1	0	0	0.13115	0.49016	0.12497	0.36782	0.10328	0.35924	0.3185	0.19134	0.059922	0.32347	0.19556	0.13216	0.32484	0.1053	0.26341	0.0187	-3.0271	-2.5687	-3.2687	-3.2375	-2.7417	-3.4021	-3.0333	-3.0812	-3.5292	-2.6937	-3.3604	-3.425	-2.7917	-3.5083	-3.2062	-2.9479	78.783	-65.501	-150.278	181.350	34.280	-23.656	36.598	128.505	102.596	144.563	-36.158	173.217	174.944	75.127	-38.302	-91.839	0.0012542	0.00022157	0.00016134	1128.9	4.3384e-06	3.8157e-06	1144.7	319.38	2.9108e-06	4.7125e-06	367.31	122.05	104.83	36.71	4.1938e-06	45.677	0.00022459	0.00022151	6.2167e-05	1088.2	2.458e-06	2.43e-06	1102.9	305.32	2.4457e-06	2.4514e-06	329.54	114.01	97.041	34.202	2.4343e-06	42.391	90.153	-119.521	202.818	-141.706	1.586	-86.249	-142.161	-137.018	-76.684	-56.827	-137.490	-133.107	-132.924	-127.570	-76.184	-128.731	-8191	255	
1012.030	1	1	0	0	0.20585	0.067261	0.17518	0.24386	0.093622	0.12582	0.18496	0.3826	0.25046	0.1028	0.064789	0.25292	0.367	0.11872	0.3936	0.28258	-3.1854	-2.6271	-3.2812	-3.3875	-2.5062	-3.4	-3.3479	-2.8604	-3.4188	-2.8271	-3.2396	-3.4458	-2.7792	-3.5438	-3.0187	-2.8312	172.895	13.286	91.480	-121.220	-61.843	-127.816	170.724	169.027	86.944	-23.415	-114.297	162.136	193.722	164.787	-48.727	72.118	0.0009155	0.00053172	8.2124e-05	1130.6	2.1871e-06	1.8983e-06	1137.1	318.49	4.229e-06	5.5665e-06	364.49	120.73	104.49	36.487	8.0203e-07	45.587	0.00022598	0.00022235	6.1832e-05	1089.8	2.4533e-06	2.447e-06	1099.6	304.69	2.4501e-06	2.4387e-06	330.09	113.78	97.065	34.15	2.4654e-06	42.325	82.880	118.871	-101.372	-141.582	-63.560	183.489	-141.988	-136.884	-62.132	2.644	-137.383	-133.244	-132.946	-127.833	197.278	-128.825	-8191	255	
1012.125	1	1	0	0	0.12553	0.072794	0.28819	0.22901	0.111	0.074378	0.24879	0.069544	0.13667	0.038925	0.31281	0.26201	0.0801	0.077855	0.12549	0.12364	-2.9979	-2.7979	-3.0625	-3.5479	-2.6146	-3.525	-3.3021	-2.8646	-3.5625	-2.9271	-3.1625	-3.4813	-3.0833	-3.5146	-3.3146	-2.9	27.289	-67.999	-126.256	198.692	15.977	134.882	183.046	55.655	44.213	-145.404	-152.812	165.776	-26.237	-67.436	25.984	116.731	0.00088536	0.00050938	0.00010656	1134.5	1.8183e-06	8.0288e-06	1143.9	318.89	3.0127e-06	7.667e-07	363.17	120.94	104.64	36.534	2.5495e-06	45.505	0.00022778	0.00022352	6.2204e-05	1090.3	2.4523e-06	2.4471e-06	1101.1	305.1	2.4601e-06	2.4566e-06	329.3	113.68	97.061	34.128	2.4736e-06	42.26	98.938	-47.733	-107.356	-141.486	-0.009	24.255	-142.106	-136.743	-81.820	128.439	-137.313	-133.324	-132.998	-127.844	-66.547	-128.917	-8191	255	
1012.221	1	1	0	0	0.22578	0.1553	0.26854	0.082085	0.10078	0.12556	0.08262	0.31644	0.065547	0.049202	0.30732	0.28391	0.073654	0.11234	0.094259	0.33805	-3.1083	-2.9188	-2.925	-3.4854	-2.6937	-3.1958	-3.4146	-2.8729	-3.3917	-2.9375	-3.2229	-3.625	-2.9583	-3.3312	-3.325	-2.5958	145.074	-71.367	170.774	198.920	150.203	-47.313	118.155	169.175	102.346	-59.899	-142.954	193.750	-121.501	104.057	-7.978	159.115	0.001015	0.00036217	7.0881e-06	1131.4	4.583e-06	4.924e-06	1141.6	318.57	2.975e-06	4.1586e-06	364.42	121.11	104.67	36.621	6.4176e-06	45.611	0.00022837	0.00022333	6.2382e-05	1090.6	2.4668e-06	2.4518e-06	1101.4	305.15	2.4714e-06	2.4428e-06	330.02	113.7	96.889	34.114	2.478e-06	42.251	81.941	-117.395	-60.289	-141.442	-5.072	-44.298	-141.823	-137.163	-98.293	-67.457	-137.695	-133.184	-132.873	-127.939	-110.315	-128.951	-8191	255	
1012.319	1	1	0	0	0.065669	0.149	0.078355	0.33091	0.30241	0.12187	0.35957	0.28072	0.03993	0.15296	0.26709	0.15615	0.10032	0.18535	0.16148	0.036641	-2.925	-3.0375	-2.6437	-3.7667	-2.9625	-3.0083	-3.5083	-2.6708	-3.3833	-2.9896	-2.7542	-3.4229	-2.8479	-3.0271	-3.3625	-2.8563	-119.842	96.887	-123.733	162.080	-13.829	11.285	178.503	183.403	12.474	-119.135	173.008	201.497	18.456	-106.719	196.955	69.699	0.00092539	0.00052269	6.1943e-05	1135.6	2.0052e-06	2.6117e-06	1141	319.02	3.9243e-06	9.6175e-07	365.75	121.65	104.08	36.396	1.1411e-05	45.393	0.00022961	0.00022449	6.3103e-05	1092.5	2.473e-06	2.4873e-06	1100.2	304.97	2.489e-06	2.4553e-06	329.88	113.87	96.71	34.025	2.4882e-06	42.274	83.097	1.576	-131.070	-141.584	-143.566	109.923	-142.077	-136.976	-64.453	-0.160	-137.510	-133.134	-132.847	-128.024	-110.193	-128.836	-8191	255	
1012.413	1	1	0	0	0.10795	0.27919	0.16257	0.07876	0.14923	0.12042	0.15426	0.17271	0.23712	0.19245	0.18649	0.06533	0.028002	0.22484	0.18469	0.14739	-2.9396	-3.1312	-2.7208	-3.4896	-2.9021	-3.0667	-3.7229	-2.6771	-3.1	-3.1146	-2.7313	-3.5625	-2.9917	-2.8604	-3.6292	-2.7958	200.498	160.932	51.521	128.425	-109.060	-95.981	124.017	50.999	-153.454	17.273	-103.717	59.135	101.828	187.378	125.234	86.640	0.0010216	0.00050961	5.9949e-05	1132.8	4.6932e-06	3.9071e-06	1143.2	318.47	3.8469e-06	4.308e-06	363.76	121.47	104.36	36.441	2.5801e-06	45.596	0.00022866	0.00022405	6.2684e-05	1091.9	2.4678e-06	2.4734e-06	1101.1	304.71	2.4658e-06	2.4611e-06	329.65	113.91	96.834	34.078	2.4761e-06	42.434	86.861	-69.421	-54.507	-141.515	-68.364	-135.971	-141.926	-136.808	-100.224	25.334	-137.443	-133.265	-133.083	-127.943	-31.386	-128.896	-8191	255	
1012.509	1	1	0	0	0.20888	0.31826	0.22627	0.22265	0.1105	0.27625	0.13239	0.18915	0.11402	0.16772	0.24001	0.42371	0.035977	0.07036	0.23303	0.073216	-2.7854	-3.3708	-2.6229	-3.4188	-3.1688	-2.8063	-3.4021	-2.7792	-3.1625	-3.2375	-2.75	-3.3583	-3.2042	-2.7438	-3.4646	-3.0479	77.260	93.765	125.791	176.126	164.435	76.918	171.691	151.742	12.564	89.814	-49.811	180.665	-19.608	64.548	-74.066	21.515	0.00087974	0.00068849	6.8046e-05	1134.1	1.5641e-06	2.2846e-06	1141.9	319.01	6.3722e-06	2.2431e-06	368.29	120.35	104.55	36.488	3.4493e-06	45.446	0.00022768	0.00022652	6.2064e-05	1091.9	2.4778e-06	2.4649e-06	1102.5	305.16	2.4695e-06	2.4645e-06	330.45	113.62	96.814	34.126	2.471e-06	42.292	96.889	-64.979	-145.654	-141.537	-81.898	-35.383	-141.972	-136.932	-63.425	75.899	-137.556	-133.117	-132.933	-127.814	-64.527	-129.394	-8191	255	
1012.605	1	1	0	0	0.14144	0.074471	0.084802	0.1237	0.23243	0.28245	0.33967	0.19366	0.029971	0.043678	0.11922	0.22131	0.038974	0.13386	0.16652	0.23748	-2.7042	-3.3937	-2.5187	-3.4	-3.0521	-2.5896	-3.5042	-2.8604	-2.8958	-3.3625	-2.7521	-3.3312	-3.3333	-2.8833	-3.3438	-3.0458	129.813	185.635	107.152	133.275	138.336	119.771	137.730	95.977	118.161	37.729	-148.538	-65.849	-68.701	69.141	135.378	145.793	0.0008155	0.00033997	1.8442e-05	1132	1.2701e-06	4.2628e-06	1144.3	318.8	3.8902e-06	3.8976e-06	364.77	120.65	104.5	36.517	1.7199e-06	45.465	0.00022831	0.00022428	6.2267e-05	1090.4	2.4685e-06	2.4535e-06	1100.5	304.37	2.4552e-06	2.4526e-06	329.65	113.65	96.936	34.092	2.4708e-06	42.341	98.430	-9.755	-113.102	-141.528	-81.120	7.097	-141.905	-137.032	-154.781	47.386	-137.441	-133.251	-133.169	-127.745	204.614	-129.072	-8191	255	
1012.726	1	1	0	0	0.12484	0.1742	0.17896	0.28793	0.055642	0.13269	0.34491	0.23451	0.16873	0.062074	0.20478	0.12039	0.33374	0.071757	0.23592	0.089628	-2.475	-3.4146	-2.7896	-3.2458	-3.1437	-2.725	-3.525	-3.1708	-2.8688	-3.7313	-2.6979	-3.1354	-3.3896	-2.6437	-3.4792	-3.1437	105.321	-42.462	-33.567	164.505	-14.793	83.253	122.004	155.649	-117.393	4.374	129.112	184.416	-142.859	156.130	-138.414	-153.000	0.00065715	0.00040311	3.6375e-05	1132.2	2.2105e-06	1.7171e-06	1143.3	319.18	5.5534e-06	5.1055e-06	364.79	121.13	104.68	36.379	1.1002e-06	45.496	0.00022825	0.00022448	6.2501e-05	1091.2	2.4627e-06	2.4526e-06	1102.2	304.83	2.4418e-06	2.466e-06	329.58	113.74	96.908	34.047	2.4423e-06	42.312	75.699	-24.983	-40.018	-141.622	-104.582	63.098	-141.788	-137.164	-115.198	49.366	-137.490	-133.297	-133.138	-127.834	112.735	-129.076	-8191	255	
1012.822	1	1	0	0	0.34114	0.030397	0.061725	0.24402	0.047019	0.34698	0.17712	0.14798	0.20927	0.13804	0.04724	0.21201	0.12938	0.11188	0.2748	0.19257	-2.2625	-3.4542	-2.7604	-3.2104	-3.4417	-2.5312	-3.4313	-3.1125	-2.7125	-3.4813	-2.9479	-2.9396	-3.4083	-2.725	-3.4062	-3.3	-50.914	17.187	-90.198	188.572	-64.783	165.317	116.741	156.536	6.387	-101.778	72.340	100.761	141.731	198.585	176.655	113.413	0.00088768	0.0003068	0.00015901	1131.2	3.1088e-06	3.5097e-06	1145	317.11	7.6983e-07	1.9083e-06	361.53	121.06	104.8	36.677	6.0242e-08	45.74	0.00022623	0.0002232	6.1646e-05	1090.4	2.455e-06	2.444e-06	1100.8	304.23	2.4269e-06	2.4505e-06	328.83	113.8	96.833	34.15	2.4308e-06	42.308	85.162	-24.548	-103.760	-141.524	16.357	187.837	-141.878	-137.337	-52.330	-30.130	-137.557	-132.957	-133.060	-128.054	-135.619	-128.753	-8191	255	
1012.918	1	1	0	0	0.19677	0.24195	0.038416	0.23264	0.030888	0.22869	0.22356	0.13909	0.078244	0.16933	0.2325	0.098032	0.1738	0.27062	0.089147	0.067793	-2.3542	-3.3229	-2.8438	-3.0979	-3.4979	-2.7875	-3.4146	-3.3167	-2.6271	-3.4333	-2.8854	-3.0646	-3.2542	-2.8042	-3.2313	-3.3208	172.208	8.588	-7.439	89.927	-46.402	20.123	-38.756	-89.120	173.825	131.664	141.012	1.722	161.982	171.490	10.791	-127.311	0.00094225	0.00031768	0.00014129	1135	3.0503e-06	5.4336e-06	1141.2	317.98	3.9425e-07	4.346e-06	366.2	120.96	104.71	36.497	3.5299e-06	45.538	0.00022458	0.0002218	6.1916e-05	1091.7	2.4357e-06	2.4387e-06	1102.5	304.44	2.4461e-06	2.4299e-06	329.63	113.71	96.905	34.089	2.4519e-06	42.339	103.357	-87.435	-100.118	-141.209	-64.781	44.751	-142.019	-136.760	16.723	10.501	-137.455	-133.258	-132.988	-127.646	5.347	-128.914	-8191	255	
1013.014	1	1	0	0	0.11373	0.083487	0.11182	0.36275	0.023448	0.26213	0.17099	0.072644	0.15162	0.12767	0.30526	0.46158	0.20819	0.25148	0.090918	0.13902	-2.1167	-3.2896	-2.8937	-3.0271	-3.55	-2.75	-3.2042	-3.3187	-2.5958	-3.3667	-2.8979	-2.9437	-3.4417	-2.8021	-2.9083	-3.5875	176.615	-10.278	-154.529	202.088	41.048	-87.950	181.269	-121.182	66.508	-32.016	120.980	126.620	204.361	110.430	73.250	170.982	0.0010962	0.00017763	6.4696e-05	1133.9	4.5435e-06	9.9214e-06	1138.1	318.59	4.113e-06	4.7862e-06	364.76	121.22	104.43	36.535	4.0837e-06	45.454	0.00022663	0.00022315	6.1703e-05	1090.9	2.453e-06	2.4389e-06	1101.2	304.37	2.4482e-06	2.428e-06	329.15	113.55	96.806	34.142	2.4573e-06	42.321	87.491	85.728	-139.130	-141.324	5.835	-27.653	-141.831	-136.841	-68.469	106.517	-137.627	-133.056	-133.119	-127.898	-52.742	-128.705	-8191	255	
1013.111	1	1	0	0	0.20248	0.12548	0.099726	0.1694	0.14463	0.11714	0.28159	0.34118	0.10386	0.15556	0.29572	0.22689	0.20044	0.24057	0.17411	0.068448	-2.2062	-3.3063	-3.15	-2.9458	-3.5146	-2.7333	-3.0062	-3.4208	-2.7438	-3.3854	-3.2771	-2.7354	-3.2583	-2.8521	-3.0542	-3.6521	14.273	111.035	2.062	200.699	100.723	-28.898	140.675	-142.935	-38.242	182.567	174.825	146.384	-149.730	115.833	168.275	4.905	0.00081282	0.00037939	0.00021217	1129.3	3.0103e-06	5.2191e-06	1141.3	318.9	1.3937e-06	5.7201e-06	364.22	120.82	104.87	36.582	2.2627e-06	45.454	0.00022582	0.00022233	6.2181e-05	1089.4	2.4545e-06	2.4353e-06	1101.3	304.64	2.4401e-06	2.4398e-06	329.49	113.71	96.902	34.106	2.4487e-06	42.276	102.411	60.791	10.385	-141.538	18.478	14.329	-141.569	-136.880	3.753	14.288	-137.452	-133.023	-132.722	-127.674	-25.522	-128.831	-8191	255	
1013.207	1	1	0	0	0.059174	0.14329	0.092058	0.25341	0.31351	0.19244	0.16152	0.26904	0.2611	0.068633	0.067642	0.039039	0.23697	0.0173	0.17787	0.044734	-2.1667	-3.1604	-3.2604	-2.9021	-3.4625	-3.0646	-3.0292	-3.7292	-2.6104	-3.2646	-3.4708	-2.6417	-3.5187	-3.1167	-2.6625	-3.6833	-33.534	-104.055	148.770	147.267	118.053	153.173	175.262	197.937	103.263	-27.872	160.692	2.205	-126.221	33.796	-138.868	-40.669	0.00091456	0.00040466	0.00012658	1135.2	2.0443e-06	2.974e-06	1147.7	317.78	6.0653e-06	6.0501e-07	366.4	121	104.44	36.484	3.2204e-06	45.661	0.00022738	0.00022412	6.2419e-05	1092.4	2.455e-06	2.4437e-06	1102.1	304.8	2.4481e-06	2.4518e-06	330.39	113.77	97.031	34.059	2.4442e-06	42.418	77.093	2.101	-62.818	-141.355	-27.367	-46.566	-141.793	-136.602	-74.026	-100.619	-137.437	-133.087	-132.691	-127.736	-29.273	-128.688	-8191	255	
1013.326	1	1	0	0	0.27132	0.23295	0.16792	0.19046	0.11213	0.13923	0.32119	0.18511	0.20896	0.2138	0.11778	0.097141	0.29884	0.21412	0.12998	0.19245	-2.4042	-3.1667	-3.2771	-2.9437	-3.4604	-2.9146	-2.9417	-3.7729	-2.7458	-2.9646	-3.3854	-2.8042	-3.4417	-3.125	-2.5438	-3.5458	-92.806	-36.702	37.148	-152.276	8.130	-56.632	152.436	138.115	20.565	-31.446	143.331	81.916	-129.244	157.551	20.255	-76.805	0.00060938	0.00023231	8.8078e-05	1133.4	5.7053e-06	2.0038e-06	1139.5	318.83	4.9951e-06	4.7224e-06	365.88	121.19	104.83	36.5	1.1926e-06	45.269	0.00022576	0.00022148	6.1602e-05	1090.3	2.4419e-06	2.4416e-06	1100.5	304.68	2.4289e-06	2.4317e-06	330.39	113.62	96.893	34.067	2.4232e-06	42.303	102.467	69.678	-128.145	-141.382	-51.246	-12.952	-142.145	-136.867	-41.975	23.378	-137.440	-133.170	-132.842	-128.115	126.323	-129.001	-8191	255	
1013.422	1	1	0	0	0.20035	0.11052	0.13224	0.32176	0.036151	0.33397	0.1436	0.15974	0.30229	0.097438	0.18947	0.32591	0.3441	0.34684	0.13151	0.24134	-2.3542	-2.8229	-3.2479	-2.8563	-3.3354	-3.2812	-2.9271	-3.6021	-2.8958	-3.0563	-3.4375	-2.9188	-3.3458	-3.3042	-2.6479	-3.475	62.345	180.911	-109.140	192.934	87.378	135.856	115.907	88.466	69.218	-117.495	138.545	143.305	-105.110	-127.689	13.170	-27.056	0.00068533	0.00060348	5.6541e-05	1132	3.1002e-06	2.587e-06	1148.4	319.2	7.5301e-06	1.3987e-06	364.02	120.59	105.19	36.394	3.2445e-06	45.605	0.00022603	0.00022175	6.1845e-05	1091	2.4089e-06	2.4242e-06	1103.4	305.6	2.4307e-06	2.4231e-06	329.17	113.8	97.008	34.099	2.4156e-06	42.352	84.865	-35.128	-108.798	-141.389	-153.136	-116.481	-142.084	-136.863	-71.305	184.483	-137.268	-133.099	-132.856	-128.023	15.527	-128.846	-8191	255	
1013.518	1	1	0	0	0.048903	0.29378	0.24938	0.31377	0.14795	0.12952	0.34961	0.073535	0.25521	0.18299	0.12326	0.29628	0.29361	0.09844	0.30834	0.039437	-2.6562	-2.8667	-3.4062	-2.8104	-3.1021	-3.2917	-2.8563	-3.5	-3.0604	-2.775	-3.6437	-2.8937	-3.1208	-3.4667	-2.6188	-3.525	-83.692	19.768	43.190	168.901	-150.702	66.375	147.594	-124.678	100.584	204.940	-152.396	-153.772	-123.677	132.020	-5.775	174.158	0.00072674	0.00056031	9.0554e-05	1133.2	3.2678e-06	4.2648e-06	1145.1	319.38	1.6753e-06	7.0382e-06	366.33	121.51	104.68	36.709	2.6008e-06	45.667	0.00022499	0.0002208	6.117e-05	1089.2	2.4233e-06	2.4155e-06	1102.2	305.32	2.4206e-06	2.4073e-06	330.09	113.83	97.054	34.179	2.4318e-06	42.324	74.901	-91.896	-73.739	-141.553	-92.466	155.074	-141.935	-136.742	-100.518	76.584	-137.483	-133.236	-132.627	-127.904	-21.443	-129.027	-8191	255	
1013.590	1	1	0	0	0.11079	0.042173	0.14072	0.19178	0.11853	0.13861	0.1146	0.041339	0.095885	0.032458	0.14287	0.12382	0.39256	0.15434	0.25031	0.074924	-2.6562	-2.8354	-3.5125	-2.9979	-2.9646	-3.3458	-2.8396	-3.5104	-3.3208	-2.7521	-3.2917	-2.9271	-2.9542	-3.4104	-2.7687	-3.4104	-116.189	193.550	22.912	193.091	1.354	-121.529	154.990	117.551	27.014	77.316	173.084	132.845	199.475	-100.920	87.654	-136.613	0.0009763	0.00014181	0.00011427	1132.5	1.4263e-06	3.4041e-06	1142.9	319.42	5.0655e-06	2.9777e-06	364.26	120.99	105.02	36.393	3.6177e-06	45.403	0.00022357	0.00022189	6.1326e-05	1090.2	2.4142e-06	2.4003e-06	1102.2	305.12	2.4228e-06	2.4204e-06	329.48	113.8	97.108	34.101	2.4317e-06	42.322	95.429	77.602	-103.264	-141.335	-118.502	70.334	-142.005	-136.819	141.087	63.981	-137.355	-133.418	-132.564	-127.873	-45.904	-128.898	-8191	255	
1013.686	1	1	0	0	0.15645	0.15122	0.15534	0.23019	0.062182	0.20748	0.15659	0.24588	0.14428	0.18226	0.33886	0.09202	0.17877	0.39136	0.15638	0.19023	-2.9125	-2.6229	-3.3958	-3.0479	-2.7458	-3.4083	-2.9417	-3.3979	-3.3771	-2.7062	-3.4104	-2.9271	-2.8625	-3.5542	-2.7104	-3.0979	-24.073	147.735	-141.840	161.847	164.259	-59.976	-2.925	134.379	3.875	-78.025	-153.044	75.772	-147.285	188.065	106.143	163.898	0.0010629	0.00041773	0.00017664	1132	1.4123e-06	1.5798e-06	1142.3	319.53	2.0053e-06	3.499e-06	366.3	120.29	104.66	36.561	3.6558e-06	45.551	0.00022448	0.0002213	6.1726e-05	1089.9	2.442e-06	2.4212e-06	1103	304.99	2.4245e-06	2.4031e-06	329.99	113.72	96.984	34.086	2.4072e-06	42.256	85.089	38.571	-22.816	-141.591	201.057	-14.538	-141.833	-136.693	172.511	-54.631	-137.295	-133.043	-133.039	-127.472	-110.012	-128.721	-8191	255	
1013.806	1	1	0	0	0.34421	0.10328	0.24303	0.15245	0.20004	0.19902	0.20429	0.2951	0.23662	0.25431	0.20806	0.048272	0.1071	0.1367	0.24127	0.11376	-2.9104	-2.4938	-3.2833	-3.1979	-2.7125	-3.5229	-2.8688	-3.1771	-3.3063	-2.6625	-3.4188	-3.2125	-2.7167	-3.6167	-2.6688	-3.2188	-90.731	-145.588	12.356	192.211	128.544	132.546	73.843	-99.500	-19.864	111.866	-22.321	-34.573	196.491	200.025	56.590	-73.230	0.00092441	9.2325e-05	0.00013424	1132.9	8.5828e-07	2.7008e-06	1147.3	320.4	3.4175e-06	2.3662e-06	365.46	120.46	105.27	36.647	4.4072e-06	45.427	0.00022423	0.00022163	6.1288e-05	1090.5	2.4206e-06	2.4096e-06	1100.9	305.39	2.4191e-06	2.4129e-06	329.54	113.57	97.125	34.109	2.4073e-06	42.292	76.265	28.598	-29.313	-141.780	-8.835	113.664	-141.770	-136.896	-97.393	135.945	-137.377	-133.414	-132.873	-127.710	-28.207	-128.593	-8191	255	
1013.902	1	1	0	0	0.10937	0.17421	0.39728	0.21852	0.10156	0.12213	0.071857	0.22792	0.10888	0.37318	0.037002	0.28175	0.10002	0.26503	0.10964	0.075008	-2.9396	-2.6146	-3.2313	-3.3312	-2.6917	-3.3771	-3.0938	-2.9104	-3.4583	-2.6937	-3.3104	-3.3167	-2.7146	-3.5	-2.9688	-3.0854	-102.221	11.070	-74.863	96.930	-34.966	129.007	182.862	-99.409	-118.252	103.366	47.896	128.497	-119.023	158.855	192.702	155.803	0.0012131	0.00017882	3.346e-05	1127.6	1.0141e-06	3.3019e-06	1143.6	319.7	3.3218e-06	6.5469e-06	366.39	121.18	104.84	36.796	5.0151e-06	45.566	0.00022361	0.00022069	6.1823e-05	1089.6	2.4168e-06	2.4138e-06	1101.2	305.45	2.436e-06	2.4152e-06	329.75	113.56	96.918	34.214	2.4344e-06	42.312	104.699	120.225	-18.269	-141.652	165.550	-129.542	-141.852	-136.605	53.201	-3.164	-137.465	-132.943	-132.864	-127.960	-26.546	-128.452	-8191	255	
1013.999	1	1	0	0	0.17	0.21542	0.19746	0.29173	0.13923	0.14737	0.26165	0.17717	0.29628	0.10189	0.27985	0.17823	0.10925	0.13025	0.18409	0.1785	-3.125	-2.7458	-3.2604	-3.3542	-2.6437	-3.4562	-3.1146	-2.9604	-3.5208	-2.9208	-3.2708	-3.425	-2.6063	-3.3417	-2.925	-2.7208	-128.217	-140.994	65.943	-122.039	-78.587	-111.801	138.982	169.751	84.351	69.892	-127.922	66.267	-102.771	-53.448	45.396	28.845	0.00087175	0.0004724	0.00010733	1132.8	3.5948e-06	4.8797e-06	1143.9	320.38	3.1569e-06	1.8047e-06	366.12	120.98	104.86	36.409	2.6476e-06	45.481	0.0002243	0.00022182	6.1255e-05	1091.5	2.4316e-06	2.4026e-06	1102.1	305.54	2.4099e-06	2.3927e-06	329.43	113.74	96.771	34.046	2.4201e-06	42.266	100.141	-8.296	7.620	-141.523	-132.182	-91.208	-141.742	-136.610	-62.192	57.082	-137.345	-133.509	-132.567	-127.539	53.509	-128.686	-8191	255	
1014.119	1	1	0	0	0.3274	0.16955	0.32889	0.13406	0.078416	0.068975	0.18729	0.28005	0.11053	0.047417	0.23856	0.23853	0.067049	0.060761	0.1265	0.089704	-3.2854	-2.7208	-3.2021	-3.3125	-2.5771	-3.3375	-3.2604	-2.9625	-3.3854	-2.8438	-2.9646	-3.5271	-2.6708	-3.3625	-3.3208	-2.8771	-84.625	169.069	-87.185	-124.925	-151.096	-51.959	112.956	155.996	160.978	203.056	-153.872	168.471	-28.433	128.040	-84.086	-82.908	0.0010026	0.00030349	6.7583e-05	1136.7	4.3821e-06	1.7276e-06	1146.9	319.83	4.5597e-06	1.3433e-06	367.46	121.19	104.75	36.581	4.531e-07	45.616	0.00022412	0.00022096	6.1366e-05	1091.6	2.4e-06	2.4113e-06	1102.8	305.33	2.4398e-06	2.416e-06	329.23	113.66	96.984	34.084	2.4208e-06	42.361	85.341	5.448	-63.907	-141.613	46.096	6.954	-141.795	-136.715	25.900	-106.721	-137.127	-133.236	-132.787	-127.785	-95.564	-128.751	-8191	255	
1014.191	1	1	0	0	0.10419	0.13811	0.23797	0.25296	0.048698	0.10771	0.34112	0.23003	0.11786	0.14604	0.20097	0.13868	0.37782	0.17218	0.19556	0.12634	-2.9792	-2.7854	-2.7542	-3.6667	-2.7083	-3.2458	-3.3271	-2.7958	-3.5875	-2.9667	-3.0604	-3.5708	-2.8375	-3.4146	-3.2687	-2.8667	129.465	-64.504	74.196	170.426	-98.171	-40.574	165.539	154.152	6.109	130.899	79.576	99.966	155.148	186.823	-149.323	138.532	0.00074792	0.00025579	3.4806e-05	1133.2	1.6577e-06	3.9213e-06	1140.8	320.11	4.9587e-06	2.6995e-06	364.6	122.02	104.35	36.667	2.9343e-06	45.526	0.00022476	0.00021951	6.1342e-05	1089.7	2.4228e-06	2.4126e-06	1101.2	305.22	2.4322e-06	2.3942e-06	329.39	113.8	96.698	34.091	2.3956e-06	42.288	75.512	152.504	-64.364	-141.356	-61.971	12.885	-141.900	-136.758	-21.686	-30.073	-137.195	-133.127	-132.693	-127.881	-43.065	-128.732	-8191	255	
1014.287	1	1	0	0	0.068659	0.2248	0.14646	0.23231	0.20223	0.11193	0.14293	0.080405	0.025755	0.16461	0.13151	0.04808	0.24873	0.15151	0.067427	0.15112	-2.9958	-2.9417	-2.7792	-3.7854	-2.7188	-3.25	-3.6292	-2.8542	-3.325	-3.0646	-2.7833	-3.5646	-3.0312	-3.0854	-3.3354	-2.7521	-123.205	142.509	204.231	164.767	-150.593	193.812	82.724	153.445	146.170	37.003	159.246	129.366	116.591	-143.586	201.644	4.873	0.0010371	0.00044281	0.00013746	1132.9	1.9135e-06	2.0674e-06	1145.8	319.29	1.7751e-06	5.222e-06	369.32	121.2	104.85	36.591	5.4763e-06	45.755	0.00022257	0.00021923	6.1281e-05	1090.1	2.3914e-06	2.3881e-06	1103.7	305.53	2.3853e-06	2.3891e-06	330.69	113.77	96.886	34.122	2.4058e-06	42.313	94.578	83.613	-43.010	-141.480	-107.182	-57.469	-141.795	-136.808	156.241	46.620	-137.339	-133.124	-132.804	-127.727	-110.545	-128.852	-8191	255	
1014.406	1	1	0	0	0.23914	0.10844	0.15162	0.19964	0.065188	0.23972	0.39286	0.065138	0.10514	0.02502	0.023808	0.081575	0.24475	0.31343	0.087517	0.28773	-3.0625	-3.2458	-2.65	-3.7062	-2.6813	-3.1854	-3.5229	-2.7562	-3.2917	-3.3146	-2.8854	-3.6354	-2.8833	-2.925	-3.4083	-2.8375	-59.573	-103.053	12.445	151.906	163.445	-92.562	128.657	5.729	144.062	-75.980	-61.805	64.525	195.418	40.651	-83.487	125.012	0.00066344	0.00040897	8.2539e-05	1131.9	4.6373e-06	1.2921e-06	1142.4	317.74	4.7901e-06	3.0764e-06	367.78	121.38	104.67	36.576	4.9209e-06	45.558	0.00022186	0.00021839	6.0955e-05	1091	2.3976e-06	2.3835e-06	1100.3	304.59	2.4028e-06	2.3992e-06	329.83	113.68	96.966	34.086	2.3833e-06	42.215	95.838	-84.633	-107.971	-141.396	-81.229	55.339	-141.599	-136.769	-108.903	-6.664	-137.107	-133.069	-132.885	-127.833	24.864	-128.555	-8191	255	
1014.502	1	1	0	0	0.047709	0.21847	0.094289	0.13969	0.19002	0.26615	0.037877	0.29988	0.17586	0.11431	0.06062	0.19226	0.088028	0.35134	0.098323	0.26207	-2.7812	-3.3229	-2.6875	-3.5771	-3.1979	-2.8563	-3.6167	-2.9083	-3.175	-3.4313	-2.7917	-3.3187	-3.1354	-2.9292	-3.575	-2.7771	59.803	168.782	-51.502	176.453	70.835	196.691	36.745	147.215	99.059	-25.582	173.475	201.681	7.434	152.355	23.291	157.397	0.00092595	0.00010906	0.00012747	1134	8.7561e-07	2.1403e-06	1147.3	320.96	4.9662e-06	1.6037e-06	365.24	121.19	105.53	36.568	1.7972e-06	45.647	0.00022321	0.0002167	6.0585e-05	1091.3	2.409e-06	2.3895e-06	1103.3	305.08	2.3902e-06	2.3864e-06	329.16	113.72	96.837	34.127	2.3864e-06	42.335	99.812	182.375	196.562	-141.439	-98.726	-48.087	-141.756	-136.943	10.130	125.193	-137.094	-132.971	-132.904	-127.623	-9.365	-128.807	-8191	255	
1014.598	1	1	0	0	0.27622	0.057484	0.23023	0.29572	0.14596	0.10037	0.034557	0.10608	0.11042	0.070632	0.090378	0.15874	0.13169	0.20035	0.092481	0.33887	-2.7188	-3.35	-2.5438	-3.5979	-3.0396	-2.7146	-3.4813	-3.0146	-3.0187	-3.5083	-2.7583	-3.4125	-3.2958	-2.8771	-3.4771	-3.1042	-153.662	30.312	-35.066	137.517	-16.990	64.823	33.743	167.771	61.393	173.079	158.726	100.887	151.912	117.769	13.483	154.395	0.00078675	0.0001592	2.2164e-05	1131.4	2.4983e-06	4.5304e-06	1140.6	319.67	2.2144e-06	5.7008e-06	366.25	121.38	104.67	36.669	5.6397e-06	45.611	0.00022165	0.00021564	6.0489e-05	1090.5	2.3698e-06	2.3798e-06	1101.7	304.76	2.3738e-06	2.3842e-06	329.59	113.76	96.74	34.12	2.3688e-06	42.268	87.902	7.829	149.961	-141.394	194.936	8.905	-141.922	-137.146	-50.261	72.340	-137.428	-133.511	-133.113	-127.932	-97.845	-129.233	-8191	255	
1014.719	1	1	0	0	0.10266	0.1844	0.097627	0.29588	0.22315	0.035242	0.22942	0.10338	0.12132	0.020689	0.28475	0.09087	0.32006	0.17957	0.064644	0.23069	-2.5146	-3.4625	-2.6833	-3.5104	-3.2146	-2.7208	-3.5417	-3.0438	-2.8167	-3.2875	-2.9021	-3.2917	-3.3667	-2.5396	-3.3896	-2.9292	105.348	156.870	-76.015	-56.098	106.258	116.327	81.962	156.410	-21.009	148.557	145.810	-42.385	195.875	122.439	179.400	84.774	0.00098781	0.00041487	2.2392e-05	1130.7	5.3183e-06	1.6944e-06	1141.6	319.72	4.417e-06	2.3377e-06	365.08	121.71	104.51	36.524	4.616e-06	45.357	0.00022099	0.00021677	6.0021e-05	1090	2.3877e-06	2.3785e-06	1102.1	304.81	2.3994e-06	2.4043e-06	329.59	113.99	96.846	34.064	2.4e-06	42.129	79.477	-20.599	15.300	-141.750	-53.305	4.153	-141.871	-137.073	128.873	145.156	-137.452	-133.061	-133.174	-127.838	-114.028	-128.967	-8191	255	
1014.815	1	1	0	0	0.13523	0.28233	0.13656	0.068364	0.089231	0.21913	0.2997	0.14606	0.073302	0.17671	0.070498	0.25884	0.18889	0.27526	0.28334	0.056079	-2.3917	-3.3312	-2.675	-3.1437	-3.3125	-2.5979	-3.5792	-3.1625	-2.6958	-3.5042	-2.8333	-3.1667	-3.4062	-2.6104	-3.3625	-3.2708	203.061	-89.232	-81.412	-44.937	112.964	16.869	128.648	160.683	86.510	79.633	-83.275	-151.740	-81.724	159.962	-72.627	143.318	0.0008554	0.00062392	7.6538e-05	1134.7	2.7871e-06	5.8717e-06	1144.9	319.43	3.7813e-06	7.0143e-06	366.67	121.62	104.7	36.606	1.672e-06	45.62	0.00022236	0.00021911	6.0918e-05	1091.1	2.3926e-06	2.4081e-06	1102.9	305.01	2.4007e-06	2.3982e-06	330.11	113.99	96.951	34.123	2.39e-06	42.295	85.680	-48.609	-22.301	-141.592	128.023	11.883	-142.092	-137.154	-95.660	14.376	-137.945	-133.136	-132.969	-128.020	52.878	-128.762	-8191	255	
1014.887	1	1	0	0	0.30861	0.20776	0.15271	0.31766	0.10129	0.1879	0.14871	0.10295	0.084469	0.015768	0.065236	0.27586	0.085808	0.067412	0.17534	0.087494	-2.2333	-3.4708	-2.8958	-3.3187	-3.4958	-2.6667	-3.3833	-3.2188	-2.6667	-3.3271	-2.8708	-2.9875	-3.5708	-2.7292	-3.3187	-3.3625	113.623	184.704	-140.191	162.992	115.766	94.407	162.406	163.958	20.525	192.433	85.396	132.648	-93.378	104.659	183.902	-126.623	0.00090229	0.00066481	0.00012442	1132.6	3.4891e-06	2.5468e-06	1151.9	321.08	2.4066e-06	3.301e-06	367.01	121.39	105.26	36.713	3.8356e-06	45.591	0.00022138	0.00021882	6.0303e-05	1090.7	2.4046e-06	2.3859e-06	1104.5	305.36	2.3867e-06	2.4035e-06	329.84	113.84	97.182	34.164	2.3903e-06	42.268	103.039	-141.758	-127.121	-141.592	-79.056	-66.031	-141.983	-137.062	-66.258	192.208	-137.575	-133.390	-133.141	-127.639	143.196	-128.768	-8191	255	
1014.983	1	1	0	0	0.17826	0.12007	0.1286	0.26944	0.20293	0.15587	0.067378	0.24383	0.10272	0.13083	0.098091	0.26505	0.34241	0.18192	0.14028	0.17886	-2.2188	-3.4188	-2.825	-2.9896	-3.4708	-2.6979	-3.2167	-3.3604	-2.5938	-3.5229	-3.0083	-2.8729	-3.5854	-2.7604	-3.0042	-3.2229	170.522	68.609	-149.137	-128.577	28.751	97.564	135.928	196.003	-27.298	-26.102	-131.658	166.033	164.367	187.915	88.297	-53.375	0.00079993	0.00043922	8.5759e-05	1138.7	1.3477e-06	5.4856e-06	1144.8	319.69	5.2441e-06	1.6416e-06	368.34	121.08	104.65	36.593	3.8265e-06	45.393	0.00022307	0.00021721	6.0464e-05	1093	2.3801e-06	2.3954e-06	1103.1	304.65	2.3992e-06	2.4023e-06	330.18	114.03	96.928	34.172	2.433e-06	42.203	89.634	-4.927	153.753	-141.514	-24.049	35.225	-141.837	-136.980	-36.591	13.576	-137.587	-133.108	-132.978	-127.803	-74.859	-128.818	-8191	255	
1015.103	1	1	0	0	0.11418	0.1848	0.10283	0.26434	0.29948	0.18971	0.10471	0.39693	0.2608	0.081872	0.25173	0.2755	0.11938	0.098552	0.16876	0.24515	-2.2542	-3.3521	-2.9583	-2.9042	-3.3958	-2.8167	-3.1854	-3.2354	-2.5833	-3.2438	-3.2729	-2.8104	-3.5917	-2.7771	-2.9604	-3.4417	49.622	-73.864	7.562	126.301	171.274	-18.000	148.591	173.938	27.487	173.799	178.540	191.167	16.211	6.393	-41.221	176.476	0.00079418	0.00036503	8.7273e-05	1136	3.8068e-06	4.3767e-06	1143.3	319.51	4.785e-06	3.1976e-06	366.23	121.65	104.82	36.585	7.8348e-07	45.361	0.00022437	0.00022161	6.1525e-05	1092.9	2.4173e-06	2.4256e-06	1103.6	305.3	2.4307e-06	2.3991e-06	329.85	113.8	96.952	34.068	2.4165e-06	42.126	82.050	19.645	-55.746	-141.598	-127.882	-9.597	-141.680	-136.968	-106.639	-35.579	-137.495	-133.265	-132.963	-127.894	175.797	-128.896	-8191	255	
1015.198	1	1	0	0	0.14943	0.21135	0.15848	0.3084	0.3169	0.10609	0.26572	0.10183	0.1649	0.28574	0.19337	0.37922	0.15265	0.22475	0.15736	0.46696	-2.3667	-3.2729	-3.0708	-2.8917	-3.2979	-2.9396	-3.1354	-3.7021	-2.7146	-3.1667	-3.1125	-2.6646	-3.4688	-3.1604	-2.8458	-3.5958	-86.234	81.018	46.849	122.808	-50.425	-47.948	119.323	70.245	32.643	-95.655	189.343	112.260	65.430	-145.109	-66.501	-154.492	0.00098217	8.5593e-05	3.5781e-05	1134.7	1.6534e-06	8.9645e-07	1144.9	318.72	5.3738e-06	5.6365e-06	366.76	121.18	104.56	36.464	2.9148e-06	45.276	0.00022546	0.00022139	6.1267e-05	1092	2.4162e-06	2.4123e-06	1103.7	304.44	2.4291e-06	2.4161e-06	329.66	113.67	96.894	34.064	2.4114e-06	42.171	100.423	-90.465	-147.600	-141.468	-32.566	47.954	-141.819	-137.016	-100.661	87.666	-137.561	-133.030	-133.165	-127.821	-90.610	-128.673	-8191	255	
1015.294	1	1	0	0	0.057838	0.25155	0.18182	0.31221	0.0020569	0.18094	0.254	0.083688	0.082246	0.1053	0.12455	0.20959	0.1471	0.16548	0.081601	0.10312	-2.3438	-3.2854	-3.2042	-2.7833	-3.2896	-3	-2.9792	-3.4917	-2.8063	-3.1937	-3.4604	-2.775	-3.4333	-3.0708	-2.8396	-3.5167	-2.822	-142.832	129.647	135.148	180.000	-99.975	204.819	118.137	162.295	137.837	50.962	183.400	120.218	-112.064	122.933	85.381	0.0008632	0.00030375	0.00012038	1133.9	2.6725e-06	5.5566e-06	1148.8	319.84	5.4359e-07	3.4784e-06	366.57	121.5	104.87	36.391	3.0314e-06	45.731	0.00022364	0.00022154	6.161e-05	1090.9	2.4302e-06	2.4247e-06	1104.9	305.39	2.4378e-06	2.4289e-06	330.07	114.01	96.903	34.08	2.4288e-06	42.333	88.324	-5.484	-79.671	-141.673	-20.719	17.742	-141.823	-136.807	191.788	111.016	-137.475	-133.352	-132.877	-127.776	7.633	-128.709	-8191	255	
1015.390	1	1	0	0	0.14942	0.23784	0.096434	0.34768	0.11383	0.042701	0.091241	0.18249	0.14691	0.17471	0.02852	0.16385	0.065193	0.16023	0.26068	0.14556	-2.3667	-2.9188	-3.3646	-2.8438	-3.3521	-3.1875	-2.7667	-3.5854	-2.7542	-2.9896	-3.6417	-2.7062	-3.2562	-3.1542	-2.6542	-3.5792	8.897	21.178	-58.640	166.936	1.381	177.622	-114.319	105.029	5.551	-28.791	98.256	146.518	-104.209	185.581	-38.948	-77.184	0.0011151	0.00045708	3.2047e-05	1130.9	5.2834e-06	2.6575e-06	1149.3	319.57	5.803e-06	5.0164e-06	366.78	121.49	104.92	36.502	3.1894e-06	45.488	0.00022353	0.0002212	6.1568e-05	1090.4	2.424e-06	2.4274e-06	1104.4	305.09	2.4219e-06	2.3973e-06	329.83	113.8	97.013	34.09	2.4125e-06	42.264	82.974	57.329	-49.376	-141.689	-140.866	-80.825	-141.634	-137.008	-87.131	44.099	-137.114	-132.977	-132.669	-128.157	-91.145	-128.975	-8191	255	
1015.486	1	1	0	0	0.15284	0.12853	0.19178	0.23239	0.052122	0.16206	0.24994	0.22999	0.24773	0.27362	0.23514	0.04153	0.12374	0.18445	0.15363	0.17926	-2.3917	-2.7792	-3.3771	-2.9083	-3.1583	-3.2333	-2.7562	-3.575	-2.925	-2.8354	-3.6792	-2.7708	-3.225	-3.3542	-2.7104	-3.4729	41.835	55.965	156.792	204.739	-117.012	143.232	172.699	-101.644	137.882	-147.296	163.855	142.243	188.756	95.950	97.064	84.678	0.0010315	0.00012575	0.00011242	1134.3	5.0506e-06	2.1094e-06	1148	319.55	5.9265e-06	2.7556e-06	366.69	121.31	104.65	36.532	5.2054e-06	45.469	0.00022387	0.00021992	6.1506e-05	1091.5	2.4072e-06	2.3761e-06	1103.8	305.08	2.4016e-06	2.4073e-06	330.2	113.76	96.853	34.115	2.4126e-06	42.343	88.815	47.438	-87.221	-141.583	3.340	-71.170	-142.164	-137.084	73.066	120.590	-137.286	-133.491	-133.229	-127.758	-87.221	-128.807	-8191	255	
1015.582	1	1	0	0	0.07608	0.078188	0.075766	0.33587	0.15635	0.19188	0.13697	0.23631	0.060228	0.030817	0.0084393	0.17853	0.37792	0.2485	0.029954	0.26719	-2.5396	-2.8	-3.5312	-3.0229	-3.0646	-3.3521	-2.7687	-3.525	-3.0396	-2.7479	-3.4604	-2.8208	-2.9083	-3.2375	-2.5604	-3.3167	77.062	-87.844	133.121	88.171	77.104	-78.677	50.352	101.964	60.303	180.816	-9.758	179.281	-80.257	155.796	160.601	136.595	0.00089385	0.00027591	4.3927e-05	1132.2	1.9445e-06	4.9664e-06	1144.8	320.25	5.5877e-06	3.0333e-06	365.64	120.9	105.11	36.707	4.9644e-06	45.652	0.00022059	0.00021822	6.1485e-05	1091.2	2.395e-06	2.3927e-06	1103.7	305.44	2.3957e-06	2.3742e-06	330.25	113.6	97.016	34.172	2.3862e-06	42.337	79.223	172.509	47.340	-141.635	27.935	122.096	-141.852	-136.926	-113.347	-18.613	-137.451	-133.281	-132.637	-127.950	-87.437	-128.661	-8191	255	
1015.679	1	1	0	0	0.21171	0.043259	0.29249	0.17968	0.10753	0.12255	0.1345	0.13353	0.087818	0.080329	0.1106	0.17333	0.1543	0.13751	0.14232	0.060169	-2.7208	-2.5104	-3.3063	-2.85	-3.0229	-3.4792	-2.8083	-3.4396	-2.9938	-2.6667	-3.5396	-2.9625	-2.8771	-3.4062	-2.7188	-3.2417	151.387	-60.085	119.059	-152.349	-130.289	20.561	165.678	159.144	183.934	124.997	-99.953	-80.931	176.420	-136.453	129.952	123.640	0.00068495	0.00041045	2.1955e-05	1133.5	1.6765e-06	3.5515e-06	1149.4	320.22	6.5745e-06	4.4039e-06	366.74	121.7	104.71	36.624	3.1107e-06	45.528	0.00022206	0.00021843	6.0424e-05	1090.7	2.3891e-06	2.3941e-06	1105	305.5	2.3921e-06	2.3883e-06	330.57	113.96	97.038	34.114	2.3732e-06	42.272	77.899	-2.010	154.980	-141.264	28.515	12.238	-141.953	-136.805	4.368	79.558	-137.423	-133.149	-132.804	-127.766	-110.947	-128.725	-8191	255	
1015.799	1	1	0	0	0.13748	0.034008	0.13557	0.01114	0.11802	0.23657	0.3467	0.31287	0.13503	0.078174	0.34777	0.19219	0.34828	0.088091	0.2321	0.17422	-2.9	-2.6354	-3.3208	-3.0396	-2.7104	-3.3271	-2.6437	-3.1333	-3.2896	-2.6417	-3.2188	-3.1146	-2.9125	-3.5	-2.6188	-2.9458	-48.269	127.951	-70.781	-47.567	-11.130	6.404	171.386	157.190	177.283	-118.835	159.594	147.372	-105.697	-28.193	5.401	-107.855	0.001042	0.0001551	0.00012059	1132.7	1.7206e-06	2.098e-06	1140.9	320.71	3.8313e-06	3.4259e-06	366.68	121.26	105.31	36.71	6.9478e-06	45.76	0.00021917	0.00021654	6.0135e-05	1089.8	2.3507e-06	2.3457e-06	1102.6	305.43	2.3751e-06	2.3665e-06	330.27	113.78	97.175	34.119	2.3877e-06	42.395	97.465	107.748	197.738	-141.566	62.651	25.839	-141.627	-137.014	-41.132	-68.711	-137.023	-133.415	-132.813	-127.773	-26.377	-128.296	-8191	255	
1015.895	1	1	0	0	0.20366	0.09581	0.10019	0.13978	0.13646	0.13891	0.12171	0.15763	0.31952	0.078648	0.35418	0.16446	0.17236	0.14222	0.07303	0.1206	-3.0167	-2.4979	-3.2396	-3.3438	-2.6229	-3.4458	-2.9979	-3.1625	-3.3937	-2.6688	-3.3292	-3.3063	-2.7375	-3.4042	-2.8604	-3.0625	-1.798	-121.147	-118.363	-149.882	-129.418	51.278	-97.481	-103.400	137.032	18.746	116.264	144.073	152.013	107.946	194.335	-121.311	0.00089106	0.00052509	0.00013269	1135.9	3.2651e-06	3.179e-06	1146.2	320.76	1.2531e-06	2.2641e-06	367.7	121.46	105.24	36.466	5.3509e-06	45.703	0.00021785	0.00021584	6.0069e-05	1091.9	2.3804e-06	2.3895e-06	1102.7	305.53	2.3673e-06	2.3743e-06	329.72	113.82	97	34.062	2.3715e-06	42.285	100.644	-60.950	130.586	-141.415	199.033	-49.218	-141.675	-136.492	-63.097	63.292	-137.216	-132.682	-132.491	-127.632	-29.009	-128.537	-8191	255	
1015.992	1	1	0	0	0.15993	0.15228	0.06697	0.25669	0.29034	0.15577	0.15459	0.13657	0.10125	0.0241	0.23181	0.30803	0.25851	0.048314	0.056862	0.31478	-2.9521	-2.4771	-3.0229	-3.2417	-2.6604	-3.4083	-3.0438	-2.9188	-3.2687	-2.6917	-3.0896	-3.4313	-2.7042	-3.4979	-2.8604	-3.1396	45.983	-67.723	-98.618	122.602	-10.711	-60.624	152.494	137.286	131.276	-101.067	186.549	-140.019	139.488	-58.940	108.335	152.504	0.0013432	0.00032962	0.00012847	1137.3	9.0005e-07	4.1552e-06	1146.4	320.08	2.0125e-06	3.0609e-06	368.34	121.1	104.71	36.743	1.6294e-06	45.838	0.00021892	0.0002172	6.078e-05	1092.9	2.3825e-06	2.3808e-06	1103.7	305.27	2.3776e-06	2.3868e-06	330.58	113.76	97.079	34.176	2.366e-06	42.254	90.836	-83.187	5.936	-141.487	-26.399	-4.402	-141.935	-136.647	-11.213	79.132	-137.333	-132.828	-132.663	-127.824	155.326	-128.531	-8191	255	
1016.088	1	1	0	0	0.12031	0.076851	0.17978	0.18188	0.21922	0.065981	0.32232	0.25339	0.11178	0.26396	0.22212	0.19205	0.23461	0.088881	0.34602	0.034047	-3.0542	-2.7667	-3.0354	-3.3354	-2.4229	-3.3958	-3.2062	-2.8854	-3.5125	-2.6771	-2.9521	-3.3646	-2.8667	-3.4437	-3.0354	-2.7229	87.268	-71.619	124.193	-113.239	-112.505	114.826	135.443	143.725	154.294	184.577	146.049	148.556	-148.253	156.441	-13.542	168.775	0.00097251	0.00036833	5.3817e-05	1133	1.7396e-06	4.3733e-06	1137.1	320.41	1.6796e-06	3.1104e-06	368.93	121.66	105.69	36.663	2.4849e-06	45.489	0.00022006	0.00021776	6.062e-05	1090.2	2.3741e-06	2.3763e-06	1101.2	305.28	2.3704e-06	2.3718e-06	329.99	113.82	97.101	34.074	2.3907e-06	42.266	95.579	-40.658	119.050	-141.255	-48.558	-2.513	-141.827	-136.373	126.786	-5.901	-137.018	-133.028	-132.588	-127.417	-26.359	-128.780	-8191	255	
1016.184	1	1	0	0	0.15729	0.20823	0.10194	0.044539	0.38212	0.24114	0.29466	0.27393	0.19487	0.069758	0.13641	0.1186	0.18911	0.22105	0.29177	0.019248	-3.0479	-2.6125	-2.7458	-3.3438	-2.6375	-3.2104	-3.1354	-2.7792	-3.45	-2.9813	-2.9146	-3.5042	-2.7938	-3.2188	-3.1854	-2.9146	62.003	-68.507	-143.892	-13.928	-119.376	-6.268	114.563	128.989	-129.290	-77.086	196.111	179.069	194.961	62.300	179.191	-39.113	0.0010795	0.0001492	4.1615e-05	1133	3.9417e-06	3.5342e-06	1141.4	319.99	3.5704e-06	6.0569e-06	366.62	121.21	104.45	36.655	4.612e-06	45.759	0.00022042	0.00021861	6.0994e-05	1091.1	2.4009e-06	2.3844e-06	1104.3	305.16	2.4155e-06	2.3846e-06	329.78	113.74	96.709	34.078	2.3774e-06	42.3	106.212	-88.356	29.740	-141.233	-76.819	35.847	-141.683	-136.578	10.312	79.317	-137.142	-133.030	-132.487	-127.494	-115.227	-128.928	-8191	255	
1016.278	1	1	0	0	0.21583	0.12538	0.090106	0.025289	0.12013	0.19753	0.23348	0.10569	0.24979	0.17374	0.1527	0.24919	0.11439	0.14407	0.19715	0.33606	-3.0646	-2.9833	-2.725	-3.6354	-2.5646	-3.2229	-3.3125	-2.7354	-3.4771	-2.9813	-2.8208	-3.275	-2.7687	-2.8958	-3.2542	-2.675	50.667	-10.398	-65.234	2.723	140.688	175.296	63.667	59.759	123.372	-94.853	-59.111	11.398	105.700	126.646	-23.254	111.963	0.00097881	0.00037902	7.0018e-05	1135.4	3.4352e-06	5.4608e-07	1141	320.54	9.0699e-07	1.7652e-06	367.07	121.4	105.44	36.699	8.2029e-06	45.646	0.00022034	0.0002173	6.0389e-05	1091.5	2.3777e-06	2.3718e-06	1102.1	305.5	2.3669e-06	2.3638e-06	329.61	113.81	97.021	34.109	2.3488e-06	42.266	90.112	-45.014	152.135	-141.289	-99.096	97.397	-141.828	-136.547	-6.725	144.246	-137.103	-132.950	-133.024	-127.383	-112.145	-128.552	-8191	255	
1016.399	1	1	0	0	0.1232	0.1238	0.57314	0.26968	0.086963	0.25555	0.29875	0.27947	0.2533	0.056491	0.20331	0.25293	0.052996	0.19628	0.20985	0.23373	-2.8937	-2.9833	-2.4396	-3.6958	-2.9271	-3.0854	-3.5875	-2.8021	-3.2458	-3.2271	-2.9875	-3.6917	-2.8417	-2.9979	-3.4292	-2.7812	121.313	-79.743	26.653	164.030	80.601	126.586	187.543	-119.452	-151.287	110.626	135.043	174.342	120.969	130.085	65.150	201.180	0.0012023	0.00012737	7.5506e-05	1135.5	3.4876e-06	2.0987e-06	1149.6	320.46	5.6824e-06	6.2518e-06	367.07	121.32	104.74	36.706	1.4981e-06	45.839	0.00021855	0.0002133	5.9871e-05	1091.7	2.3676e-06	2.3656e-06	1103.9	305.43	2.373e-06	2.3606e-06	329.39	113.81	96.95	34.183	2.3579e-06	42.29	84.219	-18.094	51.691	-141.286	-31.167	102.194	-142.043	-136.599	-16.585	19.420	-137.534	-133.191	-132.790	-127.557	37.734	-129.016	-8191	255	
1016.495	1	1	0	0	0.24586	0.11475	0.20951	0.22102	0.22449	0.06939	0.31997	0.031203	0.22348	0.24543	0.2364	0.28027	0.16606	0.098715	0.083625	0.20237	-2.7375	-3.1083	-2.6396	-3.6417	-2.7375	-2.8	-3.6292	-2.8354	-3.025	-3.0604	-2.7875	-3.3312	-2.975	-2.6979	-3.525	-2.8042	-74.253	7.707	111.034	146.439	-38.943	-153.169	125.082	-148.249	-60.969	65.745	74.053	89.075	62.893	94.513	-139.404	128.400	0.00073918	0.00037327	8.5765e-05	1137.9	3.7656e-06	4.7165e-06	1151.3	320.5	6.9801e-07	2.7933e-06	366.6	121.49	105.26	36.521	2.2533e-06	45.621	0.00021903	0.00021394	6.0184e-05	1091.8	2.3552e-06	2.3679e-06	1105.1	305.58	2.3713e-06	2.3364e-06	329.44	113.96	97.08	34.146	2.3422e-06	42.327	86.079	-21.716	-95.198	-141.529	-44.973	3.004	-141.745	-136.657	-24.238	35.966	-137.130	-132.814	-132.803	-127.937	-93.042	-128.789	-8191	255	
1016.591	1	1	0	0	0.14881	0.090253	0.37335	0.34417	0.17678	0.074899	0.14973	0.22929	0.081219	0.072158	0.13204	0.064514	0.22293	0.1454	0.27923	0.077935	-2.7167	-3.3667	-2.4125	-3.4083	-3.0229	-2.7521	-3.5229	-2.7708	-2.9979	-3.1813	-2.7417	-3.3083	-3.0521	-2.7208	-3.4125	-2.8271	-56.881	166.581	-104.960	62.673	-65.854	202.568	123.359	115.887	-154.157	99.719	60.820	-75.546	199.074	-64.486	43.430	86.692	0.00080426	0.00042909	2.3221e-05	1135.5	1.7673e-06	7.3679e-07	1147.1	319.93	2.6995e-06	1.8268e-06	366.53	122.61	105.18	36.652	3.67e-06	45.547	0.00021771	0.00021357	5.9802e-05	1092.4	2.3559e-06	2.3454e-06	1103.1	305.33	2.3591e-06	2.3359e-06	329.98	114.15	97.078	34.152	2.3663e-06	42.298	92.745	-95.298	-130.854	-141.441	7.261	54.795	-141.946	-136.974	56.265	131.810	-137.566	-133.359	-133.028	-127.817	-83.068	-129.219	-8191	255	
1016.687	1	1	0	0	0.18442	0.1523	0.10157	0.15461	0.18707	0.2201	0.18077	0.27185	0.060998	0.11227	0.15986	0.10278	0.16901	0.16852	0.2207	0.15604	-2.4042	-3.2542	-2.5042	-3.2542	-3.0708	-2.5292	-3.6021	-2.9229	-2.9896	-3.3083	-2.7375	-3.2333	-3.1417	-2.55	-3.2896	-2.8646	115.492	154.910	191.802	-147.187	115.802	4.007	203.573	196.871	-135.542	6.843	101.494	-14.033	114.537	-95.473	60.070	27.611	0.00069183	0.00016141	8.2464e-05	1139	2.6116e-06	3.553e-06	1151.1	320.36	5.278e-06	3.395e-06	367.56	122.04	105.04	36.645	5.7321e-06	45.623	0.00021978	0.00021468	5.9774e-05	1092.1	2.3514e-06	2.3449e-06	1104.5	305.62	2.3582e-06	2.3543e-06	329.91	113.9	97.005	34.156	2.3582e-06	42.285	88.167	-18.182	-134.105	-141.534	16.603	79.296	-141.906	-136.980	-55.880	47.668	-137.799	-133.380	-133.168	-128.061	14.274	-129.364	-8191	255	
1016.783	1	1	0	0	0.15811	0.14011	0.17987	0.32106	0.07176	0.22162	0.29206	0.24038	0.025799	0.056284	0.1464	0.13698	0.10243	0.17403	0.055102	0.17153	-2.5	-3.2854	-2.5896	-3.2896	-3.0833	-2.5938	-3.3729	-2.9708	-2.6958	-3.4125	-2.8	-3.075	-3.4292	-2.6437	-3.2812	-3.125	0.810	-42.496	-39.889	131.828	118.552	77.075	195.288	143.340	155.976	-53.441	139.585	153.085	88.771	168.858	31.351	136.553	0.00099396	0.00023536	7.777e-05	1133.4	2.1141e-06	5.5226e-07	1147.4	320.14	5.6302e-06	1.8444e-06	365.5	121.86	105.12	36.66	1.5285e-06	45.802	0.00021782	0.00021589	5.989e-05	1090.9	2.3737e-06	2.3592e-06	1104.2	305.32	2.371e-06	2.355e-06	329.91	113.95	96.935	34.114	2.3555e-06	42.282	91.406	19.038	83.201	-141.360	-64.383	-59.827	-142.016	-136.963	-12.465	202.786	-137.921	-133.182	-132.949	-128.349	-30.269	-129.055	-8191	255	
#DATA ENDS
