BOXY.EXE: ISS Imagent and Oximeter Data Acquisition Program Version 0.80
Ascii Record File

#ACQ INFORMATION
2  Detector Channels 
16  External MUX Channels 
1  Auxiliary Channels 
5000  Waveform (CCF) Frequency (Hz)
1  Waveforms Skipped 
30  Waveforms Averaged 
1  Cycles Averaged 
16  Acquisitions per Waveform 
10.0806  Updata Rate (Hz) 

#FILE INFORMATION
TRUE -- External MUX Channel results are PARSED.
FALSE -- AC DC and Phase are NOT grouped.
TRUE -- Companion Program Settings File CREATED.
FALSE -- AC data not excluded
FALSE -- DC data not excluded
FALSE -- Phase data not excluded
FALSE -- Auxillary Chn. data not excluded
Tab delimiters

#CALIBRATION STATE
TRUE -- Waveform Calibration Values APPLIED.


#AUX CALIBRATION VALUES
Val Type	aux-1	

Term	1.0000e+00	
Factor	0.0000e+00	


#WF CALIBRATION VALUES
A = Detector Channel
Val Type	A-AC1	A-AC2	A-AC3	A-AC4	A-AC5	A-AC6	A-AC7	A-AC8	A-AC9	A-AC10	A-AC11	A-AC12	A-AC13	A-AC14	A-AC15	A-AC16	A-DC1	A-DC2	A-DC3	A-DC4	A-DC5	A-DC6	A-DC7	A-DC8	A-DC9	A-DC10	A-DC11	A-DC12	A-DC13	A-DC14	A-DC15	A-DC16	A-Ph1	A-Ph2	A-Ph3	A-Ph4	A-Ph5	A-Ph6	A-Ph7	A-Ph8	A-Ph9	A-Ph10	A-Ph11	A-Ph12	A-Ph13	A-Ph14	A-Ph15	A-Ph16	

Term	0.00000e+00	0.00000e+00	0.00000e+00	0.00000e+00	0.00000e+00	0.00000e+00	0.00000e+00	0.00000e+00	0.00000e+00	0.00000e+00	0.00000e+00	0.00000e+00	0.00000e+00	0.00000e+00	0.00000e+00	0.00000e+00	0.00000e+00	0.00000e+00	0.00000e+00	0.00000e+00	0.00000e+00	0.00000e+00	0.00000e+00	0.00000e+00	0.00000e+00	0.00000e+00	0.00000e+00	0.00000e+00	0.00000e+00	0.00000e+00	0.00000e+00	0.00000e+00	0.00000e+00	0.00000e+00	0.00000e+00	0.00000e+00	0.00000e+00	0.00000e+00	0.00000e+00	0.00000e+00	0.00000e+00	0.00000e+00	0.00000e+00	0.00000e+00	0.00000e+00	0.00000e+00	0.00000e+00	0.00000e+00	
Factor	1.00000e+00	1.00000e+00	1.00000e+00	1.00000e+00	1.00000e+00	1.00000e+00	1.00000e+00	1.00000e+00	1.00000e+00	1.00000e+00	1.00000e+00	1.00000e+00	1.00000e+00	1.00000e+00	1.00000e+00	1.00000e+00	1.00000e+00	1.00000e+00	1.00000e+00	1.00000e+00	1.00000e+00	1.00000e+00	1.00000e+00	1.00000e+00	1.00000e+00	1.00000e+00	1.00000e+00	1.00000e+00	1.00000e+00	1.00000e+00	1.00000e+00	1.00000e+00	X	X	X	X	X	X	X	X	X	X	X	X	X	X	X	X	

B = Detector Channel
Val Type	B-AC1	B-AC2	B-AC3	B-AC4	B-AC5	B-AC6	B-AC7	B-AC8	B-AC9	B-AC10	B-AC11	B-AC12	B-AC13	B-AC14	B-AC15	B-AC16	B-DC1	B-DC2	B-DC3	B-DC4	B-DC5	B-DC6	B-DC7	B-DC8	B-DC9	B-DC10	B-DC11	B-DC12	B-DC13	B-DC14	B-DC15	B-DC16	B-Ph1	B-Ph2	B-Ph3	B-Ph4	B-Ph5	B-Ph6	B-Ph7	B-Ph8	B-Ph9	B-Ph10	B-Ph11	B-Ph12	B-Ph13	B-Ph14	B-Ph15	B-Ph16	

Term	0.00000e+00	0.00000e+00	0.00000e+00	0.00000e+00	0.00000e+00	0.00000e+00	0.00000e+00	0.00000e+00	0.00000e+00	0.00000e+00	0.00000e+00	0.00000e+00	0.00000e+00	0.00000e+00	0.00000e+00	0.00000e+00	0.00000e+00	0.00000e+00	0.00000e+00	0.00000e+00	0.00000e+00	0.00000e+00	0.00000e+00	0.00000e+00	0.00000e+00	0.00000e+00	0.00000e+00	0.00000e+00	0.00000e+00	0.00000e+00	0.00000e+00	0.00000e+00	-2.40346e+02	-8.60789e+01	-1.37580e+02	-1.81794e+02	-9.56072e+01	-6.15362e+01	-1.55227e+02	-1.62015e+02	-7.62495e+01	-2.08821e+01	-1.76015e+02	-1.69664e+02	-1.83008e+02	-1.76920e+02	-1.10967e+02	-1.49451e+02	
Factor	4.41567e-05	7.28733e-05	1.84622e-05	1.45759e-01	5.45265e-07	6.77868e-07	1.58711e-01	4.73567e-02	6.69312e-07	6.60670e-07	1.20289e-01	2.57934e-02	2.57211e-02	8.47169e-03	7.26230e-07	1.17836e-02	2.97384e-07	2.98781e-07	8.31620e-08	7.06932e-02	3.27491e-09	3.27375e-09	7.22083e-02	2.26007e-02	3.28093e-09	3.27436e-09	4.87179e-02	1.14701e-02	1.15018e-02	3.84075e-03	3.27804e-09	5.10611e-03	X	X	X	X	X	X	X	X	X	X	X	X	X	X	X	X	



#DISTANCE SETTINGS
A = Detector Channel
A-1	A-2	A-3	A-4	A-5	A-6	A-7	A-8	A-9	A-10	A-11	A-12	A-13	A-14	A-15	A-16	

2.5000e+00	3.0000e+00	2.5000e+00	3.0000e+00	2.0000e+00	3.0000e+00	1.5000e+00	3.0000e+00	3.0000e+00	3.0000e+00	3.0000e+00	3.0000e+00	3.0000e+00	3.0000e+00	1.5000e+00	3.0000e+00	

B = Detector Channel
B-1	B-2	B-3	B-4	B-5	B-6	B-7	B-8	B-9	B-10	B-11	B-12	B-13	B-14	B-15	B-16	

1.0000e+01	1.0000e+01	1.0000e+01	1.4400e+00	1.0000e+01	1.0000e+01	1.5100e+00	1.9400e+00	1.0000e+01	1.0000e+01	1.9900e+00	2.4900e+00	2.4100e+00	2.9000e+00	1.0000e+01	2.9800e+00	




#DATA BEGINS
time	group	step	mark	flag	A-AC1	A-AC2	A-AC3	A-AC4	A-AC5	A-AC6	A-AC7	A-AC8	A-AC9	A-AC10	A-AC11	A-AC12	A-AC13	A-AC14	A-AC15	A-AC16	A-DC1	A-DC2	A-DC3	A-DC4	A-DC5	A-DC6	A-DC7	A-DC8	A-DC9	A-DC10	A-DC11	A-DC12	A-DC13	A-DC14	A-DC15	A-DC16	A-Ph1	A-Ph2	A-Ph3	A-Ph4	A-Ph5	A-Ph6	A-Ph7	A-Ph8	A-Ph9	A-Ph10	A-Ph11	A-Ph12	A-Ph13	A-Ph14	A-Ph15	A-Ph16	B-AC1	B-AC2	B-AC3	B-AC4	B-AC5	B-AC6	B-AC7	B-AC8	B-AC9	B-AC10	B-AC11	B-AC12	B-AC13	B-AC14	B-AC15	B-AC16	B-DC1	B-DC2	B-DC3	B-DC4	B-DC5	B-DC6	B-DC7	B-DC8	B-DC9	B-DC10	B-DC11	B-DC12	B-DC13	B-DC14	B-DC15	B-DC16	B-Ph1	B-Ph2	B-Ph3	B-Ph4	B-Ph5	B-Ph6	B-Ph7	B-Ph8	B-Ph9	B-Ph10	B-Ph11	B-Ph12	B-Ph13	B-Ph14	B-Ph15	B-Ph16	aux-1	digaux	

1083.648	1	1	0	768	0.27703	0.086208	0.030005	0.23488	0.15493	0.23326	0.23485	0.10647	0.063873	0.080548	0.26295	0.1426	0.13426	0.21493	0.077787	0.22506	-2.6729	-3.3312	-2.7	-3.3917	-3.3083	-2.8812	-3.4562	-3.075	-2.8854	-3.4354	-2.6917	-3.1542	-3.3375	-2.6104	-3.4875	-2.8708	168.340	115.001	212.987	176.124	2.866	154.796	173.225	183.689	214.513	207.716	192.596	-112.811	148.745	100.802	206.300	207.450	0.00092824	0.00071475	3.8712e-05	1238.6	2.9871e-06	4.9042e-06	1251.9	352.22	6.1212e-06	9.2339e-07	398.95	131.73	114.5	39.05	7.5427e-06	47.948	0.00027333	0.00026891	7.5131e-05	1197.2	2.9307e-06	2.9535e-06	1210.9	336.8	2.9591e-06	2.9697e-06	364.15	124.81	106.81	36.799	2.9608e-06	45.309	98.703	-17.774	155.534	-129.344	-104.095	9.843	-130.063	-125.417	-49.366	-139.075	-125.567	-121.638	-121.418	-115.961	-67.486	-117.445	-8191	255	
1083.744	1	1	0	0	0.076312	0.31604	0.14834	0.20284	0.018111	0.044328	0.12599	0.069353	0.078709	0.16741	0.14056	0.17433	0.23868	0.2015	0.063857	0.1712	-2.5438	-3.3958	-2.5792	-3.4021	-3.1625	-2.5979	-3.6042	-3.1333	-2.7958	-3.5125	-2.7812	-3.175	-3.2604	-2.7542	-3.425	-2.9604	21.389	70.062	89.213	102.679	-93.321	-68.361	152.905	196.401	36.501	49.230	-1.009	92.498	143.970	-58.016	80.506	98.221	0.00092476	0.00034632	8.5299e-05	1239.5	1.1537e-06	2.4876e-06	1252.7	350.24	1.5032e-06	6.8845e-06	397.3	132.46	114.22	39.035	6.3524e-06	48.397	0.00027421	0.00026952	7.5404e-05	1199.3	2.983e-06	2.9565e-06	1210.2	336.88	2.9653e-06	2.9662e-06	364.15	125.13	106.86	36.796	2.9837e-06	45.329	104.595	-56.585	122.927	-129.742	35.687	-39.621	-130.255	-125.530	60.369	44.746	-125.644	-121.164	-121.520	-116.467	-74.517	-117.496	-8191	255	
1083.842	1	1	0	0	0.20534	0.2401	0.34507	0.2429	0.22581	0.077485	0.037749	0.17556	0.18033	0.12173	0.19787	0.20694	0.19366	0.094325	0.20502	0.36237	-2.4271	-3.3438	-2.7313	-3.1229	-3.4771	-2.5979	-3.5312	-3.3187	-2.725	-3.5271	-2.8688	-3.0625	-3.5354	-2.3875	-3.2854	-3.1937	-102.075	168.144	-19.314	161.155	118.824	100.883	159.634	184.306	130.869	116.909	-79.229	-133.916	-75.092	-108.268	-141.615	177.918	0.0011421	0.00037663	8.4858e-05	1240.5	2.9829e-06	4.6327e-06	1247.6	351	3.398e-06	1.8374e-06	398.7	131.95	114.09	38.891	1.8495e-06	48.283	0.00027522	0.00026999	7.5044e-05	1199.5	2.9613e-06	2.9572e-06	1209.3	336.51	2.9501e-06	2.941e-06	363.7	124.72	106.6	36.743	2.9376e-06	45.391	83.323	-12.457	-88.917	-129.660	-15.350	87.018	-130.165	-125.397	20.388	183.437	-125.954	-121.682	-121.377	-116.376	80.803	-117.141	-8191	255	
1083.938	1	1	0	0	0.10283	0.067987	0.020151	0.023719	0.075536	0.13994	0.20788	0.27261	0.42131	0.084047	0.23836	0.18855	0.065922	0.33229	0.16827	0.11962	-2.225	-3.3292	-2.7708	-2.9708	-3.4375	-2.6625	-3.3521	-3.2396	-2.6667	-3.3896	-2.9125	-2.9042	-3.6063	-2.9229	-3.1583	-3.4896	54.488	155.289	-98.682	-127.294	106.511	-15.950	187.958	83.325	5.861	-2.973	121.673	175.866	-0.106	149.717	-40.646	-131.329	0.0011772	0.00027451	3.985e-05	1237.4	4.6669e-06	4.1042e-07	1248.4	348.62	2.6304e-06	3.5715e-06	397.65	131.42	113.88	38.876	1.0351e-06	48.403	0.00027211	0.00026754	7.4511e-05	1197.5	2.9558e-06	2.9244e-06	1209.1	335.78	2.9847e-06	2.9744e-06	363.5	124.84	106.87	36.771	3.0355e-06	45.427	94.374	-141.274	105.341	-129.914	-89.764	-99.323	-130.337	-125.157	-64.063	61.408	-125.948	-121.672	-121.220	-116.353	23.607	-117.114	-8191	255	
1084.033	1	1	0	0	0.2113	0.098401	0.1714	0.37463	0.28141	0.34471	0.1015	0.21371	0.20586	0.10524	0.21508	0.18787	0.085702	0.17168	0.068672	0.13326	-2.2708	-3.3667	-2.9313	-2.7375	-3.4833	-2.7979	-3.3479	-3.4562	-2.6021	-3.3583	-3.1146	-2.7896	-3.4521	-2.9604	-3.0771	-3.3646	62.714	118.981	94.487	146.588	162.575	-91.701	211.072	-137.462	123.645	-44.741	92.843	210.411	127.632	75.854	43.843	161.614	0.00076509	0.00029234	8.2325e-05	1237.9	2.1001e-06	1.534e-06	1247.7	350.81	1.8385e-06	3.8234e-06	400.91	131.89	113.79	38.975	4.8452e-06	48.184	0.00027935	0.00027598	7.7187e-05	1198.9	3.04e-06	3.0461e-06	1213.2	337.57	3.0833e-06	3.0615e-06	366.23	125.04	107.14	36.932	3.1039e-06	45.577	103.394	81.702	-35.468	-129.541	-85.730	98.363	-130.395	-125.448	-87.668	113.801	-125.921	-121.501	-121.419	-116.455	6.569	-117.265	-8191	255	
1084.129	1	1	0	0	0.087605	0.15097	0.25466	0.17631	0.12952	0.069828	0.22043	0.25908	0.091823	0.057187	0.17922	0.27738	0.12182	0.12022	0.095127	0.097578	-2.3042	-3.2479	-3.1688	-2.8688	-3.3521	-2.7208	-3.2042	-3.525	-2.5083	-3.2938	-3.2958	-2.5229	-3.5563	-2.7854	-2.6271	-3.5229	152.442	-137.139	117.934	199.043	166.951	-103.504	130.838	193.575	127.789	-29.469	-108.271	215.960	191.307	39.723	-92.034	-96.667	0.00064033	0.0005384	0.00013045	1235.9	1.3428e-06	5.9211e-06	1253.5	350.29	1.3587e-06	5.4227e-06	397.38	130.99	114.72	38.913	4.9396e-06	48.022	0.00028792	0.00028549	7.9858e-05	1201.1	3.1131e-06	3.115e-06	1215.1	337.82	3.1054e-06	3.0844e-06	364.66	124.9	107.08	36.791	3.034e-06	45.433	84.508	-75.292	198.659	-129.958	24.138	-38.047	-130.164	-125.562	-1.117	13.789	-125.859	-121.787	-121.347	-116.429	-123.979	-117.381	-8191	255	
1084.249	1	1	0	0	0.11203	0.021271	0.28432	0.15957	0.045296	0.16798	0.36994	0.30992	0.11642	0.1094	0.23109	0.081877	0.10856	0.24147	0.23692	0.050966	-2.3438	-3.2167	-3.3229	-2.8312	-3.3042	-3.0792	-3.0396	-3.5833	-2.5687	-3.1458	-3.4042	-2.7208	-3.4458	-2.9521	-2.8104	-3.3292	80.033	-133.492	5.801	-124.878	38.267	137.368	127.479	124.772	181.069	102.626	-61.632	-103.627	211.664	189.509	14.276	-91.929	0.0011056	0.00016771	0.00014476	1234.3	3.8756e-06	2.7214e-06	1245	350.24	1.2582e-06	4.6843e-06	398.98	131.01	114.16	38.71	5.2945e-06	47.83	0.00027776	0.00027546	7.5885e-05	1196.7	3.0175e-06	2.9937e-06	1208	336.29	2.9652e-06	2.9577e-06	363.08	124.44	106.55	36.665	2.9339e-06	45.154	94.662	36.859	-37.942	-129.787	-80.075	-45.430	-130.342	-125.305	-32.667	31.902	-126.040	-121.720	-121.313	-116.282	23.571	-117.053	-8191	255	
1084.346	1	1	0	0	0.20622	0.30941	0.077719	0.34792	0.25628	0.12429	0.18897	0.28861	0.33124	0.29926	0.082001	0.10499	0.19418	0.098924	0.13329	0.19611	-2.2833	-2.8792	-3.3667	-2.8563	-3.3542	-3.0333	-2.9062	-3.5729	-2.6604	-3.0062	-3.4896	-2.6646	-3.3979	-3.3146	-2.7896	-3.5125	-142.252	-66.270	147.082	178.588	137.947	154.382	154.349	130.425	-117.612	33.641	21.516	-120.401	173.957	-120.192	-106.696	96.724	0.00063069	0.00050254	3.8819e-05	1232.5	7.79e-06	4.1194e-06	1242.2	349.81	5.6291e-06	5.3361e-07	397.89	131.52	113.22	38.844	7.1806e-06	48.138	0.00026853	0.0002665	7.3573e-05	1191.4	2.9217e-06	2.9039e-06	1203.4	335.68	2.904e-06	2.8944e-06	362.38	124.17	106.1	36.588	2.9295e-06	45.213	101.451	1.790	24.152	-129.856	-33.528	-103.464	-130.391	-125.431	-11.010	-18.904	-126.053	-121.651	-121.321	-116.376	-18.279	-117.248	-8191	255	
1084.442	1	1	0	0	0.21497	0.10781	0.20758	0.22102	0.23416	0.14504	0.08693	0.46486	0.035639	0.086245	0.22704	0.10084	0.14288	0.14663	0.17049	0.097677	-2.3292	-2.8854	-3.4771	-2.7729	-3.2042	-3.1375	-2.7375	-3.5583	-2.9604	-2.7917	-3.6458	-2.8042	-3.3042	-3.3396	-2.6188	-3.5958	63.640	-74.904	-74.922	126.955	109.454	165.643	-115.290	144.965	94.872	-115.080	-120.641	211.241	170.157	145.449	63.356	36.403	0.0008854	0.00072205	2.7296e-05	1232.1	4.3501e-06	1.6879e-06	1238.9	348.61	1.9492e-06	2.8878e-06	394.74	131.25	113.54	38.789	5.0198e-06	48.053	0.00027152	0.00027013	7.4936e-05	1189.7	2.9539e-06	2.9415e-06	1202	335	2.9667e-06	2.9508e-06	361.56	124.04	106.25	36.497	2.9776e-06	45.17	88.180	-21.934	-118.591	-129.894	-37.283	-138.537	-130.164	-125.308	-126.929	191.513	-125.786	-121.929	-121.124	-116.334	15.487	-117.117	-8191	255	
1084.538	1	1	0	0	0.16957	0.13345	0.2178	0.34732	0.061519	0.24237	0.35067	0.39858	0.29272	0.15745	0.28828	0.08407	0.17751	0.16713	0.086396	0.35405	-2.6521	-2.8812	-3.4437	-2.8688	-3.1396	-3.3104	-2.7896	-3.55	-2.9	-2.9208	-3.7313	-2.9562	-3.1437	-3.3708	-2.6667	-3.3667	74.590	62.071	42.802	118.908	-99.758	195.715	185.479	200.759	25.169	176.917	178.134	159.887	23.207	-87.173	188.185	121.312	0.00082842	0.00035372	0.00015577	1228.9	2.5844e-06	2.894e-06	1237.3	348.47	6.4343e-06	2.0704e-06	394.3	130.28	113.74	38.613	5.4919e-06	47.778	0.00027551	0.00027349	7.5875e-05	1190.2	3.001e-06	2.9952e-06	1202.1	335.34	3.0225e-06	3.0141e-06	362.26	124.03	106.36	36.55	3.0195e-06	45.188	68.724	44.043	-74.234	-130.051	-44.144	34.925	-130.192	-125.093	-80.936	-92.944	-125.903	-121.256	-121.018	-115.992	15.186	-117.138	-8191	255	
1084.634	1	1	0	0	0.08475	0.2109	0.084878	0.043899	0.082446	0.097044	0.2889	0.29388	0.039914	0.19131	0.20949	0.072995	0.16273	0.12484	0.34229	0.057988	-2.6875	-2.9208	-3.4229	-2.9313	-2.9271	-3.2917	-2.8812	-3.425	-3.1354	-2.7875	-3.6542	-2.8333	-3.0292	-3.5312	-2.7125	-3.2854	96.694	72.820	157.107	215.073	91.208	-18.169	185.977	133.872	69.515	157.493	164.970	-113.246	203.350	-82.835	76.513	-99.835	0.0011952	0.00018852	0.00016011	1229.9	3.9627e-06	2.3267e-06	1252.2	348.55	2.1533e-06	1.5715e-06	394.78	130.6	113.26	38.571	2.2482e-06	47.96	0.00027889	0.00027536	7.6984e-05	1192.4	3.0051e-06	3.0073e-06	1205.7	335.09	3.0294e-06	3.018e-06	363.34	124.06	106.28	36.464	2.9817e-06	45.151	86.869	-94.693	-57.489	-129.626	-48.691	-126.188	-129.946	-125.095	215.848	79.237	-125.572	-121.495	-121.212	-116.280	-47.944	-116.965	-8191	255	
1084.728	1	1	0	0	0.27527	0.22934	0.1891	0.24241	0.20291	0.18721	0.27707	0.092347	0.24058	0.087382	0.086626	0.075364	0.18185	0.19064	0.11379	0.40672	-2.9688	-2.7458	-3.3937	-3.1396	-2.6354	-3.6146	-2.9021	-3.2792	-3.3312	-2.6667	-3.4188	-3.1229	-2.9104	-3.5417	-2.8958	-3.1354	64.840	-13.275	-123.337	-141.007	103.631	-6.866	100.287	167.352	206.601	-130.003	142.098	-112.568	3.411	186.230	-113.372	123.812	0.00094477	0.0003778	8.4239e-05	1228.1	1.786e-06	2.9716e-06	1240.5	348.05	7.7523e-06	3.1264e-06	396.39	131.06	113.39	38.58	6.3567e-06	47.875	0.00027625	0.00027356	7.5768e-05	1189.6	3.0007e-06	2.9722e-06	1202.3	334.57	2.9545e-06	2.9495e-06	361.64	124.04	106.1	36.454	2.9336e-06	45.044	94.592	-15.459	-66.214	-129.730	131.844	26.472	-130.132	-125.216	-13.915	37.720	-125.490	-121.163	-120.995	-115.933	-48.363	-116.728	-8191	255	
1084.849	1	1	0	0	0.16716	0.074232	0.071385	0.10261	0.13596	0.14979	0.31585	0.30479	0.015702	0.086979	0.2642	0.10692	0.14395	0.50188	0.23	0.21288	-3.0187	-2.6104	-3.2958	-3.3521	-2.6625	-3.5563	-3.0375	-3.1042	-3.3583	-2.7354	-3.4958	-3.3417	-2.8833	-3.4854	-2.8104	-3.1167	72.640	216.518	36.448	177.075	-74.911	-133.331	143.862	206.267	-28.800	168.373	71.010	212.398	193.292	143.565	-10.689	68.002	0.00095089	0.00060815	6.7671e-05	1233.6	3.605e-06	1.9451e-06	1244.6	348.73	6.158e-06	3.4891e-06	396.06	130.86	113.97	38.723	5.2132e-06	48.263	0.00026888	0.00026614	7.4272e-05	1189.4	2.9008e-06	2.9062e-06	1200.8	334.31	2.8853e-06	2.8743e-06	361.52	123.61	105.97	36.471	2.8968e-06	45.086	95.363	-33.026	-12.074	-129.205	-10.528	-49.933	-129.833	-124.766	-60.570	82.678	-125.329	-121.373	-120.662	-116.033	-67.005	-116.885	-8191	255	
1084.945	1	1	0	0	0.41213	0.1444	0.17645	0.28842	0.29583	0.061728	0.13646	0.023936	0.20097	0.088962	0.15397	0.14634	0.069755	0.084639	0.27087	0.14509	-3.0167	-2.7438	-3.1854	-3.4104	-2.6021	-3.4479	-3.1521	-3.0229	-3.5	-2.7896	-3.175	-3.5187	-2.7188	-3.4375	-2.9729	-2.8521	-4.217	-134.329	-96.839	167.402	137.737	48.938	151.672	39.936	-111.213	79.853	-45.975	140.323	126.752	-10.718	55.500	213.652	0.00089631	0.000723	0.000189	1229.4	4.2025e-06	4.7267e-06	1240.1	348.37	1.8421e-06	2.7678e-06	397.1	130.94	113.45	38.69	2.3591e-06	47.838	0.0002665	0.00026365	7.3352e-05	1186.8	2.9078e-06	2.8978e-06	1200.4	334.28	2.9422e-06	2.9403e-06	361.69	123.93	106.04	36.522	2.9584e-06	45.179	91.079	-27.295	-69.578	-129.582	153.019	-134.925	-130.293	-125.213	28.232	76.585	-125.488	-121.289	-121.194	-116.235	-29.028	-117.126	-8191	255	
1085.041	1	1	0	0	0.1518	0.096452	0.06393	0.1954	0.15139	0.13588	0.17648	0.15928	0.20785	0.08045	0.19126	0.31322	0.14903	0.13228	0.30421	0.21841	-3.1146	-2.7667	-2.9062	-3.3083	-2.4375	-3.4083	-3.4	-3.0604	-3.3583	-2.7646	-3.2021	-3.3833	-2.6688	-3.3458	-3.1083	-2.7875	-139.636	-70.487	43.019	-129.190	-48.551	-115.195	173.489	28.254	-3.274	173.100	172.224	151.194	163.194	133.436	192.806	83.130	0.0010451	0.00089329	7.4942e-05	1227.1	6.9342e-07	5.415e-06	1243	347.16	5.4969e-06	4.2545e-06	396.49	131.07	113.12	38.644	5.6742e-06	48.27	0.00027382	0.0002713	7.5526e-05	1188	2.9833e-06	2.982e-06	1206.1	334.56	3.0021e-06	2.9784e-06	362.71	123.85	106.04	36.521	2.9925e-06	45.316	88.470	-86.675	-76.093	-129.669	183.608	77.970	-130.036	-125.004	-91.008	-1.347	-125.634	-121.554	-120.710	-116.028	-35.191	-116.576	-8191	255	
1085.138	1	1	0	0	0.040358	0.22682	0.12707	0.22416	0.20862	0.17286	0.16601	0.12931	0.33388	0.081227	0.23828	0.1727	0.17891	0.21871	0.085059	0.11664	-3.0521	-2.6583	-2.9167	-3.4854	-2.6562	-3.4708	-3.3333	-2.7104	-3.3875	-2.8187	-3.0708	-3.6479	-2.8063	-3.3458	-3.1688	-2.7146	-67.845	-18.449	50.873	168.747	72.249	79.937	127.362	180.687	41.519	80.885	-119.767	168.950	145.092	211.870	26.300	55.173	0.00075058	0.00010302	0.00014525	1232.9	3.6326e-06	7.809e-06	1249	349.41	3.3638e-06	7.8082e-06	397.38	130.82	113.37	38.588	2.5483e-06	48.351	0.00027593	0.00027294	7.6464e-05	1192.1	2.9984e-06	2.975e-06	1206.8	334.89	2.9955e-06	2.9891e-06	362.74	124.32	105.94	36.551	2.979e-06	45.197	85.773	27.221	-22.480	-129.226	-11.235	70.795	-129.015	-124.368	45.347	65.642	-125.135	-121.103	-120.893	-115.382	-41.623	-116.876	-8191	255	
1085.209	1	1	0	0	0.034663	0.12017	0.087642	0.48861	0.1055	0.15424	0.25738	0.17817	0.11025	0.088255	0.14217	0.081862	0.17964	0.43118	0.29458	0.41465	-3.0917	-2.95	-2.7188	-3.575	-2.6208	-3.1437	-3.2354	-2.5458	-3.3646	-3.0062	-2.8833	-3.5563	-2.8667	-3.1042	-3.2104	-2.725	-15.381	-78.092	186.700	178.394	36.847	112.735	183.971	170.900	-111.018	-68.298	137.525	97.162	134.886	102.136	-129.213	181.404	0.00064661	0.00046046	0.00017005	1235.4	1.2971e-06	2.9389e-06	1245	348.6	2.9152e-06	3.142e-06	398.68	130.82	112.82	38.561	3.6709e-06	48.236	0.00027473	0.00027006	7.5691e-05	1192	2.9708e-06	2.9711e-06	1205.4	334.78	2.9575e-06	2.9539e-06	362.75	124.05	105.95	36.505	2.9628e-06	45.241	100.533	48.911	-105.793	-129.346	47.354	-93.707	-129.685	-124.850	-57.865	48.122	-124.957	-121.124	-120.810	-115.645	-50.726	-116.659	-8191	255	
1085.330	1	1	0	0	0.14782	0.29932	0.22413	0.19922	0.29916	0.25243	0.20515	0.15932	0.092715	0.054492	0.18931	0.073744	0.45839	0.3938	0.18473	0.19509	-2.9417	-2.9458	-2.8396	-3.625	-2.7646	-3.0542	-3.6063	-2.8042	-3.3521	-3.2167	-2.9	-3.4854	-2.8729	-2.9813	-3.3667	-2.8	203.067	77.600	-107.533	173.574	95.173	-4.656	156.337	145.597	-0.360	97.380	-111.797	86.864	166.364	95.834	58.343	-141.571	0.00059629	0.0010043	0.0001257	1234	3.9622e-06	4.7527e-06	1249.5	349.58	3.7019e-06	5.9304e-06	397.13	130.6	113.75	38.787	2.7193e-06	48.118	0.00027412	0.00026806	7.482e-05	1192.1	2.9529e-06	2.9487e-06	1206.3	335.19	2.9687e-06	2.9631e-06	362.98	124.24	106.17	36.594	2.9683e-06	45.204	87.181	36.069	-91.600	-129.153	-17.208	-23.575	-129.520	-124.720	206.490	-9.160	-125.172	-121.026	-120.747	-115.503	185.629	-116.754	-8191	255	
1085.426	1	1	0	0	0.20196	0.014922	0.21693	0.20284	0.22212	0.2263	0.21977	0.13724	0.068851	0.079116	0.12853	0.23355	0.17674	0.27295	0.11337	0.33651	-2.8479	-3.0146	-2.575	-3.6083	-2.85	-2.8354	-3.5438	-2.8229	-3.0396	-3.3875	-2.8042	-3.5104	-3.0729	-2.9208	-3.4313	-2.6896	-106.298	-123.315	82.539	142.582	98.171	-23.904	163.835	128.272	133.608	-31.088	73.806	20.953	198.426	199.879	-133.905	114.644	0.001149	0.00057815	0.00020113	1232.8	6.5664e-07	4.8802e-06	1245.9	349.03	5.2445e-06	2.7851e-06	397.2	131.83	113.11	38.642	3.4561e-06	48.206	0.00027542	0.00027151	7.5586e-05	1191.4	2.9806e-06	2.977e-06	1206.3	335.3	2.9403e-06	2.9593e-06	362.09	124.38	106.26	36.602	2.9752e-06	45.242	94.783	71.294	-92.058	-129.002	171.479	-23.429	-129.616	-124.920	-124.480	123.560	-124.906	-120.840	-120.614	-115.298	-62.009	-116.238	-8191	255	
1085.522	1	1	0	0	0.046796	0.078863	0.13376	0.21124	0.15088	0.14266	0.23511	0.21204	0.18271	0.1634	0.18887	0.24258	0.166	0.13404	0.064778	0.19537	-2.6375	-3.2083	-2.525	-3.3521	-2.9792	-2.9229	-3.7062	-2.8375	-3.0792	-3.3187	-2.6771	-3.2667	-3.0771	-2.7917	-3.4437	-2.9833	210.737	31.613	67.841	198.908	168.929	127.200	-120.299	171.994	85.614	153.567	145.175	137.289	192.720	-126.963	217.266	181.782	0.00096645	0.0003246	6.6989e-05	1233	3.5751e-06	6.8112e-06	1247.3	348.66	2.7958e-06	4.2898e-06	396.11	131.46	113.26	38.674	5.1436e-06	48.127	0.00027389	0.00027122	7.531e-05	1192.6	2.9678e-06	2.9659e-06	1206.7	335.29	2.9949e-06	2.9741e-06	363.27	124.41	106.07	36.544	2.997e-06	45.163	108.356	-9.461	-67.391	-129.137	67.868	11.017	-129.023	-124.532	13.184	32.508	-124.954	-120.574	-120.608	-115.916	-94.886	-116.624	-8191	255	
1085.643	1	1	0	0	0.075944	0.15731	0.10738	0.19011	0.187	0.078858	0.39041	0.19577	0.032561	0.23545	0.088714	0.29025	0.059488	0.15214	0.13951	0.19316	-2.4146	-3.4875	-2.7167	-3.575	-3	-2.8	-3.7167	-3.0458	-2.9562	-3.55	-2.9146	-3.2208	-3.2375	-2.7729	-3.3271	-2.9813	-47.406	71.076	-18.704	-139.548	105.174	-111.468	161.645	205.582	-98.717	187.902	210.063	-75.581	-76.437	-48.356	-44.302	-66.019	0.0007628	0.00016563	0.00014949	1234.6	3.6665e-06	2.5698e-06	1247.2	350.3	3.3611e-06	6.8219e-06	397.9	130.45	113.54	38.639	3.5637e-06	47.93	0.00027418	0.00027263	7.5603e-05	1193	2.9536e-06	2.9658e-06	1205.3	335.51	2.9854e-06	2.978e-06	362.25	123.99	106.22	36.512	2.9618e-06	45.153	79.976	-13.206	-76.023	-128.697	3.375	77.665	-129.334	-124.427	13.783	82.309	-124.839	-121.504	-120.943	-115.975	110.335	-116.709	-8191	255	
1085.737	1	1	0	0	0.20742	0.097836	0.1296	0.34867	0.12649	0.15945	0.10149	0.33261	0.11726	0.066329	0.30316	0.32933	0.42649	0.22856	0.35327	0.15346	-2.3958	-3.2042	-2.6542	-3.3333	-3.2083	-2.7042	-3.6042	-3.1229	-2.6542	-3.4646	-2.9396	-3.1375	-3.2792	-2.8083	-3.2667	-3.2708	-80.773	101.018	28.518	147.570	31.041	212.953	148.679	155.981	84.782	-50.311	176.042	-104.181	-121.257	197.948	-53.531	95.988	0.00068109	0.00025967	0.00015625	1235	2.9507e-06	3.4353e-06	1240.2	349.41	2.2266e-06	4.7869e-06	394.44	131.28	113.88	38.821	5.4924e-06	47.696	0.00027462	0.00027363	7.5181e-05	1192.3	2.988e-06	2.9653e-06	1206.2	335.15	2.9774e-06	2.9711e-06	362.45	124.22	106.22	36.598	2.9882e-06	45.094	86.442	-71.327	-1.637	-129.384	-33.977	47.249	-129.749	-124.977	89.859	90.900	-125.942	-121.314	-120.948	-116.207	-39.283	-116.942	-8191	255	
1085.811	1	1	0	0	0.13465	0.096189	0.10444	0.13465	0.23825	0.34302	0.021883	0.071099	0.23352	0.25736	0.10184	0.10779	0.12433	0.093503	0.1106	0.21298	-2.3208	-3.3208	-2.8625	-3.1083	-3.3563	-2.6312	-3.5208	-3.1688	-2.6833	-3.4521	-2.9208	-3.125	-3.4167	-2.7104	-3.1833	-3.1771	86.315	60.532	118.783	188.965	-32.589	7.474	154.510	181.188	-124.091	205.206	-75.814	-77.843	-142.425	192.734	-52.341	172.313	0.00091944	0.00023389	4.5417e-05	1231.7	2.196e-06	1.2738e-06	1244.2	348.25	2.0799e-06	7.8281e-06	396.58	130.91	112.86	38.457	2.8822e-07	48.15	0.00027661	0.00027217	7.5668e-05	1190.8	2.995e-06	2.9893e-06	1205.7	335.36	3.0061e-06	2.9812e-06	362.48	123.98	106	36.469	3.0022e-06	45.237	80.210	5.743	-134.677	-129.262	-64.719	124.236	-129.914	-124.724	189.522	94.743	-125.162	-120.812	-120.895	-115.831	-3.035	-116.701	-8191	255	
1085.929	1	1	0	0	0.069607	0.031714	0.18222	0.3705	0.13389	0.11955	0.17231	0.20275	0.23209	0.067017	0.13594	0.14565	0.082825	0.19329	0.30561	0.10784	-2.3625	-3.2646	-2.5083	-2.9375	-3.2083	-2.5521	-3.1396	-3.2354	-2.7042	-3.4958	-2.9146	-3.0021	-3.375	-2.7021	-3.0458	-3.3167	110.523	46.151	145.893	-141.952	-96.984	-67.613	51.088	135.350	-100.702	-40.676	215.672	-79.134	209.610	192.396	203.279	78.374	0.00099353	9.9607e-05	4.0314e-05	1233.5	4.2546e-06	5.4593e-06	1247.8	348.56	3.4672e-06	5.1819e-06	397.79	130.77	113.27	38.636	5.1745e-06	48.005	0.0002769	0.00027553	7.6588e-05	1192.1	3.0273e-06	3.0134e-06	1207.3	335.21	3.0473e-06	3.0499e-06	364.24	124.48	106.32	36.616	3.0554e-06	45.366	97.311	42.552	171.656	-129.565	153.897	47.576	-130.013	-125.074	-28.881	88.476	-125.731	-121.307	-121.493	-116.031	-17.844	-117.353	-8191	255	
1086.026	1	1	0	0	0.17304	0.14934	0.10777	0.12229	0.099168	0.1137	0.25171	0.080497	0.34171	0.21915	0.20818	0.29226	0.20531	0.26594	0.075608	0.25794	-2.1667	-3.4708	-2.9917	-2.8083	-3.3958	-2.7333	-3.1354	-3.3375	-2.5	-3.325	-3.1354	-2.8458	-3.6021	-3.0187	-3.0458	-3.3937	-33.767	117.896	6.501	212.420	-21.904	-70.604	-142.492	175.329	-86.085	90.151	162.779	181.723	136.001	129.778	73.075	93.258	0.00087977	0.00052557	5.655e-05	1230.8	1.9331e-06	4.8563e-06	1246.3	349.14	5.8912e-06	2.3333e-06	396.9	130.92	113.34	38.489	3.7369e-07	48.083	0.00028097	0.00028021	7.7584e-05	1194.7	3.0619e-06	3.0728e-06	1207.8	335.84	3.0761e-06	3.0761e-06	363.94	124.42	106.55	36.63	3.0855e-06	45.275	98.328	-11.502	126.660	-129.747	-138.642	-43.537	-130.119	-125.447	7.036	-8.844	-125.958	-121.575	-121.161	-116.289	-131.425	-117.428	-8191	255	
1086.122	1	1	0	0	0.090876	0.10243	0.11462	0.52355	0.049676	0.073505	0.35884	0.25672	0.28426	0.24036	0.15594	0.14246	0.13844	0.23915	0.094093	0.15048	-2.45	-3.3604	-3.0917	-2.6813	-3.45	-2.9375	-3.0542	-3.5083	-2.7042	-3.2188	-3.1333	-2.6396	-3.4604	-2.9917	-2.6021	-3.4625	-138.682	205.866	44.329	129.131	108.996	-85.335	123.629	198.462	-136.922	-76.076	158.648	-138.422	159.676	202.520	98.969	-101.447	0.00079146	0.00058999	7.0394e-05	1231.4	4.0048e-06	5.4414e-06	1243.1	349.16	7.2585e-06	2.1275e-06	395.03	131.2	113.89	38.447	1.5783e-06	48.129	0.00028377	0.00028037	7.8037e-05	1192.9	3.0801e-06	3.0593e-06	1207.5	335.63	3.0826e-06	3.0772e-06	363.71	124.39	106.6	36.523	3.0666e-06	45.337	76.040	55.342	-71.410	-129.636	9.051	1.071	-130.227	-125.337	-13.177	8.920	-125.884	-121.625	-121.201	-116.553	138.561	-116.988	-8191	255	
1086.242	1	1	0	0	0.12115	0.084427	0.13574	0.30523	0.20773	0.09216	0.077394	0.20315	0.22869	0.032465	0.17774	0.17261	0.19376	0.13282	0.079235	0.23685	-2.2417	-3.2875	-3.0771	-2.7313	-3.3771	-2.9333	-2.8646	-3.5896	-2.6771	-3.1292	-3.4354	-2.8812	-3.4229	-3.0521	-2.7208	-3.4542	205.264	51.066	214.428	116.751	194.253	176.186	68.312	125.832	2.967	0.414	71.825	155.524	190.018	4.336	-38.522	-100.330	0.00067913	0.00026189	6.6869e-05	1230	7.7022e-07	5.9262e-06	1238.7	348.9	5.5849e-06	3.4309e-06	397.94	130.66	113.35	38.548	6.3329e-07	48.003	0.00028079	0.00027934	7.7751e-05	1192.4	3.0498e-06	3.0502e-06	1206.6	335.63	3.0493e-06	3.0296e-06	364.19	124.27	106.39	36.531	3.0506e-06	45.343	102.282	49.635	-94.540	-129.738	-127.314	1.919	-130.057	-125.495	-72.963	160.292	-125.947	-121.650	-121.374	-116.351	132.286	-117.339	-8191	255	
1086.339	1	1	0	0	0.11772	0.2145	0.30661	0.30478	0.11812	0.078534	0.075404	0.23388	0.17401	0.21676	0.11065	0.04956	0.074652	0.13376	0.12317	0.26152	-2.3229	-3.0271	-3.4437	-2.7687	-3.1292	-3.0375	-2.8625	-3.4521	-2.6667	-2.8688	-3.5542	-2.8083	-3.3708	-3.0333	-2.6458	-3.5271	75.621	-98.285	58.182	174.944	-47.041	-94.829	169.215	121.874	13.074	-11.169	114.580	2.550	-20.169	184.911	43.728	195.928	0.00091704	0.00053952	0.00012632	1230.6	5.2429e-07	4.1361e-06	1238.5	346.81	7.5171e-06	2.1885e-06	395.95	130.67	113.59	38.833	7.4378e-06	48.16	0.00028318	0.00028033	7.7402e-05	1192.9	3.0876e-06	3.0595e-06	1206.4	335.56	3.0788e-06	3.078e-06	364.48	124.44	106.51	36.655	3.0638e-06	45.378	69.920	206.127	-131.990	-129.828	-54.839	-38.960	-130.251	-125.130	-40.125	-26.942	-126.250	-121.406	-121.075	-116.424	-98.966	-117.266	-8191	255	
1086.435	1	1	0	0	0.11717	0.10933	0.25029	0.056011	0.14915	0.2664	0.29335	0.23413	0.15696	0.14366	0.11747	0.29015	0.28346	0.1275	0.016569	0.07196	-2.475	-2.7833	-3.4	-2.7458	-3.1667	-3.2583	-2.8937	-3.5042	-2.8833	-2.8375	-3.4229	-2.7708	-3.0021	-3.3771	-2.6292	-3.4771	-82.014	-59.654	120.567	212.126	196.733	-130.537	134.304	149.266	27.839	153.872	59.251	136.288	-28.362	175.798	-55.136	131.133	0.00082881	0.00028644	7.3176e-05	1228.9	2.5975e-06	6.7157e-06	1245.8	348.56	1.7364e-06	2.3594e-06	396.89	131.72	113.33	38.623	3.9096e-06	48.147	0.00028173	0.00027977	7.7757e-05	1191.7	3.0389e-06	3.0434e-06	1208.6	335.6	3.0354e-06	3.0341e-06	363.95	124.83	106.44	36.607	3.0488e-06	45.337	102.142	-52.573	-97.828	-129.737	-110.149	42.498	-130.120	-125.316	88.781	-27.791	-125.807	-121.443	-121.071	-116.071	200.149	-116.910	-8191	255	
1086.531	1	1	0	0	0.23597	0.17796	0.10886	0.12408	0.20573	0.13228	0.17753	0.18296	0.053749	0.062639	0.21748	0.17069	0.21901	0.19041	0.29513	0.028559	-2.6125	-2.7979	-3.2958	-2.8292	-3.1063	-3.35	-2.8937	-3.4792	-3.0021	-2.7625	-3.4479	-2.9896	-3.1021	-3.3875	-2.5125	-3.3708	100.413	-7.023	-78.911	189.182	56.665	110.042	179.541	29.820	-1.486	120.964	-92.551	-120.142	-80.245	147.676	51.665	-55.873	0.00091962	0.00038908	0.00010253	1229.3	2.6737e-06	2.4349e-06	1247.6	349.14	3.809e-06	4.5914e-06	396.96	130.64	113.48	38.665	5.4586e-06	48.035	0.00028265	0.00027958	7.7435e-05	1192.4	3.038e-06	3.0313e-06	1208.4	335.83	3.052e-06	3.0489e-06	363.3	124.26	106.51	36.594	3.0717e-06	45.384	71.830	-136.695	1.769	-129.715	2.697	56.601	-130.052	-125.303	-32.441	8.371	-126.194	-121.782	-121.262	-116.283	200.211	-117.020	-8191	255	
1086.625	1	1	0	0	0.14312	0.13409	0.057484	0.2735	0.15657	0.088518	0.23077	0.24541	0.10173	0.21635	0.15198	0.184	0.19406	0.17491	0.34874	0.049526	-2.7333	-2.6229	-3.35	-2.9292	-3.0312	-3.3833	-2.8542	-3.4	-3.175	-2.7229	-3.6875	-2.9729	-3.0042	-3.4146	-2.7062	-3.225	199.866	19.360	126.299	147.809	208.968	-112.646	53.908	207.065	86.261	119.588	-100.675	142.630	170.139	100.625	-7.098	-85.210	0.00063433	0.00064201	0.00011926	1232.8	3.4401e-07	4.3476e-06	1243.4	349.41	7.3304e-06	4.2797e-06	396.89	131.08	113.5	38.498	3.6613e-06	47.912	0.00028279	0.00028001	7.8146e-05	1193.4	3.0667e-06	3.0541e-06	1207.1	335.76	3.0534e-06	3.0685e-06	365.25	124.32	106.59	36.619	3.0847e-06	45.415	76.545	-3.028	-76.928	-129.917	46.243	-18.998	-130.135	-125.394	-54.500	166.047	-126.106	-121.994	-121.150	-116.100	-3.313	-116.905	-8191	255	
1086.721	1	1	0	0	0.24187	0.042446	0.17387	0.27939	0.18414	0.14224	0.43676	0.22232	0.091812	0.13341	0.010043	0.13673	0.10878	0.11928	0.37877	0.081902	-2.9688	-2.5854	-3.225	-3.0083	-2.6167	-3.3729	-2.6833	-3.1458	-3.3229	-2.6729	-3.3604	-2.9854	-2.7896	-3.4833	-2.8312	-3.0521	156.507	22.716	69.654	202.682	66.677	-68.445	166.325	175.735	-33.524	125.641	216.705	-84.180	-12.769	184.462	106.717	95.454	0.0008579	0.00065489	6.2721e-05	1234.7	2.9009e-06	1.9542e-06	1244.3	348.7	2.983e-06	2.3396e-06	398.57	130.92	112.88	38.555	8.1473e-06	48.187	0.00028559	0.00028349	7.8297e-05	1194.9	3.0798e-06	3.0714e-06	1207.8	336.21	3.0941e-06	3.0764e-06	365.31	124.44	106.59	36.651	3.0848e-06	45.504	91.157	-22.752	82.332	-129.988	-13.549	171.731	-130.225	-125.172	-91.687	72.911	-125.907	-121.699	-121.084	-116.306	-5.822	-116.991	-8191	255	
1086.818	1	1	0	0	0.13147	0.090976	0.053721	0.20601	0.10516	0.026405	0.26994	0.2211	0.23606	0.16671	0.35915	0.1162	0.22082	0.13615	0.25036	0.11763	-2.8812	-2.5604	-3.3667	-3.1958	-2.6583	-3.5354	-3	-2.95	-3.3187	-2.5812	-3.4104	-3.1479	-2.7438	-3.6229	-2.7646	-2.8875	126.873	28.461	23.676	157.096	208.555	-50.475	130.189	-120.634	59.414	31.031	-140.152	-108.389	45.290	206.827	20.047	-106.239	0.00055558	0.00060992	0.00015938	1233.7	2.2433e-06	2.4637e-06	1242.9	349.86	5.9628e-06	4.3592e-06	398.73	130.52	113.8	38.495	4.8112e-07	48.035	0.00028261	0.0002795	7.7954e-05	1193.6	3.0844e-06	3.0701e-06	1208	336.28	3.0674e-06	3.0764e-06	365.01	124.39	106.59	36.592	3.0588e-06	45.403	107.517	61.951	-87.678	-129.835	-115.848	37.899	-130.360	-125.313	14.774	27.258	-125.555	-121.503	-121.388	-116.203	208.524	-117.161	-8191	255	
1086.914	1	1	0	0	0.13347	0.094836	0.13693	0.18853	0.11986	0.15723	0.28656	0.10423	0.19794	0.26445	0.3455	0.31214	0.081179	0.24329	0.23878	0.089422	-2.9729	-2.4792	-3.3	-3.3563	-2.5646	-3.4917	-3.1521	-2.8771	-3.3583	-2.6833	-3.3021	-3.3563	-2.4896	-3.3438	-2.7687	-2.8104	4.055	202.588	-19.797	134.370	176.642	-24.998	159.977	-19.106	111.471	56.330	177.852	167.709	176.220	174.600	-68.373	212.037	0.0005568	0.00095457	0.00017458	1231.9	4.8504e-06	4.3205e-06	1242.3	348.64	3.8461e-06	2.3828e-06	399.89	131.22	113.52	38.514	4.5413e-07	48.074	0.00028277	0.00028033	7.7758e-05	1195.1	3.07e-06	3.0412e-06	1207.3	336.07	3.0696e-06	3.0601e-06	365.31	124.43	106.38	36.561	3.0522e-06	45.38	117.685	-1.540	-15.490	-129.894	136.845	8.378	-130.138	-125.215	-14.586	13.906	-125.739	-121.508	-121.186	-116.312	100.916	-117.067	-8191	255	
1087.034	1	1	0	0	0.24658	0.090081	0.082581	0.071088	0.27653	0.10256	0.22641	0.054273	0.19636	0.077016	0.16827	0.10855	0.36116	0.3393	0.066328	0.045829	-3.1188	-2.6604	-3.0167	-3.4625	-2.6167	-3.425	-3.1562	-2.8979	-3.4062	-2.85	-3.1729	-3.2	-2.5396	-3.3208	-3.0354	-2.8458	198.473	106.900	-15.291	-127.499	25.253	76.652	136.538	151.435	-70.392	182.201	-61.700	191.351	179.987	134.536	-142.291	174.053	0.00058401	8.2483e-05	6.5682e-05	1233	5.9244e-07	3.5015e-06	1248.3	347.57	5.3377e-06	4.3681e-06	397.85	130.78	113.31	38.844	2.1819e-06	48.265	0.00028184	0.00027895	7.7984e-05	1194.3	3.0616e-06	3.0636e-06	1210	335.49	3.0443e-06	3.035e-06	364.08	124.35	106.38	36.671	3.038e-06	45.332	61.812	23.028	-70.721	-129.823	172.025	-88.247	-130.317	-125.354	-43.888	98.501	-125.420	-121.721	-120.984	-116.200	-132.343	-116.947	-8191	255	
1087.106	1	1	0	0	0.082689	0.032888	0.18546	0.37188	0.026584	0.19863	0.18865	0.38255	0.11013	0.14216	0.35808	0.024679	0.26938	0.13228	0.17795	0.1703	-2.8458	-2.6771	-2.95	-3.425	-2.7188	-3.3438	-3.3708	-2.6104	-3.4479	-2.875	-2.8896	-3.3708	-2.7167	-3.25	-3.1813	-2.8375	129.308	56.649	72.067	172.868	144.765	-133.648	157.350	212.778	-6.309	49.448	154.052	-12.366	158.884	-137.202	-108.613	140.130	0.00090414	0.00088876	8.1857e-05	1235	1.422e-06	3.1455e-06	1242.7	348.27	1.8408e-06	5.2597e-06	397.84	131.83	113.4	38.854	2.0164e-06	48.085	0.00027956	0.00027601	7.7386e-05	1194.5	3.0478e-06	3.0236e-06	1207.2	335.95	3.0266e-06	3.038e-06	364.27	124.53	106.34	36.658	3.0124e-06	45.343	91.254	-32.317	-54.205	-129.746	-80.182	127.285	-130.357	-125.270	-132.414	46.475	-125.376	-121.815	-121.219	-115.924	-51.115	-116.842	-8191	255	
1087.202	1	1	0	0	0.062631	0.080724	0.12313	0.20665	0.091575	0.12342	0.037238	0.094684	0.26594	0.15126	0.047774	0.14917	0.027379	0.084399	0.055668	0.2332	-3.0167	-2.9375	-2.825	-3.6104	-2.6542	-3.1521	-3.4375	-2.7083	-3.1354	-3.0417	-2.8292	-3.4958	-2.7979	-3.2625	-3.4958	-2.6271	160.065	-54.241	174.208	210.944	-53.732	151.769	156.279	94.076	-109.131	129.145	134.072	147.406	-80.231	149.467	53.682	-122.952	0.00057024	0.00090268	0.00013447	1229.6	1.2924e-06	2.9535e-06	1244.8	349.73	2.777e-06	4.6842e-06	400.17	130.21	113.71	38.568	6.619e-07	48.26	0.00027829	0.00027611	7.6411e-05	1191.2	3.0119e-06	2.9979e-06	1207.1	335.6	3.007e-06	2.9794e-06	363.75	124.33	106.29	36.519	2.9528e-06	45.256	108.297	-27.745	-39.639	-129.737	206.167	20.051	-130.086	-125.141	-11.311	80.360	-125.524	-121.492	-120.981	-115.849	186.597	-116.815	-8191	255	
1087.323	1	1	0	0	0.24667	0.16402	0.036738	0.48789	0.25305	0.16614	0.23699	0.21241	0.1277	0.12123	0.31144	0.22468	0.1022	0.14238	0.073613	0.2688	-2.9437	-3.0479	-2.6646	-3.6271	-2.8354	-2.9042	-3.5104	-2.7875	-3.3333	-3.1021	-2.75	-3.4292	-2.8312	-3.0083	-3.2729	-2.9167	189.879	-80.551	205.862	169.698	-25.901	64.850	167.666	120.697	158.702	120.494	111.691	168.700	68.130	188.071	90.708	111.666	0.00082162	0.0002309	0.0001607	1228.4	2.2655e-06	7.5546e-06	1243.8	349	2.8452e-06	3.2945e-06	397.23	131.23	113.67	38.548	6.4421e-06	47.961	0.000269	0.00026792	7.4323e-05	1189.3	2.9169e-06	2.8865e-06	1204.7	334.87	2.8966e-06	2.8971e-06	361.41	123.83	105.92	36.463	2.8953e-06	45.062	93.098	-70.253	-74.119	-129.593	117.239	-15.924	-130.169	-125.250	121.071	-36.197	-125.692	-121.752	-121.145	-115.688	-29.435	-117.245	-8191	255	
1087.419	1	1	0	0	0.10321	0.041195	0.15476	0.21104	0.15426	0.17611	0.17814	0.024884	0.12689	0.11722	0.13676	0.058326	0.098585	0.0474	0.097475	0.15411	-2.675	-3.1312	-2.6063	-3.55	-2.8125	-2.975	-3.4958	-2.9021	-3.0396	-3.4354	-2.7313	-3.4688	-3.0708	-2.8187	-3.3104	-2.6063	-85.556	125.350	199.394	195.348	129.540	80.751	164.882	53.708	-89.043	12.022	185.438	17.295	104.651	-115.020	-70.720	148.459	0.00073128	0.00028182	0.00012726	1231	3.206e-06	5.1013e-06	1246.5	350.75	2.3918e-06	3.2506e-06	396.14	131.21	112.89	38.732	2.7656e-06	48.147	0.00026688	0.00026446	7.3667e-05	1188.5	2.9085e-06	2.8804e-06	1204.4	334.68	2.8754e-06	2.8794e-06	362.36	124.05	105.78	36.443	2.8873e-06	45.112	85.471	-109.608	20.862	-129.604	-37.996	15.891	-129.970	-125.199	15.362	57.638	-125.606	-121.227	-121.128	-116.036	33.253	-116.840	-8191	255	
1087.515	1	1	0	0	0.26943	0.16287	0.19482	0.44178	0.13574	0.15093	0.073951	0.22354	0.082479	0.15293	0.24159	0.22585	0.16232	0.12615	0.22173	0.074249	-2.7208	-3.2542	-2.6896	-3.6042	-3.1292	-2.7792	-3.4833	-2.8438	-3.0187	-3.3479	-2.5875	-3.2854	-3.2208	-2.6854	-3.3854	-2.8438	202.582	138.261	-28.717	192.487	179.831	-118.714	116.080	184.575	-52.755	65.059	90.683	158.667	183.520	205.990	81.702	72.295	0.00065539	0.00044187	0.00011187	1226.8	3.8075e-06	8.2563e-06	1245.4	348.03	3.5942e-06	3.5817e-06	397.57	130.93	113.39	38.938	2.4121e-06	48.085	0.00026621	0.00026275	7.2874e-05	1188.1	2.8636e-06	2.8628e-06	1203.9	334.55	2.8697e-06	2.8693e-06	361.48	123.89	105.84	36.461	2.8569e-06	45.034	90.107	-5.929	-54.967	-129.521	-25.125	-23.371	-130.069	-125.249	-37.046	20.462	-125.957	-121.302	-121.095	-115.816	186.295	-117.025	-8191	255	
1087.611	1	1	0	0	0.27645	0.23746	0.27336	0.095552	0.12025	0.09551	0.13663	0.25941	0.031023	0.06229	0.088172	0.21864	0.31513	0.030394	0.090696	0.23536	-2.6292	-3.45	-2.4833	-3.3979	-3.1729	-2.7542	-3.6625	-3.0125	-3.0083	-3.4958	-2.6375	-3.175	-3.0687	-2.6958	-3.3083	-3.0771	-109.548	168.707	103.012	-111.111	54.612	-33.486	167.294	169.082	127.180	69.849	-58.125	191.811	203.347	7.448	55.200	212.237	0.00086424	0.00024628	0.00010917	1228.8	2.3911e-06	1.4961e-06	1239	347.91	5.5811e-07	2.6523e-06	395.92	131.06	114.4	38.531	4.4851e-06	48.223	0.00026554	0.00026037	7.2692e-05	1187.4	2.8712e-06	2.8671e-06	1202.7	334.24	2.8955e-06	2.8807e-06	360.95	123.75	106	36.405	2.8834e-06	45.16	79.281	-20.577	27.233	-129.542	-31.912	59.114	-130.234	-125.464	84.804	28.194	-125.607	-121.198	-121.100	-116.648	-103.580	-117.025	-8191	255	
1087.707	1	1	0	0	0.13118	0.093448	0.072947	0.23776	0.16558	0.067377	0.15472	0.23463	0.23641	0.2185	0.13672	0.13609	0.11473	0.13078	0.048405	0.092905	-2.3583	-3.4854	-2.5604	-3.1979	-3.4583	-2.5604	-3.6375	-3.25	-2.7625	-3.3979	-2.7	-3.1312	-3.4542	-2.8292	-3.275	-3.2583	68.015	116.251	60.449	198.173	138.855	158.125	86.609	180.423	-18.881	-128.139	145.703	208.512	184.122	-100.418	182.053	120.312	0.00081041	0.00014264	9.9672e-05	1230.2	4.186e-06	2.7323e-06	1246.6	348	5.9748e-06	1.9976e-06	397.14	131.13	114.13	38.609	3.9488e-06	48.265	0.00026647	0.00026348	7.3345e-05	1187.8	2.8708e-06	2.8863e-06	1203.6	334.35	2.8801e-06	2.8785e-06	361.32	123.74	105.96	36.412	2.8557e-06	45.089	100.828	18.438	211.532	-129.513	-44.367	-21.170	-130.024	-125.057	-64.647	7.603	-125.568	-121.524	-121.031	-116.263	-85.784	-116.938	-8191	255	
1087.802	1	1	0	0	0.0073769	0.11719	0.18267	0.09384	0.053907	0.10101	0.30191	0.26484	0.16921	0.058903	0.065502	0.38201	0.21647	0.24929	0.21534	0.3383	-2.1562	-3.5438	-2.7521	-3.1333	-3.3542	-2.575	-3.4437	-3.4167	-2.6937	-3.4208	-3.0104	-3.0125	-3.6354	-2.7771	-3.0979	-3.2812	59.445	15.661	105.412	178.008	-82.243	-5.732	102.899	170.528	168.899	104.175	129.386	169.828	150.678	191.552	166.586	120.615	0.00097605	0.0001438	7.4339e-05	1227.3	2.1126e-06	2.9327e-06	1246.2	348.1	1.4533e-06	8.5617e-06	395.38	131.35	113.64	38.618	3.8415e-06	48.031	0.00026601	0.00026237	7.3323e-05	1187.4	2.8746e-06	2.8634e-06	1203.2	334.16	2.8775e-06	2.8802e-06	361.1	123.76	105.96	36.392	2.873e-06	45.009	93.391	69.398	31.337	-129.298	-87.884	-79.760	-129.869	-125.254	118.486	82.712	-125.637	-121.141	-120.972	-116.050	-6.428	-117.101	-8191	255	
1087.922	1	1	0	0	0.13388	0.055209	0.17198	0.15017	0.23499	0.035087	0.24491	0.045984	0.16116	0.099909	0.12218	0.1277	0.17538	0.33433	0.13237	0.23252	-2.3896	-3.3958	-2.7313	-2.9458	-3.4021	-2.7542	-3.2458	-3.3417	-2.7271	-3.4479	-2.9729	-3.0208	-3.4938	-2.7646	-3.1562	-3.2979	-24.874	167.491	214.510	195.469	212.345	214.880	112.491	158.814	3.926	10.430	143.671	181.812	-125.610	-126.100	-68.044	24.636	0.00081031	7.4115e-05	8.883e-05	1233.6	9.0903e-07	5.0145e-06	1242.7	349.03	2.5745e-06	2.5653e-06	399.28	131.05	113.76	38.667	5.0201e-06	47.97	0.00026465	0.00026258	7.2663e-05	1187	2.8798e-06	2.8701e-06	1202.8	334.76	2.8753e-06	2.8538e-06	361.41	123.9	106.04	36.423	2.8703e-06	45.01	99.089	190.647	-69.397	-129.488	197.425	-2.399	-130.067	-125.163	50.848	62.568	-125.743	-121.214	-121.336	-116.300	-26.446	-116.995	-8191	255	
1088.019	1	1	0	0	0.17694	0.092021	0.071414	0.084274	0.21256	0.10069	0.32624	0.16466	0.097908	0.069138	0.13353	0.45758	0.064088	0.084634	0.14098	0.14498	-2.2646	-3.3396	-2.9208	-2.8771	-3.3875	-2.6229	-3.0375	-3.3312	-2.625	-3.3458	-2.9646	-2.8979	-3.5625	-2.8167	-2.775	-3.4333	-140.741	-105.633	-75.736	115.162	-125.835	-71.689	148.425	176.190	117.029	177.100	185.793	184.377	-56.216	155.423	28.020	-104.517	0.00097682	0.00033169	0.00012718	1234.6	2.2743e-06	1.7686e-06	1245.9	349.42	3.0182e-06	1.6671e-06	395.63	130.69	113.35	38.785	2.4301e-06	48.105	0.00026669	0.00026189	7.2739e-05	1188.7	2.8546e-06	2.8428e-06	1203.9	334.36	2.8688e-06	2.8767e-06	361.55	123.78	105.94	36.432	2.87e-06	45.121	81.604	-25.164	-20.056	-129.397	-32.638	8.693	-130.149	-125.060	26.289	98.285	-125.632	-121.199	-121.125	-116.196	-76.458	-116.715	-8191	255	
1088.115	1	1	0	0	0.23767	0.076548	0.3983	0.2446	0.18121	0.27327	0.10817	0.26335	0.17056	0.060126	0.10906	0.11172	0.1053	0.16066	0.16778	0.033903	-2.1979	-3.1375	-3.0771	-2.7896	-3.3271	-2.8458	-2.9583	-3.5375	-2.6771	-3.2042	-3.2542	-2.7021	-3.5292	-3.0333	-2.7146	-3.5833	61.162	147.170	17.997	179.369	109.985	180.484	181.603	102.325	166.486	-67.356	208.536	-23.225	-41.045	118.636	2.024	199.206	0.0010973	0.00052748	2.6285e-05	1230.8	2.4724e-06	1.7538e-06	1247	348.65	4.6706e-06	1.9658e-06	398.18	131.1	113.06	38.708	3.6211e-06	48.029	0.00026679	0.00026261	7.2991e-05	1186.5	2.8598e-06	2.8902e-06	1204.2	334.41	2.8787e-06	2.8823e-06	360.91	123.69	105.66	36.425	2.8578e-06	45.043	80.723	-45.434	62.600	-129.299	4.842	12.421	-129.974	-125.193	41.556	-52.833	-125.442	-121.128	-121.013	-116.099	0.930	-116.711	-8191	255	
1088.211	1	1	0	0	0.20541	0.12177	0.15037	0.27909	0.071825	0.099721	0.2273	0.12163	0.10301	0.11376	0.15684	0.39089	0.23024	0.068327	0.1933	0.25449	-2.2667	-3.1688	-3.1688	-2.7083	-3.4458	-3.1729	-2.9646	-3.6583	-2.7708	-3.0271	-3.4521	-2.7729	-3.5271	-3.0771	-2.7333	-3.4146	-54.512	146.025	49.436	154.411	-12.442	-47.967	179.237	206.067	59.954	-123.825	184.550	194.847	202.106	61.749	135.049	196.801	0.00082649	0.00061758	0.00014993	1226.5	5.5942e-06	5.1208e-06	1247.9	349.09	2.5349e-06	4.7056e-06	396.09	130.9	113.5	38.621	5.6282e-06	48.177	0.00026496	0.00026126	7.2338e-05	1187.1	2.8689e-06	2.8519e-06	1202.5	334.4	2.8744e-06	2.8806e-06	361.08	123.48	105.86	36.39	2.8563e-06	45.073	98.678	42.360	144.851	-129.349	-88.342	-49.719	-130.022	-125.012	162.089	166.081	-125.456	-121.036	-120.820	-116.251	15.223	-116.722	-8191	255	
1088.331	1	1	0	0	0.11552	0.14558	0.039238	0.25323	0.23471	0.091318	0.42167	0.22497	0.16301	0.15528	0.12838	0.14463	0.20855	0.060485	0.12607	0.19151	-2.2375	-3.0646	-3.3604	-2.7542	-3.2792	-2.9938	-2.8208	-3.6729	-2.6396	-2.825	-3.4104	-2.6604	-3.2542	-3.1917	-2.6667	-3.3688	190.287	96.498	144.322	205.635	96.960	59.966	159.545	149.057	82.124	111.750	177.930	134.163	137.075	-80.316	81.880	-21.360	0.00061574	0.00025182	2.8743e-05	1234.4	4.4896e-06	4.7565e-06	1244.1	347.81	2.7668e-06	6.6834e-07	398.81	130.83	113.54	38.751	3.7602e-06	48.135	0.00026452	0.00026157	7.3146e-05	1189	2.8544e-06	2.8741e-06	1201.4	333.67	2.8921e-06	2.8909e-06	361.01	123.69	105.9	36.442	2.8833e-06	45.117	110.271	-39.090	-101.982	-129.521	-39.534	-47.979	-129.937	-125.154	129.479	210.432	-125.236	-121.294	-120.847	-116.189	75.651	-116.876	-8191	255	
1088.403	1	1	0	0	0.23433	0.12458	0.053253	0.16347	0.24249	0.092905	0.16111	0.30779	0.17437	0.10565	0.28158	0.18251	0.12575	0.097292	0.10054	0.19033	-2.4146	-2.8646	-3.5167	-2.6854	-3.3396	-3.0875	-2.6146	-3.5667	-2.8833	-2.7833	-3.4167	-2.7271	-3.1604	-3.4417	-2.5375	-3.5271	-117.488	-51.129	-105.216	118.282	14.644	-56.845	-135.354	175.833	-90.494	-118.643	179.933	-122.411	173.152	110.472	67.484	176.336	0.0005971	0.00058917	6.22e-05	1231.5	1.4711e-06	3.8403e-06	1242.9	348.63	4.3072e-06	2.3827e-06	397.57	131.1	113.75	38.706	6.4668e-06	48.046	0.00026564	0.00026356	7.3208e-05	1187	2.8976e-06	2.8708e-06	1201.1	334.14	2.9124e-06	2.8999e-06	361.85	123.66	105.91	36.431	2.9022e-06	45.11	107.254	-81.458	-64.117	-129.533	-107.302	42.005	-129.688	-124.998	-73.099	-3.165	-125.462	-121.168	-120.810	-116.153	-121.568	-116.401	-8191	255	
1088.499	1	1	0	0	0.31229	0.1771	0.29065	0.37654	0.28471	0.11583	0.42699	0.28457	0.17312	0.25228	0.13108	0.35954	0.23791	0.21268	0.14919	0.13565	-2.4583	-2.7375	-3.35	-2.8	-3.0125	-3.2646	-2.8521	-3.5687	-3.1813	-2.6729	-3.6	-2.8854	-2.9208	-3.4667	-2.5292	-3.4854	215.055	154.281	-64.620	155.136	-25.119	-118.906	147.274	204.663	124.861	-73.771	209.249	157.827	-120.017	-117.659	23.650	158.854	0.00061145	0.00029085	4.8739e-05	1227.3	3.2282e-06	3.8405e-06	1246.5	348.14	4.6468e-06	2.8061e-06	395.47	131.15	112.89	38.535	1.1033e-06	48.209	0.00026891	0.0002635	7.3966e-05	1187.3	2.9032e-06	2.8885e-06	1201.4	334.19	2.8956e-06	2.8785e-06	361.36	123.76	105.58	36.389	2.9126e-06	45.061	110.235	21.211	-104.256	-129.305	-110.135	-54.716	-129.885	-124.880	-9.543	43.565	-125.394	-121.460	-120.705	-115.915	-43.090	-116.543	-8191	255	
1088.595	1	1	0	0	0.058829	0.1139	0.2979	0.22345	0.10187	0.11998	0.077533	0.19502	0.10594	0.062808	0.11256	0.37142	0.050797	0.066775	0.204	0.32654	-2.8125	-2.6375	-3.2729	-2.8333	-2.8167	-3.3458	-2.8646	-3.2375	-3.1312	-2.7333	-3.4729	-2.9688	-2.7479	-3.4854	-2.6813	-3.3	16.123	138.541	77.237	212.767	136.241	175.129	130.412	105.737	-120.860	-16.424	128.290	73.767	198.517	114.103	-134.201	162.178	0.0010015	0.0001335	0.00013742	1226.3	6.2909e-07	3.6018e-06	1242.6	347.42	4.7873e-06	4.9388e-06	399.33	130.21	113.22	38.49	5.2096e-06	48.089	0.0002674	0.00026616	7.3623e-05	1186.4	2.9135e-06	2.8899e-06	1201.7	333.93	2.8915e-06	2.9164e-06	362.34	123.37	105.77	36.426	2.9172e-06	45.149	99.916	-72.227	-55.236	-129.357	-11.210	13.822	-129.988	-124.905	-59.308	-69.940	-125.512	-121.414	-120.872	-116.104	-130.632	-116.813	-8191	255	
1088.692	1	1	0	0	0.061419	0.02866	0.23712	0.33943	0.1226	0.16949	0.29632	0.37668	0.13429	0.21032	0.20937	0.20695	0.12985	0.14454	0.17544	0.22721	-2.9208	-2.6271	-3.3271	-3.0687	-2.5667	-3.5604	-2.8812	-3.1437	-3.2667	-2.4813	-3.5125	-3.2542	-2.7646	-3.4437	-2.75	-3.2229	100.697	39.778	60.835	-125.939	2.564	169.856	181.219	184.957	178.796	-18.543	-110.802	9.946	204.264	176.732	-138.619	143.901	0.0009176	0.00033476	7.0947e-05	1228.4	4.1188e-06	3.1793e-06	1246.8	348.22	1.7454e-06	4.1394e-06	394.99	130.79	113.55	38.362	1.9854e-06	47.826	0.00026969	0.00026412	7.374e-05	1185.7	2.8916e-06	2.8966e-06	1203.1	334.6	2.9096e-06	2.9057e-06	361.21	123.41	105.75	36.296	2.9145e-06	44.991	85.587	-42.485	193.569	-129.635	198.675	-102.652	-129.847	-124.643	120.868	88.269	-125.615	-121.692	-121.011	-115.974	-90.673	-116.876	-8191	255	
1088.811	1	1	0	0	0.087745	0.18437	0.084443	0.081607	0.20281	0.19034	0.30574	0.018339	0.084313	0.17544	0.29816	0.30433	0.1181	0.027544	0.18072	0.14099	-3.175	-2.5042	-3.2146	-2.9604	-2.7125	-3.4333	-2.825	-2.9313	-3.275	-2.5521	-3.2979	-3.2604	-2.7667	-3.4646	-2.8479	-2.9562	-95.768	208.453	-83.649	161.377	-94.330	89.358	-101.772	174.354	-41.494	-77.465	163.157	-85.551	190.281	164.394	-128.927	199.807	0.00080121	0.00014454	6.5101e-05	1228.4	3.2673e-06	1.9134e-06	1242.9	348.39	5.6285e-06	3.5963e-06	399.25	130.14	113.4	38.571	4.8967e-06	48.007	0.00026673	0.00026509	7.3849e-05	1186.2	2.9048e-06	2.9085e-06	1201.6	334.43	2.8883e-06	2.8822e-06	361.5	123.34	105.7	36.421	2.8821e-06	44.992	108.191	193.829	7.024	-129.577	-25.198	212.289	-129.879	-124.814	86.815	64.009	-125.515	-121.485	-120.717	-115.940	-66.488	-116.576	-8191	255	
1088.907	1	1	0	0	0.22368	0.1258	0.093151	0.32145	0.14901	0.10299	0.14223	0.14501	0.10301	0.10105	0.1555	0.29865	0.19975	0.23928	0.028403	0.13317	-2.8979	-2.7042	-3.15	-3.4375	-2.5208	-3.25	-2.9917	-2.9125	-3.4	-2.6396	-3.1458	-3.4042	-2.6937	-3.3896	-2.8292	-2.7771	2.450	-44.749	196.918	175.152	209.495	112.887	174.534	129.482	-80.579	-23.455	198.412	-66.735	139.500	183.878	1.956	182.407	0.00068803	0.00056774	7.1539e-05	1227.6	6.2085e-07	3.2473e-06	1240.4	348.11	5.7774e-06	5.7634e-06	397.37	130.13	113.26	38.729	4.757e-07	47.853	0.00026608	0.00026511	7.3063e-05	1186.6	2.87e-06	2.9031e-06	1200.4	333.63	2.8913e-06	2.8705e-06	360.95	123.41	105.56	36.396	2.8581e-06	45.027	103.596	39.169	-31.580	-129.348	161.919	12.370	-130.101	-125.081	-106.244	24.432	-125.597	-121.128	-121.034	-116.028	-7.153	-116.817	-8191	255	
1089.003	1	1	0	0	0.19392	0.26587	0.1976	0.24863	0.1588	0.13987	0.082919	0.16168	0.21457	0.32705	0.077418	0.20068	0.066525	0.047485	0.24148	0.15633	-3.1937	-2.8417	-3.0125	-3.5979	-2.6	-3.4667	-3.2375	-2.9021	-3.5729	-2.7625	-3.1792	-3.4667	-2.6771	-3.4646	-3.1417	-2.7479	-58.196	-38.344	209.536	154.154	50.976	174.491	31.601	-93.025	-81.391	-98.209	163.914	-135.775	-87.590	145.955	187.911	128.381	0.0010202	0.0002648	0.00016124	1227.5	4.529e-06	5.0193e-06	1245.1	348.73	5.3803e-06	2.0911e-06	398.68	130.83	113.81	38.61	5.9613e-06	47.744	0.00026433	0.00026206	7.2718e-05	1185.7	2.8612e-06	2.8687e-06	1201.6	334.02	2.8626e-06	2.8637e-06	361.57	123.37	105.57	36.378	2.8673e-06	44.981	88.542	-83.942	-87.326	-129.642	-120.395	61.385	-130.100	-124.917	-28.061	54.832	-125.560	-121.076	-121.141	-116.378	-40.435	-116.875	-8191	255	
1089.099	1	1	0	0	0.089667	0.15261	0.12328	0.059931	0.16824	0.019109	0.16788	0.13087	0.22386	0.25134	0.13184	0.080695	0.54532	0.12523	0.18073	0.22026	-3.0687	-2.7271	-2.8458	-3.5729	-2.6354	-3.2271	-3.2792	-2.5875	-3.3646	-2.8625	-2.9042	-3.5042	-2.7083	-3.3187	-3.1521	-2.8063	-65.355	-64.455	171.294	-134.865	199.115	-5.201	153.508	-108.207	-130.533	23.006	31.439	-41.402	154.019	178.463	130.886	-134.579	0.0010507	0.00071332	0.00016848	1226.5	4.1558e-06	1.488e-06	1239.7	347.43	3.7566e-06	6.1728e-06	398.25	130.72	112.94	38.632	3.4509e-06	47.934	0.00026449	0.00026219	7.3003e-05	1184.2	2.8539e-06	2.852e-06	1198.5	333.38	2.8705e-06	2.8796e-06	360.72	123.61	105.64	36.44	2.8695e-06	44.985	100.072	-65.695	-110.330	-129.419	-75.247	210.855	-129.835	-124.844	-57.750	81.337	-125.335	-121.275	-120.860	-115.950	53.574	-116.904	-8191	255	
1089.195	1	1	0	0	0.19253	0.2552	0.31337	0.38921	0.29739	0.051456	0.42808	0.17267	0.038609	0.25888	0.19536	0.17058	0.17024	0.03672	0.249	0.055337	-2.8229	-2.8854	-2.6688	-3.7833	-2.6833	-3.1562	-3.4542	-2.7208	-3.3271	-2.9146	-2.8438	-3.4604	-2.8458	-2.95	-3.3833	-2.8542	0.370	81.112	209.061	175.457	-47.681	-125.630	145.831	183.473	147.489	132.682	120.610	-128.200	209.914	11.813	180.051	-23.890	0.00091573	0.00030141	0.0001169	1223.2	6.3438e-07	5.9413e-06	1247.5	348.44	4.2729e-06	3.729e-07	398.52	130.98	113.31	38.69	6.1496e-06	48.203	0.00026561	0.00026195	7.2818e-05	1185.2	2.8754e-06	2.8647e-06	1200.3	334.12	2.8706e-06	2.8512e-06	360.74	123.48	105.51	36.448	2.8782e-06	45.058	86.074	-26.874	-129.189	-129.603	148.423	46.939	-129.989	-124.967	-142.642	115.786	-125.650	-121.225	-121.065	-115.785	-41.585	-116.891	-8191	255	
1089.291	1	1	0	0	0.24854	0.074639	0.22197	0.11354	0.16048	0.2477	0.20115	0.22311	0.18122	0.19518	0.12126	0.15698	0.13844	0.1399	0.19304	0.1044	-2.8229	-3.1917	-2.5583	-3.575	-3.0062	-2.875	-3.5938	-2.7917	-3.1292	-3.125	-2.5917	-3.5187	-2.9292	-2.9458	-3.3604	-2.725	-83.373	164.253	-123.037	-140.054	141.856	205.926	-108.789	185.193	-31.124	152.330	45.306	52.250	182.426	158.351	-116.023	-26.162	0.0009737	0.00018093	6.1215e-05	1226.7	2.4043e-06	1.8152e-06	1240.6	348.33	3.1745e-06	2.5736e-06	396.99	130.88	113.78	38.768	2.1943e-06	48.121	0.00026413	0.0002638	7.3094e-05	1184.7	2.8678e-06	2.8613e-06	1198.1	333.55	2.8718e-06	2.8682e-06	360.35	123.52	105.72	36.382	2.8725e-06	45.051	88.781	-112.591	-49.135	-129.488	111.012	-106.821	-129.814	-125.020	204.902	1.489	-125.385	-120.932	-120.792	-115.736	-39.057	-116.692	-8191	255	
1089.412	1	1	0	0	0.15314	0.23314	0.18416	0.31536	0.25911	0.16954	0.29182	0.24226	0.072935	0.15584	0.17853	0.13048	0.03432	0.22772	0.25911	0.14748	-2.7667	-3.0438	-2.5375	-3.5604	-2.8667	-2.8375	-3.6021	-2.7729	-3.1917	-3.0875	-2.7438	-3.3688	-2.9917	-2.6646	-3.2958	-2.775	-11.183	204.258	193.991	-139.335	159.982	-134.155	128.460	189.533	2.294	24.432	114.994	59.784	-72.868	163.584	-62.887	152.779	0.00083693	0.00079732	9.6399e-05	1227.5	2.0494e-06	8.2942e-07	1241.5	346.93	3.0474e-06	3.5426e-06	395.99	130.39	113.12	38.514	1.1796e-06	47.991	0.00026427	0.00026034	7.2766e-05	1185	2.8579e-06	2.8571e-06	1199.2	333.4	2.866e-06	2.8623e-06	360.64	123.4	105.57	36.299	2.8802e-06	44.949	84.154	-32.194	-8.406	-129.433	-85.101	2.270	-130.126	-124.986	138.137	-55.025	-125.294	-121.295	-121.147	-115.955	149.670	-117.046	-8191	255	
1089.508	1	1	0	0	0.10081	0.36488	0.034615	0.1787	0.22494	0.050935	0.30932	0.22091	0.18881	0.088944	0.10562	0.3479	0.17992	0.18017	0.12371	0.063605	-2.7625	-3.2042	-2.6333	-3.4896	-3.0062	-2.6354	-3.4396	-2.7896	-2.9854	-3.2875	-2.6354	-3.1083	-3.3292	-2.7687	-3.4542	-2.7854	103.508	99.182	67.469	200.718	8.808	110.314	170.710	62.725	153.729	199.577	149.121	173.320	112.333	98.204	20.233	5.571	0.0010062	0.00019633	0.0001725	1226.1	2.1979e-06	3.7574e-06	1239.9	347.95	1.8039e-06	2.4818e-06	398.78	130.92	112.4	38.703	4.3902e-06	47.866	0.00026562	0.00026149	7.2799e-05	1185.9	2.9024e-06	2.8801e-06	1199.8	333.59	2.8855e-06	2.9037e-06	361.49	123.52	105.52	36.409	2.9058e-06	44.982	93.001	136.322	-136.343	-129.317	-108.292	-33.014	-129.603	-125.029	20.793	118.897	-125.705	-120.938	-120.947	-116.018	136.649	-116.849	-8191	255	
1089.604	1	1	0	0	0.27386	0.13868	0.19339	0.32614	0.022729	0.13777	0.23656	0.36544	0.19587	0.21413	0.087212	0.20919	0.020709	0.38664	0.11892	0.23233	-2.6396	-3.275	-2.6188	-3.3708	-3.0792	-2.6063	-3.4792	-3.0208	-2.8042	-3.5604	-2.6625	-3.2333	-3.2604	-2.6021	-3.2917	-3.0354	18.229	57.406	-37.046	212.061	126.405	9.083	193.319	124.849	165.208	150.756	75.573	-110.624	-130.086	185.551	20.700	174.794	0.00095727	0.00025368	1.8998e-05	1231	4.7647e-06	5.7268e-06	1242.5	349.81	5.6892e-06	3.4426e-06	398.18	130.77	112.99	38.658	4.4515e-06	47.942	0.00026759	0.00026499	7.3375e-05	1186.2	2.9023e-06	2.9032e-06	1201.2	334.64	2.9089e-06	2.8825e-06	360.73	123.53	105.7	36.401	2.907e-06	45.033	112.978	-55.171	-112.881	-129.308	12.693	5.995	-129.665	-124.691	26.765	158.326	-125.273	-121.027	-121.081	-115.865	-14.003	-116.946	-8191	255	
1089.700	1	1	0	0	0.33722	0.15418	0.2402	0.32327	0.022068	0.18832	0.3735	0.30703	0.085417	0.19466	0.025692	0.13087	0.20824	0.17116	0.31626	0.36058	-2.3688	-3.4896	-2.7625	-3.2313	-3.4146	-2.6604	-3.5583	-3.2625	-2.75	-3.4104	-2.7625	-3.0375	-3.5146	-2.7562	-3.3833	-3.1437	101.562	-14.155	199.371	198.724	108.128	26.437	183.370	154.686	-15.993	-11.823	45.773	173.649	126.789	-115.356	76.612	212.883	0.00063303	0.00039192	0.00013129	1230.6	4.8072e-06	6.2589e-06	1243.4	347.8	1.786e-07	3.6086e-06	397.88	130.25	112.99	38.582	3.0811e-06	48.015	0.0002695	0.00026418	7.4043e-05	1186.7	2.9282e-06	2.9099e-06	1201	333.6	2.9239e-06	2.9169e-06	361.16	123.6	105.68	36.396	2.9166e-06	45.047	91.465	1.352	-26.015	-129.533	48.113	-48.431	-129.977	-125.069	-141.463	78.603	-125.388	-120.874	-120.895	-115.855	97.448	-116.729	-8191	255	
1089.795	1	1	0	0	0.13592	0.076772	0.14568	0.28819	0.14581	0.092096	0.46551	0.26124	0.30962	0.14242	0.13948	0.13527	0.17898	0.065361	0.35693	0.16239	-2.175	-3.3792	-2.7146	-3.1021	-3.2125	-2.6042	-3.35	-3.2562	-2.7938	-3.4792	-2.8604	-2.8812	-3.4437	-2.5875	-3.2333	-3.2229	33.736	173.063	-95.994	195.685	98.441	-115.857	83.536	130.602	183.372	102.732	166.308	55.367	-142.706	151.948	-69.747	67.108	0.0009978	0.00081608	3.7509e-05	1223	2.9459e-06	8.5458e-06	1242.5	347.35	2.4078e-06	2.2915e-06	398.14	130.99	113.31	38.752	1.0341e-05	48.117	0.00026819	0.00026459	7.4629e-05	1184.8	2.8965e-06	2.928e-06	1200.8	334.32	2.9475e-06	2.925e-06	360.93	123.73	106	36.443	2.9117e-06	45.077	79.354	73.638	72.741	-129.316	205.174	5.040	-129.812	-124.908	188.952	21.990	-125.754	-120.958	-120.585	-115.635	-51.651	-116.254	-8191	255	
1089.891	1	1	0	0	0.039429	0.20772	0.1994	0.096485	0.19347	0.056112	0.05649	0.10773	0.11697	0.21591	0.14842	0.22012	0.33653	0.10458	0.10679	0.10362	-2.1958	-3.3729	-2.8708	-2.9083	-3.4229	-2.775	-3.2438	-3.3792	-2.6604	-3.2896	-3.0042	-2.9313	-3.5479	-2.6375	-3.0187	-3.3417	-135.402	-122.544	6.539	215.609	32.961	174.575	204.375	121.750	-92.908	100.060	-51.011	130.713	197.515	182.992	-19.088	176.466	0.0009743	0.00053176	0.00010853	1228.3	3.7359e-06	5.5648e-06	1244.6	348.59	2.6114e-06	3.5593e-06	397.9	131.21	112.95	38.391	5.6462e-06	47.93	0.00026802	0.00026568	7.3882e-05	1185.6	2.9117e-06	2.8836e-06	1202.1	333.47	2.9181e-06	2.9027e-06	361.15	123.73	105.7	36.315	2.9137e-06	45.031	96.168	29.356	-97.558	-129.246	176.434	54.890	-129.760	-124.966	-102.377	178.274	-125.087	-120.952	-120.846	-115.731	22.884	-116.660	-8191	255	
1090.012	1	1	0	0	0.14382	0.20081	0.093874	0.19505	0.13808	0.14043	0.20648	0.25699	0.094075	0.13228	0.20406	0.13207	0.25639	0.11415	0.24678	0.17228	-2.1479	-3.3604	-2.9417	-2.7521	-3.5687	-2.8688	-3.2354	-3.4562	-2.5438	-3.2708	-3.1229	-2.5438	-3.2708	-2.9	-2.7458	-3.4646	-51.115	35.613	137.168	147.137	-105.079	42.852	-140.357	190.728	24.176	13.592	96.503	130.877	211.377	96.307	-17.416	183.628	0.00090299	0.00064817	7.9961e-05	1225.9	8.7918e-07	2.5374e-06	1237.9	346.5	2.2999e-06	3.4249e-06	397.62	130.77	113.21	38.385	4.4353e-06	48.014	0.00026798	0.00026578	7.3846e-05	1186.1	2.8901e-06	2.8804e-06	1198.5	333.18	2.8994e-06	2.906e-06	360.75	123.5	105.66	36.357	2.8843e-06	44.978	82.591	46.045	186.207	-129.249	-23.454	73.649	-129.751	-124.870	175.701	94.466	-125.500	-120.942	-120.899	-115.881	51.908	-117.108	-8191	255	
1090.108	1	1	0	0	0.11707	0.052399	0.19988	0.020579	0.053557	0.22228	0.23313	0.30135	0.083158	0.10567	0.17585	0.071205	0.35801	0.15712	0.20827	0.014594	-2.2354	-3.1458	-3.1792	-2.825	-3.4375	-2.7938	-3.0667	-3.625	-2.5396	-3.0771	-3.3125	-2.6604	-3.3917	-3.0479	-2.725	-3.6104	108.712	179.717	80.120	-114.829	-117.709	138.227	165.092	111.843	90.545	216.418	68.116	-84.378	83.447	187.319	103.773	11.447	0.00083768	0.00036669	0.00010666	1223.2	3.5488e-06	2.1244e-06	1241.7	347.21	5.0227e-06	2.6106e-06	395.94	131.51	113.37	38.481	1.5332e-06	48.122	0.0002671	0.00026409	7.3528e-05	1183.4	2.8743e-06	2.8852e-06	1201	333.7	2.8692e-06	2.8822e-06	361.4	123.86	105.78	36.282	2.8911e-06	45.002	82.323	34.726	-77.121	-129.370	-13.804	36.333	-129.727	-124.857	-63.857	147.669	-125.417	-121.028	-120.782	-115.958	-127.723	-117.041	-8191	255	
1090.204	1	1	0	0	0.18253	0.12287	0.095925	0.13605	0.20386	0.051407	0.34946	0.24486	0.092527	0.13981	0.33241	0.10888	0.11222	0.10256	0.10849	0.094415	-2.2208	-3.1292	-3.1063	-2.8396	-3.3854	-3.1063	-2.8875	-3.5667	-2.7167	-2.9938	-3.2438	-2.6292	-3.3521	-3.3354	-2.7	-3.5417	-73.901	71.218	120.905	26.084	27.384	-11.046	184.520	167.001	175.511	151.754	166.374	-104.666	203.892	180.747	173.867	73.511	0.00058792	0.00034744	2.7089e-05	1221.7	2.6003e-06	3.2569e-06	1241.7	349.95	2.2907e-07	5.4626e-06	397.2	131.18	112.93	38.705	5.2082e-06	48.284	0.0002671	0.00025996	7.2963e-05	1185.3	2.8727e-06	2.8651e-06	1199.2	334.26	2.8795e-06	2.866e-06	360.33	123.74	105.67	36.426	2.8809e-06	45.058	95.425	23.262	217.329	-129.354	14.611	36.149	-129.670	-124.674	-18.465	109.128	-125.143	-120.893	-120.545	-116.026	-52.967	-116.766	-8191	255	
1090.275	1	1	0	0	0.11059	0.32481	0.24688	0.3268	0.058195	0.13125	0.35243	0.074497	0.2244	0.20265	0.09903	0.24464	0.17775	0.064418	0.16006	0.058269	-2.5146	-2.8646	-3.4729	-2.7854	-3.4313	-3.1375	-2.8125	-3.5438	-2.7208	-2.8833	-3.5979	-2.8	-3.3417	-3.1688	-2.6958	-3.4771	-115.550	-11.249	115.217	164.193	96.661	163.693	163.569	197.760	62.214	100.057	-56.092	188.843	181.127	134.605	-13.865	-110.473	0.0010394	0.00018707	8.0395e-05	1227.2	7.1771e-07	1.595e-06	1239.8	349.33	2.8643e-06	2.1472e-06	396.91	130.61	113.37	38.712	2.0891e-06	48.318	0.0002647	0.00026107	7.3127e-05	1184	2.865e-06	2.875e-06	1199.4	334.17	2.8729e-06	2.8778e-06	360.63	123.46	105.6	36.421	2.8824e-06	45.05	85.155	205.816	-93.558	-129.255	-64.168	-105.611	-129.201	-124.205	-19.981	60.142	-125.271	-120.580	-119.641	-115.220	-103.460	-116.285	-8191	255	
1090.396	1	1	0	0	0.1918	0.21356	0.11151	0.18684	0.15716	0.058239	0.21195	0.27913	0.13676	0.23007	0.37862	0.30281	0.020693	0.15266	0.10687	0.16802	-2.5938	-2.8479	-3.4313	-2.6979	-3.1479	-3.2208	-2.6479	-3.5563	-2.9708	-2.6937	-3.4688	-2.7354	-3.0604	-3.3688	-2.5979	-3.4437	-98.408	180.928	38.583	165.990	113.208	-72.013	194.746	169.030	153.387	173.595	-124.743	182.217	149.744	-81.372	150.913	171.485	0.00090176	0.00029707	0.00010809	1231.8	1.0817e-06	1.6464e-06	1241.7	349.17	6.0642e-06	6.0721e-06	397.8	130.87	113.3	38.657	3.0023e-06	48.314	0.00026534	0.00026175	7.2726e-05	1183.9	2.874e-06	2.8596e-06	1197.7	334.37	2.886e-06	2.8549e-06	361.53	123.39	105.63	36.369	2.8752e-06	45.135	93.107	96.887	-112.843	-129.249	82.839	25.114	-129.130	-124.392	-73.563	52.608	-124.823	-120.589	-120.426	-115.220	-129.615	-115.877	-8191	255	
1090.492	1	1	0	0	0.20223	0.18785	0.081657	0.35608	0.078346	0.17574	0.27336	0.15705	0.15769	0.26192	0.15079	0.059819	0.08263	0.085109	0.19883	0.12292	-2.4604	-2.4896	-3.425	-2.925	-3.0479	-3.2458	-2.6458	-3.3604	-3.1854	-2.6375	-3.3042	-2.8458	-3.0729	-3.3688	-2.5042	-3.4458	-45.237	-85.209	150.206	188.400	-125.839	114.897	186.290	-107.433	-96.340	-11.011	75.379	181.908	-116.733	162.197	198.363	-135.015	0.0011731	0.00054019	0.00019329	1227.5	3.233e-06	1.4025e-06	1238.5	348.28	1.2872e-06	4.3995e-06	396.58	130.91	113.53	38.608	4.6836e-06	48.097	0.00026392	0.00026218	7.2739e-05	1183.1	2.8729e-06	2.8537e-06	1197.7	333.5	2.8704e-06	2.8574e-06	360.46	123.55	105.85	36.373	2.8501e-06	44.996	85.995	17.155	-120.465	-128.972	-48.057	-51.883	-130.068	-125.113	0.546	44.986	-125.569	-121.305	-120.721	-115.818	-10.718	-116.427	-8191	255	
1090.588	1	1	0	0	0.1564	0.093546	0.19767	0.12327	0.19878	0.10943	0.25173	0.18839	0.15746	0.13485	0.065656	0.18671	0.13823	0.32397	0.19586	0.24216	-2.6437	-2.6083	-3.425	-3	-2.8667	-3.3979	-2.8896	-3.2792	-3.3208	-2.7	-3.4167	-2.9271	-2.8583	-3.4437	-2.7333	-3.2354	-120.184	93.851	195.297	205.755	-113.830	49.302	126.347	73.759	34.179	-76.622	83.213	146.869	97.177	208.089	-10.407	184.449	0.00070845	0.00058333	4.0446e-05	1228.7	4.0768e-06	3.7569e-06	1242.7	347.51	2.8409e-06	3.2296e-06	396.75	130.39	113.51	38.551	5.449e-06	47.946	0.00026451	0.00026272	7.2301e-05	1185.5	2.8616e-06	2.8608e-06	1197.9	333.27	2.868e-06	2.8682e-06	360.27	123.4	105.72	36.363	2.861e-06	44.979	72.540	-40.598	43.807	-129.144	-0.931	-52.001	-129.728	-125.198	-13.586	102.260	-125.521	-121.570	-121.082	-116.495	-87.544	-117.266	-8191	255	
1090.685	1	1	0	0	0.089627	0.29751	0.1293	0.26838	0.21408	0.2098	0.20806	0.32788	0.33277	0.15415	0.071068	0.18505	0.14073	0.2146	0.072372	0.15593	-2.8521	-2.4521	-3.3208	-3.0812	-2.6958	-3.5521	-2.8479	-3.225	-3.3563	-2.6125	-3.4583	-3.1396	-2.8354	-3.3333	-2.7458	-2.9854	-95.347	48.847	-51.988	187.973	15.586	-98.497	159.518	-135.498	148.258	82.634	176.145	135.088	99.128	86.896	-68.521	213.242	0.00078058	0.0002887	2.0229e-05	1228.7	5.4623e-06	1.6614e-06	1238.4	349.09	4.549e-06	3.1464e-06	396.68	130.38	113.88	38.679	1.924e-06	48.287	0.00026278	0.00026031	7.2143e-05	1183.4	2.86e-06	2.8404e-06	1197.7	333.62	2.8292e-06	2.8377e-06	360.15	123.26	105.72	36.405	2.821e-06	45.05	74.655	51.362	-76.310	-129.910	-55.313	-24.795	-130.330	-125.205	-81.859	58.452	-125.263	-121.648	-121.287	-116.259	1.013	-116.877	-8191	255	
1090.803	1	1	0	0	0.075836	0.17006	0.19749	0.14678	0.072125	0.11757	0.13399	0.2327	0.090065	0.059012	0.1326	0.26673	0.14891	0.1344	0.11613	0.044322	-2.8646	-2.6917	-3.1667	-3.1125	-2.6625	-3.4896	-3.0625	-3	-3.4625	-2.7396	-3.375	-3.2313	-2.7146	-3.4062	-2.7188	-2.9542	186.549	128.134	-118.126	90.619	62.878	200.554	128.025	-5.475	-112.714	105.650	5.989	133.118	113.937	171.420	151.177	-56.281	0.001188	0.00026782	9.2845e-05	1225.4	1.5027e-07	5.8049e-07	1242.6	348.33	3.6924e-06	3.5698e-06	396.86	131.12	113.39	38.669	1.7288e-06	48.035	0.00026161	0.00026095	7.2027e-05	1183.4	2.8319e-06	2.8271e-06	1199.2	333.58	2.8334e-06	2.8308e-06	360.08	123.56	105.61	36.312	2.8409e-06	44.889	91.143	160.748	53.722	-129.951	26.421	108.782	-130.524	-125.315	-21.041	52.380	-125.992	-121.597	-121.121	-116.366	129.505	-117.147	-8191	255	
1090.875	1	1	0	0	0.3754	0.11148	0.18139	0.24964	0.26732	0.25907	0.21988	0.18254	0.30268	0.041322	0.17044	0.13678	0.26678	0.18173	0.20778	0.15058	-3.025	-2.6021	-3.05	-3.4833	-2.5958	-3.3583	-3.1375	-2.7792	-3.3417	-2.5604	-3.2458	-3.5458	-2.8917	-3.3146	-2.9	-2.7083	87.220	-75.149	-25.505	150.260	-113.121	-55.899	127.584	184.815	179.015	214.441	71.483	148.429	127.819	-142.122	-111.949	200.188	0.00094058	0.00058181	5.8096e-05	1224.4	3.014e-06	3.7077e-06	1238.2	347.22	1.4558e-06	6.6898e-06	396.98	130.68	113.78	38.7	5.7825e-06	47.946	0.00026173	0.00025876	7.2055e-05	1182.6	2.8318e-06	2.8221e-06	1198	333.28	2.8451e-06	2.8331e-06	360.34	123.36	105.71	36.419	2.8111e-06	44.985	90.932	-86.428	-93.188	-129.895	-57.532	-27.859	-130.088	-125.463	194.105	99.206	-125.552	-121.840	-121.172	-116.237	-140.120	-117.258	-8191	255	
1090.973	1	1	0	0	0.086473	0.11922	0.070074	0.09535	0.093224	0.21138	0.096557	0.070036	0.074867	0.14655	0.085659	0.29336	0.42466	0.26222	0.159	0.1477	-3.1167	-2.8438	-2.9833	-3.6125	-2.5646	-3.2458	-3.2333	-2.6604	-3.3625	-2.8125	-3.0708	-3.475	-2.7771	-3.2771	-3.325	-2.8646	137.714	-21.190	150.930	151.209	-49.972	17.650	192.761	173.122	44.756	42.621	100.370	157.279	170.159	156.937	20.410	38.133	0.00061078	0.00013871	0.00012982	1225.9	2.4469e-06	5.5031e-06	1243.4	348.58	4.8511e-07	3.8751e-06	395.03	130.26	113.33	38.865	2.4564e-06	48.114	0.00026103	0.00025918	7.148e-05	1183.7	2.8263e-06	2.8193e-06	1198.6	333.85	2.8215e-06	2.829e-06	360.04	123.48	105.7	36.369	2.8379e-06	44.98	106.834	-106.583	-17.173	-129.806	-110.939	-4.624	-130.035	-125.185	-75.926	-15.098	-125.775	-121.490	-121.220	-116.241	193.305	-117.323	-8191	255	
1091.092	1	1	0	0	0.17887	0.12354	0.14124	0.24345	0.32213	0.1117	0.2047	0.16192	0.11896	0.19037	0.20354	0.43545	0.076044	0.24792	0.11913	0.091319	-3.05	-2.7771	-2.875	-3.6	-2.7208	-3.2521	-3.3542	-2.6667	-3.4896	-2.7917	-2.9167	-3.5667	-2.6979	-3.1458	-3.3563	-2.7146	27.597	-8.438	70.544	184.693	196.131	143.920	-136.733	38.143	82.018	8.734	208.963	205.237	-126.514	214.408	116.110	-100.595	0.0010262	0.00033293	0.00011096	1228.7	3.1248e-06	3.1127e-06	1239.6	348.6	1.2409e-06	4.4691e-06	397.36	131.19	113.5	38.708	1.1447e-06	48.269	0.00026079	0.00025808	7.1685e-05	1184.4	2.8311e-06	2.8423e-06	1196.8	333.86	2.8402e-06	2.8158e-06	360.64	123.55	105.64	36.422	2.8182e-06	44.991	84.467	-51.484	-62.231	-129.944	-111.103	1.172	-130.169	-125.177	124.001	49.333	-125.777	-121.485	-121.208	-116.148	4.389	-116.980	-8191	255	
1091.188	1	1	0	0	0.27585	0.13848	0.026046	0.27221	0.26684	0.064154	0.11534	0.08586	0.12127	0.082244	0.11377	0.24894	0.19998	0.12699	0.22949	0.059324	-2.9104	-2.9979	-2.7687	-3.5375	-2.5542	-2.9083	-3.5479	-2.7854	-3.2042	-2.8896	-2.8833	-3.3208	-2.8604	-3.1021	-3.3208	-2.6396	-65.601	-2.304	-135.887	213.020	133.106	151.688	130.819	173.750	71.729	125.390	-116.293	155.257	25.337	12.014	140.737	150.315	0.0010797	6.9017e-05	8.4202e-05	1225.5	2.1043e-06	2.0915e-06	1241.1	347.91	4.5301e-06	2.8345e-06	397.44	131.13	112.85	38.54	3.6878e-06	47.909	0.00026192	0.00025827	7.2065e-05	1183.3	2.8423e-06	2.8547e-06	1198.7	333.59	2.8564e-06	2.8176e-06	360.51	123.78	105.46	36.329	2.8204e-06	44.912	93.714	-142.950	-62.367	-129.732	-127.508	29.738	-130.207	-125.339	7.679	51.022	-125.354	-121.253	-120.921	-115.791	-56.118	-117.423	-8191	255	
1091.284	1	1	0	0	0.21432	0.063287	0.12357	0.17089	0.063356	0.15321	0.21237	0.090391	0.13257	0.10089	0.2848	0.067268	0.076215	0.17951	0.068909	0.14699	-2.9062	-2.9813	-2.6021	-3.6458	-2.7625	-2.7687	-3.575	-2.9229	-3.1937	-3.1083	-2.5979	-3.4708	-2.9208	-2.8792	-3.4292	-2.6792	-1.324	172.086	148.964	154.999	-27.628	-93.537	115.152	87.908	-22.589	209.698	-93.979	-52.632	181.235	176.190	-89.456	-135.202	0.0011234	0.0003218	0.00010675	1223	3.6836e-06	3.4108e-06	1238.8	348.25	4.2847e-06	5.0742e-06	395.91	130.31	112.97	38.652	1.4493e-06	48.287	0.00026228	0.00026006	7.2105e-05	1184	2.8492e-06	2.867e-06	1198.9	333.41	2.8494e-06	2.8253e-06	360.81	123.45	105.51	36.408	2.8442e-06	45.051	77.451	-71.708	214.354	-129.871	178.227	-116.228	-130.352	-125.098	-84.494	129.488	-125.818	-121.408	-121.330	-116.001	-78.722	-117.381	-8191	255	
1091.405	1	1	0	0	0.096978	0.19916	0.15573	0.13859	0.18017	0.10656	0.10013	0.31866	0.13908	0.30735	0.083221	0.16243	0.20779	0.018584	0.027737	0.27673	-2.7938	-3.3187	-2.5146	-3.5563	-2.8812	-2.8396	-3.5271	-2.6542	-2.9792	-3.2188	-2.6396	-3.2896	-2.9562	-2.7917	-3.4792	-2.9521	1.881	82.396	53.668	163.382	98.284	-39.787	136.481	200.241	-45.828	39.877	-80.754	129.445	197.661	5.277	-121.692	184.755	0.00044273	0.00028285	7.4259e-05	1226.4	1.1202e-06	5.1455e-06	1238.1	347.59	3.806e-06	4.5704e-06	393.12	130.68	112.74	38.713	4.7323e-06	48.403	0.00026096	0.00025799	7.2086e-05	1184.2	2.8035e-06	2.8193e-06	1198.2	333.39	2.8265e-06	2.8353e-06	359.81	123.59	105.49	36.384	2.8401e-06	44.953	134.061	-82.723	48.180	-129.700	84.645	24.389	-130.285	-125.325	-87.765	39.721	-126.085	-121.874	-121.465	-116.019	118.589	-117.339	-8191	255	
1091.501	1	1	0	0	0.089785	0.15832	0.11504	0.38412	0.13417	0.082929	0.29537	0.10688	0.17767	0.12372	0.06918	0.40069	0.23687	0.10143	0.20231	0.069286	-2.45	-3.2146	-2.4667	-3.1667	-2.9188	-2.7979	-3.5167	-2.8875	-2.9313	-3.2646	-2.6375	-3.0646	-3.0687	-2.6	-3.2438	-2.8688	173.298	119.413	134.812	203.717	-79.434	107.213	165.119	68.765	181.809	75.772	17.273	204.910	-102.949	-128.579	180.298	57.022	0.00094154	0.00058634	9.3697e-05	1223.5	2.4377e-06	4.9671e-06	1241.9	349.22	3.4764e-06	8.4364e-07	393.83	130.63	113.08	38.576	4.0074e-06	47.816	0.00026352	0.00025805	7.1511e-05	1181.9	2.8281e-06	2.8277e-06	1198.1	333.78	2.8302e-06	2.8363e-06	360.11	123.55	105.64	36.338	2.8323e-06	44.922	98.686	68.570	-142.979	-129.917	-17.801	17.994	-130.388	-125.420	-66.735	-3.692	-125.807	-121.864	-121.270	-116.252	-29.350	-117.191	-8191	255	
1091.573	1	1	0	0	0.27818	0.1017	0.051507	0.16967	0.32425	0.20967	0.15425	0.2249	0.12954	0.061737	0.12977	0.08419	0.17163	0.2066	0.037833	0.16034	-2.3375	-3.1229	-2.7417	-3.4146	-2.9938	-2.6792	-3.5167	-2.8875	-2.6458	-3.2771	-2.6604	-3.1104	-3.4562	-2.6917	-3.3354	-3.1479	-101.312	-81.864	-41.475	164.896	-6.087	114.265	92.215	207.890	33.357	176.907	100.294	-112.970	185.548	-132.520	-137.227	143.375	0.00070191	0.00063308	0.00018292	1226.9	3.1525e-06	2.649e-06	1245.4	348.82	3.5085e-06	4.7136e-06	397.62	130.06	113.06	38.679	2.8756e-06	47.958	0.00026161	0.00025833	7.1784e-05	1182.1	2.8354e-06	2.8483e-06	1199.7	333.49	2.8417e-06	2.8421e-06	361.01	123.4	105.51	36.41	2.8342e-06	44.94	72.405	-7.201	-85.729	-129.853	-130.428	91.048	-130.330	-125.537	-36.061	-44.334	-125.509	-121.583	-121.224	-116.315	-85.789	-117.355	-8191	255	
1091.669	1	1	0	0	0.20373	0.09927	0.04086	0.23463	0.16081	0.10971	0.16978	0.37025	0.10394	0.089504	0.16136	0.07855	0.054356	0.075337	0.24923	0.28039	-2.2917	-3.3812	-2.7188	-3.1271	-3.1229	-2.5521	-3.4958	-3.1396	-2.6896	-3.3125	-2.8021	-3.0521	-3.3854	-2.6042	-3.0375	-3.1937	155.544	146.891	67.658	141.956	141.989	-19.518	173.822	191.673	211.745	59.355	126.878	-76.595	212.638	187.996	174.294	131.525	0.00091533	0.00030174	3.6688e-05	1225.7	4.6753e-06	1.7533e-06	1243.9	347.36	2.8315e-06	4.5207e-06	398.03	131.23	112.62	38.656	6.3092e-07	48.141	0.00026102	0.0002616	7.2102e-05	1183.8	2.8292e-06	2.8506e-06	1200	332.69	2.8459e-06	2.838e-06	360.33	123.63	105.63	36.455	2.8533e-06	44.978	95.183	-10.951	-67.869	-129.959	-94.816	-45.091	-130.432	-125.507	105.255	131.459	-126.001	-121.673	-121.287	-116.408	204.748	-117.455	-8191	255	
1091.788	1	1	0	0	0.12688	0.049547	0.073568	0.37793	0.12118	0.23761	0.12984	0.081592	0.046187	0.11084	0.11182	0.085738	0.1873	0.14675	0.13329	0.39342	-2.3438	-3.425	-2.6771	-3.0833	-3.4375	-2.6458	-3.3167	-3.2292	-2.6583	-3.2083	-2.9271	-2.9688	-3.4208	-2.7708	-3.1188	-3.25	100.688	-83.476	159.505	160.699	131.272	11.926	157.071	152.434	109.803	12.003	70.938	-34.209	163.592	211.691	41.914	165.726	0.0012986	0.00020751	0.00019243	1225.5	4.3104e-06	3.8698e-06	1246	346.82	4.2213e-06	4.1208e-06	396.55	130.52	113.84	38.578	6.0033e-06	48.089	0.00026262	0.00025911	7.2191e-05	1183.2	2.8193e-06	2.8363e-06	1201	333.18	2.8387e-06	2.8504e-06	360.54	123.52	105.59	36.328	2.8575e-06	44.966	92.759	-28.494	-54.185	-129.737	-51.868	19.821	-130.096	-125.448	-3.762	125.720	-125.988	-121.731	-121.715	-116.553	55.762	-117.447	-8191	255	
1091.884	1	1	0	0	0.13361	0.11281	0.24546	0.062636	0.083001	0.12535	0.29033	0.22575	0.0090855	0.12532	0.18255	0.21682	0.20192	0.06009	0.18924	0.19409	-2.0812	-3.2521	-2.7854	-3.0271	-3.2854	-2.5396	-3.2188	-3.4188	-2.6417	-3.2354	-3.0125	-2.7104	-3.4646	-2.7	-3.1021	-3.475	64.560	117.218	107.489	-22.457	-105.068	-132.500	116.354	136.199	-29.956	151.415	78.220	186.302	41.679	-8.776	-121.134	81.596	0.00078578	0.00070095	8.3386e-05	1225.5	9.6984e-07	1.8371e-06	1242.7	346.72	8.3602e-07	2.7705e-06	398.29	130.34	113.27	38.6	1.6659e-06	48.141	0.00026166	0.00025939	7.1733e-05	1182.9	2.8695e-06	2.8383e-06	1198.8	333.14	2.836e-06	2.8349e-06	360.64	123.51	105.59	36.336	2.8485e-06	45	72.385	-5.530	-111.736	-130.109	64.518	161.070	-130.544	-125.763	-134.325	-105.717	-126.423	-121.887	-121.535	-116.672	-69.330	-117.468	-8191	255	
1091.980	1	1	0	0	0.15083	0.27265	0.30354	0.12582	0.013843	0.090414	0.38251	0.24653	0.17786	0.13189	0.13388	0.18537	0.1954	0.21583	0.19894	0.12516	-2.1417	-3.1708	-2.9271	-2.9271	-3.3167	-2.7771	-3.1937	-3.5812	-2.5667	-3.2271	-3.2229	-2.9104	-3.3729	-2.7812	-2.9479	-3.3438	-42.975	-122.303	144.337	89.467	196.157	-36.644	138.836	147.675	129.990	-135.735	193.316	159.964	90.884	179.416	119.098	179.174	0.00060362	0.00064209	2.904e-06	1223.9	1.4098e-06	4.1687e-07	1239.3	348.13	1.8095e-06	5.6487e-07	397.26	131.04	113.09	38.626	2.1253e-06	48.044	0.00026253	0.00025889	7.2427e-05	1182	2.8447e-06	2.8319e-06	1198.8	333.71	2.8416e-06	2.8387e-06	359.09	123.61	105.55	36.399	2.8706e-06	44.962	102.993	-49.305	-137.485	-130.088	215.431	-0.162	-130.507	-125.941	57.146	-52.198	-126.471	-121.703	-121.647	-116.832	-21.793	-117.534	-8191	255	
1092.101	1	1	0	0	0.090924	0.25658	0.14039	0.21082	0.27387	0.296	0.30504	0.34817	0.14059	0.10595	0.17287	0.2738	0.17261	0.16265	0.14309	0.13464	-2.0854	-3.2021	-3.2375	-2.8646	-3.4771	-2.9583	-2.7375	-3.5312	-2.575	-3.0333	-3.0438	-2.5271	-3.4437	-2.9333	-2.7042	-3.5062	-95.784	-44.368	-102.370	186.463	198.903	104.062	140.618	164.456	54.625	-65.703	205.323	209.354	113.732	184.177	198.722	176.778	0.0011225	0.00012611	0.00011153	1224.2	3.4168e-06	1.1104e-06	1245.5	347.17	4.1225e-06	5.998e-06	396.31	130.73	113.69	38.566	3.2375e-06	47.945	0.00026108	0.00026008	7.2152e-05	1182	2.8553e-06	2.8507e-06	1200.1	333.54	2.8495e-06	2.8684e-06	359.79	123.54	105.88	36.297	2.8533e-06	44.946	87.145	95.562	-133.917	-129.966	-61.441	17.497	-130.522	-125.521	-16.419	67.572	-125.790	-121.850	-121.685	-116.481	-104.994	-117.563	-8191	255	
1092.172	1	1	0	0	0.27164	0.29982	0.17169	0.33123	0.257	0.11089	0.23172	0.35486	0.12188	0.1189	0.32376	0.12901	0.15362	0.11783	0.13864	0.085348	-2.3042	-3.0708	-3.15	-2.5938	-3.2438	-2.8604	-2.6875	-3.4979	-2.7062	-2.9271	-3.2854	-2.6771	-3.3125	-3.1813	-2.6375	-3.3958	-140.849	-21.111	23.217	128.518	6.843	150.797	193.653	202.820	70.076	-50.541	119.946	75.087	-27.757	-0.723	-87.457	-102.446	0.00099817	0.00019856	9.692e-05	1226	3.7705e-06	3.1257e-06	1240.6	348.78	3.5584e-06	4.1909e-06	395.47	130.51	113.45	38.522	3.1389e-06	48.129	0.00026371	0.00026157	7.2292e-05	1183.1	2.85e-06	2.8596e-06	1197.8	334.18	2.8741e-06	2.8628e-06	360.68	123.6	105.72	36.355	2.8679e-06	44.978	88.006	-36.393	-93.632	-129.970	-42.483	8.519	-130.428	-125.545	31.401	-40.392	-126.034	-121.749	-121.635	-116.604	-131.019	-117.876	-8191	255	
1092.268	1	1	0	0	0.19903	0.12263	0.27615	0.2172	0.14157	0.1195	0.2829	0.27098	0.054718	0.15414	0.067842	0.097782	0.16613	0.22561	0.095403	0.22786	-2.3729	-2.8042	-3.4271	-2.7771	-3.0854	-3.1063	-2.7771	-3.6104	-2.6208	-2.8438	-3.5	-2.6646	-3.3167	-3.2333	-2.6625	-3.4938	94.854	79.886	50.409	141.900	-77.074	-27.068	143.447	214.812	44.229	21.896	-110.205	2.974	-140.146	163.046	-58.901	192.097	0.0010125	0.00061741	0.00020509	1221.5	4.4709e-06	3.4407e-06	1240.6	346.53	4.3873e-06	1.2591e-06	398.39	130.54	113.31	38.458	1.9698e-06	47.977	0.00026583	0.00026225	7.2865e-05	1181.8	2.8728e-06	2.8688e-06	1197	333.65	2.8582e-06	2.858e-06	361.31	123.6	105.85	36.376	2.8846e-06	45.055	91.873	62.068	-52.243	-130.111	44.213	-5.236	-130.482	-125.744	18.804	59.579	-126.180	-121.738	-121.472	-116.801	110.988	-117.868	-8191	255	
1092.365	1	1	0	0	0.06419	0.19401	0.17253	0.3341	0.27701	0.20245	0.29639	0.31523	0.24691	0.22064	0.18259	0.1569	0.079386	0.25475	0.18908	0.026029	-2.375	-2.5833	-3.3042	-2.7958	-3.1604	-3.1	-2.8187	-3.3625	-2.9729	-2.6792	-3.5792	-2.9167	-3.0333	-3.3812	-2.5938	-3.3229	-112.712	147.672	55.558	142.131	49.653	97.735	121.399	201.812	3.498	52.268	-122.573	-125.848	207.730	191.177	-69.798	-135.723	0.00086539	0.00044841	8.3315e-05	1224.5	7.6948e-06	3.3603e-06	1240.7	347.72	5.3331e-06	1.8292e-06	396.27	130.35	113.53	38.453	8.4812e-06	48.126	0.00026573	0.00026445	7.2632e-05	1182.7	2.8698e-06	2.8802e-06	1198.5	334	2.8773e-06	2.8644e-06	360.77	123.52	105.84	36.4	2.879e-06	45.035	97.164	19.821	-111.443	-130.306	-120.149	107.926	-130.670	-125.744	-99.182	125.253	-126.083	-121.692	-121.701	-116.897	-90.966	-117.234	-8191	255	
1092.485	1	1	0	0	0.18565	0.051473	0.11998	0.34599	0.11437	0.15848	0.20024	0.28417	0.097457	0.13315	0.17469	0.2298	0.038697	0.22655	0.10806	0.28391	-2.6188	-2.5812	-3.4979	-2.7958	-2.7896	-3.25	-2.8146	-3.4479	-3.1708	-2.825	-3.5083	-2.7812	-2.9313	-3.3563	-2.5646	-3.2792	-57.025	195.584	142.169	193.687	-135.411	-6.449	120.261	150.446	99.372	1.824	102.360	-138.959	213.454	201.970	-22.734	141.787	0.0011223	0.00026869	5.3787e-05	1224.7	2.3422e-06	3.0366e-06	1241.7	349.65	5.3921e-06	8.7489e-07	396.28	130.56	113.81	38.603	7.019e-07	47.948	0.00026658	0.00026285	7.3057e-05	1182.7	2.8679e-06	2.8663e-06	1198.5	334.58	2.8911e-06	2.8779e-06	361.28	123.56	106.02	36.403	2.898e-06	45.014	85.403	95.669	-24.060	-130.229	53.531	-1.326	-130.370	-125.548	23.330	-78.931	-126.321	-122.220	-121.763	-116.546	99.640	-117.353	-8191	255	
1092.581	1	1	0	0	0.3456	0.059663	0.048521	0.21241	0.24107	0.033585	0.17227	0.24255	0.12104	0.09134	0.11482	0.13045	0.082788	0.23295	0.18431	0.23014	-2.9188	-2.7625	-3.4188	-2.9125	-2.8833	-3.2958	-2.8625	-3.2708	-3.3187	-2.6646	-3.3	-3.1521	-2.5854	-3.4938	-2.7	-3.1312	68.297	-140.161	-103.331	207.876	-137.575	-140.771	168.051	205.066	135.077	-36.949	179.435	194.367	197.712	-121.972	174.060	-117.934	0.00067087	0.00057341	0.00018477	1221.9	2.1566e-06	1.8972e-06	1242.6	348.49	3.1628e-06	3.2338e-06	394.87	131.17	113.51	38.659	1.4704e-06	48.014	0.0002674	0.00026433	7.3519e-05	1182.4	2.8806e-06	2.8683e-06	1199.8	334.17	2.8878e-06	2.8886e-06	360.25	123.67	105.86	36.432	2.9007e-06	45.088	86.903	-8.536	-109.277	-130.245	-31.331	-9.349	-130.627	-125.889	-99.708	157.024	-126.262	-122.037	-121.778	-116.675	198.377	-117.096	-8191	255	
1092.677	1	1	0	0	0.060501	0.20937	0.15634	0.045955	0.20381	0.42589	0.12947	0.10822	0.022322	0.089909	0.10798	0.17816	0.20043	0.12993	0.11301	0.15752	-2.8771	-2.5708	-3.4146	-3.2812	-2.7396	-3.3	-2.8396	-3.075	-3.2021	-2.5979	-3.3375	-3.2271	-2.6458	-3.3292	-2.7604	-3.0396	130.656	17.266	-67.137	186.712	76.787	175.165	164.784	-133.553	-69.708	-25.369	185.134	156.619	170.878	123.284	139.307	20.203	0.0007964	0.00080458	0.0002206	1223	3.2248e-06	3.1562e-06	1237.8	347.12	4.5717e-06	2.6305e-06	395.96	130.43	113.27	38.635	3.5965e-06	48.026	0.00026745	0.00026368	7.3469e-05	1183.9	2.8817e-06	2.9003e-06	1198.7	333.85	2.8872e-06	2.8863e-06	361.27	123.65	105.67	36.404	2.9105e-06	45.064	91.158	-13.415	-25.859	-130.136	-75.311	103.906	-130.772	-125.747	-37.510	123.904	-126.190	-122.010	-121.465	-116.717	-123.107	-117.438	-8191	255	
1092.774	1	1	0	0	0.19955	0.070307	0.14012	0.059701	0.36306	0.14679	0.26714	0.2647	0.15926	0.13541	0.16243	0.1272	0.23489	0.18676	0.072699	0.24289	-2.9562	-2.6521	-3.3312	-3.425	-2.5042	-3.5187	-2.8979	-2.9521	-3.3479	-2.6146	-3.0583	-3.2708	-2.5708	-3.5	-2.8854	-2.9083	30.201	-141.710	-44.902	63.596	89.339	-137.192	114.778	149.728	-24.783	-52.432	-61.626	176.707	122.358	157.569	-88.297	139.173	0.00082511	0.00094608	0.00014407	1224.9	2.9341e-06	1.0286e-06	1234.7	347.96	4.3507e-06	1.8955e-06	396.53	130.62	113.25	38.812	4.6792e-06	47.727	0.00026728	0.00026526	7.385e-05	1182.4	2.8886e-06	2.8957e-06	1197.5	334.1	2.9039e-06	2.9017e-06	361.68	123.62	105.77	36.469	2.8831e-06	45.089	112.119	-11.931	15.501	-130.349	-65.409	77.544	-130.701	-125.576	53.141	-46.202	-125.657	-122.074	-121.501	-116.613	-55.895	-117.067	-8191	255	
1092.868	1	1	0	0	0.10282	0.15746	0.12425	0.2847	0.29142	0.094984	0.40356	0.31846	0.2177	0.076768	0.073494	0.19249	0.29664	0.12418	0.073921	0.29177	-2.9458	-2.5125	-3.25	-3.3312	-2.6604	-3.2792	-3.0687	-2.8021	-3.3896	-2.6875	-3.1	-3.4042	-2.5312	-3.3187	-3.0396	-2.6396	199.509	215.310	102.317	153.988	164.513	178.439	110.825	99.976	-108.437	156.996	57.150	125.787	-103.779	50.369	107.511	139.238	0.00078909	0.00073585	0.00013701	1226.6	1.4384e-06	3.5028e-06	1237.3	347.47	2.5815e-06	2.2263e-06	396.93	130.95	113.33	38.608	7.0198e-06	47.86	0.00026765	0.00026515	7.36e-05	1182.8	2.8861e-06	2.9015e-06	1197.8	334.2	2.9067e-06	2.8995e-06	360.88	123.82	105.85	36.447	2.8814e-06	44.994	96.771	-40.395	-0.577	-130.207	-125.427	-141.594	-130.405	-125.875	-9.966	40.408	-125.949	-121.861	-121.487	-116.494	-50.172	-117.574	-8191	255	
1092.964	1	1	0	0	0.27829	0.025265	0.31484	0.33329	0.20007	0.069988	0.12945	0.12889	0.064365	0.088474	0.018506	0.040526	0.082537	0.18107	0.14121	0.066952	-2.9396	-2.7083	-2.8875	-3.3604	-2.5146	-3.2958	-3.3854	-2.7146	-3.3271	-3.0292	-2.8125	-3.4375	-2.6646	-3.1146	-3.3104	-2.9167	-30.804	-95.422	-68.944	151.054	124.829	135.903	176.714	132.257	139.783	-92.826	58.217	162.579	169.167	182.684	-12.473	26.606	0.001008	0.00013001	4.1725e-05	1220	2.7062e-06	2.3005e-06	1240.1	347.8	9.0131e-06	5.6274e-07	395.61	130.87	113.38	38.592	3.7548e-07	47.869	0.00026926	0.0002645	7.3613e-05	1182.7	2.8896e-06	2.8912e-06	1199.2	333.66	2.8844e-06	2.8967e-06	361.58	123.61	105.72	36.396	2.8969e-06	45.016	81.450	94.367	-63.494	-130.089	-57.471	-4.184	-130.536	-125.362	-41.111	-93.415	-125.958	-121.688	-121.418	-116.325	169.032	-117.343	-8191	255	
1093.085	1	1	0	0	0.064239	0.23996	0.12403	0.25201	0.056491	0.19922	0.34492	0.22833	0.14565	0.13302	0.025427	0.24957	0.19969	0.12718	0.1302	0.10239	-2.9729	-2.7146	-2.8583	-3.4604	-2.575	-3.1104	-3.4833	-2.7396	-3.3667	-2.9875	-2.8	-3.5208	-2.7729	-3.2104	-3.2646	-2.7188	-41.214	-115.251	92.213	-78.074	63.190	-131.297	127.527	160.124	203.268	124.769	-117.551	138.569	174.816	211.488	-69.096	-77.866	0.0011414	0.00063334	0.00028479	1224.7	1.7875e-06	2.5344e-06	1245.2	348.4	4.5992e-06	1.8665e-06	395.9	130.32	113.42	38.743	3.404e-06	48.115	0.00026557	0.00026316	7.3562e-05	1183.9	2.8722e-06	2.8768e-06	1198.5	333.9	2.8977e-06	2.8748e-06	361.14	123.64	105.87	36.495	2.8775e-06	45.067	90.888	10.096	-46.640	-130.001	-49.585	-47.709	-130.578	-125.447	-37.303	119.242	-125.821	-121.738	-121.526	-116.426	-96.914	-117.229	-8191	255	
1093.181	1	1	0	0	0.16597	0.15614	0.32983	0.33223	0.086839	0.077408	0.157	0.1452	0.078845	0.27604	0.36483	0.16958	0.11243	0.16118	0.16023	0.20784	-2.9896	-2.9792	-2.6813	-3.6396	-2.6979	-3.0438	-3.475	-2.5708	-3.2417	-2.8958	-2.8021	-3.6542	-2.6792	-2.9875	-3.2604	-2.6667	2.845	-85.189	84.812	-127.680	121.930	203.529	200.773	16.512	126.555	19.061	121.778	181.602	204.238	215.807	60.544	189.896	0.00093888	0.00031328	5.2285e-05	1227.3	5.4886e-06	2.5889e-06	1239.7	348.97	6.3225e-06	5.2336e-06	396.46	130.48	113.59	38.607	1.4911e-06	48.275	0.00026551	0.00026146	7.2793e-05	1183.5	2.8859e-06	2.8614e-06	1198.2	334.08	2.8567e-06	2.8563e-06	360.61	123.57	105.72	36.398	2.8292e-06	45.118	66.644	187.803	-101.842	-129.874	-21.633	-8.611	-130.331	-125.634	-72.289	-65.657	-125.764	-121.627	-121.247	-115.960	124.982	-117.475	-8191	255	
1093.277	1	1	0	0	0.08056	0.15743	0.2017	0.11071	0.12764	0.12643	0.27066	0.27477	0.046377	0.13386	0.23061	0.092395	0.10199	0.11546	0.29555	0.15863	-2.7979	-2.9604	-2.5854	-3.6958	-2.9542	-2.7625	-3.5646	-2.7292	-3.1479	-3.0812	-2.6208	-3.2875	-2.9333	-3.0167	-3.2812	-2.7146	-61.151	-118.422	98.113	-72.513	59.384	109.143	130.957	214.026	2.429	-12.945	104.156	116.437	141.743	-33.933	19.696	173.413	0.00096871	0.00030899	9.5e-05	1226	2.006e-07	3.1294e-06	1236.8	347.87	6.8383e-06	2.4657e-06	399.47	131.35	113.15	38.698	2.0516e-06	48.222	0.0002642	0.00025995	7.2229e-05	1183.3	2.857e-06	2.8589e-06	1198.4	333.87	2.8528e-06	2.8573e-06	361.92	123.7	105.5	36.402	2.8523e-06	45.116	94.944	-28.983	-17.711	-129.886	150.210	2.075	-130.225	-125.405	-70.968	-51.414	-126.141	-121.526	-121.203	-116.175	107.681	-117.146	-8191	255	
1093.373	1	1	0	0	0.14584	0.08478	0.16198	0.15852	0.012776	0.19599	0.17976	0.30071	0.19717	0.28111	0.13017	0.17896	0.14351	0.22114	0.22438	0.20739	-2.6542	-3.2271	-2.5917	-3.5479	-2.8792	-2.7625	-3.4667	-2.7917	-3.0187	-3.4313	-2.8354	-3.3875	-2.9917	-2.8167	-3.3187	-2.9958	-83.259	-53.374	9.796	-89.147	-4.258	-108.485	161.650	203.261	-28.075	96.485	208.519	187.722	190.265	-130.516	-102.566	-105.058	0.00094592	0.00029849	0.00015403	1225.6	1.2422e-06	2.4753e-06	1240.6	349.21	4.4666e-06	3.354e-06	398.3	130.01	113.15	38.663	2.4373e-06	47.975	0.00026372	0.0002602	7.2327e-05	1183.7	2.8371e-06	2.8402e-06	1199.3	334.05	2.8361e-06	2.8449e-06	361	123.47	105.51	36.308	2.8225e-06	44.922	84.461	56.108	-82.402	-129.690	137.848	-106.977	-130.499	-125.290	79.443	48.602	-125.892	-121.611	-121.271	-116.184	-86.846	-117.008	-8191	255	
1093.469	1	1	0	0	0.027059	0.0579	0.049005	0.21282	0.15048	0.22581	0.1508	0.28905	0.052688	0.18282	0.1347	0.24206	0.20382	0.14036	0.22609	0.2524	-2.7208	-3.1188	-2.5833	-3.4125	-2.9271	-2.7271	-3.65	-2.9958	-2.7521	-3.2896	-2.6125	-3.2792	-3.0563	-2.8521	-3.4833	-3.0687	-38.331	23.348	-54.331	176.398	157.705	-138.904	-126.547	185.016	25.158	75.763	-133.209	-116.073	148.457	-27.461	79.857	-131.190	0.0013265	0.00024362	9.9017e-05	1225.7	3.4062e-06	4.3787e-06	1246.5	348.06	6.1227e-06	5.0131e-06	398.26	130.38	113.15	38.699	5.0283e-06	47.692	0.00026098	0.00025844	7.2471e-05	1182.5	2.817e-06	2.8156e-06	1199	333.65	2.8395e-06	2.8045e-06	360.03	123.42	105.49	36.378	2.8308e-06	44.898	94.305	64.972	-82.540	-129.884	33.118	-35.470	-130.245	-125.049	12.744	0.264	-125.855	-121.726	-121.276	-116.202	-90.501	-117.216	-8191	255	
#DATA ENDS
