BOXY.EXE: ISS Imagent and Oximeter Data Acquisition Program Version 0.80
Ascii Record File

#ACQ INFORMATION
2  Detector Channels 
16  External MUX Channels 
1  Auxiliary Channels 
5000  Waveform (CCF) Frequency (Hz)
1  Waveforms Skipped 
30  Waveforms Averaged 
1  Cycles Averaged 
16  Acquisitions per Waveform 
10.0806  Updata Rate (Hz) 

#FILE INFORMATION
TRUE -- External MUX Channel results are PARSED.
FALSE -- AC DC and Phase are NOT grouped.
TRUE -- Companion Program Settings File CREATED.
FALSE -- AC data not excluded
FALSE -- DC data not excluded
FALSE -- Phase data not excluded
FALSE -- Auxillary Chn. data not excluded
Tab delimiters

#CALIBRATION STATE
TRUE -- Waveform Calibration Values APPLIED.


#AUX CALIBRATION VALUES
Val Type	aux-1	

Term	1.0000e+00	
Factor	0.0000e+00	


#WF CALIBRATION VALUES
A = Detector Channel
Val Type	A-AC1	A-AC2	A-AC3	A-AC4	A-AC5	A-AC6	A-AC7	A-AC8	A-AC9	A-AC10	A-AC11	A-AC12	A-AC13	A-AC14	A-AC15	A-AC16	A-DC1	A-DC2	A-DC3	A-DC4	A-DC5	A-DC6	A-DC7	A-DC8	A-DC9	A-DC10	A-DC11	A-DC12	A-DC13	A-DC14	A-DC15	A-DC16	A-Ph1	A-Ph2	A-Ph3	A-Ph4	A-Ph5	A-Ph6	A-Ph7	A-Ph8	A-Ph9	A-Ph10	A-Ph11	A-Ph12	A-Ph13	A-Ph14	A-Ph15	A-Ph16	

Term	0.00000e+00	0.00000e+00	0.00000e+00	0.00000e+00	0.00000e+00	0.00000e+00	0.00000e+00	0.00000e+00	0.00000e+00	0.00000e+00	0.00000e+00	0.00000e+00	0.00000e+00	0.00000e+00	0.00000e+00	0.00000e+00	0.00000e+00	0.00000e+00	0.00000e+00	0.00000e+00	0.00000e+00	0.00000e+00	0.00000e+00	0.00000e+00	0.00000e+00	0.00000e+00	0.00000e+00	0.00000e+00	0.00000e+00	0.00000e+00	0.00000e+00	0.00000e+00	0.00000e+00	0.00000e+00	0.00000e+00	0.00000e+00	0.00000e+00	0.00000e+00	0.00000e+00	0.00000e+00	0.00000e+00	0.00000e+00	0.00000e+00	0.00000e+00	0.00000e+00	0.00000e+00	0.00000e+00	0.00000e+00	
Factor	1.00000e+00	1.00000e+00	1.00000e+00	1.00000e+00	1.00000e+00	1.00000e+00	1.00000e+00	1.00000e+00	1.00000e+00	1.00000e+00	1.00000e+00	1.00000e+00	1.00000e+00	1.00000e+00	1.00000e+00	1.00000e+00	1.00000e+00	1.00000e+00	1.00000e+00	1.00000e+00	1.00000e+00	1.00000e+00	1.00000e+00	1.00000e+00	1.00000e+00	1.00000e+00	1.00000e+00	1.00000e+00	1.00000e+00	1.00000e+00	1.00000e+00	1.00000e+00	X	X	X	X	X	X	X	X	X	X	X	X	X	X	X	X	

B = Detector Channel
Val Type	B-AC1	B-AC2	B-AC3	B-AC4	B-AC5	B-AC6	B-AC7	B-AC8	B-AC9	B-AC10	B-AC11	B-AC12	B-AC13	B-AC14	B-AC15	B-AC16	B-DC1	B-DC2	B-DC3	B-DC4	B-DC5	B-DC6	B-DC7	B-DC8	B-DC9	B-DC10	B-DC11	B-DC12	B-DC13	B-DC14	B-DC15	B-DC16	B-Ph1	B-Ph2	B-Ph3	B-Ph4	B-Ph5	B-Ph6	B-Ph7	B-Ph8	B-Ph9	B-Ph10	B-Ph11	B-Ph12	B-Ph13	B-Ph14	B-Ph15	B-Ph16	

Term	0.00000e+00	0.00000e+00	0.00000e+00	0.00000e+00	0.00000e+00	0.00000e+00	0.00000e+00	0.00000e+00	0.00000e+00	0.00000e+00	0.00000e+00	0.00000e+00	0.00000e+00	0.00000e+00	0.00000e+00	0.00000e+00	0.00000e+00	0.00000e+00	0.00000e+00	0.00000e+00	0.00000e+00	0.00000e+00	0.00000e+00	0.00000e+00	0.00000e+00	0.00000e+00	0.00000e+00	0.00000e+00	0.00000e+00	0.00000e+00	0.00000e+00	0.00000e+00	-2.40346e+02	-8.60789e+01	-1.37580e+02	-1.81794e+02	-9.56072e+01	-6.15362e+01	-1.55227e+02	-1.62015e+02	-7.62495e+01	-2.08821e+01	-1.76015e+02	-1.69664e+02	-1.83008e+02	-1.76920e+02	-1.10967e+02	-1.49451e+02	
Factor	4.41567e-05	7.28733e-05	1.84622e-05	1.45759e-01	5.45265e-07	6.77868e-07	1.58711e-01	4.73567e-02	6.69312e-07	6.60670e-07	1.20289e-01	2.57934e-02	2.57211e-02	8.47169e-03	7.26230e-07	1.17836e-02	2.97384e-07	2.98781e-07	8.31620e-08	7.06932e-02	3.27491e-09	3.27375e-09	7.22083e-02	2.26007e-02	3.28093e-09	3.27436e-09	4.87179e-02	1.14701e-02	1.15018e-02	3.84075e-03	3.27804e-09	5.10611e-03	X	X	X	X	X	X	X	X	X	X	X	X	X	X	X	X	



#DISTANCE SETTINGS
A = Detector Channel
A-1	A-2	A-3	A-4	A-5	A-6	A-7	A-8	A-9	A-10	A-11	A-12	A-13	A-14	A-15	A-16	

2.5000e+00	3.0000e+00	2.5000e+00	3.0000e+00	2.0000e+00	3.0000e+00	1.5000e+00	3.0000e+00	3.0000e+00	3.0000e+00	3.0000e+00	3.0000e+00	3.0000e+00	3.0000e+00	1.5000e+00	3.0000e+00	

B = Detector Channel
B-1	B-2	B-3	B-4	B-5	B-6	B-7	B-8	B-9	B-10	B-11	B-12	B-13	B-14	B-15	B-16	

1.0000e+01	1.0000e+01	1.0000e+01	1.4400e+00	1.0000e+01	1.0000e+01	1.5100e+00	1.9400e+00	1.0000e+01	1.0000e+01	1.9900e+00	2.4900e+00	2.4100e+00	2.9000e+00	1.0000e+01	2.9800e+00	




#DATA BEGINS
time	group	step	mark	flag	A-AC1	A-AC2	A-AC3	A-AC4	A-AC5	A-AC6	A-AC7	A-AC8	A-AC9	A-AC10	A-AC11	A-AC12	A-AC13	A-AC14	A-AC15	A-AC16	A-DC1	A-DC2	A-DC3	A-DC4	A-DC5	A-DC6	A-DC7	A-DC8	A-DC9	A-DC10	A-DC11	A-DC12	A-DC13	A-DC14	A-DC15	A-DC16	A-Ph1	A-Ph2	A-Ph3	A-Ph4	A-Ph5	A-Ph6	A-Ph7	A-Ph8	A-Ph9	A-Ph10	A-Ph11	A-Ph12	A-Ph13	A-Ph14	A-Ph15	A-Ph16	B-AC1	B-AC2	B-AC3	B-AC4	B-AC5	B-AC6	B-AC7	B-AC8	B-AC9	B-AC10	B-AC11	B-AC12	B-AC13	B-AC14	B-AC15	B-AC16	B-DC1	B-DC2	B-DC3	B-DC4	B-DC5	B-DC6	B-DC7	B-DC8	B-DC9	B-DC10	B-DC11	B-DC12	B-DC13	B-DC14	B-DC15	B-DC16	B-Ph1	B-Ph2	B-Ph3	B-Ph4	B-Ph5	B-Ph6	B-Ph7	B-Ph8	B-Ph9	B-Ph10	B-Ph11	B-Ph12	B-Ph13	B-Ph14	B-Ph15	B-Ph16	aux-1	digaux	

1554.567	1	1	0	768	0.3217	0.12413	0.13383	0.39447	0.12864	0.14299	0.068426	0.078235	0.15786	0.14321	0.18415	0.23326	0.12412	0.28308	0.12656	0.083314	-2.1396	-3.225	-2.3958	-3.0125	-3.1437	-2.5604	-3.2438	-2.8354	-2.6021	-3.2875	-2.5792	-2.9021	-2.9917	-2.5979	-3.1875	-2.7021	263.641	270.059	241.870	-5.834	272.706	57.848	240.736	96.448	62.033	118.633	341.519	199.681	237.955	21.578	26.600	208.656	7.1821e-05	0.00058916	7.3057e-05	37.269	2.4454e-06	2.6556e-06	51.243	13.215	2.149e-06	1.6779e-06	18.597	6.5827	4.3421	1.769	4.3e-06	2.5143	0.0010919	0.0010964	0.00030466	297.82	1.1905e-05	1.1928e-05	318.63	96.184	1.1935e-05	1.192e-05	195.45	48.451	46.381	15.732	1.1983e-05	21.213	338.367	57.172	320.255	3.484	50.241	250.456	4.334	8.687	347.067	236.844	5.969	12.136	17.133	18.805	290.641	16.661	-8191	255	
1554.664	1	1	0	0	0.16548	0.18979	0.084656	0.28131	0.085243	0.086293	0.076157	0.18406	0.087948	0.14516	0.28081	0.033604	0.31018	0.1456	0.049607	0.13058	-2.1896	-3.2438	-2.5979	-2.8563	-3.0812	-2.2438	-2.9813	-2.9604	-2.4	-3.1063	-2.6604	-2.6417	-3.125	-2.3667	-3.0979	-3.1	144.299	96.020	179.772	19.805	97.106	185.449	268.467	345.312	161.884	272.071	156.225	350.263	122.551	68.226	141.038	299.258	0.00018837	0.00010174	5.9958e-05	35.641	2.3501e-06	4.1483e-06	51.098	13.14	5.9014e-06	4.8976e-06	18.592	6.486	4.3245	1.6701	2.6362e-06	2.4517	0.0010888	0.0010963	0.00030502	299.08	1.2031e-05	1.2066e-05	322.44	97.751	1.2209e-05	1.2228e-05	201.05	49.851	47.9	16.235	1.2381e-05	21.846	347.850	81.724	51.139	3.868	41.032	27.680	2.952	11.259	93.019	340.208	5.614	11.009	15.115	21.016	305.281	15.731	-8191	255	
1554.760	1	1	0	0	0.12374	0.068231	0.042201	0.057422	0.13041	0.30491	0.094577	0.19822	0.33307	0.16481	0.11446	0.26838	0.21233	0.10373	0.15232	0.23168	-2.0729	-3.3063	-2.7188	-2.6063	-3.0896	-2.5646	-2.9417	-3.0979	-2.4646	-3.2396	-2.6729	-2.5667	-3.2208	-2.5042	-2.9688	-3.275	53.123	281.442	249.702	145.141	155.976	334.865	253.867	7.385	220.216	196.394	47.268	337.293	81.480	346.455	134.925	7.502	0.00033336	0.00021808	8.2523e-06	36.279	3.1583e-06	8.6528e-07	49.359	12.945	1.7334e-06	6.1748e-06	19.316	6.384	4.4082	1.6305	2.4207e-06	2.497	0.0011213	0.0011252	0.00031191	304.34	1.2292e-05	1.2283e-05	326.43	98.81	1.2319e-05	1.2276e-05	200.87	49.568	47.528	16.064	1.2247e-05	21.58	316.345	133.899	126.853	4.666	58.998	20.833	3.584	9.225	225.193	318.733	5.895	10.971	11.682	19.813	70.497	15.454	-8191	255	
1554.856	1	1	0	0	0.15548	0.20716	0.18763	0.10522	0.057214	0.18924	0.13133	0.1933	0.08559	0.12707	0.11391	0.19128	0.24712	0.26419	0.091202	0.019655	-2.0583	-3.2938	-2.6312	-2.5	-3.3104	-2.8146	-2.7875	-3.0938	-2.3563	-3.2292	-2.8521	-2.7062	-3.2938	-2.4958	-2.6458	-3.0896	56.968	206.294	148.615	232.272	55.910	192.494	79.854	117.218	31.998	335.617	-0.242	95.027	164.575	93.163	-8.611	82.450	0.00013293	0.00021222	0.00011632	36.307	5.1653e-06	4.665e-06	50.064	13.252	1.9787e-07	3.0557e-06	19.304	6.2768	4.4346	1.6672	3.3116e-06	2.4869	0.0011094	0.0011127	0.00030938	302.83	1.2244e-05	1.2232e-05	323.77	97.83	1.2167e-05	1.2106e-05	197.84	48.872	46.878	15.884	1.2124e-05	21.471	17.734	54.285	11.223	4.779	127.729	6.574	1.658	9.225	39.420	224.184	7.672	11.480	13.758	18.518	264.921	16.202	-8191	255	
1554.952	1	1	0	0	0.16648	0.17251	0.15375	0.24664	0.27778	0.078404	0.22555	0.067203	0.20305	0.16987	0.30167	0.022483	0.070763	0.073997	0.32694	0.19763	-2.1188	-2.9042	-2.8729	-2.3167	-3.3792	-2.725	-2.5417	-3.4813	-2.3667	-3.0438	-3.0292	-2.4813	-3.2042	-2.7896	-2.6604	-3.2167	97.362	258.463	55.401	93.628	252.451	46.082	347.424	39.027	197.510	13.872	233.933	171.641	336.644	313.365	136.857	267.406	0.00042856	0.00024671	6.3046e-05	34.995	3.9368e-06	2.1518e-06	49.755	12.745	4.5098e-06	1.1943e-06	19.168	6.2995	4.3759	1.6633	3.7649e-06	2.5295	0.0011039	0.0011101	0.00030905	302.76	1.2225e-05	1.224e-05	326.28	98.896	1.2333e-05	1.2299e-05	200.79	49.7	47.559	16.081	1.2261e-05	21.726	87.890	36.881	257.669	5.404	-5.667	262.818	3.421	10.327	276.448	233.565	6.448	11.994	14.107	19.162	348.503	14.828	-8191	255	
1555.048	1	1	0	0	0.1566	0.26415	0.37777	0.16938	0.073523	0.18716	0.099892	0.23924	0.076387	0.10127	0.27291	0.22119	0.20705	0.11077	0.12597	0.17943	-2.1146	-2.9042	-3.0479	-2.3958	-3.25	-2.7833	-2.5583	-3.25	-2.6063	-2.7542	-3.1125	-2.2188	-3.0333	-2.7125	-2.4062	-3.2417	327.541	33.433	110.494	274.650	-3.247	11.970	105.417	148.454	230.602	122.470	185.419	241.137	96.470	151.655	333.042	288.199	0.00028403	0.00031609	6.1544e-05	35.879	3.9913e-06	8.289e-07	50.904	12.9	5.9735e-07	4.0414e-06	19.128	6.4699	4.2567	1.6595	5.1122e-06	2.487	0.0011172	0.0011233	0.00031294	305.87	1.2384e-05	1.2393e-05	329.76	100.18	1.2522e-05	1.2503e-05	204.65	50.537	48.36	16.307	1.2436e-05	21.86	55.188	19.833	342.856	4.845	178.970	101.561	2.649	9.113	92.668	339.050	5.195	11.972	11.252	20.220	96.751	14.201	-8191	255	
1555.167	1	1	0	0	0.27794	0.19486	0.147	0.24497	0.19404	0.11783	0.18086	0.22119	0.20455	0.21728	0.1047	0.087945	0.15619	0.20399	0.24823	0.093446	-2.0333	-2.7229	-3.1646	-2.3521	-3.1167	-2.7604	-2.5146	-3.2146	-2.6708	-2.7708	-3.1833	-2.4979	-3.05	-2.8583	-2.4354	-3.1771	250.513	244.212	269.229	92.280	95.674	17.561	114.654	148.005	168.143	330.159	117.123	39.971	281.431	191.340	48.792	9.490	0.00029849	0.00027569	7.8867e-05	35.358	3.0735e-06	3.2837e-06	51.45	13.104	5.112e-06	1.3456e-06	19.021	6.4142	4.4352	1.6603	3.3784e-06	2.6296	0.0011219	0.0011258	0.00031364	306.22	1.2382e-05	1.2376e-05	329.5	100.07	1.2506e-05	1.2505e-05	204.86	50.626	48.477	16.425	1.2535e-05	22.076	149.323	301.537	155.484	3.126	200.615	75.082	2.424	10.282	133.181	207.085	7.551	10.086	14.080	17.470	234.053	15.170	-8191	255	
1555.263	1	1	0	0	0.19138	0.20194	0.077483	0.060209	0.088585	0.2357	0.097048	0.15911	0.15809	0.25394	0.22137	0.18934	0.18403	0.080536	0.17165	0.13531	-2.1188	-2.6375	-3.1813	-2.4167	-2.8125	-2.8542	-2.5729	-3.2333	-2.7979	-2.3708	-3.1167	-2.5292	-2.9	-3.1125	-2.3125	-3.1375	42.048	69.247	233.152	22.080	292.198	249.258	194.731	52.756	101.799	281.576	272.371	136.707	280.879	96.820	208.485	232.640	7.6944e-05	0.00027095	8.869e-05	35.894	2.3868e-06	2.6902e-06	51.399	12.898	1.2508e-06	5.1078e-06	19.937	6.4452	4.2322	1.7068	3.1374e-06	2.5683	0.0011346	0.0011358	0.00031653	308.07	1.2413e-05	1.24e-05	328.95	99.514	1.2396e-05	1.2383e-05	203.16	50.137	48.025	16.26	1.2409e-05	21.896	46.346	115.463	83.578	2.745	267.370	135.074	3.767	9.040	138.098	2.083	6.780	9.826	15.205	20.077	126.431	14.290	-8191	255	
1555.359	1	1	0	0	0.043618	0.018202	0.19432	0.087863	0.1159	0.006447	0.23021	0.21357	0.19076	0.24912	0.089294	0.10648	0.11005	0.16033	0.10734	0.04972	-2.2917	-2.4021	-3.15	-2.4667	-2.9	-3.1417	-2.3521	-3.0146	-2.9896	-2.5438	-3.2354	-2.8208	-2.8042	-3.2208	-2.4396	-3.1167	34.727	346.886	22.265	334.559	215.694	91.602	284.601	139.187	188.307	128.748	271.503	22.601	5.969	105.976	91.058	13.667	0.00044496	0.00045628	0.00014514	34.891	2.6008e-06	5.5665e-06	49.995	12.822	2.4589e-06	2.6836e-06	18.174	6.5223	4.2226	1.7048	2.1641e-06	2.4908	0.0011231	0.0011276	0.00031368	305.49	1.2325e-05	1.2325e-05	326.91	99.071	1.2369e-05	1.2364e-05	203.25	50.422	48.305	16.416	1.2529e-05	22.043	8.347	331.160	98.906	3.913	24.240	89.122	2.707	8.940	67.259	191.537	7.348	12.987	12.929	19.576	140.220	13.493	-8191	255	
1555.456	1	1	0	0	0.1505	0.08703	0.24689	0.18674	0.11226	0.097683	0.12778	0.21559	0.34232	0.19246	0.1738	0.088154	0.12506	0.056066	0.11431	0.13781	-2.475	-2.5125	-3.0792	-2.6229	-2.6792	-3.0396	-2.4667	-2.9792	-2.9583	-2.4479	-3.0375	-2.6146	-2.775	-3.1104	-2.6063	-2.9021	16.079	349.695	79.705	150.146	330.383	140.070	305.022	283.842	47.921	20.891	252.527	130.453	301.445	134.652	74.836	87.605	0.00016112	0.00051736	8.5873e-05	35.535	2.5336e-06	3.0363e-06	49.889	12.736	5.1639e-06	2.5319e-06	19.226	6.4498	4.4102	1.6651	2.6826e-06	2.4825	0.0011339	0.0011373	0.00031711	308.62	1.2513e-05	1.2537e-05	332.76	100.96	1.267e-05	1.2678e-05	207.96	51.231	49.012	16.538	1.2598e-05	22.107	99.935	280.720	255.854	2.234	66.915	48.555	2.121	8.592	77.686	192.701	4.893	10.789	14.023	17.427	173.479	15.844	-8191	255	
1555.552	1	1	0	0	0.17654	0.11315	0.17446	0.31021	0.2486	0.068273	0.26113	0.3027	0.081943	0.30083	0.10909	0.080434	0.32613	0.3895	0.19917	0.18488	-2.6562	-2.45	-2.8896	-2.7729	-2.5771	-3.2333	-2.5854	-2.8063	-2.9979	-2.4062	-3.1458	-2.8604	-2.3229	-3.1125	-2.5521	-2.8104	21.556	152.204	-0.522	122.847	20.462	175.618	54.533	174.493	268.863	129.085	292.337	263.659	172.157	-3.111	240.310	173.453	0.00015771	0.00020087	0.00010882	35.791	3.3754e-07	2.7641e-06	50.331	12.492	3.8875e-06	1.3416e-06	19.355	6.333	4.289	1.6856	2.8595e-06	2.4675	0.0011373	0.0011434	0.00031873	310.03	1.2532e-05	1.2541e-05	331.47	100.51	1.2573e-05	1.2569e-05	205.2	50.67	48.418	16.428	1.2518e-05	22.023	273.611	52.884	153.832	3.826	168.620	314.100	3.040	10.428	299.304	60.078	6.344	11.349	13.857	16.956	301.468	15.872	-8191	255	
1555.648	1	1	0	0	0.055273	0.21338	0.16409	0.028062	0.11858	0.039365	0.19853	0.074304	0.26103	0.309	0.14486	0.15364	0.26759	0.11484	0.14945	0.25767	-2.7396	-2.4375	-3.075	-2.8458	-2.3021	-3.2083	-2.6167	-2.7167	-3.2812	-2.5438	-3.0604	-3.0583	-2.5396	-3.225	-2.5854	-2.5271	-8.973	107.551	212.811	-5.327	334.971	275.192	257.214	151.751	154.875	128.945	162.837	74.332	244.174	350.187	177.042	317.289	0.00023921	0.00026714	7.5568e-05	34.596	3.5418e-07	3.5011e-06	50.503	12.659	2.0612e-06	4.1115e-06	20.02	6.2598	4.3171	1.5859	3.8937e-06	2.4662	0.0011348	0.0011412	0.0003171	308.48	1.251e-05	1.2506e-05	330.34	99.872	1.2484e-05	1.2468e-05	203.84	50.234	48.103	16.305	1.2422e-05	21.866	295.677	350.597	102.737	4.823	141.691	273.863	2.918	8.746	50.123	304.717	4.269	11.851	13.053	18.305	311.812	14.531	-8191	255	
1555.768	1	1	0	0	0.05595	0.15737	0.17268	0.16366	0.072843	0.183	0.06368	0.077319	0.058167	0.053425	0.1228	0.045167	0.1975	0.17675	0.21946	0.037882	-3	-2.4583	-3.1479	-3.1104	-2.4521	-3.1937	-2.6667	-2.6458	-3.4188	-2.575	-2.8438	-3.0812	-2.3917	-3.1458	-2.7208	-2.6188	68.138	44.673	243.064	162.800	311.901	220.117	292.975	34.629	212.704	172.682	287.957	295.356	8.196	203.846	100.504	330.550	0.00030534	0.00024019	6.7118e-05	35.865	3.4888e-07	4.4243e-06	51.49	12.73	2.9569e-06	4.6115e-06	18.21	6.2846	4.3897	1.6423	2.7443e-06	2.4805	0.0011282	0.0011336	0.00031539	307.77	1.2463e-05	1.2515e-05	330.55	100.13	1.2562e-05	1.2591e-05	206.96	51.206	49.288	16.659	1.2771e-05	22.472	68.684	130.821	247.079	5.507	202.234	347.436	3.067	8.871	203.886	129.805	6.696	11.486	13.642	20.207	22.622	12.148	-8191	255	
1555.865	1	1	0	0	0.15212	0.027077	0.14396	0.043895	0.23666	0.10503	0.25252	0.093224	0.14865	0.19431	0.34794	0.23646	0.16392	0.05327	0.18008	0.08983	-2.7521	-2.5125	-2.7625	-3.0854	-2.4917	-3.05	-2.9146	-2.3396	-3.3021	-2.5687	-2.5062	-2.9708	-2.5167	-2.9125	-2.8771	-2.2875	291.631	330.938	-4.725	346.947	222.280	152.968	57.155	66.590	276.392	0.785	37.565	295.669	117.320	155.060	125.979	15.244	0.00020915	0.0001777	9.6805e-05	35.06	8.7949e-07	1.7536e-06	49.499	12.447	4.5027e-06	3.3376e-06	18.977	6.2018	4.4382	1.6083	4.3632e-06	2.4666	0.0011636	0.0011673	0.00032515	314.69	1.2742e-05	1.2728e-05	335.52	101.41	1.2699e-05	1.2653e-05	206.61	50.988	48.889	16.478	1.2541e-05	21.989	324.166	9.260	343.168	3.993	17.049	128.728	2.641	9.608	327.326	302.014	6.518	11.393	12.876	19.369	51.555	14.302	-8191	255	
1555.959	1	1	0	0	0.10259	0.20887	0.12469	0.10644	0.19721	0.068432	0.062599	0.24002	0.30171	0.21229	0.088786	0.17712	0.14794	0.20645	0.11331	0.11693	-2.6833	-2.7958	-2.5875	-3.0792	-2.5062	-2.9021	-3.0042	-2.4771	-3.2062	-2.7896	-2.5583	-3.2354	-2.4479	-2.8438	-3.1479	-2.4396	289.340	34.831	295.976	293.236	131.064	195.152	179.504	117.019	334.935	342.475	23.261	75.150	51.025	94.685	35.925	269.049	0.00015741	0.00031254	0.00011705	34.611	2.6515e-06	1.2129e-06	51.23	12.675	3.184e-06	5.8926e-07	19.208	6.2351	4.2665	1.6089	5.0899e-06	2.4384	0.0011345	0.0011357	0.00031589	307.26	1.2439e-05	1.238e-05	326.89	98.653	1.226e-05	1.2149e-05	198.52	48.89	46.619	15.74	1.1932e-05	21.016	-5.295	222.831	303.152	4.247	126.884	3.415	2.100	8.503	343.172	245.628	9.465	11.202	13.460	19.151	237.504	14.144	-8191	255	
1556.055	1	1	0	0	0.21856	0.10676	0.046727	0.2633	0.20192	0.13918	0.16264	0.29567	0.031801	0.11508	0.1108	0.058715	0.10864	0.16739	0.10165	0.29829	-2.7542	-2.6708	-2.4833	-3.2354	-2.5083	-2.8146	-3.0312	-2.4646	-3.1771	-2.8167	-2.6417	-3.325	-2.6208	-2.9125	-3.0583	-2.4854	285.980	340.850	233.517	246.800	30.114	21.822	254.198	264.112	349.678	335.088	53.516	152.212	53.416	273.618	225.468	64.041	0.00018019	9.3125e-05	4.25e-05	34.781	2.0827e-06	2.1461e-06	50.721	13.021	1.0403e-06	1.1034e-06	18.981	6.2261	4.2113	1.6244	1.4555e-06	2.5114	0.0010774	0.001079	0.00029958	294.25	1.1786e-05	1.1796e-05	315.79	95.317	1.1758e-05	1.1678e-05	191.73	47.337	45.017	15.262	1.156e-05	20.525	201.269	338.129	307.197	4.112	53.354	172.009	2.671	8.976	244.715	218.787	8.066	11.100	13.979	19.398	32.529	16.298	-8191	255	
1556.129	1	1	0	0	0.048717	0.1249	0.24349	0.19385	0.26122	0.20272	0.16593	0.29498	0.080275	0.1416	0.057896	0.17268	0.21345	0.2233	0.22204	0.1231	-2.5854	-2.6937	-2.2542	-3.0708	-2.6104	-2.8937	-3.225	-2.4729	-3.0625	-2.925	-2.5896	-3.1625	-2.575	-2.7854	-3.3792	-2.6875	336.399	230.059	6.880	272.367	-3.583	331.092	110.840	251.965	146.697	109.420	67.581	108.911	162.499	14.352	116.441	310.725	0.00021729	0.0005049	8.0811e-05	35.732	2.2652e-06	3.4138e-06	50.674	12.797	1.3845e-06	3.7355e-06	19.747	6.4068	4.4646	1.6558	6.5123e-07	2.5193	0.0010493	0.0010505	0.00029307	288.98	1.1551e-05	1.1603e-05	311.71	94.3	1.1674e-05	1.1663e-05	192.27	47.706	45.575	15.472	1.1758e-05	20.856	128.039	331.753	16.000	2.930	303.031	9.453	2.615	9.539	154.488	182.345	8.952	11.064	14.385	17.827	200.006	13.827	-8191	255	
1556.247	1	1	0	0	0.056776	0.042536	0.28925	0.070543	0.16446	0.24978	0.15724	0.11029	0.22978	0.10371	0.1833	0.076627	0.11488	0.48012	0.28798	0.33439	-2.5708	-3.0146	-2.4542	-3.2104	-2.8042	-2.6958	-3.2208	-2.5125	-3.1063	-3.1479	-2.5729	-3.1396	-2.9521	-2.5875	-3.1333	-2.5125	249.023	199.749	170.352	129.130	260.877	172.770	228.589	75.043	229.403	79.344	307.988	192.870	67.718	72.018	122.235	34.225	0.00027272	0.00023241	9.1445e-05	36.245	2.8103e-06	4.9213e-06	50.351	13.462	2.8048e-06	2.6961e-06	19.261	6.3958	4.2396	1.6562	4.9765e-06	2.5103	0.0010713	0.0010773	0.00030028	295.29	1.1835e-05	1.1865e-05	318.79	96.432	1.1974e-05	1.1963e-05	197.27	48.888	46.651	15.775	1.2059e-05	21.246	79.696	126.267	233.820	4.497	121.627	191.923	2.654	11.308	265.484	273.024	5.549	11.160	16.010	19.530	154.316	14.093	-8191	255	
1556.344	1	1	0	0	0.099754	0.23896	0.24007	0.2135	0.010717	0.20726	0.24392	0.21589	0.21663	0.19444	0.039218	0.15177	0.072691	0.061306	0.11605	0.15753	-2.5896	-3.1667	-2.4562	-3.0583	-2.9458	-2.3604	-3.1875	-2.6479	-2.7042	-3.1271	-2.4396	-3.0542	-2.9292	-2.5792	-3.2396	-2.5042	193.164	310.937	189.367	311.104	281.201	86.938	182.479	308.475	254.286	193.814	9.149	242.931	110.094	78.574	1.968	278.355	4.2861e-05	0.00023819	2.4567e-05	35.162	3.4274e-06	2.4209e-06	50.632	12.749	2.5164e-06	4.3787e-07	18.997	6.383	4.3012	1.6165	3.1669e-07	2.4203	0.0010936	0.0011027	0.00030797	301.98	1.2166e-05	1.2214e-05	325.33	98.144	1.2191e-05	1.2203e-05	199.72	49.197	46.942	15.852	1.2046e-05	21.189	202.025	197.539	14.333	3.525	209.807	220.068	1.813	8.068	296.821	121.588	6.740	12.965	14.451	18.182	229.358	14.734	-8191	255	
1556.440	1	1	0	0	0.14172	0.10845	0.10687	0.1361	0.090971	0.2175	0.098401	0.059075	0.12033	0.24935	0.2609	0.16457	0.10635	0.17567	0.21725	0.07598	-2.2875	-3.2562	-2.3438	-2.9313	-2.9667	-2.475	-3.2104	-2.7396	-2.8583	-3.2458	-2.3875	-2.725	-2.9375	-2.2125	-3.1833	-2.9188	225.893	19.331	156.229	342.669	106.207	41.371	152.098	149.977	271.413	342.682	171.428	308.609	96.899	6.814	-4.968	256.144	0.00025664	0.00033965	3.8697e-05	36.4	1.2204e-06	1.7862e-06	51.762	12.849	8.2173e-07	1.9096e-06	18.199	6.2766	4.3406	1.6206	1.7254e-06	2.4518	0.0010865	0.001088	0.00030218	296.11	1.1843e-05	1.186e-05	317.94	95.81	1.1892e-05	1.1891e-05	195.24	48.208	46.147	15.635	1.1931e-05	21.067	133.304	318.455	339.823	3.099	223.750	323.317	2.417	10.245	276.771	67.952	7.450	10.931	12.681	19.107	29.500	13.543	-8191	255	
1556.560	1	1	0	0	0.17374	0.32045	0.12212	0.2807	0.085839	0.14268	0.048746	0.21434	0.066068	0.26105	0.070177	0.18002	0.14582	0.17071	0.065594	0.14621	-2.2292	-3.2208	-2.6125	-2.675	-3.1729	-2.3646	-3.0312	-2.7333	-2.4458	-3.175	-2.7083	-2.7896	-3.1375	-2.2146	-2.7417	-2.975	94.239	193.976	347.861	28.375	182.644	74.719	172.137	0.973	119.774	114.272	289.869	135.117	185.976	131.250	184.981	121.452	0.00015443	0.00028804	5.2564e-05	35.238	5.3001e-06	1.7381e-06	50.351	12.775	1.9148e-06	5.5627e-06	19.273	6.431	4.2733	1.632	1.1251e-06	2.5191	0.0010793	0.0010855	0.00030169	295.62	1.186e-05	1.19e-05	318.04	96.205	1.1942e-05	1.1977e-05	197.18	48.844	47.036	15.994	1.2285e-05	21.68	57.889	171.689	276.013	4.024	75.560	334.371	2.830	9.213	51.613	180.761	4.647	10.381	13.010	19.232	82.948	13.426	-8191	255	
1556.657	1	1	0	0	0.15388	0.24516	0.081992	0.40576	0.12414	0.14766	0.0072617	0.2574	0.15779	0.075584	0.29258	0.0034798	0.15331	0.10565	0.075946	0.18712	-2.0896	-3.1104	-2.5333	-2.5604	-3.1708	-2.7292	-3.0333	-2.8625	-2.3083	-3.2562	-2.6437	-2.5958	-3.275	-2.2604	-3.0187	-2.975	266.833	47.856	180.308	24.234	114.109	116.643	314.014	118.537	112.646	248.082	259.877	71.243	283.703	153.506	10.285	43.855	3.4293e-05	0.00028657	5.4894e-05	35.502	1.5524e-06	3.4474e-06	50.384	12.887	1.6483e-06	2.6977e-06	20.243	6.1927	4.2818	1.6649	3.1793e-06	2.4533	0.0011244	0.001134	0.00031621	308.93	1.2541e-05	1.2598e-05	334.71	101.82	1.2814e-05	1.287e-05	210.76	52.149	50.442	17.15	1.325e-05	23.22	163.722	288.828	143.058	4.078	177.867	149.329	4.001	9.802	196.704	83.016	5.820	11.771	12.631	18.076	22.248	12.988	-8191	255	
1556.728	1	1	0	0	0.11268	0.066118	0.15069	0.13196	0.2264	0.37402	0.31606	0.26117	0.24925	0.14491	0.12494	0.11671	0.1714	0.047649	0.11217	0.25065	-1.9354	-3.1042	-2.675	-2.6312	-3.2708	-2.6458	-3.1104	-3.175	-2.5146	-3.1333	-2.7042	-2.5479	-3.1792	-2.5042	-2.7687	-3.1333	56.268	134.633	14.642	40.178	-2.112	297.803	221.037	177.710	346.522	217.486	330.606	76.045	297.317	292.006	235.115	268.374	0.00026837	0.00072089	8.1901e-05	35.658	2.8797e-06	1.8213e-06	48.414	12.946	2.6766e-06	5.1303e-06	19.058	6.1879	4.2158	1.5876	4.1481e-06	2.4687	0.0012161	0.0012279	0.00034259	332.24	1.3605e-05	1.3579e-05	354.77	107.75	1.3608e-05	1.3608e-05	221.15	54.395	52.587	17.792	1.378e-05	23.986	210.949	172.099	47.430	4.289	313.025	18.299	1.835	8.034	257.192	17.633	6.537	11.289	11.812	19.246	84.308	14.381	-8191	255	
1556.849	1	1	0	0	0.45578	0.052293	0.25596	0.050626	0.14321	0.089616	0.09005	0.20687	0.058918	0.053652	0.10108	0.045846	0.238	0.22452	0.13698	0.16997	-2.0167	-3.0375	-3.0021	-2.3438	-3.2292	-2.6792	-2.9208	-3.1167	-2.3708	-3.175	-2.9417	-2.3167	-3.2396	-2.5583	-2.6562	-3.0687	115.660	92.735	218.453	162.807	49.309	228.618	23.717	312.789	253.979	222.921	196.079	311.133	127.635	96.925	130.448	53.429	0.00030355	0.00035603	1.1059e-05	36.077	2.6315e-06	3.8207e-06	50.348	12.837	5.576e-06	7.1393e-06	19.497	6.1705	4.2138	1.609	5.2596e-06	2.5222	0.001255	0.0012615	0.00035151	338.82	1.3888e-05	1.385e-05	360.14	109.2	1.3771e-05	1.3698e-05	221.04	54.14	52.069	17.574	1.355e-05	23.666	23.599	142.651	338.995	4.602	190.355	145.142	3.317	9.368	273.791	180.628	5.365	12.676	12.332	17.187	350.056	14.081	-8191	255	
1556.945	1	1	0	0	0.18573	0.1037	0.28855	0.077382	0.10887	0.20441	0.088326	0.15871	0.3196	0.07023	0.085064	0.24912	0.031349	0.27424	0.21144	0.079177	-2.1	-3.0083	-2.7333	-2.3479	-3.3438	-2.5208	-2.6729	-3.1667	-2.3729	-2.8146	-3.0542	-2.2917	-3.0604	-2.6792	-2.7313	-3.1312	10.933	139.275	7.416	83.817	165.913	52.510	330.198	240.853	215.714	116.736	129.335	256.215	218.019	68.642	47.348	278.027	0.00018329	0.00021893	0.0001143	35.905	1.7148e-06	6.9807e-07	51.678	12.62	3.5499e-06	4.8719e-06	18.981	6.3237	4.3684	1.6232	3.2672e-06	2.4469	0.001236	0.0012432	0.00034692	335.45	1.3737e-05	1.3713e-05	357.65	108.25	1.3637e-05	1.3547e-05	219.55	53.925	51.875	17.497	1.3488e-05	23.538	173.601	301.152	124.777	4.337	131.244	112.857	2.067	8.365	274.855	242.336	7.108	9.544	13.160	18.133	68.386	15.114	-8191	255	
1557.041	1	1	0	0	0.1388	0.071918	0.10527	0.17456	0.060436	0.30344	0.059988	0.18101	0.15747	0.20925	0.035329	0.11617	0.082615	0.15165	0.24118	0.186	-2.2229	-2.675	-3.2042	-2.3812	-3.125	-2.9437	-2.3208	-3.2229	-2.425	-2.7812	-3.3	-2.4375	-2.9479	-2.8479	-2.4417	-3.3063	338.058	227.804	192.170	233.434	4.781	13.562	346.659	76.949	199.412	304.145	62.727	178.125	72.746	236.016	57.853	28.019	0.00013951	0.00045479	0.00014526	35.323	3.3666e-06	1.2777e-06	51.374	12.586	3.8788e-06	3.7957e-06	19.325	6.3535	4.2971	1.6188	3.4532e-06	2.4729	0.0012255	0.001231	0.00034245	331.22	1.3533e-05	1.3556e-05	354.67	107.8	1.3597e-05	1.3598e-05	221.32	54.398	52.567	17.774	1.3798e-05	24.15	347.529	195.053	27.032	3.850	338.641	198.046	3.649	9.552	91.375	227.912	4.636	10.195	13.546	20.041	341.150	12.824	-8191	255	
1557.160	1	1	0	0	0.2508	0.23473	0.097361	0.10683	0.14753	0.1972	0.098738	0.3377	0.19181	0.16066	0.24473	0.34208	0.12779	0.032527	0.31267	0.17193	-2.2917	-2.6188	-3.1271	-2.1625	-2.8833	-2.9021	-2.3187	-3.1437	-2.6229	-2.4688	-3.0563	-2.4417	-2.7771	-3.0208	-2.4396	-3.1708	242.231	136.582	27.069	169.634	172.789	259.282	309.216	333.841	340.862	285.753	255.756	210.464	3.640	342.447	31.772	24.796	0.00012926	0.00032628	0.00013573	36.132	1.7329e-06	3.3791e-06	50.815	12.979	2.4759e-06	3.8524e-06	19.814	6.2725	4.1661	1.6356	2.9339e-06	2.4453	0.0012685	0.0012836	0.00036017	348.33	1.4398e-05	1.4473e-05	377.3	115.29	1.4752e-05	1.4789e-05	239.64	58.687	56.645	19.095	1.482e-05	25.556	239.338	45.935	191.189	4.960	49.019	2.049	3.723	8.117	152.816	152.557	6.661	11.716	13.927	18.025	87.106	14.732	-8191	255	
1557.256	1	1	0	0	0.13841	0.10728	0.105	0.23156	0.11883	0.044543	0.18924	0.057665	0.15507	0.2883	0.22148	0.14145	0.15665	0.20567	0.21569	0.027253	-2.2875	-2.4583	-3.0792	-2.4979	-2.825	-3.1354	-2.2917	-3.1458	-2.9792	-2.6167	-3.3937	-2.6292	-2.9042	-3.0167	-2.7208	-3.0875	132.429	259.046	318.479	265.140	101.279	57.379	36.908	214.961	339.363	199.272	-6.551	184.175	0.392	318.006	95.173	249.762	0.00020206	0.00020684	0.00011403	35.865	1.4333e-06	1.1484e-06	49.157	12.761	8.761e-07	9.8943e-07	19.623	6.1944	4.3585	1.7009	4.1103e-06	2.4567	0.001337	0.0013422	0.00037429	357.62	1.4737e-05	1.4778e-05	381.9	116.88	1.4979e-05	1.501e-05	243.21	59.777	57.918	19.633	1.5404e-05	26.625	296.211	167.196	19.770	3.260	304.456	239.610	3.154	10.077	318.261	238.263	3.176	11.063	13.968	19.639	77.157	15.343	-8191	255	
1557.352	1	1	0	0	0.21416	0.084437	0.26885	0.19155	0.17783	0.21418	0.12087	0.209	0.083153	0.29447	0.17461	0.13861	0.09364	0.26651	0.1675	0.051767	-2.5021	-2.6854	-3.3	-2.675	-2.6063	-3.2125	-2.5333	-3.025	-2.9458	-2.6292	-3.0417	-2.6646	-2.6312	-3.1813	-2.5229	-3.1458	245.372	316.764	156.772	334.195	219.958	299.326	234.865	293.553	80.694	251.462	170.348	88.908	336.805	59.966	313.258	20.611	0.00032292	0.00055398	9.4915e-05	35.631	2.2842e-06	5.6658e-06	49.593	12.871	3.5337e-06	3.5825e-06	18.853	6.3752	4.4579	1.7023	6.7273e-07	2.3553	0.0014064	0.0014183	0.00039471	374.54	1.5466e-05	1.5479e-05	396.7	121.1	1.5587e-05	1.5639e-05	252.88	62.152	60.321	20.474	1.6126e-05	27.744	114.074	56.725	327.728	3.079	206.846	135.106	2.726	10.077	226.086	69.805	5.777	11.563	14.438	18.683	102.892	14.098	-8191	255	
1557.424	1	1	0	0	0.19213	0.19072	0.086544	0.17465	0.1889	0.025785	0.18884	0.19332	0.1643	0.058853	0.22267	0.10153	0.11027	0.19181	0.11944	0.18027	-2.6542	-2.4896	-3.175	-2.6312	-2.8229	-3.2458	-2.5062	-2.9521	-3.0729	-2.6875	-3.2854	-2.8292	-2.4979	-3.3875	-2.575	-2.9437	182.816	242.312	64.268	70.382	37.075	127.101	273.490	238.445	35.222	141.848	127.293	301.262	166.730	159.733	180.964	3.069	0.00036067	0.00046658	0.00010387	35.294	3.0417e-06	4.1909e-06	50.995	12.614	2.4026e-06	5.1954e-06	18.562	6.2985	4.201	1.5604	4.5869e-06	2.4059	0.0014771	0.0014929	0.00041795	395.57	1.6558e-05	1.6672e-05	424.63	130.04	1.6917e-05	1.7021e-05	274.44	67.726	66.701	22.732	1.8115e-05	30.997	54.739	192.669	130.975	4.313	24.280	18.742	2.626	7.544	258.968	223.871	6.402	10.232	13.151	20.345	196.023	15.071	-8191	255	
1557.545	1	1	0	0	0.32475	0.095	0.060756	0.16673	0.1212	0.26803	0.08865	0.12008	0.1367	0.033739	0.20455	0.12882	0.247	0.21257	0.096893	0.21774	-2.6458	-2.2771	-3.0646	-2.7562	-2.6604	-3.2271	-2.5979	-2.8187	-3.1979	-2.4854	-2.9813	-3.0604	-2.475	-3.3396	-2.675	-2.7	275.177	-0.734	320.607	322.801	230.914	42.631	170.573	47.857	303.197	340.182	79.060	-6.810	103.380	227.909	164.199	-5.723	0.00029568	0.00067981	3.3281e-05	35.224	2.2656e-06	6.3782e-06	51.256	12.991	5.998e-06	3.3866e-06	19.172	6.2436	4.2777	1.6823	4.9443e-06	2.4664	0.0016741	0.0016943	0.00047367	443.1	1.8786e-05	1.8854e-05	471.61	144.18	1.8919e-05	1.8856e-05	299.1	72.411	70.317	23.68	1.8713e-05	31.558	94.080	240.765	184.699	3.229	241.531	347.415	2.429	9.513	92.156	118.032	6.322	12.216	14.665	18.806	262.789	14.915	-8191	255	
1557.641	1	1	0	0	0.1358	0.037718	0.088912	0.11815	0.12654	0.14609	0.27218	0.040902	0.066212	0.028163	0.1618	0.242	0.35864	0.15449	0.11756	0.10818	-2.9062	-2.4917	-3.0646	-2.8854	-2.4938	-3.2542	-2.7	-2.6729	-3.3688	-2.5062	-3.0146	-3.0625	-2.4708	-3.2042	-2.8583	-2.5958	31.499	56.070	184.713	325.505	65.732	335.886	121.685	129.112	310.754	31.733	298.352	56.663	271.464	2.592	168.397	307.551	0.00035241	0.00022404	0.000134	35.088	5.0726e-08	2.6237e-06	49.411	12.967	2.3921e-06	4.7839e-06	18.78	6.022	4.1782	1.6029	6.1251e-06	2.4307	0.0016897	0.0016933	0.00047067	439.36	1.8574e-05	1.8637e-05	466.37	142.93	1.8739e-05	1.8666e-05	295.44	71.305	68.947	23.078	1.8124e-05	30.55	6.479	63.072	21.001	3.026	230.819	44.598	1.867	11.052	50.228	319.764	7.777	13.864	14.195	18.697	-0.033	13.172	-8191	255	
1557.737	1	1	0	0	0.028467	0.16577	0.22265	0.13577	0.23159	0.16022	0.12284	0.047851	0.16285	0.32951	0.034969	0.1306	0.19936	0.18434	0.16637	0.21241	-2.7792	-2.6979	-2.875	-3.1813	-2.5021	-3.2292	-2.8187	-2.5229	-3.1354	-2.5979	-2.7542	-3.0354	-2.2	-2.9062	-2.6375	-2.4833	324.669	120.827	114.159	302.508	69.589	208.537	315.524	52.428	265.766	305.287	99.609	76.957	57.741	13.112	304.348	52.835	0.00014829	0.0003811	0.00011921	36.313	2.8745e-06	4.6443e-06	50.481	12.443	4.587e-06	3.4469e-06	19.748	6.1081	4.1743	1.6433	3.7135e-06	2.4393	0.001629	0.0016243	0.00045049	419.44	1.7558e-05	1.7478e-05	438.09	133.56	1.7338e-05	1.7266e-05	274.48	66.56	64.403	21.553	1.6829e-05	28.541	181.319	345.376	153.764	0.576	204.900	128.288	2.041	10.038	176.941	307.921	5.157	12.157	15.009	18.118	120.226	14.649	-8191	255	
1557.833	1	1	0	0	0.2887	0.19097	0.16438	0.043713	0.13322	0.085262	0.12979	0.15342	0.17888	0.1915	0.21357	0.064733	0.11032	0.085739	0.1781	0.11784	-2.7687	-2.5708	-2.7146	-3.0104	-2.5958	-3.15	-3.0312	-2.4729	-3.1979	-2.6562	-2.6875	-3.1708	-2.3958	-2.9625	-2.7167	-2.5292	63.440	143.644	280.222	217.469	158.937	167.884	318.267	81.071	45.250	144.781	-4.087	215.411	262.046	262.518	35.075	243.402	0.00012589	0.00060053	0.00012268	36.259	1.9903e-06	4.5495e-07	48.94	12.874	7.4287e-06	1.259e-06	18.543	6.1731	4.0767	1.5831	4.2422e-06	2.2918	0.0015111	0.0015095	0.00041841	393.19	1.6383e-05	1.633e-05	414.06	125.88	1.6247e-05	1.615e-05	257.45	62.62	60.319	20.216	1.5712e-05	26.813	65.676	344.325	98.996	3.731	204.633	292.586	2.919	9.490	228.226	317.277	6.170	11.123	14.343	18.437	85.886	14.238	-8191	255	
1557.952	1	1	0	0	0.073227	0.23728	0.095783	0.1999	0.1865	0.17444	0.022819	0.23704	0.32782	0.055855	0.18504	0.085112	0.16574	0.098293	0.24178	0.25989	-2.8375	-2.7042	-2.4667	-3.3146	-2.4271	-2.9458	-3.075	-2.2583	-3.1896	-2.7188	-2.3937	-3.1417	-2.3979	-2.8479	-3.0229	-2.4833	294.839	136.125	219.789	56.429	1.365	308.166	96.329	56.039	-7.674	289.594	95.714	193.493	12.136	317.125	40.601	307.348	2.5519e-05	9.6669e-05	0.00017523	35.072	1.5399e-06	3.2106e-06	48.88	12.738	5.9074e-07	4.3725e-06	18.317	5.9826	4.3159	1.6138	6.337e-06	2.4087	0.0014163	0.0014147	0.00039264	371.91	1.5451e-05	1.5377e-05	392.79	119.57	1.5326e-05	1.5228e-05	244.39	59.658	57.517	19.295	1.4977e-05	25.748	44.429	270.405	178.565	4.852	84.252	142.692	2.291	9.676	152.189	336.898	5.557	12.615	14.455	18.966	261.418	14.791	-8191	255	
1558.025	1	1	0	0	0.03682	0.16757	0.14777	0.06432	0.16096	0.17207	0.21232	0.062865	0.18928	0.25619	0.10352	0.056813	0.1858	0.21475	0.28197	0.16243	-2.7062	-2.7375	-2.4125	-3.1667	-2.4437	-2.7313	-3.1188	-2.4479	-3.0708	-2.8479	-2.5542	-3.2208	-2.7646	-2.7958	-3.1333	-2.5479	162.331	133.303	46.297	288.063	88.434	130.769	183.165	255.175	283.728	138.113	301.475	5.562	-7.690	194.831	66.205	38.278	0.00024817	0.00061326	9.5307e-05	35.644	1.9383e-06	3.9271e-06	50.287	13.006	1.2504e-06	5.6899e-06	19.239	6.2722	4.4302	1.5949	1.0466e-06	2.4251	0.0013491	0.0013491	0.00037436	356.28	1.4628e-05	1.4584e-05	376.06	114.43	1.4554e-05	1.4502e-05	234.1	57.406	55.276	18.684	1.4539e-05	25.05	85.581	169.083	230.929	4.460	166.750	271.952	2.268	9.709	187.490	183.338	4.597	11.215	13.363	18.807	195.709	15.487	-8191	255	
1558.122	1	1	0	0	0.28801	0.14947	0.26221	0.20391	0.21653	0.2183	0.24392	0.11983	0.22818	0.11385	0.078844	0.26748	0.0821	0.017916	0.14046	0.24162	-2.7562	-3.1646	-2.4437	-3.2208	-2.6188	-2.7604	-3.375	-2.6396	-2.9813	-3.1583	-2.4125	-3.0833	-2.7167	-2.5833	-3.2729	-2.5479	18.750	1.439	270.789	274.084	220.616	270.013	153.524	137.434	62.869	-6.506	156.343	256.239	290.316	159.708	143.640	271.977	0.00040811	0.00039734	0.00012313	36.899	9.2698e-07	6.4262e-06	49.451	12.572	2.074e-06	1.4362e-07	18.791	6.2509	4.2226	1.6647	1.9075e-06	2.3817	0.0013151	0.0013166	0.00036661	350.14	1.4322e-05	1.4247e-05	368.65	111.66	1.4208e-05	1.4169e-05	229.65	56.33	54.345	18.335	1.4256e-05	24.681	66.617	74.980	63.745	4.552	285.859	49.571	2.632	9.688	42.036	255.211	5.570	12.088	13.846	18.597	189.689	14.532	-8191	255	
1558.240	1	1	0	0	0.11441	0.11809	0.28609	0.18226	0.28404	0.26685	0.22569	0.082262	0.1193	0.15925	0.055109	0.05792	0.12744	0.064689	0.044383	0.10336	-2.5917	-2.9354	-2.4146	-3.025	-2.8	-2.6667	-3.2562	-2.4604	-2.7917	-3.0938	-2.6375	-3.2604	-2.8937	-2.4583	-3.2917	-2.5396	196.362	4.834	254.703	152.883	218.674	211.142	97.954	33.532	72.611	75.298	67.752	155.485	102.778	203.931	111.106	344.022	0.00033772	0.00027701	0.00017307	35.491	4.8733e-06	1.7258e-06	49.648	12.611	4.2383e-06	2.33e-06	18.992	6.2878	4.2146	1.6029	1.0017e-06	2.4009	0.0012952	0.0013037	0.00036391	349.3	1.4342e-05	1.4372e-05	373.03	113.2	1.4414e-05	1.4397e-05	232.67	57	55.008	18.565	1.4446e-05	24.896	50.055	346.109	75.823	5.660	170.599	76.173	3.492	10.284	142.612	141.476	6.442	10.482	12.181	17.652	69.029	15.460	-8191	255	
1558.337	1	1	0	0	0.080441	0.22385	0.21596	0.078926	0.25421	0.11127	0.07195	0.1995	0.013706	0.21641	0.11999	0.08731	0.026039	0.051887	0.078671	0.11398	-2.2896	-3.0917	-2.4292	-3.0896	-2.8917	-2.6167	-3.3167	-2.5979	-2.7958	-3.1146	-2.5646	-3.1521	-2.9521	-2.5833	-2.9688	-2.7333	16.042	59.911	116.057	267.355	248.415	323.028	270.619	146.895	-7.115	7.566	168.959	57.398	158.761	220.093	167.026	123.236	0.00033782	0.00014288	8.627e-05	35.597	1.8025e-06	3.7426e-06	50.588	12.913	4.0298e-06	2.7322e-06	19.129	6.0471	4.1766	1.5659	3.3983e-06	2.3781	0.0013088	0.0013162	0.00036723	351.43	1.444e-05	1.4418e-05	372.84	112.97	1.4312e-05	1.4291e-05	230.41	56.259	54.195	18.279	1.4201e-05	24.454	301.956	91.442	6.982	5.019	22.133	224.915	2.990	10.408	72.192	29.803	6.366	10.620	14.876	17.522	24.190	14.278	-8191	255	
1558.433	1	1	0	0	0.031374	0.13048	0.14105	0.15147	0.17696	0.2564	0.23483	0.16584	0.10694	0.11533	0.025943	0.090948	0.10152	0.23325	0.15904	0.10691	-2.2271	-3.1396	-2.375	-2.8958	-3.0312	-2.3583	-3.2292	-2.6813	-2.6771	-3.3937	-2.5958	-2.8896	-3.0062	-2.3667	-3.0771	-2.8854	227.637	233.900	37.985	164.175	70.164	56.933	100.097	339.111	30.076	153.355	238.206	331.197	209.896	102.833	294.079	107.068	0.00018506	8.7566e-05	0.00013433	36.212	1.2917e-06	5.4059e-06	50.139	12.526	2.6208e-06	5.1796e-06	19.014	5.9811	4.3359	1.5466	1.6761e-06	2.2984	0.0012838	0.0012892	0.00035862	343.22	1.4055e-05	1.4073e-05	365.7	111.04	1.4113e-05	1.4105e-05	227.71	55.488	53.492	17.997	1.3963e-05	24.077	-5.975	163.808	223.430	5.079	131.661	270.714	2.808	9.134	87.622	182.761	5.256	11.511	12.552	19.296	11.122	15.551	-8191	255	
1558.529	1	1	0	0	0.14573	0.092209	0.19009	0.13736	0.14203	0.18842	0.15735	0.046571	0.27237	0.059389	0.1288	0.066436	0.044027	0.22771	0.13267	0.1961	-2.1	-3.4375	-2.4167	-2.8438	-3.0917	-2.3187	-3.1875	-2.925	-2.5292	-3.3729	-2.6813	-2.6437	-3.3167	-2.3583	-3.1312	-3.1417	9.421	220.471	250.741	138.535	335.037	282.063	321.148	348.457	306.333	83.837	64.144	142.392	298.558	81.550	71.205	277.525	0.00015012	0.00015542	5.3037e-05	35.476	4.0003e-06	1.7929e-06	50.847	13.04	3.0664e-06	2.5115e-06	19.608	6.0706	4.2483	1.5691	1.2649e-06	2.3335	0.0012674	0.001276	0.00035525	340.39	1.3953e-05	1.392e-05	361.75	109.47	1.3839e-05	1.3816e-05	222.78	54.388	52.484	17.66	1.3657e-05	23.571	124.500	331.913	82.642	4.994	53.894	263.131	3.265	9.470	270.556	317.705	7.053	11.273	13.722	19.201	61.402	13.902	-8191	255	
1558.625	1	1	0	0	0.086767	0.20796	0.10796	0.15137	0.061458	0.16235	0.10831	0.26289	0.21141	0.09766	0.23263	0.22835	0.077905	0.043264	0.19057	0.12448	-2.0646	-3.2729	-2.5667	-2.7812	-3.2271	-2.5563	-2.8854	-2.9604	-2.4792	-3.2396	-2.7792	-2.6646	-3.1896	-2.4479	-3.0854	-3.1542	55.684	64.722	20.778	33.323	110.720	348.702	48.839	311.794	177.552	285.489	141.110	13.905	346.373	65.607	337.884	119.300	8.4694e-05	0.00020337	1.9444e-05	34.707	1.773e-06	5.2724e-06	49.875	12.62	2.7432e-06	2.8872e-06	18.782	5.9167	4.1216	1.598	2.2959e-06	2.2814	0.0012394	0.0012455	0.0003463	333.52	1.3657e-05	1.3655e-05	355.75	108.02	1.3703e-05	1.3704e-05	221.55	54.158	52.285	17.625	1.3659e-05	23.66	134.802	221.959	311.098	4.136	97.759	-3.790	3.059	9.390	28.482	91.462	5.592	10.824	14.814	19.645	70.478	16.208	-8191	255	
1558.721	1	1	0	0	0.38136	0.057739	0.096757	0.14762	0.2084	0.023283	0.074355	0.2442	0.063431	0.19371	0.13142	0.16955	0.1003	0.15264	0.19679	0.087589	-2.1667	-3.1312	-2.8958	-2.4896	-3.1562	-2.5958	-2.8063	-3.1667	-2.3563	-2.9562	-2.8583	-2.5667	-3.2729	-2.3708	-2.7917	-3.2583	320.009	242.850	214.349	223.981	265.190	-3.406	82.164	140.262	227.013	15.845	265.644	195.838	105.590	347.427	24.305	202.273	0.00016409	0.00029235	0.00010087	35.965	2.1603e-06	5.309e-06	49.15	12.495	2.6701e-06	2.8478e-06	18.091	5.8817	4.2044	1.5243	3.737e-06	2.3598	0.0012435	0.001251	0.00034839	335.72	1.3738e-05	1.3705e-05	356.53	108.28	1.3694e-05	1.3643e-05	220.8	54.005	52.133	17.536	1.3577e-05	23.491	66.903	114.335	197.000	5.893	84.032	168.085	2.712	9.097	16.862	305.680	3.857	11.694	14.317	18.237	73.587	12.303	-8191	255	
1558.842	1	1	0	0	0.014819	0.11972	0.16192	0.15025	0.18218	0.066113	0.17765	0.21414	0.32543	0.22072	0.2612	0.18981	0.044639	0.22599	0.18287	0.042701	-1.8667	-3.0542	-3.05	-2.3771	-3.1771	-2.6229	-2.6667	-3.1271	-2.5187	-3.0542	-3.0292	-2.3604	-3.1167	-2.6271	-2.7021	-3.1208	84.103	316.204	348.181	331.593	260.594	185.609	299.093	117.581	117.844	120.139	176.817	241.921	343.826	231.972	-2.099	28.372	0.00029528	0.00031498	8.9882e-05	35.072	2.2385e-06	4.3277e-06	51.265	12.709	8.2962e-07	1.9727e-06	18.225	5.9925	4.1921	1.5559	3.1161e-06	2.2667	0.0012314	0.0012357	0.00034325	331.59	1.3583e-05	1.3577e-05	353.44	106.96	1.3511e-05	1.347e-05	218.46	53.547	51.672	17.348	1.3427e-05	23.235	51.071	87.234	214.595	3.941	130.447	340.475	2.461	9.825	340.362	339.714	6.437	10.949	15.473	19.708	176.080	13.738	-8191	255	
1558.938	1	1	0	0	0.024673	0.17126	0.26967	0.27971	0.10201	0.17938	0.31046	0.24386	0.10193	0.24251	0.089026	0.064479	0.0050534	0.11403	0.11222	0.067395	-2.0396	-2.95	-3.1396	-2.4375	-2.9833	-2.7833	-2.55	-3.3521	-2.55	-2.9813	-3.0812	-2.4646	-2.9396	-2.7875	-2.4479	-3.3104	226.590	295.824	241.439	207.531	269.832	45.232	246.261	312.424	272.727	81.211	5.281	31.922	67.393	122.742	64.817	277.514	8.093e-05	0.0003514	7.1211e-05	36.146	2.6424e-06	5.1072e-06	50.705	12.434	8.2896e-07	2.4768e-06	17.403	5.9502	4.2251	1.5455	3.7905e-06	2.2971	0.0012178	0.0012231	0.00034102	329.73	1.3467e-05	1.3428e-05	350.89	106.76	1.3474e-05	1.3473e-05	218.68	53.669	51.892	17.462	1.3604e-05	23.565	302.241	46.103	179.353	4.427	331.520	320.213	3.413	9.591	350.420	96.119	8.886	10.210	14.056	19.235	220.079	14.171	-8191	255	
1559.032	1	1	0	0	0.16467	0.24348	0.16812	0.087065	0.094539	0.060985	0.20845	0.25994	0.036947	0.28502	0.17897	0.10663	0.0519	0.17203	0.076529	0.22033	-2.2604	-2.7938	-3.2083	-2.4521	-3.0625	-2.8958	-2.3896	-3.2354	-2.7083	-2.7667	-3.0062	-2.5062	-3.2062	-2.8896	-2.4188	-3.1562	247.978	71.940	260.672	301.775	314.642	253.349	109.540	342.446	-5.814	203.546	45.455	162.897	282.146	45.696	0.308	129.344	2.8777e-05	0.00039418	3.3124e-05	35.946	2.8954e-06	2.8774e-06	50.042	12.921	1.4415e-06	3.7153e-06	19.386	5.973	4.0988	1.518	4.3948e-06	2.1197	0.0012366	0.0012428	0.00034682	334.39	1.3709e-05	1.3709e-05	357.22	108.47	1.3703e-05	1.3656e-05	221.5	54.05	52.224	17.626	1.3712e-05	23.751	337.640	53.990	75.303	4.226	58.087	54.029	2.980	8.633	232.256	320.149	5.799	10.797	9.855	20.728	178.950	15.983	-8191	255	
1559.129	1	1	0	0	0.22917	0.14426	0.21516	0.26878	0.088133	0.12704	0.042888	0.21767	0.14012	0.23296	0.17882	0.038344	0.27619	0.21322	0.16337	0.24836	-2.2938	-2.7438	-3.4437	-2.4792	-3.0479	-2.9104	-2.3583	-3.2667	-2.775	-2.7521	-3.2708	-2.4333	-2.9396	-3.2458	-2.1813	-3.2188	336.055	79.909	99.158	140.480	324.986	211.876	260.099	275.927	200.927	180.578	58.042	304.993	202.876	323.770	311.138	81.641	0.00018104	0.00023973	8.2881e-05	36.418	3.7224e-06	2.1592e-06	51.073	12.78	3.4986e-06	4.8358e-06	18.676	5.9082	4.2734	1.5491	4.1155e-06	2.1859	0.0012486	0.001257	0.00034993	336.05	1.3726e-05	1.367e-05	355.77	107.94	1.3619e-05	1.3593e-05	220.41	53.821	52.118	17.603	1.3736e-05	23.746	153.096	271.857	173.952	4.104	28.438	-5.203	2.579	9.394	44.246	276.660	7.250	11.427	13.416	16.807	322.736	13.735	-8191	255	
1559.249	1	1	0	0	0.26172	0.11176	0.26936	0.12803	0.12723	0.27589	0.19525	0.17135	0.074253	0.28516	0.17296	0.26148	0.16498	0.13813	0.22032	0.17209	-2.3292	-2.5042	-3.35	-2.4938	-2.8542	-3.3021	-2.4604	-3.1688	-2.7958	-2.6375	-3.2667	-2.5	-2.7042	-3.0271	-2.3771	-3.1083	38.767	342.477	2.221	67.076	242.686	166.809	181.577	270.793	279.093	317.209	171.113	331.383	223.888	239.717	128.888	227.680	0.00038817	0.00072383	9.9754e-05	35.571	1.9734e-06	5.0856e-06	49.463	12.638	1.0496e-06	1.8624e-06	19.252	5.9408	4.1039	1.5556	3.2509e-06	2.2785	0.0012483	0.0012563	0.00035137	338.42	1.3881e-05	1.3898e-05	361.53	110.11	1.3952e-05	1.3942e-05	225.47	55.012	53.171	17.94	1.3967e-05	24.038	80.514	132.106	59.551	4.926	-6.321	19.944	2.448	7.799	317.003	228.660	5.999	11.488	14.418	19.482	275.197	13.651	-8191	255	
1559.321	1	1	0	0	0.19608	0.068224	0.099634	0.0777	0.085281	0.093025	0.060926	0.061984	0.27456	0.16996	0.13565	0.048036	0.1858	0.14793	0.13528	0.066377	-2.5792	-2.6437	-3.225	-2.4938	-2.7167	-3.4375	-2.3042	-2.9292	-3.1813	-2.3688	-3.2042	-2.5958	-2.6229	-3.2687	-2.4625	-2.8354	12.414	254.764	22.748	90.967	76.341	148.120	260.342	288.763	294.024	23.689	89.364	73.111	95.126	150.239	249.288	288.739	0.00018674	0.00011441	6.0558e-05	35.593	2.4443e-06	2.4059e-06	49.513	12.486	4.0674e-06	6.3837e-06	18.964	6.0345	4.242	1.5022	2.8197e-06	2.2896	0.0012652	0.0012762	0.00035618	342.08	1.4039e-05	1.4051e-05	364.67	110.69	1.4053e-05	1.4023e-05	226.75	55.298	53.42	18.023	1.3987e-05	24.045	333.964	74.035	135.943	3.311	32.880	93.841	2.731	7.743	148.071	267.437	5.329	9.563	13.047	17.066	161.549	16.344	-8191	255	
1559.417	1	1	0	0	0.10326	0.099175	0.15315	0.10769	0.15751	0.12312	0.15412	0.16137	0.20493	0.23877	0.078165	0.22289	0.26072	0.12104	0.18085	0.43865	-2.6896	-2.3354	-3.1937	-2.7104	-2.4833	-3.1063	-2.5292	-2.9021	-3.025	-2.5375	-3.0771	-2.8479	-2.3417	-3.3667	-2.6271	-2.8604	26.346	210.309	253.789	136.897	45.524	45.883	234.351	131.415	231.238	86.816	198.741	234.466	116.960	233.740	121.810	336.347	0.00023834	0.00041841	2.0699e-05	35.507	1.6713e-06	4.0122e-06	48.091	13.08	3.1619e-06	3.7844e-06	18.335	5.7183	4.2526	1.5049	1.6077e-06	2.2521	0.0012676	0.0012746	0.00035494	340.84	1.4012e-05	1.4081e-05	365.2	111	1.4156e-05	1.4144e-05	228.53	55.617	53.875	18.185	1.4194e-05	24.346	144.670	45.499	311.587	4.030	3.213	296.773	2.609	9.790	62.078	344.358	6.131	11.097	13.887	16.437	219.328	17.133	-8191	255	
1559.513	1	1	0	0	0.016874	0.1616	0.25728	0.092674	0.084748	0.25411	0.050067	0.092977	0.11231	0.13075	0.018008	0.21794	0.26979	0.20866	0.14345	0.22392	-2.9208	-2.3875	-2.9979	-2.9188	-2.5208	-3.1292	-2.5729	-2.7792	-3.0833	-2.5521	-3	-2.8396	-2.4021	-3.1583	-2.5958	-2.5646	116.571	292.285	95.149	80.885	186.752	288.656	178.374	34.822	238.405	301.957	190.931	13.425	20.051	298.780	8.588	273.956	0.00024402	0.00019242	8.1445e-05	35.013	6.865e-06	1.2825e-06	48.747	12.76	3.3723e-06	2.2741e-07	18.568	5.8496	4.1361	1.4895	4.932e-06	2.205	0.0012871	0.0012935	0.0003596	344.47	1.4133e-05	1.4141e-05	365.49	111.12	1.4158e-05	1.4155e-05	228.69	55.689	53.946	18.177	1.4174e-05	24.37	285.744	348.857	22.754	5.566	252.719	144.722	2.738	7.328	293.770	203.089	8.571	11.717	12.604	19.984	143.116	13.007	-8191	255	
1559.609	1	1	0	0	0.22297	0.13295	0.017861	0.10855	0.1341	0.053329	0.11753	0.14094	0.36844	0.22302	0.031962	0.097854	0.095495	0.19523	0.25253	0.04448	-2.8792	-2.3042	-2.8854	-2.9667	-2.4521	-3.2	-2.7083	-2.6042	-3.1625	-2.4792	-2.7729	-3.1042	-2.4208	-3.0917	-2.5604	-2.3979	224.233	176.843	162.022	173.588	202.711	215.671	222.919	350.126	112.539	306.561	34.582	64.243	147.784	338.141	243.434	330.167	8.4704e-05	0.00023985	5.635e-05	35.326	1.72e-06	6.9039e-06	49.12	12.769	2.3902e-06	5.3031e-06	17.859	5.9712	4.36	1.4798	4.692e-06	2.2649	0.0012888	0.0012916	0.00036035	345.81	1.4271e-05	1.4304e-05	370.53	112.85	1.4402e-05	1.4347e-05	231.31	56.345	54.61	18.363	1.4297e-05	24.57	219.992	292.795	99.755	3.068	250.899	168.880	3.471	9.744	181.708	204.596	6.093	11.590	15.106	19.603	23.511	10.402	-8191	255	
1559.730	1	1	0	0	0.32062	0.12441	0.13888	0.30314	0.14777	0.15717	0.16477	0.23534	0.15759	0.30634	0.10032	0.17808	0.22808	0.12293	0.18016	0.14209	-2.85	-2.575	-2.6542	-3.2021	-2.4083	-3.2042	-2.7708	-2.3104	-3.25	-2.5354	-2.7979	-3.1021	-2.4625	-3.0312	-2.9583	-2.6437	267.265	222.293	301.769	124.870	339.415	179.922	213.712	246.799	302.212	55.425	67.221	243.305	184.205	42.147	294.500	346.444	0.00029562	0.00011173	6.1999e-05	35.495	9.9468e-07	4.4411e-07	49.316	12.394	3.2742e-06	3.8953e-06	17.739	6.0382	4.0347	1.5651	6.2881e-07	2.3411	0.0012954	0.0013004	0.00036166	346.48	1.4234e-05	1.4219e-05	367.37	111.96	1.4272e-05	1.4218e-05	229.96	56.215	54.3	18.289	1.4248e-05	24.55	201.789	291.964	322.139	4.849	155.957	174.163	2.002	10.239	220.860	82.498	6.804	10.074	12.855	19.547	131.136	14.739	-8191	255	
1559.826	1	1	0	0	0.10382	0.021715	0.023986	0.065046	0.25299	0.089501	0.19912	0.0869	0.24977	0.028211	0.11679	0.16306	0.12536	0.11467	0.10004	0.25212	-2.8479	-2.8396	-2.6625	-3.1896	-2.4	-3.0021	-2.975	-2.5812	-3.1229	-2.7396	-2.6	-3.2917	-2.3833	-2.7729	-2.9562	-2.3729	79.717	163.974	71.351	2.016	95.961	157.103	17.040	6.659	276.130	58.077	317.315	336.041	336.575	311.849	245.098	252.180	0.00025355	0.00032695	2.7808e-05	36.144	1.0069e-06	3.0871e-06	50.385	12.738	3.1803e-06	3.1466e-06	18.445	5.8371	4.1102	1.5305	6.3111e-06	2.2984	0.0012966	0.0012983	0.0003608	345.76	1.4191e-05	1.4195e-05	367.1	111.9	1.4243e-05	1.4235e-05	229.91	56.148	54.226	18.223	1.4182e-05	24.395	40.550	319.824	-0.018	3.138	268.495	239.523	2.713	9.261	211.079	237.393	7.181	10.257	15.166	16.516	-0.524	15.566	-8191	255	
1559.922	1	1	0	0	0.15413	0.31194	0.24425	0.15817	0.26622	0.22251	0.1227	0.082934	0.055011	0.13951	0.08593	0.2506	0.4597	0.069815	0.05243	0.21704	-2.6188	-2.6437	-2.4208	-3.1417	-2.45	-2.8833	-3.0125	-2.3979	-3.2	-2.975	-2.6479	-3.2854	-2.4375	-2.8646	-3.0125	-2.4146	39.427	107.309	20.295	80.297	225.290	216.387	337.372	75.608	69.189	233.298	268.178	71.934	30.425	246.861	74.900	197.257	0.00027848	0.00051626	7.1668e-05	34.413	3.3356e-06	2.3028e-06	48.809	12.653	7.8702e-07	8.2318e-07	18.502	6.0355	3.9726	1.4685	3.7788e-06	2.2807	0.0012875	0.001291	0.00035932	344.69	1.4114e-05	1.4114e-05	365.22	111	1.4119e-05	1.4068e-05	227.5	55.666	53.883	18.181	1.4194e-05	24.452	267.122	126.630	264.147	4.504	78.752	15.331	2.304	10.207	299.669	317.194	7.994	11.177	14.985	19.200	183.035	13.656	-8191	255	
1560.018	1	1	0	0	0.088542	0.14628	0.043515	0.19026	0.25989	0.18239	0.13694	0.066623	0.2865	0.15543	0.12422	0.24885	0.24954	0.096152	0.22291	0.1989	-2.6125	-2.75	-2.3229	-3.0771	-2.6312	-2.6437	-3.075	-2.5458	-3.1312	-3.0354	-2.3792	-2.9604	-2.4854	-2.5604	-3.0625	-2.4437	328.381	317.022	317.240	142.269	105.985	83.128	144.996	238.221	107.871	154.769	331.442	336.985	97.114	251.642	79.512	146.808	0.00033417	0.00042663	8.835e-05	36.481	2.7066e-06	1.1049e-06	48.526	12.392	4.8376e-06	3.1594e-06	17.617	6.092	4.435	1.5265	6.2481e-06	2.245	0.0012902	0.0012933	0.00036023	345.57	1.4179e-05	1.4181e-05	367.34	111.77	1.4243e-05	1.4176e-05	228.51	55.764	53.804	18.049	1.408e-05	24.201	347.678	40.739	202.793	4.479	299.962	44.226	3.575	10.074	308.199	237.231	7.385	10.128	12.250	19.071	321.202	14.772	-8191	255	
1560.113	1	1	0	0	0.18779	0.20588	0.18294	0.11571	0.17418	0.039612	0.064729	0.083164	0.32607	0.046951	0.15959	0.13805	0.17914	0.31659	0.088281	0.1448	-2.375	-2.8271	-2.5104	-3.1917	-2.8063	-2.5083	-3.0812	-2.2604	-2.9375	-3.1396	-2.3458	-3.0521	-2.8458	-2.4167	-3.2854	-2.5062	213.884	162.247	41.820	82.404	53.665	46.298	168.894	145.541	45.024	99.354	333.519	183.595	76.079	49.527	19.232	119.165	0.0002394	0.00030685	7.1246e-05	34.996	1.2865e-06	3.4319e-06	49.788	12.791	3.3785e-06	2.3004e-06	18.703	6.228	4.2557	1.5312	4.8531e-06	2.2384	0.0012753	0.0012826	0.00035821	344.21	1.4105e-05	1.4123e-05	366.99	111.41	1.4194e-05	1.4169e-05	229.33	56.017	53.979	18.175	1.4195e-05	24.422	58.897	77.670	317.002	3.474	167.263	292.476	3.355	10.757	258.570	316.138	6.388	11.439	13.353	18.779	147.303	13.571	-8191	255	
1560.211	1	1	0	0	0.049609	0.10991	0.13115	0.13301	0.23627	0.072928	0.062348	0.08327	0.26121	0.21527	0.19182	0.10314	0.20023	0.39705	0.19793	0.16532	-2.3833	-3.0771	-2.3688	-2.7938	-2.825	-2.4625	-3.1625	-2.5438	-2.8333	-3.1271	-2.4542	-2.9354	-2.8708	-2.5875	-3.3333	-2.6229	292.163	290.361	281.160	326.442	287.843	127.046	-6.679	254.244	19.645	261.620	310.394	257.854	349.368	228.635	197.390	107.230	0.00013325	0.00052899	0.00014205	35.081	1.1465e-06	3.2673e-06	49.686	12.661	2.8554e-06	4.0749e-06	18.075	6.0331	4.1255	1.5954	3.0347e-06	2.3739	0.0012903	0.0012971	0.00036279	347.92	1.4313e-05	1.4349e-05	372.65	113.27	1.4471e-05	1.4461e-05	233.34	56.992	55.041	18.516	1.4476e-05	24.814	270.724	324.643	18.803	2.534	41.565	123.826	3.269	10.204	292.032	194.063	7.714	10.417	10.273	19.964	16.032	14.653	-8191	255	
1560.330	1	1	0	0	0.077465	0.099846	0.067715	0.20673	0.22511	0.18498	0.26627	0.12569	0.07058	0.2235	0.19562	0.12416	0.39286	0.23137	0.099074	0.22656	-2.2167	-2.9792	-2.4604	-3.0375	-2.8812	-2.3937	-3.325	-2.8063	-2.5687	-3.3667	-2.4604	-2.8875	-2.9188	-2.5	-3.1437	-2.8	245.422	314.848	115.582	254.471	72.638	157.533	54.114	264.994	214.787	56.426	123.813	337.145	312.814	-2.287	46.798	235.211	0.00045309	0.00024854	0.00018535	36.329	2.4756e-06	3.1048e-06	50.546	12.894	2.1264e-06	6.2844e-07	18.996	5.9552	4.1807	1.5548	3.9373e-06	2.2259	0.0013094	0.0013172	0.00036718	350.64	1.4413e-05	1.4425e-05	372.41	112.76	1.4386e-05	1.4396e-05	232.39	56.646	54.782	18.472	1.4415e-05	24.712	-6.073	161.513	185.364	3.186	15.406	252.774	1.900	10.207	184.673	236.099	8.013	11.687	13.445	17.730	284.841	16.946	-8191	255	
1560.426	1	1	0	0	0.20412	0.12409	0.0179	0.44314	0.1061	0.2086	0.075231	0.086987	0.049748	0.23966	0.094466	0.090756	0.061323	0.05774	0.19888	0.081394	-2.2042	-3.2	-2.4688	-2.9604	-3.0521	-2.4583	-3.2958	-2.8604	-2.4917	-3.2479	-2.7938	-2.7271	-3.0167	-2.4792	-3.1437	-3.025	141.964	161.773	338.198	204.365	312.370	329.360	342.447	227.483	202.105	61.379	169.921	308.934	326.399	247.030	146.695	285.302	0.00023031	0.00011753	1.4134e-05	35.572	2.2741e-06	3.6103e-06	49.097	12.585	3.4234e-06	4.9317e-06	18.474	6.0595	4.3319	1.5036	4.5366e-06	2.2192	0.0013009	0.0013116	0.00036429	348.78	1.4374e-05	1.4405e-05	372.68	113.64	1.4574e-05	1.4579e-05	234.92	57.44	55.588	18.731	1.4597e-05	24.959	48.800	281.959	79.726	3.491	79.847	232.056	3.196	9.466	177.370	234.305	6.578	10.009	13.069	17.544	179.585	15.210	-8191	255	
1560.522	1	1	0	0	0.20319	0.14631	0.34492	0.077231	0.27442	0.22284	0.19258	0.24927	0.11587	0.209	0.087489	0.26517	0.1479	0.13526	0.12669	0.20217	-2.1979	-3.3646	-2.6729	-2.775	-3.075	-2.2646	-2.9375	-2.6583	-2.4333	-3.1083	-2.6458	-2.5917	-3.0833	-2.3896	-2.7375	-3.0667	258.493	142.685	164.815	211.232	189.684	92.470	139.963	345.516	236.441	7.916	82.093	73.778	44.317	241.207	100.729	74.713	0.00013824	0.00050018	8.79e-05	34.984	4.675e-06	9.0511e-07	50.206	12.83	3.4699e-06	1.4553e-06	19.193	6.0703	4.2234	1.5578	2.9588e-06	2.3367	0.0013191	0.0013301	0.0003645	348.61	1.4289e-05	1.4268e-05	367.48	111.58	1.4209e-05	1.4223e-05	229.09	56.045	54.194	18.242	1.4206e-05	24.451	190.933	232.152	154.330	2.065	139.905	108.715	3.345	9.055	234.790	14.554	7.091	12.458	14.103	17.993	99.673	14.987	-8191	255	
1560.618	1	1	0	0	0.16442	0.1537	0.23218	0.045685	0.10284	0.15432	0.22692	0.076512	0.10596	0.18893	0.27986	0.16276	0.056621	0.076042	0.21199	0.12755	-1.7625	-3.0729	-2.575	-2.4688	-3.2875	-2.3625	-2.875	-2.9583	-2.5125	-3.2	-2.95	-2.5312	-3.2729	-2.4333	-2.7604	-3.0458	346.428	245.877	225.005	54.168	85.633	331.478	205.846	145.079	166.845	145.466	184.058	211.894	194.359	105.956	342.182	18.328	0.00030679	0.00027429	0.0001737	35.599	1.9294e-06	3.1473e-06	49.426	12.657	3.0172e-07	3.4932e-06	17.767	5.9406	4.3607	1.6203	5.6838e-06	2.3533	0.0012874	0.0012799	0.00035568	340.29	1.3955e-05	1.3959e-05	361.57	109.95	1.3958e-05	1.394e-05	224.55	54.933	53.082	17.905	1.3949e-05	24.121	294.797	161.070	66.628	3.571	280.932	83.664	2.202	8.799	73.499	300.424	7.645	11.236	13.179	18.009	250.863	14.211	-8191	255	
1560.714	1	1	0	0	0.10575	0.11406	0.20582	0.046551	0.18636	0.1954	0.053011	0.048461	0.15627	0.22074	0.045063	0.18266	0.26722	0.42366	0.073503	0.35711	-1.8667	-3.1521	-2.7646	-2.3604	-3.2958	-2.6042	-2.8125	-3.1292	-2.225	-2.9417	-2.7562	-2.4167	-3.2354	-2.4521	-2.3542	-3.0062	253.249	118.713	0.746	206.894	35.081	272.989	43.739	256.149	110.504	177.145	318.188	330.016	23.093	55.916	197.876	87.475	0.00010737	0.00060253	4.3376e-05	35.684	2.3096e-06	1.9341e-06	49.537	12.419	6.0205e-06	1.4341e-06	18.504	5.8823	4.3393	1.5725	2.9544e-06	2.2392	0.0012711	0.0012762	0.00035463	341.12	1.3986e-05	1.3952e-05	361.48	109.65	1.3918e-05	1.3877e-05	224.23	54.94	53.038	17.838	1.3876e-05	23.931	326.572	38.431	336.486	3.687	255.219	38.139	3.515	9.898	193.129	72.415	8.113	9.476	11.620	19.919	332.816	14.078	-8191	255	
1560.810	1	1	0	0	0.10598	0.36465	0.13487	0.13368	0.11187	0.23239	0.23532	0.1245	0.29897	0.11543	0.14543	0.20184	0.076734	0.19281	0.2643	0.13934	-2.1271	-3.0958	-2.9958	-2.3458	-3.0458	-2.6979	-2.4854	-3.1354	-2.4167	-2.9729	-3.0729	-2.4479	-3.2479	-2.6583	-2.3958	-3.1458	16.849	335.614	260.180	314.841	322.326	240.454	310.948	17.728	214.767	250.944	69.316	346.826	113.504	107.008	200.469	246.438	0.00021541	2.7819e-05	9.3103e-05	36.134	1.6755e-06	2.4143e-06	50.52	12.661	5.0994e-06	2.999e-06	18.522	6.0768	4.1147	1.5219	6.9911e-06	2.3603	0.001256	0.0012621	0.00035077	337.88	1.3852e-05	1.3852e-05	359.32	109.02	1.3787e-05	1.3711e-05	221.46	54.234	52.332	17.585	1.3645e-05	23.601	301.504	53.161	226.544	2.966	343.234	48.544	2.656	9.078	46.994	82.284	5.423	11.769	13.517	19.333	135.819	15.552	-8191	255	
1560.931	1	1	0	0	0.27533	0.098174	0.052584	0.048162	0.10108	0.25243	0.26593	0.11357	0.12019	0.22405	0.41613	0.055281	0.090561	0.18709	0.2278	0.017825	-2.2188	-2.8187	-3.0896	-2.3083	-3.0687	-2.9146	-2.4833	-3.1958	-2.6312	-2.8167	-3.0812	-2.1813	-3.1958	-2.8604	-2.5229	-3.3021	146.653	291.775	230.293	131.821	81.510	0.938	134.298	177.409	45.759	1.024	61.307	225.254	330.920	143.874	211.982	206.225	0.00034611	0.00028514	8.2706e-05	36.161	4.9383e-06	1.3639e-06	49.744	12.605	4.6926e-06	3.0094e-06	18.95	6.1588	4.249	1.57	4.4782e-06	2.2926	0.0012361	0.0012443	0.0003456	332.19	1.36e-05	1.3592e-05	354.99	107.95	1.3647e-05	1.3609e-05	220	53.792	51.691	17.338	1.3421e-05	23.23	75.491	212.439	327.696	3.621	257.723	187.272	2.670	9.411	92.642	86.799	7.095	12.182	12.689	18.011	345.223	14.379	-8191	255	
1561.025	1	1	0	0	0.096882	0.15325	0.24331	0.40395	0.090958	0.16869	0.2371	0.044479	0.12469	0.053728	0.39015	0.21249	0.15195	0.12871	0.27823	0.11037	-2.1917	-2.7125	-3.0542	-2.3063	-3.0167	-2.8229	-2.2833	-3.2438	-2.6063	-2.4062	-3.2125	-2.3042	-2.9167	-2.9979	-2.5104	-3.0146	313.379	6.731	192.796	210.735	315.532	282.277	183.940	297.622	145.112	283.376	325.048	25.726	260.465	224.560	52.926	128.434	0.00023599	0.00019583	1.8952e-05	35.377	2.3218e-06	2.5899e-06	50.383	12.512	2.5023e-06	1.3588e-06	18.253	6.1103	4.5104	1.5699	7.8674e-06	2.2987	0.0012163	0.0012209	0.00034121	329.87	1.3475e-05	1.3508e-05	352.74	107.32	1.3527e-05	1.3484e-05	217.8	53.288	51.208	17.246	1.3323e-05	23.108	117.081	69.818	119.771	2.937	21.810	122.670	3.880	9.014	328.776	212.429	7.500	11.061	13.911	19.311	332.859	13.838	-8191	255	
1561.121	1	1	0	0	0.30499	0.048174	0.2142	0.15633	0.13552	0.021686	0.29487	0.081651	0.29421	0.12025	0.27844	0.18142	0.1223	0.23992	0.13309	0.087703	-2.3417	-2.4333	-3.1625	-2.5292	-2.9979	-3.0167	-2.1979	-3.0271	-2.7604	-2.3542	-3.1896	-2.575	-2.7833	-2.9688	-2.4688	-3.1312	280.324	18.480	222.004	351.627	258.928	10.237	139.661	212.276	206.881	144.836	274.884	176.280	165.298	40.616	20.600	328.048	0.00019889	0.00032405	6.4591e-05	34.847	1.4675e-06	1.7341e-06	49.335	12.447	2.2132e-06	4.1586e-07	18.837	6.1206	4.2375	1.5191	3.6989e-06	2.3507	0.001208	0.0012168	0.00034013	328.21	1.3384e-05	1.3415e-05	350.82	106.45	1.3409e-05	1.3367e-05	216.8	53.102	51.08	17.218	1.3313e-05	23.138	20.453	165.807	298.490	3.970	224.284	21.031	1.970	10.000	241.978	230.725	8.562	9.710	15.782	19.127	252.238	14.528	-8191	255	
1561.193	1	1	0	0	0.053061	0.13719	0.20339	0.016872	0.1721	0.14091	0.16122	0.050644	0.10521	0.24349	0.084515	0.21989	0.017259	0.19538	0.19278	0.13277	-2.4792	-2.3312	-3.075	-2.6125	-2.7562	-3.1312	-2.3479	-3.0833	-2.9875	-2.3708	-3.2958	-2.7562	-2.5771	-3.2417	-2.5833	-2.8167	46.072	303.641	194.127	160.433	320.711	109.892	222.456	186.291	255.984	55.438	297.159	345.593	140.364	342.052	213.022	48.603	0.00016757	0.00032542	3.9717e-05	35.198	3.4163e-06	3.3261e-06	50.19	12.864	2.7567e-06	3.3807e-06	18.609	6.1415	4.2511	1.6362	9.7162e-07	2.3751	0.0012052	0.0012139	0.00033845	326.86	1.3318e-05	1.3337e-05	348.99	106.17	1.3413e-05	1.3409e-05	218.22	53.51	51.515	17.395	1.3428e-05	23.382	101.998	188.621	108.180	2.733	202.233	136.869	2.634	10.769	346.478	250.701	9.674	10.191	14.440	19.638	328.663	14.774	-8191	255	
1561.291	1	1	0	0	0.064378	0.031001	0.37343	0.10406	0.19804	0.18665	0.2494	0.21375	0.10681	0.23901	0.17042	0.21251	0.41691	0.28126	0.043553	0.21462	-2.7021	-2.3229	-3.0292	-2.5229	-2.5438	-3.1146	-2.3604	-2.9083	-2.9562	-2.4979	-3.1813	-2.7938	-2.4854	-3.1229	-2.5521	-2.7562	42.766	105.702	333.227	146.068	307.622	275.221	130.324	223.753	198.073	78.697	322.426	347.092	200.574	253.004	121.662	332.865	0.00028647	0.00052845	0.00012471	35.247	3.4304e-06	2.5176e-06	49.504	12.454	1.9959e-06	1.6858e-06	19.151	6.3454	4.3784	1.5906	4.6349e-06	2.3437	0.001225	0.0012319	0.00034315	330.37	1.3503e-05	1.3543e-05	354.08	107.83	1.3678e-05	1.3707e-05	222.45	54.566	52.611	17.767	1.3752e-05	23.825	51.688	165.260	197.249	4.232	21.599	315.419	2.409	10.105	199.857	344.760	7.213	12.474	12.859	17.167	10.108	13.616	-8191	255	
1561.410	1	1	0	0	0.14647	0.21541	0.18378	0.38112	0.24685	0.14753	0.058504	0.15591	0.18018	0.12846	0.15279	0.17368	0.24851	0.17586	0.20241	0.17874	-2.7125	-2.1688	-3.1396	-2.7062	-2.4708	-3.1167	-2.3979	-2.7104	-3.1146	-2.4521	-2.8729	-2.9208	-2.2542	-3.1167	-2.6167	-2.5771	218.808	158.648	169.033	332.175	160.914	100.145	305.313	198.855	124.585	79.094	1.777	98.497	30.653	343.962	345.906	291.363	0.00014087	7.8482e-05	4.6947e-05	35.653	4.8468e-06	1.5585e-06	48.248	12.579	1.3852e-06	6.4913e-06	18.455	6.2892	4.2692	1.5491	5.6461e-06	2.323	0.0012486	0.0012565	0.00034962	336.02	1.377e-05	1.3831e-05	359.3	109.18	1.3853e-05	1.3829e-05	223.48	54.82	52.825	17.821	1.3786e-05	23.812	13.270	54.804	318.390	4.753	141.385	177.318	3.355	11.310	39.707	214.129	6.997	11.138	12.059	19.019	17.084	15.253	-8191	255	
1561.506	1	1	0	0	0.1337	0.093358	0.19494	0.090114	0.15177	0.19101	0.12062	0.24956	0.27095	0.19615	0.14649	0.059801	0.044001	0.23128	0.21608	0.047577	-2.8604	-2.4125	-2.8563	-3.0792	-2.3229	-3.2667	-2.7438	-2.5083	-3.2438	-2.4	-2.8896	-2.9042	-2.4021	-3.1271	-2.675	-2.5938	132.907	136.431	289.807	346.002	34.888	249.758	125.880	322.740	273.758	315.978	223.873	283.541	120.237	68.792	140.724	275.840	9.4194e-05	0.00064407	0.00015279	35.6	2.3863e-06	5.4799e-06	49.482	12.461	2.0531e-06	3.8739e-06	18.374	6.1201	4.2827	1.6056	4.9323e-06	2.3278	0.0012453	0.0012481	0.00034752	334.25	1.3698e-05	1.3709e-05	356.12	108.19	1.3738e-05	1.371e-05	221.78	54.374	52.553	17.704	1.3702e-05	23.741	264.360	234.060	35.621	3.911	310.666	79.961	2.826	10.437	216.763	331.704	7.235	12.540	14.958	19.535	143.388	13.935	-8191	255	
1561.602	1	1	0	0	0.16653	0.50262	0.28885	0.27408	0.01404	0.16219	0.078162	0.17632	0.24443	0.26896	0.075222	0.16747	0.0198	0.09702	0.24001	0.35875	-2.7938	-2.3937	-2.7771	-3.0125	-2.4208	-3.1458	-2.6771	-2.5396	-3.125	-2.5229	-2.7792	-3.2292	-2.3958	-3.1479	-2.7125	-2.6208	186.548	171.748	117.965	15.758	86.608	195.215	113.096	139.556	327.069	267.304	286.101	319.936	327.617	157.181	305.153	314.631	0.00017204	0.00027605	7.719e-05	37.345	1.1387e-06	1.8169e-06	48.518	12.879	6.527e-08	7.239e-07	19.552	6.241	4.377	1.5681	1.2079e-06	2.401	0.0012466	0.0012503	0.00034748	334.06	1.3681e-05	1.3682e-05	355.27	108.02	1.3712e-05	1.3722e-05	222.3	54.662	52.671	17.753	1.3705e-05	23.71	25.563	293.701	241.252	4.466	306.606	331.734	3.467	9.525	238.873	224.605	6.923	11.684	12.788	18.522	179.893	14.870	-8191	255	
1561.723	1	1	0	0	0.088173	0.10897	0.15428	0.14526	0.07401	0.20594	0.20675	0.28126	0.053533	0.11417	0.06149	0.2357	0.14391	0.18758	0.25688	0.22698	-2.9625	-2.3229	-2.7146	-3.25	-2.4021	-3.1542	-2.8208	-2.3854	-3.2375	-2.8104	-2.7542	-3.0792	-2.3833	-2.825	-3.1271	-2.4813	280.683	-4.090	212.199	314.996	71.881	210.749	70.285	323.600	330.447	43.225	275.278	236.098	265.592	284.306	44.848	278.144	0.00020527	0.00014981	0.00010082	35.947	2.2798e-06	2.2601e-06	49.161	12.789	4.4441e-06	4.0912e-06	18.648	6.1412	4.048	1.5733	3.7567e-06	2.3674	0.0012427	0.0012479	0.00034727	333.96	1.3675e-05	1.3705e-05	356.76	108.74	1.3803e-05	1.3773e-05	222.82	54.683	52.623	17.735	1.3722e-05	23.812	328.505	225.784	47.658	4.200	185.661	269.801	3.277	8.072	168.244	75.541	7.221	11.652	11.201	17.460	138.498	14.681	-8191	255	
1561.794	1	1	0	0	0.44206	0.13889	0.11216	0.20146	0.072049	0.13608	0.089174	0.023853	0.14151	0.090601	0.060747	0.22084	0.45765	0.43077	0.12018	0.11111	-2.6896	-2.6312	-2.4313	-3.1396	-2.4146	-2.9125	-3.1729	-2.2438	-3.0854	-2.7708	-2.6583	-3.2417	-2.4313	-2.7375	-3.2146	-2.5125	201.549	100.472	183.648	288.044	18.912	210.112	54.964	31.771	96.951	339.847	335.439	246.885	69.496	40.769	324.232	312.699	0.00019336	0.00013551	0.00011212	35.168	3.4846e-06	4.6465e-06	49.178	12.191	7.0852e-06	3.9499e-06	18.721	5.9453	4.326	1.583	2.6287e-06	2.3842	0.0012489	0.0012541	0.00034881	336.01	1.3772e-05	1.3784e-05	358.82	109.18	1.3865e-05	1.3818e-05	223.32	54.685	52.666	17.756	1.3769e-05	23.858	252.051	3.944	341.457	2.145	131.244	325.675	4.072	8.773	180.454	306.861	5.514	10.801	12.060	17.983	346.296	15.176	-8191	255	
1561.891	1	1	0	0	0.06988	0.17198	0.018035	0.048016	0.15783	0.13482	0.18852	0.23664	0.22565	0.12336	0.036122	0.10671	0.086543	0.02115	0.11297	0.1055	-2.6063	-2.7896	-2.4854	-3.1417	-2.6271	-2.725	-3.1167	-2.6042	-2.85	-2.7521	-2.4125	-3.3604	-2.4146	-2.6312	-3.2438	-2.4104	-6.183	69.438	178.602	2.690	92.395	266.127	-4.006	-3.939	172.100	175.592	238.817	221.238	230.876	185.289	139.933	255.470	0.00031088	0.0001658	4.1954e-05	34.747	4.2597e-06	2.4736e-06	48.835	12.523	3.2959e-06	8.5153e-07	17.949	6.1124	4.1841	1.5703	3.4787e-06	2.3175	0.0012483	0.001253	0.00034867	335.49	1.3733e-05	1.3723e-05	357.15	108.45	1.3724e-05	1.3671e-05	221.54	54.362	52.316	17.69	1.3726e-05	23.755	91.836	-7.663	250.134	4.041	280.676	144.056	4.023	8.037	76.743	114.418	7.577	10.627	14.473	19.596	163.339	15.924	-8191	255	
1562.011	1	1	0	0	0.21923	0.032228	0.3606	0.15825	0.30962	0.20564	0.10411	0.085127	0.14247	0.22091	0.30993	0.17762	0.18013	0.19731	0.1849	0.11973	-2.5292	-3.0125	-2.3542	-3.0125	-2.7396	-2.6229	-3.2729	-2.2833	-2.8708	-3.0125	-2.5146	-3.1167	-2.7667	-2.475	-3.2542	-2.3542	121.923	267.585	257.448	294.879	312.442	253.763	286.812	181.205	110.649	261.386	297.470	-7.223	99.693	12.074	333.347	225.420	0.00042107	0.00016446	1.1712e-05	35.999	1.3993e-06	2.8236e-06	48.051	12.532	4.6188e-06	3.385e-06	18.188	6.2886	4.2619	1.6279	3.1594e-06	2.3872	0.0012437	0.0012481	0.00034726	334.05	1.3615e-05	1.3611e-05	354.24	107.52	1.3577e-05	1.3559e-05	220.75	54.134	52.11	17.566	1.3638e-05	23.666	120.938	157.968	48.981	5.138	185.570	48.644	2.095	9.245	273.776	128.968	8.429	10.996	13.028	16.252	125.671	16.414	-8191	255	
1562.106	1	1	0	0	0.085003	0.10622	0.17021	0.29592	0.12499	0.18449	0.18735	0.022433	0.25535	0.038414	0.16024	0.2311	0.097826	0.091971	0.17881	0.12486	-2.3042	-3.0271	-2.4542	-3.2458	-2.7854	-2.5	-3.1	-2.5604	-2.7396	-3.2271	-2.4167	-3.0646	-2.7938	-2.2646	-3.0646	-2.3063	233.467	318.896	169.488	284.312	155.651	250.215	235.197	305.317	44.047	22.463	85.618	244.833	324.924	193.164	290.132	239.241	0.00012774	0.00030137	0.0001274	35.43	2.5599e-06	6.0307e-06	49.9	12.442	4.8736e-06	3.5306e-06	18.73	6.3078	4.3736	1.5461	2.5048e-06	2.3872	0.0012406	0.0012498	0.00034816	334.14	1.3602e-05	1.3607e-05	354.03	107.43	1.3581e-05	1.356e-05	220.55	54.228	52.265	17.65	1.3727e-05	23.749	57.226	218.750	191.587	3.780	335.283	3.919	2.142	10.305	105.600	347.338	5.641	10.702	15.177	18.645	207.034	13.356	-8191	255	
1562.204	1	1	0	0	0.17812	0.23122	0.12697	0.30925	0.16881	0.076379	0.30559	0.047661	0.1805	0.23166	0.15966	0.099509	0.033378	0.36304	0.16621	0.20017	-2.2146	-3.1333	-2.2396	-2.8271	-3.0792	-2.2792	-3.0979	-2.3708	-2.7792	-3.2479	-2.2833	-2.9979	-2.975	-2.275	-3.0021	-2.575	172.801	196.677	138.363	291.135	324.840	36.173	279.040	194.639	189.775	302.235	100.507	206.481	315.614	345.046	297.984	35.848	0.00010664	0.00037904	7.7879e-05	36.153	1.2981e-06	2.1558e-06	49.421	12.432	1.1205e-06	7.8823e-07	18.345	6.151	4.1662	1.5419	1.6199e-06	2.2998	0.0012471	0.0012583	0.00035033	336.83	1.3763e-05	1.3756e-05	357.99	108.45	1.3741e-05	1.3716e-05	221.91	54.248	52.247	17.632	1.3701e-05	23.659	288.426	116.360	74.191	3.952	275.118	124.091	3.093	8.551	169.349	233.275	9.652	11.380	13.411	21.773	310.478	13.397	-8191	255	
1562.322	1	1	0	0	0.11184	0.26879	0.14367	0.22186	0.051989	0.19508	0.14041	0.070359	0.20751	0.04469	0.30249	0.14404	0.27557	0.25602	0.11406	0.17695	-2.0958	-3.2062	-2.425	-2.7042	-3.1479	-2.3667	-3.1042	-2.6333	-2.45	-3.1625	-2.5333	-2.8896	-3.1937	-2.2396	-2.9188	-2.7729	206.032	8.394	44.652	72.440	341.097	118.782	208.755	35.713	57.880	218.811	104.573	236.194	3.103	121.924	325.848	320.230	4.4409e-05	7.6989e-05	5.5082e-05	34.588	5.6617e-06	2.6856e-06	49.271	12.254	4.6315e-06	3.637e-06	19.02	5.9594	4.3496	1.5482	3.2285e-06	2.3746	0.0012413	0.0012501	0.0003476	335.22	1.3716e-05	1.3725e-05	356.63	108.14	1.3656e-05	1.3656e-05	220.74	54.04	52.127	17.579	1.364e-05	23.566	7.579	313.283	200.672	2.087	272.170	275.581	3.392	11.070	164.316	129.108	5.719	9.268	11.818	17.980	39.444	13.585	-8191	255	
1562.419	1	1	0	0	0.1923	0.1266	0.020981	0.12144	0.19024	0.25114	0.061903	0.29945	0.0736	0.044065	0.063259	0.21187	0.22802	0.18442	0.066998	0.10716	-1.8292	-3.1292	-2.4604	-2.5708	-3.0125	-2.3479	-3.0833	-2.9188	-2.3271	-3.0896	-2.5	-2.6208	-3.0417	-2.375	-2.875	-2.9208	43.847	153.299	171.250	187.106	123.683	224.232	208.125	164.045	203.675	264.890	107.980	267.401	212.675	249.357	128.158	313.594	0.00032924	0.00030434	4.2316e-05	34.888	3.7175e-06	7.8229e-06	51.29	12.698	1.966e-06	1.7713e-06	18.768	5.9046	4.3013	1.5746	4.9594e-06	2.2075	0.0012393	0.0012469	0.000347	333.91	1.3668e-05	1.3697e-05	356.51	108.07	1.37e-05	1.3672e-05	220.48	53.904	51.999	17.488	1.355e-05	23.424	318.379	303.017	259.415	4.896	13.701	242.380	2.904	10.106	235.354	42.847	6.498	11.015	13.577	19.253	20.415	14.334	-8191	255	
1562.490	1	1	0	0	0.27349	0.02512	0.10972	0.24713	0.068473	0.088688	0.13049	0.083826	0.092135	0.28667	0.21253	0.12452	0.28471	0.22009	0.13703	0.24517	-2.0083	-3.0854	-2.6833	-2.5708	-3.3729	-2.5896	-2.9271	-2.8896	-2.4146	-3.0854	-2.8458	-2.5625	-3.2646	-2.5167	-2.9146	-3.0917	173.379	344.099	154.823	51.529	192.217	270.853	116.207	310.038	5.503	196.300	310.142	165.184	25.288	300.186	205.173	129.765	0.00011917	0.00015425	0.00010615	35.813	3.7389e-06	5.0729e-06	49.674	12.554	1.2301e-06	4.9742e-06	17.619	5.91	4.1798	1.5357	4.3303e-06	2.3494	0.0012291	0.0012355	0.00034385	331.34	1.3571e-05	1.3553e-05	353.11	107.35	1.3581e-05	1.3553e-05	218.78	53.596	51.613	17.351	1.3439e-05	23.238	162.058	50.660	281.241	4.195	28.003	279.328	3.136	9.646	57.012	109.629	6.372	11.911	14.895	18.127	74.759	13.945	-8191	255	
1562.611	1	1	0	0	0.15005	0.20033	0.26798	0.35623	0.17985	0.20923	0.23803	0.16778	0.22522	0.12134	0.22128	0.41587	0.28257	0.26378	0.12038	0.19229	-2.0375	-3.125	-2.7667	-2.4083	-3.325	-2.4896	-2.8958	-3.1083	-2.3042	-3.05	-2.8187	-2.4042	-3.3333	-2.3646	-2.5312	-3.0229	84.856	298.074	65.187	238.736	252.299	275.966	312.569	278.018	194.190	179.947	199.349	221.173	250.012	186.084	160.625	62.920	0.000291	0.00015811	0.00021809	35.67	1.8742e-06	1.2663e-06	48.943	12.896	4.0482e-06	3.7731e-06	19.221	6.127	4.3842	1.545	2.213e-06	2.2348	0.0012193	0.0012248	0.00034101	329.99	1.3482e-05	1.3463e-05	350.65	106.38	1.3466e-05	1.3412e-05	216.76	53.125	51.258	17.267	1.3378e-05	23.172	181.399	163.898	97.597	4.095	273.964	113.575	2.981	9.263	206.165	190.038	1.932	12.798	11.263	18.850	278.705	15.599	-8191	255	
1562.707	1	1	0	0	0.12352	0.0899	0.16414	0.12088	0.048564	0.18848	0.21049	0.22435	0.31065	0.17027	0.22192	0.27992	0.22463	0.33976	0.29095	0.051718	-1.9167	-2.9896	-2.9146	-2.4	-3.0292	-2.6417	-2.5542	-3.1354	-2.2812	-2.8771	-2.9646	-2.2854	-3.0812	-2.6937	-2.5042	-3.1521	29.295	51.067	324.884	23.974	219.871	78.883	130.008	85.084	46.427	299.672	63.936	342.198	348.090	331.709	44.295	47.018	6.1288e-05	0.00040903	9.107e-05	34.903	2.7989e-07	5.1057e-06	48.877	12.302	3.0704e-06	5.6593e-06	18.515	6.0382	4.2829	1.5609	4.2921e-06	2.2554	0.0012152	0.0012211	0.00033963	327.82	1.3383e-05	1.3366e-05	348.19	105.79	1.3367e-05	1.3316e-05	216.03	53.047	51.237	17.243	1.3357e-05	23.135	333.016	284.512	248.279	4.794	184.627	12.823	2.790	9.062	212.797	17.141	5.543	11.696	12.467	18.708	39.810	15.276	-8191	255	
1562.803	1	1	0	0	0.13071	0.10268	0.13963	0.15162	0.23516	0.39066	0.18889	0.10924	0.12155	0.11705	0.098246	0.14491	0.16761	0.23859	0.26782	0.081174	-1.9875	-2.8375	-3.0083	-2.3146	-3.1396	-2.6625	-2.5625	-3.0979	-2.4167	-2.7396	-3.0229	-2.4146	-2.9729	-2.8583	-2.4896	-3.2479	67.766	346.493	279.547	154.793	23.010	214.397	308.529	135.269	146.410	110.238	5.093	236.938	198.456	333.665	128.226	68.261	9.6566e-05	0.00071166	3.0408e-05	35.529	1.2693e-06	2.733e-06	48.203	12.476	5.8147e-06	3.5094e-06	17.826	5.9156	4.1206	1.5582	3.1328e-06	2.2977	0.0012134	0.0012187	0.00033884	327.04	1.3348e-05	1.3307e-05	347.09	105.41	1.3297e-05	1.3241e-05	214.59	52.54	50.633	17.04	1.3205e-05	22.98	251.479	160.259	166.123	4.788	312.030	63.867	3.183	9.617	252.150	341.418	6.369	11.110	12.842	18.436	233.935	15.203	-8191	255	
1562.899	1	1	0	0	0.16861	0.13464	0.37796	0.22533	0.21126	0.091779	0.20278	0.09961	0.025131	0.12158	0.17836	0.26805	0.11725	0.22689	0.19751	0.054461	-2.2438	-2.8063	-3.1813	-2.4437	-3.0938	-2.9167	-2.5604	-3.3521	-2.6292	-2.6542	-3.2083	-2.5812	-3.0354	-3.0479	-2.2479	-3.3042	23.395	47.828	233.843	176.512	1.140	339.193	61.714	202.860	324.299	-3.590	60.319	192.640	25.833	183.458	184.211	215.337	0.00035297	8.6099e-05	7.9344e-05	35.446	2.1998e-06	2.4953e-06	48.665	12.327	5.9198e-06	4.2254e-06	18.104	6.0853	4.0723	1.5879	6.3387e-06	2.2482	0.0012082	0.0012161	0.0003398	327.5	1.3359e-05	1.3314e-05	347.91	105.5	1.3314e-05	1.3293e-05	215.56	52.972	51.06	17.239	1.3396e-05	23.213	168.827	342.306	294.228	6.281	48.771	259.217	3.404	10.196	120.366	210.502	6.689	12.551	14.618	19.255	326.622	16.307	-8191	255	
1562.995	1	1	0	0	0.13487	0.092538	0.090683	0.1697	0.061521	0.28011	0.16984	0.051231	0.16276	0.1405	0.10899	0.14943	0.05345	0.25389	0.24465	0.20844	-2.3479	-2.6208	-3.2875	-2.3542	-2.9146	-3.0583	-2.3688	-3.075	-2.7167	-2.7812	-3.0896	-2.3438	-2.8417	-2.8583	-2.3854	-3.05	103.142	279.779	28.428	38.886	139.789	234.155	122.878	123.398	115.092	33.491	86.604	288.812	5.701	12.751	197.488	69.034	3.8895e-05	0.00019642	3.1065e-06	35.737	3.4712e-06	8.7234e-07	47.754	12.715	3.9724e-07	3.1749e-06	19.117	5.798	4.1937	1.5289	9.0382e-06	2.2948	0.0012145	0.0012259	0.00034222	330.38	1.3537e-05	1.3573e-05	354.29	107.96	1.3671e-05	1.3666e-05	221.04	54.123	52.179	17.563	1.365e-05	23.583	185.737	75.195	150.305	4.854	331.092	160.387	2.460	8.997	265.901	323.508	8.032	11.312	12.529	17.125	39.724	17.641	-8191	255	
1563.090	1	1	0	0	0.024259	0.20129	0.046835	0.15697	0.088336	0.15555	0.16323	0.080263	0.052437	0.09443	0.052244	0.051406	0.20299	0.13114	0.12855	0.21429	-2.4167	-2.5187	-3.1875	-2.5521	-2.6771	-3.1312	-2.4979	-3.0812	-2.7583	-2.5667	-3.075	-2.5542	-2.8	-3.0396	-2.4854	-2.9417	94.322	158.260	16.855	183.533	341.316	269.971	73.606	288.720	109.854	238.603	180.176	118.333	326.053	286.453	347.315	265.102	0.00020124	0.00028767	0.00016903	34.342	1.8751e-06	4.6374e-06	50.155	12.819	1.5117e-06	2.0644e-06	18.65	6.0494	4.368	1.4985	5.6612e-06	2.2664	0.0012357	0.0012429	0.00034578	332.26	1.3582e-05	1.357e-05	353.07	107.11	1.353e-05	1.3536e-05	219.39	53.548	51.714	17.458	1.3535e-05	23.344	241.834	279.552	27.333	3.563	30.232	145.967	2.834	8.805	119.450	148.747	8.166	11.733	13.482	19.072	249.814	15.179	-8191	255	
1563.186	1	1	0	0	0.068039	0.083161	0.30663	0.16319	0.15855	0.26479	0.065639	0.10588	0.064539	0.15923	0.32973	0.14135	0.38844	0.32477	0.48398	0.044864	-2.4417	-2.2667	-3.1958	-2.7	-2.6208	-3.2729	-2.3667	-2.9813	-2.9604	-2.4396	-3.1437	-2.6104	-2.3937	-3.0812	-2.2917	-2.8979	307.797	29.899	164.926	21.244	30.288	294.219	219.484	2.780	219.685	206.883	47.244	279.946	250.639	157.989	242.185	170.045	0.00026665	0.00011577	0.00010606	34.684	1.7129e-06	2.2708e-06	49.073	12.341	4.9532e-06	9.8191e-07	18.618	5.8838	4.0689	1.525	1.7253e-06	2.1876	0.001223	0.0012276	0.00034263	329.46	1.3465e-05	1.3497e-05	351.65	106.72	1.3499e-05	1.35e-05	218.7	53.463	51.643	17.437	1.3511e-05	23.416	178.486	0.101	337.043	6.309	61.438	278.407	3.647	8.771	22.456	304.646	7.190	12.297	14.494	17.539	294.253	14.798	-8191	255	
1563.284	1	1	0	0	0.10904	0.27515	0.24029	0.29381	0.16104	0.15601	0.17208	0.056761	0.19867	0.17091	0.13544	0.060513	0.22462	0.21331	0.2118	0.054149	-2.6667	-2.2062	-3.0083	-2.7271	-2.3125	-3.2062	-2.6104	-2.8958	-3.2125	-2.4146	-3.0104	-2.6979	-2.4042	-3.2208	-2.5271	-2.6104	194.715	215.961	91.832	258.770	83.446	273.317	-5.351	5.607	147.366	24.482	280.364	294.927	89.155	136.476	144.412	282.489	0.00018745	0.00041238	0.00010096	35.253	2.2826e-06	1.0024e-06	49.278	12.654	4.8602e-06	2.9034e-06	18.424	6.0836	4.0532	1.5339	3.1227e-06	2.3023	0.0012287	0.0012349	0.00034318	330.41	1.3527e-05	1.355e-05	353.36	107.47	1.3618e-05	1.3608e-05	220.67	53.931	52.187	17.605	1.3658e-05	23.576	99.237	138.377	181.685	5.534	247.489	231.135	3.317	9.412	12.170	191.685	6.389	11.343	13.701	18.107	65.472	17.288	-8191	255	
1563.403	1	1	0	0	0.12861	0.39768	0.17278	0.21774	0.026732	0.08986	0.16553	0.23173	0.17222	0.051963	0.28092	0.16038	0.11389	0.11825	0.10395	0.058571	-2.7	-2.4521	-3.1083	-2.9354	-2.5167	-3.3271	-2.6708	-2.5083	-3.3625	-2.4104	-3	-2.9833	-2.3354	-3.15	-2.6688	-2.6625	157.245	9.202	155.643	101.086	189.665	4.439	97.560	33.769	-0.435	164.003	115.634	338.730	273.408	108.237	198.254	81.162	0.00014685	0.00052039	8.2003e-05	35.807	3.3396e-06	1.5036e-06	49.726	12.805	2.8364e-06	1.9576e-06	18.14	6.0436	4.3792	1.56	6.5583e-06	2.3863	0.0012392	0.0012442	0.00034615	332.76	1.3618e-05	1.3586e-05	354.47	107.44	1.3596e-05	1.3559e-05	219.63	53.716	51.966	17.55	1.3597e-05	23.533	227.054	280.999	20.755	4.645	76.339	69.447	3.585	9.596	265.292	297.193	4.960	10.584	14.343	18.746	271.738	14.704	-8191	255	
1563.499	1	1	0	0	0.4516	0.15972	0.031181	0.24538	0.16883	0.09363	0.22746	0.10305	0.13471	0.15667	0.31024	0.069058	0.029892	0.21601	0.16612	0.19753	-2.8667	-2.2833	-2.9125	-3.0438	-2.3937	-3.1792	-2.6396	-2.6188	-3.3917	-2.4417	-2.8646	-3.2333	-2.2521	-2.9833	-2.8521	-2.4104	283.071	28.829	145.712	221.812	328.465	258.223	287.200	321.581	111.597	237.088	211.688	222.577	318.178	292.808	188.923	260.357	0.00020253	0.00061072	8.272e-05	35.732	1.9166e-06	1.8562e-06	49.708	12.445	5.0776e-06	3.7659e-06	18.651	6.1344	4.2462	1.5772	3.4764e-06	2.3	0.0012386	0.0012429	0.00034586	332.33	1.3608e-05	1.3574e-05	353.26	107.14	1.3557e-05	1.3493e-05	218.51	53.506	51.754	17.467	1.3557e-05	23.431	108.375	175.447	281.821	4.105	236.306	285.453	4.350	8.349	64.252	291.747	8.993	11.185	13.598	19.374	203.845	15.852	-8191	255	
1563.595	1	1	0	0	0.072312	0.14072	0.32138	0.2023	0.21078	0.17475	0.11673	0.07967	0.092584	0.20444	0.11048	0.10768	0.10648	0.17802	0.073812	0.13473	-2.8896	-2.5542	-2.9333	-3.1771	-2.2479	-2.8583	-2.8917	-2.4146	-3.2875	-2.5125	-2.5083	-3.2771	-2.3854	-3.0146	-2.9583	-2.3208	173.574	39.675	142.823	309.515	321.305	250.354	56.807	122.434	56.273	166.619	179.442	29.661	-6.716	347.497	223.092	44.254	0.00023872	0.00046207	5.2533e-05	35.301	1.6162e-06	2.7975e-06	50.235	12.842	4.8584e-06	3.7664e-06	18.713	5.999	4.1627	1.5734	2.3171e-06	2.3584	0.001231	0.0012359	0.00034432	331.33	1.3556e-05	1.3529e-05	353.18	107.14	1.356e-05	1.35e-05	218.78	53.56	51.744	17.468	1.3516e-05	23.521	107.045	114.896	268.456	4.832	38.571	53.074	2.087	11.032	214.768	187.632	7.551	11.274	14.142	18.581	258.032	15.870	-8191	255	
1563.691	1	1	0	0	0.097357	0.31311	0.17421	0.11391	0.29586	0.26688	0.081817	0.18563	0.11132	0.067584	0.21848	0.17807	0.1787	0.16554	0.042533	0.13407	-2.8854	-2.6167	-2.5333	-3.1188	-2.4375	-2.9958	-2.9896	-2.3312	-3.0729	-2.7708	-2.5167	-3.0667	-2.5229	-3.0229	-2.9104	-2.4188	305.145	206.190	245.693	150.199	2.741	22.599	21.944	346.099	175.194	225.053	344.979	-2.134	32.150	5.086	336.342	2.163	0.00017415	0.00015981	0.00013535	35.86	3.3656e-06	4.8002e-06	48.676	12.689	2.9266e-06	1.0495e-06	19.261	6.1425	4.3889	1.6323	4.171e-06	2.2328	0.001238	0.0012413	0.0003449	332.33	1.3542e-05	1.3531e-05	352.94	107.5	1.3571e-05	1.3527e-05	219.04	53.551	51.613	17.406	1.3461e-05	23.389	48.174	80.998	284.562	5.938	85.696	248.174	2.771	11.006	209.805	39.824	7.887	12.353	13.768	19.620	167.351	16.493	-8191	255	
1563.787	1	1	0	0	0.28787	0.188	0.043806	0.13745	0.18172	0.3219	0.042485	0.084856	0.089989	0.11519	0.13064	0.17826	0.23326	0.093195	0.13551	0.047494	-2.6271	-2.7542	-2.6167	-3.2458	-2.4562	-2.6896	-3.0854	-2.4188	-3.0521	-2.7833	-2.3812	-3.1896	-2.4583	-2.825	-3.2708	-2.3667	45.250	64.454	152.516	220.793	211.700	241.285	146.834	333.563	108.397	278.046	207.575	195.456	115.692	160.100	128.378	92.148	0.000374	0.00013394	7.1917e-05	36.535	1.1079e-06	4.1952e-06	50.03	12.403	1.7785e-06	1.1335e-06	17.799	6.2194	4.186	1.5423	2.6297e-06	2.2665	0.0012269	0.0012325	0.00034383	332.67	1.3577e-05	1.3564e-05	353.73	107.5	1.3554e-05	1.354e-05	219.88	53.985	52.014	17.535	1.3584e-05	23.521	241.013	57.786	118.322	4.484	144.819	158.284	4.310	9.784	351.321	236.386	8.168	12.259	13.991	19.147	180.931	15.264	-8191	255	
1563.884	1	1	0	0	0.11735	0.11831	0.23767	0.11921	0.054246	0.069803	0.11799	0.076362	0.22102	0.24331	0.11961	0.036533	0.14387	0.27292	0.33475	0.2422	-2.7333	-2.9688	-2.3854	-3.0812	-2.5521	-2.775	-3.1333	-2.475	-3.0625	-3.1896	-2.6229	-3.0438	-2.5812	-2.4667	-3.1729	-2.6208	340.760	127.239	35.090	166.301	283.178	99.171	224.953	221.729	183.930	290.565	14.291	258.755	282.552	235.819	-7.564	23.806	0.00017288	0.00024865	8.1219e-05	35.627	6.8269e-06	1.6124e-06	49.19	12.981	3.0965e-06	3.9708e-06	19.094	5.8643	4.3228	1.5322	5.4772e-06	2.3913	0.0012355	0.001238	0.00034452	331.9	1.354e-05	1.3503e-05	352.61	107.32	1.3535e-05	1.351e-05	219.49	53.7	51.781	17.42	1.3501e-05	23.37	201.176	333.477	-0.107	4.120	133.756	324.932	3.421	10.282	40.665	112.017	8.329	10.972	9.711	18.706	197.722	15.334	-8191	255	
1564.004	1	1	0	0	0.16445	0.14351	0.25097	0.22226	0.063317	0.10589	0.15933	0.19018	0.057326	0.11648	0.20217	0.10556	0.18459	0.25242	0.10581	0.25231	-2.5042	-3.0563	-2.3917	-3.1292	-2.8271	-2.6667	-3.1792	-2.4229	-3.0062	-3.2292	-2.5208	-3.0667	-2.7313	-2.3729	-3.2062	-2.5062	229.972	162.838	65.899	199.687	308.230	43.718	10.833	214.926	29.627	51.171	187.842	334.242	310.084	159.198	93.934	44.069	0.00014006	0.00068876	7.6096e-05	36.706	2.2628e-06	1.8688e-06	49.008	12.628	2.0159e-06	4.7612e-06	18.386	6.198	4.3214	1.5935	3.7455e-06	2.3568	0.0012257	0.0012302	0.00034316	331.4	1.352e-05	1.3508e-05	352.17	106.8	1.3507e-05	1.3466e-05	218.3	53.481	51.547	17.427	1.3507e-05	23.381	133.043	86.334	321.835	3.451	142.036	41.780	1.587	7.787	321.025	296.172	5.510	11.620	13.673	20.418	185.104	14.143	-8191	255	
1564.100	1	1	0	0	0.20472	0.27738	0.061026	0.11484	0.16946	0.22839	0.22921	0.090367	0.14961	0.16575	0.23649	0.052024	0.093072	0.18547	0.26743	0.10981	-2.3187	-3.0792	-2.2583	-2.9458	-2.8021	-2.6146	-3.2833	-2.6167	-2.6854	-3.1437	-2.3708	-3.0729	-2.8229	-2.6188	-3.1708	-2.6917	141.595	59.791	321.657	349.891	320.970	55.486	60.226	335.508	226.821	259.016	231.042	258.399	60.572	251.072	107.695	291.910	6.2311e-05	0.00034505	7.2259e-05	34.78	4.1491e-06	2.6966e-06	50.553	12.596	1.6388e-06	8.0212e-06	19.09	6.114	4.0433	1.5698	2.4667e-06	2.329	0.0012258	0.0012305	0.00034178	328.65	1.3388e-05	1.3379e-05	350.01	106.18	1.341e-05	1.3427e-05	217.97	53.398	51.608	17.447	1.3536e-05	23.43	3.981	115.748	118.939	4.602	345.496	280.123	2.232	9.148	135.894	181.773	4.568	10.513	12.132	18.522	28.630	13.447	-8191	255	
1564.195	1	1	0	0	0.12783	0.079825	0.15411	0.066061	0.089547	0.39184	0.27141	0.035115	0.15202	0.022081	0.14949	0.17129	0.10738	0.13888	0.24404	0.056501	-2.05	-3.0354	-2.4	-2.9333	-3.0667	-2.275	-3.1437	-2.6271	-2.3896	-3.1708	-2.4042	-2.7458	-3.0458	-2.375	-3.0229	-2.65	229.471	312.212	339.351	318.285	263.656	113.607	342.186	30.795	342.781	135.931	310.884	335.741	231.210	233.951	221.234	-4.803	0.00033286	0.00034011	0.00017238	35.32	2.3646e-06	4.0991e-06	49.256	12.729	2.6282e-06	4.3556e-06	19.516	5.972	4.3274	1.5293	9.2167e-07	2.3582	0.0012306	0.0012409	0.00034616	332.94	1.3584e-05	1.3607e-05	354.16	107.52	1.3588e-05	1.3547e-05	218.71	53.638	51.712	17.455	1.3491e-05	23.398	316.508	179.244	6.510	5.445	237.115	40.826	3.641	8.400	191.573	199.111	6.518	10.686	13.164	19.510	0.067	14.666	-8191	255	
1564.291	1	1	0	0	0.11621	0.29847	0.089824	0.15979	0.17171	0.17944	0.089528	0.1849	0.16815	0.11278	0.14889	0.041258	0.20989	0.18392	0.15159	0.13898	-2.1396	-3.3583	-2.4646	-2.8187	-2.9417	-2.2833	-2.8917	-2.95	-2.4583	-3.3854	-2.5271	-2.6583	-3.2771	-2.3979	-3.1688	-2.9354	303.678	125.484	31.984	89.705	8.640	242.108	189.193	10.035	223.668	24.179	23.194	33.568	70.979	341.719	95.157	170.938	4.4324e-05	0.0004218	0.00015071	35.749	1.5185e-06	5.1389e-06	49.221	12.946	1.3773e-06	5.7794e-06	18.894	6.1296	4.1523	1.5666	6.7569e-06	2.358	0.0012275	0.0012338	0.00034384	331.38	1.3518e-05	1.3503e-05	351.98	106.89	1.3499e-05	1.3448e-05	217.72	53.401	51.51	17.373	1.3451e-05	23.301	6.002	218.992	103.880	4.046	70.836	143.021	3.306	8.745	17.464	265.461	6.428	10.033	12.162	21.786	-1.675	14.666	-8191	255	
1564.387	1	1	0	0	0.17538	0.1554	0.12826	0.073212	0.10301	0.19323	0.16273	0.13654	0.26448	0.25053	0.22442	0.16896	0.2203	0.16617	0.099903	0.26687	-2.0729	-3.15	-2.6813	-2.5833	-3.2292	-2.3458	-2.9708	-3.0021	-2.4396	-3.3563	-2.7396	-2.75	-3.2479	-2.4771	-2.9167	-2.7812	88.374	121.346	98.887	198.687	62.227	116.136	197.912	257.728	287.831	179.208	197.396	336.316	75.371	342.274	335.630	248.607	0.00017543	0.00040106	6.2603e-05	35.448	2.7046e-06	6.567e-07	49.734	12.624	4.2687e-06	3.2597e-06	19.043	6.1805	4.2569	1.5873	8.9419e-07	2.3515	0.0012207	0.0012266	0.00034145	329.91	1.3506e-05	1.3517e-05	352.46	106.93	1.3486e-05	1.3478e-05	217.94	53.433	51.467	17.358	1.3403e-05	23.221	80.537	-5.984	188.616	3.463	303.968	164.570	3.313	10.511	232.451	93.563	6.801	10.288	15.178	19.838	165.504	15.058	-8191	255	
#DATA ENDS
