BOXY.EXE: ISS Imagent and Oximeter Data Acquisition Program Version 0.80
Ascii Record File

#ACQ INFORMATION
2  Detector Channels 
16  External MUX Channels 
1  Auxiliary Channels 
5000  Waveform (CCF) Frequency (Hz)
1  Waveforms Skipped 
30  Waveforms Averaged 
1  Cycles Averaged 
16  Acquisitions per Waveform 
10.0806  Updata Rate (Hz) 

#FILE INFORMATION
TRUE -- External MUX Channel results are PARSED.
FALSE -- AC DC and Phase are NOT grouped.
TRUE -- Companion Program Settings File CREATED.
FALSE -- AC data not excluded
FALSE -- DC data not excluded
FALSE -- Phase data not excluded
FALSE -- Auxillary Chn. data not excluded
Tab delimiters

#CALIBRATION STATE
TRUE -- Waveform Calibration Values APPLIED.


#AUX CALIBRATION VALUES
Val Type	aux-1	

Term	1.0000e+00	
Factor	0.0000e+00	


#WF CALIBRATION VALUES
A = Detector Channel
Val Type	A-AC1	A-AC2	A-AC3	A-AC4	A-AC5	A-AC6	A-AC7	A-AC8	A-AC9	A-AC10	A-AC11	A-AC12	A-AC13	A-AC14	A-AC15	A-AC16	A-DC1	A-DC2	A-DC3	A-DC4	A-DC5	A-DC6	A-DC7	A-DC8	A-DC9	A-DC10	A-DC11	A-DC12	A-DC13	A-DC14	A-DC15	A-DC16	A-Ph1	A-Ph2	A-Ph3	A-Ph4	A-Ph5	A-Ph6	A-Ph7	A-Ph8	A-Ph9	A-Ph10	A-Ph11	A-Ph12	A-Ph13	A-Ph14	A-Ph15	A-Ph16	

Term	0.00000e+00	0.00000e+00	0.00000e+00	0.00000e+00	0.00000e+00	0.00000e+00	0.00000e+00	0.00000e+00	0.00000e+00	0.00000e+00	0.00000e+00	0.00000e+00	0.00000e+00	0.00000e+00	0.00000e+00	0.00000e+00	0.00000e+00	0.00000e+00	0.00000e+00	0.00000e+00	0.00000e+00	0.00000e+00	0.00000e+00	0.00000e+00	0.00000e+00	0.00000e+00	0.00000e+00	0.00000e+00	0.00000e+00	0.00000e+00	0.00000e+00	0.00000e+00	0.00000e+00	0.00000e+00	0.00000e+00	0.00000e+00	0.00000e+00	0.00000e+00	0.00000e+00	0.00000e+00	0.00000e+00	0.00000e+00	0.00000e+00	0.00000e+00	0.00000e+00	0.00000e+00	0.00000e+00	0.00000e+00	
Factor	1.00000e+00	1.00000e+00	1.00000e+00	1.00000e+00	1.00000e+00	1.00000e+00	1.00000e+00	1.00000e+00	1.00000e+00	1.00000e+00	1.00000e+00	1.00000e+00	1.00000e+00	1.00000e+00	1.00000e+00	1.00000e+00	1.00000e+00	1.00000e+00	1.00000e+00	1.00000e+00	1.00000e+00	1.00000e+00	1.00000e+00	1.00000e+00	1.00000e+00	1.00000e+00	1.00000e+00	1.00000e+00	1.00000e+00	1.00000e+00	1.00000e+00	1.00000e+00	X	X	X	X	X	X	X	X	X	X	X	X	X	X	X	X	

B = Detector Channel
Val Type	B-AC1	B-AC2	B-AC3	B-AC4	B-AC5	B-AC6	B-AC7	B-AC8	B-AC9	B-AC10	B-AC11	B-AC12	B-AC13	B-AC14	B-AC15	B-AC16	B-DC1	B-DC2	B-DC3	B-DC4	B-DC5	B-DC6	B-DC7	B-DC8	B-DC9	B-DC10	B-DC11	B-DC12	B-DC13	B-DC14	B-DC15	B-DC16	B-Ph1	B-Ph2	B-Ph3	B-Ph4	B-Ph5	B-Ph6	B-Ph7	B-Ph8	B-Ph9	B-Ph10	B-Ph11	B-Ph12	B-Ph13	B-Ph14	B-Ph15	B-Ph16	

Term	0.00000e+00	0.00000e+00	0.00000e+00	0.00000e+00	0.00000e+00	0.00000e+00	0.00000e+00	0.00000e+00	0.00000e+00	0.00000e+00	0.00000e+00	0.00000e+00	0.00000e+00	0.00000e+00	0.00000e+00	0.00000e+00	0.00000e+00	0.00000e+00	0.00000e+00	0.00000e+00	0.00000e+00	0.00000e+00	0.00000e+00	0.00000e+00	0.00000e+00	0.00000e+00	0.00000e+00	0.00000e+00	0.00000e+00	0.00000e+00	0.00000e+00	0.00000e+00	-2.40346e+02	-8.60789e+01	-1.37580e+02	-1.81794e+02	-9.56072e+01	-6.15362e+01	-1.55227e+02	-1.62015e+02	-7.62495e+01	-2.08821e+01	-1.76015e+02	-1.69664e+02	-1.83008e+02	-1.76920e+02	-1.10967e+02	-1.49451e+02	
Factor	4.41567e-05	7.28733e-05	1.84622e-05	1.45759e-01	5.45265e-07	6.77868e-07	1.58711e-01	4.73567e-02	6.69312e-07	6.60670e-07	1.20289e-01	2.57934e-02	2.57211e-02	8.47169e-03	7.26230e-07	1.17836e-02	2.97384e-07	2.98781e-07	8.31620e-08	7.06932e-02	3.27491e-09	3.27375e-09	7.22083e-02	2.26007e-02	3.28093e-09	3.27436e-09	4.87179e-02	1.14701e-02	1.15018e-02	3.84075e-03	3.27804e-09	5.10611e-03	X	X	X	X	X	X	X	X	X	X	X	X	X	X	X	X	



#DISTANCE SETTINGS
A = Detector Channel
A-1	A-2	A-3	A-4	A-5	A-6	A-7	A-8	A-9	A-10	A-11	A-12	A-13	A-14	A-15	A-16	

2.5000e+00	3.0000e+00	2.5000e+00	3.0000e+00	2.0000e+00	3.0000e+00	1.5000e+00	3.0000e+00	3.0000e+00	3.0000e+00	3.0000e+00	3.0000e+00	3.0000e+00	3.0000e+00	1.5000e+00	3.0000e+00	

B = Detector Channel
B-1	B-2	B-3	B-4	B-5	B-6	B-7	B-8	B-9	B-10	B-11	B-12	B-13	B-14	B-15	B-16	

1.0000e+01	1.0000e+01	1.0000e+01	1.4400e+00	1.0000e+01	1.0000e+01	1.5100e+00	1.9400e+00	1.0000e+01	1.0000e+01	1.9900e+00	2.4900e+00	2.4100e+00	2.9000e+00	1.0000e+01	2.9800e+00	




#DATA BEGINS
time	group	step	mark	flag	A-AC1	A-AC2	A-AC3	A-AC4	A-AC5	A-AC6	A-AC7	A-AC8	A-AC9	A-AC10	A-AC11	A-AC12	A-AC13	A-AC14	A-AC15	A-AC16	A-DC1	A-DC2	A-DC3	A-DC4	A-DC5	A-DC6	A-DC7	A-DC8	A-DC9	A-DC10	A-DC11	A-DC12	A-DC13	A-DC14	A-DC15	A-DC16	A-Ph1	A-Ph2	A-Ph3	A-Ph4	A-Ph5	A-Ph6	A-Ph7	A-Ph8	A-Ph9	A-Ph10	A-Ph11	A-Ph12	A-Ph13	A-Ph14	A-Ph15	A-Ph16	B-AC1	B-AC2	B-AC3	B-AC4	B-AC5	B-AC6	B-AC7	B-AC8	B-AC9	B-AC10	B-AC11	B-AC12	B-AC13	B-AC14	B-AC15	B-AC16	B-DC1	B-DC2	B-DC3	B-DC4	B-DC5	B-DC6	B-DC7	B-DC8	B-DC9	B-DC10	B-DC11	B-DC12	B-DC13	B-DC14	B-DC15	B-DC16	B-Ph1	B-Ph2	B-Ph3	B-Ph4	B-Ph5	B-Ph6	B-Ph7	B-Ph8	B-Ph9	B-Ph10	B-Ph11	B-Ph12	B-Ph13	B-Ph14	B-Ph15	B-Ph16	aux-1	digaux	

1049.455	1	1	0	768	0.071792	0.06542	0.14717	0.19799	0.026239	0.24953	0.22404	0.1585	0.088018	0.070928	0.32244	0.13875	0.14315	0.22187	0.14794	0.15827	-2.1813	-3.3833	-2.7667	-3.0812	-3.3979	-2.6688	-3.275	-3.3167	-2.725	-3.3958	-2.8563	-2.9104	-3.3854	-2.5917	-3.2687	-3.4083	143.069	-35.679	2.127	310.108	144.783	64.591	210.686	164.992	261.486	239.573	-10.425	117.814	252.866	261.032	241.215	249.978	0.00027132	0.00045424	5.7975e-05	878.6	1.6413e-06	1.9208e-06	976.01	191.42	3.1229e-06	2.9407e-06	243.26	67.592	52.615	15.412	7.2031e-07	21.64	8.7288e-05	8.6792e-05	2.4152e-05	803.29	9.6012e-07	9.5634e-07	886.13	175.42	9.5764e-07	9.5219e-07	204.93	61.184	46.75	14.057	9.5691e-07	19.391	9.643	123.437	84.471	-39.208	236.946	83.300	-38.976	-31.684	146.673	143.328	-32.156	-24.505	-24.866	-17.861	132.774	-18.360	-8191	255	
1049.551	1	1	0	0	0.19643	0.037253	0.08686	0.20885	0.1101	0.1397	0.22795	0.091621	0.086874	0.018223	0.12062	0.096645	0.13185	0.024879	0.075326	0.085859	-2.275	-3.4771	-3.0292	-2.9979	-3.2854	-2.6771	-3.1833	-3.4354	-2.5021	-3.3312	-3.0104	-2.6333	-3.4854	-2.7438	-3.1042	-3.2562	305.522	-18.743	18.776	249.941	169.325	136.139	303.677	-42.437	302.189	61.218	178.521	280.664	238.197	302.352	236.034	92.452	9.5333e-05	0.00019738	9.3655e-05	874.66	2.1453e-06	2.099e-06	971.95	192.23	1.4753e-06	2.7862e-06	243.45	67.161	52.427	15.398	1.515e-06	21.468	8.8663e-05	8.8089e-05	2.4334e-05	801.06	9.6037e-07	9.4724e-07	887.09	175.29	9.6058e-07	9.3855e-07	205.81	61.29	46.937	14.075	9.568e-07	19.378	25.777	35.356	111.424	-39.256	96.214	269.465	-38.848	-31.657	81.586	12.182	-32.299	-24.910	-24.597	-17.357	30.586	-18.108	-8191	255	
1049.648	1	1	0	0	0.19507	0.07563	0.062011	0.11799	0.09655	0.093228	0.13756	0.34046	0.21494	0.051521	0.01587	0.14897	0.12512	0.19688	0.29186	0.17766	-1.9562	-3.2146	-2.9583	-2.8312	-3.3333	-2.8	-2.9167	-3.5167	-2.6083	-3.3729	-3.2542	-2.5979	-3.525	-2.7833	-2.8917	-3.4062	282.238	147.944	166.525	304.825	51.397	94.722	298.785	212.445	157.496	7.845	-33.119	263.957	53.412	115.886	-24.569	194.413	0.00024664	0.00027931	7.1557e-05	884.88	1.2156e-06	2.4426e-06	967.57	192	2.728e-06	2.5266e-06	244.8	67.791	52.344	15.34	2.8711e-06	21.438	8.7316e-05	8.5895e-05	2.387e-05	804.32	9.5473e-07	9.4165e-07	885.63	175.36	9.5172e-07	9.3981e-07	205.89	61.159	46.782	14.053	9.4386e-07	19.359	14.804	27.613	92.979	-39.141	57.365	114.362	-38.776	-31.726	77.248	132.378	-31.708	-24.909	-24.566	-17.167	98.191	-18.260	-8191	255	
1049.744	1	1	0	0	0.16198	0.068785	0.10209	0.24799	0.13888	0.12879	0.29007	0.081633	0.25743	0.22335	0.11466	0.1759	0.21412	0.22587	0.22186	0.21042	-2.3146	-3.0646	-3.1417	-2.675	-3.4083	-2.9146	-2.9458	-3.3542	-2.5854	-3.2271	-3.2375	-2.6729	-3.25	-3.0021	-2.6667	-3.5438	53.928	160.358	125.711	301.034	131.191	49.323	201.384	-7.988	31.012	196.147	235.134	183.988	-47.132	46.450	-0.331	216.619	0.00024395	0.00033698	9.016e-05	875.98	5.2683e-07	3.6972e-06	974.99	192.82	2.3564e-06	3.2041e-06	244.24	68.218	52.841	15.353	2.7658e-06	21.586	8.7605e-05	8.6451e-05	2.4443e-05	802.55	9.499e-07	9.4662e-07	887.75	175.66	9.5122e-07	9.4527e-07	205.19	61.344	46.778	14.023	9.561e-07	19.395	-2.186	93.688	7.056	-38.869	270.758	133.091	-38.978	-31.664	63.971	-18.003	-31.732	-24.912	-25.094	-16.999	82.762	-18.030	-8191	255	
1049.838	1	1	0	0	0.22791	0.11405	0.21387	0.22217	0.17459	0.1139	0.17072	0.11482	0.090375	0.020653	0.1779	0.12571	0.12976	0.13204	0.15328	0.25365	-2.2188	-2.9979	-3.1375	-2.7042	-3.3833	-3.0917	-2.825	-3.4604	-2.9896	-3.0312	-3.3812	-2.6562	-3.2625	-3.0771	-2.6875	-3.5542	-26.481	226.971	275.295	-46.650	32.223	-3.924	229.093	162.541	300.921	-49.366	168.030	290.387	3.855	89.041	281.723	-2.368	0.00022166	0.00025641	0.00012208	878.65	2.2597e-06	4.5545e-06	974.19	191.52	2.7457e-06	4.0008e-06	244.88	67.922	52.673	15.321	5.406e-07	21.578	8.7227e-05	8.6355e-05	2.3958e-05	802.56	9.4216e-07	9.4321e-07	885.72	175.16	9.4551e-07	9.5378e-07	205.35	61.355	46.987	14.03	9.5434e-07	19.438	-19.189	99.013	77.813	-39.331	102.747	86.564	-38.759	-31.491	129.377	75.245	-31.482	-25.123	-24.550	-17.035	10.022	-18.121	-8191	255	
1049.936	1	1	0	0	0.1479	0.18137	0.038322	0.15906	0.15758	0.0865	0.27476	0.48923	0.073883	0.0366	0.097662	0.30483	0.087503	0.13832	0.31204	0.022845	-2.2604	-2.8479	-3.4062	-2.7146	-3.2729	-3.2042	-2.8187	-3.5646	-2.8083	-2.8083	-3.3312	-2.625	-3.1271	-3.2729	-2.5896	-3.3521	82.922	121.018	119.839	255.374	-14.391	-34.320	144.492	266.106	72.905	-18.331	108.290	281.119	308.679	267.210	55.525	207.623	0.00020841	0.00012288	0.00010901	879.19	1.1932e-06	1.6274e-06	974.29	190.81	2.4335e-06	2.6499e-06	244.31	68.136	52.501	15.38	1.7066e-06	21.586	8.8376e-05	8.7309e-05	2.4009e-05	803.11	9.6005e-07	9.4954e-07	886.41	175.05	9.4574e-07	9.2617e-07	205.37	61.27	46.906	14.024	9.6026e-07	19.44	-35.611	-35.414	87.694	-39.398	-10.728	170.829	-38.915	-31.698	178.835	289.866	-32.545	-25.482	-24.402	-17.520	8.134	-18.273	-8191	255	
1050.055	1	1	0	0	0.12175	0.05211	0.10922	0.18666	0.29623	0.11468	0.38574	0.15797	0.23585	0.16046	0.056306	0.11448	0.26287	0.045668	0.37944	0.18726	-2.6146	-2.7458	-3.5208	-2.8438	-3.0167	-3.2313	-2.7521	-3.3854	-2.8937	-2.5854	-3.5729	-2.9688	-3.1354	-3.5396	-2.6229	-3.3208	-32.052	188.268	281.190	288.853	154.685	301.887	235.205	183.553	166.934	125.368	48.073	116.724	-42.972	223.369	301.444	93.113	0.00029257	0.00011094	7.0678e-05	878.14	1.2494e-06	3.8301e-06	969.42	191.06	2.779e-06	1.0238e-06	243.72	67.81	52.64	15.407	3.6293e-06	21.638	8.7322e-05	8.6299e-05	2.4176e-05	802.48	9.4541e-07	9.4843e-07	885.78	175.11	9.6107e-07	9.5362e-07	205.61	61.271	46.905	14.114	9.4952e-07	19.445	48.750	31.052	47.654	-38.860	280.955	90.080	-39.186	-31.600	301.024	172.877	-31.924	-25.111	-24.531	-17.143	51.186	-17.703	-8191	255	
1050.151	1	1	0	0	0.13223	0.13526	0.14614	0.1355	0.31057	0.14726	0.24997	0.19518	0.28009	0.090707	0.15413	0.14907	0.13342	0.39216	0.22521	0.16034	-2.6188	-2.6875	-3.4292	-2.9458	-3.0354	-3.3646	-2.7583	-3.2812	-3.2146	-2.7625	-3.4625	-2.9708	-2.8396	-3.5458	-2.5479	-3.2771	184.084	63.054	275.011	150.462	299.395	86.375	207.809	289.151	241.286	298.343	274.112	145.124	263.607	270.072	29.446	262.894	0.0002428	0.00022285	2.4169e-05	876.28	1.9675e-06	2.2712e-06	968.13	191.67	3.9101e-06	3.7213e-06	244.96	67.468	53.022	15.379	2.3073e-06	21.537	8.8362e-05	8.7546e-05	2.4144e-05	802.81	9.6879e-07	9.4485e-07	885.14	175.42	9.3974e-07	9.5293e-07	205.6	61.077	47.039	14.037	9.6744e-07	19.404	-16.451	259.628	87.341	-39.049	84.209	121.558	-38.778	-31.144	95.788	187.070	-31.928	-25.082	-24.716	-17.802	-18.165	-17.948	-8191	255	
1050.247	1	1	0	0	0.067942	0.29368	0.1453	0.27797	0.12559	0.0064803	0.35988	0.19697	0.10774	0.14177	0.1823	0.16516	0.089546	0.011702	0.20329	0.23814	-2.8208	-2.5271	-3.4708	-2.8854	-2.7521	-3.5375	-3.0333	-3.1167	-3.275	-2.7687	-3.3625	-3.1417	-2.8625	-3.5708	-2.6083	-3.2479	208.757	57.065	40.808	285.497	56.420	282.784	194.129	232.812	234.925	-21.264	30.762	287.123	107.400	199.160	190.234	30.904	0.00010132	4.6328e-05	2.3845e-05	874.1	2.6097e-07	2.7898e-06	973.19	190.58	1.2884e-06	1.6261e-07	244.21	67.856	52.502	15.545	1.7743e-06	21.75	8.7168e-05	8.7039e-05	2.4227e-05	801.47	9.496e-07	9.5951e-07	886.6	175.18	9.5651e-07	9.5006e-07	205.52	61.238	46.807	14.09	9.5981e-07	19.458	-26.655	57.676	-12.572	-39.014	209.969	130.984	-38.800	-31.604	167.502	-19.559	-32.006	-25.047	-24.467	-17.726	31.263	-17.600	-8191	255	
1050.343	1	1	0	0	0.23753	0.12679	0.048945	0.30492	0.24435	0.20942	0.11538	0.10732	0.1537	0.1481	0.0032816	0.1763	0.35207	0.22367	0.29348	0.19402	-2.8729	-2.6167	-3.3292	-3.0854	-2.7146	-3.4542	-2.9208	-2.9083	-3.45	-2.6813	-3.1813	-3.1146	-2.6063	-3.5583	-2.7188	-3.0417	73.378	254.606	237.177	-46.243	154.507	13.957	-24.322	51.295	-45.227	57.006	-37.741	-36.925	307.509	-46.528	-32.249	134.291	0.0003374	0.00024358	1.5833e-05	879.17	6.6739e-07	1.7098e-06	973.64	191.93	2.2631e-06	6.7877e-07	244.9	67.729	52.383	15.463	1.1208e-06	21.476	8.6961e-05	8.7728e-05	2.4057e-05	802.89	9.5289e-07	9.4454e-07	888.23	175.43	9.5909e-07	9.4658e-07	206.01	61.127	46.917	14.055	9.5256e-07	19.393	41.923	6.371	60.266	-39.162	27.247	84.996	-39.206	-31.383	227.981	233.457	-32.082	-25.116	-24.617	-17.680	19.153	-18.234	-8191	255	
1050.440	1	1	0	0	0.24621	0.032392	0.26392	0.13873	0.32426	0.12811	0.22188	0.14025	0.06765	0.071389	0.10265	0.15483	0.16745	0.2318	0.29996	0.11612	-3.0458	-2.6063	-3.2	-3.3125	-2.4979	-3.3854	-2.9938	-3.0125	-3.45	-2.8333	-3.0583	-3.2229	-2.6688	-3.2687	-2.7354	-3.05	156.037	-14.160	107.001	243.045	11.966	67.052	200.787	212.717	264.388	-2.701	-14.050	-21.504	204.628	192.551	243.743	258.419	0.00016971	0.00026349	8.7838e-05	880.19	2.5941e-06	1.2202e-06	966.32	190.82	2.6126e-06	3.3286e-06	243.84	67.841	52.489	15.368	9.8055e-07	21.502	8.6668e-05	8.7342e-05	2.4178e-05	803	9.5464e-07	9.4338e-07	883.82	175.05	9.6488e-07	9.4692e-07	205.46	61.217	46.672	14.044	9.5202e-07	19.394	-16.422	71.342	92.220	-39.435	51.172	49.748	-39.339	-31.828	262.968	214.595	-32.126	-24.945	-25.013	-17.095	296.938	-18.198	-8191	255	
1050.536	1	1	0	0	0.095316	0.091569	0.19004	0.16303	0.065553	0.23564	0.11141	0.17523	0.19665	0.19968	0.30711	0.20092	0.21136	0.18678	0.16422	0.14491	-3.0042	-2.5208	-3.0354	-3.3521	-2.6979	-3.3458	-3.0187	-2.8604	-3.2792	-2.9188	-2.9792	-3.375	-2.6479	-3.1917	-2.9958	-2.7646	149.641	213.656	128.311	272.791	188.673	79.784	143.270	272.661	6.460	6.889	-35.244	303.607	252.292	281.177	31.556	243.901	0.0002633	0.0003427	6.9913e-05	876.49	2.3618e-06	3.1286e-06	973.34	191.82	9.5939e-07	3.0679e-06	243.41	67.717	52.307	15.466	2.5017e-06	21.668	8.8542e-05	8.6333e-05	2.4462e-05	801.58	9.5579e-07	9.4576e-07	885.2	175.39	9.4865e-07	9.3723e-07	205.63	61.119	46.736	14.105	9.4712e-07	19.41	65.274	63.539	98.065	-39.305	19.105	12.793	-39.274	-31.779	223.774	291.104	-31.720	-25.431	-24.766	-17.510	175.718	-18.569	-8191	255	
1050.632	1	1	0	0	0.099225	0.15867	0.2437	0.19257	0.13381	0.17749	0.045462	0.21199	0.19787	0.16778	0.23675	0.021514	0.16881	0.14948	0.18766	0.22734	-3.1042	-2.8167	-2.8521	-3.3229	-2.5646	-3.1958	-3.3417	-2.6854	-3.2667	-2.7917	-3.0083	-3.4229	-2.6042	-3.1937	-3.2417	-2.6708	101.419	307.327	13.435	27.421	33.351	108.975	269.851	-48.837	291.532	-42.796	190.661	203.283	-9.078	232.075	137.171	278.794	0.00028835	0.00019	6.5881e-05	876.44	6.4889e-07	2.3309e-06	971.58	191.56	1.8646e-06	1.9433e-06	244.34	67.729	52.521	15.258	3.0558e-06	21.491	8.7516e-05	8.5634e-05	2.3893e-05	801.51	9.5907e-07	9.505e-07	885.11	175.48	9.4876e-07	9.6768e-07	205.99	61.092	46.879	14.02	9.5694e-07	19.412	41.352	77.726	20.693	-39.324	299.042	155.792	-39.135	-31.711	22.134	91.974	-32.068	-25.168	-24.939	-17.594	58.947	-18.460	-8191	255	
1050.751	1	1	0	0	0.087232	0.31212	0.10993	0.17399	0.22177	0.25763	0.11358	0.23607	0.20193	0.13581	0.2741	0.13871	0.093998	0.28223	0.26873	0.27788	-3.0708	-2.7375	-2.8146	-3.3083	-2.5375	-3.1208	-3.2958	-2.6188	-3.325	-2.9521	-2.9917	-3.4042	-2.5646	-3.1188	-3.2313	-2.6688	104.656	119.531	64.362	9.738	47.979	270.990	181.226	-32.822	265.316	56.829	220.599	112.915	255.922	-6.215	-18.225	199.092	0.00030919	0.00025389	5.0284e-05	875.61	1.2138e-06	2.9326e-06	971.54	191.3	1.8199e-06	1.1921e-06	243.66	68.042	52.394	15.534	2.2552e-06	21.51	8.7768e-05	8.8119e-05	2.4032e-05	801.65	9.6014e-07	9.5303e-07	886.19	175.51	9.5777e-07	9.5064e-07	206.44	61.392	46.845	14.101	9.5692e-07	19.406	17.579	86.878	22.776	-39.035	69.720	63.707	-39.273	-31.638	-11.692	64.736	-32.538	-24.632	-25.053	-17.905	50.517	-18.094	-8191	255	
1050.847	1	1	0	0	0.1745	0.1142	0.24365	0.34236	0.10456	0.069822	0.12946	0.15615	0.25351	0.11457	0.29195	0.18729	0.23761	0.044309	0.058853	0.23551	-2.9146	-3.0438	-2.4875	-3.4604	-2.6604	-2.9146	-3.475	-2.6125	-3.2167	-3.1729	-2.8438	-3.4896	-2.7833	-2.7396	-3.2958	-2.7896	137.796	90.564	52.373	279.419	275.382	289.486	295.808	-14.861	17.971	30.046	274.556	182.545	6.223	268.882	70.177	66.012	0.00022675	0.00035497	5.9078e-05	873.65	8.4349e-07	1.7883e-06	965.63	191.42	1.3736e-06	3.9241e-06	243.83	67.724	52.039	15.252	1.3973e-06	21.595	8.705e-05	8.6661e-05	2.419e-05	802.46	9.5548e-07	9.62e-07	883.51	175.25	9.5369e-07	9.4437e-07	205.38	61.284	46.576	14.017	9.5383e-07	19.414	113.250	79.760	-43.489	-39.419	233.215	176.800	-39.116	-31.512	290.040	206.600	-31.795	-24.868	-24.640	-17.331	3.117	-18.449	-8191	255	
1050.943	1	1	0	0	0.095825	0.049769	0.058329	0.092383	0.19554	0.16704	0.329	0.11769	0.25272	0.20083	0.071234	0.07036	0.1436	0.064307	0.27488	0.22254	-2.9396	-2.9875	-2.6292	-3.5271	-2.9354	-2.7854	-3.5333	-2.7125	-3.1188	-2.9396	-2.6042	-3.2708	-2.85	-2.9146	-3.4042	-2.7083	33.251	176.651	32.321	-25.732	229.336	30.826	223.270	-7.578	277.445	120.988	104.736	72.509	79.399	-4.893	89.252	21.847	0.00016223	0.0001527	2.7833e-05	875.21	2.4909e-06	9.3469e-07	974.23	192.52	1.5316e-06	3.2461e-06	241.66	67.806	52.587	15.347	3.707e-06	21.56	8.8327e-05	8.6277e-05	2.4358e-05	802.23	9.5804e-07	9.3833e-07	885.68	175.2	9.6725e-07	9.7251e-07	205.16	61.091	46.784	14.046	9.514e-07	19.407	0.738	196.578	119.877	-39.364	48.602	52.891	-39.352	-31.527	118.203	209.584	-32.589	-25.042	-24.965	-17.462	176.363	-18.832	-8191	255	
1051.016	1	1	0	0	0.19148	0.18598	0.22719	0.29833	0.11854	0.084653	0.36022	0.17338	0.15911	0.13878	0.081848	0.22075	0.17497	0.22956	0.13981	0.16772	-2.7021	-3.2625	-2.5458	-3.2667	-3.0542	-2.775	-3.5812	-2.8229	-2.8875	-3.4229	-2.6875	-3.3937	-3.2208	-2.5375	-3.2938	-2.7979	4.103	293.494	233.614	242.937	98.756	96.939	250.765	251.921	202.001	120.301	65.777	231.406	301.759	-14.344	-9.923	178.249	0.00030166	0.00014704	6.7821e-05	877.01	7.1367e-07	1.4505e-06	976.37	191.47	5.4479e-07	1.1976e-06	243.89	67.833	52.162	15.384	1.6824e-06	21.678	8.7225e-05	8.5893e-05	2.4367e-05	802.67	9.5454e-07	9.446e-07	886.54	175.17	9.5837e-07	9.3765e-07	206.19	61.223	46.827	14.046	9.5606e-07	19.487	62.149	214.752	308.101	-39.237	166.451	-48.273	-39.265	-31.963	240.866	91.565	-31.796	-25.167	-24.725	-17.431	48.037	-18.477	-8191	255	
1051.135	1	1	0	0	0.22733	0.33041	0.17274	0.27605	0.19134	0.14666	0.049385	0.043161	0.13876	0.08295	0.067621	0.22221	0.38762	0.063796	0.12655	0.08772	-2.4979	-3.4417	-2.5604	-3.4792	-2.8917	-2.85	-3.7542	-2.9792	-2.7771	-3.4083	-2.7146	-3.3083	-3.2271	-2.5708	-3.3396	-2.8833	210.544	261.742	77.768	-41.931	309.626	-8.333	-43.628	276.665	189.712	286.149	17.679	107.186	273.455	10.680	119.985	174.055	0.00021693	0.00027595	5.2054e-05	879.97	2.5775e-06	3.4749e-06	974.62	190.87	2.2164e-06	2.7757e-06	242.58	67.367	52.633	15.48	2.9766e-06	21.265	8.8044e-05	8.7469e-05	2.4233e-05	803.56	9.5333e-07	9.5308e-07	886.62	175.07	9.6735e-07	9.4723e-07	205.11	61.058	46.834	14.038	9.5301e-07	19.327	-2.740	63.101	7.771	-39.273	2.149	235.061	-38.800	-31.808	128.527	-28.477	-32.044	-25.049	-24.645	-17.626	-17.230	-17.813	-8191	255	
1051.231	1	1	0	0	0.15883	0.12225	0.01002	0.12431	0.12692	0.16485	0.10447	0.19171	0.28263	0.061126	0.18695	0.24935	0.207	0.054814	0.24941	0.15476	-2.2792	-3.5104	-2.5438	-3.2208	-3.0958	-2.5917	-3.5042	-2.8312	-2.8812	-3.4396	-2.9625	-3.0417	-3.2562	-2.6021	-3.3521	-2.9688	232.803	267.770	-49.523	270.343	104.719	209.044	290.828	284.795	111.563	96.544	83.122	-8.541	251.979	296.200	267.685	245.307	0.00016875	0.0002499	4.5837e-05	879.75	2.3488e-06	4.5226e-06	970.62	191.41	1.4082e-06	3.9783e-06	243.25	68.032	52.515	15.254	2.1647e-06	21.453	8.8817e-05	8.7707e-05	2.4436e-05	803.14	9.5946e-07	9.572e-07	885.23	175.22	9.6057e-07	9.4321e-07	205.39	61.247	46.839	14.078	9.4643e-07	19.357	-14.679	79.848	75.063	-39.490	37.071	40.591	-39.194	-31.558	209.119	45.667	-31.573	-24.854	-24.932	-17.515	150.527	-18.283	-8191	255	
1051.328	1	1	0	0	0.25548	0.08068	0.17764	0.29833	0.18879	0.10202	0.28566	0.32311	0.10895	0.079282	0.2404	0.22635	0.14862	0.15297	0.067299	0.12485	-2.2667	-3.4396	-2.6437	-3.0896	-3.3187	-2.7417	-3.3833	-2.9625	-2.6771	-3.4208	-2.9375	-2.9479	-3.3083	-2.7458	-3.0958	-3.2021	144.641	-0.611	41.767	288.146	70.605	130.907	267.401	265.297	237.969	-11.914	126.670	183.594	287.925	70.786	-35.053	-12.159	0.00019421	0.00029594	5.0335e-05	878.13	2.02e-06	1.2836e-06	974.25	190.09	2.7994e-06	8.247e-08	242.62	67.509	52.149	15.272	2.3945e-06	21.61	8.7145e-05	8.6433e-05	2.3873e-05	801.52	9.4802e-07	9.4776e-07	886.25	175.07	9.5865e-07	9.4855e-07	205.41	61.079	46.715	14.011	9.4781e-07	19.34	63.759	44.553	90.810	-39.320	29.937	249.770	-39.005	-31.775	143.559	3.167	-32.092	-24.600	-25.105	-17.581	-2.146	-17.975	-8191	255	
1051.448	1	1	0	0	0.088623	0.38246	0.18362	0.059133	0.2371	0.11293	0.18359	0.17413	0.13522	0.14561	0.10779	0.37772	0.18284	0.11651	0.14744	0.19446	-2.2375	-3.3208	-3.0771	-2.8979	-3.3458	-2.8708	-3.2771	-3.2979	-2.5812	-3.4042	-3.05	-2.9104	-3.2375	-2.7708	-3.0812	-3.2917	222.085	78.874	102.896	100.093	172.946	114.368	-36.369	295.947	187.079	3.598	81.387	-9.182	258.150	217.613	1.343	218.184	0.00010978	0.00019635	7.6387e-05	881.4	2.0511e-06	1.241e-06	971.37	191.06	1.4389e-06	2.0331e-06	241.66	67.706	51.8	15.382	2.3985e-06	21.512	8.6831e-05	8.6742e-05	2.3987e-05	802.3	9.4564e-07	9.4338e-07	884.29	174.96	9.5658e-07	9.4595e-07	204.91	60.994	46.625	13.989	9.4044e-07	19.335	102.977	88.386	-32.570	-39.037	78.647	105.873	-38.694	-31.571	37.509	159.434	-32.227	-25.208	-24.843	-16.834	114.254	-18.535	-8191	255	
1051.544	1	1	0	0	0.073716	0.035404	0.33018	0.12249	0.20139	0.15803	0.33662	0.13514	0.17279	0.308	0.060133	0.24949	0.4002	0.12701	0.095256	0.24342	-2.2417	-3.3688	-2.9021	-2.9146	-3.1979	-2.7792	-3.0604	-3.2542	-2.5271	-3.4167	-3.0521	-2.6542	-3.2583	-2.8438	-2.8167	-3.4646	61.778	207.693	209.828	264.488	-46.829	-33.613	228.465	261.154	-47.567	-4.659	3.593	224.624	242.447	261.487	253.028	211.384	0.00031872	0.00030821	3.0757e-05	883.49	3.3178e-06	3.6768e-07	971.68	191.52	2.7648e-06	2.0217e-06	243.39	68.054	53.046	15.344	2.0473e-06	21.468	8.8336e-05	8.5729e-05	2.3479e-05	803.37	9.5037e-07	9.5585e-07	884.65	175.23	9.3507e-07	9.3463e-07	205.18	61.077	46.849	14.027	9.4753e-07	19.386	-0.108	124.867	39.680	-39.076	70.132	28.157	-38.893	-31.501	52.897	295.530	-32.287	-24.913	-24.610	-17.522	55.775	-17.972	-8191	255	
1051.616	1	1	0	0	0.11734	0.20401	0.069777	0.20396	0.052636	0.24779	0.24616	0.079568	0.49111	0.10179	0.19456	0.14262	0.11645	0.19767	0.093624	0.24695	-2.0125	-3.2271	-3.0104	-2.8438	-3.4375	-2.8688	-2.9854	-3.5812	-2.4125	-3.1708	-3.1229	-2.6	-3.3521	-2.7938	-2.9167	-3.4542	251.193	73.712	84.706	227.924	-22.490	-0.115	219.447	-35.600	15.121	196.689	155.071	269.064	-18.215	260.996	47.140	100.384	0.00043424	0.00030988	1.895e-05	873.85	3.5331e-06	1.0412e-06	972.86	191.45	4.6703e-06	4.3518e-06	244.25	68.278	52.508	15.216	2.2873e-06	21.564	8.6337e-05	8.6022e-05	2.3859e-05	800.67	9.3809e-07	9.3894e-07	883.89	174.83	9.5729e-07	9.3533e-07	205.47	61.307	46.786	13.999	9.362e-07	19.392	26.366	84.891	241.255	-38.811	51.120	158.433	-38.724	-31.414	151.956	186.969	-31.531	-25.051	-24.863	-17.295	119.218	-17.951	-8191	255	
1051.737	1	1	0	0	0.16748	0.038841	0.1211	0.14985	0.29366	0.17589	0.11206	0.17118	0.019724	0.22167	0.20837	0.11574	0.27437	0.079384	0.02315	0.10991	-2.2396	-3.2229	-3.2562	-2.6771	-3.4229	-2.9146	-2.7792	-3.4667	-2.5729	-3.0521	-3.4521	-2.7	-3.3688	-3.0458	-2.7146	-3.6188	259.215	201.286	6.259	240.970	275.695	146.465	295.236	242.124	140.051	-48.750	-47.681	68.743	4.009	37.514	110.939	-46.521	0.00010437	0.00026378	8.3452e-05	877.01	6.7613e-07	2.1742e-06	970.09	190.9	3.3135e-06	6.2549e-06	242.95	67.682	52.483	15.386	2.1309e-06	21.605	8.6619e-05	8.5196e-05	2.3363e-05	800.63	9.4109e-07	9.3041e-07	885.11	174.45	9.3351e-07	9.2994e-07	205.06	61.219	46.691	14.01	9.3324e-07	19.439	123.970	114.275	48.247	-38.801	233.132	230.780	-38.719	-31.498	78.320	88.302	-32.133	-25.059	-24.593	-17.316	5.065	-17.826	-8191	255	
1051.831	1	1	0	0	0.2245	0.24233	0.10071	0.18269	0.082247	0.078485	0.25734	0.31439	0.41445	0.050116	0.22188	0.13531	0.11892	0.3042	0.17889	0.17956	-2.3125	-2.8979	-3.2333	-2.7313	-3.2417	-3.0438	-2.825	-3.5458	-2.6604	-2.8958	-3.2375	-2.6688	-3.275	-3.1937	-2.6125	-3.4083	138.426	187.729	62.139	300.615	244.926	-14.188	281.249	295.181	75.725	123.672	302.700	302.674	310.168	175.837	291.755	246.664	0.00035626	0.00020277	0.00012486	880.09	1.1684e-06	4.4484e-06	971.1	190.58	2.8203e-06	1.064e-06	243.71	68.062	52.609	15.27	3.42e-06	21.634	8.6037e-05	8.5444e-05	2.3611e-05	801.65	9.4376e-07	9.2956e-07	885.63	174.87	9.3275e-07	9.2269e-07	204.46	61.241	46.817	13.975	9.3587e-07	19.368	44.434	287.932	16.290	-38.756	237.720	125.403	-38.921	-31.480	208.556	174.992	-31.749	-25.047	-24.613	-17.473	67.503	-17.843	-8191	255	
1051.927	1	1	0	0	0.072216	0.1576	0.029678	0.15735	0.22727	0.1046	0.21025	0.19272	0.20644	0.11459	0.11724	0.27251	0.13157	0.043429	0.10856	0.12144	-2.6417	-2.8229	-3.3937	-2.8708	-3.1813	-3.0896	-2.7604	-3.5125	-2.9521	-2.925	-3.4375	-2.6354	-3.1729	-3.2875	-2.6229	-3.3417	59.751	101.181	24.676	226.408	292.726	83.497	212.936	196.614	97.981	-30.241	247.384	269.566	290.668	273.070	130.125	-9.900	0.00026586	0.00030575	7.6682e-05	875.57	3.4793e-06	2.2248e-06	968.75	191.41	1.0057e-06	2.8271e-06	246.18	67.804	52.694	15.338	2.9484e-06	21.585	8.6649e-05	8.4395e-05	2.3618e-05	800.44	9.4346e-07	9.2981e-07	884.45	175.03	9.3388e-07	9.3612e-07	205.89	61.234	46.776	14.025	9.416e-07	19.331	39.678	-48.648	-11.952	-38.834	198.164	102.797	-38.839	-31.304	294.718	166.937	-31.602	-24.723	-24.618	-17.575	296.857	-17.461	-8191	255	
1052.048	1	1	0	0	0.2816	0.23626	0.084082	0.19478	0.12321	0.29506	0.14866	0.16742	0.19275	0.16177	0.13385	0.14487	0.30508	0.048192	0.072989	0.065118	-2.5938	-2.7	-3.3417	-2.7958	-3.1333	-3.2021	-2.7	-3.4604	-3.1708	-2.7521	-3.5021	-2.7708	-2.9562	-3.2854	-2.5187	-3.3792	16.652	295.675	45.599	192.912	148.446	248.772	231.223	-35.192	36.305	79.982	-21.180	43.386	68.974	244.739	234.255	176.277	0.00043043	0.00048017	2.7285e-05	877.21	4.0252e-07	2.0875e-06	967.75	192.27	1.4591e-06	4.1047e-06	245.83	67.906	52.482	15.435	1.5552e-06	21.641	8.7088e-05	8.5721e-05	2.3692e-05	799.79	9.3184e-07	9.3232e-07	881.93	175.29	9.324e-07	9.1951e-07	205.37	61.099	46.772	14.042	9.2874e-07	19.414	21.315	158.382	94.080	-39.262	-25.330	152.221	-39.216	-31.756	18.996	152.469	-32.242	-24.893	-24.945	-17.339	45.543	-17.974	-8191	255	
1052.144	1	1	0	0	0.17605	0.11319	0.12661	0.052629	0.079882	0.15737	0.062776	0.066997	0.18048	0.2068	0.21274	0.19489	0.21986	0.14992	0.26476	0.11713	-2.825	-2.7104	-3.425	-2.8208	-2.9271	-3.3583	-2.7958	-3.275	-3.1167	-2.4396	-3.5333	-2.7562	-2.875	-3.4875	-2.5812	-3.2812	28.108	86.088	63.873	163.539	296.650	174.888	153.091	296.168	171.889	264.509	48.748	259.522	290.001	185.567	221.256	299.543	0.00035832	0.00014286	8.3203e-05	875.13	8.6492e-07	3.7297e-06	972.2	190.95	3.2103e-06	1.2136e-06	243.56	67.984	52.661	15.294	2.5739e-06	21.429	8.6804e-05	8.4734e-05	2.3526e-05	799.56	9.3567e-07	9.3132e-07	884.53	174.9	9.4205e-07	9.4591e-07	205.21	61.059	46.764	14.025	9.2957e-07	19.332	19.020	113.140	25.357	-38.874	25.033	82.988	-38.753	-31.374	141.855	143.901	-32.360	-25.301	-24.389	-17.378	32.681	-18.326	-8191	255	
1052.240	1	1	0	0	0.24559	0.22329	0.20122	0.10121	0.03477	0.18368	0.10516	0.10889	0.14613	0.04941	0.18126	0.22596	0.1349	0.22449	0.2316	0.23172	-2.8208	-2.4188	-3.3812	-3.0083	-2.8292	-3.3438	-2.8083	-3.2125	-3.3312	-2.8396	-3.4062	-2.925	-2.7438	-3.3688	-2.5625	-3.0292	273.423	258.458	-37.286	89.333	68.806	63.757	187.027	173.716	-26.351	119.588	265.743	-48.916	-11.312	271.796	148.980	296.530	0.00019449	2.5917e-05	5.839e-05	881.36	4.2534e-06	1.1646e-06	967.74	191.94	2.7711e-06	2.4239e-06	243.63	67.353	52.234	15.295	2.3953e-06	21.575	8.5164e-05	8.5244e-05	2.3325e-05	801.62	9.4174e-07	9.377e-07	882.07	175.26	9.3084e-07	9.2824e-07	205.49	61.117	46.754	14.06	9.3443e-07	19.362	-23.220	-41.091	92.997	-39.033	122.869	-5.394	-38.997	-31.880	121.290	103.703	-31.667	-25.224	-24.793	-17.698	81.781	-18.062	-8191	255	
1052.312	1	1	0	0	0.04639	0.11537	0.20454	0.1645	0.27256	0.068932	0.24241	0.16071	0.077136	0.17683	0.20776	0.17928	0.10884	0.057915	0.09133	0.094125	-2.8063	-2.775	-3.2271	-3.0687	-2.5729	-3.4729	-2.7438	-2.9833	-3.3417	-2.5917	-3.3021	-3.1167	-2.6937	-3.3521	-2.5271	-2.7458	221.780	-45.656	224.622	248.332	165.459	140.729	268.749	175.998	106.673	92.808	144.596	178.750	-36.502	165.633	175.056	281.120	2.426e-05	2.3163e-05	6.0094e-05	877.63	1.5269e-06	1.4535e-06	968.35	192.05	3.9391e-06	3.3534e-06	244.48	67.972	52.522	15.5	3.6671e-06	21.508	8.5931e-05	8.5492e-05	2.3521e-05	802.06	9.4208e-07	9.4059e-07	883.89	175.21	9.3942e-07	9.411e-07	205.36	61.207	46.826	14.066	9.3133e-07	19.339	250.104	165.316	267.670	-39.490	304.543	-38.949	-39.263	-31.716	15.951	-31.412	-31.675	-25.313	-24.575	-17.581	122.482	-17.796	-8191	255	
1052.432	1	1	0	0	0.093164	0.20265	0.24989	0.15047	0.1696	0.11181	0.079459	0.36203	0.20371	0.11453	0.094902	0.19389	0.015432	0.11757	0.24316	0.066721	-2.9521	-2.5062	-3.0938	-3.075	-2.4604	-3.4125	-2.8458	-2.7687	-3.2958	-2.4875	-2.9875	-3.1042	-2.55	-3.2625	-2.8271	-2.7396	275.793	276.931	47.868	-22.398	71.530	253.004	-23.513	198.217	268.868	140.987	27.460	304.418	-39.332	245.093	104.891	96.721	0.00022638	0.00033084	5.5891e-05	872.57	1.519e-06	2.0944e-06	969.68	191.98	3.3715e-06	4.1317e-07	245.73	67.564	52.443	15.216	2.1078e-06	21.488	8.5682e-05	8.4426e-05	2.3382e-05	800.98	9.3195e-07	9.3433e-07	884.42	175.05	9.3135e-07	9.3322e-07	205.24	61.045	46.767	14.009	9.3199e-07	19.357	93.003	73.226	43.873	-39.211	86.762	79.786	-38.876	-31.563	143.905	208.687	-32.242	-24.812	-24.749	-17.779	57.966	-18.641	-8191	255	
1052.529	1	1	0	0	0.059914	0.24809	0.044897	0.11767	0.039623	0.32676	0.29179	0.24084	0.068101	0.074656	0.30777	0.11785	0.074013	0.21338	0.21156	0.12002	-2.9292	-2.5896	-3.2438	-3.1917	-2.6042	-3.3542	-3.1625	-2.6146	-3.4042	-2.7562	-2.9292	-3.35	-2.5729	-3.1375	-2.9042	-2.5229	244.334	55.265	-29.847	-9.479	-36.341	126.098	261.985	-25.310	221.874	47.407	28.552	3.877	79.247	37.802	10.324	49.838	0.00042086	0.00022196	5.6384e-05	880.51	8.4162e-07	2.3383e-06	968.33	191.05	3.1243e-06	6.1306e-07	243.74	67.768	52.758	15.256	3.364e-06	21.37	8.5943e-05	8.5576e-05	2.3896e-05	800.46	9.4561e-07	9.4168e-07	883.33	174.86	9.5237e-07	9.3516e-07	205.05	60.983	46.827	14.027	9.4987e-07	19.365	56.931	64.199	33.764	-38.902	245.231	17.790	-39.086	-31.362	201.515	160.655	-31.488	-24.515	-24.804	-17.221	70.971	-18.283	-8191	255	
1052.625	1	1	0	0	0.19465	0.075664	0.085709	0.15148	0.13284	0.08212	0.066073	0.20508	0.041891	0.44714	0.15751	0.061482	0.047104	0.12824	0.14617	0.090762	-3.0187	-2.6208	-2.8854	-3.4667	-2.55	-3.2938	-3.3854	-2.5958	-3.3396	-2.6813	-2.7229	-3.3187	-2.7729	-3.0979	-3.2562	-2.75	-30.426	99.577	153.720	-32.564	127.386	54.623	10.311	-26.121	98.772	164.354	143.171	21.378	7.822	249.157	-25.287	-12.501	0.00014764	0.00017574	4.0712e-05	874.14	2.3221e-06	2.029e-06	971.37	191.81	1.7191e-06	1.165e-06	244.79	67.717	51.986	15.353	4.0195e-06	21.667	8.7067e-05	8.6209e-05	2.4194e-05	801.4	9.504e-07	9.4375e-07	883.6	175.28	9.5785e-07	9.5134e-07	205.66	61.139	46.818	13.991	9.6303e-07	19.435	21.271	293.576	62.670	-39.556	134.170	124.824	-39.317	-31.343	115.217	127.419	-31.785	-25.229	-24.787	-17.161	30.425	-17.746	-8191	255	
1052.721	1	1	0	0	0.20123	0.092111	0.24751	0.23387	0.4123	0.044162	0.18637	0.29847	0.052528	0.14247	0.14254	0.12446	0.022316	0.042643	0.12163	0.18432	-3.0375	-2.9896	-2.8979	-3.5729	-2.5896	-3.2042	-3.4208	-2.5958	-3.4188	-3.0875	-2.825	-3.6167	-2.65	-2.9521	-3.3979	-2.6063	12.932	104.233	-8.142	179.124	199.591	-32.145	246.267	6.820	159.325	107.504	237.680	275.830	120.125	228.043	297.067	-8.516	0.00038845	0.00019288	4.9121e-05	877.39	1.9954e-06	1.9873e-06	966.09	190.53	1.3865e-06	2.7921e-06	243.93	67.694	52.599	15.393	1.4007e-06	21.534	8.8565e-05	8.6896e-05	2.4482e-05	801.27	9.6682e-07	9.6905e-07	883.45	175.08	9.5376e-07	9.5165e-07	206.25	61.198	46.882	14.054	9.5416e-07	19.399	6.150	181.894	128.889	-39.085	66.952	190.500	-38.958	-31.406	94.757	214.409	-32.065	-24.798	-24.713	-17.772	309.589	-17.980	-8191	255	
1052.840	1	1	0	0	0.16131	0.24753	0.12581	0.17037	0.1915	0.078873	0.21185	0.18069	0.089775	0.16464	0.16417	0.20193	0.069542	0.23576	0.049537	0.15504	-2.95	-3.0187	-2.6271	-3.3208	-2.6333	-2.8729	-3.3333	-2.6625	-3.1917	-3.1792	-2.575	-3.4229	-2.7542	-3.0312	-3.4833	-2.6583	277.886	186.940	259.215	-48.414	146.190	65.134	228.993	4.689	248.081	306.607	297.830	-4.070	286.398	174.204	55.272	-29.725	0.00020351	0.00048343	2.049e-05	880.36	5.7159e-07	2.6114e-06	967.94	191.76	3.3705e-06	3.132e-07	243.48	67.481	52.669	15.281	2.5794e-06	21.533	8.8756e-05	8.7296e-05	2.4145e-05	802.4	9.6478e-07	9.5401e-07	882.77	175.08	9.4828e-07	9.567e-07	205.53	61.117	46.889	14.032	9.4334e-07	19.377	3.657	126.106	189.340	-39.183	234.487	255.246	-38.921	-31.543	43.707	116.392	-31.578	-24.927	-24.807	-17.440	301.547	-18.009	-8191	255	
1052.912	1	1	0	0	0.1909	0.15503	0.03773	0.37773	0.18792	0.058303	0.18682	0.17825	0.18075	0.25795	0.076753	0.13098	0.17646	0.23622	0.14012	0.17949	-2.7958	-3.1208	-2.6646	-3.4083	-2.8917	-2.7583	-3.4854	-2.6375	-3.1437	-3.1437	-2.6417	-3.4062	-2.9125	-2.6646	-3.375	-2.7375	300.113	-19.279	261.273	265.116	157.064	277.871	292.172	-31.109	291.904	66.042	8.803	48.020	-40.287	276.153	260.451	168.647	6.7235e-05	0.00013248	7.7522e-05	880.2	1.0167e-06	1.7137e-06	974.66	191.18	3.8158e-06	1.9929e-06	241.58	67.853	52.691	15.379	2.3303e-06	21.376	8.8655e-05	8.6836e-05	2.4178e-05	802.3	9.5539e-07	9.3891e-07	885.26	175.01	9.5548e-07	9.5998e-07	205.24	61.288	46.828	14.018	9.4092e-07	19.382	310.127	270.902	88.291	-38.987	168.306	164.013	-38.739	-31.757	257.731	121.716	-31.756	-24.800	-24.610	-17.599	94.911	-18.023	-8191	255	
1053.009	1	1	0	0	0.30975	0.13222	0.12563	0.24791	0.08049	0.21006	0.077739	0.099593	0.049663	0.11561	0.31499	0.27399	0.098642	0.18255	0.20259	0.11001	-2.6896	-3.1813	-2.625	-3.3729	-2.9062	-2.7146	-3.5812	-2.7042	-3.0771	-3.35	-2.5625	-3.3354	-3.0812	-2.9146	-3.4479	-2.7208	18.874	192.834	264.924	267.341	21.844	57.733	278.232	266.036	239.843	162.605	188.353	61.442	117.972	280.408	301.692	163.245	0.00018975	0.00030195	5.1292e-05	878.37	1.6005e-06	2.1155e-06	973.72	191.11	3.7972e-07	2.2164e-06	245.46	67.572	52.549	15.328	1.9792e-06	21.463	8.6623e-05	8.6813e-05	2.4318e-05	802.99	9.5565e-07	9.4596e-07	886.46	174.81	9.4346e-07	9.4711e-07	205.76	61.185	46.935	14.021	9.3826e-07	19.361	14.899	161.365	209.159	-39.243	79.548	120.998	-38.963	-31.413	127.901	180.510	-31.753	-25.032	-24.863	-17.532	85.398	-18.458	-8191	255	
1053.128	1	1	0	0	0.38491	0.15368	0.30281	0.13301	0.30716	0.28846	0.12645	0.13757	0.047088	0.068153	0.32286	0.091346	0.084079	0.16107	0.050781	0.22223	-2.6583	-3.2958	-2.4896	-3.2687	-3.1562	-2.7188	-3.4083	-2.9792	-2.8229	-3.3729	-2.6083	-3.2729	-3.3354	-2.3	-3.3063	-2.8417	95.590	66.172	295.003	280.233	91.578	74.127	259.126	220.010	8.556	15.107	279.495	71.971	81.106	127.711	276.470	280.346	0.00031449	7.3857e-05	6.2153e-05	880.23	2.3798e-06	7.9477e-07	968.66	190.56	3.3527e-06	2.1143e-06	244.28	67.902	52.487	15.283	3.6532e-06	21.587	8.7477e-05	8.5895e-05	2.4015e-05	802.33	9.4087e-07	9.3771e-07	883.11	174.63	9.6663e-07	9.4081e-07	205.31	61.164	46.827	14.033	9.5274e-07	19.373	68.202	102.603	-29.974	-39.221	128.840	239.020	-39.079	-31.753	151.549	189.512	-31.600	-24.705	-24.340	-17.238	56.270	-18.204	-8191	255	
1053.224	1	1	0	0	0.11672	0.051633	0.013632	0.21393	0.044669	0.26542	0.12197	0.084397	0.24564	0.16791	0.14996	0.25474	0.33365	0.043842	0.10695	0.22432	-2.3667	-3.4042	-2.4479	-3.25	-3.1562	-2.6667	-3.4979	-3.0896	-2.6458	-3.3958	-2.7	-3.1917	-3.1813	-2.8563	-3.2375	-3.0354	96.799	260.594	169.498	204.527	159.813	69.672	276.127	208.274	296.172	12.419	285.930	306.644	130.893	290.513	217.756	291.539	8.9966e-05	0.00049486	1.3734e-05	879.55	2.2429e-06	2.6697e-06	968.21	190.69	3.0897e-06	3.5361e-06	243.05	67.905	52.608	15.393	1.7608e-06	21.423	8.7294e-05	8.6251e-05	2.4009e-05	802.99	9.3399e-07	9.6521e-07	884.08	174.86	9.6906e-07	9.5161e-07	204.89	61.125	46.864	14.047	9.4908e-07	19.335	-18.631	67.156	128.672	-39.060	65.721	59.793	-38.960	-31.572	14.289	135.389	-31.933	-25.103	-24.252	-17.214	30.341	-18.190	-8191	255	
1053.321	1	1	0	0	0.16325	0.072093	0.027725	0.14229	0.096491	0.21128	0.39635	0.11382	0.14051	0.020275	0.15539	0.18778	0.11679	0.17512	0.087873	0.24563	-2.2062	-3.3375	-2.6896	-3.2396	-3.3854	-2.6583	-3.3458	-3.1104	-2.5438	-3.3646	-2.875	-3.0375	-3.3146	-2.6396	-3.1146	-3.2208	79.396	77.663	63.770	227.495	205.452	117.785	238.538	-24.095	72.357	275.673	192.254	77.541	-2.948	309.755	57.850	-29.558	0.00025095	0.00036696	7.0837e-05	879.52	1.8783e-06	1.9239e-07	977.13	191.19	3.4866e-06	1.535e-06	243.56	67.392	52.3	15.262	1.4897e-06	21.515	8.7037e-05	8.5933e-05	2.4314e-05	802.77	9.5084e-07	9.508e-07	885.24	175.11	9.5036e-07	9.5119e-07	205.49	61.265	46.786	13.997	9.5213e-07	19.358	36.820	115.371	41.312	-38.777	107.871	184.450	-38.805	-31.634	87.260	50.818	-31.831	-24.915	-24.735	-17.544	22.344	-18.460	-8191	255	
1053.417	1	1	0	0	0.10205	0.24138	0.24662	0.078916	0.1613	0.057921	0.2534	0.050713	0.069953	0.082797	0.38099	0.14898	0.20559	0.1261	0.063372	0.087443	-2.3771	-3.35	-2.6458	-2.9958	-3.3146	-2.6417	-3.2438	-3.2771	-2.4583	-3.2792	-2.8521	-2.8021	-3.5438	-2.7354	-3.1021	-3.2812	-49.102	-9.521	26.684	-45.301	57.853	49.211	279.139	109.850	122.432	302.582	263.008	297.551	231.983	61.110	175.546	225.726	0.00029815	0.00016442	8.3459e-05	880.35	2.6216e-06	1.2054e-06	968.22	190.38	3.4502e-07	2.0068e-06	243.95	68.236	51.985	15.269	1.7438e-06	21.553	8.8916e-05	8.6663e-05	2.4349e-05	802.4	9.5918e-07	9.4318e-07	882.78	174.75	9.4708e-07	9.3915e-07	205.48	61.238	46.798	14.02	9.3701e-07	19.435	-21.192	1.806	-46.964	-39.083	217.126	242.935	-38.873	-31.439	295.846	168.418	-31.683	-24.662	-24.091	-17.378	161.759	-18.184	-8191	255	
1053.513	1	1	0	0	0.2198	0.12137	0.18957	0.34313	0.24852	0.17	0.29627	0.11191	0.22553	0.13131	0.07776	0.063432	0.17101	0.20168	0.1494	0.29691	-2.2667	-3.3646	-2.9437	-2.7687	-3.4354	-2.8104	-3.3083	-3.3604	-2.8167	-3.2625	-3.0271	-2.6792	-3.4	-2.7625	-3.1042	-3.4125	304.699	109.722	174.140	-30.379	298.751	87.268	254.795	281.263	99.917	88.441	197.445	195.286	207.057	179.706	51.706	163.232	0.00020579	0.00019627	0.00011428	877.67	2.2474e-06	2.379e-06	973.62	190.38	8.7322e-07	2.292e-06	246.96	67.412	52.618	15.537	1.9129e-06	21.271	8.7803e-05	8.5288e-05	2.3911e-05	800.33	9.4285e-07	9.3991e-07	885.02	174.72	9.4913e-07	9.387e-07	206.29	61.147	46.765	14.036	9.4972e-07	19.262	20.069	164.705	252.830	-38.702	202.654	160.319	-38.837	-31.427	234.717	67.955	-32.162	-25.039	-24.728	-16.984	290.381	-18.110	-8191	255	
1053.609	1	1	0	0	0.24052	0.23093	0.30654	0.090887	0.13289	0.14601	0.26188	0.082168	0.086129	0.10491	0.21406	0.29349	0.016065	0.092816	0.076611	0.052404	-2.2479	-3.2562	-2.9417	-2.65	-3.6042	-2.8792	-3.0146	-3.45	-2.6833	-3.2229	-3.1146	-2.7292	-3.4125	-2.9062	-2.7708	-3.4479	93.122	241.521	186.718	-30.064	306.780	33.470	236.066	-33.941	161.162	213.789	-47.071	-40.275	198.333	298.985	145.297	124.411	0.00017999	0.00021871	7.0564e-05	877.3	2.2156e-06	1.6398e-06	965.79	191.09	2.2557e-06	1.9554e-06	244.58	67.326	52.409	15.277	7.8408e-07	21.616	8.743e-05	8.6062e-05	2.3951e-05	801.6	9.4073e-07	9.4747e-07	882.58	174.79	9.5287e-07	9.5332e-07	205.61	61.059	46.85	13.978	9.4716e-07	19.395	60.248	138.915	10.279	-38.723	94.866	127.059	-38.686	-31.343	173.845	187.538	-32.112	-24.433	-24.296	-17.410	71.109	-17.999	-8191	255	
1053.730	1	1	0	0	0.17705	0.076439	0.25697	0.20424	0.034127	0.093859	0.43116	0.16854	0.3118	0.38027	0.18789	0.098435	0.22484	0.12662	0.12509	0.25287	-2.225	-3.1292	-3.2708	-2.7562	-3.4646	-3.0042	-2.7375	-3.4917	-2.6542	-3.1167	-3.3646	-2.8063	-3.3271	-2.9208	-2.6729	-3.4938	5.856	93.275	255.902	280.367	159.758	93.799	276.344	110.736	221.861	262.866	211.707	137.016	-46.279	208.401	273.073	18.363	0.00028452	0.00015219	5.8643e-05	878.85	1.3844e-06	2.583e-06	972.68	190.43	1.9693e-06	1.8941e-06	243.96	67.644	52.071	15.455	3.1025e-06	21.504	8.7864e-05	8.6521e-05	2.3803e-05	802.7	9.582e-07	9.4282e-07	884.26	174.69	9.4282e-07	9.5209e-07	205.3	61.171	46.724	14.022	9.4785e-07	19.389	27.636	190.013	25.477	-38.760	116.985	67.102	-39.080	-31.537	84.842	-0.713	-31.673	-24.523	-24.606	-17.403	89.982	-18.544	-8191	255	
1053.826	1	1	0	0	0.16485	0.14795	0.12913	0.067745	0.030537	0.26583	0.14492	0.14242	0.078339	0.082588	0.13309	0.11047	0.16249	0.12063	0.25548	0.20778	-2.2938	-3.0125	-3.2812	-2.6521	-3.4208	-3.1917	-2.7146	-3.3833	-2.7042	-2.925	-3.4771	-2.5042	-3.2438	-3.075	-2.6063	-3.3292	-15.216	244.906	64.146	18.435	1.460	138.571	-23.388	253.933	150.781	142.855	254.590	16.459	237.935	256.413	280.626	189.039	0.00014628	0.00052536	5.8909e-05	876.91	2.3693e-06	2.0438e-06	971.97	190.7	2.6711e-06	1.4316e-06	242.25	67.985	52.329	15.261	2.1309e-06	21.432	8.8026e-05	8.5177e-05	2.3987e-05	800.7	9.4964e-07	9.5422e-07	884.94	174.57	9.606e-07	9.6026e-07	204.71	61.128	46.695	14.034	9.5052e-07	19.323	-2.867	75.770	-47.430	-38.854	11.561	98.404	-39.037	-31.658	123.928	1.451	-32.224	-25.284	-24.959	-17.445	78.612	-18.731	-8191	255	
1053.920	1	1	0	0	0.11152	0.29308	0.20118	0.07206	0.1599	0.2511	0.296	0.056456	0.20137	0.21765	0.11739	0.29367	0.28471	0.048138	0.061438	0.25044	-2.4417	-2.6729	-3.3958	-2.6146	-3.1458	-3.3167	-2.6792	-3.3146	-2.9354	-2.7833	-3.4646	-2.6312	-3.1542	-3.4062	-2.5812	-3.4104	144.202	54.983	151.653	217.596	187.840	178.986	288.673	79.231	182.230	-15.067	240.049	-28.293	-37.739	9.667	297.828	-27.519	0.00019431	9.1588e-05	6.5456e-05	878.72	2.9053e-06	3.456e-06	967.5	191.2	1.5948e-06	1.7238e-06	243.14	67.808	52.517	15.256	3.4411e-06	21.732	8.8324e-05	8.5768e-05	2.3842e-05	801.81	9.5715e-07	9.4229e-07	884.32	174.55	9.4567e-07	9.3867e-07	205.71	61.311	46.781	13.971	9.5491e-07	19.331	41.673	276.428	79.051	-38.981	53.542	190.073	-39.119	-31.558	26.965	177.660	-32.232	-25.018	-24.645	-16.739	189.606	-18.350	-8191	255	
1054.016	1	1	0	0	0.028818	0.08904	0.17292	0.3804	0.14988	0.10008	0.25674	0.2446	0.073469	0.10301	0.15127	0.17771	0.19745	0.076043	0.15163	0.078288	-2.4354	-2.6063	-3.2583	-2.9021	-3.1667	-3.1979	-2.6521	-3.2667	-3.1875	-2.7146	-3.575	-2.7979	-3.025	-3.4375	-2.6625	-3.4562	151.372	266.482	-22.656	292.380	145.554	4.236	263.952	-28.293	82.485	-38.485	249.051	276.474	-33.202	274.826	302.886	301.883	0.00025518	5.7541e-05	4.7181e-05	875.29	1.5138e-06	9.2849e-07	969	190.79	1.2697e-06	3.7162e-06	244.01	67.793	52.409	15.138	1.658e-06	21.362	8.7793e-05	8.5443e-05	2.3876e-05	801.07	9.6673e-07	9.4313e-07	883.91	174.5	9.4988e-07	9.3452e-07	205.45	61.043	46.616	13.943	9.5111e-07	19.316	40.878	228.942	85.171	-39.339	216.246	194.665	-39.020	-31.886	62.752	92.293	-32.565	-25.166	-24.679	-17.142	65.880	-18.089	-8191	255	
1054.137	1	1	0	0	0.29934	0.071664	0.17045	0.14659	0.095916	0.078572	0.23655	0.093454	0.20345	0.24563	0.2281	0.14732	0.21564	0.1458	0.1516	0.09664	-2.7208	-2.6688	-3.2938	-2.9833	-2.8833	-3.3312	-2.7458	-3.3333	-3.1896	-2.7271	-3.3271	-2.8021	-2.8917	-3.4854	-2.7104	-3.3083	248.819	302.432	132.243	254.764	-38.162	296.934	227.534	87.934	46.848	177.484	-28.371	274.512	-25.421	165.234	129.919	269.948	0.00027949	0.00041192	5.7375e-05	881.1	1.5634e-06	8.9027e-07	968.45	190.88	4.1597e-06	1.8499e-06	242.39	67.961	52.351	15.231	1.9779e-06	21.51	8.6826e-05	8.6125e-05	2.3949e-05	802.56	9.5733e-07	9.3931e-07	882.8	174.99	9.5969e-07	9.5353e-07	205.01	61.301	46.716	14	9.4718e-07	19.362	36.348	87.062	83.258	-39.288	-32.370	118.135	-39.124	-31.529	91.409	98.068	-32.010	-25.011	-24.787	-17.307	288.606	-18.072	-8191	255	
1054.209	1	1	0	0	0.15213	0.090109	0.23121	0.24511	0.22719	0.14723	0.36063	0.15816	0.033394	0.20577	0.096864	0.088938	0.23169	0.14797	0.1219	0.24547	-2.8958	-2.6937	-3.2812	-3.0896	-2.8042	-3.3167	-2.875	-3.0896	-3.2292	-2.5833	-3.5312	-3.1083	-2.6229	-3.5062	-2.7854	-3.0646	-30.063	276.175	51.544	251.262	93.476	87.725	195.174	210.740	289.719	-48.622	-11.842	140.132	-48.731	220.147	151.516	223.153	0.00029859	0.00027188	6.082e-05	876.88	3.3535e-06	1.1108e-06	975.77	192.04	3.3869e-07	1.4645e-06	243.79	67.248	52.578	15.348	2.796e-06	21.668	8.7433e-05	8.5955e-05	2.4174e-05	802.13	9.5729e-07	9.4201e-07	884.97	175.16	9.47e-07	9.3872e-07	205.89	60.983	46.765	14.016	9.4883e-07	19.343	39.271	83.898	29.868	-39.116	125.845	208.859	-39.124	-31.285	296.033	257.465	-31.992	-24.830	-24.873	-17.183	106.366	-18.241	-8191	255	
1054.305	1	1	0	0	0.048158	0.20168	0.19318	0.30089	0.13157	0.056319	0.27164	0.06425	0.031006	0.1158	0.072245	0.25473	0.12101	0.22461	0.13443	0.25178	-2.8917	-2.8146	-3.3167	-3.3583	-2.7292	-3.3875	-2.9854	-2.9917	-3.4625	-2.6104	-3.2542	-3.1646	-2.7625	-3.4521	-2.9042	-2.8937	-30.770	217.875	203.793	232.640	221.523	293.148	279.161	244.994	123.032	284.536	-46.715	243.148	230.797	0.402	227.445	265.102	0.00012081	0.00021737	0.00010566	876.68	2.2916e-06	2.4077e-06	971.09	191.1	1.9222e-06	1.3758e-06	244.08	67.324	52.54	15.178	3.2229e-06	21.586	8.6961e-05	8.7268e-05	2.3717e-05	800.44	9.5996e-07	9.5552e-07	884.2	174.77	9.4245e-07	9.4531e-07	205.95	60.841	46.806	13.921	9.3973e-07	19.369	31.394	-7.595	-12.581	-39.275	276.741	256.328	-39.265	-31.733	89.682	176.751	-31.686	-25.124	-24.838	-18.145	66.489	-18.107	-8191	255	
1054.401	1	1	0	0	0.1903	0.085489	0.13616	0.10579	0.26637	0.17053	0.34152	0.21428	0.14206	0.064539	0.24752	0.13604	0.089364	0.16596	0.18765	0.032932	-2.9083	-2.5354	-3.0521	-3.3104	-2.6396	-3.4667	-3.0708	-2.9604	-3.4083	-2.6167	-3.2083	-3.2562	-2.5979	-3.3625	-2.9771	-2.8604	190.260	297.137	-9.750	236.285	218.092	96.059	254.666	163.496	70.610	294.811	142.814	-24.358	307.490	-41.834	299.424	262.121	7.3116e-05	8.3716e-05	5.6283e-05	877.37	2.7299e-06	2.2958e-06	968.24	192.13	1.6144e-06	2.7291e-06	242.97	67.238	52.441	15.301	3.0116e-06	21.468	8.816e-05	8.6343e-05	2.3841e-05	801.37	9.5004e-07	9.3928e-07	883.62	175.18	9.4874e-07	9.3801e-07	205.16	60.986	46.857	14.004	9.5001e-07	19.352	37.983	129.823	115.241	-39.253	47.369	255.219	-38.925	-31.755	37.836	121.270	-32.355	-25.320	-25.042	-17.548	290.825	-18.115	-8191	255	
1054.522	1	1	0	0	0.20129	0.31686	0.27577	0.27627	0.2673	0.14342	0.19577	0.30979	0.10488	0.215	0.30575	0.15481	0.16979	0.18292	0.19754	0.08956	-2.9021	-2.7125	-3.0229	-3.4417	-2.6958	-3.3146	-3.1188	-2.9062	-3.5062	-2.9479	-3.0083	-3.5167	-2.6562	-3.3646	-3.1292	-2.8312	297.692	-36.808	8.004	-18.055	9.133	253.654	182.715	211.260	-26.432	39.436	262.188	40.306	119.535	188.461	-23.443	26.729	0.00021429	0.00044387	6.5288e-05	877.69	2.9229e-06	2.7712e-06	967.51	191.3	1.9509e-06	1.4797e-06	245.16	67.829	52.193	15.359	3.9031e-06	21.575	8.7884e-05	8.5946e-05	2.4238e-05	800.8	9.5524e-07	9.3645e-07	884.13	174.97	9.3689e-07	9.4703e-07	206.04	61.066	46.81	14.025	9.505e-07	19.36	6.192	117.746	26.610	-39.515	204.412	47.099	-39.106	-31.657	205.784	43.541	-31.794	-24.924	-24.402	-17.414	-3.129	-17.957	-8191	255	
1054.618	1	1	0	0	0.054802	0.16939	0.24192	0.095073	0.21898	0.31653	0.39666	0.26352	0.057336	0.24338	0.11814	0.19233	0.25871	0.11159	0.078859	0.038762	-2.9688	-2.7979	-2.7854	-3.5354	-2.575	-3.2458	-3.3688	-2.6646	-3.5042	-2.8063	-2.9375	-3.4417	-2.5312	-3.1083	-3.4042	-2.7917	23.702	-48.168	-26.157	151.261	169.813	-25.718	250.668	219.759	246.153	18.249	244.772	303.645	268.382	194.586	79.752	182.734	0.00021364	0.00032425	9.3164e-05	877.62	2.5176e-06	3.1319e-06	969.22	190.75	1.756e-06	2.4435e-06	245.03	67.666	52.438	15.302	1.5593e-06	21.442	8.6672e-05	8.5988e-05	2.4242e-05	800.19	9.4204e-07	9.4737e-07	883.59	174.94	9.4391e-07	9.4291e-07	206.08	61.116	46.815	13.995	9.4345e-07	19.31	65.088	61.591	60.537	-39.147	184.218	52.112	-39.020	-31.414	186.886	30.310	-32.101	-25.413	-25.161	-17.315	98.232	-18.202	-8191	255	
1054.714	1	1	0	0	0.22555	0.15174	0.27842	0.23754	0.21217	0.25014	0.18419	0.13069	0.027882	0.18049	0.2585	0.25157	0.14081	0.098912	0.14499	0.32856	-2.9813	-3.0563	-2.7646	-3.4771	-2.5771	-3.0771	-3.5083	-2.6792	-3.2896	-3.1771	-2.9167	-3.5062	-2.8875	-2.9917	-3.4917	-2.7938	199.897	240.500	98.926	136.799	153.389	295.199	210.843	190.850	273.357	84.667	198.590	155.110	243.443	-7.710	287.925	-26.239	0.00016206	0.00021502	8.672e-05	876.79	2.2743e-06	8.1537e-07	970.21	191.75	2.0823e-06	1.9363e-06	243.69	66.992	52.662	15.166	5.2128e-07	21.353	8.7037e-05	8.543e-05	2.4035e-05	800.3	9.4949e-07	9.4203e-07	884.63	174.83	9.4349e-07	9.4189e-07	204.91	61.015	46.823	13.963	9.4376e-07	19.375	52.455	133.964	269.447	-39.057	139.795	201.684	-38.967	-31.896	274.379	191.813	-31.773	-25.091	-24.606	-17.299	-31.570	-17.896	-8191	255	
1054.810	1	1	0	0	0.14425	0.081971	0.10702	0.26084	0.18019	0.092693	0.26892	0.25866	0.035057	0.033514	0.10387	0.013346	0.13667	0.22489	0.16017	0.33614	-2.7021	-3.0104	-2.6167	-3.4688	-2.75	-2.85	-3.4	-2.6479	-3.3167	-3.075	-2.6792	-3.3688	-2.8229	-2.9437	-3.3708	-2.5333	296.555	110.087	84.875	263.820	67.390	48.049	222.285	155.123	117.171	304.566	77.580	-20.219	13.243	290.411	-14.886	302.319	0.00030018	0.00028633	6.7936e-05	879.77	8.398e-07	2.2699e-06	973.49	190.34	3.5534e-06	1.7249e-06	243.45	67.348	52.366	15.413	3.4984e-06	21.535	8.7418e-05	8.6544e-05	2.4213e-05	803.13	9.5652e-07	9.4842e-07	884.66	174.87	9.3717e-07	9.3095e-07	204.97	61.01	46.707	14.032	9.4971e-07	19.314	-23.082	93.340	134.315	-39.541	19.101	146.321	-39.112	-31.524	107.628	53.891	-31.530	-25.059	-24.753	-17.297	138.556	-17.992	-8191	255	
1054.906	1	1	0	0	0.32583	0.12275	0.22086	0.37007	0.048501	0.11799	0.36091	0.19643	0.09995	0.21205	0.43395	0.026041	0.2812	0.091112	0.077761	0.23947	-2.8229	-3.2354	-2.6521	-3.5792	-2.9375	-2.8312	-3.6729	-2.7438	-3.0062	-3.2271	-2.4646	-3.3958	-3.1042	-2.7062	-3.5312	-2.7021	309.024	191.120	76.286	-39.605	103.750	111.314	178.942	111.169	2.484	176.050	236.046	306.044	303.309	36.348	305.971	-13.055	0.00017638	0.00021955	7.1346e-05	879.94	5.8505e-07	9.0058e-07	968.18	191.45	2.9213e-06	9.5163e-07	245.12	67.13	51.743	15.139	1.5337e-06	21.637	8.7645e-05	8.6585e-05	2.4251e-05	801.37	9.4581e-07	9.3884e-07	884.89	175.02	9.5403e-07	9.3542e-07	205.11	61.047	46.556	13.95	9.4335e-07	19.347	-26.802	119.862	81.318	-39.117	172.611	27.057	-38.895	-31.402	86.382	165.792	-32.016	-25.141	-24.589	-17.432	45.995	-18.322	-8191	255	
1055.001	1	1	0	0	0.28046	0.13921	0.05319	0.3535	0.28534	0.2226	0.13724	0.22796	0.1453	0.086927	0.10106	0.23853	0.14498	0.097277	0.055597	0.1064	-2.6896	-3.2083	-2.6125	-3.4479	-3.0083	-2.5875	-3.4396	-2.7083	-3.0812	-3.4562	-2.7021	-3.3583	-2.9417	-2.6021	-3.5187	-2.8417	86.487	51.715	255.429	302.447	-19.664	248.697	196.062	227.764	239.415	304.016	162.584	208.240	239.797	241.025	299.540	13.295	0.00017968	0.00035982	9.4518e-05	874.36	8.6938e-07	2.719e-06	973.18	191.24	1.2628e-06	4.4898e-07	244.87	67.794	52.636	15.242	2.6565e-06	21.459	8.6806e-05	8.5472e-05	2.3874e-05	799.91	9.5587e-07	9.4829e-07	884.36	175.02	9.514e-07	9.4979e-07	205.25	61.168	46.783	13.995	9.6165e-07	19.338	39.782	79.702	102.834	-38.881	127.190	121.513	-38.944	-31.579	199.885	26.197	-31.877	-25.142	-24.817	-17.087	69.923	-18.290	-8191	255	
1055.098	1	1	0	0	0.070015	0.053294	0.35338	0.0072107	0.070054	0.049719	0.2278	0.17242	0.10417	0.19803	0.17601	0.25594	0.19763	0.268	0.16482	0.20165	-2.5875	-3.2542	-2.6625	-3.4854	-3.2479	-2.6667	-3.4562	-2.9354	-2.8042	-3.4083	-2.625	-3.1833	-3.2521	-2.5833	-3.2625	-2.9854	104.737	189.252	149.647	304.658	32.328	267.215	246.424	270.638	208.859	-43.233	27.143	147.331	10.780	-45.667	150.583	237.573	0.00017018	0.00019753	7.2212e-05	877.8	4.3085e-07	1.1937e-06	968.47	190.86	6.6743e-07	2.5609e-06	242.62	67.489	52.02	15.249	2.6362e-06	21.487	8.6907e-05	8.5992e-05	2.437e-05	801.27	9.4857e-07	9.3832e-07	882.81	174.62	9.4543e-07	9.4877e-07	205.3	61.009	46.718	14.002	9.4383e-07	19.326	40.503	144.786	138.476	-39.112	251.867	71.660	-39.077	-31.635	145.059	-22.006	-32.207	-24.485	-24.748	-17.382	115.192	-18.598	-8191	255	
1055.217	1	1	0	0	0.05661	0.10946	0.21656	0.43485	0.16901	0.13519	0.24103	0.28937	0.086771	0.15555	0.25274	0.22517	0.066488	0.22214	0.16462	0.057059	-2.3625	-3.3625	-2.7125	-3.1979	-3.2438	-2.5563	-3.4562	-3.0625	-2.775	-3.3958	-2.6521	-3.2	-3.3896	-2.6604	-3.2604	-3.1833	179.351	-35.631	113.486	268.696	93.232	148.086	306.718	289.796	56.808	307.855	302.035	4.976	158.889	176.181	173.062	229.850	0.00022078	3.1189e-05	9.0876e-05	876.19	2.9403e-06	2.9247e-06	970.47	190.72	2.3451e-06	2.0235e-06	243.79	67.731	52.543	15.351	6.4133e-07	21.462	8.6969e-05	8.6806e-05	2.3918e-05	802.08	9.5735e-07	9.3648e-07	884.1	174.97	9.4984e-07	9.3793e-07	205.19	61.128	46.646	14.002	9.5108e-07	19.372	-36.071	292.387	18.263	-38.997	137.284	213.107	-39.040	-31.576	2.503	123.567	-31.570	-24.804	-24.426	-17.174	107.013	-18.266	-8191	255	
1055.314	1	1	0	0	0.21463	0.062883	0.19933	0.22868	0.22872	0.10186	0.050197	0.095232	0.18708	0.069362	0.22294	0.096594	0.11177	0.10285	0.084289	0.27217	-2.2979	-3.2146	-2.6979	-2.9979	-3.3479	-2.7938	-3.4771	-3.2313	-2.5979	-3.3271	-2.6979	-3.0771	-3.375	-2.65	-3.0229	-3.1146	254.421	295.436	69.923	270.366	73.416	12.737	283.146	-7.306	63.378	282.258	1.961	185.092	56.821	105.668	124.949	103.638	0.00020529	0.00029362	3.9375e-05	875.67	1.8767e-06	1.1497e-06	972.77	190.96	1.337e-06	6.0529e-06	244.12	67.693	51.755	15.217	2.342e-06	21.26	8.7445e-05	8.6295e-05	2.3502e-05	800.97	9.427e-07	9.4211e-07	884.96	174.68	9.5336e-07	9.4331e-07	205.2	61.063	46.658	13.958	9.4381e-07	19.265	54.471	112.782	-10.859	-38.911	156.476	304.329	-38.921	-31.515	83.725	142.512	-31.862	-25.085	-24.954	-17.941	116.491	-18.150	-8191	255	
1055.410	1	1	0	0	0.1165	0.15564	0.31467	0.33714	0.007085	0.30911	0.22594	0.29081	0.21772	0.23324	0.18494	0.18173	0.045882	0.2437	0.024683	0.18079	-2.0583	-3.2625	-2.6792	-2.9313	-3.275	-2.8167	-3.3646	-3.2896	-2.7292	-3.4188	-3.0042	-2.7771	-3.4188	-2.6604	-3.0729	-3.2438	94.427	166.566	9.859	274.555	231.146	136.139	228.823	281.153	56.237	202.359	111.249	179.466	24.940	165.801	-41.809	208.321	0.000156	0.0003278	0.00013968	875.82	7.3205e-07	7.8825e-07	969	189.86	1.232e-06	3.6331e-06	242.06	67.799	52.644	15.377	4.1699e-06	21.572	8.7025e-05	8.5621e-05	2.3879e-05	802	9.4292e-07	9.3946e-07	883.69	174.53	9.5443e-07	9.4029e-07	204.87	61.089	46.841	14.052	9.5632e-07	19.403	82.919	199.870	300.356	-39.112	1.609	24.733	-39.108	-31.746	60.938	191.812	-32.364	-24.733	-24.674	-17.972	149.716	-18.475	-8191	255	
1055.506	1	1	0	0	0.082799	0.19786	0.086131	0.22041	0.26196	0.15673	0.21965	0.14083	0.070505	0.030235	0.14863	0.38722	0.1852	0.19042	0.12741	0.14433	-2.2	-3.2812	-3.0167	-2.7021	-3.3604	-2.9292	-3.1708	-3.3333	-2.4833	-3.2812	-3.0292	-2.7521	-3.4958	-2.6458	-3.0104	-3.4021	113.308	83.913	255.940	219.116	266.795	279.894	287.438	287.584	185.629	218.835	69.253	272.379	6.076	241.237	159.720	309.529	0.00014405	0.00021499	0.00010261	876.61	7.8763e-07	2.088e-06	969.57	190.25	7.0969e-07	1.4981e-06	243.59	68.022	52.66	15.341	1.8957e-06	21.59	8.8285e-05	8.6286e-05	2.4145e-05	801.16	9.5197e-07	9.4286e-07	885.79	174.54	9.4841e-07	9.3708e-07	205.49	61.282	46.821	13.993	9.5711e-07	19.333	66.024	61.579	113.893	-39.318	40.203	173.955	-39.123	-31.828	21.667	162.297	-32.172	-25.382	-24.830	-17.605	6.153	-18.226	-8191	255	
1055.602	1	1	0	0	0.38319	0.11933	0.12448	0.21817	0.18836	0.1439	0.20867	0.074279	0.13602	0.082693	0.22348	0.40598	0.12292	0.19722	0.20206	0.33402	-2.2646	-3.3583	-3.1063	-2.6854	-3.3417	-2.7375	-3.075	-3.2812	-2.6625	-3.1625	-3.2	-2.6729	-3.3354	-2.8896	-2.8375	-3.4479	107.282	274.548	32.326	260.362	1.340	282.548	166.688	186.832	95.403	-39.225	152.976	227.719	242.655	183.214	23.885	112.529	0.00047034	0.00020839	1.4794e-05	876.62	5.0793e-07	4.4212e-06	971	190.83	2.5237e-06	1.2242e-06	243.61	67.934	52.885	15.415	3.6356e-06	21.614	8.7226e-05	8.6841e-05	2.4093e-05	800.9	9.5743e-07	9.3949e-07	884.98	175.15	9.5796e-07	9.3032e-07	205.33	61.191	46.84	14.026	9.4815e-07	19.373	33.797	21.416	71.069	-39.182	150.275	-20.186	-38.946	-31.700	76.919	264.587	-32.499	-25.317	-24.430	-17.661	-9.245	-17.856	-8191	255	
1055.698	1	1	0	0	0.17659	0.12807	0.065849	0.33128	0.13012	0.19909	0.12835	0.12842	0.18026	0.1269	0.13096	0.22955	0.085766	0.063217	0.059571	0.23012	-2.2479	-3.1813	-3.3604	-2.7125	-3.3417	-2.9188	-2.725	-3.3417	-2.6917	-3.1292	-3.5563	-2.7854	-3.2562	-2.9708	-2.6833	-3.4437	-8.278	-36.657	250.292	258.637	281.758	260.811	266.781	287.458	16.525	188.315	152.442	94.993	94.557	243.838	259.560	-43.404	0.0002215	0.00026609	5.7626e-05	877.87	1.0232e-06	1.6633e-06	972.1	190.91	6.0752e-07	3.0599e-06	241.18	67.913	51.96	15.334	2.2041e-06	21.521	8.724e-05	8.6286e-05	2.3661e-05	801.91	9.4155e-07	9.4126e-07	884.41	174.96	9.4185e-07	9.2799e-07	205.06	61.084	46.704	14.035	9.3952e-07	19.335	61.067	83.466	272.655	-39.035	276.156	192.726	-38.964	-31.721	18.172	116.062	-31.505	-25.184	-24.690	-17.380	45.068	-18.309	-8191	255	
1055.817	1	1	0	0	0.16417	0.19611	0.10921	0.25688	0.214	0.13447	0.22314	0.16408	0.23862	0.36361	0.33509	0.15316	0.31071	0.070016	0.13312	0.34773	-2.3146	-2.7583	-3.4521	-2.7687	-3.2229	-3.0896	-2.775	-3.4833	-2.7396	-2.8375	-3.3104	-2.6146	-3.2396	-3.0771	-2.6417	-3.4479	57.093	249.201	145.890	252.328	271.992	21.852	-8.601	161.249	247.656	182.588	219.415	22.408	-25.113	253.431	-1.609	275.192	0.00021916	0.00044561	0.00010036	876.67	1.3672e-06	1.7886e-06	968.64	190.63	1.5107e-06	3.4036e-06	245.73	67.662	51.977	15.428	4.4875e-06	21.424	8.7224e-05	8.6193e-05	2.3603e-05	802.77	9.4139e-07	9.26e-07	883.51	174.69	9.3246e-07	9.3735e-07	205.71	61.07	46.506	14.01	9.3212e-07	19.328	14.653	167.373	93.834	-39.035	189.856	130.201	-39.181	-31.645	62.585	191.725	-32.024	-25.198	-24.304	-17.582	35.996	-18.078	-8191	255	
1055.913	1	1	0	0	0.088802	0.21231	0.12606	0.074152	0.050443	0.017649	0.043898	0.018582	0.094837	0.31879	0.25321	0.10866	0.3113	0.14162	0.16471	0.063166	-2.5229	-2.8125	-3.2896	-2.7729	-3.0812	-3.1583	-2.7896	-3.5375	-3.0667	-2.7042	-3.5125	-2.6958	-3.25	-3.2083	-2.7104	-3.3688	-7.924	197.011	183.637	118.876	200.348	295.746	238.204	206.548	119.426	-33.713	181.749	221.583	74.264	280.273	113.658	56.428	0.00018378	6.1235e-05	8.0568e-06	877.6	2.0249e-07	2.1198e-06	974.28	191.21	1.1894e-06	1.1217e-06	245.96	67.685	52.554	15.445	1.25e-06	21.424	8.6537e-05	8.5456e-05	2.3917e-05	801.89	9.3008e-07	9.2918e-07	885.99	175.02	9.3906e-07	9.3176e-07	205.77	60.988	46.76	14.002	9.4684e-07	19.352	50.903	32.489	0.722	-39.128	-0.719	134.182	-39.177	-32.216	114.610	215.969	-32.442	-25.649	-25.131	-17.628	227.536	-17.683	-8191	255	
1056.009	1	1	0	0	0.20809	0.16398	0.077586	0.33064	0.14342	0.20848	0.13887	0.059044	0.11682	0.069334	0.0090199	0.05459	0.12166	0.15608	0.15386	0.10371	-2.5833	-2.6771	-3.3167	-2.7812	-2.8375	-3.3292	-2.6979	-3.2875	-2.9479	-2.8396	-3.4958	-2.7333	-2.7562	-3.4396	-2.6	-3.2042	166.514	-3.262	32.864	264.897	194.923	307.914	214.804	125.156	160.439	58.103	132.085	76.436	-36.310	210.639	182.141	222.761	7.625e-05	0.00016763	5.4476e-05	879	1.3701e-06	2.0018e-06	967.86	190	1.1336e-06	1.0818e-06	243.93	67.842	52.484	15.369	1.7386e-06	21.558	8.6409e-05	8.5231e-05	2.3734e-05	801.42	9.4641e-07	9.3386e-07	883.33	174.57	9.4366e-07	9.1739e-07	205.02	61	46.693	13.978	9.3553e-07	19.344	73.184	158.041	14.491	-39.604	111.345	118.187	-39.650	-31.857	109.531	114.022	-32.379	-25.679	-25.022	-17.878	24.917	-18.173	-8191	255	
1056.081	1	1	0	0	0.11589	0.32713	0.19056	0.12872	0.14216	0.037228	0.15495	0.13571	0.31191	0.23625	0.19804	0.16617	0.12722	0.10208	0.13695	0.061988	-2.575	-2.5854	-3.3438	-2.9375	-2.7917	-3.4458	-2.7875	-3.1354	-3.0396	-2.5833	-3.2875	-2.9188	-2.7562	-3.4771	-2.7146	-3.2188	203.978	247.349	292.354	231.971	68.144	182.633	192.424	287.359	201.228	191.927	113.590	65.430	204.362	197.076	267.142	-5.045	0.00026617	2.8477e-05	6.117e-06	879.9	1.8084e-06	4.3831e-06	972.26	191.37	1.5375e-06	3.8311e-06	243.75	67.374	52.199	15.392	1.8472e-06	21.389	8.6073e-05	8.5115e-05	2.3733e-05	801.74	9.4028e-07	9.302e-07	883.58	175.02	9.3915e-07	9.357e-07	204.9	60.893	46.726	14.003	9.3682e-07	19.308	23.854	252.134	-1.500	-39.690	150.451	245.905	-39.778	-31.873	150.622	130.615	-32.288	-25.380	-25.130	-17.871	286.211	-18.358	-8191	255	
1056.177	1	1	0	0	0.079701	0.062545	0.20253	0.23375	0.2301	0.32119	0.31834	0.32809	0.22108	0.050685	0.39261	0.18264	0.27013	0.22795	0.28952	0.15851	-2.8271	-2.5792	-3.3667	-3.0312	-2.5979	-3.3271	-2.7583	-3.0875	-3.1292	-2.5667	-3.3063	-3.1167	-2.8229	-3.5438	-2.8604	-3.0396	209.187	-40.379	226.949	285.681	-46.459	192.030	234.999	-35.327	159.685	293.907	-46.814	0.552	149.350	294.090	303.292	119.089	0.00044386	0.00044533	3.4713e-05	873.72	2.5476e-07	2.3073e-06	968.6	191.15	2.1792e-06	1.8575e-06	244.24	67.673	52.251	15.317	2.3332e-06	21.384	8.6729e-05	8.5339e-05	2.3658e-05	799.57	9.405e-07	9.3047e-07	882.14	174.75	9.5249e-07	9.34e-07	205.42	61.003	46.774	13.994	9.352e-07	19.324	18.223	130.177	86.381	-39.773	205.108	103.873	-39.347	-32.217	152.409	26.137	-32.200	-25.602	-24.996	-17.772	-47.819	-18.494	-8191	255	
1056.298	1	1	0	0	0.028038	0.12445	0.18693	0.25476	0.049207	0.18025	0.25859	0.044343	0.17567	0.19668	0.062555	0.14754	0.076542	0.15769	0.23556	0.070045	-3.0792	-2.6021	-3.2125	-3.1396	-2.7333	-3.6646	-2.8396	-3	-3.2125	-2.6625	-3.1708	-3.15	-2.7438	-3.45	-3.0625	-2.9396	235.472	-43.525	267.660	168.434	167.669	90.198	197.870	220.350	300.321	167.924	-45.513	305.071	64.418	85.151	182.509	50.328	0.00022675	0.00015328	3.014e-05	877.19	8.1652e-07	3.0113e-06	968.53	190.96	1.6901e-06	2.235e-06	242.37	67.498	51.833	15.304	4.4037e-06	21.369	8.5517e-05	8.5953e-05	2.3649e-05	802.24	9.3624e-07	9.3866e-07	883.73	174.73	9.253e-07	9.39e-07	205.24	61.006	46.476	13.997	9.3837e-07	19.284	37.831	104.372	39.801	-39.816	73.878	110.230	-39.758	-31.891	205.832	48.408	-32.408	-25.636	-24.917	-18.075	76.337	-18.175	-8191	255	
1056.394	1	1	0	0	0.086181	0.19979	0.15357	0.1043	0.079276	0.16414	0.12978	0.24065	0.16317	0.19819	0.035216	0.14428	0.11648	0.14714	0.10097	0.032478	-3.1417	-2.7625	-3.1042	-3.2875	-2.5979	-3.3521	-3.0479	-2.9458	-3.5625	-2.9062	-3.0187	-3.2167	-2.7	-3.4229	-2.8937	-2.6771	173.777	202.229	271.787	-7.690	253.204	61.789	138.591	238.075	200.463	-11.708	136.522	199.897	-32.739	-34.212	248.943	188.901	0.0002267	0.00021944	4.3231e-05	880.09	3.0417e-06	3.1662e-06	969.76	190.39	1.7927e-06	3.4237e-06	241.93	67.25	52.602	15.353	2.0976e-06	21.684	8.7568e-05	8.7068e-05	2.3652e-05	801.95	9.5009e-07	9.4619e-07	882.99	174.49	9.4237e-07	9.5443e-07	205.72	60.924	46.737	14.01	9.4808e-07	19.366	-9.316	92.717	46.815	-39.450	8.835	-7.310	-39.604	-32.502	25.957	97.627	-32.273	-25.436	-24.871	-17.980	62.265	-18.720	-8191	255	
1056.490	1	1	0	0	0.15024	0.15301	0.3004	0.10747	0.21894	0.25003	0.23566	0.1801	0.044384	0.21542	0.28893	0.13049	0.14	0.14518	0.19411	0.1919	-3.0812	-2.7625	-3.0729	-3.4979	-2.6354	-3.1875	-3.2021	-2.675	-3.425	-2.8208	-2.8917	-3.3625	-2.7292	-3.2771	-3.1271	-2.6979	66.597	-33.490	195.992	189.757	95.040	259.268	196.093	244.187	294.031	-22.272	10.672	208.882	231.633	246.902	70.868	-27.714	0.00021587	0.00022919	6.091e-05	877.02	2.0269e-06	8.9792e-07	975.1	192.41	1.3634e-06	1.3885e-06	244.63	67.666	52.772	15.244	3.6958e-06	21.382	8.7332e-05	8.6819e-05	2.3881e-05	800.07	9.556e-07	9.3313e-07	884.85	175.06	9.5798e-07	9.4811e-07	205.57	61.151	46.917	13.964	9.5453e-07	19.295	66.261	88.967	49.786	-39.867	153.645	224.128	-39.445	-31.771	-42.762	123.836	-32.700	-25.749	-24.879	-17.305	40.961	-18.480	-8191	255	
1056.611	1	1	0	0	0.2102	0.28351	0.15303	0.23651	0.20803	0.2224	0.052479	0.18116	0.22866	0.21045	0.12667	0.16957	0.1029	0.12394	0.24416	0.1047	-3.0583	-2.7458	-2.8396	-3.5187	-2.4938	-3.2792	-3.3583	-2.7083	-3.4396	-2.9146	-2.5021	-3.4062	-2.6292	-3.0438	-3.2042	-2.6188	-2.924	-6.238	211.959	-22.654	133.618	148.522	67.235	271.194	209.296	-27.140	98.245	1.528	54.020	73.559	200.997	307.050	0.00026615	0.00023747	5.7156e-05	882.47	1.5275e-06	2.8348e-06	969.3	191.88	1.3813e-06	1.0354e-06	245.9	67.55	52.156	15.418	1.0474e-06	21.52	8.7141e-05	8.5833e-05	2.3805e-05	802.96	9.4554e-07	9.393e-07	882.85	175.1	9.5448e-07	9.3639e-07	206.09	61.158	46.554	14.031	9.3647e-07	19.35	41.025	14.809	247.058	-39.620	73.800	185.826	-39.353	-32.010	148.190	157.825	-32.413	-25.283	-25.026	-17.362	58.862	-18.528	-8191	255	
1056.682	1	1	0	0	0.20878	0.22185	0.12192	0.25825	0.12322	0.080491	0.31736	0.24678	0.17855	0.090384	0.037378	0.12743	0.079482	0.19183	0.14443	0.090075	-2.9313	-2.9271	-2.5854	-3.5042	-2.7354	-2.9917	-3.4458	-2.6625	-3.3187	-2.8688	-2.6729	-3.5438	-2.7229	-2.9667	-3.4188	-2.6333	246.474	28.554	28.253	245.415	220.233	7.708	291.193	215.310	265.591	-5.608	-18.206	273.637	140.001	87.709	191.579	253.383	0.0002687	8.3624e-05	3.0178e-05	873.35	3.7863e-07	2.4434e-06	962.5	190.56	2.1325e-06	2.0703e-06	243.41	67.845	52.213	15.32	2.0922e-06	21.384	8.6993e-05	8.5012e-05	2.3796e-05	800.42	9.5036e-07	9.4016e-07	882	174.66	9.4695e-07	9.4177e-07	205.2	61.241	46.668	14.023	9.4125e-07	19.342	38.853	25.788	79.728	-39.428	97.499	118.387	-39.556	-31.840	126.606	175.849	-31.781	-25.802	-25.477	-17.674	183.143	-18.772	-8191	255	
1056.778	1	1	0	0	0.14944	0.13714	0.29762	0.23559	0.17237	0.083376	0.22792	0.29023	0.025945	0.089339	0.15916	0.040279	0.1016	0.23985	0.10085	0.18049	-2.9	-3.1708	-2.7104	-3.4792	-2.9208	-2.8688	-3.5187	-2.7188	-3.0604	-3.3271	-2.6375	-3.3563	-2.8729	-2.8708	-3.4938	-2.5896	166.874	156.449	-49.419	228.615	65.593	-46.615	207.947	250.658	48.194	-2.502	166.832	268.106	84.577	-48.008	111.714	290.645	0.00011226	0.00055879	2.098e-05	877.61	3.4947e-07	3.8146e-06	964.48	190.72	2.9097e-06	9.627e-07	241.75	68.114	52.356	15.174	1.9622e-06	21.555	8.699e-05	8.7043e-05	2.3903e-05	800.86	9.543e-07	9.557e-07	882.35	174.92	9.5511e-07	9.4392e-07	204.92	61.396	46.805	13.98	9.487e-07	19.352	76.853	297.361	-20.600	-39.351	141.609	189.585	-39.663	-32.298	140.734	67.697	-32.064	-25.297	-24.753	-17.695	89.682	-18.466	-8191	255	
1056.897	1	1	0	0	0.061018	0.10683	0.095696	0.25101	0.14804	0.035901	0.084727	0.089225	0.20806	0.085296	0.19267	0.12563	0.22535	0.17465	0.087592	0.047661	-2.5563	-3.2146	-2.8187	-3.4021	-2.9292	-2.7917	-3.6583	-2.7583	-3.0458	-3.3521	-2.6646	-3.3937	-2.9688	-2.6729	-3.3271	-2.8917	304.330	43.869	45.056	208.036	136.661	298.995	199.761	47.418	194.250	126.260	-35.248	226.045	184.558	210.057	164.475	261.449	0.00016836	0.00028311	7.3892e-05	877.74	2.0463e-06	2.2258e-06	966.45	190.45	1.6881e-06	2.1116e-06	242.41	67.318	52.039	15.244	2.8613e-06	21.583	8.8062e-05	8.6472e-05	2.399e-05	801.77	9.4825e-07	9.488e-07	883.18	174.46	9.4295e-07	9.387e-07	205.18	61.075	46.721	14.02	9.4251e-07	19.356	1.394	161.919	8.389	-39.320	158.325	25.727	-39.335	-32.141	169.271	114.245	-32.225	-25.403	-25.322	-18.060	58.907	-19.270	-8191	255	
1056.994	1	1	0	0	0.20516	0.16788	0.11052	0.20169	0.17098	0.066371	0.40583	0.22939	0.085703	0.10662	0.15316	0.076723	0.056614	0.19834	0.24347	0.11246	-2.6458	-3.4667	-2.8292	-3.4562	-3.0208	-2.7313	-3.5083	-2.9979	-3.0042	-3.5542	-2.7146	-3.3104	-3.0938	-2.6375	-3.3167	-2.8333	192.279	28.995	-13.283	281.714	9.784	132.994	267.310	204.257	33.265	130.362	-13.187	158.217	-36.608	4.850	-34.528	161.026	0.00021838	0.00048028	5.7798e-05	877.39	2.1663e-06	2.9234e-06	966.7	191.23	3.2517e-06	1.2688e-06	244.28	67.91	52.715	15.373	2.2691e-06	21.328	8.6741e-05	8.618e-05	2.3854e-05	801.5	9.4831e-07	9.4484e-07	883.88	174.69	9.4013e-07	9.3741e-07	205.15	61.187	46.737	14.016	9.464e-07	19.275	7.671	144.825	156.906	-39.337	6.935	173.105	-39.468	-32.048	168.480	10.972	-32.755	-25.348	-25.468	-17.957	284.130	-18.974	-8191	255	
1057.090	1	1	0	0	0.1646	0.021572	0.048328	0.15659	0.13303	0.089285	0.138	0.16698	0.20664	0.15884	0.0085508	0.15809	0.25537	0.27078	0.059026	0.15835	-2.5146	-3.575	-2.6167	-3.55	-3.1896	-2.9167	-3.55	-2.8521	-2.9292	-3.5417	-2.5833	-3.0042	-3.1875	-2.5812	-3.3333	-3.1437	250.027	97.718	240.936	304.666	209.390	244.406	198.010	143.597	250.638	240.413	111.923	-25.563	242.462	274.499	180.663	-12.185	0.00036707	8.8791e-05	2.2484e-05	880.04	1.0861e-06	1.951e-06	970.8	191.02	3.7878e-06	1.395e-06	244.36	67.914	52.274	15.457	1.0637e-06	21.485	8.771e-05	8.548e-05	2.3912e-05	802.57	9.4735e-07	9.4831e-07	885.87	174.44	9.4449e-07	9.3839e-07	205.75	61.084	46.624	14.051	9.4389e-07	19.299	-9.306	31.784	15.855	-39.648	192.281	-11.968	-39.806	-32.124	305.720	131.641	-32.365	-25.405	-25.465	-18.259	127.331	-18.863	-8191	255	
1057.210	1	1	0	0	0.030886	0.097686	0.24751	0.24477	0.35128	0.26466	0.30796	0.2125	0.083676	0.14001	0.11804	0.088343	0.27446	0.043812	0.1591	0.041018	-2.2562	-3.3604	-2.6083	-3.2938	-3.2	-2.7271	-3.3271	-2.8292	-2.5896	-3.4333	-2.8	-2.9354	-3.5375	-2.5083	-3.2125	-3.1	190.905	207.707	157.907	216.909	197.226	235.934	276.599	238.490	134.655	264.523	104.751	232.853	185.951	216.208	-47.737	-49.806	0.00030721	0.00054823	0.00015074	874.57	2.2363e-06	1.628e-06	970.48	190.65	1.8691e-06	3.3821e-06	242.45	67.916	52.82	15.397	3.2009e-06	21.51	8.6903e-05	8.4724e-05	2.3903e-05	799.57	9.4796e-07	9.4538e-07	886.13	174.66	9.5132e-07	9.3535e-07	204.87	61.258	46.717	14.008	9.4112e-07	19.331	-9.642	61.912	15.286	-39.588	292.519	80.179	-39.550	-31.971	24.900	134.414	-32.276	-25.341	-25.150	-17.668	97.146	-18.404	-8191	255	
1057.306	1	1	0	0	0.06588	0.013128	0.29303	0.12901	0.16044	0.17883	0.21337	0.24598	0.16747	0.056195	0.28566	0.20364	0.15746	0.40407	0.068067	0.23913	-2.2292	-3.2417	-2.8417	-2.9188	-3.2667	-2.7521	-3.2042	-3.0479	-2.6854	-3.4042	-2.9333	-3	-3.5042	-2.7708	-3.2	-3.2833	198.042	26.986	10.254	262.647	264.899	266.585	233.934	-31.716	199.102	300.307	-27.247	243.417	120.099	167.570	168.920	179.271	0.00017578	0.00016109	8.2702e-05	877.49	2.6055e-06	2.8846e-06	965.71	190.75	9.2012e-07	2.7786e-06	244.53	68.032	52.724	15.35	9.6704e-07	21.495	8.7527e-05	8.5918e-05	2.3916e-05	800.53	9.5209e-07	9.4637e-07	882.84	174.62	9.4777e-07	9.4576e-07	205.08	61.254	46.832	14.023	9.3442e-07	19.364	-45.252	130.754	20.968	-39.306	54.396	116.665	-39.356	-31.642	299.246	150.049	-32.213	-25.162	-25.236	-17.428	77.286	-19.023	-8191	255	
1057.378	1	1	0	0	0.21103	0.079606	0.28925	0.22355	0.11717	0.13718	0.42017	0.097364	0.055928	0.12973	0.24111	0.21944	0.039699	0.14018	0.047316	0.082423	-2.0271	-3.5271	-2.8271	-2.9333	-3.4104	-2.6167	-3.3333	-3.4021	-2.5771	-3.2188	-2.95	-2.7542	-3.4208	-2.7833	-3.0292	-3.2646	179.565	167.413	105.951	253.328	49.019	102.150	275.916	258.950	-13.095	125.559	246.165	264.834	-28.422	295.353	145.062	42.275	2.0801e-05	0.00028032	4.0548e-05	875.68	3.8352e-07	2.5701e-06	966.48	190.25	3.8557e-06	1.2302e-06	243.92	67.757	52.526	15.342	1.3348e-06	21.449	8.8e-05	8.5774e-05	2.4238e-05	800.6	9.4616e-07	9.4021e-07	884.23	174.69	9.6186e-07	9.3606e-07	205.28	61.085	46.845	13.991	9.3928e-07	19.312	238.675	83.028	133.008	-39.255	-7.464	142.462	-39.156	-31.544	-21.900	192.071	-32.347	-24.931	-24.765	-17.287	60.688	-18.821	-8191	255	
1057.474	1	1	0	0	0.05791	0.21963	0.12069	0.12146	0.23163	0.15682	0.40699	0.33914	0.22454	0.18453	0.12602	0.15678	0.14094	0.088293	0.19794	0.11903	-2.2938	-3.3292	-3.2167	-2.8688	-3.3521	-2.7708	-3.0563	-3.3958	-2.6021	-3.1833	-3.1917	-2.6833	-3.6125	-2.8271	-2.7292	-3.4083	45.499	-35.184	78.737	23.810	106.342	32.768	308.933	291.063	161.803	159.959	301.476	44.268	253.415	188.627	-2.735	278.234	0.00020958	0.00025351	2.7966e-05	878.27	1.046e-06	1.8438e-06	971.38	190.43	1.0381e-06	3.8862e-06	244.07	67.901	52.046	15.308	1.6118e-06	21.481	8.7794e-05	8.525e-05	2.4457e-05	801.83	9.5213e-07	9.4914e-07	884.41	174.84	9.5753e-07	9.4491e-07	205.35	61.077	46.657	13.987	9.3742e-07	19.308	53.271	226.945	252.885	-39.147	91.638	130.744	-39.178	-31.457	-34.244	162.726	-32.653	-25.031	-24.411	-17.749	-30.531	-18.511	-8191	255	
1057.595	1	1	0	0	0.12483	0.093175	0.15719	0.21575	0.10983	0.17338	0.16215	0.20868	0.13997	0.080922	0.13791	0.33527	0.14274	0.12603	0.024556	0.1596	-2.2646	-3.0563	-3.1854	-2.7729	-3.2604	-2.8896	-2.8646	-3.525	-2.7958	-3.0646	-3.1229	-2.6312	-3.3333	-3.0021	-2.8854	-3.5083	79.437	59.274	-9.195	213.617	140.998	150.389	205.453	275.146	139.542	252.719	2.418	209.634	239.469	60.780	142.744	217.934	0.00030646	9.7916e-05	4.2308e-05	877.39	8.5109e-07	2.3844e-06	972.87	190.3	2.8311e-06	1.8938e-06	244.52	68.399	52.303	15.361	2.7221e-06	21.537	8.5664e-05	8.663e-05	2.3869e-05	799.58	9.4515e-07	9.5409e-07	886.11	174.73	9.4994e-07	9.3621e-07	205.21	61.148	46.824	14	9.4698e-07	19.32	17.623	0.319	47.701	-39.265	-34.821	291.364	-39.167	-31.703	158.790	206.884	-32.630	-25.386	-24.524	-17.343	155.013	-18.178	-8191	255	
1057.691	1	1	0	0	0.2406	0.10511	0.082319	0.18564	0.08691	0.094316	0.18577	0.3349	0.32697	0.22568	0.095563	0.21523	0.15045	0.15642	0.20952	0.24363	-2.5125	-3.0687	-3.2625	-2.7042	-3.4021	-2.8604	-2.9771	-3.4521	-2.6708	-3.0417	-3.3021	-2.7333	-3.1771	-3.3104	-2.6083	-3.4729	96.410	109.324	157.287	301.818	116.649	50.218	272.510	-41.718	27.306	-32.406	144.645	268.721	14.744	-27.926	73.151	211.148	0.00046828	0.00015129	0.00011238	881.37	6.9222e-07	1.8074e-06	972.93	190.88	1.2871e-06	7.8933e-07	244.48	67.249	52.397	15.339	2.8522e-06	21.483	8.7682e-05	8.6253e-05	2.3851e-05	802.11	9.4822e-07	9.4083e-07	883.82	174.82	9.4569e-07	9.3406e-07	205.23	60.972	46.742	13.952	9.3745e-07	19.338	60.422	130.623	166.553	-39.444	158.809	185.012	-39.170	-31.718	174.126	269.041	-32.156	-25.154	-24.589	-17.616	-20.335	-17.969	-8191	255	
1057.785	1	1	0	0	0.16314	0.26903	0.10872	0.17546	0.12253	0.16733	0.14122	0.013247	0.063055	0.18788	0.085699	0.18938	0.15588	0.17455	0.13311	0.072663	-2.4458	-2.8167	-3.4562	-2.75	-3.2104	-3.1417	-2.8208	-3.3854	-2.7833	-2.8708	-3.5667	-2.6792	-3.0771	-3.0833	-2.6667	-3.3958	139.926	202.385	86.641	126.834	191.314	25.498	-31.866	220.085	-47.516	106.881	69.768	265.456	-0.186	272.347	272.790	21.288	0.00023688	0.00016967	3.2475e-05	875.1	1.4266e-06	2.4068e-06	967.74	190.19	1.6051e-06	1.4884e-06	242.18	67.871	52.044	15.229	5.0302e-06	21.525	8.7312e-05	8.7143e-05	2.4086e-05	800.65	9.514e-07	9.3675e-07	882.97	174.79	9.4847e-07	9.3887e-07	204.39	61.11	46.769	13.972	9.3848e-07	19.342	27.497	216.730	-21.173	-39.097	47.699	175.503	-39.124	-31.606	296.686	139.291	-32.096	-25.309	-24.734	-17.495	57.936	-18.407	-8191	255	
1057.882	1	1	0	0	0.090565	0.0668	0.09784	0.22322	0.23007	0.22698	0.2568	0.49028	0.080547	0.34272	0.20254	0.057942	0.12341	0.15683	0.19655	0.21043	-2.3896	-2.9479	-3.4208	-2.7562	-3.1229	-3.0938	-2.7833	-3.3104	-2.9208	-2.7562	-3.4375	-2.7687	-3.0542	-3.3167	-2.6688	-3.4813	250.739	299.146	229.508	243.268	17.500	114.864	-44.439	291.262	224.781	246.533	10.489	80.318	193.188	4.000	65.293	34.208	0.00016322	0.00031838	1.8335e-05	880.3	2.341e-06	3.0102e-06	970.54	190.82	1.3413e-06	1.3014e-06	242.53	67.872	52.232	15.192	1.7359e-06	21.528	8.7252e-05	8.5775e-05	2.3528e-05	802.51	9.5054e-07	9.4398e-07	883.46	174.62	9.4811e-07	9.3748e-07	204.9	61.067	46.776	13.937	9.295e-07	19.367	68.725	60.350	25.041	-39.439	58.239	156.292	-39.495	-31.831	73.324	29.485	-32.117	-25.401	-24.656	-17.509	-43.279	-18.540	-8191	255	
1057.978	1	1	0	0	0.080739	0.093043	0.14644	0.14478	0.079704	0.14763	0.16182	0.20985	0.094638	0.21574	0.23834	0.027792	0.10346	0.20666	0.18891	0.090816	-2.7042	-2.7229	-3.3083	-2.95	-3.125	-3.3854	-2.8063	-3.4896	-3.0896	-2.6063	-3.4458	-2.8104	-2.9646	-3.3375	-2.6479	-3.2625	162.157	289.688	60.506	305.779	149.520	238.494	256.498	39.412	227.790	266.702	-43.488	197.086	-39.669	60.029	289.656	254.071	0.00027719	0.00026237	4.5073e-05	880.55	1.0999e-06	2.2436e-06	967.42	191.54	2.8734e-06	1.7254e-06	242.64	67.253	52.441	15.438	1.8661e-06	21.776	8.7739e-05	8.5275e-05	2.3806e-05	802.15	9.3555e-07	9.3533e-07	883.07	174.77	9.3787e-07	9.3591e-07	204.99	61.077	46.857	14.013	9.3776e-07	19.435	19.310	126.319	18.463	-39.191	54.233	50.405	-39.445	-31.963	100.061	139.553	-33.011	-25.439	-24.902	-17.631	74.473	-18.912	-8191	255	
1058.074	1	1	0	0	0.15233	0.045696	0.22881	0.20379	0.16867	0.13373	0.20288	0.3331	0.081275	0.24884	0.22503	0.21142	0.21441	0.096198	0.27133	0.10231	-2.8208	-2.5812	-3.2646	-2.8875	-2.7271	-3.3479	-2.7438	-3.2417	-3.3271	-2.5	-3.3	-2.8583	-2.7687	-3.3896	-2.8208	-3.1688	83.121	38.709	232.615	-15.883	-17.925	22.819	251.028	268.067	-46.863	232.383	308.547	-46.781	309.453	8.872	138.020	-5.262	0.00045359	0.00038535	6.7409e-05	873.13	2.9175e-06	8.6284e-07	968.95	191.64	1.4726e-06	1.2605e-06	244.9	67.502	52.018	15.365	4.1796e-06	21.383	8.678e-05	8.4363e-05	2.3602e-05	800.34	9.4004e-07	9.3414e-07	882.37	175.21	9.4695e-07	9.39e-07	205.69	61.063	46.574	14.029	9.4729e-07	19.343	31.884	70.604	22.623	-39.318	60.182	30.124	-39.418	-31.870	64.536	293.276	-32.030	-25.290	-25.187	-17.872	37.005	-18.690	-8191	255	
1058.170	1	1	0	0	0.083002	0.23793	0.18178	0.22698	0.26252	0.070733	0.17613	0.17783	0.24367	0.077501	0.17441	0.18015	0.12907	0.021715	0.075331	0.17944	-3.0187	-2.6521	-3.2833	-3.0646	-2.8354	-3.4792	-2.8187	-2.9542	-3.3937	-2.5604	-3.4229	-3.0104	-2.7854	-3.4833	-2.6854	-2.9771	91.416	158.809	302.166	-5.680	48.492	227.023	180.910	292.494	-43.045	-32.590	31.259	-7.588	190.322	255.032	200.167	94.242	0.00010567	0.00020954	0.0001188	872.65	1.1418e-06	1.6783e-06	970.49	191.44	3.3829e-06	2.0494e-06	245.41	68.113	52.202	15.474	2.0235e-06	21.399	8.6384e-05	8.5428e-05	2.3953e-05	800.36	9.4247e-07	9.2996e-07	883.75	175.15	9.377e-07	9.3954e-07	205.69	61.198	46.633	14.022	9.4208e-07	19.354	21.800	53.874	43.566	-39.490	113.980	231.922	-39.144	-31.650	79.109	117.155	-32.432	-25.624	-24.789	-17.814	308.508	-18.079	-8191	255	
1058.291	1	1	0	0	0.14924	0.09423	0.2162	0.22575	0.29424	0.11839	0.27482	0.1594	0.069906	0.24255	0.16088	0.28129	0.092942	0.1937	0.15966	0.15461	-2.9625	-2.425	-3.0875	-3.2083	-2.6813	-3.1437	-2.9333	-2.9271	-3.3083	-2.6583	-3.0938	-3.0833	-2.5521	-3.3896	-2.975	-2.675	84.397	55.652	-11.026	-9.358	223.351	218.810	183.087	-31.627	58.726	281.003	245.455	268.366	211.622	-19.041	211.584	-34.016	9.6009e-05	0.0001553	9.4149e-05	878.56	1.7152e-06	1.1153e-06	968.23	190.18	2.2477e-06	3.3364e-06	242.56	67.747	52.532	15.401	6.0621e-06	21.37	8.608e-05	8.4909e-05	2.4015e-05	800.98	9.2855e-07	9.2359e-07	884.18	174.28	9.3757e-07	9.3441e-07	204.84	61.012	46.678	14.028	9.2503e-07	19.361	274.086	-39.116	-0.441	-39.013	-15.201	89.198	-39.312	-31.468	112.099	160.512	-32.096	-24.889	-24.833	-17.657	-36.047	-18.646	-8191	255	
1058.387	1	1	0	0	0.26508	0.10485	0.17975	0.29301	0.19328	0.048762	0.22013	0.10634	0.18017	0.22695	0.063365	0.1818	0.15702	0.12796	0.12427	0.20569	-3.0333	-2.5896	-3.1146	-3.45	-2.5979	-3.5	-3.0021	-2.8875	-3.3042	-2.6396	-3.0292	-3.2958	-2.6479	-3.3542	-3.0083	-2.7583	178.849	231.709	108.948	280.447	272.948	246.419	239.442	56.672	305.349	285.981	21.828	256.285	77.347	-27.744	216.384	254.432	0.00020386	0.00015633	3.5049e-05	879.22	2.894e-06	2.1286e-06	974.48	190.79	2.1627e-06	1.8124e-06	244.22	67.6	52.666	15.259	1.2415e-06	21.753	8.665e-05	8.6401e-05	2.3622e-05	799.66	9.4878e-07	9.3226e-07	884.49	174.92	9.4459e-07	9.3618e-07	205.49	60.899	46.744	13.947	9.3572e-07	19.356	10.011	43.130	233.468	-39.579	134.514	145.937	-38.826	-31.748	209.074	26.931	-32.437	-25.623	-24.732	-17.597	7.734	-18.180	-8191	255	
1058.483	1	1	0	0	0.126	0.068981	0.067655	0.35785	0.082218	0.030143	0.15024	0.26766	0.15801	0.24484	0.086915	0.12316	0.10956	0.30183	0.16632	0.259	-2.9271	-2.7625	-2.8979	-3.3688	-2.4938	-3.2792	-3.1	-2.6667	-3.3896	-2.8771	-3.025	-3.4458	-2.5563	-3.15	-3.0167	-2.6208	-17.513	56.847	15.929	273.473	153.441	287.015	236.536	243.858	238.714	26.613	291.098	252.803	273.936	31.703	239.994	294.108	0.00019112	0.00019023	8.6084e-05	876.42	1.4885e-06	3.2878e-06	966.75	191.48	1.6986e-06	1.4232e-06	245.04	67.306	52.437	15.335	2.452e-06	21.692	8.6719e-05	8.5889e-05	2.3631e-05	800.01	9.4291e-07	9.3719e-07	882.77	174.8	9.3234e-07	9.4068e-07	205.18	61.004	46.601	13.996	9.3598e-07	19.398	181.069	155.679	296.847	-39.453	61.551	65.907	-38.939	-31.848	21.922	160.845	-31.677	-25.499	-25.161	-17.521	157.790	-18.419	-8191	255	
1058.579	1	1	0	0	0.20724	0.1068	0.25905	0.30411	0.11441	0.28617	0.11314	0.2261	0.10667	0.08209	0.18822	0.089278	0.057238	0.13402	0.042993	0.037133	-2.8792	-2.8521	-2.8167	-3.6292	-2.4875	-3.0563	-3.1937	-2.8104	-3.2938	-2.75	-2.7958	-3.275	-2.7854	-2.9458	-3.2875	-2.5958	277.717	51.778	124.826	238.673	-42.999	215.630	273.880	2.959	-37.665	111.473	40.564	279.532	183.759	174.698	293.381	7.236	0.00019732	0.00012895	5.7339e-05	877.24	1.7434e-06	3.8945e-06	971.63	191.14	1.6701e-06	7.5495e-07	244.08	67.776	51.946	15.341	1.3901e-06	21.241	8.6646e-05	8.5694e-05	2.3501e-05	802.18	9.4314e-07	9.3471e-07	883.03	174.93	9.3834e-07	9.2953e-07	204.78	61.01	46.519	14.02	9.4042e-07	19.255	5.336	-38.486	94.957	-39.614	224.091	130.883	-39.725	-31.895	269.218	0.326	-32.273	-25.448	-25.679	-17.720	235.889	-18.599	-8191	255	
1058.675	1	1	0	0	0.032281	0.22032	0.040195	0.12608	0.15275	0.1132	0.27358	0.22647	0.16323	0.1943	0.069962	0.19985	0.094311	0.10388	0.22111	0.25199	-2.9833	-3.0229	-2.5667	-3.4708	-2.6417	-3.0604	-3.4313	-2.4729	-3.2521	-2.9604	-2.6354	-3.2667	-2.7917	-2.9542	-3.3854	-2.5687	187.267	240.518	167.790	-35.816	220.227	299.998	182.989	215.657	309.225	167.624	123.702	221.009	261.791	256.674	-30.455	115.202	0.00025036	0.00042272	3.4731e-05	875.94	7.7818e-07	1.1577e-06	969.64	190.22	1.7276e-06	2.0834e-06	243.4	67.68	52.324	15.316	5.1405e-06	21.488	8.6681e-05	8.4978e-05	2.3787e-05	800.59	9.5039e-07	9.3575e-07	883.29	174.26	9.4485e-07	9.414e-07	205.1	60.964	46.718	14.021	9.3895e-07	19.33	27.678	200.265	47.372	-39.350	175.563	78.611	-39.403	-32.123	16.447	234.467	-32.843	-25.654	-25.099	-17.441	61.724	-17.949	-8191	255	
1058.771	1	1	0	0	0.17339	0.10138	0.20419	0.044707	0.067036	0.17475	0.30752	0.10747	0.21294	0.15265	0.17117	0.21053	0.17529	0.1587	0.072215	0.19028	-2.9625	-2.9771	-2.5083	-3.5958	-2.875	-2.8125	-3.5563	-2.7333	-3.1292	-3.2438	-2.5042	-3.5292	-2.8312	-2.9104	-3.4021	-2.9813	41.613	55.803	274.213	145.514	72.527	150.792	278.504	189.201	69.115	102.078	282.697	242.144	3.617	306.018	62.347	-50.239	0.00026836	0.00032867	8.5492e-05	876.81	4.792e-07	9.2178e-07	974.1	190.42	4.011e-07	2.0608e-06	245.42	67.734	52.387	15.257	1.3257e-06	21.378	8.6702e-05	8.545e-05	2.4141e-05	802.69	9.4118e-07	9.3638e-07	885.79	174.74	9.5243e-07	9.3874e-07	205.39	61.158	46.679	14.005	9.3958e-07	19.307	-26.278	85.895	47.907	-39.588	-32.953	71.378	-39.487	-32.256	202.265	50.449	-32.341	-24.821	-24.898	-17.725	25.590	-18.800	-8191	255	
1058.890	1	1	0	0	0.096075	0.11447	0.22551	0.079194	0.19181	0.1279	0.22812	0.20045	0.31056	0.05103	0.047119	0.25789	0.33845	0.024873	0.13428	0.2688	-2.7229	-3.4125	-2.6708	-3.5042	-2.9021	-2.85	-3.5083	-2.7062	-3.2271	-3.2	-2.7229	-3.4417	-2.9562	-2.8438	-3.3833	-2.8458	33.396	298.781	117.084	-32.034	148.201	139.122	211.968	-48.652	307.579	39.069	243.038	269.398	280.796	-24.756	197.892	194.877	6.2441e-05	0.00018057	4.5745e-05	879.46	2.9039e-06	2.1924e-06	970.39	190.85	2.9845e-06	2.7036e-06	243.55	68.413	52.071	15.36	1.4544e-06	21.365	8.6636e-05	8.484e-05	2.3702e-05	802.37	9.3186e-07	9.3497e-07	885.16	174.56	9.5648e-07	9.274e-07	205.71	61.276	46.538	14.015	9.3254e-07	19.295	295.911	298.642	27.051	-39.236	99.899	47.367	-39.225	-31.841	2.309	78.053	-32.377	-25.449	-24.806	-17.998	-37.013	-18.913	-8191	255	
1058.986	1	1	0	0	0.067768	0.22221	0.16794	0.22393	0.12488	0.027343	0.23002	0.22565	0.060014	0.12254	0.10478	0.079304	0.15878	0.042713	0.10727	0.24969	-2.6875	-3.1688	-2.6542	-3.5583	-2.95	-2.7042	-3.5396	-2.7625	-2.8312	-3.2729	-2.4917	-3.2	-3.0917	-2.5542	-3.2917	-2.8979	236.371	-31.709	171.572	-14.201	127.653	189.700	-48.190	220.157	211.924	272.869	184.301	146.480	265.195	9.663	178.758	-30.316	9.1272e-05	0.00046901	5.9806e-05	872.02	7.9255e-07	4.2198e-06	973.71	190.48	3.07e-06	9.4042e-07	246.09	67.642	52.535	15.137	3.8261e-06	21.801	8.5762e-05	8.4583e-05	2.3647e-05	799.04	9.3856e-07	9.2659e-07	885.36	174.51	9.4215e-07	9.3557e-07	205.24	61.213	46.816	13.955	9.3395e-07	19.373	125.117	112.553	10.931	-39.533	181.266	55.481	-39.472	-32.146	53.240	122.040	-32.351	-25.228	-25.170	-17.903	72.584	-18.292	-8191	255	
1059.083	1	1	0	0	0.1787	0.10351	0.11516	0.19402	0.22805	0.13772	0.22063	0.24082	0.12357	0.072509	0.042749	0.086435	0.37121	0.069646	0.13913	0.079623	-2.3104	-3.4979	-2.5833	-3.1813	-3.1688	-2.6667	-3.4521	-2.9917	-2.8229	-3.3875	-2.6271	-3.0167	-3.1333	-2.6937	-3.4625	-2.9188	131.198	271.902	49.101	298.265	126.012	-29.152	284.835	214.542	44.368	262.575	219.268	81.104	282.083	243.917	294.000	24.401	0.00022836	0.00015345	5.6115e-05	876.48	3.6051e-06	1.7851e-06	969.16	191.23	1.1887e-06	4.58e-06	244.86	68.102	52.289	15.383	2.6745e-06	21.435	8.6075e-05	8.6322e-05	2.3569e-05	802.92	9.2898e-07	9.3598e-07	884.97	174.89	9.5014e-07	9.3648e-07	205.12	61.168	46.675	13.982	9.2999e-07	19.356	-0.007	202.972	-3.717	-39.133	54.439	85.014	-39.374	-32.060	65.470	237.971	-32.376	-25.360	-24.995	-17.830	58.870	-18.744	-8191	255	
1059.179	1	1	0	0	0.097458	0.082688	0.10641	0.19243	0.19017	0.039266	0.30022	0.08539	0.1022	0.16728	0.075919	0.17909	0.2338	0.24305	0.062041	0.21091	-2.1521	-3.5292	-2.7958	-3.1312	-3.2479	-2.6312	-3.4521	-3.1479	-2.7792	-3.4354	-2.7979	-3.1083	-3.4458	-2.6292	-3.3167	-3.1625	107.339	-47.952	140.679	211.036	189.388	-33.019	224.700	165.067	114.839	270.133	224.518	251.311	209.880	274.516	289.214	242.439	0.00020734	9.6897e-05	3.4715e-05	878.74	8.6831e-07	2.9017e-06	965.61	190.92	5.0702e-07	1.7612e-06	242.28	67.749	52.703	15.275	5.5894e-06	21.572	8.7395e-05	8.5731e-05	2.3675e-05	801.56	9.3553e-07	9.4229e-07	883.18	174.83	9.4755e-07	9.4579e-07	204.4	61.05	46.735	13.98	9.5552e-07	19.367	-30.566	31.783	41.043	-39.273	79.518	131.248	-39.245	-31.816	-16.951	302.825	-32.519	-25.621	-25.038	-18.111	69.510	-18.515	-8191	255	
1059.275	1	1	0	0	0.15952	0.15596	0.057399	0.07975	0.15346	0.22433	0.25693	0.21617	0.22794	0.20506	0.3833	0.066041	0.088445	0.20552	0.11643	0.075252	-2.2104	-3.3167	-2.7229	-2.9583	-3.55	-2.7313	-3.3375	-3.2604	-2.5292	-3.5229	-2.8542	-2.7875	-3.2771	-2.6917	-3.1437	-3.3104	49.100	150.262	-37.793	281.395	234.990	45.499	258.611	188.203	-40.862	202.945	235.145	243.072	38.211	228.113	-44.542	192.280	7.2339e-05	9.4993e-05	4.2496e-05	874.29	3.1582e-06	2.6406e-06	970.14	191.39	2.5336e-06	2.6058e-06	243.69	67.002	51.957	15.353	9.613e-07	21.658	8.8555e-05	8.6257e-05	2.4166e-05	800.37	9.4052e-07	9.5967e-07	884.15	175.02	9.6358e-07	9.5247e-07	205.44	60.937	46.537	14.01	9.6045e-07	19.367	166.852	192.442	42.211	-39.270	113.203	230.138	-39.308	-31.750	127.605	177.276	-32.417	-25.319	-25.050	-17.921	137.199	-19.286	-8191	255	
#DATA ENDS
