BOXY.EXE: ISS Imagent and Oximeter Data Acquisition Program Version 0.80
Ascii Record File

#ACQ INFORMATION
2  Detector Channels 
16  External MUX Channels 
1  Auxiliary Channels 
5000  Waveform (CCF) Frequency (Hz)
1  Waveforms Skipped 
30  Waveforms Averaged 
1  Cycles Averaged 
16  Acquisitions per Waveform 
10.0806  Updata Rate (Hz) 

#FILE INFORMATION
TRUE -- External MUX Channel results are PARSED.
FALSE -- AC DC and Phase are NOT grouped.
TRUE -- Companion Program Settings File CREATED.
FALSE -- AC data not excluded
FALSE -- DC data not excluded
FALSE -- Phase data not excluded
FALSE -- Auxillary Chn. data not excluded
Tab delimiters

#CALIBRATION STATE
TRUE -- Waveform Calibration Values APPLIED.


#AUX CALIBRATION VALUES
Val Type	aux-1	

Term	1.0000e+00	
Factor	0.0000e+00	


#WF CALIBRATION VALUES
A = Detector Channel
Val Type	A-AC1	A-AC2	A-AC3	A-AC4	A-AC5	A-AC6	A-AC7	A-AC8	A-AC9	A-AC10	A-AC11	A-AC12	A-AC13	A-AC14	A-AC15	A-AC16	A-DC1	A-DC2	A-DC3	A-DC4	A-DC5	A-DC6	A-DC7	A-DC8	A-DC9	A-DC10	A-DC11	A-DC12	A-DC13	A-DC14	A-DC15	A-DC16	A-Ph1	A-Ph2	A-Ph3	A-Ph4	A-Ph5	A-Ph6	A-Ph7	A-Ph8	A-Ph9	A-Ph10	A-Ph11	A-Ph12	A-Ph13	A-Ph14	A-Ph15	A-Ph16	

Term	0.00000e+00	0.00000e+00	0.00000e+00	0.00000e+00	0.00000e+00	0.00000e+00	0.00000e+00	0.00000e+00	0.00000e+00	0.00000e+00	0.00000e+00	0.00000e+00	0.00000e+00	0.00000e+00	0.00000e+00	0.00000e+00	0.00000e+00	0.00000e+00	0.00000e+00	0.00000e+00	0.00000e+00	0.00000e+00	0.00000e+00	0.00000e+00	0.00000e+00	0.00000e+00	0.00000e+00	0.00000e+00	0.00000e+00	0.00000e+00	0.00000e+00	0.00000e+00	0.00000e+00	0.00000e+00	0.00000e+00	0.00000e+00	0.00000e+00	0.00000e+00	0.00000e+00	0.00000e+00	0.00000e+00	0.00000e+00	0.00000e+00	0.00000e+00	0.00000e+00	0.00000e+00	0.00000e+00	0.00000e+00	
Factor	1.00000e+00	1.00000e+00	1.00000e+00	1.00000e+00	1.00000e+00	1.00000e+00	1.00000e+00	1.00000e+00	1.00000e+00	1.00000e+00	1.00000e+00	1.00000e+00	1.00000e+00	1.00000e+00	1.00000e+00	1.00000e+00	1.00000e+00	1.00000e+00	1.00000e+00	1.00000e+00	1.00000e+00	1.00000e+00	1.00000e+00	1.00000e+00	1.00000e+00	1.00000e+00	1.00000e+00	1.00000e+00	1.00000e+00	1.00000e+00	1.00000e+00	1.00000e+00	X	X	X	X	X	X	X	X	X	X	X	X	X	X	X	X	

B = Detector Channel
Val Type	B-AC1	B-AC2	B-AC3	B-AC4	B-AC5	B-AC6	B-AC7	B-AC8	B-AC9	B-AC10	B-AC11	B-AC12	B-AC13	B-AC14	B-AC15	B-AC16	B-DC1	B-DC2	B-DC3	B-DC4	B-DC5	B-DC6	B-DC7	B-DC8	B-DC9	B-DC10	B-DC11	B-DC12	B-DC13	B-DC14	B-DC15	B-DC16	B-Ph1	B-Ph2	B-Ph3	B-Ph4	B-Ph5	B-Ph6	B-Ph7	B-Ph8	B-Ph9	B-Ph10	B-Ph11	B-Ph12	B-Ph13	B-Ph14	B-Ph15	B-Ph16	

Term	0.00000e+00	0.00000e+00	0.00000e+00	0.00000e+00	0.00000e+00	0.00000e+00	0.00000e+00	0.00000e+00	0.00000e+00	0.00000e+00	0.00000e+00	0.00000e+00	0.00000e+00	0.00000e+00	0.00000e+00	0.00000e+00	0.00000e+00	0.00000e+00	0.00000e+00	0.00000e+00	0.00000e+00	0.00000e+00	0.00000e+00	0.00000e+00	0.00000e+00	0.00000e+00	0.00000e+00	0.00000e+00	0.00000e+00	0.00000e+00	0.00000e+00	0.00000e+00	-2.40346e+02	-8.60789e+01	-1.37580e+02	-1.81794e+02	-9.56072e+01	-6.15362e+01	-1.55227e+02	-1.62015e+02	-7.62495e+01	-2.08821e+01	-1.76015e+02	-1.69664e+02	-1.83008e+02	-1.76920e+02	-1.10967e+02	-1.49451e+02	
Factor	4.41567e-05	7.28733e-05	1.84622e-05	1.45759e-01	5.45265e-07	6.77868e-07	1.58711e-01	4.73567e-02	6.69312e-07	6.60670e-07	1.20289e-01	2.57934e-02	2.57211e-02	8.47169e-03	7.26230e-07	1.17836e-02	2.97384e-07	2.98781e-07	8.31620e-08	7.06932e-02	3.27491e-09	3.27375e-09	7.22083e-02	2.26007e-02	3.28093e-09	3.27436e-09	4.87179e-02	1.14701e-02	1.15018e-02	3.84075e-03	3.27804e-09	5.10611e-03	X	X	X	X	X	X	X	X	X	X	X	X	X	X	X	X	



#DISTANCE SETTINGS
A = Detector Channel
A-1	A-2	A-3	A-4	A-5	A-6	A-7	A-8	A-9	A-10	A-11	A-12	A-13	A-14	A-15	A-16	

2.5000e+00	3.0000e+00	2.5000e+00	3.0000e+00	2.0000e+00	3.0000e+00	1.5000e+00	3.0000e+00	3.0000e+00	3.0000e+00	3.0000e+00	3.0000e+00	3.0000e+00	3.0000e+00	1.5000e+00	3.0000e+00	

B = Detector Channel
B-1	B-2	B-3	B-4	B-5	B-6	B-7	B-8	B-9	B-10	B-11	B-12	B-13	B-14	B-15	B-16	

1.0000e+01	1.0000e+01	1.0000e+01	1.4400e+00	1.0000e+01	1.0000e+01	1.5100e+00	1.9400e+00	1.0000e+01	1.0000e+01	1.9900e+00	2.4900e+00	2.4100e+00	2.9000e+00	1.0000e+01	2.9800e+00	




#DATA BEGINS
time	group	step	mark	flag	A-AC1	A-AC2	A-AC3	A-AC4	A-AC5	A-AC6	A-AC7	A-AC8	A-AC9	A-AC10	A-AC11	A-AC12	A-AC13	A-AC14	A-AC15	A-AC16	A-DC1	A-DC2	A-DC3	A-DC4	A-DC5	A-DC6	A-DC7	A-DC8	A-DC9	A-DC10	A-DC11	A-DC12	A-DC13	A-DC14	A-DC15	A-DC16	A-Ph1	A-Ph2	A-Ph3	A-Ph4	A-Ph5	A-Ph6	A-Ph7	A-Ph8	A-Ph9	A-Ph10	A-Ph11	A-Ph12	A-Ph13	A-Ph14	A-Ph15	A-Ph16	B-AC1	B-AC2	B-AC3	B-AC4	B-AC5	B-AC6	B-AC7	B-AC8	B-AC9	B-AC10	B-AC11	B-AC12	B-AC13	B-AC14	B-AC15	B-AC16	B-DC1	B-DC2	B-DC3	B-DC4	B-DC5	B-DC6	B-DC7	B-DC8	B-DC9	B-DC10	B-DC11	B-DC12	B-DC13	B-DC14	B-DC15	B-DC16	B-Ph1	B-Ph2	B-Ph3	B-Ph4	B-Ph5	B-Ph6	B-Ph7	B-Ph8	B-Ph9	B-Ph10	B-Ph11	B-Ph12	B-Ph13	B-Ph14	B-Ph15	B-Ph16	aux-1	digaux	

1725.862	1	1	0	256	0.098599	0.054907	0.088844	0.25605	0.39987	0.15281	0.035377	0.23912	0.063727	0.11213	0.20846	0.33501	0.21463	0.050192	0.19571	0.23384	-3.1229	-2.7729	-2.6396	-3.3729	-2.775	-3.0062	-3.3771	-2.8854	-3.3812	-3.0604	-2.6375	-3.5021	-2.7271	-3.0854	-3.1771	-2.7729	236.269	243.158	376.489	332.043	97.330	140.511	213.540	318.259	379.694	160.222	312.775	47.019	305.290	100.644	224.408	336.767	0.0012658	0.00098929	8.3676e-05	717.22	5.356e-06	8.2801e-06	1056.7	247.32	7.4228e-06	9.0257e-06	424.35	154.4	88.689	30.248	2.3191e-06	62.089	0.00036472	0.00036058	9.9796e-05	640.65	3.9422e-06	3.9465e-06	907.51	215.99	3.975e-06	3.963e-06	347.04	126.76	76.874	26.432	3.9208e-06	50.414	67.764	125.316	342.166	42.346	108.869	359.038	41.432	47.076	167.526	347.173	45.230	50.067	51.851	56.421	320.462	53.098	-8191	255	
1725.958	1	1	0	0	0.12358	0.12101	0.17358	0.14171	0.2265	0.28271	0.20408	0.17865	0.14827	0.12734	0.076619	0.21209	0.11267	0.086684	0.09237	0.15797	-2.8708	-2.9604	-2.7396	-3.4396	-2.7625	-2.875	-3.4042	-2.7583	-3.2313	-3.2042	-2.7125	-3.3146	-2.9146	-2.9417	-3.3271	-2.7875	44.210	73.837	158.293	343.336	202.125	76.760	55.086	278.690	95.544	169.963	320.643	376.945	198.072	254.264	111.907	239.637	0.0011831	0.00095554	0.00020595	721.36	8.0813e-06	5.8644e-06	1065.9	249.1	6.7285e-06	4.5416e-06	426.55	154.04	87.497	30.038	7.7178e-06	62.128	0.00036628	0.00036418	0.00010067	644.83	3.9588e-06	3.9821e-06	910.46	217	4.0316e-06	3.9799e-06	348.15	126.73	76.503	26.384	3.9704e-06	50.557	33.066	182.836	106.942	42.258	193.115	213.140	41.208	47.305	128.028	341.004	45.434	49.734	51.434	56.633	277.015	53.479	-8191	255	
1726.054	1	1	0	0	0.24658	0.12087	0.034322	0.23699	0.1138	0.20116	0.37708	0.2849	0.35836	0.15459	0.092093	0.084654	0.28427	0.3336	0.21741	0.15336	-2.7292	-3.2313	-2.5729	-3.4208	-2.7812	-2.7021	-3.4938	-2.75	-3.1188	-3.1521	-2.5542	-3.3458	-2.8375	-2.8396	-3.3729	-2.7583	186.120	263.657	339.713	362.048	305.622	379.355	295.914	333.221	171.998	141.924	81.658	182.242	290.312	373.259	352.869	172.925	0.0013666	0.0011325	9.3751e-05	727.29	8.8923e-06	1.4275e-06	1068.6	248.24	6.0973e-06	2.5008e-06	422.59	155.3	87.731	29.779	4.7192e-06	61.674	0.00036868	0.00036425	0.00010173	649.51	4.0143e-06	3.9765e-06	914.51	216.94	4.0446e-06	3.973e-06	348.42	127.54	77.031	26.411	4.0116e-06	50.713	50.448	320.925	181.600	42.451	48.621	174.898	41.203	46.959	297.878	136.942	45.494	50.001	51.087	57.057	278.951	53.613	-8191	255	
1726.150	1	1	0	0	0.18146	0.16089	0.12357	0.14056	0.15593	0.30722	0.29493	0.20999	0.23758	0.10865	0.27782	0.082717	0.082337	0.074824	0.13138	0.1926	-2.5771	-3.3396	-2.6396	-3.3667	-2.9813	-2.7938	-3.4437	-2.7542	-2.9146	-3.2292	-2.7687	-3.3229	-3.1208	-2.7646	-3.4104	-2.925	320.683	59.687	66.497	374.336	195.605	149.889	337.356	302.339	98.052	91.676	271.489	93.305	43.012	327.874	366.096	356.402	0.00097514	0.00096452	0.00017859	730.28	6.6791e-06	1.14e-05	1068.8	248.47	9e-06	6.5735e-06	426.31	154.57	87.375	29.98	1.0628e-05	61.799	0.00036994	0.00036568	0.00010165	648.17	4.0081e-06	4.0112e-06	912.72	216.59	4.0376e-06	3.9875e-06	347.39	126.98	76.844	26.421	4.0269e-06	50.47	40.976	152.773	95.788	42.249	54.142	160.646	41.447	47.413	76.250	268.971	45.357	49.895	51.125	56.452	202.195	53.223	-8191	255	
1726.271	1	1	0	0	0.17326	0.064592	0.21044	0.13341	0.14505	0.063585	0.089131	0.24531	0.16649	0.0042997	0.35769	0.080087	0.097807	0.20639	0.048237	0.26436	-2.4542	-3.3521	-2.6333	-3.2333	-3.0396	-2.7271	-3.4896	-2.8104	-2.8354	-3.3521	-2.7208	-3.15	-3.0938	-2.5021	-3.2687	-2.8521	119.813	217.476	357.290	293.649	298.390	61.272	344.896	260.717	79.745	253.905	340.287	317.322	317.323	49.933	79.710	319.849	0.0010623	0.0011045	0.00023448	724.49	6.7789e-06	7.1769e-06	1062.9	247.63	1.1373e-05	4.8571e-06	419.59	152.67	87.153	29.489	2.3753e-06	61.461	0.00036808	0.00036927	0.00010236	647.97	4.0327e-06	4.0301e-06	911.34	215.88	4.024e-06	4.0443e-06	345.77	125.92	76.616	26.171	4.064e-06	50.44	350.210	155.605	136.455	42.221	194.069	275.403	41.374	47.395	137.903	177.034	45.353	49.735	51.498	56.260	97.757	53.517	-8191	255	
1726.343	1	1	0	0	0.046864	0.094218	0.21902	0.19762	0.1749	0.21507	0.36895	0.090796	0.19298	0.041379	0.14947	0.075206	0.25807	0.11856	0.10969	0.24611	-2.2646	-3.1688	-2.5875	-3.0583	-3.1417	-2.5292	-3.5458	-3.0875	-2.8354	-3.3937	-2.65	-3.0187	-3.4188	-2.5062	-3.2458	-3.1354	242.338	244.433	235.072	350.937	290.449	238.225	315.971	68.530	381.233	385.268	41.587	29.137	379.601	340.691	203.270	370.793	0.00096562	0.00015753	7.1951e-05	715.91	5.1676e-06	3.138e-06	1068.9	249.6	7.2865e-06	1.3279e-05	427.9	152.32	86.664	29.535	7.617e-06	61.824	0.000373	0.00037131	0.00010299	644.65	4.1034e-06	4.1136e-06	910.83	218.49	4.1227e-06	4.0993e-06	349.1	126.29	76.13	26.221	4.0779e-06	50.291	373.859	91.351	206.697	42.008	244.622	151.450	41.547	47.098	329.144	112.349	45.279	50.407	51.541	56.561	143.762	53.803	-8191	255	
1726.439	1	1	0	0	0.16095	0.046389	0.11831	0.094744	0.15522	0.22295	0.059871	0.077305	0.20213	0.1384	0.061992	0.19665	0.098323	0.1431	0.09774	0.028737	-2.3396	-3.3958	-2.8	-2.9854	-3.3208	-2.5479	-3.4104	-3.3333	-2.5667	-3.4104	-2.8042	-3.0396	-3.4208	-2.5542	-3.1437	-3.3479	306.312	95.951	367.947	206.093	116.979	100.105	350.628	310.038	74.926	72.370	379.945	270.296	307.420	368.238	366.492	130.908	0.00055457	0.00036518	8.1545e-05	720.76	8.813e-06	6.0405e-06	1063.2	248.71	1.138e-05	1.1657e-05	422.42	152.98	88.459	29.4	1.3725e-05	62.16	0.00037261	0.00036816	0.00010222	644.95	4.0135e-06	3.9955e-06	910.64	217.67	4.0163e-06	4.0389e-06	346.78	126.15	76.458	26.062	3.9683e-06	50.4	31.917	147.048	159.389	41.877	345.106	188.485	41.309	47.261	129.807	200.448	45.615	49.955	51.049	56.573	90.103	53.176	-8191	255	
1726.559	1	1	0	0	0.030867	0.12188	0.18071	0.22271	0.058869	0.1001	0.14056	0.35701	0.21534	0.25259	0.14786	0.1192	0.15838	0.12337	0.17875	0.43082	-2.2188	-3.4521	-2.7854	-2.8854	-3.5438	-2.5	-3.3104	-3.2333	-2.6792	-3.3417	-3.0604	-2.8771	-3.3417	-2.6375	-2.8792	-3.3792	166.919	257.483	116.255	282.549	31.611	348.072	256.166	345.163	137.193	369.718	31.701	303.099	97.175	149.593	48.888	353.421	0.0015612	0.00044289	0.00012743	729.37	5.6738e-06	2.9476e-06	1062.4	246.72	4.6248e-06	2.3201e-06	426.49	155.27	88.237	29.834	4.8896e-06	63.058	0.00036054	0.00035979	9.9176e-05	647.98	3.9123e-06	3.8816e-06	910.89	216.25	3.8789e-06	3.9071e-06	347.46	127.3	76.972	26.212	3.9396e-06	50.877	51.999	189.523	220.349	42.220	364.493	187.957	41.734	47.676	182.540	218.175	45.475	50.144	51.957	56.635	93.630	53.500	-8191	255	
1726.654	1	1	0	0	0.54517	0.092117	0.37737	0.10906	0.094403	0.094328	0.34418	0.41482	0.19118	0.11318	0.021238	0.13521	0.19766	0.081412	0.18106	0.30718	-2.2792	-3.3042	-2.9146	-2.9521	-3.3917	-2.6646	-3.0312	-3.2938	-2.5833	-3.125	-3.2125	-2.7229	-3.3354	-2.8771	-2.9375	-3.5417	278.908	315.243	142.891	322.231	377.304	191.913	296.927	313.797	62.520	152.283	94.600	233.095	369.230	94.380	326.966	370.881	0.00098009	0.00099529	0.00020784	726.02	4.3713e-07	4.3054e-06	1066.5	249.74	6.8224e-06	8.9956e-06	428.46	153.89	89.206	29.934	8.703e-06	62.389	0.00035944	0.00035552	9.9526e-05	648.31	3.9676e-06	3.9109e-06	911.35	217.35	3.9515e-06	3.93e-06	347.38	126.6	77.001	26.202	3.9655e-06	50.658	385.109	78.099	184.606	42.206	76.364	68.032	41.563	47.093	170.358	272.500	45.395	49.920	51.154	56.791	102.843	54.041	-8191	255	
1726.750	1	1	0	0	0.34132	0.078032	0.13567	0.074805	0.22769	0.020148	0.13316	0.08712	0.12728	0.21207	0.10818	0.29722	0.17192	0.14854	0.22458	0.23245	-2.4208	-3.0479	-3.2375	-2.4708	-3.3167	-2.8958	-2.9125	-3.3646	-2.625	-3.1625	-3.1896	-2.6562	-3.3396	-2.8792	-2.5833	-3.6167	73.969	380.630	290.544	319.878	321.687	330.451	154.921	46.971	74.336	325.916	80.949	380.056	266.567	116.408	238.934	38.121	0.00076573	0.00039495	2.7883e-05	723.41	3.9105e-06	2.5034e-06	1063.6	248.31	5.5649e-06	7.0016e-06	427.31	153	87.889	29.862	5.2162e-06	62.074	0.00036043	0.00035879	9.9381e-05	646.87	3.9478e-06	3.9174e-06	911.3	216.85	3.9779e-06	3.9245e-06	346.92	126.09	76.668	26.084	3.9284e-06	50.524	37.007	93.446	349.501	42.437	238.268	251.876	41.667	47.135	322.988	290.052	45.861	49.920	51.879	56.977	388.203	53.415	-8191	255	
1726.846	1	1	0	0	0.051777	0.1478	0.040941	0.18283	0.18617	0.22001	0.14284	0.20344	0.13046	0.18832	0.27069	0.19894	0.26569	0.2843	0.077333	0.20303	-2.2625	-3.1167	-3.1604	-2.725	-3.3833	-3.0521	-2.8396	-3.4083	-2.6479	-3.0354	-3.2313	-2.7458	-3.3479	-3.0625	-2.6229	-3.4729	152.068	235.191	34.747	354.413	325.734	337.836	33.938	330.577	200.718	273.616	287.045	294.320	309.239	342.061	39.911	41.006	0.00093514	0.00048281	0.0002415	731.64	6.1025e-06	2.9115e-06	1062.7	251.12	8.5014e-06	1.3119e-05	421.58	152.39	87.914	30.021	7.0282e-06	62.18	0.00035858	0.00036243	9.9473e-05	651.32	3.9581e-06	3.9539e-06	912.15	217.55	3.9534e-06	3.9004e-06	346.34	126.08	76.534	26.147	3.9318e-06	50.448	356.739	196.319	80.902	42.849	201.592	292.239	41.917	47.718	312.256	308.622	45.645	49.700	51.989	56.607	189.005	53.684	-8191	255	
1726.942	1	1	0	0	0.073657	0.078683	0.13615	0.090696	0.073179	0.1733	0.10264	0.19526	0.20889	0.16357	0.07073	0.088412	0.10497	0.27601	0.23369	0.14475	-2.2479	-2.8479	-3.3125	-2.6854	-3.2021	-3.0771	-2.7042	-3.3833	-2.8396	-2.975	-3.2958	-2.7687	-3.1417	-3.3042	-2.6146	-3.4313	172.211	320.802	245.091	382.471	367.062	156.348	128.004	34.602	136.539	279.404	278.444	96.046	76.551	351.330	259.972	250.713	0.0010634	0.0016479	0.00025431	726.16	4.7823e-06	5.1596e-06	1057.7	249.51	8.4571e-06	7.2894e-06	426.23	150.95	87.332	29.523	1.3414e-06	61.853	0.00036096	0.00036186	9.9461e-05	647.02	3.9706e-06	3.887e-06	905.82	217.29	3.9613e-06	3.9066e-06	346.33	124.97	76.298	26.119	3.9313e-06	50.145	37.097	284.385	212.380	41.967	30.369	335.591	41.664	46.946	252.433	371.150	45.270	50.140	51.552	56.538	45.651	53.756	-8191	255	
1727.038	1	1	0	0	0.11685	0.059584	0.12103	0.15239	0.051079	0.098641	0.1206	0.1597	0.087072	0.079688	0.1393	0.23939	0.41591	0.29049	0.14076	0.078632	-2.4458	-2.8521	-3.1354	-2.6813	-3.2875	-3.2938	-2.5208	-3.4208	-2.875	-2.7354	-3.3583	-2.7167	-3.0854	-3.1896	-2.6937	-3.4729	237.563	355.759	62.479	383.538	365.442	45.475	360.869	310.107	64.200	63.844	62.501	336.696	53.316	289.539	33.680	383.351	0.00024588	0.00067737	0.00022798	722.84	1.495e-06	3.9525e-06	1060.8	247.5	3.7053e-06	8.2454e-06	422.47	152.5	88.167	30.007	8.4716e-06	62.362	0.00036652	0.00036059	9.9837e-05	645.51	3.932e-06	3.9085e-06	906.57	216.09	3.9061e-06	3.8927e-06	344.59	126.01	76.83	26.257	3.91e-06	50.572	366.364	53.075	133.486	42.298	82.240	224.139	41.693	47.670	103.408	98.168	45.889	49.918	51.583	56.293	263.586	53.724	-8191	255	
1727.159	1	1	0	0	0.25178	0.079032	0.092897	0.18318	0.096608	0.080658	0.091511	0.098597	0.084815	0.059696	0.088482	0.24567	0.18158	0.1027	0.30415	0.092107	-2.5792	-2.6667	-3.4667	-2.7896	-3.0083	-3.2	-2.7604	-3.4313	-3.025	-2.5812	-3.4354	-2.6646	-2.9562	-3.2	-2.4729	-3.4042	333.166	360.806	353.510	33.701	189.987	354.148	32.712	313.371	290.733	208.035	284.702	53.304	289.496	167.660	174.815	339.107	0.0013347	0.0003416	0.00011803	723.47	5.0205e-06	7.5009e-06	1056.8	249.54	3.4159e-06	1.0595e-06	426.83	154.68	88.841	29.978	6.8169e-06	63.003	0.00036071	0.00035754	9.9472e-05	644.5	3.9079e-06	3.9303e-06	907.59	217.41	3.8917e-06	3.9227e-06	347.21	126.93	77.243	26.35	3.9763e-06	50.953	44.629	214.094	92.785	42.210	235.175	65.168	41.278	47.113	235.374	190.052	44.830	49.828	50.438	56.430	160.257	52.959	-8191	255	
1727.255	1	1	0	0	0.10805	0.16801	0.069286	0.1558	0.19168	0.023933	0.21829	0.318	0.089941	0.05979	0.073885	0.19309	0.096693	0.054139	0.058993	0.23216	-2.4229	-2.6521	-3.2208	-2.775	-2.7062	-3.3979	-2.8187	-3.1833	-3.1	-2.6333	-3.2542	-3.0167	-2.8896	-3.4333	-2.5167	-3.0646	76.878	228.119	87.701	33.965	342.679	365.805	48.998	309.842	355.504	251.637	382.739	375.675	309.789	101.786	231.465	272.594	0.00098402	0.00068567	8.0743e-05	726.43	8.1261e-06	9.6343e-06	1074.4	251.06	1.2782e-05	4.3705e-06	424.91	153.36	88.443	29.88	7.0988e-06	62.825	0.00036336	0.00036087	0.00010094	649.98	3.9356e-06	3.95e-06	915.12	218.41	3.9762e-06	3.973e-06	347.71	126.87	77.149	26.459	3.9813e-06	50.973	39.138	301.671	322.563	42.536	85.201	296.168	41.001	46.902	82.200	131.323	45.613	49.823	50.751	56.026	151.352	53.189	-8191	255	
1727.351	1	1	0	0	0.17561	0.20164	0.11919	0.27516	0.01093	0.26182	0.22493	0.066687	0.1422	0.13144	0.10966	0.24419	0.18103	0.15778	0.19328	0.15812	-2.9146	-2.3563	-3.4104	-2.9167	-2.8771	-3.5271	-2.7542	-3.1292	-3.1625	-2.5125	-3.3375	-2.9958	-2.7146	-3.4542	-2.7208	-2.975	177.389	42.707	259.604	336.901	286.640	210.015	257.648	130.832	295.416	257.856	267.916	349.244	331.675	214.884	376.275	275.979	0.00091935	0.0011934	1.7402e-05	733.99	3.2526e-06	9.339e-06	1055.4	247.62	4.8407e-06	5.5407e-06	423.21	152.38	87.733	30.183	9.9286e-06	62.634	0.00036615	0.00036187	0.00010088	652.07	3.9821e-06	4.0222e-06	908.6	217.15	3.9703e-06	3.9808e-06	346.75	126.4	76.948	26.433	3.9312e-06	50.855	383.270	193.938	86.998	41.617	80.133	261.811	41.047	46.926	194.647	234.883	44.860	48.901	51.118	56.287	35.500	53.333	-8191	255	
1727.447	1	1	0	0	0.10317	0.27739	0.27874	0.21568	0.082989	0.049676	0.17674	0.2075	0.15973	0.20045	0.12455	0.12794	0.16053	0.14947	0.075586	0.15948	-3.0708	-2.6542	-3.1875	-3.0521	-2.7896	-3.4458	-2.8708	-3	-3.2729	-2.75	-3.2458	-3.2812	-2.6667	-3.4729	-2.7146	-3.0021	311.767	83.348	378.468	378.533	230.656	218.029	219.995	34.279	112.168	266.316	375.312	300.178	185.192	86.383	173.806	105.444	0.00026185	0.00059849	5.9958e-05	724.9	4.698e-06	7.6292e-06	1059.9	249.04	4.5753e-06	5.3894e-06	426.77	154.13	89.853	30.241	6.4866e-06	63.153	0.00036268	0.00036064	0.00010066	647.58	3.948e-06	3.9714e-06	910.4	217.47	3.9461e-06	3.9573e-06	347.89	127.13	77.626	26.567	4.0099e-06	51.32	77.425	260.377	116.081	41.819	292.264	110.586	41.045	46.739	344.403	116.942	45.493	49.420	51.173	55.753	158.337	53.267	-8191	255	
1727.566	1	1	0	0	0.25178	0.085608	0.042298	0.18514	0.024999	0.094936	0.39575	0.29143	0.11926	0.099251	0.063172	0.26584	0.11821	0.26846	0.31447	0.39352	-2.9104	-2.4604	-3.1937	-3.2208	-2.4792	-3.3542	-3.0354	-2.7938	-3.3625	-2.6146	-2.9542	-3.3792	-2.5958	-3.35	-2.9833	-2.7062	82.602	373.946	148.118	313.889	57.175	185.723	367.693	349.597	386.636	360.846	264.470	327.616	376.872	257.713	68.530	296.164	0.0013107	0.0013195	0.00018776	733.12	1.9529e-06	6.9833e-06	1077.4	247.44	8.141e-06	4.2522e-06	426.73	156	89.306	30.354	1.1306e-05	64.62	0.00036561	0.0003636	0.00010231	654.88	4.0373e-06	4.0485e-06	921.71	216.95	4.0294e-06	4.0537e-06	350.94	128.77	78.287	26.82	4.0484e-06	52.37	46.238	135.418	80.400	41.851	53.573	202.078	40.803	46.841	384.315	231.668	45.709	49.892	51.531	56.320	39.842	53.370	-8191	255	
1727.638	1	1	0	0	0.26201	0.074431	0.19249	0.07079	0.10473	0.077749	0.029337	0.28183	0.13669	0.17859	0.25988	0.20955	0.060628	0.11311	0.37443	0.038028	-3.1292	-2.6104	-3.1104	-3.4396	-2.6583	-3.3396	-3.2062	-2.6708	-3.3542	-2.5958	-2.9396	-3.5792	-2.7146	-3.2667	-3.1771	-2.7604	250.394	146.498	111.965	83.732	62.304	325.163	122.475	267.166	193.977	71.167	270.026	82.452	337.647	271.296	163.894	136.661	0.0017611	0.0014884	6.201e-05	737.54	5.6825e-06	8.6268e-06	1089.7	249.65	4.3753e-06	1.5458e-06	434.66	157.89	90.158	30.568	6.7282e-06	64.632	0.00037326	0.00036814	0.00010314	658.46	4.0417e-06	4.0732e-06	932.88	219.59	4.0707e-06	4.0792e-06	355.41	130.23	78.646	27.023	4.0591e-06	52.239	57.253	85.416	208.776	42.372	324.472	209.838	41.014	47.066	198.190	222.017	45.177	50.029	51.342	56.909	46.618	53.590	-8191	255	
1727.734	1	1	0	0	0.040365	0.26623	0.41616	0.19632	0.2008	0.13609	0.32877	0.18575	0.093411	0.13569	0.27413	0.35369	0.10283	0.26924	0.30017	0.20696	-3.1562	-2.7979	-3.1354	-3.4833	-2.5771	-3.2792	-3.3771	-2.6542	-3.3187	-2.9208	-2.9292	-3.5812	-2.7708	-3.1896	-2.9	-2.8312	117.633	129.634	88.586	48.823	276.622	147.028	309.979	274.024	247.067	187.605	29.827	320.281	243.435	379.160	126.155	31.745	0.00078095	0.00093385	5.6925e-05	743.78	5.4973e-06	5.5334e-06	1080.6	251.88	6.6731e-06	3.7451e-06	427.01	156.51	90.486	30.715	9.4501e-06	63.991	0.00037307	0.0003673	0.00010271	662.72	4.0699e-06	4.0675e-06	927.01	219.91	4.0784e-06	4.0799e-06	352.67	129.21	79.004	26.968	4.0769e-06	51.902	382.939	264.381	109.382	42.193	357.046	252.514	40.993	46.883	268.274	243.261	45.342	49.836	51.340	56.421	138.454	53.389	-8191	255	
1727.830	1	1	0	0	0.1409	0.17016	0.19261	0.10094	0.31773	0.23193	0.16233	0.18973	0.13718	0.12463	0.15099	0.14204	0.23975	0.39709	0.086178	0.094904	-3.0687	-2.9646	-2.7979	-3.4354	-2.6417	-3.1667	-3.2729	-2.7625	-3.0542	-2.9958	-2.7687	-3.5604	-2.6813	-3.2375	-3.4521	-2.7354	63.629	136.529	329.645	49.203	33.480	295.114	322.134	342.636	198.488	365.266	285.334	383.464	203.689	207.502	344.643	317.796	0.00086225	0.00056334	0.00022682	732.03	8.9373e-06	1.0993e-05	1079.3	250.75	6.1385e-06	2.0405e-06	432.38	155.66	90.329	30.803	1.321e-05	64.197	0.00037819	0.00037122	0.00010316	658.63	4.0557e-06	4.0888e-06	925.81	220.19	4.1184e-06	4.0896e-06	353.81	129.04	78.877	27.045	4.0904e-06	52.254	36.431	310.867	189.978	41.985	212.720	304.373	41.235	47.500	286.808	131.403	45.012	50.327	51.246	56.546	346.128	53.301	-8191	255	
1727.951	1	1	0	0	0.077153	0.1164	0.14588	0.37678	0.33254	0.18913	0.14201	0.2909	0.21422	0.14414	0.13088	0.20364	0.18933	0.30474	0.19388	0.039516	-2.9	-2.7875	-2.5896	-3.5062	-2.7458	-2.9604	-3.5146	-2.5521	-3.3063	-3.0125	-2.7625	-3.4583	-2.7646	-2.9271	-3.3646	-2.8167	83.476	131.193	304.754	359.982	63.620	179.458	50.365	373.080	313.361	212.052	291.719	313.932	369.781	335.208	133.709	339.197	0.0011538	0.00074478	0.00019246	739.61	4.1152e-06	2.3325e-06	1085.4	253.57	7.1524e-06	4.8795e-06	435.29	158.65	91.281	30.577	7.3978e-06	65.016	0.00037595	0.00037284	0.00010429	663.81	4.0945e-06	4.0823e-06	932.8	221.86	4.1133e-06	4.0782e-06	356.08	130.73	79.311	27.038	4.0771e-06	52.658	358.576	64.380	262.568	42.662	36.023	258.849	41.142	47.077	172.929	246.367	45.170	49.640	51.453	56.799	214.283	53.169	-8191	255	
1728.047	1	1	0	0	0.17142	0.081848	0.1583	0.26268	0.11928	0.1679	0.19004	0.082682	0.18923	0.036389	0.21375	0.3515	0.1382	0.2022	0.055711	0.30128	-2.7229	-3.2	-2.6437	-3.4542	-2.8625	-2.8271	-3.5833	-2.7875	-3.2	-3.1021	-2.6542	-3.5938	-3.0417	-2.8208	-3.5187	-2.8208	138.482	104.366	291.970	374.445	389.151	260.289	119.825	280.633	138.983	379.474	367.559	322.307	105.576	346.190	360.150	353.999	0.0019016	0.0011266	6.5232e-05	752.57	1.8057e-06	7.4095e-06	1095.8	252.88	1.5112e-05	4.7129e-07	435.67	157.67	91.08	30.695	1.2812e-05	64.956	0.00037631	0.00037026	0.00010265	667.71	4.0162e-06	4.0599e-06	939.37	221.43	4.1048e-06	4.0663e-06	355.49	130.4	78.984	26.996	4.0937e-06	52.573	60.248	237.585	301.305	42.086	375.528	141.465	41.678	47.799	178.633	187.224	45.814	49.444	51.069	55.765	113.821	53.251	-8191	255	
1728.143	1	1	0	0	0.25158	0.0151	0.12082	0.18084	0.049072	0.17273	0.097887	0.40047	0.1494	0.13582	0.049515	0.1344	0.14872	0.13559	0.2814	0.30463	-2.7354	-3.2104	-2.6	-3.325	-3.0333	-2.6708	-3.4188	-2.8479	-3.0229	-3.2604	-2.7875	-3.4583	-3.1375	-2.8	-3.4271	-2.8958	311.042	291.902	50.709	371.472	194.734	133.770	307.999	42.977	242.053	363.284	265.577	140.167	166.156	66.582	237.122	293.067	0.00070115	0.00062829	0.00029432	744.25	8.7852e-06	7.2858e-06	1089.8	251.17	8.0517e-06	3.5318e-06	434.91	155.97	90.408	30.714	4.0719e-06	63.798	0.00036925	0.00036524	0.00010312	662.78	3.9932e-06	4.0338e-06	933.02	221.13	4.0601e-06	4.0516e-06	354.64	128.66	78.285	26.944	4.0745e-06	51.988	386.762	80.840	173.614	42.071	225.227	239.670	40.917	46.802	301.349	343.604	44.845	49.477	50.841	56.221	204.438	52.950	-8191	255	
1728.239	1	1	0	0	0.12848	0.2068	0.22104	0.18434	0.3224	0.18712	0.25639	0.19137	0.32959	0.23902	0.082247	0.052746	0.36168	0.044894	0.17828	0.20604	-2.6063	-3.2625	-2.4896	-3.4188	-3.1833	-2.8104	-3.5083	-2.8146	-2.9021	-3.3083	-2.7375	-3.3458	-3.1896	-2.6958	-3.3375	-3.0687	207.848	95.597	86.633	366.367	118.602	42.708	317.623	353.676	368.872	155.631	375.341	378.138	37.134	121.550	105.439	318.252	0.0013883	0.0010681	0.00018472	741.86	5.2667e-06	6.9222e-06	1089.2	253.88	2.3758e-06	1.2874e-05	429.94	153.94	89.064	30.195	7.3909e-06	62.915	0.00037193	0.00036704	0.00010287	663.1	4.0667e-06	4.0556e-06	928.28	220.84	4.0401e-06	4.0939e-06	351.5	127.84	77.72	26.724	4.0542e-06	51.722	361.275	194.725	286.267	42.360	140.288	127.282	40.848	46.684	142.439	240.670	44.423	49.511	51.036	55.993	228.409	52.455	-8191	255	
1728.335	1	1	0	0	0.093988	0.10759	0.055695	0.31786	0.23146	0.13525	0.27059	0.26436	0.13361	0.062345	0.071718	0.14183	0.14258	0.15722	0.029933	0.25388	-2.3917	-3.3583	-2.6417	-3.0646	-3.1042	-2.6271	-3.5563	-2.9354	-2.5521	-3.4208	-2.7167	-3.1396	-3.2083	-2.6312	-3.4479	-3.0208	335.865	347.840	310.326	362.427	318.928	111.957	354.427	320.148	79.422	188.600	232.805	373.714	354.181	317.248	271.749	359.450	0.0010251	0.0008728	0.00010597	737.54	9.5202e-06	3.9463e-06	1085.1	250.31	3.2217e-06	7.876e-06	429.73	155.57	90.121	30.702	2.8973e-06	63.544	0.00037269	0.00037277	0.00010268	659.28	4.0338e-06	4.0463e-06	929.89	219.98	4.0412e-06	4.028e-06	352.39	128.24	78.206	26.925	4.0222e-06	51.906	44.262	52.952	107.679	41.819	101.348	323.360	41.364	46.986	175.518	105.704	45.010	49.769	50.954	55.709	368.562	53.185	-8191	255	
1728.432	1	1	0	0	0.28753	0.26189	0.17	0.30269	0.13178	0.16915	0.33865	0.24115	0.22277	0.19989	0.45084	0.15386	0.25771	0.20246	0.2059	0.29339	-2.4646	-3.2667	-2.7875	-3.1646	-3.4313	-2.5417	-3.3792	-3.1146	-2.7625	-3.4271	-3.0208	-2.8917	-3.2313	-2.6979	-3.2271	-3.3729	133.388	60.032	64.247	313.652	141.568	239.333	264.865	281.644	217.185	191.758	71.733	324.239	372.365	127.778	193.763	373.227	0.0016044	0.00072648	9.4494e-05	736.58	8.3995e-06	4.7785e-07	1082	251.58	3.2043e-06	1.0295e-05	430.77	154.57	89.263	30.373	1.0929e-05	63.045	0.00036868	0.0003689	0.0001019	658.86	4.0152e-06	4.0459e-06	930.52	220.41	4.0058e-06	4.0384e-06	352.58	127.89	77.886	26.695	4.0201e-06	51.458	361.610	162.475	196.404	41.905	127.978	165.488	40.717	46.616	122.239	278.260	44.644	48.944	50.248	55.532	40.740	52.283	-8191	255	
1728.528	1	1	0	0	0.14402	0.22184	0.14211	0.44791	0.054772	0.06787	0.50634	0.042925	0.13215	0.16277	0.18881	0.16488	0.17428	0.066658	0.3021	0.29458	-2.3604	-3.3646	-2.8396	-2.8146	-3.3104	-2.7375	-3.4042	-3.2021	-2.6979	-3.4854	-2.9125	-2.9375	-3.5479	-2.6854	-2.9875	-3.4083	347.049	143.200	309.982	332.150	262.396	49.528	353.729	88.025	338.815	104.604	102.282	343.989	328.474	285.192	365.812	307.481	0.00073777	0.00040663	0.00019995	734.02	1.7468e-06	1.9836e-05	1080.8	253.15	8.3106e-06	5.0772e-06	430.78	154.18	89.137	30.209	7.7595e-06	62.344	0.0003744	0.00036591	0.00010232	659.19	3.9894e-06	4.0331e-06	925.88	220.89	4.0498e-06	4.0706e-06	351.85	127.25	77.648	26.544	4.0359e-06	51.175	357.991	67.607	41.156	41.474	145.413	183.024	40.197	46.273	156.621	271.251	44.377	49.086	49.995	55.058	138.238	52.889	-8191	255	
1728.647	1	1	0	0	0.10114	0.12697	0.079751	0.32554	0.067803	0.061766	0.20561	0.18231	0.092196	0.14662	0.24517	0.22412	0.25987	0.3629	0.1012	0.17833	-2.2313	-3.4104	-2.9708	-2.9688	-3.4125	-2.7479	-3.2375	-3.4521	-2.5646	-3.3	-3.0458	-2.8563	-3.5958	-2.8458	-2.8958	-3.2625	104.464	199.832	179.404	359.740	41.483	295.994	349.383	34.186	370.915	194.951	369.437	343.498	87.210	364.227	221.012	290.208	0.0018514	0.00084387	0.00011232	738.69	5.4727e-06	1.1684e-05	1074.4	252.25	1.6474e-06	8.9037e-06	429.64	153.84	88.934	30.444	3.4301e-06	62.71	0.00037018	0.00037032	0.00010094	661.02	4.0291e-06	4.0111e-06	928	220.51	4.0131e-06	4.049e-06	352.61	127.26	77.579	26.68	4.0265e-06	51.428	48.867	163.014	335.677	41.060	204.450	238.286	40.779	46.467	228.445	38.575	44.700	48.873	50.216	55.478	145.694	52.327	-8191	255	
1728.743	1	1	0	0	0.26127	0.11563	0.15942	0.13908	0.069726	0.45361	0.31894	0.15351	0.17173	0.046539	0.16504	0.10871	0.14496	0.15508	0.070945	0.078977	-2.3896	-3.2313	-2.925	-2.6896	-3.3833	-2.7375	-3.0646	-3.3667	-2.6771	-3.2562	-3.1896	-2.7938	-3.5229	-2.9	-2.8521	-3.3937	150.608	41.357	176.814	31.716	260.086	159.802	321.798	302.094	47.547	276.928	126.569	327.992	208.654	363.498	350.461	290.344	0.0007432	0.0012809	0.00015747	740.63	4.9673e-06	4.6976e-06	1082.2	250.79	1.2984e-05	6.5357e-06	429.95	153.39	89.34	30.113	5.9857e-06	63.104	0.00037321	0.00036896	0.00010286	661.07	4.0579e-06	4.0436e-06	928.33	220.45	4.1039e-06	4.0837e-06	354.42	127.34	78.105	26.585	4.0682e-06	51.593	357.881	143.316	70.738	41.094	263.879	37.187	40.218	46.591	178.112	223.759	44.473	49.568	50.923	55.757	291.856	52.583	-8191	255	
1728.839	1	1	0	0	0.1912	0.11876	0.12719	0.16008	0.17119	0.12722	0.1252	0.13145	0.099532	0.21177	0.021616	0.10698	0.11523	0.28703	0.21128	0.22791	-2.3479	-3.1562	-3.1521	-2.5729	-3.5292	-2.9958	-2.9208	-3.5	-2.7146	-3.1792	-3.25	-2.55	-3.3812	-3.0771	-2.6312	-3.4229	171.116	167.219	148.017	341.745	358.426	179.853	371.625	177.203	205.599	67.857	328.884	306.025	309.311	345.786	352.556	372.860	0.0013916	0.00059569	0.00028207	740.38	3.7035e-06	8.743e-06	1085.9	252.97	9.8701e-06	3.2989e-06	434.02	153.68	89.541	30.377	5.8109e-06	63.322	0.00037235	0.0003697	0.00010275	660.55	4.087e-06	4.0207e-06	928.99	221.49	4.0603e-06	4.0565e-06	354.99	127.56	77.846	26.683	4.0756e-06	51.576	382.984	77.383	197.751	41.117	274.297	219.343	40.854	46.029	259.565	53.570	44.595	49.463	50.113	55.196	38.016	52.844	-8191	255	
1728.935	1	1	0	0	0.15582	0.11359	0.18028	0.091502	0.17296	0.21626	0.22148	0.17129	0.033795	0.1678	0.21974	0.069637	0.19399	0.18765	0.071005	0.18827	-2.4125	-3.0375	-3.3542	-2.6583	-3.2354	-3.0542	-2.9437	-3.4188	-2.8917	-2.9292	-3.3917	-2.7083	-3.1875	-3.1542	-2.6458	-3.6188	274.123	338.070	187.779	343.305	30.308	256.715	322.879	376.557	81.212	369.577	110.272	116.590	303.521	112.818	343.527	340.359	0.00099973	0.0013467	5.9248e-05	736.91	4.9442e-06	3.4752e-06	1080.3	251.95	6.2617e-06	8.9154e-06	432.02	153.69	88.9	30.366	9.852e-06	62.605	0.00037203	0.00036852	0.00010225	659.69	4.0216e-06	4.0016e-06	928.29	221.38	4.0269e-06	4.0384e-06	353.69	127.27	77.568	26.688	4.0684e-06	51.29	30.982	138.592	344.564	41.276	185.203	104.355	40.612	46.504	134.442	88.309	44.829	49.107	50.311	55.310	41.712	52.714	-8191	255	
1729.031	1	1	0	0	0.03476	0.048092	0.15359	0.12553	0.24411	0.35028	0.099588	0.099569	0.10806	0.21761	0.19333	0.1797	0.094478	0.13198	0.22575	0.23662	-2.4875	-2.8937	-3.3312	-2.7729	-3.2583	-3.1813	-2.6896	-3.5083	-2.7958	-2.8771	-3.5479	-2.6958	-3.1958	-3.1312	-2.65	-3.5792	371.027	69.955	65.902	124.328	68.675	128.278	237.744	377.266	340.901	310.214	289.155	114.207	239.209	237.216	86.866	307.009	0.0013963	0.00053903	0.00022146	737.64	4.902e-06	1.3791e-05	1090.4	252.57	9.4591e-06	5.3407e-06	428.53	152.06	88.333	30.235	7.7876e-06	63.627	0.00036934	0.00036798	0.00010221	660.12	4.0602e-06	4.0326e-06	927.61	221.7	4.0653e-06	4.0592e-06	352.49	126.18	77.52	26.558	4.0192e-06	51.533	74.747	189.542	201.326	41.294	102.142	379.461	40.375	46.303	366.142	290.588	44.376	49.059	51.226	55.853	69.496	52.773	-8191	255	
1729.127	1	1	0	0	0.17835	0.25349	0.057542	0.20812	0.074147	0.13601	0.17417	0.14842	0.2211	0.17888	0.16643	0.25808	0.17263	0.1604	0.19265	0.14983	-2.5938	-2.7	-3.5	-2.8979	-3.0271	-3.3021	-2.675	-3.4021	-3.0208	-2.7125	-3.2146	-2.95	-3.1583	-3.3417	-2.6229	-3.325	326.489	221.527	363.660	329.192	362.603	282.939	381.452	146.023	95.128	278.567	31.220	354.133	374.992	222.765	332.750	379.620	0.00031762	0.00078146	0.00029021	741.35	1.8596e-06	1.1001e-05	1083.5	251.95	3.2541e-06	4.7655e-06	429.81	153.48	88.544	30.03	1.0959e-05	62.813	0.00036919	0.00037065	0.00010322	661.72	4.0304e-06	3.9715e-06	926.02	220.76	4.0248e-06	4.0278e-06	351.93	126.99	77.338	26.491	4.0394e-06	51.231	44.551	202.638	43.662	41.392	84.417	247.176	40.600	46.719	192.536	94.762	44.188	49.573	51.133	55.669	194.150	52.650	-8191	255	
1729.248	1	1	0	0	0.082307	0.064468	0.22587	0.20207	0.070573	0.20073	0.25884	0.023748	0.067506	0.1865	0.16807	0.26119	0.1869	0.14978	0.24926	0.22935	-2.5229	-2.6042	-3.4208	-2.7875	-2.9146	-3.3458	-2.7062	-3.325	-3.0687	-2.6583	-3.2812	-2.9375	-3.0271	-3.5208	-2.5854	-3.35	84.181	95.772	244.865	331.025	176.469	161.230	325.469	179.526	87.205	73.739	384.484	369.375	309.500	171.421	203.169	320.991	0.0012327	0.00083147	0.00015469	744.1	3.3762e-06	1.2386e-05	1093.3	250.91	4.575e-06	1.2044e-06	426.93	152.45	89.278	30.175	3.5887e-06	62.87	0.00036981	0.00036975	0.00010304	664.51	4.0583e-06	4.0614e-06	931.95	219.81	4.0653e-06	4.0926e-06	351.2	126.37	77.789	26.708	4.1094e-06	51.348	59.172	77.029	361.384	41.692	113.531	143.456	40.361	46.984	139.749	33.630	44.085	49.070	51.657	55.671	46.409	52.848	-8191	255	
1729.344	1	1	0	0	0.091924	0.1888	0.069693	0.18293	0.17261	0.062834	0.080106	0.27959	0.11509	0.075302	0.42242	0.14409	0.10354	0.082284	0.094503	0.22953	-2.8104	-2.4979	-3.4271	-2.7896	-2.8667	-3.3833	-2.7229	-3.2438	-3.3604	-2.5417	-3.425	-3.1188	-2.5687	-3.3812	-2.6583	-3.0542	385.145	135.815	239.326	39.895	110.875	187.121	117.547	269.828	191.821	228.460	302.223	294.613	187.949	74.036	351.067	345.805	0.00096071	0.00011051	0.00014149	742.38	2.966e-06	4.1837e-06	1079.9	252.26	7.5135e-06	1.1994e-05	425.97	152.29	89.275	30.099	1.0311e-05	63.027	0.0003757	0.000374	0.00010522	666.27	4.101e-06	4.1514e-06	926.65	220.54	4.1249e-06	4.1508e-06	350.66	126.59	78.021	26.712	4.1243e-06	51.3	35.576	187.367	368.812	41.659	141.262	94.139	40.497	46.598	309.469	260.385	44.436	49.370	50.845	55.770	196.125	53.029	-8191	255	
1729.439	1	1	0	0	0.26246	0.16923	0.11558	0.22394	0.22383	0.084448	0.043977	0.2991	0.25455	0.26282	0.27182	0.14471	0.11652	0.13135	0.23427	0.23489	-2.875	-2.7417	-3.3583	-3.1833	-2.8396	-3.5229	-2.9188	-3.1375	-3.3563	-2.6979	-3.3083	-3.25	-2.65	-3.6333	-2.85	-3	371.167	130.282	34.394	80.664	152.949	32.430	38.191	325.101	163.374	174.771	334.280	330.256	67.416	263.248	94.363	242.640	0.00049197	0.00030705	0.00018264	741.2	3.5714e-06	4.0964e-06	1082.1	250.49	8.3016e-06	1.3558e-05	430.5	151.32	88.27	30.105	3.4756e-06	62.686	0.00038083	0.00037941	0.00010659	664.77	4.1328e-06	4.1516e-06	928.51	219.84	4.1737e-06	4.1213e-06	352.76	126.56	77.508	26.669	4.13e-06	51.268	371.929	142.297	222.310	41.678	176.202	90.215	40.684	46.532	110.145	278.419	45.048	49.371	51.021	55.601	166.410	52.701	-8191	255	
1729.512	1	1	0	0	0.15515	0.25986	0.24876	0.20354	0.24442	0.079588	0.31283	0.30848	0.21045	0.18434	0.14235	0.14591	0.052679	0.27066	0.12374	0.27031	-2.8833	-2.6063	-3.1521	-3.1542	-2.7521	-3.2687	-2.7583	-2.8312	-3.4771	-2.7583	-3.2729	-3.2792	-2.5875	-3.4271	-3.0271	-2.9042	31.598	317.381	135.942	379.908	46.488	191.511	344.175	365.509	30.675	104.439	353.327	289.206	282.367	61.209	82.024	312.011	0.00093668	0.00047037	0.00023515	742.11	1.2823e-06	4.8741e-06	1079.6	251.59	5.6473e-06	8.919e-06	434.42	151.95	89.083	29.893	1.0413e-05	63.497	0.00038025	0.00037677	0.00010476	663.87	4.1449e-06	4.1183e-06	931.11	221.13	4.1645e-06	4.1851e-06	356.26	126.78	78.022	26.715	4.1703e-06	51.93	44.051	336.232	121.438	41.348	106.036	260.072	40.691	46.801	183.729	149.874	44.443	48.941	50.348	55.583	111.012	52.839	-8191	255	
1729.631	1	1	0	0	0.1345	0.21748	0.26327	0.13687	0.15615	0.096477	0.22822	0.16795	0.14821	0.19419	0.20146	0.15869	0.30441	0.14933	0.19434	0.18731	-2.9854	-2.7896	-3.0542	-3.2833	-2.55	-3.4813	-3.1813	-2.7333	-3.4854	-2.6875	-3.3021	-3.2521	-2.7188	-3.3	-3.1167	-2.7979	305.527	378.206	68.206	44.001	197.430	208.506	319.611	351.162	121.407	313.106	41.412	341.329	365.466	87.701	106.625	329.190	0.00074482	0.00089488	0.00015761	747.32	1.4504e-06	7.9636e-06	1092	251.49	1.0305e-05	7.3116e-06	429.57	153.42	88.882	30.286	6.389e-06	63.4	0.00038306	0.00038567	0.0001066	669.72	4.2018e-06	4.2619e-06	937.27	222.03	4.2515e-06	4.2824e-06	356.86	128.01	78.675	26.944	4.2527e-06	51.882	92.052	29.597	170.626	41.698	256.135	133.528	40.922	46.939	202.200	289.925	45.055	49.683	50.824	56.231	160.757	53.020	-8191	255	
1729.727	1	1	0	0	0.17764	0.052379	0.1454	0.19512	0.25521	0.065302	0.32985	0.28694	0.19076	0.11744	0.099475	0.23402	0.095694	0.042858	0.014628	0.12434	-3.1292	-2.7396	-2.7687	-3.4646	-2.5354	-3.3146	-3.1083	-2.7292	-3.425	-2.8063	-2.9021	-3.4	-2.7229	-3.1667	-3.0167	-2.8	291.014	269.332	351.895	322.240	90.812	321.408	332.283	322.507	127.231	33.959	268.527	48.774	41.266	214.000	168.634	282.471	0.00081174	0.00072945	5.3064e-05	749.87	6.3164e-06	4.1079e-06	1075.2	252.47	6.2587e-06	4.5246e-06	425.74	152.8	89.197	29.967	3.9501e-06	63.111	0.00039159	0.00039008	0.00010956	672.35	4.2903e-06	4.2754e-06	929.11	221.48	4.2541e-06	4.2744e-06	353.53	127.58	78.351	26.82	4.2506e-06	51.619	367.346	116.743	53.621	42.160	279.609	228.604	40.636	46.839	29.203	263.584	44.685	49.439	51.194	56.267	258.822	53.300	-8191	255	
1729.823	1	1	0	0	0.067948	0.37874	0.11839	0.25474	0.18807	0.19636	0.27694	0.34634	0.12803	0.11051	0.073233	0.26353	0.19609	0.10914	0.18227	0.2052	-3.0208	-2.8187	-2.8167	-3.4646	-2.6208	-3.2167	-3.5146	-2.7583	-3.3354	-2.9062	-2.8167	-3.4188	-2.6958	-3.0167	-3.1583	-2.7792	278.944	79.892	110.625	81.470	124.997	157.323	348.242	340.026	210.033	193.431	155.877	296.599	342.243	42.348	271.444	249.157	0.0010424	0.00091557	6.6094e-05	744.68	6.2494e-06	5.3767e-06	1080.7	252.48	4.4166e-06	7.747e-06	430.56	152.22	89.298	29.932	8.6343e-06	62.762	0.00039178	0.00038713	0.00010856	669.91	4.2673e-06	4.2995e-06	933.3	221.02	4.2512e-06	4.2242e-06	355.87	126.94	78.212	26.704	4.2585e-06	51.572	36.362	310.858	177.769	41.561	89.892	124.527	40.709	47.113	253.512	129.868	44.746	50.040	50.748	56.244	227.236	53.177	-8191	255	
1729.919	1	1	0	0	0.16079	0.18326	0.079236	0.25113	0.11809	0.11672	0.32449	0.16722	0.14194	0.018709	0.1822	0.10029	0.34808	0.14296	0.12547	0.35861	-3.0708	-2.9292	-2.7625	-3.4479	-2.7188	-3.0208	-3.4771	-2.6396	-3.2438	-3.0854	-2.7646	-3.5333	-2.9313	-2.9958	-3.2833	-2.5271	271.132	352.131	287.887	362.651	388.380	78.187	297.455	382.846	371.621	338.000	58.949	277.787	223.443	30.405	271.927	267.242	0.00090651	0.00070874	0.00026187	749.34	5.1469e-06	8.9719e-06	1088.7	250.94	1.7592e-05	3.2755e-06	430.22	153.09	89.571	30.141	1.5947e-05	62.891	0.00039206	0.00038565	0.00010819	669.88	4.194e-06	4.2131e-06	935.5	221.27	4.2333e-06	4.2407e-06	353.62	127.34	78.149	26.809	4.2438e-06	51.597	349.953	99.271	129.602	42.155	176.928	244.415	40.759	46.508	264.717	324.351	45.189	49.724	51.236	56.520	92.065	53.378	-8191	255	
1730.040	1	1	0	0	0.25855	0.073991	0.097449	0.1536	0.10528	0.14751	0.23357	0.3413	0.22626	0.058927	0.18491	0.13808	0.28034	0.13031	0.19914	0.042757	-2.8771	-3.3083	-2.7708	-3.4167	-2.9292	-2.9604	-3.5	-2.7271	-3.1437	-3.1375	-2.6896	-3.5729	-2.8438	-2.8583	-3.3875	-2.6896	121.479	258.806	149.390	385.552	366.662	133.800	332.068	362.398	114.879	265.662	293.471	340.647	357.586	153.258	282.513	284.033	0.0011848	0.0011112	0.00017866	750.68	3.5173e-06	1.1208e-05	1088	250.2	7.5022e-06	8.0498e-06	425.82	152.96	88.985	30.112	4.9337e-06	63.764	0.00039086	0.00039	0.00010736	670.66	4.2284e-06	4.2209e-06	936.87	221.39	4.2789e-06	4.2434e-06	354.26	127.26	78.69	26.842	4.327e-06	51.933	382.651	140.813	55.680	41.756	133.278	137.917	41.167	47.310	276.644	379.423	45.062	49.688	50.683	55.997	168.297	52.432	-8191	255	
1730.112	1	1	0	0	0.097932	0.18772	0.029183	0.24556	0.19773	0.20015	0.19541	0.37381	0.12083	0.21646	0.12043	0.10736	0.22757	0.18562	0.076778	0.12213	-2.8271	-3.1896	-2.5667	-3.4604	-2.9292	-2.8771	-3.4708	-2.8708	-3.1604	-3.2604	-2.7396	-3.5271	-2.9354	-2.9208	-3.3167	-2.8875	181.596	107.225	79.314	375.118	182.818	345.360	47.944	372.106	279.377	57.307	54.937	155.363	308.991	348.035	150.891	335.495	0.0016008	0.00035256	0.00013947	748.22	9.7101e-06	8.9716e-06	1084.4	250.13	3.604e-06	7.9669e-06	428.85	153.73	88.838	30.353	5.4153e-06	63.674	0.00039071	0.00038603	0.00010846	670.74	4.23e-06	4.2623e-06	936.35	220.47	4.1978e-06	4.2076e-06	355.03	127.76	78.031	26.856	4.2687e-06	51.883	39.040	261.887	250.653	42.051	92.568	123.448	41.111	47.130	240.117	153.187	45.287	49.999	51.399	56.105	113.424	53.380	-8191	255	
1730.208	1	1	0	0	0.31764	0.067499	0.010295	0.13263	0.069006	0.12302	0.31877	0.055602	0.2085	0.29005	0.13573	0.23155	0.10066	0.19573	0.18496	0.34922	-2.6021	-3.5187	-2.5563	-3.2896	-3.0292	-2.7167	-3.6521	-2.9417	-3.1917	-3.4104	-2.8312	-3.3146	-3.3563	-2.7521	-3.5167	-2.9604	158.837	265.697	224.836	38.879	198.757	346.481	362.293	303.486	343.684	303.085	269.569	364.613	227.599	344.651	155.428	356.581	0.00065374	0.00030777	0.0001467	747.32	1.239e-05	1.4228e-06	1087.3	250.28	1.7711e-06	1.3139e-05	426.17	150.47	87.993	29.726	7.4999e-06	62.223	0.00038908	0.0003875	0.00010665	670.43	4.249e-06	4.2729e-06	933.24	220.55	4.318e-06	4.2703e-06	352.49	126.02	77.456	26.682	4.3057e-06	51.263	67.107	358.530	360.880	42.481	125.100	129.643	40.653	46.761	217.269	335.103	45.380	50.024	51.367	56.274	146.834	52.748	-8191	255	
1730.328	1	1	0	0	0.12795	0.095446	0.13873	0.13206	0.11307	0.20466	0.30334	0.27076	0.24608	0.18817	0.22395	0.18948	0.13684	0.056065	0.23547	0.13116	-2.5396	-3.5687	-2.7396	-3.2896	-3.1667	-2.8167	-3.5042	-3.0896	-2.8521	-3.5583	-2.7333	-3.325	-3.4625	-2.8333	-3.3937	-3.0771	208.554	235.978	210.816	279.128	204.425	239.825	308.593	366.359	106.285	51.400	383.946	374.185	357.837	89.845	288.748	197.384	0.00057838	0.0011953	0.00013386	746.17	2.4983e-06	3.3159e-06	1084.1	250.66	1.2373e-05	6.8671e-06	427.76	150.74	86.959	29.688	1.3066e-05	62.58	0.0003991	0.00039782	0.00011071	669.11	4.3551e-06	4.3576e-06	931.93	221.71	4.3388e-06	4.3925e-06	355.79	126.3	77.554	26.732	4.3763e-06	51.549	66.699	156.644	380.817	42.466	136.302	179.571	41.179	47.338	119.152	284.819	44.442	49.485	51.254	56.418	156.283	53.042	-8191	255	
1730.425	1	1	0	0	0.18211	0.099888	0.10477	0.17246	0.14428	0.26479	0.071063	0.060123	0.046475	0.10031	0.064901	0.22333	0.12423	0.44935	0.15422	0.069131	-2.5708	-3.3479	-2.7542	-3.0021	-3.2854	-2.5583	-3.4979	-3.1458	-2.8958	-3.3896	-2.8875	-3.1333	-3.3	-2.6958	-3.1833	-3.1542	120.656	122.943	76.571	151.567	241.122	284.889	383.506	81.724	380.956	271.521	247.550	302.449	62.499	344.575	124.640	49.867	0.00017498	0.0018214	0.0001115	738.39	5.0215e-06	1.133e-05	1081.6	251.88	1.1587e-05	7.9987e-06	423.94	151.04	88.075	29.752	3.5028e-06	62.579	0.00039726	0.0004013	0.0001099	670.22	4.4024e-06	4.3861e-06	933.56	222.34	4.3567e-06	4.4008e-06	356.54	126.51	77.64	26.838	4.3552e-06	51.435	40.237	171.777	145.517	42.096	112.542	384.928	41.206	46.919	229.413	268.290	44.839	49.656	50.612	55.608	162.244	52.552	-8191	255	
1730.521	1	1	0	0	0.22396	0.25824	0.16533	0.40029	0.24066	0.13434	0.13922	0.10254	0.097398	0.2266	0.3482	0.091859	0.10534	0.10763	0.35951	0.15645	-2.1021	-3.3438	-2.7521	-2.9396	-3.2687	-2.6063	-3.4021	-3.0833	-2.5604	-3.475	-2.9167	-2.9958	-3.4125	-2.5875	-3.1729	-3.3125	164.136	172.964	233.304	41.618	362.492	110.189	313.324	143.957	225.784	344.549	347.416	336.058	362.647	370.874	185.937	345.375	0.00095444	0.00068412	0.00023788	740.43	5.8621e-06	3.6564e-06	1082.3	252.25	2.5087e-06	1.4836e-05	425.51	151.27	87.979	29.943	3.9425e-06	62.289	0.00040031	0.00039753	0.00010952	669.86	4.3327e-06	4.3379e-06	932.07	221.23	4.3551e-06	4.3659e-06	353.61	126.26	78.073	26.852	4.2936e-06	51.392	355.740	45.929	262.265	41.684	48.866	106.317	41.152	46.182	293.142	137.903	44.540	49.757	51.140	55.591	380.801	52.829	-8191	255	
1730.640	1	1	0	0	0.17336	0.066543	0.18784	0.37078	0.1175	0.29054	0.16139	0.2008	0.21214	0.20951	0.39358	0.22208	0.1368	0.08373	0.28952	0.13029	-2.1375	-3.4104	-2.8396	-2.9146	-3.3292	-2.5417	-3.2854	-3.3229	-2.6167	-3.3396	-3.0792	-2.8333	-3.4271	-2.8333	-2.9896	-3.3042	81.930	38.929	152.891	343.061	305.876	87.095	279.809	239.894	194.030	194.802	368.159	372.624	300.823	200.384	377.164	40.068	0.001144	0.0010303	8.0396e-05	734.79	5.6245e-06	1.0356e-05	1079.8	251.34	1.7974e-06	9.9043e-06	430.83	152.74	88.658	29.955	6.124e-06	62.417	0.00039401	0.00039057	0.00010912	667	4.2661e-06	4.2842e-06	933.69	222.13	4.3051e-06	4.3032e-06	355.61	126.97	77.956	26.63	4.2621e-06	51.433	386.281	128.878	63.857	41.554	180.448	275.790	40.774	46.686	41.998	380.636	44.403	49.493	50.149	55.444	201.764	52.581	-8191	255	
1730.736	1	1	0	0	0.20599	0.09367	0.29726	0.25374	0.25466	0.11252	0.36427	0.040223	0.20915	0.22405	0.099839	0.33561	0.17877	0.20092	0.11089	0.093671	-2.1813	-3.2625	-3.0146	-2.9167	-3.3396	-2.7417	-3.025	-3.3271	-2.5979	-3.3521	-3.0125	-2.7021	-3.3125	-2.8458	-2.7521	-3.2896	35.415	74.034	62.696	360.735	302.114	281.412	334.720	245.829	259.833	50.465	145.043	353.570	306.123	385.196	47.710	249.775	0.0011392	0.00047392	0.00036499	748.14	8.0532e-06	4.9026e-06	1078.5	251.75	6.1134e-06	2.5977e-06	431.35	152.95	87.328	29.9	6.8751e-06	62.302	0.00039352	0.00039072	0.00010976	670.86	4.3176e-06	4.2983e-06	933.32	222.43	4.3086e-06	4.3133e-06	356.37	127.14	77.715	26.745	4.2997e-06	51.401	374.000	110.395	66.456	40.869	237.701	45.473	40.469	46.433	345.101	164.572	44.597	49.651	50.617	55.857	52.201	52.582	-8191	255	
1730.807	1	1	0	0	0.15356	0.16022	0.091519	0.081846	0.36452	0.16676	0.09648	0.13951	0.14748	0.2165	0.17131	0.096168	0.20723	0.14353	0.28425	0.17489	-2.0875	-3.3125	-3.2083	-2.7771	-3.2667	-2.6896	-3.0771	-3.2917	-2.6104	-3.2042	-3.3521	-2.3875	-3.3833	-2.8729	-2.7208	-3.5792	195.193	178.947	205.844	44.570	327.006	39.679	373.296	326.733	305.184	197.501	45.375	54.440	384.778	38.740	385.409	330.884	0.0010394	0.0011388	0.00025763	737.18	3.384e-06	8.0105e-06	1078.1	253.64	4.2861e-06	8.9843e-06	431.25	151.78	88.004	29.803	1.2337e-05	62.27	0.00039682	0.00039073	0.0001089	669.87	4.3188e-06	4.3058e-06	934.89	223.36	4.3215e-06	4.2896e-06	356.76	127.04	78.043	26.778	4.354e-06	51.468	379.740	189.015	384.115	41.254	88.782	306.450	40.843	46.784	259.992	200.552	43.940	48.784	51.052	55.014	379.691	52.415	-8191	255	
1730.928	1	1	0	0	0.28255	0.12709	0.13649	0.29096	0.079159	0.029166	0.047236	0.358	0.06256	0.13096	0.15813	0.03608	0.11872	0.098514	0.10551	0.46818	-2.2875	-3.2021	-3.1208	-2.7104	-3.225	-3.1188	-2.8083	-3.5854	-2.7458	-2.9542	-3.3063	-2.5667	-3.4167	-3.0979	-2.5542	-3.4521	386.918	369.991	222.975	355.028	296.244	348.072	297.579	348.946	377.005	364.606	354.049	82.068	213.540	172.334	100.921	381.839	0.00062174	0.00095217	0.00016906	744.75	1.1107e-05	5.8834e-06	1083.5	253.58	1.251e-05	6.4968e-06	428.64	151.35	88.06	29.875	2.2542e-06	62.25	0.00039824	0.00039552	0.00011051	670.91	4.3015e-06	4.3204e-06	936.14	222.96	4.3133e-06	4.3769e-06	355.87	126.33	78.211	26.89	4.364e-06	51.464	371.538	217.391	161.569	41.671	115.048	124.523	40.829	46.352	176.487	108.422	44.885	49.678	50.547	55.711	56.807	52.784	-8191	255	
1731.024	1	1	0	0	0.063651	0.10675	0.15332	0.035186	0.081384	0.084203	0.4076	0.33144	0.13367	0.18868	0.10602	0.22245	0.10675	0.072423	0.057315	0.16578	-2.3167	-2.7146	-3.2562	-2.5917	-3.3438	-3.1688	-2.5667	-3.3937	-2.7958	-2.9125	-3.1417	-2.8104	-3.1271	-3.225	-2.6583	-3.4188	83.778	335.426	199.054	334.937	84.610	200.344	275.214	51.207	158.152	86.566	144.813	140.902	79.348	371.790	301.275	36.508	0.00092926	0.00058072	0.00012754	735.75	4.6828e-06	8.7655e-06	1071.8	252.03	1.1651e-05	1.3666e-05	428.56	150.39	87.905	29.654	7.8828e-06	62.701	0.0003974	0.00039244	0.00011	668.28	4.347e-06	4.341e-06	929.54	222.27	4.3346e-06	4.3433e-06	353.43	125.56	77.456	26.599	4.3352e-06	51.384	384.442	188.089	110.161	41.454	34.283	210.247	40.546	46.776	244.917	112.588	44.150	49.445	50.433	55.771	191.012	52.797	-8191	255	
1731.120	1	1	0	0	0.20717	0.14811	0.24934	0.33375	0.15693	0.074387	0.14697	0.19024	0.23292	0.026952	0.15302	0.19517	0.31806	0.030409	0.16858	0.21969	-2.375	-2.9062	-3.4646	-2.7	-3.2687	-3.1854	-2.825	-3.2792	-2.8229	-2.8979	-3.4562	-2.8458	-3.0729	-3.2062	-2.6833	-3.4292	321.147	354.015	83.840	39.247	332.278	121.365	306.219	349.690	215.847	248.895	325.627	232.822	338.164	350.180	125.997	209.577	0.0011979	0.00069739	0.00032588	744.03	1.1452e-05	8.4824e-06	1072.9	251.8	6.4547e-06	6.2911e-06	421.35	150.29	87.838	29.436	1.2065e-05	62.028	0.00039697	0.00039751	0.0001096	667.4	4.3379e-06	4.3307e-06	927.09	222.4	4.3284e-06	4.3485e-06	352.7	125.68	77.73	26.572	4.3619e-06	51.226	38.281	223.986	134.518	40.949	296.953	190.084	40.543	46.957	295.334	376.790	44.931	49.053	51.069	55.309	256.947	52.864	-8191	255	
1731.216	1	1	0	0	0.26051	0.14969	0.082376	0.11079	0.29837	0.12959	0.2643	0.27616	0.19482	0.15117	0.26598	0.24428	0.22966	0.17699	0.22475	0.22921	-2.5062	-2.6083	-3.4813	-2.6354	-2.8896	-3.1521	-2.8	-3.3625	-3.0979	-2.5875	-3.3792	-2.8708	-2.7979	-3.2958	-2.425	-3.3083	97.789	278.219	177.885	343.050	340.682	30.407	319.325	386.194	214.173	32.276	365.367	367.926	171.429	321.459	161.374	221.828	0.00099056	0.00026161	0.00028405	740.19	1.0552e-05	5.6494e-06	1073	250.53	1.0954e-05	3.5593e-06	428.27	149.29	86.938	29.597	8.046e-06	62.162	0.00039541	0.00039203	0.00011053	669.96	4.3342e-06	4.3327e-06	928.81	221.42	4.3475e-06	4.3252e-06	353.92	124.67	77.391	26.577	4.3421e-06	51.051	386.013	207.592	256.940	41.442	194.145	78.603	40.676	46.513	235.697	158.636	44.737	49.467	51.114	55.521	136.709	52.816	-8191	255	
1731.337	1	1	0	0	0.28183	0.1926	0.19674	0.16816	0.088991	0.017188	0.12279	0.29463	0.23185	0.21835	0.18513	0.16514	0.14819	0.28885	0.098105	0.16179	-2.7625	-2.65	-3.3438	-2.9375	-2.7667	-3.2792	-2.7917	-3.3083	-3.2021	-2.7771	-3.4313	-2.9062	-2.6104	-3.4458	-2.7042	-3.1312	256.678	91.894	108.074	318.952	208.155	105.627	234.283	350.004	366.442	135.135	369.448	383.502	301.751	366.388	92.266	348.734	0.0013109	0.0014072	8.2351e-05	742.23	3.7236e-06	7.7987e-06	1062.7	250.32	3.6108e-06	2.4501e-05	414.16	149.35	87.18	29.618	9.297e-06	61.747	0.00039803	0.00039589	0.00011014	668.11	4.3417e-06	4.3607e-06	921.35	221.04	4.3933e-06	4.3262e-06	350.85	124.47	77.281	26.606	4.3885e-06	51.028	380.034	78.539	141.215	41.368	307.254	110.871	40.356	46.849	222.424	225.105	44.737	49.344	50.432	55.881	138.549	52.691	-8191	255	
1731.409	1	1	0	0	0.34594	0.24805	0.26858	0.058095	0.21659	0.11315	0.32967	0.15069	0.083935	0.22931	0.33272	0.079127	0.18616	0.16257	0.094107	0.14759	-2.8917	-2.4417	-3.4146	-2.8479	-2.9417	-3.3875	-2.8812	-3.2562	-3.1312	-2.7687	-3.3	-2.9	-2.6458	-3.2833	-2.5938	-3.1312	210.671	115.474	125.210	291.571	231.661	47.776	279.834	280.104	212.465	136.164	364.857	297.063	306.808	386.640	104.830	357.840	0.0010883	0.0010104	4.6715e-05	734.94	1.2169e-06	1.0085e-05	1064	247.5	1.2733e-05	7.6463e-06	420.28	148	87.023	29.363	6.3575e-06	61.567	0.0004005	0.00040288	0.00011125	666.96	4.3395e-06	4.3152e-06	921.07	221.06	4.3749e-06	4.3933e-06	352.03	124.39	77.413	26.619	4.3397e-06	51.004	49.269	30.180	225.432	41.634	249.907	339.816	40.911	46.576	319.046	253.541	44.991	49.269	51.376	56.084	119.220	52.669	-8191	255	
1731.505	1	1	0	0	0.10058	0.15233	0.11503	0.34344	0.13176	0.20492	0.29664	0.089119	0.24257	0.25835	0.19284	0.049678	0.059356	0.20894	0.10362	0.27235	-2.8937	-2.55	-3.3792	-2.9792	-2.6792	-3.6188	-2.9979	-2.9917	-3.1479	-2.6604	-3.0208	-3.2333	-2.5563	-3.4813	-2.8333	-2.7583	116.993	186.684	103.876	88.050	372.271	197.485	280.155	164.077	105.439	308.128	290.493	188.809	121.830	382.742	115.872	292.752	0.00072698	0.00065722	0.00022731	735.47	8.1037e-06	4.3403e-06	1071.2	251.74	1.0329e-05	4.9872e-06	425.8	149.32	87.911	29.678	9.7821e-06	62.597	0.00040088	0.00039832	0.00011104	665.1	4.335e-06	4.3274e-06	925.81	222.15	4.3508e-06	4.342e-06	353.6	124.97	77.495	26.651	4.3351e-06	51.369	380.418	144.819	288.040	41.568	379.467	345.999	40.509	47.048	168.869	159.543	45.195	48.903	51.049	55.374	38.653	52.832	-8191	255	
1731.601	1	1	0	0	0.12316	0.2634	0.1681	0.19054	0.026543	0.077126	0.25678	0.12243	0.1435	0.30153	0.31595	0.11109	0.029638	0.15325	0.052211	0.17672	-2.8854	-2.7313	-3.1417	-3.1604	-2.6333	-3.1958	-2.9104	-2.9917	-3.5417	-2.6396	-3.225	-3.4875	-2.8917	-3.6271	-2.9875	-2.8104	129.557	209.031	368.679	270.706	188.510	133.868	31.719	318.107	104.915	133.315	309.199	303.600	339.096	59.285	127.637	361.868	0.0010968	0.0006174	0.00014604	733.87	6.4159e-06	8.4421e-06	1066.4	252.61	9.744e-06	9.1006e-06	427.64	150.01	87.417	29.956	9.8997e-06	62.327	0.0003998	0.00039306	0.00011101	664.37	4.293e-06	4.3647e-06	924.39	222.01	4.2885e-06	4.2731e-06	353.31	125.12	76.993	26.671	4.2651e-06	51.129	49.138	98.250	108.172	41.431	172.874	160.043	40.458	46.734	133.877	279.940	44.897	49.171	50.771	56.367	61.271	53.300	-8191	255	
1731.720	1	1	0	0	0.21481	0.12177	0.068159	0.19806	0.12037	0.17107	0.14517	0.22959	0.20095	0.019345	0.20409	0.24707	0.12047	0.028683	0.14054	0.24658	-3.0833	-2.6646	-3.05	-3.3896	-2.5312	-3.4333	-3.1146	-2.7771	-3.2417	-2.7708	-2.8229	-3.5375	-2.725	-3.4813	-3.1937	-2.6417	327.386	57.094	219.017	288.515	345.689	208.613	343.451	30.839	156.620	235.530	359.335	288.282	119.038	242.042	242.039	354.043	0.0012149	0.00053077	6.0547e-05	728.55	2.8407e-06	3.7512e-06	1059.4	250.86	1.1128e-05	5.625e-06	424.56	149.69	87.116	29.597	5.8577e-06	62.322	0.00039416	0.00039184	0.00010661	659.57	4.2501e-06	4.2568e-06	916.17	222.38	4.2755e-06	4.2253e-06	352.32	124.78	76.905	26.498	4.2419e-06	50.94	68.857	91.054	383.388	41.615	178.933	281.747	40.921	47.074	247.404	40.222	45.158	49.294	51.097	55.948	383.612	52.815	-8191	255	
1731.816	1	1	0	0	0.342	0.013594	0.12035	0.11857	0.17445	0.081024	0.073072	0.17874	0.27449	0.22895	0.21823	0.25057	0.26708	0.078406	0.21794	0.21214	-3.0333	-2.7729	-2.9354	-3.4583	-2.7479	-3.1813	-3.1771	-2.6458	-3.3583	-2.9229	-2.8625	-3.525	-2.6396	-3.1021	-3.125	-2.8146	47.994	102.560	282.352	257.586	387.224	68.236	374.228	76.224	347.354	290.876	333.582	323.402	384.888	312.603	375.422	339.505	0.00078685	0.00020021	0.00024482	732.26	6.1401e-06	3.5466e-06	1066.2	254.61	9.8069e-07	5.4686e-06	427.35	150.2	88.231	29.959	2.2422e-06	62.299	0.00038867	0.0003877	0.00010699	660.11	4.2558e-06	4.2294e-06	918.95	222.63	4.2427e-06	4.2294e-06	353.78	125.52	77.475	26.669	4.2703e-06	51.283	29.099	115.888	162.287	41.572	349.258	245.983	40.703	46.902	211.096	238.993	44.270	49.533	50.938	56.114	103.822	52.875	-8191	255	
1731.912	1	1	0	0	0.13878	0.193	0.38811	0.087468	0.23277	0.31533	0.3127	0.29994	0.22279	0.1595	0.19742	0.2598	0.13955	0.087823	0.074245	0.27395	-2.9771	-3.0062	-2.7604	-3.3979	-2.5396	-2.9146	-3.3833	-2.4354	-3.4104	-2.9062	-2.5833	-3.3875	-2.6396	-2.9813	-3.3208	-2.6562	136.730	356.152	366.179	346.023	356.518	332.277	345.532	305.569	308.846	253.156	295.750	302.433	38.381	72.617	104.599	301.310	3.4666e-05	0.00030625	0.00013761	738.95	1.5134e-06	1.508e-05	1080.1	255.03	3.8385e-06	2.3755e-06	428.4	151.78	87.645	30.179	3.6682e-06	62.867	0.0003885	0.00038395	0.00010813	665.47	4.289e-06	4.2412e-06	930.43	224.83	4.3154e-06	4.2755e-06	357.55	126.97	78.212	26.895	4.3002e-06	51.904	158.256	309.559	222.443	41.447	148.805	173.326	40.836	46.596	243.459	268.320	44.446	49.477	50.994	55.756	36.169	53.295	-8191	255	
1732.008	1	1	0	0	0.26921	0.20393	0.0676	0.15693	0.3356	0.0053166	0.26811	0.19408	0.030848	0.079668	0.084253	0.37572	0.1055	0.25238	0.011527	0.24017	-2.8854	-2.8958	-2.5646	-3.4792	-2.6333	-2.9104	-3.3917	-2.7062	-3.1917	-3.1271	-2.8104	-3.475	-2.6167	-2.6937	-3.3479	-2.575	76.692	313.496	384.360	337.082	59.069	279.430	386.612	96.818	362.893	100.953	339.376	297.677	366.892	336.722	59.680	372.633	0.0010394	0.0004327	0.00017643	748.02	5.3417e-06	3.1135e-06	1092.2	256.49	1.4298e-06	8.4738e-06	434.09	153	88.633	30.246	2.0371e-06	63.765	0.0003981	0.00039271	0.00010921	673.46	4.3249e-06	4.3015e-06	939.55	226.1	4.3696e-06	4.3234e-06	359.64	127.93	78.776	27.066	4.3547e-06	52.392	29.412	211.143	365.861	41.562	99.935	366.534	40.772	47.127	46.659	78.723	44.589	49.695	50.753	56.046	62.651	52.682	-8191	255	
1732.105	1	1	0	0	0.10891	0.058432	0.10266	0.35608	0.11245	0.22505	0.33029	0.22797	0.15658	0.12465	0.12214	0.28061	0.096579	0.068366	0.067011	0.39649	-2.8563	-3.1146	-2.5479	-3.4313	-2.7417	-2.7417	-3.5854	-2.75	-3.1167	-3.1854	-2.7375	-3.3917	-2.8792	-2.8438	-3.3646	-2.7313	251.724	32.929	57.426	373.297	360.348	342.474	253.642	327.548	81.964	337.075	251.595	362.906	32.465	279.987	146.125	379.012	0.00061215	0.0010925	0.00021884	749.06	3.0961e-06	3.7503e-06	1080.9	256.89	5.9776e-06	9.8055e-06	436.48	153.01	89.201	30.371	1.2439e-05	63.468	0.00040263	0.00039846	0.0001104	673.99	4.3603e-06	4.382e-06	937.48	226	4.3734e-06	4.3889e-06	361.05	128.22	78.957	27.18	4.4092e-06	52.283	46.219	175.576	121.925	41.430	362.185	100.787	40.933	47.223	242.215	143.910	44.788	49.824	51.062	55.809	239.590	53.183	-8191	255	
1732.201	1	1	0	0	0.039994	0.11486	0.068559	0.17341	0.13469	0.10062	0.20007	0.21873	0.037614	0.098849	0.1116	0.12069	0.28831	0.083103	0.11492	0.24367	-2.6521	-3.3271	-2.55	-3.3375	-3.1	-2.7438	-3.5458	-3.0917	-2.9521	-3.4292	-2.6625	-3.3771	-3.1229	-2.5875	-3.3771	-2.8646	33.803	312.017	82.912	343.768	144.743	99.156	375.772	376.545	273.284	333.110	55.062	351.884	90.119	92.830	275.712	31.943	0.00074616	0.00073663	0.00010925	750.92	3.5642e-06	6.2237e-06	1090.8	255.8	7.9512e-06	4.4453e-06	436.46	154.18	88.974	30.138	4.1578e-06	63.996	0.00040418	0.00039739	0.00011092	677.79	4.3567e-06	4.3982e-06	941.76	226.25	4.4191e-06	4.3925e-06	359.25	128.27	78.796	27.076	4.4068e-06	52.415	354.164	151.380	206.651	42.320	139.595	123.859	40.970	46.536	231.286	102.698	44.917	49.488	51.230	56.235	313.127	53.175	-8191	255	
1732.321	1	1	0	0	0.14561	0.12912	0.073691	0.16723	0.054876	0.10822	0.36413	0.16294	0.12272	0.14723	0.15157	0.30087	0.16462	0.15114	0.11676	0.056783	-2.4625	-3.3875	-2.5875	-3.2917	-3.1813	-2.6604	-3.45	-2.9313	-2.875	-3.275	-2.7083	-3.3333	-3.1667	-2.7771	-3.4583	-2.875	35.261	303.484	36.983	356.231	301.275	174.495	296.983	237.498	367.053	345.524	58.847	342.072	59.145	356.712	74.793	129.138	0.00083515	0.0003448	0.00027553	749.35	8.8649e-06	9.269e-06	1094	256.58	4.7591e-06	1.3557e-05	435.38	152.64	89.181	30.057	1.6162e-06	63.748	0.00040542	0.00040191	0.00011255	676.9	4.4234e-06	4.4094e-06	946.17	226.35	4.4303e-06	4.3935e-06	360.5	128.63	79.093	27.113	4.4697e-06	52.581	325.131	237.895	377.983	41.970	158.580	83.492	40.668	47.241	207.477	231.721	45.578	49.978	50.755	56.300	243.790	53.039	-8191	255	
1732.417	1	1	0	0	0.078652	0.22727	0.20633	0.22781	0.051712	0.29964	0.10773	0.317	0.13847	0.12022	0.11073	0.031961	0.049751	0.18868	0.10629	0.28884	-2.3354	-3.4521	-2.4813	-3.2917	-3.3146	-2.6417	-3.4375	-2.9583	-2.6854	-3.2021	-2.6208	-3.0354	-3.2083	-2.6562	-3.325	-3.0854	50.912	292.861	211.722	345.871	332.971	139.681	383.552	376.324	188.369	360.527	154.904	343.619	84.910	386.356	164.382	297.238	0.0022239	8.6207e-05	0.00027035	757.43	3.8527e-06	5.3171e-06	1094.7	259.44	9.0334e-06	8.6277e-07	435.92	155.38	89.558	30.551	1.7004e-06	64.663	0.00040637	0.00040368	0.00011255	679.01	4.4297e-06	4.4407e-06	949.98	227.06	4.4512e-06	4.4498e-06	362.55	129.89	79.311	27.369	4.4485e-06	53.059	54.644	198.704	233.796	41.367	262.053	270.429	40.744	46.539	274.403	353.546	45.385	49.717	51.179	56.567	353.466	52.924	-8191	255	
1732.512	1	1	0	0	0.061032	0.22825	0.050787	0.12524	0.12282	0.24111	0.24901	0.21521	0.13106	0.14042	0.10605	0.037905	0.12562	0.05565	0.030151	0.14738	-2.1646	-3.2729	-2.5438	-3.0125	-3.4062	-2.6188	-3.375	-3.1729	-2.6562	-3.4083	-2.8521	-2.9208	-3.2875	-2.6	-3.1354	-3.1813	55.073	377.129	296.248	341.545	260.774	141.194	371.429	30.398	34.065	185.555	307.156	182.471	71.767	93.299	306.922	321.168	0.0011096	0.00064515	0.00010964	753.53	3.3307e-06	6.0679e-06	1096.5	257.29	6.7917e-06	1.0321e-05	445.14	155.61	89.449	30.272	3.1084e-06	64.787	0.00040199	0.00040488	0.00011196	681.26	4.383e-06	4.3877e-06	947.46	227.41	4.3983e-06	4.3877e-06	364.81	129.92	79.407	27.251	4.3727e-06	53.187	44.765	121.257	381.810	42.140	119.485	219.830	41.410	46.697	265.059	262.932	44.819	49.465	51.207	55.958	59.375	53.385	-8191	255	
1732.610	1	1	0	0	0.10187	0.086705	0.12103	0.14532	0.067967	0.11886	0.21204	0.17949	0.10022	0.075937	0.22144	0.34569	0.22159	0.31643	0.10432	0.12795	-2.175	-3.2354	-2.9188	-2.975	-3.2854	-2.6875	-3.2833	-3.2208	-2.6292	-3.3167	-3.0312	-2.8333	-3.3146	-2.7562	-3.1792	-3.2	126.938	250.437	178.021	341.254	277.030	34.008	359.584	70.284	62.090	118.336	211.714	367.021	338.026	56.037	86.012	49.806	0.00084983	0.0012551	0.00018304	751.78	3.1533e-06	4.8529e-06	1095.8	258.24	7.0832e-06	9.6323e-06	441.26	155.4	89.87	29.966	3.4167e-06	64.016	0.00040378	0.00040566	0.00011191	677.94	4.3861e-06	4.3436e-06	943.59	227.46	4.376e-06	4.3687e-06	362.84	129.28	78.944	27	4.3395e-06	52.61	73.970	291.932	63.104	41.715	315.193	199.570	41.307	47.243	337.922	202.206	45.215	49.685	50.756	56.102	249.689	53.263	-8191	255	
1732.704	1	1	0	0	0.11038	0.12139	0.07669	0.18183	0.2409	0.4017	0.25606	0.25227	0.17267	0.234	0.24105	0.14811	0.24684	0.16184	0.13035	0.020372	-2.2042	-3.2583	-3.1104	-2.7375	-3.3563	-2.9229	-3.2792	-3.4708	-2.6667	-3.3896	-3.1021	-2.8667	-3.4042	-2.7021	-3.0083	-3.5646	157.489	221.321	198.444	363.674	75.114	56.089	380.244	298.267	189.200	55.773	329.926	47.168	238.611	371.561	328.197	260.975	0.0010132	0.00099716	0.00012968	750.41	2.9734e-06	4.1751e-06	1097	260.23	7.6094e-06	9.2214e-06	441.55	153.79	89.969	30.323	6.1048e-07	64.385	0.00039943	0.00039603	0.00011044	676.33	4.34e-06	4.3217e-06	944.62	227.54	4.3534e-06	4.36e-06	362.77	128.42	78.63	26.999	4.3348e-06	52.7	327.174	331.830	334.102	41.229	73.780	42.534	41.150	46.945	271.584	223.967	45.062	49.371	51.061	56.212	155.262	53.123	-8191	255	
1732.800	1	1	0	0	0.13573	0.0669	0.11459	0.30956	0.061402	0.13076	0.33385	0.27246	0.19318	0.20364	0.1627	0.32758	0.21494	0.15963	0.1191	0.31458	-2.3396	-3.2396	-3.2062	-2.7292	-3.5271	-2.8187	-3.1292	-3.4458	-2.8146	-3.3146	-3.2208	-2.8167	-3.5	-2.8833	-2.9479	-3.4833	300.327	86.089	275.833	329.679	347.823	112.709	283.327	60.045	269.947	366.896	277.703	36.142	283.005	288.088	355.694	215.193	0.00062096	0.00108	0.00028884	751.64	4.0362e-06	1.0995e-05	1088.8	257.45	8.999e-06	2.7091e-06	440.88	154.84	89.023	30.255	3.4634e-06	64.915	0.00039789	0.00039471	0.00010907	677.51	4.3489e-06	4.3319e-06	943.59	227.39	4.3462e-06	4.3676e-06	361.84	128.93	78.977	27.198	4.377e-06	52.905	50.859	155.836	104.719	41.961	152.668	229.052	41.525	47.214	167.684	164.989	45.046	49.664	51.666	56.233	64.929	53.423	-8191	255	
1732.896	1	1	0	0	0.26862	0.16985	0.20745	0.31587	0.03736	0.23061	0.22525	0.34802	0.13421	0.19662	0.10506	0.08063	0.12924	0.21812	0.21521	0.25622	-2.2271	-3.1479	-3.125	-2.6188	-3.2792	-2.9	-3.1375	-3.5208	-2.475	-3.1646	-3.3396	-2.6708	-3.4125	-3.0417	-2.8854	-3.4979	212.532	296.776	287.997	349.896	178.635	364.201	371.217	29.707	38.610	280.775	258.401	340.485	55.302	288.670	317.724	313.868	0.00074885	0.0011421	0.00031875	751.08	2.0189e-06	7.385e-06	1095.5	258.9	8.0354e-06	8.5571e-06	436.95	154.42	90.105	30.541	2.9882e-06	64.93	0.00039764	0.00039692	0.00011207	677.04	4.3713e-06	4.3393e-06	944.46	228.42	4.3754e-06	4.3566e-06	362.72	128.75	79.135	27.213	4.3699e-06	52.938	36.648	164.798	368.482	41.764	191.028	386.994	41.201	47.501	44.718	193.266	45.407	50.343	51.688	56.274	81.789	53.196	-8191	255	
1733.017	1	1	0	0	0.041571	0.27133	0.27313	0.13057	0.29154	0.1282	0.067941	0.30423	0.15804	0.086514	0.12757	0.050495	0.048591	0.25976	0.16575	0.12457	-2.4479	-2.9896	-3.1771	-2.8063	-3.3917	-3.0854	-2.8708	-3.6333	-2.7542	-3.0042	-3.4667	-2.7562	-3.3667	-3.2062	-2.6063	-3.7104	191.075	287.817	85.854	121.542	352.960	154.851	41.374	337.881	107.128	229.985	64.135	157.281	276.860	53.593	201.433	280.093	0.00096806	0.0010281	0.00028764	753.42	7.56e-06	3.5396e-06	1085.8	260.99	1.0806e-06	1.0805e-05	438.43	155.46	88.511	30.611	5.1147e-06	64.125	0.00040102	0.00039722	0.00011077	675.89	4.3655e-06	4.3733e-06	941.4	228.15	4.3491e-06	4.3529e-06	364.1	129.07	78.634	27.11	4.3436e-06	52.89	373.917	258.437	284.675	41.706	181.472	175.946	41.045	46.597	86.077	157.983	44.826	49.378	51.496	56.307	228.400	52.980	-8191	255	
1733.113	1	1	0	0	0.1691	0.16922	0.32451	0.13455	0.095142	0.2916	0.16475	0.28721	0.27409	0.19454	0.083455	0.16692	0.077437	0.18399	0.12257	0.12612	-2.5125	-2.9521	-3.375	-2.6979	-3.1833	-3.1083	-2.9375	-3.4542	-2.7396	-2.9646	-3.5292	-2.825	-3.1604	-3.1125	-2.4875	-3.3979	373.936	67.847	115.336	51.973	221.425	205.421	291.563	166.184	353.318	312.041	218.639	334.363	376.939	283.691	370.213	342.494	0.0011213	0.00082558	8.02e-05	751.16	1.6797e-06	7.9329e-06	1083.5	258.48	7.3178e-06	9.134e-06	439.36	154.15	88.994	30.413	1.6445e-06	64.611	0.00039975	0.00039991	0.00010978	675.69	4.3775e-06	4.3555e-06	939.33	227.12	4.3803e-06	4.3463e-06	361.42	128.24	78.739	27.151	4.3532e-06	52.835	32.610	176.569	50.917	41.563	76.429	260.257	40.860	47.040	211.422	217.941	45.155	49.747	51.455	56.092	114.417	53.235	-8191	255	
1733.209	1	1	0	0	0.085364	0.26131	0.057638	0.204	0.11179	0.10645	0.1832	0.21606	0.10528	0.28559	0.056487	0.33119	0.084271	0.25033	0.1221	0.23935	-2.4458	-2.8292	-3.4208	-2.8542	-3.0917	-3.2583	-2.8229	-3.5604	-3.1479	-2.6688	-3.3875	-2.8563	-3.0896	-3.2562	-2.4458	-3.3292	229.692	69.420	232.161	346.894	245.674	163.025	280.882	293.625	52.816	31.352	210.381	364.701	63.149	58.134	217.168	324.488	0.0014906	0.0007239	0.00012197	747.92	7.7664e-06	1.9757e-06	1092.1	257.31	9.855e-06	9.7801e-06	439.16	154.01	88.535	30.289	3.5408e-06	64.573	0.00040299	0.00039796	0.00011088	674.53	4.3411e-06	4.3127e-06	939.32	227.36	4.3656e-06	4.3528e-06	362.79	128.54	78.56	27.191	4.3649e-06	52.739	46.520	251.507	185.825	41.982	45.463	220.293	40.895	47.142	217.170	94.321	45.220	49.238	51.318	55.734	259.915	53.219	-8191	255	
1733.281	1	1	0	0	0.18356	0.20962	0.17038	0.23692	0.27259	0.23011	0.3038	0.028176	0.11532	0.17907	0.23183	0.080488	0.073875	0.039071	0.11231	0.22768	-2.6792	-2.5521	-3.5771	-2.7271	-2.8229	-3.4375	-2.7792	-3.3187	-3.1854	-2.5396	-3.5625	-2.9854	-2.8604	-3.2812	-2.5604	-3.2562	200.711	192.227	296.010	66.444	58.761	358.179	353.803	94.815	326.895	383.203	328.610	358.436	81.541	345.162	158.317	338.995	0.00049251	0.00069823	0.00041488	743.9	7.262e-06	1.401e-05	1088.2	258.4	1.2733e-05	3.48e-06	438.81	154.17	89.736	30.773	9.9583e-06	64.685	0.00039893	0.00039578	0.00011065	675.43	4.3809e-06	4.387e-06	938.34	227.81	4.356e-06	4.4097e-06	362.8	128.71	79.203	27.315	4.4081e-06	52.924	50.355	333.656	179.743	41.743	165.287	167.946	41.167	47.319	241.296	325.323	44.786	49.308	51.624	56.243	183.639	52.966	-8191	255	
1733.402	1	1	0	0	0.1676	0.19426	0.18904	0.081028	0.028617	0.35393	0.17197	0.057236	0.14442	0.19913	0.16641	0.11324	0.12096	0.32897	0.088622	0.21602	-2.7313	-2.7667	-3.3604	-3.0542	-2.7646	-3.3312	-2.7354	-3.225	-3.1937	-2.9542	-3.3021	-3.0021	-2.8229	-3.4062	-2.8146	-3.1688	255.715	79.423	380.492	66.552	265.452	34.134	294.720	355.164	179.524	100.654	106.089	89.054	318.809	197.574	244.541	345.208	0.0015153	0.00048366	0.00026578	753.69	8.1534e-06	3.5813e-06	1087.6	258.82	6.2873e-06	3.3702e-06	441.1	154.82	90.281	30.78	1.9805e-06	64.862	0.00040023	0.00039604	0.00011174	673.68	4.3448e-06	4.3889e-06	937.75	228.24	4.3845e-06	4.3895e-06	363.38	129.33	79.613	27.239	4.4034e-06	53.353	373.903	208.720	109.676	41.575	141.940	187.104	41.054	47.180	210.988	108.628	45.000	49.397	51.609	56.015	167.523	53.388	-8191	255	
1733.498	1	1	0	0	0.31252	0.19987	0.28721	0.15041	0.037849	0.32031	0.2856	0.14563	0.14027	0.27632	0.096904	0.012013	0.30461	0.2556	0.10183	0.33084	-2.9083	-2.5938	-3.4146	-3.0854	-2.7458	-3.4792	-2.8875	-3.0687	-3.2771	-2.7229	-3.3375	-3.0375	-2.7208	-3.6271	-2.7938	-3.1688	49.608	286.173	298.347	104.207	98.136	246.902	316.063	271.275	375.204	168.065	323.927	112.050	34.949	65.663	249.316	320.978	0.0016696	0.00027498	0.00025219	747.95	1.0615e-05	9.1076e-06	1093.3	258.53	1.7489e-05	4.4813e-06	440.92	155.61	90.6	30.99	1.8882e-05	65.864	0.00040283	0.00039402	0.00011165	677.25	4.3956e-06	4.3776e-06	946.57	227.81	4.3927e-06	4.3533e-06	365.48	129.96	79.922	27.501	4.3638e-06	53.777	43.573	298.637	261.096	41.933	104.551	365.811	40.947	47.295	356.739	296.318	44.774	49.121	51.538	56.641	254.945	53.336	-8191	255	
1733.594	1	1	0	0	0.18374	0.1308	0.18848	0.13963	0.13458	0.17423	0.2245	0.25932	0.10758	0.27535	0.088559	0.38333	0.1383	0.2362	0.34795	0.095381	-3.0604	-2.7687	-3.1917	-3.2146	-2.7479	-3.5583	-3.0875	-3.0187	-3.3542	-2.7062	-3.2375	-3.2625	-2.7333	-3.45	-3.0312	-2.9604	110.202	282.710	217.541	178.884	73.729	65.639	389.204	174.421	200.769	384.691	296.301	353.120	303.852	370.106	280.067	238.911	0.001438	0.00074388	0.00038224	754.49	5.3474e-06	1.0853e-05	1105.5	260.54	4.8276e-06	3.7985e-06	442.38	156.56	90.801	30.591	2.0461e-06	65.634	0.00040284	0.00040154	0.00011191	679.04	4.387e-06	4.4048e-06	949.4	229.25	4.3667e-06	4.3635e-06	365.36	130.25	79.92	27.426	4.3705e-06	53.626	36.296	218.389	95.215	42.012	209.991	213.300	40.696	47.201	296.860	198.979	45.332	50.001	51.703	56.592	130.576	53.734	-8191	255	
1733.690	1	1	0	0	0.17957	0.17116	0.066884	0.050057	0.20526	0.076691	0.34352	0.23402	0.17401	0.039463	0.16701	0.2189	0.061292	0.11993	0.13098	0.19783	-3.225	-2.5292	-3.0062	-3.2583	-2.5396	-3.1521	-3.0792	-2.9125	-3.2917	-2.675	-3.1542	-3.2479	-2.6063	-3.5375	-2.9	-2.7938	174.833	269.037	307.298	270.366	365.739	345.920	242.317	252.072	126.734	349.099	334.888	327.714	305.886	172.298	29.454	283.580	0.0013507	0.00048214	0.00018033	755.92	1.0597e-05	6.2495e-06	1095.7	259.45	8.6737e-06	5.4888e-06	440.21	155.94	89.93	30.919	1.2642e-05	65.77	0.00040208	0.00039887	0.00011165	680.01	4.3873e-06	4.4151e-06	943.65	228.13	4.3953e-06	4.3675e-06	364.87	130.27	79.841	27.43	4.3955e-06	53.71	37.807	207.737	189.078	41.842	199.947	288.012	41.412	47.180	193.873	151.773	45.720	49.971	52.168	55.862	232.029	53.368	-8191	255	
1733.809	1	1	0	0	0.057799	0.21942	0.13972	0.17884	0.090938	0.30742	0.20843	0.36773	0.17938	0.075706	0.36473	0.31462	0.19575	0.2188	0.051236	0.21554	-2.9208	-2.6604	-2.7125	-3.4667	-2.6333	-3.2458	-3.1875	-2.6854	-3.2708	-2.6854	-2.8208	-3.5979	-2.4896	-3.3146	-3.1604	-2.8479	379.700	110.754	143.624	274.160	360.943	185.773	322.365	314.043	214.502	345.633	238.286	322.268	160.603	335.364	245.590	85.635	0.0014474	0.00082433	5.8532e-05	757.12	5.2139e-06	1.3764e-05	1093.3	258.23	8.9344e-06	6.0932e-06	434.62	156.63	90.574	30.601	1.1965e-05	65.314	0.0004045	0.00040145	0.00011287	678.98	4.4132e-06	4.4384e-06	942.96	227.92	4.4203e-06	4.4433e-06	362.49	130.32	80.147	27.525	4.4525e-06	53.644	380.360	75.232	232.522	42.030	164.131	192.715	41.199	46.810	362.090	318.454	45.399	49.914	51.201	56.483	165.803	53.428	-8191	255	
1733.905	1	1	0	0	0.2279	0.16852	0.13387	0.23219	0.054641	0.13448	0.14208	0.11804	0.19395	0.11575	0.10387	0.12979	0.085231	0.21232	0.3107	0.21121	-2.6521	-2.8667	-2.7125	-3.3729	-2.65	-2.9667	-3.3292	-2.6917	-3.4771	-2.9896	-2.6833	-3.3979	-2.6375	-3.0458	-3.2104	-2.7833	388.591	375.532	376.888	51.611	334.384	287.038	264.299	345.967	89.909	98.320	351.432	75.218	378.348	280.506	109.353	381.685	0.0012228	0.00016365	0.00023598	755.02	2.9996e-06	8.6185e-06	1091.2	257.89	5.9682e-06	1.3141e-06	437.98	156.53	90.734	31.052	2.0173e-06	65.813	0.00040528	0.00040505	0.00011249	680.25	4.4517e-06	4.456e-06	944.72	228.11	4.4532e-06	4.4192e-06	363.48	131.13	80.363	27.571	4.4771e-06	53.927	367.964	383.364	116.103	42.036	239.697	251.042	41.361	46.755	320.642	294.842	45.404	49.331	50.751	55.679	248.747	53.144	-8191	255	
1734.001	1	1	0	0	0.059443	0.28342	0.26976	0.27232	0.24664	0.052775	0.29311	0.18196	0.16669	0.1273	0.092399	0.10986	0.13702	0.11111	0.16621	0.1979	-2.8479	-2.8542	-2.6896	-3.4833	-2.6813	-3.1625	-3.3021	-2.5042	-3.2062	-3.0375	-2.5979	-3.3104	-2.9542	-2.8021	-3.3833	-2.7333	214.211	373.615	173.337	323.737	289.850	142.185	324.991	277.099	357.515	217.226	388.890	246.391	284.536	130.820	49.786	316.471	0.00045064	9.4686e-05	8.8721e-05	754.32	1.7749e-06	1.339e-05	1097.2	258.08	4.4016e-06	3.0695e-06	440.61	157.38	91.226	31.328	1.0178e-05	66.315	0.00040572	0.00040754	0.00011339	681.24	4.4854e-06	4.452e-06	948.21	227.59	4.4768e-06	4.4563e-06	365.41	131.53	80.862	27.815	4.4958e-06	54.071	37.422	239.880	221.265	41.629	178.741	183.576	40.999	47.049	383.112	347.319	45.338	49.802	51.768	56.516	84.175	53.338	-8191	255	
1734.097	1	1	0	0	0.043218	0.060592	0.25315	0.22483	0.074556	0.27496	0.24379	0.087582	0.24979	0.10213	0.1721	0.27238	0.15073	0.28892	0.14899	0.15325	-2.8187	-2.9146	-2.6146	-3.4125	-2.7562	-2.9229	-3.5042	-2.6937	-3.1521	-3.2062	-2.725	-3.4854	-2.8104	-2.9771	-3.2792	-2.6667	363.932	384.398	78.276	387.885	214.614	252.169	320.921	324.547	352.466	198.986	385.295	377.075	114.021	225.367	365.856	184.953	0.0006831	0.00077505	0.0002578	756.95	5.5515e-06	1.8876e-05	1097.2	258.05	7.604e-06	5.6412e-06	436.2	157.44	91.21	31.194	9.096e-06	66.921	0.0004139	0.00040548	0.00011306	681.22	4.4611e-06	4.4759e-06	944.78	227.17	4.4547e-06	4.4548e-06	363.88	132.05	80.975	27.774	4.4796e-06	54.48	69.733	293.308	156.170	41.969	113.611	202.935	41.486	47.482	352.228	133.891	45.489	49.232	50.774	56.407	177.087	53.009	-8191	255	
1734.194	1	1	0	0	0.085471	0.13721	0.22773	0.080335	0.093774	0.33722	0.22117	0.20118	0.18707	0.10933	0.25753	0.05918	0.16562	0.2029	0.23155	0.17396	-2.6917	-3.0938	-2.4562	-3.4229	-2.9437	-2.8354	-3.6021	-2.6979	-3.1312	-3.3146	-2.6063	-3.4313	-2.9896	-2.6229	-3.4333	-2.8271	61.062	340.880	238.867	66.541	121.096	220.688	339.598	229.108	238.364	151.494	42.183	299.386	359.891	338.626	34.239	38.627	0.00054391	0.0011546	0.00019346	755.62	6.1442e-06	6.6143e-06	1117	260.01	3.0913e-07	2.1836e-06	448.76	162.4	92.629	31.531	1.5915e-05	67.602	0.0004096	0.00040241	0.00011219	682.17	4.3407e-06	4.3278e-06	954.64	228.43	4.2451e-06	4.288e-06	367	134.25	80.837	27.807	4.2712e-06	55.089	370.479	111.127	285.048	41.956	110.215	117.824	41.442	46.962	308.139	207.749	45.314	50.005	50.994	56.346	164.421	53.446	-8191	255	
1734.290	1	1	0	0	0.089893	0.15851	0.26202	0.32051	0.089641	0.36434	0.26901	0.135	0.15297	0.12143	0.26459	0.1425	0.1592	0.20512	0.17985	0.21138	-2.5396	-3.2938	-2.5646	-3.3438	-3.1396	-2.8396	-3.425	-2.9562	-2.9667	-3.4208	-2.7021	-3.4	-3.1375	-2.9208	-3.4167	-2.8104	309.664	70.168	343.860	338.604	166.510	382.055	298.079	324.448	150.279	377.400	273.941	214.278	324.965	317.037	190.196	258.472	0.0014385	0.00054929	0.00030291	759.33	6.9537e-06	6.8861e-06	1115.2	261.23	7.7874e-06	6.8817e-06	444.77	160.99	91.775	31.779	6.0019e-06	67.975	0.00038474	0.00038752	0.00010735	685.04	4.2123e-06	4.2572e-06	959.02	228.72	4.2604e-06	4.307e-06	367.84	133.48	80.576	27.934	4.2926e-06	55.131	40.158	224.879	41.977	42.495	157.704	166.089	41.587	47.000	164.909	385.088	45.724	49.837	51.220	55.833	252.714	53.161	-8191	255	
1734.410	1	1	0	0	0.34296	0.14005	0.064721	0.20068	0.044114	0.059578	0.20889	0.23338	0.070999	0.078347	0.1731	0.30272	0.1059	0.23929	0.089639	0.075765	-2.4417	-3.2896	-2.6854	-3.3208	-3.1625	-2.4375	-3.3979	-2.7771	-2.8125	-3.3979	-2.65	-3.1937	-3.3396	-2.6958	-3.3396	-2.95	323.650	380.777	297.135	343.709	260.065	263.890	296.833	376.795	267.117	80.359	61.405	350.190	238.573	385.718	207.658	273.153	0.0013947	0.00066745	0.00036148	767.83	6.852e-06	4.6687e-06	1127.5	259.06	5.1385e-06	1.1328e-05	448.41	160.46	91.576	31.338	3.9679e-06	67.853	0.00039157	0.0003867	0.00010711	687.59	4.2801e-06	4.2371e-06	966.21	227.2	4.2867e-06	4.2579e-06	366.22	132.97	80.546	27.763	4.3013e-06	54.879	378.980	150.224	86.556	41.687	216.214	317.098	41.090	46.729	235.424	377.689	44.340	50.306	51.046	56.174	185.547	53.019	-8191	255	
1734.505	1	1	0	0	0.26906	0.42995	0.13692	0.069745	0.17813	0.26778	0.21827	0.18676	0.02556	0.10241	0.14669	0.32414	0.19584	0.12837	0.081561	0.079425	-2.4271	-3.4417	-2.6063	-3.2125	-3.2917	-2.6604	-3.4188	-3.1104	-2.6021	-3.5021	-2.6208	-3.0792	-3.2292	-2.725	-3.2812	-3.2833	354.286	388.740	32.551	131.723	220.918	367.457	295.438	308.467	192.772	124.861	375.682	294.110	36.515	78.488	228.456	279.251	0.001647	0.00088085	4.2068e-05	766.61	6.9924e-06	7.3576e-06	1122.7	258.07	8.0958e-06	6.6877e-06	439.73	160.06	91.971	31.467	4.3356e-06	67.312	0.00039345	0.00038906	0.00010866	686.12	4.2816e-06	4.2891e-06	965.59	228.03	4.2574e-06	4.2901e-06	364.57	132.53	80.704	27.828	4.2734e-06	54.846	48.437	199.407	313.255	41.516	60.635	211.377	41.207	47.052	104.259	349.013	45.076	49.493	50.987	55.901	343.375	53.006	-8191	255	
1734.578	1	1	0	0	0.24176	0.061257	0.16502	0.23749	0.043865	0.1058	0.16964	0.21354	0.33496	0.093253	0.12842	0.2154	0.1071	0.25692	0.059658	0.22021	-2.3604	-3.4917	-2.7333	-2.9542	-3.3521	-2.5271	-3.2792	-3.2292	-2.6042	-3.2938	-2.8333	-2.9417	-3.4188	-2.7938	-3.0667	-3.3354	262.094	207.675	62.447	359.677	29.940	116.298	365.472	47.537	93.149	354.046	297.602	321.793	216.444	388.831	51.075	314.719	0.0010565	0.0011636	8.7719e-05	770.12	2.8689e-06	6.7532e-06	1121.8	259.68	1.2318e-05	3.2514e-06	446.63	160.32	92.472	31.514	9.8702e-06	67.822	0.00039352	0.00039151	0.00010838	687.9	4.2399e-06	4.3052e-06	964.07	227.75	4.2956e-06	4.2626e-06	366.15	132.73	80.736	27.915	4.2921e-06	54.953	357.962	226.521	90.537	41.816	268.537	308.171	41.033	47.193	145.881	255.542	45.442	49.645	51.210	56.332	149.681	53.276	-8191	255	
1734.674	1	1	0	0	0.30227	0.25097	0.21298	0.070548	0.10319	0.073084	0.065709	0.34318	0.023268	0.072943	0.25269	0.33644	0.10194	0.073749	0.19661	0.081253	-2.1271	-3.1771	-2.8771	-2.7667	-3.1708	-2.7708	-3.2479	-3.4458	-2.5875	-3.3771	-2.875	-2.8563	-3.4562	-2.7083	-3.1562	-3.2271	195.887	345.374	181.924	381.605	129.467	319.790	329.568	312.846	73.982	191.775	268.089	365.408	310.394	211.216	356.328	214.627	0.001258	0.00026723	9.1523e-05	764.1	1.5992e-06	1.087e-05	1123.3	257.95	1.1976e-05	2.1244e-05	447.24	159.99	92.076	31.462	7.31e-06	67.379	0.00039348	0.00039177	0.00010907	685.84	4.3083e-06	4.2849e-06	961.74	227.6	4.3169e-06	4.3264e-06	367.34	132.74	80.747	27.831	4.3758e-06	54.826	371.109	169.555	29.678	42.598	89.767	284.000	41.960	47.468	200.666	226.471	45.312	50.365	51.392	56.417	261.067	53.382	-8191	255	
1734.793	1	1	0	0	0.18821	0.087752	0.10313	0.14178	0.11079	0.059345	0.28812	0.23251	0.12911	0.1552	0.3011	0.152	0.038859	0.19326	0.10528	0.47192	-2.2271	-3.2562	-2.9979	-2.6771	-3.3063	-2.7375	-2.9771	-3.2938	-2.4521	-3.2188	-3.0396	-2.7729	-3.3708	-2.8187	-2.9354	-3.475	60.119	377.438	253.394	63.958	359.172	263.252	312.290	327.057	381.955	377.982	42.675	64.048	320.511	372.096	261.930	382.740	0.001656	0.00079575	8.1912e-05	761.3	5.8146e-06	8.8933e-06	1122.6	260.78	9.2822e-06	5.3878e-06	442.52	158.93	91.501	31.763	4.5299e-06	66.463	0.00039948	0.00039771	0.00011001	684.58	4.2953e-06	4.3233e-06	962.31	228.07	4.3557e-06	4.2952e-06	364.81	131.84	80.513	27.872	4.3443e-06	54.335	54.974	195.389	287.687	41.425	93.946	211.964	41.023	46.557	168.984	234.765	44.746	49.848	51.207	56.083	179.725	53.091	-8191	255	
1734.889	1	1	0	0	0.35869	0.17625	0.0054536	0.21677	0.23487	0.14483	0.092798	0.2213	0.13786	0.063193	0.29104	0.051446	0.067295	0.092825	0.1061	0.23046	-2.2646	-3.1917	-3.1417	-2.6667	-3.4104	-2.7792	-2.8854	-3.3667	-2.6646	-3.1188	-3.4208	-2.6958	-3.3583	-2.9667	-2.8875	-3.4458	76.124	175.387	119.689	269.003	77.813	358.355	337.913	387.248	181.534	92.860	60.104	362.941	46.397	122.190	172.105	291.787	0.0012298	0.00083743	0.00013501	757.47	6.9042e-06	1.1858e-05	1105	259.5	7.9612e-06	5.3652e-06	435.62	157.68	91.054	31.44	4.0606e-06	66.226	0.00039908	0.00039756	0.00010974	683.36	4.3393e-06	4.2909e-06	952.89	226.95	4.3051e-06	4.3125e-06	360.5	131.16	80.007	27.707	4.332e-06	53.875	61.915	224.197	37.542	42.267	47.679	275.948	41.684	46.962	52.530	89.608	45.653	49.894	51.682	56.661	362.758	52.946	-8191	255	
1734.986	1	1	0	0	0.066981	0.27355	0.085255	0.29761	0.078684	0.17154	0.25378	0.17478	0.10271	0.11446	0.18266	0.11962	0.1063	0.21499	0.17826	0.16387	-2.3583	-3.0292	-3.225	-2.5375	-3.3417	-2.9646	-2.8958	-3.6146	-2.6688	-3.1521	-3.3458	-2.6646	-3.2667	-3.0271	-2.6958	-3.6667	329.560	119.198	99.466	300.126	153.886	164.399	321.851	317.033	303.634	39.711	291.110	228.458	348.693	35.965	256.949	286.589	0.00088607	0.00068846	0.00024587	758.18	6.8466e-06	1.2445e-05	1108	259.84	7.4614e-06	3.5564e-06	437.36	157.98	91.035	30.976	5.3535e-06	66.477	0.00039572	0.00038988	0.00010951	678.99	4.3089e-06	4.2855e-06	947.66	226.91	4.2919e-06	4.2754e-06	360.06	130.79	79.778	27.425	4.2768e-06	53.948	60.993	87.417	133.832	42.377	220.345	74.014	41.757	47.104	213.886	275.665	45.106	49.898	51.056	55.738	136.094	52.889	-8191	255	
1735.082	1	1	0	0	0.11479	0.10862	0.080971	0.11852	0.14883	0.076299	0.15952	0.16223	0.013646	0.11655	0.14909	0.33807	0.28096	0.2017	0.29749	0.22485	-2.4646	-2.8146	-3.3625	-2.7875	-3.2104	-3.1083	-2.8167	-3.4688	-2.75	-2.6333	-3.3438	-2.7583	-3.0875	-3.1542	-2.6542	-3.3958	52.725	244.924	230.861	163.960	107.937	268.838	301.899	368.565	330.016	142.947	351.205	365.198	40.024	383.483	115.363	319.868	0.00094874	0.00049552	0.00020005	748.12	4.844e-06	2.4219e-06	1095.3	256.16	4.6919e-06	9.874e-06	438.92	156.4	90.884	30.952	1.3799e-05	66.282	0.0003912	0.00038671	0.00010907	675.32	4.2576e-06	4.2552e-06	943.98	225.74	4.2699e-06	4.2443e-06	359.72	129.85	79.442	27.351	4.2426e-06	53.985	387.166	285.306	186.642	41.677	334.148	186.260	41.049	46.505	44.710	221.284	45.257	49.974	51.108	55.600	150.224	53.292	-8191	255	
1735.178	1	1	0	0	0.15405	0.30391	0.082514	0.3424	0.083014	0.018556	0.24517	0.12946	0.066173	0.085904	0.19549	0.20414	0.35992	0.14342	0.25138	0.40295	-2.4792	-3.0042	-3.3083	-2.65	-3.1479	-3.1396	-2.6896	-3.4417	-3.0125	-2.8125	-3.4125	-2.8937	-3.1021	-3.2542	-2.6208	-3.5062	167.188	267.578	175.314	325.120	306.656	282.702	358.963	81.950	266.229	341.089	356.977	31.355	337.637	274.315	142.700	31.080	0.00088686	0.0010089	0.00018741	752.11	2.8265e-06	1.5952e-06	1102.4	256.72	1.2941e-05	5.3781e-06	437.38	155.91	89.826	31.226	6.9006e-06	66.005	0.00038844	0.00038942	0.00010775	674.16	4.273e-06	4.2036e-06	944.95	225.67	4.2548e-06	4.2421e-06	361.17	130.02	79.151	27.466	4.2573e-06	53.756	45.892	192.153	87.649	42.164	164.657	131.728	41.592	46.946	204.462	278.049	45.338	50.048	51.782	56.193	129.498	53.179	-8191	255	
1735.274	1	1	0	0	0.26646	0.39454	0.17893	0.34259	0.41333	0.13585	0.22723	0.39996	0.19492	0.041356	0.066971	0.19292	0.2052	0.10906	0.11646	0.20736	-2.4604	-2.5438	-3.5542	-2.8312	-2.9958	-3.2917	-2.8271	-3.3896	-3.0583	-2.6312	-3.5	-2.7938	-2.8771	-3.4479	-2.6646	-3.2458	233.779	198.641	298.968	94.690	136.496	373.689	364.828	337.974	166.443	341.450	343.259	369.172	372.204	325.671	283.441	349.550	0.00097077	0.00063937	0.00038706	758.42	5.9974e-06	8.7643e-06	1089.9	256.49	6.9543e-06	7.003e-06	437.71	156.72	90.735	30.781	1.1135e-05	65.576	0.00039074	0.00038907	0.00010799	676.91	4.2412e-06	4.287e-06	939.06	225.55	4.2619e-06	4.2451e-06	360.82	129.96	79.43	27.301	4.2663e-06	53.686	36.091	273.624	211.955	42.326	286.425	184.836	40.885	47.293	388.074	345.346	45.502	49.912	51.811	56.416	130.576	53.193	-8191	255	
1735.370	1	1	0	0	0.16765	0.14367	0.16898	0.32567	0.18939	0.24359	0.30906	0.20096	0.1232	0.17536	0.2675	0.06237	0.12411	0.091433	0.11751	0.12972	-2.7313	-2.6125	-3.1104	-2.8146	-2.8438	-3.3542	-2.7812	-3.3042	-3.1042	-2.6042	-3.5604	-2.9667	-2.7958	-3.5187	-2.6667	-3.0833	298.427	223.181	212.544	362.953	152.290	57.114	383.888	289.126	191.892	141.851	334.471	244.972	334.724	217.010	249.786	270.116	0.0011538	0.00088555	4.1778e-05	747.87	9.4653e-06	1.1545e-05	1092.3	255.21	7.8531e-06	8.2675e-06	436.05	155.93	89.983	30.811	1.1567e-05	65.64	0.00038886	0.00038764	0.00010868	673.91	4.2469e-06	4.2485e-06	940.4	225.85	4.2425e-06	4.2222e-06	360.47	129.53	79.358	27.25	4.2638e-06	53.673	383.044	155.564	176.423	41.433	79.847	206.480	40.958	46.613	246.998	269.299	44.077	49.339	51.031	55.847	47.864	53.268	-8191	255	
1735.491	1	1	0	0	0.20793	0.13109	0.11973	0.27947	0.066094	0.24779	0.012904	0.086263	0.14995	0.10542	0.094652	0.25207	0.19019	0.16861	0.33236	0.29435	-2.7646	-2.5167	-3.3271	-3.0583	-2.7625	-3.6937	-2.7562	-3.0667	-3.3812	-2.5833	-3.4771	-3.1562	-2.7417	-3.5812	-2.5854	-3.0229	28.893	100.613	227.749	299.033	98.503	128.490	311.636	329.075	136.346	157.229	75.520	386.515	83.881	47.796	64.803	333.304	0.0015904	0.001002	0.00013208	753.64	2.6569e-06	1.8187e-05	1096.5	259.32	7.459e-06	4.2018e-06	442.34	157.06	90.273	30.966	5.2616e-06	66.22	0.00039044	0.00038729	0.00010798	677.43	4.2353e-06	4.2651e-06	941.39	226.56	4.2748e-06	4.2542e-06	362.14	130.48	79.487	27.403	4.2592e-06	53.907	42.363	67.792	185.178	41.624	248.009	161.134	40.883	46.690	156.542	243.971	45.094	49.571	51.189	55.582	64.974	53.230	-8191	255	
1735.585	1	1	0	0	0.024781	0.1037	0.10129	0.045665	0.17249	0.29203	0.12974	0.2063	0.17531	0.097469	0.25884	0.26546	0.062052	0.059044	0.16412	0.38936	-2.95	-2.6271	-3.0854	-3.125	-2.4813	-3.4688	-2.9146	-2.925	-3.2313	-2.6229	-3.1312	-3.1875	-2.7271	-3.5062	-2.7375	-2.9292	330.394	109.413	280.468	243.513	32.280	278.901	335.940	336.293	314.956	278.040	330.459	36.535	282.218	304.932	286.885	348.087	0.0014207	0.0014644	0.00034896	753.21	3.6926e-06	1.3707e-05	1104.3	257.64	9.7329e-06	4.7939e-06	437.57	156.9	90.912	30.821	1.1027e-05	66.292	0.00039144	0.00038847	0.00010873	676.78	4.2749e-06	4.2908e-06	946.52	226.34	4.2981e-06	4.2627e-06	362.07	130.14	79.438	27.41	4.2437e-06	53.89	378.165	365.165	126.067	42.021	113.213	129.913	40.878	46.753	330.937	121.578	45.595	49.271	51.187	56.514	259.729	53.218	-8191	255	
1735.683	1	1	0	0	0.063881	0.33064	0.086911	0.16072	0.064136	0.017567	0.56123	0.23323	0.21508	0.19403	0.21364	0.11935	0.1829	0.21992	0.19851	0.38158	-3.05	-2.6333	-3.2667	-3.3417	-2.5208	-3.3083	-2.9125	-2.8271	-3.4188	-2.7083	-3.2708	-3.3583	-2.7958	-3.3667	-3.0708	-2.8833	232.769	374.253	328.546	69.025	156.919	379.314	381.405	36.527	187.035	225.838	375.446	324.845	362.694	271.260	67.943	381.766	0.00062065	0.0011718	0.00045804	749.32	5.0819e-06	9.6215e-06	1094.1	255.63	4.7353e-06	1.0936e-05	438.19	156.03	89.616	30.838	1.1835e-05	66.158	0.00039482	0.00039108	0.00010859	673.77	4.2761e-06	4.2896e-06	941.27	225.42	4.2797e-06	4.2634e-06	361.52	129.99	79.171	27.31	4.2631e-06	53.828	40.063	165.934	182.735	41.890	140.041	277.335	40.797	46.898	133.766	329.188	45.438	49.631	51.477	56.538	176.180	53.169	-8191	255	
#DATA ENDS
