BOXY.EXE: ISS Imagent and Oximeter Data Acquisition Program Version 0.80
Ascii Record File

#ACQ INFORMATION
2  Detector Channels 
16  External MUX Channels 
1  Auxiliary Channels 
5000  Waveform (CCF) Frequency (Hz)
1  Waveforms Skipped 
30  Waveforms Averaged 
1  Cycles Averaged 
16  Acquisitions per Waveform 
10.0806  Updata Rate (Hz) 

#FILE INFORMATION
TRUE -- External MUX Channel results are PARSED.
FALSE -- AC DC and Phase are NOT grouped.
TRUE -- Companion Program Settings File CREATED.
FALSE -- AC data not excluded
FALSE -- DC data not excluded
FALSE -- Phase data not excluded
FALSE -- Auxillary Chn. data not excluded
Tab delimiters

#CALIBRATION STATE
TRUE -- Waveform Calibration Values APPLIED.


#AUX CALIBRATION VALUES
Val Type	aux-1	

Term	1.0000e+00	
Factor	0.0000e+00	


#WF CALIBRATION VALUES
A = Detector Channel
Val Type	A-AC1	A-AC2	A-AC3	A-AC4	A-AC5	A-AC6	A-AC7	A-AC8	A-AC9	A-AC10	A-AC11	A-AC12	A-AC13	A-AC14	A-AC15	A-AC16	A-DC1	A-DC2	A-DC3	A-DC4	A-DC5	A-DC6	A-DC7	A-DC8	A-DC9	A-DC10	A-DC11	A-DC12	A-DC13	A-DC14	A-DC15	A-DC16	A-Ph1	A-Ph2	A-Ph3	A-Ph4	A-Ph5	A-Ph6	A-Ph7	A-Ph8	A-Ph9	A-Ph10	A-Ph11	A-Ph12	A-Ph13	A-Ph14	A-Ph15	A-Ph16	

Term	0.00000e+00	0.00000e+00	0.00000e+00	0.00000e+00	0.00000e+00	0.00000e+00	0.00000e+00	0.00000e+00	0.00000e+00	0.00000e+00	0.00000e+00	0.00000e+00	0.00000e+00	0.00000e+00	0.00000e+00	0.00000e+00	0.00000e+00	0.00000e+00	0.00000e+00	0.00000e+00	0.00000e+00	0.00000e+00	0.00000e+00	0.00000e+00	0.00000e+00	0.00000e+00	0.00000e+00	0.00000e+00	0.00000e+00	0.00000e+00	0.00000e+00	0.00000e+00	0.00000e+00	0.00000e+00	0.00000e+00	0.00000e+00	0.00000e+00	0.00000e+00	0.00000e+00	0.00000e+00	0.00000e+00	0.00000e+00	0.00000e+00	0.00000e+00	0.00000e+00	0.00000e+00	0.00000e+00	0.00000e+00	
Factor	1.00000e+00	1.00000e+00	1.00000e+00	1.00000e+00	1.00000e+00	1.00000e+00	1.00000e+00	1.00000e+00	1.00000e+00	1.00000e+00	1.00000e+00	1.00000e+00	1.00000e+00	1.00000e+00	1.00000e+00	1.00000e+00	1.00000e+00	1.00000e+00	1.00000e+00	1.00000e+00	1.00000e+00	1.00000e+00	1.00000e+00	1.00000e+00	1.00000e+00	1.00000e+00	1.00000e+00	1.00000e+00	1.00000e+00	1.00000e+00	1.00000e+00	1.00000e+00	X	X	X	X	X	X	X	X	X	X	X	X	X	X	X	X	

B = Detector Channel
Val Type	B-AC1	B-AC2	B-AC3	B-AC4	B-AC5	B-AC6	B-AC7	B-AC8	B-AC9	B-AC10	B-AC11	B-AC12	B-AC13	B-AC14	B-AC15	B-AC16	B-DC1	B-DC2	B-DC3	B-DC4	B-DC5	B-DC6	B-DC7	B-DC8	B-DC9	B-DC10	B-DC11	B-DC12	B-DC13	B-DC14	B-DC15	B-DC16	B-Ph1	B-Ph2	B-Ph3	B-Ph4	B-Ph5	B-Ph6	B-Ph7	B-Ph8	B-Ph9	B-Ph10	B-Ph11	B-Ph12	B-Ph13	B-Ph14	B-Ph15	B-Ph16	

Term	0.00000e+00	0.00000e+00	0.00000e+00	0.00000e+00	0.00000e+00	0.00000e+00	0.00000e+00	0.00000e+00	0.00000e+00	0.00000e+00	0.00000e+00	0.00000e+00	0.00000e+00	0.00000e+00	0.00000e+00	0.00000e+00	0.00000e+00	0.00000e+00	0.00000e+00	0.00000e+00	0.00000e+00	0.00000e+00	0.00000e+00	0.00000e+00	0.00000e+00	0.00000e+00	0.00000e+00	0.00000e+00	0.00000e+00	0.00000e+00	0.00000e+00	0.00000e+00	-2.40346e+02	-8.60789e+01	-1.37580e+02	-1.81794e+02	-9.56072e+01	-6.15362e+01	-1.55227e+02	-1.62015e+02	-7.62495e+01	-2.08821e+01	-1.76015e+02	-1.69664e+02	-1.83008e+02	-1.76920e+02	-1.10967e+02	-1.49451e+02	
Factor	4.41567e-05	7.28733e-05	1.84622e-05	1.45759e-01	5.45265e-07	6.77868e-07	1.58711e-01	4.73567e-02	6.69312e-07	6.60670e-07	1.20289e-01	2.57934e-02	2.57211e-02	8.47169e-03	7.26230e-07	1.17836e-02	2.97384e-07	2.98781e-07	8.31620e-08	7.06932e-02	3.27491e-09	3.27375e-09	7.22083e-02	2.26007e-02	3.28093e-09	3.27436e-09	4.87179e-02	1.14701e-02	1.15018e-02	3.84075e-03	3.27804e-09	5.10611e-03	X	X	X	X	X	X	X	X	X	X	X	X	X	X	X	X	



#DISTANCE SETTINGS
A = Detector Channel
A-1	A-2	A-3	A-4	A-5	A-6	A-7	A-8	A-9	A-10	A-11	A-12	A-13	A-14	A-15	A-16	

2.5000e+00	3.0000e+00	2.5000e+00	3.0000e+00	2.0000e+00	3.0000e+00	1.5000e+00	3.0000e+00	3.0000e+00	3.0000e+00	3.0000e+00	3.0000e+00	3.0000e+00	3.0000e+00	1.5000e+00	3.0000e+00	

B = Detector Channel
B-1	B-2	B-3	B-4	B-5	B-6	B-7	B-8	B-9	B-10	B-11	B-12	B-13	B-14	B-15	B-16	

1.0000e+01	1.0000e+01	1.0000e+01	1.4400e+00	1.0000e+01	1.0000e+01	1.5100e+00	1.9400e+00	1.0000e+01	1.0000e+01	1.9900e+00	2.4900e+00	2.4100e+00	2.9000e+00	1.0000e+01	2.9800e+00	




#DATA BEGINS
time	group	step	mark	flag	A-AC1	A-AC2	A-AC3	A-AC4	A-AC5	A-AC6	A-AC7	A-AC8	A-AC9	A-AC10	A-AC11	A-AC12	A-AC13	A-AC14	A-AC15	A-AC16	A-DC1	A-DC2	A-DC3	A-DC4	A-DC5	A-DC6	A-DC7	A-DC8	A-DC9	A-DC10	A-DC11	A-DC12	A-DC13	A-DC14	A-DC15	A-DC16	A-Ph1	A-Ph2	A-Ph3	A-Ph4	A-Ph5	A-Ph6	A-Ph7	A-Ph8	A-Ph9	A-Ph10	A-Ph11	A-Ph12	A-Ph13	A-Ph14	A-Ph15	A-Ph16	B-AC1	B-AC2	B-AC3	B-AC4	B-AC5	B-AC6	B-AC7	B-AC8	B-AC9	B-AC10	B-AC11	B-AC12	B-AC13	B-AC14	B-AC15	B-AC16	B-DC1	B-DC2	B-DC3	B-DC4	B-DC5	B-DC6	B-DC7	B-DC8	B-DC9	B-DC10	B-DC11	B-DC12	B-DC13	B-DC14	B-DC15	B-DC16	B-Ph1	B-Ph2	B-Ph3	B-Ph4	B-Ph5	B-Ph6	B-Ph7	B-Ph8	B-Ph9	B-Ph10	B-Ph11	B-Ph12	B-Ph13	B-Ph14	B-Ph15	B-Ph16	aux-1	digaux	

1654.015	1	1	0	512	0.16676	0.086246	0.065259	0.20014	0.10993	0.13913	0.16524	0.38955	0.29818	0.1364	0.19385	0.28139	0.096095	0.22969	0.15857	0.3869	-2.6437	-3.25	-2.6875	-3.3292	-2.9833	-2.8063	-3.525	-2.9083	-3.0417	-3.2792	-2.6667	-3.1958	-3.2333	-2.675	-3.4333	-2.75	257.659	135.856	26.334	-75.338	153.784	274.661	202.573	226.280	35.665	217.376	173.362	214.996	54.471	204.188	-76.025	198.807	0.0004466	0.00041072	0.00029089	808.91	6.0782e-06	8.2069e-06	1292	295.36	4.0138e-06	2.5633e-06	525.68	192.04	112.57	36.85	6.3799e-06	71.066	0.00034716	0.00034709	9.6282e-05	711.49	3.782e-06	3.749e-06	1089.4	252.4	3.8017e-06	3.7449e-06	413.96	155.59	94.132	31.336	3.7543e-06	56.385	-11.073	51.317	-50.497	-64.201	107.230	-43.307	-65.186	-59.353	94.374	199.587	-61.695	-57.119	-55.772	-50.537	33.167	-53.304	-8191	255	
1654.135	1	1	0	0	0.22783	0.05102	0.16469	0.086504	0.019698	0.13394	0.058826	0.31985	0.12599	0.10392	0.1572	0.28563	0.15317	0.25888	0.28975	0.20508	-2.5062	-3.4688	-2.625	-3.2854	-3.2313	-2.5687	-3.4542	-3	-2.7625	-3.5812	-2.5812	-3.1771	-3.1146	-2.7062	-3.3229	-3.0167	281.974	276.355	-30.244	250.194	-48.732	89.118	157.023	223.392	178.947	-46.102	230.058	259.720	63.467	160.923	0.362	231.749	0.00037963	0.00074891	0.00034031	809.01	5.2714e-06	4.5055e-07	1295	296.51	1.0114e-05	3.8049e-06	527.17	193.15	112.45	37.093	1.2673e-05	70.277	0.00034501	0.00034078	9.518e-05	710.62	3.7572e-06	3.7507e-06	1090.8	253.2	3.721e-06	3.7429e-06	415.06	156.12	94.067	31.34	3.703e-06	56.11	77.915	-30.381	100.335	-63.512	33.715	163.914	-64.922	-59.122	-6.732	3.169	-61.658	-57.316	-55.460	-50.492	73.566	-53.673	-8191	255	
1654.230	1	1	0	0	0.16437	0.1837	0.18177	0.08671	0.082114	0.15238	0.3047	0.15494	0.2051	0.03845	0.16096	0.0166	0.034957	0.090447	0.30337	0.17835	-2.4167	-3.4854	-2.7188	-3.1833	-3.3708	-2.6229	-3.5208	-3.0625	-2.6167	-3.5563	-2.6792	-3.2417	-3.4854	-2.7854	-3.3125	-3.2125	225.799	-12.453	270.283	15.452	31.047	214.484	240.731	-9.410	-58.765	226.300	116.255	170.999	-60.519	-49.259	177.633	226.628	0.00038246	0.0013942	0.00022055	807.01	8.408e-06	6.493e-06	1295.6	296.14	4.0072e-06	6.6127e-06	524.54	194.05	113.34	36.947	1.0338e-05	70.797	0.00034257	0.00034416	9.4824e-05	709.93	3.725e-06	3.7482e-06	1097.3	253.32	3.7639e-06	3.7755e-06	414.88	156.9	94.664	31.357	3.8109e-06	56.545	80.618	23.707	5.878	-63.749	60.935	145.360	-65.179	-59.240	39.656	181.944	-61.856	-57.234	-55.490	-50.407	242.011	-53.471	-8191	255	
1654.303	1	1	0	0	0.16512	0.22182	0.23559	0.13194	0.099572	0.14648	0.2933	0.027147	0.18633	0.13285	0.058418	0.16648	0.24281	0.15232	0.10068	0.20729	-2.3063	-3.2687	-2.7458	-2.9625	-3.2896	-2.6896	-3.1771	-3.0604	-2.6208	-3.3896	-2.8375	-2.9604	-3.425	-2.7313	-3.25	-3.4021	-47.282	98.442	-9.191	138.003	83.504	269.566	271.824	140.262	-76.296	-56.711	225.501	234.081	1.848	232.629	5.671	269.294	0.00071087	0.00044145	0.00014365	813.01	4.9147e-06	1.0275e-05	1315.9	299.87	1.3811e-05	6.9371e-06	523.07	194.43	113.75	37.22	9.2977e-06	71.007	0.00034832	0.00034586	9.6191e-05	716	3.8054e-06	3.805e-06	1103.9	254.83	3.8217e-06	3.8194e-06	415.98	157.24	95.357	31.497	3.7793e-06	56.85	19.363	-45.330	-73.125	-63.783	202.947	48.866	-65.206	-58.897	50.197	87.918	-61.234	-57.029	-55.946	-49.830	107.210	-53.242	-8191	255	
1654.398	1	1	0	0	0.13997	0.12249	0.061704	0.044889	0.09898	0.21609	0.097628	0.16327	0.3367	0.068407	0.27272	0.30707	0.53475	0.16124	0.23018	0.17201	-2.2062	-3.2646	-2.7417	-3.0104	-3.4562	-2.5375	-3.375	-3.4458	-2.4562	-3.3458	-3.0021	-2.9688	-3.4625	-2.7313	-3.0896	-3.5375	20.243	-65.684	105.319	94.971	167.503	28.025	143.699	155.283	254.209	3.301	215.756	273.515	263.958	224.851	-3.055	194.069	0.00070065	0.00060604	0.00010956	823.44	7.5074e-06	3.4494e-06	1306.4	297.49	1.269e-05	4.2386e-06	524.91	193.31	113.16	36.841	1.7715e-05	70.063	0.00034752	0.00035075	9.7239e-05	719.56	3.803e-06	3.8187e-06	1099	254.17	3.8449e-06	3.8247e-06	415.32	156.84	95.041	31.374	3.8138e-06	56.123	100.031	60.267	-68.235	-63.880	250.148	161.066	-65.185	-59.078	104.084	242.482	-61.855	-56.949	-55.651	-49.880	31.019	-53.284	-8191	255	
1654.496	1	1	0	0	0.11509	0.097722	0.12384	0.10749	0.22806	0.29772	0.39045	0.22196	0.036897	0.1804	0.11464	0.077006	0.24957	0.29008	0.12353	0.052682	-2.3458	-3.2979	-3.1229	-2.7979	-3.2396	-2.6896	-3.2292	-3.5021	-2.6479	-3.3312	-3.1729	-2.7062	-3.35	-2.75	-2.9417	-3.3937	-55.207	244.770	95.521	172.989	56.196	14.963	225.741	-35.703	137.769	50.704	75.672	153.332	239.568	31.955	123.208	255.972	0.0006291	0.00064934	0.00032347	818.58	2.8623e-06	3.3405e-06	1307.4	296.32	6.211e-06	5.9801e-06	527.29	194.66	114.17	37.167	6.1754e-06	70.353	0.00035156	0.00034904	9.7306e-05	716.96	3.8295e-06	3.8242e-06	1100.3	254.45	3.8436e-06	3.7934e-06	416.07	157.27	95.506	31.488	3.8154e-06	56.298	70.445	-39.710	-35.193	-63.622	77.880	56.575	-64.590	-58.441	27.822	24.237	-61.573	-56.731	-55.511	-49.944	215.989	-53.183	-8191	255	
1654.614	1	1	0	0	0.072154	0.28238	0.117	0.14803	0.0873	0.10352	0.090413	0.1739	0.21122	0.20382	0.15846	0.18815	0.089509	0.23038	0.11873	0.096893	-2.2375	-3.1896	-2.9583	-2.5646	-3.1333	-2.8542	-3.1167	-3.4042	-2.7687	-3.025	-3.3187	-2.7729	-3.5812	-3.0833	-2.7042	-3.3521	225.618	82.257	55.056	253.286	-29.608	247.890	145.105	246.214	96.961	160.710	140.177	229.231	278.103	-4.412	73.026	182.900	0.00039337	0.00084475	0.00025441	817.17	3.6291e-06	4.2031e-06	1320.6	299	8.6804e-06	9.2858e-06	523.48	194	114.56	37.031	8.8179e-06	70.075	0.00035281	0.00035123	9.7077e-05	718.8	3.8536e-06	3.8597e-06	1107.4	255.16	3.8817e-06	3.9178e-06	416.54	157.64	95.656	31.428	3.8772e-06	56.396	97.595	-21.487	134.423	-63.867	-67.520	111.272	-65.451	-59.497	-19.685	169.016	-61.349	-57.023	-55.692	-50.342	-12.042	-53.397	-8191	255	
1654.711	1	1	0	0	0.11606	0.1597	0.044683	0.2017	0.30678	0.055053	0.10607	0.16265	0.15966	0.13968	0.20344	0.46257	0.053606	0.15848	0.044761	0.10381	-2.2313	-3.0854	-3.1625	-2.6042	-3.3208	-2.9604	-2.8604	-3.5312	-2.7167	-2.9562	-3.4375	-2.7104	-3.3688	-3.0708	-2.5646	-3.6	133.838	-62.467	65.028	-45.313	-24.304	27.639	228.651	234.651	-39.491	126.049	251.663	244.167	38.878	226.095	81.281	53.979	0.0001208	0.00055937	0.00010912	827.15	1.4234e-05	1.1877e-05	1315.2	294.54	4.9055e-06	8.419e-06	525.53	195.63	114.55	36.986	4.8028e-06	70.135	0.00035679	0.0003561	9.8158e-05	725.94	3.9265e-06	3.8964e-06	1111.1	254.49	3.9129e-06	3.8816e-06	417.26	158.51	96.205	31.388	3.9179e-06	56.437	163.394	109.069	168.576	-63.974	46.071	88.244	-64.961	-59.226	139.703	219.406	-61.586	-56.888	-55.369	-50.112	21.854	-53.035	-8191	255	
1654.807	1	1	0	0	0.30908	0.17193	0.18957	0.12568	0.1336	0.18115	0.3469	0.20522	0.18912	0.28172	0.10731	0.23117	0.3379	0.26935	0.13112	0.23484	-2.2646	-2.9792	-3.3104	-2.6354	-3.2375	-3.0958	-2.7729	-3.4167	-2.975	-3.1271	-3.4729	-2.9604	-3.1792	-3.4271	-2.5729	-3.4021	125.818	-37.058	171.745	-60.634	151.273	220.531	201.963	267.583	136.323	237.253	222.762	137.516	273.358	-71.552	33.251	241.235	0.00060759	0.00063934	9.5477e-05	826.26	9.0053e-06	4.5309e-06	1320.7	295.73	3.1321e-06	1.3385e-05	521.61	194.51	115.14	37.337	5.8239e-06	70.367	0.0003569	0.00035614	0.00010026	724.92	3.9082e-06	3.9493e-06	1112.2	254.46	3.9045e-06	3.9175e-06	414.62	158.08	96.322	31.652	3.9462e-06	56.524	174.999	-6.454	-54.117	-63.841	-24.650	77.837	-65.089	-59.340	13.680	102.545	-61.855	-57.358	-55.637	-50.798	71.584	-53.582	-8191	255	
1654.903	1	1	0	0	0.18721	0.12552	0.12579	0.27245	0.033769	0.041999	0.090482	0.39918	0.13866	0.0251	0.15609	0.23245	0.21366	0.13579	0.20005	0.17772	-2.625	-2.7854	-3.3521	-2.7583	-3.1104	-3.3208	-2.9062	-3.4521	-2.9667	-2.7854	-3.5563	-2.8167	-3.1104	-3.3125	-2.6708	-3.2729	135.432	86.924	-70.283	258.828	-5.232	19.708	181.771	-56.058	182.753	85.472	147.309	111.712	274.720	184.842	258.881	182.586	7.2608e-05	0.0015852	0.00012437	813.61	3.3871e-06	4.065e-06	1301	297.67	3.3903e-06	9.8362e-06	525.43	195.48	115.03	37.332	9.746e-06	70.104	0.00035707	0.000357	0.00010013	719.68	3.9347e-06	3.9203e-06	1098.6	255.24	3.9186e-06	3.8817e-06	415.73	157.89	96.254	31.63	3.9068e-06	56.538	120.008	25.960	246.882	-64.239	50.319	63.892	-64.981	-59.458	-22.530	-53.470	-61.651	-57.498	-55.389	-50.484	95.542	-53.608	-8191	255	
1654.999	1	1	0	0	0.18378	0.17014	0.13493	0.15262	0.34162	0.045644	0.060672	0.43155	0.10176	0.15822	0.1795	0.18424	0.39291	0.12585	0.03985	0.36376	-2.4437	-2.7521	-3.3375	-2.7125	-2.9354	-3.3688	-2.7729	-3.3625	-3.0021	-2.7292	-3.3958	-2.9417	-2.9167	-3.4688	-2.3729	-3.1562	40.887	216.644	92.621	196.819	94.616	95.164	247.873	246.650	-50.332	160.086	159.513	-47.631	230.185	127.255	-28.687	-75.766	0.00030988	0.00086819	0.00023057	819.89	3.0859e-06	5.6975e-06	1301.5	297.21	5.8439e-06	5.8015e-06	524.88	196.1	115.21	37.118	8.4437e-06	71.255	0.00035724	0.00035681	9.9163e-05	720.85	3.9081e-06	3.8914e-06	1102.2	254.32	3.8989e-06	3.8916e-06	417.11	158.69	96.299	31.73	3.9252e-06	56.964	79.276	42.629	125.989	-64.345	203.213	213.418	-65.139	-59.191	-6.936	216.442	-61.699	-57.124	-55.593	-50.525	44.079	-53.457	-8191	255	
1655.095	1	1	0	0	0.053037	0.047975	0.09446	0.20478	0.2024	0.095441	0.37507	0.17473	0.064906	0.10559	0.10998	0.11176	0.15997	0.18102	0.14754	0.41023	-2.7521	-2.7625	-3.4792	-2.9125	-2.8438	-3.4479	-2.7458	-3.1063	-3.175	-2.4854	-3.475	-2.9479	-2.8792	-3.4062	-2.6146	-3.1875	141.360	278.336	-24.862	-21.558	-62.595	95.305	201.749	213.988	274.955	178.238	173.838	226.811	203.346	-12.296	20.288	207.310	0.00060385	0.0018924	0.00021097	815.36	7.071e-06	4.8894e-06	1306	296.8	1.4829e-06	6.1179e-06	529.46	198.01	115.52	37.766	1.1221e-05	71.651	0.0003609	0.00036301	0.00010165	720.25	3.9931e-06	4.0077e-06	1106.9	254.78	4.0077e-06	4.0497e-06	419.93	160.05	97.152	32.175	4.06e-06	57.544	58.611	89.436	93.653	-64.097	85.545	202.006	-65.297	-59.025	202.693	181.881	-61.406	-57.401	-55.603	-50.793	-62.884	-52.875	-8191	255	
1655.216	1	1	0	0	0.041781	0.30479	0.2648	0.16069	0.035816	0.15494	0.3255	0.13364	0.20543	0.12977	0.14334	0.079029	0.29611	0.28664	0.058708	0.23308	-2.8937	-2.4458	-3.25	-2.9604	-2.7146	-3.575	-2.8729	-3.0854	-3.3958	-2.7562	-3.3583	-2.9771	-2.7375	-3.5021	-2.8625	-3.0542	123.752	143.045	197.507	252.765	105.036	185.198	226.791	228.325	82.640	120.913	28.593	266.258	-56.483	270.784	120.408	269.626	0.001047	0.00075567	0.00020541	815.76	5.385e-06	7.2123e-06	1303.3	294.69	3.529e-06	3.6261e-06	523.58	197.19	115.33	37.262	4.4451e-06	70.381	0.00037043	0.00036953	0.00010371	721.14	4.0496e-06	4.0714e-06	1105.3	253.86	4.0607e-06	4.0408e-06	417.1	159.39	96.852	31.926	4.0268e-06	57.073	58.275	11.480	96.503	-64.397	8.736	-55.645	-65.006	-59.099	37.449	183.808	-61.605	-57.163	-56.278	-50.817	25.856	-53.516	-8191	255	
1655.310	1	1	0	0	0.10369	0.15683	0.19239	0.061187	0.30666	0.17679	0.29977	0.12429	0.23234	0.088724	0.25597	0.42593	0.20026	0.21531	0.16314	0.10147	-2.9104	-2.6229	-3.2542	-3.0354	-2.5167	-3.5083	-2.8563	-2.9208	-3.2125	-2.5958	-3.2333	-3.1875	-2.6771	-3.4229	-2.775	-2.8063	262.158	72.364	59.121	264.674	247.032	79.938	137.975	-60.392	-55.662	97.618	185.872	225.521	277.995	248.485	48.665	-27.420	0.0007058	0.00080599	0.00024337	802.49	1.343e-06	5.8431e-06	1292.7	294.62	4.4704e-06	7.0565e-06	523.81	196.84	114.81	37.304	6.064e-06	71.963	0.00037308	0.00036911	0.000103	718.03	4.0559e-06	4.0279e-06	1098.1	253.19	4.0263e-06	3.982e-06	416.55	159.67	96.921	31.939	4.0184e-06	57.877	159.286	206.661	121.958	-63.610	262.120	210.794	-65.005	-59.399	118.679	171.349	-61.737	-57.600	-55.485	-50.494	30.183	-53.237	-8191	255	
1655.406	1	1	0	0	0.10598	0.10586	0.19056	0.033476	0.15824	0.24518	0.085412	0.36866	0.13093	0.084024	0.11217	0.3007	0.27301	0.085972	0.023225	0.12755	-2.9021	-2.5312	-3.1271	-3.3438	-2.6083	-3.3604	-3.0208	-2.8104	-3.2646	-2.6604	-3.0333	-3.3625	-2.5083	-3.4021	-3.0812	-2.8146	151.206	-34.354	-9.741	194.880	-18.100	75.722	147.928	221.537	146.498	-18.654	-17.788	222.298	204.872	239.848	221.550	188.257	0.00076092	0.0013018	0.00027218	814.04	5.7786e-06	5.5623e-06	1309.2	295.36	5.5023e-06	4.2223e-06	524.97	198.37	117.15	37.68	1.0129e-05	72.304	0.00036785	0.00036485	0.00010283	723.24	4.0244e-06	4.0662e-06	1107.8	254.03	4.0339e-06	4.039e-06	418.93	161.42	97.876	32.143	4.1068e-06	58.252	115.394	28.247	-1.528	-63.802	65.722	87.891	-64.993	-58.745	19.928	222.663	-61.848	-57.268	-55.505	-50.045	272.552	-53.362	-8191	255	
1655.503	1	1	0	0	0.27036	0.22762	0.20255	0.35065	0.031236	0.10268	0.4007	0.45515	0.17255	0.21003	0.18059	0.095773	0.073344	0.19023	0.0549	0.3859	-2.9104	-2.7125	-2.9646	-3.3771	-2.6625	-3.2625	-2.9771	-2.7646	-3.4417	-2.8208	-2.8875	-3.4458	-2.75	-3.3854	-3.1063	-2.6396	12.649	13.813	54.074	251.620	134.181	101.903	194.804	249.413	10.965	252.670	180.148	229.774	-64.381	272.053	161.000	257.271	0.00053721	0.00019739	0.00016919	816.81	9.9811e-06	1.3444e-05	1309.3	298.8	7.8285e-06	7.6266e-06	527.24	200.28	117.55	37.929	9.8288e-06	72.996	0.0003727	0.00037266	0.00010304	725.01	4.0916e-06	4.1372e-06	1111.7	255.98	4.1035e-06	4.0985e-06	421.54	163	98.894	32.414	4.1221e-06	58.828	27.939	225.460	120.248	-63.817	-1.963	60.626	-64.886	-59.438	7.104	116.964	-61.405	-57.144	-55.672	-50.368	10.752	-53.428	-8191	255	
1655.599	1	1	0	0	0.14948	0.16629	0.17766	0.45037	0.26014	0.22398	0.26846	0.17076	0.17886	0.21717	0.16145	0.36111	0.50028	0.17116	0.033939	0.33948	-2.8458	-2.825	-2.9146	-3.5687	-2.7646	-3.1042	-3.2938	-2.6146	-3.2854	-2.7875	-2.7583	-3.6583	-2.6146	-3.05	-3.2792	-2.6125	75.796	73.883	264.414	188.865	72.512	198.739	246.581	216.004	262.657	247.412	211.786	199.682	185.946	219.451	122.427	238.025	0.00088939	0.00052072	0.00012914	820.31	2.732e-06	1.8368e-05	1316.7	298.55	1.4215e-05	2.1602e-05	526.22	203.57	118.55	38.166	1.0562e-05	73.807	0.00038315	0.00037517	0.00010498	726.9	4.1998e-06	4.1688e-06	1114.8	257.7	4.2108e-06	4.1823e-06	424.02	164.24	99.809	32.721	4.2062e-06	59.242	86.235	280.992	-45.655	-64.193	-62.424	118.565	-65.346	-58.672	52.224	53.952	-61.335	-57.166	-55.534	-50.408	13.460	-52.677	-8191	255	
1655.695	1	1	0	0	0.1794	0.21633	0.18585	0.30191	0.067536	0.22685	0.063766	0.33473	0.097643	0.27167	0.39165	0.17373	0.13897	0.15107	0.27478	0.09514	-2.9833	-2.9792	-2.6146	-3.5458	-2.5708	-3.0042	-3.5354	-2.5917	-3.4396	-3.2667	-2.8937	-3.6437	-2.9521	-3.2562	-3.3667	-2.7854	-1.796	24.382	15.835	210.768	228.149	143.777	280.079	-71.313	166.126	22.183	274.001	229.360	199.911	-47.110	-27.913	246.656	0.00013309	0.00072209	0.000324	811.03	1.3021e-06	7.8693e-06	1298	300.76	3.1255e-06	2.4169e-06	527.4	202.25	116.25	37.954	4.8284e-06	73.377	0.00038537	0.00038341	0.00010613	725	4.1922e-06	4.1906e-06	1104.2	259.28	4.17e-06	4.1539e-06	422.67	163.67	98.771	32.492	4.1216e-06	58.709	32.637	4.856	62.297	-63.327	124.979	95.103	-65.130	-59.390	124.291	25.646	-61.783	-57.752	-56.143	-50.214	47.905	-53.419	-8191	255	
1655.791	1	1	0	0	0.18684	0.14428	0.10901	0.14106	0.32081	0.098146	0.10336	0.21778	0.2885	0.093252	0.088009	0.18303	0.12252	0.18616	0.37486	0.048096	-2.8521	-3.2104	-2.7021	-3.4208	-2.6792	-2.8438	-3.4792	-2.8146	-3.2938	-3.2333	-2.6188	-3.425	-2.9604	-2.7562	-3.4042	-2.8375	-5.981	116.002	195.798	250.276	189.994	273.339	134.598	-46.340	209.209	226.688	271.668	264.510	173.528	278.620	74.549	94.997	0.00032089	0.0003231	0.00022335	807.8	5.8e-06	3.3527e-06	1301.8	299.17	8.5642e-06	1.013e-05	528.39	199.9	116.22	37.679	3.1489e-06	71.89	0.00037851	0.00037399	0.00010488	718.62	4.062e-06	4.1154e-06	1102.2	258.08	4.0911e-06	4.071e-06	421.66	163.23	98.034	32.234	4.0647e-06	58.507	56.907	106.230	-43.424	-63.861	179.343	178.383	-64.964	-58.828	54.221	-6.515	-61.641	-57.231	-56.111	-50.308	202.125	-53.475	-8191	255	
1655.912	1	1	0	0	0.098696	0.088003	0.21598	0.073684	0.15778	0.29381	0.22796	0.26065	0.33843	0.34593	0.055733	0.10811	0.094024	0.16729	0.2598	0.29875	-2.8604	-3.1	-2.5646	-3.3458	-2.8688	-2.7667	-3.6604	-2.7687	-2.9813	-3.2521	-2.7729	-3.4229	-2.9667	-2.8229	-3.4229	-2.8771	238.371	197.023	266.919	-19.864	180.844	-38.316	229.510	-62.656	-8.106	206.369	221.586	-73.013	-28.674	266.822	-8.029	239.144	0.00084374	7.5278e-05	0.00025427	817.42	2.4578e-06	1.6945e-05	1315.1	302.8	2.0752e-06	9.0656e-06	538.19	200.46	116.47	38.075	8.6904e-06	72.837	0.00037647	0.00037623	0.00010448	722.92	4.1256e-06	4.1417e-06	1113.6	260.4	4.162e-06	4.1771e-06	425.78	163.36	98.814	32.526	4.1575e-06	58.971	77.325	176.329	-16.853	-63.630	71.397	18.495	-65.567	-59.150	-15.371	41.193	-61.754	-57.165	-55.486	-50.221	-0.516	-53.219	-8191	255	
1656.008	1	1	0	0	0.1979	0.20037	0.15011	0.42786	0.1593	0.11933	0.14726	0.27187	0.326	0.16918	0.048653	0.13968	0.18245	0.15694	0.11748	0.057264	-2.7771	-3.2458	-2.6625	-3.3104	-2.9375	-2.6625	-3.4521	-2.8812	-3.0417	-3.35	-2.7438	-3.3083	-3.0979	-2.6813	-3.2271	-2.9542	-31.349	217.503	-8.244	254.161	-49.361	116.747	216.759	275.291	264.498	212.224	217.393	239.543	-28.634	259.313	28.883	172.165	7.4654e-06	0.0010175	0.0002878	823.63	9.9614e-06	1.2891e-06	1308.4	302.02	4.8349e-06	1.0571e-05	530.17	200.91	117.1	38.584	1.1144e-05	72.932	0.00038672	0.00038038	0.00010586	730.39	4.1641e-06	4.2323e-06	1112.9	259.8	4.1902e-06	4.1697e-06	423.94	163.6	98.813	32.656	4.224e-06	58.944	-58.803	153.188	68.872	-63.741	63.581	139.983	-65.515	-59.404	49.358	177.092	-61.450	-57.514	-56.186	-50.322	234.987	-53.834	-8191	255	
1656.104	1	1	0	0	0.10569	0.14636	0.17476	0.080521	0.06758	0.20996	0.13186	0.24765	0.17517	0.19956	0.28376	0.083101	0.24252	0.094294	0.15438	0.071633	-2.5792	-3.3583	-2.5854	-3.3021	-3.2125	-2.6354	-3.6063	-3.0208	-2.7562	-3.4396	-2.9375	-3.1396	-3.3229	-2.7479	-3.2375	-2.9208	209.331	72.890	-39.981	185.193	18.271	108.275	163.250	213.419	-54.101	-47.958	229.383	218.227	219.987	242.506	-72.511	189.583	0.00063453	0.00048942	5.1224e-05	821.95	7.7379e-06	1.1837e-05	1308.1	299.88	8.0374e-06	6.04e-06	529.58	200.58	117.61	37.672	6.0449e-06	72.531	0.00037919	0.00038063	0.00010519	727.69	4.1558e-06	4.1868e-06	1108.1	258.41	4.1445e-06	4.1612e-06	422.15	163.18	98.95	32.388	4.1166e-06	58.575	30.447	193.560	31.704	-63.803	89.410	95.063	-64.744	-59.604	58.219	166.506	-61.503	-57.822	-56.166	-50.715	278.957	-54.150	-8191	255	
1656.176	1	1	0	0	0.12968	0.15866	0.082165	0.086122	0.2048	0.18362	0.32382	0.1592	0.14774	0.086025	0.1395	0.29727	0.24124	0.18869	0.17925	0.18663	-2.3063	-3.2812	-2.6521	-3.1146	-3.4375	-2.7771	-3.4625	-2.9396	-2.775	-3.4188	-2.7729	-3.2229	-3.425	-2.5062	-3.2417	-3.2125	190.706	93.183	47.727	156.020	-46.302	-53.699	229.205	217.711	253.943	68.927	17.918	174.449	269.081	218.799	2.835	162.649	0.0007987	0.0013585	0.00018922	816.27	3.646e-06	1.0392e-05	1297.7	299.4	8.0004e-06	8.7666e-06	529.6	201.68	118.01	37.78	6.7365e-06	73.719	0.00037382	0.00037605	0.00010484	726.55	4.1656e-06	4.1487e-06	1104	258.3	4.1186e-06	4.1333e-06	422.34	163.37	98.744	32.171	4.0706e-06	58.885	67.410	91.260	-47.501	-63.893	258.336	80.427	-65.606	-59.522	135.718	204.611	-61.809	-57.469	-56.364	-50.270	31.372	-53.606	-8191	255	
1656.294	1	1	0	0	0.11265	0.26315	0.12904	0.085214	0.11476	0.15972	0.20634	0.23118	0.11951	0.26589	0.11758	0.12751	0.1586	0.25164	0.1273	0.39325	-2.2938	-3.4646	-2.675	-2.8708	-3.3812	-2.6	-3.3854	-3.2604	-2.5958	-3.5896	-2.9354	-2.9437	-3.4604	-2.7208	-3.3063	-3.3083	-65.198	208.236	60.643	-14.624	140.897	115.697	242.739	245.445	192.282	-30.138	257.254	220.152	19.996	230.836	154.715	239.370	0.00016172	0.00058999	0.00021038	813.61	1.4014e-06	4.4209e-06	1309.3	301.19	2.2458e-06	9.0079e-06	528.32	200.51	117.49	37.832	6.6844e-06	72.553	0.00036939	0.00037169	0.00010211	724.02	4.0301e-06	4.0189e-06	1105.8	258.29	4.0004e-06	4.0555e-06	420.82	162.66	98.452	32.182	4.0475e-06	58.544	191.242	111.662	51.353	-64.070	212.361	-15.129	-65.113	-59.414	197.215	119.368	-61.831	-57.509	-56.088	-50.682	-20.011	-53.453	-8191	255	
1656.391	1	1	0	0	0.051544	0.083725	0.23727	0.031375	0.14309	0.18906	0.1655	0.22332	0.16906	0.10053	0.16753	0.14753	0.33407	0.13785	0.172	0.29961	-2.2438	-3.4854	-2.8563	-3.0604	-3.1854	-2.7167	-3.2458	-3.3208	-2.8417	-3.3875	-3.0292	-2.8458	-3.5917	-2.7417	-3.0563	-3.3875	36.592	188.375	125.097	26.565	-11.861	-68.653	207.570	196.546	37.176	20.979	-53.746	255.854	273.695	262.516	254.310	247.787	0.00064914	0.0009062	0.00017743	817.29	5.103e-06	1.2778e-05	1300.6	300.89	6.2293e-06	5.8632e-06	530.46	200.4	117.24	37.772	6.5567e-06	72.757	0.00037178	0.00036986	0.00010269	718.73	4.0869e-06	4.0524e-06	1104.9	257.87	4.0637e-06	4.091e-06	421.83	162.25	98.404	32.324	4.107e-06	58.504	57.770	-39.190	22.671	-64.032	121.283	-17.582	-65.205	-59.680	109.881	143.025	-61.507	-57.075	-56.013	-50.321	88.672	-53.561	-8191	255	
1656.487	1	1	0	0	0.15703	0.26473	0.23518	0.067155	0.14011	0.13961	0.19933	0.27156	0.2367	0.10617	0.42864	0.12854	0.069127	0.21754	0.15771	0.2384	-2.1625	-3.2625	-3.125	-2.8312	-3.5271	-2.7729	-3.1667	-3.6312	-2.8708	-3.2771	-3.3563	-2.8979	-3.5417	-2.9021	-2.8979	-3.5875	-36.831	273.937	11.059	221.478	-25.754	93.633	233.041	235.555	206.723	131.685	195.314	222.264	253.574	-54.145	174.368	195.523	0.00093498	0.00090687	0.00010691	807.42	4.3878e-06	6.4264e-06	1285.7	298.65	3.9278e-06	1.1356e-06	522.97	199.49	116.58	37.475	9.7549e-06	71.925	0.00037616	0.00037524	0.00010499	715.44	4.1252e-06	4.0734e-06	1093.6	257	4.0777e-06	4.1112e-06	419.89	161.43	97.968	32.152	4.0756e-06	58.145	111.201	65.718	260.350	-64.247	-4.265	22.726	-65.096	-59.314	134.682	183.162	-61.462	-57.528	-55.821	-50.722	-11.686	-53.184	-8191	255	
1656.583	1	1	0	0	0.13483	0.1628	0.27297	0.25378	0.049474	0.16168	0.24012	0.11327	0.19254	0.16923	0.20147	0.23483	0.13777	0.048542	0.10225	0.19798	-2.1688	-3.3542	-3.175	-2.6479	-3.2125	-2.9167	-3.1729	-3.4729	-2.6937	-3.1792	-3.3958	-2.5042	-3.4979	-3.1021	-2.9688	-3.5646	158.639	114.913	250.167	274.414	20.324	-17.355	190.448	257.555	270.407	-4.138	224.564	231.579	-20.965	152.885	208.575	193.462	0.00062062	0.00069355	0.00024711	809.25	5.2572e-06	1.4464e-06	1294.8	298.86	4.7448e-06	1.042e-05	531.36	199.88	116.66	37.62	4.7225e-06	72.892	0.00037559	0.00037439	0.00010418	717.41	4.1862e-06	4.1283e-06	1098.1	257.35	4.1501e-06	4.1365e-06	422.63	162.19	97.939	32.217	4.1646e-06	58.544	52.400	137.269	209.160	-63.849	92.783	-43.250	-65.427	-59.594	5.450	28.742	-61.455	-57.574	-56.076	-50.867	180.691	-53.292	-8191	255	
1656.704	1	1	0	0	0.14377	0.41705	0.14689	0.23934	0.061107	0.14109	0.26407	0.22044	0.1601	0.20419	0.24405	0.25961	0.28082	0.2685	0.031919	0.29504	-2.2208	-2.9896	-3.3292	-2.8187	-3.5167	-2.9521	-3.0125	-3.5479	-2.6229	-3.0979	-3.525	-2.9354	-3.4271	-3.0563	-2.5646	-3.3333	41.613	272.255	271.663	209.268	-41.559	236.520	138.644	273.374	260.756	106.941	179.259	240.629	214.237	231.668	138.121	204.745	0.00051999	0.00077739	2.5163e-05	811.31	5.5691e-06	4.6852e-06	1309.7	300.08	9.5834e-06	7.4203e-06	532.25	199.6	116.7	37.853	8.2115e-06	72.406	0.00037927	0.00037786	0.00010467	718.95	4.1225e-06	4.1513e-06	1105.8	258.67	4.1337e-06	4.1117e-06	423.03	162.24	98.208	32.121	4.1277e-06	58.246	120.796	173.715	104.588	-64.051	-31.032	-38.542	-65.294	-59.227	250.564	174.982	-61.797	-57.129	-56.277	-50.594	267.424	-53.007	-8191	255	
1656.775	1	1	0	0	0.084537	0.31234	0.11933	0.11171	0.12268	0.19344	0.25339	0.16303	0.12358	0.13521	0.13817	0.24804	0.088608	0.1464	0.1826	0.13743	-2.5125	-3.0958	-3.2271	-2.6833	-3.3083	-3.2229	-2.9917	-3.6792	-2.8812	-2.9375	-3.5979	-2.7917	-3.3833	-3.3542	-2.6354	-3.7104	-51.311	91.453	208.702	61.083	6.760	118.756	151.989	193.916	243.365	-59.170	246.152	-60.684	175.476	266.103	229.830	27.741	0.0004593	0.0010875	0.00016696	805.85	5.5823e-06	4.1746e-06	1294.6	301.89	8.278e-06	1.1136e-05	526.16	199	117.45	37.655	1.4036e-05	72.012	0.00037715	0.00037572	0.00010455	716.79	4.1104e-06	4.1166e-06	1099.9	259.11	4.1446e-06	4.1002e-06	422.46	161.78	98.068	32.071	4.121e-06	58.187	52.719	-33.237	-58.768	-63.150	41.901	184.681	-64.754	-58.824	-65.498	113.586	-61.674	-57.385	-55.785	-49.933	77.551	-53.327	-8191	255	
1656.896	1	1	0	0	0.14647	0.24793	0.061559	0.077342	0.13935	0.23338	0.26618	0.17223	0.16298	0.19566	0.091728	0.09802	0.13436	0.058668	0.31749	0.16152	-2.6063	-2.9646	-3.3271	-2.7833	-3.25	-3.2646	-2.8083	-3.4792	-3.0062	-2.8583	-3.55	-2.9062	-3.2083	-3.3708	-2.6562	-3.3937	267.456	221.100	254.569	28.827	202.442	65.193	180.183	119.758	258.095	170.872	247.419	-35.351	-34.457	51.257	108.853	117.616	0.00063799	0.00071888	0.00015965	808.5	7.3593e-06	1.6047e-05	1305.6	299.41	1.3044e-05	1.1768e-06	529.97	199.92	117.84	37.35	8.9753e-06	72.882	0.00037656	0.00037509	0.0001037	717.7	4.0954e-06	4.0725e-06	1101.1	258.96	4.0819e-06	4.1085e-06	421.74	162.42	98.18	32.049	4.1125e-06	58.374	102.478	182.561	94.761	-63.617	150.112	-7.856	-64.668	-58.606	135.558	-61.665	-61.143	-57.007	-55.165	-50.171	53.402	-52.887	-8191	255	
1656.992	1	1	0	0	0.13184	0.20745	0.17563	0.13104	0.16122	0.15817	0.35411	0.3171	0.21006	0.15596	0.13959	0.33214	0.10808	0.1596	0.11266	0.15171	-2.6479	-2.65	-3.4354	-2.7354	-3.0187	-3.4104	-2.8375	-3.2208	-3.0687	-2.7104	-3.6937	-2.9042	-2.8479	-3.3917	-2.6375	-3.4542	265.592	127.148	145.836	5.203	269.093	136.469	220.489	198.861	70.008	141.679	206.386	268.644	262.794	-53.905	93.671	238.790	0.00055295	0.00011023	0.00028504	808	1.5622e-06	4.9558e-06	1301	301.33	1.3573e-06	7.589e-06	533.44	199.6	116.4	37.918	1.6189e-05	72.642	0.00037624	0.00037186	0.00010397	716.89	4.1003e-06	4.0683e-06	1105.1	259.27	4.0491e-06	4.0724e-06	423.62	162.23	98.371	32.207	4.1122e-06	58.612	75.747	122.015	-61.947	-63.781	282.365	27.953	-65.080	-59.049	107.014	47.059	-61.058	-56.988	-55.278	-50.656	-16.293	-53.158	-8191	255	
1657.088	1	1	0	0	0.067598	0.28336	0.050917	0.22874	0.3525	0.10497	0.45348	0.11353	0.1482	0.15212	0.062365	0.13104	0.17974	0.072972	0.06147	0.35293	-2.8146	-2.675	-3.3771	-2.8208	-2.9458	-3.4375	-2.9354	-3.4167	-3.2354	-2.7104	-3.3438	-3.2875	-2.7646	-3.475	-2.6625	-3.3521	57.970	58.828	269.402	248.744	14.221	-76.587	227.793	238.914	50.264	108.458	70.808	232.356	185.639	19.589	13.088	195.510	0.0010835	0.0021184	0.00020505	819.49	2.8906e-06	1.0249e-05	1314.4	303.54	4.1685e-07	8.3983e-06	535.2	201.94	117.52	37.656	9.3787e-06	72.707	0.00037619	0.00037439	0.00010446	721.85	4.1827e-06	4.1222e-06	1113.8	260.47	4.138e-06	4.1441e-06	427.72	163.38	99.166	32.373	4.1704e-06	58.791	54.143	48.432	-42.086	-63.226	163.553	84.129	-64.937	-58.666	32.703	207.603	-61.227	-56.665	-55.669	-50.354	107.150	-53.150	-8191	255	
1657.184	1	1	0	0	0.30539	0.21562	0.045899	0.20613	0.12774	0.21956	0.22003	0.16928	0.24712	0.28572	0.22653	0.3107	0.11512	0.12376	0.14691	0.11798	-2.9792	-2.6562	-3.2771	-3.1521	-2.8063	-3.5146	-2.7958	-3.1146	-3.1562	-2.7792	-3.5396	-3.0979	-2.8292	-3.5938	-2.8	-2.95	136.966	-55.081	113.448	96.852	-24.325	-0.233	233.097	242.858	223.318	138.939	217.690	245.006	-39.819	209.022	1.413	278.266	0.00035913	0.0019591	0.00019988	816.49	5.4907e-06	9.36e-06	1310.7	303.23	5.8426e-06	8.1242e-06	540	200.21	117	38.023	4.3204e-06	72.768	0.00037883	0.00037796	0.00010572	722.02	4.1614e-06	4.1456e-06	1110.6	260.93	4.1099e-06	4.1158e-06	426.63	163.26	98.83	32.411	4.0717e-06	58.623	260.352	58.748	61.118	-63.969	63.452	132.089	-64.833	-58.851	165.218	107.957	-61.185	-57.034	-55.616	-50.000	84.719	-52.931	-8191	255	
1657.303	1	1	0	0	0.22305	0.13678	0.046299	0.087071	0.10655	0.078567	0.18183	0.30171	0.06208	0.44798	0.062673	0.10957	0.058356	0.1755	0.083436	0.050137	-3.0563	-2.6333	-3.2167	-3.2854	-2.6542	-3.5187	-3.1	-2.9771	-3.4562	-2.6104	-3.2875	-3.2438	-2.8063	-3.4979	-3	-2.8812	115.913	52.908	112.503	-37.335	144.257	-66.434	168.299	181.919	44.096	101.900	-21.837	189.484	-31.004	-40.274	60.190	209.555	0.00055202	0.00023989	0.00026224	812.79	7.2044e-06	4.3131e-06	1307.5	302.27	3.2118e-06	5.6726e-06	537.2	201.7	117.06	37.959	3.1327e-06	72.593	0.00037672	0.00037632	0.00010643	719.72	4.1139e-06	4.1332e-06	1108.1	260.56	4.1036e-06	4.0869e-06	424.45	163.24	98.861	32.408	4.1291e-06	58.685	51.565	83.452	58.992	-63.790	280.921	253.180	-65.124	-58.792	61.949	113.221	-61.131	-57.022	-55.760	-50.020	55.038	-53.045	-8191	255	
1657.399	1	1	0	0	0.15889	0.056365	0.12265	0.13644	0.19361	0.21357	0.25781	0.46233	0.15877	0.089318	0.0081064	0.22935	0.094124	0.15819	0.15921	0.22495	-2.9875	-2.6896	-3.2729	-3.2812	-2.55	-3.4833	-3.0396	-2.8542	-3.4896	-2.7521	-3.1542	-3.4313	-2.8167	-3.5167	-3.0021	-2.95	74.157	211.245	98.573	-71.115	100.635	114.207	229.991	272.950	-26.250	-23.374	-32.503	226.382	155.144	-12.326	2.416	-54.780	0.00062566	0.0009681	0.0002466	822.76	5.7512e-06	6.1895e-06	1306.7	303.95	8.4503e-06	7.141e-06	538.95	201.62	118.2	37.94	5.7322e-06	73.163	0.00038078	0.00037509	0.00010573	723.85	4.1367e-06	4.1491e-06	1113.8	261.13	4.1488e-06	4.1584e-06	428.21	163.63	99.007	32.472	4.136e-06	58.853	79.476	70.084	-48.451	-63.743	66.765	119.682	-64.612	-58.585	100.482	217.165	-61.314	-57.082	-55.197	-50.165	280.927	-52.845	-8191	255	
1657.471	1	1	0	0	0.12052	0.18564	0.14118	0.035805	0.25521	0.14816	0.32622	0.35836	0.041014	0.22276	0.25824	0.12207	0.067919	0.14643	0.17102	0.35996	-2.9333	-2.8396	-3.1688	-3.3688	-2.6167	-3.3396	-3.2208	-2.9625	-3.4	-2.9437	-3.1167	-3.4875	-2.7958	-3.3167	-3.0417	-2.85	212.735	-35.299	238.912	-53.847	-17.009	201.720	206.616	225.496	-48.651	153.383	212.897	250.703	167.000	-72.453	-69.008	231.740	0.00013317	0.0011565	0.00011745	814.08	1.379e-06	7.1345e-06	1315.5	302.86	1.2746e-05	9.8953e-06	534.45	200.67	116.35	37.957	6.5646e-07	73.005	0.00038006	0.00037745	0.00010405	723.86	4.1268e-06	4.146e-06	1115.5	260.82	4.1327e-06	4.1118e-06	424.87	162.79	98.399	32.45	4.0871e-06	58.736	21.890	79.261	46.041	-63.938	23.084	93.430	-64.779	-58.835	-45.694	112.867	-61.200	-57.041	-56.010	-50.180	147.316	-53.171	-8191	255	
1657.592	1	1	0	0	0.20571	0.11314	0.053448	0.12929	0.077905	0.23337	0.050855	0.13488	0.1809	0.045824	0.056742	0.10206	0.21149	0.20212	0.15989	0.13673	-3.0104	-2.8625	-2.8042	-3.5292	-2.7646	-3.1021	-3.3271	-2.7812	-3.3104	-3.0896	-2.9458	-3.4542	-2.9208	-3.1813	-3.2333	-2.5792	118.815	232.149	255.721	206.873	-49.904	70.736	77.373	157.874	216.383	201.751	50.727	176.125	257.030	-56.835	14.720	207.832	0.0011551	0.0010423	4.3385e-05	807.46	2.1952e-06	7.8895e-06	1300	302.44	5.4463e-06	2.8744e-06	529.78	198.95	116.83	38.43	1.4604e-05	73.007	0.00037749	0.00037584	0.0001041	718.99	4.1083e-06	4.1235e-06	1101.9	259.24	4.1299e-06	4.0957e-06	420.8	162.06	98.393	32.625	4.107e-06	58.948	44.022	22.073	8.412	-63.424	69.165	196.069	-64.912	-58.944	247.533	55.737	-60.624	-57.382	-55.160	-50.412	35.348	-53.175	-8191	255	
1657.688	1	1	0	0	0.077256	0.10566	0.070242	0.19606	0.13002	0.19462	0.28182	0.18264	0.12011	0.078989	0.26788	0.22397	0.055354	0.48192	0.13464	0.20442	-3.0146	-2.95	-2.7958	-3.5208	-2.6542	-3.0667	-3.2896	-2.7313	-3.0542	-3.0542	-2.6813	-3.5417	-3.0229	-3.1646	-3.5667	-2.7875	-54.266	131.217	118.974	245.086	118.169	-41.151	260.250	260.553	128.512	180.314	38.682	275.528	166.860	229.623	47.113	210.595	0.00078624	9.672e-05	0.00024787	814.31	7.5499e-06	1.2024e-05	1303	300.17	4.8866e-06	6.2763e-07	530.91	201.71	118.34	38.453	1.1324e-05	73.784	0.00038078	0.00037521	0.00010545	723.12	4.1583e-06	4.1735e-06	1110.2	259.78	4.167e-06	4.1783e-06	424.93	164.28	99.716	32.881	4.1952e-06	59.626	63.215	256.389	-73.479	-63.862	93.725	117.222	-65.413	-59.499	-24.107	264.065	-61.126	-57.012	-56.241	-50.476	0.334	-53.296	-8191	255	
1657.784	1	1	0	0	0.10464	0.12508	0.22912	0.23491	0.074537	0.14703	0.15569	0.24968	0.36117	0.35722	0.31242	0.052731	0.10724	0.16093	0.23796	0.24277	-2.8271	-3.0833	-2.6833	-3.4479	-2.8042	-2.9771	-3.6042	-2.6396	-3.0729	-3.1688	-2.7812	-3.425	-3.0187	-2.875	-3.4208	-2.6708	22.597	-76.019	28.955	-30.983	183.789	-4.575	251.231	220.910	136.007	171.430	268.981	223.477	-46.960	212.415	280.483	128.042	0.00090675	0.00085635	0.00014311	823.79	5.1234e-06	6.5132e-06	1304.1	304.18	1.0799e-05	2.9609e-06	538.32	203.29	117.85	38.586	1.461e-06	73.923	0.00038746	0.00038593	0.00010666	730.37	4.1985e-06	4.1809e-06	1114.2	262.57	4.2002e-06	4.204e-06	427.21	164.96	99.776	32.939	4.1637e-06	59.7	14.260	216.620	155.247	-63.697	133.178	184.908	-65.058	-59.337	55.696	123.211	-61.802	-57.144	-55.584	-50.023	194.257	-53.431	-8191	255	
1657.880	1	1	0	0	0.22429	0.15241	0.047865	0.28994	0.072823	0.079071	0.22966	0.29291	0.14194	0.2344	0.2828	0.14913	0.11524	0.078491	0.089419	0.21127	-2.7896	-3.2188	-2.6729	-3.3521	-3.0458	-2.7375	-3.4917	-2.8667	-3.1896	-3.2667	-2.7583	-3.4188	-3.025	-2.7521	-3.4854	-2.8979	204.412	-7.486	156.432	255.226	183.605	-11.396	229.993	260.082	136.846	194.726	260.035	217.732	-67.667	50.111	232.558	76.011	0.00063585	0.0010587	0.00025251	823.63	5.0244e-06	8.666e-06	1309.9	302.31	8.2889e-06	3.6179e-06	535.51	203.04	118.34	38.546	7.4682e-06	73.557	0.0003795	0.00037836	0.00010532	729.97	4.1588e-06	4.1444e-06	1113.6	261.21	4.1404e-06	4.1531e-06	426.02	164.78	99.463	32.728	4.164e-06	59.315	38.085	-4.469	53.220	-63.881	70.961	161.284	-65.044	-59.352	127.334	-6.726	-61.091	-57.340	-55.905	-50.210	98.394	-52.892	-8191	255	
1657.976	1	1	0	0	0.17763	0.20379	0.13032	0.31096	0.10468	0.10519	0.37593	0.20192	0.12348	0.17529	0.10986	0.43789	0.34747	0.14305	0.17223	0.039654	-2.5854	-3.2125	-2.7417	-3.4458	-3.1688	-2.7854	-3.7042	-2.9083	-2.8729	-3.4188	-2.7729	-3.3625	-3.1479	-2.8167	-3.3375	-2.9771	-43.772	224.870	49.416	219.434	142.828	251.240	206.006	242.483	-58.585	118.947	5.659	245.224	192.600	211.840	192.978	194.037	0.00022061	0.00094013	0.0001494	821.91	2.5966e-06	8.0574e-06	1312.3	305.77	1.6828e-05	1.107e-05	535.02	204.77	118.83	38.36	1.1033e-05	73.587	0.00037989	0.0003762	0.00010579	730.49	4.1623e-06	4.201e-06	1111.6	261.96	4.1561e-06	4.135e-06	426.55	165.18	99.853	32.68	4.1534e-06	59.138	34.801	137.399	121.093	-63.365	265.384	18.911	-64.935	-59.396	53.394	86.324	-61.461	-57.522	-55.995	-49.828	206.017	-53.322	-8191	255	
1658.072	1	1	0	0	0.056808	0.11457	0.13822	0.21873	0.036544	0.063461	0.21346	0.4493	0.36941	0.081042	0.14751	0.19936	0.23819	0.072864	0.17937	0.28766	-2.3979	-3.3146	-2.7125	-3.2854	-3.3521	-2.6271	-3.6292	-2.9938	-2.8563	-3.5438	-2.6833	-3.3292	-3.4854	-2.8646	-3.2667	-3.35	250.444	-63.950	222.192	258.428	246.980	242.864	265.299	220.723	243.091	204.341	207.521	242.537	242.344	-55.681	262.225	173.542	0.00074109	0.00079676	0.00015216	824.35	2.8971e-06	3.2826e-06	1310.1	306.18	8.6454e-06	1.9048e-06	535.64	203.93	119.17	38.439	1.06e-05	73.569	0.00037827	0.00037098	0.00010508	732.26	4.0679e-06	4.0947e-06	1111.8	263.17	4.1535e-06	4.1209e-06	426.67	165.27	100.24	32.774	4.1597e-06	59.209	64.020	105.081	208.293	-63.559	150.416	66.267	-64.742	-59.564	-18.818	158.019	-61.690	-57.154	-56.044	-49.661	-53.949	-53.456	-8191	255	
1658.168	1	1	0	0	0.24001	0.083526	0.32774	0.2441	0.20868	0.14827	0.21906	0.20426	0.17301	0.21141	0.34769	0.17068	0.19146	0.24925	0.10373	0.20606	-2.5938	-3.4688	-2.7562	-3.2625	-3.4646	-2.6958	-3.6146	-3.1063	-2.8604	-3.2979	-3.0812	-3.1229	-3.3833	-2.6688	-3.3771	-3.175	16.881	31.136	43.310	254.915	183.929	173.380	200.318	228.285	-64.595	68.737	155.815	218.469	244.719	200.003	-19.683	-19.635	0.00027752	0.0012195	0.00013327	825.84	4.4686e-06	1.5531e-05	1314.9	306.96	1.6878e-06	7.811e-06	543.19	204.46	117.65	38.359	1.3666e-05	73.313	0.0003802	0.00037777	0.0001058	731.41	4.1167e-06	4.0992e-06	1113.6	264.47	4.1454e-06	4.1211e-06	428.76	165.68	99.729	32.695	4.1848e-06	59.285	-64.225	270.229	61.598	-63.572	219.827	90.209	-64.885	-59.515	-45.588	216.543	-61.433	-56.854	-54.946	-50.428	70.652	-53.161	-8191	255	
1658.265	1	1	0	0	0.4664	0.12833	0.18989	0.10359	0.13437	0.27625	0.12801	0.10767	0.41444	0.17052	0.056322	0.05551	0.34444	0.11515	0.045925	0.18285	-2.4813	-3.5625	-2.9354	-3.1271	-3.3875	-2.7917	-3.4958	-3.3333	-2.9167	-3.5625	-3.1208	-3.125	-3.5062	-2.8146	-3.2125	-3.5125	229.842	114.333	71.594	208.444	208.169	-12.961	258.595	268.268	-48.067	91.325	240.994	-64.922	221.373	218.908	-43.846	222.357	0.00071514	0.0012871	0.00027969	823.59	3.1554e-06	3.692e-06	1311	307.94	2.683e-06	4.6437e-06	537.96	203.94	119.36	38.201	1.0722e-05	73.226	0.00037963	0.00038061	0.00010501	732.09	4.1961e-06	4.1674e-06	1114.9	264.32	4.174e-06	4.1716e-06	428.38	165.15	99.983	32.645	4.1963e-06	59.135	62.057	-6.448	-55.499	-63.446	205.577	35.015	-64.924	-59.231	120.726	144.786	-61.216	-57.030	-55.341	-50.032	72.004	-53.006	-8191	255	
1658.384	1	1	0	0	0.22913	0.010554	0.16082	0.15472	0.21695	0.19418	0.11449	0.30102	0.23473	0.24832	0.098964	0.23101	0.24846	0.030374	0.045105	0.16012	-2.3688	-3.3312	-3.0021	-2.9167	-3.5167	-2.5958	-3.3667	-3.4833	-2.6604	-3.3937	-3.1521	-2.9062	-3.6833	-2.8667	-3.0333	-3.5062	147.465	195.170	126.249	190.165	237.426	226.278	220.386	-66.684	20.624	-75.171	187.246	195.191	242.843	-19.354	240.907	85.681	0.00041277	0.00085689	0.00016586	825.22	2.449e-06	1.3473e-05	1311.3	307.45	1.264e-05	4.6803e-06	536.86	203.45	118.4	38.139	5.5304e-06	73.934	0.00038496	0.00038087	0.00010636	731.06	4.2021e-06	4.2191e-06	1114.8	264.16	4.2189e-06	4.2291e-06	427.45	165.06	100.29	32.767	4.263e-06	59.536	55.187	44.707	276.059	-63.067	115.121	47.690	-64.777	-59.342	85.817	120.067	-61.008	-56.902	-55.565	-50.824	53.214	-53.263	-8191	255	
1658.480	1	1	0	0	0.064059	0.14972	0.096974	0.1528	0.35476	0.32484	0.11586	0.15033	0.095509	0.1351	0.27519	0.15169	0.055755	0.20016	0.13135	0.20495	-2.3417	-3.3458	-3.05	-2.9313	-3.5625	-2.8688	-3.0792	-3.3208	-2.7208	-3.3292	-3.1729	-2.8583	-3.7271	-2.8896	-2.8187	-3.5812	1.495	20.085	20.043	83.222	35.073	149.787	237.030	164.116	265.501	-33.979	197.944	256.995	147.189	256.769	190.906	213.616	0.0001321	0.00069081	0.00028549	827.52	6.3278e-06	3.3616e-06	1312.6	309.39	1.3807e-05	8.7127e-06	536.88	207.26	120.73	39.022	2.8985e-06	75.222	0.000392	0.00039329	0.00010905	738.21	4.3246e-06	4.3361e-06	1121.6	266.44	4.3799e-06	4.4039e-06	432.9	168.54	102.33	33.526	4.3505e-06	60.863	19.065	-1.717	-41.831	-63.700	133.207	46.970	-64.892	-58.997	124.550	130.192	-61.383	-57.279	-55.716	-50.308	236.384	-53.499	-8191	255	
1658.576	1	1	0	0	0.28003	0.34477	0.051291	0.44174	0.25989	0.13609	0.086378	0.2076	0.21146	0.098194	0.25074	0.043935	0.015399	0.18753	0.21322	0.21659	-2.3104	-3.3604	-3.125	-2.8604	-3.3563	-3.1375	-2.9688	-3.6208	-2.8979	-3.3667	-3.3979	-2.625	-3.3146	-3.1646	-2.9083	-3.7188	214.264	254.169	72.636	-76.691	10.696	-37.435	159.246	168.552	59.341	35.299	168.825	-75.003	19.014	-72.293	55.556	249.144	0.00064441	0.00021784	0.0001612	836.07	7.4453e-06	2.4109e-06	1323.6	311.23	5.1641e-06	1.1516e-05	544.7	208.56	121.58	39.647	1.8762e-06	75.602	0.0004014	0.00040022	0.00011267	744.89	4.4179e-06	4.3867e-06	1130.7	268.29	4.403e-06	4.4286e-06	436.31	169.69	102.99	33.911	4.4249e-06	61.318	104.178	25.311	166.008	-63.664	49.275	147.835	-64.673	-59.351	149.213	151.005	-61.781	-57.368	-55.520	-50.524	52.507	-53.263	-8191	255	
1658.696	1	1	0	0	0.073252	0.28501	0.043787	0.34527	0.051158	0.19375	0.040832	0.41519	0.096661	0.1566	0.09051	0.046903	0.2134	0.069475	0.15852	0.19111	-2.2104	-2.9542	-3.3875	-2.6979	-3.5125	-2.925	-2.9021	-3.6646	-2.8	-3.1021	-3.4167	-2.7521	-3.4521	-3.1437	-2.8187	-3.5708	117.406	40.686	224.522	274.360	131.441	137.831	-75.660	228.505	6.099	266.635	253.095	231.461	-71.432	39.736	153.140	181.148	0.0012505	0.00058183	0.00037375	832.53	8.0695e-06	9.9962e-06	1324.8	314.21	6.3924e-06	4.424e-06	545.04	210.33	121.87	39.4	5.2588e-06	76.076	0.00040783	0.00040945	0.00011398	746.01	4.4512e-06	4.4842e-06	1132.1	270.76	4.4807e-06	4.4596e-06	438.44	171.11	103.4	33.937	4.4418e-06	61.552	79.925	158.596	258.448	-63.595	72.790	15.214	-64.673	-59.203	20.383	205.845	-62.075	-57.247	-55.667	-50.400	65.602	-53.587	-8191	255	
1658.768	1	1	0	0	0.069971	0.02701	0.12443	0.092171	0.21899	0.10184	0.55392	0.056136	0.098084	0.16126	0.0086617	0.2418	0.12697	0.19566	0.22112	0.21842	-2.3646	-3.0021	-3.4313	-2.6646	-3.1458	-3.3458	-2.7833	-3.4167	-2.8042	-3.0062	-3.6312	-2.7979	-3.2812	-3.2417	-2.7521	-3.5875	108.562	144.554	198.085	198.799	279.655	-76.691	211.029	212.974	58.415	122.514	88.277	226.542	118.563	274.975	194.601	215.975	0.00035083	0.00083713	9.3834e-05	831.2	5.9956e-06	1.1679e-05	1330.5	313.28	1.156e-05	6.1862e-06	547.13	212.82	122.73	39.565	3.6138e-06	75.395	0.00039994	0.00040408	0.00011265	741.96	4.371e-06	4.4164e-06	1131.3	270.28	4.3737e-06	4.3631e-06	438.21	171.87	103.65	33.841	4.3603e-06	61.221	28.471	53.778	109.088	-63.450	211.638	117.405	-64.756	-59.338	98.031	47.331	-61.159	-57.381	-56.155	-50.810	253.005	-53.458	-8191	255	
1658.864	1	1	0	0	0.035815	0.080628	0.1001	0.29933	0.16367	0.154	0.036752	0.088091	0.13784	0.10918	0.052499	0.27854	0.13497	0.25916	0.11169	0.2071	-2.4271	-2.7979	-3.2417	-2.7854	-3.0938	-3.3104	-2.7917	-3.3812	-3.0062	-2.8833	-3.3792	-2.8854	-3.1083	-3.3646	-2.8708	-3.3667	194.733	36.020	-66.088	170.806	236.133	122.213	201.984	-28.174	220.502	214.187	221.035	282.038	59.536	20.898	88.140	177.416	0.00088582	0.00041026	0.00035698	835.87	1.2364e-06	1.6167e-05	1322.9	312.94	4.8094e-06	5.4687e-06	548.74	210.79	123.14	39.188	6.6698e-06	76.189	0.000399	0.00039894	0.00011068	742.73	4.3353e-06	4.332e-06	1130.7	270.49	4.3365e-06	4.3318e-06	438.19	171.38	103.69	33.74	4.3422e-06	61.579	76.964	226.512	69.152	-63.843	245.422	98.302	-65.239	-59.005	262.973	34.955	-61.360	-57.268	-55.715	-50.717	226.805	-53.671	-8191	255	
1658.985	1	1	0	0	0.11905	0.1976	0.30028	0.15871	0.17196	0.11526	0.39775	0.21467	0.19414	0.22043	0.19781	0.325	0.30185	0.12348	0.14564	0.40646	-2.6667	-2.8083	-3.2938	-2.675	-3.0896	-3.4604	-2.9104	-3.2917	-2.8646	-2.7687	-3.6271	-3.0292	-2.9917	-3.3854	-2.7313	-3.3771	251.515	90.622	-72.494	197.239	38.997	205.950	221.187	204.580	191.788	69.973	147.049	200.428	211.281	182.261	125.295	236.168	0.00038082	0.00058349	0.00026318	830.03	2.5139e-06	9.1639e-06	1331.9	315.5	1.0709e-05	1.3058e-05	556	213.51	123.67	39.878	1.0568e-05	77.422	0.00039333	0.00039135	0.00010933	741.55	4.3288e-06	4.3082e-06	1134.4	272.41	4.3758e-06	4.3326e-06	443.49	173.31	104.55	34.169	4.326e-06	62.304	112.175	124.950	240.562	-63.929	275.382	68.007	-65.214	-59.187	69.348	76.593	-61.487	-57.351	-55.990	-50.540	136.844	-53.460	-8191	255	
1659.081	1	1	0	0	0.19419	0.10169	0.037542	0.21082	0.17442	0.16025	0.3448	0.27554	0.24926	0.17428	0.15528	0.29419	0.29951	0.064671	0.10178	0.26137	-2.7646	-2.65	-3.4979	-2.9771	-2.7958	-3.5521	-2.8229	-3.3271	-3.1146	-2.7229	-3.45	-3.0083	-2.9437	-3.6458	-2.5604	-3.1521	26.103	191.204	168.532	211.339	113.250	157.623	246.373	268.628	49.260	176.354	-54.786	269.814	254.158	251.947	33.799	-57.698	0.00044217	0.00024873	0.00021977	839.39	7.1372e-07	7.7243e-06	1333.4	317.5	1.1887e-05	6.5395e-06	565.37	214.07	124.41	39.781	6.9018e-06	77.295	0.00039649	0.00039582	0.00011012	745.59	4.3546e-06	4.3581e-06	1136.7	273.77	4.3545e-06	4.3502e-06	447.75	174.01	105.1	34.172	4.3311e-06	62.215	69.842	237.030	-62.503	-64.388	-1.796	54.910	-65.206	-59.620	141.108	111.464	-61.830	-58.002	-56.592	-51.383	260.088	-53.817	-8191	255	
1659.177	1	1	0	0	0.169	0.069028	0.13649	0.071003	0.095548	0.23872	0.091744	0.32911	0.18785	0.1639	0.15299	0.08537	0.13974	0.34119	0.23627	0.15355	-2.9938	-2.5875	-3.3833	-3.1042	-2.6292	-3.3646	-2.8854	-2.9813	-3.4417	-2.8187	-3.3583	-3.1437	-2.6875	-3.5229	-2.5979	-3.0792	-45.348	-27.950	79.189	-29.058	204.999	146.401	219.107	224.931	57.757	111.780	113.811	-48.195	-58.311	229.026	160.274	115.209	0.00058879	0.00085989	6.4227e-05	824.59	8.9612e-06	3.9965e-06	1323.2	318.01	4.8368e-06	3.5074e-06	551.98	211.62	123.51	39.38	6.09e-06	76.3	0.00039566	0.00039387	0.00011005	739.72	4.3081e-06	4.2726e-06	1127.9	273.54	4.3078e-06	4.2893e-06	443.69	171.77	104	33.706	4.2498e-06	61.15	43.268	150.900	-14.417	-64.384	-70.468	172.579	-65.350	-59.815	166.627	72.979	-61.661	-58.052	-56.502	-51.582	20.020	-53.545	-8191	255	
1659.296	1	1	0	0	0.25674	0.25006	0.094694	0.15643	0.41378	0.057596	0.038763	0.12573	0.095286	0.12682	0.34366	0.07765	0.29569	0.11019	0.16068	0.04795	-3.0583	-2.5229	-3.2104	-3.4542	-2.8229	-3.4875	-2.9688	-3.0042	-3.3063	-2.6729	-3.4688	-3.3396	-2.7854	-3.5125	-2.8563	-3.0104	208.616	251.413	18.292	247.955	173.900	82.769	142.056	141.891	137.175	55.434	254.447	175.325	256.314	242.531	224.070	48.700	0.00026627	0.0016741	0.00019671	829.52	7.0152e-06	1.139e-05	1325	318.34	5.739e-06	1.425e-05	562.34	210.55	124.35	39.369	2.6814e-06	75.165	0.00039229	0.00038995	0.00010811	739.52	4.3071e-06	4.2746e-06	1126.5	273.84	4.2842e-06	4.29e-06	446.09	171.63	104.33	33.597	4.2625e-06	60.864	59.823	-43.503	8.873	-64.174	49.070	82.436	-65.286	-59.682	67.787	137.271	-62.166	-58.085	-56.469	-50.900	277.339	-53.866	-8191	255	
1659.368	1	1	0	0	0.11772	0.22385	0.15539	0.096188	0.17517	0.12459	0.45464	0.35228	0.14854	0.16171	0.1855	0.25484	0.24089	0.16587	0.12315	0.19205	-3.1167	-2.6729	-3.2167	-3.35	-2.5438	-3.3292	-3.0667	-2.9604	-3.5833	-2.8146	-3.3375	-3.5417	-2.8042	-3.4833	-3.0021	-2.8812	226.750	162.359	185.250	262.032	154.116	-50.158	231.674	236.753	191.979	158.374	-71.373	-40.817	197.348	241.166	-39.324	226.553	0.00082039	0.00085483	0.00046814	823.54	1.1426e-05	8.1001e-06	1315.9	317.18	2.75e-06	9.4669e-06	558.56	210.06	121.71	38.827	1.8897e-06	75.03	0.00039454	0.00039123	0.00010883	736.56	4.2683e-06	4.282e-06	1122.9	272.45	4.2402e-06	4.2536e-06	444.88	170.49	102.53	33.208	4.2444e-06	60.71	79.140	-45.097	24.063	-64.767	31.070	111.287	-65.638	-59.728	175.087	64.117	-62.262	-57.931	-56.211	-51.064	281.028	-53.439	-8191	255	
1659.464	1	1	0	0	0.11126	0.082379	0.13474	0.19904	0.18401	0.036664	0.2506	0.21539	0.21777	0.12034	0.083836	0.23622	0.16749	0.22663	0.080465	0.24423	-3.0563	-2.7417	-3.0625	-3.3625	-2.6708	-3.4062	-3.1479	-3.025	-3.5292	-2.9938	-3.1667	-3.5854	-2.7271	-3.2229	-3.0625	-2.8708	126.262	-52.797	93.457	-62.987	159.377	71.484	248.242	215.280	279.597	54.663	33.900	220.033	216.438	14.459	127.921	170.127	0.00043562	0.00071221	0.00010961	827.05	4.9007e-06	2.4133e-06	1314.9	314.21	3.3411e-06	8.0314e-06	546.71	207.13	121.49	38.52	5.4959e-06	74.03	0.0003874	0.00038697	0.00010848	733.52	4.2168e-06	4.2363e-06	1118.1	270.21	4.2217e-06	4.1773e-06	439.44	169.03	101.8	33.033	4.2141e-06	60.156	55.498	85.606	99.621	-64.213	-37.826	227.279	-65.537	-59.763	129.216	118.736	-61.799	-58.186	-56.557	-50.759	219.764	-53.338	-8191	255	
1659.560	1	1	0	0	0.13331	0.152	0.062797	0.12086	0.18126	0.20167	0.26764	0.18374	0.13802	0.13856	0.14685	0.080588	0.10331	0.19604	0.24189	0.23275	-2.9083	-2.8292	-3	-3.4708	-2.75	-3.1646	-3.3396	-2.7375	-3.3208	-2.7458	-2.9417	-3.4292	-2.9646	-3.2229	-3.2417	-2.7542	18.203	187.589	7.768	-43.435	187.592	148.706	250.665	269.087	-42.826	218.142	-65.193	247.028	175.879	-36.305	-13.329	229.018	0.00028005	0.00051674	0.00022744	817.45	1.093e-06	2.7492e-06	1309.4	311.08	6.1715e-06	6.2236e-06	546.54	204.85	119.31	38.269	9.7547e-06	73.877	0.00038882	0.00038473	0.00010759	729.93	4.2375e-06	4.2893e-06	1111.7	268.73	4.2211e-06	4.2179e-06	438.63	166.9	101.07	32.859	4.2272e-06	59.467	68.250	81.465	74.034	-64.336	279.782	161.641	-65.556	-59.807	-55.027	30.055	-61.861	-57.944	-56.010	-50.509	15.310	-53.963	-8191	255	
1659.656	1	1	0	0	0.0090058	0.16079	0.22001	0.17721	0.22173	0.13138	0.11624	0.2187	0.23911	0.23976	0.10737	0.15325	0.13735	0.24304	0.17078	0.21502	-3.1792	-3.1667	-2.8292	-3.5042	-2.7958	-3.0604	-3.4938	-2.6875	-3.3625	-3.0062	-2.8979	-3.5479	-2.8708	-3.0563	-3.4333	-2.7708	187.402	4.951	0.981	240.332	-63.010	165.035	235.651	228.839	22.607	83.769	160.830	257.788	43.772	-62.680	226.861	144.977	0.00045397	0.0009688	0.00034586	825.82	3.7108e-06	7.4672e-06	1316.6	310.87	5.6969e-06	1.0876e-05	545.25	205.3	118.25	37.391	1.3155e-05	73.098	0.00039327	0.0003889	0.00011029	730.84	4.3078e-06	4.3455e-06	1118.6	268.73	4.3634e-06	4.3309e-06	438.51	167.31	100.58	32.491	4.3934e-06	59.263	77.081	147.334	-24.754	-64.425	138.530	75.310	-65.494	-59.758	9.692	149.330	-61.855	-57.886	-56.250	-50.470	-1.484	-53.462	-8191	255	
1659.777	1	1	0	0	0.22856	0.14922	0.21955	0.13826	0.097478	0.10048	0.15839	0.029632	0.15265	0.074639	0.24899	0.021923	0.23532	0.12432	0.15846	0.25947	-3.0979	-3.1292	-2.8083	-3.4458	-2.9813	-2.9375	-3.6083	-2.7979	-3.1146	-3.1417	-2.7667	-3.5646	-2.975	-2.8958	-3.3458	-2.8312	172.504	-9.455	-75.258	271.746	101.688	253.855	233.232	14.405	42.952	84.539	111.104	237.749	211.257	46.967	243.323	233.841	0.00045424	0.00065688	6.9854e-05	822.08	5.4179e-06	1.165e-05	1327.4	310.92	5.7971e-06	3.5027e-06	549.6	206.71	118.3	37.629	1.0529e-05	72.774	0.00040168	0.00039768	0.0001119	732.26	4.4022e-06	4.4208e-06	1132.4	269.13	4.4027e-06	4.3833e-06	442.76	167.7	100.71	32.694	4.3749e-06	59.309	73.447	-4.623	29.582	-64.266	60.324	93.615	-65.416	-59.903	203.360	8.985	-61.926	-57.649	-56.256	-50.305	37.356	-53.637	-8191	255	
1659.873	1	1	0	0	0.19329	0.032119	0.28213	0.13571	0.071194	0.098451	0.37889	0.33054	0.12378	0.25734	0.28965	0.32731	0.18496	0.34223	0.1099	0.29568	-2.6854	-3.1021	-2.6479	-3.4688	-2.9521	-2.8396	-3.5208	-2.7625	-3.0667	-3.2229	-2.8479	-3.4125	-2.9958	-2.6417	-3.4458	-2.8104	-39.731	-24.639	-68.955	259.497	114.974	164.609	231.443	234.999	-41.024	33.922	263.984	218.196	197.023	-4.279	-6.427	247.736	0.00022483	0.0014512	0.00011536	821.47	7.5983e-06	5.958e-06	1331.6	310.69	1.2273e-05	6.9874e-07	557.17	203.85	117.45	37.469	7.9502e-06	72.455	0.00040086	0.00040016	0.0001114	734.23	4.3548e-06	4.3904e-06	1138.6	269.02	4.392e-06	4.3781e-06	443.51	167.33	100.45	32.52	4.384e-06	59.223	276.770	118.734	-24.235	-63.773	-15.906	69.900	-65.144	-59.579	17.272	156.997	-61.681	-57.697	-55.718	-50.565	-1.323	-53.257	-8191	255	
1659.945	1	1	0	0	0.14434	0.1156	0.16628	0.16866	0.15676	0.28645	0.22321	0.30714	0.14771	0.23029	0.27449	0.14295	0.087925	0.26478	0.17851	0.24881	-2.7146	-3.1625	-2.6708	-3.4542	-3.0792	-2.7646	-3.625	-2.9229	-3.0083	-3.4104	-2.8229	-3.4562	-3.3312	-2.7687	-3.4458	-2.875	168.688	25.971	155.779	277.565	153.641	201.960	236.277	260.432	-2.805	-55.202	-68.038	231.165	-16.540	242.448	38.403	-36.210	3.4045e-05	0.0010251	0.00012445	825.41	2.7661e-06	7.5316e-06	1340.7	309.93	8.9208e-06	1.6036e-05	555.03	206.33	119.71	38.299	2.1479e-06	73.59	0.00040557	0.00039829	0.00011117	734.43	4.3806e-06	4.4019e-06	1141.4	269.11	4.4379e-06	4.3722e-06	443.83	168.13	101.55	32.935	4.4056e-06	59.689	17.489	120.205	162.821	-63.693	118.181	127.164	-65.227	-59.804	213.996	42.882	-61.684	-57.457	-56.098	-50.645	-41.893	-53.215	-8191	255	
1660.065	1	1	0	0	0.020191	0.14411	0.16884	0.37451	0.025281	0.027453	0.07151	0.3155	0.072899	0.37817	0.1753	0.19114	0.05986	0.24249	0.14199	0.18377	-2.4708	-3.4375	-2.6063	-3.3333	-3.0875	-2.7083	-3.6604	-3.1292	-2.9375	-3.5604	-2.7021	-3.2021	-3.4458	-2.6063	-3.3708	-2.8688	78.719	31.769	169.123	-64.813	247.532	-74.857	26.908	197.318	4.667	170.342	247.534	227.231	111.550	264.285	177.153	66.127	0.0012441	0.00055249	0.00024116	832.71	1.0475e-05	1.5312e-05	1344.4	315.52	5.2291e-06	3.8915e-06	560.06	211.36	120.62	38.615	9.8679e-06	74.634	0.00040466	0.00040226	0.00011051	741.26	4.3954e-06	4.4067e-06	1147.8	272.59	4.4055e-06	4.3785e-06	447.78	171.34	102.83	33.379	4.4332e-06	60.672	105.985	-27.474	-28.104	-63.596	82.353	80.050	-65.389	-59.758	-6.519	9.906	-61.746	-57.361	-56.104	-50.609	-8.640	-53.426	-8191	255	
1660.161	1	1	0	0	0.17035	0.2292	0.077887	0.18377	0.11761	0.06173	0.31067	0.099333	0.086091	0.011529	0.028911	0.073426	0.096941	0.35179	0.04378	0.27173	-2.4083	-3.4604	-2.9125	-3.3229	-3.4333	-2.7938	-3.4896	-3.0271	-2.6104	-3.4896	-2.7542	-3.1688	-3.2313	-2.9542	-3.3458	-3.2667	39.513	-55.914	115.277	-42.480	117.351	237.345	224.988	145.313	197.293	188.783	223.251	-70.130	129.086	-14.185	-72.585	242.649	0.0011703	0.0012019	0.00040298	838.96	2.6003e-06	2.4513e-06	1351.2	317.26	3.422e-06	8.3628e-06	563.41	211.94	122.32	39.272	9.3841e-06	76.41	0.00040901	0.00040809	0.00011285	749.09	4.4478e-06	4.448e-06	1155.6	274.16	4.4853e-06	4.4943e-06	448.88	172.68	104.25	33.868	4.4633e-06	61.716	52.259	182.734	51.144	-63.953	-8.076	-16.737	-65.058	-59.215	111.116	84.971	-61.253	-57.398	-55.898	-50.622	2.655	-53.478	-8191	255	
1660.258	1	1	0	0	0.019093	0.12658	0.084129	0.13225	0.33438	0.11605	0.31543	0.12513	0.20062	0.034719	0.052838	0.4665	0.054859	0.045148	0.12667	0.22822	-2.3521	-3.4292	-2.8271	-2.9958	-3.4417	-2.8042	-3.5438	-3.3083	-2.7792	-3.4833	-3.0896	-3.1125	-3.4542	-2.8396	-3.1833	-3.4521	144.135	220.103	153.766	205.439	-31.307	-41.089	227.868	-50.214	-37.890	234.483	131.983	237.931	216.162	118.567	91.159	178.795	0.00022374	0.0005493	0.00024463	837.43	3.8951e-06	3.9046e-06	1352.7	317.58	3.946e-06	1.3108e-05	565.7	215.18	123.82	39.558	1.3085e-05	76.147	0.00040953	0.00040737	0.00011303	747.93	4.4639e-06	4.4906e-06	1154.1	274.89	4.4945e-06	4.4846e-06	450.14	174.97	105.43	34.189	4.5732e-06	61.959	153.468	-66.577	-31.263	-64.384	-55.493	219.864	-65.179	-59.601	211.813	49.692	-61.741	-57.181	-56.236	-50.633	131.362	-53.918	-8191	255	
1660.376	1	1	0	0	0.18608	0.20623	0.047625	0.18575	0.16159	0.011209	0.35236	0.10349	0.16171	0.1643	0.18394	0.26397	0.13956	0.032074	0.14838	0.10998	-2.1437	-3.4583	-2.9917	-2.9104	-3.45	-2.6312	-3.4083	-3.3958	-2.6708	-3.4875	-3.0917	-2.8125	-3.4604	-2.8167	-3.0292	-3.3688	143.572	229.462	2.496	262.428	278.461	18.195	249.317	227.709	-21.694	-68.453	240.665	269.629	272.082	99.586	-23.751	69.592	0.001355	0.00088672	0.00022768	830.1	6.0465e-06	5.17e-06	1338	318.87	5.4643e-06	7.6691e-06	554.9	213.7	123.46	39.601	7.0326e-06	76.282	0.00042122	0.00041825	0.00011516	745.41	4.5857e-06	4.5727e-06	1146.9	276.28	4.6123e-06	4.6394e-06	448.98	174.52	105.18	34.295	4.6373e-06	62.015	85.882	47.871	34.070	-63.893	265.371	276.736	-64.937	-59.223	123.002	148.369	-61.376	-57.393	-55.660	-50.376	-14.116	-53.268	-8191	255	
1660.473	1	1	0	0	0.31068	0.096939	0.19141	0.29674	0.085242	0.14345	0.16479	0.072921	0.1338	0.16165	0.041674	0.21742	0.16572	0.23886	0.10196	0.23759	-2.2167	-3.4625	-2.9708	-2.9313	-3.5333	-2.8083	-3.2333	-3.5958	-2.8438	-3.2208	-3.0146	-2.8458	-3.65	-2.9833	-2.9479	-3.3167	-56.690	184.966	-29.929	245.311	262.493	92.985	240.007	-65.557	86.660	245.863	80.953	114.416	249.159	-54.074	-12.789	171.778	0.00093929	0.0010279	0.00035642	827.09	6.6218e-06	9.2682e-06	1338.3	315.25	4.3639e-07	1.181e-05	559.72	214.13	124.12	39.685	7.6205e-06	76.511	0.00042369	0.00042328	0.00011745	745.55	4.6234e-06	4.6354e-06	1142.7	274.8	4.637e-06	4.647e-06	450.25	174.63	105.49	34.322	4.6334e-06	62.156	53.235	182.910	-41.740	-63.806	13.381	24.828	-64.884	-59.410	25.591	187.066	-61.808	-57.417	-55.576	-50.951	54.611	-54.206	-8191	255	
1660.569	1	1	0	0	0.12234	0.10181	0.10114	0.081582	0.16793	0.11781	0.24841	0.18443	0.22086	0.12089	0.25873	0.28559	0.25146	0.23932	0.15583	0.12059	-2.2479	-3.2562	-3.275	-2.8042	-3.2833	-3.1583	-2.9958	-3.6854	-2.8042	-3.2313	-3.5646	-2.7396	-3.3833	-3.0396	-2.6312	-3.5854	76.273	121.074	198.702	148.667	175.563	177.640	204.586	248.701	-61.807	182.338	-48.636	190.545	-17.660	256.607	-28.229	99.585	0.0010509	0.00023844	3.9787e-05	834.51	7.4126e-06	2.9164e-06	1343.7	316.69	6.0129e-06	9.422e-06	556.29	213.49	124.7	39.66	1.2182e-05	76.621	0.00042122	0.00042293	0.0001173	747.53	4.6013e-06	4.6135e-06	1148	275.39	4.6018e-06	4.5958e-06	450	174.49	105.79	34.421	4.6229e-06	62.493	92.012	77.703	100.749	-64.202	-60.575	218.814	-65.165	-59.371	204.973	6.431	-62.270	-57.752	-55.896	-51.119	-63.261	-53.508	-8191	255	
1660.665	1	1	0	0	0.22745	0.15964	0.094248	0.17387	0.051525	0.065533	0.082416	0.15538	0.15578	0.18512	0.19806	0.093104	0.16559	0.078005	0.050757	0.24752	-2.3604	-3.2583	-3.4917	-2.9417	-3.4562	-2.9854	-2.8812	-3.6562	-2.7812	-2.9833	-3.5375	-2.8542	-3.475	-3.0667	-2.6292	-3.6208	246.105	-59.897	-67.294	160.726	68.834	142.123	201.257	236.268	17.498	33.760	263.115	138.955	145.475	192.435	7.066	170.428	0.00070187	0.00068478	0.00023884	834.71	8.4091e-06	2.2156e-06	1348.2	318.65	5.1957e-06	8.9129e-06	560.54	214.25	124.17	39.645	8.3541e-06	76.49	0.0004196	0.00042272	0.00011761	750.46	4.6823e-06	4.6267e-06	1153.3	277.55	4.6483e-06	4.6566e-06	452.21	175.03	105.99	34.425	4.6659e-06	62.545	81.888	-58.918	211.481	-64.417	137.477	130.216	-65.598	-59.777	-74.849	33.883	-61.617	-57.613	-56.191	-51.201	-19.037	-53.964	-8191	255	
1660.761	1	1	0	0	0.13415	0.19656	0.026694	0.12687	0.14839	0.028833	0.27389	0.085952	0.069523	0.095637	0.080328	0.057426	0.20555	0.14513	0.032706	0.27946	-2.5312	-2.875	-3.3396	-2.7062	-3.3292	-3.2917	-2.675	-3.5146	-2.9958	-3.0062	-3.5438	-2.7771	-3.3479	-3.2438	-2.6354	-3.6583	231.580	89.797	142.714	198.846	-75.223	240.662	124.255	-4.017	-2.478	-60.938	161.702	207.968	-2.374	192.344	101.701	-63.642	0.00046897	0.00069149	0.00019132	832.98	2.797e-06	7.9381e-06	1339.8	318.24	7.3779e-06	3.2934e-06	560	213.99	124.2	39.511	6.4685e-06	76.728	0.0004259	0.00042764	0.00011912	751.69	4.6681e-06	4.7151e-06	1148.1	277.7	4.6716e-06	4.7251e-06	452.14	174.79	106	34.538	4.7219e-06	62.481	107.829	110.492	55.892	-64.489	153.289	6.015	-65.460	-59.503	25.189	124.344	-61.882	-57.966	-56.036	-50.973	49.473	-53.949	-8191	255	
1660.857	1	1	0	0	0.036586	0.10812	0.18698	0.30397	0.10335	0.19978	0.18258	0.090665	0.16165	0.15703	0.13343	0.14116	0.35379	0.23626	0.14104	0.10416	-2.4833	-2.8438	-3.4667	-2.7542	-3.0292	-3.3438	-2.8542	-3.4313	-2.9917	-2.8417	-3.6375	-2.7604	-3.2417	-3.4167	-2.5917	-3.5042	-17.966	-69.328	-61.442	269.723	172.158	147.775	186.094	34.707	152.165	93.574	67.505	175.762	-57.171	-36.133	114.797	-42.117	0.00059361	0.0012136	0.00025743	835.72	9.1288e-06	8.5215e-06	1328.5	320.59	5.0057e-06	3.6041e-06	564.43	214.59	124.02	40.054	2.0629e-06	76.669	0.00043423	0.00042896	0.00012047	751.42	4.7201e-06	4.7208e-06	1142.7	277.95	4.6984e-06	4.7221e-06	451.91	174.82	105.85	34.586	4.7177e-06	62.336	113.489	160.399	280.720	-64.068	64.806	131.504	-65.440	-59.827	109.743	39.932	-61.867	-58.019	-55.744	-50.628	-9.713	-53.468	-8191	255	
1660.953	1	1	0	0	0.081107	0.098875	0.13057	0.14223	0.19325	0.15619	0.61088	0.33463	0.17183	0.20337	0.17453	0.28476	0.078038	0.080792	0.20636	0.23148	-2.6875	-2.6896	-3.4333	-3.0146	-3.0417	-3.4146	-2.7958	-3.3104	-3.1292	-2.7292	-3.6583	-3.0542	-3.1917	-3.4792	-2.7833	-3.4813	-10.260	-46.758	136.277	221.799	-29.205	209.379	246.419	172.235	177.451	173.994	250.378	265.691	212.284	114.958	-41.848	144.198	0.00126	0.00052882	0.00019135	834.5	4.9823e-06	1.2682e-05	1333.4	318.25	6.498e-06	5.2753e-06	559.6	214.45	125.07	39.683	7.8133e-06	77.682	0.00043326	0.00043039	0.00011993	751.26	4.7231e-06	4.7346e-06	1146	277.67	4.7676e-06	4.7703e-06	451.31	175.32	106.71	34.733	4.706e-06	62.962	29.007	125.884	217.796	-64.662	106.608	68.502	-65.472	-59.751	138.169	162.663	-61.856	-57.628	-56.148	-50.753	140.724	-53.507	-8191	255	
1661.074	1	1	0	0	0.08089	0.05368	0.093786	0.23712	0.14054	0.17228	0.16113	0.14131	0.08485	0.083025	0.10957	0.28845	0.12323	0.39542	0.15802	0.20553	-2.8479	-2.7854	-3.5146	-2.8312	-2.8167	-3.5854	-2.7958	-3.1937	-3.3167	-2.6833	-3.4979	-2.9771	-2.8854	-3.7438	-2.6688	-3.2521	239.438	265.357	116.704	257.773	-75.534	42.101	-10.484	279.380	257.458	204.483	265.549	265.032	200.006	233.573	59.745	238.642	0.00017131	0.00036874	0.00022994	838.8	9.659e-07	3.8498e-06	1348	319.08	4.7596e-06	4.7301e-06	561.3	214.39	124.82	39.833	8.5386e-06	77.253	0.00043871	0.00043668	0.00012131	757.22	4.8182e-06	4.7745e-06	1154.8	278.55	4.7531e-06	4.7584e-06	455.11	175.95	107.15	34.7	4.7627e-06	62.9	179.120	2.646	145.056	-64.785	196.945	-34.826	-65.290	-59.866	102.982	81.616	-62.072	-57.691	-56.368	-51.284	208.455	-54.170	-8191	255	
1661.168	1	1	0	0	0.031481	0.15438	0.2706	0.25383	0.27383	0.17355	0.26583	0.40179	0.18591	0.026702	0.32769	0.25147	0.040727	0.25383	0.24248	0.093162	-2.7229	-2.6458	-3.425	-3.1063	-2.5396	-3.4083	-2.8312	-3.1208	-3.35	-2.5646	-3.2771	-3.2708	-2.7917	-3.5062	-2.8875	-3.0896	-45.250	68.090	-25.205	238.164	-39.676	166.975	24.211	238.588	265.990	193.562	180.704	254.179	8.287	268.364	246.356	229.395	0.00078945	0.00066759	0.00011169	837.67	2.0426e-06	6.2923e-06	1334.9	319.85	1.8966e-06	5.2036e-06	558.08	213.48	124.19	39.884	7.8323e-06	77.006	0.00043484	0.00043282	0.0001215	752.75	4.7506e-06	4.7454e-06	1144.6	277.8	4.7353e-06	4.7369e-06	452.52	175.06	106.32	34.617	4.6988e-06	62.737	71.005	21.327	230.893	-64.182	277.696	-51.407	-65.299	-59.439	49.473	260.487	-61.879	-58.004	-56.234	-50.516	-57.765	-53.195	-8191	255	
1661.242	1	1	0	0	0.19578	0.26246	0.17155	0.24441	0.11076	0.27114	0.16889	0.29222	0.11046	0.18632	0.30034	0.25662	0.21286	0.1963	0.16791	0.12674	-3.0958	-2.6063	-3.1208	-3.2167	-2.7292	-3.5563	-3.1958	-3.1271	-3.4833	-2.8187	-3.2021	-3.3854	-2.9042	-3.4938	-2.8708	-2.9104	70.273	248.952	49.363	257.219	44.530	46.887	257.398	198.536	108.529	46.520	245.419	223.135	244.481	264.180	67.665	46.548	0.00072863	0.00096642	0.00016162	831.48	6.5116e-06	6.2918e-06	1329.3	323.05	1.6308e-05	6.3659e-06	557.57	212.52	124.57	39.918	1.0963e-05	76.38	0.00043564	0.00043783	0.0001216	750.52	4.7822e-06	4.7558e-06	1143.7	278.8	4.7353e-06	4.7447e-06	453.19	174.47	106.25	34.724	4.7711e-06	62.45	74.461	3.887	-5.768	-63.975	-74.093	30.649	-65.654	-59.727	90.522	183.866	-61.796	-57.991	-56.261	-50.522	-63.485	-53.760	-8191	255	
1661.338	1	1	0	0	0.24919	0.24239	0.058582	0.30132	0.16955	0.058367	0.099132	0.20674	0.19327	0.096597	0.22218	0.14269	0.22498	0.15262	0.046237	0.1823	-3.0438	-2.6813	-3.2771	-3.3417	-2.675	-3.4062	-2.9729	-2.7687	-3.2896	-2.7896	-3.1083	-3.3646	-2.8312	-3.425	-3.0312	-2.75	-8.873	-46.193	-9.680	267.159	129.482	242.326	213.470	105.529	241.491	-31.937	240.101	257.406	17.053	2.406	238.718	272.464	0.00076633	0.00033648	0.00025392	834.73	3.7156e-06	7.7304e-06	1331.4	320.29	8.9583e-06	1.7924e-06	559.08	212.78	124.17	40.04	4.2137e-06	77.554	0.00043377	0.00043371	0.00012092	754.13	4.7876e-06	4.7458e-06	1141.2	278.92	4.7519e-06	4.7441e-06	453.11	174.47	106.11	34.659	4.74e-06	62.849	80.877	-12.312	10.825	-64.329	66.024	9.693	-65.343	-59.715	47.676	117.628	-62.159	-57.698	-56.338	-50.924	-21.156	-53.665	-8191	255	
1661.457	1	1	0	0	0.20948	0.17133	0.11824	0.24596	0.24337	0.22488	0.32418	0.22869	0.31506	0.16126	0.13188	0.17511	0.17444	0.101	0.1073	0.17662	-3.0687	-2.6979	-3.075	-3.3479	-2.5792	-3.3125	-3.1167	-2.9042	-3.2458	-2.7354	-2.925	-3.6229	-2.6	-3.5083	-3.1208	-2.9437	135.828	82.594	110.571	-44.993	134.090	271.637	163.401	232.678	-26.856	205.158	243.036	274.428	228.553	241.417	267.835	102.181	0.00087571	0.001595	0.00028779	830.97	4.4856e-06	7.2493e-06	1334.5	318.53	6.3309e-06	1.0204e-05	563.57	211.99	124.17	39.916	1.4281e-05	77.016	0.00043452	0.00043394	0.00012078	752.73	4.7742e-06	4.7795e-06	1146.8	278.32	4.7941e-06	4.7871e-06	453.37	174.54	106.21	34.72	4.7742e-06	62.914	86.008	29.612	-62.199	-64.310	-10.117	248.625	-65.733	-59.440	195.594	-27.065	-61.558	-57.624	-56.104	-50.762	-40.237	-53.818	-8191	255	
1661.553	1	1	0	0	0.084669	0.24634	0.36624	0.13512	0.15414	0.18642	0.40822	0.29534	0.084592	0.1384	0.2013	0.059747	0.17378	0.077442	0.11473	0.11978	-2.9417	-2.8167	-2.8396	-3.3958	-2.5875	-3.2562	-3.2188	-2.7271	-3.3125	-3.0021	-2.9021	-3.6042	-2.7896	-3.2917	-3.3521	-2.8896	24.300	189.011	-9.780	-61.893	137.776	-21.442	250.886	270.082	-55.149	158.238	200.685	-20.209	228.466	192.494	-7.981	198.440	0.00071381	0.00050105	0.00039957	841.51	1.3891e-05	6.1971e-06	1322.2	318.38	1.022e-06	9.3715e-06	561.83	211.98	124.09	40.005	9.2372e-06	77.118	0.0004383	0.00043663	0.00012207	755.06	4.7634e-06	4.7736e-06	1140.8	277.55	4.7855e-06	4.7985e-06	453.88	174.09	106.02	34.696	4.7964e-06	62.893	99.052	279.916	54.064	-64.019	111.026	-57.309	-65.652	-59.461	-3.101	214.126	-61.789	-57.480	-56.173	-50.780	7.906	-53.817	-8191	255	
1661.649	1	1	0	0	0.11705	0.096042	0.096686	0.1864	0.29775	0.33676	0.19256	0.18244	0.11136	0.12161	0.086122	0.34775	0.26575	0.048078	0.067915	0.26956	-2.9688	-2.9896	-2.8292	-3.5625	-2.7729	-2.9854	-3.2771	-2.8167	-3.4333	-2.95	-2.7833	-3.5396	-2.8854	-3.1437	-3.5187	-2.9604	-41.117	146.193	22.442	245.296	68.348	208.540	-75.255	215.886	-36.181	38.600	-56.908	233.990	259.194	-76.682	270.967	171.786	0.0010833	0.00068237	0.00032071	837.74	6.6314e-06	8.8383e-06	1335.8	319.01	1.0546e-05	1.8013e-06	558.8	214.95	124.05	40.252	1.4015e-05	77.423	0.00043631	0.00044271	0.00012326	755.68	4.7768e-06	4.872e-06	1148	278.93	4.8454e-06	4.8364e-06	453.47	176	106.63	34.955	4.7746e-06	63.274	53.539	108.683	31.305	-64.171	-44.177	52.095	-65.437	-59.488	23.693	201.989	-61.724	-57.444	-56.650	-51.084	97.939	-53.802	-8191	255	
1661.745	1	1	0	0	0.2731	0.13382	0.12168	0.068807	0.18335	0.21698	0.26905	0.17077	0.19351	0.14129	0.29346	0.24444	0.16138	0.28574	0.26774	0.083053	-2.9875	-3.0896	-2.7042	-3.4958	-2.7146	-3.025	-3.4583	-2.5563	-3.2896	-3.0854	-2.7104	-3.5208	-2.9854	-2.9417	-3.3729	-2.6917	-64.298	114.389	270.293	252.504	166.107	248.203	246.444	240.151	46.038	252.874	248.623	-62.410	224.140	224.234	180.892	13.740	0.0012675	0.0015917	0.00038466	836.84	1.0463e-05	7.2757e-06	1326.6	318.45	8.0027e-06	5.9986e-06	567.19	214.44	125.24	40.088	4.1882e-06	77.727	0.00044007	0.00043738	0.00012173	755.48	4.7862e-06	4.8146e-06	1147.7	278.61	4.8106e-06	4.8006e-06	455.15	175.65	106.79	34.825	4.7423e-06	63.069	52.544	50.057	57.231	-64.084	19.474	61.202	-65.030	-59.850	145.182	173.360	-60.805	-57.455	-55.781	-50.984	-49.101	-53.879	-8191	255	
1661.866	1	1	0	0	0.12678	0.11377	0.18286	0.11472	0.29834	0.1318	0.35628	0.39612	0.20085	0.065437	0.23313	0.37587	0.23374	0.1714	0.19556	0.37617	-2.6188	-3.0292	-2.5583	-3.2375	-2.8896	-2.5667	-3.4083	-2.8333	-3.1333	-3.3771	-2.6312	-3.4437	-3.0021	-2.8458	-3.2875	-2.875	-21.916	148.052	104.452	259.367	157.758	278.609	250.086	244.313	-64.900	243.004	244.888	273.151	-20.504	-51.574	68.773	195.795	0.00077866	0.0012869	0.00040937	834.18	8.3574e-07	3.6985e-06	1342.7	318.42	6.166e-06	1.0633e-05	557.36	213.55	123.84	40.018	2.439e-05	76.988	0.00043938	0.00043447	0.00012113	754.23	4.7883e-06	4.7687e-06	1150.4	278.01	4.8133e-06	4.8032e-06	453.25	175.01	106.32	34.859	4.8104e-06	63.037	36.248	87.471	131.869	-63.728	98.607	137.582	-65.109	-59.569	154.976	72.282	-61.778	-57.406	-56.275	-50.913	-15.364	-53.485	-8191	255	
1661.938	1	1	0	0	0.43787	0.11095	0.026968	0.10004	0.14645	0.12687	0.089028	0.091757	0.065532	0.1322	0.2599	0.1654	0.19415	0.10341	0.047073	0.044296	-2.6667	-3.2938	-2.5625	-3.4271	-3.025	-2.825	-3.6125	-3.0042	-2.7667	-3.2229	-2.65	-3.4396	-3.0604	-2.9875	-3.4333	-2.8667	184.696	28.152	-28.093	78.100	148.335	-39.772	192.114	178.955	7.773	73.082	249.791	75.340	138.989	274.908	247.011	-31.403	0.0008796	0.00073597	0.00024914	836.86	4.393e-06	5.2817e-06	1338.5	319.22	2.1399e-06	6.0874e-06	560.14	213	124.04	39.903	5.628e-06	76.789	0.00043833	0.00043333	0.00012121	755.31	4.8198e-06	4.7923e-06	1146.6	277.77	4.8099e-06	4.7412e-06	452.97	174.3	106.18	34.726	4.8285e-06	62.693	100.715	53.378	-43.477	-64.096	117.474	16.870	-65.235	-59.661	76.986	118.001	-61.668	-57.340	-55.953	-50.566	166.357	-53.358	-8191	255	
1662.058	1	1	0	0	0.14858	0.19843	0.065851	0.24431	0.15554	0.08091	0.23528	0.37947	0.079421	0.24817	0.357	0.063421	0.11045	0.18133	0.14397	0.13057	-2.4167	-3.175	-2.4479	-3.225	-3.1729	-2.6104	-3.5604	-2.9146	-2.8625	-3.425	-2.925	-3.2979	-3.2792	-2.7208	-3.3792	-3.2062	167.569	113.349	235.846	-38.968	3.146	237.643	151.702	215.586	226.019	213.484	266.426	156.709	159.790	-52.196	-61.497	194.459	0.00068925	0.0011503	0.00014824	839.44	5.0447e-06	4.5124e-06	1329	317.96	1.1172e-05	4.6757e-06	556.22	213.34	124.23	40.179	1.0951e-05	76.94	0.00043541	0.00043788	0.00012124	754.86	4.7588e-06	4.7519e-06	1143.5	277.69	4.7852e-06	4.7943e-06	451.76	174.68	106.14	34.725	4.757e-06	62.892	-19.616	7.777	-63.665	-63.770	46.752	232.721	-65.100	-59.222	-52.808	89.404	-61.695	-57.616	-55.807	-50.681	208.971	-54.052	-8191	255	
1662.154	1	1	0	0	0.181	0.18004	0.19337	0.23173	0.10068	0.11716	0.16054	0.26372	0.086498	0.09298	0.30327	0.23094	0.1808	0.14145	0.11934	0.11841	-2.45	-3.4708	-2.6833	-3.1312	-3.3688	-2.7979	-3.5208	-3.1	-2.7021	-3.3979	-2.6958	-2.9958	-3.5083	-2.8917	-3.1729	-3.1854	102.624	76.350	214.185	244.681	126.447	149.816	210.488	242.571	-71.580	-55.182	229.067	181.432	137.978	281.308	0.772	225.649	0.00067901	0.0010071	0.00015684	837.09	9.1114e-06	6.7108e-06	1334.7	317.47	3.5577e-06	3.7334e-06	560.3	216.39	124.98	40.107	3.9657e-06	77.01	0.00044189	0.00044088	0.00012226	758.13	4.7755e-06	4.8101e-06	1147.4	277.81	4.8259e-06	4.8055e-06	455.93	176.59	107.22	34.931	4.8792e-06	63.273	38.722	57.034	279.456	-63.707	142.656	59.471	-65.310	-59.444	146.689	62.987	-61.152	-58.017	-55.726	-50.697	128.707	-53.570	-8191	255	
1662.249	1	1	0	0	0.1301	0.080768	0.17788	0.26657	0.28891	0.074996	0.067633	0.19796	0.21488	0.16755	0.097802	0.25392	0.15882	0.33871	0.1087	0.09786	-2.4125	-3.6063	-2.7521	-3.0062	-3.4792	-2.6167	-3.3167	-3.1729	-2.5604	-3.2375	-2.9729	-3.1792	-3.6208	-2.7979	-3.1979	-3.2583	263.824	198.270	-15.997	272.073	145.377	-74.052	243.195	243.861	-14.652	-6.194	272.747	199.817	8.688	272.583	22.494	-20.231	0.00080414	0.0015369	0.00038517	839.48	6.2864e-06	3.7596e-06	1351.2	321.41	1.3411e-05	9.5093e-06	564.6	214.91	125.36	40.161	7.6786e-06	77.378	0.00044616	0.00044321	0.00012393	758.55	4.8711e-06	4.8828e-06	1160	280.95	4.8921e-06	4.9096e-06	457.73	176.94	107.65	35.059	4.9545e-06	63.507	71.616	14.865	38.200	-64.378	53.336	16.369	-64.894	-59.449	174.995	9.324	-61.390	-57.134	-56.461	-50.769	-21.313	-53.631	-8191	255	
1662.347	1	1	0	0	0.12642	0.054221	0.043831	0.18033	0.18286	0.19284	0.11417	0.13317	0.12782	0.13965	0.22729	0.1441	0.12524	0.20413	0.11079	0.18849	-2.0104	-3.275	-2.925	-2.9417	-3.3083	-2.6458	-3.2229	-3.3729	-2.6667	-3.4917	-3.0375	-2.9062	-3.4583	-2.6583	-3.0312	-3.5167	-59.380	-28.382	37.803	-17.972	132.458	77.530	266.556	267.549	172.393	-4.442	10.861	248.377	235.553	94.402	236.163	164.874	0.0013851	0.00029265	0.00032479	845.8	5.945e-06	5.6236e-06	1339.1	319.56	3.3693e-06	1.7448e-06	559.88	214.2	125.21	39.981	2.5891e-06	77.519	0.00044794	0.00044658	0.00012474	762.02	4.8981e-06	4.9274e-06	1154.3	280.92	4.9051e-06	4.8703e-06	456	176.44	107.67	34.999	4.9129e-06	63.351	146.824	228.711	-11.625	-63.740	106.428	269.200	-65.063	-59.894	197.801	-36.770	-61.739	-57.372	-56.300	-50.822	62.876	-54.018	-8191	255	
1662.466	1	1	0	0	0.23564	0.10063	0.057965	0.033639	0.14467	0.14694	0.47503	0.15509	0.069855	0.11367	0.24416	0.15097	0.25884	0.15882	0.10891	0.37131	-2.2438	-3.1646	-3.0271	-2.725	-3.3646	-2.8271	-3.1729	-3.525	-2.725	-3.4896	-3.2875	-2.8104	-3.5896	-2.9292	-2.8708	-3.3688	128.351	-14.482	146.596	-51.997	56.469	188.152	212.938	199.061	137.963	222.794	266.042	215.214	198.233	179.906	154.368	254.957	0.00097724	0.00082486	0.00021401	839.89	5.9761e-06	8.4684e-06	1341.2	319.95	3.6134e-06	2.1234e-06	561.6	216.2	125.97	39.554	1.5254e-05	77.49	0.000445	0.00044402	0.00012335	759.69	4.8577e-06	4.8061e-06	1153.9	279.87	4.7967e-06	4.836e-06	454.22	176.29	107.05	34.765	4.8193e-06	63.09	104.654	50.206	-22.444	-63.907	95.520	52.556	-65.113	-59.285	-35.627	152.333	-61.609	-57.640	-56.203	-50.911	-27.524	-53.806	-8191	255	
1662.537	1	1	0	0	0.12687	0.1764	0.28327	0.048012	0.092629	0.081888	0.24085	0.2259	0.088695	0.14826	0.24412	0.18747	0.088999	0.25833	0.14089	0.32782	-2.2104	-3.2833	-3.2333	-2.9021	-3.4521	-2.95	-2.9896	-3.5521	-2.6479	-3.3875	-3.3604	-2.9833	-3.3958	-2.9583	-2.8396	-3.6146	99.898	178.647	172.551	272.696	64.934	269.814	247.545	265.514	8.942	61.152	-72.444	-75.868	271.201	237.312	55.613	228.475	0.00074403	0.00079515	0.00050866	830.44	3.6719e-06	1.1561e-06	1347.8	322.36	1.5592e-06	2.8305e-06	568.1	215.65	124.05	40.225	8.9331e-06	77.214	0.00043586	0.00043323	0.00012122	756.43	4.8228e-06	4.7696e-06	1153.9	280.27	4.7983e-06	4.7678e-06	455.57	176.29	106.45	34.801	4.7685e-06	62.856	114.737	42.136	39.655	-63.763	-6.000	54.750	-65.381	-59.184	21.558	184.095	-61.757	-57.633	-55.887	-50.410	34.066	-53.491	-8191	255	
1662.633	1	1	0	0	0.067801	0.21725	0.17721	0.10986	0.062169	0.24553	0.15421	0.23118	0.1255	0.28027	0.081502	0.2208	0.055379	0.25674	0.13923	0.043892	-2.3667	-3.0062	-3.1625	-2.8083	-3.4188	-2.8812	-2.9771	-3.5833	-2.6604	-3.0438	-3.3688	-2.6833	-3.2792	-3.3021	-2.7313	-3.6708	189.429	86.283	76.724	181.181	21.342	171.462	-43.721	-35.149	104.776	39.769	85.007	273.977	210.110	274.610	12.387	172.766	0.0010448	0.00039304	0.0001511	841.56	9.1884e-06	6.4464e-06	1344.3	321.62	3.1895e-06	5.6974e-06	564.63	213.34	125.31	39.722	3.8523e-06	76.498	0.00043415	0.0004342	0.00012143	758.74	4.743e-06	4.7398e-06	1157.2	279.82	4.8039e-06	4.7586e-06	455.94	175.43	106.76	34.759	4.7608e-06	62.958	100.903	-40.155	39.714	-64.038	34.551	-0.753	-65.306	-59.634	31.813	143.842	-61.927	-57.270	-55.964	-50.661	42.237	-53.702	-8191	255	
1662.754	1	1	0	0	0.0045009	0.27008	0.2886	0.2824	0.25922	0.14206	0.16989	0.30671	0.19925	0.15389	0.084913	0.23665	0.23301	0.13626	0.051924	0.16811	-2.3563	-3.0354	-3.2792	-2.5125	-3.4562	-3.1354	-2.6958	-3.5896	-2.7292	-3.0521	-3.5062	-2.8104	-3.4083	-3.3229	-2.7625	-3.3229	196.929	36.757	144.500	213.609	169.104	30.155	257.281	-46.875	-19.656	101.307	282.324	176.265	254.760	19.691	-1.550	191.571	0.0007792	0.00099601	0.00028664	831.93	2.9274e-06	4.8736e-06	1336.6	319.83	1.3483e-05	5.8851e-06	559.62	212.39	123.92	39.606	2.7288e-06	77.176	0.00043684	0.00043309	0.00012125	753.41	4.7789e-06	4.7431e-06	1146.7	278.42	4.7043e-06	4.7161e-06	453.98	174.06	105.64	34.475	4.7187e-06	62.73	91.128	107.477	35.311	-64.095	-69.391	132.785	-65.259	-59.255	54.612	36.331	-61.348	-57.438	-55.592	-50.438	218.479	-53.524	-8191	255	
1662.850	1	1	0	0	0.095233	0.17142	0.060597	0.24618	0.13105	0.12459	0.14696	0.22139	0.2448	0.341	0.084311	0.049764	0.1328	0.21681	0.32139	0.30433	-2.3021	-2.9437	-3.5187	-2.7938	-3.2854	-3.3333	-2.6625	-3.5687	-3.0708	-2.8083	-3.5396	-2.875	-3.2771	-3.3333	-2.5667	-3.4875	120.077	173.560	134.633	226.756	262.934	-57.836	260.849	264.928	-9.935	20.889	207.714	-39.527	112.337	240.857	139.119	221.187	0.00057455	0.00066798	0.00029648	838.59	8.7944e-06	4.6488e-06	1340.7	319.08	3.1945e-06	6.7302e-06	560.19	210.98	123.04	39.767	8.2995e-06	77.143	0.0004321	0.00043216	0.00012075	754.05	4.7468e-06	4.7741e-06	1150.1	278.54	4.7616e-06	4.7817e-06	454.22	173.41	105.68	34.505	4.7274e-06	62.84	85.014	26.157	-13.570	-63.568	120.514	238.435	-64.987	-59.184	-13.236	110.792	-61.467	-57.172	-55.660	-50.638	-10.573	-53.529	-8191	255	
1662.946	1	1	0	0	0.11288	0.2653	0.28097	0.24137	0.34092	0.19671	0.13103	0.3119	0.18643	0.32771	0.13727	0.2822	0.11364	0.22226	0.19013	0.21871	-2.5812	-2.7875	-3.4042	-2.925	-2.9458	-3.4875	-2.8688	-3.3479	-3.1	-2.6646	-3.5396	-2.9188	-3.1042	-3.3625	-2.7208	-3.5375	122.240	-28.224	-39.174	241.207	93.259	107.175	185.279	233.835	160.737	103.644	244.074	275.900	159.010	265.208	82.159	269.372	0.00058452	0.0013109	0.00030719	839.49	8.4541e-06	1.606e-05	1348.9	319.48	5.9257e-06	4.324e-06	565.22	213.09	124.18	39.834	5.5028e-06	77.857	0.00043611	0.00043207	0.00012082	757.68	4.7723e-06	4.7339e-06	1155.9	278.58	4.7453e-06	4.8094e-06	456.53	174.5	106.2	34.66	4.7256e-06	63.163	92.329	55.110	10.982	-63.953	-15.336	34.106	-65.110	-59.272	75.339	55.454	-61.466	-57.380	-56.134	-50.866	157.063	-53.542	-8191	255	
1663.042	1	1	0	0	0.11813	0.12691	0.058659	0.40453	0.13197	0.13411	0.36104	0.037998	0.25529	0.15703	0.14948	0.19287	0.13145	0.1246	0.19966	0.1998	-2.725	-2.6188	-3.5021	-3.1146	-3.0521	-3.4813	-2.9646	-3.2313	-3.3521	-2.8937	-3.3458	-3.1208	-3.0333	-3.5542	-2.8042	-3.2875	-21.856	155.043	254.200	219.956	114.003	104.455	248.090	99.624	215.281	244.349	174.172	191.447	244.803	-41.854	82.797	195.742	0.0010951	0.0017135	0.00020776	837.59	4.6706e-06	1.9982e-05	1345.4	321.57	1.2101e-05	5.2969e-06	567.42	212.89	124.42	39.399	1.203e-05	77.692	0.00043553	0.00043436	0.00012144	758.07	4.7852e-06	4.7557e-06	1158.3	278.89	4.7554e-06	4.8066e-06	457.61	174.69	106.44	34.655	4.7798e-06	63.294	32.300	13.102	87.229	-64.240	18.085	122.766	-64.929	-59.159	9.528	43.760	-61.729	-57.545	-56.115	-50.441	219.040	-53.113	-8191	255	
1663.139	1	1	0	0	0.1053	0.18028	0.04403	0.18713	0.2045	0.042078	0.017823	0.33359	0.082031	0.1049	0.14312	0.098588	0.12118	0.11463	0.088495	0.1696	-2.9542	-2.7313	-3.4771	-3.0792	-2.8479	-3.5167	-2.8771	-3.3375	-3.4646	-2.6208	-3.5625	-3.1292	-2.8312	-3.4667	-2.6479	-3.2625	-72.228	-11.244	165.529	-74.720	33.376	-47.964	208.553	249.810	102.396	260.051	248.868	202.142	268.984	166.490	-19.270	198.873	0.00040664	0.0013251	0.00028051	836.35	4.0088e-06	1.3599e-05	1335.9	320.28	2.7539e-06	1.3866e-05	564.55	213.06	124.09	40.007	1.4829e-06	77.17	0.00043611	0.00043738	0.00012155	755.49	4.7509e-06	4.7438e-06	1148.3	277.87	4.7433e-06	4.7658e-06	455.3	174.47	106.13	34.682	4.7582e-06	62.967	80.874	23.057	94.703	-64.512	48.177	211.270	-65.195	-59.324	26.886	135.377	-61.654	-57.620	-55.701	-50.553	116.011	-53.310	-8191	255	
1663.235	1	1	0	0	0.076992	0.18428	0.31149	0.06752	0.21179	0.14719	0.15565	0.30325	0.10855	0.17573	0.11143	0.10003	0.091443	0.12328	0.14681	0.11847	-2.9667	-2.6479	-3.375	-3.1646	-2.8312	-3.45	-3.1104	-2.9729	-3.5563	-2.6021	-3.3187	-3.3021	-2.7854	-3.6729	-2.8271	-2.9688	80.359	202.503	111.072	193.972	75.079	224.553	172.751	214.924	203.425	192.114	-20.458	224.209	-73.283	209.649	96.047	239.942	0.00052918	0.00049665	0.00017564	826.94	4.5067e-06	8.3642e-06	1329.3	320.04	5.6452e-06	2.3726e-06	559.35	210.81	123.13	39.6	6.5649e-06	76.46	0.00043659	0.00042832	0.00012024	748.34	4.7443e-06	4.7685e-06	1142.5	277.28	4.7367e-06	4.7541e-06	452.7	172.72	105.14	34.376	4.7624e-06	62.51	65.385	38.150	251.974	-63.907	40.568	34.999	-64.823	-58.942	144.296	205.708	-61.528	-57.396	-55.655	-50.413	-3.165	-53.336	-8191	255	
1663.331	1	1	0	0	0.17463	0.23887	0.10849	0.28922	0.09324	0.14988	0.28871	0.064745	0.095016	0.10872	0.31194	0.27832	0.21772	0.10409	0.12292	0.2156	-2.9	-2.5458	-3.1917	-3.3458	-2.5812	-3.4688	-3.075	-2.9313	-3.4396	-2.7458	-3.1604	-3.4229	-2.8812	-3.3958	-3.1271	-2.8542	229.036	216.730	55.946	231.013	-66.613	-58.766	268.957	109.325	59.919	219.133	-39.593	275.649	222.409	219.171	46.060	-72.538	0.0010963	0.0012261	0.00031859	828.68	5.861e-06	5.4782e-06	1334.2	315.02	8.7919e-06	5.6719e-06	557.76	209.34	121.46	39.144	1.1615e-05	77.077	0.00043138	0.00042932	0.00012	745.04	4.727e-06	4.7065e-06	1141.4	274.88	4.7081e-06	4.7038e-06	450.61	172.06	104.23	34.158	4.7174e-06	62.519	67.271	31.003	-68.534	-63.727	94.741	82.503	-65.023	-58.877	242.279	211.821	-61.505	-57.265	-55.632	-50.148	102.905	-53.519	-8191	255	
1663.427	1	1	0	0	0.45468	0.17952	0.1024	0.17732	0.16338	0.15739	0.10589	0.16968	0.062411	0.086101	0.22685	0.19365	0.36299	0.24396	0.29233	0.1787	-3.0042	-2.7271	-2.8917	-3.3812	-2.5438	-3.4333	-3.3354	-2.9562	-3.65	-2.8646	-2.9792	-3.4646	-2.8375	-3.4562	-3.2146	-2.9583	200.052	61.843	225.891	186.419	142.644	271.611	190.660	189.202	65.743	17.097	254.737	179.124	-39.829	-73.239	101.839	138.805	0.00097852	0.00049411	0.00016338	824.18	1.0414e-05	2.9227e-06	1328.2	314.21	1.7122e-06	4.3276e-06	552.35	210.48	121.35	39.337	7.1762e-06	76.992	0.00043034	0.00042964	0.00012043	745.73	4.6945e-06	4.7114e-06	1141.4	273.73	4.6925e-06	4.6967e-06	448.97	171.95	104.06	34.167	4.7091e-06	62.484	52.907	180.271	69.537	-63.673	22.555	-60.470	-65.313	-59.501	96.579	222.162	-61.254	-57.628	-55.939	-50.424	262.805	-53.000	-8191	255	
1663.546	1	1	0	0	0.11138	0.28906	0.092571	0.29566	0.097597	0.14848	0.16322	0.043708	0.075228	0.082455	0.10537	0.23347	0.11615	0.14608	0.14555	0.33977	-2.9042	-2.7854	-3.0125	-3.5542	-2.8042	-3.3333	-3.2896	-2.8667	-3.7021	-2.9146	-2.9542	-3.5438	-2.8604	-3.1625	-3.3396	-2.7896	101.827	-54.814	256.403	273.499	199.818	104.603	246.416	52.378	205.438	68.836	154.916	178.421	258.364	-8.956	258.170	245.661	0.00094778	0.00087254	0.00029627	819.17	1.2996e-05	1.0532e-05	1317.1	314.19	7.2937e-06	1.0222e-05	554.86	209.59	121.11	39.476	5.1189e-06	76.514	0.0004296	0.00043249	0.0001203	741.71	4.7634e-06	4.7507e-06	1135.8	273.05	4.766e-06	4.772e-06	449.03	172	104	34.299	4.7902e-06	62.294	136.147	10.030	9.018	-64.109	70.151	73.673	-64.840	-59.103	-56.002	84.423	-61.537	-57.376	-56.528	-50.437	34.396	-53.252	-8191	255	
1663.642	1	1	0	0	0.16872	0.2142	0.19231	0.16727	0.14095	0.19234	0.30606	0.22262	0.13045	0.10794	0.34689	0.22454	0.27459	0.12169	0.22361	0.21163	-3.1333	-3.0917	-2.8021	-3.6292	-2.8104	-3.1458	-3.4729	-2.7271	-3.3937	-3.0708	-2.9688	-3.7208	-2.8521	-3.2271	-3.5146	-2.9167	94.393	1.245	50.301	202.937	210.407	275.656	196.371	252.569	57.465	229.767	201.756	222.843	248.754	206.950	70.394	243.526	0.00019465	0.0013929	0.00026153	818.05	5.5559e-06	8.3569e-06	1318.9	312.55	8.3557e-06	1.1741e-05	552.9	209.38	121.17	39.839	1.4893e-05	76.481	0.00043921	0.00043296	0.00012046	738.99	4.7317e-06	4.7622e-06	1133.1	272.23	4.7689e-06	4.7342e-06	448.45	171.7	103.79	34.27	4.7567e-06	62.354	-27.923	-34.978	-17.110	-63.863	152.211	-55.958	-65.101	-59.186	-17.086	52.430	-61.220	-57.252	-55.568	-50.672	68.708	-53.414	-8191	255	
1663.738	1	1	0	0	0.078488	0.22151	0.157	0.14079	0.10233	0.1437	0.29422	0.41503	0.14522	0.12134	0.087578	0.39151	0.094157	0.15525	0.24119	0.42813	-2.9	-3.0438	-2.7625	-3.6167	-2.7562	-3.0083	-3.5604	-2.8	-3.3229	-3.05	-2.8604	-3.5333	-2.875	-2.8896	-3.2458	-2.8292	232.723	212.407	86.003	-68.494	-55.640	166.945	207.709	250.384	188.337	158.235	29.911	-69.544	162.663	212.186	246.461	210.034	0.00050194	0.0014964	0.00010164	819.84	2.7318e-06	8.8186e-06	1319	312.51	1.2068e-05	3.5915e-06	550.74	210.35	121.34	39.605	5.7265e-06	76.95	0.00043759	0.00043139	0.00012119	739.84	4.7633e-06	4.8183e-06	1135.5	272.33	4.7857e-06	4.7905e-06	448.26	172.29	104.52	34.495	4.8404e-06	62.76	87.505	34.006	-35.942	-64.153	101.367	-53.060	-64.752	-59.486	128.443	76.017	-61.620	-56.828	-55.745	-49.955	92.848	-53.262	-8191	255	
1663.833	1	1	0	0	0.30651	0.26426	0.29856	0.085123	0.020499	0.091876	0.25198	0.070766	0.17413	0.24715	0.27832	0.25517	0.25013	0.25473	0.21139	0.20864	-2.9437	-3.3146	-2.6521	-3.3771	-3.0604	-2.7771	-3.7229	-2.9729	-3.3438	-3.2646	-2.6292	-3.6229	-3.1813	-2.9938	-3.4688	-2.9688	280.287	-66.944	97.270	-39.572	-44.759	-53.835	262.560	236.249	-27.153	220.367	211.965	240.936	249.480	-30.943	224.004	218.449	0.00028654	0.00077795	0.00040035	828.15	5.5546e-06	1.0947e-05	1323.5	312.72	3.3276e-06	2.9291e-06	553.79	211.02	122.51	39.63	2.5369e-06	76.923	0.00044654	0.00044468	0.00012536	750.03	4.9291e-06	4.9302e-06	1144.3	274.13	4.9017e-06	4.8742e-06	451.23	173.4	104.89	34.626	4.8765e-06	62.867	10.001	51.004	-41.466	-63.847	113.572	37.074	-65.009	-59.049	221.927	-37.864	-61.351	-57.300	-55.682	-50.387	76.721	-53.673	-8191	255	
#DATA ENDS
