BOXY.EXE: ISS Imagent and Oximeter Data Acquisition Program Version 0.80
Ascii Record File

#ACQ INFORMATION
2  Detector Channels 
16  External MUX Channels 
1  Auxiliary Channels 
5000  Waveform (CCF) Frequency (Hz)
1  Waveforms Skipped 
30  Waveforms Averaged 
1  Cycles Averaged 
16  Acquisitions per Waveform 
10.0806  Updata Rate (Hz) 

#FILE INFORMATION
TRUE -- External MUX Channel results are PARSED.
FALSE -- AC DC and Phase are NOT grouped.
TRUE -- Companion Program Settings File CREATED.
FALSE -- AC data not excluded
FALSE -- DC data not excluded
FALSE -- Phase data not excluded
FALSE -- Auxillary Chn. data not excluded
Tab delimiters

#CALIBRATION STATE
TRUE -- Waveform Calibration Values APPLIED.


#AUX CALIBRATION VALUES
Val Type	aux-1	

Term	1.0000e+00	
Factor	0.0000e+00	


#WF CALIBRATION VALUES
A = Detector Channel
Val Type	A-AC1	A-AC2	A-AC3	A-AC4	A-AC5	A-AC6	A-AC7	A-AC8	A-AC9	A-AC10	A-AC11	A-AC12	A-AC13	A-AC14	A-AC15	A-AC16	A-DC1	A-DC2	A-DC3	A-DC4	A-DC5	A-DC6	A-DC7	A-DC8	A-DC9	A-DC10	A-DC11	A-DC12	A-DC13	A-DC14	A-DC15	A-DC16	A-Ph1	A-Ph2	A-Ph3	A-Ph4	A-Ph5	A-Ph6	A-Ph7	A-Ph8	A-Ph9	A-Ph10	A-Ph11	A-Ph12	A-Ph13	A-Ph14	A-Ph15	A-Ph16	

Term	0.00000e+00	0.00000e+00	0.00000e+00	0.00000e+00	0.00000e+00	0.00000e+00	0.00000e+00	0.00000e+00	0.00000e+00	0.00000e+00	0.00000e+00	0.00000e+00	0.00000e+00	0.00000e+00	0.00000e+00	0.00000e+00	0.00000e+00	0.00000e+00	0.00000e+00	0.00000e+00	0.00000e+00	0.00000e+00	0.00000e+00	0.00000e+00	0.00000e+00	0.00000e+00	0.00000e+00	0.00000e+00	0.00000e+00	0.00000e+00	0.00000e+00	0.00000e+00	0.00000e+00	0.00000e+00	0.00000e+00	0.00000e+00	0.00000e+00	0.00000e+00	0.00000e+00	0.00000e+00	0.00000e+00	0.00000e+00	0.00000e+00	0.00000e+00	0.00000e+00	0.00000e+00	0.00000e+00	0.00000e+00	
Factor	1.00000e+00	1.00000e+00	1.00000e+00	1.00000e+00	1.00000e+00	1.00000e+00	1.00000e+00	1.00000e+00	1.00000e+00	1.00000e+00	1.00000e+00	1.00000e+00	1.00000e+00	1.00000e+00	1.00000e+00	1.00000e+00	1.00000e+00	1.00000e+00	1.00000e+00	1.00000e+00	1.00000e+00	1.00000e+00	1.00000e+00	1.00000e+00	1.00000e+00	1.00000e+00	1.00000e+00	1.00000e+00	1.00000e+00	1.00000e+00	1.00000e+00	1.00000e+00	X	X	X	X	X	X	X	X	X	X	X	X	X	X	X	X	

B = Detector Channel
Val Type	B-AC1	B-AC2	B-AC3	B-AC4	B-AC5	B-AC6	B-AC7	B-AC8	B-AC9	B-AC10	B-AC11	B-AC12	B-AC13	B-AC14	B-AC15	B-AC16	B-DC1	B-DC2	B-DC3	B-DC4	B-DC5	B-DC6	B-DC7	B-DC8	B-DC9	B-DC10	B-DC11	B-DC12	B-DC13	B-DC14	B-DC15	B-DC16	B-Ph1	B-Ph2	B-Ph3	B-Ph4	B-Ph5	B-Ph6	B-Ph7	B-Ph8	B-Ph9	B-Ph10	B-Ph11	B-Ph12	B-Ph13	B-Ph14	B-Ph15	B-Ph16	

Term	0.00000e+00	0.00000e+00	0.00000e+00	0.00000e+00	0.00000e+00	0.00000e+00	0.00000e+00	0.00000e+00	0.00000e+00	0.00000e+00	0.00000e+00	0.00000e+00	0.00000e+00	0.00000e+00	0.00000e+00	0.00000e+00	0.00000e+00	0.00000e+00	0.00000e+00	0.00000e+00	0.00000e+00	0.00000e+00	0.00000e+00	0.00000e+00	0.00000e+00	0.00000e+00	0.00000e+00	0.00000e+00	0.00000e+00	0.00000e+00	0.00000e+00	0.00000e+00	-2.40346e+02	-8.60789e+01	-1.37580e+02	-1.81794e+02	-9.56072e+01	-6.15362e+01	-1.55227e+02	-1.62015e+02	-7.62495e+01	-2.08821e+01	-1.76015e+02	-1.69664e+02	-1.83008e+02	-1.76920e+02	-1.10967e+02	-1.49451e+02	
Factor	4.41567e-05	7.28733e-05	1.84622e-05	1.45759e-01	5.45265e-07	6.77868e-07	1.58711e-01	4.73567e-02	6.69312e-07	6.60670e-07	1.20289e-01	2.57934e-02	2.57211e-02	8.47169e-03	7.26230e-07	1.17836e-02	2.97384e-07	2.98781e-07	8.31620e-08	7.06932e-02	3.27491e-09	3.27375e-09	7.22083e-02	2.26007e-02	3.28093e-09	3.27436e-09	4.87179e-02	1.14701e-02	1.15018e-02	3.84075e-03	3.27804e-09	5.10611e-03	X	X	X	X	X	X	X	X	X	X	X	X	X	X	X	X	



#DISTANCE SETTINGS
A = Detector Channel
A-1	A-2	A-3	A-4	A-5	A-6	A-7	A-8	A-9	A-10	A-11	A-12	A-13	A-14	A-15	A-16	

2.5000e+00	3.0000e+00	2.5000e+00	3.0000e+00	2.0000e+00	3.0000e+00	1.5000e+00	3.0000e+00	3.0000e+00	3.0000e+00	3.0000e+00	3.0000e+00	3.0000e+00	3.0000e+00	1.5000e+00	3.0000e+00	

B = Detector Channel
B-1	B-2	B-3	B-4	B-5	B-6	B-7	B-8	B-9	B-10	B-11	B-12	B-13	B-14	B-15	B-16	

1.0000e+01	1.0000e+01	1.0000e+01	1.4400e+00	1.0000e+01	1.0000e+01	1.5100e+00	1.9400e+00	1.0000e+01	1.0000e+01	1.9900e+00	2.4900e+00	2.4100e+00	2.9000e+00	1.0000e+01	2.9800e+00	




#DATA BEGINS
time	group	step	mark	flag	A-AC1	A-AC2	A-AC3	A-AC4	A-AC5	A-AC6	A-AC7	A-AC8	A-AC9	A-AC10	A-AC11	A-AC12	A-AC13	A-AC14	A-AC15	A-AC16	A-DC1	A-DC2	A-DC3	A-DC4	A-DC5	A-DC6	A-DC7	A-DC8	A-DC9	A-DC10	A-DC11	A-DC12	A-DC13	A-DC14	A-DC15	A-DC16	A-Ph1	A-Ph2	A-Ph3	A-Ph4	A-Ph5	A-Ph6	A-Ph7	A-Ph8	A-Ph9	A-Ph10	A-Ph11	A-Ph12	A-Ph13	A-Ph14	A-Ph15	A-Ph16	B-AC1	B-AC2	B-AC3	B-AC4	B-AC5	B-AC6	B-AC7	B-AC8	B-AC9	B-AC10	B-AC11	B-AC12	B-AC13	B-AC14	B-AC15	B-AC16	B-DC1	B-DC2	B-DC3	B-DC4	B-DC5	B-DC6	B-DC7	B-DC8	B-DC9	B-DC10	B-DC11	B-DC12	B-DC13	B-DC14	B-DC15	B-DC16	B-Ph1	B-Ph2	B-Ph3	B-Ph4	B-Ph5	B-Ph6	B-Ph7	B-Ph8	B-Ph9	B-Ph10	B-Ph11	B-Ph12	B-Ph13	B-Ph14	B-Ph15	B-Ph16	aux-1	digaux	

1677.926	1	1	0	256	0.21821	0.020584	0.094716	0.26376	0.11438	0.15508	0.095643	0.053237	0.099323	0.095715	0.27772	0.22908	0.13951	0.12212	0.087458	0.11297	-2.55	-3.4042	-2.575	-3.225	-3.0875	-2.8604	-3.6063	-2.8771	-3.1125	-3.4354	-2.8187	-3.4875	-3.275	-2.7542	-3.3063	-2.9375	268.021	24.200	15.221	-51.988	32.725	-64.772	64.338	62.145	22.985	-44.657	258.870	171.239	-74.652	198.472	-23.317	76.848	0.0010509	0.0011625	0.00038571	711.03	4.6383e-06	1.699e-05	1158.1	266.35	8.2998e-06	7.2326e-06	486.14	172.89	95.476	29.914	1.6249e-05	62.595	0.00073493	0.00072629	0.00020353	726.74	7.9748e-06	8.0237e-06	1073.8	258.49	8.0691e-06	8.0719e-06	450.5	155.3	96.705	31.259	8.1681e-06	57.144	51.573	28.875	-65.590	-64.055	277.979	9.909	-64.790	-58.831	-33.118	-54.910	-60.719	-56.739	-54.724	-49.831	-38.038	-52.655	-8191	255	
1678.023	1	1	0	0	0.14084	0.10923	0.13765	0.14803	0.094557	0.14083	0.18918	0.11796	0.021111	0.13367	0.14343	0.092347	0.37141	0.3553	0.2934	0.48079	-2.5458	-3.4271	-2.6562	-3.3917	-3.0917	-2.6417	-3.6458	-3.1729	-2.8896	-3.4083	-2.7521	-3.3333	-3.2854	-2.7479	-3.4375	-3.0396	-27.322	217.862	158.496	-75.869	189.331	-33.155	241.792	249.589	163.387	254.030	268.102	254.293	185.655	247.007	162.903	224.841	0.00092664	0.0010793	0.00016543	717.37	1.3199e-05	9.8337e-06	1161.4	267	7.4123e-06	7.4115e-06	491.71	173.3	96.967	30.083	7.4915e-06	62.394	0.00074305	0.00074022	0.00020727	733.57	8.1002e-06	8.1703e-06	1080.5	260.83	8.199e-06	8.1951e-06	455.43	156.49	97.419	31.514	8.2521e-06	57.7	124.044	-55.990	130.616	-64.251	78.128	139.522	-64.808	-59.012	-13.045	154.588	-60.908	-56.748	-54.839	-50.077	37.092	-53.104	-8191	255	
1678.143	1	1	0	0	0.186	0.20715	0.15857	0.11419	0.14534	0.15048	0.1373	0.30864	0.26728	0.046581	0.18477	0.13815	0.10603	0.19215	0.40106	0.032395	-2.4417	-3.3083	-2.6646	-3.2479	-3.275	-2.6896	-3.3312	-3.0312	-2.8542	-3.5646	-2.8875	-3.1104	-3.4729	-2.5792	-3.325	-3.3312	-69.215	48.788	72.234	251.533	22.355	154.832	233.786	200.747	66.269	230.494	-69.397	142.310	-41.906	-33.972	82.019	109.470	0.00033023	0.0018423	6.1112e-05	721.29	6.855e-06	1.3924e-05	1150.7	265.21	4.618e-06	5.6333e-06	492.04	172.1	96.199	30.227	9.5012e-07	62.363	0.00075418	0.00076147	0.00021118	737.46	8.3509e-06	8.3686e-06	1082.3	262.07	8.3703e-06	8.4194e-06	458.36	157.43	98.315	31.765	8.4402e-06	57.751	253.880	85.703	-65.166	-63.836	37.284	115.221	-64.681	-59.019	187.431	54.884	-61.508	-56.903	-54.605	-49.763	107.434	-52.997	-8191	255	
1678.239	1	1	0	0	0.27977	0.024087	0.16589	0.17235	0.15784	0.15977	0.26312	0.18075	0.085815	0.10175	0.1286	0.067919	0.27718	0.041165	0.36445	0.25863	-2.2438	-3.375	-2.7771	-3.0563	-3.4646	-2.6542	-3.5979	-3.3042	-2.6708	-3.3583	-2.8771	-3.0958	-3.5	-2.6792	-3.3479	-3.2104	-63.604	192.269	277.312	132.632	20.116	133.788	149.374	277.313	108.167	233.189	59.851	51.275	248.588	282.177	-69.173	134.850	0.00059419	0.0009176	0.00014891	715.99	1.1504e-05	8.0096e-06	1156.9	268.18	1.9124e-05	7.838e-06	489.57	171.96	95.931	30.236	2.4174e-05	62.715	0.00076931	0.00077392	0.00021427	738.23	8.4798e-06	8.4259e-06	1083.7	263.05	8.5027e-06	8.4803e-06	458.99	157.22	98.506	31.834	8.5256e-06	57.977	135.355	122.550	-38.450	-63.639	-62.736	60.021	-64.738	-58.959	130.689	217.625	-60.741	-56.698	-54.747	-49.693	8.882	-52.956	-8191	255	
1678.336	1	1	0	0	0.10605	0.152	0.18825	0.099312	0.21096	0.091859	0.14249	0.069113	0.15898	0.099786	0.34327	0.40329	0.12465	0.19213	0.050132	0.16575	-2.3187	-3.2458	-2.9292	-2.7979	-3.3021	-2.8563	-3.3646	-3.2125	-2.6729	-3.4167	-3.0729	-2.9417	-3.5958	-2.8646	-3.1063	-3.5417	232.299	107.437	134.226	267.447	102.923	165.504	226.416	174.246	194.439	2.711	-23.132	250.469	-73.049	218.665	174.839	212.844	0.00095513	0.0014396	9.9237e-05	716.73	8.0831e-06	1.3441e-05	1155	269.18	1.4851e-05	7.5453e-06	490.1	172.63	95.262	29.656	1.9936e-05	62.47	0.00077625	0.00077537	0.00021599	741.68	8.5821e-06	8.5785e-06	1088.5	264.09	8.6023e-06	8.4748e-06	458.82	157.25	98.466	31.621	8.5162e-06	58.076	64.947	53.708	-19.341	-63.374	147.186	27.426	-64.218	-59.477	251.037	211.094	-60.500	-56.573	-55.095	-50.181	12.490	-52.466	-8191	255	
1678.407	1	1	0	0	0.43918	0.17747	0.093934	0.16031	0.17294	0.11226	0.26923	0.19156	0.089091	0.11957	0.17624	0.1557	0.31071	0.1203	0.054761	0.27252	-2.2896	-3.3312	-2.9292	-2.8604	-3.5229	-2.7104	-3.1625	-3.3312	-2.7313	-3.3417	-3.2	-2.9083	-3.4708	-2.9375	-3.1521	-3.5312	175.964	190.926	254.226	-13.501	71.060	262.363	258.475	129.389	231.161	200.566	242.260	211.229	-72.938	-64.037	274.283	144.263	0.00082168	0.00021161	0.00048344	717.15	1.5688e-05	1.1801e-05	1153.8	266.75	4.2619e-06	4.1388e-06	486.42	172.85	96.049	30.106	1.34e-05	63.114	0.00077336	0.00076576	0.00021425	740.38	8.4649e-06	8.397e-06	1082.8	262.51	8.4758e-06	8.4335e-06	458.46	157.4	98.474	31.568	8.4002e-06	58.245	56.912	214.545	174.120	-63.817	106.088	117.898	-64.542	-59.182	142.971	96.598	-61.325	-56.497	-54.743	-49.846	32.326	-52.428	-8191	255	
1678.503	1	1	0	0	0.37384	0.27764	0.2953	0.32965	0.16485	0.043654	0.23501	0.22304	0.13801	0.010886	0.20281	0.063335	0.1674	0.047554	0.12904	0.13037	-2.325	-3.2021	-3.1604	-2.8125	-3.4833	-2.8646	-3.1333	-3.5146	-2.6937	-3.2604	-3.1583	-2.8875	-3.4292	-2.8937	-2.9437	-3.5771	100.081	46.313	46.660	265.365	94.983	252.415	251.883	278.715	248.464	228.093	243.465	-53.834	78.047	-10.207	97.813	191.606	0.0010917	0.0010293	0.00027389	714.04	8.8358e-06	8.5401e-06	1156.5	266.77	2.2812e-06	9.306e-06	487.39	172.16	95.494	29.773	3.7028e-06	61.932	0.00076936	0.0007675	0.00021392	739.63	8.4973e-06	8.4283e-06	1089.7	263.74	8.5129e-06	8.5088e-06	459.5	157.55	98.57	31.703	8.5802e-06	57.892	113.939	218.193	137.473	-63.680	8.434	35.326	-64.620	-58.929	94.148	-32.531	-61.463	-56.047	-54.991	-49.924	64.863	-52.496	-8191	255	
1678.624	1	1	0	0	0.21928	0.15134	0.067699	0.06827	0.14242	0.15282	0.13557	0.12109	0.05954	0.45589	0.020756	0.45869	0.20279	0.15804	0.095322	0.17355	-2.1688	-3.2333	-3.2021	-2.7979	-3.5938	-2.9104	-2.9417	-3.6063	-2.8646	-3.0563	-3.4688	-2.8021	-3.4938	-3.1625	-2.7292	-3.4458	50.765	208.494	50.575	239.952	127.695	100.715	276.399	209.381	-9.042	-50.027	155.058	269.345	269.469	282.112	20.973	-48.906	0.00073418	0.00041749	0.00028284	724.61	1.1078e-05	9.5577e-06	1161	269.43	6.7766e-06	1.1338e-05	481.03	171.04	94.76	29.993	5.1034e-06	62.676	0.00077684	0.00078691	0.00021855	747.87	8.6647e-06	8.658e-06	1094.3	265.48	8.6484e-06	8.6389e-06	459.95	157.46	98.912	31.895	8.6689e-06	58.29	65.644	146.017	88.078	-64.187	-11.266	-47.363	-64.744	-58.687	-62.980	54.779	-61.378	-56.559	-54.843	-49.456	-59.665	-52.981	-8191	255	
1678.720	1	1	0	0	0.30583	0.21894	0.17025	0.21951	0.1813	0.13854	0.33973	0.16873	0.20744	0.19637	0.16614	0.22617	0.24396	0.1093	0.041293	0.27424	-2.325	-3.0812	-3.4	-2.7458	-3.2812	-3.15	-2.9167	-3.5375	-2.8458	-2.9479	-3.5479	-2.6583	-3.3125	-3.2333	-2.8083	-3.6063	268.188	248.836	213.091	255.351	110.868	50.285	184.945	-56.257	-68.378	-8.490	-63.549	262.768	274.509	-51.622	182.301	248.940	0.00039858	0.00076124	0.0003368	719.78	7.8395e-06	6.2336e-06	1153	265.58	1.5208e-05	2.0047e-05	487.34	173.07	96	30.059	6.6947e-06	62.769	0.0007893	0.00078933	0.00022078	747.24	8.7177e-06	8.7091e-06	1090.6	263.72	8.7281e-06	8.7271e-06	461.99	157.97	99.229	31.869	8.615e-06	58.431	42.575	241.641	43.538	-63.172	-14.391	81.944	-64.450	-58.442	118.751	182.166	-61.464	-56.588	-54.643	-49.513	113.957	-52.461	-8191	255	
1678.816	1	1	0	0	0.090055	0.23273	0.17732	0.19841	0.092294	0.12874	0.34617	0.14701	0.053036	0.28061	0.064782	0.30555	0.14013	0.05304	0.19544	0.23789	-2.4708	-2.7646	-3.4688	-2.9708	-3.1333	-3.2896	-2.9021	-3.5479	-2.9771	-2.9167	-3.4938	-2.8312	-3.3521	-3.4875	-2.5312	-3.6521	158.370	-70.877	6.524	182.906	49.491	82.196	201.634	256.794	234.532	-75.707	-60.998	268.470	-75.456	137.143	253.765	-38.467	0.0014052	0.00072338	0.00021338	713.21	5.408e-06	6.5981e-06	1159.1	266.46	1.0789e-05	6.0634e-06	485.95	173.63	96.025	29.841	8.545e-06	63.087	0.00079044	0.00079018	0.00022006	742.71	8.699e-06	8.6707e-06	1092.8	263.54	8.6461e-06	8.6524e-06	460.12	158.41	99.442	31.86	8.6064e-06	58.84	37.221	222.023	229.910	-63.301	-29.884	72.003	-64.517	-58.564	140.018	51.058	-61.832	-57.012	-54.871	-49.822	55.988	-52.077	-8191	255	
1678.935	1	1	0	0	0.20608	0.090208	0.21316	0.31173	0.22089	0.3869	0.26533	0.12258	0.12484	0.14034	0.065325	0.10912	0.11991	0.16615	0.13207	0.10505	-2.5833	-2.8438	-3.4979	-2.8042	-2.8688	-3.4188	-2.7229	-3.4146	-3.1813	-2.5979	-3.6813	-2.9333	-3.0062	-3.4167	-2.5875	-3.3646	76.558	150.431	102.227	253.195	206.023	60.871	199.407	1.250	-1.927	186.912	247.429	-1.113	-72.009	-62.370	94.174	92.993	0.00071347	0.0015245	0.00027134	716.73	5.0818e-06	1.2775e-05	1160.7	268.49	1.7703e-05	1.1224e-05	488.1	174.52	95.908	29.974	1.6379e-05	63.079	0.00078254	0.00079165	0.00021791	743.81	8.6045e-06	8.6287e-06	1090.7	264.82	8.7084e-06	8.6627e-06	461.68	159.15	99.584	32.02	8.6929e-06	58.839	-23.099	108.999	53.865	-63.928	56.527	34.462	-64.112	-58.218	63.822	114.173	-60.849	-56.742	-55.134	-49.817	236.387	-52.571	-8191	255	
1679.007	1	1	0	0	0.19151	0.10645	0.15148	0.078717	0.19044	0.11371	0.22563	0.066974	0.30494	0.12097	0.19788	0.14918	0.12637	0.25675	0.10043	0.11591	-2.7146	-2.7729	-3.4333	-2.7875	-2.6312	-3.4167	-2.8063	-3.325	-3.2458	-2.6854	-3.5583	-2.9667	-2.8896	-3.4396	-2.8187	-3.1792	-1.379	241.308	134.974	234.580	-11.383	-23.040	234.343	243.432	159.639	206.554	216.789	253.374	204.338	-74.884	198.902	164.910	0.00073446	0.0010829	0.00032917	718.65	1.279e-05	1.2098e-05	1155.6	266.32	6.4763e-06	1.4804e-05	488.69	172.42	95.689	30.005	4.1289e-06	63.165	0.00079231	0.00079293	0.00022106	744.9	8.6629e-06	8.6584e-06	1088.8	262.88	8.6624e-06	8.6291e-06	461.63	158.01	99.242	31.933	8.5898e-06	58.696	91.237	143.304	42.927	-63.147	264.192	73.572	-65.032	-58.476	112.384	162.918	-60.721	-57.093	-53.895	-50.146	136.370	-52.787	-8191	255	
1679.105	1	1	0	0	0.29454	0.19165	0.15058	0.10499	0.05875	0.049183	0.066841	0.10444	0.078844	0.27606	0.11684	0.12236	0.36836	0.29511	0.35249	0.18207	-2.7979	-2.7854	-3.4104	-3.0458	-2.85	-3.4771	-2.9979	-3.3	-3.3396	-2.8521	-3.5104	-3.1937	-2.8208	-3.5083	-2.9229	-3.1458	94.910	-18.104	77.536	-2.836	47.552	-21.949	221.656	129.975	-34.369	84.243	58.293	228.747	-70.174	4.663	3.049	215.796	0.00025172	0.00090753	1.6997e-05	719.83	1.9892e-06	1.1166e-05	1150.7	266.9	1.0907e-05	8.8957e-06	484.66	170.89	94.88	29.906	5.2085e-06	63.451	0.00078793	0.00078485	0.00022041	744.82	8.6528e-06	8.6846e-06	1087.2	263.47	8.6056e-06	8.5756e-06	460.8	158.03	99.2	31.883	8.5964e-06	58.688	169.147	2.400	-74.123	-63.823	-21.961	176.655	-64.624	-58.926	15.329	-45.631	-60.935	-56.873	-54.722	-49.626	-11.590	-53.070	-8191	255	
1679.224	1	1	0	0	0.19539	0.092979	0.12307	0.19026	0.20236	0.2606	0.30561	0.20425	0.13682	0.18988	0.077256	0.19107	0.13864	0.15869	0.16978	0.22741	-3.1437	-2.6542	-3.3917	-3.2208	-2.7625	-3.5146	-2.9208	-3.0854	-3.3875	-2.7708	-3.4104	-3.3146	-2.6708	-3.4562	-2.7333	-2.9708	-30.152	5.337	-10.013	-30.723	274.862	42.606	198.352	242.985	-52.628	265.231	193.382	281.153	277.571	233.071	123.162	124.978	0.0002771	0.00079312	0.00033523	710.31	1.2137e-05	1.735e-05	1152.9	263.23	7.716e-06	2.4748e-05	487.7	173.39	95.591	29.652	9.0062e-06	63.696	0.00078689	0.00078947	0.00021927	742.07	8.6346e-06	8.6683e-06	1085.8	262.22	8.6368e-06	8.711e-06	460.93	158.15	99.389	31.83	8.6119e-06	58.967	232.517	195.287	-48.089	-63.648	33.761	278.916	-64.545	-58.806	231.078	122.603	-60.950	-56.552	-54.201	-49.623	93.454	-52.531	-8191	255	
1679.320	1	1	0	0	0.14571	0.10258	0.20943	0.09044	0.1304	0.1635	0.16839	0.18238	0.16427	0.27828	0.076455	0.10325	0.21447	0.35412	0.097141	0.16787	-2.9875	-2.7333	-3.1792	-3.1542	-2.6437	-3.5479	-3.1333	-2.7833	-3.2854	-2.7979	-3.2167	-3.4562	-2.6458	-3.5083	-3.05	-2.8104	169.945	237.356	-36.805	123.542	72.618	151.168	-25.547	201.964	25.979	229.503	-75.894	225.736	221.883	273.233	119.614	254.174	0.00056382	0.00073636	0.00010487	719.89	4.2034e-06	5.609e-06	1148.9	265.86	1.2648e-05	7.7847e-06	487.06	173.58	95.974	30.014	1.4253e-06	63.784	0.00078808	0.00078533	0.0002185	743.81	8.6281e-06	8.6279e-06	1088.9	262.61	8.679e-06	8.6326e-06	459.9	158.72	99.265	31.98	8.6686e-06	58.996	29.021	143.164	44.479	-63.588	2.406	279.231	-64.505	-58.845	128.842	-32.612	-61.288	-56.881	-54.432	-49.806	-14.120	-52.569	-8191	255	
1679.416	1	1	0	0	0.23291	0.21805	0.24221	0.2505	0.22335	0.10385	0.26155	0.077465	0.11635	0.074888	0.1237	0.10294	0.21889	0.18185	0.1465	0.18894	-2.9917	-2.8146	-3.2125	-3.4125	-2.7271	-3.2667	-3.2875	-2.9625	-3.4896	-2.6063	-3.0167	-3.3625	-2.5625	-3.5375	-3.0896	-2.85	229.682	22.136	133.655	231.402	27.543	162.346	147.668	179.201	196.306	30.069	-58.312	276.643	252.149	143.675	245.227	254.112	0.001071	0.0014981	0.00043346	714.24	5.504e-06	8.5004e-06	1158.3	263.12	1.2641e-05	1.399e-05	492.32	173.98	95.433	29.936	5.1446e-06	62.704	0.00079269	0.00079699	0.00022128	741.9	8.6613e-06	8.7276e-06	1087	262.79	8.7112e-06	8.6359e-06	461.21	158.44	99.136	31.805	8.6491e-06	58.476	100.651	172.246	64.157	-64.018	212.285	97.464	-64.821	-59.130	224.530	161.909	-60.956	-57.003	-54.706	-50.072	72.925	-52.898	-8191	255	
1679.537	1	1	0	0	0.043192	0.25446	0.18356	0.2098	0.1718	0.069359	0.30277	0.15175	0.22874	0.10815	0.31168	0.12649	0.16847	0.13326	0.135	0.14691	-3.0854	-2.7729	-3.0062	-3.4354	-2.6188	-3.1521	-3.2479	-2.9542	-3.3271	-2.8354	-2.9042	-3.4021	-2.7562	-3.1125	-3.2042	-2.775	202.262	94.859	103.596	265.243	219.618	215.291	204.746	-65.968	-32.706	25.888	-27.308	-70.593	252.058	-33.063	-1.442	259.885	0.00065366	0.00075713	0.00032151	711.25	8.5474e-06	7.0283e-06	1145.3	264.54	2.1598e-05	1.5586e-05	488.85	172.97	95.9	29.733	5.555e-06	62.173	0.00078417	0.00078508	0.00021874	738.14	8.515e-06	8.5286e-06	1077.4	261.51	8.5138e-06	8.489e-06	459.14	157.59	98.489	31.611	8.5205e-06	58.08	-9.720	246.699	-56.853	-63.245	-5.881	260.848	-64.831	-58.874	-34.214	-33.445	-61.197	-56.629	-54.850	-50.086	147.461	-52.397	-8191	255	
1679.633	1	1	0	0	0.19224	0.12846	0.35199	0.13984	0.22511	0.18887	0.144	0.26453	0.083544	0.091018	0.096124	0.2476	0.30051	0.16688	0.13549	0.40818	-3.0312	-2.9396	-2.8646	-3.4917	-2.5958	-3.1646	-3.3312	-2.6813	-3.4021	-2.9875	-2.9437	-3.5208	-2.8354	-3.1208	-3.3187	-2.7229	141.146	-39.756	236.031	266.197	109.342	261.046	72.344	-56.638	79.278	8.034	-31.344	-40.351	240.449	84.667	203.757	247.622	0.00037352	0.0013962	0.00028399	714.69	1.0366e-05	1.1037e-05	1152	266.72	1.9918e-06	8.1742e-06	488.91	175.06	95.98	29.324	7.3226e-06	63.001	0.00077469	0.0007747	0.00021528	736.63	8.4526e-06	8.5186e-06	1079.6	261.72	8.4445e-06	8.4573e-06	458.59	158.87	98.494	31.493	8.4872e-06	58.411	247.829	78.385	114.481	-63.473	-35.583	50.409	-64.321	-58.794	70.679	63.895	-60.954	-57.093	-54.632	-49.666	-57.001	-51.977	-8191	255	
1679.704	1	1	0	0	0.045248	0.31538	0.2609	0.22936	0.019446	0.10367	0.077421	0.17597	0.085174	0.09406	0.25344	0.10342	0.050653	0.050025	0.24776	0.031509	-2.9354	-2.9208	-2.7208	-3.3917	-2.8083	-2.9354	-3.5479	-2.8292	-3.3104	-3.1625	-2.7146	-3.6375	-2.925	-3.0104	-3.5167	-2.6813	-0.148	200.903	246.244	189.092	201.923	279.526	84.840	-72.343	-47.832	-76.278	282.217	-65.190	240.501	260.250	271.603	109.779	0.00062647	0.0019582	0.00019272	713.36	1.0357e-05	4.8665e-06	1153.4	268.12	2.2539e-05	1.139e-05	491.96	174.73	95.167	29.963	1.3197e-05	63.046	0.00077761	0.00078092	0.0002174	736.5	8.5208e-06	8.5763e-06	1085.6	262.85	8.515e-06	8.5245e-06	460.93	159	98.855	31.78	8.6155e-06	58.309	61.272	270.849	61.592	-64.097	37.893	-73.414	-64.688	-58.844	183.147	146.789	-60.694	-56.520	-54.991	-49.477	88.498	-52.909	-8191	255	
1679.801	1	1	0	0	0.039433	0.03902	0.10881	0.090769	0.17907	0.13706	0.051945	0.13029	0.11982	0.098976	0.23567	0.22971	0.23436	0.24521	0.22915	0.15514	-2.875	-3.2333	-2.5958	-3.5583	-2.9542	-2.9688	-3.575	-2.7625	-3.3417	-3.2667	-2.6854	-3.6167	-3.2021	-2.9042	-3.4583	-3.0458	112.930	-44.366	-22.026	197.156	79.174	198.410	178.656	276.958	273.884	124.745	-51.478	127.710	93.158	189.700	112.976	236.222	0.00088333	0.00066922	0.0002282	714.2	1.5144e-05	1.3625e-05	1150.6	265.88	4.4506e-06	9.4252e-06	493.22	174.54	96.224	29.497	6.1113e-06	62.945	0.00078313	0.00077446	0.00021684	741.65	8.5326e-06	8.5813e-06	1087.2	263.06	8.5456e-06	8.5844e-06	462.79	158.96	98.76	31.625	8.6391e-06	58.505	71.504	277.448	16.777	-63.389	148.214	214.613	-64.260	-58.769	194.379	175.069	-60.656	-56.516	-54.919	-49.200	40.587	-52.487	-8191	255	
1679.919	1	1	0	0	0.085792	0.26341	0.12616	0.22541	0.022627	0.08943	0.077218	0.08504	0.13045	0.070073	0.22988	0.11566	0.052218	0.25359	0.089767	0.10798	-2.7083	-3.2667	-2.6063	-3.6083	-2.8812	-2.8625	-3.5812	-2.8229	-2.9688	-3.4521	-2.5875	-3.3688	-3.1354	-2.9021	-3.2583	-2.9021	81.129	14.908	100.213	269.285	62.891	261.061	-34.670	228.660	-46.495	80.188	268.284	251.224	142.350	210.986	-4.035	142.140	0.00064432	0.0010901	4.5705e-05	709.95	1.6146e-06	1.848e-05	1156.6	265.73	1.8044e-05	1.273e-05	490.81	174.25	95.972	29.872	7.7108e-06	62.727	0.00077845	0.00078829	0.00021912	740.95	8.5848e-06	8.5801e-06	1088.1	263.61	8.664e-06	8.5612e-06	462.65	158.42	98.964	31.681	8.5654e-06	58.194	-0.787	31.385	165.740	-63.766	153.699	64.656	-64.185	-59.095	226.928	40.090	-60.702	-56.356	-54.645	-50.009	111.668	-52.773	-8191	255	
1680.016	1	1	0	0	0.16464	0.15379	0.25451	0.13831	0.078208	0.19488	0.37787	0.17988	0.23048	0.31775	0.24136	0.27016	0.19488	0.15328	0.063413	0.17317	-2.6125	-3.2687	-2.6208	-3.4062	-3.0708	-2.6667	-3.4833	-2.7646	-2.875	-3.3167	-2.8854	-3.3708	-3.2729	-2.5958	-3.3271	-2.9646	246.137	211.983	-23.680	267.857	49.744	10.845	197.398	3.507	54.394	-73.260	234.802	264.475	266.766	123.405	62.228	274.695	0.00020288	0.00021717	0.00012267	713.02	1.7431e-06	1.1943e-05	1159.2	265.98	1.3505e-05	1.4172e-05	493.86	174.14	95.96	29.853	5.8738e-06	62.872	0.00078159	0.00078237	0.00021661	738.57	8.5625e-06	8.5858e-06	1088.5	263.06	8.6285e-06	8.583e-06	462.51	159.23	98.682	31.733	8.6675e-06	58.57	25.324	31.258	-61.978	-63.697	-21.662	42.173	-65.115	-59.471	-61.924	197.164	-60.985	-56.952	-55.563	-50.039	216.584	-53.029	-8191	255	
1680.112	1	1	0	0	0.2519	0.076002	0.26991	0.057687	0.11168	0.084728	0.1627	0.23805	0.06408	0.11453	0.1293	0.24348	0.38176	0.071633	0.1613	0.21596	-2.3792	-3.425	-2.4688	-3.1667	-3.1833	-2.6958	-3.3833	-3.075	-2.7687	-3.4833	-2.8937	-3.3187	-3.2771	-2.5229	-3.3688	-3.0292	-50.740	213.904	150.068	246.903	150.302	200.787	224.870	-61.448	21.149	69.716	245.400	228.156	259.636	73.580	-8.443	278.373	0.00057533	0.0015199	0.00038692	714.79	1.4508e-06	1.1221e-05	1164.1	266.99	1.812e-05	4.5758e-06	494.64	174.99	95.455	29.891	1.7158e-06	63.201	0.00078623	0.00078592	0.00022109	742.4	8.5985e-06	8.6711e-06	1097.1	264.34	8.6832e-06	8.7423e-06	465.13	160.06	99.665	31.946	8.7587e-06	58.92	265.253	7.230	28.892	-63.615	202.569	-57.451	-64.552	-59.184	102.442	91.939	-61.337	-56.200	-54.988	-48.580	118.533	-52.862	-8191	255	
1680.208	1	1	0	0	0.075811	0.17843	0.057455	0.074987	0.14068	0.084862	0.047126	0.24125	0.070207	0.30249	0.054811	0.11783	0.065002	0.13048	0.083563	0.14436	-2.1833	-3.4479	-2.8521	-2.9521	-3.3812	-2.6396	-3.3542	-3.2854	-2.7188	-3.2417	-2.9542	-3.0312	-3.3833	-2.7229	-3.2729	-3.3604	-73.891	47.407	-76.267	207.802	247.524	264.486	-71.340	228.323	210.010	182.535	177.851	260.760	113.558	211.864	91.314	272.617	0.0018474	0.0019334	0.00036012	718.29	9.8829e-06	5.5308e-06	1152.2	266.63	1.3897e-05	1.0819e-05	488.71	175.3	96.263	29.855	8.6707e-06	62.944	0.00079102	0.00079709	0.00022142	746.95	8.703e-06	8.6929e-06	1092.7	264.34	8.7966e-06	8.7941e-06	463.49	159.6	99.686	31.938	8.7846e-06	58.627	115.973	101.681	31.165	-63.261	119.491	-75.273	-64.921	-59.490	175.081	-62.610	-60.925	-56.725	-55.262	-48.864	24.240	-52.583	-8191	255	
1680.304	1	1	0	0	0.2472	0.24907	0.36194	0.14968	0.15856	0.30694	0.082202	0.16121	0.12412	0.20567	0.11592	0.22646	0.26006	0.19036	0.034464	0.12912	-1.9521	-3.3563	-2.7979	-2.9542	-3.3146	-2.7729	-3.2354	-3.225	-2.5875	-3.4167	-3.0208	-2.9188	-3.4208	-2.65	-3.0521	-3.575	12.931	-18.948	118.524	241.154	268.234	-32.163	179.206	202.402	114.578	-36.243	162.718	188.991	227.182	185.176	41.072	196.762	0.00070644	0.0011294	0.00026269	716.67	1.082e-06	3.1613e-06	1157.4	266.24	6.5882e-06	3.7533e-07	485.57	173.69	95.852	29.834	1.2429e-05	62.743	0.00079613	0.00079672	0.00022234	745.39	8.7263e-06	8.7489e-06	1093.5	263.91	8.6874e-06	8.7474e-06	461.4	158.97	99.201	31.801	8.7694e-06	58.608	69.234	84.993	267.317	-63.624	53.913	-3.298	-64.382	-58.527	-71.682	5.759	-61.088	-56.188	-54.572	-49.825	117.829	-52.622	-8191	255	
1680.400	1	1	0	0	0.41842	0.098035	0.28401	0.16903	0.29039	0.17417	0.36526	0.03881	0.1609	0.1382	0.068654	0.20886	0.054874	0.16028	0.2697	0.18139	-2.1688	-3.3667	-2.9854	-2.9583	-3.4458	-2.9417	-3.0312	-3.4437	-2.725	-3.4188	-2.9979	-2.7333	-3.4271	-2.9062	-3.1083	-3.6333	36.720	244.500	-38.360	229.400	98.435	-42.601	206.516	256.215	229.757	41.374	69.453	248.346	-24.792	47.042	1.408	191.270	0.00076432	0.00050359	0.00031889	711.46	1.3463e-05	7.0215e-06	1163.1	266.33	1.1533e-05	1.1406e-05	491.18	174.16	94.956	29.927	1.2066e-05	63.792	0.00079882	0.00080208	0.00021999	744.99	8.7282e-06	8.6959e-06	1094.9	264.4	8.765e-06	8.7026e-06	464.81	159.25	99.334	31.895	8.7592e-06	59.106	97.521	-26.995	-47.847	-63.476	72.509	29.633	-64.707	-58.681	122.191	10.531	-60.830	-55.915	-55.080	-49.308	-24.294	-52.474	-8191	255	
1680.496	1	1	0	0	0.068677	0.19466	0.1339	0.29929	0.25142	0.24204	0.18329	0.29897	0.13615	0.20329	0.12132	0.37946	0.19737	0.083989	0.19415	0.20911	-2.2188	-3.0375	-3.1729	-2.7062	-3.35	-2.9021	-3.1854	-3.4875	-2.6063	-3.2396	-3.2083	-2.7438	-3.4396	-2.7625	-2.7958	-3.4562	250.776	125.461	18.398	245.261	282.627	210.938	224.935	252.140	-31.365	11.558	-51.568	265.213	173.080	96.652	-34.639	240.454	2.2695e-05	0.0019742	0.00030581	713.78	8.8959e-06	1.0814e-05	1168.3	266.02	8.8838e-06	6.1183e-06	490.58	175.44	95.507	29.457	1.0616e-05	62.97	0.00079725	0.00079995	0.00022173	745.81	8.7337e-06	8.7219e-06	1096.4	264.08	8.7975e-06	8.7208e-06	464.41	159.03	99.519	31.756	8.7686e-06	58.603	227.689	-16.484	17.931	-62.912	-17.572	223.471	-63.913	-58.511	90.774	123.992	-60.830	-56.420	-54.505	-49.542	-35.971	-51.853	-8191	255	
1680.617	1	1	0	0	0.25564	0.14623	0.058594	0.33492	0.069378	0.26279	0.19294	0.31577	0.20491	0.20717	0.21663	0.1718	0.14915	0.20567	0.27515	0.025232	-2.2458	-3.0167	-3.3	-2.7479	-3.3312	-3.0167	-2.9458	-3.4292	-2.7604	-3.0667	-3.3292	-2.6792	-3.3937	-3.1792	-2.6479	-3.3479	151.501	-24.828	84.657	256.648	233.718	33.246	183.213	202.671	95.811	213.001	-33.961	-76.219	143.443	-72.258	187.192	-49.891	0.00043711	0.0010981	0.00029742	721.88	7.7585e-06	4.1178e-06	1155.1	268.18	2.6062e-05	2.5537e-06	489.85	173.69	95.12	29.604	1.2666e-05	62.007	0.00079517	0.00079906	0.00022091	747.57	8.724e-06	8.7017e-06	1094.3	264.78	8.773e-06	8.7074e-06	462.52	158.66	98.925	31.789	8.7455e-06	58.27	116.415	29.780	112.517	-63.377	-58.211	225.305	-64.294	-58.602	279.086	53.211	-60.772	-56.465	-54.364	-50.002	-0.887	-52.229	-8191	255	
1680.713	1	1	0	0	0.33794	0.02697	0.033025	0.11888	0.0972	0.082263	0.22834	0.2594	0.28107	0.26126	0.22437	0.076375	0.05511	0.1246	0.11344	0.1991	-2.3292	-2.9625	-3.2938	-2.7542	-3.4771	-3.1021	-2.8187	-3.6458	-2.7562	-2.9208	-3.3896	-2.8271	-3.2458	-3.3187	-2.5687	-3.4771	263.818	238.255	184.673	-30.407	134.965	70.547	185.132	258.779	210.725	172.350	177.668	173.747	-64.462	-73.681	-67.709	-39.212	0.0010658	0.00066887	0.00049213	714.49	4.2013e-06	1.0548e-05	1161.4	266.38	3.8295e-06	1.5938e-05	491.45	173.21	95.174	29.529	8.3429e-06	62.624	0.00079346	0.00079278	0.00022114	746.48	8.7089e-06	8.7016e-06	1092.7	263.84	8.6005e-06	8.7083e-06	462.89	158.24	98.495	31.65	8.626e-06	58.307	39.381	116.710	64.763	-63.421	220.928	-53.350	-64.611	-58.634	162.150	87.547	-60.333	-55.978	-53.952	-49.254	258.553	-52.191	-8191	255	
1680.807	1	1	0	0	0.17911	0.16538	0.33403	0.13258	0.071395	0.22062	0.18705	0.28591	0.28271	0.12435	0.19953	0.10447	0.018081	0.22003	0.050804	0.13203	-2.4917	-2.9396	-3.4146	-2.925	-3.1729	-3.3271	-2.6	-3.4729	-2.9188	-2.7896	-3.4104	-2.7208	-3.0708	-3.3729	-2.4958	-3.4917	149.572	-17.319	251.943	224.628	25.545	73.166	235.195	-67.192	83.591	191.610	215.059	140.788	175.339	49.689	-45.372	157.889	0.00071381	0.00066632	0.00010747	710.67	8.3741e-06	1.0894e-05	1151.6	266.28	7.258e-06	9.2469e-06	492.36	174.1	95.397	29.305	8.5425e-06	62.254	0.00078669	0.00079237	0.00022172	741.3	8.6348e-06	8.6575e-06	1093	263.83	8.6317e-06	8.6229e-06	463.45	158.1	98.596	31.415	8.5751e-06	58.106	35.641	-67.692	17.057	-63.514	78.875	239.353	-64.366	-58.692	141.927	140.113	-61.466	-56.479	-54.683	-49.318	71.691	-52.037	-8191	255	
1680.905	1	1	0	0	0.12764	0.14723	0.2154	0.3072	0.059813	0.16282	0.12019	0.1501	0.18424	0.12608	0.26113	0.22974	0.35741	0.033683	0.21425	0.28385	-2.5604	-2.7854	-3.5479	-2.7	-3.0396	-3.3937	-2.6583	-3.3479	-3.1562	-2.5625	-3.5042	-2.9208	-3.0354	-3.45	-2.6479	-3.45	73.955	238.525	256.335	-36.847	139.270	130.861	216.075	230.522	-65.564	54.259	247.314	168.146	258.512	63.243	3.907	176.393	0.00035928	0.0011448	0.00012003	717.28	7.6263e-06	7.9547e-06	1167.8	265.73	9.8777e-06	2.7154e-06	492.92	172.43	94.693	29.577	5.4409e-06	62.202	0.0007764	0.00078939	0.00021881	743.68	8.5874e-06	8.5623e-06	1094.9	263.63	8.5595e-06	8.5333e-06	462.78	157.6	98.144	31.432	8.5361e-06	57.867	-69.007	-10.226	197.321	-63.397	-61.501	268.028	-64.214	-58.002	-40.682	194.466	-60.351	-55.905	-54.218	-49.401	51.037	-52.302	-8191	255	
1681.000	1	1	0	0	0.02806	0.23065	0.11672	0.31781	0.1253	0.28798	0.22404	0.20693	0.073959	0.34137	0.26911	0.14713	0.18104	0.22518	0.29032	0.2526	-2.6458	-2.6104	-3.3875	-2.8167	-2.8042	-3.4354	-2.7896	-3.3354	-3.125	-2.8396	-3.4167	-2.9104	-2.7875	-3.4229	-2.7125	-3.1604	142.029	205.243	56.891	116.580	175.793	112.759	181.629	246.240	183.882	50.571	209.528	-37.846	223.070	-67.340	18.520	188.962	0.00077864	0.0012329	0.00011578	715.85	1.8333e-05	1.7873e-05	1161	266.33	4.7818e-06	8.3335e-06	485.37	171.86	94.403	29.398	4.6383e-06	61.664	0.00077417	0.00077853	0.00021593	739.53	8.5018e-06	8.492e-06	1090.3	262.61	8.4617e-06	8.4779e-06	458.33	156.88	97.64	31.17	8.4379e-06	57.723	-33.642	144.136	199.730	-63.826	158.739	61.692	-64.700	-59.161	164.603	123.672	-60.665	-56.699	-54.469	-49.325	221.078	-52.584	-8191	255	
1681.096	1	1	0	0	0.27679	0.12316	0.13886	0.21539	0.072446	0.24112	0.10745	0.070949	0.27804	0.22911	0.045446	0.16847	0.19044	0.081252	0.13971	0.15062	-2.9688	-2.5542	-3.3521	-3.1042	-2.8333	-3.5375	-2.8667	-3.2042	-3.3479	-2.5875	-3.4958	-3.0646	-2.8875	-3.5396	-2.825	-3.1792	170.668	-72.858	239.340	-23.443	97.435	139.707	160.064	243.662	-43.117	23.822	153.120	140.942	244.910	-70.376	257.810	197.935	0.00082894	0.00056712	0.00035992	709.87	1.553e-05	1.1352e-06	1157	266.83	9.5276e-06	1.5582e-05	488.32	173.04	95.507	29.559	1.275e-05	62.199	0.0007636	0.00076454	0.00021365	734.16	8.3456e-06	8.38e-06	1085.3	261.75	8.3868e-06	8.4012e-06	456.77	156.81	97.543	31.14	8.3214e-06	57.411	181.944	92.407	-45.074	-63.876	99.813	-3.525	-64.055	-58.625	111.937	262.309	-60.615	-56.196	-53.807	-49.494	82.918	-52.199	-8191	255	
1681.217	1	1	0	0	0.16064	0.09012	0.057597	0.0058326	0.18064	0.21839	0.32854	0.057109	0.052121	0.11419	0.079703	0.29107	0.14985	0.12822	0.14209	0.088195	-3.0604	-2.6729	-3.3063	-3.0438	-2.6583	-3.4417	-3.0625	-2.975	-3.2042	-2.7125	-3.4938	-3.1521	-2.8187	-3.3521	-2.8229	-3.1354	19.157	138.499	137.118	108.054	-52.806	92.927	251.956	-39.191	59.631	76.013	278.535	269.916	121.346	223.297	-63.459	260.427	0.00016454	0.0011791	0.00010666	719.22	1.1206e-06	1.5695e-05	1163.1	268.89	5.7064e-06	2.9489e-06	489.62	173.33	94.605	28.903	9.3085e-06	62.063	0.00075364	0.00076244	0.00021256	737.07	8.3163e-06	8.3255e-06	1086.9	261.36	8.3312e-06	8.3666e-06	457.88	156.83	97.429	31.123	8.3361e-06	57.516	16.130	123.191	51.517	-63.241	241.544	270.590	-64.103	-58.463	55.157	-14.817	-60.175	-56.598	-54.898	-49.642	227.546	-52.835	-8191	255	
1681.311	1	1	0	0	0.1381	0.13491	0.14846	0.17665	0.18584	0.057886	0.21336	0.5169	0.18647	0.16181	0.14035	0.14396	0.053698	0.081433	0.2154	0.11892	-3.1083	-2.5396	-3.0667	-3.225	-2.5792	-3.3542	-2.875	-2.9333	-3.2667	-2.6354	-3.2938	-3.4458	-2.6458	-3.4188	-2.8979	-2.8042	215.610	87.637	213.177	209.450	127.466	219.498	248.916	220.547	146.909	122.856	194.773	240.273	281.266	-46.723	-18.633	174.015	0.0012769	0.00046514	9.3822e-05	718.26	2.7493e-06	1.2161e-05	1153.3	263.24	1.9893e-05	1.1149e-05	493.05	172.97	94.248	29.28	1.004e-05	62.532	0.00076447	0.00076302	0.00021295	737.76	8.3315e-06	8.3898e-06	1086.5	260.27	8.358e-06	8.3694e-06	457.85	157.31	97.282	31.267	8.371e-06	57.7	35.366	139.899	24.327	-63.905	170.680	121.907	-65.145	-59.163	-12.258	101.696	-60.930	-57.310	-55.406	-49.528	123.664	-52.993	-8191	255	
1681.407	1	1	0	0	0.10996	0.22901	0.077166	0.040742	0.36602	0.059185	0.25649	0.14936	0.32988	0.16484	0.28074	0.27238	0.073766	0.15038	0.0905	0.23355	-3.1458	-2.6708	-3.1229	-3.375	-2.5542	-3.2438	-3.1667	-2.7542	-3.5479	-2.75	-3.1042	-3.3563	-2.7667	-3.325	-3.1312	-2.8417	131.617	106.740	154.383	241.953	186.208	64.420	213.756	267.141	-51.427	155.148	245.092	278.878	25.632	-26.456	251.580	-74.758	0.00087087	0.0013681	0.00043868	714.61	7.5029e-06	2.0453e-05	1158.6	264.64	1.2458e-05	1.0159e-05	486.21	172.49	94.37	29.366	6.1058e-06	62.205	0.00075857	0.00076039	0.00021334	733.8	8.3068e-06	8.33e-06	1083.4	259.94	8.3577e-06	8.2972e-06	455.79	156.73	97.623	31.08	8.3079e-06	57.502	136.004	56.029	85.117	-64.128	156.281	132.926	-65.383	-59.183	158.831	282.449	-60.990	-56.971	-55.310	-50.376	-47.341	-52.719	-8191	255	
1681.503	1	1	0	0	0.17588	0.056803	0.1969	0.26402	0.27253	0.2515	0.25466	0.14874	0.17402	0.13316	0.12882	0.15398	0.049752	0.049778	0.18306	0.12531	-3.0667	-2.6854	-2.7875	-3.4354	-2.8187	-3.2104	-3.2896	-2.7396	-3.3667	-2.8583	-2.8438	-3.475	-2.6813	-3.3271	-3.2917	-2.7708	15.011	83.039	126.898	243.058	228.741	209.855	172.800	211.808	232.220	146.632	-48.030	244.852	37.898	191.029	102.278	217.569	0.00056775	0.00039485	0.00019022	709.37	1.4595e-05	5.6724e-06	1154.5	263.01	1.1554e-05	1.1701e-05	486.5	173.04	94.195	29.136	6.882e-06	61.983	0.00076162	0.00076293	0.00021157	735.92	8.335e-06	8.4198e-06	1083.4	260.2	8.3805e-06	8.3517e-06	457.24	156.84	97.15	31.145	8.3715e-06	57.543	4.284	66.959	-13.603	-64.174	-39.001	163.930	-65.256	-59.667	158.911	53.684	-61.415	-56.860	-55.463	-50.150	120.340	-53.197	-8191	255	
1681.599	1	1	0	0	0.11054	0.24188	0.11104	0.2189	0.10672	0.033184	0.14926	0.12559	0.086459	0.052349	0.18905	0.17333	0.24107	0.084386	0.15929	0.29554	-3.0812	-2.9479	-2.7	-3.4292	-2.875	-2.9604	-3.4688	-2.7875	-3.3229	-3.0042	-2.9062	-3.3875	-2.8396	-3.1604	-3.1958	-2.9062	149.055	0.171	20.644	260.760	216.096	39.059	77.064	183.217	-66.862	145.508	229.001	-59.155	-27.129	-17.917	124.541	180.044	0.00039763	0.0002806	0.00011207	709.9	5.792e-06	9.3636e-06	1158	265.61	2.0022e-06	3.723e-06	488.12	173.67	94.159	29.518	1.4746e-05	61.954	0.00076439	0.00076357	0.00021206	733.77	8.3622e-06	8.2876e-06	1085.8	260.48	8.3499e-06	8.4221e-06	457.26	157.33	97.262	31.206	8.2737e-06	57.722	22.421	123.959	159.910	-63.994	32.355	99.466	-64.746	-59.541	-40.885	57.063	-61.339	-56.909	-54.904	-50.326	-16.781	-53.187	-8191	255	
1681.696	1	1	0	0	0.06935	0.081718	0.091166	0.098296	0.20609	0.084626	0.24948	0.10105	0.10149	0.11227	0.22205	0.35968	0.061649	0.043368	0.012239	0.25809	-2.825	-3.0292	-2.6979	-3.4958	-2.7938	-2.9792	-3.55	-2.7458	-3.3854	-3.1437	-2.7542	-3.5187	-2.95	-2.9167	-3.3583	-2.6479	56.459	-47.918	58.498	189.669	-13.097	46.118	208.870	117.354	110.530	63.178	268.785	-35.248	197.005	225.183	127.243	-76.383	0.00061756	0.0015324	0.00012531	711.53	1.2527e-05	5.3624e-06	1163.7	264.02	1.8933e-05	2.8374e-06	490.19	172.79	94.401	29.704	1.0675e-05	61.269	0.00076559	0.00076049	0.00021327	736.26	8.3771e-06	8.4105e-06	1088.1	260.13	8.3657e-06	8.3716e-06	459.58	157.42	97.136	31.191	8.4301e-06	57.384	-47.706	62.869	51.078	-63.756	113.587	142.765	-64.948	-58.936	-25.348	213.730	-61.098	-57.152	-55.120	-49.786	-65.974	-52.832	-8191	255	
1681.792	1	1	0	0	0.072267	0.032469	0.03481	0.29779	0.011657	0.23012	0.23127	0.14496	0.19147	0.090801	0.11037	0.23764	0.21118	0.1276	0.12351	0.18616	-2.8063	-3.1542	-2.5583	-3.3833	-3.0563	-2.6875	-3.5604	-2.6188	-3.2354	-3.4062	-2.6625	-3.4417	-2.8792	-2.7417	-3.4042	-2.6583	143.038	270.020	19.810	228.425	186.469	259.706	179.026	235.049	-42.540	25.640	219.855	-46.717	-30.409	219.234	125.151	212.158	0.00038326	0.0004595	9.1031e-05	710.72	1.0448e-05	1.4544e-05	1155.5	263.91	4.3001e-06	1.015e-05	491.52	172.98	93.28	29.164	2.3488e-06	61.577	0.00076561	0.00076617	0.00021271	736.61	8.3774e-06	8.3824e-06	1085.5	260.31	8.3981e-06	8.3067e-06	457.16	156.54	97.026	31.037	8.4113e-06	57.285	29.979	8.045	75.950	-63.794	246.086	51.488	-64.785	-59.632	-69.731	211.745	-61.366	-57.245	-55.058	-50.571	47.686	-53.034	-8191	255	
1681.888	1	1	0	0	0.19167	0.12447	0.29643	0.2219	0.25641	0.14082	0.35683	0.23075	0.064085	0.1169	0.074454	0.26207	0.068909	0.091934	0.15317	0.089825	-2.8042	-3.3333	-2.6583	-3.4104	-3.0167	-2.7396	-3.5312	-2.8625	-3.1688	-3.2375	-2.7646	-3.3542	-2.9042	-2.6979	-3.4333	-2.9167	142.793	-17.758	54.665	-50.015	-68.730	116.831	243.226	240.549	172.281	80.776	-17.438	257.393	69.160	67.386	153.187	193.583	0.00031596	0.00044271	0.00029446	712.56	1.1254e-05	3.1568e-06	1160.2	265.24	7.6372e-06	1.8089e-05	488.89	172.47	94.167	29.348	5.2329e-06	61.488	0.00076472	0.00076257	0.00021096	735.99	8.2951e-06	8.3035e-06	1088.5	259.56	8.3828e-06	8.3784e-06	455.11	156.23	96.689	31.001	8.3405e-06	57.114	43.108	248.358	198.600	-63.805	248.251	277.530	-64.924	-59.553	58.404	230.760	-61.211	-56.595	-55.026	-49.987	158.995	-52.948	-8191	255	
1682.009	1	1	0	0	0.11342	0.1007	0.26396	0.22312	0.086435	0.11904	0.19105	0.42441	0.1733	0.11601	0.30964	0.15712	0.2021	0.060258	0.06567	0.22945	-2.6333	-3.2396	-2.5646	-3.1729	-3.2333	-2.4708	-3.3688	-2.8187	-2.8646	-3.3937	-2.7292	-3.3396	-3.2687	-2.6979	-3.2604	-2.9854	66.598	188.651	247.142	272.678	220.500	260.713	212.011	233.794	171.556	197.807	228.185	-74.885	138.792	248.562	194.201	200.619	0.00096754	0.00054043	0.00019253	714.47	7.0805e-06	6.6501e-06	1153.3	263.42	3.183e-06	1.1897e-05	482.24	170.75	93.431	29.516	1.2858e-05	61.882	0.00075802	0.00075942	0.00020994	737.49	8.3242e-06	8.3147e-06	1085.1	259.46	8.2799e-06	8.2884e-06	454.02	155.66	96.436	31.02	8.311e-06	57.163	18.380	-49.537	231.197	-64.030	211.056	262.775	-65.111	-59.155	-66.576	237.660	-62.322	-56.856	-55.254	-49.909	277.483	-52.550	-8191	255	
1682.105	1	1	0	0	0.12969	0.12279	0.080611	0.16849	0.13193	0.26072	0.25624	0.28065	0.32843	0.17542	0.048643	0.15688	0.15316	0.22307	0.07078	0.24203	-2.3979	-3.4667	-2.6042	-3.3792	-3.3229	-2.7188	-3.4562	-3.0021	-2.7667	-3.2938	-2.8583	-3.3958	-3.3083	-2.6042	-3.2667	-3.2333	-28.533	94.416	126.496	263.623	-30.463	87.558	183.918	266.210	217.910	262.844	174.395	261.712	241.438	207.365	86.014	186.757	0.00017088	0.00091819	0.00026261	719.67	7.9016e-06	5.9931e-06	1164.8	264.54	9.2013e-06	9.6154e-06	487.9	169.75	94.174	29.034	8.5605e-06	60.968	0.0007518	0.00075623	0.00020985	736.21	8.204e-06	8.2187e-06	1086.7	259.25	8.2033e-06	8.2799e-06	456.19	155.54	96.139	30.836	8.2685e-06	56.977	254.644	116.897	176.481	-63.981	-19.679	280.545	-64.323	-59.262	42.524	205.281	-61.539	-56.629	-55.440	-49.523	182.548	-52.979	-8191	255	
1682.176	1	1	0	0	0.18691	0.10632	0.13306	0.17449	0.11522	0.1354	0.17211	0.18237	0.17408	0.15378	0.28092	0.3876	0.30207	0.26955	0.19549	0.23912	-2.4562	-3.6604	-2.6771	-2.9792	-3.2042	-2.6125	-3.4396	-3.225	-2.8063	-3.3604	-2.7583	-3.0333	-3.3625	-2.55	-3.2021	-3.2687	190.508	54.642	-52.523	234.060	-60.831	23.934	-58.941	-56.925	261.036	211.314	0.163	220.874	269.672	204.184	138.189	-38.643	0.00059064	0.0010068	0.00030493	717.53	9.0562e-06	6.7798e-06	1162.7	265.88	6.6036e-06	5.1389e-06	485.43	169.89	92.415	29.23	1.2798e-05	61.318	0.00075092	0.0007553	0.00021017	735.82	8.2262e-06	8.2567e-06	1086.1	260.05	8.2958e-06	8.3229e-06	453.81	154.96	95.824	30.84	8.2823e-06	56.765	123.967	239.810	41.989	-64.001	257.016	31.747	-65.287	-59.612	221.843	281.635	-61.431	-57.150	-55.089	-49.257	-40.186	-53.132	-8191	255	
1682.297	1	1	0	0	0.16835	0.17292	0.14662	0.08279	0.1947	0.17284	0.2437	0.043969	0.29825	0.039985	0.10136	0.19875	0.13492	0.06182	0.14145	0.31594	-2.2313	-3.4271	-2.7021	-2.9417	-3.3792	-2.6521	-3.375	-3.3167	-2.6188	-3.175	-2.7521	-2.9062	-3.4479	-2.5771	-3.1125	-3.2313	-31.107	-26.504	169.306	107.084	223.822	273.386	188.047	214.244	-9.576	146.781	196.356	199.893	237.373	32.552	207.891	-55.477	0.00045788	0.0014668	0.00012826	718.31	6.8768e-06	1.3062e-05	1158.4	263.66	8.3343e-06	8.6064e-06	490.42	170.88	93.653	28.978	9.2729e-07	61.497	0.00075426	0.00075592	0.00021049	736.21	8.2847e-06	8.3265e-06	1085.6	260.31	8.2869e-06	8.2857e-06	454.69	154.66	96.194	30.7	8.3028e-06	56.629	-45.874	-31.656	253.707	-63.634	-40.680	59.023	-65.058	-59.257	44.893	186.080	-61.400	-56.688	-55.274	-49.730	174.156	-53.024	-8191	255	
1682.391	1	1	0	0	0.071167	0.18617	0.088256	0.27684	0.163	0.1023	0.20674	0.10368	0.05534	0.27415	0.22863	0.16441	0.080387	0.18821	0.21812	0.26003	-2.3458	-3.3688	-2.9729	-2.7562	-3.6167	-2.9458	-3.2708	-3.3458	-2.5375	-3.4208	-3.0208	-2.875	-3.5187	-2.8354	-2.8896	-3.4979	-2.854	0.927	-74.416	262.496	189.623	-5.521	265.828	187.298	59.881	153.472	132.720	-66.243	-36.231	-3.753	271.818	243.550	0.0009155	0.00070408	0.00035333	724.48	9.1109e-06	1.3232e-05	1168.3	265.51	1.34e-05	9.2971e-06	484.68	170.34	93.189	29.106	1.6164e-05	61.259	0.00075561	0.0007543	0.00020867	738.47	8.2347e-06	8.2477e-06	1087.3	260.12	8.2184e-06	8.2474e-06	453.92	155	96.095	30.676	8.2304e-06	56.745	66.225	9.249	13.836	-64.230	270.414	40.365	-64.536	-59.421	85.406	215.228	-61.573	-57.006	-55.265	-50.193	105.320	-53.056	-8191	255	
1682.488	1	1	0	0	0.20423	0.10785	0.20547	0.15266	0.13782	0.087084	0.36692	0.28836	0.13432	0.074008	0.18254	0.193	0.20166	0.031915	0.21185	0.18849	-2.1458	-3.1854	-2.9479	-2.8125	-3.3854	-2.9062	-3.1646	-3.6042	-2.7333	-3.325	-3.1417	-2.7479	-3.575	-2.8896	-2.9583	-3.5312	44.606	184.780	-74.988	-38.243	-11.919	158.726	225.410	240.449	271.550	263.033	199.732	280.717	224.145	-26.191	129.399	233.850	0.0010061	0.00026482	0.00018428	723.6	5.344e-06	1.3722e-06	1159.6	265.5	1.2001e-05	4.0215e-06	489.11	171.24	93.918	28.8	8.9022e-06	61.278	0.00074889	0.00075302	0.00020974	740.25	8.2482e-06	8.2479e-06	1089	260.41	8.2798e-06	8.2887e-06	455.63	155.55	96.103	30.794	8.2934e-06	56.787	112.273	190.840	31.259	-63.818	-3.235	0.188	-64.931	-59.475	175.794	226.912	-61.282	-56.915	-54.501	-50.220	25.210	-52.925	-8191	255	
1682.584	1	1	0	0	0.092626	0.14966	0.20944	0.17003	0.017928	0.095674	0.29301	0.1144	0.17283	0.073328	0.21546	0.13084	0.1584	0.22376	0.27302	0.13497	-2.3958	-3.2	-3.2562	-2.6312	-3.3021	-3.1188	-2.8812	-3.6437	-2.6354	-3.2271	-3.2625	-2.8771	-3.3854	-3.1104	-2.5417	-3.5667	160.953	187.257	-20.386	-49.742	-72.084	255.443	146.675	-12.614	207.308	14.928	202.432	256.590	205.386	250.259	204.241	241.771	0.0010037	0.0019107	0.00048487	721.91	2.8915e-06	4.1886e-06	1156.9	264.38	2.2507e-05	1.0395e-05	487.53	169.73	93.388	28.955	7.7828e-06	60.898	0.00075516	0.00076242	0.00021069	739.63	8.2978e-06	8.3407e-06	1085	260.01	8.306e-06	8.2733e-06	455.11	154.76	95.982	30.639	8.2721e-06	56.407	13.727	12.586	209.041	-64.195	64.869	276.382	-64.588	-58.934	84.018	50.322	-61.190	-56.664	-55.371	-50.217	-26.409	-52.981	-8191	255	
1682.704	1	1	0	0	0.14661	0.053979	0.11759	0.25926	0.17052	0.2541	0.041476	0.13168	0.16272	0.41121	0.23701	0.26034	0.029767	0.26345	0.24114	0.13149	-2.2562	-3.1625	-3.525	-2.6667	-3.3083	-3.0604	-2.9167	-3.6229	-2.8063	-2.9354	-3.4396	-2.7562	-3.4	-3.1896	-2.6208	-3.3333	153.011	190.031	46.736	168.900	30.797	268.607	177.961	-9.070	143.732	-37.676	-53.932	239.420	87.814	270.534	-18.330	179.317	0.0007065	0.0017722	3.0713e-05	724.38	1.2077e-05	1.5688e-05	1169.8	266.86	3.1564e-06	8.6533e-06	479.87	170.29	93.228	28.782	4.8737e-06	60.932	0.00075554	0.00075061	0.00020945	737.84	8.2453e-06	8.2663e-06	1090.1	260.61	8.2517e-06	8.2586e-06	453.97	154.84	95.9	30.592	8.2392e-06	56.569	62.284	185.990	163.241	-63.985	46.280	18.727	-65.162	-59.225	-69.261	119.085	-61.747	-56.949	-55.006	-50.554	201.575	-53.346	-8191	255	
1682.800	1	1	0	0	0.18589	0.23165	0.15544	0.12373	0.10019	0.084418	0.31291	0.12377	0.13615	0.20673	0.20843	0.14145	0.12645	0.1805	0.2413	0.20666	-2.3896	-2.8917	-3.4188	-2.7583	-3.2687	-3.2021	-2.6729	-3.3958	-2.9042	-2.8625	-3.4958	-2.8854	-3.2979	-3.075	-2.7854	-3.4917	147.455	-36.147	212.292	-58.535	169.785	-27.808	208.586	243.892	-29.799	11.808	-73.662	200.677	236.000	66.076	88.338	234.476	0.00056632	0.00046167	0.00014698	720.62	1.131e-05	1.3441e-05	1171.1	266.12	8.7254e-06	1.8775e-06	490.04	169.62	92.954	28.836	1.1987e-05	61.176	0.00074566	0.00075332	0.00020886	737.95	8.2591e-06	8.1673e-06	1089.3	260.28	8.2399e-06	8.234e-06	455.68	154.88	96.303	30.645	8.2627e-06	56.579	104.827	214.239	-13.087	-64.202	53.510	93.778	-64.776	-59.398	-5.946	102.086	-61.439	-57.380	-55.461	-50.384	82.199	-52.999	-8191	255	
1682.897	1	1	0	0	0.15855	0.18175	0.17955	0.11192	0.072498	0.1913	0.10269	0.083967	0.20101	0.11501	0.20046	0.22082	0.12955	0.12532	0.26571	0.26884	-2.5229	-2.8375	-3.3958	-2.6604	-2.9146	-3.3	-2.6667	-3.3854	-2.9688	-2.8792	-3.4938	-2.7375	-3.1	-3.4479	-2.675	-3.4792	231.965	264.547	-30.628	-74.477	42.108	-28.851	203.793	186.451	84.701	156.224	268.778	277.462	146.945	211.790	75.206	240.216	0.0010707	0.00058751	0.00026005	719.02	5.649e-06	1.1121e-05	1173.7	266.62	9.7817e-06	6.565e-06	490.42	169	93.469	29.033	7.1166e-06	60.955	0.00074883	0.00075267	0.00020933	741.09	8.2499e-06	8.207e-06	1092.2	261.46	8.2255e-06	8.2135e-06	456.15	154.56	95.783	30.717	8.2921e-06	56.809	122.683	-34.584	222.473	-64.070	-1.237	70.177	-65.490	-59.401	136.576	58.514	-62.081	-57.287	-55.418	-50.692	91.493	-53.031	-8191	255	
1682.993	1	1	0	0	0.21412	0.12625	0.25783	0.21184	0.19298	0.168	0.21629	0.11092	0.15011	0.33171	0.1235	0.3088	0.077739	0.17015	0.07468	0.26247	-2.5542	-2.6479	-3.4167	-2.7687	-2.8542	-3.3042	-2.8917	-3.2958	-3.1917	-2.6125	-3.3688	-2.925	-2.9688	-3.3542	-2.7854	-3.2188	166.000	-23.164	79.196	151.475	-77.233	240.006	228.004	226.268	-8.618	19.682	110.034	-27.723	110.052	-9.419	-35.619	278.434	0.0012936	0.00034383	0.00019969	723.03	7.2498e-06	8.5158e-06	1164.2	265.56	8.9933e-06	1.9314e-05	487.72	167.86	92.229	28.955	8.2653e-06	61.475	0.00074926	0.00075645	0.00020965	742.64	8.2522e-06	8.2726e-06	1087.5	260.4	8.2582e-06	8.1984e-06	454.68	153.36	95.776	30.51	8.239e-06	56.569	114.345	276.441	-10.971	-64.614	-35.294	66.120	-65.285	-59.355	-19.784	-51.677	-61.634	-56.979	-54.845	-50.418	64.280	-53.751	-8191	255	
1683.089	1	1	0	0	0.30592	0.28633	0.23775	0.12991	0.16579	0.056502	0.2742	0.18359	0.25109	0.058823	0.022616	0.28665	0.15781	0.22096	0.25159	0.11625	-2.9125	-2.5625	-3.3333	-2.8271	-2.7875	-3.3729	-2.8354	-3.2646	-3.2	-2.6562	-3.4771	-2.9521	-2.7646	-3.3854	-2.6625	-3.3083	72.682	232.050	220.181	2.124	32.856	-38.370	196.553	161.855	86.036	58.027	49.299	203.095	257.966	33.513	-72.937	-75.970	0.00080122	0.0011457	0.00028278	723.14	8.2777e-06	1.5155e-05	1161.6	264.91	1.9165e-05	5.5774e-06	485.13	167.91	92.748	28.536	8.9644e-06	60.218	0.00075053	0.00075257	0.00021084	740.31	8.2155e-06	8.1866e-06	1086.5	259.73	8.2357e-06	8.2291e-06	452.48	153.31	95.518	30.479	8.2117e-06	56.218	12.531	248.420	3.669	-64.153	256.069	81.937	-65.576	-59.440	98.710	62.388	-61.843	-57.525	-55.055	-50.170	1.063	-53.464	-8191	255	
1683.185	1	1	0	0	0.13144	0.1213	0.083215	0.15734	0.04	0.051292	0.23575	0.29227	0.2158	0.43479	0.17554	0.29087	0.11819	0.19375	0.16166	0.086507	-2.8729	-2.5021	-3.4062	-3.0354	-2.6583	-3.3438	-2.8042	-3.1167	-3.4042	-2.5583	-3.2562	-3.1583	-2.775	-3.4396	-2.8125	-3.1167	-72.511	80.636	204.183	26.288	223.770	-44.106	176.011	252.926	171.073	60.381	272.948	279.924	251.645	206.241	57.117	20.692	0.00099624	0.0014515	0.00045534	730.37	1.2926e-05	2.7053e-05	1170.6	268.95	1.0624e-05	1.1317e-05	484.73	169.5	93.072	28.839	1.2372e-05	60.705	0.00074736	0.00074988	0.00021001	740.32	8.188e-06	8.2174e-06	1088.6	260.61	8.2439e-06	8.2207e-06	452.63	154.1	95.728	30.674	8.239e-06	56.586	112.184	172.707	202.636	-64.571	39.911	-0.498	-65.492	-59.580	144.686	146.419	-61.993	-57.452	-55.239	-50.183	-69.973	-53.651	-8191	255	
1683.304	1	1	0	0	0.25129	0.056195	0.2723	0.22859	0.3456	0.23796	0.32779	0.2054	0.13303	0.112	0.31293	0.073803	0.1025	0.13832	0.24176	0.20693	-2.9729	-2.5167	-3.3354	-3.1208	-2.6521	-3.45	-2.9667	-2.925	-3.4271	-2.625	-3.3771	-3.2854	-2.7458	-3.4333	-2.8646	-2.8417	205.820	263.619	164.599	262.017	128.309	161.674	238.192	146.166	189.629	239.859	-43.380	30.989	15.232	220.370	262.246	250.376	0.00075431	0.00069928	0.00028069	721.4	1.4e-05	4.0372e-06	1160.4	265.21	4.6658e-06	3.1081e-06	480.94	168.14	93.189	28.817	1.2682e-05	60.479	0.00075103	0.00075545	0.0002111	740.12	8.2272e-06	8.3398e-06	1085.4	260.07	8.3038e-06	8.2905e-06	452.92	153.94	95.841	30.79	8.3228e-06	56.563	69.021	175.143	169.005	-64.158	128.141	176.075	-65.675	-58.893	10.643	251.619	-61.248	-57.469	-55.172	-49.974	101.600	-53.511	-8191	255	
1683.400	1	1	0	0	0.068731	0.25103	0.055664	0.16591	0.093265	0.097365	0.20717	0.15115	0.030333	0.062352	0.13596	0.14798	0.042113	0.064439	0.13679	0.24114	-3.0854	-2.6312	-2.9917	-3.3812	-2.5125	-3.3292	-2.8854	-2.9271	-3.4292	-2.6188	-3.1312	-3.3604	-2.6271	-3.2896	-3.0708	-2.6333	-60.552	36.471	267.559	-73.436	118.073	-27.993	217.032	247.085	219.493	224.269	267.781	103.905	-25.672	179.872	183.206	204.802	0.0011103	0.00084553	0.00033904	727.53	8.5604e-06	3.3443e-06	1163.2	264.73	4.5017e-06	5.4952e-06	480.3	167.7	92.325	28.884	6.155e-06	60.617	0.00075878	0.00075477	0.00020978	741.55	8.3456e-06	8.315e-06	1085.2	260.07	8.3076e-06	8.306e-06	452.19	153.43	95.272	30.503	8.2832e-06	56.41	72.625	108.673	68.295	-64.138	-28.892	96.737	-64.886	-59.585	57.553	62.093	-61.668	-57.539	-55.184	-50.412	95.736	-53.173	-8191	255	
1683.472	1	1	0	0	0.37396	0.1347	0.31502	0.28278	0.05326	0.14562	0.17343	0.26895	0.12216	0.097125	0.21555	0.35275	0.14788	0.11095	0.10234	0.45154	-3.1917	-2.7	-2.9896	-3.3854	-2.7271	-3.25	-3.4958	-2.7438	-3.5667	-2.8146	-2.8792	-3.5229	-2.7313	-3.3229	-3.0771	-2.9833	169.904	131.571	-69.183	-22.914	26.100	164.565	-67.407	211.453	169.436	281.690	49.720	-22.725	226.413	60.332	256.000	237.333	0.0003001	0.0018109	0.00047522	719.69	1.0029e-05	1.0993e-05	1166.1	264.79	1.7405e-05	1.4124e-05	481.66	168.14	91.894	28.871	2.2145e-06	61.157	0.00075318	0.00075064	0.00020868	737.1	8.2426e-06	8.2205e-06	1085.4	258.92	8.2443e-06	8.2224e-06	450.74	153.37	95.131	30.609	8.1639e-06	56.246	209.669	277.103	238.390	-64.348	279.642	9.769	-65.607	-59.308	-6.285	129.006	-61.276	-57.500	-55.281	-50.521	-47.038	-53.179	-8191	255	
1683.568	1	1	0	0	0.18481	0.083908	0.12765	0.14777	0.10823	0.28134	0.20949	0.17069	0.25346	0.44395	0.1112	0.21663	0.075942	0.32769	0.13661	0.28121	-3.1437	-3.0354	-2.725	-3.4646	-2.7188	-3.0458	-3.4375	-2.6521	-3.3125	-2.8896	-2.9167	-3.6125	-2.7729	-3.2771	-3.3042	-2.7521	9.308	40.966	-56.751	-54.272	169.382	74.252	253.022	17.727	119.722	155.798	226.096	262.819	12.072	262.992	6.968	256.128	0.00047146	0.00088925	0.00030584	722.8	9.6563e-06	8.0505e-06	1168.3	262.47	2.3108e-06	7.682e-06	479.93	168.41	91.154	28.566	1.8957e-05	60.712	0.00074934	0.00075631	0.00020971	740.75	8.2384e-06	8.2631e-06	1085.6	258.51	8.3437e-06	8.2341e-06	453.04	153.71	95.641	30.54	8.2458e-06	56.274	14.893	222.815	110.662	-64.065	68.006	108.964	-65.313	-59.880	-54.135	256.032	-61.776	-57.021	-55.047	-49.595	74.255	-53.804	-8191	255	
1683.689	1	1	0	0	0.23685	0.098435	0.25524	0.15353	0.19305	0.041069	0.10286	0.079806	0.065052	0.067053	0.074992	0.22101	0.22672	0.11443	0.073949	0.21168	-3.1521	-3.0563	-2.6792	-3.6542	-2.8854	-3.0687	-3.4708	-2.4771	-3.2208	-3.1813	-2.7396	-3.525	-2.9458	-3.1625	-3.3729	-3	-66.398	199.976	124.221	238.182	217.288	236.071	123.752	162.772	263.792	101.792	127.669	184.236	195.637	252.990	269.698	-29.009	9.3001e-05	0.0022603	0.00032696	721.85	8.0971e-06	7.011e-06	1169.8	264.08	7.6844e-06	1.6158e-05	484.16	167.9	91.511	28.502	3.9441e-06	60.452	0.00075491	0.00075347	0.00020923	739.6	8.2349e-06	8.2718e-06	1089.8	259.7	8.3405e-06	8.3412e-06	454.63	153.78	95.494	30.676	8.3799e-06	56.366	46.211	84.455	-8.385	-64.194	273.319	88.311	-65.113	-59.235	8.671	23.801	-61.670	-57.031	-55.473	-50.806	2.348	-52.832	-8191	255	
1683.785	1	1	0	0	0.10196	0.061081	0.076576	0.25227	0.068002	0.059585	0.37574	0.28129	0.16	0.16807	0.37422	0.16099	0.11571	0.36849	0.19244	0.18195	-2.8583	-3.0458	-2.4792	-3.5021	-2.9062	-2.9021	-3.5625	-2.7354	-3.2771	-3.25	-2.5333	-3.5396	-2.8833	-3.0083	-3.2687	-2.8979	112.644	0.260	149.644	238.978	148.252	-54.202	233.417	-66.990	202.591	65.746	257.599	212.912	99.724	213.913	126.824	109.876	0.00067528	0.0020909	0.00033774	720.88	6.1741e-06	7.7857e-06	1166.6	265.13	9.5225e-07	7.4879e-06	487.58	166.92	92.587	28.966	7.6839e-06	59.896	0.00076426	0.00075947	0.00021437	742.35	8.3704e-06	8.3891e-06	1091	260.5	8.3902e-06	8.4249e-06	453.99	153.48	96.112	30.744	8.4164e-06	56.186	3.862	-28.641	215.981	-64.615	150.959	90.388	-65.595	-59.344	8.690	13.020	-61.851	-56.920	-55.634	-50.000	-56.896	-53.686	-8191	255	
1683.881	1	1	0	0	0.078455	0.21931	0.19581	0.12942	0.20531	0.3735	0.16706	0.21462	0.18553	0.23229	0.34012	0.36863	0.12263	0.041476	0.12448	0.11811	-2.6958	-3.425	-2.65	-3.5208	-3.1479	-2.7667	-3.5729	-2.7729	-2.9396	-3.25	-2.825	-3.4667	-3.1813	-2.8688	-3.3792	-2.8396	61.613	-4.837	90.305	242.883	165.211	-17.356	-17.510	218.815	89.417	76.644	216.300	251.315	186.978	127.251	278.520	264.671	0.00050202	0.0011829	0.00028002	720.31	7.2461e-06	1.0052e-05	1158.3	265.01	4.9986e-06	4.4476e-06	484.69	168.6	92.537	28.809	1.0497e-05	59.973	0.00077218	0.00076552	0.00021412	747.85	8.4342e-06	8.4076e-06	1088.4	261.37	8.4017e-06	8.3969e-06	455.32	153.74	95.652	30.833	8.4903e-06	56.327	240.182	179.159	131.815	-64.342	105.654	69.716	-65.259	-58.939	50.070	103.377	-61.205	-57.064	-55.501	-49.865	-29.171	-53.387	-8191	255	
1683.977	1	1	0	0	0.15368	0.25987	0.1366	0.063045	0.20543	0.10363	0.2542	0.045147	0.28363	0.15008	0.1145	0.24437	0.17908	0.35399	0.090336	0.34413	-2.6646	-3.2958	-2.6125	-3.4313	-3.1167	-2.8292	-3.5708	-2.9708	-3.0687	-3.5667	-2.8792	-3.4771	-3.2417	-2.7604	-3.3479	-3.0542	38.673	181.671	61.446	253.212	46.062	83.054	193.430	241.414	56.828	160.893	62.539	212.745	-44.356	276.926	116.911	197.116	0.0012068	0.00066068	0.00015639	724.73	6.5445e-06	8.9433e-06	1166.3	265.99	3.0387e-06	3.5141e-06	486.47	168.02	92.562	28.465	7.834e-06	60.664	0.00077002	0.00076693	0.00021486	748.74	8.4605e-06	8.419e-06	1095	262.04	8.5403e-06	8.4484e-06	455.63	153.91	96.118	30.82	8.4429e-06	56.633	76.125	114.160	19.915	-63.988	95.040	68.049	-65.225	-59.604	115.387	269.821	-61.609	-57.307	-55.579	-49.842	-42.464	-53.443	-8191	255	
1684.096	1	1	0	0	0.043357	0.10756	0.089068	0.10758	0.26556	0.099296	0.099153	0.28795	0.19443	0.13904	0.26748	0.27937	0.032648	0.14553	0.10496	0.35965	-2.3937	-3.5083	-2.6354	-3.2521	-3.275	-2.775	-3.4458	-3.0687	-2.7167	-3.4062	-2.8271	-3.1854	-3.3729	-2.7271	-3.4625	-3.0938	-69.167	67.789	183.232	247.688	268.417	168.816	230.884	280.020	-6.040	168.780	166.558	190.524	208.483	240.015	84.570	220.859	0.00077336	0.0012843	0.00034167	731.88	5.0771e-06	5.7831e-06	1176.3	268.21	3.4428e-06	4.826e-06	483.76	168.33	92.455	28.766	1.5207e-05	60.848	0.0007699	0.00077503	0.00021469	747.93	8.4382e-06	8.4397e-06	1099.9	262.95	8.4956e-06	8.5247e-06	457.84	154.3	96.267	31.017	8.6457e-06	56.937	21.894	196.791	-2.352	-64.140	90.020	67.459	-64.902	-59.917	232.398	-62.377	-61.140	-57.587	-55.127	-50.374	142.515	-53.533	-8191	255	
1684.169	1	1	0	0	0.074766	0.11904	0.12614	0.19352	0.15331	0.013401	0.16733	0.208	0.22363	0.094705	0.10464	0.20719	0.12889	0.25802	0.14946	0.16327	-2.3021	-3.5792	-2.9313	-3.0812	-3.3396	-2.65	-3.5375	-3.2042	-2.7562	-3.5708	-2.9167	-2.8604	-3.5438	-2.7542	-3.475	-3.3063	-47.248	152.973	247.359	187.457	114.421	113.880	252.079	268.726	232.972	92.149	129.680	242.011	-13.977	268.926	120.324	276.419	0.0011614	0.0008134	0.00035635	727.88	6.6931e-06	4.7836e-06	1174.4	265.74	6.9435e-06	1.1905e-05	485.04	168.9	92.248	28.718	2.2905e-05	60.211	0.00079114	0.00079691	0.00021887	756.48	8.6975e-06	8.7859e-06	1106.8	264.51	8.8719e-06	8.8685e-06	462.69	155.22	97.577	31.232	8.8917e-06	57.086	75.634	228.085	201.257	-63.676	249.389	-0.901	-65.545	-59.446	258.507	107.862	-61.903	-56.860	-54.978	-50.193	19.306	-52.850	-8191	255	
1684.265	1	1	0	0	0.083896	0.16549	0.14667	0.17979	0.2114	0.51212	0.10732	0.33979	0.22399	0.081937	0.22651	0.11795	0.18319	0.20569	0.22256	0.27341	-2.5438	-3.475	-2.7021	-2.9792	-3.4896	-2.9437	-3.3042	-3.2771	-2.6708	-3.3229	-3.0938	-2.7979	-3.3688	-2.6521	-3.1104	-3.3708	74.112	-48.027	170.719	237.652	240.222	22.317	139.004	236.084	-70.416	134.998	222.276	35.918	232.479	4.536	272.617	199.976	0.00092556	0.0021735	0.00023887	731.26	1.1451e-05	1.2172e-05	1174.4	265.39	6.5974e-06	2.0591e-05	479.9	166.56	91.145	28.614	1.2583e-05	59.808	0.00081169	0.0008151	0.00022585	761.11	8.8878e-06	8.8359e-06	1110.1	265.23	8.9192e-06	8.8691e-06	461.47	154.35	97.426	31.123	8.7898e-06	56.683	-1.230	138.078	-67.841	-64.257	12.007	149.155	-65.147	-59.703	-27.515	229.135	-61.262	-56.810	-55.415	-49.799	238.501	-53.357	-8191	255	
1684.384	1	1	0	0	0.23997	0.050409	0.26608	0.26803	0.15764	0.036593	0.17444	0.11672	0.12751	0.25933	0.32869	0.28615	0.1783	0.1097	0.1325	0.075158	-2.2938	-3.3167	-2.8292	-2.9667	-3.45	-2.7438	-3.3771	-3.3604	-2.8208	-3.4313	-3.1542	-2.8771	-3.4958	-2.7208	-3.0042	-3.4271	-12.961	97.536	66.366	238.533	-57.873	160.412	228.078	177.335	270.948	161.983	136.617	234.401	190.684	201.641	1.968	108.735	0.0015058	0.00098725	0.00021489	730.64	7.4791e-06	1.8135e-05	1178.4	265.42	4.4084e-06	4.7653e-06	479.73	167.34	91.431	28.221	1.1404e-05	59.863	0.00080067	0.00079655	0.00022207	755.43	8.6654e-06	8.6628e-06	1103.8	263.03	8.6112e-06	8.6515e-06	455.19	153.53	96.311	30.621	8.5443e-06	56.399	60.007	94.272	201.619	-64.059	33.030	118.238	-64.846	-58.863	93.897	88.814	-61.481	-57.019	-55.342	-50.008	100.177	-53.161	-8191	255	
1684.480	1	1	0	0	0.095546	0.092763	0.092452	0.081542	0.058972	0.12889	0.15049	0.24673	0.16602	0.18245	0.21696	0.28682	0.067951	0.13779	0.09423	0.29711	-2.1667	-3.4833	-3.1625	-2.7292	-3.5187	-2.7812	-3.0458	-3.5396	-2.8	-3.3042	-3.1937	-2.8083	-3.3479	-2.8479	-3.0438	-3.5042	96.079	8.692	-0.906	146.682	111.380	197.274	-57.534	191.820	277.114	189.512	172.918	-72.258	-26.105	187.296	93.472	279.979	0.00045023	0.0028592	0.00059581	734.8	1.7602e-05	3.7211e-06	1177.1	265.5	4.3267e-07	1.231e-05	485.61	168.03	91.452	28.714	1.4969e-05	60.015	0.00078152	0.00078389	0.00021844	753.34	8.5806e-06	8.5974e-06	1102.6	262.17	8.534e-06	8.5401e-06	457.09	153.68	95.656	30.641	8.5259e-06	56.321	279.913	60.054	272.157	-64.120	135.350	-22.551	-65.212	-59.275	-50.735	221.578	-61.492	-56.997	-54.461	-50.684	68.986	-53.121	-8191	255	
1684.577	1	1	0	0	0.015168	0.15888	0.051331	0.17309	0.21683	0.20377	0.46351	0.30193	0.096405	0.089334	0.13965	0.14946	0.1448	0.2253	0.2874	0.042139	-2.2208	-3.225	-3.2417	-2.7708	-3.3104	-2.9583	-2.8271	-3.5646	-2.7542	-3.3229	-3.2146	-2.7021	-3.4667	-3.0042	-2.625	-3.5729	90.956	80.215	226.472	-66.260	240.277	169.999	204.736	229.342	84.307	148.011	221.924	-6.277	178.680	167.415	257.884	31.071	0.00036708	0.00056904	0.00024798	734.65	1.534e-05	6.8494e-06	1168.8	264.87	1.3038e-05	2.027e-05	484.22	165.48	91.46	28.536	1.4383e-05	59.845	0.00077784	0.00077756	0.00021536	752.66	8.5457e-06	8.5274e-06	1099.8	262.65	8.4937e-06	8.5795e-06	456.4	152.91	96.295	30.823	8.5467e-06	56.163	-50.392	-48.703	82.920	-64.077	-48.034	55.754	-65.574	-59.366	80.267	27.979	-61.444	-57.082	-55.201	-49.856	15.542	-52.957	-8191	255	
1684.697	1	1	0	0	0.13366	0.22435	0.17295	0.22178	0.062093	0.15398	0.22417	0.25275	0.23017	0.060554	0.11684	0.24351	0.12329	0.10409	0.208	0.11398	-2.4208	-3.1396	-3.2271	-2.8167	-3.2917	-3.2021	-2.9833	-3.6104	-2.7333	-3.1146	-3.4542	-2.7875	-3.4188	-3.2354	-2.4479	-3.4958	-21.707	126.406	34.055	238.098	-16.387	92.581	-73.315	175.721	272.200	231.646	267.640	244.568	-76.907	-21.332	-76.769	253.474	0.00044259	0.001088	0.00018204	725.85	6.0783e-06	1.1063e-05	1180.5	264.19	6.5014e-06	1.2873e-05	483.96	166.67	90.72	28.479	7.7326e-06	59.713	0.0007834	0.00078681	0.00021821	754.34	8.5748e-06	8.6183e-06	1100.7	262.54	8.5904e-06	8.587e-06	457.52	153.68	96.075	30.723	8.6124e-06	56.62	203.664	34.142	252.428	-64.002	-17.991	161.203	-65.126	-59.550	105.734	148.655	-61.436	-57.175	-54.925	-49.557	175.779	-53.541	-8191	255	
1684.769	1	1	0	0	0.049663	0.13519	0.027373	0.3917	0.083768	0.067314	0.23084	0.054206	0.22141	0.089083	0.12742	0.095354	0.14188	0.19348	0.17544	0.31225	-2.4667	-2.8292	-3.2979	-2.6396	-3.2958	-3.1146	-2.8104	-3.5812	-2.8896	-2.925	-3.3229	-2.6354	-3.1979	-3.4333	-2.6688	-3.4813	-28.753	122.288	113.348	259.275	242.571	213.058	216.564	63.278	212.321	1.567	48.827	248.566	273.372	-55.862	150.671	232.148	0.00072334	0.0016999	0.00019752	738.23	4.4047e-06	3.2269e-06	1165.5	264.56	2.207e-06	8.4626e-06	488.17	166.83	92.049	28.545	7.281e-06	60.085	0.00078093	0.0007853	0.00021938	757.42	8.653e-06	8.6115e-06	1100.1	263.44	8.5708e-06	8.6345e-06	459.92	153.84	96.788	30.872	8.7921e-06	56.839	-20.686	22.852	11.595	-64.399	-70.159	258.371	-65.273	-59.089	-66.618	245.636	-61.414	-57.546	-54.665	-50.360	30.815	-53.052	-8191	255	
1684.865	1	1	0	0	0.10317	0.15114	0.18387	0.038168	0.08072	0.17985	0.28131	0.28177	0.056291	0.15674	0.12199	0.14412	0.35848	0.12344	0.27028	0.16122	-2.5125	-2.8312	-3.4354	-2.7438	-3.1312	-3.4	-2.6667	-3.3563	-2.7667	-2.8792	-3.5333	-2.9875	-3.175	-3.3979	-2.6333	-3.3083	247.007	106.798	34.884	-69.791	83.958	165.497	229.258	-60.039	87.553	265.072	247.877	274.788	226.281	212.144	274.289	247.522	0.00014638	0.00031426	0.0001583	727.86	1.7057e-05	9.3397e-06	1162.8	266.7	1.2077e-05	8.8567e-06	483.51	168.24	92.002	28.369	6.1487e-06	60.593	0.00079299	0.00079877	0.00022285	756.96	8.8538e-06	8.8143e-06	1105.1	265.59	8.7833e-06	8.8047e-06	463.35	154.98	97.244	31.093	8.8652e-06	57.352	159.560	-18.084	127.006	-64.365	8.993	65.995	-65.529	-59.242	142.921	-61.351	-61.088	-56.993	-55.238	-50.833	38.672	-53.478	-8191	255	
1684.986	1	1	0	0	0.12547	0.13658	0.15455	0.18268	0.3036	0.1463	0.20437	0.20371	0.21932	0.015267	0.12545	0.26741	0.099126	0.23306	0.053352	0.32619	-2.8042	-2.5708	-3.4437	-2.7875	-2.9771	-3.4313	-2.8563	-3.2875	-3.2667	-2.8125	-3.6708	-3.0938	-3.1417	-3.4271	-2.4854	-3.2896	188.642	-58.217	256.860	230.645	2.374	195.695	205.676	270.030	115.949	-42.987	-44.727	185.151	167.249	221.535	138.915	194.882	0.0011614	0.0013496	1.104e-05	730.83	2.8079e-06	2.0344e-05	1164.4	267.86	1.2876e-05	1.0326e-05	482.16	168.66	92.156	28.263	9.5991e-06	60.266	0.00080162	0.00080794	0.000225	757.98	8.743e-06	8.7667e-06	1104.8	266.46	8.8253e-06	8.8331e-06	462.87	154.96	97.166	31.036	8.8865e-06	56.966	98.529	-2.205	102.484	-64.260	108.370	240.673	-64.984	-59.552	-60.119	207.335	-61.892	-57.210	-54.884	-50.556	50.316	-52.916	-8191	255	
1685.082	1	1	0	0	0.14282	0.10066	0.1194	0.14358	0.30104	0.17639	0.11973	0.1532	0.14347	0.12044	0.25442	0.26997	0.43233	0.091351	0.068649	0.32578	-2.9479	-2.6396	-3.3333	-2.9208	-2.9729	-3.6312	-2.7771	-3.1167	-3.0458	-2.8312	-3.5583	-3.1417	-3	-3.5938	-2.95	-3.1854	-21.716	36.325	99.125	268.295	180.044	-1.486	-73.321	-76.773	220.070	209.905	200.575	-6.326	-71.739	14.225	-6.592	236.333	0.00054609	0.0012881	0.00018207	731.4	6.6309e-06	1.0905e-05	1165.1	267.69	9.1233e-06	3.4436e-06	485.14	166.51	92.21	28.456	2.1277e-05	60.401	0.0008018	0.0008111	0.00022532	757.66	8.8511e-06	8.822e-06	1105.1	265.35	8.7955e-06	8.8111e-06	462.82	154.5	97.354	31.151	8.7809e-06	56.95	227.588	95.047	-76.013	-63.952	-36.319	-74.997	-65.423	-59.583	240.641	29.564	-61.766	-56.974	-55.566	-50.174	-34.367	-52.914	-8191	255	
1685.178	1	1	0	0	0.025328	0.43763	0.1241	0.10391	0.24371	0.147	0.097191	0.32482	0.20909	0.34038	0.22821	0.19081	0.23293	0.12158	0.091061	0.39327	-2.8708	-2.775	-3.5021	-3.1125	-2.7833	-3.3312	-2.7583	-3.3229	-3.3021	-2.6229	-3.4104	-3.1437	-2.7479	-3.4188	-2.7167	-2.9542	153.153	146.730	149.500	-42.488	10.699	-71.909	270.857	242.501	265.807	142.330	269.937	278.217	246.778	120.368	111.072	239.554	0.00063784	0.0017114	0.00052627	729.32	9.649e-06	1.2947e-05	1172.6	267.23	1.3362e-05	9.6713e-06	489.01	168.34	92.603	28.861	2.159e-06	60.299	0.00080486	0.0008105	0.00022579	757.32	8.8572e-06	8.8795e-06	1109.8	266.69	8.8816e-06	8.8561e-06	464.48	155.25	97.626	31.224	8.9367e-06	57.205	20.111	173.650	154.988	-64.141	206.566	-41.631	-65.198	-59.304	180.084	101.730	-61.609	-57.142	-54.805	-49.918	-3.715	-53.129	-8191	255	
1685.272	1	1	0	0	0.066142	0.073113	0.22166	0.14203	0.10171	0.22712	0.18631	0.33629	0.16907	0.19831	0.1653	0.18972	0.07513	0.2551	0.11887	0.28514	-3.0167	-2.6604	-3.2146	-3.25	-2.6937	-3.4333	-2.8417	-3.2854	-3.4771	-2.7854	-3.2521	-3.3083	-2.7917	-3.5021	-2.9188	-2.8896	165.656	27.877	-36.242	12.558	-72.701	81.122	246.325	234.375	-5.902	180.486	-50.001	279.349	86.079	241.882	-31.921	226.155	0.0013557	0.00097463	0.00024119	727.54	3.5668e-06	1.9167e-05	1179.8	268.76	1.0609e-05	4.3066e-06	486.86	168	92.48	28.911	6.2838e-06	60.851	0.00080646	0.00081348	0.00022688	761.75	8.864e-06	8.9355e-06	1113.9	267.4	8.9069e-06	8.8775e-06	465.02	155.35	97.975	31.371	8.9076e-06	57.447	51.190	5.421	71.774	-64.479	94.609	73.870	-65.083	-58.977	168.969	270.214	-61.124	-56.901	-54.808	-50.072	-35.538	-52.578	-8191	255	
1685.346	1	1	0	0	0.2193	0.26852	0.21534	0.17846	0.17424	0.11602	0.24585	0.079281	0.07856	0.16413	0.24716	0.060405	0.011826	0.20047	0.24036	0.13122	-2.9562	-2.7125	-3.0667	-3.2646	-2.6333	-3.3083	-3.1771	-3.0333	-3.5292	-2.9229	-3.2625	-3.5021	-2.5854	-3.4292	-2.9813	-2.9437	197.590	107.048	172.316	-13.669	112.304	101.455	243.616	169.344	231.201	153.802	-66.631	62.244	-9.473	5.967	-6.627	163.290	0.00048284	0.001147	0.00013267	732.77	8.4796e-06	1.2695e-05	1176.6	269.22	8.2868e-06	2.3634e-06	484.06	168.05	92.364	29.439	1.6469e-05	60.9	0.000814	0.00081143	0.00022493	762.43	8.8954e-06	8.9291e-06	1110.1	267.08	8.8961e-06	8.9174e-06	464.02	155.55	97.977	31.695	8.8344e-06	57.351	260.053	155.999	115.920	-64.205	78.304	-34.131	-65.325	-58.890	-11.628	-25.593	-61.526	-56.739	-55.588	-50.183	219.686	-52.801	-8191	255	
1685.465	1	1	0	0	0.28899	0.3105	0.065513	0.40546	0.1465	0.094233	0.29856	0.4373	0.037803	0.083655	0.067924	0.16216	0.086727	0.35329	0.10261	0.327	-3.1146	-2.6562	-3.1542	-3.5292	-2.6688	-3.4146	-3.4938	-2.7562	-3.3042	-2.8333	-3.1354	-3.4646	-2.6125	-3.1917	-3.2438	-2.8896	-18.359	-41.871	103.162	125.187	119.591	2.226	260.427	220.332	83.240	61.003	196.274	-22.107	-49.422	247.975	205.763	275.490	0.0001009	0.00095449	0.00030272	727.49	2.9962e-06	7.8223e-06	1171.8	268.42	1.4004e-05	2.4177e-05	480.73	167.51	94.237	28.723	1.7504e-05	60.916	0.00081197	0.00081078	0.00022538	760.82	8.8887e-06	8.8603e-06	1107.1	266.31	8.9153e-06	8.831e-06	460.64	154.88	98.332	31.481	8.8438e-06	57.183	131.287	209.881	48.977	-64.043	205.261	64.321	-64.937	-59.015	128.135	263.332	-61.772	-57.091	-55.021	-50.063	-51.993	-52.525	-8191	255	
1685.561	1	1	0	0	0.12251	0.18258	0.074435	0.37749	0.1916	0.17788	0.27956	0.20187	0.12928	0.2151	0.2339	0.16243	0.18019	0.14284	0.26734	0.1906	-2.9646	-2.8312	-2.8688	-3.4625	-2.7667	-3.1708	-3.4208	-2.75	-3.4167	-2.9958	-3.0646	-3.5208	-2.7771	-3.1167	-3.1813	-2.7208	125.023	118.026	-76.326	230.422	150.024	-66.932	152.918	204.662	158.987	54.168	-26.227	-25.497	169.988	225.339	27.172	258.787	0.0005524	0.0017926	9.2985e-05	731.07	2.2546e-05	8.9253e-06	1163.1	266.83	7.659e-06	2.567e-05	484.45	167.6	92.286	28.863	1.57e-05	60.828	0.00081206	0.00081024	0.00022554	760.59	8.815e-06	8.8098e-06	1103.4	265.18	8.9303e-06	8.8018e-06	462.26	155.65	98.141	31.43	8.8568e-06	57.372	-23.253	33.854	146.494	-63.943	67.258	274.828	-64.915	-58.897	259.423	124.773	-61.592	-57.262	-55.059	-49.770	60.630	-52.954	-8191	255	
1685.657	1	1	0	0	0.15944	0.39858	0.019382	0.11523	0.13409	0.10193	0.2971	0.047225	0.080463	0.28072	0.20751	0.19522	0.17552	0.25196	0.13423	0.24135	-2.9188	-2.8979	-2.7354	-3.3771	-2.6167	-3.1917	-3.4729	-2.7333	-3.5062	-3.1958	-2.8521	-3.5667	-3.0125	-3.1104	-3.3396	-2.8125	-74.519	21.533	10.351	273.690	277.758	-54.540	204.282	259.705	172.670	19.832	226.404	-75.279	-42.447	237.610	115.808	195.712	8.1551e-05	0.0020842	7.2175e-05	726.93	1.3675e-05	2.0975e-05	1171.9	269.35	1.2315e-05	2.1222e-05	482.51	168.33	93.037	28.931	1.3444e-05	60.814	0.00081309	0.00080955	0.0002264	757.81	8.9274e-06	8.934e-06	1107.6	266.45	8.9283e-06	8.8574e-06	462.47	156.06	98.307	31.496	8.8925e-06	57.661	-49.715	-30.594	-57.152	-64.054	39.833	229.302	-65.171	-59.311	-25.105	227.323	-61.390	-56.842	-54.583	-49.203	19.803	-52.798	-8191	255	
1685.778	1	1	0	0	0.25041	0.29879	0.16985	0.28806	0.23149	0.053658	0.1366	0.29635	0.12325	0.22075	0.36863	0.16789	0.27765	0.24616	0.11	0.12335	-2.7625	-3.0396	-2.7146	-3.4208	-2.8396	-3.05	-3.6417	-2.8021	-3.3167	-3.1312	-2.7292	-3.5208	-2.8542	-2.8979	-3.4021	-2.7625	22.285	104.866	181.951	237.272	253.855	-3.870	263.095	220.220	148.704	12.478	251.793	243.293	-69.472	187.016	55.549	214.693	0.00049432	0.0011074	0.00014272	727.76	1.4719e-05	5.4254e-06	1171.6	268.61	1.1946e-05	2.1665e-05	487.85	168.78	92.851	29.039	1.0745e-05	60.175	0.00081573	0.00080999	0.00022711	760.98	8.9146e-06	8.9327e-06	1105.5	267.31	8.9309e-06	8.9055e-06	463.55	156.02	97.829	31.602	8.9272e-06	57.324	72.856	73.025	220.205	-63.984	168.245	103.802	-65.194	-59.107	-51.206	155.603	-60.580	-56.667	-55.246	-49.784	20.494	-52.641	-8191	255	
1685.874	1	1	0	0	0.090271	0.038507	0.19588	0.11989	0.23505	0.095638	0.16299	0.2456	0.18607	0.18114	0.11697	0.19951	0.025858	0.21387	0.13024	0.15923	-2.7667	-3.1958	-2.5417	-3.3271	-3.1229	-2.8	-3.5167	-2.7292	-3.2	-3.3854	-2.7687	-3.5667	-3.2438	-2.7917	-3.5104	-2.8896	-3.967	9.844	257.915	141.563	234.435	113.328	182.220	277.401	24.042	256.331	189.629	225.001	249.164	277.827	97.728	117.452	0.00063791	0.0002806	0.00013739	730.65	4.8842e-06	9.0807e-06	1163.4	266.9	5.238e-06	1.12e-05	481.75	169.8	92.534	28.912	1.0606e-05	60.181	0.0008112	0.00081526	0.00022772	759.35	8.9147e-06	8.9362e-06	1105.4	266.48	8.9824e-06	8.948e-06	462.79	156.08	97.748	31.543	8.9564e-06	57.426	138.392	-3.677	96.059	-64.692	228.741	233.277	-64.996	-58.966	3.796	158.758	-60.937	-56.525	-55.076	-49.502	-27.656	-52.987	-8191	255	
1685.970	1	1	0	0	0.40654	0.1456	0.14332	0.16338	0.24221	0.14214	0.15092	0.40211	0.20456	0.10715	0.02343	0.19372	0.0645	0.10726	0.08869	0.2303	-2.6271	-3.3875	-2.8292	-3.4896	-3.0396	-2.8625	-3.65	-2.7958	-2.9958	-3.3896	-2.6104	-3.2667	-3.1354	-2.7125	-3.5271	-2.9354	-37.480	268.450	73.282	274.382	276.327	12.383	278.258	175.949	157.180	65.026	51.545	-57.112	272.704	-5.289	-48.681	224.820	0.0013181	0.00085711	0.00036735	725.29	3.9903e-06	1.0053e-05	1169.5	267.91	8.8359e-06	6.7627e-06	488.17	168.88	93.362	29.238	7.0121e-06	61.241	0.0008132	0.00081192	0.00022739	756.94	8.791e-06	8.9379e-06	1105.4	266.18	9.0026e-06	8.9767e-06	464.43	156.64	98.38	31.838	9.0366e-06	57.818	95.746	194.793	20.963	-63.756	-46.892	135.672	-64.850	-58.984	-56.961	251.189	-60.601	-56.885	-54.573	-49.125	12.781	-52.850	-8191	255	
1686.066	1	1	0	0	0.082579	0.16058	0.23142	0.10727	0.17269	0.26207	0.36138	0.27346	0.11189	0.30106	0.28294	0.27527	0.20859	0.14244	0.37544	0.055616	-2.4625	-3.3917	-2.5687	-3.3708	-3.2354	-2.8396	-3.575	-2.9958	-2.9167	-3.4104	-2.9437	-3.2896	-3.3937	-2.8021	-3.3646	-3.2417	6.314	270.709	39.102	-21.582	116.361	213.960	265.491	178.889	223.952	-17.112	274.308	251.754	275.027	224.561	65.960	89.020	0.0010441	0.0020411	0.00016066	724.12	8.2595e-06	1.0691e-05	1162.2	267.47	8.4006e-06	6.2266e-06	489.28	169.8	93.647	29.109	2.2981e-06	60.954	0.00081666	0.00082106	0.00022822	757.8	9.0076e-06	9.0048e-06	1106.7	267.93	8.9824e-06	8.9836e-06	466.86	156.82	98.652	31.689	8.9709e-06	57.914	30.521	12.819	132.114	-63.852	-0.454	38.217	-64.545	-59.227	168.848	188.960	-61.075	-56.317	-54.881	-49.444	155.139	-52.270	-8191	255	
1686.162	1	1	0	0	0.14156	0.20217	0.23558	0.13971	0.10034	0.26947	0.30594	0.060178	0.10882	0.12028	0.12705	0.38979	0.082042	0.35853	0.1025	0.20129	-2.6083	-3.3833	-2.7083	-3.3208	-3.2708	-2.7354	-3.55	-3.0875	-2.8292	-3.4667	-2.8729	-3.0271	-3.2396	-2.6583	-3.4083	-3.0812	-28.139	106.545	-17.534	17.113	37.554	-14.465	225.662	238.915	179.152	268.178	69.975	197.088	-11.368	243.580	216.000	-68.001	0.0010362	0.00036725	0.00010791	730.93	1.6149e-05	9.4261e-06	1168.7	267.72	6.8972e-06	1.9378e-05	487.8	168.64	92.977	28.971	1.16e-05	60.672	0.00081406	0.00082215	0.00022897	760.36	8.9459e-06	9.0535e-06	1108.1	267.02	9.015e-06	9.0134e-06	465.42	156.35	98.336	31.617	9.0165e-06	57.573	-3.121	107.581	-63.320	-63.511	110.715	-60.077	-64.802	-58.900	281.220	73.562	-60.512	-56.299	-54.562	-49.633	96.135	-53.004	-8191	255	
1686.258	1	1	0	0	0.21049	0.237	0.014828	0.3135	0.17563	0.29046	0.090705	0.18638	0.098694	0.37672	0.14021	0.10911	0.2119	0.06964	0.037651	0.30411	-2.2625	-3.4375	-2.7771	-3.0229	-3.5062	-2.7396	-3.3896	-3.3625	-2.7729	-3.6042	-2.9313	-3.025	-3.6063	-2.7292	-3.2854	-3.25	141.528	139.514	218.803	256.579	176.462	-32.676	98.403	200.891	238.105	166.357	74.775	-45.289	-48.380	64.606	44.972	214.974	0.00059077	0.0004017	0.00030959	726.39	3.5749e-06	1.0047e-05	1165.3	269.57	7.1581e-06	9.266e-06	488.87	168.43	93.153	28.979	1.2533e-05	60.689	0.000818	0.00082397	0.00022733	760.28	8.9656e-06	9.028e-06	1107	267.47	8.9295e-06	9.0544e-06	465.03	156.1	98.161	31.574	8.9451e-06	57.581	88.759	104.609	90.908	-63.766	186.430	67.491	-64.961	-58.816	-36.342	-0.510	-60.751	-56.635	-54.737	-49.741	9.760	-52.348	-8191	255	
1686.377	1	1	0	0	0.3245	0.085513	0.20213	0.028518	0.22349	0.049822	0.14681	0.11015	0.11081	0.1333	0.10877	0.47226	0.14605	0.38948	0.16161	0.11223	-2.2833	-3.4708	-2.8667	-2.8854	-3.3208	-2.7021	-3.3875	-3.3875	-2.6479	-3.3521	-3.0271	-2.8521	-3.4562	-2.7146	-3.05	-3.6	148.559	176.674	159.772	-61.510	272.357	21.776	17.471	161.467	37.257	167.750	-41.400	201.528	235.789	257.702	-19.727	247.831	0.00073496	0.0007501	0.00029602	722.75	9.2244e-06	8.8709e-06	1169.6	267.47	1.4864e-05	2.0307e-05	482.83	169.37	93.28	29.1	2.6397e-05	61.101	0.00081376	0.00081757	0.00022601	757.91	8.9034e-06	8.9303e-06	1103.9	266.39	8.8666e-06	8.8791e-06	462.8	155.84	98.021	31.521	8.9246e-06	57.536	111.599	23.609	205.115	-63.597	144.274	84.007	-64.542	-58.825	154.957	218.924	-61.639	-56.753	-54.576	-49.446	23.240	-52.415	-8191	255	
1686.473	1	1	0	0	0.22918	0.20372	0.14501	0.25218	0.056366	0.26752	0.24511	0.14742	0.23769	0.22766	0.09136	0.07792	0.24894	0.094435	0.095558	0.043876	-2.4271	-3.2083	-3.1208	-2.8146	-3.3896	-2.8063	-3.1437	-3.5229	-2.6625	-3.3542	-3.0521	-2.7167	-3.625	-2.8417	-2.9646	-3.6292	249.573	183.287	-77.291	-46.700	117.116	-11.951	230.065	2.570	18.925	70.449	55.294	194.021	220.499	270.666	-23.071	87.791	0.00065837	0.0015903	0.00046539	731.9	1.0775e-05	8.34e-06	1177.5	267.36	7.2231e-06	1.4998e-05	484.62	168.24	92.892	29.034	1.3526e-05	60.966	0.00080784	0.00081189	0.00022525	761.02	8.9348e-06	8.8784e-06	1111.7	266.82	8.8892e-06	8.8561e-06	463.96	155.73	97.933	31.587	8.8482e-06	57.509	90.643	226.976	104.557	-63.211	149.330	275.146	-64.402	-59.412	156.454	41.474	-61.418	-56.697	-54.407	-49.420	1.236	-52.316	-8191	255	
1686.570	1	1	0	0	0.20667	0.21071	0.035657	0.11648	0.19006	0.27993	0.17652	0.30225	0.26243	0.11571	0.25241	0.23291	0.28257	0.14342	0.17693	0.20882	-2.3083	-3.3104	-3.0979	-2.7083	-3.5125	-2.7875	-3.1271	-3.4875	-2.8521	-3.3229	-3.4542	-2.7125	-3.5667	-3.1063	-2.8875	-3.5208	33.649	47.791	56.594	250.046	46.019	94.833	203.896	264.974	129.771	283.224	-54.203	226.659	239.595	-32.070	-73.484	-59.677	0.00083462	0.00072336	0.00031636	729.19	3.7194e-06	3.3192e-06	1167.1	269.35	6.7583e-06	1.308e-05	479.85	167.98	92.769	29.155	8.8982e-06	60.311	0.0008086	0.00080988	0.00022423	757.5	8.8125e-06	8.7754e-06	1105.2	267.01	8.779e-06	8.8625e-06	460.47	155.42	97.856	31.367	8.8206e-06	57.125	62.416	220.275	-71.789	-63.989	18.636	-51.515	-64.512	-58.773	260.729	94.568	-60.927	-56.673	-54.782	-49.633	60.196	-52.559	-8191	255	
1686.641	1	1	0	0	0.18171	0.20581	0.21014	0.22339	0.023592	0.10939	0.22266	0.20238	0.10959	0.2317	0.031319	0.17232	0.12286	0.14585	0.22834	0.093056	-2.3792	-3.0479	-3.2333	-2.9021	-3.3083	-3.1625	-2.9542	-3.4583	-2.8917	-3.0333	-3.55	-2.7625	-3.4792	-3.1125	-3.0146	-3.5229	97.978	204.742	140.033	189.299	227.024	-65.416	234.355	239.307	96.356	23.770	182.433	199.411	233.700	74.692	19.551	197.267	0.0011273	0.0013344	0.00024129	733	1.6181e-05	1.0962e-05	1168.3	267.37	8.7912e-06	1.0376e-05	479.05	168.11	93.477	29.24	1.1686e-05	60.996	0.0008052	0.00080196	0.00022342	757.91	8.8479e-06	8.79e-06	1102.3	265.96	8.7827e-06	8.7993e-06	460.31	155.55	97.907	31.429	8.8204e-06	57.223	89.450	103.590	135.202	-63.699	-4.153	39.218	-64.758	-59.067	68.968	55.181	-61.268	-56.822	-55.232	-49.468	85.125	-52.820	-8191	255	
1686.762	1	1	0	0	0.21639	0.098084	0.15815	0.14174	0.13478	0.14745	0.24613	0.12082	0.025293	0.20456	0.052241	0.17396	0.12995	0.17926	0.14258	0.20066	-2.4146	-2.9604	-3.4479	-2.6937	-3.4083	-3.2479	-2.9271	-3.5312	-2.7062	-2.9896	-3.5563	-2.7979	-3.3083	-3.3063	-2.7021	-3.6521	105.278	225.407	280.883	-65.615	113.376	100.020	212.313	217.955	-70.192	96.704	122.706	278.412	-75.979	256.139	180.967	121.571	0.0005027	0.00037063	0.00040089	728.35	1.8392e-05	2.2314e-05	1160.5	267.32	1.5881e-05	3.6059e-06	483.68	168.35	92.487	28.864	7.1127e-06	60.87	0.00080162	0.00080517	0.00022535	756.91	8.7577e-06	8.7731e-06	1101	266.27	8.7507e-06	8.7682e-06	461.17	155.17	97.601	31.554	8.8263e-06	57.524	41.305	218.566	263.294	-63.921	34.911	118.114	-64.820	-58.853	181.606	125.657	-61.176	-56.984	-54.784	-49.663	279.990	-52.280	-8191	255	
1686.858	1	1	0	0	0.28875	0.16167	0.19783	0.29823	0.10858	0.16529	0.16651	0.055759	0.15236	0.021636	0.089007	0.16074	0.079673	0.099414	0.049867	0.054913	-2.5687	-2.8667	-3.4729	-2.7542	-3.2146	-3.0542	-2.8021	-3.4167	-3.1	-2.8583	-3.7333	-2.9521	-3.0187	-3.2958	-2.6729	-3.4021	114.319	-19.085	65.006	268.489	-27.400	85.319	222.493	-41.852	-5.939	266.771	43.528	245.615	216.861	206.883	47.448	183.292	0.00041843	0.0019063	0.00018919	723.7	9.4339e-06	1.1933e-05	1176.9	266.96	8.0964e-06	8.8106e-06	486.72	168.68	91.999	29.202	2.5648e-05	61.163	0.00079822	0.00080587	0.00022425	756.34	8.8057e-06	8.8105e-06	1106.4	266.04	8.827e-06	8.8467e-06	462.5	155.62	97.954	31.67	8.8653e-06	57.498	81.071	25.461	37.102	-63.987	-16.800	-27.621	-64.601	-58.875	18.215	-71.123	-61.076	-56.664	-54.945	-49.793	62.432	-52.517	-8191	255	
1686.954	1	1	0	0	0.20372	0.044198	0.063558	0.19483	0.29982	0.23625	0.26981	0.25264	0.11615	0.12612	0.19554	0.21088	0.26297	0.027325	0.21413	0.12764	-2.6896	-2.6437	-3.3583	-2.8854	-2.9208	-3.4104	-2.8438	-3.3104	-2.9062	-2.825	-3.4688	-3.0417	-2.8583	-3.3625	-2.6979	-3.2229	152.431	42.227	61.099	260.670	-32.064	230.582	215.988	257.283	-40.808	193.792	250.888	242.534	236.569	54.004	-4.549	149.061	0.0015191	0.00089454	0.00047419	722.76	7.1317e-06	4.3496e-06	1159.6	266.44	7.5363e-06	1.079e-05	486.01	168.4	92.583	28.85	1.0755e-06	60.511	0.00080383	0.00080878	0.00022598	756.84	8.8214e-06	8.907e-06	1101.2	265.88	8.8189e-06	8.8557e-06	463.8	154.87	98.191	31.566	8.8581e-06	57.217	149.434	49.354	34.647	-63.467	18.452	108.925	-64.829	-58.909	172.779	188.011	-61.611	-56.325	-54.533	-49.921	246.961	-52.163	-8191	255	
1687.050	1	1	0	0	0.13502	0.11626	0.11325	0.30495	0.19749	0.12887	0.20697	0.32377	0.068759	0.19294	0.066509	0.28464	0.080453	0.24881	0.013297	0.20588	-2.7229	-2.4875	-3.4313	-2.8708	-2.8292	-3.4125	-2.825	-3.4396	-3.1437	-2.5833	-3.4854	-2.9562	-2.8833	-3.5167	-2.7146	-3.1688	141.746	3.882	266.179	238.411	-53.035	150.800	271.597	222.898	248.474	175.442	-66.726	251.131	-24.788	-13.689	83.507	279.062	0.00089172	0.00097095	0.00020835	724.33	1.1965e-05	1.2635e-05	1161.8	266.23	6.5778e-06	1.1049e-05	484.92	166.89	93.103	29.102	2.0382e-05	60.516	0.00080274	0.00080879	0.00022585	756.34	8.8065e-06	8.8146e-06	1098.3	265.15	8.8033e-06	8.8399e-06	462.73	154.32	97.867	31.474	8.8617e-06	57.148	193.794	103.727	153.597	-63.419	87.670	141.347	-64.888	-59.555	0.592	105.064	-60.623	-56.657	-54.703	-49.667	-66.384	-52.635	-8191	255	
1687.169	1	1	0	0	0.11903	0.23716	0.082525	0.16762	0.14602	0.2187	0.2815	0.10584	0.084776	0.12792	0.086525	0.28016	0.15156	0.25979	0.12309	0.26752	-2.9104	-2.5187	-3.5062	-2.7917	-2.8417	-3.4229	-2.8771	-3.1875	-3.2396	-2.6104	-3.3937	-3.2604	-2.8854	-3.3479	-2.7646	-3.025	14.170	-45.582	63.292	246.192	79.282	270.554	224.555	-63.572	213.943	168.671	235.053	-16.127	17.215	-2.516	-42.839	196.546	0.00108	0.0013328	0.00017489	725.13	9.7345e-06	7.5181e-06	1163.1	268.26	3.7025e-06	2.784e-06	481.18	168.48	92.396	29.189	7.5459e-06	61.282	0.00080246	0.00081391	0.0002281	757.06	8.8805e-06	8.9339e-06	1095.8	265.77	8.8262e-06	8.9215e-06	461.44	155.32	97.937	31.607	8.938e-06	57.437	124.907	22.187	-33.853	-63.924	207.358	263.284	-64.637	-58.873	68.164	126.335	-60.917	-56.851	-54.686	-49.131	-65.945	-52.933	-8191	255	
1687.265	1	1	0	0	0.16862	0.18069	0.14433	0.14338	0.041123	0.18213	0.085045	0.4337	0.062942	0.074936	0.26533	0.025096	0.11802	0.18115	0.11581	0.16294	-2.9958	-2.5792	-3.1458	-3.2708	-2.8063	-3.4292	-2.7125	-3	-3.5167	-2.5187	-3.4208	-3.4917	-2.7833	-3.5646	-2.7771	-2.8958	61.640	224.276	105.450	-56.143	38.800	237.087	144.238	251.494	255.225	199.179	229.110	192.586	157.937	224.021	-24.035	185.387	0.00036562	0.0015401	0.00013382	721.98	6.3593e-06	4.0945e-06	1157.9	268.18	1.606e-05	4.3736e-06	484.59	168.26	93.932	28.991	1.4585e-05	61.016	0.00081001	0.00080998	0.00022639	754.88	8.9017e-06	8.9431e-06	1101.2	265.88	8.8702e-06	8.8228e-06	463.4	155.84	98.202	31.5	8.8444e-06	57.478	25.999	80.909	124.503	-63.780	56.975	124.378	-65.145	-58.863	139.703	280.904	-61.299	-56.751	-54.001	-49.012	-69.085	-52.527	-8191	255	
1687.339	1	1	0	0	0.16979	0.16589	0.13153	0.1587	0.10692	0.37253	0.37671	0.4048	0.049739	0.074231	0.23699	0.18425	0.1036	0.23087	0.21295	0.12238	-2.8979	-2.6125	-3.2521	-3.2125	-2.5458	-3.4396	-3.0146	-2.9521	-3.4896	-2.7292	-3.1354	-3.4729	-2.6896	-3.3875	-2.9333	-2.8604	173.170	197.620	164.877	-33.773	222.806	-6.778	272.025	223.644	111.523	15.008	211.003	210.674	-37.522	217.021	152.566	187.670	0.00078883	0.0015667	0.00034503	722.83	7.1973e-06	8.9745e-06	1164.3	264.4	1.2456e-05	6.1042e-06	480.7	169.07	93.269	29.033	2.0875e-05	60.81	0.00080895	0.00081037	0.00022661	755.28	8.8723e-06	8.912e-06	1100.3	265.25	8.8837e-06	8.9178e-06	460.72	155.84	98.201	31.625	8.8196e-06	57.402	79.271	67.901	7.886	-64.486	21.367	118.248	-64.838	-58.776	123.900	195.446	-60.834	-57.039	-55.197	-49.942	175.037	-52.492	-8191	255	
1687.458	1	1	0	0	0.25191	0.13835	0.08152	0.17187	0.0087994	0.11372	0.23362	0.17342	0.08125	0.17296	0.12551	0.24797	0.18141	0.079676	0.14593	0.073243	-3.0042	-2.6229	-2.9396	-3.1396	-2.6292	-3.3229	-3.125	-2.9375	-3.3979	-2.8333	-3.1229	-3.4458	-2.8292	-3.1521	-3.2146	-2.8104	68.182	192.896	-42.980	-15.415	35.250	213.369	210.872	-63.068	240.246	-9.106	-73.834	256.217	273.190	-62.695	37.667	-41.136	0.00037204	0.00082421	6.3597e-05	723.35	8.419e-06	1.1422e-05	1144	266.46	8.8874e-06	6.6852e-06	481.72	168.75	93.751	29.124	7.2248e-06	60.611	0.00080795	0.00080425	0.0002255	757.19	8.8001e-06	8.8453e-06	1095.7	265.54	8.8332e-06	8.8563e-06	460.94	155.56	98.546	31.635	8.8135e-06	57.273	-72.948	-62.236	151.817	-63.842	223.203	-14.338	-65.071	-59.155	-51.643	-55.213	-60.874	-57.077	-54.203	-49.951	-31.485	-52.609	-8191	255	
1687.554	1	1	0	0	0.10291	0.081397	0.1408	0.13188	0.16085	0.042401	0.12415	0.17864	0.27961	0.13552	0.17461	0.14259	0.1796	0.20007	0.13828	0.094899	-2.9667	-2.875	-2.8208	-3.5	-2.7167	-3.3917	-3.0854	-2.8042	-3.3729	-2.7979	-2.9229	-3.4896	-2.5979	-3.1792	-3.2396	-2.8104	143.743	1.741	-39.364	201.275	215.922	-8.416	116.992	252.952	260.501	277.569	-75.963	83.812	229.474	281.647	140.769	265.681	0.0014852	0.0015243	0.00020702	727.41	3.6446e-06	3.6145e-06	1155.1	266.83	9.1341e-06	8.959e-06	483.14	168.84	93.726	29.335	1.2535e-05	61.121	0.00080951	0.00080477	0.00022594	755.17	8.8919e-06	8.8567e-06	1099.8	266.22	8.9135e-06	8.834e-06	462.44	155.9	98.634	31.675	8.8943e-06	57.649	54.859	257.472	111.715	-63.722	-61.908	-39.681	-65.180	-58.884	-39.816	245.341	-61.017	-57.162	-54.840	-49.353	46.577	-53.232	-8191	255	
1687.650	1	1	0	0	0.12554	0.19082	0.24606	0.23638	0.024083	0.063367	0.07031	0.24473	0.074859	0.18372	0.27425	0.2154	0.10875	0.12949	0.27437	0.17667	-2.8729	-2.8187	-2.8812	-3.3625	-2.7208	-3.0708	-3.4417	-2.7625	-3.3458	-2.9854	-2.9708	-3.6521	-2.6833	-3.0729	-3.2979	-2.6646	164.217	275.851	240.982	262.862	50.415	-14.339	-68.623	251.351	6.122	124.934	-64.170	249.314	62.737	209.242	217.377	249.348	0.00083959	0.0015858	0.00012011	724.58	8.9174e-06	1.5648e-05	1167.4	268.78	1.0612e-06	1.9987e-05	487.4	170.21	93.413	29.741	1.1514e-05	61.069	0.00082133	0.00081628	0.00022816	759.68	8.9326e-06	8.9538e-06	1105.4	267.56	9.0483e-06	8.9505e-06	466.08	157.2	99.128	31.976	9.0596e-06	58.169	36.219	17.170	96.427	-64.304	39.211	-22.283	-65.466	-59.422	102.637	114.643	-61.265	-57.082	-54.687	-50.182	-4.547	-52.643	-8191	255	
1687.746	1	1	0	0	0.27068	0.15901	0.2627	0.33883	0.22985	0.096807	0.18733	0.28285	0.37324	0.17715	0.13673	0.14052	0.27355	0.068226	0.11838	0.18163	-2.6854	-3.0958	-2.5062	-3.5	-2.6667	-2.6979	-3.3229	-2.8937	-3.2083	-3.1479	-2.8417	-3.5812	-2.9104	-2.9875	-3.2812	-2.6917	1.082	194.033	260.839	205.152	48.699	120.991	188.904	245.350	186.915	61.031	163.960	165.494	242.299	258.354	154.000	168.945	0.0008042	0.00049637	0.00029925	727.31	5.4803e-06	7.7093e-06	1168.7	268.28	1.8793e-05	8.8237e-06	484.61	170.08	93.759	29.489	8.8602e-06	61.121	0.00083001	0.00082558	0.00023049	762.15	9.0414e-06	9.0378e-06	1107.4	267.98	9.0582e-06	9.0823e-06	463.33	157.18	98.941	31.838	9.0527e-06	57.844	13.272	238.637	-11.279	-63.686	171.111	168.715	-64.839	-59.682	-64.963	-1.520	-61.326	-56.523	-55.286	-49.822	28.295	-53.079	-8191	255	
#DATA ENDS
