BOXY.EXE: ISS Imagent and Oximeter Data Acquisition Program Version 0.80
Ascii Record File

#ACQ INFORMATION
2  Detector Channels 
16  External MUX Channels 
1  Auxiliary Channels 
5000  Waveform (CCF) Frequency (Hz)
1  Waveforms Skipped 
30  Waveforms Averaged 
1  Cycles Averaged 
16  Acquisitions per Waveform 
10.0806  Updata Rate (Hz) 

#FILE INFORMATION
TRUE -- External MUX Channel results are PARSED.
FALSE -- AC DC and Phase are NOT grouped.
TRUE -- Companion Program Settings File CREATED.
FALSE -- AC data not excluded
FALSE -- DC data not excluded
FALSE -- Phase data not excluded
FALSE -- Auxillary Chn. data not excluded
Tab delimiters

#CALIBRATION STATE
TRUE -- Waveform Calibration Values APPLIED.


#AUX CALIBRATION VALUES
Val Type	aux-1	

Term	1.0000e+00	
Factor	0.0000e+00	


#WF CALIBRATION VALUES
A = Detector Channel
Val Type	A-AC1	A-AC2	A-AC3	A-AC4	A-AC5	A-AC6	A-AC7	A-AC8	A-AC9	A-AC10	A-AC11	A-AC12	A-AC13	A-AC14	A-AC15	A-AC16	A-DC1	A-DC2	A-DC3	A-DC4	A-DC5	A-DC6	A-DC7	A-DC8	A-DC9	A-DC10	A-DC11	A-DC12	A-DC13	A-DC14	A-DC15	A-DC16	A-Ph1	A-Ph2	A-Ph3	A-Ph4	A-Ph5	A-Ph6	A-Ph7	A-Ph8	A-Ph9	A-Ph10	A-Ph11	A-Ph12	A-Ph13	A-Ph14	A-Ph15	A-Ph16	

Term	0.00000e+00	0.00000e+00	0.00000e+00	0.00000e+00	0.00000e+00	0.00000e+00	0.00000e+00	0.00000e+00	0.00000e+00	0.00000e+00	0.00000e+00	0.00000e+00	0.00000e+00	0.00000e+00	0.00000e+00	0.00000e+00	0.00000e+00	0.00000e+00	0.00000e+00	0.00000e+00	0.00000e+00	0.00000e+00	0.00000e+00	0.00000e+00	0.00000e+00	0.00000e+00	0.00000e+00	0.00000e+00	0.00000e+00	0.00000e+00	0.00000e+00	0.00000e+00	0.00000e+00	0.00000e+00	0.00000e+00	0.00000e+00	0.00000e+00	0.00000e+00	0.00000e+00	0.00000e+00	0.00000e+00	0.00000e+00	0.00000e+00	0.00000e+00	0.00000e+00	0.00000e+00	0.00000e+00	0.00000e+00	
Factor	1.00000e+00	1.00000e+00	1.00000e+00	1.00000e+00	1.00000e+00	1.00000e+00	1.00000e+00	1.00000e+00	1.00000e+00	1.00000e+00	1.00000e+00	1.00000e+00	1.00000e+00	1.00000e+00	1.00000e+00	1.00000e+00	1.00000e+00	1.00000e+00	1.00000e+00	1.00000e+00	1.00000e+00	1.00000e+00	1.00000e+00	1.00000e+00	1.00000e+00	1.00000e+00	1.00000e+00	1.00000e+00	1.00000e+00	1.00000e+00	1.00000e+00	1.00000e+00	X	X	X	X	X	X	X	X	X	X	X	X	X	X	X	X	

B = Detector Channel
Val Type	B-AC1	B-AC2	B-AC3	B-AC4	B-AC5	B-AC6	B-AC7	B-AC8	B-AC9	B-AC10	B-AC11	B-AC12	B-AC13	B-AC14	B-AC15	B-AC16	B-DC1	B-DC2	B-DC3	B-DC4	B-DC5	B-DC6	B-DC7	B-DC8	B-DC9	B-DC10	B-DC11	B-DC12	B-DC13	B-DC14	B-DC15	B-DC16	B-Ph1	B-Ph2	B-Ph3	B-Ph4	B-Ph5	B-Ph6	B-Ph7	B-Ph8	B-Ph9	B-Ph10	B-Ph11	B-Ph12	B-Ph13	B-Ph14	B-Ph15	B-Ph16	

Term	0.00000e+00	0.00000e+00	0.00000e+00	0.00000e+00	0.00000e+00	0.00000e+00	0.00000e+00	0.00000e+00	0.00000e+00	0.00000e+00	0.00000e+00	0.00000e+00	0.00000e+00	0.00000e+00	0.00000e+00	0.00000e+00	0.00000e+00	0.00000e+00	0.00000e+00	0.00000e+00	0.00000e+00	0.00000e+00	0.00000e+00	0.00000e+00	0.00000e+00	0.00000e+00	0.00000e+00	0.00000e+00	0.00000e+00	0.00000e+00	0.00000e+00	0.00000e+00	-2.40346e+02	-8.60789e+01	-1.37580e+02	-1.81794e+02	-9.56072e+01	-6.15362e+01	-1.55227e+02	-1.62015e+02	-7.62495e+01	-2.08821e+01	-1.76015e+02	-1.69664e+02	-1.83008e+02	-1.76920e+02	-1.10967e+02	-1.49451e+02	
Factor	4.41567e-05	7.28733e-05	1.84622e-05	1.45759e-01	5.45265e-07	6.77868e-07	1.58711e-01	4.73567e-02	6.69312e-07	6.60670e-07	1.20289e-01	2.57934e-02	2.57211e-02	8.47169e-03	7.26230e-07	1.17836e-02	2.97384e-07	2.98781e-07	8.31620e-08	7.06932e-02	3.27491e-09	3.27375e-09	7.22083e-02	2.26007e-02	3.28093e-09	3.27436e-09	4.87179e-02	1.14701e-02	1.15018e-02	3.84075e-03	3.27804e-09	5.10611e-03	X	X	X	X	X	X	X	X	X	X	X	X	X	X	X	X	



#DISTANCE SETTINGS
A = Detector Channel
A-1	A-2	A-3	A-4	A-5	A-6	A-7	A-8	A-9	A-10	A-11	A-12	A-13	A-14	A-15	A-16	

2.5000e+00	3.0000e+00	2.5000e+00	3.0000e+00	2.0000e+00	3.0000e+00	1.5000e+00	3.0000e+00	3.0000e+00	3.0000e+00	3.0000e+00	3.0000e+00	3.0000e+00	3.0000e+00	1.5000e+00	3.0000e+00	

B = Detector Channel
B-1	B-2	B-3	B-4	B-5	B-6	B-7	B-8	B-9	B-10	B-11	B-12	B-13	B-14	B-15	B-16	

1.0000e+01	1.0000e+01	1.0000e+01	1.4400e+00	1.0000e+01	1.0000e+01	1.5100e+00	1.9400e+00	1.0000e+01	1.0000e+01	1.9900e+00	2.4900e+00	2.4100e+00	2.9000e+00	1.0000e+01	2.9800e+00	




#DATA BEGINS
time	group	step	mark	flag	A-AC1	A-AC2	A-AC3	A-AC4	A-AC5	A-AC6	A-AC7	A-AC8	A-AC9	A-AC10	A-AC11	A-AC12	A-AC13	A-AC14	A-AC15	A-AC16	A-DC1	A-DC2	A-DC3	A-DC4	A-DC5	A-DC6	A-DC7	A-DC8	A-DC9	A-DC10	A-DC11	A-DC12	A-DC13	A-DC14	A-DC15	A-DC16	A-Ph1	A-Ph2	A-Ph3	A-Ph4	A-Ph5	A-Ph6	A-Ph7	A-Ph8	A-Ph9	A-Ph10	A-Ph11	A-Ph12	A-Ph13	A-Ph14	A-Ph15	A-Ph16	B-AC1	B-AC2	B-AC3	B-AC4	B-AC5	B-AC6	B-AC7	B-AC8	B-AC9	B-AC10	B-AC11	B-AC12	B-AC13	B-AC14	B-AC15	B-AC16	B-DC1	B-DC2	B-DC3	B-DC4	B-DC5	B-DC6	B-DC7	B-DC8	B-DC9	B-DC10	B-DC11	B-DC12	B-DC13	B-DC14	B-DC15	B-DC16	B-Ph1	B-Ph2	B-Ph3	B-Ph4	B-Ph5	B-Ph6	B-Ph7	B-Ph8	B-Ph9	B-Ph10	B-Ph11	B-Ph12	B-Ph13	B-Ph14	B-Ph15	B-Ph16	aux-1	digaux	

1509.644	1	1	0	768	0.23047	0.27752	0.12868	0.19881	0.072331	0.078196	0.10677	0.19668	0.20444	0.22973	0.29502	0.22628	0.033709	0.2586	0.2844	0.25153	-2.0833	-3.4021	-2.4771	-2.8312	-3.1708	-2.2729	-3.1208	-2.7292	-2.4813	-3.2313	-2.5187	-2.6229	-3.0708	-2.375	-3.0563	-3.0542	354.317	342.602	162.048	262.105	321.420	371.241	316.527	122.961	131.518	387.355	164.192	204.857	413.079	101.129	319.833	165.612	6.954e-05	0.00014663	0.00010194	38.158	1.478e-06	2.5153e-06	50.691	14.098	3.4691e-06	7.678e-06	19.09	6.816	4.9402	1.8071	4.1717e-06	2.6258	0.0015626	0.0015683	0.00043478	410.84	1.6989e-05	1.6938e-05	428.24	131.18	1.6671e-05	1.6532e-05	263.19	64.384	62.484	21.133	1.6319e-05	28.132	428.348	183.691	208.867	95.169	129.939	383.731	93.530	100.689	84.294	167.553	97.699	102.093	103.587	110.281	354.965	105.836	-8191	255	
1509.740	1	1	0	0	0.1345	0.088056	0.087039	0.37419	0.13249	0.12979	0.08828	0.049432	0.2435	0.1925	0.14044	0.12238	0.04043	0.2543	0.020027	0.21476	-2.3187	-3.2458	-2.6792	-2.6188	-3.0479	-2.6063	-2.9542	-2.9771	-2.4042	-3.1646	-2.8854	-2.6188	-3.2958	-2.5271	-2.975	-2.9729	406.645	95.288	339.947	366.419	122.280	420.527	99.601	115.981	387.882	307.764	239.180	279.205	429.615	259.865	238.260	84.853	0.00026484	0.00013088	9.8076e-05	38.068	1.1737e-06	2.679e-06	50.609	14.009	7.0475e-06	4.7786e-06	19.822	6.7939	4.9271	1.9563	6.8525e-07	2.682	0.0014824	0.0014895	0.00041407	394.38	1.6269e-05	1.6209e-05	412.07	126.39	1.6049e-05	1.5975e-05	256.02	63.021	61.101	20.69	1.594e-05	27.57	392.079	117.750	206.648	94.336	274.029	112.696	94.054	100.078	162.627	419.365	100.331	103.658	106.252	108.431	253.905	105.617	-8191	255	
1509.837	1	1	0	0	0.23146	0.04885	0.044192	0.26772	0.36851	0.1082	0.33564	0.31907	0.1601	0.075762	0.10621	0.22133	0.034052	0.067534	0.15283	0.081213	-1.9646	-3.2542	-2.7375	-2.6146	-3.2167	-2.4667	-2.8937	-3.0958	-2.5271	-3.2417	-2.7333	-2.5125	-3.1917	-2.5854	-2.7625	-3.1646	262.511	151.151	335.115	346.102	299.144	153.195	125.882	267.557	100.723	243.966	400.454	107.274	433.799	399.177	151.664	178.661	1.9426e-05	0.00037321	7.1461e-05	38.674	5.3233e-06	1.2841e-06	51.338	14.402	1.7262e-06	5.7792e-06	19.868	6.7146	5.0379	1.8978	2.8992e-06	2.6859	0.0014469	0.0014514	0.00040078	382.19	1.565e-05	1.557e-05	397.22	121.81	1.5388e-05	1.5286e-05	245.67	60.348	58.386	19.784	1.518e-05	26.428	295.559	354.670	428.137	94.964	254.099	233.527	93.945	99.589	356.698	177.968	99.023	103.598	103.412	111.500	137.398	104.856	-8191	255	
1509.933	1	1	0	0	0.22582	0.15375	0.058837	0.17621	0.51101	0.22584	0.28498	0.098825	0.085874	0.14198	0.21315	0.16475	0.18287	0.18557	0.14506	0.1588	-2.1667	-3.1521	-2.9146	-2.6625	-3.2625	-2.5187	-2.7354	-3.1958	-2.5979	-3.0292	-2.9042	-2.3729	-3.2042	-2.6479	-2.65	-3.1917	170.724	175.925	163.018	421.098	375.303	202.311	188.803	185.759	296.036	427.934	424.475	346.795	390.114	421.917	358.757	333.084	0.00035422	0.00031171	4.0934e-05	38.679	5.7183e-07	6.8662e-07	50.056	14.318	5.289e-06	2.1158e-06	19.497	6.5569	5.013	1.7765	3.3223e-06	2.716	0.001381	0.0013862	0.00038498	369.99	1.5225e-05	1.5236e-05	393.68	121.64	1.5534e-05	1.5682e-05	254.91	63.119	61.522	20.801	1.6081e-05	27.745	210.266	310.865	421.565	94.374	249.250	274.316	94.554	102.345	310.754	345.991	97.100	103.090	108.782	108.995	187.460	105.887	-8191	255	
1510.027	1	1	0	0	0.29894	0.27567	0.11393	0.17187	0.11021	0.17033	0.15993	0.26121	0.27322	0.30091	0.09062	0.035419	0.10846	0.013668	0.10422	0.1032	-1.8646	-2.9854	-2.9042	-2.2896	-3.1854	-2.7333	-2.7125	-3.2354	-2.3937	-3.0854	-3.0667	-2.4542	-3.0854	-2.7833	-2.4417	-3.4104	296.115	205.310	438.113	199.914	353.391	440.271	176.713	261.782	151.766	248.024	416.003	440.303	349.966	424.709	183.170	160.771	0.00044473	0.0002301	0.00018491	38.894	2.1832e-06	7.1863e-07	51.306	14.282	3.61e-06	2.6857e-06	19.907	6.6847	5.1706	1.8429	3.2629e-06	2.714	0.0014544	0.0014576	0.0004027	385.66	1.5842e-05	1.5815e-05	406.08	125.02	1.5879e-05	1.582e-05	253.79	62.361	60.554	20.491	1.5895e-05	27.675	128.158	388.048	417.206	94.858	437.999	85.496	93.965	100.153	90.572	422.536	96.923	104.120	104.250	109.238	153.349	107.572	-8191	255	
1510.123	1	1	0	0	0.16028	0.27682	0.054286	0.23074	0.15242	0.12403	0.10154	0.19804	0.13796	0.11868	0.17557	0.11424	0.047346	0.17788	0.11154	0.11859	-1.8667	-2.7833	-2.8812	-2.3438	-3.2417	-2.9854	-2.6667	-3.1521	-2.4542	-2.7313	-3.2104	-2.4208	-3.2021	-2.8833	-2.5021	-3.4229	297.774	276.372	106.904	185.313	351.871	97.030	374.369	429.750	115.991	153.210	117.998	126.500	270.761	255.737	316.288	329.494	0.00020751	0.00044478	4.2432e-05	38.445	1.1212e-06	3.4743e-06	50.748	14.245	2.6811e-06	5.5295e-06	18.979	6.8842	5.2218	1.9839	1.805e-06	2.7108	0.0014602	0.0014726	0.00041273	395.66	1.642e-05	1.6502e-05	422.55	131.03	1.6856e-05	1.6892e-05	272.25	67.04	65.15	22.041	1.7054e-05	29.367	287.617	316.041	212.482	95.272	225.780	380.095	93.417	101.320	392.198	147.467	95.092	101.296	101.832	108.309	356.180	107.792	-8191	255	
1510.244	1	1	0	0	0.036909	0.081327	0.10812	0.13618	0.16375	0.14433	0.1151	0.018409	0.086407	0.20698	0.09892	0.057332	0.19358	0.032704	0.34173	0.083136	-2.3104	-2.6562	-3.2104	-2.2604	-2.9229	-3.0729	-2.6583	-3.2708	-2.6146	-2.6229	-3.2875	-2.6354	-2.9958	-3.1188	-2.4333	-3.0521	367.391	120.445	289.607	436.981	429.260	121.864	311.282	269.697	296.614	365.806	334.289	370.975	229.513	258.516	406.683	154.457	7.7926e-05	0.00034879	0.00018576	38.696	3.4904e-06	5.4031e-06	52.155	14.248	3.4627e-06	2.2711e-06	19.291	6.964	5.2326	1.9928	4.0936e-06	2.8312	0.0015379	0.001542	0.00042863	405.13	1.6747e-05	1.6669e-05	423.27	130.07	1.6559e-05	1.6542e-05	266.37	65.35	63.37	21.502	1.6611e-05	28.74	268.003	286.905	108.573	95.908	187.704	113.376	94.790	100.271	160.140	311.374	97.474	103.145	103.351	110.946	211.812	106.531	-8191	255	
1510.340	1	1	0	0	0.2024	0.091273	0.17038	0.092766	0.099868	0.14987	0.17314	0.11785	0.19865	0.16421	0.28464	0.041711	0.2145	0.17152	0.15877	0.24016	-2.2042	-2.6021	-3.2875	-2.5625	-3.0146	-2.9979	-2.5271	-3.2833	-2.7125	-2.4854	-3.1437	-2.325	-2.9	-3.0792	-2.2687	-3.0354	87.966	98.105	103.422	299.875	92.600	356.089	211.785	318.440	380.920	186.188	252.652	172.366	162.065	333.277	429.906	185.555	0.0001214	0.00043706	0.00010662	38.277	9.1838e-07	4.6919e-06	50.662	14.364	3.7801e-06	6.6302e-06	19.892	6.8048	4.859	1.9629	4.5265e-06	2.774	0.0015012	0.001503	0.00041754	396.31	1.6254e-05	1.6117e-05	409.33	125.26	1.5771e-05	1.5687e-05	253.06	62.235	60.252	20.509	1.5848e-05	27.636	101.673	156.990	269.698	94.366	352.176	153.387	95.638	101.886	337.593	418.892	98.024	102.662	105.182	109.350	362.852	107.038	-8191	255	
1510.436	1	1	0	0	0.11217	0.16047	0.049047	0.14714	0.058308	0.20197	0.22739	0.12914	0.17585	0.22031	0.19506	0.074594	0.13047	0.15027	0.084482	0.091141	-2.4813	-2.5021	-3.1646	-2.4917	-2.6729	-3.225	-2.475	-3.0312	-2.8875	-2.4354	-3.1896	-2.4708	-2.4708	-3.1063	-2.3958	-3.0333	427.528	145.656	401.076	439.745	416.541	152.894	163.224	202.574	96.563	193.962	253.306	290.233	133.095	163.256	268.091	253.333	0.00011355	0.00021017	4.154e-05	39.025	1.5871e-06	8.8542e-06	51.895	14.582	4.0586e-06	2.8953e-06	20.232	7.1655	4.9795	1.9519	6.36e-06	2.7806	0.0014523	0.0014649	0.00041029	392.49	1.6162e-05	1.6127e-05	411.68	126.57	1.5983e-05	1.5845e-05	254.03	61.938	59.467	20.019	1.5197e-05	26.313	342.006	238.247	214.046	95.854	196.125	152.499	95.023	101.512	86.467	417.230	99.985	102.265	104.300	109.837	189.892	108.391	-8191	255	
1510.532	1	1	0	0	0.3619	0.086394	0.17071	0.2355	0.12377	0.21996	0.1138	0.096987	0.21459	0.13986	0.20463	0.14849	0.020508	0.15901	0.25312	0.15466	-2.5479	-2.4604	-3.3083	-2.75	-2.7146	-3.2104	-2.4792	-2.9813	-2.9458	-2.3354	-3.1521	-2.6833	-2.4458	-3.2562	-2.4562	-2.9396	411.772	410.905	238.034	321.738	366.751	122.669	282.819	300.589	376.277	88.842	120.934	229.426	288.078	415.869	433.046	278.127	0.00028994	0.0003697	7.5845e-05	38.671	2.7836e-06	2.3344e-06	51.397	14.459	4.5011e-06	3.927e-06	20.301	6.9005	5.1471	1.9325	3.378e-06	2.7071	0.0013563	0.0013538	0.00037531	359.96	1.4624e-05	1.4562e-05	376.47	115.28	1.4363e-05	1.4271e-05	230.67	56.596	54.14	18.176	1.355e-05	23.472	347.885	393.934	327.676	94.065	204.193	382.946	94.613	101.550	258.111	203.401	98.334	102.382	106.087	110.170	216.829	106.051	-8191	255	
1510.629	1	1	0	0	0.23204	0.059381	0.082231	0.21574	0.18643	0.052115	0.26633	0.1172	0.086995	0.079436	0.21901	0.24536	0.052396	0.012475	0.19	0.065815	-2.6729	-2.2896	-3.075	-2.7521	-2.6688	-3.2313	-2.4854	-3.0292	-3.2229	-2.375	-3.0167	-2.6833	-2.5042	-3.1208	-2.4958	-2.6562	120.475	428.570	93.823	297.202	326.378	164.205	381.901	343.265	438.255	269.320	216.987	101.439	170.934	104.425	114.429	219.595	0.00022782	0.00033656	4.7651e-05	38.592	4.4587e-06	1.213e-06	51.729	14.102	4.5562e-06	1.8361e-06	19.282	6.8764	5.0395	1.9021	4.8962e-06	2.7319	0.0011771	0.001156	0.00031427	304.52	1.1934e-05	1.1795e-05	313.42	95.373	1.1483e-05	1.143e-05	189.35	47.156	45.305	15.422	1.1524e-05	20.757	165.929	251.552	201.410	96.085	118.806	221.746	95.333	100.939	91.838	306.577	97.692	102.515	106.847	111.171	361.563	108.760	-8191	255	
1510.725	1	1	0	0	0.19944	0.15149	0.14883	0.16147	0.27687	0.1203	0.048668	0.080093	0.18646	0.32351	0.22656	0.21957	0.18284	0.11126	0.16423	0.093102	-2.8646	-2.5021	-2.8833	-2.875	-2.3854	-3.2125	-2.6042	-2.7792	-3.2083	-2.4313	-2.9396	-2.8333	-2.5667	-3.2542	-2.6792	-2.6271	143.456	358.627	107.284	141.898	82.375	294.058	249.632	299.004	310.324	438.858	415.134	420.853	256.260	330.351	316.732	371.241	0.00032403	0.00016229	9.5747e-05	38.568	8.5545e-07	2.4802e-06	51.287	14.339	2.3336e-06	3.3506e-06	19.94	6.8224	4.8343	1.9104	4.3247e-06	2.7353	0.0010525	0.0010653	0.00029818	297.35	1.1821e-05	1.1879e-05	319.94	98.335	1.2083e-05	1.2142e-05	201.42	50.39	48.925	16.795	1.2778e-05	22.963	235.199	419.008	428.423	94.036	98.932	128.566	94.131	100.207	121.220	413.103	99.458	104.446	106.218	111.112	417.676	106.275	-8191	255	
1510.821	1	1	0	0	0.11162	0.030053	0.16328	0.087341	0.22092	0.14773	0.19668	0.095481	0.14787	0.19093	0.23157	0.059844	0.15197	0.068286	0.15772	0.26155	-2.9021	-2.3375	-2.9938	-2.9437	-2.4417	-3.3292	-2.7167	-2.5938	-3.1646	-2.3729	-2.9646	-2.9958	-2.4042	-3.1979	-2.6292	-2.5521	305.989	367.064	245.780	87.968	110.939	392.751	381.188	377.260	103.563	413.502	156.656	433.914	301.752	264.719	119.925	328.399	0.00022302	0.00021259	8.1197e-05	39.07	3.6455e-06	3.1143e-06	51.675	14.393	5.3519e-06	2.7507e-06	19.53	6.7859	5.0352	1.8696	1.3224e-06	2.7278	0.0011949	0.0012181	0.00034382	339.15	1.3922e-05	1.413e-05	372.21	115.79	1.4741e-05	1.4875e-05	242.84	60.206	58.768	20.112	1.556e-05	27.282	352.978	406.235	408.514	95.826	285.183	104.306	94.606	101.541	358.184	273.737	98.148	102.288	102.956	110.150	358.044	106.856	-8191	255	
1510.940	1	1	0	0	0.21761	0.33846	0.13253	0.046251	0.12393	0.18508	0.18903	0.11887	0.35604	0.023148	0.25165	0.198	0.12886	0.03165	0.096252	0.11835	-2.8812	-2.6229	-2.875	-3.0229	-2.4083	-3.3063	-2.8458	-2.4771	-3.3292	-2.6083	-2.9417	-3.1729	-2.425	-3.1208	-2.9542	-2.6021	218.856	166.173	438.245	117.487	354.704	185.929	365.133	231.968	127.961	242.227	235.538	428.709	328.534	370.636	398.861	171.907	0.00014458	0.00055516	6.6598e-05	39.753	9.8263e-07	3.0553e-06	50.948	13.89	7.2087e-06	8.9851e-07	19.441	6.8269	5.1243	1.8794	1.1215e-06	2.6978	0.0014406	0.0014584	0.00040931	393.83	1.6398e-05	1.6505e-05	422.14	130.71	1.6832e-05	1.689e-05	272.46	67.336	65.766	22.441	1.7568e-05	30.362	108.300	410.362	162.591	94.709	299.682	403.840	95.904	100.319	201.933	199.148	98.048	104.029	104.844	112.152	222.265	107.468	-8191	255	
1511.036	1	1	0	0	0.12087	0.089365	0.079058	0.18189	0.067347	0.23299	0.033858	0.18652	0.13792	0.12144	0.18341	0.24353	0.16401	0.10962	0.26836	0.18239	-2.825	-2.6792	-2.5875	-3.2042	-2.4813	-3.1979	-2.9	-2.475	-3.1042	-2.7438	-2.6833	-3.0958	-2.5083	-2.8708	-3.0229	-2.5333	103.391	229.818	308.843	258.948	423.943	129.370	118.003	105.086	214.933	111.078	291.847	413.164	414.378	272.936	273.612	102.094	0.00021957	0.00072194	1.5143e-05	38.931	5.9363e-06	2.659e-06	51.164	14.449	2.0145e-06	2.9814e-06	19.634	7.0214	5.0536	1.9977	9.5222e-06	2.8368	0.0016204	0.0016296	0.00045655	433.03	1.8158e-05	1.8224e-05	460	142.64	1.8508e-05	1.8533e-05	296.85	72.814	71.085	24.113	1.8876e-05	32.364	286.675	153.007	370.086	93.222	177.415	101.152	94.751	100.837	282.206	404.554	96.500	102.984	106.322	111.436	276.928	105.273	-8191	255	
1511.132	1	1	0	0	0.21122	0.13846	0.23869	0.039195	0.34678	0.064744	0.21006	0.13852	0.20672	0.18143	0.30014	0.22917	0.14923	0.069607	0.10431	0.12843	-2.8187	-2.7104	-2.4958	-3.0271	-2.5187	-3.0833	-2.9458	-2.6146	-3.0854	-2.5938	-2.4313	-3.3458	-2.6312	-3.0458	-3.05	-2.4188	196.919	324.344	412.656	182.002	422.152	288.528	280.719	177.203	437.533	89.661	362.368	102.549	325.866	244.154	281.736	131.113	0.00040566	0.00044221	7.7019e-05	37.97	3.5951e-06	2.5888e-06	51.706	14.18	1.6008e-06	4.1018e-07	20.904	7.0711	5.2079	2.0321	5.6123e-06	2.8926	0.0017185	0.0017302	0.00048257	455.32	1.9164e-05	1.9241e-05	485.26	151.11	1.9859e-05	2.0051e-05	321.34	79.261	78.051	26.619	2.1179e-05	36.334	161.238	322.511	157.116	95.364	361.059	236.794	96.095	101.416	145.061	217.228	97.432	102.820	103.631	110.428	340.127	104.545	-8191	255	
1511.205	1	1	0	0	0.12152	0.24364	0.17656	0.13916	0.11862	0.21162	0.21793	0.085225	0.16628	0.11688	0.36418	0.12991	0.18403	0.29706	0.072267	0.15316	-2.775	-2.8917	-2.5146	-3.3958	-2.575	-2.7479	-3.1083	-2.3771	-3.0292	-2.8563	-2.6208	-3.3271	-2.6083	-2.6625	-3.2687	-2.4708	118.679	441.519	256.881	169.236	391.393	273.470	402.099	224.820	334.357	181.336	285.651	273.817	327.923	372.097	352.110	358.442	0.00014107	0.00028439	0.00012603	38.793	5.1202e-06	4.4967e-06	52.249	14.42	6.3964e-06	6.907e-07	20.625	6.763	5.0919	1.9234	3.8255e-06	2.8547	0.0019718	0.0020023	0.00056537	532.69	2.3168e-05	2.3749e-05	594.83	188.39	2.5638e-05	2.6109e-05	416.94	102.33	100.88	34.1	2.7399e-05	45.621	403.466	360.225	317.106	95.763	417.686	414.562	94.236	101.526	383.192	96.117	96.725	103.503	104.490	112.154	400.082	103.951	-8191	255	
1511.324	1	1	0	0	0.22871	0.29791	0.23059	0.072193	0.32966	0.28849	0.10334	0.079234	0.058047	0.12986	0.042656	0.1893	0.1503	0.13007	0.083905	0.14593	-2.4562	-2.9833	-2.4583	-3.225	-2.6875	-2.8208	-3.2021	-2.2958	-2.8375	-2.9562	-2.5458	-3.075	-2.7896	-2.675	-3.2604	-2.4729	235.130	114.213	140.813	307.462	441.090	158.918	202.912	410.785	336.846	212.878	127.121	199.026	393.443	417.107	338.566	124.788	0.00048474	0.00025813	8.4249e-05	37.585	2.8458e-06	5.7139e-06	51.208	14.13	4.4041e-07	2.8983e-06	19.792	7.0383	5.0174	1.9347	5.0705e-06	2.785	0.0024867	0.0024954	0.00069654	634.86	2.7365e-05	2.7368e-05	660.37	204.74	2.7394e-05	2.7326e-05	425.34	102.57	99.732	33.413	2.6642e-05	44.116	359.193	296.576	142.015	97.281	377.232	242.145	93.865	99.963	87.111	220.288	99.790	101.182	103.004	109.171	99.589	104.248	-8191	255	
1511.421	1	1	0	0	0.12493	0.030153	0.090515	0.092403	0.076176	0.078688	0.17799	0.13099	0.119	0.10152	0.23426	0.2514	0.052772	0.21384	0.1688	0.20415	-2.6562	-2.9375	-2.2604	-3.3771	-2.7938	-2.4229	-3.1354	-2.5729	-2.7208	-3.0979	-2.4375	-3.025	-2.7062	-2.3271	-3.2208	-2.6042	96.587	422.024	353.263	167.794	380.282	223.762	437.255	341.880	236.974	200.720	229.036	394.304	119.533	154.687	195.643	188.864	0.00039669	0.00083016	0.00016371	38.045	2.6692e-06	6.4148e-06	49.935	14.53	3.1238e-06	2.9081e-06	21.763	6.9342	5.1111	1.98	2.4562e-06	2.7704	0.002384	0.0023765	0.00065599	595.39	2.5313e-05	2.5148e-05	607.98	187.43	2.4774e-05	2.4631e-05	385.17	93.05	90.556	30.479	2.423e-05	40.428	436.856	217.140	84.919	95.257	239.029	255.239	95.121	101.020	358.583	283.694	99.564	102.906	105.863	111.537	371.621	107.000	-8191	255	
1511.517	1	1	0	0	0.073739	0.19862	0.12505	0.20989	0.076872	0.15796	0.24896	0.40821	0.16173	0.12753	0.15663	0.19558	0.19361	0.18757	0.16083	0.12237	-2.2396	-3.2042	-2.4292	-3.0292	-2.8396	-2.4479	-3.3667	-2.6271	-2.7083	-3.2375	-2.2604	-3.0292	-2.9042	-2.3292	-3.3333	-2.6375	350.100	386.755	385.326	338.323	140.792	276.938	420.466	181.730	174.362	211.069	366.423	102.823	102.469	403.530	210.028	100.813	0.00055297	0.00074502	0.00010881	37.257	6.193e-06	2.1833e-06	51.021	14.522	4.0014e-06	6.862e-06	20.614	7.0774	5.0539	1.9317	5.8474e-06	2.7253	0.0021796	0.0021892	0.00061176	564.37	2.4273e-05	2.443e-05	598.04	185.87	2.4834e-05	2.4987e-05	393.6	96.067	94.73	32.166	2.5963e-05	43.711	397.360	229.535	366.664	96.934	318.994	375.220	95.791	100.924	353.823	232.637	97.757	104.052	104.638	110.723	424.175	106.186	-8191	255	
1511.637	1	1	0	0	0.16264	0.1737	0.21137	0.038197	0.1918	0.37868	0.22009	0.10377	0.019005	0.20214	0.25452	0.044887	0.36405	0.17158	0.11563	0.20235	-2.2729	-3.2188	-2.5417	-2.9667	-3.1312	-2.4354	-3.2396	-2.6833	-2.7104	-3.2604	-2.6396	-3.0083	-3.0708	-2.275	-3.2167	-2.625	418.590	84.793	396.570	270.402	97.971	313.413	349.681	176.298	420.062	434.477	158.811	340.185	226.072	432.654	123.939	182.432	0.00018425	9.7245e-05	0.00019007	37.526	7.1275e-06	7.3342e-06	51.167	14.228	6.8496e-06	4.468e-06	20.115	6.8422	5.3648	1.9659	7.6369e-06	2.657	0.0024001	0.0024353	0.00068475	631.68	2.7545e-05	2.7909e-05	680.91	212.87	2.8956e-05	2.9175e-05	456.8	110.71	109.32	36.913	2.9812e-05	49.244	112.639	180.023	396.553	92.358	279.879	85.919	93.605	101.160	146.571	175.547	98.641	101.830	105.383	109.241	296.582	105.555	-8191	255	
1511.733	1	1	0	0	0.19211	0.23001	0.24509	0.19083	0.098345	0.10041	0.15333	0.18419	0.23837	0.09633	0.16842	0.18279	0.18019	0.12288	0.23781	0.18161	-2.1417	-3.4083	-2.4313	-2.8312	-3.2146	-2.4562	-3.125	-2.8625	-2.6229	-3.2583	-2.7208	-2.8875	-3.3625	-2.5729	-3.1458	-2.8458	411.420	280.326	401.105	305.340	136.641	435.052	434.745	218.148	412.478	184.913	379.359	224.525	381.693	129.153	335.698	179.713	0.00049739	0.00021157	0.00010376	37.362	2.3153e-06	7.8929e-06	51.046	14.604	2.3828e-06	5.2604e-06	20.89	6.6243	4.9706	1.9298	4.9762e-06	2.734	0.002699	0.0027119	0.00075333	682.52	2.9569e-05	2.9611e-05	711.12	220.42	2.9803e-05	2.9893e-05	464.38	111.97	110.15	37.025	2.9763e-05	48.996	417.199	221.655	271.207	92.375	95.295	245.293	94.213	99.088	365.945	352.485	98.007	104.004	104.168	110.247	243.244	106.394	-8191	255	
1511.805	1	1	0	0	0.28769	0.24938	0.17111	0.1895	0.23477	0.10031	0.077787	0.16151	0.21384	0.27689	0.026534	0.060864	0.012487	0.1486	0.22329	0.27397	-2.1542	-3.1083	-2.6646	-2.6937	-3.1271	-2.3792	-3.1833	-3.0521	-2.4771	-3.1583	-2.6	-2.6021	-3.3542	-2.3646	-2.9875	-2.9625	375.033	338.326	161.727	274.980	413.709	114.210	157.890	193.107	395.375	189.370	437.021	336.657	411.306	411.774	186.430	279.320	0.00019183	0.00042182	3.0623e-05	37.575	1.558e-06	2.4595e-06	50.302	14.642	8.3119e-06	1.2258e-06	20.323	6.8784	5.2446	1.7803	5.1041e-06	2.7202	0.0026742	0.0026746	0.00073909	666.31	2.879e-05	2.8651e-05	685.74	211.28	2.8257e-05	2.8035e-05	433.98	104.38	101.81	34.052	2.7143e-05	44.841	145.385	139.302	418.447	93.511	168.001	372.800	95.212	100.862	365.059	412.147	99.827	104.294	103.919	111.193	117.178	106.580	-8191	255	
1511.926	1	1	0	0	0.13083	0.18122	0.09681	0.21008	0.26879	0.21372	0.14109	0.25294	0.23432	0.040966	0.13179	0.040037	0.078368	0.050145	0.26479	0.1076	-1.8167	-3.2646	-2.5375	-2.5979	-3.225	-2.5854	-3.0021	-3.15	-2.2271	-2.9917	-2.9583	-2.5833	-3.2188	-2.6396	-2.7062	-3.1583	87.444	282.495	158.763	299.560	266.418	351.632	436.725	391.962	102.784	362.523	346.188	313.568	202.666	141.231	373.439	199.150	0.0002808	0.00062541	9.2729e-05	38.312	3.4498e-06	6.4403e-07	52.169	14.544	4.736e-06	1.2446e-06	19.478	6.7615	5.1867	1.8823	5.2143e-06	2.8204	0.0024285	0.0024205	0.00066671	604.96	2.5936e-05	2.5773e-05	623.18	192.61	2.5682e-05	2.5642e-05	401.06	97.303	95.948	32.398	2.5994e-05	43.478	430.004	111.182	222.742	94.391	121.270	211.064	94.922	101.268	194.202	296.662	97.889	102.672	106.239	111.401	127.619	107.814	-8191	255	
1512.020	1	1	0	0	0.16056	0.09993	0.16586	0.15915	0.15987	0.016216	0.18486	0.20087	0.23875	0.074452	0.25252	0.078377	0.37762	0.10841	0.14681	0.10406	-2.0271	-2.9646	-2.7458	-2.2875	-3.2687	-2.6708	-2.6625	-3.1083	-2.2542	-3.3917	-3.0646	-2.3771	-3.2438	-2.6104	-2.65	-3.0062	393.383	264.516	183.964	358.023	289.367	375.619	275.904	191.882	251.972	142.142	405.518	228.582	197.947	113.945	248.552	199.230	0.00021867	0.00052834	0.00021604	38.043	2.5089e-06	2.974e-06	51.799	14.031	4.112e-06	7.0398e-06	19.239	6.918	5.1154	1.9204	9.5478e-06	2.7961	0.0023684	0.0023776	0.00065987	601.66	2.5914e-05	2.5757e-05	621.43	191.65	2.5418e-05	2.5234e-05	392.32	94.619	92.284	30.913	2.4582e-05	41.139	122.704	400.474	147.485	95.358	234.365	398.892	93.552	101.833	158.001	292.940	96.681	103.596	105.582	111.161	159.804	108.273	-8191	255	
1512.116	1	1	0	0	0.13297	0.15509	0.037307	0.081861	0.28827	0.0017816	0.080382	0.14182	0.15401	0.26089	0.20146	0.12291	0.15974	0.1133	0.01406	0.10104	-1.9458	-3.1583	-3.0229	-2.3042	-3.4	-2.6063	-2.5583	-3.0583	-2.425	-3.0083	-3.1667	-2.3896	-3.1437	-2.8979	-2.6833	-3.2708	430.630	279.439	423.079	145.871	417.042	180.000	107.171	387.035	240.497	400.173	213.740	123.910	240.008	376.370	114.237	342.724	0.00020762	0.00035666	0.00024306	38.01	6.8632e-06	3.5868e-06	50.355	14.261	4.0059e-06	3.0285e-06	19.284	7.0293	5.009	1.8998	2.8133e-06	2.7713	0.0022297	0.0022345	0.00062025	569.57	2.4386e-05	2.4261e-05	588.79	181.66	2.3956e-05	2.3723e-05	369.87	89.215	86.574	28.953	2.2768e-05	38.034	413.247	347.532	434.442	96.290	219.546	268.243	95.389	101.584	422.411	249.959	99.704	104.855	106.146	110.118	130.744	104.345	-8191	255	
1512.237	1	1	0	0	0.25022	0.13687	0.068474	0.1417	0.31768	0.19919	0.095451	0.081077	0.23967	0.34507	0.26426	0.05678	0.17127	0.21462	0.18993	0.15451	-2.2896	-2.95	-3.1083	-2.3875	-3.2833	-2.7833	-2.5438	-3.3958	-2.6729	-2.8	-3.0667	-2.3625	-3.0292	-2.8812	-2.3375	-3.3792	101.698	303.160	111.370	125.944	276.804	143.243	145.980	312.869	118.658	443.219	164.570	90.095	186.186	417.795	118.484	218.256	0.00019506	0.00025034	2.8899e-06	36.338	1.4856e-06	6.1953e-06	49.832	14.367	8.3671e-06	2.9659e-06	20.234	6.7991	4.9503	1.998	2.2439e-06	2.8043	0.0020292	0.0020182	0.00055855	514.47	2.1762e-05	2.1642e-05	532.17	164.5	2.1569e-05	2.1517e-05	340.16	82.86	80.96	27.319	2.1574e-05	36.583	129.020	354.202	199.882	95.290	361.275	198.125	93.825	101.773	304.457	415.544	98.155	102.491	104.033	109.782	214.309	104.719	-8191	255	
1512.333	1	1	0	0	0.05277	0.11595	0.16436	0.17923	0.095136	0.073455	0.027897	0.40539	0.19279	0.1339	0.052526	0.20519	0.1582	0.12072	0.077067	0.09068	-2.1875	-2.6875	-3.0687	-2.3875	-3.1896	-2.8854	-2.4042	-3.2146	-2.9167	-2.6375	-3.2729	-2.4896	-3.0708	-2.9479	-2.5042	-3.4688	197.930	378.498	321.498	427.969	263.363	222.666	87.067	195.806	184.359	436.131	102.508	232.311	260.809	419.053	107.585	124.494	0.00028028	0.00028019	8.2358e-05	38.71	2.5807e-06	3.5759e-06	50.156	14.493	4.5279e-06	3.7834e-06	19.624	6.8952	4.9369	1.9453	5.9076e-06	2.8979	0.0019594	0.0019656	0.00054763	507.9	2.1526e-05	2.1446e-05	528.8	163.31	2.1278e-05	2.1156e-05	334.18	81.299	79.193	26.746	2.1054e-05	35.751	119.261	355.584	184.671	94.009	389.444	243.278	95.180	101.063	265.945	440.946	98.337	103.556	105.249	109.103	389.472	106.445	-8191	255	
1512.429	1	1	0	0	0.19789	0.30439	0.099182	0.26081	0.26478	0.087129	0.12087	0.15436	0.032509	0.13921	0.12812	0.28348	0.18269	0.054723	0.22204	0.011152	-2.4437	-2.4875	-3.1417	-2.4083	-2.9396	-3.1042	-2.3646	-3.1333	-2.8792	-2.4542	-3.3458	-2.5125	-2.8812	-2.9313	-2.3042	-3.15	393.844	143.961	296.232	121.920	93.319	203.192	407.291	174.669	115.273	215.551	392.402	318.194	97.797	99.502	266.882	399.734	0.00028427	0.00024745	0.00010273	36.798	1.0377e-06	3.9385e-06	50.262	14.703	5.1559e-06	6.1307e-06	19.925	7.2381	4.9397	1.8933	5.961e-06	2.8367	0.0019067	0.0019143	0.00053382	495.94	2.1027e-05	2.1028e-05	521.49	161.54	2.1137e-05	2.1131e-05	334.72	81.631	79.56	26.909	2.1195e-05	35.919	328.354	200.597	256.206	93.601	99.682	280.112	94.251	99.717	256.899	387.615	98.661	101.223	101.848	108.192	256.081	106.848	-8191	255	
1512.501	1	1	0	0	0.11364	0.17273	0.27492	0.090519	0.10371	0.15888	0.18096	0.14645	0.050062	0.058969	0.19044	0.18405	0.026592	0.16999	0.11502	0.041288	-2.3812	-2.4354	-3.2562	-2.5708	-2.8708	-3.0083	-2.3917	-2.9729	-2.8458	-2.5896	-3.3542	-2.825	-2.6708	-3.1333	-2.4792	-3.0521	168.376	203.071	239.709	166.151	294.371	188.849	417.091	159.837	179.963	348.967	293.367	265.139	340.152	94.213	136.138	334.015	0.00022588	0.00074481	0.00019338	38.243	3.1569e-06	7.6011e-06	50.61	14.085	2.3316e-06	1.8918e-06	20.162	7.0847	5.0855	1.8793	2.6246e-07	2.905	0.0019223	0.0019367	0.00054018	502.93	2.1419e-05	2.1499e-05	532.7	164.93	2.1671e-05	2.1687e-05	343.66	83.736	81.836	27.758	2.1994e-05	37.256	96.885	388.729	324.581	96.182	221.440	163.395	92.732	101.189	292.780	221.791	97.210	104.765	104.523	109.924	338.501	105.506	-8191	255	
1512.622	1	1	0	0	0.23543	0.015955	0.054121	0.10788	0.18366	0.31263	0.34238	0.050586	0.068113	0.12293	0.15407	0.066956	0.11752	0.12675	0.24346	0.045818	-2.5583	-2.3854	-3.0042	-2.6146	-2.5229	-3.2417	-2.4396	-2.9604	-2.9729	-2.1813	-3.3021	-2.6167	-2.4604	-3.1354	-2.5604	-2.9396	116.150	187.434	417.290	315.353	232.626	371.104	184.421	142.457	390.593	101.920	417.853	126.060	295.026	346.245	416.583	259.246	0.00037061	0.0005506	7.0388e-05	37.286	2.7661e-06	2.7318e-06	49.854	14.497	3.1013e-06	1.8454e-06	20.769	7.0621	5.0621	1.9744	6.9102e-06	2.8977	0.0020048	0.0020185	0.0005643	522.52	2.2297e-05	2.2335e-05	551.45	171.03	2.2658e-05	2.2671e-05	357.41	86.788	84.8	28.701	2.2734e-05	38.33	121.595	264.122	349.637	96.016	295.870	361.810	93.493	101.159	86.040	382.573	97.765	104.581	104.518	109.595	133.516	106.226	-8191	255	
1512.718	1	1	0	0	0.14982	0.14928	0.26621	0.1612	0.29288	0.15944	0.17289	0.16411	0.098553	0.37415	0.14811	0.20685	0.16458	0.074171	0.11081	0.23511	-2.5729	-2.25	-3.1667	-2.6542	-2.575	-3.2729	-2.4771	-2.8854	-3.0854	-2.3187	-3.1833	-2.8187	-2.4729	-3.2896	-2.4542	-2.8833	367.307	117.991	145.660	394.165	194.832	362.113	251.569	205.258	383.488	191.519	171.013	257.779	240.304	223.470	315.636	220.009	0.00012076	0.00056011	0.00011334	37.161	1.2195e-06	4.751e-06	52.252	14.002	3.5053e-06	3.3516e-06	20.914	6.809	5.1012	2.035	1.3981e-06	2.8208	0.0020613	0.0020773	0.00057848	534.89	2.2802e-05	2.2891e-05	562.24	173.81	2.2954e-05	2.2902e-05	360.24	87.583	85.778	29.021	2.309e-05	38.995	372.616	177.647	238.459	94.606	213.138	168.625	93.303	101.698	407.683	345.237	96.844	101.744	104.775	109.000	246.454	106.810	-8191	255	
1512.814	1	1	0	0	0.19025	0.15893	0.12835	0.20108	0.029354	0.19495	0.1949	0.25997	0.11617	0.12813	0.29012	0.21993	0.39203	0.011101	0.10542	0.18549	-2.8083	-2.3896	-3.1542	-2.7917	-2.3896	-3.3312	-2.4708	-2.5917	-3.2687	-2.5187	-3.0667	-2.825	-2.3521	-3.1333	-2.575	-2.6271	256.345	176.120	215.378	216.939	107.615	393.356	126.187	126.534	310.973	311.927	203.943	296.540	328.155	332.253	243.208	208.341	0.00060014	0.00042944	5.1245e-05	38.581	8.0373e-07	2.9592e-06	49.337	14.005	3.0747e-06	2.2665e-06	20.12	7.1342	5.3087	2.0324	8.538e-06	2.7964	0.0021109	0.0021294	0.00059523	549.99	2.3598e-05	2.3714e-05	580.17	179.72	2.3855e-05	2.3805e-05	373.77	90.618	88.633	29.844	2.3658e-05	39.662	136.760	423.081	290.695	96.839	273.985	364.841	94.365	99.616	181.778	280.438	98.921	102.297	104.727	111.260	231.863	105.453	-8191	255	
1512.908	1	1	0	0	0.31028	0.095136	0.13081	0.21319	0.12635	0.13668	0.14788	0.019057	0.14347	0.2168	0.12334	0.17315	0.052815	0.23954	0.1526	0.066602	-2.9854	-2.5458	-3.0438	-2.9958	-2.5479	-3.2729	-2.6104	-2.5438	-3.15	-2.5021	-2.9104	-3.1437	-2.1833	-3.1437	-2.8333	-2.5042	389.511	299.922	355.575	110.591	426.865	234.583	235.404	208.132	427.371	98.923	133.221	138.164	409.502	184.283	439.888	195.763	0.00035896	0.00015579	8.8686e-05	38.152	4.072e-06	3.3637e-06	51.187	13.912	7.2352e-06	5.2049e-06	19.019	6.9526	4.841	1.8862	6.4732e-06	2.765	0.0021407	0.0021479	0.0005962	549.05	2.3486e-05	2.3529e-05	575.94	177.91	2.359e-05	2.3498e-05	368.98	89.516	87.649	29.598	2.3505e-05	39.454	418.116	271.008	183.113	94.624	375.947	249.323	93.528	98.713	305.749	378.710	97.337	101.209	104.274	109.872	171.658	105.477	-8191	255	
1513.006	1	1	0	0	0.24456	0.12769	0.10248	0.35782	0.026758	0.055155	0.014435	0.072101	0.26379	0.21647	0.11094	0.055765	0.37738	0.23215	0.36376	0.11114	-2.6521	-2.2979	-2.9604	-3.1479	-2.3438	-3.0667	-2.9	-2.4604	-3.0187	-2.625	-2.7458	-3.1854	-2.3021	-3.1875	-3.0333	-2.4313	344.733	130.529	113.258	108.216	409.789	421.242	139.270	322.603	397.932	379.226	184.045	240.447	190.219	356.227	348.551	396.584	0.00017283	0.00020087	0.0001084	37.497	1.5329e-06	3.112e-06	51.425	13.898	3.0027e-06	4.5693e-07	19.854	7.0095	4.9171	1.9792	1.9875e-06	2.7674	0.002137	0.0021421	0.00059642	547.82	2.3429e-05	2.3389e-05	571.02	176.04	2.3271e-05	2.3178e-05	364.16	88.436	86.483	29.148	2.3109e-05	38.862	178.611	193.526	100.106	95.313	409.206	244.463	91.851	100.312	311.187	348.876	97.281	102.289	104.386	110.592	289.939	105.466	-8191	255	
1513.101	1	1	0	0	0.23261	0.1243	0.15932	0.082817	0.10508	0.20637	0.14008	0.058509	0.17291	0.23934	0.23977	0.071155	0.30897	0.11553	0.10686	0.21437	-2.75	-2.5708	-2.6625	-3.2792	-2.4604	-3.0458	-2.9792	-2.4375	-3.2208	-2.6833	-2.5	-3.2146	-2.2667	-2.9396	-2.9125	-2.4125	227.251	365.624	257.964	442.126	114.719	254.430	334.955	272.386	423.469	113.815	376.903	107.429	151.849	148.858	348.627	362.832	0.00037349	0.00059106	0.00021447	36.618	9.9227e-07	5.3562e-06	49.687	13.986	5.5015e-06	2.808e-06	20.523	7.0915	4.75	1.9619	2.6373e-06	2.8128	0.0021	0.0021023	0.00058524	540.03	2.3119e-05	2.3171e-05	568.23	175.73	2.3272e-05	2.316e-05	363.78	88.177	86.17	28.997	2.3021e-05	38.797	408.853	258.210	257.513	94.163	217.839	408.993	94.591	100.223	240.438	205.076	97.649	101.539	103.903	111.309	124.733	107.096	-8191	255	
1513.197	1	1	0	0	0.08588	0.28242	0.074223	0.074367	0.12228	0.13961	0.1472	0.069077	0.13278	0.13128	0.23526	0.14648	0.10665	0.22903	0.10932	0.16175	-2.7375	-2.6688	-2.5354	-3.1083	-2.5021	-3.0292	-3.0563	-2.3688	-3.2104	-2.8292	-2.6708	-3.2562	-2.5354	-2.8708	-3.1188	-2.5	218.181	439.139	328.642	425.294	165.106	304.360	223.092	128.975	265.983	101.502	167.175	90.932	256.289	308.927	343.086	259.173	0.00026802	0.0001871	0.00021264	36.845	2.2877e-06	3.6617e-06	50.008	14.501	8.3258e-06	3.4112e-06	19.027	6.8244	5.0427	1.8375	8.6278e-06	2.726	0.0020976	0.0021143	0.00059047	547.6	2.3487e-05	2.3546e-05	576.05	178.14	2.3524e-05	2.3326e-05	364.78	88.125	85.722	28.673	2.2609e-05	37.665	120.972	169.499	347.049	94.607	262.157	245.765	94.500	100.550	376.491	129.203	95.406	104.215	105.056	110.160	244.622	105.587	-8191	255	
1513.317	1	1	0	0	0.10125	0.1534	0.20135	0.16939	0.10041	0.093793	0.22153	0.095737	0.05414	0.1437	0.07971	0.13249	0.12306	0.35848	0.14611	0.12513	-2.7875	-2.9333	-2.4458	-3.0771	-2.5521	-2.9313	-3.0833	-2.2917	-3.1771	-2.9208	-2.5042	-3.1833	-2.6167	-2.6125	-3.3104	-2.3708	170.747	419.672	244.628	334.888	423.828	90.738	87.390	354.564	352.781	362.502	235.778	280.382	422.966	363.388	292.286	325.018	0.00018676	0.00048261	6.878e-05	38.784	6.6708e-06	4.5308e-06	50.468	14.185	4.5816e-06	6.704e-06	20.189	6.6133	4.8316	1.8574	1.9361e-06	2.5439	0.002022	0.0020182	0.00056204	520.61	2.2164e-05	2.2189e-05	547.42	169.39	2.2392e-05	2.2322e-05	351.81	85.463	83.529	28.116	2.237e-05	37.567	96.235	292.642	200.664	94.656	375.449	136.950	93.527	101.037	181.403	430.672	97.980	102.080	108.044	109.686	221.097	106.437	-8191	255	
1513.413	1	1	0	0	0.10557	0.14402	0.24734	0.14938	0.046875	0.20475	0.13594	0.28943	0.098971	0.21308	0.094259	0.11663	0.16563	0.12067	0.038116	0.1891	-2.5208	-2.9062	-2.4521	-3.2562	-2.6167	-2.5458	-3.0563	-2.4792	-2.8542	-2.9958	-2.4521	-3.1208	-2.8229	-2.5521	-3.2417	-2.5438	124.283	261.742	417.979	341.311	173.261	309.957	429.347	269.888	213.978	232.049	119.545	344.090	320.632	281.505	364.059	366.175	0.00045753	0.00049455	7.7198e-05	39.347	1.9213e-06	3.7777e-06	50.783	13.983	9.6349e-07	1.2139e-07	20.121	6.6335	4.8085	1.8385	4.3854e-06	2.5569	0.0020253	0.0020285	0.00056421	520.67	2.2114e-05	2.2071e-05	543.84	167.81	2.2107e-05	2.2058e-05	348.14	84.582	82.917	27.942	2.2288e-05	37.384	361.004	181.529	277.960	95.547	293.735	141.833	95.596	100.943	112.858	324.022	101.348	101.492	102.163	110.183	247.719	105.975	-8191	255	
1513.510	1	1	0	0	0.15167	0.14052	0.12742	0.1248	0.11525	0.2127	0.19343	0.13198	0.25376	0.16286	0.10993	0.13781	0.11441	0.074405	0.10629	0.14099	-2.6271	-3.1333	-2.3042	-3.1792	-2.7771	-2.4896	-3.3021	-2.3958	-2.5729	-3.0187	-2.3167	-3.0396	-2.725	-2.4146	-3.2104	-2.3979	390.420	345.296	270.022	420.676	413.447	178.085	208.584	356.948	363.033	290.205	422.856	286.565	375.776	434.882	346.246	402.322	0.0003074	0.00015374	0.00012361	38.982	4.2149e-07	1.3712e-06	51.399	14.048	1.9666e-06	2.1006e-06	20.343	6.6309	4.7385	1.8771	7.4581e-06	2.6242	0.0020209	0.0020282	0.00056389	521.45	2.205e-05	2.1929e-05	538.81	165.14	2.1627e-05	2.1505e-05	338.69	82.057	79.949	26.892	2.1281e-05	35.655	343.784	254.253	221.842	93.727	183.659	323.511	94.380	100.161	404.961	407.938	99.043	102.011	102.950	109.456	242.922	107.773	-8191	255	
1513.606	1	1	0	0	0.12788	0.11734	0.31901	0.046921	0.25923	0.12353	0.12713	0.15931	0.31073	0.042504	0.24073	0.33026	0.1263	0.31854	0.03176	0.19082	-2.375	-3.2625	-2.4625	-3.0167	-2.9917	-2.3792	-3.2875	-2.4917	-2.6333	-3.175	-2.4271	-2.9583	-2.9604	-2.6063	-3.1604	-2.6875	109.465	185.132	169.074	337.800	273.058	333.146	230.224	230.886	399.774	267.499	384.402	321.733	155.093	119.134	392.331	83.175	0.0001864	0.00061898	9.0386e-05	39.407	1.9933e-06	4.7974e-06	51.015	14.444	1.7231e-06	7.4803e-07	19.557	6.6977	4.8085	1.8632	2.8704e-06	2.5807	0.0019127	0.0019181	0.00053253	494.88	2.0851e-05	2.0721e-05	513.99	157.88	2.0699e-05	2.0618e-05	325.98	79.082	77.159	26.047	2.0613e-05	34.662	192.714	160.331	245.147	95.528	220.459	140.947	93.949	100.981	386.674	272.616	97.641	102.637	103.881	111.064	163.305	106.689	-8191	255	
1513.702	1	1	0	0	0.13274	0.069209	0.26289	0.21911	0.069784	0.25678	0.060124	0.13235	0.18995	0.19008	0.10824	0.17009	0.16896	0.14494	0.068466	0.075888	-2.3208	-3.1583	-2.5375	-2.9562	-3.1458	-2.3187	-3.2	-2.7771	-2.2729	-3.2083	-2.5563	-2.8208	-3.0396	-2.4583	-3.2771	-2.7958	168.391	364.952	286.366	211.443	171.014	179.184	279.705	291.727	319.344	380.036	229.282	354.150	199.401	102.305	441.860	317.824	0.00024454	0.00062059	0.0001478	38.414	5.216e-06	2.5453e-06	51.536	13.562	3.6551e-06	3.9703e-06	20.188	6.8292	4.9058	1.8449	6.3328e-06	2.6617	0.0018579	0.0018669	0.00051848	483.85	2.0425e-05	2.0459e-05	509.93	157.19	2.0657e-05	2.071e-05	328.08	79.994	78.384	26.544	2.102e-05	35.366	333.571	227.668	205.921	95.137	127.155	208.508	94.875	100.544	240.257	284.724	97.555	100.850	106.211	109.950	338.312	106.847	-8191	255	
1513.798	1	1	0	0	0.30586	0.11923	0.2223	0.20644	0.16909	0.12976	0.089914	0.21757	0.36705	0.066249	0.084796	0.13525	0.13333	0.024337	0.23873	0.018166	-2.1375	-3.3208	-2.65	-2.7938	-3.2167	-2.3063	-3.1375	-2.7167	-2.65	-3.3042	-2.5438	-2.7083	-3.1521	-2.6	-3.1042	-3.05	339.159	244.408	89.725	323.214	152.478	411.202	194.897	359.602	356.599	176.427	216.349	122.280	209.854	334.085	319.311	282.496	0.00023906	0.00064164	0.0002196	37.388	2.1232e-06	5.6806e-06	50.981	13.919	2.599e-06	3.7789e-06	19.241	6.7254	4.9071	1.8887	4.2116e-06	2.5388	0.001904	0.0019088	0.00052969	492.41	2.0857e-05	2.0872e-05	518.67	160.07	2.1087e-05	2.1138e-05	333.53	81.165	79.299	26.738	2.1129e-05	35.495	117.172	85.749	416.144	94.985	395.126	272.445	92.915	100.758	263.314	90.191	97.270	102.673	105.739	110.170	399.848	107.477	-8191	255	
1513.919	1	1	0	0	0.37831	0.049843	0.18114	0.080385	0.10007	0.29836	0.22263	0.19811	0.22493	0.12484	0.18072	0.16947	0.10038	0.13546	0.25199	0.11423	-2.1562	-3.4229	-2.6229	-2.5917	-3.2708	-2.4625	-2.9771	-3.0167	-2.4062	-3.1063	-2.6708	-2.5542	-3.1708	-2.4458	-2.9333	-3.0417	399.852	157.288	214.664	368.981	179.103	396.865	371.047	83.849	85.002	376.845	96.308	102.522	336.961	392.200	228.573	393.466	0.00017426	0.00022492	7.0478e-05	37.842	1.3228e-06	3.9326e-06	51.685	14.175	5.8363e-06	4.3934e-06	19.215	6.7109	4.9336	1.8403	3.9376e-06	2.6634	0.0019054	0.0019072	0.00052834	490.95	2.0771e-05	2.0823e-05	516.66	159.35	2.0994e-05	2.106e-05	332.92	81.076	79.49	26.935	2.1426e-05	36.181	358.667	252.961	356.242	95.171	318.428	435.079	94.888	101.320	354.846	353.182	100.469	102.329	104.105	110.710	236.520	105.443	-8191	255	
1514.013	1	1	0	0	0.08468	0.03295	0.085506	0.3399	0.27971	0.14761	0.25763	0.043984	0.15344	0.17551	0.028767	0.14968	0.25374	0.24158	0.15795	0.21183	-2.0875	-3.2271	-2.6562	-2.525	-3.3792	-2.475	-2.8792	-3.1729	-2.3438	-3.1562	-3.0417	-2.4292	-3.2604	-2.4562	-2.8354	-3.1063	253.110	345.486	383.180	335.246	430.893	213.870	231.826	247.639	224.403	293.325	378.938	148.261	415.458	94.037	279.980	392.611	0.00020655	0.00052442	2.436e-05	39.723	2.8842e-06	3.4218e-06	51.169	13.841	4.2153e-06	3.2476e-06	19.466	7.0856	4.8745	1.8011	3.834e-06	2.6282	0.0019514	0.001962	0.00054659	509.08	2.1685e-05	2.1683e-05	536.72	166.22	2.1972e-05	2.2025e-05	346.47	84.356	82.393	27.721	2.1923e-05	36.662	202.897	427.607	180.651	94.469	381.370	287.490	95.024	99.421	318.104	244.436	100.315	103.245	104.691	110.080	252.449	104.183	-8191	255	
1514.109	1	1	0	0	0.1164	0.17751	0.14169	0.23491	0.073325	0.16637	0.076743	0.12737	0.068828	0.07249	0.13251	0.28859	0.057478	0.20614	0.11946	0.14682	-1.8729	-3.0312	-2.7979	-2.3979	-3.3667	-2.725	-2.8375	-3.3417	-2.3	-2.9562	-3.1104	-2.4042	-3.2667	-2.6562	-2.6708	-3.2229	283.581	188.770	262.541	227.630	269.886	95.038	148.865	362.997	156.689	209.697	158.076	283.729	208.776	375.858	94.603	179.273	0.00010851	0.00047893	0.00012934	37.843	1.6641e-06	5.867e-06	50.362	14.059	2.8992e-06	4.1976e-06	18.713	6.7641	4.6498	1.8543	6.463e-06	2.5745	0.0019688	0.001976	0.00054923	509.8	2.1695e-05	2.1668e-05	536.01	165.64	2.1864e-05	2.1844e-05	344.17	83.676	81.761	27.44	2.1755e-05	36.516	294.630	249.273	180.871	94.436	134.161	366.915	94.773	100.146	296.093	167.667	98.420	102.353	103.823	111.490	241.095	106.351	-8191	255	
1514.205	1	1	0	0	0.29643	0.11005	0.31605	0.23874	0.18064	0.055792	0.019287	0.1668	0.1299	0.15897	0.34999	0.052292	0.040024	0.34715	0.13915	0.12871	-2.1229	-3.1083	-3.2062	-2.3937	-3.1813	-2.6479	-2.7313	-3.3583	-2.4896	-3.0396	-2.9271	-2.4146	-3.2021	-2.7167	-2.6583	-3.4396	366.830	370.140	421.844	310.727	248.404	303.427	159.730	291.206	291.293	265.371	355.590	288.344	371.450	406.593	362.666	159.266	0.0003416	0.0004294	6.8568e-05	37.211	2.0385e-06	3.7789e-06	51.749	14.005	3.5677e-06	4.2089e-06	18.625	6.6749	4.6448	1.7896	2.4392e-06	2.4983	0.0019637	0.0019641	0.00054511	505.43	2.1419e-05	2.1337e-05	525.74	161.72	2.123e-05	2.1159e-05	333.01	80.879	78.829	26.497	2.0977e-05	35.441	410.406	361.156	279.504	95.606	378.816	269.615	94.326	100.016	254.420	151.656	99.451	102.244	105.376	110.728	154.802	105.448	-8191	255	
1514.326	1	1	0	0	0.11228	0.19052	0.086591	0.2756	0.18592	0.18809	0.27517	0.078455	0.19754	0.22263	0.2029	0.13938	0.011464	0.24363	0.17129	0.31311	-2.1792	-2.9354	-3.2188	-2.3229	-3.2292	-2.8083	-2.5667	-3.3271	-2.4271	-2.8021	-3.1146	-2.5458	-3.0979	-2.8333	-2.4604	-3.1958	435.444	345.551	164.892	422.853	426.009	336.358	352.800	240.782	87.474	131.593	146.926	382.050	225.247	297.785	212.050	320.177	0.00024747	0.00045162	7.6537e-05	38.073	2.579e-06	6.7908e-06	51.313	13.714	1.1227e-06	1.9826e-06	19.221	6.5772	4.9578	1.8399	5.3662e-06	2.6398	0.0019053	0.0019127	0.00053228	496.26	2.1058e-05	2.1038e-05	521.11	160.83	2.1051e-05	2.0937e-05	329.99	80.258	78.085	26.263	2.0804e-05	35.109	173.121	158.642	124.862	94.842	423.146	156.230	93.824	101.202	271.798	408.878	97.234	103.426	102.225	109.820	156.140	107.248	-8191	255	
1514.398	1	1	0	0	0.1251	0.13805	0.087956	0.045509	0.12464	0.13904	0.22562	0.17794	0.20157	0.16632	0.10228	0.12355	0.078013	0.070261	0.10543	0.10664	-2.2604	-2.7083	-2.9833	-2.5208	-3.0438	-3.1083	-2.5125	-3.1063	-2.6583	-2.6875	-3.2875	-2.4875	-2.8083	-2.925	-2.4958	-3.1688	359.350	229.462	125.424	228.757	408.914	366.578	336.520	366.587	305.978	305.741	362.647	205.509	426.718	440.844	105.499	348.941	0.00026181	0.00073125	4.558e-05	37.829	4.044e-06	3.7169e-06	50.688	13.791	3.3222e-06	2.6162e-06	19.379	6.6946	4.7879	1.8456	3.628e-06	2.593	0.0018882	0.0019028	0.00053188	495.8	2.0997e-05	2.1019e-05	521.74	161.36	2.1235e-05	2.1255e-05	336.46	81.668	79.62	26.803	2.1208e-05	35.691	348.548	362.196	274.318	95.488	247.440	193.181	95.081	101.063	251.822	231.940	96.793	101.624	105.610	109.991	188.113	104.203	-8191	255	
1514.494	1	1	0	0	0.040209	0.15053	0.046307	0.28165	0.10504	0.026395	0.20019	0.011642	0.28995	0.23026	0.2157	0.23062	0.18929	0.18449	0.36719	0.14917	-2.3979	-2.6396	-3.1792	-2.5104	-2.9854	-3.1104	-2.3854	-3.1375	-2.6312	-2.6042	-3.3083	-2.6229	-2.7917	-3.1646	-2.4167	-3.2042	179.028	112.726	149.978	292.590	205.790	143.575	312.267	201.933	246.321	402.921	93.431	338.649	397.478	356.696	263.003	238.609	0.00018067	0.00022824	7.9267e-05	37.869	3.4485e-06	8.6628e-07	51.142	14.044	1.6902e-06	3.8754e-06	19.518	6.4678	4.6216	1.8535	2.0223e-06	2.7152	0.0019115	0.0019183	0.00053478	497.62	2.1086e-05	2.1101e-05	522.72	161.39	2.1223e-05	2.1209e-05	334.85	81.206	79.119	26.62	2.107e-05	35.399	251.268	359.959	160.121	95.719	164.229	348.748	93.946	101.012	358.794	329.456	97.060	103.054	104.295	110.462	200.422	105.828	-8191	255	
1514.590	1	1	0	0	0.1769	0.35755	0.13869	0.11813	0.19943	0.12548	0.051829	0.067783	0.092233	0.1494	0.10918	0.37107	0.21573	0.12503	0.20193	0.097941	-2.6146	-2.4125	-3.1854	-2.5792	-2.725	-3.1833	-2.3104	-3.0167	-2.9562	-2.45	-3.2208	-2.5167	-2.6708	-3.1562	-2.4979	-3.05	140.526	436.347	257.179	269.702	131.202	311.193	314.164	373.353	363.537	162.790	162.471	259.780	345.438	414.898	381.068	176.541	0.00021244	0.00020872	0.00017825	38.212	2.6269e-06	2.7316e-06	49.988	13.95	2.6966e-06	4.0577e-06	19.034	6.8344	4.893	1.8129	1.69e-06	2.6784	0.0018982	0.0019037	0.00052947	491.21	2.0788e-05	2.0767e-05	514.31	158.51	2.0745e-05	2.0697e-05	327.24	79.442	77.52	26.147	2.0668e-05	34.837	223.588	93.493	148.664	94.605	403.900	362.013	94.030	100.221	342.695	381.252	96.745	102.855	107.055	109.048	246.686	105.900	-8191	255	
1514.711	1	1	0	0	0.027889	0.28905	0.074354	0.094693	0.098273	0.079791	0.054349	0.30251	0.082444	0.12965	0.14572	0.18966	0.019117	0.20635	0.082982	0.079714	-2.6542	-2.1583	-3.1437	-2.6958	-2.6188	-3.2771	-2.4333	-2.9938	-3.025	-2.475	-3.2104	-2.6604	-2.4771	-3.2208	-2.3417	-2.9104	236.904	270.231	287.155	159.401	234.310	390.778	332.722	269.194	138.035	243.473	385.656	201.977	142.046	144.689	170.817	134.116	0.00029645	0.00068965	0.00014194	37.889	3.3992e-06	6.8091e-06	49.603	13.671	2.9047e-06	4.2961e-06	19.35	6.8367	4.7396	1.8466	2.5493e-06	2.5809	0.0018708	0.0018826	0.00052429	487.48	2.0623e-05	2.0629e-05	511.18	157.63	2.058e-05	2.0398e-05	321.01	77.844	75.789	25.587	2.0137e-05	34.037	366.788	395.283	423.602	96.221	257.015	138.319	92.608	100.377	141.474	109.712	95.609	102.658	103.594	110.755	214.933	105.390	-8191	255	
1514.805	1	1	0	0	0.18838	0.059662	0.14032	0.085853	0.10603	0.25228	0.12219	0.11598	0.022138	0.34121	0.13459	0.061776	0.2497	0.2853	0.29082	0.028836	-2.8833	-2.2979	-3.1625	-2.7104	-2.3583	-3.2583	-2.5	-2.7875	-3.0208	-2.425	-3.15	-2.8896	-2.5187	-3.2042	-2.5417	-2.6896	219.786	362.055	170.177	387.738	85.184	352.235	82.595	399.717	368.136	285.963	172.410	262.942	329.002	370.454	156.549	396.816	0.00033347	0.00025371	8.8553e-05	38.301	1.284e-06	3.7277e-06	51.925	13.815	7.9026e-06	1.4817e-06	19.546	6.634	5.0557	1.8718	2.0654e-06	2.6507	0.0018205	0.0018267	0.00050669	469.78	1.9751e-05	1.9709e-05	488.9	150.34	1.9576e-05	1.9546e-05	309.26	75.175	73.312	24.684	1.9333e-05	32.669	124.125	423.874	119.579	95.004	243.044	100.920	94.419	100.388	160.013	304.944	99.579	102.118	105.413	109.947	161.011	105.153	-8191	255	
1514.901	1	1	0	0	0.1775	0.095886	0.12506	0.19284	0.089589	0.1769	0.14402	0.26074	0.21419	0.1343	0.1965	0.20398	0.28001	0.17537	0.082661	0.15111	-2.8438	-2.5021	-2.9625	-3.0271	-2.4354	-3.2625	-2.5021	-2.6083	-2.9917	-2.4792	-3.0625	-2.8438	-2.3292	-3.2646	-2.6396	-2.6542	441.268	224.715	135.440	205.751	314.438	317.438	163.262	412.506	219.738	209.381	219.039	337.690	422.351	129.900	303.863	208.089	0.00026166	0.00032421	9.5723e-05	38.369	5.2274e-06	2.6794e-06	49.911	14.071	5.0046e-06	2.5659e-06	19.431	6.6514	4.7514	1.8139	1.3667e-06	2.6529	0.0017386	0.0017388	0.00048103	448.4	1.8766e-05	1.8664e-05	465.88	142.84	1.8407e-05	1.829e-05	288.83	70.088	67.628	22.659	1.7513e-05	29.698	417.128	250.021	124.261	94.202	270.057	275.054	93.938	100.103	246.933	268.697	97.944	103.158	105.765	108.121	247.354	106.125	-8191	255	
1514.999	1	1	0	0	0.1083	0.25905	0.17216	0.32914	0.10482	0.16003	0.19406	0.1704	0.058375	0.18848	0.1765	0.13147	0.16926	0.31285	0.22231	0.15894	-3.0062	-2.5312	-2.8396	-2.9771	-2.4333	-3.1854	-2.6396	-2.5458	-3.2375	-2.6083	-2.8042	-3.1042	-2.3729	-3.1042	-2.7021	-2.3771	297.363	140.598	135.140	102.336	127.370	270.281	434.856	282.953	125.509	194.033	282.400	260.708	212.652	327.416	354.611	252.610	8.2672e-05	0.00030723	0.00010461	38.298	4.4495e-06	2.7642e-06	49.846	13.877	4.8111e-07	2.5856e-06	19.125	6.6985	4.8064	1.8708	2.6657e-06	2.7122	0.0015589	0.0015513	0.00042848	403.7	1.6672e-05	1.6614e-05	419.47	128.19	1.6332e-05	1.6143e-05	257.03	62.64	60.277	20.257	1.553e-05	26.723	216.063	163.688	204.843	96.114	356.144	365.406	93.870	100.803	233.943	204.376	95.236	101.100	104.761	108.302	271.003	106.282	-8191	255	
1515.093	1	1	0	0	0.20659	0.29858	0.06986	0.18167	0.25944	0.21637	0.0045276	0.046882	0.06667	0.20175	0.24984	0.095851	0.046886	0.15769	0.20989	0.37571	-2.7917	-2.5104	-2.7917	-3.0729	-2.2812	-3.1312	-2.6646	-2.35	-3.25	-2.5396	-2.8563	-3.0042	-2.3375	-3.0417	-2.9375	-2.4354	404.702	220.905	114.173	407.997	227.979	94.553	96.944	82.481	120.536	90.305	370.596	214.662	116.148	217.792	321.788	188.414	0.00011319	0.00038162	0.00015393	37.863	4.1318e-06	4.2967e-06	50.044	14.141	1.8855e-06	1.0979e-06	20.533	6.734	4.9392	1.8179	1.7967e-07	2.6339	0.0013926	0.0013874	0.00038294	365.75	1.4909e-05	1.4827e-05	380.86	116.7	1.4684e-05	1.4563e-05	234.66	57.641	55.528	18.795	1.4396e-05	25.225	234.739	99.769	199.099	96.184	367.727	189.988	93.509	100.286	401.702	213.789	97.122	101.050	104.717	110.055	160.773	105.774	-8191	255	
1515.190	1	1	0	0	0.08021	0.22991	0.046233	0.21814	0.071202	0.33574	0.27144	0.14719	0.057535	0.21951	0.082017	0.25673	0.1784	0.13745	0.16585	0.15258	-2.8042	-2.4458	-2.7188	-3.2188	-2.5312	-2.9688	-3.0021	-2.2854	-3.1083	-2.7271	-2.6542	-3.2458	-2.2687	-2.9208	-3.0812	-2.4271	216.454	410.534	295.072	321.837	418.579	402.491	358.929	208.857	108.027	135.742	413.548	267.509	330.255	94.567	405.886	126.615	6.7035e-05	0.00058819	2.1934e-05	37.709	1.3538e-06	6.0021e-06	52.096	13.766	4.5758e-06	4.5285e-06	20.248	6.684	4.8273	1.8083	4.8838e-06	2.6517	0.0013164	0.0013237	0.00036957	357.49	1.4671e-05	1.467e-05	380.37	116.52	1.4678e-05	1.4603e-05	235.42	57.921	55.767	18.835	1.4393e-05	25.201	399.046	432.776	208.844	93.559	390.243	293.475	93.494	100.369	190.576	267.316	96.901	101.134	104.035	108.720	377.029	104.521	-8191	255	
1515.286	1	1	0	0	0.19921	0.1762	0.094367	0.20865	0.11584	0.10336	0.11848	0.19601	0.13305	0.13852	0.10073	0.041883	0.18218	0.33323	0.10415	0.26051	-2.6	-2.7229	-2.6125	-3.1771	-2.3979	-2.8479	-3.0521	-2.4854	-3.2146	-2.7333	-2.4583	-3.3417	-2.2708	-2.7792	-3.1229	-2.25	267.261	136.607	102.388	88.152	103.727	335.204	380.231	377.891	282.108	111.006	279.266	298.696	325.268	256.149	404.517	360.750	0.00046346	0.00021516	0.00010244	37.331	3.9091e-06	1.9629e-06	50.738	13.915	3.306e-06	3.4398e-07	20.167	6.6482	4.8093	1.8842	4.8438e-06	2.6257	0.001312	0.0013233	0.00037012	358.04	1.4682e-05	1.4659e-05	379.46	116.41	1.4634e-05	1.449e-05	233.98	57.404	55.162	18.645	1.4247e-05	24.872	416.574	222.239	94.748	93.648	212.586	188.921	94.553	100.080	225.190	252.174	98.103	103.081	103.959	109.958	424.455	106.963	-8191	255	
1515.406	1	1	0	0	0.17166	0.12631	0.11158	0.062895	0.097823	0.1367	0.20056	0.17528	0.2693	0.18778	0.21822	0.16333	0.15629	0.091346	0.22494	0.12736	-2.6417	-2.8438	-2.3583	-3.2854	-2.6771	-2.6625	-3.0687	-2.3271	-3.2083	-2.8458	-2.2667	-3.1063	-2.3667	-2.8146	-3.15	-2.3833	217.121	389.560	322.340	317.530	361.733	287.410	390.936	383.485	327.777	113.989	184.557	350.812	371.293	371.415	430.521	386.655	2.0829e-05	0.00051475	5.5299e-05	37.707	2.1212e-06	5.2714e-06	51.188	13.731	2.3369e-06	2.0029e-06	18.431	6.8297	4.7137	1.8775	5.7117e-07	2.6883	0.0012896	0.0012956	0.00036109	349.9	1.4265e-05	1.4261e-05	370.64	113.46	1.4179e-05	1.4108e-05	228.79	56.351	54.015	18.203	1.3812e-05	24.086	342.234	165.304	257.871	96.325	206.294	298.684	93.935	99.849	145.740	380.941	96.982	102.277	104.035	110.472	439.573	105.188	-8191	255	
1515.503	1	1	0	0	0.1701	0.13343	0.29671	0.15641	0.11502	0.045137	0.23876	0.20914	0.06459	0.099205	0.16139	0.11149	0.083085	0.16282	0.11907	0.010697	-2.5563	-2.9854	-2.5479	-3.1708	-2.5062	-2.8104	-3.2188	-2.6	-2.9917	-3.0417	-2.4125	-3.1417	-2.65	-2.6208	-3.1729	-2.3833	164.404	282.180	233.981	95.622	110.942	179.451	226.504	406.254	167.141	101.783	303.140	238.623	382.440	401.388	371.351	164.356	4.4073e-05	0.00018405	0.00013711	38.166	6.4876e-07	4.9145e-06	51.178	14.069	6.5239e-06	3.8156e-06	19.957	6.6766	4.7412	1.8519	1.5559e-06	2.6566	0.0012373	0.0012345	0.00034232	332.77	1.3416e-05	1.3404e-05	352.63	108	1.3484e-05	1.348e-05	219.67	54.38	52.2	17.762	1.352e-05	23.835	257.931	302.332	124.958	94.129	360.573	300.842	94.316	100.371	222.900	369.605	98.808	102.610	104.030	108.689	313.768	105.626	-8191	255	
1515.599	1	1	0	0	0.081165	0.14392	0.36305	0.2012	0.10622	0.26368	0.26871	0.24169	0.15676	0.19273	0.19616	0.30892	0.13866	0.31786	0.22471	0.062154	-2.5312	-3.0208	-2.4292	-2.9979	-2.9896	-2.5833	-3.1979	-2.6208	-2.7938	-3.1292	-2.3854	-3.0687	-2.7479	-2.3854	-3.1312	-2.5146	189.997	376.693	147.228	418.621	330.370	165.924	439.466	288.545	427.663	310.614	206.700	138.640	411.120	204.723	316.551	109.166	0.00012247	0.00020047	8.0086e-05	37.993	1.8327e-06	3.2461e-06	51.337	13.751	7.4196e-07	3.723e-06	19.073	6.535	5.01	1.8553	1.2124e-06	2.5882	0.0012314	0.0012379	0.00034593	337.42	1.3692e-05	1.3737e-05	360.65	110.39	1.3776e-05	1.3748e-05	222.87	54.962	53.001	18.034	1.3802e-05	24.186	111.567	253.929	195.666	95.278	372.321	391.341	94.763	100.743	218.403	234.521	97.841	100.669	102.829	107.855	218.119	105.303	-8191	255	
1515.695	1	1	0	0	0.15982	0.15691	0.15304	0.14433	0.068614	0.036654	0.29	0.2483	0.19073	0.3191	0.16109	0.32667	0.17934	0.12959	0.15238	0.06285	-2.3812	-3.15	-2.2396	-2.9875	-2.9625	-2.3083	-3.0958	-2.6333	-2.6646	-3.1271	-2.3271	-2.6708	-3.0708	-2.3625	-3.1417	-2.5583	243.031	393.997	246.169	137.618	302.265	189.235	88.542	374.894	166.446	316.117	280.245	346.776	174.046	136.397	353.747	180.717	0.00012846	0.00048904	5.8702e-05	38.005	2.3452e-06	3.9082e-06	51.413	14.054	4.9993e-06	6.0108e-06	18.925	6.6918	4.8351	1.8202	2.3431e-06	2.5344	0.0012535	0.0012623	0.00035235	342.68	1.3911e-05	1.3938e-05	365.38	111.55	1.4003e-05	1.3954e-05	226.5	55.866	53.786	18.209	1.3887e-05	24.252	404.274	146.719	410.784	96.814	199.744	354.673	92.799	100.968	258.880	281.948	97.991	101.411	102.888	110.555	228.229	105.844	-8191	255	
1515.789	1	1	0	0	0.21029	0.19082	0.11698	0.12317	0.19104	0.093573	0.15399	0.12766	0.086846	0.22018	0.13844	0.24764	0.26046	0.26323	0.14361	0.27346	-1.9688	-3.2292	-2.2604	-2.825	-3.0167	-2.4229	-3.2	-2.6396	-2.4271	-3.2896	-2.5583	-2.8042	-3.0354	-2.2562	-3.2354	-2.775	201.114	364.002	300.952	288.305	371.316	183.178	232.811	293.744	282.325	343.139	234.817	176.434	126.419	318.128	413.758	174.817	0.00024068	0.00027238	6.2667e-05	37.686	2.0601e-06	5.5991e-06	50.761	14.338	4.3804e-06	2.7254e-06	19.536	6.6745	5.0206	1.9098	3.9612e-06	2.7142	0.0012519	0.0012546	0.00034773	335.92	1.351e-05	1.3425e-05	349.78	106.01	1.3087e-05	1.2966e-05	209.98	51.512	49.232	16.635	1.2471e-05	22.006	84.591	143.841	334.856	95.660	148.396	239.396	94.018	99.918	197.682	120.585	97.171	101.230	105.492	109.256	238.720	105.776	-8191	255	
1515.887	1	1	0	0	0.24076	0.12616	0.25441	0.097075	0.11313	0.12162	0.054846	0.37226	0.03623	0.087437	0.11279	0.31403	0.10767	0.18106	0.1463	0.070402	-1.9417	-3.2167	-2.4729	-2.6375	-3.0542	-2.3208	-3.0208	-2.9	-2.3396	-3.0771	-2.5771	-2.5667	-3.0438	-2.4833	-3.0125	-2.9917	113.163	87.706	125.932	234.991	263.281	164.220	153.516	117.146	324.660	414.042	333.017	342.712	273.435	357.626	355.140	215.556	0.00025417	0.00013144	2.6037e-05	38.567	3.0867e-06	2.01e-06	51.428	13.925	2.5746e-06	3.0539e-06	19.675	6.6341	4.8921	1.8458	2.8071e-06	2.6888	0.0011242	0.0011254	0.00031275	307.56	1.2277e-05	1.2263e-05	326.23	99.365	1.2228e-05	1.2208e-05	200.49	49.571	47.749	16.219	1.222e-05	21.723	112.805	230.932	317.416	95.140	231.819	210.132	94.850	99.777	158.137	394.292	95.757	102.339	104.531	109.362	384.743	105.641	-8191	255	
1516.006	1	1	0	0	0.19761	0.025098	0.12404	0.28152	0.17173	0.081465	0.19033	0.15374	0.12177	0.18601	0.17143	0.17793	0.14394	0.11744	0.074532	0.16801	-1.9146	-3.1562	-2.5625	-2.6271	-3.1417	-2.4688	-2.8708	-2.9646	-2.2021	-3.0771	-2.6771	-2.3833	-3.0687	-2.4562	-2.8917	-3.1125	91.498	403.571	297.503	291.869	280.242	306.139	285.789	131.848	356.132	214.080	282.829	431.672	94.732	271.822	253.520	269.879	0.00019417	0.00048119	4.5912e-05	38.172	2.0727e-06	6.7877e-07	51.894	13.823	4.3805e-06	1.4172e-06	19.686	6.6519	4.8596	1.8368	1.6189e-06	2.5922	0.0011087	0.0011147	0.00030922	304.46	1.2122e-05	1.2105e-05	323.36	98.324	1.2087e-05	1.2054e-05	198.3	49.214	47.508	16.135	1.2204e-05	21.75	247.956	190.976	315.147	93.773	299.475	193.269	94.545	100.019	122.422	335.926	98.249	102.679	104.877	111.510	307.422	104.217	-8191	255	
1516.102	1	1	0	0	0.33291	0.096368	0.040306	0.10465	0.24467	0.018348	0.1473	0.038357	0.16718	0.22056	0.16489	0.12774	0.058863	0.29622	0.13125	0.1691	-1.8958	-3.075	-2.6312	-2.3625	-3.2062	-2.3896	-2.7479	-3.1542	-2.3312	-3.0625	-2.7792	-2.4	-3.1104	-2.4458	-2.7354	-3.1	392.958	247.788	224.317	275.729	223.903	323.593	104.101	270.833	378.284	362.587	432.232	297.310	289.808	211.596	370.038	391.174	0.00010813	0.00046862	4.3423e-05	38.862	7.662e-07	4.5305e-06	49.957	14.205	3.8588e-06	9.3331e-07	19.192	6.7475	4.9832	1.8246	3.8613e-06	2.6664	0.001116	0.0011241	0.00031439	311.11	1.2515e-05	1.256e-05	333.89	102.1	1.2649e-05	1.2593e-05	206.62	51.22	49.326	16.715	1.2626e-05	22.408	409.547	286.929	421.434	94.837	347.770	326.791	93.194	101.514	107.367	229.518	98.164	102.691	103.730	108.858	406.798	105.364	-8191	255	
1516.198	1	1	0	0	0.229	0.050117	0.22495	0.064592	0.21179	0.063675	0.16758	0.23815	0.078319	0.1622	0.12034	0.20434	0.20982	0.27031	0.088978	0.083722	-2.0271	-3.1375	-2.8104	-2.5312	-3.0521	-2.5792	-2.75	-3.0146	-2.3271	-2.9896	-2.9604	-2.3604	-3.0563	-2.5729	-2.5875	-3.2083	368.619	240.999	158.741	131.266	391.276	105.553	403.702	186.014	189.325	231.626	305.630	266.692	220.533	142.001	387.112	410.911	0.00042308	0.00014127	6.9696e-05	39.445	1.6503e-06	3.5503e-06	52.378	13.853	1.5883e-06	1.61e-06	19.235	6.7807	4.9362	1.864	4.7303e-06	2.7787	0.0011517	0.0011583	0.00032359	317.82	1.2806e-05	1.2803e-05	338.86	103.99	1.2923e-05	1.292e-05	211.89	52.601	50.906	17.283	1.3135e-05	23.268	401.110	254.108	126.804	94.650	328.903	397.012	93.801	100.628	237.842	251.291	99.419	103.389	104.585	110.247	238.430	103.544	-8191	255	
1516.270	1	1	0	0	0.15064	0.10092	0.16195	0.28079	0.077939	0.25425	0.12315	0.051171	0.081105	0.15769	0.072886	0.12975	0.098466	0.053416	0.16111	0.17249	-2.0229	-2.8042	-3	-2.3667	-3.1813	-2.7042	-2.5146	-3.2729	-2.3521	-2.7958	-3.1312	-2.3937	-3.225	-2.7458	-2.5896	-3.1417	218.616	368.257	131.615	145.180	218.431	378.576	230.793	255.327	346.165	121.458	215.294	292.453	417.290	147.416	208.252	322.802	0.00029987	0.00040414	7.7385e-05	38.22	3.0504e-06	1.9099e-06	52.02	14.06	5.5949e-06	6.2186e-06	18.86	6.9461	4.9498	1.9376	4.0945e-06	2.7578	0.0011962	0.0012045	0.00033501	328.4	1.3301e-05	1.3304e-05	351.96	107.89	1.3487e-05	1.3477e-05	220.06	54.613	52.675	17.916	1.3674e-05	24.239	142.264	172.063	172.930	94.838	197.863	161.883	93.429	99.583	154.241	385.886	97.771	102.939	105.262	109.529	134.795	106.240	-8191	255	
1516.366	1	1	0	0	0.025106	0.30459	0.2076	0.18523	0.1739	0.030165	0.19804	0.15497	0.17792	0.18438	0.29319	0.26843	0.049465	0.14038	0.25686	0.18128	-1.9604	-2.8875	-2.9188	-2.2896	-3.1771	-2.7646	-2.5021	-3.1312	-2.6312	-2.9083	-3.125	-2.4896	-3.0833	-2.6688	-2.4292	-3.1521	126.107	406.059	155.507	365.737	350.087	242.685	117.174	167.226	361.315	83.185	103.877	423.043	329.001	386.558	150.096	204.878	7.382e-05	0.00061844	2.9236e-05	37.598	1.7497e-06	2.2215e-06	50.843	13.779	1.9462e-06	3.8988e-07	19.057	6.9353	5.0373	1.8643	3.5339e-06	2.6605	0.0012551	0.0012656	0.00035374	344.31	1.3998e-05	1.4033e-05	366.7	112.34	1.4064e-05	1.4024e-05	228.1	56.487	54.45	18.476	1.412e-05	24.679	214.518	146.820	277.215	94.527	182.408	427.244	93.360	100.067	263.981	299.571	96.143	103.867	102.218	109.333	292.125	105.640	-8191	255	
1516.487	1	1	0	0	0.17098	0.11138	0.13022	0.20033	0.1684	0.076276	0.16087	0.324	0.19002	0.079902	0.27037	0.20697	0.33493	0.21019	0.10098	0.084311	-2.0167	-2.7458	-3.1771	-2.3979	-3.0229	-2.9562	-2.5292	-3.0271	-2.4625	-2.5354	-3.2938	-2.4042	-2.7521	-2.8333	-2.4521	-3.1167	406.213	266.300	158.827	275.429	87.941	432.449	237.178	327.619	108.788	139.498	390.476	346.270	100.100	105.128	129.459	159.411	0.00036395	0.00014999	7.3979e-05	37.869	3.0359e-06	4.7992e-06	51.017	13.832	3.3521e-06	4.0695e-06	19.634	6.7489	4.7425	1.8233	5.9115e-06	2.6448	0.0012742	0.0012778	0.00035537	344.55	1.3978e-05	1.3972e-05	365.42	112.09	1.4093e-05	1.4131e-05	230.71	57.27	56.042	19.312	1.5171e-05	26.892	369.533	163.342	88.799	96.794	295.830	173.880	92.895	100.449	334.633	304.472	100.029	101.873	106.202	109.053	316.109	107.584	-8191	255	
1516.583	1	1	0	0	0.31413	0.27919	0.11656	0.25261	0.34752	0.14003	0.11876	0.26074	0.15293	0.27046	0.2129	0.16662	0.13032	0.20707	0.17943	0.17739	-2.2292	-2.4521	-3.1792	-2.4813	-2.9396	-3.0354	-2.3312	-3.0646	-2.925	-2.3917	-3.0563	-2.4458	-2.7479	-3.1396	-2.4479	-2.9021	287.604	144.059	240.910	212.345	400.083	215.086	210.050	170.826	403.356	396.714	303.192	246.039	85.721	161.289	292.855	359.311	0.00019889	0.00035984	0.00010615	38.27	2.4579e-06	1.4905e-06	51.055	13.788	2.0098e-06	2.3525e-06	19.77	6.7274	4.711	1.8414	3.9116e-06	2.6574	0.0014333	0.0014724	0.00041618	401.39	1.6926e-05	1.7166e-05	442	137.4	1.7908e-05	1.8054e-05	290.1	71.185	69.316	23.467	1.841e-05	31.355	432.836	291.788	374.611	94.401	362.542	206.661	93.811	100.207	367.965	366.901	95.904	102.376	103.425	110.167	282.522	105.355	-8191	255	
1516.679	1	1	0	0	0.062301	0.16568	0.060486	0.15396	0.17456	0.094453	0.045338	0.20377	0.085246	0.08846	0.19446	0.15754	0.12886	0.17314	0.051881	0.15694	-2.4667	-2.4396	-3.125	-2.4875	-2.7104	-3.2479	-2.3625	-3.0563	-2.8292	-2.5583	-2.9917	-2.7146	-2.7042	-3.0125	-2.4458	-2.9833	188.273	86.540	229.034	283.271	345.013	333.957	114.654	186.106	136.594	217.997	301.365	91.903	354.222	315.775	138.583	319.255	0.00013949	0.00012263	3.4542e-05	37.566	5.4337e-06	5.0047e-06	51.684	13.835	1.1992e-06	4.0293e-06	19.778	6.8936	4.8351	1.8242	2.9675e-06	2.7131	0.0016682	0.0016788	0.00046883	439.64	1.84e-05	1.8383e-05	462.12	142.17	1.8358e-05	1.8275e-05	289.06	70.149	67.726	22.814	1.7736e-05	30.296	423.427	412.265	376.487	95.215	333.879	303.821	94.163	99.916	169.990	114.482	95.432	102.218	105.650	107.535	425.790	104.952	-8191	255	
1516.800	1	1	0	0	0.020737	0.27256	0.13714	0.043894	0.29353	0.23025	0.19398	0.12925	0.34508	0.035814	0.16799	0.26972	0.16418	0.12657	0.079903	0.23843	-2.4833	-2.4542	-3.1771	-2.6312	-2.7292	-3.2896	-2.575	-2.8729	-2.9167	-2.2938	-3.0792	-2.6979	-2.6125	-3.1625	-2.5146	-2.9167	91.674	405.429	181.391	308.389	271.080	380.103	83.546	153.591	216.337	148.465	197.748	261.317	372.638	289.011	354.148	368.081	0.00025117	0.00042485	0.00021265	37.978	2.9458e-06	3.7247e-06	51.236	14.017	2.7607e-06	8.0223e-07	19.142	6.7344	4.8609	1.8911	3.0587e-06	2.6553	0.0016003	0.0016085	0.00044874	423.55	1.7675e-05	1.7704e-05	446.43	136.96	1.7601e-05	1.7495e-05	277.88	67.544	64.959	21.83	1.6823e-05	28.69	296.434	409.944	157.434	96.480	417.007	148.719	95.685	100.140	228.263	439.941	98.119	102.505	103.845	110.077	342.265	106.417	-8191	255	
1516.871	1	1	0	0	0.017421	0.10614	0.17281	0.076895	0.12965	0.17668	0.060021	0.1748	0.074102	0.12671	0.064585	0.15999	0.10873	0.27195	0.17729	0.076619	-2.5208	-2.2687	-3.2104	-2.5875	-2.5271	-3.2792	-2.5896	-2.7771	-2.9792	-2.4188	-3.0604	-2.725	-2.4562	-3.1625	-2.4292	-2.7062	152.404	352.419	142.036	256.939	311.824	337.526	147.172	211.154	293.100	143.531	213.920	138.502	339.364	424.566	196.282	170.215	0.00035782	0.00044982	6.9168e-05	38.053	2.9991e-06	4.5113e-06	50.629	13.996	3.8896e-06	3.4547e-06	19.907	6.7592	4.6261	1.8842	1.0529e-05	2.7079	0.0014996	0.001497	0.0004152	393.38	1.6286e-05	1.6352e-05	417.61	128.85	1.6553e-05	1.6597e-05	266.64	65.333	63.511	21.573	1.6798e-05	28.989	225.493	189.847	157.997	95.170	405.185	253.878	93.835	100.683	411.003	370.902	97.060	102.300	105.059	110.851	122.563	104.617	-8191	255	
1516.967	1	1	0	0	0.17207	0.17453	0.298	0.01921	0.15073	0.20175	0.18636	0.10516	0.094619	0.16749	0.13723	0.1127	0.093095	0.15626	0.19591	0.050088	-2.7583	-2.2729	-2.9313	-2.8688	-2.55	-3.0104	-2.5396	-2.5312	-3.3083	-2.4521	-2.8792	-3.0458	-2.3146	-3.1188	-2.75	-2.4083	423.319	181.309	118.005	316.601	268.578	335.265	394.393	369.810	83.717	432.212	434.645	430.112	310.276	175.913	206.118	213.271	0.00020634	0.00039236	6.8904e-05	37.592	5.1028e-06	2.0801e-06	51.037	13.917	1.585e-06	2.6939e-06	19.683	6.7437	4.9661	1.8827	3.0744e-06	2.7031	0.0015337	0.0015478	0.00043293	411.42	1.7199e-05	1.724e-05	437.26	134.65	1.7326e-05	1.7274e-05	276.22	67.528	65.744	22.316	1.7439e-05	30.012	165.813	242.226	240.317	94.418	389.055	275.921	93.629	100.418	134.762	195.786	100.336	103.004	104.783	108.384	182.382	106.531	-8191	255	
1517.086	1	1	0	0	0.16986	0.13389	0.084397	0.21216	0.081748	0.18818	0.15424	0.28889	0.16561	0.075809	0.10006	0.20033	0.1382	0.041611	0.11168	0.20503	-2.6917	-2.3729	-2.8604	-2.9021	-2.2667	-3.0104	-2.775	-2.6021	-3.0687	-2.3896	-2.9083	-3.075	-2.275	-3.1104	-2.8354	-2.55	397.292	421.942	287.565	407.722	432.853	379.212	269.963	359.033	348.559	403.112	292.718	382.036	226.379	218.281	178.383	346.855	0.00021637	0.00051672	0.00015036	37.628	2.2899e-06	2.7759e-06	51.243	13.683	4.6296e-06	2.5331e-06	19.511	6.7674	4.7309	1.8888	2.7416e-06	2.6701	0.0015982	0.001609	0.00044837	423.04	1.7662e-05	1.7641e-05	444.85	136.35	1.7573e-05	1.7489e-05	278.22	67.957	65.9	22.28	1.7352e-05	29.84	235.809	105.679	380.886	96.082	111.122	152.430	95.335	100.087	102.523	264.551	97.180	101.594	105.091	109.058	294.597	105.553	-8191	255	
1517.183	1	1	0	0	0.16815	0.077868	0.18066	0.16193	0.28061	0.29736	0.10765	0.062509	0.2662	0.29914	0.16373	0.069142	0.098169	0.16348	0.096528	0.23627	-2.85	-2.4188	-2.7958	-3.0979	-2.3187	-2.9	-2.8708	-2.4125	-3.3229	-2.55	-2.6375	-3.1958	-2.3479	-2.9958	-3.1042	-2.3937	148.244	382.288	114.581	373.444	83.644	295.257	414.448	92.304	124.720	187.791	214.918	283.536	137.404	301.868	403.039	272.615	0.00017926	0.00053086	8.5975e-05	38.026	2.2064e-06	6.4982e-06	50.687	13.779	2.5779e-06	4.8484e-06	19.973	6.6853	4.9734	1.8886	7.6735e-06	2.6549	0.0015826	0.0015936	0.00044576	423.04	1.7742e-05	1.7792e-05	449.05	138.27	1.7919e-05	1.7894e-05	285.55	69.555	67.434	22.725	1.7652e-05	30.154	123.927	95.975	142.098	96.728	330.577	170.617	93.461	101.506	132.121	437.759	97.930	103.629	105.603	110.357	200.693	107.860	-8191	255	
1517.279	1	1	0	0	0.10599	0.07066	0.19124	0.020488	0.16468	0.27162	0.14014	0.37188	0.074699	0.16946	0.22351	0.13236	0.11434	0.20003	0.12494	0.16112	-2.8521	-2.7812	-2.6667	-3.1979	-2.4167	-3.0292	-2.9625	-2.5417	-3.0938	-2.6937	-2.7208	-3.1854	-2.4292	-3	-2.8917	-2.4188	174.013	313.037	334.291	85.841	295.726	392.168	92.282	356.391	338.311	181.455	218.773	352.288	321.018	186.045	136.134	312.301	0.00028029	0.00013641	5.0698e-05	37.162	3.8527e-06	5.6216e-07	51.08	13.851	5.9677e-07	2.4348e-06	20.103	6.6643	4.9026	1.8479	2.232e-06	2.6176	0.0015963	0.001599	0.00044428	418.69	1.7511e-05	1.7504e-05	443.13	136.73	1.7699e-05	1.7618e-05	281.02	68.688	66.307	22.273	1.7217e-05	29.389	351.539	419.107	293.572	95.257	420.932	328.088	93.390	99.816	373.853	145.245	94.628	103.305	106.154	108.893	415.659	106.094	-8191	255	
1517.399	1	1	0	0	0.074922	0.12392	0.044372	0.14105	0.24225	0.28864	0.27641	0.21769	0.13227	0.15539	0.080915	0.0552	0.28548	0.14335	0.11648	0.13176	-2.7	-2.7125	-2.6083	-3.3104	-2.4021	-2.8312	-3.0667	-2.2812	-3.075	-2.9313	-2.4562	-3.2875	-2.4896	-2.6229	-3.0833	-2.5292	224.418	165.849	387.656	180.730	213.239	391.545	203.998	101.369	400.317	270.021	411.759	119.142	293.564	333.644	414.793	241.775	0.00028562	0.0006306	3.6207e-05	37.579	3.753e-06	1.3029e-06	50.829	13.804	1.526e-06	5.1804e-06	19.713	6.5488	4.8778	1.8756	3.7923e-06	2.595	0.0015495	0.0015511	0.00043227	409.49	1.7018e-05	1.7021e-05	431.81	133	1.7123e-05	1.7082e-05	273.3	66.65	64.67	21.894	1.7025e-05	29.134	316.367	268.764	252.848	95.718	346.887	305.583	93.246	101.165	133.525	145.428	96.754	103.850	104.019	108.934	96.193	107.205	-8191	255	
1517.495	1	1	0	0	0.2801	0.32184	0.16522	0.20687	0.084689	0.24186	0.025698	0.23115	0.12147	0.2138	0.28447	0.22438	0.15842	0.16757	0.22184	0.10713	-2.7729	-2.8104	-2.4833	-3.2729	-2.65	-2.8146	-3.3917	-2.2771	-3.0708	-2.9896	-2.3208	-3.0521	-2.6208	-2.6125	-3.2667	-2.5187	197.978	258.239	146.195	288.548	421.454	168.791	195.997	161.128	143.621	89.848	116.558	260.547	103.515	295.028	207.790	107.138	0.00010118	0.00042389	8.0054e-05	37.575	1.5209e-06	4.7432e-06	49.601	13.659	3.41e-06	3.8453e-06	19.973	6.4732	4.8818	1.8815	2.1957e-06	2.5973	0.0015322	0.0015295	0.0004239	399.99	1.6471e-05	1.6422e-05	417.36	127.98	1.6341e-05	1.6306e-05	260.99	63.934	61.847	20.879	1.6213e-05	27.965	235.090	199.654	176.604	96.417	189.299	335.843	95.774	100.269	224.876	387.519	99.319	101.885	104.706	110.840	90.024	105.352	-8191	255	
1517.567	1	1	0	0	0.20798	0.055787	0.15116	0.059263	0.15499	0.10833	0.17504	0.19774	0.27847	0.25984	0.23819	0.15281	0.051667	0.11221	0.19584	0.076041	-2.6729	-2.8854	-2.5167	-3.1646	-2.6375	-2.6083	-3.3667	-2.4875	-2.8479	-2.9521	-2.2	-3.2021	-2.6333	-2.6375	-3.1833	-2.5083	342.905	434.555	410.670	317.924	97.163	256.836	278.441	429.429	95.372	240.507	387.027	96.944	89.061	343.754	245.985	91.692	0.00032934	0.00026437	0.00014047	37.845	2.7525e-06	1.2219e-06	49.796	13.978	6.3087e-06	4.0716e-07	20.228	6.6235	4.8693	1.8329	5.1376e-06	2.6148	0.0014763	0.001483	0.00041486	396.08	1.642e-05	1.6406e-05	420.23	128.98	1.6476e-05	1.6525e-05	265.36	65.262	63.788	21.792	1.7204e-05	29.755	423.584	411.580	124.595	96.687	117.627	369.736	95.962	100.842	154.367	366.634	97.531	102.647	102.683	108.228	285.703	104.833	-8191	255	
1517.663	1	1	0	0	0.11848	0.3133	0.14151	0.17148	0.013276	0.1045	0.010354	0.2405	0.23344	0.086215	0.1016	0.018687	0.05279	0.031182	0.050177	0.11129	-2.5208	-3.1937	-2.4354	-2.9979	-2.8583	-2.4729	-3.1792	-2.4896	-2.8875	-3.1875	-2.3688	-3.1708	-2.6958	-2.4083	-3.3396	-2.5542	295.440	375.363	300.163	256.478	372.693	415.080	248.556	352.640	257.237	83.182	191.242	327.536	106.135	227.283	288.278	419.553	0.00010887	0.00057978	0.0001486	37.568	1.4694e-06	7.212e-06	50.932	13.756	5.2749e-06	4.2557e-06	19.429	6.9169	4.6198	1.8453	1.7618e-06	2.5514	0.0015919	0.0016188	0.00045511	431.64	1.8157e-05	1.8291e-05	461.83	142.83	1.8595e-05	1.8723e-05	299.1	73.34	71.489	24.219	1.9111e-05	32.524	124.876	409.282	148.453	96.270	274.958	171.121	94.919	100.080	375.113	191.409	96.136	102.314	103.809	108.650	154.089	106.311	-8191	255	
1517.784	1	1	0	0	0.35288	0.045743	0.20823	0.15535	0.17805	0.18818	0.11335	0.13792	0.16847	0.16015	0.26287	0.035018	0.22745	0.16026	0.10641	0.23383	-2.3729	-3.1125	-2.2938	-2.9667	-3.1708	-2.5667	-3.1354	-2.6312	-2.6562	-3.2521	-2.5354	-2.9208	-2.9896	-2.3792	-3.1104	-2.7313	420.773	222.521	410.904	181.662	139.983	259.408	285.776	192.044	359.586	265.372	273.702	310.455	114.404	379.171	346.657	82.915	0.00022616	0.00029009	0.00018337	37.078	1.4015e-06	2.4462e-06	50.822	13.671	3.6973e-06	3.303e-06	18.995	6.7845	4.911	1.8417	1.2853e-06	2.7321	0.0017421	0.001753	0.00048978	458.7	1.9365e-05	1.94e-05	483.83	148.43	1.9319e-05	1.9237e-05	304.33	73.977	71.793	24.258	1.9065e-05	32.342	318.668	401.829	373.316	94.106	351.233	97.336	95.409	100.154	119.378	192.930	96.651	104.212	103.416	109.491	322.046	106.837	-8191	255	
1517.878	1	1	0	0	0.24733	0.060593	0.16386	0.19128	0.030667	0.21968	0.19176	0.066428	0.15182	0.20752	0.16117	0.11958	0.05706	0.23414	0.14502	0.2105	-2.25	-3.1875	-2.4771	-2.9229	-3.0354	-2.3917	-3.1271	-2.7646	-2.6417	-3.3792	-2.4854	-2.7938	-2.9771	-2.4396	-3.1604	-2.7521	318.735	354.408	410.191	173.702	207.524	344.187	354.261	236.627	173.626	137.242	322.704	282.183	374.951	404.974	330.397	189.619	0.00010265	0.00055625	0.0001845	36.6	9.3631e-07	3.3046e-06	50.013	13.535	1.512e-06	1.1563e-06	19.54	6.7807	4.8181	1.8052	2.6e-06	2.6711	0.0017272	0.0017372	0.00048327	452.6	1.9131e-05	1.9207e-05	481.89	148.77	1.9462e-05	1.9491e-05	309.21	75.323	73.249	24.734	1.9444e-05	32.983	125.960	308.004	297.773	94.790	350.586	212.903	95.488	99.873	401.253	136.610	96.998	104.284	104.185	109.446	186.922	103.112	-8191	255	
1517.974	1	1	0	0	0.23567	0.10118	0.11196	0.11951	0.12346	0.25999	0.16014	0.11415	0.141	0.34486	0.028122	0.028059	0.27365	0.1499	0.17651	0.13585	-1.9792	-3.1625	-2.6042	-2.725	-3.1417	-2.4458	-3.0563	-2.8396	-2.5646	-3.1813	-2.5625	-2.7396	-3.1646	-2.3438	-2.9167	-3.1625	111.434	229.959	131.227	305.165	342.968	255.300	154.735	190.367	429.200	371.543	418.566	120.608	405.339	400.488	259.966	295.619	0.00020553	0.00035687	4.5363e-05	36.786	5.3269e-06	1.8882e-06	50.478	13.619	1.9686e-06	4.9826e-06	19.874	6.6711	4.8616	1.8508	2.6964e-06	2.6724	0.0017602	0.0017672	0.00049027	457.39	1.9208e-05	1.9198e-05	479.25	147.4	1.9265e-05	1.9247e-05	305.76	74.55	72.631	24.536	1.9305e-05	32.741	86.113	125.278	340.593	94.337	231.690	120.489	93.261	98.927	242.554	192.060	96.483	101.333	106.109	108.320	273.571	105.667	-8191	255	
1518.071	1	1	0	0	0.10304	0.13604	0.18694	0.06434	0.023581	0.2069	0.20556	0.15959	0.27592	0.10186	0.12436	0.24435	0.19601	0.18655	0.2136	0.021951	-2.0958	-3.0667	-2.5125	-2.5792	-3.1125	-2.4229	-3	-2.8917	-2.4667	-3.3854	-2.8354	-2.4875	-3.2396	-2.4604	-2.8312	-3.0854	249.204	385.241	371.580	304.843	408.568	96.207	342.454	184.395	150.989	199.091	196.710	367.319	246.823	238.728	184.177	216.639	0.00017996	9.5859e-05	4.9868e-05	37.746	3.0483e-06	1.783e-06	49.502	13.802	5.2471e-06	1.8469e-06	18.661	6.7911	4.8452	1.857	5.5643e-06	2.7047	0.0017439	0.0017499	0.00048473	451.45	1.8939e-05	1.8847e-05	470.81	144.86	1.8873e-05	1.8933e-05	301.59	73.759	72.271	24.489	1.93e-05	32.809	415.655	132.938	271.599	93.486	410.117	196.023	94.597	99.163	238.398	372.286	96.879	102.521	108.375	110.364	342.965	105.745	-8191	255	
1518.167	1	1	0	0	0.099402	0.10549	0.042941	0.20876	0.069571	0.28718	0.078011	0.17957	0.23409	0.22969	0.14162	0.032981	0.15489	0.24524	0.097089	0.065085	-2.0271	-3.175	-2.75	-2.4062	-3.2271	-2.5417	-2.8125	-3.0229	-2.1875	-3.2104	-2.8729	-2.4917	-3.2083	-2.5083	-2.6646	-3.1625	390.951	145.871	169.621	125.416	284.425	349.513	322.236	115.236	149.683	203.488	178.515	428.352	393.384	389.670	328.599	326.755	0.00023001	0.00015307	4.2089e-05	35.967	2.374e-06	3.6093e-06	50.991	13.756	5.751e-06	3.5409e-06	19.499	6.6927	4.6908	1.8937	2.6766e-06	2.7669	0.0017533	0.0017621	0.00048934	457.74	1.9273e-05	1.9173e-05	478.41	146.41	1.9003e-05	1.8888e-05	299.15	72.881	70.871	23.955	1.8841e-05	32.223	431.427	271.456	364.519	96.073	228.643	399.437	94.906	100.528	343.483	428.388	98.349	103.800	102.552	107.786	291.021	104.074	-8191	255	
1518.263	1	1	0	0	0.11691	0.076879	0.027092	0.2903	0.038979	0.15228	0.12633	0.13974	0.24075	0.040356	0.069098	0.3218	0.29276	0.15198	0.047938	0.27367	-1.9396	-3.0896	-3.0333	-2.4979	-3.2375	-2.6562	-2.7667	-3.2313	-2.4292	-2.8792	-3.175	-2.2833	-3.2771	-2.7208	-2.6354	-3.2854	321.982	135.030	151.882	169.893	420.396	398.726	364.638	334.702	134.431	197.023	168.226	343.536	174.286	263.341	344.729	122.020	0.00010002	0.00017517	0.00013568	38.402	5.4907e-06	2.3051e-06	50.948	13.831	2.1328e-06	1.4339e-06	19.836	6.7082	4.864	1.9026	1.4874e-06	2.6937	0.0017173	0.0017312	0.00048214	451.13	1.8978e-05	1.8958e-05	474.48	146.03	1.8982e-05	1.8922e-05	300.9	73.567	71.378	24.061	1.8837e-05	32.17	124.830	359.459	326.331	94.380	186.806	393.294	92.549	98.846	239.387	219.775	97.525	100.722	104.366	109.588	434.592	107.521	-8191	255	
1518.359	1	1	0	0	0.17703	0.17802	0.22959	0.21691	0.13394	0.11651	0.1074	0.209	0.16122	0.11639	0.050169	0.29511	0.11868	0.19857	0.16614	0.27429	-1.975	-2.825	-2.8646	-2.4708	-3.1375	-2.7958	-2.5938	-3.0958	-2.5833	-2.9271	-3.2292	-2.4104	-3.0771	-2.7833	-2.5021	-3.2792	111.149	185.642	122.005	417.103	222.304	172.420	405.003	107.392	322.777	383.604	386.780	187.659	142.139	130.374	328.044	354.617	0.00040466	0.00083871	6.2322e-05	37.369	8.4471e-07	2.2753e-06	50.869	13.723	3.9638e-06	3.6688e-06	19.822	6.7512	4.6799	1.7813	1.1693e-05	2.6243	0.0017089	0.0017151	0.00047626	445.75	1.8732e-05	1.8717e-05	469.94	144.78	1.885e-05	1.8821e-05	299.5	73.401	71.569	24.255	1.9134e-05	32.622	240.921	290.581	388.595	94.456	435.550	127.699	92.555	101.232	169.291	342.954	96.669	101.166	103.533	110.533	141.214	104.815	-8191	255	
1518.480	1	1	0	0	0.07273	0.087378	0.1029	0.17898	0.11166	0.077402	0.17773	0.1488	0.11591	0.30432	0.2265	0.10171	0.20515	0.073797	0.32798	0.11377	-2.1833	-2.6125	-3.0938	-2.4396	-3.0854	-2.7292	-2.35	-3.3021	-2.5354	-2.8125	-3.2938	-2.2958	-3.0604	-2.8833	-2.4688	-3.2583	331.287	190.126	360.921	356.535	215.894	107.979	305.067	426.595	331.462	302.609	242.803	127.682	124.224	209.468	373.002	237.331	0.00030744	0.00040006	0.00012724	37.135	2.1944e-06	1.1527e-06	50.053	13.688	3.9532e-06	9.0481e-07	19.069	6.427	4.5884	1.7476	4.2092e-06	2.4955	0.0017446	0.0017522	0.00048838	457.44	1.9245e-05	1.92e-05	480	147.87	1.9276e-05	1.9291e-05	307.15	75.146	73.573	24.946	1.9791e-05	33.536	85.682	386.633	224.291	95.083	243.985	343.174	95.675	100.795	323.342	365.313	96.491	102.677	104.595	108.175	143.952	104.523	-8191	255	
1518.576	1	1	0	0	0.16004	0.10424	0.10757	0.15295	0.096619	0.33274	0.32885	0.15996	0.17005	0.28212	0.16428	0.13179	0.17936	0.1248	0.17931	0.21584	-2.15	-2.5875	-3.1437	-2.4896	-3.0271	-3.1437	-2.3438	-3.1542	-2.6375	-2.7313	-3.2542	-2.3396	-2.9375	-3.1229	-2.2208	-3.2271	383.406	373.076	91.052	432.418	242.323	255.904	342.538	340.353	402.021	255.993	246.224	429.850	201.619	211.085	437.585	372.814	0.00027351	0.0003439	6.3712e-05	37.249	3.7274e-06	5.5587e-06	49.687	13.511	2.7558e-06	4.62e-06	19.096	6.366	4.592	1.751	4.4153e-06	2.556	0.001806	0.001812	0.00050509	470.87	1.983e-05	1.981e-05	493.03	151.63	1.9786e-05	1.978e-05	314.01	76.205	74.669	25.176	2.0023e-05	33.88	90.174	287.544	227.777	95.434	107.097	110.248	94.773	101.217	237.875	385.526	96.861	100.027	104.776	109.185	388.813	104.441	-8191	255	
1518.672	1	1	0	0	0.17635	0.15642	0.046414	0.2039	0.16963	0.15924	0.17627	0.24632	0.18597	0.091329	0.01982	0.14919	0.058848	0.027612	0.18986	0.36832	-2.4958	-2.4917	-3.2479	-2.625	-3.0042	-3.0438	-2.3	-2.9667	-2.6375	-2.3812	-3.1813	-2.5021	-2.7542	-3.2208	-2.3729	-3.0167	401.202	415.219	240.948	237.717	356.003	271.784	215.339	164.224	343.366	172.536	310.118	249.227	202.859	328.803	181.979	402.712	0.00014259	0.00048761	7.4945e-05	37.128	3.5881e-06	2.3336e-06	51.369	13.661	5.2803e-06	8.1338e-06	18.657	6.3814	4.535	1.7881	1.9714e-06	2.4809	0.0018241	0.001837	0.00051324	477.67	2.0152e-05	2.0131e-05	498.74	153.06	1.9977e-05	1.9879e-05	314.55	76.278	74.51	25.143	1.9891e-05	33.588	132.776	175.949	389.876	94.672	364.252	127.111	92.792	100.808	406.286	249.856	97.613	100.293	105.839	109.929	285.564	104.731	-8191	255	
1518.768	1	1	0	0	0.053067	0.095924	0.053351	0.20367	0.064773	0.29847	0.15201	0.066065	0.26454	0.21723	0.059884	0.087128	0.17021	0.17501	0.23315	0.10775	-2.5583	-2.2875	-2.9062	-2.5854	-2.7417	-3.2271	-2.4979	-3.0271	-3.1375	-2.4583	-3.2438	-2.5542	-2.5062	-3.3042	-2.3187	-2.8396	168.305	125.304	186.102	270.458	395.333	230.193	96.310	396.671	244.579	413.558	144.595	199.840	292.995	345.310	346.739	392.595	0.00039769	0.00043306	0.00011607	36.866	3.0928e-06	1.774e-06	50.183	13.343	1.4367e-06	5.7923e-06	18.604	6.2737	4.5137	1.7346	8.0239e-07	2.433	0.0018004	0.0018143	0.00050545	471.31	1.9895e-05	1.9894e-05	493.05	150.84	1.9613e-05	1.9445e-05	306.14	73.92	71.743	24.054	1.8954e-05	31.898	441.866	320.907	378.992	93.639	409.224	412.301	93.683	101.478	164.137	296.979	98.182	101.823	104.691	108.369	400.112	105.334	-8191	255	
1518.864	1	1	0	0	0.11363	0.13006	0.053518	0.22315	0.21835	0.0099343	0.080045	0.098713	0.14981	0.19398	0.19273	0.24521	0.19806	0.25055	0.114	0.16507	-2.5542	-2.4625	-2.975	-2.8937	-2.7167	-3.075	-2.4333	-3.0438	-3.2188	-2.4792	-3.2146	-2.9104	-2.5875	-3.2333	-2.4146	-2.9042	314.485	380.910	103.965	161.407	94.059	432.308	228.722	272.461	286.061	223.239	287.791	296.519	195.654	393.007	146.299	226.366	0.00023309	0.00055397	7.5357e-05	38.436	4.1971e-07	1.3541e-06	49.04	13.345	2.3322e-06	2.7419e-06	18.768	6.1334	4.6562	1.6396	7.2873e-06	2.2877	0.0017139	0.0017218	0.00047995	449	1.8836e-05	1.8809e-05	469.85	144.24	1.8763e-05	1.8722e-05	296.67	71.727	70.01	23.54	1.8527e-05	31.175	272.106	125.121	161.752	95.791	128.831	405.047	93.090	100.282	291.130	121.329	98.698	102.234	105.576	109.028	308.798	104.932	-8191	255	
1518.960	1	1	0	0	0.2626	0.25626	0.18664	0.14201	0.34609	0.09649	0.29867	0.12186	0.3114	0.087343	0.18749	0.086276	0.21796	0.30562	0.12979	0.078141	-2.8521	-2.3042	-3.0667	-2.6688	-2.5125	-3.275	-2.6521	-2.7146	-3.1208	-2.5479	-3.0708	-2.8396	-2.3792	-3.15	-2.775	-2.7458	333.176	270.159	426.422	232.774	202.331	192.780	222.031	209.260	392.179	89.559	174.793	397.254	273.287	285.432	321.211	92.887	0.00020799	6.3794e-05	0.00014463	36.535	1.5748e-06	3.8045e-06	49.042	13.089	5.0969e-06	2.7234e-06	18.888	6.0604	4.76	1.6778	3.6424e-06	2.4442	0.0016702	0.0016752	0.00046545	437.06	1.8304e-05	1.8337e-05	460.42	141.71	1.8462e-05	1.8477e-05	293.73	71.362	69.761	23.496	1.8501e-05	31.241	101.143	404.273	410.757	95.157	169.283	206.841	92.877	101.147	106.244	289.982	95.418	100.825	105.479	108.795	184.879	104.570	-8191	255	
1519.079	1	1	0	0	0.25171	0.10605	0.28426	0.08103	0.071307	0.21094	0.044906	0.099802	0.2457	0.069729	0.10798	0.071587	0.16888	0.055656	0.14236	0.20635	-2.8125	-2.4813	-3.0438	-3.0083	-2.4854	-3.2896	-2.8604	-2.5875	-3.1729	-2.5	-2.9896	-2.9167	-2.5229	-3.1208	-2.7854	-2.6063	380.650	171.767	339.225	392.163	288.865	315.169	426.306	294.145	421.530	261.219	287.072	443.346	375.453	175.321	104.779	110.876	0.0004709	0.00046863	6.189e-05	39.707	4.7109e-06	6.2467e-06	50.434	13.705	3.519e-06	3.3424e-06	19.076	6.2554	4.6369	1.7738	4.6325e-06	2.5078	0.0016769	0.0016799	0.00046687	438.32	1.834e-05	1.8345e-05	459.47	141.24	1.8284e-05	1.8255e-05	289.47	70.318	68.471	23.024	1.8002e-05	30.443	310.293	338.667	265.343	94.191	271.774	415.833	92.104	101.931	90.915	317.454	96.178	102.111	103.179	108.377	142.786	104.331	-8191	255	
1519.175	1	1	0	0	0.13181	0.16284	0.18647	0.16941	0.1003	0.22681	0.15135	0.16686	0.073252	0.026315	0.038441	0.23633	0.069424	0.11419	0.2081	0.017731	-2.9521	-2.2604	-2.8583	-2.9625	-2.425	-3.1292	-2.7833	-2.6042	-3.1708	-2.6437	-2.7792	-3.2812	-2.4917	-3.0708	-2.675	-2.5438	191.215	441.511	260.137	386.131	312.947	252.313	171.371	273.061	320.575	439.945	325.246	178.347	236.026	353.932	284.250	210.801	0.00014178	0.00073697	7.1392e-05	38.086	3.1805e-06	3.5699e-06	50.714	13.629	1.8446e-06	4.4416e-06	18.551	6.3529	4.4393	1.6886	7.129e-06	2.4366	0.0016243	0.0016301	0.00045348	427.96	1.7943e-05	1.8e-05	452.96	139.66	1.8204e-05	1.8203e-05	290.67	70.903	69.403	23.417	1.844e-05	31.257	332.705	176.768	208.292	94.909	274.856	342.011	94.220	100.744	358.185	232.461	96.412	100.932	103.316	110.201	330.422	105.631	-8191	255	
1519.272	1	1	0	0	0.18754	0.11079	0.40117	0.066724	0.092893	0.086417	0.04643	0.19719	0.12245	0.23031	0.15041	0.26445	0.11444	0.19509	0.32491	0.25083	-3.0083	-2.6042	-2.9771	-3.2313	-2.6021	-3.0687	-2.7854	-2.4729	-3.2292	-2.6875	-2.6479	-3.2896	-2.5104	-2.9229	-3.1333	-2.4313	166.706	247.993	297.471	126.003	379.745	321.313	140.782	431.401	205.143	218.865	199.569	146.033	149.435	322.520	431.038	442.068	0.00038832	0.00030572	2.3618e-05	38.438	1.9044e-06	3.2171e-06	51.581	13.37	6.1293e-06	7.0612e-06	18.902	6.4509	4.6998	1.7074	6.1022e-06	2.3645	0.0016779	0.0016825	0.00046808	439.38	1.8336e-05	1.8273e-05	457.95	140.84	1.8263e-05	1.8243e-05	290.37	70.618	68.866	23.204	1.8227e-05	30.929	100.327	115.938	343.563	95.045	192.916	129.448	93.783	100.409	126.704	315.532	98.092	102.226	103.360	108.974	149.517	107.595	-8191	255	
1519.368	1	1	0	0	0.14925	0.15677	0.32176	0.12849	0.21669	0.1448	0.18782	0.061582	0.22376	0.11811	0.20118	0.12136	0.23748	0.20619	0.15788	0.091599	-2.9833	-2.7979	-2.6521	-3.2812	-2.4062	-2.9062	-3.1229	-2.4167	-3.175	-2.7458	-2.5312	-3.2458	-2.325	-2.8083	-3.1167	-2.6021	384.561	432.604	198.898	379.339	380.463	292.338	374.236	427.404	225.074	348.768	389.729	363.731	442.872	296.775	197.168	349.643	0.00021142	0.00055597	0.00011644	37.805	3.5785e-06	2.039e-06	49.958	13.184	1.9248e-06	2.1775e-06	19.393	6.3405	4.7696	1.7207	4.8334e-06	2.3814	0.0016589	0.0016642	0.0004618	433.61	1.8072e-05	1.8007e-05	452.16	138.61	1.7944e-05	1.7841e-05	283.35	68.758	66.988	22.55	1.7754e-05	30.293	437.466	341.248	270.624	96.227	216.381	271.720	93.357	101.037	317.177	139.188	98.967	103.222	105.579	108.545	376.881	105.675	-8191	255	
1519.464	1	1	0	0	0.13926	0.060373	0.13416	0.01454	0.12745	0.054653	0.089839	0.082787	0.14167	0.26804	0.12715	0.16101	0.37034	0.15183	0.19678	0.1358	-2.9479	-2.7917	-2.5271	-3.3417	-2.4229	-2.6562	-3.1792	-2.3979	-3.0208	-2.8812	-2.5438	-3.1229	-2.4688	-2.7354	-3.1104	-2.4437	392.471	376.013	332.989	217.925	146.223	250.563	391.364	118.103	281.252	201.732	133.113	86.056	91.006	218.390	281.001	262.361	0.00023055	0.00032711	9.5882e-05	38.04	4.9575e-06	3.2944e-06	50.692	13.602	2.871e-06	2.6274e-06	19.538	6.2791	4.5994	1.7334	3.4722e-06	2.4644	0.0016242	0.001632	0.00045612	430.21	1.7978e-05	1.7972e-05	452.52	139.22	1.8017e-05	1.7939e-05	285.27	69.573	67.723	22.808	1.7947e-05	30.522	255.014	190.922	276.623	95.394	169.679	362.183	92.716	100.574	337.930	383.889	99.082	101.453	104.218	108.256	308.794	106.470	-8191	255	
#DATA ENDS
