BOXY.EXE: ISS Imagent and Oximeter Data Acquisition Program Version 0.80
Ascii Record File

#ACQ INFORMATION
2  Detector Channels 
16  External MUX Channels 
1  Auxiliary Channels 
5000  Waveform (CCF) Frequency (Hz)
1  Waveforms Skipped 
30  Waveforms Averaged 
1  Cycles Averaged 
16  Acquisitions per Waveform 
10.0806  Updata Rate (Hz) 

#FILE INFORMATION
TRUE -- External MUX Channel results are PARSED.
FALSE -- AC DC and Phase are NOT grouped.
TRUE -- Companion Program Settings File CREATED.
FALSE -- AC data not excluded
FALSE -- DC data not excluded
FALSE -- Phase data not excluded
FALSE -- Auxillary Chn. data not excluded
Tab delimiters

#CALIBRATION STATE
TRUE -- Waveform Calibration Values APPLIED.


#AUX CALIBRATION VALUES
Val Type	aux-1	

Term	1.0000e+00	
Factor	0.0000e+00	


#WF CALIBRATION VALUES
A = Detector Channel
Val Type	A-AC1	A-AC2	A-AC3	A-AC4	A-AC5	A-AC6	A-AC7	A-AC8	A-AC9	A-AC10	A-AC11	A-AC12	A-AC13	A-AC14	A-AC15	A-AC16	A-DC1	A-DC2	A-DC3	A-DC4	A-DC5	A-DC6	A-DC7	A-DC8	A-DC9	A-DC10	A-DC11	A-DC12	A-DC13	A-DC14	A-DC15	A-DC16	A-Ph1	A-Ph2	A-Ph3	A-Ph4	A-Ph5	A-Ph6	A-Ph7	A-Ph8	A-Ph9	A-Ph10	A-Ph11	A-Ph12	A-Ph13	A-Ph14	A-Ph15	A-Ph16	

Term	0.00000e+00	0.00000e+00	0.00000e+00	0.00000e+00	0.00000e+00	0.00000e+00	0.00000e+00	0.00000e+00	0.00000e+00	0.00000e+00	0.00000e+00	0.00000e+00	0.00000e+00	0.00000e+00	0.00000e+00	0.00000e+00	0.00000e+00	0.00000e+00	0.00000e+00	0.00000e+00	0.00000e+00	0.00000e+00	0.00000e+00	0.00000e+00	0.00000e+00	0.00000e+00	0.00000e+00	0.00000e+00	0.00000e+00	0.00000e+00	0.00000e+00	0.00000e+00	0.00000e+00	0.00000e+00	0.00000e+00	0.00000e+00	0.00000e+00	0.00000e+00	0.00000e+00	0.00000e+00	0.00000e+00	0.00000e+00	0.00000e+00	0.00000e+00	0.00000e+00	0.00000e+00	0.00000e+00	0.00000e+00	
Factor	1.00000e+00	1.00000e+00	1.00000e+00	1.00000e+00	1.00000e+00	1.00000e+00	1.00000e+00	1.00000e+00	1.00000e+00	1.00000e+00	1.00000e+00	1.00000e+00	1.00000e+00	1.00000e+00	1.00000e+00	1.00000e+00	1.00000e+00	1.00000e+00	1.00000e+00	1.00000e+00	1.00000e+00	1.00000e+00	1.00000e+00	1.00000e+00	1.00000e+00	1.00000e+00	1.00000e+00	1.00000e+00	1.00000e+00	1.00000e+00	1.00000e+00	1.00000e+00	X	X	X	X	X	X	X	X	X	X	X	X	X	X	X	X	

B = Detector Channel
Val Type	B-AC1	B-AC2	B-AC3	B-AC4	B-AC5	B-AC6	B-AC7	B-AC8	B-AC9	B-AC10	B-AC11	B-AC12	B-AC13	B-AC14	B-AC15	B-AC16	B-DC1	B-DC2	B-DC3	B-DC4	B-DC5	B-DC6	B-DC7	B-DC8	B-DC9	B-DC10	B-DC11	B-DC12	B-DC13	B-DC14	B-DC15	B-DC16	B-Ph1	B-Ph2	B-Ph3	B-Ph4	B-Ph5	B-Ph6	B-Ph7	B-Ph8	B-Ph9	B-Ph10	B-Ph11	B-Ph12	B-Ph13	B-Ph14	B-Ph15	B-Ph16	

Term	0.00000e+00	0.00000e+00	0.00000e+00	0.00000e+00	0.00000e+00	0.00000e+00	0.00000e+00	0.00000e+00	0.00000e+00	0.00000e+00	0.00000e+00	0.00000e+00	0.00000e+00	0.00000e+00	0.00000e+00	0.00000e+00	0.00000e+00	0.00000e+00	0.00000e+00	0.00000e+00	0.00000e+00	0.00000e+00	0.00000e+00	0.00000e+00	0.00000e+00	0.00000e+00	0.00000e+00	0.00000e+00	0.00000e+00	0.00000e+00	0.00000e+00	0.00000e+00	-2.40346e+02	-8.60789e+01	-1.37580e+02	-1.81794e+02	-9.56072e+01	-6.15362e+01	-1.55227e+02	-1.62015e+02	-7.62495e+01	-2.08821e+01	-1.76015e+02	-1.69664e+02	-1.83008e+02	-1.76920e+02	-1.10967e+02	-1.49451e+02	
Factor	4.41567e-05	7.28733e-05	1.84622e-05	1.45759e-01	5.45265e-07	6.77868e-07	1.58711e-01	4.73567e-02	6.69312e-07	6.60670e-07	1.20289e-01	2.57934e-02	2.57211e-02	8.47169e-03	7.26230e-07	1.17836e-02	2.97384e-07	2.98781e-07	8.31620e-08	7.06932e-02	3.27491e-09	3.27375e-09	7.22083e-02	2.26007e-02	3.28093e-09	3.27436e-09	4.87179e-02	1.14701e-02	1.15018e-02	3.84075e-03	3.27804e-09	5.10611e-03	X	X	X	X	X	X	X	X	X	X	X	X	X	X	X	X	



#DISTANCE SETTINGS
A = Detector Channel
A-1	A-2	A-3	A-4	A-5	A-6	A-7	A-8	A-9	A-10	A-11	A-12	A-13	A-14	A-15	A-16	

2.5000e+00	3.0000e+00	2.5000e+00	3.0000e+00	2.0000e+00	3.0000e+00	1.5000e+00	3.0000e+00	3.0000e+00	3.0000e+00	3.0000e+00	3.0000e+00	3.0000e+00	3.0000e+00	1.5000e+00	3.0000e+00	

B = Detector Channel
B-1	B-2	B-3	B-4	B-5	B-6	B-7	B-8	B-9	B-10	B-11	B-12	B-13	B-14	B-15	B-16	

1.0000e+01	1.0000e+01	1.0000e+01	1.4400e+00	1.0000e+01	1.0000e+01	1.5100e+00	1.9400e+00	1.0000e+01	1.0000e+01	1.9900e+00	2.4900e+00	2.4100e+00	2.9000e+00	1.0000e+01	2.9800e+00	




#DATA BEGINS
time	group	step	mark	flag	A-AC1	A-AC2	A-AC3	A-AC4	A-AC5	A-AC6	A-AC7	A-AC8	A-AC9	A-AC10	A-AC11	A-AC12	A-AC13	A-AC14	A-AC15	A-AC16	A-DC1	A-DC2	A-DC3	A-DC4	A-DC5	A-DC6	A-DC7	A-DC8	A-DC9	A-DC10	A-DC11	A-DC12	A-DC13	A-DC14	A-DC15	A-DC16	A-Ph1	A-Ph2	A-Ph3	A-Ph4	A-Ph5	A-Ph6	A-Ph7	A-Ph8	A-Ph9	A-Ph10	A-Ph11	A-Ph12	A-Ph13	A-Ph14	A-Ph15	A-Ph16	B-AC1	B-AC2	B-AC3	B-AC4	B-AC5	B-AC6	B-AC7	B-AC8	B-AC9	B-AC10	B-AC11	B-AC12	B-AC13	B-AC14	B-AC15	B-AC16	B-DC1	B-DC2	B-DC3	B-DC4	B-DC5	B-DC6	B-DC7	B-DC8	B-DC9	B-DC10	B-DC11	B-DC12	B-DC13	B-DC14	B-DC15	B-DC16	B-Ph1	B-Ph2	B-Ph3	B-Ph4	B-Ph5	B-Ph6	B-Ph7	B-Ph8	B-Ph9	B-Ph10	B-Ph11	B-Ph12	B-Ph13	B-Ph14	B-Ph15	B-Ph16	aux-1	digaux	

1531.245	1	1	0	768	0.056438	0.11984	0.10067	0.33279	0.019589	0.18995	0.27629	0.23277	0.072167	0.11342	0.16057	0.14785	0.14276	0.16965	0.15741	0.28339	-2.4979	-2.6312	-3.3375	-2.6	-2.7979	-3.3021	-2.6042	-3.0396	-2.9396	-2.4667	-3.45	-2.8229	-2.8417	-3.0771	-2.6542	-3.25	474.428	204.190	225.162	517.641	293.942	433.109	487.549	220.946	280.282	424.592	376.603	397.815	224.953	375.297	403.540	486.460	0.00013786	0.00018538	4.3124e-05	36.143	2.8746e-06	3.0354e-06	50.179	13.088	1.817e-06	5.2391e-06	19.682	6.3477	4.7504	1.7443	6.5119e-06	2.5431	0.0022428	0.0022604	0.00063114	577.88	2.494e-05	2.4986e-05	608.05	187.87	2.5109e-05	2.5076e-05	391.74	94.262	92.585	31.213	2.5136e-05	41.815	418.113	380.092	264.914	171.118	479.484	168.812	169.896	177.815	162.651	363.973	170.737	177.419	182.079	185.452	281.444	182.029	-8191	255	
1531.341	1	1	0	0	0.043075	0.077554	0.25362	0.22148	0.20515	0.21023	0.042048	0.42018	0.19538	0.18573	0.20831	0.068786	0.3017	0.11719	0.11508	0.13145	-2.6542	-2.4375	-3.4479	-2.5375	-3.0104	-3.1708	-2.6354	-3.0062	-2.9875	-2.5896	-3.3354	-2.9042	-2.6229	-3.1917	-2.5417	-3.0667	341.427	407.737	283.303	322.600	350.199	387.959	161.931	429.816	220.878	442.847	412.427	168.200	399.200	291.333	224.088	168.364	0.00015093	0.00010413	5.2349e-05	36.146	8.2699e-06	1.652e-06	51.526	13.386	2.8022e-06	3.6508e-06	19.864	6.5199	4.458	1.7561	3.4484e-06	2.4124	0.002288	0.0023046	0.00064352	587.24	2.5328e-05	2.5318e-05	613.17	188.93	2.5231e-05	2.5241e-05	394.38	94.997	93.283	31.45	2.5324e-05	42.059	397.572	440.675	204.438	169.920	341.120	260.401	169.134	175.938	158.663	312.246	173.645	176.106	177.548	185.553	509.577	180.473	-8191	255	
1531.437	1	1	0	0	0.16807	0.31807	0.073132	0.059029	0.064417	0.07868	0.19385	0.043903	0.04721	0.16954	0.2969	0.2357	0.11171	0.098496	0.27434	0.18895	-2.7542	-2.4708	-3.2417	-2.9062	-2.8229	-3.3604	-2.6771	-2.8937	-3.2229	-2.5146	-3.3229	-2.8667	-2.6458	-3.3958	-2.8354	-2.8	500.708	353.227	463.258	490.154	216.637	476.542	253.763	253.537	164.068	173.467	374.878	292.646	490.592	378.567	320.850	459.141	0.00021324	0.00053431	0.00012904	36.175	2.4464e-06	4.6732e-06	50.94	13.378	1.6364e-06	3.2901e-06	17.577	6.4472	4.694	1.7244	1.719e-06	2.472	0.0023057	0.0023217	0.00064788	592.11	2.5601e-05	2.5706e-05	622.77	192.88	2.5865e-05	2.5797e-05	401.49	96.392	94.266	31.646	2.5355e-05	41.922	337.843	358.330	294.979	170.310	237.913	322.704	168.740	175.050	212.500	411.013	172.732	177.163	179.871	185.463	508.878	182.950	-8191	255	
1531.533	1	1	0	0	0.12126	0.12439	0.31977	0.087265	0.23315	0.2444	0.16057	0.2056	0.050904	0.25476	0.18655	0.20273	0.2568	0.18357	0.2302	0.057491	-2.8563	-2.5292	-3.175	-2.8729	-2.4604	-3.225	-2.6958	-2.7854	-3.2958	-2.5625	-3.3187	-3.1917	-2.5625	-3.2396	-2.6688	-2.7583	484.065	350.518	426.807	408.732	495.122	513.353	478.632	414.515	180.955	254.968	304.701	433.504	410.423	217.239	317.182	367.580	0.00016698	9.7812e-05	9.0842e-05	35.606	1.231e-06	2.1707e-06	49.604	13.554	4.772e-06	3.7137e-06	19.118	6.227	4.4966	1.7239	3.5064e-06	2.4337	0.0022881	0.0022956	0.00063761	580.1	2.4985e-05	2.4975e-05	606.58	187.3	2.5105e-05	2.5071e-05	392.05	94.591	92.786	31.3	2.5104e-05	41.675	444.291	211.901	340.902	171.308	488.743	353.333	169.087	177.496	353.910	389.619	174.684	176.614	180.633	184.724	249.942	180.538	-8191	255	
1531.630	1	1	0	0	0.020481	0.068032	0.12328	0.043627	0.045461	0.078598	0.17804	0.16139	0.25766	0.11612	0.30436	0.23079	0.14539	0.26035	0.21632	0.069816	-3.0229	-2.3937	-3.1396	-2.9333	-2.5187	-3.3792	-2.7562	-2.7958	-3.2625	-2.6146	-3.0687	-3.1042	-2.5292	-3.2771	-2.8417	-2.8729	259.048	306.433	462.259	341.954	220.760	202.983	302.515	394.995	416.225	421.877	440.109	261.136	473.323	247.878	483.436	518.068	6.8827e-05	0.00018952	4.2947e-05	35.802	7.6059e-06	4.7695e-06	49.108	13.583	8.0159e-07	3.9642e-06	18.886	6.3619	4.7069	1.7789	8.7212e-07	2.4697	0.0022795	0.0022964	0.00064024	585.93	2.5439e-05	2.5539e-05	619.18	191.58	2.5763e-05	2.5768e-05	401.8	96.943	95.478	32.226	2.5964e-05	43.112	310.072	160.190	337.735	171.953	267.492	456.269	168.392	178.027	191.101	167.496	176.276	178.660	179.072	186.048	188.000	180.499	-8191	255	
1531.726	1	1	0	0	0.15339	0.10427	0.16943	0.12119	0.07279	0.31447	0.20427	0.096181	0.22451	0.15658	0.097415	0.13966	0.16315	0.14654	0.17083	0.25492	-2.7938	-2.6583	-3.0542	-3.3104	-2.65	-3.2646	-2.9917	-2.7042	-3.3208	-2.5938	-3.1063	-3.3625	-2.4521	-3.1625	-2.9479	-2.5312	498.588	445.408	247.499	250.615	469.077	214.881	375.504	495.601	290.581	487.320	216.692	163.528	348.720	391.921	313.130	330.497	0.00038199	0.00020106	0.00015007	36.332	1.4225e-06	5.5799e-06	48.909	13.107	2.1241e-06	7.702e-06	18.26	6.1906	4.5957	1.7816	1.0386e-06	2.454	0.0023716	0.0023898	0.00066588	606.6	2.631e-05	2.6354e-05	636.83	197.08	2.6557e-05	2.6511e-05	412.97	99.426	97.658	32.804	2.6323e-05	43.557	335.005	214.331	340.465	168.616	275.419	288.380	168.497	176.129	462.256	264.259	170.268	177.393	181.483	186.518	273.714	183.369	-8191	255	
1531.846	1	1	0	0	0.28597	0.26592	0.19411	0.14728	0.033515	0.14934	0.25307	0.050687	0.20081	0.26175	0.084972	0.28816	0.33612	0.32693	0.024997	0.10857	-2.9875	-2.5729	-2.8167	-3.1021	-2.6562	-3.15	-2.9708	-2.6688	-3.2812	-2.8375	-2.6583	-3.3625	-2.4542	-3.0604	-3.1354	-2.5792	278.700	429.379	311.510	339.161	345.522	501.476	295.137	447.858	242.082	433.507	396.666	266.314	294.957	484.461	405.279	417.738	0.00053675	0.00012912	7.5868e-05	36.96	3.4464e-06	6.2071e-06	49.777	13.194	4.8306e-06	4.3122e-06	20.703	6.2446	4.3822	1.7078	5.4137e-06	2.6095	0.0023811	0.0023822	0.00066032	601.22	2.5982e-05	2.5996e-05	628.75	194.92	2.6214e-05	2.6121e-05	407.66	98.225	96.344	32.393	2.6065e-05	43.185	433.471	270.331	211.215	173.300	298.430	319.987	168.325	177.395	427.493	392.045	176.625	176.980	178.677	185.302	397.929	180.611	-8191	255	
1531.942	1	1	0	0	0.17948	0.19491	0.20888	0.1869	0.046577	0.19243	0.25296	0.10695	0.11023	0.20756	0.10833	0.23184	0.055086	0.22256	0.22768	0.24012	-2.9313	-2.7458	-2.5625	-3.3479	-2.6188	-3.0646	-2.9771	-2.4083	-3.1354	-2.7521	-2.6437	-3.2521	-2.5687	-2.9042	-3.2396	-2.4125	243.626	340.474	236.400	369.290	191.699	278.143	384.568	308.766	305.770	331.136	486.809	485.578	305.404	349.923	368.648	307.529	6.8807e-05	0.00048937	0.00012522	36.174	3.3509e-06	4.4146e-06	48.957	13.725	8.357e-07	3.3391e-06	19.476	6.426	4.5722	1.7689	9.2409e-06	2.4676	0.0023615	0.0023686	0.00065936	601.58	2.5986e-05	2.5935e-05	626.46	193.33	2.5982e-05	2.5947e-05	406.3	98.288	96.665	32.648	2.6434e-05	43.897	179.829	234.474	240.738	171.601	452.865	303.806	169.041	177.422	324.657	468.636	170.101	178.077	178.910	184.878	217.027	183.960	-8191	255	
1532.039	1	1	0	0	0.15918	0.076802	0.16134	0.33038	0.19063	0.032545	0.16534	0.084469	0.080427	0.16935	0.13555	0.15098	0.1674	0.29807	0.1333	0.31781	-2.9021	-2.8354	-2.4667	-3.1604	-2.5187	-2.8979	-3.0708	-2.5625	-3.0521	-2.9875	-2.6437	-3.2562	-2.9354	-2.7917	-3.4479	-2.5625	229.335	302.508	179.144	501.306	498.901	267.929	471.946	171.159	275.196	500.258	315.853	315.455	178.361	362.684	389.158	496.965	3.8966e-05	0.00028999	6.1913e-05	34.601	3.1647e-06	3.0359e-06	49.711	13.41	1.6693e-06	4.4129e-06	19.853	6.342	4.6264	1.7131	7.3935e-06	2.3579	0.0024113	0.0024189	0.00067421	613.71	2.651e-05	2.6461e-05	638.42	196.75	2.6373e-05	2.6223e-05	406.84	97.713	95.734	32.261	2.6115e-05	43.329	330.580	321.573	249.587	170.570	239.316	161.014	170.145	174.764	344.144	444.715	173.612	178.280	179.170	184.808	225.998	181.843	-8191	255	
1532.135	1	1	0	0	0.22157	0.30675	0.018673	0.18511	0.044422	0.17076	0.12578	0.32462	0.18508	0.20737	0.16167	0.13418	0.16301	0.30697	0.18598	0.13574	-2.5917	-2.8167	-2.5292	-3.1	-2.6604	-2.7083	-3.2917	-2.5229	-3.1729	-3.0229	-2.5396	-3.1625	-2.8583	-2.7667	-3.3937	-2.6188	432.957	351.172	462.762	231.074	463.689	405.873	202.517	475.629	485.581	426.654	439.586	203.218	387.089	316.310	332.408	346.706	5.748e-05	0.0004711	0.00020417	35.486	7.6812e-07	7.1073e-06	50.666	13.441	4.1424e-06	2.4318e-06	20.143	6.3849	4.4582	1.7434	5.5617e-06	2.5108	0.002381	0.0023938	0.00066747	607.71	2.6203e-05	2.6101e-05	629.82	193.76	2.5899e-05	2.5759e-05	401.33	96.477	94.429	31.757	2.5556e-05	42.352	237.623	421.829	256.097	170.897	298.213	347.013	168.971	175.051	439.592	248.910	172.688	176.786	179.564	184.819	356.053	181.712	-8191	255	
1532.229	1	1	0	0	0.36598	0.30658	0.11787	0.039119	0.17732	0.090452	0.035046	0.14175	0.1512	0.064788	0.11646	0.044283	0.096449	0.07496	0.25173	0.21143	-2.6542	-2.9313	-2.3354	-3.1979	-2.7875	-2.6958	-3.2729	-2.5833	-2.6688	-3.1833	-2.65	-3.2083	-2.7875	-2.675	-3.2583	-2.5396	252.736	420.044	351.911	465.925	357.863	166.423	320.930	224.256	465.085	491.562	498.450	382.161	346.799	372.579	362.109	474.926	0.0003223	0.00078798	2.0373e-05	36.577	2.3765e-06	4.5698e-06	49.305	13.153	5.5721e-06	6.196e-06	18.994	6.2579	4.6357	1.7414	8.3883e-07	2.4728	0.0023165	0.0023277	0.00064918	591.54	2.5488e-05	2.5453e-05	615.85	189.38	2.5276e-05	2.5144e-05	392.04	94.339	92.193	31.012	2.4889e-05	41.294	424.827	187.977	511.711	171.060	481.123	510.517	168.432	176.967	170.511	314.297	173.217	179.233	179.442	185.895	372.863	182.845	-8191	255	
1532.325	1	1	0	0	0.25018	0.11597	0.26454	0.057482	0.1435	0.15101	0.028387	0.083968	0.081115	0.2722	0.19834	0.11644	0.1476	0.17946	0.039799	0.25839	-2.5396	-2.9917	-2.3646	-3.1479	-3.1479	-2.4667	-3.3271	-2.8021	-2.7979	-3.2458	-2.3875	-3.0479	-2.9375	-2.6813	-3.2458	-2.6375	442.199	164.772	214.702	350.650	505.409	306.675	491.803	452.954	407.231	451.119	513.041	307.566	304.203	213.177	159.383	409.132	0.00026586	0.00040255	8.7197e-05	36.907	1.3987e-06	4.6497e-06	50.504	13.778	1.568e-06	1.1067e-07	19.866	6.2134	4.4076	1.7083	8.9429e-07	2.4415	0.0022529	0.0022621	0.00063054	576.11	2.4822e-05	2.4849e-05	604.57	186.77	2.4957e-05	2.5029e-05	391.66	94.592	92.917	31.316	2.5203e-05	41.704	441.247	223.439	229.484	169.942	430.909	222.058	169.705	176.895	217.896	178.726	173.417	177.631	178.912	185.983	298.428	180.692	-8191	255	
1532.421	1	1	0	0	0.15892	0.069033	0.21943	0.2199	0.19372	0.20651	0.13973	0.20189	0.13232	0.17143	0.14575	0.13138	0.065507	0.19009	0.094523	0.1538	-2.3187	-3.2333	-2.2229	-2.9333	-3.0458	-2.3229	-3.1792	-2.7042	-2.5438	-3.3646	-2.6146	-2.8792	-3.2042	-2.4125	-3.1667	-2.8646	305.524	209.212	431.513	361.922	437.061	423.631	399.604	509.997	201.169	481.339	340.962	281.383	491.977	427.015	196.553	282.274	0.00036463	3.8547e-05	0.00017297	36.141	3.7926e-06	5.1505e-06	50.603	13.057	1.2851e-06	3.8434e-06	19.638	6.4133	4.6745	1.6366	9.418e-06	2.3957	0.0022805	0.0022951	0.00063991	585.65	2.5231e-05	2.5287e-05	613.82	189.18	2.5384e-05	2.5369e-05	396.94	95.64	93.973	31.719	2.5611e-05	42.475	498.084	278.143	251.763	171.469	388.563	372.264	169.715	176.548	195.593	370.725	178.175	177.399	181.120	184.835	340.593	180.628	-8191	255	
1532.542	1	1	0	0	0.37424	0.12819	0.13922	0.13031	0.14454	0.099028	0.078055	0.00011586	0.14358	0.05702	0.1608	0.24143	0.062452	0.11634	0.23897	0.28458	-2.3021	-3.3063	-2.6	-2.9354	-3.15	-2.5646	-3.0625	-3.0292	-2.575	-3.5417	-2.6437	-2.7729	-3.1146	-2.4104	-3.2208	-2.9917	312.994	386.969	262.840	329.540	248.663	299.859	391.823	180.000	501.846	221.210	241.492	378.150	350.696	300.097	363.805	185.465	0.00032033	0.00029339	4.5979e-05	35.829	1.4633e-06	7.3498e-07	50.378	13.645	2.0323e-06	1.9812e-07	19.276	6.3381	4.6028	1.6411	7.5582e-06	2.49	0.0023345	0.0023575	0.00065766	600.11	2.5966e-05	2.6008e-05	630.17	194.59	2.6197e-05	2.6244e-05	409.5	98.627	96.912	32.571	2.6204e-05	43.213	351.462	518.078	498.321	172.808	281.708	253.999	169.182	176.613	442.524	337.490	173.479	175.824	179.310	189.365	265.197	179.340	-8191	255	
1532.638	1	1	0	0	0.054419	0.13134	0.22722	0.1346	0.023797	0.12784	0.2175	0.12675	0.1121	0.24657	0.048011	0.15191	0.10415	0.1562	0.27005	0.093237	-2.0833	-3.2083	-2.7479	-2.7938	-3.3438	-2.4688	-3.1729	-3.0854	-2.5125	-3.2188	-2.7583	-2.6479	-3.2354	-2.6771	-2.8563	-3.175	284.528	414.354	406.340	500.860	447.125	234.317	184.372	402.486	164.301	255.955	395.077	246.232	422.915	466.730	187.828	260.563	0.00028337	0.00031023	9.0343e-05	36.227	3.2103e-06	2.6152e-06	50.629	13.585	2.0524e-06	5.8713e-06	18.813	6.252	4.4705	1.743	9.8715e-06	2.464	0.0023598	0.0023646	0.00065457	596.16	2.5679e-05	2.5633e-05	621.1	191.62	2.5734e-05	2.5695e-05	400.43	96.434	94.651	31.799	2.5566e-05	42.327	324.159	463.517	310.168	170.082	505.361	331.007	169.915	177.375	161.348	270.497	175.296	178.369	179.526	185.564	387.229	180.853	-8191	255	
1532.734	1	1	0	0	0.20376	0.42236	0.28058	0.12885	0.03414	0.29842	0.38291	0.11719	0.17295	0.19801	0.15796	0.12662	0.3289	0.21351	0.19433	0.037435	-2.0812	-3.1958	-2.8271	-2.6333	-3.0542	-2.6312	-3.0146	-3.3438	-2.5687	-3.175	-2.8729	-2.4979	-3.2062	-2.6104	-3.0604	-3.15	445.573	358.523	514.776	288.123	361.309	389.126	489.476	428.599	348.538	309.730	328.034	297.143	485.572	445.053	288.186	401.598	0.00025572	0.00034624	0.0002567	37.033	3.1522e-06	4.8097e-06	47.927	13.01	2.647e-06	5.6196e-06	20.946	6.3008	4.7241	1.7028	4.977e-06	2.5491	0.0023159	0.0023252	0.00064423	587.42	2.5242e-05	2.5199e-05	609.77	187.88	2.516e-05	2.5137e-05	393.71	95.097	93.623	31.521	2.5351e-05	42.033	386.558	332.383	491.971	171.218	178.932	326.442	170.288	176.462	370.230	195.599	174.976	178.982	179.306	186.642	171.855	181.773	-8191	255	
1532.806	1	1	0	0	0.16767	0.1673	0.085553	0.10446	0.06653	0.03719	0.17135	0.15173	0.11683	0.11019	0.13644	0.077527	0.22902	0.09594	0.19209	0.1669	-2.1854	-3.0542	-2.8937	-2.5458	-3.2708	-2.5458	-2.7562	-3.2042	-2.6792	-3.225	-2.9333	-2.6271	-3.2479	-2.7104	-2.8625	-3.3604	241.372	301.664	183.245	338.538	283.073	396.255	228.544	192.472	282.801	308.888	318.545	245.909	345.022	459.740	294.226	349.998	0.00075359	0.00099937	0.00014458	36.072	3.7194e-06	3.3822e-06	49.943	13.438	2.7327e-06	5.2434e-06	19.226	6.2646	4.4784	1.6922	4.4855e-06	2.4261	0.0023023	0.0023119	0.00064315	586.39	2.5281e-05	2.5228e-05	611.97	188.6	2.5217e-05	2.518e-05	393.63	95.001	93.4	31.434	2.5364e-05	42.169	459.326	365.717	393.845	171.312	186.885	441.919	169.690	176.066	158.881	494.258	172.616	179.332	180.103	186.802	405.654	181.024	-8191	255	
1532.927	1	1	0	0	0.22355	0.088192	0.21182	0.23137	0.043236	0.064319	0.23493	0.1946	0.119	0.13437	0.12368	0.17236	0.14705	0.066734	0.27823	0.13809	-2.0312	-3.0771	-3.1229	-2.6083	-3.3271	-2.8667	-2.725	-3.3854	-2.7271	-3.0958	-3.0854	-2.3708	-3.2146	-2.8167	-2.5458	-3.5146	360.860	427.173	242.967	362.667	440.561	354.050	316.985	182.513	430.119	509.993	504.762	406.975	183.645	189.330	488.405	494.998	8.9976e-05	0.0007824	1.4965e-05	36.268	2.1947e-06	5.2093e-06	50.512	13.473	4.9926e-06	8.1356e-06	20.012	6.158	4.6087	1.8038	7.0021e-06	2.5492	0.002311	0.0023277	0.00064795	592.19	2.5593e-05	2.5543e-05	619.03	191.13	2.5575e-05	2.5511e-05	398.17	95.834	94.032	31.553	2.5406e-05	42.166	208.104	258.861	496.732	171.513	188.833	333.656	169.040	175.593	441.980	346.569	173.471	177.662	183.929	188.725	367.904	183.263	-8191	255	
1533.023	1	1	0	0	0.25331	0.10253	0.351	0.076562	0.070551	0.21491	0.22958	0.24944	0.071643	0.068798	0.12288	0.11763	0.11859	0.26141	0.39499	0.056258	-2.2708	-2.8438	-3.2271	-2.3375	-3.2208	-2.7896	-2.5687	-3.3875	-2.75	-3.0417	-3.2708	-2.5917	-3.2104	-2.8937	-2.5646	-3.3625	165.804	228.129	513.079	362.445	248.091	459.797	436.976	257.964	476.466	486.609	210.857	444.770	367.307	514.677	294.997	463.542	0.00054475	0.00025909	0.00013969	36.523	2.6736e-06	4.5493e-06	49.707	13.47	5.9128e-06	1.3549e-06	20.349	6.0686	4.4463	1.7829	5.0571e-06	2.3499	0.0023063	0.0023171	0.00064528	590.09	2.5476e-05	2.55e-05	617.65	191.09	2.5613e-05	2.5551e-05	398.98	96.245	94.314	31.633	2.5423e-05	42.21	391.405	295.561	474.623	169.782	289.997	294.331	169.632	177.058	467.856	270.551	173.846	175.961	177.945	185.031	386.269	180.383	-8191	255	
1533.119	1	1	0	0	0.20253	0.055177	0.075013	0.1578	0.098526	0.12578	0.17406	0.25317	0.33402	0.14399	0.11251	0.06997	0.1624	0.23541	0.15465	0.19013	-2.2208	-2.8542	-3.3604	-2.5396	-3.2438	-3.0479	-2.4958	-3.1479	-2.675	-2.6521	-3.1708	-2.5	-2.8854	-3.2562	-2.4771	-3.3958	372.389	455.023	479.351	182.116	507.657	367.472	366.494	379.764	456.759	491.343	356.180	209.346	371.018	226.984	451.597	198.466	0.00021534	0.00060139	0.00014394	35.499	4.495e-06	6.8483e-06	50.865	13.331	4.2952e-06	3.263e-06	19.873	6.5491	4.4573	1.7161	6.9885e-06	2.6247	0.0023025	0.0023144	0.0006451	590.67	2.545e-05	2.5415e-05	617.81	190.77	2.5539e-05	2.5578e-05	399.91	95.915	93.899	31.512	2.5378e-05	42.14	342.272	193.051	342.189	169.367	477.933	454.594	170.059	176.247	441.888	271.324	172.255	176.903	178.472	185.390	275.180	180.504	-8191	255	
1533.238	1	1	0	0	0.24286	0.23834	0.085799	0.10887	0.1007	0.15083	0.26824	0.029204	0.047994	0.28745	0.066568	0.25085	0.39232	0.052794	0.19165	0.1883	-2.4021	-2.7188	-3.3104	-2.5146	-3.05	-3.0479	-2.5292	-3.3292	-2.8937	-2.7583	-3.1604	-2.7208	-2.8417	-3.2438	-2.65	-3.2812	290.097	295.261	350.309	417.748	511.679	332.669	410.351	337.406	168.922	335.347	177.543	490.207	358.662	436.766	265.887	354.068	0.00035139	0.0002544	7.1172e-05	36.03	2.6537e-06	3.5991e-06	48.879	13.155	3.8146e-06	4.7682e-06	19.463	5.9921	4.4121	1.726	3.0275e-06	2.4175	0.0022984	0.0023101	0.000644	586.36	2.5243e-05	2.523e-05	611.77	188.54	2.514e-05	2.5101e-05	392.15	94.028	91.976	30.851	2.4761e-05	40.917	453.483	396.807	505.157	170.269	219.156	479.647	169.500	176.412	465.491	208.617	171.040	178.625	177.952	185.985	506.100	181.418	-8191	255	
1533.334	1	1	0	0	0.30786	0.023942	0.063388	0.2166	0.053027	0.20959	0.15487	0.16062	0.18558	0.059124	0.11373	0.13064	0.077536	0.17963	0.11541	0.095865	-2.6104	-2.4646	-3.2792	-2.6854	-2.8812	-3.2417	-2.6437	-3.3333	-3.0542	-2.4583	-3.2771	-2.7917	-2.7562	-3.3937	-2.5583	-3.1396	186.245	492.909	376.938	457.893	282.695	222.212	487.457	443.362	238.084	396.333	354.533	184.184	319.351	447.588	421.919	406.753	0.00029121	9.1853e-05	0.00014435	36.853	2.8168e-06	3.328e-06	49.54	13.561	3.0482e-06	5.2423e-06	19.143	6.0632	4.3966	1.7079	3.4004e-06	2.4231	0.0022326	0.0022412	0.00062303	569.18	2.4471e-05	2.4414e-05	593.96	183.22	2.4508e-05	2.4515e-05	384.5	92.83	91.16	30.69	2.4639e-05	40.73	484.255	164.702	228.333	169.825	366.922	446.478	169.710	175.444	453.063	379.631	172.388	178.886	180.115	185.556	400.507	182.488	-8191	255	
1533.407	1	1	0	0	0.22261	0.28441	0.25591	0.18389	0.086103	0.14403	0.11397	0.22232	0.1123	0.18826	0.037045	0.12822	0.23219	0.18183	0.24029	0.1167	-2.7792	-2.5312	-3.2625	-2.6896	-2.7687	-3.4062	-2.4542	-3.0771	-3.1083	-2.5417	-3.3333	-2.8917	-2.6625	-3.3625	-2.4479	-2.9062	447.694	447.084	461.082	434.753	344.434	498.386	469.981	475.473	323.204	317.962	202.506	215.664	416.982	435.816	366.686	233.521	0.00039104	0.00074734	4.5273e-05	35.918	7.6716e-07	1.568e-06	48.959	13.249	1.958e-06	4.2289e-06	18.907	6.2399	4.5315	1.5197	7.4136e-06	2.3666	0.0022172	0.0022247	0.00061854	564.72	2.427e-05	2.4272e-05	589.41	181.36	2.4153e-05	2.4085e-05	376.47	90.443	88.665	29.863	2.4033e-05	39.847	240.558	283.667	388.390	170.509	404.170	371.918	168.429	175.933	334.014	410.157	173.380	177.545	178.059	185.187	489.676	182.775	-8191	255	
1533.526	1	1	0	0	0.062763	0.15858	0.07525	0.16989	0.14018	0.1042	0.15022	0.17572	0.039621	0.079514	0.12725	0.24416	0.2451	0.2006	0.11267	0.071584	-2.6854	-2.4292	-3.2062	-2.8792	-2.8229	-3.3875	-2.625	-2.8104	-3.2667	-2.6521	-3.1729	-2.8271	-2.5333	-3.2958	-2.5812	-2.8854	397.925	159.480	386.361	205.457	234.106	466.569	414.246	396.302	517.368	499.658	285.969	465.540	261.730	395.146	327.012	392.520	0.00029001	0.00047507	0.00010777	34.016	5.3953e-06	8.0631e-06	49.219	13.446	5.6379e-06	2.5922e-06	18.901	6.2667	4.2307	1.6486	2.2264e-06	2.4475	0.0021713	0.0021881	0.00061086	561.76	2.4208e-05	2.4261e-05	590.82	182.08	2.4285e-05	2.4268e-05	379.22	91.138	89.48	30.102	2.419e-05	40.17	165.083	330.260	512.110	172.291	355.245	478.423	170.392	176.251	449.409	179.766	174.154	176.559	180.746	183.615	278.119	179.243	-8191	255	
1533.622	1	1	0	0	0.16013	0.25147	0.075184	0.020256	0.17619	0.17824	0.2263	0.096524	0.22462	0.16469	0.13809	0.19854	0.20978	0.15916	0.061406	0.11226	-2.8979	-2.5604	-3.2417	-3.0542	-2.4792	-3.3667	-2.6396	-2.8104	-3.0229	-2.5125	-3.2042	-3.125	-2.5583	-3.3167	-2.8167	-2.7521	424.896	498.887	230.106	237.744	369.597	434.730	430.933	429.303	442.508	482.386	269.016	484.272	357.913	179.781	361.760	309.218	0.0009475	0.00010443	0.00010778	37.842	2.5941e-06	7.4318e-06	49.777	13.541	3.2045e-06	6.8517e-06	18.936	6.4186	4.361	1.6934	3.8726e-06	2.512	0.0021944	0.0022059	0.00061484	564.84	2.4329e-05	2.4452e-05	594.95	183.46	2.4572e-05	2.4462e-05	382.37	92.194	90.401	30.396	2.435e-05	40.454	450.481	196.338	223.116	170.472	378.360	426.086	169.843	175.928	242.088	506.356	177.121	175.891	178.255	186.092	342.957	180.427	-8191	255	
1533.719	1	1	0	0	0.066292	0.23031	0.27722	0.057059	0.30072	0.061175	0.17117	0.21856	0.057729	0.1258	0.044033	0.2662	0.19893	0.35826	0.18686	0.17912	-2.9854	-2.5792	-2.9229	-3.0396	-2.3396	-3.2833	-3.0042	-2.6813	-3.2771	-2.5438	-2.925	-3.1229	-2.4688	-3.075	-2.8208	-2.7188	162.645	238.187	266.406	241.178	401.816	389.062	480.531	405.484	366.069	251.345	192.700	228.987	510.662	222.060	357.575	265.021	0.00033498	0.00032649	0.00012723	36.357	4.7031e-06	4.0978e-06	50.072	12.942	4.2753e-06	3.9118e-06	19.53	6.2879	4.4313	1.8155	3.5598e-06	2.4342	0.0022122	0.0022237	0.00061962	567.47	2.4511e-05	2.4536e-05	596.3	183.76	2.4587e-05	2.4479e-05	382.16	92.153	90.398	30.408	2.4386e-05	40.417	484.615	233.444	388.570	171.135	326.993	245.541	170.021	178.093	162.241	307.353	172.506	178.181	181.037	187.741	298.997	183.491	-8191	255	
1533.839	1	1	0	0	0.052534	0.19852	0.077455	0.091401	0.052712	0.17478	0.017399	0.13715	0.22756	0.10159	0.20744	0.091775	0.086936	0.096529	0.19575	0.085383	-2.8979	-2.5812	-2.8667	-3.1854	-2.3812	-3.1125	-2.8604	-2.5458	-3.2938	-2.8563	-2.8438	-3.2146	-2.4875	-3.1229	-2.9271	-2.625	418.434	340.290	424.501	444.122	193.099	223.789	209.270	335.557	444.773	214.988	361.189	167.442	309.258	417.095	367.983	404.080	0.00055322	0.0002267	0.0001554	34.818	9.6895e-07	1.4408e-06	49.272	13.295	3.8171e-06	4.3587e-06	18.592	6.2667	4.6973	1.6932	3.9345e-06	2.5464	0.0022062	0.0022089	0.00061414	561.51	2.4089e-05	2.4051e-05	584.54	180.41	2.4106e-05	2.405e-05	376.29	90.727	88.889	29.894	2.3911e-05	39.795	501.131	200.175	383.509	170.509	368.399	328.489	169.390	176.064	277.081	318.512	173.695	177.728	181.303	187.008	273.955	180.920	-8191	255	
1533.935	1	1	0	0	0.1185	0.17472	0.2913	0.12119	0.15098	0.11324	0.28365	0.296	0.12257	0.16661	0.33946	0.083273	0.051438	0.22069	0.093056	0.12329	-3.0812	-2.5792	-2.6437	-3.2375	-2.3125	-3.325	-3.2521	-2.5146	-3.1333	-2.5812	-2.6188	-3.3667	-2.6188	-3.0104	-3.1646	-2.6792	306.648	166.905	163.979	270.976	327.450	275.477	451.356	492.775	412.948	308.908	468.626	405.547	223.311	354.475	505.930	418.179	0.00048132	0.00063268	4.8571e-05	35.533	8.8159e-07	2.8515e-06	50.029	13.514	4.675e-06	6.0604e-06	19.61	6.3553	4.4515	1.7241	5.1878e-06	2.4914	0.0021751	0.0021808	0.0006071	556.1	2.3797e-05	2.3732e-05	577.76	178.07	2.3743e-05	2.367e-05	371.07	89.787	87.944	29.651	2.3779e-05	39.752	261.676	314.012	418.265	171.321	286.394	515.825	169.905	175.698	314.065	367.209	173.557	177.664	179.118	187.463	219.390	182.210	-8191	255	
1534.032	1	1	0	0	0.19021	0.14632	0.12824	0.046703	0.17284	0.14989	0.28663	0.01561	0.18372	0.13287	0.19415	0.054893	0.19184	0.034948	0.12757	0.22577	-2.9792	-2.8396	-2.6542	-3.2021	-2.4896	-3.1042	-3.0625	-2.55	-3.1458	-2.8167	-2.6646	-3.2188	-2.575	-2.7604	-3.2562	-2.5958	415.233	335.099	193.111	454.617	497.027	361.532	478.922	297.802	302.161	161.680	379.418	353.091	485.692	177.086	439.507	513.559	0.00043835	0.00079945	0.00015307	36.2	6.221e-07	8.2184e-07	50.646	13.044	8.0254e-06	5.0845e-06	20.444	6.2123	4.5745	1.7572	5.2318e-06	2.5092	0.00217	0.0021788	0.00060726	557.43	2.3923e-05	2.3961e-05	584.12	180.01	2.404e-05	2.3931e-05	375.11	90.79	88.874	29.877	2.3956e-05	39.852	404.734	355.179	437.466	170.764	228.872	159.485	169.772	177.199	161.696	306.102	172.403	179.785	178.927	185.264	185.332	179.371	-8191	255	
1534.103	1	1	0	0	0.22146	0.12381	0.020591	0.19405	0.12221	0.079262	0.073974	0.24547	0.080275	0.078777	0.24837	0.20684	0.16365	0.19343	0.11824	0.27971	-3.0208	-3.025	-2.6396	-3.325	-2.6083	-2.9396	-3.3521	-2.4708	-3.1125	-3.1542	-2.5812	-3.2896	-2.6688	-2.6979	-3.5333	-2.6562	476.999	485.297	460.063	274.847	249.640	399.696	402.743	216.346	333.160	227.770	465.381	359.414	373.070	307.495	487.494	426.360	0.00045808	0.0004036	7.197e-05	36.101	2.9602e-06	3.8236e-06	51.253	13.186	2.2522e-06	2.1377e-06	20.171	6.4769	4.5563	1.7884	2.0335e-06	2.3654	0.0021709	0.0021738	0.00060557	554.97	2.3778e-05	2.3765e-05	579.45	178.58	2.3799e-05	2.3733e-05	371.44	89.857	87.952	29.705	2.3862e-05	39.683	168.022	330.715	453.166	171.714	393.235	235.126	169.579	178.490	190.563	274.084	174.127	178.529	180.982	185.342	318.687	183.426	-8191	255	
1534.222	1	1	0	0	0.11736	0.25937	0.090735	0.084466	0.19055	0.20569	0.14594	0.17412	0.089874	0.1629	0.25264	0.1417	0.053277	0.49675	0.062849	0.091271	-2.6042	-2.975	-2.5458	-3.4417	-2.7	-2.6708	-3.2979	-2.5458	-3.0896	-3.1542	-2.5062	-3.2979	-2.8708	-2.4	-3.2562	-2.6188	379.923	228.628	379.040	311.122	389.944	516.038	177.335	227.726	247.678	495.088	275.938	381.267	205.807	173.077	179.095	412.994	0.00037189	0.00041135	0.00013868	34.36	3.8297e-06	2.5652e-06	51.208	13.825	8.422e-06	3.2692e-06	19.536	6.4854	4.5517	1.6956	3.7026e-06	2.362	0.0021646	0.0021671	0.0006028	551.15	2.353e-05	2.3465e-05	572.63	176.01	2.3385e-05	2.3295e-05	364.84	88.021	85.87	28.883	2.3134e-05	38.475	310.648	378.223	215.404	170.782	500.241	485.701	169.216	176.495	409.009	345.738	174.070	178.596	175.813	187.644	264.096	178.870	-8191	255	
1534.318	1	1	0	0	0.060638	0.054616	0.094049	0.1977	0.16495	0.28589	0.22902	0.17671	0.20534	0.1358	0.12626	0.07614	0.287	0.1857	0.040245	0.083498	-2.5167	-3.3104	-2.4813	-3.1917	-3.0646	-2.4458	-3.3187	-2.6375	-2.8042	-3.2604	-2.6042	-3.1458	-3.0646	-2.5104	-3.2667	-2.6813	440.062	334.454	406.481	186.090	261.243	194.102	487.989	244.598	330.488	286.160	229.445	368.941	388.952	471.077	305.720	159.459	0.0002762	0.00014233	4.1625e-05	36.826	4.118e-06	2.6394e-06	49.942	13.444	2.2858e-06	5.7503e-06	18.565	6.332	4.3311	1.6725	6.2361e-06	2.3279	0.0020891	0.0020952	0.00058318	536.87	2.3001e-05	2.303e-05	563.37	173.18	2.3014e-05	2.2981e-05	360.5	87.092	85.179	28.703	2.2996e-05	38.246	425.739	415.985	253.731	170.863	439.170	359.306	169.718	177.365	190.342	485.825	171.918	177.103	178.560	186.025	181.056	179.918	-8191	255	
1534.414	1	1	0	0	0.21935	0.13082	0.077399	0.06307	0.15337	0.10146	0.17655	0.11753	0.20867	0.056693	0.2122	0.03095	0.25559	0.13707	0.1423	0.10059	-2.5125	-3.2917	-2.4313	-3.1312	-3.1417	-2.4333	-3.2479	-2.8042	-2.6146	-3.4062	-2.45	-3.0667	-3.075	-2.4521	-3.2979	-2.7604	434.323	383.313	406.772	423.980	268.603	234.619	337.793	239.778	432.646	438.873	463.479	397.307	382.410	190.654	351.679	168.539	0.00010127	0.00047475	9.4355e-05	36.873	3.8223e-06	3.6021e-06	49.606	12.856	2.6841e-06	4.6369e-06	19.614	6.2159	4.4114	1.694	3.5422e-06	2.4621	0.0020759	0.0020852	0.00058132	533.62	2.2882e-05	2.2859e-05	559.93	172.29	2.2909e-05	2.2919e-05	360.13	86.911	85.146	28.676	2.2971e-05	38.252	473.402	506.621	471.752	170.711	463.585	316.767	169.015	178.434	325.208	457.070	174.348	177.839	178.769	185.920	292.347	181.122	-8191	255	
1534.511	1	1	0	0	0.046462	0.21047	0.071161	0.30473	0.11362	0.19405	0.090697	0.075625	0.10942	0.17967	0.087939	0.19358	0.12263	0.08421	0.32029	0.30931	-2.1292	-3.1917	-2.4646	-2.9167	-3.0083	-2.5833	-3.3187	-2.7604	-2.6	-3.2333	-2.6667	-2.7771	-3.0479	-2.4854	-3.1271	-2.8125	202.868	475.292	291.802	306.811	408.204	268.484	459.855	294.920	343.546	388.451	181.992	199.733	279.837	448.812	303.056	429.835	0.00023259	0.00040169	5.5867e-05	35.161	1.8425e-06	2.9047e-06	48.674	13.306	4.5676e-06	6.0346e-06	18.756	6.2504	4.563	1.6877	1.8241e-06	2.4653	0.002083	0.0020953	0.00058263	535.43	2.2911e-05	2.2961e-05	561.28	172.89	2.303e-05	2.3031e-05	361.23	87.206	85.635	28.873	2.3138e-05	38.536	430.781	256.020	356.670	173.029	454.557	176.802	169.492	176.546	292.921	414.006	170.963	176.886	178.983	186.904	326.505	181.897	-8191	255	
1534.631	1	1	0	0	0.082227	0.068047	0.35102	0.13581	0.15018	0.14414	0.21613	0.28171	0.11608	0.21868	0.14977	0.1708	0.12144	0.17146	0.11635	0.17955	-2.1937	-3.1521	-2.6792	-2.7521	-3.3625	-2.2896	-3.1833	-2.9188	-2.7792	-3.3271	-2.6354	-2.6562	-3.2125	-2.4313	-3.1417	-3.15	326.087	385.287	207.892	402.958	285.660	346.532	245.823	418.729	243.880	311.158	256.118	391.302	478.990	307.388	317.665	375.475	0.00031428	0.00071319	6.8741e-05	35.823	1.2767e-06	1.2834e-06	48.769	13.311	2.4831e-06	2.5899e-06	18.536	6.3927	4.5749	1.6593	6.702e-06	2.457	0.0020986	0.0021066	0.00058509	536.53	2.2998e-05	2.2924e-05	560.08	172.25	2.2881e-05	2.2828e-05	357.61	86.449	84.702	28.508	2.278e-05	37.983	415.435	460.180	359.110	171.758	423.504	289.539	170.961	174.875	474.443	261.902	174.246	178.094	181.983	186.548	489.817	179.159	-8191	255	
1534.703	1	1	0	0	0.29289	0.040222	0.13572	0.10591	0.2228	0.057305	0.15995	0.33218	0.028914	0.21182	0.14936	0.15426	0.068262	0.030752	0.22473	0.21044	-1.9521	-3.0563	-2.575	-2.7354	-3.1312	-2.4375	-3.0146	-3.1146	-2.6292	-3.2917	-2.8917	-2.5938	-3.3063	-2.4792	-3.0833	-3.1833	369.233	375.355	417.997	371.342	375.248	353.466	310.257	423.429	193.646	357.992	258.748	434.970	170.918	180.470	360.264	337.205	0.00025273	0.00052053	0.00015119	36.22	1.9166e-06	4.604e-06	50.661	13.187	4.6521e-06	6.7793e-06	18.556	6.3556	4.4185	1.7599	1.0753e-06	2.5698	0.002065	0.0020718	0.000575	527.28	2.2503e-05	2.2398e-05	547.12	167.92	2.2297e-05	2.2247e-05	349.35	84.629	83.003	27.99	2.2376e-05	37.357	310.679	158.786	425.608	173.414	299.475	227.580	169.753	176.276	411.014	288.372	175.397	177.475	180.238	187.325	418.831	181.092	-8191	255	
1534.799	1	1	0	0	0.14941	0.041047	0.13582	0.2526	0.12817	0.066482	0.064216	0.059092	0.15714	0.054657	0.070898	0.18502	0.079079	0.16747	0.19516	0.35045	-2.0708	-3.2333	-2.7562	-2.6937	-3.4583	-2.5958	-2.8021	-3.1937	-2.3937	-3.2354	-2.8979	-2.6208	-3.3229	-2.6521	-2.7812	-3.3438	276.346	196.883	395.306	298.885	302.641	326.528	487.947	502.276	340.474	473.799	309.338	212.119	180.976	387.022	379.036	326.124	0.00019644	0.00017123	9.537e-05	36.324	4.5916e-06	2.2265e-06	50.474	13.003	1.2116e-06	3.3308e-06	18.351	5.9839	4.2823	1.6809	8.8753e-06	2.4302	0.0020249	0.0020292	0.00056403	519.97	2.2233e-05	2.2171e-05	543.37	166.99	2.2097e-05	2.1991e-05	344.24	82.981	81.072	27.24	2.1716e-05	36.284	391.742	221.825	340.003	170.379	463.943	193.619	169.909	177.171	263.625	350.231	173.324	176.725	178.654	185.847	329.339	182.796	-8191	255	
1534.920	1	1	0	0	0.13456	0.11385	0.35473	0.14968	0.15573	0.13672	0.14041	0.31057	0.28203	0.18984	0.27266	0.15591	0.1978	0.189	0.078435	0.2512	-2.1333	-3.0354	-2.9042	-2.5125	-3.2938	-2.8312	-2.6958	-3.3979	-2.5771	-3.2104	-3.0604	-2.5917	-3.2479	-2.8396	-2.7021	-3.3354	463.734	206.706	329.786	459.400	311.902	363.306	367.080	220.545	405.441	370.738	174.826	241.434	186.553	406.293	275.508	347.524	0.00027124	0.00039571	0.0002052	35.339	5.2801e-06	6.6143e-06	49.416	13.108	3.4535e-06	2.007e-06	19.737	6.3301	4.5879	1.7247	3.1296e-06	2.4401	0.00197	0.0019834	0.0005513	509.76	2.1763e-05	2.1742e-05	532.85	163.73	2.1563e-05	2.1412e-05	334.96	80.842	79.091	26.546	2.1146e-05	35.44	164.379	385.256	440.799	171.320	198.311	398.671	170.697	176.501	483.643	493.530	173.654	178.491	180.540	185.317	392.491	182.769	-8191	255	
1535.016	1	1	0	0	0.12582	0.11131	0.13079	0.11012	0.1289	0.16084	0.11514	0.16905	0.15757	0.19371	0.1257	0.091398	0.10522	0.19595	0.23175	0.09693	-2.1021	-2.9229	-3.2208	-2.3688	-3.2354	-2.8021	-2.4104	-3.3583	-2.7042	-2.9437	-2.9521	-2.4083	-3.0292	-2.8917	-2.625	-3.2646	270.879	244.949	399.030	490.368	246.635	416.369	507.946	170.008	283.656	224.174	254.081	356.326	166.020	399.665	250.830	170.801	0.00011015	0.00042473	4.3235e-05	35.712	2.4651e-06	1.997e-06	49.484	12.967	8.3993e-06	2.387e-06	19.017	6.1126	4.5502	1.6806	5.7804e-06	2.4619	0.0019176	0.0019261	0.00053566	494.34	2.1057e-05	2.0997e-05	517.62	159.16	2.0973e-05	2.0912e-05	329.04	79.661	77.866	26.173	2.0865e-05	35.032	214.995	169.989	399.766	171.693	470.748	515.401	171.165	177.000	416.747	283.601	173.159	178.994	181.666	186.200	278.303	183.520	-8191	255	
1535.112	1	1	0	0	0.21991	0.15507	0.19859	0.19821	0.052694	0.094896	0.11214	0.064191	0.21387	0.23543	0.2093	0.0371	0.17067	0.035928	0.07995	0.21808	-2.1333	-2.8937	-3.2167	-2.3875	-3.1167	-2.8958	-2.4958	-3.1771	-2.5521	-2.8312	-3.1708	-2.3896	-3.075	-2.925	-2.6208	-3.2021	351.240	356.671	279.463	277.476	437.317	228.146	447.523	172.118	491.050	291.754	271.950	455.670	293.723	167.425	160.774	159.849	0.00013729	0.00030576	0.00012731	37.461	5.5745e-06	2.2393e-06	49.318	13.225	3.3941e-06	2.5156e-06	19.594	6.1803	4.4731	1.6842	3.2781e-06	2.3788	0.0018942	0.0019079	0.00053245	494.47	2.1107e-05	2.1141e-05	523.27	161.72	2.1436e-05	2.153e-05	340.24	82.796	81.358	27.522	2.2065e-05	37.046	226.706	307.957	434.232	171.079	481.309	274.854	169.897	175.767	509.109	407.168	174.718	179.664	179.280	187.730	175.594	180.073	-8191	255	
1535.208	1	1	0	0	0.19349	0.2503	0.18614	0.01761	0.023704	0.031598	0.2988	0.3477	0.045833	0.1465	0.32467	0.20546	0.091603	0.1543	0.30339	0.093143	-2.3708	-2.6208	-3.3146	-2.5229	-2.8333	-2.9771	-2.3604	-3.1125	-2.8396	-2.8354	-3.175	-2.6625	-2.9083	-2.9521	-2.4167	-3.1583	445.450	179.126	446.831	325.068	316.603	203.114	348.747	272.174	208.961	169.709	391.971	194.824	491.267	285.556	407.646	355.425	0.00023327	0.00054789	5.1775e-05	36.95	9.8818e-07	3.0057e-06	50.818	13.552	1.5095e-06	3.6326e-06	19.462	6.2396	4.4223	1.7395	1.6585e-06	2.5256	0.0020111	0.0020199	0.00056393	520.44	2.2319e-05	2.2352e-05	549.79	170.27	2.2679e-05	2.2732e-05	358.58	86.715	85.024	28.707	2.3016e-05	38.429	248.550	449.264	278.287	170.425	477.544	484.992	169.529	177.614	404.152	179.714	173.889	177.833	176.209	183.773	244.104	183.768	-8191	255	
1535.302	1	1	0	0	0.039521	0.13598	0.066269	0.10641	0.058503	0.23139	0.040597	0.035436	0.033189	0.23282	0.14596	0.18962	0.072357	0.01744	0.42354	0.30526	-2.2625	-2.4792	-3.2542	-2.4604	-2.8375	-3.1625	-2.5958	-3.0354	-2.7875	-2.4958	-3.2292	-2.6375	-2.6917	-3.1896	-2.45	-3.0417	365.575	469.923	492.046	358.969	416.410	357.489	515.102	284.829	419.083	280.325	389.875	419.431	210.986	298.750	426.661	272.597	6.0243e-05	0.00039136	8.2529e-05	36.062	4.9296e-06	1.3895e-06	48.221	12.985	9.3056e-06	1.0105e-06	19.762	5.9086	4.5077	1.7027	5.452e-06	2.4604	0.0020905	0.0021023	0.00058605	537.72	2.2974e-05	2.2964e-05	561.11	172.67	2.2883e-05	2.2826e-05	358.49	86.161	84.217	28.241	2.2528e-05	37.342	244.411	505.612	504.695	171.354	460.306	235.977	169.144	177.775	311.951	205.672	172.511	179.122	178.780	184.168	416.540	182.754	-8191	255	
1535.399	1	1	0	0	0.22989	0.10775	0.1453	0.33483	0.10709	0.18146	0.3254	0.052647	0.053693	0.16689	0.15106	0.23451	0.23827	0.12728	0.068671	0.18238	-2.5333	-2.4125	-3.1875	-2.6312	-2.7021	-3.2979	-2.4333	-3.175	-3.025	-2.575	-3.1521	-2.7646	-2.5375	-3.1167	-2.5104	-3.0354	397.234	492.238	201.608	347.621	294.538	208.404	161.817	346.666	272.351	365.358	507.047	433.224	234.133	502.684	362.863	463.993	0.00031568	0.00029758	9.1293e-05	35.747	4.0181e-06	2.868e-06	49.639	13.323	4.1744e-06	1.6083e-06	19.765	6.0729	4.4486	1.6249	5.7965e-06	2.3881	0.0020237	0.0020291	0.00056428	517.41	2.2083e-05	2.2088e-05	541.48	166.72	2.205e-05	2.2041e-05	345.86	83.469	81.622	27.502	2.1838e-05	36.393	365.044	232.244	400.787	171.244	168.638	506.931	170.555	175.987	319.477	285.494	172.759	179.026	179.523	184.716	229.908	184.206	-8191	255	
1535.519	1	1	0	0	0.11529	0.059437	0.062157	0.33866	0.24397	0.27151	0.050716	0.14689	0.12252	0.10022	0.25497	0.21488	0.21958	0.34391	0.19049	0.39194	-2.7417	-2.4188	-3.2313	-2.8	-2.5896	-3.1729	-2.6521	-2.7958	-3.2375	-2.2833	-3.1604	-2.7896	-2.6104	-3.3417	-2.5729	-2.8771	480.201	172.073	333.146	428.739	510.431	506.754	262.080	260.053	299.227	312.188	317.506	376.447	371.566	354.518	477.467	339.057	0.00028856	0.00014552	0.0001143	36.795	3.5691e-06	2.7779e-06	50.672	13.928	6.4412e-06	1.5206e-06	19.644	6.0848	4.6125	1.7553	5.5042e-06	2.3839	0.0019716	0.001984	0.00055523	512.68	2.1863e-05	2.188e-05	537.06	164.84	2.179e-05	2.1736e-05	341.63	82.448	80.725	27.199	2.1672e-05	36.222	235.433	276.645	255.979	172.526	190.223	212.882	171.005	175.947	485.615	446.107	173.181	177.351	177.291	186.277	168.727	179.698	-8191	255	
1535.615	1	1	0	0	0.31077	0.18252	0.10969	0.14188	0.092039	0.066719	0.25485	0.10324	0.21672	0.31506	0.13458	0.13899	0.24592	0.12778	0.084173	0.21753	-2.7938	-2.4292	-3.1312	-2.8271	-2.5812	-3.1771	-2.6625	-2.7375	-3.2854	-2.3417	-3.05	-2.9146	-2.5146	-3.175	-2.5354	-2.7146	183.456	367.596	214.568	390.053	307.771	259.856	376.323	435.372	455.900	470.913	280.293	414.783	411.030	243.518	497.551	460.945	0.0002233	7.4987e-05	6.5855e-05	35.913	2.0853e-06	5.7351e-06	50.184	13.34	2.817e-06	1.9695e-06	19.323	6.1895	4.6625	1.6701	7.4279e-07	2.4548	0.001963	0.0019728	0.00054909	506.66	2.1613e-05	2.1664e-05	532.74	163.74	2.1603e-05	2.1561e-05	339.09	81.89	80.264	27.152	2.1682e-05	36.391	446.139	340.812	216.206	172.125	180.136	302.739	169.887	175.760	285.918	370.462	173.127	178.467	178.994	184.822	274.263	180.164	-8191	255	
1535.712	1	1	0	0	0.17257	0.049042	0.34148	0.1212	0.070967	0.26021	0.24315	0.3302	0.1315	0.23899	0.16419	0.16027	0.21434	0.35694	0.22931	0.40826	-2.8187	-2.4646	-3.0938	-2.9375	-2.4896	-3.2	-2.9021	-2.6458	-3.1083	-2.5271	-2.7104	-2.9917	-2.35	-3.2687	-2.6896	-2.6188	227.940	450.144	257.435	462.717	300.970	414.679	451.980	179.223	170.722	307.661	264.985	173.522	282.303	371.622	317.098	293.192	6.671e-05	0.00041273	8.3819e-05	36.232	3.0691e-06	3.5189e-06	50.574	13.157	9.184e-07	5.1587e-06	18.567	6.1906	4.3439	1.7237	4.2799e-06	2.4954	0.0019752	0.0019834	0.00055297	510.51	2.1779e-05	2.1758e-05	533.58	164.31	2.1788e-05	2.172e-05	341.09	82.242	80.436	27.093	2.1491e-05	35.906	416.727	319.532	483.842	171.912	410.302	404.171	169.507	177.135	438.584	199.479	172.468	180.545	178.037	183.856	192.220	181.820	-8191	255	
1535.808	1	1	0	0	0.06044	0.058557	0.14623	0.22586	0.2401	0.31929	0.11938	0.31452	0.19453	0.25127	0.251	0.34722	0.23335	0.037493	0.13092	0.2366	-2.7771	-2.4562	-2.9813	-3.0687	-2.2188	-2.9833	-2.8333	-2.6167	-3.3167	-2.5542	-2.8417	-3.0667	-2.3875	-3.0312	-2.9437	-2.7062	203.134	284.314	483.354	193.198	410.784	279.510	397.187	164.541	253.045	427.006	464.125	380.675	367.563	188.640	301.426	215.157	0.00011336	0.00050288	6.7343e-05	35.89	1.28e-06	1.197e-06	50.075	13.424	3.809e-06	5.5176e-06	19.169	6.2324	4.4707	1.6752	5.4825e-06	2.5069	0.0019446	0.0019487	0.00054233	502.1	2.1481e-05	2.1527e-05	530.69	163.88	2.1755e-05	2.1674e-05	341.49	82.534	80.729	27.211	2.1638e-05	36.22	320.250	472.680	183.049	169.966	255.543	348.587	168.342	175.945	407.443	411.148	172.875	178.871	180.618	184.521	380.996	182.827	-8191	255	
1535.928	1	1	0	0	0.2296	0.17356	0.36448	0.07293	0.09488	0.12352	0.055728	0.19757	0.20651	0.1952	0.26694	0.33323	0.010342	0.10758	0.11288	0.24363	-2.825	-2.4604	-2.7271	-3.0875	-2.4104	-3.1104	-3.0167	-2.4604	-3.2729	-2.5479	-2.6208	-3.1792	-2.3104	-3.0646	-3.0563	-2.4479	309.560	196.507	279.110	304.199	367.814	403.924	390.336	405.796	470.278	440.378	509.039	257.389	237.873	414.391	164.152	414.167	0.0002744	7.3533e-05	0.00014316	36.308	1.1832e-06	2.6979e-06	49.983	13.28	4.0706e-06	2.4766e-06	19.309	6.2846	4.496	1.7621	2.4142e-06	2.3946	0.0019571	0.0019598	0.00054412	501.95	2.1381e-05	2.1308e-05	523.41	161.11	2.1295e-05	2.1239e-05	335.4	81.51	79.832	26.919	2.1417e-05	35.933	272.535	465.593	429.257	171.880	173.895	516.256	168.867	176.075	269.774	203.910	172.114	178.152	178.985	184.978	349.124	181.041	-8191	255	
1536.000	1	1	0	0	0.27781	0.24689	0.13608	0.24102	0.064445	0.21641	0.2129	0.086445	0.15163	0.26181	0.058411	0.036771	0.1957	0.34066	0.083221	0.27023	-2.9333	-2.7062	-2.5896	-3.3042	-2.6229	-2.9833	-3.0396	-2.3979	-3.1792	-2.5604	-2.5938	-3.25	-2.175	-2.8917	-2.9875	-2.5187	239.961	218.077	231.820	409.368	472.571	488.920	194.152	474.364	215.362	165.157	287.253	274.259	207.035	200.172	443.965	409.145	0.00041347	0.00011202	6.4968e-05	36.862	5.5758e-07	2.5457e-06	49.565	13.151	1.4444e-06	4.9079e-06	18.896	5.98	4.5438	1.6861	6.0288e-06	2.4922	0.0019474	0.001954	0.00054323	501.87	2.1363e-05	2.1308e-05	524.19	160.89	2.1227e-05	2.115e-05	333.69	80.747	78.947	26.575	2.1202e-05	35.624	199.111	202.623	403.510	172.979	367.201	279.487	169.387	177.296	458.397	324.048	174.933	176.217	183.625	185.126	490.003	180.630	-8191	255	
1536.096	1	1	0	0	0.14289	0.15425	0.17263	0.19008	0.1839	0.066071	0.031849	0.062484	0.22099	0.099415	0.14916	0.051269	0.18531	0.14933	0.21455	0.29532	-2.7042	-2.8667	-2.5896	-3.1146	-2.6083	-3.0208	-3.2812	-2.6	-3.2042	-2.9708	-2.4354	-3.3396	-2.6625	-2.7792	-3.4188	-2.4625	269.134	513.355	328.568	408.461	483.164	507.644	252.635	412.274	294.120	263.752	288.328	437.179	497.733	214.799	172.770	161.830	0.00033277	0.0004397	0.00012323	35.56	3.7138e-06	1.7437e-06	49.023	13.132	2.5287e-06	6.4363e-07	20.154	6.1472	4.4476	1.7552	2.3269e-06	2.4713	0.0019308	0.0019347	0.00053945	499.86	2.1306e-05	2.1314e-05	526.4	162.14	2.1385e-05	2.1283e-05	335.06	80.951	78.87	26.502	2.1046e-05	35.281	306.119	463.279	328.935	171.458	178.921	272.266	167.337	177.151	297.064	492.606	169.786	177.932	180.154	184.587	265.167	183.082	-8191	255	
1536.192	1	1	0	0	0.085155	0.26	0.1776	0.070371	0.2033	0.12596	0.065833	0.14312	0.24569	0.15409	0.16358	0.3386	0.23114	0.30403	0.13603	0.09148	-2.4896	-2.9479	-2.2687	-3.2417	-2.5729	-2.5438	-3.2521	-2.4813	-2.9458	-3.0729	-2.4562	-3.0812	-2.625	-2.7	-3.2188	-2.3292	271.264	503.284	207.237	166.526	466.051	519.094	395.543	265.605	209.408	513.241	239.383	495.301	502.648	516.213	439.474	372.128	0.00033535	0.00039358	0.00012263	36.088	3.2758e-06	1.0391e-06	48.824	13.498	2.4078e-06	5.2307e-06	18.575	6.1101	4.6227	1.6379	2.4387e-06	2.4393	0.0019023	0.0019058	0.00052924	489.14	2.0691e-05	2.0672e-05	511.46	157.18	2.0647e-05	2.0548e-05	324.56	78.535	76.55	25.786	2.0449e-05	34.273	401.334	253.914	264.941	169.943	277.256	205.550	171.045	177.376	438.091	193.773	171.558	178.694	180.223	186.145	214.463	184.477	-8191	255	
1536.311	1	1	0	0	0.22773	0.17915	0.037079	0.20275	0.32523	0.45126	0.23071	0.16711	0.19894	0.20897	0.11104	0.10403	0.15372	0.028175	0.088125	0.13797	-2.4938	-3.0729	-2.4583	-3.0542	-2.8042	-2.6813	-3.1562	-2.5438	-3.0042	-3.0979	-2.4542	-3.1312	-2.7708	-2.6021	-3.2875	-2.6417	214.705	400.307	294.344	429.755	371.525	242.251	201.247	397.706	487.721	308.763	499.695	212.448	177.073	159.431	422.797	383.957	7.0551e-05	3.5797e-07	0.00014702	35.353	1.0139e-06	2.7494e-06	49.006	12.994	7.893e-06	5.8949e-06	19.924	6.4291	4.5198	1.682	3.8498e-06	2.5367	0.0018464	0.0018509	0.00051478	477.46	2.0275e-05	2.0213e-05	501.12	153.14	1.9949e-05	1.9708e-05	307.8	73.362	70.411	23.401	1.805e-05	29.787	347.974	276.933	261.746	173.159	475.922	363.190	170.791	177.376	221.400	475.356	172.084	178.683	180.030	183.295	192.314	180.413	-8191	255	
1536.407	1	1	0	0	0.10515	0.20096	0.20036	0.16526	0.06507	0.12731	0.18559	0.16012	0.17497	0.21606	0.11105	0.074795	0.23891	0.18116	0.1869	0.099459	-2.2625	-3.1437	-2.4667	-3.0458	-3.0271	-2.5229	-3.1583	-2.7	-2.6771	-3.2188	-2.3771	-3.1813	-2.9771	-2.3417	-3.1833	-2.6917	397.400	459.351	432.354	466.127	471.449	248.796	485.755	223.452	187.805	277.690	437.994	400.431	315.730	165.524	293.656	328.329	0.00027134	0.00029492	0.00012122	36	4.0236e-06	5.7121e-06	50.471	13.192	1.3781e-06	1.4891e-06	20.073	6.242	4.5939	1.7391	4.6878e-06	2.4449	0.0015581	0.0015226	0.00041143	379.93	1.5305e-05	1.4936e-05	377.29	113.1	1.4005e-05	1.3715e-05	219.08	53.102	50.511	16.893	1.2832e-05	22.241	446.156	196.288	469.002	173.781	360.180	189.260	169.283	176.235	505.121	359.419	171.609	178.537	177.371	185.841	227.080	181.233	-8191	255	
1536.503	1	1	0	0	0.076996	0.18135	0.11861	0.19773	0.14815	0.1173	0.097688	0.10289	0.054375	0.15437	0.23708	0.18458	0.30191	0.099912	0.19671	0.11045	-2.2687	-3.1688	-2.4688	-2.6937	-3.1021	-2.3479	-3.0687	-2.7833	-2.5958	-3.1292	-2.4562	-2.8354	-3.0146	-2.2542	-3.1604	-2.8083	514.610	438.666	370.069	250.729	241.877	213.553	300.575	248.567	390.285	409.296	421.008	397.128	404.995	448.823	343.332	330.012	0.00019432	0.00027354	7.8988e-05	36.286	9.469e-07	4.658e-06	49.222	13.56	4.8464e-06	1.6845e-06	19.253	6.3849	4.6498	1.7546	4.4783e-06	2.448	0.0011394	0.001134	0.00031314	304.11	1.2132e-05	1.2048e-05	319.57	96.697	1.1899e-05	1.185e-05	194.39	47.893	46.113	15.638	1.1854e-05	20.998	487.196	264.088	301.277	169.652	307.239	494.522	169.695	177.419	408.476	380.914	171.597	177.815	180.021	186.039	466.398	180.867	-8191	255	
1536.600	1	1	0	0	0.21228	0.093511	0.25156	0.19982	0.033203	0.20088	0.10536	0.11578	0.1062	0.19148	0.17471	0.38494	0.12442	0.10294	0.14208	0.029694	-1.9708	-3.2625	-2.3917	-2.7854	-3.1312	-2.2167	-2.9917	-2.6833	-2.6875	-3.3458	-2.5542	-2.5979	-3.0292	-2.325	-3.0875	-2.9771	508.329	241.579	172.559	272.304	174.285	487.735	238.331	468.969	442.264	512.464	181.039	272.569	436.650	336.452	205.126	330.054	0.00011215	0.00014462	0.00011511	37.005	3.0877e-06	1.5368e-06	50.646	13.491	3.14e-06	1.2091e-06	19.109	6.6026	4.6437	1.7441	4.033e-06	2.5128	0.0010777	0.0010877	0.00030352	298.72	1.1919e-05	1.1924e-05	319.21	96.939	1.1985e-05	1.1989e-05	196.77	48.83	46.934	15.916	1.198e-05	21.063	194.643	294.109	396.143	170.929	208.429	364.757	170.415	176.321	501.423	385.544	174.206	177.885	179.393	184.980	367.653	181.070	-8191	255	
1536.696	1	1	0	0	0.24533	0.13289	0.063132	0.16745	0.15683	0.058226	0.13258	0.10203	0.30732	0.12498	0.19348	0.091455	0.10193	0.12487	0.149	0.1046	-1.9813	-3.1667	-2.7604	-2.6146	-3.2333	-2.4917	-2.9417	-3.2479	-2.35	-3.2083	-2.6688	-2.7042	-3.1063	-2.4896	-3.0187	-3.0667	187.192	312.592	451.531	234.920	328.958	507.668	408.789	506.321	484.141	189.713	386.368	487.948	448.358	402.687	198.823	504.991	0.00024775	0.00019073	8.6009e-05	37.232	1.953e-06	2.0011e-06	50.127	13.667	3.5505e-06	1.3479e-06	18.822	6.5204	4.663	1.7711	1.7488e-06	2.5505	0.001079	0.0010831	0.00030047	295.72	1.1855e-05	1.1781e-05	315.93	95.025	1.1637e-05	1.1558e-05	189.68	46.823	44.77	15.118	1.1273e-05	20.007	495.702	392.630	438.541	172.209	210.618	201.315	169.571	176.965	236.923	219.055	172.817	177.128	178.826	185.272	266.436	180.875	-8191	255	
1536.792	1	1	0	0	0.15933	0.10852	0.12742	0.014314	0.14471	0.080674	0.18149	0.19873	0.1025	0.13269	0.12178	0.23948	0.38379	0.085931	0.25106	0.10612	-2.0521	-3.1396	-2.7729	-2.4667	-3.2208	-2.7188	-2.75	-2.9688	-2.3896	-3.1125	-2.7729	-2.4667	-3.2812	-2.5958	-2.7771	-3.0521	328.507	196.424	258.513	313.481	167.608	336.973	194.291	318.435	463.292	343.317	220.341	498.107	491.416	379.007	508.896	300.270	0.00015885	0.00014392	3.7161e-05	36.986	2.1715e-06	3.3365e-06	50.818	13.256	3.8575e-06	1.8548e-06	19.453	6.5653	4.5977	1.7752	4.35e-06	2.5305	0.0010083	0.0010088	0.00027969	277.47	1.0956e-05	1.0971e-05	298.88	90.959	1.1134e-05	1.1125e-05	184.44	45.735	43.743	14.743	1.0968e-05	19.48	337.759	166.723	160.768	171.409	374.931	351.118	170.430	177.746	370.043	515.929	173.187	179.032	180.504	186.401	192.758	180.891	-8191	255	
1536.888	1	1	0	0	0.20811	0.17423	0.18099	0.171	0.12136	0.31614	0.16391	0.067741	0.24447	0.16211	0.28676	0.29848	0.050893	0.11391	0.11928	0.11975	-1.9062	-3.0104	-2.9562	-2.2375	-3.3063	-2.5417	-2.8458	-3.0646	-2.3417	-3.0479	-3.0958	-2.4229	-3.1021	-2.5208	-2.6813	-3.2625	478.022	358.637	169.496	315.729	161.357	307.898	439.072	235.078	495.888	325.998	414.016	229.185	430.740	196.631	427.150	398.939	0.00010759	0.00025148	7.7948e-05	36.988	2.004e-06	1.7673e-06	49.851	13.543	6.9556e-06	1.1212e-06	19.312	6.5073	4.6811	1.7255	2.0685e-06	2.6359	0.00097986	0.00098281	0.0002711	270.11	1.0554e-05	1.045e-05	284.32	85.811	1.0267e-05	1.0195e-05	169.26	42.163	40.116	13.611	1.0073e-05	18.268	255.859	466.181	162.944	170.904	217.629	311.032	168.982	175.917	164.882	375.852	172.548	178.189	181.590	186.591	177.648	181.068	-8191	255	
1537.009	1	1	0	0	0.35343	0.13626	0.058973	0.085634	0.25417	0.27125	0.16176	0.11979	0.12333	0.14253	0.21302	0.154	0.16867	0.20153	0.36405	0.08573	-2.1833	-2.9938	-2.9708	-2.3833	-3.0521	-2.6646	-2.5979	-3.3	-2.5333	-2.85	-3.2021	-2.5229	-3.2208	-2.8854	-2.4125	-3.2292	269.733	171.609	158.839	397.546	321.383	190.769	479.539	225.410	341.140	434.842	487.738	340.744	486.082	382.459	316.356	252.528	0.00024654	0.00050335	8.2544e-05	36.86	7.9427e-07	3.2399e-06	48.772	13.552	1.3353e-06	2.855e-06	19.305	6.6599	4.7268	1.6961	5.5029e-07	2.628	0.00091779	0.00092222	0.00025661	259.63	1.0109e-05	1.0064e-05	277.03	83.831	1.0024e-05	9.9767e-06	166.87	41.684	39.818	13.529	1.0031e-05	18.25	308.843	351.062	352.842	170.808	285.840	311.296	169.816	176.465	359.771	336.499	172.119	177.849	180.248	185.766	490.506	181.837	-8191	255	
1537.105	1	1	0	0	0.10526	0.022366	0.069352	0.13072	0.054513	0.037123	0.057313	0.05266	0.051557	0.27649	0.16841	0.14753	0.049895	0.086336	0.15239	0.09346	-2.0854	-2.7313	-3.1	-2.4229	-3.1521	-2.7438	-2.6042	-3.0854	-2.4208	-2.7896	-3.3229	-2.2896	-3.0625	-2.7604	-2.6063	-3.3021	421.363	161.339	516.596	236.176	405.990	269.444	389.944	301.638	350.017	262.473	469.857	405.841	307.211	218.628	182.485	272.103	0.00024568	0.00029068	0.00010209	37.196	3.4199e-07	8.6417e-07	50.389	13.677	2.2121e-06	2.5163e-06	19.649	6.6562	4.5369	1.7476	4.7583e-06	2.5577	0.00091153	0.00091673	0.00025507	258.27	1.0002e-05	9.9331e-06	274.41	82.567	9.7694e-06	9.6813e-06	161.86	40.296	37.963	12.811	9.2958e-06	16.989	427.667	182.301	417.648	170.679	491.961	330.267	169.645	177.386	220.584	386.924	174.005	177.087	179.213	185.420	204.158	181.323	-8191	255	
1537.201	1	1	0	0	0.17687	0.53583	0.26629	0.19584	0.014694	0.19636	0.11227	0.19016	0.14446	0.10567	0.29297	0.37453	0.25881	0.12411	0.13094	0.16522	-2.1271	-2.7542	-3.1188	-2.3604	-3.1042	-2.9854	-2.4854	-3.2917	-2.5625	-2.6604	-3.1083	-2.3063	-2.8854	-2.9667	-2.5479	-3.325	273.655	306.564	378.015	260.480	225.584	201.848	240.051	357.744	470.074	470.641	316.461	414.209	486.436	490.528	279.583	515.402	0.00023686	0.00019347	4.7959e-05	37.644	2.2609e-06	5.7969e-06	51.35	13.767	2.6884e-06	1.9295e-06	19.543	6.4823	4.7458	1.7951	1.3871e-06	2.5534	0.0008329	0.00082905	0.00023017	236.75	9.0183e-06	8.9924e-06	254.66	76.963	9.0067e-06	9.0132e-06	152.59	38.335	36.243	12.265	8.8652e-06	16.336	456.632	425.374	426.406	171.614	356.240	213.992	169.052	176.144	176.582	455.697	174.341	177.517	179.413	186.191	183.846	184.820	-8191	255	
1537.297	1	1	0	0	0.057127	0.18338	0.12823	0.28293	0.060069	0.17586	0.093982	0.099417	0.022822	0.1905	0.13169	0.15245	0.12298	0.097982	0.052732	0.072806	-2.3542	-2.5729	-3.1792	-2.5312	-2.8	-3.1479	-2.4146	-3.1042	-2.7604	-2.3896	-3.1396	-2.4604	-2.8021	-3.0958	-2.5229	-3.3021	291.909	366.619	424.943	193.643	197.160	394.059	408.045	419.896	252.205	331.290	417.217	267.368	212.243	478.811	253.255	481.230	0.00043912	0.00037708	1.8277e-05	37.868	8.7275e-07	4.4266e-06	50.906	13.802	3.1149e-06	2.1324e-06	19.3	6.5167	4.7052	1.7767	2.8375e-06	2.5632	0.00079422	0.00079656	0.0002208	228.59	8.6325e-06	8.5889e-06	245.69	73.856	8.5137e-06	8.4657e-06	144.63	36.344	34.291	11.706	8.425e-06	15.743	406.561	255.802	485.396	171.595	257.849	316.302	169.574	176.579	492.123	233.927	173.290	177.526	178.792	186.134	353.057	181.677	-8191	255	
1537.392	1	1	0	0	0.13221	0.23965	0.039109	0.13484	0.16373	0.17098	0.045311	0.088189	0.15708	0.14215	0.050782	0.29261	0.070497	0.19219	0.2784	0.23487	-2.3604	-2.4146	-3.2062	-2.5458	-2.6188	-3.2292	-2.4188	-3.0438	-2.9813	-2.4229	-3.3	-2.6396	-2.4938	-3.0896	-2.5167	-3.0812	489.793	168.070	297.234	398.574	349.761	430.540	343.157	280.396	461.747	441.423	502.298	481.656	222.642	183.397	477.114	373.866	0.00013009	0.00011389	0.00010829	38.19	6.0236e-07	5.4014e-06	51.284	13.66	1.5771e-06	2.3122e-06	20.245	6.6545	4.6974	1.8154	2.0355e-06	2.5768	0.00076806	0.00077499	0.00021647	226.02	8.5664e-06	8.6034e-06	246.02	74.497	8.6284e-06	8.628e-06	147.32	37.092	35.084	12.001	8.668e-06	16.156	494.547	517.552	303.379	169.745	376.033	411.475	169.768	177.070	299.424	238.255	171.746	177.118	180.179	186.025	369.325	181.659	-8191	255	
1537.488	1	1	0	0	0.29337	0.17994	0.076718	0.17522	0.19983	0.18414	0.23882	0.11834	0.24215	0.10174	0.035865	0.070918	0.04488	0.16859	0.29311	0.18074	-2.425	-2.3979	-3.1042	-2.6292	-2.5292	-3.2667	-2.4688	-2.8646	-2.9813	-2.3208	-3.1167	-2.7396	-2.5542	-3.2062	-2.4688	-2.8708	243.982	487.445	291.577	285.580	262.733	428.782	331.993	241.653	418.807	507.019	290.784	277.411	252.640	480.124	210.047	500.244	9.5767e-05	0.00014729	2.8233e-05	37.702	2.6367e-06	1.0358e-06	50.958	13.715	2.4952e-06	3.5678e-06	19.745	6.8198	4.8069	1.7666	1.3657e-06	2.6362	0.00078906	0.00079697	0.00022258	231.32	8.7881e-06	8.8023e-06	251.08	75.767	8.8633e-06	8.9103e-06	151.96	38.306	36.349	12.427	9.0665e-06	16.804	514.250	412.526	254.201	172.360	295.745	209.466	170.277	176.718	220.402	262.440	174.417	178.310	180.901	186.082	387.051	181.279	-8191	255	
1537.608	1	1	0	0	0.17783	0.16317	0.23626	0.054144	0.21019	0.1124	0.028812	0.097324	0.18646	0.18344	0.20526	0.095063	0.10088	0.08952	0.2636	0.1005	-2.7417	-2.1437	-3.1	-2.7125	-2.3312	-3.3812	-2.6417	-2.8396	-3.2313	-2.5958	-3.2292	-2.9021	-2.6958	-3.1896	-2.4771	-2.7042	232.483	320.034	311.448	441.600	422.162	436.208	278.815	350.033	439.194	503.555	304.397	354.304	421.301	298.783	161.483	233.022	0.00031045	0.00024031	3.0863e-05	37.581	2.7395e-06	5.3278e-06	51.345	13.52	2.0532e-07	4.8719e-06	20.016	6.5138	4.7192	1.7768	3.2263e-06	2.5167	0.00083035	0.00084149	0.00023485	240.99	9.2518e-06	9.2727e-06	261.22	79.036	9.3616e-06	9.383e-06	158.66	39.787	37.874	12.893	9.4336e-06	17.286	362.094	206.640	457.331	171.999	379.246	168.854	169.539	177.692	517.349	446.146	173.085	177.871	180.974	184.112	279.421	182.370	-8191	255	
1537.704	1	1	0	0	0.077406	0.20981	0.095579	0.19245	0.17756	0.062781	0.26346	0.17118	0.26069	0.19318	0.30952	0.30991	0.18618	0.21079	0.24453	0.19598	-2.7062	-2.6521	-2.9813	-3.0167	-2.3958	-3.1937	-2.8396	-2.7479	-3.2917	-2.6146	-3.0208	-2.9667	-2.4208	-3.2833	-2.6854	-2.6458	449.537	228.177	303.109	334.592	406.099	179.035	327.477	212.567	504.975	359.439	233.991	506.781	225.267	183.445	488.053	362.890	0.00013074	0.00042113	8.1718e-05	38.988	3.4513e-06	7.6999e-07	51.333	13.727	5.0342e-06	2.0555e-06	19.453	6.6207	4.6559	1.7325	2.9099e-06	2.4887	0.00085891	0.00086516	0.00024134	247.43	9.5389e-06	9.5337e-06	265.34	79.915	9.4117e-06	9.3732e-06	157.85	39.489	37.453	12.758	9.311e-06	17.119	489.056	462.764	374.591	171.235	266.851	444.496	169.678	176.184	488.550	339.003	173.687	177.604	178.883	185.667	446.104	181.496	-8191	255	
1537.801	1	1	0	0	0.16618	0.094251	0.15139	0.13647	0.21158	0.13508	0.24596	0.017951	0.09354	0.12541	0.091832	0.33862	0.06718	0.1702	0.23217	0.12818	-2.6667	-2.3208	-2.7792	-2.9917	-2.3771	-3.2562	-2.5375	-2.5875	-3.0938	-2.575	-2.8458	-3.1875	-2.3979	-2.975	-2.8354	-2.5896	168.841	290.920	351.419	379.543	332.607	234.931	301.068	375.258	207.675	193.812	512.217	449.996	198.882	285.325	254.432	196.667	7.5415e-05	0.00020568	0.00012801	38.526	1.4051e-06	1.5405e-06	51.579	13.644	4.225e-07	2.0417e-06	19.506	6.6103	4.7153	1.8089	7.5487e-07	2.571	0.00085033	0.00085299	0.00023661	241.79	9.2474e-06	9.2378e-06	260.12	78.424	9.2243e-06	9.1814e-06	155	38.982	37.041	12.6	9.1457e-06	16.834	292.981	248.680	279.756	171.932	159.539	365.276	170.317	176.918	163.684	242.838	172.890	176.995	178.176	185.857	453.649	179.794	-8191	255	
1537.872	1	1	0	0	0.19915	0.10933	0.22106	0.17323	0.14128	0.17228	0.14629	0.37466	0.21017	0.19768	0.086876	0.21277	0.10543	0.17115	0.092536	0.11418	-2.8979	-2.3708	-2.9313	-3.3896	-2.4583	-3.2083	-2.8271	-2.3333	-3.0646	-2.5104	-2.5583	-3.0563	-2.3083	-2.8896	-2.825	-2.3292	461.274	433.404	189.930	207.954	214.100	358.552	168.729	242.088	438.862	350.333	190.555	311.880	298.458	220.390	242.073	513.279	0.00030771	0.00035509	9.6216e-05	38.048	2.2337e-06	5.0229e-06	50.949	13.709	2.7222e-06	7.4643e-07	19.313	6.8786	4.7872	1.7917	3.9341e-06	2.6364	0.00082749	0.0008281	0.0002302	237.84	9.123e-06	9.1292e-06	257.36	77.798	9.1615e-06	9.1478e-06	155.29	39.212	37.26	12.694	9.2477e-06	17.082	423.906	366.827	276.264	173.086	180.932	512.829	169.641	175.839	327.674	288.401	173.647	177.501	180.796	185.847	507.615	182.150	-8191	255	
1537.993	1	1	0	0	0.13861	0.19273	0.23198	0.18924	0.32327	0.14686	0.070189	0.15053	0.10976	0.24831	0.07757	0.020217	0.11924	0.19466	0.08784	0.19474	-2.7229	-2.525	-2.55	-3.1	-2.4917	-2.9729	-3.0604	-2.4062	-3.0542	-2.6854	-2.6333	-3.2667	-2.4792	-2.8438	-3.0271	-2.5125	469.661	462.491	449.145	240.765	368.588	455.261	227.562	482.381	215.166	259.768	213.137	199.168	513.054	380.630	198.955	477.381	0.00017317	0.00015955	4.7581e-05	37.941	2.2818e-06	3.0824e-06	51.382	13.627	1.8939e-06	2.1879e-06	20.356	6.5696	4.7872	1.7828	2.2216e-06	2.6473	0.00084298	0.00084823	0.00023681	243.73	9.3707e-06	9.3753e-06	263.57	79.852	9.4491e-06	9.4261e-06	159.03	40.014	37.934	12.916	9.438e-06	17.367	491.711	262.998	283.873	171.311	359.058	480.138	168.941	176.554	170.538	491.556	172.130	177.441	180.277	186.162	468.138	182.682	-8191	255	
1538.089	1	1	0	0	0.18182	0.27418	0.25744	0.15204	0.16535	0.15005	0.24506	0.14098	0.06914	0.13639	0.043195	0.18021	0.072698	0.36211	0.17787	0.11906	-2.7646	-2.825	-2.4917	-3.1729	-2.4562	-2.8479	-2.9062	-2.3646	-2.9562	-3.0271	-2.5125	-3.1521	-2.5625	-2.6854	-3.2146	-2.4667	427.522	395.272	379.046	178.106	227.349	500.084	169.962	396.135	361.686	348.025	441.718	380.863	362.702	166.165	456.625	464.830	0.00018686	0.00018549	6.2297e-05	38.588	2.6218e-06	6.5789e-07	51.202	13.723	2.3785e-06	1.9789e-06	19.089	6.6445	4.7108	1.7589	4.9566e-07	2.5056	0.00086114	0.00086567	0.00024143	247.77	9.533e-06	9.5103e-06	265.21	80.023	9.4125e-06	9.3244e-06	157.04	39.35	37.142	12.652	9.2172e-06	16.883	494.208	372.650	256.088	170.787	254.598	293.713	170.092	176.729	355.324	463.787	173.495	177.622	180.734	186.169	472.366	181.444	-8191	255	
1538.185	1	1	0	0	0.013717	0.26888	0.21732	0.20261	0.061744	0.020388	0.064134	0.040033	0.20946	0.065083	0.17204	0.1196	0.12882	0.21684	0.20606	0.14401	-2.6708	-2.8333	-2.4792	-3.1771	-2.6854	-2.4813	-3.2479	-2.2521	-2.8979	-3.0208	-2.2917	-3.1208	-2.7396	-2.5354	-3.1	-2.2833	496.600	245.476	433.666	479.019	288.477	416.702	420.109	301.156	480.435	209.063	490.577	167.875	203.593	270.540	492.390	241.452	0.00026858	0.00032881	7.9441e-05	38.147	2.2677e-06	1.2027e-06	50.713	13.86	3.6512e-06	3.0568e-06	19.752	6.5291	4.6746	1.7998	3.297e-06	2.6145	0.00083231	0.00083306	0.00023141	238.29	9.0767e-06	9.0558e-06	256.06	77.272	9.0862e-06	9.0514e-06	153.68	38.758	36.827	12.601	9.2064e-06	16.982	172.394	471.507	248.351	171.948	399.146	381.194	169.279	176.584	454.654	221.401	173.533	177.420	179.797	186.644	234.935	181.942	-8191	255	
1538.281	1	1	0	0	0.14535	0.12747	0.24484	0.27962	0.25091	0.28732	0.064212	0.14215	0.12367	0.225	0.2608	0.18526	0.30225	0.042261	0.19679	0.10941	-2.5333	-3.1667	-2.2	-3.2958	-2.7417	-2.4021	-3.2542	-2.4437	-2.7396	-3.2021	-2.3583	-3.1375	-2.6979	-2.3958	-3.1333	-2.5563	182.161	437.947	165.916	500.769	244.500	369.723	169.878	163.561	435.662	452.103	215.276	441.476	243.136	250.353	395.293	213.732	0.00022348	0.00033925	9.1512e-05	37.758	2.9269e-06	2.4662e-06	51.728	13.819	3.0492e-06	4.9107e-06	19.639	6.6655	4.611	1.7689	4.89e-07	2.6081	0.00083797	0.00084191	0.00023571	242.33	9.3035e-06	9.3327e-06	263.09	79.775	9.4281e-06	9.4652e-06	160.4	40.311	38.166	13.045	9.5294e-06	17.42	325.263	165.959	184.016	172.416	341.395	449.293	170.154	177.448	293.994	232.851	174.366	178.291	178.601	184.275	466.388	182.335	-8191	255	
1538.400	1	1	0	0	0.32378	0.20539	0.17091	0.19933	0.072288	0.20835	0.26148	0.346	0.068863	0.21512	0.19704	0.20651	0.051576	0.2864	0.075852	0.16018	-2.2792	-3.1104	-2.2792	-2.9979	-2.7583	-2.4792	-3.2042	-2.5938	-2.6667	-3.1542	-2.5417	-2.9813	-2.7729	-2.2438	-3.1	-2.625	498.501	202.949	438.507	443.512	196.711	159.172	340.819	177.328	340.006	353.976	356.671	312.082	398.909	300.347	410.009	420.123	5.7633e-05	6.5883e-05	7.9905e-05	36.828	1.3251e-06	2.0013e-06	51.611	13.674	2.787e-06	3.0906e-06	19.182	6.392	4.6236	1.7878	3.9245e-06	2.5446	0.00086286	0.00086606	0.00024146	247.45	9.568e-06	9.5996e-06	269.56	81.908	9.8418e-06	9.9458e-06	168.51	42.433	40.64	13.956	1.0414e-05	19.017	464.614	376.539	422.287	172.041	238.245	270.228	169.848	176.943	372.076	222.554	172.494	178.406	180.739	186.960	190.827	181.458	-8191	255	
1538.472	1	1	0	0	0.15036	0.055546	0.18941	0.07466	0.21201	0.11601	0.023308	0.075431	0.18309	0.066978	0.094169	0.16304	0.15743	0.046162	0.14222	0.15134	-2.2188	-3.2313	-2.2729	-3.0312	-2.7	-2.4771	-3.2896	-2.5479	-2.6604	-3.1396	-2.2771	-2.8396	-3.1854	-2.3688	-3.1312	-2.7875	252.675	316.788	280.624	349.442	417.536	463.215	214.419	248.180	443.663	255.519	301.782	224.574	471.801	441.213	497.937	284.172	2.4781e-05	0.00013441	4.074e-05	37.078	3.5509e-07	2.3232e-06	51.572	13.495	3.2392e-06	4.9132e-06	19.567	6.5946	4.7192	1.8367	2.3499e-06	2.5749	0.00096649	0.00098484	0.00027792	279.98	1.1133e-05	1.1181e-05	304.39	92.696	1.1329e-05	1.1345e-05	188.25	46.858	44.703	15.237	1.1383e-05	20.285	207.492	231.735	425.506	172.519	367.621	513.824	169.894	175.721	326.903	390.878	174.740	178.292	179.077	186.499	517.685	183.008	-8191	255	
1538.570	1	1	0	0	0.25976	0.26125	0.17027	0.18066	0.15744	0.19491	0.052231	0.24896	0.13346	0.19989	0.093827	0.18635	0.048684	0.27423	0.23423	0.24683	-2.1917	-3.1875	-2.3854	-2.7271	-2.9062	-2.4292	-2.9938	-2.6646	-2.4542	-3.0354	-2.5125	-2.6479	-3.1667	-2.3063	-2.9167	-2.7667	438.368	308.020	188.425	283.004	482.855	489.896	395.927	427.197	376.928	356.450	384.014	412.341	500.468	500.320	470.342	176.000	0.00010389	0.00014046	8.1087e-05	36.959	2.1224e-06	4.4093e-06	50.776	13.424	9.4897e-07	4.9495e-06	18.875	6.5752	4.5656	1.7945	3.0951e-06	2.6176	0.0010251	0.001029	0.00028587	283.69	1.1176e-05	1.114e-05	301.43	91.299	1.1087e-05	1.1026e-05	182.44	45.206	43.138	14.669	1.0864e-05	19.555	188.677	201.848	294.001	171.432	382.078	341.418	169.972	176.099	515.616	305.991	171.153	177.898	180.586	186.181	414.088	180.605	-8191	255	
1538.689	1	1	0	0	0.21336	0.071287	0.22291	0.092007	0.12499	0.073526	0.05279	0.028418	0.20205	0.13868	0.10045	0.15285	0.20272	0.15805	0.15239	0.044971	-1.9146	-3.2333	-2.5604	-2.6646	-3.1083	-2.4562	-3.1208	-2.9542	-2.4938	-3.2417	-2.6562	-2.6875	-3.2854	-2.4625	-2.8417	-2.8583	403.928	201.905	480.486	441.601	474.489	377.765	424.801	183.354	264.793	496.245	269.762	348.940	335.698	250.173	182.179	252.586	0.00012572	0.00022364	0.00011692	36.885	3.8777e-06	2.4106e-06	51.459	13.717	1.9607e-06	5.0761e-06	19.667	6.548	4.6373	1.8151	4.4882e-07	2.5516	0.00098339	0.00098603	0.00027378	274.24	1.0815e-05	1.081e-05	295.34	89.47	1.0855e-05	1.082e-05	179.63	44.797	42.836	14.564	1.085e-05	19.546	157.697	447.196	187.882	170.057	477.787	410.594	170.203	175.066	344.231	512.602	173.985	177.608	181.706	186.954	441.487	181.595	-8191	255	
1538.785	1	1	0	0	0.11559	0.17406	0.15379	0.13285	0.22079	0.22386	0.16652	0.11233	0.16988	0.11056	0.050016	0.14127	0.13471	0.098433	0.28624	0.11582	-1.8563	-3.1229	-2.6979	-2.6917	-3.0208	-2.3042	-2.725	-2.95	-2.4083	-3.0333	-2.6958	-2.5062	-3.0646	-2.575	-2.7271	-3.0479	427.209	382.855	279.628	506.268	482.302	462.227	314.880	436.819	408.712	451.588	468.064	391.985	298.833	345.648	414.578	195.314	0.00025982	0.00011394	8.6465e-05	36.829	2.5639e-06	3.8569e-06	50.494	13.727	1.6392e-06	1.1387e-06	18.991	6.6081	4.6268	1.8106	1.2122e-06	2.597	0.00098452	0.00098796	0.00027504	275.5	1.0875e-05	1.0868e-05	296.87	90.602	1.1052e-05	1.1103e-05	184.54	45.948	44.028	14.976	1.1202e-05	20.062	335.460	166.047	348.477	171.496	288.197	285.612	171.592	175.843	219.498	345.169	174.075	178.273	179.797	186.363	447.930	181.807	-8191	255	
1538.881	1	1	0	0	0.16999	0.18272	0.18588	0.2785	0.13054	0.2583	0.014893	0.099951	0.27645	0.090077	0.22025	0.051214	0.29294	0.046669	0.29658	0.4126	-2.1	-3.0354	-2.8708	-2.4979	-3.0458	-2.5708	-2.7521	-3.0479	-2.6063	-2.9021	-2.8583	-2.3625	-3.175	-2.4375	-2.5021	-3.3146	463.655	236.771	292.715	462.114	187.498	433.933	446.910	197.326	502.458	512.583	253.717	454.335	508.565	494.870	279.168	329.497	0.00011605	9.4015e-05	5.3209e-05	36.937	3.4204e-06	3.4411e-06	51.066	13.501	2.0187e-06	1.6427e-06	19.484	6.4697	4.5857	1.8213	3.1512e-07	2.62	0.0010169	0.001021	0.00028326	282.36	1.115e-05	1.1139e-05	302.03	91.923	1.1237e-05	1.1268e-05	186.96	46.803	45.044	15.393	1.1587e-05	20.773	445.555	490.485	327.500	170.076	486.776	194.289	168.893	177.230	498.249	503.862	172.843	178.811	180.781	186.411	231.115	181.251	-8191	255	
1539.002	1	1	0	0	0.32308	0.16039	0.094125	0.15736	0.086982	0.19573	0.16295	0.20349	0.21521	0.12484	0.19107	0.16219	0.061974	0.16203	0.3086	0.11246	-2.0542	-2.9646	-2.8979	-2.4479	-3.1729	-2.6917	-2.525	-3.3583	-2.4333	-2.8604	-3.0812	-2.4229	-3.0625	-2.7667	-2.5	-3.3625	175.323	391.457	346.652	170.437	397.312	461.268	191.167	258.949	187.133	493.267	378.323	452.209	387.995	265.944	275.212	427.373	8.1978e-05	0.00051534	5.7601e-05	36.643	2.0869e-06	1.0957e-06	51.081	14.024	1.485e-06	7.8685e-06	20.046	6.6401	4.6974	1.8346	2.948e-06	2.6479	0.0010627	0.0010708	0.00029833	295.11	1.1771e-05	1.1758e-05	315.6	96.089	1.1829e-05	1.1797e-05	194.13	48.235	46.25	15.692	1.1793e-05	21.003	223.836	394.087	506.954	170.568	462.113	228.454	169.397	175.548	238.380	389.436	173.254	178.387	180.681	185.957	320.631	181.100	-8191	255	
1539.098	1	1	0	0	0.34553	0.20436	0.21921	0.19527	0.22312	0.14658	0.082198	0.18059	0.12465	0.1568	0.21021	0.19772	0.18655	0.11911	0.10663	0.074502	-2.1125	-2.9083	-3.1083	-2.4313	-3.0417	-2.8208	-2.55	-3.1646	-2.4729	-2.6896	-3.0521	-2.4375	-3.1625	-2.85	-2.3812	-3.1937	344.040	343.808	166.286	184.168	176.722	516.778	299.910	257.126	463.702	498.815	492.606	472.127	410.842	388.123	300.065	320.713	3.4587e-05	0.00047569	0.0001091	37.203	1.8274e-06	2.5105e-06	51.272	13.606	9.3861e-07	4.935e-07	19.161	6.5385	4.7381	1.7999	7.4428e-07	2.6162	0.0010652	0.0010673	0.0002968	293.78	1.1672e-05	1.1646e-05	312.65	94.916	1.1582e-05	1.1549e-05	190.34	47.203	45.144	15.366	1.1513e-05	20.596	492.404	287.602	175.341	172.362	365.598	258.311	169.618	175.996	438.399	363.826	172.442	178.318	181.195	185.966	214.532	181.632	-8191	255	
1539.169	1	1	0	0	0.17766	0.11794	0.137	0.14065	0.24776	0.16158	0.24323	0.13776	0.27385	0.088396	0.24109	0.0136	0.17162	0.25983	0.34546	0.14099	-2.1792	-2.6396	-3.0333	-2.2396	-3.0958	-3.0646	-2.4333	-3.1937	-2.5104	-2.6854	-3.3021	-2.3854	-2.8312	-2.9917	-2.3	-3.1021	248.959	511.431	465.538	432.059	385.494	253.619	359.009	198.174	335.769	349.673	459.165	163.920	187.519	436.570	480.497	158.547	0.00013506	0.00014576	3.6629e-05	37.304	3.7183e-06	4.0184e-06	50.609	13.73	1.3569e-06	4.1268e-07	18.893	6.7469	4.6259	1.803	4.4064e-06	2.655	0.0010458	0.0010464	0.00029104	287.71	1.1398e-05	1.1336e-05	304.51	92.403	1.1198e-05	1.1136e-05	184.42	45.829	43.674	14.802	1.1043e-05	19.794	428.228	321.931	413.480	171.869	443.696	436.433	168.842	176.331	314.373	274.534	173.570	177.380	179.721	186.252	224.590	182.219	-8191	255	
1539.266	1	1	0	0	0.19643	0.1767	0.16561	0.17323	0.26992	0.16657	0.17836	0.24843	0.044908	0.13906	0.16515	0.15517	0.06418	0.077278	0.16931	0.16505	-2.2979	-2.5396	-3.2479	-2.3604	-2.8438	-3.0729	-2.375	-2.8917	-2.6417	-2.4792	-3.2208	-2.5125	-2.7812	-2.9917	-2.1813	-2.9833	427.470	363.227	361.211	462.209	386.542	482.758	413.699	416.485	362.649	452.239	451.676	204.659	182.799	250.214	439.564	194.064	0.00012637	0.00026724	3.3361e-05	36.84	4.2832e-06	7.8255e-07	50.342	13.616	4.1562e-06	1.5618e-06	19.094	6.522	4.8152	1.7823	1.4618e-06	2.6047	0.00099764	0.00099827	0.0002771	274.89	1.0763e-05	1.0706e-05	290.18	87.718	1.0536e-05	1.0489e-05	174.46	43.412	41.382	14.082	1.043e-05	18.88	293.343	485.898	497.931	171.529	195.748	160.820	169.287	176.958	358.020	430.609	175.231	177.721	182.507	186.046	206.544	182.295	-8191	255	
1539.384	1	1	0	0	0.12742	0.22922	0.05346	0.23327	0.17543	0.24255	0.27307	0.2242	0.055192	0.061718	0.20812	0.077497	0.20873	0.33249	0.16699	0.1337	-2.3167	-2.2333	-3.2583	-2.2938	-2.7979	-3.0625	-2.3979	-3.0604	-2.9604	-2.4188	-3.2229	-2.6333	-2.6792	-3.0146	-2.2896	-2.9833	501.105	463.178	471.071	331.176	487.243	516.408	273.908	233.499	285.706	469.725	303.036	173.742	477.979	488.138	341.829	287.067	0.00014709	0.00027249	8.3674e-05	36.029	4.823e-06	1.9217e-06	50.055	13.656	1.5099e-06	4.7553e-06	19.222	6.631	4.6882	1.7873	4.264e-06	2.593	0.00094326	0.00094779	0.00026394	264.34	1.0357e-05	1.0335e-05	283.32	85.767	1.0272e-05	1.0238e-05	171.17	42.689	40.701	13.85	1.02e-05	18.54	192.517	273.514	208.280	171.197	325.166	373.688	169.701	177.149	387.970	342.476	172.022	177.585	178.451	185.772	218.900	183.451	-8191	255	
1539.481	1	1	0	0	0.085554	0.084866	0.16158	0.1209	0.18266	0.17787	0.15271	0.068633	0.22385	0.12047	0.2627	0.20849	0.20048	0.0687	0.18204	0.14316	-2.7792	-2.2417	-2.9833	-2.7208	-2.5042	-3.2125	-2.7	-2.8958	-2.9625	-2.1792	-3.1021	-2.575	-2.5396	-3.075	-2.6625	-2.8104	272.682	283.812	197.972	254.768	414.685	264.498	338.584	482.281	182.388	506.435	393.533	452.147	302.457	351.958	443.589	380.651	6.5073e-05	0.00019681	1.9668e-05	37.104	3.1381e-06	4.0862e-06	51.468	13.508	3.5727e-06	1.9878e-06	19.341	6.6704	4.8594	1.8866	4.7104e-06	2.5792	0.00092189	0.00092765	0.00025854	260.59	1.0189e-05	1.0173e-05	281.33	85.433	1.0279e-05	1.0306e-05	173.36	43.371	41.406	14.111	1.0416e-05	18.842	364.480	454.240	207.028	171.916	433.853	456.716	169.460	177.540	160.160	517.712	173.489	178.245	180.864	186.399	512.409	182.369	-8191	255	
1539.577	1	1	0	0	0.033216	0.12909	0.03414	0.26644	0.040829	0.2304	0.27404	0.18799	0.27532	0.013615	0.20202	0.01895	0.26514	0.19212	0.14984	0.047946	-2.5875	-2.3479	-3.0729	-2.9458	-2.4896	-3.1583	-2.4	-2.7687	-3.0417	-2.375	-2.9437	-2.65	-2.3479	-3.2021	-2.5375	-2.8604	488.385	355.526	493.594	419.198	463.905	235.965	209.500	305.961	372.435	176.720	328.222	501.874	419.300	331.392	330.752	227.260	0.00012754	0.0005164	8.081e-05	37.235	1.8919e-06	1.1481e-06	50.066	13.703	3.6722e-06	2.9246e-06	19.259	6.6437	4.7624	1.8278	2.2526e-06	2.6055	0.00093975	0.00094232	0.00026145	262.72	1.0248e-05	1.0246e-05	282.09	85.408	1.0258e-05	1.0264e-05	171.68	42.942	41.034	13.997	1.034e-05	18.826	507.761	371.705	172.648	170.843	421.640	335.569	169.051	176.739	337.201	388.700	174.536	178.191	179.689	186.820	413.168	181.853	-8191	255	
1539.673	1	1	0	0	0.23102	0.098948	0.018093	0.14623	0.14334	0.073235	0.10621	0.111	0.25584	0.31747	0.082444	0.10961	0.082199	0.24992	0.14677	0.20831	-2.6917	-2.3604	-2.9688	-2.8104	-2.2708	-3.1271	-2.5563	-2.5438	-3.0417	-2.4771	-3.0812	-2.9354	-2.2542	-3	-2.7021	-2.6979	196.877	419.333	251.791	307.330	483.312	448.319	511.925	358.631	315.642	333.353	413.011	236.140	192.591	235.888	370.310	493.671	4.4509e-05	0.00044323	0.00010661	37.626	4.4876e-06	4.1231e-06	50.738	13.481	3.1164e-06	8.1676e-07	19.805	6.6915	4.7234	1.8006	2.1484e-06	2.5916	0.00094474	0.00094944	0.00026369	264.44	1.0322e-05	1.0274e-05	282.14	85.607	1.0273e-05	1.0246e-05	171.27	42.874	41.021	13.999	1.0333e-05	18.817	434.657	213.165	262.204	172.349	162.279	187.335	169.279	178.012	340.925	343.055	173.908	177.755	179.044	186.709	198.926	180.003	-8191	255	
1539.769	1	1	0	0	0.078864	0.27053	0.32651	0.24673	0.11122	0.1512	0.070546	0.21068	0.12098	0.29662	0.063419	0.11874	0.067645	0.078482	0.11128	0.094346	-2.625	-2.5021	-2.7458	-2.9062	-2.2958	-3.1771	-2.825	-2.5	-3.0625	-2.4521	-2.8812	-3	-2.3083	-3.1208	-2.6896	-2.3458	493.489	436.356	163.466	450.947	199.468	265.540	331.682	276.863	165.145	317.534	481.211	298.562	291.083	191.069	403.975	171.145	0.00019353	2.4516e-05	8.3672e-05	37.466	1.7083e-06	4.8541e-06	51.314	13.782	2.2433e-06	1.1065e-06	20.555	6.5613	4.8	1.8369	6.2756e-06	2.6499	0.00093986	0.00094276	0.00026208	263.37	1.0288e-05	1.0268e-05	282.01	85.529	1.0356e-05	1.0377e-05	173.27	43.416	41.499	14.149	1.0434e-05	18.963	443.672	488.100	213.070	170.441	242.098	363.172	170.216	176.991	307.556	479.049	172.994	178.989	180.312	185.079	185.718	182.634	-8191	255	
1539.865	1	1	0	0	0.18991	0.13037	0.10301	0.088755	0.17665	0.13422	0.19787	0.10877	0.22428	0.060545	0.14786	0.042693	0.16053	0.18948	0.24927	0.23166	-2.6813	-2.3771	-2.9625	-3.2396	-2.3708	-3.0229	-2.8771	-2.4729	-3.0083	-2.6792	-2.8521	-3.1896	-2.3979	-3.1312	-2.9021	-2.5646	164.913	404.757	323.527	262.804	509.205	164.835	371.849	180.642	328.779	166.334	282.805	495.109	398.968	367.731	355.247	342.217	0.00032794	0.00016376	1.7234e-05	37.582	4.6339e-06	1.3045e-06	50.849	13.651	3.8967e-06	1.3574e-06	19.395	6.5902	4.8155	1.8339	2.5751e-07	2.6051	0.00095005	0.000952	0.00026526	266.86	1.0481e-05	1.0455e-05	286.82	86.986	1.0501e-05	1.047e-05	174.84	43.756	41.832	14.284	1.0599e-05	19.276	417.458	169.687	197.213	169.857	200.743	486.937	170.759	177.541	160.880	328.770	172.066	177.714	180.758	186.789	424.778	182.806	-8191	255	
1539.961	1	1	0	0	0.038356	0.090075	0.12657	0.15973	0.24685	0.28949	0.16417	0.26046	0.11301	0.31122	0.084541	0.31834	0.038214	0.06062	0.043164	0.22285	-2.8375	-2.5563	-2.7	-3.0021	-2.4792	-3.0687	-3.0042	-2.1937	-3.0542	-2.5229	-2.5229	-3.25	-2.5438	-2.7958	-3.1292	-2.5479	447.599	220.210	382.351	175.317	180.163	420.016	388.004	504.339	470.986	476.824	394.995	343.188	308.948	424.054	258.351	386.810	0.00037619	0.00033481	9.2933e-05	36.568	2.9838e-06	2.9892e-06	52.201	13.778	1.2004e-06	1.6427e-06	19.111	6.6201	4.805	1.846	2.7499e-06	2.6513	0.00096973	0.00097381	0.00027132	272.03	1.071e-05	1.0734e-05	293.17	89.102	1.0782e-05	1.075e-05	179.08	44.604	42.379	14.436	1.0725e-05	19.466	457.254	317.344	334.180	171.439	159.543	313.622	169.722	176.181	350.773	396.964	174.098	177.833	179.974	186.162	347.822	182.049	-8191	255	
1540.082	1	1	0	0	0.019763	0.22077	0.06017	0.069722	0.17261	0.22365	0.08822	0.15601	0.084426	0.13607	0.18241	0.04506	0.17367	0.24783	0.09595	0.24244	-2.8542	-2.8354	-2.7104	-3.1854	-2.4625	-2.6917	-3.0542	-2.4271	-3.125	-2.7833	-2.4542	-3.0104	-2.4021	-2.8042	-3.1521	-2.5312	165.594	478.351	436.265	438.473	499.233	360.365	193.212	361.273	335.544	495.809	291.392	163.730	360.589	352.779	343.425	409.489	0.00014931	0.00058189	0.00015541	36.082	5.9235e-07	1.5553e-06	50.658	13.39	3.5185e-06	5.4942e-07	19.516	6.5991	4.7089	1.806	2.2973e-06	2.5353	0.00098144	0.00098478	0.00027355	272.8	1.071e-05	1.0672e-05	290.22	87.987	1.0614e-05	1.0551e-05	175.69	43.8	41.702	14.165	1.0488e-05	19.007	231.096	177.123	386.644	169.493	496.328	345.926	169.737	176.392	383.156	505.511	172.318	178.024	180.235	186.054	304.276	181.944	-8191	255	
1540.176	1	1	0	0	0.24059	0.14268	0.1287	0.16604	0.25189	0.16563	0.14655	0.24817	0.051414	0.17043	0.26052	0.26202	0.24286	0.2113	0.10959	0.26234	-2.5833	-2.8375	-2.4292	-3.1125	-2.4896	-2.6813	-3.1708	-2.3021	-2.9271	-2.8979	-2.4146	-3.2188	-2.4875	-2.4979	-3.2125	-2.3854	483.797	415.526	206.342	221.061	341.050	219.602	454.960	451.215	164.394	472.529	288.044	442.700	230.957	470.745	294.143	371.416	0.00010738	0.00025409	7.7098e-05	37.7	2.2392e-06	5.3736e-06	50.865	13.631	3.6605e-06	5.4033e-06	19.726	6.8097	4.6225	1.8882	8.6181e-08	2.6757	0.00095239	0.0009542	0.00026648	268.05	1.049e-05	1.0482e-05	287.14	86.908	1.0443e-05	1.0403e-05	173.56	43.422	41.2	14.038	1.0379e-05	18.857	186.947	433.322	411.749	172.512	467.623	245.865	170.017	175.655	479.791	516.626	177.117	177.962	181.118	186.097	225.448	181.168	-8191	255	
1540.273	1	1	0	0	0.11301	0.18478	0.12638	0.19725	0.087374	0.055054	0.30595	0.10665	0.10065	0.0611	0.2143	0.10174	0.18412	0.06247	0.17263	0.047301	-2.5646	-2.9208	-2.1625	-3.2062	-2.5146	-2.6604	-3.1729	-2.2542	-2.8583	-3.0667	-2.4792	-3.0854	-2.675	-2.4167	-3.1625	-2.3688	344.649	234.162	285.089	425.076	328.670	425.992	435.765	437.176	185.230	299.320	293.862	360.045	287.418	233.974	306.672	440.549	0.00027973	0.00033631	4.5786e-05	37.412	2.7416e-06	3.6328e-06	51.502	13.896	2.3082e-06	2.1167e-06	19.285	6.7302	4.7001	1.8251	3.2537e-06	2.5802	0.00094298	0.00094673	0.00026504	266.72	1.0462e-05	1.0481e-05	288.23	87.477	1.058e-05	1.0604e-05	177.4	44.436	42.376	14.471	1.0781e-05	19.505	367.138	331.491	470.074	171.008	462.193	455.668	169.342	176.980	390.576	457.086	172.421	178.613	181.092	185.854	384.234	182.150	-8191	255	
1540.370	1	1	0	0	0.53058	0.079705	0.23522	0.086082	0.28461	0.066759	0.28043	0.10413	0.11074	0.16891	0.14565	0.20597	0.10096	0.23504	0.13153	0.38722	-2.5917	-3.0375	-2.3312	-3.0875	-2.65	-2.3937	-3.2625	-2.5187	-2.675	-3.0333	-2.2375	-2.9896	-2.9	-2.4396	-3.2438	-2.7188	248.471	446.728	289.488	172.767	240.136	225.041	317.736	319.502	205.494	360.416	415.952	334.220	351.666	435.103	484.115	416.130	0.00011866	0.00018317	8.5567e-05	37.71	2.7798e-06	2.1926e-07	50.366	13.746	4.0778e-06	4.2282e-06	19.505	6.5545	4.6735	1.8218	2.9945e-06	2.5983	0.00098107	0.00098694	0.00027581	276.14	1.0923e-05	1.0946e-05	298.55	91.005	1.1066e-05	1.1063e-05	184.3	45.863	43.841	14.956	1.1191e-05	20.118	285.305	296.315	300.872	171.855	327.788	209.366	169.248	175.801	373.740	362.717	174.227	177.089	179.727	187.291	356.539	182.100	-8191	255	
1540.465	1	1	0	0	0.077628	0.097422	0.19995	0.13465	0.12607	0.11785	0.095673	0.1928	0.24384	0.2149	0.14233	0.062359	0.032929	0.27871	0.12361	0.15099	-2.05	-3.1583	-2.3292	-3.1188	-2.8604	-2.3021	-3.3042	-2.6729	-2.7104	-3.2042	-2.4167	-2.9167	-2.875	-2.3792	-3.2146	-2.7313	224.107	184.027	391.912	217.438	489.094	258.452	424.217	338.636	350.982	422.083	312.788	217.572	302.637	278.181	351.543	451.447	0.00018145	0.00024061	7.2582e-05	37.213	1.7977e-06	2.1846e-06	49.55	13.887	2.238e-06	2.0056e-06	19.448	6.749	4.812	1.8287	3.4707e-06	2.658	0.0010189	0.0010279	0.00028746	285.81	1.1358e-05	1.1383e-05	307.91	93.781	1.1462e-05	1.1474e-05	189.58	47.137	45	15.305	1.1423e-05	20.442	497.091	449.940	209.861	172.205	338.343	444.690	169.319	176.898	228.188	455.435	173.845	177.406	180.524	187.121	362.883	182.332	-8191	255	
1540.561	1	1	0	0	0.13148	0.14435	0.18588	0.15109	0.034695	0.15254	0.060627	0.22932	0.36588	0.10675	0.16286	0.11938	0.091541	0.051278	0.062534	0.17167	-2.0771	-3.1958	-2.5958	-2.8771	-3.0833	-2.4417	-2.9521	-2.775	-2.6479	-3.1771	-2.5604	-2.6625	-3.0208	-2.5125	-2.9688	-2.5938	314.079	297.965	307.022	490.972	494.010	162.659	367.216	466.136	198.229	208.654	409.980	285.915	205.600	401.131	382.586	427.754	0.00011764	0.00035564	2.1633e-05	37.532	5.6238e-07	4.7294e-06	50.495	13.377	3.9111e-06	2.1232e-06	19.045	6.5828	4.7683	1.7847	4.6975e-06	2.653	0.0010333	0.0010377	0.000288	285.17	1.1344e-05	1.1369e-05	307.92	93.707	1.1521e-05	1.1538e-05	190.99	47.603	45.634	15.563	1.1673e-05	20.876	497.962	298.223	232.785	172.043	372.282	363.045	170.092	176.570	300.426	413.539	174.899	179.488	179.271	186.241	347.905	182.312	-8191	255	
1540.682	1	1	0	0	0.094441	0.15068	0.15707	0.1337	0.34593	0.10036	0.27028	0.14572	0.16895	0.18752	0.083365	0.019472	0.13568	0.065319	0.5042	0.17758	-2.0271	-3.1021	-2.6833	-2.7167	-3.0542	-2.3187	-2.9917	-3.0083	-2.4542	-3.1167	-2.5958	-2.5917	-3.0438	-2.45	-2.8229	-3.0687	187.398	382.166	463.760	369.749	288.945	357.345	266.263	249.005	497.421	363.234	335.333	486.391	272.910	352.745	399.405	229.124	0.00019935	0.00036713	3.6055e-05	37.019	2.0682e-06	2.3072e-06	50.873	13.648	2.3539e-06	5.933e-07	20.052	6.7483	4.6787	1.7979	3.0039e-06	2.6092	0.0010643	0.0010738	0.00029924	296.49	1.1873e-05	1.1913e-05	320.54	98.017	1.2212e-05	1.2313e-05	203.86	51.096	49.382	16.899	1.2828e-05	22.756	417.478	227.236	308.790	171.273	442.925	311.466	169.689	177.297	399.214	190.505	172.729	178.573	179.075	186.758	317.866	181.529	-8191	255	
1540.778	1	1	0	0	0.18679	0.063879	0.36592	0.31437	0.39094	0.066803	0.079821	0.1068	0.12257	0.15026	0.17309	0.13036	0.1546	0.15624	0.08723	0.25465	-1.8583	-3.2812	-2.5771	-2.5187	-3.4146	-2.3979	-2.8458	-3.0417	-2.4208	-3.2167	-2.75	-2.6125	-3.2938	-2.4646	-2.8937	-3.2375	215.654	515.577	251.840	217.861	194.002	159.959	451.309	279.395	309.078	239.552	473.047	422.579	345.182	276.663	250.368	257.979	0.0001634	0.00014333	8.9869e-05	37.626	2.4864e-06	2.968e-06	50.566	13.936	5.3876e-06	4.4566e-06	19.912	6.739	4.8316	1.7736	6.6774e-06	2.6471	0.0011717	0.0011799	0.00032876	321.21	1.3001e-05	1.3045e-05	345.01	105.69	1.327e-05	1.3303e-05	217.14	53.726	51.798	17.552	1.3327e-05	23.441	440.238	250.669	426.111	170.814	386.571	505.011	170.957	176.051	467.432	216.864	173.503	178.094	180.046	185.095	496.334	180.951	-8191	255	
1540.874	1	1	0	0	0.1778	0.1618	0.15079	0.16911	0.095333	0.17383	0.11626	0.29282	0.31306	0.10652	0.13927	0.12825	0.18123	0.28631	0.1803	0.022932	-1.7833	-3.0917	-2.775	-2.3208	-3.1396	-2.5375	-2.7646	-3.0042	-2.5479	-3.1333	-2.7354	-2.3167	-3.1708	-2.4437	-2.6792	-3.1312	389.314	311.301	425.035	339.112	352.823	455.286	332.713	496.766	309.676	322.492	473.009	270.459	245.266	446.260	271.685	180.355	0.00027542	0.00034648	0.00013009	36.918	4.3428e-06	5.0613e-06	50.327	13.523	3.599e-06	3.297e-06	19.189	6.4854	4.6607	1.8698	6.3459e-06	2.6082	0.0012056	0.0012095	0.00033631	327	1.3251e-05	1.322e-05	347.74	105.83	1.3211e-05	1.3147e-05	213.74	52.646	50.516	17.08	1.2927e-05	22.772	174.527	340.963	310.986	171.129	314.645	365.143	168.534	175.488	361.071	287.029	173.673	176.211	181.965	185.523	377.333	180.447	-8191	255	
1540.970	1	1	0	0	0.11498	0.082049	0.064987	0.2764	0.22465	0.16626	0.26851	0.047622	0.23516	0.20591	0.38387	0.13655	0.21495	0.24089	0.026024	0.12463	-1.9813	-3.0062	-2.9375	-2.2875	-3.1188	-2.525	-2.7083	-3.1188	-2.3292	-2.9375	-2.9062	-2.1271	-2.9562	-2.7104	-2.5625	-3.2167	226.040	196.661	474.043	179.651	246.393	386.433	501.919	284.746	212.830	278.588	387.903	368.634	398.620	165.374	294.325	357.618	0.0001553	0.00045879	8.2062e-05	36.788	1.9697e-06	1.2935e-06	51.239	13.503	1.139e-06	3.7665e-06	19.092	6.7115	4.8927	1.8462	3.4544e-06	2.6966	0.0011636	0.001163	0.00032228	314.44	1.2638e-05	1.2615e-05	334.08	101.68	1.2582e-05	1.2544e-05	205.17	50.743	48.632	16.482	1.2376e-05	21.968	361.852	267.423	398.029	170.076	385.179	231.500	168.828	174.491	395.803	343.354	174.795	178.123	178.597	185.106	495.908	181.262	-8191	255	
1541.066	1	1	0	0	0.049823	0.083304	0.088407	0.16018	0.040721	0.2068	0.13214	0.069088	0.12887	0.21934	0.14137	0.2711	0.015095	0.25286	0.18065	0.21128	-2.0479	-2.6646	-3.0229	-2.3167	-2.9313	-2.8521	-2.5021	-3.1771	-2.575	-2.7396	-3.1146	-2.4562	-2.8875	-2.8146	-2.5583	-3.1833	491.963	394.160	194.818	456.178	425.251	254.730	250.345	219.952	243.411	184.970	338.899	421.863	192.489	162.192	395.527	182.667	6.0424e-05	0.00032429	8.0366e-05	37.282	3.5941e-06	1.3879e-07	50.898	13.382	2.5848e-06	5.0443e-06	19.97	6.7413	4.6802	1.8385	5.1172e-06	2.6729	0.0011188	0.0011191	0.00031158	305.37	1.2238e-05	1.2197e-05	325.46	99.284	1.2307e-05	1.2331e-05	203.06	50.447	48.504	16.496	1.248e-05	22.215	342.670	403.113	405.939	170.889	501.879	425.768	168.713	177.174	429.404	396.054	172.480	178.239	181.108	185.656	508.668	181.762	-8191	255	
#DATA ENDS
