BOXY.EXE: ISS Imagent and Oximeter Data Acquisition Program Version 0.80
Ascii Record File

#ACQ INFORMATION
2  Detector Channels 
16  External MUX Channels 
1  Auxiliary Channels 
5000  Waveform (CCF) Frequency (Hz)
1  Waveforms Skipped 
30  Waveforms Averaged 
1  Cycles Averaged 
16  Acquisitions per Waveform 
10.0806  Updata Rate (Hz) 

#FILE INFORMATION
TRUE -- External MUX Channel results are PARSED.
FALSE -- AC DC and Phase are NOT grouped.
TRUE -- Companion Program Settings File CREATED.
FALSE -- AC data not excluded
FALSE -- DC data not excluded
FALSE -- Phase data not excluded
FALSE -- Auxillary Chn. data not excluded
Tab delimiters

#CALIBRATION STATE
TRUE -- Waveform Calibration Values APPLIED.


#AUX CALIBRATION VALUES
Val Type	aux-1	

Term	1.0000e+00	
Factor	0.0000e+00	


#WF CALIBRATION VALUES
A = Detector Channel
Val Type	A-AC1	A-AC2	A-AC3	A-AC4	A-AC5	A-AC6	A-AC7	A-AC8	A-AC9	A-AC10	A-AC11	A-AC12	A-AC13	A-AC14	A-AC15	A-AC16	A-DC1	A-DC2	A-DC3	A-DC4	A-DC5	A-DC6	A-DC7	A-DC8	A-DC9	A-DC10	A-DC11	A-DC12	A-DC13	A-DC14	A-DC15	A-DC16	A-Ph1	A-Ph2	A-Ph3	A-Ph4	A-Ph5	A-Ph6	A-Ph7	A-Ph8	A-Ph9	A-Ph10	A-Ph11	A-Ph12	A-Ph13	A-Ph14	A-Ph15	A-Ph16	

Term	0.00000e+00	0.00000e+00	0.00000e+00	0.00000e+00	0.00000e+00	0.00000e+00	0.00000e+00	0.00000e+00	0.00000e+00	0.00000e+00	0.00000e+00	0.00000e+00	0.00000e+00	0.00000e+00	0.00000e+00	0.00000e+00	0.00000e+00	0.00000e+00	0.00000e+00	0.00000e+00	0.00000e+00	0.00000e+00	0.00000e+00	0.00000e+00	0.00000e+00	0.00000e+00	0.00000e+00	0.00000e+00	0.00000e+00	0.00000e+00	0.00000e+00	0.00000e+00	0.00000e+00	0.00000e+00	0.00000e+00	0.00000e+00	0.00000e+00	0.00000e+00	0.00000e+00	0.00000e+00	0.00000e+00	0.00000e+00	0.00000e+00	0.00000e+00	0.00000e+00	0.00000e+00	0.00000e+00	0.00000e+00	
Factor	1.00000e+00	1.00000e+00	1.00000e+00	1.00000e+00	1.00000e+00	1.00000e+00	1.00000e+00	1.00000e+00	1.00000e+00	1.00000e+00	1.00000e+00	1.00000e+00	1.00000e+00	1.00000e+00	1.00000e+00	1.00000e+00	1.00000e+00	1.00000e+00	1.00000e+00	1.00000e+00	1.00000e+00	1.00000e+00	1.00000e+00	1.00000e+00	1.00000e+00	1.00000e+00	1.00000e+00	1.00000e+00	1.00000e+00	1.00000e+00	1.00000e+00	1.00000e+00	X	X	X	X	X	X	X	X	X	X	X	X	X	X	X	X	

B = Detector Channel
Val Type	B-AC1	B-AC2	B-AC3	B-AC4	B-AC5	B-AC6	B-AC7	B-AC8	B-AC9	B-AC10	B-AC11	B-AC12	B-AC13	B-AC14	B-AC15	B-AC16	B-DC1	B-DC2	B-DC3	B-DC4	B-DC5	B-DC6	B-DC7	B-DC8	B-DC9	B-DC10	B-DC11	B-DC12	B-DC13	B-DC14	B-DC15	B-DC16	B-Ph1	B-Ph2	B-Ph3	B-Ph4	B-Ph5	B-Ph6	B-Ph7	B-Ph8	B-Ph9	B-Ph10	B-Ph11	B-Ph12	B-Ph13	B-Ph14	B-Ph15	B-Ph16	

Term	0.00000e+00	0.00000e+00	0.00000e+00	0.00000e+00	0.00000e+00	0.00000e+00	0.00000e+00	0.00000e+00	0.00000e+00	0.00000e+00	0.00000e+00	0.00000e+00	0.00000e+00	0.00000e+00	0.00000e+00	0.00000e+00	0.00000e+00	0.00000e+00	0.00000e+00	0.00000e+00	0.00000e+00	0.00000e+00	0.00000e+00	0.00000e+00	0.00000e+00	0.00000e+00	0.00000e+00	0.00000e+00	0.00000e+00	0.00000e+00	0.00000e+00	0.00000e+00	-2.40346e+02	-8.60789e+01	-1.37580e+02	-1.81794e+02	-9.56072e+01	-6.15362e+01	-1.55227e+02	-1.62015e+02	-7.62495e+01	-2.08821e+01	-1.76015e+02	-1.69664e+02	-1.83008e+02	-1.76920e+02	-1.10967e+02	-1.49451e+02	
Factor	4.41567e-05	7.28733e-05	1.84622e-05	1.45759e-01	5.45265e-07	6.77868e-07	1.58711e-01	4.73567e-02	6.69312e-07	6.60670e-07	1.20289e-01	2.57934e-02	2.57211e-02	8.47169e-03	7.26230e-07	1.17836e-02	2.97384e-07	2.98781e-07	8.31620e-08	7.06932e-02	3.27491e-09	3.27375e-09	7.22083e-02	2.26007e-02	3.28093e-09	3.27436e-09	4.87179e-02	1.14701e-02	1.15018e-02	3.84075e-03	3.27804e-09	5.10611e-03	X	X	X	X	X	X	X	X	X	X	X	X	X	X	X	X	



#DISTANCE SETTINGS
A = Detector Channel
A-1	A-2	A-3	A-4	A-5	A-6	A-7	A-8	A-9	A-10	A-11	A-12	A-13	A-14	A-15	A-16	

2.5000e+00	3.0000e+00	2.5000e+00	3.0000e+00	2.0000e+00	3.0000e+00	1.5000e+00	3.0000e+00	3.0000e+00	3.0000e+00	3.0000e+00	3.0000e+00	3.0000e+00	3.0000e+00	1.5000e+00	3.0000e+00	

B = Detector Channel
B-1	B-2	B-3	B-4	B-5	B-6	B-7	B-8	B-9	B-10	B-11	B-12	B-13	B-14	B-15	B-16	

1.0000e+01	1.0000e+01	1.0000e+01	1.4400e+00	1.0000e+01	1.0000e+01	1.5100e+00	1.9400e+00	1.0000e+01	1.0000e+01	1.9900e+00	2.4900e+00	2.4100e+00	2.9000e+00	1.0000e+01	2.9800e+00	




#DATA BEGINS
time	group	step	mark	flag	A-AC1	A-AC2	A-AC3	A-AC4	A-AC5	A-AC6	A-AC7	A-AC8	A-AC9	A-AC10	A-AC11	A-AC12	A-AC13	A-AC14	A-AC15	A-AC16	A-DC1	A-DC2	A-DC3	A-DC4	A-DC5	A-DC6	A-DC7	A-DC8	A-DC9	A-DC10	A-DC11	A-DC12	A-DC13	A-DC14	A-DC15	A-DC16	A-Ph1	A-Ph2	A-Ph3	A-Ph4	A-Ph5	A-Ph6	A-Ph7	A-Ph8	A-Ph9	A-Ph10	A-Ph11	A-Ph12	A-Ph13	A-Ph14	A-Ph15	A-Ph16	B-AC1	B-AC2	B-AC3	B-AC4	B-AC5	B-AC6	B-AC7	B-AC8	B-AC9	B-AC10	B-AC11	B-AC12	B-AC13	B-AC14	B-AC15	B-AC16	B-DC1	B-DC2	B-DC3	B-DC4	B-DC5	B-DC6	B-DC7	B-DC8	B-DC9	B-DC10	B-DC11	B-DC12	B-DC13	B-DC14	B-DC15	B-DC16	B-Ph1	B-Ph2	B-Ph3	B-Ph4	B-Ph5	B-Ph6	B-Ph7	B-Ph8	B-Ph9	B-Ph10	B-Ph11	B-Ph12	B-Ph13	B-Ph14	B-Ph15	B-Ph16	aux-1	digaux	

1331.686	1	1	0	512	0.23601	0.12075	0.11279	0.2131	0.20257	0.18465	0.10685	0.088856	0.075624	0.083978	0.04779	0.10447	0.14292	0.23003	0.03228	0.1486	-3.0146	-2.775	-3.3667	-3.1562	-2.7	-3.3937	-2.7729	-3.0208	-3.2479	-2.6542	-3.2875	-3.1354	-2.5021	-3.4542	-2.7042	-2.9104	182.894	-36.124	-49.881	56.189	6.753	-74.279	-50.801	219.592	83.277	-95.052	-14.864	222.291	253.604	-59.035	79.958	182.682	0.00053484	0.00093296	0.00011343	112.81	3.6628e-06	1.546e-06	171.44	46.685	1.6088e-05	6.7138e-06	78.113	28.33	16.719	9.1428	1.2027e-05	14.542	0.003586	0.0035959	0.0010005	960.59	3.9136e-05	3.9157e-05	1031	315.18	3.9059e-05	3.8904e-05	646.36	163.03	152.25	54.041	3.8854e-05	74.016	71.245	168.509	-70.878	-84.222	-64.181	180.878	-84.392	-79.455	120.479	133.242	-80.469	-77.402	-76.840	-71.198	99.060	-74.901	-8191	255	
1331.758	1	1	0	0	0.1927	0.10686	0.071149	0.11939	0.13303	0.26508	0.16789	0.20731	0.23019	0.084366	0.00851	0.28849	0.28499	0.046977	0.30792	0.090873	-3.2021	-2.8167	-3.2062	-3.0542	-2.6562	-3.5021	-2.8708	-2.8187	-3.3958	-2.5333	-3.1063	-3.2708	-2.5604	-3.2438	-2.8563	-2.5542	-54.316	190.176	-59.654	18.534	114.017	-55.026	-94.652	43.090	132.987	203.295	-31.384	103.136	256.653	-30.450	219.234	181.212	0.00056406	0.00043585	0.00024671	111.33	8.1575e-06	3.2782e-06	168.64	46.42	8.4378e-06	7.9392e-06	77.33	27.392	16.831	9.0693	1.508e-05	14.302	0.0035199	0.0035214	0.00097863	943.78	3.8425e-05	3.8352e-05	1010.2	308.73	3.8165e-05	3.8029e-05	632.06	159.03	148.96	52.96	3.7943e-05	72.656	-56.130	-61.840	123.972	-84.762	-33.561	-19.599	-85.339	-78.642	128.743	60.838	-82.069	-77.663	-76.535	-71.142	-90.360	-74.689	-8191	255	
1331.854	1	1	0	0	0.12521	0.058549	0.15656	0.12877	0.042335	0.043912	0.20166	0.21056	0.17078	0.092881	0.099793	0.13736	0.21106	0.23686	0.17194	0.027768	-3.0938	-2.7479	-3.0167	-3.1354	-2.6583	-3.1979	-3.0021	-2.7229	-3.3333	-2.7792	-2.9583	-3.2875	-2.6729	-3.225	-3.0271	-2.5646	-40.253	139.342	-62.568	8.803	1.147	0.405	-96.341	225.134	-7.318	43.922	79.587	238.055	-67.308	245.111	-2.250	62.896	0.00063409	0.0014441	0.00035612	112.29	7.7081e-06	8.7551e-06	168.89	46.163	1.4271e-05	1.2415e-05	77.795	27.681	16.986	8.8765	2.9952e-06	14.225	0.0034619	0.0034897	0.00097537	945.61	3.8834e-05	3.9021e-05	1031.5	316.65	3.9477e-05	3.9421e-05	654.57	164.58	154.96	54.905	3.9819e-05	75.319	144.120	107.748	-82.193	-84.093	-93.046	139.243	-85.054	-78.586	-89.709	144.845	-81.394	-78.336	-76.358	-70.940	-24.094	-74.532	-8191	255	
1331.950	1	1	0	0	0.2141	0.13979	0.20799	0.20234	0.054809	0.071702	0.067095	0.33669	0.21104	0.2628	0.073983	0.18122	0.11897	0.020191	0.09079	0.36958	-2.9125	-2.7979	-2.8646	-3.1646	-2.5229	-3.2875	-2.9979	-2.6021	-3.3042	-2.7146	-2.7271	-3.1292	-2.55	-3.1021	-3.1875	-2.5812	171.594	37.988	246.244	160.090	109.505	189.476	209.608	157.427	28.005	239.850	-84.758	56.049	170.512	207.216	227.935	42.652	0.00039018	0.0015256	9.9305e-05	113.1	1.1249e-05	9.5467e-06	167.63	45.448	2.3074e-06	1.9844e-05	77.994	27.32	16.887	9.0677	1.228e-05	14.129	0.0036292	0.0036457	0.0010178	981.25	4.0285e-05	4.0332e-05	1060.1	325.41	4.0695e-05	4.0649e-05	674.33	169.5	160.36	56.988	4.1574e-05	78.258	141.900	-79.328	140.532	-84.493	106.582	-47.478	-85.079	-80.078	100.556	258.917	-80.514	-77.740	-75.163	-71.696	113.575	-74.648	-8191	255	
1332.071	1	1	0	0	0.23113	0.015579	0.25362	0.10249	0.096038	0.16062	0.1893	0.08321	0.12698	0.14501	0.187	0.037953	0.11658	0.062604	0.060038	0.11702	-2.9417	-2.9083	-2.6458	-3.2146	-2.6312	-3.0292	-3.175	-2.7042	-3.0479	-2.8979	-2.6562	-3.5354	-2.7333	-2.8271	-3.2771	-2.5563	-30.944	48.756	213.487	-38.799	148.916	90.521	1.580	200.544	180.121	-8.914	170.735	106.422	39.855	18.081	-48.172	55.801	0.00075024	0.0023502	0.00031379	113.23	7.32e-06	1.3485e-06	169.23	46.204	7.6275e-06	1.8881e-05	74.671	27.275	16.915	8.9677	1.2195e-05	14.357	0.0038033	0.003827	0.0010693	1025.9	4.246e-05	4.256e-05	1105.7	338.3	4.2369e-05	4.2035e-05	690.46	172.21	161.7	56.963	4.1382e-05	77.533	91.601	18.351	-32.815	-82.468	216.583	-33.297	-85.031	-80.296	53.515	170.371	-81.457	-77.928	-75.231	-71.133	217.912	-74.082	-8191	255	
1332.167	1	1	0	0	0.24546	0.18285	0.16162	0.12758	0.14366	0.1829	0.31063	0.23694	0.094261	0.072106	0.28365	0.040576	0.23113	0.19155	0.18137	0.0046451	-2.8979	-2.8875	-2.5687	-3.3771	-2.8937	-2.925	-3.1896	-2.6708	-3.35	-3.1396	-2.6354	-3.2646	-2.6021	-2.8812	-3.2333	-2.5958	-80.078	146.627	-57.800	194.961	252.599	126.150	210.704	-27.834	221.910	156.577	-73.362	-50.871	18.133	-43.851	-6.103	151.179	0.0009854	0.0011826	0.00056913	113.91	8.4113e-06	3.0441e-06	167.97	45.195	1.1771e-05	1.418e-05	72.113	27.024	17.161	9.0025	8.343e-06	14.281	0.0037364	0.0037495	0.0010442	1001.9	4.1153e-05	4.1216e-05	1077.5	330.01	4.1197e-05	4.1051e-05	675.8	168.92	158.41	55.926	4.0533e-05	75.934	83.817	136.083	-1.573	-83.356	132.629	215.900	-85.526	-79.253	-80.722	192.951	-82.692	-77.958	-77.366	-70.977	70.720	-73.644	-8191	255	
1332.263	1	1	0	0	0.072882	0.28554	0.11993	0.2103	0.13654	0.21855	0.2932	0.18781	0.14318	0.19605	0.28691	0.12592	0.26008	0.10762	0.2354	0.20761	-2.6896	-2.9938	-2.4833	-3.3729	-2.6208	-2.6229	-3.5521	-2.5625	-3.0229	-3.1063	-2.5	-3.2417	-2.9083	-2.7042	-3.2896	-2.5229	143.834	225.281	8.253	243.041	-43.400	136.752	-90.531	111.313	61.036	160.680	-27.300	152.987	58.278	173.604	-15.454	223.126	0.0012028	0.0014684	0.00018054	113.29	1.0146e-05	4.4087e-06	170.53	45.645	3.7863e-06	2.3049e-05	75.947	26.673	17.011	9.0051	1.3674e-05	14.309	0.0036375	0.003632	0.0010062	963.61	3.916e-05	3.9033e-05	1025.9	313.34	3.884e-05	3.8666e-05	641.26	160.52	150.01	53.114	3.8111e-05	72.228	200.109	94.735	119.858	-86.283	-30.543	182.698	-84.917	-80.259	163.425	220.194	-82.231	-76.853	-76.061	-72.498	-95.152	-75.630	-8191	255	
1332.359	1	1	0	0	0.1718	0.045293	0.020245	0.19652	0.21253	0.14812	0.082644	0.17141	0.22235	0.028551	0.22809	0.11014	0.15945	0.18396	0.039178	0.093937	-2.6083	-3.1854	-2.5854	-3.2646	-2.6562	-2.65	-3.4	-2.6667	-2.8208	-3.0271	-2.4313	-3.0042	-2.8979	-2.6	-3.3812	-2.8229	118.097	216.485	15.414	57.533	163.651	226.830	159.567	201.532	-4.830	13.762	-63.673	-42.204	2.954	159.622	-30.619	-58.442	0.00095841	0.00038499	0.00019288	109.6	2.5667e-06	1.3339e-05	167.37	46.99	4.5012e-06	1.0882e-05	75.302	27.206	16.756	8.9112	5.109e-06	14.237	0.0034279	0.0034296	0.00095241	917.43	3.7176e-05	3.7124e-05	984.59	300.08	3.6883e-05	3.6822e-05	614.39	155.11	144.77	51.5	3.6866e-05	70.433	27.930	-68.045	230.368	-85.243	46.524	158.629	-84.768	-80.081	-59.627	133.928	-81.193	-76.783	-77.054	-72.028	65.892	-75.287	-8191	255	
1332.455	1	1	0	0	0.22763	0.37134	0.17159	0.39115	0.11784	0.13194	0.088232	0.23556	0.17173	0.12429	0.23431	0.1642	0.26873	0.052	0.14107	0.1094	-2.5521	-3.2375	-2.3208	-3.3563	-3.0896	-2.6125	-3.4313	-2.6937	-2.8104	-3.2979	-2.4021	-3.1312	-2.9958	-2.5958	-3.1937	-2.8896	-86.270	243.901	-69.671	159.830	128.129	210.335	235.819	244.529	-45.511	110.108	151.228	105.178	-10.129	-50.463	-48.040	62.441	0.00031816	0.00059504	0.00040481	111.57	6.367e-06	1.0175e-05	168.06	46.521	9.5357e-06	1.5712e-05	75.871	27.243	16.609	8.8813	7.6276e-06	14.484	0.0033274	0.0033245	0.00092216	890.65	3.5828e-05	3.5675e-05	953.26	289.8	3.5295e-05	3.5151e-05	591.25	149.46	139.29	49.795	3.5421e-05	68.267	109.208	-13.655	61.134	-84.185	44.110	122.189	-85.055	-79.477	98.387	-77.640	-82.844	-78.315	-74.725	-71.707	12.437	-75.257	-8191	255	
1332.551	1	1	0	0	0.11612	0.054743	0.085327	0.12125	0.083006	0.10328	0.15154	0.1504	0.083508	0.062517	0.10943	0.075915	0.051158	0.030906	0.05187	0.29228	-2.2271	-3.2188	-2.5938	-3.0375	-3.0854	-2.5938	-3.2833	-2.7667	-2.6333	-3.2729	-2.6083	-2.9729	-3.3688	-2.5896	-3.3208	-2.8125	165.825	-1.587	138.431	15.346	194.283	-82.754	-73.223	128.000	201.225	69.847	-21.356	-7.298	215.480	47.030	-34.311	92.346	0.00098732	0.00010858	3.5177e-05	115.38	2.6443e-06	8.2138e-06	166.13	46.693	1.0087e-05	7.5024e-06	77.254	26.832	16.644	9.0083	1.1594e-05	14.428	0.0031952	0.0032157	0.00089375	871.09	3.5109e-05	3.516e-05	944.21	288.1	3.5304e-05	3.545e-05	596.36	150.79	141.7	50.738	3.6476e-05	70.245	106.993	118.324	4.150	-85.983	110.491	-34.676	-85.645	-79.860	73.375	130.114	-82.117	-77.672	-75.488	-72.066	145.225	-75.659	-8191	255	
1332.647	1	1	0	0	0.11448	0.14951	0.49987	0.1352	0.16086	0.076244	0.26238	0.19155	0.20204	0.081391	0.28503	0.23545	0.077367	0.11632	0.29062	0.056009	-2.1167	-3.4958	-2.475	-2.8708	-3.3396	-2.575	-3.2625	-2.8958	-2.4188	-3.4083	-2.6708	-2.9229	-3.2021	-2.4833	-2.9125	-3.0958	-95.552	68.417	37.987	158.795	-29.442	66.235	-87.491	164.370	31.441	57.158	22.725	-47.891	78.854	-38.614	-55.150	-87.557	0.00052698	0.0017832	0.00023103	111.68	2.29e-06	7.4501e-06	169.19	46.535	1.0993e-05	1.2172e-05	76.008	27.257	16.852	8.9025	6.8088e-06	14.1	0.003356	0.0034047	0.00095362	928.62	3.807e-05	3.8337e-05	1017.6	311.49	3.8595e-05	3.8565e-05	638.92	160.23	150.46	53.331	3.8483e-05	73.105	126.399	-18.001	141.134	-84.286	105.445	165.701	-86.043	-80.540	217.846	54.174	-81.832	-78.564	-76.235	-72.665	-46.643	-75.382	-8191	255	
1332.766	1	1	0	0	0.16492	0.1397	0.06866	0.17279	0.15744	0.046285	0.18944	0.12852	0.095308	0.20261	0.06816	0.053934	0.10819	0.02814	0.071053	0.16281	-2.0708	-3.2417	-2.8167	-2.6896	-3.3333	-2.5312	-3.1833	-3.2667	-2.4	-3.3417	-2.6875	-2.8063	-3.3896	-2.6083	-3.0708	-3.175	-84.340	-73.403	26.522	-15.087	71.230	228.207	136.351	-57.840	-57.769	176.073	-13.620	107.461	244.244	-28.544	220.936	111.230	0.00016058	0.0010701	0.0001941	111.51	3.7624e-06	5.5217e-06	168.73	46.52	1.0068e-05	5.7349e-06	77.168	27.013	16.702	8.9427	1.1773e-05	14.435	0.0035085	0.0035381	0.00098897	957.37	3.9423e-05	3.9632e-05	1046.1	321.57	4.0358e-05	4.0483e-05	668.67	167.47	157.82	55.825	4.0538e-05	76.275	-96.418	56.579	-78.379	-86.430	208.669	137.187	-86.309	-79.587	18.650	33.631	-82.829	-77.723	-74.379	-71.019	18.816	-74.430	-8191	255	
1332.863	1	1	0	0	0.14827	0.037612	0.1861	0.24238	0.084726	0.13207	0.076002	0.33304	0.19428	0.085081	0.094022	0.15853	0.1323	0.23208	0.15031	0.19775	-2.0479	-3.2021	-2.7125	-2.6396	-3.3563	-2.6437	-3.0583	-3.1271	-2.5583	-3.3396	-2.9979	-2.6562	-3.2417	-2.7188	-2.9625	-3.2958	257.278	-40.643	202.153	223.235	168.658	-86.760	226.181	100.903	-33.799	-12.812	221.013	9.765	101.732	15.587	85.521	111.529	0.00012088	0.0015686	0.00026005	108.52	7.2353e-06	1.1062e-05	162.38	46.748	3.8634e-06	1.1995e-05	77.955	26.999	16.998	8.7732	9.3472e-06	14.179	0.0036792	0.003703	0.0010303	987.7	4.0816e-05	4.0808e-05	1070.4	328.17	4.1199e-05	4.126e-05	680.02	170.75	160.8	56.634	4.1196e-05	77.182	194.894	-0.410	10.974	-84.317	11.924	-35.348	-86.305	-80.262	-97.341	22.788	-82.349	-77.965	-76.906	-73.481	-46.520	-75.188	-8191	255	
1332.959	1	1	0	0	0.17199	0.21699	0.1307	0.11989	0.11388	0.30577	0.11936	0.22068	0.1205	0.11993	0.032252	0.17175	0.21216	0.1102	0.11117	0.13202	-2.2521	-2.9729	-2.975	-2.4729	-3.2146	-2.7042	-2.8771	-3.1917	-2.4375	-3.45	-3.1396	-2.5292	-3.4562	-2.8896	-2.65	-3.2833	103.652	7.398	32.167	-51.274	78.595	142.546	114.723	159.499	-28.676	189.715	-58.841	-69.653	4.758	22.385	174.741	149.415	0.00055873	0.00012896	0.00050696	108.61	8.3755e-06	9.5131e-06	166.23	44.482	4.9251e-06	9.1378e-06	75.419	26.834	16.057	8.719	9.5854e-06	13.945	0.0037301	0.0037415	0.0010379	990.61	4.0717e-05	4.0661e-05	1062.9	325.47	4.0854e-05	4.0871e-05	674.69	169.32	159.41	56.294	4.0993e-05	76.875	-75.951	100.237	148.895	-84.449	88.077	12.311	-85.054	-80.492	23.056	199.544	-82.472	-78.658	-77.167	-72.122	169.344	-74.946	-8191	255	
1333.055	1	1	0	0	0.12246	0.11781	0.16276	0.22746	0.18315	0.20582	0.036743	0.084411	0.38889	0.057547	0.17304	0.1476	0.20675	0.1968	0.16863	0.25667	-2.1604	-3.0458	-3.2021	-2.575	-3.3354	-2.9771	-2.6229	-3.2604	-2.5125	-3.0604	-3.1312	-2.4833	-3.3479	-2.9708	-2.7167	-3.1875	82.038	49.761	139.691	-82.744	1.292	-4.087	203.995	-25.350	35.558	-57.141	198.580	-35.015	126.204	248.090	-21.851	180.301	0.0010187	0.00057937	0.00037201	109.5	3.0832e-06	7.488e-06	163.51	46.217	4.7201e-06	2.991e-06	77.562	26.912	16.35	8.6735	7.7809e-06	14.203	0.0037192	0.0037336	0.0010382	993.52	4.0911e-05	4.0748e-05	1063.4	326.03	4.0809e-05	4.0715e-05	674.33	169.28	160.26	56.74	4.158e-05	77.965	42.213	-46.740	105.901	-85.169	-16.451	-0.643	-86.426	-80.004	30.213	-33.904	-81.884	-78.449	-77.055	-70.978	217.754	-75.854	-8191	255	
1333.151	1	1	0	0	0.24298	0.10853	0.33791	0.060904	0.085267	0.16377	0.070554	0.24164	0.099634	0.30466	0.042015	0.19764	0.042821	0.17207	0.15415	0.12024	-2.2771	-3.0104	-3.2042	-2.5208	-3.1292	-2.7562	-2.5542	-3.3937	-2.4958	-2.9167	-3.3667	-2.4833	-3.1875	-2.9271	-2.4458	-3.3563	3.122	81.550	-1.881	-80.405	-43.001	50.658	252.757	237.697	-44.699	140.832	98.994	-14.728	108.236	206.258	66.295	-92.764	0.0006425	0.0010796	0.00010194	113.85	7.4569e-06	2.5084e-05	165.16	44.009	1.5077e-05	7.6005e-06	74.656	26.581	17.082	9.0043	3.7906e-06	13.96	0.0037903	0.0038015	0.0010592	1009	4.1477e-05	4.1274e-05	1073.5	328.32	4.1006e-05	4.085e-05	671.54	168.35	158.38	55.924	4.0813e-05	76.727	59.693	42.344	259.506	-85.103	142.898	109.301	-84.859	-79.360	-79.691	-4.674	-83.152	-79.039	-75.491	-72.262	177.108	-75.551	-8191	255	
1333.247	1	1	0	0	0.093275	0.10007	0.17249	0.16944	0.11272	0.1907	0.24078	0.1282	0.27581	0.27977	0.057174	0.14783	0.095412	0.13198	0.16036	0.33434	-2.3396	-2.7625	-3.1417	-2.5938	-3.1229	-3.0042	-2.6458	-3.3604	-2.8417	-2.7812	-3.3	-2.3396	-3.0271	-3.0771	-2.6604	-3.3563	151.803	-7.110	10.574	15.447	82.371	227.975	172.791	257.621	-37.282	0.261	210.098	98.739	181.841	66.018	-43.999	151.240	0.00056065	0.0013105	0.000345	112.63	1.256e-06	8.9271e-06	162.33	45.538	3.9782e-06	9.8399e-06	76.888	26.692	16.785	8.8586	9.8783e-06	14.094	0.003706	0.0037268	0.0010394	992.57	4.0882e-05	4.0772e-05	1067.4	326.83	4.0742e-05	4.0643e-05	671.55	168.41	158.45	55.988	4.0756e-05	76.489	173.116	23.693	-7.901	-84.266	190.644	149.660	-86.085	-79.478	30.401	120.553	-80.876	-77.291	-75.912	-72.660	-15.441	-75.533	-8191	255	
1333.368	1	1	0	0	0.15312	0.17002	0.1583	0.10585	0.3525	0.14726	0.17975	0.14788	0.039639	0.088381	0.098322	0.22477	0.28335	0.18915	0.22019	0.13492	-2.3563	-2.5979	-3.1875	-2.4854	-3.0938	-2.9646	-2.5438	-3.375	-2.9417	-2.7021	-3.2521	-2.6146	-2.9583	-3.2562	-2.5417	-3.3375	161.285	107.208	-84.775	121.323	-47.372	-31.956	183.579	227.435	101.392	-93.768	230.728	45.973	-17.369	234.511	70.007	172.715	0.00056069	0.0011808	0.00018358	110.56	1.0883e-05	7.8274e-06	166.13	45.934	1.1595e-05	1.8369e-05	74.872	26.711	16.681	8.8519	1.8195e-05	13.935	0.0036862	0.0036904	0.0010264	980.04	4.0214e-05	4.0179e-05	1054.7	323.16	4.0346e-05	4.047e-05	670.81	168.18	159.23	56.327	4.1174e-05	77.326	65.885	77.038	193.352	-85.588	262.861	-75.297	-85.914	-78.582	166.430	-90.614	-82.471	-79.195	-77.298	-73.079	85.263	-74.842	-8191	255	
1333.462	1	1	0	0	0.10975	0.19381	0.25188	0.26258	0.054035	0.066047	0.25374	0.23932	0.21325	0.22323	0.14764	0.10933	0.23808	0.14692	0.19033	0.061292	-2.6708	-2.5354	-3.2396	-2.6208	-2.8021	-3.2938	-2.6312	-3.2188	-2.9896	-2.5417	-3.4375	-2.6729	-2.85	-3.2271	-2.5271	-3.0271	226.842	82.804	-16.392	-32.153	151.707	-74.920	-21.232	50.519	19.621	246.401	114.889	-60.770	173.545	36.380	77.498	2.136	0.00038624	0.0014578	0.00010282	111.9	1.3328e-05	8.876e-06	167.21	44.942	5.9434e-06	7.5562e-06	71.481	26.597	16.376	8.7612	2.2249e-06	13.788	0.0037534	0.0037919	0.0010599	1009.2	4.1578e-05	4.1585e-05	1081.6	331.31	4.1473e-05	4.1534e-05	686.06	171.16	161.91	57.316	4.2088e-05	78.444	-13.358	-31.080	182.951	-85.050	-1.429	130.096	-85.368	-80.706	144.799	-0.834	-82.604	-79.273	-75.821	-73.797	38.043	-75.840	-8191	255	
1333.558	1	1	0	0	0.1171	0.10084	0.17395	0.27655	0.24258	0.020886	0.043334	0.037128	0.12281	0.088519	0.17534	0.076807	0.16956	0.40602	0.12692	0.22103	-2.7333	-2.475	-3.2792	-2.7708	-2.8063	-3.4042	-2.6208	-3.1708	-3.2083	-2.6042	-3.2958	-2.7792	-2.7375	-3.2792	-2.6771	-3.0792	28.614	24.700	199.147	172.903	133.584	167.500	249.451	160.916	-74.338	-69.299	74.500	-16.688	3.889	205.690	-46.094	18.434	0.00090636	0.00059705	0.00037347	108.19	1.1334e-05	2.2828e-06	165.12	46.295	1.4027e-05	1.0368e-05	77.962	26.577	16.557	8.6313	1.0594e-05	13.764	0.0038206	0.0038483	0.0010738	1025.6	4.2415e-05	4.256e-05	1103.9	338.55	4.2686e-05	4.2718e-05	701.89	175.2	165.91	58.578	4.3106e-05	80.051	81.128	213.557	248.419	-86.019	-12.690	120.149	-86.695	-80.484	101.944	-5.885	-81.941	-77.999	-74.421	-72.630	98.786	-74.305	-8191	255	
1333.632	1	1	0	0	0.18201	0.25874	0.056537	0.14114	0.074443	0.037949	0.15136	0.16632	0.12311	0.043772	0.16316	0.11238	0.16659	0.14593	0.11891	0.23055	-2.7729	-2.5687	-3.3479	-2.9813	-2.7083	-3.4292	-2.7771	-3.0167	-3.25	-2.6708	-3.2104	-3.0396	-2.6917	-3.3021	-2.8187	-2.9521	221.515	51.929	198.172	66.597	189.990	80.758	102.537	-40.970	32.304	41.250	-65.673	240.151	166.470	87.375	-88.515	231.055	0.00066203	0.0016506	0.00012278	112.43	1.1532e-05	7.4812e-06	163.56	46.656	2.7433e-06	1.1652e-05	75.474	26.496	16.208	8.9352	1.5284e-06	13.938	0.003915	0.0039419	0.0010985	1043.7	4.3298e-05	4.3339e-05	1120.7	344.46	4.3599e-05	4.365e-05	715.63	178.62	169.44	59.842	4.4197e-05	81.869	199.330	175.255	63.254	-84.240	123.408	135.003	-85.789	-81.000	214.571	178.309	-82.394	-78.296	-76.314	-72.515	36.971	-75.722	-8191	255	
1333.751	1	1	0	0	0.1926	0.15768	0.31741	0.18037	0.099696	0.049569	0.079046	0.33207	0.1489	0.17512	0.21846	0.1924	0.066296	0.097853	0.1718	0.080861	-2.9062	-2.5625	-3.1771	-3.1063	-2.5187	-3.3583	-2.675	-2.8604	-3.2708	-2.6688	-3.1188	-3.1167	-2.6917	-3.3708	-2.8604	-2.7188	178.983	96.462	136.734	-32.636	238.576	-31.510	133.192	15.179	79.811	187.574	-73.244	-5.265	57.672	249.011	-63.094	107.087	0.00025897	0.0011188	0.00054013	111.88	8.0428e-06	1.5157e-05	163.17	45.582	1.6165e-05	7.2197e-06	74.75	26.277	16.391	8.8414	4.3005e-06	13.783	0.0040387	0.0040642	0.0011372	1078.5	4.5018e-05	4.5191e-05	1163.2	358.21	4.5718e-05	4.573e-05	749.49	186.34	177.54	62.416	4.6345e-05	85.164	236.869	39.863	99.614	-84.274	1.641	-58.962	-86.113	-80.811	-55.931	-67.554	-83.182	-77.317	-75.805	-73.380	155.940	-75.177	-8191	255	
1333.847	1	1	0	0	0.03805	0.18481	0.027389	0.11985	0.26158	0.10516	0.043279	0.046984	0.27999	0.066693	0.19586	0.25702	0.22989	0.17007	0.21585	0.12251	-3.1688	-2.5312	-3.0292	-3.2146	-2.5229	-3.3104	-2.8292	-2.5375	-3.1854	-2.4708	-2.8896	-3.3604	-2.575	-3.2375	-3.0563	-2.6333	31.057	33.964	15.060	250.842	-96.116	-1.384	-39.286	170.399	132.804	83.311	39.511	217.926	117.109	134.959	-92.731	146.212	0.00096904	0.0010801	0.00054789	108.83	1.0163e-05	4.6361e-06	165.78	44.271	2.0708e-06	4.2773e-06	72.148	26.036	16.496	8.5912	8.3955e-06	13.595	0.0042276	0.0042522	0.0011852	1118.7	4.6753e-05	4.6694e-05	1192	365.25	4.6504e-05	4.6334e-05	753.29	186.56	177.52	62.294	4.62e-05	84.673	25.637	187.720	5.973	-84.243	17.019	68.630	-85.942	-79.892	76.763	-28.016	-82.010	-79.463	-76.328	-71.477	98.472	-75.843	-8191	255	
1333.943	1	1	0	0	0.18731	0.16737	0.25924	0.16937	0.2411	0.057795	0.12565	0.085749	0.060754	0.12549	0.1764	0.26997	0.14816	0.17071	0.19865	0.22973	-2.8167	-2.7083	-2.9917	-3.3958	-2.6063	-3.3854	-3.0542	-2.5792	-3.2292	-2.5146	-2.8812	-3.3708	-2.6292	-3.1417	-3.0521	-2.6167	159.110	-88.954	26.161	139.833	-21.940	-60.930	41.459	-39.834	28.950	242.375	254.702	141.915	73.135	-88.061	109.190	201.227	0.00083171	0.0013429	0.00026394	108.23	9.0968e-07	2.3154e-05	163.06	45.807	4.3435e-06	3.114e-06	74.323	26.758	16.383	8.6175	3.4093e-05	13.693	0.0041932	0.0042058	0.0011683	1104	4.598e-05	4.5922e-05	1173.7	360.39	4.5714e-05	4.5517e-05	742.72	184.47	175.13	61.489	4.5462e-05	83.486	126.443	2.806	90.843	-84.528	-12.335	-8.289	-85.597	-79.817	103.170	30.266	-81.511	-77.275	-77.331	-72.843	71.241	-74.899	-8191	255	
1334.039	1	1	0	0	0.11977	0.01443	0.090763	0.24377	0.17922	0.19652	0.13156	0.13306	0.087604	0.11293	0.082015	0.08259	0.16608	0.11922	0.085692	0.18068	-2.9208	-2.6125	-2.6125	-3.2875	-2.4979	-3.1479	-3.0792	-2.6854	-3.4167	-2.9583	-2.5833	-3.5292	-2.5833	-3.0854	-3.1625	-2.625	179.746	-71.518	86.485	256.752	-45.922	107.024	86.266	11.755	240.974	170.260	-21.879	-76.044	222.785	-38.058	191.675	193.133	0.00013376	0.0013991	0.00011252	108.81	7.7792e-06	9.1917e-06	162.28	44.635	7.9967e-06	9.655e-07	74.539	25.982	16.532	8.5821	2.0277e-05	13.854	0.0041373	0.0041615	0.0011645	1102.3	4.605e-05	4.6112e-05	1183.5	364.32	4.6547e-05	4.6512e-05	760.47	189.13	179.98	63.252	4.7083e-05	86.531	92.857	122.919	84.488	-84.165	-25.328	-79.753	-85.477	-81.779	18.071	-82.015	-82.514	-78.101	-77.789	-72.749	-68.101	-75.044	-8191	255	
1334.160	1	1	0	0	0.18895	0.030762	0.02978	0.23314	0.087612	0.26276	0.22568	0.1717	0.14035	0.097555	0.14584	0.093098	0.19474	0.1516	0.21962	0.16023	-2.8896	-2.8375	-2.6417	-3.3854	-2.75	-3.0583	-3.225	-2.6688	-3.2438	-2.8042	-2.5396	-3.2875	-2.6833	-2.9271	-3.2333	-2.8063	-80.878	118.024	-27.113	-44.996	85.502	23.219	164.569	199.138	-56.086	67.094	0.672	18.315	56.608	-77.889	164.230	-17.091	0.0013381	0.00094779	0.00032016	106.47	1.263e-05	1.1024e-05	163.73	45.416	1.6655e-05	2.3512e-05	70.431	25.64	16.734	8.6916	1.4125e-05	13.685	0.0043172	0.0043234	0.0012028	1129.8	4.7005e-05	4.6777e-05	1194	365.74	4.6576e-05	4.6251e-05	752.64	186.54	177.35	62.257	4.6319e-05	84.813	85.235	-36.962	-70.306	-85.920	104.258	198.467	-85.959	-80.303	18.805	120.642	-82.428	-78.635	-75.506	-72.468	-17.882	-73.960	-8191	255	
1334.231	1	1	0	0	0.078581	0.042188	0.14896	0.086571	0.11409	0.17117	0.18944	0.10355	0.15461	0.24813	0.3325	0.18405	0.11403	0.022424	0.034758	0.13767	-2.7896	-3.1271	-2.6104	-3.325	-2.6646	-2.8729	-3.3958	-2.45	-2.9188	-3.0062	-2.5	-3.2917	-2.6937	-2.7125	-3.275	-2.4938	57.532	42.017	106.469	245.705	91.348	24.588	82.714	-96.374	18.716	17.766	99.641	254.193	216.440	18.156	198.093	164.117	0.0011254	0.00117	0.00012883	110.33	9.4662e-06	1.3114e-05	163.47	45.141	4.4154e-06	1.5555e-05	73.176	25.998	16.049	8.6225	8.5034e-06	13.432	0.0042113	0.0042247	0.0011801	1115.5	4.6409e-05	4.6339e-05	1186.7	362.67	4.607e-05	4.5821e-05	744.11	184.32	174.35	61.046	4.5158e-05	82.735	86.471	66.323	104.717	-85.052	150.384	-48.695	-85.980	-80.642	-8.273	252.659	-82.427	-78.470	-74.690	-72.749	217.315	-75.133	-8191	255	
1334.328	1	1	0	0	0.11335	0.12329	0.13762	0.05874	0.11311	0.08795	0.12982	0.055438	0.05241	0.27958	0.2153	0.071012	0.038981	0.12482	0.085806	0.26612	-2.6958	-3.1396	-2.4437	-3.3187	-2.7521	-2.6188	-3.3646	-2.5667	-2.9896	-3.3292	-2.5417	-3.225	-2.9146	-2.5938	-3.2729	-2.4562	147.955	5.624	19.172	74.850	146.544	-30.981	140.405	230.779	35.652	92.202	226.006	133.567	44.071	133.551	-32.307	211.537	0.00095597	0.0012919	0.00018589	111.59	4.004e-06	1.796e-05	161.16	45.012	8.8263e-06	1.4446e-05	75.016	26.339	16.57	8.6735	1.2699e-05	13.844	0.0040762	0.0040844	0.001135	1072.8	4.4423e-05	4.4337e-05	1140.1	348.45	4.406e-05	4.3874e-05	717.27	178.35	168.74	59.283	4.3657e-05	80.459	72.637	-82.457	4.035	-83.951	-48.916	107.504	-84.616	-79.450	36.178	-78.271	-81.582	-77.806	-76.485	-71.913	258.180	-74.809	-8191	255	
1334.448	1	1	0	0	0.13093	0.25078	0.16309	0.060727	0.087416	0.18363	0.1176	0.087778	0.094738	0.20438	0.12292	0.15853	0.043028	0.19486	0.16573	0.15453	-2.5208	-3.3042	-2.5979	-3.2438	-2.9479	-2.5146	-3.2979	-2.7479	-2.9896	-3.3229	-2.5354	-3.1458	-2.9583	-2.5479	-3.4396	-2.75	210.608	5.793	154.527	165.122	225.684	209.537	90.745	185.306	247.899	-40.205	88.225	-57.856	-71.452	2.146	128.816	-8.424	0.00050215	0.00014855	0.00010327	107.58	1.1096e-05	4.8127e-06	164.81	44.607	4.259e-06	6.2061e-06	74.003	26.429	16.041	8.6725	1.1417e-05	13.655	0.0039485	0.0039682	0.001104	1050.9	4.339e-05	4.3587e-05	1127.1	345.88	4.3728e-05	4.3627e-05	714.65	177.75	168.13	59.304	4.3656e-05	80.459	101.967	83.925	16.434	-86.101	91.177	-64.141	-86.503	-78.907	-51.515	118.960	-82.330	-77.570	-77.597	-72.736	38.163	-76.137	-8191	255	
1334.544	1	1	0	0	0.51299	0.32468	0.10346	0.2779	0.18903	0.11968	0.15118	0.047558	0.15985	0.23243	0.1581	0.1241	0.21559	0.097767	0.13543	0.082865	-2.2479	-3.3187	-2.7229	-3.1083	-3.0438	-2.6042	-3.4021	-2.6729	-2.7	-3.3396	-2.5792	-3.0125	-2.9792	-2.2542	-3.3792	-2.975	65.925	156.754	60.342	-53.258	39.657	9.334	-91.794	137.071	11.045	202.368	258.901	234.860	155.167	197.311	3.533	77.280	0.00087924	0.00076481	0.00014399	108.22	4.8781e-06	1.1489e-05	164.68	45.635	6.8707e-06	1.1554e-05	74.959	25.799	16.606	8.555	1.4006e-05	13.507	0.0039536	0.0039781	0.0011081	1054	4.3708e-05	4.3817e-05	1131.6	347.14	4.391e-05	4.3848e-05	717.06	178.32	169.07	59.47	4.384e-05	80.609	97.006	70.787	108.700	-84.588	65.563	162.306	-87.055	-80.317	15.368	73.020	-81.863	-78.428	-75.391	-71.625	-25.324	-74.525	-8191	255	
1334.640	1	1	0	0	0.1544	0.0364	0.20043	0.23319	0.15351	0.35763	0.28325	0.17014	0.16767	0.096547	0.21644	0.28218	0.091758	0.098002	0.079983	0.09697	-2.2833	-3.1146	-2.4583	-2.8417	-3.2458	-2.4521	-3.2917	-2.8271	-2.6208	-3.4188	-2.4938	-2.8688	-3.1375	-2.4458	-3.0854	-2.8917	7.465	141.517	165.024	-68.112	24.309	126.842	64.732	115.241	144.200	44.442	111.356	60.473	25.356	109.633	10.897	203.254	0.00037512	0.001218	0.0002467	112.85	2.471e-06	4.6051e-06	161.33	45.829	1.1078e-05	1.2555e-05	73.836	26.126	16.1	8.737	9.8302e-06	13.485	0.0039642	0.0039842	0.0011084	1052.6	4.3583e-05	4.3553e-05	1123.7	344.15	4.3524e-05	4.3527e-05	710.53	176.66	167.27	58.787	4.3233e-05	79.567	16.601	204.123	-45.708	-85.382	-86.059	177.157	-84.913	-79.905	31.596	34.282	-83.072	-78.219	-76.474	-71.408	-81.288	-74.610	-8191	255	
1334.759	1	1	0	0	0.33897	0.14713	0.15422	0.078883	0.21261	0.074028	0.15183	0.29873	0.078823	0.01047	0.063552	0.090007	0.24688	0.074875	0.1542	0.30925	-2.15	-3.2896	-2.6396	-2.7521	-3.1229	-2.6208	-3.0479	-3.0042	-2.5875	-3.2687	-2.7562	-2.7542	-3.175	-2.5958	-2.9292	-3.0687	184.339	-95.380	177.934	237.354	53.477	-62.201	91.689	3.805	-39.168	171.711	208.395	108.689	-21.722	-1.185	169.649	-27.324	0.00017528	0.00060678	0.00038178	110.88	6.7148e-06	1.3108e-05	163.04	45.428	6.9457e-06	3.6612e-06	72.266	26.417	16.558	8.7085	1.156e-05	13.535	0.0039006	0.0039161	0.0010835	1031.4	4.2485e-05	4.2253e-05	1094.3	334.21	4.1966e-05	4.1877e-05	687	171.26	162.02	57.067	4.1715e-05	77.445	260.606	183.201	237.853	-84.471	88.164	112.396	-86.251	-78.456	184.468	-64.720	-82.264	-79.148	-74.537	-73.503	102.144	-75.499	-8191	255	
1334.855	1	1	0	0	0.091835	0.26133	0.11255	0.11565	0.17651	0.063222	0.14394	0.067946	0.11682	0.088144	0.1208	0.12109	0.21373	0.083795	0.21416	0.17099	-1.9688	-3.2021	-2.5396	-2.6833	-3.25	-2.55	-2.9188	-3.0896	-2.4437	-3.1854	-2.6417	-2.6042	-3.2104	-2.4208	-2.9604	-3.2208	-78.552	152.872	248.265	-19.626	152.468	-87.360	227.761	206.816	1.420	71.085	133.349	54.086	117.379	173.909	254.726	129.449	0.0007128	0.00083576	8.2052e-05	114.61	2.7433e-06	1.4562e-05	166.05	44.71	1.4571e-05	7.2873e-06	73.143	26.485	16.64	8.8819	6.5851e-06	13.701	0.0037768	0.0037939	0.0010531	1004.6	4.1329e-05	4.1212e-05	1070.9	328.15	4.0974e-05	4.0845e-05	671.74	167.81	158.87	55.977	4.0873e-05	76.194	168.692	-90.531	161.518	-85.229	-91.591	-52.091	-84.945	-81.565	82.367	200.266	-81.701	-77.168	-77.275	-70.658	-54.960	-74.948	-8191	255	
1334.927	1	1	0	0	0.26453	0.11121	0.16011	0.19302	0.13502	0.24742	0.18921	0.26911	0.2675	0.20569	0.067843	0.10976	0.13453	0.13943	0.20271	0.22712	-2.1417	-3.2167	-2.9604	-2.5458	-3.1833	-2.6125	-2.925	-3.3021	-2.3646	-3.1417	-2.8937	-2.6479	-3.3	-2.5979	-2.8896	-3.2271	214.247	-93.087	-20.933	95.873	-80.396	2.668	111.555	-52.740	-9.118	24.327	230.173	244.863	-46.432	-95.780	107.601	180.823	0.00048627	0.000692	0.00050437	110.96	7.1918e-06	1.0184e-05	166.13	45.504	2.1181e-06	1.0788e-06	75.396	26.554	16.606	8.6773	9.5237e-07	14.056	0.0037139	0.0037345	0.0010405	996.13	4.1085e-05	4.093e-05	1066.6	325.83	4.0705e-05	4.057e-05	666.43	166.44	157.24	55.371	4.0222e-05	75.299	131.645	147.120	97.939	-85.185	229.258	72.728	-85.619	-80.909	213.842	45.827	-83.763	-77.726	-75.047	-71.715	92.531	-75.850	-8191	255	
1335.048	1	1	0	0	0.028292	0.086298	0.051986	0.1799	0.10884	0.14893	0.14407	0.3956	0.20474	0.18735	0.17612	0.11388	0.11353	0.16948	0.094	0.082263	-2.0312	-3.2938	-2.9042	-2.3937	-3.1688	-2.6875	-2.8354	-3.1229	-2.5438	-3.0292	-2.8979	-2.5687	-3.3042	-2.7292	-2.6833	-3.4729	151.707	-93.399	85.565	242.063	-48.357	82.746	140.190	185.157	-64.800	21.321	118.464	255.945	-70.070	108.448	12.288	89.727	0.0005905	0.00082693	0.00024321	110.38	4.8238e-06	5.5585e-06	162.82	45.199	1.0032e-05	1.3441e-05	74.472	26.654	16.351	8.4748	1.2971e-05	13.677	0.0036548	0.0036713	0.0010208	981.66	4.0475e-05	4.0469e-05	1058.5	325.44	4.0708e-05	4.0683e-05	668.77	167.18	157.33	55.297	4.0196e-05	75.274	260.207	-35.451	216.689	-83.789	-48.696	-36.131	-85.108	-81.196	25.915	67.747	-80.256	-78.411	-74.122	-71.511	259.329	-75.404	-8191	255	
1335.144	1	1	0	0	0.052943	0.30188	0.17795	0.17631	0.12744	0.26397	0.19554	0.18336	0.14208	0.23398	0.12646	0.066269	0.12291	0.16225	0.020029	0.15055	-2.3063	-2.9146	-3.1937	-2.4437	-3.2167	-2.8812	-2.7854	-3.2125	-2.6917	-2.9542	-3.2042	-2.4083	-3.2021	-2.7958	-2.6146	-3.35	73.440	-86.190	105.868	180.225	215.841	39.723	186.980	229.489	63.151	-3.893	-1.242	-10.530	126.761	135.070	32.122	-92.504	0.00062777	0.00068121	0.00045313	113.23	1.278e-05	1.6324e-05	164.4	45.667	1.3976e-05	1.9089e-05	74.949	26.386	16.399	8.8035	5.3597e-06	13.623	0.0036401	0.0036457	0.0010114	968.62	3.9616e-05	3.9515e-05	1037	317.84	3.9522e-05	3.9443e-05	653.56	163.64	154.14	54.502	3.9583e-05	74.527	193.908	10.926	240.048	-84.622	75.476	257.031	-86.765	-79.877	-78.357	70.411	-81.057	-77.651	-76.822	-72.644	211.884	-75.170	-8191	255	
1335.240	1	1	0	0	0.18257	0.14455	0.20052	0.1032	0.16678	0.060869	0.10169	0.057431	0.19302	0.18061	0.34929	0.11371	0.24377	0.22619	0.10683	0.11728	-2.3167	-2.8292	-3.1167	-2.4437	-2.9375	-3.0042	-2.5333	-3.2812	-2.7521	-2.825	-3.3021	-2.5938	-3.1333	-3.1146	-2.5292	-3.15	144.786	79.886	240.948	143.633	175.180	258.555	-35.499	118.555	27.516	101.872	180.016	-68.333	-38.095	248.129	98.861	-67.846	0.00068728	0.0015652	0.00010556	111.93	8.7906e-06	6.9422e-06	165.69	45.573	7.1586e-06	1.0524e-05	75.025	26.419	16.51	8.687	1.7259e-05	13.844	0.0035914	0.0036054	0.001004	963.62	3.9409e-05	3.9315e-05	1031.9	315.44	3.9005e-05	3.8834e-05	643.2	160.72	150.99	53.334	3.8494e-05	72.688	245.555	149.582	152.896	-84.859	-89.956	96.762	-85.587	-78.867	5.135	229.158	-82.494	-78.395	-76.148	-72.733	3.983	-74.941	-8191	255	
1335.336	1	1	0	0	0.17176	0.35601	0.10407	0.17998	0.11648	0.19386	0.29572	0.21605	0.15169	0.19467	0.1133	0.1554	0.34322	0.10028	0.23911	0.22684	-2.1167	-2.6104	-3.2875	-2.5479	-3.0771	-3.0229	-2.3854	-3.0625	-2.6937	-2.8542	-3.2167	-2.4979	-2.8875	-3.1042	-2.5729	-3.1625	82.328	-20.230	-32.098	89.461	-69.043	250.704	70.629	133.439	-50.914	-76.362	-89.563	61.111	110.738	194.817	-43.092	104.058	0.00082131	0.0003824	0.00044215	111.81	7.0852e-06	7.3115e-06	165.24	45.805	8.8302e-06	1.1301e-05	75.499	26.461	16.43	8.8166	1.0621e-05	13.705	0.0034816	0.0034949	0.00097346	934.88	3.8027e-05	3.7988e-05	1001.7	305.91	3.7674e-05	3.7384e-05	621	155.32	145.81	51.609	3.7054e-05	70.305	127.363	170.459	-50.557	-84.893	-9.108	143.411	-85.784	-78.807	-47.200	61.242	-82.110	-77.731	-75.373	-71.055	26.431	-74.611	-8191	255	
1335.455	1	1	0	0	0.11926	0.12824	0.14651	0.079473	0.080871	0.080345	0.12239	0.14068	0.16305	0.18962	0.14758	0.17963	0.42174	0.2769	0.037249	0.19739	-2.5187	-2.4958	-3.2354	-2.65	-2.8604	-3.2188	-2.4542	-3.1604	-2.8	-2.6083	-3.2396	-2.5958	-2.8396	-3.2729	-2.5604	-3.3979	34.319	90.141	180.132	97.836	152.504	46.133	170.157	98.711	-14.420	-81.269	197.868	134.299	-52.749	235.538	-25.620	141.313	0.00041767	0.00089387	0.00044579	112.93	3.6507e-06	4.4905e-06	166.81	45.561	7.99e-06	5.4705e-06	74.562	26.303	16.647	8.7115	2.8412e-06	13.607	0.0033508	0.003359	0.0009354	904.49	3.6657e-05	3.6736e-05	975.94	298.95	3.6927e-05	3.6952e-05	617.68	155.23	145.68	51.789	3.7276e-05	70.843	244.795	-18.408	14.042	-84.589	-9.903	222.845	-86.161	-81.286	55.467	79.753	-81.724	-76.333	-73.317	-72.056	247.526	-75.085	-8191	255	
1335.529	1	1	0	0	0.10644	0.10535	0.11841	0.031811	0.11816	0.085221	0.28936	0.075614	0.042829	0.12743	0.33489	0.1511	0.10226	0.019612	0.0066013	0.26915	-2.7104	-2.5292	-3.3521	-2.7979	-2.6958	-3.2333	-2.6417	-3.1521	-2.9708	-2.525	-3.3417	-2.8042	-2.6688	-3.2583	-2.5104	-3.0062	20.977	-50.948	231.509	-97.564	188.996	193.289	140.310	32.986	133.705	-57.645	39.987	228.760	-9.527	260.051	169.237	145.600	0.00065838	0.0019893	0.00027362	113.84	5.9756e-06	9.5887e-06	167.58	45.825	4.2217e-06	1.2765e-05	75.235	26.899	16.449	8.6977	4.3264e-06	13.989	0.0033843	0.0034047	0.00094871	914.96	3.7251e-05	3.7236e-05	985.63	301.5	3.7137e-05	3.7152e-05	618.25	155.03	145.86	51.754	3.7171e-05	70.721	223.550	106.046	220.419	-84.207	-49.766	55.399	-85.195	-80.461	76.222	-78.111	-82.128	-78.783	-74.615	-71.489	187.991	-74.085	-8191	255	
1335.625	1	1	0	0	0.33864	0.034828	0.14481	0.18602	0.11141	0.12422	0.099664	0.14213	0.14582	0.19212	0.28183	0.11157	0.22426	0.18776	0.25521	0.36567	-2.8042	-2.4958	-3.2188	-2.8271	-2.6562	-3.2625	-2.475	-2.9813	-3.0396	-2.6042	-3.2229	-2.9167	-2.6562	-3.4521	-2.5875	-2.9771	-92.004	89.037	220.432	149.328	238.056	32.436	17.578	252.208	-64.742	-85.183	-59.549	13.820	132.441	-41.977	162.791	256.698	0.00051517	0.00019218	0.00015858	110.38	1.0604e-05	2.9565e-06	167.05	46.572	1.5529e-05	1.1077e-05	76.049	26.748	16.538	8.5608	5.4324e-06	13.727	0.0033693	0.0033928	0.00094394	913.14	3.7143e-05	3.72e-05	986.95	302.36	3.7461e-05	3.75e-05	625.01	157.18	147.92	52.511	3.7784e-05	71.805	10.706	87.390	184.269	-86.339	163.495	-76.984	-84.793	-80.215	-19.036	-89.075	-80.601	-78.509	-75.739	-72.539	-81.015	-73.909	-8191	255	
1335.721	1	1	0	0	0.05871	0.11063	0.12117	0.13915	0.234	0.23642	0.14675	0.23552	0.042731	0.33103	0.20444	0.23116	0.23533	0.15226	0.31282	0.079868	-2.8688	-2.4854	-3.0375	-2.9938	-2.5667	-3.2771	-2.7521	-2.8521	-3.3896	-2.6437	-3.1646	-2.9417	-2.4667	-3.2979	-2.6125	-2.7375	188.309	83.955	173.509	5.896	105.340	14.952	-95.400	-58.028	80.904	140.614	207.180	192.205	57.851	178.003	32.241	-11.273	0.00045857	0.0011315	0.00023151	109.48	3.6946e-06	3.4981e-06	166.11	46.658	1.4289e-05	1.1101e-05	75.861	26.905	16.34	8.7164	9.7754e-06	13.762	0.003434	0.0034505	0.00095872	924.56	3.7694e-05	3.776e-05	995.07	304.76	3.7752e-05	3.7703e-05	627.95	157.55	148.33	52.793	3.7983e-05	71.797	50.452	-31.150	55.582	-84.887	98.177	73.524	-85.926	-79.053	246.961	20.092	-81.467	-78.376	-76.497	-72.139	-2.931	-74.946	-8191	255	
1335.840	1	1	0	0	0.16693	0.18252	0.10986	0.066975	0.18667	0.16496	0.11	0.03585	0.11912	0.22806	0.039712	0.054464	0.26501	0.15217	0.083912	0.046247	-2.8688	-2.3417	-3.0458	-2.9875	-2.4708	-3.2208	-2.7583	-2.6917	-3.3271	-2.4208	-2.9875	-3.0125	-2.4688	-3.3083	-2.8958	-2.7167	219.952	229.497	252.069	-91.903	248.618	164.234	59.307	209.722	57.405	83.402	203.145	-12.645	223.226	181.271	91.012	62.189	3.7872e-05	0.00089804	0.00032359	111.44	1.6298e-05	1.4772e-05	166.62	45.409	3.7348e-06	4.6462e-06	75.115	26.468	16.918	8.8655	5.3021e-06	13.897	0.0034437	0.0034495	0.00095746	922.6	3.7617e-05	3.7551e-05	990.95	303.81	3.7585e-05	3.7461e-05	622.66	156.08	146.85	52.083	3.7409e-05	71.078	216.389	1.104	93.955	-84.308	-13.978	10.891	-86.532	-79.439	-3.848	145.689	-81.900	-78.902	-76.582	-72.809	104.610	-74.334	-8191	255	
1335.936	1	1	0	0	0.14128	0.17751	0.15082	0.080901	0.2667	0.3166	0.15388	0.097863	0.10082	0.041961	0.040968	0.080925	0.23473	0.082241	0.29416	0.15375	-2.9667	-2.6937	-2.8958	-3.2021	-2.5083	-3.2271	-2.7708	-2.5167	-3.3063	-2.725	-2.7771	-3.2375	-2.4708	-3.1083	-2.8667	-2.45	91.268	113.221	240.844	10.820	-23.828	60.033	114.496	-41.238	124.610	-28.786	59.048	209.203	131.307	256.531	-13.764	34.430	0.00060566	0.0007823	0.00015603	112.62	1.0486e-05	1.9138e-05	165.17	45.975	9.74e-06	8.0824e-06	76.318	26.892	16.718	8.7714	4.3163e-06	14.04	0.0034081	0.0034233	0.00095304	922.11	3.7557e-05	3.7515e-05	989.57	303.75	3.752e-05	3.7424e-05	624.06	156.99	147.67	52.433	3.7712e-05	71.712	22.768	166.897	220.145	-84.844	233.556	177.094	-85.480	-80.272	196.277	60.795	-81.643	-78.205	-77.068	-70.936	198.217	-74.722	-8191	255	
1336.032	1	1	0	0	0.05314	0.073185	0.095067	0.0964	0.165	0.040365	0.15653	0.088737	0.035186	0.1707	0.23394	0.063371	0.16964	0.19232	0.053689	0.10074	-2.8917	-2.5542	-2.7479	-3.2979	-2.4917	-3.025	-3.0375	-2.5333	-3.35	-2.6854	-2.7417	-3.125	-2.4271	-2.8667	-3.1667	-2.3646	6.457	-16.722	211.173	-7.527	202.865	86.465	-84.620	42.693	-18.971	144.185	-11.719	59.490	166.416	-88.230	-66.990	-9.819	0.0004889	0.0011323	0.00040253	111.46	4.6332e-06	1.2628e-05	167.14	45.234	9.8949e-06	4.1402e-06	75.416	26.974	16.333	8.7245	5.3752e-06	13.994	0.0034374	0.0034437	0.0009577	922.9	3.7557e-05	3.7499e-05	990.1	302.78	3.7414e-05	3.7145e-05	618.18	155.32	145.48	51.679	3.7092e-05	70.626	95.887	159.695	62.298	-84.671	90.038	251.032	-84.313	-79.841	151.686	92.111	-81.689	-77.924	-74.627	-71.423	194.158	-74.775	-8191	255	
1336.128	1	1	0	0	0.23736	0.25582	0.18262	0.19724	0.12631	0.14886	0.33191	0.40941	0.078191	0.21051	0.28616	0.13147	0.036053	0.080183	0.14247	0.18698	-2.6521	-2.6292	-2.6312	-3.1542	-2.6813	-2.9083	-3.1583	-2.5625	-3.2188	-2.8312	-2.5146	-3.4021	-2.6708	-2.8812	-3.2021	-2.6083	16.102	153.666	160.043	-54.350	114.986	-28.082	-4.971	122.649	-50.025	-53.476	56.390	-78.557	238.610	-47.383	-8.146	214.285	0.00060102	0.0020667	0.00012571	109.94	1.3206e-05	8.91e-06	163.53	46.868	9.0686e-06	1.0904e-05	75.301	26.703	17.1	8.7896	1.4046e-05	13.885	0.0033736	0.0033881	0.00094533	915.71	3.7206e-05	3.7245e-05	986.97	302.67	3.7424e-05	3.7342e-05	622.12	156.19	146.77	52.129	3.7433e-05	71.252	46.221	40.181	146.380	-85.233	135.479	188.170	-84.606	-79.666	113.814	133.972	-82.282	-76.789	-75.981	-70.858	116.870	-74.695	-8191	255	
1336.224	1	1	0	0	0.2599	0.1091	0.012154	0.32047	0.1259	0.2287	0.14005	0.14185	0.22154	0.32745	0.24302	0.18919	0.11189	0.201	0.22129	0.062551	-2.8542	-2.8312	-2.5812	-3.1937	-2.5708	-2.9229	-3.0958	-2.6708	-3.0812	-2.8479	-2.6188	-3.0354	-2.8125	-2.8354	-3.3104	-2.4875	229.692	21.515	-81.510	165.463	174.416	37.780	126.680	215.379	176.099	2.913	-52.706	24.196	202.893	-77.523	-13.848	159.535	0.0011052	0.001069	0.00041599	112.3	2.7215e-06	1.497e-05	166.59	45.821	1.006e-05	1.0363e-05	76.493	26.556	16.302	8.9068	2.582e-06	13.972	0.003414	0.0034254	0.00095685	924.7	3.7685e-05	3.779e-05	998.57	306.46	3.7959e-05	3.7827e-05	629.42	158.02	148.37	52.589	3.7939e-05	71.832	49.226	69.136	40.393	-84.382	247.459	21.292	-85.029	-80.526	101.647	-43.738	-82.205	-78.401	-75.743	-71.596	256.012	-74.625	-8191	255	
1336.320	1	1	0	0	0.25865	0.1603	0.39252	0.02983	0.10109	0.16831	0.17082	0.029052	0.27634	0.21212	0.22213	0.22757	0.15793	0.21405	0.064055	0.18061	-2.6021	-2.9813	-2.5104	-3.1937	-2.5979	-2.6312	-3.3667	-2.5104	-3.05	-3.1396	-2.6521	-3.225	-2.8854	-2.675	-3.4854	-2.6667	52.087	39.952	-47.292	122.945	113.948	51.605	101.565	168.824	130.125	55.495	85.072	242.937	-17.601	212.614	94.858	-57.673	0.00024232	0.00097163	0.00033594	111.38	3.6906e-06	1.2836e-05	164.56	45.678	3.3665e-06	1.0038e-05	77.012	27.474	17.248	8.8321	7.0301e-06	13.878	0.0034363	0.0034588	0.00096386	931.27	3.7965e-05	3.8028e-05	1006.2	308.04	3.8243e-05	3.8099e-05	632.92	159.18	149.43	52.931	3.8235e-05	72.367	122.996	109.015	-36.731	-84.950	-34.604	68.043	-85.972	-80.165	245.272	184.743	-83.105	-78.168	-75.109	-72.832	66.819	-75.776	-8191	255	
1336.441	1	1	0	0	0.20583	0.21195	0.028734	0.06647	0.1065	0.26055	0.11051	0.14619	0.14063	0.035783	0.12267	0.14415	0.068335	0.27229	0.075205	0.0090793	-2.6917	-3.0812	-2.5938	-3.0542	-2.7104	-2.4604	-3.275	-2.5	-2.8125	-3.25	-2.5021	-3.1188	-2.9729	-2.6063	-3.2896	-2.7479	251.909	75.904	175.607	52.642	-23.983	121.090	24.338	-67.956	14.073	60.599	212.222	-87.022	29.792	243.353	-61.711	162.871	0.00057593	0.00094312	0.00016117	110.22	5.199e-06	3.9263e-06	162.7	45.68	1.456e-05	5.4166e-06	76.388	26.6	16.614	8.8259	8.1994e-06	13.824	0.003476	0.0034863	0.00097241	938.73	3.8217e-05	3.8166e-05	1007.7	308.3	3.8174e-05	3.8086e-05	633.1	158.68	149.09	52.76	3.8059e-05	71.926	-13.924	157.403	-45.462	-83.707	-95.292	-87.918	-84.940	-80.140	68.697	-95.500	-81.487	-77.236	-73.715	-72.150	93.213	-75.506	-8191	255	
1336.535	1	1	0	0	0.085755	0.17215	0.18368	0.099852	0.2378	0.19867	0.11665	0.14033	0.14627	0.27627	0.10012	0.27758	0.10644	0.23206	0.15852	0.051126	-2.3854	-3.1292	-2.35	-3.2313	-2.8	-2.5896	-3.1125	-2.6646	-2.775	-3.2812	-2.6021	-3.1083	-3.0646	-2.4542	-3.1125	-2.825	173.552	210.285	211.050	166.783	27.097	100.116	49.533	-75.993	-33.540	49.866	137.354	89.803	147.564	225.079	69.036	-57.056	0.00041014	0.0018452	0.00015483	112.28	1.0312e-05	9.6718e-06	165.94	46.533	1.1415e-06	3.0616e-06	74.272	26.751	16.857	8.5837	1.127e-05	14.073	0.0034498	0.0034706	0.00096741	934.24	3.8072e-05	3.8212e-05	1007.6	308.46	3.8279e-05	3.8216e-05	635.8	159.26	149.83	53.059	3.83e-05	72.279	-79.262	74.804	235.700	-84.272	205.608	-49.316	-85.559	-79.294	257.773	-87.051	-83.827	-78.114	-76.815	-71.303	3.635	-75.335	-8191	255	
1336.632	1	1	0	0	0.14814	0.13658	0.20218	0.11026	0.19397	0.12732	0.22062	0.013359	0.12933	0.14146	0.1432	0.10319	0.19873	0.13735	0.29068	0.16216	-2.2958	-3.2292	-2.4958	-2.9417	-3.0604	-2.4875	-3.3396	-2.8208	-2.7021	-3.5	-2.6188	-2.8271	-3.1229	-2.3792	-3.2375	-3.1625	4.168	64.168	43.191	225.818	71.066	-36.812	177.167	78.284	46.867	92.084	-69.576	223.779	138.007	88.132	-96.582	-91.643	1.5066e-05	0.00031012	0.00022873	112.01	8.3783e-06	2.1769e-06	168.08	46.348	1.3443e-05	9.694e-06	73.514	26.913	16.802	8.7415	1.7639e-05	14.006	0.0034657	0.0034863	0.00097046	936.31	3.823e-05	3.827e-05	1010.7	309.4	3.8384e-05	3.8481e-05	638.78	160.41	150.94	53.631	3.8825e-05	73.19	44.536	40.246	88.377	-83.258	-63.494	116.281	-86.044	-80.425	249.217	99.315	-83.421	-77.901	-74.603	-71.413	6.716	-74.187	-8191	255	
1336.752	1	1	0	0	0.11963	0.066355	0.21364	0.096741	0.042455	0.11989	0.040547	0.065455	0.13491	0.14022	0.18478	0.012421	0.28342	0.30845	0.030958	0.12605	-2.2	-3.3917	-2.5625	-2.7771	-3.3354	-2.5792	-3.2021	-3.0375	-2.4396	-3.2646	-2.5854	-2.5896	-3.1417	-2.4542	-3.2062	-3.0917	66.338	-88.415	-56.657	23.443	248.198	-77.280	-81.436	120.941	173.282	119.592	248.678	170.612	235.268	215.911	27.369	-71.796	0.0006155	8.8433e-05	0.00036881	112.68	1.031e-05	1.3405e-05	167.53	45.958	4.1001e-06	1.1034e-05	74.382	26.499	16.703	8.8909	5.2937e-06	13.761	0.0035304	0.0035496	0.00098963	952.65	3.901e-05	3.9089e-05	1028.7	314.71	3.9093e-05	3.9044e-05	646.05	161.62	152.04	53.797	3.8819e-05	73.016	56.459	9.207	253.445	-83.183	189.712	252.932	-85.590	-79.508	209.447	122.426	-81.403	-78.294	-74.249	-70.870	110.597	-75.134	-8191	255	
1336.824	1	1	0	0	0.13101	0.31824	0.1811	0.10347	0.096454	0.13185	0.11577	0.050811	0.10345	0.071783	0.16985	0.15037	0.27573	0.16852	0.18091	0.072123	-2.1292	-3.4688	-2.8563	-2.8187	-3.2667	-2.6	-3.1792	-3.175	-2.3771	-3.2979	-2.8708	-2.7875	-3.2313	-2.6271	-3.0417	-3.3063	-34.190	13.515	-1.384	35.852	121.759	106.277	169.346	162.741	28.936	81.719	56.571	132.146	226.498	256.065	27.397	211.725	0.00036704	0.00039773	0.00021661	113.89	5.4605e-06	7.5187e-06	164.23	46.052	4.1223e-06	5.7229e-06	74.71	26.938	16.794	8.786	2.0094e-06	14.168	0.0035171	0.0035326	0.00098252	945.22	3.8622e-05	3.8594e-05	1016.8	311.02	3.8636e-05	3.8663e-05	639.79	160.34	150.85	53.405	3.8529e-05	72.831	-34.143	-69.941	169.810	-84.495	260.143	55.584	-85.346	-79.706	21.891	113.349	-81.772	-77.706	-75.677	-72.448	83.154	-75.292	-8191	255	
1336.920	1	1	0	0	0.30639	0.035081	0.2701	0.16571	0.15255	0.14472	0.11778	0.072368	0.39832	0.14742	0.11632	0.13527	0.20434	0.31173	0.25643	0.026478	-2.1396	-3.1458	-2.6375	-2.75	-3.3479	-2.3396	-2.9229	-3.1813	-2.4771	-3.2292	-2.8792	-2.5396	-3.2479	-2.5458	-2.8708	-3.1083	18.933	133.050	225.037	242.972	-95.158	153.740	170.980	182.604	185.809	176.723	-75.645	205.231	73.255	-82.262	24.246	223.100	0.00080219	0.00075439	0.00028164	110.54	5.8884e-06	9.8214e-06	165.06	45.247	6.4823e-06	6.6559e-06	75.598	26.69	16.811	8.7734	1.1793e-05	13.996	0.0034933	0.0035082	0.00097272	940.1	3.8372e-05	3.8346e-05	1012.5	309.56	3.8403e-05	3.8353e-05	635.12	159.1	149.79	52.954	3.8104e-05	72.07	259.664	-50.747	67.189	-85.915	245.191	-93.910	-85.155	-79.960	144.200	219.557	-82.626	-77.983	-74.833	-70.777	-16.034	-75.492	-8191	255	
1337.016	1	1	0	0	0.31138	0.30833	0.24578	0.059327	0.15072	0.31986	0.10278	0.23635	0.10175	0.040414	0.18801	0.37251	0.17048	0.074169	0.13809	0.27287	-2.0771	-3.2833	-3.0417	-2.4958	-3.2667	-2.5708	-2.7354	-3.2625	-2.5667	-3.1437	-3.2104	-2.5833	-3.2833	-2.6063	-2.6208	-3.2729	15.134	-49.978	-4.885	40.055	131.765	-17.251	218.521	107.044	148.176	-19.350	142.972	214.357	18.091	187.216	34.513	142.367	0.0010349	0.00076286	0.00027304	109.06	1.0837e-05	1.528e-05	166.48	46.374	9.6148e-06	5.4434e-06	77.515	26.565	17.118	8.8994	7.6442e-06	13.927	0.0034519	0.0034664	0.0009652	932.06	3.8058e-05	3.802e-05	1003.5	307.12	3.7996e-05	3.7833e-05	627.83	157.57	147.85	52.297	3.7589e-05	71.158	37.956	-88.765	-83.786	-85.062	144.506	101.424	-85.919	-80.964	185.344	-4.337	-82.560	-77.514	-74.931	-70.616	168.188	-74.561	-8191	255	
1337.112	1	1	0	0	0.12191	0.064978	0.10555	0.051295	0.24946	0.15801	0.091068	0.1509	0.17498	0.15231	0.11563	0.24415	0.091325	0.14432	0.13749	0.24966	-2.1979	-3.0917	-3.0125	-2.4542	-3.1188	-2.7396	-2.6604	-3.4354	-2.6979	-2.9604	-3.1875	-2.4167	-3.275	-2.8812	-2.6854	-3.2375	77.148	0.273	202.454	124.998	-89.914	234.350	225.372	58.576	183.688	-27.275	120.879	100.040	-43.398	46.877	-25.769	199.111	0.00080179	0.00026429	0.00013341	109.02	1.4097e-06	8.0155e-06	164.97	46.205	8.9181e-06	1.2464e-05	77.15	27.324	16.775	8.923	8.7769e-06	14.043	0.0033998	0.0034128	0.00094934	917.95	3.7349e-05	3.742e-05	990.83	303.58	3.7497e-05	3.7255e-05	620.85	155.86	146.23	51.639	3.6927e-05	70.282	22.522	-21.828	195.827	-83.642	-89.198	215.232	-84.583	-79.588	185.609	-83.242	-82.688	-77.037	-75.647	-71.534	164.418	-74.543	-8191	255	
1337.231	1	1	0	0	0.086888	0.038377	0.20789	0.36001	0.21844	0.068268	0.31611	0.23846	0.13731	0.16846	0.1003	0.20239	0.11093	0.20992	0.1572	0.14003	-2.1479	-2.8104	-3.1604	-2.4167	-3.2833	-2.6937	-2.7	-3.4062	-2.7271	-2.9583	-3.1979	-2.6813	-3.1458	-2.975	-2.6354	-3.1146	-51.906	79.418	136.886	-34.118	-64.571	-95.458	206.628	40.887	161.806	207.069	200.479	169.558	97.486	-60.357	3.397	236.011	0.00055515	0.0008102	0.00030371	114.04	5.9445e-06	4.1539e-06	168.23	46.058	6.534e-06	4.618e-06	75.783	26.654	16.623	8.768	1.2485e-05	13.9	0.0033347	0.0033421	0.00093098	903.64	3.6691e-05	3.667e-05	975.22	299.02	3.6741e-05	3.667e-05	610.5	153.26	143.74	50.957	3.6435e-05	69.652	72.767	82.104	-91.920	-84.593	96.436	-60.620	-85.600	-79.915	228.696	184.382	-81.965	-76.308	-77.072	-71.567	-70.464	-75.085	-8191	255	
1337.327	1	1	0	0	0.16955	0.13645	0.19954	0.15295	0.16459	0.27735	0.142	0.25918	0.15126	0.18599	0.28055	0.11848	0.10722	0.26184	0.06055	0.28477	-2.1896	-2.8229	-3.2583	-2.3729	-3.0583	-3.2208	-2.6396	-3.3146	-2.6688	-2.65	-3.1667	-2.4271	-3.0563	-3.2583	-2.525	-3.2583	47.777	77.468	138.616	112.574	209.772	194.156	98.251	224.814	-29.547	156.964	105.720	-33.856	236.154	-0.577	9.119	-25.754	0.001343	0.00055449	0.0002806	110	1.4689e-05	2.7471e-06	164.82	47.355	1.9301e-06	9.7379e-06	74.627	26.199	17.128	8.799	1.128e-05	13.961	0.0033085	0.0033107	0.00092125	891.52	3.6097e-05	3.6071e-05	960.97	294.98	3.6144e-05	3.6121e-05	604.18	151.78	142.35	50.521	3.6107e-05	69.043	39.174	207.056	226.891	-85.348	-60.981	142.136	-85.747	-79.391	-74.804	90.036	-82.190	-77.854	-75.930	-71.060	16.500	-74.723	-8191	255	
1337.401	1	1	0	0	0.085132	0.046128	0.10946	0.1983	0.15572	0.27862	0.15313	0.36289	0.13284	0.1907	0.019299	0.085221	0.15355	0.23938	0.22943	0.17335	-2.2083	-2.7375	-3.3521	-2.5187	-2.9	-3.3042	-2.6625	-3.1896	-2.8958	-2.6771	-3.3708	-2.6562	-3.0229	-3.3396	-2.5896	-3.0771	186.209	-20.473	-44.024	171.411	-15.975	109.367	201.308	16.722	210.106	-86.156	8.391	151.568	85.198	217.403	170.565	199.115	0.00020248	0.00079563	0.0001938	115.34	1.0828e-05	1.14e-05	167.43	46.754	2.2887e-06	7.683e-06	76.773	26.785	17.071	8.7825	4.733e-06	14.11	0.0032672	0.0032821	0.00091344	885.96	3.5761e-05	3.574e-05	954.09	292.34	3.5761e-05	3.571e-05	598.13	150.21	140.83	50.029	3.5713e-05	68.379	-35.194	178.491	-52.682	-84.661	136.776	71.626	-85.837	-77.756	171.396	-6.574	-82.188	-77.852	-75.953	-72.069	201.533	-74.850	-8191	255	
1337.520	1	1	0	0	0.10901	0.13366	0.15891	0.15521	0.16277	0.19736	0.27561	0.19926	0.08049	0.29342	0.32366	0.12392	0.11006	0.054677	0.10914	0.11835	-2.7062	-2.4667	-3.2083	-2.6646	-2.7188	-3.35	-2.5667	-3.3375	-3.1063	-2.6688	-3.3708	-2.7458	-2.8896	-3.3875	-2.4771	-3.0292	-40.705	223.705	-92.827	189.913	-32.745	-79.136	30.649	-37.544	-20.676	257.068	229.607	-13.970	98.358	69.746	141.263	-23.119	0.00035353	0.0015367	8.8902e-05	112.14	6.3969e-06	2.6333e-06	170.09	46.229	7.0645e-06	5.4172e-06	77.276	27.041	17.221	8.9766	1.141e-05	13.938	0.00324	0.0032577	0.0009089	884.72	3.5861e-05	3.5895e-05	959.03	293.44	3.5985e-05	3.5995e-05	603.68	151.84	142.43	50.735	3.6193e-05	69.361	202.536	235.117	-53.957	-86.631	160.378	136.555	-84.273	-80.279	-25.976	-74.806	-82.156	-77.341	-76.042	-72.273	-68.491	-75.320	-8191	255	
1337.616	1	1	0	0	0.20479	0.054863	0.13148	0.097572	0.23278	0.056914	0.1454	0.08237	0.09806	0.17826	0.026022	0.26085	0.21994	0.1231	0.21943	0.053705	-2.8833	-2.5917	-3.475	-2.7604	-2.7646	-3.3208	-2.6042	-3.0438	-3.2062	-2.6042	-3.2188	-2.8354	-2.8125	-3.3917	-2.75	-3.1458	183.709	-22.114	-4.415	233.008	211.607	149.373	214.222	64.639	161.359	-53.528	65.419	242.966	1.666	178.694	39.111	-22.723	0.0014691	0.00060384	0.0004366	110.34	6.9356e-06	5.8608e-06	168.74	45.683	9.7923e-06	5.1855e-06	77.266	26.852	17.22	8.952	1.1913e-05	13.974	0.0032858	0.0033102	0.00092306	896.29	3.6431e-05	3.6483e-05	968.49	296.77	3.6527e-05	3.6459e-05	611.19	153.28	144.29	51.368	3.6839e-05	70.192	-47.544	167.418	152.035	-85.165	-35.921	-89.180	-84.566	-79.797	1.272	203.656	-82.052	-78.050	-76.686	-71.698	230.715	-75.355	-8191	255	
1337.712	1	1	0	0	0.21464	0.088204	0.15093	0.4083	0.1616	0.13571	0.087095	0.11532	0.23142	0.11303	0.18967	0.20893	0.078422	0.34899	0.12977	0.11754	-2.9333	-2.6958	-3.3167	-2.9479	-2.5521	-3.5104	-2.6562	-3.05	-3.3292	-2.575	-3.1875	-2.8917	-2.7708	-3.3604	-2.8063	-2.7958	243.198	-74.330	59.039	117.429	9.929	257.080	234.806	130.089	185.569	240.534	241.568	249.487	-61.479	222.704	250.396	125.972	0.00029448	0.0010692	0.00033072	113.23	5.9006e-06	1.6966e-05	163.62	45.372	1.0797e-06	1.0195e-05	74.836	26.032	16.353	9.0449	1.27e-05	13.925	0.0033555	0.0033761	0.00094052	908.83	3.7061e-05	3.7108e-05	983.46	301.7	3.7255e-05	3.7201e-05	620.43	155.86	146.9	52.219	3.7559e-05	71.472	65.472	88.446	117.441	-86.817	31.379	207.504	-86.689	-79.874	-84.996	229.965	-83.119	-77.127	-75.647	-70.910	247.112	-75.232	-8191	255	
1337.833	1	1	0	0	0.22384	0.13487	0.069593	0.13717	0.055209	0.21151	0.13204	0.10712	0.2479	0.086557	0.25731	0.15207	0.16105	0.016923	0.1069	0.22296	-3.0021	-2.5625	-3.2604	-3.0729	-2.55	-3.4771	-2.6604	-2.8479	-3.3771	-2.6479	-3.0729	-3.2229	-2.55	-3.3	-2.9375	-2.7375	-55.695	225.979	161.812	166.155	-81.261	192.620	139.482	57.882	10.000	80.147	109.198	120.064	213.269	136.726	200.203	157.376	0.00035145	0.0016153	0.0003032	113.88	1.5131e-06	7.9522e-06	164.03	46.576	6.2234e-06	6.7843e-06	76.23	26.614	16.676	8.582	1.6004e-06	14.069	0.0034129	0.0034349	0.00095483	921.96	3.7607e-05	3.7622e-05	993.27	304.69	3.7687e-05	3.7614e-05	624.77	156.86	147.68	52.444	3.7696e-05	71.678	84.738	186.547	-18.684	-84.583	-96.460	46.526	-84.932	-80.298	256.368	59.805	-84.386	-77.682	-75.934	-71.645	120.468	-74.943	-8191	255	
1337.929	1	1	0	0	0.39754	0.21771	0.10812	0.19686	0.16365	0.081128	0.095074	0.20136	0.08252	0.096718	0.18721	0.26954	0.19397	0.16759	0.17635	0.039336	-3.0729	-2.775	-3.1854	-3.1958	-2.5333	-3.3083	-2.8896	-2.6521	-3.3937	-2.7021	-3.0708	-3.2542	-2.6208	-3.2771	-3.0167	-2.6937	229.214	149.084	237.403	61.068	-8.903	146.606	164.447	-38.492	-94.824	163.291	-34.387	106.134	74.052	31.554	-48.093	68.023	0.00041354	0.0010209	0.00042489	109.61	3.7827e-06	9.2132e-06	167.91	46.547	9.5993e-06	1.5836e-05	78.207	26.556	16.458	8.882	1.1513e-05	13.948	0.003434	0.0034583	0.00096321	930.24	3.7998e-05	3.8034e-05	1005.2	308.67	3.8232e-05	3.8197e-05	634.54	159.15	149.67	53.054	3.8211e-05	72.415	189.237	-56.146	-41.435	-84.778	24.878	75.462	-85.844	-81.155	-64.733	-90.417	-81.040	-78.267	-74.464	-72.184	3.189	-75.339	-8191	255	
1338.023	1	1	0	0	0.20774	0.15198	0.10415	0.23596	0.21797	0.077331	0.22157	0.22484	0.31643	0.1395	0.19457	0.069833	0.1728	0.093218	0.24501	0.055028	-2.95	-2.6833	-2.9938	-3.4292	-2.625	-3.1688	-3.075	-2.6854	-3.4104	-2.7354	-2.8438	-3.5375	-2.6604	-3.3771	-3.0479	-2.7021	99.405	-21.945	-77.090	169.750	153.376	5.867	198.229	26.175	240.397	248.844	165.259	5.887	251.260	-41.831	239.281	155.673	0.00050682	0.0014178	0.00031493	112.19	7.3234e-06	7.9266e-06	167.69	45.443	7.482e-06	9.5999e-06	75.975	26.995	17.071	8.9386	1.2414e-05	13.613	0.0034733	0.0034898	0.00097185	938.11	3.8337e-05	3.8445e-05	1011.8	311.04	3.8594e-05	3.8442e-05	638.77	160.06	150.65	53.482	3.8537e-05	73.001	215.880	4.084	-81.630	-84.713	55.210	-66.684	-84.887	-81.577	140.702	-92.909	-85.020	-77.570	-75.977	-72.055	222.485	-74.554	-8191	255	
1338.121	1	1	0	0	0.12293	0.20498	0.093683	0.15338	0.023793	0.21598	0.33156	0.2111	0.30307	0.19604	0.15935	0.1488	0.1422	0.071463	0.19186	0.10374	-3.0396	-2.8438	-2.9146	-3.375	-2.6063	-3.2354	-3.225	-2.5458	-3.3458	-2.6958	-2.6917	-3.3417	-2.7167	-3.0208	-3.3229	-2.7062	-57.316	-89.545	239.849	-20.822	76.293	14.908	252.790	108.712	199.210	-0.908	239.163	-58.359	31.830	69.931	82.106	-79.330	0.00063057	0.0015418	0.00054388	109.41	8.3813e-06	1.2511e-05	165.82	47.3	1.5986e-05	1.296e-05	73.774	26.447	16.827	8.8945	5.0035e-06	13.862	0.0035143	0.003526	0.00098267	947.07	3.8663e-05	3.8649e-05	1020.2	314.28	3.8941e-05	3.8907e-05	645.3	161.62	152.71	53.999	3.9011e-05	73.568	5.478	-36.502	230.112	-85.101	-38.638	30.205	-85.519	-79.590	-78.647	68.305	-81.803	-76.893	-75.706	-72.226	47.294	-74.634	-8191	255	
1338.215	1	1	0	0	0.26257	0.038564	0.33122	0.073092	0.10007	0.052569	0.20856	0.14983	0.0079406	0.17675	0.19523	0.41624	0.11216	0.054407	0.24137	0.16818	-2.9104	-2.7083	-2.625	-3.2833	-2.6312	-2.9458	-3.325	-2.6208	-3.2396	-2.9792	-2.7979	-3.4708	-2.6167	-2.9646	-3.2625	-2.575	38.924	135.147	182.293	-17.340	207.113	47.731	13.466	-78.890	-69.839	198.189	26.910	12.481	-61.360	-73.211	20.888	203.047	0.00085939	0.0011169	0.00013377	109.12	1.6345e-05	7.3064e-06	164.62	46.806	1.0292e-05	7.5967e-06	73.405	26.948	16.565	8.7591	4.7349e-06	13.695	0.0035441	0.0035579	0.00099197	955.64	3.9027e-05	3.9065e-05	1026.9	315.52	3.9271e-05	3.9102e-05	649.15	162.78	153.36	54.307	3.9345e-05	74.155	190.254	99.703	-31.343	-83.442	89.097	24.189	-85.347	-79.093	-91.428	-25.295	-82.488	-77.674	-78.017	-72.249	209.762	-75.249	-8191	255	
1338.312	1	1	0	0	0.19531	0.22147	0.33379	0.17973	0.19062	0.11662	0.23101	0.3872	0.16517	0.056944	0.051319	0.22269	0.16984	0.15061	0.22278	0.065384	-2.9625	-3.1667	-2.6375	-3.3729	-2.7167	-3.1021	-3.3563	-2.6688	-3.175	-3.0167	-2.7646	-3.3479	-2.9479	-2.7354	-3.275	-2.6688	79.175	82.096	244.647	-33.653	120.573	68.445	40.697	214.817	238.112	177.279	256.377	-90.238	-23.765	243.065	-64.417	147.057	0.00068272	0.00062296	0.00025583	114.68	4.9537e-06	8.5794e-06	166.34	47.275	6.3979e-06	3.2603e-06	75.462	27.158	16.799	8.772	1.0632e-05	13.924	0.0035818	0.0036026	0.0010032	966.93	3.959e-05	3.9624e-05	1040.7	320.1	3.988e-05	3.9806e-05	660.19	165.55	155.86	55.193	4.0015e-05	75.093	160.821	41.828	-31.868	-86.349	157.949	155.645	-84.981	-78.189	253.252	-64.683	-82.771	-77.715	-75.175	-71.100	-83.795	-73.999	-8191	255	
1338.408	1	1	0	0	0.18126	0.070222	0.12417	0.21804	0.11426	0.1321	0.096815	0.28663	0.059163	0.26357	0.17295	0.40314	0.19665	0.13205	0.072596	0.087535	-2.7646	-3.2125	-2.4854	-3.3604	-2.8771	-2.7583	-3.4375	-2.6188	-3.0958	-3.1125	-2.5708	-3.1208	-2.8646	-2.5521	-3.45	-2.8146	8.848	221.612	152.765	186.674	7.974	-92.365	185.695	124.132	185.855	-46.993	-50.933	-73.698	101.674	25.968	39.535	-22.060	9.4308e-05	0.0010392	0.00029228	112.42	6.7585e-06	7.5941e-06	165.96	45.869	2.3159e-06	1.3206e-05	75.818	26.477	16.934	8.6202	3.4758e-06	13.95	0.0036175	0.0036281	0.0010073	966.63	3.9426e-05	3.9295e-05	1030.5	315.23	3.902e-05	3.8881e-05	643.75	160.94	151.67	53.727	3.8844e-05	73.27	154.109	185.519	222.587	-84.553	134.046	76.158	-86.085	-79.918	253.707	-41.490	-81.926	-77.247	-74.133	-72.026	-59.416	-75.131	-8191	255	
1338.528	1	1	0	0	0.15207	0.35522	0.12522	0.19189	0.12766	0.1883	0.026365	0.2141	0.088382	0.089982	0.21871	0.13808	0.16476	0.091505	0.06354	0.12889	-2.5687	-3.3	-2.3187	-3.0833	-2.9042	-2.6542	-3.3792	-2.7729	-2.7917	-3.3187	-2.5625	-3.1833	-3.0854	-2.5	-3.4979	-2.7854	177.803	33.964	8.970	190.318	84.323	166.564	4.514	226.336	118.730	121.975	185.813	170.664	154.574	231.198	74.746	149.082	0.00037015	0.0019222	0.00032507	115.11	7.3643e-06	8.9736e-06	167.1	45.645	9.7175e-06	1.2242e-05	75.712	26.659	16.655	8.7923	9.3001e-06	13.9	0.0035325	0.0035528	0.00098917	955.49	3.8993e-05	3.907e-05	1028.8	315.95	3.9272e-05	3.9191e-05	647.55	161.91	152.4	53.944	3.8876e-05	73.065	159.523	-66.226	-29.892	-86.067	-44.418	-29.003	-85.667	-79.747	208.425	-95.916	-83.098	-77.926	-73.930	-72.915	159.870	-75.515	-8191	255	
1338.625	1	1	0	0	0.048354	0.23318	0.18386	0.11558	0.22279	0.047962	0.13769	0.062327	0.18312	0.11505	0.10337	0.094144	0.12202	0.19437	0.31399	0.03051	-2.4708	-3.2687	-2.5792	-3.1229	-3.3521	-2.5417	-3.45	-2.7479	-2.725	-3.3917	-2.5146	-3.0417	-3.1813	-2.5583	-3.4708	-2.8604	185.934	-28.047	23.964	-62.453	200.395	221.452	153.842	78.679	-1.253	84.709	30.101	30.293	96.771	226.921	151.529	-56.630	0.00014172	0.0012367	0.00034409	112.69	1.2864e-06	1.4808e-06	164.57	45.703	5.2453e-06	1.7644e-05	74.173	26.449	16.997	9.0008	7.5334e-06	13.708	0.0035002	0.0035147	0.00097695	941.9	3.8421e-05	3.853e-05	1015.3	311.22	3.8663e-05	3.8713e-05	642.41	161.15	151.98	53.961	3.9161e-05	73.816	69.138	217.777	13.257	-86.176	-52.658	-35.114	-86.606	-79.866	10.801	11.485	-81.868	-77.718	-76.649	-71.923	-43.238	-75.258	-8191	255	
1338.696	1	1	0	0	0.042089	0.14395	0.17875	0.099902	0.15563	0.24318	0.24268	0.027187	0.14157	0.21563	0.086947	0.23574	0.19299	0.10543	0.042917	0.18584	-2.3563	-3.3208	-2.5729	-2.9292	-3.2354	-2.6292	-3.4146	-3.0104	-2.4854	-3.4021	-2.7896	-3	-3.3063	-2.5625	-3.4667	-2.9813	258.599	140.689	44.746	66.020	245.934	-73.618	38.994	-9.646	261.337	21.755	26.108	-69.342	101.239	-72.122	121.844	242.218	4.2348e-05	0.00072387	0.00028184	111.55	7.9134e-06	8.1145e-06	163.86	45.928	1.2797e-05	5.5497e-06	75.085	26.715	17.105	8.6728	9.849e-06	13.863	0.0035685	0.0035988	0.0010023	961.25	3.9438e-05	3.9554e-05	1037.6	317.91	3.9562e-05	3.9483e-05	652.79	163.43	153.66	54.439	3.9444e-05	74.176	79.369	-73.311	-23.749	-83.907	56.328	103.398	-85.594	-80.450	177.076	110.114	-80.027	-77.763	-75.801	-70.586	-6.488	-74.277	-8191	255	
1338.792	1	1	0	0	0.22482	0.073777	0.1934	0.06912	0.18806	0.15031	0.041297	0.17114	0.24322	0.33462	0.19547	0.016026	0.17429	0.20478	0.12795	0.35638	-2.2208	-3.2812	-2.5938	-2.9646	-3.2958	-2.5896	-3.1813	-3.1021	-2.8375	-3.4854	-2.7271	-2.7979	-3.1813	-2.5979	-3.1375	-3.1042	-68.324	233.591	-13.265	209.810	216.772	214.091	94.934	77.964	114.777	38.133	51.822	204.930	185.820	225.978	-9.385	217.483	8.8844e-05	0.0004107	8.864e-05	111.95	1.2391e-05	8.5051e-06	160.24	47.188	2.0755e-06	5.9179e-06	74.839	26.144	16.964	8.7782	1.1555e-05	13.626	0.0035899	0.0036163	0.0010084	973.34	4.004e-05	4.0206e-05	1054.9	325.62	4.0675e-05	4.0817e-05	673.12	168.2	159.22	56.237	4.0987e-05	76.303	-70.836	-95.099	159.989	-84.229	172.590	101.294	-85.173	-80.156	132.753	109.525	-80.614	-78.080	-76.056	-71.407	48.852	-74.502	-8191	255	
1338.913	1	1	0	0	0.31532	0.23742	0.15559	0.025737	0.24604	0.18597	0.10257	0.069215	0.18636	0.1704	0.1253	0.063523	0.28419	0.19157	0.20603	0.15587	-2.3458	-3.3771	-2.8083	-2.7792	-3.2729	-2.6542	-3.1375	-3.2021	-2.625	-3.4625	-2.9771	-2.675	-3.2458	-2.85	-2.9917	-3.1833	21.072	30.397	-58.071	144.732	30.840	164.369	169.839	250.694	138.873	38.579	-66.542	164.382	165.380	-72.754	-95.642	211.534	0.00035806	0.0012813	0.00013623	116.15	4.5852e-06	3.924e-06	164.65	45.92	6.6857e-06	9.8576e-06	75.235	26.486	16.786	8.6548	2.2846e-06	13.839	0.0037133	0.003739	0.0010378	994.87	4.0938e-05	4.0897e-05	1061.3	326.03	4.0656e-05	4.0564e-05	666.12	166.33	157.2	55.3	4.0054e-05	74.87	21.736	194.514	191.033	-84.714	122.419	65.343	-85.553	-79.067	-59.861	251.927	-83.083	-78.306	-75.026	-71.648	77.626	-75.532	-8191	255	
1339.009	1	1	0	0	0.20965	0.11431	0.16835	0.074487	0.04437	0.066547	0.26456	0.15759	0.28587	0.13603	0.14376	0.12459	0.08336	0.1363	0.14091	0.20261	-2.0229	-3.3083	-2.9333	-2.7188	-3.5229	-2.7687	-2.9604	-3.3208	-2.4562	-3.3333	-3.1458	-2.725	-3.3229	-2.6417	-2.9792	-3.5521	-88.422	14.221	129.553	78.791	119.098	-74.096	208.883	244.167	14.165	168.703	186.285	185.043	25.568	132.447	171.226	35.222	0.00095511	0.00082995	0.00018258	111.22	6.5537e-06	1.3376e-05	164.13	45.906	8.0552e-06	3.7211e-06	74.646	26.427	16.708	8.5977	7.529e-06	13.79	0.003621	0.0036296	0.0010042	959.26	3.9451e-05	3.93e-05	1031.5	316.77	3.9471e-05	3.9503e-05	653.31	163.66	154.52	54.504	3.9586e-05	74.224	16.952	210.823	101.442	-84.188	-75.692	206.746	-86.238	-80.395	118.648	219.607	-82.625	-77.953	-75.733	-70.788	133.951	-75.356	-8191	255	
1339.104	1	1	0	0	0.035166	0.17728	0.3398	0.15858	0.19909	0.072375	0.19581	0.16548	0.30243	0.073422	0.19497	0.19655	0.17071	0.32164	0.068232	0.11733	-2.2292	-3.3063	-3.0875	-2.6625	-3.3688	-2.8354	-2.775	-3.3875	-2.3917	-3.0771	-3.2708	-2.6271	-3.1979	-2.6937	-2.7542	-3.3333	248.626	236.577	74.478	102.302	-83.395	61.900	97.530	72.141	77.737	198.100	236.889	-94.298	67.983	7.219	221.348	95.902	0.0011665	0.00045192	0.00017534	109.6	6.1277e-06	9.6476e-06	164.08	46.269	1.2012e-05	1.7662e-05	72.374	26.392	16.983	8.6168	1.5011e-05	13.829	0.003586	0.0036041	0.0010021	961.6	3.9362e-05	3.9158e-05	1028.3	315.23	3.898e-05	3.8871e-05	642.72	160.82	151.14	53.385	3.8504e-05	72.6	108.217	-74.530	136.358	-85.671	166.593	1.315	-85.305	-80.935	122.428	72.642	-82.303	-78.852	-73.764	-72.408	-28.782	-75.237	-8191	255	
1339.201	1	1	0	0	0.053925	0.14448	0.10921	0.27819	0.092981	0.097018	0.096786	0.26085	0.15141	0.18423	0.069142	0.01207	0.13778	0.10909	0.061453	0.066371	-2.2292	-3.0021	-3.0333	-2.2875	-3.3542	-2.7104	-2.8417	-3.4271	-2.7896	-3.0396	-3.1813	-2.6792	-3.1104	-2.9604	-2.7646	-3.325	225.587	-26.660	82.525	-90.205	-62.602	153.528	250.451	-24.009	109.210	76.453	61.206	-13.891	71.652	167.176	129.874	232.872	0.0006298	0.00039113	0.00044878	113.07	5.7342e-06	1.2119e-05	164.69	46.344	7.778e-06	1.2192e-05	77.104	26.416	16.889	8.8544	9.1256e-06	13.812	0.0034787	0.0034934	0.00097066	935.09	3.8095e-05	3.7943e-05	1000.7	307.5	3.7974e-05	3.792e-05	630.75	158.45	149.33	52.869	3.8229e-05	72.496	110.277	-85.921	34.504	-85.694	239.427	-41.184	-86.652	-78.890	158.139	63.677	-82.503	-78.751	-76.228	-73.526	130.829	-74.593	-8191	255	
1339.296	1	1	0	0	0.068537	0.18218	0.084101	0.17432	0.25337	0.096747	0.13607	0.10435	0.11589	0.10134	0.096392	0.22926	0.18764	0.18265	0.27871	0.15816	-2.2354	-2.8792	-3.2917	-2.4917	-3.1292	-3.0729	-2.725	-3.2125	-2.6854	-2.8312	-3.4188	-2.4479	-3.1208	-2.9271	-2.7333	-3.4854	-86.530	97.548	11.580	133.359	167.547	199.895	221.305	241.953	50.756	-6.544	184.538	93.850	249.806	-29.537	79.070	-1.998	0.00048105	0.0010169	0.0001891	112.22	5.3761e-06	1.6164e-05	169.55	45.213	9.5089e-06	4.9045e-06	75.094	26.591	16.363	8.7196	8.3621e-06	14.03	0.0034846	0.0035078	0.00097722	942.7	3.8578e-05	3.8643e-05	1018.5	313.27	3.8787e-05	3.8743e-05	642.66	161.14	152.26	53.717	3.897e-05	73.384	133.556	-96.445	-26.177	-84.098	10.382	235.266	-86.017	-79.431	21.683	169.946	-82.439	-79.214	-76.253	-71.366	151.174	-75.598	-8191	255	
1339.392	1	1	0	0	0.15749	0.0613	0.040302	0.12399	0.15254	0.024674	0.25409	0.15222	0.19908	0.1322	0.16361	0.25775	0.053097	0.12067	0.21044	0.1561	-2.4667	-2.8104	-3.25	-2.6042	-3.1604	-3.1729	-2.6542	-3.3396	-2.9417	-2.7083	-3.3833	-2.6521	-2.9917	-3.05	-2.525	-3.4437	247.075	-57.815	-92.316	-71.409	-86.349	119.072	64.088	85.050	-1.367	35.004	54.212	211.765	90.182	-95.271	80.285	210.401	0.00041532	0.00085694	0.00012345	110.36	1.0151e-05	9.8337e-06	168.91	47.126	1.4155e-05	2.4908e-05	76.676	26.683	16.834	8.7919	1.2171e-05	14.018	0.0035317	0.0035418	0.0009856	947.23	3.8655e-05	3.8655e-05	1016.8	312.02	3.8635e-05	3.8561e-05	639.31	159.96	150.67	53.295	3.8443e-05	72.562	-13.278	84.159	44.668	-86.664	-64.853	54.105	-85.664	-79.582	14.813	-55.808	-83.067	-77.659	-75.885	-71.263	261.632	-75.240	-8191	255	
1339.513	1	1	0	0	0.1636	0.093737	0.13018	0.1043	0.069876	0.25246	0.099567	0.076139	0.12794	0.096228	0.016132	0.20046	0.095687	0.16964	0.076657	0.23903	-2.5979	-2.6667	-3.2562	-2.4417	-2.8438	-3.2229	-2.5958	-3.3292	-2.7812	-2.7271	-3.3438	-2.5542	-2.7646	-3.2667	-2.475	-3.0854	214.449	189.766	-37.484	256.774	174.096	-2.816	-48.886	208.634	104.404	250.132	241.791	5.507	114.520	111.646	166.231	183.866	0.00052356	0.0011552	0.00023009	110.64	7.3755e-06	1.5072e-05	166.58	46.287	7.7518e-06	6.8411e-06	76.706	26.906	16.794	8.7388	4.8625e-06	14.024	0.0034721	0.0034859	0.0009692	931.92	3.7861e-05	3.7687e-05	994.81	304.58	3.7431e-05	3.7292e-05	620.82	155.33	146.21	51.928	3.725e-05	70.91	-57.574	-44.369	120.569	-84.517	127.681	-36.041	-85.816	-79.883	71.806	51.883	-81.721	-78.898	-75.162	-71.387	95.547	-75.599	-8191	255	
1339.609	1	1	0	0	0.12775	0.13431	0.070303	0.22099	0.23614	0.22953	0.091427	0.18513	0.095087	0.30773	0.22959	0.29125	0.1155	0.17497	0.088781	0.30432	-2.5312	-2.4083	-3.3604	-2.7958	-2.6521	-3.3792	-2.5917	-3.1042	-3.0104	-2.5854	-3.3021	-2.7604	-2.7708	-3.2521	-2.3667	-2.9271	114.363	180.592	58.063	245.821	40.013	-64.385	106.508	202.112	82.088	96.233	204.409	141.419	20.270	-90.913	215.395	80.921	0.00048157	0.00065149	0.00014604	111.36	1.1489e-05	1.047e-05	164.53	45.791	1.2373e-05	1.1323e-05	74.758	26.31	17.328	8.7873	1.1168e-05	13.834	0.0033854	0.0034016	0.00095002	917.06	3.7366e-05	3.7389e-05	988.88	302.7	3.7268e-05	3.7202e-05	619.11	154.96	145.73	51.688	3.7133e-05	70.564	21.976	-25.762	-31.833	-83.545	245.247	109.874	-85.948	-78.942	231.224	27.070	-82.617	-77.323	-76.883	-71.222	15.194	-74.569	-8191	255	
1339.705	1	1	0	0	0.27912	0.060309	0.10112	0.059879	0.40882	0.017391	0.088017	0.17612	0.047027	0.22225	0.34741	0.061869	0.11046	0.022422	0.13605	0.30455	-2.7521	-2.3792	-3.2708	-2.775	-2.5104	-3.3958	-2.6375	-2.8958	-3.2021	-2.6667	-3.2333	-3.0354	-2.6167	-3.3708	-2.5687	-3.0646	166.721	-82.963	168.636	244.993	81.873	-17.086	93.124	217.722	-34.240	200.249	179.486	200.003	236.853	-61.195	-93.516	97.633	0.00044934	0.00015794	0.00033123	108.22	4.5886e-06	7.1885e-06	164.44	45.598	6.2351e-06	1.0056e-05	77.732	26.664	17.087	8.8707	9.8613e-06	13.764	0.0033758	0.0033966	0.00094874	916.55	3.7338e-05	3.7314e-05	987.19	302.58	3.7243e-05	3.721e-05	618.3	155.1	145.88	51.798	3.7097e-05	70.663	216.281	168.224	-75.511	-85.865	70.851	12.936	-85.790	-79.838	147.678	-75.794	-80.277	-78.719	-76.596	-72.003	258.454	-75.549	-8191	255	
1339.801	1	1	0	0	0.30281	0.32382	0.1005	0.025126	0.2278	0.075705	0.11368	0.055003	0.030327	0.12211	0.30614	0.21327	0.11123	0.12016	0.26661	0.25912	-2.775	-2.5812	-3.2146	-2.8604	-2.4292	-3.4604	-2.6521	-2.8646	-3.2271	-2.5125	-3.1188	-3.0146	-2.5042	-3.2479	-2.6021	-2.6979	193.027	97.104	185.577	-56.985	172.474	132.687	52.113	248.639	247.016	-78.362	-61.973	236.032	-94.988	-95.222	-40.687	229.541	0.00055658	0.0002174	0.00043483	111.88	1.149e-05	3.171e-06	164.28	46.936	1.5023e-05	1.0477e-05	75.681	27.038	16.301	9.0715	1.3015e-05	14.053	0.0033747	0.0033868	0.0009424	910.18	3.7014e-05	3.7048e-05	979.35	299.85	3.6893e-05	3.6757e-05	612.8	153.92	144.4	51.346	3.6726e-05	70.239	52.289	255.097	-0.227	-85.622	118.392	-62.257	-85.913	-79.784	119.138	33.249	-82.642	-78.027	-75.816	-70.997	-3.919	-73.495	-8191	255	
1339.922	1	1	0	0	0.35149	0.11371	0.095145	0.12766	0.099506	0.0039865	0.095593	0.098769	0.15832	0.23032	0.25909	0.24744	0.16903	0.065596	0.29153	0.12252	-2.825	-2.575	-3.2042	-3.1896	-2.6979	-3.0667	-2.8042	-2.6375	-3.3812	-2.5417	-3.0917	-3.0292	-2.4625	-3.2146	-2.8979	-2.6354	171.556	244.329	88.498	113.231	-78.230	-69.311	73.406	-76.057	77.357	194.509	-77.049	-71.016	33.302	211.502	226.695	-19.222	0.0008817	0.000558	0.00026357	112.44	1.1648e-05	8.4003e-06	168.96	46.508	7.0675e-06	4.3134e-06	77.418	26.423	16.871	8.9523	9.8134e-06	13.918	0.003342	0.0033617	0.00093795	909.49	3.7085e-05	3.7221e-05	986.04	302.72	3.7383e-05	3.7392e-05	622.45	156.06	146.6	51.923	3.7187e-05	70.779	128.171	178.792	83.591	-85.404	-43.811	98.717	-86.216	-79.162	203.590	179.588	-82.596	-78.156	-76.444	-71.710	60.765	-75.849	-8191	255	
1339.993	1	1	0	0	0.30145	0.33935	0.077366	0.17608	0.16573	0.093999	0.095598	0.24726	0.1125	0.18904	0.13226	0.061522	0.11508	0.17306	0.35369	0.11672	-2.9271	-2.5812	-2.9479	-3.2292	-2.3875	-3.3229	-2.9542	-2.8396	-3.1646	-2.725	-2.9708	-3.2	-2.4875	-3.3125	-2.9375	-2.8688	214.132	12.261	121.543	5.797	223.390	120.470	-92.973	257.218	41.815	39.044	164.812	259.333	-95.751	-88.607	180.846	92.718	0.0006433	0.00047876	8.1208e-05	111.4	5.8843e-06	7.7731e-06	163.37	46.187	1.6966e-05	9.5681e-06	78.157	27.024	16.568	8.7914	2.4393e-05	13.797	0.003366	0.0033779	0.00094007	910.51	3.7045e-05	3.7063e-05	983.32	301.26	3.7191e-05	3.7228e-05	618.87	155.52	146.19	52.005	3.732e-05	71.071	-37.975	-17.877	-21.849	-84.609	-92.939	224.160	-85.877	-80.267	212.132	-45.271	-82.100	-77.941	-75.448	-71.383	18.636	-74.844	-8191	255	
1340.090	1	1	0	0	0.29486	0.10344	0.19037	0.11654	0.34581	0.13431	0.090669	0.20063	0.12032	0.093489	0.41933	0.1903	0.053522	0.094404	0.073438	0.25082	-2.9854	-2.8583	-2.8583	-3.2917	-2.5979	-2.9958	-3.1042	-2.6333	-3.2229	-2.7125	-2.7687	-3.2396	-2.5667	-3.1583	-3.1813	-2.5604	235.403	83.841	87.393	-42.507	240.058	-12.707	175.066	-73.687	4.848	180.171	-61.088	-85.290	106.017	249.681	57.256	-64.613	0.0011722	0.0011638	0.00014679	111.04	1.1931e-05	8.518e-06	165.81	45.359	7.6699e-06	1.01e-05	77.426	26.788	16.941	8.8837	4.857e-06	14.288	0.0034015	0.0034164	0.0009533	920.5	3.7541e-05	3.7556e-05	993.92	305.29	3.7666e-05	3.7626e-05	626.58	157.38	148.19	52.457	3.7685e-05	71.735	23.846	166.834	253.782	-84.654	115.427	187.378	-85.116	-80.181	144.384	150.793	-82.666	-77.951	-77.446	-71.343	131.452	-75.537	-8191	255	
1340.208	1	1	0	0	0.14058	0.15399	0.058218	0.15191	0.19634	0.41883	0.098549	0.33562	0.12131	0.15033	0.36858	0.058091	0.35936	0.10693	0.14222	0.16249	-2.8542	-2.7188	-3.0146	-3.3458	-2.5271	-3.0042	-3.1521	-2.5208	-3.3	-2.9875	-2.7292	-3.2708	-2.5604	-3.0042	-3.0104	-2.4333	87.548	48.810	138.366	244.923	-76.825	-70.491	233.507	-55.722	-13.350	-75.389	240.625	11.898	104.610	23.885	233.576	144.153	0.001189	0.00096146	0.00035202	112.53	7.1888e-07	1.662e-05	167.59	45.29	9.2515e-06	1.0343e-05	76.237	27.379	17.278	8.9699	2.026e-05	13.937	0.0034303	0.0034448	0.00096118	928.89	3.7996e-05	3.8019e-05	1004.4	309.22	3.8325e-05	3.8234e-05	636.6	160.05	150.1	53.344	3.8395e-05	72.815	76.330	34.169	83.771	-83.504	183.226	0.693	-84.720	-79.539	168.815	31.616	-83.773	-77.855	-77.472	-72.410	191.637	-75.264	-8191	255	
1340.305	1	1	0	0	0.167	0.30087	0.064827	0.015763	0.21041	0.18183	0.19136	0.073307	0.20272	0.084797	0.17037	0.11459	0.061046	0.1088	0.16873	0.12383	-2.8625	-2.9688	-2.3625	-3.3479	-2.7292	-2.9792	-3.1958	-2.4479	-3.2687	-2.9229	-2.6417	-3.2479	-2.5542	-2.8854	-3.2062	-2.6937	130.401	78.119	148.371	-63.866	106.128	120.864	193.818	-54.612	219.600	41.567	209.935	166.480	155.356	27.973	106.098	68.097	0.0007638	0.00066272	0.00033874	110.29	4.6631e-06	8.9704e-06	168.96	47.177	1.1317e-05	6.5312e-06	76.428	26.353	16.728	8.8951	9.8078e-06	13.979	0.0034997	0.0035148	0.00098038	945.48	3.867e-05	3.87e-05	1020.8	313.71	3.8982e-05	3.8842e-05	644.69	161.77	151.84	53.798	3.8767e-05	73.363	89.294	11.740	214.824	-85.609	20.067	51.572	-85.761	-79.274	1.897	5.816	-82.162	-77.145	-75.805	-71.173	137.195	-75.270	-8191	255	
1340.401	1	1	0	0	0.28841	0.21523	0.19113	0.1234	0.23988	0.24995	0.093435	0.13595	0.17804	0.13385	0.16152	0.15591	0.18382	0.10643	0.095091	0.092859	-2.7271	-3.1	-2.5771	-3.1937	-2.9271	-2.8333	-3.3708	-2.5875	-3.0021	-3.0229	-2.7375	-3.3375	-2.9313	-2.7375	-3.3146	-2.6063	-81.002	-95.773	142.131	33.709	88.651	220.646	-29.766	212.944	-19.030	259.937	183.746	111.793	5.131	5.969	239.626	242.728	0.00097477	0.0021137	0.00032784	113.91	2.3877e-06	1.3871e-05	166.38	46.217	2.11e-06	9.0414e-06	75.907	27.006	17.358	8.7352	6.0332e-06	13.905	0.0035231	0.0035434	0.00098774	953.12	3.8974e-05	3.9017e-05	1027.8	315.8	3.9253e-05	3.9173e-05	648.11	162.45	152.81	54.11	3.9117e-05	73.751	135.803	182.467	7.222	-84.727	114.365	142.411	-85.155	-80.330	184.645	16.048	-83.803	-78.061	-75.572	-72.113	-7.922	-73.966	-8191	255	
1340.497	1	1	0	0	0.044818	0.16021	0.20588	0.085142	0.15137	0.11542	0.15839	0.18933	0.10802	0.020623	0.25261	0.072471	0.0078892	0.14303	0.14324	0.22764	-2.6	-3.1833	-2.5229	-3.2417	-2.9208	-2.6562	-3.4417	-2.6437	-2.9667	-3.1667	-2.4792	-3.1333	-2.6875	-2.6417	-3.3187	-2.7438	-82.829	146.346	115.483	-67.888	26.878	261.998	208.440	-83.739	-23.021	-89.784	-87.291	-2.221	216.229	180.515	241.812	-20.896	0.00070475	0.0016253	0.00020236	112.39	5.492e-06	1.2271e-05	164.94	45.004	3.8404e-06	4.9185e-06	76.507	26.603	17.177	8.9496	9.5213e-06	13.9	0.0035435	0.0035576	0.00099126	953.95	3.8907e-05	3.899e-05	1027.4	315.45	3.919e-05	3.9027e-05	648.63	162.12	152.29	53.995	3.897e-05	73.405	141.161	-67.785	-15.835	-85.649	4.340	226.328	-84.893	-79.283	-18.273	193.647	-81.596	-78.352	-75.249	-71.486	125.506	-75.190	-8191	255	
1340.593	1	1	0	0	0.19366	0.22638	0.10386	0.12014	0.089951	0.14506	0.33342	0.20437	0.12288	0.13887	0.2142	0.16208	0.13726	0.18914	0.13872	0.30597	-2.4042	-3.1396	-2.525	-3.0062	-3.1167	-2.675	-3.3438	-2.6896	-2.7958	-3.2917	-2.5563	-3.1312	-3.1167	-2.6333	-3.1833	-2.6708	179.695	-64.246	144.812	87.310	235.657	258.247	-63.039	188.399	190.832	-70.654	-47.314	234.599	-95.781	-35.982	116.447	-6.176	0.0010826	0.00017707	0.00046967	109.7	3.5532e-06	1.8347e-05	162.85	47.812	1.4492e-05	3.2149e-06	78.49	26.583	16.845	8.7858	1.2756e-05	14.073	0.0035234	0.003537	0.00098253	945.19	3.857e-05	3.8643e-05	1018.9	312.36	3.8748e-05	3.869e-05	642.58	160.58	151.06	53.61	3.8692e-05	72.969	136.521	177.068	98.338	-86.493	235.898	-76.349	-86.244	-80.918	-71.824	146.877	-82.749	-77.855	-77.347	-70.952	111.975	-75.294	-8191	255	
1340.689	1	1	0	0	0.2199	0.15623	0.21664	0.12603	0.1989	0.030637	0.11492	0.016449	0.13209	0.020181	0.09461	0.18107	0.091329	0.21254	0.14583	0.14893	-2.4958	-3.3021	-2.5646	-3.1063	-3.2208	-2.4792	-3.3417	-2.7708	-2.5896	-3.3063	-2.6	-3.0229	-3.1104	-2.5146	-3.2562	-2.8312	-6.082	138.307	221.764	118.560	-25.268	148.845	163.869	153.624	162.987	124.184	-14.156	-28.881	7.766	97.671	118.813	127.241	0.00060084	0.0010916	0.0003833	112.28	1.1357e-05	6.0038e-06	165.07	46.883	1.5318e-06	1.6411e-05	73.437	27.04	16.739	8.5363	5.9267e-06	13.768	0.0035005	0.0035215	0.00097759	941.67	3.8349e-05	3.8294e-05	1008.4	308.11	3.8102e-05	3.7951e-05	630.01	157.89	148.04	52.504	3.7723e-05	71.518	67.100	138.437	65.650	-84.782	10.273	202.384	-85.705	-80.344	57.251	59.694	-79.917	-76.678	-75.168	-72.171	216.257	-74.480	-8191	255	
1340.785	1	1	0	0	0.34608	0.18841	0.21353	0.27308	0.033299	0.17781	0.10319	0.18938	0.099044	0.20257	0.20606	0.19414	0.12775	0.082654	0.097373	0.25219	-2.0771	-3.3271	-2.6521	-3.0208	-3.1813	-2.4458	-3.1333	-3.0021	-2.6146	-3.3333	-2.6021	-2.7104	-3.2979	-2.6479	-3.2938	-3.0958	-26.102	199.642	-77.266	159.521	-57.766	137.530	121.106	249.376	177.847	63.088	152.923	140.545	185.846	261.827	141.254	254.018	0.0007142	0.00070333	0.00037756	112.03	1.2699e-05	4.8901e-06	170.96	46.114	1.0226e-05	4.5765e-06	76.395	26.502	16.881	8.836	1.1021e-05	13.462	0.0034217	0.0034367	0.0009565	923.32	3.763e-05	3.7575e-05	992.84	303.92	3.7418e-05	3.7377e-05	621.46	155.64	146.16	51.949	3.7241e-05	70.724	69.286	84.025	-23.294	-84.830	15.623	249.863	-86.171	-79.728	142.585	-13.050	-82.597	-79.894	-75.711	-71.205	137.442	-73.625	-8191	255	
1340.881	1	1	0	0	0.25545	0.27986	0.19963	0.22904	0.11319	0.092521	0.16216	0.12585	0.082189	0.044665	0.11259	0.062763	0.14264	0.079975	0.046391	0.11909	-2.4396	-3.1708	-2.6875	-2.8521	-3.4479	-2.5896	-3.1875	-2.975	-2.4708	-3.3208	-2.8125	-2.6875	-3.3542	-2.6583	-3.125	-3.2208	75.479	-8.896	115.387	90.984	-88.642	-43.784	149.006	130.372	2.333	135.352	116.037	-14.251	29.341	59.549	-74.982	144.190	0.00038194	0.0017572	0.00028052	111.19	7.7374e-06	4.0378e-06	164.24	46.831	1.0576e-05	3.5192e-06	76.233	26.672	16.95	8.9654	7.2488e-06	13.679	0.0033795	0.0034027	0.00094759	918.98	3.7464e-05	3.7572e-05	994.14	304.99	3.766e-05	3.7657e-05	625.44	156.83	147.78	52.282	3.7613e-05	71.316	19.077	226.620	79.482	-86.648	9.068	155.577	-85.403	-78.909	-31.537	32.897	-81.983	-77.744	-76.953	-71.484	-40.391	-74.900	-8191	255	
1341.000	1	1	0	0	0.17605	0.097162	0.062987	0.52536	0.2141	0.10441	0.10447	0.070387	0.16474	0.12418	0.15225	0.24147	0.21695	0.092378	0.213	0.052959	-2.1021	-3.3542	-2.9333	-2.6667	-3.2208	-2.6083	-2.8083	-3.1479	-2.4667	-3.225	-2.7354	-2.5583	-3.4146	-2.4417	-2.8333	-3.1625	47.644	197.808	99.758	11.034	23.818	98.186	-6.725	260.121	3.363	80.404	-41.383	174.502	236.049	208.552	108.568	-20.205	0.0012013	0.0018838	0.00039092	110.8	6.7519e-06	1.154e-05	164.69	45.819	6.1444e-06	6.621e-06	76.399	27.335	16.354	8.8125	6.2909e-06	13.884	0.0034167	0.0034408	0.00095737	926.39	3.7834e-05	3.7867e-05	1000.6	307.23	3.8073e-05	3.7975e-05	631.76	158.58	149.27	52.929	3.8175e-05	72.278	51.251	6.575	-14.194	-85.565	22.414	212.982	-86.459	-78.852	50.179	260.659	-81.917	-78.325	-76.548	-71.695	177.431	-73.837	-8191	255	
1341.096	1	1	0	0	0.11768	0.12863	0.027527	0.10052	0.14216	0.24562	0.055743	0.1876	0.21456	0.27648	0.14301	0.055813	0.12776	0.16954	0.021257	0.043336	-2.1937	-3.1083	-2.7396	-2.5208	-3.3146	-2.6583	-2.7646	-3.1479	-2.6729	-3.2104	-3.0292	-2.5187	-3.3604	-2.8646	-2.7083	-3.2104	-56.897	120.147	72.097	-29.792	-27.746	24.272	-84.251	-25.903	190.094	44.734	253.051	112.819	94.777	232.481	-49.181	107.348	0.00056443	0.0013804	0.0001629	109.38	3.4059e-06	1.1974e-05	169.47	46.034	8.8709e-06	5.396e-06	77.22	26.296	16.973	8.8567	1.4704e-05	14.02	0.0034659	0.0034719	0.00096432	930.8	3.802e-05	3.8021e-05	1002.6	307.19	3.7952e-05	3.7822e-05	628.16	157.48	147.9	52.283	3.7534e-05	71.285	5.767	61.929	1.685	-84.010	156.539	42.677	-85.793	-79.804	140.115	-67.749	-81.859	-78.455	-77.483	-71.186	109.873	-74.404	-8191	255	
1341.194	1	1	0	0	0.14169	0.083203	0.15314	0.075998	0.12836	0.13519	0.21126	0.13496	0.23585	0.075874	0.10039	0.1277	0.16593	0.048165	0.026907	0.18458	-2.1896	-3.1771	-3.1667	-2.5125	-3.3771	-2.7854	-2.6375	-3.2812	-2.6042	-3.025	-3.1479	-2.4813	-3.1312	-2.7729	-2.725	-3.3812	30.721	160.804	81.690	93.306	-36.775	-81.813	-21.456	175.850	89.549	-14.351	97.565	-94.922	93.889	193.914	197.275	238.239	0.00038196	0.00066278	0.00019793	110.88	8.1622e-06	5.833e-06	165.55	46.063	1.2649e-05	1.2552e-05	75.186	26.948	16.568	8.9118	4.3213e-06	13.941	0.0034073	0.0034185	0.00095074	921.22	3.767e-05	3.7713e-05	997.77	307.58	3.8027e-05	3.8027e-05	632.48	158.58	149.37	52.913	3.8095e-05	72.179	115.024	-92.261	56.156	-84.848	232.672	42.220	-85.309	-78.902	47.007	137.948	-79.829	-78.135	-75.521	-71.758	32.209	-75.102	-8191	255	
1341.289	1	1	0	0	0.11957	0.26937	0.020278	0.1014	0.052221	0.14611	0.16408	0.13348	0.010125	0.28303	0.23115	0.12123	0.18197	0.23231	0.050293	0.10782	-2.3208	-3.0563	-3.2583	-2.4437	-3.1875	-2.9167	-2.6833	-3.4	-2.7062	-2.9021	-3.1813	-2.6562	-3	-3.0604	-2.5583	-3.3063	159.108	184.713	-86.049	45.820	-56.279	-93.860	-88.733	-65.173	-91.534	-80.124	26.435	191.492	-59.632	98.105	55.565	-83.640	0.0006568	0.00065856	0.00028078	111.59	6.6715e-06	1.345e-05	167.41	46.486	1.2948e-05	1.0439e-05	73.588	26.118	16.393	8.8851	1.0249e-05	13.836	0.0034558	0.003464	0.00096284	928.45	3.7838e-05	3.7817e-05	998.14	307.56	3.7996e-05	3.7921e-05	631.3	158.29	149.19	52.844	3.7997e-05	72.122	42.025	-14.498	-28.836	-84.668	-75.473	51.364	-84.996	-80.115	48.638	4.826	-81.692	-77.688	-76.383	-70.865	238.588	-75.035	-8191	255	
1341.385	1	1	0	0	0.09509	0.22403	0.29989	0.18632	0.091345	0.22895	0.1201	0.16589	0.1254	0.12392	0.16048	0.28364	0.22603	0.032346	0.026338	0.11995	-2.2896	-2.7667	-3.325	-2.6021	-3.2021	-3.0667	-2.5896	-3.2271	-2.7729	-2.6854	-3.2104	-2.4688	-3.0729	-3.1271	-2.3812	-3.1542	56.185	161.543	189.308	115.170	167.301	96.417	101.830	-48.603	145.279	166.352	189.370	174.306	-57.367	-36.578	224.530	-12.874	0.00044313	0.0019398	0.00025753	110.8	2.5069e-06	1.1944e-05	163.34	46.46	4.4276e-06	1.4205e-05	75.421	26.667	16.69	8.7904	5.2061e-06	13.839	0.0034446	0.0034529	0.00096111	927.87	3.7792e-05	3.7867e-05	1001	307.97	3.818e-05	3.8193e-05	636.55	159.78	150.5	53.431	3.8588e-05	73.145	-94.004	254.933	31.732	-85.468	-18.038	241.201	-85.455	-79.691	69.072	-25.788	-83.379	-77.514	-77.111	-71.712	128.986	-74.396	-8191	255	
1341.481	1	1	0	0	0.26362	0.079029	0.15263	0.076398	0.27331	0.17042	0.19336	0.12291	0.043508	0.15412	0.22129	0.29375	0.20408	0.21605	0.072273	0.033398	-2.5104	-2.85	-3.2812	-2.5604	-2.8917	-3.2104	-2.525	-3.0542	-3.0292	-2.6	-3.3708	-2.6792	-2.9792	-3.3187	-2.5958	-3.3292	-67.585	141.768	118.977	98.129	33.312	72.371	221.496	228.636	-89.003	138.585	163.696	-62.043	16.240	177.075	-81.436	146.422	0.00035634	0.00086554	8.2608e-05	111.82	7.2184e-06	2.7345e-06	161.69	46.472	1.6014e-05	8.3472e-06	76.02	27.155	16.9	8.7893	8.3534e-06	14.121	0.0035045	0.0035187	0.00098199	945.16	3.8741e-05	3.8798e-05	1023.6	315.15	3.9192e-05	3.9186e-05	652.24	163.42	153.94	54.511	3.9512e-05	74.48	67.834	19.846	-34.647	-85.561	187.336	25.240	-85.845	-79.305	78.674	-22.408	-83.219	-78.583	-76.145	-72.246	85.268	-74.862	-8191	255	
#DATA ENDS
