BOXY.EXE: ISS Imagent and Oximeter Data Acquisition Program Version 0.80
Ascii Record File

#ACQ INFORMATION
2  Detector Channels 
16  External MUX Channels 
1  Auxiliary Channels 
5000  Waveform (CCF) Frequency (Hz)
1  Waveforms Skipped 
30  Waveforms Averaged 
1  Cycles Averaged 
16  Acquisitions per Waveform 
10.0806  Updata Rate (Hz) 

#FILE INFORMATION
TRUE -- External MUX Channel results are PARSED.
FALSE -- AC DC and Phase are NOT grouped.
TRUE -- Companion Program Settings File CREATED.
FALSE -- AC data not excluded
FALSE -- DC data not excluded
FALSE -- Phase data not excluded
FALSE -- Auxillary Chn. data not excluded
Tab delimiters

#CALIBRATION STATE
TRUE -- Waveform Calibration Values APPLIED.


#AUX CALIBRATION VALUES
Val Type	aux-1	

Term	1.0000e+00	
Factor	0.0000e+00	


#WF CALIBRATION VALUES
A = Detector Channel
Val Type	A-AC1	A-AC2	A-AC3	A-AC4	A-AC5	A-AC6	A-AC7	A-AC8	A-AC9	A-AC10	A-AC11	A-AC12	A-AC13	A-AC14	A-AC15	A-AC16	A-DC1	A-DC2	A-DC3	A-DC4	A-DC5	A-DC6	A-DC7	A-DC8	A-DC9	A-DC10	A-DC11	A-DC12	A-DC13	A-DC14	A-DC15	A-DC16	A-Ph1	A-Ph2	A-Ph3	A-Ph4	A-Ph5	A-Ph6	A-Ph7	A-Ph8	A-Ph9	A-Ph10	A-Ph11	A-Ph12	A-Ph13	A-Ph14	A-Ph15	A-Ph16	

Term	0.00000e+00	0.00000e+00	0.00000e+00	0.00000e+00	0.00000e+00	0.00000e+00	0.00000e+00	0.00000e+00	0.00000e+00	0.00000e+00	0.00000e+00	0.00000e+00	0.00000e+00	0.00000e+00	0.00000e+00	0.00000e+00	0.00000e+00	0.00000e+00	0.00000e+00	0.00000e+00	0.00000e+00	0.00000e+00	0.00000e+00	0.00000e+00	0.00000e+00	0.00000e+00	0.00000e+00	0.00000e+00	0.00000e+00	0.00000e+00	0.00000e+00	0.00000e+00	0.00000e+00	0.00000e+00	0.00000e+00	0.00000e+00	0.00000e+00	0.00000e+00	0.00000e+00	0.00000e+00	0.00000e+00	0.00000e+00	0.00000e+00	0.00000e+00	0.00000e+00	0.00000e+00	0.00000e+00	0.00000e+00	
Factor	1.00000e+00	1.00000e+00	1.00000e+00	1.00000e+00	1.00000e+00	1.00000e+00	1.00000e+00	1.00000e+00	1.00000e+00	1.00000e+00	1.00000e+00	1.00000e+00	1.00000e+00	1.00000e+00	1.00000e+00	1.00000e+00	1.00000e+00	1.00000e+00	1.00000e+00	1.00000e+00	1.00000e+00	1.00000e+00	1.00000e+00	1.00000e+00	1.00000e+00	1.00000e+00	1.00000e+00	1.00000e+00	1.00000e+00	1.00000e+00	1.00000e+00	1.00000e+00	X	X	X	X	X	X	X	X	X	X	X	X	X	X	X	X	

B = Detector Channel
Val Type	B-AC1	B-AC2	B-AC3	B-AC4	B-AC5	B-AC6	B-AC7	B-AC8	B-AC9	B-AC10	B-AC11	B-AC12	B-AC13	B-AC14	B-AC15	B-AC16	B-DC1	B-DC2	B-DC3	B-DC4	B-DC5	B-DC6	B-DC7	B-DC8	B-DC9	B-DC10	B-DC11	B-DC12	B-DC13	B-DC14	B-DC15	B-DC16	B-Ph1	B-Ph2	B-Ph3	B-Ph4	B-Ph5	B-Ph6	B-Ph7	B-Ph8	B-Ph9	B-Ph10	B-Ph11	B-Ph12	B-Ph13	B-Ph14	B-Ph15	B-Ph16	

Term	0.00000e+00	0.00000e+00	0.00000e+00	0.00000e+00	0.00000e+00	0.00000e+00	0.00000e+00	0.00000e+00	0.00000e+00	0.00000e+00	0.00000e+00	0.00000e+00	0.00000e+00	0.00000e+00	0.00000e+00	0.00000e+00	0.00000e+00	0.00000e+00	0.00000e+00	0.00000e+00	0.00000e+00	0.00000e+00	0.00000e+00	0.00000e+00	0.00000e+00	0.00000e+00	0.00000e+00	0.00000e+00	0.00000e+00	0.00000e+00	0.00000e+00	0.00000e+00	-2.40346e+02	-8.60789e+01	-1.37580e+02	-1.81794e+02	-9.56072e+01	-6.15362e+01	-1.55227e+02	-1.62015e+02	-7.62495e+01	-2.08821e+01	-1.76015e+02	-1.69664e+02	-1.83008e+02	-1.76920e+02	-1.10967e+02	-1.49451e+02	
Factor	4.41567e-05	7.28733e-05	1.84622e-05	1.45759e-01	5.45265e-07	6.77868e-07	1.58711e-01	4.73567e-02	6.69312e-07	6.60670e-07	1.20289e-01	2.57934e-02	2.57211e-02	8.47169e-03	7.26230e-07	1.17836e-02	2.97384e-07	2.98781e-07	8.31620e-08	7.06932e-02	3.27491e-09	3.27375e-09	7.22083e-02	2.26007e-02	3.28093e-09	3.27436e-09	4.87179e-02	1.14701e-02	1.15018e-02	3.84075e-03	3.27804e-09	5.10611e-03	X	X	X	X	X	X	X	X	X	X	X	X	X	X	X	X	



#DISTANCE SETTINGS
A = Detector Channel
A-1	A-2	A-3	A-4	A-5	A-6	A-7	A-8	A-9	A-10	A-11	A-12	A-13	A-14	A-15	A-16	

2.5000e+00	3.0000e+00	2.5000e+00	3.0000e+00	2.0000e+00	3.0000e+00	1.5000e+00	3.0000e+00	3.0000e+00	3.0000e+00	3.0000e+00	3.0000e+00	3.0000e+00	3.0000e+00	1.5000e+00	3.0000e+00	

B = Detector Channel
B-1	B-2	B-3	B-4	B-5	B-6	B-7	B-8	B-9	B-10	B-11	B-12	B-13	B-14	B-15	B-16	

1.0000e+01	1.0000e+01	1.0000e+01	1.4400e+00	1.0000e+01	1.0000e+01	1.5100e+00	1.9400e+00	1.0000e+01	1.0000e+01	1.9900e+00	2.4900e+00	2.4100e+00	2.9000e+00	1.0000e+01	2.9800e+00	




#DATA BEGINS
time	group	step	mark	flag	A-AC1	A-AC2	A-AC3	A-AC4	A-AC5	A-AC6	A-AC7	A-AC8	A-AC9	A-AC10	A-AC11	A-AC12	A-AC13	A-AC14	A-AC15	A-AC16	A-DC1	A-DC2	A-DC3	A-DC4	A-DC5	A-DC6	A-DC7	A-DC8	A-DC9	A-DC10	A-DC11	A-DC12	A-DC13	A-DC14	A-DC15	A-DC16	A-Ph1	A-Ph2	A-Ph3	A-Ph4	A-Ph5	A-Ph6	A-Ph7	A-Ph8	A-Ph9	A-Ph10	A-Ph11	A-Ph12	A-Ph13	A-Ph14	A-Ph15	A-Ph16	B-AC1	B-AC2	B-AC3	B-AC4	B-AC5	B-AC6	B-AC7	B-AC8	B-AC9	B-AC10	B-AC11	B-AC12	B-AC13	B-AC14	B-AC15	B-AC16	B-DC1	B-DC2	B-DC3	B-DC4	B-DC5	B-DC6	B-DC7	B-DC8	B-DC9	B-DC10	B-DC11	B-DC12	B-DC13	B-DC14	B-DC15	B-DC16	B-Ph1	B-Ph2	B-Ph3	B-Ph4	B-Ph5	B-Ph6	B-Ph7	B-Ph8	B-Ph9	B-Ph10	B-Ph11	B-Ph12	B-Ph13	B-Ph14	B-Ph15	B-Ph16	aux-1	digaux	

1705.719	1	1	0	768	0.21926	0.075238	0.19551	0.21333	0.2769	0.19397	0.40933	0.25445	0.13895	0.032388	0.053166	0.13704	0.03441	0.092942	0.075832	0.12846	-3.1417	-3.1521	-2.8396	-3.5062	-2.9062	-3.3167	-3.5042	-2.8979	-3.4333	-3.1604	-2.8563	-3.6458	-2.9104	-3.1	-3.3521	-2.95	279.010	198.000	33.781	378.677	339.144	93.568	32.333	356.830	262.065	266.431	383.374	317.282	187.689	379.618	297.165	287.055	0.00073688	0.00057844	0.0001172	741.56	5.1775e-06	6.3124e-06	1164.4	264.07	1.0691e-05	5.9318e-06	482.94	174.57	98.866	33.407	7.4091e-07	68.104	0.00047737	0.00047489	0.00013274	684.86	5.162e-06	5.2007e-06	1014.8	238.71	5.1951e-06	5.0937e-06	406.9	146.62	89.216	30.152	5.1868e-06	56.435	358.476	241.604	283.648	41.441	32.363	240.228	41.036	46.650	158.065	335.210	44.257	48.777	51.009	55.315	132.841	52.374	-8191	255	
1705.815	1	1	0	0	0.17028	0.018755	0.18059	0.11754	0.17037	0.21329	0.18988	0.2187	0.37707	0.11714	0.24647	0.041397	0.2324	0.21428	0.077361	0.093089	-2.8312	-2.9896	-2.6188	-3.6396	-2.875	-2.9938	-3.6646	-2.9437	-3.4208	-3.2042	-2.8021	-3.5292	-3.025	-2.8521	-3.3979	-2.6875	44.425	50.218	130.185	303.949	126.383	159.670	64.416	354.801	286.081	326.808	151.388	270.257	246.918	388.542	112.201	350.120	0.0011878	0.0016812	0.00010416	737.14	4.419e-06	2.6951e-06	1168.5	267.28	1.2427e-05	7.6987e-06	485.72	175.31	98.628	33.392	1.1518e-05	67.919	0.00047447	0.00047317	0.00013078	687.13	5.1434e-06	5.1421e-06	1018.5	239.13	5.1643e-06	5.1357e-06	407.53	146.54	88.813	30.216	5.0941e-06	56.496	33.255	162.758	79.163	41.398	104.090	151.894	40.371	46.775	380.836	355.138	44.956	49.289	50.837	55.938	124.396	52.391	-8191	255	
1705.911	1	1	0	0	0.26656	0.1168	0.19581	0.20775	0.2786	0.42079	0.28627	0.038047	0.045896	0.15747	0.19999	0.24653	0.41936	0.15477	0.086229	0.12113	-2.8333	-3.3021	-2.6271	-3.3458	-3.0083	-2.8208	-3.7125	-2.7812	-3.1292	-3.2062	-2.675	-3.5062	-2.9625	-2.7812	-3.4583	-3	352.132	114.927	335.594	386.981	205.570	45.897	368.165	248.655	128.474	58.466	354.497	339.722	327.164	287.088	294.643	330.406	0.001182	0.00085675	0.00011812	743.14	8.3009e-06	5.1451e-06	1167.1	264.36	1.762e-05	6.9468e-06	488.44	173.42	99.602	33.402	7.2926e-06	67.843	0.0004659	0.00046829	0.0001299	688.37	5.1195e-06	5.109e-06	1017	238.9	5.1456e-06	5.1569e-06	406.64	146.18	89.535	30.279	5.1544e-06	56.486	384.773	32.954	77.013	41.972	92.323	217.579	40.521	46.458	298.003	350.095	44.268	49.153	50.814	55.853	95.600	52.904	-8191	255	
1706.008	1	1	0	0	0.18673	0.17103	0.20465	0.091722	0.12642	0.053925	0.25083	0.11656	0.012467	0.23211	0.1339	0.29424	0.13496	0.32913	0.16344	0.19702	-2.575	-3.3021	-2.7604	-3.3812	-3.2271	-2.7125	-3.5854	-2.8312	-3.0271	-3.4854	-2.6708	-3.4688	-3.1562	-2.9979	-3.5812	-2.9792	386.783	268.911	335.461	302.164	273.602	123.642	323.387	282.541	58.430	195.791	165.480	366.496	83.838	384.983	296.014	344.378	0.001254	0.0011987	0.00028199	742.28	7.0322e-06	7.8062e-06	1163.6	267.76	7.3982e-06	6.3798e-06	485.89	174.73	100.25	33.385	6.7575e-06	67.416	0.0004748	0.0004734	0.00013241	689.32	5.194e-06	5.1774e-06	1018.4	240.56	5.2539e-06	5.1966e-06	409.43	147.06	89.847	30.382	5.2849e-06	56.537	356.735	294.925	354.139	42.229	144.606	95.698	40.790	46.433	265.065	354.794	43.623	48.932	50.763	55.641	268.841	52.195	-8191	255	
1706.102	1	1	0	0	0.36284	0.23502	0.3682	0.37118	0.12728	0.070388	0.10655	0.16128	0.12976	0.13877	0.045698	0.33095	0.30282	0.016497	0.17109	0.13978	-2.3708	-3.4458	-2.6583	-3.4021	-3.3458	-2.6875	-3.5479	-2.9917	-2.7479	-3.4479	-2.6979	-3.2	-3.3625	-2.6292	-3.4625	-3.1854	31.871	332.929	323.057	331.954	197.074	157.539	32.152	344.761	307.358	159.069	220.276	318.918	128.385	372.360	104.554	205.465	0.00082426	0.00037693	0.00019356	742.78	6.8496e-06	7.8099e-06	1162.3	267.34	9.2758e-06	2.5794e-06	483.21	175.22	99.77	33.482	1.1011e-05	67.966	0.00048188	0.00047722	0.00013303	690.43	5.2397e-06	5.2262e-06	1018.6	240.58	5.2391e-06	5.2384e-06	406.93	146.78	89.792	30.382	5.2226e-06	56.722	372.386	99.168	135.701	41.944	46.817	179.515	40.762	46.467	140.888	103.949	44.404	49.092	50.419	55.355	106.956	52.774	-8191	255	
1706.200	1	1	0	0	0.18222	0.22681	0.066736	0.22658	0.084615	0.20287	0.26196	0.023091	0.15267	0.11002	0.13941	0.21768	0.14634	0.087714	0.12438	0.15141	-2.3604	-3.2667	-2.5938	-3.1063	-3.1688	-2.4813	-3.5646	-3.0667	-2.7979	-3.3417	-2.9271	-3.1688	-3.4188	-2.6667	-3.4521	-3.2812	213.496	194.421	292.000	308.762	300.747	118.143	350.934	318.271	147.880	292.402	345.963	375.496	89.731	201.328	293.481	276.703	0.00099039	0.00044764	3.3234e-05	743.48	4.0977e-06	6.8206e-06	1160.5	269.17	7.6543e-06	6.7868e-06	490.27	175	100.34	33.369	4.4474e-06	68.384	0.00047946	0.0004799	0.00013261	692.12	5.2474e-06	5.2325e-06	1019	241.52	5.227e-06	5.2564e-06	410.15	147.95	89.997	30.429	5.2625e-06	57.104	376.546	326.214	132.582	42.227	129.118	183.322	40.950	46.512	150.800	197.094	43.835	49.065	51.049	55.797	63.441	52.641	-8191	255	
1706.319	1	1	0	0	0.21163	0.14412	0.21914	0.18608	0.13246	0.10785	0.24487	0.28775	0.11266	0.15635	0.12113	0.23883	0.1269	0.18999	0.2186	0.22295	-2.4271	-3.575	-2.7125	-2.9771	-3.4354	-2.6437	-3.4125	-3.3646	-2.5979	-3.525	-2.8354	-3.0604	-3.4208	-2.5021	-3.1917	-3.225	155.460	160.334	157.506	317.839	116.827	56.876	308.538	69.435	212.602	70.443	284.172	360.167	195.153	167.094	291.140	243.153	0.0016128	0.00023624	5.0932e-05	739.39	6.929e-06	4.4698e-06	1165.6	267.61	1.6532e-05	8.1732e-06	489.02	175.03	100.67	33.521	1.6696e-06	67.452	0.00048235	0.00047931	0.00013405	688.71	5.2894e-06	5.3202e-06	1021.4	241.78	5.3038e-06	5.2744e-06	410.97	147.85	90.103	30.475	5.2203e-06	56.673	44.921	124.176	119.764	41.651	106.821	337.519	40.743	46.401	177.507	163.178	44.129	49.270	50.790	55.632	155.566	52.882	-8191	255	
1706.415	1	1	0	0	0.13273	0.18366	0.073557	0.1204	0.18028	0.32926	0.18696	0.25232	0.084869	0.068644	0.20613	0.064983	0.20549	0.33189	0.1361	0.13984	-2.1854	-3.275	-2.9167	-2.7146	-3.3271	-2.6208	-3.1646	-3.4354	-2.7062	-3.3229	-3.175	-2.9208	-3.5792	-2.8208	-3.1312	-3.2292	48.859	238.634	259.262	171.449	192.225	353.981	41.698	44.226	217.329	102.087	325.381	251.151	42.911	377.121	193.499	343.763	0.000695	0.00068944	0.00027469	731.96	1.161e-05	1.264e-05	1160.1	268.35	5.2249e-06	1.4836e-05	490.65	174.21	100.55	33.423	1.0297e-05	67.732	0.00048146	0.00047344	0.00013119	684.41	5.2036e-06	5.1899e-06	1013.7	240	5.1657e-06	5.1925e-06	408.22	146.46	89.426	30.226	5.1886e-06	56.341	47.791	382.698	383.253	41.770	130.727	235.436	40.788	46.530	306.089	262.029	44.135	49.141	50.328	56.266	62.859	52.358	-8191	255	
1706.511	1	1	0	0	0.18181	0.14629	0.096748	0.37002	0.064743	0.084522	0.12027	0.28936	0.05536	0.20988	0.23676	0.041984	0.081742	0.15708	0.17235	0.24436	-2.1854	-3.3063	-3.1	-2.7917	-3.4938	-2.6896	-3.025	-3.4604	-2.875	-3.1958	-3.3312	-2.8771	-3.5646	-2.9208	-2.6646	-3.4688	354.848	226.525	52.954	34.425	222.914	128.025	337.390	182.590	253.182	343.560	342.193	101.324	357.365	72.221	62.402	114.806	0.0015949	0.00063494	0.0001206	738	7.685e-06	4.3948e-06	1154.7	266.43	2.9691e-06	5.1294e-06	485.52	174.27	98.426	33.32	1.4161e-05	67.642	0.00047302	0.00047193	0.00012983	684.58	5.1665e-06	5.1235e-06	1009.2	239.16	5.1015e-06	5.1131e-06	406.5	146.31	88.947	30.135	5.1561e-06	56.423	376.668	33.601	183.401	41.659	370.408	147.549	40.410	46.701	208.039	260.918	44.262	48.728	50.834	55.259	129.957	52.253	-8191	255	
1706.607	1	1	0	0	0.16307	0.12223	0.12594	0.17168	0.08644	0.11288	0.32182	0.20404	0.31072	0.10544	0.1084	0.35407	0.072879	0.035388	0.24563	0.23982	-2.2208	-3.3146	-3.2208	-2.7104	-3.4562	-3.0167	-2.9458	-3.4833	-2.6771	-3.2271	-3.3667	-2.7938	-3.3896	-3	-2.6958	-3.45	118.226	256.814	345.375	385.031	147.548	176.967	354.791	284.399	35.681	252.421	366.592	331.245	243.726	345.989	379.675	338.276	0.00061495	0.00069176	0.00012445	736.19	1.272e-06	1.0817e-05	1155.3	267.7	5.0942e-06	8.2518e-06	488.9	175.69	99.306	33.588	6.3132e-06	68.185	0.0004726	0.00046969	0.00013016	683.04	5.1336e-06	5.0639e-06	1011	239.39	5.1243e-06	5.0658e-06	407.11	146.68	88.923	30.334	5.0588e-06	56.517	42.040	53.299	142.879	41.976	317.828	211.393	40.805	46.405	266.575	164.705	43.341	48.941	51.029	55.221	293.252	52.784	-8191	255	
1706.703	1	1	0	0	0.12558	0.11622	0.13978	0.099121	0.10559	0.06452	0.49825	0.33543	0.17875	0.03259	0.28436	0.22411	0.34715	0.2387	0.16757	0.19081	-2.3208	-3.1625	-3.1729	-2.9188	-3.2979	-3.0729	-2.8708	-3.7208	-2.8875	-3.1521	-3.5563	-2.6583	-3.4313	-3.2438	-2.7625	-3.5708	53.850	30.428	73.810	295.981	268.545	371.877	318.658	266.805	237.391	338.883	306.375	317.226	369.247	43.214	248.008	328.445	0.0010364	0.00024154	0.00020073	735.86	8.7628e-06	5.0319e-06	1155.7	267.2	9.0587e-06	6.6793e-06	482.44	173.22	99.665	33.538	1.2315e-05	68.185	0.00046366	0.00046334	0.00012811	683.09	5.0828e-06	5.0747e-06	1009.5	239.37	5.0807e-06	5.1037e-06	405.61	145.74	89.237	30.247	5.1071e-06	56.372	386.819	266.575	70.887	41.755	173.169	320.319	41.278	46.723	107.664	295.494	44.355	48.893	50.613	55.824	168.876	52.694	-8191	255	
1706.800	1	1	0	0	0.16472	0.18651	0.082788	0.29165	0.213	0.18353	0.23765	0.2435	0.17307	0.23968	0.26933	0.10838	0.14998	0.077225	0.40803	0.22337	-2.4104	-2.9042	-3.3125	-2.7125	-3.2021	-2.9667	-2.9396	-3.5792	-2.8646	-3.0771	-3.6104	-2.9042	-3.2146	-3.3396	-2.4479	-3.4333	353.383	116.140	360.285	371.094	264.575	329.249	345.179	374.272	92.501	235.810	131.101	308.947	322.281	155.556	159.290	360.332	0.0011925	0.00037484	0.00030226	740.3	6.2415e-06	7.8406e-06	1161.6	268.44	1.1463e-05	2.688e-06	480.35	173.49	101.1	33.792	1.508e-06	68.269	0.00046507	0.00046653	0.00012913	683.89	5.0867e-06	5.1037e-06	1011.6	240.58	5.1385e-06	5.1056e-06	405.14	146.39	89.827	30.332	5.0864e-06	56.767	381.239	194.416	80.833	42.052	60.071	125.466	40.593	46.512	123.445	195.568	44.215	49.252	50.878	55.966	61.494	52.249	-8191	255	
1706.896	1	1	0	0	0.11468	0.10356	0.27921	0.2922	0.042342	0.1954	0.23524	0.18368	0.065187	0.2106	0.13692	0.097172	0.07609	0.33426	0.39939	0.093996	-2.6312	-2.6583	-3.4667	-2.7354	-3.2646	-3.4583	-2.75	-3.4375	-2.9521	-2.8563	-3.3729	-2.6833	-3.1958	-3.3208	-2.7792	-3.5583	296.668	211.895	243.766	321.070	250.989	306.562	39.518	330.311	249.237	285.691	331.878	289.453	257.156	320.062	131.090	297.306	0.00093324	0.0011643	0.00042061	741.78	8.713e-06	1.3553e-05	1157.3	269.01	7.4447e-06	2.0379e-05	485.76	173.62	101.2	33.795	1.2259e-05	68.22	0.00046664	0.00046245	0.00012935	683.5	5.0871e-06	5.0915e-06	1012.3	241.03	5.1161e-06	5.1139e-06	406.44	146.4	89.812	30.576	5.1193e-06	56.962	387.496	258.144	201.992	41.767	73.281	263.474	40.359	46.624	170.799	223.830	44.332	48.729	50.886	55.710	82.307	52.715	-8191	255	
1707.015	1	1	0	0	0.22603	0.16393	0.22221	0.12537	0.097812	0.11049	0.13574	0.19917	0.19288	0.010992	0.234	0.26213	0.098182	0.3662	0.18039	0.19874	-2.6646	-2.6479	-3.4146	-2.8937	-3.1417	-3.2542	-2.7792	-3.3563	-3.1354	-2.6979	-3.4313	-2.8563	-2.9917	-3.5104	-2.6437	-3.4792	266.504	265.075	311.355	296.646	85.350	307.703	251.435	289.552	80.806	199.758	266.255	339.540	45.609	361.206	114.909	385.393	0.0015793	0.00054564	0.00022604	738.32	9.1161e-06	7.7778e-06	1159.4	269.54	4.7139e-06	3.6152e-06	491.75	175.93	101.49	34.001	4.8955e-06	68.758	0.00046709	0.00046627	0.00013163	686.75	5.1624e-06	5.159e-06	1013.6	241.76	5.1537e-06	5.1896e-06	409.64	147.35	90.688	30.691	5.1985e-06	57.305	45.079	100.053	157.364	41.616	379.243	215.762	40.997	46.462	150.857	70.057	44.433	48.911	50.645	55.656	99.867	52.387	-8191	255	
1707.111	1	1	0	0	0.15939	0.26119	0.18597	0.25765	0.074301	0.021644	0.16062	0.12629	0.13471	0.2767	0.031296	0.13218	0.16561	0.13702	0.1098	0.26993	-2.5958	-2.575	-3.3146	-2.9333	-2.7875	-3.3167	-2.8083	-3.3667	-3.0687	-2.6375	-3.4542	-3.1583	-2.8375	-3.6125	-2.6146	-3.1271	127.297	265.881	213.014	355.812	140.141	48.743	322.960	79.188	318.993	358.941	284.770	370.382	344.339	39.690	155.133	332.921	0.0011727	0.0014488	0.00038573	739.46	4.5783e-06	6.8254e-06	1157.4	269.03	6.266e-06	3.9636e-06	489.03	174.29	100.5	33.932	2.5319e-06	68.335	0.00047267	0.00047428	0.00013222	686.07	5.1901e-06	5.1644e-06	1011.7	241.17	5.2257e-06	5.1995e-06	409.96	146.53	90.1	30.656	5.1526e-06	56.993	369.404	274.914	368.323	41.512	217.888	269.609	40.632	47.184	381.472	134.184	44.441	48.522	50.493	55.635	244.138	52.584	-8191	255	
1707.207	1	1	0	0	0.050139	0.26852	0.1555	0.14402	0.18505	0.066829	0.13609	0.11685	0.079718	0.054273	0.31032	0.28972	0.17078	0.18641	0.11759	0.26955	-3.0229	-2.5333	-3.4583	-3.1167	-2.8812	-3.5208	-2.8937	-3.0375	-3.3271	-2.5625	-3.2687	-2.9813	-2.6292	-3.3229	-2.7	-3.0271	336.727	103.225	130.646	31.408	121.059	257.549	30.075	56.913	312.444	249.010	361.956	338.330	85.004	257.888	49.858	270.687	0.0013827	0.00045376	0.00028399	732.59	3.6884e-06	5.5497e-06	1153.4	268.21	5.4002e-06	8.3586e-06	488.48	175.24	100.96	33.843	7.7432e-06	68.814	0.00047338	0.0004696	0.00013101	684.65	5.1522e-06	5.163e-06	1009.1	241.37	5.1422e-06	5.1855e-06	408.07	146.72	90.41	30.681	5.1898e-06	57.128	381.849	378.275	342.277	41.582	249.618	168.642	40.742	46.929	162.251	284.696	44.107	48.570	51.220	55.469	112.285	52.721	-8191	255	
1707.280	1	1	0	0	0.12555	0.13043	0.073554	0.17712	0.039633	0.1565	0.4602	0.099319	0.24512	0.23714	0.33523	0.27949	0.27168	0.21626	0.27981	0.18148	-2.8292	-2.6562	-3.4083	-3.1688	-2.6937	-3.4708	-2.7167	-3.0229	-3.3937	-2.6271	-3.4313	-3.3708	-2.5917	-3.4188	-2.8708	-2.8542	114.542	369.741	297.800	346.735	335.861	56.704	305.342	65.378	184.939	269.590	60.413	29.937	363.821	46.999	65.066	288.634	0.0007363	0.0009551	0.00031801	731.15	5.0105e-06	7.4053e-06	1155.9	268.13	6.6223e-06	1.6304e-05	493.53	174.19	100.6	33.926	4.8244e-06	68.554	0.00047232	0.0004675	0.00013183	685.69	5.123e-06	5.1306e-06	1010.1	241.27	5.1314e-06	5.129e-06	409.47	146.85	90.197	30.589	5.15e-06	57.105	49.806	63.055	146.723	41.824	82.398	102.273	40.613	46.455	205.121	335.269	44.300	48.547	50.876	55.346	287.165	52.504	-8191	255	
1707.399	1	1	0	0	0.13373	0.038246	0.13433	0.2765	0.14978	0.14502	0.25726	0.28399	0.26277	0.35175	0.1718	0.52048	0.19075	0.12805	0.19815	0.18183	-3.1229	-2.5438	-3.1562	-3.125	-2.5229	-3.4646	-3.0667	-2.9	-3.4417	-2.8333	-3.1	-3.3646	-2.6896	-3.3083	-2.9667	-2.9646	55.126	343.802	325.168	382.015	110.380	166.156	316.940	106.724	358.144	168.177	338.184	372.975	375.766	213.433	155.836	319.991	0.0011547	0.00028832	0.00010622	735.65	5.5687e-06	1.2674e-05	1157.8	268.93	5.9346e-06	6.8918e-06	489.11	175.26	100.62	34.002	1.3783e-05	68.647	0.00047403	0.00046982	0.00013238	684.78	5.154e-06	5.1596e-06	1008.3	241.59	5.1101e-06	5.192e-06	409.17	147.54	90.041	30.847	5.1439e-06	57.146	47.820	186.979	222.347	42.024	133.595	233.696	40.768	46.122	195.514	245.912	44.699	48.465	50.377	55.263	105.632	52.747	-8191	255	
1707.495	1	1	0	0	0.21856	0.17949	0.060149	0.30066	0.2018	0.18099	0.2417	0.20709	0.095631	0.15598	0.016819	0.22166	0.10627	0.16889	0.05675	0.099406	-3.1271	-2.7125	-3.0146	-3.3771	-2.7208	-3.4271	-3.0812	-2.9042	-3.3792	-2.9625	-3.1208	-3.55	-2.9813	-3.4354	-3.1063	-2.7708	52.938	111.358	333.494	300.974	269.224	269.936	260.282	247.235	350.983	133.244	57.530	299.581	294.064	156.900	304.501	40.240	0.0011391	0.0017226	0.00026005	739.8	1.5359e-06	1.0443e-05	1146.9	268.08	7.8719e-06	8.4336e-06	488.8	176.34	100.61	33.74	1.3169e-05	68.519	0.00047723	0.00047398	0.00013179	684.98	5.2445e-06	5.2148e-06	1006.6	241.17	5.1797e-06	5.2194e-06	409.51	147.53	90.118	30.683	5.2215e-06	57.024	38.748	142.139	360.885	41.492	69.432	131.270	40.763	46.647	218.227	232.179	44.623	48.823	50.467	55.815	86.172	52.563	-8191	255	
1707.591	1	1	0	0	0.047106	0.17157	0.096294	0.22693	0.25139	0.18988	0.20057	0.27504	0.2059	0.21588	0.10877	0.17161	0.17932	0.096219	0.1675	0.1283	-3.2313	-2.7292	-2.9042	-3.6333	-2.7271	-3.3625	-3.2604	-2.9396	-3.2896	-2.7375	-3.0333	-3.4813	-2.7687	-3.2604	-3.2687	-2.9771	264.698	276.411	165.907	370.881	31.561	78.169	186.685	362.847	43.440	45.580	327.335	329.150	50.365	254.381	147.422	306.424	0.0015606	0.00062076	0.00016661	732.93	8.6358e-06	7.3842e-06	1139.5	268.76	1.1624e-05	5.1837e-06	486.85	175.81	100.95	33.869	2.2374e-05	68.296	0.00047927	0.00047232	0.00013168	683.34	5.1828e-06	5.204e-06	1000.6	240.99	5.195e-06	5.1944e-06	407.46	147.4	90.338	30.749	5.1741e-06	57.107	384.183	219.486	232.367	41.738	136.273	192.230	40.298	46.514	195.281	347.055	44.522	49.151	50.764	55.738	158.356	52.508	-8191	255	
1707.688	1	1	0	0	0.061335	0.10427	0.37547	0.06724	0.26084	0.095606	0.27006	0.18493	0.23398	0.10009	0.1841	0.26351	0.23828	0.15929	0.35417	0.1433	-2.9792	-2.9917	-2.9562	-3.5729	-2.8479	-3.1333	-3.425	-2.7146	-3.2896	-3.0917	-2.8812	-3.8208	-2.8375	-3.0396	-3.5354	-2.6583	203.712	247.727	191.757	350.619	226.660	257.940	277.435	316.637	128.860	344.285	381.376	300.137	362.004	286.004	117.311	187.257	0.0009286	0.0017182	0.00035667	737.16	2.7838e-06	1.3611e-05	1140.6	268.35	1.7996e-05	6.842e-06	487.22	174.74	101.78	34.054	8.0855e-06	69.026	0.00047555	0.00047312	0.00013198	684.46	5.1366e-06	5.1512e-06	1003.3	241.69	5.155e-06	5.1309e-06	408.99	147.52	90.37	30.62	5.1393e-06	57.438	381.934	255.698	116.456	41.895	72.696	355.573	40.395	46.860	201.660	178.042	44.609	49.072	50.584	55.701	329.165	52.612	-8191	255	
1707.808	1	1	0	0	0.19269	0.20628	0.20783	0.19059	0.20475	0.10204	0.15414	0.18496	0.25953	0.16324	0.14254	0.25909	0.1271	0.18845	0.093682	0.17753	-3.0104	-3.0292	-2.5979	-3.4458	-2.8063	-2.7333	-3.3979	-2.7313	-3.2083	-3.2479	-2.7208	-3.5667	-2.925	-2.8688	-3.4458	-2.7375	114.222	51.364	355.271	94.279	105.294	360.883	274.583	276.305	210.097	135.456	241.852	335.548	386.393	339.273	311.836	378.864	0.00078244	0.0007983	0.00023409	741.58	8.6292e-06	2.4357e-06	1156	268.45	1.6994e-05	3.3758e-06	488.1	177.65	100.59	34.053	7.9708e-06	69.099	0.0004762	0.00046486	0.00013059	686.38	5.1807e-06	5.181e-06	1010.5	241.57	5.1784e-06	5.1319e-06	409.77	148.66	90.742	30.765	5.1223e-06	57.299	31.251	268.263	377.774	42.279	100.187	224.835	40.967	46.424	207.029	240.096	44.031	49.097	51.218	56.365	159.862	52.546	-8191	255	
1707.880	1	1	0	0	0.21308	0.052808	0.24024	0.17474	0.063388	0.1138	0.28488	0.24178	0.089451	0.15158	0.21728	0.16599	0.26808	0.19774	0.24519	0.22621	-2.6708	-3.1771	-2.7687	-3.4583	-2.8375	-2.875	-3.4875	-2.5833	-3.1479	-3.2083	-2.6125	-3.45	-3.1521	-2.6792	-3.3708	-2.5938	365.519	348.713	369.842	365.986	367.154	91.254	294.252	286.615	267.635	296.963	364.533	46.182	369.001	308.617	47.761	284.271	0.0010099	0.00033397	0.0003499	743.42	6.3474e-06	4.8272e-06	1162.9	272.92	1.2414e-05	1.5513e-05	489.6	177.29	101.75	34.176	7.4385e-06	68.953	0.0004772	0.00046568	0.00013139	689.47	5.1378e-06	5.0803e-06	1012.4	242.76	5.1485e-06	5.1181e-06	409.53	148.34	90.655	30.719	5.0945e-06	57.233	54.704	145.520	345.927	41.956	175.158	42.009	41.036	46.672	244.990	300.596	44.796	49.262	50.931	55.941	47.873	52.712	-8191	255	
1708.001	1	1	0	0	0.11622	0.24041	0.15051	0.095343	0.19364	0.24256	0.14295	0.15222	0.089503	0.11389	0.22389	0.07029	0.14316	0.19734	0.20586	0.42726	-2.8542	-3.0604	-2.5083	-3.5542	-2.8	-2.7458	-3.5833	-2.6396	-3.0583	-3.3812	-2.7625	-3.1896	-3.075	-2.3229	-3.4521	-2.9	376.515	170.133	325.850	125.774	116.919	308.984	255.325	354.792	333.091	189.481	377.999	274.976	93.171	217.047	32.581	297.028	0.0010539	0.0010442	0.00043546	737.48	5.3197e-06	1.0401e-05	1159.9	270.8	5.186e-06	1.5911e-05	488.61	174.46	101.11	33.686	5.9138e-06	68.553	0.00046803	0.0004648	0.00013003	689.05	5.0818e-06	5.1135e-06	1010.9	242.41	5.0711e-06	5.0387e-06	407.25	146.94	89.87	30.545	5.03e-06	56.891	63.108	139.197	86.654	42.150	162.019	258.904	41.216	46.898	160.093	88.013	44.885	49.399	51.152	55.725	145.775	52.858	-8191	255	
1708.095	1	1	0	0	0.096238	0.084221	0.10476	0.029843	0.054473	0.17634	0.17913	0.20895	0.18097	0.11114	0.15306	0.38487	0.1652	0.073269	0.15818	0.03177	-2.4667	-3.2708	-2.5604	-3.25	-3.1125	-2.7125	-3.4396	-2.7708	-2.7458	-3.4979	-2.5521	-3.2542	-3.4167	-2.4354	-3.4104	-2.9667	319.832	249.580	324.738	226.143	149.552	103.337	331.357	278.251	355.816	316.314	384.689	371.862	32.293	342.975	259.975	312.456	0.0012346	0.00079292	0.00026764	740.17	6.2943e-06	5.696e-06	1155.8	268.56	1.2229e-05	4.5196e-06	487.34	173.86	100.87	33.844	9.7712e-06	68.758	0.00046305	0.0004638	0.00012882	687.74	5.0622e-06	5.0597e-06	1010.3	241.98	5.051e-06	5.1073e-06	408.07	146.99	90.061	30.434	5.0924e-06	56.925	31.764	157.411	283.962	41.907	146.695	125.250	41.520	46.861	107.280	192.578	44.755	49.737	51.250	56.150	177.776	53.154	-8191	255	
1708.191	1	1	0	0	0.041136	0.20361	0.17749	0.26083	0.23446	0.19173	0.11205	0.35485	0.37442	0.048176	0.16353	0.2721	0.12677	0.049536	0.22603	0.25941	-2.4083	-3.4271	-2.8729	-3.0833	-3.275	-2.5542	-3.4042	-2.9979	-2.8104	-3.2062	-2.8312	-2.9583	-3.2958	-2.5896	-3.3271	-3.0896	198.060	353.807	76.822	33.125	183.775	318.748	342.253	358.330	348.405	317.640	331.982	346.924	320.954	312.633	228.825	375.592	0.0011554	0.00048424	0.00023508	756.31	5.7834e-06	5.0291e-06	1167	272.73	7.8122e-06	2.808e-06	493.55	174.86	101.44	34.024	4.6881e-06	69.423	0.000467	0.00046654	0.0001294	695.4	5.0909e-06	5.0867e-06	1018.6	242.43	5.0739e-06	5.0931e-06	409.2	147.57	90.453	30.672	5.1106e-06	57.437	44.857	183.663	117.790	42.478	329.517	106.204	41.322	46.762	317.650	99.363	44.865	49.730	51.290	56.448	177.888	52.948	-8191	255	
1708.287	1	1	0	0	0.023908	0.28455	0.17146	0.17089	0.058148	0.18109	0.14284	0.084774	0.32741	0.091914	0.1738	0.33549	0.12047	0.01727	0.099939	0.14841	-2.1167	-3.3125	-2.8625	-2.9354	-3.5083	-2.7062	-3.3812	-3.2229	-2.7604	-3.4958	-2.8479	-2.8563	-3.3854	-2.7396	-3.2	-3.2021	180.223	320.367	97.859	387.754	205.897	271.086	358.636	89.379	92.643	233.770	72.812	364.417	118.524	119.596	347.264	50.749	0.0013457	0.0002679	0.00020596	751.64	5.9479e-06	2.504e-06	1168.5	272.78	1.857e-05	6.2928e-06	489.01	176.83	101.24	34.115	1.5982e-06	68.712	0.0004664	0.00046659	0.00012918	696.56	5.0971e-06	5.1215e-06	1022.3	243.61	5.1491e-06	5.159e-06	407.79	147.74	90.169	30.754	5.1423e-06	57.221	51.193	376.437	310.675	42.044	187.949	302.308	41.012	46.648	237.565	144.493	44.362	49.653	51.435	55.974	134.971	52.642	-8191	255	
1708.408	1	1	0	0	0.12798	0.11582	0.42735	0.10044	0.096018	0.069766	0.43319	0.13239	0.087105	0.15236	0.13389	0.09044	0.13478	0.25977	0.16209	0.3431	-2.0583	-3.4104	-2.8396	-2.8083	-3.2938	-2.6917	-3.2687	-3.2938	-2.5479	-3.2542	-2.9313	-2.8563	-3.4562	-2.4313	-2.95	-3.4021	73.168	250.324	70.912	371.488	47.120	347.300	356.894	49.701	227.558	310.349	137.302	361.905	371.122	379.443	309.597	316.155	0.001404	0.0007678	0.00030521	758.44	4.0926e-06	9.7923e-06	1162.5	274.45	1.6581e-05	1.4739e-05	484.88	174.25	101.78	33.906	4.0498e-06	69.145	0.00047087	0.00046936	0.00013144	699.32	5.1945e-06	5.1891e-06	1014.8	244.51	5.1423e-06	5.1755e-06	406.98	146.93	90.474	30.771	5.2006e-06	57.411	82.599	57.945	235.670	42.390	217.733	276.852	41.219	47.199	139.848	109.330	44.901	49.018	51.177	55.555	203.393	53.069	-8191	255	
1708.504	1	1	0	0	0.21044	0.17684	0.028512	0.44353	0.024941	0.13741	0.40739	0.29481	0.10667	0.082919	0.055326	0.22591	0.094605	0.10498	0.26115	0.32296	-2.1875	-3.2479	-2.9062	-2.7396	-3.3271	-2.5625	-3.0104	-3.2167	-2.4208	-3.4917	-3.1104	-2.9938	-3.3104	-2.875	-2.9208	-3.3979	134.318	140.296	62.502	58.134	222.665	61.715	303.311	317.255	173.404	338.878	345.653	326.971	57.069	386.102	241.394	343.221	0.0012128	0.00030811	3.637e-05	752.12	3.4125e-06	5.7945e-06	1174.8	270.44	1.1238e-05	1.0052e-05	489.44	176.09	101.52	33.789	1.295e-05	68.648	0.00047475	0.00047294	0.00013103	697.34	5.1563e-06	5.201e-06	1022.5	243.51	5.1993e-06	5.1491e-06	409.46	147.62	90.291	30.648	5.1728e-06	57.532	374.154	159.864	256.117	42.044	205.494	136.570	41.344	47.412	218.806	215.419	43.706	49.512	51.466	56.176	64.340	52.416	-8191	255	
1708.576	1	1	0	0	0.16836	0.12963	0.093095	0.18514	0.038732	0.076248	0.25101	0.10836	0.23276	0.24236	0.21031	0.27062	0.098605	0.062346	0.074244	0.10002	-2.1312	-3.2646	-3.0187	-2.6417	-3.4104	-2.8125	-2.9354	-3.4979	-2.55	-3.2792	-3.275	-2.6646	-3.3917	-2.8792	-2.9062	-3.4188	73.292	367.339	308.360	250.322	302.661	378.975	368.439	115.874	137.740	86.798	208.919	321.622	63.297	337.879	203.527	300.925	0.00064154	0.0012573	0.00016653	758.03	5.9441e-06	8.7241e-06	1171.7	275.61	7.9438e-06	8.3848e-06	487.45	176.41	102.7	34.054	9.2014e-06	69.27	0.00047468	0.0004699	0.0001304	698.01	5.1795e-06	5.165e-06	1023.6	244.24	5.1146e-06	5.163e-06	409.27	147.85	90.897	30.745	5.105e-06	57.747	48.017	88.055	273.889	41.992	202.571	250.258	41.131	46.775	200.752	293.184	44.218	49.477	51.436	56.132	59.048	52.671	-8191	255	
1708.696	1	1	0	0	0.17583	0.10663	0.099076	0.23584	0.22007	0.21455	0.27198	0.14744	0.069012	0.050853	0.16577	0.33391	0.074754	0.13309	0.28642	0.28892	-2.1542	-3.1167	-3.2875	-2.6104	-3.2667	-3.0875	-2.8354	-3.4417	-2.6875	-3.05	-3.3979	-2.4979	-3.3417	-2.8187	-2.7146	-3.6229	138.992	254.744	165.251	341.719	239.022	116.004	202.974	259.059	162.425	237.338	298.577	316.275	358.231	340.856	300.629	361.867	0.00071698	0.0011076	0.00027367	758.58	5.0391e-06	5.804e-06	1169.7	271.97	7.293e-06	1.2201e-05	491.52	175.15	100.93	34.049	5.1564e-06	69.125	0.00046948	0.00046399	0.00012903	698.09	5.1114e-06	5.1091e-06	1019.8	243.33	5.0753e-06	5.0945e-06	407.62	146.59	90.198	30.595	5.0922e-06	57.381	382.111	110.651	102.581	42.053	162.629	335.990	40.783	46.471	198.432	204.412	44.338	48.991	51.394	55.757	103.027	52.540	-8191	255	
1708.792	1	1	0	0	0.37675	0.31038	0.084478	0.15824	0.29868	0.2893	0.11383	0.11441	0.15428	0.16396	0.21536	0.12528	0.032116	0.19915	0.22225	0.15894	-2.2188	-2.7979	-3.0458	-2.625	-2.9771	-2.9375	-2.8187	-3.4292	-2.6708	-2.8646	-3.3792	-2.75	-3.2021	-3.1458	-2.5979	-3.3833	189.849	43.247	383.974	212.838	276.879	29.647	183.397	302.461	329.635	131.792	364.273	68.707	56.414	30.197	203.306	309.194	0.0016898	0.0004266	0.00015318	748.2	8.421e-06	4.1669e-06	1164.8	271.04	6.2784e-07	1.6306e-05	484.59	174.24	101.46	34.088	1.5207e-05	68.314	0.00046553	0.00046072	0.0001275	693.97	5.0276e-06	5.0079e-06	1014.3	242.48	5.0339e-06	4.9955e-06	405.35	146.03	89.798	30.555	4.9673e-06	56.953	33.879	220.781	137.308	41.700	191.106	330.464	40.705	46.921	296.248	164.831	44.327	49.114	51.262	55.740	203.377	52.711	-8191	255	
1708.889	1	1	0	0	0.096025	0.15594	0.17133	0.21253	0.14414	0.17842	0.36927	0.17431	0.14961	0.15835	0.16819	0.19383	0.051068	0.15979	0.20973	0.19023	-2.4396	-2.7625	-3.3563	-2.725	-3.1021	-2.9375	-2.6958	-3.4792	-2.8917	-2.8146	-3.3646	-2.7708	-2.9708	-3.3479	-2.6396	-3.2833	358.372	225.733	243.473	75.371	299.497	67.193	333.591	256.941	199.174	208.334	346.979	57.283	83.688	306.820	340.180	161.748	0.00055495	0.001234	0.00011765	745.43	2.1858e-06	4.5921e-06	1161.3	271.96	9.9027e-06	2.3565e-06	489.58	174.49	100.4	33.938	6.281e-06	69.141	0.00045974	0.00045762	0.00012705	690.16	5.0123e-06	4.9891e-06	1013	242.61	4.9921e-06	5.0305e-06	405.74	145.97	89.395	30.449	5.03e-06	57.231	43.701	328.472	130.218	42.145	237.687	50.722	40.849	46.910	281.762	240.666	44.143	49.088	51.021	55.981	111.413	53.092	-8191	255	
1708.985	1	1	0	0	0.16865	0.22117	0.17059	0.25932	0.17434	0.10813	0.079123	0.16058	0.42186	0.15971	0.041355	0.012565	0.1726	0.13028	0.027468	0.26582	-2.4354	-2.7417	-3.4208	-2.6875	-2.9458	-3.2542	-2.9396	-3.3917	-2.9562	-2.6583	-3.5167	-2.8083	-3.2271	-3.3896	-2.7208	-3.1625	46.612	31.989	188.385	338.482	118.930	181.058	355.846	38.143	55.664	375.087	306.388	196.443	357.134	356.970	121.942	388.284	0.00045533	0.0017416	0.00012643	750.81	8.491e-06	9.4788e-06	1163.3	272.81	6.2781e-06	1.4952e-06	491.57	174.37	101.05	33.583	3.6659e-06	69.377	0.00046004	0.000461	0.00012861	690.9	5.0724e-06	5.0724e-06	1017.4	243.99	5.0831e-06	5.0102e-06	409.03	146.73	90.034	30.418	5.1025e-06	57.516	352.615	286.984	324.697	41.459	126.300	44.142	40.451	46.924	372.505	377.302	44.535	48.903	51.376	56.208	378.617	52.990	-8191	255	
1709.104	1	1	0	0	0.060926	0.1477	0.10078	0.095462	0.20325	0.15413	0.27796	0.29308	0.082085	0.059449	0.16992	0.21478	0.39845	0.12804	0.19311	0.38178	-2.6354	-2.4271	-3.45	-3.0438	-2.7396	-3.225	-2.7542	-3.3812	-3.1333	-2.5542	-3.5479	-2.9437	-2.8104	-3.375	-2.5312	-3.1937	212.645	233.168	38.249	224.437	312.832	383.480	300.129	35.198	108.411	291.265	146.869	54.315	172.735	361.595	281.402	262.164	0.0013486	0.00056294	0.00025948	750.44	4.3688e-06	4.6145e-06	1164.3	274.3	6.2371e-06	1.4599e-05	489.3	175.26	99.683	34.231	4.9429e-06	69.492	0.00046795	0.00046175	0.00012894	694.52	5.0353e-06	5.076e-06	1015.3	244.11	5.0608e-06	5.0618e-06	408.6	146.65	89.504	30.622	5.104e-06	57.35	56.322	105.636	318.171	41.864	209.640	88.299	41.181	46.827	223.281	209.228	44.528	49.230	51.269	55.878	243.950	52.793	-8191	255	
1709.175	1	1	0	0	0.18913	0.16593	0.32639	0.26335	0.14773	0.17437	0.15837	0.23887	0.091879	0.20821	0.24056	0.061679	0.18943	0.076291	0.2297	0.29292	-2.7708	-2.4875	-3.2167	-3.0417	-2.5896	-3.5771	-2.8125	-3.1104	-3.3229	-2.7854	-3.3875	-3.15	-2.8396	-3.4229	-2.6833	-3.15	28.797	50.081	147.694	378.558	112.180	54.902	40.488	373.475	132.880	140.230	63.288	95.672	285.843	157.600	381.114	372.066	0.0011281	0.0011046	0.00025818	750.22	5.1911e-06	1.4012e-05	1161.6	271.54	2.2799e-06	2.4325e-06	488.18	173.98	100.68	34.004	1.0441e-05	69.366	0.00046312	0.00046347	0.00012909	692.9	5.0825e-06	5.0877e-06	1009.9	243.41	5.0649e-06	5.0449e-06	409.81	146.48	89.827	30.531	5.0368e-06	57.592	376.083	263.274	176.895	41.534	117.780	236.622	40.715	46.267	164.055	154.967	44.335	49.104	51.138	55.976	356.881	52.995	-8191	255	
1709.271	1	1	0	0	0.3432	0.021641	0.26972	0.26402	0.40597	0.14419	0.12172	0.27567	0.13528	0.2693	0.1853	0.0096006	0.30209	0.24634	0.18481	0.24841	-2.8417	-2.5187	-3.2687	-3.1229	-2.6708	-3.3604	-2.7708	-3.0563	-3.2771	-2.6271	-3.2708	-3.2125	-2.7333	-3.3083	-2.6813	-2.8625	153.284	221.556	278.626	56.683	33.806	276.544	381.603	344.495	212.528	77.508	324.715	32.415	65.526	318.218	43.343	342.057	0.0012381	0.00060548	3.5423e-05	753.13	4.4408e-06	5.9022e-06	1166.3	272.9	1.3932e-05	1.1831e-05	487.47	173.86	101.44	33.957	3.2224e-06	68.886	0.00046498	0.00046267	0.00012913	695.54	5.0682e-06	5.0797e-06	1017	244.57	5.1155e-06	5.1159e-06	408.53	146.44	89.983	30.693	5.1198e-06	57.462	374.084	294.255	300.032	41.685	131.420	179.759	40.586	46.769	31.430	276.741	44.559	48.928	50.993	55.580	105.164	53.173	-8191	255	
1709.368	1	1	0	0	0.10362	0.17863	0.18136	0.36365	0.12979	0.32118	0.24825	0.12122	0.19487	0.047558	0.092972	0.18981	0.10379	0.22256	0.22766	0.37795	-2.8708	-2.5417	-2.9771	-3.075	-2.5354	-3.3521	-3	-2.8812	-3.3438	-2.6875	-3.2021	-3.4542	-2.7229	-3.2396	-3.0479	-2.9396	346.438	304.812	157.299	318.710	51.082	43.233	301.315	273.527	243.712	232.174	312.177	60.865	252.497	147.641	194.503	347.355	0.0014348	0.001128	0.00021524	760.42	3.5015e-06	6.1546e-06	1168.2	275.73	1.1971e-05	4.5836e-06	488.74	174.23	100.1	33.779	7.6486e-06	69.361	0.00046952	0.00046077	0.00012986	697.53	5.1051e-06	5.1139e-06	1015.8	244.83	5.066e-06	5.0785e-06	408.03	146.5	89.63	30.642	5.0786e-06	57.537	33.705	134.552	310.896	42.084	187.675	69.459	40.716	46.864	131.655	285.295	44.548	49.194	51.496	56.068	116.196	52.871	-8191	255	
1709.488	1	1	0	0	0.059082	0.27427	0.078522	0.24913	0.28	0.16924	0.2417	0.12814	0.032947	0.10854	0.35798	0.33806	0.32383	0.34044	0.18804	0.14684	-2.9083	-2.45	-3.0125	-3.2625	-2.4854	-3.3	-3.0104	-2.7188	-3.1708	-2.9062	-3.0375	-3.4313	-2.4604	-3.3583	-3.0187	-2.6542	169.309	31.882	253.718	321.236	303.457	90.582	363.876	314.504	243.190	342.650	357.458	386.917	296.994	52.565	224.490	378.205	0.00073725	0.0017118	4.5201e-05	758.79	3.8771e-06	2.1866e-06	1165.6	274.88	9.2793e-06	1.7697e-05	490.96	173.49	100.57	33.687	5.0718e-06	68.573	0.00047119	0.00046788	0.00012995	699.64	5.0825e-06	5.1461e-06	1014.5	244.65	5.1352e-06	5.1112e-06	408.54	146.12	89.654	30.691	5.0858e-06	57.313	365.042	213.207	165.914	41.934	184.661	121.073	40.824	46.930	327.436	177.729	44.372	48.918	51.405	55.949	143.958	52.963	-8191	255	
1709.584	1	1	0	0	0.18287	0.069892	0.25098	0.14113	0.099688	0.16163	0.42154	0.054303	0.16717	0.11935	0.41243	0.21082	0.30948	0.18693	0.05364	0.25959	-2.9146	-2.7208	-2.8417	-3.3083	-2.6083	-3.2208	-3.1917	-2.6312	-3.2042	-2.9271	-2.8937	-3.2521	-2.5729	-3.3312	-3.0125	-2.7938	312.603	336.361	211.932	200.681	348.651	164.187	335.992	343.395	118.249	164.396	366.954	378.153	365.957	309.801	358.505	337.036	0.0011939	0.00041597	0.00021448	752.37	3.1306e-06	5.3609e-06	1164.3	273.21	1.9634e-06	9.8879e-06	490.39	174.96	100.37	33.732	1.5934e-05	69.652	0.00046832	0.00046961	0.000131	697.64	5.1842e-06	5.1548e-06	1015.3	244.47	5.177e-06	5.1274e-06	410.23	146.61	89.986	30.602	5.1805e-06	57.931	344.538	358.537	77.459	41.578	30.262	150.096	40.989	46.784	267.753	262.274	44.537	49.289	51.138	55.659	85.641	52.893	-8191	255	
1709.681	1	1	0	0	0.098699	0.12432	0.1332	0.14674	0.068411	0.15204	0.34283	0.10426	0.07335	0.24688	0.17266	0.1402	0.13276	0.42638	0.1778	0.25358	-2.8396	-2.8271	-2.6875	-3.5104	-2.6542	-3.1521	-3.4896	-2.675	-3.3937	-2.7854	-2.75	-3.5208	-2.6229	-3.0062	-3.2104	-2.8208	226.093	300.580	74.834	274.248	380.420	216.865	356.710	352.034	58.020	259.116	381.563	359.264	29.789	346.413	324.916	365.244	0.00089258	0.00063853	0.00031875	754.12	7.9894e-06	1.1017e-05	1167.2	273.79	2.4444e-06	8.3419e-06	484.67	174.12	100.56	33.836	3.6935e-06	69.585	0.00047546	0.00046867	0.00013017	697.95	5.1389e-06	5.1854e-06	1017.6	245.83	5.1934e-06	5.1406e-06	411.44	147.04	90.222	30.543	5.1822e-06	57.943	56.681	292.392	29.930	42.389	174.469	193.103	40.916	47.380	187.572	173.281	44.872	49.062	51.343	56.408	211.032	52.721	-8191	255	
1709.777	1	1	0	0	0.13234	0.25865	0.098655	0.12456	0.14724	0.27169	0.17324	0.27203	0.021243	0.081207	0.09208	0.45716	0.12977	0.16945	0.1556	0.19584	-2.9	-2.8854	-2.5271	-3.4896	-2.65	-2.8688	-3.4708	-2.5146	-3.2438	-2.9	-2.7458	-3.4479	-2.8021	-2.9667	-3.2188	-2.7792	146.567	87.736	339.635	372.300	225.157	195.281	52.552	351.349	251.022	78.351	76.179	347.283	388.145	366.099	271.079	326.865	0.00077996	0.00031442	0.00020682	756.36	9.767e-07	1.1285e-05	1161.8	272.63	5.8966e-06	3.8548e-06	494.81	176.67	100.57	34.055	1.4523e-05	69.89	0.00047749	0.0004681	0.00013169	700.53	5.1874e-06	5.1835e-06	1020.3	245.12	5.2084e-06	5.1895e-06	413.37	147.99	90.124	30.746	5.193e-06	58.131	353.321	56.444	118.710	41.842	274.456	251.855	41.214	46.900	89.639	247.031	45.134	49.315	51.371	55.626	31.169	52.802	-8191	255	
1709.873	1	1	0	0	0.083296	0.10638	0.10007	0.21032	0.19837	0.38268	0.3358	0.21915	0.28199	0.2035	0.10735	0.13962	0.074358	0.084705	0.066534	0.37803	-2.6792	-3.1167	-2.6271	-3.3542	-2.6333	-2.8063	-3.2438	-2.5958	-3.0312	-3.2729	-2.6063	-3.3021	-2.9583	-2.7354	-3.6188	-2.6958	233.684	41.180	324.398	258.590	176.591	297.240	323.410	338.334	357.296	54.985	347.043	295.507	185.783	39.032	48.604	346.035	0.0012122	0.00049245	0.00035868	762.07	7.7331e-06	7.5773e-06	1174.2	274.81	6.098e-06	1.2605e-05	486.94	173.93	101.21	33.817	1.2068e-06	69.278	0.00048147	0.00047209	0.00013149	704.55	5.1706e-06	5.1618e-06	1026	245.44	5.2248e-06	5.1843e-06	410.3	147.23	90.338	30.743	5.2184e-06	57.727	45.263	207.176	282.423	41.753	104.184	250.906	40.746	46.960	213.091	272.997	44.169	49.207	51.098	55.715	194.287	53.197	-8191	255	
1709.969	1	1	0	0	0.16378	0.025875	0.16462	0.16498	0.18318	0.16747	0.1638	0.063428	0.099047	0.23819	0.13935	0.26615	0.17964	0.27206	0.21842	0.28168	-2.7021	-3.1792	-2.5583	-3.4542	-2.9708	-2.7146	-3.4833	-3.0563	-2.9417	-3.4417	-2.7208	-3.3583	-3.0396	-2.7729	-3.3875	-2.9104	168.619	103.216	245.882	311.796	248.106	323.569	309.776	251.332	333.843	362.778	137.983	369.639	66.250	373.064	306.613	358.893	0.0012321	0.0014131	0.0001124	761.58	8.9039e-06	3.1419e-06	1178.8	274.72	1.1237e-05	5.8846e-06	491.59	175.92	101	33.828	9.6954e-07	69.721	0.00047553	0.00046874	0.00013076	703.07	5.1927e-06	5.1483e-06	1021.1	245.62	5.1558e-06	5.1495e-06	410.42	147.48	89.838	30.649	5.2072e-06	57.814	359.504	123.956	335.885	42.171	171.971	79.764	40.749	46.607	222.822	132.181	44.610	49.047	51.529	56.168	194.733	52.607	-8191	255	
1710.088	1	1	0	0	0.17405	0.20132	0.1747	0.068564	0.20056	0.11585	0.17897	0.044217	0.16236	0.11957	0.043665	0.085383	0.27171	0.058477	0.12755	0.20023	-2.65	-3.3083	-2.5021	-3.2792	-3.1188	-2.5479	-3.6063	-2.8625	-2.8208	-3.3521	-2.7396	-3.1833	-3.1583	-2.8	-3.2833	-2.875	124.473	156.177	225.406	378.422	219.177	97.491	364.650	108.937	165.728	43.616	382.177	267.319	323.886	48.066	77.422	47.744	0.0014897	0.0010864	0.0001781	764.16	7.4645e-06	7.9206e-06	1168.2	274.75	8.2779e-06	1.684e-06	493.26	175.9	101.01	34.049	1.503e-05	69.568	0.00046723	0.00046467	0.00012982	701.27	5.1307e-06	5.1013e-06	1017.6	245.19	5.1106e-06	5.0798e-06	410.69	147.59	90.025	30.628	5.1368e-06	57.888	30.162	251.026	83.787	42.201	166.003	195.352	41.339	47.015	324.673	258.281	44.695	49.415	51.233	56.281	111.808	52.919	-8191	255	
1710.184	1	1	0	0	0.18181	0.14733	0.13927	0.28039	0.23098	0.28493	0.25002	0.15276	0.013918	0.31682	0.28776	0.25815	0.057115	0.25709	0.17763	0.17839	-2.4146	-3.2729	-2.7646	-3.1667	-3.1979	-2.5146	-3.3187	-2.8792	-2.8271	-3.5125	-2.7396	-3.1375	-3.2917	-2.6625	-3.3583	-3.1271	142.302	298.160	295.261	350.630	280.215	76.823	296.331	342.224	246.630	106.357	373.281	342.563	241.994	364.169	29.490	321.712	0.0013042	0.00033288	9.5912e-05	760.39	1.4431e-06	1.0457e-05	1167.1	275.62	1.0348e-05	5.1809e-06	490.82	176.24	101.42	34.177	1.0775e-05	70.437	0.00046971	0.00046749	0.00012901	704.21	5.1076e-06	5.0516e-06	1022.6	245.98	5.0886e-06	5.1053e-06	411.4	147.6	89.99	30.697	5.1083e-06	58.116	388.882	143.419	197.312	42.324	140.633	279.391	41.712	47.038	177.846	70.334	44.607	49.470	51.396	56.268	180.242	52.820	-8191	255	
1710.280	1	1	0	0	0.25297	0.12366	0.24133	0.083161	0.11111	0.14181	0.06828	0.091092	0.32528	0.20916	0.22793	0.35633	0.22002	0.12639	0.17594	0.1825	-2.1042	-3.2271	-2.95	-3.1	-3.3146	-2.6229	-3.3979	-3.0208	-2.5958	-3.4708	-2.9146	-2.9417	-3.3396	-2.7708	-3.2667	-3.325	49.401	265.443	161.918	38.348	31.305	140.010	312.269	209.839	90.574	238.942	258.575	338.016	114.863	105.645	174.380	382.223	0.0012271	0.00049466	0.00032449	762.61	9.9724e-06	4.3031e-06	1170	275.82	1.2722e-05	1.2477e-05	494.57	177.75	101.37	34.376	6.8939e-06	70.737	0.00046436	0.00046848	0.00012963	702.87	5.1168e-06	5.1049e-06	1022.1	246.3	5.0803e-06	5.089e-06	410.56	148.31	90.193	30.836	5.1195e-06	58.225	55.510	87.058	382.121	42.247	48.738	349.718	40.777	46.967	234.429	214.470	44.482	49.310	51.225	56.191	229.258	52.540	-8191	255	
1710.401	1	1	0	0	0.22378	0.21472	0.24	0.33283	0.095031	0.081085	0.30966	0.14315	0.11433	0.13616	0.1315	0.34514	0.030974	0.10443	0.12596	0.19664	-2.2604	-3.3833	-2.8958	-2.8583	-3.3792	-2.7	-3.2562	-3.4583	-2.5875	-3.3312	-3.1021	-3.0396	-3.5125	-2.8917	-3.0208	-3.3187	71.485	262.193	233.173	381.523	143.217	168.382	379.267	364.424	128.915	179.567	289.991	364.326	69.291	204.134	71.094	345.398	0.001178	0.0017766	0.00023199	762.36	6.9931e-06	8.955e-06	1164.6	275.97	3.9631e-06	1.4757e-05	491.06	176.31	102.01	34.264	7.6913e-06	70.087	0.00046371	0.00046408	0.0001299	702.95	5.0353e-06	5.0416e-06	1018.3	245.68	5.0302e-06	5.0239e-06	408.31	147.51	90.155	30.787	5.0198e-06	58.091	35.367	154.183	310.226	41.887	176.210	206.405	41.281	47.209	106.887	265.158	44.845	49.459	50.609	56.314	180.837	53.004	-8191	255	
1710.472	1	1	0	0	0.14829	0.18622	0.072356	0.097936	0.19161	0.058109	0.12433	0.18465	0.10058	0.17592	0.065843	0.39525	0.14971	0.26888	0.20204	0.15554	-2.1583	-3.2917	-2.8042	-2.8521	-3.4854	-2.5917	-3.1688	-3.4562	-2.5521	-3.3146	-3.025	-2.6917	-3.4583	-2.8083	-2.9542	-3.3854	344.832	257.502	211.882	341.929	215.536	237.668	308.170	384.060	338.561	115.815	44.985	43.591	42.981	354.222	288.649	277.417	0.0016012	0.0012757	0.00010212	764.36	3.5785e-06	2.1663e-06	1167.7	275.5	5.0987e-06	1.2436e-05	494.03	177.42	101.61	34.6	4.949e-06	70.337	0.00045887	0.00046102	0.00012747	702.56	5.0297e-06	4.9886e-06	1019.6	245.48	5.0201e-06	5.0337e-06	410.07	148	90.444	30.911	5.0576e-06	58.173	40.079	53.397	179.143	42.073	203.806	351.080	41.143	46.844	289.954	165.874	44.673	49.131	51.397	56.025	150.761	52.799	-8191	255	
1710.569	1	1	0	0	0.053512	0.13601	0.058809	0.22581	0.23213	0.34719	0.27366	0.31044	0.080005	0.17627	0.078011	0.21514	0.33039	0.08314	0.076753	0.18003	-2.1792	-3.1479	-2.9938	-2.7417	-3.3625	-2.8229	-3.0417	-3.4771	-2.6437	-3.2042	-3.2833	-2.7271	-3.2792	-2.8354	-2.9542	-3.4	306.010	227.337	53.103	340.130	158.843	100.470	352.653	330.637	276.090	248.957	370.586	49.303	346.742	112.399	374.505	292.346	0.0008802	0.00073727	0.00020339	759.22	8.1751e-06	9.1128e-06	1174.8	275.6	5.2584e-06	1.1359e-05	493.36	176.99	101.98	34.114	5.9792e-06	70.072	0.00046317	0.0004611	0.00012818	702.59	5.0456e-06	5.0477e-06	1023.9	246.21	5.0694e-06	5.0906e-06	411.04	147.87	90.478	30.886	5.0698e-06	58.376	352.386	44.111	111.290	42.472	91.171	211.461	40.980	46.869	316.774	341.171	44.364	49.030	50.693	56.082	343.640	52.828	-8191	255	
1710.665	1	1	0	0	0.27074	0.098774	0.082934	0.050044	0.068163	0.1468	0.3164	0.32443	0.068925	0.056014	0.2365	0.28485	0.11467	0.17687	0.24062	0.13268	-2.1958	-3.0646	-3.0438	-2.6042	-3.425	-2.8521	-2.8625	-3.3271	-2.5979	-3.1312	-3.5542	-2.6854	-3.3667	-3.0438	-2.9208	-3.4688	238.321	381.221	348.964	336.199	351.423	258.711	311.683	348.135	47.341	139.916	299.976	318.839	317.420	275.362	371.081	262.174	0.0010784	0.0015795	4.3875e-05	771.97	3.5871e-06	1.415e-06	1168.9	275.69	9.615e-06	9.418e-06	490.48	176.63	100.37	34.206	8.9154e-06	70.36	0.00046697	0.00046813	0.00013093	704.58	5.1443e-06	5.1172e-06	1023.2	246.44	5.1893e-06	5.1437e-06	410.23	147.88	90.26	30.857	5.1274e-06	58.31	71.933	158.209	356.836	42.044	74.983	54.294	41.132	46.785	99.737	296.543	44.377	49.434	51.415	56.429	133.736	52.466	-8191	255	
1710.785	1	1	0	0	0.21912	0.083511	0.19362	0.1319	0.2397	0.1868	0.22639	0.15108	0.11853	0.32662	0.11271	0.15373	0.069379	0.11381	0.056892	0.13508	-2.3479	-2.9479	-3.0354	-2.5833	-3.1292	-3.1417	-2.7667	-3.6646	-2.7188	-2.9313	-3.4292	-2.825	-3.3625	-3.075	-2.6229	-3.5708	141.672	173.606	191.819	339.139	134.299	53.024	318.722	40.881	168.912	230.576	384.170	351.963	40.619	383.179	102.179	311.888	0.0013541	0.0011419	0.00033549	765.31	4.4963e-06	1.267e-05	1175.6	275.54	1.0662e-05	1.1983e-05	485.48	175.14	101.24	34.09	4.3437e-06	70.429	0.00047598	0.00047111	0.00013075	701.81	5.1492e-06	5.1373e-06	1022.9	246.31	5.1217e-06	5.127e-06	408.14	147.13	90.401	30.775	5.0954e-06	58.178	377.103	320.302	313.559	42.343	129.401	275.332	41.318	47.044	122.617	81.303	45.055	49.528	51.713	55.700	50.613	53.583	-8191	255	
1710.882	1	1	0	0	0.27399	0.22712	0.10318	0.1889	0.2302	0.13294	0.10118	0.18215	0.16261	0.13804	0.19634	0.2697	0.14216	0.035814	0.29094	0.11807	-2.45	-2.7229	-3.2208	-2.6583	-2.9771	-3.2604	-2.7375	-3.5354	-2.9354	-2.6854	-3.3458	-2.7667	-3.3229	-3.1458	-2.4229	-3.3708	373.338	249.417	134.137	338.788	250.885	39.765	302.026	336.272	78.145	80.424	371.528	378.521	351.693	187.203	386.937	261.541	0.00077596	0.00035424	0.00010305	762.4	7.3394e-06	2.1412e-06	1166.6	273.53	4.6608e-06	5.7758e-06	492.18	176.58	100.77	34.701	9.0698e-06	69.134	0.00047218	0.0004685	0.00013065	704.44	5.1518e-06	5.1584e-06	1022.6	245.27	5.1226e-06	5.1386e-06	410.25	147.14	89.933	30.959	5.1523e-06	58.027	369.186	162.493	361.845	42.112	132.788	268.744	41.163	46.817	205.733	123.736	44.934	49.387	51.473	55.826	150.105	53.111	-8191	255	
1710.978	1	1	0	0	0.14922	0.22699	0.035201	0.12261	0.13382	0.3244	0.14574	0.16243	0.15718	0.24888	0.17169	0.21822	0.10041	0.23122	0.094404	0.028379	-2.4583	-2.8542	-3.5021	-2.7062	-2.9625	-3.3146	-2.7354	-3.3	-2.9604	-2.7562	-3.2396	-2.7812	-2.9333	-3.2604	-2.6125	-3.3042	287.017	221.091	370.219	228.349	186.923	187.510	315.672	277.641	126.776	309.177	297.918	253.665	40.461	77.065	212.690	57.410	0.0015826	0.00033254	6.3057e-05	761.24	5.5529e-06	4.4186e-06	1170.5	275.24	4.7117e-06	6.2559e-06	487.86	174.79	101.65	34.206	7.4401e-06	70.128	0.00047285	0.00047613	0.00013211	703.83	5.125e-06	5.1435e-06	1023.6	246.35	5.163e-06	5.1293e-06	408.48	147.73	90.275	30.955	5.2247e-06	58.31	360.118	377.630	258.957	42.367	333.798	269.296	41.874	47.016	171.946	282.067	44.848	49.665	51.548	56.396	127.305	53.493	-8191	255	
1711.049	1	1	0	0	0.16705	0.11181	0.23218	0.22761	0.069411	0.13781	0.32028	0.02093	0.1241	0.26998	0.17943	0.24764	0.21322	0.080908	0.1822	0.088917	-2.8229	-2.7875	-3.3125	-2.8208	-2.8	-3.2667	-2.7125	-3.4729	-3.0438	-2.7687	-3.4167	-2.8458	-2.7812	-3.4833	-2.6	-3.1021	349.902	222.559	247.448	284.254	52.243	271.168	335.366	348.056	170.372	132.119	303.866	345.925	343.442	43.437	92.250	32.574	0.00053793	0.00033385	0.0003591	762.68	8.083e-06	8.4796e-06	1162.8	274.52	3.5236e-06	5.0588e-06	485.67	175.32	101.49	34.134	8.3045e-06	69.292	0.00047618	0.00047372	0.00013362	704.22	5.194e-06	5.193e-06	1017.9	245.53	5.2047e-06	5.2186e-06	408.91	147.2	90.441	30.997	5.2078e-06	57.847	70.939	122.618	91.922	42.068	74.375	257.427	41.225	47.094	130.056	79.246	44.097	49.220	51.519	55.884	135.918	53.197	-8191	255	
1711.168	1	1	0	0	0.068945	0.13425	0.094012	0.05026	0.17734	0.087564	0.21249	0.22313	0.10529	0.094058	0.11121	0.29494	0.051988	0.42342	0.11852	0.118	-2.7771	-2.45	-3.3688	-2.9979	-2.8125	-3.3917	-2.9208	-3.3729	-3.2062	-2.6708	-3.5312	-2.9646	-2.8417	-3.4437	-2.6458	-3.1813	29.895	51.505	201.136	340.811	269.405	242.661	99.788	29.371	347.025	209.742	29.182	363.859	254.491	43.089	213.388	301.149	0.0012068	0.0012807	0.00041697	759.48	9.5177e-06	1.0847e-05	1163	272.07	7.7015e-06	1.6424e-05	483.85	174.37	100.72	34.189	9.2062e-06	69.981	0.00047479	0.00047499	0.00013154	700.47	5.158e-06	5.2172e-06	1016.1	244.06	5.2025e-06	5.1945e-06	406.84	146.54	89.984	30.901	5.1692e-06	57.966	35.293	63.312	132.160	41.981	98.980	176.337	40.915	47.074	173.738	218.685	44.746	49.149	51.161	56.214	191.666	53.206	-8191	255	
1711.264	1	1	0	0	0.14741	0.19117	0.18976	0.17451	0.21053	0.09897	0.089804	0.32173	0.084643	0.21706	0.12605	0.16642	0.062576	0.1064	0.18617	0.15447	-2.9729	-2.5563	-3.1979	-2.9313	-2.6542	-3.375	-2.8771	-3	-3.2	-2.6708	-3.2188	-3.2812	-2.6354	-3.4354	-2.6312	-3.05	388.879	72.324	369.282	54.659	276.530	124.161	281.244	311.001	276.565	353.036	308.694	321.867	49.409	155.404	178.888	61.745	0.001782	0.0010605	0.00026663	762.36	7.0002e-06	2.735e-06	1150.5	273.59	2.1231e-06	7.278e-06	481.54	174.72	99.635	34.136	7.5672e-06	69.854	0.00047101	0.00046984	0.00013119	701.49	5.1823e-06	5.1695e-06	1012.2	244.53	5.1144e-06	5.1351e-06	405.43	145.94	89.237	30.687	5.0693e-06	57.757	31.396	63.662	185.549	41.866	157.364	336.831	40.780	47.078	308.116	316.125	44.213	49.690	51.220	56.095	109.152	52.927	-8191	255	
1711.361	1	1	0	0	0.24243	0.2027	0.11232	0.35481	0.10634	0.18592	0.16403	0.23835	0.18988	0.19426	0.1982	0.29359	0.084671	0.08559	0.34688	0.11692	-2.8375	-2.4958	-3.2062	-3.1792	-2.6771	-3.3208	-2.9896	-2.9208	-3.35	-2.6896	-3.175	-3.2229	-2.7146	-3.3354	-2.9792	-2.8146	334.121	274.831	159.415	368.348	337.564	229.455	366.852	263.333	100.284	155.014	326.963	61.309	340.612	29.753	49.168	337.083	0.0013779	0.00015376	0.00029411	749.7	3.9958e-06	9.0132e-06	1162.8	272.92	6.7356e-06	9.1678e-06	481.05	173.75	100.32	33.928	1.5892e-05	70.071	0.00046409	0.00046673	0.00012874	694.91	5.0457e-06	5.1086e-06	1011.7	243.5	5.0938e-06	5.0529e-06	404.19	145.41	89.061	30.668	5.0374e-06	57.719	41.938	150.804	224.299	41.986	320.312	137.108	41.012	47.230	234.801	285.095	44.930	49.498	51.600	56.402	163.701	53.201	-8191	255	
1711.481	1	1	0	0	0.084593	0.22705	0.066686	0.29025	0.13508	0.25892	0.11325	0.014953	0.17762	0.084757	0.39008	0.056767	0.028314	0.17547	0.080265	0.14573	-3.0271	-2.5458	-3.0958	-3.1688	-2.5208	-3.4	-2.9292	-2.6854	-3.45	-2.7479	-2.8563	-3.4458	-2.5292	-3.2812	-3.0125	-2.5583	262.503	37.228	287.244	262.491	120.406	114.290	322.479	115.117	321.246	149.125	300.673	324.968	199.663	39.359	293.565	222.239	0.0011848	0.00092232	0.00027184	750.47	6.3145e-06	6.969e-06	1155.8	270.72	1.2119e-05	1.2132e-05	483.68	173.74	99.838	33.956	1.0433e-05	68.851	0.00046399	0.00046387	0.00012835	694.01	5.0714e-06	5.0766e-06	1008.7	243.04	5.0763e-06	5.0624e-06	404.51	145.95	88.908	30.681	5.0409e-06	57.367	359.515	38.626	307.700	41.936	134.971	230.353	40.520	46.939	146.716	72.342	44.502	49.457	51.557	55.774	195.871	52.985	-8191	255	
1711.577	1	1	0	0	0.070211	0.24795	0.018293	0.33722	0.13354	0.046018	0.18696	0.20808	0.10165	0.20226	0.014882	0.31492	0.11623	0.28996	0.33714	0.24271	-2.9646	-2.65	-2.8208	-3.1271	-2.6125	-3.4313	-3.1729	-2.5146	-3.3667	-2.5875	-2.9396	-3.4813	-2.6792	-3.1604	-3.0458	-2.7458	266.489	140.384	175.047	349.816	73.021	177.994	309.264	305.301	319.114	132.948	86.361	357.326	371.214	91.290	142.339	349.812	0.0011355	0.0011965	0.00032539	750.97	4.632e-06	5.0115e-06	1134.9	272.79	3.7546e-06	4.4171e-06	486.31	173.18	100.05	34.068	2.1619e-05	68.688	0.00046481	0.00046202	0.00012854	692.55	5.0494e-06	5.0825e-06	1001.2	243.04	5.0795e-06	5.072e-06	405.33	145.33	89.108	30.591	5.0923e-06	57.473	49.270	84.068	142.515	41.882	385.375	183.897	41.016	47.348	74.125	162.081	44.450	49.033	50.966	55.943	213.920	52.704	-8191	255	
1711.673	1	1	0	0	0.022964	0.19275	0.25296	0.10617	0.16041	0.35265	0.33241	0.25667	0.023942	0.16214	0.14745	0.26207	0.26525	0.073468	0.1611	0.14193	-3.0479	-2.8604	-2.7458	-3.3063	-2.5521	-3.0792	-3.3708	-2.525	-3.3667	-2.9208	-2.7917	-3.5625	-2.6542	-3.25	-3.2479	-2.4729	50.665	385.637	350.034	379.589	148.711	85.184	347.970	373.690	91.193	240.580	132.132	385.528	384.371	89.245	227.317	190.510	0.0011123	0.00048653	0.00010483	751.72	8.9872e-06	4.3971e-06	1146.8	271.98	6.2621e-06	4.9136e-06	484.8	172.94	99.344	34.257	8.0077e-06	69.323	0.00046368	0.0004596	0.00012912	694.56	5.0854e-06	5.0651e-06	1002.1	242.71	5.1327e-06	5.1229e-06	405.34	145.43	89.185	30.724	5.1427e-06	57.537	377.671	240.606	100.657	42.360	139.007	381.535	41.235	47.284	264.639	289.511	44.244	49.643	51.564	56.295	270.468	53.197	-8191	255	
1711.770	1	1	0	0	0.11433	0.062026	0.3039	0.17915	0.35068	0.12691	0.37226	0.1627	0.14279	0.065494	0.44407	0.35933	0.27203	0.28718	0.020828	0.10441	-3.0146	-2.9333	-2.7354	-3.3542	-2.675	-2.8979	-3.425	-2.7438	-3.2167	-2.9417	-2.7313	-3.2021	-2.8063	-2.9292	-3.1792	-2.4688	164.775	338.955	153.456	92.875	287.025	37.512	231.337	386.671	51.452	215.471	381.142	370.341	282.489	327.517	323.836	280.577	0.0006738	0.00087953	0.00051643	754.68	2.205e-06	1.9504e-06	1146.9	271.26	1.8195e-06	1.2481e-05	484.79	174.31	100.23	34.184	1.2223e-05	70.3	0.00046967	0.00046062	0.00012918	697.69	5.0905e-06	5.1154e-06	1004.8	242.95	5.096e-06	5.0402e-06	405.79	146.69	89.47	30.714	5.0439e-06	57.815	41.744	69.006	50.457	42.410	303.889	291.316	41.090	47.110	377.893	92.259	44.712	49.823	51.733	56.520	163.175	53.319	-8191	255	
1711.866	1	1	0	0	0.10882	0.035706	0.2925	0.15892	0.11471	0.15207	0.26198	0.17689	0.19587	0.17031	0.083338	0.39439	0.2518	0.061936	0.33609	0.077861	-2.8542	-3.125	-2.6167	-3.4896	-2.6271	-2.775	-3.5812	-2.7479	-3.1229	-3.1229	-2.5542	-3.4021	-2.8958	-2.8208	-3.3854	-2.8604	155.577	283.455	301.574	315.513	54.459	220.463	334.733	380.170	124.473	258.206	231.186	330.741	100.327	144.863	319.406	244.327	0.001006	0.00070076	0.00023731	760.81	3.6829e-06	7.7989e-06	1157.7	272.01	1.0227e-05	8.8995e-06	488.81	174.77	100.24	34.014	2.5239e-06	69.509	0.0004659	0.00046372	0.00012835	696.93	4.9751e-06	5.0225e-06	1009.4	243.1	5.0229e-06	4.9967e-06	404.29	146.48	89.117	30.578	5.0272e-06	57.619	63.694	90.895	373.334	42.238	250.786	220.381	40.861	47.057	195.798	221.400	44.945	49.491	51.573	56.853	312.517	53.172	-8191	255	
1711.962	1	1	0	0	0.19987	0.077608	0.39794	0.10619	0.12686	0.090553	0.14988	0.22649	0.12401	0.23002	0.19843	0.24181	0.12486	0.374	0.33283	0.24682	-2.7125	-3.2792	-2.4625	-3.4354	-2.7625	-2.7604	-3.55	-2.8542	-2.975	-3.3125	-2.5458	-3.3729	-3.125	-2.7125	-3.4229	-2.8625	192.202	286.868	61.987	211.002	167.953	49.370	274.633	323.720	278.606	373.463	371.051	352.710	172.317	373.752	114.481	329.054	0.0010808	0.00094422	0.00036323	757.48	8.0385e-06	7.4585e-06	1157.7	271.66	1.6904e-05	4.2403e-06	486.62	174.76	100.74	33.855	7.0939e-06	69.8	0.0004594	0.00045934	0.00012745	695.04	5.0072e-06	4.9856e-06	1006.6	242.67	4.9669e-06	5.0057e-06	404.4	146.26	89.121	30.533	4.9903e-06	57.546	371.725	162.467	124.965	42.259	196.640	227.977	41.315	47.145	118.592	50.817	44.653	49.546	51.578	56.340	232.539	53.125	-8191	255	
1712.081	1	1	0	0	0.06106	0.14153	0.20127	0.42089	0.1108	0.1406	0.1778	0.066238	0.12667	0.22479	0.18499	0.3697	0.20595	0.26685	0.29403	0.2601	-2.5583	-3.3812	-2.6542	-3.3896	-3.125	-2.5854	-3.6479	-2.9875	-2.7667	-3.2167	-2.5563	-3.2792	-3.0542	-2.8021	-3.4125	-2.7458	123.329	361.877	336.538	358.719	170.185	280.525	30.910	96.189	265.072	142.214	114.301	343.746	237.795	380.365	30.990	303.713	0.0014957	0.00051253	0.00012606	759.15	8.5651e-06	9.9064e-06	1158.5	272.68	3.4177e-06	7.0083e-06	484.78	174.18	101.32	33.817	8.7309e-06	70.032	0.00045524	0.00044821	0.00012444	695.55	4.8558e-06	4.873e-06	1004.7	242.29	4.8477e-06	4.8211e-06	401.11	145.76	89.175	30.324	4.8283e-06	57.582	387.389	148.227	353.519	42.414	194.000	284.207	41.073	46.914	163.885	226.180	45.269	49.443	51.724	56.493	74.696	53.321	-8191	255	
1712.177	1	1	0	0	0.13669	0.075065	0.21321	0.10202	0.024119	0.12154	0.34343	0.43909	0.24263	0.082371	0.24246	0.2533	0.27547	0.2279	0.068577	0.11627	-2.3833	-3.4958	-2.5583	-3.0604	-3.2146	-2.5687	-3.4062	-2.7521	-2.6063	-3.3312	-2.6312	-3.25	-3.2562	-2.6729	-3.4625	-3.0187	168.562	237.903	288.937	60.613	35.768	288.246	310.204	337.373	44.815	34.038	42.152	308.877	101.714	349.026	333.445	204.409	0.0012492	0.00095674	0.00043644	762.75	1.8892e-06	4.4804e-06	1164.3	272.71	5.3054e-06	1.0826e-05	482.27	176.17	101.46	34.088	7.6161e-06	69.725	0.00044136	0.00043743	0.0001218	694.43	4.7603e-06	4.7968e-06	1006.8	240.92	4.7769e-06	4.7721e-06	399.11	146.28	88.838	30.42	4.7978e-06	57.549	55.942	178.924	152.070	42.111	146.012	304.011	41.442	47.771	125.705	202.917	45.293	49.636	51.698	56.301	147.735	53.202	-8191	255	
1712.273	1	1	0	0	0.13291	0.20762	0.068349	0.1945	0.1871	0.20208	0.18687	0.21606	0.045217	0.093466	0.23753	0.07612	0.28561	0.071689	0.2594	0.17479	-2.2333	-3.3146	-2.7417	-2.9854	-3.3063	-2.6917	-3.4271	-3.1125	-2.5938	-3.3312	-2.8854	-3.1104	-3.2729	-2.5542	-3.2167	-3.1479	101.097	188.673	305.197	98.088	156.816	197.144	356.058	251.398	176.327	46.985	87.902	300.012	88.331	48.255	100.544	257.202	0.001871	0.00034186	0.00031776	753.48	4.0482e-06	4.2858e-06	1166.2	273.12	7.8681e-06	9.8732e-06	482.23	175.04	100.13	34.045	4.5639e-06	69.697	0.00043868	0.00044007	0.00012185	693.28	4.82e-06	4.829e-06	1006.3	241.65	4.7468e-06	4.7612e-06	400.41	145.71	88.674	30.293	4.764e-06	57.257	385.530	188.113	324.973	42.160	252.136	246.317	41.506	47.624	141.380	96.078	44.939	49.650	51.903	56.684	246.395	53.206	-8191	255	
1712.345	1	1	0	0	0.093651	0.15556	0.10209	0.17363	0.10342	0.14582	0.17916	0.11835	0.16241	0.17322	0.11337	0.043897	0.09946	0.073326	0.26254	0.27278	-2.225	-3.275	-2.5979	-2.9646	-3.3354	-2.525	-3.3042	-3.3208	-2.7146	-3.4042	-2.9229	-2.7979	-3.4042	-2.6271	-3.1125	-3.3438	240.265	347.768	62.377	290.837	69.488	46.552	332.548	348.329	299.666	128.244	119.110	374.058	33.570	237.557	50.641	80.597	0.0010578	0.00073517	0.00017259	762.53	7.9867e-06	3.9165e-06	1156.1	271.96	6.0799e-06	3.6166e-06	484.54	173.01	99.092	33.937	2.3348e-06	69.681	0.00043897	0.0004354	0.0001217	693.86	4.802e-06	4.8156e-06	1003.3	240.47	4.733e-06	4.7902e-06	398.16	144.69	87.969	30.157	4.7693e-06	56.915	52.029	110.666	30.088	42.778	121.245	215.602	41.441	47.082	192.111	338.497	44.664	49.896	51.599	55.837	171.479	53.405	-8191	255	
1712.465	1	1	0	0	0.16628	0.17448	0.19651	0.29168	0.29646	0.16652	0.21526	0.083857	0.1457	0.08513	0.20819	0.28038	0.24667	0.20165	0.13229	0.22472	-2.1	-3.1958	-2.9333	-2.7146	-3.3646	-2.7167	-3.1917	-3.4604	-2.575	-3.4042	-3.0167	-2.6229	-3.3771	-2.6917	-2.9875	-3.2979	304.912	322.866	142.754	310.973	265.869	56.116	349.994	300.921	311.810	87.532	36.994	372.059	333.187	138.283	93.816	346.245	0.00083775	0.00093613	0.00038503	758.35	4.3044e-06	6.1674e-06	1153.6	272.17	3.6661e-06	1.708e-06	480.61	174.87	100.47	33.407	1.3458e-05	69.634	0.00043354	0.00043575	0.00012027	693.23	4.7647e-06	4.702e-06	997.94	240.28	4.7752e-06	4.7348e-06	397.38	145.23	88.538	30.068	4.7691e-06	57.207	372.848	105.441	170.416	42.519	317.347	331.296	41.604	47.576	83.656	298.055	44.871	49.886	51.544	56.028	187.703	53.190	-8191	255	
1712.562	1	1	0	0	0.2065	0.19197	0.3668	0.06744	0.21994	0.15315	0.30046	0.2024	0.18331	0.16046	0.19595	0.055297	0.16568	0.2333	0.19612	0.10263	-2.1063	-3.2167	-2.9875	-2.7583	-3.4313	-2.625	-2.9042	-3.3667	-2.6292	-3.0333	-3.2333	-2.7792	-3.3937	-2.8167	-2.7896	-3.5938	370.811	308.684	353.895	34.586	169.229	122.644	313.614	329.160	326.033	242.836	303.271	289.034	36.218	153.656	46.234	260.321	0.0014295	0.00085219	0.00020418	759.48	1.9389e-06	8.9474e-06	1163.4	270.27	1.5085e-05	7.8058e-06	484.04	174.8	100.8	33.636	3.767e-06	69.92	0.00044021	0.00043947	0.00012225	694.75	4.8389e-06	4.7913e-06	1009.3	241.56	4.8804e-06	4.8418e-06	402.09	146.46	89.443	30.203	4.9244e-06	57.79	47.928	99.085	95.280	42.798	37.419	38.633	41.419	47.232	184.364	242.949	45.133	49.937	51.508	56.475	348.021	53.406	-8191	255	
1712.658	1	1	0	0	0.13251	0.088406	0.082784	0.035309	0.19557	0.24008	0.27361	0.15212	0.31674	0.11876	0.11819	0.044284	0.028509	0.30096	0.14319	0.15073	-2.2313	-3.2083	-3.2021	-2.6312	-3.3833	-2.8312	-2.9479	-3.4708	-2.8229	-3.0312	-3.375	-2.8604	-3.4208	-2.9271	-2.6625	-3.4375	214.008	215.913	97.399	171.796	302.190	114.955	345.334	323.363	178.045	53.669	339.927	30.929	370.426	51.949	168.700	282.089	0.0010324	0.0014691	9.9734e-05	767.03	9.2649e-06	4.8538e-06	1173	273.62	8.1881e-06	7.3242e-06	486.78	175.02	100.92	33.996	5.1324e-06	69.894	0.0004535	0.00045059	0.00012579	701.49	4.9985e-06	4.9643e-06	1017.5	243.54	5.0397e-06	4.9659e-06	404.28	146.99	90.018	30.491	5.0351e-06	57.762	43.969	231.146	237.361	42.327	251.625	243.592	41.651	46.758	90.364	292.125	44.362	49.806	51.500	55.641	357.421	53.181	-8191	255	
1712.754	1	1	0	0	0.21309	0.085802	0.13043	0.22645	0.084484	0.13322	0.1081	0.07645	0.14215	0.10307	0.027794	0.031825	0.29471	0.062227	0.2234	0.09349	-2.3833	-2.9667	-3.2167	-2.7354	-3.3354	-3.0771	-2.8104	-3.4458	-2.7854	-3.1479	-3.3187	-2.8063	-3.3521	-3.1104	-2.6667	-3.5542	388.493	63.721	375.812	341.602	353.842	201.593	321.502	111.124	278.860	370.580	221.606	351.859	366.364	317.667	39.872	295.756	0.0015074	0.00066373	0.00013134	776.5	1.1499e-05	1.2906e-05	1163.2	273.82	9.0316e-06	6.1237e-06	488	174.19	102.09	33.81	2.0082e-06	70.057	0.00045881	0.00046054	0.00012853	705.04	5.0247e-06	5.0451e-06	1013.7	244.7	5.0233e-06	5.0685e-06	406.08	147	90.397	30.583	5.0384e-06	58.147	385.960	177.761	40.611	42.434	177.901	219.917	41.648	47.098	123.716	136.633	44.725	49.725	51.473	55.791	189.371	52.905	-8191	255	
1712.850	1	1	0	0	0.26554	0.13943	0.20654	0.28127	0.22146	0.12655	0.15377	0.23768	0.075974	0.086456	0.26725	0.060502	0.14244	0.088943	0.29422	0.20406	-2.3292	-2.8104	-3.1896	-2.6771	-3.2396	-3.2292	-2.9292	-3.4062	-2.8937	-2.8708	-3.425	-2.7354	-3.0812	-3.3271	-2.5687	-3.4604	215.530	185.823	189.352	37.334	324.462	373.185	291.739	99.464	29.642	115.020	346.328	302.599	377.063	327.769	196.391	315.920	0.0016916	0.00052168	0.00039957	769.75	8.6213e-06	9.5404e-06	1161.5	272.4	1.2128e-05	6.8953e-06	483.74	176.23	101.28	33.591	6.5445e-06	69.319	0.00045902	0.00046149	0.00012823	704.83	5.0533e-06	5.0381e-06	1014.4	244.78	5.0748e-06	5.0925e-06	406.24	147.28	90.215	30.586	5.1557e-06	57.827	376.734	373.507	231.707	42.258	199.150	211.223	41.528	47.583	118.873	113.333	45.040	49.562	52.122	56.145	208.897	53.085	-8191	255	
1712.946	1	1	0	0	0.049131	0.24331	0.10522	0.13743	0.11591	0.22284	0.36944	0.02812	0.063968	0.15958	0.05517	0.050298	0.16505	0.13532	0.022031	0.44333	-2.2875	-2.8458	-3.4208	-2.7854	-3.1375	-3.2604	-2.6729	-3.4167	-2.8688	-2.6729	-3.3812	-2.7958	-2.9604	-3.325	-2.6396	-3.4062	300.251	320.678	292.514	211.125	91.496	176.342	299.186	368.468	31.726	169.512	107.698	31.029	64.220	81.744	276.011	287.885	0.0012485	0.00015937	0.00022584	762.63	5.8024e-06	1.0952e-05	1170.7	273.67	1.4004e-05	4.3602e-06	483.18	175.38	100.72	33.693	7.4108e-06	70.025	0.00047567	0.00046921	0.0001311	703.93	5.1472e-06	5.1575e-06	1019.3	245.2	5.1493e-06	5.165e-06	406.35	146.66	89.919	30.602	5.1763e-06	58.102	388.386	286.043	309.859	42.721	46.049	285.575	41.383	47.362	35.548	69.848	45.075	49.379	51.215	55.923	256.595	53.460	-8191	255	
1713.042	1	1	0	0	0.14599	0.13567	0.067559	0.32615	0.31712	0.224	0.30264	0.29542	0.22861	0.10237	0.21847	0.27506	0.18585	0.047572	0.063155	0.096635	-2.6396	-2.7625	-3.3542	-2.9083	-3.0312	-3.4417	-2.775	-3.1896	-3.0396	-2.6667	-3.4833	-2.8604	-3.0146	-3.45	-2.6292	-3.175	290.679	334.431	50.214	332.524	263.640	178.913	360.020	35.648	300.817	185.029	365.476	333.007	335.382	86.393	250.087	324.261	0.0011048	0.00073478	0.0003099	763.59	1.0694e-05	1.0558e-05	1162.7	272.4	2.6462e-06	4.24e-06	481.98	174.44	100.54	33.715	6.1452e-07	69.784	0.00047055	0.00047269	0.00013255	704.04	5.1333e-06	5.1396e-06	1015.6	243.55	5.1156e-06	5.1471e-06	405.11	146.34	89.853	30.505	5.1641e-06	57.693	52.358	226.181	51.008	42.322	220.625	125.039	41.229	47.271	83.608	238.586	44.707	50.179	51.298	56.038	173.884	53.691	-8191	255	
1713.161	1	1	0	0	0.14601	0.37886	0.1678	0.16823	0.13721	0.062439	0.18633	0.38315	0.1044	0.18532	0.16513	0.032512	0.11186	0.11266	0.19169	0.10097	-2.6437	-2.5646	-3.3542	-3.0396	-2.7396	-3.4125	-2.8396	-3.1375	-3.1417	-2.4188	-3.4104	-3.125	-2.7958	-3.4604	-2.7146	-3.1312	125.932	322.646	364.414	207.965	58.835	69.457	284.246	306.835	77.743	231.527	270.386	339.550	106.744	41.738	138.687	341.192	0.0015152	0.0021507	0.00039015	758.93	1.0068e-05	4.847e-06	1159	271.22	4.5788e-06	1.7045e-06	480.23	175.63	100.7	33.931	1.3884e-06	69.009	0.00046911	0.00046843	0.00013042	699.7	5.1022e-06	5.144e-06	1011.5	243.47	5.1161e-06	5.1164e-06	404.09	146.7	89.772	30.507	5.0868e-06	57.646	43.985	180.368	166.103	42.368	88.228	277.032	41.176	47.321	92.555	126.012	44.642	49.764	51.503	56.163	106.272	53.443	-8191	255	
1713.257	1	1	0	0	0.18433	0.30785	0.17219	0.23791	0.18991	0.10162	0.037985	0.25309	0.051107	0.1399	0.16245	0.16115	0.13872	0.25882	0.30656	0.11451	-2.9458	-2.525	-3.3042	-2.8729	-2.7521	-3.3917	-2.9	-3.1542	-3.4417	-2.5771	-3.3375	-3.0708	-2.675	-3.45	-2.8458	-3.1396	277.743	335.756	188.327	372.527	316.971	380.941	59.262	296.088	284.310	173.024	366.579	30.924	305.780	320.562	200.115	319.167	0.0013888	0.00061417	7.6075e-05	759.9	1.0736e-05	7.2294e-06	1159	273.66	3.0639e-06	7.107e-06	485.3	175.83	101.69	33.684	1.0434e-05	69.931	0.00046891	0.0004656	0.00013095	701.65	5.078e-06	5.1193e-06	1009.7	243.89	5.147e-06	5.1224e-06	407.11	147.12	90.31	30.523	5.1068e-06	58.064	31.210	151.399	224.582	42.184	162.930	175.668	40.864	47.510	149.682	197.773	44.697	49.255	51.691	56.227	108.842	52.996	-8191	255	
1713.353	1	1	0	0	0.1651	0.2423	0.26178	0.1364	0.27707	0.25177	0.23964	0.12582	0.051672	0.11918	0.19176	0.27052	0.20393	0.074549	0.14064	0.23974	-3.0125	-2.575	-3.2812	-3.2167	-2.7167	-3.3542	-2.8812	-2.9417	-3.4	-2.8042	-3.2271	-3.2271	-2.7333	-3.4375	-2.8167	-2.8812	262.688	360.676	328.464	315.369	375.376	58.698	321.573	265.694	270.535	111.209	309.324	371.264	367.543	258.890	164.290	227.072	0.0011455	0.00054531	0.00020626	760.14	1.3019e-05	1.1097e-05	1163.5	272.43	8.1685e-06	8.4e-06	490.92	176.8	101.71	34.004	2.4333e-06	69.524	0.00047431	0.00047003	0.00013151	703.48	5.1572e-06	5.1551e-06	1015.7	244.48	5.1271e-06	5.1323e-06	407.64	148.2	90.732	30.688	5.1045e-06	57.81	371.173	250.124	180.274	42.215	225.400	112.930	41.242	46.923	289.588	52.173	44.629	48.995	51.392	55.982	142.540	53.177	-8191	255	
1713.450	1	1	0	0	0.14488	0.04172	0.11184	0.16117	0.16445	0.19358	0.17487	0.10222	0.10828	0.13736	0.072859	0.23312	0.27017	0.019833	0.15176	0.29557	-3.0375	-2.525	-2.9938	-3.1875	-2.4958	-3.5417	-3.0667	-2.775	-3.4813	-2.5396	-3.0062	-3.3396	-2.5687	-3.2167	-3.1208	-2.9208	332.870	366.612	68.490	72.223	203.360	303.779	388.570	178.496	355.747	148.917	261.627	313.836	87.013	287.520	153.637	313.363	0.0016154	0.00098263	6.8192e-05	752.31	5.5715e-06	1.0101e-05	1154.4	272.42	9.3656e-06	3.8234e-06	477.86	171.17	98.855	33.094	1.3865e-05	68.046	0.00046612	0.00046563	0.000129	696.25	5.0559e-06	5.0053e-06	1003.6	242.56	4.9918e-06	4.9846e-06	401.83	143.85	87.938	29.922	4.9878e-06	56.325	372.772	228.302	56.975	42.258	169.276	189.520	40.462	46.580	154.917	372.849	44.324	48.814	51.358	55.425	345.725	52.607	-8191	255	
1713.570	1	1	0	0	0.19069	0.04604	0.024752	0.19285	0.13744	0.060611	0.37702	0.10611	0.059757	0.084295	0.22718	0.2609	0.048146	0.14681	0.17019	0.063867	-2.8958	-2.5438	-3.1146	-3.4	-2.4562	-3.0979	-3.1229	-2.8792	-3.375	-2.9729	-2.7271	-3.3875	-2.6854	-3.2292	-2.8875	-2.6104	324.703	130.658	108.483	330.560	148.899	90.737	319.962	299.619	252.446	207.002	327.565	339.858	360.562	339.880	298.543	203.693	0.0012989	0.0005901	0.00012203	750.18	7.9725e-06	6.0745e-06	1131.6	267.88	4.7388e-06	8.1202e-06	476.05	169.72	98.524	32.65	1.3892e-05	67.63	0.00046172	0.00045448	0.00012709	688.73	5.0171e-06	5.0184e-06	991.77	239.24	5.049e-06	5.025e-06	398.45	142.28	87.615	29.694	5.018e-06	56.157	70.107	337.596	385.628	41.904	149.504	76.758	41.013	46.614	368.963	174.007	44.759	48.940	51.238	55.621	162.180	52.865	-8191	255	
1713.642	1	1	0	0	0.10453	0.023633	0.20635	0.14127	0.093872	0.27832	0.37534	0.40999	0.15269	0.10501	0.34263	0.21822	0.37861	0.073087	0.083866	0.085637	-2.8146	-2.6917	-2.6042	-3.4	-2.4542	-3.0146	-3.2917	-2.6583	-3.4292	-2.8208	-2.9021	-3.3479	-2.6042	-3.0687	-3.0917	-2.5542	63.553	255.562	370.865	326.530	118.972	44.412	364.919	381.642	77.753	61.817	365.943	331.039	86.100	66.629	216.032	243.199	0.0014096	0.0010672	0.00017318	749.83	8.1577e-06	1.528e-05	1142.8	270.09	1.0825e-05	1.3067e-05	479.07	170.46	98.787	33.143	3.6312e-06	68.673	0.0004611	0.00045839	0.00012877	690.64	5.0243e-06	5.0726e-06	997.29	241.07	5.063e-06	5.0457e-06	401.93	143.78	88.24	30.01	5.0985e-06	56.86	42.623	280.415	200.468	42.286	148.051	109.736	40.708	46.726	268.831	241.721	44.415	49.309	51.029	56.064	345.502	52.544	-8191	255	
1713.738	1	1	0	0	0.17772	0.11039	0.25357	0.15694	0.21252	0.1816	0.16764	0.37291	0.17341	0.14202	0.161	0.092517	0.0087224	0.19755	0.11689	0.28635	-2.8438	-2.8333	-2.6188	-3.3917	-2.7708	-3.1271	-3.2521	-2.6188	-3.1458	-2.9104	-2.7896	-3.3979	-2.7812	-3.0312	-3.2333	-2.8708	36.168	323.418	65.643	50.939	42.927	335.810	385.897	352.805	324.753	186.465	283.295	109.864	273.037	285.228	157.020	318.889	0.00039361	0.0010181	0.00016224	754.05	3.9787e-06	5.0522e-06	1144.1	269.05	1.6123e-06	1.5405e-06	482.28	171.83	99.281	33.396	6.7223e-06	69.054	0.00047054	0.00046998	0.00013031	693.51	5.1082e-06	5.1597e-06	999	241.64	5.1513e-06	5.1431e-06	404.8	145.12	88.699	30.186	5.1441e-06	57.329	43.946	104.770	145.170	41.822	184.592	118.287	40.919	47.090	320.969	47.596	44.855	49.335	51.318	56.169	381.828	53.255	-8191	255	
1713.859	1	1	0	0	0.15083	0.10366	0.11972	0.15097	0.089935	0.12052	0.44467	0.20839	0.094989	0.17917	0.15706	0.30887	0.16132	0.080771	0.049637	0.15164	-2.8896	-3.0938	-2.5458	-3.5917	-2.7188	-2.85	-3.4708	-2.8354	-3.2458	-2.9979	-2.7687	-3.4979	-2.7812	-2.7042	-3.2521	-2.5896	364.947	281.542	196.196	90.230	97.506	110.227	309.146	352.234	274.717	376.712	373.625	349.210	104.741	355.969	112.639	135.566	0.0005721	0.00057485	0.00018587	746.78	6.6997e-06	1.669e-06	1148.2	272.17	4.7814e-06	6.6743e-06	485.67	174.34	101.14	33.13	1.4389e-07	67.725	0.00046837	0.00046679	0.00013092	691.55	5.0801e-06	5.0667e-06	1004	243.21	5.0228e-06	5.0299e-06	404.8	145.57	88.843	29.871	5.0085e-06	56.75	369.903	275.347	48.564	41.986	209.138	210.480	41.204	46.705	203.751	194.666	44.511	48.780	51.369	56.152	100.991	52.630	-8191	255	
1713.955	1	1	0	0	0.078272	0.26452	0.19494	0.1345	0.078772	0.14871	0.21381	0.15042	0.05656	0.21552	0.44847	0.22018	0.18028	0.17481	0.10408	0.18017	-2.6312	-3.1562	-2.4729	-3.2875	-2.7833	-2.7604	-3.5812	-2.8187	-2.9437	-3.2021	-2.75	-3.3187	-2.8646	-2.7146	-3.45	-2.7479	361.369	94.193	161.335	190.300	142.737	283.363	72.434	308.521	138.069	301.258	379.204	349.341	162.885	359.705	76.183	88.170	0.0011126	0.0011657	0.00027299	751.41	7.1296e-06	8.16e-06	1144.2	270.58	9.2613e-07	7.2908e-06	481.02	172.28	99.147	32.882	6.1446e-06	68.34	0.00045771	0.00045789	0.00012762	691.31	4.9638e-06	5.0062e-06	996.65	241.1	4.9525e-06	4.9685e-06	399.77	144.13	88.149	29.739	4.9641e-06	56.617	380.727	248.681	153.453	42.133	35.225	149.026	40.801	47.091	271.167	257.337	44.791	49.447	50.973	56.363	102.221	52.692	-8191	255	
1714.049	1	1	0	0	0.10327	0.15042	0.058011	0.10053	0.16089	0.20112	0.19479	0.17312	0.12005	0.048999	0.21947	0.20273	0.12394	0.058583	0.24415	0.254	-2.7833	-3.2896	-2.6292	-3.2646	-3.0167	-2.5917	-3.4562	-2.7604	-3.0854	-3.3479	-2.5917	-3.4062	-3.0812	-2.5312	-3.3812	-2.8542	104.837	105.029	237.728	372.738	29.413	51.309	315.292	358.026	199.313	108.706	365.246	344.974	365.764	383.357	388.275	303.087	0.0014288	0.0016152	0.00026589	751.79	7.2296e-06	1.0572e-05	1153.1	270.7	6.5036e-06	9.4594e-06	483.31	172.2	98.468	32.941	1.3153e-05	67.683	0.00045501	0.00045032	0.00012526	690.97	4.8748e-06	4.8719e-06	998.95	240.26	4.8404e-06	4.8406e-06	398.39	143.55	87.121	29.527	4.8419e-06	55.975	101.425	119.123	101.066	42.186	129.373	165.813	41.005	46.691	272.450	236.792	44.256	49.215	50.653	56.271	182.357	52.974	-8191	255	
1714.145	1	1	0	0	0.20567	0.12028	0.30574	0.17306	0.11806	0.24433	0.24676	0.1543	0.079493	0.1193	0.20823	0.13347	0.065414	0.11708	0.1501	0.30629	-2.4208	-3.3729	-2.4938	-3.2771	-3.0167	-2.4875	-3.4437	-3.0021	-2.7521	-3.3	-2.7021	-3.3458	-3.2208	-2.5187	-3.2583	-3.25	324.833	387.698	66.882	213.576	173.958	352.514	325.807	275.852	357.244	203.008	368.701	68.162	81.168	68.495	50.838	335.793	0.00030126	0.00065596	7.2198e-05	752.17	1.2057e-05	1.7731e-05	1149.5	270.53	1.5477e-05	8.0005e-06	479.61	171.95	98.84	32.964	3.2792e-06	68.475	0.00043757	0.00043599	0.00012164	685.88	4.7374e-06	4.7605e-06	993.79	238.33	4.7337e-06	4.7182e-06	395.12	142.58	86.792	29.264	4.6507e-06	56.015	386.715	195.249	189.250	42.181	337.740	152.148	41.385	47.250	236.314	275.043	44.858	49.494	51.408	56.162	174.922	52.950	-8191	255	
1714.242	1	1	0	0	0.090694	0.14846	0.10945	0.23472	0.036618	0.37376	0.25298	0.21866	0.18037	0.21135	0.25648	0.16338	0.21286	0.12962	0.26932	0.05779	-2.35	-3.3396	-2.5917	-3.1667	-3.1604	-2.5354	-3.4958	-3.1458	-2.6958	-3.4188	-2.7812	-2.95	-3.2396	-2.6479	-3.2667	-2.9917	219.751	254.369	95.376	39.830	287.931	367.027	317.585	336.469	215.680	287.972	219.617	44.749	78.554	364.030	218.589	158.725	0.0010813	0.0010284	0.00024523	753.43	3.6824e-06	1.2034e-05	1140.9	268.47	8.3109e-06	1.122e-05	480.38	171.02	98.999	32.661	7.8244e-06	67.915	0.00042987	0.00042592	0.00011838	686.09	4.6367e-06	4.6388e-06	989.66	238.04	4.6436e-06	4.6477e-06	395.46	142.47	86.827	29.147	4.6091e-06	55.967	385.890	81.085	147.031	42.274	233.077	112.970	41.048	46.509	124.461	386.389	44.527	49.433	51.537	56.193	205.566	52.637	-8191	255	
1714.338	1	1	0	0	0.14833	0.12192	0.12322	0.10943	0.25156	0.28282	0.23126	0.31066	0.10379	0.15032	0.15922	0.24854	0.10167	0.18804	0.37005	0.11903	-2.2604	-3.2042	-2.6729	-3.0271	-3.2583	-2.7604	-3.2875	-3.0687	-2.5479	-3.2875	-2.9521	-2.9188	-3.4437	-2.7979	-3.2	-3.3083	235.428	353.845	363.885	96.872	313.560	359.291	311.279	264.453	227.793	339.784	345.254	372.239	85.525	145.412	340.379	381.484	0.0010018	0.00063966	0.00026788	763.41	1.1979e-05	7.4956e-06	1147.8	271.09	1.3609e-05	5.9821e-06	480.79	172.45	99.593	32.756	9.0143e-06	69.052	0.00042248	0.00042035	0.00011662	685.23	4.5844e-06	4.6316e-06	994.57	239.26	4.5641e-06	4.6096e-06	396.87	143.83	87.399	29.226	4.5997e-06	56.376	379.139	333.706	354.685	42.194	133.937	235.703	41.527	47.343	189.039	231.248	44.418	49.437	51.609	55.910	69.766	53.108	-8191	255	
1714.434	1	1	0	0	0.11459	0.14345	0.17511	0.1261	0.094714	0.31314	0.3085	0.33084	0.073539	0.1297	0.32827	0.17632	0.19235	0.212	0.23679	0.073485	-2.1458	-3.3479	-2.6833	-2.8375	-3.4458	-2.7146	-3.125	-3.4479	-2.5375	-3.4833	-3.0146	-2.7708	-3.5396	-2.4979	-2.8979	-3.4208	34.134	347.482	177.994	36.969	39.345	258.886	293.126	341.067	348.219	248.122	322.880	333.955	82.626	341.934	203.076	357.140	0.00090717	0.00084689	3.8738e-05	752.92	4.7259e-06	3.3737e-06	1147.7	274.05	3.1047e-06	6.3105e-06	487.79	173.86	101.08	33.087	6.5683e-06	69.347	0.00042535	0.00042405	0.00011719	690	4.6797e-06	4.668e-06	998.35	240.99	4.6974e-06	4.7217e-06	400.57	144.39	88.268	29.493	4.6731e-06	56.954	56.953	118.618	78.083	42.512	98.176	110.939	41.197	47.320	89.705	157.173	44.934	49.818	51.776	55.985	85.705	52.809	-8191	255	
1714.530	1	1	0	0	0.324	0.25065	0.24071	0.20088	0.11862	0.14742	0.21228	0.2936	0.15716	0.11344	0.1259	0.27437	0.067341	0.29285	0.19254	0.19523	-2.1	-3.2125	-2.9896	-2.7812	-3.4229	-2.6937	-3.0563	-3.3208	-2.675	-3.3792	-3.0187	-2.65	-3.5458	-2.6729	-2.8021	-3.5604	66.932	101.965	99.610	318.303	232.547	304.732	293.093	351.958	164.551	162.269	280.361	303.451	300.042	61.150	357.485	373.169	0.00097311	0.00071599	0.0001998	760.23	2.9891e-06	4.8451e-06	1162.5	274.02	1.3341e-05	8.0293e-06	486.69	176.68	101.2	32.985	7.4433e-06	68.805	0.00043012	0.00042953	0.00011963	692.42	4.7569e-06	4.722e-06	1004.4	243.11	4.7381e-06	4.7416e-06	401.77	146.6	88.914	29.677	4.7939e-06	57.051	38.131	67.302	67.913	42.225	158.964	120.482	41.513	46.789	351.782	235.035	45.407	49.758	51.415	55.952	186.906	53.253	-8191	255	
1714.651	1	1	0	0	0.11323	0.074728	0.12328	0.24661	0.25342	0.1872	0.2226	0.20451	0.21959	0.052694	0.24359	0.10281	0.129	0.21368	0.11983	0.11781	-2.1604	-3.175	-2.9833	-2.8104	-3.3667	-2.8271	-2.8917	-3.3417	-2.6333	-3.0354	-3.2958	-2.6479	-3.3438	-3.0333	-2.7479	-3.3812	80.659	377.525	388.831	351.115	354.755	151.667	249.366	316.267	111.534	112.863	322.983	31.676	90.392	94.406	76.422	331.036	0.0008347	0.0011743	0.00012415	762.14	9.6475e-06	9.3863e-06	1161.4	273.44	3.2047e-06	6.3814e-06	492.13	174.85	100.79	33.557	7.5672e-06	68.803	0.00043955	0.00043793	0.0001221	695.98	4.8429e-06	4.8132e-06	1007.3	242.9	4.8386e-06	4.814e-06	405.01	145.29	88.747	29.849	4.9231e-06	56.945	386.726	136.483	66.876	42.450	300.291	141.588	41.858	47.073	61.652	307.614	45.138	50.002	51.706	56.274	373.622	53.241	-8191	255	
1714.747	1	1	0	0	0.33731	0.24311	0.10229	0.37495	0.10803	0.14451	0.22851	0.34834	0.25297	0.17309	0.08642	0.3623	0.14659	0.12277	0.041204	0.19324	-2.2208	-3.0292	-3.2479	-2.5187	-3.2479	-2.9708	-2.8479	-3.5354	-2.7479	-2.875	-3.3187	-2.75	-3.2229	-3.0729	-2.7229	-3.5729	309.584	229.815	133.299	356.398	332.330	121.745	301.381	287.047	96.209	223.816	380.721	317.520	309.955	70.111	143.712	335.008	0.00093436	0.00020431	0.00017031	761.46	1.2026e-05	5.2632e-06	1160.4	274.38	2.4693e-06	7.6912e-06	481.34	174.03	99.954	33.005	5.7628e-06	69.355	0.00044749	0.00044303	0.00012308	698.51	4.8754e-06	4.9306e-06	1008.8	243.79	4.8934e-06	4.9212e-06	402.03	144.93	88.494	29.647	4.9205e-06	57.049	355.101	252.871	133.846	42.593	94.283	155.373	41.329	47.409	254.628	320.869	44.898	49.762	51.866	56.222	80.527	52.760	-8191	255	
1714.843	1	1	0	0	0.11975	0.25062	0.016956	0.5087	0.067056	0.11397	0.29815	0.25566	0.064454	0.44894	0.22451	0.27538	0.14984	0.15338	0.30998	0.25429	-2.3208	-3.0146	-3.2896	-2.6167	-3.1854	-3.1146	-2.7208	-3.4146	-2.6792	-2.9062	-3.3583	-2.7146	-3.4104	-3.2271	-2.6208	-3.4521	57.687	102.838	338.820	361.769	278.776	40.168	331.316	285.224	79.684	339.451	38.388	344.984	112.409	194.223	258.650	337.238	0.00093343	0.00054201	4.0007e-05	761.37	6.0578e-06	9.7736e-06	1149.6	272.29	4.7624e-06	5.2459e-06	485.64	174.85	100.4	33.092	9.2306e-06	69.272	0.00044918	0.00044981	0.00012422	695.82	4.9322e-06	4.9093e-06	1006.6	243.18	4.9028e-06	4.9323e-06	403.82	145.59	88.608	29.689	4.9505e-06	57.364	51.982	168.677	214.264	42.088	46.091	101.893	41.218	47.180	114.056	202.350	44.469	49.356	51.634	55.722	300.558	53.149	-8191	255	
1714.939	1	1	0	0	0.23088	0.10458	0.13954	0.28721	0.36157	0.17978	0.15562	0.11069	0.27074	0.072503	0.2453	0.26835	0.21007	0.31693	0.15342	0.090853	-2.4979	-2.7625	-3.5312	-2.5417	-3.075	-3.3521	-2.7708	-3.3854	-2.7542	-2.7313	-3.4562	-2.8333	-3.1354	-3.3417	-2.5312	-3.4021	222.374	292.275	232.121	352.362	323.951	311.263	343.466	300.206	43.900	131.065	326.363	381.156	360.962	57.370	243.032	335.916	0.0015594	0.0010593	0.00031134	763.37	5.384e-06	5.0479e-07	1172.9	274.96	9.6725e-06	3.3785e-06	486.73	173.79	100.51	33.114	3.0668e-06	70.291	0.00045563	0.0004505	0.00012534	701.44	4.9735e-06	4.9364e-06	1016.6	244.27	4.9345e-06	4.9437e-06	405.77	145.63	89.254	29.82	4.9562e-06	57.717	43.085	119.404	327.716	41.887	134.181	333.765	40.952	46.923	33.126	98.176	44.468	49.271	51.702	55.891	122.971	52.603	-8191	255	
1715.035	1	1	0	0	0.077166	0.33897	0.19185	0.10557	0.042767	0.089537	0.10781	0.3512	0.096756	0.20599	0.13977	0.083565	0.31227	0.14678	0.17371	0.19268	-2.5312	-2.7438	-3.5708	-2.9125	-3.0417	-3.4375	-2.6958	-3.4646	-2.9958	-2.7792	-3.5167	-2.8292	-2.9625	-3.3167	-2.5729	-3.3979	314.899	196.378	278.862	129.295	324.337	86.831	44.896	366.698	37.187	364.396	357.742	209.693	311.087	379.409	357.239	283.530	0.0015083	0.0015581	0.00026173	772.54	5.5236e-06	7.111e-06	1162.2	277.22	1.307e-05	4.1303e-06	489.59	176.52	102.61	33.436	6.1392e-06	69.792	0.00045336	0.00045494	0.00012579	704.02	5.0039e-06	5.008e-06	1010.1	245.55	5.0304e-06	5.0164e-06	408.33	147.74	90.473	30.119	5.0281e-06	58.058	379.602	146.096	265.486	42.136	340.622	215.852	41.060	47.312	86.107	289.833	44.435	49.413	51.133	56.122	146.874	52.868	-8191	255	
1715.131	1	1	0	0	0.11139	0.088843	0.13912	0.12128	0.14847	0.060322	0.2257	0.35281	0.10547	0.26936	0.18527	0.18407	0.24264	0.25615	0.15815	0.093767	-2.7938	-2.5667	-3.3521	-2.8458	-2.9875	-3.4	-2.7104	-3.1979	-3.0875	-2.6021	-3.4146	-2.9104	-2.7979	-3.4917	-2.4562	-3.3063	180.595	145.498	38.657	34.834	205.522	236.076	318.775	323.476	221.991	381.020	44.722	359.225	48.648	32.155	90.216	253.302	0.00088529	0.00072754	0.0004812	767.39	2.7944e-06	6.8513e-06	1168.1	278.56	1.0846e-05	2.4874e-06	493.06	175.23	101.86	33.136	3.98e-06	70.4	0.00046062	0.00045675	0.00012723	706.4	5.0031e-06	5.0238e-06	1017	247.83	4.9558e-06	4.9928e-06	407.73	147.14	90.15	29.84	4.9914e-06	57.906	36.479	185.669	115.390	41.917	348.651	158.188	40.907	46.912	202.792	238.476	44.647	49.129	51.979	55.995	242.414	53.466	-8191	255	
1715.250	1	1	0	0	0.23315	0.063838	0.22495	0.037523	0.24933	0.21935	0.2319	0.14369	0.16494	0.17562	0.040633	0.22986	0.039677	0.043304	0.041055	0.40416	-2.8604	-2.4479	-3.275	-3.0729	-2.5833	-3.2083	-2.7771	-3.1312	-3.125	-2.5438	-3.175	-3.0542	-2.65	-3.5125	-2.6917	-3.1479	98.250	230.425	92.737	163.972	151.496	190.525	323.862	350.402	223.594	339.419	246.043	333.896	351.581	335.247	137.298	326.500	0.0011921	0.00042945	0.00013919	762.17	6.8922e-06	6.1936e-06	1169.8	277.45	4.2434e-06	1.0567e-05	484.79	176.4	100.6	32.654	1.2049e-05	70.195	0.00045395	0.00045643	0.00012713	701.9	4.9635e-06	4.9482e-06	1013.6	246	4.9848e-06	4.9516e-06	404.34	146.87	89.375	29.74	4.9791e-06	57.981	344.478	241.320	262.424	42.096	229.058	211.179	41.238	47.660	316.077	266.743	45.208	49.872	52.017	56.101	119.828	52.873	-8191	255	
1715.346	1	1	0	0	0.083643	0.3158	0.25925	0.2426	0.12064	0.10759	0.21435	0.13659	0.34186	0.13486	0.14294	0.29364	0.14981	0.051131	0.27037	0.15215	-2.9333	-2.5104	-3.2208	-3.1271	-2.4792	-3.5521	-2.7979	-2.9562	-3.2208	-2.6417	-3.0396	-3.1792	-2.6229	-3.5083	-2.7417	-2.975	88.746	162.596	323.354	270.865	375.151	206.819	229.085	309.186	143.258	289.480	265.019	55.833	288.480	259.753	299.206	327.590	0.00079007	0.0012594	0.00021381	761.91	7.7834e-06	1.2432e-05	1170.4	278.22	2.9779e-06	6.4919e-06	490.01	175.52	101.01	33.147	3.0291e-06	69.741	0.00045726	0.00045141	0.00012689	700.06	4.9785e-06	4.9882e-06	1016.3	245.99	4.9979e-06	4.9727e-06	406.48	146.76	89.574	29.791	4.9594e-06	57.587	32.869	221.821	300.786	42.046	110.611	270.491	41.235	47.594	218.079	279.421	44.723	49.405	51.357	56.070	204.246	53.123	-8191	255	
1715.443	1	1	0	0	0.096257	0.20021	0.34768	0.13465	0.15846	0.17587	0.25536	0.232	0.17455	0.053297	0.17916	0.24735	0.095057	0.34973	0.11292	0.17066	-3.0875	-2.6188	-3.1063	-3.2375	-2.7458	-3.3625	-2.9667	-2.8646	-3.4708	-2.7479	-3.2479	-3.2458	-2.8937	-3.2917	-2.7917	-2.7438	299.561	115.543	174.786	335.765	88.220	234.160	216.247	369.596	345.289	322.949	333.852	76.011	359.614	361.549	378.417	338.489	0.0015336	0.00060605	0.00017387	762.33	7.4821e-06	6.5615e-06	1161.3	275.11	6.5737e-06	5.4013e-06	481.27	173.05	99.516	32.578	2.6218e-06	69.304	0.0004537	0.00045141	0.00012549	699.09	4.9208e-06	4.9489e-06	1008.1	245.01	4.9723e-06	4.9349e-06	402.9	145.33	88.468	29.676	4.9422e-06	57.314	35.440	278.571	358.149	42.414	202.525	363.888	41.062	47.261	150.138	236.306	44.480	49.114	51.081	55.960	52.295	52.599	-8191	255	
1715.539	1	1	0	0	0.087757	0.07132	0.26916	0.10995	0.19034	0.13856	0.06598	0.15209	0.12075	0.082671	0.36618	0.32773	0.41094	0.004805	0.12163	0.26094	-3.1083	-2.6437	-2.8542	-3.3208	-2.6625	-3.2729	-3.2875	-2.7854	-3.3833	-2.8479	-2.7833	-3.4542	-2.6354	-3.2812	-3.0792	-2.6667	359.508	286.181	184.369	304.797	169.383	84.994	364.259	337.047	81.875	61.935	110.223	330.047	371.937	84.655	40.247	188.850	0.0016303	0.0013324	0.00045027	760.63	3.7429e-06	1.4251e-05	1145.5	273.88	6.2278e-06	1.2985e-06	489.52	173.45	100.09	32.762	8.8766e-06	69.148	0.00045111	0.00045352	0.00012527	696.85	4.9151e-06	4.9705e-06	1001.9	243.87	4.913e-06	4.8945e-06	404.97	145.26	88.521	29.586	4.9379e-06	57.239	373.447	257.277	85.408	41.961	69.607	258.345	41.176	47.734	171.026	81.701	44.924	49.303	51.158	56.317	105.642	53.066	-8191	255	
#DATA ENDS
