BOXY.EXE: ISS Imagent and Oximeter Data Acquisition Program Version 0.80
Ascii Record File

#ACQ INFORMATION
2  Detector Channels 
16  External MUX Channels 
1  Auxiliary Channels 
5000  Waveform (CCF) Frequency (Hz)
1  Waveforms Skipped 
30  Waveforms Averaged 
1  Cycles Averaged 
16  Acquisitions per Waveform 
10.0806  Updata Rate (Hz) 

#FILE INFORMATION
TRUE -- External MUX Channel results are PARSED.
FALSE -- AC DC and Phase are NOT grouped.
TRUE -- Companion Program Settings File CREATED.
FALSE -- AC data not excluded
FALSE -- DC data not excluded
FALSE -- Phase data not excluded
FALSE -- Auxillary Chn. data not excluded
Tab delimiters

#CALIBRATION STATE
TRUE -- Waveform Calibration Values APPLIED.


#AUX CALIBRATION VALUES
Val Type	aux-1	

Term	1.0000e+00	
Factor	0.0000e+00	


#WF CALIBRATION VALUES
A = Detector Channel
Val Type	A-AC1	A-AC2	A-AC3	A-AC4	A-AC5	A-AC6	A-AC7	A-AC8	A-AC9	A-AC10	A-AC11	A-AC12	A-AC13	A-AC14	A-AC15	A-AC16	A-DC1	A-DC2	A-DC3	A-DC4	A-DC5	A-DC6	A-DC7	A-DC8	A-DC9	A-DC10	A-DC11	A-DC12	A-DC13	A-DC14	A-DC15	A-DC16	A-Ph1	A-Ph2	A-Ph3	A-Ph4	A-Ph5	A-Ph6	A-Ph7	A-Ph8	A-Ph9	A-Ph10	A-Ph11	A-Ph12	A-Ph13	A-Ph14	A-Ph15	A-Ph16	

Term	0.00000e+00	0.00000e+00	0.00000e+00	0.00000e+00	0.00000e+00	0.00000e+00	0.00000e+00	0.00000e+00	0.00000e+00	0.00000e+00	0.00000e+00	0.00000e+00	0.00000e+00	0.00000e+00	0.00000e+00	0.00000e+00	0.00000e+00	0.00000e+00	0.00000e+00	0.00000e+00	0.00000e+00	0.00000e+00	0.00000e+00	0.00000e+00	0.00000e+00	0.00000e+00	0.00000e+00	0.00000e+00	0.00000e+00	0.00000e+00	0.00000e+00	0.00000e+00	0.00000e+00	0.00000e+00	0.00000e+00	0.00000e+00	0.00000e+00	0.00000e+00	0.00000e+00	0.00000e+00	0.00000e+00	0.00000e+00	0.00000e+00	0.00000e+00	0.00000e+00	0.00000e+00	0.00000e+00	0.00000e+00	
Factor	1.00000e+00	1.00000e+00	1.00000e+00	1.00000e+00	1.00000e+00	1.00000e+00	1.00000e+00	1.00000e+00	1.00000e+00	1.00000e+00	1.00000e+00	1.00000e+00	1.00000e+00	1.00000e+00	1.00000e+00	1.00000e+00	1.00000e+00	1.00000e+00	1.00000e+00	1.00000e+00	1.00000e+00	1.00000e+00	1.00000e+00	1.00000e+00	1.00000e+00	1.00000e+00	1.00000e+00	1.00000e+00	1.00000e+00	1.00000e+00	1.00000e+00	1.00000e+00	X	X	X	X	X	X	X	X	X	X	X	X	X	X	X	X	

B = Detector Channel
Val Type	B-AC1	B-AC2	B-AC3	B-AC4	B-AC5	B-AC6	B-AC7	B-AC8	B-AC9	B-AC10	B-AC11	B-AC12	B-AC13	B-AC14	B-AC15	B-AC16	B-DC1	B-DC2	B-DC3	B-DC4	B-DC5	B-DC6	B-DC7	B-DC8	B-DC9	B-DC10	B-DC11	B-DC12	B-DC13	B-DC14	B-DC15	B-DC16	B-Ph1	B-Ph2	B-Ph3	B-Ph4	B-Ph5	B-Ph6	B-Ph7	B-Ph8	B-Ph9	B-Ph10	B-Ph11	B-Ph12	B-Ph13	B-Ph14	B-Ph15	B-Ph16	

Term	0.00000e+00	0.00000e+00	0.00000e+00	0.00000e+00	0.00000e+00	0.00000e+00	0.00000e+00	0.00000e+00	0.00000e+00	0.00000e+00	0.00000e+00	0.00000e+00	0.00000e+00	0.00000e+00	0.00000e+00	0.00000e+00	0.00000e+00	0.00000e+00	0.00000e+00	0.00000e+00	0.00000e+00	0.00000e+00	0.00000e+00	0.00000e+00	0.00000e+00	0.00000e+00	0.00000e+00	0.00000e+00	0.00000e+00	0.00000e+00	0.00000e+00	0.00000e+00	-2.01985e+02	-1.29378e+02	-1.28570e+02	-1.80487e+02	-8.05482e+01	-6.35979e+01	-1.57016e+02	-1.62015e+02	-9.10596e+01	-6.42508e+01	-1.71443e+02	-1.71615e+02	-1.83224e+02	-1.76661e+02	-7.99887e+01	-1.49508e+02	
Factor	5.02138e-05	2.16187e-04	5.75228e-05	2.02782e-01	2.24451e-06	2.39498e-06	2.11821e-01	6.23708e-02	2.36109e-06	2.12806e-06	1.02550e-01	4.02935e-02	4.67635e-02	1.15781e-02	2.14567e-06	1.65216e-02	1.48403e-05	2.08106e-05	5.80611e-06	1.01095e-01	2.10257e-07	2.31288e-07	9.93696e-02	3.12328e-02	2.09323e-07	2.30627e-07	4.98278e-02	1.95568e-02	2.33408e-02	5.84236e-03	2.17295e-07	8.10984e-03	X	X	X	X	X	X	X	X	X	X	X	X	X	X	X	X	



#DISTANCE SETTINGS
A = Detector Channel
A-1	A-2	A-3	A-4	A-5	A-6	A-7	A-8	A-9	A-10	A-11	A-12	A-13	A-14	A-15	A-16	

2.5000e+00	3.0000e+00	2.5000e+00	3.0000e+00	2.0000e+00	3.0000e+00	1.5000e+00	3.0000e+00	3.0000e+00	3.0000e+00	3.0000e+00	3.0000e+00	3.0000e+00	3.0000e+00	1.5000e+00	3.0000e+00	

B = Detector Channel
B-1	B-2	B-3	B-4	B-5	B-6	B-7	B-8	B-9	B-10	B-11	B-12	B-13	B-14	B-15	B-16	

1.0000e+01	1.0000e+01	1.0000e+01	1.4400e+00	1.0000e+01	1.0000e+01	1.5100e+00	1.9400e+00	1.0000e+01	1.0000e+01	1.9900e+00	2.4900e+00	2.4100e+00	2.9000e+00	1.0000e+01	2.9800e+00	




#DATA BEGINS
time	group	step	mark	flag	A-AC1	A-AC2	A-AC3	A-AC4	A-AC5	A-AC6	A-AC7	A-AC8	A-AC9	A-AC10	A-AC11	A-AC12	A-AC13	A-AC14	A-AC15	A-AC16	A-DC1	A-DC2	A-DC3	A-DC4	A-DC5	A-DC6	A-DC7	A-DC8	A-DC9	A-DC10	A-DC11	A-DC12	A-DC13	A-DC14	A-DC15	A-DC16	A-Ph1	A-Ph2	A-Ph3	A-Ph4	A-Ph5	A-Ph6	A-Ph7	A-Ph8	A-Ph9	A-Ph10	A-Ph11	A-Ph12	A-Ph13	A-Ph14	A-Ph15	A-Ph16	B-AC1	B-AC2	B-AC3	B-AC4	B-AC5	B-AC6	B-AC7	B-AC8	B-AC9	B-AC10	B-AC11	B-AC12	B-AC13	B-AC14	B-AC15	B-AC16	B-DC1	B-DC2	B-DC3	B-DC4	B-DC5	B-DC6	B-DC7	B-DC8	B-DC9	B-DC10	B-DC11	B-DC12	B-DC13	B-DC14	B-DC15	B-DC16	B-Ph1	B-Ph2	B-Ph3	B-Ph4	B-Ph5	B-Ph6	B-Ph7	B-Ph8	B-Ph9	B-Ph10	B-Ph11	B-Ph12	B-Ph13	B-Ph14	B-Ph15	B-Ph16	aux-1	digaux	

22868.023	1	1	0	768	0.11229	0.058418	0.11184	0.1126	0.12005	0.16204	0.074785	0.24048	0.24352	0.3119	0.21253	0.093348	0.12728	0.063828	0.075168	0.3584	-2.5771	-2.7292	-3.1229	-2.8333	-2.9917	-3.1292	-2.8937	-3.0438	-3.0583	-2.7979	-3.2104	-2.8146	-3.1229	-3.0125	-2.7833	-3.2104	38.382	300.805	58.156	281.860	17.763	205.987	-3.210	261.083	283.808	119.101	-7.378	77.089	152.631	12.752	186.567	284.549	0.00065162	0.00024677	9.8652e-05	320.51	4.9874e-06	5.6373e-06	629.12	111.3	2.8225e-06	7.2084e-06	306.8	146.8	54.396	22.476	3.4953e-06	80.439	0.00088186	0.00092412	0.00025514	311.09	9.2583e-06	1.0094e-05	608.35	109.32	9.1422e-06	1.0332e-05	297.93	142.84	53.603	22.125	9.8308e-06	78.798	75.539	85.245	78.044	-13.816	130.555	137.067	-13.802	-9.394	45.613	140.271	-10.133	-6.561	-5.716	-1.676	150.136	-3.082	-8191	255	
22868.119	1	1	0	0	0.18044	0.18733	0.16518	0.16917	0.097803	0.28894	0.28012	0.07184	0.09428	0.12529	0.33343	0.15818	0.24037	0.1659	0.20932	0.34631	-2.4292	-2.9	-3.1333	-2.9188	-2.925	-2.9646	-2.75	-2.9083	-2.9562	-3.0042	-3.1833	-3.0104	-2.8937	-3.1521	-2.6854	-3.0812	227.561	138.663	77.937	218.551	7.539	1.471	-10.680	236.340	48.752	139.436	285.494	220.467	195.759	22.774	131.853	256.713	0.00064068	0.00035636	7.9309e-05	318.03	3.555e-06	5.3817e-06	631.42	111.98	5.4026e-06	3.6742e-06	308.67	147.39	54.76	22.505	6.4218e-06	80.601	0.00088918	0.00092152	0.00026269	310.13	9.4891e-06	9.8235e-06	609.54	108.97	9.2743e-06	1.0087e-05	299.23	143.36	54.021	22.119	9.8317e-06	78.949	72.456	42.944	84.437	-13.998	125.269	133.476	-13.996	-9.579	125.821	163.205	-10.122	-6.646	-5.727	-1.645	83.289	-3.161	-8191	255	
22868.217	1	1	0	0	0.060683	0.26439	0.17293	0.26824	0.34345	0.070199	0.35589	0.1029	0.1862	0.17842	0.20681	0.2123	0.10275	0.14119	0.13714	0.095694	-2.55	-2.7521	-3.2771	-2.9333	-2.9354	-3.325	-2.8333	-2.9667	-3.2167	-2.8563	-3.1146	-2.85	-2.8542	-3.0854	-2.6833	-3.0896	162.241	127.451	9.024	225.369	244.769	51.679	275.121	272.283	103.790	284.883	-0.790	306.036	62.175	91.338	269.079	188.333	0.00070767	0.00061009	8.9641e-05	321.21	6.05e-06	3.3292e-06	630.8	112.04	5.8489e-06	2.2513e-06	309.13	147.47	55.185	22.556	6.1428e-06	80.743	0.00090307	0.00094142	0.00025376	312.45	9.6468e-06	1.035e-05	610.17	109.52	9.5246e-06	1.0483e-05	300.26	144.04	54.044	22.17	9.8376e-06	79.163	70.598	54.621	72.989	-14.270	91.224	125.107	-14.199	-9.416	67.207	107.319	-10.285	-6.546	-6.578	-1.664	116.739	-3.162	-8191	255	
22868.312	1	1	0	0	0.1795	0.12635	0.098795	0.077548	0.10401	0.25852	0.28771	0.07869	0.0081986	0.29722	0.015452	0.07407	0.1741	0.25228	0.036726	0.043384	-2.5479	-2.7875	-3.1	-2.9125	-2.8	-3.0583	-2.9729	-2.9833	-3.0938	-2.8187	-3.0438	-2.9125	-2.75	-3.0729	-2.9979	-3.0375	50.045	255.038	249.634	328.284	298.788	119.457	97.031	307.253	120.930	-11.937	95.058	295.940	267.475	103.396	5.587	9.813	0.00068735	0.00042871	0.00010766	322.49	3.5771e-06	2.5825e-06	629.24	112.42	4.575e-06	7.3861e-06	309.27	147.32	54.764	22.321	3.8222e-06	80.454	0.00088158	0.00094038	0.0002595	312.83	9.5987e-06	1.0317e-05	610.51	109.61	9.4339e-06	1.0397e-05	299.33	143.39	53.917	22.063	9.7434e-06	78.561	72.289	38.280	17.417	-14.089	130.190	118.117	-13.909	-9.512	107.972	121.659	-10.467	-6.628	-5.658	-1.643	72.154	-2.784	-8191	255	
22868.408	1	1	0	0	0.15925	0.19315	0.16549	0.10215	0.26775	0.09927	0.13735	0.16283	0.17701	0.15821	0.11429	0.22878	0.20781	0.070907	0.3026	0.023732	-2.7562	-2.7125	-3.0958	-2.8417	-2.7146	-2.9479	-2.9437	-2.9896	-3.2042	-2.7271	-3.3458	-3.0375	-2.7167	-3.1562	-2.8563	-3.0771	131.725	307.027	-13.490	173.022	58.645	130.331	236.830	298.994	120.491	240.163	40.935	281.424	96.309	93.028	326.615	75.442	0.00064622	0.00027786	0.00012839	323.28	3.1155e-06	3.4304e-06	630.97	112.34	4.0771e-06	2.406e-06	309.84	148.67	54.757	22.544	5.4597e-06	80.408	0.0008966	0.00094172	0.00025922	312.87	9.3941e-06	1.0154e-05	611.43	109.63	9.4012e-06	1.0133e-05	300.29	144.09	54.031	22.091	9.6592e-06	78.711	66.647	100.265	72.266	-14.175	59.059	100.222	-14.043	-9.577	137.377	187.173	-10.470	-6.610	-5.542	-1.650	132.442	-3.003	-8191	255	
22868.506	1	1	0	0	0.1903	0.080126	0.15763	0.23169	0.33546	0.28292	0.20072	0.29861	0.28274	0.13114	0.34316	0.098948	0.1411	0.25052	0.14216	0.032321	-2.6562	-2.8167	-3.1167	-3.0563	-2.85	-3.2271	-2.9854	-2.7271	-3.1688	-2.8833	-2.9875	-3.0042	-2.6813	-2.8271	-3.0062	-3.0563	208.187	329.480	-10.581	287.415	152.528	199.473	83.746	273.189	142.530	315.518	282.402	288.134	47.629	251.762	131.831	226.090	0.00070645	0.00029679	7.6468e-05	326.94	1.9852e-06	3.3746e-06	631.97	113.24	5.5502e-06	3.876e-06	310.83	148.45	54.69	22.564	5.3354e-06	80.793	0.00087969	0.00093548	0.00025753	314.6	9.3656e-06	1.0174e-05	613.97	110.39	9.4553e-06	1.0388e-05	301.96	144.66	54.208	22.257	9.7787e-06	79.018	74.216	65.187	32.804	-13.803	108.971	158.411	-13.927	-9.041	107.200	105.356	-10.297	-6.487	-6.073	-1.432	127.545	-2.978	-8191	255	
22868.625	1	1	0	0	0.19457	0.096974	0.25527	0.17548	0.096553	0.12107	0.21744	0.064944	0.054996	0.12662	0.32638	0.18655	0.10937	0.1483	0.23064	0.19239	-2.6875	-2.7646	-2.8104	-3.1604	-2.8479	-3.225	-3.0729	-2.8708	-3.2188	-2.9104	-3.0958	-3.2562	-2.7062	-3.1437	-3.0021	-2.9938	119.066	196.096	-26.384	15.840	83.812	144.325	324.249	274.715	114.572	235.697	218.910	-15.739	-4.017	13.076	329.642	135.689	0.00064673	0.00096808	0.0001189	326.49	8.0334e-06	3.8701e-06	637.82	113.52	3.2929e-06	5.2432e-06	311.67	148.88	55.582	22.63	5.2905e-06	81.074	0.00090167	0.00094979	0.00026049	316.48	9.5246e-06	1.0231e-05	616.16	110.85	9.4248e-06	1.0466e-05	302.88	145.13	54.505	22.295	9.9331e-06	79.377	70.164	62.631	74.385	-14.422	131.496	139.719	-14.053	-9.149	24.834	106.245	-10.515	-6.557	-6.235	-1.765	131.034	-3.034	-8191	255	
22868.721	1	1	0	0	0.10011	0.26249	0.096489	0.14965	0.28509	0.18793	0.17632	0.20474	0.10817	0.2432	0.16387	0.28454	0.15535	0.19871	0.037037	0.051213	-2.7333	-2.9896	-2.9375	-3.0667	-2.7167	-3.125	-3.1458	-2.7042	-3.1813	-2.8583	-3.0438	-3.2687	-2.7604	-2.9375	-3.0312	-2.9125	89.053	219.578	303.269	148.949	137.898	234.854	53.338	331.612	54.340	51.376	326.208	40.085	158.010	0.783	149.519	298.862	0.00067688	0.00050821	0.0001126	326.43	1.8847e-06	6.4395e-06	640.13	113.43	6.3878e-06	3.8779e-06	312.19	148.46	54.954	22.678	4.4643e-06	80.765	0.00087632	0.00095577	0.00026196	316.15	9.7187e-06	1.0339e-05	617.75	110.64	9.4309e-06	1.0278e-05	302.77	144.8	54.4	22.289	9.6828e-06	79.012	74.650	52.030	88.927	-13.578	104.664	133.421	-14.002	-9.509	111.320	148.764	-10.304	-6.192	-5.767	-1.703	116.647	-3.072	-8191	255	
22868.816	1	1	0	0	0.19503	0.049906	0.15921	0.15903	0.13528	0.13307	0.19978	0.3017	0.16369	0.015147	0.2724	0.14761	0.20346	0.1112	0.23233	0.077938	-2.65	-2.9313	-2.9042	-3.1125	-2.7583	-3.0479	-3.1083	-2.8292	-3.0604	-2.9313	-3.0958	-3.1042	-2.7896	-2.9938	-3.0271	-2.9521	87.942	107.281	197.112	147.435	209.744	-12.179	-4.781	315.558	102.856	210.893	-27.251	127.065	24.669	212.439	110.920	267.035	0.00072767	0.00051994	0.00011568	325.42	3.3657e-06	7.3961e-06	631.6	113.76	3.7299e-06	3.8066e-06	311.28	148.68	54.943	22.726	5.6091e-06	81.003	0.00089667	0.00093019	0.00026617	314.55	9.2719e-06	1.0354e-05	612.02	110.65	9.3454e-06	1.0334e-05	301.13	144.56	54.599	22.317	9.9299e-06	79.203	73.541	79.445	67.303	-13.324	93.797	139.030	-13.870	-9.335	96.753	146.138	-10.371	-6.322	-5.873	-1.603	116.474	-3.093	-8191	255	
22868.914	1	1	0	0	0.092926	0.035647	0.35833	0.088503	0.19264	0.25088	0.14205	0.10622	0.26993	0.12616	0.28551	0.39999	0.22354	0.32408	0.1207	0.092148	-2.8063	-2.8104	-2.7438	-3.2208	-2.975	-3.0438	-3.1229	-2.7687	-3.0417	-3.0104	-2.7958	-3.325	-2.9083	-2.8208	-3.15	-2.9813	185.923	227.805	-2.163	150.965	124.892	255.069	279.337	-21.780	26.118	228.418	202.350	270.769	257.150	296.683	167.145	157.589	0.00073696	0.00044154	0.00017814	324.34	2.6626e-06	6.3203e-06	636.82	113.19	3.8518e-06	5.2433e-06	313.07	149.76	55.048	22.747	3.3575e-06	81.102	0.00090365	0.00094987	0.00026079	314.48	9.5347e-06	1.0353e-05	614.49	110.72	9.5661e-06	1.0265e-05	303.11	145.25	54.586	22.344	9.7068e-06	79.221	75.419	84.885	64.548	-14.279	115.981	127.475	-14.073	-9.742	103.586	104.353	-10.296	-6.751	-5.893	-1.747	156.079	-3.128	-8191	255	
22869.008	1	1	0	0	0.29118	0.041437	0.14304	0.10887	0.39781	0.18365	0.084372	0.25951	0.23332	0.16705	0.32059	0.23249	0.23666	0.12485	0.2785	0.081285	-2.4583	-2.9813	-2.7396	-2.9958	-2.8875	-2.9667	-3.225	-2.9646	-2.9896	-3.2417	-2.7583	-3.2562	-2.8958	-2.9833	-3.1437	-3.0583	230.907	313.342	96.618	178.433	202.108	157.378	61.181	278.150	86.679	103.663	182.545	283.963	-10.395	311.934	316.091	63.979	0.00063239	0.00032867	0.00010026	326.16	3.9169e-06	4.2477e-06	638.41	114.65	5.1496e-06	3.3818e-06	313.28	150.1	56.16	22.728	5.5566e-06	81.253	0.00091862	0.00094059	0.00025848	315.94	9.4383e-06	1.0442e-05	617.54	111.72	9.5281e-06	1.0043e-05	304.91	145.84	55.03	22.36	9.7896e-06	79.54	61.450	75.461	75.556	-13.907	110.981	124.290	-14.100	-9.502	76.607	48.937	-10.257	-6.189	-5.958	-1.246	65.888	-3.142	-8191	255	
22869.104	1	1	0	0	0.26019	0.17155	0.21079	0.27847	0.064946	0.20817	0.13808	0.27773	0.086359	0.23404	0.037368	0.26377	0.15369	0.18286	0.08085	0.14963	-2.5229	-3.0875	-2.7687	-3.1188	-2.8979	-3.0208	-3.1583	-2.9646	-3.0312	-3.0687	-2.9229	-3.0167	-2.975	-2.7604	-3.2125	-2.8917	286.173	316.093	99.565	280.714	97.824	169.218	292.427	320.805	12.861	233.078	319.791	321.628	10.398	155.795	74.831	322.200	0.000583	0.00049278	0.00010961	326.83	4.4077e-06	4.1091e-06	641.84	115.64	4.6818e-06	4.3745e-06	315.07	150.19	55.71	22.853	3.5022e-06	81.109	0.0008941	0.00092525	0.00026311	317.76	9.416e-06	1.0403e-05	621.59	112.36	9.3567e-06	1.0358e-05	305.82	146.38	55.029	22.454	9.8226e-06	79.382	67.250	106.589	48.263	-14.049	120.830	96.219	-14.170	-9.335	93.548	124.633	-10.464	-6.906	-5.523	-1.608	138.040	-2.985	-8191	255	
22869.225	1	1	0	0	0.15301	0.12533	0.10206	0.12536	0.19747	0.17186	0.20519	0.10358	0.26554	0.29331	0.29595	0.29893	0.024003	0.1228	0.11969	0.29374	-2.5	-3.1521	-2.7667	-3.0375	-3.0333	-2.9688	-3.1875	-2.9854	-2.8229	-2.9771	-2.8771	-3.2625	-3.0167	-2.6542	-3.0875	-2.9521	-2.421	174.436	182.028	290.164	56.129	214.853	296.491	14.668	273.178	72.120	284.176	281.418	246.330	186.932	137.989	279.354	0.00072818	0.00063056	6.6983e-05	324.33	4.3878e-06	5.6486e-06	637.69	115.09	3.0598e-06	4.6447e-06	312.53	149.57	55.783	22.693	5.8385e-06	80.918	0.00090953	0.00091896	0.00025883	317.11	9.2346e-06	1.0222e-05	615.75	111.82	9.4536e-06	1.0204e-05	303.83	145.58	54.981	22.29	1.0003e-05	79.069	74.147	21.323	64.997	-14.178	72.748	126.630	-14.097	-9.213	113.936	117.139	-10.714	-6.349	-6.142	-1.492	97.424	-3.250	-8191	255	
22869.320	1	1	0	0	0.11753	0.10001	0.214	0.15798	0.112	0.088714	0.16875	0.11741	0.11437	0.1171	0.18199	0.15923	0.1235	0.10959	0.10613	0.070376	-2.4229	-3.0521	-2.6146	-3.0062	-3.0167	-2.8208	-3.0479	-2.9521	-2.9521	-3.1104	-2.9833	-2.8896	-3.1833	-2.9583	-2.9854	-3.0958	295.204	298.021	324.829	285.247	192.164	123.288	152.084	258.795	236.669	48.150	293.355	292.673	-16.450	185.188	36.037	234.048	0.00061381	0.00061465	0.00010163	329.15	4.8795e-06	6.5952e-06	638.81	115.18	4.2359e-06	4.9365e-06	314.02	149.82	55.654	22.773	4.2672e-06	81.095	0.0009039	0.00093587	0.00026608	317.96	9.8006e-06	1.0596e-05	616.57	111.88	9.6389e-06	1.0318e-05	304.47	145.48	54.933	22.346	1.0071e-05	79.347	73.400	62.539	64.156	-13.903	123.921	119.949	-13.692	-9.270	132.275	111.047	-10.412	-6.324	-5.503	-1.010	183.439	-3.104	-8191	255	
22869.418	1	1	0	0	0.22453	0.13052	0.065409	0.079645	0.1266	0.30208	0.15446	0.10248	0.10947	0.26256	0.023192	0.052914	0.079303	0.13215	0.13817	0.15166	-2.525	-2.9854	-2.9667	-2.9521	-3.0729	-2.5438	-3.175	-2.7917	-2.8917	-3.2	-2.8833	-3.0792	-2.9646	-2.85	-2.8812	-2.9958	159.783	155.604	259.616	-14.433	90.512	214.599	1.172	225.511	251.911	167.534	217.593	329.466	167.264	66.124	45.073	271.198	0.00065493	0.00061323	0.00010811	325.24	3.1616e-06	6.1745e-06	638.74	116.38	6.8446e-06	2.5413e-06	314.68	150.74	55.67	22.675	3.2243e-06	81.1	0.00089388	0.00092486	0.00025442	317.04	9.3796e-06	1.0635e-05	618.51	112.42	9.7606e-06	1.0226e-05	305.28	146.49	55.14	22.336	9.8652e-06	79.426	78.027	73.106	64.407	-13.602	110.572	130.015	-13.950	-9.202	106.490	85.375	-10.408	-6.544	-5.703	-1.870	135.119	-3.091	-8191	255	
22869.514	1	1	0	0	0.22741	0.18032	0.090159	0.15575	0.23344	0.14719	0.181	0.19535	0.20247	0.20579	0.1444	0.033148	0.18295	0.072503	0.29195	0.058184	-2.5667	-3.0875	-2.8792	-3.1229	-2.9688	-2.9104	-3.1667	-3.0021	-2.7583	-3.1479	-3	-2.825	-3.1875	-2.7604	-2.8896	-3.2021	8.801	55.180	163.273	226.459	307.677	61.400	194.690	-11.831	132.159	78.849	261.881	214.919	80.412	301.909	195.974	31.163	0.00077498	0.00055443	5.301e-05	329	6.2151e-06	3.4066e-06	639.28	114.83	7.9252e-06	3.3081e-06	313.89	150.45	55.812	22.771	6.0947e-06	80.983	0.00091243	0.0009389	0.00026322	318.65	9.2942e-06	1.0281e-05	620.22	112.25	9.4915e-06	1.0302e-05	305.17	146.25	54.993	22.408	9.8231e-06	79.228	72.499	64.874	88.060	-13.771	98.283	116.598	-13.579	-9.611	111.015	146.362	-10.385	-6.423	-5.881	-1.521	88.397	-3.041	-8191	255	
22869.586	1	1	0	0	0.2122	0.20894	0.14748	0.16874	0.33412	0.2765	0.1391	0.1467	0.019818	0.18079	0.19663	0.20591	0.030913	0.23797	0.10397	0.18923	-2.3563	-3.175	-2.875	-3.0625	-2.9979	-2.9583	-3.0854	-3.0958	-2.825	-3.0125	-2.8917	-2.8729	-3.2313	-2.8333	-2.8521	-3.175	216.684	226.937	181.055	196.646	38.293	-9.595	233.487	317.401	-7.414	-5.623	218.608	16.928	23.434	247.453	291.777	294.084	0.00066006	0.00025974	0.00012282	328.49	5.5474e-06	3.7429e-06	637.81	115.08	4.8146e-06	4.4006e-06	312.83	149.54	56.168	22.845	4.7211e-06	81.008	0.00091726	0.00094281	0.00026003	318.38	9.5509e-06	1.0346e-05	616.77	111.94	9.5521e-06	1.0247e-05	304.02	145.56	55.246	22.357	9.858e-06	79.272	77.901	98.822	60.266	-13.863	141.038	171.043	-13.846	-9.464	132.976	110.380	-10.265	-6.435	-5.664	-1.733	178.388	-3.035	-8191	255	
22869.705	1	1	0	0	0.27726	0.14222	0.043991	0.13881	0.11928	0.3812	0.078438	0.35211	0.29584	0.1681	0.039274	0.1365	0.15011	0.20843	0.17793	0.070542	-2.425	-2.9917	-2.8292	-2.7208	-2.9104	-2.7354	-2.9688	-3.0771	-2.6854	-2.9271	-3.0417	-2.8083	-3.1	-2.8479	-2.6854	-3.2812	29.774	64.937	324.511	16.202	229.886	114.250	-3.584	207.134	254.044	330.099	124.455	303.298	58.504	306.289	50.221	11.793	0.00067909	0.0007633	0.00020967	323.09	5.0993e-06	7.6192e-06	639.04	115.46	3.795e-06	5.44e-06	315.83	149.86	56.409	22.682	1.132e-06	81.476	0.00090835	0.00094849	0.00026207	316.37	9.4287e-06	1.0443e-05	617.29	112.15	9.8661e-06	1.0197e-05	305.18	146.19	55.319	22.385	9.8761e-06	79.741	71.085	83.752	68.796	-13.972	131.681	127.751	-13.772	-9.490	92.185	141.646	-10.439	-6.626	-5.979	-1.896	110.214	-3.023	-8191	255	
22869.803	1	1	0	0	0.21568	0.20787	0.071473	0.25969	0.3895	0.18174	0.051083	0.14379	0.20137	0.14285	0.18338	0.22037	0.07639	0.19134	0.18012	0.23655	-2.2542	-2.8792	-3.0458	-2.7917	-3.2104	-2.8979	-3.0208	-3.0771	-2.8063	-3.0229	-3.0042	-2.8854	-3.0146	-2.9271	-2.7417	-3.0563	152.544	8.033	159.598	-14.049	178.403	184.914	-25.556	236.070	42.519	224.597	-11.040	306.598	99.599	262.931	211.917	37.468	0.00066034	0.00057887	1.6264e-05	328.18	7.0061e-06	5.8238e-06	642.26	115.72	2.7928e-06	3.1466e-06	313.31	150.34	56.188	22.995	2.0995e-06	81.628	0.00092242	0.00091818	0.00025432	319.1	9.5531e-06	1.0305e-05	620.56	112.91	9.7627e-06	1.0134e-05	306.05	146.89	55.395	22.5	9.6592e-06	79.894	69.081	7.048	89.216	-13.860	95.347	127.689	-13.873	-9.498	58.299	151.201	-10.431	-6.238	-5.600	-1.493	69.279	-3.146	-8191	255	
22869.896	1	1	0	0	0.18369	0.16184	0.044007	0.13621	0.4212	0.26711	0.32967	0.20831	0.20309	0.26344	0.25906	0.336	0.22514	0.12537	0.11284	0.37667	-2.2396	-2.7729	-2.9125	-2.7979	-3.0271	-2.875	-2.7938	-3.1146	-2.9021	-2.9396	-3.1437	-2.8542	-3.0729	-2.9396	-2.7042	-3.1208	248.891	131.419	13.488	72.748	124.081	230.980	279.373	229.903	49.124	48.265	-21.868	303.665	-18.203	31.444	51.697	252.062	0.00061617	0.00080842	7.9308e-05	328.47	4.4801e-07	3.934e-06	643.89	116.22	2.8256e-06	4.823e-06	318.38	150.94	56.426	22.93	3.3686e-06	82.217	0.00088989	0.00094051	0.00025771	320.31	9.289e-06	1.0181e-05	622.96	113.21	9.4209e-06	1.0346e-05	308.34	147.03	55.771	22.581	9.9883e-06	80.132	67.908	80.574	42.652	-14.103	228.455	146.261	-13.853	-9.389	120.433	101.665	-10.370	-6.326	-5.550	-1.945	128.749	-3.045	-8191	255	
22869.994	1	1	0	0	0.26407	0.09569	0.094046	0.25472	0.13022	0.1757	0.060356	0.072327	0.12364	0.063541	0.070021	0.16288	0.18883	0.18522	0.2402	0.15747	-2.6063	-2.7875	-2.95	-2.7833	-3.0333	-2.9062	-2.9062	-3.1417	-2.8708	-2.6437	-3.1521	-2.9396	-3.0375	-2.8688	-2.7354	-3.0667	265.126	148.941	103.523	260.707	67.296	119.720	210.451	181.288	4.946	100.578	36.952	42.885	226.466	87.728	183.725	252.160	0.00070187	0.0008061	0.00011336	325.45	3.6865e-06	4.2032e-06	638.71	115.38	7.3621e-06	2.9265e-06	314.33	149.91	56.126	22.944	5.6338e-06	81.82	0.00089487	0.00094393	0.00025445	316.73	9.6582e-06	1.0378e-05	617.26	112.75	9.4409e-06	1.028e-05	305.46	146.4	55.485	22.546	1.0005e-05	79.854	75.042	32.729	48.933	-13.993	111.780	149.524	-13.916	-9.424	93.823	101.551	-10.183	-6.313	-6.114	-1.404	137.985	-3.042	-8191	255	
22870.113	1	1	0	0	0.22417	0.16956	0.075618	0.080143	0.074119	0.23983	0.2227	0.021805	0.24033	0.15112	0.056712	0.29809	0.086927	0.13828	0.087332	0.25621	-2.5	-2.8187	-3.0812	-2.7708	-2.7812	-3.0667	-2.9562	-3.1458	-2.7521	-2.9542	-3.2188	-2.9229	-2.9854	-3.0875	-2.7917	-3.2208	155.946	114.085	9.825	131.885	226.609	10.945	158.138	161.827	226.003	299.458	329.302	300.465	109.715	69.825	211.157	266.933	0.00070426	0.00031839	0.00010294	328.93	7.3633e-06	3.9672e-06	643.66	116.22	2.4838e-06	5.9321e-06	318.89	150.92	56.465	22.789	2.3764e-06	82.031	0.00091089	0.00094133	0.00025728	318.91	9.6149e-06	1.0557e-05	620.57	113.41	9.6821e-06	1.0114e-05	307.33	146.73	55.66	22.527	9.939e-06	80.129	75.446	87.702	77.184	-13.566	119.356	59.360	-13.787	-9.731	109.650	115.709	-10.366	-6.468	-5.926	-1.337	143.504	-3.226	-8191	255	
22870.186	1	1	0	0	0.14155	0.10886	0.13068	0.034588	0.15208	0.036185	0.15517	0.045873	0.093306	0.0079173	0.18492	0.11385	0.22924	0.14354	0.18539	0.44388	-2.5146	-2.8812	-3.0792	-2.8083	-3.0771	-3	-2.9292	-3.1437	-3.0625	-2.7354	-3.0583	-2.7854	-2.9333	-3.0583	-2.6937	-3.1417	-2.701	181.049	79.532	63.201	223.755	218.160	274.546	23.675	235.934	315.265	321.180	205.605	197.955	104.113	-4.546	304.230	0.00062776	0.00053668	0.00015098	327.83	4.4538e-06	7.043e-06	645.47	116.58	4.1825e-06	3.3216e-06	317.48	150.11	56.792	22.893	3.0376e-06	81.712	0.00089701	0.00094055	0.00026499	319.78	9.5286e-06	1.0131e-05	624.05	113.57	9.5242e-06	1.0307e-05	307.52	146.71	55.605	22.433	9.948e-06	79.92	66.705	48.354	83.162	-13.746	115.932	101.991	-13.770	-9.309	147.765	141.757	-10.344	-6.580	-6.046	-1.581	101.485	-3.150	-8191	255	
22870.305	1	1	0	0	0.11677	0.17904	0.35789	0.23746	0.080929	0.297	0.1406	0.14252	0.064308	0.075652	0.26079	0.31932	0.2963	0.15521	0.12305	0.11956	-2.6396	-2.8021	-3.1354	-2.9458	-3.1063	-3.1667	-2.8917	-3.0729	-3.0833	-2.8229	-3.2479	-3.025	-2.9958	-3.2167	-2.8937	-3.3438	123.265	210.765	100.245	247.587	166.140	176.407	295.802	96.043	-9.094	101.352	160.092	314.249	92.615	328.111	-14.697	300.393	0.00063369	0.0003714	0.00011239	332.18	3.1795e-06	3.9216e-06	646.03	116.87	5.1179e-06	4.1519e-06	317.07	151.61	56.638	22.869	2.8292e-06	81.451	0.00089218	0.00094979	0.00026609	321.72	9.5864e-06	1.0292e-05	624.53	113.77	9.519e-06	1.0513e-05	308.46	147.29	55.764	22.56	9.9598e-06	79.812	79.381	82.822	69.212	-13.861	113.992	142.696	-13.905	-9.317	115.973	126.564	-10.487	-6.352	-5.966	-1.762	110.613	-3.285	-8191	255	
22870.400	1	1	0	0	0.058145	0.16309	0.18169	0.11786	0.22078	0.18253	0.26249	0.06139	0.2431	0.15568	0.11154	0.048224	0.076059	0.12528	0.25397	0.23674	-2.5542	-2.7792	-3.15	-2.8937	-2.7792	-3.0896	-2.9104	-2.8625	-3.0646	-3.0083	-3.1333	-2.9979	-2.9104	-3.1396	-2.9292	-3.0479	14.706	313.895	295.142	-8.158	285.691	164.111	26.464	236.283	317.924	271.112	325.570	10.745	173.501	327.328	50.122	225.584	0.00064777	0.00058497	0.00012648	328.22	4.8682e-06	4.1174e-06	642.47	116.26	3.9818e-06	3.7843e-06	316.18	149.94	56.173	22.778	6.9318e-06	81.552	0.00089181	0.00093166	0.00025841	319.14	9.5181e-06	1.046e-05	619.3	113.34	9.3864e-06	1.0623e-05	306.72	146.24	55.521	22.473	1.0088e-05	79.628	65.914	76.263	77.190	-13.738	124.484	119.755	-13.910	-8.854	75.407	125.425	-10.212	-6.509	-5.738	-1.429	99.306	-3.116	-8191	255	
22870.498	1	1	0	0	0.2856	0.13315	0.13132	0.10069	0.15713	0.06028	0.14471	0.10463	0.37395	0.20004	0.19496	0.099506	0.25399	0.30948	0.13402	0.14677	-2.7687	-2.9167	-3.0563	-2.9354	-2.8771	-3.0062	-2.9062	-2.9708	-3.2625	-2.9646	-3.0167	-3.0375	-2.8542	-3.0896	-2.9083	-2.9792	-5.039	61.841	206.713	226.779	216.464	325.395	326.144	234.187	-4.421	74.242	172.837	304.192	22.249	270.381	55.944	262.598	0.00069341	0.00057257	0.00015697	328.48	6.5691e-06	7.6724e-06	641.45	116.66	5.8235e-06	4.1622e-06	316.88	150.7	56.26	23.055	4.5706e-06	82.116	0.00087635	0.00095802	0.00025985	319.06	9.4729e-06	1.0554e-05	619.06	113.5	9.1474e-06	1.0435e-05	307.52	146.76	55.55	22.615	9.6728e-06	80.27	67.698	35.936	87.856	-13.700	123.840	117.773	-14.267	-9.360	136.864	143.091	-10.065	-6.558	-5.593	-1.968	158.180	-3.027	-8191	255	
22870.594	1	1	0	0	0.098925	0.050152	0.29985	0.12477	0.037984	0.12017	0.10204	0.14146	0.057338	0.070781	0.15751	0.039282	0.14593	0.049335	0.24101	0.098598	-2.5563	-2.7917	-2.8167	-3.0083	-2.8125	-3.1208	-2.8042	-2.8625	-3.0375	-2.8375	-2.8333	-2.9437	-2.7896	-3.1167	-2.9271	-2.6667	135.817	324.750	208.883	99.289	203.387	262.242	177.249	332.711	15.069	75.703	-26.149	-25.104	84.380	197.716	77.654	1.151	0.00067605	0.00071847	9.1577e-05	329.66	7.4381e-06	1.1878e-06	639.85	116.31	2.9602e-06	4.2811e-06	319.26	151.32	56.353	22.915	4.7774e-06	81.781	0.00090028	0.00096622	0.00025544	320.81	9.9438e-06	1.0496e-05	620.51	113.41	9.5351e-06	1.0371e-05	308.01	147.07	55.672	22.515	9.7692e-06	79.882	66.869	77.303	52.206	-13.761	103.600	221.152	-13.924	-8.971	127.951	118.002	-10.787	-6.613	-5.694	-1.341	116.434	-2.937	-8191	255	
22870.715	1	1	0	0	0.11301	0.23035	0.23909	0.10477	0.10185	0.077105	0.23953	0.17506	0.22371	0.15068	0.11336	0.30469	0.1463	0.32448	0.057683	0.26914	-2.6354	-2.7104	-3.1021	-2.9875	-2.9938	-2.8667	-3.0542	-2.7938	-3.1437	-2.8958	-2.9313	-3.1396	-2.7917	-2.9771	-3.0646	-2.7812	72.239	237.188	-21.993	117.184	259.842	-8.648	88.558	-26.914	176.771	71.599	236.852	271.229	292.223	-13.251	330.967	273.587	0.0007533	0.00039427	0.0001821	329.9	4.413e-06	1.0994e-06	646.94	116.56	4.8926e-06	2.965e-06	316.51	150.73	56.502	22.822	2.5149e-06	80.744	0.00089651	0.00091528	0.00025246	320.5	9.4177e-06	1.0224e-05	623.03	113.21	9.4156e-06	1.009e-05	306.65	146.38	55.475	22.334	9.5972e-06	78.887	70.490	71.212	69.924	-13.695	82.609	171.738	-14.140	-9.455	113.392	126.356	-10.246	-6.382	-5.653	-1.793	152.641	-3.077	-8191	255	
22870.809	1	1	0	0	0.24447	0.27125	0.077335	0.24253	0.10332	0.026701	0.22583	0.25556	0.20336	0.25549	0.10167	0.20023	0.29853	0.10002	0.23647	0.11944	-2.6208	-2.8958	-2.8792	-2.975	-2.8542	-3.0604	-2.8896	-2.8542	-2.9271	-2.8771	-2.8958	-3.0354	-2.7833	-2.8896	-2.8812	-2.9146	245.258	192.661	240.844	194.215	-6.155	-17.978	249.853	16.398	297.199	289.586	209.378	228.445	170.013	195.179	314.823	212.832	0.00069783	0.00046609	0.00017434	328.09	4.7649e-06	4.3742e-06	636.8	115.49	5.9868e-06	4.9892e-06	312.67	148.51	55.525	22.416	4.2772e-06	80.216	0.00087876	0.00088237	0.00024798	318.83	9.2767e-06	9.8799e-06	615.22	112.13	9.1182e-06	1.0161e-05	303.25	144.51	54.913	22.162	9.5795e-06	78.36	71.964	68.458	70.722	-14.289	97.564	125.414	-13.804	-9.464	101.496	120.820	-10.292	-6.632	-5.529	-1.654	100.167	-2.990	-8191	255	
22870.883	1	1	0	0	0.061894	0.21727	0.20582	0.2126	0.27014	0.12294	0.077981	0.026712	0.1534	0.29348	0.16166	0.05301	0.10504	0.17014	0.36622	0.15993	-2.6479	-2.8667	-2.7458	-3.1917	-2.8083	-2.9458	-2.875	-2.8229	-2.9688	-2.9562	-2.8521	-3.2604	-2.8021	-2.9271	-3.0229	-2.8167	293.561	-18.333	76.642	262.288	217.598	238.098	178.970	286.147	67.686	215.851	171.495	1.058	142.908	77.895	317.865	119.268	0.00071516	0.00055101	0.00010259	326.26	6.5264e-06	2.8226e-06	637.4	115.28	4.4783e-06	4.5619e-06	313.14	148.37	55.815	22.52	2.3477e-06	80.162	0.00088439	0.00089568	0.00025034	317.51	9.2123e-06	9.8167e-06	616.51	112.3	9.2469e-06	9.6412e-06	302.82	144.49	54.739	22.141	9.1205e-06	78.338	65.690	56.383	93.857	-13.703	100.985	147.001	-13.932	-9.622	54.153	108.785	-10.257	-6.723	-5.894	-1.889	125.005	-3.015	-8191	255	
22871.002	1	1	0	0	0.026313	0.17166	0.080779	0.40543	0.041513	0.18158	0.28194	0.082361	0.064537	0.03915	0.14785	0.14241	0.21185	0.067334	0.16548	0.13936	-2.3937	-2.9125	-2.8479	-2.9875	-2.8354	-2.8583	-3.1979	-2.9062	-2.9167	-3.0687	-2.7729	-3.0479	-2.8104	-3.0854	-3.0375	-2.7104	181.959	133.448	261.980	258.404	228.119	58.867	307.309	193.706	248.234	84.339	205.245	148.344	90.528	149.469	132.736	330.136	0.00072565	0.00060892	0.00014503	323.7	5.8497e-06	4.9917e-06	632.71	114.83	5.5304e-06	4.2236e-06	315.01	148.83	55.854	22.48	5.2976e-06	80.65	0.00086368	0.00089824	0.00024957	315.75	8.6678e-06	9.6804e-06	613.15	112.01	9.2054e-06	9.5941e-06	303.95	145.05	54.934	22.193	9.6103e-06	78.807	70.930	52.225	41.856	-14.040	95.635	160.544	-14.072	-9.422	138.725	135.837	-10.213	-6.423	-5.893	-1.630	89.583	-3.141	-8191	255	
22871.098	1	1	0	0	0.027835	0.1609	0.21816	0.088162	0.097294	0.089102	0.36104	0.10786	0.19466	0.14832	0.40277	0.16372	0.198	0.22669	0.14674	0.13157	-2.4792	-2.8583	-2.7938	-2.9104	-2.8646	-2.9521	-3.0771	-2.7542	-2.8812	-2.9333	-2.85	-3.0333	-2.8438	-2.8417	-2.9896	-2.7	207.953	-16.167	150.015	322.031	321.535	-18.352	211.817	208.402	29.275	139.138	319.214	-6.596	199.402	286.050	-8.711	276.861	0.00068693	0.00049482	0.00010741	325.35	5.0108e-06	8.2274e-06	637.2	115.15	4.3285e-06	1.7392e-06	313.96	148.26	56.152	22.484	2.7175e-06	80.349	0.00089602	0.00090595	0.00026143	316.04	9.4633e-06	1.0102e-05	615.33	112.27	9.2695e-06	9.8439e-06	304.74	144.86	54.986	22.163	9.3392e-06	78.72	68.318	34.154	44.025	-14.321	79.988	100.857	-14.185	-9.492	83.035	74.486	-10.583	-6.559	-5.644	-1.665	128.328	-3.055	-8191	255	
22871.193	1	1	0	0	0.15202	0.33491	0.13637	0.21656	0.19703	0.26501	0.048449	0.14404	0.44096	0.21835	0.10553	0.15834	0.27146	0.016185	0.1301	0.17969	-2.6667	-2.8563	-2.5896	-2.725	-2.7542	-2.95	-3.0812	-2.7625	-2.9417	-3.1042	-2.7208	-2.9146	-2.7833	-2.8292	-3.1104	-2.8917	87.690	269.112	229.079	215.415	83.092	254.174	322.714	257.707	130.106	66.251	220.747	273.457	-17.493	322.324	184.876	232.798	0.00061418	0.00014699	7.8955e-05	324.66	2.2886e-06	5.4793e-06	635.14	114.78	4.4801e-06	5.8327e-06	311.78	148.79	55.588	22.75	4.6106e-06	80.75	0.00087935	0.00087712	0.00026033	315.66	9.0853e-06	1.0264e-05	612.32	111.95	9.6821e-06	9.9078e-06	302.99	144.76	54.926	22.271	9.6556e-06	78.874	73.036	54.923	108.274	-14.035	135.225	105.207	-13.575	-9.637	80.013	144.101	-10.507	-6.561	-5.745	-1.611	134.125	-3.185	-8191	255	
22871.314	1	1	0	0	0.044888	0.23009	0.31057	0.24746	0.14584	0.023069	0.12885	0.088203	0.22357	0.12827	0.090863	0.062629	0.085069	0.044918	0.11762	0.31073	-2.2604	-2.9875	-2.7021	-2.9667	-2.9688	-2.8375	-3.275	-2.9521	-2.8667	-3.0729	-2.9021	-2.8854	-2.925	-2.6854	-3.0563	-2.8312	71.394	130.035	272.156	204.460	7.233	281.867	263.901	15.987	227.611	77.174	-18.501	257.757	41.931	32.712	260.215	250.612	0.00070626	0.00042405	0.00013306	326.35	7.3444e-06	5.9096e-06	630.66	114.87	5.88e-06	4.6924e-06	311.68	148.72	55.452	22.498	1.762e-06	80.755	0.00087141	0.00092694	0.00026455	315.54	9.2478e-06	1.0493e-05	610.78	112.21	9.1832e-06	1.0081e-05	303.51	145.08	54.736	22.176	9.4967e-06	78.745	68.167	16.144	48.511	-13.827	117.329	101.180	-13.939	-9.757	83.443	139.140	-10.113	-6.515	-5.753	-1.508	166.155	-3.183	-8191	255	
22871.410	1	1	0	0	0.35394	0.23269	0.21234	0.060022	0.21494	0.14341	0.26392	0.20117	0.24916	0.25666	0.10086	0.19067	0.19936	0.044457	0.077545	0.15734	-2.4833	-3.1521	-2.6854	-2.9021	-2.7979	-2.7521	-3.0792	-2.7333	-2.7979	-3.1667	-2.9062	-3.1167	-3.0687	-2.6542	-2.9375	-2.9875	273.706	330.677	41.642	142.601	190.635	194.438	313.810	183.178	64.865	321.328	17.785	253.211	285.181	-23.196	110.816	234.741	0.00059187	0.000485	0.00015912	326.66	6.1927e-06	4.6862e-06	632.54	114.57	4.7419e-06	6.5682e-06	313.1	149.1	55.193	22.431	4.4264e-06	79.718	0.0008719	0.00091623	0.00025801	316.27	9.1002e-06	1.0045e-05	612.65	112.08	9.0611e-06	9.5705e-06	303.77	144.82	54.619	22.018	9.3478e-06	78.266	66.996	44.500	73.369	-14.244	113.217	125.134	-14.037	-9.242	116.108	136.603	-10.119	-6.404	-5.558	-1.587	119.100	-3.121	-8191	255	
22871.482	1	1	0	0	0.23365	0.11949	0.25645	0.19897	0.11323	0.19929	0.25611	0.075672	0.06207	0.18823	0.24553	0.13963	0.22339	0.092523	0.085352	0.19415	-2.3021	-3.2146	-2.7125	-3.0021	-3.1312	-2.6833	-2.9417	-3.0417	-2.8208	-3.0458	-2.7271	-2.8271	-3.0542	-2.8792	-3.0417	-2.9583	76.460	108.989	268.347	211.748	125.939	96.490	211.814	313.233	221.981	265.367	220.783	315.850	257.079	130.207	166.853	244.711	0.00062077	0.00081558	0.00012639	325.49	4.7024e-06	7.1798e-06	635.1	115.65	5.396e-06	5.1641e-06	314.06	149.03	56.058	22.567	5.2972e-06	80.351	0.00086933	0.00090799	0.00025259	315.76	9.0393e-06	9.9671e-06	614.51	112.18	9.3223e-06	1.0017e-05	304.84	145.4	55.113	22.17	9.422e-06	78.869	70.915	49.841	26.597	-13.920	135.598	99.199	-13.795	-9.701	111.089	152.171	-10.548	-6.588	-6.345	-1.729	111.468	-3.331	-8191	255	
22871.578	1	1	0	0	0.11518	0.16901	0.30288	0.15926	0.053666	0.049858	0.1155	0.069624	0.10716	0.1625	0.21323	0.13439	0.075476	0.13878	0.20389	0.12439	-2.2458	-2.9813	-2.9562	-2.7583	-3.0792	-2.8417	-3.0542	-2.9792	-2.7271	-3.0979	-2.9938	-2.9813	-3.1542	-2.8104	-2.8958	-3.2625	149.230	11.481	324.063	43.878	23.651	-12.804	217.345	-17.259	91.622	45.940	251.877	250.775	138.611	152.766	251.807	277.384	0.00063386	0.00044379	0.00016206	324.94	4.1439e-06	4.308e-06	631.24	115.81	4.0029e-06	2.8929e-06	314.61	148.87	55.538	22.527	6.1217e-06	80.659	0.00087926	0.00089789	0.00026546	315.95	9.2434e-06	1.0246e-05	612.41	112.7	9.4653e-06	1.0037e-05	304.45	145.02	54.954	22.256	9.6447e-06	78.922	70.613	50.459	74.176	-14.013	116.379	114.858	-13.967	-9.456	107.087	191.448	-10.318	-6.581	-5.943	-1.878	133.997	-3.108	-8191	255	
22871.674	1	1	0	0	0.091832	0.21384	0.31416	0.19225	0.080796	0.045838	0.17651	0.064504	0.27849	0.12127	0.03211	0.24626	0.039186	0.12317	0.037605	0.25374	-2.1021	-3.1792	-2.8896	-2.7208	-3.0938	-2.7979	-3.1667	-2.9479	-2.675	-3.0604	-3.0208	-2.8187	-3.0938	-2.7979	-2.8312	-3.2729	278.905	212.293	122.013	285.204	332.465	138.482	269.479	161.300	-3.914	156.401	286.824	261.333	223.087	293.771	96.935	212.407	0.00066929	0.00043714	0.00017059	326.91	3.3943e-06	4.0268e-06	633.09	115.15	3.7075e-06	2.8821e-06	313.91	149.09	56.041	22.398	4.6991e-06	80.64	0.00086708	0.00090552	0.00025645	316.78	9.1668e-06	9.9155e-06	612.2	112.66	9.2525e-06	1.0138e-05	304.89	145.58	55.244	22.184	9.4849e-06	78.827	70.569	23.713	52.282	-13.754	111.311	129.258	-13.898	-9.355	132.343	90.433	-10.412	-6.505	-5.704	-1.372	92.598	-3.069	-8191	255	
22871.793	1	1	0	0	0.046742	0.21854	0.1449	0.20613	0.21227	0.28571	0.20272	0.2188	0.19484	0.26764	0.071753	0.14549	0.091576	0.19659	0.23877	0.2237	-2.4479	-2.8292	-2.8479	-2.7438	-3.175	-2.7271	-2.85	-2.9792	-2.8354	-2.9458	-3.175	-2.8333	-3.15	-2.9417	-2.8104	-3.1417	135.434	-0.594	8.571	256.173	192.113	326.711	267.377	124.309	-10.982	121.964	154.055	306.049	332.253	219.503	-11.560	154.097	0.00070299	0.00043309	0.0001131	328.3	3.6716e-06	4.2459e-06	638.31	115.11	3.4191e-06	5.5881e-06	315.99	149.76	56.27	22.661	3.0462e-06	81.136	0.00087394	0.00089919	0.00024718	317.8	9.1067e-06	1.0049e-05	614.79	112.75	9.2839e-06	1.0066e-05	306.23	145.87	55.384	22.316	9.7326e-06	79.195	76.761	26.513	18.785	-14.134	150.255	85.664	-13.987	-9.176	97.155	114.370	-10.231	-6.336	-5.769	-1.550	120.548	-3.231	-8191	255	
22871.889	1	1	0	0	0.23198	0.2572	0.21455	0.099041	0.27849	0.070997	0.16164	0.21281	0.21488	0.13842	0.2545	0.29621	0.027449	0.21256	0.17278	0.3615	-2.2604	-2.9917	-3.0062	-2.6396	-3.175	-2.9625	-2.9042	-2.9042	-2.6583	-3.0042	-3.0229	-2.7229	-2.9333	-2.8625	-2.9042	-3.0479	267.200	48.237	125.790	314.140	313.199	8.098	278.841	267.832	290.449	18.466	41.225	273.143	31.341	286.976	83.365	315.581	0.00066956	0.00056608	6.0155e-05	327.33	4.854e-06	4.6126e-06	640.52	116.36	6.9501e-06	3.8307e-06	317.17	150.57	56.023	22.787	3.657e-06	81.351	0.00088288	0.00092343	0.00024952	317.42	9.37e-06	1.0003e-05	618.45	113.52	9.4418e-06	1.0068e-05	307.58	146.65	55.383	22.49	9.6791e-06	79.62	75.603	50.996	55.640	-13.676	101.154	115.675	-13.929	-9.287	174.047	196.945	-10.226	-6.280	-5.549	-1.270	150.434	-3.227	-8191	255	
22871.986	1	1	0	0	0.23677	0.16229	0.20334	0.054992	0.1759	0.069376	0.24954	0.19461	0.1461	0.21636	0.14202	0.085536	0.099528	0.1969	0.10977	0.26306	-2.3646	-2.7167	-2.9562	-2.6292	-2.9125	-2.9479	-2.8187	-2.9188	-2.8896	-3.0208	-3.2917	-2.7687	-3.0125	-2.9708	-2.7292	-3.1312	76.101	29.319	288.751	-8.623	164.898	269.065	305.525	17.875	-23.774	61.795	306.104	314.871	284.260	279.452	86.154	234.059	0.00070542	0.00034523	0.00011593	326.18	3.6306e-06	3.978e-06	630.57	116.25	3.9126e-06	2.0894e-06	316.13	149.56	56.374	22.838	4.2509e-06	81.172	0.00089769	0.00092061	0.00025748	316.52	9.2561e-06	1.0076e-05	611.73	113.22	9.2403e-06	9.816e-06	305.96	145.7	55.544	22.406	9.7882e-06	79.364	74.336	8.255	108.199	-13.756	119.897	119.199	-13.782	-9.340	75.382	91.351	-10.426	-6.374	-5.818	-1.630	75.872	-3.130	-8191	255	
22872.080	1	1	0	0	0.13731	0.25754	0.14255	0.087628	0.13558	0.19974	0.23269	0.13739	0.04249	0.23512	0.11681	0.18464	0.067477	0.13324	0.15037	0.137	-2.3042	-2.9375	-2.9146	-2.8542	-3.0208	-3.0062	-2.5729	-2.9896	-2.8417	-3.0104	-3.075	-2.8625	-2.8833	-3.0729	-2.7167	-3.1792	-22.780	52.108	266.748	14.187	92.489	309.973	313.363	40.676	-12.826	88.346	70.237	309.752	-16.500	331.090	75.312	288.152	0.00068167	0.0002557	0.00020603	325.1	5.894e-06	4.5278e-06	634.74	116.25	7.014e-06	3.8766e-06	315.4	150.3	56.166	22.892	1.3291e-06	81.339	0.0008868	0.00090136	0.00025763	316.13	9.2184e-06	1.0115e-05	613.94	113.23	9.5451e-06	1.0159e-05	306.33	146.33	55.476	22.492	9.4736e-06	79.571	74.015	40.603	49.340	-13.652	132.546	125.222	-14.075	-9.077	105.982	92.095	-10.047	-6.545	-5.758	-1.841	84.468	-3.207	-8191	255	
22872.178	1	1	0	0	0.15185	0.10241	0.062958	0.21246	0.20183	0.10037	0.19704	0.11915	0.038499	0.17585	0.40162	0.14277	0.32178	0.13365	0.041222	0.16966	-2.4333	-2.6625	-2.9708	-2.7104	-2.925	-3.1375	-2.9625	-3.0812	-2.9479	-2.7792	-3.2167	-2.7542	-2.9583	-3.1312	-2.9229	-3.0458	255.777	91.301	234.109	53.940	145.272	93.213	213.204	242.676	88.322	57.904	253.585	-9.403	69.716	163.989	89.532	270.262	0.00066328	0.00058227	0.00024277	326.51	3.7945e-06	4.0786e-06	638.37	116.71	2.8282e-06	4.2591e-06	317.4	150.52	56.789	22.813	2.7113e-06	81.406	0.00088068	0.00090327	0.00025521	317.48	9.2631e-06	1.0321e-05	617.04	114.16	9.2203e-06	1.0216e-05	307.84	146.69	55.647	22.412	9.9046e-06	79.688	72.478	75.901	53.131	-14.082	112.311	134.679	-13.482	-9.453	117.266	100.039	-10.343	-6.285	-5.646	-1.803	49.993	-3.068	-8191	255	
22872.273	1	1	0	0	0.081262	0.19824	0.070778	0.31699	0.26844	0.15412	0.02853	0.084958	0.18807	0.22428	0.15178	0.072779	0.14326	0.32263	0.22964	0.13188	-2.6	-2.675	-2.9313	-2.7687	-2.8604	-2.9979	-2.7271	-2.95	-2.9229	-2.7146	-2.9958	-2.7812	-2.9354	-3.0938	-2.9229	-3.1292	319.623	-14.617	157.041	259.772	230.477	307.449	178.957	124.576	90.888	197.405	318.357	-22.532	252.554	57.061	162.869	250.476	0.00066345	0.00072837	0.0001195	327.6	7.8949e-06	6.3629e-06	638.2	116.24	3.8597e-06	6.0602e-06	320.57	151.36	57.053	22.963	8.1759e-06	81.2	0.00088606	0.00093492	0.00025668	318.16	9.3739e-06	9.8972e-06	617.9	113.92	9.1208e-06	1.0084e-05	308.82	147.11	55.984	22.476	9.7353e-06	79.511	67.883	101.390	110.836	-13.853	85.593	140.608	-13.592	-9.429	81.189	90.210	-9.991	-6.438	-5.992	-2.005	142.125	-3.273	-8191	255	
22872.395	1	1	0	0	0.17226	0.21962	0.095875	0.17161	0.23191	0.20134	0.20883	0.098424	0.24904	0.15771	0.082568	0.18742	0.12227	0.080672	0.13421	0.11256	-2.4938	-2.6521	-2.9042	-2.8292	-2.8896	-3.0667	-2.8396	-2.9979	-3.0438	-2.7313	-3.0167	-2.7229	-2.9125	-3.0312	-2.6437	-3.2062	277.537	95.482	225.697	157.358	106.354	85.784	29.069	288.054	-11.727	279.765	173.615	41.752	-15.350	288.405	296.316	328.052	0.0006141	0.00023774	0.00018266	329.03	4.6592e-06	8.89e-06	638.83	116.15	9.4351e-06	2.8232e-06	316.04	150.15	57.033	22.999	4.6611e-06	81.181	0.00089824	0.00093184	0.0002576	318.96	9.3034e-06	1.0189e-05	616.41	113.61	9.212e-06	1.0074e-05	306.12	146.22	55.756	22.477	9.91e-06	79.408	69.315	72.863	43.173	-14.040	107.314	142.283	-14.083	-9.395	101.599	63.694	-10.235	-6.424	-5.740	-1.703	84.855	-3.262	-8191	255	
22872.490	1	1	0	0	0.32474	0.074502	0.15369	0.19623	0.1502	0.23277	0.04981	0.25432	0.11877	0.1752	0.10068	0.17358	0.17717	0.15336	0.10357	0.14022	-2.7146	-2.6021	-2.8708	-2.9229	-2.8604	-3.2521	-2.8292	-2.7729	-2.95	-2.9437	-3.1333	-3.0667	-2.7729	-3.0312	-2.8604	-2.9542	44.831	212.441	201.144	42.931	22.433	97.828	9.178	326.594	269.830	1.297	28.881	-27.016	308.832	91.484	228.984	274.010	0.00073783	0.0004156	0.00011371	326.79	3.2423e-06	5.3653e-06	636.92	116.8	5.1088e-06	5.7134e-06	317.34	150.41	56.73	22.825	5.1442e-06	81.139	0.00088176	0.00093292	0.00025628	317.43	9.4313e-06	1.0016e-05	616.17	113.78	9.3698e-06	1.0494e-05	306.97	146.56	55.849	22.498	9.7398e-06	79.567	63.884	62.260	4.335	-13.727	106.040	172.997	-13.866	-9.683	119.359	102.820	-10.360	-6.326	-5.835	-1.700	152.236	-3.183	-8191	255	
22872.588	1	1	0	0	0.05077	0.17247	0.42556	0.14251	0.17567	0.11429	0.056085	0.25818	0.035642	0.11568	0.20239	0.0059964	0.03425	0.17035	0.11705	0.087079	-2.6167	-2.6292	-3.0542	-3	-2.8646	-3.3229	-2.95	-2.8646	-3.0917	-2.8229	-2.975	-2.9375	-2.6458	-3.0687	-2.9146	-3	287.696	45.033	166.731	162.292	327.191	149.943	319.324	186.306	273.899	218.218	6.252	227.800	143.916	279.686	105.672	167.495	0.00078279	0.00035642	0.00012815	326.31	4.0689e-06	3.8e-06	637.77	116.69	7.3114e-06	5.4476e-06	317.62	150.92	56.414	22.87	4.9419e-06	81.26	0.00088736	0.00093999	0.00024984	318.75	9.4204e-06	1.0085e-05	616.94	113.95	9.4396e-06	1.029e-05	308.52	147.02	55.755	22.431	9.7602e-06	79.695	71.491	-13.996	100.900	-14.023	41.679	149.501	-13.740	-9.611	109.599	94.482	-10.290	-6.335	-6.017	-1.600	119.940	-2.999	-8191	255	
22872.707	1	1	0	0	0.28169	0.35801	0.13398	0.011272	0.24127	0.30153	0.27672	0.2901	0.23772	0.16095	0.18517	0.10166	0.14074	0.17753	0.10556	0.33321	-2.6854	-2.6896	-2.8312	-2.9688	-2.6958	-3.0521	-2.825	-2.9354	-3.1292	-2.8083	-2.9583	-3.2896	-2.8708	-3.1063	-2.8875	-2.7583	238.898	76.335	134.879	77.879	121.456	265.243	327.622	327.323	309.706	222.261	-12.208	173.914	230.769	68.225	227.095	269.815	0.00074363	0.00073624	0.00020683	329.1	6.5321e-06	5.5212e-06	645.68	117.44	2.8217e-06	3.6305e-06	319.67	151.76	56.42	22.735	3.5362e-06	81.929	0.00090068	0.00093934	0.00025999	318.93	9.3332e-06	1.0218e-05	620.17	114.34	9.3746e-06	1.0388e-05	309.31	147.7	55.947	22.491	9.9403e-06	80.073	72.347	49.100	51.295	-13.794	119.029	127.831	-13.873	-9.527	144.746	148.227	-10.101	-6.425	-5.957	-1.579	102.996	-3.083	-8191	255	
22872.779	1	1	0	0	0.14843	0.086939	0.25649	0.058448	0.28328	0.04937	0.15602	0.15609	0.17972	0.20279	0.085614	0.12498	0.096833	0.14627	0.045205	0.20349	-2.5938	-2.9021	-2.8333	-3.0146	-2.7229	-2.9104	-2.9333	-2.7396	-3.0875	-2.9813	-2.9854	-3.175	-2.7042	-3	-2.8354	-2.7292	81.510	234.416	20.794	256.489	131.627	62.714	171.123	222.999	219.020	114.682	296.735	214.731	73.152	142.713	265.013	281.984	0.00066271	0.00031796	0.00010023	328.57	5.1943e-06	6.4178e-06	637	117.37	4.9678e-06	3.7199e-06	317.74	150.67	56.878	22.993	2.9781e-06	81.498	0.00088733	0.00095061	0.00025871	318.22	9.3555e-06	1.0106e-05	616.15	114.07	9.4797e-06	1.0122e-05	307.95	146.74	55.958	22.529	9.8575e-06	79.694	73.973	78.521	49.142	-13.894	108.843	175.594	-13.948	-9.056	70.327	147.975	-10.328	-6.471	-5.756	-1.562	93.947	-3.111	-8191	255	
22872.875	1	1	0	0	0.055091	0.13564	0.22778	0.23377	0.14823	0.18734	0.0098792	0.25888	0.067156	0.090993	0.35845	0.088969	0.028385	0.19087	0.21527	0.16855	-2.7271	-2.975	-2.8	-3.1312	-2.6771	-2.9021	-3.1063	-2.7125	-3.2146	-2.8333	-2.7625	-3.0958	-2.8583	-3.0271	-3.0146	-2.9667	25.650	2.568	186.059	267.217	73.281	144.544	86.418	176.299	58.359	100.232	250.075	221.479	120.096	323.764	13.140	298.154	0.0006273	0.00042598	9.6648e-05	326.43	4.6508e-06	6.1087e-06	636.56	117.51	3.896e-06	2.6523e-06	316.97	151.6	56.351	23.161	2.1814e-06	81.955	0.00089697	0.00092698	0.00026092	317.64	9.4335e-06	1.0211e-05	615.79	114.25	9.345e-06	1.0136e-05	308.27	147.39	55.779	22.714	9.8367e-06	80.192	72.755	73.898	56.458	-14.064	127.120	122.126	-14.142	-9.880	98.638	128.806	-10.260	-6.403	-6.597	-1.512	167.930	-2.879	-8191	255	
22872.971	1	1	0	0	0.20298	0.19694	0.035954	0.27968	0.17526	0.34691	0.14401	0.205	0.19232	0.18086	0.13258	0.1589	0.28642	0.27651	0.18471	0.17711	-2.6875	-2.8396	-2.775	-3.1417	-2.85	-2.9375	-2.8458	-2.9708	-2.9375	-3.0854	-2.9771	-3.0354	-2.6688	-2.925	-3.0333	-3.0417	23.561	253.009	247.552	321.410	148.956	169.562	150.412	238.817	278.653	130.285	-14.641	38.705	171.933	244.484	182.220	260.601	0.00070667	0.00085304	0.00016205	327.15	3.1645e-06	4.1951e-06	640.39	116.89	3.2266e-06	3.4344e-06	317.84	151.76	56.979	22.867	4.4989e-06	81.666	0.00089707	0.00092499	0.00026102	317.51	9.5224e-06	9.969e-06	617.84	114.2	9.4584e-06	1.0063e-05	309.38	147.67	55.972	22.557	9.7973e-06	79.968	70.994	29.247	45.748	-13.507	141.196	147.398	-14.213	-9.203	160.898	137.954	-10.299	-6.700	-6.292	-1.299	96.826	-3.076	-8191	255	
22873.090	1	1	0	0	0.10763	0.1268	0.0683	0.019297	0.087608	0.16092	0.026955	0.1669	0.17932	0.12002	0.081943	0.15594	0.25022	0.25196	0.33223	0.23687	-2.7521	-2.8688	-2.6583	-3.1729	-2.9333	-2.8708	-3.0125	-2.9229	-2.9313	-2.8708	-2.7646	-3.2333	-2.7479	-2.7687	-2.9833	-2.9042	273.070	-5.410	298.402	37.264	12.445	315.269	270.393	123.973	-16.726	-20.244	284.511	243.095	133.919	89.670	142.962	323.807	0.00069378	9.1009e-05	0.0001545	328.97	3.5272e-06	3.5964e-06	642.21	118.67	6.2914e-06	7.5377e-06	318.67	151.67	56.886	22.927	5.478e-06	81.957	0.00088031	0.00092356	0.00026179	319.48	9.4134e-06	1.021e-05	620.11	115.1	9.266e-06	1.0272e-05	309.94	147.68	55.927	22.552	9.6484e-06	80.3	65.681	59.824	67.140	-13.785	103.696	112.141	-13.669	-9.198	108.989	118.218	-10.351	-6.485	-5.688	-1.232	104.788	-3.341	-8191	255	
22873.186	1	1	0	0	0.22839	0.24289	0.098056	0.44765	0.11609	0.23557	0.15959	0.199	0.095368	0.09969	0.080622	0.14502	0.10685	0.21853	0.23321	0.22314	-2.3958	-2.9062	-2.7917	-3.0396	-2.8958	-2.7729	-3.225	-2.6458	-2.8146	-2.9729	-2.9021	-3.1854	-2.7958	-2.9604	-2.8812	-3.0458	143.851	328.594	187.395	172.566	165.063	-4.392	309.293	-13.727	111.088	37.378	-19.294	275.729	143.722	229.936	260.578	271.148	0.00067508	0.00052647	0.00017327	328.66	2.9934e-06	4.812e-06	637.72	117.8	5.147e-06	5.7867e-06	318.36	151.58	56.576	23.164	5.3883e-06	81.962	0.00087855	0.00092095	0.00025502	319.08	9.4418e-06	1.0135e-05	617.19	114.48	9.3397e-06	1.0194e-05	309.08	147.43	55.963	22.7	9.9037e-06	80.088	71.292	67.397	57.651	-13.843	136.415	116.431	-14.229	-9.116	128.590	153.286	-10.347	-6.426	-5.678	-1.713	125.426	-3.009	-8191	255	
22873.281	1	1	0	0	0.041876	0.21028	0.093187	0.046897	0.24237	0.21755	0.23205	0.31186	0.13207	0.1818	0.062843	0.28452	0.14324	0.16024	0.13753	0.032585	-2.4104	-3.0417	-2.7146	-3.0479	-2.8833	-2.8833	-3.1042	-2.6875	-2.9562	-3.1562	-2.6854	-2.9833	-2.875	-2.6792	-3.1396	-2.7854	328.748	133.065	270.641	261.755	1.349	170.926	311.617	77.469	-27.018	236.830	6.469	249.468	84.260	190.463	164.420	116.690	0.00063331	0.00040379	0.00014405	327.51	6.0955e-06	3.5694e-06	635.11	117.77	4.8788e-06	9.2182e-06	319.64	151.23	56.756	23.065	4.5262e-06	81.731	0.00089119	0.00091814	0.00026234	317.76	9.3976e-06	1.0024e-05	617.39	114.6	9.3219e-06	1.0247e-05	309.36	147.4	55.972	22.631	9.7321e-06	80.081	67.844	71.725	49.503	-13.920	96.587	158.819	-13.650	-9.279	148.362	121.734	-10.135	-6.195	-5.790	-1.728	100.684	-3.427	-8191	255	
22873.354	1	1	0	0	0.22617	0.11581	0.041607	0.37939	0.20474	0.24763	0.18463	0.062155	0.12059	0.17824	0.070408	0.22214	0.24141	0.2405	0.11823	0.27144	-2.4708	-3.0438	-2.7	-3.0979	-2.9104	-2.775	-3.1063	-2.8375	-2.8729	-3.1312	-2.725	-3.1375	-2.95	-2.6042	-3.1354	-2.7875	166.341	27.017	192.132	249.685	233.990	38.166	260.892	79.585	69.042	129.906	270.918	47.425	184.189	7.633	50.432	226.802	0.000668	0.00048205	2.3713e-05	330	6.5141e-06	3.6028e-06	639.64	118.43	3.2234e-06	7.3036e-06	318.07	151.85	56.86	22.985	4.156e-06	82.23	0.00089175	0.00093366	0.00025576	319.6	9.398e-06	1.0258e-05	618.36	114.8	9.4121e-06	1.0199e-05	310.57	148.08	56.188	22.686	9.7208e-06	80.427	69.744	85.764	290.037	-13.887	84.187	108.696	-13.592	-9.369	149.843	121.247	-10.097	-6.374	-5.919	-1.406	64.338	-3.181	-8191	255	
22873.475	1	1	0	0	0.29235	0.10247	0.046605	0.085734	0.2268	0.064298	0.089592	0.19081	0.073532	0.25162	0.062079	0.10137	0.040353	0.29507	0.13095	0.060677	-2.1542	-3.1167	-2.5812	-2.9042	-3.0396	-2.725	-2.9354	-2.8521	-2.8167	-2.9688	-2.9917	-2.9938	-2.9104	-2.7062	-3.0729	-3.1521	207.173	52.639	113.861	43.171	145.877	310.528	183.550	320.950	319.682	204.629	82.142	280.212	119.590	160.304	254.656	77.541	0.00076407	0.00022063	0.00018079	328.53	2.3867e-06	3.6541e-06	645.53	118.19	3.3277e-06	6.3301e-06	320.12	152.29	57.135	22.986	3.2237e-06	82.262	0.00090585	0.00093262	0.00025878	319.56	9.4524e-06	1.0428e-05	622.01	115.17	9.4217e-06	1.0165e-05	311.54	148.35	56.298	22.636	9.7208e-06	80.478	75.063	111.726	71.787	-14.064	131.470	53.779	-13.607	-9.166	88.108	146.156	-10.170	-6.535	-5.751	-1.733	111.625	-2.979	-8191	255	
22873.570	1	1	0	0	0.24968	0.10484	0.28338	0.098444	0.11781	0.075555	0.17864	0.16355	0.2167	0.03061	0.1068	0.19381	0.2768	0.17825	0.0734	0.080404	-2.1625	-2.9729	-2.6896	-2.6333	-2.9917	-2.8063	-3.0667	-2.7542	-2.6417	-2.9896	-2.7771	-2.9938	-3.0604	-2.675	-2.9229	-3.1312	310.503	237.941	146.141	205.039	255.137	259.133	298.050	36.801	53.100	34.141	61.938	238.695	280.514	124.347	205.587	-18.626	0.00072898	0.00037851	6.7123e-05	328.77	4.107e-06	5.0876e-06	640.32	117.71	4.9237e-06	6.3138e-06	318.43	151.6	57.225	23.254	4.2251e-06	81.736	0.00087969	0.00091389	0.00025241	319	9.2517e-06	1.0111e-05	618.4	114.72	9.2852e-06	1.0062e-05	308.9	147.25	56.141	22.695	9.5628e-06	80.18	67.313	32.358	18.254	-13.696	95.241	119.427	-14.044	-9.545	50.231	114.656	-10.303	-6.568	-6.175	-1.599	83.670	-2.717	-8191	255	
22873.668	1	1	0	0	0.31647	0.057727	0.12082	0.10651	0.092667	0.088594	0.11817	0.15908	0.15785	0.1039	0.055316	0.13922	0.16719	0.1413	0.10435	0.23148	-2.3312	-3.0958	-2.8396	-2.8479	-2.95	-2.8688	-3.0229	-2.8563	-2.8542	-3.1667	-2.9271	-3.0312	-2.9813	-2.6063	-3.0292	-3.0312	-16.029	169.898	156.548	-14.111	280.287	271.288	303.906	47.753	209.158	-13.435	28.944	137.409	178.265	175.730	238.923	282.418	0.00063919	0.00058199	0.00013236	326.77	3.9714e-06	3.7086e-06	641.32	117.21	5.4395e-06	1.2103e-06	319.43	151.55	56.559	22.984	7.9138e-06	81.937	0.0008937	0.00086771	0.00025137	317.64	9.455e-06	9.758e-06	618.5	114.33	9.2878e-06	9.9424e-06	309.23	147.45	55.919	22.691	9.5551e-06	80.394	74.453	62.401	48.451	-13.268	92.739	132.228	-13.761	-9.481	113.484	138.832	-10.419	-6.322	-5.600	-1.920	122.490	-3.098	-8191	255	
22873.787	1	1	0	0	0.36	0.14362	0.1359	0.10111	0.21638	0.20457	0.17084	0.05708	0.089458	0.023544	0.15935	0.211	0.1024	0.28761	0.13637	0.2437	-2.1312	-3.0021	-3.0458	-2.7625	-3.1667	-2.9375	-2.9958	-3.0187	-2.7792	-3.0875	-2.8812	-2.9146	-3.2062	-2.6979	-2.8958	-3.0375	-13.997	176.691	161.035	227.491	322.341	68.848	279.923	51.755	162.461	119.812	18.851	180.908	21.555	17.144	212.338	-18.608	0.00071623	0.00068005	9.1664e-05	327.24	6.8557e-06	5.6369e-06	640.28	117.27	4.8941e-06	7.4466e-06	318.31	150.85	56.555	23.022	6.6104e-06	82.613	0.00089095	0.00089342	0.0002464	317.85	9.1755e-06	9.8452e-06	617.67	114.46	9.3799e-06	9.8122e-06	309.52	147.4	55.988	22.66	9.4917e-06	80.675	68.127	62.401	12.598	-13.515	110.022	128.615	-13.700	-9.499	117.579	141.469	-10.368	-6.462	-6.090	-1.211	119.733	-2.854	-8191	255	
22873.883	1	1	0	0	0.25396	0.096297	0.28161	0.063649	0.087615	0.097528	0.17007	0.07664	0.088174	0.19522	0.10126	0.23493	0.25686	0.06092	0.26081	0.22376	-2.2354	-3.0875	-2.8333	-2.7604	-2.9583	-2.9229	-2.9938	-3.1271	-2.8208	-3.1125	-3.1125	-2.5604	-3.1542	-2.9271	-2.7458	-3.0375	28.401	122.843	160.570	85.293	130.839	118.387	-15.154	180.530	-21.622	2.484	13.109	262.744	213.487	23.242	124.188	230.772	0.00066339	0.0007097	0.00017453	327.17	2.9752e-06	3.8156e-06	641.33	117.99	4.7841e-06	6.872e-06	319.6	151.89	56.54	23.071	5.2363e-06	81.974	0.00089054	0.00089403	0.00025374	317.43	9.2583e-06	9.8471e-06	618.05	114.58	9.3611e-06	9.978e-06	310.1	147.8	55.781	22.58	9.3659e-06	80.108	73.971	49.872	47.194	-13.979	122.357	118.419	-13.843	-9.337	86.137	110.202	-10.358	-6.611	-5.457	-1.542	107.783	-3.004	-8191	255	
22873.979	1	1	0	0	0.11743	0.18741	0.15758	0.013962	0.058398	0.14172	0.048643	0.23879	0.22882	0.26416	0.23036	0.23848	0.2251	0.093463	0.13426	0.31667	-2.1896	-2.8375	-3.0167	-2.7104	-3.0625	-2.8271	-2.9833	-3.1583	-2.7687	-2.8146	-2.9062	-2.8146	-2.9813	-2.8292	-2.75	-3.1917	143.454	313.386	194.100	265.472	20.355	112.885	88.620	86.488	301.071	71.217	297.859	80.918	322.432	-0.636	174.245	161.326	0.00067834	0.00034523	0.00011181	326.77	3.7169e-06	3.7503e-06	636.4	116.51	5.4322e-06	3.4479e-06	316.91	150.36	56.327	22.605	4.5068e-06	81.121	0.00086788	0.00091454	0.00024376	316.98	9.1159e-06	9.9411e-06	616.3	113.69	8.8308e-06	9.6359e-06	306.82	146.47	55.665	22.43	9.3645e-06	79.425	72.309	84.608	38.630	-14.094	102.553	137.095	-13.993	-9.274	111.579	147.997	-10.412	-6.640	-6.027	-1.949	117.791	-3.186	-8191	255	
22874.076	1	1	0	0	0.2373	0.19427	0.14288	0.34152	0.13385	0.12822	0.04891	0.14457	0.11097	0.12564	0.40597	0.11686	0.09613	0.08894	0.24131	0.2036	-2.4521	-3.0208	-3.0375	-2.6875	-3.0062	-2.9	-2.825	-3.1063	-2.8167	-2.8625	-2.9979	-2.8563	-3.0375	-2.8542	-2.6125	-3.0875	154.904	234.797	173.659	291.056	157.511	153.921	-7.263	235.352	109.532	266.863	240.249	227.510	295.869	45.557	241.717	266.381	0.00064725	0.00037057	0.00011534	324.29	7.3863e-06	4.9559e-06	636.93	116.98	3.0543e-06	4.1507e-06	316.54	151.06	56.597	22.966	4.4028e-06	81.719	0.00086553	0.0008874	0.00024663	316.73	8.9534e-06	9.7821e-06	613.94	113.97	9.1614e-06	9.8444e-06	307.13	146.82	55.781	22.535	9.6701e-06	79.983	68.311	56.473	67.357	-13.989	97.206	130.991	-13.852	-9.487	77.204	96.824	-10.311	-6.371	-5.907	-1.706	107.673	-3.025	-8191	255	
22874.172	1	1	0	0	0.2681	0.02094	0.16135	0.22638	0.26345	0.11661	0.20184	0.081534	0.31173	0.184	0.25917	0.16342	0.24754	0.15248	0.096018	0.19859	-2.5687	-2.9125	-3.0062	-2.65	-3.0458	-2.925	-2.9479	-3.1333	-2.9062	-2.7167	-2.9542	-2.8208	-3.0938	-2.9375	-2.8542	-3.0896	32.502	-21.674	149.335	-26.347	32.181	186.821	135.495	240.859	224.285	112.292	317.100	-13.017	322.272	182.406	147.882	244.149	0.00068149	0.00054485	0.00014855	325.71	5.7304e-06	3.2328e-06	639.44	117.02	3.3804e-06	3.2052e-06	317.15	151.32	56.707	23.091	5.4748e-06	81.994	0.00087796	0.00090496	0.00025356	316.58	9.2329e-06	9.8033e-06	615.22	113.89	9.2586e-06	9.9977e-06	308.99	147.47	55.888	22.64	9.5556e-06	80.425	76.057	57.556	56.827	-13.801	84.751	108.933	-13.636	-9.193	128.528	93.188	-9.988	-6.761	-6.144	-1.657	150.499	-3.108	-8191	255	
22874.268	1	1	0	0	0.15238	0.078191	0.19608	0.083895	0.081361	0.2342	0.13607	0.11366	0.27481	0.10723	0.093411	0.099651	0.17219	0.051171	0.29882	0.24115	-2.6604	-2.7188	-2.9604	-2.9729	-2.8896	-2.9729	-2.7438	-3.125	-2.7188	-2.8021	-3.1979	-3.0062	-2.9604	-3.0354	-2.7854	-2.975	-18.406	-8.666	74.951	54.377	82.121	225.007	223.295	304.260	280.973	239.918	130.725	273.294	173.072	-10.293	115.651	286.347	0.00064482	0.00073929	0.00012598	326.6	6.3016e-06	5.167e-06	637.6	117.29	3.6927e-06	5.4061e-06	321.1	152.3	57.037	23.078	2.6652e-06	82.354	0.0008762	0.00091293	0.00025201	316.78	9.2522e-06	1.0257e-05	616.53	114.17	9.4479e-06	1.0397e-05	310.09	147.95	55.987	22.614	9.5365e-06	80.6	65.334	48.324	61.957	-14.179	75.950	79.087	-13.608	-9.139	113.181	137.452	-10.179	-6.272	-6.074	-1.143	111.660	-3.034	-8191	255	
22874.387	1	1	0	0	0.19523	0.041199	0.29927	0.21235	0.016848	0.13179	0.14445	0.17489	0.18309	0.12866	0.10591	0.17043	0.14153	0.2207	0.06555	0.21697	-2.425	-2.5875	-2.9729	-2.7417	-2.7875	-2.9875	-2.8187	-2.9417	-2.9396	-2.7729	-3.1688	-2.8521	-2.8583	-2.875	-2.6333	-3.1667	158.895	-13.984	-25.936	129.471	66.701	29.977	264.476	238.316	16.030	184.029	27.428	309.797	223.077	136.230	294.940	275.435	0.00071166	0.00027938	0.00014183	325.41	3.8776e-06	6.6556e-06	638.23	116.49	7.1274e-06	1.7416e-06	317.92	151.4	56.512	23.016	6.2447e-06	81.692	0.00088486	0.00092065	0.00025312	315.76	9.3056e-06	9.9839e-06	616.64	113.88	9.0611e-06	1.003e-05	308.71	147.08	55.718	22.526	9.8104e-06	79.733	71.304	8.771	95.853	-14.088	78.004	107.833	-13.934	-9.351	113.682	57.563	-10.260	-6.254	-5.741	-1.410	131.083	-3.012	-8191	255	
22874.482	1	1	0	0	0.22933	0.059688	0.11045	0.031884	0.10266	0.15381	0.18332	0.14189	0.18071	0.037502	0.13011	0.20623	0.17814	0.11418	0.1503	0.15975	-2.6437	-2.6562	-2.9292	-2.7188	-2.9104	-3.0354	-2.8146	-3.0167	-3.0479	-2.7562	-3.1208	-2.8875	-2.8167	-3.1292	-2.7562	-2.9396	22.901	8.604	-24.559	16.116	128.247	142.663	235.700	-2.699	264.284	318.506	202.312	18.801	289.701	-21.078	267.276	103.277	0.00069536	0.00064158	8.9626e-05	327.38	4.3268e-06	7.1091e-06	638.39	116.71	3.1921e-06	5.8202e-06	317.4	151.28	56.135	23.001	7.2267e-06	81.55	0.00086	0.00089308	0.00024763	316.32	8.9806e-06	9.7464e-06	614.19	113.68	9.0755e-06	1.0015e-05	308.21	147	55.652	22.486	9.5021e-06	79.732	68.542	60.702	37.421	-13.649	84.198	124.835	-13.667	-9.396	81.694	101.172	-10.207	-6.637	-5.758	-1.459	109.590	-3.149	-8191	255	
22874.580	1	1	0	0	0.15428	0.10358	0.10829	0.1514	0.18837	0.12034	0.072128	0.095307	0.26788	0.078257	0.13192	0.21962	0.10112	0.20583	0.12387	0.092388	-2.6458	-2.4958	-2.8729	-2.8917	-2.9167	-2.9229	-3.025	-2.9729	-3.1354	-2.7625	-3.1271	-3.0021	-2.7458	-3.1875	-2.825	-2.775	153.775	293.964	250.866	326.352	161.033	218.826	146.941	217.346	241.502	100.856	301.199	222.584	35.486	-25.858	84.274	154.213	0.00064827	0.00032331	0.000167	325.18	5.7993e-06	4.2406e-06	637.98	116.61	6.8166e-06	3.9742e-06	317.52	150.64	56.764	22.83	5.0064e-06	81.257	0.00087595	0.00091059	0.00024974	316.87	9.0813e-06	9.7334e-06	617.27	114.02	8.7785e-06	1.0059e-05	308.69	147.02	55.682	22.397	9.5035e-06	79.296	67.255	39.266	40.631	-13.755	97.997	114.860	-13.776	-9.494	70.769	135.117	-10.254	-6.519	-6.266	-1.498	109.436	-2.995	-8191	255	
22874.650	1	1	0	0	0.32164	0.31664	0.21061	0.14716	0.049089	0.090502	0.087704	0.095147	0.11989	0.25635	0.10367	0.177	0.23618	0.083034	0.14274	0.018559	-2.6125	-2.7104	-2.8958	-3.0604	-2.8583	-2.9375	-2.9771	-2.8771	-3.1833	-2.8812	-2.9146	-3.1104	-2.6937	-2.9667	-3.0312	-2.8354	182.569	99.290	326.061	132.258	279.096	-22.859	149.823	58.916	262.142	55.497	267.891	273.061	20.235	72.177	326.253	81.429	0.00071412	0.00056428	0.00013723	330.14	2.6831e-06	4.6774e-06	639.34	118.02	2.3644e-06	5.5106e-06	318.72	151.64	56.305	22.558	3.911e-06	81.28	0.00085564	0.00086741	0.00024903	319.08	9.0643e-06	9.5498e-06	620.58	114.61	8.8509e-06	9.8809e-06	309.1	146.92	55.523	22.204	9.3364e-06	79.326	71.680	58.148	28.792	-13.686	78.980	161.092	-13.896	-9.445	117.320	153.367	-10.224	-6.539	-5.778	-1.336	148.262	-2.868	-8191	255	
22874.746	1	1	0	0	0.080514	0.21079	0.20325	0.14227	0.16567	0.22299	0.16058	0.21766	0.2968	0.13673	0.15502	0.23958	0.1513	0.19651	0.18031	0.31189	-2.7083	-2.5896	-2.8812	-2.8167	-2.8187	-2.9062	-3.0354	-2.6937	-3.1021	-2.8833	-3.0479	-2.9813	-2.5604	-3.0292	-2.9062	-2.8792	3.263	19.431	312.208	53.478	112.205	48.768	170.217	45.228	311.760	269.191	261.415	164.065	28.392	46.661	76.216	297.331	0.00065206	0.0003661	0.0001297	330.13	2.7355e-06	4.9148e-06	638.89	117.35	5.3894e-06	7.1307e-06	315.83	150.72	56.629	22.672	6.0448e-06	81.132	0.0008634	0.00089715	0.00024775	318.31	8.7808e-06	9.6202e-06	618.95	114.55	8.9669e-06	9.8718e-06	307.91	146.76	55.574	22.255	9.4904e-06	79.083	73.575	64.518	62.617	-13.814	76.749	105.646	-14.058	-9.398	51.617	142.896	-10.218	-6.438	-6.154	-1.379	98.796	-2.945	-8191	255	
22874.865	1	1	0	0	0.084669	0.31649	0.25844	0.16694	0.24247	0.17586	0.36642	0.28138	0.12518	0.21935	0.09405	0.14188	0.14646	0.011449	0.15324	0.3724	-2.5187	-2.7625	-2.8146	-3.0042	-2.7562	-3.1958	-2.9	-2.85	-2.9958	-2.8542	-3.0479	-3.1708	-2.7104	-3.0396	-2.9813	-2.675	44.096	205.952	104.219	268.439	239.951	128.547	328.395	242.520	148.457	276.408	-7.164	130.169	259.562	9.571	3.058	226.374	0.00068364	0.00025259	0.00011129	326.46	4.503e-06	5.548e-06	637.62	117.01	5.5192e-06	5.4654e-06	316.13	150.06	56.834	22.657	5.3715e-06	80.937	0.00085629	0.0008786	0.00023751	317.53	8.6967e-06	9.8134e-06	617.5	114.16	9.0284e-06	9.5965e-06	307.16	146.87	55.733	22.29	9.2894e-06	79.095	71.206	55.576	85.306	-13.964	86.454	152.954	-13.989	-9.228	108.860	99.181	-10.367	-6.689	-6.006	-1.746	78.388	-3.088	-8191	255	
22874.963	1	1	0	0	0.17615	0.15118	0.15593	0.27512	0.14327	0.031058	0.12622	0.20999	0.3384	0.10687	0.012753	0.087532	0.17662	0.28696	0.15455	0.22907	-2.5417	-2.6063	-2.8	-3.1729	-2.5771	-3.0583	-2.9062	-2.675	-2.8625	-2.7687	-2.925	-3.1917	-2.775	-3.0125	-3.2333	-2.6333	141.298	-1.911	48.720	211.201	216.471	279.564	150.218	61.208	-17.351	73.595	256.319	92.531	309.135	-16.444	69.625	322.856	0.00073285	0.0003003	3.9837e-05	330.3	5.9783e-06	3.3268e-06	641.86	117.25	4.6537e-06	2.763e-06	319.72	151.81	56.832	22.687	6.3933e-06	81.36	0.00086089	0.00085982	0.00024277	318.84	9.0191e-06	9.532e-06	620.27	114.49	8.9752e-06	9.7416e-06	309.65	147.61	55.872	22.329	9.4039e-06	79.381	68.986	65.957	-13.794	-13.732	118.101	178.494	-13.880	-9.280	49.722	116.978	-10.320	-6.200	-5.259	-1.099	114.241	-3.107	-8191	255	
22875.059	1	1	0	0	0.089158	0.16187	0.22474	0.17001	0.032416	0.1333	0.11682	0.21694	0.065634	0.26043	0.076994	0.056591	0.18827	0.21034	0.19177	0.14127	-2.6917	-2.75	-2.6292	-3.1708	-2.7542	-2.8542	-3.1	-2.6667	-3.0833	-2.6729	-2.625	-3.0312	-2.7958	-2.8021	-2.9104	-2.75	141.470	291.888	49.856	187.018	93.122	192.002	167.679	50.551	27.969	46.773	279.160	174.618	16.692	-18.991	95.785	299.589	0.00060112	0.00078986	0.00015899	331.39	5.5802e-06	6.257e-06	645.12	118.28	4.9457e-06	6.0115e-06	319.85	151.72	56.872	22.622	8.4343e-06	81.44	0.0008532	0.0008792	0.0002508	320.85	8.766e-06	1.0066e-05	621.37	114.75	8.9137e-06	9.879e-06	309.69	147.41	56.024	22.264	9.4691e-06	79.534	64.651	72.264	44.700	-14.061	76.782	113.656	-13.613	-9.317	75.453	168.291	-10.321	-6.144	-5.759	-1.647	133.588	-3.244	-8191	255	
22875.180	1	1	0	0	0.29927	0.080303	0.25944	0.0753	0.19069	0.26025	0.34467	0.050006	0.1091	0.18272	0.073549	0.30135	0.091455	0.19113	0.18164	0.033591	-2.3937	-2.975	-2.8146	-2.9833	-3.0083	-2.6958	-3.0292	-2.6188	-2.975	-2.6937	-2.6854	-3.0854	-2.7604	-2.8396	-3.0271	-2.7521	163.078	236.104	230.565	295.994	331.466	245.793	262.199	202.666	220.685	31.139	49.889	255.005	283.818	255.489	323.515	136.420	0.00068816	0.00064187	0.00011758	329.69	6.1308e-06	3.8556e-06	642.92	117.6	3.174e-06	5.0392e-06	319.27	151.34	56.927	22.749	1.3142e-06	81.743	0.00086903	0.00088272	0.00025073	319.88	8.9473e-06	9.8283e-06	620.8	114.61	9.0502e-06	9.6993e-06	308.4	147.55	55.893	22.355	9.4827e-06	79.781	73.516	43.089	33.319	-13.608	116.407	139.353	-13.872	-9.451	80.004	126.849	-10.160	-6.413	-5.810	-1.078	87.307	-2.984	-8191	255	
22875.252	1	1	0	0	0.12288	0.2176	0.18548	0.22561	0.18042	0.086295	0.13622	0.27856	0.24167	0.21409	0.054025	0.28425	0.04463	0.053257	0.15587	0.043051	-2.425	-2.9271	-2.7188	-3.0854	-3.0021	-2.9375	-3.1021	-2.7458	-2.9292	-3.0875	-2.6875	-3.0875	-2.8937	-2.9	-3.0271	-2.9396	231.728	57.564	265.005	281.909	187.021	-1.134	127.905	-11.113	326.588	11.293	264.330	265.605	169.057	179.874	38.541	245.757	0.00065763	0.00035898	0.00013002	330.74	4.776e-06	6.3272e-06	639.35	118.43	4.8348e-06	7.6577e-06	317.55	151.63	56.588	22.725	4.0279e-06	81.656	0.00086071	0.00089945	0.00024931	319.04	9.0883e-06	9.9334e-06	618.52	114.57	9.1727e-06	9.5455e-06	308.83	147.49	56.057	22.348	9.1807e-06	79.758	71.242	62.413	45.660	-14.225	86.995	99.674	-14.037	-9.444	104.469	109.403	-10.367	-6.390	-5.750	-1.569	147.101	-2.996	-8191	255	
22875.348	1	1	0	0	0.094474	0.16256	0.045557	0.29671	0.13253	0.28317	0.2178	0.34491	0.18025	0.21836	0.010082	0.18426	0.15242	0.27155	0.050058	0.07965	-2.5021	-2.8729	-2.7042	-3	-2.8875	-2.6333	-3.0125	-2.8792	-2.8917	-3.0833	-2.9729	-3.1917	-2.8937	-2.7562	-3.1042	-2.9083	322.603	73.005	69.213	268.948	281.090	10.478	-23.829	297.830	321.076	125.294	74.358	310.284	55.019	321.088	136.991	136.900	0.00075153	0.0002269	0.000146	329.7	5.2284e-06	3.5348e-06	639.04	117.84	8.6117e-07	5.7416e-06	321.24	152.18	56.661	22.764	5.465e-06	81.534	0.00087181	0.00089468	0.00024589	319.63	9.1869e-06	9.9444e-06	619.31	115.01	9.1239e-06	9.8357e-06	310.36	148.31	56.173	22.451	9.3858e-06	79.847	74.206	27.408	46.965	-13.542	125.254	100.882	-13.893	-9.500	-19.734	90.532	-10.388	-6.355	-5.526	-1.985	129.172	-2.973	-8191	255	
22875.469	1	1	0	0	0.088356	0.14754	0.12998	0.15644	0.12495	0.068139	0.081387	0.14688	0.27966	0.074072	0.061322	0.13631	0.13158	0.15412	0.064297	0.22152	-2.3792	-2.9667	-2.7458	-2.9437	-3.1	-2.7646	-3.0938	-2.7833	-2.775	-3.1125	-2.8438	-3.1063	-3.0042	-2.6333	-3.1333	-2.9042	306.746	183.383	5.851	203.485	303.314	61.212	45.132	251.990	4.292	120.632	163.497	322.711	257.475	280.053	143.591	240.389	0.00060522	0.00030169	0.00013536	331.57	5.8244e-06	7.4798e-06	642.8	118.33	4.2281e-06	2.3626e-06	320.06	152.8	56.989	22.87	2.3035e-06	81.833	0.00088294	0.00091055	0.00024753	320.42	9.0848e-06	9.7127e-06	621.9	115.21	8.8875e-06	9.5177e-06	310.77	148.65	56.187	22.426	9.5098e-06	79.971	68.205	68.365	73.549	-13.426	110.835	117.588	-13.939	-9.393	67.110	133.244	-10.105	-6.182	-6.069	-1.697	135.123	-3.035	-8191	255	
22875.564	1	1	0	0	0.17368	0.069036	0.21483	0.1211	0.11078	0.19178	0.25257	0.098962	0.17987	0.11438	0.034047	0.15082	0.33306	0.25606	0.089626	0.11261	-2.5146	-2.9396	-2.7292	-3.0521	-2.925	-2.75	-3.0542	-2.7875	-2.7146	-3.1083	-3.0271	-2.9146	-2.8896	-2.8792	-3.0646	-2.9583	194.400	29.854	254.366	201.437	49.363	55.011	131.142	-7.450	271.752	39.570	267.188	259.127	255.087	45.360	317.856	238.818	0.00064529	0.00043602	0.00014868	331.65	7.5214e-06	6.3612e-06	645.28	118.63	3.3923e-06	4.5191e-06	318.89	151.52	57.002	22.8	5.5157e-06	81.723	0.00087481	0.00087946	0.00024613	320.6	9.2342e-06	9.8095e-06	622.18	115.29	9.3428e-06	9.5945e-06	309.82	147.95	56.238	22.496	9.3672e-06	79.837	71.337	40.430	59.662	-13.626	107.390	101.441	-13.955	-9.041	159.540	198.668	-10.211	-6.342	-6.011	-1.514	106.366	-3.050	-8191	255	
22875.660	1	1	0	0	0.24524	0.32833	0.11045	0.20329	0.054812	0.34738	0.08277	0.24697	0.22	0.25573	0.14473	0.26666	0.21122	0.062759	0.107	0.22286	-2.5646	-3.0812	-2.6458	-2.8271	-3.1312	-2.725	-3.1312	-2.8229	-2.9271	-2.9938	-2.8604	-2.9854	-2.95	-2.775	-3.0125	-3.1354	128.056	87.210	259.647	200.648	147.253	-8.253	47.889	296.082	262.070	304.961	324.111	289.557	309.761	291.999	235.176	255.198	0.00066844	0.00036232	0.00015648	331.9	1.3096e-06	4.721e-06	641.81	118.51	8.0075e-06	5.8396e-06	318.27	152.57	56.86	22.81	4.466e-06	81.832	0.00086309	0.00088037	0.00025125	320.72	8.9985e-06	9.7136e-06	619.8	115.27	9.341e-06	9.817e-06	309.79	147.93	56.05	22.416	9.3817e-06	79.919	79.447	60.466	58.272	-13.650	56.740	105.327	-13.770	-9.400	116.684	144.801	-10.178	-6.564	-5.459	-1.118	90.365	-3.112	-8191	255	
22875.756	1	1	0	0	0.058804	0.16662	0.18044	0.20384	0.05507	0.25606	0.29668	0.13706	0.091799	0.15068	0.086181	0.16461	0.087829	0.11628	0.26318	0.12318	-2.3563	-3.0604	-2.9708	-2.9396	-3.0583	-2.8875	-3.0979	-3.0396	-2.7646	-2.9854	-3.0625	-2.9979	-3.0354	-2.7729	-2.9938	-3.1354	307.747	127.882	65.165	147.891	136.905	176.646	-22.206	282.369	230.207	279.422	19.561	284.726	309.950	329.906	-20.492	-11.643	0.00062409	0.00045706	0.0001319	330.33	5.1629e-06	6.465e-06	643.21	118.8	5.7366e-06	4.7718e-06	319.66	153.06	57.021	22.906	2.5727e-06	82.27	0.00088442	0.00087725	0.00025094	320.94	9.0743e-06	9.7758e-06	621.33	115.46	9.0667e-06	9.9213e-06	311.13	148.56	56.319	22.476	9.231e-06	80.341	68.610	74.076	27.452	-14.012	73.600	92.446	-13.951	-9.189	98.661	152.943	-10.366	-6.486	-5.924	-1.385	116.814	-3.000	-8191	255	
22875.877	1	1	0	0	0.18265	0.171	0.25696	0.11393	0.19833	0.18344	0.14883	0.1099	0.20536	0.1419	0.13036	0.07353	0.17628	0.17671	0.099711	0.13852	-2.2896	-2.9542	-2.775	-2.8229	-3.0687	-2.8542	-2.925	-3.1875	-2.7167	-3.0125	-3.0854	-3.0229	-3.0854	-2.8854	-2.8	-3.1708	163.829	241.128	-14.516	172.505	301.462	153.403	280.451	30.300	240.999	281.907	247.345	261.289	-11.702	296.820	87.870	243.274	0.00060391	0.00054914	0.00017077	332.57	3.9039e-06	7.2055e-06	642.44	119.35	6.7444e-06	5.8274e-06	322.86	154.19	57.659	22.994	4.2543e-06	82.957	0.00087975	0.0009053	0.00024797	320.92	9.2999e-06	9.9401e-06	622.5	115.92	9.4326e-06	1.021e-05	313.38	149.73	56.704	22.637	9.5125e-06	81.154	74.986	68.370	31.715	-14.080	97.196	133.458	-13.769	-9.145	119.058	105.918	-10.283	-6.534	-5.716	-1.395	88.107	-3.074	-8191	255	
22875.947	1	1	0	0	0.1378	0.16996	0.14466	0.12855	0.039524	0.079489	0.095007	0.18965	0.21598	0.12664	0.25786	0.17298	0.14546	0.23703	0.27892	0.2036	-2.3042	-2.9729	-3.0146	-2.5521	-2.95	-2.7271	-2.8667	-3.0646	-2.6312	-3.0708	-3.0208	-2.8812	-3.0271	-2.7292	-2.8583	-3.1542	119.377	235.187	49.184	0.656	251.022	111.693	324.633	296.035	26.349	21.553	-2.838	287.443	-1.655	201.061	74.302	290.741	0.00066259	0.00047611	0.00012159	332.12	6.4838e-06	5.0875e-06	647.28	119.24	3.7516e-06	6.4991e-06	320.69	153.07	57.838	23.025	7.091e-06	82.271	0.00087833	0.00091853	0.00025899	321.23	9.1488e-06	9.9931e-06	625.53	115.99	9.2211e-06	9.7959e-06	312.17	149.2	56.711	22.664	9.4677e-06	80.562	68.033	72.003	57.761	-13.597	141.263	131.290	-13.801	-9.041	50.320	112.783	-10.261	-6.468	-5.997	-1.377	110.776	-2.952	-8191	255	
22876.045	1	1	0	0	0.13712	0.11999	0.21221	0.11778	0.13989	0.048507	0.037539	0.3255	0.081288	0.20572	0.16752	0.1897	0.31131	0.42921	0.074422	0.2526	-2.3937	-2.9792	-2.9104	-2.8	-3.0042	-3.1312	-2.9229	-2.9375	-2.6937	-2.8771	-3.1396	-2.7479	-3.1	-2.85	-2.7229	-3.1917	226.459	113.979	323.213	318.519	232.307	165.856	214.710	240.181	314.974	117.011	134.733	135.864	159.682	256.545	150.706	328.361	0.0007399	0.00040584	6.9113e-05	332.56	7.2884e-06	3.8965e-06	640	119.77	3.7094e-06	3.7654e-06	322.8	153.29	57.825	23.146	5.3219e-06	83.046	0.00086516	0.00088857	0.00025281	320.97	9.3577e-06	9.9989e-06	621.3	116.1	9.2578e-06	1.0057e-05	313	149.24	56.937	22.753	9.6081e-06	81.143	65.694	49.986	85.447	-13.679	124.448	121.978	-14.000	-9.364	121.223	84.256	-10.408	-6.380	-5.908	-1.193	119.391	-3.257	-8191	255	
22876.162	1	1	0	0	0.18831	0.15624	0.091635	0.20718	0.027533	0.31533	0.22117	0.1302	0.29894	0.15275	0.2807	0.07721	0.061497	0.21417	0.28451	0.27815	-2.2729	-2.9792	-3.0396	-2.8625	-3.0146	-3.0312	-2.8792	-3.0042	-2.6875	-2.9458	-3.0167	-2.7917	-2.9021	-2.775	-2.6854	-3.2208	236.434	182.412	203.349	255.337	278.808	52.249	-26.543	327.437	4.980	295.255	248.768	33.817	59.078	7.372	34.789	254.465	0.00063575	0.0005158	5.4401e-05	331.7	5.0708e-06	5.2815e-06	645.05	118.95	9.6473e-06	6.0187e-06	323.81	154.88	57.601	23.146	3.3247e-06	83.48	0.0008975	0.00091003	0.00025438	320.64	9.1028e-06	1.0227e-05	623.33	116.39	9.1971e-06	1.0261e-05	314.19	150.28	57.006	22.788	9.7457e-06	81.7	71.902	18.756	74.011	-13.921	85.190	128.695	-13.758	-8.834	87.255	126.539	-10.308	-6.393	-5.967	-1.550	147.519	-3.206	-8191	255	
22876.260	1	1	0	0	0.32191	0.044186	0.13852	0.25002	0.1738	0.036553	0.075512	0.066157	0.10534	0.18671	0.24337	0.2544	0.20068	0.20349	0.12971	0.25716	-2.3896	-2.7125	-2.8917	-2.725	-2.8854	-3.05	-2.9375	-3.0125	-2.9146	-2.9333	-3.0583	-2.7917	-2.9833	-3.05	-2.5583	-3.1354	16.634	240.637	135.564	319.441	317.288	101.322	-21.802	72.103	184.380	326.792	187.870	16.333	200.712	238.063	56.604	312.525	0.00065496	0.00049087	0.00013796	331.24	5.6828e-06	5.0424e-06	649.12	119.19	1.9112e-06	2.9773e-06	324.03	155.12	58.131	23.215	2.1905e-06	83.891	0.00089895	0.0009246	0.0002511	321.22	9.2035e-06	1.0147e-05	625.53	116.44	9.3171e-06	9.9784e-06	314.86	150.68	57.235	22.84	9.8421e-06	81.88	75.409	58.097	49.545	-13.980	112.669	134.262	-13.796	-9.221	153.849	164.303	-10.219	-6.453	-6.018	-1.621	163.835	-3.069	-8191	255	
22876.355	1	1	0	0	0.17	0.099925	0.072549	0.15198	0.13495	0.18565	0.31275	0.28086	0.19141	0.1903	0.16013	0.1692	0.17322	0.16132	0.20984	0.20001	-2.4938	-2.8458	-3.0938	-2.8	-3.0271	-3.0167	-2.8063	-2.8563	-2.8854	-3.0708	-3.1729	-2.8312	-2.8667	-2.9437	-2.7125	-3.0687	23.304	329.241	58.790	293.943	59.432	299.791	210.687	285.387	-2.943	116.542	304.742	68.095	186.297	-24.038	321.290	295.150	0.0007049	0.00061563	0.00013636	332.72	6.3984e-06	1.9198e-06	649.56	120.04	4.1485e-06	2.8319e-06	325.31	154.64	58.025	23.37	2.6936e-06	83.527	0.00090894	0.0009373	0.00025132	322.8	9.4401e-06	1.0097e-05	627.91	116.77	9.1012e-06	1.0219e-05	315.03	150.62	57.168	22.932	9.7244e-06	81.907	70.788	36.077	58.022	-13.321	113.701	177.467	-13.959	-9.476	70.203	151.846	-10.008	-6.742	-5.838	-1.182	138.523	-3.086	-8191	255	
22876.477	1	1	0	0	0.16658	0.070571	0.46521	0.062605	0.13091	0.15043	0.19199	0.36135	0.083861	0.18198	0.24681	0.26834	0.16828	0.17416	0.24429	0.23398	-2.5792	-2.7521	-2.8958	-2.7708	-2.625	-3.0146	-2.7562	-2.8688	-2.9354	-2.7354	-3.0729	-2.9104	-2.9042	-3.0229	-2.8229	-3.1979	320.009	145.759	-6.606	240.000	93.663	39.548	10.516	29.554	156.011	124.756	332.115	262.343	9.702	65.006	6.929	303.489	0.00068078	0.0004067	0.00017199	330.03	5.9821e-06	5.1368e-06	638.89	119.52	3.8949e-06	4.9113e-06	322.54	154.67	58.408	23.383	4.1255e-06	83.854	0.00089639	0.00092412	0.00025893	320.57	9.4891e-06	1.0088e-05	619.96	116.36	9.3594e-06	1.0041e-05	313.65	150.56	57.275	23.01	9.7796e-06	82.112	80.677	57.268	74.070	-13.696	119.479	134.591	-13.465	-9.234	45.708	150.822	-10.145	-6.577	-5.725	-1.450	91.597	-3.403	-8191	255	
22876.549	1	1	0	0	0.063088	0.11017	0.13885	0.16425	0.17759	0.29999	0.12641	0.14923	0.11134	0.21434	0.20662	0.18258	0.22932	0.21434	0.18108	0.29037	-2.4917	-2.7646	-2.9479	-2.9313	-2.8979	-3.1375	-2.825	-3.0042	-2.9792	-2.6208	-2.9813	-2.9146	-2.6979	-3.0792	-2.5438	-2.875	232.491	269.428	251.767	100.844	327.452	181.784	219.188	243.594	28.227	154.547	317.572	280.960	268.024	-22.002	331.889	268.105	0.00065097	0.0006359	0.00010794	329.45	1.9471e-06	3.713e-06	642.94	119.13	5.7288e-06	4.7777e-06	323.64	155.13	57.815	23.289	5.1677e-06	83.499	0.00087883	0.0009197	0.00025985	320.78	9.37e-06	9.8582e-06	622.76	116.39	9.2447e-06	1.016e-05	314.61	150.41	56.918	22.843	9.6561e-06	81.724	72.902	50.076	37.082	-13.934	136.924	77.433	-13.822	-9.525	104.110	172.690	-10.062	-6.406	-6.022	-1.588	113.920	-3.044	-8191	255	
22876.645	1	1	0	0	0.049484	0.042268	0.10597	0.1226	0.094227	0.1171	0.11629	0.048753	0.32125	0.049575	0.22796	0.19951	0.098855	0.092256	0.0957	0.25138	-2.4583	-2.5646	-2.6875	-3.0042	-2.8	-3.1625	-2.8625	-2.7271	-2.8937	-2.75	-2.9813	-2.9854	-2.65	-3.2104	-2.7396	-2.9292	157.012	90.843	180.586	130.430	247.858	212.471	180.166	93.600	269.791	64.903	303.280	303.673	284.248	34.344	80.666	240.147	0.00071977	0.00035415	0.00014545	328.98	5.6022e-06	3.9657e-06	648.32	119.52	8.0134e-06	5.4097e-06	326.44	154.72	57.729	23.283	4.6824e-06	83.228	0.00088479	0.00091506	0.0002493	320.35	9.4576e-06	9.8669e-06	625.7	116.6	9.0676e-06	9.9664e-06	315.22	150.38	56.77	22.774	9.7701e-06	81.556	77.943	81.913	64.414	-13.909	81.438	132.992	-13.874	-9.541	92.719	113.402	-10.559	-6.126	-5.770	-1.675	72.624	-3.182	-8191	255	
22876.740	1	1	0	0	0.15763	0.36158	0.10134	0.26567	0.21783	0.1516	0.13998	0.19259	0.17657	0.22216	0.16454	0.22606	0.034116	0.12267	0.21583	0.15786	-2.5542	-2.7938	-3.0417	-2.9521	-2.9146	-3.0167	-2.7458	-2.9146	-3.2313	-2.8	-3.0417	-2.8271	-2.7979	-2.9542	-2.9125	-2.9292	271.610	151.980	186.984	130.611	56.429	69.753	328.540	7.036	-23.962	82.694	316.805	318.072	98.479	177.224	45.797	157.007	0.00071261	0.00036649	0.00013671	331.4	2.1499e-06	4.1765e-06	645.31	119.26	1.9734e-06	4.0204e-06	322.69	153.64	57.352	23.132	3.8824e-06	82.31	0.00088785	0.00092243	0.00025446	321.62	9.2132e-06	9.8394e-06	623.52	116.33	8.9795e-06	9.8545e-06	313.21	149.54	56.622	22.666	9.46e-06	80.652	70.259	56.972	53.882	-14.058	140.234	62.796	-13.824	-9.145	125.306	125.639	-10.377	-6.457	-5.690	-1.535	138.825	-2.973	-8191	255	
22876.838	1	1	0	0	0.11644	0.16717	0.073286	0.21699	0.22292	0.27844	0.18876	0.33607	0.19066	0.12694	0.015328	0.20395	0.040651	0.20544	0.21122	0.19243	-2.4896	-2.6417	-2.7896	-2.9021	-2.775	-2.8937	-2.8708	-2.6542	-3.0458	-2.9271	-3.0521	-2.8812	-2.6958	-2.9729	-3.0042	-2.8729	-9.237	319.459	329.241	12.054	325.170	273.852	326.150	-15.722	14.402	125.347	258.802	273.784	18.770	194.504	267.800	201.761	0.00067549	0.00037789	0.00013638	328.74	5.2863e-06	7.432e-06	644.83	118.55	2.8693e-06	5.2862e-06	320.7	152.36	56.818	22.654	5.137e-06	81.613	0.00085075	0.00089889	0.00025162	319.85	9.2075e-06	9.73e-06	621.95	115.54	9.0371e-06	9.6003e-06	311.61	148.62	56.116	22.425	9.0689e-06	80.189	73.550	103.744	69.037	-14.027	129.732	135.023	-13.479	-9.226	105.634	100.000	-9.921	-6.427	-5.754	-1.008	111.427	-3.043	-8191	255	
22876.955	1	1	0	0	0.21639	0.097779	0.14861	0.11866	0.1308	0.21863	0.14715	0.10893	0.17559	0.12522	0.076683	0.11059	0.29863	0.21239	0.12847	0.14039	-2.5271	-2.8458	-2.9396	-3.0417	-3.0042	-3.1229	-2.9708	-2.8104	-3.1271	-2.9354	-2.8812	-3.0271	-2.7458	-3.1625	-3.1292	-2.8792	178.183	10.709	230.364	247.837	46.480	209.954	157.103	152.325	53.906	327.873	273.224	238.500	88.366	264.509	210.337	134.675	0.00067831	0.00056751	0.00023687	330.12	7.0082e-06	6.237e-06	644.56	117.99	6.7548e-06	3.9717e-06	319.59	152.28	57.075	22.878	3.9953e-06	82.64	0.00085004	0.00086767	0.00024261	318.99	8.8794e-06	9.5975e-06	623.37	115.28	8.7109e-06	9.6585e-06	311.07	148.5	56.046	22.476	9.269e-06	80.564	69.882	94.293	57.968	-13.671	134.570	118.768	-13.948	-9.592	112.924	128.302	-10.344	-6.361	-5.670	-1.490	137.094	-2.804	-8191	255	
22877.053	1	1	0	0	0.089213	0.28651	0.17317	0.26791	0.21533	0.21492	0.22198	0.21989	0.20667	0.11941	0.18123	0.028656	0.39002	0.045947	0.14371	0.026098	-2.6167	-2.8167	-2.7896	-3.1063	-2.7458	-2.8083	-3.1292	-2.7875	-3.1458	-2.7729	-2.8792	-3.1229	-2.7833	-3.0125	-3.0833	-2.9	232.812	57.125	188.095	217.646	130.562	199.704	332.385	109.269	200.214	139.411	22.907	61.594	116.111	116.102	69.447	322.582	0.00071873	0.00029249	8.2451e-05	331.16	4.3242e-06	8.8399e-06	644.85	118.69	6.1487e-06	3.1183e-06	321.97	152.97	57.182	22.894	4.9049e-06	82.715	0.0008685	0.00090851	0.00024773	320.28	9.1427e-06	9.7874e-06	622.78	115.94	9.0798e-06	9.817e-06	312.59	148.91	56.33	22.533	9.3097e-06	80.961	69.878	43.351	29.058	-13.733	112.701	88.611	-13.626	-9.252	91.818	68.256	-10.208	-6.050	-6.044	-1.570	95.083	-2.981	-8191	255	
22877.148	1	1	0	0	0.086473	0.28418	0.11305	0.24603	0.053589	0.17181	0.14311	0.12444	0.25013	0.19484	0.17975	0.28293	0.10975	0.27067	0.10095	0.074308	-2.6521	-2.7583	-2.6729	-3.0792	-2.7104	-2.8542	-3.0438	-2.7479	-3.0333	-2.825	-2.7479	-3.1417	-2.7458	-2.7854	-2.9146	-2.8438	50.246	76.869	180.004	-10.751	311.073	166.874	322.652	105.887	104.893	-12.584	198.576	295.279	77.395	273.040	327.741	316.291	0.0006642	0.00047654	4.6927e-05	327.72	6.2893e-06	6.6004e-06	643.36	118.39	4.3798e-06	5.9604e-06	321.55	153.07	57.056	22.947	3.9694e-06	82.639	0.00087274	0.00088818	0.0002479	318.61	8.8886e-06	9.7151e-06	622.98	115.66	9.2019e-06	9.6061e-06	311.78	149.07	56.144	22.552	9.4496e-06	80.807	69.506	37.199	32.515	-14.190	104.760	95.999	-14.263	-9.519	82.060	102.110	-10.514	-6.775	-6.033	-1.531	71.559	-3.101	-8191	255	
22877.244	1	1	0	0	0.24034	0.1537	0.1873	0.044286	0.24848	0.26208	0.26785	0.10378	0.31277	0.14868	0.18997	0.058255	0.31741	0.13042	0.052332	0.2446	-2.3208	-2.9	-2.7625	-2.9625	-2.85	-2.9521	-3.1667	-2.7396	-2.9062	-3.0021	-2.7833	-3.1542	-2.8187	-2.8937	-2.9104	-2.8979	109.990	59.099	248.570	270.063	-15.877	79.252	299.924	289.503	242.658	18.885	18.673	60.786	42.968	232.312	262.867	256.735	0.00066663	0.00039834	0.00018916	327.5	5.9142e-06	3.8622e-06	643.74	117.5	5.1732e-06	6.7877e-06	320.58	153.29	57.416	23.097	4.1939e-06	83.158	0.00086068	0.00088649	0.00024816	318.35	9.2517e-06	9.9502e-06	620.22	115.35	9.3476e-06	1.015e-05	311.7	149.1	56.453	22.686	9.642e-06	81.238	67.293	34.647	64.586	-13.580	117.097	158.091	-13.736	-9.268	89.616	89.342	-10.020	-6.587	-6.297	-1.381	115.592	-3.039	-8191	255	
22877.340	1	1	0	0	0.22357	0.16003	0.1144	0.24868	0.15736	0.23187	0.41022	0.31619	0.15584	0.072665	0.10952	0.081695	0.21527	0.097592	0.091939	0.10417	-2.5167	-2.9708	-2.65	-2.8688	-2.8375	-2.9292	-3.0104	-2.8312	-2.9708	-3.1021	-2.6146	-3.1458	-2.7292	-2.8187	-3.1083	-2.9021	324.162	100.617	190.560	307.481	94.434	237.282	256.860	206.400	201.738	243.345	-3.712	182.008	313.502	299.558	140.361	254.005	0.00078286	0.00070478	0.00012422	329.39	1.0172e-06	4.5598e-06	641.32	118.79	3.4673e-06	4.6272e-06	320.24	152.65	57.457	23.171	2.8547e-06	82.894	0.00088857	0.00091233	0.00026138	318.7	9.1869e-06	9.9266e-06	621.59	115.52	9.4466e-06	9.8386e-06	312.37	149.21	56.506	22.649	9.6941e-06	81.069	72.293	52.439	54.127	-13.758	94.678	98.792	-13.855	-9.618	113.224	142.325	-9.885	-6.524	-5.505	-1.433	127.276	-3.045	-8191	255	
22877.436	1	1	0	0	0.18209	0.16958	0.21663	0.17892	0.11291	0.12786	0.17465	0.18718	0.14562	0.14974	0.23922	0.14132	0.38023	0.067667	0.25947	0.017655	-2.5167	-3.0167	-2.7812	-2.9229	-3.0042	-2.7229	-3.0021	-2.9208	-2.9188	-3	-2.7771	-2.9938	-2.8646	-2.6042	-2.7958	-2.9521	28.656	48.392	129.949	73.614	160.946	246.739	117.433	252.806	55.026	75.470	258.580	94.805	-5.623	97.231	302.578	69.177	0.00067053	0.00068907	3.1315e-05	331.13	8.6413e-06	2.9818e-06	643.84	118.56	6.8346e-06	5.487e-06	323.93	153.46	57.206	22.972	3.8473e-06	82.65	0.00089571	0.000904	0.00026007	319.51	9.2662e-06	1.0008e-05	622.23	115.53	9.3432e-06	9.7569e-06	313.14	149.3	56.251	22.476	9.4949e-06	80.965	72.541	90.901	72.618	-13.482	115.835	178.414	-13.829	-8.992	94.157	130.845	-9.987	-6.580	-5.379	-1.232	85.204	-2.975	-8191	255	
22877.557	1	1	0	0	0.017719	0.30049	0.095594	0.10013	0.10099	0.27816	0.16439	0.16907	0.23086	0.12127	0.34492	0.32854	0.20288	0.057224	0.15456	0.1396	-2.325	-2.7854	-2.6729	-2.7146	-2.9333	-2.9354	-3.2167	-2.7938	-2.5625	-3.2104	-2.8917	-3.0625	-2.9417	-2.8063	-2.8708	-2.9521	90.788	-4.658	71.818	34.837	189.053	83.132	318.091	286.360	329.352	198.056	332.195	331.038	60.388	283.119	133.732	204.338	0.00068862	0.00066988	0.00012709	330.95	2.8871e-06	2.9512e-06	647.07	117.91	4.9504e-06	5.9627e-06	321.78	152.65	57.036	22.84	5.9754e-06	82.061	0.00089364	0.00090652	0.00024888	320.77	8.9701e-06	1.0164e-05	625.16	115.46	9.1618e-06	9.966e-06	312.07	148.75	56.076	22.352	9.7466e-06	80.155	65.930	51.202	65.999	-14.232	97.392	132.601	-13.709	-9.174	109.270	168.100	-10.227	-6.423	-6.219	-1.365	115.659	-3.195	-8191	255	
22877.652	1	1	0	0	0.063535	0.11001	0.063271	0.13089	0.26105	0.27196	0.15025	0.14155	0.1529	0.10226	0.099557	0.32567	0.21492	0.099111	0.21822	0.12289	-2.275	-3.0062	-2.7771	-2.8646	-2.9042	-2.6792	-3.0292	-2.7458	-2.7396	-3.1292	-2.7896	-2.6979	-2.9833	-2.5771	-2.9313	-2.9458	77.358	117.915	255.738	232.054	223.580	89.010	262.868	278.997	122.025	21.656	233.784	291.302	187.413	-21.755	7.404	188.871	0.00071163	0.00044355	0.00012493	328.34	5.2708e-06	3.8104e-06	645.51	118.68	4.6384e-06	5.0896e-06	321.51	152.55	56.941	22.623	7.1882e-06	81.678	0.00087629	0.00086112	0.00025618	318.62	8.9539e-06	9.811e-06	621.49	115.32	9.2477e-06	9.7954e-06	311.47	148.58	56.021	22.24	9.5139e-06	79.893	73.656	17.271	58.782	-14.232	112.479	112.499	-14.014	-9.376	108.303	134.820	-10.249	-6.910	-6.096	-1.604	97.318	-2.819	-8191	255	
22877.748	1	1	0	0	0.33039	0.034893	0.18664	0.16271	0.13689	0.20131	0.16561	0.14747	0.13816	0.21603	0.26485	0.14021	0.036075	0.12793	0.23091	0.1672	-2.3	-2.9562	-2.7396	-2.8917	-3.0042	-2.625	-3.0187	-2.8021	-2.6021	-2.9875	-2.825	-2.775	-3.1729	-2.8187	-2.9062	-3.0333	69.148	76.501	164.377	114.881	292.589	102.132	203.829	73.355	85.275	177.463	311.616	-17.151	150.618	122.813	92.883	245.494	0.00069719	0.00028839	0.00012973	331.05	4.3987e-06	5.0944e-06	649.11	119.17	2.0684e-06	3.875e-06	321.52	152.59	57.096	22.686	7.9827e-06	81.93	0.00085892	0.00089962	0.00024845	319.67	9.0735e-06	9.8977e-06	624.22	115.79	8.908e-06	9.8785e-06	312.09	148.78	56.297	22.242	9.4822e-06	80.134	69.302	58.217	53.938	-13.666	140.845	147.601	-13.483	-9.500	5.675	96.186	-10.543	-6.447	-5.409	-1.223	122.546	-2.969	-8191	255	
22877.846	1	1	0	0	0.18489	0.27859	0.15697	0.43822	0.21248	0.16265	0.26974	0.31449	0.065996	0.068934	0.2047	0.12135	0.11836	0.10922	0.15357	0.22156	-2.2479	-3.0312	-2.9625	-2.8021	-2.8875	-2.7479	-2.9125	-2.8083	-2.6833	-3.0812	-2.9729	-2.7062	-3.0958	-2.7938	-2.8646	-3.0646	13.849	314.401	38.981	185.400	170.430	115.164	217.529	14.012	146.583	233.665	255.052	227.095	245.992	96.744	329.965	245.841	0.00068487	0.00068748	0.00012773	332.62	4.0431e-06	4.5176e-06	650.6	118.38	6.1576e-06	4.4022e-06	323.66	153.61	56.869	22.774	6.9555e-06	82.228	0.00087691	0.00091038	0.00025244	321.87	9.1251e-06	9.9541e-06	627.83	115.72	9.4326e-06	9.9439e-06	313.6	149.44	56.328	22.342	9.8589e-06	80.532	78.799	98.838	78.179	-13.863	111.763	111.968	-13.628	-9.357	104.190	116.337	-10.274	-6.275	-5.694	-1.138	106.690	-3.070	-8191	255	
#DATA ENDS
