BOXY.EXE: ISS Imagent and Oximeter Data Acquisition Program Version 0.80
Ascii Record File

#ACQ INFORMATION
2  Detector Channels 
16  External MUX Channels 
1  Auxiliary Channels 
5000  Waveform (CCF) Frequency (Hz)
1  Waveforms Skipped 
30  Waveforms Averaged 
1  Cycles Averaged 
16  Acquisitions per Waveform 
10.0806  Updata Rate (Hz) 

#FILE INFORMATION
TRUE -- External MUX Channel results are PARSED.
FALSE -- AC DC and Phase are NOT grouped.
TRUE -- Companion Program Settings File CREATED.
FALSE -- AC data not excluded
FALSE -- DC data not excluded
FALSE -- Phase data not excluded
FALSE -- Auxillary Chn. data not excluded
Tab delimiters

#CALIBRATION STATE
TRUE -- Waveform Calibration Values APPLIED.


#AUX CALIBRATION VALUES
Val Type	aux-1	

Term	1.0000e+00	
Factor	0.0000e+00	


#WF CALIBRATION VALUES
A = Detector Channel
Val Type	A-AC1	A-AC2	A-AC3	A-AC4	A-AC5	A-AC6	A-AC7	A-AC8	A-AC9	A-AC10	A-AC11	A-AC12	A-AC13	A-AC14	A-AC15	A-AC16	A-DC1	A-DC2	A-DC3	A-DC4	A-DC5	A-DC6	A-DC7	A-DC8	A-DC9	A-DC10	A-DC11	A-DC12	A-DC13	A-DC14	A-DC15	A-DC16	A-Ph1	A-Ph2	A-Ph3	A-Ph4	A-Ph5	A-Ph6	A-Ph7	A-Ph8	A-Ph9	A-Ph10	A-Ph11	A-Ph12	A-Ph13	A-Ph14	A-Ph15	A-Ph16	

Term	0.00000e+00	0.00000e+00	0.00000e+00	0.00000e+00	0.00000e+00	0.00000e+00	0.00000e+00	0.00000e+00	0.00000e+00	0.00000e+00	0.00000e+00	0.00000e+00	0.00000e+00	0.00000e+00	0.00000e+00	0.00000e+00	0.00000e+00	0.00000e+00	0.00000e+00	0.00000e+00	0.00000e+00	0.00000e+00	0.00000e+00	0.00000e+00	0.00000e+00	0.00000e+00	0.00000e+00	0.00000e+00	0.00000e+00	0.00000e+00	0.00000e+00	0.00000e+00	0.00000e+00	0.00000e+00	0.00000e+00	0.00000e+00	0.00000e+00	0.00000e+00	0.00000e+00	0.00000e+00	0.00000e+00	0.00000e+00	0.00000e+00	0.00000e+00	0.00000e+00	0.00000e+00	0.00000e+00	0.00000e+00	
Factor	1.00000e+00	1.00000e+00	1.00000e+00	1.00000e+00	1.00000e+00	1.00000e+00	1.00000e+00	1.00000e+00	1.00000e+00	1.00000e+00	1.00000e+00	1.00000e+00	1.00000e+00	1.00000e+00	1.00000e+00	1.00000e+00	1.00000e+00	1.00000e+00	1.00000e+00	1.00000e+00	1.00000e+00	1.00000e+00	1.00000e+00	1.00000e+00	1.00000e+00	1.00000e+00	1.00000e+00	1.00000e+00	1.00000e+00	1.00000e+00	1.00000e+00	1.00000e+00	X	X	X	X	X	X	X	X	X	X	X	X	X	X	X	X	

B = Detector Channel
Val Type	B-AC1	B-AC2	B-AC3	B-AC4	B-AC5	B-AC6	B-AC7	B-AC8	B-AC9	B-AC10	B-AC11	B-AC12	B-AC13	B-AC14	B-AC15	B-AC16	B-DC1	B-DC2	B-DC3	B-DC4	B-DC5	B-DC6	B-DC7	B-DC8	B-DC9	B-DC10	B-DC11	B-DC12	B-DC13	B-DC14	B-DC15	B-DC16	B-Ph1	B-Ph2	B-Ph3	B-Ph4	B-Ph5	B-Ph6	B-Ph7	B-Ph8	B-Ph9	B-Ph10	B-Ph11	B-Ph12	B-Ph13	B-Ph14	B-Ph15	B-Ph16	

Term	0.00000e+00	0.00000e+00	0.00000e+00	0.00000e+00	0.00000e+00	0.00000e+00	0.00000e+00	0.00000e+00	0.00000e+00	0.00000e+00	0.00000e+00	0.00000e+00	0.00000e+00	0.00000e+00	0.00000e+00	0.00000e+00	0.00000e+00	0.00000e+00	0.00000e+00	0.00000e+00	0.00000e+00	0.00000e+00	0.00000e+00	0.00000e+00	0.00000e+00	0.00000e+00	0.00000e+00	0.00000e+00	0.00000e+00	0.00000e+00	0.00000e+00	0.00000e+00	-5.24022e+01	-1.64169e+02	-9.76990e+01	-1.80969e+02	-5.66720e+01	-9.77327e+01	-1.56073e+02	-1.62015e+02	-2.91745e+01	-6.44927e+01	-1.73276e+02	-1.70265e+02	-1.82009e+02	-1.76771e+02	-6.96488e+01	-1.50163e+02	
Factor	1.86859e-05	9.78118e-05	2.79070e-05	1.67683e-01	9.76611e-07	1.10387e-06	1.73110e-01	5.09591e-02	1.07639e-06	1.05178e-06	1.04153e-01	2.91335e-02	3.50756e-02	9.31146e-03	9.58455e-07	1.36155e-02	6.11716e-07	6.27859e-07	1.75053e-07	7.79073e-02	6.84918e-09	6.89061e-09	7.55109e-02	2.36384e-02	6.84905e-09	6.88618e-09	4.50172e-02	1.28399e-02	1.55609e-02	4.22386e-03	6.88738e-09	5.88561e-03	X	X	X	X	X	X	X	X	X	X	X	X	X	X	X	X	



#DISTANCE SETTINGS
A = Detector Channel
A-1	A-2	A-3	A-4	A-5	A-6	A-7	A-8	A-9	A-10	A-11	A-12	A-13	A-14	A-15	A-16	

2.5000e+00	3.0000e+00	2.5000e+00	3.0000e+00	2.0000e+00	3.0000e+00	1.5000e+00	3.0000e+00	3.0000e+00	3.0000e+00	3.0000e+00	3.0000e+00	3.0000e+00	3.0000e+00	1.5000e+00	3.0000e+00	

B = Detector Channel
B-1	B-2	B-3	B-4	B-5	B-6	B-7	B-8	B-9	B-10	B-11	B-12	B-13	B-14	B-15	B-16	

1.0000e+01	1.0000e+01	1.0000e+01	1.4400e+00	1.0000e+01	1.0000e+01	1.5100e+00	1.9400e+00	1.0000e+01	1.0000e+01	1.9900e+00	2.4900e+00	2.4100e+00	2.9000e+00	1.0000e+01	2.9800e+00	




#DATA BEGINS
time	group	step	mark	flag	A-AC1	A-AC2	A-AC3	A-AC4	A-AC5	A-AC6	A-AC7	A-AC8	A-AC9	A-AC10	A-AC11	A-AC12	A-AC13	A-AC14	A-AC15	A-AC16	A-DC1	A-DC2	A-DC3	A-DC4	A-DC5	A-DC6	A-DC7	A-DC8	A-DC9	A-DC10	A-DC11	A-DC12	A-DC13	A-DC14	A-DC15	A-DC16	A-Ph1	A-Ph2	A-Ph3	A-Ph4	A-Ph5	A-Ph6	A-Ph7	A-Ph8	A-Ph9	A-Ph10	A-Ph11	A-Ph12	A-Ph13	A-Ph14	A-Ph15	A-Ph16	B-AC1	B-AC2	B-AC3	B-AC4	B-AC5	B-AC6	B-AC7	B-AC8	B-AC9	B-AC10	B-AC11	B-AC12	B-AC13	B-AC14	B-AC15	B-AC16	B-DC1	B-DC2	B-DC3	B-DC4	B-DC5	B-DC6	B-DC7	B-DC8	B-DC9	B-DC10	B-DC11	B-DC12	B-DC13	B-DC14	B-DC15	B-DC16	B-Ph1	B-Ph2	B-Ph3	B-Ph4	B-Ph5	B-Ph6	B-Ph7	B-Ph8	B-Ph9	B-Ph10	B-Ph11	B-Ph12	B-Ph13	B-Ph14	B-Ph15	B-Ph16	aux-1	digaux	

2247.092	1	1	0	256	0.23485	0.18049	0.28729	0.23439	0.19884	0.0072591	0.15128	0.2938	0.23289	0.28646	0.18327	0.11853	0.2913	0.24795	0.16397	0.064995	-2.4771	-3.25	-2.8021	-3.0667	-3.2562	-3.0375	-3.1271	-3.2875	-2.9583	-3.3708	-2.8729	-3	-3.2792	-2.875	-3.0625	-3.1833	135.569	78.572	14.009	172.830	254.147	188.594	268.221	274.345	100.280	75.371	5.215	190.101	280.093	41.495	194.981	11.068	0.00013548	0.00015032	5.1307e-05	352.31	1.3791e-06	2.6697e-06	486.72	127.35	1.8687e-06	1.9085e-06	205.03	81.477	62.397	31.554	1.803e-06	42.102	4.0711e-05	3.1846e-05	1.0537e-05	336.92	3.8193e-07	3.5563e-07	461.17	121.68	3.8927e-07	3.5183e-07	187.05	76.313	57.149	29.575	4.3193e-07	38.669	246.919	-16.078	44.870	-59.659	100.195	66.988	-61.195	-52.044	150.217	61.264	-56.207	-50.573	-46.740	-41.660	124.384	-46.291	-8191	255	
2247.188	1	1	0	0	0.088047	0.20756	0.12933	0.35407	0.19645	0.16164	0.049131	0.11445	0.15383	0.092445	0.076744	0.28817	0.070782	0.15747	0.035355	0.18676	-2.55	-3.1292	-3.0563	-2.7833	-3.2479	-2.925	-3.2687	-3.2792	-2.8438	-3.0625	-3.15	-2.8375	-3.3187	-2.9708	-3.075	-3.1208	78.808	88.786	83.576	224.683	42.349	73.378	101.594	133.901	69.198	186.703	49.957	236.531	192.057	287.219	76.866	83.049	0.00014653	0.00018573	2.5222e-05	345.14	1.9688e-06	1.3529e-06	474.65	121.85	1.8977e-06	1.1964e-06	198.63	79.618	60.359	31.713	3.3701e-07	42.036	3.7993e-05	3.253e-05	1.0713e-05	328.25	3.581e-07	3.6595e-07	449.29	116.64	3.5528e-07	3.6742e-07	180.93	74.234	55.402	29.627	4.1771e-07	38.371	247.584	-24.624	61.898	-59.509	88.290	-1.619	-61.207	-52.217	121.634	28.443	-56.652	-50.827	-47.043	-41.806	94.393	-46.374	-8191	255	
2247.284	1	1	0	0	0.018838	0.17163	0.11955	0.14233	0.30545	0.14814	0.2944	0.18719	0.11278	0.15842	0.10222	0.083645	0.090478	0.11758	0.076567	0.25408	-2.4083	-3.2646	-3.0354	-2.9646	-3.2292	-3.025	-2.9917	-3.2687	-2.7667	-3.1312	-3.0729	-2.8875	-3.1521	-2.9375	-3.1125	-3.2896	-31.029	-49.759	72.591	-5.858	204.005	284.189	242.413	156.930	253.770	74.322	217.879	268.496	13.580	271.753	-29.787	212.263	0.00012109	0.00016182	1.5913e-05	338.71	3.6616e-07	1.346e-06	467.74	120.39	8.512e-07	2.7888e-06	196.88	79.281	60.572	31.924	2.1997e-06	42.409	3.7603e-05	3.6067e-05	1.0415e-05	322.36	3.4459e-07	3.9166e-07	442.3	114.92	3.4875e-07	3.9033e-07	180.41	74.131	55.409	29.922	4.0043e-07	38.805	241.595	-32.571	34.798	-59.820	62.253	107.087	-61.451	-52.324	-21.886	114.404	-56.019	-50.460	-46.862	-41.462	41.391	-46.669	-8191	255	
2247.403	1	1	0	0	0.14323	0.017711	0.19289	0.14426	0.049707	0.10198	0.15674	0.15036	0.16153	0.18321	0.10152	0.18196	0.14831	0.047445	0.15407	0.26679	-2.4271	-3.175	-3.1021	-2.8667	-3.4292	-2.9958	-3.0938	-3.2979	-2.8229	-3.2542	-3.3167	-2.8646	-3.2542	-2.9354	-2.9167	-3.3208	-37.138	-59.824	182.635	254.586	246.256	198.267	175.354	69.428	136.740	182.143	63.969	283.491	-61.501	4.477	-52.819	214.540	0.00014697	0.00023852	6.2736e-05	341.13	2.1457e-06	1.0801e-06	468.62	120.15	2.2613e-06	9.2377e-07	198.5	80.608	61.342	32.187	1.4893e-06	42.655	3.7371e-05	3.7409e-05	9.9262e-06	324.13	3.4548e-07	4.0372e-07	444.34	115.3	3.6471e-07	4.124e-07	181.41	74.906	55.956	30.197	3.9232e-07	39.093	253.117	-24.194	59.945	-59.666	88.332	95.844	-61.239	-52.108	123.833	64.008	-55.986	-50.592	-46.601	-41.797	97.577	-46.540	-8191	255	
2247.475	1	1	0	0	0.17771	0.16288	0.062313	0.17237	0.10866	0.16494	0.15479	0.19665	0.071754	0.30623	0.10255	0.11945	0.15104	0.15292	0.11651	0.23782	-2.4292	-2.9625	-3.225	-2.7521	-3.1	-2.9875	-2.9271	-3.4229	-2.8354	-3.1271	-3.0833	-2.7875	-3.2687	-3.1625	-2.8479	-3.5438	228.493	-23.300	244.065	98.072	256.515	-5.613	219.111	-69.673	162.474	238.027	266.452	44.490	204.673	244.447	47.522	215.729	0.00014333	0.00019979	3.7771e-05	343.22	5.3913e-07	1.2215e-06	472.4	121.63	8.2049e-07	1.6768e-06	199.37	80.628	61.556	32.305	7.3327e-07	43.009	3.8648e-05	3.7819e-05	9.4652e-06	324.71	3.6653e-07	3.912e-07	447.34	115.57	3.719e-07	3.9452e-07	182.5	75.328	56.488	30.31	3.869e-07	39.309	239.335	-48.456	27.540	-59.661	195.646	13.174	-61.524	-52.094	68.559	58.800	-56.209	-50.812	-46.563	-41.654	107.533	-46.261	-8191	255	
2247.573	1	1	0	0	0.26964	0.039543	0.20444	0.21368	0.093477	0.14482	0.11018	0.04356	0.15842	0.14226	0.16061	0.22402	0.15793	0.29315	0.24309	0.23345	-2.5375	-2.9583	-3.1813	-2.8125	-3.1646	-3.0333	-2.7875	-3.25	-3.0771	-3.0375	-3.1271	-2.9042	-3.1958	-3.1667	-2.8625	-3.4292	238.891	287.865	219.683	253.901	20.672	117.279	190.993	67.146	76.732	218.556	-35.209	-61.988	-48.993	-60.104	25.784	258.408	0.00013475	0.00011425	6.1564e-05	343.02	9.7536e-07	6.9143e-07	472.42	123.35	2.0917e-06	1.6301e-06	201.52	81.107	62.14	32.249	9.1966e-07	42.743	4.1163e-05	3.5677e-05	9.273e-06	325.08	3.8923e-07	3.8504e-07	448.38	117.58	3.8863e-07	3.6749e-07	183.8	75.582	56.972	30.175	3.6477e-07	38.948	253.911	11.679	65.262	-59.294	108.587	45.915	-61.141	-52.017	166.335	51.286	-56.319	-50.766	-47.107	-41.479	137.423	-46.312	-8191	255	
2247.692	1	1	0	0	0.35911	0.17991	0.21257	0.1049	0.11465	0.036971	0.46198	0.1438	0.14629	0.072201	0.14927	0.17274	0.22699	0.13598	0.22009	0.069732	-2.6562	-3.0021	-3.2271	-2.9021	-3.1125	-3.3458	-2.8396	-3.2917	-3.1333	-2.9854	-3.3375	-2.8125	-3.3417	-3.2271	-2.7	-3.3375	216.640	74.210	245.550	197.631	79.954	-60.753	146.010	136.335	254.428	162.912	204.484	159.151	244.025	273.859	204.293	94.244	0.00013835	0.00014675	6.7893e-05	344.58	1.909e-06	3.1194e-06	475.96	127.01	2.0023e-06	2.4452e-06	204.92	82.349	63.806	31.903	1.3768e-06	42.268	4.1393e-05	3.3696e-05	8.4076e-06	327.24	3.9697e-07	3.596e-07	450.63	120.92	3.9451e-07	3.6299e-07	186.95	76.535	58.364	29.947	3.3791e-07	38.705	238.881	-13.316	16.965	-59.455	57.733	70.093	-61.344	-52.009	115.906	127.573	-56.099	-50.672	-46.851	-41.751	87.043	-46.194	-8191	255	
2247.788	1	1	0	0	0.12377	0.42515	0.2804	0.26443	0.10252	0.20578	0.080439	0.33702	0.36341	0.17501	0.2613	0.095623	0.081925	0.24973	0.16384	0.30981	-2.625	-2.9833	-3.3042	-2.9375	-3.2562	-3.2604	-2.8292	-3.2354	-3.0521	-2.9562	-3.3292	-2.9667	-3.1146	-3.1917	-2.8854	-3.4583	13.529	248.086	107.924	-33.245	148.596	-57.090	129.286	229.215	206.819	-27.004	185.044	135.474	280.076	-51.165	35.849	203.094	0.00012343	0.00030629	2.7932e-05	354.22	1.2075e-06	1.8474e-06	492.11	135.78	1.2247e-06	4.8214e-07	212.37	84.877	66.617	32.127	1.1497e-06	42.788	4.0261e-05	3.2354e-05	8.0524e-06	336.24	3.8137e-07	3.5135e-07	464.23	129.33	3.8523e-07	3.4566e-07	195.1	79.347	61.041	30.055	3.3181e-07	39.154	251.000	-68.951	1.046	-59.373	94.810	67.851	-60.983	-52.058	126.967	32.856	-55.950	-50.811	-46.749	-41.842	77.631	-46.239	-8191	255	
2247.884	1	1	0	0	0.24167	0.21475	0.072941	0.10719	0.21005	0.10232	0.16631	0.10928	0.10931	0.23175	0.20364	0.35096	0.3396	0.075928	0.055752	0.22038	-2.7	-2.95	-3.2625	-2.9208	-2.9875	-3.3604	-2.8958	-3.2188	-3.1021	-3.0187	-3.3083	-3.0896	-2.9813	-3.2	-2.9542	-3.2917	44.630	-21.171	267.771	-44.993	76.029	55.418	148.630	-29.051	131.680	137.445	261.498	266.712	216.461	-29.573	118.432	214.392	0.00014964	0.00023388	9.6369e-05	371.88	1.2388e-06	2.8548e-06	522.81	151.03	3.2556e-06	3.0502e-06	230.36	90.443	71.425	32.534	1.7885e-06	44.004	3.8335e-05	3.0479e-05	7.9798e-06	353.03	3.6686e-07	3.3082e-07	494.9	144	3.5605e-07	3.3104e-07	209.77	84.633	65.274	30.502	3.3257e-07	40.26	247.143	16.848	25.798	-59.528	130.850	13.490	-61.232	-52.805	136.564	87.765	-56.281	-50.634	-47.004	-41.932	83.937	-46.036	-8191	255	
2247.980	1	1	0	0	0.01521	0.1587	0.18865	0.37742	0.092553	0.11145	0.31738	0.21846	0.10851	0.14966	0.055864	0.066133	0.36121	0.13845	0.06396	0.22819	-2.7708	-2.9208	-3.2375	-3.0354	-2.8958	-3.3979	-2.9417	-3.0563	-3.2729	-2.7458	-3.5896	-3.3583	-2.8375	-3.4479	-2.95	-3.1292	211.063	157.011	10.453	189.159	192.567	-64.903	-56.172	288.616	124.664	52.322	46.831	113.542	-68.484	1.770	114.040	-12.374	0.00012926	0.00022784	4.7961e-05	389.83	1.8736e-06	2.0924e-06	553.99	163.43	1.1252e-06	7.3486e-07	245.88	94.672	74.755	33.553	1.2787e-06	45.738	3.6605e-05	2.919e-05	8.1823e-06	370.26	3.3619e-07	3.0861e-07	523.74	155.92	3.3258e-07	2.9916e-07	224.38	88.628	68.418	31.485	3.4405e-07	41.796	247.231	-2.222	56.210	-59.567	115.975	80.038	-61.331	-52.783	138.868	58.362	-56.298	-50.995	-47.522	-41.944	107.027	-46.514	-8191	255	
2248.076	1	1	0	0	0.13007	0.041689	0.21761	0.14812	0.076807	0.20196	0.12657	0.34758	0.13991	0.13004	0.10887	0.44738	0.071858	0.092393	0.10979	0.16623	-3.075	-2.7479	-3.1208	-3.1167	-2.7229	-3.5896	-2.8458	-3.1521	-3.2646	-2.8458	-3.175	-3.2458	-2.5875	-3.2438	-3.2313	-2.925	-55.538	-18.544	243.876	276.310	274.873	179.895	17.050	132.782	30.354	233.069	123.798	272.755	57.107	197.215	45.439	-49.789	0.00017884	0.00027021	5.7851e-05	413.87	2.1268e-06	5.3062e-07	588.53	174.32	2.2376e-06	2.5908e-06	257.18	97.346	76.729	34.475	1.8834e-06	46.694	3.5509e-05	2.8086e-05	8.4598e-06	393.03	3.2937e-07	2.9091e-07	555.41	165.9	3.2149e-07	2.9793e-07	235.05	90.889	70.131	32.256	3.6054e-07	42.738	248.838	-20.640	22.447	-59.592	115.241	73.059	-61.475	-52.927	106.303	94.128	-56.561	-51.335	-47.541	-42.131	84.525	-46.395	-8191	255	
2248.173	1	1	0	0	0.22014	0.16424	0.23129	0.16071	0.14598	0.076646	0.11537	0.2424	0.31201	0.1038	0.059331	0.14741	0.36336	0.15549	0.26346	0.14885	-3.0729	-2.7792	-3.1771	-3.2188	-2.8146	-3.3438	-3.0104	-3.0417	-3.2771	-2.9625	-3.3125	-3.3146	-2.9125	-3.3146	-3.025	-3.1104	-39.509	228.292	-58.714	-66.737	125.688	257.253	53.223	163.889	71.717	109.342	154.490	15.883	38.157	182.885	-28.497	260.594	0.00016863	0.00025079	9.4351e-05	423.45	2.3937e-06	2.862e-06	595.69	177.11	1.5583e-06	2.0721e-06	261.69	98.815	77.566	34.698	1.7119e-06	46.866	3.4728e-05	2.744e-05	9.0794e-06	402.87	3.0719e-07	2.948e-07	563.98	169.05	3.0865e-07	3.0971e-07	238.07	92.042	70.634	32.424	3.5626e-07	42.946	252.167	13.886	39.142	-59.560	69.072	83.557	-61.216	-53.059	78.191	69.209	-56.734	-51.045	-47.683	-41.812	106.946	-46.334	-8191	255	
2248.293	1	1	0	0	0.10478	0.032222	0.079988	0.13392	0.15636	0.040129	0.070086	0.10035	0.17082	0.065495	0.082699	0.072048	0.17813	0.41598	0.21481	0.32581	-2.8708	-2.8625	-3.1958	-3.3854	-2.65	-3.3625	-3.2292	-2.8563	-3.4271	-3.0667	-3.1229	-3.3896	-2.7521	-3.3896	-3.0958	-3.1125	261.918	-2.890	-42.602	114.850	46.238	206.706	176.829	246.803	282.870	55.373	172.854	150.237	191.435	269.369	245.693	261.282	0.00015197	0.00032528	3.3276e-05	418.6	2.5931e-06	1.2778e-06	592.34	172.9	1.2786e-06	4.4228e-07	256.87	96.722	76.149	34.561	2.0071e-06	46.957	3.277e-05	2.95e-05	8.8923e-06	398.74	3.0788e-07	3.228e-07	559.17	164.58	2.9669e-07	3.325e-07	233.49	90.249	69.145	32.382	3.5146e-07	42.928	245.880	-21.349	53.217	-59.931	102.808	64.712	-61.324	-53.151	78.993	145.537	-56.341	-50.958	-47.443	-41.935	71.911	-46.178	-8191	255	
2248.388	1	1	0	0	0.070476	0.096675	0.064493	0.048879	0.13082	0.17246	0.080774	0.22766	0.21743	0.1993	0.097523	0.10487	0.20154	0.17325	0.12695	0.053593	-2.8708	-2.9729	-2.9	-3.1271	-3.1146	-3.3	-3.0729	-2.8312	-3.3229	-2.8688	-2.9042	-3.2771	-2.9292	-3.3125	-3.1583	-2.9	-32.364	103.607	110.754	177.009	-51.683	113.362	215.429	229.839	10.039	-18.562	139.217	80.966	-36.603	3.836	142.876	-19.097	0.00015056	0.00023399	7.6419e-05	419.15	2.0153e-06	1.2632e-06	588.4	172.03	9.0742e-07	2.0664e-06	253.96	95.835	74.495	34.292	1.3705e-06	46.389	3.2687e-05	3.1325e-05	8.6556e-06	397.1	3.0142e-07	3.4299e-07	555.97	163.29	3.0865e-07	3.5033e-07	231.69	89.359	68.161	32.125	3.4249e-07	42.392	241.550	7.175	62.075	-59.770	92.978	67.138	-61.481	-52.760	184.959	92.485	-56.471	-50.786	-47.404	-41.874	96.513	-46.376	-8191	255	
2248.484	1	1	0	0	0.085673	0.28599	0.078734	0.22059	0.42657	0.1966	0.19683	0.072233	0.17085	0.21505	0.22803	0.21105	0.016719	0.18814	0.24599	0.16897	-2.8854	-2.9021	-2.8792	-3.3042	-2.8458	-3.0958	-3.3563	-2.9333	-3.3187	-3.1167	-3.0333	-3.2958	-3.1417	-3.0021	-3.1854	-2.9396	31.584	258.432	155.524	201.124	288.158	220.084	203.269	248.387	5.074	55.195	284.022	187.913	176.028	138.989	268.522	-42.732	0.00015903	0.00025357	2.3865e-05	415.39	2.1431e-06	1.9741e-06	584.06	170.31	1.9433e-06	7.8765e-07	253.28	95.213	74.651	34.066	1.8566e-06	46.26	3.4031e-05	3.2884e-05	8.4054e-06	391.6	3.0917e-07	3.551e-07	551.32	161.75	3.2115e-07	3.5454e-07	230.37	88.662	68.286	31.985	3.2016e-07	42.156	245.976	-57.088	69.793	-59.440	60.575	107.828	-61.190	-52.912	108.308	42.494	-56.305	-51.207	-47.749	-41.727	109.302	-46.278	-8191	255	
2248.580	1	1	0	0	0.057133	0.29791	0.2805	0.089294	0.071126	0.15294	0.30203	0.26811	0.11314	0.13697	0.030515	0.2197	0.022385	0.20009	0.28039	0.10784	-2.8063	-3.0979	-2.8917	-3.3979	-2.95	-3.1958	-3.0917	-2.8396	-3.3896	-3.2313	-2.9125	-3.5062	-3.0833	-3.0396	-3.4646	-2.9229	163.607	-56.251	23.737	242.790	149.776	150.661	240.698	276.381	-67.829	170.850	151.736	-54.189	230.570	266.693	204.237	194.678	0.00013502	0.0001927	6.8555e-05	415.15	2.4132e-06	2.4991e-06	582.37	169.61	2.468e-06	2.59e-06	251.13	94.828	74.107	33.995	1.8786e-06	46.158	3.6182e-05	3.1784e-05	8.2019e-06	393.24	3.3639e-07	3.5102e-07	550.46	160.89	3.4656e-07	3.3813e-07	229.11	88.687	67.829	31.924	3.2259e-07	42.156	240.344	-16.825	43.943	-59.747	135.478	36.928	-61.013	-52.926	118.853	90.289	-56.652	-50.861	-47.487	-42.140	99.286	-46.348	-8191	255	
2248.701	1	1	0	0	0.076614	0.13696	0.19398	0.098808	0.045533	0.047087	0.2481	0.20826	0.24157	0.12823	0.13516	0.10431	0.22396	0.17339	0.24659	0.10418	-2.7833	-3.1437	-2.7271	-3.3979	-3.1	-2.9292	-3.3417	-2.8333	-3.1646	-3.2958	-2.7917	-3.475	-3.0979	-3.0958	-3.4417	-2.9	-30.308	98.141	-42.916	190.463	183.292	17.465	199.697	230.145	25.206	199.692	285.770	11.028	165.674	251.580	19.042	224.431	0.0001514	0.00020925	6.0675e-05	415.43	1.1053e-06	3.4462e-06	584.27	170.45	1.2013e-06	2.9112e-06	252.41	95.568	74.892	34.001	1.5938e-06	46.26	3.7434e-05	3.0332e-05	7.9481e-06	392.89	3.5188e-07	3.2943e-07	551.66	161.48	3.5624e-07	3.3893e-07	230	89.152	68.449	31.883	3.1101e-07	42.197	244.529	-44.225	19.840	-59.496	108.986	46.930	-61.344	-52.759	71.700	107.130	-56.200	-50.726	-47.267	-42.082	116.922	-46.097	-8191	255	
2248.772	1	1	0	0	0.23593	0.068725	0.16163	0.05186	0.19255	0.085772	0.32411	0.45379	0.12542	0.24965	0.20597	0.18719	0.21246	0.2279	0.26143	0.2855	-2.8896	-3.2479	-2.9792	-3.2979	-3.1479	-2.8396	-3.4021	-2.8875	-3.225	-3.2771	-2.8229	-3.2167	-3.2375	-2.9917	-3.4708	-2.9062	14.626	107.138	183.686	28.472	13.437	267.905	241.340	275.864	-1.409	6.100	92.710	118.286	-18.934	-63.212	-53.555	285.077	0.00013404	0.00017173	7.1518e-05	412.11	2.2598e-06	2.129e-06	578.64	169.02	4.3167e-07	2.7696e-06	251.92	95.42	73.993	33.806	1.1446e-06	45.86	3.844e-05	2.9715e-05	7.5484e-06	391.82	3.5656e-07	3.232e-07	548.6	160.68	3.5808e-07	3.1438e-07	228.9	88.811	67.994	31.686	2.9574e-07	41.868	250.357	-11.388	60.925	-59.912	75.227	68.799	-61.258	-52.898	85.234	73.186	-56.501	-50.856	-47.332	-42.024	37.817	-46.324	-8191	255	
2248.868	1	1	0	0	0.058563	0.19599	0.16751	0.18592	0.06054	0.24821	0.21696	0.12084	0.093398	0.081565	0.26482	0.16801	0.21682	0.27561	0.24217	0.16051	-2.6813	-3.3167	-2.7729	-3.1688	-3.0271	-2.8625	-3.4083	-3.1167	-3.0812	-3.3833	-2.9229	-3.3229	-3.1646	-2.8458	-3.3187	-3.1458	-29.233	168.451	60.636	257.798	281.695	177.874	240.468	128.329	205.270	196.967	170.580	263.446	271.301	-55.462	29.463	195.850	0.00015348	0.00019139	6.8384e-05	409.08	2.3748e-06	2.3004e-06	575.95	167.57	1.9073e-06	3.0355e-06	251.26	94.697	74.376	33.553	1.463e-06	45.489	3.7548e-05	2.8026e-05	7.466e-06	388.89	3.4964e-07	3.1713e-07	543.75	159.35	3.484e-07	3.1441e-07	228.12	88.494	67.975	31.531	3.0881e-07	41.571	246.567	-55.778	22.715	-59.171	106.756	53.814	-61.409	-52.947	136.504	75.672	-56.621	-51.123	-47.311	-41.953	107.416	-46.151	-8191	255	
2248.964	1	1	0	0	0.070153	0.10515	0.11457	0.19381	0.072102	0.18482	0.098573	0.23406	0.10605	0.07727	0.13744	0.15374	0.070872	0.040832	0.096038	0.071206	-2.4938	-3.0854	-2.7542	-3.2125	-3.1417	-2.6813	-3.4562	-3.0396	-2.8042	-3.4583	-2.9313	-3.3187	-3.2771	-2.6833	-3.3604	-3.1229	244.722	222.765	153.817	231.343	-35.160	67.786	-69.417	-63.225	258.718	130.596	286.450	-45.792	-59.384	2.374	-60.218	-30.453	0.00013631	0.00020161	7.9282e-05	409.71	9.5809e-07	3.1594e-06	572.42	167.27	4.6718e-07	2.4523e-06	251.18	95.464	74.916	33.696	2.3453e-06	45.257	3.653e-05	2.7648e-05	8.1166e-06	389.94	3.3675e-07	3.1457e-07	542.22	159.54	3.4474e-07	3.0385e-07	227.31	88.986	68.307	31.529	3.3121e-07	41.465	247.095	-41.026	56.283	-59.446	126.499	44.924	-61.398	-52.822	151.416	106.261	-56.468	-50.819	-47.532	-41.634	107.451	-46.277	-8191	255	
2249.085	1	1	0	0	0.22176	0.40463	0.31405	0.040888	0.21723	0.18592	0.28974	0.18394	0.085443	0.21183	0.12274	0.31536	0.052966	0.017928	0.0091554	0.33672	-2.6833	-3.2333	-2.7729	-3.0292	-3.1688	-2.8583	-3.2708	-3.0062	-2.8	-3.3521	-2.9146	-3.0062	-3.0271	-2.9146	-3.0792	-3.2812	252.133	19.095	47.764	147.079	212.499	108.632	225.947	209.987	44.668	103.000	100.868	158.096	138.748	226.628	265.987	217.771	0.00015508	0.00023255	6.3044e-05	413.48	1.735e-06	3.5511e-06	579.49	170.13	1.8395e-06	1.9605e-06	254.72	96.947	75.752	33.904	1.2172e-06	45.659	3.668e-05	2.6859e-05	8.5812e-06	391.78	3.2565e-07	3.0146e-07	547.43	161.56	3.3637e-07	2.9273e-07	231.42	90.612	69.424	31.748	3.5467e-07	41.789	246.981	-41.702	36.712	-59.787	99.884	47.169	-61.489	-52.886	103.736	47.002	-56.603	-51.267	-47.754	-41.973	141.056	-46.415	-8191	255	
2249.181	1	1	0	0	0.33761	0.12807	0.23694	0.35527	0.32053	0.10108	0.078013	0.25478	0.16207	0.088186	0.30145	0.17051	0.010043	0.21805	0.12815	0.20534	-2.3979	-3.3479	-2.7833	-3.1354	-3.3229	-2.8646	-3.2292	-3.2125	-2.8083	-3.4688	-2.8292	-3.1354	-3.3167	-3.0563	-3.0167	-3.4021	51.058	25.688	208.368	261.076	200.278	42.805	95.192	250.499	22.541	160.645	110.894	243.054	254.514	-64.168	285.656	145.392	0.00013809	0.00013236	6.2231e-05	414.78	1.7924e-06	2.1722e-06	581.82	169.96	2.8112e-06	1.6367e-06	255.04	97.558	76.175	33.974	7.228e-07	45.792	3.5724e-05	2.7944e-05	8.7541e-06	393.35	3.1201e-07	3.0026e-07	549.09	161.37	3.245e-07	2.985e-07	232.28	91.19	69.706	31.88	3.6436e-07	42.008	240.332	-19.526	69.853	-59.926	72.622	36.133	-61.354	-52.905	96.993	105.766	-56.405	-50.992	-47.675	-42.294	72.356	-46.283	-8191	255	
2249.276	1	1	0	0	0.22958	0.14451	0.27413	0.13502	0.13984	0.082133	0.21204	0.177	0.17341	0.21994	0.15305	0.19971	0.19955	0.15512	0.21673	0.37879	-2.3042	-3.2625	-2.8583	-2.8729	-3.4104	-2.9521	-3.3063	-3.1937	-2.7062	-3.1208	-3.075	-2.9437	-3.1271	-3.0625	-3.0375	-3.0687	-40.698	106.379	-70.892	-65.805	202.760	-10.139	242.731	223.293	191.982	71.775	-60.849	21.271	143.604	-56.035	123.869	-70.505	0.000131	7.5052e-05	8.1333e-05	419.29	3.6576e-06	2.4358e-06	580.05	171.04	1.9375e-06	4.1477e-06	253.2	96.592	76.535	34.041	1.3376e-06	45.625	3.5101e-05	2.8844e-05	9.0262e-06	396.88	3.0554e-07	3.2224e-07	550.37	162.58	3.1413e-07	3.174e-07	231.21	90.448	69.508	31.837	3.6347e-07	41.756	245.157	5.473	32.501	-59.426	114.802	25.759	-61.230	-53.362	84.032	90.559	-56.452	-51.182	-47.996	-42.073	93.311	-46.460	-8191	255	
2249.374	1	1	0	0	0.26883	0.087784	0.042784	0.18234	0.05837	0.27548	0.27784	0.23401	0.15942	0.048222	0.27037	0.22557	0.28068	0.10464	0.045881	0.19785	-2.2771	-3.0458	-2.8896	-2.7896	-3.275	-3.0146	-2.9938	-3.3604	-2.75	-3.1646	-3.2417	-2.8083	-3.2583	-3.1125	-2.9792	-3.25	125.030	100.007	60.067	-39.106	224.139	148.115	225.513	280.911	133.145	111.922	160.568	207.160	224.777	-64.775	286.134	35.678	0.00015156	0.00031325	6.6966e-05	416.76	1.0475e-06	1.9693e-06	579.35	169.57	1.9203e-06	2.3766e-06	252.82	96.755	75.675	33.851	1.8445e-06	45.453	3.3707e-05	3.1044e-05	9.0666e-06	394.14	2.9586e-07	3.3587e-07	546.96	161.37	3.1167e-07	3.521e-07	229.72	90.281	69.076	31.775	3.58e-07	41.683	241.225	-28.918	25.178	-59.540	120.959	78.754	-61.594	-52.862	135.662	62.747	-56.474	-50.909	-47.512	-42.154	53.317	-46.466	-8191	255	
2249.468	1	1	0	0	0.093322	0.0024726	0.078793	0.074377	0.10884	0.21652	0.18844	0.22733	0.24118	0.072871	0.17544	0.28343	0.20756	0.042185	0.21036	0.24155	-2.5563	-3.0708	-3.1333	-2.9313	-3.1271	-3.0187	-2.8771	-3.4229	-2.8271	-3.1792	-3.1229	-2.9042	-3.2292	-3.0479	-2.8563	-3.2708	235.567	15.539	43.846	-18.649	264.198	117.768	245.511	228.525	255.837	136.868	70.499	252.565	48.628	-38.873	87.498	212.477	0.00013512	0.00035962	3.6459e-05	412.26	1.7241e-06	1.9159e-06	579.17	167.99	2.1077e-06	1.5386e-06	251.37	96.675	75.279	33.813	1.9881e-06	45.486	3.4684e-05	3.2871e-05	8.6644e-06	389.43	3.089e-07	3.6072e-07	544.7	159.47	3.3206e-07	3.5942e-07	228.77	90.016	68.952	31.662	3.4156e-07	41.591	253.407	-17.422	53.387	-59.808	86.318	23.672	-61.241	-53.042	155.156	125.587	-56.472	-50.791	-47.611	-41.892	106.943	-46.170	-8191	255	
2249.564	1	1	0	0	0.070348	0.21341	0.12878	0.28568	0.086882	0.13838	0.015537	0.36751	0.2084	0.081936	0.30949	0.070264	0.18279	0.12331	0.18477	0.097819	-2.3271	-3.0333	-3.0125	-2.7729	-3.1229	-3.0354	-3	-3.1521	-2.9458	-3.0062	-3.3417	-2.7687	-3.2188	-3.0021	-2.9042	-3.3125	120.997	32.791	131.679	183.911	213.841	-69.414	55.230	146.125	193.622	185.630	247.110	-54.367	247.921	275.148	-41.150	204.814	0.00016224	0.00025553	3.2817e-05	407.1	7.8887e-07	1.9009e-06	566.22	164.26	1.218e-06	2.1241e-06	247.44	95.367	74.135	33.329	1.4292e-06	44.913	3.6382e-05	3.3147e-05	8.4204e-06	385.55	3.3502e-07	3.5942e-07	534.81	156.06	3.4222e-07	3.661e-07	224.94	88.879	67.801	31.299	3.3896e-07	41.113	245.037	-12.671	53.958	-59.523	200.502	67.529	-61.266	-52.937	154.632	85.491	-56.271	-50.833	-47.535	-41.861	51.699	-46.266	-8191	255	
2249.660	1	1	0	0	0.31179	0.11189	0.28276	0.16982	0.1531	0.20623	0.14187	0.081741	0.29851	0.20516	0.071788	0.12527	0.11632	0.12866	0.056785	0.099326	-2.2854	-2.9833	-3.3021	-2.7583	-3.1063	-3.1125	-2.8146	-3.2938	-2.8896	-3.1083	-3.1104	-2.9375	-3.0333	-3.1583	-2.8875	-3.2562	256.326	140.191	196.262	73.691	80.743	266.043	203.490	282.228	240.854	63.810	174.505	226.127	209.695	232.448	-39.096	68.258	0.00014556	0.00016926	3.3837e-05	398.82	1.2378e-06	1.2035e-06	552.39	160.39	1.1705e-06	1.8118e-06	240.97	92.865	72.453	32.97	2.352e-06	43.96	3.8497e-05	3.2991e-05	8.2311e-06	377.66	3.5606e-07	3.4317e-07	521.35	152.36	3.6102e-07	3.453e-07	218.59	86.66	66.532	30.766	3.3125e-07	40.267	245.837	-37.898	80.030	-59.613	91.471	82.404	-61.271	-52.626	176.809	41.812	-56.515	-50.954	-47.456	-42.076	86.227	-46.038	-8191	255	
2249.781	1	1	0	0	0.1343	0.040315	0.39044	0.1151	0.045569	0.12759	0.074664	0.24807	0.076728	0.1197	0.27243	0.08417	0.20692	0.10404	0.093914	0.14346	-2.4667	-3.0896	-3.2021	-3.0625	-3.1979	-3.2021	-2.8354	-3.275	-2.8187	-2.7375	-3.3625	-2.8646	-3.0021	-3.1229	-2.8979	-3.4	243.605	102.139	211.214	128.077	175.544	-3.423	17.376	198.049	-50.482	103.696	-16.794	30.604	-48.922	262.211	261.171	-30.727	0.00015359	0.00021724	6.0732e-05	389.44	2.4936e-06	2.0861e-06	542.06	158.23	1.367e-06	2.0764e-06	235.97	92.104	72.531	32.657	1.3025e-06	44.029	3.9384e-05	3.1846e-05	8.1119e-06	371.48	3.7034e-07	3.44e-07	511.68	150.32	3.7626e-07	3.3869e-07	215.52	86.329	66.365	30.594	3.2463e-07	40.325	247.189	8.921	22.073	-59.510	85.453	73.853	-61.074	-52.931	58.774	107.198	-56.395	-50.900	-47.594	-42.001	116.692	-46.506	-8191	255	
2249.877	1	1	0	0	0.16487	0.049441	0.20252	0.10066	0.14332	0.085797	0.087303	0.13617	0.0082046	0.026549	0.20877	0.075629	0.15686	0.27247	0.14057	0.14112	-2.6542	-2.7958	-3.0604	-2.7313	-3.1042	-3.0771	-2.8958	-3.2667	-3.0333	-2.7521	-3.2229	-2.9104	-3.0167	-3.4333	-2.7292	-3.2208	-69.067	-46.184	129.134	229.577	167.504	256.922	77.897	110.077	-56.477	110.909	212.651	-58.266	274.783	223.473	50.449	226.472	0.00013608	7.6602e-05	3.9332e-05	390.9	1.8905e-06	2.3606e-06	540.14	158.3	2.4744e-06	2.4563e-06	238.32	92.812	72.652	32.631	2.3102e-06	44.311	3.9143e-05	3.1083e-05	7.7464e-06	370.41	3.6934e-07	3.2776e-07	510.58	150.51	3.6339e-07	3.3133e-07	216.85	86.943	66.449	30.611	3.1722e-07	40.513	242.833	53.683	63.925	-59.692	123.592	55.849	-61.268	-52.735	158.946	87.461	-56.275	-50.932	-47.422	-42.078	77.727	-46.382	-8191	255	
2249.973	1	1	0	0	0.1158	0.047305	0.18649	0.10571	0.066339	0.11707	0.34576	0.37836	0.15087	0.22334	0.21546	0.13832	0.12366	0.23741	0.19624	0.17495	-2.6625	-2.8312	-3.1625	-3.0542	-2.8333	-3.0438	-3	-3.1208	-3.3771	-2.8688	-3.1937	-3.0229	-2.7604	-3.4354	-2.8458	-3.1437	233.276	-65.849	148.021	273.692	272.493	-16.641	239.174	175.757	235.024	119.369	13.810	-68.887	-11.250	3.443	24.826	286.156	0.00011009	0.00011331	4.877e-05	392.06	2.0741e-06	2.0601e-06	541.13	159.1	1.8153e-06	2.1018e-06	239.47	93.998	72.376	32.598	8.8606e-07	44.493	3.7809e-05	2.984e-05	7.8602e-06	372.93	3.5011e-07	3.152e-07	513.45	151.64	3.4234e-07	3.2701e-07	217.99	87.498	66.297	30.598	3.4176e-07	40.714	252.576	-42.084	49.775	-59.558	83.378	87.609	-61.247	-52.837	139.526	77.991	-56.372	-50.929	-47.167	-41.794	87.633	-46.184	-8191	255	
2250.069	1	1	0	0	0.24343	0.076835	0.18431	0.096825	0.15739	0.11459	0.24071	0.18078	0.095921	0.23298	0.26867	0.19577	0.18783	0.18483	0.069254	0.1763	-2.7062	-2.85	-3.0583	-3.0687	-3.0062	-3.2333	-2.9146	-3.0125	-3.2333	-2.7979	-3.3083	-3.0021	-2.9229	-3.3333	-3.0646	-2.9979	73.915	-55.835	283.898	171.184	58.911	188.594	235.964	149.090	-62.615	51.807	277.802	283.073	-39.756	-7.524	201.547	241.191	0.00013672	0.00020364	7.2352e-05	393.42	1.8889e-06	2.4113e-06	550.37	161.03	1.8973e-06	2.0168e-06	242.55	94.775	73.731	32.873	1.0823e-06	44.844	3.694e-05	2.9052e-05	8.3697e-06	374.47	3.4741e-07	3.0343e-07	517.6	153.52	3.2914e-07	3.1163e-07	220.59	88.174	67.23	30.78	3.5361e-07	40.85	250.113	13.042	35.991	-59.641	67.328	67.349	-61.188	-53.075	142.738	93.569	-56.451	-50.845	-47.886	-41.993	75.576	-46.219	-8191	255	
2250.165	1	1	0	0	0.27745	0.097248	0.14084	0.16888	0.2289	0.068452	0.3146	0.20545	0.076488	0.19896	0.11274	0.17679	0.10431	0.11851	0.068924	0.41028	-2.7812	-2.8479	-3.0208	-3.2458	-2.8208	-3.1708	-2.9042	-2.8146	-3.2125	-2.8292	-3.1562	-3.2479	-2.7208	-3.2313	-2.8479	-2.9562	-64.622	0.911	226.993	-2.271	41.551	282.268	128.562	144.392	-9.970	194.996	-57.474	265.384	2.021	285.142	220.875	122.483	0.00014878	6.7239e-05	7.1015e-05	402.99	3.2452e-06	2.8222e-06	559.63	166.49	1.456e-06	2.0951e-06	247.5	96.389	75.087	33.168	1.6497e-06	45.406	3.5418e-05	2.6484e-05	8.8489e-06	381.69	3.2494e-07	3.0049e-07	528.88	158.21	3.1858e-07	3.0573e-07	225.25	89.851	68.553	31.031	3.7034e-07	41.299	242.573	-7.906	32.414	-59.685	117.710	56.635	-61.121	-53.100	78.534	47.976	-56.462	-51.292	-47.210	-41.910	92.832	-46.624	-8191	255	
2250.262	1	1	0	0	0.29072	0.11171	0.26249	0.070891	0.086439	0.068299	0.099179	0.070806	0.069487	0.16533	0.1648	0.13332	0.12553	0.1601	0.16902	0.17169	-2.7604	-2.8083	-3.0229	-3.1979	-2.6229	-3.2313	-3.0167	-2.7542	-3.2604	-2.7167	-3.1208	-3.0438	-2.7125	-3.2979	-2.9875	-2.9708	-50.154	186.968	8.304	104.981	32.092	-64.932	260.856	-70.236	227.609	-7.672	223.934	101.654	208.216	-55.437	275.184	236.917	0.00015498	0.00017898	6.6159e-05	404.81	1.9476e-06	2.0158e-06	560.7	167.05	2.1716e-06	2.0979e-06	248.56	96.561	75.34	33.145	1.5202e-06	45.233	3.4545e-05	2.918e-05	9.3686e-06	383.37	3.205e-07	3.1433e-07	529.78	158.16	3.1695e-07	3.1431e-07	225.53	89.707	68.271	31.106	3.6292e-07	41.407	256.203	-28.176	30.514	-59.903	64.024	38.123	-61.594	-53.157	89.048	96.188	-56.307	-51.104	-47.448	-42.078	31.880	-46.337	-8191	255	
2250.381	1	1	0	0	0.054741	0.11515	0.28221	0.29602	0.14941	0.01893	0.1939	0.23109	0.31849	0.044509	0.12717	0.19866	0.18595	0.11305	0.065581	0.21575	-2.9417	-2.8542	-3.0625	-3.2542	-2.7521	-3.2375	-2.9938	-3.0979	-3.3063	-2.9417	-2.9083	-3.2	-3.0312	-3.1937	-3.0604	-2.8812	-39.126	157.616	-57.165	284.936	-41.417	24.585	218.760	-47.794	-10.290	-24.222	44.856	288.706	239.478	258.829	-54.748	43.347	0.00015598	0.00014563	4.2235e-05	403.32	3.3967e-06	4.1084e-06	557.92	163.76	1.3218e-06	1.4424e-06	244.44	95.784	74.649	33.364	1.9247e-06	45.087	3.2961e-05	3.0778e-05	8.9656e-06	381.95	3.0624e-07	3.3266e-07	528.34	155.83	3.013e-07	3.4022e-07	223.75	89.469	67.965	31.229	3.6124e-07	41.414	251.786	0.800	71.850	-59.826	101.906	47.248	-61.398	-52.902	136.455	98.091	-56.464	-51.241	-47.442	-42.000	59.444	-46.273	-8191	255	
2250.477	1	1	0	0	0.23252	0.22735	0.18307	0.29258	0.23232	0.11543	0.082131	0.12938	0.1117	0.098828	0.2321	0.11249	0.29822	0.31932	0.21246	0.22303	-2.6813	-2.9896	-2.9042	-3.2854	-2.6	-2.9604	-3.2604	-2.7333	-3.3479	-3	-2.9458	-3.4146	-2.7896	-3.1083	-3.0458	-2.8937	113.521	126.611	1.826	272.988	146.874	241.139	-56.291	-45.966	160.627	37.089	271.128	171.013	139.392	-26.391	-49.386	197.425	0.00016147	0.000167	4.3552e-05	397.31	1.5294e-06	1.3016e-06	557.19	162.17	1.2747e-06	2.4324e-06	242.84	94.904	73.645	33.001	1.2702e-06	44.928	3.3098e-05	3.2527e-05	8.7318e-06	378.96	3.1291e-07	3.5741e-07	526.45	154.12	3.1484e-07	3.5949e-07	221.87	88.305	67.158	30.949	3.4613e-07	40.968	249.176	-20.402	53.989	-59.634	68.327	77.399	-61.339	-52.768	31.350	71.009	-56.169	-51.115	-47.474	-42.057	31.805	-46.670	-8191	255	
2250.573	1	1	0	0	0.1903	0.2573	0.10233	0.098734	0.21717	0.072854	0.046763	0.1157	0.20595	0.11804	0.16776	0.12978	0.13563	0.084093	0.10057	0.18794	-2.6604	-3.0958	-2.7771	-3.2938	-2.7479	-3.0479	-3.0938	-2.6688	-2.975	-3.1521	-2.8646	-3.3042	-2.9833	-3.0396	-3.0604	-2.7562	101.083	57.011	195.132	235.883	-63.102	-58.744	152.261	276.233	201.023	146.517	111.659	-20.102	262.295	266.692	35.286	269.125	0.00015436	0.00037537	4.9953e-05	397.49	1.1863e-06	8.6536e-07	550.41	160.72	1.8465e-06	1.2651e-06	241.11	93.965	73.021	32.979	1.3871e-06	44.902	3.5121e-05	3.312e-05	8.6316e-06	377.44	3.2223e-07	3.5593e-07	522.11	152.9	3.3448e-07	3.5256e-07	219.81	87.764	66.906	30.923	3.2844e-07	40.928	244.013	-26.613	65.906	-59.774	47.566	91.914	-61.339	-52.963	117.681	86.033	-56.536	-50.890	-47.761	-41.611	53.739	-46.201	-8191	255	
2250.644	1	1	0	0	0.25278	0.26985	0.1213	0.17495	0.23074	0.14068	0.18376	0.21967	0.18881	0.1923	0.23208	0.024593	0.30713	0.12704	0.10645	0.11212	-2.6708	-2.8958	-2.7229	-3.2479	-2.8979	-2.9667	-3.3438	-2.8292	-3.1458	-3.0625	-2.9062	-3.5062	-2.7625	-2.9896	-3.0521	-2.8771	31.523	179.972	229.661	82.557	150.507	271.041	-67.243	202.760	164.829	96.265	-20.819	173.814	212.615	-23.199	15.200	287.115	0.00014691	0.00022089	5.4786e-05	395.61	1.1458e-06	1.9667e-06	553.72	160.75	1.9991e-07	1.4982e-06	241.27	94.008	72.907	33.036	1.2066e-06	44.795	3.6555e-05	3.2307e-05	8.2563e-06	376.04	3.4286e-07	3.4757e-07	521.37	152.19	3.5174e-07	3.446e-07	219.91	87.744	67.061	30.906	3.2262e-07	40.918	244.010	-28.257	45.918	-59.599	104.712	28.865	-61.125	-52.753	72.887	83.126	-56.381	-51.032	-47.616	-41.965	90.867	-46.198	-8191	255	
2250.765	1	1	0	0	0.17642	0.12919	0.2674	0.17041	0.17585	0.062622	0.27351	0.042705	0.23502	0.066341	0.059579	0.19233	0.1697	0.17333	0.37123	0.16333	-2.7354	-2.9021	-2.7292	-3.3417	-3.1271	-2.9208	-3.3354	-2.7812	-3.0917	-3.2	-2.9521	-3.2833	-3.0417	-2.9271	-3.2396	-2.9	182.619	216.491	-39.555	273.484	117.719	52.676	-8.889	259.000	199.442	126.782	240.184	281.274	143.182	244.722	99.678	-39.796	0.00015103	0.00014401	7.1522e-05	396.35	1.7415e-06	2.3341e-06	550.78	159.38	2.4396e-06	2.4965e-06	241.72	94.767	73.248	32.977	1.0436e-06	45.065	3.863e-05	3.1113e-05	8.082e-06	375.02	3.6226e-07	3.4276e-07	520.69	151.6	3.6541e-07	3.2691e-07	220.22	88.268	67.061	30.873	3.1115e-07	41.138	241.410	0.364	41.350	-59.580	93.938	50.719	-61.472	-52.725	120.913	81.238	-56.237	-50.953	-47.446	-41.798	84.960	-46.224	-8191	255	
2250.861	1	1	0	0	0.13229	0.17848	0.30618	0.18474	0.17913	0.10422	0.26597	0.16959	0.047642	0.14702	0.076287	0.15448	0.10695	0.19323	0.0089015	0.20741	-2.6958	-3.1063	-2.8438	-3.2729	-3.2438	-2.8292	-3.5625	-2.875	-3.0896	-3.1521	-2.7438	-3.1458	-3.125	-2.825	-3.3229	-3.0125	147.329	237.167	185.831	202.357	284.026	83.086	253.400	-5.627	278.764	195.095	136.767	228.580	124.213	-62.166	175.149	281.423	0.00013244	0.00020377	4.4016e-05	398.39	8.0702e-07	1.8919e-06	552.76	159.28	1.6363e-06	3.025e-06	242.3	93.789	72.798	32.727	1.8923e-06	44.537	3.8646e-05	2.9314e-05	7.5732e-06	375.89	3.5345e-07	3.2301e-07	520.9	151.9	3.617e-07	3.1639e-07	219.64	87.504	66.674	30.681	3.0194e-07	40.844	247.698	5.541	59.774	-59.239	66.410	25.718	-61.088	-52.798	123.789	101.519	-56.619	-51.019	-47.810	-42.042	89.682	-46.148	-8191	255	
2250.957	1	1	0	0	0.085363	0.30406	0.090852	0.15427	0.13193	0.2895	0.098117	0.17347	0.1369	0.1136	0.1131	0.13316	0.092878	0.11144	0.18963	0.28082	-2.5125	-3.2458	-2.7583	-3.2188	-2.9896	-2.7542	-3.3583	-2.8458	-2.9021	-3.3417	-2.8042	-3.0833	-3.1312	-2.85	-3.1875	-2.8146	68.671	186.343	277.105	-61.955	137.031	119.270	228.942	9.904	201.854	154.180	9.146	-19.214	-7.226	162.346	210.989	165.003	0.00016313	0.00012656	8.781e-05	399.18	1.6089e-06	2.001e-06	553.95	162.73	2.2168e-06	1.4366e-06	243.54	94.505	73.863	32.84	1.6756e-06	44.872	3.7437e-05	2.8358e-05	7.555e-06	378.69	3.4497e-07	3.1044e-07	524.1	154.33	3.4244e-07	3.1323e-07	221.79	88.244	67.311	30.767	3.1081e-07	41.084	246.742	-15.520	64.364	-59.992	113.005	48.907	-61.420	-52.730	65.549	46.005	-56.340	-50.980	-47.295	-41.821	85.114	-46.108	-8191	255	
2251.054	1	1	0	0	0.072084	0.31856	0.20158	0.28177	0.14406	0.093329	0.26539	0.038485	0.15815	0.16798	0.06021	0.12475	0.088015	0.0086141	0.080731	0.087525	-2.4188	-3.225	-2.8542	-3.0542	-3.2792	-2.7229	-3.2875	-3.3063	-2.8396	-3.4042	-3.0958	-3.1188	-3.3708	-3.0062	-3.3104	-3.1333	54.723	93.589	126.380	267.996	30.902	269.474	247.339	58.162	15.871	114.879	115.413	39.224	224.948	205.268	37.487	203.929	0.0001564	0.00021873	4.9291e-05	405.22	2.9042e-06	1.5108e-06	565.64	168.19	1.5118e-06	2.3945e-06	248.5	97.335	75.352	33.07	9.3106e-07	45.357	3.6316e-05	2.7655e-05	7.8241e-06	383.73	3.2472e-07	3.0121e-07	534.29	159.58	3.2947e-07	2.9639e-07	227	90.599	68.818	31.023	3.3212e-07	41.625	244.524	-21.152	86.464	-59.530	108.823	44.503	-61.216	-53.190	109.237	51.958	-56.531	-51.534	-47.827	-42.252	117.837	-46.617	-8191	255	
2251.172	1	1	0	0	0.098082	0.20952	0.10241	0.25543	0.1529	0.24618	0.18651	0.16627	0.29507	0.2727	0.189	0.22417	0.059398	0.15528	0.1744	0.11122	-2.5375	-3.2417	-2.8896	-3.025	-3.2083	-2.7812	-3.175	-2.9646	-3.0229	-3.3563	-2.8542	-3.1479	-3.1792	-2.7792	-2.975	-3.0292	60.719	227.329	92.907	-47.274	43.576	230.594	191.561	204.732	-11.027	-70.696	109.532	220.526	65.706	-38.447	160.789	-65.050	0.00016021	0.00028955	5.5464e-05	409.78	1.7382e-06	2.0688e-06	571.25	171.36	1.1259e-06	2.7133e-06	254.47	99.265	76.762	33.328	1.2581e-06	46.124	3.54e-05	2.6237e-05	8.4696e-06	388.68	3.2321e-07	2.9159e-07	542.16	162.86	3.2219e-07	2.8859e-07	231.9	92.312	70.021	31.317	3.4837e-07	42.18	258.655	-21.910	53.015	-59.422	100.111	43.389	-61.326	-53.267	74.925	89.219	-56.357	-51.127	-48.007	-42.312	111.170	-46.561	-8191	255	
2251.246	1	1	0	0	0.31234	0.18499	0.13174	0.22055	0.146	0.23499	0.10293	0.21276	0.15609	0.026063	0.17257	0.12884	0.046912	0.11012	0.058814	0.15043	-2.4188	-3.0396	-2.9875	-2.975	-3.4333	-2.9479	-3.1458	-3.2917	-2.7708	-3.2479	-3.0625	-2.9	-3.2917	-2.8479	-2.8771	-3.2583	-50.275	-21.469	46.847	139.882	-65.087	80.198	-22.219	215.281	-29.306	45.171	79.921	286.956	105.954	150.483	62.770	159.109	0.00014967	0.00018931	1.0382e-05	416.51	2.4152e-06	1.6627e-06	579.81	173.78	1.2926e-06	1.8751e-06	256.32	99.426	77.171	33.35	9.6173e-07	45.772	3.5023e-05	2.7481e-05	8.8124e-06	394.1	3.0599e-07	3.051e-07	547.42	165.54	3.171e-07	3.0144e-07	234.07	92.962	70.374	31.365	3.5319e-07	41.951	240.569	12.813	41.620	-59.685	86.558	75.757	-61.380	-53.291	127.657	41.472	-56.764	-51.136	-47.881	-42.211	148.812	-46.381	-8191	255	
2251.342	1	1	0	0	0.14466	0.25237	0.13182	0.23376	0.13702	0.045957	0.13023	0.15951	0.14835	0.025	0.12301	0.19014	0.11374	0.21029	0.24099	0.14824	-2.325	-3.1729	-2.9813	-2.8583	-3.1896	-2.8417	-3.0104	-3.3333	-2.7958	-3.35	-3.075	-2.8979	-3.3146	-2.8688	-3.1083	-3.4146	249.556	20.508	-26.283	25.387	252.314	253.276	254.623	254.921	-30.063	-42.240	267.080	-61.386	271.740	248.752	254.661	207.368	0.00014367	0.00012961	7.6521e-05	414.49	1.2549e-06	1.0427e-06	575.21	173.04	2.2966e-07	7.0672e-07	254.59	98.809	76.512	33.316	1.4063e-06	45.814	3.435e-05	2.9222e-05	9.0076e-06	392.83	2.9817e-07	3.1433e-07	544.75	164.77	3.0233e-07	3.2797e-07	232.28	92.275	70.079	31.3	3.5041e-07	41.892	243.141	7.070	51.216	-59.772	39.390	84.991	-61.399	-53.143	123.253	47.402	-56.797	-51.220	-48.153	-42.133	51.065	-46.259	-8191	255	
2251.461	1	1	0	0	0.1287	0.022083	0.22039	0.16979	0.1547	0.11503	0.24297	0.22068	0.10678	0.22659	0.3431	0.14135	0.049704	0.23891	0.24615	0.22943	-2.2562	-3.1542	-2.9062	-3.0854	-3.2479	-3.2	-2.8604	-3.3438	-2.8625	-3.2062	-3.0958	-3.0208	-3.3417	-3.0646	-2.8625	-3.4896	217.778	47.282	73.513	260.812	69.495	-62.314	182.089	144.893	-6.217	135.456	274.697	-1.370	286.682	-64.972	-19.281	193.997	0.00014749	0.00020949	5.3231e-05	413.24	9.3e-07	7.0909e-07	575.42	171.84	9.9703e-07	1.8677e-06	254.24	98.917	76.303	33.321	1.1207e-06	45.902	3.3005e-05	3.0626e-05	8.8839e-06	391.03	3.0041e-07	3.4416e-07	543.54	163.18	3.0229e-07	3.4678e-07	231.14	92.145	69.779	31.312	3.4151e-07	42.12	243.120	-23.165	57.907	-59.640	145.065	112.635	-61.364	-53.439	118.843	118.133	-56.772	-51.228	-47.715	-42.013	100.765	-46.315	-8191	255	
2251.557	1	1	0	0	0.055629	0.14502	0.19546	0.049834	0.15951	0.2723	0.14171	0.095957	0.3759	0.15038	0.057383	0.27286	0.026062	0.15329	0.20125	0.15959	-2.4813	-3.1958	-3.0271	-2.8458	-3.1625	-3.0542	-2.9667	-3.2708	-3	-3.0042	-3.2604	-2.9542	-3.2979	-3.1875	-3.0354	-3.2792	240.353	36.551	117.056	133.019	266.019	87.402	171.755	235.766	30.659	70.682	202.847	-51.033	-64.499	218.150	119.909	93.611	0.0001669	5.6985e-05	5.832e-05	413.12	1.2953e-06	2.3613e-06	578.7	172.03	1.6681e-06	2.1293e-06	256.08	99.078	77.219	33.79	1.5367e-06	46.545	3.4294e-05	3.2289e-05	8.5101e-06	391.29	3.0446e-07	3.5036e-07	546.77	163.4	3.2318e-07	3.5537e-07	232.77	92.594	70.27	31.627	3.394e-07	42.524	237.241	-44.702	32.983	-59.999	108.383	50.105	-61.219	-53.383	129.233	65.171	-56.642	-50.867	-47.946	-42.098	61.447	-46.542	-8191	255	
2251.653	1	1	0	0	0.17489	0.055361	0.11425	0.015377	0.27389	0.076592	0.19221	0.28814	0.01049	0.2023	0.070385	0.12156	0.16016	0.14864	0.14694	0.15904	-2.475	-2.9646	-3.1646	-2.8792	-3.0812	-3.1063	-2.9083	-3.2625	-2.9479	-3.2188	-3.3187	-2.9646	-3.1562	-3.1792	-2.9062	-3.3333	225.976	0.353	-14.570	46.902	142.885	257.498	247.346	235.729	0.942	187.919	-67.692	209.446	191.053	226.958	85.626	190.278	0.00014908	0.0001323	6.9999e-05	412.7	9.8651e-07	2.6722e-06	579.3	172.17	1.7574e-06	1.2234e-06	254.32	98.591	76.383	33.555	1.6197e-06	46.14	3.6137e-05	3.1989e-05	8.0619e-06	391.81	3.3671e-07	3.4971e-07	547.66	163.19	3.4469e-07	3.5307e-07	231.48	92.035	69.812	31.432	3.2788e-07	42.059	245.425	-48.482	42.893	-59.619	103.557	36.082	-61.249	-53.296	96.412	80.636	-56.698	-51.363	-47.762	-42.019	84.871	-46.446	-8191	255	
2251.774	1	1	0	0	0.068592	0.22649	0.21992	0.2167	0.025658	0.19125	0.1309	0.1496	0.19959	0.090905	0.08393	0.32867	0.19195	0.18937	0.11327	0.18066	-2.5438	-3.1437	-3.0208	-3.025	-3.1437	-3.1375	-2.8563	-3.4625	-2.8229	-2.9083	-3.3521	-2.7417	-3.1063	-3.2083	-2.8208	-3.4396	1.158	246.806	99.631	113.991	111.450	47.511	205.184	-48.375	273.384	-43.482	129.802	281.829	211.887	205.830	5.279	191.676	0.00015934	0.00030356	6.6266e-05	411.49	1.3699e-06	3.0053e-06	572.8	170.55	2.3092e-06	2.6519e-06	252.89	97.491	75.172	33.288	1.4524e-06	45.655	3.8129e-05	3.1443e-05	7.9693e-06	389.03	3.5149e-07	3.3724e-07	541.97	161.61	3.6032e-07	3.3224e-07	229.12	90.876	69.306	31.208	3.0998e-07	41.754	247.732	-28.466	55.154	-59.622	80.305	52.020	-61.327	-53.164	101.181	101.604	-56.569	-51.417	-47.551	-42.349	75.139	-46.260	-8191	255	
2251.870	1	1	0	0	0.11559	0.082301	0.038946	0.089771	0.16849	0.10716	0.21486	0.20203	0.1369	0.14434	0.062684	0.30141	0.16729	0.21435	0.23519	0.088328	-2.4792	-2.85	-3.2313	-2.6771	-3.0958	-3.2562	-2.6854	-3.2396	-3.0646	-2.9396	-3.4042	-3.0667	-2.9542	-3.3646	-2.7604	-3.0458	5.217	227.854	174.031	24.529	-68.028	-53.062	201.825	133.286	244.550	19.127	183.632	209.846	129.392	272.981	221.806	186.910	0.00015272	0.00026211	9.7735e-05	411.62	1.2365e-06	2.3783e-06	574.19	170.21	2.3915e-06	2.0514e-06	252.62	98.083	76.043	33.436	2.1357e-06	45.9	3.8843e-05	3.0348e-05	7.6162e-06	389.17	3.5253e-07	3.2066e-07	544.12	162.35	3.5706e-07	3.2187e-07	230.53	91.682	69.888	31.393	3.0348e-07	42.155	239.007	-1.906	61.752	-59.740	76.218	56.643	-61.369	-53.386	82.426	51.697	-56.651	-51.231	-47.609	-42.120	76.577	-46.466	-8191	255	
2251.942	1	1	0	0	0.16866	0.10526	0.20462	0.12126	0.22188	0.11311	0.22044	0.065201	0.07911	0.21146	0.15081	0.21877	0.18797	0.061295	0.22243	0.16351	-2.7396	-2.8396	-3.3063	-2.7979	-2.925	-3.2979	-2.9146	-3.1229	-3.0979	-2.8625	-3.3042	-2.9083	-2.9292	-3.2646	-2.9917	-3.325	115.092	63.241	-44.343	268.453	128.383	-14.054	-70.646	273.932	264.668	-3.064	51.646	171.654	101.649	162.116	126.819	231.642	0.00013723	0.00027173	6.7091e-05	413.94	2.2972e-06	2.6716e-06	580.92	172.79	2.0919e-06	2.0492e-06	257.06	99.621	77.096	33.639	1.0846e-06	46.573	3.8021e-05	2.8761e-05	7.423e-06	391.93	3.423e-07	3.0978e-07	547.95	163.89	3.4823e-07	3.1818e-07	233.79	93.133	70.586	31.547	3.1045e-07	42.596	242.698	1.253	52.191	-59.746	51.167	75.532	-61.259	-53.199	133.034	52.307	-56.581	-51.110	-47.926	-42.080	94.735	-46.499	-8191	255	
2252.062	1	1	0	0	0.012748	0.1421	0.15175	0.15987	0.20176	0.10995	0.20421	0.21224	0.03205	0.20079	0.19307	0.21465	0.21909	0.34704	0.12371	0.1712	-2.5354	-2.9458	-3.1833	-3.3312	-2.9729	-3.2958	-2.875	-3.1167	-3.0438	-3.0083	-3.4625	-3.0833	-3.0042	-3.2792	-2.7208	-3.0792	274.466	65.858	221.665	269.142	79.113	256.791	137.402	223.468	151.209	-33.326	216.916	-35.176	16.228	225.340	194.067	226.942	0.00017307	0.00018208	4.1159e-05	421.1	1.4758e-06	2.4302e-06	590.37	176.28	2.1105e-06	2.4466e-06	260.97	101.64	78.286	34.009	2.8268e-06	46.716	3.7191e-05	2.7988e-05	7.691e-06	399.38	3.3133e-07	3.0257e-07	558.13	168.06	3.36e-07	2.9899e-07	238.08	94.61	71.569	31.769	3.2467e-07	42.85	238.440	-21.000	27.699	-59.870	96.238	37.663	-61.530	-53.319	111.615	52.438	-56.478	-51.109	-48.155	-42.272	68.655	-46.547	-8191	255	
2252.158	1	1	0	0	0.11347	0.10956	0.15043	0.2254	0.11596	0.10948	0.29125	0.20387	0.2025	0.27525	0.027359	0.12586	0.083402	0.24696	0.094837	0.27418	-2.6896	-2.8896	-3.1562	-3.1562	-2.9938	-3.2292	-3.1167	-3.1208	-3.3604	-2.8521	-3.1208	-2.9354	-2.8417	-3.3479	-2.9771	-3.0312	70.947	-58.846	-16.640	203.031	128.332	95.526	-70.757	9.010	269.427	119.603	285.868	-10.174	77.229	287.456	-8.376	194.055	0.00014066	0.00021832	9.0025e-05	423.17	1.0831e-06	2.144e-06	594.42	179.45	1.6827e-06	2.1359e-06	265.6	102.57	79.567	34.012	1.1113e-06	46.997	3.5928e-05	2.6925e-05	8.0298e-06	402.05	3.1873e-07	2.8873e-07	562.24	170.84	3.1845e-07	2.9641e-07	241.44	95.306	72.683	31.863	3.4011e-07	43.019	246.690	-21.632	49.797	-59.333	97.854	57.789	-61.431	-53.484	124.749	63.290	-56.515	-51.315	-47.946	-42.337	40.858	-46.186	-8191	255	
2252.255	1	1	0	0	0.18297	0.16915	0.12841	0.12218	0.20499	0.3003	0.20531	0.11181	0.35974	0.097388	0.23919	0.20722	0.24811	0.38583	0.27725	0.12356	-2.8271	-2.5792	-3.0667	-3.1771	-2.9896	-3.2542	-2.9396	-3.0833	-3.3542	-2.8438	-3.2875	-3.3229	-2.9708	-3.2062	-3.2167	-3.1083	91.980	-18.506	-56.023	232.403	238.767	117.078	155.646	281.398	282.917	213.058	282.155	151.336	104.136	148.889	184.582	270.078	0.00013271	0.00021047	7.9191e-05	431.26	6.8752e-07	3.1812e-06	601.3	181.45	1.9888e-06	2.5936e-06	265.62	102.95	79.685	34.093	1.874e-06	47.311	3.4882e-05	2.7337e-05	8.59e-06	408.04	3.1839e-07	2.8539e-07	568.15	172.48	3.0909e-07	3.0311e-07	242.9	96.055	72.775	31.947	3.6219e-07	43.29	241.860	14.445	78.561	-60.105	81.036	30.684	-61.645	-53.500	128.787	75.270	-56.875	-51.171	-48.225	-42.354	106.354	-46.632	-8191	255	
2252.349	1	1	0	0	0.22572	0.12801	0.27036	0.099067	0.13474	0.096769	0.2798	0.17907	0.33293	0.17801	0.22251	0.2554	0.036047	0.23108	0.19231	0.20989	-2.9854	-2.8646	-3.0187	-3.2271	-2.8458	-3.3271	-3.0687	-2.8833	-3.1688	-2.7521	-3.1021	-3.1875	-2.7687	-3.2083	-2.9375	-2.9333	-17.614	11.870	111.760	270.757	-41.188	232.207	168.534	221.565	32.213	178.525	-18.918	243.848	151.469	274.605	101.324	206.641	0.00015656	5.9839e-05	5.1098e-05	429	1.8351e-06	3.563e-06	602.12	181.07	1.8876e-06	1.8478e-06	266.92	102.84	80.052	34.277	1.9081e-06	47.688	3.3959e-05	2.8097e-05	8.912e-06	407.25	3.0376e-07	3.079e-07	571.24	172.08	3.0865e-07	3.1777e-07	243.25	95.887	72.793	32.141	3.6038e-07	43.641	245.183	52.951	19.937	-59.823	86.406	44.104	-61.426	-53.578	132.901	73.426	-56.633	-51.441	-47.845	-42.257	47.117	-46.473	-8191	255	
2252.470	1	1	0	0	0.2769	0.26437	0.043714	0.099843	0.15744	0.056262	0.17154	0.048814	0.091329	0.23075	0.32594	0.14798	0.15744	0.33408	0.15167	0.18804	-2.9917	-2.8479	-3.0833	-3.1188	-2.9042	-3.1562	-3.3125	-3.0604	-3.5521	-2.7188	-3.0896	-3.1083	-2.9062	-3.1667	-3.1813	-2.8104	51.960	238.196	260.711	24.255	122.858	206.292	249.777	110.039	285.265	130.958	-60.500	141.005	11.515	287.958	-10.603	255.745	0.00015204	0.00020772	6.1419e-05	431.11	1.9951e-06	1.3049e-06	607.42	180.84	1.6138e-06	7.9912e-07	267	101.87	78.924	34.326	1.5605e-06	47.614	3.3558e-05	3.057e-05	8.8952e-06	406.49	3.0102e-07	3.2702e-07	573.81	171.85	2.9243e-07	3.4226e-07	243.09	95.389	72.148	32.163	3.4609e-07	43.58	237.071	-16.940	57.312	-59.700	120.224	79.851	-61.400	-53.265	117.957	192.530	-56.578	-51.585	-47.904	-42.211	65.650	-46.283	-8191	255	
2252.541	1	1	0	0	0.049083	0.24903	0.11721	0.22998	0.083468	0.090281	0.25084	0.022981	0.14792	0.16778	0.17378	0.34487	0.14435	0.26359	0.15048	0.32339	-2.75	-2.7833	-3.1188	-3.1521	-2.8271	-3.0021	-3.2479	-2.775	-3.3125	-2.8875	-2.8937	-3.3271	-3	-3.0375	-3.1042	-2.7771	269.161	0.537	-44.366	-48.849	127.325	215.790	65.974	-16.844	286.980	257.859	198.787	271.282	-23.352	275.323	99.910	201.263	0.0001416	0.00028059	3.2348e-05	426.88	1.4423e-06	2.7167e-06	603.23	178.98	1.3411e-06	2.2981e-06	265.61	101.2	78.357	34.177	1.0313e-06	47.405	3.3247e-05	3.1996e-05	8.5046e-06	405.4	3.0515e-07	3.4856e-07	569.85	170.19	3.1033e-07	3.3912e-07	240.95	94.552	71.893	32.055	3.2831e-07	43.34	239.364	-37.523	57.540	-59.790	87.962	58.409	-61.370	-53.213	115.340	118.160	-56.627	-50.962	-48.031	-42.349	27.055	-46.550	-8191	255	
2252.637	1	1	0	0	0.22309	0.10391	0.21055	0.090237	0.30621	0.14043	0.12614	0.25155	0.015273	0.041648	0.18315	0.13999	0.11334	0.057965	0.208	0.24499	-2.8542	-3.0625	-2.875	-3.3833	-2.7729	-3.2458	-3.2771	-2.8833	-3.0604	-3.1083	-2.8104	-3.4167	-2.8667	-3.1021	-3.0396	-2.7479	79.100	-33.414	174.199	-38.561	220.277	52.023	-19.877	249.856	235.532	131.369	33.638	-3.098	-29.733	259.805	237.332	-45.467	0.00016699	0.00025068	6.2805e-05	427.03	1.0611e-06	3.2374e-06	602.91	178.92	1.7043e-06	2.5685e-06	264.29	101.12	78.76	34.174	1.3518e-06	47.453	3.4883e-05	3.2503e-05	8.3442e-06	404.25	3.17e-07	3.4676e-07	569.54	169.87	3.2991e-07	3.4467e-07	240.2	94.305	71.803	32.054	3.2089e-07	43.368	249.451	-3.754	50.939	-60.046	106.225	70.484	-61.222	-53.404	146.793	53.801	-56.588	-51.287	-47.746	-42.101	45.600	-46.376	-8191	255	
2252.734	1	1	0	0	0.19079	0.10691	0.10903	0.25726	0.24731	0.02923	0.055668	0.083192	0.13586	0.28958	0.25452	0.14415	0.12921	0.30756	0.18827	0.19277	-2.7125	-2.9229	-2.8312	-3.0958	-3.0417	-3.0208	-3.2083	-2.9021	-3.1375	-3.1854	-2.8958	-3.3583	-2.9958	-3.075	-3.4229	-2.8729	33.451	-22.823	197.235	-65.045	145.818	26.161	171.548	219.037	-36.928	-39.936	239.129	-48.841	35.217	250.211	227.819	208.653	0.00015757	0.00018428	6.7383e-05	425.75	1.6664e-06	3.646e-06	602.5	178.27	2.0154e-06	1.4196e-06	264.39	101.12	78.416	34.151	3.1828e-06	47.521	3.6768e-05	3.1206e-05	8.055e-06	402.88	3.4293e-07	3.3633e-07	569.11	169.33	3.4979e-07	3.2854e-07	240.4	94.443	71.806	32.042	3.1672e-07	43.474	243.341	-23.779	34.748	-59.910	84.349	51.827	-61.582	-53.557	114.789	102.753	-56.649	-51.355	-48.007	-42.219	84.055	-46.708	-8191	255	
2252.854	1	1	0	0	0.36113	0.11839	0.22354	0.010836	0.08327	0.22719	0.14622	0.31231	0.11974	0.098897	0.22985	0.29936	0.090065	0.093888	0.19701	0.29195	-2.7354	-2.9771	-2.7729	-3.275	-3.0146	-2.9417	-3.2958	-2.925	-2.9875	-3.3271	-3.0083	-3.2396	-3.2062	-2.9188	-3.325	-2.9813	31.961	62.060	50.946	-50.961	273.161	141.926	192.934	273.089	138.971	205.994	-18.816	251.129	261.790	13.084	246.814	287.976	0.00017006	0.00025763	0.000111	426.23	2.0169e-06	2.1041e-06	603.42	178.67	1.9858e-06	1.4922e-06	265.15	101.96	78.349	34.17	1.4302e-06	47.472	3.8135e-05	3.0152e-05	7.8934e-06	404.59	3.4972e-07	3.2661e-07	570.59	169.71	3.5675e-07	3.2047e-07	241.22	95.204	71.976	32.022	3.0614e-07	43.505	242.809	-36.083	41.524	-59.964	127.607	22.139	-61.411	-53.316	60.424	59.181	-56.923	-50.965	-48.079	-42.338	-20.243	-46.572	-8191	255	
2252.950	1	1	0	0	0.11361	0.15572	0.11028	0.29857	0.082669	0.18547	0.18341	0.083217	0.18996	0.15474	0.32504	0.11442	0.092652	0.04892	0.14822	0.21184	-2.6688	-2.9604	-2.7708	-3.3	-2.9854	-3.0521	-3.2188	-3.0458	-3.0542	-3.3812	-2.8937	-3.2479	-3.1542	-2.9729	-3.1688	-2.9604	152.205	41.363	57.748	256.381	-25.099	-55.427	199.353	96.990	177.278	261.077	199.963	17.215	107.623	196.883	-54.845	250.208	0.00015244	0.00023436	4.5778e-05	427.27	1.4647e-06	2.8335e-06	609.71	180.1	2.0503e-06	3.401e-06	265.98	102.22	79.116	34.277	1.4392e-06	47.413	3.8212e-05	2.898e-05	7.3916e-06	405.53	3.551e-07	3.1375e-07	573.35	171.19	3.4859e-07	3.0985e-07	242.53	95.431	72.307	32.027	2.9782e-07	43.357	237.454	-34.009	45.133	-59.795	162.236	55.181	-61.458	-53.512	127.504	59.360	-56.764	-51.433	-48.002	-42.657	133.164	-46.619	-8191	255	
2253.046	1	1	0	0	0.097942	0.17708	0.3364	0.19421	0.083233	0.083243	0.2326	0.035237	0.15026	0.12257	0.09047	0.076859	0.21401	0.25076	0.065018	0.28208	-2.4813	-3.3	-2.9313	-3.2938	-3.2062	-3.0938	-3.3604	-3.0917	-2.8521	-3.2583	-2.9104	-3.1271	-3.1271	-2.7958	-3.2562	-3.1083	95.788	281.765	-24.794	35.965	117.469	-1.561	194.287	275.428	39.354	242.292	75.306	225.697	230.107	-21.534	-63.382	-19.734	0.00019163	0.00015264	7.6148e-05	434.27	2.7835e-06	1.9768e-06	611.78	183.01	9.6539e-07	2.1934e-06	270.75	103.7	80.104	34.41	5.4541e-07	47.895	3.6705e-05	2.7411e-05	7.5269e-06	410.69	3.318e-07	3.0718e-07	578.89	174.22	3.4058e-07	3.0085e-07	245.95	96.777	73.403	32.152	3.0535e-07	43.852	242.050	-58.717	46.175	-59.806	82.522	40.013	-61.442	-53.443	137.340	36.926	-56.963	-51.368	-48.018	-42.398	105.981	-46.777	-8191	255	
2253.143	1	1	0	0	0.1809	0.13951	0.43908	0.25433	0.23531	0.13253	0.36089	0.054567	0.10509	0.10964	0.24327	0.08586	0.16095	0.13805	0.19381	0.19182	-2.4604	-3.4458	-2.8667	-3.1146	-3.3292	-2.6458	-3.4021	-3.1562	-2.975	-3.3667	-3.0229	-3.0938	-3.2833	-2.9417	-3.1667	-3.1208	-15.132	-23.703	71.859	235.665	-54.810	251.312	246.011	180.257	7.184	227.553	205.046	64.439	0.424	23.588	4.942	-68.687	0.00018256	0.00022167	5.2406e-05	435.07	2.4932e-06	1.0577e-06	622.36	186.71	2.213e-06	1.8951e-06	278.12	106.24	81.99	34.606	2.1367e-06	48.701	3.5787e-05	2.6844e-05	7.9073e-06	415.41	3.1219e-07	2.9264e-07	588.62	178.03	3.3162e-07	2.8786e-07	252.11	99.126	74.835	32.462	3.2299e-07	44.483	237.025	-25.236	61.357	-59.721	95.129	53.847	-61.662	-53.658	91.899	82.577	-56.651	-51.587	-48.330	-42.621	91.017	-46.616	-8191	255	
2253.239	1	1	0	0	0.16119	0.082524	0.083735	0.1088	0.21133	0.38017	0.26419	0.15856	0.1775	0.17336	0.26333	0.26614	0.081844	0.11753	0.077881	0.18669	-2.3063	-3.3979	-2.8208	-3.1021	-3.2438	-2.9083	-3.1813	-3.0563	-2.9188	-3.225	-3.1333	-2.9917	-3.4208	-2.8583	-3.2917	-3.1146	104.365	-53.251	142.318	213.464	92.020	212.306	199.197	255.395	48.650	247.489	-62.251	-39.342	-62.021	5.671	128.982	228.780	0.00017857	0.00018749	4.8929e-05	443.14	2.5851e-06	9.9034e-07	633.21	190.38	1.1801e-06	1.812e-06	279.58	107.12	82.048	34.838	1.3686e-06	48.991	3.5364e-05	2.6599e-05	8.5641e-06	421	3.1443e-07	2.847e-07	596.3	180.33	3.2399e-07	2.9045e-07	254.41	99.808	75.083	32.673	3.5451e-07	44.622	248.507	-3.612	72.293	-59.988	106.141	14.103	-61.472	-53.633	136.476	60.782	-56.805	-51.532	-48.141	-42.411	107.044	-46.514	-8191	255	
2253.335	1	1	0	0	0.14148	0.16951	0.12816	0.1951	0.1829	0.08897	0.32682	0.057574	0.1517	0.029404	0.24208	0.20374	0.30006	0.16264	0.16827	0.20296	-2.4021	-3.1521	-3.0563	-3.0208	-3.2979	-2.6604	-3.2833	-3.2	-2.9292	-3.1833	-3.2229	-2.8833	-3.175	-2.9375	-2.9875	-3.3937	237.913	243.929	196.717	249.807	219.068	260.425	200.385	36.248	34.489	-30.514	272.294	236.604	-27.982	259.446	32.211	-44.719	0.00015744	0.00023682	7.7564e-05	441.88	1.7612e-06	9.1008e-07	628.07	187.48	2.5226e-06	2.2407e-06	276.05	105.12	81.161	34.733	1.1968e-06	48.312	3.4185e-05	2.7359e-05	8.7971e-06	419.52	3.0944e-07	2.9661e-07	594.26	179.06	3.0826e-07	3.014e-07	251.61	98.227	74.181	32.515	3.606e-07	44.213	260.276	-52.274	57.848	-59.741	107.337	104.108	-61.182	-53.600	97.975	66.633	-56.893	-51.428	-48.211	-42.444	100.814	-46.636	-8191	255	
2253.454	1	1	0	0	0.094828	0.083115	0.29317	0.14587	0.35977	0.16062	0.30512	0.14493	0.11358	0.11482	0.17672	0.29439	0.14391	0.26711	0.29172	0.25906	-2.275	-3.25	-2.9646	-2.9562	-3.3417	-3.0625	-3.2042	-3.4333	-2.8375	-3.2292	-3.2313	-2.8563	-3.4917	-3.1063	-2.8937	-3.3812	-20.346	134.489	34.586	24.590	-14.183	266.931	244.949	245.857	135.972	19.251	-38.426	229.650	236.578	145.376	143.974	221.044	0.00016106	0.00033506	5.098e-05	439.63	1.5374e-06	1.0506e-06	625.14	188.03	2.285e-06	2.2984e-06	277.41	105.68	81.483	34.682	3.703e-06	48.425	3.3638e-05	2.9155e-05	9.032e-06	417.96	2.9051e-07	3.1779e-07	592.27	178.76	3.0555e-07	3.0965e-07	251.44	98.378	74.433	32.595	3.4859e-07	44.26	241.569	-17.542	15.790	-59.674	74.441	51.281	-61.222	-53.573	148.772	87.539	-56.853	-51.877	-48.233	-42.426	67.141	-46.572	-8191	255	
2253.550	1	1	0	0	0.10573	0.17892	0.27686	0.22592	0.23295	0.20462	0.070388	0.14248	0.23107	0.1125	0.057896	0.14977	0.11578	0.042	0.064073	0.13645	-2.275	-3.1958	-3.0896	-2.8083	-3.3292	-3.0812	-3.0583	-3.2687	-2.8917	-3.3438	-3.2562	-2.9604	-3.2521	-3.1458	-3.0187	-3.4417	267.211	10.413	257.107	-63.217	240.589	198.547	-45.571	246.160	125.418	-1.064	-56.105	-63.573	282.035	114.470	-23.792	242.615	0.00016373	0.00024282	4.7274e-05	443.8	1.6156e-06	2.6132e-06	632.11	188.17	8.2536e-07	1.701e-06	277.7	105.83	81.73	34.955	1.1897e-06	48.872	3.3378e-05	3.0466e-05	8.5867e-06	419.87	2.8664e-07	3.4353e-07	596.24	179.03	3.0451e-07	3.4048e-07	253.47	99.054	74.879	32.756	3.4085e-07	44.63	252.394	-17.190	13.172	-59.701	48.730	34.221	-61.608	-53.694	114.023	128.855	-56.941	-51.731	-48.351	-42.397	22.638	-46.655	-8191	255	
2253.646	1	1	0	0	0.1119	0.29644	0.14967	0.16264	0.18061	0.12052	0.21561	0.23784	0.27012	0.032252	0.25919	0.37909	0.19862	0.05513	0.33336	0.18126	-2.5	-3.1125	-3.1937	-2.8771	-3.3125	-3.1813	-3.0167	-3.3396	-2.9854	-3.0312	-3.1354	-2.9125	-3.05	-3.0625	-3.1208	-3.2062	-49.860	89.315	119.361	190.751	77.833	-64.404	240.795	99.874	268.749	149.568	261.925	271.713	17.286	-27.610	271.471	231.714	0.00016393	0.00020397	5.5163e-05	446.64	2.1676e-06	2.0463e-06	636.72	189.26	2.5366e-06	2.0731e-06	279.82	106.61	82.293	34.984	2.4945e-06	49.065	3.4125e-05	3.1812e-05	8.0061e-06	422.21	3.0696e-07	3.5168e-07	601	180.17	3.2208e-07	3.5273e-07	254.69	99.63	75.283	32.845	3.2739e-07	44.837	253.318	8.914	79.822	-59.750	88.529	58.280	-61.456	-53.717	131.796	60.655	-56.767	-51.354	-48.215	-42.099	97.871	-46.745	-8191	255	
2253.742	1	1	0	0	0.16423	0.28486	0.18364	0.44661	0.15316	0.071897	0.17239	0.027555	0.17444	0.16804	0.097427	0.26155	0.1112	0.12979	0.11563	0.1876	-2.4396	-3.075	-3.0125	-3.0729	-3.3604	-3.0042	-3.0271	-3.4813	-2.7521	-2.9583	-3.2729	-3.05	-3.2	-3.0708	-2.8646	-3.2021	-0.909	48.058	92.914	247.409	276.516	1.208	-69.460	-59.323	-19.558	-13.395	278.559	-23.408	110.406	85.311	230.893	178.430	0.000153	0.00022459	6.1685e-05	450.06	2.5229e-06	2.6604e-06	641.88	192.45	9.8138e-07	2.3484e-06	280.8	107	82.839	34.971	2.9492e-06	48.834	3.6281e-05	3.0929e-05	7.9813e-06	426.06	3.2201e-07	3.4038e-07	604.14	182.65	3.4e-07	3.3254e-07	256.12	99.853	75.614	32.84	3.1439e-07	44.648	247.137	-31.982	72.315	-59.939	114.945	43.660	-61.734	-53.672	117.540	55.480	-56.769	-51.583	-48.379	-42.751	112.760	-46.567	-8191	255	
2253.838	1	1	0	0	0.11747	0.065226	0.16802	0.16479	0.1382	0.051213	0.1347	0.068353	0.23448	0.13159	0.22955	0.07394	0.14868	0.23071	0.10455	0.08446	-2.4354	-2.9104	-3.15	-3.075	-3.1542	-3.0687	-2.9271	-3.2438	-2.95	-3.0083	-3.4167	-2.9625	-3.1188	-3.3	-2.9271	-3.2021	253.093	248.502	262.210	175.999	253.792	129.519	264.246	-47.241	68.483	19.507	-55.102	259.070	2.375	230.038	278.863	-38.681	0.00013967	0.00011897	5.1677e-05	453.74	2.7338e-06	2.2675e-07	649.27	197.62	1.6186e-06	2.4158e-06	289.44	110.78	85.277	35.178	1.8624e-06	49.58	3.7205e-05	3.0348e-05	7.7063e-06	430.56	3.4195e-07	3.1941e-07	612.61	187.97	3.4655e-07	3.2453e-07	264.21	103.15	77.941	33.122	2.9995e-07	45.429	249.232	-16.389	34.565	-59.737	86.755	-14.264	-61.592	-53.834	130.122	96.695	-57.279	-51.702	-48.625	-42.631	27.840	-46.749	-8191	255	
2253.935	1	1	0	0	0.18615	0.095522	0.055638	0.23167	0.19008	0.18907	0.21788	0.1146	0.34976	0.10407	0.15698	0.13136	0.24	0.31402	0.21285	0.19762	-2.6229	-2.8354	-3.3354	-2.8833	-2.8833	-3.225	-2.8563	-3.3688	-3.2146	-2.7604	-3.4	-3.0354	-2.9875	-3.2938	-2.6458	-3.3104	277.033	121.796	230.319	258.186	-21.417	266.772	255.339	-44.590	282.478	103.107	161.143	-49.011	139.826	261.647	-39.398	218.459	0.00015562	0.00031128	6.7701e-05	469.91	2.4476e-06	3.5951e-06	678.03	209.32	1.1036e-06	2.9348e-06	307.38	117.44	90.029	36.15	2.2873e-06	51.342	3.8478e-05	2.9146e-05	7.4802e-06	444.02	3.4887e-07	3.0738e-07	638.58	198.23	3.5099e-07	3.1126e-07	278.4	109.82	82.211	33.8	2.9911e-07	46.85	247.689	-53.132	51.195	-60.184	107.400	25.445	-61.540	-54.089	113.330	54.327	-57.377	-52.065	-48.407	-42.640	57.735	-47.016	-8191	255	
2254.031	1	1	0	0	0.033425	0.162	0.13186	0.19768	0.10314	0.25592	0.2953	0.082414	0.10921	0.29691	0.11838	0.31378	0.097938	0.10734	0.26315	0.068501	-2.6083	-2.7812	-3.225	-2.9479	-2.8167	-3.1271	-3.0042	-3.3583	-3.0479	-2.8875	-3.3875	-2.9062	-2.825	-3.0771	-2.775	-3.2146	-25.821	-6.498	82.983	197.562	159.114	123.041	169.938	163.278	-62.218	-22.530	-19.904	277.393	230.176	163.628	226.137	97.270	0.00017208	0.00017834	7.0065e-05	484.38	2.2917e-06	2.7441e-06	703.21	219.36	1.7239e-06	2.0823e-06	320.23	125.59	93.613	36.45	6.4644e-07	52.605	3.7808e-05	2.8035e-05	7.1476e-06	457.32	3.3591e-07	2.9928e-07	663.49	208.59	3.4011e-07	2.978e-07	289.7	116.74	85.186	34.195	2.9764e-07	48.169	245.869	-7.359	58.595	-59.659	96.776	37.140	-61.548	-54.286	100.857	72.425	-57.656	-52.154	-48.687	-42.578	100.603	-46.633	-8191	255	
2254.127	1	1	0	0	0.18477	0.020522	0.2488	0.15113	0.10572	0.40552	0.33868	0.29989	0.13766	0.19469	0.30096	0.15851	0.23814	0.1357	0.2106	0.25714	-2.7	-2.7729	-3.0146	-2.9896	-2.95	-3.4771	-2.9458	-3.1792	-3.3042	-2.7458	-3.3021	-3.1417	-2.8104	-3.0687	-2.8729	-3.1208	69.439	99.346	171.731	-55.612	64.697	82.801	187.622	-41.954	283.711	-28.688	270.914	209.328	151.927	63.720	278.219	-66.798	0.00017263	0.00030686	3.0647e-05	490.41	2.3085e-06	2.5204e-06	715.8	223.13	1.1947e-06	3.6774e-06	319.74	126.96	93.435	36.442	1.5211e-06	52.675	3.6893e-05	2.6667e-05	7.5295e-06	464.63	3.2135e-07	2.8626e-07	676.32	212.49	3.1655e-07	2.9223e-07	291.5	118.04	85.23	34.093	3.1688e-07	48.195	244.938	-12.395	87.383	-59.618	74.073	68.977	-61.688	-54.263	74.525	91.291	-57.369	-52.175	-48.580	-42.419	71.170	-46.712	-8191	255	
2254.246	1	1	0	0	0.13173	0.16305	0.23421	0.16611	0.0053845	0.38732	0.12514	0.23268	0.22165	0.060908	0.31932	0.080136	0.084054	0.1624	0.46988	0.19789	-2.5729	-2.7833	-3.1	-3.2875	-2.9896	-3.3375	-3.0458	-3.0854	-3.2521	-2.5563	-3.4125	-3.0187	-2.9292	-3.3104	-2.8396	-3.0646	-18.263	104.273	161.221	190.515	237.996	71.236	228.335	266.826	82.872	-70.529	215.898	159.356	176.646	-11.600	104.036	229.925	0.00015695	0.00022856	8.1773e-05	494.34	2.7032e-06	2.4219e-06	718.4	221.27	1.4464e-06	3.1337e-06	315.78	124.67	91.615	36.519	1.9765e-06	52.627	3.4424e-05	2.574e-05	7.9401e-06	468.13	3.0928e-07	2.7168e-07	677.44	210.22	3.1179e-07	2.8136e-07	287.18	115.86	83.595	34.14	3.2559e-07	48.124	241.373	-38.722	49.988	-59.733	93.408	39.578	-61.691	-54.038	57.081	56.305	-57.230	-51.997	-48.408	-42.505	106.033	-46.655	-8191	255	
2254.342	1	1	0	0	0.18551	0.053328	0.2741	0.26931	0.203	0.18668	0.13677	0.11759	0.24921	0.11229	0.15056	0.34039	0.050947	0.16526	0.10705	0.075659	-2.7062	-2.7313	-2.9167	-3.1958	-2.9417	-3.25	-3.0042	-2.9646	-3.2417	-2.8979	-3.3458	-3.1875	-2.7458	-3.2188	-3.0438	-3.0563	19.927	231.014	259.416	267.779	188.163	69.012	199.450	173.703	-17.732	60.399	246.580	251.429	-56.716	242.364	190.570	270.709	0.00019063	0.00032866	4.8606e-05	495.44	2.2237e-06	1.8227e-06	713.8	219.26	3.3002e-07	1.0508e-06	311	121.05	89.211	36.358	2.4702e-06	52.403	3.4015e-05	2.5245e-05	8.133e-06	469.81	2.9412e-07	2.7429e-07	676.4	207.73	2.9047e-07	2.8482e-07	282.86	112.99	81.318	34.158	3.3434e-07	48.061	241.726	-4.423	27.733	-59.953	94.175	87.477	-61.559	-53.958	182.537	34.341	-56.892	-51.811	-48.215	-42.160	75.905	-46.476	-8191	255	
2254.415	1	1	0	0	0.30918	0.23171	0.31912	0.26984	0.12824	0.15146	0.19681	0.20567	0.058096	0.27629	0.15128	0.097583	0.11001	0.21759	0.2209	0.055454	-2.7771	-2.7417	-3.1521	-3.2979	-2.7812	-3.3542	-3.1646	-2.9542	-3.2375	-2.825	-3.2417	-3.1125	-2.8646	-3.4292	-3.0125	-2.8854	9.704	98.509	190.536	249.171	5.366	262.842	184.175	-16.150	185.847	31.058	163.375	-21.210	25.011	28.932	150.623	59.573	0.00016805	0.00023554	4.9641e-05	492.11	2.8604e-06	2.3806e-06	708.95	212.6	1.9771e-06	2.5497e-06	304.31	118.34	86.378	36.334	1.7902e-06	52.266	3.2383e-05	2.5694e-05	8.3365e-06	466.22	2.8797e-07	2.827e-07	669.37	201.44	2.8344e-07	2.9549e-07	277.53	110.08	79.022	34.059	3.3737e-07	47.92	243.840	-21.146	72.332	-59.646	76.519	53.350	-61.424	-53.664	121.536	96.163	-56.940	-51.677	-48.382	-42.137	65.696	-46.527	-8191	255	
2254.534	1	1	0	0	0.088516	0.25128	0.21272	0.19754	0.21015	0.067025	0.20918	0.32225	0.33545	0.03908	0.22302	0.21113	0.1686	0.15234	0.23576	0.29388	-3.0375	-3.0354	-2.9354	-3.3792	-2.7542	-3.2604	-3.1979	-2.9292	-3.3854	-2.7812	-3.0542	-3.4	-2.6833	-3.2917	-2.9979	-3.0896	166.615	173.393	-25.727	-68.592	-10.680	196.414	-21.325	215.529	-16.587	62.816	243.818	-51.712	190.148	238.753	93.135	234.113	0.00015733	0.0001799	9.422e-05	486.69	2.5942e-06	3.9971e-06	698.16	206.91	2.1323e-06	1.6079e-06	297.99	113.45	83.966	36.079	1.2277e-06	51.089	3.1961e-05	2.7499e-05	8.0995e-06	461.92	2.7194e-07	3.0454e-07	658.82	196.25	2.7406e-07	3.125e-07	269.99	105.67	76.535	33.886	3.1774e-07	46.658	248.873	-0.798	58.418	-59.704	79.256	47.485	-61.660	-53.590	139.367	52.770	-56.807	-51.500	-48.126	-42.114	106.470	-46.595	-8191	255	
2254.630	1	1	0	0	0.13318	0.18074	0.18863	0.2647	0.10334	0.27559	0.096705	0.20116	0.28513	0.037228	0.3595	0.21212	0.36171	0.20724	0.19162	0.19735	-2.6708	-2.8167	-3.0667	-3.2208	-3.0292	-3.1417	-3.3729	-2.8458	-3.2292	-2.9417	-2.9854	-3.2958	-2.6958	-3.3083	-3.1312	-2.725	183.180	203.798	-12.409	231.102	159.614	65.634	254.611	114.158	-46.090	-53.913	-49.137	278.008	1.997	-16.174	31.796	-71.305	0.00016255	0.00029796	8.4142e-05	473.35	2.0954e-06	2.4876e-06	678.16	201.96	1.1167e-06	1.7399e-06	291.55	111.15	84.259	35.696	1.3609e-06	49.317	3.1682e-05	2.9859e-05	7.8362e-06	449.74	2.821e-07	3.273e-07	640.31	191.8	2.9549e-07	3.2783e-07	264.81	103.51	76.972	33.423	3.1734e-07	45.055	242.762	-8.584	78.645	-59.800	125.371	51.513	-61.738	-53.656	154.008	68.658	-56.893	-51.808	-48.284	-42.196	65.258	-46.724	-8191	255	
2254.727	1	1	0	0	0.24543	0.23024	0.18415	0.022488	0.26529	0.09335	0.19205	0.20073	0.14057	0.26929	0.18337	0.26873	0.32641	0.19869	0.27068	0.17486	-2.6042	-3.1042	-2.7854	-3.1917	-2.9021	-2.9625	-3.3	-2.9167	-3.1521	-3.0896	-2.8167	-3.2646	-2.8479	-3.0646	-3.0312	-2.9333	92.629	132.524	6.817	194.915	-23.635	121.758	275.954	192.536	139.137	160.719	17.069	266.546	230.351	258.042	33.926	15.545	0.00014498	0.00031819	8.4133e-05	445.87	1.6975e-06	2.4578e-06	614.48	189.38	2.4097e-06	2.2984e-06	264.97	103.34	78.317	32.179	3.0606e-06	44.861	3.4199e-05	3.1089e-05	8.036e-06	423.49	3.2177e-07	3.4812e-07	581.54	180.03	3.403e-07	3.5501e-07	241.32	96.568	71.987	30.221	3.4847e-07	40.997	241.789	-32.559	47.446	-59.977	86.538	37.663	-61.368	-53.826	113.367	99.561	-56.745	-51.395	-47.927	-42.342	69.158	-46.476	-8191	255	
2254.823	1	1	0	0	0.19963	0.10989	0.070962	0.23141	0.34669	0.15421	0.20965	0.21191	0.24139	0.19419	0.20942	0.15591	0.24309	0.26085	0.16844	0.26403	-2.7104	-3.0021	-2.8896	-3.2646	-3.0792	-3.0292	-3.3792	-2.65	-3.0667	-3.075	-2.9562	-3.1771	-3.1542	-2.8875	-3.3563	-2.8688	22.887	168.588	120.632	68.331	79.170	32.489	148.230	92.006	285.734	89.904	207.262	219.284	12.566	246.469	273.164	109.047	0.00013473	0.00013593	5.4375e-05	395.24	1.6035e-06	3.9119e-06	550.42	160.86	1.6095e-06	3.3804e-06	238.8	96.45	69.275	29.448	1.4351e-06	41.284	4.001e-05	3.4391e-05	9.1728e-06	375.52	4.0035e-07	3.9852e-07	521.39	153.37	4.4034e-07	4.2284e-07	217.77	90.13	63.364	27.744	4.2501e-07	37.728	235.837	24.000	56.830	-59.603	103.659	62.808	-61.084	-53.499	163.671	60.356	-56.540	-51.010	-47.514	-41.899	51.010	-45.904	-8191	255	
2254.943	1	1	0	0	0.066852	0.16695	0.2023	0.10288	0.09008	0.24982	0.16873	0.19344	0.20852	0.11443	0.31005	0.17915	0.18805	0.23199	0.10618	0.41234	-2.6833	-3.1646	-2.6104	-3.2979	-2.9542	-3.1042	-3.275	-3.0167	-3.3979	-3.2958	-2.75	-3.1937	-3.0854	-2.7875	-3.2083	-3.0167	274.347	282.267	4.322	58.922	170.527	190.100	273.669	279.887	132.843	266.048	215.064	-50.578	283.937	233.228	258.633	266.474	0.00012623	0.00017715	6.7489e-05	367.62	1.9661e-06	8.4608e-07	536.03	133.75	1.6245e-06	1.3901e-06	207.45	84.334	57.179	29.094	1.6049e-06	42.168	5.0398e-05	4.1601e-05	1.122e-05	352.32	5.3021e-07	4.934e-07	506.81	127.66	5.7217e-07	5.183e-07	191.32	78.815	53.165	27.426	4.7256e-07	38.64	242.911	-48.559	71.327	-59.646	41.704	31.007	-61.109	-53.225	81.985	51.084	-56.058	-51.016	-47.101	-41.890	57.307	-46.466	-8191	255	
2255.039	1	1	0	0	0.21862	0.20148	0.15528	0.32726	0.22409	0.19914	0.27261	0.023706	0.11344	0.16416	0.079519	0.18389	0.070437	0.075351	0.12101	0.18178	-2.4271	-3.075	-2.85	-3.2812	-2.9417	-2.8125	-3.4521	-2.9333	-3.0625	-3.0938	-2.7375	-3.2125	-3.0104	-2.8229	-3.2417	-2.8458	194.017	141.706	-28.366	182.598	-49.289	-2.882	254.992	-6.808	-45.232	288.373	208.922	273.236	5.611	72.109	225.516	54.996	8.7509e-05	0.00026848	2.3496e-05	375.17	1.7779e-06	3.4913e-06	527.27	129.91	2.4821e-06	2.5314e-06	205.54	81.928	56.783	29.167	1.0831e-06	42.187	5.7334e-05	4.5865e-05	1.1846e-05	357.43	5.5144e-07	4.9922e-07	498.09	123.96	5.4536e-07	4.9447e-07	187.55	76.91	52.366	27.548	4.843e-07	38.932	242.988	-2.037	72.691	-59.794	120.261	32.210	-61.409	-52.714	95.335	84.080	-56.444	-50.894	-47.367	-41.399	96.689	-46.331	-8191	255	
2255.136	1	1	0	0	0.14093	0.16625	0.28469	0.20108	0.034712	0.23508	0.15967	0.23871	0.26237	0.092085	0.19254	0.35431	0.1376	0.13455	0.095902	0.1787	-2.5062	-3.0833	-2.9521	-3.0875	-2.9042	-2.8688	-3.4042	-2.9833	-2.9896	-3.1937	-2.875	-3.225	-3.1104	-2.8458	-3.1583	-3.0354	-12.887	-67.375	-21.018	207.500	-48.083	9.405	163.167	-40.101	-5.133	199.001	102.871	-44.052	148.193	232.427	155.158	189.351	9.7896e-05	0.0001413	7.7509e-05	358.57	8.8954e-07	2.6691e-07	513.03	136.77	3.3104e-06	2.6029e-06	216.55	88.46	61.997	30.024	4.1838e-07	43.06	5.6172e-05	4.6441e-05	1.2231e-05	344.92	5.4792e-07	4.9796e-07	485.39	130.8	5.3979e-07	4.8361e-07	198.41	82.75	57.313	28.283	4.9839e-07	39.682	250.554	-70.570	27.101	-59.252	66.854	-13.540	-60.812	-52.820	102.250	98.839	-56.546	-51.022	-47.162	-41.958	60.641	-46.660	-8191	255	
2255.232	1	1	0	0	0.073386	0.080387	0.055584	0.27147	0.12474	0.16398	0.19801	0.089967	0.11908	0.17759	0.21365	0.21656	0.17883	0.18678	0.10187	0.27738	-2.3625	-3.175	-2.9167	-2.9875	-3.2021	-2.8458	-3.3896	-3.1625	-2.6813	-3.35	-2.8688	-3.0021	-3.2167	-2.725	-3.175	-3.0875	-61.613	263.063	8.207	-43.215	126.472	-38.742	194.745	-67.808	273.735	-0.356	241.817	280.001	211.308	-29.578	28.668	203.332	0.00014687	0.00021872	3.5452e-05	364.69	2.6706e-06	2.9224e-06	518.41	161.57	1.891e-06	3.2458e-06	255.8	104.07	73.204	31.12	1.2104e-06	45.796	5.1982e-05	4.2932e-05	1.2548e-05	348.94	4.9163e-07	4.5169e-07	492.82	154.31	4.9831e-07	4.2615e-07	234.2	97.505	67.254	29.215	4.7982e-07	42.041	259.442	-20.121	59.413	-59.622	73.696	31.438	-61.012	-53.721	86.784	73.507	-57.151	-51.797	-48.100	-42.511	145.218	-47.042	-8191	255	
2255.326	1	1	0	0	0.17642	0.14581	0.015923	0.027986	0.1494	0.067437	0.23228	0.29255	0.16745	0.083528	0.23737	0.27981	0.23855	0.070543	0.12534	0.12723	-2.4479	-3.1833	-2.8688	-3.2125	-3.1	-2.9208	-3.3021	-2.9729	-2.9104	-3.4146	-2.9375	-3.0333	-3.2542	-2.9208	-3.0292	-3.2708	1.790	193.638	180.025	-53.194	53.618	101.372	152.269	256.463	-67.493	-0.623	270.616	230.439	241.546	255.737	79.205	181.759	0.00016534	0.00015943	2.6871e-05	414.39	1.1821e-06	2.834e-06	584.23	175.06	2.1534e-06	2.874e-06	267.76	104.29	69.885	30.835	1.6175e-06	45.553	4.6536e-05	3.6863e-05	1.1794e-05	394.62	4.2444e-07	3.9307e-07	554.81	167.47	4.1324e-07	3.7302e-07	245.95	97.68	64.324	29.013	4.3062e-07	41.71	248.895	-25.543	26.516	-59.413	109.901	78.359	-60.982	-53.545	116.726	64.052	-56.928	-51.143	-47.619	-41.880	68.257	-46.161	-8191	255	
2255.422	1	1	0	0	0.23902	0.36601	0.097484	0.1448	0.13343	0.13652	0.19504	0.093183	0.28424	0.1189	0.051291	0.258	0.13212	0.15945	0.30238	0.14384	-2.3833	-3.4167	-2.8833	-2.9021	-3.2333	-2.7958	-3.3438	-3.2646	-2.8542	-3.125	-3.0687	-2.7958	-3.3438	-2.9688	-3.0479	-3.2833	-30.973	131.711	175.038	209.326	-54.970	94.113	214.484	195.422	204.236	288.393	-9.942	-9.687	-23.828	155.316	192.811	11.583	0.00016106	0.00027239	3.5242e-05	406.1	1.3712e-06	2.2272e-06	541.23	159.57	1.5387e-06	1.6148e-06	249.37	95.968	64.185	30.765	1.8124e-06	45.299	3.9363e-05	3.1681e-05	1.052e-05	386.62	3.5235e-07	3.389e-07	514.64	152.17	3.4853e-07	3.4698e-07	227.92	89.194	58.694	28.869	4.0501e-07	41.612	241.345	-25.598	51.540	-59.085	99.249	47.873	-60.473	-52.784	96.524	95.253	-56.241	-50.842	-46.892	-41.384	73.018	-45.996	-8191	255	
2255.543	1	1	0	0	0.10079	0.010206	0.14576	0.16885	0.12296	0.22166	0.17864	0.18256	0.084071	0.28153	0.16632	0.080425	0.18196	0.13801	0.13628	0.21526	-2.4521	-3.175	-3.1354	-2.8625	-3.3458	-2.925	-3.0563	-3.3167	-2.6833	-3.0812	-3.25	-3.1417	-3.1521	-3.0958	-2.9229	-3.3312	145.570	-32.978	70.089	255.813	21.910	-9.938	267.830	242.594	-28.014	283.537	221.433	152.106	126.991	-60.841	170.580	172.866	0.00012635	0.00016954	6.5231e-05	413.05	1.6199e-06	1.7555e-06	565.66	163.44	2.6896e-06	2.1178e-06	261.06	101.15	69.631	31.019	1.4196e-06	46.327	3.6569e-05	3.2191e-05	9.9011e-06	392.14	3.2058e-07	3.5459e-07	535.74	155.9	3.3393e-07	3.5962e-07	239.17	94.643	64.003	29.143	3.8579e-07	42.455	236.244	54.353	31.416	-58.939	94.472	42.952	-60.848	-52.803	135.175	52.887	-56.586	-51.136	-47.466	-41.960	89.146	-46.522	-8191	255	
2255.639	1	1	0	0	0.11849	0.321	0.083416	0.13971	0.15664	0.14776	0.10906	0.08314	0.18088	0.16766	0.16919	0.22199	0.16492	0.068833	0.14137	0.14441	-2.2229	-2.9479	-3.175	-2.8104	-3.3708	-2.8042	-2.9354	-3.2125	-2.7417	-3.1188	-3.0333	-2.9729	-3.0854	-3.0875	-3.0229	-2.925	134.848	58.691	49.119	284.870	-42.144	71.343	246.701	219.630	-7.931	260.200	257.704	208.769	285.184	179.625	67.481	-52.533	0.00015117	0.00011828	6.8456e-05	414.78	1.3302e-06	1.5671e-06	557.76	165.01	4.202e-07	1.1661e-06	247.62	94.427	63.751	29.734	1.8126e-06	43.07	3.6419e-05	3.6056e-05	9.9649e-06	393.77	3.5269e-07	4.1224e-07	530.52	157.42	3.7761e-07	4.4647e-07	226.07	88.323	58.786	28.021	4.463e-07	39.438	248.110	-1.464	37.653	-59.715	106.102	107.670	-60.769	-53.574	80.198	37.292	-56.805	-51.150	-47.134	-41.537	101.799	-46.275	-8191	255	
2255.711	1	1	0	0	0.2641	0.044914	0.067588	0.19612	0.039397	0.064336	0.19578	0.31444	0.14418	0.076839	0.25818	0.26198	0.11509	0.0014045	0.096825	0.2533	-2.425	-2.9875	-3.0563	-2.75	-3.2562	-3.05	-3.0229	-3.2792	-2.9104	-3.1479	-3.2667	-2.8521	-3.0354	-3.2313	-2.9854	-3.3021	80.905	207.610	251.485	66.692	267.199	104.927	272.252	-64.709	97.778	8.752	67.470	246.674	164.984	180.000	-19.459	266.225	0.00014591	5.8467e-05	6.2049e-05	357.89	4.4716e-07	1.843e-06	504.09	125.8	1.2402e-06	2.7708e-06	197.53	79.679	51.974	29.094	1.4721e-06	42.255	4.3809e-05	4.488e-05	1.1469e-05	340.67	4.3385e-07	4.9904e-07	476.1	119.9	4.4955e-07	5.0338e-07	181.3	74.334	48.345	27.415	4.463e-07	38.796	256.070	-26.135	77.016	-59.316	174.998	69.894	-60.745	-52.467	117.422	110.802	-56.064	-50.092	-46.555	-41.239	23.296	-45.986	-8191	255	
2255.807	1	1	0	0	0.087269	0.1896	0.2067	0.098984	0.088047	0.17291	0.12043	0.069248	0.15332	0.36897	0.16473	0.21205	0.15999	0.18571	0.1245	0.18069	-2.4667	-3.0917	-3.0021	-2.9042	-3.1188	-3.1208	-2.9437	-3.2229	-2.8208	-2.8604	-3.3542	-2.875	-3.0854	-3.1542	-2.9188	-3.4771	277.787	-63.863	248.550	189.008	204.933	57.600	-59.693	142.930	123.580	164.460	44.129	262.395	255.181	222.069	251.821	199.983	0.00013875	0.00025613	8.4801e-05	342.91	1.743e-06	2.6059e-06	481.09	110.77	3.0094e-06	2.4154e-06	179.2	75.338	48.719	29.666	1.6127e-06	43.133	4.7096e-05	4.3741e-05	1.0764e-05	326.64	4.6185e-07	4.728e-07	457.07	106.34	4.6728e-07	4.6948e-07	165.1	70.323	45.435	28.038	4.231e-07	39.48	248.687	-6.931	46.100	-59.439	102.672	60.405	-61.165	-52.110	144.156	80.730	-56.003	-50.179	-46.127	-41.183	43.057	-45.829	-8191	255	
2255.928	1	1	0	0	0.076998	0.23381	0.052103	0.15649	0.011749	0.16267	0.12908	0.11174	0.13181	0.10289	0.27169	0.15873	0.20781	0.17514	0.094161	0.060431	-2.4021	-3.1292	-3.075	-2.9813	-3.1708	-3.0125	-2.9167	-3.1854	-2.8625	-2.9688	-3.1771	-2.7938	-3.0479	-3.2958	-2.6188	-3.1521	123.239	146.964	101.903	76.676	210.038	251.215	231.562	247.439	158.794	1.973	238.701	0.755	250.594	-45.665	-54.868	110.959	0.00016001	0.00034416	3.4099e-05	330.3	1.8803e-06	1.2753e-06	469.55	106.64	1.141e-06	3.1177e-06	174.41	73.735	48.308	30.676	1.3241e-06	43.966	4.8199e-05	4.1031e-05	1.0089e-05	316.38	4.7122e-07	4.3959e-07	446.6	102.21	4.7595e-07	4.3264e-07	159.79	69.095	44.84	28.741	3.9077e-07	40.329	233.138	-40.578	83.978	-59.700	153.260	69.085	-60.933	-51.942	204.495	83.085	-55.891	-50.162	-45.657	-41.120	87.615	-46.066	-8191	255	
2256.024	1	1	0	0	0.16911	0.085152	0.18579	0.26653	0.073939	0.16359	0.029114	0.11893	0.20864	0.3335	0.020648	0.16122	0.18954	0.19446	0.13732	0.30491	-2.4688	-2.8833	-3.2104	-2.8333	-3.0979	-3.2438	-2.8979	-3.1125	-2.9542	-2.8771	-3.2667	-2.8312	-2.9146	-3.1208	-2.7687	-3.2354	261.985	243.187	83.487	-44.360	137.034	-8.674	45.510	248.588	143.500	241.042	272.773	57.278	22.881	283.699	150.520	116.745	0.00016053	0.0001695	5.7227e-05	326.22	1.2811e-06	1.8011e-06	464.02	105.82	2.2311e-06	9.0442e-07	173.83	74.559	48.982	30.708	1.885e-06	44.23	4.8347e-05	3.7995e-05	9.7439e-06	311.48	4.7471e-07	4.1733e-07	440.02	101.47	4.7658e-07	4.2567e-07	159.05	69.93	45.236	28.904	4.1195e-07	40.555	242.212	5.884	33.760	-59.232	142.360	85.228	-60.835	-52.009	45.736	56.759	-55.949	-50.047	-46.150	-41.250	51.908	-45.989	-8191	255	
2256.120	1	1	0	0	0.37071	0.26574	0.18781	0.10866	0.21958	0.099032	0.12548	0.21126	0.15751	0.17757	0.16718	0.056989	0.13718	0.12825	0.11334	0.21751	-2.5979	-2.825	-3.2958	-2.9208	-3.0729	-2.9979	-2.9458	-3.2062	-3.0104	-2.6896	-3.2771	-3.0208	-2.9833	-3.2583	-2.8937	-3.2625	117.679	197.168	1.214	173.722	-37.526	70.314	131.345	276.929	112.866	198.778	266.118	238.565	-12.288	-39.235	-51.274	221.393	0.00016182	0.00022783	4.4842e-05	323.48	1.4736e-06	2.5424e-06	461.93	104.13	1.3214e-06	2.3039e-06	170.06	72.26	47.692	30.533	8.9493e-07	43.867	4.8852e-05	3.8935e-05	9.9339e-06	310.3	4.6974e-07	4.1774e-07	437.73	99.56	4.5779e-07	4.1e-07	155.45	68.083	44.042	28.772	4.0217e-07	40.122	252.204	-46.840	57.187	-59.396	26.423	15.511	-61.258	-51.846	80.040	77.752	-55.579	-50.043	-45.931	-41.262	-11.160	-46.062	-8191	255	
2256.216	1	1	0	0	0.19056	0.14294	0.21349	0.14754	0.15832	0.18575	0.27763	0.14869	0.093827	0.13605	0.17318	0.06236	0.056325	0.21187	0.17635	0.16895	-2.6833	-2.5021	-3.0542	-2.8333	-2.9354	-3.3396	-2.8	-3.1167	-3.1708	-2.6979	-3.1646	-2.8375	-2.9813	-3.2271	-2.9437	-3.0625	12.648	108.284	113.942	248.039	-9.961	68.042	282.594	44.572	192.002	111.134	246.873	92.374	76.621	-25.375	167.043	230.222	0.00012119	0.00021394	5.026e-05	321.4	1.3805e-06	1.4591e-06	456.39	102	1.4717e-06	9.9305e-07	165.72	72.273	47.356	30.561	8.9018e-07	43.976	4.4835e-05	3.6442e-05	9.9831e-06	306.99	4.262e-07	3.8662e-07	432.72	98.377	4.2604e-07	3.885e-07	152.81	67.548	43.851	28.894	4.2752e-07	40.326	230.796	-66.502	39.180	-59.694	103.440	49.047	-61.250	-51.678	155.656	111.704	-56.143	-50.497	-45.966	-40.972	60.333	-46.057	-8191	255	
2256.312	1	1	0	0	0.11756	0.31728	0.1461	0.15161	0.20236	0.16	0.10071	0.15357	0.012361	0.17668	0.19216	0.26405	0.057022	0.15351	0.14174	0.057799	-2.8042	-2.7958	-2.9146	-3.0896	-2.6771	-3.2938	-2.8646	-3.1	-3.1646	-2.7771	-3.0438	-2.9583	-2.7583	-3.3458	-2.8854	-2.9688	-22.789	1.942	51.196	209.322	-17.044	242.231	-25.845	-46.709	236.211	170.631	279.826	275.201	137.713	239.600	28.297	214.442	0.00014717	8.5598e-05	5.2283e-05	320.73	1.7843e-06	1.3894e-06	454.45	102.01	2.4239e-06	1.5532e-06	168.83	72.58	47.893	30.424	1.3625e-06	43.273	4.3151e-05	3.4864e-05	1.0839e-05	305.71	4.0576e-07	3.7389e-07	431.66	98.698	4.1345e-07	3.8284e-07	155.34	68.351	44.478	28.666	4.7963e-07	39.807	250.387	-35.041	-10.299	-59.291	93.384	93.837	-60.978	-51.966	89.425	70.906	-56.068	-50.031	-45.719	-41.463	103.493	-46.067	-8191	255	
2256.407	1	1	0	0	0.044831	0.11681	0.14275	0.12214	0.10591	0.16135	0.19825	0.099457	0.13513	0.12639	0.24067	0.14224	0.19785	0.12604	0.0027833	0.28121	-2.9083	-2.7542	-3.2083	-2.9667	-2.6667	-3.0958	-2.9146	-2.9583	-3.2021	-2.7438	-3.1271	-3.2646	-2.6771	-3.2833	-2.825	-2.7396	206.437	175.821	250.078	241.036	283.152	11.130	144.440	-45.859	205.534	205.149	-42.339	233.106	51.516	-17.999	159.041	193.135	0.0001995	4.5452e-05	2.6554e-05	323.82	7.1912e-07	2.412e-06	454.67	105.06	5.0347e-07	7.0994e-07	172.21	73.494	48.24	30.265	1.4916e-06	43.227	4.4088e-05	3.749e-05	1.2338e-05	308.55	4.2154e-07	4.0399e-07	435.07	100.82	4.1296e-07	4.0839e-07	158.1	68.92	44.619	28.443	4.9678e-07	39.736	247.777	20.260	80.266	-59.595	110.158	45.484	-61.092	-51.908	65.473	76.154	-55.779	-50.547	-45.938	-41.164	64.427	-46.121	-8191	255	
2256.504	1	1	0	0	0.33546	0.18085	0.12891	0.14127	0.34209	0.032251	0.11176	0.25277	0.089905	0.25458	0.13595	0.17866	0.12497	0.23032	0.080602	0.13416	-2.8146	-2.8896	-2.8708	-3.2146	-2.7542	-3.3896	-3.0417	-2.9354	-3.2708	-2.8729	-3.1813	-2.9771	-2.8563	-3.1354	-2.9208	-2.8521	176.941	168.011	208.003	162.120	236.856	187.002	210.635	120.844	206.858	-5.375	138.995	44.837	59.702	224.463	256.502	30.822	0.00014588	3.2361e-05	7.8102e-05	324.7	1.3179e-06	1.5511e-06	457.91	104.92	2.4328e-06	8.4715e-07	172.69	72.728	47.673	29.584	1.0989e-06	42.27	4.248e-05	3.8587e-05	1.262e-05	309.42	4.1064e-07	4.3467e-07	438.04	101.27	3.9963e-07	4.4399e-07	158.99	68.171	44.224	27.83	4.8733e-07	38.616	246.937	133.087	65.261	-59.714	57.385	65.681	-61.209	-52.352	141.951	83.306	-55.814	-50.127	-45.922	-40.851	59.919	-45.958	-8191	255	
2256.623	1	1	0	0	0.16591	0.20161	0.25868	0.18263	0.039211	0.17803	0.099087	0.16695	0.17726	0.027755	0.32557	0.21507	0.19747	0.10289	0.050697	0.23545	-2.9104	-2.6813	-3.0042	-3.0458	-2.8625	-3.2938	-3.225	-2.8167	-3.2604	-2.7792	-3.0708	-3.1167	-2.8729	-3.0708	-3.0667	-2.9813	-54.838	61.308	64.646	99.305	-31.726	163.151	92.399	214.725	45.617	186.682	-9.741	82.396	168.324	-51.067	14.547	-66.025	0.00014695	0.00018972	3.1826e-05	327.25	8.688e-07	1.5428e-06	462.52	107.26	5.2542e-07	3.3077e-06	173.9	72.226	47.876	28.49	1.2531e-06	41.022	4.1795e-05	4.1811e-05	1.1994e-05	311.83	3.9861e-07	4.7196e-07	439.87	103.05	3.9469e-07	4.7431e-07	160.43	67.899	44.485	26.974	4.5685e-07	37.575	242.007	-6.811	28.106	-59.735	19.512	48.381	-60.998	-52.111	284.206	78.480	-55.908	-50.589	-46.067	-41.032	109.075	-45.944	-8191	255	
2256.719	1	1	0	0	0.055249	0.27382	0.21211	0.30663	0.070306	0.16473	0.20369	0.21119	0.1436	0.25182	0.18225	0.26682	0.052387	0.12427	0.093226	0.19086	-2.5542	-2.8688	-2.7188	-3.4042	-2.8063	-3.1542	-3.1583	-2.8625	-3.2687	-2.9792	-3.0146	-3.2458	-2.9792	-2.8896	-3.2083	-2.6813	134.828	-14.858	166.322	247.952	26.621	45.068	36.838	173.844	174.722	226.057	28.500	231.468	163.331	86.618	-9.309	243.338	0.00012574	0.00020126	6.9592e-05	331.87	1.8012e-06	2.4381e-06	466.62	110.27	1.4677e-06	2.2616e-06	177.33	74.635	49.683	28.783	1.9949e-06	41.249	4.2155e-05	4.4138e-05	1.1559e-05	316.23	4.1196e-07	4.8464e-07	443.23	105.84	4.2019e-07	4.7857e-07	163.91	69.709	45.953	27.173	4.3578e-07	37.784	249.494	-12.475	67.092	-59.540	113.844	-6.836	-61.302	-52.256	205.936	102.995	-55.897	-50.426	-45.970	-40.818	123.752	-46.057	-8191	255	
2256.816	1	1	0	0	0.30094	0.17816	0.27707	0.048245	0.13469	0.10361	0.31441	0.16445	0.083894	0.16343	0.13318	0.023697	0.17652	0.19318	0.11039	0.31998	-2.9771	-2.9938	-2.9625	-3.2167	-2.9604	-3.1437	-3.2208	-2.8208	-3.3479	-3.1375	-2.9896	-3.3292	-2.8021	-3.2729	-3.3646	-2.7479	210.377	243.037	144.015	128.339	229.341	-61.843	255.251	-58.439	44.590	-31.057	99.530	143.409	-45.982	253.055	266.641	67.647	0.00014058	0.00013098	5.9849e-05	328.75	1.8023e-07	1.5414e-06	467.79	111.43	9.8323e-07	2.0866e-06	181.24	75.076	49.745	28.783	1.0445e-06	41.145	4.3325e-05	4.3156e-05	1.0628e-05	314.27	4.2879e-07	4.6796e-07	442.95	106.64	4.4706e-07	4.6431e-07	165.86	70.336	46.398	27.064	4.1511e-07	37.8	248.617	-0.175	18.052	-59.360	-61.770	72.585	-61.132	-52.114	85.546	95.110	-55.888	-50.278	-45.983	-41.012	108.215	-46.230	-8191	255	
2256.936	1	1	0	0	0.13033	0.14766	0.14866	0.1534	0.13652	0.10075	0.088203	0.16513	0.20235	0.14219	0.33183	0.25421	0.070959	0.17924	0.1387	0.31792	-2.6625	-3.1875	-2.6417	-3.5062	-2.8875	-3.2687	-3.4125	-2.8771	-3.2354	-3.1437	-2.7583	-3.4271	-3.075	-3.075	-3.2188	-2.6437	37.623	49.797	282.149	-46.655	179.227	133.381	235.139	-65.436	12.965	182.589	-41.972	-42.754	244.441	-34.831	69.083	219.358	0.00014913	0.0002027	7.2249e-05	329.02	1.572e-06	2.519e-06	464.68	114.15	1.3254e-06	3.7228e-06	183.75	76.027	51.601	28.501	1.6456e-06	40.337	4.6841e-05	4.1695e-05	1.0788e-05	313.5	4.6703e-07	4.4871e-07	440.68	108.9	4.7387e-07	4.4381e-07	168.79	71.293	47.656	26.868	4.1908e-07	37.243	245.549	-37.231	17.251	-59.508	77.813	59.220	-60.868	-52.042	89.682	88.531	-56.090	-50.380	-46.350	-40.974	103.352	-45.985	-8191	255	
#DATA ENDS
