BOXY.EXE: ISS Imagent and Oximeter Data Acquisition Program Version 0.80
Ascii Record File

#ACQ INFORMATION
2  Detector Channels 
16  External MUX Channels 
1  Auxiliary Channels 
5000  Waveform (CCF) Frequency (Hz)
1  Waveforms Skipped 
30  Waveforms Averaged 
1  Cycles Averaged 
16  Acquisitions per Waveform 
10.0806  Updata Rate (Hz) 

#FILE INFORMATION
TRUE -- External MUX Channel results are PARSED.
FALSE -- AC DC and Phase are NOT grouped.
TRUE -- Companion Program Settings File CREATED.
FALSE -- AC data not excluded
FALSE -- DC data not excluded
FALSE -- Phase data not excluded
FALSE -- Auxillary Chn. data not excluded
Tab delimiters

#CALIBRATION STATE
TRUE -- Waveform Calibration Values APPLIED.


#AUX CALIBRATION VALUES
Val Type	aux-1	

Term	1.0000e+00	
Factor	0.0000e+00	


#WF CALIBRATION VALUES
A = Detector Channel
Val Type	A-AC1	A-AC2	A-AC3	A-AC4	A-AC5	A-AC6	A-AC7	A-AC8	A-AC9	A-AC10	A-AC11	A-AC12	A-AC13	A-AC14	A-AC15	A-AC16	A-DC1	A-DC2	A-DC3	A-DC4	A-DC5	A-DC6	A-DC7	A-DC8	A-DC9	A-DC10	A-DC11	A-DC12	A-DC13	A-DC14	A-DC15	A-DC16	A-Ph1	A-Ph2	A-Ph3	A-Ph4	A-Ph5	A-Ph6	A-Ph7	A-Ph8	A-Ph9	A-Ph10	A-Ph11	A-Ph12	A-Ph13	A-Ph14	A-Ph15	A-Ph16	

Term	0.00000e+00	0.00000e+00	0.00000e+00	0.00000e+00	0.00000e+00	0.00000e+00	0.00000e+00	0.00000e+00	0.00000e+00	0.00000e+00	0.00000e+00	0.00000e+00	0.00000e+00	0.00000e+00	0.00000e+00	0.00000e+00	0.00000e+00	0.00000e+00	0.00000e+00	0.00000e+00	0.00000e+00	0.00000e+00	0.00000e+00	0.00000e+00	0.00000e+00	0.00000e+00	0.00000e+00	0.00000e+00	0.00000e+00	0.00000e+00	0.00000e+00	0.00000e+00	0.00000e+00	0.00000e+00	0.00000e+00	0.00000e+00	0.00000e+00	0.00000e+00	0.00000e+00	0.00000e+00	0.00000e+00	0.00000e+00	0.00000e+00	0.00000e+00	0.00000e+00	0.00000e+00	0.00000e+00	0.00000e+00	
Factor	1.00000e+00	1.00000e+00	1.00000e+00	1.00000e+00	1.00000e+00	1.00000e+00	1.00000e+00	1.00000e+00	1.00000e+00	1.00000e+00	1.00000e+00	1.00000e+00	1.00000e+00	1.00000e+00	1.00000e+00	1.00000e+00	1.00000e+00	1.00000e+00	1.00000e+00	1.00000e+00	1.00000e+00	1.00000e+00	1.00000e+00	1.00000e+00	1.00000e+00	1.00000e+00	1.00000e+00	1.00000e+00	1.00000e+00	1.00000e+00	1.00000e+00	1.00000e+00	X	X	X	X	X	X	X	X	X	X	X	X	X	X	X	X	

B = Detector Channel
Val Type	B-AC1	B-AC2	B-AC3	B-AC4	B-AC5	B-AC6	B-AC7	B-AC8	B-AC9	B-AC10	B-AC11	B-AC12	B-AC13	B-AC14	B-AC15	B-AC16	B-DC1	B-DC2	B-DC3	B-DC4	B-DC5	B-DC6	B-DC7	B-DC8	B-DC9	B-DC10	B-DC11	B-DC12	B-DC13	B-DC14	B-DC15	B-DC16	B-Ph1	B-Ph2	B-Ph3	B-Ph4	B-Ph5	B-Ph6	B-Ph7	B-Ph8	B-Ph9	B-Ph10	B-Ph11	B-Ph12	B-Ph13	B-Ph14	B-Ph15	B-Ph16	

Term	0.00000e+00	0.00000e+00	0.00000e+00	0.00000e+00	0.00000e+00	0.00000e+00	0.00000e+00	0.00000e+00	0.00000e+00	0.00000e+00	0.00000e+00	0.00000e+00	0.00000e+00	0.00000e+00	0.00000e+00	0.00000e+00	0.00000e+00	0.00000e+00	0.00000e+00	0.00000e+00	0.00000e+00	0.00000e+00	0.00000e+00	0.00000e+00	0.00000e+00	0.00000e+00	0.00000e+00	0.00000e+00	0.00000e+00	0.00000e+00	0.00000e+00	0.00000e+00	-9.99014e+01	-1.28059e+02	-1.24292e+02	-1.80815e+02	-5.64162e+01	-6.70400e+01	-1.57141e+02	-1.62015e+02	-5.78422e+01	-6.46554e+01	-1.71605e+02	-1.71581e+02	-1.83471e+02	-1.76929e+02	-6.31455e+01	-1.49760e+02	
Factor	1.57090e-05	1.56009e-04	4.31416e-05	1.49598e-01	1.26044e-06	1.72627e-06	1.55617e-01	4.50887e-02	1.02207e-06	1.73542e-06	7.47621e-02	2.92882e-02	3.47003e-02	8.87559e-03	1.34979e-06	1.27559e-02	1.64394e-05	5.02448e-05	1.40396e-05	7.54145e-02	4.32544e-07	5.76823e-07	7.39352e-02	2.29014e-02	4.22910e-07	5.74600e-07	3.67841e-02	1.45451e-02	1.77443e-02	4.53651e-03	4.81585e-07	6.33307e-03	X	X	X	X	X	X	X	X	X	X	X	X	X	X	X	X	



#DISTANCE SETTINGS
A = Detector Channel
A-1	A-2	A-3	A-4	A-5	A-6	A-7	A-8	A-9	A-10	A-11	A-12	A-13	A-14	A-15	A-16	

2.5000e+00	3.0000e+00	2.5000e+00	3.0000e+00	2.0000e+00	3.0000e+00	1.5000e+00	3.0000e+00	3.0000e+00	3.0000e+00	3.0000e+00	3.0000e+00	3.0000e+00	3.0000e+00	1.5000e+00	3.0000e+00	

B = Detector Channel
B-1	B-2	B-3	B-4	B-5	B-6	B-7	B-8	B-9	B-10	B-11	B-12	B-13	B-14	B-15	B-16	

1.0000e+01	1.0000e+01	1.0000e+01	1.4400e+00	1.0000e+01	1.0000e+01	1.5100e+00	1.9400e+00	1.0000e+01	1.0000e+01	1.9900e+00	2.4900e+00	2.4100e+00	2.9000e+00	1.0000e+01	2.9800e+00	




#DATA BEGINS
time	group	step	mark	flag	A-AC1	A-AC2	A-AC3	A-AC4	A-AC5	A-AC6	A-AC7	A-AC8	A-AC9	A-AC10	A-AC11	A-AC12	A-AC13	A-AC14	A-AC15	A-AC16	A-DC1	A-DC2	A-DC3	A-DC4	A-DC5	A-DC6	A-DC7	A-DC8	A-DC9	A-DC10	A-DC11	A-DC12	A-DC13	A-DC14	A-DC15	A-DC16	A-Ph1	A-Ph2	A-Ph3	A-Ph4	A-Ph5	A-Ph6	A-Ph7	A-Ph8	A-Ph9	A-Ph10	A-Ph11	A-Ph12	A-Ph13	A-Ph14	A-Ph15	A-Ph16	B-AC1	B-AC2	B-AC3	B-AC4	B-AC5	B-AC6	B-AC7	B-AC8	B-AC9	B-AC10	B-AC11	B-AC12	B-AC13	B-AC14	B-AC15	B-AC16	B-DC1	B-DC2	B-DC3	B-DC4	B-DC5	B-DC6	B-DC7	B-DC8	B-DC9	B-DC10	B-DC11	B-DC12	B-DC13	B-DC14	B-DC15	B-DC16	B-Ph1	B-Ph2	B-Ph3	B-Ph4	B-Ph5	B-Ph6	B-Ph7	B-Ph8	B-Ph9	B-Ph10	B-Ph11	B-Ph12	B-Ph13	B-Ph14	B-Ph15	B-Ph16	aux-1	digaux	

14530.468	1	1	0	256	0.19133	0.14929	0.02354	0.43203	0.21702	0.17555	0.16955	0.31269	0.14346	0.22586	0.2214	0.16687	0.16445	0.16443	0.11086	0.24127	-2.6125	-3.1167	-2.9125	-3.225	-3.1063	-2.9437	-3.3688	-3.1729	-3.0542	-3.0958	-2.9417	-3.2271	-3.1729	-3.1312	-3.2021	-3.0687	467.569	203.494	481.005	489.552	445.326	511.408	432.765	445.200	457.685	512.905	494.711	443.868	363.686	427.970	433.708	423.220	0.00056484	0.00057614	0.00014303	1387.1	3.7216e-06	5.2862e-06	1384.6	387.24	5.2212e-06	4.8886e-06	441.62	153.1	133.94	49.025	5.8993e-06	59.821	0.00079416	0.0011619	0.00031782	1404.7	1.0923e-05	1.2767e-05	1401.4	393.48	1.1225e-05	1.2794e-05	449.77	156.87	137.04	50.237	1.192e-05	61.535	224.568	259.548	255.518	175.483	306.341	313.961	175.137	179.665	308.099	324.244	179.445	183.279	183.865	188.267	310.389	187.829	-8191	255	
14530.564	1	1	0	0	0.2682	0.1853	0.28238	0.35083	0.22435	0.060575	0.25661	0.21419	0.14052	0.089053	0.19928	0.26773	0.10282	0.29306	0.076812	0.18838	-2.6458	-3.0458	-2.7375	-3.3042	-3.0792	-2.75	-3.2271	-3.1875	-2.9042	-3.0125	-3.1792	-3.2125	-3.1792	-2.7917	-3.1437	-3.2104	405.449	353.396	332.927	466.526	341.781	281.062	469.037	478.415	213.783	204.333	194.054	492.740	213.388	454.581	214.270	498.104	0.00054402	0.00052449	7.7101e-05	1390.6	4.6551e-06	5.3188e-06	1378.7	386.54	5.4016e-06	5.7323e-06	442.71	152.75	134.03	48.97	6.3925e-06	59.91	0.00078375	0.0011485	0.00031735	1406.2	1.1325e-05	1.2388e-05	1399.7	393.41	1.122e-05	1.3116e-05	450.68	156.91	136.95	50.244	1.1707e-05	61.553	224.893	258.098	260.808	175.499	316.393	320.971	175.211	179.938	291.734	307.221	179.449	183.279	183.739	188.508	295.252	187.662	-8191	255	
14530.661	1	1	0	0	0.26887	0.2411	0.079179	0.31711	0.15988	0.17529	0.26544	0.47198	0.054925	0.08795	0.25959	0.24556	0.2753	0.15167	0.19271	0.32759	-2.6125	-3.2354	-2.9146	-3.1729	-3.0896	-2.8854	-3.3958	-3.2375	-2.8292	-3.1979	-3.0229	-3.2	-3.2458	-3.0271	-3.1458	-3.1813	511.947	316.593	443.250	449.552	421.948	429.346	479.143	488.567	510.978	379.472	423.235	476.796	492.043	231.207	213.713	447.134	0.00055333	0.0004881	0.00015912	1392.1	5.0075e-06	5.0333e-06	1380	387.07	4.845e-06	4.4614e-06	441.8	152.71	133.7	48.838	5.7625e-06	59.877	0.0007834	0.0011749	0.00032028	1405.6	1.1046e-05	1.2836e-05	1400.4	393.74	1.1259e-05	1.283e-05	449.54	156.75	136.96	50.179	1.1823e-05	61.588	221.902	257.019	250.785	175.267	309.338	312.089	175.304	179.754	297.462	321.179	179.269	183.351	183.877	188.586	300.152	187.647	-8191	255	
14530.781	1	1	0	0	0.112	0.17322	0.097943	0.091997	0.13656	0.14125	0.2042	0.32979	0.026439	0.14022	0.083012	0.15447	0.21382	0.20214	0.30136	0.25233	-2.4583	-2.9917	-2.9208	-3.3604	-3.2938	-2.8937	-3.2875	-3.2313	-2.9958	-3.2125	-3.2229	-3.1188	-3.2604	-3.1667	-3.0229	-3.2646	501.600	459.015	271.186	508.963	384.404	470.927	371.598	497.947	168.073	273.682	453.889	451.825	499.870	223.449	484.553	420.864	0.00056347	0.0004885	0.00014326	1386.6	4.3322e-06	5.3598e-06	1382	387.33	4.4252e-06	6.7702e-06	442.8	152.6	133.64	48.821	6.7956e-06	59.947	0.00078793	0.0011463	0.00031691	1405.4	1.1193e-05	1.3236e-05	1401	393.52	1.1293e-05	1.2804e-05	449.69	156.62	136.95	50.14	1.1799e-05	61.57	222.354	244.781	268.653	175.422	314.625	311.193	175.232	179.791	305.078	324.111	179.367	183.321	183.724	188.391	308.629	187.778	-8191	255	
14530.853	1	1	0	0	0.11774	0.052669	0.092307	0.20379	0.14095	0.042226	0.32925	0.35375	0.30464	0.051348	0.15131	0.058282	0.24089	0.089098	0.17308	0.089275	-2.3729	-3.0729	-2.9229	-3.0875	-3.1312	-2.9271	-3.1917	-3.2833	-2.8917	-3.2292	-3.1708	-2.9562	-3.4062	-3.1	-3.0125	-3.3042	267.175	254.553	479.180	488.502	215.238	449.831	418.450	465.209	184.383	363.988	460.354	419.686	197.651	498.930	421.659	501.602	0.0005507	0.00061285	0.00014166	1389.7	4.4292e-06	5.7607e-06	1382.2	386.32	5.7234e-06	4.1928e-06	440.11	152.55	133.76	48.993	4.886e-06	59.797	0.00078316	0.0012095	0.00031917	1405.2	1.0986e-05	1.312e-05	1401.1	393.41	1.095e-05	1.2759e-05	449.44	156.68	136.68	50.154	1.1594e-05	61.536	223.232	255.366	263.908	175.282	309.007	305.402	175.298	179.777	294.935	310.883	179.370	183.438	183.748	188.597	300.040	187.679	-8191	255	
14530.949	1	1	0	0	0.012074	0.12099	0.092499	0.10921	0.25199	0.2382	0.33523	0.10485	0.084774	0.14783	0.059883	0.32488	0.18117	0.3112	0.18097	0.097147	-2.5479	-3.0375	-2.9313	-3.2	-3.2875	-3.0104	-3.1417	-3.2208	-2.7917	-3.0104	-3.15	-2.8958	-3.35	-2.9396	-3.0687	-3.4042	474.475	441.738	451.876	506.638	400.584	452.687	478.310	508.964	412.940	383.205	163.164	173.616	181.995	286.797	475.039	492.900	0.00056119	0.00071735	0.0001653	1390.8	3.5903e-06	5.5009e-06	1383.2	386.51	4.7487e-06	5.697e-06	441.46	153.1	133.76	48.726	4.7885e-06	59.655	0.00079563	0.0011592	0.00031776	1405.9	1.0887e-05	1.3066e-05	1400.4	393.32	1.1285e-05	1.2681e-05	448.81	156.53	136.77	50.056	1.2134e-05	61.502	224.322	248.045	258.491	175.340	313.031	316.465	175.294	179.708	304.190	306.521	179.357	183.362	183.766	188.471	306.971	187.637	-8191	255	
14531.045	1	1	0	0	0.22373	0.18818	0.08763	0.29575	0.11572	0.076475	0.23073	0.35202	0.077326	0.18559	0.29556	0.32474	0.12566	0.14878	0.072192	0.10458	-2.2167	-2.8688	-3.05	-2.9792	-3.1292	-2.9708	-3.0708	-3.3854	-2.7729	-3.1875	-3.2729	-3.0125	-3.3979	-3.2146	-2.95	-3.325	309.756	347.301	225.208	515.563	518.413	350.396	460.782	498.487	432.257	288.307	465.231	487.144	214.590	517.931	505.438	432.746	0.00053851	0.00054402	0.0001497	1387.9	4.6227e-06	5.1426e-06	1381.9	386.37	5.4035e-06	6.8756e-06	442.12	152.59	133.59	48.748	5.634e-06	59.754	0.0007907	0.0011719	0.00031955	1405	1.1107e-05	1.3021e-05	1400.8	393.16	1.1354e-05	1.3272e-05	449.33	156.46	136.64	50.066	1.1919e-05	61.514	223.561	264.023	259.543	175.442	302.375	307.325	175.169	179.942	310.493	300.649	179.361	183.435	183.755	188.287	302.589	187.851	-8191	255	
14531.164	1	1	0	0	0.2388	0.028731	0.11982	0.044404	0.10135	0.17798	0.33149	0.1615	0.14693	0.097771	0.089384	0.090256	0.34798	0.059638	0.17311	0.20937	-2.4625	-3.2583	-3.0229	-2.9833	-3.0646	-3	-3.2354	-3.4271	-2.8396	-3.0479	-3.3937	-2.9167	-3.1875	-3.2292	-2.7729	-3.4896	461.404	463.749	407.168	426.822	310.236	502.297	441.056	456.902	329.511	379.968	495.184	492.420	204.542	505.798	343.326	406.459	0.00056246	0.00046857	0.00016284	1388.5	4.8429e-06	3.9749e-06	1381.5	386.77	5.4955e-06	4.998e-06	441.43	153.52	133.76	48.987	5.3664e-06	59.763	0.00079549	0.0011419	0.00032958	1404.8	1.1323e-05	1.2855e-05	1401.2	393.45	1.134e-05	1.2871e-05	449.69	156.77	136.87	50.115	1.1841e-05	61.439	224.701	265.186	257.351	175.228	312.350	296.815	175.324	179.777	304.984	308.450	179.527	183.494	183.829	188.409	294.895	188.019	-8191	255	
14531.260	1	1	0	0	0.15196	0.2296	0.28859	0.15597	0.099499	0.077807	0.60296	0.37868	0.039788	0.282	0.27308	0.30938	0.33438	0.24943	0.012301	0.097282	-2.5854	-3.0396	-3.1854	-3.2521	-3.3375	-3.0083	-3.2562	-3.2896	-3.0812	-3.0854	-3.3438	-3.1312	-3.0958	-3.0479	-2.9	-3.2917	308.008	290.423	278.187	509.778	494.856	248.937	439.897	501.757	466.815	301.756	224.862	406.867	489.872	511.585	295.732	392.177	0.00053311	0.00054091	0.00017362	1388.7	5.6767e-06	4.8562e-06	1376	385.7	5.1356e-06	6.5325e-06	442.79	152.7	133.5	48.722	4.8256e-06	59.769	0.00078488	0.0011465	0.00030925	1405.3	1.1423e-05	1.2884e-05	1399.4	392.68	1.138e-05	1.3126e-05	449.4	156.42	136.73	50.054	1.2115e-05	61.477	223.497	232.148	253.336	175.297	309.863	339.122	175.368	179.762	298.489	324.358	179.322	183.352	183.615	188.348	307.966	187.664	-8191	255	
14531.356	1	1	0	0	0.18671	0.30731	0.088452	0.27045	0.0031423	0.16245	0.46797	0.38896	0.23884	0.072744	0.32066	0.2037	0.19186	0.12461	0.27246	0.045474	-2.5229	-2.8271	-3.1625	-3.0542	-3.1958	-3.2479	-3.0708	-3.4229	-2.9104	-3.1667	-3.475	-3	-3.2396	-3.3063	-2.9188	-3.3063	207.691	354.019	457.609	197.361	199.970	311.307	466.043	491.470	356.771	470.594	444.399	441.627	310.933	462.359	445.022	347.166	0.00054639	0.00048256	0.00016299	1380.9	5.7708e-06	6.4551e-06	1379.7	385.42	5.0584e-06	6.5335e-06	442.63	152.35	132.78	48.891	4.0425e-06	59.841	0.00078611	0.0011165	0.0003115	1403	1.1295e-05	1.2933e-05	1400	392.49	1.1226e-05	1.2963e-05	449.5	156.32	136.24	50.125	1.2222e-05	61.476	223.588	256.223	247.426	175.467	304.335	305.204	175.166	179.967	289.557	310.342	179.240	183.410	183.957	188.579	306.977	187.658	-8191	255	
14531.452	1	1	0	0	0.33332	0.065183	0.12295	0.41667	0.1601	0.083602	0.20612	0.46055	0.36464	0.14336	0.10702	0.2999	0.11196	0.15727	0.11664	0.35386	-2.6125	-2.975	-3.2417	-3.0021	-3.0583	-3.1021	-3.0604	-3.3958	-2.9792	-2.9313	-3.2542	-3.1604	-3.125	-3.3958	-3.0667	-3.2188	268.220	185.372	254.650	461.448	234.345	305.346	454.541	446.025	441.885	255.251	202.963	465.959	503.557	459.931	402.132	469.556	0.00058891	0.00057864	0.00015657	1383.8	5.9065e-06	5.3048e-06	1378.9	385.43	4.7663e-06	4.5706e-06	438.94	151.71	133.11	48.664	5.2426e-06	59.826	0.00079454	0.0011686	0.00033072	1400.8	1.1285e-05	1.3042e-05	1396.3	391.96	1.126e-05	1.3107e-05	448.38	156.1	136.37	49.959	1.2135e-05	61.389	222.548	250.503	254.893	175.388	316.326	319.515	175.145	179.624	293.814	303.570	179.449	183.420	183.864	188.304	319.853	187.814	-8191	255	
14531.549	1	1	0	0	0.14075	0.13079	0.15745	0.24483	0.1868	0.10701	0.31903	0.22809	0.14387	0.34678	0.18395	0.074006	0.34152	0.10008	0.13533	0.16393	-2.5958	-3.0563	-3.225	-3.1271	-2.9792	-3.1688	-3.0958	-3.4833	-3.1208	-2.8583	-3.3167	-3.1917	-3.0563	-3.5167	-2.8833	-3.1	485.594	480.734	293.184	519.182	240.827	222.992	436.845	442.690	250.868	304.389	162.553	407.031	334.596	478.052	290.493	462.135	0.00055201	0.00051619	0.00014146	1382.3	4.7572e-06	7.0068e-06	1376.2	385.06	5.9115e-06	5.9035e-06	438.67	151.47	132.43	48.558	5.0257e-06	59.549	0.00079543	0.0011578	0.00032586	1399.5	1.1447e-05	1.3063e-05	1394.5	391.53	1.11e-05	1.3012e-05	447.17	155.51	135.81	49.812	1.1799e-05	61.27	223.236	255.138	253.400	175.236	300.324	301.479	175.044	179.871	296.342	308.993	179.412	183.312	183.758	188.598	305.450	187.788	-8191	255	
14531.645	1	1	0	0	0.1655	0.14203	0.048571	0.17675	0.2191	0.038603	0.23463	0.26127	0.17388	0.24904	0.22675	0.40572	0.21217	0.098555	0.070012	0.12267	-2.6708	-3.0271	-3.2833	-3.1646	-3.0312	-3.4271	-3.0479	-3.425	-3.2021	-2.9021	-3.2583	-3.1688	-2.9854	-3.3771	-2.975	-3.1417	447.236	262.798	259.481	492.931	402.970	284.240	459.245	451.929	403.656	244.005	491.936	467.951	199.683	185.872	373.499	520.520	0.00054574	0.00036931	0.00016809	1379.1	4.5942e-06	5.0094e-06	1374.7	384.73	4.8147e-06	5.6373e-06	437.12	151.36	132.5	48.506	6.0216e-06	59.36	0.00079056	0.0011527	0.00031806	1395.9	1.1469e-05	1.2632e-05	1392.7	390.47	1.1268e-05	1.314e-05	445.98	155.19	135.63	49.764	1.2175e-05	61.054	224.104	253.467	259.394	175.378	300.610	301.881	175.115	179.717	289.669	307.717	179.473	183.392	183.724	188.483	313.673	187.821	-8191	255	
14531.765	1	1	0	0	0.19626	0.18836	0.13173	0.4074	0.092766	0.081001	0.29847	0.19499	0.042755	0.16343	0.22852	0.17477	0.17736	0.19346	0.15845	0.30606	-2.7958	-2.9167	-3.2521	-3.3896	-3.0792	-3.1479	-3.1646	-3.3104	-3.0958	-2.9542	-3.2833	-3.2167	-2.9958	-3.4208	-2.9521	-3.1063	175.490	387.943	168.210	453.064	470.089	382.112	477.810	403.891	254.255	470.296	165.353	472.973	519.002	502.491	277.349	489.487	0.00053096	0.00059479	0.00015818	1381.3	4.3013e-06	5.9225e-06	1374.6	384.35	5.4143e-06	6.0817e-06	439.32	151.2	132.24	48.685	5.2755e-06	59.377	0.00078358	0.001173	0.00032993	1394.6	1.1499e-05	1.3033e-05	1393.2	390.59	1.1287e-05	1.3058e-05	446.94	155.39	135.56	49.807	1.2044e-05	61.077	224.828	242.016	254.379	175.359	318.166	315.541	175.223	180.003	294.664	317.220	179.440	183.275	183.795	188.526	302.530	187.755	-8191	255	
14531.862	1	1	0	0	0.091195	0.22613	0.15628	0.21246	0.18204	0.060145	0.10107	0.18119	0.091197	0.17024	0.14226	0.15654	0.090555	0.028954	0.099786	0.22563	-2.6583	-2.825	-3.0646	-3.2333	-2.9479	-3.2083	-3.25	-3.1771	-3.0958	-2.8979	-3.2188	-3.0229	-3.0229	-3.3021	-2.9375	-3.15	364.169	421.922	235.444	444.133	472.945	248.013	474.401	410.674	228.874	206.752	469.342	500.803	343.340	421.356	200.651	439.709	0.00053857	0.00042806	0.0001356	1379.4	4.8258e-06	4.1706e-06	1373	382.84	5.5452e-06	5.3621e-06	439.38	151.23	132.77	48.701	4.4997e-06	59.521	0.00077114	0.0011841	0.00032481	1396	1.1367e-05	1.2803e-05	1391.3	390.28	1.1124e-05	1.3017e-05	446.55	155.22	135.63	49.832	1.207e-05	61.129	222.245	241.639	251.105	175.477	311.045	307.041	175.156	179.966	307.690	317.139	179.409	183.338	183.956	188.475	291.077	187.558	-8191	255	
14531.956	1	1	0	0	0.34656	0.096719	0.1323	0.22759	0.1491	0.082255	0.32922	0.39646	0.088864	0.19232	0.18505	0.17289	0.013674	0.13355	0.19843	0.14291	-2.7708	-2.9625	-3.0646	-3.2938	-2.875	-3.1729	-3.2375	-3.1583	-3.2854	-3.0312	-3.0333	-3.2854	-2.8417	-3.1	-2.9604	-2.9562	372.225	422.909	261.767	517.933	492.038	506.186	432.280	469.043	206.984	420.364	482.742	520.113	279.137	190.608	300.982	513.136	0.00054793	0.00046151	0.00014098	1383.6	4.8956e-06	4.4014e-06	1377.4	382.86	5.6911e-06	6.2456e-06	438.96	151.95	132.65	48.52	4.7257e-06	59.764	0.00078731	0.0011533	0.00032774	1398	1.1275e-05	1.2942e-05	1391.5	390.46	1.1314e-05	1.2967e-05	446.5	155.7	135.86	49.792	1.1861e-05	61.217	222.168	254.851	251.734	175.395	317.671	325.105	175.267	179.994	308.690	316.685	179.471	183.348	183.590	188.481	315.808	187.676	-8191	255	
14532.054	1	1	0	0	0.089348	0.11987	0.14242	0.25281	0.12777	0.024607	0.24045	0.38039	0.24884	0.15364	0.16529	0.2864	0.12816	0.23685	0.16782	0.11625	-2.8354	-2.8792	-2.9729	-3.25	-2.8396	-3.2188	-3.0792	-2.9917	-3.1771	-2.8354	-3.1667	-3.2729	-2.9958	-3.2083	-2.9771	-3.075	166.014	297.304	401.157	515.967	381.484	200.836	469.874	448.873	443.587	262.971	471.351	199.256	191.113	505.183	467.866	475.757	0.00054198	0.00054469	0.00017691	1378	5.2635e-06	6.9275e-06	1367.1	383.65	5.3128e-06	5.3927e-06	438.38	152.46	132.64	48.601	4.3745e-06	59.614	0.0007856	0.0011431	0.00032347	1397.7	1.1297e-05	1.298e-05	1390.3	390.51	1.114e-05	1.273e-05	446.15	155.7	135.71	49.853	1.16e-05	61.182	223.187	262.016	256.332	175.381	301.320	315.007	175.265	179.861	304.928	323.163	179.430	183.377	183.939	188.343	303.930	187.682	-8191	255	
14532.148	1	1	0	0	0.15249	0.088297	0.1121	0.28197	0.18639	0.10027	0.23783	0.034047	0.14972	0.14414	0.14426	0.11912	0.069495	0.085466	0.10419	0.33255	-2.8542	-2.9062	-2.8708	-3.4354	-3.0042	-3.1292	-3.1396	-2.9562	-3.0042	-2.9313	-3.0083	-3.2833	-2.8646	-3.25	-3.0333	-2.9833	468.652	404.373	416.099	498.560	326.500	345.454	477.033	206.891	281.545	495.591	498.827	452.688	180.727	187.152	479.993	482.084	0.00056855	0.00055021	0.00015582	1381.7	3.8665e-06	5.6553e-06	1373.6	383.13	5.6635e-06	4.297e-06	439.46	152.24	133.14	48.65	5.6088e-06	59.497	0.00079313	0.0011886	0.00031852	1397.4	1.112e-05	1.2541e-05	1392.7	390.46	1.1196e-05	1.3367e-05	446.6	155.7	135.87	49.831	1.2057e-05	61.211	225.169	258.582	257.431	175.318	316.365	301.876	175.305	179.827	305.020	315.651	179.286	183.499	183.745	188.474	305.108	187.675	-8191	255	
14532.244	1	1	0	0	0.096758	0.32163	0.2275	0.053633	0.16142	0.18297	0.19607	0.2733	0.10725	0.19906	0.065649	0.18202	0.20342	0.23859	0.15987	0.2441	-2.7062	-3.0354	-2.7375	-3.5187	-2.9042	-3.1083	-3.2333	-2.9958	-3.2188	-3.0625	-2.95	-3.3396	-2.9979	-3.0875	-3.1583	-3.1729	352.803	401.450	504.886	382.249	416.566	445.444	433.651	477.383	178.431	306.296	404.838	233.623	175.762	471.260	176.025	472.491	0.00054636	0.00056911	0.00015694	1382.7	4.9305e-06	4.7061e-06	1372.1	384.26	4.611e-06	5.5268e-06	438.71	152.04	133.15	48.593	6.3053e-06	59.535	0.00078248	0.001126	0.00031469	1398.8	1.1456e-05	1.31e-05	1392.5	390.81	1.1117e-05	1.2954e-05	446.97	155.56	135.93	49.845	1.2302e-05	61.156	222.054	243.298	247.781	175.361	313.442	307.639	175.234	179.917	295.203	321.134	179.393	183.351	183.897	188.481	312.322	187.667	-8191	255	
14532.341	1	1	0	0	0.14947	0.46641	0.065342	0.27925	0.11631	0.11767	0.32647	0.23483	0.4863	0.27109	0.22335	0.065955	0.21171	0.13778	0.086026	0.1772	-2.4562	-2.9208	-2.9021	-3.4271	-2.9771	-2.9729	-3.5729	-3.1396	-3.0854	-3	-3.0375	-3.2458	-2.9667	-3.2646	-3.3771	-2.7562	372.483	353.464	246.939	463.283	319.000	175.008	509.411	428.587	180.870	512.322	413.563	162.742	434.483	390.158	252.248	422.861	0.00055253	0.000686	0.00016604	1376.3	4.0451e-06	5.7119e-06	1371.4	383.52	4.4238e-06	5.5693e-06	437.78	151.93	132.55	48.698	4.75e-06	59.369	0.00077775	0.0011677	0.00032355	1393.4	1.1158e-05	1.3301e-05	1389.8	390.36	1.1133e-05	1.2726e-05	446.44	155.73	135.81	49.932	1.2074e-05	61.106	221.211	257.661	263.906	175.382	297.461	324.860	175.307	179.816	303.985	295.734	179.361	183.398	183.687	188.588	304.095	187.921	-8191	255	
14532.461	1	1	0	0	0.10348	0.17288	0.14584	0.2067	0.050291	0.17476	0.19372	0.11554	0.036612	0.28948	0.19646	0.31062	0.19156	0.1551	0.074946	0.17802	-2.6542	-2.8229	-2.9208	-3.4021	-2.9542	-3.0458	-3.5083	-2.9479	-3.0521	-3.15	-3.0396	-3.1646	-2.9562	-3.0438	-3.2354	-2.9646	208.753	521.254	297.383	460.861	471.134	176.930	463.452	438.691	162.779	324.201	416.692	463.951	521.307	432.698	365.791	192.330	0.00056072	0.00069217	0.00015592	1378.9	5.4403e-06	7.1273e-06	1371.6	383.8	4.9118e-06	6.7191e-06	438.27	152.16	132.24	48.525	5.4538e-06	59.451	0.00079262	0.0011402	0.00032464	1397.3	1.0938e-05	1.2568e-05	1391.9	390.86	1.1403e-05	1.299e-05	446.75	155.72	135.7	49.835	1.1608e-05	61.117	222.942	247.709	260.316	175.408	311.408	317.264	175.391	179.634	295.790	322.589	179.358	183.242	183.647	188.545	298.346	187.620	-8191	255	
14532.557	1	1	0	0	0.3581	0.12512	0.21234	0.35949	0.083059	0.11765	0.28332	0.39261	0.041986	0.071536	0.079425	0.069284	0.19622	0.099448	0.15065	0.045168	-2.5958	-3.1333	-2.8625	-3.4333	-2.9833	-2.8146	-3.3729	-3.2271	-3.0938	-3.15	-3.0583	-3.2812	-3.2208	-2.8646	-3.1125	-2.8729	360.480	272.144	255.797	477.437	376.418	371.270	434.326	519.391	390.908	369.914	447.340	175.985	425.683	334.208	227.384	515.839	0.00053046	0.0004822	0.00014123	1376.2	4.922e-06	5.2009e-06	1375.5	383.47	3.9711e-06	7.136e-06	438.1	151.77	132.5	48.477	3.9977e-06	59.566	0.00078289	0.0011476	0.00032525	1393.9	1.1323e-05	1.3042e-05	1391.8	390.47	1.1357e-05	1.2693e-05	446.22	155.16	135.66	49.744	1.1546e-05	61.143	223.244	257.295	253.145	175.177	307.467	337.674	175.253	179.906	287.672	316.345	179.608	183.603	183.897	188.597	302.215	187.665	-8191	255	
14532.653	1	1	0	0	0.13611	0.090668	0.039789	0.28018	0.30895	0.14115	0.2074	0.2644	0.1991	0.23812	0.11041	0.22218	0.066173	0.24337	0.1473	0.23595	-2.6292	-3.1312	-2.8271	-3.1292	-3.1813	-2.9417	-3.2146	-3.2313	-2.9729	-3.3563	-3.0646	-3.1042	-3.0771	-3.0729	-3.1083	-3.1167	226.782	240.631	222.589	483.874	442.365	236.899	474.031	202.352	335.541	449.117	328.264	457.733	405.439	423.101	328.875	448.155	0.00054562	0.00055887	0.00013756	1378.4	4.6821e-06	3.6796e-06	1371.5	382.73	4.1696e-06	4.1406e-06	436.92	151.54	131.54	48.382	4.1486e-06	59.458	0.00079101	0.0011671	0.00031542	1393.8	1.1312e-05	1.2798e-05	1388.8	389.62	1.0974e-05	1.2956e-05	445.11	155.25	135.11	49.641	1.2222e-05	61.076	221.296	238.165	242.145	175.312	313.912	329.275	175.312	179.967	285.726	308.489	179.255	183.344	183.628	188.684	298.258	187.893	-8191	255	
14532.725	1	1	0	0	0.049384	0.16782	0.19235	0.1425	0.28281	0.10178	0.072364	0.16258	0.18044	0.1002	0.21489	0.27733	0.074859	0.30766	0.2324	0.084874	-2.5542	-3.2042	-2.775	-3.2104	-3.1458	-2.8271	-3.5417	-3.2104	-2.8521	-3.2438	-3.0812	-3.3396	-3.5125	-2.9833	-3.0083	-3.0771	477.289	206.427	517.665	446.238	462.161	462.526	461.763	497.480	320.098	410.687	193.849	466.457	295.439	516.219	438.426	416.397	0.00055455	0.00062744	0.00012531	1373.2	5.9472e-06	5.0742e-06	1368.3	382.9	5.3282e-06	5.6448e-06	436.05	151.23	132.69	48.223	5.1052e-06	59.378	0.00079762	0.0011295	0.00032001	1392.5	1.1116e-05	1.2945e-05	1388.8	389.21	1.1622e-05	1.307e-05	445.09	154.75	135.38	49.61	1.2057e-05	60.928	223.980	253.620	272.600	175.386	306.634	311.316	174.989	179.801	290.932	305.737	179.413	183.518	183.777	188.192	306.055	187.694	-8191	255	
14532.846	1	1	0	0	0.17032	0.046378	0.16689	0.27404	0.13321	0.15236	0.30194	0.21387	0.19594	0.1194	0.15034	0.010615	0.26989	0.14733	0.34379	0.26653	-2.3958	-3.1542	-2.9146	-3.2583	-3.1854	-2.8667	-3.3271	-3.1854	-2.875	-3.2125	-3.0875	-3.0125	-3.1979	-3.0312	-3.0917	-3.2229	269.241	490.304	354.914	454.977	252.487	281.687	454.176	453.837	282.392	290.448	453.614	413.642	497.701	192.061	413.567	464.805	0.00053761	0.00054969	0.0001436	1377.1	4.8257e-06	5.7826e-06	1369.3	382.1	4.7542e-06	4.7207e-06	437.29	150.73	132	48.428	5.5133e-06	59.393	0.00079022	0.0010998	0.00031572	1392.4	1.1243e-05	1.262e-05	1387.2	389.01	1.1231e-05	1.2998e-05	444.67	154.74	135.08	49.598	1.1751e-05	60.937	223.296	239.255	249.232	175.338	295.794	304.237	175.305	179.815	298.006	305.561	179.379	183.409	183.910	188.527	322.262	187.703	-8191	255	
14532.942	1	1	0	0	0.22961	0.27938	0.12249	0.27197	0.20105	0.096932	0.3879	0.17777	0.13573	0.10913	0.092029	0.12144	0.11203	0.16111	0.17718	0.1446	-2.5146	-3.1875	-3.05	-3.2771	-3.2542	-2.9667	-3.275	-3.3937	-2.9729	-3.1479	-3.1521	-3.0521	-3.15	-3.0479	-3.0542	-3.1375	333.031	327.623	329.395	419.560	428.340	515.535	446.671	504.866	440.820	463.908	309.882	377.790	465.558	484.218	365.765	433.777	0.0005395	0.00043588	0.00014275	1376	5.2706e-06	4.6802e-06	1365.9	383.63	5.4135e-06	5.4051e-06	436.7	151.45	131.79	48.346	5.7686e-06	59.39	0.00078471	0.0011179	0.00032879	1392.6	1.1349e-05	1.2843e-05	1388.4	389.55	1.1002e-05	1.3041e-05	445.02	154.98	135.25	49.607	1.2198e-05	61.028	223.981	255.744	251.098	175.312	307.954	302.076	175.177	179.782	310.871	312.458	179.331	183.389	183.642	188.520	304.606	187.828	-8191	255	
14533.038	1	1	0	0	0.16582	0.067186	0.12765	0.21984	0.13759	0.13038	0.077266	0.48732	0.25831	0.069078	0.029164	0.096822	0.24905	0.30585	0.0090134	0.20252	-2.5542	-3.1792	-2.8583	-3.1542	-3.1104	-3.1188	-3.1875	-3.3208	-2.9125	-3.2062	-3.1875	-2.9938	-3.275	-3.2	-3.2396	-3.2021	269.845	375.812	316.662	511.348	188.239	331.760	429.122	458.441	457.253	286.528	268.378	220.687	520.402	466.516	282.058	401.680	0.00055438	0.00056924	0.00015825	1377	4.8484e-06	5.6661e-06	1370.5	381.94	5.2456e-06	5.6203e-06	436.83	150.97	132.06	48.366	5.3207e-06	59.239	0.00078868	0.0011501	0.00032127	1391.5	1.115e-05	1.3012e-05	1388.7	388.77	1.1375e-05	1.3009e-05	444.62	154.83	135.11	49.645	1.1971e-05	60.947	224.763	246.015	249.237	175.306	291.487	315.533	175.314	179.784	313.995	310.709	179.449	183.476	183.873	188.592	298.446	187.654	-8191	255	
14533.134	1	1	0	0	0.042071	0.13105	0.15427	0.29761	0.18609	0.057319	0.19124	0.20965	0.20317	0.13011	0.34041	0.051544	0.20155	0.27749	0.22931	0.19285	-2.5	-3.0333	-3.0812	-3.1354	-3.0333	-3.0208	-3.1813	-3.325	-3.0646	-3.0354	-3.1396	-2.9688	-3.3292	-3.2583	-3.0687	-3.3729	242.534	508.814	319.756	464.421	186.568	274.555	426.738	447.961	474.248	283.748	445.845	262.255	503.147	181.443	329.309	372.429	0.00055076	0.00049108	0.00012673	1375.7	5.2426e-06	5.3621e-06	1365.1	381.65	5.1888e-06	5.4478e-06	436.58	150.99	131.99	48.44	4.2295e-06	59.243	0.00078988	0.0012011	0.00033543	1391.8	1.1507e-05	1.3309e-05	1387.3	388.88	1.1246e-05	1.3452e-05	444.68	154.61	135.09	49.608	1.233e-05	60.818	224.733	252.418	259.038	175.388	306.982	304.756	175.149	179.973	295.967	335.865	179.557	183.406	183.830	188.561	318.083	187.795	-8191	255	
14533.253	1	1	0	0	0.36378	0.11803	0.07816	0.041927	0.12201	0.086476	0.13313	0.20803	0.20461	0.21669	0.09186	0.21253	0.061113	0.099355	0.20386	0.41305	-2.4458	-2.9938	-2.9458	-3	-3.1104	-2.9521	-3.1229	-3.3896	-2.9479	-3.1229	-3.3271	-2.9417	-3.25	-3.1708	-3.0854	-3.3021	418.691	289.259	187.616	477.961	236.107	324.684	405.229	485.509	405.703	388.746	337.697	399.257	357.342	450.994	426.154	407.395	0.00056611	0.00060815	0.00014263	1374.2	4.885e-06	4.7638e-06	1369.3	381.71	5.166e-06	5.0364e-06	435.9	151.6	131.76	48.199	4.8394e-06	59.037	0.00079241	0.0011414	0.00032148	1391.6	1.1242e-05	1.2903e-05	1387.4	388.63	1.1504e-05	1.2887e-05	444.16	154.92	135.09	49.48	1.2143e-05	60.829	223.592	267.060	253.876	175.357	306.159	280.827	175.307	179.848	292.600	311.207	179.159	183.348	183.925	188.585	323.189	187.861	-8191	255	
14533.327	1	1	0	0	0.016366	0.084752	0.050818	0.17975	0.19345	0.17854	0.031293	0.24679	0.17043	0.23254	0.072558	0.11589	0.13764	0.22902	0.035559	0.22884	-2.6292	-3.0458	-3.2062	-3.0708	-2.9938	-2.8979	-3.1625	-3.175	-3.0083	-2.9896	-3.3521	-2.7896	-3.2083	-3.2958	-2.7708	-3.1583	182.707	207.605	508.957	469.517	488.697	231.000	515.685	509.515	404.243	206.394	349.042	483.867	168.806	452.702	233.878	495.241	0.00053589	0.0006077	0.00013814	1374.8	3.9106e-06	5.592e-06	1370.2	382.27	4.7539e-06	4.9814e-06	436.5	150.95	131.48	48.196	4.1075e-06	58.982	0.00078344	0.0011856	0.0003239	1391.1	1.142e-05	1.3036e-05	1387	388.46	1.1614e-05	1.3139e-05	444.6	154.45	134.98	49.478	1.2158e-05	60.763	223.183	241.869	254.240	175.298	291.990	312.177	175.279	179.904	304.904	323.193	179.455	183.189	183.957	188.527	313.187	187.836	-8191	255	
14533.445	1	1	0	0	0.19634	0.10275	0.39091	0.14814	0.17731	0.11608	0.11512	0.19253	0.35563	0.1653	0.28946	0.39923	0.24446	0.39283	0.11879	0.14716	-2.7292	-3.0958	-3.0979	-3.1521	-3.2729	-3.075	-3.1708	-3.4188	-2.975	-2.9604	-3.1604	-3.0646	-3.2979	-3.1688	-2.8417	-3.3729	472.609	378.109	342.003	467.997	340.772	451.106	225.246	499.518	460.338	461.764	487.586	497.159	278.847	397.961	429.267	438.345	0.00052305	0.00056546	0.0001441	1374.4	4.4653e-06	5.525e-06	1363.6	381.91	4.873e-06	4.8943e-06	434.66	150.33	131.17	48.11	4.7772e-06	58.998	0.0007932	0.0011789	0.00032227	1391.2	1.1387e-05	1.3236e-05	1383.4	388	1.1512e-05	1.3361e-05	442.96	154.11	134.62	49.372	1.2395e-05	60.605	222.054	258.831	246.616	175.359	302.511	311.712	175.188	179.729	300.207	313.344	179.347	183.397	183.950	188.504	298.770	187.803	-8191	255	
14533.542	1	1	0	0	0.21706	0.13719	0.19569	0.23441	0.26157	0.20301	0.29817	0.17989	0.15667	0.11685	0.054254	0.27934	0.19385	0.0066168	0.082514	0.14746	-2.5146	-2.9938	-3.0458	-3.2021	-3.2	-3.1688	-3.0604	-3.4708	-3.0167	-2.9896	-3.3771	-3.0271	-3.2771	-3.1708	-2.9396	-3.3396	435.774	457.668	226.342	499.037	230.080	284.737	431.936	515.781	173.847	235.672	398.980	474.040	250.545	388.742	467.958	499.948	0.00056107	0.00070033	0.00016974	1370.8	5.0802e-06	6.0065e-06	1360.8	379.51	5.2113e-06	4.7014e-06	434.86	150.27	131.53	48.019	5.3861e-06	59.272	0.00080385	0.0011984	0.00032434	1388	1.135e-05	1.3569e-05	1382.3	386.99	1.1567e-05	1.3066e-05	442.55	154.17	134.7	49.35	1.2477e-05	60.77	222.666	253.634	253.454	175.563	305.813	303.289	175.202	179.800	298.746	308.323	179.422	183.399	183.872	188.731	317.342	187.855	-8191	255	
14533.638	1	1	0	0	0.29298	0.0077018	0.085016	0.28922	0.15521	0.17123	0.32263	0.10775	0.18182	0.18041	0.049011	0.28789	0.15843	0.20914	0.1354	0.065146	-2.6188	-2.9396	-3.2062	-2.8417	-2.9604	-3.1771	-2.9313	-3.35	-2.9979	-2.875	-3.3625	-3.175	-3.0292	-3.2229	-3.0833	-3.3583	175.227	302.437	370.878	176.530	415.367	514.242	484.304	388.285	377.203	280.827	289.549	501.097	196.704	481.100	463.731	189.180	0.00054615	0.00064114	0.00012088	1373	5.5549e-06	6.597e-06	1364.1	381.33	4.6818e-06	4.5176e-06	435.65	150.36	131.7	48.018	4.9424e-06	58.821	0.00078549	0.0011892	0.00032417	1388.4	1.1334e-05	1.3208e-05	1382.8	386.99	1.1509e-05	1.3292e-05	442.7	154.02	134.44	49.232	1.2143e-05	60.502	221.720	255.235	244.657	175.331	314.142	305.845	175.304	179.890	303.294	318.854	179.491	183.372	184.045	188.573	297.173	187.887	-8191	255	
14533.734	1	1	0	0	0.10277	0.12912	0.1864	0.2461	0.28861	0.17445	0.10379	0.2019	0.12785	0.024801	0.28972	0.13325	0.066939	0.31232	0.22406	0.035305	-2.5938	-3.0771	-3.2021	-3.2104	-2.9938	-3.2896	-3.0833	-3.3229	-3.1354	-2.9188	-3.1771	-3.0854	-3.1167	-3.2896	-2.8625	-3.0229	496.524	198.211	484.381	471.160	340.706	421.421	327.966	469.206	266.450	410.168	211.774	479.155	304.051	421.554	339.254	488.588	0.00053833	0.00045581	0.00016549	1368.9	3.9903e-06	5.7178e-06	1362.4	378.44	5.33e-06	5.5914e-06	431.54	150.3	130.9	47.854	5.1705e-06	58.672	0.00078724	0.0011882	0.00032791	1385.5	1.1544e-05	1.3358e-05	1380.2	385.55	1.1382e-05	1.3573e-05	440.38	153.64	134	49.093	1.2179e-05	60.416	223.818	272.922	265.037	175.441	300.088	321.088	175.321	179.978	300.202	314.913	179.397	183.683	183.940	188.701	303.583	187.941	-8191	255	
14533.854	1	1	0	0	0.032204	0.091035	0.19469	0.28469	0.13084	0.1936	0.21586	0.27866	0.12752	0.20474	0.33435	0.15952	0.12816	0.29364	0.11601	0.02126	-2.7542	-2.9708	-2.925	-3.1896	-3.0146	-3.25	-3.3604	-3.4437	-3.2271	-2.8812	-3.3042	-3.0625	-3.0687	-3.3063	-3.1792	-3.1729	170.192	306.595	324.506	449.577	187.529	303.815	479.429	411.256	276.692	349.889	470.726	454.515	430.145	191.194	178.446	403.946	0.00054525	0.00058191	0.00016273	1362.8	5.234e-06	5.2223e-06	1353.3	377.88	4.2479e-06	4.4442e-06	431.04	149.44	130.08	47.695	5.1213e-06	58.46	0.00078782	0.0012494	0.00033452	1382.5	1.1571e-05	1.3555e-05	1375	384.92	1.1148e-05	1.3683e-05	439.43	152.92	133.23	48.932	1.2487e-05	60.191	224.028	256.100	243.322	175.409	307.512	306.226	175.182	179.917	305.612	314.873	179.424	183.400	183.824	188.708	311.058	187.693	-8191	255	
14533.949	1	1	0	0	0.087537	0.20603	0.34955	0.3587	0.06535	0.13669	0.26124	0.44677	0.2825	0.039471	0.32057	0.17979	0.12953	0.1077	0.14188	0.053364	-2.5708	-2.8604	-2.9375	-3.2479	-2.9313	-3.2313	-3.2479	-3.25	-3.2354	-3.0208	-3.4083	-3.3104	-3.0375	-3.1583	-3.0583	-3.2188	267.057	277.204	402.765	494.308	210.738	480.461	427.723	458.089	449.870	498.464	177.115	198.215	191.812	166.222	198.100	230.147	0.00052261	0.00061022	0.00013795	1358.6	5.1937e-06	5.2275e-06	1350	377.62	4.6336e-06	6.4606e-06	430.13	148.27	129.69	47.601	5.4482e-06	58.514	0.00079412	0.0012173	0.00033136	1375.8	1.17e-05	1.3508e-05	1369.5	383.54	1.1489e-05	1.3586e-05	438.3	152.39	133.07	48.911	1.2472e-05	60.232	222.558	253.308	262.374	175.249	305.845	312.707	175.255	179.970	293.395	299.818	179.443	183.430	184.195	188.533	307.939	187.659	-8191	255	
14534.022	1	1	0	0	0.11879	0.18366	0.11631	0.37275	0.28048	0.22178	0.26477	0.22309	0.069058	0.24988	0.25997	0.26717	0.19458	0.18714	0.19745	0.1055	-2.7729	-2.8167	-3.2313	-3.4333	-2.825	-3.3083	-3.2292	-3.1146	-3.3917	-2.9708	-3.1396	-3.2	-2.8646	-3.2292	-3.1	-2.8792	438.824	212.395	415.330	496.926	396.951	352.778	414.213	483.301	468.939	482.407	451.600	441.079	167.449	489.600	197.224	423.767	0.00056023	0.00051498	0.00013824	1362.9	5.4324e-06	5.384e-06	1352.1	377.54	5.2064e-06	7.4413e-06	431.57	149.54	130.14	47.728	5.0461e-06	58.61	0.00079159	0.0012076	0.00034283	1377.8	1.1771e-05	1.3619e-05	1371.8	384.25	1.153e-05	1.3843e-05	439.15	152.96	133.59	49.008	1.2279e-05	60.206	224.207	245.654	252.003	175.445	311.639	299.308	175.135	179.924	296.664	320.394	179.126	183.314	184.171	188.826	313.705	187.754	-8191	255	
14534.118	1	1	0	0	0.24492	0.28889	0.091372	0.25307	0.091797	0.098901	0.24674	0.22293	0.18055	0.11703	0.1117	0.307	0.25521	0.19658	0.011042	0.30025	-2.775	-2.9479	-2.9562	-3.2833	-2.8896	-3.2188	-3.1562	-3.0167	-3.1354	-3.0646	-3.1521	-3.2375	-3.1042	-3.2896	-3.1104	-3.0979	475.095	342.996	374.187	206.261	322.217	260.790	433.663	433.347	477.446	286.057	463.284	443.283	444.371	492.373	447.136	431.793	0.00051191	0.00059434	0.00012388	1355.5	4.7128e-06	4.1529e-06	1351.2	378.1	5.0869e-06	4.7028e-06	432.94	149.84	130.06	47.845	5.6193e-06	58.667	0.00076823	0.001206	0.00032964	1375.7	1.1528e-05	1.3122e-05	1371.1	383.86	1.163e-05	1.3242e-05	439.88	153.18	133.52	49.133	1.2257e-05	60.349	222.148	258.854	262.950	175.323	313.372	311.522	175.268	179.899	306.552	308.795	179.510	183.421	183.848	188.563	306.087	187.588	-8191	255	
14534.237	1	1	0	0	0.22397	0.20156	0.26539	0.39866	0.12575	0.12322	0.22572	0.13093	0.11616	0.18206	0.38632	0.16832	0.10819	0.060359	0.127	0.38689	-2.7938	-2.7562	-2.9354	-3.3625	-2.8396	-3.2229	-3.3417	-3.1917	-3.1854	-2.9625	-3.1125	-3.3583	-3.0167	-3.0708	-3.0979	-2.9333	515.730	322.261	267.245	456.474	339.439	380.347	193.141	361.366	253.686	495.592	431.282	489.649	483.219	470.034	353.479	497.168	0.0005244	0.00074931	0.00015178	1364.6	4.2824e-06	3.592e-06	1356.2	377.96	5.2714e-06	4.5083e-06	431.3	149.67	130.07	47.698	4.8497e-06	58.503	0.00078796	0.0011922	0.00032958	1378.6	1.1538e-05	1.2977e-05	1373.3	384.74	1.1629e-05	1.3529e-05	439.46	153.05	133.51	48.956	1.2206e-05	60.251	221.504	259.746	271.087	175.507	319.753	305.091	175.179	179.851	290.360	299.003	179.546	183.325	184.045	188.469	308.855	187.609	-8191	255	
14534.333	1	1	0	0	0.062848	0.10028	0.17699	0.26755	0.075987	0.16299	0.17087	0.19215	0.041299	0.1584	0.15163	0.1078	0.17568	0.34459	0.17748	0.22092	-2.9417	-2.925	-2.9146	-3.3625	-2.9562	-3.0042	-3.4125	-3.1312	-3.2521	-3.025	-3.0229	-3.2562	-2.9688	-3.2104	-3.0542	-3.0396	453.427	313.566	385.116	482.136	389.349	253.716	392.586	211.891	491.060	403.527	185.407	491.028	250.683	451.151	216.059	375.921	0.00054414	0.00061771	0.00015769	1362.1	4.8739e-06	4.5806e-06	1354.5	377.09	4.851e-06	4.4703e-06	432.96	148.83	130.18	47.822	4.0833e-06	58.957	0.00079669	0.0011959	0.00033993	1376.9	1.1843e-05	1.3584e-05	1372.1	384.18	1.1603e-05	1.3148e-05	439.96	152.86	133.49	49.03	1.2038e-05	60.37	223.610	251.157	249.232	175.319	310.896	297.858	175.090	179.881	299.461	328.376	179.516	183.432	183.779	188.483	295.367	187.874	-8191	255	
14534.430	1	1	0	0	0.05274	0.048304	0.15689	0.25458	0.11189	0.022642	0.25808	0.27403	0.048284	0.22341	0.11986	0.088597	0.014114	0.18559	0.12172	0.10432	-2.7917	-2.95	-2.9521	-3.4083	-2.9292	-3.2333	-3.4625	-3.175	-3.1917	-2.975	-3.1	-3.2729	-3.025	-3.1333	-3.2333	-3.1	352.097	190.164	402.066	440.199	292.666	428.507	476.476	479.885	221.141	502.870	230.344	254.833	174.375	213.485	189.830	237.680	0.00054819	0.00047374	0.00015542	1356	3.6451e-06	4.4215e-06	1351.2	377.34	4.7469e-06	4.8574e-06	431.34	149.16	130.34	47.82	4.114e-06	58.736	0.00078823	0.0012057	0.00032607	1374.1	1.1494e-05	1.3319e-05	1370.7	384.03	1.1436e-05	1.3723e-05	439.65	153.19	133.59	49.045	1.1986e-05	60.334	221.800	256.935	260.430	175.279	305.803	316.043	175.229	179.957	287.826	314.995	179.578	183.477	183.890	188.508	297.601	187.738	-8191	255	
14534.526	1	1	0	0	0.12814	0.27818	0.15302	0.49733	0.2735	0.03059	0.11856	0.13389	0.072819	0.13626	0.35238	0.31435	0.28498	0.13391	0.093643	0.040994	-2.5625	-2.8958	-2.6854	-3.2667	-2.9313	-3.0521	-3.3208	-3.0667	-3.1	-3.1125	-2.9083	-3.2875	-3	-3.1813	-3.2333	-3.0292	352.672	341.399	181.101	477.875	430.734	331.862	494.295	475.436	495.368	219.658	187.034	422.682	442.958	413.585	308.264	183.865	0.00053862	0.00050982	0.00018039	1358.8	4.2652e-06	4.9417e-06	1349.9	377.68	5.4777e-06	5.7484e-06	431.7	149.63	130.82	47.804	5.0866e-06	58.82	0.00079358	0.0011567	0.00033326	1376	1.1264e-05	1.3625e-05	1371.8	384.77	1.1449e-05	1.3126e-05	440.09	153.45	133.71	49.076	1.1943e-05	60.464	222.579	275.722	251.731	175.443	307.137	301.049	175.291	179.699	301.318	314.940	179.498	183.515	183.731	188.393	307.457	187.794	-8191	255	
14534.622	1	1	0	0	0.22974	0.31446	0.074184	0.22017	0.12288	0.062556	0.39223	0.079257	0.14176	0.29671	0.10869	0.16804	0.088079	0.33729	0.12795	0.2735	-2.4562	-3.0833	-2.8688	-3.1708	-2.975	-2.9646	-3.4917	-3.1292	-3.1542	-3.0646	-2.8854	-3.1479	-3.2375	-2.9458	-3.2792	-2.9458	271.629	344.500	194.717	497.027	278.775	487.027	489.134	381.462	499.452	464.079	509.153	476.227	189.982	463.136	470.835	477.229	0.00055141	0.00061113	0.00014104	1363.3	4.9553e-06	5.2848e-06	1353.2	378.38	3.9415e-06	5.0065e-06	432.43	149.1	130.73	48.019	5.4352e-06	58.78	0.00078566	0.0011804	0.00033707	1379.4	1.1358e-05	1.3338e-05	1374.3	385.27	1.1385e-05	1.3059e-05	440.83	153.39	134.08	49.28	1.2141e-05	60.465	223.766	258.870	254.281	175.458	304.079	307.936	175.323	179.752	292.173	305.445	179.543	183.667	183.950	188.530	304.541	187.701	-8191	255	
14534.718	1	1	0	0	0.22297	0.19547	0.17744	0.13219	0.36702	0.12058	0.12382	0.16291	0.12205	0.17021	0.24276	0.17384	0.17301	0.37748	0.12755	0.29611	-2.6083	-3.1562	-2.7938	-3.4229	-3.0229	-2.9083	-3.45	-3.2687	-2.9521	-3.2313	-3.0083	-3.3375	-3.1875	-3.0875	-3.2854	-3.1229	355.585	274.731	484.080	387.667	413.732	210.640	448.630	424.277	239.096	413.079	489.477	483.182	261.075	497.307	173.907	468.213	0.00054943	0.0003582	0.00018496	1361.9	4.988e-06	5.6e-06	1358	380.22	5.7645e-06	5.1847e-06	433.03	150.61	130.71	47.987	4.8625e-06	58.955	0.00080639	0.0011532	0.00033397	1381.7	1.1667e-05	1.3136e-05	1375.2	386.21	1.1444e-05	1.2857e-05	441.46	153.86	134	49.273	1.2549e-05	60.607	223.772	243.286	262.935	175.319	299.351	316.519	175.332	180.027	300.143	319.656	179.511	183.389	183.881	188.528	308.086	187.565	-8191	255	
14534.814	1	1	0	0	0.1631	0.13986	0.10438	0.10517	0.15344	0.069479	0.10253	0.27294	0.11059	0.13237	0.23241	0.11617	0.19703	0.24066	0.18428	0.23901	-2.5083	-3.1625	-2.825	-3.2896	-3.075	-3.0375	-3.2542	-3.2125	-3.0896	-3.0438	-2.9333	-3.1604	-3.1667	-2.8688	-3.4354	-3.0521	388.161	324.473	405.891	498.290	388.496	378.005	387.867	416.281	448.197	274.560	469.680	454.601	169.752	171.053	194.924	489.800	0.00056429	0.00049121	0.00018248	1365.5	5.3747e-06	4.9526e-06	1353.1	378.94	5.0916e-06	6.3783e-06	433.88	150.2	131.49	48.13	5.2032e-06	58.872	0.00079823	0.001143	0.00033028	1380.8	1.1522e-05	1.3347e-05	1375.1	385.69	1.1607e-05	1.3267e-05	441.63	153.79	134.19	49.271	1.2197e-05	60.407	221.882	267.143	263.083	175.344	304.237	329.469	175.143	179.897	300.657	329.699	179.208	183.329	183.968	188.498	291.568	187.903	-8191	255	
14534.935	1	1	0	0	0.11099	0.16973	0.30148	0.17564	0.33155	0.11832	0.32609	0.17815	0.19555	0.10103	0.080265	0.27987	0.11371	0.20417	0.073395	0.090696	-2.4271	-3.2062	-3.1333	-3.2854	-3.1521	-2.9646	-3.3667	-3.3	-2.9208	-3.0958	-3.2	-3.0938	-3.2562	-3.0208	-3.1875	-3.3271	272.179	239.631	493.002	463.512	326.751	509.060	448.903	438.322	311.922	181.320	488.845	470.291	495.059	290.433	422.794	221.052	0.00053688	0.00054164	0.00016867	1369.7	4.2745e-06	5.5244e-06	1357.5	379.69	5.3884e-06	4.444e-06	432.94	149.6	130.43	48.023	4.1334e-06	58.744	0.00079539	0.0011619	0.00033543	1382.4	1.1215e-05	1.3234e-05	1376.6	385.62	1.1673e-05	1.2987e-05	441.06	153.78	133.91	49.237	1.2225e-05	60.397	222.583	252.345	264.070	175.314	299.610	319.818	175.324	179.882	306.553	330.797	179.440	183.435	183.796	188.493	301.443	187.843	-8191	255	
14535.029	1	1	0	0	0.12209	0.16962	0.26621	0.27947	0.15043	0.25245	0.17542	0.2959	0.10989	0.061523	0.10822	0.41947	0.19508	0.16375	0.064099	0.19514	-2.3937	-3.2229	-3.1312	-3.1458	-3.0125	-3.0062	-3.25	-3.075	-2.8167	-3.3042	-3.1208	-2.9708	-3.0375	-2.9167	-3.0312	-3.0167	377.833	356.711	375.440	507.267	197.178	287.838	452.163	455.889	355.774	386.607	404.408	501.573	164.812	481.243	420.206	389.412	0.00054599	0.00049125	0.00017887	1363.3	5.609e-06	5.6691e-06	1359.9	379.01	4.9026e-06	5.7353e-06	434.5	149.43	131.04	48.084	4.7049e-06	58.776	0.00079943	0.0012025	0.0003285	1380.3	1.1562e-05	1.3569e-05	1376.1	385.68	1.147e-05	1.3424e-05	441.68	153.55	133.95	49.276	1.2309e-05	60.444	221.507	248.057	258.539	175.508	304.869	305.808	175.332	179.830	314.906	315.644	179.362	183.508	183.879	188.207	302.156	187.817	-8191	255	
14535.127	1	1	0	0	0.035207	0.1867	0.27835	0.29799	0.082533	0.17511	0.13939	0.19879	0.21524	0.14569	0.29061	0.14718	0.035031	0.1546	0.19723	0.15014	-2.5417	-3.1583	-2.9042	-3.2458	-3.1771	-2.9	-3.2687	-3.3104	-2.9417	-3.1604	-3.1417	-3.1458	-3.2208	-3.0583	-3.0583	-3.1125	378.745	508.291	397.331	203.970	271.992	323.705	173.888	447.438	412.770	293.293	163.901	448.201	203.614	363.695	366.752	466.540	0.00054172	0.00074534	0.00017101	1361	5.9972e-06	5.2668e-06	1352.6	377.59	5.379e-06	5.9411e-06	433.17	149.88	130.85	47.86	5.8484e-06	58.866	0.00079289	0.00122	0.00032949	1380.2	1.1416e-05	1.3499e-05	1374.9	385.13	1.1937e-05	1.3602e-05	441.5	153.53	134.02	49.167	1.2009e-05	60.549	222.005	253.407	248.184	175.208	308.709	316.134	175.181	179.896	297.864	316.165	179.461	183.595	183.902	188.496	292.021	187.661	-8191	255	
14535.246	1	1	0	0	0.12627	0.24129	0.18247	0.17679	0.20103	0.12937	0.11172	0.14924	0.20608	0.067016	0.23204	0.18449	0.25983	0.1235	0.096912	0.2846	-2.4313	-3.1104	-2.9875	-3.0896	-3.2354	-2.875	-3.2667	-3.4271	-2.8729	-3.0104	-3.2521	-3.0583	-3.1167	-3.0521	-2.9896	-3.1146	365.814	384.916	324.597	480.974	224.753	515.820	457.823	471.322	415.911	262.013	520.396	491.327	215.677	479.102	192.598	432.019	0.00054422	0.00057286	0.00014822	1362	4.1739e-06	6.9041e-06	1357.6	378.78	5.4215e-06	5.9556e-06	431.05	150.25	130.79	47.863	4.5604e-06	58.684	0.00080573	0.0012128	0.00032162	1380.7	1.1265e-05	1.3671e-05	1376.5	385.36	1.1524e-05	1.3728e-05	440.26	153.5	133.96	49.222	1.2545e-05	60.474	221.327	254.471	264.056	175.391	322.864	303.456	175.339	179.845	299.036	319.051	179.446	183.437	184.017	188.603	303.663	187.890	-8191	255	
14535.318	1	1	0	0	0.087578	0.2169	0.29067	0.21825	0.171	0.1968	0.3145	0.30753	0.1168	0.28854	0.12356	0.17953	0.3264	0.268	0.078816	0.1808	-2.475	-3.0833	-3.0542	-3.0312	-3.1208	-3.0146	-3.0833	-3.2854	-2.8833	-3.3063	-3.3542	-2.8812	-3.3458	-3.25	-3.0792	-3.2208	269.146	285.124	368.429	471.352	340.327	262.214	451.896	459.712	443.596	355.968	216.282	481.967	479.018	473.392	346.560	478.368	0.00053483	0.00051307	0.00015898	1362.2	5.6733e-06	5.4691e-06	1354.1	379.59	4.7328e-06	5.431e-06	434.14	150.21	130.77	47.97	5.545e-06	59.021	0.00077429	0.0011715	0.00032826	1380.3	1.1822e-05	1.3856e-05	1375.3	385.78	1.1497e-05	1.341e-05	441.38	153.87	133.96	49.223	1.2235e-05	60.549	224.011	246.856	241.909	175.346	308.349	334.212	175.353	179.976	300.626	310.325	179.389	183.404	184.006	188.535	314.317	187.735	-8191	255	
14535.414	1	1	0	0	0.13911	0.1321	0.058853	0.43829	0.075693	0.22013	0.2603	0.19587	0.14753	0.11285	0.18057	0.46099	0.1663	0.26503	0.17198	0.18093	-2.5104	-2.9896	-3.1229	-3.0354	-3.2	-3.2104	-3.0792	-3.3937	-2.9729	-3.1208	-3.2625	-2.9208	-3.3312	-3.0667	-3.1271	-3.2833	303.051	400.215	248.644	491.051	343.504	382.067	467.025	466.090	466.979	231.669	479.325	490.713	195.405	493.558	424.431	454.213	0.0005476	0.00045418	0.00018379	1364.2	5.0916e-06	5.9123e-06	1359.2	379.5	6.121e-06	5.5714e-06	434.4	149.93	130.49	48.059	4.0796e-06	59.046	0.0008007	0.0012211	0.00032469	1381.7	1.1361e-05	1.3147e-05	1378.4	385.96	1.1749e-05	1.3179e-05	442.21	153.99	134.12	49.31	1.2261e-05	60.605	224.008	261.342	254.750	175.385	304.085	311.630	175.098	179.769	291.990	308.879	179.125	183.448	184.040	188.678	305.450	187.830	-8191	255	
14535.534	1	1	0	0	0.14893	0.14344	0.27911	0.19536	0.13034	0.14151	0.31426	0.24423	0.11354	0.24278	0.13081	0.19097	0.052355	0.067351	0.10371	0.049929	-2.4271	-3.1417	-3.1354	-3.0687	-3.1708	-3.0938	-3.1167	-3.4313	-3.0521	-3.0625	-3.3958	-3.0396	-3.25	-3.1375	-2.7979	-3.2958	261.811	417.451	378.871	337.475	388.428	327.757	440.046	420.485	355.827	360.172	468.604	477.708	224.557	165.011	381.818	417.310	0.00057102	0.00059294	0.00013581	1364.3	5.5232e-06	5.0411e-06	1360.9	379.23	4.5055e-06	5.8517e-06	434.1	150.05	131.41	48.022	4.4537e-06	58.992	0.0008132	0.0011833	0.00032118	1380.9	1.1211e-05	1.32e-05	1379.8	386.29	1.1503e-05	1.3254e-05	442.01	153.8	134.28	49.237	1.2139e-05	60.573	223.024	251.946	260.270	175.318	309.108	325.053	175.190	179.728	299.862	313.059	179.358	183.483	183.887	188.427	307.004	187.905	-8191	255	
14535.631	1	1	0	0	0.056065	0.15632	0.23075	0.36606	0.06878	0.087935	0.28819	0.12404	0.071592	0.090412	0.21067	0.12745	0.26552	0.11433	0.19113	0.10593	-2.4646	-2.8583	-3.2271	-3.3229	-3.1146	-3.0354	-3.0417	-3.3229	-2.925	-2.9708	-3.2479	-3.1792	-3.3667	-3.1854	-2.8104	-3.2521	468.518	404.259	341.815	445.377	256.451	333.029	408.152	443.428	347.708	327.964	400.520	508.011	404.930	353.416	210.822	452.771	0.00055834	0.00045714	0.00015038	1368	4.8134e-06	5.3913e-06	1359.4	379.22	4.9031e-06	7.3999e-06	433.01	149.28	130.97	48.099	5.424e-06	58.99	0.00081005	0.001195	0.00033274	1382	1.1237e-05	1.322e-05	1377.9	386.11	1.1522e-05	1.3527e-05	441.09	153.6	134.15	49.267	1.2133e-05	60.503	222.645	232.133	241.236	175.346	304.966	313.214	175.378	179.873	308.670	323.726	179.385	183.275	184.032	188.365	302.482	187.706	-8191	255	
14535.727	1	1	0	0	0.052519	0.16339	0.14687	0.30786	0.22515	0.14759	0.12802	0.21827	0.17892	0.17342	0.24761	0.2681	0.162	0.24194	0.087771	0.1557	-2.5167	-3.0042	-3.3396	-3.1312	-3.0167	-3.2125	-3.1104	-3.2812	-2.9604	-2.9417	-3.3	-3.1417	-3.0854	-3.3667	-2.9083	-3.4125	219.935	418.000	316.418	445.317	383.946	506.622	239.841	492.643	402.847	236.457	490.588	203.623	162.192	500.305	306.029	280.670	0.00055467	0.00055053	0.00015927	1366.3	3.6477e-06	5.8686e-06	1355.6	379.39	5.3444e-06	4.8609e-06	433.83	149.82	130.9	48.066	5.4334e-06	58.955	0.00078125	0.0011637	0.00032493	1381.4	1.1291e-05	1.31e-05	1375.6	385.79	1.1534e-05	1.3271e-05	441.19	153.72	134.21	49.205	1.235e-05	60.579	222.463	254.376	262.220	175.257	308.316	306.232	175.060	180.001	298.141	322.251	179.246	183.336	183.882	188.554	321.943	187.699	-8191	255	
14535.823	1	1	0	0	0.039251	0.058266	0.21723	0.58972	0.18351	0.13196	0.12917	0.44283	0.23891	0.15724	0.4293	0.22958	0.19546	0.040529	0.086597	0.20779	-2.6	-2.9167	-3.1583	-3.1375	-2.9917	-3.1667	-3.2625	-3.5	-3.1042	-3.1333	-3.2542	-3.1104	-3.2521	-3.3771	-2.9458	-3.075	329.331	498.751	417.116	488.113	340.082	320.866	406.129	446.480	503.738	423.175	508.765	411.696	197.039	404.091	485.200	517.852	0.0005548	0.00045926	0.0001498	1366.6	5.3131e-06	6.2431e-06	1356.4	378.6	5.3128e-06	4.7749e-06	434.33	149.89	130.9	47.978	5.0993e-06	58.929	0.00079193	0.0011708	0.0003206	1381.5	1.1293e-05	1.2989e-05	1376.6	385.48	1.1396e-05	1.3028e-05	441.35	153.57	133.9	49.215	1.2378e-05	60.526	223.065	261.489	258.932	175.278	315.213	316.274	175.164	179.933	290.902	307.567	179.303	183.387	184.004	188.616	299.658	187.901	-8191	255	
14535.919	1	1	0	0	0.10759	0.25268	0.13666	0.35683	0.23291	0.23897	0.39003	0.20465	0.087178	0.25206	0.10491	0.15095	0.025846	0.17018	0.20205	0.046237	-2.6583	-2.75	-3.1771	-3.275	-2.9146	-3.1083	-3.2625	-3.3521	-3.0812	-2.8958	-3.3292	-3.2771	-2.9938	-3.3146	-3.0708	-3.1437	383.273	473.472	446.341	486.257	484.887	191.994	452.808	492.155	387.583	380.613	170.286	449.359	454.149	189.001	497.202	247.224	0.00055268	0.00044386	0.00012596	1363.2	5.4477e-06	6.0277e-06	1357.8	379.81	5.6804e-06	6.1221e-06	434.91	150.03	131.35	47.975	6.4014e-06	59.307	0.00080231	0.0011844	0.00032584	1379.3	1.1518e-05	1.3077e-05	1375.4	385.84	1.1458e-05	1.3713e-05	441.54	153.87	134.29	49.226	1.2081e-05	60.674	222.888	247.364	253.407	175.268	310.983	313.969	175.326	179.782	296.858	316.826	179.449	183.357	184.027	188.683	308.589	187.867	-8191	255	
14536.015	1	1	0	0	0.042412	0.26175	0.23115	0.10643	0.24361	0.074482	0.34903	0.27623	0.11716	0.22815	0.30986	0.16496	0.1278	0.19649	0.24118	0.11029	-2.7854	-2.75	-3.0625	-3.3896	-2.8958	-3.1708	-3.2458	-3.1104	-3.1271	-2.8937	-3.3021	-3.2208	-2.975	-3.4583	-3.15	-3.1562	512.618	326.963	424.492	425.017	348.130	312.402	469.503	424.764	245.870	344.577	493.713	187.581	377.750	435.703	407.713	288.626	0.00053004	0.00058046	0.00014604	1363.3	4.4693e-06	6.314e-06	1356	378.9	5.3093e-06	5.3645e-06	434.7	149.85	131.2	48.02	5.099e-06	58.852	0.00078248	0.0011908	0.000323	1382.3	1.1562e-05	1.3207e-05	1377.6	385.81	1.1395e-05	1.3219e-05	441.33	153.76	134.18	49.269	1.241e-05	60.532	223.241	257.662	242.704	175.509	304.933	315.135	175.326	179.874	297.765	319.350	179.330	183.456	183.768	188.586	305.985	187.629	-8191	255	
14536.111	1	1	0	0	0.11249	0.23589	0.030506	0.26347	0.14091	0.091374	0.4336	0.30312	0.21609	0.065805	0.16363	0.11237	0.1646	0.090147	0.14992	0.30923	-2.7479	-2.7083	-3.0167	-3.1437	-2.8729	-3.1958	-3.2708	-3.1833	-3.0917	-2.9458	-3.4042	-3.2667	-3.0917	-3.3292	-3.0333	-2.9938	455.450	341.862	230.983	480.917	352.249	485.446	465.828	401.166	351.673	185.483	477.996	440.811	222.333	422.663	309.981	453.179	0.00056535	0.00043181	0.00014091	1364.2	4.7274e-06	3.2067e-06	1358.1	378.28	5.3912e-06	5.1903e-06	433.69	150.14	131.22	48.183	4.5863e-06	59.03	0.00079176	0.0012039	0.00032581	1382.6	1.144e-05	1.3523e-05	1379.4	385.69	1.1454e-05	1.3693e-05	441.49	153.8	134.06	49.257	1.2282e-05	60.575	221.905	255.568	255.833	175.287	321.690	307.482	175.165	179.784	310.029	320.351	179.165	183.673	183.858	188.602	311.872	188.047	-8191	255	
14536.208	1	1	0	0	0.16496	0.24837	0.12709	0.071053	0.26743	0.19295	0.34403	0.054065	0.17898	0.13752	0.096451	0.01927	0.18241	0.24966	0.10912	0.18924	-2.6188	-2.9396	-3.0375	-3.3896	-2.8271	-3.2	-3.2458	-3.3187	-3.3396	-3.0729	-3.375	-3.2021	-3.0354	-3.2562	-2.8875	-3.0167	265.579	485.159	319.199	174.889	253.886	326.746	470.410	439.453	213.991	508.716	180.556	369.082	463.234	450.005	259.319	420.360	0.000548	0.00061788	0.00016222	1366.7	4.4348e-06	4.3689e-06	1359.1	379.08	6.1345e-06	5.0656e-06	433.31	150.44	131.15	48.066	4.3469e-06	59.018	0.00077721	0.0012173	0.00033493	1382.2	1.1296e-05	1.3234e-05	1378.8	386.27	1.1146e-05	1.3385e-05	441.54	153.85	134.04	49.297	1.2443e-05	60.604	222.219	253.193	264.006	175.118	329.466	309.418	175.334	179.904	305.189	323.865	179.358	183.354	184.124	188.696	310.993	188.098	-8191	255	
14536.326	1	1	0	0	0.17274	0.089532	0.17081	0.22175	0.27725	0.2579	0.29315	0.11015	0.089619	0.039566	0.15256	0.14324	0.1568	0.24425	0.089934	0.20604	-2.7875	-3.0479	-2.9708	-3.2854	-2.8979	-3.1708	-3.1729	-3.1292	-3.3042	-2.9708	-3.2687	-3.2188	-2.8438	-3.3042	-3.0354	-2.8479	277.488	441.259	192.125	517.962	472.590	446.979	500.315	336.271	268.141	220.629	354.200	513.755	465.871	192.292	322.973	396.324	0.00054783	0.00052278	0.00017056	1369.8	4.8366e-06	4.585e-06	1360.2	379.98	4.7054e-06	5.2591e-06	434.2	149.96	131.38	48.023	4.7679e-06	59.234	0.00079125	0.0011864	0.00033373	1383.7	1.1662e-05	1.2763e-05	1377.2	386.05	1.1477e-05	1.3298e-05	442.25	153.79	134.23	49.294	1.2043e-05	60.695	220.794	246.929	252.331	175.282	302.822	315.665	175.354	179.934	304.296	321.396	179.371	183.400	183.998	188.673	314.249	187.616	-8191	255	
14536.423	1	1	0	0	0.051555	0.10746	0.19663	0.41796	0.10294	0.12266	0.15315	0.19671	0.36186	0.27578	0.011217	0.22341	0.18728	0.29864	0.21421	0.060838	-2.7167	-3.0521	-2.8792	-3.2792	-2.9583	-3.1083	-3.3604	-3.0958	-3.2667	-3.1979	-2.8833	-3.3438	-3.0708	-3.2	-3.3375	-3.0458	247.104	416.777	343.774	521.847	479.574	232.661	449.077	436.156	519.858	419.470	200.320	488.164	173.536	470.225	239.635	183.234	0.00052876	0.00061547	0.00014818	1364.1	4.4202e-06	4.9338e-06	1363.6	380.57	4.5848e-06	6.2801e-06	433.55	150.41	131.55	48.151	5.6725e-06	59.035	0.0007782	0.0011897	0.00033338	1383.1	1.1549e-05	1.3119e-05	1380.4	386.69	1.1177e-05	1.3035e-05	441.82	153.79	134.27	49.345	1.2356e-05	60.517	224.043	252.819	250.467	175.356	300.428	326.389	175.130	179.881	310.567	325.332	179.409	183.463	183.793	188.581	304.327	187.798	-8191	255	
14536.494	1	1	0	0	0.14396	0.19787	0.16757	0.12917	0.12351	0.28036	0.30515	0.10604	0.3036	0.18759	0.24254	0.16306	0.14448	0.39936	0.044561	0.14168	-2.5792	-3.0792	-3.1271	-3.3354	-2.8937	-3.0833	-3.2292	-3.1562	-3.0125	-3.2417	-3.0187	-3.1896	-2.9813	-3.0771	-3.0042	-3.0396	354.547	270.015	443.053	498.250	422.729	492.963	458.881	479.034	205.873	207.627	217.565	184.439	266.985	166.163	278.999	455.292	0.00053858	0.0004264	0.000163	1366.9	4.4938e-06	4.5694e-06	1359.8	379.43	5.1804e-06	7.6048e-06	435.98	150.51	131.61	48.28	5.5015e-06	59.166	0.00079234	0.0011576	0.00032589	1383.4	1.1391e-05	1.3179e-05	1379.9	386.56	1.1393e-05	1.2907e-05	442.83	154.07	134.64	49.433	1.2101e-05	60.761	222.354	246.189	251.275	175.420	307.233	309.337	175.238	179.870	294.903	317.159	179.522	183.428	183.823	188.608	308.394	187.695	-8191	255	
14536.615	1	1	0	0	0.020894	0.1154	0.13947	0.16797	0.11315	0.089889	0.17426	0.18171	0.22985	0.092023	0.014928	0.065834	0.16716	0.18547	0.22303	0.22213	-2.7313	-3.0687	-2.8417	-3.3583	-2.9771	-3.0875	-3.5521	-2.9896	-3.1625	-3.2104	-3.1312	-3.4208	-3.0729	-3.1917	-3.2125	-3.0375	454.093	484.563	482.222	164.576	317.585	394.795	444.990	427.147	441.793	308.988	427.530	367.087	165.987	247.300	358.943	507.792	0.00054351	0.00042743	0.00016721	1365.5	4.6399e-06	4.354e-06	1362.6	380.1	5.154e-06	4.6792e-06	434.38	150.29	131.4	48.242	4.5309e-06	59.046	0.0007944	0.0011661	0.00033116	1384.5	1.1358e-05	1.2866e-05	1381.6	386.93	1.1334e-05	1.2952e-05	443.51	154.31	134.56	49.457	1.1912e-05	60.7	224.592	242.258	262.512	175.551	299.080	307.501	175.216	179.797	304.785	321.659	179.556	183.294	183.795	188.463	299.442	187.725	-8191	255	
14536.711	1	1	0	0	0.054698	0.12274	0.20766	0.21032	0.11832	0.20794	0.24747	0.32707	0.2077	0.064657	0.0098171	0.031418	0.13852	0.31277	0.11576	0.28524	-2.7729	-2.9917	-2.8333	-3.3271	-2.8833	-2.9583	-3.475	-2.9062	-3.0125	-3.1646	-2.975	-3.275	-3.0042	-3.1104	-3.2958	-2.9771	361.059	191.013	356.268	185.015	303.648	223.409	416.384	513.571	276.043	367.995	465.670	285.549	213.731	477.710	247.689	164.200	0.00053868	0.00069513	0.00011635	1368.4	5.3198e-06	6.3914e-06	1362.8	381.27	5.5302e-06	5.6625e-06	436.63	150.98	132.11	48.198	6.5876e-06	59.098	0.00078943	0.0011633	0.00033113	1387.1	1.1463e-05	1.3304e-05	1381.7	387.19	1.132e-05	1.2928e-05	443.11	154.5	134.98	49.443	1.1866e-05	60.759	223.137	254.687	247.321	175.370	294.677	304.960	175.205	179.930	299.156	317.966	179.497	183.489	184.000	188.549	301.384	187.939	-8191	255	
14536.807	1	1	0	0	0.17925	0.096799	0.23882	0.11071	0.25543	0.15313	0.43942	0.17706	0.19379	0.01222	0.27451	0.11059	0.051534	0.21838	0.18077	0.25259	-2.6271	-3.1813	-2.8	-3.3875	-2.9688	-2.9813	-3.5104	-2.975	-3.0667	-3.1104	-2.9583	-3.3708	-3.1583	-3.05	-3.0187	-3	282.417	318.203	322.071	463.940	386.406	361.934	472.202	388.938	202.642	185.934	516.249	183.264	293.087	411.371	417.641	429.061	0.00057899	0.00052254	0.0001506	1370	5.2935e-06	5.1287e-06	1364.6	380.88	4.7238e-06	4.8123e-06	435.29	150.52	131.66	48.034	4.6341e-06	59.11	0.00080392	0.0012005	0.00033432	1386	1.1173e-05	1.3415e-05	1381.2	387.64	1.1281e-05	1.2779e-05	443.22	154.38	134.66	49.404	1.2119e-05	60.733	222.874	255.256	254.925	175.229	304.323	309.742	175.186	179.869	291.778	311.789	179.449	183.592	184.038	188.507	290.605	187.670	-8191	255	
14536.928	1	1	0	0	0.031893	0.12364	0.067972	0.15917	0.17902	0.22577	0.31988	0.33452	0.1123	0.048792	0.25241	0.04654	0.35961	0.25962	0.20466	0.3407	-2.6312	-3.275	-2.9417	-3.3187	-3.0687	-2.9479	-3.3917	-3.0396	-2.9729	-3.2958	-2.8396	-3.0812	-3.1292	-2.9062	-3.2167	-3.0708	201.318	249.671	164.290	456.979	377.317	438.933	444.205	494.620	477.616	450.852	164.563	376.343	386.576	166.159	269.217	507.496	0.00055347	0.00055626	0.00016105	1372.4	4.9822e-06	5.3713e-06	1364.4	380.22	4.9323e-06	4.611e-06	435.79	150.12	131.49	48.312	5.6843e-06	59.148	0.00077902	0.001164	0.0003194	1386.6	1.1323e-05	1.3418e-05	1381.3	387.62	1.1255e-05	1.3254e-05	443.23	154.16	134.72	49.485	1.2021e-05	60.708	223.335	243.022	253.695	175.332	305.648	315.192	175.358	179.973	296.149	324.039	179.374	183.538	183.945	188.578	309.681	187.553	-8191	255	
14537.024	1	1	0	0	0.2386	0.23839	0.1176	0.17569	0.057605	0.23867	0.049859	0.1146	0.090921	0.078206	0.16393	0.27019	0.090658	0.21521	0.13551	0.17463	-2.3625	-2.9792	-2.8083	-3.3146	-3.2125	-2.9042	-3.2583	-3.2188	-2.8958	-3.1312	-3.0438	-3.2229	-3.1729	-3.1125	-3.0729	-3.0187	437.730	230.277	242.770	510.363	251.165	295.744	437.319	515.005	441.355	407.521	402.155	394.071	217.142	372.614	275.165	199.044	0.00053751	0.00053353	0.00018854	1366.6	5.4638e-06	5.3391e-06	1359.2	381.33	4.8179e-06	4.9251e-06	434.39	150.3	131.42	48.285	5.3246e-06	59.187	0.00078543	0.0011548	0.00032405	1384.7	1.1349e-05	1.3147e-05	1380.9	387.59	1.1664e-05	1.2533e-05	443.22	154.15	134.5	49.443	1.173e-05	60.732	223.610	260.796	260.531	175.332	307.244	327.628	175.158	179.757	297.425	321.625	179.477	183.393	183.784	188.637	285.386	187.810	-8191	255	
14537.118	1	1	0	0	0.24686	0.053126	0.20294	0.051308	0.1644	0.22461	0.19996	0.41401	0.10789	0.11754	0.36705	0.1866	0.23101	0.37257	0.23071	0.14895	-2.4583	-3.0312	-2.6292	-3.1042	-3.15	-2.8	-3.2562	-3.1958	-3.1188	-3.2146	-3.1229	-3.2167	-3.3729	-3.1479	-3.0021	-3.1562	501.048	245.788	321.737	472.294	261.558	514.069	474.291	494.784	415.089	371.664	502.310	490.735	182.534	452.786	456.808	502.090	0.00055257	0.00042778	0.00012518	1369.5	5.1096e-06	5.4425e-06	1363.4	381.84	3.8993e-06	5.7551e-06	435.48	151	131.42	48.257	4.4993e-06	59.047	0.0007859	0.0011459	0.00031841	1386.3	1.1083e-05	1.3213e-05	1381.1	387.87	1.125e-05	1.2907e-05	443.11	154.55	134.73	49.486	1.1669e-05	60.765	223.307	269.732	257.495	175.432	295.044	310.483	175.174	179.783	301.684	313.557	179.401	183.442	184.080	188.529	300.077	187.752	-8191	255	
14537.214	1	1	0	0	0.054734	0.090433	0.184	0.2488	0.27305	0.069397	0.22495	0.084791	0.050644	0.16484	0.077219	0.025417	0.16772	0.2611	0.16562	0.30089	-2.5417	-3.2229	-3.0396	-3.1271	-3.0396	-3.1167	-3.475	-3.3896	-2.9938	-3.4375	-3.1021	-3.0938	-3.2313	-3.0771	-3.1479	-3.3875	184.958	169.957	284.460	441.245	337.948	447.791	442.161	460.267	510.121	339.821	468.230	272.014	176.853	212.527	257.360	487.629	0.00053571	0.00046733	0.00016249	1371.6	4.8619e-06	6.1928e-06	1365.1	379.62	4.6462e-06	6.1704e-06	434.99	151.11	131.65	48.252	6.1784e-06	59.108	0.0007807	0.0011304	0.00031966	1388.4	1.0933e-05	1.29e-05	1384.3	387.72	1.1297e-05	1.2727e-05	444.02	154.8	134.72	49.442	1.1826e-05	60.821	222.829	245.932	241.343	175.528	308.722	304.580	175.222	179.868	302.386	308.986	179.175	183.324	183.939	188.605	315.526	188.101	-8191	255	
14537.311	1	1	0	0	0.087338	0.099876	0.20942	0.26809	0.15707	0.1936	0.23572	0.23612	0.17309	0.11983	0.30112	0.19579	0.12703	0.094718	0.14351	0.081891	-2.5958	-3.1604	-3.0646	-3.2125	-3.1604	-3.1604	-3.35	-3.3792	-2.7875	-2.9979	-3.1937	-3.2333	-3.2521	-3.1458	-2.9833	-3.2313	252.911	184.712	208.329	459.797	345.098	285.005	470.696	436.757	207.365	477.119	482.045	503.451	187.887	422.930	300.768	390.742	0.00053679	0.0004241	0.00014486	1373.1	5.2968e-06	5.9762e-06	1363.2	381.33	4.8967e-06	3.6087e-06	436.45	150.69	131.59	48.324	4.8907e-06	59.186	0.00076899	0.0011505	0.00032563	1388.5	1.1194e-05	1.2578e-05	1384.8	388	1.0808e-05	1.2918e-05	443.54	154.63	134.79	49.535	1.1987e-05	60.782	223.388	266.641	247.268	175.405	306.816	295.558	175.157	179.940	299.362	323.914	179.293	183.385	183.981	188.409	297.167	187.816	-8191	255	
14537.407	1	1	0	0	0.13827	0.10084	0.26058	0.20146	0.059249	0.15547	0.17776	0.3037	0.1377	0.27552	0.25407	0.3853	0.14404	0.1698	0.11567	0.13619	-2.3937	-3.2146	-2.9333	-3.0542	-3.0938	-2.9354	-3.2562	-3.4729	-3.0208	-3.1083	-3.25	-3.1521	-3.2646	-3.1583	-2.8479	-3.1104	231.307	515.042	300.739	470.559	506.300	339.565	457.157	507.982	286.917	384.815	449.886	501.375	305.209	182.738	492.720	494.679	0.000549	0.00049799	0.00016835	1373.3	4.7895e-06	6.0078e-06	1368.6	380.79	5.7601e-06	4.5387e-06	435.81	150.74	131.1	48.21	3.8065e-06	58.906	0.00078169	0.0010959	0.00031314	1389.1	1.0837e-05	1.2797e-05	1384.4	387.54	1.1456e-05	1.2196e-05	443.7	154.4	134.6	49.515	1.1483e-05	60.782	223.798	248.361	250.345	175.386	316.627	311.358	175.198	179.913	295.813	327.850	179.346	183.363	184.064	188.481	314.460	187.724	-8191	255	
14537.503	1	1	0	0	0.19555	0.28675	0.21204	0.17507	0.17324	0.20047	0.27379	0.15419	0.047177	0.19634	0.14152	0.06725	0.31325	0.15933	0.056123	0.052535	-2.3729	-2.9521	-3.0104	-2.9896	-3.2438	-3.0083	-3.1583	-3.2875	-3.0167	-3.0479	-3.3958	-3.1042	-3.3167	-3.2021	-3.0167	-3.3396	364.293	427.271	502.223	475.039	167.218	418.483	174.917	174.590	371.814	179.293	448.712	310.031	519.508	490.517	419.835	409.620	0.00054305	0.00064543	0.00016548	1370.5	4.9254e-06	5.2722e-06	1361.2	381.56	4.3452e-06	7.353e-06	435.9	149.91	131.61	48.271	3.8557e-06	59.103	0.00077608	0.001122	0.00030893	1387.1	1.0624e-05	1.2822e-05	1382.6	387.76	1.0871e-05	1.2627e-05	443.36	154.19	134.69	49.48	1.1369e-05	60.733	222.835	258.261	240.254	175.344	293.735	308.315	175.281	179.878	309.973	314.402	179.399	183.483	183.947	188.485	292.356	187.512	-8191	255	
14537.624	1	1	0	0	0.093942	0.1288	0.13371	0.22347	0.11391	0.067504	0.16894	0.2085	0.38243	0.32667	0.15338	0.12962	0.19031	0.26034	0.22793	0.22463	-2.6333	-3	-3.1667	-3.1562	-3.0771	-3.1375	-3.1917	-3.4083	-3.0792	-2.8917	-3.4292	-3.0979	-3.2125	-3.0604	-2.875	-3.3187	322.519	483.037	288.992	401.965	263.746	417.588	465.195	406.325	516.872	517.391	519.940	193.253	164.673	475.007	335.939	518.209	0.00055916	0.00063408	0.00010875	1365.7	3.8127e-06	4.7794e-06	1362.5	381.09	5.1856e-06	5.0384e-06	436.14	150.74	131.44	48.069	4.6154e-06	59.123	0.00077768	0.0011125	0.00030448	1385.7	1.0777e-05	1.266e-05	1383.1	387.7	1.0773e-05	1.2476e-05	443.58	154.3	134.56	49.385	1.1952e-05	60.704	222.989	247.402	259.195	175.290	299.041	290.896	175.294	179.725	302.919	330.752	179.485	183.378	183.537	188.439	313.222	187.751	-8191	255	
14537.720	1	1	0	0	0.16294	0.20266	0.18229	0.25729	0.19913	0.060142	0.32981	0.24786	0.30571	0.037179	0.3733	0.17794	0.2722	0.23431	0.19535	0.029663	-2.4771	-2.9833	-3.1417	-3.3063	-3.2146	-3.1854	-3.0521	-3.4354	-2.8792	-3.1312	-3.4396	-3.0417	-3.1146	-3.1437	-2.8812	-3.3563	304.340	269.344	304.600	440.648	166.564	319.924	464.497	446.676	490.264	520.882	476.014	259.607	177.363	503.897	329.954	490.997	0.00054444	0.00045905	0.00010471	1366.5	4.6119e-06	5.8289e-06	1359.8	381.1	5.2376e-06	5.4559e-06	435.2	150.83	131.84	48.009	4.2677e-06	59.137	0.00076744	0.0011174	0.00031045	1385.3	1.1085e-05	1.293e-05	1380.9	387.15	1.1338e-05	1.2533e-05	442.7	154.26	134.66	49.379	1.145e-05	60.73	223.883	266.375	279.441	175.267	292.640	306.978	175.346	179.869	297.391	323.095	179.468	183.570	183.943	188.601	316.516	187.772	-8191	255	
14537.791	1	1	0	0	0.02213	0.065806	0.12613	0.053776	0.065962	0.080044	0.21761	0.23192	0.12698	0.15648	0.10794	0.18448	0.18726	0.046071	0.099155	0.09574	-2.4771	-3.0354	-3.3583	-2.9375	-3.2188	-3.1479	-3.1771	-3.5646	-3.1	-2.8208	-3.2021	-3.2188	-3.1833	-3.4062	-2.7479	-3.2625	269.912	329.375	405.786	520.645	395.781	414.744	469.462	449.289	450.998	400.349	218.436	453.367	413.379	435.592	487.413	322.472	0.00054666	0.00044545	0.00013225	1372	5.5393e-06	5.0076e-06	1361	381.01	4.9232e-06	5.8985e-06	434.15	150.63	131.03	48.24	5.4937e-06	58.981	0.00077905	0.0011308	0.00031112	1385.4	1.1408e-05	1.2882e-05	1381.4	387.71	1.1178e-05	1.2466e-05	442.6	154.39	134.57	49.428	1.1929e-05	60.672	224.417	245.180	240.439	175.438	308.179	319.679	175.340	179.759	297.167	303.529	179.481	183.493	184.006	188.569	301.335	187.865	-8191	255	
14537.888	1	1	0	0	0.18038	0.19187	0.15003	0.21343	0.17456	0.082682	0.23968	0.20048	0.09627	0.065074	0.037752	0.22423	0.22448	0.17383	0.11426	0.24649	-2.5604	-3.0062	-3.0708	-3.2604	-2.9854	-3.2292	-2.9854	-3.275	-3.3521	-3.1396	-3.4396	-3.2104	-3.2083	-3.2708	-2.9146	-3.3521	335.764	308.070	449.159	516.858	428.988	266.004	445.149	162.194	210.263	456.057	233.558	503.260	206.777	445.974	208.274	486.097	0.0005505	0.0005723	0.00012798	1365.8	4.0519e-06	6.1098e-06	1362.2	380.22	4.5898e-06	4.5539e-06	434.52	150.26	131.72	48.138	4.0399e-06	59.036	0.00076159	0.0011751	0.00031475	1384.7	1.1319e-05	1.264e-05	1380.4	387.1	1.1064e-05	1.26e-05	443.08	154.22	134.65	49.398	1.171e-05	60.621	221.655	239.782	261.522	175.456	309.977	311.334	175.140	179.909	309.738	306.610	179.356	183.576	183.806	188.561	304.580	187.697	-8191	255	
14538.006	1	1	0	0	0.18493	0.16132	0.19574	0.44884	0.14748	0.1113	0.27034	0.022152	0.18527	0.13104	0.17313	0.25182	0.18271	0.064465	0.12763	0.15418	-2.5062	-2.8354	-3.3375	-3.2979	-2.7021	-3.2083	-3.1958	-3.2562	-3.2042	-2.8812	-3.2062	-3.1042	-2.9375	-3.3708	-2.7458	-3.2104	276.487	362.562	298.421	485.642	341.353	190.976	505.498	186.127	426.529	520.530	492.602	390.776	515.665	282.777	335.283	489.010	0.00052724	0.00057341	0.00015985	1368.7	5.9498e-06	5.0504e-06	1360	380.32	4.5912e-06	6.431e-06	434.08	149.92	131.17	48.34	5.1606e-06	59.133	0.00076375	0.0011647	0.00032402	1383.4	1.1262e-05	1.283e-05	1379.8	386.78	1.1312e-05	1.2691e-05	442.63	153.98	134.45	49.386	1.1797e-05	60.678	223.374	246.105	255.514	175.501	308.031	302.377	175.254	180.070	303.377	303.522	179.184	183.401	183.841	188.596	315.105	187.846	-8191	255	
14538.103	1	1	0	0	0.25785	0.16022	0.17656	0.26562	0.13344	0.040372	0.31285	0.14963	0.14626	0.060815	0.19848	0.091461	0.16018	0.19563	0.11161	0.05471	-2.6458	-2.8771	-3.0438	-3.2125	-2.9646	-3.1583	-3.0687	-3.3042	-3.1667	-2.7354	-3.4104	-3.0938	-3.2479	-3.2146	-3.1208	-3.3083	393.127	282.086	508.925	477.434	338.084	303.904	427.089	500.066	332.951	357.251	437.190	494.891	440.197	471.191	376.362	235.930	0.00053841	0.00052186	0.00013836	1366.6	5.8385e-06	6.045e-06	1359.2	379.64	4.6762e-06	4.9739e-06	433.54	150.85	131.54	48.055	4.0421e-06	59.088	0.00078039	0.0011831	0.00032654	1383.7	1.1322e-05	1.3219e-05	1378.3	386.47	1.1177e-05	1.2792e-05	441.88	154.43	134.36	49.347	1.1728e-05	60.75	225.225	251.582	273.457	175.454	311.229	323.031	175.318	179.760	309.470	325.938	179.493	183.370	183.788	188.687	299.909	187.762	-8191	255	
14538.199	1	1	0	0	0.15433	0.062919	0.23928	0.44854	0.031918	0.12131	0.16229	0.15492	0.27301	0.05244	0.22985	0.17397	0.14466	0.18088	0.11141	0.095278	-2.7292	-2.7917	-3.1271	-3.1708	-2.8542	-3.2208	-3.1375	-3.2562	-3.0375	-2.95	-3.3625	-3.1104	-3.1458	-3.0854	-3.0375	-3.0854	168.619	313.184	498.020	494.953	459.062	423.570	398.023	459.152	416.951	469.223	491.095	477.360	236.141	493.945	369.166	480.597	0.00056015	0.00061429	0.00016943	1362.6	5.1034e-06	6.4975e-06	1361.5	379.39	4.3929e-06	3.6938e-06	435.78	149.98	130.94	48.19	3.1369e-06	59.013	0.00078231	0.0011536	0.00032829	1382	1.1202e-05	1.262e-05	1378.1	386.42	1.0775e-05	1.313e-05	442.36	153.9	134.27	49.302	1.2008e-05	60.593	224.521	258.309	278.795	175.422	304.851	308.476	175.289	179.859	302.626	315.114	179.469	183.387	183.899	188.534	310.465	187.730	-8191	255	
14538.295	1	1	0	0	0.12861	0.27737	0.10508	0.25574	0.33423	0.20707	0.23292	0.25463	0.16587	0.084751	0.1747	0.049803	0.14446	0.26131	0.026632	0.085161	-2.9437	-2.8208	-3.1208	-3.2938	-3.0583	-3.2104	-3.0354	-3.0125	-3.1813	-2.8604	-3.25	-3.2812	-3.0896	-3.2188	-3.1021	-3.0542	489.959	485.813	436.660	503.204	320.875	275.259	444.301	498.545	376.020	450.018	479.844	494.257	240.191	486.158	419.131	276.567	0.0005519	0.00055351	0.00014126	1358.7	4.3608e-06	5.2013e-06	1360.8	379.21	3.8977e-06	4.2931e-06	433.74	149.98	131.33	48.097	4.5884e-06	58.995	0.0007856	0.0011873	0.0003156	1379.3	1.1346e-05	1.3208e-05	1377.2	386.36	1.136e-05	1.2973e-05	441.75	153.99	134.47	49.33	1.2072e-05	60.665	222.173	249.050	256.556	175.200	304.345	317.492	175.234	180.005	297.043	323.262	179.315	183.480	183.787	188.407	289.485	187.734	-8191	255	
14538.415	1	1	0	0	0.10228	0.21769	0.11515	0.15675	0.15985	0.13692	0.26242	0.22956	0.09648	0.10743	0.18395	0.1794	0.13167	0.19845	0.11988	0.1233	-2.8583	-3.0229	-2.9333	-3.2625	-2.8833	-3.2125	-3.2375	-3.125	-3.2625	-2.9688	-3.0708	-3.2875	-2.8833	-3.1646	-3.0312	-3.0875	467.107	169.035	278.041	483.816	505.802	343.387	457.483	427.952	293.672	377.513	477.150	462.849	302.681	172.916	382.083	338.440	0.00053802	0.00052712	0.00013319	1369	5.0092e-06	4.8621e-06	1358.1	380.06	5.6842e-06	4.2258e-06	433.65	150.5	131.33	48.029	5.1017e-06	58.925	0.00078464	0.0011984	0.00031993	1383.7	1.1098e-05	1.2892e-05	1377.8	386.78	1.1126e-05	1.323e-05	442.26	154.04	134.42	49.322	1.1723e-05	60.588	223.467	242.868	254.372	175.205	308.903	307.087	175.205	179.915	305.158	311.758	179.339	183.492	183.829	188.294	306.649	187.612	-8191	255	
14538.487	1	1	0	0	0.022956	0.060703	0.18965	0.26969	0.2852	0.008377	0.23726	0.23293	0.10457	0.063179	0.16701	0.1693	0.19802	0.029436	0.21131	0.2071	-2.825	-2.9229	-2.8375	-3.3979	-2.8896	-3.2625	-3.3771	-2.9104	-3.2229	-2.9396	-3.0146	-3.2438	-2.9083	-3.1479	-3.2062	-2.9708	268.742	496.276	498.682	478.523	508.711	252.705	497.764	452.139	281.660	376.621	489.570	173.656	501.139	203.539	484.754	414.786	0.00055623	0.00063655	0.00015829	1368.2	4.7732e-06	6.3308e-06	1357.2	379.68	5.1258e-06	5.5282e-06	436.07	150.61	130.85	47.939	4.7297e-06	58.917	0.00079015	0.0011734	0.00032285	1384.4	1.1458e-05	1.2999e-05	1379.8	386.79	1.1213e-05	1.3072e-05	442.96	154.19	134.35	49.231	1.1387e-05	60.632	223.564	243.069	262.999	175.359	313.935	323.557	175.212	179.951	298.976	322.155	179.484	183.304	183.954	188.478	315.042	187.805	-8191	255	
14538.608	1	1	0	0	0.061332	0.11218	0.046781	0.13534	0.15297	0.18431	0.37523	0.22327	0.057377	0.16698	0.19384	0.13569	0.14021	0.18196	0.20142	0.32458	-2.7313	-2.8521	-2.9458	-3.4583	-2.7792	-2.9771	-3.4	-3.1375	-3.1396	-2.8917	-3.0667	-3.4604	-2.9104	-3.0563	-3.2625	-2.9667	241.715	422.191	264.988	428.145	401.096	243.567	474.481	490.633	386.839	460.411	519.557	516.130	412.503	424.096	354.197	446.671	0.00057606	0.00055307	0.00015231	1369.2	4.7305e-06	4.7352e-06	1356.4	379.02	4.3258e-06	5.2038e-06	432.44	150.11	131.22	47.929	4.9359e-06	59.057	0.00078871	0.0011764	0.00031735	1382.4	1.1425e-05	1.3072e-05	1377	386.27	1.1394e-05	1.3619e-05	441.9	153.77	134.36	49.249	1.1578e-05	60.509	222.305	248.899	243.229	175.361	288.626	322.524	175.181	179.821	311.684	331.455	179.478	183.609	183.710	188.556	296.977	187.753	-8191	255	
14538.704	1	1	0	0	0.20427	0.13447	0.10278	0.28379	0.1734	0.29782	0.15457	0.30287	0.024736	0.15652	0.26178	0.063937	0.16117	0.23917	0.22738	0.30501	-2.6292	-3.0917	-2.8146	-3.3208	-2.7313	-3.0625	-3.4104	-3	-3.1458	-3.0458	-3.1208	-3.2542	-3.1146	-3.3312	-3.2292	-2.9896	421.008	302.702	466.481	487.755	378.845	402.111	519.748	507.703	398.059	442.747	352.297	268.947	175.499	511.803	187.712	472.219	0.00053906	0.00037298	0.000156	1369.5	4.5909e-06	5.4969e-06	1359.1	379.94	3.8481e-06	4.3668e-06	433.54	150.06	130.8	48.026	4.4335e-06	58.687	0.00078731	0.0011602	0.00033046	1383.3	1.1451e-05	1.3195e-05	1377.4	386.72	1.1365e-05	1.3018e-05	441.64	153.71	134.06	49.22	1.1886e-05	60.478	223.169	244.028	261.150	175.552	307.439	316.881	175.332	179.831	298.545	307.027	179.657	183.602	183.687	188.555	300.922	187.877	-8191	255	
14538.800	1	1	0	0	0.19783	0.13005	0.12597	0.08767	0.23464	0.1742	0.41348	0.047374	0.19536	0.042886	0.23252	0.094458	0.057669	0.15275	0.12042	0.31189	-2.7292	-2.975	-2.7313	-3.2542	-2.9292	-3.15	-3.4354	-2.9604	-3.0208	-2.9979	-3.1	-3.3875	-2.8458	-3.3187	-3.1667	-3.1042	344.362	350.985	262.402	355.347	275.295	375.884	457.416	476.630	391.422	362.337	434.264	473.705	441.615	420.564	201.456	335.845	0.00054811	0.0004655	0.00014614	1364	4.3291e-06	3.556e-06	1356.2	379.24	5.1242e-06	5.113e-06	431.95	149.14	130.63	47.914	4.6191e-06	58.947	0.00078337	0.0012017	0.00032782	1380.1	1.1493e-05	1.3052e-05	1375.5	385.74	1.1345e-05	1.3371e-05	440.6	153.67	133.93	49.197	1.2048e-05	60.495	222.417	243.149	265.032	175.363	314.169	327.272	175.194	179.875	307.596	299.385	179.541	183.279	183.835	188.452	293.099	187.719	-8191	255	
14538.896	1	1	0	0	0.2157	0.075632	0.10776	0.091739	0.17246	0.10322	0.34015	0.30463	0.2027	0.077817	0.2473	0.13397	0.050042	0.07414	0.079433	0.29784	-2.6667	-3.0604	-2.8417	-3.4104	-3.0479	-3.0333	-3.4125	-2.9958	-3.1229	-3.1188	-2.7208	-3.3708	-3.15	-2.9938	-3.3375	-2.8896	480.628	431.229	400.619	449.295	454.583	509.186	482.995	472.268	469.919	513.453	455.079	441.277	483.226	291.061	212.970	470.303	0.00055724	0.00049897	0.00013195	1367	5.0204e-06	4.9862e-06	1354.4	379.16	4.8344e-06	4.3487e-06	432.96	149.92	130.74	47.871	4.8197e-06	58.729	0.00080032	0.0011793	0.00032335	1379.8	1.124e-05	1.3154e-05	1375.6	385.52	1.1646e-05	1.3023e-05	441.05	153.69	133.84	49.123	1.1636e-05	60.433	222.464	258.424	267.401	175.261	308.865	319.560	175.261	179.957	295.497	323.461	179.506	183.584	183.934	188.343	313.500	187.667	-8191	255	
14539.017	1	1	0	0	0.2883	0.11457	0.026728	0.1989	0.041936	0.29081	0.13093	0.33109	0.11944	0.096718	0.062782	0.21767	0.099277	0.24982	0.21828	0.10206	-2.5229	-3.1562	-2.7438	-3.3187	-3.0229	-2.8375	-3.5125	-3.0479	-3.0729	-3.2354	-3.0208	-3.2042	-3.1896	-3.0292	-3.2292	-3.1729	177.871	300.528	411.607	503.300	330.613	513.439	455.783	474.723	356.136	463.497	405.551	455.775	423.253	478.376	433.039	421.298	0.00055684	0.00060769	0.00017159	1365.5	5.1486e-06	6.8168e-06	1358	379.24	5.1727e-06	4.1157e-06	433.75	150.39	131.28	48.028	5.149e-06	58.926	0.0007956	0.001159	0.0003282	1381.3	1.1561e-05	1.3855e-05	1376.8	385.78	1.1509e-05	1.2926e-05	441.62	153.89	134.15	49.242	1.207e-05	60.421	222.725	250.807	269.466	175.509	300.532	316.193	175.145	179.865	310.840	322.786	179.402	183.317	183.991	188.394	307.749	187.927	-8191	255	
14539.089	1	1	0	0	0.15343	0.19479	0.13723	0.42219	0.1871	0.2578	0.26852	0.33513	0.28001	0.018472	0.30741	0.26783	0.35148	0.23316	0.22925	0.24656	-2.4896	-3.0479	-2.8312	-3.2333	-3.2021	-2.7542	-3.4917	-3.3354	-2.7896	-3.3042	-3.1708	-3.1792	-3.2625	-2.9542	-3.2146	-2.9917	409.626	219.006	461.713	517.882	492.736	411.893	442.748	448.869	441.675	351.375	474.518	167.893	490.065	175.942	320.267	468.883	0.00055664	0.00053918	0.00015395	1361.2	4.9661e-06	5.1219e-06	1355.2	379.31	5.7265e-06	6.8589e-06	433.94	149.95	130.73	48.07	4.553e-06	58.934	0.00079375	0.0012034	0.00033593	1381.4	1.1365e-05	1.3489e-05	1376.1	385.76	1.1614e-05	1.3029e-05	440.97	153.63	133.93	49.157	1.2027e-05	60.397	222.614	260.884	261.700	175.385	299.312	307.995	175.169	179.918	296.252	293.929	179.467	183.318	183.842	188.354	301.901	187.688	-8191	255	
14539.183	1	1	0	0	0.17095	0.14832	0.16039	0.32948	0.14079	0.19499	0.17482	0.16764	0.19842	0.11747	0.26086	0.072988	0.14455	0.24559	0.24637	0.061116	-2.5292	-3.1562	-2.8896	-3.2104	-3.2167	-3.0083	-3.525	-3.2562	-2.9458	-3.4625	-3.1583	-3.1	-3.3604	-2.9646	-3.0458	-3.2104	182.634	412.180	423.215	456.036	473.427	468.276	463.459	435.585	363.797	355.871	512.073	511.276	507.667	189.681	482.321	190.094	0.00055238	0.00057896	0.00016763	1364.8	5.4279e-06	5.6675e-06	1356.4	379.87	5.6876e-06	4.4076e-06	434.82	149.94	130.94	47.975	4.9868e-06	58.946	0.00079477	0.0011765	0.0003373	1380.8	1.1058e-05	1.3659e-05	1376.8	385.68	1.1501e-05	1.3543e-05	441.23	153.68	133.94	49.163	1.2274e-05	60.445	223.702	242.027	262.455	175.307	293.093	321.655	175.349	179.801	290.686	334.197	179.281	183.653	184.113	188.589	295.108	187.674	-8191	255	
14539.304	1	1	0	0	0.13939	0.18748	0.14758	0.059573	0.17705	0.25614	0.18315	0.33356	0.080242	0.1947	0.15008	0.115	0.17196	0.083813	0.050294	0.23513	-2.3333	-3.0062	-2.9583	-3.1875	-3.1729	-3.1625	-3.1937	-3.1521	-2.9208	-3.1479	-3.1562	-3.0771	-3.2396	-3.1208	-3.1479	-3.0021	330.757	499.117	480.453	509.898	252.024	233.722	473.116	460.577	371.009	310.001	184.827	433.050	486.089	404.741	197.453	463.309	0.00055977	0.00062931	0.00014496	1363.2	3.7064e-06	5.2047e-06	1353.6	379.02	5.8154e-06	5.8468e-06	434	149.55	130.81	47.997	5.19e-06	58.753	0.00080841	0.0011962	0.00032806	1380.3	1.1516e-05	1.3298e-05	1374.5	385.41	1.172e-05	1.3298e-05	441.33	153.48	133.98	49.153	1.2169e-05	60.434	222.133	256.389	252.350	175.388	317.339	309.827	175.257	179.917	297.995	301.718	179.156	183.486	183.971	188.440	298.012	187.747	-8191	255	
14539.400	1	1	0	0	0.097386	0.11486	0.047452	0.072349	0.032838	0.23914	0.4606	0.045005	0.026937	0.21841	0.25442	0.20496	0.19839	0.071291	0.20728	0.037726	-2.4146	-3.1771	-3.1229	-3.1104	-3.1896	-2.8688	-3.1917	-3.3854	-2.9125	-3.3854	-3.2417	-3.1208	-3.0875	-3.0042	-3.0062	-3.1604	357.865	500.043	201.727	373.747	421.807	463.413	465.074	403.560	191.014	271.051	517.355	426.463	213.176	217.281	385.244	512.597	0.00054563	0.00069932	0.00017632	1358.6	5.0121e-06	4.8559e-06	1356.2	379.29	5.5558e-06	5.5372e-06	433.19	149.56	130.55	47.941	5.1605e-06	58.867	0.00080186	0.0011929	0.0003402	1379.7	1.1228e-05	1.3576e-05	1375.6	385.78	1.1603e-05	1.3507e-05	440.85	153.64	133.89	49.146	1.2351e-05	60.492	221.032	264.528	252.383	175.361	309.729	295.596	175.161	179.797	300.164	295.020	179.380	183.446	183.946	188.370	296.634	187.850	-8191	255	
14539.496	1	1	0	0	0.18733	0.33206	0.2196	0.52949	0.21785	0.13412	0.14656	0.38116	0.096917	0.047191	0.18069	0.12269	0.16599	0.32646	0.0048185	0.19105	-2.6875	-3.1854	-3.0208	-3.2375	-3.1417	-3.0875	-3.2188	-3.3854	-2.9833	-3.1854	-3.2062	-2.9229	-3.3292	-3.1333	-2.975	-3.3021	289.244	184.654	352.514	463.729	179.593	222.116	454.324	493.852	179.350	358.456	401.868	449.417	514.902	508.404	301.304	297.779	0.00053607	0.00047291	0.00016704	1362.9	5.7332e-06	5.0491e-06	1355.7	378.68	4.7229e-06	4.1552e-06	433.85	149.84	130.74	48.042	5.0982e-06	58.781	0.00077909	0.0011456	0.0003244	1379.5	1.1364e-05	1.3131e-05	1375.9	385.18	1.1837e-05	1.3273e-05	441.37	153.64	133.78	49.173	1.2389e-05	60.429	222.647	249.258	247.192	175.396	313.800	300.222	175.073	179.752	299.617	327.327	179.321	183.366	183.854	188.530	318.676	187.966	-8191	255	
14539.592	1	1	0	0	0.072398	0.10009	0.28839	0.1074	0.080121	0.11405	0.36597	0.072016	0.25208	0.22884	0.28774	0.15251	0.13719	0.15589	0.032267	0.16037	-2.5167	-2.9313	-3.0187	-3.1083	-3.1188	-2.9771	-3.2125	-3.325	-2.8958	-3.05	-3.1958	-2.9021	-3.1625	-3.0229	-3.0479	-3.3583	171.002	249.919	435.290	517.338	216.811	272.974	461.552	516.734	310.930	298.106	457.848	456.998	191.161	502.443	280.938	441.197	0.00054131	0.00047494	0.00016457	1363.3	6.1088e-06	4.6561e-06	1355.5	378.28	5.0476e-06	5.9698e-06	433.9	149.78	130.27	47.98	4.3258e-06	58.976	0.00079505	0.0011935	0.00032584	1381.9	1.1378e-05	1.3627e-05	1376.5	385.63	1.1741e-05	1.3382e-05	441.25	153.66	133.77	49.187	1.2137e-05	60.502	222.914	249.394	255.678	175.540	303.767	320.002	175.235	179.825	296.594	310.674	179.494	183.379	183.902	188.619	298.853	187.774	-8191	255	
14539.688	1	1	0	0	0.05829	0.43156	0.24036	0.41246	0.14834	0.15308	0.28038	0.11692	0.098733	0.13868	0.25624	0.12371	0.13332	0.27262	0.22491	0.06392	-2.5938	-3.1188	-3.0771	-3.0917	-3.1021	-3.025	-3.2583	-3.4062	-2.9229	-3.1625	-3.2417	-3.0438	-3.3958	-3.1458	-2.9292	-3.2188	445.122	216.639	222.547	448.799	412.683	332.447	503.085	429.845	486.424	194.967	507.944	512.959	176.026	489.595	397.037	441.644	0.00052989	0.0003842	0.00012185	1368	4.5695e-06	6.3438e-06	1359.1	378.73	5.33e-06	4.967e-06	433.51	150.32	131.63	47.948	4.4073e-06	59.063	0.00079063	0.0011855	0.00031724	1382.5	1.1374e-05	1.3194e-05	1376.4	385.57	1.1419e-05	1.3503e-05	441.29	153.87	134.16	49.273	1.2305e-05	60.51	224.774	251.307	251.325	175.426	310.501	303.977	175.264	179.980	307.047	314.390	179.276	183.503	183.933	188.576	302.398	187.722	-8191	255	
14539.784	1	1	0	0	0.19786	0.14567	0.34534	0.2883	0.21362	0.14593	0.35161	0.3069	0.24596	0.098801	0.23253	0.20214	0.21383	0.086894	0.1709	0.31305	-2.3812	-3.025	-3.0833	-3.175	-3.2354	-3.1063	-3.0917	-3.3833	-3.0187	-3.1188	-3.3563	-2.9083	-3.2021	-3.1354	-2.8937	-3.2146	310.226	393.469	498.502	497.258	268.782	390.776	481.171	477.995	345.472	407.644	232.416	214.497	505.748	495.140	350.612	480.711	0.00054254	0.00046553	0.00014407	1364	5.1693e-06	4.669e-06	1356.4	378.74	4.8654e-06	7.4136e-06	432.09	150.12	130.9	48.019	5.4456e-06	59.189	0.0007968	0.0012062	0.00032478	1381.3	1.1297e-05	1.2993e-05	1375.6	385.82	1.1657e-05	1.3472e-05	440.89	153.6	134.16	49.244	1.24e-05	60.542	223.038	256.314	262.362	175.246	317.338	292.878	175.382	179.820	305.590	317.591	179.639	183.600	183.883	188.707	309.953	187.845	-8191	255	
14539.880	1	1	0	0	0.1243	0.15596	0.14694	0.46901	0.27194	0.093637	0.062001	0.13638	0.069331	0.22442	0.35263	0.15611	0.15607	0.42282	0.063748	0.15667	-2.6271	-3.0208	-3.2292	-3.2125	-3.1312	-3.2104	-3.2812	-3.4604	-3.0146	-2.9917	-3.3104	-3.0208	-3.2146	-3.2333	-2.8833	-3.1896	196.225	498.385	184.292	495.042	418.933	281.286	499.569	400.914	381.788	305.060	380.500	218.350	197.377	406.523	260.238	417.127	0.00054326	0.00042149	0.00014781	1367.6	4.9908e-06	5.8012e-06	1357.4	379.46	5.4372e-06	6.5948e-06	433.76	149.71	130.79	48.095	5.7605e-06	58.847	0.00077916	0.0011932	0.00032197	1381.5	1.1538e-05	1.3303e-05	1376.6	385.83	1.157e-05	1.3092e-05	441.36	153.64	134.23	49.292	1.2365e-05	60.504	223.862	253.816	254.437	175.268	308.604	298.952	175.174	179.937	297.319	304.905	179.438	183.433	184.005	188.422	311.150	187.820	-8191	255	
14539.977	1	1	0	0	0.032864	0.12502	0.093228	0.076779	0.11998	0.09381	0.24841	0.13177	0.041928	0.094904	0.33271	0.058957	0.40225	0.1069	0.26519	0.27429	-2.75	-2.8167	-3.1771	-3.2833	-3.1396	-3.1979	-3.1021	-3.3312	-3.1688	-3.0042	-3.3646	-3.0187	-3.3208	-3.2146	-2.7896	-3.3417	251.531	489.568	251.826	224.489	188.714	233.853	494.663	485.145	497.857	402.029	213.470	299.701	457.996	457.372	464.591	409.905	0.00054079	0.00053161	0.00015347	1369.5	5.7318e-06	5.5282e-06	1357	379.91	5.0375e-06	6.7146e-06	432.88	150.15	130.92	47.878	4.9952e-06	58.668	0.00078782	0.0011715	0.00032373	1381.3	1.1779e-05	1.3405e-05	1375.4	385.96	1.168e-05	1.3432e-05	441.41	153.86	134.1	49.181	1.2348e-05	60.525	222.677	242.900	257.887	175.383	304.316	319.143	175.292	179.768	303.446	304.071	179.568	183.569	184.083	188.339	301.637	187.691	-8191	255	
14540.097	1	1	0	0	0.18892	0.34317	0.30681	0.19656	0.05224	0.12584	0.19883	0.43548	0.12089	0.074251	0.18888	0.20832	0.08817	0.08665	0.16498	0.13654	-2.5271	-2.8292	-3.2938	-3.1167	-2.9521	-3.2396	-3.0438	-3.3792	-3.1479	-3.0062	-3.3125	-3.1417	-2.9813	-3.3625	-2.9313	-3.2479	429.756	387.196	365.662	451.512	184.716	372.278	495.240	456.692	275.089	261.889	486.543	174.276	169.503	164.280	393.009	439.038	0.00056274	0.0005431	0.00011649	1363.5	5.2027e-06	4.842e-06	1357.7	378.92	4.4291e-06	4.7968e-06	433.24	150.16	131.13	48.03	6.3546e-06	58.912	0.00080515	0.0011878	0.00033315	1379.5	1.1593e-05	1.2766e-05	1376.8	385.94	1.137e-05	1.348e-05	441.53	153.87	134.14	49.19	1.1883e-05	60.489	223.501	246.196	256.456	175.426	298.201	321.369	175.251	179.754	309.019	307.996	179.274	183.363	183.808	188.541	295.074	187.811	-8191	255	
14540.192	1	1	0	0	0.19792	0.22776	0.30105	0.15686	0.21634	0.040408	0.37414	0.24432	0.2389	0.085339	0.095781	0.17378	0.18293	0.25902	0.10234	0.25293	-2.5312	-2.6917	-3.1875	-3.2958	-3.0604	-3.2479	-3.1	-3.1937	-3.2167	-2.8187	-3.3	-3.1104	-2.8146	-3.2333	-2.8688	-3.125	483.845	515.887	254.909	504.038	353.367	362.851	448.400	478.092	175.238	471.134	487.703	489.662	454.579	482.928	267.322	431.688	0.00054464	0.00063644	0.00017767	1365.1	4.3355e-06	3.3595e-06	1355.9	378.59	4.5629e-06	4.8492e-06	433.51	149.88	130.38	47.981	5.5367e-06	58.794	0.00079477	0.0012335	0.00033403	1380.5	1.1522e-05	1.2709e-05	1375.2	385.22	1.1288e-05	1.3057e-05	441.4	153.6	133.95	49.217	1.203e-05	60.54	224.093	253.847	251.215	175.442	312.690	332.713	175.109	179.908	309.971	304.270	179.333	183.499	183.639	188.541	310.949	187.925	-8191	255	
14540.288	1	1	0	0	0.25169	0.16371	0.22115	0.43542	0.17039	0.3905	0.25948	0.28229	0.099642	0.15467	0.20148	0.25098	0.15682	0.21213	0.1968	0.086492	-2.7896	-2.6937	-3.0875	-3.1917	-3.0146	-3.2354	-3.2062	-3.2188	-3.2	-2.6583	-3.1625	-3.25	-2.9354	-3.2229	-2.9	-3.2375	406.177	455.687	428.397	486.742	190.466	422.373	435.994	454.195	234.851	244.547	171.093	421.373	325.329	466.187	169.957	492.318	0.00055868	0.00026856	0.00012039	1362.6	4.3249e-06	4.7871e-06	1358.1	379.46	4.7635e-06	5.3946e-06	434.41	149.89	130.72	47.997	4.7703e-06	58.727	0.00079067	0.0011912	0.00032914	1380.1	1.1619e-05	1.3066e-05	1376.3	386.17	1.1143e-05	1.3701e-05	442.1	153.77	134.1	49.239	1.2215e-05	60.557	222.471	244.269	255.261	175.340	289.570	309.160	175.392	180.049	303.002	324.337	179.423	183.394	183.843	188.542	292.909	187.689	-8191	255	
#DATA ENDS
