BOXY.EXE: ISS Imagent and Oximeter Data Acquisition Program Version 0.80
Ascii Record File

#ACQ INFORMATION
2  Detector Channels 
16  External MUX Channels 
1  Auxiliary Channels 
5000  Waveform (CCF) Frequency (Hz)
1  Waveforms Skipped 
30  Waveforms Averaged 
1  Cycles Averaged 
16  Acquisitions per Waveform 
10.0806  Updata Rate (Hz) 

#FILE INFORMATION
TRUE -- External MUX Channel results are PARSED.
FALSE -- AC DC and Phase are NOT grouped.
TRUE -- Companion Program Settings File CREATED.
FALSE -- AC data not excluded
FALSE -- DC data not excluded
FALSE -- Phase data not excluded
FALSE -- Auxillary Chn. data not excluded
Tab delimiters

#CALIBRATION STATE
TRUE -- Waveform Calibration Values APPLIED.


#AUX CALIBRATION VALUES
Val Type	aux-1	

Term	1.0000e+00	
Factor	0.0000e+00	


#WF CALIBRATION VALUES
A = Detector Channel
Val Type	A-AC1	A-AC2	A-AC3	A-AC4	A-AC5	A-AC6	A-AC7	A-AC8	A-AC9	A-AC10	A-AC11	A-AC12	A-AC13	A-AC14	A-AC15	A-AC16	A-DC1	A-DC2	A-DC3	A-DC4	A-DC5	A-DC6	A-DC7	A-DC8	A-DC9	A-DC10	A-DC11	A-DC12	A-DC13	A-DC14	A-DC15	A-DC16	A-Ph1	A-Ph2	A-Ph3	A-Ph4	A-Ph5	A-Ph6	A-Ph7	A-Ph8	A-Ph9	A-Ph10	A-Ph11	A-Ph12	A-Ph13	A-Ph14	A-Ph15	A-Ph16	

Term	0.00000e+00	0.00000e+00	0.00000e+00	0.00000e+00	0.00000e+00	0.00000e+00	0.00000e+00	0.00000e+00	0.00000e+00	0.00000e+00	0.00000e+00	0.00000e+00	0.00000e+00	0.00000e+00	0.00000e+00	0.00000e+00	0.00000e+00	0.00000e+00	0.00000e+00	0.00000e+00	0.00000e+00	0.00000e+00	0.00000e+00	0.00000e+00	0.00000e+00	0.00000e+00	0.00000e+00	0.00000e+00	0.00000e+00	0.00000e+00	0.00000e+00	0.00000e+00	0.00000e+00	0.00000e+00	0.00000e+00	0.00000e+00	0.00000e+00	0.00000e+00	0.00000e+00	0.00000e+00	0.00000e+00	0.00000e+00	0.00000e+00	0.00000e+00	0.00000e+00	0.00000e+00	0.00000e+00	0.00000e+00	
Factor	1.00000e+00	1.00000e+00	1.00000e+00	1.00000e+00	1.00000e+00	1.00000e+00	1.00000e+00	1.00000e+00	1.00000e+00	1.00000e+00	1.00000e+00	1.00000e+00	1.00000e+00	1.00000e+00	1.00000e+00	1.00000e+00	1.00000e+00	1.00000e+00	1.00000e+00	1.00000e+00	1.00000e+00	1.00000e+00	1.00000e+00	1.00000e+00	1.00000e+00	1.00000e+00	1.00000e+00	1.00000e+00	1.00000e+00	1.00000e+00	1.00000e+00	1.00000e+00	X	X	X	X	X	X	X	X	X	X	X	X	X	X	X	X	

B = Detector Channel
Val Type	B-AC1	B-AC2	B-AC3	B-AC4	B-AC5	B-AC6	B-AC7	B-AC8	B-AC9	B-AC10	B-AC11	B-AC12	B-AC13	B-AC14	B-AC15	B-AC16	B-DC1	B-DC2	B-DC3	B-DC4	B-DC5	B-DC6	B-DC7	B-DC8	B-DC9	B-DC10	B-DC11	B-DC12	B-DC13	B-DC14	B-DC15	B-DC16	B-Ph1	B-Ph2	B-Ph3	B-Ph4	B-Ph5	B-Ph6	B-Ph7	B-Ph8	B-Ph9	B-Ph10	B-Ph11	B-Ph12	B-Ph13	B-Ph14	B-Ph15	B-Ph16	

Term	0.00000e+00	0.00000e+00	0.00000e+00	0.00000e+00	0.00000e+00	0.00000e+00	0.00000e+00	0.00000e+00	0.00000e+00	0.00000e+00	0.00000e+00	0.00000e+00	0.00000e+00	0.00000e+00	0.00000e+00	0.00000e+00	0.00000e+00	0.00000e+00	0.00000e+00	0.00000e+00	0.00000e+00	0.00000e+00	0.00000e+00	0.00000e+00	0.00000e+00	0.00000e+00	0.00000e+00	0.00000e+00	0.00000e+00	0.00000e+00	0.00000e+00	0.00000e+00	3.37194e+01	-1.68587e+02	-1.35414e+02	-1.80770e+02	-1.05564e+02	-1.05091e+02	-1.55686e+02	-1.62015e+02	-9.81900e+01	-8.14180e+01	-1.72633e+02	-1.70093e+02	-1.81385e+02	-1.76491e+02	-1.12733e+02	-1.49752e+02	
Factor	4.74211e-05	1.08441e-04	2.30837e-05	1.85097e-01	9.01655e-07	1.19884e-06	1.81138e-01	5.42658e-02	1.20113e-06	1.08790e-06	1.10167e-01	3.06233e-02	3.78414e-02	9.83169e-03	9.60378e-07	1.40816e-02	4.97090e-07	4.99476e-07	1.38873e-07	8.54261e-02	5.49520e-09	5.46460e-09	7.88256e-02	2.49800e-02	5.49752e-09	5.45879e-09	4.68186e-02	1.32798e-02	1.62271e-02	4.37497e-03	5.48598e-09	6.00434e-03	X	X	X	X	X	X	X	X	X	X	X	X	X	X	X	X	



#DISTANCE SETTINGS
A = Detector Channel
A-1	A-2	A-3	A-4	A-5	A-6	A-7	A-8	A-9	A-10	A-11	A-12	A-13	A-14	A-15	A-16	

2.5000e+00	3.0000e+00	2.5000e+00	3.0000e+00	2.0000e+00	3.0000e+00	1.5000e+00	3.0000e+00	3.0000e+00	3.0000e+00	3.0000e+00	3.0000e+00	3.0000e+00	3.0000e+00	1.5000e+00	3.0000e+00	

B = Detector Channel
B-1	B-2	B-3	B-4	B-5	B-6	B-7	B-8	B-9	B-10	B-11	B-12	B-13	B-14	B-15	B-16	

1.0000e+01	1.0000e+01	1.0000e+01	1.4400e+00	1.0000e+01	1.0000e+01	1.5100e+00	1.9400e+00	1.0000e+01	1.0000e+01	1.9900e+00	2.4900e+00	2.4100e+00	2.9000e+00	1.0000e+01	2.9800e+00	




#DATA BEGINS
time	group	step	mark	flag	A-AC1	A-AC2	A-AC3	A-AC4	A-AC5	A-AC6	A-AC7	A-AC8	A-AC9	A-AC10	A-AC11	A-AC12	A-AC13	A-AC14	A-AC15	A-AC16	A-DC1	A-DC2	A-DC3	A-DC4	A-DC5	A-DC6	A-DC7	A-DC8	A-DC9	A-DC10	A-DC11	A-DC12	A-DC13	A-DC14	A-DC15	A-DC16	A-Ph1	A-Ph2	A-Ph3	A-Ph4	A-Ph5	A-Ph6	A-Ph7	A-Ph8	A-Ph9	A-Ph10	A-Ph11	A-Ph12	A-Ph13	A-Ph14	A-Ph15	A-Ph16	B-AC1	B-AC2	B-AC3	B-AC4	B-AC5	B-AC6	B-AC7	B-AC8	B-AC9	B-AC10	B-AC11	B-AC12	B-AC13	B-AC14	B-AC15	B-AC16	B-DC1	B-DC2	B-DC3	B-DC4	B-DC5	B-DC6	B-DC7	B-DC8	B-DC9	B-DC10	B-DC11	B-DC12	B-DC13	B-DC14	B-DC15	B-DC16	B-Ph1	B-Ph2	B-Ph3	B-Ph4	B-Ph5	B-Ph6	B-Ph7	B-Ph8	B-Ph9	B-Ph10	B-Ph11	B-Ph12	B-Ph13	B-Ph14	B-Ph15	B-Ph16	aux-1	digaux	

6823.794	1	1	0	768	0.17986	0.16672	0.17204	0.26684	0.095999	0.16784	0.23485	0.16887	0.051256	0.074404	0.23417	0.040359	0.19784	0.23795	0.27489	0.29576	-2.7771	-2.9562	-3.0604	-3.3646	-3.0583	-3.125	-3.2313	-3.2083	-3.2208	-3.0271	-3.0438	-3.3312	-2.7833	-3.25	-3.2313	-3.1271	173.840	168.842	389.375	411.584	423.932	251.949	411.415	428.972	407.230	352.784	438.169	387.050	410.486	128.235	125.096	423.715	0.0011893	0.00035178	9.2961e-05	1350.7	7.2769e-06	5.6194e-06	1353.8	364.85	1.4631e-05	2.0607e-07	415.82	140.43	123.53	41.703	2.7278e-06	51.396	0.000492	0.00054115	0.00013735	1365.2	5.4259e-06	5.8432e-06	1370	369.35	5.4614e-06	5.8324e-06	421.69	141.4	123.86	42.984	5.4509e-06	52.294	332.558	123.360	310.309	99.526	185.294	223.728	99.439	104.321	210.425	381.189	103.661	108.353	109.063	113.400	427.361	112.161	-8191	255	
6823.891	1	1	0	0	0.15837	0.16843	0.072642	0.1405	0.06719	0.03144	0.14984	0.15418	0.1264	0.078626	0.2528	0.086196	0.2531	0.2646	0.21328	0.12157	-2.6896	-2.8958	-3	-3.2479	-2.7542	-3.2292	-3.3396	-2.9854	-3.1646	-2.9604	-2.9896	-3.2417	-2.8771	-3.0104	-3.05	-3	403.007	384.525	320.214	355.225	417.384	260.581	370.704	426.532	365.277	226.500	403.127	423.262	176.371	420.590	258.521	327.383	0.0013605	0.00049947	5.597e-05	1347.4	5.9423e-06	6.5682e-06	1359.7	364.86	5.9335e-06	4.2125e-06	416.84	141.54	122.4	41.766	1.3767e-06	51.445	0.0005258	0.00053775	0.00013763	1365.6	5.8122e-06	5.7719e-06	1372	369.23	5.8082e-06	5.6956e-06	420.69	141.65	124.32	42.71	5.1588e-06	52.146	334.684	253.007	271.586	99.712	196.278	294.832	99.470	104.370	182.931	272.832	103.603	108.254	108.691	113.190	153.605	112.232	-8191	255	
6823.987	1	1	0	0	0.23737	0.20772	0.17511	0.15694	0.40592	0.097606	0.41629	0.15679	0.081368	0.16905	0.22736	0.2108	0.21219	0.25407	0.27732	0.24252	-2.6562	-2.9375	-2.8563	-3.425	-2.9146	-3.0896	-3.3146	-3.0167	-3.1104	-3.2208	-2.8958	-3.1875	-3.0979	-3.0958	-3.3521	-3.0396	346.416	182.714	151.891	112.350	204.218	195.983	363.791	419.845	88.334	132.922	122.608	417.980	377.751	377.796	435.797	356.979	0.0013933	0.0004263	3.9695e-05	1348.7	2.8783e-06	2.9875e-06	1348.7	364.48	3.682e-06	4.6556e-06	413.23	140.58	122.59	41.717	1.3923e-06	51.494	0.00052402	0.00049326	0.00012653	1360.3	5.5807e-06	5.1512e-06	1357.6	367.55	5.422e-06	4.9801e-06	413.44	140.44	122.4	42.03	4.5181e-06	51.841	325.816	419.275	171.540	99.695	159.541	334.588	99.541	104.380	162.489	440.729	103.551	108.449	108.850	113.286	408.497	112.253	-8191	255	
6824.083	1	1	0	0	0.12663	0.067731	0.074858	0.14007	0.1806	0.11854	0.27044	0.24717	0.07386	0.10192	0.17741	0.21564	0.13004	0.08963	0.23753	0.15067	-2.675	-3.2625	-2.9646	-3.3333	-3.0583	-2.9521	-3.25	-3.0354	-3.1937	-3.1521	-2.7833	-3.3104	-3.15	-3.0854	-3.0708	-3.0625	127.019	415.626	402.228	437.472	170.376	223.573	381.770	383.444	142.594	166.543	358.929	407.539	149.804	393.783	403.010	366.929	0.0012413	0.00025173	0.00014185	1347.9	3.8099e-06	2.7742e-06	1348.7	363.35	1.5422e-06	4.9898e-06	413.55	140.47	122.88	41.78	4.4532e-06	51.409	0.00047522	0.00043024	0.00011211	1356	5.1054e-06	4.6341e-06	1347.6	366.75	5.0254e-06	4.6221e-06	410.9	140.62	121.74	41.85	4.295e-06	51.995	340.159	333.657	143.108	99.601	104.080	241.789	99.418	104.401	159.449	242.976	103.646	108.384	108.753	113.246	172.024	112.161	-8191	255	
6824.179	1	1	0	0	0.047245	0.0325	0.034103	0.33112	0.038428	0.22783	0.21576	0.45885	0.063203	0.1036	0.0095479	0.17134	0.24372	0.19852	0.099453	0.17142	-2.5875	-3.1188	-2.9896	-3.3646	-3.0896	-3.0375	-3.4333	-3.1146	-3.1	-3.3458	-3.1354	-3.4104	-3.1	-2.9854	-3.1896	-3.0917	281.947	195.290	89.772	362.200	366.134	327.425	383.496	371.756	112.731	371.372	397.468	411.545	137.752	363.158	271.795	168.552	0.0012839	0.00013949	2.912e-05	1348	5.6334e-06	2.5719e-06	1349.5	364.64	9.1127e-07	2.2279e-06	416.39	140.43	122.78	41.76	2.6947e-06	51.792	0.00045087	0.00041357	0.00010889	1358.6	4.8479e-06	4.4882e-06	1349.2	368.48	4.8911e-06	4.5592e-06	413.17	141.46	121.5	41.916	4.6112e-06	52.505	340.625	377.259	223.631	99.792	295.166	245.311	99.495	104.581	199.598	152.652	103.591	108.334	108.530	113.405	233.277	112.376	-8191	255	
6824.275	1	1	0	0	0.17857	0.086627	0.26616	0.32077	0.1904	0.28574	0.17351	0.33766	0.095678	0.19514	0.10465	0.16611	0.078366	0.08842	0.17093	0.098488	-2.6562	-3.2	-2.8312	-3.275	-3.0125	-2.95	-3.4354	-3.0521	-2.9458	-3.2542	-3.0083	-3.2771	-3.1375	-3.0229	-3.3208	-2.9771	242.752	233.603	419.009	375.038	243.155	292.927	364.088	380.773	106.364	277.758	142.091	379.692	294.703	409.890	442.924	262.900	0.0010824	0.0002217	0.00013313	1345.5	2.0775e-06	3.5974e-06	1351.5	364.53	7.4773e-06	5.8022e-06	414.78	140.41	122.65	41.665	9.7129e-06	51.452	0.00045688	0.00042648	0.00011931	1366.9	5.0083e-06	4.6625e-06	1359.8	370.26	5.0154e-06	4.7226e-06	417.2	142.63	121.99	42.057	5.167e-06	52.836	331.852	181.757	153.314	99.698	193.307	283.549	99.467	104.415	236.691	318.728	103.726	108.472	108.820	113.454	180.846	112.337	-8191	255	
6824.394	1	1	0	0	0.086181	0.052886	0.19629	0.23457	0.15505	0.30857	0.27605	0.17821	0.26822	0.26267	0.28018	0.22495	0.35194	0.34502	0.18679	0.24989	-2.5021	-3.1021	-2.8792	-3.1562	-3.1875	-2.9562	-3.3646	-3.0917	-2.7375	-3.1396	-2.9479	-3.1521	-3.15	-2.8354	-3.2292	-3.1729	339.756	303.613	110.859	434.799	289.841	155.378	421.754	387.200	195.277	357.633	444.619	332.883	424.889	444.605	128.480	382.132	0.0011531	0.0004421	0.00017389	1351.5	1.206e-06	8.1218e-06	1358.4	363.54	6.6825e-06	2.6268e-06	413.86	140.37	122.58	41.646	7.7201e-06	51.622	0.00047074	0.00043638	0.00013325	1372.7	5.1402e-06	4.7602e-06	1368.4	370.4	5.1374e-06	4.8259e-06	421.32	142.51	122.32	42.159	5.6292e-06	52.882	341.066	182.232	160.827	99.677	234.325	273.643	99.544	104.494	247.679	251.237	103.822	108.407	108.903	113.065	197.875	112.114	-8191	255	
6824.490	1	1	0	0	0.081589	0.19452	0.12523	0.19718	0.16934	0.29819	0.20135	0.076316	0.22562	0.099022	0.11387	0.50761	0.00304	0.25703	0.29453	0.1305	-2.4813	-3.2188	-2.8104	-3.2	-3.2458	-3.0062	-3.2729	-3.1708	-2.8979	-3.2313	-3.0667	-3.0312	-3.2792	-3.0292	-3.2792	-3.2417	271.369	293.578	254.865	323.173	349.386	422.902	397.871	173.338	187.691	414.778	310.269	115.871	189.299	384.010	201.735	317.230	0.0010719	0.00053225	0.00024691	1342.4	2.0932e-06	8.1253e-06	1348.9	363.7	6.2134e-06	3.5699e-06	414.98	140.29	122.14	41.696	2.8589e-06	51.58	0.00047918	0.00045787	0.00014639	1367.1	5.1974e-06	4.999e-06	1371.3	370.08	5.1105e-06	5.0409e-06	423.17	141.85	121.89	42.301	5.7995e-06	52.71	343.408	112.879	143.108	99.858	364.859	216.676	99.532	104.466	259.291	138.140	103.654	108.540	108.833	113.132	390.129	112.242	-8191	255	
6824.586	1	1	0	0	0.17155	0.16633	0.1141	0.25449	0.085364	0.11009	0.40261	0.083201	0.11083	0.015751	0.40102	0.23567	0.1787	0.079706	0.23523	0.098808	-2.5208	-3.1437	-2.9771	-3.0062	-3.1375	-2.9042	-3.4083	-3.2229	-2.9229	-3.1937	-3.0187	-2.8542	-3.2687	-2.9021	-3.0708	-3.35	220.025	350.327	129.813	402.148	440.016	184.497	361.524	354.374	274.654	104.045	344.852	142.897	122.172	104.746	151.772	344.944	0.0013172	0.00056301	7.2653e-05	1344	4.9487e-06	7.1989e-06	1347.6	362.55	5.1965e-06	1.1195e-05	414.62	140.44	122.44	41.774	2.5491e-07	51.65	0.00046614	0.00047976	0.00014901	1363.9	5.1381e-06	5.3999e-06	1372.2	369.55	5.1575e-06	5.491e-06	425.65	142.11	122.03	42.78	5.8898e-06	52.725	334.345	131.620	445.943	99.575	340.618	146.022	99.502	104.410	168.411	178.914	103.668	108.427	108.950	113.286	328.062	112.119	-8191	255	
6824.682	1	1	0	0	0.11749	0.26375	0.057307	0.25235	0.11161	0.10332	0.13834	0.1944	0.21474	0.13285	0.20308	0.19703	0.1958	0.28544	0.1329	0.068659	-2.4562	-3.3333	-2.9104	-2.9604	-3.25	-2.9958	-3.3083	-3.2583	-2.8354	-3.2104	-3.1562	-2.975	-3.3312	-2.9562	-2.9917	-3.2687	246.749	220.938	415.175	109.774	360.293	306.841	329.578	413.950	346.825	86.703	429.922	435.788	398.477	417.942	249.460	234.776	0.0013349	0.00049781	6.9338e-05	1344.5	3.3054e-06	2.869e-06	1348.6	364.36	5.819e-06	1.2502e-05	413.04	140.61	122.27	41.643	2.7458e-06	51.341	0.00046908	0.00051595	0.00014759	1365.4	5.1074e-06	5.7565e-06	1371.8	369.54	5.1041e-06	5.7668e-06	423.07	141.87	121.89	42.908	5.6443e-06	52.399	323.806	118.747	265.720	99.685	248.556	193.961	99.519	104.298	209.064	165.806	103.535	108.347	109.057	113.391	385.430	112.251	-8191	255	
6824.779	1	1	0	0	0.0038055	0.20785	0.22752	0.18515	0.19361	0.042505	0.12715	0.15435	0.26255	0.26733	0.24863	0.095693	0.17042	0.38438	0.24198	0.061176	-2.4042	-3.1854	-3.0583	-3.2562	-3.1958	-3.075	-3.3812	-3.2	-2.9	-3.075	-3.1688	-3.2417	-3.3875	-3.0917	-3.1042	-3.2313	182.567	123.778	305.341	428.847	267.189	432.406	323.571	418.126	169.902	184.951	417.791	420.540	425.852	324.640	154.488	353.190	0.0015625	0.00024599	0.00014649	1338	8.5936e-06	3.0865e-06	1343	362.55	1.8197e-05	3.5603e-06	412.3	139.96	121.96	41.43	2.7873e-06	51.37	0.00047196	0.00053046	0.00014099	1360.8	5.1261e-06	5.8641e-06	1363.3	367.65	5.2393e-06	5.8189e-06	420.62	141.18	122.21	42.826	5.4479e-06	52.25	338.914	402.403	196.397	99.641	184.744	177.610	99.360	104.308	223.412	224.912	103.562	108.227	108.986	113.350	299.294	112.080	-8191	255	
6824.875	1	1	0	0	0.14724	0.13768	0.17214	0.31239	0.18742	0.24362	0.34097	0.24076	0.13513	0.11913	0.23172	0.32329	0.29198	0.18613	0.099775	0.043609	-2.5104	-3.1042	-3.1458	-2.9667	-3.3187	-3.1208	-3.0708	-3.4875	-2.8958	-3.2	-3.3417	-2.8958	-3.2833	-3.175	-3.1375	-3.375	103.407	395.206	409.761	420.623	248.213	314.511	390.075	440.199	245.877	313.853	358.035	429.258	325.932	215.548	162.143	169.389	0.0014332	0.00040693	5.0691e-05	1344.5	9.5202e-06	5.8313e-06	1349.9	362.87	1.4043e-05	1.7663e-06	413.94	140.45	122.18	41.571	1.3009e-05	51.447	0.00049899	0.00053605	0.00013786	1360	5.5026e-06	5.8816e-06	1364.3	367.15	5.6132e-06	5.8668e-06	420.18	141.37	123.61	42.87	5.4815e-06	52.273	331.653	305.096	216.539	99.653	183.352	247.196	99.394	104.560	186.448	153.350	103.876	108.240	108.851	113.283	214.126	112.322	-8191	255	
6824.971	1	1	0	0	0.41652	0.21918	0.29159	0.27775	0.085803	0.086124	0.16191	0.27965	0.036985	0.10282	0.1132	0.4849	0.18197	0.19764	0.039998	0.22028	-2.5979	-3.1625	-3.1583	-3.0563	-3.3958	-3.1646	-3.125	-3.3604	-2.95	-3.2521	-3.4375	-3.0208	-3.2646	-3.1583	-3.0062	-3.325	152.681	373.626	421.673	283.513	227.985	205.533	407.459	431.569	391.824	202.212	135.349	421.900	172.315	391.528	256.620	331.090	0.00157	0.00077436	4.4949e-05	1340.6	1.9031e-06	5.353e-06	1345.8	363.75	8.7157e-06	2.7063e-06	411.64	140.1	122.54	41.514	2.4737e-06	51.267	0.00054351	0.00053698	0.00013977	1360.1	5.9872e-06	5.929e-06	1362.8	368.65	6.1007e-06	5.8283e-06	419.73	141.54	124.78	42.752	5.4077e-06	52.427	334.309	115.502	319.650	99.718	245.121	323.411	99.415	104.350	164.582	266.370	103.566	108.280	108.853	113.346	262.841	112.304	-8191	255	
6825.090	1	1	0	0	0.13965	0.13728	0.29828	0.34238	0.19766	0.21807	0.18951	0.18298	0.18073	0.20259	0.12655	0.17279	0.20452	0.051218	0.10689	0.044632	-2.5417	-2.9458	-2.9729	-3.0896	-3.1083	-3.0646	-3.05	-3.3312	-2.9062	-2.9062	-3.1458	-3.0583	-3.2938	-3.4104	-2.9313	-3.3854	157.779	210.228	214.840	390.626	246.872	185.281	347.551	423.505	221.739	405.986	376.821	437.088	425.256	420.731	315.720	419.506	0.0012458	0.00056142	7.6989e-05	1338.8	2.0319e-06	2.7585e-06	1347.1	363.02	1.801e-06	3.2292e-06	410.65	139.71	121.44	41.331	5.2228e-06	51.316	0.00056254	0.00052278	0.00013665	1360.8	6.1114e-06	5.7275e-06	1358.6	369.44	6.1357e-06	5.6218e-06	418.15	141.77	124.33	42.506	5.3011e-06	52.724	317.219	345.095	125.592	99.693	118.940	246.673	99.387	104.430	235.006	166.197	103.795	108.661	109.088	113.169	357.064	112.257	-8191	255	
6825.186	1	1	0	0	0.20097	0.18586	0.089167	0.23708	0.10477	0.038107	0.13597	0.40553	0.090244	0.17317	0.075939	0.15492	0.28573	0.11435	0.22927	0.38221	-2.5271	-3.1146	-3.0104	-3.2146	-3.1667	-3.0417	-2.9271	-3.3063	-3.0208	-3.0042	-3.3354	-3.1021	-3.0854	-3.3104	-2.9646	-3.2042	211.132	261.630	91.585	97.126	253.265	335.836	331.239	366.993	100.362	206.053	421.272	88.950	412.173	278.676	102.498	368.326	0.0012038	0.00052055	7.4558e-05	1338.1	6.0448e-06	4.8432e-06	1342.7	362.94	4.6264e-06	4.6461e-06	413.42	139.52	122.2	41.423	7.7251e-06	51.456	0.00056783	0.00051556	0.00013527	1365.8	6.1701e-06	5.6964e-06	1356.8	371.56	6.1899e-06	5.6841e-06	418.5	143.16	124.29	42.529	5.3947e-06	53.232	334.214	172.120	240.538	99.655	236.064	276.312	99.385	104.303	90.259	326.843	103.527	108.414	108.744	113.127	184.850	112.388	-8191	255	
6825.282	1	1	0	0	0.16865	0.13645	0.040747	0.49045	0.1054	0.029081	0.21303	0.23931	0.21074	0.1304	0.17312	0.062327	0.11338	0.090331	0.17585	0.16994	-2.6625	-2.9813	-3.1792	-3.0875	-3.0667	-3.1104	-3.025	-3.3021	-3.1354	-2.9125	-3.3458	-3.0542	-3.1667	-3.1813	-3.0229	-3.3354	151.598	245.615	229.922	414.894	296.745	301.630	410.469	339.341	116.050	233.236	407.906	352.969	404.331	103.086	327.457	419.442	0.00084424	0.00032999	0.00022219	1341.1	3.0635e-06	6.6903e-06	1340.4	362.2	4.2915e-06	5.9324e-06	411.76	139.59	121.67	41.328	8.0208e-06	51.046	0.00055839	0.0005123	0.00013634	1372	5.9786e-06	5.5287e-06	1357.6	371.92	5.8975e-06	5.4798e-06	418.86	143.35	123.53	42.345	5.5421e-06	53.308	343.723	221.210	153.260	99.476	169.468	220.995	99.450	104.441	261.496	295.911	103.741	108.196	108.853	113.287	225.105	112.236	-8191	255	
6825.356	1	1	0	0	0.18618	0.044747	0.26632	0.019278	0.30617	0.1236	0.061959	0.076409	0.23064	0.058367	0.32286	0.26247	0.15324	0.018748	0.10124	0.169	-2.7562	-2.8042	-3.1958	-3.2917	-3.0354	-3.1417	-3.0521	-3.1396	-3.0646	-2.9813	-3.2729	-3.1208	-3.1146	-3.2562	-3.0021	-3.2521	445.494	137.440	204.067	174.454	238.490	174.539	366.968	411.015	135.417	295.905	127.449	366.451	108.151	292.045	157.952	412.936	0.0010328	0.00037842	0.00016259	1335.6	6.575e-06	8.1668e-06	1340.9	361.85	4.6125e-06	1.7145e-06	412.24	139.32	121.24	41.175	1.0414e-05	51.143	0.00053905	0.00049523	0.00014293	1373.4	5.8014e-06	5.413e-06	1360.9	372.28	5.7418e-06	5.3446e-06	420.88	143.08	122.85	42.151	5.9039e-06	53.255	332.526	271.159	165.787	99.599	220.704	309.431	99.589	104.455	176.721	138.821	103.478	108.325	109.356	113.213	153.225	112.477	-8191	255	
6825.474	1	1	0	0	0.077172	0.24972	0.12459	0.40346	0.1948	0.28173	0.23315	0.26699	0.19822	0.15611	0.033014	0.35451	0.079011	0.11934	0.13299	0.055205	-2.6208	-2.8958	-3.125	-3.1896	-3.0458	-3.0917	-3.0083	-3.2438	-3.0917	-2.8812	-3.3646	-3.1354	-2.8417	-3.2	-2.7354	-3.0958	114.856	211.016	197.646	393.866	167.628	288.961	428.422	385.856	174.838	287.809	438.163	428.073	440.576	342.036	192.296	431.113	0.0012302	0.00075831	0.00021481	1339	6.7303e-07	7.4392e-06	1341.2	362.15	4.0376e-06	1.3222e-06	411.57	139.25	121.86	41.483	8.3262e-06	51.183	0.000533	0.00049009	0.00015277	1374.6	5.8e-06	5.4183e-06	1369	372.22	5.7908e-06	5.4791e-06	426.2	143.27	123.36	42.409	6.4171e-06	53.27	324.845	137.944	150.005	99.766	421.068	201.261	99.511	104.395	152.527	325.656	103.791	108.429	108.746	113.304	212.158	112.449	-8191	255	
6825.571	1	1	0	0	0.1594	0.080334	0.087906	0.082086	0.1329	0.13603	0.35666	0.20255	0.13984	0.044609	0.2539	0.34019	0.25304	0.22301	0.14063	0.20872	-2.75	-2.8021	-3.0396	-3.2438	-2.8729	-3.1667	-2.9938	-2.9958	-3.0146	-2.7958	-3.1917	-3.1729	-3.3292	-3.2979	-2.9604	-2.9708	374.187	346.422	133.441	204.450	147.047	426.455	380.382	312.360	251.297	235.891	435.654	428.418	392.160	210.200	219.287	343.948	0.0011072	0.00043068	0.00014602	1333.1	3.7974e-06	8.2944e-06	1341.8	362.31	8.2691e-06	1.2795e-05	414.12	139.59	121.51	41.392	2.3437e-06	51.21	0.00054011	0.00051619	0.00016494	1374.4	5.8641e-06	5.78e-06	1378.7	372.57	5.8572e-06	5.8853e-06	429.49	143.27	123.41	42.742	6.6643e-06	53.201	335.517	184.715	183.788	99.717	311.560	217.815	99.519	104.449	197.422	204.549	103.427	108.272	109.092	113.210	254.150	112.093	-8191	255	
6825.667	1	1	0	0	0.15475	0.053171	0.13449	0.34981	0.072354	0.21989	0.19589	0.18723	0.22376	0.21485	0.16002	0.16607	0.2625	0.10034	0.086035	0.15922	-2.8625	-3.0062	-3.0438	-3.375	-3.0687	-3.3937	-3.1896	-3.0312	-3.1292	-2.9667	-3.0917	-3.0854	-2.8771	-3.1708	-3.0438	-3.1437	328.410	290.547	346.297	427.249	170.305	313.344	86.760	360.256	110.250	122.264	278.449	328.953	397.912	427.790	290.432	320.618	0.0013262	0.00099978	9.3011e-05	1339.1	2.269e-06	4.7778e-06	1343.9	363.03	5.4e-06	8.2164e-06	414.12	139.88	121.43	41.407	6.615e-06	51.291	0.00053408	0.00055226	0.0001692	1374	5.8037e-06	6.1972e-06	1380.5	372.62	5.7991e-06	6.325e-06	430.72	143.63	123.44	43.174	6.673e-06	53.218	330.839	431.968	443.444	99.639	444.709	201.395	99.425	104.325	245.337	178.246	103.687	108.279	109.024	113.180	254.356	112.144	-8191	255	
6825.787	1	1	0	0	0.22078	0.14643	0.10801	0.19916	0.25913	0.044058	0.39226	0.37776	0.23157	0.062444	0.086593	0.21962	0.16568	0.070775	0.081207	0.20763	-2.8417	-2.8563	-3.0396	-3.2083	-2.9042	-3.1229	-3.1854	-2.9021	-3.0708	-2.9208	-3.1542	-3.1417	-3.0875	-3.2146	-2.9667	-2.825	158.426	413.406	344.894	364.688	343.812	183.527	357.627	392.263	356.718	414.655	192.992	405.540	371.642	339.790	265.993	434.202	0.0010694	0.00090614	0.0001555	1339.5	6.1456e-06	1.0265e-05	1347.5	363.78	8.0372e-06	8.8759e-06	413.4	139.51	121.91	41.434	2.6087e-06	51.257	0.00053676	0.00059914	0.00016752	1374.6	5.8372e-06	6.5864e-06	1381.7	372.59	5.8476e-06	6.7088e-06	429.68	143.42	123.98	43.548	6.5569e-06	53.249	337.772	157.480	201.120	99.637	218.818	149.273	99.607	104.356	147.012	201.338	103.599	108.206	108.994	113.197	378.408	112.299	-8191	255	
6825.883	1	1	0	0	0.085474	0.088923	0.18578	0.39782	0.29952	0.10434	0.29308	0.31868	0.20688	0.18439	0.21501	0.10027	0.14678	0.06996	0.34819	0.22201	-2.6729	-3.0083	-2.8729	-3.2917	-2.9437	-3.1729	-3.2792	-3.0229	-3.275	-3.1479	-2.9979	-3.3104	-2.9667	-3.1833	-3.1	-2.8812	318.193	165.254	412.505	409.265	410.003	239.317	396.852	428.629	218.305	335.242	91.816	362.109	151.512	401.813	119.813	446.365	0.0015036	0.00093109	8.8333e-05	1345.1	7.8829e-06	6.1029e-06	1349.9	362.79	1.3243e-05	8.3844e-06	413.58	139.44	122.6	41.605	3.9255e-06	51.221	0.00055692	0.00062973	0.00016444	1376.9	6.1639e-06	6.9209e-06	1380.2	372.92	6.2765e-06	7.0115e-06	430.5	143.31	125.42	43.756	6.479e-06	53.221	329.141	433.414	278.538	99.800	148.904	149.360	99.574	104.430	185.092	174.443	103.554	108.319	109.237	113.240	261.977	112.093	-8191	255	
6825.955	1	1	0	0	0.15491	0.083875	0.082772	0.25797	0.22564	0.10829	0.18251	0.078653	0.16206	0.1159	0.20155	0.10442	0.20435	0.17568	0.11765	0.23003	-2.9458	-2.6896	-2.9646	-3.2938	-2.6708	-3.0729	-3.25	-3.0229	-3.1979	-3.0812	-2.9854	-3.2417	-3.1292	-3.1896	-2.9958	-2.8979	340.127	439.426	286.357	427.807	110.243	217.633	354.637	433.282	299.363	276.504	192.202	422.570	346.698	440.804	328.821	361.430	0.0017052	8.9837e-05	2.5696e-05	1344.9	1.0594e-05	4.2403e-06	1350.4	363.18	1.4543e-05	4.7356e-06	414.72	140.16	122.1	41.425	7.1044e-06	51.307	0.0005967	0.00063917	0.00016291	1377.6	6.6553e-06	6.9504e-06	1380.9	372.88	6.7657e-06	6.9537e-06	429.51	143.51	126.87	43.613	6.4195e-06	53.116	330.835	110.500	278.246	99.927	194.795	373.828	99.433	104.246	200.791	228.535	103.867	108.478	109.064	113.307	213.819	112.204	-8191	255	
6826.076	1	1	0	0	0.033528	0.14071	0.0040386	0.073095	0.22426	0.23166	0.061813	0.16756	0.11365	0.20207	0.048744	0.065694	0.31107	0.27045	0.14092	0.25943	-2.7792	-2.9062	-2.9188	-3.2854	-2.9625	-3.1229	-3.4083	-3.2229	-3.2583	-3.1167	-2.9583	-3.2854	-2.9083	-3.0146	-3.1646	-2.8667	213.327	313.123	201.840	222.804	154.486	382.619	404.727	372.024	378.932	290.666	293.126	114.538	360.683	413.516	367.107	97.878	0.0016338	0.00049075	3.3362e-05	1339.8	1.4696e-05	8.7497e-06	1347.9	363.01	7.26e-06	5.0441e-06	416.36	140.51	122.64	41.377	1.7149e-06	51.469	0.00063813	0.00062678	0.00016149	1378.1	7.0644e-06	6.806e-06	1381.1	373.3	7.0258e-06	6.6985e-06	428.48	143.81	127.8	43.39	6.2359e-06	53.415	333.579	276.726	168.355	99.514	178.304	360.752	99.347	104.437	212.311	439.209	103.885	108.304	108.939	113.321	321.832	112.332	-8191	255	
6826.170	1	1	0	0	0.18315	0.2903	0.059225	0.2479	0.10932	0.31354	0.22401	0.24744	0.016898	0.14672	0.10988	0.077212	0.21806	0.31983	0.1733	0.20627	-2.7458	-3.0062	-2.8792	-3.1479	-3.0979	-2.8917	-3.3792	-3.0458	-3.0208	-3.0333	-2.8167	-3.2188	-2.9667	-3.0646	-3.2292	-2.7208	443.219	431.122	332.381	88.188	217.549	236.599	380.593	420.694	369.254	205.164	346.220	322.467	386.121	427.645	308.495	200.749	0.0014975	0.00069778	7.0386e-05	1346.4	5.2886e-06	5.8578e-06	1354.8	364.75	5.5716e-06	2.668e-06	416.18	141.05	121.95	41.458	3.5838e-06	51.724	0.00064603	0.00060008	0.00015472	1381.6	7.0253e-06	6.4426e-06	1378	374.48	6.9876e-06	6.4207e-06	426.04	144.73	127.3	43.241	6.0051e-06	53.878	332.610	193.096	124.756	99.579	144.270	358.156	99.487	104.270	192.888	337.962	103.626	108.380	108.886	113.235	282.631	112.234	-8191	255	
6826.266	1	1	0	0	0.10497	0.13275	0.15606	0.068291	0.21939	0.14397	0.2907	0.28219	0.23554	0.091407	0.11214	0.10579	0.3264	0.31726	0.19403	0.10365	-2.6312	-3.2021	-2.6167	-3.1979	-3.0271	-2.7979	-3.5375	-3.025	-3.1229	-3.1667	-3.0896	-3.2771	-3.0667	-2.9437	-3.3146	-3.0271	395.621	280.068	407.736	362.127	155.262	291.806	445.575	409.667	194.332	240.524	372.506	212.013	358.315	381.111	362.959	391.241	0.0011729	0.00033116	7.832e-05	1348	3.7769e-06	5.7249e-06	1349.6	364.5	3.5285e-06	2.282e-06	414.95	140.77	121.7	41.559	5.1649e-06	51.391	0.00063601	0.00058761	0.00015156	1388.2	6.9303e-06	6.3658e-06	1375.3	376.42	6.8636e-06	6.3729e-06	425.91	145.64	126.94	43.157	6.0734e-06	54.309	327.620	122.290	413.867	99.660	285.713	284.439	99.559	104.340	158.815	167.132	103.810	108.324	108.982	113.239	227.972	112.395	-8191	255	
6826.387	1	1	0	0	0.23749	0.076602	0.10918	0.34194	0.10424	0.14467	0.42412	0.23339	0.159	0.12821	0.10267	0.2051	0.31033	0.29911	0.25945	0.11493	-2.7646	-2.9771	-2.8333	-3.0812	-3.0312	-2.6875	-3.3458	-3.0083	-2.9354	-3.3042	-3.0958	-3.2604	-3.1063	-2.8646	-3.3104	-3.0875	107.576	438.187	96.274	400.307	336.721	232.831	372.445	334.398	215.400	375.737	107.163	91.934	437.730	414.394	258.880	327.997	0.001102	0.00039276	0.00015729	1354.2	3.6339e-06	2.4401e-07	1356.5	363.87	1.0119e-05	3.5449e-06	415.39	139.62	121.7	41.41	1.1096e-05	51.361	0.00062392	0.00057653	0.00015406	1395.4	6.7434e-06	6.2289e-06	1377.9	378.11	6.6029e-06	6.1585e-06	427.65	145.79	125.9	42.922	6.2396e-06	54.31	333.282	128.991	119.816	99.803	366.470	445.179	99.465	104.582	299.871	382.079	103.645	108.279	109.105	113.219	188.304	112.164	-8191	255	
6826.483	1	1	0	0	0.043975	0.12081	0.2855	0.14091	0.10111	0.071105	0.29214	0.39489	0.32865	0.1201	0.072258	0.32888	0.087305	0.3008	0.04146	0.10688	-2.4917	-3.2104	-2.8104	-3.1479	-3.0771	-2.9125	-3.3958	-3.0083	-2.8917	-3.1562	-2.8812	-3.0792	-3.125	-2.9167	-3.1271	-3.1063	376.462	399.881	142.522	437.905	389.529	382.048	365.434	366.160	387.294	248.432	139.626	381.379	418.901	424.047	253.792	370.439	0.0013059	0.00054738	0.00024236	1343.1	3.6892e-06	3.5696e-06	1354.7	363.39	4.447e-06	8.4489e-06	415.57	139.77	122.1	41.281	7.4799e-06	51.255	0.00059371	0.00054972	0.0001581	1390.6	6.4e-06	5.9286e-06	1380	376.48	6.324e-06	5.8585e-06	429.51	145.13	125.08	42.679	6.46e-06	53.942	338.965	203.719	126.757	99.652	258.229	173.831	99.440	104.325	270.914	285.654	103.664	108.373	108.990	113.422	154.228	112.076	-8191	255	
6826.579	1	1	0	0	0.21109	0.21064	0.14365	0.32667	0.12042	0.25578	0.23902	0.13673	0.14681	0.078819	0.078063	0.35581	0.15789	0.1712	0.1808	0.03289	-2.4792	-3.0229	-2.875	-3.2146	-3.1958	-2.7458	-3.3937	-3.05	-2.7875	-3.1708	-2.9646	-3.175	-3.0771	-3.0146	-3.0979	-3.1188	424.187	411.742	170.342	407.002	387.504	143.154	388.097	423.390	130.230	291.914	229.987	392.909	148.937	417.698	147.730	301.399	0.0012181	0.00066992	0.00017953	1341.6	4.4084e-06	6.9815e-06	1353	364.94	4.9021e-06	8.5899e-06	413.55	139.82	121.49	41.438	6.0747e-06	51.534	0.00057354	0.00053066	0.00016633	1383.9	6.188e-06	5.787e-06	1383.4	375.81	6.1137e-06	5.7709e-06	430.86	144.44	124.15	42.693	6.6736e-06	53.659	331.726	101.987	182.227	99.693	398.730	209.952	99.606	104.512	295.009	198.603	103.597	108.363	108.948	113.109	198.505	111.992	-8191	255	
6826.651	1	1	0	0	0.082356	0.12175	0.22316	0.13663	0.049115	0.16131	0.16103	0.28394	0.071578	0.22052	0.14854	0.086957	0.1812	0.25217	0.14318	0.066164	-2.4688	-3.0896	-2.7146	-3.1104	-3.1479	-2.8333	-3.3104	-3.1312	-2.8708	-3.0708	-2.9646	-3.05	-3.1875	-3.0708	-3.1167	-3.1688	441.735	109.445	382.611	352.840	237.841	140.274	357.555	419.842	88.909	348.787	87.082	415.865	367.952	322.458	200.917	271.851	0.00083987	0.00045853	0.00013754	1339.4	1.0897e-06	6.4957e-06	1348	363.82	4.6263e-06	4.7473e-06	413.26	139.6	121.81	41.521	3.5705e-06	51.225	0.00055807	0.00053941	0.00017188	1381.1	6.033e-06	5.9808e-06	1384.5	374.35	5.9788e-06	6.0051e-06	431.38	143.8	123.58	42.864	6.6909e-06	53.304	321.089	134.034	139.392	99.809	365.516	192.570	99.474	104.345	155.974	216.512	103.766	108.267	109.142	113.304	157.164	112.371	-8191	255	
6826.772	1	1	0	0	0.27837	0.10765	0.11737	0.20479	0.121	0.071732	0.34779	0.20395	0.14243	0.16532	0.14476	0.26875	0.040914	0.1249	0.11646	0.10195	-2.2521	-3.1375	-3.0333	-3.3146	-3.2771	-2.7646	-3.2917	-3.2979	-2.7562	-3.1646	-3.0563	-2.9437	-3.2812	-2.8063	-3.0333	-3.1604	252.421	167.998	90.046	403.009	437.711	200.806	93.540	441.049	210.703	91.099	339.743	395.418	237.271	445.160	256.642	109.997	0.0010961	0.00043592	3.4421e-05	1339.8	1.2093e-06	3.6167e-06	1347.4	364.25	5.6308e-06	1.0151e-05	413.2	140.05	121.95	41.421	1.0029e-06	51.291	0.00053472	0.00056138	0.00016839	1374.5	5.7775e-06	6.2501e-06	1381.3	373.43	5.776e-06	6.3359e-06	430.38	143.49	123.42	43.142	6.512e-06	53.121	341.850	143.363	276.557	99.646	429.147	205.343	99.505	104.439	157.361	195.501	103.690	108.464	108.686	113.374	184.644	112.416	-8191	255	
6826.868	1	1	0	0	0.21892	0.15466	0.090614	0.23748	0.1141	0.20625	0.31275	0.24851	0.12712	0.20401	0.17691	0.38111	0.23652	0.16932	0.18359	0.28753	-2.525	-3.0771	-2.8271	-2.9792	-3.2083	-2.9062	-3.2271	-3.3292	-2.85	-3.2146	-2.9688	-2.8729	-3.1708	-3.0542	-3.0062	-3.2167	438.015	370.712	209.458	377.187	204.392	424.280	93.174	100.600	429.002	284.918	304.771	392.558	122.342	358.048	207.646	378.448	0.0014785	0.00041103	6.2513e-05	1337.4	2.1055e-06	1.4127e-05	1342.8	364.22	3.2067e-06	4.6685e-06	414.41	139.62	122.28	41.292	5.1149e-06	51.203	0.00052713	0.00059189	0.00016389	1371.8	5.7277e-06	6.5306e-06	1375.8	372.08	5.7359e-06	6.5097e-06	427.69	142.82	123.51	43.283	6.2917e-06	52.824	339.111	105.031	264.723	99.661	132.067	156.681	99.550	104.362	205.593	211.920	103.474	108.528	109.068	113.378	282.152	112.364	-8191	255	
6826.964	1	1	0	0	0.14769	0.27325	0.075986	0.26417	0.082933	0.34267	0.33567	0.13877	0.19089	0.17914	0.1575	0.17383	0.10866	0.22551	0.15751	0.1396	-2.3167	-3.2375	-2.9833	-2.9375	-3.3375	-3.1312	-3.1375	-3.2438	-2.8042	-3.1208	-3.1396	-2.8438	-3.1229	-3.1292	-2.9729	-3.1875	219.917	104.421	242.287	417.889	397.427	150.903	389.936	411.246	93.113	245.625	144.116	99.792	412.037	433.359	365.093	314.160	0.0013443	0.00056299	5.2463e-05	1339.2	7.5052e-06	2.6562e-06	1346.1	363.86	1.0892e-05	2.1765e-06	411.79	139.38	121.89	41.393	5.0907e-06	51.36	0.00053885	0.00060444	0.00015769	1368.9	5.896e-06	6.624e-06	1371.7	370.84	5.9714e-06	6.5366e-06	425.02	142.02	123.97	43.216	5.9911e-06	52.603	336.902	211.580	249.308	99.586	198.989	184.039	99.509	104.393	203.620	410.253	103.846	108.452	108.989	113.224	132.983	112.385	-8191	255	
6827.060	1	1	0	0	0.25137	0.36576	0.067923	0.13652	0.13735	0.24307	0.2657	0.11755	0.096611	0.21477	0.21851	0.3536	0.34718	0.23724	0.14757	0.044831	-2.4813	-3.0125	-2.9458	-2.9354	-3.0917	-2.8896	-3.2354	-3.2125	-2.8021	-3.1021	-3.4188	-3.1104	-3.1542	-3.0292	-3.0667	-3.1625	373.373	225.423	226.238	407.075	349.566	317.737	380.545	429.660	209.018	161.783	174.383	425.323	426.963	333.138	298.002	126.200	0.0017947	0.00036386	4.7552e-05	1337.9	9.1063e-06	5.5288e-06	1344	362.64	1.5987e-05	6.5315e-06	413.62	139.22	121.76	41.229	3.0019e-06	51.226	0.00056068	0.00058916	0.00015136	1362.9	6.1515e-06	6.3759e-06	1365.1	369.42	6.2089e-06	6.254e-06	423	141.39	124.51	42.843	5.718e-06	52.376	330.308	231.673	237.765	99.791	214.350	360.198	99.306	104.555	221.532	385.056	103.727	108.255	108.952	113.233	115.099	112.171	-8191	255	
6827.179	1	1	0	0	0.28729	0.12038	0.063956	0.36331	0.11216	0.047209	0.29752	0.10915	0.040169	0.14638	0.13888	0.296	0.28216	0.28335	0.17662	0.17984	-2.5521	-3.0042	-3.1104	-2.8917	-3.1271	-3.05	-3.0833	-3.3167	-2.8937	-3.1937	-3.3104	-2.9917	-3.1458	-3.1542	-2.7521	-3.2208	221.585	296.261	185.063	343.243	117.903	339.103	429.442	91.518	399.697	366.066	230.199	363.134	411.166	429.191	164.880	358.941	0.00092486	0.000195	7.9799e-05	1340.5	9.4093e-06	2.0946e-06	1343.1	363.47	4.2729e-06	3.292e-06	412.45	139.4	121.76	41.303	5.7779e-06	51.241	0.00057582	0.00055871	0.00014496	1360.8	6.3048e-06	6.0558e-06	1363	369.75	6.3727e-06	5.9896e-06	420.6	141.64	125.17	42.743	5.543e-06	52.544	339.553	208.995	296.274	99.635	169.038	103.297	99.318	104.524	211.608	332.681	103.808	108.348	108.940	113.403	241.256	112.343	-8191	255	
6827.251	1	1	0	0	0.11168	0.196	0.14771	0.167	0.16334	0.012319	0.36662	0.13243	0.11951	0.19262	0.023007	0.17022	0.12146	0.095912	0.0938	0.28405	-2.4333	-2.8708	-3.0917	-3.1	-3.2604	-2.9542	-3.1063	-3.2354	-3.075	-2.9333	-3.2208	-2.9458	-3.2979	-3.3375	-2.7438	-3.2792	268.876	305.586	348.098	346.927	413.111	329.506	89.132	391.488	170.897	171.198	403.734	375.266	262.416	340.252	359.641	388.516	0.0014125	0.00023523	6.6725e-05	1337.5	1.9796e-06	3.288e-06	1343.3	363.91	6.3177e-06	4.7958e-06	412.98	139.72	121.53	41.17	4.0378e-06	51.418	0.0005798	0.00053032	0.00013781	1362.3	6.2114e-06	5.6783e-06	1356.5	369.94	6.0806e-06	5.5591e-06	417.05	141.92	123.85	42.296	5.1452e-06	52.49	329.938	282.630	167.172	99.691	87.141	429.866	99.578	104.152	196.128	425.338	103.546	108.254	109.072	113.273	235.329	112.155	-8191	255	
6827.348	1	1	0	0	0.12211	0.11712	0.32802	0.33078	0.030246	0.11897	0.082345	0.038487	0.23796	0.0296	0.23853	0.16065	0.14149	0.23524	0.11631	0.057468	-2.4458	-2.9688	-3.1	-3.1646	-2.9917	-3.1208	-3.0563	-3.2896	-3.1167	-3.0083	-3.1542	-3.0271	-3.1292	-3.1312	-2.9542	-3.1979	436.647	313.610	419.271	438.529	385.828	212.085	298.870	320.247	160.332	331.494	348.387	411.784	347.309	96.417	415.048	99.193	0.00098453	0.00070147	0.00011321	1335	6.0665e-06	4.6356e-06	1336.2	361.72	3.2822e-06	6.255e-06	412.35	139.3	121.31	41.291	2.3099e-06	51.153	0.00054194	0.00049384	0.00012864	1361.7	5.8177e-06	5.3664e-06	1350.9	369.68	5.7763e-06	5.3633e-06	415.79	142.12	123.02	42.086	5.1346e-06	52.734	339.992	146.448	175.576	99.575	230.885	313.095	99.544	104.367	295.617	231.264	103.871	108.347	109.322	113.419	241.953	112.108	-8191	255	
6827.467	1	1	0	0	0.27565	0.07415	0.19	0.18821	0.14844	0.050729	0.24699	0.43772	0.15291	0.19332	0.16598	0.34231	0.1515	0.173	0.11168	0.20573	-2.5583	-3.0417	-3.1354	-3.15	-2.9375	-3.3271	-3.0146	-3.1979	-3.025	-2.8229	-3.2562	-3.1604	-2.9062	-3.3521	-2.7729	-3.0938	120.817	112.338	333.857	157.861	346.459	184.100	381.163	372.374	393.012	347.930	391.765	373.946	150.405	90.246	437.031	358.405	0.0011362	0.00030608	0.00012198	1334.2	1.6757e-06	6.9265e-06	1339.9	362.2	8.7624e-06	5.0725e-06	414.45	139.06	121.65	41.366	6.0131e-06	50.918	0.00052362	0.00048247	0.0001312	1365	5.655e-06	5.2355e-06	1352.3	370.91	5.6324e-06	5.2302e-06	418.17	142.5	122.63	42.01	5.4304e-06	52.88	326.714	287.858	139.365	99.657	388.131	308.459	99.359	104.382	256.338	217.164	103.515	108.184	108.935	113.415	184.850	112.355	-8191	255	
6827.563	1	1	0	0	0.069889	0.12017	0.055808	0.31365	0.07761	0.11055	0.22406	0.16482	0.076391	0.059089	0.11956	0.20218	0.27002	0.23916	0.30359	0.26869	-2.5271	-2.6417	-3.1271	-3.1146	-2.9688	-3.1063	-3.0604	-3.2313	-2.9896	-2.9313	-3.1479	-3.05	-2.9521	-3.2229	-2.925	-3.0667	253.215	283.895	276.744	362.390	389.987	146.627	389.651	394.874	389.701	398.450	297.128	94.957	126.701	397.546	195.971	425.779	0.0010506	0.00082643	0.00017109	1334.4	4.7302e-06	1.0292e-05	1340.1	361.55	1.2161e-06	1.2584e-06	413.77	139.42	121.85	41.167	1.0263e-05	50.976	0.00051406	0.00047524	0.00013982	1367.3	5.5342e-06	5.1587e-06	1358.7	370.87	5.5221e-06	5.1511e-06	420.58	142.38	122.31	41.92	5.6991e-06	52.693	336.657	180.576	144.676	99.732	167.698	251.930	99.528	104.319	135.981	360.263	103.719	108.239	108.937	113.259	143.888	112.240	-8191	255	
6827.660	1	1	0	0	0.21628	0.17182	0.11016	0.39129	0.24664	0.11663	0.2874	0.57704	0.18402	0.25425	0.30727	0.076055	0.11394	0.25282	0.2695	0.18588	-2.7604	-2.7167	-3.1146	-3.0354	-2.8792	-3.1146	-3.075	-3.0229	-3.0583	-2.8375	-3.3063	-3.1063	-3.0104	-3.2646	-3.0479	-3.3104	144.212	106.978	297.368	412.461	268.826	164.795	431.811	403.337	108.755	392.040	374.920	406.639	341.666	123.994	355.153	433.697	0.0012975	0.00077557	8.5465e-05	1334.2	1.5406e-06	9.9598e-06	1340.2	362.71	3.9831e-06	7.7611e-06	413.86	139.48	121.37	41.156	6.617e-06	50.936	0.00049811	0.00046599	0.00014564	1364.4	5.3944e-06	5.0742e-06	1364.3	370.63	5.4094e-06	5.1551e-06	423.4	142.07	122.01	42.011	6.0183e-06	52.569	331.297	109.856	430.861	99.523	222.652	222.152	99.562	104.400	149.538	209.767	103.931	108.440	108.808	113.218	181.548	112.347	-8191	255	
6827.756	1	1	0	0	0.19849	0.28982	0.20383	0.31766	0.19578	0.16237	0.15393	0.20425	0.31344	0.054237	0.24069	0.25829	0.19828	0.091708	0.20479	0.32938	-2.7396	-2.8146	-3.1292	-3.1729	-2.9188	-3.325	-3.0729	-2.9979	-3.0146	-3.0312	-3.1667	-3.1083	-2.8042	-3.3542	-3.0563	-3.1375	125.307	100.738	166.950	409.208	337.853	403.737	376.478	379.468	166.065	121.301	436.791	430.749	127.025	431.355	206.386	398.880	0.0011568	0.00035589	2.1146e-05	1338.6	4.6713e-07	9.9094e-06	1345.2	363.05	5.5145e-06	7.7785e-06	411.78	139.79	121.33	41.192	3.1509e-06	51.187	0.00049613	0.00048243	0.00015384	1364.8	5.3462e-06	5.3661e-06	1369.9	370.13	5.3503e-06	5.4997e-06	424.87	141.89	121.95	42.35	6.1168e-06	52.556	333.508	191.393	406.016	99.697	355.971	232.444	99.507	104.516	314.543	232.964	103.815	108.490	109.008	113.059	189.457	112.037	-8191	255	
6827.852	1	1	0	0	0.20718	0.079721	0.017792	0.16819	0.017148	0.10576	0.058705	0.14547	0.15388	0.18425	0.076703	0.15506	0.24631	0.1237	0.30339	0.098852	-2.8583	-2.9146	-3.0729	-3.2646	-2.8604	-3.3187	-3.2417	-3.0292	-3.2417	-2.8063	-3.1104	-3.0312	-2.7583	-3.1146	-2.9458	-3.1312	276.675	337.011	220.041	95.496	307.938	199.373	160.361	129.514	342.778	232.601	196.497	367.914	107.661	433.056	171.873	360.310	0.0012019	0.00091548	4.3085e-05	1338.2	2.816e-06	1.0544e-05	1340	360.95	1.1578e-05	5.0311e-06	412.23	139.69	121.31	41.214	2.0664e-06	50.883	0.00048799	0.00051829	0.00015376	1362.3	5.2665e-06	5.7532e-06	1367.1	369.28	5.2886e-06	5.8726e-06	424.46	141.86	121.72	42.713	6.0805e-06	52.427	340.840	109.865	304.048	99.668	134.901	174.866	99.495	104.278	238.557	216.361	103.879	108.431	109.224	113.343	312.383	112.383	-8191	255	
6827.948	1	1	0	0	0.036134	0.16489	0.066089	0.27937	0.31368	0.20176	0.18789	0.13267	0.10926	0.14358	0.15326	0.20348	0.27799	0.085989	0.082792	0.14002	-2.9292	-2.9208	-3.0938	-3.2562	-2.9208	-3.05	-3.1708	-2.9542	-3.2729	-2.9167	-3.0312	-3.3229	-3.2438	-3.2375	-2.9208	-2.8729	310.389	230.418	401.083	367.010	347.872	217.133	382.172	445.877	320.274	183.446	410.128	148.813	99.883	359.684	226.933	371.090	0.001368	0.00099835	0.00014796	1334	5.7141e-06	9.5452e-06	1340.9	361.75	5.8219e-06	2.6053e-06	412.56	138.84	121.39	41.381	1.4622e-06	51.14	0.00049394	0.00055868	0.0001535	1361	5.3774e-06	6.1363e-06	1365.4	369.21	5.4254e-06	6.2189e-06	423.34	141.68	122.26	42.939	5.9497e-06	52.461	332.702	99.522	296.560	99.619	156.844	217.590	99.530	104.579	207.812	245.162	104.091	108.358	108.982	113.378	133.030	112.346	-8191	255	
6828.069	1	1	0	0	0.26424	0.38113	0.066897	0.15641	0.011106	0.19615	0.059743	0.24622	0.085883	0.075562	0.13633	0.2	0.12123	0.16808	0.022045	0.13137	-2.6875	-2.9188	-2.8646	-3.4167	-2.8146	-3.0854	-3.1979	-3.0396	-3.1937	-3.0979	-2.8896	-3.3396	-2.9646	-3.1458	-3.0958	-2.8125	189.103	255.901	427.777	440.469	332.113	190.262	210.899	412.166	415.204	312.277	445.628	366.145	369.037	362.309	234.540	391.165	0.0013292	0.00043872	5.0837e-05	1331.6	9.9021e-06	3.433e-06	1341.4	361.95	1.7148e-05	6.6008e-06	411.94	139.82	121.67	41.217	8.1841e-06	51.057	0.00051649	0.00057803	0.00014919	1359.4	5.7009e-06	6.3389e-06	1364.2	368.89	5.7768e-06	6.2933e-06	422.58	141.53	123.57	42.97	5.8763e-06	52.271	324.079	439.281	196.253	99.631	191.062	250.785	99.395	104.348	187.984	208.270	103.477	108.498	108.940	113.278	262.505	112.529	-8191	255	
6828.165	1	1	0	0	0.081574	0.15546	0.067457	0.20482	0.11149	0.12484	0.054087	0.11692	0.36589	0.23262	0.13991	0.08909	0.12045	0.37672	0.18846	0.061347	-2.7771	-2.9938	-3.0083	-3.3375	-2.95	-3.3479	-3.2771	-2.8667	-3.3083	-3.0333	-3.2333	-3.4208	-3.0354	-3.1688	-3.1458	-2.9458	138.893	431.794	269.649	444.235	186.859	375.326	255.369	299.855	173.188	324.675	86.801	221.635	109.400	280.900	186.816	302.059	0.0015408	0.00028219	4.3799e-05	1337.8	1.0872e-05	7.3932e-06	1340.3	362.6	1.2256e-05	6.167e-06	413.06	139.45	121.53	41.139	7.1861e-06	51.151	0.00055196	0.00057749	0.00014799	1359.4	6.0748e-06	6.2262e-06	1363.7	368.64	6.1439e-06	6.1475e-06	421.53	141.34	124.22	42.764	5.7031e-06	52.245	335.204	213.169	172.196	99.547	210.854	329.666	99.401	104.304	189.817	400.789	103.851	108.363	109.144	113.100	90.508	112.140	-8191	255	
6828.259	1	1	0	0	0.21988	0.19763	0.080101	0.17014	0.11996	0.20217	0.10389	0.19865	0.068595	0.22319	0.25766	0.14911	0.15669	0.21325	0.25331	0.075125	-2.7375	-3.0563	-2.9021	-3.2396	-3.0292	-3.0854	-3.2604	-3.1146	-3.0646	-2.9479	-2.9042	-3.1833	-3.0833	-2.9708	-3.1063	-3.0146	258.735	116.960	436.322	320.631	119.399	241.624	406.514	99.688	388.377	194.676	383.664	158.297	332.931	125.849	198.679	386.333	0.0015001	0.00021624	9.5075e-05	1335.4	2.3603e-06	1.0977e-05	1343.8	362.12	9.1389e-06	2.6201e-06	411.28	139.81	121.46	41.152	4.6262e-06	51.32	0.00056939	0.00054977	0.00014237	1357.8	6.2704e-06	5.958e-06	1360.4	368.83	6.2724e-06	5.9041e-06	419.41	141.58	124.69	42.537	5.4657e-06	52.453	340.196	149.759	216.141	99.679	196.328	270.266	99.470	104.551	163.961	115.872	103.736	108.643	108.889	113.335	244.649	112.048	-8191	255	
6828.355	1	1	0	0	0.028258	0.15394	0.16514	0.16281	0.093938	0.012719	0.38594	0.12671	0.25121	0.16172	0.21118	0.23055	0.12197	0.1253	0.08149	0.2874	-2.7542	-3.0333	-2.8146	-3.1979	-3.0417	-2.875	-3.4333	-3.0333	-3.0104	-3.0042	-2.8688	-3.2896	-2.9833	-2.9083	-3.0938	-2.9042	185.767	268.722	272.852	417.833	405.480	294.442	411.741	381.911	115.552	366.020	283.076	120.418	387.771	115.461	331.132	300.618	0.001085	0.00072251	4.8982e-05	1338.1	3.2428e-06	6.6197e-06	1339.2	361.34	6.5857e-06	8.5362e-06	412.03	140.05	120.99	41.258	1.8525e-06	51.103	0.00057782	0.00052947	0.00013795	1363.5	6.3165e-06	5.7669e-06	1357.4	370.08	6.2421e-06	5.7626e-06	418.04	142.32	124.52	42.459	5.4129e-06	52.851	339.507	139.963	315.574	99.664	137.236	274.825	99.429	104.364	269.747	252.218	103.669	108.227	108.818	113.521	413.094	112.299	-8191	255	
6828.476	1	1	0	0	0.1065	0.16286	0.30361	0.20003	0.010992	0.16239	0.30882	0.15618	0.11985	0.2435	0.35828	0.23911	0.080461	0.046597	0.11989	0.19087	-2.6604	-3.2	-2.8958	-3.225	-2.8479	-2.9917	-3.2958	-3.0542	-3.0292	-3.2333	-2.9354	-3.2271	-3.2125	-2.9604	-3.0375	-3.1542	183.588	408.780	440.199	435.855	149.602	340.597	367.710	390.894	220.928	327.118	402.666	121.070	416.294	223.316	168.843	309.234	0.0011016	0.00078581	0.00017311	1337.1	1.6807e-06	7.0312e-06	1338.9	362.49	3.4242e-06	5.7216e-06	414.04	139.19	121.39	41.067	3.8233e-06	51.285	0.00057304	0.00052078	0.00013661	1367.4	6.1888e-06	5.6525e-06	1354.6	371.98	6.1217e-06	5.6767e-06	418.94	143.25	123.92	42.387	5.4611e-06	53.254	326.025	146.725	186.708	99.824	213.258	337.199	99.460	104.221	334.228	340.318	103.759	108.451	108.956	113.331	172.069	112.152	-8191	255	
6828.548	1	1	0	0	0.084937	0.2128	0.28964	0.030835	0.18584	0.10395	0.080269	0.3592	0.033934	0.17241	0.31212	0.32877	0.093503	0.12648	0.035603	0.15614	-2.5458	-3.3896	-2.8521	-3.2667	-2.8521	-2.9729	-3.4146	-3.1833	-3.0042	-3.1125	-3.0083	-3.1875	-2.9229	-2.9792	-3.2167	-3.05	154.268	145.277	397.026	191.991	289.522	93.164	392.283	335.994	430.952	138.527	391.078	436.375	289.075	126.778	408.807	421.531	0.001129	0.00037433	8.0003e-05	1334.6	2.0754e-06	5.503e-06	1339.7	363.45	3.3999e-06	3.6261e-06	412.68	139.01	121.85	41.288	3.925e-06	51.214	0.00055537	0.00051526	0.00014	1370.6	6.0362e-06	5.5691e-06	1358.2	373.34	5.9839e-06	5.5688e-06	420.92	143.52	123.61	42.331	5.7998e-06	53.436	335.763	248.982	237.737	99.622	309.132	213.584	99.454	104.356	215.775	301.365	103.789	108.239	109.248	113.215	186.152	112.202	-8191	255	
6828.644	1	1	0	0	0.21192	0.16779	0.2807	0.50857	0.23727	0.30324	0.11188	0.30539	0.091759	0.30984	0.13827	0.21432	0.080226	0.39605	0.13277	0.23115	-2.6021	-3.0146	-2.8646	-3.1771	-3.0938	-2.85	-3.4375	-3.1688	-2.8604	-3.1271	-3.1104	-3.0521	-3.0979	-2.75	-3.1771	-3.3458	364.671	310.474	121.408	442.277	185.150	234.277	193.415	394.820	183.170	90.185	301.965	411.382	435.691	117.523	96.278	364.960	0.0012083	0.0003645	0.00013497	1333.7	2.7918e-06	5.7488e-06	1341.2	362.76	6.4647e-06	5.1417e-06	413.38	139.8	122.1	41.223	6.2585e-06	50.932	0.00054344	0.0005055	0.00014955	1374.5	5.9196e-06	5.4896e-06	1365.6	373.69	5.8973e-06	5.4783e-06	424.45	143.65	123.64	42.252	6.2027e-06	53.322	340.722	97.344	142.895	99.647	217.494	284.556	99.487	104.291	155.652	241.365	103.730	108.410	108.855	113.342	214.003	112.179	-8191	255	
6828.740	1	1	0	0	0.018048	0.15381	0.41991	0.32269	0.30618	0.28337	0.21847	0.33056	0.23415	0.29054	0.067167	0.14507	0.17495	0.13018	0.2035	0.1254	-2.5083	-3.1604	-2.8187	-3.1854	-3.3021	-2.9146	-3.3458	-3.1208	-3.0104	-3.1854	-2.9542	-3.1625	-3.1542	-2.9229	-3.1583	-3.3042	293.484	284.619	203.852	109.845	366.630	145.063	336.990	388.855	309.333	432.481	202.963	246.147	87.521	425.547	129.610	319.665	0.0011432	0.00057871	0.00016761	1334.2	1.5123e-06	7.5854e-06	1342.3	362.63	1.943e-06	7.2668e-06	410.15	139.62	121.95	41.199	4.1333e-06	50.986	0.0005385	0.00049952	0.00015872	1370.5	5.8316e-06	5.4674e-06	1370.1	372.15	5.7359e-06	5.4658e-06	426.38	142.92	122.81	42.279	6.3645e-06	52.988	326.626	157.256	125.500	99.664	396.298	208.858	99.629	104.259	159.789	180.726	103.770	108.283	108.823	113.053	208.809	112.467	-8191	255	
6828.861	1	1	0	0	0.23359	0.12843	0.23495	0.3034	0.14645	0.17677	0.13515	0.32238	0.18102	0.1222	0.24236	0.034079	0.23658	0.23847	0.1997	0.14777	-2.4313	-3.2292	-2.7562	-3.0833	-3.2521	-2.8083	-3.3833	-3.2625	-2.8958	-3.1792	-2.9938	-3.1458	-3.0771	-2.7125	-3.2562	-3.2396	234.163	294.037	379.547	375.320	217.941	91.902	360.165	368.242	400.612	238.599	347.714	187.550	376.307	89.852	114.486	381.314	0.0010536	0.001132	0.00016749	1332.1	8.716e-06	9.7552e-06	1335.9	362.37	1.1806e-05	5.0667e-06	412.6	139	121.42	41.159	3.9964e-06	51.081	0.00052153	0.00050993	0.00016219	1366.2	5.6155e-06	5.6698e-06	1370.2	371.05	5.559e-06	5.7309e-06	427.3	142.31	122.15	42.473	6.2914e-06	52.709	329.742	123.336	202.111	99.530	207.053	208.879	99.412	104.316	190.107	219.666	103.841	108.423	108.854	113.319	92.568	112.123	-8191	255	
6828.957	1	1	0	0	0.022461	0.18653	0.10609	0.030428	0.22048	0.09399	0.13228	0.18944	0.25166	0.17113	0.39391	0.1395	0.065218	0.19848	0.20185	0.16755	-2.4333	-3.1875	-2.9458	-3.0021	-3.1604	-2.8	-3.3375	-3.3146	-2.7417	-3.25	-3.0833	-2.9813	-3.2375	-3.0062	-3.1188	-3.15	240.753	237.957	157.278	99.188	390.576	162.363	335.643	253.076	339.958	311.882	329.884	108.630	246.467	121.202	164.651	428.358	0.0011799	0.00087182	3.6737e-05	1334.7	4.0209e-06	7.3173e-06	1338	362.77	6.3214e-06	5.1416e-06	412.13	139.31	121.49	41.229	1.8613e-06	50.927	0.00050314	0.00053722	0.00015913	1363.5	5.4029e-06	5.9334e-06	1367.9	370.32	5.4119e-06	6.0099e-06	426.03	142.12	121.9	42.74	6.1593e-06	52.491	332.086	124.193	105.869	99.604	111.762	212.221	99.641	104.493	216.678	184.938	103.611	108.453	109.173	113.278	278.914	112.141	-8191	255	
6829.053	1	1	0	0	0.16173	0.43101	0.16927	0.14358	0.092554	0.27341	0.29919	0.070992	0.17318	0.074494	0.088568	0.11611	0.059758	0.12395	0.078106	0.17861	-2.3167	-3.1813	-3.1208	-3.0104	-3.2146	-2.9938	-3.0938	-3.2896	-2.8083	-2.9896	-3.0854	-3.0438	-3.3583	-3.0104	-2.95	-3.2354	109.503	93.876	319.438	362.917	415.467	295.232	428.147	299.160	442.665	200.854	87.188	424.000	241.448	116.512	126.984	315.125	0.0013039	0.00061894	0.00014089	1329.2	4.42e-06	8.063e-06	1340.1	360.66	9.6529e-06	1.0224e-05	412.38	139.05	121.58	41.345	2.9535e-06	50.977	0.0005005	0.00055816	0.00015364	1358.8	5.3966e-06	6.1473e-06	1364.8	368.78	5.4371e-06	6.1832e-06	422.94	141.62	122.28	42.935	5.9004e-06	52.336	328.196	418.074	183.570	99.678	209.069	166.082	99.487	104.323	183.383	160.901	103.701	108.316	108.950	113.214	250.121	112.372	-8191	255	
6829.149	1	1	0	0	0.13712	0.082791	0.071912	0.23757	0.25858	0.092507	0.15547	0.10001	0.26162	0.12329	0.088313	0.22713	0.16149	0.20171	0.22544	0.26033	-2.3917	-3.1708	-2.8583	-3.0438	-3.1396	-2.9333	-3.0729	-3.2938	-2.85	-3.0833	-3.0125	-2.825	-3.3396	-3.1229	-3.0812	-3.2375	292.661	401.720	202.869	396.743	379.561	277.540	350.704	360.848	191.185	139.297	152.490	104.502	253.227	423.449	173.646	338.889	0.0015397	0.00036454	0.00015541	1337.2	7.186e-06	7.8957e-06	1342	362.03	9.0315e-06	4.4091e-06	410.79	139.7	121.53	41.136	3.6792e-06	51.168	0.00051675	0.00057273	0.00014866	1358	5.6502e-06	6.2912e-06	1362.8	368.52	5.7537e-06	6.2521e-06	421.31	141.27	123.13	42.854	5.7555e-06	52.222	325.063	94.546	340.846	99.682	167.246	169.778	99.453	104.420	226.452	151.199	103.658	108.409	108.917	113.252	284.961	112.046	-8191	255	
6829.243	1	1	0	0	0.19262	0.19293	0.1763	0.091659	0.27391	0.28414	0.20051	0.28565	0.39025	0.035819	0.21757	0.27217	0.065519	0.20407	0.050198	0.22612	-2.325	-2.9813	-2.9917	-3.0542	-3.1729	-3.2042	-3.1854	-3.3146	-2.8937	-2.9625	-3.2708	-3.0979	-3.2729	-3.1312	-2.8958	-3.3208	163.255	359.144	350.537	374.061	279.540	248.612	330.043	362.987	190.232	94.147	361.627	438.462	224.834	438.938	323.143	358.480	0.0017001	0.00030489	3.5932e-05	1332.8	6.827e-06	2.0156e-06	1340.9	361.38	9.9778e-06	8.6244e-06	411.78	139.79	122.07	41.217	4.8038e-06	50.975	0.00054755	0.00056427	0.00014492	1355.1	5.998e-06	6.1762e-06	1360.3	368.01	6.1162e-06	6.1023e-06	421.03	141.25	124.45	42.718	5.6879e-06	52.168	328.956	141.532	110.378	99.692	190.967	183.001	99.709	104.509	197.737	252.611	103.680	108.225	109.138	113.428	206.344	112.133	-8191	255	
6829.340	1	1	0	0	0.18488	0.15698	0.23144	0.070707	0.20202	0.18051	0.075073	0.17759	0.064734	0.044726	0.25425	0.24543	0.37188	0.12706	0.24068	0.10575	-2.5687	-2.9229	-2.9062	-3.0354	-3.1208	-3.1792	-3.0604	-3.1	-2.9875	-2.9896	-3.1875	-3.025	-3.1896	-3	-2.9062	-3.2979	259.595	287.802	267.898	366.237	220.646	224.732	427.185	92.465	302.013	135.160	371.746	360.617	410.181	342.483	354.036	352.016	0.0013369	0.00056841	8.0305e-05	1335.1	3.6421e-06	6.959e-06	1338.5	362.95	9.4637e-06	2.6169e-06	412.15	139.66	121.56	41.313	6.5796e-06	51.181	0.00057669	0.00055277	0.00014335	1357.4	6.3e-06	5.9762e-06	1357.6	369.23	6.3504e-06	5.9689e-06	420.17	141.67	124.99	42.636	5.5817e-06	52.651	335.312	371.647	337.872	99.682	172.286	344.173	99.329	104.412	179.428	322.203	103.531	108.507	108.974	113.458	332.876	112.273	-8191	255	
6829.436	1	1	0	0	0.12624	0.29249	0.070151	0.18134	0.16356	0.19546	0.11194	0.28186	0.30156	0.06801	0.061573	0.07534	0.12824	0.32603	0.39076	0.0060973	-2.6646	-2.9562	-3.1312	-3.0438	-2.8958	-3.1667	-3.1437	-3.2438	-3.1312	-2.875	-3.1896	-3.1708	-3.2146	-3.2917	-2.8271	-3.3208	424.951	179.849	341.434	418.939	269.289	221.601	379.732	360.163	407.249	105.208	402.710	372.646	373.589	432.350	444.862	218.046	0.0012463	0.00063024	0.00015465	1339.4	8.7285e-07	8.3971e-06	1343.6	363.17	6.5582e-06	3.901e-06	411.34	139.66	121.36	41.188	4.6952e-06	50.964	0.00058934	0.00053659	0.00013964	1364.4	6.4052e-06	5.8674e-06	1359	371.07	6.3843e-06	5.8418e-06	418.98	142.67	124.64	42.456	5.4501e-06	52.971	331.355	374.999	245.482	99.701	354.566	215.534	99.539	104.429	235.080	197.820	103.727	108.411	108.926	113.354	175.784	112.379	-8191	255	
6829.556	1	1	0	0	0.19965	0.17729	0.26558	0.18368	0.3114	0.25685	0.11106	0.10198	0.016249	0.073173	0.20483	0.34746	0.21984	0.11489	0.36434	0.056633	-2.6354	-2.8521	-3.2188	-3.0333	-3.2188	-3.1792	-3.0167	-3.2125	-3.0208	-2.8917	-3.3979	-2.9938	-3.1208	-3.2562	-2.8833	-3.3417	338.860	171.769	348.643	391.935	312.265	444.033	415.232	340.585	384.890	373.162	438.432	430.274	443.556	229.530	416.569	242.359	0.00094079	0.00023401	0.00016292	1335.7	2.5121e-06	5.3223e-06	1339	361.28	2.4261e-06	3.1123e-06	412.4	139.76	121.85	41.104	1.4628e-05	50.994	0.00057618	0.00052724	0.00013742	1368.9	6.2396e-06	5.7289e-06	1355.2	371.91	6.2253e-06	5.7402e-06	419.16	143.5	124.52	42.413	5.5952e-06	53.317	332.473	93.220	159.163	99.570	300.985	304.198	99.573	104.310	437.679	121.365	103.626	108.234	109.153	113.131	224.940	112.270	-8191	255	
6829.653	1	1	0	0	0.043297	0.28159	0.057359	0.16069	0.28628	0.27397	0.35594	0.50182	0.069264	0.081723	0.21163	0.41468	0.12794	0.069628	0.11734	0.079206	-2.5812	-2.8604	-3.3063	-3.0938	-2.9146	-3.4188	-3.0521	-3.3	-3.1896	-2.9208	-3.1354	-3.1792	-3.075	-3.2542	-2.9458	-3.2958	213.132	365.588	337.355	406.210	364.322	112.805	388.833	387.063	416.071	364.648	105.333	113.133	386.723	236.346	336.596	384.853	0.001024	0.00025221	8.9095e-05	1337.6	1.815e-06	4.006e-06	1341.1	361.72	8.4816e-06	2.5245e-06	411.38	138.75	121.82	41.188	4.2083e-06	51.169	0.00056554	0.00051838	0.00014172	1373.5	6.0604e-06	5.6375e-06	1359.8	373.36	5.9788e-06	5.5436e-06	420.01	143.45	123.66	42.23	5.8087e-06	53.339	323.935	139.398	120.776	99.756	286.730	210.427	99.591	104.287	202.566	425.494	103.824	108.179	108.818	113.243	185.860	112.240	-8191	255	
6829.749	1	1	0	0	0.25722	0.19082	0.32283	0.11825	0.17193	0.076405	0.37876	0.138	0.37685	0.28631	0.10476	0.11241	0.21724	0.39739	0.13066	0.088663	-2.7458	-2.9938	-3.1667	-3.2396	-3.0417	-3.3708	-3.1417	-3.175	-3.1771	-2.8875	-3.2833	-3.0771	-3.0854	-3.4188	-2.8688	-3.1854	394.572	298.263	263.249	184.331	141.332	422.352	357.289	398.200	178.966	359.123	312.631	350.058	357.009	363.081	187.649	330.683	0.0011707	0.00020027	0.00019291	1330.7	1.3667e-06	4.5835e-06	1343.7	361.9	6.5132e-06	2.5093e-06	413.02	139.57	121.09	41.22	9.5172e-06	51.122	0.00054052	0.00049953	0.00014839	1370.8	5.8827e-06	5.4888e-06	1366	372.8	5.924e-06	5.4794e-06	424.77	143.59	123.5	42.183	6.2066e-06	53.264	318.334	446.028	159.281	99.811	166.584	241.313	99.439	104.437	194.076	327.859	103.679	108.400	108.817	113.278	150.204	112.198	-8191	255	
6829.845	1	1	0	0	0.24046	0.025569	0.21493	0.27386	0.15805	0.27563	0.22001	0.12941	0.033283	0.11395	0.067965	0.20982	0.28497	0.1534	0.065857	0.12615	-2.8979	-2.8792	-3.1271	-3.225	-3.0646	-3.2833	-3.1188	-3.1979	-3.1625	-2.9021	-3.2062	-3.2708	-3.0208	-3.2271	-2.9375	-3.0083	178.214	145.787	261.441	434.895	381.183	369.964	360.399	155.985	213.555	426.572	227.576	362.975	313.021	179.617	160.898	220.722	0.0010473	0.00066251	0.00017673	1336.6	4.6338e-06	1.285e-05	1339.6	362.01	8.577e-06	8.9893e-06	412.51	139.71	121.32	41.498	8.7888e-06	51.19	0.00053508	0.00050269	0.00015803	1372	5.8148e-06	5.488e-06	1370.6	371.95	5.7687e-06	5.5233e-06	426.47	142.98	122.98	42.379	6.3813e-06	53.054	333.599	180.063	119.088	99.500	275.398	184.995	99.483	104.420	406.708	194.642	103.674	108.578	108.996	113.196	206.824	112.140	-8191	255	
6829.941	1	1	0	0	0.096874	0.17633	0.17684	0.21258	0.087708	0.21472	0.11956	0.33689	0.22824	0.070429	0.25153	0.10485	0.1934	0.39942	0.33554	0.064629	-2.6833	-2.925	-3.1958	-3.2021	-2.8458	-3.2979	-3.2917	-3.0646	-3.1188	-2.8771	-3.2625	-3.1562	-2.95	-3.3688	-3.0563	-2.8417	196.328	301.941	380.068	90.198	152.692	433.029	314.449	395.019	182.146	225.418	359.778	115.886	413.914	412.843	439.293	401.184	0.0010524	0.00037692	4.7045e-05	1336	3.4016e-06	1.1326e-05	1337.6	361.98	3.3703e-06	1.0026e-05	410.8	139.28	121.71	41.228	5.898e-06	51.327	0.00052199	0.00051081	0.00016158	1368.1	5.5785e-06	5.6402e-06	1372.5	370.81	5.5157e-06	5.7295e-06	426.13	142.19	122.16	42.487	6.2731e-06	52.713	344.886	89.908	169.742	99.693	294.166	172.576	99.343	104.400	424.916	207.202	103.805	108.301	109.124	113.232	151.516	112.213	-8191	255	
6830.037	1	1	0	0	0.12395	0.10516	0.078041	0.26544	0.13869	0.076999	0.28535	0.10451	0.15185	0.1026	0.17478	0.22333	0.053327	0.23789	0.24531	0.067428	-2.8542	-2.825	-3.1396	-3.1917	-2.8792	-3.2292	-3.1542	-3.1167	-3.1354	-2.9437	-3.15	-3.1792	-2.8875	-3.1688	-3.1083	-3.0979	299.077	252.071	277.402	385.996	406.932	112.480	102.271	254.099	248.737	414.955	331.039	436.189	341.620	386.214	362.689	205.653	0.0011321	0.00076353	6.8965e-05	1333.6	3.5826e-06	1.4085e-05	1345.3	360.75	6.4599e-06	8.4392e-06	411.87	139.49	121.29	41.42	1.1772e-06	51.092	0.00049743	0.00053549	0.00015778	1363.8	5.381e-06	5.9245e-06	1370.5	369.45	5.3658e-06	6.002e-06	424.57	142.06	121.83	42.738	6.0654e-06	52.44	335.164	137.271	326.460	99.718	223.222	206.176	99.533	104.313	235.668	210.240	103.618	108.615	109.205	113.276	216.818	112.252	-8191	255	
6830.158	1	1	0	0	0.24108	0.10476	0.30482	0.35514	0.21467	0.17177	0.24675	0.38468	0.058824	0.19536	0.097626	0.19353	0.2271	0.17573	0.21297	0.08853	-2.8479	-2.8917	-3.0312	-3.4	-2.7771	-3.0875	-3.2458	-2.925	-3.4542	-3.0583	-3.0812	-3.25	-2.8438	-3.2229	-2.9333	-2.7646	380.573	435.209	426.404	362.238	128.230	362.570	368.149	349.149	366.939	173.830	274.155	426.564	236.432	352.454	249.451	88.605	0.0013379	0.00030351	7.4648e-05	1336.2	8.3917e-06	7.732e-06	1337.6	361.85	1.2828e-05	5.9477e-06	411.96	139.58	121.3	41.117	3.6815e-06	50.939	0.00049135	0.0005563	0.00015205	1361.1	5.3454e-06	6.0739e-06	1364.2	368.52	5.3729e-06	6.1118e-06	421.76	141.31	122.05	42.774	5.8208e-06	52.255	339.570	207.056	315.453	99.710	214.054	170.988	99.550	104.265	212.996	253.794	103.926	108.328	109.230	113.281	91.664	112.116	-8191	255	
6830.252	1	1	0	0	0.17259	0.20006	0.29861	0.15991	0.16743	0.17731	0.23325	0.19214	0.21908	0.17379	0.16792	0.13987	0.16193	0.18008	0.10646	0.22671	-2.6625	-2.7917	-2.8583	-3.4813	-2.9875	-3.3	-3.2104	-3.0687	-3.225	-3.0958	-2.9313	-3.1958	-3.0125	-2.9562	-2.9042	-2.725	145.117	388.334	94.582	118.310	386.853	271.308	400.546	298.066	98.230	215.389	392.809	407.643	111.808	367.858	274.495	369.515	0.0016395	0.00051463	6.9085e-05	1332.8	7.979e-06	4.5013e-06	1338.3	361.25	1.5204e-05	1.1525e-06	411.95	139.45	121.24	41.043	8.769e-06	50.947	0.00051011	0.0005701	0.00014685	1355.9	5.6192e-06	6.2301e-06	1362.4	367.69	5.7192e-06	6.1552e-06	420.43	140.99	122.88	42.742	5.6501e-06	52.036	326.736	126.569	243.897	99.634	163.785	131.716	99.328	104.334	187.973	242.208	103.844	108.347	109.277	113.289	218.584	112.209	-8191	255	
6830.348	1	1	0	0	0.029176	0.17181	0.095862	0.37285	0.20127	0.10452	0.40106	0.28072	0.065455	0.06234	0.27109	0.083105	0.026007	0.23019	0.19356	0.11953	-2.8792	-2.8125	-2.8958	-3.2958	-2.9646	-3.2646	-3.2938	-3.0854	-3.1667	-3.0604	-3.1354	-3.3771	-2.9729	-3.1854	-3.2	-3.1083	312.981	142.784	308.601	342.126	418.940	417.844	310.140	309.745	398.000	253.445	248.443	224.441	105.043	305.783	178.203	320.658	0.0013948	0.00047195	8.1103e-05	1338.2	6.5305e-06	3.9992e-06	1340.4	361.86	9.7132e-06	3.2093e-06	414.19	139.56	122.18	41.272	1.4552e-06	51.208	0.00053936	0.00055722	0.00014378	1358.8	5.9807e-06	6.0929e-06	1363.3	367.89	6.0503e-06	6.0696e-06	421	141.27	124.35	42.736	5.6068e-06	52.264	334.226	418.167	182.378	99.586	163.511	368.150	99.604	104.352	204.633	270.673	103.938	108.456	109.124	113.084	317.091	112.283	-8191	255	
6830.420	1	1	0	0	0.066107	0.20089	0.030177	0.2007	0.15817	0.10025	0.18354	0.46807	0.059148	0.134	0.14743	0.19735	0.071433	0.2303	0.082058	0.23355	-2.6958	-3.1375	-3.0208	-3.4125	-2.9688	-3.05	-3.4479	-3.0812	-3.2687	-3.0646	-3.0062	-3.4125	-3.0625	-2.9437	-3.0875	-2.8833	297.546	171.412	166.311	435.380	230.391	208.919	409.422	423.301	413.989	174.216	371.322	131.920	175.833	379.797	254.868	412.937	0.0012309	0.000355	0.00010584	1337.7	6.4062e-06	2.1847e-06	1339.3	362.32	9.5313e-06	4.2731e-06	411.38	139.39	121.7	41.253	2.6905e-06	51.215	0.00056895	0.00054771	0.00014131	1360	6.2574e-06	5.9291e-06	1360.2	368.77	6.2764e-06	5.8715e-06	418.99	141.48	124.78	42.563	5.4638e-06	52.53	334.153	403.420	436.496	99.548	158.397	360.907	99.664	104.466	187.852	376.476	103.803	108.219	108.952	113.308	153.880	112.124	-8191	255	
6830.518	1	1	0	0	0.057534	0.070184	0.28402	0.29	0.18542	0.1791	0.40802	0.32078	0.16341	0.17325	0.282	0.10783	0.18527	0.0038383	0.23656	0.16848	-2.5396	-3.1354	-2.8688	-3.2042	-2.9146	-2.9813	-3.3604	-3.1146	-3.1958	-3.2333	-2.9583	-3.2438	-2.9542	-3.0333	-3.3125	-3.0104	244.373	158.733	425.911	425.246	167.749	155.539	112.969	417.097	201.827	319.017	357.537	371.386	303.191	429.940	374.338	411.596	0.0010882	0.0008946	0.0001572	1340.4	4.2217e-06	1.3829e-06	1343.9	361.48	3.2847e-06	3.8699e-06	413.13	139.6	121.93	41.338	1.7218e-06	51.037	0.00057992	0.00052757	0.00013838	1365.8	6.3338e-06	5.7896e-06	1359.9	370.08	6.271e-06	5.7667e-06	417.99	142.61	124.55	42.485	5.3361e-06	52.816	331.836	249.656	359.393	99.654	179.218	217.715	99.525	104.421	196.849	123.132	103.704	108.477	109.208	113.481	352.181	112.292	-8191	255	
6830.637	1	1	0	0	0.059338	0.24527	0.10368	0.21381	0.048348	0.14664	0.29895	0.059934	0.30172	0.17222	0.34183	0.26451	0.18191	0.24661	0.22632	0.34497	-2.6	-3.1937	-2.825	-3.3229	-2.9729	-2.875	-3.3958	-2.8958	-3.0229	-3.1417	-2.875	-3.3042	-3.1604	-2.9542	-3.3021	-3.0708	433.764	418.709	289.284	407.068	220.544	444.705	436.103	376.589	378.851	163.901	94.401	385.569	440.631	180.200	185.703	421.605	0.0011924	0.00036904	3.757e-05	1338.1	2.2404e-06	2.2072e-06	1342	362.04	2.4783e-06	3.8378e-06	413.09	139.84	121.56	41.206	9.9673e-06	51.007	0.00056249	0.00051582	0.00013466	1370	6.0488e-06	5.584e-06	1355.7	371.3	6.0234e-06	5.5768e-06	417.86	143.28	123.8	42.367	5.3678e-06	53.109	334.696	133.676	265.702	99.601	404.264	379.091	99.434	104.347	162.889	229.592	103.894	108.321	109.353	113.276	230.647	112.178	-8191	255	
6830.733	1	1	0	0	0.30649	0.18832	0.069974	0.17808	0.13312	0.11496	0.40961	0.17051	0.26247	0.20847	0.16455	0.081508	0.16302	0.062699	0.078363	0.22292	-2.3646	-3.1312	-2.7458	-3.1375	-3.1833	-2.95	-3.3688	-3.0312	-2.95	-2.9979	-3.0417	-3.1083	-3.0396	-2.8042	-3.175	-3.0875	267.620	303.020	183.548	380.451	277.508	330.653	413.052	269.658	359.855	86.942	268.527	404.531	93.888	297.896	395.612	396.657	0.0011066	0.00062904	0.00020976	1336.7	3.7379e-06	6.582e-06	1339.8	361.56	3.3111e-06	4.5788e-06	414.89	139.81	121.02	41.155	9.1271e-06	51.158	0.00054456	0.00050279	0.00013831	1372.9	5.8911e-06	5.4975e-06	1358.6	372.19	5.8543e-06	5.4586e-06	420.53	143.5	123.39	42.247	5.7192e-06	53.362	326.765	94.476	163.332	99.536	329.075	281.986	99.422	104.359	170.162	325.729	103.886	108.552	108.768	113.246	186.350	112.178	-8191	255	
6830.829	1	1	0	0	0.11607	0.12056	0.21132	0.12432	0.16513	0.17804	0.17081	0.074883	0.070777	0.23802	0.27641	0.30902	0.10616	0.10761	0.10248	0.14428	-2.4604	-3.2458	-2.8979	-3.1813	-3.0083	-2.8438	-3.3563	-3.1771	-2.8812	-3.2438	-3.0104	-3.1625	-3.1667	-2.8583	-3.1625	-3.0187	369.611	377.387	212.660	112.597	171.154	372.338	318.376	87.963	415.083	178.437	405.864	411.320	221.418	166.051	335.733	322.561	0.0010928	0.0004972	0.0001862	1336.9	3.613e-06	1.9717e-06	1345.4	363.03	6.0076e-06	3.2591e-06	414.07	139.5	121.67	41.093	9.2638e-06	51.194	0.00054088	0.00049946	0.0001483	1374.1	5.8427e-06	5.4115e-06	1367.1	372.57	5.7639e-06	5.3565e-06	423.83	143.17	123.03	42.132	6.0452e-06	53.088	330.009	203.306	175.036	99.653	205.123	205.979	99.447	104.420	251.278	180.485	103.843	108.199	109.034	113.251	158.664	112.200	-8191	255	
6830.950	1	1	0	0	0.2047	0.085474	0.2279	0.19483	0.094784	0.099996	0.057136	0.078802	0.072637	0.061501	0.34359	0.11862	0.12622	0.16567	0.11306	0.17173	-2.5792	-3.1042	-2.9062	-3.2188	-3.3375	-2.9	-3.4062	-3.1875	-3.0292	-3.1875	-2.9854	-3.1542	-3.3312	-2.8187	-3.3563	-3.1937	117.170	118.855	172.602	406.683	125.804	323.926	97.403	148.956	126.146	149.842	92.192	429.051	197.008	156.223	141.832	391.343	0.0011621	0.0003784	0.00017479	1335.9	1.457e-06	5.985e-06	1343.9	361.77	5.7984e-06	5.4936e-06	412.41	139.96	121.59	41.295	3.7139e-06	51.055	0.00052579	0.00049058	0.00015607	1369.4	5.6858e-06	5.3568e-06	1369.4	371.45	5.6329e-06	5.4e-06	425.89	142.78	122.39	42.218	6.226e-06	52.82	332.370	125.165	157.142	99.585	172.414	180.272	99.420	104.286	244.077	238.139	103.705	108.344	108.958	113.281	157.212	112.239	-8191	255	
6831.021	1	1	0	0	0.075991	0.10436	0.16902	0.23113	0.017964	0.22559	0.33899	0.011287	0.2701	0.16907	0.23846	0.08319	0.068452	0.096179	0.17959	0.084944	-2.4354	-3.1125	-2.9333	-3.0417	-2.9708	-2.9146	-3.3375	-3.1813	-2.8625	-3.2479	-2.9458	-3.0021	-3.1958	-2.8333	-3.2083	-3.2625	387.259	239.121	266.001	114.336	332.210	90.904	328.978	93.190	247.287	329.562	419.700	184.832	424.800	380.000	164.425	124.950	0.0010398	0.00058193	8.5134e-05	1334.7	3.3581e-06	1.1808e-05	1338	361.81	5.7769e-06	1.4833e-05	411.38	139.26	121.36	41.343	3.3783e-06	51.121	0.00050746	0.000501	0.0001583	1365.3	5.4784e-06	5.5158e-06	1370.9	369.85	5.4374e-06	5.6177e-06	425.79	142.27	121.99	42.476	6.2748e-06	52.589	334.231	107.916	281.859	99.544	203.345	175.199	99.476	104.301	298.858	217.078	103.569	108.610	108.713	113.312	202.038	112.310	-8191	255	
6831.118	1	1	0	0	0.16566	0.13851	0.068124	0.30417	0.22098	0.2865	0.27047	0.020984	0.12968	0.15219	0.14478	0.12577	0.14562	0.13221	0.19009	0.086829	-2.6	-3.3833	-3.0646	-3.1125	-3.2896	-3.0458	-3.3542	-3.1458	-2.8583	-3.2708	-3.0292	-3.0292	-3.2625	-2.925	-3.0417	-3.2896	305.211	166.948	171.867	87.090	339.912	149.172	399.921	205.240	92.775	231.955	433.120	380.900	204.969	358.541	366.945	137.960	0.00098556	0.00065404	8.6032e-05	1337.4	4.498e-06	2.6045e-06	1342.1	362.37	5.5723e-06	1.0736e-05	411.52	139.17	121.69	41.338	3.0484e-06	51.229	0.00049911	0.00053527	0.00015881	1363.9	5.4178e-06	5.9727e-06	1370.7	370.34	5.3887e-06	5.9949e-06	425.59	142.1	121.9	42.783	6.1237e-06	52.532	330.575	91.204	209.065	99.842	233.269	127.172	99.546	104.366	160.497	222.399	103.619	108.418	109.035	113.087	336.139	112.154	-8191	255	
6831.238	1	1	0	0	0.077555	0.1334	0.092812	0.16767	0.11091	0.138	0.16618	0.16927	0.06075	0.042395	0.053992	0.24042	0.077211	0.033806	0.18784	0.22364	-2.5583	-3.1854	-2.8854	-3.0312	-3.0958	-3.0125	-3.1625	-3.2896	-2.8521	-3.2396	-3.1688	-3.05	-3.2792	-3.2	-2.9562	-3.5042	218.592	393.247	330.433	366.234	227.119	212.526	410.466	428.395	412.656	138.302	267.870	338.328	233.850	154.228	93.479	445.410	0.00099107	0.0011218	1.6762e-05	1338.6	6.3052e-06	3.5486e-06	1342.4	362.1	1.516e-05	1.8124e-06	413.55	139.18	122.24	41.239	4.0019e-06	51.118	0.00050022	0.00056611	0.00015467	1364.5	5.4483e-06	6.2402e-06	1367.3	369.2	5.4934e-06	6.2788e-06	424.58	141.76	122.59	42.964	5.9567e-06	52.436	328.181	118.087	267.719	99.564	149.986	147.708	99.532	104.286	187.431	222.747	103.873	108.455	108.797	113.304	308.549	112.266	-8191	255	
6831.333	1	1	0	0	0.27017	0.20934	0.013732	0.29317	0.31005	0.21335	0.087526	0.19313	0.17888	0.17461	0.078849	0.15034	0.11273	0.15945	0.04079	0.025072	-2.3917	-2.9625	-3.0938	-2.9958	-3.2708	-2.9813	-3.3063	-3.4979	-2.8417	-2.9813	-3.2687	-2.9792	-3.2125	-3.1562	-2.9562	-3.1937	250.365	161.583	354.690	375.429	336.825	195.136	380.876	377.242	261.084	267.042	171.532	374.340	335.157	405.404	295.694	355.563	0.0014025	0.00069326	0.00013093	1336.2	7.6262e-06	5.3392e-06	1347.1	363.15	1.0082e-05	2.9034e-06	412.68	139.71	121.79	41.393	2.9141e-06	51.139	0.00052132	0.00057764	0.00015035	1362	5.7271e-06	6.3851e-06	1367.1	369.57	5.8635e-06	6.3816e-06	423.6	141.76	123.78	43.091	5.8997e-06	52.445	325.311	114.770	243.169	99.721	159.569	234.567	99.341	104.437	189.933	398.216	103.526	108.453	109.293	113.332	232.994	112.333	-8191	255	
6831.429	1	1	0	0	0.23309	0.08244	0.1626	0.18059	0.16534	0.13325	0.41937	0.41176	0.15511	0.070909	0.21354	0.1943	0.12727	0.083988	0.35585	0.069575	-2.4104	-3.1646	-3.0042	-3.0208	-3.3438	-3.075	-3.2562	-3.2833	-3.0271	-3.1437	-3.1708	-2.975	-3.1896	-3.0625	-2.8729	-3.1271	429.825	138.679	306.652	430.828	86.863	446.034	417.570	395.339	324.232	117.574	380.894	423.163	434.401	349.452	244.965	416.434	0.0013669	0.00027554	0.00011614	1339.1	8.8015e-06	3.6652e-06	1339.6	361.86	6.0135e-06	1.4058e-06	412.62	139.82	122.9	41.288	2.7175e-06	50.877	0.00055949	0.00058056	0.00014924	1361.5	6.1679e-06	6.3127e-06	1366.5	368.8	6.2345e-06	6.2339e-06	422.46	141.71	124.96	42.865	5.7784e-06	52.3	325.171	382.354	441.698	99.766	196.765	431.075	99.421	104.405	134.137	279.801	103.719	108.447	108.659	113.200	268.394	112.118	-8191	255	
6831.549	1	1	0	0	0.25351	0.14089	0.08546	0.29352	0.098123	0.14312	0.24059	0.31536	0.036646	0.15424	0.19708	0.28697	0.091892	0.16848	0.22642	0.11535	-2.5458	-2.8771	-3.1729	-2.9604	-3.2417	-2.9437	-2.975	-3.2875	-2.9479	-3.0375	-3.1854	-2.9708	-2.9437	-3.1188	-2.8521	-3.1813	299.611	225.563	445.260	379.305	405.285	254.243	354.202	380.721	164.289	307.750	378.507	86.663	444.627	358.325	130.615	332.855	0.0014643	0.00010729	0.00015986	1339.9	6.4813e-06	8.3654e-06	1341.6	362.92	1.3292e-05	1.1471e-05	413.28	139.24	121.57	41.255	6.3624e-06	51.139	0.00058142	0.00055998	0.00014525	1362	6.3672e-06	6.0622e-06	1362.9	369.16	6.358e-06	5.9235e-06	420.32	141.57	124.74	42.616	5.5126e-06	52.48	330.996	334.165	318.247	99.555	155.084	230.602	99.581	104.438	193.320	282.146	103.533	108.546	109.017	113.275	283.412	112.503	-8191	255	
6831.645	1	1	0	0	0.12493	0.39536	0.13317	0.075673	0.15337	0.1335	0.25495	0.16638	0.15794	0.086369	0.12662	0.20366	0.14236	0.38217	0.1892	0.13548	-2.4396	-2.7771	-3.1271	-2.9625	-3.1021	-3.2167	-3.025	-3.2146	-2.9417	-3.0417	-3.1479	-2.8917	-3.2375	-3.1792	-2.7979	-3.2792	392.224	390.879	258.168	292.109	318.365	169.228	280.568	373.221	232.248	142.995	272.837	193.783	330.241	388.753	153.339	121.991	0.0012745	0.00014932	6.5891e-05	1340	4.7382e-06	4.6129e-06	1338.4	362.7	7.6056e-06	1.4549e-06	410.11	139.76	121.34	41.116	3.698e-06	50.975	0.00057765	0.00052757	0.000138	1366.4	6.2382e-06	5.769e-06	1355.7	370.22	6.2632e-06	5.6838e-06	417.81	142.5	124.15	42.433	5.2949e-06	52.714	319.950	300.549	268.806	99.584	254.000	392.626	99.449	104.281	253.747	418.580	103.706	108.403	108.979	113.221	324.880	112.286	-8191	255	
6831.717	1	1	0	0	0.14049	0.16624	0.2344	0.2008	0.22222	0.12033	0.13128	0.26502	0.19555	0.19368	0.27667	0.066587	0.073497	0.14439	0.075756	0.29102	-2.4458	-3.025	-3.1583	-3.0667	-3.1437	-3.1646	-3.0167	-3.3521	-3.0167	-2.9792	-3.4271	-3.0417	-3.1896	-3.2125	-2.8292	-3.2438	138.894	111.987	382.601	368.086	301.601	393.600	440.887	371.780	171.826	359.270	361.035	157.983	127.234	432.636	252.232	392.612	0.0011241	0.00011782	0.00017025	1338.5	7.7621e-06	3.057e-06	1342.3	362.17	1.1806e-06	1.2168e-06	412.54	139.36	121.16	41.35	6.9363e-06	51.11	0.00056064	0.00051274	0.00013346	1368.4	6.0549e-06	5.598e-06	1354.2	371.6	6.0233e-06	5.5528e-06	417.81	142.9	123.8	42.295	5.3372e-06	52.988	336.741	339.503	278.729	99.445	325.263	274.373	99.545	104.519	293.533	233.492	103.761	108.315	109.155	113.352	175.078	112.229	-8191	255	
6831.838	1	1	0	0	0.082197	0.13124	0.17248	0.15309	0.22751	0.094007	0.26076	0.17589	0.12913	0.15012	0.13028	0.16634	0.23344	0.23268	0.12212	0.22287	-2.6833	-2.8896	-3.2958	-3.1083	-3.0271	-3.1354	-3.0521	-3.2146	-3.1042	-2.8375	-3.4396	-3.0875	-3.0792	-3.2438	-2.9688	-3.2125	177.577	365.967	279.164	115.109	419.097	139.431	88.080	437.632	277.570	298.852	398.471	384.498	341.605	147.310	430.657	421.056	0.0012879	0.00024037	0.00024652	1337.4	3.7893e-06	2.5296e-06	1340.9	361.44	2.7582e-06	3.3501e-06	412.87	139.34	121.23	41.285	6.5298e-06	51.256	0.00053952	0.00049902	0.00013505	1370.4	5.7725e-06	5.3783e-06	1355.3	371.64	5.7381e-06	5.3258e-06	418.45	143.1	122.71	42.09	5.5603e-06	53.06	339.364	193.608	160.696	99.813	203.504	323.233	99.600	104.444	181.467	392.351	103.752	108.231	108.960	113.528	186.902	112.352	-8191	255	
6831.934	1	1	0	0	0.23374	0.1156	0.099795	0.12453	0.22484	0.068295	0.19864	0.14686	0.23505	0.19457	0.12839	0.12789	0.15617	0.18317	0.14508	0.19394	-2.6937	-2.8688	-3.2229	-3.2104	-2.9667	-3.2333	-3.2104	-3.1979	-3.2042	-2.9833	-3.2521	-3.0021	-2.9479	-3.2438	-2.7979	-3.3	309.731	316.945	89.554	94.752	202.660	123.484	387.787	404.860	188.586	199.162	396.630	315.046	187.042	90.189	257.741	167.582	0.0010945	0.00068809	0.0002697	1334.8	3.4885e-06	5.8467e-06	1340.3	361.41	6.2934e-06	2.015e-06	411.5	139.12	121.71	41.224	7.3678e-06	51.042	0.00052254	0.00048616	0.00014271	1369.8	5.6312e-06	5.2558e-06	1361.1	371.05	5.6045e-06	5.1876e-06	421.2	142.62	122.38	41.994	5.8297e-06	52.802	335.061	192.005	151.626	99.738	371.655	404.787	99.565	104.349	281.380	178.367	103.611	108.525	108.962	113.149	163.828	112.395	-8191	255	
6832.030	1	1	0	0	0.074518	0.24277	0.14248	0.17914	0.17008	0.03733	0.33405	0.28566	0.10341	0.11367	0.12777	0.11754	0.31256	0.17747	0.27913	0.057818	-2.6771	-2.8521	-2.9437	-3.0938	-2.8667	-3.2333	-3.0563	-3.1875	-3.2354	-3.0083	-3.1875	-3.0542	-2.8917	-3.3354	-2.95	-2.9875	442.234	290.458	396.643	354.050	212.768	284.894	444.620	125.274	139.549	350.975	391.162	326.780	110.282	371.661	340.196	374.702	0.0011751	0.00035059	0.00011711	1331.1	3.6307e-06	7.3427e-06	1341.2	361.52	4.3055e-06	3.1405e-06	410.26	139.2	121.56	41.176	5.4193e-06	51.034	0.00050901	0.0004699	0.00014866	1364.8	5.4625e-06	5.1759e-06	1364.6	370.07	5.4487e-06	5.2096e-06	422.82	142	121.89	41.987	6.0244e-06	52.497	324.503	100.065	157.982	99.462	303.844	194.929	99.402	104.382	227.729	261.078	103.970	108.346	108.906	113.149	186.642	112.045	-8191	255	
6832.126	1	1	0	0	0.073062	0.17031	0.20564	0.12838	0.11526	0.2557	0.40643	0.11661	0.068426	0.17533	0.17212	0.098776	0.21268	0.26052	0.2252	0.03899	-2.6583	-2.7167	-2.9688	-3.0396	-2.8583	-3.2292	-2.9771	-3.1354	-3.2104	-2.8917	-3.2938	-3.1167	-2.9208	-3.15	-3.0563	-2.9917	341.176	333.425	102.784	426.779	304.150	418.902	374.454	282.657	87.203	290.797	308.964	357.121	378.422	93.163	229.750	373.643	0.0010338	9.5498e-05	6.1751e-05	1331	1.5853e-06	5.5076e-06	1343.8	362.4	8.022e-06	6.7157e-06	413.53	139.55	121.41	41.397	1.8715e-06	51.186	0.00049116	0.00048277	0.00015237	1360.3	5.2814e-06	5.298e-06	1366.4	369.33	5.2935e-06	5.3883e-06	424.17	141.45	121.5	42.293	6.0872e-06	52.443	341.019	424.479	156.918	99.488	431.587	107.446	99.467	104.435	352.496	212.473	103.840	108.686	108.939	113.228	108.494	112.487	-8191	255	
6832.221	1	1	0	0	0.16608	0.066599	0.12919	0.35852	0.33049	0.15426	0.22598	0.12139	0.15379	0.28446	0.2021	0.081089	0.040105	0.12098	0.19737	0.18483	-2.7396	-2.8625	-2.9833	-3.2479	-2.9125	-3.1937	-3.1188	-3.175	-3.2146	-2.95	-3.0458	-3.1333	-2.8771	-3.3146	-2.8792	-2.7521	411.161	145.979	430.493	419.773	415.705	340.053	381.564	437.219	153.714	357.916	139.641	90.272	323.188	165.449	230.104	114.350	0.0010728	0.0005852	0.00026575	1337.8	4.0735e-06	1.2121e-05	1338.2	362.48	7.5615e-06	4.5865e-06	412.76	138.9	121.65	41.229	3.5701e-06	50.902	0.00048224	0.00051379	0.00015296	1361.3	5.1952e-06	5.6719e-06	1365.9	368.68	5.2088e-06	5.7635e-06	423.26	141.56	121.35	42.542	5.9435e-06	52.327	325.055	145.663	185.692	99.656	198.601	151.598	99.414	104.382	228.075	368.600	103.668	108.634	108.821	113.255	161.119	112.203	-8191	255	
6832.317	1	1	0	0	0.28099	0.19326	0.13783	0.17489	0.053403	0.28684	0.29101	0.085539	0.12491	0.23686	0.076042	0.10562	0.14552	0.080739	0.23855	0.097645	-2.7146	-2.9688	-2.8896	-3.1583	-2.8937	-3.2438	-3.2021	-3.0083	-3.1312	-2.9208	-3.1792	-3.35	-2.9688	-3.2417	-3.0563	-2.9688	446.359	99.442	316.450	351.366	417.999	229.430	348.848	441.845	286.638	119.741	389.316	416.417	320.097	434.551	217.256	432.349	0.0014079	0.00026421	2.0236e-05	1333.9	4.1393e-06	1.3523e-05	1342.1	361.64	7.6933e-06	6.8076e-06	410.45	138.92	121.88	41.269	4.2883e-06	50.824	0.00048248	0.00054463	0.00014946	1359.3	5.2667e-06	5.9855e-06	1365.2	368.25	5.3213e-06	6.0949e-06	421.8	141.35	121.99	42.77	5.836e-06	52.196	331.427	207.551	232.056	99.900	173.139	151.968	99.660	104.414	204.987	231.049	103.779	108.255	108.998	113.314	301.839	112.397	-8191	255	
6832.413	1	1	0	0	0.16901	0.18823	0.060977	0.19367	0.14187	0.11378	0.295	0.20318	0.23117	0.23983	0.16301	0.23854	0.16329	0.15557	0.15093	0.16882	-2.7229	-3.0312	-3.0396	-3.2229	-2.9604	-3.2604	-3.1396	-2.8146	-3.3354	-3.1583	-3.0792	-3.3542	-2.9625	-3.1604	-3.0812	-2.9917	252.098	91.475	86.933	371.184	216.964	211.147	383.029	384.628	443.283	107.025	431.752	442.883	370.793	322.499	445.414	356.488	0.0014763	0.00025585	9.9116e-05	1335.9	7.6503e-06	5.4263e-06	1340	362.04	8.2734e-06	5.8459e-06	411.85	140.08	121.84	41.35	1.4426e-06	50.992	0.00050478	0.00056672	0.0001464	1358.2	5.5698e-06	6.14e-06	1361.6	367.78	5.6218e-06	6.1678e-06	420.87	140.95	122.91	42.75	5.6527e-06	52.111	325.007	429.648	240.509	99.595	166.619	248.421	99.363	104.454	138.969	347.179	103.620	108.368	108.925	113.397	169.115	112.193	-8191	255	
6832.509	1	1	0	0	0.27207	0.19439	0.033879	0.1509	0.062649	0.35091	0.052012	0.41854	0.19106	0.16053	0.21957	0.20983	0.14222	0.087314	0.069297	0.032726	-2.8125	-2.9729	-3	-3.3875	-2.8417	-3.1333	-3.2583	-2.9375	-2.9104	-3.0438	-3.0521	-3.2188	-3.1771	-3.1167	-2.8792	-2.8104	383.208	438.459	240.701	358.788	226.709	105.222	340.654	411.598	326.123	198.247	293.737	110.159	161.018	411.241	424.511	277.351	0.0017625	0.00029633	8.215e-05	1331.7	8.9486e-06	6.4757e-06	1342.1	361.97	1.2743e-05	3.4769e-06	411.95	139.49	122.22	41.15	3.7715e-06	51.128	0.00053128	0.00055723	0.00014289	1356.5	5.8774e-06	6.012e-06	1361.6	367.63	5.9202e-06	5.975e-06	419.35	140.84	123.9	42.646	5.5689e-06	52.111	335.956	184.277	295.507	99.540	210.161	262.046	99.494	104.498	202.766	147.792	103.823	108.252	109.019	113.418	396.004	112.619	-8191	255	
6832.630	1	1	0	0	0.15351	0.21772	0.37832	0.093039	0.32129	0.28134	0.34846	0.52992	0.11855	0.20215	0.13875	0.134	0.24795	0.41902	0.25892	0.26173	-2.6021	-3.0438	-2.8104	-3.2	-2.8833	-2.9146	-3.4708	-3.0438	-3.1729	-3.0208	-2.9521	-3.1021	-3.0563	-3.2229	-3.2125	-2.9354	276.399	136.561	364.297	397.973	404.842	236.603	112.487	376.844	369.698	417.758	434.382	363.438	424.147	90.942	279.631	420.735	0.001574	0.00035524	2.9815e-05	1338.5	6.1499e-06	2.4477e-06	1338	362.76	4.4459e-06	4.2144e-06	412.31	139.65	121.9	41.043	3.3386e-06	51.14	0.00056002	0.00054285	0.00014039	1357.6	6.181e-06	5.8655e-06	1357.3	368.07	6.1518e-06	5.7801e-06	417.79	141.14	124.22	42.407	5.3905e-06	52.263	327.824	207.854	259.165	99.744	209.562	234.780	99.527	104.349	187.446	315.436	103.696	108.129	108.726	113.274	252.913	112.550	-8191	255	
6832.726	1	1	0	0	0.13027	0.069156	0.16861	0.24674	0.17157	0.23995	0.35301	0.24291	0.14332	0.16906	0.20889	0.090003	0.30691	0.087001	0.29201	0.12571	-2.575	-3.0396	-2.7271	-3.3354	-2.8958	-2.9729	-3.4688	-3.1917	-3.1021	-3.1604	-2.9667	-3.4313	-3.0563	-2.8958	-3.2979	-2.9917	302.553	287.409	237.977	417.008	342.354	405.298	376.563	352.773	315.536	310.479	371.878	107.430	87.808	146.868	232.476	442.123	0.0011317	0.00082401	0.0001152	1339.3	1.726e-06	2.1432e-06	1338.1	362.2	6.722e-06	5.0824e-06	411.81	139.88	121.81	41.329	1.1352e-06	51.004	0.00056839	0.00051837	0.00013534	1361.4	6.1364e-06	5.6057e-06	1353.4	368.98	6.095e-06	5.5946e-06	416.66	142.05	124	42.311	5.2235e-06	52.502	324.395	95.375	446.180	99.692	326.648	152.293	99.542	104.297	194.848	198.615	103.732	108.524	108.925	113.314	371.518	112.281	-8191	255	
6832.822	1	1	0	0	0.25267	0.43381	0.028157	0.27309	0.090394	0.11263	0.20206	0.1861	0.18593	0.24654	0.1831	0.056796	0.10056	0.017495	0.056002	0.18502	-2.7042	-3.0563	-2.8333	-3.4292	-3.1625	-3.0563	-3.5292	-3.1354	-2.9667	-3.3	-3.0083	-3.3771	-3.0542	-3.0104	-3.3417	-3.0458	304.766	282.071	129.129	406.040	404.621	276.053	341.709	96.609	408.150	279.642	437.029	138.640	150.324	219.535	290.466	259.362	0.0010927	0.00010937	0.0001771	1333	3.9636e-06	1.9568e-06	1340.1	363.18	2.852e-06	6.5094e-06	411.79	139.52	121.25	41.256	5.1565e-06	51.29	0.00055186	0.00050383	0.0001317	1363.4	5.9518e-06	5.4476e-06	1351.8	370.47	5.8526e-06	5.4105e-06	415.9	142.47	123.3	42.187	5.179e-06	52.876	338.031	275.857	143.385	99.738	235.809	404.428	99.611	104.478	161.859	113.327	103.665	108.492	108.902	113.380	157.941	112.169	-8191	255	
6832.918	1	1	0	0	0.092273	0.11103	0.13699	0.2643	0.14055	0.11675	0.097128	0.062738	0.12709	0.022926	0.24036	0.22484	0.12291	0.24598	0.20769	0.12175	-2.5583	-3.0521	-2.7042	-3.2479	-2.9333	-3.1208	-3.4667	-3.1542	-2.9083	-3.0938	-2.9771	-3.2438	-3.175	-2.7812	-3.0438	-3.0854	366.641	281.072	185.311	421.406	141.521	139.644	290.900	406.900	140.903	108.855	281.167	146.060	251.533	407.898	241.986	98.329	0.00097908	0.00036372	0.0002467	1337.4	4.8368e-06	1.1828e-06	1339.9	362.6	2.8649e-06	8.8418e-07	413.84	139.44	121.29	41.014	9.5296e-06	50.925	0.00053183	0.00049046	0.00013311	1366.8	5.7317e-06	5.2882e-06	1353.9	371.07	5.6287e-06	5.2402e-06	417.57	142.67	122.44	41.948	5.391e-06	52.906	347.240	186.194	156.204	99.729	269.810	314.054	99.499	104.374	226.307	397.031	103.713	108.476	109.196	113.266	162.281	112.044	-8191	255	
6833.014	1	1	0	0	0.095373	0.043566	0.10228	0.17419	0.24468	0.16972	0.098796	0.29376	0.22416	0.12373	0.29852	0.076179	0.36824	0.39055	0.12906	0.042437	-2.4667	-3.1042	-2.8896	-3.3083	-3.1792	-2.8771	-3.3083	-3.2479	-3.1458	-3.2188	-3.1396	-3.1333	-2.9688	-3.0708	-3.1833	-3.2104	100.201	206.973	110.355	438.657	222.693	169.623	395.430	437.449	181.745	338.138	288.582	439.032	441.104	433.237	89.382	117.450	0.0011963	0.00029218	0.00022243	1336.7	2.8225e-06	8.4925e-06	1339.1	361.39	4.0042e-06	1.8375e-06	412.67	139.33	121.62	41.18	1.0153e-05	51.082	0.00051446	0.00047606	0.00013973	1367.6	5.5847e-06	5.2028e-06	1359	370.76	5.5699e-06	5.2078e-06	420.62	142.45	122.43	41.962	5.8157e-06	52.896	334.046	98.488	158.176	99.751	144.085	190.699	99.504	104.285	186.625	94.147	103.743	108.246	109.048	113.411	179.184	112.322	-8191	255	
6833.110	1	1	0	0	0.13437	0.14762	0.038646	0.11162	0.25482	0.17337	0.23054	0.20892	0.16657	0.25462	0.40217	0.19204	0.1874	0.13521	0.19418	0.019391	-2.4958	-3.0812	-2.9646	-3.4604	-3.2125	-2.8021	-3.3146	-3.2104	-2.7625	-3.2188	-3.0563	-3.1146	-3.1375	-2.7958	-3.2104	-3.2104	107.302	194.561	260.038	410.197	168.637	128.167	365.303	369.675	291.445	428.992	385.361	384.515	317.652	413.077	326.655	382.788	0.0013807	0.00077321	0.00013826	1338.9	1.6906e-06	2.6433e-06	1342.1	362.11	1.8704e-06	6.0398e-06	413.16	139.74	121.4	41.417	5.8497e-06	51.217	0.00051155	0.00047299	0.00014951	1368.3	5.5373e-06	5.2015e-06	1365.5	370.29	5.519e-06	5.2556e-06	424.12	142.33	122.46	42.198	6.1397e-06	52.769	332.858	100.830	136.569	99.643	193.776	91.756	99.562	104.339	154.313	198.926	103.750	108.215	109.069	113.220	179.175	112.384	-8191	255	
6833.231	1	1	0	0	0.055912	0.054147	0.31748	0.10075	0.28522	0.088478	0.27586	0.3056	0.23053	0.12079	0.18707	0.059191	0.10344	0.28469	0.2361	0.3393	-2.3563	-3.2188	-2.8875	-3.2792	-3.2729	-2.9896	-3.3396	-3.2438	-2.8271	-3.25	-3.0729	-3.2333	-3.1562	-3.0312	-3.1542	-3.1562	263.777	333.811	180.383	157.289	159.388	181.462	400.414	432.013	282.364	338.812	353.098	431.036	311.085	383.596	320.296	360.114	0.0011708	0.0011457	0.00014661	1339.4	2.5638e-06	1.2608e-05	1344.5	362.76	4.9055e-06	3.8829e-06	413.61	139.2	121.69	41.284	1.0832e-06	51.168	0.00051258	0.00049842	0.00015951	1368.4	5.5893e-06	5.5922e-06	1373.6	370.9	5.5599e-06	5.6959e-06	427.37	142.42	122.7	42.591	6.4781e-06	52.958	335.841	148.206	110.521	99.741	165.798	186.571	99.722	104.429	120.275	182.320	103.606	108.511	109.227	113.232	369.627	112.246	-8191	255	
6833.326	1	1	0	0	0.10226	0.092941	0.11561	0.070887	0.16668	0.090978	0.022972	0.26801	0.27437	0.17334	0.17374	0.18718	0.2024	0.25683	0.10709	0.18575	-2.4917	-3.0729	-3.0542	-3.0271	-3.1417	-2.8521	-3.3271	-3.2938	-2.9583	-3.0375	-2.9979	-2.9625	-3.2125	-3.0104	-3.2396	-3.1083	445.692	208.682	293.988	99.021	357.550	394.942	95.347	391.774	94.099	312.236	274.443	416.618	385.630	347.472	102.447	378.466	0.0012292	0.00074316	0.00015742	1341.1	6.2415e-06	1.3006e-05	1345.3	361.26	4.5844e-06	1.1317e-05	413.17	139.86	121.11	41.532	1.7405e-06	51.076	0.00052135	0.00054989	0.00016634	1371	5.6442e-06	6.1574e-06	1376.6	371.03	5.6286e-06	6.2249e-06	428.47	142.99	123.02	43.141	6.4893e-06	53.111	343.777	90.193	360.012	99.623	213.294	206.618	99.517	104.355	267.705	193.840	103.861	108.508	109.349	113.353	406.586	112.050	-8191	255	
6833.422	1	1	0	0	0.13207	0.043945	0.074574	0.3417	0.13907	0.069044	0.034903	0.078673	0.029592	0.20544	0.21741	0.24292	0.13483	0.18998	0.076554	0.29025	-2.5125	-3.0812	-3.0479	-2.8792	-3.1146	-2.9625	-3.15	-3.2667	-2.9583	-3.1583	-3.1896	-3.0854	-3.1771	-2.9354	-3.1625	-3.0812	336.035	237.444	385.512	337.779	87.305	127.890	106.086	428.528	306.808	405.267	130.183	396.097	443.372	107.275	355.706	154.503	0.0014122	0.0013117	5.7131e-05	1343.1	5.6555e-06	5.2197e-06	1349.9	362.85	4.5917e-06	1.101e-05	411.99	140.62	122.22	41.518	3.0159e-06	51.353	0.00053003	0.00059955	0.00016593	1376.2	5.9036e-06	6.7795e-06	1384.4	372.97	6.0461e-06	6.917e-06	431.43	144.03	124.9	43.818	6.706e-06	53.508	337.184	103.871	386.899	99.700	170.633	206.089	99.493	104.373	192.719	187.233	103.738	108.251	108.928	113.280	312.222	112.103	-8191	255	
6833.518	1	1	0	0	0.21568	0.08511	0.10155	0.30759	0.17466	0.12805	0.13964	0.14196	0.028035	0.26164	0.13594	0.24445	0.069264	0.10644	0.35956	0.44325	-2.4083	-3.1667	-2.9854	-3.0125	-3.3479	-2.9833	-3.0917	-3.4313	-2.8688	-3.1542	-3.2417	-3.0229	-3.3375	-3.1333	-2.8812	-3.2812	358.538	354.942	218.290	389.309	375.518	270.374	402.884	412.799	269.258	243.159	139.970	333.598	430.873	358.704	284.283	406.533	0.001538	0.00071995	0.00015905	1348.6	6.6793e-06	4.1043e-06	1350.6	362.17	1.7971e-05	2.8996e-06	413.11	140.22	122.39	41.373	6.0227e-06	51.332	0.00057784	0.00064957	0.0001696	1382.3	6.3264e-06	7.0724e-06	1384.5	373.07	6.3935e-06	6.997e-06	430	143.63	125.92	43.718	6.4759e-06	53.264	335.528	100.889	317.255	99.517	226.035	97.156	99.242	104.414	191.741	241.655	103.805	108.419	109.165	113.191	189.168	112.296	-8191	255	
6833.614	1	1	0	0	0.072798	0.07702	0.24161	0.33385	0.16313	0.22309	0.25711	0.096672	0.072428	0.17464	0.059249	0.2559	0.074968	0.20627	0.12605	0.25347	-2.4854	-3.0563	-2.8812	-3.0458	-3.1229	-2.7958	-2.925	-3.2875	-2.9375	-3.1333	-3.2875	-2.9917	-3.2271	-2.8667	-2.9354	-3.3438	102.235	137.403	286.825	384.463	357.134	186.838	389.397	146.339	415.753	258.051	401.076	115.912	418.696	402.246	344.895	411.189	0.0013942	0.00079264	9.6181e-05	1346.2	8.7635e-06	7.0334e-06	1354.9	364.08	1.6874e-05	7.1236e-06	414.54	140.4	122.24	41.407	2.3987e-06	51.266	0.00060944	0.00063962	0.00016434	1378.7	6.7085e-06	6.9743e-06	1383.1	372.98	6.8396e-06	6.8786e-06	429.33	143.61	126.87	43.553	6.3046e-06	53.127	322.785	172.796	281.245	99.781	174.175	201.105	99.264	104.305	206.564	195.583	103.760	108.140	108.941	113.332	305.274	112.083	-8191	255	
#DATA ENDS
