BOXY.EXE: ISS Imagent and Oximeter Data Acquisition Program Version 0.80
Ascii Record File

#ACQ INFORMATION
2  Detector Channels 
16  External MUX Channels 
1  Auxiliary Channels 
5000  Waveform (CCF) Frequency (Hz)
1  Waveforms Skipped 
30  Waveforms Averaged 
1  Cycles Averaged 
16  Acquisitions per Waveform 
10.0806  Updata Rate (Hz) 

#FILE INFORMATION
TRUE -- External MUX Channel results are PARSED.
FALSE -- AC DC and Phase are NOT grouped.
TRUE -- Companion Program Settings File CREATED.
FALSE -- AC data not excluded
FALSE -- DC data not excluded
FALSE -- Phase data not excluded
FALSE -- Auxillary Chn. data not excluded
Tab delimiters

#CALIBRATION STATE
TRUE -- Waveform Calibration Values APPLIED.


#AUX CALIBRATION VALUES
Val Type	aux-1	

Term	1.0000e+00	
Factor	0.0000e+00	


#WF CALIBRATION VALUES
A = Detector Channel
Val Type	A-AC1	A-AC2	A-AC3	A-AC4	A-AC5	A-AC6	A-AC7	A-AC8	A-AC9	A-AC10	A-AC11	A-AC12	A-AC13	A-AC14	A-AC15	A-AC16	A-DC1	A-DC2	A-DC3	A-DC4	A-DC5	A-DC6	A-DC7	A-DC8	A-DC9	A-DC10	A-DC11	A-DC12	A-DC13	A-DC14	A-DC15	A-DC16	A-Ph1	A-Ph2	A-Ph3	A-Ph4	A-Ph5	A-Ph6	A-Ph7	A-Ph8	A-Ph9	A-Ph10	A-Ph11	A-Ph12	A-Ph13	A-Ph14	A-Ph15	A-Ph16	

Term	0.00000e+00	0.00000e+00	0.00000e+00	0.00000e+00	0.00000e+00	0.00000e+00	0.00000e+00	0.00000e+00	0.00000e+00	0.00000e+00	0.00000e+00	0.00000e+00	0.00000e+00	0.00000e+00	0.00000e+00	0.00000e+00	0.00000e+00	0.00000e+00	0.00000e+00	0.00000e+00	0.00000e+00	0.00000e+00	0.00000e+00	0.00000e+00	0.00000e+00	0.00000e+00	0.00000e+00	0.00000e+00	0.00000e+00	0.00000e+00	0.00000e+00	0.00000e+00	0.00000e+00	0.00000e+00	0.00000e+00	0.00000e+00	0.00000e+00	0.00000e+00	0.00000e+00	0.00000e+00	0.00000e+00	0.00000e+00	0.00000e+00	0.00000e+00	0.00000e+00	0.00000e+00	0.00000e+00	0.00000e+00	
Factor	1.00000e+00	1.00000e+00	1.00000e+00	1.00000e+00	1.00000e+00	1.00000e+00	1.00000e+00	1.00000e+00	1.00000e+00	1.00000e+00	1.00000e+00	1.00000e+00	1.00000e+00	1.00000e+00	1.00000e+00	1.00000e+00	1.00000e+00	1.00000e+00	1.00000e+00	1.00000e+00	1.00000e+00	1.00000e+00	1.00000e+00	1.00000e+00	1.00000e+00	1.00000e+00	1.00000e+00	1.00000e+00	1.00000e+00	1.00000e+00	1.00000e+00	1.00000e+00	X	X	X	X	X	X	X	X	X	X	X	X	X	X	X	X	

B = Detector Channel
Val Type	B-AC1	B-AC2	B-AC3	B-AC4	B-AC5	B-AC6	B-AC7	B-AC8	B-AC9	B-AC10	B-AC11	B-AC12	B-AC13	B-AC14	B-AC15	B-AC16	B-DC1	B-DC2	B-DC3	B-DC4	B-DC5	B-DC6	B-DC7	B-DC8	B-DC9	B-DC10	B-DC11	B-DC12	B-DC13	B-DC14	B-DC15	B-DC16	B-Ph1	B-Ph2	B-Ph3	B-Ph4	B-Ph5	B-Ph6	B-Ph7	B-Ph8	B-Ph9	B-Ph10	B-Ph11	B-Ph12	B-Ph13	B-Ph14	B-Ph15	B-Ph16	

Term	0.00000e+00	0.00000e+00	0.00000e+00	0.00000e+00	0.00000e+00	0.00000e+00	0.00000e+00	0.00000e+00	0.00000e+00	0.00000e+00	0.00000e+00	0.00000e+00	0.00000e+00	0.00000e+00	0.00000e+00	0.00000e+00	0.00000e+00	0.00000e+00	0.00000e+00	0.00000e+00	0.00000e+00	0.00000e+00	0.00000e+00	0.00000e+00	0.00000e+00	0.00000e+00	0.00000e+00	0.00000e+00	0.00000e+00	0.00000e+00	0.00000e+00	0.00000e+00	-2.01985e+02	-1.29378e+02	-1.28570e+02	-1.80487e+02	-8.05482e+01	-6.35979e+01	-1.57016e+02	-1.62015e+02	-9.10596e+01	-6.42508e+01	-1.71443e+02	-1.71615e+02	-1.83224e+02	-1.76661e+02	-7.99887e+01	-1.49508e+02	
Factor	5.02138e-05	2.16187e-04	5.75228e-05	2.02782e-01	2.24451e-06	2.39498e-06	2.11821e-01	6.23708e-02	2.36109e-06	2.12806e-06	1.02550e-01	4.02935e-02	4.67635e-02	1.15781e-02	2.14567e-06	1.65216e-02	1.48403e-05	2.08106e-05	5.80611e-06	1.01095e-01	2.10257e-07	2.31288e-07	9.93696e-02	3.12328e-02	2.09323e-07	2.30627e-07	4.98278e-02	1.95568e-02	2.33408e-02	5.84236e-03	2.17295e-07	8.10984e-03	X	X	X	X	X	X	X	X	X	X	X	X	X	X	X	X	



#DISTANCE SETTINGS
A = Detector Channel
A-1	A-2	A-3	A-4	A-5	A-6	A-7	A-8	A-9	A-10	A-11	A-12	A-13	A-14	A-15	A-16	

2.5000e+00	3.0000e+00	2.5000e+00	3.0000e+00	2.0000e+00	3.0000e+00	1.5000e+00	3.0000e+00	3.0000e+00	3.0000e+00	3.0000e+00	3.0000e+00	3.0000e+00	3.0000e+00	1.5000e+00	3.0000e+00	

B = Detector Channel
B-1	B-2	B-3	B-4	B-5	B-6	B-7	B-8	B-9	B-10	B-11	B-12	B-13	B-14	B-15	B-16	

1.0000e+01	1.0000e+01	1.0000e+01	1.4400e+00	1.0000e+01	1.0000e+01	1.5100e+00	1.9400e+00	1.0000e+01	1.0000e+01	1.9900e+00	2.4900e+00	2.4100e+00	2.9000e+00	1.0000e+01	2.9800e+00	




#DATA BEGINS
time	group	step	mark	flag	A-AC1	A-AC2	A-AC3	A-AC4	A-AC5	A-AC6	A-AC7	A-AC8	A-AC9	A-AC10	A-AC11	A-AC12	A-AC13	A-AC14	A-AC15	A-AC16	A-DC1	A-DC2	A-DC3	A-DC4	A-DC5	A-DC6	A-DC7	A-DC8	A-DC9	A-DC10	A-DC11	A-DC12	A-DC13	A-DC14	A-DC15	A-DC16	A-Ph1	A-Ph2	A-Ph3	A-Ph4	A-Ph5	A-Ph6	A-Ph7	A-Ph8	A-Ph9	A-Ph10	A-Ph11	A-Ph12	A-Ph13	A-Ph14	A-Ph15	A-Ph16	B-AC1	B-AC2	B-AC3	B-AC4	B-AC5	B-AC6	B-AC7	B-AC8	B-AC9	B-AC10	B-AC11	B-AC12	B-AC13	B-AC14	B-AC15	B-AC16	B-DC1	B-DC2	B-DC3	B-DC4	B-DC5	B-DC6	B-DC7	B-DC8	B-DC9	B-DC10	B-DC11	B-DC12	B-DC13	B-DC14	B-DC15	B-DC16	B-Ph1	B-Ph2	B-Ph3	B-Ph4	B-Ph5	B-Ph6	B-Ph7	B-Ph8	B-Ph9	B-Ph10	B-Ph11	B-Ph12	B-Ph13	B-Ph14	B-Ph15	B-Ph16	aux-1	digaux	

22894.723	1	1	0	256	0.2461	0.17971	0.17782	0.031453	0.21466	0.23969	0.16702	0.24724	0.021073	0.078145	0.19015	0.045779	0.15849	0.15096	0.15312	0.1664	-2.5563	-3.05	-2.7458	-2.8354	-3.0229	-2.9208	-3.0229	-2.9979	-2.8937	-3.0979	-2.9021	-2.775	-3.1417	-2.9667	-2.9313	-3.0958	196.649	260.171	94.012	164.085	62.573	91.490	164.551	-27.099	87.047	72.001	72.475	15.183	298.989	190.124	230.417	272.247	0.00075288	0.00035279	7.413e-05	327.86	5.5167e-06	2.3706e-06	662.95	124.69	5.7713e-06	3.0623e-06	338.2	161.76	58.795	23.534	4.2471e-06	88.194	0.00088959	0.00091306	0.0002515	317.28	9.2438e-06	1.001e-05	638.96	121.23	9.4239e-06	9.9386e-06	328.19	157.41	57.801	23.228	9.6524e-06	86.271	70.196	90.975	18.093	-13.754	104.610	88.532	-13.698	-9.216	94.870	55.564	-10.189	-6.217	-6.006	-1.636	120.206	-3.136	-8191	255	
22894.818	1	1	0	0	0.22628	0.15642	0.16294	0.12071	0.030513	0.098108	0.18383	0.32446	0.29548	0.17643	0.18302	0.13451	0.2558	0.33103	0.18162	0.21035	-2.2625	-3.0062	-2.8958	-2.9479	-2.9792	-2.8125	-3.0062	-3.1	-2.8979	-2.9833	-2.9625	-2.7771	-3.1042	-2.8229	-2.8542	-3.2083	155.924	-0.791	317.334	284.954	326.259	232.389	302.737	309.198	272.724	173.997	271.251	184.395	263.781	211.408	184.605	226.295	0.00075526	0.00058311	6.5258e-05	323.19	4.9954e-06	4.0526e-06	656.07	123.51	4.7801e-06	4.0425e-06	337.37	159.89	57.998	23.442	5.936e-06	87.761	0.00089858	0.00088653	0.0002534	313.54	9.218e-06	9.7411e-06	634.21	120.18	9.3288e-06	9.8742e-06	327.47	156.11	57.255	23.027	9.5569e-06	85.7	66.569	57.147	40.237	-13.454	136.445	98.820	-13.331	-9.085	137.969	89.656	-10.132	-6.383	-5.685	-0.967	114.498	-2.749	-8191	255	
22894.914	1	1	0	0	0.13955	0.18004	0.090693	0.21989	0.088001	0.39698	0.13161	0.010765	0.093022	0.19678	0.27282	0.089107	0.089529	0.19122	0.13688	0.20389	-2.3708	-2.9292	-2.9083	-2.8354	-2.9792	-2.8854	-2.8333	-3.1125	-2.7667	-2.9083	-3.1542	-2.8396	-3.1688	-3.0854	-2.6375	-3.2375	97.955	42.326	39.750	162.573	317.854	109.514	230.880	222.114	132.185	273.437	59.093	-15.064	60.084	-23.140	42.210	282.654	0.00074388	0.00076604	0.00015546	323.33	1.5767e-06	7.4761e-06	660.21	123.72	5.8603e-06	4.1664e-06	339.31	161.38	58.355	23.428	3.9693e-06	87.65	0.00088968	0.0008805	0.00024897	313.5	8.8417e-06	9.7546e-06	636.57	120.73	9.099e-06	9.755e-06	328.13	156.67	57.387	23.034	9.2572e-06	85.918	71.952	44.148	64.842	-13.763	151.359	136.880	-13.598	-9.026	100.722	123.073	-10.092	-6.343	-6.298	-1.479	91.807	-3.039	-8191	255	
22895.012	1	1	0	0	0.060573	0.18248	0.14688	0.23739	0.20445	0.023816	0.18816	0.15324	0.076105	0.11868	0.093658	0.13484	0.089712	0.11246	0.18184	0.31339	-2.2667	-2.8042	-3.0042	-2.7104	-2.9437	-2.8708	-2.7729	-3.125	-3.0208	-2.8354	-3.2854	-2.95	-3.0458	-2.9958	-2.85	-3.1813	145.300	187.733	210.528	235.268	67.823	203.698	331.102	256.021	292.313	245.416	238.135	246.685	246.714	315.577	103.341	281.459	0.00069145	0.00052268	0.00012993	324.06	4.2551e-06	7.5805e-06	658.85	124	4.9451e-06	4.2684e-06	340.33	161.27	58.236	23.3	5.9785e-06	88.242	0.0008766	0.00088701	0.00024445	314.28	8.971e-06	9.6804e-06	637.04	120.84	9.0864e-06	9.9871e-06	328.73	156.65	57.509	22.969	9.6402e-06	86.123	70.778	92.322	47.656	-13.807	74.541	149.930	-13.581	-9.303	83.666	128.310	-10.174	-6.470	-5.809	-1.425	106.046	-3.064	-8191	255	
22895.107	1	1	0	0	0.15615	0.19844	0.11552	0.24432	0.10823	0.063063	0.18973	0.024005	0.071637	0.092912	0.13639	0.23959	0.088212	0.22857	0.15082	0.37946	-2.6375	-2.8792	-2.8563	-2.7771	-2.8083	-3.1417	-2.9292	-3.0771	-2.9167	-2.8438	-3.2062	-2.8875	-2.8958	-3.0125	-2.9333	-3.1542	225.539	199.250	186.106	314.361	146.381	-10.359	317.135	163.982	231.602	281.716	234.261	278.969	202.558	189.409	88.624	253.225	0.00074752	0.00051298	0.0001656	321.64	4.8301e-06	3.5764e-06	659.47	124.11	6.5753e-06	6.6981e-06	338.3	160.47	58.611	23.402	4.4458e-06	88.165	0.00090161	0.0008988	0.00025087	312.96	9.0892e-06	1.0058e-05	636.51	120.72	9.1657e-06	1.0181e-05	328.39	156.6	57.498	22.99	9.647e-06	86.196	78.935	17.295	60.996	-13.693	97.644	112.085	-13.683	-8.930	59.386	153.660	-10.221	-6.393	-5.641	-1.526	135.785	-3.090	-8191	255	
22895.203	1	1	0	0	0.13873	0.056652	0.11846	0.26702	0.21812	0.050994	0.17319	0.13751	0.151	0.23971	0.10232	0.21441	0.12605	0.27406	0.070915	0.092063	-2.375	-2.8	-3.0875	-2.8104	-3.0708	-3.0438	-2.7771	-3.1521	-2.85	-2.5458	-3.1479	-2.7958	-2.8604	-3.0667	-2.8375	-3.0062	3.992	41.739	49.079	324.714	101.661	220.476	289.183	30.892	4.440	139.599	276.257	319.968	85.627	-18.654	330.590	277.859	0.00076553	0.00024074	0.00010946	322.67	4.5046e-06	3.8008e-06	655.68	123.96	7.2984e-06	5.1499e-06	337.74	161.37	58.145	23.597	7.5885e-06	88.259	0.00089487	0.0009102	0.00025476	313.05	9.3494e-06	1.0089e-05	632.44	120.5	9.3676e-06	1.0271e-05	328.12	156.87	57.346	23.163	9.6642e-06	86.505	76.687	68.985	58.907	-13.478	102.122	146.442	-13.565	-9.070	61.377	138.358	-10.060	-6.209	-5.449	-1.596	114.461	-3.061	-8191	255	
22895.324	1	1	0	0	0.25119	0.088504	0.04223	0.10617	0.074087	0.16666	0.3396	0.028545	0.18131	0.048048	0.19228	0.12451	0.22645	0.26043	0.35072	0.12279	-2.4521	-2.8333	-2.9208	-2.8688	-2.7604	-3.0687	-2.8667	-2.7917	-2.9729	-2.6583	-3.1021	-2.9313	-2.7458	-3.0604	-2.9313	-3.1875	268.794	259.216	258.001	97.083	178.174	36.648	37.250	305.309	321.406	258.159	206.678	297.874	289.800	245.642	321.145	239.236	0.00073945	0.00028676	0.00012278	322.84	5.0396e-06	4.8847e-06	658.81	123.26	3.4151e-06	5.6843e-06	340.25	162.22	58.376	23.774	2.6593e-06	88.584	0.00092152	0.00092334	0.00025346	313.49	9.243e-06	1.0024e-05	635.49	120.6	9.3524e-06	1.0261e-05	329.69	157.96	57.741	23.323	9.7738e-06	86.942	66.828	89.355	67.529	-13.971	131.148	96.832	-13.769	-8.913	104.920	123.203	-9.997	-6.312	-6.030	-1.393	199.602	-3.064	-8191	255	
22895.418	1	1	0	0	0.1898	0.27124	0.25796	0.37463	0.073316	0.1429	0.1523	0.39436	0.09854	0.21327	0.34155	0.20436	0.13181	0.17876	0.24611	0.31567	-2.5438	-2.7812	-2.9688	-2.9146	-2.5667	-3.2062	-2.9292	-2.9188	-3.0229	-2.825	-3.0354	-2.8563	-2.875	-3.0833	-2.8208	-2.85	37.858	211.829	208.624	175.755	58.615	323.424	265.154	298.218	296.300	212.610	285.147	273.345	17.967	48.230	274.866	299.591	0.00079753	0.00043424	9.754e-05	323.37	4.421e-06	3.8731e-06	656.03	125.03	3.0236e-06	1.7756e-06	339.86	163.2	58.9	23.938	5.0481e-06	90.161	0.0009206	0.00092299	0.00025226	313.55	9.3862e-06	1.0097e-05	634.96	121.03	9.3245e-06	1.0134e-05	331.08	158.65	57.84	23.425	9.7457e-06	87.706	65.999	98.027	72.480	-13.860	113.271	146.717	-13.970	-8.885	123.046	119.523	-10.276	-6.437	-5.553	-1.375	113.775	-3.142	-8191	255	
22895.514	1	1	0	0	0.2932	0.2061	0.16383	0.21198	0.32263	0.2116	0.13367	0.059545	0.223	0.1425	0.15947	0.14102	0.066718	0.18779	0.45403	0.18663	-2.6042	-2.4646	-2.9083	-2.9062	-2.5333	-2.9458	-2.8438	-2.9354	-3.0667	-2.6208	-3.2625	-3.0354	-2.5146	-2.9062	-2.9	-2.8208	175.228	11.666	150.852	294.348	297.946	-6.971	327.651	210.266	240.529	325.194	316.755	132.065	220.800	238.424	238.683	248.857	0.00077707	0.00073577	0.00017258	323.56	4.2331e-06	5.8503e-06	661.39	124.16	5.1452e-06	5.6512e-06	343.27	162.94	59.349	23.816	6.2652e-06	89.828	0.00091546	0.00093088	0.00025691	313.3	9.5776e-06	1.0088e-05	637.64	121.24	9.471e-06	1.041e-05	331.72	158.68	58.244	23.51	9.9422e-06	87.701	71.229	75.790	72.191	-13.511	108.695	130.510	-13.653	-8.974	147.093	97.406	-10.423	-6.486	-6.035	-1.797	115.872	-2.943	-8191	255	
22895.588	1	1	0	0	0.1478	0.14655	0.14146	0.13625	0.13622	0.3193	0.19239	0.29463	0.12343	0.084263	0.062064	0.25496	0.020044	0.086375	0.10031	0.43608	-2.5292	-2.7375	-2.8417	-2.9229	-2.6937	-3.0042	-2.9417	-2.8354	-3.0667	-2.7188	-2.9375	-2.9042	-2.7667	-3.0167	-3.0604	-2.8125	42.232	267.823	69.929	149.643	12.781	13.968	252.664	-3.790	318.401	190.020	-22.025	319.556	6.305	327.575	250.179	283.917	0.00073678	0.00070461	0.00011514	320.91	5.4353e-06	6.9126e-06	657.59	124.61	6.2568e-06	4.4538e-06	343.21	163.51	59.064	23.995	5.4652e-06	90.036	0.0009142	0.00091697	0.00025186	312.64	9.5347e-06	1.0474e-05	634.41	121.17	9.3323e-06	1.0304e-05	331.53	158.74	57.973	23.521	9.7968e-06	87.962	68.157	60.183	22.933	-13.929	138.947	123.970	-13.727	-9.104	84.556	106.131	-10.007	-6.384	-5.814	-1.411	123.513	-3.067	-8191	255	
22895.705	1	1	0	0	0.049742	0.054764	0.079434	0.30219	0.0889	0.1878	0.19246	0.072782	0.10785	0.13716	0.14425	0.26986	0.26663	0.17851	0.1581	0.25248	-2.6167	-2.6833	-2.8583	-2.8229	-2.6437	-2.9583	-2.9083	-2.7125	-3.1542	-2.9292	-2.8937	-3.0104	-2.6896	-2.8937	-2.8396	-2.75	321.825	87.270	209.759	289.060	-12.324	70.636	119.307	62.885	188.009	150.414	294.433	251.296	42.150	108.931	197.282	227.224	0.00073397	0.00066125	0.00012765	321.95	2.7725e-06	4.8702e-06	658.25	125.26	6.81e-06	4.7934e-06	342.82	164.41	58.827	23.933	6.2178e-06	90.59	0.00090875	0.00093964	0.00026169	313.18	9.8496e-06	1.0243e-05	637.67	122.01	9.4475e-06	1.0548e-05	332.82	159.47	58.107	23.567	9.6502e-06	88.486	72.424	59.472	80.946	-13.415	67.012	153.121	-13.575	-9.019	147.633	109.925	-10.311	-6.397	-5.511	-1.339	130.632	-3.006	-8191	255	
22895.803	1	1	0	0	0.10588	0.21233	0.28334	0.28807	0.29344	0.31141	0.066117	0.1667	0.16246	0.097898	0.06376	0.20246	0.34179	0.11741	0.18602	0.24083	-2.7375	-2.9771	-2.8833	-2.9562	-2.7167	-2.8854	-3.0417	-2.8458	-3.1167	-2.7979	-2.9437	-3.1688	-2.8875	-3.0375	-3.0563	-2.8438	242.022	110.295	79.135	5.430	234.890	66.221	33.124	57.902	325.990	12.714	260.833	298.503	72.856	279.517	99.184	269.968	0.00075318	0.00046713	4.9302e-05	324.59	4.8294e-06	4.5316e-06	659.97	124.88	6.8564e-06	6.4698e-06	345.51	164.33	58.725	24.095	2.7882e-06	90.47	0.0009095	0.00094402	0.00026897	314.36	9.6442e-06	1.0593e-05	637.69	122.13	9.4719e-06	1.0247e-05	334.3	160.19	58.204	23.663	9.8874e-06	88.555	73.359	87.230	17.786	-14.193	98.315	115.728	-13.511	-9.061	116.780	121.384	-10.288	-6.481	-5.652	-1.325	107.366	-2.967	-8191	255	
22895.898	1	1	0	0	0.065253	0.10497	0.25602	0.19467	0.040462	0.17293	0.19741	0.076165	0.19729	0.18251	0.24441	0.29629	0.15846	0.13866	0.089287	0.057199	-2.7438	-2.8667	-2.7979	-3.1042	-2.8521	-3.0438	-3.0938	-2.725	-3.0438	-2.8292	-2.8542	-3.1604	-2.7667	-2.9771	-3.0854	-2.9979	7.309	-9.925	186.428	297.986	177.443	73.270	4.789	289.116	321.642	190.501	254.318	-14.072	223.244	305.121	321.948	290.642	0.0007311	0.00028209	9.4268e-05	325.33	4.6898e-06	3.7319e-06	659.63	125.19	4.3366e-06	4.2079e-06	342.31	163.77	58.798	23.875	1.5438e-06	89.928	0.00091791	0.00094281	0.00026228	315.33	9.6701e-06	1.0125e-05	640.89	122.36	9.6428e-06	1.0385e-05	333.53	159.23	58.258	23.533	9.613e-06	88.056	72.312	91.626	102.785	-13.024	116.174	135.566	-13.701	-9.417	119.530	82.736	-10.093	-6.321	-5.825	-1.823	30.868	-3.007	-8191	255	
22895.994	1	1	0	0	0.15988	0.050292	0.29953	0.046823	0.13669	0.20859	0.24779	0.065558	0.080608	0.20478	0.2399	0.32364	0.26713	0.12015	0.17856	0.067834	-2.6104	-3.0479	-2.6813	-3.0938	-2.8708	-2.9542	-3.2229	-3.0208	-3.0771	-3.0812	-2.9229	-3.0583	-2.9562	-2.9146	-3.2104	-2.8625	78.652	320.117	155.641	37.259	35.782	174.689	-11.786	165.180	92.608	121.174	303.638	7.481	236.641	36.458	259.645	-19.753	0.0007347	0.00090832	0.00018345	324.09	4.6891e-06	4.63e-06	660.47	125.94	5.6462e-06	9.8497e-07	344.54	163.95	58.717	23.964	3.4203e-06	89.86	0.00091163	0.00093613	0.00026633	315.01	9.3998e-06	1.0289e-05	637.84	122.08	9.5962e-06	1.0286e-05	332.96	159.31	58.118	23.496	1.0172e-05	87.969	78.314	83.352	57.426	-13.622	101.673	122.220	-13.669	-9.201	99.451	209.725	-10.254	-6.362	-5.614	-1.632	88.517	-2.959	-8191	255	
22896.115	1	1	0	0	0.199	0.1131	0.21807	0.21554	0.10235	0.23605	0.14989	0.14084	0.25071	0.08412	0.31937	0.2529	0.31647	0.11532	0.062381	0.083236	-2.5917	-2.95	-2.7812	-3.0396	-3.0062	-3.0083	-3.2083	-2.8958	-2.9479	-3.0854	-2.9271	-3.1188	-2.85	-2.7229	-3.0521	-3.0083	276.328	152.964	82.613	319.773	128.286	269.176	312.224	299.699	131.348	86.643	316.957	254.552	233.618	-13.942	216.728	171.247	0.00073835	0.00042167	0.00016853	324.75	2.929e-06	6.7642e-06	664.26	126.17	2.6315e-06	5.1697e-06	342.75	164.4	59.337	23.934	3.918e-06	89.959	0.00092935	0.00092213	0.00026808	315.05	9.5737e-06	1.0343e-05	641.13	122.5	9.2425e-06	1.0409e-05	333.62	159.34	58.276	23.516	9.8951e-06	87.986	65.597	49.860	71.855	-13.745	139.536	140.601	-13.921	-8.770	87.336	142.630	-10.121	-6.350	-5.755	-1.109	121.271	-3.224	-8191	255	
22896.213	1	1	0	0	0.075254	0.17806	0.20027	0.072545	0.15104	0.21623	0.22947	0.19771	0.20221	0.07252	0.1471	0.046097	0.27994	0.060015	0.13412	0.070008	-2.6583	-2.9583	-2.75	-3.1792	-2.9813	-2.7896	-3.0875	-2.9125	-3.0208	-3.0604	-2.9604	-3.2562	-3.125	-2.8208	-3.1771	-3.2062	40.748	186.736	30.201	241.585	5.729	301.845	319.593	277.450	142.425	149.939	92.632	23.130	260.791	40.185	25.746	13.937	0.00081134	0.00083724	0.00011864	326.16	4.1942e-06	3.9996e-06	666.01	124.9	7.0751e-06	3.7502e-06	346.3	165.81	59.551	24.009	5.7575e-06	90.374	0.00093383	0.00093552	0.00026619	316	9.8409e-06	1.0532e-05	642.44	122.66	9.6965e-06	1.0558e-05	335.23	160.66	58.623	23.564	9.9331e-06	88.369	71.395	48.020	52.974	-13.304	123.072	112.616	-13.544	-9.003	135.315	79.901	-10.135	-6.404	-6.290	-1.250	62.320	-3.028	-8191	255	
22896.309	1	1	0	0	0.17689	0.15463	0.3747	0.1853	0.031704	0.055611	0.19819	0.3062	0.093061	0.097439	0.058313	0.14181	0.16751	0.15162	0.045602	0.47694	-2.5917	-3.0354	-2.7708	-2.975	-3.0229	-2.7833	-3.1417	-2.8042	-2.8542	-3.1333	-2.9437	-2.9875	-3.1042	-2.9396	-3.2	-3.0104	175.576	307.190	5.336	16.969	131.199	6.091	329.025	12.753	-0.927	317.192	70.821	248.484	263.580	254.742	224.617	293.381	0.00069221	0.00047044	0.00016843	325.14	5.855e-06	3.9219e-06	665.35	126.11	2.8327e-06	5.9474e-06	343.53	164.24	59.417	23.87	5.7967e-06	89.838	0.00092817	0.00093973	0.00026847	316.13	9.6184e-06	1.0655e-05	643.6	122.79	9.8369e-06	1.0292e-05	334.41	159.79	58.24	23.462	9.8041e-06	87.717	77.491	42.810	92.883	-13.974	129.560	132.409	-13.554	-9.272	86.876	147.732	-9.905	-6.314	-5.999	-1.031	108.926	-2.921	-8191	255	
22896.404	1	1	0	0	0.1693	0.17228	0.19489	0.42014	0.19935	0.077403	0.20228	0.060257	0.038374	0.17363	0.085905	0.028044	0.10282	0.17822	0.14175	0.090678	-2.5312	-3.0708	-2.8333	-2.9854	-3.0042	-2.8917	-3.2583	-2.9625	-2.8875	-3.1	-2.9083	-3.0396	-3.1542	-2.9333	-3.1771	-3.0625	124.951	316.978	247.682	272.600	147.684	8.718	67.745	256.131	266.112	29.996	219.133	294.670	266.503	159.808	6.703	15.883	0.00075568	0.00070812	7.7461e-05	325.73	9.5039e-06	5.7855e-06	660.61	125.37	5.2884e-06	5.5166e-06	343.66	163.66	59.69	23.84	2.3609e-06	90.228	0.00092768	0.00092915	0.00026196	315.81	9.2303e-06	1.0337e-05	639.03	122.25	9.4941e-06	1.0079e-05	333.5	159.42	58.342	23.478	9.6877e-06	88.133	75.633	46.339	49.083	-13.782	164.635	135.355	-13.742	-9.200	101.897	134.211	-9.738	-6.311	-5.801	-1.507	101.278	-2.843	-8191	255	
22896.498	1	1	0	0	0.067087	0.085199	0.20928	0.26039	0.2242	0.28886	0.073084	0.14857	0.33533	0.28364	0.093598	0.14876	0.27933	0.13319	0.093019	0.27551	-2.5542	-2.9708	-2.8792	-2.8875	-3.0854	-2.9562	-3.0312	-3.0438	-2.9188	-3.1562	-3.0104	-2.8458	-3.0958	-2.8354	-2.9646	-3.1063	125.755	230.579	221.074	285.071	27.924	322.266	178.884	56.240	41.872	132.781	38.409	173.746	262.846	227.009	223.464	269.522	0.00069416	0.00047992	0.00010291	323.29	2.6429e-06	5.6991e-06	662.98	125.59	5.4324e-06	6.8449e-06	346.21	164.12	59.094	23.904	6.279e-06	90.437	0.0009354	0.00093036	0.00026937	315.01	9.5097e-06	1.0301e-05	640.91	122.7	9.6206e-06	1.0587e-05	335.28	160.15	58.327	23.526	9.9825e-06	88.271	73.598	77.165	87.961	-13.829	121.214	118.812	-13.730	-9.177	66.046	141.453	-9.934	-6.212	-5.353	-1.201	92.850	-2.856	-8191	255	
22896.596	1	1	0	0	0.10424	0.075133	0.20354	0.11924	0.099361	0.22721	0.36745	0.030643	0.25375	0.1761	0.19833	0.18635	0.13966	0.33839	0.38648	0.052051	-2.3583	-3.1083	-2.8146	-2.8771	-3.0854	-2.8104	-3.2729	-3.1083	-2.8104	-3.1583	-3.1271	-3.0062	-3.125	-2.6437	-2.9917	-3.1437	105.037	198.886	56.025	106.450	161.732	155.609	263.035	29.719	41.797	315.553	261.348	248.610	190.727	-25.942	54.253	106.595	0.00082295	0.00034838	0.0001963	325.27	5.3846e-06	3.8905e-06	665.29	126.71	6.2084e-06	2.3881e-06	344.01	164.43	59.779	24.018	4.9704e-06	90.443	0.00093692	0.00095642	0.0002653	316.25	9.3582e-06	1.0537e-05	643.53	123.13	9.5229e-06	1.0351e-05	334.84	160.38	58.612	23.549	1.0224e-05	88.558	72.317	58.309	71.711	-13.713	74.529	129.394	-13.703	-8.914	121.317	131.803	-10.423	-6.242	-5.796	-1.363	146.676	-2.965	-8191	255	
22896.715	1	1	0	0	0.11517	0.15517	0.17385	0.026535	0.072185	0.028146	0.088823	0.11836	0.048422	0.20097	0.1702	0.16661	0.23058	0.048066	0.054272	0.26118	-2.4604	-3.2062	-2.9667	-2.825	-3.2417	-2.9896	-3.1375	-3.1813	-2.7167	-3.15	-3.0146	-2.9854	-3.0458	-2.8479	-2.9083	-3.3312	30.576	39.373	171.970	120.586	-27.261	262.446	309.748	159.518	71.700	24.725	265.954	96.718	264.127	-17.745	18.739	291.185	0.00075775	0.00030225	0.00014634	327.45	3.7175e-06	3.8176e-06	664.51	126.75	3.6463e-06	6.0989e-06	348.1	164.67	59.106	23.876	6.5579e-06	90.538	0.00091537	0.00097298	0.00027164	316.43	9.6455e-06	1.0552e-05	642.74	122.92	9.4056e-06	1.0679e-05	336.1	160.4	58.415	23.565	9.953e-06	88.789	70.852	55.812	37.177	-13.766	117.446	164.589	-13.457	-9.344	129.264	137.855	-10.121	-6.504	-5.763	-1.454	127.938	-2.921	-8191	255	
22896.811	1	1	0	0	0.11275	0.26375	0.36274	0.0026876	0.20288	0.077466	0.069689	0.19295	0.077992	0.099463	0.1733	0.33289	0.27001	0.18276	0.1833	0.14889	-2.4146	-3.1333	-3.0229	-2.8208	-3.2021	-2.8917	-3.0521	-3.0729	-2.7771	-3.2042	-3.0312	-2.8854	-3.175	-2.85	-2.8563	-3.275	243.046	204.958	267.019	249.150	167.275	274.198	320.132	213.421	269.988	121.369	219.788	-23.527	146.082	169.242	114.460	220.490	0.00081153	0.00075222	0.00011968	324.1	3.5738e-06	7.1467e-06	668.57	125.47	5.6914e-06	5.9729e-06	343.16	164.39	59.257	24.014	3.8901e-06	90.625	0.00092758	0.00097129	0.00026056	314.92	9.5811e-06	1.0629e-05	641.65	122.46	9.8434e-06	1.0438e-05	333.74	159.99	58.357	23.597	1.0298e-05	88.387	68.291	62.646	84.312	-13.361	74.111	112.188	-13.830	-9.301	101.122	111.436	-10.174	-6.599	-5.774	-1.521	115.528	-3.160	-8191	255	
22896.883	1	1	0	0	0.12441	0.18522	0.10793	0.071683	0.15362	0.18717	0.2462	0.05407	0.24624	0.079626	0.18885	0.095954	0.31403	0.096908	0.10915	0.064474	-2.4062	-3.0333	-3.0812	-2.8292	-2.9062	-2.9208	-2.9896	-3.175	-2.775	-3.0479	-3.2146	-2.9125	-3.2667	-2.7792	-2.8979	-3.1667	5.453	248.715	283.010	327.181	294.322	170.235	225.272	220.244	31.928	29.404	83.901	-1.771	194.201	90.477	292.485	293.517	0.00076399	0.00032627	0.00011068	326.54	6.6038e-06	4.117e-06	666.45	126.01	3.708e-06	2.4989e-06	342.38	164.61	59.019	24.056	5.3012e-06	91.446	0.00094017	0.00095334	0.00025965	315.18	9.5102e-06	1.0549e-05	642.84	122.76	9.8447e-06	1.0317e-05	333.89	160.68	58.558	23.679	1.0209e-05	89.082	68.597	109.657	20.172	-13.486	89.130	125.726	-13.698	-9.468	70.798	131.693	-10.436	-6.296	-6.137	-1.317	128.071	-2.868	-8191	255	
22897.004	1	1	0	0	0.11368	0.11826	0.20077	0.22303	0.14222	0.19026	0.20121	0.24703	0.17952	0.15557	0.24362	0.20332	0.38316	0.083021	0.26416	0.22697	-2.3604	-2.875	-3.0208	-2.7708	-3.2313	-2.9271	-2.8937	-3.2042	-2.8604	-2.95	-3.15	-2.9146	-2.9938	-2.9	-2.8438	-3.05	284.580	312.227	97.425	-22.790	252.392	33.071	319.122	15.625	66.994	-15.030	25.047	3.139	163.429	299.851	234.840	235.452	0.00073061	0.00059562	0.00019194	324.25	4.078e-06	8.3552e-06	663.97	125.45	2.5359e-06	2.8334e-06	347.35	165.31	59.397	24.207	5.2282e-06	91.619	0.00095213	0.00097025	0.00026701	315.47	9.7945e-06	1.0459e-05	642.44	122.8	9.932e-06	1.0782e-05	336.45	161.3	58.857	23.832	1.0196e-05	89.667	72.949	75.787	43.473	-13.696	157.035	115.047	-13.626	-8.923	148.195	93.300	-10.094	-6.166	-5.683	-1.578	121.465	-3.197	-8191	255	
22897.100	1	1	0	0	0.15038	0.13385	0.0073475	0.24238	0.14366	0.023387	0.034794	0.13937	0.32201	0.20196	0.063226	0.058805	0.13216	0.22922	0.056815	0.18618	-2.4979	-2.9437	-3.0187	-2.8771	-3.2062	-3.0479	-2.7438	-3.2062	-2.8646	-2.8375	-3.1833	-2.875	-3.0396	-2.9729	-2.8604	-3.45	69.854	4.481	127.116	157.128	225.383	208.590	113.287	25.947	297.241	110.688	182.437	77.527	242.279	123.571	323.773	86.365	0.00079886	0.00062272	0.00024895	326.1	7.3495e-06	7.9624e-06	665.39	126.63	6.2688e-06	5.2965e-06	347.92	166.32	59.857	24.439	4.7294e-06	92.037	0.00095133	0.00097029	0.00026899	316.4	9.9088e-06	1.0574e-05	644.13	123.37	9.8931e-06	1.0627e-05	336.91	161.66	58.785	23.957	1.0066e-05	89.909	72.491	47.480	85.592	-13.306	116.100	151.539	-13.542	-8.953	108.409	148.438	-10.076	-6.484	-5.342	-1.493	106.499	-2.903	-8191	255	
22897.195	1	1	0	0	0.17969	0.30566	0.027451	0.11093	0.10849	0.14568	0.20865	0.17045	0.098865	0.19804	0.12053	0.32061	0.15791	0.03032	0.13702	0.19811	-2.3896	-2.8896	-3.1813	-2.8521	-2.9979	-2.9979	-2.9437	-3.0792	-2.8917	-3.0187	-3.1979	-2.7854	-3.1583	-2.9	-2.675	-3.0687	235.546	174.694	48.800	25.194	-8.278	54.913	322.804	-15.584	48.574	110.134	318.228	310.434	-19.020	233.376	176.653	263.522	0.0007788	0.00063131	0.00019888	324.73	6.266e-06	5.1628e-06	662.01	125.77	5.9844e-06	6.651e-06	346	165.68	59.497	24.32	2.1901e-06	91.538	0.00094564	0.00097363	0.00026857	314.72	9.907e-06	1.0892e-05	638.71	122.45	9.7414e-06	1.0667e-05	335.67	161.17	58.598	23.841	1.0286e-05	89.484	74.438	66.791	87.173	-13.243	110.793	125.731	-13.322	-8.930	108.965	103.138	-10.318	-6.301	-5.839	-1.768	147.590	-3.078	-8191	255	
22897.293	1	1	0	0	0.18623	0.018687	0.35431	0.096654	0.10472	0.2533	0.079756	0.13613	0.024059	0.1246	0.095396	0.16036	0.30411	0.26564	0.15211	0.194	-2.65	-2.9583	-3	-2.8771	-3.1583	-3.1396	-2.8958	-3.0729	-2.9562	-2.7292	-3.15	-2.9167	-3.0375	-2.9313	-2.9792	-3.2479	-5.002	51.191	115.873	231.750	175.196	132.724	323.711	152.495	8.173	20.644	274.785	326.663	81.273	314.485	142.608	-0.679	0.00079104	0.00046833	0.00019601	324.51	5.1949e-06	3.1282e-06	662.11	125.78	4.9218e-06	4.5066e-06	344.94	165.34	59.087	24.189	4.0763e-06	91.443	0.00092826	0.00095937	0.00026408	314.71	9.8063e-06	1.0236e-05	641.77	122.87	9.8003e-06	1.0396e-05	335.45	160.94	58.64	23.761	1.0392e-05	89.381	70.466	76.514	52.161	-13.303	119.846	109.121	-13.745	-9.243	102.372	117.644	-10.401	-6.441	-5.982	-1.710	111.457	-2.910	-8191	255	
22897.389	1	1	0	0	0.12329	0.098394	0.11509	0.051779	0.33354	0.26787	0.094926	0.14473	0.17712	0.1873	0.1045	0.24391	0.10801	0.15262	0.1676	0.29979	-2.4688	-2.8583	-3.0146	-2.8729	-2.9417	-3.1562	-2.85	-2.9375	-3.0563	-2.8958	-3.0563	-3.0583	-2.7542	-3.1188	-3.0062	-3.1354	234.498	252.458	103.283	98.565	24.672	254.645	17.837	125.711	278.295	290.511	330.586	29.930	241.634	155.336	98.059	302.302	0.00073214	0.00046405	0.00013883	324.88	3.8464e-06	7.5176e-06	662.68	126.26	4.5022e-06	6.2366e-06	346.51	165.14	59.793	24.111	4.3013e-06	92.039	0.00095052	0.0009993	0.00027059	316.15	9.8129e-06	1.079e-05	642.49	123.08	9.6786e-06	1.0501e-05	336.16	161.42	58.768	23.782	1.0323e-05	89.773	75.711	54.067	41.780	-13.622	96.746	102.935	-13.671	-8.538	61.207	138.125	-10.019	-6.224	-5.701	-1.108	124.881	-3.118	-8191	255	
22897.484	1	1	0	0	0.15337	0.13356	0.032323	0.13235	0.19511	0.058614	0.40625	0.010652	0.1773	0.18505	0.083388	0.18359	0.11663	0.14366	0.12021	0.19397	-2.6063	-2.9	-3.0271	-2.8937	-2.9896	-3.2375	-2.9083	-3.0125	-2.9917	-2.8771	-3.1333	-2.8854	-2.6917	-3.0979	-2.7375	-2.9667	8.147	206.923	78.859	258.364	244.800	183.756	279.320	220.948	24.467	227.284	233.013	259.900	264.906	224.755	65.848	237.368	0.00081547	0.00046587	0.0001025	324.78	4.6295e-06	4.6445e-06	664.4	126.42	2.4861e-06	5.5579e-06	347.73	165.18	59.687	24.137	4.3263e-06	91.601	0.0009478	0.00096401	0.00026465	316.21	9.7152e-06	1.0679e-05	644.32	123.18	9.7811e-06	1.0803e-05	336.87	161.08	58.667	23.819	1.0022e-05	89.451	72.908	49.358	21.417	-13.677	42.942	112.739	-13.674	-8.886	66.783	129.550	-10.300	-6.503	-5.900	-1.574	121.117	-2.920	-8191	255	
22897.578	1	1	0	0	0.20598	0.16426	0.13008	0.1938	0.1142	0.22336	0.159	0.21915	0.20156	0.055497	0.24596	0.46189	0.19924	0.19886	0.11246	0.35124	-2.4833	-2.7438	-3.0417	-2.9104	-2.9813	-3.0833	-2.8292	-2.8104	-2.8646	-2.8063	-3.2333	-3.0667	-2.8792	-3.0687	-2.9437	-2.9354	85.318	92.941	291.069	292.215	8.254	50.698	-15.373	278.968	-12.055	67.267	312.171	256.978	96.317	206.077	16.004	268.498	0.00076186	0.00049277	0.00020396	324.91	9.0918e-06	5.7571e-06	660.09	125.44	6.1297e-06	4.964e-06	344.12	164.36	59.33	24.018	4.5405e-06	91.094	0.00092962	0.00098222	0.00027193	314.91	9.7489e-06	1.0565e-05	637.86	122.4	9.4248e-06	1.0466e-05	333.72	160.44	58.501	23.654	1.0082e-05	89.056	74.616	54.760	44.125	-13.804	108.017	134.542	-13.732	-8.822	65.534	132.822	-10.420	-6.297	-6.011	-1.501	89.341	-3.225	-8191	255	
22897.678	1	1	0	0	0.030585	0.15911	0.085421	0.28221	0.20455	0.22228	0.079745	0.15725	0.2224	0.30371	0.13654	0.20549	0.16911	0.07729	0.16418	0.070729	-2.6979	-2.6729	-3	-2.8583	-2.6458	-3.1354	-2.8667	-2.8208	-3.1042	-2.675	-3.0458	-3.0333	-2.7313	-3.2417	-2.9271	-2.9333	-1.576	102.707	13.943	109.452	150.841	71.194	229.505	238.609	17.174	262.823	109.396	284.001	-24.336	242.085	242.774	217.233	0.00074354	0.00056824	9.7632e-05	324.1	3.7138e-06	6.2193e-06	663.15	124.9	3.4319e-06	2.6575e-06	343.2	165.26	59.258	23.975	6.7584e-06	91.072	0.00093531	0.00095143	0.00025969	314.98	9.7156e-06	1.0583e-05	640.19	122.49	9.5177e-06	1.0282e-05	334.65	160.61	58.528	23.612	9.7294e-06	88.921	74.716	61.110	99.662	-13.460	131.081	143.668	-13.935	-9.118	102.177	64.913	-10.148	-6.549	-5.555	-1.411	114.794	-2.937	-8191	255	
22897.797	1	1	0	0	0.12676	0.15594	0.10015	0.083384	0.098185	0.21374	0.31149	0.2569	0.039793	0.36624	0.17011	0.057599	0.1474	0.097995	0.11592	0.1977	-2.5812	-2.6208	-2.8979	-3.0187	-2.7125	-2.9521	-3.05	-2.8792	-3.1437	-2.875	-2.9521	-3.2104	-2.8542	-3.0563	-2.8271	-2.7875	54.792	220.771	301.221	315.734	210.564	-2.832	289.755	67.870	327.527	237.705	190.698	23.217	109.596	182.792	122.429	47.419	0.0007426	0.00028874	0.00010753	322.94	4.5135e-06	7.6676e-06	662.31	125.91	6.7445e-06	3.1529e-06	346.84	165.32	59.313	23.97	6.3339e-06	90.906	0.000912	0.0009389	0.0002621	314.52	9.335e-06	1.0367e-05	641.82	122.59	9.5722e-06	1.0144e-05	335.77	160.44	58.429	23.509	1.0012e-05	88.852	71.262	34.373	102.212	-13.937	127.597	155.012	-13.547	-9.222	129.223	122.099	-10.413	-6.370	-5.799	-1.323	96.574	-3.141	-8191	255	
22897.893	1	1	0	0	0.097311	0.1547	0.15128	0.057512	0.30365	0.15223	0.2298	0.13199	0.1792	0.1288	0.10477	0.10256	0.17362	0.10597	0.18823	0.35645	-2.5938	-2.8063	-2.875	-2.9958	-2.7917	-2.9646	-2.9042	-2.8708	-3.1792	-2.8917	-2.9437	-3.1	-2.875	-2.9437	-3.0521	-2.7729	153.070	164.645	149.919	278.390	27.530	192.177	233.471	252.240	57.851	245.877	142.869	135.614	256.031	283.328	104.644	286.106	0.00077453	0.00037211	0.00014998	324.28	5.4293e-06	4.7102e-06	662.55	125.43	2.9735e-06	3.379e-06	344.87	164.9	59.463	23.801	4.3391e-06	90.456	0.00092913	0.00093288	0.00026328	314.6	9.4856e-06	1.0257e-05	642.33	122.36	9.6031e-06	1.0116e-05	334.57	159.96	58.305	23.459	9.8561e-06	88.36	67.054	71.179	55.311	-13.338	96.829	133.927	-13.672	-8.890	101.784	91.921	-10.344	-6.492	-5.915	-1.271	127.689	-3.181	-8191	255	
22897.988	1	1	0	0	0.20373	0.096983	0.20201	0.28591	0.25622	0.048061	0.065975	0.096293	0.044841	0.14039	0.070088	0.30302	0.1622	0.10911	0.30208	0.13456	-2.8042	-2.8979	-2.7729	-3.2104	-2.9146	-3.0687	-3.1375	-2.7125	-3.1146	-3	-2.9521	-3.2104	-2.7917	-2.9813	-3.0771	-2.9958	158.950	291.237	67.142	160.258	216.690	246.214	42.990	250.504	277.951	258.628	249.177	289.130	58.313	293.200	51.113	231.263	0.00080372	0.00034463	0.00011494	323.8	4.3948e-06	6.0693e-06	659.34	125.55	5.8478e-06	4.4029e-06	341.77	163.79	58.104	23.886	2.95e-06	89.819	0.00091438	0.00091523	0.00025925	313.48	9.5093e-06	1.0166e-05	636.54	122	9.6341e-06	1.0217e-05	331.42	158.96	57.756	23.374	9.7896e-06	87.834	74.086	40.350	80.355	-13.850	84.511	112.399	-13.610	-9.052	76.615	144.769	-10.337	-6.543	-5.557	-1.317	96.666	-3.137	-8191	255	
22898.107	1	1	0	0	0.17043	0.090187	0.15385	0.35396	0.27018	0.17989	0.10427	0.33771	0.082391	0.11789	0.26705	0.19344	0.20383	0.33521	0.06743	0.21695	-2.7542	-2.9375	-2.7708	-3.2188	-2.8708	-3.1729	-2.9729	-2.8438	-3.0312	-3.0896	-2.8542	-3.1063	-2.9938	-2.9188	-2.9708	-2.7812	81.439	21.561	-16.447	216.438	132.532	90.155	127.392	166.317	246.633	19.593	312.600	33.592	162.582	308.097	289.337	271.827	0.00075079	0.00046216	6.0466e-05	320.45	4.129e-06	4.0947e-06	659.5	125.44	1.6779e-06	4.3084e-06	342.15	164.27	59.011	23.814	6.4073e-06	90.839	0.00091883	0.00095265	0.00025726	311.78	9.497e-06	1.0251e-05	637.56	121.95	9.5338e-06	1.0231e-05	333	159.32	58.165	23.427	9.8792e-06	88.598	73.367	49.374	102.106	-13.833	105.973	160.662	-13.707	-9.094	54.598	137.445	-10.024	-6.403	-6.048	-1.518	113.982	-3.103	-8191	255	
22898.180	1	1	0	0	0.34799	0.14585	0.18343	0.14383	0.1923	0.070536	0.37004	0.1919	0.018585	0.13936	0.081667	0.31631	0.19302	0.3475	0.14611	0.17259	-2.5542	-2.7333	-2.7604	-2.9583	-2.8521	-3.0021	-3.1125	-2.675	-2.9354	-3.0125	-2.7417	-3.1229	-2.8146	-2.7104	-3.2042	-2.8854	237.860	266.702	153.587	209.020	72.190	5.513	276.666	244.867	79.378	176.412	14.731	258.543	285.586	318.598	244.812	187.739	0.00079768	0.00055582	8.8175e-05	322.92	5.5625e-06	7.3967e-06	660.56	125.07	4.3811e-06	4.4101e-06	346.15	164.26	58.834	23.98	6.0356e-06	91.095	0.00092468	0.00093045	0.00026079	313.67	9.978e-06	1.0358e-05	639.06	122.12	9.9315e-06	1.0194e-05	335.11	160.19	58.201	23.565	1.0191e-05	89.051	74.820	44.558	94.126	-13.551	109.101	105.325	-13.608	-9.390	137.150	85.749	-10.355	-6.388	-5.435	-0.954	120.844	-2.892	-8191	255	
22898.275	1	1	0	0	0.016927	0.3063	0.16532	0.28593	0.041947	0.084579	0.28568	0.16141	0.16454	0.14337	0.15544	0.18642	0.16121	0.21589	0.077275	0.12978	-2.5042	-3.0479	-2.7146	-3.1167	-2.8625	-2.8271	-3.2604	-2.6458	-2.9375	-3.0042	-2.7375	-3.1604	-2.7938	-2.8125	-3.0792	-2.7292	312.120	69.191	283.324	280.389	90.490	-13.639	19.818	241.157	299.110	255.732	38.373	277.547	244.653	1.566	153.144	9.282	0.00074025	0.00049347	0.00013833	325.57	4.8783e-06	4.2711e-06	661.48	126.03	7.267e-06	4.4698e-06	345.75	165.34	58.885	23.976	4.4207e-06	91.574	0.00091933	0.00094497	0.00027256	314.3	1.0037e-05	1.0208e-05	639.82	122.35	9.8186e-06	1.0412e-05	334.87	160.34	58.046	23.578	1.0225e-05	89.382	78.894	57.974	27.472	-14.041	128.936	111.960	-13.753	-9.345	103.040	104.878	-9.934	-6.528	-5.729	-1.512	73.819	-2.887	-8191	255	
22898.396	1	1	0	0	0.10228	0.26949	0.052823	0.24296	0.043524	0.23688	0.23545	0.20015	0.19552	0.27481	0.28468	0.19877	0.1523	0.34626	0.17532	0.10038	-2.5396	-3.0354	-2.6667	-3.1354	-2.9521	-2.9354	-3.1104	-2.8625	-2.8438	-3.1229	-2.7479	-3.0292	-2.8958	-2.6083	-3.0833	-2.9229	206.551	273.433	252.716	279.293	222.104	248.480	68.086	289.061	244.940	176.524	213.687	225.464	301.663	-9.677	200.624	75.692	0.00072468	0.00065239	6.0917e-05	321.79	5.9736e-06	4.6912e-06	661.37	125.63	3.6362e-06	5.4297e-06	344.35	164.62	59.294	24.214	4.9531e-06	91.887	0.00092075	0.00094402	0.00027562	312.63	9.6617e-06	1.0755e-05	637.29	122.02	9.73e-06	1.0886e-05	334.17	160.47	58.359	23.755	1.0005e-05	89.782	72.205	59.381	53.993	-13.284	119.069	147.140	-13.545	-9.189	110.273	135.015	-10.264	-6.314	-5.791	-1.560	71.113	-3.122	-8191	255	
22898.490	1	1	0	0	0.28324	0.019463	0.074194	0.046348	0.17321	0.19904	0.15462	0.23171	0.065995	0.30238	0.24382	0.13964	0.15568	0.15497	0.15586	0.081079	-2.4542	-3.0896	-2.9979	-3.0729	-3.0125	-2.9375	-3.1063	-2.7438	-2.6458	-2.9708	-2.8354	-3.0417	-3.025	-2.8125	-3.1667	-2.9562	85.701	224.002	74.081	295.352	272.572	178.245	171.753	-9.596	163.442	250.564	68.916	71.433	-12.532	310.623	281.765	73.042	0.00068985	0.0006184	0.00019367	320.51	4.123e-06	6.9787e-06	659.81	125.8	6.0213e-06	3.6944e-06	346.1	165.45	59.547	24.309	5.503e-06	92.359	0.00096926	0.0009608	0.00026979	311.89	9.8023e-06	1.0543e-05	638.33	122.57	9.6912e-06	1.0694e-05	335.89	161.03	58.504	23.843	1.0178e-05	90.091	67.175	55.199	81.092	-13.442	108.680	126.229	-13.783	-9.289	119.277	146.609	-10.252	-6.441	-5.980	-1.586	136.600	-3.108	-8191	255	
22898.588	1	1	0	0	0.25272	0.081905	0.094789	0.12244	0.26623	0.092844	0.055206	0.38201	0.17439	0.15169	0.31184	0.19235	0.094087	0.33091	0.16362	0.14039	-2.3792	-3.0625	-2.8771	-2.7646	-3.0479	-2.675	-3.0646	-2.8583	-2.7458	-3.0417	-2.9646	-3.0792	-3.0917	-2.6958	-3.0625	-3.0292	218.766	148.320	18.884	-23.876	4.049	82.261	215.151	-19.996	189.776	77.771	309.103	-5.076	243.948	329.081	247.524	285.937	0.000731	0.00052005	0.00011621	322.11	5.4766e-06	4.2054e-06	663.42	126.35	6.8513e-06	4.7428e-06	346.8	166.8	59.298	24.339	4.8027e-06	92.237	0.00096787	0.00094012	0.00027277	312.77	1.002e-05	1.0955e-05	641.55	122.8	9.9032e-06	1.0955e-05	337.66	161.74	58.694	23.916	1.0068e-05	90.521	70.327	43.107	52.877	-14.329	100.096	95.224	-13.497	-9.142	102.210	130.565	-10.430	-6.346	-5.448	-1.561	100.934	-3.045	-8191	255	
22898.684	1	1	0	0	0.082102	0.1927	0.21354	0.33015	0.039239	0.24834	0.15311	0.11567	0.16217	0.051609	0.17893	0.14007	0.091996	0.30545	0.30978	0.26489	-2.3208	-3.0958	-2.7938	-2.9354	-3.0521	-2.8042	-3.1729	-2.7917	-2.7708	-3.1375	-2.9208	-3.0146	-3.1875	-2.8042	-2.9229	-3.2167	15.874	276.987	250.053	289.109	312.114	186.858	282.107	-1.801	-22.592	262.074	210.730	239.977	167.581	-26.189	177.548	184.054	0.00073931	0.00072751	0.00014931	323.59	6.184e-06	7.3783e-06	664.58	125.99	3.6322e-06	5.2809e-06	349	166.19	59.695	24.274	3.7037e-06	92.325	0.00096737	0.00098907	0.00027719	314.02	1.0077e-05	1.0786e-05	643.42	123.41	1.0119e-05	1.0736e-05	338.09	161.62	58.769	23.845	1.031e-05	90.231	74.211	64.895	68.897	-13.484	110.578	104.314	-13.705	-9.190	129.689	113.936	-10.211	-6.259	-6.043	-1.364	174.935	-2.953	-8191	255	
22898.779	1	1	0	0	0.42725	0.12613	0.17129	0.12777	0.13005	0.016896	0.08699	0.18505	0.16258	0.23122	0.18652	0.24071	0.25352	0.23959	0.13374	0.11907	-2.4396	-2.9271	-2.8604	-2.8667	-3.2042	-2.8104	-3.1833	-3.0083	-2.9042	-3.1437	-2.9229	-3.0208	-3.1021	-2.9521	-3.0604	-3.2604	176.720	89.361	0.860	-25.878	273.804	202.810	311.343	232.491	224.895	-25.508	315.809	23.667	293.417	298.212	-6.745	227.649	0.00069692	0.00033672	0.00015333	324.31	8.0245e-06	3.0873e-06	660.64	126.64	4.4003e-06	3.682e-06	346.8	165.22	59.888	24.309	4.9986e-06	92.178	0.00095185	0.00099752	0.00027535	313.58	9.9127e-06	1.0792e-05	639.37	122.9	9.8142e-06	1.1044e-05	336.35	161.11	58.71	23.893	1.0363e-05	90.063	70.088	91.179	89.332	-13.639	118.354	131.460	-13.789	-9.499	101.491	100.351	-10.081	-6.568	-5.714	-1.919	154.560	-3.198	-8191	255	
22898.877	1	1	0	0	0.19138	0.050968	0.051604	0.089684	0.2468	0.22858	0.1492	0.12777	0.2069	0.10252	0.16214	0.22234	0.070017	0.092013	0.060463	0.0079692	-2.3521	-3.0229	-3.0458	-2.9042	-3.0938	-2.8333	-2.9646	-3.0646	-3.0292	-3.0479	-3.125	-3.0458	-3.0812	-2.8417	-2.9167	-3.2583	85.818	299.401	177.719	265.722	21.412	308.572	235.422	226.148	207.909	261.174	260.384	281.880	328.609	297.433	92.424	175.114	0.00075135	0.00037622	0.00017363	326.07	7.0501e-06	6.0354e-06	665.65	125.93	6.1926e-06	5.5932e-06	347.57	166.03	59.795	24.191	6.5301e-06	92.077	0.00095878	0.0010006	0.00027692	313.81	9.8098e-06	1.0584e-05	642.17	122.92	9.7518e-06	1.1019e-05	337.69	161.76	58.94	23.781	1.0213e-05	90.159	64.598	74.011	80.585	-13.428	121.005	138.810	-13.915	-8.753	85.000	127.234	-10.386	-6.500	-5.411	-1.621	141.517	-3.069	-8191	255	
22898.973	1	1	0	0	0.10805	0.18842	0.15489	0.048383	0.32259	0.23703	0.066028	0.17503	0.12522	0.10394	0.20391	0.22292	0.054107	0.15801	0.080141	0.17669	-2.1396	-2.9146	-2.8333	-2.8646	-3.1625	-2.7521	-2.9688	-3.3083	-2.9083	-3.0479	-3.0458	-2.875	-2.8917	-2.9188	-2.8417	-3.2208	263.109	225.883	266.500	168.972	199.537	295.283	259.856	-19.163	255.663	330.168	246.162	306.837	297.513	139.164	249.493	284.411	0.00073441	0.00067433	0.00021464	323.1	6.8051e-06	8.0523e-06	664.39	126.2	6.2956e-06	3.4175e-06	348.24	166.07	59.646	24.109	3.7583e-06	91.838	0.00096206	0.00096986	0.00026662	314.42	9.9329e-06	1.0846e-05	643.27	123.24	1.011e-05	1.0768e-05	338.58	161.76	58.767	23.757	1.0523e-05	89.823	73.079	60.843	32.018	-13.506	77.467	117.379	-13.751	-9.341	55.330	99.453	-10.416	-6.654	-5.714	-1.175	100.575	-3.096	-8191	255	
22899.068	1	1	0	0	0.21807	0.15268	0.15217	0.25874	0.19704	0.12752	0.12549	0.15346	0.0081324	0.10404	0.15505	0.13966	0.1034	0.12492	0.16857	0.15915	-2.3729	-2.9188	-2.9896	-2.7646	-3.2708	-2.9646	-2.7938	-3.0354	-2.6833	-2.8542	-3.0646	-2.9729	-3.0187	-2.9938	-2.8208	-3.2021	63.925	311.328	102.339	113.450	187.981	310.348	85.425	186.198	5.090	141.168	323.829	180.726	214.164	44.259	164.277	226.254	0.00080838	0.0006538	5.6497e-05	327.39	3.7547e-06	4.2832e-06	668.89	126.6	5.7285e-06	4.158e-06	348.31	166.12	59.295	23.992	6.1416e-06	91.626	0.0009466	0.0009862	0.00026998	315.58	1.0138e-05	1.0493e-05	646.39	123.49	9.8199e-06	1.0799e-05	337.93	161.57	58.549	23.629	1.037e-05	89.55	73.791	43.986	96.732	-13.643	85.234	165.028	-13.660	-9.027	92.147	110.917	-10.285	-6.319	-5.650	-1.481	137.495	-3.014	-8191	255	
22899.189	1	1	0	0	0.24633	0.13271	0.34862	0.15577	0.20856	0.057772	0.063202	0.051538	0.078572	0.19943	0.075273	0.093853	0.15685	0.068895	0.043532	0.079934	-2.3063	-3.075	-3.0417	-2.7188	-2.9521	-2.9688	-2.9167	-3.0979	-2.9104	-2.8937	-3.0917	-2.8125	-3.0917	-3.1271	-2.8792	-3.2	13.249	321.090	105.473	81.179	64.651	-19.230	258.312	97.419	324.724	186.488	43.541	254.611	310.909	125.405	263.587	311.625	0.00079311	0.00078694	0.00013859	323.53	3.2996e-06	3.381e-06	660.23	125.68	4.7412e-06	5.1243e-06	346.58	165.55	59.491	24.003	6.3536e-07	91.524	0.00097572	0.00094324	0.00027066	314.72	1.0056e-05	1.0547e-05	640.53	122.93	9.7239e-06	1.067e-05	336.42	161.24	58.588	23.596	1.0202e-05	89.237	68.104	72.422	52.074	-13.784	167.677	87.913	-13.656	-8.960	106.322	154.568	-10.143	-6.471	-5.711	-1.342	231.914	-3.057	-8191	255	
22899.285	1	1	0	0	0.13332	0.035343	0.093995	0.2156	0.14825	0.089537	0.22828	0.082399	0.10328	0.11441	0.28624	0.29293	0.10096	0.16903	0.09376	0.26236	-2.3375	-2.8583	-2.9708	-3.0062	-3.0833	-3.1125	-2.775	-3.0583	-2.8937	-2.9562	-3.2417	-2.8354	-3.0375	-3.0333	-2.8292	-3.2083	-9.366	58.836	60.044	314.054	298.398	56.951	294.793	202.824	31.485	-15.237	274.497	234.060	270.307	208.437	2.648	-26.462	0.00079883	0.00037752	0.00013569	322.31	7.0887e-06	6.3688e-06	661.47	126.39	5.8151e-06	4.8971e-06	345.56	164.93	59.53	23.785	2.6946e-06	90.958	0.00095127	0.00094836	0.000265	314.45	9.7559e-06	1.0341e-05	642.04	122.96	9.5369e-06	1.0223e-05	335.63	160.56	58.437	23.47	1.0144e-05	89.075	72.719	58.195	81.738	-14.023	120.214	104.237	-13.654	-9.197	110.137	93.468	-10.244	-6.419	-5.321	-1.664	115.955	-2.735	-8191	255	
22899.381	1	1	0	0	0.42766	0.1162	0.091619	0.20826	0.3177	0.080527	0.20435	0.11043	0.2496	0.18603	0.10912	0.26275	0.24113	0.27747	0.30276	0.16079	-2.5229	-2.7188	-3.2562	-2.9208	-3.0792	-3	-2.8125	-3.0854	-2.9771	-2.9479	-3.0521	-2.9521	-3.0229	-3.0563	-2.9104	-3.3937	131.853	120.451	38.988	317.741	241.871	38.463	0.110	160.567	155.391	103.960	268.975	292.576	39.417	276.784	161.716	297.988	0.00073123	0.00066723	0.00015075	323.44	5.342e-06	4.2838e-06	669.52	125.43	7.188e-06	4.3037e-06	349.53	165.85	59.594	24.028	4.052e-06	91.521	0.00093862	0.00094341	0.00026988	314.67	9.6819e-06	1.0584e-05	645.55	122.95	9.4706e-06	1.0579e-05	337.88	161.57	58.667	23.644	1.0408e-05	89.644	72.553	22.877	69.116	-13.515	123.688	176.380	-13.882	-9.405	101.918	168.668	-10.268	-6.354	-5.595	-1.444	135.170	-3.008	-8191	255	
22899.477	1	1	0	0	0.0682	0.055582	0.35325	0.23093	0.28821	0.089854	0.28409	0.10055	0.12945	0.20987	0.17721	0.1024	0.017011	0.12421	0.055406	0.21497	-2.4396	-2.7646	-3.2333	-2.7458	-2.9104	-3.1771	-2.7167	-3.0167	-2.9396	-2.8688	-3.2292	-2.8312	-2.6708	-3.0708	-2.7708	-3.0354	137.902	144.899	129.166	328.791	150.149	254.343	256.679	-13.851	219.643	107.596	-1.953	300.978	207.314	174.636	-12.494	311.433	0.00081168	0.00030268	7.9682e-05	323.05	7.3619e-06	6.8566e-06	670.32	126.65	5.6551e-06	5.6115e-06	350.16	165.95	59.456	24.09	5.8379e-06	91.601	0.00093643	0.0010057	0.00026425	314.68	9.9618e-06	1.0797e-05	647.34	123.51	9.7047e-06	1.0746e-05	339.04	161.85	58.669	23.712	1.0468e-05	90.002	77.596	107.831	83.245	-13.698	115.344	100.138	-13.661	-9.576	90.147	139.703	-10.207	-6.442	-5.936	-1.566	127.415	-3.085	-8191	255	
22899.572	1	1	0	0	0.2457	0.10994	0.22946	0.4155	0.075058	0.17801	0.15006	0.21183	0.041652	0.074226	0.10912	0.12907	0.10967	0.33686	0.097169	0.093929	-2.3958	-2.6375	-3.0354	-2.7812	-2.9521	-3.2583	-3.0729	-2.8896	-2.9542	-2.7146	-3.2917	-3.0417	-2.8479	-3.125	-2.8375	-3.1708	49.537	299.658	107.822	223.798	224.705	288.417	295.653	85.321	209.570	160.365	-17.166	226.308	202.615	262.578	330.430	230.198	0.00081226	0.00035984	6.9552e-05	323.89	4.2207e-06	4.8567e-06	664.77	126.21	2.9531e-06	5.5975e-06	347.01	166.26	59.641	24.043	5.6746e-06	91.683	0.00095482	0.0009621	0.0002747	314.79	9.7655e-06	1.0529e-05	642.39	123.02	9.6075e-06	1.0749e-05	336.47	160.89	58.654	23.593	1.0483e-05	89.682	71.406	17.694	23.624	-13.647	142.714	133.481	-13.759	-9.241	53.461	98.370	-10.002	-6.599	-5.559	-1.780	81.389	-3.085	-8191	255	
22899.670	1	1	0	0	0.18803	0.13778	0.13743	0.1595	0.20549	0.15049	0.11281	0.15954	0.13244	0.013463	0.21765	0.092339	0.20351	0.2219	0.086256	0.2675	-2.7458	-2.7458	-2.9458	-2.9813	-2.7333	-2.9333	-3.0521	-2.9437	-3.0917	-2.775	-3.1208	-2.9896	-2.9229	-3.0625	-2.8208	-3.0563	199.053	202.280	262.065	108.836	229.610	86.902	94.534	154.593	76.989	180.705	279.373	48.111	331.015	29.404	185.754	275.953	0.00074105	0.00025145	7.0776e-05	324.11	6.4189e-06	1.1441e-06	663.13	126.75	8.032e-06	4.3838e-06	349.61	166.32	59.742	24.145	4.506e-06	92.32	0.00094119	0.00097576	0.00027232	314.79	1.0103e-05	1.063e-05	643.6	123.42	9.8199e-06	1.0616e-05	338.1	161.88	58.722	23.693	1.0121e-05	90.12	74.049	138.139	95.790	-13.574	100.493	268.003	-13.896	-9.114	99.558	119.163	-10.050	-6.391	-5.725	-1.466	112.061	-3.196	-8191	255	
22899.787	1	1	0	0	0.20039	0.12219	0.062758	0.025265	0.083526	0.067143	0.090816	0.051171	0.13117	0.10251	0.1002	0.20843	0.1603	0.16815	0.24353	0.17973	-2.5667	-2.7375	-3.0896	-2.8583	-2.8563	-3.1208	-3.0354	-3.025	-2.9667	-2.7458	-3.15	-3.0083	-2.85	-3.2708	-2.8917	-3.1417	292.950	295.407	162.797	-24.886	130.451	49.937	128.944	267.333	122.952	207.955	290.842	229.754	38.109	-25.611	205.700	285.346	0.00077687	0.0003505	6.8356e-05	326.32	4.878e-06	4.5739e-06	666.74	127.72	2.9577e-06	4.9726e-06	349.47	166.71	59.867	24.079	1.6273e-06	92.202	0.00094446	0.00096748	0.00027003	316.09	9.7971e-06	1.0675e-05	646.78	124.08	1.0026e-05	1.0639e-05	338.76	162.01	58.787	23.689	1.0289e-05	90.132	68.366	79.559	71.554	-13.805	113.019	124.362	-13.718	-9.221	0.123	142.248	-10.077	-6.417	-5.517	-1.146	101.798	-3.033	-8191	255	
22899.885	1	1	0	0	0.21356	0.04789	0.14888	0.11233	0.1215	0.12511	0.21811	0.12384	0.22594	0.09758	0.13397	0.17086	0.2531	0.088051	0.021436	0.23329	-2.9188	-2.7625	-2.9896	-2.9208	-2.6229	-3.1375	-2.925	-2.7646	-3.0167	-2.7938	-2.9062	-3.0979	-2.6146	-3.0792	-2.8333	-2.9458	329.343	325.077	-16.283	107.699	253.969	195.650	276.927	61.108	-9.035	107.131	300.189	262.344	15.994	124.120	315.747	-10.933	0.00078001	0.00062776	0.00015944	326.3	5.9548e-06	3.8068e-06	670.48	126.77	3.9265e-06	3.3475e-06	351.37	167.67	59.521	24.269	5.971e-06	92.281	0.00096261	0.00095477	0.0002735	315.43	9.8886e-06	1.0921e-05	648.77	123.96	9.9197e-06	1.098e-05	340.8	162.71	58.82	23.853	1.0199e-05	90.448	72.517	57.278	68.298	-13.442	131.653	143.303	-14.091	-8.832	88.309	128.192	-10.256	-6.552	-5.456	-1.258	126.583	-3.022	-8191	255	
22899.980	1	1	0	0	0.12651	0.23398	0.21269	0.24778	0.15324	0.012502	0.19459	0.18464	0.12001	0.20982	0.1698	0.15611	0.13097	0.27428	0.077524	0.071473	-2.5396	-2.7896	-2.8396	-3.1083	-2.7	-3.0042	-2.9771	-2.75	-2.9625	-2.9125	-2.9396	-3.2	-2.5521	-2.8854	-2.9792	-2.9667	234.674	204.172	253.942	223.157	-21.556	20.699	285.532	258.627	175.082	65.041	48.004	316.075	29.955	102.722	317.622	108.179	0.00080182	0.00041247	0.00014753	325.41	5.619e-06	5.1323e-06	666.48	126.56	5.9846e-06	5.1241e-06	349.04	166.63	59.655	24.259	8.5671e-06	92.673	0.00095869	0.00097931	0.00026331	315.51	1.0098e-05	1.0717e-05	645.44	123.58	9.737e-06	1.0368e-05	338.42	162.53	58.894	23.821	1.0098e-05	90.377	72.023	91.540	52.636	-13.716	128.502	128.039	-14.010	-8.890	145.802	153.215	-10.121	-6.469	-5.691	-1.428	95.566	-3.186	-8191	255	
22900.076	1	1	0	0	0.261	0.18341	0.15562	0.18243	0.16335	0.1047	0.094633	0.20446	0.085768	0.028708	0.21453	0.095041	0.09206	0.33102	0.10782	0.19737	-2.7729	-2.8625	-2.5917	-2.9938	-2.8542	-3.1333	-2.95	-2.8271	-3.2208	-2.9854	-2.8792	-3.1167	-2.7167	-2.8125	-3.0896	-2.8854	26.006	75.060	152.761	225.765	296.476	226.637	284.720	290.397	320.047	-22.854	238.125	198.277	178.212	289.291	132.741	210.259	0.00078586	0.00052291	0.00018877	324.01	5.0878e-06	4.6536e-06	667.53	126.87	5.083e-06	6.4588e-06	348.73	167.63	60.073	24.339	7.2211e-06	92.681	0.00094901	0.00096262	0.00026776	315.05	1.0031e-05	1.0891e-05	644.62	123.74	1.0032e-05	1.0868e-05	339.3	162.75	59.118	23.999	1.0197e-05	90.816	77.799	70.180	93.485	-13.800	94.383	113.802	-13.658	-9.274	95.905	150.467	-10.003	-6.617	-6.022	-1.546	127.359	-3.126	-8191	255	
22900.174	1	1	0	0	0.07475	0.04749	0.20575	0.16455	0.06528	0.14691	0.025898	0.18961	0.14504	0.1809	0.086303	0.36675	0.077636	0.25049	0.074275	0.14518	-2.8042	-2.8208	-2.8438	-3.075	-2.7	-3.0125	-2.975	-2.7771	-3.1646	-2.9479	-2.8646	-3.2458	-2.9062	-3.0271	-3.1625	-2.8354	27.138	102.145	-6.882	47.567	72.088	226.703	167.549	236.366	197.225	136.672	101.521	317.203	258.012	289.648	197.196	-23.650	0.00075815	0.00053582	0.00010065	324.77	7.7747e-06	5.8118e-06	670.8	127.99	1.8746e-06	8.6959e-06	351.39	167.82	60.1	24.481	3.3751e-06	93.308	0.00094851	0.00098083	0.00026816	315.33	9.9329e-06	1.0673e-05	647.6	124.19	9.9429e-06	1.0617e-05	340.99	163.42	59.329	24.047	1.0296e-05	91.21	78.220	32.998	51.433	-14.032	104.213	137.769	-13.733	-9.155	164.403	122.273	-10.078	-6.112	-5.753	-1.165	114.282	-3.099	-8191	255	
22900.270	1	1	0	0	0.22482	0.046532	0.027283	0.1473	0.18117	0.24373	0.22398	0.19132	0.17617	0.19172	0.10751	0.28706	0.27964	0.10524	0.12937	0.13761	-2.6937	-2.875	-2.5229	-3.2313	-2.9396	-2.7458	-3.0396	-2.7708	-3.1729	-3.0167	-2.775	-3.0687	-2.7896	-2.8604	-3.1021	-2.925	198.191	114.929	133.130	23.340	47.604	255.266	-7.913	113.211	297.713	84.767	250.242	285.678	234.585	27.263	4.109	248.269	0.00075817	0.00054787	8.1636e-05	326.12	4.1693e-06	4.2628e-06	672.23	126.86	3.3275e-06	2.6736e-06	351.49	168.74	59.85	24.519	3.3139e-06	92.891	0.00095077	0.00097914	0.00027337	317.09	9.9666e-06	1.0879e-05	649.54	124.02	9.8321e-06	1.0565e-05	340.39	163.75	59.238	24.018	1.0037e-05	91.031	69.767	65.214	101.475	-13.787	105.615	139.328	-13.430	-9.373	30.220	146.141	-10.162	-6.414	-5.647	-1.478	110.467	-3.205	-8191	255	
22900.365	1	1	0	0	0.18643	0.075361	0.078988	0.0947	0.049787	0.054072	0.08503	0.066041	0.06641	0.14655	0.18265	0.072891	0.18988	0.050556	0.053751	0.22756	-2.6667	-2.8937	-2.8042	-3.2	-2.95	-2.8646	-3.2917	-2.8083	-3.0729	-3.1021	-2.8333	-3.0021	-2.8292	-2.8604	-3.0667	-3.0292	48.595	-8.174	324.207	172.505	97.129	98.342	200.486	72.887	323.009	125.824	73.082	237.617	260.239	58.928	98.665	272.785	0.00087713	0.00081553	0.00013045	323.55	5.2289e-06	6.1173e-06	666.8	127.24	3.9286e-06	5.9445e-06	347.44	167.48	60.294	24.568	2.698e-06	93.214	0.00096091	0.00097511	0.00027486	315.63	9.5838e-06	1.0697e-05	643.9	123.43	9.9633e-06	1.0518e-05	338.33	163.04	59.324	24.08	1.0435e-05	90.993	67.554	64.559	86.893	-13.698	93.114	147.549	-13.874	-9.360	108.311	112.159	-10.004	-6.489	-5.510	-1.698	94.987	-3.196	-8191	255	
22900.484	1	1	0	0	0.18295	0.12398	0.19423	0.22116	0.049788	0.1278	0.19676	0.050115	0.025112	0.064365	0.15756	0.28284	0.28123	0.27761	0.23578	0.027064	-2.5292	-2.8583	-2.7583	-3.075	-2.9833	-2.8417	-3.0375	-2.9521	-2.9417	-3.1021	-2.8854	-3.0271	-3.1958	-2.5667	-3.0312	-3.1354	237.737	248.161	224.743	92.377	182.483	265.849	242.804	204.011	294.711	64.895	254.270	218.154	157.487	289.081	124.126	-8.524	0.00077167	0.00063694	0.00011141	324.64	4.9813e-06	3.1879e-06	668.95	126.41	7.8528e-06	5.1254e-06	348.9	167.93	59.934	24.355	5.3578e-06	93.461	0.00095915	0.000983	0.00026418	315.41	9.8772e-06	1.1065e-05	646.26	123.74	1.0023e-05	1.0664e-05	339.2	163.58	59.403	24.104	1.0324e-05	91.181	71.905	53.620	48.620	-13.934	110.150	126.718	-13.793	-9.280	118.385	107.784	-10.008	-6.379	-6.117	-1.297	104.965	-3.210	-8191	255	
22900.580	1	1	0	0	0.14965	0.29453	0.15624	0.20738	0.29375	0.075869	0.035122	0.15707	0.074127	0.067635	0.010933	0.233	0.11644	0.099902	0.23397	0.27458	-2.3521	-3.0687	-2.6708	-2.9542	-2.9896	-2.9146	-3.1229	-2.8187	-2.9792	-3.0958	-2.8396	-2.9979	-2.9313	-2.7208	-3.0187	-2.9896	122.674	58.114	197.378	135.838	132.814	0.305	-2.824	218.540	298.969	127.442	161.194	282.579	129.351	110.985	234.795	241.772	0.00079941	0.00029935	0.00016413	324.34	5.3228e-06	8.0173e-06	675.78	126.57	1.8249e-06	7.1163e-06	350.98	167.79	60.317	24.588	4.6991e-06	93.732	0.00096487	0.00098677	0.00027811	315.7	9.9079e-06	1.0771e-05	649.1	123.81	9.7562e-06	1.0403e-05	339.88	163.87	59.502	24.162	1.0299e-05	91.576	72.214	75.940	45.532	-13.536	151.892	141.879	-13.735	-9.066	40.049	134.282	-10.291	-6.127	-6.037	-1.318	122.077	-3.030	-8191	255	
22900.652	1	1	0	0	0.22966	0.10323	0.16744	0.10476	0.059806	0.068594	0.071801	0.21523	0.16836	0.070335	0.13532	0.16476	0.34154	0.1946	0.1159	0.49443	-2.3958	-3.2021	-2.7333	-2.925	-3.0604	-2.7396	-3.1021	-2.875	-2.9062	-2.9771	-2.9271	-3.0354	-2.9813	-2.7062	-3.1292	-3.0542	18.040	28.807	-26.191	-0.192	36.730	90.593	207.431	220.004	265.645	-23.178	293.220	221.731	302.700	284.039	5.863	268.708	0.0007533	0.00054946	0.00019407	327.86	6.4647e-06	3.1722e-06	669.69	126.64	6.2055e-06	3.3279e-06	349.73	168.38	59.98	24.9	3.6218e-06	94.083	0.00097328	0.00099509	0.00027301	317.09	9.5855e-06	1.0817e-05	648.08	123.94	1.0214e-05	1.0559e-05	340.77	164.22	59.608	24.369	1.0304e-05	91.97	68.725	84.099	106.204	-13.401	116.948	99.151	-13.700	-9.072	107.527	87.621	-10.198	-6.595	-5.898	-1.502	125.020	-3.183	-8191	255	
22900.750	1	1	0	0	0.11736	0.25086	0.065329	0.091232	0.17753	0.14844	0.18356	0.21408	0.13604	0.24577	0.32041	0.34561	0.10778	0.05019	0.065454	0.089562	-2.3792	-3.0958	-2.7167	-2.7458	-3.0958	-2.8479	-2.9938	-2.8521	-2.6729	-3.0521	-3.025	-2.9479	-3.1979	-2.7833	-2.8958	-3.1688	201.164	12.592	-15.200	55.637	231.602	128.573	154.381	255.083	303.469	-21.502	208.199	253.504	-8.582	-24.197	18.758	277.248	0.0008223	0.00013549	0.00018835	322.45	4.4013e-06	5.9756e-06	666.16	127.12	5.4389e-06	2.0394e-06	349.71	167.43	60.301	24.485	5.0807e-06	93.468	0.00097625	0.0009882	0.00027379	314.38	9.7489e-06	1.0705e-05	643.63	123.59	1.018e-05	1.0805e-05	338.26	162.88	59.254	24.159	1.0169e-05	91.313	68.688	9.776	87.735	-13.892	119.008	89.460	-13.508	-9.191	123.901	193.699	-10.172	-6.504	-5.489	-1.662	120.945	-3.207	-8191	255	
22900.869	1	1	0	0	0.13635	0.20172	0.02801	0.085927	0.26845	0.1394	0.053754	0.16115	0.077152	0.21167	0.14055	0.26843	0.075144	0.22807	0.090217	0.088647	-2.4979	-2.9479	-2.7313	-2.9458	-3.0208	-2.8812	-3.1042	-2.9375	-2.7146	-3.0104	-2.925	-2.5896	-3	-2.8563	-3.0042	-3.3063	115.360	305.027	-25.581	139.006	197.553	30.852	9.698	330.771	234.204	42.738	245.286	318.344	96.712	226.556	199.304	285.180	0.0007622	0.00060863	0.00019476	323.64	4.7339e-06	5.0866e-06	665.08	126.24	3.4298e-06	2.3944e-06	347.33	167.44	59.343	24.638	1.6611e-06	93.304	0.0009709	0.00097289	0.00027033	314.84	9.8549e-06	1.04e-05	642.69	122.99	1.0056e-05	1.0581e-05	337.6	162.92	58.954	24.211	1.0367e-05	91.367	68.961	40.550	50.843	-13.224	108.794	158.725	-13.661	-9.045	99.770	134.730	-10.307	-6.614	-6.095	-1.545	138.226	-3.168	-8191	255	
22900.965	1	1	0	0	0.096513	0.18434	0.11323	0.18687	0.11654	0.15206	0.2581	0.036057	0.13971	0.19798	0.049219	0.074204	0.079811	0.15754	0.046139	0.02401	-2.3396	-3.0292	-2.6583	-2.7104	-3.0312	-2.6646	-2.975	-3.0563	-2.7271	-3.0625	-2.875	-2.8438	-2.9542	-2.7562	-2.9479	-2.9854	57.676	43.420	119.824	3.307	186.076	146.635	-19.630	142.135	159.889	310.224	77.980	321.207	-22.526	272.043	76.310	16.874	0.00075737	0.00093066	0.0001975	322.49	6.3543e-06	6.1212e-06	667.28	126.23	5.4751e-06	6.759e-06	350.03	167.14	59.718	24.532	8.0137e-06	93.361	0.00095482	0.00096362	0.00027404	313.89	1.0092e-05	1.0747e-05	644.68	123.28	9.9049e-06	1.0544e-05	338.97	162.98	59.124	24.103	1.0398e-05	91.177	67.873	53.195	68.549	-13.755	122.467	116.462	-13.367	-9.210	93.494	158.820	-10.520	-6.286	-5.837	-1.597	129.389	-3.157	-8191	255	
22901.061	1	1	0	0	0.36717	0.19353	0.2986	0.11367	0.28139	0.35496	0.18715	0.066419	0.21693	0.1775	0.31725	0.091295	0.10846	0.10042	0.098265	0.091892	-2.3438	-2.9313	-2.9188	-2.7896	-3.1354	-2.8958	-2.9625	-2.8312	-2.7521	-2.9125	-3.0542	-2.7104	-3.0771	-2.8583	-2.9813	-3.1375	11.598	11.107	68.739	160.447	125.585	94.681	199.704	254.578	-25.632	70.900	244.790	233.540	289.467	247.433	183.983	240.097	0.00075557	0.00039831	0.00017107	323.63	5.8209e-06	4.864e-06	666.41	126.64	2.4545e-06	4.0266e-06	349.69	167.54	60.293	24.6	5.8468e-06	93.385	0.00097816	0.00095156	0.00026908	314.07	9.7949e-06	1.0779e-05	644.94	123.36	1.0003e-05	1.0474e-05	338.75	163.04	59.168	24.168	1.0376e-05	91.399	77.161	46.152	33.020	-13.805	95.968	144.815	-13.914	-8.983	115.606	170.353	-10.066	-6.434	-5.417	-1.561	86.469	-3.130	-8191	255	
22901.156	1	1	0	0	0.14975	0.19022	0.059107	0.09179	0.24231	0.1074	0.21691	0.056648	0.22845	0.13409	0.19875	0.15281	0.076114	0.080596	0.14076	0.055829	-2.3292	-2.9437	-3.0083	-2.8146	-3.05	-3.0687	-2.8125	-3.0542	-2.7521	-3.1125	-3.1792	-2.8354	-3.1833	-2.9833	-2.8542	-3.2333	203.683	260.362	194.657	163.271	159.183	51.031	61.253	23.467	176.283	188.963	44.312	313.174	143.365	270.354	101.319	289.288	0.00077483	0.00055714	0.00021937	323.45	3.4521e-06	4.9602e-06	659.12	126.41	3.2007e-06	7.13e-06	347.35	166.61	59.772	24.483	3.8983e-06	93.219	0.0009415	0.00097571	0.00027389	313.4	9.695e-06	1.0848e-05	640.47	122.93	9.8426e-06	1.057e-05	336.83	162.52	58.978	24.124	1.0361e-05	91.344	73.215	60.140	44.121	-13.392	35.723	97.792	-13.652	-8.968	84.398	130.795	-10.245	-6.652	-5.776	-1.774	89.473	-3.347	-8191	255	
22901.277	1	1	0	0	0.093251	0.20428	0.011271	0.10866	0.08938	0.19177	0.12642	0.18585	0.12233	0.1264	0.19665	0.1087	0.059181	0.043136	0.21343	0.068706	-2.3625	-2.8729	-3.0771	-2.8458	-3.0521	-2.6917	-2.8604	-3.1813	-2.9	-3.1104	-3.0125	-2.7146	-2.9646	-2.9917	-2.7833	-3.2083	253.210	280.062	200.451	-11.072	128.800	138.305	245.574	209.297	127.420	78.596	285.427	251.174	121.520	158.932	115.662	81.495	0.00077992	0.00042469	8.5667e-05	323.76	4.3542e-06	6.4984e-06	664.87	126.08	4.6085e-06	5.3762e-06	346.43	167.03	59.522	24.465	4.6177e-06	93.587	0.00095875	0.00099232	0.00027404	313.39	9.8794e-06	1.0592e-05	641.46	123.1	1.0008e-05	1.0923e-05	337.34	162.97	59.115	24.189	1.0478e-05	91.454	70.488	60.712	51.326	-13.679	143.202	165.356	-13.642	-9.240	123.667	86.698	-10.176	-6.792	-6.469	-1.596	131.761	-3.231	-8191	255	
22901.350	1	1	0	0	0.33235	0.13062	0.1185	0.12555	0.31663	0.065519	0.17161	0.12288	0.27372	0.15132	0.22473	0.18236	0.060923	0.048016	0.0959	0.019676	-2.5479	-2.8771	-3.1667	-2.8771	-3.1188	-2.9583	-2.9	-2.9604	-2.8833	-2.8875	-3.2979	-2.7792	-2.9313	-3.0875	-2.7417	-3	273.217	181.306	121.475	167.882	235.956	127.206	312.312	2.479	246.186	155.485	274.938	324.647	303.158	-27.137	94.723	222.429	0.00079215	0.00054479	0.00023878	323.78	3.8479e-06	3.5219e-06	664.44	126.3	2.5537e-06	6.1411e-06	350.13	167.78	60.42	24.716	2.3084e-06	93.937	0.00098231	0.00098139	0.00026799	314.17	9.9197e-06	1.0553e-05	643.01	122.85	1.0211e-05	1.0731e-05	338.95	163.43	59.425	24.297	1.0467e-05	92.075	68.770	43.607	71.705	-13.897	138.208	137.278	-13.273	-9.175	103.926	151.419	-9.809	-6.521	-6.081	-1.656	127.499	-3.206	-8191	255	
22901.471	1	1	0	0	0.097078	0.13859	0.041315	0.20642	0.30661	0.15221	0.22217	0.16285	0.29473	0.14064	0.16067	0.30505	0.098608	0.10713	0.25873	0.23666	-2.4458	-2.7958	-3.1188	-2.6417	-3.0938	-3	-2.7812	-3.1229	-2.8083	-2.8937	-3.3042	-2.9583	-2.9667	-3.0854	-2.775	-3.2042	16.661	291.873	247.695	313.860	225.654	20.266	52.750	209.692	134.352	311.149	15.419	-3.558	262.501	116.975	128.261	206.836	0.00081316	0.00082637	0.00016551	324.98	5.3221e-06	5.9343e-06	667.01	126.05	6.9787e-06	1.6321e-06	350.71	168.64	60.604	24.756	2.4234e-06	94.497	0.00095436	0.0010074	0.00028016	315.3	1.0011e-05	1.0885e-05	645.18	123.24	9.9472e-06	1.0943e-05	340.41	164.49	59.567	24.512	1.0515e-05	92.594	73.944	60.676	60.980	-13.479	145.348	133.716	-13.712	-9.239	102.261	115.874	-10.202	-6.343	-5.734	-1.950	125.964	-3.205	-8191	255	
22901.566	1	1	0	0	0.15364	0.15988	0.16788	0.23161	0.18762	0.19508	0.12891	0.072558	0.20002	0.22617	0.17313	0.14743	0.059835	0.086588	0.040052	0.17648	-2.5812	-2.7292	-3.1021	-2.875	-2.9583	-3.0187	-2.825	-2.8187	-2.8958	-2.8187	-3.0479	-2.9625	-2.6833	-3.0208	-2.8604	-3.05	17.547	121.528	141.689	287.408	75.147	-23.556	20.071	312.125	70.324	217.427	163.035	-21.136	245.820	26.242	12.838	13.610	0.00080928	0.00051443	1.3254e-05	319.4	3.5523e-06	7.2238e-06	663.47	126.57	6.845e-06	4.1897e-06	348.1	168.2	59.883	24.929	5.7524e-06	94.28	0.00095408	0.0010016	0.00027537	311.63	1.0152e-05	1.0946e-05	641.13	123.33	9.9939e-06	1.0949e-05	338.22	163.51	59.354	24.44	1.0661e-05	92.299	65.919	82.945	145.338	-13.669	57.988	126.569	-13.988	-9.210	109.263	105.972	-10.256	-6.555	-5.402	-1.434	136.292	-3.169	-8191	255	
22901.660	1	1	0	0	0.13646	0.12687	0.46082	0.085247	0.15524	0.05868	0.30328	0.1285	0.34505	0.016388	0.19763	0.18139	0.21006	0.13001	0.19444	0.13732	-2.4979	-2.7354	-3.05	-2.9167	-2.8396	-3.0792	-2.8438	-3.0187	-3.0167	-2.7188	-3.0979	-3.0167	-3.0563	-3.1437	-2.675	-3.0625	38.129	65.613	22.466	315.115	42.449	176.671	39.535	230.179	297.070	29.682	267.913	3.503	204.545	-4.104	3.365	315.141	0.00078132	0.00076391	0.0002099	321.29	4.7055e-06	2.8212e-06	665.66	125.82	4.5111e-06	5.8195e-06	349.84	168.13	60.05	24.912	6.9928e-06	94.694	0.00098923	0.0010158	0.00028099	312.44	1.0176e-05	1.1064e-05	643.61	123.1	9.9581e-06	1.091e-05	339.88	163.92	59.246	24.474	1.0628e-05	92.341	71.027	24.221	48.552	-13.543	116.240	146.273	-13.613	-9.281	97.519	144.049	-10.189	-6.515	-5.663	-1.432	119.464	-3.156	-8191	255	
22901.758	1	1	0	0	0.11203	0.26807	0.043267	0.36968	0.087826	0.19715	0.18436	0.37716	0.089247	0.12386	0.18869	0.16873	0.21583	0.2119	0.1265	0.18672	-2.6562	-2.7646	-3.05	-2.8542	-2.7146	-3.0667	-2.8958	-3.0312	-2.9729	-2.9542	-3.1437	-3.0375	-2.7146	-3.0583	-2.9458	-3.0646	214.036	164.777	183.534	-23.019	109.544	123.241	300.828	273.502	-2.568	156.989	260.433	333.211	324.178	320.601	261.823	213.496	0.00081523	0.00068662	0.00017566	322.52	7.9859e-06	2.6793e-06	669.33	125.94	5.4655e-06	9.6928e-07	351.61	168.71	59.64	24.873	3.552e-06	94.566	0.00098144	0.0010003	0.00027246	313.64	1.0212e-05	1.0884e-05	645.63	123.21	1.0263e-05	1.0998e-05	340.52	164.3	59.366	24.415	1.0627e-05	92.302	70.453	33.406	49.903	-13.680	81.199	-3.435	-13.459	-8.773	95.233	76.467	-10.268	-6.656	-5.680	-1.694	129.776	-3.327	-8191	255	
22901.879	1	1	0	0	0.20286	0.26159	0.15674	0.19944	0.19995	0.0017884	0.13716	0.15413	0.2384	0.13629	0.17034	0.1442	0.10665	0.1619	0.1595	0.21716	-2.6458	-2.7875	-2.9604	-2.9396	-2.7729	-3.1021	-2.9	-2.8958	-3.0896	-2.6354	-3.0812	-2.9958	-2.6542	-3.1167	-2.85	-2.9	-4.487	309.842	300.848	170.991	180.134	180.000	198.127	198.178	214.933	295.553	194.254	331.236	269.796	211.156	85.220	-3.209	0.00073521	0.00027725	9.7865e-05	325.89	4.9434e-06	6.8587e-06	664.52	126.82	9.8101e-06	5.7691e-06	352.36	168.85	60.477	24.654	1.5564e-06	94.248	0.00097244	0.00099136	0.00027694	314.71	1.0093e-05	1.0977e-05	645.38	123.6	1.016e-05	1.0881e-05	341.4	164.29	59.537	24.325	1.0455e-05	92.181	72.312	119.640	16.899	-13.228	118.833	144.459	-13.836	-9.214	86.268	118.043	-10.324	-6.698	-5.711	-1.492	95.721	-3.392	-8191	255	
22901.949	1	1	0	0	0.13397	0.42025	0.26274	0.18207	0.23292	0.21989	0.054951	0.12994	0.10724	0.13853	0.22749	0.31636	0.13493	0.13469	0.1014	0.28305	-2.4437	-2.7771	-2.8979	-2.8937	-2.8125	-3.0292	-3.0354	-2.8417	-3.0125	-2.9229	-3.0375	-3.0417	-2.6542	-3.0312	-2.8333	-3	162.858	11.325	194.070	300.185	56.583	277.169	143.419	162.820	302.615	315.217	271.124	13.849	0.576	229.677	190.294	258.979	0.00075899	0.0007534	0.0001571	323.67	5.778e-06	7.2854e-06	660.67	126.74	2.5044e-06	6.5352e-06	351.37	169.09	59.818	24.802	2.8005e-06	93.503	0.00098753	0.00098503	0.00027648	314.29	1.0024e-05	1.1311e-05	642.46	123.42	1.0134e-05	1.1154e-05	339.92	163.87	59.212	24.314	1.0341e-05	91.73	76.238	56.576	54.512	-12.976	125.486	139.958	-13.610	-9.288	177.249	132.422	-10.223	-6.540	-5.529	-1.286	108.494	-3.244	-8191	255	
22902.045	1	1	0	0	0.074765	0.036242	0.10456	0.057351	0.13887	0.032995	0.24206	0.33628	0.018375	0.21226	0.23744	0.040443	0.34881	0.12583	0.16798	0.1043	-2.6417	-2.7792	-3.0729	-3.0958	-2.7625	-3.0187	-3.0208	-2.7875	-3.1312	-2.8604	-2.9771	-3.1625	-2.9688	-3.0708	-3.0312	-2.9333	-18.824	277.788	311.277	209.140	203.977	154.977	173.319	327.970	313.876	0.594	299.795	44.584	217.316	266.744	84.141	206.174	0.0007894	0.00082186	0.00010631	324.68	7.1285e-06	5.4291e-06	665.32	126.59	3.4624e-06	2.3836e-06	348.73	168.74	59.978	24.622	8.0282e-06	94.112	0.0010033	0.00097459	0.00027848	314.34	1.0256e-05	1.1137e-05	643.2	123.52	1.0128e-05	1.1189e-05	339.43	163.92	59.351	24.234	1.0413e-05	92.034	68.432	73.505	40.066	-13.619	105.012	161.265	-13.789	-9.339	100.086	142.081	-10.386	-6.477	-5.943	-1.740	145.460	-3.143	-8191	255	
22902.166	1	1	0	0	0.26458	0.10898	0.22087	0.021937	0.35304	0.18783	0.12939	0.21882	0.15014	0.12896	0.16135	0.23988	0.05645	0.33839	0.13397	0.2372	-2.7	-2.7854	-2.9646	-3.0229	-2.7146	-3.0729	-2.9958	-2.825	-2.9708	-2.9208	-2.8354	-3.0354	-2.6688	-3	-2.9979	-2.7687	60.607	193.991	195.717	152.697	317.109	284.860	-11.473	235.046	126.102	193.891	-21.835	301.736	119.391	-24.748	118.150	316.414	0.00079425	0.00044108	0.00011274	322.96	3.3388e-06	4.7692e-06	667.39	127.36	6.3663e-06	4.8858e-06	351.73	168.95	60.112	24.676	4.7277e-06	94.095	0.00096979	0.00097541	0.00027956	313.68	1.0044e-05	1.1132e-05	644.74	123.55	9.966e-06	1.0826e-05	340.48	164.08	59.257	24.246	1.0473e-05	92.038	77.094	53.703	72.403	-13.408	105.452	164.085	-13.874	-9.028	68.638	136.937	-10.201	-6.501	-6.036	-1.701	80.581	-3.345	-8191	255	
22902.262	1	1	0	0	0.057651	0.080914	0.1117	0.0090846	0.087546	0.24399	0.11317	0.26744	0.2288	0.16468	0.21104	0.083723	0.068205	0.13552	0.084583	0.37477	-2.4188	-2.8917	-2.7729	-3	-2.7583	-2.8771	-3.0854	-2.7708	-3.0312	-3.0667	-2.6	-3.1229	-2.7354	-3.0687	-2.8896	-2.7667	315.285	168.607	23.319	52.415	331.258	185.722	185.890	215.764	3.833	142.832	278.122	239.423	203.742	51.292	271.000	310.276	0.00082975	0.00049589	0.00010401	324.23	7.1622e-06	4.9171e-06	672.35	126.78	7.5439e-06	3.1514e-06	351.75	169.15	60.871	24.917	4.5733e-06	94.541	0.00097671	0.0010027	0.00028193	315.92	1.0049e-05	1.1006e-05	647.57	124.01	1.0064e-05	1.09e-05	341.61	164.71	59.907	24.464	1.0597e-05	92.54	73.930	27.417	52.699	-13.803	115.443	135.265	-13.693	-9.161	110.134	163.316	-10.153	-6.511	-5.785	-1.654	141.357	-3.259	-8191	255	
22902.357	1	1	0	0	0.17309	0.27407	0.36776	0.14712	0.10538	0.13892	0.10164	0.23994	0.092891	0.1336	0.10744	0.12702	0.11144	0.2288	0.3104	0.28404	-2.6917	-2.9167	-2.8104	-3.0062	-2.9583	-2.9271	-3.0083	-2.8625	-2.9938	-3.0625	-2.85	-3.2708	-2.6979	-2.9542	-3.0229	-2.8187	0.890	67.856	26.357	111.104	271.498	172.372	317.705	258.675	69.144	30.069	273.518	284.380	232.769	257.220	15.410	227.874	0.00078872	0.00030085	0.00015957	323.5	4.7852e-06	4.686e-06	668.63	125.87	7.9235e-06	5.8299e-06	349.57	168.27	60.225	24.922	7.621e-06	93.583	0.00098732	0.0010208	0.00027938	314.31	1.0216e-05	1.1014e-05	645.49	123.11	1.0234e-05	1.0994e-05	339.37	163.5	59.389	24.315	1.0252e-05	91.845	74.424	74.258	50.471	-13.262	122.260	86.253	-13.678	-9.184	114.251	133.670	-10.183	-6.615	-5.709	-1.763	103.949	-3.099	-8191	255	
22902.453	1	1	0	0	0.25747	0.031865	0.18391	0.062714	0.0304	0.26609	0.057442	0.11174	0.23172	0.14813	0.1222	0.07098	0.20034	0.11497	0.11928	0.36368	-2.4792	-2.8354	-2.6292	-2.975	-3.0854	-2.8563	-3.2354	-2.8125	-3.0292	-3.0167	-2.825	-3.1979	-2.9229	-2.9979	-3.0417	-2.6771	256.062	105.244	331.495	93.480	41.804	27.170	110.849	262.321	-5.425	119.932	326.878	290.802	326.853	-0.354	180.341	235.471	0.00080741	0.00032151	3.7572e-05	321.4	5.6482e-06	5.5883e-06	665.67	126.48	2.4942e-06	4.628e-06	351.1	167.63	60.613	24.798	5.6183e-06	94.228	0.00097925	0.00095486	0.00027816	314.68	1.0021e-05	1.1247e-05	644.81	123.31	1.0272e-05	1.1054e-05	340.11	163.88	59.465	24.374	1.0277e-05	92.165	74.034	78.085	59.995	-13.665	116.436	103.413	-13.434	-9.427	151.129	94.846	-10.360	-6.415	-6.171	-1.583	93.976	-3.040	-8191	255	
22902.551	1	1	0	0	0.13017	0.035458	0.055997	0.075477	0.19188	0.13754	0.12434	0.011742	0.060835	0.13496	0.19554	0.3792	0.077338	0.17823	0.17998	0.11033	-2.2687	-2.825	-2.675	-2.9333	-2.8208	-2.825	-3.1063	-2.8917	-2.7729	-3.0312	-2.7542	-2.9375	-2.8958	-2.7479	-3	-2.8896	251.848	30.424	117.383	209.914	12.408	25.002	293.618	39.101	8.270	-17.758	301.729	287.610	21.778	287.988	59.381	235.313	0.00077037	0.00073338	0.00021725	326.14	6.5464e-06	7.6956e-06	667.21	126.48	4.6946e-06	4.9284e-06	352.47	169.17	60.573	24.629	3.429e-06	94.037	0.00098116	0.0010042	0.00027779	315.41	1.0196e-05	1.0908e-05	645.72	123.4	9.8787e-06	1.064e-05	341	164.15	59.441	24.166	9.9825e-06	91.856	68.396	46.145	66.113	-13.955	90.228	132.696	-13.786	-9.259	99.444	129.527	-10.373	-6.548	-5.884	-1.356	94.514	-2.991	-8191	255	
22902.645	1	1	0	0	0.11769	0.080498	0.041377	0.1666	0.032358	0.097706	0.17066	0.17679	0.088176	0.14429	0.2488	0.089082	0.077934	0.15689	0.073089	0.32827	-2.5896	-3.0312	-2.6771	-2.9708	-2.9229	-2.7479	-3.1375	-2.6104	-2.9458	-3.1583	-2.9938	-3.1562	-2.8604	-2.675	-3.1771	-2.9833	256.754	169.930	134.000	262.327	-24.358	293.817	0.797	164.739	-13.561	90.944	329.991	271.683	207.781	24.858	235.272	213.636	0.0008244	0.00019319	0.00010159	326.22	4.2933e-06	4.7188e-06	671.22	127.06	7.6048e-06	3.6399e-06	349.88	168.66	60.514	24.524	4.04e-06	93.827	0.00098843	0.00098209	0.00027871	315.75	1.0111e-05	1.0958e-05	649.08	123.75	1.0078e-05	1.0814e-05	340.79	164.2	59.512	24.139	1.024e-05	91.857	69.066	45.474	46.068	-13.625	117.869	142.132	-13.470	-9.290	108.138	112.035	-10.239	-6.313	-5.632	-1.134	115.928	-3.032	-8191	255	
22902.740	1	1	0	0	0.064629	0.1189	0.13012	0.23671	0.077578	0.066623	0.25524	0.084715	0.098402	0.12723	0.26373	0.33923	0.10852	0.087119	0.1892	0.29257	-2.45	-3.0042	-2.7854	-3.0208	-2.9354	-2.5979	-3.0312	-2.9	-2.8833	-3.0229	-2.6875	-2.7958	-3.0521	-2.7188	-3.1167	-2.9938	198.307	258.325	102.347	218.132	58.051	288.532	303.155	221.140	283.743	166.396	325.008	280.953	96.122	212.192	58.582	269.597	0.00074844	0.00053659	4.7793e-05	327.4	1.7413e-06	6.9574e-06	664.66	127.66	4.5785e-06	5.5724e-06	351.43	167.9	59.935	24.483	3.7603e-06	93.433	0.00096864	0.0009598	0.00027278	315.84	9.9898e-06	1.1091e-05	644.76	124.05	1.0171e-05	1.0741e-05	339.51	163.7	59.559	24.166	1.0246e-05	91.615	73.614	45.800	36.736	-13.495	129.813	139.441	-14.034	-8.860	95.846	115.478	-10.400	-6.377	-6.258	-1.628	174.241	-3.239	-8191	255	
22902.838	1	1	0	0	0.17166	0.19379	0.075885	0.16739	0.15095	0.20896	0.039445	0.16648	0.13134	0.17295	0.34706	0.12734	0.29192	0.14477	0.26549	0.23734	-2.1333	-3.0375	-2.6625	-2.8979	-3.0167	-2.7021	-3.0875	-3.0438	-2.9146	-3.1417	-2.8729	-2.9292	-3.1292	-2.7458	-2.9688	-2.9875	24.821	113.415	162.937	245.019	39.235	168.191	315.767	-0.678	107.646	95.865	284.715	63.740	325.397	-6.942	-4.549	7.724	0.00081956	0.00073818	5.2499e-05	324.56	6.1207e-06	4.6371e-06	666.69	126.28	3.9895e-06	7.978e-06	351.29	168.92	60.243	24.49	4.1866e-06	93.843	0.00097359	0.00098265	0.00027706	314.85	9.7581e-06	1.1142e-05	644.95	123.22	9.9668e-06	1.0977e-05	339.92	164.09	59.399	24.137	1.037e-05	91.654	70.921	46.714	96.643	-13.410	62.991	139.427	-13.849	-9.056	74.562	125.520	-10.479	-6.521	-6.205	-1.370	107.606	-3.198	-8191	255	
22902.957	1	1	0	0	0.15326	0.088522	0.16318	0.098213	0.17948	0.10176	0.19238	0.17297	0.21722	0.056549	0.030818	0.22771	0.041819	0.14726	0.33309	0.072854	-2.3667	-3.0646	-2.8083	-2.9875	-3.175	-2.5583	-2.9083	-2.8125	-2.8875	-3.0354	-2.7667	-2.8812	-2.9938	-2.6188	-2.9604	-2.9792	97.321	2.223	235.591	322.853	164.372	131.639	18.782	329.760	107.641	-23.268	34.137	241.907	123.189	19.927	313.904	271.947	0.0007752	0.00078472	5.3375e-05	323.8	5.9638e-06	6.9299e-06	666.71	127.38	8.7966e-06	5.0421e-06	351.55	168.84	60.679	24.589	5.2363e-06	94.724	0.00098568	0.00098451	0.00027483	314.89	1.0092e-05	1.1015e-05	646.4	123.77	1.0102e-05	1.0783e-05	340.36	164.19	59.578	24.212	1.0659e-05	92.354	70.726	53.024	21.906	-13.882	71.038	141.965	-13.701	-9.035	130.198	127.383	-10.225	-6.609	-5.653	-1.596	148.123	-3.271	-8191	255	
22903.053	1	1	0	0	0.197	0.1807	0.30746	0.15884	0.044165	0.12806	0.15132	0.11382	0.16325	0.089913	0.1845	0.33663	0.050705	0.12478	0.27651	0.038243	-2.2271	-2.9604	-2.625	-2.7417	-3.2	-2.7729	-2.8937	-3.0333	-2.7292	-3.025	-2.8688	-2.7167	-2.9625	-2.7271	-3.0083	-3.0542	155.796	-8.630	171.354	43.927	172.017	143.985	84.241	206.471	108.337	173.986	310.871	296.506	36.361	142.063	26.667	153.418	0.00074848	0.00049423	0.00019588	327.27	5.5424e-06	6.7866e-06	667.85	127.11	1.0349e-06	1.942e-06	352.02	169.5	60.309	24.571	8.5576e-06	94.558	0.00098197	0.0010198	0.00027988	315.24	1.0268e-05	1.1391e-05	648.16	124.1	1.046e-05	1.1305e-05	341.82	165.09	59.565	24.278	1.0509e-05	92.434	71.355	41.345	49.571	-14.080	139.079	120.018	-13.501	-8.848	170.569	148.609	-10.075	-6.461	-5.656	-1.239	114.124	-3.319	-8191	255	
22903.148	1	1	0	0	0.093279	0.16773	0.29505	0.29902	0.39439	0.1178	0.13012	0.2072	0.2158	0.40776	0.13891	0.068009	0.17585	0.14604	0.10812	0.20112	-2.2146	-2.9333	-2.8937	-2.7646	-3.0521	-2.8917	-2.8167	-3.1021	-2.5917	-2.9146	-2.8979	-2.7	-3.0667	-2.8708	-2.7979	-3.2021	306.211	295.022	199.965	20.877	202.449	176.585	99.900	261.372	-16.139	93.750	296.155	291.390	105.403	32.304	35.776	127.386	0.00078995	0.00086092	8.7302e-05	323.92	3.4473e-06	4.4847e-06	668.2	127.97	4.3862e-06	5.7736e-06	349.89	167.76	59.986	24.737	4.2227e-06	94.44	0.00099885	0.001024	0.00027707	315.64	1.0309e-05	1.1025e-05	645.36	124.22	1.0265e-05	1.0941e-05	339.58	163.78	59.418	24.256	1.0452e-05	92.046	75.670	69.656	68.847	-13.780	130.304	118.925	-13.884	-9.611	103.838	109.282	-10.283	-6.513	-5.774	-1.386	92.522	-3.164	-8191	255	
22903.244	1	1	0	0	0.32171	0.18724	0.13227	0.16876	0.19753	0.13004	0.26967	0.08387	0.137	0.22429	0.088281	0.1559	0.018645	0.18409	0.031717	0.31239	-2.2958	-3.0646	-2.9562	-2.7875	-3.0625	-2.7875	-2.8271	-3.0521	-2.9646	-2.9292	-3.1083	-2.9146	-3.1	-2.9729	-2.7958	-3.3583	67.963	273.810	-25.277	156.751	274.114	45.700	257.960	117.909	120.203	58.902	113.591	315.335	237.914	294.997	3.277	239.997	0.000728	0.00061029	7.9723e-05	321.03	4.5264e-06	5.7546e-06	667.09	127.75	5.5154e-06	9.4764e-06	351.69	168.84	60.941	24.814	4.1937e-06	94.54	0.00097637	0.0010156	0.00027076	313.88	9.9022e-06	1.1081e-05	645.34	124.2	1.0164e-05	1.1195e-05	340.77	164.59	59.852	24.425	1.0576e-05	92.663	70.746	32.590	38.270	-13.344	128.152	122.008	-13.715	-9.066	121.164	118.615	-10.298	-6.487	-5.923	-1.671	101.124	-3.276	-8191	255	
22903.342	1	1	0	0	0.14118	0.2102	0.24899	0.068984	0.25007	0.19704	0.063861	0.15327	0.2115	0.081631	0.070021	0.29023	0.15034	0.19581	0.13727	0.1171	-2.3812	-2.8979	-2.9646	-2.6667	-2.8458	-3.0792	-2.7583	-2.8542	-2.6396	-2.8646	-2.9854	-2.7292	-2.9708	-3.1667	-2.7042	-3.2562	82.130	197.303	66.288	-0.361	266.390	28.068	101.142	187.670	91.718	227.455	137.652	69.537	85.437	-0.098	90.327	222.842	0.00076792	0.00035437	8.4492e-05	323.21	3.6555e-06	3.6963e-06	669.26	127.11	1.5077e-06	5.879e-06	351.17	169.86	60.865	24.746	8.5198e-06	94.491	0.00098095	0.0010261	0.00028957	314.81	1.0395e-05	1.0971e-05	646.2	124.06	1.0202e-05	1.0867e-05	341.3	165.26	59.906	24.466	1.0462e-05	92.841	76.935	46.981	41.739	-13.968	72.936	139.177	-13.840	-8.789	179.254	137.262	-10.264	-6.346	-5.723	-1.355	121.630	-3.016	-8191	255	
22903.438	1	1	0	0	0.10632	0.25175	0.1851	0.076233	0.095956	0.13008	0.17512	0.10657	0.16033	0.17015	0.21591	0.11469	0.1864	0.033806	0.17638	0.13663	-2.2542	-2.7313	-3.1146	-3.0146	-2.9313	-2.7771	-2.9375	-3.0833	-2.7938	-2.8854	-3.0646	-2.9479	-2.975	-3	-2.7958	-3.0604	129.502	-3.831	291.410	42.360	61.885	263.055	150.393	317.507	73.832	238.665	159.902	254.166	280.519	137.343	255.273	274.434	0.00076438	0.0003536	5.9552e-05	325.1	4.3859e-06	4.5964e-06	671.11	127.32	4.571e-06	3.6759e-06	353.5	169.78	60.659	24.924	4.2858e-06	94.879	0.0010046	0.0010017	0.00028578	316.52	1.016e-05	1.1146e-05	647.85	124.38	1.0312e-05	1.1113e-05	342.52	165.32	59.855	24.487	1.0699e-05	92.984	75.962	31.679	110.317	-13.797	106.337	128.333	-13.933	-9.252	124.772	120.495	-10.317	-6.402	-5.684	-1.385	82.047	-3.094	-8191	255	
22903.559	1	1	0	0	0.33527	0.14711	0.18595	0.11273	0.079528	0.085866	0.17473	0.20681	0.16992	0.24503	0.03751	0.31583	0.12694	0.11961	0.16053	0.25765	-2.2625	-2.8438	-3.05	-2.6958	-2.9854	-2.7604	-2.8021	-3.0729	-2.9542	-2.7896	-3.1375	-2.8604	-2.7771	-3.0312	-2.7521	-3.1542	66.239	20.145	251.713	98.548	305.429	183.482	0.083	193.551	187.580	195.398	228.477	-23.411	-3.648	295.611	186.590	278.322	0.00080893	0.00036674	9.7925e-05	325.23	8.0075e-06	7.9947e-06	667.59	127.58	6.63e-06	4.2746e-06	352.45	168.71	60.995	24.797	2.1296e-06	94.893	0.00099109	0.00099479	0.0002785	315.72	1.0479e-05	1.1153e-05	647.03	124.11	1.0205e-05	1.1002e-05	341.57	164.69	59.829	24.447	1.0452e-05	92.662	73.372	86.002	75.345	-13.921	90.344	119.119	-13.692	-9.197	80.462	142.600	-10.190	-6.498	-5.478	-1.634	94.106	-3.203	-8191	255	
22903.654	1	1	0	0	0.18713	0.059478	0.23353	0.17176	0.066341	0.20469	0.14468	0.11653	0.26569	0.15483	0.10673	0.084329	0.2639	0.2191	0.27648	0.082874	-2.4062	-2.7583	-2.9	-2.7313	-3.1333	-3.1688	-2.9167	-2.9062	-2.7333	-2.8646	-3.125	-2.85	-2.9188	-3.1479	-2.7667	-3.0354	197.550	248.764	321.371	182.241	84.050	315.635	248.540	74.093	288.804	-8.422	333.153	106.740	-3.123	180.076	51.122	78.834	0.00081612	0.00045614	0.00014591	324.33	4.6309e-06	7.66e-06	667.43	127.37	4.3381e-06	4.5105e-06	351.8	168.25	60.231	24.758	5.0674e-06	94.713	0.00099353	0.0010311	0.00028721	313.98	1.0129e-05	1.112e-05	644.18	123.91	1.0139e-05	1.1028e-05	341.26	164.2	59.602	24.337	1.0522e-05	92.58	73.034	80.861	79.083	-13.520	129.339	105.989	-13.730	-8.807	139.481	116.993	-10.028	-6.543	-5.635	-1.867	104.178	-3.255	-8191	255	
22903.750	1	1	0	0	0.2438	0.12482	0.043161	0.062335	0.30785	0.18351	0.20942	0.038777	0.10137	0.16219	0.31155	0.15509	0.11397	0.10906	0.18745	0.25511	-2.625	-2.6562	-2.9667	-2.7333	-2.7979	-2.9979	-2.7979	-2.8688	-2.8792	-2.8312	-3.0083	-2.7292	-2.8646	-3.1958	-2.7042	-3.0542	219.410	62.932	153.197	-5.815	174.872	279.399	35.857	141.726	13.620	91.294	297.489	-8.022	229.059	262.551	183.826	237.894	0.00082431	0.00055856	0.00015322	326.19	5.2134e-06	7.6818e-06	663.8	127.66	6.7911e-06	5.3545e-06	351.79	169.68	60.107	25.164	5.8547e-06	95.776	0.00097028	0.00099093	0.00027349	314.43	1.015e-05	1.0676e-05	645.3	124.1	1.0077e-05	1.1074e-05	341.36	165.05	59.641	24.684	1.0987e-05	93.466	74.280	85.643	55.064	-13.786	107.791	143.496	-13.508	-9.131	109.350	94.331	-10.000	-6.708	-5.550	-1.357	103.746	-3.146	-8191	255	
22903.822	1	1	0	0	0.23147	0.21447	0.030618	0.13723	0.11971	0.29084	0.22677	0.18089	0.12512	0.082931	0.25809	0.21494	0.11563	0.10353	0.26731	0.034544	-2.55	-2.7667	-2.9604	-2.9188	-2.8167	-3.1458	-2.9542	-2.9188	-2.9083	-2.9313	-3.1729	-3.0021	-2.8146	-3.1146	-2.75	-3.0104	317.792	19.575	326.596	34.241	78.055	315.747	217.671	290.764	216.349	41.311	253.979	17.665	173.327	39.172	77.965	139.070	0.00084814	0.00055329	0.000146	324.42	6.2041e-06	4.5796e-06	671.47	126.94	6.7784e-06	3.1854e-06	352.95	170.7	60.968	24.917	3.059e-06	95.929	0.0010048	0.0010292	0.00028966	314.63	1.0238e-05	1.11e-05	646.9	124.12	1.001e-05	1.1306e-05	342.69	165.78	59.942	24.627	1.0839e-05	93.819	70.336	66.555	59.158	-13.466	132.239	110.288	-14.020	-9.247	108.005	145.542	-10.557	-6.615	-5.580	-1.346	149.262	-3.201	-8191	255	
22903.939	1	1	0	0	0.22226	0.17336	0.18544	0.15612	0.24509	0.19676	0.39346	0.036309	0.1164	0.25406	0.24514	0.17485	0.22777	0.21909	0.17093	0.11485	-2.5917	-2.9	-2.8625	-2.7417	-2.7667	-3.2438	-2.7	-2.6542	-3.15	-2.7396	-2.9917	-3.0438	-2.7667	-3.1792	-2.8979	-3.1104	-19.082	249.234	111.549	80.310	273.734	168.467	218.503	309.485	45.300	147.255	301.941	7.715	92.963	316.784	170.868	260.846	0.00081002	0.00041428	0.00016924	321.38	5.5059e-06	5.3303e-06	667.17	127.27	3.6324e-06	4.067e-06	351.74	168.38	60.886	25.026	3.2794e-06	95.528	0.00099211	0.0010196	0.00028296	313.04	1.0236e-05	1.1007e-05	644.34	123.95	1.0052e-05	1.1281e-05	341.05	164.33	59.633	24.675	1.0621e-05	93.261	68.123	88.458	55.708	-13.623	115.885	130.332	-13.729	-9.436	88.091	133.840	-10.021	-6.545	-5.855	-1.460	114.359	-3.050	-8191	255	
22904.037	1	1	0	0	0.32623	0.40857	0.20217	0.1319	0.11284	0.19289	0.22386	0.26549	0.17401	0.074383	0.16879	0.045846	0.24759	0.17747	0.21388	0.2625	-2.5187	-2.7542	-2.9417	-2.9875	-2.6417	-3.0583	-2.8563	-2.9562	-3.1021	-2.8854	-2.8604	-2.9729	-2.6479	-3.025	-2.7417	-2.9458	117.233	111.337	5.104	324.694	39.840	314.943	121.548	-22.693	289.621	168.335	234.535	283.989	296.878	282.343	169.219	291.704	0.00080418	0.0003962	0.00019847	321.56	6.7356e-06	5.8907e-06	663.22	126.22	5.712e-06	8.1404e-06	352.8	168.79	60.765	25.101	4.5031e-06	95.414	0.00098602	0.0010176	0.00028223	311.35	1.0242e-05	1.1285e-05	641.6	123.43	1.0259e-05	1.1147e-05	341.41	164.69	59.805	24.58	1.0611e-05	93.321	67.551	62.260	58.559	-13.638	111.628	123.951	-14.125	-9.406	125.555	119.040	-10.092	-6.720	-5.709	-1.250	113.199	-3.187	-8191	255	
22904.133	1	1	0	0	0.23501	0.19647	0.14283	0.098588	0.32288	0.10526	0.14159	0.14545	0.098069	0.17448	0.11568	0.099194	0.081268	0.019508	0.23962	0.30458	-2.4813	-2.6042	-2.6312	-2.7479	-2.8	-3.0625	-3.0187	-2.8958	-3	-2.6917	-2.9188	-3.2188	-2.6125	-3.1708	-3.0563	-2.8833	124.445	298.727	306.245	176.218	294.452	-20.362	128.655	286.995	54.252	101.445	293.375	-16.261	52.770	87.735	35.415	317.371	0.00079348	0.00057888	0.00015961	320.96	4.8268e-06	3.3569e-06	664.02	126.5	5.0624e-06	7.1974e-06	352.32	170.21	60.846	24.944	6.5866e-06	96.124	0.00096972	0.0010108	0.00027935	312.9	1.0278e-05	1.1129e-05	642.63	123.74	1.0357e-05	1.0997e-05	341.36	165.03	59.833	24.588	1.0529e-05	93.72	76.246	64.394	71.276	-13.525	94.113	132.676	-13.567	-9.365	95.065	134.623	-10.133	-6.426	-5.611	-1.682	105.932	-3.468	-8191	255	
22904.229	1	1	0	0	0.033189	0.23897	0.09277	0.21985	0.17918	0.086711	0.094167	0.29339	0.19211	0.089629	0.18375	0.22431	0.11971	0.19286	0.11788	0.11177	-2.5354	-2.8458	-2.8583	-2.8583	-2.7021	-2.9583	-3.0917	-2.6833	-2.9146	-2.8875	-2.9542	-3.1125	-2.7188	-2.9167	-2.9688	-2.9188	191.255	189.903	243.333	26.635	29.333	317.025	59.574	327.721	-14.556	-22.799	2.201	249.607	12.196	57.266	24.584	205.083	0.00089968	0.00048082	0.00010486	320.6	5.535e-06	5.6325e-06	667.59	127.39	4.1849e-06	3.0266e-06	353.66	170.58	60.901	25.213	6.8379e-06	96.786	0.0010086	0.0010111	0.00028254	312.59	1.03e-05	1.1021e-05	646.07	124.1	1.0283e-05	1.1122e-05	343.24	166.23	60.109	24.813	1.0675e-05	94.594	66.797	50.492	48.049	-14.083	142.411	135.263	-13.401	-9.225	79.574	145.123	-10.200	-6.364	-5.556	-1.639	93.459	-3.297	-8191	255	
22904.350	1	1	0	0	0.10414	0.034773	0.15661	0.17543	0.03648	0.35101	0.22504	0.18479	0.092476	0.093019	0.038451	0.099367	0.15152	0.12417	0.20029	0.01854	-2.7167	-2.9437	-2.8042	-3.1562	-2.8312	-3.05	-3.2021	-2.7375	-3.1292	-2.9396	-2.8708	-3.1292	-2.9542	-2.7979	-3.1792	-2.8042	165.703	5.606	257.757	52.629	48.133	6.016	332.593	252.054	-5.591	59.116	40.354	306.776	8.384	25.866	137.922	223.343	0.00081019	0.00080315	8.307e-05	324.31	5.4735e-06	2.9878e-06	665.84	128.17	7.7657e-06	5.1794e-06	353.07	170.07	60.421	25.111	6.481e-06	96.538	0.001012	0.0010417	0.00028264	312.94	1.0609e-05	1.1145e-05	642.84	124.41	1.0469e-05	1.1149e-05	342.89	165.45	59.983	24.812	1.0572e-05	94.198	71.535	45.258	103.102	-13.809	89.339	153.134	-13.813	-9.184	106.900	122.023	-10.186	-6.387	-5.778	-1.831	153.368	-3.373	-8191	255	
22904.445	1	1	0	0	0.13891	0.084005	0.28073	0.21655	0.2462	0.24947	0.10618	0.088244	0.19931	0.048958	0.10955	0.22239	0.30417	0.24741	0.24902	0.11165	-2.6542	-2.9292	-2.8208	-3.0396	-2.8042	-2.9979	-2.9313	-2.8271	-3.0417	-2.9042	-2.9313	-3.1063	-2.8438	-2.9479	-2.9813	-2.9979	-9.890	13.504	330.841	213.564	-2.628	271.508	241.995	212.933	35.007	274.854	27.668	315.756	0.981	273.742	-14.191	-24.326	0.00077772	0.0004358	8.7555e-05	323.34	7.1149e-06	7.4271e-06	666.68	126.36	4.541e-06	9.2835e-06	352.91	170.15	60.602	25.424	4.193e-06	96.046	0.00099381	0.0010147	0.00028415	313.35	1.0588e-05	1.1192e-05	643.11	123.55	1.0318e-05	1.1037e-05	341.91	165.49	60.084	24.827	1.0532e-05	94.176	74.522	42.777	25.950	-13.438	109.283	108.274	-13.775	-9.457	176.175	147.022	-10.267	-6.733	-6.291	-1.521	136.288	-3.272	-8191	255	
22904.518	1	1	0	0	0.21486	0.24288	0.2765	0.075742	0.079963	0.081682	0.26942	0.3309	0.14862	0.02994	0.17518	0.096201	0.19455	0.142	0.097281	0.097179	-2.5521	-2.85	-2.6354	-2.9583	-2.7562	-2.6937	-3.1271	-2.6146	-2.8729	-2.9167	-2.6292	-3.0333	-2.8	-2.8937	-3.0083	-2.9479	20.942	-7.312	155.700	106.956	96.068	95.958	218.865	-20.705	20.715	313.666	243.570	226.609	21.593	19.468	212.270	51.578	0.00078612	0.00087853	0.00012824	322.83	6.8961e-06	6.6914e-06	665.06	127.04	5.0398e-06	6.0275e-06	354.8	171.62	61.33	25.239	4.4242e-06	96.763	0.00097785	0.0009996	0.000287	313.31	1.0145e-05	1.0943e-05	643.85	124.25	1.0283e-05	1.1269e-05	344.19	166.79	60.366	24.985	1.1017e-05	94.771	73.208	49.268	37.032	-13.658	96.076	134.058	-13.795	-8.851	123.293	94.139	-10.096	-6.537	-5.616	-1.563	78.691	-3.264	-8191	255	
#DATA ENDS
