BOXY.EXE: ISS Imagent and Oximeter Data Acquisition Program Version 0.80
Ascii Record File

#ACQ INFORMATION
2  Detector Channels 
16  External MUX Channels 
1  Auxiliary Channels 
5000  Waveform (CCF) Frequency (Hz)
1  Waveforms Skipped 
30  Waveforms Averaged 
1  Cycles Averaged 
16  Acquisitions per Waveform 
10.0806  Updata Rate (Hz) 

#FILE INFORMATION
TRUE -- External MUX Channel results are PARSED.
FALSE -- AC DC and Phase are NOT grouped.
TRUE -- Companion Program Settings File CREATED.
FALSE -- AC data not excluded
FALSE -- DC data not excluded
FALSE -- Phase data not excluded
FALSE -- Auxillary Chn. data not excluded
Tab delimiters

#CALIBRATION STATE
TRUE -- Waveform Calibration Values APPLIED.


#AUX CALIBRATION VALUES
Val Type	aux-1	

Term	1.0000e+00	
Factor	0.0000e+00	


#WF CALIBRATION VALUES
A = Detector Channel
Val Type	A-AC1	A-AC2	A-AC3	A-AC4	A-AC5	A-AC6	A-AC7	A-AC8	A-AC9	A-AC10	A-AC11	A-AC12	A-AC13	A-AC14	A-AC15	A-AC16	A-DC1	A-DC2	A-DC3	A-DC4	A-DC5	A-DC6	A-DC7	A-DC8	A-DC9	A-DC10	A-DC11	A-DC12	A-DC13	A-DC14	A-DC15	A-DC16	A-Ph1	A-Ph2	A-Ph3	A-Ph4	A-Ph5	A-Ph6	A-Ph7	A-Ph8	A-Ph9	A-Ph10	A-Ph11	A-Ph12	A-Ph13	A-Ph14	A-Ph15	A-Ph16	

Term	0.00000e+00	0.00000e+00	0.00000e+00	0.00000e+00	0.00000e+00	0.00000e+00	0.00000e+00	0.00000e+00	0.00000e+00	0.00000e+00	0.00000e+00	0.00000e+00	0.00000e+00	0.00000e+00	0.00000e+00	0.00000e+00	0.00000e+00	0.00000e+00	0.00000e+00	0.00000e+00	0.00000e+00	0.00000e+00	0.00000e+00	0.00000e+00	0.00000e+00	0.00000e+00	0.00000e+00	0.00000e+00	0.00000e+00	0.00000e+00	0.00000e+00	0.00000e+00	0.00000e+00	0.00000e+00	0.00000e+00	0.00000e+00	0.00000e+00	0.00000e+00	0.00000e+00	0.00000e+00	0.00000e+00	0.00000e+00	0.00000e+00	0.00000e+00	0.00000e+00	0.00000e+00	0.00000e+00	0.00000e+00	
Factor	1.00000e+00	1.00000e+00	1.00000e+00	1.00000e+00	1.00000e+00	1.00000e+00	1.00000e+00	1.00000e+00	1.00000e+00	1.00000e+00	1.00000e+00	1.00000e+00	1.00000e+00	1.00000e+00	1.00000e+00	1.00000e+00	1.00000e+00	1.00000e+00	1.00000e+00	1.00000e+00	1.00000e+00	1.00000e+00	1.00000e+00	1.00000e+00	1.00000e+00	1.00000e+00	1.00000e+00	1.00000e+00	1.00000e+00	1.00000e+00	1.00000e+00	1.00000e+00	X	X	X	X	X	X	X	X	X	X	X	X	X	X	X	X	

B = Detector Channel
Val Type	B-AC1	B-AC2	B-AC3	B-AC4	B-AC5	B-AC6	B-AC7	B-AC8	B-AC9	B-AC10	B-AC11	B-AC12	B-AC13	B-AC14	B-AC15	B-AC16	B-DC1	B-DC2	B-DC3	B-DC4	B-DC5	B-DC6	B-DC7	B-DC8	B-DC9	B-DC10	B-DC11	B-DC12	B-DC13	B-DC14	B-DC15	B-DC16	B-Ph1	B-Ph2	B-Ph3	B-Ph4	B-Ph5	B-Ph6	B-Ph7	B-Ph8	B-Ph9	B-Ph10	B-Ph11	B-Ph12	B-Ph13	B-Ph14	B-Ph15	B-Ph16	

Term	0.00000e+00	0.00000e+00	0.00000e+00	0.00000e+00	0.00000e+00	0.00000e+00	0.00000e+00	0.00000e+00	0.00000e+00	0.00000e+00	0.00000e+00	0.00000e+00	0.00000e+00	0.00000e+00	0.00000e+00	0.00000e+00	0.00000e+00	0.00000e+00	0.00000e+00	0.00000e+00	0.00000e+00	0.00000e+00	0.00000e+00	0.00000e+00	0.00000e+00	0.00000e+00	0.00000e+00	0.00000e+00	0.00000e+00	0.00000e+00	0.00000e+00	0.00000e+00	-9.99014e+01	-1.28059e+02	-1.24292e+02	-1.80815e+02	-5.64162e+01	-6.70400e+01	-1.57141e+02	-1.62015e+02	-5.78422e+01	-6.46554e+01	-1.71605e+02	-1.71581e+02	-1.83471e+02	-1.76929e+02	-6.31455e+01	-1.49760e+02	
Factor	1.57090e-05	1.56009e-04	4.31416e-05	1.49598e-01	1.26044e-06	1.72627e-06	1.55617e-01	4.50887e-02	1.02207e-06	1.73542e-06	7.47621e-02	2.92882e-02	3.47003e-02	8.87559e-03	1.34979e-06	1.27559e-02	1.64394e-05	5.02448e-05	1.40396e-05	7.54145e-02	4.32544e-07	5.76823e-07	7.39352e-02	2.29014e-02	4.22910e-07	5.74600e-07	3.67841e-02	1.45451e-02	1.77443e-02	4.53651e-03	4.81585e-07	6.33307e-03	X	X	X	X	X	X	X	X	X	X	X	X	X	X	X	X	



#DISTANCE SETTINGS
A = Detector Channel
A-1	A-2	A-3	A-4	A-5	A-6	A-7	A-8	A-9	A-10	A-11	A-12	A-13	A-14	A-15	A-16	

2.5000e+00	3.0000e+00	2.5000e+00	3.0000e+00	2.0000e+00	3.0000e+00	1.5000e+00	3.0000e+00	3.0000e+00	3.0000e+00	3.0000e+00	3.0000e+00	3.0000e+00	3.0000e+00	1.5000e+00	3.0000e+00	

B = Detector Channel
B-1	B-2	B-3	B-4	B-5	B-6	B-7	B-8	B-9	B-10	B-11	B-12	B-13	B-14	B-15	B-16	

1.0000e+01	1.0000e+01	1.0000e+01	1.4400e+00	1.0000e+01	1.0000e+01	1.5100e+00	1.9400e+00	1.0000e+01	1.0000e+01	1.9900e+00	2.4900e+00	2.4100e+00	2.9000e+00	1.0000e+01	2.9800e+00	




#DATA BEGINS
time	group	step	mark	flag	A-AC1	A-AC2	A-AC3	A-AC4	A-AC5	A-AC6	A-AC7	A-AC8	A-AC9	A-AC10	A-AC11	A-AC12	A-AC13	A-AC14	A-AC15	A-AC16	A-DC1	A-DC2	A-DC3	A-DC4	A-DC5	A-DC6	A-DC7	A-DC8	A-DC9	A-DC10	A-DC11	A-DC12	A-DC13	A-DC14	A-DC15	A-DC16	A-Ph1	A-Ph2	A-Ph3	A-Ph4	A-Ph5	A-Ph6	A-Ph7	A-Ph8	A-Ph9	A-Ph10	A-Ph11	A-Ph12	A-Ph13	A-Ph14	A-Ph15	A-Ph16	B-AC1	B-AC2	B-AC3	B-AC4	B-AC5	B-AC6	B-AC7	B-AC8	B-AC9	B-AC10	B-AC11	B-AC12	B-AC13	B-AC14	B-AC15	B-AC16	B-DC1	B-DC2	B-DC3	B-DC4	B-DC5	B-DC6	B-DC7	B-DC8	B-DC9	B-DC10	B-DC11	B-DC12	B-DC13	B-DC14	B-DC15	B-DC16	B-Ph1	B-Ph2	B-Ph3	B-Ph4	B-Ph5	B-Ph6	B-Ph7	B-Ph8	B-Ph9	B-Ph10	B-Ph11	B-Ph12	B-Ph13	B-Ph14	B-Ph15	B-Ph16	aux-1	digaux	

15880.640	1	1	0	256	0.2615	0.13985	0.11752	0.12115	0.12674	0.076999	0.094275	0.26147	0.18949	0.099515	0.35064	0.08018	0.17862	0.068767	0.10593	0.15188	-2.2625	-2.55	-2.6667	-2.7313	-2.5979	-2.5917	-3.0646	-2.5083	-2.7271	-2.9292	-2.6292	-2.6646	-2.7667	-2.6771	-2.8896	-2.7667	264.210	459.510	430.701	244.618	196.715	477.853	419.481	412.484	162.192	178.379	437.473	368.724	441.228	442.520	157.233	224.522	0.00031133	0.00044689	0.00041801	156.72	6.9845e-06	1.2762e-05	297.05	58.242	1.14e-05	6.1147e-06	145.38	68.475	25.494	11.001	3.0896e-06	35.541	0.02119	0.064115	0.017898	256.3	0.00054658	0.00072739	399.45	89.47	0.00052586	0.00071377	197.2	89.779	47.815	17.184	0.00059475	44.872	218.319	394.242	150.546	132.424	287.366	260.766	131.940	137.723	256.093	230.832	135.629	139.858	139.478	145.072	285.869	143.049	-8191	255	
15880.736	1	1	0	0	0.2637	0.25247	0.27426	0.027562	0.1673	0.1917	0.057515	0.089887	0.17478	0.25529	0.12453	0.22943	0.18198	0.20661	0.11616	0.020746	-2.3167	-3.0021	-2.3396	-2.6667	-2.7854	-2.5896	-2.9854	-2.6667	-2.6167	-2.8312	-2.6542	-2.9875	-2.8083	-2.5958	-2.8042	-2.7812	147.270	395.820	224.590	199.124	474.875	177.521	190.606	436.374	418.561	336.837	281.641	316.662	434.315	151.642	288.467	467.100	0.00043354	0.00023278	0.00032219	156.53	2.9236e-06	3.4027e-06	298.55	59.326	2.3432e-06	1.3774e-05	147.94	69.487	25.352	11.142	5.6331e-06	35.704	0.020313	0.061525	0.017143	254.36	0.00052676	0.00070693	399.71	89.491	0.00051828	0.00071063	198.28	90.543	48.057	17.325	0.00058986	45.163	201.488	319.362	278.045	132.763	253.920	290.176	132.208	137.522	296.745	163.217	136.081	140.005	140.139	144.805	162.491	143.280	-8191	255	
15880.832	1	1	0	0	0.083929	0.082598	0.20378	0.23758	0.41588	0.19786	0.38518	0.22184	0.17688	0.43519	0.046247	0.1814	0.14657	0.064063	0.13853	0.29354	-2.2938	-2.9313	-2.6083	-2.6646	-2.825	-2.6604	-2.9688	-2.6125	-2.4354	-2.8458	-2.5563	-2.6312	-2.8063	-2.4396	-2.8542	-2.6708	376.572	208.203	211.115	176.397	266.904	306.609	431.552	141.477	339.518	198.391	450.419	454.057	447.697	475.236	297.147	447.098	0.00034529	0.00042872	0.00023651	157.02	2.6422e-06	1.4041e-05	300.31	59.937	1.8554e-06	7.128e-06	148.12	69.911	25.364	11.19	5.0979e-06	35.557	0.020344	0.061551	0.017081	254.39	0.00052344	0.00069909	399.38	89.64	0.00051094	0.00069724	198.15	90.615	47.975	17.309	0.00059374	45.155	216.557	248.127	419.060	132.262	364.512	268.440	132.513	137.462	332.157	353.056	135.722	139.734	139.669	145.207	241.510	143.188	-8191	255	
15880.928	1	1	0	0	0.13582	0.1043	0.19555	0.17366	0.29001	0.13398	0.26867	0.059978	0.22207	0.31767	0.00047966	0.21455	0.1632	0.25014	0.14567	0.2632	-2.1083	-2.8354	-2.5375	-2.4979	-2.8646	-2.675	-2.7354	-2.6708	-2.4771	-2.8312	-2.5187	-2.6958	-2.8312	-2.6208	-2.9042	-2.7729	331.056	293.820	255.285	136.822	184.769	171.016	127.907	254.348	248.908	387.780	180.000	327.013	306.871	413.746	239.275	302.406	0.0003218	0.000929	0.00010279	157.11	4.6871e-06	7.0119e-06	299.96	59.702	2.2533e-06	6.6283e-06	146.94	69.248	25.203	10.991	6.8602e-06	35.034	0.020637	0.062388	0.017292	255.96	0.0005372	0.00071948	401.64	90.214	0.00053631	0.00073232	199.38	90.855	49.005	17.411	0.00062214	45.09	217.338	310.554	145.378	132.791	225.498	214.112	132.692	137.336	317.253	323.549	135.710	140.053	140.393	144.834	210.556	143.109	-8191	255	
15881.049	1	1	0	0	0.17071	0.19845	0.063835	0.07243	0.10465	0.21445	0.30341	0.156	0.059805	0.040807	0.17005	0.13854	0.11325	0.22268	0.30873	0.075522	-2.2396	-2.9437	-2.7021	-2.6146	-2.9188	-2.6396	-2.7938	-2.9208	-2.6063	-3.1083	-2.7792	-2.5792	-2.9583	-2.6188	-2.775	-2.7771	451.686	217.489	314.808	288.879	258.013	253.180	340.549	397.115	432.168	265.412	221.956	476.726	372.719	438.219	309.308	445.654	0.0002698	0.0006115	0.00021339	157.31	6.5322e-06	4.2572e-06	301.39	59.59	1.5029e-06	2.7423e-06	147.33	69.594	25.329	11.079	5.3689e-06	35.495	0.021491	0.064563	0.017993	258.3	0.00055592	0.00073548	402.63	90.903	0.00053814	0.00072665	199.55	91.192	48.746	17.362	0.00060371	45.242	190.565	224.739	195.404	132.021	332.637	464.718	132.784	137.458	381.311	258.878	135.915	139.947	140.324	144.845	384.568	143.023	-8191	255	
15881.143	1	1	0	0	0.11725	0.22225	0.25958	0.07172	0.01421	0.17435	0.10706	0.030244	0.12833	0.11843	0.18903	0.076777	0.09282	0.3203	0.21547	0.17359	-2.2667	-2.7625	-2.75	-2.4417	-2.9146	-2.5854	-2.6625	-2.9083	-2.7604	-2.8521	-2.6167	-2.5896	-3	-2.6479	-2.7938	-2.7583	323.732	261.201	299.559	367.813	367.284	122.513	436.151	466.607	368.116	435.082	473.357	333.831	348.092	398.493	397.522	148.820	0.00033811	0.0015594	0.0002433	156.59	3.0284e-06	1.141e-05	298.67	59.763	7.041e-06	4.4431e-06	147.48	69.827	25.759	11.256	7.8193e-06	35.837	0.02116	0.063769	0.017868	259.34	0.00055688	0.00074667	404.24	91.389	0.00054892	0.00073939	200.61	91.85	49.324	17.569	0.00062238	45.681	229.188	268.238	428.815	132.805	284.072	244.146	132.651	137.172	373.811	159.092	135.535	139.625	140.062	144.912	423.658	143.227	-8191	255	
15881.239	1	1	0	0	0.077677	0.31496	0.1134	0.081733	0.19335	0.077254	0.24156	0.11088	0.17246	0.27184	0.090889	0.15785	0.18735	0.028823	0.16444	0.10461	-2.1562	-2.7938	-2.8146	-2.5333	-3.0167	-2.675	-2.6542	-3.0438	-2.5938	-2.8042	-2.8312	-2.5354	-2.9271	-2.6375	-2.5521	-3.0625	433.946	181.229	292.470	314.868	293.619	325.877	369.500	416.351	136.517	323.739	179.805	196.944	450.862	457.305	433.598	348.394	0.0003152	0.00092268	0.00024072	157.62	4.7128e-06	1.0278e-05	301.77	59.904	3.6043e-06	1.3781e-05	148.91	70.006	25.465	11.141	3.8922e-06	35.754	0.021603	0.065364	0.018199	261.59	0.00056334	0.00074951	407.88	92.027	0.00055481	0.00075183	202.93	92.418	49.626	17.683	0.00063369	45.896	205.736	213.841	213.798	132.326	234.991	293.022	132.390	137.400	325.280	218.678	135.952	139.527	139.982	144.826	386.896	143.164	-8191	255	
15881.335	1	1	0	0	0.11089	0.15669	0.26678	0.22222	0.12638	0.25012	0.07111	0.096809	0.34236	0.033258	0.1151	0.28372	0.15708	0.082516	0.13842	0.094031	-1.9896	-2.6854	-2.9	-2.6271	-2.9125	-2.6375	-2.6917	-3.0312	-2.9104	-2.6917	-2.8479	-2.5479	-2.7083	-2.8187	-2.6271	-2.8958	320.287	437.783	122.397	453.692	129.553	293.430	156.599	225.857	284.221	192.082	422.562	475.250	239.690	225.460	341.680	429.821	0.00031153	0.00047178	0.00011873	160.29	5.4838e-06	7.6224e-06	299.87	59.741	1.6384e-06	4.6081e-06	147.17	69.711	25.553	11.191	3.2284e-06	35.732	0.021773	0.065759	0.018415	263.05	0.00056278	0.00075131	407.64	91.871	0.00055065	0.00074611	201.41	91.761	49.473	17.606	0.00063158	45.728	212.915	216.071	120.118	132.912	211.606	157.530	132.593	137.231	399.828	207.815	135.901	139.965	140.357	144.426	251.664	143.061	-8191	255	
15881.431	1	1	0	0	0.25645	0.33815	0.070406	0.048734	0.20726	0.23205	0.39369	0.11664	0.13356	0.095431	0.1413	0.020131	0.13586	0.082068	0.10657	0.10611	-2.1104	-2.5458	-2.8063	-2.5396	-2.6667	-2.7896	-2.6167	-3.0438	-2.6542	-2.6979	-2.9292	-2.4542	-2.9042	-2.9062	-2.5729	-2.8667	404.282	350.729	336.759	229.381	478.699	231.890	406.961	315.388	366.433	292.744	469.886	254.833	194.437	356.868	301.920	387.653	0.00039199	0.0009938	9.7454e-06	159.14	3.0883e-06	3.6172e-06	301.64	60.106	1.0588e-06	3.8438e-06	150.01	70.499	25.723	11.207	6.6566e-06	35.625	0.021836	0.066012	0.018599	264.05	0.00057025	0.00075967	409.04	92.423	0.00055165	0.00075086	202.73	92.485	49.713	17.675	0.0006329	45.706	206.595	269.135	273.138	132.058	236.934	375.971	132.442	137.604	206.102	325.667	136.065	139.765	139.942	144.371	288.254	143.272	-8191	255	
15881.528	1	1	0	0	0.27516	0.25355	0.079987	0.10412	0.24115	0.20966	0.028588	0.21822	0.153	0.10228	0.055153	0.20724	0.20899	0.18016	0.12957	0.16628	-2.1604	-2.5375	-2.7854	-2.6333	-2.9292	-2.7667	-2.5958	-2.8146	-2.7917	-2.7188	-2.6854	-2.7646	-2.7854	-2.7542	-2.6875	-2.9688	189.444	397.140	194.632	365.035	188.364	313.238	286.456	177.783	369.072	207.424	171.641	183.433	165.946	470.219	207.723	459.002	0.00034895	0.00059207	9.9897e-05	160.47	3.0966e-06	8.6654e-06	302.64	60.138	4.4864e-06	5.3332e-06	148.03	69.784	25.26	11.032	9.9183e-06	35.54	0.021638	0.065352	0.018325	263.77	0.00056671	0.00075574	411.38	92.777	0.00056243	0.0007696	203.96	92.66	50.429	17.759	0.00066254	45.811	211.514	139.597	196.982	132.461	424.179	257.190	132.657	137.350	258.574	172.006	135.796	139.962	140.545	144.919	225.631	143.294	-8191	255	
15881.648	1	1	0	0	0.18327	0.27521	0.1999	0.23023	0.074175	0.2012	0.19214	0.074318	0.14785	0.13461	0.10845	0.34219	0.12569	0.109	0.12601	0.22466	-2.2646	-2.6646	-2.975	-2.5104	-2.8229	-2.9396	-2.625	-2.6875	-2.5083	-2.7229	-2.9042	-2.7812	-2.6708	-2.9146	-2.4	-2.8208	239.728	373.250	308.885	192.621	262.602	158.518	409.211	446.225	313.284	431.740	239.127	459.190	385.855	233.130	167.450	449.023	0.00029394	0.0010307	0.00015836	160.34	4.394e-06	2.3851e-06	303.12	59.68	5.3707e-06	8.6742e-06	146.27	69.281	25.173	10.974	8.3159e-06	35.125	0.022687	0.069219	0.019348	268.2	0.00059305	0.00079555	415.08	93.777	0.00058749	0.00080443	204.61	92.81	51.124	17.863	0.00067337	45.647	206.743	254.266	187.694	132.723	417.662	185.029	132.610	137.474	194.483	330.394	136.312	139.842	140.777	144.760	309.443	143.169	-8191	255	
15881.744	1	1	0	0	0.14179	0.083113	0.13331	0.28846	0.16475	0.14289	0.036183	0.089143	0.082525	0.018775	0.18063	0.22783	0.039657	0.057985	0.24514	0.2998	-2.4688	-2.4104	-2.9271	-2.6375	-2.6583	-2.8792	-2.6375	-2.8063	-2.7896	-2.6437	-2.8729	-2.9437	-2.6167	-2.8958	-2.6188	-2.8333	456.665	140.430	254.336	391.945	201.799	294.587	366.025	188.219	447.455	459.855	135.571	390.861	259.634	350.244	372.037	125.192	0.00043508	0.00042156	0.00010689	161.39	3.1899e-06	9.027e-06	302.41	59.796	6.5183e-06	6.5204e-06	148.05	69.243	25.754	11.095	2.5642e-06	35.515	0.023172	0.070024	0.019448	268.98	0.0005953	0.00079258	412.01	93.427	0.00057732	0.00079151	203.64	92.377	50.579	17.77	0.00064918	45.7	214.758	189.273	318.666	132.501	350.887	326.551	132.855	137.375	314.646	261.731	135.751	139.739	140.773	144.904	476.712	143.426	-8191	255	
15881.841	1	1	0	0	0.19482	0.23722	0.18406	0.053966	0.056838	0.14545	0.21968	0.086647	0.25862	0.28862	0.10534	0.066913	0.21441	0.11589	0.12258	0.17963	-2.4188	-2.5146	-2.8417	-2.5875	-2.6375	-2.9583	-2.5979	-2.6125	-2.9479	-2.5417	-2.9396	-2.7687	-2.6792	-2.9792	-2.5229	-2.7667	255.194	264.167	364.711	467.237	312.013	154.814	374.351	153.836	318.643	164.522	240.989	154.179	306.498	143.385	406.768	459.582	0.00028314	0.00056644	0.0004296	160.54	8.5687e-06	1.134e-05	303.65	59.677	5.1703e-06	3.0233e-06	148.46	69.895	25.559	11.186	2.39e-06	35.689	0.022185	0.066741	0.018737	264.77	0.00057225	0.00076103	410.33	92.417	0.0005539	0.00075182	202.43	91.983	49.508	17.632	0.00061945	45.614	204.547	237.862	185.961	132.586	250.703	355.330	132.512	137.371	320.594	312.864	135.845	139.994	140.327	144.746	173.386	143.073	-8191	255	
15881.935	1	1	0	0	0.1187	0.16018	0.055303	0.30187	0.12555	0.1714	0.17845	0.14606	0.10688	0.1439	0.16566	0.25911	0.1498	0.1243	0.1162	0.23131	-2.5042	-2.5771	-2.8542	-3.0167	-2.5479	-2.925	-2.7625	-2.7667	-2.9271	-2.6375	-2.7271	-2.8167	-2.6688	-2.8896	-2.8563	-2.8042	211.588	476.693	453.589	321.840	380.046	204.641	120.036	367.241	133.960	211.786	383.434	282.431	314.452	217.778	420.426	210.177	0.00039076	0.00078773	0.00019018	160.48	1.7095e-06	7.1927e-06	305.32	60.774	3.4509e-06	1.0905e-05	150.16	71.02	25.909	11.231	4.8831e-06	35.976	0.021453	0.064581	0.017968	261.86	0.00054837	0.0007287	408.59	91.591	0.00052984	0.00071802	201.84	92.032	48.675	17.373	0.00059263	45.649	198.834	274.891	271.035	132.318	405.467	279.594	132.170	137.329	134.065	313.337	136.066	140.088	141.011	145.025	246.239	143.270	-8191	255	
15882.031	1	1	0	0	0.080152	0.12715	0.24827	0.27134	0.13549	0.1703	0.19726	0.17934	0.030411	0.25405	0.12984	0.14209	0.36413	0.11722	0.16206	0.37373	-2.5396	-2.475	-2.8396	-2.75	-2.525	-2.825	-2.6792	-2.6542	-2.9708	-2.5083	-2.8792	-2.9917	-2.5542	-2.7938	-2.7521	-2.6437	124.690	352.837	427.781	383.239	308.800	235.433	363.560	447.068	207.963	148.005	230.106	396.011	414.723	314.376	448.334	420.034	0.00035064	0.00048966	0.00022839	160.54	3.1261e-06	3.6545e-06	304.73	60.352	6.2499e-06	5.1824e-06	148.89	69.744	25.751	11.075	2.3549e-06	35.848	0.020512	0.061887	0.017344	260.6	0.00054149	0.0007242	408.94	91.801	0.00054263	0.00074007	201.77	91.751	49.509	17.515	0.00061463	45.61	207.006	269.715	196.825	132.686	161.572	260.083	132.635	137.784	278.682	458.190	135.900	139.850	140.462	144.642	257.798	143.377	-8191	255	
15882.127	1	1	0	0	0.015628	0.12406	0.24907	0.23587	0.20787	0.098455	0.1074	0.042172	0.24103	0.086542	0.15627	0.15705	0.076901	0.074523	0.11735	0.1585	-2.3458	-2.5021	-2.7021	-2.8958	-2.5792	-2.8167	-2.8688	-2.7333	-2.8792	-2.7375	-2.6958	-2.8104	-2.6417	-2.7583	-2.9333	-2.6021	344.616	170.440	321.381	222.123	473.057	276.332	472.429	333.117	168.474	262.591	405.056	451.494	235.755	234.934	343.521	320.945	0.00023585	0.00060288	0.00018364	159.23	4.4126e-06	1.5005e-05	305.92	60.834	5.1276e-06	5.5189e-06	150	70.446	26.232	11.244	4.6756e-06	35.755	0.021162	0.063577	0.017631	261.27	0.00054298	0.0007193	407.81	91.64	0.00053162	0.0007168	201.88	92.151	49.338	17.568	0.00060831	45.643	208.917	235.071	219.609	132.608	459.160	254.837	132.807	137.006	363.652	217.387	136.222	140.014	139.713	144.919	353.836	143.245	-8191	255	
15882.223	1	1	0	0	0.28003	0.33396	0.27293	0.10057	0.098534	0.2181	0.093156	0.19235	0.065432	0.16078	0.17328	0.23733	0.37175	0.21731	0.10865	0.22668	-2.2938	-2.5396	-2.6958	-2.9271	-2.6479	-2.7562	-2.75	-2.7062	-2.9042	-2.8458	-2.6979	-2.8438	-2.5833	-2.7083	-2.7854	-2.6146	136.011	355.506	314.351	132.159	179.565	307.293	285.837	361.247	361.219	171.993	209.106	457.034	179.063	425.138	247.324	407.804	0.00033919	0.000492	0.00019906	162.52	2.5473e-06	9.731e-06	306.57	61.202	6.1611e-06	6.0536e-06	151.95	70.715	26.29	11.252	6.3587e-06	36.047	0.021158	0.063797	0.017806	262.37	0.00054478	0.00072432	408.51	91.891	0.00052664	0.00071508	202.84	92.533	49.197	17.575	0.00061567	45.932	224.804	237.809	186.387	132.556	407.573	233.128	132.820	136.646	424.222	269.069	135.904	139.769	140.800	144.928	273.568	143.234	-8191	255	
15882.320	1	1	0	0	0.15977	0.21707	0.20543	0.038072	0.075506	0.076669	0.37262	0.15611	0.034515	0.037746	0.20027	0.11878	0.13208	0.14224	0.24771	0.13797	-2.4896	-2.7396	-2.6542	-2.8146	-2.5375	-2.7875	-2.9313	-2.5062	-2.9521	-2.7646	-2.6229	-2.7812	-2.6167	-2.5979	-2.8604	-2.6458	383.914	370.249	264.174	203.916	479.398	246.281	420.372	412.154	398.434	136.785	418.720	435.423	261.792	336.737	269.596	299.922	0.00023455	0.0011175	0.00039731	160.96	1.0256e-05	8.561e-06	306.53	61.065	5.6671e-06	5.3104e-06	149.97	71.137	26.053	11.339	5.6685e-06	36.031	0.021349	0.064404	0.018063	263.89	0.00055359	0.00073727	411.86	92.417	0.00053772	0.00073264	203.34	92.608	49.261	17.522	0.00060993	45.861	214.075	256.972	241.994	133.103	307.907	395.466	132.506	137.769	192.789	254.870	135.811	139.555	140.827	145.343	272.688	143.196	-8191	255	
15882.440	1	1	0	0	0.28489	0.23762	0.26752	0.25443	0.19192	0.19217	0.18873	0.14855	0.23186	0.082308	0.063442	0.085821	0.25003	0.13567	0.068975	0.16696	-2.4375	-2.6521	-2.5396	-2.8104	-2.7083	-2.6167	-2.9542	-2.3667	-2.7625	-2.8625	-2.475	-2.9375	-2.7354	-2.5792	-2.6979	-2.5438	454.981	267.037	228.466	405.057	472.687	205.882	460.194	297.390	419.177	210.707	435.275	269.405	166.812	385.106	404.499	409.391	0.00033319	0.00066851	0.0003153	163.55	3.0944e-06	6.4949e-06	303.32	61.184	1.7776e-06	1.1401e-05	149.8	70.267	25.614	11.136	8.7833e-06	35.58	0.021239	0.063743	0.01791	263.51	0.00055382	0.00073953	410.12	92.654	0.00054718	0.00074205	202.83	92.221	49.559	17.582	0.00063131	45.661	210.639	140.206	182.606	133.037	190.432	281.132	132.460	137.292	221.558	325.338	135.812	139.744	140.436	144.896	214.469	143.129	-8191	255	
15882.536	1	1	0	0	0.19269	0.15609	0.22536	0.1632	0.13267	0.38849	0.10021	0.31828	0.16437	0.23613	0.099723	0.081351	0.3073	0.21972	0.12085	0.10316	-2.3354	-2.7958	-2.6896	-2.7479	-2.7229	-2.7708	-3.0062	-2.475	-2.8167	-2.8625	-2.5708	-3.0083	-2.4417	-2.7479	-2.8625	-2.8375	230.167	165.401	476.491	171.616	457.868	457.958	455.725	471.551	149.424	347.193	398.013	295.091	351.750	298.278	374.869	413.012	0.00028533	0.00076717	0.00018108	161.79	2.1269e-06	8.1187e-06	306.12	60.782	1.8869e-06	1.0234e-05	150.53	70.348	25.81	11.169	1.8891e-06	35.938	0.021753	0.065869	0.018374	265.35	0.00056327	0.00075335	412	92.928	0.00055321	0.0007545	204.11	92.888	50.063	17.679	0.00063181	45.988	193.224	240.916	262.268	133.184	208.447	239.836	132.451	137.521	394.913	274.446	136.128	139.858	140.488	144.853	205.591	143.201	-8191	255	
15882.608	1	1	0	0	0.10744	0.17568	0.099052	0.15341	0.18786	0.0098362	0.21037	0.17231	0.17115	0.035098	0.12658	0.32223	0.15298	0.11698	0.22693	0.074254	-2.225	-2.7583	-2.5458	-2.9042	-2.6521	-2.6375	-3.0208	-2.6396	-2.775	-2.925	-2.425	-2.7792	-2.8312	-2.5417	-3.0104	-2.6229	226.212	217.484	129.133	409.779	359.435	178.869	342.236	418.700	409.658	458.260	398.191	449.781	239.565	397.896	424.259	203.748	0.00031619	0.0010832	3.4575e-05	162.57	2.0544e-06	1.3685e-05	309.53	61.432	4.1665e-06	3.3132e-06	150.82	71.215	26.161	11.294	8.4812e-06	36.374	0.021854	0.066101	0.018383	266.19	0.00056351	0.00074791	414.19	93.298	0.00054733	0.00074284	205.05	93.575	50.029	17.799	0.00063089	46.25	220.614	179.614	353.479	132.224	234.795	225.639	132.394	137.214	343.399	292.920	135.779	139.742	141.171	144.981	187.073	143.179	-8191	255	
15882.729	1	1	0	0	0.13431	0.041917	0.32101	0.19581	0.21692	0.33773	0.14922	0.038306	0.088018	0.18182	0.15043	0.048564	0.074052	0.054613	0.024284	0.23162	-2.1542	-2.8396	-2.5375	-2.7313	-2.7292	-2.5333	-2.7854	-2.5417	-2.7979	-2.8937	-2.5479	-2.7125	-2.6167	-2.6333	-3.0396	-2.7833	272.765	214.902	365.092	429.879	337.733	140.725	243.588	346.558	388.621	302.736	358.609	223.879	218.849	158.191	427.750	453.623	0.0003136	0.00097319	0.000104	162.69	3.0442e-06	4.976e-06	309.3	61.211	4.8028e-06	7.1812e-06	151.67	71.32	26.164	11.255	4.1291e-06	35.946	0.021787	0.065533	0.018373	265.41	0.00055842	0.000744	414.37	92.872	0.00053916	0.00073	204.36	92.878	49.421	17.507	0.00060677	45.649	203.374	403.392	167.615	132.739	333.528	264.179	132.491	136.997	189.043	233.963	136.296	139.779	140.283	145.043	365.028	143.120	-8191	255	
15882.825	1	1	0	0	0.18055	0.33561	0.17656	0.13107	0.21657	0.086982	0.26467	0.21137	0.078431	0.10008	0.33634	0.12688	0.21325	0.12507	0.027221	0.17117	-2.1583	-2.8542	-2.5146	-2.675	-2.8146	-2.3917	-2.9688	-2.6646	-2.7854	-2.7167	-2.5125	-2.8625	-2.8917	-2.4771	-2.7938	-2.8042	369.172	307.026	373.683	284.924	135.937	379.117	408.342	445.574	364.304	388.551	410.952	336.694	430.827	127.029	158.568	140.813	0.00042826	0.00079516	1.2191e-06	161.64	3.9685e-06	3.2841e-06	305.76	61.176	2.5591e-06	2.2546e-06	150.27	70.796	26.103	11.25	4.595e-06	35.9	0.020669	0.062549	0.017407	262.05	0.00054227	0.00072726	409.12	92.225	0.00053429	0.00072715	202.88	92.362	49.316	17.493	0.00060814	45.713	215.987	172.478	224.249	132.493	232.513	330.679	132.495	137.436	235.042	133.158	135.972	139.648	140.299	144.847	316.493	143.220	-8191	255	
15882.921	1	1	0	0	0.32448	0.11516	0.2756	0.28446	0.12875	0.15735	0.10159	0.05588	0.15374	0.28973	0.19206	0.38775	0.12443	0.23491	0.1508	0.26525	-2.1021	-2.9437	-2.6479	-2.825	-2.8521	-2.6917	-2.8542	-2.7188	-2.5292	-3.0208	-2.825	-2.6833	-2.9208	-2.6792	-2.7542	-2.9542	200.698	120.438	211.296	351.674	356.135	236.647	468.128	127.542	378.234	152.771	378.431	459.474	252.904	374.444	167.998	386.894	0.00039843	0.00030231	0.00020267	162.94	8.1151e-07	6.3386e-06	307.12	60.88	9.3708e-07	8.7251e-06	150.53	70.548	26.186	11.204	5.0874e-06	36.072	0.021083	0.063901	0.01787	263.82	0.00055274	0.00073479	411.73	92.276	0.00053339	0.00072247	202.56	92.172	49.024	17.438	0.00060352	45.71	207.306	189.952	148.562	132.396	162.951	139.400	132.784	137.222	154.616	172.475	135.771	139.567	140.501	144.584	454.824	143.242	-8191	255	
15883.040	1	1	0	0	0.24453	0.21846	0.15097	0.12998	0.16475	0.13394	0.088285	0.065484	0.1516	0.18092	0.37334	0.18449	0.18541	0.10635	0.081606	0.1077	-2.0354	-2.7354	-2.5542	-2.6021	-2.9333	-2.5563	-2.5417	-2.7792	-2.6271	-2.7708	-2.5292	-2.7938	-2.7292	-2.4813	-2.8479	-2.8583	306.804	319.873	350.418	318.305	150.517	434.939	359.749	441.824	330.799	424.262	477.076	421.815	210.143	195.622	343.675	370.411	0.00048206	0.0011189	0.0001688	163.9	7.7403e-06	9.1997e-06	309.72	61.563	2.6251e-06	6.4191e-07	151.5	71.175	26.115	11.148	4.9606e-06	35.643	0.020774	0.062698	0.017509	261.99	0.0005395	0.00071993	411.43	92.12	0.00052496	0.00071251	202.36	92.059	48.74	17.284	0.0005926	45.256	213.766	163.216	312.076	132.146	302.359	305.621	132.593	137.312	312.548	174.404	135.846	139.429	141.252	145.235	365.087	143.242	-8191	255	
15883.136	1	1	0	0	0.10708	0.027325	0.13653	0.061364	0.16078	0.16167	0.057952	0.32628	0.34249	0.068878	0.092006	0.11976	0.1103	0.17322	0.17869	0.10357	-1.975	-2.8333	-2.4208	-2.5687	-2.8646	-2.6083	-2.7979	-2.7062	-2.5687	-2.9146	-2.8292	-2.6583	-2.8479	-2.6375	-2.7792	-2.9813	383.495	271.133	309.820	469.336	427.691	441.042	343.314	233.876	265.428	207.431	172.649	386.455	371.427	454.311	395.200	469.351	0.00033661	0.0011969	0.00013824	163.53	4.8413e-06	5.2668e-06	304.94	60.448	3.2464e-06	4.293e-06	147.87	69.152	25.08	10.896	1.1061e-05	35.068	0.020412	0.061959	0.017302	260.72	0.0005341	0.0007173	406.8	91.008	0.00052745	0.00071569	199.26	90.239	48.354	17.061	0.00060028	44.599	219.224	196.063	269.478	132.676	309.849	380.694	132.922	137.027	366.457	434.287	135.831	139.653	140.375	145.410	290.900	143.568	-8191	255	
15883.208	1	1	0	0	0.17181	0.34633	0.24247	0.15648	0.19473	0.14695	0.22989	0.13287	0.053604	0.090325	0.12722	0.10118	0.055329	0.068716	0.20096	0.086603	-2.0438	-2.7021	-2.7438	-2.4792	-2.7562	-2.6625	-2.7125	-2.7021	-2.5271	-2.7958	-2.8187	-2.6292	-2.8667	-2.5938	-2.7458	-2.8521	346.372	268.003	259.311	420.349	354.137	320.276	125.108	439.510	154.103	191.414	470.409	451.792	405.529	385.734	401.441	326.994	0.00029042	0.0011286	0.00018731	160.8	3.6609e-06	3.6367e-06	302.02	59.558	1.4933e-06	2.16e-06	146.78	68.757	25.109	10.759	1.1365e-05	34.598	0.020842	0.062838	0.017493	259.56	0.00053851	0.00071823	404.44	90.199	0.00052782	0.0007178	198.73	89.874	48.132	16.882	0.00060162	44.272	207.320	180.927	168.124	132.644	165.905	325.391	132.899	136.848	223.319	331.231	135.940	139.725	140.098	144.829	257.959	143.238	-8191	255	
15883.328	1	1	0	0	0.091856	0.18763	0.29427	0.13875	0.055474	0.068198	0.15631	0.26494	0.051489	0.15106	0.21501	0.22173	0.11415	0.24546	0.12525	0.16031	-2.1292	-2.6479	-2.9125	-2.4917	-2.8917	-2.575	-2.7	-3.0021	-2.6917	-2.7687	-2.7938	-2.5625	-2.9271	-2.65	-2.6104	-2.9979	268.580	125.560	395.902	334.634	179.187	136.904	479.263	255.366	459.927	454.343	397.841	136.331	400.544	175.798	122.243	383.325	0.00040002	0.0012133	0.0001861	160.03	4.875e-06	9.0486e-06	301.94	59.739	3.2934e-06	6.2853e-06	146.43	68.3	24.812	10.535	6.9204e-06	34.455	0.020863	0.06308	0.017657	259.82	0.00054497	0.00072845	404.88	90.329	0.00053811	0.00073263	199.21	89.823	48.53	16.913	0.00062318	44.364	212.544	130.628	157.688	132.704	240.966	310.916	132.696	137.414	406.448	450.715	135.856	140.082	140.807	145.049	267.181	143.309	-8191	255	
15883.424	1	1	0	0	0.086048	0.17869	0.083022	0.27493	0.1252	0.19542	0.23116	0.17738	0.13751	0.25901	0.026525	0.13767	0.16547	0.18754	0.070109	0.099135	-2.0187	-2.6146	-2.6958	-2.4833	-2.7604	-2.875	-2.5542	-2.8083	-2.5292	-2.7333	-2.875	-2.4396	-2.8958	-2.7542	-2.5021	-2.8167	475.093	143.570	230.344	150.995	136.282	330.003	342.627	427.209	476.657	416.560	457.266	120.169	421.982	319.904	394.484	367.741	0.00032522	0.00066637	0.0003049	158.52	9.6536e-06	3.651e-06	305.2	59.301	4.434e-06	5.3029e-06	145.53	67.991	24.781	10.556	9.9563e-06	34.234	0.021638	0.065102	0.018237	262.66	0.0005585	0.0007447	408.22	90.9	0.00054556	0.00073837	198.53	89.574	48.279	16.835	0.00061572	43.96	190.815	469.968	445.186	133.177	274.533	215.901	132.570	137.069	305.990	358.929	136.102	139.835	140.551	145.161	217.031	143.267	-8191	255	
15883.521	1	1	0	0	0.20584	0.10226	0.16066	0.38295	0.1287	0.14853	0.19881	0.082335	0.16871	0.17862	0.15594	0.10735	0.1336	0.064859	0.19754	0.1224	-2.1979	-2.6417	-2.8917	-2.4729	-2.7313	-2.9083	-2.6437	-3.0729	-2.5958	-2.8229	-2.8833	-2.7917	-3.0625	-2.8438	-2.5229	-2.75	465.038	277.646	349.951	326.973	423.871	246.175	343.748	340.692	287.033	449.464	273.356	294.639	372.613	231.412	239.813	148.790	0.00032078	0.00073483	0.00020089	159.43	3.458e-06	1.4123e-05	302.78	59.509	5.2409e-06	2.5221e-06	146.86	68.594	25.159	10.713	1.3001e-05	34.551	0.021208	0.063716	0.017734	260.33	0.00054424	0.00072441	403.46	90.653	0.00053166	0.00072371	198.34	89.918	48.131	16.9	0.00060221	44.235	208.482	143.606	464.144	132.797	234.398	285.777	132.614	137.235	260.444	397.678	135.996	139.428	140.701	144.825	308.238	143.529	-8191	255	
15883.617	1	1	0	0	0.1274	0.098522	0.049279	0.066787	0.17372	0.074267	0.05707	0.33968	0.11609	0.12569	0.17921	0.18589	0.13102	0.064199	0.1676	0.13568	-2.3187	-2.5583	-2.9333	-2.5604	-2.8208	-2.7313	-2.4688	-2.5667	-2.8229	-2.5187	-2.975	-2.5771	-2.7729	-2.7958	-2.5875	-2.8292	136.444	290.274	199.148	437.108	411.422	277.936	396.661	223.946	250.576	324.603	269.255	394.644	399.521	343.491	404.439	410.922	0.00031307	0.00076762	0.00023648	160.63	6.7567e-06	6.6782e-06	304.56	60.052	6.7683e-06	1.6115e-06	148.3	69.343	25.366	10.893	3.3519e-06	35.373	0.020551	0.061734	0.017096	257.76	0.00052494	0.00069571	402.44	89.926	0.00050596	0.00068497	197.72	89.923	47.297	16.803	0.00057284	44.553	214.876	337.544	149.896	132.355	204.285	346.050	132.702	137.192	330.861	271.948	136.009	139.736	140.397	144.933	351.058	143.362	-8191	255	
15883.737	1	1	0	0	0.32409	0.11319	0.087632	0.15293	0.26548	0.19407	0.095707	0.21351	0.47854	0.24293	0.079479	0.37329	0.34462	0.2044	0.24874	0.11682	-2.2083	-2.575	-2.8	-2.6125	-2.6792	-2.9854	-2.5417	-2.8604	-2.8271	-2.4896	-2.9792	-2.7125	-2.6167	-2.8563	-2.7146	-2.8583	165.870	477.432	338.971	404.592	330.120	195.205	459.572	139.241	450.279	476.093	345.250	450.975	449.119	269.649	289.165	466.469	0.00030238	0.0009931	0.0002358	161.5	1.1204e-05	6.1378e-06	304.92	60.417	1.7608e-06	4.7025e-06	149.39	70.005	25.566	11.006	6.0322e-06	35.873	0.019804	0.060035	0.016866	257.74	0.00052378	0.0007027	405.85	90.837	0.0005191	0.00070533	200.71	91.095	48.158	17.126	0.00058969	45.166	206.561	202.888	230.239	133.108	245.366	157.386	132.328	137.243	451.948	130.817	135.953	139.501	140.827	144.704	398.541	143.335	-8191	255	
15883.833	1	1	0	0	0.13305	0.086424	0.27753	0.12511	0.099193	0.12993	0.21811	0.096657	0.36424	0.29505	0.27359	0.19588	0.19464	0.25442	0.25245	0.15737	-2.3729	-2.3521	-2.7604	-2.6396	-2.7417	-2.8396	-2.6604	-2.9021	-2.8125	-2.6979	-3.0938	-2.6312	-2.6229	-2.7583	-2.5208	-2.9688	191.035	243.175	386.107	162.525	364.654	135.883	367.359	308.457	337.994	384.805	390.242	171.663	317.134	341.733	293.419	320.586	0.00031161	0.00036415	8.2713e-05	161.65	5.7298e-06	5.2096e-06	307.96	61.035	4.9618e-06	3.6403e-06	149.5	69.948	25.933	10.965	2.8479e-06	35.134	0.020207	0.061083	0.017088	258.51	0.00052182	0.00069944	406.54	90.689	0.0005093	0.00069687	199.98	90.861	48.105	17.105	0.00059411	44.793	208.959	382.166	244.043	132.690	308.605	205.309	132.522	137.499	333.669	451.943	136.246	140.187	140.496	145.310	365.923	143.412	-8191	255	
15883.905	1	1	0	0	0.081573	0.18977	0.060068	0.21385	0.14687	0.12099	0.16946	0.043421	0.16909	0.18629	0.17229	0.18907	0.065196	0.066687	0.17525	0.12244	-2.4167	-2.3396	-2.8542	-2.7979	-2.6833	-2.9271	-2.6521	-2.5917	-3.0104	-2.7417	-2.9125	-2.6917	-2.5625	-2.6542	-2.7896	-2.8375	209.078	160.157	375.718	397.287	330.793	119.858	358.235	417.200	324.458	360.669	357.124	129.430	426.320	370.532	250.088	242.368	0.000341	0.00076028	0.00023648	163.13	3.6112e-06	9.941e-06	305.57	60.622	2.9315e-06	7.7709e-06	150.47	70.061	25.824	11.03	7.7872e-06	35.484	0.020598	0.062368	0.017449	259.75	0.00053138	0.00070831	405	90.516	0.00050981	0.00069326	200.03	90.88	47.914	17.025	0.00058366	44.92	219.724	458.831	188.187	132.427	207.575	139.280	132.369	137.083	212.056	321.087	135.818	139.783	140.213	144.426	256.371	143.518	-8191	255	
15884.001	1	1	0	0	0.054052	0.038204	0.085718	0.24892	0.23075	0.045172	0.43984	0.10772	0.29482	0.095415	0.073637	0.17597	0.17303	0.031709	0.28429	0.31196	-2.5333	-2.5583	-2.6333	-2.7458	-2.5708	-2.85	-2.7104	-2.7458	-2.8063	-2.7104	-2.8438	-2.8708	-2.5958	-2.8958	-2.6	-2.7646	383.224	243.974	401.707	216.571	180.872	211.279	326.966	416.704	189.926	254.584	421.066	417.702	464.010	424.607	280.151	469.299	0.00030718	0.0011139	0.00017547	161.43	5.5047e-06	6.3533e-06	304.44	60.316	3.6492e-06	8.4233e-06	150.16	70.78	25.704	11.173	8.2377e-06	35.885	0.020262	0.061698	0.017358	259.56	0.00053778	0.00071836	406.71	90.999	0.00052357	0.0007092	200.96	91.545	48.145	17.205	0.00058255	45.285	207.262	165.705	311.153	132.586	203.572	303.704	132.388	137.335	311.461	144.003	135.837	139.521	140.381	144.917	459.869	143.133	-8191	255	
15884.120	1	1	0	0	0.16636	0.11325	0.18097	0.17361	0.12407	0.24493	0.12675	0.28026	0.066574	0.018046	0.12314	0.064354	0.1647	0.10168	0.066973	0.22954	-2.475	-2.4583	-2.725	-2.875	-2.4646	-2.8458	-2.6896	-2.5479	-2.8208	-2.6667	-2.8	-2.9042	-2.5938	-2.9396	-2.6312	-2.7917	413.948	133.894	397.112	450.896	185.630	150.340	478.831	130.422	312.738	218.602	309.088	344.952	478.332	338.632	152.359	476.908	0.00035816	0.00028998	0.00014274	161.84	2.5665e-07	8.9548e-06	306.64	60.739	1.4116e-06	5.9449e-06	150.18	70.709	25.678	11.137	7.2859e-06	35.856	0.020117	0.060912	0.017004	257.78	0.0005221	0.00069561	405.81	90.223	0.00050745	0.00068987	200.01	91.157	47.581	17.016	0.00056703	45.111	213.253	263.390	211.910	133.100	294.982	285.868	132.590	137.237	271.073	269.035	135.805	139.799	141.046	145.188	124.897	143.438	-8191	255	
15884.216	1	1	0	0	0.054731	0.099722	0.04848	0.052491	0.17584	0.21326	0.074799	0.27013	0.13217	0.21374	0.047346	0.41088	0.13467	0.135	0.11387	0.0099794	-2.3583	-2.5812	-2.6021	-2.7562	-2.5104	-2.8333	-2.7083	-2.5792	-2.8854	-2.65	-2.6312	-3.0083	-2.4958	-2.8208	-2.6521	-2.5646	245.312	475.480	185.467	179.640	151.610	462.769	296.713	376.393	256.360	125.426	183.903	466.716	124.810	279.446	228.340	404.425	0.00041066	0.0016655	5.6396e-05	162.62	3.7848e-06	7.8894e-06	306.65	60.358	2.8356e-06	6.0777e-06	149.65	69.814	25.442	10.899	5.0287e-06	35.531	0.019631	0.059377	0.016615	255.8	0.00051065	0.00068405	404.15	89.784	0.00050775	0.0006932	199.06	90.626	47.917	17.038	0.0005827	44.91	208.081	289.055	384.043	132.596	295.325	326.889	132.669	136.866	340.944	285.808	136.099	139.832	140.123	145.084	235.940	143.089	-8191	255	
15884.312	1	1	0	0	0.16883	0.075759	0.18501	0.11208	0.16524	0.32568	0.051835	0.11758	0.091125	0.068578	0.21484	0.35697	0.21597	0.090305	0.070434	0.22547	-2.2979	-2.4938	-2.5938	-2.8708	-2.6312	-2.825	-2.6896	-2.6437	-2.9021	-2.5812	-2.6583	-2.8417	-2.4542	-2.9021	-2.7771	-2.6542	310.503	337.187	359.432	141.589	273.556	344.975	343.087	141.647	151.912	371.007	415.562	477.388	253.424	454.999	165.331	471.419	0.00027664	0.00099023	0.0001669	160.46	3.0002e-06	1.8189e-05	306.98	60.636	3.9139e-06	7.9928e-06	150.97	70.379	25.519	10.997	6.2035e-06	35.528	0.02004	0.060111	0.016705	256.27	0.00051401	0.00068398	403.67	89.964	0.0005013	0.00067739	199.36	90.774	47.649	16.953	0.00057078	44.972	212.966	221.155	232.686	132.606	122.195	338.836	132.506	137.102	205.308	363.921	136.246	139.585	140.361	144.953	327.524	143.327	-8191	255	
15884.409	1	1	0	0	0.1249	0.30278	0.31479	0.10452	0.26955	0.076043	0.19504	0.13091	0.087463	0.27153	0.25602	0.03253	0.14797	0.1574	0.14681	0.19506	-2.3771	-2.7313	-2.5292	-2.7458	-2.6979	-2.8021	-2.9562	-2.5979	-2.95	-2.9292	-2.6188	-2.9271	-2.6437	-2.6146	-2.725	-2.6167	207.075	462.993	321.750	261.694	127.952	217.076	422.260	170.460	459.755	373.594	166.389	226.992	214.510	194.250	176.878	197.169	0.00022612	0.00033354	0.00028638	162.28	4.3363e-06	1.2887e-05	307.98	61.255	5.3876e-06	5.5578e-06	150.82	70.937	25.799	11.134	1.6363e-06	35.972	0.019924	0.059872	0.0167	256.59	0.00051507	0.00068492	404.95	90.154	0.00050176	0.00068139	200.5	91.689	47.979	17.141	0.00058218	45.45	186.742	187.299	133.774	133.161	322.353	335.338	132.535	137.397	188.099	232.282	136.209	139.957	140.677	144.735	248.691	143.676	-8191	255	
15884.505	1	1	0	0	0.023794	0.063574	0.026359	0.17431	0.15916	0.081846	0.16396	0.29959	0.12497	0.1419	0.21487	0.15265	0.046352	0.30863	0.17228	0.12681	-2.4688	-2.6	-2.6646	-2.9521	-2.7167	-2.7833	-2.9104	-2.6542	-2.9042	-2.6375	-2.7188	-2.825	-2.4729	-2.6417	-3.0354	-2.6208	400.336	385.614	314.765	342.109	456.794	154.394	331.958	155.764	369.253	457.169	370.353	438.218	372.435	418.047	411.033	375.188	0.00036449	0.00076402	0.00013867	161.77	3.2639e-06	9.9574e-06	308.54	60.821	5.8709e-06	5.0086e-06	152.05	70.949	25.801	11.175	1.0511e-05	36.025	0.020246	0.06114	0.017043	259.22	0.00052839	0.00069989	408.34	90.993	0.0005115	0.00069249	201.14	91.771	47.745	17.074	0.00057447	45.316	203.299	472.676	128.142	132.303	253.805	188.080	132.859	137.115	221.846	425.538	136.015	139.785	140.021	144.439	134.638	143.233	-8191	255	
15884.601	1	1	0	0	0.10969	0.17145	0.060797	0.21381	0.18624	0.14376	0.20138	0.21091	0.18519	0.12972	0.045274	0.21747	0.30134	0.23977	0.095829	0.17365	-2.3708	-2.825	-2.4688	-2.7208	-2.6833	-2.6271	-2.9167	-2.6437	-2.6646	-2.9833	-2.5146	-2.8438	-2.6542	-2.5312	-2.8854	-2.4875	431.080	456.457	181.124	401.516	274.824	233.758	123.366	233.958	338.264	473.690	123.075	358.278	284.124	328.251	304.288	421.739	0.00036986	0.00058877	0.00014658	161.82	1.4622e-06	3.5848e-06	304.82	60.813	2.9013e-06	6.8199e-06	149.29	70.285	25.621	11.103	5.018e-06	35.769	0.01975	0.059529	0.016651	257.11	0.00050988	0.00068103	402.93	89.906	0.00050006	0.00067967	199.27	91.02	47.436	17.048	0.00057555	45.205	205.928	176.165	198.396	132.542	175.521	303.116	132.645	137.456	241.628	357.180	136.182	139.757	140.540	145.080	339.014	142.760	-8191	255	
15884.722	1	1	0	0	0.085509	0.10424	0.17947	0.095507	0.1977	0.353	0.26854	0.20247	0.23212	0.15933	0.16223	0.045131	0.17128	0.17354	0.23597	0.18226	-2.2417	-2.9062	-2.4708	-2.8187	-2.6063	-2.7229	-2.9521	-2.8063	-2.6271	-2.8271	-2.6542	-3.0146	-2.6562	-2.4708	-2.9333	-2.7104	255.936	210.171	371.534	161.244	256.434	380.337	155.884	428.030	384.822	354.798	362.628	358.501	379.242	364.482	204.205	364.865	0.00032351	0.0011284	0.00033027	162.75	3.9904e-06	6.8431e-06	309.45	60.768	3.3167e-06	3.3278e-06	150.99	70.558	25.444	11.023	3.5777e-06	35.998	0.019746	0.059763	0.01673	256.44	0.00051145	0.00068347	404.71	89.641	0.00049871	0.00067608	199.59	90.757	46.913	16.907	0.00056421	45.039	215.783	122.795	392.805	132.741	451.369	394.559	132.645	137.363	428.091	221.105	135.908	139.865	140.285	145.293	362.584	143.024	-8191	255	
15884.818	1	1	0	0	0.068016	0.1652	0.2971	0.16321	0.17976	0.41427	0.058648	0.17632	0.072115	0.066239	0.16172	0.28673	0.19111	0.02951	0.17354	0.14739	-2.3104	-2.7583	-2.5771	-2.8521	-2.8229	-2.5479	-2.9583	-2.6312	-2.6813	-2.8979	-2.6729	-2.675	-2.5917	-2.6208	-2.8917	-2.8438	212.205	402.389	348.244	340.220	156.995	239.582	466.763	204.183	200.087	347.059	398.744	457.320	382.536	389.327	252.386	151.032	0.00029757	0.00054635	0.00015988	161.25	2.3049e-06	6.7028e-06	309.5	60.598	9.1337e-06	3.1891e-06	151.48	70.479	25.536	11.082	7.5855e-06	35.846	0.019389	0.058657	0.016524	254.59	0.00050338	0.000676	406.41	89.79	0.00050045	0.00068572	201.12	91.507	47.794	17.12	0.0005875	45.219	221.400	150.126	143.309	132.532	156.728	313.709	132.530	137.243	250.956	344.947	135.943	139.940	140.321	145.481	279.708	143.366	-8191	255	
15884.914	1	1	0	0	0.10293	0.11157	0.23626	0.14553	0.18141	0.10709	0.26411	0.16446	0.094743	0.14486	0.16473	0.21881	0.21896	0.19527	0.13198	0.21693	-2.2167	-2.8792	-2.7313	-2.5875	-2.65	-2.4875	-3.0021	-2.6333	-2.3667	-2.9229	-2.7292	-2.8208	-2.9688	-2.525	-2.875	-2.8021	119.899	287.990	436.185	443.020	181.631	423.472	386.334	169.583	234.176	404.095	310.812	191.321	306.597	335.791	402.266	452.626	0.00035666	0.0012639	0.00023165	162.13	4.1405e-06	2.5756e-06	308.12	59.983	1.1042e-06	1.0496e-06	149.88	70.182	25.601	10.962	3.3142e-06	35.249	0.020208	0.061121	0.017082	256.93	0.00051871	0.00069522	405.93	90	0.00050563	0.00069581	200.07	91.094	47.86	17.056	0.00058878	44.863	206.153	479.250	157.089	132.930	268.349	286.102	132.825	137.238	248.929	221.628	135.922	139.852	140.053	144.888	136.295	143.342	-8191	255	
15885.010	1	1	0	0	0.088433	0.16139	0.26142	0.36141	0.10288	0.13074	0.2326	0.13827	0.078314	0.34624	0.18587	0.11827	0.09042	0.02466	0.1376	0.18739	-2.0875	-2.8875	-2.7708	-2.5229	-2.7313	-2.5208	-2.9375	-2.6125	-2.6583	-2.8625	-2.7354	-2.5542	-2.6458	-2.2562	-2.7417	-2.6604	340.696	233.819	248.338	265.598	406.842	422.109	286.398	477.259	206.962	145.903	194.710	359.750	172.654	414.364	465.202	369.167	0.0003567	0.00057134	0.00020266	161.36	4.1585e-06	3.5021e-06	305.63	59.859	2.7059e-06	1.0817e-05	149.82	70.529	25.753	11.014	4.7925e-06	35.856	0.020223	0.061416	0.017039	256.73	0.00052095	0.00070002	405.67	90.055	0.00051381	0.00070339	200.84	91.456	47.998	17.145	0.00059143	45.266	204.518	259.926	249.970	132.353	335.388	237.008	132.538	137.218	336.967	334.621	135.969	140.011	140.606	144.829	366.633	143.315	-8191	255	
15885.129	1	1	0	0	0.17054	0.10088	0.075957	0.18703	0.16626	0.135	0.15049	0.20481	0.071065	0.086653	0.16939	0.12191	0.13565	0.26133	0.15952	0.05285	-2.2042	-2.7229	-2.6375	-2.5542	-2.8354	-2.6	-3.0396	-2.7875	-2.4792	-2.6562	-2.8521	-2.5687	-2.7917	-2.6396	-2.7104	-2.9417	388.549	126.515	159.943	261.101	189.658	440.112	211.629	256.523	476.216	292.249	127.695	433.784	256.401	463.107	340.506	358.940	0.00019011	0.0011126	0.00031919	160.42	3.0192e-06	1.0605e-05	307.45	60.199	2.6553e-06	9.2149e-06	150.95	70.398	25.523	11.009	6.0038e-06	35.8	0.020527	0.062483	0.017388	258.66	0.00053518	0.00071322	406.53	89.962	0.00051293	0.0006959	200.28	91.001	47.491	16.992	0.00057461	45.172	212.993	239.841	230.340	132.829	281.931	280.844	132.494	137.026	410.118	346.427	135.736	139.896	140.289	144.519	367.725	142.934	-8191	255	
15885.201	1	1	0	0	0.26185	0.034307	0.25116	0.074194	0.1691	0.18705	0.19695	0.26963	0.011762	0.097369	0.14487	0.20338	0.094683	0.31369	0.2126	0.39828	-2.1604	-2.8708	-2.6688	-2.5792	-2.7479	-2.6708	-2.5979	-2.8125	-2.6354	-2.8042	-2.7042	-2.6292	-2.8	-2.7021	-2.7042	-2.8917	295.348	350.719	125.867	363.216	219.636	224.423	167.848	409.817	303.556	344.047	460.140	456.081	324.492	404.460	386.068	462.254	0.00032509	0.00045005	0.00010764	161.6	9.5414e-06	4.4737e-06	307.19	60.496	3.5584e-06	1.0598e-05	150.49	70.95	25.594	11.038	5.3176e-06	35.888	0.020005	0.060362	0.016802	255.69	0.00051752	0.00068732	404.82	89.521	0.00050146	0.00067856	200.28	91.142	47.347	16.932	0.00056897	45.193	206.753	258.245	413.202	133.027	377.710	153.641	132.526	137.332	313.783	210.426	136.058	139.600	140.843	144.711	269.579	143.408	-8191	255	
15885.297	1	1	0	0	0.20967	0.12474	0.28607	0.084625	0.13035	0.19285	0.16634	0.229	0.19266	0.1517	0.052356	0.12356	0.15691	0.10058	0.052878	0.25364	-2.1333	-2.8	-2.5083	-2.5396	-3.0792	-2.7604	-2.8292	-2.8438	-2.5563	-2.7854	-2.7479	-2.5979	-2.9104	-2.7125	-2.7125	-3.0438	379.314	350.081	184.042	234.588	337.145	307.189	357.892	371.648	203.692	348.917	122.631	213.143	457.619	137.173	134.858	412.366	0.00037475	0.00050052	0.00016126	161.15	3.9345e-06	7.7336e-06	304.71	59.517	5.636e-06	5.9735e-06	149.2	69.55	25.202	10.965	3.385e-06	35.774	0.019975	0.060538	0.016856	257.62	0.00053303	0.00070942	406.19	90.441	0.00052608	0.00071301	200.25	90.885	48.061	17.036	0.0005802	45.152	194.114	282.302	229.383	133.033	312.092	401.799	132.469	137.840	262.875	395.264	136.199	139.660	140.887	144.510	275.827	143.364	-8191	255	
15885.393	1	1	0	0	0.35158	0.070078	0.20147	0.23006	0.24578	0.26643	0.3066	0.096072	0.056819	0.16023	0.15217	0.054452	0.31093	0.041311	0.14106	0.077659	-2.1667	-2.7083	-2.7833	-2.65	-2.8979	-2.7938	-2.6604	-2.8708	-2.6208	-2.8771	-2.8667	-2.775	-2.8896	-2.6833	-2.55	-2.8542	149.586	310.216	265.457	151.100	386.806	385.228	325.130	137.644	269.660	234.142	315.640	265.059	290.552	246.964	286.846	165.222	0.00036657	0.0005949	0.00020442	161.81	7.1552e-06	1.1625e-05	306.8	60.072	6.6717e-06	2.9181e-06	150.21	70.666	25.478	11.015	6.451e-06	35.797	0.019953	0.059206	0.016358	253.95	0.000505	0.00066618	402.36	88.908	0.00049247	0.0006624	199.03	90.595	46.922	16.793	0.00055675	45.024	210.681	141.329	458.411	132.555	235.226	188.852	132.701	137.295	348.958	193.113	136.089	139.631	140.385	144.948	395.148	143.180	-8191	255	
15885.513	1	1	0	0	0.058167	0.10119	0.075648	0.27287	0.14555	0.065332	0.10735	0.10471	0.17863	0.12236	0.34565	0.15813	0.20679	0.127	0.024098	0.10009	-2.1688	-2.5542	-2.9396	-2.5104	-3.0896	-2.7854	-2.7375	-2.6333	-2.6813	-2.5979	-2.7917	-2.6792	-2.7062	-2.7125	-2.4604	-2.9083	393.162	441.654	200.032	285.712	255.317	237.645	322.984	211.837	397.412	354.606	378.642	371.040	448.559	340.053	320.730	128.388	0.00033514	0.00082097	0.00012288	160.5	5.3473e-06	1.6099e-05	310.96	60.487	7.2415e-06	4.774e-06	152.38	71.23	25.816	11.155	7.958e-06	36.163	0.01928	0.057549	0.01606	252.61	0.00049444	0.00065368	403.38	88.838	0.00048643	0.00066213	199.95	91.261	47.26	16.965	0.00056754	45.406	215.615	211.556	174.774	132.735	227.000	284.068	132.537	137.251	435.693	426.965	135.973	139.669	140.464	144.928	289.004	143.498	-8191	255	
15885.610	1	1	0	0	0.33775	0.16434	0.061769	0.045237	0.10015	0.10995	0.27587	0.12991	0.20235	0.13374	0.22971	0.22798	0.06594	0.14786	0.11769	0.16789	-2.0979	-2.5333	-2.8479	-2.5583	-2.7438	-2.7208	-2.6646	-2.8125	-2.7062	-2.8625	-2.8354	-2.7917	-2.8146	-2.8438	-2.6771	-2.8792	215.836	470.368	291.102	436.634	309.254	183.996	162.887	293.055	456.435	459.455	302.083	369.527	432.190	196.574	470.867	446.066	0.0003399	0.00064307	9.6608e-05	162.46	3.7152e-06	3.1354e-06	308.31	61.052	4.8647e-06	6.9312e-06	152.11	71.156	25.918	11.182	8.2651e-06	35.872	0.019628	0.058902	0.016532	255.86	0.00050446	0.00066625	404.76	89.85	0.00049036	0.00066663	201.1	91.648	47.458	16.977	0.00057251	45.24	225.913	342.035	188.384	132.907	295.297	453.479	132.646	137.422	212.149	326.874	136.065	139.913	140.167	145.090	137.510	143.154	-8191	255	
15885.706	1	1	0	0	0.16263	0.2109	0.19626	0.1233	0.30168	0.32731	0.18895	0.089907	0.16952	0.14625	0.22655	0.23463	0.047542	0.16393	0.18277	0.31791	-2.1063	-2.5979	-2.9229	-2.4375	-2.6417	-3.1667	-2.7167	-2.7917	-2.7979	-2.5646	-2.9	-2.4417	-2.6896	-2.8521	-2.5896	-2.7604	367.193	315.076	467.100	427.702	201.637	177.809	344.633	195.507	383.464	417.633	183.380	423.525	231.080	417.333	274.724	425.628	0.00035752	0.00024902	0.0001868	161.4	6.3715e-06	2.2568e-06	307.86	60.641	7.6904e-06	1.0557e-05	151.73	71.204	25.534	11.202	4.1083e-06	36.412	0.01959	0.058961	0.016617	255.05	0.00050289	0.00066747	403.27	89.16	0.00047986	0.0006494	199.27	90.867	46.295	16.812	0.00053952	45.163	202.999	319.212	434.629	132.502	149.701	184.982	132.553	136.804	321.478	167.650	135.924	139.516	141.213	144.882	429.058	143.187	-8191	255	
15885.802	1	1	0	0	0.076528	0.12925	0.33482	0.12035	0.031565	0.02865	0.12298	0.12376	0.14909	0.16861	0.051031	0.084012	0.076089	0.44875	0.04984	0.19703	-2.1937	-2.425	-2.8875	-2.5896	-2.6667	-2.8	-2.6312	-2.7938	-2.6417	-2.6333	-2.9229	-2.4042	-2.7708	-2.9875	-2.7896	-2.8229	344.486	344.086	276.517	459.234	424.047	352.490	343.252	408.347	333.803	336.206	419.293	122.319	133.269	322.762	162.050	408.764	0.00042043	0.00041851	0.00015417	160.02	3.8574e-06	1.2348e-05	308.17	60.148	2.2772e-06	1.0069e-05	152.56	70.804	25.935	11.245	4.0844e-06	36.404	0.018422	0.055777	0.015702	249.77	0.0004822	0.00064843	400.39	87.978	0.0004717	0.00064629	199.15	90.651	46.242	16.756	0.00054155	45.244	206.820	331.735	266.930	132.436	336.030	166.362	132.305	137.288	407.358	218.224	135.972	139.430	140.930	144.777	340.675	143.182	-8191	255	
15885.898	1	1	0	0	0.1489	0.134	0.066986	0.34699	0.2007	0.26538	0.049692	0.23342	0.24418	0.060377	0.025501	0.20008	0.083605	0.21589	0.28149	0.26392	-2.1854	-2.4896	-2.9583	-2.6208	-2.5542	-2.9396	-2.6	-2.8667	-2.9479	-2.7354	-3.0187	-2.8042	-2.5563	-2.7458	-2.5458	-2.7562	162.191	252.883	394.445	432.630	445.685	253.945	134.063	266.639	286.912	330.249	191.628	333.421	354.463	382.798	358.537	470.420	0.00039473	0.00081643	0.00030084	159.69	5.0408e-06	6.3165e-06	309.22	60.677	3.195e-06	5.2567e-06	152.25	71.562	25.555	11.056	9.8597e-06	36.317	0.01844	0.05576	0.015592	249.1	0.0004759	0.00063808	400.7	88.247	0.00047213	0.00064776	199.5	91.043	46.581	16.858	0.0005553	45.326	211.748	455.276	376.714	132.401	307.143	280.496	132.360	137.182	254.323	346.532	135.636	139.713	140.283	144.882	346.367	143.390	-8191	255	
15885.994	1	1	0	0	0.041235	0.094593	0.034419	0.4258	0.20432	0.093461	0.056067	0.15662	0.18458	0.14693	0.14641	0.31838	0.21832	0.17355	0.19629	0.20322	-2.3208	-2.4188	-2.8771	-2.7542	-2.5292	-3.0333	-2.5563	-2.6625	-2.7646	-2.6125	-2.9292	-2.675	-2.6667	-2.8729	-2.6396	-2.7313	350.162	378.957	197.302	443.637	444.193	358.446	333.583	409.259	412.594	414.882	138.203	385.852	167.432	450.814	383.066	325.096	0.00031372	0.00068718	0.00023763	160	4.762e-06	8.8663e-06	307.19	60.364	5.8558e-06	1.8034e-05	149.71	69.875	25.107	10.902	3.3779e-06	35.419	0.019056	0.057675	0.016067	250.55	0.00048881	0.00065483	401.91	88.216	0.00048061	0.00065888	197.59	89.67	46.299	16.633	0.00055787	44.404	213.048	140.032	384.115	132.218	266.867	326.141	132.684	137.384	244.259	292.646	135.994	139.718	140.786	144.555	285.275	143.306	-8191	255	
15886.090	1	1	0	0	0.21269	0.29541	0.092454	0.16504	0.082223	0.13431	0.078427	0.22263	0.08028	0.27815	0.26939	0.064501	0.15323	0.037396	0.23717	0.12259	-2.4979	-2.6188	-2.6792	-2.8833	-2.4479	-2.8937	-2.85	-2.6583	-2.8812	-2.7438	-2.8104	-2.7646	-2.6104	-2.9417	-2.8292	-2.8229	347.637	315.053	468.570	348.485	449.873	232.070	130.932	144.831	120.344	158.189	476.507	437.947	430.605	248.122	377.357	341.960	0.00030433	0.00067787	5.5582e-05	157.83	6.6634e-06	6.485e-06	301.82	59.558	2.8971e-06	8.8783e-06	148.67	69.042	24.785	10.714	3.6156e-06	34.949	0.019164	0.057899	0.016123	249.26	0.00049409	0.00066055	396.78	87.138	0.00048287	0.00065559	195.75	88.502	45.764	16.408	0.00055024	43.986	198.288	449.383	300.468	132.367	230.815	303.398	132.356	137.461	313.424	293.087	135.822	139.739	140.427	145.228	298.976	143.386	-8191	255	
15886.209	1	1	0	0	0.13684	0.076646	0.1552	0.13562	0.16512	0.19247	0.18259	0.20666	0.18837	0.078097	0.04989	0.1042	0.043589	0.096974	0.18776	0.068298	-2.425	-2.5771	-2.7396	-2.7375	-2.5521	-3.0229	-2.8354	-2.5083	-2.9396	-2.5187	-2.6542	-2.7438	-2.5979	-2.9417	-2.7333	-2.4813	442.440	134.632	448.216	252.385	474.472	411.127	363.574	148.117	209.360	428.574	415.789	207.063	429.767	147.258	260.877	421.833	0.00037251	0.00023893	4.2704e-05	159.14	4.0856e-06	8.4275e-06	304.17	58.365	6.487e-06	1.2079e-06	148.12	68.524	24.52	10.637	1.0264e-05	34.95	0.019309	0.058249	0.016218	250.5	0.00050588	0.00067909	400.98	87.896	0.00050523	0.00068543	197.44	89.214	46.554	16.52	0.00056489	44.075	211.078	355.441	414.130	131.957	301.621	248.651	132.764	137.704	202.551	222.834	136.005	139.842	140.926	144.702	202.497	143.442	-8191	255	
15886.305	1	1	0	0	0.16543	0.32635	0.089435	0.061295	0.10482	0.12006	0.24335	0.15693	0.16105	0.22341	0.21205	0.22779	0.19296	0.093252	0.054662	0.28575	-2.4292	-2.6792	-2.575	-2.85	-2.675	-2.8458	-2.5479	-2.5417	-2.7771	-2.6208	-2.8083	-3.0125	-2.6958	-2.8646	-2.6271	-2.6729	157.027	449.997	137.074	188.771	430.495	182.191	370.942	364.995	295.751	189.576	470.990	131.794	128.363	474.437	242.288	195.496	0.00037809	0.00081078	0.00020037	158.72	8.1395e-06	3.3969e-06	303.16	58.879	6.1772e-07	7.8773e-06	148.01	68.086	24.476	10.472	7.5013e-06	34.128	0.019725	0.059182	0.016412	251.9	0.00051123	0.00067751	399.47	87.978	0.00050168	0.00067962	196.38	88.513	46.279	16.321	0.00057061	43.501	211.807	249.185	269.071	132.671	409.376	364.945	132.397	136.639	224.167	380.539	136.465	139.672	140.640	144.886	263.322	143.373	-8191	255	
15886.402	1	1	0	0	0.11892	0.058017	0.16714	0.24187	0.17964	0.016023	0.037829	0.21647	0.18001	0.20501	0.086805	0.28674	0.29277	0.32422	0.21506	0.087541	-2.4125	-2.6479	-2.575	-2.7854	-2.6833	-2.9125	-2.5917	-2.4688	-2.8646	-2.6063	-2.7812	-2.95	-2.5938	-2.8146	-2.6667	-2.6437	320.072	208.018	352.003	148.193	410.860	342.384	157.176	452.532	189.600	335.955	451.728	226.147	168.645	474.092	128.528	409.911	0.00030172	0.0006677	0.00021202	155.3	5.7045e-06	9.4612e-06	296.54	57.189	4.111e-06	4.7566e-06	143.36	65.986	23.591	10.148	2.648e-06	33.466	0.020003	0.060692	0.016964	252.37	0.00053062	0.00070509	397.35	87.468	0.00052315	0.00070636	193.87	87.155	46.153	16.138	0.00058398	42.783	215.923	198.523	261.808	132.212	285.769	343.528	132.388	137.142	303.996	336.881	135.666	139.743	140.360	144.800	129.759	143.333	-8191	255	
15886.498	1	1	0	0	0.22605	0.041593	0.13774	0.1399	0.076233	0.112	0.17874	0.10951	0.068536	0.14899	0.26143	0.20002	0.11145	0.063594	0.037702	0.041772	-2.3667	-2.7042	-2.5625	-2.6896	-2.6354	-2.7812	-2.8833	-2.6625	-2.8458	-2.875	-2.6729	-2.7917	-2.5187	-2.6854	-2.9833	-2.6229	222.609	330.991	339.866	435.919	265.207	168.735	133.340	207.721	336.425	257.101	459.584	246.012	192.832	120.556	324.393	190.490	0.00039887	0.00044882	7.0821e-05	152.6	2.3325e-06	2.6021e-06	296.62	56.797	5.9224e-06	6.9584e-06	145.58	67.475	23.974	10.348	3.4521e-06	34.155	0.020226	0.060747	0.017076	251.37	0.00053002	0.0007019	396.6	87.166	0.00051175	0.00068944	194.28	87.939	46.139	16.236	0.00057765	43.455	194.461	286.133	176.247	132.731	285.587	346.049	132.489	136.991	120.463	332.603	135.866	139.750	141.072	145.049	285.354	143.144	-8191	255	
15886.594	1	1	0	0	0.22473	0.15575	0.37944	0.080632	0.18394	0.23115	0.2128	0.036858	0.057485	0.1955	0.34739	0.14669	0.090606	0.045875	0.067547	0.076985	-2.2229	-2.7521	-2.3229	-2.8875	-2.6312	-2.7938	-2.9417	-2.4354	-2.7313	-2.8563	-2.5333	-2.9083	-2.6167	-2.6937	-2.8812	-2.6875	381.402	222.287	320.186	337.774	180.126	168.549	434.247	287.558	279.811	405.136	168.790	408.261	122.967	443.007	277.461	366.610	0.00026746	0.00067187	0.00010589	156.13	4.0694e-06	1.172e-05	298.74	57.793	2.386e-06	7.3028e-06	145.99	67.798	24.103	10.488	4.6358e-06	34.647	0.020079	0.060501	0.017211	253.45	0.00053269	0.00071192	401.26	88.439	0.00052755	0.00071664	197.55	89.158	46.842	16.547	0.00058572	44.083	202.024	222.966	255.033	132.916	209.096	339.382	132.445	137.699	331.083	208.349	135.750	139.734	139.924	144.376	285.680	142.956	-8191	255	
15886.690	1	1	0	0	0.14978	0.38076	0.1566	0.16824	0.18279	0.16352	0.14405	0.10291	0.24286	0.31579	0.31621	0.065416	0.13592	0.20821	0.097036	0.55771	-2.2625	-2.7292	-2.5979	-2.7917	-2.6396	-2.8521	-2.7938	-2.7292	-2.8875	-2.8896	-2.675	-2.9896	-2.7479	-2.7583	-3.0542	-2.7188	138.558	329.393	391.173	342.171	178.031	278.085	251.533	352.745	285.439	391.715	390.804	434.776	263.691	447.980	418.375	332.110	0.00033405	0.001331	0.00017844	155.7	5.0013e-06	7.9106e-06	301.88	58.452	7.5321e-06	5.5062e-06	147.09	67.969	24.316	10.483	5.8477e-06	34.351	0.019846	0.059488	0.016694	249.58	0.00050221	0.00066576	397.09	86.572	0.00048409	0.00066041	194.93	88.094	45.738	16.273	0.00056802	43.57	216.115	321.996	140.234	132.623	256.401	241.980	132.341	137.593	316.947	309.916	136.195	139.782	140.312	145.023	336.101	143.248	-8191	255	
15886.811	1	1	0	0	0.15805	0.1029	0.21975	0.11108	0.16833	0.11645	0.16097	0.15568	0.19055	0.1287	0.23303	0.21404	0.11207	0.24923	0.33307	0.31343	-2.2896	-2.8229	-2.5792	-2.8104	-2.7062	-2.5646	-2.9333	-2.625	-2.7979	-2.8521	-2.5812	-2.7062	-2.7229	-2.6146	-2.8542	-2.7354	396.417	292.064	350.095	465.990	306.570	169.131	141.348	360.924	439.292	432.358	416.789	124.963	164.527	257.353	142.985	146.704	0.00036399	0.00062646	0.0002512	156.59	3.2014e-06	8.7527e-06	300.97	58.682	4.7072e-06	8.9568e-06	147.64	68.318	24.624	10.57	3.763e-06	34.893	0.019379	0.058874	0.016504	249.22	0.00049901	0.00066547	396.53	87.05	0.00048532	0.00066257	195.55	88.638	45.975	16.458	0.00056842	43.961	207.153	249.071	174.538	132.455	302.205	379.146	132.376	137.201	376.992	145.718	135.957	139.700	140.119	144.651	433.173	143.168	-8191	255	
15886.905	1	1	0	0	0.11431	0.30274	0.17281	0.15659	0.09917	0.24607	0.19037	0.24252	0.25148	0.2606	0.17917	0.15724	0.050335	0.13283	0.15356	0.34363	-2.4042	-2.8688	-2.7167	-2.8208	-2.7438	-2.6729	-2.9229	-2.7021	-2.6562	-2.8917	-2.5187	-2.7604	-2.7354	-2.5854	-2.8187	-2.5979	442.621	403.081	137.050	466.426	350.022	342.082	397.874	226.649	257.776	306.013	145.139	146.825	274.514	135.999	390.024	394.678	0.00029027	0.00074729	0.00010269	157.19	1.4242e-05	5.8846e-06	303.88	58.94	6.8282e-06	4.9598e-06	148.54	69.541	24.89	10.728	6.047e-06	35.203	0.019512	0.059402	0.016586	250.58	0.00050409	0.00067297	399.52	87.513	0.00048512	0.00066395	196.84	89.134	45.951	16.498	0.00056282	44.108	201.084	372.533	192.255	132.435	269.041	354.047	132.294	137.527	368.976	143.040	136.262	139.809	140.471	145.271	301.775	143.408	-8191	255	
15887.001	1	1	0	0	0.05551	0.026335	0.22614	0.15115	0.11562	0.25263	0.18665	0.19706	0.097368	0.29245	0.050193	0.12017	0.20678	0.26571	0.10862	0.1276	-2.2417	-2.8646	-2.5125	-2.6354	-2.8438	-2.5375	-2.8438	-2.5417	-2.5896	-2.8458	-2.7313	-2.7958	-2.8667	-2.7021	-2.9396	-2.7375	395.976	217.940	235.257	142.881	460.085	353.321	183.692	473.033	130.345	388.560	331.441	289.816	205.361	132.996	197.651	438.282	0.00029598	0.00059103	0.0002023	157.78	8.0574e-06	3.6358e-06	304.66	59.447	6.8652e-07	1.3473e-05	150.06	69.27	24.955	10.612	6.6002e-06	34.942	0.019382	0.058695	0.016288	249.33	0.00049746	0.00067118	400.48	87.905	0.00049017	0.00067172	198.05	89.522	46.658	16.616	0.00057674	44.282	216.417	147.898	154.563	132.631	267.079	344.461	132.591	137.305	181.482	244.501	135.896	139.801	140.614	144.825	211.933	143.412	-8191	255	
15887.075	1	1	0	0	0.053616	0.19562	0.11295	0.18151	0.19409	0.26143	0.13302	0.32776	0.071852	0.19875	0.12675	0.092761	0.13797	0.20331	0.26022	0.11975	-2.1771	-2.8104	-2.7667	-2.8063	-2.8979	-2.5146	-2.7458	-2.7875	-2.7104	-2.9833	-2.7104	-2.6958	-2.975	-2.7938	-2.9083	-2.7021	450.603	295.407	317.841	274.510	471.257	331.346	460.563	462.150	252.599	386.453	430.290	363.143	180.416	371.476	455.167	423.177	0.00031153	0.00078143	9.3261e-05	158.87	1.2334e-06	9.6054e-06	305.4	59.177	6.4338e-06	8.0593e-06	147.54	69.192	24.79	10.707	5.0747e-06	34.686	0.020014	0.060577	0.016753	252.76	0.00051756	0.00069349	402.17	88.47	0.00051018	0.00069519	197.84	89.597	47.146	16.666	0.00058135	44.151	218.610	131.900	341.894	132.729	171.381	246.459	132.409	137.481	214.900	440.791	136.148	139.661	139.942	145.382	324.681	143.079	-8191	255	
15887.193	1	1	0	0	0.19733	0.15779	0.17347	0.34796	0.16272	0.070712	0.29898	0.11248	0.13509	0.28012	0.12968	0.21976	0.21308	0.073906	0.19494	0.061465	-2.1188	-2.7229	-2.6792	-2.5917	-2.8333	-2.6917	-2.7792	-2.6833	-2.6229	-2.8542	-2.6083	-2.7729	-2.8333	-2.5187	-2.8583	-2.9917	162.681	194.514	339.968	310.184	313.831	223.919	273.431	458.372	434.985	420.499	458.304	314.381	379.258	430.641	425.635	242.538	0.00036533	0.0001215	0.00014058	159.25	1.148e-05	9.121e-06	303.41	59.202	6.4996e-06	8.6219e-06	148.5	68.959	24.786	10.683	4.7476e-06	34.917	0.020033	0.060051	0.016761	252.84	0.00051423	0.00068796	401.57	88.577	0.00050861	0.00069172	198.56	89.828	47.341	16.745	0.00059088	44.416	212.380	131.909	405.570	132.611	314.884	167.262	132.672	137.578	219.237	229.687	135.958	139.610	141.190	144.616	280.067	143.387	-8191	255	
15887.290	1	1	0	0	0.24395	0.15704	0.18233	0.18511	0.34208	0.0433	0.13065	0.25308	0.1442	0.1543	0.16152	0.047948	0.10976	0.17218	0.13546	0.13229	-2.1521	-2.9062	-2.6729	-2.5479	-2.7896	-2.7812	-2.775	-2.9542	-2.6896	-2.95	-2.7833	-2.5646	-2.7104	-2.6937	-2.825	-2.9104	175.471	161.227	428.748	348.211	444.311	316.092	384.197	141.096	154.993	294.211	368.846	412.737	463.321	315.350	149.791	444.203	0.00039031	0.00018793	0.0002993	156.78	1.1807e-05	5.8678e-06	303.85	59.278	8.0161e-06	1.1874e-05	148.55	69.643	24.976	10.622	2.5313e-06	34.79	0.020722	0.062618	0.017331	256.67	0.00054137	0.00071821	404.38	89.632	0.00052533	0.00070727	199.7	90.388	47.552	16.765	0.00059281	44.49	202.532	150.337	256.507	132.514	244.406	301.114	132.597	137.192	186.289	304.839	135.773	139.967	140.108	145.090	270.385	143.344	-8191	255	
15887.386	1	1	0	0	0.10422	0.1879	0.22	0.056307	0.060821	0.054319	0.030113	0.075191	0.16942	0.35291	0.10712	0.28648	0.031511	0.079137	0.025343	0.068305	-2.2375	-2.7521	-2.7458	-2.6375	-3.0521	-2.7271	-2.7687	-2.8042	-2.6708	-2.7229	-2.7208	-2.6063	-2.7146	-2.7146	-2.6854	-2.9646	293.358	226.117	438.499	386.157	338.758	414.758	326.248	380.155	291.363	332.610	309.273	379.605	457.672	467.643	180.676	208.521	0.00039123	0.00010202	0.00010341	159.32	3.6873e-06	8.3801e-06	304.54	59.302	6.6423e-06	9.7208e-06	147.02	68.983	24.746	10.469	4.672e-06	34.634	0.02064	0.06167	0.017174	255.93	0.00053111	0.00070362	404.37	89.31	0.00052003	0.000704	198.83	90.188	47.615	16.661	0.00059936	44.336	199.262	432.500	250.232	133.127	360.047	315.348	132.553	136.989	178.175	249.498	135.936	139.828	139.731	145.066	235.738	143.312	-8191	255	
15887.482	1	1	0	0	0.15607	0.092498	0.13298	0.2002	0.14996	0.15847	0.13581	0.11749	0.19492	0.14199	0.14435	0.25345	0.14767	0.13617	0.052575	0.095056	-2.2875	-2.8083	-2.7875	-2.2667	-2.8229	-2.7104	-2.7167	-2.7271	-2.6937	-2.5708	-2.8146	-2.575	-2.7604	-2.7	-2.6437	-3.0042	412.606	361.387	190.881	452.675	425.549	123.709	272.244	120.308	294.180	148.282	328.965	370.467	158.552	452.357	407.501	329.153	0.00027175	0.00058662	0.00013521	157.83	7.685e-06	5.1097e-06	302.5	58.661	4.108e-06	1.0628e-05	146.44	68.183	24.313	10.391	3.5346e-06	34.519	0.020786	0.06261	0.017551	257.45	0.00054357	0.0007215	404.73	89.466	0.00053454	0.00072074	198.58	89.747	47.709	16.673	0.00060495	44.215	231.323	229.769	329.238	133.259	401.991	210.251	132.443	136.568	288.876	308.171	135.956	139.521	140.549	144.968	216.964	143.254	-8191	255	
15887.603	1	1	0	0	0.11218	0.10179	0.063682	0.30117	0.1835	0.1917	0.062726	0.086477	0.14623	0.11944	0.13869	0.27267	0.13994	0.1757	0.091704	0.22955	-2.2083	-2.6125	-2.6729	-2.8063	-2.8396	-2.7062	-2.6083	-2.8812	-2.5208	-2.8396	-3.025	-2.5312	-2.8583	-2.7667	-2.5417	-3.0021	292.824	436.250	223.617	165.374	433.399	285.849	380.157	227.325	157.148	408.360	400.413	365.658	219.327	317.536	406.218	417.005	0.00034163	0.00024828	0.00021931	157.96	4.585e-06	1.4304e-05	301.87	58.924	4.5419e-06	4.4157e-06	148.39	68.891	24.886	10.525	1.6681e-05	34.622	0.020677	0.062325	0.017441	256.72	0.00053615	0.000712	404.29	89.487	0.00052319	0.00071204	199.33	89.937	47.447	16.685	0.000598	44.313	211.894	441.328	183.026	132.130	257.284	293.429	132.365	137.629	242.303	298.364	135.950	139.445	140.338	144.349	244.478	143.159	-8191	255	
15887.674	1	1	0	0	0.2339	0.13838	0.090225	0.22452	0.26009	0.24441	0.36673	0.18002	0.058595	0.13206	0.1376	0.17885	0.11246	0.065121	0.21743	0.12046	-2.2396	-2.625	-2.95	-2.5479	-2.95	-2.8187	-2.6312	-2.8729	-2.7375	-2.6312	-3.15	-2.575	-2.7542	-2.8292	-2.5083	-2.8521	358.595	335.717	409.020	417.838	236.024	143.182	425.096	314.301	201.633	425.881	373.440	239.740	352.876	157.630	225.627	413.061	0.0003348	0.00045583	4.1645e-05	158.98	2.2459e-06	9.6677e-06	307.51	59.844	6.7481e-06	3.1516e-06	149.25	69.786	25.072	10.789	5.3626e-06	35.52	0.020407	0.061652	0.017333	256.49	0.00052903	0.00070503	406.19	89.35	0.00050601	0.00068457	199.24	90.106	46.351	16.512	0.00055414	44.461	214.846	449.054	423.983	132.661	440.660	205.791	132.523	137.194	234.858	237.471	135.779	139.893	139.891	144.806	121.194	143.208	-8191	255	
15887.770	1	1	0	0	0.26702	0.40365	0.042922	0.12636	0.14051	0.11803	0.115	0.073045	0.3282	0.068394	0.14031	0.14021	0.24064	0.10792	0.2745	0.15479	-2.3438	-2.6021	-2.8854	-2.6917	-2.75	-2.8646	-2.6125	-2.8458	-2.7104	-2.7812	-2.8792	-2.7604	-2.9062	-2.9813	-2.8458	-2.7667	307.618	430.587	434.375	239.600	313.160	438.250	403.364	263.287	369.829	465.229	172.573	477.574	380.972	249.247	212.535	425.463	0.00028468	0.00079491	0.00019725	160.82	5.8056e-06	6.7486e-06	309.16	59.568	5.0423e-06	6.0902e-06	149.41	69.863	25.064	10.733	4.988e-06	35.417	0.018883	0.057363	0.016091	251.05	0.00049135	0.00065767	402.54	87.994	0.00048094	0.00065932	198.6	89.839	46.392	16.533	0.00055909	44.372	205.590	173.825	160.682	132.682	196.439	141.634	132.709	137.394	321.435	197.189	136.166	139.780	140.533	144.822	298.110	143.274	-8191	255	
15887.891	1	1	0	0	0.22588	0.15854	0.19907	0.20857	0.089117	0.053739	0.16492	0.23588	0.04343	0.20684	0.029399	0.022575	0.12366	0.33075	0.16703	0.059398	-2.375	-2.6542	-2.7979	-2.7687	-2.8792	-3.0083	-2.6688	-2.9437	-2.925	-2.6417	-3.0479	-2.7583	-2.6229	-2.8292	-2.5812	-2.7938	475.497	313.974	150.897	321.223	191.956	283.264	233.749	326.960	213.649	212.039	225.274	271.133	333.793	362.592	416.801	197.191	0.0003528	0.00095673	7.8769e-05	159.43	5.8954e-06	5.5711e-06	305.08	59.408	3.9305e-06	2.0695e-06	149	69.425	25.036	10.667	3.5414e-06	35.162	0.019256	0.058289	0.016359	251.01	0.00049852	0.00067035	400.1	87.879	0.00049219	0.00067018	197.66	89.577	46.318	16.537	0.00055982	44.341	205.076	256.433	194.197	131.829	246.254	379.442	132.350	137.144	187.389	247.991	135.416	139.824	140.172	145.062	458.479	143.340	-8191	255	
15887.985	1	1	0	0	0.037452	0.26297	0.31357	0.12636	0.12738	0.2277	0.12081	0.16445	0.21001	0.38201	0.13556	0.053781	0.10283	0.10805	0.27051	0.26956	-2.4542	-2.4083	-2.7729	-2.6625	-2.6479	-2.9604	-2.6917	-2.9375	-2.8229	-2.5771	-2.9042	-2.7417	-2.525	-3.0125	-2.6833	-2.8771	204.814	190.072	322.846	143.555	441.086	249.881	325.405	339.155	369.079	352.109	448.757	290.804	354.697	187.315	241.097	453.201	0.00034726	0.00087878	5.6825e-05	158.54	6.4089e-06	3.322e-06	307.08	59.879	5.3343e-06	2.1119e-06	149.37	69.831	24.825	10.678	5.4462e-06	35.525	0.019107	0.057863	0.016006	248.79	0.00048672	0.00065213	399.04	87.391	0.00047947	0.00065494	197.09	89.424	45.902	16.476	0.0005478	44.46	197.018	180.666	133.577	132.944	231.504	253.402	132.713	137.180	438.685	140.451	135.794	139.739	140.738	145.330	245.042	143.352	-8191	255	
15888.083	1	1	0	0	0.22931	0.12964	0.21604	0.19509	0.016795	0.14045	0.024244	0.075663	0.089867	0.12068	0.12479	0.08019	0.22186	0.23642	0.48433	0.20241	-2.2687	-2.3833	-2.8479	-2.7708	-2.5479	-3.0604	-2.7146	-2.725	-2.7812	-2.5479	-3.1479	-2.7271	-2.4729	-2.9	-2.8208	-2.6958	342.209	351.078	332.007	392.803	315.025	303.540	387.441	216.410	211.569	146.526	335.388	382.489	289.201	425.863	188.452	155.169	0.00035577	0.00082312	0.00018732	159.59	8.5237e-06	7.4805e-07	307.37	59.944	5.5654e-06	4.0326e-06	150.29	70.141	25.291	10.812	1.0124e-05	35.688	0.019062	0.057306	0.015871	249.69	0.00049266	0.00066006	401.92	88.016	0.00048735	0.00066382	198.84	90.141	46.38	16.575	0.0005526	44.675	212.655	460.467	442.170	133.091	198.538	322.358	132.809	137.157	212.491	368.634	135.841	139.893	140.491	144.739	288.116	143.211	-8191	255	
15888.202	1	1	0	0	0.12127	0.02698	0.15896	0.072179	0.20673	0.27009	0.014674	0.11463	0.10112	0.12192	0.18743	0.24448	0.010774	0.15823	0.18303	0.20586	-2.4437	-2.7208	-2.7938	-2.7896	-2.5479	-2.875	-2.6958	-2.5375	-2.7854	-2.5187	-2.8688	-2.9417	-2.3187	-2.7083	-2.7604	-2.8312	477.559	425.066	241.559	437.702	179.314	199.908	239.614	439.455	464.194	339.387	188.984	423.347	436.267	158.791	200.373	411.367	0.00026654	0.00068529	0.00016381	158.78	6.9642e-06	5.0843e-06	304.15	59.635	3.3304e-06	5.6858e-06	149.46	69.775	25.019	10.695	4.5524e-06	35.395	0.019142	0.057772	0.016093	250.47	0.00050025	0.00066661	400.74	87.988	0.00048568	0.00065634	196.78	89.177	45.888	16.388	0.00054376	44.102	205.109	245.903	161.566	132.698	299.107	435.321	132.154	137.299	203.018	455.954	136.106	139.790	139.696	144.826	416.873	143.402	-8191	255	
15888.298	1	1	0	0	0.084413	0.23239	0.21991	0.19707	0.13626	0.20393	0.089759	0.082096	0.046899	0.21094	0.13021	0.2675	0.1087	0.13641	0.15381	0.12386	-2.4688	-2.4458	-2.7792	-2.7729	-2.7188	-3.0104	-2.7542	-2.5917	-2.9479	-2.55	-2.7542	-2.8604	-2.4604	-2.8667	-2.8167	-2.5563	374.299	458.681	302.881	465.293	131.711	429.299	264.283	336.856	228.966	283.045	360.085	441.728	301.481	139.761	475.942	325.741	0.00044373	0.0010402	0.00011967	156.85	5.2508e-06	7.5476e-06	305.55	59.432	4.8218e-06	1.1009e-06	150.66	70.029	25.13	10.787	3.9813e-06	35.703	0.018957	0.056707	0.015888	248.57	0.00049336	0.00065208	398.7	87.308	0.00047692	0.0006452	197.16	89.581	45.912	16.422	0.00054159	44.442	222.115	128.577	438.973	132.663	336.840	326.007	132.426	137.447	321.590	291.805	135.759	139.546	139.906	145.388	361.974	143.265	-8191	255	
15888.370	1	1	0	0	0.27884	0.24215	0.14022	0.12579	0.095008	0.29264	0.1547	0.13845	0.13548	0.14968	0.13064	0.1759	0.13695	0.086892	0.10263	0.14722	-2.5146	-2.6083	-2.6208	-2.9354	-2.6729	-2.7521	-2.7875	-2.7146	-3.0271	-2.8187	-2.6792	-2.9188	-2.4125	-2.875	-2.7708	-2.7562	306.610	340.120	259.551	161.186	270.660	469.800	146.222	464.153	349.157	203.712	376.929	441.354	362.414	466.667	296.788	378.500	0.00035395	0.00056895	0.0001131	158.82	3.8874e-06	9.4319e-06	306.5	60.028	7.9158e-06	8.9496e-06	151.63	70.718	25.364	10.972	2.1619e-06	35.809	0.018855	0.056649	0.015835	249.01	0.00049135	0.00064959	400.1	87.503	0.00047323	0.00063692	197.52	90.1	45.596	16.41	0.00052555	44.607	200.710	345.344	175.113	132.335	215.836	465.722	132.543	137.436	291.529	339.961	135.709	139.811	140.716	145.155	323.577	142.878	-8191	255	
15888.491	1	1	0	0	0.16119	0.24743	0.15631	0.14807	0.020678	0.11332	0.049083	0.12084	0.23064	0.070812	0.32279	0.077917	0.077693	0.17284	0.25384	0.20445	-2.4437	-2.6354	-2.6021	-2.8875	-2.6521	-2.8583	-2.6667	-2.6896	-2.8417	-2.6958	-2.7875	-2.9021	-2.5229	-2.7479	-2.9542	-2.7125	390.050	396.561	291.488	422.911	183.423	343.674	454.583	314.594	381.381	263.454	461.634	249.385	323.240	474.188	246.636	462.881	0.00035344	0.00047985	0.00015515	160.09	5.4875e-06	7.8109e-06	309.8	60.213	3.757e-06	1.1925e-05	152.04	71.197	25.394	10.962	5.8936e-06	35.986	0.018076	0.05395	0.015058	247.23	0.00046636	0.00061921	399.07	87.198	0.00046253	0.00062663	197.87	90.257	45.725	16.453	0.0005354	44.794	213.045	157.223	291.734	132.703	217.452	335.119	132.470	136.905	183.042	309.133	135.743	139.621	140.589	144.941	313.896	143.087	-8191	255	
15888.587	1	1	0	0	0.056965	0.12341	0.10326	0.24954	0.095439	0.14213	0.068418	0.28557	0.21205	0.11705	0.21057	0.058328	0.12364	0.11534	0.14866	0.081724	-2.4125	-2.5792	-2.5667	-3.0708	-2.8937	-2.6542	-2.825	-2.5792	-2.9667	-2.7562	-2.5104	-2.8333	-2.6063	-2.9188	-2.9708	-2.7438	147.310	143.172	315.326	234.238	456.484	158.695	387.783	441.742	270.859	182.772	407.488	358.222	125.456	260.571	312.155	326.912	0.00032116	0.00012218	0.00017478	160.99	2.1906e-06	7.0551e-06	307.77	60.212	2.4041e-06	1.8575e-06	151.21	70.744	25.587	11.013	8.9746e-06	35.964	0.018459	0.055564	0.015577	248.78	0.00047619	0.00062555	397.86	86.913	0.00045144	0.00060958	196.08	89.503	44.922	16.299	0.00051272	44.533	204.563	255.944	318.477	132.719	391.121	289.113	132.645	137.418	257.565	265.234	135.774	139.497	140.024	144.540	231.310	143.042	-8191	255	
15888.683	1	1	0	0	0.087511	0.10078	0.058074	0.21122	0.15514	0.26326	0.20877	0.15855	0.13044	0.17031	0.40448	0.073637	0.2495	0.040026	0.059322	0.14048	-2.2479	-2.7375	-2.5563	-2.9771	-2.7167	-2.6917	-2.9479	-2.6437	-2.6521	-2.8333	-2.7375	-3.1083	-2.7604	-2.6958	-2.9708	-2.6813	366.405	439.620	232.780	140.423	390.833	322.646	139.223	223.105	389.865	392.378	147.352	451.292	135.041	451.805	341.311	203.099	0.00036395	0.00054131	0.00014624	159.66	4.784e-06	1.3064e-06	308.92	60.608	7.1451e-06	3.6513e-06	152.88	71.472	25.496	11.085	9.1489e-06	36.134	0.017691	0.053374	0.015023	245.87	0.00045614	0.00060543	396.92	86.603	0.00043581	0.00059107	196.63	89.634	44.541	16.237	0.00049746	44.41	208.879	318.903	277.876	132.906	392.538	313.434	132.853	137.633	182.027	249.278	136.094	139.756	141.064	144.918	343.209	143.247	-8191	255	
15888.779	1	1	0	0	0.10556	0.30179	0.056233	0.052091	0.25693	0.30085	0.34515	0.21546	0.24812	0.20682	0.17063	0.14148	0.22868	0.24628	0.16233	0.051781	-2.3396	-2.7667	-2.6625	-2.85	-2.6292	-2.5771	-2.8479	-2.6792	-2.8333	-2.8792	-2.7708	-3.0333	-2.725	-2.7208	-2.9208	-2.6646	221.861	468.279	292.697	368.341	446.152	364.903	407.966	473.210	465.793	162.228	368.876	270.801	435.973	392.485	355.177	196.941	0.00041674	0.00069813	0.00022099	161.69	9.3864e-06	6.6072e-06	310.37	60.917	2.5334e-06	1.9896e-06	154.14	71.848	25.71	11.005	2.7219e-06	36.274	0.017194	0.052008	0.014648	244.36	0.00044732	0.00060024	397.1	86.757	0.00043661	0.0005929	197.6	90.116	44.84	16.322	0.00050176	44.725	216.432	339.109	335.264	132.546	329.727	152.596	132.668	136.987	285.096	218.188	136.010	139.732	140.562	144.294	309.671	143.178	-8191	255	
15888.900	1	1	0	0	0.039858	0.074619	0.26676	0.18273	0.079643	0.031526	0.20931	0.15556	0.21719	0.08671	0.12896	0.22666	0.13712	0.102	0.39175	0.058313	-2.4625	-2.8396	-2.5521	-2.9417	-2.6708	-2.5563	-2.925	-2.5104	-2.8458	-2.8271	-2.4042	-2.7479	-2.7313	-2.6292	-2.8875	-2.8792	141.458	345.001	249.937	176.612	370.076	299.464	318.028	397.551	283.357	448.684	189.147	175.108	169.173	194.377	436.426	259.701	0.0003039	0.0013606	0.00023236	159.57	3.4887e-06	1.1351e-05	311.04	60.945	4.7236e-06	1.1007e-05	152.51	71.851	25.382	10.97	2.0808e-06	35.945	0.017196	0.05224	0.014696	245.08	0.00045628	0.00061064	399.12	87.001	0.00045032	0.0006178	197.62	90.171	45.398	16.441	0.00052179	44.557	217.489	209.983	341.511	132.574	316.818	308.329	132.047	137.165	309.334	192.213	136.202	139.645	140.020	144.652	327.846	143.139	-8191	255	
15888.971	1	1	0	0	0.087537	0.22706	0.089509	0.22613	0.21065	0.26705	0.30187	0.10388	0.19907	0.068162	0.20027	0.1447	0.15531	0.30208	0.12392	0.13505	-2.3146	-2.8625	-2.5833	-2.725	-2.8854	-2.6646	-2.9271	-2.7417	-2.8	-3.0271	-2.6854	-2.8083	-2.7188	-2.4979	-2.8875	-2.7729	151.175	138.124	465.814	394.109	283.493	173.035	414.904	146.543	366.368	177.712	433.495	136.662	409.054	446.677	256.737	476.161	0.00036712	0.00035368	0.00010286	159.04	2.083e-06	3.9699e-06	307.38	59.927	7.9809e-06	1.4976e-05	151.59	70.564	25.243	10.952	9.1431e-06	35.974	0.018105	0.054968	0.015373	247.17	0.0004751	0.00063427	398.01	87.078	0.00046038	0.00062659	196.94	89.545	45.344	16.354	0.00051888	44.349	201.605	289.083	195.663	132.936	421.272	331.092	132.655	137.386	294.705	247.699	135.823	139.784	140.515	144.644	166.460	143.187	-8191	255	
15889.068	1	1	0	0	0.17562	0.2827	0.24971	0.16506	0.17251	0.038732	0.15071	0.17433	0.12507	0.13311	0.16918	0.2031	0.041008	0.14103	0.29742	0.17015	-2.2958	-2.75	-2.5333	-2.7562	-2.95	-2.6771	-3.0479	-2.7167	-2.5667	-3.1292	-2.6875	-2.6458	-2.8229	-2.4062	-2.7354	-2.7333	367.968	326.116	270.271	344.529	435.695	442.577	404.815	382.946	299.129	411.996	463.647	446.186	444.668	233.972	279.032	182.512	0.00035027	0.00062287	5.1084e-05	159.27	4.4195e-06	9.4457e-06	306.89	59.343	2.7067e-06	5.2588e-06	150.29	69.846	25.234	10.681	2.862e-06	35.462	0.017952	0.054422	0.01517	245.53	0.0004671	0.00062073	396.46	86.034	0.00045153	0.0006147	195.28	88.646	44.662	16.106	0.00051119	43.935	210.567	172.641	414.254	132.333	327.532	265.016	132.041	137.179	218.038	332.786	136.077	139.807	140.193	144.853	418.289	143.238	-8191	255	
15889.164	1	1	0	0	0.034304	0.071652	0.083939	0.099683	0.19225	0.081847	0.29129	0.19508	0.35179	0.25404	0.14584	0.20806	0.095053	0.29298	0.21152	0.10924	-2.1479	-2.8542	-2.5271	-2.6875	-2.7938	-2.6792	-2.7062	-2.7646	-2.6604	-2.8292	-2.7771	-2.9375	-2.9125	-2.5208	-2.8854	-2.9604	454.533	450.818	124.025	428.035	415.993	279.619	123.100	298.997	272.026	331.245	405.883	313.986	429.640	133.571	166.735	304.407	0.00034638	0.00040312	0.00019748	158.91	4.7686e-06	3.4772e-06	306.1	59.457	8.889e-06	9.3183e-06	149.03	69.421	24.734	10.549	7.7951e-06	35.138	0.017914	0.054605	0.015237	245.92	0.00047602	0.00063505	397.57	86.756	0.00046906	0.00064	195.96	89.025	45.522	16.202	0.000536	43.892	219.699	332.975	424.350	132.463	290.396	472.179	132.372	136.895	272.132	180.529	135.965	139.637	140.005	145.038	302.637	143.239	-8191	255	
15889.283	1	1	0	0	0.1443	0.13523	0.092339	0.061092	0.19388	0.15658	0.12954	0.15001	0.27586	0.098855	0.15878	0.11076	0.033556	0.13243	0.21645	0.093111	-2.2875	-2.7979	-2.4188	-2.6771	-2.9708	-2.5979	-2.9	-2.9042	-2.675	-3.0708	-2.7062	-2.6417	-2.775	-2.7021	-2.7979	-2.9729	257.303	370.744	129.912	204.062	387.026	404.996	139.670	370.141	328.311	395.260	425.313	381.073	240.374	201.718	345.528	211.984	0.00034592	0.00059826	7.8724e-05	159.21	6.3449e-06	2.6489e-06	304.05	58.831	1.5841e-06	8.798e-06	148.67	68.493	24.538	10.428	2.9659e-06	34.724	0.018534	0.055867	0.015516	246.42	0.00047552	0.00063336	394.55	85.847	0.00046115	0.00062069	192.81	87.412	44.312	15.787	0.00050758	43.01	214.682	189.510	286.383	132.347	239.308	449.479	132.535	137.337	231.695	336.790	135.950	139.775	141.024	144.546	164.276	143.426	-8191	255	
15889.379	1	1	0	0	0.2021	0.24608	0.19628	0.17615	0.22311	0.11663	0.21874	0.058983	0.1964	0.069926	0.18312	0.19766	0.067918	0.26828	0.20429	0.25359	-2.0958	-2.8479	-2.6354	-2.5229	-2.9896	-2.5521	-2.6125	-2.8125	-2.5125	-2.7354	-2.8542	-2.4729	-2.9667	-2.7021	-2.6312	-2.9083	179.389	317.264	231.936	307.714	454.016	310.783	295.536	383.605	256.990	290.892	208.275	429.309	237.910	402.238	336.303	399.085	0.00032139	6.8155e-05	7.3221e-05	157.31	7.0869e-06	6.682e-06	301.22	59.33	5.1666e-06	1.7134e-06	146.78	68.647	24.183	10.271	2.9599e-06	34.326	0.017509	0.052798	0.014771	242.34	0.0004563	0.00061075	390.79	85.252	0.00045457	0.00061829	192.39	87.095	44.364	15.741	0.00052179	42.841	219.683	413.108	247.200	132.737	284.494	320.045	132.292	136.923	378.087	230.584	135.801	139.917	140.603	145.305	290.349	143.295	-8191	255	
15889.475	1	1	0	0	0.18794	0.2214	0.22656	0.13355	0.17458	0.33434	0.17855	0.08891	0.039516	0.30676	0.17647	0.06424	0.07157	0.11668	0.26145	0.14361	-2.2562	-2.425	-2.7021	-2.2979	-2.9437	-2.7396	-2.6562	-2.8187	-2.6417	-2.7979	-2.9104	-2.5292	-2.9771	-2.5542	-2.5604	-3	269.003	176.029	237.730	251.131	463.044	440.280	397.232	322.683	242.814	466.827	218.751	467.412	416.629	309.531	120.561	161.188	0.00024913	8.7582e-05	0.00027714	157.09	3.7307e-06	5.9035e-06	302.43	58.572	5.5737e-06	4.6079e-06	146.95	68.664	24.567	10.5	8.1185e-06	34.824	0.01798	0.053837	0.014986	242.88	0.00045883	0.00060879	390.23	84.657	0.00044572	0.0006065	191.91	87.185	44.054	15.804	0.00051135	43.246	202.157	130.511	213.493	133.002	268.001	222.949	132.306	136.976	323.694	448.678	135.876	139.720	139.824	144.351	220.761	143.285	-8191	255	
15889.571	1	1	0	0	0.089351	0.033997	0.24761	0.1247	0.26958	0.29691	0.041116	0.10514	0.2156	0.19689	0.30808	0.056574	0.34688	0.12257	0.10424	0.078039	-2.0521	-2.5417	-2.6521	-2.35	-2.8896	-2.8042	-2.6562	-2.7625	-2.7333	-2.6813	-2.8146	-2.5896	-2.7687	-2.7313	-2.6854	-2.9292	276.705	416.884	208.719	220.884	130.673	304.634	224.338	278.390	444.329	287.981	259.462	150.175	345.817	151.080	446.575	369.522	0.00030422	0.00097075	1.4595e-05	157.46	7.0423e-06	8.858e-06	304.92	58.732	6.8283e-06	2.764e-06	149.31	68.985	24.969	10.585	3.4864e-06	34.945	0.017732	0.053305	0.014891	242.38	0.00045778	0.00061195	393.42	85.338	0.00044591	0.00060577	193.53	87.645	44.101	15.863	0.00051016	43.392	205.497	208.786	407.736	133.016	223.372	191.517	132.485	137.658	379.465	158.912	135.758	140.098	140.742	144.951	261.432	143.236	-8191	255	
15889.667	1	1	0	0	0.070651	0.23	0.11173	0.31695	0.068524	0.086986	0.11369	0.14034	0.19005	0.15309	0.25051	0.12863	0.16477	0.143	0.11878	0.24912	-2.1437	-2.825	-2.9667	-2.4375	-2.975	-2.6542	-2.7104	-2.7438	-2.7354	-2.6354	-2.9333	-2.5396	-2.8729	-2.7375	-2.6042	-3.0104	470.694	193.950	273.024	282.274	198.086	472.838	424.743	240.947	436.686	227.404	469.407	167.159	190.217	268.434	350.068	459.371	0.00034311	0.00032453	0.00010228	157.89	6.4212e-06	4.1584e-06	304.1	59.214	3.5628e-06	5.8878e-06	149.53	70.236	25.246	10.754	7.0173e-06	35.488	0.017604	0.052946	0.014873	242.11	0.00045453	0.00060593	391.42	85.09	0.00043889	0.0005919	193.14	88.048	44.033	15.922	0.00049276	43.65	221.949	453.163	407.547	132.935	220.709	236.544	132.792	136.930	289.531	352.122	136.054	139.697	139.999	145.506	246.027	143.477	-8191	255	
15889.763	1	1	0	0	0.12127	0.22575	0.15895	0.25908	0.10011	0.062015	0.096252	0.24138	0.41692	0.27176	0.11854	0.12101	0.15001	0.032473	0.2307	0.17029	-2.1896	-2.7354	-2.9083	-2.6688	-2.6917	-2.8458	-2.6292	-2.8583	-2.7083	-2.5542	-3.0312	-2.525	-2.8125	-2.8396	-2.7833	-2.8917	388.841	357.857	214.285	265.036	340.077	190.861	402.994	323.916	424.855	453.347	260.622	422.122	433.152	297.180	389.635	357.898	0.00026342	0.00017675	0.00018813	158.49	1.7127e-06	5.2112e-06	304.87	59.582	3.2811e-06	8.8029e-06	150.75	70.782	25.349	11.052	2.2613e-06	36.248	0.017013	0.05125	0.014399	240.88	0.00044316	0.00059115	391.64	85.434	0.00043973	0.0005982	194.93	89.208	44.605	16.202	0.00049955	44.45	208.051	435.841	474.618	132.936	260.528	283.966	132.569	137.231	228.163	271.540	135.745	139.773	140.241	144.765	354.973	143.128	-8191	255	
15889.884	1	1	0	0	0.2457	0.16162	0.092136	0.11383	0.16176	0.17437	0.076575	0.082854	0.19288	0.1818	0.057238	0.064985	0.23325	0.13725	0.046313	0.16508	-2.4208	-2.7167	-2.8271	-2.6604	-2.7521	-3.0062	-2.4917	-2.8042	-2.8125	-2.4521	-2.9104	-2.7396	-2.8688	-2.9083	-2.4875	-2.9104	339.573	285.668	201.489	444.443	334.092	178.610	418.026	476.910	153.112	184.496	431.475	429.999	173.339	184.483	459.138	360.303	0.00032826	0.00048503	0.00016966	160.69	4.7239e-06	4.023e-06	308.49	59.902	2.6774e-06	8.2505e-06	152.35	71.143	25.495	10.973	8.1101e-06	36.088	0.017097	0.051323	0.014375	241.34	0.00043876	0.00058675	393.59	85.57	0.00043054	0.00058598	195.62	89.23	44.374	16.175	0.0004885	44.453	204.277	287.672	153.081	132.660	458.242	309.615	132.334	136.866	222.001	202.661	135.971	139.710	140.147	144.554	296.867	143.067	-8191	255	
15889.980	1	1	0	0	0.24493	0.095288	0.27416	0.08439	0.078299	0.20379	0.21707	0.084959	0.16616	0.20951	0.22374	0.12976	0.27261	0.015094	0.15728	0.19967	-2.3688	-2.6542	-2.8583	-2.7313	-2.7521	-3.0229	-2.6917	-2.7833	-2.7708	-2.6354	-3.0104	-2.6104	-2.55	-2.8167	-2.6458	-2.7854	346.171	302.462	477.094	288.373	358.875	450.331	455.649	457.374	425.431	227.896	268.048	331.496	230.544	270.838	453.489	453.839	0.00030027	0.00081164	9.9298e-05	159.79	6.2013e-06	7.1715e-06	309.87	60.364	3.7173e-06	9.6154e-06	151.24	71.142	25.678	11.028	2.6363e-06	35.932	0.016909	0.051066	0.014314	241.43	0.00044226	0.00059162	395.3	86.064	0.00043878	0.00059919	195.77	89.359	44.818	16.243	0.00050156	44.379	194.370	186.879	155.206	132.795	196.750	156.788	132.396	137.278	279.728	231.796	135.709	139.697	139.809	144.350	207.999	142.943	-8191	255	
15890.074	1	1	0	0	0.28841	0.17266	0.21499	0.18046	0.15613	0.12026	0.042338	0.34665	0.10365	0.17313	0.11291	0.11721	0.24726	0.16769	0.29892	0.30988	-2.4104	-2.5958	-2.7979	-2.6458	-2.5208	-3.0021	-2.5521	-2.8792	-2.7604	-2.4833	-2.775	-2.7875	-2.4042	-2.8937	-2.5354	-2.8	196.153	341.278	390.058	234.779	234.381	369.656	297.871	377.230	444.798	248.720	370.396	388.229	213.004	475.575	207.565	130.034	0.00033865	0.0010497	4.1539e-05	159.35	2.4562e-06	5.2828e-06	307.12	60.342	1.5611e-06	8.8405e-06	152.79	72.318	25.543	11.057	5.8568e-06	36.574	0.017381	0.052374	0.01465	242.33	0.00044617	0.00059321	393.36	85.976	0.00042678	0.00057884	196.01	89.548	44.251	16.164	0.00047801	44.532	222.477	472.450	127.210	133.033	464.910	309.199	132.516	137.298	322.120	292.362	135.657	139.811	140.291	145.026	366.432	143.524	-8191	255	
15890.171	1	1	0	0	0.35304	0.16193	0.079657	0.23047	0.11328	0.22893	0.085484	0.030275	0.17282	0.044265	0.10763	0.058319	0.12772	0.18423	0.28207	0.018658	-2.3792	-2.5833	-2.6417	-2.7333	-2.7646	-3.1333	-2.7146	-2.6792	-2.7958	-2.6833	-2.8292	-2.9021	-2.575	-2.8646	-2.6771	-2.7625	424.139	243.196	334.261	437.257	359.722	302.594	205.385	182.754	477.456	242.837	243.054	289.732	134.809	155.021	310.865	354.659	0.00040421	5.2168e-05	0.00016028	160.85	6.2835e-06	9.1232e-06	310.34	60.52	3.923e-06	1.3693e-06	153.28	72.225	25.587	11.208	4.7999e-06	36.688	0.016709	0.050218	0.014149	241.24	0.00043528	0.00058194	394.38	85.804	0.00042336	0.00057559	195.79	89.854	44.213	16.267	0.00047954	44.739	203.658	473.784	426.945	132.602	178.200	471.605	132.665	136.928	251.928	218.316	135.589	139.817	139.838	144.891	267.945	143.006	-8191	255	
15890.267	1	1	0	0	0.11473	0.28807	0.072585	0.15966	0.22474	0.15477	0.087362	0.14175	0.20082	0.32156	0.062401	0.071006	0.22107	0.17659	0.30925	0.17934	-2.4375	-2.5896	-2.75	-2.725	-2.6896	-2.8812	-2.8146	-2.7208	-3.0229	-2.7542	-2.8021	-2.8708	-2.6146	-2.7958	-2.7062	-2.625	370.449	402.178	366.463	408.691	456.011	392.266	215.693	321.672	203.580	184.528	456.179	357.495	357.514	343.796	251.717	159.322	0.00031412	0.00043987	0.00030124	161.28	2.23e-06	7.9732e-06	310.68	60.625	4.2675e-06	6.2591e-06	154.15	72.239	25.794	11.202	5.9484e-06	36.696	0.016646	0.050349	0.014072	241.4	0.0004343	0.00057961	395.45	86.038	0.00042458	0.00057549	196.59	89.841	44.238	16.242	0.00047276	44.751	214.295	225.698	196.276	132.323	442.418	246.651	132.393	137.181	306.213	344.937	135.923	139.544	140.270	144.902	245.796	142.962	-8191	255	
15890.363	1	1	0	0	0.066193	0.089027	0.36777	0.11301	0.15831	0.25673	0.15789	0.28398	0.021953	0.13549	0.16095	0.21239	0.17993	0.1315	0.31025	0.27373	-2.3646	-2.6146	-2.7375	-2.7917	-2.5542	-2.9604	-2.7313	-2.5229	-2.9062	-2.7792	-2.7792	-2.875	-2.6375	-2.825	-2.7375	-2.7229	148.832	303.046	226.327	179.529	286.628	237.766	348.652	294.705	412.147	276.309	474.506	246.847	426.912	409.030	425.229	360.648	0.00033686	0.00095277	5.2669e-05	160.72	6.1463e-06	5.9202e-06	308.92	60.829	6.9589e-06	9.0833e-06	153.98	71.878	25.798	11.122	7.632e-06	36.641	0.016579	0.05032	0.014032	241.9	0.00043777	0.00058581	394.51	86.089	0.00042932	0.00058314	196.24	89.677	44.36	16.245	0.00047669	44.713	205.343	227.818	255.233	132.724	304.183	274.319	132.563	136.982	320.763	365.091	135.739	139.768	139.980	144.727	281.248	143.375	-8191	255	
15890.459	1	1	0	0	0.20575	0.095463	0.091765	0.23451	0.14349	0.051973	0.25301	0.22167	0.22571	0.10396	0.15004	0.072746	0.1166	0.1617	0.047052	0.25167	-2.3479	-2.7417	-2.6354	-2.9875	-2.6417	-2.8292	-2.8333	-2.5458	-3.0271	-2.6354	-2.7792	-2.9104	-2.6312	-2.7104	-2.7708	-2.6458	430.531	180.631	129.230	255.363	269.083	412.139	349.661	433.049	142.903	236.577	449.114	420.183	354.127	180.743	409.723	445.177	0.00032045	0.00053689	0.00044159	162.14	1.2225e-06	2.3901e-06	311.64	61.691	6.0349e-06	2.2732e-06	154.25	72.293	25.652	11.212	3.075e-06	36.66	0.01641	0.04923	0.013725	239.52	0.00042316	0.00056359	393.05	85.555	0.00041341	0.00056421	195.92	89.518	44.268	16.188	0.00047335	44.71	212.561	342.554	189.830	132.430	332.816	311.023	132.312	137.080	276.897	343.506	135.560	139.321	140.003	144.867	297.258	143.202	-8191	255	
#DATA ENDS
