BOXY.EXE: ISS Imagent and Oximeter Data Acquisition Program Version 0.80
Ascii Record File

#ACQ INFORMATION
2  Detector Channels 
16  External MUX Channels 
1  Auxiliary Channels 
5000  Waveform (CCF) Frequency (Hz)
1  Waveforms Skipped 
30  Waveforms Averaged 
1  Cycles Averaged 
16  Acquisitions per Waveform 
10.0806  Updata Rate (Hz) 

#FILE INFORMATION
TRUE -- External MUX Channel results are PARSED.
FALSE -- AC DC and Phase are NOT grouped.
TRUE -- Companion Program Settings File CREATED.
FALSE -- AC data not excluded
FALSE -- DC data not excluded
FALSE -- Phase data not excluded
FALSE -- Auxillary Chn. data not excluded
Tab delimiters

#CALIBRATION STATE
TRUE -- Waveform Calibration Values APPLIED.


#AUX CALIBRATION VALUES
Val Type	aux-1	

Term	1.0000e+00	
Factor	0.0000e+00	


#WF CALIBRATION VALUES
A = Detector Channel
Val Type	A-AC1	A-AC2	A-AC3	A-AC4	A-AC5	A-AC6	A-AC7	A-AC8	A-AC9	A-AC10	A-AC11	A-AC12	A-AC13	A-AC14	A-AC15	A-AC16	A-DC1	A-DC2	A-DC3	A-DC4	A-DC5	A-DC6	A-DC7	A-DC8	A-DC9	A-DC10	A-DC11	A-DC12	A-DC13	A-DC14	A-DC15	A-DC16	A-Ph1	A-Ph2	A-Ph3	A-Ph4	A-Ph5	A-Ph6	A-Ph7	A-Ph8	A-Ph9	A-Ph10	A-Ph11	A-Ph12	A-Ph13	A-Ph14	A-Ph15	A-Ph16	

Term	0.00000e+00	0.00000e+00	0.00000e+00	0.00000e+00	0.00000e+00	0.00000e+00	0.00000e+00	0.00000e+00	0.00000e+00	0.00000e+00	0.00000e+00	0.00000e+00	0.00000e+00	0.00000e+00	0.00000e+00	0.00000e+00	0.00000e+00	0.00000e+00	0.00000e+00	0.00000e+00	0.00000e+00	0.00000e+00	0.00000e+00	0.00000e+00	0.00000e+00	0.00000e+00	0.00000e+00	0.00000e+00	0.00000e+00	0.00000e+00	0.00000e+00	0.00000e+00	0.00000e+00	0.00000e+00	0.00000e+00	0.00000e+00	0.00000e+00	0.00000e+00	0.00000e+00	0.00000e+00	0.00000e+00	0.00000e+00	0.00000e+00	0.00000e+00	0.00000e+00	0.00000e+00	0.00000e+00	0.00000e+00	
Factor	1.00000e+00	1.00000e+00	1.00000e+00	1.00000e+00	1.00000e+00	1.00000e+00	1.00000e+00	1.00000e+00	1.00000e+00	1.00000e+00	1.00000e+00	1.00000e+00	1.00000e+00	1.00000e+00	1.00000e+00	1.00000e+00	1.00000e+00	1.00000e+00	1.00000e+00	1.00000e+00	1.00000e+00	1.00000e+00	1.00000e+00	1.00000e+00	1.00000e+00	1.00000e+00	1.00000e+00	1.00000e+00	1.00000e+00	1.00000e+00	1.00000e+00	1.00000e+00	X	X	X	X	X	X	X	X	X	X	X	X	X	X	X	X	

B = Detector Channel
Val Type	B-AC1	B-AC2	B-AC3	B-AC4	B-AC5	B-AC6	B-AC7	B-AC8	B-AC9	B-AC10	B-AC11	B-AC12	B-AC13	B-AC14	B-AC15	B-AC16	B-DC1	B-DC2	B-DC3	B-DC4	B-DC5	B-DC6	B-DC7	B-DC8	B-DC9	B-DC10	B-DC11	B-DC12	B-DC13	B-DC14	B-DC15	B-DC16	B-Ph1	B-Ph2	B-Ph3	B-Ph4	B-Ph5	B-Ph6	B-Ph7	B-Ph8	B-Ph9	B-Ph10	B-Ph11	B-Ph12	B-Ph13	B-Ph14	B-Ph15	B-Ph16	

Term	0.00000e+00	0.00000e+00	0.00000e+00	0.00000e+00	0.00000e+00	0.00000e+00	0.00000e+00	0.00000e+00	0.00000e+00	0.00000e+00	0.00000e+00	0.00000e+00	0.00000e+00	0.00000e+00	0.00000e+00	0.00000e+00	0.00000e+00	0.00000e+00	0.00000e+00	0.00000e+00	0.00000e+00	0.00000e+00	0.00000e+00	0.00000e+00	0.00000e+00	0.00000e+00	0.00000e+00	0.00000e+00	0.00000e+00	0.00000e+00	0.00000e+00	0.00000e+00	-2.01985e+02	-1.29378e+02	-1.28570e+02	-1.80487e+02	-8.05482e+01	-6.35979e+01	-1.57016e+02	-1.62015e+02	-9.10596e+01	-6.42508e+01	-1.71443e+02	-1.71615e+02	-1.83224e+02	-1.76661e+02	-7.99887e+01	-1.49508e+02	
Factor	5.02138e-05	2.16187e-04	5.75228e-05	2.02782e-01	2.24451e-06	2.39498e-06	2.11821e-01	6.23708e-02	2.36109e-06	2.12806e-06	1.02550e-01	4.02935e-02	4.67635e-02	1.15781e-02	2.14567e-06	1.65216e-02	1.48403e-05	2.08106e-05	5.80611e-06	1.01095e-01	2.10257e-07	2.31288e-07	9.93696e-02	3.12328e-02	2.09323e-07	2.30627e-07	4.98278e-02	1.95568e-02	2.33408e-02	5.84236e-03	2.17295e-07	8.10984e-03	X	X	X	X	X	X	X	X	X	X	X	X	X	X	X	X	



#DISTANCE SETTINGS
A = Detector Channel
A-1	A-2	A-3	A-4	A-5	A-6	A-7	A-8	A-9	A-10	A-11	A-12	A-13	A-14	A-15	A-16	

2.5000e+00	3.0000e+00	2.5000e+00	3.0000e+00	2.0000e+00	3.0000e+00	1.5000e+00	3.0000e+00	3.0000e+00	3.0000e+00	3.0000e+00	3.0000e+00	3.0000e+00	3.0000e+00	1.5000e+00	3.0000e+00	

B = Detector Channel
B-1	B-2	B-3	B-4	B-5	B-6	B-7	B-8	B-9	B-10	B-11	B-12	B-13	B-14	B-15	B-16	

1.0000e+01	1.0000e+01	1.0000e+01	1.4400e+00	1.0000e+01	1.0000e+01	1.5100e+00	1.9400e+00	1.0000e+01	1.0000e+01	1.9900e+00	2.4900e+00	2.4100e+00	2.9000e+00	1.0000e+01	2.9800e+00	




#DATA BEGINS
time	group	step	mark	flag	A-AC1	A-AC2	A-AC3	A-AC4	A-AC5	A-AC6	A-AC7	A-AC8	A-AC9	A-AC10	A-AC11	A-AC12	A-AC13	A-AC14	A-AC15	A-AC16	A-DC1	A-DC2	A-DC3	A-DC4	A-DC5	A-DC6	A-DC7	A-DC8	A-DC9	A-DC10	A-DC11	A-DC12	A-DC13	A-DC14	A-DC15	A-DC16	A-Ph1	A-Ph2	A-Ph3	A-Ph4	A-Ph5	A-Ph6	A-Ph7	A-Ph8	A-Ph9	A-Ph10	A-Ph11	A-Ph12	A-Ph13	A-Ph14	A-Ph15	A-Ph16	B-AC1	B-AC2	B-AC3	B-AC4	B-AC5	B-AC6	B-AC7	B-AC8	B-AC9	B-AC10	B-AC11	B-AC12	B-AC13	B-AC14	B-AC15	B-AC16	B-DC1	B-DC2	B-DC3	B-DC4	B-DC5	B-DC6	B-DC7	B-DC8	B-DC9	B-DC10	B-DC11	B-DC12	B-DC13	B-DC14	B-DC15	B-DC16	B-Ph1	B-Ph2	B-Ph3	B-Ph4	B-Ph5	B-Ph6	B-Ph7	B-Ph8	B-Ph9	B-Ph10	B-Ph11	B-Ph12	B-Ph13	B-Ph14	B-Ph15	B-Ph16	aux-1	digaux	

21452.145	1	1	0	256	0.23019	0.19094	0.1268	0.059628	0.16263	0.31656	0.43839	0.14929	0.12305	0.38732	0.028277	0.2955	0.16076	0.10857	0.044923	0.25197	-2.3688	-2.5521	-2.8187	-2.8063	-2.7438	-2.7208	-2.7083	-3.0083	-2.6375	-2.5125	-3.0625	-2.6208	-2.8604	-2.9083	-2.575	-2.9854	261.111	480.537	475.816	512.074	325.733	398.735	466.717	441.456	272.040	341.811	511.147	503.230	207.917	452.240	159.059	508.439	0.0013769	0.00033071	0.00017631	1466.3	6.882e-06	4.5586e-06	1443.1	406.2	1.0144e-05	5.6457e-06	455.56	154.89	136.63	47.221	5.2502e-06	56.919	0.00089837	0.00084703	0.00023418	1495.6	9.2539e-06	9.5893e-06	1472.2	416.27	9.3598e-06	9.3111e-06	467.55	158.55	139.75	48.765	9.0802e-06	59.143	481.742	261.226	261.878	168.074	275.879	308.671	167.571	172.124	272.863	310.580	171.775	175.835	176.131	181.237	280.311	180.381	-8191	255	
21452.217	1	1	0	0	0.029382	0.21788	0.26207	0.32556	0.10665	0.16651	0.13848	0.39136	0.15609	0.073453	0.15012	0.32735	0.37291	0.25271	0.22669	0.11108	-2.2062	-2.7333	-2.9792	-2.8021	-2.8021	-3.0958	-2.8479	-3.0167	-2.7771	-2.7583	-2.8354	-2.6729	-2.8854	-2.975	-2.8271	-2.9625	322.181	264.807	494.463	447.930	268.956	476.777	477.289	391.184	410.481	259.990	258.229	455.965	483.985	503.348	480.169	436.235	0.0014212	0.00072364	0.00022767	1468.3	7.4033e-06	4.1583e-06	1442.3	406.48	9.2911e-06	5.9608e-06	457.18	154.93	136.03	47.133	6.9915e-06	56.921	0.00090585	0.00085835	0.00023741	1497.4	9.2066e-06	9.3542e-06	1473.1	416.71	9.3432e-06	9.0881e-06	468.38	158.68	139.69	48.796	9.0589e-06	59.199	479.787	256.077	223.628	167.964	279.543	297.257	167.633	172.309	264.703	308.199	171.862	175.945	176.485	181.296	284.966	180.463	-8191	255	
21452.336	1	1	0	0	0.12336	0.1967	0.23184	0.21394	0.25681	0.072441	0.36917	0.12185	0.040701	0.103	0.081068	0.20815	0.16162	0.18288	0.29336	0.13509	-2.3458	-2.7146	-3.0104	-2.8812	-2.6667	-3.0771	-2.7375	-3.0396	-2.8625	-2.6625	-2.8	-2.7167	-2.6542	-2.9188	-2.4875	-2.9375	462.538	497.625	512.104	513.890	279.532	367.947	491.481	442.036	474.521	491.947	479.013	158.265	479.231	195.376	243.164	455.911	0.0013412	0.00043068	0.00016098	1464.4	9.0883e-06	4.9562e-06	1439.8	407.47	8.5521e-06	4.5034e-06	456.12	154.77	136.46	47.052	5.7125e-06	57.244	0.00089778	0.00084448	0.00023389	1496.3	8.9832e-06	9.0482e-06	1471.1	416.89	8.9276e-06	9.239e-06	467.55	158.46	139.5	48.737	8.91e-06	59.203	476.417	250.977	239.378	167.940	264.017	326.632	167.622	172.413	266.970	300.759	172.077	175.681	176.717	181.240	280.677	180.703	-8191	255	
21452.432	1	1	0	0	0.088978	0.19418	0.13025	0.21551	0.1718	0.3689	0.09189	0.18693	0.18196	0.24159	0.1484	0.27067	0.33389	0.098936	0.085599	0.20858	-2.4354	-2.6208	-2.7938	-2.825	-2.5271	-2.9208	-2.8063	-2.9437	-2.9042	-2.5229	-3.1937	-2.9854	-2.6813	-2.9125	-2.7062	-2.9562	292.633	323.458	176.024	462.109	234.224	317.473	376.186	444.942	500.256	412.436	345.737	193.950	459.494	241.937	288.394	487.504	0.0012924	0.00065172	8.7922e-05	1464.9	5.2998e-06	6.7705e-06	1438.7	406.57	7.4103e-06	4.2646e-06	456.26	155.08	135.84	47.078	7.3864e-06	57.018	0.00087499	0.00084239	0.00023558	1495.4	8.928e-06	9.119e-06	1471.7	416	8.9407e-06	9.0434e-06	467.65	158.52	139.35	48.684	9.1726e-06	59.159	479.822	252.396	242.597	167.832	274.175	321.042	167.506	172.306	268.904	316.755	171.968	175.829	176.595	181.411	278.094	180.618	-8191	255	
21452.527	1	1	0	0	0.1565	0.13897	0.035317	0.13089	0.26784	0.25646	0.16443	0.044284	0.19161	0.2134	0.14831	0.083201	0.13323	0.17282	0.059117	0.19071	-2.575	-2.6021	-2.975	-2.8354	-2.8583	-2.8604	-2.7354	-2.7687	-2.8438	-2.5687	-2.9625	-2.7979	-2.7271	-2.9229	-2.65	-2.8563	392.472	402.878	195.898	500.638	370.915	370.503	457.135	476.021	213.644	268.225	474.234	318.179	248.483	440.236	466.078	217.605	0.0013254	0.00058241	0.00015201	1467.9	5.2664e-06	5.7853e-06	1436.5	406.34	1.0352e-05	6.5378e-06	453.94	154.67	135.83	46.805	6.9826e-06	56.672	0.00085153	0.00082774	0.00022932	1495.4	8.7721e-06	9.0043e-06	1468.2	415.38	8.649e-06	9.0641e-06	466.26	157.93	138.94	48.431	8.9304e-06	58.808	477.944	251.922	245.122	167.892	292.297	306.010	167.692	172.389	278.169	299.980	171.961	175.700	176.702	181.397	273.224	180.502	-8191	255	
21452.623	1	1	0	0	0.10446	0.04223	0.035135	0.21988	0.10119	0.065981	0.12314	0.089995	0.15609	0.20753	0.19708	0.13093	0.15222	0.19377	0.26364	0.088217	-2.6146	-2.6208	-2.8458	-2.85	-2.6604	-2.9271	-2.7812	-2.5958	-2.9604	-2.3396	-2.825	-2.9479	-2.7354	-2.9854	-2.6458	-2.5979	168.605	316.960	358.852	492.975	450.766	425.600	241.570	479.487	202.601	290.562	467.918	456.796	226.517	514.032	487.192	192.057	0.0013352	0.00067908	0.00014227	1457.2	8.1576e-06	4.2933e-06	1432.2	405.41	9.4129e-06	4.362e-06	453.88	154.03	135.27	46.867	5.0451e-06	56.619	0.0008412	0.00082124	0.00023212	1490.8	8.8036e-06	9.0761e-06	1465.4	414.06	8.7737e-06	9.1112e-06	465.4	157.44	138.37	48.45	9.0386e-06	58.725	478.099	260.271	241.190	167.899	265.424	299.869	167.475	172.343	252.996	308.626	171.840	175.882	176.188	181.447	272.202	180.527	-8191	255	
21452.744	1	1	0	0	0.13104	0.041772	0.16257	0.29442	0.27036	0.095522	0.25226	0.19302	0.2939	0.33588	0.18032	0.15564	0.12785	0.054197	0.20383	0.26321	-2.6063	-2.4604	-2.775	-2.9583	-2.6333	-2.6875	-3.0396	-2.8542	-2.7646	-2.7479	-3.0563	-3.0687	-2.8375	-3.0083	-2.7854	-2.7354	465.630	456.311	325.764	471.142	293.953	401.621	234.984	398.375	216.154	266.889	423.583	320.938	426.746	425.710	240.457	440.251	0.0013368	0.00055975	0.00015256	1456.8	6.2433e-06	6.1204e-06	1442.5	404.42	9.7808e-06	6.6933e-06	453.46	154.01	135.69	46.986	5.644e-06	56.482	0.00085768	0.00082757	0.00023391	1490.6	8.7559e-06	9.1205e-06	1469.1	413.74	8.6747e-06	9.2188e-06	465.49	157.49	138.84	48.487	8.9367e-06	58.854	480.257	242.406	241.797	167.778	284.765	310.243	167.640	172.335	262.384	307.383	171.884	175.863	176.229	181.290	281.577	180.569	-8191	255	
21452.816	1	1	0	0	0.070499	0.15775	0.29366	0.30111	0.24549	0.2287	0.26619	0.14909	0.31454	0.22186	0.11275	0.10976	0.2826	0.07266	0.18872	0.12405	-2.4021	-2.7812	-2.5958	-3.0812	-2.6917	-2.8812	-2.8958	-2.7188	-3.0438	-2.7396	-2.8896	-3	-2.7062	-3.1104	-2.8083	-2.7188	373.144	427.918	336.505	456.919	417.829	352.555	419.088	485.072	172.637	409.565	260.882	362.091	476.068	222.775	316.628	358.799	0.0012398	0.00062382	0.00014205	1463.1	6.3834e-06	6.3258e-06	1435.1	403.88	1.0976e-05	5.5604e-06	452.61	153.91	135.48	46.821	6.3773e-06	56.569	0.00083789	0.00081708	0.00022947	1493	8.7348e-06	9.0805e-06	1468.1	413.51	8.7161e-06	9.154e-06	464.32	157.29	138.37	48.416	8.8204e-06	58.673	481.277	233.338	243.698	167.943	279.959	312.248	167.550	172.379	272.401	307.269	172.068	175.928	176.493	181.374	291.932	180.736	-8191	255	
21452.938	1	1	0	0	0.045258	0.17308	0.19427	0.30954	0.21992	0.14666	0.2115	0.24829	0.073731	0.069613	0.15121	0.14949	0.082613	0.064344	0.12211	0.15502	-2.5687	-2.6167	-2.7104	-2.9458	-2.6667	-3.0292	-2.8979	-2.7979	-2.975	-2.6813	-2.575	-2.9562	-2.8	-2.9313	-2.7938	-2.5854	352.725	321.323	245.924	459.552	403.978	204.774	442.113	412.650	272.513	447.665	406.633	447.883	436.308	164.679	321.652	365.520	0.0013497	0.00061281	0.00016151	1459.8	6.3256e-06	5.4582e-06	1438.1	402.81	1.0836e-05	3.8835e-06	451.89	153.85	135.4	46.628	6.3337e-06	56.459	0.00085573	0.0008195	0.00022689	1491	8.688e-06	8.9904e-06	1465.8	413.03	8.7087e-06	9.0329e-06	464.57	157.22	138.41	48.269	8.6425e-06	58.602	478.382	247.909	243.453	167.858	286.345	290.281	167.575	172.412	258.211	296.191	171.854	175.958	176.378	181.461	278.305	180.721	-8191	255	
21453.033	1	1	0	0	0.17015	0.20449	0.019494	0.37189	0.13574	0.19176	0.055805	0.12986	0.4077	0.07303	0.20218	0.12957	0.069297	0.36606	0.23791	0.14465	-2.3708	-2.625	-2.4396	-3.1688	-2.6125	-2.7208	-2.9854	-2.7875	-2.8292	-2.6958	-2.6375	-3.0833	-2.5875	-2.7313	-2.9854	-2.6292	271.601	207.151	288.684	434.272	270.210	283.813	356.753	351.573	222.725	271.851	496.054	453.004	466.533	488.317	431.510	435.911	0.0013691	0.00078914	0.00014787	1454	2.8435e-06	5.0544e-06	1428.9	402.17	9.8557e-06	4.1742e-06	450	153.49	134.96	46.556	4.5753e-06	56.488	0.00085854	0.00080801	0.00022171	1485.4	8.6056e-06	8.6608e-06	1458.6	411.38	8.7593e-06	8.6456e-06	461.81	156.86	137.77	48.11	8.4297e-06	58.48	479.167	260.970	253.045	168.077	279.447	300.538	167.618	172.293	266.801	308.222	172.044	175.830	176.355	181.531	258.200	180.509	-8191	255	
21453.129	1	1	0	0	0.1713	0.084915	0.12775	0.16591	0.082623	0.31334	0.10968	0.33693	0.18385	0.089907	0.29271	0.30661	0.23325	0.076032	0.30062	0.15946	-2.4333	-2.8104	-2.775	-3.1625	-2.6667	-2.7479	-3.0104	-2.8937	-2.8229	-2.7667	-2.7833	-2.8292	-2.9083	-2.7	-2.9688	-2.8063	272.767	478.332	163.416	154.338	198.454	333.447	431.231	461.677	383.521	264.256	442.391	504.777	180.169	175.740	292.427	163.106	0.0013752	0.00056787	0.00011733	1453.3	7.5437e-06	6.3329e-06	1426.9	400.78	8.5982e-06	7.6838e-06	449.24	152.97	134.54	46.489	7.5502e-06	56.053	0.00085419	0.00079982	0.00022696	1483	8.7804e-06	9.0434e-06	1456.2	410.35	8.5748e-06	8.673e-06	461.21	156.16	137.24	48.022	8.6216e-06	58.274	481.629	223.801	248.585	168.081	295.897	310.431	167.663	172.322	247.632	300.270	171.974	175.887	176.364	181.300	290.307	180.593	-8191	255	
21453.227	1	1	0	0	0.086565	0.073555	0.087769	0.029508	0.30796	0.077024	0.314	0.17502	0.13682	0.17404	0.19125	0.13641	0.06561	0.19911	0.40032	0.062822	-2.5146	-2.8583	-2.7667	-3.2021	-2.6562	-2.6583	-3.3042	-2.8625	-2.7625	-2.9104	-2.6167	-3.0458	-2.5354	-2.8729	-3.2	-2.7562	349.768	162.882	262.721	467.969	226.473	406.121	364.248	165.534	185.131	356.801	478.458	200.954	227.616	492.150	375.027	309.343	0.0013282	0.00053884	0.00015168	1449.2	8.0667e-06	7.1815e-06	1425.3	399.51	9.6941e-06	4.655e-06	448.95	152.35	134.01	46.466	7.4116e-06	55.908	0.00087063	0.00080212	0.00022187	1479.4	8.7524e-06	8.8208e-06	1454.2	408.95	9.0035e-06	8.5659e-06	460.48	155.83	137.01	47.997	8.5528e-06	58.267	477.935	223.721	251.700	168.073	279.691	309.806	167.583	172.442	263.994	301.525	172.017	175.984	176.433	181.542	270.233	180.759	-8191	255	
21453.346	1	1	0	0	0.075803	0.0756	0.13778	0.16257	0.29565	0.15917	0.1619	0.2119	0.1664	0.15916	0.062285	0.13096	0.32002	0.1917	0.13017	0.10255	-2.1792	-2.9479	-2.4104	-3.1917	-2.6646	-2.7562	-3.0604	-2.7542	-2.8	-2.8104	-2.7438	-2.8104	-2.8125	-2.6729	-2.8354	-2.7938	450.248	187.861	339.469	431.294	352.072	260.819	482.280	434.561	497.905	478.167	447.477	260.942	475.130	448.401	318.437	362.995	0.0013459	0.00022823	0.0001545	1449.3	9.0957e-06	5.1105e-06	1426.1	400.91	1.12e-05	5.9237e-06	449.97	152.48	134.18	46.292	3.8759e-06	56.092	0.00086244	0.00079362	0.00022407	1477.9	8.6989e-06	8.7514e-06	1456	409.78	8.6302e-06	8.5279e-06	460.74	156.01	137.11	48.009	8.4501e-06	58.168	478.927	245.833	250.494	167.975	274.099	321.976	167.611	172.281	264.114	293.722	171.926	175.950	176.569	181.367	271.172	180.443	-8191	255	
21453.416	1	1	0	0	0.13056	0.077522	0.16535	0.20806	0.16185	0.099809	0.13909	0.21598	0.24804	0.18061	0.22498	0.11132	0.16912	0.14175	0.23323	0.14496	-2.1813	-2.8792	-2.6188	-3.0729	-2.9458	-2.575	-3.025	-2.7708	-2.7854	-3.025	-2.75	-2.8583	-2.8146	-2.9708	-2.8625	-2.9292	412.118	233.041	376.541	464.182	216.461	397.545	433.873	426.365	473.003	385.659	497.647	507.249	421.034	496.115	402.185	497.261	0.0013302	0.00066873	0.00015429	1451.9	4.3904e-06	7.2852e-06	1422.6	400.26	7.0538e-06	3.2485e-06	450.2	152.91	133.92	46.356	5.487e-06	56.15	0.00083715	0.00079414	0.00022507	1479.6	8.4992e-06	8.8964e-06	1454.8	409.92	8.4636e-06	8.6072e-06	460.4	156.17	136.87	47.968	8.6379e-06	58.22	477.505	237.164	251.150	167.872	283.164	298.326	167.652	172.374	270.890	313.258	171.819	175.891	176.131	181.327	277.740	180.470	-8191	255	
21453.537	1	1	0	0	0.18416	0.090266	0.12313	0.26495	0.12735	0.025082	0.17094	0.21896	0.28768	0.11021	0.33517	0.15963	0.27544	0.076404	0.29639	0.12183	-2.3333	-2.8187	-2.6188	-2.9188	-2.8875	-2.6375	-3.0375	-2.7875	-2.7042	-3.0104	-2.6188	-3.0125	-2.9146	-2.7083	-3.1333	-2.9875	345.770	502.800	410.992	177.428	193.364	395.937	388.400	404.305	476.058	288.215	513.940	413.246	296.357	362.920	456.295	466.867	0.0013071	0.0004884	0.00010728	1448.5	7.9328e-06	6.1025e-06	1420.9	399.98	8.9255e-06	4.8868e-06	448.08	152.95	134.73	46.479	4.4738e-06	56.282	0.00082988	0.00077723	0.00022038	1480.1	8.4996e-06	8.6511e-06	1452.8	409.06	8.4654e-06	8.551e-06	460.51	155.84	136.98	47.874	8.7475e-06	58.194	477.635	238.824	246.603	168.192	297.534	293.014	167.727	172.370	263.364	306.965	171.949	175.988	176.314	181.277	277.280	180.528	-8191	255	
21453.633	1	1	0	0	0.17163	0.062982	0.090904	0.20251	0.11006	0.11218	0.12176	0.11273	0.31697	0.11725	0.26939	0.12412	0.11397	0.37879	0.29523	0.13575	-2.3917	-3.1146	-2.8438	-2.9542	-2.925	-2.6542	-3.0021	-3.0229	-2.8125	-2.9042	-2.8396	-2.8812	-2.8	-2.7917	-2.875	-2.8583	343.591	339.213	340.746	231.434	275.493	502.930	187.637	420.102	472.136	410.398	440.870	408.889	414.546	425.995	280.619	425.501	0.0013238	0.0005861	0.00016424	1445	7.5456e-06	3.7713e-06	1420.2	398.5	9.3432e-06	4.665e-06	448.45	152.41	133.91	46.054	4.2234e-06	55.975	0.00083155	0.00079262	0.00022061	1479.6	8.2964e-06	8.7894e-06	1452.9	408.21	8.6263e-06	8.7124e-06	459.26	155.76	136.67	47.829	8.6447e-06	58.134	476.416	265.414	233.749	168.133	277.119	300.162	167.573	172.363	255.846	323.126	171.907	175.670	176.496	181.304	270.849	180.461	-8191	255	
21453.729	1	1	0	0	0.21468	0.23382	0.097887	0.33054	0.071807	0.18238	0.44084	0.1042	0.32781	0.018635	0.1399	0.22418	0.17751	0.23258	0.17653	0.072685	-2.2396	-2.7854	-2.7646	-2.9021	-2.9292	-2.5917	-2.9542	-2.8625	-2.5396	-3.0083	-3.025	-2.7083	-2.7042	-2.7562	-2.7354	-2.7333	346.813	256.868	325.247	170.435	211.920	161.950	492.403	510.747	479.765	501.456	441.904	445.343	387.293	470.099	284.172	474.289	0.0012725	0.00061998	0.00015309	1446.1	7.8515e-06	5.9765e-06	1420.9	397.53	6.8929e-06	4.2511e-06	447.99	152.25	132.76	45.935	8.7979e-06	55.778	0.00083582	0.00079501	0.00022003	1477.1	8.3253e-06	8.6873e-06	1450.5	407.38	8.4231e-06	8.6711e-06	458.45	155.26	136.11	47.62	8.5415e-06	57.837	479.024	267.660	236.417	168.120	266.392	313.539	167.638	172.369	272.787	303.580	171.947	175.727	176.245	181.345	286.543	180.650	-8191	255	
21453.824	1	1	0	0	0.05045	0.26385	0.17367	0.13227	0.28776	0.052452	0.17603	0.30231	0.044403	0.16983	0.18589	0.14688	0.05743	0.31141	0.16496	0.2255	-2.2812	-2.6646	-2.8167	-2.8458	-3.0354	-2.6208	-3.0417	-2.9771	-2.6333	-2.9792	-3.0042	-2.7667	-2.8937	-2.9437	-2.7146	-2.9938	161.861	479.815	324.341	502.126	214.351	451.679	183.884	426.996	357.407	477.333	467.983	211.515	367.120	197.517	267.342	460.868	0.0013446	0.0006078	0.0001417	1442.1	7.4849e-06	6.3931e-06	1417.2	396.73	8.6755e-06	3.9488e-06	446.07	151.71	133.71	46.096	8.4435e-06	56.005	0.00082512	0.0007895	0.000219	1470.3	8.2035e-06	8.655e-06	1444.4	406.43	8.4985e-06	8.4981e-06	457.62	154.84	136.15	47.692	8.3808e-06	58.027	479.807	238.846	254.863	168.096	269.621	296.445	167.508	172.334	268.824	339.322	171.875	176.094	176.671	181.426	273.056	180.307	-8191	255	
21453.922	1	1	0	0	0.065373	0.15324	0.2141	0.21868	0.15191	0.072011	0.14526	0.20219	0.13521	0.19384	0.32399	0.14054	0.1432	0.16116	0.097791	0.26387	-2.3833	-2.8354	-2.8583	-2.5458	-2.8271	-2.6813	-2.8438	-3.0438	-2.8042	-2.7875	-2.775	-2.4458	-3.1125	-2.6896	-2.7125	-3.0521	322.968	464.825	265.685	166.281	356.536	488.260	453.152	506.559	234.291	173.518	440.630	170.493	484.225	500.972	416.212	168.418	0.0013286	0.00059396	0.00017255	1444.8	6.0704e-06	6.7107e-06	1422	397.89	7.3049e-06	5.861e-06	448.05	152.57	134.53	46.308	4.3757e-06	55.86	0.00082605	0.00079019	0.00020976	1473.1	8.0809e-06	8.6271e-06	1446.6	407.33	8.3175e-06	8.4424e-06	458.65	155.55	136.92	47.92	8.2522e-06	58.118	479.034	220.290	240.634	167.999	282.908	297.502	167.631	172.422	254.056	307.565	171.839	175.882	176.432	181.236	290.519	180.522	-8191	255	
21454.039	1	1	0	0	0.32762	0.20588	0.21009	0.29778	0.13061	0.097949	0.20994	0.46266	0.038478	0.28841	0.20327	0.22275	0.0067015	0.052713	0.2512	0.11847	-2.0875	-2.8417	-2.7938	-2.7542	-3.0062	-2.7917	-2.7792	-3.2146	-2.9042	-2.7792	-2.9833	-2.6521	-3.1021	-2.9479	-2.6771	-3.1271	280.825	212.082	333.481	508.070	264.601	389.564	455.918	457.613	358.921	433.831	162.628	510.289	197.289	165.888	174.363	496.402	0.0013158	0.00037453	0.00019579	1446.2	7.1225e-06	8.9127e-06	1412.4	399.07	9.556e-06	6.7027e-06	448.06	152.62	133.97	46.445	6.2028e-06	56.054	0.00081999	0.00075898	0.00020621	1474.6	8.1067e-06	8.1129e-06	1448.2	408.33	8.0703e-06	8.3309e-06	459.38	155.77	136.83	47.963	8.2043e-06	58.126	480.406	241.497	252.628	167.889	252.525	301.659	167.752	172.355	259.120	309.518	171.999	175.828	176.579	181.505	299.030	180.617	-8191	255	
21454.113	1	1	0	0	0.24827	0.055774	0.18326	0.1433	0.075128	0.11433	0.32512	0.35918	0.19129	0.066166	0.13705	0.045933	0.10694	0.15697	0.045774	0.31974	-2.2417	-2.8271	-3.0563	-2.9958	-2.8937	-2.7854	-2.8729	-3.1167	-2.7625	-2.7375	-3.0146	-2.8396	-3.0167	-2.8563	-2.7375	-2.9833	295.274	367.140	181.299	389.795	233.568	261.519	403.658	424.941	156.514	496.103	210.650	393.207	388.972	502.138	480.889	383.527	0.0012548	0.00071882	0.00013045	1444.7	8.448e-06	6.5923e-06	1421.7	399.46	8.5415e-06	4.9768e-06	447.89	152.23	133.83	46.556	5.7344e-06	56.236	0.00081078	0.00074498	0.00020105	1474.1	8.0029e-06	8.0537e-06	1448.4	408.59	8.1994e-06	8.1551e-06	460.19	155.76	136.82	47.977	7.9688e-06	58.228	477.538	253.972	248.745	168.050	280.180	308.964	167.676	172.347	241.234	289.652	171.926	175.969	176.303	181.450	273.086	180.550	-8191	255	
21454.207	1	1	0	0	0.3855	0.095583	0.2662	0.14954	0.15906	0.31939	0.19754	0.11472	0.14887	0.15315	0.2831	0.064433	0.019552	0.13049	0.17333	0.10953	-2.1937	-2.7021	-2.9479	-2.8292	-2.9604	-2.9938	-2.7271	-3.1271	-2.7542	-2.7771	-3.15	-2.8063	-2.9229	-3.0292	-2.5312	-3.0833	375.860	326.247	175.297	158.996	473.509	269.867	472.979	491.441	420.831	455.196	156.131	487.025	378.022	308.176	478.414	502.387	0.0013364	0.00049847	0.00011287	1447.4	4.253e-06	4.7277e-06	1417.1	399.73	8.0247e-06	4.7751e-06	448.16	152.12	133.54	46.208	5.0432e-06	55.99	0.00080169	0.0007115	0.0002005	1475.1	7.8123e-06	7.951e-06	1447.1	408.96	7.7825e-06	7.9686e-06	459.92	155.63	136.66	47.818	7.9136e-06	58.089	479.499	232.650	236.884	168.034	308.492	320.449	167.586	172.423	245.485	299.043	172.168	175.689	176.633	181.456	253.562	180.697	-8191	255	
21454.307	1	1	0	0	0.21491	0.25942	0.13007	0.33578	0.0048071	0.081255	0.10596	0.054037	0.1323	0.2574	0.1895	0.26411	0.12547	0.26253	0.29701	0.15754	-2.2771	-2.6292	-3.0083	-2.575	-2.8229	-3.0125	-2.8688	-3.0938	-2.8667	-2.6375	-2.9625	-2.8521	-2.8021	-2.8042	-2.7354	-3.0479	243.651	491.021	255.810	423.170	343.921	412.996	221.184	391.780	163.779	476.285	160.854	161.210	386.209	190.911	208.631	186.132	0.0013389	0.00046981	0.00012063	1437.7	6.2151e-06	8.3623e-06	1418.2	399.33	8.7329e-06	5.1081e-06	447.3	151.9	133.48	46.101	8.6559e-06	55.604	0.00079189	0.00072091	0.00020364	1469.6	7.9179e-06	7.9713e-06	1445.3	408.15	7.7402e-06	8.1349e-06	458.89	155.14	136.28	47.751	8.0286e-06	57.897	478.297	249.870	275.176	167.935	294.081	304.924	167.657	172.237	260.102	326.361	171.775	175.890	176.581	181.468	271.876	180.523	-8191	255	
21454.426	1	1	0	0	0.093066	0.081277	0.12471	0.06233	0.07454	0.13206	0.18526	0.31228	0.087322	0.16828	0.20389	0.088507	0.29024	0.044028	0.26815	0.32699	-2.4437	-2.7083	-2.8604	-2.8646	-2.8312	-2.9792	-2.8042	-2.8875	-2.7313	-2.5938	-2.8208	-2.8271	-2.7396	-2.9813	-2.5812	-2.9354	209.961	457.647	365.599	461.403	359.127	403.525	476.018	438.788	287.881	198.459	373.611	333.974	473.620	477.118	176.651	465.936	0.001297	0.0006536	0.00017825	1438.6	7.0905e-06	4.4358e-06	1416.3	398.77	9.6794e-06	4.677e-06	446.97	152.92	133.4	46.171	5.8548e-06	55.674	0.00078951	0.00073422	0.00020255	1468.6	7.8544e-06	7.9684e-06	1443.5	407.69	8.0585e-06	7.9797e-06	457.72	155.29	136.31	47.675	8.1744e-06	57.879	480.980	236.083	250.225	167.957	263.953	309.523	167.659	172.363	265.624	318.419	171.919	175.950	176.518	181.372	292.885	180.627	-8191	255	
21454.521	1	1	0	0	0.14193	0.24414	0.057322	0.078406	0.17301	0.069841	0.33934	0.18723	0.033856	0.24995	0.2227	0.17911	0.18615	0.098496	0.059939	0.18228	-2.4813	-2.2562	-2.9521	-2.7604	-2.6813	-2.9188	-2.9167	-2.9062	-2.8563	-2.6104	-3.1188	-2.9104	-2.5833	-2.9167	-2.7062	-2.8271	405.173	448.642	208.713	492.216	230.354	409.021	399.038	479.124	370.799	428.221	456.238	423.538	435.717	299.173	496.978	413.535	0.001341	0.0005635	0.00010757	1442.3	6.9326e-06	5.6244e-06	1414.6	398.58	9.6193e-06	7.1421e-06	445.07	152.16	133.02	45.984	6.3628e-06	55.48	0.0008033	0.00075352	0.00020508	1470.8	7.9403e-06	8.1173e-06	1444	407.52	7.9604e-06	8.2776e-06	458.34	155.19	136	47.644	8.207e-06	57.761	477.241	249.100	259.503	167.964	276.241	303.741	167.812	172.345	263.763	294.314	172.030	175.870	176.553	181.472	289.786	180.332	-8191	255	
21454.617	1	1	0	0	0.04844	0.092796	0.10975	0.15516	0.089118	0.088363	0.14032	0.17486	0.1629	0.0031859	0.18385	0.14836	0.21722	0.1913	0.18999	0.1572	-2.3354	-2.7188	-2.7938	-2.9583	-2.6042	-2.9521	-2.7896	-2.7604	-2.8625	-2.7271	-2.9917	-2.8146	-2.8021	-2.9854	-2.7146	-2.9354	324.488	422.968	253.136	505.565	382.707	289.452	406.237	457.376	378.225	301.800	471.227	492.575	190.558	434.489	405.106	422.505	0.0013169	0.00051446	0.00013541	1435.8	8.4021e-06	4.9143e-06	1408.2	397.99	1.0732e-05	5.695e-06	446.87	151.53	133.37	45.845	6.3702e-06	55.796	0.00078706	0.00073314	0.00020415	1466	7.9766e-06	8.0532e-06	1439	406.27	7.9534e-06	8.0325e-06	457.12	154.56	135.65	47.561	8.068e-06	57.773	477.061	237.210	246.837	167.881	295.645	346.687	167.596	172.371	246.979	319.333	171.965	175.997	176.448	181.232	263.172	180.412	-8191	255	
21454.713	1	1	0	0	0.12454	0.048783	0.18468	0.14492	0.12678	0.23127	0.26884	0.4002	0.27872	0.042655	0.13724	0.049579	0.049446	0.22267	0.072397	0.15894	-2.4688	-2.7021	-2.7792	-2.7625	-2.5438	-2.7479	-2.7979	-2.7354	-2.85	-2.6292	-2.9313	-2.9417	-2.5917	-2.9979	-2.9396	-2.8542	512.917	359.795	366.358	365.236	404.489	307.199	421.975	469.402	324.719	476.161	159.528	377.066	469.506	428.013	331.864	413.837	0.0013266	0.00071001	0.00019572	1434.7	5.8993e-06	7.636e-06	1413.6	398.21	1.0166e-05	3.3033e-06	446.25	151.53	133.77	46.161	3.0706e-06	55.683	0.00079043	0.00076436	0.00020844	1464.8	8.2491e-06	8.3948e-06	1441.9	406.61	8.1104e-06	8.3299e-06	457.54	154.82	136.33	47.7	7.9394e-06	57.88	480.174	243.677	233.095	168.039	273.988	321.984	167.711	172.350	271.407	310.838	171.923	175.722	176.671	181.369	282.991	180.580	-8191	255	
21454.811	1	1	0	0	0.047649	0.15084	0.11284	0.26265	0.11596	0.033431	0.21361	0.096929	0.19854	0.035262	0.12299	0.073827	0.36578	0.18288	0.19872	0.47094	-2.4542	-2.725	-2.6833	-3.0417	-2.6437	-2.9188	-2.9896	-2.8646	-2.9562	-2.8312	-2.8958	-3.1042	-2.6729	-2.9167	-2.8917	-2.7646	198.802	368.577	467.675	423.343	414.956	391.650	396.176	158.144	303.414	173.169	495.720	330.881	454.409	408.237	365.456	406.242	0.0013198	0.00059071	0.0001542	1441.9	6.311e-06	3.2384e-06	1419.3	398.63	1.1113e-05	4.6875e-06	446.56	151.62	133.14	46.283	7.3721e-06	56.038	0.00080874	0.00074502	0.00020716	1469.6	8.2456e-06	8.2642e-06	1444.6	407.37	8.0768e-06	8.4203e-06	457.66	155.2	136.25	47.75	8.0589e-06	57.98	478.551	252.951	246.111	167.895	274.412	312.857	167.748	172.321	269.882	291.437	171.824	175.840	176.378	181.322	300.685	180.553	-8191	255	
21454.906	1	1	0	0	0.14053	0.25975	0.027238	0.10579	0.13968	0.18931	0.12334	0.12811	0.12059	0.31644	0.16163	0.15281	0.090325	0.10832	0.12609	0.037241	-2.4708	-2.7417	-2.6917	-3.025	-2.6583	-2.8229	-2.9854	-2.7917	-2.9354	-2.6354	-2.775	-3.1063	-2.6854	-2.8021	-2.7583	-2.575	493.106	268.483	279.071	446.798	174.678	464.321	431.083	178.842	443.361	220.366	455.986	493.750	399.612	272.196	177.289	451.328	0.0013608	0.00062814	0.0001799	1440.2	7.4221e-06	5.3713e-06	1419.5	397.28	8.1792e-06	3.7522e-06	448.91	151.48	133.02	46.275	4.6044e-06	55.808	0.00080552	0.00075872	0.00020898	1468.5	7.8505e-06	8.1553e-06	1446.1	407.01	7.8767e-06	8.3823e-06	458.84	154.94	136.24	47.776	7.9987e-06	57.962	478.530	268.458	237.972	167.944	273.050	300.421	167.670	172.513	252.913	314.931	171.965	175.604	176.592	181.377	283.683	180.568	-8191	255	
21455.025	1	1	0	0	0.12324	0.16405	0.17415	0.1943	0.19291	0.26576	0.087801	0.25071	0.18156	0.50673	0.1911	0.11492	0.11863	0.15547	0.29049	0.17664	-2.4542	-2.7375	-2.6562	-2.9854	-2.5729	-2.9146	-2.8125	-2.8104	-3.1354	-2.8271	-2.7104	-2.9354	-2.725	-2.85	-3.0354	-2.5521	492.926	331.629	490.212	497.959	502.896	227.670	214.875	479.442	247.030	492.227	321.440	395.834	498.281	357.945	318.172	450.613	0.0012624	0.00046631	0.00018303	1436	5.6217e-06	6.5019e-06	1414.3	397.31	1.1299e-05	4.3832e-06	446.32	152.36	133.61	46.203	7.8735e-06	56.307	0.00080509	0.00074372	0.00020682	1468	7.8553e-06	8.1264e-06	1443	406.95	7.8147e-06	8.0859e-06	458.07	155.48	136.43	47.789	7.7212e-06	58.033	478.151	221.355	256.537	168.051	275.261	319.349	167.563	172.298	264.731	300.243	171.806	175.917	176.625	181.498	277.001	180.428	-8191	255	
21455.121	1	1	0	0	0.058824	0.055423	0.13473	0.44973	0.45277	0.16668	0.099422	0.33555	0.075155	0.22245	0.20514	0.27629	0.027586	0.29756	0.2511	0.15013	-2.4396	-2.7313	-2.4938	-2.9354	-2.5979	-2.8604	-3.0021	-2.8604	-2.8937	-2.6979	-2.7958	-2.9958	-2.7604	-2.6333	-2.9167	-2.8021	169.330	175.990	360.633	476.974	383.211	377.833	383.952	458.508	255.365	467.477	287.168	495.696	479.284	422.363	442.539	257.092	0.0013371	0.00054517	0.00010815	1442.6	4.9437e-06	5.6326e-06	1411.2	397.76	9.9382e-06	1.3634e-06	446.86	151.54	133.85	46.339	8.9112e-06	56.03	0.00079034	0.00073721	0.00020421	1470.9	7.8299e-06	8.1071e-06	1442.9	407.15	7.7057e-06	7.8432e-06	458.48	155.12	136.46	47.804	7.719e-06	57.921	482.455	237.231	261.264	168.005	275.180	297.325	167.542	172.427	271.768	322.729	171.998	175.908	176.529	181.520	276.211	180.551	-8191	255	
21455.217	1	1	0	0	0.40083	0.037116	0.3618	0.31263	0.31421	0.18423	0.20511	0.51302	0.088251	0.12811	0.18223	0.12975	0.13298	0.08887	0.18798	0.079557	-2.2562	-2.7333	-2.4708	-3.0792	-2.65	-2.7625	-2.9813	-2.7625	-2.8438	-2.9542	-2.7604	-3.1417	-2.8354	-2.7646	-2.9146	-2.5875	167.967	196.616	280.763	465.174	334.670	300.003	408.996	509.120	238.995	388.322	236.159	464.831	489.291	433.557	272.205	255.916	0.0013385	0.00054314	0.00014605	1439	8.4769e-06	7.1216e-06	1416.9	398.69	8.3471e-06	4.2776e-06	447.17	152.11	133.55	46.166	6.9962e-06	56.086	0.00080045	0.00073444	0.00020168	1470.9	7.9919e-06	8.2493e-06	1445.8	407.56	8.0847e-06	8.071e-06	459.01	155.28	136.42	47.797	8.0689e-06	58.041	478.941	259.875	239.921	168.062	258.876	293.913	167.629	172.375	251.858	311.885	172.016	175.969	176.539	181.627	282.181	180.601	-8191	255	
21455.338	1	1	0	0	0.12153	0.2536	0.2095	0.091715	0.18774	0.30776	0.19645	0.46947	0.13958	0.11179	0.11215	0.072982	0.21676	0.30946	0.14208	0.1139	-2.4354	-2.8104	-2.6104	-2.9813	-2.8208	-2.7771	-3.1729	-2.6667	-2.8979	-2.9875	-2.8542	-2.9521	-2.6458	-2.6021	-2.9375	-2.6604	464.788	326.375	190.678	425.288	473.617	467.580	424.065	470.888	250.554	363.467	484.158	211.884	478.461	436.775	268.484	384.655	0.0013377	0.00053213	0.00015355	1443.1	6.0858e-06	7.2657e-06	1421.5	397.88	8.5051e-06	5.195e-06	449.06	152.19	133.43	46.149	6.8266e-06	55.992	0.000805	0.00075529	0.00021054	1470.3	8.0515e-06	8.296e-06	1447.7	407.58	8.0036e-06	8.2483e-06	458.94	155.43	136.39	47.78	8.0159e-06	57.942	479.132	218.576	258.859	167.979	273.291	314.926	167.564	172.309	259.326	310.627	171.860	175.802	176.373	181.678	297.165	180.656	-8191	255	
21455.408	1	1	0	0	0.17751	0.21756	0.12252	0.34799	0.12644	0.062979	0.16836	0.095724	0.20741	0.13235	0.054593	0.17337	0.31637	0.18086	0.45989	0.070125	-2.3937	-2.7562	-2.4604	-3.0563	-2.8625	-2.6333	-3.2104	-2.8083	-2.9062	-2.9583	-2.6208	-3.0396	-2.9896	-2.7646	-3.0521	-2.9271	203.080	258.307	409.687	457.503	364.495	308.630	422.742	314.732	448.307	389.753	311.798	462.986	179.115	365.494	505.464	477.167	0.0012496	0.00056882	0.0001657	1440.7	7.2498e-06	5.7166e-06	1418.9	397.9	9.2457e-06	5.2646e-06	446.82	151.96	133.55	46.234	6.8791e-06	56	0.00080033	0.00074693	0.0002138	1471.5	8.2083e-06	8.2917e-06	1446.4	407.5	8.2059e-06	8.2598e-06	459.08	155.25	136.41	47.799	8.0272e-06	57.971	481.136	246.737	237.609	168.036	272.904	306.302	167.592	172.245	249.517	293.028	171.811	175.890	176.354	181.461	278.019	180.659	-8191	255	
21455.506	1	1	0	0	0.28619	0.22179	0.036539	0.35614	0.095912	0.14454	0.026983	0.049484	0.23311	0.14045	0.14173	0.12996	0.10672	0.3337	0.1347	0.22092	-2.4646	-3.0521	-2.6958	-3.0771	-2.9479	-2.8792	-3.1937	-2.9833	-2.875	-3.2333	-2.7729	-2.9813	-3.0208	-2.825	-2.9792	-2.9167	337.391	185.848	373.495	429.737	435.592	255.445	364.505	467.313	334.364	218.216	388.358	336.711	490.460	452.732	205.380	250.685	0.0012662	0.00035011	0.0001724	1440.9	6.5888e-06	5.9399e-06	1420.5	398.84	9.2526e-06	4.0237e-06	449.36	151.96	133.42	46.197	4.975e-06	56.167	0.00080781	0.00075421	0.00021276	1471.7	7.9823e-06	8.1226e-06	1448	407.97	8.3712e-06	8.3549e-06	459.67	155.47	136.47	47.828	8.0847e-06	58.087	480.728	254.873	239.439	167.989	278.956	306.759	167.605	172.430	263.428	323.624	171.936	175.748	176.463	181.563	266.764	180.351	-8191	255	
21455.600	1	1	0	0	0.070054	0.089004	0.2039	0.19324	0.29857	0.181	0.023455	0.11677	0.073533	0.11703	0.10223	0.035197	0.22953	0.12335	0.23998	0.13976	-2.3375	-3.1229	-2.6854	-3.0354	-3.0083	-2.7938	-3.15	-3.1125	-2.8167	-2.9958	-2.9875	-2.9813	-3.1229	-2.975	-2.9313	-3.0625	263.949	473.971	312.371	445.577	311.654	384.336	274.519	444.807	236.069	235.294	188.486	318.617	481.897	494.149	323.038	211.954	0.0012973	0.00058906	0.00014352	1444.8	6.1229e-06	1.8408e-06	1414.5	397.99	7.4081e-06	5.9326e-06	447.04	152.2	133.55	46.099	6.6768e-06	55.816	0.00081922	0.00075993	0.00021028	1473.5	8.0081e-06	8.3866e-06	1446.3	407.71	8.1763e-06	8.1589e-06	458.95	155.46	136.48	47.771	8.1354e-06	57.946	478.720	237.075	255.332	167.967	269.369	293.867	167.541	172.461	273.149	310.819	171.906	175.933	176.379	181.249	283.934	180.363	-8191	255	
21455.721	1	1	0	0	0.16149	0.26096	0.40389	0.11644	0.13285	0.15212	0.25976	0.14166	0.06454	0.33193	0.084726	0.19251	0.12013	0.11972	0.071597	0.16969	-2.3854	-3.0458	-2.7125	-2.9208	-3.0229	-2.675	-2.9958	-3.05	-2.7146	-3.1104	-2.8979	-2.9958	-3.1188	-2.9521	-3.0458	-2.9625	471.941	294.529	230.829	459.894	372.147	385.762	432.527	398.830	379.603	476.109	178.678	497.339	289.253	447.155	245.808	207.970	0.0013366	0.00045873	0.00016436	1442.2	4.2692e-06	4.6191e-06	1419.4	398.35	9.112e-06	3.9052e-06	447.84	152.17	133.66	46.305	6.6672e-06	56.056	0.00080314	0.00075187	0.00021394	1472.7	7.921e-06	8.2088e-06	1446	407.86	8.2369e-06	8.1281e-06	458.8	155.35	136.43	47.788	8.1848e-06	58.045	476.901	245.210	243.924	167.983	266.792	301.026	167.675	172.132	257.293	276.396	172.009	176.014	176.363	181.395	267.096	180.477	-8191	255	
21455.816	1	1	0	0	0.21799	0.055025	0.086691	0.40706	0.28836	0.19211	0.38305	0.088971	0.24052	0.16282	0.19613	0.16855	0.13306	0.10502	0.30883	0.30749	-2.2812	-3.0396	-2.8625	-2.975	-2.9813	-2.7562	-3.0479	-3.2104	-2.6792	-3.0771	-2.9875	-2.8979	-2.8854	-2.7438	-2.7917	-3.1667	340.665	327.735	460.310	420.656	343.202	323.088	442.295	499.827	511.639	484.907	462.758	426.298	456.236	421.052	458.734	230.353	0.0012637	0.00044994	0.00010812	1440.5	5.1592e-06	5.089e-06	1414.5	398.23	9.0527e-06	4.0592e-06	448.39	151.75	132.98	46.142	6.3692e-06	55.947	0.00081946	0.00075512	0.00021051	1471.9	8.0016e-06	8.1929e-06	1447.8	407.85	8.2578e-06	8.291e-06	459.43	155.31	136.13	47.784	7.9073e-06	58.006	478.496	248.350	230.994	168.060	292.878	320.113	167.518	172.416	263.405	326.056	171.988	175.971	176.744	181.583	267.666	180.660	-8191	255	
21455.912	1	1	0	0	0.07516	0.42854	0.03968	0.08571	0.096002	0.13563	0.42954	0.010558	0.10806	0.13109	0.069379	0.23013	0.044367	0.38421	0.032142	0.22259	-2.3833	-3.0479	-2.8146	-2.9042	-2.9271	-2.7729	-3.1813	-3.2042	-2.6375	-2.9833	-3.1042	-2.6667	-3.0563	-2.7729	-2.6792	-3.1917	254.088	339.250	335.771	411.052	198.445	380.499	467.926	390.617	352.251	471.212	455.197	401.610	398.483	477.317	468.587	414.310	0.0012313	0.0006875	0.0001377	1443.1	6.8908e-06	3.8159e-06	1416.5	399.18	9.5689e-06	6.4863e-06	447.59	151.91	133.89	46.174	7.4506e-06	56.022	0.0008165	0.00076501	0.00020831	1472.7	8.069e-06	8.2233e-06	1446.8	408.04	8.0598e-06	8.1844e-06	458.99	155.39	136.46	47.711	8.0698e-06	57.954	479.636	249.859	236.366	167.897	267.386	299.130	167.691	172.486	264.077	307.320	171.997	175.712	176.721	181.595	284.807	180.550	-8191	255	
21456.010	1	1	0	0	0.29935	0.124	0.26412	0.37422	0.033452	0.073309	0.32621	0.061554	0.21506	0.081734	0.11986	0.15848	0.15333	0.38593	0.088584	0.033212	-2.3583	-3.0292	-2.725	-3.0729	-2.8729	-3.0604	-3.0125	-3.125	-2.875	-2.8271	-3.1125	-2.8875	-3.2896	-2.85	-2.7917	-2.9938	504.058	215.441	346.760	409.630	286.497	353.395	512.233	473.198	367.254	299.601	177.871	504.173	396.113	211.110	167.282	364.833	0.0013401	0.00045937	0.00014266	1440.1	8.4929e-06	6.7177e-06	1414.6	398	7.642e-06	3.922e-06	448.16	151.76	133.55	46.341	7.135e-06	55.817	0.00081613	0.00073587	0.00020863	1471.1	8.1488e-06	8.2589e-06	1445.4	407.69	8.1845e-06	8.2723e-06	459.34	155.25	136.4	47.813	8.1205e-06	57.916	480.230	234.483	248.060	167.845	282.077	315.271	167.724	172.281	266.448	321.271	171.857	175.992	176.472	181.430	279.988	180.493	-8191	255	
21456.105	1	1	0	0	0.083513	0.15035	0.15374	0.18945	0.12449	0.13846	0.40214	0.33627	0.033953	0.093134	0.21127	0.19785	0.16657	0.22108	0.1179	0.09971	-2.3917	-3.0458	-2.7167	-2.8167	-2.9229	-2.7708	-2.95	-3.2438	-2.7292	-2.8021	-3.1146	-2.8479	-3.0438	-2.8625	-2.7146	-3.0646	289.891	182.102	469.655	433.003	290.099	198.604	437.386	174.396	484.091	320.873	408.669	326.383	401.323	224.545	208.420	436.126	0.0013949	0.00051425	0.00013946	1444.6	7.6758e-06	6.4906e-06	1416.6	398.6	8.6362e-06	4.8023e-06	447.61	151.93	133.48	46.165	2.8425e-06	55.819	0.00082113	0.00074446	0.00021019	1472.4	8.0844e-06	8.2237e-06	1446.4	408.12	8.1213e-06	8.1003e-06	457.97	155.2	136.4	47.688	8.1454e-06	57.826	480.818	243.337	247.184	168.033	271.989	349.400	167.564	172.297	260.538	290.453	171.909	176.033	176.480	181.603	264.663	180.511	-8191	255	
21456.201	1	1	0	0	0.15406	0.078594	0.065875	0.41567	0.062061	0.10538	0.34979	0.091585	0.091237	0.13353	0.17497	0.14511	0.090425	0.12922	0.068047	0.050623	-2.4333	-2.9958	-3.1771	-2.8625	-2.7792	-2.9729	-3.0104	-3.2687	-2.8354	-2.8271	-3.2708	-2.6833	-2.9479	-2.9958	-2.8	-2.9688	310.757	390.573	312.917	434.294	311.569	338.981	403.866	192.721	471.409	394.816	467.519	497.203	363.769	250.728	203.940	431.477	0.0013288	0.0005191	0.00015571	1436.2	1.035e-05	5.6734e-06	1415.8	398.61	8.0323e-06	6.0391e-06	446.86	152.03	133.56	46.08	5.9623e-06	56.115	0.0008105	0.00076722	0.00020677	1469.2	7.8583e-06	8.2715e-06	1445.8	407.39	8.1204e-06	8.3501e-06	458.01	155.39	136.33	47.753	8.2101e-06	58.056	481.134	244.636	266.226	167.836	271.495	332.079	167.622	172.418	251.920	307.865	171.975	175.793	176.355	181.616	292.512	180.469	-8191	255	
21456.297	1	1	0	0	0.1228	0.047596	0.29557	0.25086	0.23384	0.13977	0.17172	0.14008	0.17024	0.10014	0.10404	0.074969	0.24807	0.15315	0.08954	0.11516	-2.45	-2.7104	-2.9146	-2.8854	-2.9646	-2.9437	-2.9188	-3.0583	-2.7375	-2.8396	-2.9417	-2.8187	-2.8271	-2.9062	-2.7229	-3.1646	308.499	266.562	313.314	442.193	214.999	210.138	506.202	180.616	252.200	304.795	188.974	192.674	351.424	247.641	395.754	491.439	0.0013285	0.00076277	0.00017239	1439.2	7.4096e-06	5.0138e-06	1418	398.12	6.8477e-06	6.7157e-06	446.21	152.02	132.93	46.125	6.9937e-06	55.888	0.00081096	0.00076674	0.0002075	1470.9	8.0138e-06	8.0498e-06	1446.8	407.86	8.1457e-06	8.3737e-06	458.82	155.34	136.12	47.701	8.255e-06	57.907	480.448	252.071	246.126	167.925	273.559	345.175	167.614	172.406	246.554	307.522	171.830	175.936	176.548	181.394	275.366	180.694	-8191	255	
21456.418	1	1	0	0	0.13524	0.14599	0.22487	0.21254	0.12557	0.10597	0.082149	0.25003	0.18426	0.095758	0.3323	0.17115	0.18687	0.17968	0.076971	0.12341	-2.2313	-2.7042	-2.85	-2.9333	-2.7271	-3.0792	-2.7562	-3.0229	-2.8708	-2.7417	-3.05	-3.0333	-2.9542	-2.9	-2.6604	-2.9875	275.891	175.341	230.601	466.154	259.460	415.817	403.403	294.387	219.815	213.456	411.510	424.418	479.705	160.388	231.337	503.951	0.0013227	0.00098552	0.00018519	1439.6	7.5388e-06	6.1126e-06	1411.9	398.91	1.0186e-05	6.1375e-06	448.79	151.58	133.68	46.194	5.7056e-06	55.801	0.00079835	0.00075321	0.00020428	1469.4	7.9065e-06	8.2666e-06	1444.6	407.88	8.1357e-06	8.3482e-06	458.99	155.14	136.2	47.718	8.1486e-06	57.909	479.288	238.079	231.105	167.957	284.120	325.920	167.735	172.444	266.821	299.986	171.910	175.912	176.559	181.349	268.602	180.592	-8191	255	
21456.512	1	1	0	0	0.25944	0.0050094	0.29584	0.16339	0.1384	0.055209	0.19614	0.12449	0.053206	0.050632	0.065211	0.23583	0.11631	0.15613	0.25621	0.11499	-2.2542	-2.7458	-2.8396	-2.9208	-2.8792	-3.125	-2.8187	-3.0438	-2.9625	-2.8542	-2.9917	-2.8417	-2.75	-3.0875	-2.6542	-3.0458	192.607	433.971	253.732	438.448	166.386	298.421	198.014	383.903	475.208	167.206	365.709	473.953	180.837	170.792	387.682	470.075	0.0013567	0.00045865	0.00018524	1439.8	7.2839e-06	4.6379e-06	1414	397.6	8.3401e-06	5.7731e-06	445.83	152.54	133.45	46.218	2.9315e-06	55.763	0.00082435	0.00075135	0.00020609	1469.7	8.0901e-06	8.2546e-06	1443.8	407.73	8.2587e-06	8.4102e-06	458.01	155.13	136.03	47.709	8.1671e-06	57.906	480.938	258.202	251.513	167.925	266.406	307.174	167.532	172.322	265.017	312.768	171.956	175.947	176.437	181.557	257.492	180.588	-8191	255	
21456.609	1	1	0	0	0.19211	0.26326	0.25866	0.10105	0.046417	0.1823	0.27771	0.16328	0.10679	0.20022	0.228	0.24067	0.15811	0.089315	0.23487	0.10508	-2.4479	-2.6312	-2.8771	-2.9437	-2.7604	-2.9313	-2.9646	-2.8625	-3.0625	-2.725	-3.1292	-2.8063	-2.6917	-3.0729	-2.7354	-3.0042	416.894	401.201	513.730	451.950	470.300	421.338	483.677	491.436	186.169	347.674	500.169	510.288	360.753	493.538	332.019	235.805	0.0012674	0.00066599	0.00014364	1438.6	7.96e-06	5.1546e-06	1416.3	398.37	1.1005e-05	7.4846e-06	448.55	152.19	133.89	46.276	3.897e-06	55.731	0.00081093	0.00075928	0.00020583	1470.1	8.1321e-06	8.2266e-06	1445.2	407.63	8.1828e-06	8.352e-06	458.41	155.14	136.63	47.728	8.2006e-06	57.95	480.467	254.908	233.460	167.919	279.347	312.148	167.747	172.415	258.035	291.621	171.910	175.954	176.282	181.548	277.275	180.620	-8191	255	
21456.705	1	1	0	0	0.070125	0.27317	0.13985	0.40704	0.017316	0.10891	0.25264	0.21857	0.069917	0.13077	0.1526	0.064937	0.13721	0.093159	0.13358	0.11294	-2.5417	-2.7167	-2.9333	-2.8729	-2.8354	-3.0625	-3.125	-3.1188	-2.8812	-2.8271	-3.1917	-2.8438	-2.7604	-2.9458	-2.7687	-3.0271	333.109	189.273	253.216	464.738	380.679	473.889	438.776	485.202	339.087	188.746	168.171	408.476	435.301	484.050	310.213	175.721	0.0012998	0.00069063	8.7185e-05	1440.6	4.3377e-06	3.8469e-06	1413.2	398.29	8.2984e-06	4.6892e-06	447.35	152.22	133.81	46.159	5.5718e-06	55.749	0.00081792	0.00077745	0.00021444	1468.9	8.1536e-06	8.377e-06	1444.1	407.58	8.3856e-06	8.2396e-06	458.22	155.08	136.32	47.74	8.1631e-06	57.908	480.679	219.525	252.758	167.981	276.630	327.661	167.529	172.378	259.705	293.812	172.089	175.871	176.630	181.533	280.025	180.460	-8191	255	
21456.801	1	1	0	0	0.24211	0.042827	0.14388	0.16151	0.17784	0.19635	0.31774	0.13403	0.1163	0.25492	0.10638	0.040296	0.096391	0.13401	0.093182	0.28198	-2.6437	-2.6188	-2.9375	-2.95	-2.3833	-3.0354	-2.7771	-2.8063	-2.9771	-2.7792	-3.1271	-3.1708	-2.9479	-3.0917	-2.7333	-2.9688	285.651	185.735	514.311	163.388	371.249	225.931	447.939	397.154	250.611	214.089	470.186	409.209	222.480	370.921	399.469	413.225	0.0012522	0.00053814	0.00018984	1442.5	6.1125e-06	6.5688e-06	1414	397.33	8.7776e-06	5.9069e-06	446.09	151.41	133.73	46.159	7.0578e-06	55.727	0.0008143	0.00077242	0.00021004	1470	8.1058e-06	8.3803e-06	1443.4	407.37	8.1667e-06	8.637e-06	458.15	154.78	136.26	47.723	8.4202e-06	57.878	476.161	258.459	218.890	168.115	282.133	286.039	167.642	172.336	293.492	321.100	171.913	175.642	176.396	181.446	291.936	180.490	-8191	255	
21456.896	1	1	0	0	0.13548	0.30551	0.097093	0.23627	0.22798	0.25837	0.1341	0.06322	0.091143	0.027536	0.23825	0.26018	0.16692	0.13913	0.048196	0.10774	-2.5687	-2.6333	-2.9708	-3.0812	-2.7062	-2.9896	-2.9396	-2.9729	-2.85	-2.7479	-3.0229	-3.2021	-2.7458	-2.9979	-2.9313	-2.8021	391.150	326.126	482.288	399.857	200.421	331.713	482.450	251.656	268.061	354.111	415.955	158.023	444.143	470.133	173.777	482.765	0.0012611	0.00055912	0.0001349	1434.6	6.6634e-06	5.9772e-06	1414	399.06	7.2031e-06	5.5103e-06	447.98	151.44	132.89	46.158	5.7895e-06	55.705	0.00082249	0.00077021	0.00021323	1468.9	8.4987e-06	8.4276e-06	1443.1	407.27	8.2242e-06	8.439e-06	458.42	154.79	136.15	47.651	8.422e-06	57.915	481.564	228.498	258.498	168.107	287.798	309.446	167.716	172.541	252.604	321.091	171.911	176.028	176.260	181.301	267.280	180.661	-8191	255	
21457.018	1	1	0	0	0.093098	0.10263	0.25527	0.25973	0.13109	0.17053	0.19905	0.21869	0.24438	0.080708	0.14593	0.2296	0.19438	0.12778	0.033075	0.19645	-2.7167	-2.7979	-3.0271	-3.05	-2.7375	-3.1271	-3.1167	-2.8375	-3.0229	-2.8125	-2.8958	-3.0146	-2.8167	-2.8896	-2.85	-2.8312	223.047	454.787	461.250	448.254	476.064	379.627	332.869	482.282	323.115	270.385	157.308	327.455	468.743	500.069	249.753	442.151	0.0012958	0.00061464	0.00012786	1439.8	6.4561e-06	6.5324e-06	1415.4	397.34	6.1514e-06	4.6267e-06	447.87	151.77	132.92	46.035	6.8202e-06	55.804	0.00082011	0.00076717	0.00021474	1469.7	8.3301e-06	8.4179e-06	1443.6	407.43	8.3799e-06	8.549e-06	457.89	154.76	136.17	47.613	8.4867e-06	57.894	479.513	252.491	233.812	167.969	278.608	290.431	167.706	172.517	262.661	344.679	171.881	175.919	176.368	181.283	268.886	180.560	-8191	255	
21457.113	1	1	0	0	0.18042	0.13589	0.26888	0.11973	0.36219	0.040567	0.24049	0.15814	0.079061	0.048958	0.10197	0.17125	0.13505	0.13309	0.14802	0.13005	-2.5875	-2.5229	-2.8625	-3.1333	-2.5542	-2.7438	-3.0812	-2.9792	-2.9938	-2.7896	-3.0792	-3.1021	-2.7292	-2.8729	-2.9521	-2.7479	274.892	277.440	258.349	483.798	420.069	488.946	468.914	414.512	290.351	479.563	440.541	484.368	493.527	199.026	254.841	176.046	0.0012988	0.00056887	0.000135	1442.2	4.7263e-06	7.7863e-06	1416.1	397.88	1.0811e-05	3.3821e-06	446.5	151.61	133.34	46.174	6.114e-06	55.897	0.00082246	0.00077385	0.00022044	1470.6	8.327e-06	8.562e-06	1443.5	407.35	8.4161e-06	8.4361e-06	457.94	154.94	136.26	47.695	8.388e-06	57.924	478.751	247.502	261.439	167.981	274.839	299.359	167.589	172.369	261.060	340.695	171.819	175.835	176.521	181.365	278.184	180.533	-8191	255	
21457.211	1	1	0	0	0.17766	0.21861	0.18469	0.24075	0.15905	0.2261	0.11978	0.20796	0.23708	0.055934	0.080127	0.22861	0.077341	0.26053	0.02837	0.23397	-2.6083	-2.8667	-2.6792	-3.1125	-2.9396	-3.0542	-3.0646	-2.8646	-2.9396	-2.8146	-2.8375	-3.0146	-2.8063	-2.9167	-3.0146	-2.7125	450.807	323.586	438.362	435.213	335.696	394.491	413.779	404.114	234.174	362.686	203.701	447.191	217.924	498.165	301.684	411.099	0.0013225	0.00068592	0.00014865	1440.1	6.5764e-06	4.1285e-06	1412.9	398.94	6.508e-06	5.1473e-06	448.43	151.74	133.17	46.181	5.4012e-06	55.892	0.00082979	0.0007921	0.00022113	1467.8	8.377e-06	8.6213e-06	1441.6	407.66	8.5635e-06	8.6331e-06	458.95	154.9	136.03	47.727	8.0924e-06	57.897	477.101	244.444	251.617	168.009	286.101	306.384	167.666	172.336	257.844	314.245	171.825	175.914	176.604	181.319	283.299	180.477	-8191	255	
21457.281	1	1	0	0	0.090482	0.117	0.0099588	0.1305	0.18658	0.13403	0.14511	0.3148	0.21261	0.27959	0.09934	0.082172	0.19111	0.14639	0.09573	0.31016	-2.5896	-2.7854	-2.7354	-2.9521	-2.7521	-3.0542	-2.925	-2.7812	-2.9271	-2.9938	-2.7125	-3.1104	-2.8167	-2.8583	-3.1729	-2.8771	460.240	476.112	227.749	503.990	287.816	379.067	406.945	467.071	438.489	397.030	403.053	509.185	399.869	460.314	333.557	433.554	0.0013023	0.00039113	0.0001987	1438.1	6.7191e-06	6.9559e-06	1410.7	398.58	1.3389e-05	5.2327e-06	448.03	152.17	133.81	46.3	6.8611e-06	55.772	0.00082277	0.00077242	0.00022015	1466.8	8.3516e-06	8.5071e-06	1440.7	407.45	8.5325e-06	8.4851e-06	459.05	155.07	136.1	47.642	8.2368e-06	57.839	479.080	233.379	230.183	168.049	267.669	294.483	167.564	172.462	254.995	294.425	171.763	176.045	176.537	181.402	279.097	180.473	-8191	255	
21457.402	1	1	0	0	0.15566	0.11284	0.21585	0.20168	0.11525	0.19554	0.35494	0.37664	0.059151	0.14995	0.16976	0.060291	0.061557	0.083477	0.23327	0.047254	-2.575	-2.8021	-2.7167	-3.0604	-2.9208	-2.8208	-3.1458	-2.9729	-2.9354	-3.0375	-2.8563	-2.8771	-2.7562	-2.7917	-2.9354	-2.6958	238.843	474.536	414.186	172.972	196.102	353.582	514.279	435.328	450.099	388.942	304.275	171.169	197.798	353.438	457.984	350.916	0.0013316	0.00048002	0.00010747	1441	7.4719e-06	6.4221e-06	1410	397.35	8.995e-06	4.3215e-06	445.48	151.44	133.14	46.278	7.3571e-06	55.636	0.00082163	0.00076162	0.00021132	1467.8	8.2114e-06	8.5317e-06	1440.5	407.35	8.1898e-06	8.3213e-06	458.13	154.86	136.09	47.739	8.1078e-06	57.84	480.352	233.006	253.616	167.949	258.281	306.149	167.864	172.327	266.262	320.215	171.799	176.137	176.475	181.441	284.648	180.494	-8191	255	
21457.498	1	1	0	0	0.12114	0.052256	0.2422	0.297	0.072481	0.16752	0.33011	0.20302	0.23147	0.16206	0.057884	0.20124	0.2432	0.10197	0.071078	0.1558	-2.3375	-2.8875	-2.575	-3.1833	-2.7146	-2.7854	-3.0542	-3.0208	-2.8625	-3.2229	-2.8979	-3.1417	-2.9125	-2.9958	-2.9125	-2.8812	391.795	286.509	289.066	441.048	203.751	491.434	413.924	401.749	321.770	304.220	468.478	456.547	399.107	419.989	464.686	253.978	0.0012653	0.00059473	0.00012296	1439.6	6.7218e-06	5.2523e-06	1420.1	397.25	8.6281e-06	6.0086e-06	445.34	151.45	133.66	46.254	7.9757e-06	55.712	0.00081974	0.00076015	0.00020822	1467.8	8.1234e-06	8.4189e-06	1442.6	407.35	8.0969e-06	8.2785e-06	457.96	154.78	136.2	47.671	8.0073e-06	57.907	479.664	241.501	246.394	168.082	282.734	334.000	167.484	172.405	262.565	306.609	172.005	175.646	176.375	181.467	289.544	180.496	-8191	255	
21457.594	1	1	0	0	0.093286	0.17738	0.22858	0.29428	0.1311	0.056472	0.21238	0.032743	0.067662	0.086965	0.20305	0.19145	0.1638	0.26764	0.084658	0.15666	-2.4083	-2.8854	-2.6042	-3.0042	-2.7979	-2.8458	-3.0833	-3.0604	-2.7604	-2.8	-2.9188	-3.0583	-2.9625	-2.9021	-2.8583	-2.9833	345.227	503.486	158.883	477.861	329.660	194.901	404.258	408.466	433.840	465.423	466.279	506.088	314.406	221.750	514.174	155.514	0.001264	0.00055343	0.00022071	1434.6	5.207e-06	5.2811e-06	1411.6	399	9.845e-06	5.6167e-06	449.48	151.85	133.44	46.22	7.2909e-06	55.876	0.00080722	0.00075516	0.00020718	1466.2	8.0484e-06	8.2782e-06	1441.7	408.02	8.1658e-06	7.9927e-06	459.24	155.44	136.5	47.831	7.9593e-06	58.016	483.313	242.304	243.498	168.226	277.302	289.390	167.631	172.256	270.864	305.078	171.768	176.031	176.191	181.360	261.327	180.490	-8191	255	
21457.691	1	1	0	0	0.30649	0.20045	0.071976	0.16021	0.17614	0.16859	0.10858	0.41415	0.15468	0.19413	0.24085	0.15278	0.27694	0.082717	0.23513	0.073488	-2.3146	-2.9646	-2.6896	-3.1229	-3.0187	-3.0167	-3.2042	-2.9875	-2.8438	-3.1083	-2.8521	-2.8354	-3.0458	-2.7271	-2.7542	-2.7562	453.115	174.628	378.506	394.719	224.072	281.473	334.943	476.416	185.971	497.392	504.203	218.420	310.423	508.660	509.978	396.145	0.0013021	0.00066108	0.00016662	1441.8	6.4012e-06	3.6838e-06	1417	399.9	1.0566e-05	5.5078e-06	449.02	152.17	133.28	46.291	5.5732e-06	55.958	0.0008101	0.00072495	0.00020949	1470.1	8.129e-06	8.2035e-06	1443.5	408.64	8.0986e-06	8.1877e-06	459.69	155.35	136.63	47.835	7.9073e-06	58.081	479.327	247.047	225.080	168.152	265.947	300.548	167.619	172.382	256.278	300.245	171.762	175.768	176.480	181.410	269.411	180.615	-8191	255	
21457.809	1	1	0	0	0.24323	0.12621	0.27545	0.084201	0.27946	0.062422	0.40054	0.15765	0.11978	0.10245	0.16086	0.32187	0.087034	0.265	0.15239	0.10207	-2.2625	-3.0312	-2.6312	-3.0604	-3.0208	-2.6771	-3.1417	-2.8563	-2.65	-3.0375	-2.9854	-2.9771	-3.1375	-2.7833	-3.0458	-3	181.178	461.955	374.781	469.114	232.054	482.471	454.169	378.380	361.788	502.016	164.072	354.566	318.916	502.046	230.969	237.454	0.0012826	0.00051291	0.00014619	1442.5	5.1518e-06	4.7423e-06	1416.1	400.16	1.0951e-05	3.811e-06	449.66	152.55	133.61	46.397	6.9107e-06	56.044	0.00080416	0.00075213	0.00020804	1471.3	7.9254e-06	8.2941e-06	1445.5	409.45	8.1196e-06	8.0748e-06	460.23	155.68	136.71	47.951	8.0286e-06	58.127	480.071	203.851	237.535	167.958	281.761	317.779	167.726	172.398	265.944	313.486	171.687	175.912	176.395	181.408	276.711	180.435	-8191	255	
21457.881	1	1	0	0	0.17239	0.090958	0.21817	0.46338	0.13877	0.039289	0.12832	0.1887	0.19136	0.11185	0.20686	0.092922	0.24483	0.2422	0.31525	0.17469	-2.4083	-2.7229	-2.6979	-2.9646	-3.0292	-2.8854	-3.1958	-3.0396	-2.7125	-2.9625	-2.7708	-2.9104	-3.0833	-2.9313	-2.9375	-2.9625	491.972	213.937	381.785	450.846	308.867	212.470	405.866	408.218	383.345	409.730	415.112	159.128	485.380	439.547	360.443	428.991	0.0013147	0.00056827	0.00021117	1442.6	6.7013e-06	5.8276e-06	1418.7	400.04	9.4996e-06	5.2635e-06	449.85	152.58	134.45	46.541	6.2191e-06	56.188	0.00080002	0.00073934	0.00020594	1474	7.9254e-06	8.0214e-06	1448.1	409.27	8.0293e-06	8.008e-06	460.95	155.86	137.12	48.035	8.1821e-06	58.286	479.801	256.211	240.874	168.072	260.703	288.996	167.652	172.320	270.697	302.375	171.959	175.788	176.473	181.279	296.993	180.654	-8191	255	
21457.977	1	1	0	0	0.11939	0.13142	0.14096	0.27448	0.21746	0.037444	0.17198	0.042348	0.17247	0.16285	0.12278	0.2501	0.046566	0.28068	0.056188	0.165	-2.2333	-2.9125	-2.8042	-2.8438	-3.0958	-2.7562	-2.9833	-2.9833	-2.6437	-3.0333	-3.0438	-2.7792	-3.2354	-2.7708	-2.7167	-3.0167	200.692	227.976	296.490	497.867	366.476	266.737	469.225	405.752	438.613	208.686	420.969	361.714	244.092	158.863	412.240	436.784	0.0013437	0.00061857	0.00012884	1443.4	5.995e-06	7.4365e-06	1420.7	401.62	6.4853e-06	4.9453e-06	449.71	152.48	134.64	46.58	6.8119e-06	56.381	0.00079584	0.00073479	0.00020776	1474.8	7.8378e-06	8.244e-06	1450.4	410.63	7.9216e-06	8.2367e-06	461.91	156.29	137.43	48.154	8.0318e-06	58.397	479.149	255.528	260.425	168.042	260.216	327.810	167.673	172.302	258.351	291.115	171.997	175.917	176.627	181.316	265.571	180.510	-8191	255	
21458.098	1	1	0	0	0.21617	0.37896	0.12561	0.33045	0.14833	0.28134	0.14867	0.262	0.11124	0.11707	0.11549	0.0049701	0.13169	0.21383	0.16707	0.10667	-2.275	-2.7833	-2.9667	-2.7375	-2.975	-2.7083	-3.0333	-3.0312	-2.8187	-2.8417	-3.0021	-2.8937	-2.9479	-2.8521	-2.6771	-3.0354	307.529	441.042	256.199	483.711	410.771	297.008	340.385	465.624	435.953	323.888	482.307	160.621	204.170	267.351	466.576	481.508	0.0013326	0.00058688	0.00018404	1445.8	8.4332e-06	3.8957e-06	1425	400.8	1.1852e-05	6.0772e-06	451.47	153.02	133.92	46.89	5.9347e-06	56.244	0.00080701	0.00076722	0.00020664	1479.1	8.0064e-06	8.2117e-06	1453.8	410.59	8.0101e-06	8.329e-06	462.17	156.28	137.42	48.234	8.0675e-06	58.459	479.610	245.802	231.225	167.979	280.960	296.732	167.545	172.283	266.641	303.256	171.886	175.772	176.546	181.216	275.222	180.357	-8191	255	
21458.193	1	1	0	0	0.19268	0.2542	0.22278	0.1576	0.24783	0.35235	0.25705	0.16583	0.078909	0.14937	0.12758	0.12107	0.15961	0.10303	0.11983	0.11214	-2.3771	-2.8438	-3.0917	-2.9042	-3.0479	-2.9083	-2.8125	-3.0312	-2.8396	-2.8021	-3.0062	-2.7896	-3.0938	-2.9083	-2.7833	-3.0563	292.668	487.315	344.349	390.859	220.591	179.275	160.450	494.482	304.581	501.475	173.395	441.068	204.692	475.973	465.483	465.956	0.001314	0.00062592	0.00019873	1450.7	5.5394e-06	4.3991e-06	1421.9	402.99	1.134e-05	6.2085e-06	453.58	154.28	134.51	46.69	7.4873e-06	56.615	0.0007891	0.00075555	0.00020711	1478.7	7.8938e-06	8.298e-06	1455	411.74	8.1357e-06	8.2377e-06	463.52	156.95	137.79	48.353	8.2952e-06	58.56	482.047	233.369	255.734	167.977	256.699	322.677	167.729	172.237	254.795	301.666	171.892	175.982	176.586	181.286	280.544	180.551	-8191	255	
21458.289	1	1	0	0	0.0486	0.066234	0.082106	0.36395	0.08594	0.12658	0.19294	0.18656	0.1411	0.17082	0.36871	0.37483	0.17535	0.19127	0.03439	0.12418	-2.2229	-2.7542	-2.8896	-2.6625	-2.9792	-2.6875	-2.8667	-3.0042	-2.7958	-3.075	-3.2271	-2.8854	-3.0687	-3.0812	-2.6875	-3.0229	469.950	313.103	337.500	464.862	269.738	440.172	418.708	460.610	190.308	241.358	484.235	504.426	383.681	467.605	448.140	452.155	0.0013731	0.00066684	0.00011296	1449.9	6.5813e-06	7.5988e-06	1426.9	402.84	9.292e-06	3.417e-06	452.03	153.65	135.92	46.975	6.3422e-06	56.333	0.00081087	0.00074263	0.00020966	1481	7.9692e-06	8.1423e-06	1455.7	412.08	8.0489e-06	8.2314e-06	463.06	156.89	138.32	48.443	7.7701e-06	58.64	477.514	233.874	260.273	167.888	267.562	299.732	167.704	172.307	263.851	319.818	171.751	176.076	176.402	181.288	300.583	180.640	-8191	255	
21458.410	1	1	0	0	0.038558	0.1994	0.17687	0.2153	0.19687	0.17998	0.35067	0.075489	0.16215	0.17733	0.19324	0.34062	0.09099	0.14872	0.23532	0.19088	-2.3854	-2.7562	-2.9292	-2.8208	-2.8833	-2.9208	-2.9458	-3.2292	-2.8375	-2.9	-3.2583	-2.8333	-3.1271	-2.9375	-2.7708	-3.1771	475.511	477.973	399.226	199.306	232.100	303.202	447.210	487.318	453.384	298.514	405.825	168.220	375.889	480.243	215.855	448.204	0.0012834	0.00048962	0.00018182	1455.5	5.5225e-06	4.3742e-06	1428.9	405.57	8.9638e-06	5.5885e-06	455.22	155.51	136.29	47.283	6.3933e-06	56.939	0.0007917	0.00072226	0.00019681	1483	7.5443e-06	7.7491e-06	1459.1	414.44	7.7515e-06	7.5838e-06	466.37	158.34	139.18	48.91	7.2269e-06	59.097	479.536	253.623	260.165	167.983	279.642	314.565	167.568	172.306	262.344	300.574	171.864	175.795	176.688	181.363	277.692	180.584	-8191	255	
21458.508	1	1	0	0	0.19505	0.043638	0.20849	0.2315	0.30117	0.039582	0.25368	0.16806	0.25906	0.086767	0.1048	0.11162	0.2841	0.080099	0.094667	0.29135	-2.4562	-2.6708	-3.0458	-2.9083	-2.9313	-3.075	-2.8438	-3.2208	-2.7229	-2.6688	-3.0792	-2.825	-2.7229	-2.9292	-2.6437	-3.0771	358.412	406.706	489.570	398.656	181.130	291.001	384.710	162.806	425.642	496.609	490.221	368.270	469.396	461.278	157.930	471.461	0.0013016	0.00048728	0.00017988	1455.9	5.0527e-06	6.3111e-06	1434	407.66	6.923e-06	5.2493e-06	459.33	156.55	137.94	47.961	6.3574e-06	57.576	0.00074891	0.0006704	0.00018173	1487.5	7.0318e-06	6.9743e-06	1464.4	416.91	7.1536e-06	6.9419e-06	469.85	159.67	140.81	49.454	6.8439e-06	59.591	478.535	261.176	247.400	167.942	278.190	303.321	167.576	172.239	259.622	302.446	171.874	176.001	176.486	181.288	294.231	180.214	-8191	255	
21458.578	1	1	0	0	0.12242	0.30815	0.10542	0.17734	0.25485	0.21246	0.26674	0.23891	0.066945	0.12863	0.20066	0.32581	0.10368	0.19429	0.14672	0.095866	-2.55	-2.625	-2.8729	-2.7854	-2.9729	-3.1083	-2.8063	-3.1083	-2.7083	-2.7271	-3.0708	-2.7833	-2.8667	-3.0521	-2.5604	-3.0438	301.827	391.653	250.956	428.901	442.984	359.912	437.270	502.897	466.135	436.137	209.658	252.909	172.930	500.564	351.528	246.246	0.0012918	0.0005084	0.00013343	1458.8	7.2717e-06	5.9183e-06	1443.5	407.58	6.9001e-06	5.0968e-06	458.68	157.44	138.45	47.613	6.2497e-06	57.53	0.00072034	0.00061361	0.00017278	1489.5	6.6691e-06	6.6929e-06	1467.8	416.41	6.7154e-06	6.5565e-06	470.13	160.14	140.95	49.33	6.6873e-06	59.585	477.686	219.508	236.723	167.925	270.152	298.914	167.477	172.367	270.747	309.617	171.813	175.720	176.109	181.182	294.274	180.379	-8191	255	
21458.697	1	1	0	0	0.041643	0.14445	0.12516	0.24667	0.038272	0.043882	0.30632	0.19757	0.1134	0.35516	0.17151	0.32061	0.18145	0.33537	0.20426	0.11964	-2.7167	-2.7167	-3.0667	-2.9229	-2.7583	-3.0583	-2.8833	-3.1479	-2.9396	-2.6458	-2.9125	-2.8229	-2.7687	-3.1896	-2.5729	-2.9062	503.876	206.049	390.808	488.521	514.291	387.257	458.922	458.262	264.475	505.507	494.969	465.447	511.519	455.402	350.341	416.446	0.0014037	0.0007297	0.00015286	1458.1	6.8319e-06	4.5395e-06	1436.2	406.79	8.8887e-06	5.1963e-06	456.76	156.52	138.01	47.806	6.1644e-06	57.288	0.00071227	0.00062046	0.00016928	1487.8	6.588e-06	6.664e-06	1463.8	415.54	6.6591e-06	6.5325e-06	468.78	159.87	140.63	49.314	6.6759e-06	59.542	478.597	242.169	254.714	167.936	277.615	284.601	167.677	172.401	251.399	323.861	171.749	175.779	176.470	181.207	278.141	180.747	-8191	255	
21458.795	1	1	0	0	0.29065	0.10964	0.13442	0.27535	0.041542	0.11383	0.26864	0.05983	0.33171	0.22973	0.33357	0.2014	0.12867	0.19918	0.21448	0.13016	-2.5125	-2.8354	-2.9792	-2.9688	-2.7521	-2.9938	-2.8042	-2.9292	-2.9062	-2.6937	-3.2271	-2.9958	-2.7021	-2.8854	-2.9	-3.0187	270.885	314.390	196.887	385.790	229.832	296.684	461.234	456.671	390.927	446.421	156.573	185.685	301.544	454.098	251.600	315.226	0.0012936	0.00045438	0.00012602	1459.9	7.3067e-06	7.3773e-06	1436	407.72	1.0021e-05	5.3775e-06	455.88	156.95	137.27	47.719	5.8982e-06	57.593	0.00068618	0.00060897	0.00016679	1489.7	6.4229e-06	6.4963e-06	1462.7	415.46	6.5924e-06	6.5575e-06	468.13	159.85	140.55	49.285	6.4863e-06	59.519	481.870	232.193	222.462	167.960	267.023	316.721	167.598	172.302	260.234	313.911	171.860	175.634	176.324	181.494	285.175	180.510	-8191	255	
21458.891	1	1	0	0	0.24727	0.10072	0.25098	0.32651	0.019165	0.10836	0.28476	0.099966	0.12984	0.155	0.2757	0.1098	0.21224	0.28577	0.211	0.19153	-2.3708	-2.7292	-2.8917	-2.9229	-2.8542	-3.0417	-2.9437	-2.8417	-2.8417	-2.6667	-2.9917	-2.9771	-2.6	-3.0729	-2.6479	-2.8896	163.105	455.131	261.671	180.202	463.537	327.674	415.094	397.501	315.143	417.473	500.242	488.575	468.820	249.762	369.188	341.058	0.0013318	0.00060253	0.00014093	1452.8	5.7877e-06	5.6771e-06	1433.3	406.58	8.8095e-06	5.0375e-06	457.26	157.66	138.2	47.82	6.6834e-06	57.763	0.00069085	0.00060299	0.00016429	1485.5	6.3651e-06	6.4105e-06	1462.4	415.17	6.3124e-06	6.2812e-06	468.2	160.42	141.32	49.552	6.3029e-06	59.789	479.197	246.649	254.760	167.954	264.644	297.949	167.652	172.513	273.528	302.791	172.054	175.558	176.516	180.935	282.955	180.465	-8191	255	
21458.986	1	1	0	0	0.11442	0.044468	0.19943	0.37667	0.11187	0.094048	0.20694	0.18399	0.26344	0.12992	0.09996	0.22579	0.23074	0.14108	0.24028	0.22207	-2.5021	-2.4313	-2.8438	-2.8833	-2.5125	-2.8167	-2.9583	-3.0271	-3.0521	-2.8521	-2.8042	-2.925	-2.5917	-3.0583	-2.9313	-2.8396	456.214	174.355	448.699	436.755	454.349	472.289	314.883	468.553	453.902	330.090	211.352	404.744	370.686	417.772	333.190	464.881	0.0012875	0.00035601	0.00016047	1457.6	8.2e-06	8.428e-06	1437.3	408.13	6.8067e-06	6.126e-06	459.03	158.54	139.95	48.733	6.7265e-06	58.432	0.00068671	0.00057931	0.00015755	1487.9	6.2814e-06	6.3701e-06	1467.5	417.04	6.4236e-06	6.2481e-06	469.8	162	142.97	50.236	6.4491e-06	60.567	477.846	219.198	238.295	168.051	277.269	304.880	167.584	172.257	266.827	325.186	171.716	175.831	176.324	181.278	302.005	180.134	-8191	255	
21459.082	1	1	0	0	0.11115	0.12721	0.064211	0.13257	0.13984	0.12654	0.34942	0.51491	0.17587	0.13382	0.21373	0.14766	0.097021	0.15823	0.21987	0.038152	-2.5354	-2.6875	-2.8458	-3.0312	-2.7	-2.9625	-2.9542	-2.6292	-2.8917	-2.7958	-3.0958	-3.1583	-2.4604	-3.0917	-2.7375	-2.7542	431.454	336.209	276.429	508.120	179.319	507.208	384.798	436.014	252.989	155.125	180.005	387.096	221.334	192.753	480.937	502.187	0.0014249	0.00054109	0.00011563	1466.6	6.6584e-06	7.2601e-06	1452.5	414.67	9.6045e-06	5.5219e-06	461.88	161.17	141.28	48.986	7.062e-06	58.961	0.00070192	0.00059492	0.00016263	1496.8	6.1421e-06	6.4028e-06	1479.5	422.91	6.2937e-06	6.3004e-06	473.67	163.73	144.21	50.628	6.3989e-06	60.928	478.949	218.207	230.991	167.901	286.483	317.213	167.564	172.213	260.079	320.116	171.902	175.730	176.265	181.255	278.160	180.228	-8191	255	
21459.178	1	1	0	0	0.12507	0.090106	0.12099	0.06628	0.35136	0.11587	0.22942	0.14552	0.1222	0.21899	0.27503	0.22753	0.14249	0.27153	0.1768	0.22672	-2.5187	-2.8375	-2.8083	-3.3292	-2.7062	-2.9396	-3.1167	-2.7958	-3.2271	-2.7354	-2.9042	-3.1813	-2.8583	-3.0271	-2.9771	-2.7562	285.095	268.093	189.319	454.232	346.375	386.742	468.063	394.884	161.142	470.511	508.504	465.205	201.079	494.328	483.079	503.498	0.0013992	0.00064672	0.00014191	1471.1	6.9037e-06	6.1118e-06	1445	413.17	9.1021e-06	5.236e-06	463.84	160.38	141.41	48.788	6.1665e-06	58.49	0.00069753	0.00057788	0.00016141	1499.7	6.341e-06	6.3224e-06	1476.9	422.22	6.2056e-06	6.312e-06	473.73	163.36	143.82	50.4	6.159e-06	60.657	479.822	224.709	236.948	167.957	283.164	303.285	167.613	172.290	267.788	292.466	172.050	175.827	176.261	181.302	279.956	180.298	-8191	255	
21459.273	1	1	0	0	0.050615	0.015227	0.10739	0.28601	0.18946	0.19775	0.207	0.19694	0.026728	0.245	0.088569	0.14299	0.25606	0.14551	0.13861	0.16655	-2.5375	-2.8979	-2.8375	-3.1854	-2.775	-2.9125	-3.1354	-2.8937	-2.975	-2.9813	-2.8667	-3.0167	-2.8167	-2.9833	-2.9396	-2.5229	281.472	425.604	405.073	496.953	294.230	348.584	422.309	428.025	156.963	225.774	409.803	305.933	483.270	417.675	501.841	220.676	0.0013897	0.00057934	0.00017931	1467.7	5.6256e-06	6.5171e-06	1452.3	412.55	8.5232e-06	6.2187e-06	464.05	159.71	140.74	48.819	7.2495e-06	58.443	0.00070049	0.00057806	0.00015863	1496.1	6.3007e-06	6.292e-06	1476.9	421.97	6.3146e-06	6.2096e-06	473.65	163.23	143.64	50.307	6.1558e-06	60.576	479.284	236.377	217.204	167.889	261.736	304.887	167.573	172.146	261.303	311.994	171.903	175.716	176.162	181.303	275.137	180.246	-8191	255	
21459.371	1	1	0	0	0.17815	0.1781	0.067653	0.37555	0.26999	0.38009	0.14765	0.1123	0.031218	0.1702	0.1791	0.14908	0.071794	0.22164	0.064281	0.1917	-2.3688	-2.8979	-2.625	-3.1292	-2.6625	-2.9646	-3.1312	-2.8417	-2.9042	-2.7292	-2.7687	-2.9458	-2.7917	-2.8521	-3.0563	-2.7833	368.582	446.691	482.421	477.937	439.705	335.149	422.243	513.486	313.706	402.014	340.346	408.304	398.411	433.509	292.702	162.032	0.0013809	0.00068747	0.00017022	1464.1	6.6608e-06	7.5045e-06	1441.3	411.81	9.1805e-06	2.9592e-06	461.15	159.76	139.7	48.665	4.3937e-06	58.057	0.000691	0.00056709	0.00015772	1494.2	6.2372e-06	5.9629e-06	1472.6	420.62	6.3612e-06	6.0621e-06	471.41	162.82	143.08	50.183	6.1024e-06	60.374	480.287	234.492	244.425	168.109	281.724	305.032	167.656	172.259	263.559	314.438	171.723	175.543	176.528	181.121	266.795	180.427	-8191	255	
21459.490	1	1	0	0	0.089268	0.22903	0.13666	0.31669	0.13995	0.24782	0.23631	0.23489	0.18918	0.32044	0.11324	0.17406	0.25632	0.046106	0.064821	0.10189	-2.5	-2.9417	-2.6083	-2.9521	-2.8375	-2.7938	-3.0521	-2.7396	-2.9271	-2.8729	-2.8667	-2.9854	-2.9437	-2.7667	-2.9104	-2.7938	431.976	407.993	301.442	453.623	314.431	173.674	456.150	456.804	338.328	357.042	407.953	368.903	477.835	247.195	387.108	489.168	0.0014186	0.00048827	0.0001507	1464.7	6.62e-06	8.3584e-06	1446.3	412.59	9.2547e-06	4.7098e-06	461.29	159.52	140.63	48.584	5.5193e-06	58.348	0.00068408	0.00054537	0.00015291	1493.6	6.129e-06	6.1528e-06	1474.1	420.6	6.2832e-06	5.941e-06	472.09	162.69	143.41	50.231	6.1476e-06	60.453	479.812	235.850	231.769	167.962	261.562	311.159	167.565	172.364	259.306	329.205	172.015	175.721	176.294	181.232	290.330	180.470	-8191	255	
21459.586	1	1	0	0	0.14712	0.12016	0.24287	0.093538	0.069578	0.090988	0.35665	0.12179	0.17132	0.23927	0.2344	0.23588	0.17419	0.28274	0.393	0.21811	-2.3708	-2.9208	-2.7313	-2.8521	-2.8063	-2.6729	-3.0292	-2.8667	-2.8021	-3.0021	-2.8542	-2.9021	-2.8771	-2.7646	-2.8833	-2.7854	336.840	489.392	275.548	163.847	295.519	249.559	433.544	204.528	186.187	453.934	448.416	478.529	239.364	181.922	381.000	211.225	0.0013543	0.00052784	0.00017255	1466.6	7.177e-06	7.2614e-06	1446.1	412.54	8.3279e-06	6.0088e-06	461.98	159.73	140.45	48.804	4.9667e-06	58.412	0.00068429	0.00056566	0.00015464	1495.6	6.1373e-06	6.1277e-06	1475.3	420.78	6.2352e-06	6.0314e-06	472.09	162.98	143.42	50.284	6.1218e-06	60.553	479.720	246.643	247.203	168.004	284.305	305.973	167.633	172.271	254.169	319.538	171.708	176.002	176.093	181.288	294.611	180.344	-8191	255	
21459.682	1	1	0	0	0.089415	0.093582	0.10665	0.064064	0.28354	0.16539	0.090552	0.39355	0.16253	0.16608	0.15567	0.1915	0.095001	0.26476	0.10227	0.37903	-2.2854	-2.9437	-2.7562	-3.0792	-2.9479	-2.8292	-3.0646	-2.7938	-2.7583	-2.8646	-2.8958	-3.0917	-2.7313	-2.7687	-2.9375	-2.8271	478.190	266.734	485.045	416.143	497.158	222.934	383.834	386.360	478.018	275.011	460.734	204.219	420.149	166.356	346.240	484.911	0.0013444	0.00051427	0.00018913	1460.3	6.9926e-06	6.1965e-06	1444.5	411.13	9.568e-06	5.4994e-06	460.3	159.49	140.77	48.584	6.2519e-06	58.564	0.00068284	0.00055404	0.00015468	1493.3	6.2205e-06	6.0997e-06	1472.9	420.64	6.1432e-06	5.8824e-06	472.15	162.75	143.54	50.268	5.9589e-06	60.564	479.572	244.671	237.657	167.873	281.803	305.489	167.357	172.193	253.284	292.418	171.835	175.752	176.272	181.176	287.009	180.392	-8191	255	
21459.777	1	1	0	0	0.15765	0.10017	0.12871	0.16755	0.095487	0.38071	0.051755	0.40949	0.22039	0.19999	0.20506	0.079136	0.28603	0.11844	0.31013	0.20079	-2.2646	-2.9125	-2.6604	-3.0125	-2.9688	-2.5896	-3.0479	-2.9437	-2.6667	-2.9562	-2.875	-2.9625	-3.0708	-2.8208	-3	-2.7896	332.482	263.092	330.481	170.956	165.353	323.167	471.077	454.298	402.572	435.303	444.823	445.457	273.491	247.967	358.192	413.890	0.0013821	0.00054708	0.00015469	1463.4	4.9461e-06	5.4485e-06	1438	411.52	9.0579e-06	5.4515e-06	458.12	158.24	139.57	48.422	6.4965e-06	58.071	0.00068933	0.00055347	0.00015611	1493.6	6.2052e-06	6.2019e-06	1469.8	419.73	6.3176e-06	6.0866e-06	469.81	161.9	142.42	49.958	6.2368e-06	60.038	478.729	251.308	244.330	168.141	279.249	293.149	167.729	172.199	262.698	306.697	171.913	175.700	176.356	181.129	288.211	180.101	-8191	255	
21459.873	1	1	0	0	0.059497	0.18323	0.17409	0.24799	0.28562	0.21266	0.20121	0.43775	0.13138	0.072503	0.093637	0.17207	0.074194	0.37509	0.32417	0.27755	-2.3	-3.0646	-2.6833	-2.9188	-2.9375	-2.5687	-3.0312	-2.8646	-2.7708	-2.9708	-3.0062	-2.9437	-3	-2.7938	-3.1542	-2.8167	501.247	328.429	396.288	452.559	235.700	486.046	472.056	473.214	197.500	333.553	505.123	438.266	227.924	513.226	394.662	451.080	0.0013827	0.00049049	0.00017162	1463	6.5202e-06	6.0117e-06	1445.4	408.89	7.8058e-06	3.9316e-06	459.01	158.93	139.72	48.255	7.3867e-06	58.107	0.00069004	0.00057151	0.00016002	1491.5	6.1448e-06	6.1152e-06	1472.7	419	6.3508e-06	6.0544e-06	470.55	162.11	142.53	49.785	6.2685e-06	60.049	479.122	242.614	236.918	167.946	271.132	306.317	167.570	172.343	275.508	319.765	171.799	175.870	176.339	181.387	276.444	180.622	-8191	255	
21459.971	1	1	0	0	0.18341	0.11714	0.092653	0.22391	0.3103	0.11464	0.32007	0.22185	0.19576	0.17681	0.067927	0.15465	0.13756	0.20094	0.12135	0.368	-2.1729	-2.8958	-2.6937	-2.9604	-3.0021	-2.6813	-2.9229	-2.8312	-2.6979	-2.9771	-2.7812	-2.7375	-3.1167	-2.8146	-2.8896	-3.1521	331.827	234.304	312.246	394.252	376.588	266.415	433.805	444.319	348.422	344.069	203.544	439.666	264.514	500.062	405.881	446.456	0.001328	0.00056383	9.8525e-05	1460.6	6.6984e-06	7.2647e-06	1439	409.02	1.0929e-05	3.5565e-06	457.32	158.48	139.38	48.196	6.851e-06	57.784	0.00070591	0.00058313	0.00016735	1489.5	6.5333e-06	6.6809e-06	1467.3	417.49	6.7324e-06	6.6348e-06	468.34	161.03	141.8	49.558	6.7402e-06	59.708	477.866	236.208	223.765	168.078	274.860	318.798	167.580	172.176	264.789	312.853	171.763	175.766	176.326	181.248	277.630	180.502	-8191	255	
21460.092	1	1	0	0	0.044749	0.014598	0.10872	0.030711	0.091136	0.19023	0.23013	0.20676	0.31641	0.045135	0.13078	0.1022	0.038085	0.10798	0.19533	0.33019	-2.2521	-2.8875	-2.7938	-2.8479	-2.9354	-2.7375	-3.1188	-2.9708	-2.7208	-2.9521	-2.9979	-2.7542	-3.0583	-2.8354	-2.7979	-3.0458	279.054	397.486	235.838	341.947	177.668	372.794	437.143	438.889	373.438	492.486	258.937	389.886	322.599	398.383	190.192	429.270	0.0013695	0.00056969	0.00012627	1449.5	7.4415e-06	4.1533e-06	1430.2	406.01	6.8091e-06	6.1148e-06	453.38	157.62	138.49	47.605	5.4874e-06	57.5	0.00071642	0.00062536	0.00017193	1481.1	6.7768e-06	6.7902e-06	1458.2	415.02	7.0237e-06	6.9942e-06	465.26	160.56	141.22	49.304	7.1812e-06	59.465	479.309	219.534	252.285	168.127	264.732	310.500	167.758	172.180	269.685	286.188	171.981	175.818	176.501	181.347	277.509	180.623	-8191	255	
21460.188	1	1	0	0	0.068549	0.24136	0.20609	0.2641	0.16255	0.1846	0.33892	0.18614	0.072746	0.13651	0.10995	0.16411	0.11389	0.21063	0.14292	0.18776	-2.2146	-3.0292	-2.7604	-2.8479	-2.7229	-2.7292	-3.025	-3.1625	-2.675	-3.1437	-2.9729	-2.7438	-3.0771	-2.8979	-3.0771	-3.1521	384.898	402.261	338.686	502.429	427.621	224.036	453.464	462.001	376.104	268.208	492.910	484.871	290.727	430.503	460.603	446.189	0.0013208	0.0006619	0.00017341	1448.4	8.8661e-06	7.1164e-06	1420	405.69	1e-05	6.2991e-06	454.01	157.44	138.44	47.835	4.8219e-06	57.202	0.00074542	0.00065324	0.00018396	1475.5	7.1014e-06	7.2364e-06	1453.6	415.34	7.294e-06	7.2614e-06	466.66	160.26	141.22	49.388	7.2169e-06	59.502	479.951	253.461	253.646	168.060	258.610	317.134	167.773	172.465	259.987	333.778	171.961	175.801	176.420	181.172	297.661	180.451	-8191	255	
21460.283	1	1	0	0	0.27652	0.096703	0.24806	0.10954	0.061293	0.12775	0.11322	0.28657	0.050599	0.20692	0.21244	0.095089	0.080687	0.17048	0.17829	0.18016	-2.2	-2.7333	-2.7708	-2.6854	-3.0563	-2.7479	-2.8104	-3.0542	-2.7167	-3.0271	-2.9646	-2.7021	-3.0854	-2.725	-2.6479	-2.9688	348.287	337.279	471.734	423.321	416.284	221.604	487.499	504.944	369.371	251.594	451.871	330.380	339.592	444.008	364.874	413.077	0.0013609	0.00050562	0.00015814	1452.6	6.0256e-06	5.6681e-06	1432.4	408.93	9.4327e-06	5.2311e-06	456.16	158.06	138.82	48.034	6.3661e-06	57.686	0.00074851	0.00067465	0.00017925	1480.2	7.1579e-06	7.0278e-06	1460.7	416.87	7.1767e-06	7.1792e-06	467.93	160.84	141.56	49.48	6.9969e-06	59.667	479.159	260.605	248.163	167.908	277.342	323.030	167.575	172.492	268.460	300.309	171.936	176.038	176.421	181.401	285.106	180.223	-8191	255	
21460.379	1	1	0	0	0.23726	0.14022	0.081711	0.31185	0.21133	0.10755	0.31846	0.090658	0.136	0.19813	0.29308	0.26571	0.13292	0.15463	0.090962	0.28096	-2.2958	-2.7938	-2.6542	-2.8583	-2.8208	-2.7	-3	-3.05	-2.4917	-2.8333	-3.1104	-2.7188	-3.0125	-2.8187	-2.6312	-3.0042	230.739	361.579	272.050	470.434	461.828	191.002	473.621	344.661	428.094	484.527	171.903	448.227	181.216	499.953	266.118	367.274	0.0013377	0.00063748	0.00014409	1454.5	7.788e-06	5.7262e-06	1428.9	408.71	9.3474e-06	3.2428e-06	457.34	157.6	138.67	48.052	5.5496e-06	57.618	0.000741	0.00065857	0.00017289	1482.6	7.1005e-06	6.9974e-06	1459	417.23	6.9905e-06	7.0586e-06	468.16	160.9	141.77	49.502	7.0734e-06	59.682	480.459	234.402	240.988	168.095	270.755	316.482	167.857	172.392	252.393	342.569	172.038	175.836	176.530	181.228	288.285	180.211	-8191	255	
21460.475	1	1	0	0	0.2027	0.251	0.2574	0.2457	0.16492	0.071253	0.39393	0.22334	0.2352	0.14924	0.28049	0.26245	0.26116	0.20136	0.10385	0.1295	-2.2333	-2.7438	-3.0062	-2.7667	-2.8354	-2.8937	-2.9146	-3.0708	-2.8063	-2.8104	-3.1417	-2.8479	-3.0479	-2.9333	-2.7771	-3.05	482.017	442.088	357.735	474.435	275.714	172.001	492.748	513.674	440.720	389.423	178.578	400.257	483.841	317.522	272.476	471.968	0.0013695	0.0006954	0.00015599	1455	5.827e-06	4.8591e-06	1433.5	408.07	8.0924e-06	4.6607e-06	456.25	157.41	138.99	47.916	6.5471e-06	57.399	0.0007405	0.00063507	0.00017813	1482.8	6.949e-06	6.9102e-06	1463	416.82	7.0193e-06	6.9274e-06	468.07	160.84	141.8	49.527	6.9172e-06	59.752	479.758	247.963	236.989	167.968	282.071	323.331	167.715	172.276	264.975	302.959	172.004	175.852	176.223	181.324	295.853	180.592	-8191	255	
21460.570	1	1	0	0	0.1599	0.097547	0.15634	0.327	0.24931	0.2645	0.22893	0.1485	0.068323	0.19652	0.058508	0.29612	0.30776	0.048009	0.095016	0.17305	-2.4708	-2.7208	-2.9229	-2.8312	-2.6813	-2.9083	-2.6875	-3.0458	-2.8937	-2.7375	-3.1208	-2.6229	-2.875	-2.8063	-2.8167	-3.0354	327.147	172.441	408.471	494.009	194.892	441.079	173.981	402.603	271.241	496.785	185.506	397.278	465.060	260.088	446.732	419.900	0.0013561	0.00063969	8.8861e-05	1452.8	6.853e-06	5.2981e-06	1429.7	408.98	8.1809e-06	4.6291e-06	456.54	158.6	138.64	47.962	6.9597e-06	57.797	0.00073698	0.00064214	0.00018046	1482.4	6.8684e-06	7.008e-06	1460.9	417.53	7.0219e-06	6.9832e-06	468.13	160.98	141.89	49.551	6.9285e-06	59.742	478.070	240.743	229.170	167.916	270.035	325.105	167.743	172.320	266.425	306.212	171.864	175.797	176.503	181.231	275.179	180.564	-8191	255	
21460.666	1	1	0	0	0.3543	0.067458	0.050096	0.10259	0.099454	0.070257	0.36413	0.13676	0.16348	0.045754	0.19254	0.056366	0.11313	0.26944	0.20587	0.15898	-2.4417	-2.6063	-2.7208	-2.8333	-2.7771	-2.9333	-2.8021	-3.075	-2.9313	-2.8292	-3.2458	-2.9417	-2.7875	-3.0396	-2.6083	-2.9396	358.229	332.931	508.556	201.703	272.249	185.042	482.118	489.544	451.046	411.982	463.492	478.526	433.173	409.920	430.242	485.876	0.0012968	0.00050432	0.00011868	1453.4	8.3668e-06	4.1503e-06	1432.3	407.81	9.3846e-06	7.2457e-06	458.53	158.08	138.78	48.016	5.093e-06	57.795	0.00072548	0.00062198	0.00017394	1482.8	7.0471e-06	6.8987e-06	1463.1	416.93	6.8907e-06	6.9034e-06	468.09	160.87	141.72	49.504	6.9027e-06	59.809	479.491	237.720	250.905	167.929	276.807	314.689	167.765	172.439	263.104	321.501	171.759	175.527	176.386	181.182	262.960	180.321	-8191	255	
21460.762	1	1	0	0	0.21207	0.10465	0.27068	0.15374	0.26188	0.12822	0.094692	0.063243	0.091679	0.19463	0.088976	0.15641	0.14793	0.19372	0.32154	0.06985	-2.2938	-2.6271	-3.0125	-2.7562	-2.8208	-3.1958	-2.8063	-3.1021	-3.0021	-2.7083	-3.2021	-3.0333	-2.5979	-2.9188	-2.6562	-2.9479	391.413	228.804	229.755	426.235	307.377	426.866	453.681	373.972	307.473	390.451	479.856	471.694	245.593	482.133	491.496	293.744	0.0013327	0.00048543	0.00019928	1452.9	7.6169e-06	7.6465e-06	1435.2	408.32	7.724e-06	4.7047e-06	457.1	157.53	138.55	47.932	6.8866e-06	57.501	0.0007247	0.00062805	0.00017257	1482.7	6.889e-06	7.0369e-06	1463.1	417.33	6.7803e-06	6.8424e-06	468.43	160.96	141.74	49.531	6.7737e-06	59.699	479.774	236.758	228.679	167.940	276.127	323.337	167.602	172.365	274.752	307.532	171.951	175.697	176.441	181.084	281.761	180.255	-8191	255	
21460.883	1	1	0	0	0.15199	0.17626	0.11277	0.28865	0.12123	0.09933	0.15977	0.13062	0.32291	0.024701	0.17626	0.12627	0.2601	0.11705	0.24498	0.044548	-2.6312	-2.8125	-3.0167	-3.0021	-2.8063	-3.0521	-2.725	-3.0312	-2.9813	-2.7104	-3.0563	-2.9771	-2.8625	-3.0563	-2.7667	-2.8479	182.802	174.961	463.665	475.959	324.772	418.893	421.376	418.714	411.098	361.370	460.900	154.940	388.045	482.907	193.361	508.269	0.0013722	0.00064812	0.00017242	1456	8.43e-06	4.8221e-06	1431.2	409.25	1.0373e-05	6.6039e-06	458.75	158.41	139.11	48.058	5.0856e-06	57.844	0.00071039	0.00062453	0.00017136	1484.8	6.7698e-06	6.6124e-06	1463.6	418.38	6.813e-06	6.7151e-06	469.74	161.32	141.95	49.652	6.8217e-06	59.797	480.268	247.138	241.916	167.974	267.710	317.095	167.584	172.271	257.648	290.856	171.939	175.658	176.476	181.426	288.277	180.346	-8191	255	
21460.979	1	1	0	0	0.15251	0.15213	0.084184	0.074451	0.1945	0.079627	0.31222	0.14443	0.32021	0.13851	0.34288	0.3542	0.17868	0.055447	0.12796	0.065345	-2.4854	-2.5979	-3.0396	-3.0354	-2.8	-3.3021	-2.8812	-2.8854	-2.9854	-2.7188	-2.9208	-3.1479	-2.8604	-3.1083	-2.8604	-2.7917	299.716	366.627	192.165	349.536	168.544	408.983	452.486	400.179	464.685	236.660	498.356	461.928	419.426	181.221	399.565	216.527	0.0013858	0.0004609	0.00018641	1458	7.7602e-06	6.8035e-06	1433.8	407.65	9.9309e-06	4.9825e-06	455.85	157.75	138.72	47.971	5.6711e-06	57.725	0.00072696	0.00060598	0.00017197	1484.4	6.7856e-06	6.7821e-06	1462.2	417.09	6.5954e-06	6.6262e-06	468.5	160.82	141.79	49.498	6.7017e-06	59.731	480.396	229.402	261.872	168.074	265.514	313.325	167.679	172.286	268.721	306.463	171.734	175.794	176.539	181.338	272.108	180.269	-8191	255	
21461.051	1	1	0	0	0.21845	0.093649	0.20037	0.095369	0.28518	0.07	0.15559	0.099699	0.072153	0.13496	0.07614	0.095396	0.12931	0.28578	0.24373	0.14806	-2.5479	-2.4396	-2.7792	-3.0438	-2.5958	-2.9292	-3.0833	-2.7958	-2.9896	-2.8479	-3.0812	-2.9833	-2.6646	-3.0771	-2.7833	-2.7354	168.808	265.144	371.425	366.498	460.946	504.916	438.626	426.938	366.076	209.181	357.650	177.109	202.698	500.393	327.870	409.477	0.0012936	0.00068763	0.00014055	1448.7	6.4884e-06	6.0652e-06	1431.3	407.27	8.1285e-06	6.5785e-06	454.77	157.08	138.99	47.793	6.4203e-06	57.422	0.00069113	0.00061183	0.00016544	1480.4	6.4693e-06	6.6264e-06	1458.9	416.86	6.5898e-06	6.5426e-06	467.17	160.64	141.56	49.453	6.5424e-06	59.699	479.309	248.803	235.632	168.035	269.270	332.165	167.637	172.287	265.545	287.041	171.809	175.814	176.462	181.409	278.198	180.404	-8191	255	
21461.172	1	1	0	0	0.096452	0.18833	0.34295	0.27098	0.065934	0.22367	0.25683	0.17062	0.047917	0.088964	0.018628	0.11537	0.087774	0.16065	0.1015	0.32744	-2.5812	-2.8021	-2.8042	-3.0896	-2.6625	-3.0667	-2.9021	-2.7208	-3.0563	-2.8792	-2.8021	-3.0167	-2.7	-2.8563	-2.8646	-2.5812	301.816	435.509	508.143	467.375	163.223	226.950	364.263	460.868	462.558	394.316	474.142	254.213	403.932	159.839	316.374	486.442	0.0013471	0.00054205	0.00021248	1445.3	6.7968e-06	6.1185e-06	1422.8	406.34	1.1411e-05	6.3258e-06	454.78	157.07	137.79	47.758	5.9124e-06	57.226	0.00070019	0.00061894	0.00016598	1477.3	6.6564e-06	6.5329e-06	1454.4	415.8	6.5832e-06	6.6132e-06	466.95	160.48	140.85	49.319	6.4446e-06	59.4	479.319	247.227	229.222	168.060	285.321	290.492	167.737	172.196	250.795	296.893	171.900	175.762	176.279	181.243	279.959	180.386	-8191	255	
21461.268	1	1	0	0	0.10354	0.33449	0.24403	0.037942	0.043869	0.2808	0.19626	0.021269	0.063918	0.13227	0.23022	0.12988	0.10863	0.26788	0.062932	0.058946	-2.6479	-2.6	-2.7	-3.1312	-2.5354	-2.8792	-3.0687	-2.7875	-3.05	-2.675	-2.9813	-3.0312	-2.6979	-3.0604	-2.8667	-2.7875	292.406	371.392	477.630	382.591	217.439	416.457	415.813	398.743	295.579	353.988	270.707	468.909	424.530	480.537	241.158	181.847	0.0013735	0.0006157	0.00016065	1436.5	7.4839e-06	5.5533e-06	1416.4	405.09	8.5503e-06	4.903e-06	452.88	156.74	138.28	47.692	5.5816e-06	57.214	0.0007085	0.0006153	0.00017054	1466.1	6.5105e-06	6.7078e-06	1444.5	413.54	6.8344e-06	6.7151e-06	464.11	159.89	140.78	49.232	6.7036e-06	59.341	479.746	228.363	255.344	167.991	260.531	315.414	167.683	172.391	266.975	314.262	171.882	175.761	176.644	181.560	280.718	180.499	-8191	255	
21461.363	1	1	0	0	0.15705	0.099398	0.30573	0.33196	0.11635	0.025709	0.28872	0.18978	0.15808	0.091298	0.20166	0.19941	0.10789	0.12108	0.166	0.22073	-2.5708	-2.6	-2.7458	-3.1229	-2.6458	-3.0417	-3.0333	-2.8042	-2.9271	-2.9146	-2.7438	-2.8958	-2.8042	-2.9583	-2.9854	-2.7167	420.502	435.601	323.911	439.998	500.232	241.667	431.529	393.852	398.757	489.691	211.208	179.825	403.422	499.893	468.063	323.501	0.0013208	0.0006142	0.00017162	1438	7.73e-06	4.6219e-06	1416.8	405.7	5.521e-06	5.4133e-06	453.53	157.09	138.29	47.804	7.1333e-06	57.396	0.00070974	0.00061625	0.00017347	1468.1	6.7199e-06	6.8326e-06	1447	414.35	6.7053e-06	6.8121e-06	465.45	160.11	140.87	49.37	6.6746e-06	59.481	480.411	242.712	236.362	168.124	277.361	321.306	167.642	172.465	271.370	317.562	171.899	175.683	176.328	181.409	276.327	180.264	-8191	255	
21461.461	1	1	0	0	0.4278	0.17698	0.12117	0.13823	0.040747	0.1042	0.1174	0.098775	0.068007	0.090678	0.20763	0.14226	0.16939	0.17471	0.062422	0.16088	-2.6437	-2.8021	-2.6562	-3.1896	-2.6958	-2.8292	-3.15	-2.9604	-2.8771	-2.8	-2.9375	-3.0229	-2.8063	-2.8063	-3.0083	-2.7938	454.006	421.724	398.957	477.092	372.370	176.588	187.697	486.463	379.887	373.914	293.588	376.274	387.583	494.576	405.097	466.405	0.0013416	0.00041959	0.00013915	1439.5	6.0542e-06	7.2794e-06	1418.5	405.58	9.0591e-06	6.4345e-06	454.91	156.73	137.99	47.626	5.5568e-06	57.35	0.00072838	0.00060446	0.00017317	1467.4	6.7659e-06	6.7984e-06	1445.9	414.52	6.7899e-06	6.7199e-06	465.31	160	140.75	49.213	6.7493e-06	59.428	479.629	250.067	250.014	168.013	274.775	318.789	167.690	172.232	276.817	314.307	171.815	175.796	176.349	181.129	277.587	180.548	-8191	255	
21461.580	1	1	0	0	0.14493	0.13194	0.12525	0.11556	0.10879	0.13353	0.026748	0.17086	0.14413	0.19939	0.10784	0.29162	0.22761	0.12298	0.019642	0.16635	-2.3979	-2.7625	-2.6708	-3.1208	-2.7062	-2.7229	-3.2833	-2.9521	-3.0583	-2.8167	-2.6833	-2.9542	-2.8104	-2.8667	-2.8333	-2.5125	412.499	361.367	233.616	173.852	208.939	355.806	326.032	471.122	260.216	437.557	190.104	479.505	245.138	166.777	479.427	466.792	0.0013992	0.00060367	0.00013646	1435.8	6.9658e-06	5.0042e-06	1419.3	404.76	8.1083e-06	6.3202e-06	455.53	156.59	137.77	47.556	6.6787e-06	57.48	0.00072139	0.00062111	0.00017295	1467.3	6.5618e-06	6.7266e-06	1446	413.99	6.7136e-06	6.6637e-06	466.13	159.93	140.74	49.254	6.6519e-06	59.489	477.949	222.316	222.316	168.028	295.309	328.233	167.656	172.355	257.255	304.720	171.837	175.847	176.379	181.383	270.129	180.434	-8191	255	
21461.676	1	1	0	0	0.16116	0.086789	0.32431	0.15314	0.054873	0.2387	0.33246	0.1148	0.097289	0.05398	0.26056	0.18511	0.03031	0.34095	0.23933	0.081796	-2.5167	-2.7812	-2.6333	-3.1729	-2.7104	-2.6583	-3.1979	-2.8	-2.7604	-2.9604	-2.6979	-3.1042	-2.8646	-2.7625	-2.9979	-2.9354	308.011	229.629	225.211	280.804	434.326	241.503	417.022	506.364	304.907	256.994	489.529	244.204	507.255	442.956	426.653	395.413	0.001302	0.00061999	0.00018127	1442	7.1775e-06	5.856e-06	1421.1	405.12	8.1034e-06	4.2624e-06	454.61	156.72	138.11	47.651	3.9564e-06	57.374	0.00070921	0.0006153	0.00017199	1468.6	6.6437e-06	6.7054e-06	1447.4	414.31	6.6922e-06	6.5508e-06	466.02	160.05	140.92	49.321	6.766e-06	59.453	481.350	233.579	252.051	168.086	293.190	306.429	167.685	172.054	273.690	313.887	171.879	175.803	176.427	181.111	276.325	180.478	-8191	255	
21461.771	1	1	0	0	0.18388	0.10601	0.092989	0.2512	0.23693	0.12086	0.11926	0.15515	0.18374	0.055227	0.079019	0.16283	0.12796	0.20615	0.14799	0.074186	-2.3875	-2.9208	-2.6604	-3.1813	-2.8167	-2.7042	-3.1167	-2.8417	-2.7292	-2.8729	-3.0229	-2.8792	-2.9083	-2.7917	-3.1896	-2.7396	198.461	226.628	456.801	486.070	400.302	449.422	217.105	496.907	400.898	249.831	364.160	472.448	239.908	418.293	485.069	264.205	0.0014254	0.0006494	0.000109	1437.9	8.9934e-06	6.359e-06	1420.1	406.46	6.7674e-06	5.6355e-06	454.42	156.36	138.11	47.684	6.6453e-06	57.535	0.00071011	0.0006176	0.00016861	1466.7	6.5131e-06	6.8177e-06	1446.5	414.58	6.7607e-06	6.6238e-06	466.27	160.09	140.67	49.307	6.5229e-06	59.513	479.695	253.496	229.911	167.938	291.247	326.071	167.615	172.405	264.093	299.074	171.991	175.970	176.345	181.282	266.192	180.488	-8191	255	
21461.867	1	1	0	0	0.10419	0.18547	0.18882	0.17658	0.1561	0.31242	0.11437	0.27537	0.29962	0.13336	0.37223	0.088739	0.089784	0.053291	0.12628	0.11836	-2.2729	-2.9688	-2.5396	-2.9813	-2.9917	-2.6396	-3.1917	-2.9021	-2.7708	-3.05	-2.7354	-3.0729	-2.9729	-2.8854	-2.8271	-2.8438	402.262	301.623	499.733	435.596	183.907	367.998	462.431	427.392	252.494	435.540	476.453	449.624	310.961	269.991	355.227	317.447	0.0013124	0.00057192	0.00018345	1439	7.6521e-06	4.3662e-06	1417.9	404.72	7.9064e-06	4.7345e-06	454.32	157.07	138.3	47.64	6.3834e-06	57.364	0.00072334	0.00062384	0.00016988	1467.1	6.7186e-06	6.8298e-06	1447.3	414.31	6.6255e-06	6.7213e-06	465.94	160.16	141.08	49.278	6.8244e-06	59.513	480.338	237.227	259.432	168.067	281.656	293.698	167.696	172.283	271.010	299.175	172.134	175.832	176.405	181.145	294.630	180.377	-8191	255	
21461.963	1	1	0	0	0.15903	0.18045	0.1967	0.20113	0.20078	0.10321	0.24079	0.27955	0.017583	0.14413	0.30925	0.065931	0.18862	0.27052	0.079768	0.073592	-2.4292	-2.925	-2.7104	-3.0896	-2.9458	-2.6708	-3.0792	-2.9562	-2.4917	-2.8354	-2.6646	-2.85	-2.95	-2.8229	-2.9021	-3.0187	360.437	312.579	225.588	511.237	406.084	170.711	273.376	456.408	451.352	317.223	400.624	245.279	435.818	413.615	250.633	156.498	0.0013292	0.00071504	0.00014889	1436.9	5.9303e-06	6.8227e-06	1419.7	405.34	9.1313e-06	5.5317e-06	455.16	156.97	138	47.726	6.6314e-06	57.689	0.00072378	0.00062536	0.00017093	1467.3	6.5083e-06	6.9261e-06	1446.3	414.62	6.7742e-06	6.7228e-06	466.11	160.16	140.88	49.358	6.6592e-06	59.549	477.066	248.864	227.258	168.145	279.607	351.538	167.477	172.202	271.703	326.504	171.913	175.936	176.253	181.167	287.496	180.405	-8191	255	
#DATA ENDS
