BOXY.EXE: ISS Imagent and Oximeter Data Acquisition Program Version 0.80
Ascii Record File

#ACQ INFORMATION
2  Detector Channels 
16  External MUX Channels 
1  Auxiliary Channels 
5000  Waveform (CCF) Frequency (Hz)
1  Waveforms Skipped 
30  Waveforms Averaged 
1  Cycles Averaged 
16  Acquisitions per Waveform 
10.0806  Updata Rate (Hz) 

#FILE INFORMATION
TRUE -- External MUX Channel results are PARSED.
FALSE -- AC DC and Phase are NOT grouped.
TRUE -- Companion Program Settings File CREATED.
FALSE -- AC data not excluded
FALSE -- DC data not excluded
FALSE -- Phase data not excluded
FALSE -- Auxillary Chn. data not excluded
Tab delimiters

#CALIBRATION STATE
TRUE -- Waveform Calibration Values APPLIED.


#AUX CALIBRATION VALUES
Val Type	aux-1	

Term	1.0000e+00	
Factor	0.0000e+00	


#WF CALIBRATION VALUES
A = Detector Channel
Val Type	A-AC1	A-AC2	A-AC3	A-AC4	A-AC5	A-AC6	A-AC7	A-AC8	A-AC9	A-AC10	A-AC11	A-AC12	A-AC13	A-AC14	A-AC15	A-AC16	A-DC1	A-DC2	A-DC3	A-DC4	A-DC5	A-DC6	A-DC7	A-DC8	A-DC9	A-DC10	A-DC11	A-DC12	A-DC13	A-DC14	A-DC15	A-DC16	A-Ph1	A-Ph2	A-Ph3	A-Ph4	A-Ph5	A-Ph6	A-Ph7	A-Ph8	A-Ph9	A-Ph10	A-Ph11	A-Ph12	A-Ph13	A-Ph14	A-Ph15	A-Ph16	

Term	0.00000e+00	0.00000e+00	0.00000e+00	0.00000e+00	0.00000e+00	0.00000e+00	0.00000e+00	0.00000e+00	0.00000e+00	0.00000e+00	0.00000e+00	0.00000e+00	0.00000e+00	0.00000e+00	0.00000e+00	0.00000e+00	0.00000e+00	0.00000e+00	0.00000e+00	0.00000e+00	0.00000e+00	0.00000e+00	0.00000e+00	0.00000e+00	0.00000e+00	0.00000e+00	0.00000e+00	0.00000e+00	0.00000e+00	0.00000e+00	0.00000e+00	0.00000e+00	0.00000e+00	0.00000e+00	0.00000e+00	0.00000e+00	0.00000e+00	0.00000e+00	0.00000e+00	0.00000e+00	0.00000e+00	0.00000e+00	0.00000e+00	0.00000e+00	0.00000e+00	0.00000e+00	0.00000e+00	0.00000e+00	
Factor	1.00000e+00	1.00000e+00	1.00000e+00	1.00000e+00	1.00000e+00	1.00000e+00	1.00000e+00	1.00000e+00	1.00000e+00	1.00000e+00	1.00000e+00	1.00000e+00	1.00000e+00	1.00000e+00	1.00000e+00	1.00000e+00	1.00000e+00	1.00000e+00	1.00000e+00	1.00000e+00	1.00000e+00	1.00000e+00	1.00000e+00	1.00000e+00	1.00000e+00	1.00000e+00	1.00000e+00	1.00000e+00	1.00000e+00	1.00000e+00	1.00000e+00	1.00000e+00	X	X	X	X	X	X	X	X	X	X	X	X	X	X	X	X	

B = Detector Channel
Val Type	B-AC1	B-AC2	B-AC3	B-AC4	B-AC5	B-AC6	B-AC7	B-AC8	B-AC9	B-AC10	B-AC11	B-AC12	B-AC13	B-AC14	B-AC15	B-AC16	B-DC1	B-DC2	B-DC3	B-DC4	B-DC5	B-DC6	B-DC7	B-DC8	B-DC9	B-DC10	B-DC11	B-DC12	B-DC13	B-DC14	B-DC15	B-DC16	B-Ph1	B-Ph2	B-Ph3	B-Ph4	B-Ph5	B-Ph6	B-Ph7	B-Ph8	B-Ph9	B-Ph10	B-Ph11	B-Ph12	B-Ph13	B-Ph14	B-Ph15	B-Ph16	

Term	0.00000e+00	0.00000e+00	0.00000e+00	0.00000e+00	0.00000e+00	0.00000e+00	0.00000e+00	0.00000e+00	0.00000e+00	0.00000e+00	0.00000e+00	0.00000e+00	0.00000e+00	0.00000e+00	0.00000e+00	0.00000e+00	0.00000e+00	0.00000e+00	0.00000e+00	0.00000e+00	0.00000e+00	0.00000e+00	0.00000e+00	0.00000e+00	0.00000e+00	0.00000e+00	0.00000e+00	0.00000e+00	0.00000e+00	0.00000e+00	0.00000e+00	0.00000e+00	-5.24022e+01	-1.64169e+02	-9.76990e+01	-1.80969e+02	-5.66720e+01	-9.77327e+01	-1.56073e+02	-1.62015e+02	-2.91745e+01	-6.44927e+01	-1.73276e+02	-1.70265e+02	-1.82009e+02	-1.76771e+02	-6.96488e+01	-1.50163e+02	
Factor	1.86859e-05	9.78118e-05	2.79070e-05	1.67683e-01	9.76611e-07	1.10387e-06	1.73110e-01	5.09591e-02	1.07639e-06	1.05178e-06	1.04153e-01	2.91335e-02	3.50756e-02	9.31146e-03	9.58455e-07	1.36155e-02	6.11716e-07	6.27859e-07	1.75053e-07	7.79073e-02	6.84918e-09	6.89061e-09	7.55109e-02	2.36384e-02	6.84905e-09	6.88618e-09	4.50172e-02	1.28399e-02	1.55609e-02	4.22386e-03	6.88738e-09	5.88561e-03	X	X	X	X	X	X	X	X	X	X	X	X	X	X	X	X	



#DISTANCE SETTINGS
A = Detector Channel
A-1	A-2	A-3	A-4	A-5	A-6	A-7	A-8	A-9	A-10	A-11	A-12	A-13	A-14	A-15	A-16	

2.5000e+00	3.0000e+00	2.5000e+00	3.0000e+00	2.0000e+00	3.0000e+00	1.5000e+00	3.0000e+00	3.0000e+00	3.0000e+00	3.0000e+00	3.0000e+00	3.0000e+00	3.0000e+00	1.5000e+00	3.0000e+00	

B = Detector Channel
B-1	B-2	B-3	B-4	B-5	B-6	B-7	B-8	B-9	B-10	B-11	B-12	B-13	B-14	B-15	B-16	

1.0000e+01	1.0000e+01	1.0000e+01	1.4400e+00	1.0000e+01	1.0000e+01	1.5100e+00	1.9400e+00	1.0000e+01	1.0000e+01	1.9900e+00	2.4900e+00	2.4100e+00	2.9000e+00	1.0000e+01	2.9800e+00	




#DATA BEGINS
time	group	step	mark	flag	A-AC1	A-AC2	A-AC3	A-AC4	A-AC5	A-AC6	A-AC7	A-AC8	A-AC9	A-AC10	A-AC11	A-AC12	A-AC13	A-AC14	A-AC15	A-AC16	A-DC1	A-DC2	A-DC3	A-DC4	A-DC5	A-DC6	A-DC7	A-DC8	A-DC9	A-DC10	A-DC11	A-DC12	A-DC13	A-DC14	A-DC15	A-DC16	A-Ph1	A-Ph2	A-Ph3	A-Ph4	A-Ph5	A-Ph6	A-Ph7	A-Ph8	A-Ph9	A-Ph10	A-Ph11	A-Ph12	A-Ph13	A-Ph14	A-Ph15	A-Ph16	B-AC1	B-AC2	B-AC3	B-AC4	B-AC5	B-AC6	B-AC7	B-AC8	B-AC9	B-AC10	B-AC11	B-AC12	B-AC13	B-AC14	B-AC15	B-AC16	B-DC1	B-DC2	B-DC3	B-DC4	B-DC5	B-DC6	B-DC7	B-DC8	B-DC9	B-DC10	B-DC11	B-DC12	B-DC13	B-DC14	B-DC15	B-DC16	B-Ph1	B-Ph2	B-Ph3	B-Ph4	B-Ph5	B-Ph6	B-Ph7	B-Ph8	B-Ph9	B-Ph10	B-Ph11	B-Ph12	B-Ph13	B-Ph14	B-Ph15	B-Ph16	aux-1	digaux	

3857.929	1	1	0	256	0.11712	0.17316	0.2244	0.35431	0.16651	0.17198	0.14173	0.062782	0.17258	0.20515	0.083394	0.17391	0.12312	0.26809	0.030978	0.18546	-2.1833	-2.1854	-2.6167	-2.4521	-2.5771	-2.85	-2.5312	-2.7125	-2.7062	-2.2458	-2.7062	-2.6729	-2.2313	-2.7229	-2.4208	-2.5479	190.556	179.628	33.911	222.907	82.627	58.391	228.545	227.240	151.846	163.743	81.979	178.962	243.561	223.146	169.833	230.938	0.00025053	0.00050744	0.00016302	460.06	1.5029e-06	2.3898e-06	661.66	192.64	3.7352e-06	2.5498e-06	302.42	138.8	87.746	48.455	1.8129e-06	71.615	0.0002498	0.00023365	6.761e-05	478.98	2.6308e-06	2.5209e-06	670.56	197.21	2.6114e-06	2.5109e-06	298.41	137.68	87.466	47.88	2.7449e-06	69.161	267.281	-42.417	85.467	-74.635	16.440	-22.383	-76.036	-68.787	81.019	55.919	-71.551	-66.969	-63.952	-59.467	26.651	-62.935	-8191	255	
3858.047	1	1	0	0	0.2046	0.078086	0.10913	0.10843	0.09737	0.07713	0.07049	0.10377	0.0647	0.22622	0.0039319	0.15888	0.052313	0.37722	0.084068	0.1134	-2.1229	-2.2521	-2.6667	-2.65	-2.425	-2.7583	-2.4437	-2.5687	-2.725	-2.6167	-2.7917	-2.6292	-2.1625	-2.7188	-2.4875	-2.5958	163.297	-45.674	112.657	127.363	11.334	228.171	123.432	98.947	-15.051	201.088	-43.609	-75.596	246.019	-40.826	127.209	262.262	0.00020992	0.00022242	0.00013775	460.76	2.9444e-06	5.0577e-06	661.56	193.58	1.5712e-06	4.818e-06	304.44	139.43	87.921	48.581	3.2969e-06	71.721	0.00023994	0.0002283	7.0063e-05	478.17	2.5853e-06	2.4863e-06	674.36	197.21	2.5564e-06	2.5072e-06	300.46	138.11	87.602	47.998	2.8448e-06	69.29	269.495	-38.312	49.035	-74.599	70.374	35.774	-76.129	-68.841	120.939	38.782	-71.719	-66.757	-64.088	-59.438	127.529	-62.925	-8191	255	
3858.144	1	1	0	0	0.17164	0.35268	0.25495	0.083128	0.10474	0.1704	0.18257	0.25317	0.15161	0.16387	0.060171	0.36473	0.078027	0.22263	0.089951	0.14284	-2.1542	-2.4146	-2.5417	-2.5354	-2.2021	-2.8292	-2.5792	-2.5938	-2.6625	-2.2292	-2.6729	-2.6437	-2.2958	-2.6312	-2.3688	-2.45	57.948	-17.472	4.636	-80.497	192.793	200.217	234.020	-64.621	-9.054	119.131	213.390	185.290	81.013	-81.586	-59.231	170.214	0.00029191	0.00048619	2.701e-05	459.99	3.1249e-06	3.2355e-06	663.98	193.18	2.4126e-06	7.3681e-07	301.16	138.61	87.424	48.058	3.1506e-06	71.055	0.00023996	0.00023693	7.3333e-05	477.44	2.6063e-06	2.6239e-06	675.24	196.52	2.5686e-06	2.6846e-06	300.02	137.5	87.22	47.707	2.9705e-06	68.612	260.183	-5.996	-6.340	-74.664	48.952	218.886	-75.982	-68.525	17.953	177.278	-71.571	-66.726	-64.024	-59.208	74.650	-62.920	-8191	255	
3858.241	1	1	0	0	0.17287	0.15683	0.242	0.13138	0.095832	0.19924	0.12992	0.14432	0.049538	0.23928	0.089853	0.1926	0.15278	0.089436	0.17594	0.10862	-2.2188	-2.3688	-2.6188	-2.8229	-2.2125	-2.6583	-2.65	-2.3375	-2.9625	-2.425	-2.675	-2.7854	-2.3479	-2.625	-2.5021	-2.7438	-56.103	270.191	-33.961	239.733	-17.677	18.443	-83.355	226.740	241.951	16.274	76.618	246.010	252.002	261.861	-13.091	121.392	0.00029081	7.0753e-05	0.00015893	456.08	2.6396e-06	2.8438e-06	658.02	190.37	4.8451e-06	7.7766e-07	300.83	138.16	86.475	47.749	4.4855e-06	70.631	0.00024313	0.00025691	7.5774e-05	473.79	2.6372e-06	2.8734e-06	669.33	194.94	2.6261e-06	2.9102e-06	298.26	136.75	86.979	47.474	2.9314e-06	68.308	-84.128	24.589	34.900	-74.540	144.659	93.773	-76.042	-68.814	136.397	244.450	-71.518	-66.920	-63.845	-59.404	72.316	-62.780	-8191	255	
3858.338	1	1	0	0	0.17437	0.27955	0.16407	0.19391	0.22628	0.026737	0.18214	0.13081	0.10847	0.22442	0.10079	0.17335	0.074658	0.19477	0.15833	0.092884	-2.1375	-2.3063	-2.2938	-2.8333	-2.3563	-2.5687	-2.7104	-2.3833	-2.6292	-2.3792	-2.5938	-2.8146	-2.3875	-2.6	-2.6542	-2.5708	117.361	265.187	211.695	8.342	112.842	-39.638	170.062	18.072	175.724	79.059	270.833	269.482	-15.618	257.106	57.253	198.971	0.00026782	0.00013012	0.00011126	455.75	1.9742e-06	2.3921e-06	654.07	189.41	2.2316e-06	4.2154e-06	299.23	137.55	86.902	47.844	1.8696e-06	70.759	0.00024617	0.00027365	7.4939e-05	471.29	2.7137e-06	3.0544e-06	665.43	193.83	2.7333e-06	3.0535e-06	297.14	136.31	87.182	47.584	2.8491e-06	68.351	267.178	46.832	29.928	-74.628	73.741	62.271	-75.954	-68.732	221.826	124.929	-71.274	-66.890	-64.204	-59.412	66.394	-62.862	-8191	255	
3858.432	1	1	0	0	0.39911	0.035013	0.13863	0.24314	0.13737	0.1394	0.10684	0.14737	0.3033	0.13848	0.15853	0.21702	0.087249	0.30591	0.12823	0.064037	-2.3458	-2.5146	-2.3833	-2.9229	-2.5021	-2.5021	-2.7667	-2.325	-2.6792	-2.4521	-2.4646	-2.7313	-2.3521	-2.35	-2.7479	-2.5812	269.073	116.844	-21.414	-76.066	-56.388	44.290	181.550	214.769	183.071	-80.566	84.486	-78.766	227.076	244.723	-33.500	91.192	0.00029415	0.00012086	0.00011111	455.61	3.2243e-06	4.7473e-06	658.53	189.86	2.5945e-06	3.5502e-06	301.19	138.32	87.046	48.113	4.1091e-06	71.288	0.00025568	0.00027581	7.1581e-05	471.81	2.7987e-06	3.0245e-06	666.93	194.31	2.8008e-06	3.0222e-06	297.77	136.84	87.622	47.802	2.7781e-06	68.703	264.022	9.099	64.340	-74.780	87.971	15.750	-75.994	-68.824	31.021	57.486	-71.483	-67.034	-63.854	-59.408	3.580	-62.829	-8191	255	
3858.528	1	1	0	0	0.23456	0.12634	0.096732	0.45037	0.18021	0.10324	0.21376	0.18361	0.10115	0.19159	0.099478	0.13094	0.14933	0.15822	0.20066	0.36025	-2.2646	-2.5542	-2.2938	-2.6771	-2.4646	-2.4875	-2.7167	-2.2146	-2.575	-2.5917	-2.5104	-2.7854	-2.3979	-2.5833	-2.6021	-2.4146	29.508	98.263	5.558	249.339	19.547	-65.073	-81.970	13.804	267.928	231.118	17.375	220.876	245.823	238.289	58.955	169.416	0.00029076	0.0002439	0.00015927	460.23	2.0251e-06	2.599e-06	660.63	191.06	3.1411e-06	7.3944e-06	300.93	138.83	86.928	48.3	3.7944e-06	71.044	0.00026609	0.00027045	6.9831e-05	474.81	2.903e-06	2.9225e-06	669.81	195.17	2.9321e-06	2.876e-06	297.78	137.38	87.931	47.859	2.6709e-06	68.884	268.662	-73.312	16.801	-74.617	66.369	-24.160	-75.962	-68.739	75.136	67.494	-71.444	-66.911	-64.074	-59.357	13.004	-62.957	-8191	255	
3858.649	1	1	0	0	0.20671	0.15111	0.13026	0.22916	0.13649	0.20886	0.11463	0.39697	0.2333	0.22975	0.057768	0.18516	0.10659	0.14665	0.056315	0.060791	-2.2188	-2.5167	-2.5042	-2.6958	-2.4104	-2.2771	-2.8604	-2.3667	-2.4938	-2.4396	-2.3417	-2.8958	-2.5	-2.5604	-2.6542	-2.5646	152.993	199.640	23.948	148.755	263.339	34.813	203.622	263.672	73.229	116.836	42.063	259.414	34.407	-85.930	248.280	253.896	0.00027161	0.00021321	3.8388e-05	460.93	3.0564e-06	6.4229e-06	660.72	191.46	1.3929e-06	3.0328e-06	300.67	138.82	86.912	48.27	4.8446e-07	71.169	0.00027108	0.00025534	6.7544e-05	476.42	2.9582e-06	2.8001e-06	668.82	195.62	2.9667e-06	2.7727e-06	297.48	137.41	87.925	47.873	2.6144e-06	68.989	254.209	18.491	-16.944	-74.658	151.309	-0.090	-75.940	-68.871	46.680	16.499	-71.610	-66.847	-64.007	-59.534	227.392	-63.086	-8191	255	
3858.745	1	1	0	0	0.041396	0.26322	0.2312	0.25179	0.050633	0.19285	0.20315	0.29988	0.17875	0.10937	0.13557	0.21537	0.10171	0.1312	0.13454	0.18238	-2.0938	-2.6958	-2.2687	-2.7167	-2.7208	-2.3438	-2.9813	-2.4604	-2.4813	-2.75	-2.2812	-2.5833	-2.5563	-2.4104	-2.7708	-2.5521	-38.090	272.970	220.746	230.723	-14.806	186.496	164.797	64.642	182.867	18.158	0.862	155.248	-58.984	214.215	78.622	175.196	0.00029824	0.00043072	4.3703e-05	465.01	3.2447e-06	2.5891e-06	662.95	191.81	3.0423e-06	3.8162e-06	301.73	139.19	87.108	48.37	3.0251e-06	71.445	0.00027251	0.00024784	6.6164e-05	480.39	2.9203e-06	2.7199e-06	671.35	196.43	2.9259e-06	2.716e-06	298.03	138.05	87.909	47.959	2.6293e-06	69.252	258.197	-35.428	55.668	-74.900	46.697	-13.515	-76.070	-68.868	96.106	64.042	-71.673	-66.735	-63.936	-59.561	19.258	-63.064	-8191	255	
3858.841	1	1	0	0	0.084344	0.43171	0.087227	0.29915	0.24231	0.12639	0.29723	0.35185	0.1429	0.091525	0.25229	0.18849	0.20499	0.22488	0.12141	0.15567	-2.0208	-2.6083	-2.2667	-2.4479	-2.7083	-2.375	-2.8083	-2.5833	-2.4896	-2.8	-2.2562	-2.725	-2.7146	-2.425	-2.8312	-2.5896	257.194	-59.746	179.710	240.109	258.964	147.940	186.704	243.767	-21.725	172.028	234.101	-85.827	217.962	-34.306	-41.797	-67.132	0.00028005	0.00033831	0.00010072	463.94	4.3877e-06	5.008e-06	664.49	192.71	3.0846e-06	3.6657e-06	302.06	139.81	87.929	48.639	3.8054e-06	72.085	0.00026972	0.00024658	6.7232e-05	482.31	2.8274e-06	2.6939e-06	672.2	197.31	2.8272e-06	2.6412e-06	298.9	138.75	88.036	48.118	2.6501e-06	69.802	271.132	-41.781	41.960	-74.807	45.277	48.639	-75.762	-68.796	69.831	53.495	-71.485	-67.115	-64.136	-59.578	18.921	-63.184	-8191	255	
3858.937	1	1	0	0	0.20172	0.089944	0.1051	0.10035	0.18287	0.15938	0.19436	0.2892	0.094792	0.12433	0.13236	0.25075	0.049791	0.23421	0.22818	0.27526	-2.0021	-2.6229	-2.3917	-2.5917	-2.5771	-2.2938	-2.7792	-2.5062	-2.2979	-2.7792	-2.5438	-2.6375	-2.5792	-2.3688	-2.6854	-2.5521	124.333	-5.276	103.221	227.283	115.983	227.814	254.204	203.321	260.143	-27.223	146.145	237.795	68.651	259.155	211.697	232.786	0.00021849	0.0005942	9.158e-05	468.82	1.6577e-06	3.9728e-06	665.22	192.43	2.7989e-06	1.9304e-06	303.4	139.83	87.37	48.721	2.3731e-06	72.067	0.00025616	0.00023769	6.8547e-05	485.76	2.7469e-06	2.6272e-06	676.18	197.36	2.7472e-06	2.6145e-06	300.51	138.9	87.775	48.227	2.7779e-06	69.854	259.812	-44.662	126.451	-74.882	-1.546	57.489	-75.994	-69.076	89.951	5.792	-71.570	-66.914	-64.127	-59.606	-11.407	-62.905	-8191	255	
3859.033	1	1	0	0	0.14597	0.37412	0.21108	0.11629	0.32927	0.27855	0.087195	0.10935	0.1646	0.21896	0.11012	0.37407	0.12589	0.03423	0.34002	0.058603	-1.8521	-2.75	-2.4688	-2.5938	-2.6875	-2.3271	-2.6229	-2.7875	-2.3604	-2.6854	-2.4771	-2.6354	-2.725	-2.4625	-2.5125	-2.4354	240.844	-70.622	162.223	235.248	173.829	195.081	-21.786	257.150	102.343	191.003	181.664	224.339	-3.900	-26.571	245.827	112.082	0.00029011	0.00038555	3.7971e-05	468.17	1.2521e-06	1.1211e-06	669.63	193.73	3.7542e-06	2.4299e-06	304.98	140.25	88.179	48.669	9.2357e-07	72.072	0.00025098	0.00023462	7.1353e-05	486.86	2.6522e-06	2.5796e-06	680.61	198	2.6767e-06	2.6031e-06	302.03	139.07	87.868	48.289	2.8757e-06	69.731	258.976	-36.062	220.946	-74.817	43.763	-49.812	-76.153	-68.928	93.448	-5.804	-71.455	-66.844	-64.076	-59.658	-69.890	-63.182	-8191	255	
3859.130	1	1	0	0	0.052776	0.10991	0.2501	0.12882	0.13885	0.22051	0.052009	0.10235	0.24586	0.0096139	0.27405	0.10646	0.11719	0.13598	0.089114	0.071179	-1.8125	-2.6271	-2.4521	-2.4479	-2.45	-2.5	-2.775	-2.7917	-2.2458	-2.9083	-2.6458	-2.4792	-2.6813	-2.2875	-2.6896	-2.7875	131.182	207.364	40.429	160.941	89.207	-33.636	-73.911	153.528	100.120	54.185	130.398	183.738	-73.403	-23.266	265.077	112.902	0.00032622	0.00060522	8.1811e-05	468.03	1.0961e-06	2.2331e-06	672.83	194.45	4.0916e-06	3.158e-06	306.54	141.06	88.403	49.311	7.1957e-07	72.877	0.00024559	0.00023659	7.3485e-05	485.63	2.5718e-06	2.5733e-06	683.09	197.95	2.5643e-06	2.5842e-06	303.2	139.7	88.13	48.788	2.8428e-06	70.317	268.601	-32.356	9.803	-74.780	246.867	17.278	-76.147	-69.044	70.743	105.625	-71.521	-66.933	-64.309	-59.626	238.834	-63.155	-8191	255	
3859.224	1	1	0	0	0.075101	0.084946	0.07587	0.11816	0.041155	0.27187	0.10381	0.32076	0.094557	0.2329	0.056836	0.085805	0.13418	0.35492	0.12262	0.26883	-1.7417	-2.6521	-2.4542	-2.4437	-2.6833	-2.2562	-2.6125	-2.8146	-2.2979	-2.5792	-2.6833	-2.4958	-2.6417	-2.4458	-2.6167	-2.8458	131.970	8.956	39.017	205.562	173.193	241.047	176.458	216.206	-25.017	142.519	222.622	-70.805	-84.420	-77.855	136.346	221.882	0.00030483	0.00034059	5.477e-05	473.4	4.062e-06	4.9314e-06	677	195.51	2.7657e-06	1.7206e-06	308.35	142.27	88.545	49.796	1.9694e-06	73.355	0.00023429	0.00023919	7.1494e-05	488.16	2.4757e-06	2.6531e-06	686.77	198.78	2.4671e-06	2.6433e-06	304.52	140.59	88.356	49.294	2.6965e-06	70.826	266.061	-28.566	45.544	-74.430	54.314	107.985	-76.285	-68.980	90.584	-73.354	-71.823	-66.951	-64.121	-59.801	39.380	-63.174	-8191	255	
3859.345	1	1	0	0	0.022414	0.094641	0.21624	0.14725	0.33876	0.18004	0.14366	0.12231	0.078084	0.14786	0.17042	0.092726	0.10981	0.23507	0.20902	0.5125	-1.7375	-2.7062	-2.4021	-2.2562	-2.6813	-2.4813	-2.4729	-2.7333	-2.3812	-2.4917	-2.5354	-2.3125	-2.7438	-2.4042	-2.3812	-2.7062	230.463	102.745	-47.302	226.296	-69.118	201.873	182.934	23.414	197.977	-6.732	216.122	181.059	132.649	-62.906	168.991	-55.099	0.00034449	0.00028183	9.3418e-05	477.86	2.7806e-06	4.0066e-06	682.58	195.64	1.7822e-06	2.7191e-06	311.49	143.38	89.561	50.069	4.5391e-06	73.861	0.00022726	0.00024311	6.7342e-05	490.62	2.4018e-06	2.6566e-06	689.91	199.14	2.4279e-06	2.6703e-06	305.71	141.28	88.719	49.593	2.5594e-06	71.201	260.626	-27.665	64.144	-74.984	108.882	-52.600	-76.041	-68.977	61.612	72.542	-71.749	-67.030	-64.072	-59.648	71.844	-63.213	-8191	255	
3859.441	1	1	0	0	0.22993	0.16614	0.040818	0.41625	0.052506	0.21742	0.33436	0.46233	0.060348	0.16141	0.1978	0.058721	0.099338	0.15541	0.092047	0.29412	-1.9354	-2.6312	-2.3625	-2.3333	-2.7396	-2.4771	-2.35	-2.725	-2.5062	-2.6083	-2.6937	-2.3771	-2.8771	-2.7083	-2.4792	-2.9146	250.029	2.740	87.785	-82.541	141.047	65.418	196.524	216.378	19.449	-23.162	64.646	-7.729	216.844	27.404	82.548	192.781	0.0002706	0.00048264	7.1503e-05	480.23	3.1301e-06	2.7896e-06	688.49	196.74	2.1659e-06	2.7525e-06	310.42	143.33	89.451	50.372	6.2187e-07	74.107	0.00022685	0.00024224	6.3302e-05	491.11	2.3865e-06	2.6439e-06	692.58	199.56	2.4333e-06	2.6087e-06	305.14	141.46	89.052	49.73	2.4407e-06	71.246	268.415	-41.867	7.819	-74.673	146.426	40.590	-76.106	-69.078	66.706	80.000	-71.639	-67.071	-64.196	-59.920	142.817	-63.336	-8191	255	
3859.512	1	1	0	0	0.025774	0.23498	0.061018	0.15061	0.062441	0.16317	0.12692	0.12261	0.12923	0.13097	0.066437	0.088734	0.33944	0.18514	0.033862	0.30445	-1.8667	-2.4542	-2.5396	-2.3563	-2.5542	-2.5729	-2.2083	-2.8688	-2.4021	-2.3063	-2.7292	-2.5104	-2.4729	-2.6125	-2.3354	-2.7771	111.544	-58.823	47.903	208.849	34.552	62.899	-68.486	246.920	200.533	220.922	30.321	231.116	-85.221	156.939	25.730	246.050	0.00036879	0.00025369	9.6385e-05	481.18	1.9231e-06	1.0116e-06	686.56	196.55	2.7188e-06	7.424e-06	310.54	143.68	89.736	50.179	2.1386e-06	73.935	0.00023228	0.00023677	6.1496e-05	491.14	2.4974e-06	2.5777e-06	690.75	199.06	2.5351e-06	2.5476e-06	304.43	141.43	89.359	49.657	2.4275e-06	71.156	259.264	-11.049	-2.241	-74.799	77.157	17.653	-76.178	-69.087	193.713	92.079	-71.685	-67.026	-64.392	-59.940	118.272	-63.289	-8191	255	
3859.609	1	1	0	0	0.10087	0.14746	0.1486	0.23754	0.074295	0.099982	0.078996	0.15134	0.20035	0.13759	0.15402	0.35062	0.23322	0.15434	0.064612	0.11224	-2.1854	-2.4708	-2.6583	-2.3333	-2.6354	-2.6937	-2.475	-2.7792	-2.5479	-2.4229	-2.5812	-2.4146	-2.5583	-2.7188	-2.2812	-2.9125	247.724	127.152	62.996	184.290	31.507	101.507	224.864	216.344	210.606	73.428	195.311	230.693	99.380	210.973	-33.961	175.807	0.00032074	0.00052015	0.00015635	478.79	3.6084e-06	2.4113e-06	683.16	195.24	5.0006e-06	2.9542e-06	310.97	144.36	89.9	50.459	1.0912e-06	74.211	0.00024276	0.0002307	6.0903e-05	490.66	2.6018e-06	2.5264e-06	688.73	198.69	2.6282e-06	2.4966e-06	304.41	141.96	89.619	49.657	2.3465e-06	71.309	256.218	-81.957	23.030	-74.898	170.429	52.200	-75.920	-68.958	175.369	118.036	-71.435	-67.099	-64.239	-59.845	105.296	-63.337	-8191	255	
3859.729	1	1	0	0	0.16421	0.20841	0.13716	0.19876	0.28281	0.094282	0.15785	0.12024	0.21702	0.033533	0.17717	0.25785	0.27286	0.13116	0.11995	0.17772	-2.0354	-2.3042	-2.6688	-2.5521	-2.5458	-2.6354	-2.3958	-2.7021	-2.5833	-2.3375	-2.8083	-2.2625	-2.4708	-2.6625	-2.4313	-2.7208	15.462	-59.549	127.962	-45.437	40.397	121.153	41.896	256.409	6.555	135.222	-56.264	243.468	-40.482	151.673	-54.695	98.845	0.00030842	0.00064015	8.1371e-05	478.52	6.5008e-06	3.4679e-06	684.77	196.05	4.1991e-06	2.0939e-06	310.22	144.26	90.448	50.341	9.4339e-07	74.575	0.00024256	0.00022307	5.8829e-05	491.12	2.5855e-06	2.4225e-06	687.72	199.26	2.578e-06	2.4251e-06	304.02	142.45	89.894	49.744	2.3069e-06	71.794	267.502	-43.712	-11.821	-74.936	101.402	13.124	-76.374	-69.146	62.779	47.171	-71.646	-67.019	-63.965	-59.757	-62.670	-63.152	-8191	255	
3859.825	1	1	0	0	0.16852	0.27598	0.26469	0.2526	0.10564	0.11587	0.16951	0.10148	0.04129	0.13505	0.36392	0.060175	0.34375	0.40166	0.039359	0.108	-2.2271	-2.2938	-2.7604	-2.4104	-2.2167	-2.7208	-2.2792	-2.675	-2.4458	-2.3812	-3.0021	-2.4583	-2.4021	-2.8812	-2.5458	-2.7104	79.742	-62.921	175.548	-82.679	231.096	229.407	-34.543	214.606	47.455	-70.457	-38.993	18.583	-63.556	-28.274	196.224	187.343	0.00030466	0.00027448	3.0098e-05	479.52	1.2702e-06	3.7175e-06	683.34	195.94	4.9723e-06	9.4194e-07	311.37	144.51	89.931	50.268	4.0925e-06	74.465	0.00023767	0.00021889	5.8907e-05	493.38	2.5491e-06	2.4022e-06	689.42	199.9	2.535e-06	2.3794e-06	304.92	142.71	89.632	49.632	2.3715e-06	71.594	-86.336	-25.681	16.357	-74.837	91.222	52.832	-76.242	-69.192	76.702	-63.214	-71.573	-67.223	-64.258	-59.953	81.367	-63.377	-8191	255	
3859.921	1	1	0	0	0.20828	0.11203	0.284	0.10254	0.10576	0.25314	0.094709	0.098251	0.090412	0.16959	0.060418	0.18299	0.26498	0.26065	0.068956	0.061311	-2.0563	-2.2521	-2.5687	-2.3833	-2.4188	-2.7521	-2.3917	-2.4313	-2.5292	-2.1854	-2.7792	-2.3333	-2.3271	-2.7938	-2.3458	-2.6188	124.761	160.456	126.161	259.587	5.515	163.494	173.318	24.516	-39.004	146.860	209.011	212.658	271.908	-53.112	-35.139	-59.409	0.00024967	0.00044787	6.0308e-05	477.92	5.7458e-06	4.87e-06	681.64	195.79	3.4563e-06	3.0236e-06	310.88	143.32	89.839	50.007	2.5862e-06	73.712	0.0002327	0.00021642	6.0638e-05	492.39	2.4885e-06	2.3766e-06	687.73	199.84	2.4908e-06	2.3932e-06	304.58	141.86	89.335	49.369	2.5077e-06	71.143	264.153	-61.458	71.600	-74.894	92.788	36.416	-76.152	-68.997	57.567	10.473	-71.884	-67.032	-64.201	-59.770	162.454	-63.192	-8191	255	
3860.042	1	1	0	0	0.068787	0.2032	0.20523	0.082893	0.10048	0.17729	0.32344	0.30248	0.1969	0.13304	0.1051	0.20917	0.21411	0.33066	0.062594	0.14212	-2.0979	-2.3479	-2.5563	-2.4562	-2.325	-2.6333	-2.5396	-2.6208	-2.675	-2.2958	-2.6437	-2.5187	-2.3771	-2.7833	-2.4104	-2.6042	31.148	-29.582	-26.632	116.077	189.524	-36.009	229.443	174.822	-43.914	226.777	242.983	262.096	199.160	269.887	162.655	-27.097	0.00025699	0.00040461	3.2999e-05	474.93	2.6557e-06	2.3628e-06	680.44	195.94	3.7177e-06	3.3167e-07	311.18	144.83	90.22	50.552	1.3416e-06	74.151	0.00023157	0.00021494	6.4053e-05	490.89	2.427e-06	2.3433e-06	688.07	199.46	2.4148e-06	2.3121e-06	306.11	142.51	89.419	49.666	2.5887e-06	71.541	254.786	-36.267	-36.804	-74.703	72.447	-34.120	-76.044	-68.881	118.386	103.900	-71.644	-67.020	-64.150	-59.692	141.018	-63.283	-8191	255	
3860.136	1	1	0	0	0.22175	0.21393	0.10525	0.24933	0.19044	0.10655	0.091181	0.10784	0.070092	0.081562	0.26586	0.15385	0.21343	0.12905	0.13107	0.35045	-2.25	-2.3417	-2.5438	-2.6667	-2.4625	-2.8708	-2.7583	-2.5521	-2.6708	-2.4188	-2.6688	-2.8312	-2.2458	-2.7042	-2.3854	-2.2583	135.908	192.725	21.388	111.953	21.724	89.548	248.909	-12.624	74.880	-82.090	254.582	188.384	85.877	-29.244	254.483	159.658	0.00026828	0.00021604	0.00011214	479.17	4.9835e-06	2.7647e-06	681.93	196.55	2.4499e-06	4.4282e-06	310.94	145.13	90.342	50.596	1.2345e-06	74.551	0.00022461	0.00021355	6.6387e-05	491.87	2.3969e-06	2.3636e-06	690.16	199.64	2.3818e-06	2.3833e-06	306.48	142.6	89.453	49.816	2.6729e-06	71.679	255.525	19.906	25.202	-74.764	70.104	19.190	-76.100	-68.842	80.084	109.890	-71.640	-67.200	-64.363	-59.839	57.573	-63.225	-8191	255	
3860.210	1	1	0	0	0.33348	0.03199	0.18118	0.14993	0.13108	0.080122	0.2984	0.4011	0.12042	0.066958	0.16598	0.15926	0.29885	0.22989	0.23217	0.17273	-2.4229	-2.3896	-2.4938	-2.6042	-2.325	-2.7604	-2.7208	-2.375	-2.7792	-2.3979	-2.6833	-2.7896	-2.2562	-2.8542	-2.6708	-2.5021	83.272	264.464	-70.164	240.658	31.856	158.346	116.510	206.033	180.825	103.975	-19.681	156.082	249.797	247.048	162.491	273.108	0.00025261	0.00029632	7.7144e-05	478.63	3.7916e-06	1.8039e-06	683.58	195.41	3.305e-06	2.3779e-06	310.88	144.28	90.034	50.294	3.2635e-06	74.355	0.0002205	0.00022253	6.7637e-05	490.49	2.3591e-06	2.4868e-06	691.26	199.12	2.3714e-06	2.5328e-06	306.54	142.17	89.343	49.701	2.7155e-06	71.522	260.257	-38.359	98.614	-74.680	68.615	186.152	-76.078	-68.816	148.587	-41.603	-71.763	-67.150	-64.133	-59.723	-5.064	-63.362	-8191	255	
3860.329	1	1	0	0	0.30192	0.083727	0.25792	0.22231	0.32873	0.12831	0.29896	0.13537	0.11309	0.26316	0.13834	0.26233	0.19095	0.20929	0.09788	0.20612	-2.2188	-2.1833	-2.3854	-2.5958	-2.2812	-2.6271	-2.7021	-2.4604	-2.6521	-2.3333	-2.5229	-2.7042	-2.2417	-2.8292	-2.55	-2.4938	26.928	122.143	194.041	231.962	233.564	200.785	256.564	229.398	224.247	89.796	21.072	-82.930	-60.543	271.605	-63.277	145.551	0.0003069	7.78e-05	0.0001287	473.21	1.6948e-06	3.9943e-07	678.01	194.97	4.2195e-06	1.414e-06	309.52	143.67	89.884	50.051	2.5679e-06	73.664	0.00022378	0.00024023	6.7901e-05	488.23	2.4223e-06	2.6615e-06	688.12	198.12	2.4346e-06	2.6982e-06	304.92	141.61	89.325	49.545	2.6734e-06	70.994	257.416	179.989	28.859	-74.838	-12.690	208.127	-76.118	-69.063	99.150	58.706	-71.427	-67.046	-64.339	-59.718	97.939	-63.286	-8191	255	
3860.425	1	1	0	0	0.31213	0.2737	0.13428	0.14447	0.11357	0.34795	0.11167	0.08676	0.11866	0.073407	0.20792	0.33459	0.22999	0.30048	0.25035	0.12103	-2.1729	-2.3125	-2.4333	-2.7292	-2.2479	-2.4979	-2.7229	-2.2229	-2.8688	-2.5312	-2.4042	-2.6417	-2.2958	-2.725	-2.7833	-2.3979	-42.347	-18.588	270.029	195.782	187.835	-28.610	125.211	190.938	-31.091	28.143	207.809	-67.016	-65.174	-82.359	51.398	183.703	0.00031933	0.00046713	7.0921e-05	474.06	1.9328e-06	4.7731e-06	676.73	194.65	2.5589e-06	4.3473e-06	307.77	143.22	89.674	49.911	3.1898e-06	73.85	0.00023328	0.00025545	6.7963e-05	487.08	2.5317e-06	2.8068e-06	684.72	197.78	2.5607e-06	2.8242e-06	304.18	141.33	89.542	49.577	2.635e-06	70.999	254.973	-67.249	104.774	-74.702	210.956	80.601	-75.929	-69.023	20.255	64.605	-71.461	-67.240	-64.276	-59.767	-0.877	-63.140	-8191	255	
3860.521	1	1	0	0	0.25052	0.2374	0.2308	0.23825	0.085064	0.14157	0.32537	0.17362	0.12535	0.31565	0.051515	0.13014	0.19421	0.16958	0.12433	0.26912	-2.1146	-2.4604	-2.2812	-2.85	-2.3667	-2.5187	-2.6042	-2.2188	-2.4583	-2.625	-2.275	-2.6792	-2.4125	-2.6063	-2.775	-2.3563	182.695	-69.250	-66.511	-72.857	-1.514	139.533	225.692	266.346	80.628	58.241	210.995	168.261	-29.573	233.788	-13.017	199.627	0.00030826	0.0005609	0.00010443	474.85	1.7427e-06	4.2915e-06	675.42	194.11	4.0423e-06	3.0012e-06	307.88	142.68	89.257	49.767	5.2218e-06	73.52	0.00024761	0.00025906	6.7419e-05	485.69	2.7204e-06	2.8558e-06	683.12	197.65	2.756e-06	2.8781e-06	304.02	141.21	89.807	49.286	2.667e-06	70.89	254.613	-53.744	21.284	-74.460	-63.021	-2.001	-75.825	-68.995	112.604	80.790	-71.502	-66.967	-64.177	-59.731	44.542	-63.115	-8191	255	
3860.642	1	1	0	0	0.2369	0.12267	0.08376	0.26402	0.26656	0.29189	0.094385	0.11451	0.17536	0.06544	0.33633	0.25065	0.30547	0.21928	0.10805	0.25631	-2.2646	-2.4396	-2.2979	-2.7167	-2.4437	-2.4021	-2.6521	-2.2208	-2.4042	-2.5854	-2.1917	-3.0187	-2.4583	-2.5833	-2.6458	-2.6521	240.891	-33.936	152.920	77.000	62.318	51.000	208.565	170.932	34.454	-9.406	123.690	183.999	234.013	231.605	151.214	256.883	0.00031278	0.00069663	0.00010313	468.47	1.8221e-06	4.1931e-06	672.18	193.62	1.6778e-06	3.9526e-06	305.45	142.66	88.938	49.255	2.5841e-06	72.997	0.00026437	0.00026011	6.748e-05	483.39	2.8801e-06	2.8427e-06	680.09	197.22	2.9497e-06	2.8535e-06	303.01	140.97	89.891	48.879	2.7452e-06	70.541	254.440	-64.017	-15.482	-74.655	32.924	0.523	-75.787	-68.692	137.042	28.637	-71.581	-66.787	-64.100	-59.594	99.924	-63.140	-8191	255	
3860.738	1	1	0	0	0.17085	0.10933	0.15147	0.1256	0.11367	0.093788	0.25945	0.2781	0.14935	0.077754	0.21181	0.13836	0.2024	0.11318	0.33804	0.18352	-2.0729	-2.625	-2.2812	-2.6646	-2.5563	-2.475	-2.9771	-2.1813	-2.4833	-2.5667	-2.2625	-2.8125	-2.5333	-2.6042	-2.9229	-2.5167	135.119	74.091	81.651	239.680	249.590	22.274	219.255	224.141	241.326	151.963	-71.416	-4.332	237.692	190.828	-4.402	239.750	0.00034456	0.00057399	7.9129e-05	462.23	3.386e-06	2.0268e-06	662.2	191.47	5.2634e-06	4.339e-06	303.92	141.38	88.57	48.613	5.5036e-07	72.164	0.00028367	0.00026455	7.0754e-05	481.41	3.1063e-06	2.9166e-06	673.84	196.32	3.1253e-06	2.9026e-06	300.92	140.25	89.415	48.43	2.7862e-06	69.977	262.393	-23.268	45.759	-74.757	49.089	258.616	-76.016	-68.695	32.130	57.736	-71.489	-66.863	-64.024	-59.497	102.819	-63.138	-8191	255	
3860.810	1	1	0	0	0.12902	0.14626	0.25108	0.034775	0.18977	0.02497	0.27819	0.041442	0.1591	0.068532	0.16408	0.29469	0.099048	0.17475	0.069896	0.17526	-2.1271	-2.5708	-2.0542	-2.8	-2.5187	-2.4021	-2.6667	-2.5917	-2.6917	-2.6021	-2.3021	-2.8	-2.5833	-2.4458	-2.7792	-2.6542	67.100	-51.716	139.859	125.759	115.620	103.206	-68.833	227.645	127.414	215.551	120.170	210.066	-82.032	-67.701	137.003	103.546	0.00032157	0.00061579	0.00012146	459.73	8.8889e-06	5.3452e-06	663.59	190.56	2.3482e-06	1.6722e-06	301.92	139.93	87.912	48.162	1.5137e-06	71.423	0.00029	0.00026597	7.1155e-05	481.15	3.1271e-06	2.929e-06	670.88	196.15	3.1535e-06	2.9587e-06	299.92	139.37	89.075	47.923	2.9257e-06	69.624	268.373	-6.383	14.898	-74.794	65.449	60.132	-75.946	-68.720	91.529	51.605	-71.696	-66.729	-64.174	-59.557	30.961	-63.081	-8191	255	
3860.906	1	1	0	0	0.15406	0.10251	0.24953	0.14695	0.10787	0.19897	0.29937	0.57292	0.19532	0.063514	0.1342	0.071194	0.21647	0.082105	0.3324	0.13145	-1.9396	-2.575	-2.3958	-2.4167	-2.5958	-2.3312	-2.8021	-2.5021	-2.4375	-2.5646	-2.4375	-2.7396	-2.4875	-2.2104	-2.6854	-2.6771	27.712	211.426	264.272	176.942	179.453	142.316	137.240	183.135	-19.375	223.837	-3.898	-52.982	-43.887	236.866	133.308	137.039	0.00033015	0.00063961	7.2135e-05	457.74	7.2518e-06	5.6051e-06	655.04	189.42	4.4751e-06	3.195e-06	301.79	140.21	87.612	48.319	1.43e-06	71.593	0.00029158	0.00026976	7.5092e-05	480.06	3.1361e-06	2.9629e-06	668.95	195.99	3.1192e-06	2.9689e-06	300.3	139.82	88.762	48.083	3.0196e-06	69.798	252.251	-40.010	124.242	-74.395	78.126	39.287	-75.692	-68.642	71.450	99.243	-71.429	-66.994	-63.867	-59.602	-39.693	-62.904	-8191	255	
3861.026	1	1	0	0	0.090564	0.18039	0.1123	0.14205	0.093434	0.01284	0.058857	0.23986	0.14888	0.16293	0.2011	0.032597	0.24515	0.24102	0.2567	0.17618	-2.05	-2.5	-2.4313	-2.5312	-2.6188	-2.3333	-2.9271	-2.4521	-2.4042	-2.7375	-2.425	-2.5667	-2.6583	-2.2354	-2.5187	-2.7083	200.543	7.156	-24.426	44.190	117.185	83.961	185.089	171.244	-8.033	229.687	210.761	141.072	226.349	2.476	230.972	-49.620	0.0002253	0.00036731	6.5955e-05	456.13	1.2081e-06	2.6716e-06	658.99	190.29	1.3764e-06	3.0034e-06	301.84	141.12	88.342	48.689	5.2359e-06	72.35	0.00028326	0.00026551	7.8509e-05	480.49	2.9975e-06	2.9166e-06	673.06	196.59	2.9726e-06	2.8399e-06	302.32	140.38	89.041	48.335	3.1e-06	70.285	264.899	-7.073	79.485	-74.651	52.177	203.762	-75.572	-68.815	-68.869	96.010	-71.601	-66.892	-64.190	-59.412	140.757	-63.220	-8191	255	
3861.121	1	1	0	0	0.13621	0.34204	0.31345	0.35724	0.036516	0.19369	0.10709	0.34101	0.28771	0.23514	0.27034	0.1558	0.30759	0.067056	0.19816	0.29912	-1.9542	-2.6312	-2.4354	-2.2938	-2.5875	-2.1833	-2.8125	-2.6437	-2.2875	-2.7375	-2.3958	-2.4479	-2.7438	-2.4375	-2.5896	-2.5792	244.332	-68.122	-36.531	-31.009	62.623	-11.250	230.608	164.253	54.322	19.828	210.848	251.418	248.284	-19.175	213.860	192.413	0.0002567	0.0003707	0.00017566	460.61	3.1796e-06	2.5605e-06	662.76	191.46	2.5127e-06	1.0073e-06	305.64	141.69	88.471	49.014	1.3834e-06	72.801	0.00026943	0.00025759	7.9232e-05	482.26	2.8689e-06	2.8163e-06	677.61	196.84	2.853e-06	2.8071e-06	304.22	140.96	88.836	48.525	3.0801e-06	70.356	-86.767	-21.916	71.245	-74.645	113.868	122.885	-75.769	-68.919	89.515	18.027	-71.433	-66.906	-64.183	-59.373	-5.150	-63.068	-8191	255	
3861.217	1	1	0	0	0.14354	0.24294	0.13404	0.2362	0.30232	0.18799	0.19223	0.15715	0.15254	0.12517	0.062764	0.19989	0.10679	0.30176	0.15327	0.26492	-1.9354	-2.7979	-2.2333	-2.4396	-2.8167	-2.325	-2.6562	-2.7417	-2.1437	-2.6458	-2.5042	-2.3521	-2.8187	-2.4229	-2.5146	-2.85	104.252	11.741	132.798	237.607	102.555	254.812	-9.792	266.077	197.545	97.699	60.886	210.317	167.885	198.230	-0.945	212.686	0.00028362	0.00013416	0.00016228	464.9	6.3943e-06	6.3603e-07	665.9	192.52	2.1963e-06	4.2817e-06	307	142.47	88.899	49.106	2.2463e-06	72.584	0.00025805	0.00025492	7.7197e-05	482.08	2.7089e-06	2.8022e-06	678.65	197.05	2.6995e-06	2.8072e-06	304.91	141.24	89.127	48.769	3.0147e-06	70.458	257.400	33.239	51.998	-74.852	76.887	112.510	-75.952	-68.718	-2.228	77.229	-71.638	-66.622	-64.140	-59.626	17.409	-63.118	-8191	255	
3861.313	1	1	0	0	0.14359	0.30744	0.040644	0.12503	0.12402	0.19222	0.11226	0.1852	0.32371	0.22064	0.12907	0.093993	0.067027	0.23071	0.069386	0.0676	-1.7229	-2.4917	-2.3854	-2.2146	-2.7458	-2.4167	-2.4958	-2.6188	-2.3708	-2.7188	-2.6396	-2.4458	-2.7854	-2.4604	-2.5042	-2.8688	215.633	249.433	-61.332	119.369	38.512	51.104	207.524	-65.911	-14.481	65.304	270.897	252.251	52.060	192.855	33.358	74.133	0.00025853	0.00046863	3.8315e-05	465.21	1.5498e-06	1.3598e-06	668.02	192.66	4.0139e-06	1.608e-06	307.69	143.24	89.446	49.536	1.5107e-06	73.433	0.00025312	0.00026656	7.6803e-05	482.77	2.7074e-06	2.9554e-06	680.03	197.2	2.7049e-06	2.9578e-06	305.42	141.59	89.499	49.2	2.9433e-06	71.013	263.248	-46.786	2.222	-74.740	74.388	213.389	-75.942	-68.939	68.543	251.032	-71.770	-67.027	-64.139	-59.597	24.761	-63.126	-8191	255	
3861.409	1	1	0	0	0.11577	0.13976	0.21755	0.23087	0.18526	0.16853	0.11163	0.08408	0.13703	0.18683	0.13953	0.055648	0.16704	0.055962	0.08444	0.066257	-1.8208	-2.5667	-2.5687	-2.3667	-2.6729	-2.4958	-2.6292	-2.75	-2.3063	-2.4396	-2.6646	-2.4313	-2.6021	-2.5729	-2.3937	-2.9958	-59.229	-76.807	226.341	162.224	256.776	142.135	206.807	94.541	68.779	19.126	197.457	167.174	-34.552	224.731	91.556	90.389	0.00036883	0.00053813	0.00015864	469.35	6.1466e-06	1.863e-06	674.57	193.71	4.1111e-06	3.4651e-06	309.74	145.21	90.046	49.987	2.4977e-06	74.348	0.00025465	0.00027422	7.431e-05	486.57	2.7277e-06	3.0586e-06	686.03	198.13	2.7394e-06	3.0013e-06	307	143.26	90.641	49.702	2.8397e-06	71.675	256.894	-46.384	11.893	-74.721	92.754	57.669	-75.840	-68.808	89.732	106.396	-71.464	-67.044	-64.184	-59.903	75.402	-63.097	-8191	255	
3861.505	1	1	0	0	0.27006	0.076423	0.21863	0.12965	0.10474	0.10206	0.21776	0.11869	0.35095	0.11871	0.017174	0.17214	0.27645	0.1963	0.028706	0.047783	-1.6104	-2.3937	-2.6271	-2.2229	-2.6063	-2.5938	-2.5854	-2.775	-2.475	-2.55	-2.8208	-2.3604	-2.5958	-2.7042	-2.3208	-2.7625	232.560	117.140	-17.714	-82.734	158.150	263.020	199.434	221.107	-12.067	67.450	254.051	-86.311	242.093	-53.221	10.973	-38.014	0.00029716	0.00041479	0.00010025	471.27	2.8052e-07	1.5608e-06	674.26	194.38	1.9275e-06	3.2712e-06	310.11	144.8	90.294	50.03	2.6789e-06	74.141	0.0002596	0.00027304	7.1517e-05	487.99	2.7944e-06	2.9875e-06	685.98	198.12	2.8209e-06	2.9396e-06	306.44	143.33	90.637	49.702	2.7428e-06	71.61	245.207	-12.981	20.622	-74.418	209.209	39.788	-75.986	-68.838	164.840	24.603	-71.455	-67.080	-64.030	-59.775	22.627	-63.256	-8191	255	
3861.601	1	1	0	0	0.13721	0.33328	0.11168	0.16489	0.19251	0.19697	0.14562	0.30668	0.21911	0.2292	0.093991	0.41354	0.26608	0.041001	0.21905	0.029393	-1.95	-2.3625	-2.6667	-2.3208	-2.6146	-2.5583	-2.4208	-2.8479	-2.4167	-2.4583	-2.7313	-2.5542	-2.6354	-2.7708	-2.1688	-2.9521	-8.811	24.700	-16.963	273.040	-54.535	-80.947	4.928	167.160	119.273	134.114	-32.268	227.784	187.838	235.316	154.943	266.146	0.00037719	0.00030388	0.0001409	473.84	1.9052e-06	5.2067e-06	674.82	193.83	3.0108e-06	6.6534e-06	308.78	144.65	90.295	49.977	2.9691e-06	74.045	0.00026594	0.00026351	6.847e-05	487.13	2.889e-06	2.8653e-06	683.95	197.48	2.9038e-06	2.8324e-06	305.62	142.98	90.755	49.474	2.6814e-06	71.381	250.339	-11.834	12.412	-74.448	-77.658	1.259	-75.874	-68.874	108.415	75.423	-71.467	-67.049	-64.025	-59.609	34.800	-63.319	-8191	255	
3861.722	1	1	0	0	0.037819	0.15864	0.24488	0.19333	0.18003	0.14855	0.2427	0.12167	0.16059	0.22482	0.09266	0.11776	0.14597	0.16079	0.078345	0.13833	-2.2313	-2.4271	-2.7646	-2.2729	-2.6625	-2.4938	-2.3917	-2.7833	-2.4958	-2.4146	-2.7667	-2.4104	-2.4333	-2.7	-2.1792	-2.8333	86.971	163.299	-22.716	202.389	164.487	63.723	99.463	180.795	201.633	40.677	-70.857	7.892	262.937	52.708	195.853	231.339	0.00031945	0.00036642	0.0001044	471.39	9.788e-07	4.1023e-06	676.71	193.24	1.2545e-06	1.844e-06	308.69	145.13	90.579	50.092	1.3109e-06	73.961	0.0002705	0.00025225	6.6752e-05	487.15	2.9042e-06	2.722e-06	683.29	197.96	2.9007e-06	2.7433e-06	304.83	143.43	90.938	49.541	2.5985e-06	71.556	247.221	-52.624	56.425	-74.858	138.993	12.598	-76.005	-68.786	121.434	42.501	-71.334	-67.209	-64.180	-59.782	-75.134	-62.993	-8191	255	
3861.816	1	1	0	0	0.19672	0.12915	0.053288	0.28954	0.10177	0.13349	0.30904	0.04347	0.088218	0.18348	0.2133	0.30548	0.14923	0.30252	0.24347	0.18981	-1.8979	-2.2104	-2.8312	-2.3146	-2.6833	-2.7188	-2.3354	-2.7708	-2.425	-2.15	-2.6208	-2.5771	-2.625	-2.8875	-2.2062	-2.5938	120.732	195.469	142.651	245.569	-84.347	-60.264	-15.463	244.007	12.984	255.188	130.749	237.942	160.783	239.130	187.470	97.657	0.00027991	0.00022804	2.021e-05	470.13	2.2936e-06	4.364e-06	675.41	194.58	2.7317e-06	1.0854e-06	309.85	145.98	90.795	50.519	3.6824e-06	74.652	0.00026503	0.00024275	6.4919e-05	487.67	2.7734e-06	2.6128e-06	682.75	198.35	2.7393e-06	2.5738e-06	305.07	144.25	90.881	49.749	2.4881e-06	72.156	251.710	-38.356	38.899	-74.572	47.693	4.673	-76.006	-68.898	144.441	63.492	-71.422	-67.070	-64.239	-59.762	91.553	-63.227	-8191	255	
3861.913	1	1	0	0	0.21392	0.06023	0.11391	0.12066	0.062661	0.11672	0.12102	0.098613	0.15197	0.24196	0.23937	0.18442	0.14027	0.036955	0.10523	0.27207	-2.1542	-2.3208	-2.6417	-2.3979	-2.4708	-2.7062	-2.5333	-2.5917	-2.6042	-2.3729	-2.5979	-2.6	-2.3854	-2.9188	-2.3896	-2.6813	207.780	137.190	-32.266	200.077	-23.701	162.712	209.284	249.991	263.682	72.804	-34.552	15.510	201.360	26.503	245.904	199.520	0.00029444	0.00014855	0.00011031	474.44	5.0307e-06	5.6701e-06	678.12	195.18	5.5971e-06	6.4807e-06	311.88	146.43	91.305	50.479	3.4676e-06	74.842	0.00024781	0.00023131	6.2288e-05	490.68	2.6175e-06	2.4794e-06	685.42	199.2	2.5606e-06	2.436e-06	306.32	144.65	90.834	49.833	2.4842e-06	72.274	257.345	244.447	75.076	-74.737	79.036	18.334	-76.066	-68.837	115.503	86.622	-71.800	-67.002	-64.047	-59.738	123.873	-63.288	-8191	255	
3862.009	1	1	0	0	0.087247	0.11551	0.15847	0.14324	0.15033	0.42591	0.29935	0.19707	0.094449	0.20747	0.14718	0.36543	0.19199	0.2789	0.068255	0.035897	-2.1312	-2.2083	-2.7083	-2.3708	-2.4708	-2.7521	-2.4333	-2.5521	-2.7375	-2.2021	-2.8583	-2.5271	-2.4146	-2.7646	-2.2792	-2.6562	209.284	169.435	-60.223	-35.308	173.255	137.952	126.099	117.244	255.352	-5.992	128.222	250.237	-23.209	255.066	-34.398	5.318	0.00027299	9.177e-05	5.8361e-05	474.88	2.6193e-06	3.577e-06	680.78	194.64	2.7431e-06	4.1378e-06	310.57	144.95	90.608	50.146	3.0199e-06	74.359	0.00023446	0.00022065	6.3236e-05	489.85	2.4947e-06	2.4031e-06	685.7	198.29	2.485e-06	2.3984e-06	305.65	143.49	90.009	49.399	2.5963e-06	71.676	262.568	-66.469	127.102	-74.809	1.252	92.868	-75.930	-68.996	175.617	61.372	-71.654	-67.070	-63.941	-59.744	45.352	-63.348	-8191	255	
3862.105	1	1	0	0	0.22634	0.014833	0.24589	0.24214	0.27487	0.30645	0.2214	0.22353	0.18822	0.15325	0.080105	0.19624	0.20244	0.15263	0.076383	0.22169	-2.2438	-2.2667	-2.6042	-2.55	-2.2729	-2.8271	-2.5292	-2.3979	-2.8229	-2.3146	-2.7167	-2.6896	-2.4833	-2.7438	-2.5083	-2.5583	230.078	-73.274	-22.982	150.969	241.956	52.224	268.346	198.200	-58.822	41.531	126.632	224.766	235.531	222.282	195.163	266.151	0.00032625	0.00018042	8.0318e-05	473.3	4.3891e-06	2.2685e-06	677.74	193.95	3.081e-06	2.4221e-06	309.27	144.73	89.993	49.954	3.4896e-06	73.729	0.0002321	0.00021729	6.5926e-05	487.99	2.4637e-06	2.3975e-06	684.79	197.29	2.4526e-06	2.4135e-06	305.14	142.84	89.695	49.181	2.6914e-06	71.203	254.499	22.165	27.127	-74.900	74.112	-16.201	-75.838	-68.785	78.432	40.280	-71.447	-66.960	-64.264	-59.753	64.783	-63.148	-8191	255	
3862.201	1	1	0	0	0.15177	0.046346	0.33775	0.27057	0.14655	0.19503	0.26318	0.11732	0.038623	0.25316	0.1296	0.10346	0.11606	0.10599	0.31469	0.25386	-2.2917	-2.1854	-2.6479	-2.6125	-2.2479	-2.7062	-2.4667	-2.5083	-2.7125	-2.4958	-2.5729	-2.5687	-2.3583	-2.7687	-2.4646	-2.4208	69.630	183.502	32.994	-58.936	9.110	56.442	220.015	-74.493	187.409	87.288	126.865	-47.439	54.407	201.648	90.016	163.500	0.0003174	0.00028596	1.9168e-05	469.99	4.6096e-06	2.6175e-06	672.08	193.58	5.8837e-07	3.036e-06	308.79	144.72	90.27	49.851	2.819e-06	73.699	0.00023015	0.00022488	6.8571e-05	484.94	2.4429e-06	2.4743e-06	682.55	197.02	2.4224e-06	2.5046e-06	305.19	142.59	89.577	49.188	2.691e-06	71.073	258.514	-52.097	87.900	-74.643	56.797	42.185	-75.902	-68.816	111.640	59.775	-71.331	-66.862	-64.406	-59.821	100.490	-63.309	-8191	255	
3862.322	1	1	0	0	0.26238	0.087871	0.062077	0.39231	0.16893	0.12027	0.11632	0.11401	0.20057	0.091145	0.14441	0.013456	0.24954	0.19375	0.10895	0.2114	-2.1937	-2.45	-2.575	-2.7	-2.4542	-2.725	-2.7188	-2.5479	-2.8167	-2.4188	-2.6896	-2.7729	-2.2729	-2.5792	-2.5708	-2.3396	231.336	69.863	200.834	237.978	7.937	18.738	55.790	256.999	213.290	-49.777	75.833	-85.558	216.871	240.411	-81.965	10.542	0.00029932	0.00042703	9.8883e-05	469.74	6.1587e-06	2.042e-06	673.23	192.92	2.7501e-06	1.9687e-06	310.12	145.24	90.112	49.836	4.0165e-06	74.182	0.0002225	0.00023228	6.8203e-05	483.34	2.3851e-06	2.5562e-06	681.23	196.89	2.3751e-06	2.5975e-06	305.09	142.76	89.585	49.303	2.6148e-06	71.402	263.937	-14.959	-33.268	-74.838	49.179	108.001	-76.052	-68.844	180.460	111.420	-71.601	-67.059	-64.146	-59.666	32.476	-62.986	-8191	255	
3862.418	1	1	0	0	0.15565	0.11236	0.26794	0.21708	0.15922	0.20066	0.15171	0.11367	0.090996	0.22494	0.18276	0.36177	0.21505	0.11714	0.059379	0.12691	-2.2604	-2.425	-2.4729	-2.7875	-2.375	-2.6146	-2.675	-2.4083	-2.7313	-2.4833	-2.5083	-2.9271	-2.4167	-2.7042	-2.6271	-2.4313	53.423	0.127	214.235	-27.248	-36.421	-35.138	123.155	235.346	272.245	73.991	255.718	252.067	-17.695	222.608	181.661	185.703	0.0002011	7.1753e-05	0.00012714	469.93	7.424e-07	8.0121e-07	675.47	193.51	3.2217e-06	4.6364e-06	309.84	144.88	90.021	49.823	3.3641e-06	73.892	0.00022235	0.00024027	6.5293e-05	482.53	2.3945e-06	2.6265e-06	681.13	196.66	2.3758e-06	2.6387e-06	304.93	142.46	89.571	49.255	2.5254e-06	71.04	263.427	-63.338	-28.864	-74.544	-31.231	117.066	-76.080	-68.818	55.470	75.501	-71.479	-66.941	-63.997	-59.645	67.269	-63.333	-8191	255	
3862.514	1	1	0	0	0.17124	0.13402	0.21856	0.30337	0.20036	0.21716	0.14382	0.10849	0.1937	0.070617	0.0099864	0.11874	0.30279	0.045832	0.24722	0.035698	-2.2875	-2.4271	-2.3833	-2.7354	-2.1854	-2.5875	-2.5021	-2.1458	-2.5729	-2.6292	-2.3083	-2.8688	-2.1833	-2.5333	-2.6937	-2.4208	24.890	-18.527	194.394	197.875	78.552	-12.936	182.539	41.094	125.534	-0.487	189.254	243.206	162.937	-8.988	131.768	86.416	0.00025737	0.00017068	5.687e-05	472.05	4.0436e-06	3.6028e-06	671.83	193.27	2.8412e-06	2.3487e-06	308.08	144.19	90.037	49.76	2.6331e-06	73.651	0.00023078	0.00024467	6.442e-05	483.24	2.5245e-06	2.6971e-06	679.21	196.53	2.558e-06	2.7021e-06	303.87	142.16	89.805	49.225	2.5665e-06	70.985	266.364	-35.246	-19.673	-74.777	64.973	-40.193	-75.985	-68.829	126.936	15.087	-71.724	-67.016	-64.250	-59.749	106.013	-63.260	-8191	255	
3862.608	1	1	0	0	0.38899	0.13026	0.043498	0.28437	0.21601	0.2834	0.30937	0.16607	0.29332	0.17494	0.13185	0.40751	0.19408	0.20211	0.082193	0.28477	-2.175	-2.5625	-2.2438	-2.7687	-2.4771	-2.45	-2.7812	-2.4375	-2.5604	-2.5792	-2.4646	-2.6958	-2.4875	-2.5583	-2.8042	-2.5917	-48.122	66.547	60.374	206.833	38.341	3.524	184.841	227.644	252.147	27.909	187.021	219.321	171.574	228.747	240.133	171.796	0.00026078	0.00080473	0.00012049	469.51	2.4384e-06	3.1668e-06	673.56	193.73	1.9176e-06	6.0117e-06	308.71	144.34	90.367	49.789	2.9732e-06	73.604	0.00024713	0.00024806	6.4649e-05	482.67	2.6726e-06	2.7155e-06	679.62	196.8	2.7195e-06	2.6798e-06	304.25	142.58	90.38	49.264	2.5291e-06	71.154	254.913	-50.935	-1.633	-74.671	124.616	131.555	-75.896	-68.844	114.601	62.815	-71.686	-66.913	-64.232	-59.659	51.442	-63.284	-8191	255	
3862.706	1	1	0	0	0.024301	0.17089	0.11165	0.31576	0.15207	0.12504	0.30163	0.21327	0.42465	0.37667	0.15035	0.31925	0.276	0.089401	0.18044	0.22663	-2.2146	-2.5021	-2.1146	-2.7333	-2.6875	-2.5521	-2.7062	-2.3812	-2.5292	-2.6875	-2.5729	-2.9375	-2.6875	-2.4458	-2.8396	-2.4562	15.180	146.361	254.872	196.081	-36.289	50.900	187.834	-84.672	-47.420	-52.061	193.032	213.340	229.464	270.075	3.219	-68.463	0.00033168	0.00023713	9.1077e-05	470.72	3.5692e-06	5.7954e-06	670.1	192.82	2.5597e-06	3.9436e-06	309.8	144.41	90.027	49.817	2.2992e-06	73.903	0.00025847	0.00024162	6.3876e-05	483.28	2.7775e-06	2.6589e-06	678.21	196.73	2.7852e-06	2.6221e-06	304.51	142.88	90.31	49.279	2.504e-06	71.439	258.376	-79.097	36.292	-74.797	69.528	34.977	-75.914	-68.888	-52.576	13.468	-71.499	-66.971	-64.017	-59.773	97.235	-63.290	-8191	255	
3862.801	1	1	0	0	0.068858	0.13275	0.17279	0.27175	0.1395	0.027375	0.37834	0.068344	0.18695	0.083248	0.13941	0.31349	0.276	0.33147	0.14236	0.074228	-2.1708	-2.5458	-2.2021	-2.6667	-2.5146	-2.3375	-2.9542	-2.275	-2.4417	-2.7562	-2.2104	-2.7167	-2.6437	-2.3312	-2.7938	-2.4229	-22.812	-74.208	263.183	-82.608	6.519	239.899	261.424	-34.944	-2.121	-46.188	-66.108	188.413	250.572	236.657	239.296	118.833	0.00037309	0.00058297	0.00014439	466.73	4.9421e-06	4.092e-06	670.96	194.06	2.1795e-06	5.1422e-06	309.51	144.05	90.086	49.63	3.8963e-06	73.847	0.00025919	0.00023885	6.3963e-05	484.1	2.7892e-06	2.6232e-06	678.88	197.67	2.7932e-06	2.6216e-06	304.34	142.78	90.153	49.088	2.5138e-06	71.336	266.183	-21.550	51.693	-74.819	115.684	-17.808	-75.858	-68.778	84.763	51.804	-71.396	-67.045	-63.865	-59.625	61.635	-63.246	-8191	255	
3862.897	1	1	0	0	0.2716	0.034342	0.3482	0.13011	0.04937	0.10282	0.22347	0.15282	0.10832	0.24609	0.10383	0.37417	0.14455	0.025558	0.11453	0.21022	-1.8521	-2.5062	-2.2042	-2.5792	-2.5479	-2.2833	-2.8229	-2.4062	-2.2271	-2.4833	-2.4792	-2.7583	-2.4813	-2.3375	-2.8417	-2.425	-55.955	171.399	-9.769	27.896	-50.327	-28.261	236.250	-69.967	176.380	-69.086	79.287	175.565	272.420	-11.772	20.820	128.833	0.00027397	0.00026469	0.00011509	465.43	2.6411e-06	7.2619e-06	664.63	191.25	3.3676e-06	5.9031e-06	305.59	142.4	89.204	48.977	4.0838e-06	72.52	0.00025783	0.00023715	6.4876e-05	483.46	2.7598e-06	2.6192e-06	673.97	196.25	2.7822e-06	2.6254e-06	301.8	141.37	89.201	48.487	2.703e-06	70.479	266.803	-32.718	35.802	-74.719	135.857	21.163	-75.939	-68.754	93.792	26.505	-71.609	-66.840	-64.302	-59.767	27.682	-63.125	-8191	255	
3862.993	1	1	0	0	0.22708	0.11156	0.064636	0.15531	0.28469	0.10089	0.077042	0.32675	0.25507	0.15765	0.10807	0.067498	0.14597	0.38486	0.26606	0.17791	-2.0729	-2.6604	-2.3688	-2.3354	-2.5917	-2.1458	-2.6729	-2.5083	-2.4062	-2.5625	-2.2562	-2.6167	-2.5979	-2.2812	-2.7208	-2.5979	-24.460	52.758	96.896	66.830	-20.197	18.237	263.545	215.827	110.441	-43.730	152.074	41.453	254.181	232.921	-26.545	-77.582	0.00029515	0.00017277	2.8912e-05	463.76	2.2481e-06	4.4178e-06	661.61	190.92	1.4669e-06	2.8845e-06	304.97	142.15	88.639	48.853	5.8523e-07	72.431	0.00026106	0.00024224	6.9334e-05	481.34	2.7672e-06	2.6664e-06	671	195.83	2.7352e-06	2.632e-06	301.77	140.89	88.68	48.389	2.7806e-06	70.292	263.327	-65.532	54.120	-74.446	20.140	49.808	-75.994	-68.697	125.747	115.520	-71.483	-66.973	-64.155	-59.469	9.358	-63.283	-8191	255	
3863.089	1	1	0	0	0.18882	0.12805	0.27038	0.27382	0.4142	0.1766	0.21782	0.095239	0.069592	0.12117	0.13993	0.15709	0.1472	0.1777	0.10953	0.025969	-1.8563	-2.5771	-2.4521	-2.5125	-2.7292	-2.2292	-2.7229	-2.6333	-2.0521	-2.8229	-2.4354	-2.6458	-2.8167	-2.2438	-2.6292	-2.7208	-32.264	186.292	-24.924	157.072	269.641	121.499	-37.481	250.854	217.952	-28.154	167.343	151.313	157.885	229.023	202.646	256.418	0.00029089	0.0004046	0.00011814	461.67	3.0705e-06	4.2381e-06	661.85	190.22	3.7698e-07	2.9371e-06	304.02	141.83	88.45	48.78	1.3715e-06	72.3	0.00025266	0.00023657	7.2358e-05	479.51	2.6863e-06	2.63e-06	672.63	195.05	2.7135e-06	2.5998e-06	301.72	140.59	88.464	48.277	2.9012e-06	70.28	262.149	-79.235	-45.639	-74.529	74.218	-11.172	-75.823	-68.689	-69.848	107.249	-71.529	-66.873	-64.086	-59.693	134.078	-63.172	-8191	255	
3863.210	1	1	0	0	0.2193	0.069472	0.19522	0.17018	0.18713	0.20359	0.10822	0.041523	0.23071	0.012704	0.066775	0.12857	0.41747	0.29238	0.095592	0.092961	-1.8083	-2.6937	-2.375	-2.5521	-2.6375	-2.2833	-2.7229	-2.5833	-2.1437	-2.7354	-2.6104	-2.3438	-2.6437	-2.3146	-2.5667	-2.7917	65.556	92.069	231.344	272.473	-55.997	249.015	263.970	266.342	107.866	-50.853	5.194	212.390	-32.979	-83.376	245.414	78.913	0.00028373	0.00023036	0.00012217	460.98	2.428e-06	2.6652e-06	660.39	190.56	3.6892e-06	9.091e-07	304.17	142	88.314	48.763	4.1471e-06	72.524	0.00024749	0.00023877	7.3887e-05	478.22	2.614e-06	2.6269e-06	673.56	194.93	2.6004e-06	2.6604e-06	302.59	140.77	88.396	48.39	2.9372e-06	70.19	271.088	-81.374	56.248	-74.794	75.038	75.381	-75.912	-68.914	71.284	-15.582	-71.380	-66.813	-63.911	-59.511	51.988	-63.028	-8191	255	
3863.306	1	1	0	0	0.12055	0.11221	0.29169	0.3676	0.23293	0.32413	0.099639	0.21301	0.16303	0.17674	0.27312	0.33062	0.28819	0.18313	0.082974	0.11142	-1.7333	-2.6146	-2.4708	-2.3812	-2.6833	-2.3458	-2.6042	-2.5729	-2.1813	-2.5604	-2.4313	-2.5812	-2.7708	-2.5333	-2.5062	-2.7833	-63.679	212.488	44.066	-54.243	83.103	-71.331	193.872	229.672	225.800	47.712	245.227	-81.197	199.254	-81.331	142.203	-78.682	0.00030648	0.00033641	9.1487e-05	461.27	3.1041e-06	2.1624e-06	659.65	190.26	3.6264e-06	5.8211e-06	302.66	140.94	87.827	48.407	4.7455e-06	72.05	0.00024099	0.00024449	7.428e-05	476.4	2.5729e-06	2.7592e-06	671.9	194.26	2.5943e-06	2.8156e-06	301.14	139.75	87.972	48.209	2.8898e-06	69.727	261.929	77.023	40.003	-74.579	161.958	-61.638	-76.097	-68.606	76.821	59.434	-71.616	-66.926	-64.181	-59.460	40.777	-63.029	-8191	255	
3863.402	1	1	0	0	0.16225	0.19408	0.074232	0.13214	0.054357	0.24893	0.094441	0.20063	0.35966	0.16777	0.13769	0.20067	0.06323	0.31774	0.091249	0.11063	-1.8333	-2.6333	-2.4917	-2.1937	-2.6813	-2.45	-2.5062	-2.7792	-2.2958	-2.5583	-2.6896	-2.3417	-2.7396	-2.4688	-2.125	-2.8563	-17.289	174.942	37.755	189.692	244.145	241.598	-69.783	175.835	-82.078	139.010	6.253	201.882	-25.734	212.803	-74.095	195.775	0.00026903	0.00017806	0.00015354	459.38	2.9652e-06	4.498e-06	660.07	189.61	9.43e-08	4.3715e-06	303.9	141.33	87.942	48.346	4.8388e-06	71.944	0.00024379	0.00026428	7.295e-05	474.54	2.6044e-06	2.9493e-06	670.26	193.6	2.6514e-06	2.9699e-06	300.05	139.66	88.182	48.109	2.8672e-06	69.558	262.851	-6.285	9.248	-74.572	44.593	111.437	-76.000	-68.791	264.209	66.372	-71.333	-66.757	-63.948	-59.556	78.067	-63.061	-8191	255	
3863.498	1	1	0	0	0.26429	0.11605	0.15846	0.061694	0.054409	0.11784	0.12638	0.17679	0.19889	0.13906	0.097018	0.3522	0.27228	0.20703	0.14729	0.18587	-1.95	-2.6396	-2.5479	-2.3458	-2.5125	-2.4854	-2.3208	-2.8042	-2.2292	-2.5458	-2.6667	-2.4667	-2.8125	-2.7313	-2.3104	-2.9083	159.904	94.455	31.429	96.499	24.545	-65.983	253.995	34.185	-81.457	25.188	228.036	125.391	271.263	185.130	186.383	202.763	0.00030736	0.00033301	0.00022689	458.24	7.8484e-07	3.5533e-06	658.09	189.75	2.7149e-06	2.6183e-06	302.55	141.1	88.002	48.545	1.3734e-06	72.036	0.00025354	0.0002751	7.2155e-05	473.22	2.7358e-06	3.0468e-06	668.61	193.41	2.7886e-06	2.998e-06	299.78	139.67	88.692	48.257	2.8101e-06	69.569	265.577	-64.331	25.693	-74.467	37.759	-9.253	-75.899	-68.753	143.258	82.112	-71.509	-66.930	-63.930	-59.524	-36.172	-62.880	-8191	255	
3863.594	1	1	0	0	0.15435	0.011538	0.11665	0.038379	0.13684	0.13623	0.14455	0.31135	0.14368	0.0074724	0.28834	0.3774	0.25565	0.086222	0.22653	0.15637	-1.7354	-2.4521	-2.5625	-2.2188	-2.7208	-2.4667	-2.4917	-2.7438	-2.4604	-2.525	-2.5354	-2.4146	-2.4958	-2.7854	-2.2292	-2.9938	-75.631	121.262	266.575	231.286	252.175	-26.934	270.490	216.193	182.294	228.437	11.118	210.376	251.901	262.897	100.962	142.698	0.0003231	0.00028504	9.2778e-05	457.1	3.6343e-06	5.7107e-06	656.17	188.81	1.1309e-06	1.4395e-07	303.81	141.34	88.375	48.711	5.5057e-06	72.61	0.00026755	0.00027747	7.1288e-05	472.01	2.9304e-06	3.013e-06	667.44	193.09	2.9317e-06	2.9633e-06	299.92	139.91	88.909	48.33	2.7083e-06	69.995	255.246	-65.976	6.643	-74.706	60.594	27.715	-75.763	-68.716	41.456	5.531	-71.106	-66.862	-63.965	-59.410	86.886	-63.069	-8191	255	
3863.691	1	1	0	0	0.17815	0.10122	0.31417	0.05702	0.12082	0.11564	0.12393	0.30041	0.099748	0.031708	0.15196	0.29334	0.25531	0.19347	0.24209	0.19501	-2.025	-2.3083	-2.5396	-2.2062	-2.4958	-2.6292	-2.2833	-2.5125	-2.7021	-2.5083	-2.8458	-2.3417	-2.4146	-2.7854	-2.3708	-2.9167	80.007	-56.457	124.808	259.957	29.942	246.369	-66.521	252.708	-66.063	146.669	42.106	-86.527	119.052	13.227	62.095	62.028	0.00024233	0.00036969	0.00010604	457.48	3.0472e-06	4.0483e-06	658.09	189.25	3.6786e-06	4.1846e-06	303.15	141.45	88.447	48.515	3.3459e-06	72.242	0.00027319	0.00026099	6.8147e-05	472.78	2.9553e-06	2.8277e-06	667.66	193.49	2.9798e-06	2.8302e-06	299.73	140.23	89.238	48.221	2.674e-06	69.994	254.357	268.686	-3.019	-74.586	77.291	33.683	-75.960	-68.612	112.545	63.209	-71.698	-67.045	-63.949	-59.688	52.814	-63.184	-8191	255	
3863.809	1	1	0	0	0.19614	0.13761	0.17438	0.14417	0.036837	0.062044	0.13223	0.29723	0.15023	0.090156	0.096386	0.25302	0.052103	0.10135	0.11781	0.24694	-2.0708	-2.3042	-2.7	-2.4604	-2.6604	-2.65	-2.3875	-2.725	-2.4667	-2.275	-2.8438	-2.3354	-2.5729	-2.7521	-2.3	-2.7687	232.539	-42.031	6.179	102.328	-12.102	241.501	169.363	110.528	123.489	11.181	-49.728	210.724	246.485	-83.783	38.036	195.502	0.0003036	0.00025974	0.00010679	457.98	4.2793e-06	4.6863e-06	660.19	189.29	4.752e-06	2.9341e-06	302.85	141.77	88.256	48.435	1.5628e-06	72.059	0.00027801	0.00025452	6.7601e-05	475.7	2.9871e-06	2.7791e-06	667.78	194.22	2.9851e-06	2.7715e-06	299.38	140.23	89.093	48.089	2.6992e-06	69.916	259.270	-13.392	60.868	-74.343	65.615	-6.030	-75.886	-68.775	70.764	12.764	-71.673	-66.957	-63.884	-59.674	94.760	-62.994	-8191	255	
3863.906	1	1	0	0	0.14949	0.20438	0.11423	0.084238	0.12378	0.041695	0.18029	0.084415	0.19222	0.067807	0.12247	0.12248	0.075794	0.14047	0.15234	0.26457	-1.9229	-2.1958	-2.6458	-2.35	-2.475	-2.7542	-2.3563	-2.6583	-2.5687	-2.4979	-2.6729	-2.5167	-2.5312	-3.0542	-2.2792	-2.8375	-86.091	257.230	154.843	272.845	222.999	-78.798	128.826	184.708	268.492	70.958	20.410	105.382	75.291	150.179	143.910	-81.908	0.00024132	0.00025751	9.6717e-05	458.47	1.038e-06	3.9165e-06	658.8	189.48	4.124e-06	3.7351e-06	303.53	142.17	88.517	48.734	2.7955e-06	72.651	0.00027636	0.00025448	6.783e-05	477.65	2.9557e-06	2.756e-06	668.6	194.87	2.9153e-06	2.7562e-06	300.33	141.13	89.089	48.282	2.6927e-06	70.399	262.218	-17.390	50.523	-74.456	30.175	3.158	-75.827	-68.641	75.387	12.990	-71.414	-66.695	-63.932	-59.716	90.878	-63.042	-8191	255	
3863.977	1	1	0	0	0.10657	0.16422	0.079987	0.28217	0.22998	0.27414	0.21435	0.11557	0.079488	0.10222	0.2213	0.027256	0.14911	0.35644	0.21543	0.3543	-2.2354	-2.2313	-2.5625	-2.4188	-2.5854	-2.8896	-2.4125	-2.6729	-2.7667	-2.2354	-2.7583	-2.4708	-2.3208	-2.6875	-2.3312	-2.6042	254.016	224.666	-47.440	234.263	15.664	22.407	223.749	-63.456	-54.158	88.232	-65.807	246.293	-66.262	259.936	148.315	250.472	0.00028026	0.00042127	9.7719e-05	457.36	2.338e-06	3.4531e-06	659.36	190.46	1.9911e-06	7.4874e-07	304.35	142.23	89.291	48.654	3.0326e-06	72.629	0.00026265	0.00024696	6.9001e-05	477.23	2.8204e-06	2.6806e-06	670.07	195.39	2.7907e-06	2.6779e-06	301.88	141.44	89.078	48.277	2.8574e-06	70.555	256.484	-64.411	-43.092	-74.612	79.901	21.229	-75.763	-68.757	104.833	-26.220	-71.404	-66.772	-63.900	-59.566	112.643	-63.025	-8191	255	
3864.098	1	1	0	0	0.21464	0.22435	0.22701	0.1037	0.25367	0.033096	0.08147	0.11729	0.28198	0.030213	0.17323	0.16813	0.23441	0.17161	0.22809	0.47612	-2.0417	-2.2729	-2.5563	-2.6604	-2.1833	-2.7313	-2.4458	-2.5292	-2.6188	-2.3771	-2.5958	-2.6	-2.375	-2.7812	-2.4417	-2.5354	67.231	4.341	189.210	2.433	267.924	243.905	50.249	-45.010	194.338	221.537	86.058	76.225	254.256	255.637	219.799	234.279	0.00024046	0.00022443	9.3494e-05	459.45	3.3429e-06	1.9775e-06	660.61	190.25	1.8481e-06	1.4248e-06	305.92	142.87	88.767	48.713	3.0842e-06	72.551	0.00025821	0.00024548	7.288e-05	479.1	2.7412e-06	2.6367e-06	672.89	195.33	2.7253e-06	2.645e-06	303.4	141.72	88.931	48.303	2.9844e-06	70.429	256.637	-6.163	190.192	-74.757	146.244	27.091	-75.968	-68.645	117.427	19.953	-71.292	-66.840	-63.955	-59.557	106.382	-63.139	-8191	255	
3864.194	1	1	0	0	0.18407	0.1943	0.083674	0.036445	0.084252	0.27902	0.34938	0.14695	0.24661	0.26951	0.25709	0.28225	0.13245	0.14676	0.083531	0.074036	-2.2625	-2.1208	-2.5271	-2.475	-2.2146	-2.7479	-2.4833	-2.4646	-2.5521	-2.3292	-2.6688	-2.5479	-2.2167	-2.7292	-2.5729	-2.5187	-82.376	180.513	-14.168	69.081	-1.197	93.364	187.184	-24.673	235.122	30.728	262.746	214.617	217.884	231.218	30.790	-78.384	0.00024645	0.00031318	4.7769e-05	461.24	1.0436e-06	1.9938e-06	658.95	190.52	4.0711e-06	4.3444e-07	302.52	141.95	88.634	48.794	2.8675e-06	72.677	0.00025293	0.00024544	7.6164e-05	478	2.7555e-06	2.7162e-06	673.31	194.82	2.7184e-06	2.7289e-06	302.36	140.74	88.574	48.309	3.0181e-06	70.221	261.318	-49.206	259.219	-74.595	57.833	51.012	-75.826	-68.840	106.767	263.408	-71.315	-66.891	-64.154	-59.615	143.905	-62.964	-8191	255	
3864.290	1	1	0	0	0.058549	0.12346	0.33375	0.15732	0.11471	0.01761	0.17229	0.41691	0.23258	0.27599	0.055572	0.12174	0.24892	0.13186	0.096246	0.20238	-2.1333	-2.4188	-2.4792	-2.7479	-2.1188	-2.6875	-2.4146	-2.4625	-2.6312	-2.3667	-2.7354	-2.8563	-2.1604	-2.7333	-2.5208	-2.5021	267.210	27.358	37.969	-67.307	64.209	267.720	72.651	228.390	108.732	0.942	68.032	198.937	232.286	211.506	-39.685	201.458	0.00025467	0.00025768	9.7152e-06	460.38	1.2131e-06	1.5131e-06	665.14	191.95	3.4019e-06	6.2006e-06	306.32	142.77	88.896	48.8	5.0094e-06	73.08	0.00024485	0.00025013	7.5441e-05	477.17	2.611e-06	2.7359e-06	676.44	195.33	2.5959e-06	2.7836e-06	303.97	141.44	88.853	48.619	2.9382e-06	70.474	263.515	-13.032	167.043	-74.804	80.822	-41.081	-75.853	-68.773	54.413	77.485	-71.499	-66.818	-64.184	-59.550	64.714	-63.195	-8191	255	
3864.411	1	1	0	0	0.096822	0.19325	0.1133	0.25644	0.2996	0.1688	0.15684	0.19778	0.28214	0.15961	0.13218	0.25709	0.14355	0.23373	0.057592	0.25575	-2.3854	-2.2417	-2.3833	-2.6979	-2.1583	-2.6188	-2.5917	-2.5229	-2.7271	-2.4688	-2.3521	-2.925	-2.2729	-2.7625	-2.6833	-2.5771	191.192	58.015	251.548	227.146	230.361	-32.378	243.503	197.011	-53.156	38.811	-19.353	210.829	269.024	-73.801	155.032	236.549	0.00027936	0.00019119	0.00017108	461.5	2.079e-06	3.8545e-07	666.1	191.01	4.2062e-06	4.6457e-06	307.66	143.76	89.419	49.3	2.6876e-06	73.806	0.00024032	0.00026183	7.3127e-05	478.12	2.5476e-06	2.8333e-06	676.67	195.14	2.5481e-06	2.8431e-06	303.81	142.07	89.239	49.004	2.7505e-06	71.055	269.078	236.270	4.750	-74.496	56.155	209.547	-76.053	-68.637	71.881	197.164	-71.486	-67.114	-63.701	-59.539	74.338	-63.072	-8191	255	
3864.505	1	1	0	0	0.0006782	0.024371	0.45775	0.10718	0.10526	0.19425	0.15745	0.18862	0.10838	0.14928	0.22829	0.14692	0.03107	0.11095	0.14749	0.29615	-2.4479	-2.4688	-2.4146	-2.8958	-2.2667	-2.6875	-2.8542	-2.4646	-2.7875	-2.6042	-2.4562	-2.6917	-2.2542	-2.7313	-2.6042	-2.3958	180.000	220.526	-13.067	37.475	198.352	71.105	85.496	52.261	11.624	75.775	114.294	255.644	220.957	209.202	7.290	220.284	0.00028382	0.00045198	0.00010824	464.46	2.2649e-06	1.474e-06	667.41	191.4	1.345e-06	2.9028e-06	308.38	144.3	89.71	49.539	2.4333e-06	73.876	0.00023823	0.00026136	6.8961e-05	479.72	2.5959e-06	2.8685e-06	676.27	195.32	2.5896e-06	2.8582e-06	304.54	142.8	89.69	49.23	2.6132e-06	71.277	256.466	31.988	-37.390	-74.818	21.609	268.315	-75.981	-69.030	-23.740	83.536	-71.530	-66.714	-64.277	-59.590	47.852	-63.161	-8191	255	
3864.579	1	1	0	0	0.21509	0.044127	0.27147	0.11908	0.29483	0.14961	0.10104	0.073379	0.11169	0.011188	0.30431	0.080313	0.19504	0.079999	0.14808	0.27323	-2.3312	-2.5062	-2.3563	-2.7583	-2.6333	-2.5229	-2.6354	-2.425	-2.5458	-2.475	-2.3063	-2.7938	-2.3958	-2.4062	-2.4604	-2.55	91.356	95.889	-7.631	128.287	-44.978	114.896	76.084	15.535	211.370	204.849	223.929	-53.952	-48.562	202.561	199.807	235.403	0.00035951	0.00028729	0.00010184	464.65	4.0768e-06	1.7875e-06	670.92	191.34	2.1486e-06	4.0151e-06	308.62	145.61	90.445	49.901	2.9061e-06	74.022	0.00024662	0.00025437	6.607e-05	480.2	2.6638e-06	2.7707e-06	678.26	195.23	2.6819e-06	2.755e-06	304.03	142.94	90.266	49.319	2.5506e-06	71.27	251.843	-63.353	33.934	-74.659	156.579	-43.678	-75.786	-68.775	-41.841	96.313	-71.550	-67.083	-64.272	-59.607	20.359	-63.176	-8191	255	
3864.675	1	1	0	0	0.048667	0.069045	0.11359	0.15887	0.1371	0.080927	0.13578	0.29675	0.12932	0.27571	0.28875	0.13034	0.097943	0.081293	0.21775	0.22272	-2.2396	-2.5729	-2.2292	-2.7583	-2.5083	-2.5104	-2.7229	-2.4083	-2.6917	-2.5667	-2.3063	-2.875	-2.5	-2.6021	-2.7208	-2.4729	140.581	123.708	167.523	246.263	-55.642	63.713	153.617	193.781	60.163	150.967	143.583	234.825	-61.787	250.673	-2.993	215.464	0.00034296	0.000357	8.9081e-05	467.27	1.181e-06	3.6179e-06	670.97	192.79	1.3266e-06	6.0874e-06	307.53	145.15	89.691	49.801	3.5906e-06	73.994	0.0002558	0.00024691	6.4433e-05	480.94	2.7709e-06	2.6674e-06	678.09	195.9	2.7808e-06	2.6594e-06	303.72	143.14	90.472	49.288	2.4941e-06	71.387	259.646	-71.090	46.866	-74.782	15.055	35.591	-76.090	-68.798	102.419	73.064	-71.338	-66.923	-63.958	-59.691	69.996	-63.214	-8191	255	
3864.771	1	1	0	0	0.080745	0.14951	0.10238	0.12012	0.1805	0.063254	0.17735	0.050728	0.28161	0.18011	0.022061	0.05699	0.010185	0.28168	0.18291	0.31315	-2.2812	-2.475	-2.2313	-2.625	-2.3729	-2.4313	-2.8792	-2.4521	-2.4896	-2.825	-2.3667	-2.6813	-2.6	-2.3729	-2.8417	-2.3646	-81.744	91.956	-2.066	264.991	92.569	111.684	26.194	44.959	162.459	50.814	214.334	43.183	17.427	253.900	150.109	251.512	0.00032116	0.00031329	8.2009e-05	466.95	1.653e-06	6.6569e-06	673.9	192.82	3.7844e-06	2.3396e-06	310.26	145.61	90.505	49.945	1.6507e-06	74.635	0.00025736	0.00023637	6.2365e-05	482.52	2.7508e-06	2.5655e-06	679.26	196.53	2.7339e-06	2.51e-06	304.73	143.97	90.659	49.464	2.4165e-06	71.907	254.990	1.901	57.504	-74.690	98.103	34.995	-76.008	-68.837	109.674	111.071	-71.606	-67.128	-64.129	-59.781	19.296	-63.253	-8191	255	
3864.890	1	1	0	0	0.10869	0.28956	0.15573	0.22503	0.16903	0.062982	0.28657	0.043532	0.11984	0.25458	0.056183	0.11101	0.054147	0.35878	0.18273	0.045107	-2.025	-2.4479	-2.2	-2.7458	-2.5812	-2.2604	-2.7292	-2.4313	-2.3896	-2.6958	-2.25	-2.7958	-2.6958	-2.4792	-2.5917	-2.4625	176.679	164.058	66.249	60.914	-57.001	84.019	251.634	272.317	182.408	256.412	12.153	265.542	127.708	-24.883	201.624	21.245	0.00030556	8.687e-05	9.0674e-05	469.59	2.2006e-06	4.0329e-06	672.48	193.06	5.2536e-06	1.8139e-06	311.07	146.71	90.835	50.328	6.4316e-07	74.616	0.00024848	0.00022602	6.0426e-05	484.27	2.6089e-06	2.4648e-06	679.25	196.96	2.5798e-06	2.4232e-06	305.23	144.95	90.636	49.59	2.3945e-06	72.15	-86.405	-43.021	13.979	-74.845	80.200	27.397	-75.782	-68.834	110.794	91.090	-71.693	-66.910	-64.268	-59.786	21.038	-63.160	-8191	255	
3864.986	1	1	0	0	0.040158	0.032822	0.16087	0.045963	0.18762	0.17532	0.24271	0.13388	0.16086	0.43274	0.18502	0.21747	0.074198	0.25244	0.047116	0.12223	-1.9188	-2.6813	-2.2583	-2.5646	-2.3937	-2.0792	-2.7042	-2.5396	-2.4208	-2.7542	-2.4958	-2.7021	-2.6083	-2.4625	-2.6104	-2.6917	204.353	1.984	-16.480	264.083	-15.826	189.383	234.904	223.911	77.132	49.787	-59.254	-71.182	1.869	268.729	191.608	61.861	0.00032482	0.00039092	3.7663e-05	468.45	2.6941e-06	3.08e-06	674.08	192.7	5.8056e-06	2.5843e-06	311.13	146.21	91.057	50.049	8.7363e-07	74.252	0.00024105	0.00021973	6.1844e-05	485.42	2.5359e-06	2.4037e-06	681.63	196.84	2.5002e-06	2.3784e-06	305.81	144.76	90.519	49.41	2.5004e-06	71.86	252.296	-43.455	92.184	-74.576	84.045	54.468	-75.923	-68.743	37.891	79.927	-71.466	-67.107	-64.353	-59.702	45.257	-63.323	-8191	255	
3865.082	1	1	0	0	0.13625	0.035419	0.16685	0.28489	0.20836	0.27814	0.20237	0.184	0.32237	0.061114	0.21622	0.1363	0.12955	0.33613	0.14507	0.080794	-1.875	-2.6771	-2.2417	-2.575	-2.6396	-2.3083	-2.8292	-2.6312	-2.1646	-2.7313	-2.5	-2.5771	-2.6125	-2.3438	-2.6646	-2.5687	29.100	128.765	167.064	139.542	169.246	153.326	149.571	213.382	-81.687	170.475	-53.149	8.068	-35.222	-62.343	249.001	140.122	0.00026592	0.00044095	5.8408e-05	467.92	2.6972e-06	4.9349e-06	674.48	192.24	3.8892e-06	3.8921e-06	308.75	145.74	90.542	50.233	1.8349e-06	74.207	0.00023378	0.0002175	6.4934e-05	484.39	2.4925e-06	2.389e-06	681.85	196.18	2.4904e-06	2.3935e-06	305.32	144.16	90.179	49.373	2.6534e-06	71.707	266.214	-58.437	48.383	-74.643	144.692	63.870	-76.002	-68.920	55.567	88.855	-71.572	-66.932	-64.300	-59.716	152.505	-63.293	-8191	255	
3865.203	1	1	0	0	0.11267	0.095495	0.20144	0.15606	0.28515	0.23699	0.12928	0.1634	0.3929	0.20651	0.085364	0.28108	0.17465	0.19983	0.091226	0.27816	-1.725	-2.6	-2.2271	-2.4792	-2.7938	-2.1792	-2.7	-2.7188	-2.3458	-2.875	-2.5563	-2.4396	-2.8229	-2.4146	-2.5542	-2.7438	-80.799	70.396	238.595	174.383	188.914	75.862	174.862	261.377	67.570	223.363	-47.548	170.022	19.475	206.847	29.735	224.235	0.0002952	0.00025021	0.00012384	468.31	2.2631e-06	4.8609e-06	673.65	192.24	2.526e-06	3.8521e-06	310.2	146.4	90.719	50.152	3.2224e-06	74.177	0.00023071	0.00021758	6.778e-05	483.09	2.4248e-06	2.3907e-06	682.15	195.87	2.416e-06	2.3962e-06	306.18	143.97	90.022	49.398	2.7072e-06	71.507	258.119	-8.338	104.325	-74.717	134.341	23.020	-75.855	-68.769	66.916	75.657	-71.337	-67.156	-64.128	-59.743	66.016	-63.105	-8191	255	
3865.274	1	1	0	0	0.13815	0.079678	0.13369	0.20677	0.20675	0.15034	0.23571	0.21676	0.33187	0.027321	0.23514	0.21352	0.071153	0.22673	0.29078	0.12169	-1.8479	-2.5917	-2.3667	-2.3667	-2.8021	-2.2271	-2.6625	-2.6063	-2.3333	-2.7438	-2.7771	-2.45	-2.7729	-2.5917	-2.6458	-2.95	160.030	271.034	192.781	233.857	54.244	263.392	182.527	257.886	39.983	-76.890	176.912	191.265	212.637	251.591	81.908	-75.480	0.0003074	0.00019194	0.0001294	467.09	3.5409e-06	3.7682e-06	671.96	191.91	5.2058e-07	2.2706e-06	309.38	145.87	90.894	50.093	2.4323e-06	74.111	0.000228	0.00022477	6.9379e-05	481.51	2.3846e-06	2.4921e-06	680.77	195.08	2.3908e-06	2.5139e-06	305.59	143.53	89.798	49.461	2.6646e-06	71.558	254.846	232.656	2.907	-74.573	69.836	71.722	-75.876	-68.849	155.155	-16.785	-71.457	-67.089	-63.912	-59.801	123.827	-63.373	-8191	255	
3865.371	1	1	0	0	0.1988	0.23903	0.085828	0.059874	0.19116	0.11571	0.16202	0.26997	0.18634	0.38156	0.3049	0.38628	0.10783	0.043325	0.097605	0.10981	-1.7667	-2.6	-2.6042	-2.4333	-2.6104	-2.2271	-2.6562	-2.7292	-2.3563	-2.575	-2.3917	-2.5208	-2.8708	-2.475	-2.3979	-2.8521	-12.609	128.027	129.206	128.717	174.651	263.316	163.489	267.950	247.999	219.071	148.652	188.898	-22.325	165.402	265.210	66.296	0.00031767	0.00032933	0.00013799	466.14	5.4225e-07	2.6999e-06	672.11	192.05	1.4731e-06	3.6222e-06	308.18	144.75	89.891	49.456	2.307e-06	73.571	0.00022058	0.0002342	6.695e-05	479.76	2.3511e-06	2.6236e-06	679.64	194.93	2.3914e-06	2.6724e-06	304.64	142.71	89.241	49.111	2.6679e-06	70.902	253.910	4.696	-33.502	-74.511	14.016	4.992	-75.891	-68.803	47.132	34.950	-71.246	-66.905	-63.929	-59.772	176.511	-63.032	-8191	255	
3865.491	1	1	0	0	0.24765	0.20735	0.09612	0.30631	0.15101	0.17725	0.143	0.1855	0.059291	0.10574	0.22584	0.22047	0.045769	0.20656	0.063059	0.12087	-1.7854	-2.6208	-2.5062	-2.35	-2.9125	-2.5854	-2.5021	-2.6	-2.2292	-2.6479	-2.7375	-2.2479	-2.8042	-2.5146	-2.2854	-2.8771	199.290	-13.744	217.208	229.439	157.097	5.152	-68.540	122.904	47.833	-23.465	270.421	206.208	21.120	230.832	35.620	227.372	0.00025218	0.00027301	0.00014374	464.71	2.6636e-06	2.5428e-06	667.21	191.21	3.1535e-06	3.4672e-06	307.3	144.31	89.727	49.202	2.8067e-06	73.171	0.0002321	0.00025308	6.7115e-05	477.18	2.4557e-06	2.7478e-06	675.08	194.24	2.4978e-06	2.7355e-06	303.09	142.27	89.352	48.853	2.6303e-06	70.504	254.713	19.719	25.272	-74.640	40.668	12.795	-76.031	-68.761	67.597	180.052	-71.445	-67.100	-64.154	-59.687	50.214	-62.979	-8191	255	
3865.586	1	1	0	0	0.10245	0.096899	0.1478	0.21899	0.21236	0.24709	0.083508	0.39182	0.13249	0.30583	0.1565	0.12962	0.079391	0.11684	0.084735	0.28805	-1.9375	-2.4979	-2.6771	-2.3521	-2.6479	-2.5125	-2.4271	-2.75	-2.3688	-2.4792	-2.6771	-2.5729	-2.6	-2.7604	-2.1375	-2.7562	237.876	53.154	119.019	15.601	111.522	168.644	151.970	192.970	195.906	137.470	47.884	105.692	-84.914	228.262	93.614	269.464	0.00038539	0.00070461	2.4601e-05	459.13	2.0349e-06	6.6139e-06	663.16	189.95	2.0285e-06	1.6288e-06	304.69	143.89	89.068	48.919	2.5357e-06	73.033	0.00024508	0.00025955	6.7412e-05	473.12	2.706e-06	2.8834e-06	669.93	193.18	2.7679e-06	2.8593e-06	300.78	141.6	89.428	48.688	2.6489e-06	70.58	253.236	-62.026	85.307	-74.719	169.647	14.048	-75.630	-68.756	151.377	44.534	-71.500	-66.904	-63.863	-59.659	34.552	-63.201	-8191	255	
3865.682	1	1	0	0	0.045345	0.16843	0.068923	0.17236	0.058324	0.42913	0.18145	0.064869	0.067552	0.25571	0.088832	0.14675	0.21139	0.16209	0.080926	0.15842	-1.8271	-2.5021	-2.6604	-2.3375	-2.75	-2.7167	-2.3104	-2.9708	-2.3937	-2.3729	-2.7438	-2.4062	-2.6312	-2.6937	-2.1979	-2.9604	-31.314	23.488	147.792	250.550	95.546	91.607	200.711	199.316	169.162	235.685	-40.979	220.183	-10.998	147.598	142.170	-54.354	0.00035291	0.00053083	0.00014103	458.48	5.6976e-06	5.7107e-06	660.55	188.92	1.9778e-06	4.2938e-06	304.43	143.69	89.505	49.262	1.7644e-06	72.96	0.00026175	0.00025464	6.6299e-05	473.79	2.8125e-06	2.7638e-06	669.89	193.26	2.8351e-06	2.7565e-06	300.92	141.72	89.816	48.677	2.5725e-06	70.587	261.305	-74.603	9.968	-74.707	140.691	2.490	-75.920	-68.551	36.173	66.068	-71.413	-66.942	-64.074	-59.662	12.258	-63.185	-8191	255	
3865.802	1	1	0	0	0.2292	0.094186	0.18425	0.29024	0.18308	0.16314	0.062762	0.089597	0.13009	0.22444	0.19946	0.11616	0.25308	0.17883	0.056418	0.36378	-1.95	-2.1208	-2.6854	-2.3542	-2.5417	-2.8417	-2.475	-2.8021	-2.5917	-2.3063	-2.9313	-2.5146	-2.4729	-2.7646	-2.3396	-2.8417	235.055	215.493	-58.391	-64.909	236.217	199.331	180.696	-21.803	194.981	33.535	242.328	136.841	-5.858	-50.787	11.335	214.306	0.00034051	0.00054725	9.2456e-05	458.51	3.619e-06	4.6827e-06	659.44	189.4	1.8508e-06	2.3269e-06	305.47	143.34	89.431	49.073	1.8511e-06	73.067	0.00026652	0.00024493	6.4591e-05	474.03	2.8416e-06	2.668e-06	668.28	193.8	2.8486e-06	2.644e-06	300.93	142.05	89.783	48.604	2.5041e-06	70.638	251.458	-61.879	64.859	-74.588	69.005	-20.520	-75.900	-68.648	135.760	113.983	-71.179	-66.714	-63.932	-59.595	34.251	-63.176	-8191	255	
3865.874	1	1	0	0	0.051622	0.1034	0.16398	0.1142	0.060528	0.21093	0.39168	0.077714	0.0099294	0.17359	0.22637	0.25274	0.1625	0.26077	0.15497	0.075738	-2.0521	-2.4062	-2.6437	-2.3438	-2.4625	-2.7188	-2.4833	-2.7708	-2.6146	-2.0708	-2.6354	-2.5	-2.3917	-2.8729	-2.3125	-2.7562	-46.359	2.393	97.156	110.936	30.201	-23.360	212.141	151.741	10.843	175.473	115.084	173.599	-25.226	-37.333	-16.862	269.476	0.00029579	0.00023959	0.00010101	457.85	1.4606e-07	5.1594e-06	661.17	189.1	3.5181e-06	5.4894e-06	303.51	143.3	88.98	48.87	2.8093e-06	72.719	0.00026246	0.00023983	6.3946e-05	474.84	2.8198e-06	2.6211e-06	667.61	193.69	2.8069e-06	2.6259e-06	299.91	141.59	89.34	48.424	2.5815e-06	70.436	267.544	7.933	11.660	-74.522	178.902	-22.035	-75.888	-68.549	67.271	50.096	-71.335	-66.803	-64.145	-59.621	90.968	-63.091	-8191	255	
3865.970	1	1	0	0	0.058052	0.17476	0.13061	0.34272	0.024517	0.048226	0.11242	0.108	0.074524	0.10256	0.26394	0.15941	0.12042	0.2584	0.28955	0.037789	-2.0792	-2.1167	-2.6583	-2.4313	-2.4042	-2.8063	-2.3854	-2.6479	-2.4771	-2.2833	-2.7792	-2.5062	-2.4062	-2.7229	-2.2604	-2.7729	82.859	245.651	100.832	255.669	77.594	69.181	-13.489	202.613	143.367	-35.210	142.010	256.407	262.876	229.902	70.625	116.795	0.0002789	0.00011828	5.153e-05	457.36	4.3449e-06	1.8353e-06	656.76	187.89	1.7496e-06	6.5251e-06	302.99	143	88.763	48.694	1.3189e-06	72.496	0.00025591	0.00023795	6.5163e-05	475.24	2.7571e-06	2.6023e-06	667.27	193.43	2.7521e-06	2.615e-06	299.77	141.52	89.026	48.261	2.7273e-06	70.278	263.163	-18.557	87.084	-74.759	63.267	65.730	-75.752	-68.995	186.415	55.861	-71.420	-66.625	-64.169	-59.675	92.620	-63.216	-8191	255	
3866.066	1	1	0	0	0.046021	0.077064	0.16198	0.15444	0.078866	0.034486	0.11663	0.17003	0.074543	0.049457	0.098252	0.2109	0.12082	0.25736	0.29298	0.13134	-2.1188	-2.2729	-2.6562	-2.375	-2.3625	-2.7229	-2.5042	-2.6813	-2.5563	-2.2979	-2.6521	-2.8708	-2.475	-3.0271	-2.25	-2.4792	193.734	173.945	-24.300	216.805	141.419	14.322	-50.869	212.123	150.097	-43.030	-77.358	169.366	254.795	-40.812	18.238	-26.008	0.00025781	9.5564e-05	5.4358e-05	455.14	6.9423e-07	5.7589e-06	656.88	188.24	2.9945e-06	3.2229e-06	304.22	142.57	89.107	48.809	3.9244e-06	72.817	0.00025249	0.00023857	7.0002e-05	475.18	2.7045e-06	2.5753e-06	667.6	193.39	2.6555e-06	2.5539e-06	300.9	141.7	89.051	48.315	2.8189e-06	70.461	256.867	-26.814	-7.829	-74.464	-59.182	7.275	-75.878	-68.826	56.893	77.915	-71.151	-66.794	-63.864	-59.443	254.617	-63.129	-8191	255	
3866.187	1	1	0	0	0.13732	0.084061	0.16714	0.19498	0.12536	0.12697	0.25886	0.13643	0.024226	0.15612	0.15365	0.054685	0.18562	0.18144	0.14907	0.19182	-2.3229	-2.1896	-2.6479	-2.6063	-2.2979	-2.7604	-2.625	-2.4667	-2.7104	-2.2542	-2.7021	-2.8396	-2.3063	-2.9104	-2.4667	-2.4729	12.764	267.769	134.701	140.247	194.274	10.923	111.227	-55.031	106.060	187.971	147.115	253.963	-39.759	108.405	-62.066	214.990	0.00030895	0.00014313	7.9788e-05	455.21	3.729e-06	2.3654e-06	657.04	188.78	2.8554e-06	2.2015e-06	303.92	143.44	89.106	48.844	1.8488e-06	72.856	0.00024515	0.00023253	7.2427e-05	473.64	2.6349e-06	2.5756e-06	668.76	193.36	2.6411e-06	2.5991e-06	302.45	141.73	89.035	48.406	2.9589e-06	70.472	264.885	-28.124	65.660	-74.708	100.236	-53.727	-75.998	-68.681	83.168	116.706	-71.319	-66.809	-64.059	-59.443	142.210	-63.087	-8191	255	
3866.283	1	1	0	0	0.2593	0.10555	0.10635	0.2802	0.1536	0.099653	0.12818	0.12758	0.16001	0.057956	0.15104	0.11686	0.07773	0.12024	0.2231	0.18006	-2.3312	-2.2104	-2.5312	-2.6646	-2.2333	-2.7062	-2.4396	-2.4854	-2.8458	-2.4188	-2.6854	-2.8104	-2.3333	-2.8083	-2.4521	-2.4771	54.246	120.947	86.965	153.674	27.527	154.646	250.762	241.320	-76.754	207.069	-42.933	139.965	72.212	12.078	8.101	224.367	0.00028355	0.00012749	4.6148e-05	453.68	4.2199e-06	3.2351e-06	657.21	188.97	3.6127e-06	8.4352e-07	302.78	142.4	88.657	48.772	1.6463e-06	72.393	0.00024331	0.00024311	7.4967e-05	471.65	2.6364e-06	2.7161e-06	669.16	192.88	2.6088e-06	2.7566e-06	301.59	140.95	88.587	48.275	2.9744e-06	69.999	258.978	73.521	247.600	-74.695	103.060	3.148	-75.906	-68.683	76.004	204.613	-71.150	-66.910	-63.889	-59.510	66.469	-63.021	-8191	255	
3866.379	1	1	0	0	0.14929	0.12613	0.092519	0.29051	0.21458	0.13264	0.2362	0.16586	0.19316	0.040515	0.043202	0.18726	0.17965	0.05375	0.14403	0.24941	-2.4208	-2.3229	-2.5021	-2.7125	-2.3667	-2.6292	-2.85	-2.3833	-2.8583	-2.4771	-2.6729	-2.775	-2.2417	-2.7854	-2.6063	-2.4292	167.577	48.101	224.712	194.117	30.910	246.998	231.690	196.105	141.728	249.350	91.731	157.563	184.399	-54.161	208.532	227.694	0.0003137	0.0003064	0.0001298	454.17	3.9668e-06	1.0454e-06	655.42	187.94	3.2258e-06	3.3187e-06	302.68	141.98	88.603	48.744	3.5893e-06	72.181	0.00024212	0.00025842	7.5357e-05	470.99	2.6213e-06	2.8713e-06	666.71	192.08	2.6011e-06	2.866e-06	300.2	140.51	88.532	48.327	2.8622e-06	69.815	255.878	-76.794	37.359	-74.366	53.030	-54.256	-75.912	-68.631	82.591	85.492	-71.233	-66.594	-64.016	-59.583	83.127	-63.153	-8191	255	
3866.475	1	1	0	0	0.10448	0.111	0.15357	0.27052	0.26635	0.13503	0.30721	0.16854	0.17723	0.10018	0.20222	0.22973	0.11442	0.1793	0.058792	0.18316	-2.2833	-2.5479	-2.4417	-2.8688	-2.2708	-2.6625	-2.8146	-2.4021	-2.7083	-2.575	-2.2646	-2.7917	-2.4167	-2.6479	-2.6021	-2.4354	21.177	-14.497	148.562	240.999	70.515	214.929	114.630	47.822	32.796	57.283	129.226	260.871	-77.594	261.419	-18.940	219.420	0.00023719	0.00017767	0.00019357	454.07	1.507e-06	3.1615e-06	654.79	187.66	3.3683e-06	2.8425e-06	302.46	142.51	88.915	48.692	2.5543e-06	72.499	0.0002417	0.00026502	7.1424e-05	469.72	2.5946e-06	2.9208e-06	664.99	191.63	2.6191e-06	2.9126e-06	299.93	140.5	88.983	48.466	2.7428e-06	69.958	249.316	-61.645	10.154	-74.527	-80.464	4.506	-75.846	-68.712	54.381	74.111	-71.309	-66.831	-63.960	-59.519	56.470	-63.050	-8191	255	
3866.572	1	1	0	0	0.05507	0.097612	0.35466	0.21416	0.065113	0.23393	0.18141	0.28006	0.29774	0.08295	0.2416	0.17343	0.06955	0.17278	0.060277	0.37986	-2.375	-2.4188	-2.3812	-2.7208	-2.4479	-2.6375	-2.8708	-2.425	-2.8083	-2.6312	-2.3875	-2.9417	-2.2875	-2.6146	-2.5917	-2.2687	255.330	173.885	-83.689	196.402	-44.922	36.884	224.224	229.971	31.035	-65.529	31.401	253.839	136.961	-83.664	133.836	147.189	0.00034435	0.00045636	0.00010796	453.67	2.9051e-06	2.8395e-06	656.26	188.24	1.9058e-06	2.037e-06	303.15	143.25	88.987	48.838	5.1996e-06	72.782	0.00024959	0.00026823	6.9006e-05	469.41	2.7258e-06	2.8975e-06	665.33	191.97	2.7551e-06	2.8887e-06	300.03	141.17	89.38	48.493	2.67e-06	70.174	261.545	0.321	21.369	-74.521	155.091	92.785	-75.805	-68.487	213.530	181.010	-71.490	-66.704	-64.054	-59.342	32.037	-63.262	-8191	255	
3866.668	1	1	0	0	0.22057	0.16429	0.036364	0.060842	0.26038	0.04991	0.14785	0.19183	0.42968	0.066483	0.27454	0.13569	0.10877	0.41066	0.060369	0.21525	-2.3146	-2.475	-2.2208	-2.6625	-2.4417	-2.5062	-2.7042	-2.3083	-2.6312	-2.7604	-2.3229	-2.9667	-2.4875	-2.4083	-2.8125	-2.375	-45.904	-66.117	118.474	-29.588	199.710	-33.553	156.850	203.150	77.139	221.081	-82.499	253.698	-0.604	-82.681	31.190	217.287	0.00030094	0.00039792	9.7555e-05	454.48	6.2071e-07	6.833e-06	656.46	188.34	4.7895e-06	2.3963e-06	303.96	143.14	88.929	48.85	1.8968e-06	72.56	0.00025926	0.00025566	6.7127e-05	469.52	2.803e-06	2.8117e-06	665.32	191.95	2.8139e-06	2.753e-06	299.46	141.25	89.38	48.343	2.5826e-06	70.081	267.755	-16.583	-22.353	-74.546	151.396	27.316	-75.703	-68.629	64.429	93.309	-71.306	-66.608	-64.045	-59.479	39.518	-63.122	-8191	255	
3866.764	1	1	0	0	0.20444	0.12659	0.21418	0.10249	0.1335	0.093814	0.049944	0.077943	0.26203	0.11846	0.10992	0.29596	0.069293	0.32685	0.085158	0.16062	-2.1625	-2.6208	-2.3875	-2.7125	-2.4521	-2.3875	-2.8125	-2.4458	-2.3979	-2.6646	-2.2188	-2.8729	-2.5938	-2.6188	-2.8104	-2.4125	189.055	165.914	226.043	-59.655	70.040	127.733	73.655	-3.416	94.846	-16.007	187.332	227.382	-70.553	271.128	-57.725	9.749	0.00030447	0.00052445	8.8658e-05	455.28	3.1565e-06	4.8065e-06	657	188.39	4.1955e-06	2.35e-06	302.64	142.38	88.577	48.737	2.563e-06	72.257	0.00026498	0.00024634	6.5134e-05	470.25	2.8528e-06	2.6521e-06	664.74	192.21	2.8547e-06	2.6738e-06	299.07	140.93	89.255	48.331	2.5322e-06	69.99	270.066	-10.820	60.837	-74.586	75.572	11.503	-75.688	-68.794	138.514	94.265	-71.278	-66.753	-64.071	-59.457	71.567	-63.137	-8191	255	
3866.883	1	1	0	0	0.019216	0.090151	0.1268	0.076822	0.20183	0.086585	0.15027	0.097307	0.2178	0.19067	0.22967	0.29565	0.16696	0.2399	0.081044	0.35394	-2.0458	-2.6729	-2.1625	-2.7167	-2.6146	-2.1208	-2.9062	-2.5042	-2.5917	-2.6958	-2.2042	-2.6917	-2.4479	-2.4292	-2.6333	-2.4854	-0.104	237.676	-6.329	53.887	242.687	67.028	254.702	202.180	225.860	252.896	-14.846	122.835	266.425	-15.883	34.777	231.232	0.00020293	0.00055969	3.9329e-05	452.98	4.8562e-06	1.3558e-06	657.84	188.57	6.7416e-06	3.005e-06	304	142.78	89.222	48.916	2.0279e-06	72.726	0.00026345	0.00024028	6.4138e-05	471.15	2.8271e-06	2.622e-06	663.87	192.89	2.7995e-06	2.5986e-06	299.06	141.41	89.417	48.411	2.5088e-06	70.458	262.117	-36.105	51.979	-74.609	62.185	36.048	-75.604	-68.526	92.219	53.206	-71.339	-66.938	-63.963	-59.594	-66.874	-63.344	-8191	255	
3866.979	1	1	0	0	0.094537	0.23182	0.28687	0.33581	0.084262	0.1168	0.31903	0.010214	0.15995	0.27608	0.13099	0.15854	0.24414	0.1084	0.13312	0.20692	-1.8396	-2.7042	-2.3063	-2.4896	-2.4771	-2.3271	-2.7146	-2.3896	-2.4104	-2.95	-2.2229	-2.6271	-2.8042	-2.5604	-2.6875	-2.6708	-71.312	56.092	137.546	198.663	219.092	-78.645	236.478	-53.999	96.879	49.149	263.514	214.378	230.595	-71.855	-0.988	230.704	0.00027172	9.8299e-05	2.2482e-05	456.85	5.1868e-06	2.0921e-06	657.82	188.81	2.4326e-06	2.2241e-06	304.55	143.54	88.993	48.982	1.7598e-06	72.96	0.00025473	0.00023298	6.4204e-05	474.8	2.7013e-06	2.5587e-06	665.18	193.44	2.6839e-06	2.5326e-06	299.65	141.94	89.053	48.44	2.5691e-06	70.67	253.764	262.024	236.708	-74.642	72.470	51.212	-75.687	-68.723	63.695	90.314	-71.281	-66.861	-64.032	-59.490	9.347	-63.173	-8191	255	
3867.075	1	1	0	0	0.11576	0.059241	0.18383	0.081778	0.20418	0.19857	0.07875	0.11914	0.13163	0.21342	0.046605	0.090824	0.17554	0.12462	0.33985	0.53613	-1.8583	-2.7167	-2.2854	-2.5333	-2.6333	-2.2333	-2.8458	-2.4	-2.2854	-2.7333	-2.4583	-2.6125	-2.6458	-2.2396	-2.6458	-2.5271	200.523	222.841	-39.338	81.271	-2.499	-3.600	-54.637	112.780	93.567	142.928	236.374	94.739	212.978	-53.076	65.088	234.492	0.00026257	0.00033927	1.7381e-05	458.44	2.7811e-06	2.5843e-06	658.6	188.37	4.2739e-06	4.5279e-06	306.11	144.01	89.55	49.15	3.287e-06	73.206	0.00024287	0.00022583	6.5566e-05	475.8	2.5698e-06	2.4512e-06	668.99	193.5	2.5546e-06	2.4241e-06	301.56	142.47	89.099	48.553	2.6308e-06	70.724	261.935	-45.865	69.285	-74.481	82.106	80.568	-75.957	-68.727	109.325	31.773	-71.613	-66.905	-64.058	-59.574	146.392	-63.241	-8191	255	
3867.171	1	1	0	0	0.07659	0.18256	0.11446	0.16611	0.21198	0.23096	0.2927	0.12064	0.15609	0.14297	0.079282	0.2787	0.41797	0.08488	0.27714	0.086688	-1.9979	-2.7729	-2.375	-2.3187	-2.6271	-2.3646	-2.7167	-2.5438	-2.2625	-2.8563	-2.4417	-2.7	-2.6437	-2.3354	-2.5375	-2.6	258.973	122.744	48.077	-24.724	-71.654	28.803	237.281	-48.214	181.648	83.953	139.988	229.028	-86.308	143.141	124.033	-4.605	0.00025021	0.00011667	0.00010742	460.5	2.2952e-06	1.4172e-06	660.52	189	4.2105e-06	2.6878e-06	306.38	144.07	89.336	49.331	8.7382e-07	73.106	0.00023418	0.00021894	6.7621e-05	475.69	2.4796e-06	2.4112e-06	670.45	193.18	2.4648e-06	2.4135e-06	302.36	142.26	88.874	48.708	2.6924e-06	70.673	255.168	155.794	55.983	-74.765	95.948	190.481	-75.998	-68.720	81.441	10.702	-71.481	-66.709	-64.081	-59.762	175.724	-63.280	-8191	255	
3867.267	1	1	0	0	0.21834	0.16793	0.27103	0.22166	0.22709	0.056785	0.07106	0.29042	0.1235	0.18498	0.090345	0.34586	0.043611	0.28875	0.11725	0.13788	-1.8458	-2.7583	-2.5271	-2.1958	-2.775	-2.4875	-2.6792	-2.55	-2.3187	-2.8083	-2.5938	-2.5708	-2.6771	-2.2771	-2.5729	-2.8292	211.994	-83.778	181.981	257.130	238.231	22.373	40.309	258.586	-53.756	-38.670	-47.704	143.585	185.128	208.768	157.412	217.013	0.00030235	0.00028981	7.3914e-05	460.05	2.5106e-06	4.0109e-06	662.63	190.17	3.8635e-06	3.6369e-06	307.11	144.39	90.206	49.502	2.1596e-06	73.907	0.00022781	0.00022286	6.895e-05	475.35	2.4101e-06	2.4675e-06	671.39	193.44	2.3897e-06	2.4699e-06	302.92	142.51	89.117	48.905	2.6481e-06	70.968	254.729	-3.412	-13.086	-74.520	44.334	59.126	-75.690	-68.778	103.185	116.877	-71.437	-66.800	-63.901	-59.583	41.666	-63.401	-8191	255	
3867.363	1	1	0	0	0.13431	0.3494	0.076213	0.19359	0.2491	0.071105	0.18672	0.3034	0.090736	0.10397	0.15715	0.099391	0.24937	0.087902	0.21243	0.097198	-1.7396	-2.5958	-2.7979	-2.5229	-2.5687	-2.2313	-2.5812	-2.6083	-2.3312	-2.5479	-2.5187	-2.2979	-2.8271	-2.625	-2.5167	-2.7458	172.487	-85.093	-39.054	238.576	15.583	125.767	-65.788	-58.370	66.095	-11.666	260.318	138.652	240.625	231.517	71.879	-61.694	0.00031315	0.00040984	0.00014131	463.14	2.84e-06	5.0741e-06	667.67	191.13	2.7622e-06	4.5104e-06	309.52	146.06	91.064	49.761	3.6501e-06	74.377	0.00021762	0.00022509	6.5651e-05	474.81	2.2762e-06	2.492e-06	675.45	194.05	2.2706e-06	2.4929e-06	303.56	143.69	89.892	49.318	2.5063e-06	71.407	267.302	-55.079	26.998	-74.653	83.429	101.746	-75.837	-68.886	63.883	38.199	-71.530	-66.995	-64.201	-59.666	102.852	-63.290	-8191	255	
3867.484	1	1	0	0	0.11479	0.12014	0.14741	0.13226	0.082528	0.31777	0.14752	0.17492	0.058246	0.15291	0.090392	0.24199	0.18218	0.34094	0.060959	0.068384	-1.7125	-2.6625	-2.5417	-2.4042	-2.8167	-2.4625	-2.5354	-2.8208	-2.3708	-2.6375	-2.7313	-2.3333	-2.8083	-2.55	-2.3167	-2.8458	74.798	248.753	115.594	112.431	92.879	111.154	-66.020	11.501	-31.863	229.033	149.556	235.125	-57.145	245.875	30.710	-3.148	0.00029189	3.6574e-05	0.00014026	465.15	1.9668e-06	2.9351e-06	669.52	191.41	1.5503e-07	2.4335e-06	309.82	146.71	90.873	50.239	4.4643e-06	74.37	0.00021397	0.00022808	6.2661e-05	476.25	2.2579e-06	2.5439e-06	675.83	193.9	2.2928e-06	2.553e-06	304.36	144.29	90.039	49.536	2.418e-06	71.443	265.022	-16.982	26.011	-74.739	62.320	74.259	-75.634	-68.899	268.689	20.178	-71.333	-66.895	-64.060	-59.752	5.605	-63.263	-8191	255	
3867.579	1	1	0	0	0.31646	0.10674	0.35946	0.1498	0.14244	0.23187	0.11622	0.15419	0.18719	0.15533	0.099749	0.16159	0.30195	0.082019	0.18339	0.25524	-1.9958	-2.5396	-2.6125	-2.4729	-2.5583	-2.4479	-2.2687	-2.6771	-2.3812	-2.5167	-2.6646	-2.2646	-2.6271	-2.5354	-2.425	-2.825	231.975	94.643	228.937	262.751	137.322	-28.398	196.944	-33.305	154.210	66.675	244.606	247.003	-43.467	-83.384	6.021	206.233	0.0003272	0.00025489	6.0887e-05	464.04	1.5095e-06	4.9439e-06	671.01	190.24	1.142e-06	5.4181e-06	310.05	146.92	91.09	50.178	4.3017e-06	74.26	0.00021931	0.00023342	6.0465e-05	475.81	2.3471e-06	2.5633e-06	675.54	193.32	2.3874e-06	2.5277e-06	303.56	144.1	90.374	49.496	2.3692e-06	71.286	256.013	-31.382	-40.894	-74.573	22.384	84.597	-75.929	-68.733	-60.815	46.383	-71.310	-66.982	-64.226	-59.900	34.428	-63.300	-8191	255	
3867.675	1	1	0	0	0.31734	0.22337	0.04486	0.26372	0.12754	0.16561	0.10996	0.11728	0.10467	0.13004	0.18602	0.032505	0.073117	0.19438	0.19241	0.30473	-1.9042	-2.4813	-2.4604	-2.1521	-2.6896	-2.4146	-2.5708	-2.7854	-2.5542	-2.5083	-2.8	-2.3604	-2.7521	-2.5833	-2.325	-2.7125	0.972	251.097	100.640	249.290	62.194	123.089	101.310	256.012	175.419	19.639	195.507	183.586	205.969	208.981	2.236	242.071	0.00034588	0.00012321	9.9395e-05	464.3	2.5461e-06	2.1619e-06	668.62	189.36	3.09e-06	3.2294e-06	309.93	145.71	90.815	49.902	5.1613e-06	73.981	0.00023124	0.00023089	5.9851e-05	474.51	2.4791e-06	2.4943e-06	673.19	193.12	2.5254e-06	2.486e-06	302.66	143.72	90.581	49.319	2.3604e-06	71.078	251.735	-26.075	30.885	-74.734	27.021	65.164	-75.910	-68.579	149.709	26.829	-71.722	-67.032	-64.257	-59.697	57.355	-63.158	-8191	255	
3867.748	1	1	0	0	0.1512	0.25334	0.076273	0.19142	0.24267	0.23879	0.33116	0.18185	0.24427	0.11276	0.096649	0.27147	0.2824	0.25457	0.15994	0.09061	-1.8396	-2.3875	-2.7438	-2.3333	-2.3875	-2.7708	-2.3583	-2.7417	-2.3563	-2.1583	-2.9	-2.2979	-2.5042	-2.6188	-2.2854	-2.9896	141.379	88.711	-63.619	33.204	38.988	238.254	246.810	270.030	247.025	-6.824	61.021	223.634	268.556	129.940	-36.084	208.979	0.00029271	0.00044845	0.00011152	461.55	3.4232e-06	2.1586e-06	666.68	190	2.1794e-06	2.0287e-06	308.05	146.38	90.567	49.752	2.4168e-06	74.046	0.00024013	0.00022626	5.8734e-05	474.84	2.5734e-06	2.4449e-06	671.3	192.96	2.5987e-06	2.4243e-06	301.73	143.82	90.565	49.181	2.2918e-06	71.258	261.018	-46.957	28.279	-74.440	80.735	36.469	-75.750	-68.775	84.330	25.936	-71.629	-66.974	-64.027	-59.705	16.136	-63.182	-8191	255	
#DATA ENDS
