BOXY.EXE: ISS Imagent and Oximeter Data Acquisition Program Version 0.80
Ascii Record File

#ACQ INFORMATION
2  Detector Channels 
16  External MUX Channels 
1  Auxiliary Channels 
5000  Waveform (CCF) Frequency (Hz)
1  Waveforms Skipped 
30  Waveforms Averaged 
1  Cycles Averaged 
16  Acquisitions per Waveform 
10.0806  Updata Rate (Hz) 

#FILE INFORMATION
TRUE -- External MUX Channel results are PARSED.
FALSE -- AC DC and Phase are NOT grouped.
TRUE -- Companion Program Settings File CREATED.
FALSE -- AC data not excluded
FALSE -- DC data not excluded
FALSE -- Phase data not excluded
FALSE -- Auxillary Chn. data not excluded
Tab delimiters

#CALIBRATION STATE
TRUE -- Waveform Calibration Values APPLIED.


#AUX CALIBRATION VALUES
Val Type	aux-1	

Term	1.0000e+00	
Factor	0.0000e+00	


#WF CALIBRATION VALUES
A = Detector Channel
Val Type	A-AC1	A-AC2	A-AC3	A-AC4	A-AC5	A-AC6	A-AC7	A-AC8	A-AC9	A-AC10	A-AC11	A-AC12	A-AC13	A-AC14	A-AC15	A-AC16	A-DC1	A-DC2	A-DC3	A-DC4	A-DC5	A-DC6	A-DC7	A-DC8	A-DC9	A-DC10	A-DC11	A-DC12	A-DC13	A-DC14	A-DC15	A-DC16	A-Ph1	A-Ph2	A-Ph3	A-Ph4	A-Ph5	A-Ph6	A-Ph7	A-Ph8	A-Ph9	A-Ph10	A-Ph11	A-Ph12	A-Ph13	A-Ph14	A-Ph15	A-Ph16	

Term	0.00000e+00	0.00000e+00	0.00000e+00	0.00000e+00	0.00000e+00	0.00000e+00	0.00000e+00	0.00000e+00	0.00000e+00	0.00000e+00	0.00000e+00	0.00000e+00	0.00000e+00	0.00000e+00	0.00000e+00	0.00000e+00	0.00000e+00	0.00000e+00	0.00000e+00	0.00000e+00	0.00000e+00	0.00000e+00	0.00000e+00	0.00000e+00	0.00000e+00	0.00000e+00	0.00000e+00	0.00000e+00	0.00000e+00	0.00000e+00	0.00000e+00	0.00000e+00	0.00000e+00	0.00000e+00	0.00000e+00	0.00000e+00	0.00000e+00	0.00000e+00	0.00000e+00	0.00000e+00	0.00000e+00	0.00000e+00	0.00000e+00	0.00000e+00	0.00000e+00	0.00000e+00	0.00000e+00	0.00000e+00	
Factor	1.00000e+00	1.00000e+00	1.00000e+00	1.00000e+00	1.00000e+00	1.00000e+00	1.00000e+00	1.00000e+00	1.00000e+00	1.00000e+00	1.00000e+00	1.00000e+00	1.00000e+00	1.00000e+00	1.00000e+00	1.00000e+00	1.00000e+00	1.00000e+00	1.00000e+00	1.00000e+00	1.00000e+00	1.00000e+00	1.00000e+00	1.00000e+00	1.00000e+00	1.00000e+00	1.00000e+00	1.00000e+00	1.00000e+00	1.00000e+00	1.00000e+00	1.00000e+00	X	X	X	X	X	X	X	X	X	X	X	X	X	X	X	X	

B = Detector Channel
Val Type	B-AC1	B-AC2	B-AC3	B-AC4	B-AC5	B-AC6	B-AC7	B-AC8	B-AC9	B-AC10	B-AC11	B-AC12	B-AC13	B-AC14	B-AC15	B-AC16	B-DC1	B-DC2	B-DC3	B-DC4	B-DC5	B-DC6	B-DC7	B-DC8	B-DC9	B-DC10	B-DC11	B-DC12	B-DC13	B-DC14	B-DC15	B-DC16	B-Ph1	B-Ph2	B-Ph3	B-Ph4	B-Ph5	B-Ph6	B-Ph7	B-Ph8	B-Ph9	B-Ph10	B-Ph11	B-Ph12	B-Ph13	B-Ph14	B-Ph15	B-Ph16	

Term	0.00000e+00	0.00000e+00	0.00000e+00	0.00000e+00	0.00000e+00	0.00000e+00	0.00000e+00	0.00000e+00	0.00000e+00	0.00000e+00	0.00000e+00	0.00000e+00	0.00000e+00	0.00000e+00	0.00000e+00	0.00000e+00	0.00000e+00	0.00000e+00	0.00000e+00	0.00000e+00	0.00000e+00	0.00000e+00	0.00000e+00	0.00000e+00	0.00000e+00	0.00000e+00	0.00000e+00	0.00000e+00	0.00000e+00	0.00000e+00	0.00000e+00	0.00000e+00	3.37194e+01	-1.68587e+02	-1.35414e+02	-1.80770e+02	-1.05564e+02	-1.05091e+02	-1.55686e+02	-1.62015e+02	-9.81900e+01	-8.14180e+01	-1.72633e+02	-1.70093e+02	-1.81385e+02	-1.76491e+02	-1.12733e+02	-1.49752e+02	
Factor	4.74211e-05	1.08441e-04	2.30837e-05	1.85097e-01	9.01655e-07	1.19884e-06	1.81138e-01	5.42658e-02	1.20113e-06	1.08790e-06	1.10167e-01	3.06233e-02	3.78414e-02	9.83169e-03	9.60378e-07	1.40816e-02	4.97090e-07	4.99476e-07	1.38873e-07	8.54261e-02	5.49520e-09	5.46460e-09	7.88256e-02	2.49800e-02	5.49752e-09	5.45879e-09	4.68186e-02	1.32798e-02	1.62271e-02	4.37497e-03	5.48598e-09	6.00434e-03	X	X	X	X	X	X	X	X	X	X	X	X	X	X	X	X	



#DISTANCE SETTINGS
A = Detector Channel
A-1	A-2	A-3	A-4	A-5	A-6	A-7	A-8	A-9	A-10	A-11	A-12	A-13	A-14	A-15	A-16	

2.5000e+00	3.0000e+00	2.5000e+00	3.0000e+00	2.0000e+00	3.0000e+00	1.5000e+00	3.0000e+00	3.0000e+00	3.0000e+00	3.0000e+00	3.0000e+00	3.0000e+00	3.0000e+00	1.5000e+00	3.0000e+00	

B = Detector Channel
B-1	B-2	B-3	B-4	B-5	B-6	B-7	B-8	B-9	B-10	B-11	B-12	B-13	B-14	B-15	B-16	

1.0000e+01	1.0000e+01	1.0000e+01	1.4400e+00	1.0000e+01	1.0000e+01	1.5100e+00	1.9400e+00	1.0000e+01	1.0000e+01	1.9900e+00	2.4900e+00	2.4100e+00	2.9000e+00	1.0000e+01	2.9800e+00	




#DATA BEGINS
time	group	step	mark	flag	A-AC1	A-AC2	A-AC3	A-AC4	A-AC5	A-AC6	A-AC7	A-AC8	A-AC9	A-AC10	A-AC11	A-AC12	A-AC13	A-AC14	A-AC15	A-AC16	A-DC1	A-DC2	A-DC3	A-DC4	A-DC5	A-DC6	A-DC7	A-DC8	A-DC9	A-DC10	A-DC11	A-DC12	A-DC13	A-DC14	A-DC15	A-DC16	A-Ph1	A-Ph2	A-Ph3	A-Ph4	A-Ph5	A-Ph6	A-Ph7	A-Ph8	A-Ph9	A-Ph10	A-Ph11	A-Ph12	A-Ph13	A-Ph14	A-Ph15	A-Ph16	B-AC1	B-AC2	B-AC3	B-AC4	B-AC5	B-AC6	B-AC7	B-AC8	B-AC9	B-AC10	B-AC11	B-AC12	B-AC13	B-AC14	B-AC15	B-AC16	B-DC1	B-DC2	B-DC3	B-DC4	B-DC5	B-DC6	B-DC7	B-DC8	B-DC9	B-DC10	B-DC11	B-DC12	B-DC13	B-DC14	B-DC15	B-DC16	B-Ph1	B-Ph2	B-Ph3	B-Ph4	B-Ph5	B-Ph6	B-Ph7	B-Ph8	B-Ph9	B-Ph10	B-Ph11	B-Ph12	B-Ph13	B-Ph14	B-Ph15	B-Ph16	aux-1	digaux	

6861.679	1	1	0	256	0.17053	0.1763	0.19506	0.23346	0.053133	0.088842	0.13249	0.35288	0.12531	0.069698	0.3535	0.20683	0.11433	0.13789	0.28226	0.22498	-2.7208	-2.7604	-2.7188	-3.2417	-2.9958	-2.9771	-3.4292	-2.8312	-3.0687	-3.075	-2.9083	-3.1271	-3.0229	-3.05	-3.2042	-2.9146	309.726	381.627	231.803	380.503	259.695	213.976	401.926	425.776	324.443	228.238	400.457	357.247	359.815	146.468	291.644	425.343	0.00092002	0.00042253	3.4809e-05	1278.1	2.497e-06	8.4171e-07	1345.6	263.6	1.8139e-06	2.7031e-06	325	90.636	71.302	20.278	4.1653e-06	28.468	0.00010412	9.6897e-05	2.4279e-05	1192.1	1.0134e-06	9.2857e-07	1257.1	246.45	9.196e-07	8.5872e-07	291.46	82.878	63.238	18.941	7.8381e-07	26.187	338.394	99.786	91.962	101.381	190.688	297.147	101.526	108.533	240.833	224.524	108.751	114.921	115.758	122.072	182.871	121.695	-8191	255	
6861.800	1	1	0	0	0.19684	0.11621	0.056739	0.35684	0.098777	0.19962	0.45556	0.14385	0.10326	0.24474	0.19099	0.11274	0.10146	0.12947	0.11838	0.05735	-2.5396	-2.8833	-2.8187	-3.3208	-2.8396	-3.0333	-3.2208	-3.0667	-2.9792	-3.1271	-2.8646	-3.1208	-2.9271	-3.1146	-3.2104	-2.8458	281.442	121.301	358.492	383.030	142.687	254.034	386.537	129.399	188.673	407.154	390.785	356.994	155.416	215.861	119.735	246.709	0.00086609	0.00015327	6.1679e-05	1260.9	2.2919e-06	4.9485e-07	1336.7	262.03	1.9434e-06	1.6346e-06	324.49	90.137	70.419	20.285	2.3966e-06	28.199	8.6072e-05	7.6023e-05	1.9851e-05	1177.5	9.0356e-07	8.1659e-07	1244.5	245.01	8.5742e-07	7.7154e-07	289.76	82.499	62.468	18.755	6.5681e-07	25.977	341.443	393.658	110.591	101.569	170.864	105.479	101.844	108.872	192.914	234.858	108.578	115.209	115.600	122.544	185.767	121.525	-8191	255	
6861.896	1	1	0	0	0.31129	0.12465	0.23196	0.16617	0.062389	0.2028	0.32116	0.16849	0.03905	0.069634	0.16875	0.016458	0.19938	0.26786	0.03506	0.36593	-2.6479	-3.15	-2.8875	-3.2833	-2.9292	-3.0625	-3.2313	-2.9437	-2.9854	-3.0729	-3.0563	-2.8771	-3.0458	-2.8854	-3.1146	-2.8625	97.144	188.524	174.032	320.680	213.268	280.205	401.905	444.170	184.858	192.036	138.906	291.097	413.662	376.180	152.405	435.989	0.00070032	0.00050431	7.7263e-05	1250.2	2.2315e-06	1.8771e-06	1326.2	259.49	4.4221e-06	3.13e-06	321.63	89.636	70.712	20.285	9.67e-07	27.99	7.1735e-05	6.0652e-05	1.5869e-05	1165.4	7.0332e-07	6.2384e-07	1233.2	242.37	6.6308e-07	6.0263e-07	287.48	81.763	61.989	18.69	5.6122e-07	25.791	343.374	143.259	171.525	101.583	188.905	244.555	101.600	108.960	249.929	230.544	108.581	115.209	115.558	122.446	144.400	121.443	-8191	255	
6861.992	1	1	0	0	0.17835	0.17057	0.33544	0.22924	0.059297	0.13592	0.10752	0.32591	0.035879	0.086681	0.10836	0.1711	0.11465	0.22024	0.10603	0.18821	-2.6917	-3.0833	-2.8417	-3.1688	-3.1188	-2.9146	-3.3292	-3.0438	-2.8792	-3.325	-2.9813	-3.2021	-2.9896	-2.8438	-3.1542	-3.0854	239.572	379.349	113.344	117.894	173.610	430.464	304.496	110.823	213.429	298.804	159.029	393.812	371.832	345.458	155.350	409.127	0.00078224	0.0003734	3.4872e-05	1254.6	3e-06	3.4265e-06	1334	260.61	4.8267e-06	3.2278e-06	323.35	90.596	71.617	20.502	2.2496e-06	28.805	6.1108e-05	5.225e-05	1.3972e-05	1167.5	6.1354e-07	5.6242e-07	1239.7	243.93	6.2361e-07	5.7552e-07	288.64	82.814	62.716	18.95	6.6915e-07	26.352	334.744	168.766	243.267	101.609	205.873	220.685	101.605	108.560	241.354	201.948	108.403	114.814	115.390	121.990	205.140	121.487	-8191	255	
6862.113	1	1	0	0	0.15365	0.22934	0.058936	0.075958	0.22148	0.33976	0.32578	0.086297	0.26043	0.15223	0.11162	0.26217	0.16505	0.13364	0.19276	0.053251	-2.4917	-3.0958	-2.8937	-3.3208	-3.025	-2.8771	-3.2687	-2.9938	-2.95	-3.2542	-3.1167	-3.2125	-3.0812	-2.6979	-3.325	-2.9437	443.769	419.586	296.118	377.133	143.112	196.483	397.916	403.384	356.007	170.489	106.509	431.286	330.338	443.668	351.248	177.852	0.00070463	3.7805e-05	5.4317e-05	1273.8	4.414e-06	3.5602e-06	1358	267.04	2.8711e-06	1.4402e-06	332.26	92.212	72.877	21.045	3.6692e-06	29.33	7.1654e-05	6.343e-05	1.8553e-05	1191.6	7.9778e-07	7.4048e-07	1266.5	250.77	8.141e-07	7.4067e-07	298.3	84.939	64.836	19.515	8.3476e-07	27.03	339.016	400.669	209.092	101.653	239.212	289.800	101.386	108.722	176.951	272.073	108.098	115.178	115.174	121.872	169.487	121.377	-8191	255	
6862.185	1	1	0	0	0.11616	0.254	0.096422	0.21193	0.075887	0.1154	0.086028	0.072589	0.082835	0.11963	0.095299	0.2117	0.20791	0.19172	0.19005	0.13143	-2.4958	-3.1583	-2.9083	-3.3375	-3.1937	-2.9646	-3.2729	-3	-2.9417	-3.1771	-2.8854	-2.9958	-3.2583	-2.9021	-3.0167	-2.9792	121.059	329.573	384.372	314.472	412.355	430.167	319.313	170.927	125.196	119.037	294.238	163.494	174.457	443.121	159.137	203.089	0.00067329	0.00029328	9.8951e-05	1301.3	1.9047e-06	9.6153e-07	1374.9	271.03	4.9407e-06	2.2305e-06	335.4	93.097	73.072	21.065	1.544e-06	29.446	7.8302e-05	6.6794e-05	2.1156e-05	1212.4	7.9923e-07	7.43e-07	1282.6	254.32	8.0467e-07	7.4917e-07	300.87	85.585	64.732	19.6	9e-07	27.109	343.256	111.639	180.420	101.559	285.183	269.336	101.590	108.614	235.302	235.313	107.920	114.963	115.512	121.811	167.320	121.384	-8191	255	
6862.281	1	1	0	0	0.29548	0.1618	0.26002	0.12601	0.10627	0.1175	0.13906	0.41899	0.17562	0.35095	0.054308	0.031491	0.22738	0.081594	0.14039	0.12955	-2.4625	-3.1271	-2.6625	-2.8896	-3.1292	-2.6646	-3.0417	-2.9875	-2.6937	-3.1708	-3.0729	-2.9208	-3.15	-2.9833	-3.0729	-2.9875	158.491	299.294	429.333	379.443	364.501	205.721	354.156	352.202	419.334	136.413	396.296	401.511	320.406	189.728	224.941	448.555	0.00074792	0.00024254	3.0757e-05	1296.5	2.7568e-06	2.1682e-06	1375.7	270.91	3.6596e-06	2.3819e-06	334.32	92.743	73.014	20.942	1.3682e-06	28.992	8.0756e-05	7.2859e-05	2.3827e-05	1210.6	8.5312e-07	8.2385e-07	1283.7	254.42	8.4121e-07	8.4096e-07	301.18	85.08	64.529	19.558	9.5518e-07	26.853	339.179	96.206	150.991	101.448	191.296	188.182	101.428	108.729	192.801	193.235	107.937	115.062	115.587	122.057	234.349	121.599	-8191	255	
6862.400	1	1	0	0	0.16166	0.019109	0.24898	0.061704	0.024007	0.17475	0.098274	0.2892	0.085647	0.15122	0.17341	0.21783	0.023124	0.060174	0.045445	0.14049	-2.4167	-3.1	-2.8625	-3.0521	-3.1604	-2.85	-3.2042	-3.0146	-2.8229	-3.0729	-3.0667	-2.9333	-3.275	-2.8563	-3.0938	-3.1229	306.642	325.635	287.377	399.240	346.299	443.928	382.794	400.187	103.333	390.592	405.369	432.188	137.380	231.935	248.763	410.152	0.0007231	0.00019263	4.2574e-05	1295.3	2.0912e-06	6.9683e-07	1363.4	269.69	2.6689e-06	1.8441e-06	331.33	92.084	72.861	20.836	3.7164e-06	29.113	8.2759e-05	8.0965e-05	2.4921e-05	1206.4	8.7547e-07	9.215e-07	1275.3	253.29	8.9877e-07	9.6178e-07	300.19	84.91	64.693	19.556	1.0353e-06	26.89	339.314	116.623	156.915	101.349	200.493	294.414	101.638	108.676	234.930	264.050	108.174	115.329	115.455	122.080	261.545	121.221	-8191	255	
6862.496	1	1	0	0	0.10741	0.15352	0.1202	0.18258	0.15061	0.14586	0.26126	0.033104	0.055646	0.17591	0.16506	0.10364	0.1512	0.24688	0.1463	0.081661	-2.4271	-2.975	-2.9792	-3.0625	-3.0417	-3.0542	-3.0833	-3.1521	-2.75	-3.1625	-2.9688	-2.9313	-3.1167	-2.9583	-2.9854	-3.2917	92.944	123.734	91.484	445.129	213.124	355.794	409.290	184.733	367.715	260.378	256.420	173.534	386.856	381.551	177.658	384.873	0.00085596	0.0003753	3.536e-05	1284.1	3.0318e-06	3.2039e-06	1362.3	270.15	3.9564e-06	1.9921e-06	330.05	91.372	72.668	20.652	1.6852e-06	29.021	8.9501e-05	9.3777e-05	2.6692e-05	1200.6	9.3777e-07	1.0726e-06	1272.1	252.83	9.8793e-07	1.1244e-06	300.22	84.641	64.612	19.507	1.1447e-06	26.929	330.129	124.599	188.661	101.533	221.720	179.200	101.604	108.797	202.069	307.282	108.033	115.030	115.411	122.076	167.594	121.188	-8191	255	
6862.592	1	1	0	0	0.087079	0.11632	0.25053	0.15636	0.24798	0.083573	0.40768	0.15731	0.12102	0.034396	0.20957	0.14422	0.13684	0.15047	0.29634	0.12836	-2.4229	-2.9813	-2.9042	-2.9583	-3.3958	-3.1167	-3.1896	-3.3833	-2.8896	-3.1771	-3.3208	-2.9146	-3.1917	-2.8208	-3.0354	-3.1146	341.963	286.877	147.956	443.037	314.668	114.584	379.262	167.397	384.240	213.141	438.067	437.895	420.137	396.657	259.003	299.099	0.00088297	0.00020888	3.8743e-05	1285.3	1.8399e-06	2.9562e-06	1359.5	268.63	4.2508e-06	5.4755e-06	329.83	91.461	72.493	20.677	1.7717e-06	28.847	0.00010082	0.00010933	2.8832e-05	1200.1	1.0894e-06	1.2294e-06	1271.3	252.83	1.1424e-06	1.2569e-06	300.02	84.806	64.921	19.611	1.2036e-06	26.984	336.278	178.231	140.287	101.538	202.239	166.123	101.722	108.760	202.586	144.140	108.400	115.284	115.585	122.173	349.826	121.474	-8191	255	
6862.713	1	1	0	0	0.15309	0.2091	0.11651	0.29191	0.14019	0.21102	0.34986	0.12702	0.079462	0.22014	0.20327	0.16299	0.12597	0.24945	0.15563	0.24964	-2.575	-3.0354	-3.0563	-3.0229	-3.2292	-2.9479	-3.0354	-3.2458	-2.7229	-3.2646	-3.15	-2.7542	-3.1729	-3.0333	-2.8979	-3.2333	432.099	229.310	149.688	155.541	292.521	200.751	348.018	364.777	222.738	135.451	391.370	318.833	95.106	278.156	158.186	344.441	0.00080116	0.00015969	6.7194e-05	1285.8	2.4683e-06	2.3913e-06	1366.4	269.28	6.1756e-06	3.3449e-07	330.5	92.083	72.617	20.678	2.6029e-06	28.89	0.00011498	0.00011934	3.1022e-05	1205.5	1.2401e-06	1.3267e-06	1278.1	253.4	1.2926e-06	1.3218e-06	300.87	85.074	65.288	19.556	1.1862e-06	26.968	332.939	194.854	290.648	101.484	220.028	185.766	101.586	108.580	214.339	164.132	108.115	115.096	115.538	122.061	151.348	121.385	-8191	255	
6862.784	1	1	0	0	0.082667	0.075853	0.20006	0.11893	0.29267	0.12446	0.20929	0.067953	0.058345	0.22076	0.054988	0.11491	0.24414	0.096703	0.30343	0.099857	-2.3229	-2.9104	-2.9813	-3.0354	-3.0438	-2.8771	-3.0104	-3.2229	-3.0271	-2.9021	-3.2229	-3.0271	-3.1688	-2.9271	-2.9333	-3.0375	145.428	111.175	103.415	413.445	98.858	236.212	419.064	126.728	392.963	212.062	117.278	290.483	102.864	365.772	99.546	163.324	0.00084395	0.00020261	4.8637e-05	1285.6	4.2838e-06	1.0988e-06	1359.9	267.65	6.7836e-06	1.4882e-06	328.71	91.581	71.687	20.465	1.8935e-06	28.869	0.00011897	0.000112	2.8444e-05	1203.8	1.2436e-06	1.1855e-06	1272.2	251.68	1.2565e-06	1.2003e-06	298.09	84.382	64.944	19.36	1.1533e-06	26.973	328.481	141.065	193.254	101.340	189.942	196.054	101.517	108.698	239.646	286.739	108.082	114.935	115.397	122.096	191.706	121.672	-8191	255	
6862.880	1	1	0	0	0.14133	0.17387	0.11521	0.35089	0.13799	0.26178	0.18298	0.12823	0.20658	0.29127	0.16862	0.084964	0.34997	0.067813	0.10602	0.1534	-2.3333	-2.9229	-3.0583	-3.075	-3.2292	-2.9	-3.1542	-3.2188	-2.9917	-2.9167	-3.2917	-2.8354	-3.1021	-3.125	-2.7375	-3.2208	180.476	399.021	393.048	434.687	233.005	183.907	355.647	300.666	418.822	326.011	325.281	403.496	433.967	95.846	166.366	150.432	0.00062474	0.00023457	7.9776e-05	1282.1	1.6939e-06	3.3207e-06	1354.7	267.01	3.0953e-06	4.1126e-07	328.73	91.151	71.767	20.372	9.9479e-07	28.826	0.00012449	0.00011148	2.8727e-05	1201.4	1.3132e-06	1.2116e-06	1270.4	251.29	1.3143e-06	1.1845e-06	297.92	84.385	64.91	19.24	1.0924e-06	26.914	342.221	148.111	201.224	101.567	212.877	198.872	101.423	108.697	119.643	343.999	108.312	115.073	115.932	122.508	186.056	121.428	-8191	255	
6862.976	1	1	0	0	0.10569	0.2376	0.17544	0.25277	0.09056	0.14908	0.084436	0.21257	0.28234	0.13448	0.043411	0.24218	0.17835	0.23721	0.11484	0.050796	-2.5375	-2.9896	-3.2917	-2.975	-2.9708	-3.1312	-2.8021	-3.4208	-2.8187	-2.9	-3.1583	-2.8854	-3.0542	-3.1167	-2.9646	-3.1146	110.290	426.841	217.320	374.292	156.246	424.124	366.766	383.005	440.045	439.281	306.176	265.392	414.551	142.435	358.898	182.281	0.0006386	0.00011572	3.5765e-05	1277.7	2.1134e-06	3.0577e-06	1352.5	266.09	3.4579e-06	8.8452e-07	327.17	90.709	71.625	20.33	1.2127e-06	28.88	0.00011892	0.00010465	2.681e-05	1197.9	1.2429e-06	1.1177e-06	1266.5	250.38	1.2289e-06	1.1426e-06	296.88	84.252	64.468	19.19	1.1036e-06	26.981	334.473	185.136	339.008	101.558	181.009	266.172	101.766	108.444	288.646	287.437	108.350	115.090	115.641	122.141	126.126	121.558	-8191	255	
6863.097	1	1	0	0	0.0491	0.25173	0.2118	0.071923	0.13203	0.16405	0.17321	0.24724	0.12033	0.12671	0.21151	0.1319	0.24611	0.11535	0.36536	0.036316	-2.6188	-2.8271	-3.0563	-3.0625	-3	-3.0917	-2.7979	-3.3708	-3.1375	-2.9021	-3.2771	-2.9417	-2.9854	-3.1521	-2.8146	-3.2229	175.733	305.149	328.266	103.485	447.037	117.945	396.355	436.630	278.749	194.526	289.048	423.204	153.077	266.794	137.275	250.780	0.00067879	0.0001844	6.7821e-05	1279.7	2.5709e-06	2.7235e-06	1356.8	265.58	7.8537e-06	2.1693e-06	326.2	90.704	71.627	20.242	2.5949e-06	28.813	0.00011653	0.00010599	2.7855e-05	1202.2	1.2437e-06	1.1319e-06	1269.4	250.78	1.2212e-06	1.1451e-06	297.05	84.276	64.303	19.124	1.0982e-06	26.953	331.939	134.406	166.621	101.553	262.601	281.765	101.486	108.808	224.564	171.879	108.158	115.435	115.572	121.915	132.592	121.185	-8191	255	
6863.192	1	1	0	0	0.22568	0.20402	0.12523	0.16716	0.17645	0.24426	0.15802	0.25221	0.065396	0.21993	0.25543	0.21576	0.15182	0.22123	0.16517	0.11315	-2.7333	-2.7562	-3.2208	-3.0792	-2.8354	-3.0604	-2.9083	-3.1813	-3.1854	-2.8896	-3.2188	-3.1208	-2.9854	-3.2833	-2.7604	-3.1021	402.735	225.497	95.531	152.216	181.772	290.032	352.155	380.343	234.808	310.852	317.554	407.175	95.479	192.724	92.625	401.237	0.00058796	0.00019099	8.9323e-05	1278.1	2.4086e-06	4.2396e-06	1351.5	265.61	5.2595e-06	2.7838e-06	327.96	90.385	70.788	20.272	2.7769e-06	28.642	0.00010853	9.7947e-05	2.7017e-05	1198	1.1109e-06	1.0076e-06	1263.3	249.23	1.0794e-06	9.9517e-07	296.05	83.754	63.647	18.921	1.061e-06	26.763	335.616	155.846	158.565	101.630	205.256	203.366	101.643	109.008	230.239	168.519	108.263	115.032	115.453	122.256	229.821	121.318	-8191	255	
6863.288	1	1	0	0	0.087259	0.13559	0.086707	0.16287	0.05363	0.16086	0.16211	0.13875	0.19684	0.17443	0.18175	0.11991	0.31672	0.046977	0.083798	0.16137	-2.6854	-2.7167	-3.1542	-3.0062	-2.8417	-3.1396	-2.8771	-3.2083	-3.0375	-3.0583	-3.2792	-3.1333	-2.9021	-3.275	-2.8896	-3.0563	398.749	313.651	314.100	119.354	216.914	110.429	416.371	160.901	181.362	447.335	114.898	172.773	412.728	144.410	183.016	182.408	0.00065745	0.00012753	0.0001034	1272.7	2.6596e-06	3.4161e-06	1343.7	263.36	2.2091e-06	1.7565e-06	326.45	90.165	70.706	20.194	2.7227e-06	28.698	9.8688e-05	8.8873e-05	2.6723e-05	1190.7	1.0312e-06	9.3527e-07	1258	247.7	1.0053e-06	9.4825e-07	294.36	83.183	63.194	18.83	1.061e-06	26.571	328.654	119.467	161.820	101.716	203.587	157.873	101.639	108.585	305.104	132.381	108.325	115.110	115.631	122.076	214.688	121.339	-8191	255	
6863.384	1	1	0	0	0.26939	0.11126	0.19145	0.30967	0.11283	0.22277	0.19724	0.24559	0.086251	0.13847	0.16251	0.15181	0.11299	0.12931	0.071552	0.23597	-2.7104	-2.8271	-3.0062	-3.1354	-2.9854	-3.1646	-2.9688	-3.1688	-3.1625	-2.7979	-3.0104	-3.1229	-2.8063	-3.0187	-2.9375	-2.8979	362.675	126.372	397.388	363.944	412.575	235.435	391.198	369.064	403.030	443.983	432.263	353.226	180.790	451.079	295.420	241.150	0.00081476	0.00025359	8.5308e-05	1262.6	4.1356e-06	2.5671e-06	1337.3	262.17	4.0014e-06	3.1915e-06	320.41	89.125	69.952	20.043	3.3826e-06	28.521	9.0916e-05	8.2677e-05	2.553e-05	1182.1	9.2002e-07	8.5616e-07	1250.2	245.66	8.7377e-07	8.5279e-07	291.25	82.243	62.416	18.682	9.7346e-07	26.297	337.448	259.802	168.430	101.705	187.531	189.000	101.492	109.080	217.912	247.624	108.306	115.734	115.884	122.287	125.661	121.869	-8191	255	
6863.480	1	1	0	0	0.091369	0.49335	0.22512	0.37083	0.30114	0.1982	0.18435	0.3175	0.04553	0.26383	0.047274	0.075784	0.07773	0.15168	0.16784	0.078613	-2.7729	-2.8187	-2.9729	-3.025	-2.8083	-3.0625	-3.1042	-3.0021	-3.1146	-2.7438	-3.0833	-3.1188	-2.8563	-3.1958	-2.9167	-2.9646	288.660	376.140	92.212	378.560	370.739	178.488	405.327	397.952	112.047	404.559	383.186	365.389	413.199	266.931	273.619	164.130	0.00073586	0.00036441	5.6559e-05	1259.6	9.9371e-07	1.1896e-06	1332.4	261.43	1.0549e-06	1.4929e-06	320.77	89.524	70.113	19.939	3.6333e-06	28.368	8.3588e-05	8.0948e-05	2.4825e-05	1176.6	8.7188e-07	8.9771e-07	1245.9	244.85	8.6784e-07	9.1902e-07	291.11	82.401	62.567	18.723	9.9572e-07	26.319	334.448	100.491	219.747	101.538	158.554	135.312	101.563	108.912	433.765	178.204	108.640	115.283	115.595	122.027	230.380	121.653	-8191	255	
6863.576	1	1	0	0	0.18609	0.11011	0.17841	0.064911	0.24369	0.21965	0.39966	0.073167	0.12121	0.14552	0.2605	0.11906	0.041301	0.11832	0.39361	0.19179	-2.75	-3.0396	-2.9708	-3.1833	-2.6583	-3.15	-3.1708	-3.1	-3.1167	-2.8958	-3.0229	-3.1	-2.7729	-3.0563	-3.0146	-2.9	112.131	272.641	306.027	157.171	154.105	352.111	382.046	331.029	201.483	207.526	439.864	421.811	393.697	424.035	383.228	371.017	0.00073505	0.00028758	2.1021e-05	1263.1	2.6995e-06	3.222e-06	1335.4	262.06	5.002e-06	3.2707e-06	322.49	89.378	70.987	20.086	3.0837e-06	28.368	8.3481e-05	8.9464e-05	2.5372e-05	1178.6	8.9122e-07	9.8764e-07	1248.3	245.31	8.753e-07	1.0012e-06	291.51	82.447	62.769	18.839	9.7956e-07	26.289	340.556	199.253	392.393	101.646	205.149	173.628	101.552	108.805	221.913	235.478	108.371	114.835	115.588	122.026	211.188	121.694	-8191	255	
6863.672	1	1	0	0	0.15651	0.06935	0.24607	0.15533	0.11672	0.24986	0.19046	0.26511	0.18084	0.13795	0.063179	0.088105	0.30194	0.15592	0.086893	0.21307	-2.7333	-2.8146	-2.8438	-3.1979	-3.0479	-3.2	-3.2167	-2.8438	-3.2208	-2.8521	-3.0312	-3.2708	-2.8271	-3.0958	-2.9854	-2.9167	166.910	234.178	203.680	430.811	158.721	350.039	391.085	396.089	179.962	192.703	405.650	245.513	94.077	91.532	107.548	414.256	0.00071471	0.00011298	2.9706e-05	1264.5	2.1675e-06	3.9287e-06	1340.7	261.44	8.0578e-06	3.4052e-06	323.43	89.981	70.461	20.17	2.417e-06	28.412	8.4174e-05	9.223e-05	2.4523e-05	1179	9.0134e-07	9.9171e-07	1249.4	245.08	8.9241e-07	9.99e-07	291.94	82.492	62.733	18.849	9.3168e-07	26.263	331.390	116.438	423.163	101.477	208.648	269.676	101.555	108.642	215.699	312.597	108.260	114.976	115.509	122.198	176.053	121.530	-8191	255	
6863.793	1	1	0	0	0.16784	0.17107	0.15571	0.18522	0.21314	0.037106	0.046974	0.085602	0.25317	0.037222	0.086824	0.30791	0.10082	0.29786	0.10329	0.12977	-2.65	-2.8229	-2.8979	-3.2958	-2.8271	-3.1083	-3.1604	-2.9792	-3.2042	-2.9125	-2.9479	-3.0708	-2.8896	-3.0062	-3.1188	-2.6458	444.651	236.454	142.780	369.873	199.375	443.427	227.203	413.695	377.419	309.392	292.242	286.681	196.302	137.069	277.174	130.849	0.00078391	0.00014844	6.9545e-05	1259	4.3858e-06	2.7724e-06	1338.6	262.45	1.8885e-06	1.7671e-06	323.98	89.572	71.183	20.054	4.1298e-06	28.419	8.6661e-05	8.9793e-05	2.3367e-05	1177.7	9.3556e-07	9.742e-07	1251.3	244.97	9.4209e-07	9.6604e-07	291.71	82.284	63.062	18.874	9.0994e-07	26.274	346.540	173.357	161.919	101.712	163.792	180.062	101.431	108.623	161.662	294.184	108.290	114.981	115.648	122.165	275.116	121.492	-8191	255	
6863.889	1	1	0	0	0.27201	0.11053	0.28028	0.094919	0.12936	0.18404	0.10647	0.20824	0.27013	0.069446	0.15201	0.19135	0.16267	0.093768	0.10675	0.034462	-2.6521	-3.0812	-2.7729	-3.2208	-2.9	-3.1271	-3.3792	-2.9313	-3.0667	-2.9208	-3.0771	-3.1125	-2.9208	-3.1125	-3.0521	-2.7979	187.696	193.488	263.603	221.087	287.817	244.190	363.182	367.607	350.948	128.567	441.832	319.118	415.001	175.155	203.099	425.183	0.00079998	0.00017758	0.00010173	1263.8	2.1403e-06	5.5604e-07	1336.8	262.15	6.149e-06	1.293e-06	324.62	89.982	70.997	20.104	5.0159e-06	28.514	9.2717e-05	8.9161e-05	2.3159e-05	1181.2	9.8764e-07	9.7565e-07	1251.1	245.69	9.7576e-07	9.3503e-07	292.64	82.477	63.252	18.833	8.6712e-07	26.351	340.732	229.989	150.489	101.557	173.761	318.481	101.388	108.970	207.676	181.007	108.582	115.292	115.713	122.350	208.482	121.142	-8191	255	
6863.985	1	1	0	0	0.099189	0.02926	0.26933	0.46402	0.18917	0.26155	0.13805	0.36888	0.085795	0.080861	0.30834	0.19527	0.11647	0.35919	0.2278	0.093746	-2.4562	-2.9229	-2.85	-3.2375	-2.9542	-2.8917	-3.2812	-2.9708	-3.2	-2.9708	-2.9917	-3.1396	-3.0333	-2.8875	-3.1646	-2.8646	192.222	239.044	227.734	414.804	193.898	331.621	354.910	412.367	166.847	110.618	192.058	162.894	346.347	129.675	103.709	106.862	0.00073199	0.00012586	5.7611e-05	1265	2.3225e-06	2.1741e-06	1339	263.06	5.8033e-06	7.7152e-07	324.48	89.653	70.344	20.238	2.7037e-06	28.329	9.2935e-05	8.2777e-05	2.1386e-05	1179.8	9.5867e-07	8.7956e-07	1250.6	245.54	9.4934e-07	8.742e-07	291.52	82.462	63.007	18.835	8.1208e-07	26.25	334.205	182.903	195.070	101.562	187.816	257.371	101.664	108.806	195.247	414.312	108.388	115.227	115.695	122.541	181.867	121.292	-8191	255	
6864.081	1	1	0	0	0.093111	0.070815	0.19932	0.20775	0.15311	0.12719	0.20193	0.1126	0.22761	0.26246	0.23086	0.2765	0.12387	0.2217	0.24288	0.13664	-2.7104	-3.0167	-2.7292	-3.3917	-2.9792	-2.8875	-3.4042	-2.9271	-3.0896	-2.9896	-2.8792	-3.1208	-2.775	-2.8688	-3.1813	-2.9792	225.869	245.074	450.036	352.898	118.999	347.428	433.208	430.074	160.935	238.067	432.173	439.897	259.953	387.199	167.826	119.300	0.00076085	0.00024753	1.5152e-05	1264.8	1.2326e-06	2.1672e-06	1339.7	261.91	5.9261e-06	3.4131e-06	322.69	89.944	70.895	20.273	2.8182e-06	28.402	8.9206e-05	7.8597e-05	2.0691e-05	1182.3	9.4653e-07	8.5749e-07	1251.3	245.72	9.3744e-07	8.6126e-07	291.84	82.798	63.146	18.854	8.1666e-07	26.359	335.687	114.766	247.389	101.554	221.794	189.810	101.521	108.751	228.964	140.735	108.521	115.251	115.800	122.189	192.641	121.452	-8191	255	
6864.177	1	1	0	0	0.086181	0.17564	0.22098	0.32243	0.12966	0.19584	0.28488	0.10022	0.093691	0.10199	0.18568	0.14264	0.17636	0.055193	0.24617	0.26781	-2.4958	-2.95	-2.9688	-3.2229	-2.9875	-2.9167	-3.2729	-3.1417	-2.9062	-3.2062	-2.9583	-3.0563	-3.0292	-2.8583	-3.1979	-2.8646	350.069	202.500	261.643	436.031	217.108	247.533	371.143	411.707	173.843	372.558	409.148	112.664	424.582	93.456	442.580	388.780	0.00070874	0.00014428	3.03e-05	1267.5	2.0983e-06	1.9438e-06	1342.8	262.6	5.2905e-06	3.0496e-06	324.19	89.581	70.779	20.217	1.578e-06	28.563	9.0233e-05	7.8325e-05	2.0863e-05	1184.6	9.207e-07	8.643e-07	1252.2	245.98	9.2495e-07	8.33e-07	291.77	82.769	63.051	18.838	8.2435e-07	26.395	337.866	265.011	172.600	101.503	314.532	179.552	101.587	108.791	166.648	133.704	108.347	115.343	115.398	122.392	174.938	121.469	-8191	255	
6864.272	1	1	0	0	0.11836	0.099853	0.30491	0.10408	0.12759	0.047977	0.12354	0.20314	0.042156	0.12595	0.15174	0.057489	0.30853	0.28855	0.25981	0.16359	-2.6604	-3.1271	-2.7104	-3.2438	-2.9125	-2.8229	-3.4896	-3.0792	-2.9188	-3.2938	-3.0271	-3.0854	-2.7708	-2.6833	-3.0729	-2.9208	206.087	109.854	193.508	168.707	240.057	157.449	133.109	93.891	408.242	293.484	369.717	145.746	132.629	393.399	325.985	390.185	0.00072142	0.00017659	5.2828e-05	1266	1.1593e-06	2.3476e-06	1342.9	263.06	4.0684e-06	2.6317e-06	323.81	90.347	71.105	20.261	4.2965e-06	28.522	8.5479e-05	7.5962e-05	2.1452e-05	1185.2	8.9211e-07	8.4691e-07	1253.2	246.82	9.0146e-07	8.1326e-07	292.35	83.061	63.124	18.852	8.8597e-07	26.434	343.004	118.738	191.814	101.572	145.168	231.010	101.529	108.665	252.606	229.913	108.552	115.271	115.591	122.004	180.737	121.778	-8191	255	
6864.393	1	1	0	0	0.058585	0.25352	0.26952	0.22609	0.15457	0.29347	0.40515	0.024061	0.046028	0.035344	0.17131	0.17307	0.34842	0.18649	0.20804	0.24676	-2.5375	-3.325	-2.9354	-3.0083	-3.1292	-2.8354	-3.4458	-3.1292	-2.8688	-3.3104	-2.8792	-3.0104	-3.0333	-2.8458	-3.1125	-3.2042	343.149	272.874	378.255	416.896	106.805	390.617	400.250	179.000	307.660	204.641	299.908	351.039	419.548	158.701	95.953	418.203	0.00077602	0.00022413	1.3297e-05	1273.4	3.3253e-06	4.746e-06	1346.9	263.42	2.5508e-06	2.1687e-06	324.41	90.44	71.277	20.283	4.3998e-06	28.443	8.6816e-05	7.5479e-05	2.3056e-05	1186.6	8.9487e-07	8.3147e-07	1256.5	246.81	8.9872e-07	8.2281e-07	292.85	83.152	63.19	18.853	9.4625e-07	26.407	332.882	433.029	150.093	101.487	198.350	226.774	101.477	109.000	239.565	200.996	108.366	115.254	115.930	122.191	175.989	121.688	-8191	255	
6864.489	1	1	0	0	0.30447	0.13397	0.14552	0.39552	0.20109	0.19494	0.16291	0.16874	0.18522	0.063292	0.23406	0.21279	0.054609	0.41017	0.11168	0.077237	-2.4542	-3.0354	-2.8542	-3.1625	-3.0979	-2.9021	-3.2417	-3.1708	-2.725	-3.3375	-2.8083	-3.1542	-3.0812	-2.9021	-2.9271	-3.0521	111.562	394.842	343.479	415.856	256.925	230.289	363.072	379.435	261.549	116.757	393.572	128.441	166.374	171.510	102.933	415.377	0.00079406	0.00043425	7.5657e-05	1270.9	4.3419e-06	1.0629e-06	1343.7	262.77	3.6298e-06	1.7134e-06	326.17	90.385	71.263	20.17	3.3614e-06	28.545	8.5923e-05	7.5751e-05	2.4295e-05	1189.8	8.7618e-07	8.278e-07	1256.7	246.46	8.7506e-07	8.2632e-07	293.97	83.111	62.997	18.85	9.4232e-07	26.344	330.074	128.706	144.129	101.727	205.503	208.823	101.574	108.740	256.841	317.386	108.162	115.172	115.581	122.472	186.006	121.531	-8191	255	
6864.585	1	1	0	0	0.16096	0.087814	0.09872	0.39305	0.19165	0.16927	0.29662	0.036308	0.12029	0.20956	0.11076	0.11974	0.11691	0.2191	0.099317	0.10876	-2.4188	-3.1917	-2.8375	-3.1042	-3.1729	-3.0479	-3.2313	-3.0125	-2.7979	-3.2333	-2.8354	-2.8917	-3.0938	-2.8292	-3.1604	-3.0938	166.892	423.118	436.102	100.351	374.648	180.630	380.880	450.660	350.616	366.861	210.328	421.973	159.379	121.515	338.240	247.160	0.00063629	0.0004274	4.0948e-05	1269.4	3.2921e-06	4.6533e-06	1345.6	262.91	3.6599e-06	2.6321e-06	324.12	90.222	71.696	20.239	2.8286e-06	28.502	8.0987e-05	7.6453e-05	2.4187e-05	1187.6	8.4002e-07	8.645e-07	1258	246.34	8.4342e-07	8.4384e-07	293.13	83.178	63.057	18.872	9.2913e-07	26.301	336.997	119.194	179.989	101.573	241.196	246.088	101.758	108.666	173.291	181.260	108.193	115.032	115.502	122.308	197.663	121.222	-8191	255	
6864.681	1	1	0	0	0.13287	0.13415	0.19794	0.15806	0.15094	0.058673	0.15556	0.16459	0.070668	0.14362	0.33709	0.19424	0.07766	0.20674	0.11021	0.09751	-2.2646	-3.1	-2.8917	-2.9354	-3.0875	-3.0062	-3.1542	-2.9875	-2.8146	-3.1604	-3.1125	-2.9708	-3.1604	-2.9562	-2.9521	-3.0312	174.849	303.358	92.665	103.456	341.563	135.555	348.652	323.725	140.838	329.666	421.447	399.241	228.672	399.831	431.938	366.245	0.00067548	0.00067231	5.3317e-05	1270.1	2.8811e-06	7.407e-07	1348.2	263.69	2.4755e-06	2.1546e-06	325.71	90.026	71.45	20.235	2.8844e-06	28.518	7.8526e-05	8.058e-05	2.3568e-05	1187.5	8.2636e-07	9.1646e-07	1259.3	246.94	8.3586e-07	9.1783e-07	293.18	82.905	63.04	18.986	9.1803e-07	26.317	339.928	129.685	144.918	101.753	152.668	202.695	101.474	108.878	225.649	238.211	108.196	114.800	115.552	121.945	285.714	121.467	-8191	255	
6864.753	1	1	0	0	0.23337	0.17591	0.11034	0.1877	0.14976	0.090279	0.31133	0.079013	0.030046	0.059306	0.1929	0.17687	0.16442	0.25432	0.063139	0.13402	-2.3812	-3.1333	-3.0417	-2.9729	-3.1042	-3.0604	-2.9625	-3.2125	-2.8042	-3.0104	-3.1146	-2.9979	-3.2708	-3.0812	-2.9667	-3.2708	287.748	442.116	265.370	378.315	363.467	331.661	381.282	423.478	247.437	119.311	397.911	400.955	419.724	410.131	373.313	424.571	0.00084952	0.00019813	0.00010659	1271.8	3.6568e-06	4.6792e-06	1339.1	263.27	2.4849e-06	9.9313e-07	325.28	90.296	70.915	20.305	1.7241e-06	28.495	8.0896e-05	8.4643e-05	2.2697e-05	1186	8.1637e-07	9.2e-07	1254.9	246.56	8.3892e-07	9.1274e-07	293.03	82.986	63.035	18.975	8.808e-07	26.282	332.720	166.899	156.986	101.467	218.315	179.060	101.595	108.763	197.667	201.724	108.349	115.435	115.455	122.216	204.210	121.540	-8191	255	
6864.873	1	1	0	0	0.049188	0.13064	0.37902	0.28842	0.27507	0.2185	0.41115	0.16754	0.19108	0.26736	0.061417	0.24284	0.11892	0.1522	0.12473	0.088934	-2.2833	-2.9354	-3.1375	-2.9708	-3.1854	-3.3021	-3.1271	-3.2229	-2.8875	-3.1167	-3.1	-2.8708	-3.0083	-3.1063	-2.8438	-3.0354	148.788	186.124	401.276	417.124	163.715	263.542	354.954	349.453	421.014	393.406	423.177	105.254	417.996	110.813	245.501	128.729	0.00074842	0.00032867	8.8149e-05	1268	4.3348e-06	2.962e-06	1346.4	263.29	5.5705e-06	3.7116e-06	324.91	90.627	70.791	20.217	2.2764e-06	28.45	8.155e-05	8.5142e-05	2.1961e-05	1186.3	8.6522e-07	9.349e-07	1257.9	246.61	8.8108e-07	9.3444e-07	292.53	82.924	63.1	18.94	8.8076e-07	26.235	334.929	139.955	173.956	101.504	210.506	207.278	101.541	108.695	207.823	166.056	108.065	115.330	115.213	121.814	169.389	121.114	-8191	255	
6864.969	1	1	0	0	0.092691	0.14653	0.21617	0.09661	0.075116	0.16871	0.33105	0.16062	0.19636	0.098365	0.055933	0.029113	0.10271	0.14279	0.15668	0.058233	-2.4479	-2.8229	-3	-3	-3.2042	-2.9833	-3.0687	-3.2292	-2.8354	-2.9917	-3.1646	-2.7833	-3.2313	-2.9833	-2.8104	-3.1188	374.797	398.046	187.442	400.315	314.222	126.053	367.318	112.437	341.026	240.007	181.326	293.349	323.141	333.471	141.689	429.220	0.00075812	0.00015386	7.192e-05	1274.2	1.4103e-06	3.6674e-07	1346.7	264.41	3.0893e-06	1.3476e-06	324.76	89.896	71.151	20.325	3.7979e-06	28.493	8.8337e-05	8.5054e-05	2.2084e-05	1186.8	9.39e-07	9.4032e-07	1256.1	246.99	9.7032e-07	9.3851e-07	292.51	82.801	63.45	18.974	8.7818e-07	26.3	330.294	171.538	170.522	101.650	199.823	161.830	101.575	108.701	213.323	330.036	108.405	115.247	115.188	122.301	223.305	121.117	-8191	255	
6865.066	1	1	0	0	0.20369	0.086995	0.098018	0.27564	0.27159	0.20026	0.31011	0.063806	0.2045	0.093804	0.038553	0.14506	0.1168	0.14668	0.2108	0.12376	-2.3958	-2.9042	-3.3354	-3.0083	-3.0583	-2.9021	-2.8937	-3.1458	-2.8375	-3.05	-3.1125	-2.85	-2.9875	-3.0812	-2.95	-3.0625	233.652	439.146	207.019	359.859	269.521	311.241	388.076	372.047	225.450	165.441	196.901	281.459	104.891	403.193	258.079	314.246	0.00075526	6.747e-05	5.0104e-05	1271.2	5.1695e-06	2.2735e-06	1344	263.67	3.8171e-06	1.4742e-06	324.16	90.176	71.217	20.239	5.2607e-07	28.446	9.3306e-05	8.5519e-05	2.1799e-05	1185.3	1.005e-06	9.1439e-07	1253.8	246.79	9.763e-07	8.974e-07	292.29	82.943	63.334	18.958	8.4638e-07	26.324	329.014	439.057	204.188	101.410	211.550	192.106	101.681	108.567	176.479	223.450	108.719	114.999	115.624	122.169	386.245	121.710	-8191	255	
6865.162	1	1	0	0	0.12055	0.082951	0.29842	0.3204	0.3506	0.039592	0.25242	0.15607	0.21972	0.20632	0.22542	0.11488	0.023202	0.24092	0.20697	0.26619	-2.4229	-2.95	-3.1292	-2.8708	-2.85	-2.8708	-2.9188	-2.9688	-2.9854	-3.0625	-3.0687	-2.9771	-3.0771	-3.2125	-2.6562	-3.0021	279.103	450.918	412.213	367.245	356.702	111.233	166.993	128.144	352.758	124.728	394.076	334.147	144.017	343.202	290.104	343.720	0.000683	0.00024252	1.3634e-05	1270.5	4.0319e-06	1.4328e-06	1338.9	262.04	4.2644e-06	1.5865e-06	325.68	90.775	71.569	20.216	2.9379e-06	28.497	9.3476e-05	8.1782e-05	2.1076e-05	1185	9.7559e-07	8.8738e-07	1252.8	246.3	9.6247e-07	8.887e-07	292.66	83.043	63.362	18.9	8.515e-07	26.369	334.846	118.624	279.311	101.582	196.210	259.474	101.618	108.906	233.653	143.608	108.317	115.213	115.572	122.278	194.797	121.515	-8191	255	
6865.281	1	1	0	0	0.10243	0.15396	0.10868	0.14874	0.14785	0.19877	0.03832	0.11815	0.16482	0.12734	0.10768	0.18928	0.10031	0.14263	0.11565	0.22964	-2.4042	-2.8167	-2.9688	-2.8646	-2.9708	-2.9729	-2.925	-3.3229	-2.9833	-2.9479	-3.2104	-3.0208	-3.0333	-3.1875	-2.8042	-3.1021	191.162	131.796	157.022	333.803	139.889	322.376	270.901	330.490	372.108	191.061	422.288	230.253	393.232	226.922	242.268	376.713	0.00069735	0.00026743	5.1957e-05	1268.9	3.7974e-06	3.8513e-06	1345.6	263.71	4.1975e-06	2.7804e-06	324.85	90.365	71.258	20.363	4.3069e-06	28.563	9.1986e-05	8.2368e-05	2.1184e-05	1186.6	9.6103e-07	8.8523e-07	1253.9	247.41	9.7313e-07	8.9937e-07	292.49	83.331	63.623	19.004	9.0271e-07	26.486	342.325	428.582	171.309	101.640	189.431	177.889	101.642	108.768	224.261	269.188	108.365	115.140	115.510	122.050	183.210	121.421	-8191	255	
6865.354	1	1	0	0	0.029515	0.1133	0.12214	0.066391	0.15899	0.32157	0.20686	0.30245	0.26366	0.16281	0.028854	0.0166	0.13902	0.08792	0.26488	0.26151	-2.6958	-2.9417	-3.0021	-3.0438	-3.1354	-3.1583	-3.0208	-3.1979	-3.0917	-2.8542	-3.1792	-2.925	-3.2271	-3.1271	-3	-3.2042	440.223	256.483	268.864	371.305	330.943	176.301	417.551	409.419	104.158	204.795	376.922	168.888	303.366	151.281	133.816	329.649	0.00080225	0.00022779	7.857e-05	1273.7	2.5108e-06	2.3222e-06	1345.4	264.18	1.378e-06	8.5602e-07	326.25	90.397	71.508	20.292	2.5271e-06	28.713	9.3479e-05	8.3112e-05	2.2619e-05	1193.1	9.8752e-07	8.9978e-07	1258.3	248.1	9.7489e-07	9.2055e-07	293.74	83.543	63.478	18.94	9.4806e-07	26.588	343.508	106.482	179.037	101.481	202.366	140.039	101.562	108.674	235.460	262.177	108.234	115.283	115.454	121.844	176.346	121.366	-8191	255	
6865.473	1	1	0	0	0.062355	0.095859	0.19776	0.075807	0.055757	0.076532	0.29229	0.33936	0.16525	0.16764	0.20653	0.091844	0.18859	0.13565	0.036197	0.29334	-2.5333	-2.9188	-3.0938	-2.9354	-2.9188	-3.1792	-3.1333	-3.1708	-3.1333	-2.9062	-3.25	-2.8438	-2.9062	-3.2167	-2.8417	-3.1604	240.198	276.549	148.696	133.300	338.144	403.900	404.487	421.638	147.359	291.501	415.856	346.786	285.264	174.732	231.190	280.756	0.0005307	0.00035924	0.00012583	1277.6	2.1406e-06	2.4035e-06	1348.7	264.22	4.1898e-06	3.1316e-06	326.22	90.676	71.57	20.393	1.096e-06	28.717	9.0904e-05	8.098e-05	2.4186e-05	1193.9	9.5299e-07	8.5836e-07	1260.8	248.08	9.3686e-07	8.6508e-07	294.38	83.495	63.415	18.979	9.7189e-07	26.515	339.437	180.381	168.545	101.676	230.145	203.896	101.561	108.982	229.595	265.962	108.163	115.123	115.369	121.940	192.026	121.590	-8191	255	
6865.569	1	1	0	0	0.11896	0.092889	0.092853	0.15614	0.024573	0.13317	0.29014	0.22962	0.12289	0.28193	0.17879	0.27549	0.12373	0.10835	0.11093	0.17767	-2.6875	-2.8812	-2.9729	-3.0625	-2.7667	-3.1292	-3.0896	-3.0312	-3.0479	-2.8333	-3.2042	-3.1417	-2.7708	-3.1104	-2.9688	-3.0271	253.323	141.171	242.674	91.246	274.484	441.265	363.549	427.520	221.361	222.265	361.120	127.164	234.043	334.285	177.533	93.913	0.00075039	0.00026797	0.00010089	1275.3	3.3872e-06	2.8516e-06	1344.3	264.5	2.6936e-06	3.3681e-06	325.3	90.805	71.2	20.421	1.9709e-06	28.554	8.8406e-05	7.7769e-05	2.4618e-05	1191.7	9.0827e-07	8.505e-07	1261.3	248.13	8.885e-07	8.5096e-07	294.56	83.416	63.214	18.961	1.0019e-06	26.446	346.152	135.967	217.820	101.422	182.510	169.557	101.444	108.664	240.969	231.920	108.354	115.041	115.371	121.991	215.018	121.480	-8191	255	
6865.665	1	1	0	0	0.21442	0.23151	0.29226	0.27915	0.070045	0.052559	0.13576	0.34807	0.14024	0.094579	0.16129	0.11494	0.18496	0.099017	0.18652	0.25725	-2.6333	-2.8937	-3.1146	-3.0083	-2.8937	-3.1458	-3.0479	-2.925	-3.2729	-3.05	-3.1271	-3.0542	-2.7875	-3.1396	-3.0292	-2.9917	220.453	389.898	195.330	243.362	161.467	293.684	445.625	415.066	239.943	315.631	369.753	331.366	97.922	167.012	181.407	305.837	0.00066364	0.00041315	1.9942e-05	1274.1	2.5924e-06	3.9228e-06	1348.5	264.19	3.03e-06	5.7221e-06	325.72	90.759	71.55	20.308	2.8315e-06	28.371	8.5361e-05	8.0797e-05	2.5531e-05	1189.4	8.9077e-07	8.8088e-07	1260.8	247.72	8.5911e-07	9.0194e-07	294.32	83.217	63.263	18.951	9.5105e-07	26.32	336.500	132.466	170.582	101.477	181.725	112.053	101.674	108.877	226.606	194.185	108.483	115.203	115.605	121.926	297.789	121.391	-8191	255	
6865.761	1	1	0	0	0.25826	0.20375	0.12223	0.32746	0.11722	0.12587	0.26448	0.20808	0.09933	0.21388	0.041247	0.23282	0.22717	0.18586	0.3154	0.12933	-2.6625	-2.6625	-2.9083	-3.0438	-2.8083	-3.0021	-3.0687	-2.8854	-3.1937	-3.0292	-3.1437	-3.0125	-2.8854	-3.15	-2.975	-2.6625	442.448	230.306	249.959	444.154	397.211	229.749	382.375	101.301	91.985	154.996	239.616	408.394	382.292	311.357	394.164	433.944	0.00074668	0.00029403	9.0715e-05	1276.2	3.8057e-06	3.1467e-06	1348.9	265.05	2.9557e-06	2.3711e-06	323.47	89.751	71.39	20.261	2.4233e-06	28.215	8.0822e-05	8.1546e-05	2.4361e-05	1189.7	8.5241e-07	9.1088e-07	1259.6	247.55	8.2689e-07	9.2123e-07	293.55	83.174	63.052	18.978	9.4607e-07	26.295	339.208	112.810	107.153	101.563	214.722	226.805	101.493	108.728	230.001	169.661	108.588	115.262	115.428	122.062	185.006	121.618	-8191	255	
6865.882	1	1	0	0	0.16878	0.194	0.080431	0.53053	0.15674	0.12702	0.16225	0.34066	0.080677	0.16611	0.22591	0.21174	0.13604	0.048903	0.13696	0.052236	-2.6	-2.5583	-2.9458	-3.1542	-2.7979	-2.9375	-3.1771	-2.8354	-3.2417	-2.8458	-2.9375	-3.1437	-2.7625	-3.175	-3.0417	-2.9583	394.386	282.640	177.133	372.843	219.222	218.110	410.932	419.302	254.639	154.881	427.986	373.853	342.895	321.778	408.628	301.113	0.00080627	0.00010352	4.5027e-05	1271.2	3.1245e-06	5.4632e-06	1347.7	265.18	7.3801e-06	4.0244e-06	326.16	90.514	71.233	20.3	2.4559e-06	28.554	8.0142e-05	8.7633e-05	2.3482e-05	1189.7	8.5339e-07	9.3894e-07	1259.1	247.65	8.3627e-07	9.4542e-07	293.34	83.054	63.081	19.006	8.6394e-07	26.22	340.681	203.955	161.143	101.565	186.545	221.996	101.493	108.942	207.946	225.082	108.319	115.185	116.021	121.966	159.294	121.577	-8191	255	
6865.954	1	1	0	0	0.14196	0.10845	0.29019	0.08098	0.051555	0.095859	0.19627	0.23034	0.18231	0.18248	0.069913	0.15041	0.17728	0.11447	0.11517	0.26974	-2.7917	-2.7375	-2.9292	-3.2542	-2.8208	-3.0625	-3.2313	-2.9875	-3.2896	-3.1146	-2.9771	-3.2917	-2.8896	-2.9979	-3.1562	-2.8854	161.695	374.202	170.835	402.544	163.095	392.365	448.195	393.356	369.844	426.373	143.084	441.995	299.052	408.378	335.736	111.237	0.00071545	0.00016141	3.7739e-05	1275	2.4035e-06	1.489e-06	1348.6	264.07	5.0078e-06	1.2861e-06	326.73	90.497	71.383	20.249	1.9539e-06	28.516	8.069e-05	8.4086e-05	2.2147e-05	1188	8.6586e-07	9.2093e-07	1258.9	247.08	8.5501e-07	9.1318e-07	292.9	83.048	63.235	18.995	8.4864e-07	26.16	335.136	434.763	168.274	101.594	212.430	305.704	101.496	108.699	223.044	202.022	108.649	115.227	115.806	122.451	200.949	121.536	-8191	255	
6866.050	1	1	0	0	0.14048	0.32499	0.14187	0.24717	0.23297	0.20568	0.29478	0.20067	0.078966	0.18116	0.15874	0.30757	0.073413	0.16972	0.12676	0.14509	-2.6021	-2.9417	-2.9813	-3.2021	-2.9083	-2.9021	-3.2354	-2.8646	-3.0687	-3.0583	-2.9479	-3.2125	-2.8125	-2.8646	-2.9771	-2.725	418.184	323.010	446.987	437.650	97.767	218.484	340.227	402.577	428.174	427.197	358.079	397.647	324.179	432.793	162.129	400.639	0.00086742	0.0002319	1.5662e-05	1275.1	5.3664e-06	2.3335e-06	1348.3	262.63	2.9416e-06	1.1191e-06	325.72	90.307	71.304	20.287	1.9912e-06	28.323	8.3867e-05	8.1441e-05	2.1329e-05	1186	8.9488e-07	8.9552e-07	1258.1	246.47	9.0383e-07	9.0676e-07	292.81	83.05	63.413	18.957	8.4439e-07	26.243	336.750	192.857	152.134	101.563	171.672	232.668	101.405	108.832	240.646	272.073	108.566	115.453	115.430	122.296	160.160	121.618	-8191	255	
6866.170	1	1	0	0	0.25798	0.19055	0.18467	0.27749	0.32022	0.22912	0.20237	0.059214	0.079724	0.14688	0.082865	0.20072	0.25492	0.31953	0.017513	0.092355	-2.5729	-2.8438	-2.8708	-3.25	-2.8729	-2.9417	-3.3458	-2.8812	-3.0563	-3.0729	-2.9	-3.2354	-2.7104	-2.8542	-3.2708	-2.8292	226.071	242.830	450.388	409.777	110.542	319.516	439.657	433.899	420.222	177.141	334.947	432.432	437.164	91.766	363.034	191.576	0.00067415	0.00033812	4.1113e-05	1276.7	2.1317e-06	1.5289e-06	1347.9	264.46	3.4452e-06	1.724e-06	327.26	90.77	71.845	20.358	3.5438e-06	28.527	8.8533e-05	8.107e-05	2.1186e-05	1189	9.4211e-07	8.8835e-07	1258.7	247.06	9.5074e-07	8.9471e-07	293.65	83.185	63.786	19.045	8.4648e-07	26.314	334.546	412.029	199.468	101.484	169.860	146.976	101.526	108.799	195.404	216.188	108.382	115.228	115.258	121.932	191.098	121.783	-8191	255	
6866.265	1	1	0	0	0.18013	0.091664	0.15387	0.41115	0.045036	0.076378	0.34802	0.2683	0.017813	0.12049	0.30137	0.12752	0.32821	0.12224	0.25569	0.16532	-2.7313	-2.9708	-2.8354	-3.375	-2.85	-2.8167	-3.3792	-2.7854	-2.8375	-3	-2.8354	-3.1792	-2.7604	-2.825	-3.0854	-2.7875	429.444	216.436	252.363	399.855	141.447	232.947	363.162	358.127	141.993	431.940	440.488	199.851	176.134	433.079	132.095	404.222	0.00065749	0.00043141	3.1369e-05	1274.7	8.5743e-07	1.096e-06	1350.8	265.53	4.1614e-06	5.0923e-06	327.54	90.986	71.268	20.46	2.3664e-06	28.42	9.4109e-05	8.2436e-05	2.1774e-05	1190.1	1.0029e-06	9.1356e-07	1262.8	248.53	9.9541e-07	8.9315e-07	293.77	83.402	63.691	19.086	8.207e-07	26.347	344.963	117.116	119.193	101.478	258.979	195.793	101.471	108.692	218.185	265.013	108.166	115.151	115.247	122.164	201.644	121.670	-8191	255	
6866.361	1	1	0	0	0.0429	0.065803	0.089532	0.35251	0.18352	0.062644	0.15088	0.1638	0.05408	0.19916	0.11794	0.12617	0.1747	0.1109	0.14584	0.27067	-2.6396	-3.1458	-2.8271	-3.1729	-3.0458	-2.7708	-3.2562	-3.0479	-2.8812	-2.9917	-2.7479	-3.2	-2.875	-2.9479	-3.0104	-2.7917	278.671	368.452	114.705	450.580	170.238	178.690	393.489	354.292	177.793	93.653	367.753	397.603	140.760	418.065	368.618	436.784	0.00076219	0.0002925	3.1338e-05	1275.6	2.8029e-06	3.2248e-06	1349.7	263.83	3.6703e-06	2.9046e-06	326.03	90.32	71.395	20.371	1.5283e-06	28.479	9.191e-05	8.0674e-05	2.1226e-05	1192.4	9.4986e-07	8.8169e-07	1258.7	248.1	9.4743e-07	8.6518e-07	293.59	83.475	63.46	19.017	8.2274e-07	26.439	337.681	445.054	199.215	101.576	232.132	236.694	101.667	108.714	236.656	252.713	108.369	115.186	115.428	121.990	154.721	121.317	-8191	255	
6866.457	1	1	0	0	0.079634	0.043456	0.14849	0.13696	0.15168	0.055349	0.18021	0.2834	0.17057	0.10603	0.14849	0.22897	0.23165	0.17806	0.3272	0.184	-2.4958	-3.0812	-2.8396	-3.3854	-3.05	-2.85	-3.2979	-3.1333	-2.9292	-3.2021	-2.9	-3.0833	-3.075	-2.7375	-3.0812	-3.0375	104.843	131.349	419.552	393.634	448.542	411.575	428.421	411.180	193.867	441.657	100.126	317.870	115.062	405.987	346.580	115.888	0.00076111	6.2724e-06	0.00011116	1274.3	1.9651e-06	1.0735e-06	1352.5	263.57	5.1514e-06	1.8987e-06	325.66	90.607	71.791	20.303	4.2333e-06	28.499	8.7898e-05	7.6917e-05	2.0979e-05	1191.3	9.0258e-07	8.3789e-07	1259.1	247.85	8.8515e-07	7.9925e-07	293.02	83.353	63.333	18.916	8.333e-07	26.325	337.438	220.410	157.415	101.659	152.276	290.301	101.488	108.739	255.821	185.987	108.264	115.267	115.600	122.027	196.313	121.045	-8191	255	
6866.578	1	1	0	0	0.11158	0.14134	0.05755	0.14266	0.069021	0.21426	0.13099	0.17814	0.21802	0.10312	0.13546	0.14392	0.20429	0.21598	0.15838	0.013619	-2.3438	-3.1833	-2.8792	-2.9854	-3.1625	-2.8583	-3.3646	-3.1625	-2.8187	-2.9958	-2.9583	-3.1542	-3.1646	-2.7604	-3.0583	-2.8604	278.443	275.806	184.507	306.947	387.615	408.508	96.823	368.849	347.839	275.494	399.833	400.408	437.939	218.390	277.119	269.243	0.00084224	0.00019652	5.9644e-05	1277.3	2.9228e-06	3.3773e-06	1349.2	263.9	2.2826e-06	3.2798e-06	325.41	90.543	71.594	20.373	1.4613e-06	28.361	8.2179e-05	7.1039e-05	2.1221e-05	1190	8.431e-07	7.7581e-07	1258.9	247.75	8.3435e-07	7.5675e-07	292.74	83.086	63.164	18.91	8.4714e-07	26.219	336.978	169.463	181.744	101.522	188.675	249.924	101.414	108.637	247.319	203.960	108.476	115.341	115.139	122.203	141.031	121.481	-8191	255	
6866.649	1	1	0	0	0.16992	0.021277	0.20459	0.25341	0.16129	0.10713	0.011456	0.095692	0.26433	0.13841	0.16019	0.19443	0.15661	0.1096	0.094684	0.23561	-2.4333	-3.0667	-2.7938	-3.1167	-3.2417	-2.8688	-3.2958	-3.1542	-2.8604	-3.1521	-2.9208	-3.1292	-3.1229	-2.7083	-3.1604	-2.8125	109.845	255.398	179.557	413.915	423.311	377.391	318.094	97.372	362.958	393.722	324.428	396.071	159.162	135.596	158.562	450.200	0.00084475	0.00040627	7.3455e-05	1271.6	2.0128e-06	2.089e-06	1345.5	264.1	5.2794e-06	1.71e-06	324.41	90.374	71.191	20.41	2.5066e-06	28.612	7.8868e-05	6.7467e-05	2.1818e-05	1185.6	7.9368e-07	7.5869e-07	1256.5	247.68	8.2324e-07	7.8157e-07	293.36	83.146	63.226	18.955	9.1214e-07	26.345	338.943	128.032	185.978	101.342	234.109	217.125	101.518	108.947	194.208	171.072	108.364	115.188	115.501	122.135	224.144	121.463	-8191	255	
6866.746	1	1	0	0	0.070185	0.19287	0.15367	0.32997	0.28278	0.26051	0.024018	0.26951	0.2873	0.25899	0.26164	0.17444	0.36799	0.14067	0.22631	0.085245	-2.2896	-3.0375	-2.8312	-3.0417	-3.1542	-2.7729	-3.2625	-3.0792	-2.7062	-3.1875	-2.8917	-2.8854	-3.1312	-2.8375	-3.1458	-3.2083	278.256	137.183	162.325	111.653	111.705	369.305	107.398	94.015	340.487	90.761	337.795	233.108	421.504	440.475	347.902	135.205	0.00070293	0.00052438	5.1272e-05	1270.9	2.2891e-06	1.7447e-06	1348.1	263.86	5.4179e-06	2.6628e-06	326.76	90.619	71.464	20.442	2.1473e-06	28.444	8.0317e-05	7.4135e-05	2.3389e-05	1188.4	8.1967e-07	8.2026e-07	1259.3	247.7	8.3263e-07	8.2386e-07	294.73	83.332	63.197	19.032	9.4392e-07	26.389	328.391	117.521	155.723	101.648	227.850	208.379	101.617	108.744	181.676	241.718	108.686	115.102	115.339	122.046	217.854	121.449	-8191	255	
6866.842	1	1	0	0	0.025129	0.059241	0.31811	0.023418	0.06233	0.14	0.30579	0.28848	0.328	0.15495	0.24451	0.12524	0.31462	0.033353	0.033454	0.18044	-2.2354	-3.1125	-2.9583	-2.9271	-3.1917	-2.9271	-3.0875	-3.0021	-2.9021	-3.2208	-3.0458	-3.2042	-3.2229	-2.8083	-3.0979	-3.2167	259.951	148.618	206.192	379.058	209.301	358.966	402.556	124.837	206.288	426.089	432.964	199.985	446.680	416.248	186.424	390.338	0.00068606	0.00012676	1.6127e-05	1277.4	1.4829e-06	9.5201e-07	1349.2	264.19	7.923e-07	3.8933e-06	325.14	90.787	71.543	20.451	1.3065e-06	28.468	7.9825e-05	7.9685e-05	2.3602e-05	1191.8	8.0101e-07	8.8356e-07	1261	247.98	8.1572e-07	8.798e-07	294.62	83.305	63.254	19.051	9.0547e-07	26.366	335.989	250.500	188.941	101.535	239.809	166.326	101.518	108.835	135.594	207.972	108.465	114.940	115.392	122.391	258.603	121.057	-8191	255	
6866.962	1	1	0	0	0.26595	0.23685	0.033693	0.13569	0.28692	0.10729	0.3662	0.087268	0.17047	0.18776	0.17409	0.28138	0.28728	0.069225	0.26012	0.15873	-2.4313	-3.1229	-3.1271	-3.0104	-3.1583	-2.9208	-3.2042	-3.1208	-2.8958	-3.1896	-3.0958	-2.8438	-3.2979	-3.0979	-2.9417	-3.2771	415.150	392.746	254.015	436.585	286.842	324.820	328.199	230.837	120.135	188.479	235.358	374.132	283.679	204.030	290.777	338.380	0.00074088	1.7817e-05	9.4113e-06	1278	3.5939e-06	1.8239e-06	1351.2	265.39	3.8485e-06	2.117e-06	326.36	90.389	71.794	20.408	2.1436e-06	28.723	7.8756e-05	8.2711e-05	2.2563e-05	1190.9	8.0831e-07	9.2692e-07	1261.6	248.35	8.3536e-07	9.327e-07	294.13	83.332	63.378	19.092	8.75e-07	26.363	337.969	200.559	220.806	101.666	212.931	222.956	101.609	108.891	203.927	225.627	108.452	115.326	115.385	122.045	222.413	121.677	-8191	255	
6867.059	1	1	0	0	0.036441	0.014173	0.20955	0.043152	0.076888	0.11483	0.061953	0.044391	0.16328	0.13156	0.24616	0.043123	0.098573	0.15819	0.30725	0.072506	-2.375	-3.2229	-3.0292	-2.8812	-3.2729	-3.1188	-3.1375	-3.1958	-3.0062	-3.0563	-3.1562	-2.9229	-3.3021	-2.9542	-2.9792	-3.3229	372.200	168.748	333.669	364.009	332.939	294.454	114.196	258.078	255.264	428.775	381.800	94.313	407.203	391.658	221.002	310.372	0.00067594	0.00040839	3.1376e-05	1278.3	3.742e-06	3.1434e-06	1350.6	264.67	2.7458e-06	2.0426e-06	325.66	90.707	72.007	20.26	1.0328e-06	28.61	8.1088e-05	8.3403e-05	2.1754e-05	1190.6	8.4571e-07	9.257e-07	1261	248.18	8.7377e-07	9.3647e-07	293.68	83.312	63.662	19.075	8.7709e-07	26.348	341.146	124.384	145.310	101.627	200.670	206.107	101.701	108.700	208.123	243.144	108.473	114.997	115.680	121.749	258.412	121.525	-8191	255	
6867.155	1	1	0	0	0.087426	0.11395	0.10672	0.18088	0.15346	0.12151	0.13851	0.24908	0.1015	0.19441	0.21202	0.18138	0.13566	0.045593	0.024156	0.10848	-2.3	-2.9229	-3.0687	-2.8979	-3.1646	-3.0062	-3.0229	-3.2625	-2.9938	-3.0083	-3.0229	-2.8312	-3.1354	-2.9917	-2.7229	-3.2771	383.528	267.512	178.296	165.010	308.587	207.147	341.315	358.560	365.450	302.674	162.156	409.314	411.130	137.334	233.338	422.243	0.00071937	0.00021565	8.4447e-05	1279.2	4.0555e-06	2.605e-06	1348.2	265.58	5.22e-06	1.9e-06	325.67	90.909	72.014	20.469	1.8064e-06	28.732	8.5726e-05	8.4397e-05	2.1549e-05	1191.4	9.1058e-07	9.1885e-07	1260	248.25	9.1983e-07	9.2981e-07	293.89	83.369	63.768	19.131	8.722e-07	26.397	340.667	306.514	148.340	101.611	213.740	170.640	101.600	108.709	180.351	190.041	108.452	115.093	115.631	122.259	194.623	121.381	-8191	255	
6867.251	1	1	0	0	0.1261	0.095161	0.12475	0.15071	0.025331	0.17276	0.16681	0.261	0.12295	0.1019	0.10907	0.14852	0.2281	0.14971	0.1172	0.089938	-2.2667	-3.0021	-2.8896	-2.8646	-2.9917	-3.0875	-3.05	-3.3021	-2.8917	-2.9333	-3.1042	-2.7333	-3.1521	-2.9229	-2.7854	-3.2729	409.358	150.359	350.735	392.057	275.126	136.054	353.957	410.272	446.344	417.495	170.358	155.520	198.323	293.591	383.346	400.556	0.00077975	0.00025054	3.4057e-05	1279.8	5.0662e-06	2.486e-07	1355.9	266.07	2.2234e-06	1.5518e-06	326.92	90.842	71.279	20.563	2.9093e-06	28.553	9.0433e-05	8.4274e-05	2.1688e-05	1192	9.6852e-07	8.9577e-07	1263.7	248.89	9.567e-07	8.8382e-07	293.99	83.413	63.649	19.071	8.1971e-07	26.363	338.032	142.819	393.259	101.675	158.910	250.967	101.363	108.801	172.596	300.538	108.217	115.037	115.789	122.263	178.278	121.630	-8191	255	
6867.345	1	1	0	0	0.19111	0.13212	0.19092	0.10531	0.12758	0.1029	0.41412	0.08766	0.12418	0.24901	0.25345	0.2074	0.11475	0.094507	0.37408	0.17647	-2.5979	-2.9833	-3.0708	-2.8812	-3.1458	-3.1979	-3.0208	-3.2646	-2.8271	-2.8125	-3.2146	-2.9604	-2.9979	-3.0812	-2.7667	-3.2375	387.010	373.707	435.397	428.283	444.620	104.780	360.040	315.538	332.640	201.893	100.815	342.113	112.559	432.478	450.194	252.932	0.00075997	0.00016538	7.1337e-05	1270.4	2.4923e-06	7.9813e-07	1347	266.14	3.9483e-06	5.0098e-07	327.81	90.431	71.872	20.43	7.4866e-07	28.601	8.9387e-05	7.7437e-05	2.0168e-05	1188.9	9.4302e-07	8.4288e-07	1257.3	248.26	9.2514e-07	8.5784e-07	293.47	83.291	63.617	19.017	7.9963e-07	26.363	336.791	194.950	204.660	101.557	220.095	217.014	101.593	108.760	252.722	302.197	108.239	114.906	115.337	122.076	104.686	121.868	-8191	255	
6867.443	1	1	0	0	0.18533	0.015867	0.22644	0.1998	0.11551	0.18934	0.15427	0.17465	0.1532	0.17579	0.16523	0.071017	0.25154	0.3753	0.2086	0.10334	-2.5083	-2.9	-2.9625	-2.9562	-3.0333	-3.1771	-2.9979	-3.1271	-2.9396	-2.7687	-3.0812	-3.0312	-2.9729	-3.0583	-2.8583	-3.0312	307.809	441.621	364.392	328.110	296.374	104.978	396.497	380.289	109.246	336.200	413.332	310.733	415.786	144.671	217.891	332.205	0.00073581	0.00024145	4.5131e-05	1271.3	1.2301e-06	3.9182e-06	1346.8	264.89	5.7212e-06	3.1213e-06	325.98	90.692	71.493	20.341	2.6098e-06	28.483	8.8059e-05	7.7117e-05	1.9988e-05	1188.7	9.3191e-07	8.4743e-07	1257.4	248.59	9.5155e-07	8.8207e-07	293.84	83.491	63.575	19.016	8.5032e-07	26.459	332.777	138.044	221.381	101.657	241.768	189.089	101.368	108.830	202.017	205.818	108.416	115.252	115.674	121.845	218.736	121.238	-8191	255	
6867.562	1	1	0	0	0.08987	0.19292	0.16715	0.29508	0.16526	0.18875	0.1343	0.21879	0.17474	0.14601	0.13646	0.20369	0.26164	0.22511	0.15733	0.11639	-2.7083	-2.6833	-3.0875	-2.9792	-3.0083	-3.0875	-2.8875	-3.1625	-3.1042	-2.8854	-3.2229	-3.0208	-2.8958	-3.1271	-2.725	-3.0354	163.948	428.680	272.426	389.845	387.407	93.444	145.129	289.033	310.971	152.309	138.834	109.217	272.309	121.648	337.877	113.387	0.0006853	0.00013203	0.00010212	1277.1	1.631e-06	3.0804e-06	1347.1	264.55	3.2508e-06	2.6095e-06	326.26	90.43	71.195	20.305	3.6127e-06	28.313	8.9405e-05	7.8487e-05	2.1188e-05	1189.5	9.2728e-07	8.554e-07	1259	248.48	9.0668e-07	8.4782e-07	293.87	83.57	63.254	18.927	8.5617e-07	26.369	338.343	167.636	175.791	101.534	235.371	322.858	101.511	108.850	165.279	257.346	108.334	115.220	115.519	122.400	186.957	121.638	-8191	255	
6867.658	1	1	0	0	0.27891	0.11732	0.23212	0.12526	0.30565	0.042453	0.068314	0.13385	0.14948	0.19803	0.33831	0.146	0.080245	0.39041	0.19691	0.22925	-2.5563	-2.8937	-3.0917	-3.1167	-2.7417	-3.1333	-2.9833	-3.1562	-3.1813	-2.7875	-3.1792	-2.9188	-2.9479	-2.9833	-2.8271	-3.0187	377.134	273.820	222.383	116.966	405.293	315.740	216.892	94.672	94.933	310.592	447.576	371.501	180.491	389.026	444.544	139.966	0.00071283	9.8536e-05	4.4318e-05	1274.4	3.1576e-06	2.1698e-06	1344	265.41	3.323e-06	1.7928e-06	327.52	90.679	71.508	20.366	2.9608e-06	28.69	8.5267e-05	7.5122e-05	2.1802e-05	1188.1	8.9898e-07	8.1599e-07	1255	248.28	8.8806e-07	8.2553e-07	294.58	83.524	63.384	19.006	9.4366e-07	26.552	346.318	123.157	166.935	101.638	188.081	223.419	101.594	108.825	287.222	362.366	108.574	115.143	115.575	122.029	202.178	121.899	-8191	255	
6867.754	1	1	0	0	0.37262	0.071791	0.12298	0.365	0.37063	0.088829	0.30721	0.10811	0.058398	0.051215	0.19887	0.10767	0.12202	0.22839	0.17148	0.076081	-2.5208	-2.5792	-2.9271	-3.0167	-2.8854	-3.2625	-3.1708	-3.1625	-3.3229	-2.7375	-3.0729	-3.0021	-2.8063	-3.1625	-2.8667	-2.9271	190.021	144.270	418.196	408.835	154.518	221.247	346.431	429.251	288.963	217.810	437.567	378.898	166.360	303.376	395.609	334.068	0.0008704	0.00034095	0.00011596	1273.5	2.3991e-06	2.632e-06	1346.7	265.24	5.2015e-06	3.0121e-06	325.33	90.885	71.411	20.446	2.3187e-06	28.574	8.723e-05	7.9038e-05	2.4108e-05	1190	9.2844e-07	8.5338e-07	1260	248.55	9.264e-07	8.783e-07	295.21	83.695	63.648	19.061	1.0411e-06	26.524	334.779	122.167	143.248	101.689	209.188	233.312	101.729	108.705	233.197	242.744	108.284	115.364	115.262	122.215	200.226	121.484	-8191	255	
6867.875	1	1	0	0	0.12402	0.13509	0.25608	0.15976	0.21481	0.21573	0.12085	0.20099	0.084971	0.14555	0.21781	0.39979	0.1631	0.32693	0.0091454	0.085623	-2.5938	-2.8958	-2.9229	-3	-2.7562	-3.0687	-3.0667	-3.0687	-3.1479	-3.0208	-3.0792	-3.0146	-2.6771	-3.1104	-2.9667	-3.1188	188.408	138.419	402.017	436.814	174.070	440.838	390.777	318.040	301.344	357.207	396.439	95.015	93.151	427.227	170.543	175.984	0.00067928	0.00049674	6.6923e-05	1277.6	8.1624e-07	2.8847e-06	1347.5	265.17	2.8553e-06	1.7952e-06	327.91	90.784	71.754	20.618	3.1143e-06	28.627	9.0179e-05	8.5718e-05	2.7036e-05	1193	9.6591e-07	9.2831e-07	1260.7	248.97	9.5129e-07	9.5571e-07	296.95	83.713	63.869	19.165	1.0792e-06	26.549	345.009	154.306	229.107	101.530	184.260	232.315	101.433	108.585	195.594	229.773	108.586	115.265	115.292	121.873	233.394	121.582	-8191	255	
6867.947	1	1	0	0	0.21358	0.098207	0.12096	0.31955	0.20926	0.13454	0.32148	0.19852	0.076615	0.28275	0.15129	0.11122	0.052256	0.17307	0.13888	0.18234	-2.7521	-2.6521	-3.0146	-3.2729	-3.025	-3.2771	-3.2333	-3.0938	-3.0812	-2.9854	-3.05	-3.1188	-2.9437	-3.2	-2.9729	-2.8479	384.031	240.864	240.579	370.959	351.714	179.382	340.720	426.539	297.041	199.684	352.878	414.225	398.535	102.279	246.704	364.503	0.00066529	0.00034897	0.00011205	1281.8	3.4481e-06	4.7351e-06	1352.4	265.47	4.3194e-06	2.0177e-06	327.91	91.104	72.236	20.622	1.7535e-06	28.596	8.9171e-05	9.1486e-05	2.7401e-05	1196.4	9.5212e-07	9.9681e-07	1267	249.75	9.1877e-07	1.0234e-06	297.4	83.723	63.873	19.229	1.0273e-06	26.526	333.995	129.539	174.273	101.724	228.393	151.436	101.682	108.722	179.109	339.771	108.574	114.982	115.552	122.264	379.281	121.374	-8191	255	
6868.043	1	1	0	0	0.066248	0.58635	0.22576	0.1861	0.062058	0.12708	0.1279	0.29207	0.098354	0.23614	0.21278	0.17193	0.11115	0.096137	0.027435	0.17798	-2.5938	-2.9813	-2.875	-3.275	-2.7521	-3.1229	-3.2188	-2.9646	-3.2479	-2.8917	-2.8604	-3.1292	-2.8521	-3.0146	-2.8771	-2.8375	223.625	152.415	112.433	421.697	372.266	267.687	302.830	444.994	353.197	405.240	388.654	433.388	378.654	145.746	194.594	105.194	0.00075137	0.00031052	4.1473e-05	1280.6	1.6891e-06	1.3483e-06	1356.9	266.42	3.9614e-06	6.4561e-07	327.04	90.741	71.851	20.356	1.7752e-06	28.88	8.6853e-05	9.3584e-05	2.5848e-05	1195.7	9.2953e-07	1.0423e-06	1267	249.92	9.2059e-07	1.0638e-06	296.88	83.847	64	19.244	1.0317e-06	26.662	342.566	181.141	125.765	101.640	200.959	147.367	101.466	108.812	231.428	226.486	108.376	115.461	115.369	122.096	191.456	121.345	-8191	255	
6868.139	1	1	0	0	0.24324	0.065278	0.19438	0.12486	0.22341	0.15218	0.42622	0.094725	0.22395	0.13305	0.14344	0.21473	0.45652	0.20172	0.092739	0.26523	-2.7208	-2.95	-2.8417	-3.3208	-2.9708	-3.1542	-3.2812	-2.7917	-3.2625	-2.7771	-2.9688	-3.1458	-2.9146	-2.9021	-3.0583	-2.6875	314.501	145.394	422.457	104.415	412.112	295.918	420.256	114.257	250.876	352.415	419.865	119.691	149.276	192.849	337.514	129.135	0.00080192	0.00055084	1.7327e-05	1278.8	3.5111e-06	4.8343e-06	1353.9	266.46	2.3104e-06	8.9861e-07	327.9	91.307	71.954	20.439	4.0295e-06	28.861	9.3505e-05	0.00010026	2.645e-05	1197.4	9.9737e-07	1.094e-06	1267.5	249.67	1.0232e-06	1.1106e-06	297.34	83.892	64.295	19.335	1.0665e-06	26.651	324.113	186.846	363.679	101.505	221.624	117.841	101.268	108.574	428.283	222.238	108.122	114.947	115.426	122.057	128.017	121.719	-8191	255	
6868.258	1	1	0	0	0.12159	0.16256	0.22565	0.22402	0.16285	0.15383	0.22272	0.17965	0.21597	0.076416	0.18308	0.31632	0.22501	0.11858	0.20207	0.048106	-2.7604	-2.7354	-2.7167	-3.2125	-2.8229	-2.9854	-3.1688	-2.8	-3.0563	-3.0104	-2.8729	-3.4292	-2.7687	-3.0187	-3.0146	-2.9375	112.189	183.806	197.648	378.520	138.477	416.917	380.216	358.436	113.180	145.721	446.658	422.115	388.916	313.207	233.616	340.130	0.00077174	0.00042073	1.539e-05	1283	3.5158e-06	2.9818e-06	1354.3	266.68	2.8927e-06	1.4138e-06	328.8	90.976	71.821	20.539	4.2565e-07	28.662	0.00010127	0.00010296	2.6864e-05	1197.6	1.0894e-06	1.1188e-06	1267.7	250.05	1.0841e-06	1.087e-06	297.11	83.863	64.428	19.321	1.0096e-06	26.594	337.660	171.260	97.591	101.577	167.857	251.960	101.372	108.820	217.309	331.961	108.245	115.190	115.491	122.311	299.286	121.136	-8191	255	
6868.354	1	1	0	0	0.26156	0.26083	0.12615	0.067505	0.2464	0.11365	0.14173	0.22059	0.016299	0.21696	0.074522	0.10405	0.22309	0.23596	0.09623	0.27593	-2.5667	-2.9042	-2.8521	-3.2	-3.025	-3.1042	-3.2354	-2.8688	-2.9688	-2.8438	-2.9979	-3.0687	-2.7958	-2.9625	-3.0542	-2.8458	251.110	159.461	111.867	322.563	260.453	236.014	427.666	346.004	305.716	210.588	373.698	395.052	383.833	384.091	405.842	151.637	0.00085028	0.00010026	4.1117e-05	1282.1	1.6004e-06	1.0733e-06	1356.9	266.94	3.958e-06	2.5818e-06	327.74	91.118	72.092	20.61	1.7846e-06	28.513	0.0001043	9.5705e-05	2.5249e-05	1196.5	1.1068e-06	1.0575e-06	1265.7	250.04	1.0954e-06	1.0424e-06	296.34	83.989	64.444	19.257	9.517e-07	26.575	329.129	226.891	123.113	101.499	200.428	338.640	101.571	108.769	184.533	159.442	108.361	115.161	115.455	122.262	234.777	121.919	-8191	255	
6868.450	1	1	0	0	0.1068	0.19459	0.25742	0.19293	0.076655	0.24421	0.37717	0.089855	0.42266	0.2463	0.30595	0.15679	0.063212	0.28646	0.21053	0.2382	-2.5375	-2.8417	-2.75	-3.1979	-2.8875	-2.9813	-3.3292	-3.0062	-3.025	-3.0875	-2.9271	-3.1875	-3.0521	-2.9146	-3.1937	-2.8833	318.617	411.675	94.482	430.847	107.431	419.674	406.861	283.108	435.780	134.061	413.381	362.852	157.952	138.639	315.534	422.508	0.00080695	0.00013623	2.2806e-05	1281	4.6931e-06	2.384e-06	1349.7	266.6	2.5984e-06	1.1556e-06	327.74	90.978	71.92	20.455	1.3175e-06	28.588	0.00010429	9.1319e-05	2.3863e-05	1196.1	1.09e-06	9.9967e-07	1263.2	249.92	1.0703e-06	9.6883e-07	295.32	83.703	64.138	19.138	9.1075e-07	26.583	332.012	435.637	174.936	101.325	254.322	180.508	101.434	108.716	112.222	448.489	108.368	115.503	115.465	121.924	291.804	121.090	-8191	255	
6868.523	1	1	0	0	0.20725	0.10799	0.25882	0.29231	0.22429	0.027692	0.17096	0.31322	0.17449	0.16269	0.26017	0.18713	0.088873	0.092539	0.089621	0.12024	-2.5083	-3.1146	-2.7438	-3.4292	-3.1063	-2.9479	-3.3063	-3.0187	-2.9833	-3.1083	-2.9437	-3.0458	-2.9917	-2.8187	-3.1688	-2.8937	183.569	423.728	324.476	102.797	246.386	241.305	357.016	387.528	120.174	368.872	403.509	155.113	200.718	383.317	367.289	324.187	0.00063653	0.00020003	5.387e-05	1275.3	8.1981e-07	2.8478e-06	1349.6	265.98	2.922e-06	1.3643e-06	327.78	90.801	71.834	20.411	1.998e-06	28.439	0.00010142	8.8939e-05	2.3147e-05	1193.4	1.0717e-06	9.7827e-07	1260.4	249.95	1.0688e-06	9.7388e-07	295.59	84	64.071	19.131	9.3678e-07	26.619	329.352	179.753	165.557	101.580	140.481	92.842	101.379	108.708	161.630	275.210	108.465	114.897	115.533	121.912	189.901	121.477	-8191	255	
6868.642	1	1	0	0	0.17352	0.14294	0.23003	0.20515	0.19385	0.18093	0.21165	0.068641	0.18198	0.044223	0.11611	0.15829	0.14139	0.11948	0.10429	0.11509	-2.5833	-3.1708	-2.7729	-3.2333	-2.8542	-2.8729	-3.2375	-3.0104	-2.8167	-3.2667	-3.0042	-3.0333	-3.1583	-2.9167	-3.0938	-2.8417	299.681	388.859	224.615	436.774	424.393	441.935	136.709	91.487	271.666	436.325	346.159	412.034	426.754	376.191	243.690	176.921	0.00076768	0.00023783	9.6319e-05	1271.6	8.6378e-07	3.1325e-06	1346.4	266.26	2.4323e-06	6.1395e-07	326.47	90.804	72.117	20.41	2.6257e-06	28.445	0.00010303	8.9742e-05	2.4612e-05	1192.8	1.0888e-06	1.0093e-06	1261	250.38	1.0957e-06	9.941e-07	295.78	84.319	64.291	19.184	1.0408e-06	26.732	337.382	190.838	185.082	101.625	263.251	443.323	101.443	108.662	189.421	317.896	108.392	115.188	115.537	122.158	180.533	121.458	-8191	255	
6868.739	1	1	0	0	0.29901	0.13691	0.086263	0.26587	0.017339	0.16771	0.2352	0.25912	0.079589	0.058195	0.090842	0.26417	0.22994	0.15381	0.26049	0.022805	-2.3729	-2.9208	-2.7521	-3.05	-3.0375	-2.8229	-3.2958	-3.0958	-2.9396	-3.1208	-2.8583	-3.075	-3.1688	-2.9333	-3.0771	-2.9667	352.702	341.336	349.127	411.734	383.756	206.958	403.744	384.988	375.402	308.384	415.646	409.893	432.410	436.897	271.091	439.244	0.00071464	0.00010921	9.1626e-05	1276.8	2.8073e-06	3.2938e-06	1351.6	266.68	1.3261e-06	2.8887e-06	328.2	90.763	72.327	20.547	1.1663e-06	28.576	0.00010185	9.0612e-05	2.6982e-05	1197.3	1.084e-06	1.0109e-06	1264.2	250.98	1.1255e-06	1.0171e-06	297.51	84.597	64.601	19.324	1.1914e-06	26.886	334.745	383.863	189.294	101.562	224.233	242.864	101.669	108.845	187.779	158.126	108.400	114.994	115.543	122.119	189.119	121.444	-8191	255	
6868.835	1	1	0	0	0.15253	0.23999	0.32403	0.28277	0.097916	0.12424	0.22006	0.30797	0.071882	0.18585	0.28817	0.13563	0.19651	0.061594	0.11662	0.10837	-2.3354	-3.1917	-3.0062	-3.1688	-3.1771	-2.8271	-3.3312	-3.2333	-3.1063	-3.0771	-2.9188	-3.0521	-3.175	-2.7062	-2.9833	-2.9562	312.153	258.428	349.352	405.515	246.268	256.308	386.053	160.204	111.228	136.823	416.028	446.792	365.100	356.098	119.294	400.549	0.0007547	0.00013649	5.5592e-05	1282.2	2.5589e-06	2.0119e-06	1355.9	266.92	4.724e-06	3.5537e-06	327.48	91.134	72.14	20.526	4.9848e-06	28.867	0.00010942	9.7034e-05	3.067e-05	1201.3	1.1559e-06	1.0927e-06	1271.3	251.84	1.1452e-06	1.0556e-06	298.98	84.575	64.535	19.269	1.1966e-06	26.781	342.921	447.883	173.705	101.420	245.808	233.533	101.528	108.678	198.592	219.550	108.131	115.209	115.533	121.879	128.016	121.371	-8191	255	
6868.955	1	1	0	0	0.098647	0.23281	0.28855	0.21967	0.22904	0.2263	0.12791	0.084033	0.22455	0.26935	0.1549	0.065132	0.26387	0.2361	0.26989	0.11845	-2.4688	-3.2	-2.7562	-3.0062	-3.2083	-2.8208	-3.2188	-3.1458	-2.8146	-3.1208	-3.0938	-2.9646	-3.2083	-2.8438	-3.15	-3.1458	184.827	385.071	449.712	406.292	319.362	153.294	358.709	439.853	441.200	405.681	251.365	111.606	161.106	407.895	189.068	340.874	0.00077602	0.00022345	6.7721e-05	1281.4	3.1268e-07	4.1693e-06	1353.4	266.48	4.6248e-06	4.1328e-06	329.68	91.462	72.301	20.717	2.3176e-06	28.841	0.00010175	9.425e-05	2.9668e-05	1198.1	1.0328e-06	1.0405e-06	1268.4	250.71	1.0578e-06	1.0428e-06	299.39	84.556	64.384	19.311	1.2075e-06	26.844	328.342	426.224	223.395	101.622	282.153	211.023	101.580	108.555	203.204	229.169	108.601	115.154	115.272	122.220	218.631	121.353	-8191	255	
6869.051	1	1	0	0	0.04774	0.20089	0.17587	0.12016	0.10135	0.18971	0.0063676	0.17578	0.089627	0.083096	0.21422	0.28238	0.2968	0.17722	0.14949	0.036776	-2.2625	-3.0604	-2.7375	-2.8833	-3.1792	-2.9292	-3.1333	-3.1437	-2.775	-3.1542	-2.9833	-2.8583	-3.0917	-2.8479	-3.0687	-3.15	188.758	158.807	448.267	414.293	201.129	343.492	408.738	113.242	126.271	374.507	379.136	443.120	224.987	321.879	225.069	424.751	0.00066337	0.00059364	3.4837e-05	1282.8	4.9038e-06	4.5217e-06	1353.5	267.19	1.6828e-06	4.8815e-06	329.12	91.439	71.794	20.529	2.0043e-06	28.636	0.00010196	0.00010225	3.1423e-05	1200.6	1.0599e-06	1.1375e-06	1270	251.21	1.0629e-06	1.149e-06	298.64	84.555	64.368	19.417	1.1907e-06	26.717	339.055	153.929	212.886	101.460	247.206	186.196	101.682	109.051	109.965	211.354	108.383	114.988	115.307	122.133	247.568	121.269	-8191	255	
6869.123	1	1	0	0	0.19164	0.10138	0.069529	0.0084994	0.10732	0.31741	0.16205	0.53019	0.21438	0.040481	0.22046	0.24396	0.26097	0.14687	0.15798	0.25694	-2.3812	-3.1437	-3.0208	-2.9958	-3.0771	-3.025	-3.1208	-2.8771	-2.9146	-3.3438	-3.0875	-2.9146	-3.1625	-3.0042	-3.0646	-3.1458	279.984	221.935	347.618	96.982	420.770	297.807	333.293	403.086	321.279	180.624	376.155	422.507	441.499	391.262	312.739	356.164	0.00085134	0.00015816	5.7911e-05	1277.2	4.9414e-06	4.0206e-06	1354.7	269.29	7.3883e-06	2.4721e-06	329.17	91.082	72.301	20.42	1.4994e-06	28.762	9.9345e-05	0.00010548	2.9291e-05	1197.9	1.0382e-06	1.1763e-06	1270.6	251.95	1.0528e-06	1.1878e-06	298.64	84.508	64.649	19.446	1.1531e-06	26.733	341.139	446.171	193.814	101.389	202.674	149.780	101.571	108.722	218.896	246.503	108.134	115.233	115.601	122.176	225.509	121.563	-8191	255	
6869.244	1	1	0	0	0.2635	0.46576	0.13129	0.15821	0.20696	0.073262	0.1455	0.12863	0.0596	0.22894	0.16291	0.038146	0.16251	0.074113	0.20314	0.25108	-2.3583	-3.0938	-3.0625	-3.0396	-3.1146	-3.0208	-3.0125	-3.2875	-2.9958	-3.2479	-3.2229	-3.0521	-3.2042	-2.7854	-3.0146	-3.1271	170.531	258.223	346.793	399.581	135.727	155.199	423.910	429.891	287.958	288.327	434.199	444.022	392.080	429.954	289.693	194.018	0.00072241	8.1377e-05	7.6569e-05	1283.7	2.3716e-06	5.4662e-06	1356.4	267.86	6.7785e-06	3.8854e-06	328.77	90.912	72.132	20.55	2.5141e-06	28.682	0.00010332	0.0001103	2.8979e-05	1199.9	1.0989e-06	1.218e-06	1269	251.77	1.1428e-06	1.2437e-06	298.63	84.505	64.669	19.437	1.1426e-06	26.757	318.563	359.372	170.810	101.600	205.206	111.388	101.588	108.871	208.631	297.743	108.243	115.295	115.240	122.123	218.543	121.372	-8191	255	
6869.338	1	1	0	0	0.1358	0.12566	0.21818	0.13482	0.14006	0.2418	0.15441	0.34275	0.13389	0.12941	0.24258	0.32449	0.083649	0.17618	0.13112	0.17277	-2.3875	-3.0375	-3.05	-3.1292	-3.3896	-2.9854	-2.9979	-3.3375	-2.8833	-3.0938	-3.0729	-2.8812	-3.2562	-3.1063	-3.0292	-3.2687	429.143	154.173	327.809	371.915	425.709	221.875	93.569	363.276	235.362	214.940	428.622	389.535	128.164	120.591	408.253	381.208	0.00080335	0.00034163	6.4705e-05	1278.9	3.6516e-06	4.7297e-06	1361.9	268.93	4.5628e-06	3.1922e-06	329.54	91.698	72.569	20.463	1.7573e-06	28.908	0.00010928	0.00011202	2.8459e-05	1199.7	1.1828e-06	1.2268e-06	1273.2	252.1	1.2205e-06	1.226e-06	299.24	84.678	65.116	19.441	1.1503e-06	26.77	331.032	93.280	158.271	101.473	184.435	197.363	101.464	108.824	163.587	223.696	108.175	115.359	115.514	122.060	163.311	121.558	-8191	255	
6869.434	1	1	0	0	0.25773	0.058593	0.26413	0.21224	0.087151	0.14105	0.1212	0.10582	0.25795	0.096653	0.25296	0.024629	0.063764	0.11619	0.10664	0.23506	-2.4958	-2.9646	-3.2667	-2.9229	-3.0125	-2.9854	-2.8625	-3.3958	-2.9792	-2.9146	-3.0979	-2.8208	-3.0417	-3.0646	-2.8292	-3.2354	392.877	136.522	96.949	98.379	276.689	348.567	407.518	443.905	155.090	407.371	450.144	394.098	367.598	157.939	144.574	174.443	0.00074007	0.00023287	1.4942e-05	1278.2	3.6532e-06	2.1857e-06	1359.6	267.88	3.3062e-06	1.6471e-06	329.45	91.499	72.081	20.646	1.0778e-06	28.715	0.00011505	0.00010833	2.7707e-05	1198.5	1.2203e-06	1.1609e-06	1272	251.63	1.2149e-06	1.1445e-06	298.43	84.712	65.02	19.443	1.0961e-06	26.804	327.492	145.924	151.725	101.679	260.556	160.575	101.603	108.616	207.555	287.427	108.099	115.041	115.524	121.936	165.358	121.706	-8191	255	
6869.555	1	1	0	0	0.2111	0.011443	0.1183	0.13732	0.18366	0.10485	0.13852	0.17698	0.086416	0.15839	0.11909	0.20543	0.078271	0.069226	0.063465	0.14106	-2.4396	-3.0229	-3.2167	-2.9938	-3.0542	-3.0521	-2.9667	-3.2583	-2.9667	-2.8812	-3.3417	-3.0729	-3.1125	-3.125	-2.7021	-3.2125	120.131	402.830	153.312	417.845	329.664	127.829	114.559	421.095	233.632	138.323	241.657	365.620	106.043	369.796	241.104	334.167	0.00067938	0.00040294	3.7951e-05	1284.9	3.8045e-06	3.32e-06	1358.7	268.34	3.5126e-06	1.1563e-06	327.77	91.406	72.836	20.602	2.7714e-06	28.828	0.00011876	0.00010771	2.7782e-05	1202.1	1.2741e-06	1.1697e-06	1272.1	252.63	1.2842e-06	1.1673e-06	298.78	84.764	65.322	19.455	1.0945e-06	26.901	341.844	223.892	95.581	101.486	259.826	205.500	101.540	108.724	142.586	137.205	108.364	114.949	115.704	122.003	213.039	121.734	-8191	255	
6869.651	1	1	0	0	0.070686	0.13639	0.13339	0.25254	0.036403	0.28895	0.17673	0.2363	0.1875	0.084659	0.1394	0.1017	0.29011	0.099364	0.15872	0.2919	-2.4521	-2.7167	-3.1042	-2.9958	-3.0396	-3.1771	-3.0396	-3.0229	-2.9417	-2.9229	-3.0458	-2.9646	-3.1	-3.0875	-2.9354	-3.1875	315.785	357.076	266.916	117.002	346.089	147.126	421.820	117.496	125.402	441.011	436.684	93.511	320.954	313.562	132.770	273.694	0.00096913	1.9516e-05	5.835e-05	1285.2	4.8494e-06	1.8646e-06	1365.6	269.76	4.1044e-06	2.4686e-06	329.29	91.383	72.409	20.647	2.0666e-06	28.681	0.000117	0.00010447	2.7139e-05	1203.8	1.2363e-06	1.1209e-06	1272.5	253.36	1.2093e-06	1.1134e-06	298.83	84.795	65.063	19.35	1.0577e-06	26.883	339.531	372.138	445.115	101.619	230.576	236.679	101.801	108.696	176.269	240.135	108.231	115.086	115.439	122.083	208.857	121.382	-8191	255	
6869.747	1	1	0	0	0.062763	0.10847	0.19894	0.15186	0.086816	0.17373	0.18601	0.22005	0.046762	0.37464	0.25144	0.11645	0.10644	0.14425	0.32219	0.13838	-2.5917	-2.7979	-3.1604	-3.0083	-3.0208	-3.1208	-2.9354	-3.0375	-2.9354	-2.8979	-2.9917	-2.8604	-2.8187	-3.2292	-2.7625	-2.9979	329.810	374.117	103.960	399.927	410.740	422.798	422.125	382.671	379.127	116.950	442.843	167.399	400.671	202.889	246.804	192.181	0.00079086	0.00046704	4.7351e-05	1285.3	1.2914e-06	5.0768e-06	1357.1	267.62	5.3223e-06	2.2589e-06	329.06	91.154	72.256	20.712	2.1787e-06	28.735	0.0001117	0.00010008	2.658e-05	1203.4	1.1759e-06	1.0637e-06	1271.1	252.73	1.1653e-06	1.0714e-06	298.93	84.885	64.86	19.374	1.0826e-06	26.891	340.777	165.341	174.476	101.528	189.017	228.618	101.676	108.735	228.385	268.181	108.499	115.250	115.667	121.923	197.898	121.411	-8191	255	
6869.819	1	1	0	0	0.17684	0.27854	0.15586	0.14044	0.20967	0.14958	0.33431	0.2267	0.044974	0.16552	0.10297	0.1897	0.15381	0.073684	0.10466	0.22421	-2.4646	-2.9125	-3.1729	-2.8937	-2.9208	-3.2687	-2.9729	-3.2167	-3.05	-2.7875	-3.2896	-2.7208	-2.9417	-3.2229	-3.0438	-3.0146	264.226	258.331	409.621	338.309	211.179	318.726	393.461	444.844	209.041	280.303	133.140	222.214	191.263	342.516	254.430	140.135	0.00074355	0.00045313	0.00012412	1284.1	1.777e-06	1.4033e-06	1358.2	268.33	4.6526e-06	4.9341e-06	328.5	91.337	71.943	20.491	1.5147e-06	28.766	0.00010669	9.4282e-05	2.7162e-05	1203.4	1.1091e-06	1.0123e-06	1267.6	252.19	1.0853e-06	1.0102e-06	298.31	84.639	64.502	19.223	1.1112e-06	26.868	331.335	228.961	153.368	101.547	214.227	167.475	101.578	108.902	226.357	222.116	108.313	115.085	115.717	122.122	438.482	121.108	-8191	255	
6869.915	1	1	0	0	0.074083	0.28837	0.13428	0.1467	0.22452	0.11469	0.16511	0.12611	0.28673	0.07056	0.045239	0.21156	0.16552	0.099755	0.00741	0.23755	-2.7354	-2.7458	-3.1417	-2.8312	-2.8875	-3.1458	-3.0312	-3.1417	-3.2292	-2.8479	-3.1417	-2.9958	-2.8667	-3.1437	-2.9437	-2.9667	319.272	182.526	394.849	94.217	398.573	406.195	140.813	298.164	429.139	146.389	308.566	104.129	391.936	289.102	386.475	365.499	0.00066319	9.9974e-05	0.00011034	1278.9	4.2746e-06	3.299e-06	1352.1	267.49	8.3712e-07	2.5753e-06	329.15	91.299	71.911	20.539	1.6637e-06	28.596	0.00010073	9.1245e-05	2.8081e-05	1197.5	1.0751e-06	9.7555e-07	1266.2	251.74	1.0533e-06	9.9904e-07	298.44	84.549	64.241	19.219	1.1355e-06	26.754	334.585	151.513	163.804	101.656	206.184	192.903	101.710	108.829	410.909	227.705	108.264	114.958	115.745	122.092	141.974	121.248	-8191	255	
6870.036	1	1	0	0	0.032075	0.23191	0.17815	0.085097	0.07221	0.17684	0.26954	0.089054	0.11942	0.13284	0.04623	0.090173	0.061458	0.15541	0.37413	0.016031	-2.6854	-2.6667	-3.1708	-3.1021	-2.925	-3.2896	-3.0229	-3.0146	-3.225	-2.8021	-3.0583	-3.0563	-2.7583	-3.2229	-2.9875	-3.0167	217.182	245.385	226.970	400.629	184.629	94.734	364.047	353.893	340.353	262.008	247.736	366.390	204.660	342.011	153.213	304.092	0.00075038	0.00051733	6.7613e-05	1273.7	2.3725e-06	4.0369e-07	1345.5	267.14	5.4379e-06	4.2115e-06	328.21	91.303	72.229	20.465	4.124e-06	28.73	9.7993e-05	9.2665e-05	2.9456e-05	1193.6	1.0643e-06	1.0294e-06	1264.4	251.58	1.0394e-06	1.0568e-06	299.06	84.461	64.357	19.294	1.1916e-06	26.777	333.917	158.027	156.140	101.700	443.334	418.072	101.632	108.805	204.230	272.003	108.295	115.220	115.614	121.890	183.210	121.635	-8191	255	
6870.132	1	1	0	0	0.11656	0.080992	0.092597	0.21266	0.27105	0.11843	0.27658	0.34908	0.27307	0.21021	0.21636	0.27575	0.10463	0.1335	0.12403	0.27225	-2.7521	-2.7958	-3.0542	-3.1979	-2.7458	-3.05	-2.9792	-2.9729	-3.1104	-2.8271	-3.2396	-3.0604	-2.6333	-2.9125	-2.9021	-3.1083	172.541	164.281	114.395	101.090	399.000	197.994	370.587	401.526	214.496	199.875	425.852	214.647	379.014	320.262	412.537	310.798	0.00077716	0.00042704	7.4002e-05	1276.2	1.2514e-06	3.1561e-06	1351	266.92	4.4578e-06	3.0336e-06	328.99	91.458	71.58	20.605	5.918e-07	28.671	9.8236e-05	9.8424e-05	2.9844e-05	1194.9	1.029e-06	1.0847e-06	1266.5	251.27	1.0169e-06	1.1083e-06	299.06	84.452	64.122	19.317	1.1564e-06	26.691	342.597	127.011	259.560	101.488	288.507	212.896	101.438	108.810	184.012	238.570	108.064	115.085	115.672	122.027	250.020	121.207	-8191	255	
6870.228	1	1	0	0	0.23607	0.26789	0.16114	0.17201	0.15397	0.099191	0.24093	0.016038	0.12196	0.24041	0.16825	0.10362	0.3546	0.10022	0.17296	0.2676	-2.6813	-2.8812	-2.9479	-3.3042	-2.8354	-3.1208	-3.1542	-3.1083	-3.1917	-2.8417	-3.1417	-3.1667	-2.8646	-3.1271	-2.9813	-2.8729	107.590	167.521	446.572	118.107	197.405	271.391	396.462	269.665	438.734	229.902	252.599	356.947	428.303	158.425	383.298	399.029	0.00074347	0.00045607	7.4127e-05	1275.3	1.9177e-06	4.0138e-06	1351.7	266.76	5.174e-06	2.5348e-06	328.8	91.316	72.46	20.417	7.6948e-07	28.72	9.5892e-05	0.00010425	2.8893e-05	1195	1.0452e-06	1.15e-06	1268	251.43	1.0315e-06	1.173e-06	298.6	84.465	64.373	19.361	1.1266e-06	26.74	341.778	172.789	236.558	101.576	211.004	192.105	101.760	108.816	250.577	253.521	108.277	115.202	115.397	121.921	262.743	121.160	-8191	255	
6870.347	1	1	0	0	0.018531	0.09866	0.10172	0.2932	0.16669	0.12073	0.35387	0.28061	0.11152	0.10262	0.17965	0.14423	0.33388	0.20188	0.16776	0.12616	-2.6979	-2.8896	-2.9208	-3.3354	-2.7354	-3.2229	-3.1	-3.1604	-3.2479	-3.0958	-2.9313	-3.1437	-2.9437	-3.1146	-2.9521	-2.8354	286.610	429.202	104.832	128.174	425.800	372.697	400.791	98.965	391.190	208.486	414.802	354.104	386.505	116.807	134.568	183.765	0.0007533	0.00030816	7.5497e-05	1280	2.6041e-06	1.3028e-06	1351	267.77	3.3202e-06	8.3148e-07	330.25	91.222	72.545	20.565	2.2669e-06	28.794	9.984e-05	0.00010943	2.8402e-05	1195.2	1.0842e-06	1.1935e-06	1264.9	251.35	1.1034e-06	1.208e-06	298.6	84.374	64.745	19.468	1.1415e-06	26.773	330.468	144.816	144.415	101.609	207.027	217.911	101.561	108.747	196.047	157.674	108.298	115.147	115.544	122.387	175.389	121.054	-8191	255	
6870.419	1	1	0	0	0.11217	0.29357	0.15881	0.020883	0.33034	0.023348	0.078897	0.061074	0.16108	0.15821	0.061319	0.16846	0.074348	0.14798	0.048898	0.30176	-2.7625	-3.0042	-2.8	-3.2958	-2.7687	-3.0646	-3.2479	-2.8104	-3.0812	-2.8708	-3.0354	-3.1875	-2.9417	-3.0604	-3.0583	-2.8688	426.431	127.311	196.373	213.125	268.154	264.405	178.409	258.632	413.011	265.376	440.479	305.468	164.991	376.551	326.311	352.880	0.00080362	0.0001526	4.1949e-05	1280.8	3.2342e-06	1.8129e-06	1352.5	268.34	3.7313e-06	1.1803e-06	329.84	91.185	71.732	20.598	1.5689e-06	28.854	0.0001099	0.00011177	2.9036e-05	1197.4	1.1843e-06	1.2185e-06	1267.9	252.06	1.1834e-06	1.2206e-06	299.5	84.433	64.732	19.389	1.098e-06	26.785	338.448	264.770	193.167	101.788	200.233	242.432	101.351	108.697	166.029	287.503	108.354	115.102	115.600	122.215	210.928	121.746	-8191	255	
6870.516	1	1	0	0	0.16373	0.21757	0.13923	0.11642	0.21411	0.17691	0.47955	0.18916	0.2357	0.064763	0.18294	0.14537	0.45086	0.18796	0.22549	0.20318	-2.7917	-2.9833	-2.9708	-3.3479	-2.9521	-3.0521	-3.2687	-2.9813	-3.1042	-3.0979	-2.9833	-3.2292	-2.8521	-2.8729	-3.1937	-2.9604	230.471	325.874	255.973	380.018	343.509	367.523	378.496	366.335	271.638	307.964	421.210	361.949	126.386	158.485	206.196	417.093	0.00076689	0.00026916	9.242e-05	1275	2.0324e-06	2.602e-06	1349.6	267.61	4.5408e-06	2.843e-06	328.57	91.598	72.105	20.444	1.7757e-06	28.618	0.00011102	0.00010573	2.7345e-05	1193.9	1.1801e-06	1.142e-06	1264.1	251.15	1.2074e-06	1.1487e-06	298.45	84.325	64.802	19.315	1.0915e-06	26.727	340.358	130.366	214.663	101.334	226.093	235.368	101.621	108.786	221.764	229.060	108.157	115.242	115.434	122.287	160.992	121.327	-8191	255	
6870.635	1	1	0	0	0.18336	0.1956	0.10803	0.15782	0.20243	0.16184	0.12898	0.13874	0.076733	0.24244	0.17372	0.26608	0.18748	0.08996	0.12997	0.084171	-2.6354	-3.1083	-2.75	-3.2958	-2.9792	-3.0625	-3.5708	-3.0729	-3.1729	-3.1542	-2.8396	-3.225	-2.9229	-2.975	-3.1896	-2.925	146.919	194.681	450.392	363.163	396.317	96.198	442.842	94.580	315.592	436.702	368.242	99.264	420.450	125.400	174.050	382.236	0.00060357	0.00028967	3.179e-05	1277.2	2.9952e-06	1.6342e-06	1355.3	267.87	3.5432e-06	1.3058e-06	327.51	91.177	72.231	20.496	1.0184e-06	28.794	0.00012199	0.00010806	2.8712e-05	1196.9	1.3148e-06	1.2105e-06	1267.1	251.97	1.3439e-06	1.213e-06	298.49	84.912	65.304	19.476	1.1593e-06	27.028	333.597	433.471	292.178	101.526	213.023	265.421	101.476	108.858	215.604	163.541	108.140	115.297	115.364	122.047	267.185	121.089	-8191	255	
6870.731	1	1	0	0	0.133	0.34679	0.04023	0.22369	0.077692	0.14903	0.23074	0.2719	0.12901	0.17006	0.11673	0.11979	0.32316	0.12212	0.068674	0.3515	-2.5375	-3.075	-2.825	-3.2021	-2.9333	-2.9021	-3.2708	-2.9479	-3.0104	-3.0917	-3.0021	-3.275	-3.0208	-2.8063	-3.1646	-2.9396	214.010	142.980	215.782	374.528	196.949	148.809	407.365	362.621	424.091	241.674	264.218	165.101	358.761	406.169	111.941	271.959	0.00073231	0.00017057	8.8019e-05	1280.8	3.1068e-06	1.8137e-07	1354.6	267.77	6.4708e-06	1.7168e-06	328.62	91.587	72.383	20.559	3.2777e-06	28.615	0.00012638	0.00011249	2.9103e-05	1201.5	1.3205e-06	1.2138e-06	1267.3	253.01	1.2921e-06	1.1943e-06	298.56	84.989	65.069	19.397	1.1203e-06	26.975	334.654	162.944	186.589	101.636	211.649	446.608	101.550	108.666	196.498	189.554	107.972	115.189	115.626	122.467	230.832	121.551	-8191	255	
6870.828	1	1	0	0	0.23028	0.17664	0.096143	0.3534	0.12456	0.18328	0.11394	0.12925	0.27465	0.17391	0.34178	0.23381	0.076085	0.1388	0.21573	0.042018	-2.5229	-3.0729	-2.8729	-3.0375	-3.0229	-2.9146	-3.2167	-2.9292	-3.0021	-3.2229	-2.9208	-3.1083	-3.1333	-2.8333	-3.1479	-2.9021	381.165	422.887	294.586	440.261	140.164	265.569	387.114	406.916	98.444	189.025	373.254	407.563	378.342	128.316	185.413	386.716	0.00083047	0.00016411	7.329e-05	1281.6	1.166e-06	1.7695e-06	1355.6	268.57	3.5894e-06	2.0293e-06	329.9	91.042	72.182	20.326	4.1554e-06	28.791	0.00011778	0.00010381	2.8275e-05	1200.6	1.2223e-06	1.1336e-06	1267.6	252.9	1.2192e-06	1.1076e-06	299.04	84.722	64.687	19.272	1.1085e-06	26.894	340.243	111.081	235.921	101.328	222.339	154.059	101.456	108.586	250.010	249.031	108.236	114.943	115.553	122.201	159.468	120.952	-8191	255	
6870.924	1	1	0	0	0.15214	0.090099	0.25432	0.067974	0.036616	0.05709	0.070006	0.13187	0.073782	0.2258	0.22369	0.082377	0.37205	0.23982	0.063629	0.21969	-2.4313	-3.0229	-2.7542	-3.1813	-2.9271	-2.8563	-3.4479	-3.1125	-2.9271	-3.075	-2.9396	-3.1146	-3.0833	-2.7917	-3.2062	-3.0417	346.569	417.775	148.968	299.737	339.064	127.138	409.064	354.740	434.567	208.865	332.711	429.827	101.484	120.781	137.894	344.612	0.00070592	0.00020042	4.8916e-05	1276.2	1.4517e-06	1.7567e-06	1347.2	267.03	2.361e-06	2.7744e-06	328.48	91.286	72.539	20.321	4.2588e-06	28.44	0.00011001	9.739e-05	2.8268e-05	1197.1	1.1395e-06	1.0572e-06	1265.2	251.95	1.13e-06	1.0209e-06	298.82	84.482	64.486	19.184	1.1265e-06	26.756	334.363	192.804	141.788	101.594	153.256	270.939	101.484	108.789	260.424	446.191	108.001	115.195	115.494	122.108	173.319	121.720	-8191	255	
6871.044	1	1	0	0	0.24685	0.16827	0.015634	0.33923	0.098431	0.22342	0.23361	0.050188	0.069403	0.19361	0.19671	0.19531	0.11321	0.13779	0.10841	0.074025	-2.475	-3.0354	-2.9354	-3.1083	-3.1792	-2.7521	-3.2271	-3.2062	-3.0687	-3.3292	-2.8021	-3.0563	-3.0896	-2.8958	-3.1292	-2.9813	137.489	351.317	379.520	391.120	126.881	101.450	396.778	322.709	135.644	348.503	432.496	111.248	214.376	420.279	176.506	413.779	0.0007088	9.8462e-05	6.6771e-05	1282	1.0478e-06	3.3331e-06	1354.2	268.25	3.7206e-06	6.6995e-07	328.04	91.164	72.406	20.601	7.1942e-07	28.507	0.00010548	9.3025e-05	2.9081e-05	1197	1.106e-06	1.0174e-06	1266.1	251.54	1.0885e-06	1.0155e-06	298.6	84.393	64.532	19.218	1.1709e-06	26.776	336.048	105.550	160.293	101.563	245.862	199.375	101.594	108.658	255.116	208.317	108.381	115.103	115.450	122.268	143.926	121.392	-8191	255	
6871.116	1	1	0	0	0.16011	0.18243	0.19091	0.21124	0.11266	0.31056	0.28398	0.15096	0.1113	0.18628	0.26407	0.14788	0.087628	0.26698	0.18964	0.26229	-2.225	-3.0333	-3.0812	-3.1542	-3.0729	-2.9437	-3.4938	-3.1063	-3.0375	-3.1437	-2.8083	-3.1792	-3.1521	-2.9708	-3.1583	-3.1021	335.788	210.333	337.900	388.759	399.054	398.560	406.474	425.481	346.645	102.864	367.805	320.158	221.469	107.554	352.292	410.314	0.00073464	0.0002419	7.4515e-05	1275.4	2.5682e-06	3.4355e-06	1357.7	266.62	6.3213e-06	2.5876e-06	329.01	90.932	71.706	20.4	3.6061e-06	28.672	0.00010255	9.3118e-05	2.9949e-05	1195.2	1.0365e-06	1.0278e-06	1268	251.14	1.0464e-06	1.0321e-06	298.94	84.24	64.196	19.247	1.1725e-06	26.752	335.643	408.166	204.026	101.502	427.195	204.764	101.606	108.732	231.268	205.271	108.211	115.228	115.356	121.994	110.491	121.631	-8191	255	
6871.212	1	1	0	0	0.12474	0.27478	0.17108	0.084475	0.13671	0.045902	0.10982	0.19263	0.22247	0.048039	0.15786	0.21498	0.11563	0.21437	0.18377	0.14306	-2.3812	-3.0563	-3.0208	-3.1437	-3.1562	-2.8417	-3.2188	-3.1271	-2.8479	-3.1042	-3.0083	-3.025	-3.3021	-2.8063	-3.0208	-3.1458	154.339	359.800	347.740	228.721	339.300	345.378	339.762	397.689	360.337	171.568	374.376	130.730	284.372	339.343	322.791	425.922	0.00068889	0.00021157	0.00010684	1275.1	3.2967e-06	1.6888e-06	1350.3	266.8	1.2585e-06	2.0525e-06	329.3	91.024	72.508	20.565	4.3513e-07	28.727	9.9407e-05	9.8897e-05	3.0494e-05	1194	1.0503e-06	1.1128e-06	1264.7	251.1	1.0399e-06	1.1281e-06	299.74	84.414	64.312	19.35	1.1676e-06	26.7	332.536	120.665	227.148	101.519	218.697	126.959	101.513	108.551	248.491	122.842	108.159	115.230	115.522	121.874	246.382	121.072	-8191	255	
6871.333	1	1	0	0	0.15474	0.19953	0.076071	0.11092	0.22645	0.05175	0.13166	0.29474	0.19526	0.21221	0.096208	0.10621	0.11574	0.14078	0.14944	0.15767	-2.2938	-3.2354	-3.1146	-3.0521	-3.2896	-2.9125	-3.3563	-3.2583	-2.7208	-3.1854	-3.1917	-2.9333	-3.1875	-2.9437	-2.9833	-3.2354	128.665	207.387	359.115	344.143	200.378	361.934	331.951	418.131	95.642	151.598	115.483	402.808	236.401	421.647	252.913	165.285	0.00075753	0.00035368	4.9743e-05	1277.3	2.634e-06	3.5212e-06	1348.8	266.43	2.8006e-06	2.3821e-06	328.94	90.931	72.254	20.507	2.7572e-06	28.767	9.7376e-05	0.00010381	2.9171e-05	1192.6	1.0148e-06	1.138e-06	1264.2	250.86	1.0043e-06	1.138e-06	298.6	84.154	64.3	19.333	1.0978e-06	26.682	334.923	111.067	180.991	101.761	199.851	196.278	101.394	108.948	196.617	194.991	108.323	114.845	115.522	121.926	137.577	121.499	-8191	255	
6871.427	1	1	0	0	0.15999	0.17152	0.21693	0.14282	0.32344	0.16422	0.59014	0.20115	0.10635	0.31446	0.13078	0.097403	0.18254	0.31067	0.19858	0.26173	-2.4688	-3.0604	-3.0271	-2.8583	-3.0521	-2.8708	-3.0354	-3.3083	-2.8583	-2.9771	-3.0708	-2.6875	-3.1104	-3.0604	-2.9688	-3.1792	237.104	111.007	237.382	383.230	129.923	363.147	400.891	256.705	156.591	326.542	375.385	355.408	433.553	127.024	377.403	427.165	0.00077664	0.00023475	6.7831e-05	1274.6	3.5024e-06	1.4274e-06	1352.6	268.07	2.2389e-06	1.2661e-06	329.32	91.728	72.293	20.502	1.4025e-06	28.635	9.703e-05	0.00010495	2.7449e-05	1191.8	1.0304e-06	1.151e-06	1264.6	250.95	1.0563e-06	1.1436e-06	297.97	84.335	64.412	19.369	1.0745e-06	26.61	335.419	113.101	270.053	101.500	186.881	280.175	101.559	108.727	266.213	157.729	108.282	115.113	115.414	121.843	210.764	121.749	-8191	255	
6871.523	1	1	0	0	0.27102	0.13763	0.15033	0.18643	0.3481	0.086878	0.10865	0.093627	0.060333	0.24845	0.11933	0.027889	0.12418	0.015426	0.13994	0.11922	-2.5375	-3.1354	-3.0354	-2.9313	-3.1063	-3.0687	-3.025	-3.1729	-2.8479	-3.125	-3.0292	-2.9479	-3.0312	-3.0396	-2.9896	-3.1188	446.465	276.693	171.601	288.101	424.724	104.928	261.675	389.741	243.138	173.226	353.878	325.421	417.810	145.597	223.095	208.514	0.00087988	0.00021027	5.6937e-05	1279.7	1.969e-06	2.5571e-06	1353	266.83	4.684e-06	7.8573e-07	329.12	91.407	72.223	20.503	1.3329e-06	28.697	0.00010194	0.00010424	2.6279e-05	1194.1	1.074e-06	1.136e-06	1264.5	250.6	1.0845e-06	1.1026e-06	297.59	84.199	64.547	19.291	1.0348e-06	26.58	330.024	126.366	177.769	101.749	268.971	396.229	101.554	108.901	235.804	158.608	108.163	114.963	115.581	121.775	219.532	121.459	-8191	255	
#DATA ENDS
