BOXY.EXE: ISS Imagent and Oximeter Data Acquisition Program Version 0.80
Ascii Record File

#ACQ INFORMATION
2  Detector Channels 
16  External MUX Channels 
1  Auxiliary Channels 
5000  Waveform (CCF) Frequency (Hz)
1  Waveforms Skipped 
30  Waveforms Averaged 
1  Cycles Averaged 
16  Acquisitions per Waveform 
10.0806  Updata Rate (Hz) 

#FILE INFORMATION
TRUE -- External MUX Channel results are PARSED.
FALSE -- AC DC and Phase are NOT grouped.
TRUE -- Companion Program Settings File CREATED.
FALSE -- AC data not excluded
FALSE -- DC data not excluded
FALSE -- Phase data not excluded
FALSE -- Auxillary Chn. data not excluded
Tab delimiters

#CALIBRATION STATE
TRUE -- Waveform Calibration Values APPLIED.


#AUX CALIBRATION VALUES
Val Type	aux-1	

Term	1.0000e+00	
Factor	0.0000e+00	


#WF CALIBRATION VALUES
A = Detector Channel
Val Type	A-AC1	A-AC2	A-AC3	A-AC4	A-AC5	A-AC6	A-AC7	A-AC8	A-AC9	A-AC10	A-AC11	A-AC12	A-AC13	A-AC14	A-AC15	A-AC16	A-DC1	A-DC2	A-DC3	A-DC4	A-DC5	A-DC6	A-DC7	A-DC8	A-DC9	A-DC10	A-DC11	A-DC12	A-DC13	A-DC14	A-DC15	A-DC16	A-Ph1	A-Ph2	A-Ph3	A-Ph4	A-Ph5	A-Ph6	A-Ph7	A-Ph8	A-Ph9	A-Ph10	A-Ph11	A-Ph12	A-Ph13	A-Ph14	A-Ph15	A-Ph16	

Term	0.00000e+00	0.00000e+00	0.00000e+00	0.00000e+00	0.00000e+00	0.00000e+00	0.00000e+00	0.00000e+00	0.00000e+00	0.00000e+00	0.00000e+00	0.00000e+00	0.00000e+00	0.00000e+00	0.00000e+00	0.00000e+00	0.00000e+00	0.00000e+00	0.00000e+00	0.00000e+00	0.00000e+00	0.00000e+00	0.00000e+00	0.00000e+00	0.00000e+00	0.00000e+00	0.00000e+00	0.00000e+00	0.00000e+00	0.00000e+00	0.00000e+00	0.00000e+00	0.00000e+00	0.00000e+00	0.00000e+00	0.00000e+00	0.00000e+00	0.00000e+00	0.00000e+00	0.00000e+00	0.00000e+00	0.00000e+00	0.00000e+00	0.00000e+00	0.00000e+00	0.00000e+00	0.00000e+00	0.00000e+00	
Factor	1.00000e+00	1.00000e+00	1.00000e+00	1.00000e+00	1.00000e+00	1.00000e+00	1.00000e+00	1.00000e+00	1.00000e+00	1.00000e+00	1.00000e+00	1.00000e+00	1.00000e+00	1.00000e+00	1.00000e+00	1.00000e+00	1.00000e+00	1.00000e+00	1.00000e+00	1.00000e+00	1.00000e+00	1.00000e+00	1.00000e+00	1.00000e+00	1.00000e+00	1.00000e+00	1.00000e+00	1.00000e+00	1.00000e+00	1.00000e+00	1.00000e+00	1.00000e+00	X	X	X	X	X	X	X	X	X	X	X	X	X	X	X	X	

B = Detector Channel
Val Type	B-AC1	B-AC2	B-AC3	B-AC4	B-AC5	B-AC6	B-AC7	B-AC8	B-AC9	B-AC10	B-AC11	B-AC12	B-AC13	B-AC14	B-AC15	B-AC16	B-DC1	B-DC2	B-DC3	B-DC4	B-DC5	B-DC6	B-DC7	B-DC8	B-DC9	B-DC10	B-DC11	B-DC12	B-DC13	B-DC14	B-DC15	B-DC16	B-Ph1	B-Ph2	B-Ph3	B-Ph4	B-Ph5	B-Ph6	B-Ph7	B-Ph8	B-Ph9	B-Ph10	B-Ph11	B-Ph12	B-Ph13	B-Ph14	B-Ph15	B-Ph16	

Term	0.00000e+00	0.00000e+00	0.00000e+00	0.00000e+00	0.00000e+00	0.00000e+00	0.00000e+00	0.00000e+00	0.00000e+00	0.00000e+00	0.00000e+00	0.00000e+00	0.00000e+00	0.00000e+00	0.00000e+00	0.00000e+00	0.00000e+00	0.00000e+00	0.00000e+00	0.00000e+00	0.00000e+00	0.00000e+00	0.00000e+00	0.00000e+00	0.00000e+00	0.00000e+00	0.00000e+00	0.00000e+00	0.00000e+00	0.00000e+00	0.00000e+00	0.00000e+00	-5.24022e+01	-1.64169e+02	-9.76990e+01	-1.80969e+02	-5.66720e+01	-9.77327e+01	-1.56073e+02	-1.62015e+02	-2.91745e+01	-6.44927e+01	-1.73276e+02	-1.70265e+02	-1.82009e+02	-1.76771e+02	-6.96488e+01	-1.50163e+02	
Factor	1.86859e-05	9.78118e-05	2.79070e-05	1.67683e-01	9.76611e-07	1.10387e-06	1.73110e-01	5.09591e-02	1.07639e-06	1.05178e-06	1.04153e-01	2.91335e-02	3.50756e-02	9.31146e-03	9.58455e-07	1.36155e-02	6.11716e-07	6.27859e-07	1.75053e-07	7.79073e-02	6.84918e-09	6.89061e-09	7.55109e-02	2.36384e-02	6.84905e-09	6.88618e-09	4.50172e-02	1.28399e-02	1.55609e-02	4.22386e-03	6.88738e-09	5.88561e-03	X	X	X	X	X	X	X	X	X	X	X	X	X	X	X	X	



#DISTANCE SETTINGS
A = Detector Channel
A-1	A-2	A-3	A-4	A-5	A-6	A-7	A-8	A-9	A-10	A-11	A-12	A-13	A-14	A-15	A-16	

2.5000e+00	3.0000e+00	2.5000e+00	3.0000e+00	2.0000e+00	3.0000e+00	1.5000e+00	3.0000e+00	3.0000e+00	3.0000e+00	3.0000e+00	3.0000e+00	3.0000e+00	3.0000e+00	1.5000e+00	3.0000e+00	

B = Detector Channel
B-1	B-2	B-3	B-4	B-5	B-6	B-7	B-8	B-9	B-10	B-11	B-12	B-13	B-14	B-15	B-16	

1.0000e+01	1.0000e+01	1.0000e+01	1.4400e+00	1.0000e+01	1.0000e+01	1.5100e+00	1.9400e+00	1.0000e+01	1.0000e+01	1.9900e+00	2.4900e+00	2.4100e+00	2.9000e+00	1.0000e+01	2.9800e+00	




#DATA BEGINS
time	group	step	mark	flag	A-AC1	A-AC2	A-AC3	A-AC4	A-AC5	A-AC6	A-AC7	A-AC8	A-AC9	A-AC10	A-AC11	A-AC12	A-AC13	A-AC14	A-AC15	A-AC16	A-DC1	A-DC2	A-DC3	A-DC4	A-DC5	A-DC6	A-DC7	A-DC8	A-DC9	A-DC10	A-DC11	A-DC12	A-DC13	A-DC14	A-DC15	A-DC16	A-Ph1	A-Ph2	A-Ph3	A-Ph4	A-Ph5	A-Ph6	A-Ph7	A-Ph8	A-Ph9	A-Ph10	A-Ph11	A-Ph12	A-Ph13	A-Ph14	A-Ph15	A-Ph16	B-AC1	B-AC2	B-AC3	B-AC4	B-AC5	B-AC6	B-AC7	B-AC8	B-AC9	B-AC10	B-AC11	B-AC12	B-AC13	B-AC14	B-AC15	B-AC16	B-DC1	B-DC2	B-DC3	B-DC4	B-DC5	B-DC6	B-DC7	B-DC8	B-DC9	B-DC10	B-DC11	B-DC12	B-DC13	B-DC14	B-DC15	B-DC16	B-Ph1	B-Ph2	B-Ph3	B-Ph4	B-Ph5	B-Ph6	B-Ph7	B-Ph8	B-Ph9	B-Ph10	B-Ph11	B-Ph12	B-Ph13	B-Ph14	B-Ph15	B-Ph16	aux-1	digaux	

2262.768	1	1	0	256	0.066321	0.40724	0.19265	0.20592	0.31512	0.27847	0.17954	0.15686	0.098788	0.086144	0.18763	0.10133	0.17898	0.10339	0.13601	0.07342	-2.6271	-2.5208	-2.7396	-2.9917	-2.4417	-2.9542	-2.7562	-2.6813	-3.0125	-2.7188	-2.725	-2.7833	-2.6604	-2.8688	-2.6979	-2.6646	34.395	178.080	226.655	56.094	266.558	95.363	5.968	204.820	132.229	289.388	-51.908	278.908	171.379	-59.745	114.519	285.986	0.00014098	0.00018578	4.8177e-05	268.82	1.8803e-06	1.6399e-06	391.03	125.55	9.9407e-07	2.152e-06	195.65	88.279	63.719	31.972	1.6926e-06	44.491	2.9991e-05	2.5581e-05	7.9448e-06	256.21	2.5507e-07	2.7555e-07	370.59	119.93	2.5684e-07	2.846e-07	178.15	82.348	58.362	29.955	3.0701e-07	40.728	253.863	-26.811	31.807	-58.551	88.681	114.429	-60.835	-51.240	169.756	80.155	-55.519	-49.920	-45.956	-40.698	80.944	-45.595	-8191	255	
2262.864	1	1	0	0	0.25196	0.12369	0.20186	0.19047	0.18276	0.10239	0.1016	0.23455	0.03819	0.26744	0.13334	0.092605	0.28967	0.18921	0.3316	0.15656	-2.7604	-2.6542	-2.6437	-3.025	-2.4604	-2.9667	-2.9583	-2.6417	-2.9083	-2.5542	-2.8167	-3.0708	-2.5396	-2.8937	-2.8583	-2.5729	141.618	34.742	163.590	247.917	225.448	-55.056	261.513	10.535	232.827	52.692	232.307	260.515	110.465	-51.877	59.114	10.485	0.00013197	0.0001918	7.8811e-05	264.44	1.4331e-06	2.0135e-06	382.45	126.25	1.2284e-06	1.9208e-06	196.47	89.293	64.371	31.941	6.7084e-07	44.852	2.7949e-05	2.6455e-05	7.5918e-06	250.59	2.5403e-07	2.8362e-07	362.06	120.1	2.5033e-07	2.8321e-07	179.09	82.987	58.859	29.973	2.7925e-07	40.993	242.340	-43.533	41.567	-58.596	89.305	-7.183	-60.155	-51.115	90.654	89.913	-55.464	-49.720	-45.945	-40.529	103.751	-45.346	-8191	255	
2262.960	1	1	0	0	0.152	0.20305	0.067509	0.24322	0.18065	0.14336	0.28035	0.14201	0.062328	0.19422	0.17007	0.2742	0.37645	0.19784	0.17256	0.099384	-2.6708	-2.5354	-2.4458	-3.0625	-2.5646	-2.9313	-2.9625	-2.6167	-2.9833	-2.7875	-2.4542	-3.3063	-2.4875	-2.8521	-2.8104	-2.5438	289.538	-10.094	-58.567	-60.609	8.993	239.763	190.255	208.562	-65.616	148.407	-62.925	16.528	288.728	207.258	281.195	227.278	0.00014814	9.9512e-05	5.2712e-05	257.32	2.1377e-06	1.8028e-06	381.65	128.01	2.1085e-06	1.7994e-06	199.12	88.947	64.117	31.636	4.5334e-07	44.539	2.8385e-05	2.6691e-05	6.9565e-06	245.81	2.5349e-07	2.9608e-07	361.81	122.05	2.6373e-07	3.0675e-07	181.18	83.178	58.697	29.748	2.7584e-07	40.772	244.131	2.067	55.799	-58.294	119.521	40.452	-60.265	-51.200	118.543	88.184	-55.187	-49.994	-45.688	-40.533	47.212	-45.275	-8191	255	
2263.058	1	1	0	0	0.27754	0.12652	0.11359	0.12763	0.026229	0.10295	0.19935	0.099027	0.095644	0.14298	0.22142	0.30549	0.058642	0.12404	0.083812	0.074403	-2.4375	-2.7021	-2.7396	-3.0042	-2.7125	-2.8729	-2.8937	-2.7979	-2.8917	-3.0062	-2.7354	-3.1833	-2.7313	-2.8187	-3.0521	-2.6437	69.869	261.093	246.745	35.410	279.613	-9.444	145.545	165.245	88.280	84.319	275.016	-38.610	141.718	81.155	-41.746	183.788	0.00013837	0.00025864	5.3896e-05	264.73	2.0343e-06	2.759e-06	391.32	128.75	1.6752e-06	1.0529e-06	201.16	89.669	64.275	31.614	9.0721e-07	44.53	3.0415e-05	2.685e-05	6.8694e-06	251.23	2.8572e-07	2.9047e-07	372.58	122.49	2.8633e-07	2.8685e-07	182.64	83.517	58.775	29.701	2.6112e-07	40.655	246.519	1.410	56.682	-58.579	115.378	92.600	-60.572	-51.092	92.004	94.481	-55.438	-49.990	-45.927	-40.494	70.625	-45.262	-8191	255	
2263.177	1	1	0	0	0.22933	0.081282	0.15959	0.041439	0.29283	0.22113	0.14089	0.17052	0.094597	0.17275	0.057134	0.018612	0.19325	0.28017	0.13116	0.067672	-2.4833	-2.6458	-2.7479	-2.9188	-2.7917	-2.6896	-2.9646	-2.5021	-2.9437	-2.8604	-2.5333	-3.05	-2.8521	-2.5292	-2.9042	-2.5563	39.149	194.554	8.337	215.877	30.431	-40.871	105.290	17.445	91.817	117.763	63.404	286.990	-48.867	214.856	76.897	-45.706	0.00015112	0.00020927	5.6024e-05	273.24	7.0499e-07	2.0666e-06	406.01	128.99	2.3464e-06	2.5824e-06	199.04	88.723	63.328	31.505	1.3695e-06	44.265	3.2689e-05	2.6141e-05	6.7056e-06	259.9	2.9236e-07	2.766e-07	383.05	122.87	2.9655e-07	2.651e-07	181.75	82.868	58.079	29.665	2.4541e-07	40.281	234.059	-12.127	45.006	-58.670	99.045	41.554	-60.873	-51.646	134.740	52.729	-55.206	-49.927	-45.927	-40.731	75.239	-45.568	-8191	255	
2263.273	1	1	0	0	0.21165	0.12738	0.09753	0.086895	0.1146	0.10749	0.19519	0.16159	0.14118	0.16585	0.24366	0.062488	0.15816	0.054932	0.08023	0.24911	-2.525	-2.8917	-2.6417	-2.9083	-2.8688	-2.6167	-2.9667	-2.8583	-2.9313	-3.0729	-2.4604	-3.1167	-2.7667	-2.7562	-2.8479	-2.7938	267.003	258.631	-34.988	230.404	-30.749	153.031	72.733	-52.200	8.949	195.698	156.581	264.745	197.277	9.799	-64.702	-64.980	0.00014977	0.00021746	3.634e-05	287.17	9.5661e-07	2.6878e-06	421.9	129.76	1.1031e-06	2.0388e-06	202.11	88.707	62.627	31.675	4.4949e-07	44.334	3.2645e-05	2.3962e-05	6.1743e-06	273.47	2.9163e-07	2.6509e-07	399.11	123.43	2.992e-07	2.5802e-07	183.68	82.516	57.462	29.702	2.4832e-07	40.505	241.445	-30.087	71.412	-58.553	100.416	32.639	-60.852	-51.652	169.176	97.421	-55.489	-49.855	-46.033	-40.749	235.812	-45.708	-8191	255	
2263.370	1	1	0	0	0.11897	0.088418	0.25236	0.05782	0.18653	0.36979	0.16965	0.041213	0.13134	0.064211	0.056355	0.2481	0.13683	0.12359	0.25344	0.14344	-2.3063	-3	-2.55	-2.9354	-2.8979	-2.6354	-3.2562	-2.6312	-2.7167	-2.9625	-2.7271	-2.8354	-2.9375	-2.5	-3.0458	-2.7625	270.812	117.975	256.931	61.744	118.781	-32.014	217.382	284.352	271.524	92.587	55.692	241.302	-19.486	137.170	253.250	115.396	0.00013452	0.00011074	4.6532e-05	295.63	4.1411e-07	2.2801e-06	429.59	131.38	7.4299e-07	2.1451e-06	203.71	88.477	63.032	31.56	9.3284e-07	44.208	3.2889e-05	2.4084e-05	6.1801e-06	280.37	2.8762e-07	2.5548e-07	405.02	124.85	2.9437e-07	2.5602e-07	185.9	82.809	57.798	29.548	2.4588e-07	40.411	250.471	-24.293	54.338	-58.882	149.817	63.888	-60.836	-51.615	69.094	62.771	-55.510	-50.072	-46.234	-40.598	95.972	-45.574	-8191	255	
2263.466	1	1	0	0	0.28435	0.20301	0.076873	0.15097	0.27684	0.067092	0.081138	0.27618	0.15976	0.013502	0.21668	0.077251	0.16509	0.23263	0.10733	0.2206	-2.2646	-3.1188	-2.3125	-2.8354	-2.8958	-2.5375	-3.1583	-2.7042	-2.7854	-2.8833	-2.4146	-2.9729	-2.7542	-2.7792	-2.9042	-3.0708	289.908	130.521	119.207	30.656	57.959	52.808	223.278	237.670	44.156	0.979	281.251	25.555	-22.308	-46.324	68.636	99.158	0.00015916	0.00017319	7.1243e-05	297.96	2.3746e-06	3.0668e-06	430.88	132.77	6.7167e-07	2.7078e-06	208.18	88.932	63.272	31.178	1.5332e-06	43.918	3.1841e-05	2.2851e-05	6.5379e-06	282.04	2.7541e-07	2.4663e-07	407.8	126.42	2.775e-07	2.4212e-07	189.42	83.138	57.854	29.283	2.7165e-07	40.219	240.214	-12.054	42.731	-58.526	100.114	61.208	-60.896	-51.579	124.724	92.280	-55.790	-49.715	-46.145	-40.704	89.526	-45.431	-8191	255	
2263.562	1	1	0	0	0.14847	0.11164	0.10316	0.17105	0.25152	0.11621	0.080512	0.13754	0.075755	0.12346	0.10137	0.15974	0.055991	0.21769	0.064419	0.17285	-2.0687	-3.1208	-2.5667	-3.0354	-2.7917	-2.4771	-3.0917	-2.8854	-2.5625	-2.9729	-2.6208	-2.8312	-2.9375	-2.4458	-3.0396	-2.7188	81.475	12.841	277.326	272.574	123.390	208.354	181.264	228.312	280.281	-1.151	263.406	-6.673	266.236	-59.425	239.789	29.642	0.00015572	0.00014179	5.1447e-05	305.02	1.7527e-06	2.3458e-06	446.07	136.56	2.5796e-06	4.6897e-07	214.52	88.752	63.555	30.758	4.7996e-07	43.704	3.0602e-05	2.1937e-05	6.8085e-06	289.27	2.6117e-07	2.4073e-07	420.68	130.26	2.7752e-07	2.3944e-07	194.53	83.151	58.169	28.819	2.9745e-07	40.053	242.181	-53.990	21.061	-58.776	79.162	53.807	-60.678	-51.259	113.218	66.351	-55.735	-50.049	-46.061	-40.829	135.273	-45.539	-8191	255	
2263.658	1	1	0	0	0.36432	0.20006	0.11155	0.13124	0.068899	0.14163	0.089815	0.33488	0.035356	0.11875	0.36146	0.056155	0.13694	0.062916	0.25147	0.40889	-2.3375	-2.8917	-2.6667	-2.6875	-2.9688	-2.4104	-3.0187	-2.8937	-2.6604	-2.8896	-2.7667	-2.7604	-3.0771	-2.6063	-2.9646	-2.8542	284.999	128.187	206.518	150.945	82.744	-51.485	283.427	-34.852	165.521	249.922	284.160	-31.430	259.717	-58.352	181.596	226.611	0.00014126	0.00017359	2.6477e-05	329.12	2.251e-06	2.4806e-06	480.25	149.45	1.1799e-06	1.1921e-06	231.54	93.76	66.804	30.637	2.0988e-06	45.345	3.067e-05	2.3151e-05	7.516e-06	310.24	2.6963e-07	2.5947e-07	455.14	142.46	2.8122e-07	2.6015e-07	212.1	87.292	61.1	28.775	3.3008e-07	41.454	243.201	-41.026	50.327	-59.162	77.627	57.978	-61.141	-51.858	124.850	97.666	-55.965	-50.344	-46.485	-41.215	75.281	-46.001	-8191	255	
2263.779	1	1	0	0	0.13464	0.16127	0.015863	0.05964	0.15585	0.054501	0.050141	0.12531	0.076717	0.17968	0.16192	0.24372	0.047331	0.040226	0.069119	0.088359	-2.1083	-2.8167	-2.9833	-2.7	-3.2167	-2.3917	-2.8958	-2.9083	-2.6146	-2.9583	-2.8979	-2.5146	-3.0604	-2.5375	-2.7	-2.9833	28.385	132.185	0.747	120.850	16.123	31.190	19.289	250.846	173.821	269.982	-11.845	-64.785	111.512	-7.597	-31.436	2.770	0.00015117	0.00010804	3.9374e-05	361.57	1.9983e-06	3.0437e-06	536.04	167.04	2.3416e-06	7.2869e-07	251.05	94.894	65.955	30.97	1.2938e-06	46.627	3.1389e-05	2.6153e-05	8.5017e-06	343.46	2.7291e-07	2.9739e-07	506.05	158.48	2.9539e-07	2.9724e-07	230.31	88.455	60.363	29.039	3.6119e-07	42.629	247.444	18.350	39.530	-59.061	66.371	24.652	-61.100	-52.365	103.383	120.868	-56.264	-50.330	-46.385	-40.835	67.666	-45.677	-8191	255	
2263.873	1	1	0	0	0.08858	0.18138	0.17151	0.1657	0.29229	0.083493	0.2204	0.2218	0.28263	0.16082	0.079543	0.0736	0.17995	0.26547	0.18622	0.20404	-2.1646	-2.7229	-2.8479	-2.5792	-3.0396	-2.7958	-2.7521	-2.8958	-2.5167	-2.8667	-2.7938	-2.5792	-3.125	-2.9188	-2.875	-2.9813	-48.510	91.997	252.145	177.677	206.495	190.746	218.171	109.311	46.805	-56.301	66.156	154.092	-61.281	203.493	285.016	214.397	0.00014816	9.2108e-05	6.5791e-05	374.62	1.9327e-06	1.0851e-06	531.38	161.87	1.1072e-06	2.8031e-06	239.87	90.22	61.625	31.261	2.0713e-06	47.165	3.3377e-05	2.9891e-05	8.7034e-06	354.42	2.8089e-07	3.33e-07	503.4	154.16	2.9869e-07	3.3306e-07	219.17	84.405	56.465	29.298	3.3168e-07	43.188	239.928	-37.130	38.738	-58.458	84.876	41.556	-60.517	-52.123	87.585	106.425	-55.829	-50.030	-46.189	-40.660	82.588	-45.433	-8191	255	
2263.945	1	1	0	0	0.2218	0.22536	0.3708	0.099915	0.19558	0.095955	0.19737	0.20889	0.21113	0.13862	0.19758	0.248	0.13476	0.13023	0.21872	0.23179	-2.1479	-2.7854	-2.7521	-2.6417	-2.9437	-2.9292	-2.6125	-3.1042	-2.625	-2.9479	-2.7917	-2.6229	-2.8729	-2.7167	-2.5729	-3.3104	-3.134	55.069	8.274	-2.722	101.155	283.537	206.193	248.478	287.356	247.261	104.174	44.922	-3.656	-55.956	201.924	270.691	0.00017645	0.00011474	3.1987e-05	353.78	2.3361e-06	2.9548e-06	505.89	146.97	1.0157e-06	3.1137e-06	224.77	87.992	59.462	32.574	1.9474e-06	49.96	3.2165e-05	3.0543e-05	8.0692e-06	336	2.8699e-07	3.4248e-07	479.01	140.18	2.9285e-07	3.4338e-07	203.91	82.325	54.662	30.525	3.2646e-07	45.65	251.495	-1.311	43.853	-58.278	59.540	46.043	-60.125	-51.693	135.571	70.596	-55.052	-49.807	-46.384	-40.789	41.738	-45.614	-8191	255	
2264.065	1	1	0	0	0.16469	0.359	0.19411	0.34395	0.029387	0.14632	0.12543	0.21906	0.14089	0.34234	0.19676	0.16209	0.16009	0.2532	0.17335	0.11882	-2.0917	-3.0208	-2.65	-2.6271	-2.8146	-2.6292	-2.8208	-2.8125	-2.7875	-2.6063	-2.9146	-2.6104	-2.9688	-2.85	-2.4604	-2.9188	72.601	-62.436	284.737	104.637	238.265	243.183	206.695	209.643	52.576	219.464	-34.858	285.872	247.558	266.462	-7.121	146.638	0.00018165	0.00016677	4.8909e-05	347.45	2.8482e-06	1.7522e-06	507.27	141.8	1.7498e-06	2.5136e-06	222.82	89.987	60.364	33.531	9.7573e-08	50.856	3.4999e-05	3.2841e-05	8.0736e-06	331.09	3.3171e-07	3.6372e-07	483.12	135.35	3.3453e-07	3.5814e-07	203.29	84.01	55.57	31.495	3.1909e-07	46.574	253.564	6.258	66.580	-58.137	81.771	39.242	-60.259	-51.495	164.279	124.719	-55.621	-49.712	-45.963	-41.193	211.864	-45.831	-8191	255	
2264.161	1	1	0	0	0.24977	0.04869	0.19684	0.34349	0.19335	0.18013	0.23156	0.31323	0.18845	0.040626	0.18705	0.10248	0.26202	0.10315	0.094691	0.13828	-2.2354	-2.8375	-2.8125	-2.675	-2.9021	-2.9771	-2.4625	-3.1562	-2.5479	-2.7479	-2.85	-2.5646	-2.8646	-3.0625	-2.5938	-3.0271	-13.382	64.241	-7.430	226.977	107.924	140.127	259.384	250.186	135.141	241.668	29.201	151.543	279.169	218.600	-62.887	282.569	0.00018422	0.00021339	7.3936e-05	351.71	1.8069e-06	2.966e-06	512.15	141.89	2.7696e-06	2.9132e-06	222.89	89.707	60.619	32.366	2.1822e-06	48.35	3.7127e-05	3.1151e-05	7.7009e-06	333.7	3.3745e-07	3.3086e-07	484.58	135.3	3.4592e-07	3.2787e-07	203.3	83.777	55.622	30.482	2.9402e-07	44.359	243.244	-31.026	84.132	-58.149	131.106	42.391	-60.199	-51.255	144.537	76.641	-55.488	-49.999	-45.731	-40.758	76.858	-45.684	-8191	255	
2264.258	1	1	0	0	0.16734	0.094058	0.12788	0.14428	0.3238	0.15867	0.25137	0.098379	0.089117	0.18378	0.29781	0.27888	0.1593	0.16799	0.038892	0.067749	-2.2812	-2.6771	-2.8854	-2.5438	-2.7021	-2.7458	-2.6063	-2.9813	-2.9	-2.6625	-3.0771	-2.4208	-2.8667	-2.7792	-2.4146	-3.1375	12.852	96.750	91.490	163.056	16.085	-55.135	118.157	243.363	116.971	25.521	178.460	288.832	-15.439	287.227	-58.703	-22.778	0.00020264	0.0001259	5.3512e-05	345.8	1.8966e-06	2.6747e-06	502.58	146.17	2.0268e-06	1.1897e-06	224.49	89.328	60.725	31.176	4.7381e-07	46.802	3.6237e-05	2.7218e-05	6.6866e-06	328.25	3.1319e-07	2.8506e-07	476.55	139.32	3.1543e-07	2.7913e-07	205.38	83.296	55.653	29.249	2.6676e-07	42.838	244.091	18.376	-12.501	-57.844	123.198	45.597	-60.063	-51.347	122.548	92.707	-55.275	-49.476	-45.593	-40.792	81.334	-45.906	-8191	255	
2264.354	1	1	0	0	0.3621	0.35912	0.039658	0.1367	0.16632	0.16753	0.15587	0.20221	0.12413	0.0079229	0.18502	0.11263	0.22821	0.32111	0.16192	0.2207	-2.5271	-2.6875	-3.025	-2.7438	-2.8104	-2.8479	-2.575	-2.8604	-2.8833	-2.55	-2.9417	-2.7271	-2.7521	-3.1354	-2.5792	-2.8729	227.214	249.797	-62.638	85.994	-50.207	65.882	251.825	185.910	118.614	67.548	141.990	27.846	0.699	-29.735	138.759	206.381	0.00013764	0.00019243	7.187e-05	348.07	1.904e-06	2.0886e-06	506.61	149.28	7.3458e-07	2.41e-06	227.77	88.967	60.707	30.413	9.3722e-07	45.747	3.4827e-05	2.5712e-05	6.5645e-06	329.96	3.1707e-07	2.7015e-07	477.02	142.44	3.1894e-07	2.741e-07	206.83	83.42	55.712	28.554	2.759e-07	41.846	245.308	-19.397	57.738	-57.857	75.422	43.904	-60.119	-51.473	65.249	100.626	-55.613	-49.664	-46.018	-40.991	104.638	-45.526	-8191	255	
2264.474	1	1	0	0	0.18874	0.11906	0.21924	0.16923	0.086053	0.07855	0.17363	0.2085	0.034959	0.26485	0.11269	0.18866	0.077269	0.17204	0.20156	0.28364	-2.4792	-2.5167	-2.7896	-2.6958	-2.8458	-2.7958	-2.5687	-2.8771	-2.8729	-2.6708	-2.9167	-2.9354	-2.5396	-3.0708	-2.6708	-2.8646	119.513	111.075	-19.710	283.020	93.375	-60.965	-59.528	208.327	17.653	-52.317	152.598	195.961	205.275	68.944	26.019	229.543	0.00015277	0.00021628	3.3647e-05	342.74	1.7033e-06	1.8501e-06	496.16	150.89	9.8943e-07	2.4025e-06	229.02	88.098	60.512	29.757	2.1411e-06	44.547	3.3686e-05	2.5308e-05	6.5929e-06	326.48	3.0213e-07	2.6483e-07	469.71	143.32	2.9919e-07	2.7536e-07	207.48	82.429	55.371	27.959	2.8413e-07	40.842	247.102	-33.055	14.529	-58.529	96.250	9.269	-59.982	-51.696	119.564	94.443	-55.674	-49.837	-45.883	-41.001	81.580	-45.624	-8191	255	
2264.571	1	1	0	0	0.096281	0.085655	0.14411	0.52982	0.14035	0.27935	0.19952	0.40678	0.047701	0.22173	0.15041	0.26133	0.088974	0.087758	0.15347	0.14475	-2.5375	-2.4896	-3.0438	-2.8312	-2.6833	-3.3229	-2.7	-2.7083	-2.9313	-2.4667	-3.1521	-2.9396	-2.6875	-2.95	-2.6854	-2.7542	-65.421	32.576	288.369	-56.086	259.347	241.648	210.192	254.241	274.292	19.342	152.496	54.031	154.768	39.376	71.812	45.218	0.00015584	0.00023834	5.4138e-05	339.73	1.1234e-06	1.8883e-06	489.82	152.97	1.584e-06	2.8912e-06	230.54	88.359	60.887	29.214	2.0281e-06	43.78	3.322e-05	2.502e-05	7.0667e-06	323.43	2.9283e-07	2.5492e-07	465.58	145.42	2.8923e-07	2.6552e-07	209.2	82.421	55.595	27.426	3.0084e-07	40.151	235.976	-15.436	97.709	-58.058	58.845	24.357	-60.549	-51.694	121.831	89.639	-55.276	-49.522	-46.186	-40.946	92.960	-45.765	-8191	255	
2264.642	1	1	0	0	0.034682	0.12308	0.20049	0.18635	0.15307	0.14691	0.19316	0.26945	0.2808	0.13455	0.27339	0.2638	0.15857	0.21241	0.27255	0.2045	-2.7438	-2.4208	-2.8271	-2.7479	-2.6479	-3	-2.9354	-2.7167	-3.0438	-2.4792	-2.9437	-2.9396	-2.4208	-2.9792	-2.6042	-2.8917	45.435	287.339	198.549	230.746	121.258	-58.010	165.324	190.991	71.077	-14.902	217.133	263.880	229.884	-43.884	116.551	184.942	0.00012231	0.00016892	6.8391e-05	321.21	2.8415e-06	1.9661e-06	461.76	147.26	5.7133e-07	9.9124e-07	216.81	87.802	62.107	29.796	1.9464e-06	42.926	3.1118e-05	2.4367e-05	7.73e-06	305.24	2.9426e-07	2.5877e-07	436.79	140.43	2.9197e-07	2.7936e-07	197.14	82.014	57.076	27.915	3.3658e-07	39.357	244.623	-48.022	63.698	-58.446	70.151	60.871	-60.334	-51.746	48.321	108.276	-55.859	-50.326	-45.974	-41.199	123.570	-45.908	-8191	255	
2264.738	1	1	0	0	0.068684	0.21099	0.24067	0.054536	0.05235	0.21429	0.24669	0.13021	0.11965	0.14627	0.15652	0.14533	0.19491	0.1527	0.31603	0.30449	-2.4562	-2.6354	-2.8	-2.9708	-2.5354	-2.9583	-2.5938	-2.625	-2.9708	-2.6833	-2.7	-2.8208	-2.4771	-3.2417	-2.7479	-2.8438	235.475	-17.583	40.404	109.437	215.715	227.484	213.698	-27.705	77.103	209.766	-42.861	99.608	-51.822	235.022	-0.845	228.432	0.00012508	0.00017702	7.2061e-05	311.72	1.3033e-06	1.5415e-06	456.3	113.71	1.9008e-06	1.2376e-06	180.37	77.87	49.836	33.329	1.7952e-06	46.763	3.1853e-05	2.6133e-05	8.6917e-06	296.84	3.0289e-07	2.9459e-07	431.35	108.59	3.0678e-07	3.1388e-07	165.43	72.629	45.704	31.251	3.7028e-07	42.468	239.108	8.273	43.284	-59.410	86.748	112.673	-61.165	-51.986	109.287	58.267	-55.720	-50.310	-46.080	-41.839	63.286	-46.564	-8191	255	
2264.857	1	1	0	0	0.26308	0.1678	0.37967	0.16738	0.18766	0.013844	0.18974	0.19091	0.10168	0.02116	0.090319	0.34854	0.15177	0.022652	0.15756	0.18866	-2.4813	-2.5042	-2.7458	-2.7833	-2.4813	-2.8729	-2.8667	-2.5896	-3.0125	-2.7042	-2.8375	-2.8458	-2.7125	-2.9292	-2.8771	-2.7146	124.336	14.367	-35.121	40.287	115.589	22.939	265.323	181.979	146.420	17.041	-26.095	-22.939	-20.454	-7.000	225.962	-33.692	0.00016628	0.00018796	4.1565e-05	331.01	1.4439e-06	1.1766e-06	479.49	109.06	2.2491e-06	2.2342e-06	168.34	72.695	46.759	34.475	1.709e-06	47.976	3.2525e-05	2.9121e-05	9.11e-06	313.52	3.0039e-07	3.3804e-07	455.16	104.06	3.038e-07	3.4579e-07	153.46	67.443	42.871	32.225	3.9228e-07	43.852	249.347	3.784	55.882	-59.949	58.889	73.110	-61.701	-53.325	87.528	100.482	-56.225	-50.724	-46.559	-42.039	81.265	-47.161	-8191	255	
2264.953	1	1	0	0	0.055064	0.16661	0.26895	0.22407	0.10836	0.37699	0.21799	0.12055	0.17757	0.07741	0.049909	0.055031	0.08713	0.23962	0.2303	0.31577	-2.5479	-2.6188	-2.6625	-2.9375	-2.5062	-3.0458	-2.8604	-2.4604	-3.0938	-2.675	-2.7896	-3.1813	-2.6208	-2.9021	-2.8125	-2.6083	106.116	190.076	153.784	173.907	-66.304	104.514	191.794	162.070	87.994	228.569	43.982	-32.398	142.924	278.590	235.400	249.005	0.00016232	0.00029735	6.2238e-05	325.83	1.4078e-06	2.1746e-06	467.09	108.37	1.3575e-06	2.2521e-06	167.03	74.049	47.918	34.334	2.035e-06	47.932	3.4874e-05	3.6671e-05	9.8846e-06	308.49	3.4877e-07	4.1543e-07	440.77	103.82	3.5512e-07	4.3297e-07	153.95	69.207	44.335	32.284	4.201e-07	43.69	248.807	-21.355	36.809	-60.309	86.541	53.417	-61.328	-52.942	168.661	45.978	-55.912	-50.122	-46.183	-41.668	78.873	-46.548	-8191	255	
2265.050	1	1	0	0	0.088487	0.23649	0.070118	0.27381	0.22769	0.15444	0.014359	0.09537	0.12865	0.11806	0.072171	0.15407	0.10913	0.066693	0.063826	0.20333	-2.7313	-2.675	-2.7875	-3.0708	-2.625	-2.9458	-2.8792	-2.45	-3.0229	-2.9021	-2.6229	-3.1292	-2.6042	-2.8521	-3.1271	-2.5667	197.417	-41.336	-19.877	-37.869	9.566	185.869	289.110	-7.798	-61.178	-33.429	-38.155	147.881	184.404	139.740	270.865	186.569	0.00015328	0.00017257	3.6416e-05	317.23	1.4611e-06	2.9253e-06	455.89	108.03	1.6132e-06	2.9696e-06	166.11	74.108	47.841	34.637	1.6221e-06	48.282	4.1344e-05	4.1631e-05	1.0402e-05	301.45	4.0235e-07	4.698e-07	431.32	103.52	4.1096e-07	4.5753e-07	152.62	69.317	44.309	32.449	4.1851e-07	44.108	244.006	51.460	40.966	-59.932	87.168	38.197	-61.621	-52.843	162.571	97.757	-56.210	-50.703	-46.005	-41.811	83.210	-46.659	-8191	255	
2265.170	1	1	0	0	0.21465	0.040612	0.091757	0.21045	0.037078	0.061521	0.077624	0.19674	0.13996	0.33663	0.12231	0.10276	0.16163	0.17424	0.30518	0.032041	-2.5146	-2.7729	-2.7583	-3.075	-2.6562	-2.8521	-2.9646	-2.6521	-2.8354	-2.8625	-2.6979	-2.9896	-2.8104	-2.7812	-2.9792	-2.475	161.024	115.589	16.373	178.078	-22.214	222.813	245.527	54.018	241.327	107.123	91.248	-40.844	256.888	-62.740	102.195	-41.907	0.00016077	0.00021862	6.5098e-05	315.37	1.4193e-06	1.4011e-06	455.67	106.77	1.4842e-06	2.4394e-06	165.64	73.488	47.36	34.524	4.3595e-07	48.187	4.4825e-05	4.2544e-05	1.0366e-05	300.27	4.414e-07	4.6242e-07	430.46	102.37	4.4532e-07	4.4122e-07	152.21	68.648	44.022	32.358	4.0195e-07	43.918	236.812	-15.979	79.430	-60.070	71.788	-11.258	-61.520	-52.413	176.267	109.303	-56.239	-50.428	-46.103	-41.652	207.588	-46.530	-8191	255	
2265.242	1	1	0	0	0.27258	0.15876	0.19739	0.20382	0.085909	0.2507	0.18589	0.16707	0.25227	0.12603	0.11877	0.17687	0.059455	0.24581	0.042597	0.25402	-2.4542	-2.7229	-2.3333	-2.9271	-2.7667	-2.8271	-3.0354	-2.7083	-2.7917	-3.0521	-2.5917	-3.0708	-2.8542	-2.7229	-3.1333	-2.625	240.581	34.386	-28.590	31.651	231.123	142.306	174.836	-33.834	213.747	103.260	77.710	-57.828	59.646	241.614	20.037	67.527	0.0001447	0.00026404	3.9866e-05	314.84	1.5108e-06	2.4101e-06	454.39	106.13	2.0346e-06	1.4054e-06	163.61	70.64	46.191	33.759	8.4029e-07	46.793	4.7788e-05	4.0681e-05	1.0091e-05	299.7	4.6694e-07	4.2725e-07	430.51	101.21	4.757e-07	4.2212e-07	149.93	66.364	42.848	31.636	3.9356e-07	42.659	240.612	-59.764	38.965	-60.114	118.270	62.113	-61.385	-52.784	124.469	87.003	-56.261	-50.768	-46.383	-41.786	130.622	-46.602	-8191	255	
2265.338	1	1	0	0	0.13963	0.11828	0.15584	0.30724	0.10766	0.093529	0.15603	0.22471	0.19793	0.079925	0.13057	0.12273	0.071892	0.23949	0.12681	0.13956	-2.5333	-2.8875	-2.6937	-2.9667	-2.9875	-2.5583	-3.3063	-2.5958	-2.5625	-2.9417	-2.4813	-3.1583	-3.0396	-2.7583	-2.8937	-2.6688	34.492	-50.715	-37.195	4.347	121.254	100.946	170.780	-36.727	203.557	21.058	-55.960	139.992	12.516	-58.791	197.876	44.138	0.00014181	0.00022179	7.7198e-05	315.99	2.2854e-06	1.0512e-06	449.57	105.87	1.8001e-06	1.6791e-06	164.18	70.136	45.72	33.049	2.1131e-06	45.932	4.9251e-05	3.7957e-05	1.0156e-05	301.34	4.7473e-07	4.1978e-07	426.9	101.6	4.7989e-07	4.1324e-07	149.82	65.667	42.443	30.987	3.8813e-07	41.961	246.353	-60.792	48.890	-59.785	121.762	-13.215	-61.596	-52.776	63.773	78.348	-56.321	-50.440	-46.108	-41.726	114.506	-46.906	-8191	255	
2265.459	1	1	0	0	0.14882	0.23513	0.2003	0.20528	0.18621	0.066985	0.23	0.22754	0.26242	0.14708	0.35654	0.05845	0.089915	0.28222	0.27564	0.49607	-2.3063	-2.9354	-2.5271	-3.0563	-2.7812	-2.7167	-3.0062	-2.5021	-2.85	-2.9896	-2.6521	-2.9646	-3.025	-2.5229	-2.9688	-2.7625	-68.183	-6.887	226.172	138.895	-27.666	215.512	-42.609	202.436	125.025	114.786	251.181	-53.214	185.988	261.658	94.213	207.030	0.00015139	0.0001783	6.3209e-05	318.1	1.9176e-06	1.8116e-06	449.61	106.33	7.8661e-07	1.5419e-06	165.08	71.07	46.645	33.48	2.1253e-06	46.201	4.7869e-05	3.7554e-05	9.8354e-06	302.36	4.4718e-07	4.0248e-07	426.3	102.06	4.511e-07	3.9842e-07	150.64	66.643	43.048	31.381	3.9303e-07	42.481	239.123	2.774	18.990	-60.160	80.092	38.583	-61.367	-52.444	89.122	84.103	-55.761	-50.397	-46.031	-41.623	98.164	-46.512	-8191	255	
2265.555	1	1	0	0	0.11795	0.069992	0.097156	0.30474	0.37412	0.048155	0.22903	0.38798	0.19535	0.12253	0.44316	0.28148	0.067236	0.20883	0.16865	0.096149	-2.1417	-2.875	-2.6729	-2.8354	-2.9	-2.5438	-3.1125	-2.7083	-2.5563	-3.1229	-2.6833	-2.8646	-2.8312	-2.3104	-2.7729	-2.9833	-22.874	194.117	-40.723	14.855	-7.460	-27.967	128.036	86.447	217.618	228.458	257.582	218.248	53.419	155.163	281.943	218.531	0.00013556	8.4543e-05	7.0994e-05	309.99	1.7707e-06	3.8776e-06	441.28	106.88	1.4817e-06	1.3854e-06	165.41	74.832	49.65	32.981	7.3198e-08	45.113	4.583e-05	3.5723e-05	1.0178e-05	295.75	4.2314e-07	4.0021e-07	415.77	102.6	4.3011e-07	3.8992e-07	151.99	70.071	45.955	30.941	4.2993e-07	41.396	243.307	-60.182	33.284	-59.792	101.998	12.393	-61.237	-52.656	120.762	100.229	-55.948	-50.116	-45.958	-41.496	175.886	-46.381	-8191	255	
2265.651	1	1	0	0	0.10795	0.1365	0.10255	0.30087	0.070952	0.1093	0.11191	0.049781	0.081599	0.17808	0.13923	0.12428	0.060977	0.14851	0.2937	0.12525	-2.0979	-2.9396	-2.5708	-2.8521	-2.9021	-2.5167	-2.9896	-2.9042	-2.3312	-2.8667	-2.6437	-2.6833	-3.0958	-2.6833	-2.9813	-2.8	193.663	227.472	206.591	195.894	-60.862	232.081	280.635	242.596	227.259	142.592	-16.749	16.367	78.842	-67.630	225.746	279.076	0.00014071	0.00016576	2.2673e-05	304.96	2.0012e-06	2.4891e-06	429.92	115.19	1.6454e-06	2.1712e-06	181.56	79.384	55.64	30.336	1.7964e-06	41.455	4.391e-05	3.4885e-05	1.0914e-05	290.92	4.1476e-07	3.7182e-07	409.13	110.34	4.074e-07	3.7145e-07	166.65	74.432	51.54	28.538	4.4527e-07	37.835	231.072	-61.898	22.819	-59.486	136.245	41.947	-60.802	-51.753	143.041	72.132	-55.669	-50.264	-45.921	-40.995	74.393	-45.945	-8191	255	
2265.770	1	1	0	0	0.071642	0.14816	0.15578	0.088817	0.11683	0.2921	0.20751	0.13754	0.14245	0.1508	0.058794	0.16794	0.17225	0.24259	0.30562	0.16859	-2.0979	-2.9979	-2.4979	-2.8167	-3.0167	-2.5	-2.95	-2.8937	-2.6771	-3.1521	-2.7	-2.7188	-3.0167	-2.7479	-3.0917	-2.9167	287.603	38.211	195.209	-52.592	36.234	191.773	273.497	289.090	98.569	62.783	33.253	-23.597	196.632	-53.344	8.521	13.793	0.00013254	3.9037e-05	7.0653e-05	315.7	1.6248e-06	1.2758e-06	450.64	137.91	2.5796e-06	1.4354e-06	206.72	81.696	58.924	29.388	8.7704e-07	41.679	4.2096e-05	3.3487e-05	1.1099e-05	301.15	3.8395e-07	3.6796e-07	428.81	131.56	3.8947e-07	3.6323e-07	189.74	76.411	54.025	27.57	4.3412e-07	38.12	251.773	-31.668	58.483	-59.079	142.772	26.526	-60.554	-52.519	114.837	176.155	-56.112	-50.750	-46.048	-41.292	86.298	-46.300	-8191	255	
2265.841	1	1	0	0	0.089483	0.20892	0.28235	0.21689	0.21312	0.11622	0.18979	0.34432	0.17809	0.097377	0.32718	0.0923	0.055666	0.28761	0.053853	0.017746	-2.15	-2.9604	-2.6375	-2.7542	-2.8958	-2.7708	-2.7812	-3.0979	-2.3771	-3.0875	-2.5792	-2.5604	-2.975	-2.5625	-2.8917	-3.0667	-44.070	-37.579	91.365	186.917	171.468	24.099	169.141	132.809	140.880	145.040	249.997	12.796	68.463	288.725	62.813	86.389	0.00013465	6.0488e-05	2.2778e-05	344.97	1.6336e-06	2.3325e-06	489.31	149.92	1.2892e-06	1.6001e-06	221.33	85.18	60.576	30.306	1.7388e-06	43.662	3.8167e-05	3.2765e-05	1.0696e-05	327.39	3.3951e-07	3.609e-07	465.04	142.86	3.4499e-07	3.5629e-07	203.06	79.392	55.775	28.526	3.9973e-07	39.921	257.461	268.998	34.318	-59.088	81.256	66.651	-61.297	-52.511	104.552	77.173	-55.877	-50.232	-46.547	-41.249	73.635	-45.928	-8191	255	
2265.938	1	1	0	0	0.12877	0.15375	0.34065	0.038555	0.03722	0.18044	0.35902	0.20487	0.24111	0.15403	0.1849	0.16523	0.35818	0.045428	0.11293	0.26167	-2.2375	-2.8917	-2.7333	-2.55	-3.0312	-2.5771	-3.1021	-2.9562	-2.6708	-2.8875	-2.8167	-2.7375	-2.9562	-2.9688	-2.8646	-3.1521	83.208	59.131	18.128	149.899	-65.063	63.976	257.791	286.218	4.897	28.062	272.404	200.497	-44.111	66.584	-3.042	161.196	0.00015615	0.00015154	9.4981e-05	386.73	1.8227e-06	2.1963e-06	540.13	166.83	1.2726e-06	1.0348e-06	248.39	90.112	63.608	31.818	2.8268e-06	45.735	3.5929e-05	3.3783e-05	9.8285e-06	365.47	3.1237e-07	3.765e-07	511.25	158.79	3.2998e-07	3.6557e-07	225.88	84.364	58.236	29.969	3.6806e-07	41.831	242.402	13.505	36.839	-59.368	81.438	42.736	-61.010	-52.931	95.326	85.094	-56.409	-50.646	-47.250	-41.788	105.001	-46.418	-8191	255	
2266.034	1	1	0	0	0.20226	0.21506	0.18322	0.31086	0.2238	0.1377	0.21906	0.024758	0.087501	0.071122	0.30726	0.29197	0.223	0.32063	0.093067	0.10574	-2.3021	-2.8583	-2.8312	-2.5062	-3.1229	-2.8604	-2.7271	-3.1562	-2.6292	-2.8604	-2.8458	-2.8021	-2.9188	-2.9854	-2.7062	-3.3125	78.475	-2.867	192.606	152.165	-44.073	229.588	218.163	188.844	31.015	7.932	127.604	284.828	-56.069	259.226	-18.919	141.491	0.00014009	0.00021718	4.4136e-05	419.14	1.7665e-06	1.9082e-06	578.91	178.73	1.5012e-06	2.2708e-06	263.71	95.831	67.48	32.704	2.282e-06	46.985	3.525e-05	3.4203e-05	8.8712e-06	396.14	3.1121e-07	3.7949e-07	546.86	170.09	3.3041e-07	3.7193e-07	239.74	89.457	61.683	30.779	3.4457e-07	42.884	244.207	-21.534	7.769	-59.585	91.509	39.358	-61.189	-53.390	151.149	65.206	-56.690	-51.191	-47.313	-41.890	62.463	-46.592	-8191	255	
2266.154	1	1	0	0	0.15226	0.24881	0.06844	0.22519	0.18563	0.13243	0.14555	0.15696	0.31454	0.13761	0.10262	0.18796	0.090346	0.2154	0.19942	0.11062	-2.1063	-2.9167	-3.0229	-2.5	-2.9458	-2.9583	-2.7104	-2.9583	-2.5	-2.8688	-2.9833	-2.5438	-3.1104	-2.8625	-2.6729	-3.1375	-57.210	90.478	279.821	216.021	156.951	-12.615	245.864	276.126	259.752	131.818	280.049	185.048	-0.958	116.463	275.685	-33.262	0.00015926	0.00026831	5.1604e-05	442.89	9.4929e-07	3.3275e-06	610.84	189.08	1.5186e-06	1.1669e-06	274.72	100.69	71.291	32.893	1.7036e-06	47.124	3.7092e-05	3.4489e-05	8.4795e-06	419.69	3.4483e-07	3.7179e-07	577.16	179.74	3.5253e-07	3.7082e-07	249.84	93.959	65.266	30.899	3.3804e-07	43.066	252.696	-61.995	29.107	-60.016	82.323	60.578	-61.515	-53.615	74.842	74.568	-57.238	-51.596	-48.161	-41.949	106.197	-46.490	-8191	255	
2266.251	1	1	0	0	0.17459	0.24443	0.21094	0.19765	0.091168	0.13302	0.047407	0.21401	0.094817	0.028753	0.24315	0.20101	0.16904	0.17536	0.063139	0.20005	-2.2083	-2.9729	-2.8333	-2.5875	-3.0042	-3.0125	-2.5625	-3.1292	-2.7562	-2.8125	-2.9958	-2.6104	-2.9458	-2.925	-2.6417	-3.1312	195.202	46.432	140.088	212.867	-38.675	-14.995	255.126	249.110	30.144	29.984	179.759	-18.681	224.567	-19.645	122.397	-58.020	0.00015505	0.00038193	8.2263e-05	454.93	2.849e-06	2.6839e-06	628.59	195.96	1.8747e-06	2.8598e-06	280.62	102.88	73.286	33.051	1.682e-06	47.159	3.9099e-05	3.3284e-05	8.113e-06	431.87	3.6366e-07	3.5771e-07	593.46	185.86	3.7939e-07	3.5745e-07	255.65	96.16	66.915	31.03	3.4021e-07	43.201	238.169	-28.238	46.048	-60.080	77.637	10.660	-61.595	-53.957	102.490	74.335	-57.260	-51.319	-48.040	-42.135	82.959	-46.494	-8191	255	
2266.347	1	1	0	0	0.21711	0.10293	0.27897	0.059684	0.16017	0.11105	0.27763	0.14141	0.19292	0.022597	0.18219	0.29968	0.023951	0.10716	0.22241	0.09452	-2.2313	-2.5938	-2.9854	-2.4708	-2.9562	-2.9771	-2.775	-3.0042	-2.6979	-2.6771	-3.1437	-2.7458	-2.9958	-3.1813	-2.4979	-3.1625	85.129	-30.961	252.296	206.516	281.404	123.115	-52.112	-71.181	265.148	59.552	-63.065	265.604	191.535	133.540	205.687	204.948	0.00015862	6.1946e-05	5.7023e-05	459.1	2.1193e-06	1.8764e-06	632.24	196.57	6.0763e-07	1.1555e-06	284.05	103.8	73.174	32.922	1.0651e-06	47.428	3.9942e-05	3.2118e-05	7.8321e-06	434.45	3.8037e-07	3.3369e-07	598.33	186.45	3.896e-07	3.3681e-07	257.6	96.654	67.161	30.845	3.186e-07	43.287	238.295	10.861	32.241	-59.855	60.584	22.268	-61.528	-54.086	257.374	125.782	-57.163	-51.524	-48.059	-42.006	66.307	-46.316	-8191	255	
2266.443	1	1	0	0	0.10976	0.18838	0.083151	0.13245	0.057295	0.17099	0.17555	0.17854	0.05195	0.17388	0.20984	0.096967	0.040587	0.17843	0.12481	0.15871	-2.3771	-2.6562	-2.9354	-2.6937	-2.8354	-3.025	-2.6229	-2.8958	-3.075	-2.7771	-3.1625	-2.775	-2.8271	-2.8771	-2.6937	-2.9729	212.169	273.136	-44.407	169.671	15.059	216.768	265.209	158.650	194.409	-1.454	175.857	212.015	284.171	143.470	144.058	-66.081	0.00015679	0.00027751	4.6658e-05	456.78	2.2593e-06	2.0261e-06	633.15	196.86	2.1945e-06	3.1689e-06	282.94	102.58	72.523	33.051	1.1481e-06	47.792	4.0137e-05	3.0842e-05	7.7829e-06	434.33	3.6766e-07	3.2415e-07	596.77	186.79	3.6932e-07	3.2709e-07	257.73	95.418	66.44	30.992	3.1691e-07	43.768	247.476	-11.086	41.057	-59.739	52.500	52.214	-61.619	-53.906	118.824	56.566	-57.261	-51.387	-47.687	-41.682	72.266	-46.243	-8191	255	
2266.539	1	1	0	0	0.31493	0.21802	0.36103	0.26766	0.070614	0.27124	0.11426	0.027548	0.078283	0.059022	0.22785	0.080759	0.10621	0.19911	0.049814	0.036817	-2.3104	-2.6188	-2.8125	-2.8125	-2.6688	-2.9417	-2.7125	-2.9917	-3.0396	-2.525	-3.0208	-2.7042	-2.8	-3.0958	-2.6729	-2.95	90.425	254.384	-40.954	230.470	143.569	275.559	-60.412	162.678	268.453	22.874	-57.669	178.908	-64.090	140.136	-24.357	183.581	0.00016199	0.00034225	2.592e-05	443.01	2.5093e-06	2.0545e-06	595.91	183.3	2.4865e-06	1.7586e-06	264.39	95.366	67.791	31.459	8.7184e-07	45.233	3.8147e-05	2.905e-05	7.4262e-06	418.64	3.5225e-07	3.038e-07	563.11	174.92	3.4529e-07	3.0909e-07	239.97	88.685	62.394	29.44	3.1688e-07	41.305	244.692	-24.746	107.383	-59.857	78.996	33.909	-61.322	-53.554	152.037	56.244	-56.994	-51.229	-47.633	-41.728	63.889	-46.292	-8191	255	
2266.635	1	1	0	0	0.21272	0.21292	0.045795	0.31596	0.13052	0.07275	0.1006	0.18712	0.063645	0.19149	0.22699	0.25856	0.20611	0.095075	0.0764	0.2412	-2.525	-2.5396	-3.1146	-2.7708	-2.7083	-2.8917	-2.9479	-2.7792	-2.8583	-2.5625	-3.0271	-2.6625	-2.6562	-2.8542	-2.4437	-2.7458	-54.464	100.070	96.846	268.525	-13.673	280.049	44.143	-68.636	88.388	214.337	166.140	173.518	-26.938	127.077	-25.948	-61.077	0.00015469	0.0001589	2.314e-05	392.74	1.9078e-06	9.276e-07	512.04	153.78	1.9639e-06	2.1656e-06	212.71	82.099	56.671	29.072	7.7354e-07	41.496	3.5719e-05	2.7297e-05	8.0594e-06	372.04	3.312e-07	2.9529e-07	484.1	146.24	3.3556e-07	3.0982e-07	194.2	76.664	52.185	27.28	3.5756e-07	37.982	250.013	-25.769	110.506	-59.464	66.189	-10.142	-60.947	-53.146	52.966	106.257	-56.030	-50.228	-46.528	-41.161	50.491	-45.996	-8191	255	
2266.731	1	1	0	0	0.037228	0.13211	0.37641	0.21307	0.056761	0.21225	0.20918	0.21184	0.057157	0.10979	0.073749	0.092939	0.015748	0.16919	0.16764	0.036177	-2.5083	-2.5146	-3.0396	-2.5938	-2.5375	-3.0438	-2.8312	-2.7812	-3.1354	-2.4125	-3.0333	-2.6625	-2.4104	-2.9646	-2.7042	-2.6604	11.813	18.996	103.681	191.695	252.751	70.602	152.135	249.523	111.576	140.660	188.645	-51.907	151.188	-54.253	-48.237	113.654	0.00012717	9.9322e-05	8.7793e-05	322.87	1.5915e-06	1.4777e-06	446.87	117.65	1.626e-06	1.6445e-06	179.6	72.936	47.178	29.715	1.4594e-06	42.37	3.5388e-05	2.7851e-05	9.071e-06	307.72	3.33e-07	2.9618e-07	420.92	111.97	3.2975e-07	3.1328e-07	163.55	67.871	43.485	27.905	3.9153e-07	38.807	255.905	13.986	37.104	-59.464	48.682	78.378	-60.963	-52.140	76.787	60.715	-55.704	-50.016	-45.733	-41.348	83.827	-46.083	-8191	255	
2266.850	1	1	0	0	0.16649	0.033085	0.40532	0.23911	0.14341	0.33103	0.028412	0.15025	0.11102	0.14559	0.077547	0.13494	0.15716	0.16812	0.18325	0.28383	-2.6583	-2.4062	-2.8063	-2.825	-2.4667	-2.9042	-2.8542	-2.7583	-3.1521	-2.6729	-2.8	-2.9125	-2.4979	-3.0625	-2.5979	-2.7396	-51.930	252.820	170.515	209.632	177.956	257.461	238.670	219.522	182.251	185.548	-26.369	37.458	201.602	-42.198	10.057	207.549	0.00012462	0.00023961	4.6886e-05	327	9.1195e-07	1.5821e-06	453.15	111.82	1.8208e-06	2.1335e-06	173.92	69.191	44.913	30.178	9.9206e-07	42.972	3.5511e-05	3.0896e-05	9.8963e-06	309.92	3.4115e-07	3.3155e-07	427.51	106.25	3.4412e-07	3.5867e-07	159.46	64.733	41.448	28.317	4.3203e-07	39.343	240.746	-18.652	3.097	-59.963	63.411	15.749	-61.200	-52.664	63.853	127.312	-55.946	-50.100	-46.261	-41.151	169.472	-46.238	-8191	255	
2266.946	1	1	0	0	0.096252	0.11143	0.10511	0.20083	0.050309	0.095096	0.19195	0.129	0.078206	0.10679	0.27966	0.10903	0.15846	0.36108	0.19329	0.059656	-2.6229	-2.5479	-2.7292	-3.1729	-2.4792	-2.9854	-2.8708	-2.4333	-3.0896	-2.6292	-2.9188	-2.9583	-2.5521	-2.9708	-2.7229	-2.6063	2.814	-35.461	-33.070	234.725	34.468	235.640	226.026	150.912	-67.236	-20.202	-39.660	-31.738	20.851	227.217	192.210	267.685	0.00013693	0.00015275	6.1293e-05	323.06	1.9283e-06	5.9967e-07	445.81	110.76	3.0923e-06	7.9455e-07	172.12	69.203	46.07	30.886	1.8729e-06	43.579	3.7534e-05	3.6085e-05	1.1211e-05	306.72	3.711e-07	4.0738e-07	422.68	105.73	3.7052e-07	4.2588e-07	157.46	65.043	42.257	28.967	4.4853e-07	39.822	241.777	-26.686	54.689	-59.952	113.149	81.769	-61.137	-52.409	168.396	72.197	-55.923	-49.934	-45.947	-41.194	98.696	-46.170	-8191	255	
2267.042	1	1	0	0	0.062097	0.1474	0.046563	0.093604	0.25124	0.19305	0.32848	0.15934	0.031397	0.28198	0.063522	0.19155	0.21058	0.063364	0.13233	0.19468	-2.6271	-2.6396	-2.7542	-3.0083	-2.7083	-2.9	-2.9729	-2.5104	-2.9354	-2.8646	-2.7104	-3.1312	-2.4167	-2.9042	-2.8063	-2.5833	174.916	173.222	61.234	175.750	287.562	17.040	177.987	183.235	251.493	149.791	18.533	249.430	55.845	176.584	-5.970	278.646	0.00015449	8.5387e-05	5.7069e-05	315.01	1.554e-06	6.253e-07	437.03	110.05	1.3509e-06	3.6962e-07	170.09	71.858	47.51	31.754	2.0115e-06	44.607	3.8175e-05	4.1414e-05	1.1378e-05	299.88	3.7802e-07	4.5744e-07	413.93	105.27	3.8427e-07	4.5741e-07	156.46	67.315	43.959	29.884	4.4023e-07	40.823	248.993	15.237	10.882	-59.863	83.739	63.333	-61.287	-52.058	188.740	-30.915	-55.797	-50.045	-45.814	-41.320	61.698	-45.969	-8191	255	
2267.139	1	1	0	0	0.13761	0.13683	0.049036	0.28423	0.050634	0.26245	0.085786	0.29913	0.23938	0.22872	0.12979	0.22491	0.1817	0.10621	0.057293	0.12583	-2.5687	-2.5687	-2.6708	-3.0438	-2.4896	-2.7687	-2.7958	-2.7062	-2.9542	-2.9729	-2.7583	-3.0104	-2.575	-2.9708	-2.9521	-2.8042	115.617	215.303	91.438	152.363	283.042	-3.468	64.052	211.699	193.258	61.896	98.283	87.929	-15.238	147.542	227.333	201.733	0.00020021	0.00014904	2.1587e-05	313.02	1.7949e-06	1.6317e-06	433.22	109.58	6.6176e-07	1.4606e-06	168.87	73.576	49.345	32.788	2.2577e-06	45.807	4.2649e-05	4.3785e-05	1.1206e-05	297.77	4.2037e-07	4.7389e-07	410.57	104.54	4.2934e-07	4.7437e-07	154.87	68.628	45.494	30.819	4.2852e-07	41.778	245.003	-14.751	32.563	-59.336	78.921	40.426	-60.940	-51.951	87.726	47.096	-56.107	-50.235	-46.177	-41.300	97.706	-46.106	-8191	255	
2267.235	1	1	0	0	0.13726	0.16185	0.17737	0.16376	0.024213	0.12018	0.30204	0.18755	0.24273	0.19378	0.13606	0.35997	0.23951	0.090388	0.25099	0.36279	-2.5167	-2.8312	-2.725	-2.8417	-2.7854	-2.7188	-2.9208	-2.4938	-2.8958	-2.6854	-2.4958	-3.0938	-2.5604	-3.1396	-3.0479	-2.7208	-10.063	153.471	96.814	175.204	111.223	46.824	153.359	-33.058	90.216	61.710	269.671	240.314	76.870	-40.675	-48.231	223.076	0.00013825	5.2023e-05	8.358e-05	308.98	1.0049e-06	1.0544e-06	426.65	107.38	2.5835e-06	2.7561e-06	166.51	73.666	49.586	33.38	2.9074e-06	46.732	4.5789e-05	4.3076e-05	1.0913e-05	293.86	4.3903e-07	4.6849e-07	404.41	102.38	4.5615e-07	4.5681e-07	152.22	69.019	45.775	31.336	4.0859e-07	42.654	239.835	-62.877	93.808	-59.940	99.556	10.415	-61.349	-52.236	75.983	81.434	-55.814	-50.168	-45.859	-41.378	106.253	-46.353	-8191	255	
2267.331	1	1	0	0	0.06075	0.039747	0.11493	0.11925	0.25158	0.15065	0.10647	0.14499	0.053653	0.45426	0.0095707	0.16452	0.076475	0.096275	0.36765	0.14161	-2.5042	-2.825	-2.5042	-2.9375	-2.6667	-2.8312	-3.1521	-2.7604	-2.8875	-2.9958	-2.4396	-3.1333	-2.675	-2.6333	-2.8937	-2.6813	34.176	11.373	273.727	-31.270	175.601	268.832	-18.401	23.131	254.086	284.984	-48.280	224.864	-53.073	168.629	-60.054	-20.212	0.00015989	9.6405e-05	7.3349e-05	300.32	6.4049e-07	3.3635e-06	420.5	105.79	1.8814e-06	1.9786e-06	164.55	74.136	49.314	33.641	1.868e-06	46.755	4.809e-05	3.9971e-05	1.0312e-05	287.28	4.6455e-07	4.3059e-07	399.03	101.16	4.6712e-07	4.2264e-07	150.22	69.135	45.813	31.48	3.8753e-07	42.634	239.123	-15.606	39.194	-59.714	42.625	74.609	-61.038	-51.919	138.143	85.249	-55.707	-50.155	-46.096	-41.490	89.582	-46.512	-8191	255	
2267.452	1	1	0	0	0.21929	0.066404	0.20744	0.12587	0.17373	0.076645	0.23473	0.19788	0.079249	0.10133	0.094478	0.24751	0.069789	0.31294	0.16866	0.30775	-2.4604	-2.6646	-2.55	-2.9562	-2.8396	-2.55	-3.1854	-2.5458	-2.7188	-2.8438	-2.8229	-2.9125	-2.9062	-2.4646	-3.0771	-2.6396	263.697	235.643	9.028	73.043	156.652	18.984	232.770	205.960	264.514	214.777	76.998	-38.584	210.911	190.463	31.790	-26.047	0.00013761	0.00019036	7.3444e-05	302.18	1.1359e-06	2.9331e-06	415.94	104.39	1.7645e-06	3.0966e-06	163.09	73.777	49.999	33.629	1.3132e-06	46.572	4.7927e-05	3.7318e-05	9.5568e-06	286.57	4.4976e-07	4.0999e-07	394.05	100.3	4.5295e-07	3.8692e-07	149.12	69.233	46.234	31.55	3.6322e-07	42.652	245.602	-21.292	37.676	-59.582	63.710	54.447	-61.392	-52.154	81.416	95.339	-55.717	-50.243	-46.403	-41.494	34.516	-46.574	-8191	255	
2267.548	1	1	0	0	0.19456	0.32176	0.10863	0.20015	0.16251	0.15214	0.10322	0.15927	0.18244	0.090903	0.050301	0.21914	0.16543	0.28729	0.12494	0.070292	-2.4542	-2.8958	-2.6583	-2.8729	-3.0646	-2.6271	-3.2188	-2.6167	-2.8708	-3.0208	-2.6896	-2.7854	-2.9146	-2.5625	-2.9229	-2.7	118.586	-2.152	-40.413	36.767	195.611	170.241	-48.322	54.955	255.764	211.767	166.324	278.070	-27.381	222.465	224.353	137.519	0.00013523	0.0001533	1.338e-05	296.19	1.7742e-06	1.3323e-06	411.04	105.4	2.7115e-06	2.2107e-06	163.34	75.107	50.656	33.912	1.2933e-06	47.157	4.583e-05	3.5703e-05	9.6173e-06	283.18	4.3011e-07	3.8442e-07	392.98	100.57	4.3387e-07	3.7759e-07	149.23	70.034	46.738	31.804	3.6876e-07	43.051	254.360	-24.569	24.356	-59.860	83.759	82.187	-61.163	-52.454	111.829	71.056	-56.090	-50.301	-45.911	-41.794	146.044	-46.489	-8191	255	
2267.644	1	1	0	0	0.05333	0.16094	0.15476	0.16182	0.31753	0.062021	0.080143	0.085542	0.16818	0.090043	0.11092	0.21208	0.32522	0.13775	0.26144	0.10432	-2.325	-2.9292	-2.5604	-2.95	-2.9521	-2.525	-2.9813	-2.9542	-2.5917	-3.0729	-2.5667	-2.9813	-3.1437	-2.6583	-3.1104	-2.7542	-51.829	-18.902	53.016	-47.432	286.583	49.309	60.437	37.936	166.960	-8.136	-35.285	-0.595	188.945	-48.774	6.311	62.601	0.00017853	0.00012417	6.9452e-05	293.62	2.6233e-06	2.3765e-06	412.73	106.33	2.3688e-06	2.6592e-06	163.61	77.794	52.734	34.433	9.0043e-07	47.541	4.4129e-05	3.3308e-05	9.5378e-06	279.64	3.9795e-07	3.7653e-07	390.08	101.16	4.0235e-07	3.6231e-07	150.77	72.736	48.569	32.21	3.8977e-07	43.371	245.131	-14.807	109.850	-59.613	45.086	50.874	-61.004	-52.044	117.842	53.843	-55.577	-50.408	-46.214	-41.817	76.977	-46.493	-8191	255	
2267.738	1	1	0	0	0.1989	0.16451	0.14678	0.046282	0.17724	0.097192	0.12148	0.23801	0.042574	0.17474	0.11436	0.069134	0.045927	0.15166	0.15896	0.343	-2.2917	-2.9021	-2.6271	-2.8542	-2.8312	-2.6167	-3.0438	-2.7958	-2.6688	-2.8229	-2.8104	-2.7458	-2.7854	-2.6896	-2.7979	-2.9167	10.561	1.749	289.680	238.842	59.899	-24.424	130.807	71.945	-4.780	231.478	244.559	-8.256	244.144	178.436	179.786	232.322	0.00015837	9.8258e-05	7.3471e-05	286.7	1.857e-06	8.8709e-07	405.59	106.86	2.1447e-06	1.2722e-06	167.95	80.871	55.062	33.829	1.3529e-06	46.356	4.208e-05	3.2131e-05	1.0188e-05	272.67	3.6924e-07	3.4892e-07	383.95	102.37	3.7927e-07	3.4328e-07	154.79	75.458	50.599	31.623	4.2266e-07	42.197	239.843	-34.434	62.521	-59.389	87.856	44.439	-61.066	-51.729	63.392	103.032	-55.850	-50.349	-46.228	-41.563	87.685	-46.510	-8191	255	
2267.812	1	1	0	0	0.32806	0.10555	0.11265	0.14442	0.046289	0.15488	0.22888	0.028354	0.29704	0.10156	0.095542	0.13375	0.24063	0.21988	0.24061	0.22347	-2.2604	-3.0083	-2.8958	-2.8438	-3.0583	-2.4854	-3.0812	-2.8958	-2.7021	-3.1292	-2.8104	-2.8167	-2.8667	-2.7417	-2.6083	-2.9688	279.173	82.083	1.284	252.534	143.098	13.024	208.772	26.261	71.520	-7.845	139.179	-19.719	286.236	-28.640	271.689	226.160	0.00015805	0.00017433	2.6779e-05	280.18	1.4919e-06	1.2852e-06	398.32	112.82	9.0054e-07	1.3848e-06	177.02	81.584	56.901	31.823	6.0224e-07	43.287	3.9648e-05	3.1069e-05	1.046e-05	268.2	3.5373e-07	3.4523e-07	378.02	107.78	3.6263e-07	3.3523e-07	162.25	76.293	52.466	29.803	4.2732e-07	39.541	248.691	-3.315	87.583	-59.766	53.584	41.054	-60.701	-51.794	166.771	115.814	-55.991	-50.334	-46.418	-41.328	159.217	-46.131	-8191	255	
2267.931	1	1	0	0	0.17704	0.089944	0.30269	0.12046	0.25577	0.11112	0.14642	0.43773	0.25795	0.11874	0.080156	0.14919	0.035383	0.24055	0.34009	0.23913	-2.0646	-2.9833	-2.6792	-2.6875	-3.1125	-2.5792	-3.0042	-2.7875	-2.55	-3.0729	-2.8479	-2.5875	-2.9813	-2.7708	-2.775	-3.0104	13.936	203.958	83.287	223.541	117.296	99.495	57.819	102.817	-49.972	146.233	-39.017	1.430	275.172	239.930	179.670	-36.013	0.00013145	0.00022981	5.1468e-05	287.28	1.9364e-06	6.3376e-07	406.14	121.02	1.1766e-06	1.4641e-06	187.04	81.412	58.063	30.475	9.1773e-07	42.08	3.7819e-05	3.2936e-05	1.0594e-05	273.01	3.3845e-07	3.6364e-07	385.7	115.86	3.4277e-07	3.655e-07	171.18	76.108	52.996	28.695	4.1095e-07	38.53	256.635	-23.809	84.748	-58.839	105.407	103.213	-60.810	-52.121	119.163	54.926	-55.450	-50.145	-46.084	-41.248	96.652	-46.068	-8191	255	
2268.027	1	1	0	0	0.15692	0.025867	0.1066	0.18722	0.10758	0.19344	0.29249	0.28231	0.11983	0.18256	0.21132	0.10217	0.17862	0.11624	0.056234	0.12263	-2.2833	-3.0354	-2.7958	-2.8208	-2.925	-2.7188	-2.8604	-3.0375	-2.6937	-3.0646	-2.9562	-2.7708	-2.7625	-2.9208	-2.6729	-3.0563	-25.463	179.727	190.292	118.655	182.449	18.682	201.981	-63.841	150.823	-12.919	15.016	155.426	80.509	147.697	-49.655	164.437	0.00014304	9.2411e-05	4.7875e-05	291.7	9.1717e-07	1.1656e-08	413.1	124.52	5.8402e-07	3.1792e-06	190.25	81.586	57.927	30.61	7.0675e-07	42.411	3.5724e-05	3.3984e-05	9.9893e-06	277.01	3.1289e-07	3.8221e-07	392.44	118.53	3.2283e-07	3.8149e-07	173.86	76.273	53.005	28.721	3.7922e-07	38.759	243.067	46.686	61.391	-58.802	146.475	263.800	-60.489	-51.967	105.991	62.494	-55.923	-50.078	-45.938	-41.221	40.723	-45.879	-8191	255	
2268.123	1	1	0	0	0.069914	0.10283	0.36316	0.096354	0.13921	0.082812	0.090555	0.20036	0.22059	0.21403	0.054864	0.08306	0.17719	0.10979	0.20271	0.16431	-2.0292	-3.025	-2.8771	-2.5875	-2.9604	-2.825	-2.6021	-3.0187	-2.6667	-2.8896	-2.9188	-2.4896	-3.025	-2.8917	-2.55	-3.2354	-45.145	278.751	80.851	-9.297	224.748	61.002	213.024	268.724	263.222	-0.749	164.942	220.356	-47.304	73.013	214.464	190.367	0.00016418	0.00020221	9.4777e-05	291.4	1.5489e-06	1.111e-06	418.12	125.38	2.8066e-07	1.2067e-06	190.87	81.585	58.102	30.555	7.9261e-07	42.643	3.4816e-05	3.4411e-05	9.1768e-06	278.58	3.1629e-07	3.7812e-07	395.73	119.72	3.3459e-07	3.8017e-07	174.67	76.286	53.134	28.705	3.4425e-07	38.954	241.898	1.191	50.629	-59.148	85.745	77.709	-60.663	-51.458	119.763	111.371	-55.635	-49.992	-45.981	-41.166	30.281	-45.952	-8191	255	
2268.219	1	1	0	0	0.25147	0.092831	0.15053	0.079288	0.063704	0.30337	0.308	0.070794	0.20393	0.016443	0.12648	0.23152	0.12214	0.16128	0.16774	0.057331	-2.3063	-2.7479	-2.9854	-2.5521	-3.1625	-2.9208	-2.7521	-3.1521	-2.5958	-2.7167	-3.0729	-2.3	-2.8937	-3.0292	-2.6208	-3.0167	276.607	-64.432	244.675	-61.423	-23.929	-43.131	263.846	-67.102	269.735	16.554	243.446	254.811	239.710	211.312	-29.551	153.865	0.00013024	8.1372e-05	6.1079e-05	289.12	2.3245e-06	1.1041e-06	410.77	124.87	2.5902e-06	3.1181e-06	189.72	81.99	58.067	30.346	1.3014e-06	42.138	3.5909e-05	3.3502e-05	8.2216e-06	274.95	3.2769e-07	3.5413e-07	389.75	118.8	3.4228e-07	3.5197e-07	173.38	76.184	53.03	28.466	3.2356e-07	38.424	232.858	59.872	72.712	-58.838	79.353	-44.095	-60.554	-52.053	86.520	55.376	-55.260	-49.816	-45.919	-41.187	96.440	-45.645	-8191	255	
2268.340	1	1	0	0	0.31472	0.078292	0.19048	0.24105	0.16868	0.17172	0.26928	0.12948	0.14444	0.20676	0.052208	0.14679	0.25124	0.079581	0.21418	0.21526	-2.2229	-2.8792	-3.0062	-2.6333	-2.9813	-2.8708	-2.8292	-2.9875	-2.7083	-2.5583	-3.0625	-2.6396	-2.8167	-3.025	-2.3521	-2.9229	282.400	71.180	138.076	244.914	-52.565	111.882	289.611	215.583	-46.294	249.971	262.673	-54.591	261.393	274.065	-69.279	172.842	0.00014197	0.00023147	7.6605e-05	281.41	1.2583e-06	2.204e-06	403.43	124.77	3.4225e-07	9.0143e-07	189.74	80.805	57.249	29.535	2.0342e-06	41.634	3.6852e-05	3.1335e-05	7.6881e-06	268.13	3.4506e-07	3.3655e-07	381.41	119.02	3.5395e-07	3.3011e-07	173.35	75.495	52.689	27.846	3.0746e-07	38	236.868	5.309	49.677	-58.527	97.811	27.532	-60.283	-51.520	178.437	4.897	-55.362	-49.724	-45.887	-40.705	112.995	-45.788	-8191	255	
2268.411	1	1	0	0	0.082281	0.05048	0.34747	0.28332	0.094393	0.18989	0.2452	0.25859	0.1772	0.24662	0.36745	0.17353	0.18743	0.14734	0.13524	0.18725	-2.2458	-2.7458	-2.9896	-2.6458	-2.8937	-3.0187	-2.55	-3.0625	-2.7229	-2.5604	-3.0375	-2.7146	-2.7792	-2.9042	-2.6646	-2.9771	-45.355	-46.427	97.368	72.165	147.357	-33.071	111.350	228.115	225.690	233.791	268.063	70.697	51.611	-14.804	5.735	21.584	0.00015296	0.00022603	5.2219e-05	278.9	8.2102e-07	2.1383e-06	405.93	125.88	1.3925e-06	2.8001e-06	191.73	80.922	57.204	29.559	8.1547e-07	41.908	3.7696e-05	2.9547e-05	7.4252e-06	264.69	3.5694e-07	3.1624e-07	384.48	120.46	3.5938e-07	3.1562e-07	174.38	75.433	52.584	27.745	3.0197e-07	38.185	242.606	4.987	6.604	-58.262	87.030	41.982	-60.226	-51.471	73.047	73.319	-55.547	-49.967	-45.755	-40.452	113.304	-45.398	-8191	255	
2268.532	1	1	0	0	0.22137	0.22107	0.20495	0.18343	0.34282	0.080303	0.13927	0.28751	0.11322	0.17139	0.12427	0.11793	0.13253	0.17451	0.058959	0.20395	-2.1958	-2.6375	-3.1667	-2.7208	-2.825	-2.925	-2.5521	-3.0021	-2.6333	-2.4688	-2.9958	-2.9521	-2.7104	-3.1479	-2.6375	-2.8625	183.321	235.145	-29.021	211.240	214.231	-47.761	168.393	196.751	-54.437	21.327	245.807	-12.156	253.281	266.445	181.411	255.623	0.00012509	0.00012812	6.9786e-05	278.07	1.5501e-06	1.3029e-06	403.88	126.75	1.246e-06	1.5913e-06	191.61	80.972	57.074	29.745	3.8534e-07	41.95	3.7799e-05	2.91e-05	7.0922e-06	264.53	3.5163e-07	3.0276e-07	382.74	120.24	3.3863e-07	3.1189e-07	174.92	75.705	52.539	27.786	3.0138e-07	38.418	245.346	-50.485	47.081	-58.694	56.571	43.048	-60.253	-51.693	65.124	44.121	-55.422	-50.146	-45.933	-40.910	20.086	-45.515	-8191	255	
2268.628	1	1	0	0	0.13617	0.28837	0.30513	0.050986	0.25058	0.15524	0.23186	0.16718	0.062668	0.28403	0.12462	0.24475	0.24067	0.18304	0.071134	0.29358	-2.4042	-2.3	-3.0271	-2.6042	-2.7479	-3.025	-2.4708	-2.9271	-2.8563	-2.7062	-2.7583	-2.6396	-2.3354	-3.2146	-2.4646	-3.0208	115.276	18.247	173.737	153.298	268.036	0.157	-60.250	249.847	-7.680	35.851	281.079	203.322	75.161	53.508	1.036	14.783	0.00015036	0.0002077	5.8562e-05	275.23	1.419e-06	2.0579e-06	405.81	126.86	2.3675e-06	7.8769e-07	191.65	80.378	57.377	29.534	1.1476e-06	41.618	3.5513e-05	2.8543e-05	7.2658e-06	264.94	3.331e-07	2.9902e-07	383.65	120.57	3.276e-07	2.9532e-07	174.76	75.191	52.437	27.63	3.1419e-07	38.091	243.833	16.388	55.148	-58.132	117.834	54.364	-60.479	-51.375	107.602	67.382	-55.433	-49.841	-46.266	-40.739	84.738	-45.698	-8191	255	
2268.724	1	1	0	0	0.2956	0.1151	0.16081	0.17961	0.17345	0.046068	0.15189	0.26191	0.072164	0.090909	0.12532	0.28292	0.27181	0.048833	0.10146	0.12916	-2.4062	-2.4146	-2.9875	-2.7042	-2.7042	-2.9813	-2.4979	-2.8771	-2.8292	-2.3812	-3.1437	-2.7062	-2.6479	-3.1083	-2.4958	-2.8438	50.230	214.698	47.915	146.896	239.913	229.516	80.213	129.073	264.678	232.813	251.106	151.424	217.640	132.808	119.551	282.385	0.00013528	5.1755e-05	2.1441e-05	277.04	1.1348e-06	1.6236e-06	402.53	125.18	6.0372e-07	1.6109e-06	188.84	79.481	56.607	29.194	1.2273e-06	41.079	3.4505e-05	2.7014e-05	7.8037e-06	263.59	3.1262e-07	2.8847e-07	381.5	119.68	3.1377e-07	2.8809e-07	172.76	74.228	51.907	27.338	3.3105e-07	37.584	245.257	55.977	34.317	-58.590	70.349	39.687	-60.264	-51.588	-22.459	121.469	-55.405	-49.824	-45.840	-40.841	86.452	-45.548	-8191	255	
2268.820	1	1	0	0	0.23291	0.066187	0.042302	0.18708	0.19445	0.11708	0.04991	0.23101	0.25243	0.099665	0.14931	0.17466	0.093522	0.08881	0.26171	0.2147	-2.3875	-2.5417	-2.8937	-2.7146	-2.6792	-2.9458	-2.8	-2.7479	-3.0833	-2.5354	-2.8979	-2.9667	-2.5083	-3.0083	-2.5812	-2.8604	86.442	-47.221	122.499	101.950	212.242	23.564	5.291	269.633	122.521	-37.225	31.441	161.849	145.679	187.775	209.529	10.161	0.00013262	0.00010383	9.3231e-06	274.26	7.5942e-07	1.7826e-06	400.25	125.56	1.9432e-06	3.0333e-06	189.94	79.333	56.424	29.059	1.0002e-06	41.439	3.3824e-05	2.6339e-05	8.4102e-06	260.6	3.0644e-07	2.8135e-07	379.47	119.4	3.0257e-07	2.9395e-07	172.99	74.081	51.659	27.282	3.5556e-07	37.813	240.455	-15.474	20.995	-58.519	80.064	55.897	-60.294	-51.775	101.173	49.142	-55.561	-49.845	-45.819	-40.852	-0.315	-45.409	-8191	255	
2268.939	1	1	0	0	0.1805	0.036516	0.17942	0.15176	0.0581	0.12128	0.17516	0.039213	0.22218	0.054404	0.19203	0.075107	0.15603	0.18428	0.27702	0.22732	-2.5438	-2.5687	-2.8	-2.9583	-2.6542	-2.9792	-2.8521	-2.7354	-3.1542	-2.525	-2.9021	-2.8083	-2.4938	-3.0062	-2.8104	-2.825	-5.343	256.086	-42.558	156.132	-5.918	8.257	173.270	262.405	90.604	252.578	204.322	19.762	138.533	171.946	214.575	-53.809	0.00013286	0.0002153	2.1268e-05	274.31	1.5002e-06	1.8206e-06	404.83	125.97	8.958e-07	1.5577e-06	190.4	79.838	56.455	29.334	2.076e-06	41.627	3.2262e-05	2.7002e-05	8.9499e-06	260.99	2.953e-07	2.9098e-07	382.03	119.65	3.0109e-07	3.1098e-07	174.57	74.638	51.736	27.384	3.6022e-07	38.055	246.022	13.063	37.009	-58.279	68.550	-15.371	-60.324	-51.248	40.363	141.944	-55.116	-49.651	-46.053	-40.576	117.542	-45.716	-8191	255	
2269.011	1	1	0	0	0.14705	0.46253	0.018037	0.16033	0.12135	0.22685	0.18472	0.33913	0.10991	0.15179	0.11287	0.11846	0.23012	0.11414	0.054871	0.13941	-2.65	-2.5687	-2.8979	-2.8521	-2.4313	-2.9479	-2.8812	-2.7062	-3.1396	-2.8396	-2.7375	-2.9083	-2.5125	-2.9521	-2.8104	-2.5667	137.274	-27.103	234.640	119.817	86.370	104.584	275.826	267.745	165.601	255.345	277.047	175.934	202.013	276.333	269.533	225.082	0.00013224	0.00011385	4.3843e-05	279.19	8.5785e-07	2.1263e-06	410.82	127	9.6912e-07	1.5751e-06	193.46	80.761	57.025	29.482	1.4591e-06	41.829	3.1974e-05	2.9804e-05	9.1527e-06	266.51	2.9667e-07	3.241e-07	390.07	121.19	2.914e-07	3.3068e-07	176.7	75.117	52.205	27.632	3.457e-07	38.286	249.391	-33.730	38.204	-58.633	92.084	107.033	-60.209	-51.849	167.126	69.418	-55.480	-50.031	-46.201	-40.735	69.492	-45.507	-8191	255	
2269.107	1	1	0	0	0.10895	0.17356	0.15991	0.14133	0.13642	0.23149	0.14858	0.21403	0.13643	0.2025	0.11667	0.17183	0.11291	0.18006	0.17348	0.21146	-2.6167	-2.6333	-2.6375	-3.0687	-2.6167	-3.0938	-3.0938	-2.6146	-3.0333	-2.825	-2.8229	-3.0563	-2.6354	-3.0604	-3.0854	-2.6021	111.726	185.694	97.679	91.318	1.253	114.598	162.609	111.998	249.368	150.408	-32.986	42.601	-17.789	-59.364	132.629	93.319	0.00014455	7.0605e-05	3.4453e-05	282.95	1.5473e-06	1.0754e-06	413.96	127.48	2.3238e-06	5.7098e-07	191.33	80.107	56.353	29.256	6.409e-07	41.356	3.2064e-05	3.2098e-05	8.8157e-06	269.57	2.973e-07	3.5567e-07	393.17	121.45	2.9512e-07	3.5323e-07	175.43	74.491	51.86	27.505	3.2378e-07	37.911	248.257	51.748	68.667	-58.533	87.215	55.405	-59.838	-51.334	173.044	74.765	-55.540	-49.759	-45.745	-40.767	-26.485	-45.509	-8191	255	
2269.228	1	1	0	0	0.12848	0.051598	0.16778	0.21265	0.15383	0.19589	0.11072	0.082896	0.16348	0.061914	0.095415	0.19609	0.3179	0.20935	0.14276	0.16067	-2.6	-2.6854	-2.6562	-2.9313	-2.7917	-2.8104	-2.9938	-2.6271	-3.0104	-2.9271	-2.7396	-3.1042	-2.5875	-2.9042	-2.9562	-2.7708	-7.956	101.577	110.052	-57.491	-35.020	42.073	179.160	51.032	19.589	155.816	17.443	205.834	184.759	167.017	263.601	-11.194	0.00011798	0.00018911	2.117e-05	284.75	1.9081e-06	2.8074e-06	414.46	127.56	2.3819e-07	3.1676e-06	191.76	79.542	55.781	29.301	1.4469e-06	41.612	3.258e-05	3.2248e-05	8.2683e-06	270.82	3.1392e-07	3.5699e-07	393.1	121.3	3.1797e-07	3.5709e-07	175.15	74.271	51.839	27.452	3.1372e-07	38.082	250.343	-21.175	53.214	-58.429	109.412	21.566	-60.359	-51.810	-45.382	69.454	-55.255	-49.808	-45.730	-40.429	76.336	-45.925	-8191	255	
2269.324	1	1	0	0	0.31275	0.19387	0.1938	0.17641	0.072654	0.17847	0.22504	0.15252	0.039594	0.21038	0.07089	0.14866	0.10394	0.23846	0.1134	0.14913	-2.4208	-2.9062	-2.6375	-3.0667	-2.625	-2.8396	-3.2104	-2.4604	-3.05	-2.8458	-2.5708	-3.0646	-2.7708	-2.6437	-3.0229	-2.775	102.550	263.716	127.002	207.202	-31.237	-43.071	149.139	-31.314	-6.196	87.580	29.633	275.201	207.563	86.151	149.078	236.624	0.0001714	0.00016438	4.196e-05	280.69	1.7476e-06	1.1326e-06	407.63	126.37	1.6175e-06	2.3284e-06	189.7	79.477	55.792	29.218	1.462e-06	41.572	3.5835e-05	3.2373e-05	8.1002e-06	266.32	3.3709e-07	3.3872e-07	386.9	120.13	3.3802e-07	3.3706e-07	173.55	73.864	51.448	27.327	3.0352e-07	38.068	246.382	-46.303	70.106	-58.442	93.669	97.126	-60.220	-51.532	156.651	70.484	-55.197	-49.957	-45.843	-40.831	105.102	-45.385	-8191	255	
2269.420	1	1	0	0	0.082716	0.10248	0.18301	0.13871	0.27207	0.23478	0.15276	0.227	0.17629	0.26972	0.12944	0.16616	0.12249	0.12603	0.31704	0.36134	-2.425	-2.8417	-2.5812	-3.1167	-2.6854	-2.8792	-3.0625	-2.7021	-2.8083	-3.0792	-2.5479	-3.1104	-2.6708	-2.6354	-3.0687	-2.6437	14.788	-57.552	237.313	257.742	-10.575	86.534	214.971	6.813	-68.801	40.725	251.625	-64.751	183.092	195.731	-12.928	281.149	0.00014661	0.00015461	2.6119e-05	267.91	1.8831e-06	2.1759e-06	398.66	124.2	1.8782e-06	2.1733e-06	188.07	78.904	55.112	29.013	2.1138e-06	41.955	3.7084e-05	2.9592e-05	7.6462e-06	256.84	3.5018e-07	3.2278e-07	376.81	118.47	3.5039e-07	3.11e-07	171.79	73.534	50.825	27.21	2.8601e-07	38.281	243.415	-25.182	27.036	-58.388	90.487	55.167	-60.363	-51.314	122.290	92.889	-55.197	-49.378	-45.657	-40.572	56.734	-45.396	-8191	255	
2269.516	1	1	0	0	0.081533	0.041518	0.25002	0.17497	0.19057	0.10888	0.19788	0.1543	0.057789	0.067743	0.20986	0.27381	0.27241	0.090205	0.17847	0.19303	-2.4688	-2.9521	-2.5792	-3.0167	-2.8729	-2.5	-3.0542	-2.6896	-2.9062	-2.8583	-2.8063	-3.0104	-2.875	-2.6667	-2.8479	-2.8229	-49.198	14.088	163.589	-15.942	66.936	-13.364	126.693	82.936	267.215	267.462	246.527	271.298	243.915	206.726	254.615	-39.270	0.00013892	8.2447e-05	8.6271e-06	261.85	1.097e-06	7.7184e-07	386.13	122.64	2.4093e-06	1.8779e-06	185.13	77.787	54.412	28.871	6.3464e-07	41.836	3.6718e-05	2.7134e-05	7.2362e-06	248.02	3.4387e-07	3.0103e-07	365.15	116.99	3.3411e-07	2.8886e-07	169.11	72.442	49.934	27.023	2.7184e-07	38.122	246.210	-4.732	-56.344	-58.413	106.948	93.653	-60.103	-51.211	95.296	101.606	-55.035	-49.644	-45.330	-40.460	62.343	-45.327	-8191	255	
2269.635	1	1	0	0	0.17478	0.038966	0.29269	0.37026	0.092428	0.18603	0.066607	0.14169	0.205	0.11385	0.18175	0.035186	0.10147	0.11072	0.12249	0.21635	-2.325	-2.9792	-2.4542	-3.0208	-2.8563	-2.475	-3.1375	-2.6396	-2.6458	-2.9604	-2.7542	-2.8187	-3.0667	-2.4833	-3.0521	-2.7875	168.214	275.571	-52.550	285.352	-49.339	-15.528	85.586	-8.564	176.911	178.428	62.706	-39.802	245.878	12.817	-21.427	173.447	0.00013494	0.00019631	6.8395e-05	252.57	2.4569e-06	1.1969e-06	372.07	120.79	6.6018e-07	1.7646e-06	182.24	78.965	56.065	29.68	1.3939e-06	42.709	3.5167e-05	2.6073e-05	6.9095e-06	239.84	3.1235e-07	2.8691e-07	351.36	115.61	3.1887e-07	2.8037e-07	166.95	73.872	51.223	27.901	2.8112e-07	38.972	240.698	-18.627	40.021	-58.435	80.805	36.502	-60.134	-51.300	114.950	76.410	-55.271	-49.467	-45.482	-40.436	119.546	-45.321	-8191	255	
2269.708	1	1	0	0	0.14727	0.15726	0.26815	0.23633	0.16156	0.17723	0.16995	0.4394	0.21904	0.14721	0.36397	0.1611	0.24315	0.054557	0.17994	0.25876	-2.3333	-2.8229	-2.7521	-2.9396	-3.025	-2.7104	-3.3208	-2.8312	-2.3875	-3.0979	-2.6625	-3.1521	-2.9375	-2.6146	-2.8833	-3.0333	280.715	158.263	-38.741	177.026	101.378	254.412	227.080	286.559	-67.281	63.966	31.479	222.394	227.186	76.436	44.127	241.833	0.00012703	0.0001436	4.972e-05	239.54	2.3785e-06	2.138e-06	349.48	120.12	1.6626e-06	1.086e-06	181.96	88.465	62.828	34.521	9.727e-07	48.315	3.4224e-05	2.5006e-05	7.1407e-06	228.81	3.0144e-07	2.7458e-07	331.14	114.16	3.0406e-07	2.7341e-07	165.94	82.433	57.744	32.232	3.0488e-07	44.238	240.575	-7.460	82.098	-58.259	100.820	47.931	-60.283	-51.089	129.756	62.741	-55.115	-50.201	-46.566	-41.285	77.971	-46.147	-8191	255	
2269.805	1	1	0	0	0.13338	0.10011	0.26728	0.20653	0.052586	0.085744	0.22099	0.093399	0.17916	0.16365	0.34996	0.1678	0.028496	0.35228	0.15689	0.097382	-2.2458	-3.1542	-2.7354	-2.8625	-2.9146	-2.5042	-2.9958	-2.6958	-2.6125	-3.1396	-2.7333	-2.8229	-3.1646	-2.6729	-3.1125	-3.0062	-8.157	92.476	10.443	241.099	221.681	207.782	162.069	100.485	288.890	147.052	197.717	244.033	171.125	40.534	226.974	266.867	0.00015885	0.00018781	6.0175e-05	246.71	1.6708e-06	1.7554e-06	357.98	112.51	1.7142e-06	1.0323e-06	175.41	92.458	64.366	39.254	1.3344e-06	53.153	3.4463e-05	2.4513e-05	7.7428e-06	235.9	2.9437e-07	2.765e-07	339.94	107.62	3.0029e-07	2.7569e-07	159.76	86.02	58.614	36.705	3.3926e-07	48.617	253.631	-38.766	76.031	-59.011	99.936	49.443	-60.910	-51.855	135.840	126.475	-55.440	-50.905	-46.876	-42.767	91.148	-47.350	-8191	255	
2269.901	1	1	0	0	0.13634	0.18092	0.14245	0.27807	0.16765	0.097457	0.14258	0.1113	0.13265	0.28164	0.04279	0.20761	0.15341	0.053085	0.075814	0.23952	-2.2562	-3.0146	-2.8083	-2.7479	-3.2396	-2.4125	-3.025	-2.7708	-2.6292	-2.8958	-2.8937	-2.6333	-2.9896	-2.7333	-2.8354	-2.9125	265.191	67.176	30.416	279.006	131.874	166.822	279.971	-37.494	15.771	225.890	281.669	254.656	1.777	32.279	80.499	220.613	0.00018045	0.00022747	0.00011453	271.36	1.7115e-06	8.2363e-07	389.19	108.12	2.0338e-06	1.0526e-06	171.02	89.208	61.728	38.334	1.3065e-06	51.686	3.5109e-05	2.5555e-05	8.9215e-06	256.49	2.9992e-07	2.9208e-07	367.93	102.88	3.1988e-07	3.0192e-07	156	83.058	56.425	35.871	3.8678e-07	47.044	246.620	-42.885	65.004	-59.527	51.696	20.398	-61.064	-52.142	94.138	124.864	-56.176	-50.535	-46.864	-42.407	59.701	-47.178	-8191	255	
2270.020	1	1	0	0	0.10326	0.24825	0.18429	0.12617	0.14731	0.25641	0.091519	0.079781	0.12602	0.043677	0.13043	0.13868	0.14287	0.13524	0.13513	0.17332	-1.9396	-3.1583	-2.7438	-2.6646	-3.0646	-2.6625	-2.8292	-2.8708	-2.3604	-2.9792	-2.9979	-2.6625	-3.0812	-2.7687	-2.6167	-2.9021	130.200	201.857	-42.707	24.234	120.764	80.543	261.311	287.585	109.302	58.330	210.023	140.956	72.912	-58.079	285.403	254.147	0.00016173	0.00021182	4.293e-05	267.91	1.0784e-06	1.2894e-06	382.84	109.79	2.634e-06	2.5822e-06	171.47	88.154	61.386	36.538	1.1721e-06	49.048	3.633e-05	2.9949e-05	9.924e-06	256.15	3.1786e-07	3.4302e-07	364.78	104.53	3.2811e-07	3.5286e-07	157.72	82.281	56.175	34.101	4.1614e-07	44.53	251.423	-10.315	15.543	-59.510	66.206	45.431	-61.422	-52.260	111.794	134.130	-55.901	-50.714	-46.358	-42.135	75.194	-46.534	-8191	255	
2270.116	1	1	0	0	0.11806	0.084876	0.19194	0.15973	0.19687	0.13765	0.18174	0.059929	0.25344	0.070317	0.15086	0.20805	0.26118	0.10694	0.16448	0.18892	-1.9208	-2.7771	-2.6208	-2.4458	-3.1	-2.6146	-3.0625	-3.0312	-2.5521	-2.9167	-2.7771	-2.5625	-2.9562	-2.7458	-2.7667	-3.1167	180.462	276.924	-66.974	260.421	188.038	242.525	188.377	65.547	239.441	188.389	-2.265	44.955	-38.370	-17.935	93.995	-18.371	0.00016852	6.4192e-05	5.9465e-05	268.32	1.4338e-06	1.896e-06	384.64	110.71	1.5811e-06	1.6425e-06	171.75	85.474	58.558	34.298	1.4678e-06	45.95	3.7475e-05	3.4845e-05	1.0186e-05	255.4	3.347e-07	4.0497e-07	364.32	105.42	3.5254e-07	4.1073e-07	157.47	79.613	54.053	32.201	4.2712e-07	42.038	247.946	-63.608	51.308	-59.516	58.469	51.284	-60.913	-51.753	96.751	77.145	-55.982	-50.319	-46.574	-41.893	65.905	-46.231	-8191	255	
2270.212	1	1	0	0	0.33271	0.11182	0.2142	0.33325	0.17414	0.11186	0.0919	0.13057	0.048177	0.22819	0.25366	0.19137	0.37338	0.30412	0.16866	0.365	-2.1813	-2.9167	-2.9375	-2.6063	-3.0917	-2.775	-2.925	-2.9062	-2.75	-3.0167	-2.925	-2.6521	-2.9	-2.9042	-2.5604	-2.9562	59.482	152.537	272.963	122.016	44.534	180.761	136.585	179.771	176.006	57.049	-66.260	205.080	-45.636	241.415	149.520	248.149	0.00016262	7.5698e-05	6.5617e-05	274.25	1.4383e-06	3.054e-06	394.4	107.6	1.1136e-06	1.5752e-06	167.6	81.026	55.581	32.744	1.5174e-06	44.38	3.9601e-05	4.0595e-05	1.0575e-05	261.68	3.8002e-07	4.4901e-07	373.74	103.14	3.9812e-07	4.5607e-07	154.45	75.467	51.08	30.76	4.2445e-07	40.544	246.802	288.730	47.933	-59.598	53.901	40.599	-60.861	-51.691	119.747	56.985	-55.344	-50.326	-46.129	-41.486	99.623	-46.169	-8191	255	
2270.308	1	1	0	0	0.13943	0.1957	0.16225	0.12067	0.036332	0.12115	0.21855	0.20943	0.16863	0.24818	0.086121	0.35439	0.19962	0.032663	0.2686	0.16275	-2.1917	-2.8083	-2.8937	-2.4062	-2.9792	-2.8563	-2.6396	-2.95	-2.7667	-2.6958	-3.2562	-2.5521	-2.9062	-2.8167	-2.7146	-3.0792	-56.395	149.288	201.291	264.405	20.296	212.305	201.002	249.782	54.962	-11.088	283.515	266.927	240.469	28.265	-52.406	215.805	0.00015413	0.00016733	4.7059e-05	281.45	2.5389e-06	2.6835e-06	402.46	106.03	6.9906e-07	2.7731e-06	164.88	77.876	53.244	32.257	6.4175e-07	43.902	4.4476e-05	4.1881e-05	1.0778e-05	269.01	4.2111e-07	4.6517e-07	383.26	101.2	4.2958e-07	4.636e-07	151.55	72.665	49.008	30.288	4.1643e-07	40.086	251.226	30.649	101.280	-59.247	104.743	70.331	-61.165	-51.612	204.511	79.908	-55.459	-50.122	-46.011	-41.503	98.022	-46.431	-8191	255	
2270.404	1	1	0	0	0.30081	0.10003	0.239	0.12801	0.15184	0.12253	0.13752	0.354	0.10398	0.18794	0.10763	0.039004	0.21343	0.044033	0.12848	0.041073	-2.3417	-2.8229	-2.8542	-2.5083	-3.075	-2.7438	-2.5229	-3.0896	-2.7687	-2.6208	-3.1312	-2.6604	-2.9667	-2.9125	-2.6208	-3.1771	50.647	23.778	16.997	79.563	-6.565	87.408	216.380	-52.533	201.257	-18.804	199.869	231.302	143.323	-35.107	-5.796	274.646	0.00015561	0.00017583	2.0611e-05	283.9	1.4283e-06	1.7553e-06	403.11	102.67	6.2728e-07	1.7957e-06	160.46	74.922	51.516	31.961	3.5037e-07	43.096	4.7041e-05	4.1474e-05	1.0182e-05	269.45	4.5838e-07	4.383e-07	382.56	98.836	4.622e-07	4.4284e-07	147.23	70.225	47.777	29.918	4.0181e-07	39.406	248.577	5.461	30.070	-59.387	142.820	15.727	-61.099	-51.764	-9.065	73.125	-55.767	-50.149	-45.951	-41.450	99.422	-46.045	-8191	255	
2270.500	1	1	0	0	0.1493	0.14831	0.1596	0.095376	0.11893	0.11124	0.22094	0.073035	0.16861	0.17582	0.14027	0.15829	0.23702	0.30344	0.17906	0.17681	-2.3792	-2.5208	-3.2104	-2.5708	-2.8792	-2.8833	-2.4562	-2.9521	-2.6583	-2.6188	-3.0292	-2.6625	-2.6833	-2.8625	-2.3729	-2.9833	111.072	159.896	-13.952	193.249	-30.278	-64.428	256.823	103.887	261.164	179.828	248.829	-5.351	184.878	200.416	258.714	222.568	0.00017065	0.00010794	5.7518e-05	282.13	1.557e-06	6.1684e-07	398.8	102.1	1.1204e-06	1.1622e-06	158.21	73.592	50.725	31.813	1.0318e-06	43.261	4.8486e-05	3.9117e-05	9.8102e-06	269	4.6683e-07	4.2327e-07	379.01	97.797	4.7751e-07	4.2146e-07	145.32	69.034	46.935	29.764	3.9136e-07	39.409	247.267	25.180	29.196	-59.709	90.623	52.047	-61.129	-51.845	121.786	47.734	-55.716	-50.416	-45.946	-41.501	150.606	-46.334	-8191	255	
2270.621	1	1	0	0	0.14614	0.14417	0.11731	0.14975	0.14549	0.11696	0.13426	0.20608	0.17597	0.076109	0.076507	0.20475	0.30019	0.069208	0.3125	0.29096	-2.4062	-2.4813	-3.2188	-2.6625	-2.7396	-3.0542	-2.5104	-2.7958	-2.7604	-2.5312	-3.1604	-2.8479	-2.9083	-3.0375	-2.3354	-3.0708	-30.350	206.032	-39.645	12.424	-52.243	193.615	-50.646	255.942	68.441	152.575	142.080	84.285	275.064	82.498	-20.042	-44.456	0.00013804	0.00023596	2.2051e-05	280.27	2.4143e-06	7.422e-07	396.52	100.98	2.3432e-06	1.1934e-06	159.3	75.054	51.538	32.297	5.9821e-07	43.814	4.7589e-05	3.7796e-05	9.4211e-06	267.61	4.5073e-07	4.1143e-07	375.33	97.175	4.4623e-07	3.9641e-07	145.01	70.256	47.76	30.402	3.7747e-07	40.103	238.110	-18.983	89.080	-59.581	69.789	77.529	-61.404	-51.918	129.551	74.858	-55.406	-50.180	-46.320	-41.608	56.338	-46.412	-8191	255	
2270.715	1	1	0	0	0.19995	0.27919	0.12534	0.035001	0.13053	0.23366	0.10595	0.12455	0.25145	0.14828	0.14323	0.088043	0.15895	0.16055	0.13045	0.12471	-2.3688	-2.3375	-2.9875	-2.7646	-2.7333	-2.9979	-2.55	-2.8292	-2.6208	-2.5542	-2.9917	-2.8187	-2.6542	-3.0167	-2.4917	-2.8396	142.005	277.494	151.695	225.631	179.922	86.725	202.433	211.105	214.010	224.319	168.129	-67.893	184.253	259.518	138.408	-17.586	0.00013319	0.00013441	5.9707e-05	274.26	1.1869e-06	1.023e-06	389.53	103.04	2.2444e-06	1.5678e-06	161.69	77.864	54.136	32.556	7.9643e-07	43.756	4.5456e-05	3.6295e-05	9.4018e-06	263.61	4.2187e-07	3.8016e-07	370.16	98.705	4.1968e-07	3.8669e-07	147.97	72.659	49.958	30.463	4.0845e-07	40.095	246.712	0.654	75.362	-59.758	111.811	123.103	-61.401	-51.743	100.612	80.430	-55.867	-50.057	-46.284	-41.845	152.283	-46.438	-8191	255	
2270.812	1	1	0	0	0.24189	0.088239	0.1095	0.15015	0.12771	0.091572	0.15479	0.11948	0.15841	0.06462	0.13194	0.17096	0.14692	0.13237	0.092388	0.16459	-2.75	-2.5042	-2.9958	-2.8271	-2.7021	-3.1479	-2.6854	-2.9146	-2.8312	-2.5583	-3.0708	-2.7604	-2.4562	-3.0667	-2.5375	-2.7854	-14.502	130.623	276.081	97.691	-46.449	2.705	245.579	35.883	178.551	242.387	165.244	256.713	94.873	203.546	149.418	205.694	0.00015575	8.1583e-05	4.6546e-05	267.19	2.2522e-06	3.3162e-06	380.48	103.92	1.7598e-06	1.009e-06	160.63	76.569	53.88	31.608	1.0515e-06	41.945	4.3275e-05	3.3836e-05	9.9871e-06	255.84	4.0928e-07	3.5692e-07	360.17	99.388	3.9094e-07	3.5722e-07	147.43	71.664	49.582	29.575	4.3254e-07	38.526	248.892	-57.701	64.841	-59.866	58.943	27.914	-61.005	-51.942	149.480	80.790	-55.531	-50.501	-46.128	-41.825	113.814	-46.669	-8191	255	
2270.932	1	1	0	0	0.098668	0.064727	0.3377	0.37428	0.21515	0.005217	0.059712	0.021718	0.1264	0.089115	0.13483	0.15807	0.15775	0.09049	0.13235	0.13747	-2.5729	-2.5542	-2.9667	-2.7562	-2.7104	-3.0396	-2.775	-2.7167	-3.0146	-2.625	-3.025	-2.8542	-2.8479	-2.9479	-2.6708	-2.7687	100.190	222.943	238.790	122.882	280.557	168.535	263.972	7.914	-31.628	123.903	113.696	-23.216	145.263	248.005	-43.059	155.044	0.00015597	0.00016654	4.7939e-05	266.78	1.7868e-06	2.7214e-06	378.95	102.68	9.6901e-07	1.9028e-06	157.57	74.921	52.246	31.255	1.7912e-06	42.01	4.0539e-05	3.3223e-05	1.0632e-05	255.43	3.9433e-07	3.4871e-07	359.94	98.66	3.7481e-07	3.5837e-07	145.69	69.955	48.112	29.338	4.3498e-07	38.238	250.058	-20.407	80.844	-59.735	64.245	64.131	-60.956	-51.990	121.818	76.543	-55.462	-50.271	-45.811	-41.466	74.863	-46.566	-8191	255	
2271.004	1	1	0	0	0.12616	0.1308	0.23487	0.15329	0.29372	0.10408	0.24831	0.15815	0.18154	0.34606	0.15583	0.18322	0.059958	0.15856	0.23101	0.17565	-2.5396	-2.5125	-2.8833	-2.9646	-2.5354	-2.9917	-2.7417	-2.6	-3.0208	-2.7708	-2.7833	-3.0687	-2.7042	-3.15	-2.8458	-2.6542	275.636	251.604	-60.886	43.345	280.504	-37.831	214.031	82.539	204.403	-25.422	265.107	262.706	-4.720	285.204	-11.544	163.058	0.00012952	0.00012206	8.1216e-05	270.04	1.9951e-06	1.7437e-06	384.32	103.97	2.6722e-06	1.3762e-06	161.71	73.025	51.33	29.371	1.718e-06	38.987	3.8208e-05	3.3106e-05	1.1082e-05	258.12	3.6706e-07	3.648e-07	364.16	99.287	3.599e-07	3.8157e-07	148.73	68.387	47.306	27.59	4.4477e-07	35.734	255.054	37.379	59.857	-59.355	49.948	81.671	-60.685	-51.856	112.233	71.433	-55.374	-50.186	-46.172	-41.524	89.460	-46.032	-8191	255	
2271.100	1	1	0	0	0.18745	0.14586	0.23566	0.1855	0.078682	0.048877	0.13081	0.28932	0.16789	0.21453	0.048976	0.31176	0.16748	0.28265	0.21865	0.14495	-2.6188	-2.5896	-2.9146	-2.9958	-2.4229	-3.0396	-2.8771	-2.8021	-3.0333	-2.6354	-2.75	-2.8083	-2.6708	-3.1	-2.7646	-2.7875	246.860	109.452	123.137	-27.868	29.710	133.596	186.445	34.352	258.837	189.993	135.242	35.645	266.537	224.857	75.754	281.619	0.00012743	0.0002704	5.6927e-05	277.64	1.6503e-06	2.516e-06	392.32	113.73	1.1801e-06	9.7839e-07	175.27	72.606	51.882	27.222	3.8209e-07	37.229	3.7217e-05	3.6418e-05	1.1349e-05	264.59	3.5844e-07	4.0455e-07	374.47	109	3.5594e-07	4.13e-07	161.09	67.689	47.778	25.552	4.2383e-07	33.975	240.981	-7.917	53.172	-59.306	43.363	136.100	-60.972	-52.115	110.218	133.299	-56.081	-50.118	-46.239	-41.206	77.028	-46.182	-8191	255	
2271.196	1	1	0	0	0.077471	0.15693	0.091408	0.080472	0.12093	0.089111	0.30383	0.15433	0.018382	0.091998	0.047692	0.092609	0.049704	0.12177	0.11997	0.12671	-2.6479	-2.5438	-2.8708	-2.8812	-2.5458	-3.0375	-2.8458	-2.7354	-2.9479	-2.7812	-2.6771	-3.0938	-2.6042	-2.85	-2.7521	-2.5271	-29.364	135.236	39.451	-31.150	-36.879	97.611	13.201	128.156	228.503	-53.213	161.558	171.587	122.872	92.960	16.525	205.819	0.00013056	6.6209e-05	1.6557e-05	287.53	1.1157e-06	9.6826e-07	406.49	124.72	7.9744e-07	7.3528e-07	186.91	72.84	52.503	26.571	1.4473e-06	37.347	3.667e-05	3.8127e-05	1.0457e-05	273.22	3.4757e-07	4.1853e-07	387.36	119.02	3.524e-07	4.075e-07	171.41	68.237	48.186	24.935	3.6526e-07	34.119	241.528	18.198	56.062	-59.104	73.417	72.848	-60.303	-52.407	77.826	110.461	-55.859	-50.176	-46.416	-41.162	66.328	-46.104	-8191	255	
2271.317	1	1	0	0	0.14227	0.06579	0.12036	0.19504	0.23608	0.11891	0.11723	0.38999	0.14756	0.16959	0.069407	0.13399	0.1154	0.31119	0.3793	0.28952	-2.7583	-2.7104	-2.7583	-3.0875	-2.5542	-3.0438	-2.95	-2.6479	-2.9708	-2.7833	-2.9271	-2.9813	-2.7021	-2.8958	-3.0021	-2.6417	164.333	134.962	62.402	-21.078	200.563	215.790	-35.305	-40.154	162.501	76.735	-63.649	251.310	105.928	-33.063	-42.079	185.699	0.00011749	0.00022019	3.6492e-05	291.92	1.4581e-06	2.3143e-06	417.61	128.91	7.2749e-07	1.9635e-06	191.48	73.283	52.472	26.569	1.3029e-06	37.833	3.4779e-05	3.7167e-05	8.978e-06	277.26	3.3551e-07	3.8263e-07	397.3	122.6	3.3468e-07	3.7378e-07	174.6	68.463	48.257	24.972	3.2933e-07	34.592	258.270	-30.114	30.850	-58.822	78.437	65.809	-60.583	-51.920	135.224	74.044	-56.050	-50.157	-46.074	-41.002	126.793	-45.930	-8191	255	
2271.413	1	1	0	0	0.1635	0.14587	0.18153	0.24954	0.094374	0.25955	0.12695	0.30979	0.17461	0.1589	0.14907	0.20818	0.12938	0.16009	0.29444	0.3221	-2.5167	-3.0062	-2.5187	-2.9646	-2.8396	-2.6625	-3.1896	-2.6458	-2.8896	-2.975	-2.7583	-3.1667	-2.7562	-2.8604	-3.0312	-2.7708	41.069	128.934	-10.462	264.937	169.378	219.472	235.779	235.445	109.152	80.003	198.438	196.469	31.630	227.786	165.298	211.066	0.0001211	0.00015971	4.0498e-05	304.61	1.6113e-06	1.5638e-06	440.03	132.88	7.7796e-07	8.6479e-07	197.4	75.904	55.032	27.763	1.5489e-06	38.801	3.5469e-05	3.2268e-05	7.9981e-06	288.78	3.3203e-07	3.4231e-07	413.74	126.7	3.3342e-07	3.3105e-07	179.41	70.717	50.573	26.054	2.9782e-07	35.532	242.795	-35.151	17.511	-58.710	91.043	76.861	-60.678	-52.007	227.155	102.988	-55.885	-50.422	-46.460	-41.251	115.300	-45.934	-8191	255	
2271.509	1	1	0	0	0.092148	0.035312	0.26726	0.19873	0.19087	0.14289	0.15216	0.12159	0.063113	0.13669	0.18333	0.10186	0.071574	0.18848	0.12619	0.12881	-2.625	-2.8125	-2.7188	-2.9688	-2.7021	-2.825	-3.0479	-2.8271	-3.025	-2.9604	-2.5146	-3.0563	-2.8167	-2.7687	-3.1708	-2.6937	192.121	10.103	-45.072	153.564	-22.408	198.105	245.869	222.769	78.343	-50.594	288.308	230.682	238.006	-44.947	65.156	216.813	0.00014164	0.00018478	3.6737e-05	329.82	1.2592e-06	2.5751e-06	469.87	141.82	2.1056e-06	1.6918e-06	210.14	79.864	57.521	28.191	3.0355e-06	40.101	3.5668e-05	2.9206e-05	7.3818e-06	312.92	3.4557e-07	3.1764e-07	443.33	134.85	3.4592e-07	3.0961e-07	191.62	74.487	52.888	26.443	2.9555e-07	36.71	238.213	4.924	35.804	-58.941	50.748	35.304	-61.093	-52.492	114.812	44.930	-56.062	-50.703	-46.849	-41.467	72.753	-46.456	-8191	255	
2271.581	1	1	0	0	0.29244	0.16824	0.14907	0.25056	0.048001	0.20562	0.044578	0.16665	0.18056	0.16968	0.082086	0.035572	0.30757	0.040164	0.20976	0.25324	-2.5771	-2.7708	-2.5625	-3.0146	-2.8021	-2.9646	-3.1083	-2.6833	-3.0604	-2.8521	-2.6813	-2.9646	-2.9208	-2.5438	-3.0292	-2.8479	130.254	137.771	-60.671	-19.688	258.214	-8.030	224.311	245.951	40.379	211.466	222.284	-30.668	24.914	60.698	75.454	278.921	0.00012541	0.00015345	6.3546e-05	358.31	2.5807e-06	1.1559e-06	505.45	151.6	6.9608e-07	3.1164e-06	223.14	82.97	59.448	28.94	1.4248e-06	41.339	3.7385e-05	2.7516e-05	7.3661e-06	340.82	3.5534e-07	3.0589e-07	475.1	144.3	3.5087e-07	3.0466e-07	203.16	77.468	54.609	27.027	2.9141e-07	37.819	253.320	-27.195	50.399	-59.278	121.425	61.392	-60.910	-53.076	85.279	72.379	-56.333	-50.866	-47.190	-41.578	105.052	-46.515	-8191	255	
2271.701	1	1	0	0	0.050287	0.17143	0.14545	0.25669	0.068925	0.2673	0.089438	0.41966	0.17382	0.079093	0.074283	0.28636	0.17704	0.092502	0.073624	0.23555	-2.2917	-3.0729	-2.6604	-2.9417	-2.9542	-2.5938	-3.2104	-2.7458	-2.9	-3.1312	-2.7208	-3.0792	-3.0021	-2.5563	-3.1937	-2.7438	-60.440	168.479	-2.495	235.219	3.906	-44.850	84.077	-69.937	71.040	-14.007	-30.456	215.822	59.671	162.174	198.073	186.508	0.00014217	0.00018953	3.4496e-05	367.57	1.9671e-06	2.739e-06	508.37	151.26	1.7207e-06	9.8493e-07	218.2	80.275	56.699	28.504	1.2222e-06	40.751	3.6355e-05	2.7171e-05	7.1921e-06	348.45	3.3e-07	3.0108e-07	479.49	143.9	3.2447e-07	2.8461e-07	199.3	74.749	51.976	26.687	2.8214e-07	37.306	246.827	-10.074	75.603	-59.420	85.103	38.638	-61.001	-52.847	113.651	71.521	-55.834	-50.538	-46.304	-41.521	48.445	-45.767	-8191	255	
2271.798	1	1	0	0	0.25644	0.098635	0.19957	0.16871	0.057131	0.11092	0.27466	0.10976	0.16437	0.22155	0.11573	0.23787	0.25944	0.017684	0.21381	0.23075	-2.3354	-3.1625	-2.6021	-3.0896	-3.0375	-2.6729	-3.4479	-2.6833	-2.9062	-3.0979	-2.5792	-2.8542	-3.0667	-2.6479	-3.1437	-2.9833	166.220	81.372	183.664	178.584	271.123	61.421	278.022	-65.094	26.369	-63.976	46.798	30.714	275.633	283.148	37.813	23.185	0.00015391	0.0002778	7.1477e-05	343.61	1.6725e-06	1.4118e-06	466.96	137.54	1.7172e-06	5.3762e-07	197.89	73.38	51.063	27.704	6.8943e-07	40.371	3.2938e-05	2.4602e-05	7.0951e-06	324.58	3.0099e-07	2.6812e-07	442.18	130.83	2.9297e-07	2.5038e-07	180.63	68.546	47.102	25.976	2.8898e-07	36.948	249.191	1.412	61.314	-58.853	43.877	55.753	-60.464	-52.085	156.120	82.617	-55.847	-50.059	-46.099	-40.954	1.297	-45.711	-8191	255	
2271.894	1	1	0	0	0.10203	0.089734	0.15749	0.22202	0.28361	0.14262	0.1326	0.090384	0.14152	0.060043	0.25333	0.20343	0.096913	0.2017	0.079041	0.1468	-2.3417	-3.0646	-2.7667	-3.025	-2.8958	-2.7833	-3.0625	-3.1646	-2.6021	-3.1146	-2.7833	-2.8729	-3.0708	-2.8375	-3.0083	-3.1167	281.396	260.508	-13.384	190.649	264.489	167.658	46.382	243.369	-3.825	253.673	198.820	216.671	148.262	204.527	-14.261	23.577	0.00014967	7.2902e-05	3.6181e-05	317.26	5.0476e-07	1.426e-06	446.26	127.56	1.1287e-06	1.9289e-06	190.78	71.724	49.12	28.144	1.1715e-06	41.582	3.0727e-05	2.2539e-05	7.2599e-06	302.2	2.7011e-07	2.4981e-07	420.97	121.79	2.7359e-07	2.3896e-07	174.21	66.819	45.414	26.478	2.9333e-07	38.045	245.447	23.679	83.624	-58.516	99.317	51.412	-60.235	-51.846	100.730	85.619	-55.584	-49.882	-46.306	-40.901	101.627	-46.115	-8191	255	
2272.013	1	1	0	0	0.15574	0.072029	0.26279	0.18716	0.080667	0.057378	0.20943	0.20955	0.10552	0.2976	0.033761	0.048102	0.065902	0.19868	0.33434	0.14487	-2.2062	-3.0687	-2.9188	-2.6896	-3.1979	-2.6208	-3.1792	-2.8292	-2.7083	-3.0375	-2.9292	-2.6542	-3.0896	-2.6333	-3.05	-3.0604	219.616	1.907	82.515	179.131	193.886	283.248	259.322	78.059	1.822	172.292	167.331	179.608	2.359	284.177	197.680	211.500	0.00012274	0.00020131	5.6385e-05	313.27	1.9291e-06	2.2353e-06	447.49	125.26	9.7041e-07	2.4254e-06	190.9	72.503	50.026	29.504	1.776e-06	43.574	2.93e-05	2.2282e-05	7.6392e-06	298.86	2.5161e-07	2.4868e-07	421.51	119.46	2.5904e-07	2.4562e-07	174.72	67.866	45.8	27.618	3.0269e-07	39.753	244.784	21.406	26.108	-58.294	67.958	38.358	-60.260	-51.922	104.760	57.860	-55.321	-50.140	-45.965	-41.499	95.004	-46.215	-8191	255	
2272.109	1	1	0	0	0.23459	0.17723	0.15003	0.14503	0.18848	0.092802	0.13357	0.18521	0.092116	0.17805	0.15903	0.2576	0.17111	0.17938	0.16993	0.090038	-2.3771	-2.9979	-2.825	-2.7396	-3.1479	-2.5229	-3.0167	-2.8979	-2.5187	-3.1312	-2.8875	-2.8479	-3.1708	-2.7188	-2.5875	-3.2292	-37.883	195.575	-28.692	-39.727	247.176	28.815	287.152	3.219	143.761	242.498	170.581	25.427	251.631	217.686	254.026	219.356	0.00013222	0.00021011	6.4934e-05	319	1.1826e-06	1.5195e-06	456.65	126.29	2.4261e-06	1.6492e-06	195.27	75.412	51.615	32.196	1.9598e-06	46.792	2.8827e-05	2.3008e-05	7.4204e-06	303.56	2.3884e-07	2.5716e-07	431.26	120.28	2.4156e-07	2.5936e-07	178.67	70.376	47.286	30.048	2.9761e-07	42.818	242.099	-28.522	48.626	-58.466	62.242	24.163	-60.169	-52.106	119.854	110.125	-55.906	-50.658	-46.341	-42.070	113.592	-47.133	-8191	255	
2272.182	1	1	0	0	0.10276	0.1065	0.22139	0.056229	0.12393	0.15792	0.18957	0.056148	0.13033	0.065862	0.18729	0.21902	0.18355	0.1186	0.17969	0.14975	-2.1	-3.0917	-2.9896	-2.6292	-3.275	-2.7812	-3.0417	-2.9021	-2.5458	-3.1521	-2.775	-2.7938	-2.9875	-2.8937	-2.7146	-3.1312	110.806	289.566	260.720	80.813	-66.639	214.747	230.357	146.122	163.047	262.141	185.943	-8.618	183.123	87.738	261.824	212.000	0.0001638	0.00010477	6.0391e-05	330.55	2.0651e-06	2.0693e-06	473.92	131.34	2.1061e-06	1.4519e-06	204.7	81.175	55.465	35.442	1.4862e-06	51.028	2.814e-05	2.5393e-05	7.1531e-06	313.16	2.3661e-07	2.8465e-07	447.12	124.73	2.4826e-07	2.816e-07	187.04	75.477	51.024	33.132	2.9801e-07	46.63	250.903	28.822	20.416	-58.903	66.750	36.851	-60.552	-52.239	90.927	105.118	-56.014	-50.800	-46.897	-43.028	114.759	-47.481	-8191	255	
2272.301	1	1	0	0	0.093692	0.10824	0.058768	0.11954	0.24617	0.12659	0.11089	0.18279	0.12495	0.13848	0.081013	0.074944	0.26795	0.050244	0.017132	0.070684	-2.2583	-2.7854	-3.0542	-2.6063	-2.9021	-2.5812	-2.8208	-2.9708	-2.7125	-2.8792	-2.9229	-2.5938	-2.9854	-2.9708	-2.6354	-3.1958	106.749	158.173	129.901	187.943	58.778	107.802	233.517	129.327	131.251	164.600	7.587	278.459	222.679	88.072	-67.601	171.180	0.00019997	0.00010762	7.3049e-05	345.87	1.7586e-06	1.5085e-06	489.02	135.99	5.105e-07	2.0926e-06	210.72	85.331	58.61	37.181	1.8189e-06	53.192	3.059e-05	2.7643e-05	7.2691e-06	327.57	2.6037e-07	3.0504e-07	459.59	129.23	2.69e-07	3.0451e-07	192.2	79.506	53.652	34.768	2.9611e-07	48.411	245.962	35.074	39.677	-58.800	104.337	85.524	-60.329	-52.394	-36.867	86.788	-56.413	-51.257	-47.081	-42.978	37.558	-47.835	-8191	255	
2272.397	1	1	0	0	0.18298	0.19091	0.12185	0.18744	0.35847	0.21793	0.17919	0.13714	0.18254	0.30303	0.10366	0.23619	0.1808	0.19886	0.14721	0.13474	-2.3417	-2.8958	-3.1771	-2.5083	-3.0146	-2.9354	-2.7521	-2.9604	-2.7333	-2.8583	-2.8729	-2.5604	-2.8833	-2.9375	-2.6667	-3.0396	125.603	-30.488	-42.735	205.046	-65.081	279.956	220.301	275.891	-28.087	258.575	-45.450	214.490	-24.054	284.578	110.298	-56.758	0.00018253	0.00022477	6.366e-05	352.18	1.0257e-06	1.2468e-06	489.46	137.59	1.6065e-06	2.3722e-06	213.71	87.856	59.618	37.637	1.9929e-06	53.825	3.2989e-05	2.8509e-05	6.9715e-06	333.09	2.838e-07	3.1072e-07	463.06	130.6	3.0123e-07	3.1048e-07	194.93	81.782	54.876	35.242	2.8465e-07	49.133	242.127	-37.553	48.570	-58.649	98.822	26.416	-60.662	-52.694	118.773	61.327	-56.071	-51.055	-46.931	-43.125	110.926	-47.473	-8191	255	
2272.493	1	1	0	0	0.074606	0.16109	0.1456	0.052433	0.13498	0.06865	0.20304	0.15905	0.21041	0.16158	0.11096	0.20125	0.156	0.214	0.2878	0.29599	-2.0229	-2.5271	-3.0333	-2.7042	-2.8729	-2.8146	-2.7021	-2.9229	-2.6854	-2.6667	-3.1604	-2.7917	-2.5396	-2.9708	-2.4375	-2.9708	168.779	90.051	-42.076	254.163	-59.193	267.076	205.321	10.177	163.806	282.572	180.399	133.105	109.082	-42.216	-46.418	243.252	0.00018353	0.00014246	4.897e-05	351.71	3.4758e-07	1.8855e-06	490.72	138.13	1.9498e-06	1.9068e-06	215.7	88.892	61.262	37.867	5.7866e-07	54.453	3.4915e-05	2.7716e-05	6.6826e-06	332.48	3.074e-07	2.881e-07	463.74	131.2	3.1086e-07	2.8918e-07	195.53	82.732	55.901	35.683	2.7595e-07	49.612	250.770	-61.207	42.611	-59.191	70.386	65.648	-60.713	-52.718	116.006	38.523	-56.212	-51.239	-47.120	-43.220	38.583	-47.571	-8191	255	
2272.614	1	1	0	0	0.14141	0.20961	0.28463	0.2468	0.12772	0.19253	0.081697	0.17151	0.21995	0.14697	0.3049	0.28643	0.24543	0.2317	0.046813	0.24444	-2.4979	-2.6292	-2.7479	-2.6958	-2.8167	-2.9604	-2.5854	-3.1417	-2.6208	-2.6854	-2.8937	-2.6625	-2.7667	-2.9188	-2.5208	-3.0375	142.649	80.105	89.124	-48.318	218.584	-3.516	142.909	223.883	-18.568	220.272	-60.168	270.142	241.265	276.461	38.172	117.828	0.0001924	0.00015443	7.0125e-05	350.94	3.0104e-06	1.7999e-06	489.26	138.06	1.3927e-06	3.2777e-06	213.54	88.443	60.738	38.449	1.5993e-06	54.483	3.5436e-05	2.5203e-05	6.2662e-06	332.22	3.0104e-07	2.645e-07	462.23	131.49	3.0226e-07	2.636e-07	194.53	82.452	55.686	35.854	2.5414e-07	49.418	248.842	14.376	42.989	-58.995	108.606	15.085	-60.711	-52.648	87.015	85.179	-55.960	-51.040	-47.200	-43.129	73.946	-47.551	-8191	255	
#DATA ENDS
