BOXY.EXE: ISS Imagent and Oximeter Data Acquisition Program Version 0.80
Ascii Record File

#ACQ INFORMATION
2  Detector Channels 
16  External MUX Channels 
1  Auxiliary Channels 
5000  Waveform (CCF) Frequency (Hz)
1  Waveforms Skipped 
30  Waveforms Averaged 
1  Cycles Averaged 
16  Acquisitions per Waveform 
10.0806  Updata Rate (Hz) 

#FILE INFORMATION
TRUE -- External MUX Channel results are PARSED.
FALSE -- AC DC and Phase are NOT grouped.
TRUE -- Companion Program Settings File CREATED.
FALSE -- AC data not excluded
FALSE -- DC data not excluded
FALSE -- Phase data not excluded
FALSE -- Auxillary Chn. data not excluded
Tab delimiters

#CALIBRATION STATE
TRUE -- Waveform Calibration Values APPLIED.


#AUX CALIBRATION VALUES
Val Type	aux-1	

Term	1.0000e+00	
Factor	0.0000e+00	


#WF CALIBRATION VALUES
A = Detector Channel
Val Type	A-AC1	A-AC2	A-AC3	A-AC4	A-AC5	A-AC6	A-AC7	A-AC8	A-AC9	A-AC10	A-AC11	A-AC12	A-AC13	A-AC14	A-AC15	A-AC16	A-DC1	A-DC2	A-DC3	A-DC4	A-DC5	A-DC6	A-DC7	A-DC8	A-DC9	A-DC10	A-DC11	A-DC12	A-DC13	A-DC14	A-DC15	A-DC16	A-Ph1	A-Ph2	A-Ph3	A-Ph4	A-Ph5	A-Ph6	A-Ph7	A-Ph8	A-Ph9	A-Ph10	A-Ph11	A-Ph12	A-Ph13	A-Ph14	A-Ph15	A-Ph16	

Term	0.00000e+00	0.00000e+00	0.00000e+00	0.00000e+00	0.00000e+00	0.00000e+00	0.00000e+00	0.00000e+00	0.00000e+00	0.00000e+00	0.00000e+00	0.00000e+00	0.00000e+00	0.00000e+00	0.00000e+00	0.00000e+00	0.00000e+00	0.00000e+00	0.00000e+00	0.00000e+00	0.00000e+00	0.00000e+00	0.00000e+00	0.00000e+00	0.00000e+00	0.00000e+00	0.00000e+00	0.00000e+00	0.00000e+00	0.00000e+00	0.00000e+00	0.00000e+00	0.00000e+00	0.00000e+00	0.00000e+00	0.00000e+00	0.00000e+00	0.00000e+00	0.00000e+00	0.00000e+00	0.00000e+00	0.00000e+00	0.00000e+00	0.00000e+00	0.00000e+00	0.00000e+00	0.00000e+00	0.00000e+00	
Factor	1.00000e+00	1.00000e+00	1.00000e+00	1.00000e+00	1.00000e+00	1.00000e+00	1.00000e+00	1.00000e+00	1.00000e+00	1.00000e+00	1.00000e+00	1.00000e+00	1.00000e+00	1.00000e+00	1.00000e+00	1.00000e+00	1.00000e+00	1.00000e+00	1.00000e+00	1.00000e+00	1.00000e+00	1.00000e+00	1.00000e+00	1.00000e+00	1.00000e+00	1.00000e+00	1.00000e+00	1.00000e+00	1.00000e+00	1.00000e+00	1.00000e+00	1.00000e+00	X	X	X	X	X	X	X	X	X	X	X	X	X	X	X	X	

B = Detector Channel
Val Type	B-AC1	B-AC2	B-AC3	B-AC4	B-AC5	B-AC6	B-AC7	B-AC8	B-AC9	B-AC10	B-AC11	B-AC12	B-AC13	B-AC14	B-AC15	B-AC16	B-DC1	B-DC2	B-DC3	B-DC4	B-DC5	B-DC6	B-DC7	B-DC8	B-DC9	B-DC10	B-DC11	B-DC12	B-DC13	B-DC14	B-DC15	B-DC16	B-Ph1	B-Ph2	B-Ph3	B-Ph4	B-Ph5	B-Ph6	B-Ph7	B-Ph8	B-Ph9	B-Ph10	B-Ph11	B-Ph12	B-Ph13	B-Ph14	B-Ph15	B-Ph16	

Term	0.00000e+00	0.00000e+00	0.00000e+00	0.00000e+00	0.00000e+00	0.00000e+00	0.00000e+00	0.00000e+00	0.00000e+00	0.00000e+00	0.00000e+00	0.00000e+00	0.00000e+00	0.00000e+00	0.00000e+00	0.00000e+00	0.00000e+00	0.00000e+00	0.00000e+00	0.00000e+00	0.00000e+00	0.00000e+00	0.00000e+00	0.00000e+00	0.00000e+00	0.00000e+00	0.00000e+00	0.00000e+00	0.00000e+00	0.00000e+00	0.00000e+00	0.00000e+00	-1.80303e+02	-1.38097e+02	-1.19944e+02	-1.80819e+02	-7.90061e+01	-8.11867e+01	-1.57378e+02	-1.62015e+02	-8.94823e+01	-7.32125e+01	-1.71564e+02	-1.71541e+02	-1.83671e+02	-1.76147e+02	-9.09538e+01	-1.49257e+02	
Factor	2.87017e-05	1.45962e-04	4.30770e-05	1.57142e-01	1.46671e-06	1.61965e-06	1.59980e-01	4.53428e-02	1.43660e-06	1.32136e-06	7.50420e-02	2.82269e-02	3.42424e-02	8.08152e-03	1.41912e-06	1.17899e-02	2.86743e-06	3.12586e-06	8.73151e-07	7.88825e-02	3.38613e-08	3.44756e-08	7.56613e-02	2.28643e-02	3.41259e-08	3.46871e-08	3.65790e-02	1.37491e-02	1.70758e-02	4.08423e-03	3.47117e-08	5.78306e-03	X	X	X	X	X	X	X	X	X	X	X	X	X	X	X	X	



#DISTANCE SETTINGS
A = Detector Channel
A-1	A-2	A-3	A-4	A-5	A-6	A-7	A-8	A-9	A-10	A-11	A-12	A-13	A-14	A-15	A-16	

2.5000e+00	3.0000e+00	2.5000e+00	3.0000e+00	2.0000e+00	3.0000e+00	1.5000e+00	3.0000e+00	3.0000e+00	3.0000e+00	3.0000e+00	3.0000e+00	3.0000e+00	3.0000e+00	1.5000e+00	3.0000e+00	

B = Detector Channel
B-1	B-2	B-3	B-4	B-5	B-6	B-7	B-8	B-9	B-10	B-11	B-12	B-13	B-14	B-15	B-16	

1.0000e+01	1.0000e+01	1.0000e+01	1.4400e+00	1.0000e+01	1.0000e+01	1.5100e+00	1.9400e+00	1.0000e+01	1.0000e+01	1.9900e+00	2.4900e+00	2.4100e+00	2.9000e+00	1.0000e+01	2.9800e+00	




#DATA BEGINS
time	group	step	mark	flag	A-AC1	A-AC2	A-AC3	A-AC4	A-AC5	A-AC6	A-AC7	A-AC8	A-AC9	A-AC10	A-AC11	A-AC12	A-AC13	A-AC14	A-AC15	A-AC16	A-DC1	A-DC2	A-DC3	A-DC4	A-DC5	A-DC6	A-DC7	A-DC8	A-DC9	A-DC10	A-DC11	A-DC12	A-DC13	A-DC14	A-DC15	A-DC16	A-Ph1	A-Ph2	A-Ph3	A-Ph4	A-Ph5	A-Ph6	A-Ph7	A-Ph8	A-Ph9	A-Ph10	A-Ph11	A-Ph12	A-Ph13	A-Ph14	A-Ph15	A-Ph16	B-AC1	B-AC2	B-AC3	B-AC4	B-AC5	B-AC6	B-AC7	B-AC8	B-AC9	B-AC10	B-AC11	B-AC12	B-AC13	B-AC14	B-AC15	B-AC16	B-DC1	B-DC2	B-DC3	B-DC4	B-DC5	B-DC6	B-DC7	B-DC8	B-DC9	B-DC10	B-DC11	B-DC12	B-DC13	B-DC14	B-DC15	B-DC16	B-Ph1	B-Ph2	B-Ph3	B-Ph4	B-Ph5	B-Ph6	B-Ph7	B-Ph8	B-Ph9	B-Ph10	B-Ph11	B-Ph12	B-Ph13	B-Ph14	B-Ph15	B-Ph16	aux-1	digaux	

7634.021	1	1	0	256	0.38548	0.087503	0.27753	0.11967	0.24515	0.16366	0.14048	0.23455	0.12768	0.075564	0.16875	0.089806	0.32576	0.11266	0.15808	0.28516	-2.2542	-2.5062	-2.9146	-2.5792	-2.7062	-2.8042	-2.7313	-2.9875	-2.8979	-2.4688	-2.9854	-2.4979	-2.7729	-2.9479	-2.6271	-2.8292	244.119	38.761	106.157	240.840	119.368	175.995	-24.197	20.323	257.723	31.207	223.117	184.010	202.334	156.512	176.865	212.581	0.00021615	0.00035198	0.00018358	1260.7	4.2556e-06	4.8952e-06	1253.7	327.38	3.6161e-06	4.75e-06	377.43	121.79	104.93	36.261	3.3724e-06	46.007	0.00031403	0.00031062	8.4754e-05	1271	3.3602e-06	3.334e-06	1266.4	330.7	3.3453e-06	3.3021e-06	381.3	124.02	106.48	36.859	3.2552e-06	46.679	123.278	-30.545	6.963	-69.316	65.886	29.398	-69.385	-64.529	50.857	68.735	-65.011	-60.800	-60.070	-54.895	73.940	-56.029	-8191	255	
7634.142	1	1	0	0	0.060258	0.12689	0.017801	0.2977	0.16121	0.050992	0.062212	0.28268	0.12186	0.079777	0.19354	0.072413	0.050094	0.16365	0.17946	0.035637	-2.2208	-2.625	-2.8667	-2.6146	-2.7792	-3.0208	-2.7729	-2.8979	-2.6688	-2.4979	-2.9542	-2.6417	-2.7229	-2.8854	-2.6562	-2.85	-54.466	150.607	30.539	247.156	170.180	-62.981	186.151	-77.968	-58.907	-47.432	231.958	-6.563	86.762	128.540	107.800	142.031	0.00021286	0.00053217	0.00011994	1264.5	4.7032e-06	3.4593e-06	1258	327.31	3.9925e-06	1.3787e-06	376.2	122.13	104.81	36.159	3.1243e-06	45.796	0.00030024	0.00028311	7.8225e-05	1269	3.0936e-06	3.0586e-06	1264.1	330.39	3.0565e-06	3.0013e-06	380.75	123.76	105.98	36.77	3.019e-06	46.585	120.430	12.416	4.102	-69.291	77.339	77.536	-69.335	-64.437	13.850	-25.804	-64.810	-60.532	-60.104	-54.980	20.240	-55.766	-8191	255	
7634.236	1	1	0	0	0.17368	0.10204	0.06087	0.22746	0.05188	0.2279	0.33367	0.29165	0.12326	0.12547	0.2093	0.22268	0.19797	0.10056	0.11452	0.087378	-2.325	-2.5854	-2.7583	-2.7146	-2.5917	-2.9083	-2.6396	-2.9458	-2.8042	-2.6125	-2.7896	-2.7938	-2.5938	-3.1437	-2.4562	-2.7667	62.622	-31.981	139.519	235.234	102.150	128.081	230.913	255.065	74.153	59.852	-80.208	233.995	-63.857	-39.437	251.537	264.507	0.00023573	0.00040218	0.00011461	1261.5	5.0783e-06	3.4926e-06	1254.1	327.39	2.6127e-06	6.096e-06	378.24	121.71	104.77	36.265	3.7224e-06	45.644	0.00028406	0.00027246	7.6237e-05	1267	3.0486e-06	2.9928e-06	1263.8	330.88	3.0478e-06	3.0641e-06	381.56	123.64	106.17	36.741	3.116e-06	46.497	120.680	-9.804	31.319	-69.159	34.224	76.572	-69.358	-64.455	-33.587	63.443	-64.908	-60.519	-60.080	-54.985	3.681	-55.557	-8191	255	
7634.332	1	1	0	0	0.085606	0.22014	0.098874	0.10814	0.085367	0.043082	0.28352	0.38758	0.10957	0.096548	0.085409	0.12788	0.14819	0.0355	0.18547	0.22138	-2.3146	-2.3563	-2.6917	-2.9229	-2.6312	-2.9146	-2.775	-2.7458	-2.7604	-2.5792	-2.9938	-2.8521	-2.6333	-3.0167	-2.5875	-2.7938	-23.618	40.606	101.391	-78.631	15.962	18.452	253.056	167.794	-50.463	188.389	-45.132	208.017	277.191	215.029	-26.503	86.747	0.00025076	0.00020891	0.00017581	1264.5	4.9957e-06	3.4882e-06	1258.1	327.31	2.0038e-06	4.2761e-06	377.21	122.15	104.79	36.239	1.8881e-06	45.971	0.00029006	0.00028388	7.9559e-05	1268.4	3.1571e-06	3.1607e-06	1264.5	330.56	3.2742e-06	3.2532e-06	381.07	124.11	106.37	36.849	3.402e-06	46.678	117.515	-51.950	4.954	-69.025	44.910	58.733	-69.306	-64.335	25.975	72.989	-65.052	-60.765	-60.035	-55.042	42.140	-55.886	-8191	255	
7634.428	1	1	0	0	0.10147	0.18538	0.19508	0.11176	0.13111	0.087211	0.31622	0.51671	0.054876	0.14271	0.091715	0.13264	0.1675	0.30606	0.11223	0.07546	-2.4083	-2.4667	-2.7917	-2.8917	-2.4583	-2.7313	-2.7896	-2.6917	-2.8708	-2.6167	-2.9104	-2.8708	-2.5333	-2.8896	-2.5979	-2.7208	-41.167	268.533	198.896	219.838	142.257	271.796	198.035	255.189	-10.787	41.742	177.665	254.130	-32.075	263.793	64.327	207.364	0.00025509	0.0003632	0.00022204	1263.1	4.5615e-06	7.226e-06	1253.9	326.64	5.7355e-06	3.8371e-06	378.97	121.81	105.05	36.268	5.8696e-06	45.859	0.0003163	0.00030501	8.5281e-05	1270.3	3.4143e-06	3.3721e-06	1267.2	331.49	3.4326e-06	3.3628e-06	382.29	124.15	106.46	36.889	3.4098e-06	46.701	129.055	-15.850	12.144	-69.326	71.531	60.982	-69.423	-64.477	29.757	54.334	-64.986	-60.443	-60.218	-54.932	58.694	-55.759	-8191	255	
7634.524	1	1	0	0	0.21426	0.080884	0.039486	0.19694	0.22821	0.080588	0.11392	0.10961	0.09695	0.1303	0.1279	0.31752	0.24733	0.26789	0.25431	0.079954	-2.4104	-2.3729	-2.75	-2.9292	-2.5146	-2.8312	-2.9458	-2.7	-2.9708	-2.6167	-2.8875	-3.0521	-2.6437	-2.9396	-2.6	-2.5667	168.651	-72.929	241.772	-66.104	226.247	170.983	-81.688	252.045	248.411	197.734	251.353	238.437	185.675	-54.670	153.835	180.667	0.00025158	0.00045678	0.00012394	1267.2	2.979e-06	5.766e-06	1253.1	327.26	1.7796e-06	3.8781e-06	379.16	121.82	105.02	36.263	3.6685e-06	45.899	0.00031028	0.00029874	8.3371e-05	1274.2	3.2658e-06	3.2626e-06	1266.3	331.46	3.2974e-06	3.3387e-06	382.51	124	106.5	36.869	3.3681e-06	46.657	126.697	23.806	-8.310	-69.145	26.107	22.496	-69.411	-64.400	11.774	85.413	-65.025	-60.545	-60.187	-54.802	6.640	-55.955	-8191	255	
7634.621	1	1	0	0	0.095284	0.29443	0.20006	0.1661	0.24639	0.29466	0.048538	0.31098	0.039769	0.26113	0.28629	0.18553	0.32704	0.199	0.15085	0.16302	-2.4583	-2.5708	-2.3708	-2.9562	-2.4125	-2.9146	-3.0187	-2.7292	-2.9938	-2.6083	-2.9313	-2.9125	-2.6708	-2.6813	-2.6292	-2.6042	145.177	-51.750	267.517	221.519	94.929	189.681	264.995	230.958	14.292	3.967	225.482	-19.028	270.516	-70.648	175.367	208.160	0.00020841	0.00053775	0.00010536	1270.1	3.3952e-06	4.202e-06	1265	328	1.4057e-06	1.1843e-06	379.7	122.16	105.31	36.372	3.1181e-06	45.773	0.00031447	0.00029925	8.4388e-05	1277	3.3151e-06	3.3349e-06	1271.7	332.09	3.4225e-06	3.3826e-06	383.1	124.32	106.82	37.006	3.3532e-06	46.659	130.339	-13.229	50.789	-69.283	81.945	42.747	-69.422	-64.311	61.208	64.534	-64.925	-60.480	-60.042	-55.088	25.583	-55.682	-8191	255	
7634.741	1	1	0	0	0.18097	0.18697	0.10427	0.17765	0.28021	0.19633	0.2499	0.36652	0.282	0.1769	0.22916	0.14501	0.27092	0.18534	0.15563	0.16984	-2.4167	-2.7208	-2.525	-3.0854	-2.6667	-2.8833	-2.9625	-2.7208	-2.7708	-2.5979	-2.8208	-2.8979	-2.6813	-2.8604	-2.7146	-2.7604	227.047	88.349	-51.430	-66.857	31.578	31.489	172.284	266.702	-28.186	264.947	-69.218	200.428	239.707	-18.747	214.313	140.160	0.00027592	0.00055379	0.00013543	1271.5	3.1129e-06	6.9625e-06	1265.9	328.89	1.5211e-06	5.6208e-06	380.43	121.99	105.21	36.386	2.9989e-06	45.787	0.00030831	0.00030021	8.1665e-05	1279	3.3382e-06	3.2479e-06	1274.1	332.28	3.2391e-06	3.1833e-06	383.05	124.24	106.58	36.927	3.2189e-06	46.659	122.958	-23.183	38.785	-69.140	102.791	72.900	-69.688	-64.285	-20.875	55.162	-65.180	-60.535	-59.943	-55.073	55.542	-55.713	-8191	255	
7634.837	1	1	0	0	0.12305	0.24913	0.055793	0.34332	0.27379	0.18413	0.039482	0.24961	0.062457	0.20398	0.32411	0.074304	0.022242	0.35533	0.32291	0.063211	-2.4271	-2.7854	-2.6625	-3.2188	-2.5354	-2.9083	-3.0687	-2.7292	-2.875	-2.6958	-2.6729	-2.8667	-2.7417	-2.5896	-2.825	-2.4792	168.755	67.391	93.040	260.545	193.845	18.499	187.623	214.587	-8.392	84.691	248.868	24.953	79.149	228.744	-80.424	-24.882	0.00022917	0.00040285	0.00021496	1270.3	1.4518e-06	7.4489e-06	1262.1	327.52	5.4547e-06	5.3212e-06	379.86	122.01	104.58	36.238	3.571e-06	45.685	0.00030456	0.0002903	7.9691e-05	1276.7	3.1911e-06	3.1697e-06	1270.6	331.85	3.2857e-06	3.1776e-06	382.7	124.13	106.36	36.916	3.2931e-06	46.524	124.983	-12.122	10.915	-69.121	-23.929	82.113	-69.358	-64.509	13.905	63.099	-65.097	-60.481	-59.862	-54.982	55.554	-55.850	-8191	255	
7634.909	1	1	0	0	0.10539	0.069168	0.12099	0.25615	0.14642	0.085976	0.033924	0.036261	0.15155	0.074391	0.11429	0.056357	0.076693	0.23848	0.28644	0.17898	-2.5667	-2.6667	-2.4792	-3.0375	-2.6125	-2.6021	-3.0687	-2.6042	-2.8375	-2.8063	-2.5687	-2.8875	-2.7438	-2.8083	-2.9437	-2.7479	96.640	112.627	72.404	274.864	89.432	179.515	246.001	254.937	80.836	54.220	18.322	174.061	-75.045	-17.473	191.180	-24.514	0.00022139	0.00063794	0.00013328	1267.9	2.1249e-06	4.5694e-06	1255.9	326.46	2.3391e-06	2.9472e-06	378.64	121.63	104.84	36.103	3.9912e-06	45.754	0.00030473	0.00029683	8.174e-05	1274.1	3.316e-06	3.2635e-06	1267	331.11	3.3158e-06	3.2451e-06	382.31	123.76	106.25	36.759	3.2679e-06	46.59	120.621	-9.167	4.876	-69.075	106.056	117.572	-69.295	-64.494	72.846	46.427	-64.985	-60.699	-60.013	-55.118	55.983	-55.705	-8191	255	
7635.005	1	1	0	0	0.25576	0.089451	0.26011	0.23756	0.29032	0.10385	0.12213	0.20252	0.08749	0.11146	0.10818	0.16394	0.13171	0.16349	0.09456	0.011616	-2.3583	-2.7146	-2.6437	-3.0125	-2.8167	-2.3854	-3.0875	-2.6188	-2.7896	-2.7479	-2.8521	-2.8937	-2.6458	-2.5521	-2.8792	-2.7	-31.670	152.384	-25.897	208.244	104.937	229.065	228.858	268.458	48.963	89.350	246.900	268.763	221.367	143.480	-2.319	193.743	0.00018292	6.2433e-05	0.00016892	1269.2	3.2061e-06	5.7105e-06	1258.7	328.62	2.8924e-06	9.547e-07	379.23	122.08	104.77	36.128	4.5085e-06	45.633	0.00030735	0.00029183	8.2123e-05	1275	3.2749e-06	3.2351e-06	1269.5	331.59	3.3139e-06	3.2634e-06	382.12	123.94	106.1	36.762	3.356e-06	46.583	126.046	53.820	9.755	-69.073	61.168	74.708	-69.234	-64.406	-42.267	43.700	-65.032	-60.613	-60.110	-54.858	64.492	-55.930	-8191	255	
7635.126	1	1	0	0	0.1183	0.30173	0.098362	0.099046	0.279	0.063568	0.21768	0.21268	0.1996	0.31711	0.042169	0.1445	0.12327	0.20529	0.079092	0.2114	-2.1417	-2.6521	-2.4	-2.9125	-2.8	-2.6521	-2.9688	-2.8896	-2.7208	-2.8146	-2.6646	-2.7875	-2.8312	-2.4813	-2.9188	-2.8229	38.695	76.317	121.858	63.340	-41.195	57.451	175.494	267.600	42.029	25.899	114.494	200.014	236.298	211.980	239.656	206.120	0.00026821	0.00016673	8.543e-05	1266.2	4.2084e-06	4.182e-06	1259.3	327.97	3.0031e-06	2.2484e-06	379.18	121.81	104.44	36.285	3.364e-06	45.81	0.00030551	0.00029078	8.1352e-05	1274.4	3.2502e-06	3.2172e-06	1269.8	331.7	3.3281e-06	3.2218e-06	382.06	123.67	106.23	36.812	3.2897e-06	46.601	132.801	56.985	11.762	-69.312	77.139	52.447	-69.435	-64.312	-6.096	8.363	-64.915	-60.696	-60.167	-54.880	57.387	-55.705	-8191	255	
7635.220	1	1	0	0	0.079427	0.1487	0.19099	0.41214	0.29406	0.42764	0.24575	0.16312	0.24299	0.076227	0.2733	0.27982	0.09654	0.049993	0.15583	0.14326	-2.0104	-2.6813	-2.3458	-2.6292	-2.7021	-2.4646	-2.8833	-2.8	-2.4417	-2.5333	-2.8083	-2.8521	-2.7625	-2.5062	-2.6792	-2.6417	182.173	244.290	168.153	219.998	199.455	-39.807	129.563	197.573	-74.291	75.540	134.238	-55.347	216.882	-35.936	-31.392	100.393	0.00017484	0.00025125	7.346e-05	1269.7	1.9722e-06	2.525e-06	1261.1	328.61	2.46e-06	3.7151e-06	379.37	122.21	105.12	36.521	3.3033e-06	46.16	0.00030944	0.00030022	8.4587e-05	1276.8	3.371e-06	3.3879e-06	1272.3	332.17	3.5673e-06	3.519e-06	383.78	124.43	106.95	37.181	3.7791e-06	46.969	123.657	-11.951	-11.678	-69.183	50.857	52.938	-69.424	-64.491	86.766	59.765	-64.939	-60.509	-60.060	-55.112	76.674	-55.804	-8191	255	
7635.316	1	1	0	0	0.19424	0.16573	0.12484	0.23156	0.051645	0.21961	0.14586	0.094149	0.25793	0.095492	0.39433	0.079167	0.19921	0.13918	0.12713	0.21236	-2.0271	-2.9042	-2.5125	-2.7542	-2.7604	-2.4875	-2.9813	-2.7458	-2.4125	-2.7896	-2.5542	-2.7313	-2.8271	-2.4396	-2.6792	-2.7125	75.774	56.659	21.166	237.848	171.974	2.836	216.140	63.074	-46.364	19.640	188.535	215.120	276.312	234.596	153.221	260.651	0.00024639	0.00047736	0.00018973	1285	3.4691e-06	6.3195e-06	1277.5	333.3	2.4338e-06	5.1944e-06	385.67	124.23	107.37	37.049	3.821e-06	46.84	0.00034999	0.00034463	9.8797e-05	1293.5	3.9791e-06	4.0171e-06	1291.7	337.25	4.1666e-06	4.2371e-06	389.77	126.62	109.22	37.833	4.4241e-06	47.752	142.471	-16.651	20.071	-69.032	56.035	26.237	-69.317	-64.338	0.234	53.390	-64.971	-60.646	-60.261	-55.024	72.297	-56.171	-8191	255	
7635.414	1	1	0	0	0.30642	0.072219	0.20869	0.063837	0.11344	0.39464	0.20018	0.19437	0.16919	0.20292	0.35617	0.3347	0.26028	0.40662	0.23602	0.29384	-2.0708	-2.7687	-2.3937	-2.6833	-2.8458	-2.5125	-2.8896	-2.8458	-2.4875	-2.8	-2.8396	-2.5458	-2.8187	-2.4021	-2.5917	-2.8479	128.315	17.519	-60.606	222.305	23.448	177.134	101.789	-43.939	-17.163	-11.177	243.722	-2.519	273.887	256.362	113.871	195.415	0.00027067	0.00012367	8.5269e-05	1303.3	4.0824e-06	6.2672e-06	1295.7	337.6	5.0774e-06	1.3913e-06	390.91	126.23	109.39	38.007	1.6933e-06	47.492	0.00040599	0.00040193	0.00011298	1310.9	4.5288e-06	4.5396e-06	1310.9	342.01	4.7385e-06	4.7271e-06	395.09	128.96	111.58	38.664	4.9861e-06	48.597	118.359	-28.610	-8.479	-69.243	53.673	50.738	-69.368	-64.603	24.788	106.023	-64.884	-60.796	-60.258	-55.231	-5.980	-55.951	-8191	255	
7635.533	1	1	0	0	0.12745	0.061606	0.21093	0.29476	0.19192	0.10108	0.38811	0.36489	0.020582	0.23971	0.073289	0.18896	0.26184	0.01073	0.32212	0.22961	-2.0604	-2.5312	-2.4542	-2.6792	-2.7354	-2.3854	-2.9917	-2.7646	-2.5438	-2.6604	-2.7646	-2.4833	-2.8729	-2.4979	-2.3958	-2.7438	258.715	165.691	-36.671	265.883	172.165	232.699	191.997	-76.064	256.723	101.502	215.630	71.049	174.799	197.990	68.724	-59.654	0.00021683	0.00059943	7.5598e-05	1315.5	3.2475e-06	5.5443e-06	1309.5	341.91	2.2873e-06	4.542e-06	394.92	128.59	112.04	38.555	2.9727e-06	48.333	0.00044753	0.00044727	0.00012558	1324.2	5.0218e-06	5.0108e-06	1323.9	347.08	5.1132e-06	5.0974e-06	400.29	131.29	113.87	39.399	5.1658e-06	49.394	128.649	-10.554	39.488	-69.087	19.202	62.618	-69.262	-64.498	1.361	71.348	-65.029	-60.966	-60.470	-55.279	40.352	-56.075	-8191	255	
7635.605	1	1	0	0	0.12488	0.21306	0.072504	0.32594	0.088889	0.089806	0.18775	0.31596	0.16107	0.2313	0.01167	0.26181	0.37492	0.064193	0.12694	0.13342	-2.1875	-2.6437	-2.6333	-2.6333	-2.5938	-2.5583	-2.7583	-2.7979	-2.5521	-2.7333	-2.7417	-2.4479	-2.7958	-2.8083	-2.6229	-2.8979	219.929	107.191	210.947	209.464	101.461	-34.495	142.834	240.910	-81.544	34.150	180.949	272.995	227.665	272.748	46.342	178.383	0.00021219	0.00046648	0.00016296	1333.5	5.5702e-06	7.9649e-06	1330.4	346.64	4.7034e-06	7.3709e-06	401.44	130.64	113.16	38.977	2.967e-06	48.729	0.00046695	0.00046782	0.00013012	1344.2	5.1455e-06	5.1856e-06	1341.9	351.89	5.3145e-06	5.2474e-06	405.82	133.29	115.25	39.909	5.3672e-06	49.87	116.636	46.287	55.266	-69.348	81.858	30.121	-69.531	-64.655	77.696	60.667	-64.991	-60.857	-60.204	-55.373	56.134	-56.118	-8191	255	
7635.701	1	1	0	0	0.159	0.085561	0.23673	0.15768	0.035552	0.35029	0.034697	0.19385	0.078233	0.16486	0.16819	0.13448	0.077259	0.34368	0.26406	0.31308	-1.8167	-2.5938	-2.7271	-2.5854	-2.6229	-2.5375	-2.8	-2.8937	-2.5687	-2.7062	-2.8354	-2.5375	-2.75	-2.6104	-2.7562	-2.775	-6.436	238.149	77.971	101.837	141.313	130.286	112.427	245.617	91.154	213.651	-82.075	232.637	262.493	271.905	250.863	266.647	0.00025825	0.00035306	0.00020785	1339.7	4.1325e-06	3.1994e-06	1335.5	348.01	2.6451e-06	6.5097e-06	401.48	131.5	113.35	39.656	4.3836e-06	49.366	0.00047965	0.00048062	0.00013467	1351.1	5.2671e-06	5.2327e-06	1348.1	353.23	5.2411e-06	5.2274e-06	406.09	134.16	116.14	40.384	5.2959e-06	50.471	122.219	-15.366	54.769	-69.404	-14.133	59.968	-69.431	-64.525	34.771	42.479	-65.218	-60.925	-60.484	-55.414	55.029	-56.245	-8191	255	
7635.822	1	1	0	0	0.26648	0.18753	0.096947	0.089313	0.33592	0.13998	0.20347	0.080169	0.016249	0.23544	0.11261	0.21754	0.14655	0.17315	0.083808	0.04039	-1.9792	-2.4083	-2.7062	-2.6458	-2.9313	-2.6	-2.7188	-3.0667	-2.4833	-2.7021	-3.0083	-2.5625	-2.7667	-2.7917	-2.6271	-3.025	29.801	43.119	51.868	81.735	158.431	102.550	160.285	-68.892	212.628	22.084	191.886	-67.302	-25.652	222.419	-73.180	107.464	0.00027805	0.00065988	8.6933e-05	1342.1	6.5191e-06	5.4477e-06	1330.3	348.04	3.5985e-06	3.6422e-06	401.75	132.32	114.15	39.659	6.1753e-06	49.478	0.00047782	0.0004876	0.00013438	1352.9	5.2204e-06	5.0984e-06	1347.4	353.54	5.0786e-06	5.0208e-06	407.21	135.08	116.51	40.529	4.7156e-06	50.45	124.193	-14.717	272.701	-69.284	29.833	54.903	-69.404	-64.691	49.137	41.564	-64.883	-60.654	-60.374	-55.681	82.576	-56.152	-8191	255	
7635.918	1	1	0	0	0.42637	0.11298	0.20744	0.28048	0.041808	0.28299	0.22168	0.19825	0.14569	0.081712	0.17393	0.17665	0.10941	0.07758	0.29521	0.2348	-2.0646	-2.7333	-2.7938	-2.6167	-2.7375	-2.6813	-2.6021	-2.8312	-2.55	-2.6979	-2.9458	-2.5479	-2.8479	-2.8042	-2.5854	-2.9188	130.830	265.760	69.357	276.245	-80.936	41.223	242.160	275.731	241.427	171.463	217.606	196.140	275.648	266.647	57.538	251.182	0.00025742	0.00048823	9.855e-05	1341.2	3.9617e-06	6.2023e-06	1337.4	350.2	3.2281e-06	3.3179e-06	402.22	132.07	115.41	39.839	2.5299e-06	49.327	0.00041964	0.00040766	0.00011115	1349.7	4.1985e-06	4.0706e-06	1348.1	353.93	3.9385e-06	3.8112e-06	406.01	134.63	116.52	40.495	3.6568e-06	50.37	117.685	2.011	11.535	-69.288	59.076	41.437	-69.539	-64.531	-4.791	70.710	-65.030	-61.162	-60.380	-55.488	71.762	-56.201	-8191	255	
7636.014	1	1	0	0	0.1033	0.1167	0.090895	0.29071	0.14066	0.25445	0.21219	0.022262	0.094767	0.17113	0.23509	0.066242	0.14741	0.073258	0.063444	0.21578	-2.2396	-2.3146	-2.7646	-2.5771	-2.6521	-2.6146	-2.6958	-2.9042	-2.5375	-2.5792	-2.9979	-2.7146	-2.7354	-2.8167	-2.6625	-2.9896	37.990	234.399	-7.853	-71.430	71.479	81.748	245.544	191.913	62.611	271.764	245.323	7.081	250.276	115.055	-44.532	260.197	0.00028191	0.00070232	0.00019339	1340.7	3.0823e-06	6.6457e-06	1336.1	351.17	4.2369e-06	2.0797e-06	404.29	132.71	114.57	40.003	4.5687e-06	49.745	0.00032764	0.00030998	8.7053e-05	1346.8	3.3467e-06	3.1989e-06	1346	354.24	3.2007e-06	3.084e-06	405.94	134.48	116.01	40.48	3.0369e-06	50.371	134.788	-2.622	28.620	-69.195	36.109	33.720	-69.552	-64.533	29.262	38.854	-65.072	-60.932	-60.247	-55.345	58.559	-56.087	-8191	255	
7636.135	1	1	0	0	0.11064	0.27634	0.13491	0.33722	0.32092	0.1937	0.22332	0.35161	0.073819	0.089249	0.21074	0.13806	0.13323	0.15909	0.043509	0.24062	-2.2687	-2.4375	-2.7667	-2.7438	-2.6229	-2.9	-2.7479	-2.9125	-2.7125	-2.4958	-2.8646	-2.7583	-2.6833	-2.7458	-2.4167	-2.7625	80.976	161.528	-82.523	-77.640	117.282	129.685	230.347	254.558	188.852	233.199	200.564	256.540	276.021	-37.294	13.354	186.657	0.00029539	0.00034432	0.00020738	1339.5	4.2731e-06	5.5011e-06	1337.3	349.46	8.1441e-07	3.1207e-06	402.15	132.59	115.03	39.889	3.2409e-06	49.368	0.00028554	0.00026589	7.2364e-05	1347.4	2.8618e-06	2.7589e-06	1346	352.86	2.8106e-06	2.662e-06	405.35	134.61	116.08	40.403	2.6792e-06	50.183	123.851	5.737	-0.249	-69.167	74.924	47.781	-69.353	-64.701	35.926	61.695	-65.149	-61.032	-60.248	-55.488	69.319	-56.301	-8191	255	
7636.206	1	1	0	0	0.27154	0.046635	0.15355	0.11785	0.064072	0.13612	0.27224	0.19703	0.1106	0.47443	0.12589	0.18006	0.28337	0.11919	0.23435	0.2176	-2.2146	-2.4792	-2.8937	-2.7687	-2.5958	-2.7479	-2.6125	-2.8854	-2.7708	-2.4813	-2.7188	-2.6104	-2.5979	-2.7396	-2.5	-2.7792	131.363	260.558	2.238	-67.516	107.491	196.797	209.010	232.672	212.728	52.435	201.856	250.418	-50.006	136.943	-57.035	78.158	0.00024947	0.00049615	0.00014468	1342.4	3.4921e-06	4.9259e-06	1336.4	349.68	2.9359e-06	3.1023e-06	401.9	132.39	114.84	39.854	1.9692e-06	49.533	0.00025398	0.00023557	6.5907e-05	1346.6	2.6127e-06	2.5795e-06	1346.6	353.41	2.6512e-06	2.6191e-06	405.49	134.36	115.88	40.358	2.7106e-06	50.106	123.329	-0.047	21.648	-69.364	72.612	46.828	-69.254	-64.583	49.224	66.524	-64.898	-60.976	-60.371	-55.282	42.434	-56.206	-8191	255	
7636.301	1	1	0	0	0.28081	0.074135	0.26634	0.22231	0.20245	0.055855	0.37889	0.20782	0.18449	0.1306	0.20944	0.065288	0.40719	0.11256	0.2786	0.34152	-2.2438	-2.2771	-2.7708	-2.8375	-2.5729	-2.8917	-2.6396	-2.8042	-2.6625	-2.5979	-2.8604	-2.8875	-2.4938	-2.6708	-2.4479	-2.6125	-49.142	103.225	217.492	154.422	-41.054	114.745	-9.634	275.620	124.099	81.200	267.613	202.211	214.852	203.857	68.130	165.061	0.00023922	0.00033115	0.00010897	1338.5	2.6393e-06	3.5388e-06	1335.2	348.69	2.6111e-06	3.7321e-06	402.89	132.77	114.9	39.842	2.2719e-06	49.695	0.00025342	0.00023472	6.4502e-05	1343	2.5821e-06	2.49e-06	1342.9	352.69	2.5247e-06	2.4853e-06	404.85	134.21	115.83	40.29	2.4591e-06	50.115	128.222	-11.935	6.546	-69.182	85.363	63.727	-69.495	-64.615	8.763	43.475	-65.141	-60.940	-60.575	-55.598	14.338	-55.932	-8191	255	
7636.421	1	1	0	0	0.20324	0.066239	0.061987	0.3744	0.08526	0.033326	0.25552	0.35349	0.26362	0.25653	0.25364	0.3062	0.34608	0.22099	0.17492	0.055249	-2.4042	-2.3458	-2.6125	-2.6604	-2.4646	-2.7417	-2.6333	-2.6104	-2.7479	-2.6708	-2.5917	-2.8354	-2.5312	-2.9375	-2.5208	-2.6188	100.469	121.824	245.052	224.202	130.464	-9.773	186.752	157.979	31.850	-18.566	218.392	255.179	270.192	271.895	245.522	17.164	0.00026522	0.00057373	8.9329e-05	1334.9	3.5863e-06	3.8667e-06	1331.6	348.56	2.5863e-06	4.3003e-06	400.12	132.01	114.01	39.639	3.1718e-06	49.156	0.00023438	0.0002156	6.0431e-05	1341.2	2.4335e-06	2.3366e-06	1340.4	351.73	2.4552e-06	2.3811e-06	402.74	133.52	115.11	40.111	2.5115e-06	49.847	125.743	-25.010	9.945	-69.344	43.210	65.112	-69.433	-64.446	4.238	59.990	-65.091	-60.827	-60.392	-55.565	84.255	-55.973	-8191	255	
7636.517	1	1	0	0	0.093175	0.082181	0.26814	0.17416	0.064173	0.048485	0.19072	0.29889	0.24554	0.11638	0.15412	0.17993	0.073407	0.36031	0.078201	0.16996	-2.4	-2.525	-2.6833	-2.7812	-2.4062	-2.8625	-2.7521	-2.7771	-2.7542	-2.4458	-2.6542	-2.9208	-2.5812	-2.6937	-2.6292	-2.5229	-64.850	3.666	-12.535	268.279	16.329	190.480	152.554	179.155	156.974	173.496	249.566	-59.589	-9.431	234.090	166.563	166.202	0.00028437	0.00040991	0.00012988	1339.4	2.9736e-06	5.3715e-06	1333.5	347.57	1.807e-06	2.5248e-06	398.46	131.25	113.5	39.294	4.1615e-06	49.047	0.00023641	0.00022735	6.3045e-05	1341.7	2.5329e-06	2.4464e-06	1340.9	351.17	2.539e-06	2.4546e-06	402.43	133.02	114.47	39.82	2.4032e-06	49.634	127.103	-20.031	7.430	-69.230	65.441	69.881	-69.483	-64.542	40.109	100.101	-65.152	-60.945	-60.506	-55.345	30.536	-56.168	-8191	255	
7636.614	1	1	0	0	0.12233	0.11716	0.20528	0.21282	0.3294	0.04924	0.2321	0.36531	0.021585	0.051027	0.020789	0.051484	0.1098	0.3365	0.022399	0.077508	-2.5083	-2.4708	-2.6813	-2.9354	-2.2687	-2.6125	-2.9833	-2.6854	-2.7104	-2.5729	-2.8333	-3.1271	-2.3792	-2.9354	-2.6188	-2.4479	-27.294	59.336	118.444	-72.395	117.471	-2.368	250.470	180.364	36.360	143.672	12.115	40.408	45.167	-22.802	182.881	164.311	0.00027532	0.00048976	0.00012373	1335.9	1.9893e-06	5.2691e-06	1325	346	2.5427e-06	2.9e-06	399.14	131.08	113.03	39.114	5.0537e-06	48.843	0.0002296	0.00021135	5.7068e-05	1340.8	2.3005e-06	2.2227e-06	1334.9	349.5	2.2168e-06	2.1524e-06	400.42	132.21	113.85	39.611	2.0601e-06	49.443	128.476	-16.196	15.961	-69.293	61.359	44.027	-69.401	-64.574	88.141	38.932	-65.237	-60.834	-60.061	-55.273	36.272	-55.963	-8191	255	
7636.710	1	1	0	0	0.16429	0.17774	0.031153	0.38145	0.082574	0.10052	0.25933	0.11701	0.14995	0.089674	0.31647	0.092398	0.24352	0.11391	0.062667	0.23556	-2.2583	-2.5812	-2.4729	-2.8854	-2.5375	-2.6396	-2.8417	-2.5292	-2.775	-2.7	-2.7583	-2.875	-2.5146	-2.6771	-2.6167	-2.4896	185.421	2.603	248.391	237.237	143.786	162.620	238.128	-60.440	78.486	78.056	255.714	202.404	212.379	-41.428	114.003	149.108	0.00025707	0.00034654	0.00012105	1333	2.7478e-06	3.6563e-06	1326.4	346.97	2.0918e-06	3.7681e-06	400.42	132.16	113.57	39.729	4.0256e-06	49.419	0.00019973	0.00017778	4.8613e-05	1336.2	1.9327e-06	1.8559e-06	1334.4	349.85	1.8613e-06	1.7449e-06	401.45	133.3	114.35	40.035	1.7238e-06	50.053	123.021	-3.989	23.800	-69.226	77.739	76.868	-69.504	-64.498	27.296	84.236	-64.865	-60.710	-60.306	-55.120	59.879	-56.098	-8191	255	
7636.806	1	1	0	0	0.098985	0.13412	0.11271	0.29746	0.18845	0.088709	0.081126	0.12051	0.10654	0.32904	0.23901	0.20615	0.2331	0.18045	0.22954	0.18348	-2.2354	-2.4979	-2.4333	-2.775	-2.1625	-2.675	-2.7438	-2.6188	-2.8646	-2.6958	-2.5125	-2.8542	-2.5354	-2.8729	-2.6312	-2.575	197.014	10.637	126.219	-66.477	273.267	44.600	254.190	228.518	224.846	-39.855	270.460	219.606	150.439	209.832	198.346	219.060	0.00030169	0.00033884	0.00013183	1332	2.8358e-06	5.9614e-06	1334.8	351.3	2.6084e-06	5.5936e-06	404.25	135.22	116.97	40.618	3.0281e-06	50.586	0.00017272	0.00014555	3.919e-05	1337.3	1.5774e-06	1.4789e-06	1342.9	353.82	1.5724e-06	1.447e-06	406.09	136.07	117.07	40.996	1.4342e-06	50.987	131.780	1.669	6.705	-69.220	25.354	58.346	-69.538	-64.830	4.485	45.230	-65.039	-60.962	-60.288	-55.469	46.679	-56.184	-8191	255	
7636.902	1	1	0	0	0.12888	0.10357	0.1781	0.27445	0.29317	0.041076	0.15087	0.16527	0.16854	0.091152	0.27448	0.10682	0.1668	0.13353	0.23995	0.09752	-2.3438	-2.55	-2.2771	-2.9896	-2.5979	-2.4042	-2.9833	-2.4583	-2.6312	-2.7521	-2.5792	-2.8312	-2.5479	-2.575	-2.7812	-2.6729	29.149	-69.120	262.766	250.209	67.684	113.759	218.622	-58.183	-77.594	89.727	234.468	50.447	15.885	-76.929	140.546	129.432	0.00027956	0.00029245	0.00014787	1339.6	3.8691e-06	4.6249e-06	1338.2	350.65	7.5137e-07	3.8261e-06	404.03	133.91	116.12	40.326	3.6096e-06	49.762	0.00015417	0.00012479	3.472e-05	1344.4	1.4449e-06	1.3904e-06	1345.4	354.17	1.4703e-06	1.4085e-06	405.4	135.31	116.14	40.644	1.534e-06	50.305	128.959	-11.863	25.719	-69.037	47.253	58.242	-69.382	-64.629	155.795	55.607	-65.318	-60.872	-60.377	-55.243	21.281	-56.287	-8191	255	
7636.998	1	1	0	0	0.17057	0.18548	0.069695	0.1554	0.16985	0.28442	0.31531	0.11125	0.21645	0.077696	0.048498	0.074749	0.18017	0.19291	0.074326	0.2075	-2.2146	-2.6125	-2.2771	-2.9	-2.6729	-2.4729	-2.8354	-2.5771	-2.5917	-2.7521	-2.5167	-2.7333	-2.5458	-2.5062	-2.9042	-2.5167	130.639	-33.227	-22.419	209.842	130.314	75.848	171.086	236.847	129.540	-64.148	80.678	119.071	-79.195	-36.017	145.365	234.298	0.00025824	0.00036859	0.00014088	1335.4	3.2828e-06	3.3709e-06	1323.1	345.83	3.588e-06	4.3449e-06	398.89	131.31	113.21	39.501	2.2403e-06	49.266	0.00016125	0.00013533	3.8504e-05	1335.9	1.6209e-06	1.5691e-06	1330.6	348.7	1.6724e-06	1.5896e-06	400.35	132.81	113.99	39.871	1.7315e-06	49.727	126.979	-2.785	29.909	-69.320	73.010	61.724	-69.288	-64.489	-7.321	48.408	-65.195	-60.650	-60.389	-55.302	40.947	-56.036	-8191	255	
7637.094	1	1	0	0	0.093905	0.13348	0.22579	0.16262	0.32453	0.207	0.26915	0.24183	0.084396	0.18462	0.29553	0.25013	0.11194	0.28169	0.093975	0.13057	-2.1646	-2.7083	-2.3604	-2.9396	-2.5875	-2.6437	-2.9479	-2.9104	-2.5312	-2.8688	-2.5729	-2.9625	-2.8021	-2.5875	-3.0271	-2.6583	272.349	245.545	-3.670	186.040	-53.759	156.230	181.897	248.904	-3.468	-72.750	264.939	205.890	250.917	174.154	17.614	126.263	0.0002608	0.00047096	0.00012931	1333.7	2.7468e-06	4.3053e-06	1327.7	346.76	1.9457e-06	3.788e-06	399.93	132.73	113.96	39.729	3.9481e-06	49.604	0.00017369	0.00014675	4.1909e-05	1333.7	1.6751e-06	1.596e-06	1335.4	349.37	1.6471e-06	1.5534e-06	401.39	133.77	114.82	40.293	1.6309e-06	50.146	131.678	-2.717	7.761	-69.239	65.736	37.941	-69.466	-64.684	38.734	64.158	-64.956	-60.919	-60.250	-55.689	44.603	-56.240	-8191	255	
7637.213	1	1	0	0	0.14432	0.16174	0.16366	0.14666	0.12999	0.22121	0.30955	0.22612	0.25423	0.16627	0.096943	0.30587	0.10949	0.16191	0.06281	0.29217	-2.1125	-2.8187	-2.5292	-2.9188	-2.6625	-2.6	-3.0417	-2.7583	-2.6417	-2.7583	-2.4583	-2.8271	-2.8833	-2.6604	-2.8125	-2.8208	120.064	-5.164	259.708	157.908	82.974	124.396	255.525	-61.108	35.287	165.193	232.104	229.184	77.681	228.415	234.893	257.491	0.00025596	0.00051749	0.00014338	1339.7	2.1305e-06	3.9681e-06	1331.3	347.82	8.2512e-07	3.0333e-06	401.07	131.79	114.42	39.725	5.0748e-06	49.219	0.00016706	0.00014075	3.9352e-05	1340.5	1.603e-06	1.5444e-06	1337.5	350.64	1.6417e-06	1.5483e-06	401.91	133.47	114.82	40.054	1.6842e-06	49.829	125.444	-21.755	-6.539	-69.305	43.056	58.691	-69.484	-64.720	265.274	72.522	-65.101	-60.893	-60.357	-55.260	56.686	-56.188	-8191	255	
7637.309	1	1	0	0	0.22096	0.21655	0.26626	0.32696	0.13939	0.085595	0.046078	0.33112	0.12158	0.13055	0.23663	0.20148	0.28527	0.18869	0.10479	0.19558	-2.1437	-2.8083	-2.5	-2.9354	-2.6875	-2.45	-2.9417	-2.8646	-2.6562	-3.0229	-2.8125	-2.7938	-2.8896	-2.6125	-2.6813	-2.7583	250.311	114.584	-76.788	184.414	214.499	277.091	273.724	225.056	-20.154	242.008	198.069	227.443	-72.254	-77.291	11.368	158.212	0.00025334	0.00034086	0.00012251	1332.5	2.1728e-06	4.8639e-06	1329.8	346.52	2.9482e-06	5.5771e-06	398.22	131.59	113.48	39.38	4.8437e-06	48.992	0.00017335	0.00014817	4.1491e-05	1336.2	1.7301e-06	1.6699e-06	1334.8	349.04	1.7778e-06	1.7117e-06	400.26	132.93	114.36	39.843	1.7688e-06	49.672	123.197	-20.210	13.026	-69.116	25.428	48.729	-69.466	-64.510	26.489	45.556	-65.017	-60.984	-60.121	-55.154	35.659	-56.101	-8191	255	
7637.405	1	1	0	0	0.13775	0.12143	0.07096	0.19027	0.15165	0.24462	0.0081608	0.34723	0.24885	0.092819	0.26721	0.080665	0.38003	0.32663	0.21475	0.20359	-2.0083	-2.7042	-2.6875	-2.8583	-2.7167	-2.5417	-2.9125	-2.9146	-2.3729	-3.0104	-2.7333	-2.7917	-2.8063	-2.7479	-2.6688	-2.7833	-61.894	67.474	-76.422	249.930	-5.791	145.680	272.614	177.477	-60.907	-60.273	207.691	-45.470	270.257	204.283	61.463	267.835	0.00029433	0.00039119	0.00015709	1331.6	3.2236e-06	2.4895e-06	1324.7	346.64	1.2625e-06	4.034e-06	399.48	131.02	113.66	39.524	3.5326e-06	49.111	0.00018299	0.00015282	4.4791e-05	1334.3	1.7674e-06	1.7427e-06	1333.2	348.97	1.8905e-06	1.7722e-06	400.83	132.69	114.4	39.909	1.8584e-06	49.77	129.190	-6.734	17.863	-69.374	63.867	54.548	-69.299	-64.497	26.936	62.189	-65.109	-61.038	-60.288	-55.486	59.220	-56.305	-8191	255	
7637.502	1	1	0	0	0.12414	0.12918	0.2974	0.08839	0.13781	0.31098	0.11422	0.059268	0.15848	0.23121	0.10548	0.19158	0.24288	0.32636	0.1331	0.23112	-2.1833	-2.8625	-2.6625	-2.8375	-2.8563	-2.4375	-2.7896	-2.9229	-2.5958	-2.7854	-2.6771	-2.7708	-3.0021	-2.6292	-2.8792	-2.8979	226.552	241.644	-20.860	229.854	-23.496	256.473	192.066	150.667	100.237	222.373	14.164	220.596	-60.906	204.454	184.089	197.537	0.00028602	0.00040064	0.00016466	1333.3	3.7232e-06	3.9159e-06	1327.2	347.15	2.6643e-06	5.6212e-06	399.32	131.86	114.09	39.663	3.2922e-06	49.705	0.00019132	0.00016822	4.7367e-05	1336.8	1.8658e-06	1.8156e-06	1334.6	349.26	1.927e-06	1.8031e-06	401.06	133.38	114.73	40.137	1.8901e-06	50.17	132.712	-4.435	29.016	-69.362	7.715	51.964	-69.283	-64.764	1.199	56.384	-65.040	-60.974	-60.576	-55.369	60.564	-56.057	-8191	255	
7637.598	1	1	0	0	0.084082	0.27217	0.14384	0.48263	0.24027	0.24063	0.56188	0.054628	0.19625	0.21074	0.29399	0.45219	0.21921	0.26664	0.063528	0.10159	-2.1813	-2.6375	-2.7396	-2.4771	-2.85	-2.5687	-2.9083	-3.0458	-2.5875	-2.75	-2.7521	-2.6437	-2.85	-2.8146	-2.6604	-2.9521	211.393	5.679	31.457	250.081	79.010	-35.404	192.678	227.768	-15.378	159.994	238.080	-61.482	-35.281	249.516	15.801	216.041	0.00028819	0.00062566	0.00011874	1343.1	2.8079e-06	5.426e-06	1337.1	349.19	2.6955e-06	2.6888e-06	403.08	133.42	115.73	40.032	3.8466e-06	49.866	0.00019022	0.00016246	4.4278e-05	1343.9	1.8433e-06	1.7429e-06	1344.7	351.93	1.8712e-06	1.7993e-06	404.2	134.83	115.91	40.557	1.8724e-06	50.365	126.546	-15.999	21.003	-69.172	21.187	28.471	-69.399	-64.664	72.522	21.125	-65.138	-60.942	-60.546	-55.645	41.281	-56.026	-8191	255	
7637.694	1	1	0	0	0.25873	0.26493	0.23233	0.16276	0.041527	0.11106	0.22564	0.29996	0.12436	0.22945	0.066354	0.18808	0.14906	0.42935	0.079483	0.28512	-1.9979	-2.7875	-2.6479	-2.7333	-2.875	-2.6583	-2.8396	-2.8667	-2.6146	-2.5479	-2.8875	-2.5687	-2.825	-2.7021	-2.6542	-2.875	15.194	83.570	-45.395	-68.683	221.178	40.781	228.097	220.555	29.606	33.045	228.024	237.474	170.987	223.899	-69.163	-60.463	0.00028903	0.00032297	0.00017222	1337.2	2.6457e-06	4.6364e-06	1335.5	349.23	2.8581e-06	4.3566e-06	399.74	132.83	114.24	39.737	4.0001e-06	49.223	0.0001858	0.00016158	4.6173e-05	1341.9	1.8502e-06	1.8133e-06	1341.2	351.39	1.977e-06	1.8909e-06	402.34	133.88	114.96	40.153	2.0017e-06	49.971	129.041	-0.637	4.661	-69.277	35.702	50.091	-69.420	-64.454	42.875	59.201	-65.174	-60.926	-60.308	-55.486	36.776	-56.177	-8191	255	
7637.815	1	1	0	0	0.15163	0.23476	0.14229	0.2913	0.22449	0.029555	0.15479	0.060375	0.093619	0.29641	0.32726	0.088541	0.23082	0.027369	0.21244	0.19476	-1.9375	-2.6646	-2.6958	-2.5792	-2.8458	-2.6854	-2.8312	-2.9813	-2.5104	-2.5646	-2.9313	-2.7229	-3.0104	-2.6292	-2.6083	-3.0771	131.711	198.537	130.700	260.857	25.183	69.855	196.489	192.688	140.388	-48.295	217.169	270.373	256.544	94.484	128.232	265.837	0.00028747	0.00051102	0.00014927	1333.5	4.3011e-06	2.8742e-06	1332.5	346.64	4.1499e-06	2.3919e-06	398.87	132.42	114.1	39.788	3.9185e-06	49.548	0.00019886	0.00017601	4.8936e-05	1339.2	2.0406e-06	1.8952e-06	1337.8	349.62	2.0558e-06	1.9491e-06	401.43	133.56	114.98	40.154	1.9919e-06	50.016	133.127	-9.173	18.193	-69.101	70.717	53.493	-69.487	-64.656	26.127	62.434	-65.078	-60.782	-60.450	-55.281	31.238	-56.060	-8191	255	
7637.911	1	1	0	0	0.29084	0.021898	0.21343	0.050238	0.18762	0.30548	0.39277	0.38486	0.10662	0.10599	0.14889	0.24347	0.2734	0.14041	0.21018	0.12845	-1.9833	-2.4958	-2.7333	-2.7667	-2.9021	-2.8896	-2.6958	-2.9521	-2.6646	-2.8979	-2.9521	-2.6604	-2.9667	-2.9729	-2.5771	-2.9313	106.691	233.624	-36.253	229.675	57.642	60.469	243.839	225.926	73.320	11.712	-74.749	270.151	221.010	-45.189	190.887	234.493	0.0002527	0.00049458	0.00016512	1339	3.1926e-06	4.5071e-06	1335.2	349.43	1.3566e-06	3.84e-06	401.54	132.9	115.31	40.206	9.8256e-07	49.924	0.00019694	0.00017492	4.9517e-05	1342	1.9984e-06	1.8929e-06	1341	351.31	1.9879e-06	1.8792e-06	403.19	134.25	115.73	40.589	1.914e-06	50.437	134.221	11.221	14.764	-69.365	82.999	51.668	-69.371	-64.492	-10.500	71.103	-64.988	-60.767	-60.269	-55.534	21.121	-56.259	-8191	255	
7638.007	1	1	0	0	0.12467	0.087081	0.29929	0.28163	0.13939	0.14318	0.40356	0.20628	0.070034	0.1192	0.3576	0.21712	0.11556	0.29895	0.15484	0.16296	-2.2604	-2.6375	-3.0104	-2.9083	-2.6917	-2.7875	-2.6625	-3.1229	-2.8708	-2.7042	-2.9854	-2.65	-2.7938	-2.7958	-2.7125	-3.0271	5.097	96.905	137.368	264.306	-47.388	76.981	211.555	-69.465	-64.083	224.404	222.156	122.818	273.524	244.332	273.451	231.921	0.00030924	0.00029812	0.00014971	1342.4	4.4751e-06	6.7963e-06	1341.5	350.93	2.013e-06	4.5608e-06	404.25	134.26	115.93	40.379	1.4815e-06	50.54	0.00019126	0.00016517	4.5975e-05	1346.2	1.8491e-06	1.7672e-06	1348	353.28	1.8496e-06	1.7482e-06	405.6	135.78	116.74	40.903	1.8097e-06	50.956	136.058	-28.005	9.138	-69.204	50.859	43.841	-69.423	-64.572	33.720	75.503	-65.051	-60.921	-60.296	-55.327	60.989	-56.141	-8191	255	
7638.103	1	1	0	0	0.15211	0.232	0.17906	0.3044	0.046548	0.20408	0.32094	0.24706	0.34966	0.12641	0.24001	0.308	0.14579	0.18352	0.13754	0.17123	-2.3292	-2.7021	-2.8604	-2.7812	-2.6979	-2.8625	-2.7667	-2.8792	-2.9062	-2.6583	-2.9417	-2.575	-2.7542	-2.9729	-2.4646	-2.9188	-75.638	-63.401	59.119	194.874	90.016	23.736	255.311	234.514	271.780	32.752	-65.437	249.509	190.222	241.280	203.929	203.189	0.00027256	0.0005005	0.00010953	1347.9	1.7396e-06	6.3537e-06	1342.6	351.66	1.0902e-06	2.7103e-06	406.36	134.89	116.4	40.704	3.0493e-06	50.504	0.00018334	0.00015455	4.3146e-05	1349.3	1.7693e-06	1.6808e-06	1349.7	354.83	1.7448e-06	1.7056e-06	407.24	136.33	117.15	41.14	1.7722e-06	50.994	132.618	-8.047	13.528	-69.199	110.715	56.712	-69.527	-64.704	64.305	85.812	-64.996	-61.192	-60.216	-55.776	60.246	-56.151	-8191	255	
7638.197	1	1	0	0	0.24013	0.01041	0.24062	0.16619	0.1812	0.11286	0.31988	0.40065	0.2302	0.17025	0.12329	0.086797	0.072535	0.11586	0.13857	0.22825	-2.1271	-2.3479	-3.0333	-2.9958	-2.6417	-2.8708	-2.625	-2.9771	-2.8875	-2.525	-3.0729	-2.8021	-2.7583	-2.9833	-2.7625	-2.7479	160.748	121.111	73.388	272.182	115.617	-6.971	262.656	231.627	-41.962	87.149	197.248	184.299	199.814	40.699	148.912	-39.494	0.00028788	0.00052079	0.000187	1343.4	3.2795e-06	3.6027e-06	1343.4	351.7	1.4319e-06	5.4264e-06	404.26	133.85	116.5	40.537	3.4881e-06	50.202	0.00017855	0.00015573	4.301e-05	1348.7	1.789e-06	1.7086e-06	1349.2	354.3	1.8533e-06	1.7925e-06	405.83	135.87	116.85	40.919	1.8159e-06	50.782	130.167	22.615	10.459	-69.366	47.911	68.850	-69.311	-64.541	67.641	55.645	-65.256	-60.938	-60.147	-55.518	66.245	-56.193	-8191	255	
7638.294	1	1	0	0	0.24764	0.10309	0.22061	0.19025	0.043607	0.038556	0.11585	0.30095	0.076854	0.083736	0.063119	0.29637	0.09372	0.21785	0.16725	0.22628	-2.5125	-2.6417	-2.7021	-2.9688	-2.5042	-2.9854	-2.7062	-2.775	-2.8792	-2.5833	-2.9396	-2.7687	-2.6833	-3.0833	-2.6562	-2.9479	222.586	37.641	50.777	181.788	145.207	108.333	207.285	264.782	141.352	167.539	-62.096	231.443	242.164	-55.138	171.106	244.781	0.00028422	0.00029698	0.00017241	1347.2	2.8464e-06	4.4004e-06	1340.7	351.06	4.4911e-06	3.6599e-06	404.55	134.24	116.16	40.718	4.8788e-06	50.414	0.00018896	0.00016553	4.6252e-05	1348.9	1.8442e-06	1.792e-06	1349.1	353.87	1.8541e-06	1.803e-06	406.04	135.81	116.96	41.128	1.8801e-06	51.007	124.009	-11.884	8.435	-69.410	74.338	74.111	-69.487	-64.608	42.355	71.152	-64.982	-60.843	-60.454	-55.627	39.578	-56.396	-8191	255	
7638.390	1	1	0	0	0.25915	0.24936	0.14542	0.13962	0.13662	0.11414	0.17086	0.19744	0.05774	0.15669	0.22045	0.39407	0.016569	0.33786	0.046202	0.17722	-2.4688	-2.5833	-2.7021	-2.6896	-2.6458	-2.9708	-2.8167	-2.7729	-2.8979	-2.55	-3	-2.8958	-2.6021	-2.9729	-2.7396	-2.5583	167.580	-58.691	104.296	230.551	193.969	55.993	263.864	270.069	-13.392	-5.837	168.993	-53.081	-30.265	246.590	54.922	-73.974	0.00025249	0.00032261	0.00014381	1350.5	1.2234e-06	4.198e-06	1345.8	353.22	4.2166e-06	3.4524e-06	406.38	135.87	117.58	41.162	3.485e-06	51.055	0.00018383	0.00015922	4.3134e-05	1351.4	1.7726e-06	1.7242e-06	1354.9	355.9	1.7677e-06	1.6968e-06	408.56	137.18	118.06	41.585	1.7425e-06	51.495	132.180	-7.603	20.288	-69.304	73.478	58.022	-69.362	-64.693	16.462	68.500	-65.146	-61.125	-60.593	-55.722	25.841	-56.359	-8191	255	
7638.486	1	1	0	0	0.087567	0.070631	0.10055	0.12279	0.10658	0.091986	0.29298	0.27808	0.39914	0.16587	0.10883	0.12156	0.25064	0.168	0.22569	0.068125	-2.3812	-2.425	-2.6833	-3.0354	-2.5	-3.0021	-2.8917	-2.6583	-2.8854	-2.6167	-2.9854	-2.8729	-2.7	-3.0354	-2.6146	-2.6188	63.429	15.197	177.432	125.988	191.883	82.138	181.984	242.345	152.665	105.926	171.339	163.053	155.892	-79.299	32.700	92.913	0.00025732	0.0006353	0.00013394	1349.8	3.0461e-06	4.6891e-06	1351.4	355.68	1.4149e-06	5.4645e-06	407.24	136.37	118.35	41.728	1.6409e-06	51.424	0.00018059	0.0001582	4.2481e-05	1355.1	1.7446e-06	1.6622e-06	1357	358.03	1.7578e-06	1.6549e-06	409.96	138.22	118.95	42	1.6827e-06	52.013	124.681	-12.483	21.776	-69.421	57.889	80.935	-69.528	-64.657	-14.913	67.945	-65.095	-60.917	-60.487	-55.705	64.065	-56.322	-8191	255	
7638.606	1	1	0	0	0.11055	0.054313	0.089676	0.18813	0.16434	0.026895	0.18462	0.23945	0.085919	0.19476	0.13462	0.17196	0.23929	0.025919	0.092597	0.091765	-2.55	-2.5375	-2.6083	-3.1354	-2.4688	-2.7521	-3.0958	-2.6813	-2.8187	-2.6708	-2.8417	-2.9729	-2.5896	-2.9062	-2.7896	-2.7104	123.703	19.701	95.981	228.291	168.322	44.793	240.676	234.879	130.430	26.181	233.378	44.145	147.751	46.923	92.441	-64.028	0.00029212	0.00043051	0.00015966	1353.7	3.2906e-06	4.0574e-06	1354.4	356.58	2.128e-06	3.8925e-06	409.57	137.81	119.5	42.045	3.4804e-06	51.846	0.00017697	0.00014945	4.1455e-05	1357.9	1.6781e-06	1.6317e-06	1360.5	359.36	1.7239e-06	1.6567e-06	411.94	139.35	120.09	42.495	1.6432e-06	52.375	125.767	-14.159	35.871	-69.212	47.248	41.431	-69.410	-64.637	82.687	62.711	-65.167	-61.006	-60.551	-55.748	57.367	-56.531	-8191	255	
7638.703	1	1	0	0	0.28159	0.12881	0.17011	0.10098	0.15498	0.14626	0.23662	0.13404	0.16245	0.19112	0.19089	0.070768	0.059349	0.20289	0.11636	0.15511	-2.5875	-2.5979	-2.7021	-3.0896	-2.5229	-2.8292	-2.9854	-2.6625	-2.85	-2.9688	-2.6771	-2.9313	-2.6271	-2.6958	-2.7646	-2.5521	66.167	-53.048	-72.977	265.838	-59.066	238.210	196.587	144.476	31.685	-74.616	223.200	183.750	187.752	226.633	214.458	-7.777	0.00030098	0.00057765	0.00012567	1362.2	5.3539e-06	4.2134e-06	1355.2	357.51	2.7717e-06	4.0574e-06	411.07	138.29	119.37	42.212	5.3893e-06	51.955	0.00017423	0.00014759	4.1331e-05	1362.5	1.735e-06	1.5898e-06	1360.8	360.26	1.7345e-06	1.6101e-06	412.79	139.82	120.42	42.702	1.687e-06	52.61	126.471	-16.522	4.618	-69.172	55.929	61.612	-69.407	-64.643	39.271	72.385	-65.225	-60.920	-60.520	-55.759	43.239	-56.362	-8191	255	
7638.774	1	1	0	0	0.3207	0.079315	0.07065	0.06481	0.24039	0.022492	0.18719	0.24334	0.18822	0.12214	0.37879	0.092943	0.23849	0.19828	0.11838	0.29904	-2.4896	-2.7479	-2.4583	-3.0167	-2.7375	-2.6708	-2.9917	-2.6625	-2.7208	-2.7438	-2.8312	-2.9229	-2.4854	-2.625	-2.7729	-2.4938	-4.516	128.901	72.280	243.193	239.017	102.471	219.902	226.293	276.187	80.667	237.263	-25.105	242.962	224.851	36.623	162.986	0.00025892	0.00060805	0.00018196	1356.8	4.2668e-06	4.795e-06	1356.2	359.5	2.1437e-06	4.1796e-06	413.75	138.52	120.74	42.726	3.6053e-06	52.591	0.00017488	0.00014714	4.0903e-05	1360.4	1.6714e-06	1.6136e-06	1363.6	361.59	1.6522e-06	1.5508e-06	413.93	140.43	121.17	43.103	1.6495e-06	53.012	132.717	-2.538	15.605	-69.241	64.017	35.718	-69.562	-64.776	44.025	72.343	-64.967	-61.012	-60.519	-55.800	26.176	-56.415	-8191	255	
7638.895	1	1	0	0	0.25357	0.20895	0.15999	0.22133	0.10305	0.095501	0.17088	0.17691	0.1857	0.12847	0.26306	0.10503	0.20975	0.32832	0.13557	0.21944	-2.4479	-2.6583	-2.5708	-3.1813	-2.8667	-2.7062	-3.1292	-2.8208	-2.9104	-2.8083	-2.7875	-3.2188	-2.8479	-2.5187	-2.8229	-2.6688	102.701	-49.076	13.624	218.054	117.804	-36.175	176.956	234.114	63.101	263.243	34.729	178.835	179.115	232.569	91.075	-30.213	0.00028252	0.00037267	0.00014383	1359.7	2.5728e-06	5.3046e-06	1356.2	359.27	2.4058e-06	3.2042e-06	412.42	140.14	120.85	42.646	2.2127e-06	52.579	0.00017113	0.00014468	3.935e-05	1363.8	1.6271e-06	1.5605e-06	1365	362.21	1.6744e-06	1.5706e-06	414.15	141.02	121.34	43.091	1.6113e-06	52.942	131.187	2.891	13.570	-69.352	45.156	55.893	-69.446	-64.614	21.474	53.597	-65.059	-61.148	-60.547	-55.805	44.611	-56.580	-8191	255	
7638.991	1	1	0	0	0.017997	0.1712	0.03899	0.18376	0.20855	0.36614	0.40165	0.0833	0.073172	0.21161	0.074589	0.16325	0.079354	0.30588	0.077403	0.27502	-2.3479	-2.825	-2.4125	-3.0687	-2.7354	-2.5104	-3.0292	-2.7396	-2.5771	-2.7542	-2.7271	-3.0792	-2.9146	-2.7021	-2.7896	-2.6604	24.867	165.299	23.168	200.553	16.999	19.791	238.374	152.990	203.284	60.672	226.709	-65.536	16.785	-52.075	1.605	242.381	0.00027133	0.0004852	0.0001347	1359.4	4.2386e-06	4.5442e-06	1358.4	357.91	3.1474e-06	3.7349e-06	413.28	139.27	120.12	42.48	4.7624e-06	52.244	0.00017025	0.00014254	3.9858e-05	1362.2	1.6574e-06	1.5483e-06	1364.7	361.07	1.6672e-06	1.5814e-06	414.14	140.53	121.05	42.856	1.6563e-06	52.731	132.168	-1.894	-0.753	-69.330	54.647	65.533	-69.549	-64.630	31.299	74.548	-65.060	-61.041	-60.621	-55.593	70.490	-56.587	-8191	255	
7639.087	1	1	0	0	0.037929	0.12858	0.24435	0.25074	0.40459	0.073874	0.047372	0.2345	0.22746	0.22205	0.078673	0.28192	0.11049	0.15542	0.043293	0.17951	-2.2438	-2.9146	-2.5125	-2.9833	-2.7021	-2.4646	-3.0354	-2.7208	-2.6604	-2.8812	-2.5646	-2.7979	-2.6292	-2.6625	-2.8708	-2.8458	144.615	9.057	238.101	249.450	18.620	123.926	216.400	160.743	-76.094	83.739	0.091	188.827	213.572	229.112	29.078	146.791	0.00030475	0.00046194	0.00013784	1358.5	4.109e-06	5.4379e-06	1357	357.99	1.7537e-06	3.9323e-06	411.93	138.39	120.48	42.343	2.4352e-06	51.873	0.00017323	0.00014499	4.0765e-05	1360.3	1.6498e-06	1.5862e-06	1362.9	361.03	1.6818e-06	1.558e-06	412.93	140.06	120.82	42.775	1.6552e-06	52.539	123.760	14.320	18.898	-69.266	64.296	39.578	-69.525	-64.714	55.843	36.896	-65.116	-61.146	-60.577	-55.946	63.373	-56.394	-8191	255	
7639.183	1	1	0	0	0.082063	0.091024	0.13839	0.16481	0.19628	0.20786	0.095847	0.19221	0.14643	0.2167	0.10091	0.070109	0.21274	0.23826	0.094639	0.1015	-2.0292	-2.8167	-2.4479	-2.9042	-2.6271	-2.3812	-2.9875	-2.7208	-2.4208	-2.7979	-2.8333	-2.8354	-2.6417	-2.8083	-2.7313	-2.5938	18.997	38.941	28.089	-48.175	58.506	185.488	216.001	222.719	97.828	138.226	159.169	239.335	264.567	-17.287	-20.206	244.079	0.00025123	0.000344	0.00013434	1356.1	2.4828e-06	3.7147e-06	1352.4	356.89	3.8374e-06	3.0518e-06	411.57	138.35	119.83	42.136	4.0355e-06	51.936	0.00017083	0.00014695	4.1346e-05	1359.4	1.688e-06	1.6003e-06	1361.4	359.46	1.717e-06	1.6414e-06	412	139.71	120.26	42.617	1.7346e-06	52.46	131.371	-17.395	40.537	-69.285	71.229	52.578	-69.358	-64.781	65.617	65.380	-65.118	-61.033	-60.572	-55.795	47.465	-56.514	-8191	255	
7639.304	1	1	0	0	0.19556	0.23313	0.19207	0.37286	0.022309	0.29705	0.41486	0.20365	0.13272	0.071116	0.33861	0.30116	0.31267	0.10814	0.16121	0.13595	-2.1583	-2.5625	-2.6042	-3.0208	-2.625	-2.4813	-3.0125	-2.7854	-2.4604	-2.8688	-2.5896	-2.6937	-2.9646	-2.5687	-2.825	-2.95	72.365	50.395	61.627	214.349	16.447	216.147	219.229	273.824	151.055	71.276	253.585	229.303	-76.551	-76.293	135.139	111.553	0.0002753	0.00039075	8.7608e-05	1358.6	3.537e-06	3.0012e-06	1355.9	357.7	3.0334e-06	4.4608e-06	412.32	138.96	120.5	42.224	2.5072e-06	51.991	0.00017883	0.00014749	4.1205e-05	1359.9	1.6953e-06	1.618e-06	1363.3	360.43	1.719e-06	1.6108e-06	413.36	140.26	120.65	42.688	1.7093e-06	52.642	127.397	-0.853	23.481	-69.199	54.650	49.748	-69.428	-64.660	32.727	70.540	-65.157	-61.156	-60.630	-55.812	53.401	-56.356	-8191	255	
7639.376	1	1	0	0	0.1564	0.10599	0.23188	0.35112	0.092146	0.17996	0.18294	0.056197	0.098173	0.31151	0.24257	0.26253	0.27988	0.077589	0.13246	0.14464	-2.225	-2.9125	-2.6375	-2.7146	-2.9313	-2.5479	-3.0458	-2.8854	-2.4521	-2.9813	-2.7875	-2.6208	-2.9021	-2.7229	-2.7292	-2.9271	79.734	-78.210	42.980	254.749	274.621	225.663	176.273	2.652	245.416	129.875	159.310	214.327	224.287	226.772	72.102	-52.641	0.00031991	0.00039328	9.2476e-05	1361.5	2.9e-06	5.5097e-06	1355.4	357.96	3.7374e-06	4.9509e-06	412.35	138.65	120.07	42.304	3.6829e-06	52.121	0.00017416	0.00014312	4.0791e-05	1362.3	1.6652e-06	1.6116e-06	1363.8	360.42	1.7427e-06	1.618e-06	412.9	139.99	120.49	42.653	1.7171e-06	52.523	127.709	-8.401	25.210	-69.159	44.658	74.415	-69.436	-64.809	25.206	53.999	-65.188	-61.084	-60.475	-55.719	51.440	-56.335	-8191	255	
7639.495	1	1	0	0	0.21583	0.1793	0.19947	0.25744	0.23563	0.16077	0.10423	0.23735	0.19244	0.10858	0.22956	0.11115	0.21362	0.30502	0.22818	0.18628	-2.1229	-2.8229	-2.6208	-2.7083	-2.9729	-2.5458	-2.8312	-2.9667	-2.4854	-2.8521	-2.9229	-2.5333	-2.9375	-2.6021	-2.6188	-2.9646	212.648	163.476	109.760	210.103	128.328	210.152	208.174	205.336	46.302	94.527	221.639	242.175	242.764	270.237	-38.579	247.829	0.00025977	0.00029578	0.00013661	1356.1	6.008e-06	6.248e-06	1356.5	357.81	2.5688e-06	6.2336e-06	411.5	138.43	120.15	42.149	4.4473e-06	51.888	0.00017656	0.0001457	4.0749e-05	1360.4	1.6759e-06	1.6139e-06	1362.3	360.23	1.6885e-06	1.6254e-06	412.65	139.64	120.59	42.605	1.681e-06	52.555	131.742	14.112	46.190	-69.453	48.365	51.023	-69.397	-64.615	44.360	55.167	-65.127	-61.066	-60.655	-55.744	33.919	-56.418	-8191	255	
7639.591	1	1	0	0	0.13789	0.30766	0.15775	0.31809	0.1681	0.13934	0.40767	0.31265	0.29042	0.11877	0.087718	0.24762	0.21751	0.19126	0.10445	0.22109	-2.1021	-2.6833	-2.6792	-2.6521	-2.95	-2.3812	-2.7021	-2.9313	-2.5417	-2.7729	-2.7604	-2.4833	-2.8896	-2.6833	-2.6125	-2.9313	26.713	204.176	84.905	181.752	209.725	250.389	248.842	208.152	58.568	123.907	195.640	211.725	46.640	189.416	95.398	225.456	0.00027423	0.00049555	0.00013661	1362.4	3.0784e-06	7.1261e-06	1353.6	357.45	4.0402e-06	2.6978e-06	410.96	137.76	119.15	41.738	2.2318e-06	51.835	0.00017429	0.00014394	4.018e-05	1362.3	1.6818e-06	1.5796e-06	1362.9	359.86	1.7293e-06	1.5916e-06	412.16	139.4	119.98	42.326	1.6822e-06	52.224	135.432	-7.223	-5.669	-69.295	53.614	66.077	-69.543	-64.640	53.199	40.956	-65.039	-61.117	-60.485	-55.705	42.205	-56.447	-8191	255	
7639.687	1	1	0	0	0.20351	0.16988	0.21474	0.1638	0.30745	0.18706	0.15797	0.18154	0.010397	0.25411	0.068455	0.14356	0.10852	0.1454	0.19443	0.27324	-2.15	-2.6021	-2.6729	-2.6375	-2.8937	-2.775	-2.6583	-3.0521	-2.4854	-2.825	-2.825	-2.5021	-2.7188	-2.7625	-2.4229	-2.7812	202.255	143.825	-55.058	20.171	158.872	39.667	148.249	263.100	123.326	-3.053	188.738	234.942	210.085	145.821	68.952	224.407	0.0002955	0.00033635	0.00016035	1357.8	2.4231e-06	5.0099e-06	1353.6	356.03	2.5711e-06	4.6801e-06	409.95	137.39	118.75	41.961	3.3594e-06	51.671	0.00017583	0.00015036	4.1416e-05	1360	1.6862e-06	1.6404e-06	1359.9	358.92	1.743e-06	1.6338e-06	410.91	138.98	119.58	42.292	1.7025e-06	52.177	129.054	13.053	11.162	-69.226	50.251	70.405	-69.559	-64.780	21.811	56.580	-65.188	-60.952	-60.470	-55.850	41.181	-56.373	-8191	255	
7639.783	1	1	0	0	0.071859	0.10738	0.072177	0.050354	0.10196	0.1309	0.51065	0.2198	0.20704	0.16464	0.20107	0.3271	0.13548	0.24532	0.1762	0.24686	-2.0771	-2.7812	-2.8458	-2.6104	-2.7979	-2.6875	-2.9083	-2.9042	-2.5375	-2.6792	-2.6937	-2.5938	-2.9208	-2.8563	-2.3583	-2.875	244.051	-10.197	-21.482	-25.251	-45.017	39.090	220.704	252.604	-23.829	-49.920	162.388	164.854	212.812	184.553	179.774	157.150	0.0002834	0.00047907	0.00014318	1358.9	5.2433e-06	4.2692e-06	1353.7	356.43	1.4107e-06	4.2908e-06	410.07	138.45	119.82	41.813	3.5118e-06	51.675	0.00017514	0.00015081	4.1627e-05	1360.2	1.641e-06	1.5852e-06	1360.7	359.17	1.7119e-06	1.6109e-06	411.51	139.44	120.3	42.381	1.7375e-06	52.235	131.387	-10.029	16.288	-69.347	73.369	60.822	-69.663	-64.792	49.901	58.560	-65.212	-60.952	-60.424	-55.815	55.911	-56.442	-8191	255	
7639.904	1	1	0	0	0.20507	0.28965	0.13888	0.31	0.038553	0.22032	0.032528	0.27275	0.07326	0.34036	0.096237	0.10232	0.12012	0.08655	0.070266	0.16979	-2.2875	-2.4396	-2.7292	-2.7646	-2.8688	-2.7083	-2.6188	-3	-2.3771	-2.5521	-2.7979	-2.6146	-2.6792	-2.8542	-2.3479	-2.9688	97.474	-57.551	125.164	251.449	23.896	-2.760	195.379	207.849	4.683	26.604	89.234	-9.391	196.235	160.710	196.739	275.422	0.0002955	0.00054023	0.00017022	1358.1	3.5525e-06	4.0775e-06	1352.8	356.68	3.351e-06	3.4877e-06	410.93	137.94	119.53	41.82	4.4156e-06	51.564	0.00017331	0.00014867	4.1271e-05	1360.4	1.701e-06	1.6025e-06	1359.4	359.37	1.7084e-06	1.613e-06	412.12	139.21	120.02	42.284	1.6991e-06	52.175	127.621	-13.756	34.522	-69.217	76.803	50.469	-69.547	-64.803	19.541	44.514	-65.298	-61.109	-60.500	-55.720	35.456	-56.429	-8191	255	
7639.975	1	1	0	0	0.083149	0.046262	0.19072	0.30118	0.10321	0.072193	0.2234	0.1892	0.093081	0.044814	0.20625	0.084014	0.3451	0.32601	0.081361	0.03471	-2.4521	-2.5375	-2.8625	-2.7208	-2.7208	-2.825	-2.7833	-2.9688	-2.5979	-2.7333	-3.0958	-2.7208	-2.7521	-2.8146	-2.5646	-2.9292	70.021	173.004	77.028	-67.103	-66.609	121.713	242.698	253.599	112.739	-22.025	273.164	204.356	-63.742	236.546	99.214	-69.759	0.00028893	0.00048875	0.00016209	1355.8	5.0182e-06	4.3767e-06	1353.5	355.78	2.9232e-06	4.1448e-06	407.88	137.12	118.92	41.806	3.7698e-06	51.46	0.00017304	0.00014742	4.1387e-05	1359.3	1.6509e-06	1.5972e-06	1359.8	358.71	1.7251e-06	1.6006e-06	410.54	138.87	119.62	42.28	1.6825e-06	52.098	129.716	-4.562	21.097	-69.176	61.837	59.667	-69.420	-64.628	2.810	57.846	-65.272	-60.917	-60.623	-55.574	46.630	-56.506	-8191	255	
7640.071	1	1	0	0	0.014821	0.098042	0.20127	0.30439	0.18681	0.25494	0.29603	0.30337	0.16608	0.099725	0.12349	0.29888	0.021528	0.074327	0.19082	0.19839	-2.2167	-2.4688	-2.7604	-2.7458	-2.5958	-2.7104	-2.7896	-2.7667	-2.4875	-2.5417	-2.9708	-2.5687	-2.5438	-2.8625	-2.3896	-2.9021	134.390	83.779	106.924	230.000	-74.539	-55.621	206.332	234.104	76.719	73.334	205.019	270.180	81.129	248.399	193.753	137.266	0.00029929	0.00061792	0.00017143	1354.9	4.9048e-06	4.087e-06	1353.2	356.24	2.5424e-06	3.712e-06	409.11	137.15	118.92	41.676	2.07e-06	51.599	0.00017286	0.00015218	4.0447e-05	1357.3	1.6637e-06	1.5659e-06	1360.2	358.41	1.7174e-06	1.6468e-06	410.67	138.61	119.28	42.123	1.7518e-06	51.998	132.572	-11.967	13.514	-69.338	68.506	47.576	-69.439	-64.631	29.915	52.940	-64.953	-61.117	-60.638	-55.726	58.658	-56.761	-8191	255	
7640.168	1	1	0	0	0.16114	0.066278	0.19159	0.15617	0.15859	0.025626	0.32142	0.088287	0.11276	0.22721	0.42042	0.36916	0.16032	0.049799	0.15804	0.25797	-2.2979	-2.3833	-2.8229	-2.6458	-2.7313	-2.8146	-2.8917	-2.7604	-2.7167	-2.5417	-2.9396	-2.9104	-2.5875	-2.9188	-2.5354	-2.8063	86.977	65.037	-7.480	112.804	61.893	67.638	207.979	203.501	104.621	213.266	275.058	233.876	-33.289	277.258	-45.832	235.325	0.00027334	0.00059473	0.00019977	1352.9	2.8814e-06	4.3163e-06	1348.5	354.85	1.5566e-06	3.1964e-06	409.54	137.84	119.74	42.033	4.5438e-06	52.224	0.00017563	0.00015224	4.1997e-05	1356	1.7379e-06	1.6234e-06	1358.7	358.42	1.7156e-06	1.6552e-06	411.29	139.16	120.16	42.493	1.7049e-06	52.608	121.982	5.555	13.801	-69.171	50.038	57.384	-69.439	-64.734	50.117	38.584	-64.977	-61.032	-60.586	-55.924	29.779	-56.578	-8191	255	
7640.286	1	1	0	0	0.17168	0.031476	0.15382	0.20661	0.15617	0.14733	0.20089	0.032912	0.24245	0.16346	0.12259	0.15291	0.14241	0.13092	0.30627	0.35249	-2.2708	-2.3875	-2.7979	-2.5896	-2.6042	-2.7562	-2.7188	-2.7875	-2.75	-2.3521	-2.9042	-2.9375	-2.625	-2.8375	-2.4813	-2.9125	-48.111	-15.239	100.893	270.835	265.483	5.802	214.305	116.498	68.804	45.509	213.802	164.383	-67.322	-68.858	73.593	172.361	0.00029524	0.00054081	0.00014961	1361.9	4.3199e-06	5.1553e-06	1363.9	358.94	3.4002e-06	4.7728e-06	412.45	139.99	120.85	42.61	3.7263e-06	52.311	0.00017039	0.00014372	3.9956e-05	1364.3	1.6578e-06	1.5294e-06	1367.8	361.79	1.618e-06	1.5311e-06	414	141.05	121.29	42.985	1.6437e-06	52.833	123.538	-25.384	26.611	-69.300	44.467	59.748	-69.384	-64.744	69.374	51.334	-65.145	-60.951	-60.645	-55.966	47.322	-56.414	-8191	255	
7640.383	1	1	0	0	0.26645	0.035452	0.14803	0.31939	0.17068	0.085765	0.31305	0.41833	0.24119	0.09987	0.13137	0.078122	0.096633	0.19312	0.10303	0.12771	-2.5167	-2.5292	-2.8625	-2.8771	-2.3604	-2.7854	-2.9333	-2.9125	-2.9917	-2.5771	-2.8	-2.975	-2.3521	-2.7771	-2.575	-2.65	-29.666	122.772	118.626	251.366	96.027	72.517	245.824	232.871	275.872	158.319	271.876	261.335	202.025	17.599	112.181	48.749	0.00024771	0.00052812	0.00016457	1362	4.0263e-06	5.8083e-06	1356.4	359.49	2.1997e-06	3.4806e-06	411.11	138.93	120.27	42.362	3.8532e-06	52.131	0.00016614	0.00013832	3.8861e-05	1363.1	1.5959e-06	1.5116e-06	1366.4	360.87	1.6459e-06	1.5496e-06	413.28	140.39	121.06	42.857	1.6153e-06	52.735	129.745	-7.022	18.652	-69.256	45.079	30.099	-69.533	-64.759	32.409	58.193	-65.229	-61.054	-60.312	-55.776	26.517	-56.394	-8191	255	
7640.479	1	1	0	0	0.091805	0.31001	0.061812	0.32478	0.40485	0.13567	0.20556	0.30236	0.10101	0.361	0.13493	0.24576	0.21982	0.23566	0.19331	0.24798	-2.3937	-2.4188	-2.8229	-2.8875	-2.3479	-2.8604	-2.7521	-2.5854	-2.8083	-2.5667	-2.7333	-2.7458	-2.5729	-2.9146	-2.7708	-2.5563	166.898	62.763	110.050	245.588	241.949	-80.264	224.644	265.645	-10.373	268.637	197.996	247.309	-79.387	203.134	260.854	-27.035	0.00027072	0.00041062	0.00017107	1363.9	3.1732e-06	2.5398e-06	1361.5	360.07	3.8216e-06	5.6443e-06	413.57	139.81	121.05	42.696	2.252e-06	52.54	0.00017089	0.00014135	3.8953e-05	1364	1.6287e-06	1.4998e-06	1367	362.26	1.6139e-06	1.5064e-06	414.52	141.06	121.61	43.147	1.574e-06	53.085	130.493	-24.185	17.927	-69.316	81.339	63.220	-69.589	-64.691	20.002	60.284	-65.306	-61.144	-60.648	-55.965	64.570	-56.667	-8191	255	
7640.575	1	1	0	0	0.08985	0.15395	0.18526	0.15913	0.14119	0.064554	0.16937	0.21937	0.35799	0.14889	0.24887	0.18785	0.21089	0.28282	0.11291	0.22605	-2.2667	-2.4437	-2.4917	-2.9458	-2.6729	-2.8958	-3.0042	-2.6833	-2.8563	-2.7396	-2.8229	-3.0312	-2.4875	-2.8292	-2.7771	-2.6083	41.124	257.902	233.809	198.173	270.284	233.387	154.450	165.531	259.367	102.764	267.257	253.891	77.629	273.824	212.168	263.237	0.000299	0.00057021	6.3564e-05	1367.6	5.3925e-06	6.3647e-06	1362.6	360.33	3.2604e-06	4.4473e-06	413.29	139.93	120.89	42.854	3.5698e-06	52.601	0.00016522	0.00013256	3.7693e-05	1367.2	1.5722e-06	1.4845e-06	1369.2	362.93	1.6011e-06	1.4595e-06	414.86	141.1	121.53	43.216	1.5382e-06	53.066	126.090	-11.079	8.979	-69.246	82.964	57.449	-69.702	-64.820	19.737	58.953	-65.278	-61.153	-60.863	-55.694	39.098	-56.550	-8191	255	
7640.671	1	1	0	0	0.25886	0.34768	0.20975	0.11454	0.24208	0.29062	0.17094	0.24255	0.18579	0.20441	0.18603	0.16637	0.19697	0.1283	0.11164	0.15791	-2.5604	-2.3917	-2.5396	-3.1625	-2.4688	-2.7708	-2.9958	-2.8271	-2.6937	-2.6104	-2.7271	-2.9062	-2.5458	-2.8958	-2.6479	-2.5875	10.393	270.453	151.222	-48.039	-28.134	5.354	182.287	192.285	-72.636	195.052	166.132	200.244	-16.161	276.164	7.045	120.637	0.0002985	0.00042637	0.00019155	1363.4	4.0256e-06	5.6819e-06	1369.8	359.53	4.0482e-06	4.6967e-06	413.21	139.62	121.34	42.63	3.0144e-06	52.564	0.00016081	0.0001354	3.7989e-05	1366.3	1.547e-06	1.4737e-06	1370.6	362.19	1.6008e-06	1.4742e-06	414.55	141.05	121.71	43.192	1.5226e-06	53.114	131.159	21.643	12.077	-69.270	48.632	55.614	-69.371	-64.676	44.903	54.150	-65.133	-61.258	-60.381	-55.798	40.461	-56.616	-8191	255	
7640.767	1	1	0	0	0.19523	0.047947	0.16949	0.1996	0.18424	0.16609	0.16893	0.12283	0.12025	0.12708	0.30485	0.12388	0.14829	0.20685	0.01046	0.21275	-2.4042	-2.5979	-2.4854	-3.0854	-2.5875	-2.8292	-2.8979	-2.625	-2.9021	-2.6979	-2.7375	-2.8792	-2.6562	-2.7458	-2.6937	-2.4313	-0.542	253.142	89.215	215.398	26.234	214.061	231.200	-79.466	47.201	-57.507	214.636	148.586	108.180	224.525	191.486	241.319	0.00028465	0.00052522	0.00012569	1365.1	3.6805e-06	4.2827e-06	1360.7	361.66	3.5194e-06	5.6912e-06	414.59	140.14	121.51	42.927	4.0127e-06	52.68	0.00016282	0.00012911	3.7043e-05	1367.8	1.5235e-06	1.4227e-06	1369.9	363.47	1.5483e-06	1.4322e-06	415.65	141.52	122.12	43.352	1.528e-06	53.266	133.493	-3.617	0.982	-69.335	37.714	53.764	-69.549	-64.707	18.181	70.676	-65.298	-60.973	-60.678	-55.999	57.489	-56.336	-8191	255	
7640.863	1	1	0	0	0.080263	0.29705	0.10209	0.22776	0.10716	0.10816	0.33584	0.14138	0.069393	0.043415	0.25396	0.14134	0.26415	0.1382	0.16504	0.18893	-2.2938	-2.7354	-2.6063	-2.975	-2.6708	-2.5917	-3.2292	-2.5625	-2.6896	-2.7667	-2.8	-3	-2.4562	-2.7417	-2.7583	-2.4958	69.137	131.905	202.324	223.518	151.128	-38.194	251.328	117.167	77.036	27.110	223.529	26.619	-48.205	260.545	149.019	-16.896	0.00030101	0.00045156	0.00019504	1364.9	3.3371e-06	4.3198e-06	1365.5	359.59	1.7509e-06	2.7156e-06	412.59	140.52	121.72	42.825	4.0423e-06	52.793	0.00016254	0.00013006	3.7356e-05	1368.1	1.5011e-06	1.4086e-06	1369.8	362.74	1.5448e-06	1.4622e-06	415.48	141.56	122.08	43.354	1.5267e-06	53.342	126.303	-10.961	8.844	-69.329	55.427	43.823	-69.548	-64.712	84.175	80.919	-65.161	-61.109	-60.701	-55.743	30.477	-56.637	-8191	255	
7640.984	1	1	0	0	0.20172	0.12172	0.078313	0.25265	0.40493	0.16212	0.36697	0.22075	0.15008	0.21369	0.13577	0.29764	0.072462	0.26496	0.2737	0.306	-2.1375	-2.7021	-2.6437	-2.8333	-2.6542	-2.65	-3.025	-2.7208	-2.7042	-2.725	-2.4708	-2.9396	-2.6854	-2.5271	-2.8125	-2.6333	187.923	53.872	267.606	198.292	71.308	42.767	197.984	240.487	195.213	99.509	165.353	123.255	124.864	167.511	180.411	236.319	0.00027812	0.00059923	0.0001785	1365.1	3.7836e-06	2.4078e-06	1364.3	361.86	1.5439e-06	4.5612e-06	416.22	141.63	123.07	43.537	4.9633e-06	53.485	0.00016671	0.00013227	3.6787e-05	1367.8	1.5334e-06	1.4644e-06	1371.7	364.23	1.4692e-06	1.4053e-06	417.45	142.89	123.29	44.071	1.432e-06	53.932	124.573	-6.530	-0.647	-69.317	56.355	66.961	-69.374	-64.723	82.881	44.985	-65.058	-61.008	-60.610	-55.867	46.685	-56.527	-8191	255	
7641.080	1	1	0	0	0.12704	0.17309	0.3232	0.24129	0.084026	0.21969	0.26446	0.13467	0.053095	0.22574	0.25451	0.037873	0.19975	0.11148	0.21538	0.10434	-2.1937	-2.85	-2.3812	-3.0312	-2.6396	-2.5146	-3.0271	-2.7708	-2.6396	-2.8854	-2.6792	-2.9	-2.7917	-2.575	-2.8292	-2.8479	195.097	216.538	208.769	269.825	-1.432	33.999	239.923	273.195	134.104	-28.943	258.518	126.489	-70.919	135.357	165.239	0.604	0.00027236	0.00060992	0.00015834	1371.5	4.0593e-06	5.2818e-06	1365.5	362.16	1.3523e-06	3.7237e-06	416.48	141.55	122.58	43.613	1.9487e-06	53.225	0.00015611	0.00012466	3.4935e-05	1371.2	1.4448e-06	1.3026e-06	1373.8	365.11	1.4717e-06	1.334e-06	417.36	142.97	123.09	43.933	1.3927e-06	53.812	131.099	10.806	9.791	-69.308	62.719	47.837	-69.455	-64.717	24.462	52.887	-65.195	-61.176	-60.804	-55.925	50.306	-56.731	-8191	255	
7641.176	1	1	0	0	0.13346	0.097673	0.1879	0.17828	0.059207	0.18262	0.2014	0.30827	0.11696	0.184	0.2053	0.2486	0.19857	0.25744	0.23422	0.1902	-2.075	-2.7667	-2.4313	-2.8146	-2.7229	-2.4583	-2.9458	-2.9021	-2.7833	-2.8438	-2.7062	-2.7917	-2.8083	-2.5167	-2.8563	-2.7458	202.799	172.442	96.646	-69.838	230.897	247.129	226.813	189.016	50.616	199.237	264.001	205.650	273.748	205.958	172.719	163.362	0.00030324	0.00039864	0.00013187	1362.2	3.9797e-06	4.1603e-06	1364.5	362.43	1.5039e-06	4.9693e-06	414.71	141.4	122.5	43.349	4.7366e-06	52.911	0.00015381	0.00012322	3.3987e-05	1367.3	1.4197e-06	1.341e-06	1371.5	364.87	1.4633e-06	1.3738e-06	416.85	142.55	123.04	43.768	1.4372e-06	53.623	123.187	2.803	32.863	-69.252	50.920	55.833	-69.476	-64.790	-16.908	45.900	-65.254	-61.184	-60.798	-55.838	36.159	-56.678	-8191	255	
7641.272	1	1	0	0	0.011517	0.11802	0.069592	0.26182	0.11745	0.24144	0.36089	0.087204	0.11437	0.17067	0.10277	0.18578	0.39616	0.35337	0.11935	0.069112	-2.1417	-2.7542	-2.5458	-2.9208	-2.8646	-2.4208	-2.9979	-2.9583	-2.5125	-2.75	-2.6917	-2.7479	-2.8229	-2.5271	-2.775	-2.7917	131.606	26.218	40.970	265.884	47.236	198.513	238.361	72.291	215.198	-19.221	239.692	228.137	-40.850	218.014	211.005	242.367	0.0002697	0.0004665	0.00015342	1365.7	5.5324e-06	6.1147e-06	1363	361.32	4.1897e-06	3.8418e-06	416.2	140.89	121.54	43.264	2.9131e-06	53.15	0.00015688	0.0001272	3.4975e-05	1367.1	1.4282e-06	1.3993e-06	1369.1	363.48	1.493e-06	1.3847e-06	416.2	142.26	122.44	43.687	1.4437e-06	53.579	131.973	-3.505	1.471	-69.207	48.310	43.360	-69.501	-64.763	29.419	46.812	-65.322	-61.117	-60.640	-55.980	47.436	-56.795	-8191	255	
7641.367	1	1	0	0	0.14024	0.39527	0.044897	0.25364	0.18377	0.22735	0.28551	0.35623	0.10059	0.070735	0.32441	0.41381	0.23698	0.25329	0.19554	0.3035	-2.1542	-2.6646	-2.6021	-2.7	-2.9938	-2.6146	-2.9083	-2.75	-2.3063	-2.8375	-2.7812	-2.6229	-2.7771	-2.5896	-2.5563	-2.8563	79.705	1.510	-18.700	-79.385	198.143	225.350	197.435	230.996	242.901	257.264	275.105	257.973	130.137	-65.197	242.300	200.331	0.00028636	0.00035036	0.00016157	1363.8	3.6193e-06	4.6979e-06	1358.9	360.25	1.8851e-06	3.7142e-06	414.61	140.81	122.48	43.16	2.5487e-06	53.265	0.00015667	0.00012645	3.6469e-05	1365.6	1.4546e-06	1.3894e-06	1368.1	363.52	1.4853e-06	1.394e-06	415.74	142.18	122.81	43.704	1.4594e-06	53.548	129.604	18.379	15.225	-69.207	52.622	58.681	-69.559	-64.763	-1.382	77.147	-65.184	-61.117	-60.671	-55.979	29.981	-56.655	-8191	255	
7641.463	1	1	0	0	0.073682	0.080864	0.17502	0.18016	0.20947	0.34593	0.11579	0.24495	0.10009	0.029009	0.34488	0.12448	0.15877	0.16965	0.18324	0.25225	-2.1479	-2.6854	-2.5917	-2.825	-2.8917	-2.4771	-2.8604	-2.8833	-2.3396	-2.7958	-2.75	-2.4917	-2.85	-2.4958	-2.5979	-2.8646	184.891	45.247	115.625	185.598	75.191	186.799	163.881	200.734	-24.871	139.586	232.549	-7.621	264.370	121.286	192.362	240.593	0.00029141	0.00056554	0.00013713	1364.4	3.2034e-06	5.3664e-06	1362.1	360.63	2.6528e-06	3.6228e-06	413.75	140.74	121.74	43.316	4.424e-06	52.978	0.0001586	0.00012518	3.4904e-05	1366	1.475e-06	1.3835e-06	1367.6	363.05	1.5163e-06	1.3808e-06	415.51	142.12	122.54	43.683	1.479e-06	53.513	131.486	2.797	22.533	-69.155	51.569	66.173	-69.510	-64.903	54.837	54.956	-65.143	-61.160	-60.510	-56.194	56.598	-56.564	-8191	255	
7641.584	1	1	0	0	0.060783	0.23995	0.12122	0.16765	0.042446	0.11041	0.31044	0.17657	0.069216	0.19329	0.1543	0.19529	0.30992	0.10938	0.12057	0.12815	-2.1583	-2.6667	-2.6542	-2.6583	-2.6354	-2.675	-2.8542	-2.9021	-2.5687	-2.7458	-2.95	-2.6083	-3.0271	-2.6729	-2.6937	-2.8521	258.352	208.514	-81.316	235.750	239.861	54.171	212.564	23.101	68.384	-25.955	169.077	-60.712	240.594	-77.146	-19.066	175.234	0.00030551	0.00036663	0.00014953	1363.4	3.7728e-06	4.7501e-06	1368.3	361.02	3.3104e-06	1.1304e-06	415.01	141.11	122.64	43.381	5.7589e-06	52.993	0.00015933	0.00012998	3.5785e-05	1365.5	1.4631e-06	1.4136e-06	1370.5	363.83	1.4907e-06	1.3678e-06	416.39	142.34	122.97	43.743	1.5086e-06	53.557	129.659	5.584	5.439	-69.382	66.425	16.722	-69.557	-64.862	6.190	-20.000	-65.235	-61.174	-60.695	-56.208	47.979	-56.532	-8191	255	
7641.680	1	1	0	0	0.29552	0.033468	0.17844	0.19985	0.091796	0.024813	0.32877	0.27688	0.13537	0.27523	0.19242	0.18241	0.074465	0.087659	0.12601	0.26298	-1.9958	-2.6625	-2.8396	-2.6729	-2.7271	-2.5917	-2.8167	-3.1396	-2.575	-2.5812	-2.8375	-2.5521	-2.7625	-2.6521	-2.6021	-2.9833	45.018	-32.163	195.475	241.559	-45.563	-0.914	256.071	208.210	178.178	83.120	274.736	211.757	-33.496	177.084	217.317	78.210	0.00027427	0.0004111	0.00015277	1363.5	2.1007e-06	4.5722e-06	1362.6	360.95	3.8291e-07	3.5639e-06	415.61	140.92	121.59	43.049	3.5181e-06	53.094	0.00016016	0.00012581	3.5539e-05	1367.3	1.4572e-06	1.3851e-06	1369.7	363.89	1.4875e-06	1.4038e-06	416.1	142.1	122.56	43.584	1.4716e-06	53.484	131.172	-10.610	22.498	-69.094	88.247	68.728	-69.329	-64.720	257.233	76.062	-64.963	-61.023	-60.355	-55.986	54.463	-56.558	-8191	255	
7641.776	1	1	0	0	0.19325	0.13537	0.21613	0.27131	0.12286	0.27212	0.28423	0.17736	0.27235	0.16973	0.18125	0.08388	0.14423	0.30007	0.15276	0.099055	-2.15	-2.6917	-2.7104	-2.6542	-2.8208	-2.7708	-2.8271	-2.9479	-2.3833	-2.4313	-2.8521	-2.7271	-2.7042	-2.6625	-2.6542	-3.0583	241.158	91.663	93.361	219.689	-11.982	-30.539	139.014	142.060	140.172	31.089	250.351	266.589	-6.463	-57.175	39.399	-51.360	0.0002882	0.0003196	0.00016256	1362.5	2.8366e-06	6.427e-06	1361.6	360.05	2.0493e-06	3.6714e-06	413.4	139.9	121.05	42.826	2.5776e-06	52.689	0.00015919	0.00013111	3.5415e-05	1365.6	1.4797e-06	1.3886e-06	1368.3	363.18	1.5185e-06	1.4332e-06	414.74	141.49	121.74	43.282	1.5241e-06	53.189	127.309	2.042	0.700	-69.313	51.229	60.150	-69.452	-64.728	41.193	73.208	-65.236	-61.033	-60.407	-55.917	36.518	-56.646	-8191	255	
7641.872	1	1	0	0	0.27158	0.16402	0.12525	0.21373	0.19702	0.037593	0.093022	0.1851	0.018711	0.3478	0.17207	0.14989	0.098363	0.1402	0.054623	0.28198	-2.1146	-2.6875	-2.8583	-2.8333	-2.7708	-2.7313	-2.575	-2.9604	-2.6208	-2.825	-2.9208	-2.6083	-2.6167	-2.8563	-2.575	-2.9625	111.653	28.148	54.444	252.508	32.362	-70.477	198.859	201.098	66.424	240.397	174.742	-50.643	-39.264	156.106	122.862	216.919	0.00029148	0.00036697	0.00013948	1361.9	3.9046e-06	4.9291e-06	1359.1	359.97	3.7496e-06	3.1114e-06	413.08	140.35	121.49	42.966	3.5199e-06	52.653	0.00015916	0.00013372	3.674e-05	1364.3	1.5065e-06	1.4293e-06	1365.6	362.59	1.5339e-06	1.4494e-06	414.82	141.62	121.94	43.319	1.4904e-06	53.137	128.455	8.895	24.831	-69.337	69.441	45.323	-69.657	-64.801	31.131	90.026	-65.152	-61.107	-60.556	-56.055	74.830	-56.655	-8191	255	
7641.944	1	1	0	0	0.1497	0.10114	0.14525	0.18895	0.15071	0.082509	0.12314	0.096483	0.067736	0.46358	0.090972	0.080402	0.18996	0.20358	0.18332	0.085427	-2.3375	-2.6021	-2.8083	-2.7833	-2.7708	-2.9042	-2.5333	-2.975	-2.575	-2.4958	-2.9083	-2.4833	-2.5438	-2.8125	-2.6	-2.9792	30.685	-77.574	215.154	192.330	-3.072	93.755	189.081	262.382	53.610	265.522	1.670	65.574	269.848	214.938	-73.573	-64.882	0.0002797	0.00056012	0.00010896	1366.6	3.5509e-06	5.222e-06	1363.6	359.83	2.9384e-06	2.621e-06	411.94	139.98	120.88	42.558	4.8204e-06	52.639	0.00016058	0.00013065	3.595e-05	1364.6	1.5127e-06	1.4249e-06	1368.4	362.25	1.5165e-06	1.4391e-06	414.21	141.13	121.55	43.102	1.5178e-06	53.014	123.378	-16.529	-3.218	-69.396	44.736	43.835	-69.460	-64.692	45.245	69.799	-65.191	-61.048	-60.483	-55.960	53.880	-56.522	-8191	255	
7642.064	1	1	0	0	0.18054	0.19559	0.060093	0.063332	0.22285	0.042677	0.33322	0.20983	0.17566	0.29982	0.18878	0.06885	0.1223	0.10155	0.10869	0.113	-2.1833	-2.4771	-2.7271	-2.6625	-2.3875	-2.8833	-2.8104	-2.9	-2.5938	-2.5604	-2.8312	-2.6312	-2.7083	-2.8625	-2.4375	-2.7125	127.641	179.551	41.577	24.261	206.463	185.027	230.424	253.169	145.131	48.034	240.052	101.118	74.827	-61.519	95.761	-39.289	0.00026675	0.00049233	0.00013873	1364.3	2.9443e-06	6.1711e-06	1360.6	358.72	2.6112e-06	4.0609e-06	412.35	138.67	120.61	42.407	3.4825e-06	52.225	0.00015874	0.00013627	3.5424e-05	1363.6	1.5137e-06	1.4093e-06	1365.3	360.97	1.5548e-06	1.4496e-06	413.22	140.24	120.87	42.793	1.5365e-06	52.611	129.409	-8.810	29.895	-69.295	64.798	51.713	-69.555	-64.648	40.397	64.720	-65.258	-61.066	-60.632	-55.801	56.871	-56.191	-8191	255	
7642.161	1	1	0	0	0.026081	0.075267	0.16235	0.23415	0.21357	0.10115	0.19935	0.40488	0.18502	0.061591	0.39143	0.072293	0.21667	0.18724	0.16443	0.093438	-2.2229	-2.4458	-2.7396	-2.8146	-2.5229	-2.875	-2.7417	-2.8	-2.7062	-2.5583	-2.7771	-2.5687	-2.5687	-3.0625	-2.4375	-2.7208	69.528	224.051	161.696	245.964	244.357	-75.388	253.307	224.193	258.340	63.268	220.455	2.697	136.173	246.619	-82.237	92.812	0.00027348	0.00040842	0.00013493	1355.8	3.5554e-06	4.8862e-06	1356.1	356.88	2.4917e-06	4.2358e-06	410.94	137.92	118.84	41.859	1.8435e-06	51.649	0.0001584	0.00013224	3.7425e-05	1357.8	1.5221e-06	1.4724e-06	1359.6	358.9	1.557e-06	1.4851e-06	410.82	139.37	119.76	42.384	1.6032e-06	52.283	129.099	11.820	-0.168	-69.370	55.581	62.962	-69.408	-64.663	41.066	64.542	-65.412	-61.018	-60.397	-55.457	25.134	-56.480	-8191	255	
7642.257	1	1	0	0	0.0045922	0.28297	0.177	0.31439	0.14918	0.10678	0.50055	0.36677	0.1223	0.082678	0.27485	0.20005	0.19325	0.29862	0.1423	0.26532	-2.3021	-2.3792	-2.6208	-2.6854	-2.5083	-2.7812	-2.8187	-2.5812	-2.8688	-2.4729	-2.9229	-2.8458	-2.5021	-2.7854	-2.3083	-2.6292	-37.135	30.796	31.169	218.253	-34.254	44.950	198.809	-61.916	249.542	250.334	274.279	-50.677	133.003	-79.582	-24.190	-28.207	0.0002518	0.00051621	0.0001436	1355.4	3.8848e-06	5.4583e-06	1353.1	356.63	3.376e-06	3.5239e-06	409.62	138.13	119.73	42.111	2.9396e-06	51.988	0.00016468	0.00013792	3.9323e-05	1356	1.5786e-06	1.4918e-06	1358.6	358.77	1.5826e-06	1.5444e-06	410.96	139.37	120.16	42.545	1.5677e-06	52.424	133.906	-18.068	20.891	-69.113	74.372	87.673	-69.609	-64.739	33.459	76.820	-65.186	-60.997	-60.668	-55.972	7.111	-56.514	-8191	255	
7642.376	1	1	0	0	0.098536	0.15049	0.0088417	0.1774	0.17331	0.1901	0.22278	0.092386	0.023758	0.34426	0.23849	0.18937	0.1564	0.16229	0.34642	0.41802	-2.4604	-2.2583	-2.6937	-2.8083	-2.4562	-2.6208	-2.8854	-2.7854	-2.9104	-2.4667	-2.8104	-2.8125	-2.5417	-2.8979	-2.4542	-2.7562	47.298	67.438	207.818	274.437	-41.892	273.871	165.284	-8.027	-14.881	98.174	143.229	201.836	81.605	195.745	256.561	148.967	0.00030758	0.00044112	0.00012163	1359	4.0701e-06	5.0439e-06	1348.9	356.68	1.57e-06	4.262e-06	411.12	138.64	119.99	42.216	5.8155e-06	51.98	0.00016558	0.00014038	3.8519e-05	1359	1.5937e-06	1.5291e-06	1358.1	359.44	1.603e-06	1.5064e-06	411.56	139.66	120.43	42.602	1.5731e-06	52.505	123.725	-9.052	24.744	-69.258	62.496	56.212	-69.432	-64.720	58.428	71.121	-65.266	-61.183	-60.465	-55.785	34.547	-56.471	-8191	255	
7642.472	1	1	0	0	0.1717	0.28166	0.05833	0.16333	0.17605	0.26469	0.092669	0.030181	0.29095	0.019317	0.15604	0.17102	0.083838	0.070411	0.10009	0.10195	-2.2562	-2.5458	-2.7562	-2.9646	-2.4396	-2.8104	-2.7458	-2.7146	-2.8042	-2.5083	-2.675	-2.85	-2.5479	-2.8542	-2.7	-2.6083	114.725	76.208	182.127	207.193	49.978	-24.942	190.500	242.137	61.886	69.869	221.460	176.406	184.235	60.898	253.093	-71.355	0.00026259	0.00055719	0.00018951	1358.5	3.8957e-06	5.6057e-06	1352.8	356.46	2.5258e-06	4.7375e-06	411.48	138.77	120.76	42.379	2.9921e-06	52.083	0.00016377	0.00013713	3.851e-05	1359	1.591e-06	1.4659e-06	1361.3	359.58	1.5525e-06	1.5177e-06	412.14	140.2	120.87	42.783	1.5255e-06	52.621	124.412	-15.689	18.536	-69.265	81.140	51.470	-69.569	-64.701	19.979	41.257	-65.217	-61.071	-60.451	-55.891	64.457	-56.354	-8191	255	
7642.545	1	1	0	0	0.2371	0.1353	0.021244	0.10739	0.14272	0.20691	0.20208	0.19182	0.017044	0.23643	0.35784	0.046011	0.36289	0.10527	0.18023	0.22333	-2.3667	-2.4271	-2.5771	-2.9083	-2.55	-2.5729	-2.725	-2.6792	-2.7917	-2.5729	-2.575	-3.0646	-2.5021	-2.8729	-2.7729	-2.5312	64.341	206.968	119.349	240.646	148.173	-38.883	174.345	192.566	-33.711	63.076	231.615	-59.001	235.819	260.486	115.228	-70.385	0.00027833	0.00049519	9.849e-05	1356.6	2.5004e-06	6.0091e-06	1360.2	357.77	2.9974e-06	2.4047e-06	409.26	138.15	119.74	42.26	5.1701e-06	51.845	0.00016451	0.00013753	3.831e-05	1362.2	1.5683e-06	1.4518e-06	1363.1	359.8	1.5915e-06	1.4809e-06	411.87	139.7	120.36	42.664	1.6004e-06	52.416	124.884	3.397	24.681	-69.289	51.308	68.128	-69.467	-64.716	17.519	76.666	-65.524	-60.892	-60.626	-55.732	50.277	-56.467	-8191	255	
7642.664	1	1	0	0	0.19559	0.17612	0.29472	0.17376	0.11205	0.057006	0.097869	0.3033	0.19266	0.075102	0.29708	0.03707	0.2184	0.092897	0.21724	0.12621	-2.3125	-2.725	-2.6271	-2.9688	-2.5292	-2.7354	-2.8771	-2.6125	-2.8708	-2.6562	-2.6312	-2.7729	-2.6396	-2.8729	-2.7146	-2.6458	145.141	91.817	114.658	228.621	165.119	149.710	152.504	211.435	100.744	-77.879	187.884	175.858	25.541	64.972	207.779	66.717	0.00024262	0.00043157	0.00012644	1358.5	4.4304e-06	3.0803e-06	1352.9	356.55	4.1328e-06	2.4471e-06	408.42	138.46	119.53	41.99	2.5072e-06	52.091	0.00016709	0.00013739	3.9175e-05	1359.3	1.5909e-06	1.4835e-06	1360.7	359.6	1.5852e-06	1.5038e-06	411.1	139.6	120.35	42.522	1.5601e-06	52.502	134.717	-4.048	17.975	-69.328	77.884	34.456	-69.528	-64.572	40.225	38.113	-65.081	-60.936	-60.681	-55.858	41.847	-56.449	-8191	255	
7642.760	1	1	0	0	0.099515	0.45094	0.18543	0.37407	0.27182	0.14953	0.38891	0.17328	0.12874	0.1669	0.093288	0.16439	0.052142	0.16414	0.052557	0.1764	-2.2771	-2.4333	-2.4167	-3.0708	-2.6937	-2.6292	-3.1104	-2.6146	-2.775	-2.5958	-2.8354	-3.0375	-2.3792	-2.675	-2.9062	-2.6	184.097	232.820	-61.846	227.238	221.308	140.259	219.882	218.032	20.404	249.935	154.807	-58.607	-42.693	172.792	-23.741	228.659	0.00027212	0.00057393	0.00015747	1360.9	5.0158e-06	4.2152e-06	1360.6	356.89	5.6989e-07	4.2389e-06	411.53	137.23	119.26	42.025	2.1868e-06	51.813	0.00016556	0.00013913	3.8171e-05	1360.9	1.559e-06	1.4819e-06	1362.7	359.47	1.5897e-06	1.484e-06	411.69	139.14	120.04	42.456	1.5223e-06	52.375	127.826	-15.617	14.772	-69.427	57.044	34.153	-69.564	-64.543	119.940	52.243	-65.251	-61.131	-60.535	-55.950	50.244	-56.352	-8191	255	
7642.856	1	1	0	0	0.021842	0.2807	0.16751	0.25104	0.038004	0.10819	0.26314	0.060147	0.27525	0.23429	0.28659	0.049853	0.11515	0.20877	0.17928	0.034661	-2.2771	-2.6188	-2.55	-2.8833	-2.5583	-2.6521	-3.0187	-2.6937	-2.7896	-2.6917	-2.6208	-2.9229	-2.5375	-2.625	-2.8958	-2.6167	60.664	228.942	-3.741	217.323	81.655	71.552	-74.750	235.073	268.667	261.268	263.034	239.560	106.396	215.916	255.258	100.626	0.00030151	0.0003996	0.00018797	1354.1	1.506e-06	5.2117e-06	1353.8	356.88	2.1755e-06	5.0038e-06	411.08	138.48	119.34	41.91	3.6421e-06	51.697	0.00016306	0.00013291	3.776e-05	1358.4	1.5444e-06	1.4995e-06	1362	358.92	1.5693e-06	1.5032e-06	411.31	139.46	119.84	42.328	1.5398e-06	52.268	133.916	-25.932	0.601	-69.283	122.762	46.776	-69.587	-64.600	-3.123	56.184	-65.069	-61.122	-60.629	-55.747	39.542	-56.419	-8191	255	
7642.977	1	1	0	0	0.21077	0.20098	0.21252	0.16762	0.1117	0.082999	0.26726	0.21474	0.061372	0.17848	0.12854	0.27759	0.097714	0.13324	0.23007	0.27888	-2.2104	-2.6021	-2.5062	-2.9458	-2.6312	-2.5479	-2.9583	-2.5333	-2.5833	-2.7271	-2.5854	-2.9333	-2.8083	-2.6562	-2.7417	-2.5229	32.087	217.483	-31.706	249.143	-34.529	253.903	245.679	228.922	57.130	55.244	107.764	245.046	-36.972	-10.638	114.790	164.226	0.00026195	0.00058264	0.00014615	1356.4	3.3231e-06	5.3093e-06	1357.2	357.18	2.1631e-06	3.1787e-06	410.97	138.23	119.82	42.125	4.9842e-06	52.178	0.00016341	0.00013345	3.8189e-05	1359.5	1.566e-06	1.4674e-06	1362.8	359.56	1.5469e-06	1.4135e-06	412.02	139.72	120.42	42.573	1.5304e-06	52.519	125.684	3.294	22.694	-69.269	73.692	51.683	-69.518	-64.611	21.455	26.027	-65.168	-61.064	-60.501	-55.696	49.044	-56.471	-8191	255	
7643.073	1	1	0	0	0.14773	0.21348	0.17148	0.46713	0.13954	0.21072	0.22983	0.26176	0.10477	0.15822	0.15073	0.086494	0.022768	0.21312	0.25209	0.089733	-2.1292	-2.6042	-2.2958	-2.8646	-2.6667	-2.4313	-2.8646	-2.6396	-2.3708	-2.9021	-2.7417	-2.7875	-2.6625	-2.5417	-2.7792	-2.5	-9.195	193.342	164.331	234.822	-8.200	-53.401	198.813	260.408	103.702	110.037	-64.621	174.178	-35.519	269.565	217.114	-58.472	0.00023185	0.00063191	0.00013618	1358.6	2.1342e-06	6.523e-06	1354.2	357.15	2.3445e-06	4.998e-06	411	138.72	120.05	42.217	2.9128e-06	52.151	0.00016022	0.00012588	3.6721e-05	1361.4	1.472e-06	1.4092e-06	1361.4	359.67	1.5189e-06	1.4204e-06	411.88	139.87	120.54	42.651	1.4684e-06	52.624	136.851	-18.205	-1.167	-69.288	45.410	46.722	-69.457	-64.704	24.176	61.928	-65.141	-61.080	-60.527	-55.710	31.831	-56.466	-8191	255	
7643.145	1	1	0	0	0.088499	0.33568	0.19857	0.26424	0.19204	0.21081	0.097967	0.2713	0.14049	0.10012	0.16038	0.32553	0.083769	0.15537	0.029116	0.20908	-2.1896	-2.6146	-2.4792	-2.6542	-2.6146	-2.3458	-2.9313	-2.7833	-2.5333	-2.8375	-2.5312	-2.7042	-2.7167	-2.65	-2.5917	-2.7042	58.042	9.099	23.473	-41.903	-73.108	110.846	-61.610	193.742	-57.225	89.462	-49.727	231.034	162.171	191.251	208.281	-5.419	0.00025229	0.00039799	0.00013667	1359.2	2.5936e-06	5.459e-06	1358.3	359.1	3.6626e-06	3.5256e-06	411.67	139.6	120.3	42.559	2.6959e-06	52.773	0.00016066	0.00012755	3.5863e-05	1362	1.4673e-06	1.4027e-06	1364.5	361.36	1.4848e-06	1.3628e-06	413.38	140.74	120.97	42.961	1.4018e-06	52.964	125.898	8.272	21.717	-69.355	66.458	68.540	-69.411	-64.677	21.044	59.256	-65.152	-61.089	-60.576	-55.913	53.673	-56.393	-8191	255	
7643.265	1	1	0	0	0.040215	0.30023	0.25444	0.19342	0.19143	0.16279	0.21468	0.14022	0.34459	0.10042	0.18087	0.24669	0.27452	0.32759	0.13912	0.12553	-2.1833	-2.7146	-2.2979	-2.7979	-2.8646	-2.5792	-3.0208	-2.6833	-2.3125	-2.8146	-2.7687	-2.6854	-2.7687	-2.3958	-2.7208	-2.7625	168.746	86.964	27.324	216.751	141.354	-45.374	-75.154	142.764	233.990	18.387	-47.124	-38.203	212.903	-61.178	-10.799	205.250	0.0002716	0.00052502	0.00014208	1359.6	4.5156e-06	4.7289e-06	1360.5	358.72	1.7253e-06	5.1224e-06	411.34	139.44	121.29	42.694	3.511e-06	52.793	0.00015373	0.00012398	3.4142e-05	1363.3	1.4184e-06	1.3157e-06	1365.6	361.17	1.4159e-06	1.32e-06	413.83	141.14	121.51	43.129	1.3593e-06	53.072	128.009	-8.712	24.618	-69.349	49.019	52.029	-69.478	-64.802	29.405	59.549	-65.147	-61.153	-60.691	-55.822	61.990	-56.422	-8191	255	
7643.360	1	1	0	0	0.25869	0.011591	0.16818	0.26749	0.087209	0.20134	0.14949	0.28091	0.21836	0.10138	0.14392	0.147	0.24263	0.36841	0.29994	0.16268	-1.9771	-2.7167	-2.6562	-2.7729	-2.8896	-2.5104	-3	-2.9604	-2.2458	-2.8229	-2.6604	-2.5958	-2.8625	-2.4729	-2.7479	-2.9313	-49.472	215.292	220.318	246.535	60.577	1.961	235.192	202.683	176.469	-53.364	-71.265	191.476	209.428	-45.968	-35.756	257.109	0.00028816	0.00043519	0.00018036	1363.1	3.7137e-06	3.957e-06	1361.8	359.42	1.2255e-06	4.3886e-06	410.78	139.29	121.07	42.666	2.6461e-06	52.525	0.00014822	0.00012076	3.4091e-05	1364.1	1.3858e-06	1.3157e-06	1366.1	361.63	1.4277e-06	1.331e-06	413.17	140.9	121.43	43.061	1.4039e-06	52.948	135.456	-3.584	8.098	-69.237	75.091	71.147	-69.585	-64.786	5.773	58.034	-65.034	-61.145	-60.483	-55.959	34.759	-56.514	-8191	255	
7643.456	1	1	0	0	0.048717	0.041488	0.16122	0.48607	0.029822	0.084666	0.065895	0.063659	0.16349	0.36143	0.34497	0.30733	0.19083	0.081373	0.19437	0.13784	-1.9042	-2.7062	-2.6813	-2.6729	-2.7646	-2.3958	-2.8125	-2.7271	-2.5417	-2.8292	-2.5417	-2.5812	-2.8563	-2.6625	-2.4521	-2.725	126.130	-36.101	4.609	238.345	247.242	-51.540	255.234	75.955	16.083	44.010	-77.682	241.479	56.903	-8.653	239.051	141.514	0.00030217	0.00039963	0.00015832	1356.1	3.0837e-06	3.2147e-06	1361.6	358.87	2.8277e-06	3.9345e-06	412.38	140	121.67	42.794	3.6843e-06	52.703	0.00015151	0.00012117	3.3449e-05	1361.3	1.3703e-06	1.2953e-06	1364.2	361.47	1.3961e-06	1.3289e-06	413.31	141.19	121.62	43.196	1.3679e-06	52.957	126.831	11.634	26.280	-69.373	95.906	58.511	-69.455	-64.865	25.919	94.851	-65.029	-61.094	-60.656	-56.014	35.921	-56.419	-8191	255	
7643.552	1	1	0	0	0.062881	0.1479	0.14278	0.24893	0.1596	0.12553	0.30365	0.083673	0.16505	0.18946	0.20575	0.31564	0.043615	0.22735	0.30093	0.29855	-2.0854	-2.7313	-2.5667	-2.5875	-2.8458	-2.4667	-2.8521	-2.7833	-2.5583	-2.7812	-2.6667	-2.6417	-2.9667	-2.7438	-2.5687	-2.9271	177.271	45.814	66.601	252.389	84.598	-37.194	239.765	245.607	25.329	-1.877	193.463	-78.869	27.853	228.825	118.858	228.896	0.00028842	0.00055256	9.6556e-05	1357.5	2.8672e-06	3.2646e-06	1365.2	359.55	4.0884e-06	3.7095e-06	414.2	140.32	120.94	42.883	1.2317e-06	52.891	0.00014881	0.0001206	3.3376e-05	1361	1.3674e-06	1.2779e-06	1365.3	362.32	1.428e-06	1.3409e-06	414.69	141.44	121.64	43.293	1.3773e-06	53.261	129.363	-7.949	9.158	-69.299	44.007	25.687	-69.682	-64.777	15.867	40.620	-65.270	-61.016	-60.729	-56.026	82.551	-56.526	-8191	255	
7643.648	1	1	0	0	0.047496	0.30134	0.1069	0.11951	0.13542	0.25297	0.23082	0.27279	0.087398	0.22242	0.19294	0.27481	0.16739	0.15716	0.26594	0.068649	-2.0396	-2.6208	-2.6417	-2.4542	-2.8708	-2.675	-2.7104	-2.9	-2.6146	-2.7167	-2.8729	-2.4167	-2.7854	-2.6688	-2.5729	-2.9562	234.123	-39.081	-1.699	29.601	275.717	-72.322	233.327	238.300	163.277	84.493	259.296	-60.692	271.177	277.150	9.035	-77.541	0.00024101	0.00036825	0.00012959	1358.4	2.8195e-06	5.2506e-06	1360.7	358.77	2.8823e-06	3.0306e-06	414.14	140.11	121.4	42.834	3.4496e-06	52.686	0.0001517	0.00011826	3.3556e-05	1362.5	1.3343e-06	1.2703e-06	1366.1	362.01	1.4013e-06	1.2771e-06	414.6	141.4	121.79	43.304	1.3655e-06	53.109	127.423	18.302	16.113	-69.363	52.666	45.359	-69.626	-64.480	14.705	44.702	-65.267	-61.312	-60.469	-55.903	47.320	-56.460	-8191	255	
7643.769	1	1	0	0	0.13202	0.14736	0.42687	0.44072	0.10431	0.019479	0.1548	0.28721	0.16608	0.12009	0.24802	0.3293	0.18872	0.29234	0.32882	0.22885	-2.2396	-2.575	-2.7	-2.6875	-2.7729	-2.6333	-2.725	-2.9896	-2.6229	-2.5958	-2.9313	-2.5646	-2.85	-2.7562	-2.5396	-2.9208	147.696	126.733	-76.367	270.061	104.452	1.569	-13.248	249.950	74.702	-63.742	274.084	158.068	184.283	135.100	-67.305	208.246	0.00028864	0.00045928	0.00014152	1357.7	4.7725e-06	5.3442e-06	1365	360.73	2.5999e-06	3.4211e-06	413.83	139.63	121.78	42.903	3.9505e-06	52.645	0.00014816	0.00011793	3.2749e-05	1361.1	1.3876e-06	1.2874e-06	1365.8	362.29	1.3826e-06	1.3105e-06	414.21	141.23	121.81	43.263	1.3484e-06	53.19	128.961	6.216	-7.541	-69.356	62.751	57.448	-69.474	-64.589	60.612	81.495	-65.227	-61.143	-60.500	-55.896	56.604	-56.478	-8191	255	
7643.841	1	1	0	0	0.25802	0.38572	0.18403	0.22416	0.075188	0.19925	0.25705	0.34867	0.24813	0.25826	0.10948	0.27076	0.068797	0.097355	0.2938	0.21296	-2.0021	-2.5646	-2.4875	-2.7271	-2.6271	-2.5062	-2.6333	-3.0479	-2.5979	-2.5958	-2.9062	-2.5771	-2.5938	-2.7354	-2.475	-2.9521	233.802	45.301	-79.178	219.533	22.094	87.604	246.213	192.045	-54.444	8.489	156.601	-80.038	237.670	121.646	-81.501	94.770	0.00024924	0.00037085	0.00011778	1362.9	2.7134e-06	4.3496e-06	1361.4	361.17	1.8423e-06	4.1704e-06	412.2	140.56	121.66	42.92	3.1191e-06	52.942	0.00014678	0.00011514	3.2918e-05	1362.3	1.3507e-06	1.2768e-06	1365.8	362.63	1.3438e-06	1.2749e-06	414.52	141.75	122.21	43.409	1.348e-06	53.449	126.898	1.885	-1.172	-69.429	46.232	69.118	-69.380	-64.601	56.177	73.899	-65.030	-61.191	-60.688	-55.892	21.656	-56.509	-8191	255	
#DATA ENDS
