BOXY.EXE: ISS Imagent and Oximeter Data Acquisition Program Version 0.80
Ascii Record File

#ACQ INFORMATION
2  Detector Channels 
16  External MUX Channels 
1  Auxiliary Channels 
5000  Waveform (CCF) Frequency (Hz)
1  Waveforms Skipped 
30  Waveforms Averaged 
1  Cycles Averaged 
16  Acquisitions per Waveform 
10.0806  Updata Rate (Hz) 

#FILE INFORMATION
TRUE -- External MUX Channel results are PARSED.
FALSE -- AC DC and Phase are NOT grouped.
TRUE -- Companion Program Settings File CREATED.
FALSE -- AC data not excluded
FALSE -- DC data not excluded
FALSE -- Phase data not excluded
FALSE -- Auxillary Chn. data not excluded
Tab delimiters

#CALIBRATION STATE
TRUE -- Waveform Calibration Values APPLIED.


#AUX CALIBRATION VALUES
Val Type	aux-1	

Term	1.0000e+00	
Factor	0.0000e+00	


#WF CALIBRATION VALUES
A = Detector Channel
Val Type	A-AC1	A-AC2	A-AC3	A-AC4	A-AC5	A-AC6	A-AC7	A-AC8	A-AC9	A-AC10	A-AC11	A-AC12	A-AC13	A-AC14	A-AC15	A-AC16	A-DC1	A-DC2	A-DC3	A-DC4	A-DC5	A-DC6	A-DC7	A-DC8	A-DC9	A-DC10	A-DC11	A-DC12	A-DC13	A-DC14	A-DC15	A-DC16	A-Ph1	A-Ph2	A-Ph3	A-Ph4	A-Ph5	A-Ph6	A-Ph7	A-Ph8	A-Ph9	A-Ph10	A-Ph11	A-Ph12	A-Ph13	A-Ph14	A-Ph15	A-Ph16	

Term	0.00000e+00	0.00000e+00	0.00000e+00	0.00000e+00	0.00000e+00	0.00000e+00	0.00000e+00	0.00000e+00	0.00000e+00	0.00000e+00	0.00000e+00	0.00000e+00	0.00000e+00	0.00000e+00	0.00000e+00	0.00000e+00	0.00000e+00	0.00000e+00	0.00000e+00	0.00000e+00	0.00000e+00	0.00000e+00	0.00000e+00	0.00000e+00	0.00000e+00	0.00000e+00	0.00000e+00	0.00000e+00	0.00000e+00	0.00000e+00	0.00000e+00	0.00000e+00	0.00000e+00	0.00000e+00	0.00000e+00	0.00000e+00	0.00000e+00	0.00000e+00	0.00000e+00	0.00000e+00	0.00000e+00	0.00000e+00	0.00000e+00	0.00000e+00	0.00000e+00	0.00000e+00	0.00000e+00	0.00000e+00	
Factor	1.00000e+00	1.00000e+00	1.00000e+00	1.00000e+00	1.00000e+00	1.00000e+00	1.00000e+00	1.00000e+00	1.00000e+00	1.00000e+00	1.00000e+00	1.00000e+00	1.00000e+00	1.00000e+00	1.00000e+00	1.00000e+00	1.00000e+00	1.00000e+00	1.00000e+00	1.00000e+00	1.00000e+00	1.00000e+00	1.00000e+00	1.00000e+00	1.00000e+00	1.00000e+00	1.00000e+00	1.00000e+00	1.00000e+00	1.00000e+00	1.00000e+00	1.00000e+00	X	X	X	X	X	X	X	X	X	X	X	X	X	X	X	X	

B = Detector Channel
Val Type	B-AC1	B-AC2	B-AC3	B-AC4	B-AC5	B-AC6	B-AC7	B-AC8	B-AC9	B-AC10	B-AC11	B-AC12	B-AC13	B-AC14	B-AC15	B-AC16	B-DC1	B-DC2	B-DC3	B-DC4	B-DC5	B-DC6	B-DC7	B-DC8	B-DC9	B-DC10	B-DC11	B-DC12	B-DC13	B-DC14	B-DC15	B-DC16	B-Ph1	B-Ph2	B-Ph3	B-Ph4	B-Ph5	B-Ph6	B-Ph7	B-Ph8	B-Ph9	B-Ph10	B-Ph11	B-Ph12	B-Ph13	B-Ph14	B-Ph15	B-Ph16	

Term	0.00000e+00	0.00000e+00	0.00000e+00	0.00000e+00	0.00000e+00	0.00000e+00	0.00000e+00	0.00000e+00	0.00000e+00	0.00000e+00	0.00000e+00	0.00000e+00	0.00000e+00	0.00000e+00	0.00000e+00	0.00000e+00	0.00000e+00	0.00000e+00	0.00000e+00	0.00000e+00	0.00000e+00	0.00000e+00	0.00000e+00	0.00000e+00	0.00000e+00	0.00000e+00	0.00000e+00	0.00000e+00	0.00000e+00	0.00000e+00	0.00000e+00	0.00000e+00	-1.80303e+02	-1.38097e+02	-1.19944e+02	-1.80819e+02	-7.90061e+01	-8.11867e+01	-1.57378e+02	-1.62015e+02	-8.94823e+01	-7.32125e+01	-1.71564e+02	-1.71541e+02	-1.83671e+02	-1.76147e+02	-9.09538e+01	-1.49257e+02	
Factor	2.87017e-05	1.45962e-04	4.30770e-05	1.57142e-01	1.46671e-06	1.61965e-06	1.59980e-01	4.53428e-02	1.43660e-06	1.32136e-06	7.50420e-02	2.82269e-02	3.42424e-02	8.08152e-03	1.41912e-06	1.17899e-02	2.86743e-06	3.12586e-06	8.73151e-07	7.88825e-02	3.38613e-08	3.44756e-08	7.56613e-02	2.28643e-02	3.41259e-08	3.46871e-08	3.65790e-02	1.37491e-02	1.70758e-02	4.08423e-03	3.47117e-08	5.78306e-03	X	X	X	X	X	X	X	X	X	X	X	X	X	X	X	X	



#DISTANCE SETTINGS
A = Detector Channel
A-1	A-2	A-3	A-4	A-5	A-6	A-7	A-8	A-9	A-10	A-11	A-12	A-13	A-14	A-15	A-16	

2.5000e+00	3.0000e+00	2.5000e+00	3.0000e+00	2.0000e+00	3.0000e+00	1.5000e+00	3.0000e+00	3.0000e+00	3.0000e+00	3.0000e+00	3.0000e+00	3.0000e+00	3.0000e+00	1.5000e+00	3.0000e+00	

B = Detector Channel
B-1	B-2	B-3	B-4	B-5	B-6	B-7	B-8	B-9	B-10	B-11	B-12	B-13	B-14	B-15	B-16	

1.0000e+01	1.0000e+01	1.0000e+01	1.4400e+00	1.0000e+01	1.0000e+01	1.5100e+00	1.9400e+00	1.0000e+01	1.0000e+01	1.9900e+00	2.4900e+00	2.4100e+00	2.9000e+00	1.0000e+01	2.9800e+00	




#DATA BEGINS
time	group	step	mark	flag	A-AC1	A-AC2	A-AC3	A-AC4	A-AC5	A-AC6	A-AC7	A-AC8	A-AC9	A-AC10	A-AC11	A-AC12	A-AC13	A-AC14	A-AC15	A-AC16	A-DC1	A-DC2	A-DC3	A-DC4	A-DC5	A-DC6	A-DC7	A-DC8	A-DC9	A-DC10	A-DC11	A-DC12	A-DC13	A-DC14	A-DC15	A-DC16	A-Ph1	A-Ph2	A-Ph3	A-Ph4	A-Ph5	A-Ph6	A-Ph7	A-Ph8	A-Ph9	A-Ph10	A-Ph11	A-Ph12	A-Ph13	A-Ph14	A-Ph15	A-Ph16	B-AC1	B-AC2	B-AC3	B-AC4	B-AC5	B-AC6	B-AC7	B-AC8	B-AC9	B-AC10	B-AC11	B-AC12	B-AC13	B-AC14	B-AC15	B-AC16	B-DC1	B-DC2	B-DC3	B-DC4	B-DC5	B-DC6	B-DC7	B-DC8	B-DC9	B-DC10	B-DC11	B-DC12	B-DC13	B-DC14	B-DC15	B-DC16	B-Ph1	B-Ph2	B-Ph3	B-Ph4	B-Ph5	B-Ph6	B-Ph7	B-Ph8	B-Ph9	B-Ph10	B-Ph11	B-Ph12	B-Ph13	B-Ph14	B-Ph15	B-Ph16	aux-1	digaux	

7610.302	1	1	0	256	0.16964	0.22805	0.030963	0.11069	0.12444	0.1387	0.092005	0.44348	0.057596	0.14879	0.10123	0.30265	0.16011	0.162	0.098696	0.03613	-2.2938	-2.4708	-2.7667	-2.8708	-2.5458	-2.8521	-2.8875	-2.6188	-2.9771	-2.6271	-2.8542	-2.8354	-2.5771	-2.9854	-2.7042	-2.7583	118.050	-72.709	274.915	232.976	233.679	264.849	143.554	182.067	39.960	195.477	207.618	249.627	-50.229	8.837	103.292	38.204	9.9742e-05	0.0004557	8.9203e-05	1173.7	3.1392e-06	4.0726e-06	1235	239.39	5.1326e-07	1.0498e-06	299.18	80.901	63.744	18.485	2.4711e-06	26.403	0.00017992	0.00017512	4.954e-05	1143.7	1.9479e-06	1.915e-06	1206.6	235.97	1.9098e-06	1.9034e-06	293.98	80.752	62.962	18.458	1.8525e-06	26.294	108.470	15.829	-14.431	-67.156	92.023	44.069	-67.175	-60.169	81.745	44.978	-60.390	-54.008	-53.858	-46.469	33.801	-46.803	-8191	255	
7610.420	1	1	0	0	0.16353	0.067673	0.16736	0.30124	0.15272	0.15371	0.1648	0.042079	0.15752	0.087246	0.28249	0.1732	0.35182	0.23303	0.07765	0.41178	-2.3917	-2.4104	-2.8208	-2.8979	-2.2625	-2.8583	-2.7604	-2.5917	-2.8958	-2.5604	-2.6688	-2.725	-2.3354	-2.8625	-2.5292	-2.675	246.780	14.471	-67.610	-77.793	104.158	-35.431	263.827	-48.183	224.834	67.182	4.386	202.563	116.435	-37.762	241.415	197.507	0.00012645	0.00026619	9.0534e-05	1175.8	2.6387e-06	3.8086e-06	1241.8	240.11	2.458e-06	2.8802e-06	299.01	81.223	64.174	18.533	1.9521e-06	26.396	0.00017039	0.00016325	4.4718e-05	1146.5	1.8293e-06	1.7157e-06	1210.6	236.92	1.7883e-06	1.7553e-06	294.63	80.997	63.3	18.563	1.7339e-06	26.466	88.640	6.592	-53.407	-67.130	37.647	12.498	-67.209	-60.153	140.107	95.264	-60.451	-54.082	-53.729	-46.596	48.645	-47.117	-8191	255	
7610.517	1	1	0	0	0.10292	0.052823	0.10176	0.2816	0.16753	0.22282	0.016035	0.01484	0.11409	0.046434	0.25695	0.094437	0.20249	0.075559	0.16735	0.1121	-2.3521	-2.6104	-2.5333	-2.9854	-2.6417	-2.8833	-2.9167	-2.4896	-2.7354	-2.4958	-2.7667	-2.9146	-2.525	-2.8542	-2.5812	-2.5187	209.943	-18.927	46.417	-63.820	-62.750	83.354	-56.942	38.089	267.971	-40.473	239.204	115.784	217.230	230.397	217.240	265.165	0.00011204	0.00027942	6.2714e-05	1184.9	3.2847e-06	3.1646e-06	1245.4	242.06	1.1853e-06	4.8922e-06	303.04	82.185	64.05	18.567	1.9479e-06	26.479	0.00016401	0.00015878	4.5571e-05	1155.2	1.8885e-06	1.8788e-06	1219.5	237.86	1.9232e-06	1.96e-06	296.87	81.691	63.82	18.698	1.9301e-06	26.604	81.271	36.309	55.708	-67.162	110.960	60.237	-67.368	-60.242	36.955	67.597	-60.493	-54.272	-53.764	-46.632	22.333	-46.734	-8191	255	
7610.613	1	1	0	0	0.091584	0.23035	0.060134	0.27444	0.13383	0.13482	0.098699	0.24239	0.18429	0.23942	0.24387	0.10096	0.24703	0.12411	0.17813	0.21623	-2.5729	-2.5854	-2.7708	-2.9708	-2.5187	-2.8688	-2.7313	-2.6833	-2.8667	-2.6667	-2.8208	-2.8312	-2.6937	-2.8417	-2.7062	-2.4458	54.378	17.837	252.212	239.217	245.260	197.394	162.405	224.329	-46.266	238.735	256.640	251.850	201.574	204.222	91.353	274.729	9.6134e-05	0.00034904	7.9541e-05	1190.8	1.8587e-06	3.3937e-06	1249.7	242.47	3.3e-06	3.2464e-06	301.41	82.039	64.406	18.787	1.5646e-06	26.562	0.00017978	0.00017726	4.9677e-05	1163.5	1.9926e-06	1.9438e-06	1221.5	238.97	1.9961e-06	1.9367e-06	296.8	81.857	63.98	18.715	2.0645e-06	26.655	120.437	5.256	2.340	-67.269	30.733	23.122	-67.465	-60.156	77.942	99.297	-60.449	-54.277	-53.669	-46.261	75.732	-47.302	-8191	255	
7610.733	1	1	0	0	0.14276	0.085279	0.10037	0.058338	0.14473	0.14029	0.12699	0.1709	0.13499	0.10959	0.021309	0.025054	0.44541	0.10026	0.15935	0.14099	-2.4458	-2.4875	-2.5271	-2.9833	-2.5146	-2.8083	-2.7417	-2.7396	-3.0187	-2.7625	-2.4896	-2.9875	-2.4458	-2.6792	-2.6437	-2.3917	-45.313	252.748	-16.965	194.078	78.514	11.441	240.486	260.449	-71.492	73.398	242.832	226.844	-55.643	73.939	100.733	196.409	0.00012971	7.1769e-05	4.8889e-05	1190.5	2.4783e-06	2.6157e-06	1253.5	242.02	1.3223e-06	1.1653e-06	302.12	81.938	64.362	18.795	2.2409e-06	26.7	0.00018731	0.00018484	5.0996e-05	1163.7	2.1291e-06	2.097e-06	1225.5	239.22	2.1307e-06	2.1243e-06	297.65	81.929	63.989	18.787	2.1539e-06	26.76	135.144	-26.452	57.521	-67.339	118.042	57.236	-67.440	-60.141	44.312	81.751	-60.407	-54.008	-53.536	-46.646	72.604	-46.730	-8191	255	
7610.805	1	1	0	0	0.206	0.1007	0.09729	0.32459	0.19827	0.3075	0.23237	0.12673	0.35541	0.083967	0.097187	0.26657	0.18508	0.30878	0.1964	0.16619	-2.5104	-2.7125	-2.575	-3.1125	-2.525	-2.75	-2.9979	-2.5458	-2.6792	-2.7896	-2.7292	-3.0083	-2.5021	-2.7458	-2.7812	-2.7458	223.617	-54.041	-37.349	276.743	241.663	191.125	153.021	65.961	149.524	-25.100	20.198	209.167	75.369	121.018	117.562	123.669	0.00012227	0.00037219	9.3922e-05	1198.8	2.9486e-06	2.8867e-06	1257.3	243.96	1.608e-06	3.436e-06	304.06	82.876	64.912	18.806	2.4818e-06	26.806	0.00019916	0.00019822	5.5934e-05	1169.7	2.1763e-06	2.2128e-06	1231.6	240.93	2.235e-06	2.2026e-06	299.05	82.341	64.579	18.932	2.1472e-06	26.882	119.177	11.262	33.135	-67.454	85.149	63.290	-67.255	-60.276	0.539	61.016	-60.320	-54.311	-54.199	-46.776	72.959	-46.868	-8191	255	
7610.901	1	1	0	0	0.19521	0.080768	0.1132	0.39297	0.17879	0.1867	0.18607	0.22291	0.13204	0.2291	0.1874	0.4408	0.071081	0.33215	0.21693	0.12041	-2.3688	-2.7062	-2.6042	-2.9813	-2.7354	-2.8542	-3.1188	-2.4854	-2.8583	-2.8125	-2.5708	-3.0438	-2.575	-2.8146	-2.8021	-2.5875	281.301	-35.398	-20.580	235.625	79.525	-5.936	254.606	214.359	272.541	94.662	183.851	176.882	76.406	54.226	-54.123	264.826	0.00012187	0.00051815	9.54e-05	1199.7	8.1053e-07	4.0945e-06	1261.5	245.16	2.5436e-06	2.3063e-06	303.58	82.532	64.362	18.865	2.5801e-06	26.89	0.00019727	0.00018871	5.1561e-05	1170.8	2.1171e-06	1.9666e-06	1233.5	241.21	1.9867e-06	1.9009e-06	299.06	82.419	64.221	18.94	1.8608e-06	26.867	132.207	14.755	47.410	-67.264	-10.098	59.238	-67.327	-60.076	47.749	39.336	-60.484	-53.924	-54.043	-46.788	29.117	-46.966	-8191	255	
7610.997	1	1	0	0	0.17445	0.13613	0.09762	0.13488	0.36634	0.23669	0.28785	0.15967	0.04431	0.15908	0.14464	0.11121	0.24886	0.20591	0.13507	0.12168	-2.2604	-2.775	-2.3979	-2.9583	-2.7729	-2.7167	-3.0792	-2.7958	-2.725	-2.8333	-2.8125	-2.8333	-2.8063	-2.6125	-2.9	-2.8375	147.151	69.241	203.990	-46.605	236.361	82.048	228.425	218.237	103.014	5.316	40.545	240.439	218.245	-71.962	180.405	63.608	0.00010114	0.00034593	1.0835e-05	1202.7	2.3178e-06	3.3037e-06	1257.5	244.98	1.8142e-06	2.3496e-06	304.71	82.979	64.839	18.995	3.4707e-06	27.047	0.00017385	0.00016036	4.5515e-05	1173.3	1.8351e-06	1.7832e-06	1234.9	241.14	1.8614e-06	1.7626e-06	299.83	82.509	64.279	19.011	1.7534e-06	26.981	120.789	6.014	18.865	-67.123	-5.325	38.316	-67.210	-60.049	74.987	59.487	-60.530	-54.180	-53.789	-46.490	99.343	-47.022	-8191	255	
7611.118	1	1	0	0	0.21707	0.21527	0.20943	0.34568	0.085795	0.058715	0.13128	0.30581	0.059704	0.077942	0.061163	0.20244	0.14231	0.11786	0.10625	0.387	-2.2458	-2.7938	-2.4646	-3.0438	-2.8396	-2.3833	-3.0708	-2.7417	-2.6917	-2.7792	-2.5104	-2.8229	-2.6875	-2.5521	-2.9208	-2.6312	111.431	246.649	160.570	280.355	166.521	159.492	-39.667	220.993	83.734	66.792	84.101	181.063	140.721	-73.175	47.948	198.797	0.00011223	0.00039293	8.5671e-05	1205.3	4.3892e-06	2.5276e-06	1261.6	244.03	1.9369e-06	2.836e-06	304.66	82.62	64.839	18.92	1.8069e-06	26.762	0.00016745	0.0001577	4.5384e-05	1172.8	1.8005e-06	1.7244e-06	1231.1	240.62	1.813e-06	1.7226e-06	299.31	82.224	64.236	18.944	1.7612e-06	26.846	113.028	-6.687	6.326	-67.161	101.897	101.687	-67.389	-60.115	19.078	66.465	-60.654	-54.139	-53.560	-46.398	45.262	-47.162	-8191	255	
7611.212	1	1	0	0	0.13934	0.011084	0.19979	0.23821	0.23763	0.034072	0.098255	0.13233	0.27445	0.061973	0.14564	0.27387	0.30191	0.18051	0.085798	0.15995	-2.2979	-2.7021	-2.5625	-2.8208	-2.775	-2.5625	-2.9938	-2.8167	-2.6562	-2.9354	-2.8146	-2.7542	-2.8958	-2.4875	-2.8312	-2.8083	179.018	250.150	195.227	276.314	214.517	68.966	101.958	144.353	57.175	53.255	209.623	124.880	-58.204	112.187	-11.255	39.153	0.00017176	0.00026063	7.1841e-05	1191.7	7.0068e-07	2.6417e-06	1248.1	245	1.994e-06	3.5498e-06	304.41	82.811	65.272	19.284	1.1904e-06	27.183	0.00016269	0.00015129	4.2008e-05	1161.2	1.7065e-06	1.6402e-06	1221.6	240.31	1.6398e-06	1.6053e-06	299.01	82.526	64.519	19.206	1.5846e-06	27.156	105.223	42.571	28.025	-67.368	133.417	63.896	-67.308	-60.095	10.482	97.050	-60.386	-54.007	-53.780	-46.623	-1.283	-47.045	-8191	255	
7611.309	1	1	0	0	0.16673	0.11983	0.1405	0.38811	0.27607	0.090666	0.12025	0.15979	0.24752	0.30126	0.17349	0.052057	0.09166	0.17292	0.13397	0.17209	-2.1958	-2.8063	-2.5938	-2.7396	-2.9354	-2.5521	-3.0667	-2.8042	-2.6354	-2.8625	-2.7083	-2.8	-2.7438	-2.7667	-2.7979	-2.8271	153.853	257.885	-66.574	273.791	67.583	186.977	228.660	274.001	21.888	228.102	245.559	-25.744	275.644	-44.896	173.472	258.910	9.0373e-05	0.00023502	7.1861e-05	1193.3	3.5643e-06	2.1895e-06	1249.4	244.01	4.0086e-07	2.543e-06	305.94	83.144	65.617	19.337	4.3562e-06	27.167	0.00015097	0.00014411	4.0316e-05	1163.3	1.6435e-06	1.61e-06	1224.1	240.86	1.7284e-06	1.6763e-06	300.28	83.208	64.998	19.392	1.9308e-06	27.305	112.130	19.884	10.204	-67.168	71.948	48.476	-67.141	-60.433	206.020	91.755	-60.303	-54.099	-53.826	-46.741	52.440	-47.128	-8191	255	
7611.382	1	1	0	0	0.11576	0.11764	0.10308	0.2369	0.1561	0.085771	0.20626	0.095246	0.22824	0.11699	0.18268	0.27612	0.035004	0.019167	0.13444	0.1019	-2.2854	-2.9396	-2.5917	-2.9938	-2.9625	-2.6063	-2.9708	-2.9771	-2.5146	-2.8083	-2.7979	-2.9771	-2.7917	-2.5292	-2.675	-2.8438	28.239	-16.206	190.539	246.660	-44.135	41.670	214.260	176.241	274.370	222.887	-58.601	242.649	-48.744	229.852	117.731	-47.824	0.0001395	0.00043357	0.00014559	1200.7	1.5369e-06	1.6282e-06	1269.2	248.59	3.3668e-06	4.4971e-06	308.01	84.693	66.947	19.547	9.1115e-07	27.548	0.00018887	0.00018977	5.3408e-05	1173.4	2.2508e-06	2.3121e-06	1242.5	244.8	2.4986e-06	2.5508e-06	304.99	84.414	66.691	19.694	2.7792e-06	27.769	118.616	-0.655	43.633	-67.322	-68.159	53.122	-67.373	-60.228	51.101	91.391	-60.824	-54.235	-53.763	-46.987	55.033	-47.144	-8191	255	
7611.501	1	1	0	0	0.10393	0.25367	0.15739	0.14552	0.051926	0.30771	0.25749	0.10298	0.19707	0.03581	0.23287	0.30703	0.15058	0.096437	0.19473	0.052828	-2.0375	-2.825	-2.7313	-2.8375	-3.0146	-2.5833	-2.8729	-2.9896	-2.5771	-2.6604	-2.9208	-2.6729	-2.8292	-2.4667	-2.7812	-3.0979	25.358	198.051	120.579	225.713	56.385	137.152	244.154	176.929	273.927	265.029	199.020	54.470	31.331	192.026	142.809	158.864	8.3421e-05	0.00038788	7.8166e-05	1236.9	5.0069e-06	2.9255e-06	1295	253.69	2.0018e-06	3.852e-06	317.44	86.01	68.361	20.088	1.3326e-06	28.236	0.00025082	0.00025281	7.028e-05	1206.6	2.9039e-06	2.8599e-06	1271.5	251.31	2.9752e-06	2.9688e-06	312.64	86.391	68.479	20.288	3.1186e-06	28.479	114.133	-23.486	27.510	-67.359	29.729	20.629	-67.370	-60.478	46.076	84.347	-60.353	-54.479	-53.881	-47.061	-6.153	-47.585	-8191	255	
7611.597	1	1	0	0	0.25779	0.17538	0.2652	0.4016	0.17834	0.15754	0.072878	0.26108	0.30864	0.17424	0.30297	0.11626	0.23367	0.19589	0.19402	0.13832	-2.2875	-2.7458	-2.6125	-2.8333	-2.9875	-2.8375	-2.9938	-3.025	-2.6521	-2.7896	-2.8396	-2.65	-2.8542	-2.7208	-2.7042	-2.7854	108.210	2.994	181.902	236.690	17.522	231.138	261.514	276.671	262.293	103.956	174.370	204.805	172.293	43.021	180.947	123.634	0.00058865	0.00040879	0.00011723	1262	4.8206e-06	3.1881e-06	1324	259.16	5.1703e-06	2.5198e-06	322.15	88.078	69.403	20.369	4.0385e-06	28.596	0.00031864	0.00029212	8.0566e-05	1233.4	3.3947e-06	3.3483e-06	1298.3	256.27	3.4537e-06	3.4587e-06	317.47	88.032	69.617	20.628	3.5726e-06	28.882	75.829	28.619	57.977	-67.431	57.478	64.637	-67.493	-60.418	11.894	17.768	-60.685	-54.079	-54.274	-47.580	26.558	-47.420	-8191	255	
7611.693	1	1	0	0	0.1641	0.045774	0.15343	0.19121	0.022323	0.20267	0.075174	0.26608	0.17426	0.10236	0.14432	0.10269	0.067921	0.13699	0.27133	0.10414	-2.0604	-2.8771	-2.7125	-2.7646	-2.8583	-2.7313	-2.7104	-3.0021	-2.4958	-2.9562	-3.0146	-2.7562	-3.0083	-2.8104	-2.6813	-2.8646	79.972	95.579	257.733	221.710	-74.711	279.885	271.408	-60.890	-72.141	146.096	145.118	147.905	100.734	144.416	271.824	230.040	0.00013304	0.00057803	0.00010701	1271.3	1.1365e-06	3.3127e-06	1334.9	260.36	1.6684e-07	3.9022e-06	321.2	87.418	68.96	20.25	3.7638e-06	28.266	0.00031641	0.00032168	8.9751e-05	1243.7	3.6408e-06	3.5895e-06	1307.8	257.32	3.5741e-06	3.5501e-06	317.7	87.619	69.357	20.465	3.4487e-06	28.614	116.473	14.998	46.726	-67.226	237.026	50.767	-67.398	-60.557	-61.817	86.523	-60.359	-54.318	-54.369	-47.616	106.044	-47.381	-8191	255	
7611.814	1	1	0	0	0.08055	0.18643	0.19294	0.1108	0.1105	0.20431	0.33434	0.017652	0.20492	0.12096	0.072025	0.31625	0.21669	0.083907	0.27089	0.0809	-2.3396	-2.8104	-2.7958	-2.7917	-2.7125	-2.8792	-2.8667	-2.9562	-2.5854	-2.7958	-3.0292	-2.4729	-2.9938	-2.9688	-2.7104	-2.9562	31.412	255.698	221.398	190.401	44.032	-51.739	252.071	1.439	165.129	7.204	244.326	275.824	236.207	229.339	181.919	143.917	0.00019236	0.00029142	6.9477e-05	1271.8	1.5692e-06	5.4773e-07	1325	257.61	2.6405e-06	1.3986e-06	320.4	86.284	68.412	19.865	2.5706e-06	27.789	0.00030621	0.00030917	8.3753e-05	1242.2	3.3914e-06	3.2365e-06	1301	254.84	3.2868e-06	3.1778e-06	314.76	86.417	68.226	20.025	3.0105e-06	28.091	135.380	52.022	71.747	-67.405	93.829	-49.748	-67.368	-60.508	275.073	25.538	-60.765	-54.253	-53.891	-47.235	81.850	-47.186	-8191	255	
7611.910	1	1	0	0	0.17516	0.11304	0.11558	0.093705	0.041471	0.02901	0.33235	0.15591	0.1614	0.25624	0.18757	0.065329	0.10994	0.20922	0.29709	0.14951	-2.0917	-2.7438	-2.7146	-2.8667	-2.8458	-2.8479	-2.6958	-2.9688	-2.6542	-2.6896	-2.9229	-2.4688	-2.7292	-2.7771	-2.5042	-2.8896	2.905	174.350	195.996	203.066	145.212	164.049	223.572	-77.957	274.759	-52.923	-65.238	189.007	169.136	-12.374	8.998	239.407	0.00012668	0.00030936	9.6449e-05	1246	1.4706e-06	3.7253e-06	1306.1	253.15	3.2801e-06	3.2885e-06	313.71	85.15	66.984	19.458	3.6203e-06	27.5	0.00026228	0.00025995	7.0709e-05	1217.9	2.841e-06	2.7777e-06	1278.9	249.76	2.7925e-06	2.7539e-06	309.83	84.979	66.795	19.627	2.6646e-06	27.686	122.564	-5.877	1.146	-67.456	4.200	45.653	-67.331	-60.330	-65.814	95.654	-60.709	-54.059	-53.749	-47.069	51.555	-47.201	-8191	255	
7612.006	1	1	0	0	0.18799	0.10002	0.12729	0.10501	0.1163	0.18174	0.38586	0.16023	0.26612	0.067649	0.27787	0.11084	0.09747	0.14233	0.14171	0.092239	-2.3708	-2.5729	-2.8729	-2.7083	-2.8021	-2.8021	-2.6708	-3.0292	-2.6792	-2.4104	-3	-2.6146	-2.7646	-2.8354	-2.575	-2.7708	-46.015	104.149	9.469	-67.409	-40.680	85.338	242.482	217.234	28.484	130.084	251.714	56.290	-59.864	-71.782	235.312	122.327	0.00011539	0.00031143	0.00011621	1232.9	2.3483e-06	3.9981e-06	1295.6	251.47	1.6374e-06	1.2818e-06	310.9	84.738	65.896	19.3	3.0969e-06	27.327	0.00024073	0.00023921	6.8442e-05	1206.1	2.7165e-06	2.6413e-06	1271.2	248.12	2.7576e-06	2.7188e-06	307.16	84.27	66.098	19.438	2.6394e-06	27.505	114.683	12.767	43.940	-67.277	156.775	105.295	-67.234	-60.633	98.569	45.714	-60.642	-54.343	-53.672	-46.425	54.775	-46.869	-8191	255	
7612.102	1	1	0	0	0.19386	0.06749	0.040325	0.3293	0.194	0.16851	0.038222	0.29121	0.18317	0.18503	0.19215	0.24353	0.064733	0.23507	0.1914	0.17998	-2.0958	-2.425	-2.8542	-2.7708	-2.6542	-2.7271	-2.7979	-2.9229	-2.8042	-2.6708	-2.9688	-2.6875	-2.7333	-2.9146	-2.6167	-2.9167	-20.134	238.628	183.510	248.230	135.453	42.064	-76.319	232.479	78.669	12.931	265.015	268.747	101.435	264.492	56.405	156.839	8.7461e-05	0.00039419	9.7722e-05	1234.1	2.3932e-06	3.9678e-06	1286.8	250.03	1.9969e-06	4.3158e-06	309.25	83.933	66.015	19.29	4.5433e-06	27.078	0.00023496	0.00023762	6.7918e-05	1201	2.6709e-06	2.6416e-06	1260.6	246.49	2.6375e-06	2.6028e-06	305.2	83.762	65.872	19.286	2.6881e-06	27.238	69.675	25.878	16.004	-67.337	143.848	71.071	-67.357	-60.286	34.038	46.477	-60.634	-54.093	-53.689	-46.633	-29.360	-46.818	-8191	255	
7612.198	1	1	0	0	0.063678	0.2044	0.1597	0.18514	0.15992	0.12276	0.32376	0.11373	0.059596	0.075004	0.11207	0.12555	0.1565	0.28231	0.098083	0.13828	-2.2729	-2.3812	-2.7833	-2.8563	-2.5458	-2.9938	-2.6063	-2.9833	-2.6188	-2.5646	-2.8396	-2.7083	-2.6583	-3.0729	-2.6542	-2.6917	100.410	-34.553	184.559	276.410	7.752	-63.954	202.199	268.103	232.041	103.839	152.613	259.950	258.365	-72.037	172.365	105.395	0.00012507	0.00023674	0.00013912	1220.7	3.6341e-06	4.7422e-06	1280.2	247.42	4.3197e-06	2.6524e-06	309.14	83.18	65.556	19.057	3.9875e-06	26.905	0.0002365	0.0002349	6.6147e-05	1193.3	2.5379e-06	2.5561e-06	1256.9	244.76	2.6058e-06	2.5773e-06	304.2	83.242	65.392	19.181	2.576e-06	27.164	117.900	-68.514	25.476	-67.094	47.549	25.239	-67.117	-60.442	188.181	109.076	-60.578	-54.029	-54.095	-46.583	88.784	-46.940	-8191	255	
7612.293	1	1	0	0	0.26788	0.05729	0.11827	0.49781	0.073812	0.23666	0.15083	0.079688	0.21435	0.21725	0.12505	0.09202	0.17847	0.15058	0.24093	0.06255	-2.3688	-2.4833	-2.8021	-2.7917	-2.5396	-2.8187	-2.5938	-2.8167	-2.8771	-2.5958	-2.8646	-2.7	-2.4437	-2.8146	-2.5292	-2.7604	208.583	-45.063	27.488	241.651	45.931	248.046	136.662	231.886	-33.431	172.651	229.789	-47.428	-51.144	211.673	3.012	-29.896	0.00014738	0.00024437	7.2674e-05	1221.5	1.3645e-06	1.9751e-06	1275.9	247.48	1.747e-06	3.0904e-06	308.36	83.531	65.247	19.009	2.2854e-06	26.917	0.00022467	0.00022232	6.1095e-05	1191	2.4564e-06	2.4154e-06	1248.2	244.3	2.3817e-06	2.3966e-06	302.89	82.912	65.05	19.107	2.3807e-06	27.031	127.964	14.226	44.908	-67.286	148.928	-0.394	-67.350	-60.244	87.281	62.790	-60.319	-53.948	-53.827	-46.412	38.839	-47.182	-8191	255	
7612.413	1	1	0	0	0.095186	0.12341	0.057905	0.16199	0.13234	0.036431	0.13327	0.1512	0.092069	0.044461	0.11136	0.25202	0.19335	0.037153	0.15446	0.23903	-2.4167	-2.4667	-2.675	-2.9646	-2.6375	-2.7979	-2.8271	-2.6896	-2.9021	-2.5938	-2.9542	-2.725	-2.4458	-2.9333	-2.8438	-2.6	-68.669	79.453	271.854	-33.674	-27.308	72.494	191.064	-43.468	-23.331	79.599	-47.824	56.323	192.623	167.463	206.955	213.583	0.00011957	8.0079e-05	0.00010316	1217.4	2.3442e-06	5.4492e-06	1278.2	246.76	1.9746e-06	1.5599e-06	307.07	83.231	64.738	18.997	2.8578e-06	26.926	0.00021327	0.00020991	5.8257e-05	1187.1	2.3261e-06	2.2905e-06	1247.4	243.51	2.2965e-06	2.2942e-06	302.19	82.794	64.891	19.085	2.2711e-06	27.043	121.057	47.348	42.101	-67.188	77.615	88.596	-67.302	-60.235	73.610	-61.737	-60.366	-54.092	-53.854	-46.312	39.694	-46.799	-8191	255	
7612.510	1	1	0	0	0.24707	0.073403	0.029363	0.13112	0.026482	0.15993	0.22308	0.26404	0.051113	0.1324	0.12294	0.15228	0.24279	0.1186	0.035017	0.20895	-2.3792	-2.5542	-2.6354	-2.85	-2.4375	-2.9313	-2.8042	-2.6875	-2.9	-2.8083	-2.7438	-2.8917	-2.5479	-2.6917	-2.8208	-2.5833	-71.603	61.848	107.149	226.815	205.808	-19.025	193.899	246.086	25.673	203.625	213.153	130.833	-55.626	229.996	220.942	-57.211	0.00013312	0.00031188	9.8711e-05	1211.9	8.4324e-07	2.4666e-06	1273.9	245.87	1.2582e-06	3.7548e-06	307.62	82.792	64.998	18.964	3.918e-06	26.675	0.0002047	0.00019903	5.5361e-05	1183.1	2.2267e-06	2.1134e-06	1246.9	243.25	2.2165e-06	2.1074e-06	301.89	82.737	64.742	19.001	2.1254e-06	26.887	118.143	-21.321	-10.675	-67.228	-42.877	65.098	-67.228	-60.222	143.708	48.459	-60.328	-54.169	-53.864	-46.378	87.606	-46.766	-8191	255	
7612.606	1	1	0	0	0.12487	0.16936	0.12736	0.20894	0.15077	0.22888	0.17658	0.13985	0.063711	0.25218	0.38924	0.12406	0.19282	0.13908	0.023397	0.23637	-2.325	-2.4688	-2.7188	-2.8542	-2.5396	-2.7083	-2.9688	-2.6	-2.875	-2.5729	-2.6771	-2.8312	-2.5312	-2.6604	-2.8021	-2.5479	157.545	224.240	40.246	226.687	95.071	252.585	228.174	-46.220	247.605	133.585	269.114	122.370	-6.097	228.182	-26.312	199.099	0.00014098	0.00044176	5.4616e-05	1209.6	2.1501e-06	3.3972e-06	1266.4	247	1.4246e-06	1.1236e-06	305.8	82.859	64.917	18.842	2.4963e-06	26.824	0.00019205	0.00018608	5.105e-05	1179.6	2.0751e-06	2.0099e-06	1239.3	242.53	2.0392e-06	1.9751e-06	300.56	82.471	64.421	18.92	1.9747e-06	26.868	106.520	0.875	-16.408	-67.261	62.851	47.843	-67.370	-60.222	70.953	58.970	-60.618	-54.091	-53.822	-46.954	10.508	-47.143	-8191	255	
7612.677	1	1	0	0	0.21404	0.19334	0.17117	0.048584	0.080702	0.25256	0.32157	0.13516	0.21706	0.031421	0.057578	0.36537	0.24598	0.24776	0.30721	0.14031	-2.2354	-2.6917	-2.5375	-3.1125	-2.4896	-2.6958	-2.9354	-2.5042	-2.8083	-2.7938	-2.7438	-2.8896	-2.6271	-2.8	-2.6583	-2.5208	216.275	227.292	-37.697	-76.157	275.285	168.173	226.931	69.139	246.860	162.219	8.693	125.724	-69.216	277.350	-29.328	270.820	0.0001411	0.00015572	8.0576e-05	1201.3	1.8936e-06	2.354e-06	1263.5	244.49	1.8176e-06	2.2029e-06	305.38	82.627	64.978	18.871	4.3977e-06	26.962	0.00018567	0.00017806	5.0637e-05	1174.7	2.0511e-06	1.9679e-06	1236.5	241.45	1.9738e-06	1.9533e-06	300.3	82.261	64.347	18.884	2.0012e-06	26.844	120.304	82.782	39.996	-67.581	153.475	117.690	-67.338	-60.114	40.067	88.604	-60.349	-54.074	-54.028	-46.601	70.957	-46.693	-8191	255	
7612.774	1	1	0	0	0.2488	0.091147	0.11721	0.31023	0.20971	0.36558	0.19056	0.082782	0.1555	0.10622	0.19182	0.24465	0.16789	0.097128	0.078026	0.25429	-2.2917	-2.7188	-2.5104	-2.9875	-2.4896	-2.6667	-2.8167	-2.6146	-2.9771	-2.7771	-2.7708	-2.9604	-2.5521	-2.7083	-2.8708	-2.4833	30.996	-6.010	80.311	196.921	162.584	-17.657	219.355	-52.603	161.449	130.015	255.683	182.821	-50.839	196.615	8.905	137.814	0.00012918	0.00017791	0.00011542	1203	7.3644e-07	5.2819e-06	1259.3	244.78	1.3229e-06	2.6963e-06	304.85	82.886	64.464	18.907	1.8783e-06	26.739	0.00018524	0.00018217	4.9422e-05	1172.7	2.0008e-06	1.9887e-06	1234.4	241.53	1.9984e-06	1.9854e-06	299.76	82.299	64.222	18.896	1.9921e-06	26.78	133.040	-16.080	9.927	-67.276	82.560	62.050	-67.175	-60.123	27.783	22.341	-60.566	-54.087	-53.746	-46.473	60.333	-46.975	-8191	255	
7612.894	1	1	0	0	0.088815	0.11927	0.29269	0.15112	0.37397	0.055497	0.28221	0.24106	0.099074	0.14915	0.17607	0.091263	0.064787	0.047173	0.074174	0.10797	-2.3458	-2.7771	-2.4	-3.1167	-2.5062	-2.6396	-3.0708	-2.5646	-2.7583	-2.7062	-2.6896	-2.9542	-2.7938	-2.6729	-2.8292	-2.7042	-12.375	-4.149	-72.616	234.554	192.817	-43.492	273.992	230.044	243.638	-74.790	211.888	122.789	245.446	14.029	174.309	205.052	0.00012057	0.00053418	1.0397e-05	1203.6	3.1858e-06	4.0477e-06	1263.6	244.16	2.9121e-06	4.5495e-06	305.29	82.465	64.747	18.87	3.9e-06	26.683	0.00017951	0.00017674	4.9966e-05	1172.9	2.0114e-06	1.9324e-06	1235.6	240.85	2.057e-06	2.0393e-06	300.02	82.159	64.338	18.909	2.0651e-06	26.777	117.480	6.002	247.000	-67.279	54.310	56.768	-67.409	-60.088	100.583	53.436	-60.593	-53.937	-53.824	-46.435	29.413	-46.458	-8191	255	
7612.990	1	1	0	0	0.22601	0.17507	0.12698	0.13657	0.15497	0.24466	0.10021	0.094165	0.23172	0.27671	0.16638	0.065553	0.091073	0.13967	0.22051	0.05457	-2.1188	-2.8229	-2.4208	-2.9813	-2.5938	-2.4354	-2.9562	-2.6896	-2.7021	-2.7542	-2.7313	-2.8979	-2.8604	-2.6833	-2.85	-2.6792	-71.592	5.413	168.128	206.657	201.286	138.466	206.510	-21.149	104.335	-8.348	54.114	207.230	237.723	180.236	98.965	275.395	0.00012112	0.000213	7.2614e-05	1201.9	2.6137e-06	1.3761e-06	1265.5	245.13	2.3026e-06	1.3614e-06	304.93	82.283	64.664	18.861	3.4375e-06	26.747	0.0001851	0.00018241	5.1509e-05	1172.1	2.056e-06	2.0124e-06	1236	241.4	2.1337e-06	2.045e-06	299.6	82.284	64.306	18.896	2.1525e-06	26.846	133.665	-8.236	57.530	-67.219	51.474	81.452	-67.412	-60.312	50.587	72.087	-60.317	-54.180	-53.853	-46.356	37.650	-47.036	-8191	255	
7613.086	1	1	0	0	0.077865	0.16524	0.035528	0.31884	0.14943	0.057463	0.012225	0.21701	0.098358	0.14495	0.16698	0.082786	0.33108	0.14778	0.16219	0.29372	-2.2438	-2.9188	-2.4458	-3.1083	-2.5812	-2.3604	-3.1771	-2.7188	-2.6729	-2.8292	-2.6042	-2.8083	-2.7083	-2.4437	-3.0521	-2.7542	222.193	245.414	179.527	-77.106	275.582	161.452	280.563	247.975	-27.301	133.393	-14.742	-17.839	-59.898	248.724	23.800	18.996	0.00011483	0.00037386	0.00011398	1203.9	4.2714e-06	3.9019e-06	1262.6	244.65	5.2676e-07	4.0043e-06	304.22	82.751	64.746	18.842	8.6586e-07	26.773	0.00019485	0.00018994	5.4224e-05	1173.4	2.1874e-06	2.1422e-06	1235.6	241.45	2.2033e-06	2.145e-06	299.66	82.489	64.323	18.91	2.2279e-06	26.855	144.250	3.978	36.191	-67.192	34.398	77.905	-67.364	-59.991	-4.279	50.206	-60.505	-53.971	-53.830	-46.403	87.132	-46.904	-8191	255	
7613.183	1	1	0	0	0.20062	0.069822	0.094695	0.29537	0.20077	0.1169	0.43379	0.24552	0.083557	0.17235	0.3059	0.11202	0.1598	0.20554	0.26579	0.056812	-2.2479	-2.8187	-2.6229	-3.0021	-2.8187	-2.6646	-2.9146	-2.6896	-2.6042	-2.8	-2.6042	-2.8563	-2.8312	-2.625	-2.7604	-2.7646	103.010	118.553	-32.029	253.587	135.349	69.988	189.619	264.779	165.134	71.225	218.044	237.754	274.739	110.048	128.766	264.246	0.00010773	0.0004272	9.9454e-05	1203.5	3.7113e-06	3.4675e-06	1262.8	246.02	1.9518e-06	1.0006e-06	306.52	82.308	64.299	18.924	1.5641e-06	26.871	0.00020073	0.00019707	5.5132e-05	1175.9	2.246e-06	2.1325e-06	1236.8	241.78	2.2257e-06	2.1224e-06	301.11	82.21	64.348	18.976	2.1868e-06	26.895	103.371	18.031	15.512	-67.379	51.796	46.322	-67.443	-60.291	68.872	85.993	-60.547	-53.822	-53.670	-47.021	-31.162	-47.130	-8191	255	
7613.301	1	1	0	0	0.14649	0.03484	0.1257	0.42508	0.041104	0.23615	0.22322	0.17109	0.1551	0.0042027	0.10636	0.35618	0.054217	0.10981	0.084618	0.053665	-2.0938	-2.9938	-2.6063	-2.925	-2.8354	-2.7771	-3.0271	-2.9313	-2.7042	-2.8146	-2.775	-2.7833	-2.7208	-2.4417	-2.7812	-2.7396	274.809	109.450	131.149	251.590	279.656	41.851	266.421	255.135	-25.654	144.596	-67.188	281.630	258.031	-33.225	-77.095	120.899	0.00015111	0.00046861	7.2e-05	1206.9	1.3864e-06	1.5365e-06	1265.1	246.13	9.9337e-07	3.4502e-06	305.3	83.008	64.69	18.841	8.7737e-07	26.848	0.00019671	0.00019787	5.5118e-05	1177.1	2.2046e-06	2.1202e-06	1237.1	242.09	2.1875e-06	2.1077e-06	300.59	82.5	64.477	18.978	2.1239e-06	26.837	112.551	16.138	71.139	-67.365	97.069	71.923	-67.136	-60.237	135.956	12.955	-60.518	-54.257	-53.522	-46.533	40.550	-47.059	-8191	255	
7613.375	1	1	0	0	0.19449	0.067973	0.22086	0.17086	0.24117	0.079739	0.1321	0.12412	0.20544	0.15654	0.18588	0.25805	0.27649	0.12064	0.12401	0.2916	-2.0708	-2.7833	-2.4917	-2.9083	-2.8271	-2.6688	-2.9792	-2.6708	-2.5812	-2.8729	-2.8958	-2.6354	-3.1	-2.4479	-2.7542	-2.6833	-1.840	-65.077	121.270	243.772	-17.551	72.838	188.525	65.893	-23.040	119.780	179.295	83.934	218.690	24.378	190.531	-66.925	0.00018435	0.00021506	3.3982e-05	1209.6	3.2266e-06	4.4514e-06	1262.8	244.62	3.1718e-06	3.4162e-06	304.14	82.776	65.099	19.107	9.386e-07	26.914	0.00019755	0.00018973	5.2766e-05	1178.5	2.1011e-06	2.0635e-06	1238.3	241.68	2.0739e-06	2.0812e-06	300.44	82.442	64.378	18.972	2.0557e-06	26.926	132.709	4.264	82.340	-67.269	79.644	55.516	-67.296	-60.294	11.916	39.242	-60.558	-54.083	-53.608	-46.484	-38.151	-46.945	-8191	255	
7613.494	1	1	0	0	0.078465	0.096188	0.13213	0.1969	0.14992	0.27356	0.15651	0.062909	0.10726	0.095662	0.14915	0.18295	0.019252	0.22851	0.15083	0.051755	-2.1333	-2.8646	-2.4125	-2.7208	-2.8646	-2.6729	-2.8896	-2.7458	-2.4771	-2.8042	-2.6542	-2.5604	-2.8354	-2.6979	-2.6396	-2.8792	90.873	218.109	47.857	244.316	-12.802	71.932	171.213	50.949	-35.638	198.503	238.055	271.395	253.123	212.415	48.134	207.359	9.6689e-05	0.00045313	4.1937e-05	1210.6	1.3382e-06	6.6819e-07	1261.6	245.3	4.2831e-06	1.5488e-06	305.52	82.915	65.623	18.934	2.2006e-06	26.614	0.00019151	0.00018155	5.1088e-05	1178.2	2.0167e-06	1.9695e-06	1236.5	241.84	2.0775e-06	1.9511e-06	300.17	82.543	64.702	18.965	2.0318e-06	26.805	102.939	-21.563	42.807	-67.211	-40.093	40.733	-67.235	-60.236	45.754	90.718	-60.469	-54.019	-53.737	-46.534	49.915	-46.946	-8191	255	
7613.590	1	1	0	0	0.3409	0.12264	0.062695	0.30442	0.10716	0.13204	0.17208	0.10446	0.10957	0.1559	0.23947	0.32907	0.2041	0.22114	0.24653	0.10373	-2.0479	-2.6437	-2.65	-2.7438	-2.8812	-2.6167	-2.9104	-3.0042	-2.475	-2.9292	-2.6479	-2.5917	-2.8688	-2.7354	-2.4417	-3.0125	-3.406	273.589	20.488	204.506	-67.238	134.816	156.703	189.848	11.241	205.636	256.131	224.110	228.126	80.796	129.329	205.426	0.00011554	0.00059779	0.00011395	1202.7	2.3644e-06	3.0878e-06	1258.9	244.74	8.2347e-07	3.4266e-06	306.9	82.32	65.066	18.924	1.7256e-06	26.799	0.00018926	0.00017734	5.087e-05	1175.5	2.0116e-06	1.9823e-06	1237.4	241.63	2.0522e-06	1.9983e-06	300.66	82.465	64.686	18.989	1.9932e-06	26.904	131.096	9.737	44.383	-67.226	27.186	21.448	-67.155	-60.180	138.781	101.390	-60.414	-53.800	-53.591	-46.547	34.688	-46.771	-8191	255	
7613.686	1	1	0	0	0.15375	0.17316	0.067261	0.063774	0.18072	0.15872	0.20348	0.31411	0.22066	0.21112	0.23371	0.21584	0.1261	0.27866	0.10387	0.26835	-2.1562	-2.8063	-2.5792	-2.9042	-2.9375	-2.7729	-2.9167	-3.0729	-2.5187	-2.9313	-2.8854	-2.6375	-2.9979	-2.7604	-2.5875	-3.0042	-9.518	110.587	-76.903	-73.180	182.668	222.046	244.604	184.937	150.280	66.053	243.056	223.580	239.566	175.822	-58.552	71.031	0.00017148	0.00059476	4.6299e-05	1203.7	3.1283e-06	5.3572e-06	1263.6	245.7	8.3479e-07	7.462e-07	304.87	82.708	64.863	18.819	3.0937e-06	26.723	0.00018314	0.00017285	4.8134e-05	1174.9	1.9618e-06	1.8666e-06	1235.7	241.48	1.9888e-06	1.9594e-06	300.04	82.351	64.457	18.98	1.9659e-06	26.854	123.022	7.583	22.114	-67.266	42.131	63.397	-67.380	-60.333	163.174	-3.415	-60.471	-54.111	-54.001	-46.512	18.365	-47.003	-8191	255	
7613.782	1	1	0	0	0.15917	0.1044	0.24938	0.30672	0.1896	0.083258	0.29261	0.1975	0.18369	0.10891	0.37168	0.10639	0.07966	0.24474	0.14999	0.12194	-2.1542	-2.675	-2.7792	-2.6958	-2.8833	-2.8625	-2.7729	-2.8583	-2.3833	-2.6229	-2.8333	-2.3375	-2.7958	-2.6979	-2.775	-2.9667	-73.029	167.988	-39.093	219.662	-5.400	247.577	221.778	241.335	280.534	240.340	-4.557	14.085	157.542	262.959	169.230	136.059	0.00011286	0.00035667	8.0285e-05	1203.6	2.0032e-06	3.9972e-06	1263.8	245.61	1.8634e-06	2.1976e-06	307.05	82.926	64.948	18.897	2.1611e-06	26.871	0.00017818	0.00017934	4.8813e-05	1174.1	2.0051e-06	1.9296e-06	1237	241.94	2.0245e-06	1.9365e-06	300.69	82.485	64.442	18.994	1.9563e-06	26.949	129.233	-3.244	1.170	-67.389	110.715	78.925	-67.183	-60.053	41.165	83.107	-60.465	-54.174	-53.980	-46.673	64.485	-47.210	-8191	255	
7613.903	1	1	0	0	0.049547	0.25404	0.31238	0.28009	0.032112	0.36923	0.26504	0.16036	0.18218	0.078426	0.11115	0.1001	0.071485	0.14375	0.34201	0.1632	-2.0958	-2.7104	-2.7667	-2.7604	-2.8792	-2.9271	-2.8375	-2.9417	-2.6021	-2.8	-2.9625	-2.6104	-2.7396	-2.8792	-2.7833	-2.9854	219.284	117.246	86.508	219.168	279.189	-48.870	175.028	-6.215	164.180	70.629	223.840	-48.414	210.409	240.809	134.483	5.346	0.00013276	0.00025963	9.804e-05	1204.3	5.1099e-06	4.946e-06	1264.5	245.04	2.9157e-06	1.2275e-06	304.72	82.382	65	18.914	5.1725e-07	26.958	0.00017776	0.00017498	4.8474e-05	1174.9	1.9736e-06	1.9066e-06	1236.6	241.62	1.959e-06	1.9023e-06	299.54	82.336	64.417	18.988	1.9269e-06	26.875	124.927	-24.439	-6.948	-67.316	44.299	105.580	-67.256	-60.165	11.885	73.895	-60.501	-53.980	-54.009	-46.827	94.994	-46.964	-8191	255	
7613.975	1	1	0	0	0.195	0.37898	0.27	0.12119	0.19476	0.37927	0.37918	0.12291	0.11639	0.10858	0.23854	0.16343	0.26541	0.16735	0.026877	0.16164	-2.2292	-2.5729	-2.9146	-2.8438	-2.7604	-2.9229	-2.6917	-3.1521	-2.7854	-2.7771	-3.0104	-2.7375	-2.8083	-2.9771	-2.5292	-2.8958	-44.914	247.391	62.657	165.501	41.250	222.080	239.362	231.093	206.596	94.905	247.022	135.692	64.816	255.203	230.714	75.857	0.00011072	0.00021762	0.0001788	1206.2	4.433e-06	3.5621e-06	1263.8	244.08	2.7018e-06	1.6184e-06	304.97	82.369	64.547	18.899	1.5712e-06	26.704	0.00017738	0.00017074	4.7285e-05	1174.7	1.9474e-06	1.8561e-06	1234.7	240.9	1.9397e-06	1.8846e-06	299.24	82.245	64.327	18.973	1.9019e-06	26.838	114.784	27.710	18.173	-67.296	98.264	13.336	-67.318	-60.407	31.943	81.705	-60.326	-54.156	-53.873	-46.567	78.403	-46.948	-8191	255	
7614.071	1	1	0	0	0.17346	0.14087	0.25536	0.28392	0.36603	0.201	0.4148	0.19928	0.023609	0.27199	0.15183	0.083696	0.073981	0.076299	0.25578	0.16639	-2.3667	-2.5167	-2.8771	-2.6083	-2.6917	-2.9688	-2.7458	-3.0146	-2.7583	-2.4562	-2.9625	-2.4292	-2.7771	-2.8521	-2.3917	-2.8083	196.324	106.906	208.629	-70.919	123.149	-24.661	224.720	278.848	-68.754	75.401	140.868	95.303	259.988	-33.088	-37.969	-10.832	0.00011167	0.00020269	8.8904e-05	1197.3	2.3093e-06	3.2388e-06	1258.9	244.37	1.9173e-06	2.3176e-06	304.77	82.513	64.992	18.931	7.5599e-07	26.887	0.00017744	0.0001731	4.6899e-05	1168.2	1.9028e-06	1.8578e-06	1231.4	240.98	1.9178e-06	1.9166e-06	299.4	82.349	64.334	18.903	1.8958e-06	26.866	121.121	53.078	13.056	-67.159	11.088	95.900	-67.240	-60.089	86.543	61.358	-60.609	-54.162	-53.558	-46.595	126.193	-46.984	-8191	255	
7614.191	1	1	0	0	0.099756	0.20074	0.066252	0.25362	0.31342	0.10953	0.094819	0.18958	0.12596	0.15709	0.16157	0.042453	0.04473	0.092681	0.085693	0.038048	-2.2125	-2.3958	-3.0125	-2.7062	-2.6813	-2.9688	-2.7896	-3.0042	-2.8438	-2.6188	-2.9688	-2.6646	-2.6396	-2.8083	-2.4208	-2.7875	-2.318	55.494	189.368	220.087	207.380	47.052	277.484	225.716	152.342	206.239	234.697	67.253	218.383	125.886	-13.006	28.761	0.00015817	0.00016466	3.1726e-05	1200.6	1.9703e-06	1.5204e-06	1258.4	243.25	1.8548e-06	2.2614e-06	302.68	82.231	64.456	18.805	7.1259e-07	26.719	0.00017327	0.00016842	4.6308e-05	1168.7	1.8457e-06	1.8109e-06	1229.5	240.08	1.9054e-06	1.8645e-06	298.57	82.031	63.998	18.889	1.8784e-06	26.772	126.306	-2.824	26.604	-67.334	89.076	58.537	-67.323	-60.200	38.372	89.307	-60.521	-53.773	-53.788	-46.492	163.533	-46.787	-8191	255	
7614.286	1	1	0	0	0.26531	0.12606	0.25095	0.21557	0.16536	0.1143	0.072198	0.14617	0.091775	0.071768	0.12839	0.26108	0.2745	0.15083	0.12989	0.11947	-2.3812	-2.5438	-2.7375	-2.7917	-2.5438	-2.7896	-2.7375	-2.7938	-2.5812	-2.525	-2.7708	-2.7417	-2.6125	-2.9313	-2.725	-2.7396	179.091	179.706	-3.773	210.623	43.561	214.691	102.687	211.913	221.371	-32.489	-4.796	234.841	79.661	275.814	243.510	52.284	0.00013043	0.00022474	7.1264e-05	1199	5.5506e-07	5.4593e-06	1253.1	245.25	1.9303e-06	2.0787e-06	304.05	82.416	65.263	18.884	1.5712e-06	26.7	0.00017318	0.00017206	4.7237e-05	1166.7	1.9216e-06	1.8502e-06	1228.3	240.62	1.9158e-06	1.8947e-06	298.68	82.116	64.184	18.876	1.8668e-06	26.747	108.024	-7.047	16.548	-67.100	147.684	95.477	-67.331	-60.190	55.195	98.149	-60.464	-53.836	-53.455	-46.541	67.525	-46.920	-8191	255	
7614.382	1	1	0	0	0.11395	0.31819	0.20925	0.15438	0.058091	0.20275	0.033991	0.16435	0.078242	0.099403	0.19189	0.20277	0.13002	0.26775	0.30819	0.068845	-2.4062	-2.3583	-2.6729	-2.8312	-2.5208	-3.0542	-2.8333	-2.7917	-2.7521	-2.6208	-2.9625	-2.7875	-2.4958	-2.7979	-2.6417	-2.7354	68.341	-50.790	200.239	228.191	-59.121	-41.802	171.441	-13.038	54.143	136.036	-57.706	133.438	165.457	270.667	85.325	128.068	0.0001373	0.00026044	0.00012215	1194.5	1.3187e-06	3.9214e-06	1253.5	244.55	1.837e-06	1.7243e-06	304	82.262	64.468	18.881	1.9555e-06	26.827	0.00017038	0.00016651	4.6195e-05	1164.5	1.891e-06	1.8407e-06	1228.4	240.13	1.8996e-06	1.8545e-06	299.26	81.924	63.992	18.927	1.9359e-06	26.814	113.924	18.601	28.534	-67.235	134.290	70.829	-67.222	-60.166	19.048	62.772	-60.464	-53.774	-53.581	-46.634	34.888	-47.144	-8191	255	
7614.478	1	1	0	0	0.17146	0.23419	0.20216	0.13049	0.074723	0.064453	0.11018	0.17795	0.14328	0.26776	0.10757	0.16149	0.32507	0.048107	0.19005	0.043571	-2.4208	-2.4313	-2.7333	-2.8271	-2.4833	-2.775	-2.7188	-2.7667	-2.7562	-2.4917	-2.875	-2.7292	-2.5208	-2.7646	-2.7583	-2.525	184.553	74.826	104.777	-51.794	54.904	-65.839	153.121	212.124	-11.262	141.722	175.103	212.098	279.918	-77.953	44.325	31.080	0.00015841	0.00028384	0.00011843	1197.7	7.4265e-07	2.3261e-06	1252	244.22	7.4703e-07	3.369e-06	304.43	82.097	64.857	18.809	7.5191e-07	26.627	0.00017167	0.00017237	4.784e-05	1166.4	1.8942e-06	1.8591e-06	1228.9	240.89	1.9376e-06	1.8925e-06	299.22	82.095	64.273	18.9	1.8863e-06	26.807	111.352	-32.995	34.397	-67.162	153.649	55.912	-67.317	-60.033	177.205	65.361	-60.275	-54.228	-53.645	-46.517	80.720	-47.358	-8191	255	
7614.574	1	1	0	0	0.28524	0.18454	0.073862	0.26199	0.12814	0.080442	0.19799	0.18722	0.24443	0.12017	0.2382	0.11448	0.031552	0.080662	0.17781	0.2289	-2.1708	-2.5604	-2.7396	-3.0438	-2.5625	-2.7292	-2.6875	-2.6188	-2.7313	-2.5979	-2.8396	-2.875	-2.4771	-2.6312	-2.7333	-2.55	161.934	165.659	242.119	262.269	265.215	-61.660	-62.880	137.266	171.914	-11.706	161.564	-76.536	96.821	46.180	256.244	-63.674	0.00013121	0.00018677	0.00010924	1201.7	2.3817e-06	2.0356e-06	1258.5	244.14	2.0247e-06	3.3177e-06	304.28	82.804	64.726	18.836	3.9297e-06	26.7	0.00017552	0.00016843	4.7754e-05	1168.3	1.9414e-06	1.8089e-06	1229.7	240.37	1.8641e-06	1.831e-06	298.85	82.051	64.188	18.901	1.907e-06	26.832	105.099	-47.884	-0.481	-67.274	78.974	67.430	-67.251	-60.288	85.338	74.687	-60.298	-54.020	-53.621	-46.257	27.668	-47.369	-8191	255	
7614.670	1	1	0	0	0.227	0.15655	0.21081	0.35066	0.09913	0.14653	0.2124	0.28538	0.055682	0.20956	0.29552	0.089416	0.024873	0.13532	0.24807	0.20316	-2	-2.4604	-2.5938	-3.0417	-2.5646	-2.8125	-2.7958	-2.5	-2.7812	-2.7625	-2.7979	-2.8542	-2.6312	-2.8854	-2.8271	-2.6	21.055	-55.815	-30.688	280.170	96.954	149.603	193.284	175.821	73.431	83.605	134.776	-28.402	125.360	145.678	211.426	275.083	0.0001427	0.00014064	0.00011571	1199.9	2.0283e-06	4.422e-06	1259.2	244.09	1.5384e-06	1.3882e-06	303.8	83.084	64.703	18.932	3.2064e-06	26.777	0.00017359	0.00016565	4.7823e-05	1168.9	1.8743e-06	1.7822e-06	1231.4	240.43	1.8767e-06	1.8024e-06	299.07	82.187	64.138	18.937	1.872e-06	26.805	112.206	-5.451	27.867	-67.191	33.691	59.216	-67.281	-60.264	16.150	105.066	-60.441	-53.954	-53.709	-46.584	54.754	-47.077	-8191	255	
7614.766	1	1	0	0	0.11187	0.13057	0.33312	0.18566	0.11621	0.30946	0.27206	0.21096	0.09489	0.10288	0.027221	0.031212	0.40674	0.042841	0.09382	0.27258	-2.4062	-2.7188	-2.4167	-3.0312	-2.5312	-2.5729	-2.9167	-2.7646	-2.7417	-2.7375	-2.8812	-3.125	-2.6708	-2.6063	-2.7708	-2.6312	-65.557	-56.870	241.832	74.230	-11.400	251.942	179.288	215.739	-71.525	151.063	-46.140	175.244	5.528	-5.101	60.694	134.982	0.00010057	0.0002965	0.00010151	1196.9	3.8041e-06	4.5193e-06	1259.9	243.82	1.9057e-06	1.916e-06	303.04	82.578	65.095	18.769	2.3932e-06	26.833	0.00017387	0.00016697	4.6006e-05	1169.2	1.9526e-06	1.8103e-06	1232.8	240.85	1.9061e-06	1.8769e-06	298.7	82.163	64.213	18.886	1.8705e-06	26.829	95.013	16.169	49.830	-67.238	70.976	31.920	-67.335	-60.100	264.937	86.258	-60.260	-53.984	-53.816	-46.530	45.094	-47.157	-8191	255	
7614.863	1	1	0	0	0.20406	0.17419	0.19194	0.11308	0.31905	0.099678	0.23286	0.13082	0.18502	0.20168	0.084553	0.19237	0.021835	0.19994	0.112	0.019063	-2.2521	-2.6937	-2.5062	-2.8688	-2.5312	-2.5167	-2.9292	-2.55	-2.6813	-2.7521	-2.5729	-2.9938	-2.5958	-2.4917	-2.8146	-2.8063	106.032	205.949	157.623	-34.407	-11.129	5.108	262.316	223.212	-8.562	-22.142	30.322	112.886	247.550	272.133	74.539	131.667	0.00012843	0.00041952	8.5746e-05	1197.5	4.3069e-06	3.5312e-06	1255.8	243.93	1.506e-06	2.2393e-06	303.45	82.027	64.721	18.874	4.0007e-06	26.801	0.00017409	0.00016639	4.8074e-05	1168.8	1.9458e-06	1.8979e-06	1230.8	240.8	1.9055e-06	1.9172e-06	298.77	82.062	64.311	18.93	1.9161e-06	26.874	121.271	-15.110	-3.818	-67.305	67.253	51.504	-67.115	-60.205	154.965	71.615	-60.487	-54.120	-53.535	-46.472	37.655	-47.170	-8191	255	
7614.981	1	1	0	0	0.14404	0.016661	0.18353	0.13965	0.057482	0.17778	0.26527	0.069786	0.17431	0.16757	0.27571	0.18214	0.11428	0.15523	0.037393	0.032131	-2.1708	-2.4354	-2.4375	-2.8146	-2.525	-2.4583	-3.0208	-2.5292	-2.575	-2.6875	-2.5938	-2.9	-2.5625	-2.5479	-2.7125	-2.7646	58.840	-2.374	165.564	-51.678	222.898	137.576	178.804	129.226	-16.913	96.561	218.738	240.121	278.840	72.070	221.077	74.832	9.288e-05	0.00024641	9.5392e-05	1198.1	2.7204e-06	2.7205e-06	1257.4	243.94	3.3181e-06	3.1537e-06	304.83	82.472	64.278	18.829	8.5633e-07	26.873	0.00018099	0.0001718	4.7234e-05	1169	1.9517e-06	1.9232e-06	1230.7	240.35	1.9981e-06	1.935e-06	299.39	82.151	64.106	18.905	1.9485e-06	26.868	94.785	-16.522	3.964	-67.121	-37.712	34.969	-67.095	-60.365	156.705	78.342	-60.400	-54.160	-53.894	-46.655	137.441	-47.113	-8191	255	
7615.078	1	1	0	0	0.098131	0.13924	0.078977	0.37093	0.12574	0.11077	0.16582	0.28516	0.18683	0.21338	0.16701	0.15075	0.19247	0.21178	0.1544	0.24928	-2.2771	-2.4521	-2.5146	-3.0958	-2.6854	-2.5062	-3.0771	-2.8208	-2.5854	-2.8896	-2.6667	-2.9667	-2.7313	-2.7146	-2.7583	-2.4437	-35.957	200.467	259.884	222.448	151.262	-68.544	252.750	229.696	53.809	255.185	279.719	-71.714	243.632	252.396	-23.541	250.483	0.00012936	0.00019161	2.0405e-05	1201.3	1.1063e-06	4.3939e-06	1258.4	244.66	2.6175e-06	1.7703e-06	304.79	82.311	65.453	19.008	1.0653e-06	26.851	0.00017792	0.00016934	4.7534e-05	1171.5	1.9623e-06	1.8787e-06	1232.5	240.78	1.9871e-06	1.8971e-06	299.32	82.245	64.421	18.981	1.9502e-06	26.876	116.513	20.969	17.798	-67.183	103.896	36.155	-67.055	-60.401	48.168	60.520	-60.044	-53.908	-53.572	-46.761	57.253	-46.817	-8191	255	
7615.174	1	1	0	0	0.17692	0.16783	0.13331	0.10317	0.067523	0.44591	0.20068	0.10309	0.24314	0.14506	0.21122	0.12058	0.14883	0.26371	0.11215	0.23488	-2.2562	-2.8667	-2.3083	-2.7812	-2.7042	-2.5	-2.9604	-2.725	-2.5375	-2.9375	-2.7375	-2.7104	-2.7375	-2.5062	-2.7208	-2.6042	115.171	-15.808	-63.994	-8.934	102.746	249.704	181.065	201.760	183.570	123.324	151.783	-19.701	214.999	254.092	-29.182	50.040	0.00012878	0.0004753	1.5586e-05	1200.3	2.5435e-06	2.1313e-06	1259.4	243.8	2.4073e-06	2.3556e-06	303.77	82.221	65.144	18.789	2.564e-06	27.023	0.00017822	0.00017149	4.96e-05	1170.9	1.9619e-06	1.8929e-06	1232.2	240.96	1.9539e-06	1.9522e-06	298.86	81.971	64.41	18.892	1.9897e-06	26.903	121.588	-4.930	68.081	-67.244	77.553	14.507	-67.332	-60.083	5.891	39.732	-60.595	-53.988	-53.867	-46.494	-16.344	-46.638	-8191	255	
7615.270	1	1	0	0	0.089427	0.28578	0.068601	0.16036	0.18326	0.22428	0.25512	0.20757	0.066552	0.2217	0.086608	0.29425	0.21627	0.19611	0.36675	0.23259	-2.3604	-2.775	-2.5938	-3.0812	-2.8583	-2.4417	-3	-2.8542	-2.5354	-3.0104	-2.7938	-2.8083	-2.9042	-2.7854	-2.5979	-2.7896	7.390	96.016	143.231	168.183	234.413	-38.559	208.240	166.354	-38.590	168.981	142.679	216.603	-41.076	-52.828	18.676	8.323	0.00016216	0.00032689	0.0001054	1201.4	9.0146e-07	1.7709e-06	1256.4	243.41	2.1282e-06	4.3531e-06	303.88	82.539	64.783	19.069	3.6515e-06	26.639	0.00017957	0.00017388	4.8631e-05	1170.2	1.9346e-06	1.8787e-06	1229	240.49	1.9498e-06	1.9156e-06	298.89	82.067	64.163	18.995	1.9371e-06	26.794	97.811	26.947	-14.648	-67.188	56.915	-15.837	-67.354	-60.172	48.120	54.686	-60.403	-54.166	-54.278	-47.004	50.602	-46.958	-8191	255	
7615.366	1	1	0	0	0.16215	0.14027	0.13848	0.20946	0.10002	0.059502	0.25398	0.059476	0.047326	0.39414	0.30789	0.1086	0.31834	0.21068	0.11572	0.17093	-2.1583	-3.0396	-2.8417	-2.8208	-2.8563	-2.5625	-2.9979	-2.8458	-2.5542	-2.8438	-2.7	-2.5396	-2.9083	-2.7667	-2.8104	-2.7812	72.582	-50.396	-33.248	-60.570	27.587	204.934	240.228	244.783	13.073	86.450	247.707	49.141	207.202	-71.950	50.623	134.637	9.4615e-05	0.00030484	3.0876e-05	1201.5	1.791e-06	2.6029e-06	1253.8	243.68	1.6687e-06	3.4123e-06	304.28	82.379	64.727	18.914	1.9153e-06	26.795	0.00017808	0.00017065	4.6703e-05	1169.6	1.8658e-06	1.8658e-06	1227.6	240.31	1.876e-06	1.7895e-06	298.4	81.929	64.099	18.913	1.8582e-06	26.762	90.485	43.741	-3.561	-67.229	58.008	103.285	-67.112	-59.916	6.459	49.528	-60.230	-53.949	-53.883	-46.711	89.986	-46.908	-8191	255	
7615.487	1	1	0	0	0.073604	0.308	0.057236	0.14938	0.12255	0.24765	0.29251	0.018993	0.15349	0.23864	0.25886	0.024782	0.14439	0.27477	0.43331	0.30307	-2.1937	-2.8104	-2.7562	-2.7854	-2.8708	-2.5771	-2.9229	-2.7125	-2.5125	-2.8187	-2.6937	-2.8792	-2.9583	-2.6542	-2.8042	-2.8917	-32.702	13.309	130.697	-72.628	266.284	-77.501	220.656	57.280	-9.542	-52.489	171.811	251.051	248.383	212.512	31.120	273.226	0.00010106	0.00029471	0.00011095	1200.1	2.0538e-06	3.4083e-06	1254.3	244.48	4.1968e-07	2.8287e-06	303.17	82.608	64.571	18.983	3.0645e-06	26.808	0.00017315	0.0001637	4.6493e-05	1167.3	1.8555e-06	1.8284e-06	1228.9	240.4	1.9175e-06	1.8175e-06	298.28	82.057	64.272	18.941	1.8638e-06	26.825	117.125	-17.223	-13.820	-67.481	75.456	54.990	-67.215	-60.470	104.932	77.889	-60.480	-53.983	-53.611	-46.756	37.914	-46.973	-8191	255	
7615.583	1	1	0	0	0.0602	0.17861	0.24225	0.085487	0.034601	0.055542	0.31139	0.22875	0.056814	0.15901	0.1021	0.2021	0.12377	0.036816	0.18253	0.11061	-2.2438	-2.8667	-2.6	-2.6437	-2.7354	-2.5938	-2.6688	-2.9083	-2.3979	-2.8937	-2.8229	-2.5417	-2.9396	-2.7438	-2.7188	-2.8438	201.661	-4.045	43.279	213.778	141.460	241.247	240.927	-65.048	280.516	-53.790	263.755	122.413	147.666	52.058	49.832	42.986	0.00012996	0.00030849	5.1748e-05	1197.1	3.7126e-06	2.3344e-06	1256.3	244.62	1.6476e-06	3.4165e-06	302.33	82.468	64.962	18.85	4.5274e-06	26.858	0.00017321	0.0001649	4.6763e-05	1167.4	1.8584e-06	1.8526e-06	1228.7	240.64	1.9106e-06	1.8269e-06	298.53	82.078	64.179	18.911	1.8699e-06	26.846	106.706	12.376	-11.128	-67.112	51.325	151.643	-67.248	-60.268	27.539	62.937	-60.299	-53.956	-53.939	-46.865	57.834	-46.823	-8191	255	
7615.677	1	1	0	0	0.057513	0.046435	0.24609	0.4267	0.23888	0.096269	0.29139	0.017552	0.11961	0.18411	0.2308	0.18362	0.15037	0.079173	0.037768	0.16191	-2.0875	-2.6375	-2.5708	-2.5896	-2.7667	-2.6292	-2.7479	-2.8521	-2.6	-2.7417	-2.7458	-2.5958	-2.9354	-2.5854	-2.6292	-2.7479	-17.192	-36.591	202.605	230.457	60.602	9.311	216.215	277.918	190.919	-29.710	152.799	276.342	281.422	55.395	15.057	-38.392	0.00011446	0.00051105	0.000126	1195.7	3.5395e-06	2.3551e-06	1257.9	243.24	2.1091e-06	4.2172e-06	303.64	82.49	64.443	18.912	1.2952e-06	26.809	0.00017599	0.00016722	4.5999e-05	1165.6	1.849e-06	1.7848e-06	1228.3	239.94	1.8717e-06	1.7762e-06	297.96	81.955	64.084	18.899	1.8019e-06	26.816	124.403	-3.090	18.829	-67.315	87.464	77.071	-67.113	-60.364	46.371	69.062	-60.412	-54.115	-53.697	-46.556	13.279	-47.024	-8191	255	
7615.773	1	1	0	0	0.17941	0.0926	0.19705	0.38345	0.12606	0.050972	0.12455	0.25622	0.077376	0.26232	0.32782	0.2169	0.26866	0.20292	0.066772	0.17307	-2.2021	-2.5563	-2.8042	-2.6292	-2.625	-2.6354	-2.7417	-2.9646	-2.4708	-2.7021	-2.925	-2.5708	-2.8187	-2.75	-2.5667	-2.8042	-74.034	-60.161	-17.751	245.426	218.234	111.636	193.955	173.466	98.971	29.163	240.405	214.772	-41.683	259.180	-76.986	-65.464	0.00015647	0.00032327	2.5268e-05	1192.6	5.6492e-07	4.2426e-06	1257.1	242.81	4.0732e-06	5.435e-06	303.54	82.269	64.998	18.712	4.5418e-06	26.659	0.00016586	0.00016192	4.4885e-05	1165	1.8036e-06	1.7531e-06	1227.3	239.98	1.8198e-06	1.7989e-06	298.03	81.951	64.107	18.861	1.8328e-06	26.788	138.709	-44.150	-1.762	-67.270	-67.978	70.872	-67.368	-60.252	12.012	72.139	-60.371	-53.970	-53.830	-46.602	34.655	-46.872	-8191	255	
7615.870	1	1	0	0	0.24456	0.14716	0.19788	0.12024	0.061442	0.31638	0.18496	0.22725	0.18955	0.076458	0.27641	0.15503	0.087946	0.23583	0.0094393	0.041697	-2.1271	-2.5958	-2.8104	-2.5271	-2.7542	-2.6625	-2.8937	-2.9813	-2.7208	-2.6083	-3.1104	-2.6937	-2.6542	-2.6146	-2.4437	-2.8771	273.855	165.033	4.815	240.947	-20.058	77.697	85.828	-70.316	22.381	48.307	-75.725	56.306	-62.929	244.947	256.838	202.552	0.0001199	0.00038358	5.7254e-05	1193.9	1.7271e-06	3.4482e-06	1246.5	242.86	2.8682e-06	2.6087e-06	303.01	82.371	64.908	18.933	3.9851e-06	26.642	0.00017042	0.00016036	4.5526e-05	1164.3	1.8085e-06	1.783e-06	1224.3	239.78	1.8471e-06	1.7477e-06	298.28	82.106	64.13	18.886	1.8292e-06	26.713	113.334	25.908	-27.834	-67.045	46.968	-1.979	-67.379	-60.191	80.441	80.190	-60.699	-54.277	-53.788	-46.730	48.208	-46.776	-8191	255	
7615.966	1	1	0	0	0.22758	0.24152	0.061767	0.12746	0.08728	0.090908	0.18705	0.14688	0.086736	0.23685	0.15177	0.13041	0.16178	0.29346	0.30648	0.060836	-2.1063	-2.5979	-2.7687	-2.6854	-2.9313	-2.7458	-2.7146	-2.8729	-2.7083	-2.5021	-3.0417	-2.4125	-2.8292	-2.8583	-2.5021	-2.9271	91.562	-59.465	86.874	222.630	248.048	201.493	-64.999	2.346	214.436	97.796	111.733	243.927	154.473	20.874	159.701	177.567	0.00014639	0.00038193	5.0752e-05	1193.2	2.834e-06	1.5544e-06	1254.2	242.21	1.5522e-06	3.3025e-06	302.35	82.144	64.554	18.906	2.7274e-06	26.876	0.00016599	0.00015831	4.4151e-05	1163.6	1.8564e-06	1.7331e-06	1226.2	239.49	1.7984e-06	1.7495e-06	297.5	81.767	64.016	18.894	1.7721e-06	26.823	114.807	-3.807	10.506	-67.240	3.894	43.995	-67.154	-60.181	41.689	59.640	-60.380	-54.375	-53.754	-46.780	64.457	-46.725	-8191	255	
7616.062	1	1	0	0	0.28506	0.26585	0.2197	0.071494	0.18608	0.24254	0.20602	0.1628	0.27369	0.18841	0.22911	0.27509	0.093744	0.11056	0.17959	0.053722	-2.1875	-2.4875	-2.6917	-2.6521	-2.6312	-2.8646	-2.5646	-2.8771	-2.7583	-2.55	-2.8667	-2.5021	-2.65	-2.7771	-2.4542	-2.7375	-56.263	214.524	-22.327	34.042	44.521	-17.701	186.799	173.888	164.149	10.995	-2.578	211.129	213.952	-7.636	216.407	134.544	0.00013764	0.00052554	6.6341e-05	1192.5	1.3158e-06	1.1055e-06	1250.3	242.24	1.5048e-06	8.1324e-07	303.22	82.449	64.659	18.75	1.6756e-07	26.775	0.00016746	0.0001585	4.4467e-05	1162	1.7945e-06	1.6583e-06	1223.6	239.33	1.8018e-06	1.7345e-06	298.05	81.874	63.984	18.863	1.7536e-06	26.73	126.426	12.779	25.711	-67.175	51.130	83.201	-67.445	-59.971	40.348	87.534	-60.422	-54.147	-53.975	-46.666	33.517	-46.957	-8191	255	
7616.158	1	1	0	0	0.17392	0.094618	0.15555	0.029313	0.37329	0.13202	0.21949	0.2195	0.094293	0.12149	0.14428	0.094067	0.083821	0.13562	0.19635	0.31408	-2.3333	-2.3854	-2.6937	-2.6896	-2.5021	-2.8375	-2.5146	-3.0187	-2.6854	-2.3708	-3.0042	-2.6688	-2.6562	-2.7479	-2.5417	-2.7104	196.185	-31.673	167.508	121.536	196.915	-20.446	158.801	218.847	221.560	154.224	80.913	185.354	281.201	254.019	127.962	186.116	0.00011274	0.00032521	0.00011522	1194.9	1.1704e-06	2.6731e-06	1252.3	243.14	7.1438e-07	2.1248e-06	303.28	82.19	64.212	18.875	2.2097e-06	26.896	0.00016256	0.00015545	4.3296e-05	1162.6	1.7558e-06	1.6487e-06	1223.5	239.56	1.7539e-06	1.7025e-06	297.37	81.832	63.849	18.84	1.7064e-06	26.77	113.793	-12.092	46.773	-67.175	110.134	66.274	-67.499	-60.495	48.433	82.999	-60.297	-53.830	-53.413	-46.795	108.171	-46.886	-8191	255	
7616.254	1	1	0	0	0.11862	0.014363	0.085089	0.069123	0.030765	0.21042	0.30717	0.24621	0.073135	0.27966	0.27892	0.13348	0.20593	0.27401	0.13173	0.11797	-2.2521	-2.5208	-2.7375	-2.8396	-2.6375	-2.8625	-2.7771	-2.6792	-2.7167	-2.6813	-3.0042	-2.6729	-2.7354	-2.9417	-2.4833	-2.7438	270.219	114.521	122.503	229.242	-1.481	3.936	248.033	177.879	180.543	-19.332	221.311	93.888	-52.535	-64.228	63.567	269.542	0.0001581	0.00029188	0.00013951	1189.7	2.8667e-06	2.6651e-06	1244.8	243.12	5.8042e-07	2.6333e-06	301.5	82.406	64.425	18.779	1.9209e-06	26.639	0.00015946	0.00015142	4.1848e-05	1160.4	1.7247e-06	1.6581e-06	1222.1	239.15	1.6932e-06	1.6899e-06	297.11	81.854	63.791	18.814	1.7323e-06	26.712	129.352	32.796	21.513	-67.109	162.418	32.310	-67.308	-60.197	18.781	60.478	-60.438	-54.161	-53.727	-46.814	17.799	-46.714	-8191	255	
7616.375	1	1	0	0	0.13165	0.12426	0.21248	0.14009	0.10782	0.17932	0.23596	0.3556	0.050297	0.24083	0.092741	0.27813	0.13798	0.33172	0.13868	0.079125	-2.3917	-2.4271	-2.5708	-2.7438	-2.5146	-2.7854	-2.6437	-2.8563	-2.7479	-2.5521	-2.8125	-2.7729	-2.6625	-2.7	-2.6667	-2.8042	-69.056	116.534	-23.024	209.132	68.311	74.590	177.576	191.107	18.529	224.246	131.688	253.744	-66.323	-44.869	195.000	181.605	7.3768e-05	0.00037524	4.3348e-05	1187.9	2.8058e-06	5.1237e-07	1248.7	243.52	3.7426e-06	3.8404e-06	301.65	81.79	64.225	18.832	3.3081e-06	26.725	0.00015853	0.00015369	4.2104e-05	1158.4	1.7273e-06	1.6313e-06	1221.7	239.76	1.7444e-06	1.682e-06	296.71	81.718	63.838	18.888	1.7258e-06	26.763	102.319	-25.919	-15.418	-67.408	64.332	31.261	-67.306	-60.398	30.975	94.650	-60.216	-53.853	-53.858	-46.696	20.204	-47.024	-8191	255	
7616.471	1	1	0	0	0.031744	0.11542	0.20826	0.34748	0.097456	0.12271	0.03504	0.1315	0.14491	0.26767	0.2361	0.3591	0.072207	0.33288	0.16853	0.14332	-2.4833	-2.5563	-2.8417	-2.9417	-2.6125	-2.7896	-2.6312	-2.5	-2.7292	-2.5875	-2.8937	-2.7833	-2.4562	-2.85	-2.5917	-2.5958	-22.188	-20.391	54.517	208.234	-9.134	64.939	89.403	207.556	207.309	-3.573	128.832	205.606	274.482	257.143	263.285	-48.499	0.00013309	0.0005934	8.7201e-05	1187.4	2.0542e-06	2.1829e-06	1247.8	242.95	2.2281e-06	3.2902e-06	302.81	81.989	64.713	19.042	3.5831e-06	26.595	0.00015733	0.00015029	4.2366e-05	1159.1	1.7237e-06	1.632e-06	1221.1	239.17	1.7229e-06	1.7123e-06	297.82	81.902	63.884	18.909	1.6468e-06	26.8	124.352	20.131	38.187	-67.217	106.723	52.574	-67.254	-60.012	111.508	86.050	-60.363	-53.901	-53.506	-46.469	14.082	-47.224	-8191	255	
7616.567	1	1	0	0	0.23677	0.18228	0.092277	0.25338	0.076907	0.095335	0.21679	0.30228	0.27979	0.14026	0.16236	0.25284	0.10235	0.28905	0.037808	0.27864	-2.4313	-2.3396	-2.6604	-2.975	-2.4833	-2.6792	-2.8333	-2.7083	-2.6042	-2.5708	-2.7062	-2.7771	-2.5667	-2.7458	-2.7792	-2.6417	143.042	74.911	-64.182	241.350	-2.557	96.625	229.649	212.566	272.224	50.195	225.385	-26.135	82.126	225.975	77.535	184.297	0.00010475	0.00034165	8.6926e-05	1189.4	2.9032e-06	1.7954e-06	1246.1	242.15	3.4346e-07	1.9451e-06	302.1	82.283	64.808	18.914	4.6869e-06	26.697	0.00015642	0.00014664	4.0722e-05	1159.1	1.6658e-06	1.5968e-06	1220.8	238.71	1.6556e-06	1.621e-06	297.3	81.786	64.021	18.899	1.6052e-06	26.684	132.179	10.906	44.404	-67.470	57.375	116.279	-67.371	-60.291	-36.190	17.799	-60.301	-53.989	-53.400	-46.602	70.874	-46.933	-8191	255	
7616.663	1	1	0	0	0.082036	0.066537	0.29806	0.10051	0.040783	0.23409	0.18016	0.13183	0.13051	0.28979	0.24694	0.1382	0.15484	0.071753	0.32551	0.16534	-2.2667	-2.5875	-2.6042	-2.9437	-2.4646	-2.9562	-3.0854	-2.6229	-2.85	-2.7042	-2.8417	-2.7854	-2.5458	-2.6229	-2.8854	-2.5292	-43.694	203.948	-68.320	-28.639	155.902	142.856	245.652	187.849	99.061	-39.299	279.138	-49.945	11.834	223.643	131.392	4.582	0.00014741	0.00020102	0.00010463	1188	4.4493e-07	3.471e-06	1245.1	242.96	2.0243e-06	2.4507e-06	301.8	82.39	64.693	18.995	8.6839e-07	26.606	0.00015372	0.00014433	4.0674e-05	1158.8	1.6314e-06	1.5819e-06	1220.4	238.82	1.6652e-06	1.6154e-06	296.97	81.793	63.832	18.93	1.6189e-06	26.785	101.072	3.212	22.433	-67.200	122.893	92.023	-67.057	-60.076	69.001	88.811	-60.448	-54.155	-53.388	-46.915	64.575	-46.626	-8191	255	
7616.758	1	1	0	0	0.10451	0.056609	0.27747	0.062134	0.15595	0.14678	0.09904	0.076109	0.073589	0.056408	0.29159	0.13039	0.12593	0.11762	0.14813	0.23844	-2.2208	-2.5438	-2.5167	-2.8667	-2.5042	-2.7708	-2.8729	-2.5083	-2.8833	-2.4958	-2.6167	-2.8854	-2.6146	-2.5896	-2.7896	-2.4771	105.747	224.765	198.730	203.382	-75.333	-66.081	-8.448	246.336	111.399	-64.227	247.417	271.810	173.389	-7.245	-57.666	255.457	0.00013048	0.00039105	9.7559e-05	1187.9	2.6737e-06	1.2763e-06	1246.4	242.57	3.6864e-07	4.8504e-06	303.19	82.314	64.329	18.885	2.7006e-06	26.904	0.0001536	0.00014445	4.0114e-05	1156.1	1.5984e-06	1.586e-06	1220.9	238.78	1.6616e-06	1.5705e-06	297.45	81.899	63.807	18.908	1.6342e-06	26.792	104.433	-2.981	46.084	-67.222	59.673	53.992	-67.117	-60.325	62.927	61.460	-60.415	-53.977	-53.612	-46.667	57.930	-47.348	-8191	255	
7616.856	1	1	0	0	0.0053903	0.17375	0.13337	0.15471	0.12853	0.15108	0.20408	0.17663	0.10238	0.17859	0.19772	0.20218	0.31147	0.22538	0.16566	0.28779	-2.3083	-2.6667	-2.4125	-2.8854	-2.6333	-2.7417	-2.8771	-2.6479	-3.2021	-2.8604	-2.6208	-2.8625	-2.7354	-2.7167	-2.8438	-2.5604	230.682	33.858	246.144	258.407	152.594	41.634	239.014	153.182	9.385	139.118	-12.727	-68.047	248.359	195.219	217.238	219.023	0.0001053	0.00022618	0.00016174	1188.7	1.1883e-06	4.0864e-06	1248.1	243.2	1.6081e-06	1.3725e-06	303.78	82.367	64.186	18.863	3.4925e-06	26.845	0.0001533	0.00014386	4.0205e-05	1158.6	1.644e-06	1.5645e-06	1221.3	238.99	1.6562e-06	1.5848e-06	297.85	81.994	63.844	18.903	1.6234e-06	26.822	111.590	19.214	38.055	-67.440	10.028	71.883	-67.159	-60.222	74.002	31.457	-60.497	-53.922	-53.997	-46.755	19.292	-47.032	-8191	255	
7616.974	1	1	0	0	0.025333	0.21346	0.13511	0.34191	0.060539	0.10161	0.24535	0.1683	0.16304	0.14529	0.21378	0.15824	0.089471	0.078115	0.24294	0.13641	-2.5417	-2.7687	-2.4292	-2.9417	-2.5896	-2.7854	-3.1125	-2.7125	-2.8083	-2.8917	-2.5479	-2.7542	-2.6417	-2.5312	-2.7979	-2.5792	21.348	28.202	38.318	270.137	99.890	119.991	249.074	214.747	-36.896	8.477	-63.085	210.750	265.580	-27.040	2.293	31.777	0.00010982	0.00029214	7.6878e-05	1191.2	2.8813e-06	3.2449e-06	1250.4	243.36	1.4102e-06	2.4826e-06	303.61	82.48	64.706	18.895	2.4265e-06	26.8	0.00015376	0.00014283	4.132e-05	1160.4	1.6339e-06	1.5725e-06	1222.7	239.32	1.6606e-06	1.5753e-06	297.99	82.078	64.145	18.984	1.6032e-06	26.876	108.787	41.160	-29.104	-67.283	86.872	99.945	-67.158	-60.285	31.298	62.144	-60.335	-53.949	-53.958	-46.627	-14.495	-46.862	-8191	255	
7617.071	1	1	0	0	0.11554	0.13043	0.31274	0.33526	0.0691	0.11685	0.29418	0.080258	0.15064	0.17797	0.070987	0.050374	0.10484	0.076373	0.12529	0.27388	-2.3187	-2.6396	-2.1917	-3.0083	-2.7125	-2.4792	-3.0187	-2.5896	-2.7062	-2.8875	-2.5917	-2.9604	-2.6125	-2.5792	-2.7542	-2.525	126.912	119.053	-39.057	234.974	221.348	66.596	189.603	5.197	-13.104	44.830	6.936	239.055	-22.581	147.811	73.611	109.106	9.0893e-05	0.00037134	4.7071e-05	1190.2	9.5861e-07	3.6775e-06	1252.4	243.04	8.8201e-07	1.8523e-06	303.24	82.471	64.651	18.936	3.2417e-06	26.85	0.00015106	0.00014337	3.989e-05	1162.1	1.6234e-06	1.515e-06	1224.1	239.21	1.6002e-06	1.5958e-06	297.53	82.217	64.051	18.945	1.6357e-06	26.819	116.331	-0.175	39.541	-67.192	120.581	25.548	-67.197	-60.078	79.872	67.264	-60.287	-54.117	-54.009	-46.460	47.534	-47.070	-8191	255	
7617.167	1	1	0	0	0.12348	0.15236	0.14219	0.35218	0.22376	0.19813	0.16999	0.38449	0.043717	0.1797	0.24469	0.16551	0.1168	0.036813	0.25137	0.15205	-2.1167	-2.6729	-2.6146	-2.9313	-2.7208	-2.7542	-3.05	-2.6292	-2.7146	-3.0687	-2.6312	-3.0187	-2.8937	-2.3354	-2.8917	-2.6375	80.923	182.524	-48.593	244.324	93.111	112.820	216.607	200.908	12.001	-17.317	208.294	97.365	-9.243	58.248	100.569	214.864	0.00014396	0.00045063	0.00010572	1187.6	3.9777e-06	4.2345e-06	1249.6	242.98	2.4901e-06	3.2691e-06	303.03	82.835	64.676	18.82	6.1808e-07	26.648	0.00015452	0.00014421	4.0551e-05	1162.4	1.6666e-06	1.5612e-06	1223	239.36	1.6641e-06	1.6163e-06	297.74	82.114	63.97	18.902	1.6777e-06	26.734	117.120	28.600	15.233	-67.224	52.432	98.002	-67.118	-60.238	0.213	40.923	-60.440	-53.762	-53.961	-46.668	44.717	-47.101	-8191	255	
7617.263	1	1	0	0	0.18106	0.092651	0.054314	0.25614	0.20223	0.11927	0.076478	0.1351	0.16093	0.28476	0.17325	0.30361	0.054905	0.072828	0.16611	0.038163	-2.1042	-2.6771	-2.6042	-3.0104	-2.8333	-2.5646	-2.9125	-2.7479	-2.5979	-2.9229	-2.6167	-2.8438	-2.8583	-2.6042	-2.8812	-2.7771	110.275	275.968	141.033	241.147	75.995	268.730	-71.892	102.759	-60.896	151.134	-34.471	240.465	151.711	-64.151	-36.606	25.307	0.00012026	0.00034965	5.7134e-05	1193.1	8.4261e-07	3.7592e-06	1249.6	242.19	1.197e-06	3.8488e-07	303.76	81.87	64.578	18.866	2.9473e-06	26.577	0.00015914	0.0001486	4.3263e-05	1162.2	1.7518e-06	1.7159e-06	1223.7	239.03	1.8205e-06	1.7636e-06	298.53	81.751	63.845	18.9	1.941e-06	26.671	123.742	-25.497	-61.517	-67.060	0.212	40.601	-67.336	-60.132	43.218	41.682	-60.533	-54.072	-53.816	-46.646	18.999	-46.889	-8191	255	
7617.359	1	1	0	0	0.18926	0.073137	0.39701	0.3065	0.24889	0.31013	0.28877	0.2549	0.076185	0.26579	0.052145	0.24064	0.16059	0.24666	0.1781	0.20136	-2.1125	-3.0687	-2.6417	-2.7812	-2.8208	-2.45	-3.1437	-2.8521	-2.775	-2.9729	-2.6417	-2.8917	-2.9229	-2.5646	-2.8438	-2.7396	10.656	41.579	144.691	222.043	192.529	35.032	219.758	276.225	194.665	20.736	267.193	207.047	98.831	8.283	102.388	-28.964	0.00010594	0.00026738	9.0302e-05	1200.2	1.6768e-06	4.085e-06	1253.6	243.4	2.8111e-06	2.6958e-06	303.03	81.948	64.272	18.788	5.183e-06	26.669	0.00018212	0.00017486	5.0763e-05	1166.8	2.0296e-06	2.0318e-06	1228.8	240.29	2.0963e-06	2.0663e-06	298.39	81.833	64.118	18.84	2.1727e-06	26.723	117.454	56.284	6.344	-67.252	50.387	-41.023	-67.189	-59.987	60.657	29.207	-60.387	-53.970	-53.811	-46.494	70.714	-47.076	-8191	255	
7617.455	1	1	0	0	0.31714	0.15061	0.16731	0.26127	0.16984	0.12601	0.25821	0.15426	0.049204	0.03011	0.16103	0.17808	0.16314	0.24897	0.22479	0.15497	-2.0458	-2.8354	-2.4688	-2.8104	-2.8208	-2.3937	-2.9542	-2.8312	-2.5708	-2.9104	-2.7333	-2.8042	-2.8708	-2.4979	-2.7021	-2.8542	230.340	52.176	-41.095	265.612	27.442	-69.534	268.354	234.088	216.071	119.160	-50.161	165.176	263.038	233.929	236.791	273.501	0.00011211	0.00027434	7.6228e-05	1199.9	7.0163e-07	4.18e-06	1260.3	244.98	1.9858e-06	3.8146e-06	306.28	82.027	64.479	18.867	1.241e-06	26.611	0.00020221	0.0001978	5.5067e-05	1172	2.2346e-06	2.2517e-06	1235.8	241.5	2.3227e-06	2.2667e-06	300.12	82.242	64.313	18.898	2.3183e-06	26.802	114.997	8.556	7.244	-67.298	61.864	39.876	-67.293	-60.107	159.272	56.438	-60.510	-54.055	-53.745	-46.696	142.188	-47.103	-8191	255	
7617.576	1	1	0	0	0.14195	0.088211	0.19594	0.28226	0.068328	0.12698	0.11984	0.020493	0.048431	0.22892	0.18828	0.17662	0.26377	0.076782	0.14652	0.035017	-2.2313	-3.0083	-2.4979	-2.6625	-2.7146	-2.4792	-2.8854	-2.8521	-2.5062	-2.7917	-2.7979	-2.7667	-2.8438	-2.3937	-2.7583	-2.6771	262.054	-41.755	-57.047	163.713	185.579	164.716	194.394	-71.121	22.948	-22.235	14.958	-42.422	-75.827	-27.042	24.053	210.620	0.00013624	0.00031466	8.0215e-05	1204.2	2.2856e-06	2.3209e-06	1263.4	245.19	8.5792e-07	1.4649e-06	304.59	81.913	64.59	18.681	1.2285e-06	26.606	0.00021058	0.00020159	5.7961e-05	1174.5	2.2454e-06	2.2886e-06	1235.4	241.84	2.3044e-06	2.2821e-06	299.62	82.039	64.382	18.858	2.272e-06	26.75	123.785	20.431	47.844	-67.331	199.664	82.736	-67.364	-60.269	-16.200	79.311	-60.184	-54.272	-53.888	-46.486	-15.762	-47.014	-8191	255	
7617.670	1	1	0	0	0.18036	0.21878	0.12346	0.19955	0.22379	0.17954	0.17543	0.24446	0.11958	0.12965	0.33653	0.22441	0.052016	0.25376	0.22427	0.25599	-2.1312	-2.6583	-2.6458	-2.6667	-2.7812	-2.7417	-2.7625	-2.8312	-2.6375	-2.8771	-2.8833	-2.4292	-2.7646	-2.7979	-2.5854	-2.8312	80.023	-16.325	218.128	241.685	-9.378	255.542	218.073	248.576	-57.870	107.963	228.605	260.420	-76.143	-41.669	-16.257	172.227	0.00014333	0.00027103	0.00014389	1203.3	9.4855e-07	2.518e-06	1261	244.44	2.7795e-06	5.2108e-06	303.15	81.939	64.301	18.722	2.0574e-06	26.541	0.0002092	0.00020092	5.5018e-05	1174.4	2.1939e-06	2.1732e-06	1234.4	241.15	2.2463e-06	2.1742e-06	299.05	81.984	64.085	18.823	2.2004e-06	26.648	98.069	-9.513	-14.470	-67.327	22.888	67.564	-67.149	-60.245	58.207	15.537	-60.455	-53.901	-53.669	-46.357	28.976	-46.793	-8191	255	
7617.744	1	1	0	0	0.15437	0.17976	0.12619	0.044891	0.31971	0.07593	0.27684	0.13955	0.05082	0.27174	0.28732	0.19098	0.079726	0.25864	0.20462	0.097315	-2.1771	-2.7833	-2.8417	-2.5667	-2.8438	-2.875	-2.6437	-3.0625	-2.5604	-2.8125	-2.8792	-2.4729	-2.7938	-2.5521	-2.6896	-2.7625	120.150	161.589	234.521	141.343	275.045	141.663	-55.629	214.785	273.386	269.790	183.659	8.566	266.817	73.810	110.903	-58.718	6.2083e-05	0.00037778	0.00010143	1197.2	2.0528e-06	3.1616e-06	1259.6	244.62	1.286e-06	2.7617e-06	305.34	81.999	64.322	18.877	8.7463e-07	26.626	0.00020248	0.00019881	5.4674e-05	1170.3	2.1996e-06	2.1817e-06	1232.7	240.7	2.2084e-06	2.1472e-06	299.46	81.838	64.127	18.843	2.2057e-06	26.704	112.360	17.143	11.648	-67.363	105.665	75.367	-67.177	-60.409	100.980	79.789	-60.648	-54.247	-53.879	-46.357	35.071	-47.153	-8191	255	
7617.838	1	1	0	0	0.11761	0.21907	0.19775	0.25605	0.049326	0.21018	0.19823	0.21906	0.16925	0.10135	0.2418	0.25987	0.41549	0.16435	0.10375	0.16175	-2.3583	-2.6729	-2.6875	-2.6688	-2.9417	-2.7271	-2.7812	-2.8292	-2.5229	-2.7875	-2.8854	-2.6063	-2.7854	-2.7583	-2.5438	-2.7917	172.425	111.757	73.286	280.634	157.552	3.082	212.457	252.970	164.451	67.765	247.230	280.210	98.875	17.194	174.190	-62.440	8.9718e-05	0.00033419	0.00012194	1200.7	3.2563e-06	4.553e-06	1256	244.29	3.4907e-06	2.0316e-06	302.25	81.851	64.765	18.644	2.3607e-06	26.507	0.00020303	0.00020437	5.4887e-05	1172	2.265e-06	2.1599e-06	1230.3	240.33	2.1941e-06	2.1569e-06	298.71	81.769	64.12	18.766	2.2319e-06	26.672	105.014	-18.158	72.864	-67.335	82.231	49.995	-67.369	-60.097	62.328	70.075	-60.676	-54.175	-53.240	-46.742	47.269	-47.050	-8191	255	
7617.936	1	1	0	0	0.051566	0.34	0.21146	0.24593	0.1982	0.12835	0.1659	0.056244	0.021774	0.12483	0.37133	0.058798	0.13741	0.26714	0.10529	0.098997	-2.4125	-2.6188	-2.8312	-2.7021	-2.7646	-2.8417	-2.7229	-2.9083	-2.5542	-2.5875	-2.8625	-2.575	-2.9146	-2.9458	-2.5563	-2.8167	204.760	32.117	50.218	212.147	24.706	19.360	146.930	240.263	250.019	155.496	170.359	260.157	25.908	263.060	176.793	232.237	0.0001396	0.00032846	0.00013379	1197.4	4.194e-06	4.1736e-06	1259.4	243.67	6.8946e-07	5.8948e-07	303	81.926	64.476	18.712	1.8242e-06	26.56	0.0001965	0.00019685	5.2969e-05	1170.7	2.2019e-06	2.121e-06	1231.6	240.53	2.1978e-06	2.1415e-06	298.32	81.756	64.051	18.766	2.133e-06	26.68	96.272	3.317	21.951	-67.333	35.314	46.127	-67.463	-60.294	-5.692	-3.600	-60.424	-53.979	-53.845	-46.578	-6.324	-46.928	-8191	255	
7618.055	1	1	0	0	0.1165	0.075962	0.26125	0.11291	0.20584	0.079255	0.28881	0.10085	0.26353	0.2108	0.095505	0.19888	0.22746	0.14331	0.12565	0.27617	-2.275	-2.6854	-2.8729	-2.7708	-2.8375	-2.9104	-2.6479	-2.9292	-2.6604	-2.7146	-2.9521	-2.7188	-2.7958	-3.0167	-2.7458	-2.8479	255.410	211.838	117.607	280.927	3.239	110.118	228.906	179.387	33.504	92.076	-53.588	-16.484	95.796	255.628	76.450	258.558	0.00011583	0.00017285	8.4457e-05	1200.3	2.9416e-06	1.4184e-06	1257.3	243.18	1.9983e-06	3.9361e-06	302.97	81.918	64.284	18.628	2.2877e-06	26.573	0.00019671	0.0001905	5.2635e-05	1169.4	2.1464e-06	2.0372e-06	1230	239.94	2.0941e-06	2.0745e-06	298.35	81.748	63.775	18.692	2.0508e-06	26.556	113.163	3.884	21.706	-67.474	95.248	69.576	-67.184	-60.341	159.088	62.050	-60.455	-53.929	-53.460	-46.760	128.294	-47.076	-8191	255	
7618.151	1	1	0	0	0.14732	0.069816	0.12884	0.097578	0.0916	0.29829	0.28127	0.3465	0.15025	0.090023	0.19624	0.36133	0.23272	0.14997	0.24165	0.21388	-2.2229	-2.4542	-2.9354	-2.8354	-2.7667	-3.1063	-2.85	-3.0083	-2.7104	-2.6021	-2.9021	-2.6646	-2.6146	-2.8083	-2.6188	-2.9833	153.253	143.287	263.573	150.122	114.090	-46.783	-63.134	209.512	184.954	86.034	257.607	-59.635	-39.144	124.419	-13.226	245.804	0.00014111	0.00039534	7.8624e-05	1196.3	1.8837e-06	4.8375e-06	1252.8	242.91	2.3659e-06	2.9763e-06	302.38	81.887	64.265	18.737	2.3383e-06	26.469	0.00018872	0.00018283	4.9693e-05	1165.9	2.055e-06	2.0086e-06	1226.5	239.76	2.0586e-06	1.994e-06	297.49	81.406	63.794	18.769	2.0282e-06	26.571	117.936	10.842	12.018	-67.448	67.064	72.377	-67.271	-60.216	38.858	84.065	-60.577	-54.142	-53.642	-46.392	52.261	-47.022	-8191	255	
7618.247	1	1	0	0	0.15134	0.11827	0.21045	0.035551	0.23248	0.19408	0.38816	0.24902	0.25859	0.24887	0.18002	0.19236	0.12646	0.27725	0.17516	0.21856	-2.3021	-2.3875	-2.9021	-2.7583	-2.6396	-2.8792	-2.7875	-2.7958	-2.7396	-2.5187	-2.9104	-2.8063	-2.6083	-2.8604	-2.7104	-2.7854	182.566	127.824	247.230	21.128	256.454	175.932	251.215	217.875	48.601	107.583	194.583	186.929	225.430	219.166	156.091	-17.966	0.00015743	0.00029839	9.9011e-05	1190.2	1.386e-06	4.6804e-07	1252	243.52	2.947e-06	2.4999e-06	303.03	81.903	64.022	18.683	4.2436e-06	26.556	0.0001868	0.00018351	4.9839e-05	1165.2	2.0715e-06	1.9839e-06	1225.6	240	2.0348e-06	1.9874e-06	297.37	81.594	63.761	18.71	1.9333e-06	26.548	120.561	45.624	106.190	-67.296	113.607	7.927	-67.448	-60.241	31.622	71.389	-60.727	-53.937	-53.545	-46.551	63.507	-47.166	-8191	255	
7618.368	1	1	0	0	0.080692	0.30421	0.14172	0.19069	0.27854	0.06574	0.033135	0.10283	0.23442	0.16176	0.15322	0.077456	0.18898	0.3648	0.20756	0.38576	-2.4229	-2.4458	-2.9125	-2.7562	-2.5583	-2.9729	-2.7979	-2.9208	-2.8104	-2.7333	-2.9667	-2.7354	-2.6771	-2.8438	-2.6	-2.6917	179.257	129.648	-69.281	191.694	251.555	-50.745	157.676	271.153	-2.682	190.451	160.433	224.223	71.536	-42.242	226.387	243.918	9.9931e-05	0.00020869	7.7278e-05	1193.1	2.0362e-06	4.8589e-06	1248.2	242.98	1.3969e-06	2.7674e-06	303.39	81.643	63.951	18.571	1.1313e-06	26.323	0.00018155	0.00017926	4.8387e-05	1161.1	1.9545e-06	1.9183e-06	1224.1	239.34	1.9611e-06	1.9067e-06	297.62	81.489	63.627	18.707	1.9392e-06	26.543	95.663	46.924	40.389	-67.226	84.136	66.088	-67.230	-60.082	277.776	36.195	-60.437	-53.848	-53.639	-46.275	90.253	-46.810	-8191	255	
7618.439	1	1	0	0	0.033772	0.15421	0.18027	0.074786	0.13017	0.12582	0.36754	0.079888	0.02939	0.19192	0.19318	0.39791	0.08823	0.14564	0.086363	0.35102	-2.4625	-2.5083	-2.9458	-3.0229	-2.6562	-2.7062	-2.9479	-2.6667	-2.8604	-2.4646	-2.9208	-2.9604	-2.5812	-2.8333	-2.7604	-2.6229	80.933	240.629	137.154	256.230	275.977	-14.583	251.661	182.442	65.472	83.139	179.797	-39.203	61.085	35.986	184.283	279.007	0.00016992	0.00028177	6.6263e-05	1188.3	2.9966e-06	2.8975e-06	1249	241.91	3.0433e-06	2.2331e-06	303.04	81.599	64.236	18.524	2.5796e-06	26.498	0.00017591	0.00017841	4.8394e-05	1160.5	1.9598e-06	1.9186e-06	1222.8	239.03	1.9666e-06	1.9502e-06	297.83	81.288	63.627	18.645	1.955e-06	26.544	107.738	-26.164	57.333	-67.251	86.279	93.722	-67.212	-60.291	-22.396	64.621	-60.279	-54.069	-53.560	-46.031	7.086	-46.944	-8191	255	
7618.536	1	1	0	0	0.096308	0.18614	0.19829	0.14234	0.099795	0.085171	0.51095	0.25416	0.023975	0.33363	0.28745	0.26827	0.31512	0.12733	0.24001	0.044788	-2.3333	-2.5938	-2.6104	-2.9854	-2.4437	-2.9854	-2.7562	-2.6625	-2.9042	-2.5312	-2.8479	-2.7667	-2.6979	-2.8729	-2.7062	-2.5167	107.629	63.129	102.730	257.293	156.854	-37.032	202.518	166.560	275.071	100.758	259.497	-51.069	-10.098	240.784	140.920	125.390	0.00012001	0.00041177	6.7473e-05	1188.7	9.3377e-07	1.9321e-06	1252.4	242.77	2.8293e-06	5.1633e-06	302.18	81.187	64.195	18.683	4.519e-06	26.528	0.00017823	0.00017515	4.9133e-05	1162.8	1.9449e-06	1.9382e-06	1224.1	238.99	1.9886e-06	1.9342e-06	297.76	81.202	63.748	18.699	1.996e-06	26.488	128.890	5.031	37.368	-67.027	129.893	17.368	-67.206	-60.358	115.970	63.260	-60.441	-54.185	-53.880	-46.208	52.925	-47.231	-8191	255	
7618.656	1	1	0	0	0.13293	0.11732	0.14266	0.2184	0.07155	0.14232	0.43228	0.15304	0.13448	0.22808	0.19617	0.086592	0.027435	0.059593	0.091797	0.11227	-2.3667	-2.6333	-2.5729	-2.9458	-2.7042	-2.6667	-2.8458	-2.6146	-2.6625	-2.5396	-2.8729	-2.9333	-2.4521	-2.7583	-2.7687	-2.6417	158.977	162.572	165.326	273.146	125.624	-52.454	190.158	232.244	153.053	116.719	249.913	213.659	252.964	-18.279	-22.327	255.169	0.00011608	0.00037656	7.2322e-05	1190.9	2.0001e-06	4.7856e-06	1252.1	243.49	1.9249e-06	3.7483e-06	301.93	81.517	64.175	18.643	3.2567e-06	26.608	0.00017734	0.00017211	4.9087e-05	1160.7	1.9185e-06	1.9074e-06	1223.6	239.18	1.9666e-06	1.9162e-06	296.73	81.404	63.547	18.716	1.8994e-06	26.564	113.487	43.714	1.982	-67.359	52.030	52.350	-67.458	-60.149	65.948	101.063	-60.385	-54.199	-53.762	-46.537	38.827	-47.316	-8191	255	
7618.751	1	1	0	0	0.09835	0.17222	0.16077	0.22128	0.085613	0.11462	0.33373	0.17364	0.10199	0.24302	0.15781	0.079472	0.053912	0.081562	0.026882	0.031831	-2.45	-2.4104	-2.8063	-2.9396	-2.7062	-2.7687	-2.8937	-2.6	-2.7979	-2.6208	-2.6292	-2.8958	-2.4979	-2.6813	-2.6042	-2.6604	185.476	231.784	39.292	152.992	122.555	30.128	172.282	223.755	128.672	-11.518	258.809	-66.437	-38.915	203.838	135.245	-47.668	0.00014133	0.00013581	0.00010842	1190.8	3.47e-06	3.6337e-06	1250.7	243.16	1.9181e-06	2.9553e-06	304.22	81.412	63.634	18.719	2.2517e-06	26.343	0.00018053	0.00017082	4.8478e-05	1163.3	1.9284e-06	1.871e-06	1223.3	239.12	1.9789e-06	1.8282e-06	297.7	81.313	63.506	18.713	1.8939e-06	26.524	118.633	-19.470	57.926	-67.106	80.690	53.426	-67.228	-60.195	17.115	37.798	-60.242	-53.955	-53.744	-46.641	34.076	-46.669	-8191	255	
7618.848	1	1	0	0	0.009998	0.2613	0.078421	0.44058	0.15974	0.17393	0.40509	0.36331	0.21224	0.048591	0.11549	0.15371	0.18304	0.061776	0.0027615	0.1627	-2.4562	-2.7375	-2.6542	-3.0938	-2.6167	-2.7854	-3.0938	-2.6771	-2.8042	-2.6646	-2.7333	-3.1312	-2.4208	-2.5938	-2.8438	-2.4208	78.969	280.968	-45.011	-38.746	177.398	205.050	238.514	186.643	73.717	93.601	89.271	244.465	73.216	165.370	20.881	239.047	0.00010646	0.00058163	0.00012622	1192.2	3.1008e-06	2.6962e-06	1251.7	241.65	1.2473e-06	1.001e-06	302.6	81.706	64.538	18.697	1.8256e-06	26.47	0.00017462	0.00017519	4.7807e-05	1163.5	1.8985e-06	1.8865e-06	1225.8	238.95	1.9024e-06	1.932e-06	297.26	81.426	63.876	18.73	1.9277e-06	26.52	115.404	29.861	15.824	-67.075	87.130	93.296	-67.242	-60.032	241.513	113.378	-60.431	-53.979	-53.755	-46.577	98.644	-47.097	-8191	255	
7618.967	1	1	0	0	0.30607	0.10623	0.067044	0.22773	0.21609	0.24508	0.28236	0.44404	0.20963	0.34611	0.090243	0.21843	0.23101	0.10252	0.33246	0.14467	-2.3542	-2.7	-2.725	-2.9458	-2.5646	-2.6458	-2.9604	-2.5521	-2.7979	-2.8708	-2.6312	-2.7833	-2.8625	-2.4	-2.9125	-2.4917	-75.565	90.273	264.477	253.103	164.039	28.226	157.836	214.517	242.887	-60.051	200.618	249.025	211.352	193.381	-27.387	26.739	0.00016442	0.00027895	0.00012504	1192.9	4.2355e-06	1.7156e-06	1250.1	242.65	2.7521e-06	2.8905e-06	301.83	81.495	64.478	18.766	4.0501e-06	26.466	0.00017469	0.00017107	4.8263e-05	1162.8	1.9175e-06	1.9042e-06	1225.2	239.48	1.9197e-06	1.9402e-06	296.95	81.444	63.775	18.78	1.9513e-06	26.587	123.375	-18.715	2.406	-67.132	112.795	91.677	-67.360	-60.112	-5.170	41.439	-60.211	-53.898	-53.918	-46.723	3.424	-47.027	-8191	255	
7619.039	1	1	0	0	0.28236	0.15446	0.11222	0.23378	0.095868	0.30784	0.38249	0.14982	0.17135	0.04316	0.28995	0.030421	0.11434	0.32976	0.1172	0.12944	-2.3979	-2.7146	-2.3854	-2.975	-2.5687	-2.5833	-3.0167	-2.7667	-2.6937	-2.8083	-2.4521	-2.9854	-2.7771	-2.4437	-2.9208	-2.6042	131.740	103.883	216.762	248.531	248.459	-1.955	218.294	271.217	177.336	257.549	168.066	240.049	49.022	129.999	212.923	-2.803	0.00013715	0.00017532	8.9748e-05	1195.3	3.3112e-06	2.9478e-06	1251.3	242.6	9.0755e-07	2.9195e-06	302.76	81.862	64.294	18.708	2.1544e-06	26.582	0.00017861	0.00016895	4.8531e-05	1165	1.9335e-06	1.8985e-06	1224.6	239.39	1.9432e-06	1.8953e-06	297.48	81.619	63.697	18.775	1.9527e-06	26.632	110.489	19.364	-1.874	-67.370	53.028	64.968	-67.482	-60.186	17.353	113.946	-60.480	-53.929	-53.764	-46.423	57.825	-47.618	-8191	255	
7619.135	1	1	0	0	0.19292	0.17716	0.14713	0.25627	0.1462	0.053162	0.24705	0.27145	0.22223	0.24428	0.41539	0.083947	0.33086	0.22285	0.20187	0.16386	-2.2938	-2.7208	-2.4104	-2.9125	-2.675	-2.6625	-2.9979	-2.6042	-2.7354	-2.8104	-2.6312	-2.7917	-2.7313	-2.5583	-2.7625	-2.5042	56.082	88.479	22.621	279.661	279.974	-39.359	189.283	-56.908	61.968	123.089	251.805	251.042	-56.238	168.191	131.958	-51.907	0.00011224	0.00029245	0.0001569	1193	2.6535e-06	3.6332e-06	1245.2	243.59	2.0046e-06	1.3397e-06	301.1	81.779	64.081	18.732	4.1723e-06	26.6	0.00017703	0.00017195	4.8895e-05	1165.7	1.94e-06	1.8778e-06	1224.2	239.37	1.9701e-06	1.8837e-06	297.45	81.569	63.705	18.758	1.8757e-06	26.618	126.659	-6.055	26.294	-67.294	-13.097	74.044	-67.422	-60.149	10.241	55.759	-60.458	-53.905	-53.574	-46.682	84.489	-46.849	-8191	255	
7619.231	1	1	0	0	0.17061	0.2787	0.2173	0.19378	0.35553	0.12663	0.12771	0.14775	0.18472	0.080503	0.037473	0.30859	0.12211	0.21199	0.22124	0.052612	-2.3917	-2.8125	-2.5438	-2.6708	-2.8458	-2.6417	-2.9562	-2.7979	-2.6125	-2.9625	-2.75	-2.85	-2.6958	-2.6292	-2.9479	-2.7438	258.506	24.978	121.789	-46.208	127.197	88.206	206.721	213.770	-68.902	215.054	269.841	163.800	61.299	-40.975	198.702	-63.565	0.00016037	0.00037013	0.00017475	1197.8	3.4034e-06	4.2719e-06	1252.4	243.01	2.9594e-06	2.4676e-06	303.15	81.497	64.208	18.789	4.3656e-06	26.756	0.00017665	0.00017266	4.7883e-05	1165.2	1.933e-06	1.886e-06	1225.6	239.73	1.9872e-06	1.9179e-06	297.85	81.558	63.812	18.763	1.9221e-06	26.684	125.645	-12.938	8.034	-67.161	80.185	60.064	-67.336	-60.138	1.407	67.565	-60.382	-53.969	-53.600	-46.572	53.765	-46.977	-8191	255	
7619.352	1	1	0	0	0.04412	0.21134	0.15172	0.15289	0.16938	0.34579	0.075427	0.1203	0.12255	0.045769	0.15563	0.050783	0.23954	0.17092	0.07831	0.21998	-2.2812	-2.9313	-2.5312	-2.7188	-2.7958	-2.6021	-3.0167	-2.6437	-2.6479	-2.8083	-2.85	-2.8	-2.7979	-2.5229	-2.7687	-2.7917	-58.227	149.616	-30.299	277.490	136.059	39.549	37.054	204.356	11.774	-51.175	174.941	98.387	-4.082	197.240	237.930	-8.534	0.00011995	0.00032742	6.1318e-05	1193.5	3.1391e-06	4.8088e-06	1253.9	242.82	2.9543e-06	2.6405e-06	303.68	82.017	63.944	18.76	3.6064e-06	26.547	0.00018282	0.00017562	4.9257e-05	1165	1.9478e-06	1.8885e-06	1226.2	239.44	1.9865e-06	1.9449e-06	297.9	81.712	63.766	18.797	1.9472e-06	26.651	120.935	25.329	43.658	-67.297	43.568	31.828	-67.291	-60.357	-5.904	100.714	-60.161	-53.890	-53.977	-46.520	44.959	-47.266	-8191	255	
7619.448	1	1	0	0	0.077328	0.21611	0.10246	0.45932	0.367	0.21149	0.3428	0.39977	0.098262	0.33935	0.28977	0.18335	0.24262	0.44421	0.071505	0.22222	-2.3875	-2.9188	-2.6417	-2.9021	-2.8083	-2.5563	-2.9125	-2.7917	-2.5062	-2.9042	-2.4562	-2.5375	-2.9479	-2.5042	-2.8083	-2.8604	133.418	237.997	138.588	239.272	237.294	266.371	279.591	241.758	121.267	245.095	135.069	165.276	204.316	223.419	219.921	250.216	0.00013056	0.00025	5.7532e-05	1197.8	4.0224e-06	4.1971e-06	1253.6	243.74	2.9714e-06	8.5215e-07	301.59	81.421	64.633	18.795	3.8881e-07	26.585	0.00017736	0.00017436	4.8655e-05	1166.3	1.957e-06	1.9375e-06	1228.1	239.76	1.9654e-06	1.9372e-06	297.39	81.695	63.878	18.832	1.9773e-06	26.615	106.469	12.957	-29.050	-67.313	17.219	67.018	-67.212	-59.999	39.426	15.453	-60.443	-53.935	-53.598	-46.494	170.509	-46.880	-8191	255	
7619.544	1	1	0	0	0.086053	0.070535	0.1275	0.23773	0.25607	0.06973	0.3796	0.20439	0.14925	0.052028	0.015395	0.2677	0.27289	0.13662	0.19494	0.22895	-2.2292	-2.75	-2.6229	-2.7625	-2.8354	-2.5104	-2.8792	-3.0625	-2.4604	-2.8563	-2.6667	-2.7125	-2.8958	-2.6292	-2.6625	-2.8625	194.584	109.051	22.982	277.810	3.616	35.618	218.600	248.495	177.493	249.757	93.840	42.577	27.179	107.338	-19.519	229.792	0.00012499	0.00043422	0.00010333	1192.5	1.5232e-06	4.9945e-06	1258.1	243.06	1.8886e-06	1.016e-06	303.82	81.843	64.549	18.771	7.8975e-07	26.665	0.00018077	0.00017371	4.9588e-05	1166.5	1.9764e-06	1.9507e-06	1228.9	239.67	1.9969e-06	1.9572e-06	297.5	81.715	63.861	18.799	2.0163e-06	26.656	114.208	-8.102	25.257	-67.394	64.521	35.201	-67.124	-60.531	37.679	71.604	-60.413	-54.004	-53.729	-46.317	-23.459	-47.072	-8191	255	
7619.640	1	1	0	0	0.070959	0.2161	0.080107	0.37686	0.19439	0.13763	0.20575	0.22591	0.24141	0.26326	0.17102	0.18691	0.22778	0.21139	0.2242	0.37933	-2.2521	-2.9521	-2.6562	-2.8042	-2.7521	-2.6521	-2.9	-2.8083	-2.6083	-2.7625	-2.7667	-2.6188	-2.8187	-2.4979	-2.7625	-2.9104	225.050	126.024	16.150	272.100	5.384	275.581	216.681	212.521	16.460	47.514	47.394	239.264	1.708	182.042	153.097	195.481	0.0001086	0.00038866	0.00011567	1195.3	2.6875e-06	1.6626e-06	1255	243.54	1.9753e-06	2.7506e-06	303.14	81.859	64.534	18.802	4.0077e-06	26.321	0.00018597	0.00017569	4.9961e-05	1166.5	1.986e-06	1.9444e-06	1228.6	239.6	2.0138e-06	1.9746e-06	298.28	81.747	64.041	18.817	1.9567e-06	26.584	86.674	33.135	19.116	-67.336	29.910	-2.012	-67.219	-60.197	-5.768	93.666	-60.400	-54.000	-53.726	-46.661	47.294	-47.148	-8191	255	
7619.735	1	1	0	0	0.097922	0.13134	0.11847	0.085256	0.18622	0.074912	0.24709	0.17514	0.21408	0.19495	0.28234	0.042638	0.063292	0.073998	0.14538	0.24972	-2.2104	-2.7833	-2.6958	-2.7229	-2.7687	-2.6813	-2.7479	-3.0125	-2.6021	-2.7354	-2.8312	-2.5229	-2.7292	-2.7438	-2.4479	-2.9896	118.058	15.568	-52.254	101.695	-62.279	254.213	-41.611	173.948	132.160	111.473	219.258	48.840	271.303	217.788	194.833	204.890	0.00012586	0.0003446	0.00011999	1191.7	2.8024e-06	4.5623e-06	1254.1	242.53	3.4293e-06	3.9872e-06	303.24	81.875	64.493	18.71	3.2368e-06	26.416	0.00018162	0.00017565	4.942e-05	1165.7	1.9867e-06	1.9497e-06	1227.4	239.63	1.96e-06	1.9337e-06	298.31	81.694	63.869	18.782	1.9515e-06	26.641	114.198	-2.974	22.192	-67.193	56.056	38.868	-67.423	-60.366	-40.238	92.051	-60.435	-53.790	-53.836	-46.268	58.386	-46.816	-8191	255	
7619.831	1	1	0	0	0.42823	0.4008	0.264	0.39697	0.15189	0.31596	0.23328	0.050344	0.084858	0.14122	0.088112	0.25341	0.18348	0.22074	0.070812	0.12224	-2.2583	-2.5292	-2.7542	-2.6667	-2.725	-2.8688	-2.925	-3.0104	-2.5312	-2.7604	-2.8833	-2.525	-2.8125	-2.9083	-2.6458	-3.0021	103.053	243.568	133.165	198.550	110.041	113.214	115.653	7.379	-69.045	237.726	121.671	202.492	130.727	184.741	209.833	204.094	0.00011975	0.00028605	8.9114e-05	1195.6	2.5991e-06	3.9622e-06	1254.4	242.78	2.9151e-06	3.5006e-06	301.16	81.748	64.204	18.807	1.4868e-06	26.566	0.0001795	0.00017311	4.8804e-05	1167.3	1.954e-06	1.9135e-06	1227.1	239.53	1.9552e-06	1.9218e-06	297.48	81.68	63.88	18.825	1.9112e-06	26.595	120.916	-37.966	109.585	-67.257	109.821	99.722	-67.238	-60.101	34.884	53.003	-60.474	-53.945	-53.537	-46.447	85.707	-46.885	-8191	255	
7619.929	1	1	0	0	0.064836	0.073809	0.18089	0.25245	0.21278	0.22378	0.29086	0.1773	0.14174	0.087793	0.019813	0.17465	0.32426	0.12362	0.15826	0.22045	-2.2604	-2.7604	-2.9167	-2.4479	-2.7313	-2.6083	-2.6417	-2.9292	-2.6771	-2.7583	-2.8979	-2.7354	-2.5792	-2.7875	-2.2812	-2.9875	12.919	264.333	265.177	272.493	241.560	223.527	234.802	204.982	238.451	-43.206	-62.005	236.773	265.375	257.110	-58.937	-16.703	0.00014723	0.0003165	9.1458e-05	1194.1	3.3441e-06	3.3976e-06	1253.7	243.14	2.6256e-06	2.6388e-06	303.44	81.684	64.535	18.775	2.5278e-06	26.524	0.00017817	0.00017535	4.9331e-05	1165.7	1.9861e-06	1.9091e-06	1227.3	239.23	1.9942e-06	1.9544e-06	297.91	81.666	63.879	18.791	2.0078e-06	26.617	120.882	-12.252	17.853	-67.200	44.701	30.947	-67.246	-60.111	-41.496	36.044	-60.295	-53.904	-53.646	-46.833	65.124	-46.981	-8191	255	
7620.048	1	1	0	0	0.14903	0.26228	0.16715	0.22835	0.14055	0.15582	0.12364	0.27417	0.23028	0.059831	0.25996	0.094283	0.14743	0.12201	0.17566	0.15236	-2.3667	-2.6417	-2.8458	-2.8146	-2.7646	-2.8	-2.5875	-2.8521	-2.6021	-2.8729	-3.0875	-2.5833	-2.6542	-2.8271	-2.4583	-2.8438	-41.609	64.743	108.892	253.526	246.515	103.227	102.005	250.523	93.984	108.408	-9.550	191.486	242.679	4.163	-16.995	204.602	0.00011212	0.00015149	7.2946e-05	1195.3	1.3571e-06	2.8788e-06	1251.8	243.52	2.7483e-06	1.7395e-06	302.61	82.21	64.452	18.811	5.1941e-06	26.337	0.0001773	0.0001778	4.9602e-05	1167.4	1.955e-06	1.9227e-06	1226.1	239.48	1.9559e-06	1.9191e-06	297.59	81.803	63.915	18.806	1.9717e-06	26.601	110.775	-63.137	45.126	-67.230	-9.097	54.894	-67.391	-60.133	12.971	59.645	-60.426	-53.778	-53.243	-46.471	76.185	-46.641	-8191	255	
7620.144	1	1	0	0	0.081883	0.19593	0.16579	0.17959	0.081702	0.32542	0.17196	0.065072	0.052214	0.2086	0.043864	0.098154	0.056486	0.18092	0.14999	0.08326	-2.1875	-2.5812	-2.8875	-2.7062	-2.7188	-2.9313	-2.5917	-2.6917	-2.5021	-2.6667	-3.1354	-2.6958	-2.7292	-2.7833	-2.5938	-2.8271	-24.917	-42.066	93.765	233.083	207.310	84.207	210.293	-19.436	261.966	236.722	-43.106	209.068	266.794	240.325	-13.251	123.130	0.0001204	0.00049404	0.00010964	1195.9	1.4936e-06	5.1283e-06	1252.4	243.14	8.3578e-07	1.8592e-06	302.28	81.521	64.358	18.741	4.4812e-07	26.637	0.00017891	0.00017648	4.8944e-05	1165.2	1.9249e-06	1.9112e-06	1227.9	239.54	1.9742e-06	1.8771e-06	297.43	81.477	63.629	18.762	1.8979e-06	26.617	94.535	-3.399	-11.254	-67.352	135.110	69.133	-67.338	-60.174	-31.347	138.257	-60.382	-53.700	-53.763	-46.531	213.658	-46.972	-8191	255	
#DATA ENDS
