BOXY.EXE: ISS Imagent and Oximeter Data Acquisition Program Version 0.80
Ascii Record File

#ACQ INFORMATION
2  Detector Channels 
16  External MUX Channels 
1  Auxiliary Channels 
5000  Waveform (CCF) Frequency (Hz)
1  Waveforms Skipped 
30  Waveforms Averaged 
1  Cycles Averaged 
16  Acquisitions per Waveform 
10.0806  Updata Rate (Hz) 

#FILE INFORMATION
TRUE -- External MUX Channel results are PARSED.
FALSE -- AC DC and Phase are NOT grouped.
TRUE -- Companion Program Settings File CREATED.
FALSE -- AC data not excluded
FALSE -- DC data not excluded
FALSE -- Phase data not excluded
FALSE -- Auxillary Chn. data not excluded
Tab delimiters

#CALIBRATION STATE
TRUE -- Waveform Calibration Values APPLIED.


#AUX CALIBRATION VALUES
Val Type	aux-1	

Term	1.0000e+00	
Factor	0.0000e+00	


#WF CALIBRATION VALUES
A = Detector Channel
Val Type	A-AC1	A-AC2	A-AC3	A-AC4	A-AC5	A-AC6	A-AC7	A-AC8	A-AC9	A-AC10	A-AC11	A-AC12	A-AC13	A-AC14	A-AC15	A-AC16	A-DC1	A-DC2	A-DC3	A-DC4	A-DC5	A-DC6	A-DC7	A-DC8	A-DC9	A-DC10	A-DC11	A-DC12	A-DC13	A-DC14	A-DC15	A-DC16	A-Ph1	A-Ph2	A-Ph3	A-Ph4	A-Ph5	A-Ph6	A-Ph7	A-Ph8	A-Ph9	A-Ph10	A-Ph11	A-Ph12	A-Ph13	A-Ph14	A-Ph15	A-Ph16	

Term	0.00000e+00	0.00000e+00	0.00000e+00	0.00000e+00	0.00000e+00	0.00000e+00	0.00000e+00	0.00000e+00	0.00000e+00	0.00000e+00	0.00000e+00	0.00000e+00	0.00000e+00	0.00000e+00	0.00000e+00	0.00000e+00	0.00000e+00	0.00000e+00	0.00000e+00	0.00000e+00	0.00000e+00	0.00000e+00	0.00000e+00	0.00000e+00	0.00000e+00	0.00000e+00	0.00000e+00	0.00000e+00	0.00000e+00	0.00000e+00	0.00000e+00	0.00000e+00	0.00000e+00	0.00000e+00	0.00000e+00	0.00000e+00	0.00000e+00	0.00000e+00	0.00000e+00	0.00000e+00	0.00000e+00	0.00000e+00	0.00000e+00	0.00000e+00	0.00000e+00	0.00000e+00	0.00000e+00	0.00000e+00	
Factor	1.00000e+00	1.00000e+00	1.00000e+00	1.00000e+00	1.00000e+00	1.00000e+00	1.00000e+00	1.00000e+00	1.00000e+00	1.00000e+00	1.00000e+00	1.00000e+00	1.00000e+00	1.00000e+00	1.00000e+00	1.00000e+00	1.00000e+00	1.00000e+00	1.00000e+00	1.00000e+00	1.00000e+00	1.00000e+00	1.00000e+00	1.00000e+00	1.00000e+00	1.00000e+00	1.00000e+00	1.00000e+00	1.00000e+00	1.00000e+00	1.00000e+00	1.00000e+00	X	X	X	X	X	X	X	X	X	X	X	X	X	X	X	X	

B = Detector Channel
Val Type	B-AC1	B-AC2	B-AC3	B-AC4	B-AC5	B-AC6	B-AC7	B-AC8	B-AC9	B-AC10	B-AC11	B-AC12	B-AC13	B-AC14	B-AC15	B-AC16	B-DC1	B-DC2	B-DC3	B-DC4	B-DC5	B-DC6	B-DC7	B-DC8	B-DC9	B-DC10	B-DC11	B-DC12	B-DC13	B-DC14	B-DC15	B-DC16	B-Ph1	B-Ph2	B-Ph3	B-Ph4	B-Ph5	B-Ph6	B-Ph7	B-Ph8	B-Ph9	B-Ph10	B-Ph11	B-Ph12	B-Ph13	B-Ph14	B-Ph15	B-Ph16	

Term	0.00000e+00	0.00000e+00	0.00000e+00	0.00000e+00	0.00000e+00	0.00000e+00	0.00000e+00	0.00000e+00	0.00000e+00	0.00000e+00	0.00000e+00	0.00000e+00	0.00000e+00	0.00000e+00	0.00000e+00	0.00000e+00	0.00000e+00	0.00000e+00	0.00000e+00	0.00000e+00	0.00000e+00	0.00000e+00	0.00000e+00	0.00000e+00	0.00000e+00	0.00000e+00	0.00000e+00	0.00000e+00	0.00000e+00	0.00000e+00	0.00000e+00	0.00000e+00	3.37194e+01	-1.68587e+02	-1.35414e+02	-1.80770e+02	-1.05564e+02	-1.05091e+02	-1.55686e+02	-1.62015e+02	-9.81900e+01	-8.14180e+01	-1.72633e+02	-1.70093e+02	-1.81385e+02	-1.76491e+02	-1.12733e+02	-1.49752e+02	
Factor	4.74211e-05	1.08441e-04	2.30837e-05	1.85097e-01	9.01655e-07	1.19884e-06	1.81138e-01	5.42658e-02	1.20113e-06	1.08790e-06	1.10167e-01	3.06233e-02	3.78414e-02	9.83169e-03	9.60378e-07	1.40816e-02	4.97090e-07	4.99476e-07	1.38873e-07	8.54261e-02	5.49520e-09	5.46460e-09	7.88256e-02	2.49800e-02	5.49752e-09	5.45879e-09	4.68186e-02	1.32798e-02	1.62271e-02	4.37497e-03	5.48598e-09	6.00434e-03	X	X	X	X	X	X	X	X	X	X	X	X	X	X	X	X	



#DISTANCE SETTINGS
A = Detector Channel
A-1	A-2	A-3	A-4	A-5	A-6	A-7	A-8	A-9	A-10	A-11	A-12	A-13	A-14	A-15	A-16	

2.5000e+00	3.0000e+00	2.5000e+00	3.0000e+00	2.0000e+00	3.0000e+00	1.5000e+00	3.0000e+00	3.0000e+00	3.0000e+00	3.0000e+00	3.0000e+00	3.0000e+00	3.0000e+00	1.5000e+00	3.0000e+00	

B = Detector Channel
B-1	B-2	B-3	B-4	B-5	B-6	B-7	B-8	B-9	B-10	B-11	B-12	B-13	B-14	B-15	B-16	

1.0000e+01	1.0000e+01	1.0000e+01	1.4400e+00	1.0000e+01	1.0000e+01	1.5100e+00	1.9400e+00	1.0000e+01	1.0000e+01	1.9900e+00	2.4900e+00	2.4100e+00	2.9000e+00	1.0000e+01	2.9800e+00	




#DATA BEGINS
time	group	step	mark	flag	A-AC1	A-AC2	A-AC3	A-AC4	A-AC5	A-AC6	A-AC7	A-AC8	A-AC9	A-AC10	A-AC11	A-AC12	A-AC13	A-AC14	A-AC15	A-AC16	A-DC1	A-DC2	A-DC3	A-DC4	A-DC5	A-DC6	A-DC7	A-DC8	A-DC9	A-DC10	A-DC11	A-DC12	A-DC13	A-DC14	A-DC15	A-DC16	A-Ph1	A-Ph2	A-Ph3	A-Ph4	A-Ph5	A-Ph6	A-Ph7	A-Ph8	A-Ph9	A-Ph10	A-Ph11	A-Ph12	A-Ph13	A-Ph14	A-Ph15	A-Ph16	B-AC1	B-AC2	B-AC3	B-AC4	B-AC5	B-AC6	B-AC7	B-AC8	B-AC9	B-AC10	B-AC11	B-AC12	B-AC13	B-AC14	B-AC15	B-AC16	B-DC1	B-DC2	B-DC3	B-DC4	B-DC5	B-DC6	B-DC7	B-DC8	B-DC9	B-DC10	B-DC11	B-DC12	B-DC13	B-DC14	B-DC15	B-DC16	B-Ph1	B-Ph2	B-Ph3	B-Ph4	B-Ph5	B-Ph6	B-Ph7	B-Ph8	B-Ph9	B-Ph10	B-Ph11	B-Ph12	B-Ph13	B-Ph14	B-Ph15	B-Ph16	aux-1	digaux	

7618.640	1	1	0	512	0.037718	0.12453	0.027281	0.35525	0.069021	0.16889	0.19063	0.3149	0.097295	0.14756	0.24759	0.1761	0.14646	0.1829	0.25136	0.17138	-2.2562	-2.3417	-2.2396	-2.8958	-2.4146	-2.3792	-2.725	-2.5521	-2.5292	-2.5604	-2.2812	-2.7271	-2.2938	-2.4521	-2.5563	-2.4042	447.083	187.934	270.114	492.177	360.702	272.187	499.165	405.332	375.182	200.386	428.332	411.939	160.740	397.556	474.766	405.493	0.0022649	0.0010931	0.00025427	931.6	6.4258e-06	6.4532e-06	1235.4	340.42	1.7475e-05	1.2128e-05	510.03	177.33	99.792	36.341	4.9313e-06	66.69	0.00059348	0.00058899	0.00014855	960	6.5464e-06	6.3461e-06	1245.1	344.15	6.6646e-06	6.4157e-06	503.85	174.81	106.05	38.14	5.8698e-06	66.704	347.918	237.994	271.287	170.252	191.259	271.602	169.036	174.333	271.785	374.029	172.886	176.656	177.581	184.028	323.965	181.919	-8191	255	
7618.737	1	1	0	0	0.1343	0.21167	0.12775	0.28197	0.14214	0.1662	0.32291	0.18007	0.17784	0.16474	0.31877	0.11938	0.15631	0.28903	0.2504	0.20999	-2.1021	-2.3583	-2.2271	-2.6542	-2.1875	-2.3833	-2.7479	-2.2083	-2.5292	-2.4521	-2.4208	-2.775	-2.375	-2.4437	-2.5458	-2.2771	453.796	304.943	445.726	504.337	343.293	180.048	354.764	187.455	394.111	447.707	403.643	302.920	493.614	317.031	220.160	449.879	0.0018584	0.00046355	0.00010514	929.27	5.6862e-06	7.4582e-06	1227.8	340.95	2.0403e-06	6.3651e-06	507.74	177.21	99.845	36.13	5.8307e-06	66.647	0.00062878	0.00057743	0.00014712	962.45	6.9232e-06	6.2843e-06	1239.3	345.55	6.924e-06	6.2619e-06	501.29	175.45	106.26	37.94	5.8102e-06	67.002	364.288	321.619	361.271	169.984	220.805	329.798	168.873	174.270	268.406	383.740	172.844	176.406	178.087	183.981	278.040	181.866	-8191	255	
7618.833	1	1	0	0	0.17775	0.11029	0.17635	0.05688	0.15112	0.02279	0.2071	0.31382	0.028499	0.24674	0.16766	0.14717	0.016639	0.23225	0.26227	0.14799	-2.0417	-2.5021	-2.3021	-2.7438	-2.4062	-2.4813	-2.7479	-2.5833	-2.5125	-2.5062	-2.3396	-2.7729	-2.5375	-2.1917	-2.7042	-2.3187	367.902	258.994	391.181	341.108	296.021	491.432	428.748	338.959	269.137	313.874	424.790	219.351	250.644	435.500	447.866	384.866	0.0016518	0.0010757	9.7931e-05	929.91	3.6673e-06	9.3614e-06	1229.6	340.71	6.1221e-06	7.5805e-06	509.29	177.01	100.1	36.031	5.5208e-07	66.433	0.00063028	0.00056682	0.00014452	969.63	6.7814e-06	6.0826e-06	1235.8	347.89	6.6721e-06	6.0641e-06	501.21	176.49	105.7	37.802	5.7945e-06	67.488	353.060	231.052	293.363	169.855	482.225	303.920	168.949	174.357	269.175	424.402	172.732	176.557	178.525	183.916	211.020	182.038	-8191	255	
7618.929	1	1	0	0	0.19176	0.02868	0.25221	0.16773	0.08311	0.04715	0.1016	0.24125	0.04948	0.11954	0.2388	0.26508	0.15392	0.20218	0.0058305	0.17608	-2.1208	-2.4542	-2.25	-2.5792	-2.5583	-2.2104	-2.8792	-2.6042	-2.5125	-2.6292	-2.375	-2.6896	-2.3438	-2.225	-2.7292	-2.4021	202.236	223.090	390.286	215.152	380.498	366.977	308.606	472.998	311.823	433.714	426.944	249.573	497.028	437.350	299.879	478.389	0.0015487	0.00032578	0.00011077	930.79	3.7484e-06	8.3209e-06	1231.1	341.49	1.1518e-05	4.4698e-06	508.59	176.97	99.971	36.322	7.5805e-06	66.739	0.00061245	0.00055869	0.00014842	978.59	6.6013e-06	5.9928e-06	1240.2	350.14	6.4436e-06	5.9389e-06	503.49	177.42	104.91	37.723	6.008e-06	67.809	367.262	267.172	222.100	170.238	315.881	273.951	169.068	174.427	345.890	362.770	172.884	176.577	178.171	183.655	233.425	181.806	-8191	255	
7619.025	1	1	0	0	0.1171	0.26355	0.31475	0.26711	0.12909	0.1012	0.074414	0.38712	0.16699	0.28015	0.17709	0.19883	0.18909	0.10741	0.15261	0.1272	-2.2042	-2.6667	-2.1333	-2.6833	-2.5854	-2.0333	-2.7188	-2.4083	-2.4146	-2.625	-2.4437	-2.5021	-2.6188	-2.4	-2.6646	-2.4333	481.864	404.017	393.222	471.062	245.975	260.518	498.930	438.571	497.840	350.748	394.218	488.624	496.625	446.791	448.155	461.708	0.0016032	0.00052899	0.00013509	933.85	8.9899e-06	6.2416e-06	1230.7	341.49	8.4133e-06	8.2938e-06	512.01	177.88	98.963	36.161	1.5152e-05	66.757	0.00058502	0.00053648	0.00015501	979.28	6.3084e-06	5.7844e-06	1244.6	350.32	6.1744e-06	5.7424e-06	506.52	177.27	104.02	37.469	6.3284e-06	67.727	364.044	245.206	217.845	170.007	280.912	325.476	168.812	174.318	319.775	314.755	172.809	176.600	177.890	183.921	166.848	182.066	-8191	255	
7619.146	1	1	0	0	0.11558	0.1256	0.086736	0.12774	0.24517	0.12154	0.22569	0.11692	0.21121	0.12269	0.29372	0.27983	0.2345	0.30623	0.24031	0.26768	-1.8833	-2.45	-2.1771	-2.5646	-2.5687	-2.3521	-2.9938	-2.5229	-2.5104	-2.6813	-2.4062	-2.8167	-2.425	-2.3667	-2.5042	-2.4646	515.411	360.387	433.078	191.605	488.465	228.705	157.845	162.634	395.152	170.660	417.759	474.951	271.188	465.073	310.559	460.440	0.0014602	0.0005742	0.00034086	929.06	7.419e-06	4.1512e-06	1229.6	341.46	2.0865e-06	8.8936e-06	512.36	178.28	100.19	36.497	8.083e-06	66.405	0.00056005	0.00052105	0.00016493	976.07	6.1574e-06	5.6972e-06	1251.6	350.51	6.1192e-06	5.8373e-06	513.13	177.92	104.62	37.834	6.8133e-06	67.334	351.082	212.379	171.178	170.307	335.076	504.409	168.828	174.390	295.965	292.171	172.818	176.615	178.024	183.783	190.015	182.083	-8191	255	
7619.242	1	1	0	0	0.1797	0.13396	0.11391	0.074241	0.32888	0.12739	0.33701	0.13965	0.15908	0.30959	0.2787	0.063127	0.28939	0.38966	0.036024	0.082311	-1.775	-2.5812	-2.2833	-2.6604	-2.4062	-2.375	-2.7562	-2.5062	-2.4042	-2.7208	-2.5021	-2.7333	-2.5938	-2.3146	-2.5771	-2.6729	445.744	511.265	233.799	363.840	302.945	270.465	413.049	354.114	223.595	424.976	503.168	451.023	511.977	272.585	495.258	486.750	0.00178	0.00072164	0.00013237	930.25	3.8237e-06	6.606e-06	1236.1	341.4	9.5822e-06	7.0387e-06	508.54	177.3	100.22	36.085	2.2681e-06	66.588	0.00055514	0.00053429	0.00017446	971.07	5.986e-06	5.9078e-06	1255	349.24	5.946e-06	6.0253e-06	513.76	176.47	103.43	37.807	6.8617e-06	66.934	362.379	500.616	492.803	170.139	316.706	202.725	169.011	174.453	249.169	217.779	172.785	176.683	177.776	183.897	160.713	182.021	-8191	255	
7619.313	1	1	0	0	0.34981	0.18598	0.047798	0.30707	0.14467	0.073042	0.014661	0.21778	0.23935	0.10667	0.22848	0.14963	0.27171	0.087411	0.20105	0.34576	-1.8333	-2.5792	-2.4542	-2.2021	-2.7438	-2.3167	-2.7875	-2.675	-2.2	-2.7333	-2.5979	-2.3958	-2.5375	-2.4583	-2.5646	-2.6	216.368	243.658	515.854	447.456	332.366	210.652	187.224	484.359	203.646	205.808	460.108	509.700	368.865	266.237	424.480	433.776	0.0014557	0.00057826	3.7541e-05	933.05	1.2106e-05	6.7991e-06	1234.7	341.66	1.0116e-05	1.4174e-05	512.85	177.71	100.28	36.208	4.9124e-06	66.844	0.00053445	0.00056172	0.00017364	968.06	5.7783e-06	6.2634e-06	1254	347.95	5.7163e-06	6.3572e-06	513.14	176.18	103.23	38.258	6.6926e-06	66.852	349.363	166.480	209.347	170.333	294.350	213.233	168.914	174.400	218.873	210.027	172.909	176.553	177.732	183.689	291.846	181.991	-8191	255	
7619.434	1	1	0	0	0.092429	0.1837	0.17757	0.35162	0.16689	0.064823	0.21311	0.1877	0.13441	0.23825	0.035515	0.24517	0.19592	0.13112	0.24048	0.35497	-1.7458	-2.5896	-2.1917	-2.4938	-2.6083	-2.375	-2.6208	-2.8167	-2.2292	-2.4	-2.4708	-2.3771	-2.6042	-2.5583	-2.3312	-2.8396	303.554	171.690	185.111	253.361	453.411	235.693	413.946	486.993	334.454	412.516	171.752	502.844	469.584	432.053	389.210	466.256	0.0016851	0.0010164	0.00017132	928.45	1.1789e-06	1.3382e-05	1230	342.84	8.8831e-06	4.6585e-06	511.13	177.37	100.29	36.03	8.5078e-06	66.723	0.0005244	0.00059455	0.00016763	964.66	5.6649e-06	6.594e-06	1249.7	347.52	5.6573e-06	6.5942e-06	509.93	175.43	102.91	38.213	6.2493e-06	66.398	360.631	200.420	292.723	170.124	259.563	192.702	168.839	174.434	224.551	247.691	172.643	176.481	177.681	183.671	347.275	181.893	-8191	255	
7619.528	1	1	0	0	0.062018	0.19355	0.15045	0.55699	0.2799	0.26288	0.10549	0.1921	0.15069	0.1531	0.28937	0.34594	0.32484	0.22053	0.097249	0.20329	-1.6958	-2.5563	-2.3958	-2.2292	-2.3667	-2.4521	-2.425	-2.7229	-2.2833	-2.4229	-2.6083	-2.5021	-2.6375	-2.3563	-2.3771	-2.7354	425.270	167.258	239.441	177.836	409.318	360.850	205.905	437.317	385.884	390.462	447.861	456.131	294.635	313.589	249.441	471.146	0.0018969	0.00076464	0.00023853	929.9	6.9335e-06	9.5695e-06	1227	343.19	1.2469e-05	1.2346e-05	511.86	178.58	100.75	35.975	7.6754e-06	66.256	0.00052957	0.0006093	0.00015872	961.31	5.8586e-06	6.7152e-06	1245.8	347.38	5.8977e-06	6.6399e-06	508.42	175.17	104.29	38.284	5.9521e-06	65.843	346.936	159.256	251.224	170.224	174.715	221.123	168.783	174.381	197.258	294.217	172.866	176.824	177.447	184.061	334.386	182.035	-8191	255	
7619.626	1	1	0	0	0.19065	0.078435	0.063148	0.078918	0.049418	0.23107	0.084307	0.27095	0.18921	0.091807	0.3025	0.14198	0.17512	0.2094	0.395	0.29016	-1.8521	-2.4083	-2.6354	-2.3937	-2.5854	-2.3479	-2.4458	-2.5687	-2.1458	-2.5563	-2.675	-2.2313	-2.4792	-2.4958	-2.3063	-2.8271	487.161	321.734	493.203	446.435	366.168	197.850	459.088	350.168	394.344	403.375	516.200	163.099	186.681	504.277	386.732	443.600	0.0019468	0.00021837	0.00011121	934.26	5.3354e-06	1.6852e-06	1235.9	344.59	1.0383e-05	3.8114e-06	513.79	178.22	100.65	36.128	1.7161e-06	66.443	0.00055955	0.0005967	0.0001513	959.93	6.1539e-06	6.5053e-06	1243.2	346.92	6.2497e-06	6.3803e-06	507.06	174.8	105.47	38.042	5.8233e-06	65.821	344.630	215.988	327.819	170.235	190.492	362.618	168.671	174.372	192.856	347.450	172.875	176.690	178.009	183.825	248.072	181.995	-8191	255	
7619.745	1	1	0	0	0.26609	0.12951	0.11632	0.24915	0.31413	0.083337	0.21138	0.09764	0.039521	0.17994	0.21508	0.1799	0.15716	0.048601	0.20411	0.24953	-1.7729	-2.3	-2.5833	-2.2292	-2.6292	-2.4083	-2.5125	-2.5938	-2.3667	-2.3729	-2.6146	-2.3583	-2.6917	-2.6021	-2.2875	-2.6813	272.814	323.920	268.713	195.736	448.324	510.584	509.286	171.109	513.473	291.034	388.491	452.257	406.260	492.147	171.736	447.958	0.0017948	0.00050139	0.00012255	938.07	2.2655e-06	9.283e-06	1237.4	345.45	1.3143e-05	7.7188e-06	512.18	178.19	100.68	35.976	7.2852e-06	66.335	0.00059695	0.00057709	0.00014802	960.92	6.5427e-06	6.3162e-06	1240.9	347.49	6.5761e-06	6.1017e-06	506.35	174.94	105.96	37.778	5.5585e-06	65.926	345.341	222.383	217.456	169.956	243.531	290.665	168.939	174.670	221.362	344.254	172.960	176.616	177.884	183.958	282.301	182.155	-8191	255	
7619.841	1	1	0	0	0.23672	0.28582	0.21174	0.25921	0.023097	0.0035784	0.037322	0.10914	0.2348	0.13843	0.16113	0.07496	0.37829	0.01404	0.32769	0.19804	-1.95	-2.5167	-2.4521	-2.3604	-2.5958	-2.5396	-2.4417	-2.6688	-2.3312	-2.3479	-2.6792	-2.2646	-2.5208	-2.4458	-2.2417	-2.7958	358.423	501.633	430.422	479.766	459.616	468.755	447.184	158.695	494.546	313.000	468.348	352.830	495.050	267.035	365.037	456.112	0.001937	0.00069571	0.00011121	938.06	6.9162e-06	8.4069e-06	1239	345.51	9.1192e-06	6.4184e-06	516.28	177.55	100.52	35.891	8.2537e-06	66.594	0.00060104	0.00054059	0.00014017	966.02	6.4435e-06	5.8535e-06	1240.4	348.91	6.4232e-06	5.6915e-06	504.67	175.28	105.13	37.331	5.2545e-06	66.429	353.205	334.330	291.999	169.918	327.060	317.562	169.118	174.349	342.058	297.130	172.796	176.645	178.037	183.694	360.883	181.876	-8191	255	
7619.913	1	1	0	0	0.28632	0.33119	0.17198	0.13304	0.27857	0.11087	0.18584	0.24776	0.060999	0.094175	0.20992	0.29429	0.31856	0.016111	0.053794	0.10117	-1.9604	-2.2458	-2.4625	-2.4583	-2.5396	-2.3979	-2.3812	-2.8417	-2.5812	-2.2521	-2.6854	-2.4062	-2.6271	-2.6562	-2.3375	-2.5708	302.317	239.701	160.201	191.936	417.392	268.947	486.329	499.630	212.610	364.122	485.319	172.268	499.628	162.844	358.539	296.688	0.0017869	0.00034276	5.9932e-05	938.84	5.1672e-06	5.2116e-07	1251.5	347.85	1.5654e-06	7.0659e-06	520.41	178.32	101.36	35.733	5.3796e-06	66.428	0.00057602	0.00050769	0.00013202	971.41	6.0533e-06	5.4947e-06	1243.8	351.72	5.9617e-06	5.278e-06	505.9	176.02	103.98	36.921	5.0902e-06	66.396	356.610	196.327	202.704	170.255	294.825	203.228	168.707	174.233	508.414	285.927	172.874	176.489	178.089	183.786	221.910	182.124	-8191	255	
7620.034	1	1	0	0	0.19898	0.060916	0.075285	0.49741	0.11168	0.14168	0.24107	0.30713	0.11129	0.25336	0.17802	0.072667	0.18447	0.30512	0.17147	0.26941	-2.0146	-2.2729	-2.4458	-2.4083	-2.4938	-2.65	-2.3729	-2.7417	-2.4	-2.0167	-2.8312	-2.2812	-2.4771	-2.6063	-2.2021	-2.4833	328.819	377.082	389.644	485.561	306.357	164.418	399.415	451.287	457.082	158.732	487.027	266.677	394.451	476.509	497.942	505.278	0.0018007	0.00046606	0.00016062	942.17	5.5371e-06	7.3535e-06	1246	349.31	9.5371e-06	7.3664e-06	520.59	177.94	101.12	35.724	7.7615e-06	66.009	0.0005457	0.00048766	0.0001348	978.66	5.8733e-06	5.4016e-06	1245.5	354.22	5.7797e-06	5.18e-06	507.95	176.52	103.38	36.729	5.2819e-06	66.164	352.472	177.615	504.188	170.012	283.591	287.009	168.818	174.241	333.806	420.109	172.903	176.550	178.042	184.192	161.850	181.952	-8191	255	
7620.130	1	1	0	0	0.39135	0.25453	0.25167	0.12038	0.10852	0.066528	0.0077295	0.021516	0.050394	0.048638	0.088841	0.20496	0.012528	0.06914	0.17451	0.25397	-2.025	-2.1562	-2.4562	-2.4062	-2.375	-2.7396	-2.4688	-2.6146	-2.5896	-2.2542	-2.7875	-2.4688	-2.4042	-2.875	-2.1604	-2.6396	361.394	355.220	167.664	428.184	357.361	431.953	490.544	264.217	439.084	469.863	300.961	475.691	258.605	354.572	364.433	384.850	0.001618	0.00080851	0.00022689	942.83	6.7765e-06	7.3049e-06	1247.3	349.98	5.0956e-06	8.4609e-06	522.21	179.46	101.54	35.672	7.475e-06	65.992	0.00051245	0.00045986	0.0001382	977.61	5.4761e-06	5.1125e-06	1249.3	354.44	5.5089e-06	4.9913e-06	511.76	177.08	103.2	36.696	5.6971e-06	65.941	362.440	286.970	183.899	170.126	301.044	267.667	168.714	174.507	282.450	329.910	172.632	176.544	177.889	183.937	179.374	182.143	-8191	255	
7620.226	1	1	0	0	0.30108	0.16343	0.25671	0.054257	0.067599	0.22709	0.46609	0.042919	0.085009	0.099936	0.2178	0.18731	0.15001	0.13713	0.19343	0.080303	-2.1688	-2.2687	-2.8167	-2.3312	-2.2812	-2.6833	-2.5104	-2.6542	-2.7333	-2.2542	-2.8146	-2.5125	-2.3167	-2.6667	-2.3833	-2.5875	474.910	369.554	413.733	243.921	214.109	385.324	496.749	479.553	196.801	438.303	437.308	457.418	199.769	482.676	385.165	493.021	0.0017308	0.00052498	0.00015884	943.88	3.6835e-06	5.4131e-06	1246.8	350.35	6.9633e-06	6.074e-06	522.16	179.12	101.23	35.717	6.6044e-06	65.724	0.00050184	0.00045118	0.00014692	975.46	5.3e-06	5.0439e-06	1253.6	353.45	5.3779e-06	4.9857e-06	514.4	176.37	102.76	36.665	5.9554e-06	65.576	357.963	175.186	211.069	170.429	287.185	282.401	168.899	174.476	324.029	242.078	172.847	176.547	177.899	183.947	215.819	182.091	-8191	255	
7620.322	1	1	0	0	0.29743	0.078069	0.16004	0.11278	0.2594	0.09423	0.24542	0.16262	0.051981	0.14177	0.027107	0.14837	0.098483	0.26264	0.066073	0.24436	-2.1208	-2.3146	-2.5521	-2.3833	-2.2354	-2.6354	-2.7146	-2.5104	-2.5792	-2.4583	-2.7	-2.5229	-2.4333	-2.6104	-2.5146	-2.5187	457.400	216.088	256.931	492.896	319.742	255.307	445.788	192.823	383.243	242.028	427.311	467.592	217.243	229.479	514.146	469.123	0.0013918	0.0005996	0.00019081	944.74	6.3234e-06	1.3545e-05	1246	349.9	8.9363e-06	6.6503e-06	519.91	179.61	101.51	35.825	4.339e-06	65.681	0.00048587	0.00047236	0.00015333	972.54	5.1863e-06	5.2431e-06	1258.5	353.05	5.2571e-06	5.3231e-06	515.97	175.84	102.34	36.919	6.0896e-06	65.13	362.770	427.909	205.966	170.283	294.807	219.319	168.834	174.415	299.663	223.764	172.636	176.734	177.765	183.630	298.907	182.128	-8191	255	
7620.441	1	1	0	0	0.071951	0.077786	0.2286	0.12179	0.092934	0.075406	0.22238	0.30248	0.17066	0.11534	0.24222	0.16426	0.24028	0.19113	0.098779	0.22116	-2.1229	-2.2771	-2.6458	-2.4333	-2.1625	-2.7313	-2.7062	-2.6625	-2.6271	-2.2979	-2.7062	-2.7125	-2.2542	-2.6729	-2.525	-2.4313	346.138	397.536	511.208	475.288	438.653	277.503	460.363	473.621	227.918	343.496	439.274	338.650	480.738	432.832	195.329	202.499	0.0015182	0.0011836	0.00010751	940.11	5.4773e-06	4.0274e-06	1245.2	350.39	2.0713e-06	1.1003e-05	520.17	179.39	101.72	35.645	4.4595e-06	65.337	0.00047752	0.00050143	0.00015271	968.22	5.0283e-06	5.616e-06	1255.2	352.04	5.1059e-06	5.7245e-06	514.43	175.92	102.56	37.283	5.9698e-06	64.88	355.861	494.973	339.507	170.354	191.225	164.120	168.713	174.383	383.932	196.747	172.843	176.623	177.964	183.875	315.332	182.204	-8191	255	
7620.537	1	1	0	0	0.25523	0.15065	0.14865	0.12713	0.37852	0.10723	0.36189	0.33953	0.23657	0.089381	0.1841	0.29765	0.19081	0.11804	0.14508	0.14161	-2.3083	-2.3979	-2.4458	-2.5292	-2.2167	-2.6146	-2.7854	-2.4479	-2.6271	-2.5062	-2.6188	-2.7104	-2.3271	-2.7104	-2.3083	-2.4792	340.939	332.797	292.934	506.988	361.563	163.551	483.159	425.522	261.981	296.063	455.214	482.076	221.497	171.660	507.703	486.839	0.0014716	0.00033549	0.000126	941.46	5.6104e-06	7.7513e-06	1242.1	350.36	4.1191e-06	1.6623e-06	521.08	179.02	101.57	35.578	6.1565e-06	65.617	0.0004768	0.00054287	0.00014839	964.59	5.0905e-06	5.9742e-06	1250.9	351.77	5.1372e-06	6.0064e-06	511.31	175.22	102.72	37.371	5.6843e-06	64.729	355.386	469.358	266.560	170.248	216.851	207.209	169.036	174.323	211.652	304.367	172.681	176.633	177.740	183.854	335.715	182.126	-8191	255	
7620.611	1	1	0	0	0.10212	0.031786	0.19724	0.051444	0.082699	0.11144	0.15829	0.29543	0.25505	0.13263	0.31524	0.2838	0.024488	0.07281	0.052282	0.088363	-2.1354	-2.4	-2.3833	-2.8208	-2.1833	-2.6	-2.65	-2.5125	-2.6729	-2.4354	-2.3854	-2.5687	-2.3396	-2.4896	-2.5917	-2.2875	364.102	266.870	397.021	382.381	510.113	289.887	388.885	452.214	464.188	311.319	384.917	220.341	235.033	480.660	474.242	409.566	0.0018777	0.00015588	0.00022899	939.07	5.6225e-06	7.4106e-06	1242.7	349.97	9.8371e-06	7.5329e-06	520.84	179.12	102.44	35.817	6.029e-06	65.346	0.0004872	0.00055503	0.00014287	962.47	5.3909e-06	6.0997e-06	1249.3	351.14	5.4848e-06	6.1041e-06	509.7	174.96	104.04	37.431	5.4301e-06	64.606	348.173	405.711	357.928	170.205	197.607	305.934	168.855	174.325	228.907	420.537	172.963	176.553	177.632	184.071	284.232	181.904	-8191	255	
7620.707	1	1	0	0	0.24306	0.080411	0.11308	0.13157	0.16858	0.2403	0.23218	0.10148	0.30944	0.13552	0.19467	0.36055	0.086452	0.043225	0.07705	0.44318	-2.1104	-2.45	-2.2896	-2.7521	-2.3063	-2.5625	-2.7875	-2.5687	-2.6896	-2.4083	-2.4042	-2.8854	-2.3354	-2.5771	-2.5458	-2.5	393.533	502.486	444.133	183.865	292.969	317.154	415.420	418.164	200.620	448.984	443.976	475.270	162.088	328.001	299.832	423.383	0.0022308	0.00068179	0.00021343	942.23	8.6554e-06	5.9644e-06	1240.9	349.33	1.66e-06	6.1249e-06	521.82	178.27	101.15	35.45	4.265e-06	65.163	0.0005076	0.00053159	0.00013183	956.67	5.514e-06	5.6948e-06	1242.9	349.12	5.6646e-06	5.7485e-06	507.97	173.49	104.15	36.874	5.1648e-06	64.124	348.266	237.240	296.220	169.989	191.854	288.385	168.993	174.362	363.552	323.786	172.781	176.227	177.911	183.916	350.355	181.924	-8191	255	
7620.826	1	1	0	0	0.21769	0.10766	0.19188	0.26358	0.23959	0.23397	0.14734	0.28485	0.19725	0.30798	0.1578	0.162	0.086393	0.29415	0.23625	0.29892	-2.2188	-2.4667	-2.3	-2.7125	-2.3646	-2.4583	-2.6333	-2.3896	-2.5604	-2.5083	-2.4396	-2.4646	-2.2896	-2.4729	-2.5354	-2.2667	213.362	307.088	183.050	479.721	270.846	351.689	245.967	442.904	498.607	287.776	498.456	302.610	238.248	442.604	345.682	443.089	0.0018848	0.0010132	0.00019356	941.63	3.7874e-06	1.077e-05	1241.7	350.7	2.1288e-06	6.615e-06	524.27	177.66	101.43	35.304	3.7223e-06	65.12	0.00052939	0.0005091	0.0001265	956.68	5.6884e-06	5.3585e-06	1238.7	349.57	5.733e-06	5.3556e-06	506.3	173.64	104.35	36.533	5.0115e-06	64.168	347.952	279.597	300.936	170.253	221.742	327.030	169.068	174.393	297.519	399.577	172.975	176.221	178.214	183.886	332.231	182.061	-8191	255	
7620.922	1	1	0	0	0.30139	0.12572	0.11931	0.23962	0.10428	0.070101	0.21467	0.46252	0.2175	0.024254	0.21766	0.13569	0.10683	0.35137	0.072478	0.18072	-2	-2.3937	-2.2875	-2.6854	-2.4292	-2.5208	-2.8917	-2.5042	-2.4875	-2.5292	-2.2917	-2.9375	-2.3854	-2.5604	-2.6479	-2.5021	324.595	263.628	345.516	188.897	403.539	175.397	475.524	442.469	246.923	498.214	417.662	422.231	195.777	439.904	213.244	415.068	0.0016166	0.0010068	0.00010992	940.08	6.1666e-06	2.6158e-06	1247.9	352.6	3.2916e-06	8.1042e-06	522.73	178.77	101.38	35.492	4.8286e-06	64.816	0.00054366	0.00049192	0.00012566	963.23	5.9356e-06	5.2657e-06	1239.7	352.62	5.8404e-06	5.2964e-06	504.8	175.07	104.76	36.475	4.9358e-06	64.676	343.197	264.534	220.953	170.137	260.396	304.923	168.937	174.482	223.822	347.609	172.837	176.393	178.052	184.087	221.324	182.042	-8191	255	
7621.018	1	1	0	0	0.28492	0.19599	0.23727	0.1501	0.11021	0.255	0.17405	0.06885	0.026403	0.10937	0.20126	0.30212	0.085513	0.11281	0.066732	0.3619	-1.975	-2.4854	-2.05	-2.6854	-2.5187	-2.2979	-2.8354	-2.3833	-2.5312	-2.7167	-2.2438	-2.7854	-2.7438	-2.4792	-2.6896	-2.4646	263.722	460.792	308.296	221.024	439.125	382.022	432.514	282.495	276.987	162.653	487.686	490.352	198.532	276.121	431.813	185.365	0.0017119	0.00038502	6.8113e-05	940.89	9.2459e-06	3.2453e-06	1240.1	350.96	7.1636e-06	9.2426e-06	522.67	178.81	101.7	35.394	3.0545e-06	65.103	0.00053749	0.00048444	0.00012472	970.9	5.8749e-06	5.2496e-06	1237.1	354.77	5.7882e-06	5.2934e-06	506.62	176.16	104.54	36.479	5.0671e-06	65.327	357.029	323.724	239.802	169.984	308.657	280.096	168.923	174.454	243.956	379.958	172.718	176.325	178.132	183.847	348.358	182.168	-8191	255	
7621.114	1	1	0	0	0.10879	0.07375	0.026929	0.063383	0.19272	0.23275	0.10722	0.09115	0.13327	0.059593	0.28222	0.052795	0.35715	0.17232	0.36125	0.34617	-2.1479	-2.5458	-2.3292	-2.6937	-2.5	-2.3771	-2.9	-2.5167	-2.4208	-2.5917	-2.2438	-2.6521	-2.5875	-2.3396	-2.5812	-2.65	421.937	179.072	244.912	271.703	426.375	238.653	423.117	473.334	429.244	513.465	161.801	166.033	483.325	174.608	297.770	422.873	0.0016123	0.00059692	0.0001629	940.84	8.2561e-06	7.8053e-06	1246.4	351.83	6.839e-06	4.7464e-06	522.7	177.9	101.36	35.678	7.616e-06	65.523	0.00052404	0.00048088	0.00012914	975.65	5.7015e-06	5.1439e-06	1244.2	355.44	5.5481e-06	5.1582e-06	507.82	176.21	103.8	36.53	5.3533e-06	65.742	359.566	266.818	168.391	170.030	291.326	231.142	168.863	174.193	198.797	346.912	172.673	176.638	178.085	184.136	201.597	181.883	-8191	255	
7621.210	1	1	0	0	0.1408	0.053886	0.096489	0.11141	0.24354	0.10614	0.31266	0.19688	0.14374	0.12998	0.29407	0.2694	0.25714	0.17051	0.11552	0.11016	-2.0042	-2.5729	-2.1708	-2.6104	-2.7396	-2.2958	-2.8208	-2.6979	-2.5229	-2.7083	-2.4292	-2.6354	-2.5729	-2.4771	-2.7667	-2.5396	221.677	324.057	421.521	418.083	206.820	323.897	420.244	178.806	176.790	295.452	432.992	472.400	212.182	349.877	167.988	404.665	0.0017973	0.00082674	0.00017387	942.67	4.5888e-06	8.811e-06	1241.4	349.56	1.1051e-05	5.74e-06	519.15	178.29	101.76	35.858	8.7761e-06	65.66	0.00050564	0.00046458	0.00013755	974.92	5.4641e-06	4.9863e-06	1245.4	354.33	5.4331e-06	5.0993e-06	510.88	176.48	103.83	36.779	5.941e-06	65.838	363.631	226.667	178.449	170.130	327.877	275.854	168.841	174.320	246.615	353.305	172.775	176.641	177.908	183.618	212.818	182.106	-8191	255	
7621.306	1	1	0	0	0.137	0.25293	0.039385	0.16711	0.071579	0.19436	0.147	0.23821	0.2001	0.25086	0.1884	0.29468	0.19465	0.15393	0.1171	0.058395	-1.875	-2.575	-2.2646	-2.5687	-2.525	-2.3083	-2.775	-2.5729	-2.3917	-2.6917	-2.4146	-2.5833	-2.5625	-2.3458	-2.6063	-2.5917	510.775	291.323	441.557	487.824	429.271	274.830	436.421	469.021	295.451	170.342	160.642	470.706	350.690	157.469	242.457	454.634	0.0014997	0.00081915	0.0001547	935.56	4.0017e-06	3.7151e-06	1236.4	349.79	8.9177e-06	5.869e-06	518.42	177.41	101.75	35.86	7.6868e-06	65.245	0.0005132	0.00047457	0.00015428	972.31	5.5892e-06	5.19e-06	1251.6	353.99	5.4763e-06	5.282e-06	514.46	175.74	103.73	36.864	6.26e-06	65.48	345.526	220.224	448.017	170.009	310.659	220.022	169.018	174.509	314.018	233.543	172.751	176.691	178.152	183.659	508.122	181.979	-8191	255	
7621.427	1	1	0	0	0.040316	0.078743	0.15281	0.11405	0.30367	0.16213	0.19929	0.22631	0.084924	0.12526	0.26413	0.36901	0.18912	0.15084	0.18481	0.18671	-1.8354	-2.4604	-2.2875	-2.5021	-2.6396	-2.2417	-2.7313	-2.7062	-2.1063	-2.7458	-2.6063	-2.5438	-2.5396	-2.1833	-2.6354	-2.5646	235.157	450.921	405.522	491.624	393.303	398.257	310.534	443.451	277.750	475.971	391.387	482.889	507.827	513.829	318.744	445.167	0.0017913	0.00018795	7.3111e-05	938.97	7.9175e-06	9.7097e-06	1240	349.63	7.0326e-06	2.9952e-06	518.72	178.67	101.54	35.907	2.0984e-06	65.655	0.00049952	0.00049493	0.00016047	969.34	5.4525e-06	5.4981e-06	1255.5	353.33	5.428e-06	5.668e-06	516.81	176	103.69	37.444	6.4277e-06	65.624	366.161	503.727	277.893	170.180	290.816	198.835	168.815	174.334	319.419	251.369	172.988	176.589	178.258	183.837	426.217	181.965	-8191	255	
7621.521	1	1	0	0	0.23563	0.032956	0.155	0.33264	0.098532	0.28258	0.11152	0.28042	0.082048	0.013876	0.16954	0.29671	0.11144	0.45053	0.17269	0.17411	-1.8438	-2.5604	-2.5167	-2.3854	-2.6562	-2.5292	-2.675	-2.5375	-2.2146	-2.6562	-2.6396	-2.5146	-2.7083	-2.3375	-2.525	-2.6354	288.714	503.129	344.734	512.752	431.438	268.713	510.182	496.302	244.623	217.390	493.866	424.547	485.954	480.277	474.792	428.030	0.0016796	0.0011713	0.00024543	938.82	9.247e-06	1.4513e-05	1237.6	350.19	4.5243e-06	8.4969e-06	520.04	179.97	102.06	35.922	2.9602e-06	65.403	0.00049642	0.00053889	0.00016248	968.42	5.3964e-06	6.0114e-06	1256.1	354.13	5.3904e-06	6.1294e-06	517	176.67	104.06	37.823	6.2319e-06	65.607	360.878	502.664	296.486	170.177	280.517	188.719	168.856	174.319	368.780	209.482	172.975	176.499	178.015	183.683	402.989	182.073	-8191	255	
7621.618	1	1	0	0	0.10621	0.26055	0.28473	0.28186	0.3229	0.048469	0.066839	0.44104	0.21866	0.12251	0.064807	0.17318	0.061356	0.056977	0.063112	0.055485	-1.9542	-2.4354	-2.3875	-2.525	-2.7708	-2.3271	-2.5	-2.6417	-2.4875	-2.4979	-2.7083	-2.5	-2.6583	-2.3083	-2.3812	-2.7062	271.137	178.188	279.841	416.800	390.691	351.571	457.918	505.178	238.125	168.378	216.134	191.394	446.095	487.996	493.692	508.536	0.0018452	0.00049282	0.00014271	940.42	2.6759e-06	9.8365e-06	1240	350.67	1.4218e-05	1.5624e-06	517.93	177.74	101.37	35.823	6.0897e-06	65.42	0.00049932	0.00057272	0.00015674	965.81	5.3772e-06	6.2907e-06	1250.8	352.43	5.3721e-06	6.3039e-06	513.4	175.03	103.94	37.895	5.9309e-06	65.116	353.792	212.812	352.886	170.315	283.396	248.892	169.032	174.377	216.347	204.401	172.929	176.645	177.944	183.882	226.863	182.282	-8191	255	
7621.714	1	1	0	0	0.2034	0.17474	0.13798	0.14821	0.030997	0.12649	0.25944	0.13293	0.012548	0.080416	0.2076	0.2465	0.040267	0.15926	0.23373	0.19322	-1.8375	-2.4271	-2.6083	-2.3542	-2.5833	-2.2479	-2.7687	-2.7479	-2.3521	-2.4708	-2.7333	-2.2458	-2.6375	-2.4354	-2.3083	-2.7562	343.308	432.311	419.912	515.985	421.431	237.464	442.040	442.920	365.001	361.103	188.647	437.964	514.599	213.418	185.991	202.581	0.0018045	0.00024049	0.00013676	938.83	3.8742e-06	1.0746e-06	1236.9	350.53	9.0101e-06	9.5822e-06	519.81	178.62	102.4	35.897	8.2295e-06	65.794	0.00051879	0.0005902	0.00015237	964.74	5.7692e-06	6.5227e-06	1246.7	352.6	5.8736e-06	6.4261e-06	512.09	175.02	105.51	38.01	5.8553e-06	65.267	348.874	278.488	383.896	170.289	225.954	371.649	169.005	174.445	240.164	295.836	172.981	176.356	177.585	184.065	290.132	182.010	-8191	255	
7621.834	1	1	0	0	0.10711	0.23331	0.1028	0.25287	0.23073	0.061329	0.12716	0.13858	0.015632	0.09253	0.13194	0.13144	0.12137	0.13722	0.057872	0.16681	-1.9375	-2.5208	-2.5604	-2.2042	-2.7042	-2.4125	-2.6688	-2.9271	-2.3792	-2.625	-2.6521	-2.5604	-2.8125	-2.3625	-2.325	-2.7104	344.664	448.866	184.568	478.784	409.249	267.195	165.842	476.075	213.384	312.048	179.597	395.744	210.535	516.019	379.056	187.341	0.0020764	0.00086288	9.2471e-05	937.39	5.1868e-06	7.8136e-06	1234.5	349.54	6.9817e-06	5.6551e-06	516.68	178.35	101.23	35.838	7.2216e-06	65.667	0.00056816	0.00059213	0.00015067	962.3	6.3464e-06	6.5689e-06	1245.3	351.35	6.4495e-06	6.3801e-06	510.99	174.81	106.41	37.963	5.7746e-06	65.416	343.911	235.079	309.183	170.197	229.580	345.789	169.015	174.368	514.295	345.846	172.774	176.731	177.690	183.697	244.887	181.862	-8191	255	
7621.906	1	1	0	0	0.2026	0.16659	0.020467	0.16496	0.1156	0.10449	0.19378	0.13548	0.12203	0.37841	0.18509	0.33484	0.21507	0.16501	0.1263	0.12577	-1.9062	-2.2979	-2.5958	-2.5625	-2.5292	-2.5729	-2.4208	-2.7062	-2.3458	-2.5229	-2.7375	-2.3625	-2.6229	-2.5729	-2.0833	-2.775	233.747	253.681	447.794	477.333	307.758	286.785	408.822	437.456	469.307	317.083	450.758	450.237	379.050	472.040	407.611	169.687	0.0016268	0.00095355	0.00024966	936.19	5.7848e-06	1.2939e-05	1232.7	349.8	4.3263e-06	2.7602e-06	517.87	179.47	102.05	36.312	1.6368e-06	66.097	0.0006084	0.00057252	0.00014773	965.45	6.683e-06	6.3471e-06	1243.3	352.8	6.8331e-06	6.2608e-06	510.37	176.48	107.9	38.072	5.7328e-06	66.096	354.730	219.415	285.023	170.049	220.354	329.833	169.180	174.281	213.531	326.978	172.621	176.440	177.925	183.627	371.576	181.979	-8191	255	
7622.002	1	1	0	0	0.10966	0.17302	0.18673	0.41992	0.19224	0.27492	0.22183	0.27456	0.037269	0.22359	0.24195	0.21771	0.18291	0.03659	0.050817	0.19155	-2.0729	-2.2042	-2.4854	-2.3917	-2.6937	-2.4437	-2.3187	-2.8146	-2.3583	-2.5687	-2.6125	-2.5208	-2.6646	-2.6229	-2.1729	-2.9396	457.989	341.897	387.929	190.249	223.931	366.719	179.917	496.807	288.696	256.846	488.737	443.660	247.592	215.771	447.644	400.258	0.001663	0.00058504	0.0001773	935.26	2.7528e-06	5.3677e-06	1237.2	349.95	1.5532e-05	4.3829e-06	518.63	179.78	102.23	36.048	1.2862e-06	65.986	0.00062675	0.00055688	0.00014396	970.94	6.6997e-06	6.0298e-06	1241.7	354.73	6.6876e-06	5.9468e-06	509.14	177.7	107.52	37.906	5.5994e-06	66.526	364.433	210.373	303.725	169.994	304.490	309.159	168.974	174.234	276.217	343.853	172.967	176.524	177.931	183.801	507.840	181.825	-8191	255	
7622.098	1	1	0	0	0.12653	0.11679	0.16394	0.24474	0.092753	0.079696	0.17477	0.13394	0.04905	0.11718	0.32576	0.12464	0.44118	0.20008	0.06811	0.15252	-1.8813	-2.2313	-2.6479	-2.3521	-2.6437	-2.7125	-2.3063	-2.7313	-2.45	-2.2292	-2.8937	-2.5917	-2.5729	-2.6625	-2.4229	-2.6562	429.120	465.935	506.089	445.142	496.552	186.408	408.470	454.826	509.947	428.190	181.260	472.123	459.845	489.822	257.859	387.297	0.0018805	0.00096611	0.00016012	938.13	3.4734e-06	6.1659e-06	1237.2	349.16	8.1881e-06	7.514e-06	517.53	178.83	101.86	36.23	6.8781e-06	65.903	0.00061276	0.00054211	0.00014311	979.55	6.5405e-06	6.0026e-06	1240.3	356.4	6.5331e-06	5.8425e-06	508.03	178.16	106.74	37.799	5.6679e-06	66.698	357.563	242.358	316.098	170.239	342.609	399.673	168.952	174.204	330.236	321.248	172.741	176.470	177.987	183.796	228.302	182.109	-8191	255	
7622.219	1	1	0	0	0.19868	0.52539	0.06902	0.24952	0.14478	0.25667	0.32117	0.053543	0.34478	0.21087	0.27889	0.2893	0.2254	0.25361	0.14182	0.21719	-1.9979	-2.3104	-2.5542	-2.5792	-2.4896	-2.4083	-2.4667	-2.5812	-2.3917	-2.6375	-2.8771	-2.6104	-2.5333	-2.6604	-2.3521	-2.55	448.826	315.129	495.280	489.898	381.591	299.230	463.934	435.332	427.643	326.655	402.246	508.853	181.152	490.679	494.204	464.613	0.0016832	0.00080098	0.00024463	938.45	7.9117e-06	8.2219e-06	1235.4	349.94	4.8602e-06	1.3239e-06	518.5	179.39	102.45	36.37	5.8266e-06	66.031	0.00058543	0.00052187	0.0001454	982.37	6.2022e-06	5.7326e-06	1241.9	357.46	6.1824e-06	5.5983e-06	510.92	178.81	106.15	37.633	5.9401e-06	66.775	353.607	217.910	516.064	170.203	329.002	364.836	169.040	174.374	201.854	318.861	172.598	176.617	178.080	183.834	199.838	181.924	-8191	255	
7622.315	1	1	0	0	0.038702	0.12129	0.18836	0.16175	0.16533	0.18171	0.20043	0.081213	0.16944	0.23229	0.1711	0.21726	0.20051	0.14075	0.39605	0.17922	-2.0375	-2.2146	-2.5438	-2.6229	-2.4792	-2.7604	-2.4313	-2.6979	-2.7188	-2.2083	-2.9938	-2.5625	-2.4813	-2.7667	-2.3042	-2.4354	354.794	277.942	509.216	189.115	356.350	175.657	464.187	328.379	238.695	203.335	174.346	509.981	205.417	452.820	281.061	365.946	0.0017254	0.00088289	0.0002055	935.45	2.2946e-06	2.6138e-06	1238.9	350.27	4.9323e-06	5.6822e-06	520.64	178.72	101.94	36.354	8.6516e-06	65.888	0.00055877	0.00050484	0.00015265	980.97	5.955e-06	5.5427e-06	1248.6	357.65	6.0099e-06	5.5136e-06	515.94	178.55	105.64	37.557	6.3645e-06	66.492	357.488	287.023	175.453	170.259	389.432	356.348	168.844	174.482	206.943	255.796	172.733	176.699	178.121	183.985	186.448	181.932	-8191	255	
7622.411	1	1	0	0	0.12542	0.2017	0.31257	0.31681	0.17572	0.10502	0.27471	0.34952	0.24344	0.097675	0.1533	0.11429	0.25367	0.096553	0.14032	0.064344	-1.9979	-2.0667	-2.4229	-2.5875	-2.3521	-2.6771	-2.7229	-2.5042	-2.5875	-2.3375	-2.7521	-2.5917	-2.4104	-2.7979	-2.2979	-2.6583	206.887	289.090	190.661	160.379	386.644	167.962	441.094	446.110	441.943	244.680	493.259	484.157	332.471	475.722	420.287	183.942	0.0015344	0.00063846	7.1514e-05	937.69	3.9873e-06	8.4792e-06	1238.1	350.44	3.4187e-06	6.529e-06	520.52	179.25	102.63	36.27	2.8923e-06	65.784	0.00054103	0.00049211	0.00016104	977.26	5.7356e-06	5.4792e-06	1255.9	356.18	5.7908e-06	5.5341e-06	518.13	177.7	104.89	37.593	6.5521e-06	66.088	357.796	160.221	487.297	170.379	340.675	256.427	169.008	174.472	319.507	252.206	172.764	176.512	178.097	184.048	478.007	181.914	-8191	255	
7622.507	1	1	0	0	0.14829	0.11797	0.14789	0.067618	0.26231	0.060076	0.12281	0.4961	0.11394	0.22797	0.20878	0.084942	0.051879	0.24409	0.18335	0.21734	-2.1125	-2.0875	-2.7229	-2.5729	-2.4021	-2.6312	-2.7188	-2.4167	-2.5979	-2.3312	-2.7062	-2.7313	-2.1375	-2.525	-2.5708	-2.3375	376.087	444.341	512.815	473.299	177.935	341.960	212.197	512.690	478.493	334.097	156.991	176.095	435.778	438.445	378.642	180.142	0.0017381	0.0012268	0.0001739	938.55	4.6637e-06	3.654e-06	1237.8	350.3	6.07e-06	6.267e-06	520.89	179.47	102.91	36.375	1.5434e-06	66.003	0.00052538	0.00051091	0.00016479	973.9	5.4981e-06	5.6994e-06	1257.6	355.49	5.5475e-06	5.8299e-06	519.74	177.7	104.81	37.991	6.6082e-06	66.007	359.138	500.448	185.728	170.297	320.654	515.939	168.805	174.459	261.480	226.155	172.894	176.364	177.878	183.845	452.987	181.665	-8191	255	
7622.604	1	1	0	0	0.21189	0.21477	0.10152	0.23816	0.24638	0.1826	0.4171	0.16439	0.18618	0.14178	0.12945	0.19903	0.23718	0.30534	0.18486	0.27679	-2.1063	-2.0938	-2.5292	-2.7479	-2.2646	-2.6021	-2.5438	-2.4771	-2.6417	-2.3125	-2.6562	-2.6771	-2.2042	-2.5917	-2.5958	-2.4021	349.355	513.807	431.580	488.491	212.716	177.069	459.729	431.422	250.390	158.162	448.867	439.495	430.456	493.753	345.947	493.805	0.0015237	0.0012868	9.492e-05	941.28	3.0167e-06	8.929e-06	1240.9	351.35	2.4518e-06	5.5523e-06	518.55	179.96	102.48	36.343	8.2538e-06	65.661	0.00051597	0.00056102	0.00016731	973.78	5.5078e-06	6.241e-06	1257.5	355.03	5.5579e-06	6.3216e-06	517.44	177.44	104.79	38.45	6.5089e-06	65.803	367.798	477.736	336.986	170.308	247.575	204.445	169.048	174.468	194.762	221.418	173.044	176.413	177.935	183.744	288.011	181.865	-8191	255	
7622.698	1	1	0	0	0.16115	0.015408	0.049322	0.11185	0.22105	0.21169	0.24738	0.40667	0.048144	0.18066	0.13663	0.26526	0.10774	0.1354	0.17749	0.1864	-2.2604	-2.3438	-2.6021	-2.6604	-2.2167	-2.6708	-2.5167	-2.2542	-2.7271	-2.4896	-2.4646	-2.7979	-2.2646	-2.6396	-2.5604	-2.3625	362.872	226.537	463.058	342.121	476.621	293.438	398.290	428.732	180.940	184.240	379.257	446.673	246.837	491.421	315.780	400.083	0.0015832	0.0012497	0.00010281	935.15	1.2555e-05	4.5622e-06	1228.3	350.51	9.1342e-06	1.3274e-05	518.31	180.45	102.84	36.427	6.0611e-06	65.924	0.00053347	0.00061445	0.0001662	973.42	5.8187e-06	6.8918e-06	1255.7	355	5.9773e-06	6.9417e-06	516.41	177.96	105.94	38.766	6.272e-06	65.72	359.031	494.649	320.825	170.441	218.813	209.057	168.867	174.481	193.016	207.883	172.934	176.466	177.866	183.793	333.513	181.884	-8191	255	
7622.796	1	1	0	0	0.10286	0.2412	0.13592	0.073751	0.11161	0.10875	0.16619	0.20481	0.077794	0.12768	0.035037	0.1926	0.042746	0.31518	0.15415	0.25605	-2.2542	-2.4083	-2.4062	-2.7604	-2.4292	-2.5375	-2.7354	-2.5083	-2.55	-2.3271	-2.4188	-2.7479	-2.3521	-2.5521	-2.7125	-2.3167	336.828	448.358	309.278	376.403	188.131	192.413	375.100	489.915	287.321	516.104	473.638	499.795	397.437	207.474	289.508	276.344	0.0019884	0.00065591	0.00013838	935.77	7.2273e-06	1.1655e-06	1237.4	350.42	1.6651e-05	8.3114e-06	521.36	179.97	102.89	36.378	4.9558e-06	65.938	0.00054292	0.00060672	0.00015138	965.15	5.8069e-06	6.4066e-06	1249.1	352.73	5.8285e-06	6.3916e-06	512.92	176.38	106.33	38.307	5.7521e-06	65.293	358.270	209.359	399.160	170.402	496.903	446.312	169.133	174.551	219.123	272.708	173.011	176.539	177.550	183.895	335.698	182.140	-8191	255	
7622.915	1	1	0	0	0.018211	0.22572	0.11435	0.10993	0.29055	0.181	0.2795	0.25397	0.15979	0.085321	0.10697	0.057709	0.045282	0.1001	0.021991	0.29162	-2.025	-2.1708	-2.3208	-2.7438	-2.3271	-2.6583	-2.6521	-2.3104	-2.5375	-2.4792	-2.4708	-2.9	-2.4479	-2.525	-2.3771	-2.3917	188.025	220.841	260.040	502.172	343.575	298.406	169.854	418.865	466.214	280.545	456.805	431.626	243.148	462.667	449.389	401.107	0.0021629	0.00062162	0.000134	941.03	1.1654e-05	2.168e-06	1245.6	350.35	9.8403e-06	7.8888e-06	521.36	179.71	103.1	35.944	4.0321e-06	65.768	0.00055587	0.00056511	0.00014002	961.82	5.8309e-06	5.8351e-06	1243.4	350.79	5.7385e-06	5.6972e-06	508.5	174.67	105.58	37.392	5.2681e-06	64.644	353.490	290.453	308.800	170.103	195.055	216.361	168.976	174.588	186.369	260.660	173.076	176.589	177.755	184.297	288.316	181.995	-8191	255	
7623.011	1	1	0	0	0.13927	0.20992	0.17011	0.069639	0.31363	0.17691	0.25353	0.1884	0.097558	0.099986	0.18563	0.23597	0.39938	0.13522	0.02586	0.11715	-1.975	-2.425	-2.175	-2.5708	-2.1875	-2.5104	-2.7583	-2.3708	-2.5521	-2.5354	-2.2417	-2.7438	-2.425	-2.3563	-2.6688	-2.4583	401.106	421.830	464.995	222.614	491.021	426.285	459.872	378.773	387.222	494.009	316.009	469.877	209.662	426.958	450.063	180.965	0.0020315	0.00090246	0.00021963	947.35	4.9876e-06	6.2104e-06	1242.5	352.86	6.7896e-06	6.9587e-06	522.18	179.94	102.62	36.046	1.7126e-06	65.684	0.00055156	0.00051901	0.00013208	965.44	6.0355e-06	5.5938e-06	1243.2	352.97	6.0298e-06	5.546e-06	507.74	175.49	106.08	37.211	5.0724e-06	64.927	358.315	263.231	265.964	169.937	295.555	386.947	168.955	174.495	461.811	371.719	172.752	176.404	177.999	183.913	338.781	182.135	-8191	255	
7623.107	1	1	0	0	0.15679	0.1342	0.16595	0.22522	0.24471	0.18747	0.16241	0.29871	0.15185	0.13596	0.21635	0.29575	0.1223	0.11573	0.17037	0.15864	-2.0729	-2.6188	-2.2646	-2.6208	-2.3604	-2.3708	-2.7146	-2.4562	-2.5833	-2.6146	-2.4437	-2.65	-2.5563	-2.4562	-2.6146	-2.2333	294.516	514.238	177.137	410.585	424.193	489.346	448.160	369.372	206.348	448.121	394.439	207.744	506.701	495.437	354.697	389.805	0.001514	0.00053727	2.8347e-05	944.6	7.9391e-07	1.2315e-05	1246.6	352.4	8.4907e-06	8.463e-06	523.98	179.54	102.48	35.843	3.2827e-06	65.956	0.0005531	0.00049461	0.00012574	970	5.9072e-06	5.263e-06	1241.5	354.03	5.7951e-06	5.2051e-06	506.68	176.05	105.12	36.939	4.8403e-06	65.341	355.497	301.720	276.183	170.208	353.056	288.948	168.924	174.286	387.702	314.902	172.952	176.528	178.015	184.091	337.124	182.001	-8191	255	
7623.203	1	1	0	0	0.082696	0.012285	0.050011	0.22592	0.19801	0.23911	0.084132	0.16359	0.032518	0.06449	0.35431	0.17212	0.14524	0.22859	0.10096	0.18264	-1.8687	-2.6354	-2.2062	-2.6312	-2.5042	-2.2417	-2.7812	-2.5083	-2.475	-2.4521	-2.4458	-2.7521	-2.5	-2.3292	-2.6208	-2.3479	163.559	442.479	182.590	441.182	300.796	350.110	415.379	468.430	182.315	292.609	462.401	421.275	480.134	448.176	419.903	348.924	0.0017927	0.00042322	5.3562e-05	944.33	5.6591e-06	1.9822e-06	1249.3	356.05	9.8466e-06	9.9815e-06	529.12	180.47	103.44	36.028	1.5249e-06	65.683	0.00052405	0.0004727	0.00012286	975.66	5.6635e-06	5.1473e-06	1245	358.57	5.6368e-06	5.1663e-06	509.88	177.89	105.33	36.965	4.9665e-06	65.703	357.859	329.553	251.797	170.066	328.690	301.896	168.874	174.287	326.292	341.809	172.855	176.718	177.995	184.161	224.344	181.981	-8191	255	
7623.299	1	1	0	0	0.17883	0.25892	0.24091	0.20821	0.11626	0.041034	0.20838	0.11077	0.16285	0.16285	0.18274	0.082081	0.18233	0.13868	0.15534	0.27599	-1.9104	-2.675	-2.2729	-2.6479	-2.5812	-2.3688	-2.7833	-2.4313	-2.375	-2.5833	-2.4896	-2.5271	-2.5646	-2.5458	-2.6521	-2.4062	514.271	453.313	198.339	512.420	256.962	362.861	470.705	445.505	157.255	507.551	495.764	483.673	224.765	398.803	183.127	482.712	0.0015222	0.00041483	0.00021313	952.62	4.2835e-06	7.8916e-06	1256.4	357.08	1.0347e-05	4.3238e-06	527.27	182.3	104.37	36.317	7.8082e-06	65.588	0.00050755	0.000457	0.00012584	980.65	5.3965e-06	4.9078e-06	1250.6	360.67	5.3485e-06	4.9736e-06	514.02	179.07	105.49	36.94	5.2749e-06	65.571	357.413	231.471	175.734	170.394	286.698	332.417	168.941	174.426	301.046	319.227	172.651	176.603	178.315	183.941	194.042	182.026	-8191	255	
7623.395	1	1	0	0	0.36412	0.067491	0.11369	0.13022	0.078694	0.1231	0.16245	0.14612	0.023471	0.10309	0.2416	0.30124	0.40465	0.16449	0.060175	0.10784	-2.0021	-2.6854	-2.3104	-2.7417	-2.4979	-2.2625	-2.8729	-2.6625	-2.3771	-2.4833	-2.3875	-2.7333	-2.675	-2.3458	-2.6833	-2.3583	212.270	201.734	171.861	445.006	389.928	260.104	483.445	428.869	503.589	422.047	385.031	482.956	164.002	489.210	283.408	471.548	0.0015027	0.00042655	0.00020192	952.82	4.7865e-06	8.2778e-06	1252.4	359.13	3.0222e-06	5.5461e-06	530.38	182	105.13	36.189	1.1045e-05	65.344	0.00048843	0.00044872	0.00013661	983.18	5.3103e-06	4.8781e-06	1257.3	362.15	5.2721e-06	4.8981e-06	519.68	178.96	105.7	36.941	5.7291e-06	65.331	358.119	283.400	186.905	170.133	317.371	250.118	168.747	174.317	311.643	340.889	172.679	176.539	177.997	184.210	180.191	181.988	-8191	255	
7623.516	1	1	0	0	0.14941	0.060035	0.12331	0.25423	0.068754	0.17602	0.23725	0.11044	0.12951	0.21922	0.23443	0.2076	0.12298	0.18884	0.14228	0.2216	-1.9625	-2.675	-2.3042	-2.5375	-2.5125	-2.2292	-2.8042	-2.6333	-2.2208	-2.5958	-2.5167	-2.4938	-2.6437	-2.2979	-2.3208	-2.4833	464.822	165.130	255.988	481.449	485.944	364.788	497.699	497.318	182.747	257.312	485.999	179.582	334.011	158.419	408.358	435.946	0.0017149	0.00066125	0.00033509	951.66	9.9149e-06	6.6275e-06	1257.1	359.9	3.3857e-06	4.7945e-06	533.28	182.8	104.23	36.059	6.1994e-06	65.478	0.00048666	0.00045468	0.00014761	981.01	5.2465e-06	4.9625e-06	1263.3	361.59	5.0946e-06	4.9301e-06	521.76	178.64	104.86	36.9	5.8221e-06	65.064	354.468	170.649	210.459	170.264	268.934	241.676	169.043	174.310	206.892	232.941	172.752	176.626	177.917	183.906	245.129	182.162	-8191	255	
7623.611	1	1	0	0	0.40597	0.066934	0.1274	0.14508	0.13504	0.10778	0.22603	0.2562	0.10838	0.077326	0.14993	0.18327	0.30735	0.13945	0.12713	0.16526	-1.9083	-2.5042	-2.3563	-2.5396	-2.5938	-2.275	-2.6833	-2.4854	-2.15	-2.7375	-2.525	-2.7521	-2.7042	-2.3167	-2.6042	-2.7521	215.648	279.397	352.283	509.067	371.896	432.079	415.009	489.424	425.729	188.793	156.754	455.928	511.444	177.314	404.859	402.299	0.0015174	0.00035026	0.00020053	953.78	6.0545e-06	1.0279e-05	1254.6	359.38	4.1811e-06	4.3609e-06	532.16	182.65	104.52	36.247	6.8804e-06	65.492	0.00046015	0.00046165	0.00015039	976.73	5.0192e-06	5.1739e-06	1262.6	360.66	4.9064e-06	5.2336e-06	522.89	178.37	104.27	37.245	5.6864e-06	64.808	350.925	447.519	247.284	170.306	278.427	203.095	168.833	174.557	325.335	250.719	172.804	176.589	178.165	183.762	303.997	182.130	-8191	255	
7623.707	1	1	0	0	0.068753	0.11862	0.074886	0.31084	0.2248	0.059793	0.33631	0.1379	0.30591	0.11312	0.04015	0.16974	0.17607	0.093492	0.12029	0.15797	-1.8896	-2.4646	-2.3812	-2.3542	-2.5708	-2.2271	-2.6021	-2.5958	-2.5229	-2.7	-2.5021	-2.5062	-2.6521	-2.3771	-2.5625	-2.7396	450.900	312.257	266.628	414.247	453.582	451.060	482.896	512.555	226.641	292.684	513.536	503.515	469.033	199.414	228.620	436.708	0.0012807	0.00072908	0.0001877	949.13	1.6449e-06	9.0731e-06	1248.3	358.92	1.2283e-05	9.5037e-06	528.72	183.01	103.89	35.867	2.9266e-06	65.317	0.00044232	0.00048381	0.0001435	968.39	4.7688e-06	5.384e-06	1258.4	358.22	4.748e-06	5.4507e-06	518.67	177.13	103.42	37.176	5.3426e-06	64.262	354.073	509.468	275.269	170.268	272.655	249.938	168.938	174.524	253.579	190.092	173.073	176.400	177.950	184.048	196.896	182.204	-8191	255	
7623.778	1	1	0	0	0.1953	0.084732	0.18742	0.28059	0.1557	0.26294	0.032008	0.14564	0.18037	0.16814	0.02594	0.17889	0.21307	0.15236	0.1924	0.14819	-2.0458	-2.5292	-2.4146	-2.4313	-2.7083	-2.3063	-2.6063	-2.7625	-2.1688	-2.5354	-2.7792	-2.4917	-2.6271	-2.4854	-2.4104	-2.7188	455.557	290.121	175.199	479.850	179.193	333.670	453.450	319.949	324.142	497.902	225.792	499.786	394.288	505.695	167.973	430.540	0.0018262	0.00033586	0.00013682	954.21	1.3076e-06	5.762e-06	1254.5	357.31	9.4706e-06	4.9188e-06	530.05	181.15	104.2	35.862	4.8313e-06	65.488	0.00043031	0.0004937	0.00013314	965.31	4.6329e-06	5.4403e-06	1254	355.76	4.7089e-06	5.4667e-06	514.52	175.99	103.97	37.268	5.1328e-06	64.063	356.911	170.882	261.092	170.326	213.688	225.493	169.008	174.272	222.033	262.248	172.871	176.408	178.166	183.684	331.699	181.992	-8191	255	
7623.899	1	1	0	0	0.20905	0.10459	0.24077	0.23898	0.064349	0.11729	0.22388	0.29588	0.097096	0.065495	0.082951	0.21371	0.065249	0.16391	0.2672	0.41066	-1.9417	-2.5479	-2.4938	-2.3625	-2.5771	-2.3417	-2.4271	-2.5896	-2.1458	-2.4271	-2.6375	-2.1937	-2.6208	-2.3271	-2.3688	-2.8292	237.598	381.202	498.725	491.898	490.067	515.547	495.616	516.121	312.898	275.889	404.201	431.981	157.878	506.800	299.198	441.188	0.0018761	0.0011276	0.00011132	950.74	1.0442e-05	5.0979e-06	1257.8	356.21	1.0924e-05	5.8157e-06	527.89	180.38	103.59	35.754	3.4503e-06	65.283	0.00045835	0.00050807	0.00012819	962.28	4.9742e-06	5.4915e-06	1249.7	354.08	4.971e-06	5.3771e-06	512.12	175	104.18	37.064	4.894e-06	63.981	335.761	512.151	273.326	170.201	166.806	281.816	168.922	174.548	226.477	283.998	172.643	176.593	178.032	183.923	197.224	181.975	-8191	255	
7623.995	1	1	0	0	0.31067	0.25581	0.062272	0.06671	0.15647	0.089633	0.15292	0.31677	0.27049	0.19062	0.26144	0.25836	0.17697	0.35316	0.24622	0.19901	-1.8708	-2.3604	-2.5125	-2.2938	-2.6583	-2.5396	-2.6458	-2.7812	-2.4042	-2.375	-2.6333	-2.4208	-2.8167	-2.5438	-2.3104	-2.8396	405.722	494.509	475.222	427.238	391.489	168.185	422.574	402.227	268.891	275.079	430.725	507.836	294.970	486.097	474.259	446.673	0.0020126	0.00059109	0.00011558	954.1	4.3346e-06	9.2563e-06	1255.8	358.15	1.0578e-05	6.9371e-06	529.35	181.4	103.57	35.913	7.0055e-06	65.636	0.00048571	0.00049072	0.00012457	962.44	5.2615e-06	5.3113e-06	1248.2	355.02	5.3207e-06	5.1805e-06	511.85	175.5	105.02	36.903	4.6695e-06	64.013	355.812	225.729	275.163	170.352	196.839	300.001	168.974	174.447	184.032	380.838	173.119	176.294	177.874	184.259	363.919	182.154	-8191	255	
7624.091	1	1	0	0	0.087256	0.17303	0.36727	0.074562	0.20779	0.20081	0.14214	0.4109	0.098902	0.11043	0.27208	0.066268	0.15273	0.14304	0.26233	0.09334	-2.0083	-2.775	-2.6063	-2.4708	-2.6229	-2.45	-2.5375	-2.775	-2.4146	-2.3479	-2.675	-2.3812	-2.4771	-2.6167	-2.1896	-2.5667	158.854	281.145	263.746	393.808	463.144	323.979	358.658	474.697	188.023	241.302	379.536	429.359	166.430	364.055	426.979	343.328	0.001739	6.8331e-05	0.00016842	955.6	7.881e-07	9.2932e-06	1259.7	357.93	4.3721e-06	4.8747e-06	532.09	181.09	103.92	35.884	7.9819e-06	65.425	0.00049426	0.00045747	0.00011714	963.98	5.3017e-06	4.9071e-06	1246.7	354.6	5.2695e-06	4.7984e-06	509.68	175.48	104.81	36.564	4.4503e-06	64.128	350.391	214.603	252.323	169.988	443.692	272.069	168.714	174.301	211.165	406.781	172.957	176.383	178.028	184.009	251.419	181.946	-8191	255	
7624.187	1	1	0	0	0.1497	0.18091	0.17052	0.097593	0.10625	0.15773	0.098571	0.18658	0.12877	0.26285	0.23328	0.14344	0.089825	0.090725	0.14653	0.13226	-2.0938	-2.4021	-2.5521	-2.325	-2.4813	-2.5646	-2.4813	-2.7229	-2.4958	-2.5438	-2.7229	-2.45	-2.4208	-2.675	-2.1292	-2.8333	481.562	195.558	344.616	160.464	194.609	328.659	294.811	418.947	179.178	408.464	421.695	440.928	221.233	355.078	367.582	389.207	0.0015692	0.00084432	0.00015638	953.04	4.1943e-06	5.4301e-06	1260.6	357	2.5255e-06	5.4983e-06	530.38	181.41	103.76	35.892	7.6788e-06	65.635	0.00049481	0.00043629	0.00011285	968.7	5.2759e-06	4.7726e-06	1246.7	357.39	5.3101e-06	4.753e-06	511.07	176.9	104.96	36.589	4.4245e-06	64.68	350.428	270.439	266.035	170.070	292.851	292.492	168.951	174.351	294.464	337.477	172.902	176.430	178.075	184.382	237.730	182.056	-8191	255	
7624.308	1	1	0	0	0.15291	0.089285	0.1694	0.2004	0.051296	0.13577	0.38171	0.28864	0.41332	0.13789	0.032573	0.42308	0.30895	0.31737	0.21344	0.15172	-1.9771	-2.3063	-2.6729	-2.4125	-2.4604	-2.6937	-2.4521	-2.6979	-2.6437	-2.3417	-2.7396	-2.5042	-2.4604	-2.7458	-2.4042	-2.7583	508.131	515.768	295.109	166.342	397.254	367.432	395.313	460.899	487.792	450.013	284.114	475.316	462.923	509.489	478.058	187.343	0.0018583	0.00072986	9.4229e-05	954.25	1.9955e-06	6.0377e-06	1259.2	358.76	6.3659e-06	8.7479e-06	532.04	181.15	104.11	36.056	6.0267e-06	65.661	0.00048662	0.00042998	0.00011328	976.84	5.1965e-06	4.7407e-06	1247.2	359.72	5.1978e-06	4.685e-06	511.98	177.65	104.56	36.603	4.6149e-06	64.994	353.124	196.125	198.835	170.152	345.642	452.500	168.682	174.322	326.002	329.962	172.934	176.546	177.936	183.987	234.329	182.162	-8191	255	
7624.380	1	1	0	0	0.094847	0.13151	0.14961	0.28568	0.059894	0.15534	0.10856	0.092593	0.16288	0.22552	0.038084	0.16581	0.18169	0.06642	0.28781	0.29856	-2.1479	-2.1396	-2.5979	-2.5375	-2.5021	-2.5708	-2.4833	-2.8042	-2.4604	-2.1937	-2.8854	-2.5708	-2.4604	-2.8167	-2.2354	-2.6937	361.183	191.721	356.768	511.137	331.865	199.911	227.900	425.586	302.245	372.399	353.694	161.500	211.752	416.088	201.934	406.287	0.0017014	0.00080379	0.00018596	958.56	4.9593e-06	1.077e-05	1265.6	358.83	5.9744e-06	3.1131e-06	533.54	182.82	104.06	36.031	2.1552e-06	65.813	0.00047278	0.00042249	0.0001188	979.48	4.9981e-06	4.6168e-06	1253.3	360.9	5.0032e-06	4.5607e-06	514.98	179.08	104.55	36.666	5.0108e-06	65.423	359.805	285.393	205.937	170.200	256.969	256.811	168.987	174.185	332.288	389.902	172.991	176.530	177.897	183.963	221.750	182.038	-8191	255	
7624.476	1	1	0	0	0.074286	0.042401	0.15623	0.16974	0.14254	0.029353	0.3486	0.090897	0.0039595	0.23394	0.18418	0.21382	0.08114	0.18265	0.18724	0.011223	-2.0958	-2.3729	-2.4271	-2.4229	-2.4583	-2.7479	-2.4688	-2.8271	-2.5708	-2.3812	-2.8396	-2.6958	-2.4917	-2.7313	-2.3875	-2.5792	353.896	288.510	195.425	419.529	491.185	343.638	480.712	459.515	453.915	478.175	370.718	478.696	493.901	452.269	283.637	311.945	0.0014827	0.00077976	0.00019121	953.01	4.7888e-06	7.4196e-06	1256.3	359.12	8.8213e-06	5.2718e-06	530.89	182.35	103.75	36.093	7.0658e-06	66.004	0.00046616	0.00041895	0.00012959	979.9	4.9753e-06	4.5932e-06	1257.4	360.08	4.9431e-06	4.5444e-06	518.15	178.25	103.76	36.559	5.2644e-06	65.166	351.598	258.511	512.479	170.095	354.742	264.536	168.569	174.649	282.590	287.457	172.924	176.543	178.036	184.136	514.836	182.157	-8191	255	
7624.596	1	1	0	0	0.049208	0.31596	0.22982	0.13296	0.063701	0.29899	0.11838	0.053744	0.13751	0.33117	0.16538	0.43993	0.090999	0.20013	0.15105	0.15087	-2.2167	-2.2042	-2.5479	-2.5312	-2.3125	-2.6208	-2.4062	-2.5146	-2.6188	-2.3146	-2.6167	-2.55	-2.3958	-2.7104	-2.3667	-2.2104	496.933	355.615	286.618	476.508	481.929	265.854	248.780	487.337	492.691	493.384	445.499	463.600	428.737	250.894	306.336	461.552	0.001693	0.00074313	0.00015608	955.89	6.1598e-06	5.7517e-06	1261.9	358.69	6.9236e-06	6.0101e-06	531.74	182.31	103.79	36.101	4.7884e-06	65.759	0.00044521	0.00041195	0.00013471	976.69	4.7578e-06	4.5987e-06	1262.3	359.11	4.7976e-06	4.6754e-06	519.77	177.92	103.52	36.78	5.5237e-06	64.924	359.031	183.728	511.163	170.144	263.265	272.982	169.048	174.615	274.794	184.496	172.662	176.353	178.166	184.187	311.160	182.225	-8191	255	
7624.691	1	1	0	0	0.047025	0.075723	0.10252	0.23196	0.050824	0.12395	0.28667	0.1572	0.083075	0.19493	0.17415	0.26997	0.26563	0.10255	0.18765	0.18141	-2.1875	-2.1667	-2.4542	-2.575	-2.4625	-2.6375	-2.4375	-2.5646	-2.5917	-2.4021	-2.5812	-2.6708	-2.3021	-2.6167	-2.4958	-2.475	167.488	323.029	471.095	159.759	432.476	389.641	442.102	463.932	511.652	185.775	454.405	452.447	220.004	276.541	391.537	251.467	0.0016046	0.00072648	6.9727e-05	952.3	1.591e-06	9.8699e-06	1264	358.31	5.8701e-06	8.9499e-06	529.4	181.26	104.45	36.003	7.6184e-06	65.897	0.00043852	0.00043526	0.00013877	971.4	4.6132e-06	4.824e-06	1264	357.77	4.6173e-06	4.9125e-06	518.5	177.14	103.12	36.992	5.4714e-06	64.84	358.072	470.870	372.578	170.248	210.075	190.425	169.072	174.456	326.840	209.381	172.626	176.637	178.102	183.794	307.922	182.095	-8191	255	
7624.787	1	1	0	0	0.0062492	0.13645	0.12956	0.10424	0.14398	0.084544	0.37278	0.21659	0.093966	0.16664	0.20676	0.25571	0.31727	0.20218	0.1785	0.26611	-2.2292	-2.2479	-2.4521	-2.5833	-2.3458	-2.5604	-2.5333	-2.575	-2.6833	-2.2188	-2.7104	-2.6208	-2.1333	-2.5312	-2.4667	-2.4188	295.408	164.680	289.356	159.473	163.302	329.719	448.632	205.229	214.188	487.145	500.820	461.251	172.184	454.817	315.666	467.008	0.0018183	0.00037654	0.00019047	956.87	7.4297e-06	9.0068e-06	1260.9	358.04	5.6121e-06	1.9088e-06	531.86	181.91	103.83	36.211	2.4464e-06	65.916	0.00043127	0.00047115	0.00013741	972.16	4.5981e-06	5.2762e-06	1261.9	357.84	4.6259e-06	5.327e-06	518	176.78	102.83	37.301	5.2713e-06	64.594	355.691	490.024	265.948	170.375	267.695	181.302	169.009	174.535	224.604	205.368	173.106	176.439	177.960	183.949	184.279	181.924	-8191	255	
7624.908	1	1	0	0	0.19148	0.18639	0.25499	0.37011	0.10823	0.11315	0.10699	0.18301	0.098878	0.050122	0.043794	0.2933	0.27611	0.21568	0.13533	0.14354	-2.1729	-2.2521	-2.6188	-2.7979	-2.1562	-2.55	-2.7729	-2.3292	-2.6771	-2.3292	-2.5146	-2.7083	-2.1542	-2.5896	-2.4188	-2.3063	193.570	500.430	201.806	457.695	391.640	440.210	439.071	500.053	403.243	166.564	331.309	494.699	467.521	460.082	397.398	483.389	0.0017945	0.00085599	7.7842e-05	957.08	8.3788e-06	8.263e-06	1263.9	359.36	1.7007e-05	7.6487e-06	534.82	183.53	104.46	36.195	2.8499e-06	66.326	0.00043311	0.00050012	0.00013201	972.3	4.7162e-06	5.5221e-06	1262.1	358.38	4.8549e-06	5.5793e-06	517.62	177.77	104.26	37.534	5.1307e-06	64.76	353.848	193.661	272.488	170.080	213.825	201.058	168.900	174.625	222.497	320.156	172.765	176.556	178.155	184.283	348.230	182.344	-8191	255	
7625.004	1	1	0	0	0.50252	0.1064	0.079398	0.20929	0.13756	0.43668	0.074756	0.30227	0.065164	0.18933	0.30545	0.3514	0.084479	0.063301	0.17143	0.13557	-2.2562	-2.4437	-2.3979	-2.8792	-2.1417	-2.5583	-2.7188	-2.3521	-2.6063	-2.3229	-2.3542	-2.6167	-2.3833	-2.35	-2.3958	-2.2417	376.960	506.406	445.539	427.877	330.553	394.527	278.494	499.245	193.807	350.437	463.819	214.185	250.719	484.475	367.581	216.947	0.0020306	0.00031447	4.8257e-05	953.73	4.6082e-06	4.2746e-06	1261.9	358.91	9.1081e-06	5.1604e-06	531.71	181.81	103.5	36.204	9.1941e-06	66.167	0.00045826	0.00050454	0.0001264	967.17	4.9871e-06	5.4764e-06	1255.5	356.34	5.0778e-06	5.4478e-06	514.66	176.37	104.67	37.352	4.9132e-06	64.462	354.940	447.849	305.247	170.172	160.203	314.586	168.928	174.597	227.073	346.655	173.147	176.541	177.919	184.019	334.622	182.207	-8191	255	
7625.075	1	1	0	0	0.25392	0.2615	0.055571	0.051605	0.31784	0.11641	0.28923	0.12354	0.12356	0.17384	0.3371	0.062276	0.29957	0.17575	0.089669	0.1885	-2.0625	-2.3396	-2.2771	-2.7854	-2.2917	-2.5187	-2.7042	-2.3292	-2.3708	-2.5042	-2.425	-2.6042	-2.4125	-2.5187	-2.5375	-2.0833	376.336	310.055	187.674	263.373	456.986	219.838	460.300	241.661	161.385	487.768	439.553	331.354	468.368	275.907	345.862	186.416	0.0019582	0.00053984	0.00016919	956.92	6.5406e-06	1.1914e-06	1262.6	358.03	8.6192e-06	8.8538e-06	532.53	182.61	103.79	36.097	3.6913e-06	65.962	0.00048453	0.00049399	0.00012319	966.94	5.3281e-06	5.3303e-06	1255.8	356.08	5.4124e-06	5.3059e-06	514.08	176.58	105.86	37.21	4.834e-06	64.594	356.367	270.482	259.874	170.152	229.980	184.772	168.776	174.340	233.909	310.419	172.910	176.790	177.962	184.238	299.725	182.176	-8191	255	
7625.196	1	1	0	0	0.18617	0.27766	0.091451	0.14884	0.10263	0.11466	0.20383	0.17863	0.31514	0.20332	0.23597	0.24819	0.05281	0.076374	0.16631	0.075248	-1.9542	-2.4354	-2.3104	-2.5208	-2.2583	-2.2458	-2.625	-2.3083	-2.6667	-2.4583	-2.4	-2.7917	-2.3104	-2.4583	-2.65	-2.2896	432.348	414.739	163.870	502.297	510.705	427.522	404.665	464.136	502.210	374.764	438.768	493.184	243.696	485.796	318.128	386.877	0.0016308	0.00011323	0.00010104	957.08	3.0318e-06	1.46e-05	1265.8	358.11	1.3894e-06	5.9014e-06	529.56	183.22	104.19	36.276	2.3396e-06	66.146	0.00051083	0.0004765	0.0001204	969.72	5.5661e-06	5.1133e-06	1255	356.76	5.5339e-06	5.0724e-06	512.24	177.63	106.28	37.065	4.7155e-06	65.133	349.400	238.775	284.137	170.074	190.886	348.455	168.774	174.279	410.080	358.116	172.895	176.329	177.669	184.297	438.602	182.002	-8191	255	
7625.292	1	1	0	0	0.15206	0.20666	0.1961	0.16916	0.20313	0.16574	0.069602	0.26086	0.25433	0.11519	0.098744	0.17944	0.13706	0.11294	0.19432	0.10194	-2.0896	-2.3542	-2.2396	-2.6792	-2.125	-2.3063	-2.7917	-2.3417	-2.4417	-2.55	-2.4958	-2.6771	-2.2917	-2.3604	-2.6896	-2.325	252.506	501.330	222.647	451.073	414.713	490.499	369.488	445.534	175.885	220.398	252.270	486.468	411.952	409.013	315.902	449.942	0.0014618	0.00048763	0.00013843	951.77	2.0767e-06	4.7043e-06	1260.9	359.81	7.7834e-06	2.9819e-06	532.78	183.98	104.58	36.364	9.6949e-06	66.404	0.00051883	0.00046502	0.00011924	975.56	5.6877e-06	5.0456e-06	1251.9	359.61	5.5499e-06	5.0167e-06	513.1	179.07	105.96	37.082	4.6548e-06	65.7	359.811	260.443	294.835	170.220	386.034	507.555	168.945	174.159	274.056	396.153	172.865	176.469	178.170	184.129	310.688	182.144	-8191	255	
7625.388	1	1	0	0	0.10354	0.20394	0.096704	0.33964	0.32308	0.14495	0.33089	0.19495	0.26096	0.18219	0.28465	0.020481	0.11877	0.19993	0.16668	0.25308	-1.975	-2.3396	-2.3063	-2.55	-2.2854	-2.1312	-2.6646	-2.4021	-2.5125	-2.5438	-2.4625	-2.5812	-2.4604	-2.4083	-2.5792	-2.4313	452.801	214.205	316.587	168.651	219.311	386.115	378.791	422.007	428.700	438.162	406.867	380.569	428.518	510.312	243.302	493.500	0.0015076	0.00041577	0.00010823	956.83	4.7092e-06	9.3042e-06	1265.3	359.02	9.2901e-06	1.1968e-05	534.33	183.37	104.65	36.328	7.7373e-06	66.494	0.00050241	0.00045084	0.00011706	981.2	5.4007e-06	4.8473e-06	1254.1	361.19	5.3036e-06	4.8618e-06	514.47	180.04	105.63	36.973	4.802e-06	65.913	356.821	185.238	230.780	170.001	265.998	259.894	168.798	174.279	284.560	340.120	172.908	176.532	178.120	183.957	191.721	182.009	-8191	255	
7625.485	1	1	0	0	0.33073	0.21109	0.12403	0.27448	0.13592	0.13201	0.30169	0.30197	0.12069	0.083171	0.35266	0.039125	0.17587	0.093366	0.41437	0.1032	-1.9833	-2.6125	-2.3563	-2.3292	-2.2771	-2.3167	-2.6458	-2.4833	-2.3187	-2.5979	-2.3	-2.6333	-2.475	-2.4021	-2.6521	-2.3812	185.902	257.343	180.102	501.644	346.116	161.477	442.263	485.723	361.133	385.729	457.054	244.338	262.325	387.125	247.052	191.248	0.0015295	0.0010697	0.00022275	960.57	8.3405e-06	1.202e-05	1268.3	358.62	7.9953e-06	7.6604e-06	534.1	183.5	104.26	36.261	5.6608e-06	66.317	0.00048325	0.00044045	0.00012274	985.09	5.1881e-06	4.7138e-06	1257	362.18	5.084e-06	4.726e-06	517.11	180.23	105.19	36.911	5.1689e-06	65.938	353.092	239.594	190.168	170.289	332.556	295.893	168.847	174.679	285.530	349.783	172.726	176.540	178.198	184.278	221.993	182.283	-8191	255	
7625.603	1	1	0	0	0.13098	0.25516	0.51295	0.15959	0.11919	0.1566	0.19574	0.20881	0.18632	0.16848	0.41164	0.31798	0.26911	0.086876	0.15616	0.18209	-1.8937	-2.5187	-2.1979	-2.7208	-2.5583	-2.15	-2.6396	-2.5583	-2.3625	-2.5854	-2.4875	-2.5833	-2.5021	-2.2313	-2.7771	-2.325	393.889	477.229	407.107	473.075	283.208	290.198	427.348	454.901	199.838	258.863	478.739	477.741	452.711	334.604	332.668	458.891	0.0018958	0.00057776	0.00029045	960.58	1.9467e-06	4.7336e-06	1262.8	358.86	7.2328e-06	7.526e-06	535.69	183.87	104.36	36.432	6.6101e-06	66.322	0.00046943	0.0004304	0.00013264	985.64	5.0517e-06	4.6385e-06	1264.6	361.54	4.964e-06	4.6355e-06	521	179.71	104.57	36.887	5.4866e-06	65.749	362.662	210.212	185.529	170.214	322.461	285.844	168.876	174.411	251.301	284.574	172.839	176.702	177.941	183.989	265.617	182.060	-8191	255	
7625.675	1	1	0	0	0.077473	0.16817	0.043591	0.065742	0.14563	0.14091	0.42291	0.063556	0.23151	0.10143	0.38691	0.18763	0.17953	0.02966	0.19621	0.19554	-1.8875	-2.8271	-2.2667	-2.5208	-2.4229	-2.2188	-2.8438	-2.4813	-2.1854	-2.6521	-2.3688	-2.5938	-2.6583	-2.4646	-2.4979	-2.6083	157.479	233.640	158.478	499.664	403.019	415.982	445.677	383.305	311.556	391.871	440.014	474.066	428.842	384.853	198.683	159.104	0.0019733	0.00086516	0.00015393	959.46	2.6885e-06	4.4136e-06	1269.5	360.46	1.1127e-05	7.3193e-06	535.63	183.85	104.84	36.539	4.267e-06	66.475	0.00045643	0.00043135	0.00014056	980.77	4.9417e-06	4.7278e-06	1269.2	361.21	4.8344e-06	4.7625e-06	523.68	179.58	104.39	37.135	5.6069e-06	65.687	359.731	163.162	212.205	170.285	289.867	269.468	169.081	174.140	268.510	185.883	172.910	176.586	178.224	184.025	225.767	182.283	-8191	255	
7625.771	1	1	0	0	0.11402	0.05692	0.30345	0.14571	0.2213	0.024577	0.23388	0.22928	0.18442	0.17451	0.075218	0.039313	0.14212	0.27017	0.058086	0.32198	-1.8896	-2.6917	-2.4646	-2.3688	-2.6146	-2.4167	-2.8438	-2.5708	-2.3417	-2.5583	-2.5208	-2.4667	-2.7375	-2.3271	-2.5812	-2.7167	378.098	451.547	509.013	496.080	454.610	452.854	285.717	453.695	261.085	429.835	315.102	212.272	336.020	445.765	172.550	488.620	0.0015374	0.00096687	8.1153e-05	960.25	3.4998e-06	8.2526e-06	1266.8	360.89	7.5251e-06	2.5713e-06	536.84	184.49	104.6	36.349	3.4637e-06	66.499	0.00044307	0.00044562	0.00014355	978.56	4.7906e-06	4.9962e-06	1271.5	359.76	4.7035e-06	5.0664e-06	524.05	178.94	103.75	37.264	5.4433e-06	65.425	350.288	472.023	366.957	170.322	265.863	217.542	168.932	174.468	296.538	294.059	172.905	176.817	177.806	183.890	316.277	182.102	-8191	255	
7625.869	1	1	0	0	0.26579	0.14903	0.06868	0.16447	0.13023	0.19884	0.37662	0.29644	0.070373	0.016438	0.12893	0.23746	0.20345	0.16355	0.14314	0.16819	-1.7188	-2.6104	-2.4417	-2.5542	-2.6021	-2.5479	-2.6375	-2.5729	-2.1521	-2.45	-2.5958	-2.3729	-2.6	-2.4938	-2.5062	-2.55	469.954	418.536	465.205	351.599	383.007	428.776	482.963	492.931	269.755	327.591	159.999	509.722	450.628	516.161	433.657	443.426	0.0017524	0.00061144	0.00010067	963.75	7.0263e-06	3.8355e-06	1263.8	361.07	4.5407e-06	3.7306e-06	536.06	183.5	104.96	36.418	2.4104e-06	66.149	0.00042413	0.00047249	0.00013777	975.22	4.6366e-06	5.3431e-06	1267.6	359.66	4.656e-06	5.4299e-06	522.8	178.75	104.32	37.642	5.368e-06	65.195	353.389	158.848	309.240	170.201	310.004	220.767	168.930	174.483	233.621	262.538	173.139	176.628	178.098	183.904	283.617	182.220	-8191	255	
7625.988	1	1	0	0	0.11089	0.16349	0.053269	0.097464	0.21805	0.14939	0.054237	0.35757	0.18794	0.16302	0.20544	0.05432	0.017258	0.036896	0.15316	0.30893	-1.5646	-2.4813	-2.2562	-2.3438	-2.6875	-2.2917	-2.5625	-2.4583	-2.1688	-2.5479	-2.4042	-2.3021	-2.7604	-2.3271	-2.1646	-2.6958	505.941	447.519	465.617	443.439	456.378	171.964	296.656	378.173	458.503	164.242	423.487	349.294	210.458	478.965	229.227	400.031	0.0020116	0.00088524	0.00013287	955.4	5.257e-06	1.6453e-06	1269.3	360.35	5.4436e-06	3.2587e-06	535.54	183.79	105.02	36.578	2.9282e-06	66.331	0.00044226	0.0005067	0.0001348	973.08	4.811e-06	5.6024e-06	1264.9	359.08	4.8485e-06	5.6067e-06	520.83	178.75	104.77	37.791	5.1194e-06	65.104	354.637	180.297	284.246	170.139	218.013	194.877	168.990	174.475	207.557	227.388	172.975	176.630	178.154	184.017	300.980	182.397	-8191	255	
7626.084	1	1	0	0	0.15281	0.30556	0.094238	0.058397	0.054338	0.38691	0.090431	0.13799	0.28216	0.10162	0.1671	0.27392	0.052446	0.1379	0.12384	0.10987	-1.6646	-2.55	-2.3688	-2.3417	-2.5479	-2.275	-2.5396	-2.7188	-2.4938	-2.5438	-2.5812	-2.2625	-2.6333	-2.425	-2.5167	-2.6917	236.661	481.540	205.409	299.237	244.339	242.486	429.382	400.680	456.364	325.998	511.474	458.969	242.980	484.379	244.000	437.683	0.0019362	0.00077527	0.00014886	960.8	5.9085e-06	7.0319e-06	1268.1	361.84	5.2705e-06	3.6718e-06	532.91	183.84	104.86	36.29	5.7286e-06	66.288	0.00046555	0.00050894	0.00012897	970.56	5.0777e-06	5.5374e-06	1261.5	358.32	5.0943e-06	5.3858e-06	517.43	177.52	105.3	37.417	4.7928e-06	64.764	351.449	241.515	287.473	170.541	199.371	262.423	169.028	174.380	206.892	338.858	173.037	176.714	177.915	184.155	246.542	182.208	-8191	255	
7626.180	1	1	0	0	0.14074	0.13807	0.16549	0.08318	0.028782	0.11333	0.21857	0.16452	0.13792	0.10414	0.1119	0.039227	0.38039	0.18501	0.3637	0.21199	-1.9708	-2.4417	-2.6521	-2.4062	-2.3958	-2.4708	-2.3958	-2.7229	-2.3354	-2.3542	-2.7062	-2.3771	-2.5792	-2.4271	-2.2042	-2.5396	203.461	436.683	184.617	261.255	499.195	184.951	437.754	186.747	223.661	281.973	212.840	500.150	262.092	491.202	424.058	471.900	0.0017642	0.00067061	0.00011193	958.98	4.9903e-06	1.0466e-05	1270.6	360.76	2.8327e-06	1.5652e-06	539.08	183.91	104.68	36.187	5.9129e-06	66.306	0.00048169	0.00048199	0.00012215	968.31	5.2987e-06	5.2368e-06	1261.1	357.78	5.3537e-06	5.1382e-06	517.55	177.9	105.92	37.08	4.5943e-06	64.733	351.382	260.695	301.885	170.054	172.332	329.370	168.845	174.301	245.431	323.928	172.816	176.616	177.970	184.276	243.738	182.265	-8191	255	
7626.276	1	1	0	0	0.39449	0.13155	0.13986	0.22358	0.12123	0.21688	0.23459	0.17001	0.12534	0.14164	0.20993	0.16925	0.059896	0.063718	0.10031	0.26255	-1.9937	-2.4437	-2.4896	-2.4083	-2.5	-2.5	-2.5062	-2.7438	-2.325	-2.4146	-2.8063	-2.3063	-2.5812	-2.5604	-2.1979	-2.7667	437.488	302.989	444.583	500.053	184.138	485.741	458.046	344.989	245.495	183.182	489.351	464.481	332.828	222.462	501.266	385.945	0.0015855	0.00026914	7.8892e-06	960.8	7.6679e-06	7.1107e-06	1269.7	360.58	8.5141e-06	4.4597e-06	537.08	184.03	104.33	35.962	5.6439e-06	66.34	0.00049297	0.00044528	0.00011483	969.19	5.237e-06	4.842e-06	1257	358.12	5.2947e-06	4.788e-06	514.75	178.01	105.63	36.718	4.3572e-06	64.785	344.008	243.139	382.452	170.333	175.650	245.885	168.989	174.416	293.491	372.152	173.042	176.592	178.037	183.898	299.443	182.044	-8191	255	
7626.373	1	1	0	0	0.10993	0.32731	0.20498	0.1941	0.18165	0.16448	0.11	0.061839	0.090603	0.051374	0.27925	0.13871	0.14142	0.17275	0.053739	0.16403	-1.9208	-2.2542	-2.4813	-2.3063	-2.5271	-2.3542	-2.3333	-2.5979	-2.3896	-2.3667	-2.8875	-2.2979	-2.5	-2.6896	-2.2854	-2.775	449.735	487.422	261.492	512.081	225.193	248.209	288.647	411.646	260.064	429.217	453.572	454.680	346.047	399.920	494.314	439.339	0.0016991	0.00079208	5.4491e-05	959.17	1.0969e-06	5.0365e-06	1274.3	362.7	9.578e-06	7.8318e-06	537.77	184.21	104.77	36.105	5.6513e-06	66.294	0.00048394	0.00042213	0.00011013	974.02	5.1142e-06	4.6389e-06	1254.3	359.7	5.1364e-06	4.6072e-06	514.93	178.85	105.35	36.67	4.3203e-06	65.186	361.791	249.251	419.893	170.071	209.814	297.682	168.908	174.344	295.080	300.181	172.853	176.469	178.345	184.102	277.438	182.172	-8191	255	
7626.469	1	1	0	0	0.21624	0.12262	0.17942	0.30708	0.11798	0.21046	0.35912	0.14698	0.16983	0.060784	0.098553	0.042698	0.13923	0.096559	0.22591	0.22361	-2.1312	-2.1396	-2.5271	-2.2833	-2.4708	-2.3375	-2.4313	-2.6875	-2.525	-2.2646	-2.6917	-2.5021	-2.5125	-2.5146	-2.15	-2.6354	473.744	434.003	281.405	492.846	233.835	195.593	464.524	388.923	453.349	185.061	472.253	157.534	166.760	159.725	451.567	477.148	0.0016233	0.0004382	0.00014815	961.04	6.4442e-06	5.8187e-06	1269.3	362.47	9.0251e-06	1.7728e-06	536.64	185.12	104.75	36	1.0278e-05	65.932	0.00047366	0.00042012	0.00011162	980.55	4.9968e-06	4.5865e-06	1256.4	361.8	4.9805e-06	4.4588e-06	514.64	179.58	104.37	36.475	4.4634e-06	65.371	363.700	160.415	251.671	170.033	374.681	266.215	169.008	174.352	302.675	378.294	172.973	176.496	178.083	184.044	225.284	182.360	-8191	255	
7626.589	1	1	0	0	0.107	0.31345	0.21019	0.28522	0.21041	0.13361	0.14483	0.24839	0.10785	0.18875	0.19822	0.15522	0.16849	0.12193	0.25503	0.050888	-1.9937	-2.1146	-2.4062	-2.4375	-2.4229	-2.5354	-2.3021	-2.6583	-2.7208	-2.2292	-2.7458	-2.4583	-2.3063	-2.6083	-2.4042	-2.5479	288.384	508.349	344.255	471.067	376.491	468.294	359.928	445.876	249.036	306.637	204.729	197.210	305.293	244.753	173.042	418.444	0.0016168	0.00071553	0.00013408	960.09	3.2236e-06	2.5698e-06	1275.4	363.35	7.0505e-06	2.4445e-06	540.59	185.15	105.59	36.223	7.6358e-06	65.913	0.00045286	0.00040685	0.00011627	983.77	4.8266e-06	4.4809e-06	1263.7	363.45	4.8388e-06	4.4218e-06	519.65	180.74	104.63	36.478	4.8436e-06	65.346	357.403	212.196	225.723	170.179	285.746	397.714	168.707	174.412	254.909	300.382	172.876	176.490	178.179	184.222	209.474	182.149	-8191	255	
7626.684	1	1	0	0	0.18523	0.34583	0.085809	0.17517	0.27396	0.28501	0.15355	0.18133	0.1788	0.29863	0.12901	0.18429	0.27322	0.15766	0.057659	0.17021	-2.1771	-2.1208	-2.5958	-2.3542	-2.3438	-2.7375	-2.4583	-2.4708	-2.7	-2.3187	-2.6167	-2.4958	-2.4354	-2.6813	-2.4042	-2.5542	456.543	242.741	319.224	187.004	430.687	448.139	446.025	277.664	159.483	396.939	443.373	515.004	494.532	456.362	383.347	486.950	0.0016933	0.0002372	8.9311e-05	958.98	3.4885e-06	9.1252e-07	1272.4	363	1.6285e-06	5.5919e-06	538.42	185.08	106.19	36.155	5.5591e-06	66.153	0.0004431	0.00039746	0.00012552	981.84	4.7289e-06	4.3908e-06	1267	363.32	4.7599e-06	4.4395e-06	523.29	180.38	104.84	36.567	5.2399e-06	65.135	361.564	211.971	167.456	170.225	268.113	411.024	168.871	174.250	383.300	306.937	172.598	176.592	177.970	184.064	187.666	182.029	-8191	255	
7626.780	1	1	0	0	0.20164	0.31022	0.31216	0.5794	0.11758	0.18872	0.052113	0.25756	0.063582	0.17062	0.15168	0.1874	0.27385	0.25061	0.17242	0.19184	-2.2896	-2.2458	-2.5792	-2.425	-2.1813	-2.5896	-2.6292	-2.4979	-2.5938	-2.2313	-2.6312	-2.4729	-2.2812	-2.6417	-2.3083	-2.3458	474.339	177.845	202.479	496.430	165.881	175.892	275.662	313.515	193.146	343.899	493.078	190.145	303.284	426.012	310.593	163.314	0.0017912	0.00035954	3.4447e-05	964.73	1.0637e-06	7.5323e-06	1271	362.02	1.5219e-05	4.5991e-06	540.39	185.37	105.74	36.382	2.1229e-06	66.072	0.00043966	0.00041011	0.00013466	980.17	4.6719e-06	4.554e-06	1271.4	362.22	4.6971e-06	4.6083e-06	526.64	180.13	104.36	36.848	5.4224e-06	64.925	359.962	504.544	441.899	170.290	359.886	209.870	168.823	174.648	252.153	271.871	172.777	176.486	178.104	184.180	366.750	182.333	-8191	255	
7626.876	1	1	0	0	0.09673	0.15047	0.33316	0.20182	0.18097	0.20581	0.45167	0.16821	0.20557	0.09598	0.21277	0.080403	0.091826	0.096197	0.12497	0.2259	-2.0938	-2.1146	-2.5667	-2.6854	-2.2354	-2.6542	-2.575	-2.425	-2.4979	-2.2062	-2.7188	-2.6208	-2.3396	-2.6292	-2.3292	-2.2833	262.227	238.837	313.297	512.855	271.171	404.945	485.766	467.627	324.490	175.847	339.348	333.890	463.072	474.084	240.456	377.459	0.001792	0.00097046	2.3756e-05	963.86	3.4397e-06	1.3132e-05	1271.1	364.35	4.0346e-06	4.5048e-06	540.56	184.82	106.84	36.132	4.6809e-06	66.126	0.00042768	0.00043085	0.00013588	977.98	4.4755e-06	4.7651e-06	1271.9	362.24	4.4303e-06	4.816e-06	526.11	179.85	104.2	36.909	5.173e-06	64.647	357.039	163.559	270.229	170.220	272.454	219.791	168.892	174.279	262.884	167.543	173.012	176.543	177.827	184.032	264.366	182.130	-8191	255	
7626.972	1	1	0	0	0.28256	0.12909	0.12913	0.20475	0.15507	0.11437	0.41134	0.38126	0.2294	0.20601	0.3219	0.18056	0.12789	0.07699	0.031348	0.12713	-2.3312	-2.3229	-2.5479	-2.5229	-2.5292	-2.6458	-2.5396	-2.4708	-2.8646	-2.4271	-2.5729	-2.7687	-2.2354	-2.5312	-2.3187	-2.3021	283.144	288.869	254.736	204.037	458.322	291.909	414.675	470.639	188.463	467.578	466.679	417.773	311.794	179.407	335.094	516.533	0.0017351	0.0013601	6.8498e-05	962.3	4.4045e-06	3.8136e-06	1270.7	364.56	3.2384e-06	6.5599e-06	542.71	185.84	106.57	36.362	1.2014e-05	66.578	0.00040548	0.00045393	0.0001285	972.67	4.342e-06	5.0071e-06	1267.7	361.58	4.359e-06	5.0745e-06	524.77	179.75	104.35	37.227	4.996e-06	64.697	348.375	501.803	305.420	170.055	172.338	247.610	168.811	174.539	214.785	174.348	173.110	176.710	177.914	184.049	284.347	182.096	-8191	255	
7627.068	1	1	0	0	0.25142	0.071856	0.16336	0.22209	0.10207	0.18406	0.40082	0.30893	0.13107	0.29478	0.27491	0.37566	0.1389	0.11834	0.089492	0.24089	-2.0667	-2.3563	-2.4125	-2.6854	-2.2438	-2.5625	-2.5354	-2.3312	-2.4604	-2.4458	-2.6583	-2.625	-2.2833	-2.3667	-2.4604	-2.1417	294.121	365.059	210.466	459.240	355.947	263.951	471.060	451.962	406.965	160.349	472.334	160.808	198.406	478.976	473.452	511.509	0.0018747	0.00065272	9.3183e-05	961.85	1.3039e-05	5.4434e-06	1272.8	364.46	1.6193e-05	3.8044e-06	542.7	185.59	106.12	36.344	9.5491e-06	66.057	0.00041424	0.00047508	0.0001243	971.3	4.5155e-06	5.259e-06	1265	361.23	4.6232e-06	5.3111e-06	523.38	179.17	104.98	37.342	4.8072e-06	64.494	346.692	164.641	323.764	170.171	181.385	235.359	169.005	174.394	209.043	340.863	173.039	176.655	177.998	183.953	274.808	182.107	-8191	255	
7627.165	1	1	0	0	0.15316	0.065774	0.1033	0.19562	0.052811	0.036981	0.14959	0.23822	0.1485	0.22819	0.38361	0.3498	0.32057	0.10264	0.35533	0.24756	-2.1354	-2.3854	-2.3771	-2.7021	-2.2062	-2.4042	-2.5479	-2.2875	-2.4646	-2.1917	-2.4542	-2.6813	-2.0833	-2.3458	-2.5208	-2.3083	388.188	365.670	225.634	466.342	462.913	358.901	474.265	480.826	187.255	412.500	397.338	475.540	358.531	293.334	169.230	446.505	0.0019273	0.00048685	0.00014618	959.35	5.3046e-06	2.0731e-06	1273.5	364.17	1.8443e-05	1.56e-06	543.15	185.8	105.89	36.274	9.2117e-06	66.492	0.00044202	0.00048026	0.00012002	967.04	4.8402e-06	5.189e-06	1262.4	360	4.9391e-06	5.2422e-06	521.4	179.14	106.28	37.394	4.8037e-06	64.701	351.921	305.899	287.696	170.149	196.171	315.153	168.671	174.308	198.444	374.404	172.960	176.541	177.837	184.033	258.695	182.108	-8191	255	
7627.261	1	1	0	0	0.10738	0.055695	0.18416	0.22065	0.2058	0.21256	0.019374	0.40788	0.23632	0.13929	0.20467	0.087484	0.078963	0.15064	0.14872	0.14408	-1.8937	-2.2958	-2.3312	-2.7042	-2.2583	-2.45	-2.6	-2.3792	-2.4583	-2.4417	-2.3812	-2.5	-2.3688	-2.5062	-2.7292	-2.4646	161.782	357.220	267.313	398.768	227.092	380.875	428.085	424.948	313.129	235.492	449.979	444.335	257.549	475.454	398.197	480.521	0.0020216	0.00010381	0.00014864	960.57	7.35e-06	1.3394e-05	1270.1	362.83	5.1787e-06	6.1262e-06	539.22	185.07	105.73	36.099	1.287e-05	66.593	0.00048082	0.0004746	0.00011885	968.71	5.2022e-06	5.04e-06	1258.9	359.27	5.1723e-06	5.0244e-06	518.86	178.79	106.55	37.013	4.5959e-06	64.802	359.212	282.519	309.824	170.191	202.522	290.627	169.009	174.421	228.930	365.923	172.746	176.437	178.213	183.937	303.853	182.035	-8191	255	
7627.381	1	1	0	0	0.19512	0.21702	0.25644	0.027897	0.11466	0.13115	0.31157	0.25344	0.12171	0.1319	0.41733	0.2821	0.17681	0.32172	0.14706	0.27329	-1.9917	-2.3896	-2.1771	-2.6417	-2.3167	-2.2562	-2.8354	-2.1688	-2.65	-2.3896	-2.3063	-2.5812	-2.2604	-2.4146	-2.65	-2.1333	509.570	496.654	311.582	268.185	190.169	473.347	440.008	491.109	492.891	394.658	491.292	411.376	454.841	493.927	276.354	478.314	0.0018963	0.0012292	0.00019626	961.9	4.866e-06	8.0022e-06	1272.7	363.05	3.6698e-06	5.2354e-06	539.21	185.78	105.82	36.184	1.1827e-06	66.472	0.00049018	0.00045022	0.00011381	971.62	5.3357e-06	4.7887e-06	1258.5	360.3	5.2958e-06	4.8007e-06	517.3	179.49	106.56	36.862	4.4374e-06	65.098	351.629	305.682	292.271	170.246	230.512	345.452	168.825	174.331	250.981	218.217	172.974	176.619	177.887	184.050	312.756	181.898	-8191	255	
7627.477	1	1	0	0	0.18826	0.36445	0.26077	0.18153	0.23266	0.076773	0.24141	0.32327	0.046793	0.090102	0.22702	0.25222	0.053321	0.069909	0.089692	0.32841	-1.9875	-2.4292	-2.1562	-2.5229	-2.1896	-2.3563	-2.6917	-2.4792	-2.5917	-2.6146	-2.3604	-2.8083	-2.325	-2.4313	-2.6958	-2.3875	294.620	346.766	437.786	502.388	239.388	422.066	440.981	502.745	253.610	216.622	509.315	180.917	336.124	285.063	449.743	449.127	0.0017202	0.00023432	0.00012916	958.87	8.1584e-06	4.9503e-06	1274.5	361.87	1.2139e-05	2.4166e-06	542.35	185.92	105.55	36.07	2.4649e-06	66.659	0.00048664	0.00043269	0.00011054	974.93	5.1794e-06	4.6067e-06	1257.2	361.29	5.087e-06	4.6059e-06	517.81	180.29	105.88	36.62	4.4089e-06	65.415	366.046	221.281	256.722	170.182	295.379	287.053	168.966	174.360	288.010	335.072	173.059	176.458	178.406	183.893	286.938	181.884	-8191	255	
7627.549	1	1	0	0	0.12528	0.20814	0.17285	0.191	0.12838	0.39054	0.050288	0.27527	0.12023	0.13546	0.28188	0.33971	0.089047	0.14275	0.12008	0.30976	-2.0104	-2.5354	-2.2104	-2.6188	-2.4833	-2.2188	-2.8979	-2.4417	-2.4521	-2.8396	-2.3021	-2.6417	-2.4125	-2.2562	-2.5354	-2.5625	394.780	357.355	268.006	459.232	371.205	341.125	385.051	511.804	214.996	339.864	175.599	504.494	296.821	163.606	242.769	466.735	0.0019672	0.00020171	0.00016006	956.34	4.0843e-06	6.6824e-06	1270.7	364.29	8.1517e-06	2.533e-06	541.01	185.63	105.73	36.057	3.0207e-06	66.324	0.00047193	0.00042705	0.00011172	980.8	5.1175e-06	4.6151e-06	1259	364.52	4.9958e-06	4.5703e-06	518.61	180.77	105.54	36.533	4.5966e-06	65.382	352.587	288.783	213.222	169.962	234.445	360.381	168.931	174.399	290.318	321.165	172.767	176.625	178.127	184.325	262.341	182.152	-8191	255	
7627.670	1	1	0	0	0.0080666	0.16653	0.27804	0.065892	0.12953	0.19947	0.11414	0.17498	0.065504	0.22208	0.31384	0.23472	0.1425	0.13116	0.16852	0.19418	-2.0042	-2.4542	-2.3542	-2.5104	-2.3083	-2.1875	-2.6937	-2.5687	-2.4458	-2.6646	-2.3167	-2.65	-2.7458	-2.2833	-2.6979	-2.4688	327.541	223.141	487.555	339.228	473.926	445.508	491.037	454.764	382.040	320.676	483.013	406.877	484.920	363.785	162.369	363.743	0.0014378	0.00038724	0.00011564	963.29	2.777e-06	6.9496e-06	1270.9	363.42	4.9742e-06	9.6323e-06	540.66	185.19	104.83	36.275	8.4794e-06	66.247	0.00045052	0.00040953	0.00011689	984.1	4.8247e-06	4.4049e-06	1261.7	363.64	4.7572e-06	4.3901e-06	521.17	180.42	104.54	36.406	4.9021e-06	65.316	355.453	458.252	176.281	170.252	210.517	233.866	169.109	174.307	238.084	315.969	172.808	176.532	177.877	184.163	217.136	182.116	-8191	255	
7627.764	1	1	0	0	0.24677	0.12695	0.093459	0.090141	0.19541	0.2807	0.038348	0.23237	0.12829	0.17921	0.21473	0.17706	0.28278	0.13126	0.099153	0.21325	-1.8354	-2.7292	-2.1292	-2.6875	-2.6333	-2.4021	-2.6354	-2.4958	-2.3896	-2.7896	-2.4896	-2.4604	-2.6104	-2.1813	-2.7271	-2.5875	443.309	191.952	478.170	479.792	237.548	430.347	442.496	381.289	309.979	236.999	407.034	449.980	501.920	431.751	194.964	157.640	0.0016857	0.00062093	0.0002531	964.6	5.3433e-06	3.0168e-06	1274.1	362.87	4.0622e-06	6.4101e-06	539	184.72	105.09	36.195	2.7885e-06	66.337	0.00043856	0.00040456	0.00012663	982.67	4.7493e-06	4.3721e-06	1267.3	362.8	4.6984e-06	4.3944e-06	523.32	179.6	104.02	36.472	5.15e-06	65.167	352.404	171.745	157.358	170.193	305.753	218.434	169.018	174.458	246.050	294.447	172.776	176.772	178.068	184.120	158.356	182.234	-8191	255	
7627.860	1	1	0	0	0.2396	0.11249	0.15665	0.13406	0.075218	0.13468	0.14861	0.34204	0.14414	0.13304	0.30678	0.2524	0.056253	0.19199	0.38889	0.24011	-1.8188	-2.6771	-2.3	-2.675	-2.5438	-2.3479	-2.6667	-2.5687	-2.1583	-2.5979	-2.45	-2.5708	-2.6583	-2.5	-2.5479	-2.5229	467.283	344.272	489.626	273.054	244.935	453.987	482.232	446.821	354.150	454.333	514.204	486.222	189.882	423.350	437.938	449.780	0.0018294	0.00015105	0.00012209	960.13	5.2204e-06	7.966e-06	1272.3	362.47	8.0185e-06	9.3322e-06	540.26	185.33	105.28	36.299	3.9724e-06	66.399	0.00042512	0.00040303	0.00013221	977.73	4.5495e-06	4.447e-06	1271.1	361.82	4.5139e-06	4.5512e-06	526.27	179.87	104.19	36.709	5.3116e-06	65.033	355.815	235.331	249.192	170.317	247.560	210.212	168.919	174.380	285.772	198.126	172.879	176.652	178.221	184.345	243.809	182.362	-8191	255	
7627.956	1	1	0	0	0.10636	0.12648	0.37031	0.086232	0.16056	0.28453	0.25701	0.31768	0.15491	0.11924	0.081965	0.21482	0.18474	0.32129	0.13775	0.34576	-1.8375	-2.4979	-2.0729	-2.3792	-2.6271	-2.275	-2.7792	-2.8187	-2.3333	-2.7438	-2.4417	-2.4917	-2.5333	-2.4042	-2.4437	-2.5208	514.201	404.683	255.228	277.779	396.700	452.812	511.090	435.080	425.199	422.584	402.217	481.728	482.340	493.369	273.888	467.848	0.0015316	0.00070658	8.6917e-05	958.74	6.365e-06	1.8486e-06	1273.9	362.21	3.4603e-06	6.4058e-06	537.55	184.11	105.07	36.081	9.1505e-06	66.084	0.00041573	0.00043264	0.00013527	973.66	4.4498e-06	4.7784e-06	1270.1	360.28	4.4275e-06	4.8727e-06	523.68	178.74	103.34	36.868	5.1924e-06	64.858	357.467	472.350	271.466	170.110	255.650	486.568	168.780	174.331	249.689	246.760	172.892	176.697	178.197	184.147	297.231	182.118	-8191	255	
7628.077	1	1	0	0	0.01969	0.16177	0.087423	0.10153	0.13679	0.16573	0.28265	0.2168	0.020826	0.16972	0.1347	0.2807	0.38269	0.18288	0.11837	0.13269	-1.7542	-2.4688	-2.5062	-2.4875	-2.6917	-2.3375	-2.6917	-2.4104	-2.1333	-2.6437	-2.4417	-2.6229	-2.8667	-2.3229	-2.4229	-2.5375	286.582	493.171	185.917	170.855	279.708	226.738	383.362	430.981	253.234	435.558	493.966	508.416	485.086	447.099	472.502	443.219	0.0019577	0.00063283	0.00014436	959.87	5.9675e-06	4.6787e-06	1271.8	362.43	1.0905e-05	4.5223e-06	541.17	183.69	104.5	36.185	4.2373e-06	65.961	0.00040778	0.00046285	0.00013045	972.09	4.4335e-06	5.1327e-06	1267	360.14	4.4102e-06	5.1759e-06	522.58	178	103.34	37.089	4.9529e-06	64.634	359.151	174.617	320.507	170.243	224.293	212.816	169.033	174.396	206.921	239.717	173.057	176.741	177.808	184.087	254.556	182.072	-8191	255	
7628.173	1	1	0	0	0.068382	0.26748	0.17623	0.20925	0.12301	0.1493	0.22539	0.31492	0.14185	0.10915	0.20744	0.20181	0.073953	0.31652	0.050624	0.15772	-1.7167	-2.5875	-2.3	-2.1333	-2.6104	-2.4	-2.6188	-2.6	-2.3354	-2.6021	-2.4396	-2.4083	-2.7021	-2.2917	-2.2833	-2.4771	266.404	263.649	391.624	505.440	287.767	292.807	433.154	512.958	350.769	256.752	488.259	496.214	440.465	426.759	231.647	170.056	0.0018127	0.00035841	0.00010384	961.26	9.2896e-06	5.0123e-06	1272	362.5	7.5432e-06	3.7185e-06	540.97	184.2	104.85	36.106	6.4225e-06	66.043	0.0004179	0.00047954	0.00012512	969.95	4.5811e-06	5.2851e-06	1264.4	359.28	4.6273e-06	5.2294e-06	522.14	177.73	104.16	37.126	4.7253e-06	64.515	349.091	389.526	289.781	170.345	188.399	248.819	168.901	174.484	223.574	268.963	172.533	176.392	178.027	184.136	328.677	182.247	-8191	255	
7628.269	1	1	0	0	0.20479	0.20704	0.22414	0.24386	0.027287	0.10896	0.20668	0.17243	0.27203	0.12904	0.29038	0.22228	0.08398	0.042034	0.10353	0.1202	-1.8312	-2.5792	-2.5333	-2.4229	-2.5375	-2.4062	-2.3104	-2.6437	-2.2479	-2.3542	-2.7104	-2.2125	-2.5771	-2.4229	-2.4333	-2.8271	438.364	485.786	470.299	365.460	208.173	157.188	434.277	390.459	234.205	188.249	489.597	457.052	433.760	367.682	262.226	440.816	0.0020544	0.00069188	0.00016504	961.54	8.1964e-06	3.6004e-06	1271.6	361.95	9.5373e-06	6.3925e-06	541.93	184.92	104.46	35.941	6.1039e-06	66.129	0.00044319	0.0004767	0.0001203	968.11	4.8691e-06	5.1992e-06	1263.4	358.98	4.9067e-06	5.0466e-06	520.13	177.56	104.72	36.757	4.5068e-06	64.282	351.804	242.350	268.894	170.060	195.562	438.785	168.823	174.568	224.434	371.866	173.019	176.538	177.933	184.107	309.420	182.284	-8191	255	
7628.366	1	1	0	0	0.07004	0.31968	0.093085	0.38377	0.072904	0.069259	0.21623	0.2603	0.21896	0.32054	0.18454	0.073421	0.098542	0.3656	0.1641	0.28881	-1.8083	-2.3833	-2.4854	-2.2708	-2.5167	-2.3229	-2.4375	-2.6979	-2.3708	-2.5042	-2.7104	-2.4667	-2.6063	-2.3042	-2.1813	-2.7458	454.508	190.183	198.775	165.132	300.816	241.087	369.857	192.831	229.756	363.900	437.085	208.603	353.269	452.652	483.312	439.371	0.0021736	0.00037959	1.3033e-05	962.67	1.1798e-05	2.6808e-06	1273.5	363.93	7.8285e-06	9.5873e-06	541.17	185.39	105.15	36.148	5.7867e-06	66.189	0.00046236	0.00044756	0.0001137	966.7	5.0291e-06	4.9089e-06	1260.7	359.54	5.1407e-06	4.8675e-06	520.15	178.16	106.01	36.728	4.3966e-06	64.401	349.564	257.710	164.517	170.211	248.429	276.506	169.049	174.305	202.996	374.027	172.889	176.578	178.270	184.330	280.313	182.031	-8191	255	
7628.462	1	1	0	0	0.17381	0.14095	0.084663	0.4652	0.016029	0.13867	0.41129	0.15127	0.13491	0.25644	0.14153	0.22473	0.17826	0.1621	0.13083	0.16137	-1.8625	-2.5375	-2.4667	-2.2812	-2.4	-2.5521	-2.3458	-2.8729	-2.5625	-2.2417	-2.6937	-2.3042	-2.5187	-2.6833	-2.3604	-2.8125	156.673	259.789	329.117	507.868	262.364	473.069	448.814	440.167	300.991	268.926	293.024	492.500	173.826	488.606	479.920	390.500	0.0015467	0.00083261	6.9712e-05	961.91	2.8014e-06	5.6012e-06	1273.7	363.49	5.8861e-06	5.0468e-06	541.81	184.29	104.98	36.128	4.823e-06	66.072	0.00048177	0.00042849	0.00011092	971.21	5.1348e-06	4.6794e-06	1257.3	360.31	5.1784e-06	4.633e-06	518.25	178.94	105.94	36.741	4.343e-06	64.982	349.662	263.670	403.411	170.105	300.822	261.105	168.980	174.496	262.670	316.173	172.898	176.641	178.175	184.489	237.499	182.281	-8191	255	
#DATA ENDS
