BOXY.EXE: ISS Imagent and Oximeter Data Acquisition Program Version 0.80
Ascii Record File

#ACQ INFORMATION
2  Detector Channels 
16  External MUX Channels 
1  Auxiliary Channels 
5000  Waveform (CCF) Frequency (Hz)
1  Waveforms Skipped 
30  Waveforms Averaged 
1  Cycles Averaged 
16  Acquisitions per Waveform 
10.0806  Updata Rate (Hz) 

#FILE INFORMATION
TRUE -- External MUX Channel results are PARSED.
FALSE -- AC DC and Phase are NOT grouped.
TRUE -- Companion Program Settings File CREATED.
FALSE -- AC data not excluded
FALSE -- DC data not excluded
FALSE -- Phase data not excluded
FALSE -- Auxillary Chn. data not excluded
Tab delimiters

#CALIBRATION STATE
TRUE -- Waveform Calibration Values APPLIED.


#AUX CALIBRATION VALUES
Val Type	aux-1	

Term	1.0000e+00	
Factor	0.0000e+00	


#WF CALIBRATION VALUES
A = Detector Channel
Val Type	A-AC1	A-AC2	A-AC3	A-AC4	A-AC5	A-AC6	A-AC7	A-AC8	A-AC9	A-AC10	A-AC11	A-AC12	A-AC13	A-AC14	A-AC15	A-AC16	A-DC1	A-DC2	A-DC3	A-DC4	A-DC5	A-DC6	A-DC7	A-DC8	A-DC9	A-DC10	A-DC11	A-DC12	A-DC13	A-DC14	A-DC15	A-DC16	A-Ph1	A-Ph2	A-Ph3	A-Ph4	A-Ph5	A-Ph6	A-Ph7	A-Ph8	A-Ph9	A-Ph10	A-Ph11	A-Ph12	A-Ph13	A-Ph14	A-Ph15	A-Ph16	

Term	0.00000e+00	0.00000e+00	0.00000e+00	0.00000e+00	0.00000e+00	0.00000e+00	0.00000e+00	0.00000e+00	0.00000e+00	0.00000e+00	0.00000e+00	0.00000e+00	0.00000e+00	0.00000e+00	0.00000e+00	0.00000e+00	0.00000e+00	0.00000e+00	0.00000e+00	0.00000e+00	0.00000e+00	0.00000e+00	0.00000e+00	0.00000e+00	0.00000e+00	0.00000e+00	0.00000e+00	0.00000e+00	0.00000e+00	0.00000e+00	0.00000e+00	0.00000e+00	0.00000e+00	0.00000e+00	0.00000e+00	0.00000e+00	0.00000e+00	0.00000e+00	0.00000e+00	0.00000e+00	0.00000e+00	0.00000e+00	0.00000e+00	0.00000e+00	0.00000e+00	0.00000e+00	0.00000e+00	0.00000e+00	
Factor	1.00000e+00	1.00000e+00	1.00000e+00	1.00000e+00	1.00000e+00	1.00000e+00	1.00000e+00	1.00000e+00	1.00000e+00	1.00000e+00	1.00000e+00	1.00000e+00	1.00000e+00	1.00000e+00	1.00000e+00	1.00000e+00	1.00000e+00	1.00000e+00	1.00000e+00	1.00000e+00	1.00000e+00	1.00000e+00	1.00000e+00	1.00000e+00	1.00000e+00	1.00000e+00	1.00000e+00	1.00000e+00	1.00000e+00	1.00000e+00	1.00000e+00	1.00000e+00	X	X	X	X	X	X	X	X	X	X	X	X	X	X	X	X	

B = Detector Channel
Val Type	B-AC1	B-AC2	B-AC3	B-AC4	B-AC5	B-AC6	B-AC7	B-AC8	B-AC9	B-AC10	B-AC11	B-AC12	B-AC13	B-AC14	B-AC15	B-AC16	B-DC1	B-DC2	B-DC3	B-DC4	B-DC5	B-DC6	B-DC7	B-DC8	B-DC9	B-DC10	B-DC11	B-DC12	B-DC13	B-DC14	B-DC15	B-DC16	B-Ph1	B-Ph2	B-Ph3	B-Ph4	B-Ph5	B-Ph6	B-Ph7	B-Ph8	B-Ph9	B-Ph10	B-Ph11	B-Ph12	B-Ph13	B-Ph14	B-Ph15	B-Ph16	

Term	0.00000e+00	0.00000e+00	0.00000e+00	0.00000e+00	0.00000e+00	0.00000e+00	0.00000e+00	0.00000e+00	0.00000e+00	0.00000e+00	0.00000e+00	0.00000e+00	0.00000e+00	0.00000e+00	0.00000e+00	0.00000e+00	0.00000e+00	0.00000e+00	0.00000e+00	0.00000e+00	0.00000e+00	0.00000e+00	0.00000e+00	0.00000e+00	0.00000e+00	0.00000e+00	0.00000e+00	0.00000e+00	0.00000e+00	0.00000e+00	0.00000e+00	0.00000e+00	-5.24022e+01	-1.64169e+02	-9.76990e+01	-1.80969e+02	-5.66720e+01	-9.77327e+01	-1.56073e+02	-1.62015e+02	-2.91745e+01	-6.44927e+01	-1.73276e+02	-1.70265e+02	-1.82009e+02	-1.76771e+02	-6.96488e+01	-1.50163e+02	
Factor	1.86859e-05	9.78118e-05	2.79070e-05	1.67683e-01	9.76611e-07	1.10387e-06	1.73110e-01	5.09591e-02	1.07639e-06	1.05178e-06	1.04153e-01	2.91335e-02	3.50756e-02	9.31146e-03	9.58455e-07	1.36155e-02	6.11716e-07	6.27859e-07	1.75053e-07	7.79073e-02	6.84918e-09	6.89061e-09	7.55109e-02	2.36384e-02	6.84905e-09	6.88618e-09	4.50172e-02	1.28399e-02	1.55609e-02	4.22386e-03	6.88738e-09	5.88561e-03	X	X	X	X	X	X	X	X	X	X	X	X	X	X	X	X	



#DISTANCE SETTINGS
A = Detector Channel
A-1	A-2	A-3	A-4	A-5	A-6	A-7	A-8	A-9	A-10	A-11	A-12	A-13	A-14	A-15	A-16	

2.5000e+00	3.0000e+00	2.5000e+00	3.0000e+00	2.0000e+00	3.0000e+00	1.5000e+00	3.0000e+00	3.0000e+00	3.0000e+00	3.0000e+00	3.0000e+00	3.0000e+00	3.0000e+00	1.5000e+00	3.0000e+00	

B = Detector Channel
B-1	B-2	B-3	B-4	B-5	B-6	B-7	B-8	B-9	B-10	B-11	B-12	B-13	B-14	B-15	B-16	

1.0000e+01	1.0000e+01	1.0000e+01	1.4400e+00	1.0000e+01	1.0000e+01	1.5100e+00	1.9400e+00	1.0000e+01	1.0000e+01	1.9900e+00	2.4900e+00	2.4100e+00	2.9000e+00	1.0000e+01	2.9800e+00	




#DATA BEGINS
time	group	step	mark	flag	A-AC1	A-AC2	A-AC3	A-AC4	A-AC5	A-AC6	A-AC7	A-AC8	A-AC9	A-AC10	A-AC11	A-AC12	A-AC13	A-AC14	A-AC15	A-AC16	A-DC1	A-DC2	A-DC3	A-DC4	A-DC5	A-DC6	A-DC7	A-DC8	A-DC9	A-DC10	A-DC11	A-DC12	A-DC13	A-DC14	A-DC15	A-DC16	A-Ph1	A-Ph2	A-Ph3	A-Ph4	A-Ph5	A-Ph6	A-Ph7	A-Ph8	A-Ph9	A-Ph10	A-Ph11	A-Ph12	A-Ph13	A-Ph14	A-Ph15	A-Ph16	B-AC1	B-AC2	B-AC3	B-AC4	B-AC5	B-AC6	B-AC7	B-AC8	B-AC9	B-AC10	B-AC11	B-AC12	B-AC13	B-AC14	B-AC15	B-AC16	B-DC1	B-DC2	B-DC3	B-DC4	B-DC5	B-DC6	B-DC7	B-DC8	B-DC9	B-DC10	B-DC11	B-DC12	B-DC13	B-DC14	B-DC15	B-DC16	B-Ph1	B-Ph2	B-Ph3	B-Ph4	B-Ph5	B-Ph6	B-Ph7	B-Ph8	B-Ph9	B-Ph10	B-Ph11	B-Ph12	B-Ph13	B-Ph14	B-Ph15	B-Ph16	aux-1	digaux	

1129.475	1	1	0	256	0.1257	0.060681	0.2264	0.18506	0.18458	0.027173	0.20867	0.13122	0.15714	0.24696	0.21356	0.25549	0.09523	0.20869	0.12001	0.080352	-3.1521	-3.0312	-3.3042	-3.3521	-3.0333	-3.4208	-3.3875	-3.2062	-3.3937	-3.025	-3.3396	-3.2042	-2.9271	-3.3	-3.1042	-3.0125	146.352	5.482	172.327	-144.308	70.407	22.091	176.533	123.271	-120.656	57.714	113.051	169.122	62.433	142.729	-10.784	98.758	0.00028291	0.00018157	0.0001183	1314.5	3.0783e-06	2.5621e-06	1385.5	278.56	7.5181e-07	2.1037e-06	341.24	95.015	76.058	21.867	3.8353e-07	30.394	0.00014703	0.00015363	4.6434e-05	1247.1	1.6058e-06	1.7058e-06	1317	264.87	1.5879e-06	1.7414e-06	318.63	90.873	70.859	21.258	1.8026e-06	29.092	-67.302	-52.259	-16.420	-155.720	-33.010	-28.665	-155.581	-148.778	90.024	-24.515	-149.097	-142.777	-142.440	-135.577	171.415	-135.727	-8191	255	
1129.571	1	1	0	0	0.20634	0.029703	0.10847	0.17604	0.13332	0.11895	0.082431	0.065891	0.18476	0.15841	0.14503	0.062042	0.14199	0.1436	0.10867	0.1458	-2.9208	-2.8812	-3.0667	-3.4375	-2.9146	-3.4437	-3.4167	-3.2271	-3.4542	-2.9958	-3.2458	-3.2771	-3.1125	-3.0896	-3.1437	-3.1437	166.330	-56.904	-107.902	131.312	-96.438	3.289	191.490	30.136	113.332	177.370	162.663	-144.834	-8.876	146.627	174.130	160.420	0.00026909	0.00010984	6.0334e-05	1306.3	3.464e-06	9.9554e-07	1379	276.12	3.8257e-06	2.381e-06	338.82	95.29	76.037	21.897	3.4877e-06	30.39	0.00014464	0.00015612	4.4388e-05	1236.1	1.5378e-06	1.6664e-06	1306.7	262.69	1.4078e-06	1.6152e-06	314.98	90.251	70.314	21.095	1.5262e-06	28.839	-83.772	-101.298	-29.252	-155.489	-15.752	5.914	-155.479	-148.509	-6.750	-72.639	-148.566	-142.463	-142.190	-135.725	-5.128	-135.930	-8191	255	
1129.692	1	1	0	0	0.13678	0.11557	0.089483	0.32084	0.066076	0.22148	0.046748	0.17095	0.147	0.29114	0.19017	0.12578	0.22745	0.16715	0.11933	0.18892	-2.9167	-2.9979	-2.9917	-3.5708	-2.7417	-3.3479	-3.3083	-3.0729	-3.3	-3.0896	-3.0708	-3.3854	-2.9625	-3.1396	-3.1708	-2.8833	136.942	-23.377	188.079	95.005	175.560	57.898	109.248	148.130	174.608	-99.133	147.705	147.495	50.996	-97.724	62.487	178.821	0.00029033	0.00011742	3.3892e-05	1309.4	3.5781e-06	1.9876e-06	1383.7	277.37	1.1826e-06	7.8398e-07	340.29	95.431	75.685	21.999	4.1151e-06	30.522	0.00013113	0.00014501	3.8372e-05	1236.2	1.4653e-06	1.6448e-06	1307.9	263.35	1.5116e-06	1.6837e-06	316.43	90.558	71.043	21.299	1.6536e-06	29.084	-85.983	-60.985	-90.642	-155.495	-103.031	-154.855	-155.707	-148.713	-51.425	104.461	-149.022	-142.513	-142.412	-135.604	-79.801	-135.862	-8191	255	
1129.788	1	1	0	0	0.24771	0.14472	0.19712	0.2375	0.11164	0.20901	0.25554	0.40611	0.19207	0.073013	0.17396	0.27042	0.12346	0.042627	0.10524	0.14536	-2.9021	-2.9542	-3.0312	-3.4542	-2.8333	-3.0292	-3.4646	-2.8354	-3.225	-3.0875	-2.9938	-3.3312	-3.1042	-3.0208	-3.2146	-2.9625	-141.741	-158.786	-164.193	106.395	125.987	-12.294	177.734	156.298	-26.014	-22.829	143.519	-109.548	159.233	-149.673	172.428	-109.524	0.00030149	0.00030031	6.6069e-05	1313	1.5137e-06	1.4457e-06	1383.2	278.39	9.3061e-07	3.6138e-06	339.59	95.928	76.454	21.991	4.2589e-06	30.656	0.00015923	0.00016842	4.3759e-05	1241.8	1.7836e-06	1.8625e-06	1313.3	264.78	1.8101e-06	1.8831e-06	318.22	91.18	72.056	21.491	1.7698e-06	29.319	-81.191	-112.851	-31.748	-155.597	-60.739	-56.234	-155.705	-148.607	160.914	-80.229	-149.048	-142.693	-142.090	-135.767	-36.086	-135.975	-8191	255	
1129.884	1	1	0	0	0.071752	0.026281	0.16514	0.14913	0.0619	0.22017	0.27201	0.37643	0.18089	0.16858	0.24231	0.036709	0.16546	0.10223	0.087209	0.072248	-2.8479	-3.0563	-2.8104	-3.5292	-2.9667	-3.0271	-3.4583	-3.1063	-2.9771	-3.2333	-3.0479	-3.25	-2.9979	-3.0917	-3.3021	-2.9167	32.206	190.713	-116.502	123.537	20.984	-97.778	144.436	117.883	105.053	156.189	-11.501	-122.821	174.715	150.632	165.423	-109.630	0.00026321	0.00012781	6.1183e-05	1322.7	3.811e-06	4.9482e-06	1391.1	278.99	1.9107e-06	5.2767e-06	344.53	96.07	76.537	22.361	3.6049e-06	30.782	0.00017989	0.00017382	4.5669e-05	1249.6	1.9924e-06	1.9156e-06	1320.4	266.65	2.0204e-06	1.9049e-06	320.66	91.893	72.902	21.708	1.8214e-06	29.627	-88.795	-66.833	-53.749	-155.671	-36.472	-20.807	-155.507	-148.989	-53.407	-14.229	-149.066	-142.618	-142.194	-135.584	4.265	-135.938	-8191	255	
1129.980	1	1	0	0	0.1933	0.048686	0.1076	0.17496	0.22269	0.17226	0.073955	0.21907	0.37937	0.10878	0.15067	0.10584	0.16431	0.24347	0.32384	0.076315	-2.8667	-3.2188	-2.9396	-3.3563	-3.0438	-3.0042	-3.5208	-3.175	-3.2521	-3.0708	-3.0458	-3.375	-3.2687	-3.075	-3.2521	-2.9417	-32.265	50.325	-162.988	115.545	13.228	63.999	-116.655	-156.435	-85.092	59.020	-149.147	-130.537	-96.911	111.541	-153.514	166.753	0.00025343	0.00039661	0.0001142	1332.6	1.7805e-06	3.7614e-06	1402.6	282.12	4.6666e-06	5.989e-06	343.94	96.323	77.716	22.495	3.9362e-06	30.884	0.00019558	0.0001786	4.821e-05	1264	2.1334e-06	2.0148e-06	1331.5	269.8	2.1385e-06	1.9349e-06	322.35	92.857	73.532	21.86	1.834e-06	29.976	-80.860	-117.416	33.552	-155.679	181.027	-78.582	-155.261	-148.852	-13.096	-7.812	-149.046	-142.545	-142.145	-135.920	-41.663	-135.872	-8191	255	
1130.076	1	1	0	0	0.16922	0.20192	0.083564	0.14447	0.076145	0.11519	0.24605	0.27373	0.16075	0.12684	0.088	0.4005	0.29479	0.37292	0.067728	0.29988	-2.8833	-3.0396	-2.9646	-3.4375	-3.1896	-2.8083	-3.5938	-3.1917	-3.225	-3.2542	-2.8958	-3.2771	-3.1792	-2.9125	-3.1729	-3.0375	79.254	172.819	57.910	137.310	78.558	45.594	121.868	113.221	133.772	71.777	-70.156	92.501	-133.684	177.308	-39.281	-156.867	0.00021511	0.00016057	3.6527e-05	1346.2	1.5974e-06	4.3803e-06	1411.5	285.62	2.6634e-06	2.1841e-06	350.26	98.131	78.189	22.937	2.8906e-06	31.451	0.00019945	0.00018229	4.8325e-05	1278.9	2.1541e-06	2.0202e-06	1344.2	273.54	2.1094e-06	1.9143e-06	326.47	94.226	74.332	22.19	1.8409e-06	30.334	-78.033	-53.129	-58.695	-155.718	-134.109	28.194	-155.555	-148.874	-43.415	5.893	-148.990	-142.654	-142.628	-135.949	3.547	-136.177	-8191	255	
1130.171	1	1	0	0	0.18649	0.05607	0.22629	0.23015	0.026093	0.24391	0.47798	0.12483	0.23663	0.1634	0.07827	0.18914	0.40218	0.1692	0.1159	0.2454	-2.8083	-3.2229	-2.8604	-3.3875	-3.0396	-2.9625	-3.4792	-3.2917	-2.9333	-3.4229	-3.0125	-3.3021	-3.1667	-3.0604	-3.2396	-3.0792	-85.061	162.490	-4.940	148.136	191.413	-22.384	123.716	85.643	-113.879	-89.956	-41.144	12.200	131.434	-136.322	-114.584	127.492	0.00027744	0.00052644	3.9464e-05	1350.3	4.0479e-06	4.887e-06	1416.3	286.04	2.4584e-06	2.157e-06	352.1	98.5	79.286	22.951	8.7147e-07	31.549	0.00018918	0.00016984	4.7813e-05	1283.5	1.9859e-06	1.8967e-06	1349.8	274.55	2.0124e-06	1.8555e-06	328.5	94.699	74.684	22.245	1.9866e-06	30.62	-92.238	-89.251	19.590	-155.744	-11.294	-62.244	-155.585	-148.734	-6.782	-38.145	-149.108	-142.706	-142.311	-135.980	-37.112	-136.489	-8191	255	
1130.269	1	1	0	0	0.36053	0.17304	0.040713	0.28145	0.24014	0.2154	0.15184	0.030349	0.13997	0.30534	0.053057	0.067822	0.11864	0.22579	0.07545	0.21555	-2.6771	-3.4062	-2.8896	-3.1646	-3.2438	-2.8583	-3.3729	-3.3479	-3.1167	-3.3604	-2.9542	-3.1729	-3.2708	-2.9271	-3.1271	-3.0708	-121.661	-106.270	-101.805	154.452	32.115	119.071	134.015	51.124	-76.550	-74.695	-14.873	169.664	-24.305	-49.121	-7.750	177.469	0.00028759	6.9273e-05	0.0001518	1355.6	1.0365e-06	4.2112e-06	1432.2	288.94	8.742e-07	2.8164e-06	353.2	98.864	79.002	23.057	3.6779e-06	31.821	0.00019294	0.00017918	5.4562e-05	1290.6	2.1465e-06	2.0933e-06	1362.6	277.33	2.2741e-06	2.0778e-06	332.75	95.695	75.291	22.528	2.3983e-06	30.838	-87.313	58.253	-75.341	-155.606	-147.217	-40.628	-155.538	-149.023	-95.846	-137.145	-149.007	-142.609	-142.493	-136.009	-66.360	-135.894	-8191	255	
1130.388	1	1	0	0	0.3263	0.14782	0.13335	0.25846	0.11544	0.0079272	0.27619	0.10503	0.1501	0.31948	0.3094	0.22687	0.16678	0.28556	0.18435	0.20736	-2.6146	-3.2875	-2.8875	-3.2562	-3.2479	-2.9688	-3.4667	-3.1771	-2.9979	-3.3063	-3.1542	-3.0479	-3.2896	-3.0292	-3.3312	-3.3542	-127.736	126.370	178.112	128.096	53.556	136.367	162.552	-118.702	67.532	-16.633	140.589	-131.478	172.608	-154.076	-28.505	74.348	0.00021393	0.00049228	0.00017671	1351.7	1.7689e-06	4.5822e-06	1418.8	285.52	2.9192e-06	4.3617e-06	350.37	97.679	78.345	22.697	6.6826e-07	31.396	0.00020776	0.00019259	6.0867e-05	1288.5	2.1814e-06	2.1044e-06	1357	274.73	2.1105e-06	1.9894e-06	329.11	94.295	73.875	22.148	2.258e-06	30.266	-79.514	181.854	190.593	-155.424	21.638	-86.455	-155.622	-148.742	80.885	52.737	-149.049	-142.460	-142.289	-135.870	-29.170	-136.143	-8191	255	
1130.484	1	1	0	0	0.075869	0.04724	0.18397	0.029462	0.23037	0.039441	0.15107	0.27417	0.11566	0.10555	0.12338	0.27695	0.21417	0.10427	0.12313	0.26106	-2.3771	-3.2229	-3.1417	-3.0792	-3.15	-3.025	-3.2833	-3.2792	-2.8625	-3.2542	-3.2812	-3.2812	-3.2917	-3.0792	-3.2646	-3.3125	70.337	-135.506	110.897	151.003	103.006	107.651	112.783	89.103	-37.669	-135.288	-115.341	-120.039	176.237	166.695	44.417	173.767	0.00026591	0.00035165	4.0939e-05	1348	3.1248e-06	6.7967e-06	1410.6	283.71	4.4386e-06	2.1911e-06	347.54	97.777	78.082	22.572	5.1629e-06	31.174	0.00018475	0.0001832	5.7915e-05	1277.2	1.9149e-06	2.021e-06	1346.5	271.89	1.8858e-06	1.9494e-06	326.99	93.444	73.094	21.935	2.1267e-06	29.972	-75.234	141.920	-30.484	-155.579	-46.697	-108.351	-155.532	-148.927	1.901	-16.424	-149.179	-142.640	-142.260	-135.715	-21.875	-136.295	-8191	255	
1130.580	1	1	0	0	0.072338	0.33478	0.15965	0.18478	0.071577	0.26536	0.16292	0.098216	0.24971	0.20609	0.25205	0.43784	0.089135	0.1919	0.078542	0.074304	-2.5062	-3.2396	-3.0729	-3.25	-3.2792	-3.125	-3.3542	-3.3521	-3.0542	-3.3563	-3.2021	-2.9437	-3.3771	-3.0896	-3.2292	-3.1688	-37.538	18.482	40.995	152.771	11.448	137.593	164.107	121.834	63.938	13.047	173.794	99.585	-132.147	176.194	5.563	-154.224	0.00029243	0.00036848	5.5857e-05	1336.1	2.9021e-06	2.0123e-06	1404.4	280.69	4.7435e-06	2.4788e-06	343.11	96.791	76.926	22.431	2.0599e-06	31.106	0.00017043	0.00018091	5.2723e-05	1265.5	1.7537e-06	1.9792e-06	1334.7	269	1.7683e-06	1.996e-06	323.73	92.626	72.463	21.876	2.0321e-06	29.714	-83.642	-146.967	-19.465	-155.612	-92.291	-53.086	-155.716	-148.548	-69.285	19.533	-148.987	-142.514	-142.347	-135.560	-68.029	-136.100	-8191	255	
1130.676	1	1	0	0	0.15386	0.25024	0.11395	0.4293	0.18972	0.080872	0.31083	0.16349	0.080954	0.12777	0.17801	0.18078	0.030617	0.27243	0.13532	0.21294	-2.5458	-3.1979	-3.0625	-3.1104	-3.3187	-3.0229	-3.4125	-3.2792	-3.0021	-3.2125	-3.0583	-3.1021	-3.1542	-3.1042	-2.9708	-3.1604	-13.858	4.367	-86.937	152.501	68.417	43.486	158.703	28.975	73.806	-89.922	158.182	169.505	192.087	-165.184	170.677	-117.238	0.00032139	0.00021738	3.5771e-05	1330.7	2.4146e-06	6.7284e-07	1404.5	280.08	5.3396e-07	1.0278e-06	343.02	95.961	76.347	21.971	5.0047e-07	30.364	0.00016868	0.00018744	4.9489e-05	1262	1.7805e-06	2.0557e-06	1336	267.92	1.8129e-06	2.0427e-06	321.64	91.609	71.742	21.41	1.8382e-06	29.063	-91.375	192.061	107.260	-155.577	-42.414	113.827	-155.562	-148.735	-81.480	-66.889	-148.721	-142.503	-142.171	-135.474	-19.694	-136.522	-8191	255	
1130.772	1	1	0	0	0.18671	0.087398	0.2411	0.18483	0.047123	0.082616	0.31624	0.22967	0.08011	0.052419	0.35825	0.10044	0.12933	0.15839	0.36675	0.1529	-2.4979	-3.0833	-3.0458	-2.95	-3.2021	-3.1146	-3.0625	-3.4896	-2.9625	-3.2979	-3.2458	-2.9333	-3.2292	-2.9688	-2.9542	-3.5625	172.665	177.121	167.593	184.798	119.224	79.683	180.274	182.242	-3.277	-7.355	188.940	-65.232	170.197	91.259	-62.357	125.778	0.00028113	0.00040631	1.1686e-05	1316.7	8.0722e-07	3.5411e-06	1392.1	278.31	2.4513e-06	1.9127e-06	341.22	95.186	75.39	21.578	3.4583e-06	29.885	0.0001655	0.00017899	4.5552e-05	1249	1.8185e-06	1.997e-06	1320.6	264.66	1.9343e-06	2.0089e-06	318.19	90.609	70.942	20.998	1.6381e-06	28.401	-95.356	-56.166	-95.594	-155.365	-37.798	-62.660	-155.617	-148.927	-77.099	-111.759	-148.951	-142.521	-142.152	-135.346	-38.255	-135.424	-8191	255	
1130.868	1	1	0	0	0.069521	0.043881	0.024903	0.15425	0.17392	0.36034	0.17494	0.3126	0.020691	0.067306	0.066779	0.10857	0.045174	0.031715	0.24883	0.03521	-2.6	-3.1229	-3.2188	-3.3042	-3.1813	-3.1521	-3.1042	-3.4146	-3.0708	-3.0708	-3.3521	-2.8604	-3.1354	-3.2062	-2.8167	-3.2417	99.585	67.362	-36.149	-49.445	115.938	-23.235	-140.301	175.815	-98.190	46.616	88.215	-163.229	-58.231	-41.414	53.091	168.270	0.00029568	0.0001126	2.198e-05	1295.2	2.6804e-06	4.3655e-06	1358.8	268.17	2.5869e-06	7.1371e-07	326.47	91.142	72.041	20.665	4.0211e-06	28.895	0.00015008	0.00014266	3.4949e-05	1222.8	1.401e-06	1.3209e-06	1281.3	253.9	1.2708e-06	1.1745e-06	301.6	85.949	66.574	19.719	1.0718e-06	27.133	-88.812	-16.055	-49.557	-155.472	-65.850	-3.283	-155.610	-148.442	63.924	27.947	-148.737	-142.547	-142.273	-135.099	-12.433	-135.521	-8191	255	
1130.965	1	1	0	0	0.083318	0.31242	0.15636	0.067417	0.22632	0.043677	0.38452	0.20603	0.16714	0.11677	0.28101	0.11159	0.029019	0.088907	0.20029	0.033036	-2.6792	-3.0208	-3.1521	-3.0062	-3.0875	-3.1646	-3.1521	-3.4354	-2.95	-3.1458	-3.2562	-2.8063	-3.2438	-3.175	-2.7625	-3.3396	-87.383	44.551	103.992	-160.993	-22.639	91.084	94.764	137.078	33.672	190.142	-120.346	174.301	-103.047	53.887	-87.486	174.160	0.00027579	0.0002936	7.6319e-05	1266	1.4347e-06	1.8034e-06	1330.6	262.39	4.1523e-06	4.0869e-06	324.18	89.857	71.931	20.421	2.0596e-06	28.505	0.00011706	0.00010529	2.7707e-05	1192	1.2712e-06	1.1598e-06	1258.8	249.37	1.346e-06	1.2396e-06	299.17	85.368	66.661	19.578	1.2494e-06	27.091	-94.177	-109.647	-52.494	-155.556	23.215	-87.832	-155.409	-148.521	-40.124	22.326	-148.691	-142.408	-141.855	-135.138	-5.391	-135.479	-8191	255	
1131.083	1	1	0	0	0.15552	0.10002	0.14161	0.22812	0.057802	0.21449	0.25796	0.13682	0.11833	0.23767	0.21703	0.10896	0.12381	0.097593	0.29797	0.33923	-2.6625	-2.9208	-3.2979	-3.1854	-3.1271	-3.3187	-3.0792	-3.3167	-3.2021	-3.1063	-3.3125	-3.2313	-2.9896	-3.3	-2.9688	-3.2729	-1.904	106.290	41.236	139.353	29.202	96.586	183.577	167.577	-119.584	72.449	164.051	-114.955	-164.347	-158.462	5.889	-123.721	0.00025189	4.81e-05	2.9441e-05	1264	1.9499e-06	1.755e-06	1335.5	262.93	4.4029e-06	1.4935e-06	324.6	90.641	71.337	20.523	4.2996e-06	28.763	0.00013463	0.00012432	3.166e-05	1194.3	1.5034e-06	1.3815e-06	1263.3	250.48	1.5811e-06	1.4857e-06	300.86	86.52	67.487	19.769	1.535e-06	27.602	-76.327	120.992	154.679	-155.503	33.797	66.945	-155.450	-148.429	-35.008	-160.035	-148.866	-142.219	-141.610	-135.166	55.527	-135.832	-8191	255	
1131.180	1	1	0	0	0.21055	0.25804	0.044822	0.30886	0.1115	0.20253	0.41908	0.21456	0.22529	0.15098	0.13941	0.25007	0.1313	0.085677	0.13808	0.41776	-2.7313	-2.9813	-3.1354	-3.2417	-3.2104	-3.1604	-3.0771	-3.2812	-3.0917	-2.8521	-3.2917	-3.05	-3.1292	-3.2208	-2.8521	-3.2021	181.593	-57.293	102.541	-162.283	128.519	-136.012	119.367	74.379	-148.200	-16.210	189.721	183.925	-141.098	-45.368	148.328	151.094	0.00028287	0.00025364	3.0324e-05	1274.9	2.3585e-06	4.7535e-06	1349.3	264.66	2.8729e-07	3.0892e-06	326.51	90.509	72.455	20.406	5.784e-07	28.768	0.00016051	0.00014925	3.9246e-05	1212.4	1.7497e-06	1.6177e-06	1279.7	253.57	1.7132e-06	1.6165e-06	303.67	87.008	67.856	19.746	1.581e-06	27.691	-83.234	-140.798	-91.139	-155.513	-26.080	-33.866	-155.468	-148.598	-9.432	-31.289	-148.641	-142.322	-141.911	-135.292	81.923	-135.887	-8191	255	
1131.253	1	1	0	0	0.21665	0.12495	0.154	0.35441	0.28369	0.10689	0.31192	0.28137	0.16166	0.25127	0.14356	0.037712	0.11916	0.27135	0.27049	0.10202	-2.8167	-2.75	-3.0958	-3.2146	-3.0354	-3.3312	-3.1542	-3.1479	-3.0438	-2.8896	-3.3563	-3.1646	-2.9813	-3.1792	-2.975	-3.1583	-156.855	13.033	-134.193	-155.279	-38.348	-154.962	146.393	75.864	119.259	-40.284	125.134	-63.202	85.704	12.032	-71.440	158.725	0.00024894	0.00047503	4.1148e-05	1274.6	1.2728e-06	4.122e-06	1344.1	264.49	1.2397e-06	3.5566e-06	325.54	90.706	71.873	20.315	3.1086e-06	28.852	0.00014763	0.0001363	3.804e-05	1210.1	1.5209e-06	1.3746e-06	1276.9	252.42	1.4541e-06	1.3919e-06	302.22	86.46	67.114	19.488	1.4698e-06	27.362	-87.104	-138.313	-3.279	-155.399	8.790	-47.228	-155.426	-148.559	-74.583	1.444	-148.758	-142.078	-141.668	-135.437	-88.023	-135.173	-8191	255	
1131.349	1	1	0	0	0.12379	0.088916	0.093347	0.22237	0.38284	0.29577	0.28273	0.22246	0.065184	0.1578	0.13766	0.2258	0.20302	0.30883	0.21423	0.10215	-2.8354	-2.7917	-3.1021	-3.0479	-2.9208	-3.1708	-3.0938	-3.1292	-3.1	-2.9938	-3.4042	-3.0854	-2.8625	-3.3438	-3.0021	-3.1688	185.543	164.659	147.633	-158.371	145.602	-9.507	117.980	168.180	115.813	26.989	142.293	59.417	188.435	158.150	56.656	4.336	0.0002539	0.00021562	0.00010884	1276.7	2.7003e-06	4.2447e-06	1339.8	263.33	2.8514e-06	3.2317e-06	323.86	89.679	71.633	20.315	6.9613e-07	28.617	0.00013074	0.00012112	3.7298e-05	1206.2	1.3863e-06	1.2815e-06	1271.9	250.43	1.3334e-06	1.2863e-06	300.54	85.425	66.513	19.379	1.4789e-06	27.175	-83.087	-84.590	-77.909	-155.587	-62.914	-74.271	-155.558	-148.432	44.439	-45.035	-148.818	-142.328	-142.139	-135.161	178.226	-135.296	-8191	255	
1131.468	1	1	0	0	0.24253	0.19223	0.1276	0.25293	0.12048	0.06186	0.2835	0.072727	0.12896	0.24418	0.17516	0.097916	0.16486	0.13926	0.11416	0.15294	-2.7729	-2.8896	-3.2146	-3.2708	-2.9688	-3.4062	-3.3375	-3.1604	-3.2042	-2.9938	-3.4271	-3.1562	-2.9521	-3.2958	-3.1	-3.0312	106.350	121.887	186.373	172.128	-133.484	85.888	99.697	-38.497	122.022	107.153	-50.974	-152.443	-123.109	0.720	34.252	-13.531	0.00027241	0.00044961	7.0281e-05	1266.3	2.6974e-06	1.3376e-06	1340.6	262.06	4.002e-06	2.3512e-06	323.87	89.58	71.435	20.224	2.2608e-07	28.368	0.00012254	0.00011965	3.7681e-05	1198.3	1.3307e-06	1.2942e-06	1268.9	249.44	1.2931e-06	1.3337e-06	300.61	85.358	66.362	19.409	1.4753e-06	27.037	-80.775	-136.887	-103.501	-155.578	1.787	-67.884	-155.450	-148.416	-38.859	-73.677	-148.969	-142.261	-141.820	-135.026	91.104	-135.640	-8191	255	
1131.564	1	1	0	0	0.28533	0.17096	0.021987	0.13149	0.11203	0.18026	0.23476	0.12044	0.019527	0.17703	0.13434	0.19492	0.13029	0.048505	0.13257	0.21663	-2.9854	-2.9062	-3.1646	-3.2979	-2.8625	-3.3563	-3.25	-3.0854	-3.3708	-3.0687	-3.3438	-3.3375	-2.8646	-3.0979	-2.875	-2.8312	-149.633	-91.377	-159.206	-101.613	130.921	-12.098	138.577	187.676	47.364	-133.675	19.878	133.078	184.774	115.558	47.319	37.335	0.00028422	0.00026383	8.2981e-05	1264	2.811e-06	2.1292e-06	1333.9	261.26	4.3316e-06	1.1422e-06	321.52	89.66	71.367	20.237	2.3168e-06	28.439	0.00011756	0.00012363	3.6923e-05	1195.4	1.2574e-06	1.3329e-06	1263.1	248.3	1.2172e-06	1.3728e-06	298.98	85.172	65.959	19.386	1.3539e-06	26.936	-77.161	-88.550	-110.759	-155.418	132.616	37.384	-155.415	-148.587	-18.816	36.927	-148.824	-142.284	-141.712	-134.971	30.071	-135.703	-8191	255	
1131.660	1	1	0	0	0.24692	0.23578	0.13672	0.28179	0.20587	0.12331	0.2561	0.39288	0.040327	0.15104	0.18308	0.19368	0.11251	0.20695	0.14781	0.38223	-3.075	-2.8937	-3.1854	-3.4458	-2.8604	-3.3667	-3.3917	-3.0979	-3.2354	-2.9604	-3.175	-3.2479	-2.8417	-3.1958	-3.2313	-3.0542	-140.042	-148.026	147.237	177.861	103.422	121.045	136.558	148.032	17.412	-22.255	126.493	193.132	70.520	-160.541	175.876	-81.095	0.00023938	6.2925e-05	8.9623e-05	1261.8	2.0157e-06	2.4378e-06	1329.3	260.66	1.5162e-06	2.6226e-06	322.74	89.85	71.033	20.09	3.2602e-06	28.379	0.00011138	0.00012347	3.4132e-05	1191.1	1.2128e-06	1.3746e-06	1259.4	248.01	1.2054e-06	1.3813e-06	298.34	84.876	65.812	19.338	1.217e-06	26.754	-83.675	-42.824	-9.523	-155.413	54.949	-117.539	-155.405	-148.537	-52.827	-41.195	-148.923	-142.356	-141.899	-134.888	7.465	-135.480	-8191	255	
1131.781	1	1	0	0	0.030673	0.28027	0.2221	0.18299	0.056405	0.30772	0.37816	0.10236	0.13784	0.10933	0.22384	0.095703	0.13067	0.22352	0.18314	0.22281	-2.9562	-2.9771	-2.9958	-3.4542	-2.9271	-3.2646	-3.3021	-2.9083	-3.3542	-2.8312	-3.1229	-3.3167	-3.0896	-3.1583	-3.1875	-2.9583	-13.323	-33.425	-160.716	118.463	87.833	169.493	95.197	158.309	80.458	-3.087	163.532	96.466	-120.078	-93.867	165.490	137.993	0.00030029	0.0002462	8.8609e-05	1261.6	2.4955e-06	1.3599e-07	1321.5	259.33	4.0429e-06	3.0693e-06	319.82	88.927	70.587	20.007	3.2815e-06	28.086	0.00010741	0.00011719	3.0186e-05	1185	1.1509e-06	1.2467e-06	1251.4	245.38	1.1198e-06	1.2143e-06	294.99	83.793	65.136	19.199	1.098e-06	26.487	-85.722	-39.896	-112.832	-155.509	-87.910	-123.415	-155.424	-148.478	-24.657	-15.221	-148.775	-142.231	-141.961	-135.207	-3.165	-135.784	-8191	255	
1131.877	1	1	0	0	0.064746	0.19414	0.13006	0.2066	0.22396	0.1063	0.11968	0.10083	0.23101	0.10568	0.19762	0.22769	0.22455	0.27968	0.24584	0.38148	-2.8833	-2.9958	-2.8542	-3.6646	-2.9479	-3.1604	-3.4562	-3.0875	-3.3146	-3.0312	-2.9688	-3.2687	-2.9771	-2.9625	-3.2313	-2.9604	94.885	136.258	104.735	100.238	-68.642	175.730	162.355	-52.327	-123.838	-18.875	189.708	34.614	185.985	-139.994	-103.361	-52.443	0.00023719	0.00011861	2.8954e-05	1245.3	8.3303e-07	5.2382e-06	1311.7	257.76	1.0651e-06	8.1242e-07	319.57	88.303	69.992	20.04	2.3084e-06	27.987	0.00010592	0.00010724	2.7745e-05	1175.5	1.1612e-06	1.1616e-06	1242.3	244.2	1.1441e-06	1.1366e-06	293.42	83.581	64.965	19.079	1.0597e-06	26.427	-81.679	-139.762	-91.295	-155.534	-20.078	-41.230	-155.397	-148.334	-23.249	-9.787	-148.661	-142.348	-141.682	-134.989	-1.700	-135.493	-8191	255	
1131.949	1	1	0	0	0.13627	0.15952	0.090052	0.13688	0.20052	0.049946	0.18006	0.043887	0.032105	0.13177	0.1401	0.12266	0.13938	0.050602	0.045169	0.074129	-2.7125	-3.0312	-2.8854	-3.5375	-3.0083	-3.0896	-3.5271	-2.9292	-3.1958	-3.1854	-3.0229	-3.3625	-3.025	-3.0833	-3.2646	-2.9354	135.704	-43.750	-147.105	120.599	93.310	59.932	135.074	46.108	-111.469	114.416	173.318	19.847	-24.708	-152.118	100.074	-128.088	0.00030136	8.2423e-05	4.1696e-05	1244.5	3.5719e-06	2.8059e-06	1312.3	256.29	9.8844e-07	3.2781e-06	318.43	88.699	69.932	19.874	1.864e-06	28.162	0.00010969	0.00010336	2.7312e-05	1172.9	1.2101e-06	1.1265e-06	1239.5	243.66	1.2058e-06	1.1104e-06	293.02	83.83	65.191	19.071	1.0492e-06	26.482	-81.103	-51.223	-57.104	-155.404	-75.587	41.177	-155.304	-148.305	-52.073	-23.879	-148.273	-142.108	-141.953	-135.289	-20.897	-135.947	-8191	255	
1132.069	1	1	0	0	0.20614	0.11697	0.27261	0.19625	0.12817	0.14739	0.16127	0.14785	0.15507	0.1268	0.29133	0.1657	0.069726	0.076876	0.057325	0.26557	-2.6458	-3.1604	-2.9292	-3.5458	-3.0708	-3.0875	-3.4042	-2.9833	-3.15	-3.2771	-2.9229	-3.5125	-3.1083	-3.0083	-3.3104	-3.0021	-47.695	-19.289	181.953	106.252	106.924	62.378	190.260	150.556	99.253	125.063	44.207	92.498	62.799	106.925	-158.388	72.009	0.00027226	0.00014269	9.5987e-05	1243.8	3.8991e-06	2.9535e-06	1316.8	257.51	2.1984e-06	4.5005e-06	318.96	88.896	70.518	20.173	1.1801e-06	28.204	0.00011473	0.00010204	2.6667e-05	1173.4	1.2143e-06	1.1158e-06	1242.6	244.44	1.223e-06	1.0953e-06	293.71	84.154	65.283	19.186	1.0427e-06	26.622	-83.592	-98.116	-87.394	-155.565	-30.394	-63.575	-155.546	-148.482	11.023	-27.558	-148.970	-142.184	-141.986	-135.060	-79.189	-135.395	-8191	255	
1132.164	1	1	0	0	0.15916	0.10123	0.063994	0.31774	0.06786	0.16821	0.18265	0.14814	0.1535	0.27987	0.15905	0.17085	0.098076	0.12702	0.26904	0.13247	-2.7062	-3.2396	-2.7	-3.4	-3.025	-3.0979	-3.4542	-2.9958	-3.0333	-3.2354	-2.9271	-3.2625	-3.15	-2.9938	-3.2562	-3.1104	54.580	78.643	36.243	183.641	191.097	-152.178	143.860	62.063	-79.181	161.610	63.827	181.502	88.016	96.042	88.169	151.044	0.00022109	0.00029292	5.0236e-05	1244	2.8789e-06	1.5322e-06	1317.9	257.82	4.4557e-06	3.0121e-06	318.37	89.258	70.468	20.05	2.3877e-06	28.026	0.00011258	9.9101e-05	2.6575e-05	1175.8	1.1699e-06	1.0793e-06	1242.5	244.49	1.1617e-06	1.0617e-06	292.91	84.183	65.089	19.106	1.0324e-06	26.544	-69.878	-68.282	-41.043	-155.450	1.954	-14.579	-155.333	-148.492	-53.166	-0.845	-148.477	-141.830	-141.522	-134.583	-78.935	-135.408	-8191	255	
1132.260	1	1	0	0	0.078629	0.13971	0.11335	0.12273	0.23207	0.26635	0.30795	0.16742	0.29321	0.13191	0.16554	0.21013	0.084828	0.16962	0.084353	0.269	-2.625	-3.3396	-2.8604	-3.2521	-3.1271	-2.9917	-3.5792	-3.0792	-2.9354	-3.1312	-3.0375	-3.2958	-3.2104	-3.0208	-3.3167	-3.0563	48.960	38.340	111.346	19.063	-139.449	-124.936	172.774	152.255	152.954	74.293	96.478	-53.772	125.033	73.164	-144.560	46.003	0.00023675	0.00019902	8.5335e-05	1244	1.2202e-06	4.5085e-06	1313.2	257.96	4.2377e-06	1.9547e-06	318.15	89.016	70.24	20.149	3.9563e-06	28.058	0.00010633	9.4978e-05	2.7452e-05	1175	1.1197e-06	1.0554e-06	1242	244.5	1.114e-06	1.034e-06	293.31	84.076	64.871	19.136	1.106e-06	26.599	-85.268	-77.868	-92.634	-155.456	21.603	-24.531	-155.508	-148.377	-23.650	-22.111	-148.730	-142.223	-141.520	-135.100	-52.294	-135.369	-8191	255	
1132.381	1	1	0	0	0.099319	0.06592	0.22176	0.28092	0.17971	0.23111	0.093701	0.20257	0.030385	0.13037	0.33416	0.1634	0.19824	0.18601	0.16731	0.12467	-2.7583	-3.2333	-2.8729	-3.3	-2.9833	-2.8021	-3.3333	-3.1813	-3.0938	-3.3417	-3.0125	-3.3396	-3.1167	-3.1417	-3.3312	-3.1646	-68.206	-115.972	-40.750	136.080	90.762	124.709	-134.382	151.873	172.932	-2.801	179.052	180.906	152.317	122.469	-108.135	8.906	0.00024821	0.00017389	0.00010073	1243.3	1.6671e-06	3.2858e-06	1312	257.07	5.0147e-06	2.7676e-06	319.17	88.998	70.243	20.113	3.7376e-06	28.026	0.00010258	9.1879e-05	2.8452e-05	1173.7	1.0649e-06	1.0062e-06	1241.5	244.05	1.1e-06	9.8725e-07	293.88	84.071	64.918	19.135	1.1855e-06	26.513	-83.800	-69.660	-91.782	-155.565	-124.396	-44.403	-155.345	-148.461	-4.818	-48.740	-148.758	-142.048	-141.774	-135.184	-12.393	-135.652	-8191	255	
1132.477	1	1	0	0	0.097245	0.20582	0.089796	0.10096	0.084068	0.21937	0.11956	0.19132	0.26867	0.12718	0.073191	0.14207	0.13587	0.21228	0.2067	0.26035	-2.5104	-3.2375	-2.9833	-3.1708	-3.1958	-3.0771	-3.5438	-3.1771	-3.0542	-3.3396	-3.1042	-3.1854	-3.2979	-2.8167	-3.3688	-3.1188	0.622	54.055	176.805	161.706	-108.148	114.314	-95.142	115.625	88.214	53.927	130.347	-63.694	191.767	62.745	-164.804	172.890	0.00023502	0.00028513	3.9187e-05	1243	2.3013e-06	4.5563e-07	1314.1	257.6	4.2456e-06	1.219e-06	316.84	88.343	70.5	20.078	3.2534e-06	28.027	0.00010346	9.4537e-05	3.0933e-05	1174.8	1.0839e-06	1.0668e-06	1243	244.76	1.1059e-06	1.0688e-06	294.52	84.012	64.958	19.178	1.2549e-06	26.5	-87.634	-159.604	-56.824	-155.306	-121.101	-8.815	-155.482	-148.465	-5.838	45.112	-148.771	-142.158	-142.036	-135.214	-35.374	-135.325	-8191	255	
1132.548	1	1	0	0	0.15213	0.11211	0.082496	0.37126	0.14052	0.12441	0.12985	0.17521	0.24645	0.0349	0.024814	0.077522	0.18194	0.144	0.27563	0.054011	-2.3667	-3.175	-3.2146	-3.2458	-3.3229	-2.9479	-3.2062	-3.1667	-2.8125	-3.1083	-3.1771	-2.9813	-3.4917	-3.1208	-3.1229	-3.2583	-151.626	69.626	-46.925	173.824	111.769	-164.596	83.174	91.915	-8.678	163.863	-43.047	-165.025	8.750	108.239	-164.991	141.008	0.00029616	0.00015294	4.8088e-05	1250.3	1.8071e-06	3.2917e-06	1318.6	258.11	2.9985e-06	1.9049e-06	319.16	89.106	70.626	20.164	2.9055e-06	28.144	0.00010479	0.00010228	3.177e-05	1178.2	1.0808e-06	1.1368e-06	1247.1	244.87	1.0894e-06	1.1469e-06	294.96	84.232	64.841	19.234	1.2304e-06	26.544	-75.038	-95.136	-65.134	-155.456	-88.147	-37.432	-155.494	-148.270	11.933	-46.355	-148.570	-142.215	-141.706	-135.233	-45.227	-135.785	-8191	255	
1132.645	1	1	0	0	0.1947	0.20111	0.12975	0.15315	0.098684	0.17007	0.14695	0.31693	0.11574	0.036645	0.087888	0.26846	0.17157	0.17512	0.18877	0.114	-2.3937	-3.2583	-3.0833	-3.3	-3.3646	-3.0104	-3.3479	-3.3083	-2.8854	-3.4625	-3.2333	-3.0896	-3.3688	-3.1437	-3.1333	-3.2875	-17.812	-100.442	72.665	-149.961	171.701	73.066	110.283	185.810	90.865	120.100	97.085	111.837	-65.026	-155.746	150.793	178.926	0.00023554	6.6381e-05	4.8227e-05	1244.1	2.8736e-06	3.7038e-06	1319.4	258.21	3.8654e-06	1.2139e-06	318.82	89.539	70.464	20.049	1.0148e-06	28.295	0.0001021	0.00010914	3.1056e-05	1174.5	1.0674e-06	1.2232e-06	1245.7	244.95	1.0911e-06	1.2411e-06	294.7	84.189	64.998	19.29	1.223e-06	26.556	-90.416	-47.083	115.231	-155.519	-9.676	-26.949	-155.583	-148.458	-9.294	152.266	-148.627	-142.138	-141.586	-135.576	-9.216	-135.620	-8191	255	
1132.765	1	1	0	0	0.16376	0.2263	0.017057	0.20746	0.18114	0.14495	0.054012	0.22522	0.21424	0.18537	0.21379	0.1339	0.095805	0.24488	0.056411	0.025457	-2.475	-3.3271	-3.1104	-3.0979	-3.2708	-3.175	-3.2792	-3.4813	-3.1708	-3.2354	-3.1729	-3.15	-3.3646	-3.1937	-3.2708	-3.4062	-74.049	-67.003	99.300	143.206	49.760	-148.384	-44.766	111.389	-54.306	-43.709	-140.763	43.403	29.948	99.261	84.546	17.200	0.00027451	0.0001333	0.00011332	1247.7	1.5676e-06	2.269e-06	1318.7	258.91	1.0788e-06	3.2652e-06	320.42	89.428	70.459	20.3	2.2168e-06	28.147	0.00010535	0.00011613	3.0081e-05	1177.1	1.1172e-06	1.2681e-06	1246	244.82	1.1411e-06	1.2803e-06	295.17	84.239	65.348	19.302	1.2011e-06	26.576	-83.885	174.905	-70.031	-155.433	-67.756	-86.526	-155.337	-148.276	38.923	3.319	-148.422	-142.217	-141.608	-135.045	16.145	-135.358	-8191	255	
1132.861	1	1	0	0	0.066019	0.020792	0.066517	0.11773	0.32392	0.17272	0.044164	0.23542	0.20506	0.10163	0.036955	0.22076	0.18917	0.27018	0.29731	0.10822	-2.4917	-3.1354	-3.1979	-3.2042	-3.3271	-3.1167	-3.3	-3.5312	-3.0646	-3.2917	-3.3146	-3.025	-3.3625	-3.2354	-3.1	-3.3729	57.261	180.282	-31.344	-164.446	-154.747	101.419	-75.842	106.149	161.541	87.351	133.413	-101.037	-3.827	105.259	103.376	133.038	0.0002599	0.00020802	6.4839e-05	1248.9	2.4072e-06	4.7839e-06	1317.5	258.29	3.3196e-06	3.2922e-06	319.88	89.564	70.604	20.254	2.7477e-06	28.239	0.00011313	0.00011791	2.9989e-05	1177.4	1.2217e-06	1.2895e-06	1247	245.01	1.2506e-06	1.2929e-06	295.43	84.553	65.673	19.429	1.2664e-06	26.767	-98.592	-65.453	-26.321	-155.519	-73.986	7.216	-155.440	-148.427	-35.038	-15.339	-148.745	-142.433	-142.291	-134.936	-70.305	-135.439	-8191	255	
1132.957	1	1	0	0	0.097033	0.075422	0.22095	0.21997	0.26757	0.025008	0.15495	0.12026	0.12764	0.24605	0.31499	0.26497	0.19545	0.32798	0.16598	0.038947	-2.6896	-3.1188	-3.4667	-3.2	-3.3875	-3.3229	-3.2083	-3.4167	-3.0792	-3.1688	-3.25	-3.0042	-3.4437	-3.1354	-3.1167	-3.3104	-28.860	-27.175	2.347	146.325	121.973	84.057	183.172	-34.761	138.161	140.007	97.244	191.926	138.531	-152.432	180.821	-155.301	0.00027604	0.0003654	5.2604e-05	1263.4	1.1859e-06	1.7636e-06	1334.1	262.31	3.7482e-06	4.5366e-06	323.7	90.287	70.918	20.418	1.524e-06	28.668	0.00013035	0.00012631	3.2724e-05	1192.8	1.4574e-06	1.4142e-06	1263	248.68	1.5022e-06	1.4347e-06	299.33	85.782	67.016	19.623	1.3628e-06	27.186	-79.850	-105.211	152.011	-155.477	-35.363	6.209	-155.520	-148.620	-112.714	35.954	-148.658	-142.249	-141.883	-134.963	-31.649	-135.606	-8191	255	
1133.054	1	1	0	0	0.12835	0.23639	0.095148	0.25067	0.066798	0.094358	0.18373	0.14536	0.19607	0.13214	0.24228	0.23674	0.29672	0.16257	0.19487	0.18946	-2.6417	-3.0833	-3.3375	-3.0333	-3.1833	-3.0708	-3.1	-3.5208	-3.1917	-3.1229	-3.4792	-3.1854	-3.1646	-3.2938	-3.0458	-3.5208	103.114	-127.426	-60.412	40.801	-22.754	-109.503	181.899	118.721	64.462	-5.894	166.231	98.617	150.385	134.740	-115.639	117.259	0.00025499	0.00024755	2.2173e-05	1271.1	1.2587e-06	2.2653e-06	1340.1	263.16	1.0511e-06	8.9863e-08	324.31	90.572	71.978	20.513	2.276e-06	28.54	0.00014401	0.00013177	3.3837e-05	1203.3	1.5552e-06	1.411e-06	1271.1	250.5	1.5446e-06	1.4224e-06	300.95	86.083	67.368	19.749	1.3536e-06	27.256	-77.682	-98.923	74.406	-155.527	-71.298	-81.570	-155.515	-148.566	-41.122	55.074	-149.094	-142.331	-142.001	-135.224	3.153	-135.548	-8191	255	
1133.172	1	1	0	0	0.21458	0.10259	0.043921	0.24788	0.26384	0.041664	0.24159	0.39475	0.29363	0.19373	0.27378	0.18499	0.1082	0.096653	0.14957	0.064799	-2.85	-2.9917	-3.3333	-3.1813	-3.2625	-3.2771	-3.1562	-3.3	-2.9083	-2.95	-3.4562	-3.1562	-3.1312	-3.4729	-3.125	-3.3875	-134.930	4.632	-125.130	141.410	-133.649	127.325	71.359	89.669	24.384	69.188	167.825	-90.809	-126.514	-28.850	100.791	-157.437	0.00027449	9.2224e-05	4.08e-05	1278.6	2.7392e-06	1.1374e-06	1345.5	264.45	1.734e-06	5.0415e-06	325.94	90.528	71.926	20.477	1.6687e-06	28.731	0.0001435	0.00012888	3.3216e-05	1208.6	1.5244e-06	1.3792e-06	1274.3	251.79	1.4786e-06	1.3865e-06	301.05	86.206	67.263	19.64	1.324e-06	27.356	-86.523	-92.142	-33.089	-155.476	15.018	-130.937	-155.447	-148.755	-59.627	-12.796	-148.893	-142.553	-142.027	-135.006	-131.617	-135.635	-8191	255	
1133.244	1	1	0	0	0.13142	0.1341	0.082053	0.12317	0.14678	0.19555	0.18333	0.11323	0.14039	0.14441	0.134	0.12656	0.13844	0.051603	0.23958	0.27259	-2.7042	-2.9333	-3.1937	-3.1833	-3.1458	-3.2729	-3.0687	-3.4854	-3.3208	-2.9958	-3.25	-3.2146	-3.2396	-3.2583	-2.9375	-3.3479	-159.419	122.991	-99.720	91.673	-13.763	-152.874	160.446	29.720	-72.498	126.603	157.984	120.868	-123.423	129.152	178.700	-135.866	0.00027722	0.00022553	5.9119e-05	1277.6	2.7579e-06	7.3341e-07	1340.7	263.32	2.629e-06	7.8815e-06	324.23	90.321	71.7	20.443	3.0096e-06	28.808	0.00013201	0.00012252	3.2324e-05	1206.7	1.4172e-06	1.3e-06	1271.2	251.16	1.3792e-06	1.2984e-06	300.41	86.164	66.971	19.597	1.3514e-06	27.245	-83.558	-153.230	-70.740	-155.419	-34.953	0.011	-155.667	-148.297	-1.571	20.969	-148.914	-142.225	-141.934	-135.341	28.748	-135.519	-8191	255	
1133.342	1	1	0	0	0.080692	0.21723	0.16781	0.20997	0.12227	0.11384	0.096398	0.21718	0.30064	0.16812	0.33666	0.22627	0.23335	0.27547	0.16923	0.3429	-2.7354	-2.8417	-3.3688	-3.3312	-3.1958	-3.3521	-3.2021	-3.3875	-3.2792	-3.0458	-3.4708	-3.3563	-3.0625	-3.2396	-2.7979	-3.1667	157.520	69.880	-33.795	-108.324	-129.613	-104.417	-146.410	179.564	22.585	-24.832	131.452	191.407	-2.450	80.297	-70.238	-3.135	0.00026428	0.00029617	8.2324e-05	1275.9	2.4337e-06	2.2209e-06	1346	263.33	2.3198e-06	1.179e-06	323.69	90.56	71.757	20.429	2.4941e-06	28.425	0.00012786	0.00011847	3.4523e-05	1205.6	1.3725e-06	1.2438e-06	1273.2	251.19	1.3314e-06	1.2414e-06	300.51	85.858	66.605	19.476	1.3939e-06	27.083	-78.481	-88.336	-121.533	-155.670	6.866	65.306	-155.293	-148.492	59.223	-135.286	-148.658	-142.218	-142.383	-134.981	-71.688	-135.566	-8191	255	
1133.461	1	1	0	0	0.097734	0.2673	0.094596	0.15565	0.29306	0.026974	0.24517	0.027835	0.025846	0.21855	0.18479	0.10704	0.20346	0.22366	0.037513	0.214	-2.9292	-2.8187	-3.1729	-3.2083	-3.0125	-3.3187	-3.2583	-3.3771	-3.4042	-2.9938	-3.3292	-3.3667	-3.0729	-3.3896	-2.9708	-3.2479	-31.429	-120.679	-39.917	124.112	-64.858	157.110	160.078	105.040	-98.661	3.828	94.246	-138.038	156.954	110.982	-112.315	79.802	0.00028135	0.00023257	9.7281e-05	1272.3	5.6891e-07	3.5482e-06	1337.6	263.59	4.8108e-06	2.3147e-06	323.96	90.272	71.462	20.431	1.1388e-06	28.351	0.00011981	0.00011202	3.4672e-05	1200.5	1.282e-06	1.2058e-06	1267.7	250.26	1.2519e-06	1.2104e-06	300.77	85.468	66.236	19.411	1.3863e-06	26.904	-91.970	-155.648	-98.786	-155.481	-88.768	-147.994	-155.351	-148.494	2.456	-0.406	-148.862	-142.206	-142.032	-135.198	-98.171	-135.425	-8191	255	
1133.557	1	1	0	0	0.026988	0.11639	0.25718	0.19647	0.20709	0.069879	0.16803	0.13632	0.12994	0.18264	0.13256	0.19725	0.031766	0.11306	0.10603	0.1567	-2.9604	-3	-3.0833	-3.25	-2.8729	-3.4604	-3.2396	-3.2167	-3.45	-3.1625	-3.4604	-3.2854	-2.9354	-3.4313	-3.0312	-3.3063	-125.352	178.234	-144.914	89.393	130.037	170.906	178.419	159.974	-5.657	161.660	-100.942	-123.411	-117.577	-64.693	178.953	96.906	0.0002432	0.00016277	7.6283e-05	1263.9	1.3957e-06	2.154e-06	1334.9	262.37	4.3825e-06	3.9535e-06	322.1	89.972	71.631	20.335	3.1714e-06	28.307	0.00011198	0.00010787	3.4474e-05	1192.9	1.1974e-06	1.2185e-06	1262.3	248.94	1.1664e-06	1.2412e-06	298.97	84.993	66.015	19.4	1.3517e-06	26.853	-78.548	190.043	-38.453	-155.378	97.358	-95.613	-155.366	-148.320	-24.116	-27.406	-148.544	-142.369	-141.809	-134.865	-48.497	-135.289	-8191	255	
1133.653	1	1	0	0	0.15002	0.059598	0.3145	0.091857	0.15103	0.25526	0.11069	0.091376	0.16597	0.097379	0.26442	0.0059734	0.16715	0.27669	0.094292	0.37593	-2.9604	-2.8979	-3.2417	-3.3771	-2.9	-3.3229	-3.3083	-3.1688	-3.2729	-3.1771	-3.3479	-3.1604	-2.9833	-3.4167	-2.9646	-3.0563	-126.448	159.319	82.398	88.171	138.503	-54.722	65.024	175.744	181.349	-27.395	-73.113	-63.593	-89.891	-31.024	-102.305	15.051	0.00025284	0.0001237	8.9186e-05	1261.8	2.2306e-06	2.3317e-06	1329.5	262.36	2.8253e-06	1.1042e-06	322.54	89.378	71.277	20.211	3.4151e-06	28.368	0.00010972	0.00011637	3.4399e-05	1193.3	1.1734e-06	1.2818e-06	1261.6	248.58	1.1652e-06	1.2958e-06	298.43	84.891	65.769	19.411	1.298e-06	26.806	-80.738	134.483	-46.429	-155.493	-10.607	-157.800	-155.436	-148.328	-6.639	-31.566	-148.930	-142.234	-141.797	-135.034	-16.087	-135.575	-8191	255	
1133.749	1	1	0	0	0.22771	0.15199	0.18284	0.10041	0.0089884	0.086112	0.44919	0.25482	0.099385	0.092067	0.15569	0.12317	0.13315	0.026025	0.24459	0.32465	-2.9813	-2.8979	-3.05	-3.6104	-2.8521	-3.3042	-3.3312	-3.0333	-3.4	-3.0312	-3.2042	-3.35	-3.0271	-3.3479	-3.3417	-3.1042	-139.409	-78.293	37.086	182.162	-100.365	133.066	127.651	143.504	135.019	99.375	-154.570	-52.345	-153.041	-134.104	-26.287	182.387	0.0002198	0.00030909	3.2777e-05	1264	1.9824e-06	2.4085e-06	1329.1	260.86	5.7147e-06	2.1599e-06	321.09	90.152	71.218	20.205	3.9892e-06	28.133	0.00010778	0.00012162	3.2649e-05	1191.2	1.1714e-06	1.3033e-06	1258	247.51	1.1574e-06	1.3302e-06	297.27	84.736	65.765	19.347	1.2265e-06	26.719	-88.775	-135.869	25.158	-155.502	-13.001	-59.058	-155.469	-148.500	-6.682	105.401	-148.739	-142.179	-141.931	-134.983	-19.909	-135.286	-8191	255	
1133.846	1	1	0	0	0.25785	0.16016	0.21153	0.16613	0.13276	0.055635	0.22361	0.27967	0.090465	0.33234	0.064312	0.057467	0.096803	0.19168	0.080919	0.24959	-2.8875	-3.0792	-3.1833	-3.2396	-2.9	-3.2229	-3.3021	-2.9958	-3.2979	-3.0521	-3.0312	-3.3688	-3	-3.1917	-3.3438	-3.0062	-28.068	-104.125	117.315	117.567	-28.591	165.075	119.219	148.612	-142.577	166.862	-132.165	135.583	147.161	108.053	106.167	51.500	0.00027524	0.00021806	0.00012891	1259.7	2.5192e-06	4.4593e-06	1327.5	260.45	9.4568e-07	2.1169e-06	319.21	89.664	70.838	20.192	4.8226e-06	28.232	0.00011282	0.00012137	3.1379e-05	1187.6	1.2336e-06	1.3164e-06	1255.9	247.2	1.2298e-06	1.3057e-06	296.32	84.62	65.935	19.337	1.196e-06	26.679	-79.392	-46.202	-92.597	-155.346	-38.169	-38.326	-155.368	-148.429	-96.070	38.290	-148.411	-142.183	-141.675	-135.002	-46.458	-135.182	-8191	255	
1133.942	1	1	0	0	0.019779	0.091132	0.071509	0.31019	0.13712	0.047351	0.044904	0.1018	0.1909	0.24604	0.080961	0.13617	0.10752	0.19051	0.21941	0.32259	-2.9208	-3.1396	-3.1021	-3.4792	-2.9458	-3.1708	-3.3396	-3.075	-3.3812	-3.1063	-3.0708	-3.3438	-3.0875	-3.1937	-3.2417	-3.1396	-91.620	90.344	11.401	171.169	6.328	-77.894	175.456	-62.327	-21.364	29.646	-97.931	-128.948	144.698	-67.240	-40.511	-139.851	0.00029003	0.00038217	8.5756e-05	1255.2	2.1825e-06	1.6508e-06	1323.4	261.59	2.1396e-06	3.5e-06	321.98	89.693	70.977	20.172	3.203e-06	28.124	0.00011825	0.00011751	3.0496e-05	1185	1.2784e-06	1.2648e-06	1252.7	246.76	1.2795e-06	1.2187e-06	296.38	84.448	65.836	19.33	1.1569e-06	26.644	-87.068	-101.254	-88.384	-155.378	-22.325	-70.901	-155.306	-148.247	-24.240	-31.587	-148.908	-142.095	-141.543	-134.719	-30.309	-135.273	-8191	255	
1134.062	1	1	0	0	0.24241	0.24455	0.18757	0.30079	0.088925	0.23226	0.13256	0.13172	0.24659	0.07838	0.14687	0.095352	0.18371	0.17211	0.13842	0.25103	-2.8417	-3.3542	-2.8771	-3.4042	-2.8146	-3.0646	-3.5146	-3.0729	-3.3688	-3.2479	-3.0042	-3.4146	-3.0875	-3.0583	-3.5667	-2.9083	174.237	51.806	112.982	-151.833	164.392	-127.467	3.351	161.053	-67.399	-126.146	21.657	175.764	86.481	-120.204	-24.729	121.328	0.00031238	0.00032569	7.5927e-05	1259.6	1.2096e-06	1.7743e-06	1327.6	260.11	3.5788e-06	2.725e-06	319.85	89.455	70.882	20.16	2.2633e-06	28.22	0.00012185	0.00011106	2.9355e-05	1183.7	1.3132e-06	1.2166e-06	1251.4	246.84	1.3007e-06	1.2026e-06	295.74	84.55	65.905	19.292	1.1282e-06	26.695	-80.347	-123.067	-20.094	-155.342	-123.695	-53.428	-155.439	-148.281	-36.399	-26.057	-148.759	-142.260	-141.776	-134.953	-92.333	-135.805	-8191	255	
1134.157	1	1	0	0	0.21515	0.25159	0.041208	0.34076	0.20568	0.23859	0.25491	0.10409	0.048971	0.050766	0.18173	0.20192	0.10279	0.27705	0.092599	0.35609	-2.7521	-3.2271	-2.9542	-3.4292	-2.9646	-3.05	-3.4104	-2.975	-3.2687	-3.3125	-2.9875	-3.3937	-3.1917	-3.0458	-3.3479	-3.2146	-133.335	7.433	118.462	169.412	96.951	-45.610	162.718	-109.140	182.980	-1.534	-108.506	28.297	168.961	155.254	-88.840	-108.601	0.0002742	0.00037048	9.0495e-05	1257.5	2.3912e-06	1.4373e-06	1319.7	259.45	3.4217e-06	3.2402e-06	320.95	89.008	71.13	20.144	3.5837e-06	28.144	0.00012226	0.00010842	2.8848e-05	1185.4	1.295e-06	1.1898e-06	1250.2	246.74	1.2898e-06	1.1532e-06	295.73	84.57	65.853	19.217	1.0986e-06	26.74	-79.565	-83.454	-19.017	-155.424	-20.362	-93.967	-155.440	-148.415	-6.361	14.138	-148.910	-142.145	-141.785	-135.160	-67.953	-135.156	-8191	255	
1134.253	1	1	0	0	0.14825	0.12207	0.12927	0.47409	0.19883	0.064861	0.30609	0.095784	0.12481	0.12746	0.26171	0.1718	0.081611	0.13207	0.24571	0.041416	-2.9583	-3.1354	-3.0333	-3.4146	-3.1979	-2.9188	-3.5229	-3.2667	-3.0812	-3.2646	-3.2521	-3.4708	-3.2333	-2.8979	-3.4625	-3.1042	48.275	-31.928	-26.436	144.991	153.429	135.322	136.644	-122.405	-64.130	2.007	155.631	-2.914	-91.290	-91.609	120.040	-119.159	0.0002487	0.0002075	3.6237e-05	1254.2	9.7936e-07	3.5202e-06	1324.3	259.55	4.9841e-06	3.6562e-06	321.03	88.961	70.861	20.142	2.3997e-06	28.132	0.00011784	0.0001051	2.8382e-05	1187	1.2323e-06	1.1728e-06	1252.7	247.21	1.2131e-06	1.1207e-06	295.78	84.677	65.621	19.218	1.1477e-06	26.747	-89.889	-30.274	34.608	-155.280	-100.391	29.055	-155.436	-148.620	38.534	39.242	-148.687	-142.087	-141.712	-135.109	-34.770	-135.151	-8191	255	
1134.349	1	1	0	0	0.044705	0.0595	0.097326	0.34316	0.13888	0.3459	0.21492	0.20834	0.22407	0.15947	0.13582	0.20308	0.31239	0.094401	0.054328	0.36196	-2.725	-3.3479	-2.9604	-3.3063	-3.0771	-2.8937	-3.4979	-3.1521	-3.1375	-3.3563	-3.2083	-3.3458	-3.3354	-2.9875	-3.3271	-3.1292	-162.164	-52.103	-73.480	90.709	-120.780	166.461	99.914	113.132	-153.559	-6.370	127.137	135.547	142.508	-134.978	-30.224	-166.139	0.00020288	0.00044526	6.0709e-05	1255.6	2.7688e-06	2.7837e-06	1324.2	259.7	2.879e-06	1.7527e-06	320.99	89.23	70.832	20.077	8.2711e-07	28.346	0.0001147	0.00010137	2.9569e-05	1185.9	1.1971e-06	1.1168e-06	1252.7	246.82	1.1958e-06	1.0854e-06	296.26	84.597	65.604	19.212	1.213e-06	26.815	-71.436	-129.678	-116.615	-155.351	-70.402	183.530	-155.554	-148.526	-41.290	53.876	-148.912	-142.283	-141.576	-134.957	-141.722	-135.129	-8191	255	
1134.445	1	1	0	0	0.25694	0.26937	0.043182	0.091463	0.23673	0.084669	0.1392	0.24034	0.15978	0.11858	0.12364	0.29676	0.19182	0.10995	0.076727	0.073203	-2.6271	-3.3187	-3.0875	-3.3438	-3.1937	-2.8688	-3.4625	-3.1896	-3.0417	-3.4229	-3.1917	-3.2104	-3.3375	-2.8458	-3.2333	-3.2625	-53.530	145.579	-66.430	170.985	37.424	-47.587	103.775	110.418	96.441	57.694	86.071	-95.965	-160.106	73.894	115.106	182.488	0.00023715	0.00031694	5.1361e-05	1256.7	1.3201e-06	3.4125e-06	1322.5	259.85	2.0858e-06	2.3619e-06	319.74	89.236	71.047	20.163	3.7661e-06	28.386	0.00011153	0.00010002	3.15e-05	1187	1.1631e-06	1.1116e-06	1252.7	246.72	1.1723e-06	1.0946e-06	297.01	84.529	65.577	19.2	1.2534e-06	26.702	-77.737	-116.757	34.883	-155.406	19.310	-56.360	-155.271	-148.421	-35.800	7.610	-148.661	-142.029	-141.459	-135.389	-45.352	-135.192	-8191	255	
1134.541	1	1	0	0	0.1685	0.06795	0.16013	0.11094	0.34269	0.21583	0.024523	0.26237	0.31561	0.068078	0.36917	0.17014	0.133	0.2084	0.12359	0.096136	-2.5396	-3.4125	-2.8771	-3.1479	-3.2562	-3.175	-3.4917	-3.2104	-2.8937	-3.4229	-2.8625	-3.2125	-3.3958	-2.9854	-3.5042	-3.3438	112.652	-106.963	-51.483	-139.892	32.525	9.804	154.620	162.673	43.521	97.495	192.301	145.982	157.449	-10.196	181.507	39.867	0.00025061	0.00033873	6.7841e-05	1258.4	1.7144e-06	4.0086e-06	1321.1	260.1	2.8654e-06	1.2416e-06	322.57	89.406	70.706	20.22	1.4229e-06	28.438	0.00010799	0.00010026	3.2265e-05	1185	1.1342e-06	1.1188e-06	1252.1	246.54	1.1395e-06	1.119e-06	296.6	84.568	65.416	19.224	1.2795e-06	26.66	-86.093	-150.285	-27.195	-155.325	7.453	-54.084	-155.434	-148.510	-18.421	184.933	-148.562	-142.580	-141.924	-135.100	45.985	-134.968	-8191	255	
1134.637	1	1	0	0	0.13291	0.16825	0.2186	0.31399	0.14451	0.2142	0.13926	0.17763	0.27395	0.049394	0.22541	0.099376	0.1442	0.17755	0.060556	0.1251	-2.4583	-3.2583	-3.0542	-3.2479	-3.4083	-3.1417	-3.3979	-3.3667	-2.925	-3.4854	-3.1979	-3.0187	-3.5021	-3.1729	-3.3021	-3.4958	64.996	10.615	56.416	159.787	-11.500	166.614	-157.896	152.378	-98.566	109.351	-136.954	-113.672	-82.049	-127.975	66.457	-98.944	0.00026399	0.0001932	8.6091e-05	1255.3	1.8273e-06	3.3351e-06	1324.7	259.57	3.7523e-06	2.1971e-06	321.91	89.416	70.832	20.179	3.9554e-06	28.291	0.00010477	0.00010467	3.18e-05	1183	1.0931e-06	1.1922e-06	1251.6	246.23	1.1135e-06	1.1838e-06	297.18	84.391	65.427	19.257	1.243e-06	26.636	-77.369	-154.387	21.909	-155.290	39.345	-7.406	-155.414	-148.515	-55.878	-56.033	-148.948	-142.184	-142.106	-134.970	2.905	-135.401	-8191	255	
1134.734	1	1	0	0	0.13985	0.084163	0.11443	0.10248	0.19876	0.14276	0.25905	0.036647	0.094406	0.18686	0.069688	0.057627	0.031462	0.023632	0.18717	0.19693	-2.4646	-3.2	-3.2438	-3.2333	-3.2146	-3.2958	-3.3396	-3.4042	-3.0875	-3.3896	-3.1604	-3.1833	-3.3917	-3.1958	-3.2438	-3.3812	-23.193	-75.798	175.597	-52.549	-110.485	175.289	127.406	25.959	-126.026	85.424	74.412	73.062	-53.411	94.263	-76.025	107.363	0.00020559	0.0001636	4.6952e-05	1255.6	1.4921e-06	1.0352e-06	1322.9	259.6	4.7909e-06	1.0588e-06	322	88.687	70.831	20.117	2.7521e-06	28.098	0.00010393	0.00011372	3.1702e-05	1184.1	1.0929e-06	1.2621e-06	1250.4	246.25	1.1387e-06	1.2732e-06	296.68	84.225	65.402	19.329	1.235e-06	26.568	-85.594	-99.463	-1.768	-155.562	-19.249	69.326	-155.333	-148.465	-44.687	-115.740	-148.680	-142.142	-141.917	-135.150	-58.803	-135.655	-8191	255	
1134.854	1	1	0	0	0.1286	0.11277	0.23137	0.036481	0.22435	0.15073	0.32846	0.048093	0.11681	0.10985	0.044377	0.14023	0.20799	0.15525	0.049942	0.17725	-2.6562	-3.1354	-3.2104	-3.0667	-3.3	-3.0896	-3.3708	-3.3979	-3.1333	-3.2646	-3.3771	-3.0312	-3.3688	-2.9729	-3.1208	-3.4604	-126.941	109.983	183.327	128.480	-37.476	59.331	180.907	-57.463	-72.231	179.927	163.757	-137.792	70.115	104.394	-11.004	34.520	0.00028265	0.00017777	6.2705e-05	1249.1	4.1582e-06	1.6348e-06	1321.7	260.11	1.836e-06	1.1712e-06	319.59	89.115	70.824	20.136	3.8574e-06	28.173	0.00010924	0.00011944	3.0872e-05	1181.8	1.1684e-06	1.2912e-06	1250.5	246.46	1.2112e-06	1.2998e-06	296.21	84.339	65.657	19.287	1.2022e-06	26.589	-81.977	-56.133	-24.722	-155.521	-55.707	-34.211	-155.451	-148.662	-38.178	-53.764	-148.630	-142.095	-141.829	-135.307	-35.356	-135.513	-8191	255	
1134.949	1	1	0	0	0.071249	0.11686	0.076054	0.11423	0.14419	0.16507	0.11502	0.27969	0.011976	0.28528	0.2459	0.14702	0.12704	0.054583	0.11244	0.10576	-2.5604	-3.2792	-3.0833	-3.2375	-3.3708	-3.3896	-3.2146	-3.4875	-3.0125	-3.0583	-3.5958	-3.2333	-3.3729	-3.3438	-3.0062	-3.5292	154.261	11.200	-22.089	108.501	-18.915	35.933	101.825	150.654	108.564	10.970	137.681	99.517	21.293	112.755	116.281	-73.105	0.00031245	0.00022706	8.2249e-05	1255.5	2.3222e-06	2.3167e-06	1316.7	260.09	3.1427e-06	2.2026e-06	320.27	88.888	70.393	20.094	1.6961e-06	28.208	0.00011498	0.00011817	2.9991e-05	1183.6	1.2454e-06	1.2622e-06	1249.7	246.21	1.2513e-06	1.2534e-06	295.4	84.336	65.496	19.219	1.179e-06	26.579	-83.980	-92.357	-24.598	-155.459	20.832	-43.211	-155.736	-148.478	-43.148	54.022	-148.625	-142.035	-141.726	-135.048	29.956	-135.433	-8191	255	
1135.045	1	1	0	0	0.13024	0.11954	0.13856	0.38248	0.068769	0.080957	0.24524	0.24708	0.14219	0.01678	0.21399	0.13202	0.055822	0.20338	0.12496	0.27179	-2.8187	-3.0979	-3.375	-3.275	-3.2333	-3.2667	-3.1396	-3.3792	-3.075	-3.1979	-3.2583	-2.9375	-3.3604	-3.3042	-2.9771	-3.3604	153.799	-41.261	-113.350	106.602	-161.360	-97.881	137.860	129.806	15.095	160.899	92.598	113.224	-109.144	103.718	-78.730	159.371	0.00026101	0.0002963	1.4198e-05	1252.1	1.9292e-06	2.5743e-06	1321.1	259	4.7298e-06	4.3199e-06	319.87	89.595	71.122	20.222	1.7107e-06	28.236	0.00012049	0.00011205	2.937e-05	1180.2	1.278e-06	1.2083e-06	1248.1	246.03	1.2865e-06	1.1959e-06	294.92	84.357	65.749	19.22	1.1227e-06	26.613	-85.063	-148.851	-2.995	-155.509	18.761	-80.729	-155.306	-148.349	10.742	-44.917	-148.678	-142.293	-141.613	-135.231	-23.392	-135.650	-8191	255	
1135.141	1	1	0	0	0.22784	0.17689	0.096791	0.1844	0.042904	0.050533	0.32426	0.22364	0.25179	0.095026	0.030729	0.049007	0.099932	0.11257	0.097924	0.18453	-2.8312	-3.1146	-3.2521	-3.0563	-3.3063	-3.3104	-3.2146	-3.4167	-3.2042	-3.375	-3.2833	-3.0958	-3.1583	-3.2521	-3.0104	-3.4417	59.875	166.036	-134.585	-160.024	188.614	-57.433	133.639	112.903	-116.128	85.681	153.054	-63.087	129.350	94.214	-9.163	91.296	0.00021327	8.7395e-05	1.4832e-05	1250.4	2.0245e-06	1.5055e-06	1318.3	260.21	2.9022e-06	1.3385e-06	319.76	88.705	70.956	20.101	1.8794e-06	27.991	0.00011842	0.00010675	2.7313e-05	1179.8	1.2616e-06	1.1614e-06	1246.5	246.3	1.2425e-06	1.1436e-06	294.98	84.242	65.586	19.138	1.0647e-06	26.512	-89.532	-57.768	-20.955	-155.532	54.930	-28.281	-155.442	-148.364	-7.148	23.848	-148.817	-142.286	-141.623	-135.088	48.441	-135.575	-8191	255	
1135.237	1	1	0	0	0.14078	0.34961	0.14028	0.20112	0.12027	0.2564	0.20369	0.29754	0.14243	0.13816	0.11328	0.093162	0.078568	0.10287	0.22842	0.23209	-2.7021	-2.8854	-3.2188	-3.1646	-3.275	-3.4021	-3.1646	-3.3979	-3.2146	-3.1042	-3.3375	-3.1625	-3.2438	-3.4667	-2.8812	-3.3146	-102.682	132.670	158.694	-34.763	-96.901	143.886	66.227	114.692	18.906	-59.849	-142.665	188.533	-13.591	-95.399	-155.760	146.551	0.00022588	0.00017297	5.211e-05	1245.4	3.6636e-06	2.1838e-06	1312.7	257.89	1.971e-06	2.1858e-06	318.62	88.987	69.701	19.866	3.2087e-06	27.984	0.00011225	0.00010117	2.5927e-05	1176.6	1.1816e-06	1.0519e-06	1240.3	244.94	1.1336e-06	1.0477e-06	292.69	83.801	64.597	18.907	9.9543e-07	26.46	-76.829	-110.599	-30.173	-155.425	0.720	-18.626	-155.329	-148.133	-42.140	-3.338	-148.578	-142.044	-141.565	-134.867	-40.420	-135.384	-8191	255	
1135.333	1	1	0	0	0.2728	0.047723	0.0823	0.42697	0.17493	0.18936	0.43074	0.1242	0.05765	0.10616	0.098994	0.067144	0.16442	0.046251	0.24141	0.16132	-2.9062	-3.0687	-3.2625	-3.1479	-3.1729	-3.3479	-3.2646	-3.4604	-3.325	-3.0833	-3.4604	-3.2021	-3.1104	-3.3042	-3.0062	-3.3583	168.541	90.649	43.859	135.994	150.787	-69.002	159.755	-156.203	-134.636	129.479	-70.720	14.867	132.285	-38.798	167.374	105.573	0.00026627	0.00013583	2.1866e-05	1239.3	2.8384e-06	4.9309e-06	1303.5	255.85	4.2451e-06	3.4445e-06	317.39	88.584	70.114	20	2.555e-06	27.865	0.00010096	9.2833e-05	2.534e-05	1165.9	1.0833e-06	9.8026e-07	1231.2	243.08	1.0447e-06	9.7527e-07	290.9	83.535	64.38	18.887	1.0468e-06	26.312	-81.327	-128.058	-107.215	-155.392	-57.223	-25.570	-155.327	-148.326	7.705	7.443	-148.811	-142.096	-141.628	-134.926	-152.275	-135.390	-8191	255	
1135.454	1	1	0	0	0.11079	0.17886	0.31478	0.16531	0.047303	0.14899	0.053699	0.065283	0.18276	0.12413	0.049497	0.17058	0.10438	0.1319	0.27054	0.22292	-3.0083	-2.9729	-3.2375	-3.0938	-3.15	-3.4604	-3.1604	-3.1979	-3.2375	-3.1188	-3.5042	-3.1167	-3.0812	-3.3521	-3.0583	-3.2	91.132	-163.730	-48.479	-165.054	-103.324	-35.004	34.621	187.279	30.330	-47.257	-162.888	24.511	-15.002	-19.911	25.723	-130.542	0.00020486	0.0002974	8.1217e-05	1233.9	2.2873e-06	1.9324e-06	1305.2	255.56	1.9897e-06	1.8819e-06	317.77	88.294	70.212	20.047	3.1102e-06	27.948	9.7775e-05	8.9514e-05	2.6805e-05	1163.4	1.06e-06	9.6313e-07	1231	242.53	1.0482e-06	1.0011e-06	292.29	83.538	64.496	18.94	1.124e-06	26.338	-99.456	-108.133	-46.002	-155.547	-6.433	-71.943	-155.382	-148.257	-8.550	24.484	-148.515	-142.134	-141.626	-134.914	-96.243	-135.220	-8191	255	
1135.550	1	1	0	0	0.11411	0.09968	0.033419	0.26674	0.18278	0.22504	0.193	0.12509	0.098022	0.2135	0.13107	0.13945	0.16177	0.15324	0.23896	0.0027702	-2.8521	-3.0208	-3.1042	-3.3042	-3.0729	-3.3604	-3.1854	-3.1854	-3.1958	-2.9813	-3.3708	-3.2625	-2.9625	-3.225	-3.1167	-3.2938	-153.930	-52.422	-115.956	140.384	-69.894	-119.148	116.585	-118.115	178.550	89.211	-128.275	-13.593	-115.153	181.608	49.668	37.912	0.00020561	0.00017466	0.00011152	1234.9	2.0988e-06	3.5117e-06	1300.1	255.84	5.3419e-06	3.5457e-06	316.81	88.408	69.825	19.989	3.0264e-06	27.993	9.7174e-05	8.9389e-05	2.8673e-05	1164.7	1.0436e-06	9.8417e-07	1232.3	242.71	1.0303e-06	1.0141e-06	292.2	83.372	64.285	18.989	1.1638e-06	26.348	-94.204	-86.695	-66.463	-155.359	-29.835	-39.376	-155.408	-148.074	-19.502	-16.915	-148.893	-142.310	-141.631	-134.866	-73.026	-135.263	-8191	255	
1135.644	1	1	0	0	0.09219	0.21837	0.21566	0.22948	0.15589	0.02071	0.12169	0.26849	0.15054	0.12608	0.19628	0.10619	0.055547	0.22476	0.11581	0.11811	-2.8833	-2.8979	-3.3312	-3.3583	-3.0312	-3.4542	-3.2583	-3.25	-3.3625	-2.8	-3.2646	-3.1875	-3.0229	-3.4562	-3.1917	-2.8958	102.979	103.448	10.246	158.337	53.666	78.445	20.782	105.658	104.521	162.067	172.264	65.007	92.669	-144.171	98.965	-78.772	0.00026203	0.0001241	7.583e-05	1236.8	4.1322e-06	2.7242e-06	1303.6	254.6	4.877e-06	8.6235e-07	318.94	88.369	69.599	19.856	3.1079e-06	27.719	9.4915e-05	9.4705e-05	2.8872e-05	1165.8	1.0136e-06	1.0439e-06	1233.1	242.33	9.9099e-07	1.0616e-06	293.08	83.375	64.239	18.973	1.1368e-06	26.257	-86.675	182.572	-97.713	-155.413	-23.759	-146.675	-155.359	-148.166	-72.482	109.867	-148.896	-142.156	-141.911	-134.857	-2.096	-135.618	-8191	255	
1135.741	1	1	0	0	0.29754	0.0085972	0.26431	0.30118	0.19484	0.097055	0.096649	0.23759	0.15027	0.27004	0.095344	0.12511	0.091103	0.18737	0.2756	0.10275	-2.9	-2.8771	-3.0938	-3.4125	-2.8625	-3.3583	-3.475	-3.1479	-3.4646	-3.0125	-3.4188	-3.4938	-2.9646	-3.3292	-3.0792	-3.1083	-35.171	-154.743	-122.126	-145.510	57.498	-124.873	118.260	113.823	-111.038	31.094	21.243	117.329	73.236	-7.036	135.942	-28.263	0.00024836	0.00012788	0.00012439	1230.7	1.4505e-06	1.4391e-06	1300.6	256.55	1.6699e-06	2.0516e-06	316.58	88.438	69.39	19.874	3.3738e-06	27.866	9.1333e-05	9.9805e-05	2.8307e-05	1162.6	9.9872e-07	1.1048e-06	1231.2	242.34	9.7105e-07	1.125e-06	292.23	83.335	64.061	18.931	1.0738e-06	26.247	-81.253	-134.476	-74.101	-155.200	-31.390	-123.386	-155.322	-148.325	-71.758	22.465	-148.666	-142.206	-141.727	-135.084	0.793	-135.939	-8191	255	
1135.837	1	1	0	0	0.24984	0.15611	0.30295	0.40786	0.23617	0.04786	0.24223	0.23299	0.16223	0.050837	0.13502	0.23976	0.14203	0.11768	0.16742	0.2281	-2.9479	-3.1042	-3.2354	-3.4688	-2.9354	-3.3917	-3.3688	-3.0604	-3.3333	-3.1208	-3.3021	-3.3542	-3.3312	-3.4313	-3.275	-3.1542	169.210	-153.860	53.986	183.258	121.375	-132.980	85.039	-143.962	45.652	2.471	180.195	164.617	70.447	120.616	40.910	190.716	0.00027695	3.9651e-05	9.438e-05	1233.6	1.2879e-06	6.484e-07	1299.2	256.29	3.3405e-06	2.2854e-06	317.06	88.048	69.831	19.773	2.9707e-06	27.951	9.3777e-05	0.00010235	2.7061e-05	1161.8	1.0241e-06	1.1066e-06	1228.6	242.04	9.9601e-07	1.1357e-06	290.89	83.015	64.135	18.949	1.0312e-06	26.178	-84.139	133.233	-51.816	-155.315	-80.304	-56.163	-155.204	-148.274	-34.385	10.984	-148.846	-142.200	-141.869	-134.428	-10.143	-135.083	-8191	255	
1135.933	1	1	0	0	0.23181	0.25752	0.11232	0.27255	0.15601	0.17838	0.097784	0.14271	0.055332	0.058276	0.17131	0.2222	0.19396	0.21469	0.057107	0.19029	-2.8896	-3.1271	-3.1104	-3.6437	-3.0146	-3.35	-3.2271	-3.1	-3.2812	-3.3187	-3.1375	-3.5687	-3.1813	-3.1562	-3.4792	-2.9521	70.254	-101.924	52.226	109.005	-157.912	-121.309	123.352	124.082	125.002	121.861	140.410	89.034	108.883	137.164	-134.837	182.022	0.00027945	0.00034985	6.1405e-05	1229.8	2.6091e-06	3.2928e-06	1300	255.82	3.6867e-06	2.9927e-06	315.75	88.359	69.243	19.917	9.5348e-07	27.898	9.5708e-05	0.00010096	2.6227e-05	1156.2	1.0466e-06	1.0999e-06	1224.5	241.41	1.0445e-06	1.0936e-06	290.43	82.919	64.22	18.897	9.9728e-07	26.143	-86.762	-75.421	-152.396	-155.263	-19.010	-54.824	-155.416	-148.364	-53.340	21.606	-148.822	-141.925	-141.675	-134.807	-28.705	-135.591	-8191	255	
1136.029	1	1	0	0	0.14068	0.31299	0.33148	0.29117	0.12556	0.060608	0.21506	0.36427	0.12263	0.2547	0.052592	0.31613	0.083619	0.086609	0.042478	0.20605	-2.9646	-3.2458	-3.0229	-3.5563	-3.1479	-3.1771	-3.3708	-2.9021	-3.2938	-3.2458	-3.1437	-3.4542	-3.1771	-3.1708	-3.25	-2.8833	-44.198	-46.521	86.224	185.696	164.492	11.403	118.811	193.392	-151.300	132.067	-67.981	139.837	141.100	175.646	44.114	61.599	0.00022138	0.0001929	8.4458e-05	1225	1.2975e-06	2.8288e-06	1295	255.56	5.5228e-06	4.3662e-07	314.95	87.917	69.502	19.882	1.4195e-06	27.888	0.0001008	9.7229e-05	2.5398e-05	1154.9	1.0948e-06	1.049e-06	1224.4	241.47	1.1003e-06	1.0435e-06	290.48	82.854	64.263	18.86	9.4832e-07	26.133	-84.065	-156.943	4.242	-155.512	-8.031	-75.378	-155.143	-148.365	-56.360	155.411	-148.949	-142.154	-141.840	-135.059	-85.207	-135.721	-8191	255	
1136.150	1	1	0	0	0.10291	0.15733	0.14705	0.073549	0.035479	0.10118	0.091486	0.20876	0.05718	0.31641	0.16725	0.10219	0.044406	0.09884	0.078935	0.35064	-2.7687	-3.2104	-2.9771	-3.6854	-3.1271	-3.1771	-3.3125	-3.1208	-3.3667	-3.25	-3.0875	-3.4333	-3.1375	-3.0354	-3.4625	-2.8563	-34.678	-86.477	-70.239	33.471	165.522	179.519	108.649	-109.456	-65.641	138.225	-144.131	-98.009	169.466	91.447	-54.455	155.687	0.00020767	0.00020761	2.1306e-05	1227.1	2.4304e-06	3.6606e-06	1291.9	254.5	3.9321e-06	2.2428e-06	313.77	88.079	69.483	19.971	1.1548e-06	27.643	0.00010347	9.2881e-05	2.4576e-05	1154.4	1.106e-06	1.0075e-06	1219.4	240.31	1.0923e-06	1.0157e-06	288.36	82.795	64.196	18.871	9.3488e-07	26.105	-97.165	-112.349	-161.151	-155.306	-79.237	-107.218	-155.386	-148.249	-49.947	-39.282	-148.337	-141.985	-142.066	-135.116	-82.231	-135.316	-8191	255	
1136.246	1	1	0	0	0.15197	0.059297	0.093361	0.42477	0.14143	0.063195	0.15404	0.23448	0.11033	0.35118	0.13246	0.17103	0.080468	0.20508	0.074518	0.13391	-2.8917	-3.1625	-3.0062	-3.4854	-3.2188	-3.1792	-3.6125	-3.1229	-3.1833	-3.3083	-3.0917	-3.2604	-3.2938	-3.2417	-3.2542	-3.1229	40.397	-133.614	5.421	150.853	-159.640	62.837	107.321	-148.786	95.776	152.341	-0.796	109.622	162.148	49.866	-7.582	165.129	0.00017829	0.00039917	6.8893e-05	1220.1	1.5283e-06	1.888e-06	1291.4	253.75	1.948e-06	2.2287e-06	314.3	87.783	69.51	19.856	2.8441e-06	27.929	0.00010375	9.1561e-05	2.4271e-05	1151.5	1.0946e-06	1.0049e-06	1218.4	240.52	1.0684e-06	9.6646e-07	289.04	82.863	64.066	18.806	9.3687e-07	26.2	-73.903	-99.743	-49.833	-155.491	24.018	7.563	-155.290	-148.245	51.357	2.885	-148.646	-142.179	-141.288	-134.800	-55.864	-135.454	-8191	255	
1136.342	1	1	0	0	0.035515	0.07378	0.14014	0.27302	0.20895	0.10915	0.39103	0.33364	0.15594	0.17995	0.08061	0.040495	0.1451	0.19185	0.22045	0.10305	-2.6729	-3.0646	-2.9292	-3.5417	-3.1354	-2.9042	-3.4958	-3.0812	-3.2438	-3.3563	-2.9354	-3.175	-3.2875	-3.1188	-3.4021	-3.0771	-77.829	-100.845	-139.199	156.496	179.290	-51.533	103.744	150.480	80.003	96.482	115.381	156.761	71.567	117.172	126.206	166.072	0.00021016	0.00024065	6.1609e-05	1220.2	3.7176e-06	2.2534e-06	1291.2	253.37	2.9006e-06	1.5247e-06	315.96	87.706	69.259	19.749	2.845e-06	27.79	9.9685e-05	8.7704e-05	2.4565e-05	1150.6	1.0539e-06	9.8573e-07	1218	240.71	1.0342e-06	9.6672e-07	289.18	82.936	63.924	18.747	9.9821e-07	26.227	-90.096	-128.676	-66.399	-155.367	0.949	-85.930	-155.164	-148.230	57.017	54.231	-148.780	-141.788	-141.603	-134.653	-70.824	-135.450	-8191	255	
1136.414	1	1	0	0	0.28149	0.14755	0.088803	0.13712	0.22484	0.20879	0.17335	0.10445	0.038755	0.15726	0.11686	0.31053	0.16986	0.19526	0.24966	0.11015	-2.7875	-3.2979	-2.9604	-3.4458	-3.1604	-3.0229	-3.4021	-3.1	-3	-3.2812	-3.0771	-3.3312	-3.4021	-3.0083	-3.3083	-3.2188	17.398	-36.192	-158.600	179.984	-110.978	-27.772	99.684	138.711	65.607	-20.736	176.386	145.407	-92.716	120.630	-101.151	134.371	0.00028019	0.0005052	3.4392e-05	1223	1.8723e-06	2.6128e-06	1290.2	253.99	3.782e-06	1.9571e-06	314.54	88.245	68.93	19.904	2.8819e-07	27.765	9.7616e-05	8.6768e-05	2.5662e-05	1151.2	1.0208e-06	9.6082e-07	1219.4	240.85	1.0249e-06	9.4586e-07	289.66	82.968	63.805	18.796	1.0597e-06	26.172	-78.836	-107.312	7.569	-155.434	-42.638	-49.176	-155.305	-148.369	-18.509	1.833	-148.853	-141.948	-141.318	-135.077	16.468	-135.537	-8191	255	
1136.534	1	1	0	0	0.24465	0.24379	0.17796	0.13529	0.30701	0.16428	0.35896	0.21202	0.12819	0.20559	0.25121	0.087504	0.22206	0.1399	0.11033	0.27842	-2.5583	-3.2604	-3.0604	-3.3104	-3.2875	-2.9813	-3.55	-3.2604	-3.0958	-3.3792	-3.0458	-3.3104	-3.2375	-2.8208	-3.1917	-3.2771	154.745	-85.273	-124.461	130.404	-122.970	161.638	180.027	91.346	167.348	99.552	-96.744	-149.994	-115.383	152.236	-39.967	82.516	0.00025638	0.00029265	3.8566e-05	1222.3	1.9752e-06	3.8861e-06	1289.3	253.67	3.208e-06	2.2366e-06	313.98	87.797	69.575	19.801	2.5383e-06	27.78	9.6341e-05	8.5463e-05	2.7315e-05	1151.7	1.0049e-06	9.4691e-07	1218.5	240.17	9.9861e-07	9.4411e-07	289.85	82.71	63.771	18.785	1.0998e-06	26.149	-79.164	-96.064	-77.953	-155.157	-15.242	-48.597	-155.482	-148.281	-11.332	-8.433	-148.698	-142.274	-141.549	-134.953	-49.988	-135.213	-8191	255	
1136.629	1	1	0	0	0.12286	0.24145	0.10436	0.15044	0.10288	0.12798	0.24471	0.018238	0.12749	0.045827	0.13323	0.061292	0.095008	0.089743	0.13182	0.24398	-2.5458	-3.425	-3.1458	-3.0875	-3.35	-2.8625	-3.4146	-3.2021	-3	-3.4042	-3.2479	-3.2667	-3.5563	-3.0333	-3.4417	-3.3667	10.417	36.696	85.576	163.533	-86.751	-127.210	80.267	20.769	-105.898	1.016	-161.408	-78.762	192.373	-25.848	157.635	85.802	0.00020211	7.6344e-05	3.3799e-05	1221.3	2.2387e-06	1.2462e-06	1290	254.74	2.3904e-06	1.5775e-06	314.87	87.976	69.256	19.767	1.99e-06	27.908	9.3348e-05	8.8272e-05	2.8279e-05	1150.7	9.7846e-07	9.9354e-07	1218.2	240.38	9.8038e-07	1.0001e-06	289.65	82.843	63.651	18.84	1.1105e-06	26.16	-79.149	-140.967	92.904	-155.340	-59.657	182.407	-155.387	-148.311	46.291	-66.468	-148.598	-142.219	-141.832	-135.153	-62.236	-135.251	-8191	255	
1136.725	1	1	0	0	0.33026	0.22684	0.16539	0.18674	0.1388	0.092532	0.17384	0.36727	0.1274	0.31565	0.18365	0.37849	0.17521	0.23247	0.39034	0.29292	-2.4042	-3.4083	-3.0979	-3.25	-3.2604	-3.0271	-3.2646	-3.4396	-2.9583	-3.2625	-3.2667	-3.0167	-3.3708	-3.025	-3.1417	-3.3563	88.278	-140.646	53.731	132.821	87.288	54.089	128.721	136.408	100.421	13.836	-126.533	147.262	91.738	159.840	-40.548	86.912	0.00022418	0.00020944	8.1563e-05	1221.6	7.9278e-07	1.2495e-06	1290.3	254.1	1.7168e-06	1.7208e-06	314.84	87.628	69.594	19.723	2.9544e-06	27.88	9.2075e-05	9.3458e-05	2.7941e-05	1150.1	9.5379e-07	1.0451e-06	1216.5	239.91	9.5133e-07	1.059e-06	289.17	82.402	63.618	18.848	1.0782e-06	26.132	-76.102	30.308	-29.556	-155.444	-44.065	141.177	-155.313	-148.448	-44.019	40.216	-148.656	-141.981	-141.780	-135.081	-30.701	-135.309	-8191	255	
1136.821	1	1	0	0	0.16232	0.20053	0.11017	0.32106	0.042775	0.26589	0.014602	0.20023	0.13137	0.16159	0.082064	0.33425	0.088769	0.1586	0.26965	0.13319	-2.5021	-3.275	-3.2271	-2.9396	-3.3688	-3.1667	-3.4875	-3.4437	-2.9708	-3.4292	-3.3042	-3.0146	-3.3583	-3.1271	-3.0333	-3.3354	7.499	185.894	191.263	115.575	-107.532	-82.560	70.488	12.004	34.222	93.843	187.665	156.237	185.858	118.353	147.866	-150.793	0.00027243	0.00035839	5.5107e-05	1222.1	1.1086e-06	3.5333e-07	1290.2	253.15	4.5707e-06	3.8379e-06	312.82	87.405	69.25	19.726	4.5835e-06	27.709	9.0349e-05	9.7169e-05	2.6522e-05	1148.5	9.47e-07	1.0835e-06	1216.3	239.68	9.7498e-07	1.0904e-06	288.77	82.393	63.721	18.833	1.0336e-06	26.029	-86.578	-120.846	-1.803	-155.303	-22.955	169.524	-155.363	-148.057	-8.984	-44.889	-148.638	-142.085	-141.662	-134.842	-15.057	-135.332	-8191	255	
1136.942	1	1	0	0	0.12533	0.089364	0.1394	0.25982	0.22338	0.12131	0.2901	0.19125	0.13511	0.22608	0.075782	0.1344	0.22278	0.0072226	0.20043	0.20265	-2.5167	-3.2854	-3.3042	-3.1292	-3.5208	-3.0062	-3.1271	-3.5687	-3.0271	-3.4167	-3.3083	-3.125	-3.3312	-3.2417	-3.0229	-3.4646	184.907	123.312	-114.027	122.072	128.208	-115.628	101.841	105.291	-143.257	137.740	126.369	-140.911	13.455	131.976	-53.307	156.493	0.00022388	0.00010589	7.4921e-05	1221.5	2.3825e-06	8.6069e-07	1285.5	253.12	3.8241e-06	6.6956e-07	312.93	87.895	69.342	19.693	1.0097e-06	27.542	9.4713e-05	9.9932e-05	2.5693e-05	1147.8	1.0022e-06	1.1038e-06	1214.4	239.33	1.0241e-06	1.0932e-06	288.3	82.673	63.847	18.801	1.0195e-06	26.033	-70.332	-74.203	-45.259	-155.479	-146.681	-94.560	-155.301	-148.308	-52.697	82.111	-148.833	-142.057	-141.479	-134.878	79.647	-135.572	-8191	255	
1137.013	1	1	0	0	0.13683	0.28001	0.22286	0.11596	0.14314	0.15809	0.22657	0.2671	0.06884	0.059544	0.13806	0.26902	0.14022	0.048348	0.20207	0.28086	-2.6729	-3.1562	-3.3854	-3.35	-3.3417	-3.1521	-3.2854	-3.5979	-3.0792	-3.0271	-3.3854	-3.0167	-3.2188	-3.2979	-2.9062	-3.4958	-35.106	11.204	-23.895	144.607	31.454	164.607	7.761	137.751	72.404	-52.616	-83.694	153.407	110.361	134.523	-82.567	-119.585	0.00025215	9.204e-05	0.00010139	1220.2	2.5278e-06	3.8586e-06	1287.9	253.07	2.7484e-06	3.9678e-06	315.29	87.713	69.055	19.742	2.0656e-06	27.493	0.00010051	9.9407e-05	2.5027e-05	1147.7	1.0648e-06	1.052e-06	1215.6	239.34	1.0841e-06	1.0465e-06	288.87	82.488	63.91	18.804	9.9471e-07	25.98	-83.659	-62.682	-48.139	-155.254	-87.258	-48.926	-155.160	-148.133	11.463	-55.267	-148.768	-142.039	-141.892	-134.863	-52.065	-135.073	-8191	255	
1137.134	1	1	0	0	0.15565	0.15083	0.3227	0.091824	0.20536	0.097427	0.33433	0.12905	0.21017	0.22874	0.2045	0.066958	0.22716	0.13138	0.069902	0.076249	-2.8271	-3.0125	-3.2354	-3.1625	-3.4	-3.1562	-3.1417	-3.5458	-3.1771	-2.9979	-3.5042	-3.1583	-3.2979	-3.5896	-3.0375	-3.3271	-137.511	135.403	-141.013	114.847	-38.579	-161.891	131.105	144.997	-146.103	-130.227	160.446	-142.005	133.676	-64.316	-92.384	-40.643	0.00024491	0.00033353	6.885e-05	1214.1	1.764e-06	1.2825e-06	1282.9	253.26	3.2476e-06	2.3033e-06	314.34	87.675	69.158	19.788	2.6362e-06	27.594	0.00010325	9.5117e-05	2.4322e-05	1146.5	1.091e-06	1.0141e-06	1211.9	239.6	1.1e-06	1.0138e-06	288.73	82.648	63.914	18.805	9.576e-07	26.03	-78.672	-74.308	-120.598	-155.366	-51.764	-110.762	-155.317	-148.353	-3.172	38.097	-148.691	-141.956	-141.389	-134.995	55.622	-135.146	-8191	255	
1137.230	1	1	0	0	0.1517	0.1882	0.24596	0.13522	0.121	0.026821	0.34444	0.12772	0.040905	0.22147	0.032672	0.05104	0.22346	0.049175	0.14241	0.12363	-2.5521	-3.05	-3.3542	-2.8812	-3.3417	-3.3104	-3.2771	-3.4604	-3.1312	-3.0417	-3.3979	-3.1083	-3.2021	-3.3896	-2.9708	-3.3708	-27.568	193.222	141.765	-156.277	-145.695	-13.073	135.120	-40.338	74.975	154.167	-10.176	-53.988	-147.176	-165.454	-84.086	45.687	0.00024106	0.00038675	0.00012084	1217.7	1.9984e-06	2.6193e-06	1290.7	253.11	3.267e-06	6.1758e-07	314.36	87.412	69.603	19.717	2.5038e-06	27.644	0.00010427	9.2604e-05	2.365e-05	1148.2	1.0953e-06	9.8638e-07	1214.8	239.83	1.0855e-06	1.0034e-06	287.94	82.615	64.018	18.75	9.494e-07	26.17	-80.485	-95.857	-46.410	-155.393	-8.636	-23.211	-155.351	-148.248	1.252	1.814	-148.594	-142.041	-141.824	-134.897	5.996	-135.465	-8191	255	
1137.326	1	1	0	0	0.082339	0.18179	0.045377	0.25115	0.1147	0.088437	0.12309	0.093129	0.030594	0.046077	0.14143	0.075431	0.027062	0.14866	0.090824	0.098163	-2.7792	-2.8333	-3.3521	-3.1125	-3.3708	-3.3479	-3.1771	-3.425	-3.0771	-2.9042	-3.6188	-3.1292	-3.2167	-3.325	-2.7896	-3.2438	159.899	-105.824	-79.184	108.999	193.129	-153.731	152.327	184.914	-42.857	-66.964	-121.988	175.484	-102.403	-69.309	-99.434	43.918	0.00023055	0.00033282	7.622e-05	1217.9	3.3111e-06	4.1256e-06	1285.4	252.89	9.0433e-07	3.1138e-06	314.59	87.645	69.648	19.822	7.5616e-07	27.891	9.9569e-05	9.0472e-05	2.3872e-05	1149.2	1.0647e-06	9.6388e-07	1214.6	239.99	1.0416e-06	9.8356e-07	288.32	82.873	63.988	18.756	9.7623e-07	26.224	-70.448	-91.539	21.566	-155.444	-21.138	-68.305	-155.384	-148.334	-61.203	-6.223	-148.707	-142.055	-141.734	-134.834	-88.183	-135.367	-8191	255	
1137.422	1	1	0	0	0.32406	0.22051	0.0542	0.25771	0.20419	0.14034	0.083373	0.16283	0.07562	0.27539	0.25429	0.13176	0.20529	0.17891	0.24769	0.057622	-2.7292	-3	-3.2167	-3.1708	-3.05	-3.4292	-3.0021	-3.3333	-3.1833	-2.8771	-3.5458	-3.0229	-2.9646	-3.3229	-3.075	-3.2646	157.932	-129.517	140.551	122.384	88.312	44.402	108.170	179.216	122.896	-31.911	148.708	164.064	168.746	107.595	-87.440	-33.890	0.00019883	0.00019771	6.1356e-05	1220.6	1.652e-06	1.9548e-06	1286.5	253.28	4.6174e-06	6.1539e-06	314.07	87.929	69.527	19.902	1.3489e-06	27.844	9.6052e-05	8.8481e-05	2.4829e-05	1150.6	1.0327e-06	9.481e-07	1216.9	240.39	1.0338e-06	9.6105e-07	288.83	82.932	63.989	18.813	1.0519e-06	26.257	-80.089	-99.147	-44.995	-155.482	1.429	-33.699	-155.555	-148.321	-65.991	6.331	-148.584	-142.135	-141.865	-134.976	-117.000	-135.239	-8191	255	
1137.543	1	1	0	0	0.064512	0.25599	0.1112	0.27012	0.026844	0.28193	0.17293	0.16919	0.24755	0.24158	0.055628	0.11236	0.096594	0.22	0.22311	0.12459	-2.9146	-3.0167	-3.4125	-3.4333	-3.0854	-3.4708	-3.1854	-3.3396	-3.1958	-3.0583	-3.2604	-3.0979	-3.05	-3.4229	-2.9354	-3.1833	16.296	136.743	35.607	149.794	-65.690	-70.370	43.777	-111.435	-145.111	-121.655	79.617	120.624	-20.965	188.560	-12.841	-12.105	0.00021376	0.00011338	0.00011439	1222.7	4.4014e-07	1.6222e-06	1292.9	254.1	4.0722e-06	4.1284e-06	314.23	87.748	70.085	19.88	3.6383e-06	27.816	9.6498e-05	8.8178e-05	2.7036e-05	1153.9	1.0285e-06	9.5288e-07	1222	240.68	1.0112e-06	9.6754e-07	289.83	82.888	64.088	18.827	1.1229e-06	26.204	-83.249	-157.672	-63.253	-155.246	91.199	24.108	-155.299	-148.178	-21.951	-19.539	-148.442	-142.216	-141.837	-134.889	-50.925	-135.154	-8191	255	
1137.615	1	1	0	0	0.14953	0.061944	0.15844	0.40029	0.23361	0.098158	0.14403	0.18951	0.22953	0.25627	0.084049	0.038513	0.23691	0.015091	0.084331	0.1597	-2.9271	-2.7542	-2.9938	-3.3396	-2.9	-3.4896	-3.1562	-3.3292	-3.1437	-3.15	-3.2417	-3.2646	-2.8771	-3.275	-3.1042	-3.1	-64.538	103.238	-160.899	156.553	181.059	-136.264	92.766	157.422	58.724	187.246	96.620	183.711	155.143	-155.501	93.714	-43.451	0.00024596	0.00018212	0.00011603	1221.4	2.0906e-06	8.3389e-07	1292.6	253.81	5.7656e-06	1.6326e-06	314.58	87.696	69.029	19.879	1.397e-06	27.86	9.3496e-05	8.9622e-05	2.8483e-05	1153.7	1.0249e-06	9.6672e-07	1222.1	240.72	9.8788e-07	1.0083e-06	290.43	82.737	63.808	18.851	1.1106e-06	26.127	-85.608	-104.127	-31.513	-155.289	1.862	48.887	-155.356	-148.050	3.768	182.321	-148.684	-142.357	-141.605	-135.010	-3.555	-135.600	-8191	255	
1137.709	1	1	0	0	0.23118	0.18485	0.28278	0.28673	0.13481	0.21551	0.066395	0.16966	0.079535	0.096606	0.030685	0.21818	0.39053	0.090782	0.16013	0.22659	-2.9437	-2.8708	-3.2333	-3.3708	-3.0104	-3.3	-3.2875	-3.0917	-3.3875	-2.9896	-3.2083	-3.3646	-2.9083	-3.3229	-3.1188	-3.0896	-141.201	36.885	-158.592	157.464	-68.621	107.477	-104.124	-89.074	-137.195	-146.168	-52.205	-89.942	181.912	106.998	-33.128	190.242	0.00024252	8.7871e-05	4.9793e-05	1225.1	2.0116e-06	4.1677e-06	1290.4	254.91	4.4145e-06	3.3027e-06	314.55	88.416	69.578	19.806	4.3216e-06	27.844	9.1538e-05	9.4026e-05	2.8396e-05	1152.1	9.7838e-07	1.037e-06	1218.8	240.83	9.651e-07	1.0517e-06	290.01	82.845	63.848	18.866	1.0862e-06	26.206	-73.557	-147.871	51.657	-155.442	-78.703	-60.423	-155.275	-148.457	9.998	-3.322	-148.637	-142.147	-141.918	-134.828	2.438	-135.414	-8191	255	
1137.830	1	1	0	0	0.15062	0.15587	0.12638	0.13382	0.073167	0.11367	0.13517	0.27241	0.15767	0.11699	0.36453	0.079991	0.21268	0.15284	0.065056	0.10273	-2.9208	-2.825	-3.2458	-3.3854	-2.9646	-3.2896	-3.3458	-2.9771	-3.4458	-2.9917	-3.1917	-3.5187	-2.8833	-3.2792	-3.2188	-3.0083	122.043	107.994	-55.871	61.372	-109.735	-41.652	141.347	187.915	168.942	88.826	-129.429	147.792	-140.494	106.061	190.886	-42.259	0.00022652	0.00020397	0.00011407	1226	1.9452e-06	1.7305e-06	1294.3	254.5	3.3355e-06	1.9407e-06	314.38	87.626	69.534	19.863	3.6806e-06	27.922	8.9949e-05	9.8726e-05	2.7222e-05	1152.5	9.6698e-07	1.085e-06	1220.1	240.76	9.6462e-07	1.1105e-06	290.03	82.776	63.974	18.904	1.052e-06	26.175	-84.905	-129.351	-73.445	-155.298	-29.365	-22.814	-155.532	-148.168	-14.329	-53.589	-148.612	-142.291	-141.583	-134.730	19.336	-135.149	-8191	255	
1137.926	1	1	0	0	0.13274	0.073026	0.04657	0.19009	0.21189	0.17385	0.11435	0.31101	0.02406	0.14199	0.21265	0.27213	0.14113	0.12485	0.16609	0.189	-3.0083	-3.1708	-3.1292	-3.4583	-3.0312	-3.3146	-3.3333	-3.1667	-3.4667	-3.2	-3.1542	-3.4354	-3.0187	-3.1937	-3.2938	-2.9146	-111.200	-83.696	-135.563	150.561	133.110	68.159	34.178	116.116	129.160	-10.257	128.740	78.881	154.107	35.252	152.819	139.403	0.00023564	0.00036089	5.7624e-05	1227.2	1.7003e-06	3.359e-06	1291.9	253.58	6.3063e-06	2.1232e-06	313.24	87.836	69.353	19.785	2.7122e-06	27.808	9.4864e-05	0.00010162	2.6938e-05	1153.1	1.028e-06	1.1114e-06	1220	240.33	1.0243e-06	1.1132e-06	289.19	82.745	63.891	18.919	1.024e-06	26.113	-81.381	-44.071	18.149	-155.356	43.872	-83.869	-155.277	-148.239	-40.398	20.852	-148.642	-141.840	-141.911	-135.139	-20.495	-135.237	-8191	255	
1138.022	1	1	0	0	0.36826	0.28759	0.049475	0.16592	0.075469	0.25187	0.1659	0.11442	0.20089	0.12455	0.16297	0.13277	0.067204	0.26615	0.13549	0.083279	-2.7583	-3.1396	-3.1188	-3.5833	-2.9583	-3.2979	-3.4875	-2.8917	-3.2062	-3.3479	-3.1125	-3.3937	-2.8167	-3.2687	-3.1396	-2.9917	21.050	-90.933	106.928	157.787	140.639	68.642	102.613	117.674	-74.769	25.601	-99.489	-110.506	-0.628	62.331	64.849	-74.717	0.00023687	0.00018451	3.8881e-05	1225.7	3.7312e-06	1.5706e-06	1288.8	254.06	4.836e-06	1.4035e-06	314.65	87.578	69.117	19.879	2.3929e-06	27.895	9.8735e-05	0.00010234	2.6258e-05	1151.1	1.0913e-06	1.1201e-06	1217.9	240.45	1.0919e-06	1.092e-06	289.48	82.562	64.082	18.89	1.0065e-06	26.156	-83.963	-138.060	178.591	-155.315	-62.502	3.298	-155.224	-148.190	-45.486	75.685	-148.623	-142.221	-141.632	-134.926	-56.505	-135.412	-8191	255	
1138.118	1	1	0	0	0.11005	0.055125	0.25315	0.1854	0.036577	0.11372	0.2089	0.25705	0.13804	0.17074	0.39647	0.028615	0.21578	0.31993	0.12288	0.22192	-3.025	-3.0146	-3.0125	-3.5167	-3.075	-3.2604	-3.5521	-2.9688	-3.2146	-3.1229	-2.9896	-3.2542	-3.1437	-3.1646	-3.2375	-3.0792	169.227	-66.079	126.870	-57.047	83.492	-137.848	157.825	101.307	-85.177	124.947	161.586	185.644	106.874	166.671	-109.177	138.208	0.00027425	0.00035357	2.8958e-05	1223	4.681e-06	4.217e-06	1288.2	252.7	3.1307e-06	1.5618e-06	314.57	88.113	69.353	19.819	2.1742e-06	27.891	0.00010463	9.8618e-05	2.5509e-05	1150.5	1.1214e-06	1.0745e-06	1217.8	240.42	1.1292e-06	1.0488e-06	289.53	82.82	64.3	18.847	9.6291e-07	26.145	-82.808	-99.691	156.496	-155.538	-60.009	-20.457	-155.437	-148.307	-0.296	-62.971	-148.415	-141.995	-141.787	-135.035	-51.062	-135.568	-8191	255	
1138.214	1	1	0	0	0.22063	0.19161	0.17793	0.29285	0.11258	0.15634	0.31719	0.14293	0.13758	0.29032	0.31325	0.16541	0.22231	0.10118	0.13755	0.22301	-2.8729	-3.2583	-2.9375	-3.5229	-3.1083	-3.0708	-3.4375	-2.9667	-3.3646	-3.2292	-3.0125	-3.4583	-3.1104	-3.0583	-3.4562	-3.0583	99.252	-13.756	91.811	95.819	167.684	-132.043	114.916	111.873	179.749	96.738	124.926	172.928	96.091	101.070	172.677	-105.527	0.00025723	0.00030301	1.518e-05	1222.7	1.4747e-06	2.6657e-06	1291.9	254.18	3.2127e-06	2.5921e-06	313.38	87.91	69.037	19.849	1.4912e-06	27.854	0.0001059	9.417e-05	2.4608e-05	1153	1.1254e-06	1.0269e-06	1219.8	240.38	1.1175e-06	1.014e-06	288.86	82.844	64.084	18.869	9.4872e-07	26.234	-75.300	-77.468	65.453	-155.451	-40.515	-71.725	-155.014	-148.121	-15.057	31.872	-148.508	-141.844	-141.680	-135.353	-67.893	-135.434	-8191	255	
1138.310	1	1	0	0	0.27323	0.24378	0.11356	0.3167	0.23285	0.23818	0.38258	0.32854	0.11475	0.22226	0.1134	0.27594	0.08762	0.054126	0.17179	0.17236	-2.6771	-3.2292	-2.7979	-3.6021	-3.1813	-2.9833	-3.4437	-3.0229	-3.2562	-3.3354	-3.1021	-3.3396	-3.2562	-3.0271	-3.3375	-2.9833	162.440	124.815	-151.316	101.790	161.389	113.821	112.476	133.682	-25.693	83.934	120.954	83.782	96.716	-74.156	155.336	168.507	0.00019565	0.00017961	3.093e-05	1223.1	2.0426e-06	3.1706e-06	1291.1	254.73	2.6638e-06	2.6101e-06	315.23	88.056	69.659	19.852	1.4672e-06	27.754	0.00010291	9.1865e-05	2.4096e-05	1153.2	1.0622e-06	1.0025e-06	1219.9	241.1	1.0799e-06	9.9405e-07	288.88	83.094	64.178	18.87	9.5732e-07	26.181	-92.967	-162.397	-122.724	-155.452	-7.701	45.365	-155.406	-148.222	13.706	-2.629	-148.478	-141.837	-141.897	-135.042	-22.194	-135.505	-8191	255	
1138.407	1	1	0	0	0.13842	0.16851	0.1209	0.22925	0.27144	0.27173	0.24268	0.261	0.14265	0.1572	0.074148	0.14217	0.066239	0.18191	0.070836	0.012356	-2.7438	-3.1854	-2.8583	-3.3771	-3.15	-2.9375	-3.4146	-3.1729	-2.8458	-3.3917	-3.0646	-3.2125	-3.1354	-2.8438	-3.1354	-3.0146	42.877	-3.912	115.959	-77.995	190.112	109.204	142.542	73.659	193.718	-64.935	-151.922	-139.501	97.656	-20.010	190.242	-31.383	0.00022753	0.00011243	0.00012305	1220	3.2435e-06	3.3297e-06	1288.9	253.84	3.0911e-06	4.0342e-06	314.22	87.882	69.573	19.768	2.0904e-06	27.8	0.0001006	8.841e-05	2.5279e-05	1153.5	1.0393e-06	9.7811e-07	1218.7	241.26	1.0519e-06	9.6064e-07	289.67	83.025	64.006	18.792	1.0239e-06	26.206	-86.731	-4.875	-55.356	-155.166	-5.391	-19.498	-155.523	-148.160	-9.221	14.255	-148.778	-142.002	-141.723	-134.953	-28.794	-135.472	-8191	255	
1138.503	1	1	0	0	0.21001	0.15925	0.059091	0.36692	0.15602	0.36741	0.18849	0.10071	0.10156	0.063475	0.11943	0.18685	0.19294	0.15129	0.23486	0.24654	-2.6729	-3.325	-3.0125	-3.3042	-3.2083	-3.0104	-3.4167	-3.2292	-3	-3.3167	-3.0875	-3.2375	-3.3167	-3.0229	-3.3667	-3.2583	12.316	19.714	178.197	165.661	-144.593	-95.359	114.396	-4.734	-4.116	21.410	37.113	-130.619	74.133	104.196	136.879	184.433	0.00024501	8.4459e-05	6.2742e-05	1225.1	1.1424e-06	1.5994e-06	1287.7	254.47	2.7123e-06	2.4399e-06	314.33	88.121	68.994	19.769	2.9537e-06	27.758	9.586e-05	8.6021e-05	2.6155e-05	1154	1.0018e-06	9.5059e-07	1219.4	240.58	1.0163e-06	9.3454e-07	289.79	82.919	63.761	18.784	1.0591e-06	26.103	-85.940	13.156	-87.283	-155.324	-62.862	-40.752	-155.409	-148.410	-2.808	71.166	-148.695	-142.056	-141.616	-135.061	-46.290	-135.498	-8191	255	
1138.623	1	1	0	0	0.32188	0.14902	0.14913	0.11262	0.12961	0.22874	0.047129	0.18105	0.20205	0.17975	0.13861	0.15677	0.185	0.058968	0.079611	0.31765	-2.7	-3.3479	-2.9583	-3.1604	-3.1958	-2.9813	-3.4604	-3.2125	-3.0083	-3.2125	-3.0438	-3.1521	-3.0938	-2.9938	-3.225	-3.2438	105.587	105.053	-110.169	18.183	135.977	-163.820	143.279	142.020	-86.131	10.713	127.267	-150.687	81.596	-144.881	-47.721	171.884	0.00019157	0.00014982	4.3443e-05	1220.1	3.6538e-06	1.9942e-06	1289.6	253.85	3.7658e-06	2.1353e-06	314.26	88.071	69.601	19.952	2.7645e-06	27.697	9.2996e-05	8.4539e-05	2.7186e-05	1151.1	9.8528e-07	9.5698e-07	1219.7	240.52	9.8738e-07	9.5196e-07	289.85	82.942	63.752	18.827	1.1079e-06	26.097	-84.045	-151.138	8.240	-155.195	-23.689	-89.086	-155.343	-148.092	-5.498	-106.869	-148.388	-142.051	-141.531	-135.127	-56.064	-135.380	-8191	255	
1138.718	1	1	0	0	0.079231	0.19451	0.28229	0.13173	0.15279	0.13328	0.17565	0.10144	0.10103	0.23454	0.097847	0.090862	0.14504	0.069735	0.084657	0.17374	-2.5896	-3.4396	-3.0896	-3.3417	-3.3792	-2.9167	-3.4562	-3.3375	-2.8792	-3.4167	-3.2562	-3.0333	-3.4021	-3.0396	-3.3438	-3.4083	-114.279	66.341	-1.349	177.035	90.860	-1.815	75.459	-103.505	152.240	-116.160	132.645	149.965	-105.732	-33.468	110.115	145.118	0.0002665	0.00011883	6.7029e-05	1222.8	7.6617e-07	2.6463e-06	1290.8	254.18	3.5579e-06	1.6333e-06	314.19	87.909	69.203	19.931	1.9294e-06	27.804	9.1309e-05	8.9278e-05	2.756e-05	1151.2	9.3869e-07	9.91e-07	1218.9	240.31	9.4687e-07	1.025e-06	289.58	82.765	63.683	18.86	1.0921e-06	26.111	-82.615	-159.565	-50.586	-155.196	-57.969	-103.798	-155.416	-148.260	-13.861	-63.029	-148.653	-142.170	-141.495	-135.044	11.022	-135.038	-8191	255	
1138.814	1	1	0	0	0.11351	0.28322	0.10091	0.2699	0.14437	0.22182	0.26856	0.13531	0.2281	0.11925	0.20112	0.27697	0.1077	0.21617	0.13984	0.21498	-2.4042	-3.1312	-2.9437	-3.0229	-3.2583	-2.925	-3.2958	-3.4583	-3.0396	-3.375	-3.2917	-3.0708	-3.3708	-3.0083	-3.1208	-3.4229	-110.293	81.660	69.361	122.398	48.252	-118.479	66.489	147.592	-120.952	80.804	87.700	153.505	181.347	-118.755	173.659	-161.959	0.00030038	9.7927e-05	5.9319e-05	1218.9	3.6471e-06	2.0951e-06	1287.1	253.99	4.311e-06	1.8805e-06	314.81	87.347	69.464	19.808	2.5458e-06	27.817	9.0083e-05	9.5267e-05	2.7658e-05	1149.7	9.3949e-07	1.0533e-06	1218.6	240.41	9.5419e-07	1.0729e-06	289.49	82.656	63.759	18.858	1.0589e-06	26.117	-73.673	-127.698	46.957	-155.273	-37.809	16.696	-155.401	-148.414	-49.957	14.731	-148.608	-141.853	-141.716	-134.728	25.417	-135.330	-8191	255	
1138.910	1	1	0	0	0.24886	0.1121	0.08025	0.18496	0.040261	0.20132	0.28504	0.31668	0.011695	0.18421	0.22654	0.15817	0.15361	0.23176	0.19636	0.067789	-2.4958	-3.2125	-3.2708	-3.0292	-3.3208	-3.1	-3.3833	-3.3146	-3.0021	-3.2208	-3.2938	-2.9188	-3.5083	-3.1292	-3.1188	-3.5375	-125.886	35.281	-160.476	115.833	99.045	74.750	122.210	148.678	54.407	23.183	130.103	134.263	-104.012	154.319	103.337	25.050	0.00024112	0.00029737	3.2915e-05	1225.2	1.1324e-06	4.294e-06	1286.6	253.97	4.7281e-06	1.1035e-06	313.63	87.491	69.011	19.83	2.7153e-06	27.755	9.1417e-05	9.7994e-05	2.629e-05	1151.5	9.6439e-07	1.0787e-06	1215.7	240.18	9.7211e-07	1.0779e-06	288.39	82.657	63.623	18.9	9.9775e-07	26.121	-80.904	-87.077	57.919	-155.376	-50.336	-51.280	-155.240	-148.198	-15.809	-80.067	-148.473	-142.148	-141.145	-134.904	-34.889	-135.804	-8191	255	
1139.006	1	1	0	0	0.19567	0.12499	0.11675	0.21878	0.21722	0.29067	0.1674	0.20026	0.12757	0.13339	0.06414	0.18022	0.23713	0.083939	0.11469	0.19327	-2.6979	-3.3021	-3.2792	-3.0396	-3.3604	-3.2938	-3.375	-3.4333	-3.0292	-3.2938	-3.4417	-2.9729	-3.425	-3.2875	-3.1021	-3.4708	106.362	-49.088	188.853	153.979	-155.092	58.769	118.964	134.572	-128.347	-33.509	177.746	174.774	-57.230	120.512	126.705	156.903	0.0002295	0.0003159	0.00010947	1216.3	2.2271e-06	2.6003e-06	1289.4	253.13	2.5204e-06	1.341e-06	313.95	87.661	68.997	19.74	1.6064e-06	27.672	9.5977e-05	9.7462e-05	2.5439e-05	1147.6	1.0154e-06	1.0784e-06	1218.1	239.98	1.0509e-06	1.082e-06	289.13	82.659	63.846	18.851	1.016e-06	26.031	-90.451	-94.831	-43.514	-155.282	-84.617	-27.468	-155.352	-148.438	-27.082	56.147	-148.421	-142.280	-141.630	-134.812	-35.415	-135.616	-8191	255	
1139.102	1	1	0	0	0.067564	0.10365	0.088708	0.050933	0.20802	0.23658	0.38723	0.31228	0.3056	0.05035	0.2863	0.20578	0.08766	0.25546	0.057361	0.13754	-2.5812	-3.0812	-3.3667	-3.0396	-3.3354	-3.1937	-3.2812	-3.5479	-3.0521	-3.2167	-3.4562	-2.8937	-3.1312	-3.1688	-2.7833	-3.2396	52.377	-0.873	109.948	191.805	186.931	-80.903	130.448	104.550	-132.622	148.437	152.652	-115.997	166.028	-64.608	155.856	-155.186	0.00028058	0.0001186	4.1645e-05	1223.8	1.3705e-06	3.0852e-06	1289.6	253.77	3.4211e-06	3.0661e-06	315.1	87.668	68.858	19.761	5.9043e-07	27.623	0.00010188	9.6796e-05	2.5293e-05	1149.8	1.075e-06	1.0531e-06	1217.4	239.82	1.0912e-06	1.0522e-06	288.67	82.609	64.024	18.838	9.8289e-07	26.086	-78.101	-130.539	-36.755	-155.180	-9.893	-45.503	-155.371	-148.307	-0.632	25.094	-148.704	-142.098	-141.555	-134.809	81.206	-135.283	-8191	255	
1139.223	1	1	0	0	0.2699	0.13964	0.24318	0.34861	0.038416	0.1349	0.22573	0.17158	0.28261	0.32222	0.19678	0.069915	0.11703	0.13739	0.10244	0.24081	-2.7104	-3.0042	-3.4021	-3.0687	-3.2479	-3.0604	-3.1354	-3.4562	-3.05	-2.9313	-3.4396	-3.0646	-3.1354	-3.2479	-2.8083	-3.1937	186.459	142.238	-9.042	72.272	-35.151	-70.899	101.412	186.361	-51.661	124.753	-134.657	-19.870	38.896	-76.686	-151.164	-121.197	0.00028062	0.00025183	0.0001559	1221.6	1.695e-06	2.6001e-06	1289.3	253.67	3.0842e-06	1.814e-06	314.86	87.36	69.433	19.813	1.3326e-06	27.715	0.00010425	9.4881e-05	2.4611e-05	1150.1	1.1148e-06	1.0146e-06	1216.3	239.99	1.1056e-06	1.027e-06	288.42	82.657	64.042	18.834	9.7548e-07	26.115	-81.074	159.310	-44.900	-155.294	-9.848	144.193	-155.245	-148.305	-38.811	-77.645	-148.679	-141.661	-141.593	-135.137	-48.329	-135.413	-8191	255	
1139.319	1	1	0	0	0.10568	0.17109	0.16092	0.10609	0.20708	0.15841	0.17933	0.23453	0.1375	0.1355	0.086117	0.14	0.10163	0.16274	0.2423	0.076205	-2.6396	-2.9667	-3.4771	-3.0312	-3.2458	-3.3708	-3.0896	-3.4875	-3.0146	-3.0833	-3.4292	-2.95	-3.1896	-3.4875	-3.0521	-3.35	-34.108	-2.325	106.928	171.575	-83.829	-92.458	-164.515	142.729	45.152	-33.871	-135.793	87.388	94.269	184.274	-17.444	122.731	0.00025472	0.00019808	9.2733e-05	1220.3	1.6059e-06	1.0062e-06	1287.5	253.3	3.5639e-06	1.0819e-06	315.14	87.62	69.534	19.853	1.2458e-06	27.751	0.00010558	9.3694e-05	2.3984e-05	1149.4	1.0988e-06	1.0038e-06	1214.6	240.39	1.0806e-06	9.8447e-07	288.56	82.743	64.008	18.778	9.5082e-07	26.143	-76.019	-44.702	-97.888	-155.267	-54.026	-111.851	-155.188	-148.087	35.064	-38.941	-148.937	-142.166	-141.555	-134.910	-53.738	-135.034	-8191	255	
#DATA ENDS
