BOXY.EXE: ISS Imagent and Oximeter Data Acquisition Program Version 0.80
Ascii Record File

#ACQ INFORMATION
2  Detector Channels 
16  External MUX Channels 
1  Auxiliary Channels 
5000  Waveform (CCF) Frequency (Hz)
1  Waveforms Skipped 
30  Waveforms Averaged 
1  Cycles Averaged 
16  Acquisitions per Waveform 
10.0806  Updata Rate (Hz) 

#FILE INFORMATION
TRUE -- External MUX Channel results are PARSED.
FALSE -- AC DC and Phase are NOT grouped.
TRUE -- Companion Program Settings File CREATED.
FALSE -- AC data not excluded
FALSE -- DC data not excluded
FALSE -- Phase data not excluded
FALSE -- Auxillary Chn. data not excluded
Tab delimiters

#CALIBRATION STATE
TRUE -- Waveform Calibration Values APPLIED.


#AUX CALIBRATION VALUES
Val Type	aux-1	

Term	1.0000e+00	
Factor	0.0000e+00	


#WF CALIBRATION VALUES
A = Detector Channel
Val Type	A-AC1	A-AC2	A-AC3	A-AC4	A-AC5	A-AC6	A-AC7	A-AC8	A-AC9	A-AC10	A-AC11	A-AC12	A-AC13	A-AC14	A-AC15	A-AC16	A-DC1	A-DC2	A-DC3	A-DC4	A-DC5	A-DC6	A-DC7	A-DC8	A-DC9	A-DC10	A-DC11	A-DC12	A-DC13	A-DC14	A-DC15	A-DC16	A-Ph1	A-Ph2	A-Ph3	A-Ph4	A-Ph5	A-Ph6	A-Ph7	A-Ph8	A-Ph9	A-Ph10	A-Ph11	A-Ph12	A-Ph13	A-Ph14	A-Ph15	A-Ph16	

Term	0.00000e+00	0.00000e+00	0.00000e+00	0.00000e+00	0.00000e+00	0.00000e+00	0.00000e+00	0.00000e+00	0.00000e+00	0.00000e+00	0.00000e+00	0.00000e+00	0.00000e+00	0.00000e+00	0.00000e+00	0.00000e+00	0.00000e+00	0.00000e+00	0.00000e+00	0.00000e+00	0.00000e+00	0.00000e+00	0.00000e+00	0.00000e+00	0.00000e+00	0.00000e+00	0.00000e+00	0.00000e+00	0.00000e+00	0.00000e+00	0.00000e+00	0.00000e+00	0.00000e+00	0.00000e+00	0.00000e+00	0.00000e+00	0.00000e+00	0.00000e+00	0.00000e+00	0.00000e+00	0.00000e+00	0.00000e+00	0.00000e+00	0.00000e+00	0.00000e+00	0.00000e+00	0.00000e+00	0.00000e+00	
Factor	1.00000e+00	1.00000e+00	1.00000e+00	1.00000e+00	1.00000e+00	1.00000e+00	1.00000e+00	1.00000e+00	1.00000e+00	1.00000e+00	1.00000e+00	1.00000e+00	1.00000e+00	1.00000e+00	1.00000e+00	1.00000e+00	1.00000e+00	1.00000e+00	1.00000e+00	1.00000e+00	1.00000e+00	1.00000e+00	1.00000e+00	1.00000e+00	1.00000e+00	1.00000e+00	1.00000e+00	1.00000e+00	1.00000e+00	1.00000e+00	1.00000e+00	1.00000e+00	X	X	X	X	X	X	X	X	X	X	X	X	X	X	X	X	

B = Detector Channel
Val Type	B-AC1	B-AC2	B-AC3	B-AC4	B-AC5	B-AC6	B-AC7	B-AC8	B-AC9	B-AC10	B-AC11	B-AC12	B-AC13	B-AC14	B-AC15	B-AC16	B-DC1	B-DC2	B-DC3	B-DC4	B-DC5	B-DC6	B-DC7	B-DC8	B-DC9	B-DC10	B-DC11	B-DC12	B-DC13	B-DC14	B-DC15	B-DC16	B-Ph1	B-Ph2	B-Ph3	B-Ph4	B-Ph5	B-Ph6	B-Ph7	B-Ph8	B-Ph9	B-Ph10	B-Ph11	B-Ph12	B-Ph13	B-Ph14	B-Ph15	B-Ph16	

Term	0.00000e+00	0.00000e+00	0.00000e+00	0.00000e+00	0.00000e+00	0.00000e+00	0.00000e+00	0.00000e+00	0.00000e+00	0.00000e+00	0.00000e+00	0.00000e+00	0.00000e+00	0.00000e+00	0.00000e+00	0.00000e+00	0.00000e+00	0.00000e+00	0.00000e+00	0.00000e+00	0.00000e+00	0.00000e+00	0.00000e+00	0.00000e+00	0.00000e+00	0.00000e+00	0.00000e+00	0.00000e+00	0.00000e+00	0.00000e+00	0.00000e+00	0.00000e+00	-9.50698e+01	-1.34209e+02	-1.30506e+02	-1.80748e+02	-5.50128e+01	-6.60304e+01	-1.57031e+02	-1.62015e+02	-5.45825e+01	-5.31485e+01	-1.71629e+02	-1.71410e+02	-1.83807e+02	-1.76817e+02	-5.88180e+01	-1.49577e+02	
Factor	1.70242e-05	1.65196e-04	5.02263e-05	1.72618e-01	1.54288e-06	1.59518e-06	1.73682e-01	5.09113e-02	1.15026e-06	1.72375e-06	8.36987e-02	3.22256e-02	4.11735e-02	9.43077e-03	1.40902e-06	1.35806e-02	3.22070e-06	3.66523e-06	1.02384e-06	8.63279e-02	3.97030e-08	4.03732e-08	8.18899e-02	2.56352e-02	3.97281e-08	4.04783e-08	4.06540e-02	1.57543e-02	2.06171e-02	4.74922e-03	4.00296e-08	6.62632e-03	X	X	X	X	X	X	X	X	X	X	X	X	X	X	X	X	



#DISTANCE SETTINGS
A = Detector Channel
A-1	A-2	A-3	A-4	A-5	A-6	A-7	A-8	A-9	A-10	A-11	A-12	A-13	A-14	A-15	A-16	

2.5000e+00	3.0000e+00	2.5000e+00	3.0000e+00	2.0000e+00	3.0000e+00	1.5000e+00	3.0000e+00	3.0000e+00	3.0000e+00	3.0000e+00	3.0000e+00	3.0000e+00	3.0000e+00	1.5000e+00	3.0000e+00	

B = Detector Channel
B-1	B-2	B-3	B-4	B-5	B-6	B-7	B-8	B-9	B-10	B-11	B-12	B-13	B-14	B-15	B-16	

1.0000e+01	1.0000e+01	1.0000e+01	1.4400e+00	1.0000e+01	1.0000e+01	1.5100e+00	1.9400e+00	1.0000e+01	1.0000e+01	1.9900e+00	2.4900e+00	2.4100e+00	2.9000e+00	1.0000e+01	2.9800e+00	




#DATA BEGINS
time	group	step	mark	flag	A-AC1	A-AC2	A-AC3	A-AC4	A-AC5	A-AC6	A-AC7	A-AC8	A-AC9	A-AC10	A-AC11	A-AC12	A-AC13	A-AC14	A-AC15	A-AC16	A-DC1	A-DC2	A-DC3	A-DC4	A-DC5	A-DC6	A-DC7	A-DC8	A-DC9	A-DC10	A-DC11	A-DC12	A-DC13	A-DC14	A-DC15	A-DC16	A-Ph1	A-Ph2	A-Ph3	A-Ph4	A-Ph5	A-Ph6	A-Ph7	A-Ph8	A-Ph9	A-Ph10	A-Ph11	A-Ph12	A-Ph13	A-Ph14	A-Ph15	A-Ph16	B-AC1	B-AC2	B-AC3	B-AC4	B-AC5	B-AC6	B-AC7	B-AC8	B-AC9	B-AC10	B-AC11	B-AC12	B-AC13	B-AC14	B-AC15	B-AC16	B-DC1	B-DC2	B-DC3	B-DC4	B-DC5	B-DC6	B-DC7	B-DC8	B-DC9	B-DC10	B-DC11	B-DC12	B-DC13	B-DC14	B-DC15	B-DC16	B-Ph1	B-Ph2	B-Ph3	B-Ph4	B-Ph5	B-Ph6	B-Ph7	B-Ph8	B-Ph9	B-Ph10	B-Ph11	B-Ph12	B-Ph13	B-Ph14	B-Ph15	B-Ph16	aux-1	digaux	

2636.011	1	1	0	256	0.13314	0.20719	0.13091	0.27226	0.16175	0.22985	0.17305	0.071705	0.30192	0.14269	0.053445	0.17617	0.24391	0.2052	0.18171	0.050857	-2.3771	-2.6063	-2.8896	-2.5375	-2.9208	-2.7812	-2.5729	-2.7646	-2.6833	-2.875	-2.8979	-2.7104	-2.6688	-2.6146	-2.7	-2.9625	70.817	286.099	80.423	281.171	181.950	197.621	330.342	213.487	20.376	25.127	180.778	370.536	251.814	237.041	243.938	325.413	8.0372e-05	0.00011664	1.6059e-05	250.28	1.3906e-06	9.457e-07	378.2	51.151	7.6465e-07	4.2231e-07	106.13	31.527	12.442	3.4269	4.4566e-07	14.91	2.1035e-05	8.766e-06	2.2951e-06	238.97	1.1009e-07	8.983e-08	363.49	49.532	1.1513e-07	9.2425e-08	102.1	30.679	12.038	3.3358	1.1942e-07	14.394	187.763	121.648	117.319	26.424	155.421	169.984	26.657	30.515	173.365	147.675	30.109	36.205	35.611	41.353	188.185	40.374	-8191	255	
2636.106	1	1	0	0	0.1692	0.058023	0.0027761	0.19883	0.19275	0.24558	0.095925	0.06193	0.047811	0.32025	0.12387	0.12397	0.1268	0.097842	0.028589	0.28922	-2.3063	-2.4854	-2.9229	-2.6396	-2.6542	-2.7938	-2.5062	-2.7687	-2.6813	-2.7562	-2.9708	-2.8063	-2.7229	-2.875	-2.6917	-2.8438	351.051	358.395	121.544	172.559	252.686	262.451	268.988	276.053	324.228	298.527	269.285	39.656	284.435	51.367	83.674	224.063	7.9226e-05	0.00019377	4.752e-05	249.49	1.2143e-06	1.4323e-06	376.3	51.666	1.6213e-06	6.5341e-07	106.94	31.938	12.657	3.5157	5.8408e-07	15.239	2.282e-05	9.7739e-06	2.5895e-06	240.65	1.2879e-07	7.4102e-08	364.91	49.756	1.239e-07	1.0828e-07	102.63	31.008	12.139	3.3529	1.0616e-07	14.693	175.886	129.384	101.754	26.021	236.079	158.311	26.628	31.032	203.098	153.166	30.157	35.867	36.032	41.353	177.449	40.413	-8191	255	
2636.203	1	1	0	0	0.059547	0.1324	0.17896	0.21867	0.079028	0.26996	0.33577	0.053097	0.18652	0.2108	0.13855	0.038829	0.1135	0.080462	0.11898	0.27822	-2.4729	-2.5687	-2.9208	-2.6167	-2.8187	-2.9271	-2.4729	-2.7521	-2.8708	-2.5542	-3.1042	-2.6083	-2.5875	-2.9833	-2.4917	-2.8979	170.641	45.956	96.002	42.147	106.648	93.476	309.682	78.906	153.197	102.766	279.119	90.151	101.179	179.792	361.413	198.425	7.0737e-05	0.00013199	5.7918e-05	253.13	2.1397e-06	1.2396e-06	384.23	51.94	7.2316e-07	6.246e-07	108.26	31.872	12.48	3.3736	9.2281e-07	14.681	2.2599e-05	9.7434e-06	2.3378e-06	241.81	1.1952e-07	9.3784e-08	368.44	50.156	1.1058e-07	1.0212e-07	103.16	30.833	12.07	3.2905	1.0016e-07	14.26	176.466	77.568	104.769	26.412	152.152	164.011	26.298	30.767	182.337	148.491	30.040	35.802	34.693	39.913	179.681	40.318	-8191	255	
2636.298	1	1	0	0	0.27199	0.10144	0.12884	0.14893	0.15009	0.076998	0.18822	0.19194	0.14953	0.068689	0.21958	0.11269	0.26028	0.075068	0.081969	0.15203	-2.2354	-2.6042	-2.8583	-2.8438	-2.7313	-2.8229	-2.7542	-2.8063	-2.85	-2.6979	-2.9771	-2.6375	-2.4542	-2.9854	-2.5792	-2.7542	134.922	155.778	113.996	176.645	204.828	102.954	323.129	316.629	194.104	105.091	198.742	138.650	179.806	224.874	145.162	277.358	7.8044e-05	0.00013585	4.416e-05	253.91	1.8655e-06	1.0496e-06	384.79	52.129	6.5552e-07	7.6104e-07	107.12	31.278	12.752	3.3993	4.4114e-07	14.773	2.0505e-05	9.7739e-06	2.3036e-06	243.82	1.1903e-07	8.4784e-08	369.37	50.386	9.7582e-08	1.0288e-07	102.79	30.541	12.117	3.2798	1.0216e-07	14.227	182.591	99.638	99.737	25.916	198.468	183.808	26.455	30.580	231.346	200.583	30.271	35.135	35.310	39.894	231.009	39.726	-8191	255	
2636.394	1	1	0	0	0.18227	0.15926	0.14864	0.057633	0.15704	0.33728	0.15988	0.19077	0.15012	0.12892	0.17094	0.0533	0.10168	0.12764	0.10751	0.23715	-2.325	-2.5	-2.8167	-2.7625	-2.6792	-3.0583	-2.6604	-2.5146	-3.0875	-2.5271	-2.8875	-2.9021	-2.6208	-2.9125	-2.5354	-2.6896	117.946	218.287	31.644	331.709	318.732	354.323	230.793	185.851	193.596	131.630	247.017	330.687	308.143	207.757	198.816	20.251	6.527e-05	7.5853e-05	2.5785e-05	254.57	9.5435e-07	7.0174e-07	381.1	51.498	4.6983e-07	1.1089e-06	107.3	31.623	12.525	3.4239	1.2676e-06	14.71	2.1398e-05	1.0202e-05	2.3911e-06	242.6	1.2134e-07	7.7887e-08	366.83	49.904	9.6837e-08	9.4534e-08	102.73	30.681	12.08	3.2741	1.1233e-07	14.19	172.446	53.004	104.797	26.002	168.477	178.371	26.609	30.149	175.523	160.213	29.867	35.550	35.382	40.195	175.616	40.009	-8191	255	
2636.515	1	1	0	0	0.12057	0.14385	0.33906	0.078169	0.19893	0.078228	0.21296	0.013277	0.046602	0.12775	0.17913	0.27742	0.045687	0.10731	0.15188	0.10062	-2.2938	-2.4875	-2.8625	-2.9062	-2.6958	-2.9667	-2.75	-2.7562	-2.7542	-2.7875	-2.9125	-2.6813	-2.5854	-3.0563	-2.7458	-2.7438	47.965	363.091	287.613	324.163	320.370	311.924	324.842	355.623	44.238	121.624	101.037	350.476	122.572	174.480	58.315	315.260	7.5614e-05	0.00018	2.9899e-05	254.15	1.8417e-06	5.144e-07	384.36	51.908	1.2192e-06	1.7776e-06	107.49	32.033	12.61	3.4272	9.204e-07	14.872	1.9364e-05	8.9874e-06	2.2418e-06	243.01	1.3218e-07	7.2167e-08	369.33	50.136	1.0867e-07	1.0255e-07	103.13	30.933	12.142	3.3075	9.5571e-08	14.387	183.651	81.911	129.548	26.245	198.911	125.730	25.924	30.646	129.036	171.598	30.428	35.300	35.732	40.457	164.513	40.011	-8191	255	
2636.611	1	1	0	0	0.050504	0.22997	0.27048	0.10343	0.32476	0.15353	0.18691	0.061836	0.12346	0.049976	0.20594	0.089192	0.14219	0.016363	0.24333	0.24145	-2.7375	-2.6208	-2.7396	-2.7104	-2.5896	-3.0354	-2.7792	-2.5729	-2.8479	-2.6125	-2.8208	-2.9688	-2.6125	-2.9646	-2.6521	-2.6958	199.055	40.126	138.130	48.911	167.929	167.830	98.951	104.882	372.017	285.907	89.267	283.191	283.431	252.046	231.600	314.388	8.6796e-05	0.00011913	1.7874e-05	252.01	6.1439e-07	8.3905e-07	383.72	51.731	8.2124e-07	1.123e-06	107	31.663	12.782	3.4069	7.8998e-07	14.806	2.1552e-05	1.0003e-05	2.4167e-06	242.89	1.1696e-07	9.6391e-08	369.58	50.405	1.0139e-07	9.816e-08	103.46	30.969	12.199	3.3086	1.1016e-07	14.356	182.324	102.772	77.845	26.157	194.288	147.612	26.145	30.684	147.363	174.412	29.671	35.492	35.780	39.656	187.869	40.032	-8191	255	
2636.707	1	1	0	0	0.29375	0.052557	0.1061	0.099168	0.17153	0.054961	0.14105	0.063275	0.17993	0.13107	0.17458	0.084	0.22625	0.10615	0.036075	0.14761	-2.4958	-2.6979	-2.7708	-2.9437	-2.5917	-2.9021	-2.6604	-2.7708	-2.8812	-2.8604	-2.9083	-2.9104	-2.6521	-2.8833	-2.7625	-2.7188	359.948	318.405	43.208	72.012	215.566	212.421	311.718	350.887	285.341	362.785	362.956	105.873	344.222	150.962	157.521	253.593	6.622e-05	9.0358e-05	4.3419e-05	254.47	1.0195e-06	6.2349e-07	383.43	52.381	6.015e-07	1.3107e-06	107.06	31.7	12.701	3.423	1.4086e-06	14.977	2.0398e-05	1.108e-05	2.6556e-06	243.74	1.3011e-07	9.084e-08	369.15	50.447	1.0652e-07	9.7485e-08	103.05	30.853	12.152	3.3161	9.0817e-08	14.44	184.606	79.812	93.301	25.730	173.024	194.693	26.308	30.488	208.514	175.366	30.407	35.633	34.725	40.117	217.331	39.804	-8191	255	
2636.779	1	1	0	0	0.12528	0.082275	0.17779	0.030792	0.1128	0.12625	0.28771	0.075338	0.22107	0.15467	0.19413	0.27031	0.20791	0.12866	0.11614	0.15556	-2.5062	-2.3521	-2.55	-2.7062	-2.4771	-2.8625	-2.8167	-2.4688	-2.9417	-2.575	-2.5896	-2.9583	-2.75	-2.7042	-2.8146	-2.6979	143.767	170.016	236.128	87.014	268.135	84.076	16.951	318.312	286.059	232.599	107.962	15.716	266.563	32.667	232.561	325.744	7.249e-05	0.00010701	4.6829e-05	250.06	1.317e-06	1.6388e-06	378.63	51.684	1.1819e-06	2.1991e-06	106.82	32.548	12.653	3.5208	9.8544e-07	15.452	2.1444e-05	9.2089e-06	2.357e-06	240.55	1.1795e-07	9.7064e-08	365.21	49.94	9.8575e-08	1.0853e-07	102.76	31.378	12.126	3.4102	9.874e-08	14.885	181.739	84.918	132.832	26.036	201.205	158.633	26.317	30.769	166.380	189.779	29.933	35.740	35.608	39.930	159.143	39.887	-8191	255	
2636.899	1	1	0	0	0.10443	0.13077	0.092939	0.2997	0.21496	0.101	0.116	0.19237	0.20271	0.21525	0.044115	0.40284	0.18016	0.22317	0.083402	0.15837	-2.3479	-2.725	-2.575	-3.0042	-2.6458	-2.8479	-2.8187	-2.5646	-2.7958	-2.6562	-2.6083	-2.7979	-2.6188	-2.7708	-2.8937	-2.5542	291.922	350.051	132.107	324.925	179.822	251.559	106.429	301.538	349.346	165.856	276.812	301.055	82.605	326.974	159.676	31.102	8.8226e-05	0.00016414	3.616e-05	249.94	1.0078e-06	1.6058e-06	380.35	51.813	7.7728e-07	1.7573e-06	108.43	32.02	12.593	3.542	8.6943e-07	15.214	2.3303e-05	9.1325e-06	2.5745e-06	240.78	1.2233e-07	9.269e-08	366.21	49.849	1.1513e-07	1.0482e-07	103.69	31.287	12.163	3.3935	9.9574e-08	14.789	184.707	118.279	125.975	25.615	170.257	168.295	26.163	30.265	214.343	188.849	30.267	35.845	36.023	40.158	147.241	40.500	-8191	255	
2636.995	1	1	0	0	0.057883	0.047031	0.28118	0.16685	0.20535	0.20701	0.15781	0.39482	0.1042	0.25781	0.21312	0.12932	0.2408	0.22306	0.13029	0.038522	-2.4875	-2.8896	-2.7708	-2.8312	-2.6875	-2.7938	-3.0354	-2.6688	-2.7812	-2.8479	-2.6437	-2.9625	-2.5521	-2.6688	-2.9479	-2.7188	219.116	49.891	165.494	206.483	264.684	293.777	318.815	356.130	43.121	142.954	355.800	237.714	369.978	314.352	117.315	330.506	7.7239e-05	0.00010193	3.0839e-05	252.66	1.0615e-06	1.1391e-06	383.15	52.053	1.2024e-06	1.3285e-06	107.77	32.436	12.511	3.4523	6.76e-07	15.333	2.2001e-05	8.2697e-06	2.5212e-06	242.79	1.1787e-07	9.1092e-08	369	50.342	1.2605e-07	9.1919e-08	103.86	31.255	12.107	3.3651	9.6905e-08	14.761	174.880	83.951	78.595	26.178	173.453	157.604	26.310	30.808	165.826	161.697	30.086	35.893	35.280	40.627	127.752	40.078	-8191	255	
2637.092	1	1	0	0	0.086562	0.16881	0.099592	0.1145	0.20953	0.066916	0.12944	0.084507	0.16227	0.090668	0.073403	0.13614	0.15055	0.059847	0.13594	0.18418	-2.4313	-2.8042	-2.5354	-2.975	-2.6125	-2.6063	-3.1042	-2.6229	-2.8396	-2.8354	-2.7417	-2.9375	-2.775	-2.7542	-2.8833	-2.5979	281.622	325.412	198.717	137.398	199.745	331.172	276.675	130.720	191.824	28.491	364.889	254.937	73.966	195.839	308.356	338.812	8.2462e-05	0.00013406	1.3739e-05	251.77	1.0372e-06	8.3811e-07	377.98	51.356	7.6504e-07	1.0754e-06	106.45	31.564	12.555	3.4614	1.2411e-06	14.962	2.2263e-05	1.0163e-05	2.7388e-06	242.19	1.3284e-07	9.6896e-08	365.17	49.907	1.0652e-07	8.8378e-08	102.36	30.687	12.084	3.3312	9.2235e-08	14.367	181.772	83.211	170.221	25.802	190.532	166.247	26.431	30.292	194.699	172.043	30.002	35.668	35.083	40.302	178.012	40.050	-8191	255	
2637.186	1	1	0	0	0.27258	0.080611	0.20765	0.11661	0.10717	0.22608	0.11653	0.074219	0.13586	0.1246	0.062112	0.20829	0.14481	0.18528	0.08719	0.14923	-2.4417	-2.8396	-2.5958	-2.9042	-2.8396	-2.5979	-2.8917	-2.5875	-3.0667	-2.975	-2.6979	-2.7979	-2.8979	-2.6292	-2.8667	-2.725	143.500	315.408	88.382	218.788	52.015	228.894	192.276	344.241	32.275	96.634	325.267	18.355	89.375	275.791	306.255	289.349	6.5466e-05	8.8916e-05	3.7584e-05	249.8	9.1395e-07	1.3834e-06	376.99	51.939	6.6188e-07	1.0303e-06	106.01	31.397	12.595	3.3214	1.1688e-06	14.368	2.2639e-05	7.6741e-06	2.7644e-06	240.14	1.2391e-07	1.0312e-07	363.55	49.968	1.0288e-07	8.0872e-08	102.15	30.4	12.063	3.2473	8.2644e-08	13.917	182.670	104.574	63.384	26.160	151.355	170.308	26.376	30.622	229.876	161.088	30.036	35.324	35.687	40.299	186.986	40.307	-8191	255	
2637.284	1	1	0	0	0.15064	0.088976	0.015304	0.19105	0.20516	0.17636	0.22985	0.13748	0.12652	0.068171	0.306	0.22417	0.10268	0.19388	0.12386	0.21608	-2.1625	-2.9521	-2.7292	-3.0375	-2.9062	-2.5458	-2.8771	-2.725	-2.7521	-2.7646	-2.6167	-2.7125	-2.7188	-2.5396	-3.0625	-2.7896	46.663	265.878	153.588	13.059	225.365	105.201	235.935	179.652	34.966	285.641	311.460	45.104	119.433	108.948	320.547	203.113	8.2299e-05	9.1411e-05	2.2023e-05	251.07	9.8633e-07	1.4269e-06	378.21	52.483	9.4768e-07	6.917e-07	106.41	30.954	12.402	3.3442	1.187e-06	13.876	2.2914e-05	6.9487e-06	2.4274e-06	242.2	1.0612e-07	9.8662e-08	366.44	50.776	1.1422e-07	8.0704e-08	102.66	29.944	12.065	3.1908	1.0116e-07	13.461	185.684	63.525	91.674	26.167	183.956	177.836	26.430	30.510	207.252	113.756	29.845	35.171	35.368	39.760	187.211	39.768	-8191	255	
2637.403	1	1	0	0	0.15626	0.23956	0.096618	0.22339	0.30351	0.17295	0.17968	0.15213	0.13192	0.12418	0.20306	0.17613	0.027077	0.15616	0.095041	0.25863	-2.3625	-2.7958	-2.6479	-2.8312	-2.8063	-2.5417	-2.7687	-2.8125	-2.7083	-2.925	-2.6188	-2.8396	-2.7042	-2.5229	-2.8646	-2.8063	115.522	366.018	28.055	223.312	37.803	27.120	26.689	228.833	333.655	333.898	16.817	357.820	305.365	307.527	368.907	369.541	7.4232e-05	0.00012997	2.9525e-05	253.14	1.5546e-06	7.5434e-07	385.35	52.658	9.1469e-07	1.7551e-06	107.35	31.129	12.889	3.2913	9.9028e-07	14.259	2.2632e-05	8.4758e-06	2.4274e-06	242.77	1.0728e-07	1.0312e-07	368.58	50.906	1.2696e-07	9.2004e-08	103.25	30.341	12.281	3.2045	1.0132e-07	13.724	182.770	148.740	91.647	26.348	179.119	206.654	26.465	30.588	166.951	136.512	30.078	35.879	35.877	39.417	205.865	40.077	-8191	255	
2637.476	1	1	0	0	0.044374	0.044604	0.064649	0.23758	0.2024	0.30115	0.14493	0.020766	0.30855	0.1534	0.1788	0.079905	0.31524	0.028463	0.060778	0.14139	-2.1542	-2.8104	-2.5708	-2.6646	-2.7562	-2.5271	-3.0042	-2.7354	-2.5896	-3.0229	-2.7771	-2.6917	-2.8646	-2.4375	-2.8917	-2.7292	79.204	257.876	331.908	26.649	325.454	76.495	108.518	151.030	221.035	312.397	346.582	156.613	312.099	29.318	204.974	64.581	7.8413e-05	7.0748e-05	3.8651e-05	252.24	1.2691e-06	1.2664e-06	377.56	52.479	4.3217e-07	1.082e-06	106.07	30.368	12.37	3.262	7.1907e-07	13.851	2.1377e-05	7.5901e-06	2.4401e-06	242.11	9.8099e-08	1.0068e-07	364.23	50.651	1.1339e-07	9.4281e-08	101.76	29.649	11.971	3.1653	9.6822e-08	13.46	184.469	52.364	101.600	25.841	176.786	147.928	26.155	31.315	191.760	181.063	29.968	35.194	36.010	39.239	150.424	39.881	-8191	255	
2637.595	1	1	0	0	0.22565	0.056732	0.10561	0.32732	0.19097	0.10653	0.23452	0.22315	0.35052	0.17627	0.16674	0.16205	0.21394	0.039508	0.19424	0.18582	-2.3125	-2.9167	-2.6979	-2.8438	-3.0438	-2.5896	-2.8833	-2.8354	-2.6	-2.8937	-2.8146	-2.7021	-2.9688	-2.5604	-2.8958	-2.7812	222.262	342.502	77.393	183.704	130.897	313.322	331.764	370.034	332.453	270.245	147.079	176.541	300.659	127.619	107.319	370.620	7.5145e-05	0.00012197	3.073e-05	253.04	1.279e-06	1.7274e-06	376.36	51.986	7.4656e-07	1.0685e-06	106.6	31.144	12.622	3.3557	8.5985e-07	14.165	2.072e-05	6.6432e-06	2.4785e-06	241.77	9.5949e-08	1.0245e-07	363.36	50.26	1.1579e-07	7.8511e-08	101.97	30.182	12.129	3.2048	9.6488e-08	13.703	179.636	109.614	112.781	26.428	196.176	165.332	26.541	30.347	190.194	217.146	29.581	35.584	35.771	39.572	168.098	39.814	-8191	255	
2637.691	1	1	0	0	0.013283	0.11039	0.33501	0.18726	0.19609	0.076177	0.21613	0.26994	0.183	0.053204	0.37543	0.11227	0.36999	0.25394	0.14921	0.15298	-2.2438	-2.7542	-2.6312	-2.6562	-2.875	-2.7646	-2.8729	-2.8979	-2.7833	-2.9729	-3.0521	-2.7438	-2.9875	-2.7438	-2.9167	-2.95	304.667	316.067	35.145	196.529	15.952	284.265	193.585	116.918	69.387	129.052	71.615	15.984	298.117	275.027	151.294	349.268	7.6118e-05	0.00010649	3.8799e-05	253.23	1.685e-06	1.4649e-06	379.37	52.514	8.0232e-07	1.4923e-06	106.73	30.792	12.586	3.2286	2.7238e-07	14.217	2.1096e-05	8.346e-06	2.2034e-06	242.3	9.6528e-08	8.5793e-08	366.11	50.629	1.2465e-07	7.6571e-08	102.74	30.081	12.06	3.1812	9.6655e-08	13.606	178.718	80.083	85.537	26.260	167.181	177.919	26.361	30.690	229.319	163.420	29.803	35.728	35.458	39.944	182.270	40.252	-8191	255	
2637.787	1	1	0	0	0.28563	0.24248	0.34973	0.11291	0.11682	0.18866	0.16771	0.25272	0.11758	0.055366	0.19502	0.20636	0.25108	0.10457	0.17014	0.13109	-2.1479	-2.8479	-2.7708	-2.4896	-3.0229	-2.6208	-2.7979	-2.9083	-2.55	-3.0229	-3.0083	-2.6208	-2.9146	-2.7188	-2.6167	-2.8458	14.521	184.763	120.750	87.804	110.092	312.691	80.904	22.845	206.205	162.684	215.976	321.091	325.483	148.957	130.235	344.378	7.7957e-05	0.00012001	3.7045e-05	254.18	6.3121e-07	1.0788e-06	382.94	52.851	4.6139e-07	1.6671e-06	107.38	31.32	12.47	3.3037	7.4377e-07	14.106	2.1585e-05	8.6896e-06	2.406e-06	244.09	9.9836e-08	8.9158e-08	368.86	50.961	1.0685e-07	8.6269e-08	103.01	30.29	12.059	3.1901	9.949e-08	13.603	182.449	132.111	92.827	26.032	217.679	171.737	26.088	31.093	172.408	133.950	29.741	35.177	35.085	40.238	145.473	40.358	-8191	255	
2637.883	1	1	0	0	0.042356	0.14991	0.25988	0.39484	0.16076	0.061649	0.2835	0.12676	0.14848	0.010714	0.25115	0.064348	0.27534	0.19606	0.23168	0.3209	-2.2875	-2.7479	-2.7271	-2.6833	-3.1375	-2.6979	-2.4938	-3.0687	-2.8021	-2.9021	-2.9104	-2.7896	-2.8312	-2.7562	-2.5729	-2.9729	73.943	65.254	57.151	31.962	90.750	199.947	105.349	205.891	298.617	232.242	262.314	346.904	224.964	185.893	53.872	313.616	7.1831e-05	0.00013581	5.4827e-05	252.99	6.282e-07	1.3746e-06	379.04	52.589	1.2133e-06	1.1436e-06	105.02	30.664	12.315	3.2272	6.0972e-07	14.017	2.0975e-05	8.43e-06	1.9794e-06	242.38	9.6859e-08	7.856e-08	363.77	50.367	1.0371e-07	8.2222e-08	101.11	29.719	11.976	3.1481	8.5313e-08	13.479	170.866	127.196	95.868	26.349	197.489	190.145	26.492	30.500	175.160	189.596	29.956	35.906	35.006	39.655	167.997	39.622	-8191	255	
2638.004	1	1	0	0	0.096334	0.17282	0.07123	0.23635	0.13817	0.17446	0.35641	0.23141	0.037281	0.28834	0.14874	0.10305	0.14536	0.11874	0.047431	0.028838	-2.1896	-2.7729	-2.6479	-2.7938	-2.8979	-2.7771	-2.6417	-2.75	-2.7542	-2.9188	-2.8688	-2.5458	-2.8896	-2.7708	-2.6521	-3.0146	177.251	193.997	85.758	201.566	212.575	170.939	320.741	302.371	163.978	360.961	95.085	225.220	178.521	174.026	209.709	98.849	7.4461e-05	6.7737e-05	2.5044e-05	250.43	1.4044e-06	7.5775e-07	377.43	51.786	5.6349e-07	8.8351e-07	106.83	30.468	12.463	3.2642	6.6004e-07	13.806	2.1733e-05	8.4835e-06	2.1351e-06	241.31	1.0976e-07	8.2765e-08	363.23	50.103	1.0429e-07	8.1969e-08	102.01	29.876	12.012	3.166	1.125e-07	13.413	181.008	36.917	115.190	26.195	195.267	126.810	26.606	30.009	149.019	141.072	29.823	35.473	34.405	39.558	207.436	40.104	-8191	255	
2638.076	1	1	0	0	0.20612	0.084969	0.15634	0.057727	0.076767	0.16711	0.18913	0.19252	0.15393	0.28286	0.17722	0.3489	0.44291	0.17745	0.192	0.14819	-2.1813	-2.7625	-2.8937	-2.5979	-2.8458	-2.6292	-2.7917	-3.0271	-2.7125	-2.9083	-2.8458	-2.6667	-2.7333	-2.8792	-2.7042	-2.9271	323.566	101.917	165.175	47.540	73.303	169.305	287.908	27.771	53.719	198.707	319.072	238.363	164.009	25.077	24.910	122.967	8.5514e-05	0.00011657	3.468e-05	253.57	9.8206e-07	8.1793e-07	383.13	52.903	6.7558e-07	1.0872e-06	106.58	30.846	12.418	3.2984	1.1861e-06	13.908	2.1391e-05	9.1478e-06	1.6701e-06	242.54	9.7851e-08	9.1765e-08	366.5	50.784	1.1447e-07	9.6052e-08	102.34	29.876	12.031	3.1543	1.0466e-07	13.406	177.707	98.330	109.707	26.249	183.214	140.665	26.302	30.268	193.772	149.475	30.069	35.363	36.026	40.136	183.265	39.615	-8191	255	
2638.196	1	1	0	0	0.33017	0.20906	0.11614	0.1131	0.2269	0.23934	0.2548	0.25498	0.11496	0.2789	0.10437	0.042102	0.096077	0.15903	0.13999	0.066242	-2.3542	-2.775	-2.8875	-2.5292	-2.9521	-3.0187	-2.7083	-3.0792	-2.6188	-2.7146	-3.0458	-2.525	-2.7104	-2.7562	-2.45	-2.8729	297.762	199.319	311.504	61.133	45.019	249.034	64.849	341.228	335.203	88.091	165.612	15.396	170.054	28.504	267.692	357.689	7.0185e-05	4.628e-05	3.6004e-05	253.68	9.1526e-07	1.2647e-06	380.85	52.744	7.6824e-07	6.494e-07	107.51	31.226	12.484	3.2326	9.7027e-07	14.149	2.0062e-05	9.3387e-06	2.1223e-06	243.76	1.0141e-07	8.4784e-08	367.66	50.893	1.0023e-07	8.7281e-08	102.94	30.154	12.019	3.1723	9.4737e-08	13.616	181.921	98.331	84.381	26.119	220.906	191.594	26.327	30.439	142.578	143.066	29.899	35.523	35.084	39.915	138.460	40.368	-8191	255	
2638.291	1	1	0	0	0.072034	0.19368	0.059243	0.025808	0.055423	0.058205	0.12282	0.065073	0.27073	0.163	0.24698	0.14627	0.32288	0.14541	0.16345	0.24901	-2.325	-2.7042	-2.8958	-2.725	-2.875	-2.9688	-2.6604	-2.9104	-2.775	-2.8208	-2.9479	-2.6167	-2.5875	-2.9292	-2.825	-2.8333	25.336	352.110	258.165	246.998	216.790	278.787	356.325	205.562	57.485	207.818	357.240	254.679	41.783	298.935	253.401	336.248	6.4567e-05	6.5074e-05	4.3761e-05	251.19	1.5757e-06	4.3692e-07	374.75	52.117	9.1394e-07	1.0478e-06	104.34	30.913	12.44	3.3069	5.5232e-07	14.254	2.0753e-05	1.0438e-05	2.1245e-06	241.73	1.1795e-07	6.7793e-08	360.47	50.119	1.2316e-07	9.4534e-08	100.64	29.935	11.918	3.1981	9.3402e-08	13.863	182.766	125.981	87.589	26.020	179.815	197.218	26.596	30.434	218.676	178.992	30.303	35.495	35.783	39.290	238.756	40.411	-8191	255	
2638.387	1	1	0	0	0.14524	0.31627	0.16804	0.29308	0.26262	0.12735	0.091552	0.033783	0.20555	0.16896	0.078883	0.094411	0.063199	0.27452	0.21078	0.10095	-2.1854	-2.575	-2.9479	-2.8104	-2.7021	-3.0542	-2.6271	-2.9146	-2.7938	-2.7188	-2.9771	-2.8125	-2.675	-2.9688	-2.7542	-2.8708	305.835	194.751	42.442	300.894	113.505	154.205	186.146	273.213	314.184	64.871	366.833	283.183	21.136	253.236	130.002	284.163	7.1593e-05	0.00015186	4.2279e-05	251.81	5.9729e-07	1.1031e-06	377.11	52.055	5.5044e-07	1.4806e-06	106.2	31.276	12.494	3.3917	3.6808e-07	14.501	2.1028e-05	1.0912e-05	2.2183e-06	241.28	1.0745e-07	8.0999e-08	362.85	50.042	9.7831e-08	9.369e-08	102.06	30.376	12.001	3.2458	9.7739e-08	13.999	175.746	99.423	99.428	26.331	202.425	166.401	26.225	30.482	226.358	188.223	30.250	35.564	34.902	39.936	218.688	40.500	-8191	255	
2638.483	1	1	0	0	0.10237	0.063817	0.20288	0.1237	0.1594	0.15038	0.067967	0.10363	0.1811	0.35598	0.11649	0.1119	0.12483	0.19318	0.17059	0.16434	-2.4979	-2.5646	-2.8854	-2.6792	-2.6396	-3.0938	-2.6104	-2.7042	-2.95	-2.5729	-2.9083	-2.8354	-2.5	-2.9437	-2.6417	-2.8104	68.598	180.327	320.106	170.752	360.825	259.047	206.032	146.401	46.385	45.259	276.993	254.875	182.561	115.188	73.179	23.606	7.5798e-05	0.00010153	3.932e-05	252.87	6.6978e-07	1.5196e-06	375.21	51.701	5.9525e-07	1.6407e-06	106.96	31.191	12.389	3.3397	7.2017e-07	14.436	2.1961e-05	8.9722e-06	2.5169e-06	241.39	1.1952e-07	7.5532e-08	362.9	50.115	1.0586e-07	1.0018e-07	102.16	30.367	11.945	3.229	1.0199e-07	14.01	171.012	74.326	91.651	25.855	183.814	162.391	26.680	30.382	211.369	197.058	29.975	35.947	34.830	41.087	209.264	40.250	-8191	255	
2638.604	1	1	0	0	0.15003	0.095585	0.094145	0.13112	0.042703	0.20294	0.17142	0.15855	0.21903	0.19651	0.12934	0.27162	0.10123	0.054174	0.20259	0.16579	-2.5	-2.6104	-2.7625	-2.9083	-2.6271	-3.0458	-2.7771	-2.8979	-3.0563	-2.6771	-2.8958	-2.7583	-2.5042	-2.8271	-2.7687	-2.6604	182.217	91.511	260.154	155.766	359.686	156.904	87.280	332.622	302.906	152.238	36.813	49.028	348.870	342.034	181.486	337.872	8.4225e-05	0.00011323	5.3528e-05	249.5	1.0513e-06	8.0032e-07	377.92	51.304	8.1436e-07	1.8287e-06	105.78	31.57	12.269	3.4605	7.0977e-07	14.897	2.2404e-05	9.5678e-06	1.9048e-06	240.44	1.1051e-07	8.2092e-08	364.41	49.859	1.042e-07	1.06e-07	101.93	30.626	11.921	3.3233	7.5222e-08	14.312	178.975	108.841	94.866	26.448	168.899	151.692	26.134	30.818	192.407	174.645	29.917	35.481	35.816	40.234	178.323	39.968	-8191	255	
2638.700	1	1	0	0	0.17948	0.26097	0.24988	0.21452	0.13877	0.054842	0.01579	0.15792	0.11913	0.35937	0.095456	0.11977	0.040669	0.16516	0.30166	0.18539	-2.5062	-2.5354	-2.7021	-2.7396	-2.5542	-3.0646	-2.8187	-2.7125	-3.0396	-2.6979	-2.8375	-2.7833	-2.5104	-2.7667	-2.75	-2.6854	328.341	338.763	224.130	278.810	329.257	124.485	91.094	29.529	312.726	112.933	20.001	115.607	327.308	161.918	70.922	203.323	7.389e-05	8.424e-05	3.508e-05	242.18	9.9046e-07	1.4905e-06	361.16	50.292	1.1136e-06	1.3908e-06	103.11	31.077	12.21	3.4573	1.6159e-06	14.672	1.9599e-05	9.8503e-06	2.3079e-06	232.28	1.0596e-07	8.2765e-08	349.12	48.478	1.1124e-07	8.5848e-08	98.819	30.104	11.749	3.3111	8.5647e-08	14.193	180.396	150.358	130.381	26.080	226.650	159.344	26.638	30.766	172.545	179.991	30.616	35.788	35.308	40.159	178.439	40.200	-8191	255	
2638.772	1	1	0	0	0.17947	0.078519	0.11987	0.31833	0.080927	0.15584	0.13836	0.078452	0.13206	0.16912	0.047536	0.24821	0.17786	0.1286	0.15629	0.36848	-2.5458	-2.5187	-2.8042	-2.9646	-2.6396	-3.1833	-2.8771	-2.6729	-3.0563	-2.7604	-2.9271	-3.0062	-2.5604	-2.9083	-2.725	-2.6125	327.291	62.476	193.536	366.335	348.195	62.902	355.310	186.262	130.713	247.559	145.584	333.123	130.590	150.714	153.878	372.374	8.6914e-05	0.00022058	3.9986e-05	246.04	1.179e-06	1.611e-06	367.38	51.155	5.2541e-07	1.0659e-06	103.69	31.311	12.253	3.2881	4.4078e-07	14.493	2.0881e-05	9.7663e-06	2.293e-06	236.04	1.1721e-07	8.0662e-08	356.06	49.172	8.4008e-08	9.2931e-08	100.15	30.22	11.839	3.2443	8.7315e-08	14.003	175.390	110.040	96.725	25.830	145.770	162.921	26.015	30.653	205.636	177.521	29.660	35.599	35.632	40.984	185.366	40.326	-8191	255	
2638.868	1	1	0	0	0.033165	0.20849	0.14002	0.079003	0.1463	0.25188	0.33267	0.16783	0.048516	0.21644	0.33285	0.19619	0.035773	0.10107	0.10318	0.15221	-2.4854	-2.4896	-2.6813	-2.8729	-2.4958	-2.8271	-2.8396	-2.5229	-2.925	-2.7687	-2.7042	-3	-2.5521	-2.7313	-2.8125	-2.525	360.990	198.609	284.144	261.636	195.202	304.193	367.700	221.106	16.832	334.325	259.898	280.080	329.331	152.762	246.280	272.868	7.8236e-05	0.00016607	5.754e-05	248.16	1.1831e-06	1.6471e-06	371.83	50.974	5.3955e-07	1.1751e-06	104.64	30.672	12.384	3.2734	1.6071e-06	14.056	2.0472e-05	8.5827e-06	2.4508e-06	238.26	1.1977e-07	7.9148e-08	359	49.603	9.932e-08	8.5257e-08	100.76	29.843	11.829	3.1736	9.4487e-08	13.576	178.555	96.710	86.459	26.201	180.125	172.496	26.843	30.962	185.505	147.640	30.096	35.606	34.946	40.073	182.874	39.975	-8191	255	
2638.964	1	1	0	0	0.2227	0.14229	0.17328	0.1304	0.11678	0.076816	0.13131	0.18395	0.16162	0.13987	0.069251	0.13326	0.059095	0.2191	0.11588	0.14102	-2.5146	-2.7375	-2.85	-2.825	-2.6042	-2.9813	-3.0292	-2.5958	-2.9771	-2.9167	-2.4354	-2.7125	-2.8104	-2.7646	-2.7604	-2.4604	235.637	156.152	370.233	352.623	80.306	198.867	372.910	319.242	241.161	144.828	165.310	35.316	338.199	358.316	36.170	112.533	7.0763e-05	0.00012926	2.1318e-05	250.85	6.5996e-07	9.7007e-07	374.98	51.802	4.8101e-07	1.2682e-06	105.4	30.467	12.028	3.2113	7.7288e-07	13.567	2.0196e-05	8.7584e-06	2.7302e-06	240.61	1.0951e-07	9.1513e-08	362.67	50.007	9.5265e-08	9.3943e-08	101.01	29.573	11.766	3.1002	8.7231e-08	13.139	178.137	85.756	57.664	26.118	191.559	172.338	26.389	31.277	179.193	188.358	29.902	35.934	35.363	40.353	123.836	39.797	-8191	255	
2639.083	1	1	0	0	0.20654	0.13234	0.13358	0.14906	0.12013	0.047728	0.12181	0.16416	0.2447	0.25333	0.19328	0.15423	0.27081	0.18256	0.069245	0.15153	-2.5	-2.6125	-2.6229	-2.8812	-2.5083	-2.7354	-3.0021	-2.4688	-2.8667	-2.8646	-2.6146	-2.7979	-2.5104	-2.6937	-2.9437	-2.4667	129.336	31.518	349.289	364.793	241.062	143.293	160.086	66.717	33.102	123.971	317.078	99.789	182.528	141.991	89.974	173.582	6.7964e-05	1.1939e-05	5.2404e-05	247.45	8.5245e-07	7.1617e-07	369.43	51.047	1.3313e-06	4.9229e-07	103.59	30.035	12.323	3.1823	6.7276e-07	13.604	1.9364e-05	8.2009e-06	2.6662e-06	237.69	1.0951e-07	8.2765e-08	355.67	49.479	9.1789e-08	8.2896e-08	99.623	29.329	11.761	3.091	9.3319e-08	13.209	177.172	142.041	88.088	26.174	162.070	106.365	26.357	30.472	193.691	203.104	29.939	35.600	35.381	39.878	198.133	40.120	-8191	255	
2639.179	1	1	0	0	0.21081	0.025278	0.15334	0.17215	0.26545	0.062737	0.27993	0.17675	0.33167	0.11499	0.092734	0.25942	0.2472	0.044541	0.20508	0.15799	-2.3958	-2.9188	-2.7708	-2.8812	-2.7875	-2.7062	-3.0604	-2.7708	-2.7438	-2.8896	-2.9625	-2.9083	-2.7958	-2.6896	-3.1146	-2.5583	33.980	212.846	240.065	371.715	93.555	222.240	45.447	51.018	365.726	62.147	295.324	262.712	87.861	262.218	254.305	238.292	7.3879e-05	0.00011792	3.3978e-05	250.75	7.5801e-07	1.1941e-06	375.35	51.279	9.4079e-07	7.9702e-07	105.3	30.549	12.363	3.2633	6.7371e-07	13.739	2.1585e-05	7.7428e-06	2.5212e-06	239.14	1.1332e-07	9.841e-08	360.32	49.76	1.1223e-07	7.3704e-08	100.45	29.607	11.853	3.1323	9.0067e-08	13.366	177.815	68.521	79.956	26.230	170.881	139.934	26.417	30.123	208.547	166.308	30.134	36.244	35.471	39.307	161.789	40.658	-8191	255	
2639.277	1	1	0	0	0.03726	0.25446	0.1159	0.1507	0.20743	0.17618	0.23452	0.28526	0.041333	0.25457	0.26825	0.12559	0.2203	0.19048	0.083618	0.27644	-2.3375	-2.7729	-2.7687	-2.8229	-2.8667	-2.6708	-2.9813	-2.5146	-2.8021	-3.1458	-2.6792	-2.7479	-2.5979	-2.4917	-3.1583	-2.7729	340.309	165.737	313.528	58.689	185.556	102.663	207.850	259.693	33.331	71.030	368.183	164.981	170.911	198.624	290.565	249.479	7.3921e-05	0.00012601	2.4422e-05	247.02	1.2945e-06	6.8833e-07	377.99	51.65	3.8117e-07	3.3346e-08	105.21	30.901	12.377	3.2984	1.9244e-06	14.076	2.1639e-05	7.2235e-06	2.7132e-06	238.99	9.9506e-08	9.8494e-08	361.36	49.797	1.0288e-07	7.2355e-08	101.25	29.985	11.951	3.1706	8.4312e-08	13.578	189.952	95.180	56.059	26.037	192.550	162.332	26.429	30.445	198.002	313.313	29.899	36.011	34.734	40.721	160.126	40.454	-8191	255	
2639.371	1	1	0	0	0.14854	0.28329	0.16055	0.09215	0.046248	0.071256	0.25321	0.18199	0.26772	0.095863	0.22496	0.10553	0.17956	0.029725	0.14414	0.19129	-2.4833	-2.8875	-2.6208	-2.8625	-2.6917	-2.5938	-3.0896	-2.5083	-2.6917	-2.9062	-2.6875	-2.9479	-2.8688	-2.6875	-3	-2.9083	181.512	124.813	352.008	173.045	206.169	326.563	332.015	342.563	252.870	105.823	125.598	259.519	134.861	232.926	206.212	233.191	6.1499e-05	0.00010897	4.8819e-05	251.5	1e-06	7.8432e-07	376.45	51.725	7.7018e-07	1.5443e-06	103.9	30.465	12.227	3.2644	1.0915e-06	13.576	1.9277e-05	8.6667e-06	2.1714e-06	241.18	1.1431e-07	8.512e-08	363.42	49.972	1.1182e-07	7.5728e-08	100.69	29.535	11.767	3.1094	9.0567e-08	13.063	174.528	138.615	75.508	26.545	144.969	189.621	26.208	30.894	175.258	182.164	30.243	35.797	34.604	40.271	173.832	40.332	-8191	255	
2639.467	1	1	0	0	0.070525	0.21408	0.17921	0.21981	0.15653	0.18775	0.18106	0.13799	0.061054	0.12175	0.012322	0.10654	0.039957	0.3331	0.28413	0.1262	-2.3583	-3.0708	-2.6083	-2.8979	-2.8104	-2.6854	-2.9667	-2.7333	-2.6542	-3.0583	-2.8021	-2.7792	-2.7896	-2.7729	-2.7146	-2.6708	187.648	197.263	84.649	342.138	209.345	327.458	62.140	125.180	252.632	369.123	276.185	262.977	203.686	358.114	216.253	173.332	7.0061e-05	0.00010068	3.2158e-05	246.82	1.3445e-06	1.0254e-06	364.58	51.041	9.4869e-07	9.9445e-07	103.14	29.802	12.295	3.1785	8.6254e-07	13.315	2.0196e-05	6.6127e-06	2.2077e-06	236.68	1.0199e-07	7.8139e-08	352.2	49.357	9.5596e-08	8.4161e-08	98.788	28.932	11.794	3.0643	8.7565e-08	12.931	182.958	118.193	81.428	26.401	179.077	207.220	26.369	30.345	167.926	170.264	30.018	35.752	34.932	39.120	179.394	40.187	-8191	255	
2639.563	1	1	0	0	0.15161	0.06573	0.2338	0.4031	0.16602	0.2672	0.14679	0.06633	0.30779	0.16337	0.060093	0.26958	0.1568	0.048674	0.088175	0.12795	-2.4729	-2.9354	-2.725	-2.7833	-2.9417	-2.6854	-2.8083	-2.6396	-2.6	-3.1521	-2.7167	-2.8625	-2.8063	-2.3917	-2.7646	-2.7958	275.474	24.426	116.293	307.390	186.388	320.559	263.172	112.649	323.156	84.847	246.484	20.578	29.747	232.169	295.935	352.146	6.7005e-05	0.00018909	5.4439e-05	249.09	6.0637e-07	1.1584e-06	371.39	51.558	1.1829e-06	2.1206e-06	104.54	30.178	12.26	3.1467	7.4424e-07	13.65	1.864e-05	7.3534e-06	2.4082e-06	238.52	1.0348e-07	7.8896e-08	358.4	49.778	1.1058e-07	7.8258e-08	100.24	29.395	11.862	3.0676	7.614e-08	13.152	179.236	73.408	98.376	25.882	217.773	183.849	26.436	30.618	187.029	175.245	29.967	35.788	35.827	40.041	219.730	40.328	-8191	255	
2639.684	1	1	0	0	0.15131	0.20189	0.08736	0.089208	0.13205	0.12537	0.22909	0.18568	0.081844	0.097684	0.080819	0.087298	0.13527	0.19978	0.17738	0.16291	-2.1979	-2.9188	-2.6167	-2.7771	-2.9646	-2.6625	-3.0208	-2.9229	-2.5729	-2.9771	-2.6979	-2.6729	-3.0271	-2.5896	-2.8563	-2.8125	355.426	124.154	116.968	43.210	57.724	223.037	259.816	62.618	80.904	74.103	158.971	256.488	134.523	294.460	106.255	63.341	7.2046e-05	0.00016899	4.5665e-05	251.94	1.3482e-06	1.6706e-06	376.98	52.058	1.0056e-06	1.9807e-06	105.92	30.345	12.394	3.1907	9.5592e-07	13.797	1.9841e-05	8.01e-06	2.5276e-06	240.85	1.024e-07	1.0253e-07	363.36	50.24	1.0313e-07	8.9474e-08	101.3	29.657	11.837	3.0985	8.2811e-08	13.225	183.236	70.393	69.294	26.389	191.407	189.021	26.533	30.208	173.934	175.377	30.309	35.531	35.703	41.041	154.267	40.584	-8191	255	
2639.780	1	1	0	0	0.41335	0.1209	0.12577	0.16189	0.31211	0.22063	0.060273	0.061846	0.046758	0.44497	0.20301	0.05341	0.32654	0.10128	0.13299	0.17688	-2.1375	-3.0792	-2.6542	-2.7333	-3.0229	-2.7104	-2.8917	-2.7771	-2.7104	-2.9437	-2.675	-2.6896	-2.975	-2.7021	-2.7771	-2.9	127.423	337.541	306.575	110.059	57.730	227.122	354.092	278.085	200.021	297.351	320.241	299.285	325.678	248.820	179.240	137.413	7.8189e-05	0.00010473	6.2017e-05	251.99	1.7337e-06	4.3211e-07	378.35	51.959	1.2321e-06	4.3459e-07	103.87	30.051	12.155	3.1705	6.0459e-07	13.545	2.2511e-05	6.773e-06	2.711e-06	241.94	9.3716e-08	8.6802e-08	364.69	50.145	1.1124e-07	7.2608e-08	100.32	29.337	11.775	3.0892	8.4062e-08	13.067	184.657	101.597	111.341	25.884	171.794	137.437	26.197	30.394	186.094	215.917	30.202	35.514	35.489	39.923	225.369	39.754	-8191	255	
2639.876	1	1	0	0	0.17324	0.24602	0.060882	0.078723	0.09411	0.23404	0.026682	0.056676	0.18707	0.19512	0.16857	0.054361	0.18734	0.050976	0.049467	0.17233	-2.1354	-2.7604	-2.8292	-2.4688	-2.7854	-2.5396	-2.7958	-2.9083	-2.6583	-2.9417	-2.7833	-2.6104	-2.8375	-2.4938	-2.7417	-2.8792	159.341	253.992	338.485	178.668	341.107	188.554	95.455	24.438	45.032	63.647	252.298	305.566	285.704	74.240	351.795	301.369	7.2396e-05	0.00011631	1.9791e-05	247.3	1.0794e-06	1.1952e-06	370.52	51.407	6.5794e-07	1.1859e-06	104.65	30.221	12.208	3.2647	1.6867e-06	13.809	2.0841e-05	8.1933e-06	2.0349e-06	237.86	1.139e-07	1.0051e-07	356.38	49.509	1.0412e-07	8.4751e-08	100.53	29.526	11.837	3.1317	9.7739e-08	13.329	173.335	103.648	80.388	26.328	190.682	148.784	26.729	30.571	176.986	160.259	29.999	36.129	34.288	39.655	190.827	39.736	-8191	255	
2639.973	1	1	0	0	0.14545	0.10296	0.19536	0.11162	0.17335	0.21151	0.14522	0.21406	0.1345	0.23465	0.17384	0.31135	0.097244	0.22419	0.16376	0.14907	-2.375	-2.7687	-2.7188	-2.6792	-2.9146	-2.7542	-2.7396	-2.9417	-2.5875	-2.8979	-2.7375	-2.4958	-2.9458	-2.5479	-2.7104	-2.8	75.572	23.392	151.943	324.398	100.743	240.060	26.318	116.740	186.248	243.845	235.951	228.262	272.820	154.758	209.241	338.033	8.6199e-05	5.926e-05	4.5427e-05	248.62	1.1893e-06	1.9482e-06	374.39	51.121	5.2351e-07	1.0736e-06	104.51	31.124	12.541	3.3211	2.6673e-07	14.266	2.2646e-05	7.3992e-06	1.8514e-06	238.76	1.1539e-07	8.0831e-08	359.75	49.544	1.114e-07	6.8391e-08	100.79	30.143	11.959	3.2251	9.8239e-08	13.768	176.043	92.300	103.915	26.211	162.291	142.248	26.147	30.869	148.559	190.158	30.061	35.536	35.255	40.650	188.231	40.515	-8191	255	
2640.069	1	1	0	0	0.22977	0.087995	0.091947	0.14194	0.20792	0.10621	0.10587	0.25987	0.22507	0.1883	0.11426	0.11324	0.19332	0.17186	0.090419	0.31158	-2.3458	-2.775	-2.7583	-2.4271	-2.7646	-2.8771	-2.7104	-2.9313	-2.5833	-2.8167	-2.8646	-2.5938	-2.9062	-2.8542	-2.4771	-2.8229	193.352	212.356	235.523	275.807	15.490	244.630	83.904	293.428	341.600	204.189	19.559	140.322	146.766	223.951	335.691	38.554	8.5185e-05	0.00011011	3.1971e-05	249.1	8.0299e-07	7.8068e-07	379.47	52.182	1.8381e-07	1.0718e-06	105.55	31.001	12.18	3.2981	8.3906e-07	14.376	2.1901e-05	7.0327e-06	2.101e-06	239.23	9.9754e-08	7.9485e-08	362.39	50.032	1.2754e-07	8.9558e-08	101.77	30.33	11.873	3.2027	1.0391e-07	13.864	175.415	96.802	115.472	26.285	239.036	166.340	26.794	29.989	143.028	202.791	30.127	35.871	35.550	39.914	171.108	40.056	-8191	255	
2640.165	1	1	0	0	0.22536	0.071605	0.070234	0.19033	0.19622	0.0035795	0.085066	0.15406	0.18154	0.2192	0.21724	0.23426	0.26827	0.07955	0.11748	0.03794	-2.1604	-2.5667	-2.7417	-2.6542	-2.9479	-2.7708	-2.6146	-3.0104	-2.6562	-2.825	-2.9417	-2.6083	-2.6021	-2.6833	-2.5062	-3.1354	248.122	344.143	100.128	366.419	220.898	151.298	197.574	87.777	58.418	32.130	108.879	161.509	171.967	35.233	271.638	120.125	7.769e-05	0.00012811	1.7914e-05	251	7.3867e-07	7.6176e-07	374.41	51.799	1.2812e-06	2.2528e-06	103.54	30.574	12.47	3.2383	1.2247e-06	13.918	2.1216e-05	7.5061e-06	2.197e-06	240.55	9.0572e-08	6.6027e-08	360.35	49.632	9.7251e-08	9.8244e-08	100.08	29.582	11.85	3.1471	9.6822e-08	13.448	176.492	93.911	120.430	26.233	160.380	189.294	26.413	30.417	224.113	137.654	30.478	35.352	34.271	39.318	188.020	40.256	-8191	255	
2640.259	1	1	0	0	0.14392	0.2024	0.12655	0.042027	0.17628	0.11804	0.16008	0.097121	0.11431	0.085279	0.073929	0.12183	0.10796	0.1526	0.24273	0.19579	-2.2229	-2.4562	-2.8812	-2.6063	-2.9542	-2.7812	-2.6521	-2.8312	-2.7229	-2.7583	-3	-2.5812	-2.575	-2.8958	-2.4333	-2.8458	248.888	15.983	274.918	47.436	190.005	104.167	131.249	40.749	236.365	150.915	152.952	229.378	144.152	149.561	14.733	267.662	7.6257e-05	6.9347e-05	2.0201e-05	244.51	1.4105e-06	1.4682e-06	363.85	51.04	2.0945e-07	1.4261e-06	103.27	30.507	12.176	3.3009	7.3951e-07	14.047	2.0223e-05	9.0714e-06	2.1543e-06	234.49	1.1092e-07	6.8971e-08	349.78	49.049	9.7168e-08	9.622e-08	99.226	29.62	11.758	3.1709	1.0166e-07	13.527	180.122	110.510	57.904	26.231	182.991	152.958	26.705	30.642	312.694	174.427	30.376	35.896	34.972	39.985	122.530	40.378	-8191	255	
2640.380	1	1	0	0	0.17022	0.20341	0.12839	0.09799	0.1527	0.040442	0.28628	0.18191	0.030568	0.045192	0.37151	0.13387	0.20396	0.12732	0.054431	0.14243	-2.2729	-2.6042	-2.975	-2.5542	-2.7292	-2.8438	-2.6854	-2.9271	-2.825	-2.4667	-3.0521	-2.6625	-2.5417	-2.8187	-2.4875	-2.95	101.428	135.327	58.719	28.023	224.583	187.244	288.261	68.121	281.205	92.879	20.953	326.729	352.849	128.788	119.888	113.636	7.3524e-05	0.00012834	3.7022e-05	247.77	9.5428e-07	1.2285e-06	370.81	51.092	9.1583e-07	9.5605e-07	105.8	30.784	12.356	3.2718	1.0296e-06	14.164	2.0532e-05	8.8118e-06	2.1245e-06	238.12	9.6859e-08	9.2858e-08	357.19	49.627	1.0818e-07	9.757e-08	100.87	29.874	11.867	3.1804	1.0124e-07	13.663	187.177	97.461	121.434	26.219	192.650	144.883	26.202	30.638	196.704	206.375	29.816	35.443	35.366	39.521	199.883	39.618	-8191	255	
2640.476	1	1	0	0	0.23911	0.24496	0.26569	0.2198	0.35433	0.12188	0.054533	0.13144	0.12788	0.14659	0.3313	0.47939	0.12648	0.1348	0.10546	0.1821	-2.3604	-2.8	-2.8667	-2.8	-2.7313	-2.9562	-2.7188	-2.875	-2.9417	-2.6292	-2.9021	-2.7646	-2.6104	-2.7333	-2.6937	-2.8958	342.951	194.654	273.288	248.586	312.941	257.550	81.540	292.843	51.831	318.710	43.656	74.078	66.307	190.854	366.081	95.916	8.0345e-05	9.0407e-05	5.2723e-05	247.8	9.3818e-07	1.1379e-06	378.81	51.446	9.106e-07	7.1631e-07	106.97	31.208	12.568	3.2745	1.0002e-06	14.429	2.1646e-05	9.6136e-06	2.0093e-06	239.46	1.1067e-07	8.7475e-08	362.19	49.919	9.3858e-08	9.4449e-08	102.21	30.389	11.959	3.198	1.1233e-07	13.95	181.815	98.334	117.617	26.059	210.588	189.582	26.318	30.694	154.386	180.623	29.498	35.930	35.125	40.763	142.329	40.009	-8191	255	
2640.572	1	1	0	0	0.17602	0.2845	0.059484	0.27633	0.091994	0.17617	0.058352	0.22452	0.12692	0.1864	0.23716	0.053647	0.20962	0.074451	0.16018	0.1986	-2.3104	-2.6375	-2.9125	-2.7646	-2.6146	-3.125	-2.725	-2.9896	-3.0083	-2.7438	-2.8083	-2.7833	-2.625	-2.9167	-2.7229	-2.85	76.980	97.028	267.269	291.759	187.213	367.266	317.607	305.337	160.892	249.109	334.943	331.009	336.582	65.665	358.691	37.352	7.9372e-05	9.4504e-05	4.4461e-05	250.84	1.0866e-06	7.9002e-07	372.6	51.159	6.655e-07	6.1113e-07	103.67	30.148	12.376	3.2656	8.668e-07	13.894	2.178e-05	9.7968e-06	2.2098e-06	240.57	1.1878e-07	6.7709e-08	358.87	49.515	9.0795e-08	1.0229e-07	99.59	29.471	11.769	3.1567	1.0516e-07	13.464	178.224	77.494	128.531	26.108	178.269	188.063	26.730	30.803	198.840	130.633	29.984	35.736	35.295	40.108	166.632	40.196	-8191	255	
2640.644	1	1	0	0	0.19784	0.14236	0.20257	0.043526	0.1672	0.067952	0.13423	0.19803	0.3898	0.033293	0.2596	0.19502	0.26748	0.13096	0.2179	0.27036	-2.3438	-2.5979	-2.9958	-2.8917	-2.7104	-2.9437	-2.6771	-2.6792	-2.9979	-2.6042	-2.9583	-2.7229	-2.7583	-2.9146	-2.5667	-2.8875	259.000	17.690	62.842	226.990	99.593	350.128	246.527	275.828	296.770	160.870	32.313	260.611	189.430	66.946	98.212	312.669	7.3792e-05	6.1618e-05	3.9149e-05	246.75	1.771e-06	7.9489e-07	367.1	51	8.6063e-07	8.1857e-07	104.27	30.635	12.215	3.2572	4.2431e-07	14.058	2.0398e-05	8.5064e-06	2.1287e-06	236.24	1.2722e-07	7.4859e-08	354.78	49.344	9.394e-08	1.0271e-07	100.26	29.718	11.779	3.1529	8.9983e-08	13.531	175.036	83.989	89.671	26.372	164.078	179.863	26.627	30.388	186.159	156.549	30.292	36.091	35.919	39.991	203.252	40.434	-8191	255	
2640.764	1	1	0	0	0.18725	0.19816	0.25063	0.20341	0.21619	0.14292	0.11346	0.11088	0.15087	0.20316	0.19073	0.047996	0.24056	0.16024	0.3022	0.10036	-2.4875	-2.4854	-2.8563	-2.8812	-2.4875	-2.8312	-2.8063	-2.7875	-3.0583	-2.5687	-2.8917	-2.8646	-2.6208	-2.7812	-2.8167	-2.7042	230.773	111.200	190.243	32.076	119.576	230.749	350.198	353.787	263.404	34.824	350.385	30.764	193.794	47.830	123.403	152.208	7.6838e-05	0.00011409	6.5817e-05	247.86	2.9013e-07	1.5125e-06	375.01	51.291	5.6372e-07	9.5654e-07	104.43	30.875	12.546	3.279	4.6691e-07	14.019	2.1022e-05	1.0072e-05	2.1586e-06	238.18	1.2788e-07	8.3774e-08	360.08	49.719	9.99e-08	8.686e-08	100.84	29.897	11.933	3.1269	9.7155e-08	13.55	185.700	93.865	103.112	26.543	211.052	164.936	26.446	30.512	190.394	164.951	30.668	35.659	36.084	40.232	197.929	40.164	-8191	255	
2640.861	1	1	0	0	0.28746	0.29764	0.10416	0.10773	0.15431	0.27891	0.056367	0.20653	0.19022	0.19516	0.1849	0.18362	0.10106	0.38287	0.1032	0.20744	-2.4	-2.5042	-2.9562	-2.8729	-2.55	-2.8937	-2.6521	-2.6813	-2.8312	-2.8479	-2.6104	-2.8625	-2.6875	-2.8833	-2.8937	-2.6188	187.655	188.813	138.478	229.438	50.970	257.594	301.173	33.526	371.229	99.728	61.492	346.297	317.378	42.803	17.886	263.638	8.0513e-05	0.00013905	3.5552e-05	252.01	1.0953e-06	5.3153e-07	378.9	52.558	8.4738e-07	1.1555e-06	105.77	30.425	12.594	3.1517	2.8735e-07	14.145	2.0935e-05	9.667e-06	2.6321e-06	240.28	1.3391e-07	8.4111e-08	363.59	50.347	9.9569e-08	9.0655e-08	101.7	29.807	11.982	3.1262	9.04e-08	13.528	182.569	87.555	133.369	25.701	190.933	173.991	26.893	30.568	184.514	171.554	30.264	35.897	35.358	39.509	147.222	40.101	-8191	255	
2640.957	1	1	0	0	0.22653	0.2007	0.11291	0.092691	0.11092	0.040769	0.064389	0.20674	0.12985	0.2643	0.076177	0.061744	0.14739	0.18855	0.067827	0.10396	-2.4042	-2.7646	-2.7604	-2.9479	-2.6896	-2.9104	-2.8771	-2.4729	-2.8708	-2.6312	-2.7417	-2.9104	-2.5	-2.7375	-2.7062	-2.6292	130.579	113.022	111.965	284.715	124.031	209.999	276.590	258.585	236.778	201.379	157.797	319.577	370.205	102.490	149.386	347.048	7.8087e-05	7.9794e-05	4.313e-05	249.59	1.3304e-06	1.061e-06	367.35	51.378	9.2585e-07	1.7632e-06	102.87	29.805	12.239	3.1728	1.5444e-07	13.38	2.0425e-05	8.4911e-06	2.7622e-06	240.5	1.3135e-07	8.2092e-08	355.54	49.605	1.0942e-07	7.2271e-08	98.499	28.943	11.718	3.0622	9.5321e-08	12.899	178.225	100.334	101.443	25.989	150.601	210.485	27.003	31.201	187.614	205.205	29.924	35.525	35.225	39.439	24.885	40.938	-8191	255	
2641.077	1	1	0	0	0.21868	0.21107	0.079852	0.019917	0.2449	0.21389	0.10935	0.0402	0.16033	0.15592	0.068582	0.16263	0.31089	0.20553	0.21925	0.086524	-2.4062	-2.5312	-2.6188	-2.9562	-2.5563	-2.8979	-2.8625	-2.4313	-3.0438	-2.8458	-2.6021	-2.925	-2.5396	-2.8812	-2.9792	-2.7167	34.347	144.862	115.004	144.753	166.394	67.264	289.356	37.646	252.296	90.503	163.051	328.122	49.686	286.126	259.078	369.540	7.3715e-05	0.00031603	4.1725e-05	246.1	3.7563e-07	2.3495e-06	364.38	51.427	1.4755e-06	1.2497e-06	102.51	29.786	12.271	3.1226	9.015e-07	13.337	1.9807e-05	9.7281e-06	2.8753e-06	236.81	1.2192e-07	9.37e-08	351.07	49.441	1.0023e-07	8.8884e-08	98.94	28.923	11.813	3.0557	9.7906e-08	12.936	182.735	97.693	111.515	26.131	201.818	144.694	26.367	31.125	191.832	188.620	30.258	35.207	35.215	39.772	115.388	39.949	-8191	255	
2641.172	1	1	0	0	0.28684	0.18876	0.22118	0.2119	0.14403	0.22593	0.14282	0.098554	0.13418	0.25292	0.089949	0.22689	0.23669	0.093813	0.27828	0.23867	-2.3583	-3.0083	-2.6104	-3.0542	-2.7375	-3.0667	-2.95	-2.6063	-2.9062	-2.8896	-2.6396	-3.0104	-2.6542	-2.8208	-2.7896	-2.6479	334.667	87.391	255.371	286.654	57.083	169.165	230.038	161.190	294.156	152.179	220.847	358.818	212.979	46.782	35.259	259.185	6.8105e-05	5.5898e-05	2.757e-05	249.15	1.6254e-06	1.1296e-06	367.72	51.639	9.5041e-07	1.3307e-06	103.89	29.959	12.172	3.1739	1.234e-06	13.481	2.0633e-05	7.1701e-06	2.8881e-06	238.06	1.1464e-07	9.6055e-08	355.44	49.783	9.6175e-08	8.9137e-08	100.02	29.24	11.762	3.0674	8.498e-08	13.036	182.287	181.174	104.001	26.202	190.422	144.866	26.244	30.486	189.006	193.061	30.337	35.718	35.227	40.166	143.264	39.794	-8191	255	
2641.245	1	1	0	0	0.10735	0.20847	0.21857	0.19439	0.12769	0.3319	0.21572	0.27471	0.2252	0.37367	0.349	0.17164	0.18642	0.17428	0.15341	0.22928	-2.2479	-2.7479	-2.5292	-2.9625	-2.7479	-2.7958	-3.0042	-2.4646	-2.875	-2.9042	-2.7708	-2.9667	-2.7229	-2.575	-2.8063	-2.7521	302.580	49.285	28.414	368.083	261.220	192.659	308.311	18.552	346.033	347.856	44.015	302.016	207.927	351.854	56.957	48.355	7.1881e-05	0.00015478	3.6803e-05	250.26	5.3281e-07	6.6174e-07	373.52	52.317	7.3098e-07	7.9235e-07	104.53	30.553	12.361	3.196	1.3689e-06	13.466	2.0351e-05	8.4835e-06	2.5212e-06	240.14	1.1597e-07	1.0396e-07	359.48	50.191	1.1182e-07	7.362e-08	100.72	29.542	11.844	3.0683	8.6397e-08	13.005	171.019	116.412	120.438	26.109	166.306	181.245	26.332	30.503	198.760	207.765	30.121	35.715	34.754	40.509	179.197	40.188	-8191	255	
2641.364	1	1	0	0	0.048955	0.23114	0.1973	0.19718	0.24723	0.20704	0.0351	0.062367	0.24654	0.045403	0.098092	0.26264	0.13415	0.20876	0.058732	0.26169	-2.3125	-2.6625	-2.4313	-2.8042	-2.7104	-2.7625	-3.0438	-2.4375	-2.8583	-2.8208	-2.6625	-2.9813	-2.6271	-2.4333	-3.0021	-2.5896	61.291	72.660	82.759	213.149	210.433	296.042	247.846	205.128	331.021	118.466	256.971	232.902	94.911	235.368	272.124	64.411	8.1195e-05	0.00012176	2.111e-05	247.41	1.4784e-06	1.2438e-06	362.55	51.067	6.7338e-07	8.6451e-07	101.23	28.983	12.017	3.074	1.1891e-06	12.804	2.1149e-05	7.0708e-06	2.6961e-06	237.54	1.1067e-07	8.9326e-08	349.13	49.202	1.0288e-07	7.7246e-08	96.947	28.237	11.624	2.983	8.8732e-08	12.421	178.726	98.009	68.801	26.291	190.538	142.525	26.286	30.506	220.992	160.326	29.961	35.802	34.596	40.777	146.337	40.050	-8191	255	
2641.460	1	1	0	0	0.13375	0.14402	0.18878	0.072749	0.090829	0.17709	0.11025	0.084019	0.15754	0.25438	0.19638	0.19519	0.14551	0.06763	0.18034	0.20385	-2.3104	-2.9813	-2.5104	-2.9333	-2.6896	-2.6083	-2.9667	-2.65	-2.7604	-2.9146	-2.7354	-2.8729	-2.7208	-2.7208	-2.8979	-2.5771	262.031	56.463	292.229	342.242	350.118	171.444	57.283	354.840	232.155	109.584	313.009	80.249	345.613	35.220	322.546	356.963	7.6818e-05	0.00011234	3.0451e-05	242.59	7.7799e-07	8.0129e-07	359.99	50.874	8.1684e-07	1.1063e-06	101.16	28.93	12.141	3.0394	8.6158e-07	12.91	1.9901e-05	8.2086e-06	2.2674e-06	234.16	1.2093e-07	8.655e-08	346.2	49.048	1.1844e-07	7.8174e-08	97.152	28.206	11.616	2.982	7.0886e-08	12.5	173.919	91.688	116.152	26.025	184.917	160.371	26.359	30.303	161.729	227.252	30.335	36.123	35.750	38.621	159.645	39.591	-8191	255	
2641.556	1	1	0	0	0.27884	0.060829	0.19452	0.1146	0.15504	0.12024	0.049985	0.152	0.060871	0.048675	0.37062	0.039045	0.19165	0.13977	0.10622	0.11264	-2.2479	-2.8979	-2.4188	-2.8021	-2.8208	-2.5833	-2.8146	-2.6833	-2.7646	-3.0292	-2.575	-2.7792	-2.7771	-2.4021	-2.7604	-2.5104	203.566	47.941	23.117	331.759	188.353	281.975	120.568	93.010	324.585	123.408	371.264	135.484	132.674	74.796	233.873	356.167	7.3463e-05	0.00012516	1.9775e-05	246.32	1.1308e-06	4.3407e-07	364.29	51.475	1.0086e-06	6.5515e-07	101.53	29.207	12.35	3.1107	1.1958e-06	13.062	2.0069e-05	8.3308e-06	2.9051e-06	235.72	9.5866e-08	9.2943e-08	350.18	49.454	1.2713e-07	9.4534e-08	98.039	28.485	11.745	2.9968	9.7656e-08	12.573	182.405	120.567	75.032	26.289	177.247	202.130	26.692	31.070	175.178	152.291	29.734	35.470	34.574	39.579	183.224	40.117	-8191	255	
2641.677	1	1	0	0	0.14672	0.062576	0.13072	0.33221	0.13843	0.052619	0.29753	0.17201	0.098487	0.1211	0.20035	0.08428	0.1173	0.080739	0.026524	0.24914	-2.1542	-2.9229	-2.4583	-2.7875	-2.7438	-2.5979	-2.8917	-2.7875	-2.8	-2.8229	-2.6104	-2.7604	-2.7833	-2.6854	-2.8729	-2.8375	215.962	147.434	99.465	351.345	279.427	18.166	294.453	44.273	65.270	186.622	262.644	349.220	196.792	197.114	315.060	186.730	7.0792e-05	5.9689e-05	2.0845e-05	246.89	1.1299e-06	1.5644e-06	367.76	51.329	8.6881e-07	7.6599e-07	102.8	29.361	12.396	3.0771	5.7999e-07	13.081	2.0834e-05	8.3995e-06	2.9307e-06	237.56	1.0505e-07	1.0581e-07	353.49	49.691	1.2564e-07	8.3655e-08	99.07	28.815	11.835	3.012	8.9399e-08	12.615	171.561	140.255	38.127	25.791	208.577	179.040	26.435	30.636	192.934	202.864	30.544	35.409	35.366	39.590	125.924	40.474	-8191	255	
2641.773	1	1	0	0	0.17804	0.16886	0.26947	0.28707	0.15257	0.11792	0.28361	0.18554	0.02016	0.36177	0.30361	0.091456	0.048275	0.14375	0.19376	0.012064	-2.2833	-2.9625	-2.4792	-2.7354	-2.9688	-2.5104	-2.975	-2.8667	-2.6063	-2.9188	-2.6937	-2.5958	-2.775	-2.6729	-2.9688	-2.7687	141.669	90.574	198.898	42.465	369.853	272.558	15.382	303.711	365.150	140.926	20.838	279.315	114.151	309.479	150.408	216.525	6.9084e-05	8.4833e-05	3.9225e-05	244.83	7.7692e-07	1.2225e-06	357.55	50.835	5.8084e-07	1.3384e-06	99.241	28.387	11.907	3.0754	4.4757e-07	12.723	2.07e-05	8.0024e-06	2.4721e-06	235.42	1.0935e-07	1.0211e-07	344.2	49.07	1.1223e-07	8.4751e-08	95.569	27.742	11.529	2.9508	1.0241e-07	12.264	185.472	86.987	136.700	26.315	156.035	152.299	26.328	30.551	175.534	172.931	29.703	36.142	35.500	39.859	122.769	39.991	-8191	255	
2641.869	1	1	0	0	0.26726	0.18615	0.080303	0.16705	0.21213	0.17578	0.094056	0.081475	0.092177	0.11733	0.42213	0.2624	0.10295	0.079456	0.15551	0.13491	-2.1375	-2.9167	-2.7438	-2.6562	-2.9208	-2.6979	-2.8625	-2.9417	-2.4771	-2.9562	-2.5812	-2.7083	-3.1042	-2.525	-2.7208	-2.9729	223.287	15.935	18.875	202.028	341.775	290.618	84.850	191.383	363.015	85.789	305.868	307.777	39.434	246.368	251.539	279.073	7.1953e-05	0.00013151	3.9385e-05	243.04	9.6138e-07	1.1882e-06	358.32	50.727	1.025e-06	6.7212e-07	100.46	29.131	11.932	3.1255	9.204e-07	12.74	2.1109e-05	8.3384e-06	2.4508e-06	232.71	9.7769e-08	1.1162e-07	344.16	48.996	1.1769e-07	8.4667e-08	96.672	28.083	11.566	2.9739	1.0541e-07	12.392	171.437	111.246	101.456	26.171	214.045	169.770	26.310	30.719	172.983	179.875	30.377	35.331	34.998	40.391	129.514	40.215	-8191	255	
2641.941	1	1	0	0	0.095243	0.076458	0.20827	0.13041	0.17068	0.072725	0.065743	0.13936	0.31435	0.017731	0.25163	0.091762	0.13856	0.13569	0.12386	0.11171	-2.0479	-2.8458	-2.7417	-2.7604	-3.0271	-2.7	-2.8854	-2.8146	-2.5958	-3.0479	-2.6188	-2.6312	-2.9354	-2.5438	-2.6958	-2.9729	220.985	276.138	77.328	369.162	119.571	310.792	175.727	76.028	106.696	61.799	326.934	131.978	338.148	188.403	100.155	269.904	6.5384e-05	2.8307e-06	3.5278e-05	244.55	9.1993e-07	9.6539e-07	362.04	51.334	1.1234e-06	1.4227e-06	102.11	29.335	12.296	3.0759	9.6725e-07	12.863	2.1713e-05	7.0937e-06	2.1778e-06	234.69	1.0042e-07	7.8139e-08	347.8	49.392	9.4189e-08	7.6993e-08	97.677	28.341	11.611	2.9603	8.2978e-08	12.37	178.848	224.133	132.032	26.174	170.065	196.372	26.571	30.537	180.372	201.977	29.982	35.506	34.961	39.849	170.357	40.472	-8191	255	
2642.062	1	1	0	0	0.033823	0.20507	0.20745	0.10224	0.065531	0.1551	0.15071	0.060152	0.15372	0.27654	0.26069	0.046626	0.087397	0.074244	0.08698	0.090633	-2.2229	-2.8104	-2.6813	-2.5917	-3.0375	-2.8146	-2.8063	-2.8042	-2.6833	-2.8542	-2.6979	-2.5458	-2.9562	-2.7687	-2.5667	-2.9146	358.353	370.164	343.270	121.201	322.029	29.776	25.674	286.311	219.887	210.521	340.615	207.488	235.746	318.006	346.052	135.227	7.1246e-05	0.00015334	2.9452e-05	246.26	9.1656e-07	3.9727e-07	365.25	51.28	1.0992e-06	2.1484e-06	102.9	29.3	12.375	3.0563	9.2275e-07	12.753	1.9378e-05	7.8573e-06	1.508e-06	236.64	9.049e-08	6.7877e-08	351.58	49.706	9.063e-08	6.4597e-08	98.806	28.491	11.839	2.9686	7.247e-08	12.244	184.503	71.218	82.649	26.520	188.566	75.579	26.540	31.182	204.148	144.355	30.001	35.623	34.933	40.424	153.176	40.131	-8191	255	
2642.156	1	1	0	0	0.12619	0.21619	0.096322	0.0097492	0.16025	0.1117	0.056053	0.059371	0.2552	0.11882	0.11733	0.19075	0.12509	0.14807	0.14421	0.26854	-2.1833	-2.8083	-2.8771	-2.5458	-2.9604	-2.8187	-2.5438	-2.8333	-2.6646	-2.9333	-2.8	-2.6042	-2.7708	-2.6521	-2.6667	-2.775	79.375	147.009	24.515	305.525	14.812	49.571	218.837	338.243	42.430	136.987	214.442	249.534	147.175	359.587	205.344	321.570	6.1923e-05	0.00010903	2.7046e-05	245.69	6.7422e-07	5.1633e-07	356.23	50.369	7.4717e-07	1.2644e-06	100.24	28.749	11.859	2.9893	7.9205e-07	12.423	1.8821e-05	6.2003e-06	1.4248e-06	235.28	7.9489e-08	6.3083e-08	344.3	48.913	9.3858e-08	6.603e-08	96.183	27.715	11.473	2.9054	7.6807e-08	12.028	176.001	140.170	79.631	26.124	172.980	129.518	26.639	30.831	221.071	165.449	29.826	35.597	34.992	39.170	180.386	40.407	-8191	255	
2642.252	1	1	0	0	0.14853	0.17371	0.073117	0.29603	0.37409	0.31872	0.19175	0.051075	0.15146	0.20206	0.053971	0.25913	0.32028	0.14223	0.058879	0.12402	-2.2417	-2.7125	-2.7833	-2.5812	-3.0583	-2.7833	-2.5812	-2.9583	-2.7104	-2.675	-3.0521	-2.6646	-2.7771	-2.8708	-2.6146	-2.8917	47.719	162.088	43.956	309.088	360.728	335.719	290.782	101.004	135.409	107.318	179.538	346.162	269.590	237.029	180.752	64.018	6.2898e-05	0.00010753	6.8366e-06	245.55	8.7213e-07	1.307e-06	360.23	50.519	9.6738e-07	1.0845e-06	102.27	28.935	12.311	3.0877	1.2365e-06	12.931	1.7432e-05	6.9792e-06	1.3481e-06	234.78	8.5031e-08	4.87e-08	347.54	49.232	9.3361e-08	6.8644e-08	97.761	28.239	11.705	2.9542	7.3304e-08	12.4	180.474	117.245	107.881	26.144	193.021	186.042	26.335	30.396	148.546	138.997	30.007	35.456	35.103	40.108	180.856	39.977	-8191	255	
2642.348	1	1	0	0	0.13514	0.1203	0.20414	0.056284	0.081876	0.16143	0.18043	0.13276	0.14097	0.33138	0.23141	0.21309	0.12991	0.044077	0.11792	0.20414	-2.1271	-2.7771	-2.7729	-2.6229	-2.8438	-2.6958	-2.7167	-2.7271	-2.6104	-2.7604	-2.8292	-2.7062	-2.7292	-2.8479	-2.5479	-2.8937	268.424	171.674	151.287	119.285	251.140	154.541	80.248	147.981	113.625	370.167	21.246	280.301	179.460	265.548	318.170	14.301	5.7395e-05	0.00019139	1.84e-05	248.22	1.5169e-06	1.2309e-06	369.08	51.568	7.9594e-07	1.0866e-06	101.69	29.538	12.16	3.0699	6.7596e-07	13.033	1.7083e-05	6.6279e-06	1.2862e-06	237.26	8.8835e-08	5.1139e-08	355.09	49.815	9.5016e-08	6.8982e-08	99.115	28.768	11.805	2.9855	9.6655e-08	12.547	182.719	122.583	130.398	26.006	160.417	160.260	26.300	30.620	144.982	158.125	30.073	35.033	35.062	40.343	166.065	39.775	-8191	255	
2642.469	1	1	0	0	0.099038	0.27955	0.19296	0.21106	0.29013	0.11438	0.11977	0.25762	0.029069	0.11769	0.36428	0.17173	0.10594	0.29676	0.09068	0.03128	-2.1896	-2.7771	-2.7458	-2.6188	-2.8417	-2.7625	-2.5812	-2.925	-2.7188	-2.7646	-2.8875	-2.5646	-2.675	-2.8146	-2.5896	-2.9604	276.978	257.812	235.116	309.512	336.499	241.994	162.695	343.508	174.483	301.476	18.097	106.980	362.142	319.884	224.194	214.643	6.6302e-05	0.00014442	1.7584e-05	251.11	1.3094e-06	8.9613e-07	372.37	51.497	5.3051e-07	1.1756e-06	104.76	29.816	12.105	3.1097	1.2134e-06	12.777	1.7955e-05	8.1093e-06	1.6509e-06	239.69	9.7107e-08	4.4915e-08	358.79	50.08	8.6491e-08	6.3922e-08	100.52	28.857	11.71	2.982	8.7231e-08	12.372	178.419	113.542	80.686	26.145	213.370	196.571	26.376	30.520	188.173	169.885	29.793	36.047	35.002	40.541	187.749	39.807	-8191	255	
2642.541	1	1	0	0	0.21695	0.17476	0.091034	0.11036	0.16632	0.17993	0.18586	0.1813	0.22579	0.26139	0.2102	0.11508	0.12246	0.26874	0.15552	0.11909	-2.3771	-2.5146	-2.9458	-2.75	-2.7375	-2.8583	-2.475	-2.8417	-2.6958	-2.6479	-2.9146	-2.7687	-2.6667	-2.8854	-2.6292	-2.8063	364.144	311.160	158.264	277.717	229.930	277.140	187.106	212.084	120.514	189.185	138.013	230.969	313.069	329.690	178.648	292.557	6.7309e-05	7.5938e-05	4.5329e-05	248.3	1.033e-06	9.6246e-07	366.28	51.707	9.0267e-07	1.136e-06	102.72	28.856	12.093	3.0652	7.1769e-07	12.723	1.7929e-05	7.2312e-06	1.3673e-06	237.31	8.1557e-08	4.2728e-08	351.17	49.593	7.9705e-08	7.3536e-08	97.983	28.14	11.643	2.9296	8.4813e-08	12.25	166.475	126.261	123.819	26.108	181.683	236.468	26.357	30.773	170.225	188.801	29.927	35.436	35.288	39.555	195.292	40.047	-8191	255	
2642.637	1	1	0	0	0.15267	0.25284	0.15967	0.072426	0.10141	0.16476	0.063916	0.061739	0.135	0.0565	0.031659	0.023428	0.13551	0.12117	0.34232	0.08881	-2.1896	-2.5375	-2.7604	-2.6083	-2.6542	-3.1	-2.6021	-2.7625	-2.8792	-2.675	-2.7583	-2.6167	-2.4875	-2.8167	-2.5625	-2.7125	103.575	318.101	159.522	245.554	212.012	372.080	353.272	311.855	66.983	247.955	264.789	283.541	362.547	346.733	198.468	21.236	6.4353e-05	0.00014764	2.5267e-05	248.88	1.3506e-06	1.6399e-06	370.42	51.242	7.9137e-07	1.2422e-06	104.02	29.561	12.187	3.0446	1.6048e-06	12.859	1.7466e-05	7.4984e-06	1.5144e-06	238.61	9.5783e-08	5.8457e-08	355.17	49.766	7.2338e-08	6.3332e-08	99.77	28.627	11.737	2.9411	8.6147e-08	12.44	184.977	66.865	94.919	25.838	173.801	149.152	26.296	30.595	185.508	162.484	30.283	35.895	35.919	39.395	174.559	39.764	-8191	255	
2642.757	1	1	0	0	0.10116	0.22939	0.26469	0.22572	0.069798	0.066511	0.25538	0.12491	0.1618	0.1478	0.2047	0.06815	0.15885	0.19019	0.3907	0.16584	-2.4938	-2.5333	-2.6708	-2.5583	-2.575	-2.9083	-2.7167	-2.8083	-2.9167	-2.7833	-2.8958	-2.8063	-2.6667	-2.8563	-2.6646	-2.625	121.913	21.550	86.304	255.630	173.264	135.187	102.475	232.799	134.634	226.702	364.463	47.290	273.137	217.014	353.085	346.169	6.8752e-05	0.00011138	2.1724e-05	250.85	1.258e-06	1.3871e-06	375.99	52.252	9.0542e-07	1.2986e-06	104.94	30.184	12.371	3.083	7.9806e-07	12.916	1.8432e-05	7.2388e-06	1.5144e-06	241.15	1.0083e-07	5.7364e-08	362.85	50.481	8.0615e-08	7.0078e-08	100.92	29.178	11.806	2.9698	7.3221e-08	12.531	180.757	122.782	104.703	26.145	172.197	191.648	26.001	30.482	186.188	157.423	30.477	35.476	35.630	39.190	189.244	40.492	-8191	255	
2642.854	1	1	0	0	0.13756	0.096372	0.033032	0.21236	0.14335	0.2196	0.24299	0.3668	0.29403	0.14088	0.09432	0.049708	0.034758	0.31687	0.13082	0.21535	-2.3521	-2.5375	-2.9229	-2.7	-2.5812	-2.9979	-2.5958	-2.6979	-2.7438	-2.7396	-2.6042	-2.7938	-2.4667	-2.8708	-2.6271	-2.7583	192.378	135.159	208.450	334.113	32.855	321.042	219.715	293.818	83.692	63.553	85.643	288.724	37.680	360.053	368.294	22.125	6.2996e-05	0.00015459	4.6991e-05	255.13	1.3595e-06	6.0585e-07	379.71	52.61	7.8208e-07	1.0277e-06	105.61	29.845	12.354	3.0431	4.8176e-07	12.787	1.7412e-05	7.445e-06	1.54e-06	243.29	1.0133e-07	6.0476e-08	365.23	50.812	6.431e-08	8.686e-08	101.52	29.049	11.845	2.9402	7.272e-08	12.322	184.923	105.507	70.307	25.995	229.116	150.407	26.321	30.541	171.547	160.848	29.706	35.650	34.817	39.174	215.708	40.019	-8191	255	
2642.950	1	1	0	0	0.045102	0.065953	0.016326	0.11164	0.22906	0.05035	0.068087	0.26045	0.082423	0.21984	0.074599	0.19649	0.10691	0.17849	0.21204	0.20174	-2.4104	-2.6083	-2.7083	-2.8563	-2.5708	-2.8375	-2.7708	-2.5125	-3.0396	-2.6104	-2.7396	-2.8104	-2.6437	-2.8458	-2.6833	-2.6042	105.076	228.276	325.348	76.406	83.448	322.987	357.429	45.497	341.846	310.945	256.696	170.204	173.409	176.338	237.987	311.874	6.0017e-05	0.00012423	4.393e-05	248.41	1.8981e-06	1.0454e-06	368.06	51.604	6.1112e-07	9.0393e-07	102.94	29.013	12.073	2.9993	9.6463e-07	12.534	1.6305e-05	6.4371e-06	1.7085e-06	239.06	1.1911e-07	6.4849e-08	355	49.982	7.9787e-08	5.8778e-08	98.71	28.198	11.692	2.9004	7.9142e-08	12.065	179.056	61.917	111.805	26.197	183.439	214.210	26.166	30.502	205.751	203.459	29.761	35.546	35.520	39.164	157.846	39.987	-8191	255	
2643.046	1	1	0	0	0.045534	0.086547	0.13844	0.071458	0.098457	0.14339	0.072999	0.10934	0.15731	0.13312	0.09179	0.17117	0.080415	0.15785	0.25394	0.030768	-2.3187	-2.5396	-2.7396	-2.9708	-2.6188	-2.8354	-2.7896	-2.4667	-2.8917	-2.6229	-2.8792	-2.8521	-2.5563	-2.975	-3.0875	-2.4375	287.748	77.604	66.977	47.585	13.386	354.061	268.301	221.044	284.497	34.694	368.421	306.239	21.338	124.308	66.615	332.113	6.6612e-05	0.00012365	1.4116e-05	249.21	1.1165e-06	1.1814e-06	375.15	52.295	9.0424e-07	2.0431e-06	103.48	29.105	12.405	2.9783	6.7501e-07	12.456	1.5875e-05	6.7883e-06	1.7064e-06	240.18	8.958e-08	4.7018e-08	358.46	50.326	7.4821e-08	6.9909e-08	99.575	28.324	11.896	2.8678	7.3304e-08	12.002	181.564	64.290	36.867	25.782	186.618	155.108	26.156	29.977	201.251	188.762	29.698	35.930	34.748	39.888	151.682	39.701	-8191	255	
2643.142	1	1	0	0	0.16478	0.19224	0.12919	0.091893	0.096842	0.081814	0.32694	0.23466	0.18041	0.22327	0.024761	0.090339	0.0085634	0.35553	0.14352	0.14467	-2.5708	-2.9083	-2.4771	-2.7375	-2.5271	-2.7625	-2.8146	-2.5542	-2.8958	-2.6437	-2.7021	-2.8792	-2.4938	-2.6708	-2.9354	-2.6167	316.157	216.296	227.120	359.550	293.925	258.963	37.852	332.286	240.458	238.886	65.103	126.790	340.488	291.320	219.056	68.676	7.9179e-05	0.00011198	3.7546e-05	252.36	1.5706e-06	9.9027e-07	373.33	51.812	8.2006e-07	4.4431e-07	104.42	29.394	12.292	2.9454	3.3953e-07	12.385	1.8083e-05	5.4978e-06	1.7853e-06	241.6	1.1233e-07	5.8625e-08	359.32	50.607	8.4588e-08	7.4548e-08	100.15	28.493	11.844	2.8566	6.4464e-08	11.902	179.956	89.848	98.322	26.164	182.542	204.587	26.356	30.074	200.606	196.067	30.066	35.570	34.272	39.685	151.168	39.506	-8191	255	
2643.236	1	1	0	0	0.17812	0.13457	0.024802	0.17918	0.16733	0.22232	0.25303	0.26989	0.09929	0.064981	0.12205	0.14003	0.37824	0.20681	0.055246	0.093434	-2.3792	-2.6771	-2.5125	-2.8667	-2.6	-2.8854	-2.8312	-2.5938	-2.9354	-2.6208	-2.7271	-2.8125	-2.7396	-2.7854	-2.9458	-2.6479	183.402	24.701	199.288	223.522	126.274	331.416	278.790	273.132	85.615	314.497	274.237	145.741	246.173	299.793	239.606	173.125	6.1154e-05	0.00011786	4.2283e-05	250.83	1.2001e-06	1.5331e-06	375.38	52.349	1.1937e-06	1.5444e-06	103.42	28.908	12.171	2.9347	1.2662e-06	11.948	1.6828e-05	6.5898e-06	1.764e-06	241.5	8.3542e-08	6.3335e-08	360.3	50.674	8.3346e-08	7.1765e-08	99.431	28.08	11.733	2.8253	7.3054e-08	11.489	174.846	111.937	94.415	26.195	204.306	173.157	26.547	30.802	144.338	180.847	29.742	34.943	35.722	39.953	183.820	39.789	-8191	255	
2643.357	1	1	0	0	0.21861	0.083684	0.16749	0.16799	0.17939	0.17956	0.12026	0.16606	0.12361	0.051189	0.014913	0.16641	0.13129	0.20739	0.078985	0.14494	-2.3937	-2.6958	-2.575	-2.9	-2.5458	-2.6188	-2.8896	-2.6188	-2.9417	-2.7167	-2.6375	-2.8563	-2.6458	-2.6792	-2.8771	-2.6021	332.848	53.189	301.995	90.232	211.002	284.173	358.185	172.383	88.103	324.179	310.945	247.135	327.665	43.734	47.323	299.807	6.567e-05	0.00010062	4.4996e-05	247.81	1.7717e-06	1.8422e-06	363.39	51.467	9.7542e-07	8.1356e-07	101.16	28.517	12.265	2.8781	1.0615e-06	11.897	1.8103e-05	6.5516e-06	2.0967e-06	238.86	8.5692e-08	8.2345e-08	349.45	50.006	8.4919e-08	5.6079e-08	97.38	27.568	11.666	2.819	6.0628e-08	11.526	181.641	126.614	90.063	26.527	166.520	140.319	26.583	30.735	213.864	147.399	29.634	34.938	35.229	39.468	165.920	40.198	-8191	255	
2643.453	1	1	0	0	0.071905	0.24026	0.38722	0.24259	0.22846	0.15629	0.10373	0.12336	0.014948	0.17302	0.17747	0.20826	0.34112	0.11039	0.13502	0.3261	-2.5292	-2.7458	-2.5062	-3.0479	-2.5896	-2.5625	-2.9042	-2.5667	-2.7812	-2.9146	-2.6021	-2.7208	-2.5812	-2.5229	-2.8667	-2.5687	347.478	356.050	183.474	307.291	282.233	189.730	340.559	364.095	128.489	92.734	95.260	28.226	331.345	189.557	45.037	227.885	6.5768e-05	6.5609e-05	2.9566e-05	249.24	5.7177e-07	7.4482e-07	366.88	52.126	1.3559e-06	1.158e-06	103.05	29.082	12.103	2.909	1.2312e-06	12.062	1.7707e-05	6.521e-06	1.3651e-06	239.52	8.561e-08	7.284e-08	353.02	50.519	8.8478e-08	5.4055e-08	98.83	28.068	11.788	2.8426	7.8558e-08	11.689	177.327	81.270	127.264	26.573	178.514	107.340	26.293	30.806	154.079	126.166	29.699	35.215	34.047	39.576	181.542	39.875	-8191	255	
2643.549	1	1	0	0	0.30444	0.11229	0.28609	0.16758	0.19738	0.26849	0.24565	0.17532	0.23853	0.28865	0.21955	0.11574	0.19603	0.04306	0.057477	0.19896	-2.2667	-2.9	-2.4729	-2.8438	-2.6771	-2.7313	-2.8125	-2.5646	-2.6188	-2.9271	-2.6833	-2.8292	-2.725	-2.5	-2.9083	-2.7292	268.704	32.006	75.377	72.418	14.966	353.775	159.476	80.144	284.534	199.204	310.911	99.982	187.957	163.213	147.867	195.510	6.035e-05	0.00016723	2.0208e-05	251.65	6.3239e-07	1.4935e-06	372.91	52.899	4.2251e-07	1.4166e-06	103.73	29.344	12.401	2.9485	7.4135e-07	12.122	1.7929e-05	5.788e-06	1.9666e-06	241.25	9.0242e-08	7.3008e-08	358.29	50.827	9.4023e-08	5.6164e-08	99.581	28.323	11.889	2.873	5.9377e-08	11.777	173.780	71.352	93.851	26.290	183.769	151.786	26.450	30.473	247.362	165.137	29.704	35.816	34.515	39.492	167.177	40.146	-8191	255	
2643.645	1	1	0	0	0.20453	0.044731	0.1535	0.092138	0.1368	0.24079	0.11521	0.11828	0.058265	0.088899	0.032406	0.19258	0.15566	0.089293	0.024206	0.037198	-2.15	-2.8083	-2.5167	-2.8042	-2.7042	-2.5792	-2.7979	-2.3896	-2.6937	-2.9792	-2.7396	-2.7396	-2.7	-2.5	-2.8604	-2.8917	70.046	363.779	86.499	353.156	207.896	44.165	221.958	181.545	271.282	100.788	35.032	258.041	294.459	120.481	297.221	149.800	6.8243e-05	0.00015089	3.9397e-05	252.79	4.6165e-07	1.4946e-06	375.53	52.848	7.4579e-07	8.258e-07	103.99	28.94	12.411	2.9219	7.7418e-07	12.012	1.8606e-05	6.7043e-06	2.4124e-06	242.59	9.2723e-08	7.8307e-08	361.39	51.089	1.0487e-07	5.3634e-08	99.43	28.121	11.886	2.8176	6.9134e-08	11.526	183.295	129.421	95.775	26.179	171.838	136.165	26.278	29.938	213.773	201.013	29.589	35.317	35.568	39.575	121.991	40.097	-8191	255	
2643.766	1	1	0	0	0.098551	0.17982	0.16652	0.10501	0.28881	0.19001	0.17003	0.12162	0.14105	0.21813	0.070664	0.28396	0.16957	0.61495	0.18985	0.14713	-1.9937	-2.9417	-2.4458	-2.7938	-2.7104	-2.5187	-2.8271	-2.5958	-2.6312	-2.8271	-2.6479	-2.7208	-2.8583	-2.5187	-3.0104	-2.6083	180.417	270.966	49.792	167.616	273.416	19.339	182.597	25.717	237.957	266.394	168.589	142.594	108.856	44.760	218.567	53.392	7.1294e-05	7.1014e-05	3.0207e-05	251.21	1.392e-06	8.169e-07	367.18	52.307	4.7776e-07	1.0611e-06	101.97	28.841	12.408	2.9087	1.1636e-06	12.037	1.8855e-05	5.2077e-06	1.9965e-06	240.37	8.6189e-08	7.8391e-08	352.48	50.461	8.6491e-08	5.3887e-08	98.174	27.828	11.857	2.8483	6.5048e-08	11.642	182.547	79.607	86.902	26.007	195.091	142.493	26.449	30.286	191.098	231.429	30.132	35.373	34.984	39.947	216.808	40.169	-8191	255	
2643.838	1	1	0	0	0.12387	0.23307	0.090621	0.14032	0.095469	0.020428	0.048451	0.22096	0.1056	0.10345	0.12966	0.12036	0.15942	0.10394	0.18828	0.15323	-2.1917	-2.7646	-2.6146	-2.6354	-2.8271	-2.7729	-2.9292	-2.5604	-2.6042	-2.8688	-2.6104	-2.7146	-2.7271	-2.3917	-2.8312	-2.8583	187.340	297.611	308.107	44.101	202.922	82.743	35.303	344.870	211.113	57.163	352.055	302.995	335.804	230.334	285.279	132.294	5.4166e-05	0.00010667	2.9472e-05	251.73	1.0751e-06	2.0303e-06	367.68	52.814	2.8507e-07	8.6655e-07	104.35	29.002	12.376	2.9453	6.4996e-07	12.087	1.7211e-05	6.4294e-06	1.8024e-06	241.16	7.4774e-08	7.4186e-08	356.73	50.845	7.6311e-08	5.8356e-08	99.822	28.253	11.889	2.8464	7.0219e-08	11.754	174.511	102.198	130.409	26.466	203.528	165.622	26.215	30.638	331.615	171.330	29.855	35.776	34.299	39.041	137.819	40.174	-8191	255	
2643.934	1	1	0	0	0.14887	0.20644	0.060427	0.078987	0.050491	0.17356	0.18929	0.051747	0.30297	0.20387	0.252	0.35493	0.16499	0.27675	0.19565	0.10546	-2.2604	-2.8854	-2.5292	-2.6104	-2.8417	-2.4979	-2.8167	-2.8458	-2.75	-2.8312	-2.6729	-2.5396	-3.025	-2.6312	-2.9146	-2.8104	104.037	252.651	298.105	347.458	364.896	259.805	110.652	184.613	339.461	171.854	328.569	352.285	149.854	273.944	240.665	167.369	6.4586e-05	0.00013423	3.7715e-05	252.26	1.0189e-06	1.0862e-06	373.78	52.887	8.8673e-07	1.9183e-07	104.2	29.099	12.561	2.9366	8.0218e-07	12.14	1.7365e-05	5.9025e-06	2.1906e-06	242.06	7.8496e-08	7.4186e-08	360.43	51.006	8.3098e-08	5.667e-08	100.08	28.318	11.987	2.8561	7.8141e-08	11.687	176.563	76.862	91.851	25.969	180.772	166.674	26.653	30.381	177.731	244.212	29.995	35.254	34.347	38.922	193.083	39.943	-8191	255	
2644.030	1	1	0	0	0.41648	0.20836	0.29251	0.20421	0.20818	0.12342	0.18629	0.13897	0.29004	0.18172	0.12237	0.45624	0.11745	0.2611	0.12827	0.12654	-2.1188	-2.8021	-2.6333	-2.6083	-2.9333	-2.6188	-2.7125	-2.675	-2.5958	-2.9292	-2.7	-2.6292	-2.7354	-2.3667	-2.7	-2.8063	354.880	217.129	101.445	267.493	26.839	19.395	338.306	100.538	260.918	29.599	76.960	28.893	67.728	40.718	320.568	270.025	5.6995e-05	0.00011482	3.8744e-05	254.6	1.4241e-06	4.5654e-07	372.82	52.882	5.2706e-07	1.867e-06	103.73	28.736	12.306	2.9126	2.8276e-07	11.757	1.87e-05	6.4523e-06	1.7128e-06	243.59	8.8835e-08	7.2167e-08	360.15	51.047	7.9787e-08	5.9452e-08	99.007	27.871	11.868	2.816	5.7876e-08	11.323	175.049	79.921	112.738	26.216	165.772	144.755	26.458	30.665	188.136	190.495	30.281	35.261	35.071	39.772	101.802	39.931	-8191	255	
2644.149	1	1	0	0	0.090174	0.31689	0.1226	0.30972	0.15642	0.30096	0.19289	0.21014	0.076856	0.10337	0.16529	0.14047	0.20811	0.21213	0.2829	0.18222	-2.15	-2.7542	-2.6271	-2.5667	-2.675	-2.5	-2.6208	-2.7458	-2.4667	-2.8646	-2.7708	-2.5771	-2.5542	-2.5583	-2.575	-2.7771	278.901	58.688	357.860	349.532	321.663	130.438	105.280	206.217	306.941	58.571	321.857	111.468	102.718	334.589	302.538	306.589	7.027e-05	0.00012417	4.0406e-05	248.01	1.2065e-06	7.2125e-07	363.99	52.162	1.2124e-06	1.263e-06	102.07	28.342	12.276	2.9501	5.7726e-07	11.742	1.819e-05	6.8494e-06	1.8514e-06	238.84	7.4857e-08	5.7195e-08	349.39	50.348	9.4685e-08	6.9741e-08	97.762	27.544	11.797	2.8101	7.9309e-08	11.369	184.179	65.777	112.212	26.207	196.532	157.431	26.383	30.055	204.733	156.343	29.478	34.619	34.907	39.683	182.690	39.669	-8191	255	
2644.245	1	1	0	0	0.16475	0.16463	0.23515	0.093883	0.24056	0.10706	0.22495	0.14439	0.1883	0.077682	0.31512	0.19743	0.10676	0.19518	0.16101	0.26013	-2.1146	-2.8354	-2.6271	-2.4854	-2.7271	-2.7604	-2.5812	-2.8521	-2.6125	-2.6333	-2.6292	-2.4833	-2.6792	-2.5479	-2.6312	-2.8229	200.134	192.388	69.466	146.083	185.172	92.916	318.211	367.385	365.615	204.209	118.350	372.311	252.463	25.701	369.454	336.084	6.0394e-05	0.00015449	5.6097e-05	252.4	5.6687e-07	9.3995e-07	369.01	52.27	7.8467e-07	8.5955e-07	102.67	28.684	12.357	2.9375	7.7558e-07	11.912	1.6667e-05	6.7425e-06	1.5656e-06	240.52	8.4121e-08	6.5102e-08	354.12	50.485	9.4851e-08	7.1765e-08	98.817	27.848	11.855	2.8311	7.2387e-08	11.506	177.613	104.935	105.611	25.758	225.877	184.404	26.157	30.619	162.546	177.286	29.867	35.400	34.675	39.510	187.404	40.085	-8191	255	
2644.341	1	1	0	0	0.12128	0.13804	0.12019	0.084542	0.039839	0.059717	0.10969	0.14675	0.12689	0.30519	0.15334	0.12074	0.14496	0.07887	0.10254	0.16431	-2.2458	-2.6729	-2.6417	-2.5167	-2.6188	-2.6479	-2.6875	-2.875	-2.5896	-2.6854	-2.9354	-2.5583	-2.8125	-2.7271	-2.5917	-2.7354	247.651	299.006	142.271	320.271	61.197	344.389	256.380	264.465	275.526	288.619	288.592	94.003	361.123	17.863	33.511	261.027	5.2638e-05	0.00011081	2.8942e-05	251.05	1.542e-06	9.5939e-07	371.18	53.121	6.5032e-07	7.852e-07	103.57	29.012	12.585	2.9549	7.493e-07	12.096	1.6654e-05	7.529e-06	1.4078e-06	241.52	8.3128e-08	6.1737e-08	357.91	51.116	8.3512e-08	7.6065e-08	99.788	28.226	11.952	2.848	7.0886e-08	11.646	175.163	89.265	108.510	26.003	194.716	178.422	26.349	30.010	213.774	169.917	30.126	35.160	34.396	38.743	132.641	40.041	-8191	255	
2644.437	1	1	0	0	0.33279	0.15353	0.10899	0.1577	0.36806	0.17894	0.1769	0.13656	0.30058	0.017874	0.32604	0.14891	0.097366	0.12152	0.083408	0.22332	-2.0083	-2.6188	-2.8187	-2.3958	-2.8688	-2.6417	-2.6625	-2.825	-2.725	-2.7271	-2.8229	-2.6521	-2.8167	-2.7125	-2.5083	-2.9688	126.623	285.862	19.527	54.297	37.167	266.553	251.988	157.153	79.493	20.700	332.536	28.967	354.768	131.120	152.915	22.238	7.0782e-05	9.691e-05	2.7788e-05	253.65	9.2801e-07	1.4339e-06	372.73	52.692	9.5518e-07	1.1362e-06	102.14	28.574	12.296	2.9104	2.8512e-07	11.634	1.7533e-05	6.9028e-06	1.3609e-06	243.31	7.8744e-08	6.4597e-08	358	50.758	8.5167e-08	5.9874e-08	98.258	27.662	11.863	2.8066	7.0552e-08	11.268	182.664	46.650	65.085	25.869	222.590	132.397	26.079	30.828	170.942	200.074	29.465	35.025	34.448	39.004	18.941	39.752	-8191	255	
2644.534	1	1	0	0	0.10377	0.034205	0.10336	0.23366	0.21459	0.21499	0.37569	0.067171	0.2276	0.19956	0.17426	0.079254	0.075081	0.22305	0.086818	0.2945	-2.1771	-2.5583	-2.7854	-2.5729	-2.6917	-2.8208	-2.3979	-2.7812	-2.7792	-2.5875	-2.7479	-2.5875	-2.7042	-2.8438	-2.5167	-2.8146	21.959	64.081	92.711	290.337	233.329	282.657	332.996	295.596	354.449	96.654	292.254	291.751	260.348	98.096	252.461	16.267	7.2475e-05	0.00012642	3.5028e-05	247.34	1.2829e-06	6.4077e-07	364.4	51.564	7.0421e-07	1.5614e-06	101.01	28.548	12.516	2.9411	1.0518e-06	11.824	1.8338e-05	6.3225e-06	1.4995e-06	237.9	7.4774e-08	5.8878e-08	349.69	50.014	8.765e-08	7.4548e-08	97.339	27.604	11.869	2.8115	7.3388e-08	11.319	173.120	122.378	121.099	26.194	177.773	158.130	26.563	30.433	159.361	169.019	29.541	35.285	34.771	39.786	154.906	39.515	-8191	255	
2644.630	1	1	0	0	0.051437	0.026114	0.20738	0.038893	0.045182	0.037138	0.40531	0.15474	0.15652	0.22983	0.1128	0.10727	0.21562	0.28673	0.18733	0.45295	-2.1792	-2.4417	-2.8083	-2.5167	-2.7917	-2.9458	-2.5333	-2.9188	-2.6708	-2.5167	-2.9458	-2.5792	-2.5542	-2.9521	-2.6021	-2.9771	263.939	306.869	97.702	217.568	314.579	66.244	349.959	220.005	364.378	276.136	318.053	357.236	53.600	253.298	340.462	339.114	5.5372e-05	0.00013245	3.5306e-05	249.79	9.2357e-07	3.8426e-07	366.66	52.375	6.8515e-07	3.7514e-07	102.37	28.404	12.332	2.9579	1.4001e-06	11.966	1.6687e-05	8.0559e-06	1.2585e-06	239.82	8.379e-08	5.0467e-08	354.34	50.592	7.358e-08	8.2559e-08	98.688	27.795	11.853	2.828	8.081e-08	11.524	185.194	78.960	128.112	26.134	187.111	181.212	26.378	30.517	182.270	137.156	29.897	35.443	34.072	39.696	200.373	39.928	-8191	255	
2644.726	1	1	0	0	0.10812	0.19844	0.21271	0.12282	0.11871	0.27017	0.0985	0.18006	0.19501	0.19334	0.033648	0.057968	0.20272	0.10595	0.2121	0.078381	-2.3917	-2.5083	-2.7625	-2.6729	-2.7271	-2.7938	-2.4792	-2.8708	-2.9188	-2.4146	-2.7979	-2.6396	-2.5646	-2.9188	-2.575	-2.8354	182.322	332.282	109.187	348.524	203.308	36.791	150.301	246.931	211.488	288.753	148.269	232.350	164.465	132.527	88.431	318.898	6.5435e-05	0.00012494	2.9324e-05	252.47	1.5354e-06	1.2823e-06	376.31	52.649	9.5559e-07	1.3182e-06	105.64	29.289	12.571	2.8998	7.9486e-07	12.056	1.7647e-05	6.6279e-06	1.5102e-06	241.73	8.9663e-08	6.6448e-08	359.82	50.93	8.285e-08	7.1933e-08	100.85	28.34	11.964	2.8356	6.8217e-08	11.743	185.994	110.743	101.061	26.394	164.696	165.901	26.678	30.767	186.239	166.587	29.663	34.901	34.464	40.406	171.337	39.920	-8191	255	
2644.846	1	1	0	0	0.21398	0.20101	0.035084	0.1082	0.027606	0.038936	0.028983	0.099261	0.17016	0.048405	0.16218	0.22115	0.2427	0.16385	0.035928	0.23605	-2.4562	-2.5979	-2.9333	-2.5646	-2.5771	-3.025	-2.4833	-2.8063	-2.7188	-2.5375	-2.8979	-2.7729	-2.4313	-2.8208	-2.5521	-2.6896	136.819	235.856	187.918	175.614	208.689	317.422	279.939	142.576	361.463	275.048	326.191	228.852	352.723	75.383	293.618	88.246	7.0317e-05	0.00012409	5.2586e-05	254.23	9.4055e-07	5.6091e-07	372.32	52.595	8.4798e-07	1.2937e-06	102.05	28.714	12.373	2.9471	9.1134e-07	12.009	1.7808e-05	7.6206e-06	1.7213e-06	244.23	9.4543e-08	5.3999e-08	360.72	50.714	8.3098e-08	6.8644e-08	99.029	28.116	11.924	2.8424	7.3971e-08	11.625	179.953	109.605	86.359	25.708	168.018	207.587	26.338	30.714	202.601	185.333	29.425	35.210	34.098	38.793	209.007	39.765	-8191	255	
2644.943	1	1	0	0	0.11859	0.13065	0.23538	0.2173	0.14027	0.031107	0.027147	0.11793	0.15653	0.079497	0.10236	0.25319	0.064915	0.22693	0.14501	0.059197	-2.5167	-2.4917	-2.6125	-2.975	-2.6667	-2.8708	-2.65	-2.6396	-2.9	-2.6604	-2.8208	-2.8417	-2.4042	-2.8458	-2.7542	-2.5354	318.456	17.804	318.339	352.956	295.348	323.552	15.962	292.063	229.744	326.264	110.692	48.934	121.626	361.572	133.066	135.851	6.942e-05	0.00015407	2.5532e-05	250.17	1.2665e-06	1.3138e-06	369.78	52.417	1.5284e-06	7.2707e-07	103.6	28.848	12.471	2.8804	5.4707e-07	11.919	1.6969e-05	7.4374e-06	1.4696e-06	240.41	1.0976e-07	6.2242e-08	356.4	50.706	8.7485e-08	7.7499e-08	99.63	28.078	11.91	2.8201	5.6208e-08	11.553	182.783	95.453	111.777	26.096	183.500	184.625	26.446	29.974	171.303	173.961	29.929	35.732	35.405	39.668	253.254	39.877	-8191	255	
2645.039	1	1	0	0	0.054149	0.24463	0.19675	0.18671	0.12066	0.056566	0.074358	0.097336	0.31003	0.10141	0.22785	0.12671	0.28253	0.16504	0.21737	0.23482	-2.3208	-2.5333	-2.8583	-2.7542	-2.6437	-3.0896	-2.7354	-2.7438	-2.9875	-2.6375	-2.6583	-2.7354	-2.5479	-2.8333	-2.8667	-2.5812	13.525	22.076	106.733	202.414	253.746	326.094	166.231	143.354	35.391	26.437	298.021	247.770	110.890	194.087	316.984	180.301	7.451e-05	0.0001428	2.3213e-05	252.56	1.3968e-06	1.6328e-06	372.63	53.05	1.8207e-07	6.9327e-07	104.56	29.276	12.314	2.924	1.8514e-07	11.838	1.6439e-05	6.4141e-06	1.7768e-06	242.33	1.0472e-07	6.2326e-08	359.07	51.012	9.0795e-08	7.1427e-08	100.19	28.31	11.906	2.8386	7.2053e-08	11.519	178.011	104.293	127.581	26.684	204.444	164.154	26.147	30.526	181.790	178.076	29.425	34.737	35.768	39.494	278.834	40.373	-8191	255	
2645.135	1	1	0	0	0.1707	0.054563	0.13096	0.10341	0.08952	0.075698	0.14147	0.36183	0.10284	0.052948	0.15174	0.12901	0.14397	0.11781	0.20485	0.19227	-2.3146	-2.5229	-2.6417	-2.8479	-2.5958	-2.7979	-2.7667	-2.5438	-2.9229	-2.7562	-2.775	-2.9104	-2.5917	-2.8312	-2.7354	-2.7521	168.976	110.171	327.163	356.454	249.925	223.630	35.341	51.278	110.614	145.149	210.227	133.633	284.877	263.785	131.341	209.250	6.9017e-05	0.00027613	1.9251e-05	254.88	1.0605e-06	4.8606e-07	379.52	53.621	8.5733e-07	9.0792e-07	105.46	29.563	12.64	2.9378	1.3364e-06	12.256	1.6499e-05	6.8036e-06	1.5699e-06	244.02	9.3798e-08	5.6775e-08	363.83	51.577	7.2338e-08	7.0415e-08	101.47	28.628	12.042	2.874	6.6966e-08	11.868	183.929	82.380	101.340	26.068	140.986	188.962	26.323	30.875	144.812	171.290	29.953	35.115	34.321	38.900	175.051	40.288	-8191	255	
2645.229	1	1	0	0	0.15775	0.34592	0.077445	0.14744	0.083549	0.060293	0.29022	0.019761	0.1745	0.22676	0.089192	0.091741	0.28963	0.1399	0.094835	0.17183	-2.4667	-2.5833	-2.5396	-2.7271	-2.5583	-2.925	-2.9875	-2.4	-3.0375	-2.8958	-2.7542	-3.0396	-2.5333	-2.8208	-2.7479	-2.7396	233.819	164.686	229.515	336.777	29.579	93.762	38.244	101.344	16.183	345.042	219.312	338.296	196.645	70.471	108.161	268.388	6.7992e-05	0.00011555	2.5741e-05	253.98	8.5832e-07	7.214e-07	378.59	52.67	1.1796e-06	1.4478e-06	104.23	28.68	12.201	2.9703	7.6777e-07	11.953	1.6352e-05	5.7498e-06	1.8578e-06	244.16	1.0513e-07	5.9298e-08	363.89	51.044	8.8312e-08	5.4899e-08	100.17	28.158	11.888	2.8536	6.1879e-08	11.588	185.339	85.232	124.870	26.146	180.651	175.253	25.810	30.880	170.621	189.362	29.737	34.790	35.202	39.162	206.298	39.182	-8191	255	
2645.325	1	1	0	0	0.13956	0.06316	0.20392	0.12619	0.20349	0.06459	0.21916	0.1298	0.33994	0.092514	0.12259	0.2227	0.21614	0.03067	0.16793	0.05585	-2.4917	-2.6083	-2.4188	-2.9688	-2.5646	-2.9208	-2.9042	-2.5458	-2.6958	-2.8875	-2.6396	-2.8333	-2.5854	-2.6104	-2.9	-2.7062	332.954	282.892	286.641	122.065	264.717	360.396	115.344	33.318	217.450	208.340	210.416	351.543	123.984	228.753	68.983	355.481	7.3457e-05	0.00016239	3.356e-05	252.19	9.5452e-07	1.115e-06	372.29	52.512	5.6779e-07	8.8268e-07	105.51	29.136	12.442	2.9626	9.974e-07	12.235	1.5808e-05	6.9028e-06	1.8322e-06	241.42	7.9489e-08	6.5018e-08	359.96	50.884	7.0352e-08	5.9031e-08	100.8	28.491	11.919	2.8676	7.639e-08	11.789	181.082	106.135	95.018	26.144	185.507	176.484	26.118	30.337	182.213	184.579	29.871	35.522	34.564	39.855	137.348	39.837	-8191	255	
2645.446	1	1	0	0	0.04511	0.21385	0.2033	0.062975	0.30971	0.082881	0.2322	0.12614	0.10337	0.16555	0.093585	0.14141	0.21558	0.15795	0.061258	0.13624	-2.5229	-2.7396	-2.5104	-2.8312	-2.7146	-2.5729	-3.0333	-2.6937	-2.9229	-2.5312	-2.7083	-2.9	-2.6354	-2.6417	-2.9458	-2.5604	236.731	366.525	369.897	46.520	215.086	230.827	167.479	283.229	200.493	77.164	146.698	252.566	266.378	238.092	255.033	340.349	7.2998e-05	8.2043e-05	2.866e-05	254.84	8.0329e-07	5.3015e-07	378.12	53.18	3.8917e-07	1.8812e-06	105.45	29.61	12.457	2.9569	1.1067e-06	12.56	1.6318e-05	5.1848e-06	1.845e-06	244.49	8.1474e-08	5.5429e-08	364.66	51.335	8.7485e-08	5.7429e-08	101.66	28.872	12.014	2.892	5.7209e-08	12.084	177.832	88.378	56.746	26.160	199.411	180.940	26.080	30.455	216.029	185.894	30.104	35.293	34.464	40.284	192.998	40.103	-8191	255	
2645.542	1	1	0	0	0.23399	0.067536	0.27256	0.26456	0.11185	0.19219	0.17794	0.10491	0.16757	0.1997	0.13366	0.2435	0.16738	0.18573	0.074941	0.13863	-2.4396	-2.8563	-2.7292	-2.8896	-2.7375	-2.5521	-2.8271	-2.5625	-2.8854	-2.7938	-2.5271	-2.8479	-2.65	-2.7521	-2.9083	-2.6771	58.633	307.747	209.384	300.287	253.170	82.636	340.111	190.252	162.450	226.188	358.586	334.333	67.616	248.491	371.476	256.869	7.4175e-05	5.9547e-05	3.9752e-05	254.57	6.4046e-07	1.1926e-06	382.35	53.583	8.1584e-07	6.1194e-07	106.45	30.227	12.7	3.0136	1.1382e-06	12.675	1.8016e-05	5.284e-06	2.4871e-06	245.07	7.7917e-08	5.7952e-08	368.43	51.337	7.0269e-08	6.1476e-08	102.46	29.24	12.106	2.9233	5.5291e-08	12.196	168.846	369.039	111.029	25.727	201.292	145.147	26.148	30.190	187.080	184.485	30.090	35.224	34.764	39.530	196.574	40.478	-8191	255	
2645.638	1	1	0	0	0.029785	0.19682	0.2213	0.19334	0.2184	0.26537	0.21026	0.11526	0.14395	0.15484	0.23511	0.19127	0.1357	0.1828	0.13342	0.19825	-2.4292	-3.0375	-2.5021	-2.875	-2.5167	-2.6813	-2.9667	-2.4708	-2.8354	-2.9354	-2.6188	-2.8229	-2.5979	-2.4771	-2.9188	-2.6667	330.251	151.642	216.589	177.342	145.984	267.144	98.001	200.646	23.721	316.798	95.606	238.979	96.773	298.562	284.487	44.033	7.0468e-05	0.00016501	2.9952e-05	255.16	9.8062e-07	9.7234e-07	380.94	53.149	1.2741e-06	4.5434e-07	104.16	29.643	12.487	2.9116	8.5218e-07	12.234	1.7184e-05	5.1771e-06	2.1927e-06	245.77	7.7669e-08	7.7382e-08	367.66	51.373	9.0795e-08	4.5369e-08	101.03	28.641	11.984	2.8387	5.5124e-08	11.755	175.513	100.147	75.309	25.691	212.035	210.905	26.083	30.489	166.275	196.572	29.682	35.658	35.282	39.132	147.053	39.616	-8191	255	
2645.710	1	1	0	0	0.036606	0.088182	0.072182	0.2123	0.21986	0.2344	0.12783	0.19802	0.2279	0.026715	0.17776	0.24905	0.277	0.20004	0.12836	0.17934	-2.2354	-2.8271	-2.6937	-2.9458	-2.5875	-2.5542	-2.9938	-2.6771	-2.7417	-3.0146	-2.5292	-2.8	-2.6562	-2.5125	-2.8979	-2.5167	349.879	90.523	69.249	49.044	50.261	123.770	73.688	81.169	157.226	355.717	133.523	357.329	328.359	341.200	277.514	237.748	7.63e-05	8.7286e-05	3.9498e-05	251.93	1.8618e-06	1.4404e-06	378.57	53.117	7.17e-07	9.0193e-07	105.29	29.36	12.492	2.9847	9.9471e-07	12.179	1.8277e-05	6.1087e-06	1.5955e-06	243.05	9.446e-08	7.3681e-08	362.69	51.111	8.5912e-08	5.473e-08	101.19	28.641	11.989	2.8816	6.9968e-08	11.753	180.592	112.608	125.207	25.985	178.830	132.287	25.907	30.639	209.865	173.504	29.431	35.517	34.546	38.891	186.329	39.704	-8191	255	
2645.806	1	1	0	0	0.10061	0.26238	0.34303	0.27645	0.20379	0.36813	0.13483	0.14635	0.082671	0.18306	0.071215	0.030004	0.14477	0.14911	0.16202	0.28675	-2.3667	-3.0062	-2.4625	-2.8563	-2.7979	-2.5208	-2.9583	-2.6583	-2.6479	-2.8	-2.7979	-2.7083	-2.9562	-2.7167	-2.7917	-2.575	367.949	236.154	311.984	25.521	281.843	135.846	316.919	249.633	63.887	196.466	262.454	157.656	116.927	14.506	288.258	344.685	5.5018e-05	0.00015023	2.758e-05	255.39	1.413e-06	9.119e-07	379.16	53.135	5.3962e-07	1.6196e-07	105.36	29.624	12.588	2.9697	5.8198e-07	12.103	1.6801e-05	5.9789e-06	1.8472e-06	244.28	7.6842e-08	6.1233e-08	364.91	51.265	8.7071e-08	5.7176e-08	101.31	28.677	12.068	2.8464	5.2789e-08	11.728	184.610	79.664	83.232	26.208	160.255	200.831	26.559	30.451	185.389	241.990	29.800	35.427	35.148	39.930	174.212	39.951	-8191	255	
#DATA ENDS
