BOXY.EXE: ISS Imagent and Oximeter Data Acquisition Program Version 0.80
Ascii Record File

#ACQ INFORMATION
2  Detector Channels 
16  External MUX Channels 
1  Auxiliary Channels 
5000  Waveform (CCF) Frequency (Hz)
1  Waveforms Skipped 
30  Waveforms Averaged 
1  Cycles Averaged 
16  Acquisitions per Waveform 
10.0806  Updata Rate (Hz) 

#FILE INFORMATION
TRUE -- External MUX Channel results are PARSED.
FALSE -- AC DC and Phase are NOT grouped.
TRUE -- Companion Program Settings File CREATED.
FALSE -- AC data not excluded
FALSE -- DC data not excluded
FALSE -- Phase data not excluded
FALSE -- Auxillary Chn. data not excluded
Tab delimiters

#CALIBRATION STATE
TRUE -- Waveform Calibration Values APPLIED.


#AUX CALIBRATION VALUES
Val Type	aux-1	

Term	1.0000e+00	
Factor	0.0000e+00	


#WF CALIBRATION VALUES
A = Detector Channel
Val Type	A-AC1	A-AC2	A-AC3	A-AC4	A-AC5	A-AC6	A-AC7	A-AC8	A-AC9	A-AC10	A-AC11	A-AC12	A-AC13	A-AC14	A-AC15	A-AC16	A-DC1	A-DC2	A-DC3	A-DC4	A-DC5	A-DC6	A-DC7	A-DC8	A-DC9	A-DC10	A-DC11	A-DC12	A-DC13	A-DC14	A-DC15	A-DC16	A-Ph1	A-Ph2	A-Ph3	A-Ph4	A-Ph5	A-Ph6	A-Ph7	A-Ph8	A-Ph9	A-Ph10	A-Ph11	A-Ph12	A-Ph13	A-Ph14	A-Ph15	A-Ph16	

Term	0.00000e+00	0.00000e+00	0.00000e+00	0.00000e+00	0.00000e+00	0.00000e+00	0.00000e+00	0.00000e+00	0.00000e+00	0.00000e+00	0.00000e+00	0.00000e+00	0.00000e+00	0.00000e+00	0.00000e+00	0.00000e+00	0.00000e+00	0.00000e+00	0.00000e+00	0.00000e+00	0.00000e+00	0.00000e+00	0.00000e+00	0.00000e+00	0.00000e+00	0.00000e+00	0.00000e+00	0.00000e+00	0.00000e+00	0.00000e+00	0.00000e+00	0.00000e+00	0.00000e+00	0.00000e+00	0.00000e+00	0.00000e+00	0.00000e+00	0.00000e+00	0.00000e+00	0.00000e+00	0.00000e+00	0.00000e+00	0.00000e+00	0.00000e+00	0.00000e+00	0.00000e+00	0.00000e+00	0.00000e+00	
Factor	1.00000e+00	1.00000e+00	1.00000e+00	1.00000e+00	1.00000e+00	1.00000e+00	1.00000e+00	1.00000e+00	1.00000e+00	1.00000e+00	1.00000e+00	1.00000e+00	1.00000e+00	1.00000e+00	1.00000e+00	1.00000e+00	1.00000e+00	1.00000e+00	1.00000e+00	1.00000e+00	1.00000e+00	1.00000e+00	1.00000e+00	1.00000e+00	1.00000e+00	1.00000e+00	1.00000e+00	1.00000e+00	1.00000e+00	1.00000e+00	1.00000e+00	1.00000e+00	X	X	X	X	X	X	X	X	X	X	X	X	X	X	X	X	

B = Detector Channel
Val Type	B-AC1	B-AC2	B-AC3	B-AC4	B-AC5	B-AC6	B-AC7	B-AC8	B-AC9	B-AC10	B-AC11	B-AC12	B-AC13	B-AC14	B-AC15	B-AC16	B-DC1	B-DC2	B-DC3	B-DC4	B-DC5	B-DC6	B-DC7	B-DC8	B-DC9	B-DC10	B-DC11	B-DC12	B-DC13	B-DC14	B-DC15	B-DC16	B-Ph1	B-Ph2	B-Ph3	B-Ph4	B-Ph5	B-Ph6	B-Ph7	B-Ph8	B-Ph9	B-Ph10	B-Ph11	B-Ph12	B-Ph13	B-Ph14	B-Ph15	B-Ph16	

Term	0.00000e+00	0.00000e+00	0.00000e+00	0.00000e+00	0.00000e+00	0.00000e+00	0.00000e+00	0.00000e+00	0.00000e+00	0.00000e+00	0.00000e+00	0.00000e+00	0.00000e+00	0.00000e+00	0.00000e+00	0.00000e+00	0.00000e+00	0.00000e+00	0.00000e+00	0.00000e+00	0.00000e+00	0.00000e+00	0.00000e+00	0.00000e+00	0.00000e+00	0.00000e+00	0.00000e+00	0.00000e+00	0.00000e+00	0.00000e+00	0.00000e+00	0.00000e+00	-5.24022e+01	-1.64169e+02	-9.76990e+01	-1.80969e+02	-5.66720e+01	-9.77327e+01	-1.56073e+02	-1.62015e+02	-2.91745e+01	-6.44927e+01	-1.73276e+02	-1.70265e+02	-1.82009e+02	-1.76771e+02	-6.96488e+01	-1.50163e+02	
Factor	1.86859e-05	9.78118e-05	2.79070e-05	1.67683e-01	9.76611e-07	1.10387e-06	1.73110e-01	5.09591e-02	1.07639e-06	1.05178e-06	1.04153e-01	2.91335e-02	3.50756e-02	9.31146e-03	9.58455e-07	1.36155e-02	6.11716e-07	6.27859e-07	1.75053e-07	7.79073e-02	6.84918e-09	6.89061e-09	7.55109e-02	2.36384e-02	6.84905e-09	6.88618e-09	4.50172e-02	1.28399e-02	1.55609e-02	4.22386e-03	6.88738e-09	5.88561e-03	X	X	X	X	X	X	X	X	X	X	X	X	X	X	X	X	



#DISTANCE SETTINGS
A = Detector Channel
A-1	A-2	A-3	A-4	A-5	A-6	A-7	A-8	A-9	A-10	A-11	A-12	A-13	A-14	A-15	A-16	

2.5000e+00	3.0000e+00	2.5000e+00	3.0000e+00	2.0000e+00	3.0000e+00	1.5000e+00	3.0000e+00	3.0000e+00	3.0000e+00	3.0000e+00	3.0000e+00	3.0000e+00	3.0000e+00	1.5000e+00	3.0000e+00	

B = Detector Channel
B-1	B-2	B-3	B-4	B-5	B-6	B-7	B-8	B-9	B-10	B-11	B-12	B-13	B-14	B-15	B-16	

1.0000e+01	1.0000e+01	1.0000e+01	1.4400e+00	1.0000e+01	1.0000e+01	1.5100e+00	1.9400e+00	1.0000e+01	1.0000e+01	1.9900e+00	2.4900e+00	2.4100e+00	2.9000e+00	1.0000e+01	2.9800e+00	




#DATA BEGINS
time	group	step	mark	flag	A-AC1	A-AC2	A-AC3	A-AC4	A-AC5	A-AC6	A-AC7	A-AC8	A-AC9	A-AC10	A-AC11	A-AC12	A-AC13	A-AC14	A-AC15	A-AC16	A-DC1	A-DC2	A-DC3	A-DC4	A-DC5	A-DC6	A-DC7	A-DC8	A-DC9	A-DC10	A-DC11	A-DC12	A-DC13	A-DC14	A-DC15	A-DC16	A-Ph1	A-Ph2	A-Ph3	A-Ph4	A-Ph5	A-Ph6	A-Ph7	A-Ph8	A-Ph9	A-Ph10	A-Ph11	A-Ph12	A-Ph13	A-Ph14	A-Ph15	A-Ph16	B-AC1	B-AC2	B-AC3	B-AC4	B-AC5	B-AC6	B-AC7	B-AC8	B-AC9	B-AC10	B-AC11	B-AC12	B-AC13	B-AC14	B-AC15	B-AC16	B-DC1	B-DC2	B-DC3	B-DC4	B-DC5	B-DC6	B-DC7	B-DC8	B-DC9	B-DC10	B-DC11	B-DC12	B-DC13	B-DC14	B-DC15	B-DC16	B-Ph1	B-Ph2	B-Ph3	B-Ph4	B-Ph5	B-Ph6	B-Ph7	B-Ph8	B-Ph9	B-Ph10	B-Ph11	B-Ph12	B-Ph13	B-Ph14	B-Ph15	B-Ph16	aux-1	digaux	

2419.058	1	1	0	256	0.066935	0.0063033	0.063679	0.29236	0.16072	0.18101	0.10318	0.12421	0.077607	0.057106	0.18896	0.12944	0.13878	0.10333	0.18453	0.13612	-2.7604	-2.9354	-2.7875	-3.5354	-2.8646	-3.1958	-3.2604	-2.9521	-3.0875	-2.8563	-2.7562	-3.3875	-2.7917	-3.0687	-3.2208	-2.9708	-87.641	205.597	171.298	29.262	26.436	173.046	124.939	-81.944	66.719	-11.844	75.781	-61.481	-96.696	-21.123	23.355	179.973	0.00046716	0.00031695	0.00015568	439.5	3.8453e-06	1.8882e-06	747.54	148.77	7.8028e-06	5.4519e-06	280.76	106.95	61.308	28.672	4.7587e-06	52.098	0.00019278	0.00022263	5.5235e-05	427.34	2.1004e-06	2.4074e-06	711.23	144.36	2.1364e-06	2.4072e-06	262.31	100.22	59.32	27.589	2.1054e-06	47.969	-80.804	-66.246	-10.375	-134.371	-80.773	-91.173	-136.018	-128.695	-40.988	-17.285	-131.601	-126.654	-123.971	-117.568	-22.191	-122.100	-8191	255	
2419.154	1	1	0	0	0.10505	0.12418	0.23032	0.20482	0.1083	0.11784	0.13618	0.11737	0.10605	0.2047	0.19716	0.11131	0.072344	0.27652	0.22037	0.33927	-2.9021	-3.0333	-2.5833	-3.3021	-2.925	-3.2042	-3.2812	-2.9646	-3.0646	-3.0958	-2.9771	-3.3187	-2.8625	-2.9104	-3.3812	-2.6729	192.268	-112.039	-70.376	194.608	-21.727	17.138	107.725	84.224	103.990	-31.623	57.509	171.554	171.473	-129.231	56.572	121.483	0.00042974	0.0002285	6.7378e-05	436.54	3.446e-06	5.5265e-06	741.3	148.88	1.6501e-06	2.3974e-06	281.5	106.88	61.907	28.753	7.3118e-06	52.47	0.00020942	0.00021485	5.3072e-05	422.36	2.2717e-06	2.3027e-06	705.33	144.04	2.284e-06	2.258e-06	262.55	100.29	59.593	27.66	2.0128e-06	48.4	-92.404	-26.965	4.557	-134.574	-0.440	25.511	-135.881	-128.463	-46.365	-7.756	-131.999	-127.120	-123.989	-117.272	5.303	-121.959	-8191	255	
2419.250	1	1	0	0	0.25722	0.11408	0.22285	0.2281	0.22986	0.109	0.13122	0.077729	0.13884	0.096217	0.12145	0.25561	0.30585	0.19159	0.17546	0.1245	-2.8812	-3.0083	-2.8937	-3.2729	-2.9188	-2.7562	-3.3917	-2.7083	-3.1562	-3.0896	-2.8604	-3.1229	-3.0438	-2.825	-3.3688	-2.8812	103.593	113.532	-8.864	-142.307	45.392	176.608	169.275	41.095	45.650	-78.840	-139.125	165.477	158.488	-132.512	160.486	155.681	0.00043475	0.00048003	9.3711e-05	432.52	1.7744e-06	2.677e-06	737.33	146.56	3.3625e-06	3.2232e-06	275.14	104.27	60.308	28.088	3.3977e-06	51.253	0.0002215	0.00020111	5.0789e-05	422.05	2.3961e-06	2.1773e-06	700.88	142.31	2.3573e-06	2.1427e-06	257.22	98.265	58.556	26.933	1.9528e-06	47.464	-86.100	-62.548	-37.954	-134.781	116.442	-39.870	-136.018	-128.565	74.845	76.202	-131.788	-126.895	-123.606	-117.228	24.215	-122.384	-8191	255	
2419.371	1	1	0	0	0.14116	0.12861	0.15247	0.12805	0.1203	0.14623	0.3431	0.046715	0.14988	0.19648	0.28706	0.13764	0.17172	0.13671	0.082292	0.17373	-2.9854	-3.125	-2.6688	-3.0896	-3.1875	-2.8021	-3.4021	-2.9708	-2.9104	-3.1813	-2.9104	-3.2188	-2.975	-2.9417	-3.1312	-3.0979	-91.960	63.900	-15.965	96.346	79.374	117.774	162.230	108.453	-139.887	-7.397	50.833	133.842	112.852	193.893	179.696	173.324	0.00036098	0.00059576	5.9864e-05	433.5	3.0252e-06	2.7161e-06	745.97	147.91	4.1894e-06	2.4191e-06	281.43	106.96	62.871	29.118	1.682e-06	52.421	0.00022142	0.00019185	4.9318e-05	425.01	2.3683e-06	2.0996e-06	707.57	144.16	2.3354e-06	2.0885e-06	261.21	101.02	60.592	27.76	1.9508e-06	48.758	-85.775	-100.068	-27.123	-134.809	-33.543	132.234	-135.949	-129.108	53.864	77.979	-131.581	-126.930	-124.026	-117.266	-35.482	-122.218	-8191	255	
2419.442	1	1	0	0	0.098219	0.27582	0.14356	0.34459	0.27005	0.10425	0.32142	0.11648	0.15051	0.16891	0.18623	0.17796	0.19157	0.25605	0.12241	0.28093	-2.7208	-2.9167	-2.8708	-3.2188	-2.9979	-3.0604	-3.2167	-3.1146	-2.8812	-3.3354	-2.9979	-3.1771	-3.1146	-2.7354	-3.3417	-3.1375	34.711	-23.157	147.141	-140.588	78.412	-144.698	181.032	100.450	-106.019	152.054	62.085	85.721	196.022	31.715	35.242	92.781	0.00036058	0.00052433	0.00017009	447.99	6.403e-06	3.2261e-06	765.33	151.5	2.4166e-06	2.573e-06	286.71	108.73	63.177	29.235	4.5514e-06	52.877	0.00021397	0.00018633	4.9612e-05	438.3	2.2807e-06	2.0181e-06	725.5	148.06	2.2386e-06	2.0241e-06	266.42	102.64	60.861	27.914	2.0335e-06	49.05	-82.437	-131.399	-24.456	-134.463	12.260	-31.831	-135.944	-128.762	28.827	-7.233	-131.784	-126.772	-124.045	-117.511	-87.327	-122.037	-8191	255	
2419.538	1	1	0	0	0.15636	0.14611	0.35275	0.22932	0.21672	0.08173	0.14064	0.05926	0.062826	0.10671	0.13211	0.12513	0.30156	0.24515	0.15762	0.21367	-2.2646	-3.275	-2.6917	-3.2104	-3.0958	-2.8563	-3.125	-3.0687	-2.8604	-3.275	-2.8646	-3.025	-3.2229	-2.7687	-3.1	-3.0458	102.128	-18.894	-72.031	61.661	-0.457	150.179	97.672	72.625	138.779	-123.729	180.114	-32.235	179.211	93.990	-111.756	179.139	0.00039817	0.0001993	8.2948e-05	443.01	3.2826e-06	1.7133e-06	754.34	149.52	6.017e-06	1.7862e-06	280.72	105.86	61.125	28.875	3.8361e-06	52.234	0.00020448	0.00018146	5.2552e-05	435.26	2.1464e-06	1.9689e-06	717.89	146.24	2.1098e-06	1.9561e-06	262.48	100.43	58.903	27.431	2.2045e-06	48.625	-81.152	-43.524	-60.451	-134.440	27.930	-6.452	-135.934	-128.801	34.455	-6.836	-132.011	-126.679	-123.531	-117.443	-86.282	-122.558	-8191	255	
2419.657	1	1	0	0	0.020272	0.22426	0.35343	0.21215	0.322	0.14318	0.24957	0.03846	0.12839	0.11463	0.1453	0.17053	0.11381	0.17092	0.087032	0.16195	-2.5646	-3.1958	-2.9021	-2.8917	-3.2729	-2.8271	-3.475	-3.1542	-2.7604	-3.3271	-2.8875	-2.9813	-3.2375	-2.8354	-3.2354	-3.375	-123.719	85.084	116.483	202.860	139.648	-71.156	209.019	130.692	-31.927	154.460	151.190	168.322	-33.228	148.910	-47.317	80.549	0.00033906	0.00027042	4.1812e-05	446.04	5.269e-06	5.292e-06	754.29	149.08	3.8973e-06	2.5692e-06	279.24	104.92	60.22	28.394	1.4724e-06	51.534	0.00019719	0.00017606	5.7619e-05	434.91	2.0714e-06	1.9277e-06	718.05	145.17	2.035e-06	1.9221e-06	261.92	99.195	58.022	27.077	2.3657e-06	47.785	-79.150	152.769	143.757	-134.279	25.347	-74.513	-136.201	-128.789	-29.982	-9.969	-131.906	-126.749	-123.644	-117.369	111.398	-122.080	-8191	255	
2419.754	1	1	0	0	0.097798	0.23413	0.29701	0.16903	0.1046	0.13843	0.27665	0.24063	0.18769	0.2147	0.21349	0.24083	0.28728	0.063466	0.36036	0.22361	-2.4562	-3.3792	-3.0833	-2.95	-3.1813	-2.8583	-3.1375	-3.1562	-2.7521	-3.1562	-3.1354	-2.8375	-3.3333	-3.0958	-3.0479	-3.2771	121.165	-33.233	75.674	-100.532	-94.665	-40.718	176.502	119.438	126.832	-8.545	52.836	-12.778	149.076	64.928	203.895	140.086	0.00034281	0.00010357	8.3501e-05	438.67	4.4302e-06	1.3668e-06	742.33	146.37	2.0024e-06	4.1605e-06	274.57	103.56	60.304	28.13	5.569e-07	51.407	0.0001916	0.00017999	6.0566e-05	428.37	1.9904e-06	2.0123e-06	711.71	142.28	1.9705e-06	2.0461e-06	258.38	97.641	57.326	26.952	2.4006e-06	47.452	-75.154	201.193	-93.585	-134.581	55.082	-102.334	-136.021	-128.836	120.426	-58.802	-131.659	-126.767	-123.650	-117.521	140.668	-122.044	-8191	255	
2419.850	1	1	0	0	0.17256	0.087778	0.11831	0.35086	0.10348	0.27332	0.15741	0.31642	0.084491	0.068258	0.25305	0.086312	0.069143	0.12326	0.12166	0.095269	-2.3396	-3.3354	-2.925	-2.7687	-3.2271	-3.0583	-3.0875	-3.2583	-2.8063	-3.2958	-3.1375	-3.0104	-3.4938	-3.0333	-2.9562	-3.3937	-89.890	77.961	-141.442	97.216	-22.581	191.325	93.400	132.554	144.827	91.076	182.641	12.462	-2.427	197.594	-51.544	48.468	0.00031655	0.0003616	9.0521e-05	442.92	3.804e-06	2.6092e-06	753	149.14	5.3689e-06	2.5582e-06	282.75	106.76	62.467	29.184	7.0336e-06	52.616	0.00018262	0.00019454	6.0621e-05	430.73	1.9283e-06	2.1862e-06	718.7	145	1.9139e-06	2.2269e-06	264.79	100.32	59.215	27.997	2.3124e-06	48.668	-80.470	200.764	-35.733	-134.821	-20.344	-108.442	-135.780	-128.703	70.084	-142.132	-131.473	-127.063	-123.638	-117.372	-10.519	-122.193	-8191	255	
2419.946	1	1	0	0	0.11099	0.14633	0.087124	0.20379	0.26154	0.06086	0.30826	0.11326	0.11809	0.25053	0.20237	0.20686	0.36139	0.20862	0.17048	0.17386	-2.4083	-3.3563	-3.0396	-2.9646	-3.1333	-3.0854	-3.0771	-3.2687	-3.0333	-3.2542	-3.0312	-3.0708	-3.3229	-3.0396	-2.8854	-3.2938	25.960	122.457	201.302	96.523	-2.768	123.949	169.953	157.632	181.006	164.866	-129.770	146.684	204.824	-27.104	142.815	145.741	0.00046609	0.0004608	0.00011098	445.2	2.9776e-06	1.6778e-06	760.8	150.42	4.0329e-06	4.0583e-06	283.26	107.14	62.293	29.103	2.6732e-06	52.064	0.00018281	0.00021175	5.8023e-05	434.17	1.9507e-06	2.3548e-06	724.14	146.43	1.9716e-06	2.4035e-06	265.65	100.72	59.548	27.899	2.2011e-06	48.078	-71.493	-142.148	-85.760	-134.718	-38.380	139.115	-135.812	-128.727	-56.533	-28.869	-131.703	-126.846	-123.721	-117.353	99.568	-122.160	-8191	255	
2420.066	1	1	0	0	0.26112	0.11012	0.029374	0.062049	0.21764	0.19047	0.067305	0.12749	0.13775	0.097198	0.1086	0.12912	0.1785	0.15403	0.052101	0.088316	-2.3396	-3.0896	-3.225	-2.8417	-3.2021	-2.9979	-3.0812	-3.4417	-2.9521	-3.0646	-3.0958	-2.9979	-3.1042	-3.0458	-2.9354	-3.4771	130.514	148.461	201.674	14.454	-96.025	50.535	159.962	-120.770	97.997	-133.134	-36.867	-55.479	196.526	-111.299	57.018	-132.897	0.0004206	0.00051368	2.716e-05	441.43	2.3558e-06	3.3573e-06	752.04	149.92	9.6805e-06	4.2454e-06	282.74	105.92	61.567	28.869	4.4384e-06	52.172	0.00019051	0.00021948	5.4848e-05	429.24	2.0702e-06	2.3645e-06	715.43	144.76	2.1057e-06	2.3663e-06	262.66	99.716	59.336	27.717	2.1003e-06	48.137	-89.046	-116.181	177.573	-134.136	207.678	-14.585	-135.739	-128.778	-33.351	58.124	-131.374	-126.867	-123.510	-117.360	-25.769	-122.278	-8191	255	
2420.138	1	1	0	0	0.20911	0.11886	0.2651	0.32024	0.03395	0.17858	0.11823	0.036437	0.22051	0.16155	0.12124	0.19719	0.074133	0.058206	0.068116	0.15319	-2.4104	-2.925	-3.0208	-2.6667	-3.2938	-3.0125	-3.1708	-3.2417	-2.9354	-2.9375	-3.3604	-2.7042	-3.2542	-3.1479	-2.8896	-3.3563	97.365	-60.028	-100.305	103.873	205.696	133.495	119.803	147.904	206.431	-122.940	-35.858	-130.748	-19.711	172.027	-13.755	201.319	0.00042568	0.00036365	3.8413e-05	442.95	4.2419e-06	3.561e-06	745.81	147.26	3.8027e-06	2.2284e-06	275.77	103.65	60.017	27.972	1.9558e-06	50.867	0.00020538	0.00021325	5.2478e-05	427.64	2.2334e-06	2.2939e-06	708.39	142.57	2.2703e-06	2.2635e-06	257.51	97.638	58.202	26.906	2.0141e-06	46.911	-88.646	-108.347	-63.294	-134.194	47.914	-44.029	-135.914	-128.520	-12.691	58.845	-131.562	-126.651	-123.599	-117.386	-18.679	-121.958	-8191	255	
2420.234	1	1	0	0	0.037536	0.042077	0.085656	0.21945	0.054942	0.071784	0.37104	0.25032	0.014943	0.12522	0.3669	0.23811	0.16673	0.15034	0.14352	0.2827	-2.4896	-3.0083	-3.2333	-2.825	-3.3417	-3.1021	-2.875	-3.2938	-3.075	-3.1625	-3.3792	-2.9188	-3.0604	-3.3542	-2.6396	-3.3417	206.242	142.456	190.461	25.026	177.519	93.059	131.886	142.677	180.891	-96.664	168.595	145.490	19.674	108.832	23.807	101.754	0.00034772	0.00054649	5.0632e-05	437.63	4.3127e-06	3.0565e-06	747.11	147.74	1.8704e-06	3.2244e-06	280.85	106.39	61.73	29.227	4.4463e-06	52.808	0.00021715	0.00019965	4.9977e-05	424.71	2.3573e-06	2.1683e-06	707.99	143.53	2.3487e-06	2.1387e-06	260.67	100.29	60.025	27.831	1.9214e-06	48.686	-87.275	-119.731	-44.888	-134.679	-12.063	18.035	-136.081	-128.764	-56.448	34.639	-131.569	-127.018	-123.389	-117.432	32.400	-122.302	-8191	255	
2420.330	1	1	0	0	0.14949	0.04159	0.20303	0.082272	0.17146	0.28626	0.12442	0.15192	0.25028	0.11512	0.11583	0.13388	0.20754	0.099522	0.36797	0.27218	-2.6167	-3.0396	-3.2083	-3.0167	-3.0812	-3.2583	-3.0958	-3.1958	-3.1167	-2.9083	-3.4667	-3.0125	-3.175	-3.1854	-2.9271	-3.3667	207.795	-113.354	4.743	-73.025	-117.160	-50.237	76.264	81.638	57.985	-109.446	-119.741	101.985	69.382	185.034	64.086	147.950	0.00043315	0.00021926	0.00012888	444.92	3.2628e-06	3.9992e-06	752.24	152.58	4.3267e-06	9.7004e-07	290.05	109.1	63.439	29.737	2.3081e-06	53.57	0.00022102	0.00019183	4.8924e-05	432.69	2.3414e-06	2.0776e-06	715.24	149.16	2.3173e-06	2.0656e-06	267.39	102.81	61.078	28.373	1.906e-06	49.58	-85.478	192.310	-28.469	-134.248	36.512	-3.273	-135.809	-128.635	-0.830	-56.794	-131.895	-126.776	-123.511	-117.414	22.262	-122.037	-8191	255	
2420.449	1	1	0	0	0.10637	0.29445	0.15486	0.22726	0.1075	0.15523	0.16522	0.17164	0.057773	0.078153	0.08696	0.44473	0.030262	0.22212	0.10435	0.19921	-2.6917	-2.7125	-3.2104	-2.9813	-2.9958	-3.2646	-2.8979	-3.175	-3.0708	-2.6937	-3.3812	-3.1542	-2.9708	-3.4667	-2.8604	-3.125	146.816	17.459	-30.662	106.681	170.906	89.317	-85.634	-135.399	-95.490	45.965	-109.608	-135.841	179.303	120.798	-124.563	92.666	0.00036071	0.00063439	8.7972e-05	444.8	3.2048e-06	1.8911e-06	752.11	151.5	5.3306e-06	2.4773e-06	282.05	107.44	62.136	29.171	1.5157e-06	52.708	0.00021256	0.00018664	4.8464e-05	435.38	2.2356e-06	2.0358e-06	715.84	147.85	2.2079e-06	2.0018e-06	263.78	101.44	59.758	27.862	1.9968e-06	49.075	-81.237	-135.354	-50.918	-134.539	18.164	29.749	-135.799	-128.588	20.799	79.055	-131.630	-126.879	-123.486	-117.518	9.973	-122.004	-8191	255	
2420.545	1	1	0	0	0.03098	0.26459	0.19936	0.32666	0.41814	0.17161	0.11691	0.3151	0.074412	0.15396	0.28836	0.1868	0.082677	0.076074	0.11298	0.18043	-2.725	-3.0417	-3.1437	-3.0125	-3.0375	-3.3104	-2.9188	-3.0042	-3.2271	-2.8104	-3.4854	-3.0771	-2.8646	-3.5083	-2.9021	-3.0521	-102.040	-82.541	192.286	-121.982	-74.302	33.659	-18.773	106.801	-19.235	73.330	148.211	-121.477	26.512	-9.641	-138.837	64.398	0.00031144	0.00017293	7.3231e-05	444.5	6.2055e-06	5.7174e-06	753.4	148.83	2.5361e-06	4.002e-07	281.11	105.38	61.107	28.573	2.1628e-06	51.632	0.0002022	0.00017745	5.1666e-05	436.24	2.1037e-06	1.962e-06	716.46	146.23	2.0904e-06	1.9203e-06	261.96	99.739	58.529	27.227	2.1276e-06	47.931	-70.283	-136.679	-91.676	-134.769	-14.491	-49.705	-135.972	-128.697	7.968	38.165	-131.770	-127.117	-123.928	-117.168	-66.375	-122.457	-8191	255	
2420.643	1	1	0	0	0.14253	0.23086	0.11907	0.24972	0.21838	0.20077	0.057437	0.28279	0.12147	0.1975	0.12364	0.24467	0.18524	0.14563	0.089692	0.34592	-2.9396	-2.7687	-3.3083	-3.1937	-2.7313	-3.3354	-2.9521	-3.1479	-3.1729	-2.8479	-3.0521	-3.2104	-2.8604	-3.4813	-2.9104	-3.0938	-51.069	30.648	-79.785	-117.636	-13.613	36.765	-60.001	158.471	34.578	66.140	129.218	-43.367	-123.007	188.586	-46.976	183.169	0.00036312	4.8368e-05	8.4981e-05	435.97	5.5432e-06	4.3986e-06	738.4	147.42	3.8565e-06	2.5962e-06	274.5	103	60.291	28.238	1.3812e-06	51.473	0.00019118	0.00016975	5.5073e-05	427.31	1.9958e-06	1.8607e-06	705.57	143.05	2.0154e-06	1.8767e-06	258.37	97.88	57.598	26.877	2.3063e-06	47.534	-77.403	-124.064	-35.108	-134.639	53.267	41.729	-136.030	-128.631	8.467	14.066	-131.615	-127.067	-123.610	-117.557	153.526	-122.121	-8191	255	
2420.738	1	1	0	0	0.23223	0.071854	0.16496	0.1388	0.086227	0.15045	0.057027	0.076406	0.18898	0.19736	0.14571	0.092244	0.080646	0.069635	0.098011	0.078965	-2.8542	-2.775	-3.1521	-3.1042	-2.8667	-3.3271	-3.1542	-2.8458	-3.4625	-2.7271	-3.1542	-3.2938	-2.9146	-3.2479	-3.1917	-3.1021	87.320	-78.996	151.128	-116.861	-44.049	177.454	96.892	-131.328	-51.774	113.633	133.871	-135.602	-125.340	186.163	1.486	-75.395	0.00038012	0.00011186	6.104e-05	442.92	9.1078e-07	2.8138e-06	753.21	149.19	3.9694e-06	4.2804e-06	282.9	106.33	62.012	29.139	1.8659e-06	52.852	0.00018561	0.00017394	5.9541e-05	430.96	1.9592e-06	1.9534e-06	717.51	145.1	1.9476e-06	1.9973e-06	265.13	100.12	59.274	27.863	2.3645e-06	48.72	-79.174	76.392	-124.100	-134.601	-2.255	75.839	-135.582	-128.411	66.883	155.818	-131.884	-126.916	-123.903	-117.528	17.822	-122.189	-8191	255	
2420.834	1	1	0	0	0.18935	0.098592	0.06967	0.1289	0.11483	0.068434	0.32228	0.15456	0.13615	0.20457	0.079209	0.221	0.17296	0.20642	0.10034	0.12367	-3.0021	-2.8708	-3.1354	-3.2458	-2.8583	-3.2562	-3.2229	-2.9708	-3.3438	-2.7979	-3.1688	-3.1813	-2.875	-3.1917	-3.1354	-2.9146	-129.814	192.756	192.394	208.479	92.955	-94.219	87.491	-107.962	-69.666	-21.707	90.030	76.826	175.595	173.079	107.221	158.282	0.00037403	0.00014238	0.00017988	447.77	2.0667e-06	3.8632e-06	755.64	151.67	1.8935e-06	1.9636e-06	285.64	106.75	61.644	28.966	4.7185e-06	52.497	0.0001819	0.00018907	5.9432e-05	434.79	1.8752e-06	2.1317e-06	722.03	146.96	1.8952e-06	2.1921e-06	266.35	100.17	58.903	27.802	2.2763e-06	48.351	-82.849	-122.280	-15.582	-134.350	38.650	-102.567	-135.756	-128.560	25.319	6.507	-131.725	-126.797	-123.258	-117.604	-50.196	-122.097	-8191	255	
2420.930	1	1	0	0	0.23939	0.38321	0.1242	0.1501	0.15869	0.086132	0.19291	0.087203	0.14993	0.085558	0.1115	0.26919	0.31389	0.12842	0.16169	0.21933	-2.8417	-3.0604	-3.2354	-3.2417	-2.9125	-3.3104	-3.1958	-3.1562	-3.0771	-3.1021	-3.1396	-3.2687	-2.8063	-3.075	-3.0458	-2.7583	88.278	-20.605	196.663	164.143	178.449	180.986	77.855	211.786	-77.064	-119.312	125.212	156.804	30.016	135.805	182.663	14.658	0.00041527	0.00015218	2.2239e-05	442.58	3.3489e-06	1.3763e-06	749.62	148.06	3.436e-06	1.8438e-06	279.28	104.7	60.826	28.649	4.6329e-06	51.604	0.00017814	0.00020682	5.6987e-05	428.76	1.8983e-06	2.2912e-06	711.58	144.11	1.9107e-06	2.3193e-06	261.04	98.22	57.84	27.534	2.1615e-06	47.661	-81.582	-134.055	65.039	-134.438	-127.620	9.295	-135.745	-128.416	72.852	65.271	-131.668	-126.917	-123.676	-117.222	-36.811	-122.063	-8191	255	
2421.051	1	1	0	0	0.11434	0.051083	0.20675	0.12203	0.08405	0.067984	0.32254	0.14373	0.12169	0.28695	0.069887	0.099507	0.12636	0.21614	0.19113	0.12982	-2.9437	-2.9062	-3.0417	-3.2042	-2.8417	-2.8979	-3.1708	-2.7562	-3.3688	-3	-3.0333	-3.475	-2.6458	-3.1208	-3.2792	-2.9062	25.144	-75.251	172.719	116.900	-69.674	78.312	111.239	162.223	43.424	115.867	-124.640	169.448	47.702	88.485	-37.358	57.890	0.00037947	0.00012932	2.1999e-05	435.38	3.1647e-06	3.2736e-06	736.51	145.72	5.2448e-06	4.5939e-07	273.17	102.2	59.213	27.849	2.2779e-06	50.347	0.00018616	0.00021434	5.4047e-05	422.57	1.9902e-06	2.3465e-06	702.63	140.77	2.0601e-06	2.3363e-06	254.86	95.981	56.822	26.825	2.0755e-06	46.573	-86.738	-40.906	195.651	-134.516	-96.256	-28.983	-135.871	-128.795	-19.905	60.145	-131.823	-126.910	-123.683	-117.334	-56.101	-122.373	-8191	255	
2421.147	1	1	0	0	0.11109	0.065811	0.064441	0.14472	0.077525	0.26095	0.23705	0.157	0.25064	0.038698	0.10875	0.10432	0.12645	0.27676	0.15686	0.0438	-2.5667	-3.1813	-2.8542	-3.2167	-2.8917	-3.025	-3.2062	-2.6875	-3.1625	-3.0396	-2.95	-3.3708	-2.8292	-3.2479	-3.2708	-3.0458	111.769	57.693	-145.149	129.359	119.162	173.917	140.483	-37.067	-78.975	112.184	-15.895	-134.969	132.684	-107.001	-2.866	-4.816	0.00038193	0.00046907	0.00013651	436.85	1.6766e-06	4.9832e-06	737.71	146.76	6.0987e-06	4.7276e-06	277.92	104.35	60.743	28.764	8.1348e-06	51.766	0.00020121	0.00020968	5.195e-05	421.43	2.1816e-06	2.2718e-06	702.22	141.68	2.2417e-06	2.2483e-06	258.04	97.857	58.887	27.557	2.0053e-06	47.916	-88.178	-51.880	-56.630	-134.686	65.488	50.125	-136.069	-128.810	-110.164	61.013	-131.627	-126.815	-123.584	-117.643	-30.062	-122.127	-8191	255	
2421.243	1	1	0	0	0.13781	0.12611	0.16636	0.18466	0.15343	0.23946	0.22102	0.09935	0.26266	0.11869	0.17514	0.03913	0.28343	0.30843	0.084874	0.14563	-2.7646	-3.0542	-2.8521	-3.2021	-3.0167	-2.8708	-3.5021	-2.8604	-3.1667	-3.025	-2.8563	-3.0771	-2.9833	-3.0771	-3.3354	-2.9521	191.481	105.983	-91.178	31.226	-85.861	84.898	89.101	5.362	-52.111	-9.531	-145.344	190.352	136.349	-145.130	98.363	130.265	0.00041356	0.00051281	0.00016483	440.35	1.1089e-06	4.6949e-06	753.47	152.22	1.6636e-06	3.9559e-06	286.15	108.27	63.315	29.48	3.9305e-06	52.991	0.00021461	0.00019973	5.0321e-05	429.23	2.3252e-06	2.1765e-06	714.76	146.95	2.35e-06	2.1532e-06	264.81	101.25	61.033	28.216	1.941e-06	49.07	-80.399	-17.846	-89.141	-134.450	-4.872	-27.466	-135.786	-128.648	-88.201	-16.476	-131.473	-126.768	-123.714	-117.504	-9.538	-122.299	-8191	255	
2421.364	1	1	0	0	0.45477	0.18001	0.12506	0.054184	0.18685	0.22122	0.14736	0.11955	0.11535	0.24158	0.069446	0.1269	0.086626	0.19936	0.15383	0.31136	-2.7	-3.0375	-2.6958	-3.2896	-2.9542	-2.8333	-3.3083	-2.8125	-3.2062	-3.0417	-2.9667	-3.2167	-3.3104	-2.8854	-3.3688	-2.9083	39.165	128.975	10.157	143.342	-93.960	-9.010	-122.674	197.763	138.813	-146.055	172.696	154.210	150.826	129.416	194.206	130.987	0.00038513	0.00049799	5.2516e-05	446.79	1.3616e-06	6.0199e-06	755.84	152.63	7.9034e-06	4.2349e-06	283.87	107.72	63.371	29.619	3.2428e-06	53.514	0.00022156	0.00019099	4.8727e-05	433.78	2.3471e-06	2.092e-06	716.98	148.2	2.3316e-06	2.0894e-06	264.38	101.81	60.926	28.3	1.9127e-06	49.591	-79.441	-88.255	-24.087	-134.659	-5.336	0.599	-135.829	-128.785	14.193	-66.794	-131.724	-126.783	-123.730	-117.086	-40.206	-122.045	-8191	255	
2421.435	1	1	0	0	0.15927	0.19062	0.16303	0.27375	0.20022	0.22347	0.055569	0.32713	0.10291	0.24037	0.13737	0.067656	0.12635	0.092421	0.1531	0.038317	-2.525	-3.1208	-2.8021	-3.225	-2.9604	-2.9292	-3.3646	-2.8292	-3.0292	-3.3208	-2.8125	-3.2188	-3.1167	-2.9562	-3.2333	-3.1354	-91.995	-143.908	2.822	-115.529	127.198	196.596	-78.452	-26.119	154.055	197.513	36.674	175.163	170.958	-98.800	-22.189	3.341	0.00044192	0.00014868	7.2063e-05	446.16	1.9854e-06	5.7884e-06	754.04	152.84	6.527e-06	4.7235e-07	285.3	107.23	62.459	29.545	8.7898e-07	52.927	0.00021197	0.00018761	4.835e-05	435.08	2.246e-06	2.0108e-06	716.85	148.78	2.2185e-06	2.0029e-06	264.98	101.83	60.268	28.101	1.9715e-06	49.048	-82.629	-56.040	-39.521	-134.628	-4.992	-40.648	-135.874	-128.876	51.916	143.520	-131.935	-126.867	-123.654	-117.127	-111.494	-122.321	-8191	255	
2421.530	1	1	0	0	0.11015	0.25465	0.13748	0.29052	0.1745	0.13909	0.099357	0.084811	0.1178	0.096554	0.1723	0.044804	0.050273	0.078294	0.21433	0.26809	-2.525	-3.1063	-2.9125	-3.0875	-3.1958	-2.7667	-3.3354	-3.025	-2.9646	-3.225	-2.8396	-3.3458	-3.1208	-3.0479	-3.2438	-3.0875	-45.027	18.565	-88.557	-95.134	-59.219	-5.700	-143.016	168.941	180.703	-98.798	153.187	123.461	-130.323	-64.904	177.967	193.573	0.00037767	0.00012765	4.9276e-05	440.17	4.4219e-06	3.0083e-06	747.61	149.37	5.7152e-06	2.4962e-06	280.38	105.66	61.164	29.138	1.7725e-06	52.826	0.00020275	0.00017822	5.0793e-05	431.61	2.137e-06	1.9455e-06	710.82	145.78	2.1078e-06	1.9297e-06	261.19	99.888	58.968	27.863	2.1223e-06	48.914	-69.390	-111.320	3.178	-134.461	78.190	-55.292	-135.955	-128.638	64.351	41.037	-131.961	-126.931	-123.574	-117.351	-145.824	-122.151	-8191	255	
2421.626	1	1	0	0	0.13666	0.1538	0.11725	0.21568	0.073653	0.14945	0.076557	0.1601	0.061985	0.16515	0.14962	0.14179	0.067094	0.14751	0.1752	0.31887	-2.5792	-3.2458	-2.6875	-3.0958	-3.2	-2.8542	-3.2313	-3.25	-2.95	-3.3146	-3.0062	-3.125	-3.2875	-2.8646	-3.2854	-3.1396	-17.585	12.913	-79.792	-129.900	-77.075	137.168	-42.006	164.952	53.942	-51.191	149.286	154.436	160.291	125.803	-72.925	127.589	0.00041586	0.00034247	8.3033e-05	445.22	2.7408e-06	1.2794e-06	754.04	153.26	1.7221e-06	1.205e-06	285.41	108.77	63.62	30.182	1.0019e-06	53.682	0.00019424	0.00017414	5.574e-05	435.32	2.0711e-06	1.8981e-06	719.14	149.13	2.0289e-06	1.8924e-06	267.93	102.15	60.419	28.599	2.3243e-06	49.822	-85.500	-137.157	137.232	-134.489	50.109	-39.134	-136.078	-128.436	-113.810	-43.488	-131.835	-126.979	-123.656	-117.700	197.835	-122.184	-8191	255	
2421.746	1	1	0	0	0.066389	0.062774	0.13266	0.28676	0.099303	0.27837	0.11363	0.10572	0.25304	0.16088	0.24358	0.21962	0.17246	0.080277	0.17308	0.083251	-2.475	-3.3792	-2.8396	-3.0354	-3.1396	-2.875	-3.2333	-3.125	-2.9667	-3.3521	-3.0771	-3.0854	-3.2917	-2.9271	-2.9729	-3.2521	83.496	-63.905	66.728	209.605	57.239	95.575	211.362	-104.544	-114.868	20.392	181.104	-100.246	-82.105	135.613	-125.866	-134.878	0.00040191	0.00042489	0.00010055	445.97	1.5431e-06	1.2273e-06	757.61	152.16	3.48e-06	1.0895e-06	283.58	106.25	61.636	29.136	5.1836e-06	52.581	0.00018904	0.00017532	5.9865e-05	436.45	1.9887e-06	1.944e-06	723.02	148.31	1.9739e-06	1.9716e-06	266.07	99.75	58.729	27.895	2.3709e-06	48.584	-87.484	-67.180	-98.695	-134.589	-42.079	-40.802	-135.834	-128.702	21.072	179.140	-131.778	-126.902	-123.373	-117.143	49.221	-122.030	-8191	255	
2421.843	1	1	0	0	0.2568	0.12414	0.068125	0.2572	0.20366	0.2467	0.078504	0.26722	0.18351	0.094777	0.06932	0.28146	0.29389	0.060468	0.24401	0.26244	-2.3812	-3.1562	-2.8104	-3.1188	-3.5458	-2.9354	-3.1021	-3.1146	-2.9521	-3.2479	-3.2854	-2.8604	-3.3604	-2.8521	-3.1417	-3.2979	48.548	28.768	-115.204	149.002	85.876	185.560	-69.902	121.783	-54.585	34.049	-116.413	166.837	-91.425	-133.434	-37.800	-110.268	0.00041913	0.00011812	0.0001159	437.96	2.3092e-06	3.3046e-06	740.32	149.54	1.8513e-06	1.4568e-06	279.59	103.77	60.169	28.703	5.1543e-06	52.036	0.00018388	0.00018917	5.9706e-05	428.73	1.9184e-06	2.1263e-06	710.74	144.91	1.9028e-06	2.1716e-06	261.94	98.143	57.426	27.62	2.2902e-06	48.211	-94.919	-110.199	-118.302	-134.282	-25.606	-115.228	-135.869	-128.665	9.715	-76.176	-132.019	-126.954	-123.480	-117.210	-3.155	-122.248	-8191	255	
2421.939	1	1	0	0	0.26688	0.038132	0.12151	0.11352	0.15567	0.24386	0.23004	0.20061	0.1556	0.09146	0.15105	0.12811	0.051369	0.27533	0.12532	0.1328	-2.4729	-3.2854	-3.0187	-3.0312	-3.0958	-3.0812	-3.0917	-3.2646	-2.9167	-3.075	-3.0979	-2.7	-3.2833	-2.9604	-3.0667	-3.5354	194.370	170.562	-118.560	116.690	-79.293	-135.413	106.156	198.449	74.980	-73.088	80.547	141.580	185.131	187.446	178.966	109.947	0.0003775	0.00037439	0.00016812	434.48	3.1559e-07	5.4312e-06	735.61	146.27	4.4667e-06	3.7397e-06	273.78	101.23	58.213	28.269	3.8429e-06	51.029	0.00017923	0.00020528	5.7466e-05	423.72	1.8819e-06	2.2748e-06	700.76	142.21	1.9053e-06	2.3184e-06	256.17	95.402	55.908	27.152	2.1869e-06	47.234	-77.996	-116.010	16.360	-134.387	105.951	157.898	-135.821	-128.772	-92.365	-43.115	-131.844	-126.804	-123.526	-117.514	18.142	-121.898	-8191	255	
2422.010	1	1	0	0	0.081558	0.19019	0.13798	0.17488	0.20825	0.091603	0.091675	0.2234	0.26352	0.082755	0.18098	0.13682	0.029499	0.16301	0.46631	0.20017	-2.4437	-3.1667	-3.1083	-2.7917	-3.3312	-2.9542	-3.2354	-3.2917	-2.8563	-3.2125	-3.1604	-2.8708	-3.2313	-3.2854	-3.0021	-3.3333	-102.856	-130.090	50.810	102.913	81.658	139.690	56.001	123.427	179.397	103.994	-120.381	-131.591	-116.447	113.223	-55.742	196.915	0.00037019	0.00021278	0.00013624	432.54	3.644e-06	2.8106e-06	734.12	147.03	1.0804e-06	1.6731e-06	276.67	103.27	59.635	29.156	4.9983e-06	52.418	0.00018501	0.00021587	5.4781e-05	419.99	1.9929e-06	2.3441e-06	697.42	142.61	2.0497e-06	2.3545e-06	258.68	97.101	57.543	27.974	2.0988e-06	48.448	-85.431	98.752	-15.910	-134.347	-101.583	-33.198	-135.750	-128.730	172.316	12.119	-131.862	-126.661	-124.028	-117.432	34.713	-121.922	-8191	255	
2422.131	1	1	0	0	0.10314	0.070489	0.18236	0.31111	0.22209	0.17861	0.12208	0.17033	0.14537	0.22972	0.12342	0.098964	0.057569	0.038982	0.11663	0.25724	-2.5875	-2.9708	-3.1896	-2.9583	-3.0729	-2.9958	-3.1	-3.2333	-3.05	-3.0708	-3.2167	-2.9646	-3.2812	-3.1917	-2.9	-3.4271	61.163	-63.651	102.931	129.605	-104.502	68.051	123.222	80.232	-40.282	179.127	-66.030	194.705	28.193	43.704	176.196	-74.696	0.00046803	0.00041889	0.00015875	443.69	3.0686e-06	4.6953e-06	749.32	153.4	2.657e-06	2.647e-06	285.2	106.95	61.973	29.786	2.6303e-06	53.807	0.00020302	0.00021287	5.3052e-05	429.11	2.2017e-06	2.3266e-06	712.75	148.03	2.2364e-06	2.3092e-06	265.21	100.24	60.004	28.574	2.024e-06	49.368	-86.561	-111.530	-55.804	-134.409	-43.342	8.749	-135.906	-128.634	-25.680	49.093	-131.716	-126.938	-123.492	-117.418	-53.432	-121.854	-8191	255	
2422.227	1	1	0	0	0.18568	0.13623	0.30171	0.059152	0.13355	0.12062	0.23119	0.19576	0.068594	0.25801	0.31911	0.22267	0.10366	0.359	0.14498	0.11336	-2.5	-2.8917	-3.1729	-2.7562	-2.9167	-3.2062	-2.8979	-3.325	-3.0125	-2.8812	-3.2417	-3.0125	-3.0333	-3.1458	-2.6354	-3.3625	9.386	49.042	90.199	145.945	84.875	99.532	118.021	59.435	139.774	-10.611	120.856	162.656	-34.458	98.304	11.789	87.559	0.000427	0.00022375	7.0537e-05	445.59	1.3808e-06	3.2665e-06	749.43	151.63	5.2697e-06	2.888e-06	282.49	105.68	61.487	29.406	5.9001e-07	52.494	0.00021766	0.00020453	5.1592e-05	432.37	2.3123e-06	2.2104e-06	713.81	146.79	2.3422e-06	2.1512e-06	261.96	99.099	59.368	28.001	1.9651e-06	48.557	-88.336	-40.085	-97.973	-134.223	-9.333	-66.867	-136.032	-128.605	66.169	-5.392	-131.865	-126.799	-124.050	-117.264	65.760	-122.158	-8191	255	
2422.323	1	1	0	0	0.22771	0.09323	0.23763	0.1483	0.14494	0.11315	0.19972	0.16771	0.20633	0.058541	0.15701	0.1609	0.13377	0.31813	0.30738	0.051044	-2.6146	-2.8896	-3.2521	-3.0292	-3.0729	-3.2167	-2.7833	-3.4083	-3.1375	-2.9396	-3.2667	-2.9271	-3.0479	-3.1396	-3.1125	-3.2229	-63.859	-68.177	179.279	49.434	47.098	105.656	208.860	179.107	-101.116	128.045	76.050	-136.424	86.111	-74.058	40.671	65.943	0.00036894	0.00042498	0.00015322	448.27	4.4094e-06	3.0149e-06	755.23	149.4	2.4523e-06	2.6839e-06	277.5	104.02	59.928	28.828	1.526e-06	51.342	0.00022366	0.00019265	4.9274e-05	434.68	2.369e-06	2.1151e-06	714.62	145.71	2.3515e-06	2.0794e-06	258.43	98.027	58.228	27.454	1.9157e-06	47.878	-78.009	-58.013	-13.200	-134.730	7.159	30.648	-135.963	-128.809	-13.936	60.011	-131.879	-126.717	-123.495	-117.298	-136.239	-122.030	-8191	255	
2422.444	1	1	0	0	0.086761	0.17087	0.087346	0.065673	0.14189	0.056586	0.21259	0.16636	0.098126	0.074385	0.10151	0.10536	0.12917	0.055763	0.097779	0.02197	-2.6896	-2.9375	-3.3458	-3.1042	-2.8979	-3.3521	-3.0458	-3.1458	-3.1479	-3.0146	-3.1937	-3.0708	-2.8917	-3.1125	-2.8438	-3.2667	165.867	-95.114	6.818	185.237	192.536	-13.519	-133.096	-77.971	-139.827	144.970	88.948	162.877	203.431	87.230	81.958	-90.690	0.0003701	0.00031714	1.1541e-05	439.38	3.548e-06	4.5543e-07	744.81	147.44	2.9074e-06	2.5356e-06	274.42	102.61	59.536	28.744	2.6613e-06	52.106	0.00021652	0.0001873	4.8284e-05	430.09	2.2574e-06	2.0449e-06	704.66	143.98	2.229e-06	2.0096e-06	255.27	97.395	57.585	27.432	1.9568e-06	48.428	-84.158	-46.889	61.813	-134.787	76.943	-44.808	-135.921	-128.261	15.943	23.018	-131.343	-126.860	-123.698	-117.312	-80.882	-121.881	-8191	255	
2422.540	1	1	0	0	0.084968	0.14538	0.21479	0.058566	0.48276	0.2024	0.28731	0.13083	0.19974	0.21815	0.25893	0.098971	0.075308	0.20262	0.11602	0.25264	-2.7792	-2.8063	-3.1375	-3.0104	-3.0083	-3.3625	-2.9813	-3.1937	-3.3021	-2.7729	-3.3646	-3.1979	-2.9313	-3.425	-2.8854	-3.1375	201.201	194.351	58.021	101.112	71.207	56.805	162.695	156.106	54.984	107.108	179.921	63.389	-112.796	-53.773	-14.483	204.521	0.00035846	0.00052511	9.474e-05	444.19	4.1129e-06	2.7088e-06	749.67	152.32	7.4873e-06	5.5622e-06	286	107.08	62.746	30.143	3.3739e-06	54.434	0.00020333	0.00018167	5.0003e-05	435.16	2.1556e-06	1.9547e-06	714.18	149.2	2.1416e-06	1.9281e-06	266.51	101.5	60.104	28.702	2.1064e-06	50.444	-74.129	-98.745	-21.466	-134.546	-14.441	-26.310	-135.928	-128.680	41.875	-27.253	-131.731	-126.913	-123.289	-117.322	-73.918	-122.078	-8191	255	
2422.612	1	1	0	0	0.1837	0.23003	0.11932	0.018436	0.090948	0.13167	0.28969	0.097535	0.14543	0.19267	0.1428	0.14141	0.19243	0.18562	0.16602	0.14404	-2.8125	-2.7	-2.9688	-2.9604	-2.6708	-3.2583	-2.9958	-3.1208	-3.275	-2.8667	-3.2333	-3.1125	-2.5229	-3.2792	-2.8021	-3.0729	-86.300	-49.034	90.782	-69.463	78.645	39.199	162.341	-73.401	0.006	164.527	205.192	-22.825	105.675	123.354	32.898	14.800	0.00038015	0.00024355	8.2658e-05	452.3	5.2874e-06	4.2552e-06	761.09	155.25	5.1268e-06	3.8348e-06	289.15	108.61	62.637	30.351	4.1552e-06	53.976	0.00019912	0.00017576	5.5216e-05	442.05	2.0889e-06	1.9246e-06	726.9	151.88	2.0818e-06	1.9163e-06	269.93	102.33	60.138	28.806	2.3292e-06	50.192	-85.924	-143.600	-59.078	-134.496	30.091	-1.467	-135.822	-128.567	37.292	19.834	-131.367	-126.638	-123.565	-117.017	-96.787	-122.149	-8191	255	
2422.731	1	1	0	0	0.22014	0.096574	0.074411	0.17235	0.11589	0.18596	0.11468	0.060769	0.2319	0.12048	0.074008	0.05358	0.181	0.066233	0.26464	0.11387	-2.8875	-2.925	-3.1437	-3.1896	-2.8667	-3.325	-3.0104	-3.1688	-3.3021	-2.7604	-3.2521	-2.9833	-2.7333	-3.4375	-2.8792	-2.8125	168.251	-140.512	-133.926	143.362	98.340	179.745	160.781	10.907	136.321	35.384	-42.154	-111.716	85.920	-140.040	14.658	154.951	0.00038752	6.2777e-05	5.6181e-05	450.37	5.3471e-06	1.0923e-06	760.45	154.37	4.0088e-06	2.075e-06	286.22	108.08	62.519	30.164	2.3508e-06	54.033	0.00019254	0.00017898	5.9592e-05	439.94	2.0262e-06	1.967e-06	725.67	149.77	2.014e-06	2.0019e-06	269.28	101.78	59.699	28.812	2.3983e-06	50.136	-86.848	-99.707	12.347	-134.231	43.051	-106.882	-135.809	-128.541	61.909	173.081	-131.648	-126.664	-123.441	-117.374	-15.276	-122.220	-8191	255	
2422.827	1	1	0	0	0.10917	0.19972	0.39943	0.25244	0.19216	0.27584	0.1515	0.087992	0.05711	0.23448	0.19851	0.22948	0.079299	0.10019	0.24929	0.15883	-2.7604	-2.6896	-2.9938	-2.9479	-2.8729	-3.1458	-3.0708	-2.7833	-3.2625	-2.9313	-3.1479	-3.2792	-2.7417	-3.1813	-3.0792	-3.0812	51.020	133.818	180.302	191.210	201.599	-28.974	58.805	178.266	-106.501	-144.060	-15.386	142.996	22.797	199.179	-50.836	171.060	0.00042652	0.00013652	9.6567e-05	448.96	1.7197e-06	1.2087e-06	760.92	152.57	2.1212e-06	3.5345e-06	282.47	105.58	61.365	29.628	4.1707e-06	53.093	0.00018693	0.00019307	6.1147e-05	438.38	1.9507e-06	2.1537e-06	727.41	148.1	1.9576e-06	2.1938e-06	265.59	99.623	58.383	28.383	2.3668e-06	49.013	-79.886	195.600	-74.693	-134.461	-43.663	162.784	-136.137	-128.611	51.141	1.212	-131.468	-126.643	-123.832	-117.589	-5.245	-122.110	-8191	255	
2422.923	1	1	0	0	0.21269	0.21385	0.2436	0.16717	0.1385	0.036449	0.28559	0.22514	0.21551	0.10451	0.31421	0.32566	0.082073	0.15016	0.23495	0.087752	-2.8333	-3.0458	-2.9375	-3.2229	-2.7438	-3.1312	-3.0667	-2.7979	-3.3896	-2.9792	-3.0875	-3.325	-2.9167	-3.1625	-3.0958	-2.9333	179.760	138.049	211.345	170.608	198.824	195.472	95.671	120.253	39.434	-40.220	29.680	141.258	100.859	-106.470	69.083	183.262	0.00047494	0.00013958	0.00010229	443.38	4.9459e-06	1.0084e-06	750.08	151.01	4.5596e-06	2.7145e-06	283.73	105.17	61.456	30.091	2.8869e-06	54.154	0.0001819	0.0002074	5.8906e-05	432.14	1.9304e-06	2.308e-06	715.96	146.95	1.9273e-06	2.3292e-06	264.47	99.195	58.601	28.843	2.2358e-06	49.82	-80.913	-65.746	-26.033	-134.258	-28.789	-0.975	-135.998	-128.573	-76.429	62.065	-131.604	-127.058	-123.508	-117.531	-22.229	-122.078	-8191	255	
2423.044	1	1	0	0	0.28194	0.152	0.18456	0.025015	0.2017	0.14066	0.20401	0.10134	0.16506	0.021953	0.25447	0.014633	0.13672	0.12378	0.24992	0.20391	-3.0167	-3.0187	-2.8937	-3.3	-2.8063	-3.0375	-3.1188	-2.975	-3.2438	-2.9062	-2.8708	-3.5375	-2.8167	-3.15	-3.2	-2.8521	-102.231	167.053	49.121	126.991	-45.615	-131.474	127.484	-1.204	-71.941	-130.875	208.793	159.491	91.223	68.018	97.290	178.144	0.00046551	0.00028608	0.00020787	447.84	1.5989e-06	3.6651e-06	752.07	155.33	8.871e-07	3.5927e-06	289.25	107.25	62.376	30.486	6.1729e-07	54.402	0.00018588	0.00021504	5.5482e-05	433.84	2.0096e-06	2.387e-06	717.94	150.42	2.0555e-06	2.3985e-06	269.75	100.54	59.849	29.197	2.1203e-06	49.993	-88.284	-74.567	-33.544	-134.277	-103.815	66.860	-135.562	-128.738	44.140	-15.982	-132.034	-126.523	-123.393	-117.158	-75.215	-122.271	-8191	255	
2423.140	1	1	0	0	0.17938	0.1571	0.17167	0.18958	0.2289	0.12333	0.27442	0.056947	0.19448	0.10593	0.18876	0.17818	0.13106	0.21093	0.13756	0.15422	-2.9021	-2.9729	-2.8979	-3.3833	-2.9229	-3.0333	-3.4708	-2.8333	-3.2188	-3.0521	-2.8604	-3.3896	-2.8146	-3.1542	-3.3875	-2.8937	-115.218	76.302	-38.779	-70.501	93.671	-77.710	81.266	-47.139	-9.261	150.151	189.861	-140.614	119.910	181.442	47.136	138.479	0.00041553	0.00050619	0.00017473	448.51	1.7351e-06	6.969e-06	750.46	152.97	1.336e-06	2.8047e-06	284.02	105.12	61.139	29.682	2.3081e-06	52.856	0.00020193	0.0002168	5.2985e-05	433.06	2.1853e-06	2.348e-06	714.04	147.98	2.2194e-06	2.3002e-06	263.71	98.607	58.799	28.403	2.0702e-06	48.934	-94.693	-106.590	32.028	-134.417	-125.854	11.129	-135.825	-128.786	-128.891	80.853	-131.623	-126.765	-123.377	-117.139	-54.445	-122.126	-8191	255	
2423.236	1	1	0	0	0.20807	0.38829	0.1444	0.27409	0.21832	0.23231	0.26917	0.069163	0.075075	0.042194	0.054602	0.099033	0.062824	0.18712	0.2486	0.092808	-2.8333	-3.1063	-2.8104	-3.1792	-2.8854	-2.9729	-3.3812	-2.8542	-3.1875	-3.2188	-2.9396	-3.3104	-3.2042	-3.0021	-3.2958	-2.9583	-27.214	120.792	60.883	16.531	-72.419	141.330	109.582	48.488	99.869	-146.487	206.041	65.282	-57.309	-0.918	194.930	119.138	0.00043368	0.000601	4.4413e-05	443.16	9.1873e-07	3.0598e-06	746.21	151.46	2.1322e-06	5.0585e-06	279.86	103.68	59.774	29.122	1.6176e-06	52.035	0.00021603	0.00020551	5.1487e-05	430.44	2.3205e-06	2.2127e-06	709.69	146.32	2.3468e-06	2.1971e-06	260.51	97.534	58.091	27.821	1.9712e-06	48.247	-87.891	-103.618	-64.805	-134.570	-95.888	-30.675	-135.975	-128.664	11.343	23.909	-131.744	-126.832	-123.568	-117.181	115.077	-122.278	-8191	255	
2423.308	1	1	0	0	0.070107	0.10819	0.36769	0.08483	0.035304	0.12698	0.3184	0.14336	0.1327	0.17703	0.17926	0.16702	0.098569	0.073825	0.23796	0.15665	-2.6042	-3.1667	-2.6688	-3.35	-2.9979	-2.8563	-3.4688	-2.8917	-3.0312	-3.1896	-2.8521	-3.2438	-3.1521	-2.8521	-3.3688	-3.0854	169.165	191.489	13.683	170.202	54.652	121.224	50.318	12.182	195.579	-39.289	77.568	10.891	-87.328	-91.656	96.365	-140.005	0.00034156	0.00057563	0.0001348	436.95	2.5234e-06	4.6772e-06	737.19	148.44	3.7245e-06	4.6965e-06	276.12	102.12	59.529	29.06	1.8062e-06	52.071	0.00022123	0.00019488	4.948e-05	427.05	2.3562e-06	2.0884e-06	701.24	144.46	2.3187e-06	2.0739e-06	256.64	96.685	57.802	27.764	1.8786e-06	48.56	-83.566	-87.453	-34.941	-134.274	25.561	-6.241	-135.934	-128.596	18.409	38.674	-131.701	-126.959	-123.123	-117.646	-19.952	-122.263	-8191	255	
2423.404	1	1	0	0	0.04363	0.063621	0.24952	0.14556	0.16841	0.25198	0.14399	0.11038	0.35658	0.072225	0.14744	0.062514	0.22819	0.33034	0.35274	0.18189	-2.5062	-3.2583	-2.8229	-3.2271	-3.0896	-2.8833	-3.2792	-2.9167	-3.0062	-3.3417	-3.0146	-3.2708	-3.0208	-2.9021	-3.1896	-3.0146	72.691	152.331	-18.235	-87.997	96.843	-42.161	109.683	-121.638	-49.709	185.823	85.030	-95.813	-25.418	-82.194	166.010	152.759	0.00034073	0.00037676	0.00012356	442.91	5.6858e-06	5.6417e-06	748.56	154.29	2.6651e-06	2.8884e-06	285.61	106.08	61.883	30.284	2.2881e-06	54.049	0.00021309	0.00018738	4.8176e-05	432.58	2.2739e-06	2.0382e-06	709.63	149.83	2.244e-06	2.0282e-06	264.89	100.48	59.693	28.812	1.9526e-06	50.225	-86.144	-99.175	-8.069	-134.317	44.607	-90.406	-135.779	-128.820	56.144	34.514	-131.688	-126.687	-123.502	-117.186	-61.708	-122.101	-8191	255	
2423.523	1	1	0	0	0.31273	0.094679	0.077108	0.20078	0.13592	0.22352	0.11627	0.34348	0.36857	0.20533	0.1581	0.14069	0.20003	0.089447	0.14421	0.13023	-2.4021	-3.1229	-3.0146	-3.1	-3.2188	-2.9	-3.4333	-3.0833	-2.8333	-3.3396	-2.8688	-3.2875	-3.1708	-2.7167	-3.1542	-3.1021	-59.151	-36.899	-55.811	-128.872	72.687	-72.457	-131.038	126.499	28.090	106.982	38.390	156.955	43.958	114.659	116.054	-146.311	0.00043372	0.00064066	0.00016022	451.16	5.196e-06	1.6087e-06	756.54	155.51	2.6545e-06	4.0698e-06	286.29	106.18	62.168	30.175	8.0398e-07	53.695	0.00020498	0.00018214	5.0525e-05	441.19	2.1722e-06	1.9718e-06	718.78	152.06	2.1592e-06	1.9496e-06	267.07	100.82	59.453	28.678	2.0892e-06	49.924	-86.191	-72.819	-70.151	-134.230	-5.077	7.377	-135.859	-128.436	-15.595	93.059	-131.567	-126.709	-123.239	-117.420	-122.731	-122.198	-8191	255	
2423.619	1	1	0	0	0.16507	0.21276	0.21045	0.25122	0.039432	0.12904	0.22099	0.076338	0.13547	0.082614	0.051827	0.047496	0.053315	0.20098	0.20723	0.18301	-2.525	-2.925	-3.0521	-3.2083	-3.2208	-2.85	-3.325	-3.2729	-2.9667	-3.4354	-2.9167	-3.0375	-3.3333	-2.8083	-3.0729	-3.1458	119.429	-144.776	208.870	201.556	-0.613	168.571	114.241	203.756	-72.517	118.455	185.918	201.796	95.562	133.183	161.575	141.984	0.00037548	0.00026277	4.6129e-05	442.87	3.0854e-06	3.3566e-06	748.24	152.97	2.723e-06	3.8741e-06	284.41	105.25	61.099	29.776	2.6872e-06	53.022	0.00019763	0.00017524	5.3755e-05	434.59	2.0566e-06	1.8848e-06	712.95	149.41	2.0593e-06	1.8796e-06	265.74	99.507	58.374	28.277	2.2778e-06	49.276	-81.013	-101.344	-144.599	-134.465	-89.164	-37.266	-135.839	-128.579	9.591	31.051	-131.514	-126.553	-123.344	-117.139	-145.405	-121.915	-8191	255	
2423.715	1	1	0	0	0.15413	0.088988	0.15619	0.10299	0.098649	0.17829	0.11623	0.11301	0.2706	0.0058021	0.067299	0.077332	0.09228	0.20372	0.074308	0.085767	-2.5208	-3.2875	-3.0187	-3.2646	-3.1229	-2.6917	-3.2875	-3.1771	-2.8958	-3.3688	-3.2646	-2.9813	-3.2812	-2.9667	-3.2	-3.3854	-70.697	-95.351	63.519	147.537	-142.431	-1.012	204.554	113.692	89.586	-82.042	170.050	188.036	148.773	149.062	148.054	-17.028	0.00033386	0.00039539	9.1429e-05	443.39	4.4161e-06	2.4193e-06	741.75	149.99	1.6954e-06	2.5341e-06	276.91	102.03	59.053	28.739	3.9682e-06	51.988	0.00018856	0.00017474	5.8524e-05	432.11	1.991e-06	1.9234e-06	708.55	145.84	1.973e-06	1.97e-06	259.9	96.624	56.532	27.464	2.3701e-06	48.005	-77.109	-102.953	-33.030	-134.377	33.506	193.385	-135.879	-128.756	-32.957	-29.121	-131.638	-126.303	-124.254	-117.195	-30.037	-122.030	-8191	255	
2423.813	1	1	0	0	0.14919	0.20738	0.23093	0.076433	0.082833	0.1639	0.16214	0.27241	0.061865	0.18552	0.17513	0.077642	0.21653	0.16934	0.30611	0.2933	-2.3187	-3.3292	-3.0479	-3.0771	-3.1792	-2.9146	-3.0938	-3.2313	-2.8812	-3.3625	-3.1104	-2.9625	-3.3542	-3.1583	-3.2708	-3.225	-119.333	70.032	146.073	170.808	-105.894	80.676	166.315	179.310	17.542	184.577	204.009	173.666	185.306	-121.385	-91.261	168.718	0.00034679	0.0002588	0.00016112	442.02	2.2223e-06	1.1124e-06	744.16	151.34	5.7002e-06	7.9726e-07	281.97	104.36	61.1	29.69	1.4731e-06	53.439	0.00018241	0.00018647	6.0041e-05	429.24	1.9145e-06	2.0751e-06	709.48	146.76	1.9005e-06	2.0959e-06	264.69	98.762	58.342	28.538	2.3164e-06	49.482	-78.223	177.877	-49.169	-134.470	28.164	-109.770	-135.938	-128.586	60.374	-51.787	-131.728	-126.847	-123.330	-117.225	-108.056	-122.031	-8191	255	
2423.907	1	1	0	0	0.16092	0.14426	0.053911	0.37382	0.16579	0.13033	0.073316	0.1043	0.097561	0.27992	0.16417	0.13143	0.2349	0.19056	0.23287	0.35664	-2.5583	-3.0604	-3.05	-2.85	-3.4	-2.9542	-3.1979	-3.2167	-2.8438	-3.1021	-3.3521	-2.8208	-3.2646	-3.0438	-3.1542	-3.4417	-131.885	105.333	-106.307	206.980	-92.515	-141.799	134.467	-134.426	-15.459	82.038	155.974	129.513	15.848	125.113	0.506	211.519	0.0003862	0.00029855	0.00010866	451.82	1.5783e-06	2.3441e-06	760.51	156.73	4.1867e-06	7.6018e-07	288.93	107.66	62.594	30.242	3.6856e-06	53.719	0.00017874	0.0002011	5.8513e-05	438.57	1.8921e-06	2.2568e-06	724.92	151.48	1.9017e-06	2.2844e-06	270.31	101.01	59.703	29.077	2.214e-06	49.637	-76.248	-98.028	2.631	-134.500	-144.868	4.656	-135.717	-128.849	49.556	32.531	-131.634	-126.503	-123.536	-117.077	4.610	-122.041	-8191	255	
2424.003	1	1	0	0	0.14993	0.012272	0.091107	0.078832	0.1013	0.091443	0.19062	0.26992	0.26829	0.24432	0.25304	0.11439	0.1237	0.10717	0.12308	0.13568	-2.4083	-3.2771	-3.0979	-2.8563	-3.2313	-3.0729	-2.9958	-3.6333	-2.8167	-3.3229	-3.2375	-2.9104	-3.2125	-3.05	-2.9688	-3.3292	-36.607	-99.416	-30.087	186.475	121.490	-137.018	133.866	181.969	152.695	-122.883	175.150	145.893	-109.063	191.653	147.130	105.682	0.00037937	0.0002016	7.9869e-05	447.02	1.1757e-06	4.5597e-06	753.91	153.32	1.9808e-06	3.4772e-06	283.22	104.6	60.675	29.479	3.5407e-06	52.698	0.00018429	0.00021336	5.5822e-05	436.16	1.9735e-06	2.3658e-06	717.11	148.21	2.0176e-06	2.3586e-06	263.78	98.209	58.375	28.292	2.0796e-06	48.77	-82.510	-117.762	-35.516	-134.411	198.178	-52.080	-136.011	-128.557	-63.198	-18.579	-131.699	-126.776	-123.472	-117.462	9.107	-122.109	-8191	255	
2424.124	1	1	0	0	0.10182	0.25626	0.1051	0.17913	0.11057	0.11104	0.2489	0.25436	0.16187	0.30967	0.11621	0.18956	0.19323	0.16357	0.10165	0.085616	-2.4521	-3.2604	-3.0229	-2.9917	-3.1937	-3.2396	-3.1125	-3.4	-2.9417	-3.0542	-3.2396	-2.8854	-3.2104	-3.2833	-3.0563	-3.4229	-20.612	55.908	-49.753	24.085	-86.239	53.317	112.241	-111.712	-29.182	145.558	211.331	134.179	128.785	148.732	161.244	52.044	0.00051143	0.00054454	0.00016093	445.61	4.4159e-06	2.0922e-06	745.01	152.23	6.1813e-06	2.7083e-06	279.9	102.87	59.599	29.106	1.2883e-06	52.026	0.000197	0.00021354	5.2836e-05	430.64	2.1229e-06	2.3098e-06	708.5	146.51	2.1609e-06	2.2988e-06	260.59	96.743	57.473	27.829	2.0249e-06	47.929	-92.083	-77.215	25.718	-134.424	11.673	-94.565	-135.950	-128.503	-64.889	79.445	-131.604	-126.917	-123.101	-117.477	56.358	-121.926	-8191	255	
2424.220	1	1	0	0	0.13929	0.23524	0.13092	0.035211	0.079414	0.1283	0.20818	0.072405	0.18749	0.090571	0.19664	0.11939	0.2195	0.16742	0.25347	0.16488	-2.5708	-3.1583	-3.3187	-2.9646	-3.2271	-3.1875	-2.8917	-3.2271	-3.0583	-3.1167	-3.3667	-2.875	-3.1625	-3.0625	-2.9479	-3.3271	136.957	-93.512	54.507	14.856	-48.781	134.675	96.445	10.761	172.155	-74.199	205.132	174.087	-68.159	-62.892	116.549	1.390	0.00042349	0.00051371	7.0989e-05	439.16	1.9763e-06	5.4873e-06	732.5	148.64	6.1775e-06	7.3589e-06	273.53	101.45	58.334	28.681	3.9304e-06	52.119	0.00021203	0.00020239	5.0908e-05	423.76	2.2872e-06	2.2191e-06	696.6	143.33	2.3087e-06	2.1597e-06	255.51	95.295	57.03	27.517	1.9276e-06	47.958	-84.066	-78.042	-17.468	-134.776	184.113	2.820	-135.806	-128.764	-15.375	-55.067	-131.700	-126.564	-123.580	-117.337	-40.657	-122.014	-8191	255	
2424.316	1	1	0	0	0.091511	0.12959	0.14442	0.062855	0.092136	0.1383	0.10984	0.112	0.10325	0.38822	0.10755	0.13438	0.29641	0.13936	0.095571	0.14242	-2.5563	-2.9271	-3.2771	-3.0625	-3.125	-3.3688	-3.0208	-3.35	-3.1688	-2.9208	-3.3688	-3.1479	-3.125	-3.2292	-2.8583	-3.2479	-30.682	-110.987	108.135	135.874	114.327	148.148	-27.710	180.449	-16.737	12.002	169.729	36.784	116.908	35.972	-123.182	92.652	0.00041111	0.00047251	0.00012014	441.92	2.5098e-06	2.3282e-06	744.38	152.01	3.8239e-06	4.9553e-06	284.51	105.09	61.187	29.983	1.2138e-06	53.713	0.00021788	0.00019173	4.9076e-05	429.28	2.3208e-06	2.0766e-06	706	147.75	2.3163e-06	2.0817e-06	263.18	99.029	59.326	28.536	1.8873e-06	49.691	-81.429	-62.834	25.183	-134.736	57.088	-50.191	-135.908	-128.652	42.364	-3.531	-131.856	-126.998	-123.582	-117.087	94.761	-122.064	-8191	255	
2424.412	1	1	0	0	0.11288	0.28604	0.13573	0.21721	0.064866	0.27785	0.14689	0.14143	0.094401	0.0057922	0.059792	0.34237	0.119	0.22896	0.089346	0.14321	-2.6375	-2.9708	-3.2771	-2.6208	-3.2458	-3.25	-2.9521	-3.2708	-2.9979	-2.85	-3.2625	-3.2125	-3.0729	-3.3021	-2.8312	-3.2646	196.238	132.275	-103.042	152.093	-18.208	-106.335	174.464	68.929	90.045	-116.570	173.362	-123.853	110.150	143.787	-2.021	197.101	0.00037134	0.00040085	0.00012971	452.99	2.2436e-06	3.7817e-06	750.36	155.31	5.5377e-06	2.1669e-06	286.41	105.27	61.245	29.694	1.8095e-06	53.134	0.00021541	0.0001862	4.7955e-05	438.37	2.2796e-06	2.0224e-06	713.37	150.73	2.2273e-06	2.0243e-06	264.71	99.514	59.095	28.356	1.8898e-06	49.335	-87.111	-112.372	-14.995	-134.488	66.788	-5.558	-135.691	-128.492	-14.760	-14.432	-131.821	-126.748	-123.408	-117.390	-28.793	-122.077	-8191	255	
2424.531	1	1	0	0	0.16291	0.016497	0.25327	0.095176	0.22224	0.17798	0.21803	0.29236	0.2373	0.094536	0.035957	0.28142	0.037736	0.050479	0.095492	0.51601	-2.5563	-2.8854	-3.2083	-3.1229	-2.8937	-3.3833	-3.0812	-3.1604	-3.1896	-2.7021	-3.3187	-3.0354	-2.8771	-3.1562	-2.9938	-3.1813	155.280	-113.440	154.843	148.206	-76.111	15.539	-43.582	-49.098	-65.825	116.805	-59.154	190.975	-100.709	208.900	-67.813	174.556	0.0004017	0.00065819	0.0001831	447.18	2.1448e-06	2.0545e-06	747.64	151.47	2.33e-06	4.2418e-06	281.57	104.48	60.794	29.36	2.4336e-06	52.719	0.00020175	0.00017682	4.905e-05	435.27	2.1156e-06	1.921e-06	708.37	148.19	2.1071e-06	1.9352e-06	262.14	98.708	58.181	27.965	2.0635e-06	49.033	-76.757	-62.269	-13.507	-134.364	-29.296	-73.912	-135.500	-128.751	24.594	102.937	-131.704	-126.836	-123.209	-117.443	-33.122	-122.009	-8191	255	
2424.603	1	1	0	0	0.20627	0.20555	0.16774	0.20646	0.13017	0.13795	0.15132	0.078454	0.10644	0.10913	0.24207	0.089608	0.10109	0.1464	0.16146	0.19643	-2.7125	-2.9437	-3.1417	-3.0021	-2.8771	-3.3292	-2.9417	-3.2458	-3.3375	-2.85	-3.2229	-3.1354	-2.6854	-3.3667	-2.7229	-3.2125	-82.348	81.024	-135.877	63.698	212.180	-67.086	89.931	166.728	-83.151	9.495	-129.876	125.213	-21.684	157.660	105.884	143.439	0.00037097	7.7458e-05	5.2736e-05	447.27	1.7698e-06	2.67e-06	746.97	149.8	3.1837e-06	6.0223e-06	275.7	101.28	58.692	28.651	1.2393e-06	51.691	0.00019392	0.00017279	5.384e-05	436.83	2.0473e-06	1.8879e-06	709.9	145.87	2.0361e-06	1.8717e-06	258.65	96.117	56.281	27.233	2.2337e-06	47.81	-85.819	-140.627	110.648	-134.675	-47.311	-14.888	-136.220	-128.413	-119.581	121.575	-131.636	-126.564	-123.149	-117.239	201.146	-121.944	-8191	255	
2424.724	1	1	0	0	0.11097	0.2491	0.030087	0.33796	0.26719	0.20401	0.12589	0.12781	0.071947	0.10318	0.20733	0.23828	0.25814	0.066094	0.26983	0.30452	-2.8917	-2.8208	-3.2354	-2.9667	-2.9917	-3.2417	-3.1396	-2.9938	-3.2146	-2.8354	-3.1729	-3.0833	-3.1271	-3.2396	-2.8875	-3.1063	143.615	-120.696	33.911	203.074	18.740	114.560	151.126	123.626	-72.022	-117.944	212.945	-108.393	177.712	49.655	-4.482	150.346	0.00029919	0.0001904	0.00010213	441.61	3.1131e-06	5.3545e-06	737.64	148.13	5.4956e-06	2.1407e-06	279.38	102.59	59.416	29.282	9.4245e-07	52.687	0.00018928	0.00017214	5.7972e-05	429.83	1.9786e-06	1.9016e-06	704.44	144.76	1.9583e-06	1.9304e-06	260.51	96.738	57.055	27.83	2.3342e-06	48.688	-78.283	1.953	-82.686	-134.561	-1.823	-26.998	-136.073	-128.385	28.701	64.227	-131.736	-126.854	-123.448	-117.278	69.945	-122.201	-8191	255	
2424.820	1	1	0	0	0.14552	0.28102	0.22192	0.12465	0.18637	0.075295	0.033581	0.16946	0.025341	0.32916	0.057392	0.41058	0.26003	0.12086	0.12326	0.16105	-2.9813	-2.7646	-3.1	-3.2042	-2.9437	-3.1937	-3.1708	-2.8625	-3.3	-2.8167	-3.3063	-3.2417	-2.7188	-3.2313	-3.0563	-3.1188	-144.169	192.650	153.526	94.645	27.981	124.477	7.505	14.349	72.325	-4.392	-111.606	163.213	-15.564	191.814	9.738	174.537	0.00039574	0.00032932	4.8972e-05	445.67	1.01e-06	1.9546e-06	747.52	153.82	3.0517e-06	2.5781e-06	285.22	105.34	61.492	30.176	1.0162e-06	54.242	0.00018194	0.00018071	5.9468e-05	433.28	1.9129e-06	2.0243e-06	714.87	149.31	1.9093e-06	2.0667e-06	267.79	99.06	58.443	28.879	2.3201e-06	50.072	-82.119	-87.651	23.115	-134.555	0.018	115.884	-135.795	-128.576	17.350	208.069	-131.575	-126.822	-123.769	-117.315	122.720	-122.113	-8191	255	
2424.916	1	1	0	0	0.20548	0.17884	0.067248	0.23131	0.06509	0.22841	0.17254	0.3238	0.21434	0.14404	0.10177	0.22745	0.21642	0.10358	0.17535	0.17975	-2.8792	-3.0375	-3.0208	-3.375	-2.8229	-3.3688	-3.3083	-2.9188	-3.1937	-2.9562	-3.1	-3.3583	-2.8438	-3.1875	-2.9104	-2.8208	76.338	-83.453	-120.594	19.479	117.604	-89.275	184.873	142.051	150.318	161.844	-94.152	-126.864	64.061	146.543	-85.220	173.748	0.00044854	0.00040285	6.0018e-05	451.57	3.3772e-06	5.0205e-06	754.15	156.12	1.7983e-06	3.2855e-06	287.45	105.71	61.384	30.232	2.8078e-06	54.008	0.00017852	0.00019734	5.833e-05	437.2	1.867e-06	2.2311e-06	719.46	150.57	1.9034e-06	2.2646e-06	268.43	99.73	58.605	28.933	2.2209e-06	49.916	-78.871	-115.128	-35.002	-134.125	59.466	-108.035	-135.990	-128.583	189.530	128.626	-131.612	-126.850	-123.266	-117.417	24.230	-122.000	-8191	255	
2425.012	1	1	0	0	0.035976	0.11607	0.085629	0.084261	0.063231	0.14991	0.091347	0.22881	0.11503	0.11293	0.20237	0.17096	0.16951	0.07915	0.28937	0.42385	-2.8625	-3.1125	-2.7938	-3.3167	-2.8563	-3.2271	-3.2917	-2.9708	-3.2375	-3.1646	-2.9938	-3.4146	-3.0125	-3.1167	-3.3271	-2.8667	81.163	145.422	145.153	148.605	-46.086	148.092	-22.682	-96.149	-118.910	190.515	-26.358	-140.208	50.790	-140.900	163.361	158.570	0.00041214	0.00028763	7.1837e-05	453.28	9.9263e-07	5.4132e-06	754.05	155.24	2.827e-06	1.142e-06	287.63	106.3	61.577	30.269	4.4373e-06	54.436	0.00018471	0.00021228	5.5762e-05	437.23	1.9706e-06	2.3634e-06	719.94	150.27	1.9844e-06	2.3876e-06	268.38	99.917	59.068	29.019	2.122e-06	49.995	-88.570	-16.321	1.417	-134.333	-52.999	-60.046	-135.914	-128.368	208.953	84.684	-131.551	-126.921	-123.569	-117.127	49.614	-122.088	-8191	255	
2425.108	1	1	0	0	0.21057	0.21326	0.082865	0.17056	0.022325	0.099355	0.02337	0.23266	0.1692	0.16529	0.10048	0.19409	0.17119	0.12989	0.21944	0.14607	-2.8542	-2.9396	-2.6292	-3.3729	-2.8083	-3.0687	-3.3583	-2.8125	-3.0563	-3.3083	-2.9542	-3.3625	-2.9271	-3.2146	-3.3563	-3.0792	32.165	-21.226	-61.515	148.064	-26.698	-42.316	177.844	90.565	97.729	106.265	112.659	89.901	-72.381	-134.278	155.760	78.057	0.00040151	0.00050457	8.0297e-05	445.14	1.1129e-06	6.225e-06	752.42	151.82	1.9069e-06	5.2723e-06	279.7	103.69	60.186	29.722	3.2231e-06	53.034	0.00019569	0.00021446	5.2976e-05	432.12	2.1241e-06	2.319e-06	712.88	146.62	2.1677e-06	2.2971e-06	261.09	97.484	57.963	28.372	2.0714e-06	48.997	-91.637	-88.899	13.466	-134.272	-94.969	6.144	-135.990	-128.534	-19.856	7.402	-131.449	-126.656	-123.384	-116.987	-21.091	-122.171	-8191	255	
2425.204	1	1	0	0	0.24047	0.25801	0.27757	0.21634	0.24862	0.086567	0.12028	0.020933	0.056031	0.095657	0.18622	0.32226	0.28436	0.076006	0.18432	0.19699	-2.8604	-3.0854	-2.7917	-3.3354	-2.9062	-2.9229	-3.4167	-2.85	-3.1437	-3.0979	-3.1146	-3.4375	-2.9542	-3.1667	-3.4646	-2.725	188.717	1.614	168.004	204.267	70.702	-108.203	51.666	52.788	157.510	-17.609	-73.768	77.114	110.849	148.717	83.263	-113.936	0.00047639	0.00055536	0.00012239	446.69	1.5905e-06	7.4759e-06	751.91	153.97	2.522e-06	4.0658e-06	284.72	105.73	62.314	30.385	2.2353e-06	54.48	0.00021268	0.00020753	5.1604e-05	433	2.2935e-06	2.2294e-06	713.85	148.61	2.3287e-06	2.2081e-06	266.03	99.625	60.01	29.122	2.0133e-06	50.279	-87.635	-73.819	6.563	-134.551	-109.970	-24.334	-135.805	-128.679	14.810	17.561	-131.603	-126.746	-123.485	-117.230	79.685	-122.184	-8191	255	
2425.301	1	1	0	0	0.062906	0.028916	0.20243	0.15091	0.10034	0.074564	0.25987	0.042247	0.045214	0.097176	0.27762	0.33765	0.10496	0.31297	0.058537	0.25969	-2.7208	-3.075	-2.8063	-3.4437	-3.0417	-3.1312	-3.3417	-2.8542	-3.0229	-3.1708	-3.0375	-3.2812	-2.9875	-3.0167	-3.1833	-2.9833	85.941	-113.148	-92.620	103.005	150.964	168.088	112.675	-92.443	77.049	-22.725	179.058	154.069	-34.756	-116.121	147.463	-142.946	0.00035295	0.00024111	0.00014346	455.3	5.7247e-06	6.0332e-06	758.12	155.49	1.418e-06	2.9554e-06	284.98	105.24	61.056	29.991	2.9731e-06	53.639	0.00022304	0.00020062	5.0686e-05	440.18	2.4091e-06	2.155e-06	719.82	150.58	2.3741e-06	2.1191e-06	265.5	99.4	59.338	28.72	1.9353e-06	49.646	-82.850	-118.498	-12.717	-134.434	7.295	-45.882	-135.879	-128.532	-26.283	10.389	-131.679	-126.839	-123.232	-117.274	-8.565	-122.338	-8191	255	
2425.397	1	1	0	0	0.10691	0.24949	0.22383	0.33959	0.23838	0.11369	0.30222	0.18341	0.24371	0.13717	0.049453	0.038559	0.083174	0.15505	0.06944	0.09573	-2.6729	-3.1708	-2.6917	-3.4125	-3.0625	-3.0771	-3.3292	-3.025	-3.0125	-3.4229	-2.9188	-3.1937	-3.1208	-3.0104	-3.0812	-3.1437	4.873	103.627	-119.666	99.380	188.638	12.532	80.658	-146.293	-12.032	137.143	89.516	39.862	-97.931	-70.220	-31.235	-57.012	0.00038463	0.00013034	7.5586e-06	450.16	3.7304e-06	1.5774e-06	757.48	154.07	1.8308e-06	2.804e-06	284.57	105.24	61.154	30.119	2.1781e-06	53.995	0.00021813	0.00019299	4.8165e-05	438.5	2.3e-06	2.0783e-06	715.71	149.68	2.2999e-06	2.0713e-06	264.43	99.75	59.287	28.615	1.9548e-06	50.226	-96.118	-132.593	132.240	-134.440	28.270	3.436	-135.905	-128.592	107.958	43.807	-131.732	-126.923	-123.431	-117.266	4.768	-122.148	-8191	255	
2425.493	1	1	0	0	0.079881	0.029383	0.18157	0.090688	0.20321	0.053158	0.31187	0.23711	0.16692	0.1936	0.17687	0.28232	0.097213	0.22074	0.19421	0.1746	-2.4062	-3.1729	-2.9042	-3.0021	-3.1875	-2.7	-3.4938	-2.8937	-3.1458	-3.2417	-2.7979	-3.1063	-3.2479	-2.8104	-3.2438	-3.1417	67.048	-62.243	-32.848	-57.368	18.795	166.972	114.494	103.557	-16.285	-54.543	120.675	179.770	-83.561	-140.181	-105.005	171.545	0.00044055	0.00042419	0.00011688	455.25	3.5326e-06	3.2701e-06	757.02	152.92	1.963e-06	5.1013e-06	282.97	104.72	60.657	29.681	6.3177e-06	52.884	0.00020896	0.00018758	4.9952e-05	444.38	2.2085e-06	2.0218e-06	721.47	149.83	2.1749e-06	2.0065e-06	263.22	99.229	58.458	28.169	2.1154e-06	49.236	-78.094	-64.514	-101.710	-134.578	-2.187	-87.955	-135.987	-128.426	107.059	32.886	-131.616	-126.870	-123.409	-117.226	-65.402	-121.887	-8191	255	
2425.612	1	1	0	0	0.37999	0.32097	0.20523	0.13193	0.14392	0.066149	0.063393	0.13953	0.251	0.14871	0.15192	0.11417	0.016794	0.19478	0.11864	0.15748	-2.2687	-3.1979	-2.9333	-2.95	-3.3042	-2.8125	-3.5042	-3.1063	-2.875	-3.2292	-2.7375	-3.0042	-3.2	-2.7479	-3.1	-3.2979	102.238	27.510	-130.414	-106.173	162.484	-61.457	150.988	8.649	-139.683	69.774	-134.683	-138.747	120.922	135.834	58.000	106.263	0.00037942	0.00030641	8.6396e-05	453.91	3.2518e-06	4.0692e-06	763.43	151.92	5.8918e-06	2.751e-06	283.21	105.65	61.387	30.103	3.0025e-06	53.837	0.00020084	0.0001794	5.4558e-05	443.94	2.1161e-06	1.9457e-06	726.1	149.21	2.1113e-06	1.9519e-06	265.61	99.898	59.233	28.657	2.2884e-06	49.997	-86.443	-76.907	153.316	-134.685	32.022	10.369	-135.787	-128.779	5.515	-11.002	-131.458	-126.535	-123.721	-117.360	-88.308	-122.121	-8191	255	
2425.708	1	1	0	0	0.20619	0.081511	0.15797	0.29841	0.16119	0.29801	0.11863	0.092032	0.37729	0.23075	0.18239	0.21089	0.085219	0.074775	0.069427	0.22084	-2.3271	-3.2854	-2.9188	-3.0771	-3.2375	-3.0146	-3.4146	-3.0896	-2.8771	-3.2708	-3.175	-3.1542	-3.1833	-2.8354	-3.1813	-3.2208	-71.725	184.746	107.951	-41.246	55.653	-121.673	-65.122	-94.119	-112.158	-116.652	129.743	-118.318	-138.827	160.558	-103.764	26.482	0.00036359	0.00026361	9.2e-05	466.33	4.4086e-06	7.1218e-06	778.61	158.08	4.1582e-06	4.7279e-06	290.76	107.19	62.756	30.763	2.4823e-06	54.287	0.00019751	0.00018053	5.9806e-05	454.14	2.0976e-06	2.0132e-06	742.99	153.5	2.0754e-06	2.0178e-06	272.71	101.66	60.377	29.282	2.4461e-06	50.367	-89.940	-112.986	-97.129	-134.494	59.678	-27.136	-136.015	-128.499	56.185	-33.168	-131.796	-126.712	-123.222	-117.276	-61.200	-122.157	-8191	255	
2425.804	1	1	0	0	0.092338	0.077157	0.075006	0.16105	0.10061	0.28469	0.16269	0.19326	0.10096	0.24433	0.16964	0.16198	0.24795	0.057598	0.14917	0.17607	-2.3812	-3.275	-2.9542	-2.9979	-3.1708	-2.9167	-3.2438	-3.3229	-2.9375	-3.1521	-3.1083	-2.8625	-3.3208	-2.7167	-3.1708	-3.3438	-101.515	65.218	108.813	180.567	115.497	16.119	97.419	-17.992	-112.051	-32.780	-139.804	72.431	78.587	193.356	32.554	209.749	0.00043444	0.00016493	3.5571e-05	459.04	4.6359e-06	3.8348e-06	767.4	154.13	2.9515e-06	5.6791e-06	283.88	105.13	61.396	30.018	4.8687e-06	53.447	0.00018896	0.00018978	6.1724e-05	448.59	1.998e-06	2.1047e-06	733.7	150.03	1.9476e-06	2.1157e-06	266.99	99.242	58.634	28.743	2.4115e-06	49.588	-69.325	-104.643	156.408	-134.624	1.376	169.925	-135.860	-128.636	34.943	-84.595	-131.678	-126.828	-122.740	-117.318	-15.811	-121.800	-8191	255	
2425.900	1	1	0	0	0.14403	0.14544	0.18615	0.12654	0.19515	0.15461	0.39419	0.072577	0.2931	0.24434	0.26957	0.10048	0.21312	0.03997	0.24264	0.16814	-2.5958	-3.0875	-3.0354	-3.1021	-3.3375	-2.9562	-2.8708	-3.2333	-2.7458	-3.3	-3.0396	-3.125	-3.1708	-2.9604	-3.0812	-3.2292	143.380	-116.777	-63.158	200.088	181.443	76.856	-137.396	100.297	180.588	27.606	148.966	189.128	60.530	-76.884	118.761	8.281	0.00042058	0.00034187	6.8452e-05	459.54	3.1322e-06	9.1971e-07	766.75	155.63	3.6249e-06	1.9892e-06	286.77	106.06	61.62	30.325	5.2078e-06	54.099	0.00018317	0.00020282	6.0681e-05	446.58	1.9159e-06	2.2518e-06	732.69	150.51	1.9455e-06	2.3176e-06	268.63	100.07	58.876	29.09	2.2906e-06	49.929	-81.046	100.789	21.542	-134.422	180.606	-34.770	-136.021	-128.741	71.878	-30.824	-131.681	-126.797	-123.387	-117.265	-15.589	-122.048	-8191	255	
2425.996	1	1	0	0	0.091336	0.1177	0.041251	0.19283	0.094955	0.20552	0.06089	0.20454	0.19944	0.23552	0.30725	0.11682	0.1196	0.13326	0.12167	0.23589	-2.3146	-3.2	-2.9062	-2.6562	-3.2708	-3.1771	-2.925	-3.3937	-2.9042	-3.0333	-3.1604	-2.8729	-3.4021	-3.2396	-3.0208	-3.3583	150.253	-96.817	-110.684	-9.919	-75.256	39.499	-50.745	208.341	114.801	168.521	159.722	193.220	39.573	194.238	132.836	175.499	0.00042048	0.00013642	9.4083e-05	453.3	1.1806e-06	2.8062e-06	759.95	152.74	1.5662e-06	3.1663e-06	281.55	103.37	59.946	29.679	1.7054e-06	53.41	0.00018699	0.00021766	5.7603e-05	441.42	2.0057e-06	2.409e-06	724.68	147.49	2.0357e-06	2.4343e-06	262.64	97.296	57.743	28.605	2.177e-06	49.143	-88.756	-130.890	-19.173	-134.392	38.634	-18.706	-135.917	-128.779	32.341	-2.010	-131.911	-126.535	-123.755	-117.301	-24.404	-122.084	-8191	255	
2426.092	1	1	0	0	0.056971	0.095435	0.097622	0.20929	0.012876	0.12523	0.22033	0.40922	0.24346	0.11082	0.26487	0.099666	0.11719	0.17074	0.24553	0.038916	-2.3958	-2.9833	-3.2354	-2.7333	-3.1917	-3.2542	-3.0875	-3.3771	-2.8021	-3.1396	-3.1333	-2.7188	-3.25	-2.9958	-2.975	-3.4854	-99.424	200.701	-86.471	120.926	16.354	94.527	148.451	103.359	-127.602	-96.777	48.365	30.670	83.292	131.079	-134.722	-74.857	0.00041972	0.00033442	6.4455e-05	454.18	1.1272e-06	1.6681e-06	759.99	154.56	4.7142e-06	5.588e-06	285.86	105.9	61.427	30.79	1.8514e-06	54.639	0.00019792	0.00022019	5.4471e-05	439.18	2.138e-06	2.3927e-06	724.54	149.68	2.2011e-06	2.3494e-06	267.36	99.344	59.664	29.527	2.1072e-06	50.452	-92.314	-75.378	12.934	-134.350	-102.572	-47.068	-135.634	-128.593	-67.084	46.582	-131.305	-126.583	-123.041	-117.495	-68.406	-121.816	-8191	255	
2426.213	1	1	0	0	0.061946	0.10663	0.12616	0.16885	0.17355	0.19701	0.11618	0.27905	0.13114	0.22445	0.17375	0.25017	0.11881	0.22865	0.14848	0.25117	-2.3563	-3.0167	-3.0021	-2.7812	-3.1813	-3.0479	-2.9062	-3.25	-3.1292	-3.0104	-3.45	-2.8312	-3.2083	-3.2792	-2.7333	-3.4104	97.397	124.348	155.579	196.451	-61.332	-21.012	-67.306	209.285	151.325	-98.095	139.605	201.270	-24.643	184.299	-15.341	204.168	0.00044901	0.00025673	2.6661e-05	459.72	2.2736e-06	5.3901e-06	767.82	156.06	1.516e-06	5.5715e-06	289.53	105.86	62.486	30.589	3.3249e-06	54.352	0.00021637	0.0002125	5.3111e-05	444.4	2.3384e-06	2.3183e-06	730.21	151.37	2.3903e-06	2.2683e-06	268.17	99.736	60.009	29.223	2.0189e-06	50.134	-83.445	135.229	-119.381	-134.227	-15.833	22.030	-135.613	-128.666	5.163	16.129	-131.327	-126.697	-123.288	-117.170	-26.126	-122.176	-8191	255	
2426.309	1	1	0	0	0.11486	0.102	0.22749	0.16352	0.12409	0.18644	0.29591	0.23784	0.19569	0.21776	0.21604	0.16583	0.14106	0.18665	0.053707	0.23366	-2.4667	-2.9896	-3.2062	-2.7667	-3.2021	-3.2	-2.775	-3.3292	-2.9896	-3.0062	-3.3479	-3.0354	-3.1667	-3.3208	-2.8312	-3.2646	176.929	-19.670	-53.501	48.444	-103.715	147.747	163.041	-132.204	-120.796	76.641	153.514	153.600	26.764	189.597	96.103	51.356	0.0004439	0.00053683	7.8481e-05	458.3	3.6039e-06	2.9727e-06	765.59	154.2	1.0759e-06	1.3678e-06	287.4	105.89	61.356	30.591	3.0129e-06	54.509	0.00022533	0.00020028	5.1414e-05	444.03	2.3957e-06	2.1702e-06	725.42	149.94	2.4215e-06	2.17e-06	266.09	99.968	59.863	29.147	1.9434e-06	50.633	-84.250	-36.778	-1.135	-134.494	-42.509	26.826	-135.958	-128.704	161.114	16.729	-131.848	-126.751	-123.193	-117.275	29.954	-122.175	-8191	255	
2426.405	1	1	0	0	0.22408	0.031249	0.046591	0.31306	0.12369	0.10795	0.048046	0.25152	0.11984	0.096193	0.35004	0.11694	0.17176	0.39624	0.10643	0.15538	-2.5854	-2.8271	-3.3354	-2.8417	-3.1146	-3.1833	-3.0896	-3.0833	-3.2646	-2.9083	-3.225	-2.9625	-3.0625	-3.1458	-2.9104	-3.0083	-78.167	128.712	171.093	-142.695	64.664	49.046	189.875	157.975	80.054	115.397	-133.143	181.856	186.742	-135.759	-140.981	119.684	0.00028418	0.00036703	5.5558e-05	456.33	3.277e-06	2.926e-06	763.13	154.15	3.19e-06	5.3901e-07	283.81	104.39	59.983	30.018	2.747e-06	53.485	0.00022369	0.00019276	4.9619e-05	445.13	2.3445e-06	2.097e-06	723.52	150.25	2.3336e-06	2.0631e-06	263.68	98.815	58.422	28.616	1.9205e-06	49.783	-92.419	-33.167	-94.453	-134.238	60.410	-50.661	-135.803	-128.541	4.910	-6.010	-131.860	-126.856	-123.366	-117.003	-76.537	-122.022	-8191	255	
2426.502	1	1	0	0	0.12009	0.20575	0.38736	0.29313	0.043972	0.18419	0.2249	0.14437	0.098212	0.19225	0.11637	0.38389	0.12797	0.21204	0.26526	0.13258	-2.6	-2.8229	-3.1833	-3.0104	-3.0542	-3.3417	-2.8812	-3.1917	-3.0354	-2.975	-3.1854	-3.0521	-2.7188	-3.2542	-2.8292	-3.2062	44.974	-24.558	140.754	152.902	-26.620	-52.428	-105.100	-56.503	34.951	-47.667	130.626	132.220	-23.744	184.712	205.045	137.890	0.00034339	0.00055471	3.265e-05	451.72	3.0417e-06	8.2251e-07	759.88	153.24	2.8615e-06	4.5149e-06	284.43	104.01	61.091	30.462	1.0616e-06	54.255	0.0002126	0.00018842	5.0457e-05	443.02	2.2413e-06	2.0342e-06	719.4	149.72	2.2109e-06	2.0245e-06	264.71	99.086	58.977	28.974	2.0906e-06	50.394	-81.889	-81.286	89.112	-134.813	0.149	-116.230	-136.028	-129.005	69.083	64.675	-131.269	-126.511	-123.388	-117.359	22.635	-122.016	-8191	255	
2426.596	1	1	0	0	0.15211	0.19975	0.15533	0.27344	0.1178	0.2046	0.42461	0.16292	0.40523	0.30547	0.07178	0.11011	0.050216	0.14453	0.089239	0.13522	-2.9542	-2.65	-3.1063	-2.9875	-2.8104	-3.3396	-2.7729	-3.0812	-3.1375	-2.7438	-3.2938	-2.9833	-2.9604	-3.1875	-2.8021	-3.0792	152.595	30.048	80.030	190.016	129.274	34.707	198.812	161.170	-119.648	172.099	81.378	85.449	107.916	187.558	192.619	194.031	0.00032118	0.00039675	4.4515e-05	459.47	4.6721e-06	4.3068e-06	770.51	157.48	6.4986e-06	1.5293e-06	291.02	106.56	62.684	30.764	2.2414e-06	54.822	0.00020567	0.00017984	5.4372e-05	450.01	2.1425e-06	1.9749e-06	732.88	153.72	2.1418e-06	1.9592e-06	271.66	100.96	59.957	29.262	2.2713e-06	50.699	-81.671	-82.324	-38.296	-134.571	37.083	-13.644	-135.750	-128.423	25.776	-39.532	-131.943	-126.813	-123.391	-117.130	1.486	-121.914	-8191	255	
2426.692	1	1	0	0	0.14581	0.10046	0.060518	0.16029	0.17439	0.29074	0.16093	0.24909	0.099624	0.14496	0.1811	0.15921	0.19567	0.1584	0.097227	0.2718	-2.7917	-2.7875	-3.175	-3.1021	-2.9292	-3.1625	-2.8396	-2.9604	-3.1813	-2.8854	-3.2417	-3.1896	-2.8042	-3.3333	-3.0271	-2.9688	-128.075	-61.425	124.085	197.803	-5.715	45.582	-58.582	-112.923	-35.266	-12.569	177.521	154.623	-43.629	160.221	-44.666	170.115	0.00048503	0.00037579	8.0756e-05	460.82	9.4569e-07	2.0531e-06	768.17	155.09	2.8986e-06	1.765e-06	284.78	104	60.627	29.763	5.7633e-07	53.268	0.00019744	0.00017631	5.8512e-05	449.54	2.0505e-06	1.9466e-06	731.71	150.79	2.0575e-06	1.9462e-06	267.1	98.411	58.045	28.408	2.4135e-06	49.319	-82.742	-72.212	-70.399	-134.318	-123.494	-45.830	-136.108	-128.352	62.989	131.460	-131.753	-126.778	-123.028	-117.197	-76.700	-121.709	-8191	255	
2426.788	1	1	0	0	0.26561	0.10998	0.079151	0.061419	0.13429	0.10693	0.072841	0.23308	0.13238	0.2235	0.34485	0.033968	0.048438	0.074602	0.19938	0.011705	-2.9125	-2.6542	-3.1521	-3.125	-2.8271	-3.2958	-3.0792	-2.8542	-3.3354	-2.775	-3.2438	-3.2021	-2.9792	-3.2687	-3.1104	-2.9188	195.655	58.498	178.052	-10.318	-5.686	-101.715	173.222	204.728	-100.984	-97.834	140.314	48.115	162.271	-57.175	-38.047	-102.963	0.00040812	0.00023607	4.2611e-05	457.65	2.6766e-06	2.6997e-06	763.89	152.16	3.5806e-06	4.901e-06	281.28	102.92	60.03	29.168	3.0382e-06	52.661	0.00019017	0.00018465	6.1196e-05	446.24	1.9853e-06	2.0786e-06	729.66	148.3	1.9864e-06	2.094e-06	264.52	97.272	57.301	28.096	2.4051e-06	48.55	-77.240	-49.191	182.240	-134.478	26.660	171.975	-135.888	-128.786	12.765	-110.666	-131.711	-126.682	-123.322	-117.379	32.054	-121.673	-8191	255	
2426.909	1	1	0	0	0.18472	0.1427	0.098818	0.15825	0.18083	0.078454	0.044492	0.14508	0.17477	0.046827	0.17597	0.15773	0.20432	0.092966	0.23264	0.12923	-2.8646	-2.9375	-3.1375	-3.075	-2.7333	-3.2333	-3.2542	-2.8812	-3.1583	-3.1063	-2.9875	-3.3625	-2.6021	-3.3125	-3.0625	-2.8667	106.828	121.570	145.932	85.570	122.773	49.731	-132.139	147.972	108.196	-100.225	-123.074	136.821	173.790	62.470	128.916	198.131	0.00046779	0.000398	0.00014346	453.23	3.4257e-06	2.9759e-06	752.66	149.88	4.9107e-06	4.6043e-06	277.61	100.49	59.234	29.31	3.6453e-06	52.624	0.00018349	0.00019958	6.019e-05	439.01	1.932e-06	2.2475e-06	718.62	145.25	1.9464e-06	2.2855e-06	259.87	95.188	56.354	28.126	2.2948e-06	48.533	-78.917	189.535	7.385	-134.724	52.927	-48.084	-135.991	-128.671	98.868	-121.419	-131.234	-126.718	-123.492	-117.434	50.224	-121.876	-8191	255	
2427.005	1	1	0	0	0.2791	0.2854	0.20282	0.057718	0.14078	0.12299	0.25015	0.13156	0.062279	0.12142	0.14106	0.09677	0.057968	0.19987	0.20338	0.17683	-2.8812	-2.8958	-2.9417	-3.4062	-2.9167	-3.1604	-3.2667	-2.9917	-3.2875	-3.1646	-3.0125	-3.5167	-2.6979	-3.2167	-3.2292	-3.0042	15.056	165.878	-83.203	125.551	59.124	-32.457	113.018	-115.699	4.331	53.700	-43.932	-131.738	91.966	-20.044	-89.578	135.609	0.00042256	6.1614e-05	0.00010514	452.77	1.4557e-06	2.0719e-06	760.19	153.3	3.1356e-06	5.2795e-06	285.73	104.7	61.827	30.573	2.9047e-06	54.684	0.00018347	0.00021324	5.7051e-05	439.23	1.9555e-06	2.3782e-06	724.48	148.91	1.9982e-06	2.4012e-06	266.72	98.683	58.764	29.449	2.1966e-06	50.466	-88.926	171.301	-37.153	-134.570	68.099	-105.762	-136.062	-128.449	-61.769	47.768	-131.091	-126.485	-123.449	-117.381	-16.451	-122.113	-8191	255	
2427.077	1	1	0	0	0.11493	0.35524	0.17307	0.058952	0.28609	0.18769	0.10715	0.1734	0.12898	0.16261	0.14245	0.10009	0.2204	0.2881	0.06487	0.15635	-2.7542	-3.1979	-2.8563	-3.475	-2.8688	-3.2708	-3.2438	-2.8208	-3.2833	-3.1458	-2.8979	-3.4042	-2.8396	-3.1937	-3.0875	-2.9479	190.826	61.135	202.737	88.226	158.642	96.940	-131.644	-143.346	2.326	161.861	-17.205	-92.960	62.553	212.536	-113.802	173.297	0.00047445	0.00045495	0.00010523	460.65	2.1672e-06	2.4942e-06	776.05	158.13	2.498e-06	1.1974e-06	289.83	107.5	62.674	30.892	1.7076e-06	54.59	0.00019599	0.00021957	5.4373e-05	446.9	2.1207e-06	2.4029e-06	735.71	152.93	2.173e-06	2.3859e-06	271.38	100.78	60.11	29.544	2.0866e-06	50.408	-96.002	-103.937	-35.199	-134.000	-49.634	-12.975	-135.550	-128.360	-82.460	76.998	-131.329	-126.775	-123.417	-117.205	50.643	-122.017	-8191	255	
2427.173	1	1	0	0	0.12167	0.27596	0.068484	0.16456	0.069822	0.23704	0.19563	0.28736	0.1772	0.17982	0.058837	0.23561	0.041352	0.24077	0.089824	0.063219	-2.625	-2.85	-2.8104	-3.1583	-2.8521	-3.025	-3.3417	-2.8521	-3.0792	-2.925	-2.95	-3.275	-3.0292	-2.9521	-3.1833	-3.15	-122.164	65.163	213.351	-9.245	80.881	95.254	-54.485	175.876	-89.525	-30.660	-23.399	182.305	-144.874	98.987	128.013	137.818	0.00046443	0.00043823	7.6007e-05	465.61	4.5777e-06	4.3276e-06	771.66	155.38	3.8081e-06	2.4923e-06	287.25	106.39	62.025	30.681	3.6651e-06	54.222	0.00021263	0.00021309	5.2347e-05	448.5	2.2924e-06	2.2747e-06	734.5	150.38	2.335e-06	2.2783e-06	267.78	100.16	60.049	29.182	2.039e-06	50.061	-87.431	-101.801	25.966	-134.450	-56.053	9.906	-135.739	-128.575	-20.464	141.006	-131.399	-126.794	-123.674	-117.290	17.751	-121.789	-8191	255	
2427.293	1	1	0	0	0.18286	0.091425	0.13555	0.085507	0.081308	0.037003	0.22149	0.11454	0.079507	0.15349	0.11999	0.42195	0.048005	0.10579	0.18128	0.18948	-2.6083	-3.0292	-2.8104	-3.0187	-3.2896	-2.9646	-3.4042	-2.8208	-3.1021	-3.1979	-2.6437	-3.3312	-2.9938	-2.9688	-3.2313	-3.0583	50.686	26.737	-114.919	-22.335	-11.043	159.097	-131.128	192.652	-5.904	27.748	77.885	168.188	-32.333	26.010	-33.141	67.576	0.00039503	0.00020744	0.00015898	464.76	1.241e-06	3.9293e-06	771.6	153.94	6.645e-06	5.3745e-06	283.69	104.59	60.871	29.687	1.5579e-06	53.108	0.00022286	0.00020138	5.0635e-05	449.08	2.414e-06	2.165e-06	731.42	149.2	2.4135e-06	2.1356e-06	263.51	98.353	58.904	28.45	1.9585e-06	49.057	-89.502	-64.488	-14.470	-134.460	-95.710	-36.078	-135.812	-128.503	38.484	41.558	-132.310	-126.573	-123.262	-117.372	34.196	-121.882	-8191	255	
2427.390	1	1	0	0	0.16383	0.248	0.26251	0.32014	0.081929	0.286	0.11978	0.0091915	0.045025	0.29555	0.30263	0.25035	0.11964	0.19296	0.17539	0.089134	-2.6458	-3.2083	-2.85	-3.1229	-3.1771	-2.7896	-3.275	-2.9	-3.1312	-3.2083	-2.9083	-3.1833	-3.1229	-2.9479	-3.3187	-2.9708	174.145	-73.175	-93.693	200.924	-104.009	146.245	-108.451	193.151	-107.398	212.346	188.929	100.250	176.664	-115.375	-141.136	-4.563	0.00044878	0.00039284	1.8837e-05	456.11	2.6627e-06	2.4775e-06	767.26	152.42	2.9639e-06	1.826e-06	283.28	104.4	60.894	30.424	9.5699e-07	54.182	0.00022211	0.0001906	4.8829e-05	444.09	2.3455e-06	2.0708e-06	724.49	149.11	2.3111e-06	2.0763e-06	263.89	98.946	59.072	28.93	1.9347e-06	50.212	-91.944	-86.549	4.547	-134.640	55.362	110.694	-135.932	-128.495	-134.801	83.505	-131.678	-126.641	-123.065	-117.293	126.147	-122.012	-8191	255	
2427.486	1	1	0	0	0.14779	0.11709	0.12303	0.16073	0.20947	0.20997	0.25022	0.11286	0.27979	0.19362	0.16307	0.14207	0.18107	0.38544	0.039639	0.21385	-2.65	-3.3521	-2.9333	-3.1083	-3.2167	-2.7021	-3.3896	-2.9479	-3.2083	-3.1333	-2.7521	-3.1417	-3.1958	-3.0375	-3.0229	-3.1333	157.008	57.120	23.628	-76.527	168.348	-101.475	41.188	154.586	201.497	154.079	197.372	145.863	-93.081	137.938	-9.226	174.879	0.00040456	0.00042938	5.5846e-05	461.53	6.0411e-06	3.8624e-06	772.34	157.98	3.0184e-06	3.3242e-06	289.39	106.78	62.795	30.982	2.5933e-06	54.822	0.00021287	0.00018722	4.9511e-05	450.87	2.2436e-06	2.0215e-06	731.71	154.11	2.2094e-06	1.986e-06	269.93	101.45	60.14	29.383	2.0555e-06	50.86	-80.789	-65.291	-84.199	-134.341	37.011	-85.339	-135.937	-128.841	-5.554	0.290	-131.520	-126.773	-123.338	-117.297	-54.985	-122.084	-8191	255	
2427.605	1	1	0	0	0.13574	0.28341	0.14244	0.2456	0.12893	0.13008	0.060772	0.31376	0.015652	0.17068	0.1075	0.13648	0.062305	0.32669	0.13854	0.20385	-2.4437	-3.2687	-2.8125	-3.1375	-3.1771	-2.85	-3.3667	-3.0792	-2.75	-3.3958	-3	-3.2979	-3.2896	-2.8312	-3.1625	-3.2229	3.529	-40.879	-139.921	162.029	201.055	203.589	14.006	165.496	8.469	-38.604	41.555	201.921	200.914	180.593	-102.768	-29.610	0.00038282	0.00067842	1.124e-05	461.44	2.7287e-06	2.8623e-06	767.73	156.12	3.4203e-06	3.2875e-06	286.87	105.6	60.871	30.265	9.311e-07	53.895	0.0002027	0.00017952	5.3339e-05	451.53	2.1313e-06	1.9472e-06	732.44	152.17	2.1067e-06	1.9437e-06	267.68	99.701	58.731	28.715	2.2329e-06	49.899	-84.113	-69.919	185.108	-134.343	19.556	22.192	-135.922	-128.607	43.984	1.046	-131.457	-126.673	-123.010	-117.290	-94.028	-122.055	-8191	255	
2427.701	1	1	0	0	0.25	0.21873	0.098144	0.17164	0.31689	0.13549	0.28839	0.20873	0.15678	0.082006	0.099571	0.10179	0.12684	0.17794	0.1925	0.090264	-2.4458	-3.1979	-2.875	-3.0812	-3.3271	-2.8229	-3.2458	-3.175	-2.8187	-3.2583	-2.9958	-2.9146	-3.1688	-2.9958	-3.1542	-3.2521	-22.783	200.862	-129.015	190.375	-87.261	-94.789	-142.109	-87.402	210.142	-123.174	139.049	209.537	131.781	197.053	153.418	159.109	0.00034897	0.00027745	9.3414e-05	461.19	6.2723e-06	2.6213e-06	765.72	153.19	5.0764e-06	2.6056e-06	282.12	104.38	59.783	29.481	2.0839e-06	52.723	0.00019697	0.00017671	5.7769e-05	449.45	2.078e-06	1.9257e-06	732.14	149.47	2.0558e-06	1.9436e-06	265.06	98.157	57.324	28.098	2.3527e-06	48.892	-69.325	-134.820	-55.829	-134.332	59.030	-20.859	-136.002	-128.266	-1.144	-26.320	-131.643	-126.577	-122.991	-117.334	6.848	-121.904	-8191	255	
2427.774	1	1	0	0	0.054923	0.16357	0.05338	0.38193	0.075329	0.22779	0.23063	0.08989	0.16438	0.072309	0.066215	0.072083	0.4184	0.15935	0.14009	0.098398	-2.3063	-3.2333	-2.8417	-3.0062	-3.2708	-2.8875	-3.0604	-3.4	-2.7896	-3.35	-3.1188	-2.8667	-3.4229	-2.9292	-3.0396	-3.2	-33.521	178.810	-98.266	132.507	154.136	67.742	97.655	-146.044	-31.977	162.607	197.903	101.116	192.240	-9.590	148.444	-50.530	0.00035083	0.00021282	0.00011862	451.24	1.5838e-06	1.5426e-06	758.19	150.71	3.5497e-06	2.5349e-06	280.07	102.9	60.043	29.872	4.816e-06	53.295	0.00018803	0.00018187	6.0258e-05	440.35	1.9889e-06	2.0212e-06	722.42	146.75	1.9683e-06	2.0504e-06	263.97	97.476	57.443	28.483	2.3906e-06	49.34	-81.090	41.772	-42.727	-134.610	13.902	145.890	-136.069	-128.733	4.542	-69.286	-131.689	-126.557	-123.271	-116.960	22.862	-121.588	-8191	255	
2427.893	1	1	0	0	0.058988	0.14716	0.094684	0.11615	0.092326	0.23426	0.16022	0.14804	0.11385	0.14676	0.08141	0.18214	0.25121	0.11286	0.21005	0.12581	-2.4958	-3.3042	-2.9333	-2.925	-3.2271	-2.9771	-3.4021	-3.2271	-3.0042	-3.2104	-3.0771	-3.0021	-3.3271	-2.9125	-3.0187	-3.525	105.893	-142.202	164.589	112.846	-10.272	-104.682	51.585	187.490	-37.343	-126.025	69.835	159.175	126.893	40.649	-117.964	54.769	0.00042619	0.00021081	2.4867e-05	463.66	3.9447e-06	3.2384e-06	775.86	156.27	5.7979e-06	4.052e-06	289.58	107.74	62.897	31.088	2.2013e-06	54.962	0.00018279	0.00019571	6.077e-05	448.89	1.9237e-06	2.2128e-06	739.76	151.89	1.9273e-06	2.2551e-06	272.24	101.31	60.087	29.7	2.3177e-06	50.663	-90.137	-144.074	-27.644	-134.406	31.485	-61.224	-135.842	-128.581	47.782	-143.503	-131.772	-126.715	-123.544	-117.161	-16.363	-121.953	-8191	255	
2427.989	1	1	0	0	0.28137	0.12615	0.25892	0.10339	0.057974	0.1257	0.23512	0.081085	0.13406	0.14002	0.10978	0.054902	0.026285	0.42444	0.02971	0.060978	-2.5396	-3.2833	-3.1542	-3.0646	-3.3812	-2.9854	-3.0563	-3.2979	-2.9854	-3.2583	-3.1208	-2.8854	-3.3833	-3.0354	-3.1854	-3.2812	-68.247	95.490	-97.779	-119.837	73.617	-62.823	-120.662	164.887	159.586	89.986	-82.003	82.893	-104.026	195.154	123.440	211.331	0.00038477	0.00021904	2.0952e-05	470.73	1.277e-06	3.3562e-06	781.62	158.65	1.8953e-06	5.1445e-06	290.89	107.44	62.401	30.693	3.2106e-06	54.087	0.000184	0.00021425	5.7403e-05	455.92	1.9494e-06	2.3857e-06	745.42	153.01	2.0011e-06	2.4166e-06	271.53	100.9	59.688	29.44	2.2138e-06	50.007	-89.711	-103.743	80.571	-134.785	149.291	-141.249	-135.744	-128.638	5.811	-67.160	-131.790	-126.859	-123.320	-117.248	-55.646	-122.034	-8191	255	
2428.085	1	1	0	0	0.18648	0.080681	0.068258	0.21322	0.19059	0.15546	0.12864	0.21129	0.14704	0.065863	0.050095	0.12534	0.2944	0.2513	0.15542	0.13753	-2.4729	-3.1354	-3.2313	-2.8854	-3.2479	-3.0146	-3.1167	-3.2833	-2.8875	-3.2	-3.3	-3.075	-3.2083	-3.1021	-2.925	-3.6083	60.845	89.824	198.950	181.706	206.779	-21.652	-49.584	124.677	144.761	39.707	137.252	202.163	182.218	152.995	70.132	185.948	0.0004707	0.00045373	0.00017037	469.31	2.8917e-06	1.8365e-06	784.66	155.6	2.9332e-06	4.4582e-06	289.17	105.99	62.283	30.607	3.8303e-06	54.165	0.00019655	0.00022179	5.5565e-05	452.1	2.1239e-06	2.4497e-06	742.65	150.95	2.1772e-06	2.4352e-06	269.42	99.871	59.801	29.295	2.1245e-06	49.848	-88.834	-106.880	-28.286	-134.644	-42.008	-2.199	-135.764	-128.528	-64.259	22.283	-131.907	-126.616	-123.278	-117.173	-9.629	-121.915	-8191	255	
2428.206	1	1	0	0	0.13135	0.22029	0.40614	0.085384	0.23229	0.38299	0.22876	0.077575	0.16778	0.22623	0.13601	0.22328	0.25125	0.063841	0.19121	0.080801	-2.5958	-3.1396	-3.3729	-2.7292	-3.35	-3.1521	-2.8646	-3.3417	-2.8854	-3.0521	-3.3396	-2.9521	-2.9979	-3.2458	-2.8792	-3.2833	27.010	168.586	20.399	37.512	15.218	-102.057	159.283	137.967	186.905	176.552	142.644	174.042	105.221	145.100	-81.492	62.159	0.00044904	0.00019755	3.6808e-05	462.79	3.3685e-06	9.4346e-06	773.24	153.21	4.4469e-06	2.4214e-06	281.59	102.98	59.918	29.574	1.6248e-06	52.622	0.00021391	0.00021563	5.4045e-05	448.27	2.2993e-06	2.3362e-06	735.29	148.03	2.3574e-06	2.3241e-06	262.7	97.015	58.368	28.411	2.0708e-06	48.673	-81.006	-42.520	-56.303	-134.424	-7.870	-25.537	-136.102	-128.313	-31.253	9.073	-131.532	-126.640	-123.588	-117.041	17.217	-121.942	-8191	255	
2428.302	1	1	0	0	0.13826	0.15813	0.12676	0.22573	0.38838	0.18733	0.27613	0.19532	0.16278	0.08724	0.10568	0.10241	0.21526	0.20975	0.17215	0.14131	-2.5875	-3.0333	-3.2292	-3.0167	-3.1042	-3.1667	-3.0458	-3.3146	-2.9708	-2.9313	-3.2479	-3.0938	-3.1542	-3.2083	-2.9917	-3.1917	31.240	86.841	-16.875	168.569	213.167	47.199	103.328	114.848	80.986	-78.765	26.614	132.789	-112.168	193.656	-37.078	170.213	0.00039526	0.00041351	7.6832e-05	460.17	1.9686e-06	3.8296e-06	772.26	154.74	3.2208e-06	1.9846e-06	284.04	104.98	61.816	30.589	3.9402e-06	54.243	0.00022481	0.0002052	5.1472e-05	445.61	2.4152e-06	2.2039e-06	730.36	149.62	2.425e-06	2.1854e-06	264.96	98.797	59.81	29.15	1.9832e-06	50.206	-86.861	-96.687	-127.142	-134.824	-122.031	-33.437	-136.076	-128.612	213.193	101.577	-131.400	-126.533	-123.345	-117.541	-29.263	-121.914	-8191	255	
2428.374	1	1	0	0	0.20752	0.010857	0.16035	0.072788	0.05032	0.067351	0.12549	0.073561	0.33518	0.14989	0.09824	0.040868	0.27126	0.1368	0.085184	0.28828	-2.5438	-2.7646	-3.1979	-2.9396	-3.0229	-3.2771	-2.9146	-3.2396	-3.0646	-2.8646	-3.3583	-3.0938	-3.0521	-3.2646	-2.7792	-3.1667	207.754	130.106	-36.015	75.651	1.069	32.791	113.361	-21.872	38.019	-133.339	-107.073	-123.038	-111.121	-129.491	-18.252	172.091	0.00044677	0.00025921	8.1851e-05	467.94	6.2723e-06	2.1613e-06	781.95	158.09	4.5072e-06	1.7308e-06	292.81	106.88	62.217	31.201	3.7834e-06	55.097	0.0002261	0.00019829	4.9995e-05	455.55	2.4331e-06	2.1408e-06	740.56	154.09	2.3755e-06	2.1235e-06	270.74	101.32	60.621	29.732	1.971e-06	51.139	-89.980	-54.204	-36.152	-134.555	42.156	22.956	-135.949	-128.636	47.435	10.204	-131.567	-126.629	-123.240	-116.975	48.633	-121.868	-8191	255	
2428.470	1	1	0	0	0.15785	0.17403	0.046724	0.11818	0.018811	0.034112	0.13971	0.055972	0.21296	0.12415	0.16858	0.10239	0.11392	0.12066	0.073379	0.16751	-2.5708	-2.7438	-3.2479	-3.0979	-2.9292	-3.275	-3.0312	-3.125	-3.2062	-2.9104	-3.3229	-2.8708	-3.0458	-3.3	-3.0563	-3.0167	124.916	28.099	-120.787	119.489	143.021	46.080	194.128	65.894	-87.887	208.231	131.307	113.758	120.694	77.284	-46.001	-85.071	0.0004231	0.00038663	4.706e-05	465.87	4.7633e-06	3.0874e-06	779.71	158.82	3.0909e-06	4.6167e-06	290.22	106.45	61.818	30.96	7.4511e-07	54.838	0.00021997	0.00019047	5.0647e-05	456.86	2.3054e-06	2.0798e-06	740.18	154.03	2.2579e-06	2.0728e-06	269.58	101.03	59.742	29.403	2.0834e-06	51.086	-87.989	135.492	35.424	-134.261	51.660	5.535	-135.809	-128.617	131.280	-59.697	-131.635	-126.389	-123.078	-117.391	-18.876	-121.873	-8191	255	
2428.589	1	1	0	0	0.065293	0.11173	0.22434	0.094394	0.073168	0.11762	0.16513	0.061829	0.18018	0.35563	0.23866	0.10832	0.087727	0.008514	0.12333	0.11074	-2.8146	-2.8646	-3.3417	-3.0958	-2.8646	-3.3104	-2.7833	-3.2812	-3.1854	-2.9375	-3.325	-3.1625	-2.8646	-3.5625	-2.9208	-3.3438	-42.045	187.645	160.470	-138.641	129.834	-58.984	109.218	94.273	-128.532	179.153	71.438	209.749	194.110	-4.101	-51.123	-138.799	0.00043133	0.00024579	9.0088e-05	470.66	2.6526e-06	2.5696e-06	777.67	156.13	3.5732e-06	3.5061e-06	287.37	104.73	61.082	30.366	2.7073e-06	53.606	0.00020987	0.00018666	5.3812e-05	459.43	2.2224e-06	2.0195e-06	741.75	153.09	2.1654e-06	1.9753e-06	268.22	99.495	58.807	28.839	2.2616e-06	49.865	-78.866	-141.075	19.292	-134.541	-35.252	63.395	-136.117	-128.379	-15.741	-31.666	-131.247	-126.349	-123.200	-117.229	-49.744	-121.799	-8191	255	
2428.685	1	1	0	0	0.40386	0.14243	0.081137	0.24405	0.089838	0.14207	0.031547	0.077482	0.087253	0.1357	0.12526	0.22196	0.29561	0.3075	0.31188	0.087568	-2.9083	-3.1271	-3.2729	-3.2667	-2.8854	-3.3979	-2.9958	-3.1208	-3.3854	-2.6229	-3.1562	-3.2896	-2.5375	-3.5979	-2.9208	-3.2604	-7.120	-67.884	163.560	-58.109	-116.613	188.902	165.500	-123.393	50.815	-106.872	-82.221	-102.954	141.448	194.267	93.564	153.285	0.00042747	0.0002508	0.00012212	463.34	5.7781e-07	1.7482e-06	774.21	154.12	3.5671e-06	2.0806e-06	285.56	104.68	60.959	30.291	3.691e-06	53.964	0.00020077	0.00017991	5.8491e-05	453.22	2.1155e-06	1.987e-06	738.78	150.47	2.1381e-06	2.0123e-06	267.95	99.039	58.857	28.942	2.4796e-06	50.037	-83.096	-69.370	-81.501	-134.873	-94.925	38.510	-136.025	-128.538	36.180	84.095	-131.804	-126.317	-123.585	-117.357	-79.594	-121.865	-8191	255	
2428.781	1	1	0	0	0.019248	0.10144	0.19842	0.27346	0.085026	0.22808	0.24192	0.074633	0.17062	0.24724	0.15452	0.12163	0.033926	0.24398	0.18194	0.2746	-3.0083	-2.9146	-3.2375	-3.225	-2.9417	-3.3146	-3.1083	-3.0104	-3.2292	-3.05	-3.3229	-3.1813	-2.7604	-3.1958	-2.7562	-3.0563	139.474	70.713	47.915	138.707	-44.332	-144.795	138.708	-111.982	-123.835	-25.493	168.028	145.898	112.857	-129.670	-99.988	122.081	0.00044305	0.00033016	8.3396e-05	472.63	6.8029e-06	1.521e-06	784	158.22	7.1228e-06	3.0045e-06	290.44	107.11	62.795	31.518	3.6452e-06	55.011	0.00020152	0.00019124	6.4321e-05	459.73	2.1107e-06	2.1449e-06	752.24	154.32	2.1115e-06	2.1849e-06	274.47	101.08	60.152	29.989	2.5798e-06	51.035	-79.922	-101.985	-33.986	-134.426	17.191	208.228	-135.856	-128.371	34.227	0.276	-131.638	-126.535	-123.154	-117.376	-36.602	-121.946	-8191	255	
2428.877	1	1	0	0	0.21259	0.18832	0.18359	0.30613	0.27226	0.15157	0.32072	0.13535	0.21054	0.33404	0.28345	0.058962	0.47596	0.15448	0.095569	0.1683	-2.75	-2.8292	-3.0542	-3.0625	-2.8104	-3.2313	-3.1813	-2.925	-3.5042	-2.9938	-3.2229	-3.2562	-2.7479	-3.2042	-3.0104	-3.0604	202.897	158.256	75.265	181.632	82.591	71.273	46.224	118.864	57.856	135.167	163.758	106.503	-32.225	187.947	45.976	-102.722	0.0003169	0.00011871	0.00011704	470.42	2.8687e-06	2.0601e-06	781.79	158.43	3.4152e-06	4.5383e-06	289.32	107.5	61.914	30.955	6.033e-06	54.735	0.00019853	0.00021199	6.5555e-05	458.69	2.1021e-06	2.365e-06	748.68	154.12	2.0786e-06	2.4254e-06	272.92	101.14	59.596	29.721	2.5183e-06	50.634	-91.105	-136.530	-85.991	-134.353	-70.541	-126.370	-135.812	-128.477	53.147	-130.875	-131.092	-126.604	-123.079	-117.353	5.493	-121.994	-8191	255	
#DATA ENDS
