BOXY.EXE: ISS Imagent and Oximeter Data Acquisition Program Version 0.80
Ascii Record File

#ACQ INFORMATION
2  Detector Channels 
16  External MUX Channels 
1  Auxiliary Channels 
5000  Waveform (CCF) Frequency (Hz)
1  Waveforms Skipped 
30  Waveforms Averaged 
1  Cycles Averaged 
16  Acquisitions per Waveform 
10.0806  Updata Rate (Hz) 

#FILE INFORMATION
TRUE -- External MUX Channel results are PARSED.
FALSE -- AC DC and Phase are NOT grouped.
TRUE -- Companion Program Settings File CREATED.
FALSE -- AC data not excluded
FALSE -- DC data not excluded
FALSE -- Phase data not excluded
FALSE -- Auxillary Chn. data not excluded
Tab delimiters

#CALIBRATION STATE
TRUE -- Waveform Calibration Values APPLIED.


#AUX CALIBRATION VALUES
Val Type	aux-1	

Term	1.0000e+00	
Factor	0.0000e+00	


#WF CALIBRATION VALUES
A = Detector Channel
Val Type	A-AC1	A-AC2	A-AC3	A-AC4	A-AC5	A-AC6	A-AC7	A-AC8	A-AC9	A-AC10	A-AC11	A-AC12	A-AC13	A-AC14	A-AC15	A-AC16	A-DC1	A-DC2	A-DC3	A-DC4	A-DC5	A-DC6	A-DC7	A-DC8	A-DC9	A-DC10	A-DC11	A-DC12	A-DC13	A-DC14	A-DC15	A-DC16	A-Ph1	A-Ph2	A-Ph3	A-Ph4	A-Ph5	A-Ph6	A-Ph7	A-Ph8	A-Ph9	A-Ph10	A-Ph11	A-Ph12	A-Ph13	A-Ph14	A-Ph15	A-Ph16	

Term	0.00000e+00	0.00000e+00	0.00000e+00	0.00000e+00	0.00000e+00	0.00000e+00	0.00000e+00	0.00000e+00	0.00000e+00	0.00000e+00	0.00000e+00	0.00000e+00	0.00000e+00	0.00000e+00	0.00000e+00	0.00000e+00	0.00000e+00	0.00000e+00	0.00000e+00	0.00000e+00	0.00000e+00	0.00000e+00	0.00000e+00	0.00000e+00	0.00000e+00	0.00000e+00	0.00000e+00	0.00000e+00	0.00000e+00	0.00000e+00	0.00000e+00	0.00000e+00	0.00000e+00	0.00000e+00	0.00000e+00	0.00000e+00	0.00000e+00	0.00000e+00	0.00000e+00	0.00000e+00	0.00000e+00	0.00000e+00	0.00000e+00	0.00000e+00	0.00000e+00	0.00000e+00	0.00000e+00	0.00000e+00	
Factor	1.00000e+00	1.00000e+00	1.00000e+00	1.00000e+00	1.00000e+00	1.00000e+00	1.00000e+00	1.00000e+00	1.00000e+00	1.00000e+00	1.00000e+00	1.00000e+00	1.00000e+00	1.00000e+00	1.00000e+00	1.00000e+00	1.00000e+00	1.00000e+00	1.00000e+00	1.00000e+00	1.00000e+00	1.00000e+00	1.00000e+00	1.00000e+00	1.00000e+00	1.00000e+00	1.00000e+00	1.00000e+00	1.00000e+00	1.00000e+00	1.00000e+00	1.00000e+00	X	X	X	X	X	X	X	X	X	X	X	X	X	X	X	X	

B = Detector Channel
Val Type	B-AC1	B-AC2	B-AC3	B-AC4	B-AC5	B-AC6	B-AC7	B-AC8	B-AC9	B-AC10	B-AC11	B-AC12	B-AC13	B-AC14	B-AC15	B-AC16	B-DC1	B-DC2	B-DC3	B-DC4	B-DC5	B-DC6	B-DC7	B-DC8	B-DC9	B-DC10	B-DC11	B-DC12	B-DC13	B-DC14	B-DC15	B-DC16	B-Ph1	B-Ph2	B-Ph3	B-Ph4	B-Ph5	B-Ph6	B-Ph7	B-Ph8	B-Ph9	B-Ph10	B-Ph11	B-Ph12	B-Ph13	B-Ph14	B-Ph15	B-Ph16	

Term	0.00000e+00	0.00000e+00	0.00000e+00	0.00000e+00	0.00000e+00	0.00000e+00	0.00000e+00	0.00000e+00	0.00000e+00	0.00000e+00	0.00000e+00	0.00000e+00	0.00000e+00	0.00000e+00	0.00000e+00	0.00000e+00	0.00000e+00	0.00000e+00	0.00000e+00	0.00000e+00	0.00000e+00	0.00000e+00	0.00000e+00	0.00000e+00	0.00000e+00	0.00000e+00	0.00000e+00	0.00000e+00	0.00000e+00	0.00000e+00	0.00000e+00	0.00000e+00	-1.24800e+02	-1.16634e+02	-1.29995e+02	-1.80706e+02	-6.11392e+01	-6.94748e+01	-1.57159e+02	-1.62015e+02	-6.67130e+01	-5.72230e+01	-1.71511e+02	-1.71642e+02	-1.83814e+02	-1.76696e+02	-6.69023e+01	-1.49473e+02	
Factor	1.81256e-05	1.48595e-04	5.07064e-05	1.73345e-01	1.14927e-06	1.62709e-06	1.76141e-01	5.08507e-02	1.13298e-06	1.97013e-06	8.39836e-02	3.24818e-02	3.96211e-02	9.43235e-03	1.51920e-06	1.35113e-02	3.72604e-06	4.28391e-06	1.19661e-06	8.67944e-02	4.61597e-08	4.70531e-08	8.31920e-02	2.56237e-02	4.59152e-08	4.70652e-08	4.08834e-02	1.59073e-02	1.98859e-02	4.76056e-03	4.61465e-08	6.62021e-03	X	X	X	X	X	X	X	X	X	X	X	X	X	X	X	X	



#DISTANCE SETTINGS
A = Detector Channel
A-1	A-2	A-3	A-4	A-5	A-6	A-7	A-8	A-9	A-10	A-11	A-12	A-13	A-14	A-15	A-16	

2.5000e+00	3.0000e+00	2.5000e+00	3.0000e+00	2.0000e+00	3.0000e+00	1.5000e+00	3.0000e+00	3.0000e+00	3.0000e+00	3.0000e+00	3.0000e+00	3.0000e+00	3.0000e+00	1.5000e+00	3.0000e+00	

B = Detector Channel
B-1	B-2	B-3	B-4	B-5	B-6	B-7	B-8	B-9	B-10	B-11	B-12	B-13	B-14	B-15	B-16	

1.0000e+01	1.0000e+01	1.0000e+01	1.4400e+00	1.0000e+01	1.0000e+01	1.5100e+00	1.9400e+00	1.0000e+01	1.0000e+01	1.9900e+00	2.4900e+00	2.4100e+00	2.9000e+00	1.0000e+01	2.9800e+00	




#DATA BEGINS
time	group	step	mark	flag	A-AC1	A-AC2	A-AC3	A-AC4	A-AC5	A-AC6	A-AC7	A-AC8	A-AC9	A-AC10	A-AC11	A-AC12	A-AC13	A-AC14	A-AC15	A-AC16	A-DC1	A-DC2	A-DC3	A-DC4	A-DC5	A-DC6	A-DC7	A-DC8	A-DC9	A-DC10	A-DC11	A-DC12	A-DC13	A-DC14	A-DC15	A-DC16	A-Ph1	A-Ph2	A-Ph3	A-Ph4	A-Ph5	A-Ph6	A-Ph7	A-Ph8	A-Ph9	A-Ph10	A-Ph11	A-Ph12	A-Ph13	A-Ph14	A-Ph15	A-Ph16	B-AC1	B-AC2	B-AC3	B-AC4	B-AC5	B-AC6	B-AC7	B-AC8	B-AC9	B-AC10	B-AC11	B-AC12	B-AC13	B-AC14	B-AC15	B-AC16	B-DC1	B-DC2	B-DC3	B-DC4	B-DC5	B-DC6	B-DC7	B-DC8	B-DC9	B-DC10	B-DC11	B-DC12	B-DC13	B-DC14	B-DC15	B-DC16	B-Ph1	B-Ph2	B-Ph3	B-Ph4	B-Ph5	B-Ph6	B-Ph7	B-Ph8	B-Ph9	B-Ph10	B-Ph11	B-Ph12	B-Ph13	B-Ph14	B-Ph15	B-Ph16	aux-1	digaux	

7428.347	1	1	0	256	0.30565	0.11009	0.12585	0.11113	0.10074	0.17165	0.15403	0.10213	0.13525	0.14431	0.11452	0.19776	0.17594	0.14606	0.26808	0.079173	-2.35	-2.6688	-2.7375	-3.0125	-2.7542	-2.9104	-2.85	-3.1	-2.9917	-2.5604	-3.1229	-2.9354	-2.4771	-3.0229	-2.675	-2.925	-38.861	223.460	-84.941	115.159	230.304	24.963	156.220	113.341	92.817	237.427	41.168	-35.995	-76.299	161.725	-58.888	233.147	0.00014821	0.00033778	7.5708e-05	1131.6	1.6495e-06	3.6449e-06	1116.8	294.12	5.2751e-07	4.4524e-06	340.73	112.32	97.232	33.753	6.106e-06	42.364	0.00056621	0.00061875	0.00017078	1160.7	6.629e-06	6.7138e-06	1156.2	304.33	6.5356e-06	6.556e-06	351.06	118.45	102.43	35.245	6.7202e-06	44.212	183.182	-24.411	-30.362	-83.092	65.160	51.945	-83.408	-78.257	219.962	6.202	-78.837	-74.709	-73.989	-69.269	3.419	-69.898	-8191	255	
7428.420	1	1	0	0	0.12886	0.20761	0.1289	0.05596	0.029817	0.16561	0.12972	0.15536	0.17152	0.19205	0.092529	0.26419	0.11801	0.079716	0.18318	0.18112	-2.3812	-2.5854	-2.8	-3.0687	-2.5958	-3.0583	-2.8771	-2.7896	-2.9583	-2.55	-3.0354	-2.9833	-2.5958	-3.0146	-2.6917	-2.825	232.822	127.756	24.515	246.114	172.325	5.700	-75.219	171.127	42.736	251.518	173.614	244.595	-79.644	248.416	180.702	-39.912	0.00016579	0.00035074	0.00019624	1132.2	2.0042e-06	4.231e-06	1123.4	295.29	2.3941e-06	2.3096e-06	340.01	113.4	98.359	34.004	3.1012e-06	42.494	0.00059452	0.00063916	0.00018192	1161.1	7.2469e-06	7.3877e-06	1160.9	305.76	7.3315e-06	7.5394e-06	353.05	119.24	103.75	35.554	7.513e-06	44.526	192.277	29.339	-28.407	-83.148	62.449	101.307	-83.116	-78.178	-19.840	122.503	-78.895	-74.904	-74.094	-69.491	35.777	-69.976	-8191	255	
7428.516	1	1	0	0	0.075519	0.097064	0.14102	0.14598	0.3001	0.3034	0.27226	0.22414	0.050437	0.18125	0.056976	0.10051	0.21019	0.039844	0.52081	0.16601	-2.4792	-2.5292	-2.6792	-2.9771	-2.5938	-2.7104	-2.9417	-2.6021	-2.9625	-2.9	-2.9396	-3.0146	-2.6104	-2.8333	-2.7	-2.6646	246.054	5.986	-58.166	166.224	170.382	88.988	225.777	240.219	77.067	234.571	199.365	142.532	110.150	229.804	123.327	-85.689	0.0001315	0.0006513	0.00018656	1139	2.1398e-06	3.5772e-06	1130.2	297.08	6.7188e-07	6.7326e-06	343.19	113.9	98.053	34.038	2.9644e-06	42.791	0.00065012	0.00070635	0.00019863	1171.9	7.7184e-06	7.6944e-06	1168.8	307.65	7.4984e-06	7.6554e-06	355.56	119.83	103.92	35.624	7.2208e-06	44.632	201.857	33.541	5.077	-82.966	-4.319	19.796	-82.978	-78.075	-40.108	42.506	-78.805	-74.738	-74.155	-69.484	82.789	-70.117	-8191	255	
7428.635	1	1	0	0	0.11253	0.13235	0.2114	0.093598	0.037833	0.12556	0.068583	0.27707	0.21474	0.016717	0.085326	0.035186	0.17118	0.074662	0.14691	0.46091	-2.6229	-2.7167	-2.6604	-3.0292	-2.6771	-3.0354	-2.8479	-2.6167	-3.0208	-2.8667	-2.8208	-3.0458	-2.7667	-2.8937	-2.8583	-2.6813	238.945	-42.268	256.955	142.209	148.643	70.306	-78.746	222.019	29.394	54.046	12.096	-65.142	-59.667	-6.459	-18.299	181.454	0.00013731	0.00057829	0.00010874	1147.8	2.0542e-06	2.2259e-06	1133.7	298.18	1.1955e-06	4.7038e-06	342.11	113.97	98.284	34.026	4.2006e-06	42.74	0.00061833	0.00065954	0.00018355	1175.3	7.2027e-06	7.1e-06	1171.1	308.06	7.1465e-06	7.1883e-06	354.77	119.98	103.85	35.678	7.2888e-06	44.612	187.696	8.702	0.597	-83.002	27.050	54.096	-83.211	-78.398	-50.554	51.569	-79.025	-74.568	-74.127	-69.354	27.693	-70.008	-8191	255	
7428.731	1	1	0	0	0.10323	0.29065	0.17351	0.2792	0.21182	0.19875	0.25653	0.20271	0.089163	0.025766	0.084867	0.12627	0.068857	0.2157	0.33337	0.20589	-2.5875	-2.6979	-2.5833	-3.0917	-2.6417	-2.8583	-2.9979	-2.8292	-2.9104	-2.8208	-2.8146	-3.0604	-2.6479	-2.9125	-2.7521	-2.7062	34.416	252.459	145.049	252.012	88.572	-1.783	141.313	212.681	166.143	-56.203	-68.810	79.805	222.779	-35.725	46.040	146.607	0.00011425	0.00021614	0.00028105	1143.4	2.5523e-06	5.9685e-06	1137.4	298.19	2.8375e-06	8.295e-06	344.24	114.02	98.64	34.215	4.1577e-06	42.643	0.00063081	0.00067854	0.00018896	1176.5	7.4605e-06	7.4494e-06	1174.7	308.82	7.3773e-06	7.4734e-06	356.31	120.18	104.09	35.722	7.3009e-06	44.644	185.625	-49.829	-25.369	-83.029	51.028	78.494	-83.089	-78.228	-2.935	52.930	-79.045	-74.663	-74.077	-69.337	84.869	-69.884	-8191	255	
7428.828	1	1	0	0	0.17655	0.25037	0.24059	0.13021	0.084194	0.093262	0.22062	0.039189	0.14555	0.1331	0.13764	0.30546	0.13831	0.22538	0.10297	0.17266	-2.5563	-2.8312	-2.7104	-3.1896	-2.625	-2.7833	-2.9479	-2.5667	-3.0187	-2.6979	-2.7229	-2.9396	-2.6354	-2.7354	-3.0812	-2.6708	60.021	-14.374	-9.755	153.204	61.607	-89.753	242.062	10.779	-47.514	97.317	213.516	248.943	-91.764	210.911	82.454	-90.671	0.00013018	0.00038454	5.565e-05	1148	4.1567e-06	5.1161e-06	1135.3	297.68	2.5823e-06	5.7298e-06	344.57	114.91	98.832	34.107	4.3076e-06	42.821	0.0006217	0.00066831	0.00018345	1180.1	7.2224e-06	7.2664e-06	1175.7	308.84	7.1456e-06	7.1717e-06	356.35	120.5	104.24	35.738	7.2219e-06	44.678	192.088	8.155	-48.115	-83.093	59.326	64.107	-83.103	-78.278	58.589	69.978	-79.011	-74.592	-74.245	-69.582	28.485	-69.915	-8191	255	
7428.948	1	1	0	0	0.034221	0.01017	0.215	0.24764	0.15147	0.1356	0.45418	0.09047	0.26553	0.036698	0.15871	0.053293	0.10812	0.036688	0.15475	0.31556	-2.3208	-2.6792	-2.6	-3.0146	-2.4979	-2.5938	-3.1188	-2.6792	-2.7188	-2.7062	-2.6479	-2.825	-2.8271	-2.8625	-2.7458	-2.6063	28.183	103.243	26.198	260.946	-77.032	-39.544	254.879	51.319	-79.928	236.618	128.164	-18.044	-59.455	80.703	51.297	115.662	0.0001609	0.00036666	0.00012865	1155.5	3.6563e-06	5.5976e-06	1150.8	299.6	1.6791e-07	5.2819e-06	344.65	114.8	98.775	34.435	4.4569e-06	42.737	0.00061543	0.00066485	0.00018316	1184.9	7.18e-06	7.2156e-06	1181.3	309.84	7.1105e-06	7.1353e-06	356.81	120.54	104.37	35.798	6.9692e-06	44.694	180.933	28.122	6.416	-83.159	142.498	4.532	-83.327	-78.290	-77.221	31.953	-78.790	-74.635	-74.066	-69.694	94.646	-70.037	-8191	255	
7429.044	1	1	0	0	0.15503	0.11055	0.054014	0.20044	0.16825	0.094633	0.25952	0.14044	0.18422	0.12128	0.19661	0.14629	0.25788	0.26747	0.1269	0.39435	-2.3667	-2.7917	-2.5625	-3.0396	-2.7396	-2.5917	-3.1104	-2.8229	-2.6937	-2.8229	-2.6813	-2.9167	-2.7562	-2.4479	-2.8771	-2.7875	-67.690	174.044	-17.730	240.539	228.726	165.605	-74.136	166.665	-96.009	126.966	-48.781	-36.019	262.400	258.700	20.048	151.852	0.00012769	0.00033149	0.00010331	1158	3.7338e-06	4.7341e-06	1148.7	300.11	2.3044e-06	8.2745e-06	345.6	114.47	99.219	34.482	2.1116e-06	42.616	0.0005918	0.00062741	0.00017946	1188.2	6.9148e-06	6.9708e-06	1184.5	310.23	6.8864e-06	6.9939e-06	357.53	120.5	104.54	35.79	6.965e-06	44.582	206.124	82.231	28.657	-83.111	25.556	116.133	-83.197	-78.413	14.926	54.094	-79.254	-74.635	-74.350	-69.419	74.930	-69.957	-8191	255	
7429.116	1	1	0	0	0.32123	0.25703	0.13202	0.10368	0.07252	0.024193	0.21265	0.21991	0.35904	0.19724	0.28964	0.31749	0.18745	0.010058	0.11029	0.19594	-2.2771	-2.8292	-2.6063	-3.0687	-2.9938	-2.7042	-3.1958	-2.8729	-2.7729	-2.7917	-2.7479	-2.8833	-2.8167	-2.7542	-2.8625	-2.8396	45.836	17.230	22.772	-91.573	-15.477	-5.287	225.203	161.117	-18.985	-67.913	152.960	216.024	254.023	148.798	253.053	31.484	0.0001552	0.00011299	0.00019228	1154.8	3.8905e-06	4.2785e-06	1144.7	299.34	9.6275e-07	8.7287e-06	345.46	114.25	98.65	34.184	2.7638e-06	42.643	0.00060264	0.00064482	0.00018246	1186.3	7.0484e-06	7.0929e-06	1181.9	310.12	6.9139e-06	6.9998e-06	356.4	120.13	104.14	35.664	6.7333e-06	44.573	192.425	4.989	11.700	-83.089	48.482	23.093	-83.159	-78.566	74.172	85.220	-78.888	-74.775	-74.268	-69.688	12.370	-70.094	-8191	255	
7429.237	1	1	0	0	0.23131	0.1692	0.22533	0.15823	0.11511	0.22403	0.18678	0.10955	0.092518	0.25198	0.14664	0.23408	0.12466	0.11064	0.15675	0.1987	-2.3083	-2.9667	-2.6625	-3.0271	-2.9562	-2.5125	-3.0583	-2.8146	-2.6375	-2.8896	-2.5729	-2.9562	-2.8104	-2.6333	-2.8646	-2.8271	19.195	202.428	184.547	210.779	-33.666	253.959	233.566	47.548	10.351	10.303	154.751	185.104	-38.660	119.170	-90.092	-38.469	0.00015094	0.00046456	0.00014971	1152.2	1.9356e-06	3.3002e-06	1138.6	298.82	9.1424e-07	1.3793e-06	343.76	113.75	98.687	33.795	2.6223e-06	42.375	0.00057209	0.00061529	0.00017248	1181	6.5298e-06	6.5322e-06	1173.1	308.43	6.3332e-06	6.3625e-06	354.17	119.34	103.14	35.328	5.7898e-06	44.055	192.006	-10.425	-8.876	-83.303	25.317	20.784	-83.222	-78.299	146.984	96.872	-78.728	-74.722	-74.366	-69.421	58.855	-69.940	-8191	255	
7429.333	1	1	0	0	0.079533	0.12727	0.24698	0.35287	0.32297	0.12246	0.055737	0.17083	0.051327	0.28319	0.1222	0.33428	0.13029	0.064188	0.25332	0.21509	-2.1813	-2.7396	-2.475	-2.6917	-2.7708	-2.6354	-3.0542	-2.9167	-2.6375	-2.8	-2.7646	-2.8167	-2.9729	-2.6937	-2.8667	-2.8563	133.195	245.843	256.135	134.728	218.829	20.172	147.384	181.962	43.689	40.399	182.196	237.624	218.571	235.651	-67.967	263.063	0.00016653	0.00047296	0.00017962	1132.1	2.633e-06	5.1683e-06	1124.4	293.7	2.4263e-06	8.2216e-06	338.26	112.41	96.948	33.497	1.9021e-06	41.775	0.0004932	0.00051452	0.0001419	1160.6	5.3231e-06	5.3016e-06	1153.5	303.61	5.0717e-06	5.0742e-06	348.03	117.4	101.25	34.722	4.6992e-06	43.483	182.952	31.676	-19.727	-82.894	85.897	45.531	-83.071	-78.346	57.308	93.099	-78.686	-74.737	-74.080	-69.103	123.569	-69.984	-8191	255	
7429.427	1	1	0	0	0.2829	0.19887	0.14137	0.16353	0.10752	0.066917	0.13032	0.09388	0.24047	0.25247	0.079438	0.20325	0.19093	0.2528	0.16389	0.13381	-2.1396	-2.9083	-2.6063	-2.9583	-3.0771	-2.7146	-3.125	-3.0021	-2.4875	-2.9313	-2.8271	-2.8104	-3.0062	-2.5646	-2.8979	-2.7875	69.638	139.402	46.795	210.186	241.015	192.132	-63.611	166.095	-44.778	248.037	242.857	-43.553	144.432	258.696	209.578	190.771	0.00013773	0.00034688	0.00025651	1119.7	1.8647e-06	5.0034e-06	1113.7	291.22	2.8244e-06	3.5191e-06	336.34	112.09	96.609	33.533	2.0901e-06	41.83	0.00041456	0.00043332	0.00012228	1145	4.7711e-06	4.7793e-06	1143.4	300.91	4.6962e-06	4.6902e-06	346.26	117.03	100.91	34.743	4.7044e-06	43.457	191.834	14.959	-7.041	-82.937	77.135	95.743	-83.015	-78.040	80.128	102.628	-78.672	-74.541	-74.221	-69.271	81.490	-69.960	-8191	255	
7429.523	1	1	0	0	0.061404	0.13205	0.12027	0.12799	0.10395	0.15364	0.10694	0.12147	0.20071	0.14016	0.10946	0.15486	0.11164	0.1802	0.043426	0.10361	-2.0438	-2.8604	-2.4917	-2.6542	-2.9896	-2.5875	-2.9	-3.2104	-2.5563	-2.95	-2.7687	-2.8167	-2.9917	-2.8042	-2.6958	-3.0479	46.709	156.622	130.572	241.732	197.782	19.925	188.282	159.716	206.763	252.006	211.384	-76.608	134.281	-52.480	226.075	246.257	0.00013267	0.00033967	0.00017648	1123.9	1.3936e-06	2.0791e-06	1116.4	292.77	3.6597e-06	5.1859e-06	337.82	112.3	97.021	33.606	3.5482e-06	42.051	0.00041763	0.00043691	0.00012148	1150.2	4.754e-06	4.7987e-06	1146.9	301.7	4.7487e-06	4.6798e-06	347.51	117.26	101.31	34.82	4.7491e-06	43.534	199.651	1.215	-8.467	-82.972	133.974	98.635	-83.189	-78.266	20.345	49.123	-78.825	-74.510	-73.990	-69.373	62.824	-70.009	-8191	255	
7429.644	1	1	0	0	0.14682	0.16833	0.23462	0.10181	0.16631	0.12204	0.12402	0.21131	0.15759	0.15283	0.10634	0.12562	0.14972	0.12744	0.19751	0.075395	-2.0812	-2.75	-2.7229	-2.7917	-3.125	-2.7917	-2.8708	-2.8979	-2.5208	-2.8271	-2.9729	-2.675	-2.8625	-2.8438	-2.6063	-3.1583	50.475	211.944	50.617	187.499	134.494	216.856	113.003	128.911	58.959	261.818	186.142	137.197	136.990	-9.291	48.139	-54.642	0.00015805	0.00062432	0.0001787	1128.1	3.6639e-06	4.5438e-06	1117.3	292.86	1.6608e-06	4.6128e-06	337.82	112.51	96.89	33.653	5.307e-06	42.296	0.00041305	0.00043101	0.00012304	1155.1	4.7324e-06	4.6788e-06	1149.8	302.25	4.6985e-06	4.7652e-06	347.71	117.5	101.38	34.875	4.7937e-06	43.647	192.321	-10.706	-23.797	-82.858	52.669	27.635	-83.066	-78.288	28.104	55.013	-78.850	-74.507	-74.087	-69.397	32.151	-69.919	-8191	255	
7429.716	1	1	0	0	0.1067	0.14892	0.16166	0.22879	0.18395	0.14744	0.21157	0.25673	0.092072	0.18212	0.056564	0.22598	0.095676	0.36338	0.22388	0.10789	-2.0687	-2.8271	-2.8083	-2.7812	-2.9896	-2.7354	-2.7438	-3.0167	-2.4708	-2.6937	-2.9688	-2.5312	-2.9188	-2.8292	-2.5604	-3.1167	-5.523	185.730	256.302	230.793	33.932	191.218	224.647	124.003	-51.667	73.539	216.345	-44.148	162.047	-65.764	8.193	-91.224	0.00012923	0.00027388	0.00011995	1131.7	2.9281e-06	6.1851e-06	1119.3	294.07	1.6448e-06	7.194e-06	338.93	112.82	97.445	33.704	4.1551e-06	42.064	0.00042089	0.00043749	0.0001229	1156.8	4.8381e-06	4.8756e-06	1153.5	303.18	4.9116e-06	4.9371e-06	348.77	117.7	101.77	34.984	5.0606e-06	43.744	191.223	-12.643	-40.974	-82.912	63.958	76.636	-83.169	-78.237	61.666	61.507	-78.887	-74.555	-73.799	-69.409	20.920	-70.066	-8191	255	
7429.812	1	1	0	0	0.083368	0.24561	0.18896	0.081575	0.16828	0.12462	0.34344	0.2108	0.056167	0.094401	0.16863	0.11699	0.24752	0.13841	0.055903	0.067084	-2.3729	-2.7354	-2.8125	-2.7604	-2.8771	-2.9771	-2.7833	-3.1146	-2.6917	-2.7104	-2.9688	-2.7021	-2.9167	-2.9604	-2.8063	-2.9604	225.648	51.506	-94.702	205.670	73.175	-18.518	189.652	172.995	91.191	-22.704	233.613	35.476	57.144	180.990	219.153	182.454	0.00014565	0.00063459	0.00014457	1134.1	8.7257e-07	3.4659e-06	1124.5	294.76	1.3053e-06	3.3391e-06	339.74	112.02	97.404	33.756	2.1237e-06	42.12	0.00044764	0.00047363	0.00013196	1159.3	5.3023e-06	5.2375e-06	1157.9	303.93	5.3609e-06	5.376e-06	350.71	117.93	102.06	35.104	5.3461e-06	43.888	211.590	6.722	-20.770	-83.201	9.687	49.647	-83.272	-78.312	107.906	102.638	-78.863	-74.585	-73.771	-69.343	-0.156	-69.844	-8191	255	
7429.908	1	1	0	0	0.1276	0.10909	0.1834	0.16991	0.04854	0.10584	0.29559	0.1968	0.36522	0.12653	0.18531	0.026262	0.2339	0.149	0.10696	0.11947	-2.2333	-2.6562	-3.0104	-2.7354	-2.9417	-3.0854	-2.6625	-3.0229	-2.6292	-2.8083	-2.9	-2.5833	-2.6521	-2.9437	-2.5312	-2.8958	104.308	240.482	-10.857	-76.462	-51.906	1.429	234.760	215.602	61.649	-27.254	-86.551	122.965	181.175	84.866	124.730	188.533	0.00013462	0.0003554	5.241e-05	1135.9	2.3195e-06	6.8222e-06	1124.7	294.05	1.7544e-06	5.2802e-06	341.31	113.45	97.724	33.655	3.6285e-06	42.032	0.00046694	0.00049351	0.00013734	1162.6	5.373e-06	5.3012e-06	1158.4	303.98	5.3423e-06	5.3628e-06	350.87	118.39	102.01	35.099	5.4389e-06	43.812	203.545	1.941	17.261	-83.007	51.811	80.763	-83.031	-78.176	14.713	93.991	-78.673	-74.719	-74.147	-69.301	44.905	-70.038	-8191	255	
7430.029	1	1	0	0	0.15446	0.20953	0.075944	0.19068	0.085395	0.15656	0.38085	0.088232	0.19241	0.065629	0.31302	0.26744	0.22813	0.2749	0.078909	0.24666	-2.4437	-2.6562	-2.8896	-2.7646	-2.6437	-2.9833	-2.5708	-2.9938	-3.0417	-2.6458	-2.975	-2.8667	-2.7458	-2.9854	-2.7604	-2.9146	9.798	-63.435	116.842	239.636	-14.047	-16.550	158.881	200.532	174.575	31.908	-19.713	135.608	-83.573	-85.644	203.495	74.334	0.00014924	0.00031299	0.00013879	1135.8	2.5505e-06	4.2433e-06	1129.7	295.29	2.6386e-06	3.2859e-06	340.88	112.99	97.538	33.901	3.9428e-06	42.317	0.00047934	0.00050722	0.00014204	1162.7	5.6037e-06	5.6575e-06	1161.1	304.36	5.5974e-06	5.6471e-06	351.56	118.31	102.32	35.229	5.6499e-06	43.964	198.458	-42.450	-36.300	-83.056	26.111	24.383	-82.970	-78.322	26.302	56.581	-78.959	-74.680	-74.155	-69.298	51.489	-69.785	-8191	255	
7430.125	1	1	0	0	0.11895	0.34181	0.22723	0.2707	0.14746	0.1816	0.33031	0.33935	0.04954	0.093394	0.16959	0.23462	0.16641	0.20345	0.059066	0.20759	-2.4292	-2.5333	-2.8792	-2.8625	-2.7104	-2.8521	-2.8833	-2.9938	-2.7938	-2.5125	-3.1729	-2.7687	-2.6458	-2.9292	-2.5042	-3.0583	140.757	88.099	101.614	141.947	220.161	102.433	212.833	-94.755	238.296	69.245	-76.500	9.617	95.600	181.316	242.408	68.219	0.00013307	0.0004135	0.00011399	1137.6	1.9672e-06	1.5977e-06	1128.5	294.91	2.0543e-06	4.4097e-06	341.87	113.44	97.837	33.817	4.2066e-06	42.313	0.00048498	0.00052124	0.0001449	1165.2	5.5812e-06	5.6084e-06	1161.9	304.47	5.5005e-06	5.5052e-06	351.67	118.61	102.3	35.267	5.4115e-06	43.992	194.909	-15.741	-22.326	-83.148	32.122	110.792	-83.217	-78.444	84.421	70.856	-78.722	-74.661	-74.288	-69.103	5.756	-69.875	-8191	255	
7430.221	1	1	0	0	0.030786	0.040761	0.11776	0.21509	0.077294	0.25091	0.21356	0.18749	0.17081	0.080177	0.22651	0.13134	0.27058	0.039777	0.017277	0.07637	-2.4792	-2.5604	-2.9229	-2.9646	-2.7313	-2.9708	-2.7812	-2.7938	-2.9062	-2.65	-2.9813	-2.9229	-2.5875	-2.8563	-2.7687	-2.8917	-8.765	63.014	80.423	223.456	55.119	193.686	252.915	215.303	134.952	107.499	237.353	241.652	161.661	250.714	103.066	150.444	0.00014942	0.00036462	0.00010757	1135.9	2.4073e-06	5.94e-07	1129.9	295.65	1.461e-06	5.2632e-06	341.34	113.16	97.823	33.895	2.4239e-06	42.339	0.00047449	0.00050315	0.00014106	1164.9	5.5317e-06	5.5067e-06	1164.5	305.12	5.4994e-06	5.5778e-06	351.51	118.55	102.42	35.264	5.4725e-06	44.042	199.420	8.193	-8.553	-83.037	10.342	89.157	-83.213	-78.118	35.234	55.352	-78.835	-74.772	-74.259	-69.463	19.858	-69.837	-8191	255	
7430.317	1	1	0	0	0.049105	0.18738	0.15538	0.28829	0.26181	0.096798	0.12523	0.20923	0.24933	0.081824	0.10821	0.091141	0.031235	0.022579	0.061494	0.23144	-2.5729	-2.6854	-2.6792	-2.7375	-2.6521	-2.8604	-2.9458	-2.8729	-2.8854	-2.575	-2.9437	-2.8958	-2.6854	-2.9396	-2.7958	-2.7729	241.082	196.765	187.164	124.966	263.337	-75.615	215.102	197.188	83.938	65.702	184.140	157.405	-70.369	133.042	55.744	32.200	0.00011141	0.00051535	0.00013608	1135	1.5553e-06	1.9706e-06	1130.7	296.81	1.7284e-06	3.1002e-06	340.59	113.2	97.93	33.998	2.0919e-06	42.301	0.00047849	0.00050482	0.00014121	1164.7	5.5043e-06	5.5686e-06	1165.4	305.63	5.5851e-06	5.7349e-06	352.07	118.69	102.7	35.332	5.6578e-06	44.062	190.048	-13.600	-2.048	-82.974	43.475	12.205	-83.111	-78.313	-55.920	103.026	-78.910	-74.767	-74.091	-69.373	83.449	-70.021	-8191	255	
7430.413	1	1	0	0	0.23408	0.09381	0.2985	0.10566	0.39939	0.11251	0.071091	0.23079	0.26464	0.12116	0.13807	0.092099	0.23044	0.16836	0.22179	0.10174	-2.45	-2.6167	-2.7167	-2.9938	-2.5604	-2.95	-2.7938	-2.6771	-2.8458	-2.7979	-3.0208	-2.9083	-2.4479	-2.7479	-2.7833	-2.6875	-71.683	207.981	-36.020	89.076	100.204	24.141	-26.370	223.384	187.070	-35.861	-80.700	-75.222	-47.768	245.693	237.948	-22.484	0.00014766	0.00036821	0.00011777	1139.1	1.3973e-06	3.7743e-06	1138.6	296.34	1.1706e-06	5.2137e-06	343.03	113.36	97.94	34.111	5.3415e-06	42.45	0.00049594	0.00052602	0.00014678	1170.2	5.7122e-06	5.7706e-06	1167.9	306.47	5.7852e-06	5.8218e-06	353.69	119	103.06	35.517	5.9368e-06	44.288	182.964	-22.807	-47.912	-82.966	-2.304	30.415	-83.140	-78.301	-51.082	96.619	-78.830	-74.623	-74.301	-69.388	39.436	-70.142	-8191	255	
7430.509	1	1	0	0	0.14262	0.053149	0.07192	0.26711	0.053451	0.12191	0.044256	0.14527	0.12252	0.18696	0.21063	0.2021	0.26161	0.079972	0.36982	0.11809	-2.3354	-2.6292	-2.7792	-3.0979	-2.6479	-2.9437	-2.9271	-2.6708	-2.9146	-2.4688	-2.7938	-2.9354	-2.7479	-2.8521	-2.8708	-2.7396	66.808	182.433	157.186	196.121	140.368	6.752	239.740	-2.583	243.995	240.262	111.551	235.090	244.040	231.417	-48.247	204.595	0.00013204	0.00027363	0.00014909	1149.8	3.2955e-06	4.2127e-06	1144.9	297.78	2.4883e-06	5.8289e-06	344.99	114.6	99.227	34.349	3.0453e-06	42.735	0.00052508	0.00056728	0.00015951	1177.9	6.262e-06	6.2929e-06	1177.1	308.64	6.4498e-06	6.5879e-06	356.66	120.31	104.36	35.814	6.6283e-06	44.723	209.995	18.616	-8.205	-83.063	63.824	68.979	-83.129	-78.178	56.671	21.052	-79.010	-74.776	-74.015	-69.122	52.682	-69.996	-8191	255	
7430.628	1	1	0	0	0.17447	0.14481	0.30418	0.12217	0.051115	0.065265	0.31106	0.15662	0.17159	0.10375	0.16208	0.18298	0.16565	0.2919	0.28029	0.073345	-2.3208	-2.6167	-2.7438	-3.0917	-2.5833	-2.8667	-2.9667	-2.5646	-2.875	-2.8354	-2.8104	-3.0208	-2.7771	-2.7979	-2.6708	-2.5125	129.276	183.182	38.213	-58.839	-51.769	-29.263	174.739	240.455	134.728	57.841	-69.833	101.257	244.367	250.502	92.621	137.573	0.00018688	0.00036357	0.00012569	1156.5	3.0493e-07	2.9415e-06	1148.4	300.56	1.9411e-06	5.7843e-06	347.64	115.09	100.22	34.542	1.1209e-06	43.094	0.00057782	0.00061068	0.00017054	1186.9	6.7367e-06	6.8058e-06	1184.6	311.08	6.6136e-06	6.6505e-06	359.18	121.01	105.1	36.009	6.5913e-06	44.919	194.454	51.860	-25.715	-82.953	55.690	85.776	-83.300	-78.355	-30.444	44.671	-78.785	-74.714	-74.426	-69.183	112.469	-69.806	-8191	255	
7430.724	1	1	0	0	0.087663	0.13494	0.068122	0.17397	0.20732	0.12026	0.1019	0.19781	0.22617	0.19467	0.20398	0.078156	0.12618	0.22336	0.29516	0.29744	-2.5542	-2.7042	-2.4896	-2.8708	-2.6896	-2.8375	-3.0229	-2.7083	-2.9083	-2.9229	-2.5396	-2.9938	-2.8458	-2.6063	-3.0167	-2.6167	187.104	105.928	162.817	152.380	229.127	160.338	216.902	212.144	30.118	154.935	-58.583	165.912	254.895	240.691	117.357	215.471	0.0001501	0.00067626	0.00015046	1163.4	2.1959e-06	2.8489e-06	1156.1	302.85	2.0742e-06	4.9798e-06	348.88	115.52	99.652	34.686	4.9019e-06	43.099	0.0005766	0.00061211	0.00017149	1191.2	6.8278e-06	6.8459e-06	1189.3	312.89	6.8815e-06	7.0149e-06	360.42	121.48	105.13	36.14	6.9625e-06	45.027	198.889	33.813	76.618	-83.047	54.781	39.755	-83.063	-78.368	-29.110	72.062	-78.926	-74.736	-74.166	-69.605	76.509	-70.077	-8191	255	
7430.821	1	1	0	0	0.21392	0.29058	0.19864	0.25764	0.16251	0.24607	0.19567	0.19102	0.10525	0.27292	0.070644	0.23729	0.19173	0.1915	0.12276	0.15115	-2.4313	-2.7792	-2.5125	-3.2021	-2.6271	-2.5667	-3.1083	-2.7562	-2.8688	-2.9208	-2.7438	-3.025	-2.7396	-2.6792	-2.8167	-2.7042	-21.887	159.964	129.346	190.748	39.951	243.185	164.595	65.965	170.945	164.278	180.603	231.960	91.735	217.310	192.922	138.515	0.00015272	0.00045951	0.00012325	1157.8	4.9261e-06	4.7432e-06	1158.6	303.01	4.0309e-06	2.0287e-06	348.79	115.96	99.752	34.73	3.2208e-06	43.072	0.00059933	0.00064127	0.00018168	1193.4	7.1194e-06	7.108e-06	1191.8	313.54	7.1344e-06	7.1546e-06	361.65	121.86	105.54	36.326	7.2004e-06	45.124	191.923	8.674	-33.087	-82.989	46.231	49.537	-83.262	-78.234	-7.176	76.358	-78.848	-74.889	-74.161	-69.428	27.185	-70.055	-8191	255	
7430.917	1	1	0	0	0.029433	0.022956	0.14158	0.24043	0.26956	0.10173	0.18373	0.045278	0.21193	0.084039	0.11279	0.19238	0.31603	0.1885	0.12688	0.12604	-2.4354	-2.7125	-2.5354	-3.0479	-2.5479	-2.4917	-2.8812	-2.7354	-2.9375	-2.7479	-2.7562	-3.0229	-2.8187	-2.6521	-3.0104	-2.9104	-76.643	208.456	228.431	224.239	112.223	162.759	219.827	198.234	100.799	32.624	151.456	261.599	47.550	112.283	262.075	-44.634	0.00014013	0.00026762	6.1117e-05	1168.7	2.4191e-06	4.3423e-06	1161.7	303.49	1.9192e-06	6.2944e-06	350.79	116.29	100.82	34.724	3.1432e-06	43.339	0.0006113	0.00066122	0.00018772	1197.4	7.3932e-06	7.3189e-06	1197.2	314.74	7.3388e-06	7.3686e-06	363.08	122.16	105.95	36.36	7.441e-06	45.342	193.963	23.993	81.090	-83.205	43.143	-80.568	-83.122	-78.271	-2.052	80.527	-78.901	-74.640	-74.350	-69.583	47.828	-70.216	-8191	255	
7431.013	1	1	0	0	0.28299	0.15728	0.17526	0.12224	0.12208	0.056251	0.083461	0.37145	0.17837	0.061534	0.25117	0.071965	0.20088	0.18431	0.14745	0.19932	-2.2729	-2.7667	-2.5208	-3.0792	-2.7917	-2.6458	-3.0917	-2.8563	-2.7854	-2.9083	-2.6896	-2.8167	-2.9521	-2.6125	-2.9104	-2.8542	93.723	250.179	206.434	178.351	77.351	191.170	222.793	219.214	-56.295	156.637	256.974	235.389	83.212	169.727	40.548	-95.784	0.00016933	0.00058293	0.00012935	1171.5	4.6638e-06	2.6795e-06	1158.7	305.11	3.1133e-06	2.5205e-06	351.64	115.8	101.17	34.798	4.8658e-06	43.2	0.00063214	0.00068465	0.00019159	1202.2	7.4364e-06	7.496e-06	1198.9	315.3	7.4671e-06	7.5158e-06	363.75	122.35	106.35	36.507	7.4182e-06	45.337	202.040	-21.672	-13.340	-83.279	-39.724	36.480	-83.148	-78.330	60.878	-31.740	-79.059	-74.643	-74.247	-69.523	63.972	-69.795	-8191	255	
7431.109	1	1	0	0	0.22881	0.14061	0.24333	0.23849	0.06919	0.18685	0.025613	0.23221	0.074356	0.15619	0.11032	0.16541	0.048303	0.32632	0.11936	0.33879	-2.3063	-2.9708	-2.7	-3.0979	-2.8458	-2.575	-3.2208	-2.7812	-2.5896	-2.9896	-2.8271	-2.8688	-2.9208	-2.75	-2.9292	-2.875	-10.860	232.647	164.960	222.181	-14.200	68.519	125.284	256.582	201.958	17.274	215.693	151.865	-34.299	235.475	215.406	236.031	0.00015638	0.00068157	0.00014123	1171.8	1.8218e-06	4.9482e-06	1165.9	304.67	2.5477e-06	6.0438e-06	352.2	116.87	101.09	34.97	1.7951e-06	43.406	0.00063593	0.00068272	0.00018978	1205.6	7.4293e-06	7.4713e-06	1204.7	316.27	7.4764e-06	7.5802e-06	364.05	122.99	106.62	36.589	7.5634e-06	45.508	189.183	-23.996	-9.420	-83.024	3.461	67.249	-83.231	-78.466	87.344	71.842	-78.848	-74.713	-74.305	-69.456	47.196	-70.051	-8191	255	
7431.205	1	1	0	0	0.073453	0.15263	0.26577	0.21541	0.24112	0.014807	0.21557	0.16955	0.19274	0.097122	0.055911	0.1958	0.19832	0.044589	0.19068	0.18806	-2.3312	-2.9667	-2.7854	-2.8271	-2.85	-2.6625	-3.1792	-2.9458	-2.7125	-3.0479	-2.8646	-2.925	-2.8854	-2.4292	-2.7396	-2.9479	208.203	36.512	221.634	234.479	6.865	-86.192	234.717	225.461	-16.383	106.251	-48.612	-15.719	102.401	209.813	97.346	151.170	0.00015272	0.00063037	0.00010307	1172.7	1.1701e-06	1.8932e-06	1168.2	304.95	1.4694e-06	7.7134e-06	350.83	116.64	101.12	34.978	4.3118e-06	43.416	0.00065123	0.00069853	0.00019382	1205.4	7.5984e-06	7.504e-06	1205.3	316.66	7.5247e-06	7.5598e-06	364.67	122.9	106.63	36.599	7.3433e-06	45.549	195.886	11.330	69.717	-83.315	-25.407	34.045	-83.191	-78.414	30.884	61.626	-78.968	-74.708	-74.160	-69.531	79.330	-70.097	-8191	255	
7431.301	1	1	0	0	0.247	0.081931	0.075882	0.13067	0.018436	0.2267	0.24003	0.18535	0.24342	0.045961	0.22009	0.38063	0.33868	0.20881	0.053795	0.033941	-2.2021	-2.8667	-2.7771	-2.7917	-2.8187	-2.5687	-2.9062	-3.0104	-2.6562	-3	-2.8438	-2.7271	-3.0292	-2.6792	-2.7854	-2.8104	-50.967	191.402	122.094	43.432	-73.427	0.436	200.484	217.799	-54.695	67.360	199.888	94.271	48.159	260.260	-89.878	62.481	0.00015821	0.00042319	0.00023805	1175.3	2.9241e-06	4.4039e-06	1165.6	306.18	1.1993e-06	5.4716e-06	353.8	117.03	101.19	35.187	1.3633e-06	43.455	0.0006291	0.0006676	0.00018591	1207.4	7.185e-06	7.2495e-06	1204.6	316.59	7.2325e-06	7.1826e-06	365.42	122.91	106.48	36.619	7.0319e-06	45.506	192.432	41.466	-2.219	-83.180	0.388	50.232	-83.341	-78.302	-18.858	4.863	-78.951	-74.608	-74.184	-69.362	59.685	-70.268	-8191	255	
7431.420	1	1	0	0	0.064948	0.15888	0.25634	0.1255	0.091197	0.14829	0.12815	0.24935	0.12748	0.087394	0.062951	0.08011	0.10968	0.26312	0.25079	0.14534	-2.0542	-2.9062	-2.7979	-2.6688	-2.7188	-2.7458	-3.0104	-2.9813	-2.5083	-2.9875	-2.9125	-2.4854	-2.9896	-2.5479	-2.7354	-3.0083	-41.614	88.319	-52.912	-29.064	72.960	95.410	182.547	218.044	34.985	18.158	160.765	202.258	-27.974	195.986	251.338	-89.721	0.00015828	0.0003361	0.00011056	1174.1	2.2883e-06	1.2369e-06	1170.4	306.87	4.1797e-07	3.9324e-06	352.43	117.12	100.53	34.995	5.3439e-06	43.49	0.00061296	0.00064777	0.00017936	1205.6	7.0428e-06	7.0422e-06	1205.2	316.79	6.863e-06	6.9533e-06	364.66	122.73	106.21	36.496	6.7582e-06	45.474	193.705	12.304	-0.410	-82.979	9.871	-27.149	-83.203	-78.446	49.732	68.793	-78.905	-74.839	-74.203	-69.659	60.519	-70.033	-8191	255	
7431.516	1	1	0	0	0.17324	0.13872	0.024866	0.2007	0.17337	0.16101	0.30505	0.15839	0.032975	0.18204	0.18519	0.015724	0.26259	0.14183	0.177	0.054313	-2.2188	-2.9167	-2.7667	-2.7042	-2.8937	-2.7021	-2.9146	-3.1	-2.7333	-3.0021	-2.875	-2.7208	-3.0563	-2.8375	-2.7667	-3.125	110.481	2.713	167.708	215.527	96.207	132.358	211.318	-63.560	-40.079	-89.481	183.402	125.138	-42.917	243.849	117.873	-89.768	0.00017361	0.00031919	7.2903e-05	1173.2	1.7661e-06	3.6955e-06	1166.3	305.4	7.7228e-07	5.5773e-06	351.29	116.93	101.01	35.018	4.2683e-06	43.47	0.00058079	0.00061684	0.00017409	1202.6	6.7323e-06	6.7589e-06	1201.4	316.16	6.6195e-06	6.7003e-06	363.09	122.48	106.28	36.507	6.6925e-06	45.418	201.570	47.054	33.786	-83.172	120.677	53.351	-83.344	-78.307	-47.091	50.825	-79.053	-74.865	-74.362	-69.355	99.014	-70.300	-8191	255	
7431.590	1	1	0	0	0.18658	0.42502	0.2513	0.43599	0.11488	0.09608	0.13067	0.090541	0.11821	0.032598	0.28383	0.17749	0.1323	0.18627	0.13779	0.075793	-2.2458	-2.6625	-2.725	-2.5563	-2.9792	-2.7604	-2.8937	-3.1875	-2.7042	-2.5667	-2.9146	-2.6146	-2.6979	-2.8854	-2.5	-2.9646	170.693	-55.576	139.999	242.119	124.553	107.079	193.158	227.110	181.468	223.327	241.100	230.290	78.460	226.677	219.245	16.525	0.00012758	0.00044976	5.6904e-05	1172.4	1.5273e-06	4.2845e-06	1168.5	306	2.2475e-06	3.449e-06	352.77	116.8	100.83	34.969	3.1979e-06	43.365	0.00057079	0.00060712	0.00016879	1203.6	6.6469e-06	6.6107e-06	1200.8	316.18	6.5448e-06	6.5538e-06	364.12	122.48	106.1	36.458	6.4423e-06	45.32	195.716	0.470	14.463	-83.159	100.981	46.853	-83.032	-78.250	71.464	70.638	-78.905	-74.626	-73.948	-69.234	80.278	-69.925	-8191	255	
7431.709	1	1	0	0	0.024576	0.12254	0.084945	0.21356	0.016456	0.16543	0.10239	0.21529	0.26638	0.16796	0.083254	0.35752	0.1147	0.12405	0.1026	0.21217	-2.2792	-2.6917	-2.9875	-2.875	-2.8771	-2.9	-2.8187	-2.8729	-2.4875	-2.7771	-2.9042	-2.6208	-2.8521	-2.7125	-2.5979	-3.1	93.736	94.976	-60.991	262.937	5.454	-86.432	196.834	196.799	122.762	-68.690	-36.662	233.771	-82.856	135.165	147.476	-61.598	0.0001335	0.00064844	0.00024674	1174.2	5.3978e-06	5.9412e-06	1164	304.91	3.251e-06	6.1169e-06	350.96	116.43	100.49	34.979	3.5167e-06	43.42	0.00055592	0.00058986	0.00016388	1203.8	6.3665e-06	6.3822e-06	1199.1	315.98	6.3436e-06	6.3688e-06	363.23	122.23	105.9	36.411	6.2189e-06	45.3	193.606	-16.370	-44.670	-83.051	16.418	43.151	-83.187	-78.320	21.179	62.021	-78.719	-74.793	-74.319	-69.580	60.787	-69.925	-8191	255	
7431.805	1	1	0	0	0.03006	0.1437	0.16948	0.11116	0.13519	0.12142	0.22888	0.07823	0.13964	0.14948	0.15659	0.0691	0.11288	0.1207	0.064211	0.19813	-2.4854	-2.5333	-2.8604	-2.775	-2.9	-2.8729	-2.7521	-3.0979	-2.6271	-2.75	-3.1229	-2.6958	-2.7562	-3.0167	-2.6937	-3.0187	-86.829	-94.589	132.034	-55.354	107.577	-33.790	218.381	-88.954	-94.296	-92.656	234.938	243.352	43.617	130.009	142.837	224.309	0.00014654	0.00053138	0.00012617	1170.3	1.5169e-06	5.5525e-06	1165.4	305.3	7.0042e-07	4.1856e-06	351.61	116.57	101.08	35.103	3.822e-06	43.267	0.00053273	0.0005712	0.00015909	1200.7	6.121e-06	6.1579e-06	1199.8	315.27	6.115e-06	6.143e-06	363.03	122.16	105.85	36.434	6.0476e-06	45.248	192.070	23.808	-0.996	-82.953	49.675	55.639	-82.930	-78.348	-51.811	94.216	-78.923	-74.736	-74.109	-69.464	-1.932	-70.097	-8191	255	
7431.901	1	1	0	0	0.1293	0.20046	0.12631	0.26893	0.1753	0.10509	0.11184	0.12706	0.30533	0.25683	0.15313	0.13346	0.041649	0.14888	0.13567	0.084534	-2.4167	-2.5708	-3.0938	-2.4437	-2.7562	-3.0375	-2.8375	-2.8729	-2.8479	-2.6	-3.1562	-2.8667	-2.8937	-3.1167	-2.6292	-2.925	-66.363	22.947	34.350	217.815	-42.620	-76.776	221.138	219.139	240.968	197.766	-81.758	-41.403	-85.308	-25.428	93.767	21.811	0.00017712	0.00048691	0.00016799	1170.9	1.105e-06	5.8059e-06	1164	305.38	1.1164e-06	4.0151e-06	352.56	116.74	100.62	35.073	1.1366e-06	43.427	0.00051945	0.00055778	0.00015415	1201.5	5.8736e-06	5.9349e-06	1198.4	315.23	5.9316e-06	5.9336e-06	362.92	122.33	105.56	36.419	5.7799e-06	45.243	195.772	5.858	-12.102	-83.055	21.122	76.581	-83.212	-78.332	89.122	-16.375	-79.012	-74.557	-74.013	-69.801	67.299	-70.140	-8191	255	
7431.997	1	1	0	0	0.097226	0.070084	0.14405	0.11744	0.11182	0.094378	0.11196	0.24008	0.16598	0.07371	0.11386	0.019368	0.21966	0.22365	0.054407	0.16725	-2.5792	-2.6479	-2.8625	-2.8125	-2.6479	-3.0396	-2.4375	-2.6771	-2.7771	-2.6417	-3.0167	-2.9146	-2.8125	-3.0979	-2.6917	-2.9979	-24.069	113.027	46.213	240.388	181.922	258.474	257.310	-87.338	199.270	92.988	218.766	-78.991	-89.270	212.471	184.872	-59.431	0.00015494	0.00042773	0.00022296	1172.7	3.9621e-06	3.0215e-06	1167.2	305.05	2.4578e-06	5.2236e-06	349.53	116.59	101.04	34.896	4.3544e-06	43.465	0.00050525	0.00052925	0.00014795	1200.4	5.8061e-06	5.8355e-06	1197.5	315.01	5.7314e-06	5.7535e-06	361.61	122	105.67	36.344	5.6258e-06	45.205	210.026	6.850	29.198	-83.206	77.948	7.307	-83.290	-78.356	55.988	60.960	-78.912	-74.755	-74.374	-69.451	16.868	-70.163	-8191	255	
7432.118	1	1	0	0	0.097412	0.13294	0.081312	0.25786	0.22276	0.082467	0.23199	0.11958	0.15127	0.063618	0.18737	0.4045	0.16769	0.11865	0.18091	0.034291	-2.2167	-2.7854	-2.7354	-2.7875	-2.7146	-2.9833	-2.7042	-2.8438	-2.875	-2.6854	-2.9542	-2.7396	-2.6896	-2.8542	-2.625	-2.8187	-40.535	251.829	-88.828	182.184	-41.907	21.632	168.741	197.318	147.248	161.610	224.310	257.182	-31.574	213.380	117.987	145.716	0.00014296	0.0002403	0.00013768	1167.1	1.9909e-06	4.9575e-06	1166.3	305.82	1.8658e-06	4.2156e-06	351.47	116.31	100.89	34.974	2.5726e-06	43.354	0.00048434	0.00051068	0.00014332	1198.3	5.6607e-06	5.5836e-06	1197.9	315.2	5.6465e-06	5.5983e-06	362.44	121.83	105.67	36.42	5.5414e-06	45.255	198.895	6.642	-21.355	-83.108	91.879	67.857	-83.146	-78.262	26.885	39.525	-78.757	-74.356	-73.966	-69.416	6.389	-69.815	-8191	255	
7432.214	1	1	0	0	0.15127	0.092572	0.09978	0.15348	0.26244	0.16211	0.11856	0.26805	0.22222	0.05583	0.25616	0.15069	0.11184	0.079245	0.1447	0.40614	-2.4167	-2.5542	-2.7646	-2.8167	-2.6146	-3.05	-2.8333	-2.9083	-2.9917	-2.4521	-2.8021	-2.9167	-2.725	-2.9583	-2.6354	-2.7188	222.999	56.318	219.544	-87.302	164.705	44.142	235.543	165.207	24.202	256.384	262.244	206.096	118.730	251.495	-26.352	196.965	0.00014892	0.00044869	6.4755e-05	1169.4	1.7623e-06	4.2925e-06	1162.9	305.08	9.3687e-07	4.1208e-06	350.04	116.39	100.4	34.925	1.9399e-06	43.37	0.00048919	0.00052025	0.00014357	1199.5	5.6429e-06	5.6197e-06	1198.3	314.84	5.6338e-06	5.6434e-06	362.14	121.68	105.4	36.317	5.6105e-06	45.198	199.635	26.537	27.146	-83.111	107.361	27.700	-83.321	-78.240	-36.309	60.513	-79.107	-74.823	-74.185	-69.497	44.776	-69.794	-8191	255	
7432.310	1	1	0	0	0.22871	0.089619	0.22897	0.36605	0.046219	0.086438	0.26297	0.19446	0.20478	0.1911	0.33095	0.19535	0.10318	0.15648	0.26009	0.090812	-2.7812	-2.5729	-2.7979	-3.0542	-2.6625	-2.8667	-2.7896	-2.7042	-2.9083	-2.7812	-2.8937	-2.8958	-2.6833	-2.9521	-2.8479	-2.7646	112.335	123.385	150.229	-63.788	40.373	-95.198	216.610	215.005	119.849	130.662	181.649	-42.116	155.105	-62.355	164.630	243.608	0.00015591	0.00040866	0.00013459	1170.6	3.1348e-06	2.244e-06	1163.1	303.7	2.0962e-06	5.4395e-06	351.32	116.25	100.72	34.827	4.4332e-06	43.464	0.00048518	0.00051881	0.00014485	1197.9	5.6724e-06	5.5739e-06	1196.7	314.35	5.6103e-06	5.5976e-06	362.58	122.03	105.43	36.309	5.4672e-06	45.213	204.896	17.602	-1.113	-83.264	48.904	167.545	-83.260	-78.472	45.953	63.928	-78.845	-74.658	-74.089	-69.584	27.837	-69.823	-8191	255	
7432.406	1	1	0	0	0.11139	0.086671	0.25189	0.18361	0.20628	0.12002	0.28782	0.10904	0.17038	0.15008	0.15482	0.2618	0.11051	0.083246	0.12786	0.29332	-2.5812	-2.7708	-2.6042	-2.925	-2.7333	-2.8896	-2.8979	-2.8312	-2.9375	-2.7938	-2.9792	-3.0167	-2.8	-2.8917	-2.8375	-2.7938	-16.747	71.574	-80.349	225.252	-44.816	-46.725	184.447	-30.097	131.144	58.139	203.978	208.961	110.421	-30.079	147.782	175.441	0.00015543	0.00020722	0.00010103	1169.5	1.0228e-06	6.2545e-06	1161.7	304.25	2.8311e-06	6.8499e-06	351.85	116.68	101.29	35.042	1.6147e-06	43.412	0.00048174	0.00050824	0.00014027	1198.6	5.5342e-06	5.4779e-06	1195.1	314.27	5.4125e-06	5.4685e-06	362.19	121.82	105.55	36.299	5.2708e-06	45.23	203.243	-24.514	-19.686	-82.962	40.339	34.223	-83.188	-78.430	40.634	71.687	-79.025	-74.993	-74.298	-69.311	15.313	-69.929	-8191	255	
7432.501	1	1	0	0	0.15955	0.16263	0.22908	0.14676	0.12816	0.1337	0.18073	0.26846	0.13422	0.090677	0.34481	0.06863	0.30298	0.21273	0.18829	0.31755	-2.6271	-2.8937	-2.5333	-2.9979	-2.8667	-3.0479	-3.0333	-2.7042	-2.8312	-2.825	-2.7229	-3.0708	-2.6146	-2.9479	-2.7854	-2.6167	-48.025	143.649	27.481	258.018	113.254	197.706	188.577	203.931	33.439	-9.689	194.035	37.222	186.183	124.680	179.889	219.145	0.00015868	0.00024735	0.00010688	1171.8	2.8966e-06	4.1947e-06	1159.9	303.79	1.7116e-06	8.0056e-06	351	116.81	101.14	35.008	6.1093e-06	43.455	0.00046684	0.00049448	0.0001389	1196.9	5.3962e-06	5.396e-06	1194	314.07	5.4391e-06	5.3691e-06	361.78	121.77	105.6	36.315	5.3385e-06	45.155	191.812	-32.828	-15.213	-83.160	37.990	66.633	-83.138	-78.410	-57.175	98.739	-78.913	-74.773	-74.441	-69.533	41.592	-70.103	-8191	255	
7432.598	1	1	0	0	0.12058	0.22452	0.25684	0.14181	0.08755	0.29677	0.22325	0.27815	0.069117	0.31548	0.080137	0.15041	0.20534	0.075472	0.26861	0.17412	-2.4708	-2.8063	-2.5375	-3.1771	-2.6562	-2.8021	-3.0667	-2.7979	-2.8708	-2.7521	-2.6437	-2.9396	-2.6792	-2.9562	-2.8604	-2.7229	154.915	144.173	-83.890	234.807	201.420	197.232	241.321	-90.622	88.450	15.188	-45.042	249.605	143.213	137.708	56.053	115.337	0.00013728	0.00045819	0.00018848	1165.5	1.416e-06	1.7077e-06	1159.3	304.26	2.2909e-06	5.4719e-06	350.19	116.2	100.4	34.873	4.5209e-06	43.511	0.00047032	0.0004896	0.00013536	1193.5	5.2412e-06	5.2633e-06	1190.8	313.9	5.2185e-06	5.2222e-06	361.23	121.53	105.05	36.246	5.18e-06	45.124	192.449	9.385	3.418	-83.206	-30.479	83.755	-83.474	-78.436	17.277	56.006	-78.855	-74.730	-74.101	-69.304	35.983	-70.139	-8191	255	
7432.717	1	1	0	0	0.1146	0.1142	0.13059	0.12538	0.070184	0.20797	0.18919	0.18969	0.16795	0.16909	0.13188	0.30048	0.22648	0.41494	0.10689	0.17535	-2.3167	-2.6958	-2.6271	-3.025	-2.7708	-2.7625	-3.1771	-2.6125	-3.025	-3.0292	-2.6667	-2.9604	-2.6958	-2.7021	-2.9521	-2.6125	24.528	191.627	258.467	-53.164	-83.167	40.030	155.526	198.728	20.031	-60.258	46.571	244.630	-93.730	190.163	15.703	222.624	0.00016883	0.00069202	0.00010202	1167.8	3.1936e-06	6.2932e-06	1155.7	302.6	1.6241e-06	6.9087e-06	349.88	115.9	100.67	34.873	4.6371e-06	43.135	0.00045534	0.00048818	0.0001352	1192.9	5.3378e-06	5.3122e-06	1189.7	313.19	5.4392e-06	5.3678e-06	360.93	121.47	105.17	36.26	5.3854e-06	45.064	199.623	14.167	4.844	-83.217	38.710	29.729	-83.201	-78.273	5.002	48.829	-78.858	-74.869	-74.071	-69.476	23.422	-69.864	-8191	255	
7432.813	1	1	0	0	0.32185	0.32932	0.29597	0.29672	0.20529	0.18052	0.26558	0.034426	0.18765	0.092329	0.057627	0.32283	0.22465	0.1764	0.13373	0.079668	-2.3271	-2.6729	-2.5938	-2.9604	-2.7042	-2.4562	-3.1708	-2.8083	-2.7938	-2.8438	-2.5667	-2.9875	-2.8542	-2.4813	-2.8896	-2.7104	63.787	191.803	19.405	220.995	77.742	0.578	179.915	-82.458	200.526	137.986	101.982	254.489	-62.103	-88.997	144.264	-79.142	0.00014318	0.00029965	0.00018723	1165.7	2.8119e-06	4.4764e-06	1159.9	305.14	6.4584e-07	5.8352e-06	350.7	116.69	100.98	35.084	5.0771e-06	43.446	0.00047688	0.00049272	0.00013747	1194	5.4038e-06	5.3635e-06	1193.4	314.36	5.2679e-06	5.2458e-06	361.32	121.72	105.31	36.323	4.9913e-06	45.132	198.600	2.384	1.257	-83.079	47.330	44.687	-83.166	-78.262	98.222	83.509	-78.935	-74.728	-74.136	-69.567	16.183	-70.273	-8191	255	
7432.885	1	1	0	0	0.24378	0.1455	0.22029	0.44446	0.14379	0.074497	0.11356	0.050311	0.24311	0.015951	0.19399	0.23232	0.19037	0.25227	0.087644	0.20854	-2.2917	-2.9313	-2.6271	-2.9938	-2.7583	-2.7812	-2.8958	-2.6292	-2.8604	-3.0458	-2.8792	-2.9	-2.9562	-2.6667	-2.9083	-2.7042	68.160	196.259	233.219	163.605	147.427	-25.314	170.118	126.532	18.294	83.192	162.518	235.547	227.706	214.384	58.830	-68.207	0.00014638	0.00058873	0.00015835	1166.5	1.4298e-06	4.6065e-06	1156.7	303.87	3.2317e-06	2.43e-06	350.96	116.23	100.7	34.978	3.0033e-06	43.352	0.00043939	0.00044607	0.00012436	1192.9	4.7702e-06	4.6752e-06	1188.5	313.2	4.588e-06	4.5212e-06	360.26	121.46	104.99	36.272	4.3962e-06	45.046	192.173	3.800	-20.774	-83.299	66.277	36.065	-83.038	-78.265	48.899	41.103	-78.896	-74.717	-74.296	-69.253	112.277	-69.965	-8191	255	
7432.981	1	1	0	0	0.17719	0.076538	0.20435	0.3415	0.23261	0.13676	0.15153	0.31269	0.30638	0.13479	0.28596	0.27576	0.14169	0.071608	0.21691	0.27125	-2.1104	-2.8667	-2.4771	-3.0271	-2.9292	-2.6063	-3.1042	-2.6688	-2.6688	-2.9542	-2.7979	-2.6125	-2.8438	-2.5812	-2.6417	-2.7896	243.587	143.146	12.654	254.468	207.021	172.563	171.898	-44.687	178.371	38.591	-76.549	-70.955	246.440	249.856	94.985	197.848	0.00014743	0.00015529	5.5837e-05	1156	3.4786e-06	5.7163e-06	1152	303.12	1.7551e-06	5.6866e-06	350.5	116.45	100.42	34.909	1.7639e-06	43.122	0.00039852	0.00041173	0.00011532	1185.8	4.5614e-06	4.5043e-06	1185	312.71	4.6805e-06	4.6958e-06	359.36	121.27	104.69	36.243	4.8043e-06	44.966	204.042	30.903	40.812	-83.023	50.178	49.030	-83.141	-78.411	-0.885	86.893	-78.819	-74.740	-74.290	-69.329	262.777	-69.814	-8191	255	
7433.102	1	1	0	0	0.32078	0.22705	0.20726	0.10717	0.30743	0.093152	0.417	0.082138	0.017939	0.29319	0.31277	0.12101	0.25012	0.084511	0.0097677	0.10822	-1.9875	-2.9562	-2.5729	-2.7771	-2.8563	-2.6917	-3.0354	-2.7979	-2.6042	-2.9313	-2.7687	-2.8438	-2.8937	-2.5292	-2.8292	-2.7854	-7.833	237.776	230.481	207.389	-82.124	-8.190	175.122	242.566	197.492	-14.627	238.595	-8.536	151.822	-35.757	178.443	-65.652	0.00013861	8.9024e-05	0.00010748	1158.9	2.6641e-06	4.3745e-06	1152.6	302.39	2.7033e-06	6.9969e-06	349.15	116.08	100.12	34.934	4.0089e-06	43.233	0.00042919	0.00045972	0.00012887	1187	5.1991e-06	5.1526e-06	1186.5	312.51	5.3491e-06	5.4362e-06	359.97	121.57	104.94	36.257	5.685e-06	45.119	191.764	-22.120	-36.122	-83.194	59.764	15.887	-83.147	-78.430	58.374	49.992	-79.009	-74.814	-73.941	-69.446	17.511	-69.848	-8191	255	
7433.198	1	1	0	0	0.26304	0.17	0.3085	0.13175	0.10795	0.11752	0.21598	0.22412	0.19461	0.064868	0.095568	0.060589	0.23265	0.16478	0.21871	0.18016	-2.3438	-2.9479	-2.6188	-2.8417	-2.9917	-2.5375	-2.7479	-2.8896	-2.5875	-3.0583	-2.9083	-2.6771	-2.8958	-2.6542	-2.7896	-2.875	-14.574	163.844	35.857	233.677	17.278	101.040	229.064	228.405	145.133	159.554	98.415	184.868	195.060	167.303	-3.814	-83.751	0.0001647	0.00047572	0.0001752	1165.7	1.3596e-06	1.6298e-06	1152.2	302.98	2.4419e-06	2.9886e-06	350.56	116.17	100.54	34.855	2.7307e-06	43.276	0.00049818	0.00053252	0.00014857	1192.7	5.8435e-06	5.9051e-06	1189.1	313.5	5.9627e-06	6.075e-06	360.97	121.77	105.38	36.323	5.8864e-06	45.165	190.191	8.610	12.226	-83.134	55.259	44.974	-82.966	-78.341	81.256	34.739	-78.716	-74.550	-74.170	-69.408	105.789	-69.929	-8191	255	
7433.294	1	1	0	0	0.049534	0.1638	0.16199	0.3005	0.12578	0.1705	0.2033	0.02523	0.13965	0.23848	0.17875	0.17386	0.071844	0.37337	0.084778	0.17056	-2.0833	-2.7521	-2.7021	-2.6771	-2.8729	-2.6562	-2.8875	-2.9938	-2.6292	-2.9875	-2.9021	-2.8271	-2.9854	-2.5604	-2.7021	-3.0062	-34.439	245.192	106.788	219.396	3.877	31.904	215.934	193.767	179.091	163.771	246.435	229.008	-78.912	-74.718	118.424	194.928	0.00015349	0.00054886	4.7381e-05	1165.1	1.8008e-06	2.3733e-06	1158.4	304.48	1.181e-06	2.1362e-06	349.66	116.29	100.66	34.679	3.9907e-06	43.211	0.00051048	0.00053662	0.00014955	1194.7	5.8464e-06	5.8494e-06	1191.6	313.94	5.8237e-06	5.8268e-06	361.2	121.72	105.2	36.215	5.6852e-06	45.075	199.875	-9.795	-21.991	-83.064	41.811	55.033	-83.074	-78.381	73.642	51.901	-79.114	-74.781	-74.232	-69.586	56.200	-70.102	-8191	255	
7433.390	1	1	0	0	0.13222	0.047965	0.039359	0.18691	0.12087	0.29141	0.35981	0.11741	0.14072	0.028928	0.10879	0.15344	0.043807	0.22239	0.13537	0.28645	-2.0625	-2.7458	-2.7146	-2.4958	-2.6458	-2.7667	-2.7354	-3.1229	-2.4875	-2.7	-2.9167	-2.625	-3.0146	-2.7583	-2.6521	-3.0187	118.596	60.110	141.008	224.161	-57.610	140.466	258.022	242.959	-94.709	-19.696	102.762	227.183	256.166	124.790	33.342	213.838	0.00016583	0.00039109	0.00012255	1165.5	1.3508e-06	8.6389e-06	1157.9	302.68	9.6813e-07	6.8742e-06	350.98	115.89	101.06	34.773	3.8877e-06	43.23	0.00049725	0.0005309	0.00014683	1192.5	5.7662e-06	5.7098e-06	1191	313.55	5.6498e-06	5.7388e-06	361.1	121.53	105.49	36.243	5.7521e-06	45.079	209.076	9.405	-42.068	-83.082	77.044	36.849	-83.207	-78.458	136.445	17.991	-79.115	-74.580	-74.427	-69.382	52.547	-70.204	-8191	255	
7433.487	1	1	0	0	0.14413	0.09735	0.14123	0.25963	0.2208	0.15405	0.30278	0.09895	0.041478	0.23532	0.097174	0.08134	0.11765	0.093918	0.20971	0.26465	-2.2104	-2.6708	-2.8083	-2.675	-2.8688	-2.625	-2.7646	-3.1125	-2.7396	-2.7125	-2.8125	-2.6375	-2.9083	-2.7083	-2.6583	-2.8875	254.434	-15.811	61.169	-11.892	233.890	89.854	187.202	260.179	39.895	212.550	145.711	176.070	56.093	215.848	-83.876	206.920	0.00017401	0.00067493	0.00015841	1167.5	7.8851e-07	3.5873e-06	1159.3	304.35	2.2868e-06	5.711e-06	350.8	115.85	100.6	34.872	9.9805e-07	43.224	0.00049603	0.00053087	0.00014765	1194.7	5.7266e-06	5.7572e-06	1193	313.89	5.6805e-06	5.7138e-06	361.6	121.6	105.21	36.255	5.6692e-06	45.075	185.148	-24.863	0.200	-83.227	-68.725	47.852	-83.023	-78.413	-14.549	84.336	-79.046	-74.657	-74.207	-69.296	73.144	-69.957	-8191	255	
7433.583	1	1	0	0	0.16784	0.093644	0.075749	0.10645	0.20351	0.23533	0.17169	0.21177	0.10126	0.0579	0.27402	0.081898	0.37459	0.27399	0.16873	0.19846	-2.275	-2.7021	-2.9	-2.6542	-2.8125	-2.7271	-2.7417	-3.1021	-2.6708	-2.7417	-3.1708	-2.7354	-2.9437	-2.8333	-2.575	-2.8021	111.830	258.854	-75.775	-8.773	166.418	168.044	-22.425	157.341	207.420	-64.427	206.461	262.049	238.668	54.969	146.463	150.856	0.00016772	0.00034038	0.00013165	1166.7	3.3085e-06	4.2718e-06	1156.1	302.81	3.8578e-06	7.8261e-06	350.47	115.97	100.52	34.929	1.8396e-06	43.188	0.00049118	0.00052609	0.00014805	1194	5.7556e-06	5.8112e-06	1190.2	313.29	5.7086e-06	5.7574e-06	360.81	121.62	105.14	36.252	5.7006e-06	45.064	200.822	-3.700	28.442	-83.406	38.306	29.673	-83.207	-78.290	-54.882	86.677	-78.982	-74.886	-74.230	-69.657	57.782	-69.969	-8191	255	
7433.679	1	1	0	0	0.247	0.22057	0.13873	0.091445	0.20795	0.014544	0.060245	0.31299	0.17554	0.25384	0.30568	0.32142	0.10058	0.021836	0.1958	0.22063	-2.3625	-2.6729	-2.9479	-2.8479	-2.7854	-2.9125	-2.6958	-3.1854	-2.7062	-2.6083	-3.0146	-2.7583	-2.7438	-2.9583	-2.5083	-2.9833	-81.488	-8.734	-73.092	-71.260	177.937	114.357	161.012	161.962	23.779	204.624	105.579	211.122	108.410	44.370	69.176	248.217	0.00017812	0.00028197	0.00010135	1167.2	9.9763e-07	5.4161e-06	1160.4	304.17	1.2011e-06	7.7833e-06	348.54	115.72	100.42	34.804	2.1442e-06	43.257	0.0004951	0.00052301	0.0001461	1193	5.7184e-06	5.6516e-06	1192	313.5	5.6946e-06	5.6136e-06	360.34	121.23	105.03	36.153	5.4934e-06	45.009	194.308	25.692	10.068	-83.189	-43.445	5.013	-83.144	-78.554	-29.113	84.448	-78.753	-74.649	-74.330	-69.289	32.159	-69.982	-8191	255	
7433.798	1	1	0	0	0.12896	0.12742	0.312	0.26002	0.12766	0.10071	0.089732	0.20261	0.24233	0.18841	0.137	0.094376	0.09134	0.083652	0.18943	0.073132	-2.1146	-2.6312	-2.7917	-2.7167	-2.7083	-2.9938	-2.7458	-2.925	-2.7583	-2.7458	-2.9292	-2.8021	-2.7979	-2.9813	-2.7375	-2.9896	44.024	-48.064	179.902	203.751	213.378	0.789	131.475	213.481	143.583	77.734	158.767	133.670	-8.164	159.717	127.334	162.001	0.00015706	0.00056167	0.00019516	1161.8	3.5407e-06	3.7503e-06	1156.3	302.57	1.9088e-06	7.1841e-06	348.78	115.53	99.844	34.734	4.9743e-06	43.067	0.00047988	0.00050151	0.00013987	1190	5.431e-06	5.4943e-06	1188.2	312.68	5.4155e-06	5.4072e-06	359.59	121.13	104.68	36.134	5.2984e-06	44.877	195.624	13.976	-0.350	-82.932	66.589	59.813	-83.176	-78.304	68.179	49.505	-79.076	-74.649	-73.953	-69.456	20.072	-70.037	-8191	255	
7433.894	1	1	0	0	0.20168	0.11809	0.1007	0.15022	0.29379	0.12439	0.1155	0.18974	0.079996	0.026926	0.21537	0.21246	0.076848	0.18084	0.023203	0.35986	-2.3917	-2.5104	-2.9354	-2.6063	-2.5667	-3.0042	-2.8042	-2.9688	-2.8729	-2.6604	-2.975	-2.8833	-2.875	-2.8979	-2.6604	-2.7083	17.433	-35.423	214.118	247.947	78.272	-87.382	186.806	191.249	119.508	-38.422	237.850	238.405	239.593	-70.952	69.137	213.371	0.00016551	0.00016124	0.00011375	1161	2.0762e-06	5.1893e-06	1154.9	303.28	1.8139e-06	5.0512e-06	349.89	115.71	100.15	34.827	3.6953e-06	43.152	0.00046364	0.00049454	0.00013865	1188.6	5.3616e-06	5.3297e-06	1188	312.94	5.2819e-06	5.3964e-06	360.55	121.24	104.85	36.091	5.2479e-06	44.903	186.098	32.763	6.435	-83.116	52.116	56.242	-83.101	-78.282	3.436	68.271	-78.732	-74.782	-74.194	-69.432	23.994	-69.846	-8191	255	
7433.990	1	1	0	0	0.1513	0.083913	0.050822	0.53332	0.15328	0.13682	0.30222	0.048849	0.060194	0.36826	0.18158	0.22879	0.23915	0.036428	0.17431	0.11812	-2.3167	-2.4792	-2.8146	-2.6854	-2.7042	-2.9292	-2.7521	-2.7438	-2.8875	-2.7333	-3.1937	-2.8333	-2.5542	-3.3063	-2.6104	-2.8542	126.574	176.894	126.868	-93.091	184.583	196.714	198.838	56.117	-68.164	227.285	246.410	157.001	208.103	107.294	141.434	207.811	0.0001677	0.00048378	0.00010738	1162.9	2.4853e-06	3.3912e-06	1156.2	302.93	3.4822e-07	5.1243e-06	348.06	116.1	99.673	34.786	1.2888e-06	43.164	0.00045476	0.00047895	0.00013191	1189.2	5.1406e-06	5.1592e-06	1187.7	312.82	5.2121e-06	5.1126e-06	358.89	121.05	104.6	36.053	5.0524e-06	44.724	191.229	16.104	-38.017	-83.185	74.579	22.534	-83.262	-78.331	142.833	57.941	-78.994	-74.830	-74.083	-69.535	131.128	-69.865	-8191	255	
7434.111	1	1	0	0	0.18353	0.40577	0.26117	0.25287	0.17919	0.12503	0.11019	0.31213	0.37405	0.24137	0.13645	0.27384	0.11897	0.046644	0.14981	0.026939	-2.4583	-2.4708	-2.8125	-2.9417	-2.475	-2.975	-2.7875	-2.7792	-2.7854	-2.6083	-2.9938	-2.7604	-2.5458	-3.125	-2.7646	-2.8	210.321	34.206	-1.660	216.808	214.333	54.814	183.547	243.047	-34.656	257.815	-84.230	245.643	-72.887	148.545	174.859	257.247	0.00017784	0.0004461	0.000134	1161.9	3.5715e-06	8.8663e-07	1149.5	302.21	1.0074e-06	3.7035e-06	349.43	115.73	99.702	34.805	2.6001e-06	43.333	0.00043743	0.00046146	0.00012882	1187	5.081e-06	5.0168e-06	1184.1	311.89	5.1261e-06	5.0497e-06	359.63	120.87	104.55	36.058	5.1184e-06	44.898	197.056	28.240	-42.187	-83.245	78.729	61.768	-82.958	-78.283	25.546	194.563	-78.927	-74.637	-74.274	-69.231	68.386	-70.044	-8191	255	
7434.182	1	1	0	0	0.17872	0.13089	0.17015	0.38953	0.4392	0.12802	0.19308	0.31378	0.16599	0.14835	0.29642	0.28079	0.23379	0.13638	0.20194	0.36409	-2.4813	-2.675	-2.8625	-2.9667	-2.6896	-2.9208	-2.8375	-2.7292	-2.8917	-2.5479	-2.9292	-3.1063	-2.6333	-2.9104	-2.6667	-2.6813	30.569	255.931	98.953	212.300	21.934	-58.802	154.906	225.361	115.366	-59.809	-28.489	246.666	185.782	-5.110	37.191	213.261	0.00016921	0.00040463	0.00013962	1161.5	1.3172e-06	3.6673e-06	1157.5	303.38	3.0756e-06	5.4539e-06	349.42	115.83	100.05	34.669	2.9996e-06	43.086	0.00046013	0.00048342	0.00013551	1189.2	5.3132e-06	5.3272e-06	1188.2	312.62	5.4153e-06	5.3359e-06	359.78	121.15	104.61	36.066	5.3992e-06	44.933	201.788	15.194	-19.673	-82.971	-19.158	55.184	-83.233	-78.311	50.010	67.733	-79.045	-74.941	-74.250	-69.542	86.675	-69.895	-8191	255	
7434.278	1	1	0	0	0.064631	0.19733	0.049038	0.23359	0.22969	0.064741	0.056041	0.31108	0.22828	0.064709	0.042389	0.057672	0.18298	0.17632	0.10132	0.038037	-2.5667	-2.5375	-2.7354	-2.8042	-2.4396	-2.6646	-2.8667	-2.6917	-2.9125	-2.8146	-2.7792	-3.025	-2.5896	-2.85	-2.7479	-2.4604	196.314	93.356	52.466	-38.068	97.967	41.938	69.194	238.666	181.987	12.157	-95.801	246.099	185.725	4.674	209.193	169.511	0.00020017	0.00050698	7.6771e-05	1160.5	1.0463e-06	4.8841e-06	1152.7	303.06	2.0733e-06	6.3886e-06	349.62	116.08	100.5	34.66	3.9086e-06	43.138	0.00047317	0.00049961	0.00013983	1189.8	5.6343e-06	5.5654e-06	1189.4	312.92	5.6319e-06	5.6601e-06	360.32	121.28	104.97	36.084	5.6061e-06	44.991	204.010	7.754	-15.159	-83.071	172.818	73.455	-83.196	-78.339	0.287	74.238	-78.846	-74.727	-74.251	-69.487	71.801	-69.974	-8191	255	
7434.399	1	1	0	0	0.039437	0.12235	0.22286	0.14143	0.03761	0.16972	0.28147	0.065046	0.10067	0.13559	0.09103	0.12312	0.14582	0.092309	0.15287	0.13604	-2.3771	-2.6375	-2.6937	-3.1521	-2.5521	-2.8771	-3.1979	-2.7833	-2.9208	-2.5875	-2.5833	-2.9917	-2.5125	-2.7646	-2.6542	-2.7146	234.651	58.651	136.967	-53.883	-30.048	141.256	263.097	258.560	37.982	-25.577	249.114	258.409	179.867	245.033	250.835	251.899	0.00016644	0.00029573	0.00016918	1165.4	2.9544e-06	1.2044e-06	1158.7	303.38	4.6925e-06	2.8737e-06	349.28	116.05	100.08	34.885	4.5504e-06	43.331	0.00048167	0.00050979	0.00014268	1193.9	5.5504e-06	5.5035e-06	1190.1	313.25	5.4784e-06	5.4174e-06	360.49	121.19	104.67	36.138	5.3546e-06	44.996	197.709	28.877	-8.824	-83.022	18.306	-14.786	-83.069	-78.400	28.206	44.920	-78.781	-74.645	-74.106	-69.486	59.267	-70.043	-8191	255	
7434.493	1	1	0	0	0.10863	0.26945	0.33164	0.24106	0.1095	0.099065	0.21827	0.21902	0.039956	0.056787	0.057266	0.15256	0.13414	0.097133	0.14846	0.20195	-2.3875	-2.7271	-2.6625	-2.9938	-2.5583	-2.7521	-2.9417	-2.5667	-2.7729	-2.8104	-2.8479	-2.9167	-2.6458	-2.8854	-2.8396	-2.5708	35.237	-15.131	74.004	223.043	91.801	21.345	-85.581	165.132	-32.546	152.780	-74.400	-25.147	251.266	-95.620	31.853	-64.750	0.00016943	0.00026505	0.00019458	1164	4.1339e-06	5.641e-06	1158	303.76	3.6865e-07	4.1028e-06	349.39	115.56	100.14	34.849	5.2293e-06	43.417	0.00047009	0.0004976	0.0001405	1191.9	5.5444e-06	5.6419e-06	1189.8	313.4	5.6366e-06	5.7263e-06	360.55	121.31	104.99	36.194	5.7516e-06	45.067	190.827	28.134	-39.404	-83.025	-7.214	33.121	-83.107	-78.217	-73.787	94.825	-78.887	-74.843	-73.915	-69.496	71.229	-70.044	-8191	255	
7434.590	1	1	0	0	0.14832	0.04556	0.10822	0.2205	0.13514	0.10926	0.28569	0.070688	0.17171	0.16366	0.20427	0.056419	0.15818	0.095535	0.1686	0.29345	-2.4375	-2.7917	-2.6	-3.1042	-2.8042	-2.7583	-3.0646	-2.9042	-2.8208	-2.7521	-2.6604	-2.9771	-2.7771	-2.9042	-3.0479	-2.7062	54.359	174.184	149.995	182.889	77.793	60.454	176.494	-93.805	227.827	114.642	255.270	72.735	-67.969	57.564	-51.778	225.633	0.00016887	0.00047301	0.00012016	1162	1.941e-06	1.3287e-06	1158.9	303.11	2.6786e-06	5.6702e-06	350.52	116.38	99.906	34.712	3.6217e-06	43.192	0.0005069	0.00053867	0.00015075	1192.4	5.9511e-06	5.8796e-06	1191.3	313.67	5.7744e-06	5.7993e-06	361.25	121.3	104.91	36.146	5.4239e-06	44.942	204.507	41.697	36.204	-83.050	-16.680	84.040	-83.340	-78.450	56.998	38.009	-78.858	-74.913	-74.176	-69.213	109.351	-69.862	-8191	255	
7434.686	1	1	0	0	0.15031	0.19845	0.15224	0.25051	0.1167	0.23208	0.24693	0.15948	0.13206	0.19629	0.22895	0.0554	0.054742	0.31075	0.1806	0.071641	-2.1792	-2.8563	-2.6396	-2.9417	-2.7229	-2.5979	-3.1521	-2.7729	-2.7938	-2.9188	-2.7833	-2.8563	-2.7687	-2.6625	-2.9333	-2.7875	228.923	-59.989	15.392	254.042	169.723	-72.131	212.232	168.117	56.132	91.164	-81.644	53.328	-86.319	190.952	131.599	27.511	0.00015325	0.00031031	0.00017677	1160.3	1.1088e-06	6.1485e-06	1154.3	302.82	2.8282e-06	4.8589e-06	348.23	115.59	100.14	34.653	4.3416e-06	42.919	0.00046487	0.00048234	0.00013308	1189.6	5.1592e-06	5.0481e-06	1185.2	312.16	5.0353e-06	4.9846e-06	359.31	120.81	104.51	36.003	5.09e-06	44.77	192.798	0.575	-35.499	-83.118	163.245	55.278	-83.228	-78.375	74.040	8.470	-79.046	-74.653	-74.285	-69.426	66.424	-69.720	-8191	255	
7434.782	1	1	0	0	0.44967	0.22625	0.10374	0.23506	0.17766	0.27221	0.15419	0.033973	0.03619	0.060029	0.13126	0.12797	0.17335	0.11787	0.15538	0.10594	-2.2292	-2.7604	-2.575	-2.9208	-2.8854	-2.6542	-3.1104	-2.7271	-2.7521	-2.8729	-2.8521	-2.8292	-3.0021	-2.5125	-2.725	-2.8042	48.555	120.938	159.574	182.313	208.058	83.858	236.414	102.255	203.158	78.523	1.439	135.389	56.720	229.770	101.767	246.944	0.00015578	0.00031955	0.000119	1158.8	2.2433e-06	3.9435e-06	1151.5	301.86	2.6148e-06	4.0802e-06	348.46	115.89	100.08	34.814	3.8945e-06	43.213	0.00045583	0.00048116	0.00013553	1186.4	5.3252e-06	5.4322e-06	1185.8	312	5.5674e-06	5.6562e-06	359.47	121.12	104.7	36.097	5.7473e-06	44.95	182.779	1.764	-4.889	-82.937	63.820	19.589	-82.981	-78.335	11.774	98.995	-78.961	-74.714	-74.296	-69.510	90.752	-70.085	-8191	255	
7434.878	1	1	0	0	0.25894	0.19181	0.12644	0.057857	0.14336	0.091331	0.1033	0.32343	0.038617	0.12647	0.20617	0.18285	0.13855	0.22716	0.30911	0.13089	-2.225	-2.7708	-2.575	-3.1146	-2.7125	-2.6063	-3.1688	-2.7542	-2.85	-2.7792	-2.6875	-2.8583	-2.8937	-2.6625	-3.0125	-2.7646	16.894	233.193	20.985	-61.578	197.589	-92.175	150.724	193.948	74.162	70.107	124.412	261.250	143.404	260.931	-53.319	151.487	0.00018892	0.00048172	8.8898e-05	1160.4	1.7411e-06	3.615e-06	1154.2	301.91	1.9652e-06	4.6689e-06	348.64	116.06	100.15	34.797	4.6314e-06	43.208	0.00050617	0.00054167	0.00015055	1189.8	5.8533e-06	5.8629e-06	1187.9	312.53	5.8972e-06	5.8012e-06	360.19	121.14	104.89	36.118	5.7999e-06	45.01	204.519	16.121	-25.243	-83.121	-39.601	48.363	-82.976	-78.528	15.852	42.105	-78.869	-74.879	-74.265	-69.576	38.054	-70.006	-8191	255	
7434.974	1	1	0	0	0.06255	0.33288	0.065706	0.24933	0.11504	0.021565	0.17978	0.26001	0.075498	0.35294	0.15487	0.11486	0.19428	0.089543	0.13815	0.075037	-2.1771	-2.9542	-2.575	-2.8958	-2.8583	-2.6688	-3.0083	-3.0438	-2.5854	-2.9604	-2.6917	-2.8625	-2.9938	-2.6229	-2.7687	-2.9333	-7.746	136.305	83.977	256.164	184.905	104.021	212.608	157.466	244.467	65.602	245.655	-53.671	-85.928	260.170	37.298	-69.000	0.00016064	0.00053352	0.00016082	1161	9.661e-07	4.0108e-06	1154.9	302.5	2.7313e-06	3.7129e-06	348.49	115.38	100.45	34.722	3.4251e-06	43.149	0.00051439	0.00053296	0.00015184	1189.4	5.9425e-06	5.8538e-06	1187.4	312.38	5.9476e-06	5.8739e-06	360.15	121.1	105.07	36.128	5.8396e-06	44.934	200.051	18.704	-15.015	-83.010	20.100	44.516	-83.109	-78.352	57.345	35.709	-78.884	-74.706	-74.248	-69.630	51.373	-70.063	-8191	255	
7435.070	1	1	0	0	0.13269	0.13417	0.39129	0.27666	0.19125	0.1702	0.19418	0.28179	0.15189	0.22391	0.064374	0.12297	0.29739	0.13935	0.059189	0.1667	-2.3208	-2.8937	-2.6604	-2.8542	-3.0417	-2.6354	-2.9062	-3.0271	-2.4062	-2.9646	-2.8312	-2.6312	-2.7167	-2.6333	-2.7396	-2.8771	66.308	165.466	-21.680	198.730	-56.435	-91.366	249.326	185.734	18.564	212.231	45.430	-34.999	178.746	195.960	239.925	114.409	0.00012787	0.00046427	0.00010864	1161.6	1.8331e-06	3.5232e-06	1155.4	303.32	1.3681e-06	6.2384e-06	348.18	115.96	100.12	34.865	3.9114e-06	43.296	0.00050772	0.0005351	0.00014965	1190.5	5.7882e-06	5.7919e-06	1187.6	313.21	5.7293e-06	5.7018e-06	360.24	121.39	104.78	36.191	5.6945e-06	45.076	191.982	-9.309	9.494	-83.085	44.157	57.681	-83.127	-78.502	-4.437	57.393	-78.851	-74.728	-74.404	-69.348	52.054	-69.513	-8191	255	
7435.191	1	1	0	0	0.37196	0.15625	0.10699	0.040237	0.082984	0.24811	0.24722	0.12008	0.21591	0.11388	0.1896	0.19196	0.17396	0.025353	0.016922	0.3356	-2.1458	-2.85	-2.6146	-2.8458	-3.0896	-2.5333	-3.0104	-2.9229	-2.6083	-3.0438	-2.7958	-2.7167	-3.0646	-2.7021	-2.8438	-2.8521	100.323	92.911	235.887	232.971	-95.237	106.285	254.696	-22.008	90.090	2.931	140.486	-23.187	210.311	-85.660	11.269	205.480	0.0001684	0.00038586	0.00014216	1165.1	3.1633e-06	4.5509e-06	1155.4	303.48	2.685e-06	5.7753e-06	348.35	116.2	100.85	34.857	3.5645e-06	43.216	0.00050024	0.00052532	0.00014859	1193.4	5.7889e-06	5.834e-06	1189.9	313.43	5.762e-06	5.848e-06	360.25	121.21	105.16	36.217	5.817e-06	45.034	199.440	-8.641	-9.650	-83.034	27.347	62.426	-83.283	-78.435	84.739	62.278	-78.755	-74.800	-74.199	-69.758	90.859	-69.891	-8191	255	
7435.287	1	1	0	0	0.20728	0.24461	0.28256	0.084081	0.29407	0.15912	0.20566	0.11631	0.18162	0.089534	0.1187	0.20562	0.18166	0.095819	0.15413	0.16169	-2.1875	-2.9146	-2.8063	-2.8063	-2.9958	-2.8854	-2.7146	-3.0458	-2.5187	-2.9313	-2.9958	-2.7229	-2.9479	-2.8417	-2.7083	-2.9437	-37.711	258.354	-11.130	226.784	61.343	-60.162	188.467	217.394	156.402	219.750	151.103	-40.342	250.372	176.160	231.087	111.676	0.00013041	0.00049609	0.00016134	1160.4	3.8103e-06	4.9769e-06	1155.5	302.94	1.9003e-07	4.5817e-06	347.77	115.61	100.48	34.768	1.8011e-06	43.169	0.00050094	0.00053089	0.00014612	1189	5.7888e-06	5.7024e-06	1187.2	312.83	5.607e-06	5.758e-06	359.34	120.95	105	36.115	5.5943e-06	44.911	200.066	17.719	-12.325	-83.118	83.492	47.152	-83.140	-78.444	51.429	100.136	-78.785	-74.890	-74.100	-69.433	74.570	-70.000	-8191	255	
7435.383	1	1	0	0	0.19162	0.058421	0.10155	0.33126	0.14462	0.17413	0.05972	0.38358	0.073314	0.20298	0.081539	0.18259	0.08838	0.25736	0.062887	0.11872	-2.0917	-2.7167	-2.8063	-2.8	-2.9833	-2.9958	-2.7271	-3.0646	-2.5812	-2.7125	-2.8375	-2.7021	-2.8104	-2.8854	-2.5979	-2.9917	-46.596	248.310	223.425	160.131	-82.470	-79.338	51.317	199.708	258.378	183.266	232.223	211.724	156.333	85.644	211.080	195.689	0.0001375	0.00037953	0.00019018	1159.2	2.9486e-06	4.6065e-06	1150.7	303.33	1.8617e-06	6.1669e-07	349.27	115.55	99.534	34.762	2.9903e-06	43.213	0.00049115	0.00052677	0.00014673	1187.5	5.8001e-06	5.8037e-06	1186.1	313.12	5.9335e-06	6.0216e-06	360.67	121.31	104.88	36.155	6.0755e-06	45.053	200.096	-33.675	47.917	-83.090	51.732	68.066	-83.100	-78.280	107.254	115.118	-78.543	-74.678	-74.223	-69.597	71.133	-69.855	-8191	255	
7435.479	1	1	0	0	0.12945	0.26985	0.14293	0.36185	0.14376	0.063405	0.047356	0.42167	0.086212	0.21104	0.33123	0.14038	0.23952	0.12669	0.16285	0.31452	-2.2854	-2.7958	-2.9729	-2.6375	-2.9583	-2.8438	-2.85	-3.125	-2.7125	-2.7188	-3.1479	-2.7042	-2.8833	-2.8583	-2.5375	-2.9646	-71.355	97.773	-67.144	256.735	-9.347	37.459	-25.714	166.192	-81.760	-14.618	-93.275	130.667	-28.604	171.491	-17.657	259.330	0.00015356	0.00048452	9.8021e-05	1160.4	1.5048e-06	6.7655e-06	1156.4	302.9	3.1831e-06	4.4028e-06	349.87	115.99	99.857	34.699	4.7006e-06	43.305	0.00052822	0.00055127	0.00015685	1189.8	6.137e-06	6.1622e-06	1189.1	313.16	6.1726e-06	6.2737e-06	360.64	121.63	105.29	36.209	6.3532e-06	45.095	215.045	-16.038	-12.233	-83.191	73.852	55.373	-83.051	-78.412	66.429	58.499	-78.862	-74.770	-74.277	-69.448	89.706	-70.108	-8191	255	
7435.574	1	1	0	0	0.080915	0.22084	0.16065	0.40826	0.036457	0.18211	0.1313	0.43505	0.38515	0.13214	0.051919	0.22575	0.10835	0.17995	0.18146	0.18814	-2.2354	-2.6604	-3.0125	-2.8708	-2.8396	-2.7146	-2.7479	-3.0208	-2.6333	-2.6667	-2.9646	-2.6271	-2.7417	-2.8688	-2.5312	-2.8354	241.313	-56.425	-25.152	231.066	210.849	76.617	230.464	230.862	124.408	184.081	212.412	220.313	229.357	218.330	3.241	126.233	0.00018069	0.00028853	0.00019619	1164.5	1.4748e-06	2.234e-06	1153.8	303.69	2.5748e-06	4.0678e-06	351.06	115.82	100.78	34.744	9.5866e-07	43.373	0.00055883	0.00060091	0.00016784	1195.2	6.6642e-06	6.7668e-06	1192.9	314.31	6.772e-06	6.93e-06	362.33	121.99	105.87	36.373	7.0766e-06	45.338	206.616	45.094	-7.337	-83.187	110.324	70.450	-83.127	-78.448	109.016	9.676	-78.989	-74.566	-74.265	-69.500	86.107	-69.794	-8191	255	
7435.672	1	1	0	0	0.073123	0.1715	0.34955	0.048964	0.28998	0.043028	0.2614	0.27084	0.14343	0.12233	0.18253	0.13327	0.24294	0.14888	0.1799	0.35671	-2.4313	-2.7812	-2.9333	-2.7854	-2.6646	-2.9146	-2.6562	-2.9042	-2.7958	-2.4833	-2.8896	-2.6417	-2.6146	-3.0563	-2.6021	-2.8438	152.504	135.836	38.848	-85.328	-89.357	92.634	-77.053	176.969	-23.546	-66.647	232.411	-30.225	258.084	-66.294	-83.682	238.069	0.0001522	0.00035143	0.0001391	1169.6	2.9309e-06	3.5438e-06	1161	304.26	1.1019e-06	2.2584e-06	350.57	116.22	101	34.966	2.4649e-06	43.262	0.00059879	0.00065249	0.00018118	1200.7	7.0713e-06	7.1308e-06	1198.5	315.1	7.0577e-06	7.1448e-06	363.04	122.13	106.1	36.466	7.0288e-06	45.376	186.413	-44.677	-33.247	-83.056	69.157	76.536	-82.958	-78.430	-56.021	96.160	-79.105	-74.775	-74.403	-69.301	48.649	-69.942	-8191	255	
7435.791	1	1	0	0	0.1784	0.15275	0.30518	0.28774	0.069965	0.060365	0.13115	0.18995	0.042198	0.22915	0.25197	0.096556	0.28687	0.10754	0.067087	0.23244	-2.2875	-2.6583	-2.9062	-2.6375	-2.5979	-3.0604	-2.775	-2.8396	-2.7354	-2.4458	-2.9896	-2.8167	-2.6625	-3.0312	-2.6292	-2.7313	0.504	-86.910	71.553	-83.999	18.114	192.903	228.306	243.571	52.989	143.030	243.868	-44.458	-63.573	198.646	157.991	-69.101	0.00017058	0.00038082	0.00014426	1170.2	1.7425e-06	4.0926e-06	1158.7	305.75	2.321e-06	5.4089e-06	351.75	116.24	100.58	34.926	2.5191e-06	43.195	0.00061295	0.00066822	0.00018902	1200.9	7.3837e-06	7.422e-06	1199	315.94	7.4341e-06	7.6509e-06	364.44	122.44	106.16	36.492	7.5406e-06	45.386	189.560	15.409	14.314	-83.179	23.583	24.652	-83.313	-78.322	-11.290	63.651	-78.988	-74.623	-74.467	-69.604	62.008	-70.030	-8191	255	
7435.887	1	1	0	0	0.1177	0.059448	0.1111	0.076462	0.26886	0.034492	0.17941	0.039401	0.2297	0.073044	0.15938	0.16081	0.15912	0.24281	0.17997	0.1003	-2.5104	-2.6562	-2.8229	-2.7458	-2.6167	-2.8333	-2.6729	-2.9021	-3.0271	-2.5687	-2.8271	-2.6521	-2.6521	-3.0104	-2.5729	-2.8	-82.057	262.660	-9.386	210.278	-69.056	198.338	186.689	252.432	13.287	207.549	233.378	52.840	261.547	167.499	70.851	261.437	0.00015901	0.00034982	9.7598e-05	1168.9	5.0891e-06	7.4555e-06	1164.2	306.15	6.6304e-07	3.8073e-06	350	116.25	101.31	34.851	3.2613e-06	43.395	0.00064215	0.00068884	0.00019213	1203.6	7.5284e-06	7.5313e-06	1202.4	316.73	7.5248e-06	7.5169e-06	363.34	122.49	106.19	36.458	7.3796e-06	45.417	206.930	-18.919	-35.928	-83.073	32.131	42.912	-83.310	-78.298	61.341	100.407	-79.070	-74.963	-74.276	-69.307	-0.353	-70.232	-8191	255	
7435.983	1	1	0	0	0.15137	0.25143	0.21925	0.38357	0.27672	0.15002	0.17486	0.11218	0.29165	0.23428	0.16229	0.13631	0.15346	0.25497	0.032837	0.1976	-2.5625	-2.75	-2.7417	-2.8854	-2.6458	-3.0271	-2.9375	-2.7896	-2.9458	-2.6042	-2.8667	-2.9521	-2.6958	-3.0521	-2.6625	-2.8021	79.580	111.436	99.499	-95.816	83.405	49.704	166.282	123.534	97.842	104.686	196.302	-56.275	72.811	-54.139	134.643	-26.907	0.00017715	0.00051203	4.0609e-05	1171.2	7.7172e-07	4.2896e-06	1160.8	304.23	6.3954e-07	5.3651e-06	350.43	116.11	100.4	34.791	3.2457e-06	43.54	0.00062205	0.00068054	0.00019006	1202.4	7.371e-06	7.4447e-06	1199.4	315.45	7.2808e-06	7.4607e-06	363.14	122.11	105.95	36.409	7.2179e-06	45.428	201.781	-20.909	38.795	-83.197	18.137	27.284	-83.058	-78.334	1.973	103.174	-78.999	-74.870	-74.191	-69.265	37.921	-70.060	-8191	255	
7436.079	1	1	0	0	0.12785	0.11586	0.064524	0.37829	0.1793	0.17026	0.090962	0.12011	0.025909	0.098069	0.11827	0.19794	0.037539	0.19297	0.19679	0.21641	-2.3937	-2.6333	-2.675	-2.9625	-2.7458	-2.9479	-2.8833	-2.5708	-2.9437	-2.7146	-2.9396	-2.9604	-2.6896	-2.9583	-2.8146	-2.6688	74.501	171.008	17.924	220.194	69.398	75.459	136.751	77.680	-52.167	258.491	137.016	-94.075	69.234	169.791	191.761	91.835	0.00013035	0.00029713	0.00020194	1168	4.4033e-06	4.8674e-06	1163.3	304.68	2.143e-07	6.2763e-06	350.02	116.23	100.96	34.946	4.7453e-06	43.436	0.00062566	0.00067058	0.00018544	1200.3	7.2651e-06	7.3132e-06	1197.8	315.64	7.2816e-06	7.3074e-06	363.12	122.27	106.25	36.466	7.2502e-06	45.418	205.116	61.861	-14.562	-83.152	55.380	84.284	-83.196	-78.367	106.242	56.796	-78.737	-74.801	-74.342	-69.387	117.340	-70.064	-8191	255	
7436.175	1	1	0	0	0.23754	0.089187	0.13864	0.065789	0.043043	0.26137	0.12025	0.10449	0.0094454	0.016479	0.23206	0.21625	0.16087	0.13281	0.2452	0.11247	-2.5854	-2.8625	-2.9104	-3.1813	-2.6875	-3.0521	-3.0438	-2.6333	-2.9521	-2.6583	-2.7896	-2.9333	-2.6479	-2.8854	-2.9708	-2.6667	125.311	104.820	128.092	-71.319	88.537	231.582	126.239	-25.182	253.489	222.959	17.546	-95.763	-41.497	193.807	157.660	207.768	0.00015073	0.00025737	8.0725e-05	1168.2	1.282e-06	5.6425e-06	1161.4	305.97	7.4904e-07	3.818e-06	350.64	116.48	100.35	34.757	1.5414e-06	43.271	0.00062809	0.00068653	0.00019002	1199.9	7.4655e-06	7.5155e-06	1198.3	316.07	7.4606e-06	7.6244e-06	363.51	122.34	106.18	36.465	7.3302e-06	45.34	197.175	-18.915	4.902	-83.092	-34.831	62.109	-83.291	-78.305	40.116	59.162	-78.869	-74.983	-74.445	-69.637	27.464	-70.137	-8191	255	
7436.271	1	1	0	0	0.14051	0.02807	0.10834	0.19482	0.064783	0.084199	0.23306	0.27505	0.20927	0.10808	0.097998	0.19669	0.20044	0.37308	0.3716	0.086559	-2.3771	-2.725	-2.7625	-2.9062	-2.4938	-2.9208	-3.0354	-2.6396	-2.8271	-2.725	-2.85	-2.925	-2.7458	-2.7938	-3.0917	-2.5958	226.332	236.195	96.680	-42.998	157.986	50.024	188.289	241.501	-28.416	57.330	-75.225	177.092	161.171	-81.289	152.730	160.518	0.00016721	0.00033502	0.00015377	1172.6	1.9351e-06	5.8537e-06	1166	305.13	6.8802e-07	6.2013e-06	353.09	116.24	100.62	35.045	2.2835e-06	43.3	0.00063669	0.00068211	0.00018868	1202.4	7.3175e-06	7.3468e-06	1201	316.12	7.2763e-06	7.2721e-06	364.46	122.39	106.23	36.496	7.047e-06	45.29	180.634	-1.923	17.416	-83.156	61.505	55.736	-83.029	-78.274	47.294	53.762	-78.953	-74.602	-74.011	-69.390	-0.718	-69.957	-8191	255	
7436.368	1	1	0	0	0.018566	0.088532	0.17841	0.024685	0.17615	0.088862	0.21829	0.24956	0.070555	0.0977	0.27516	0.11168	0.20087	0.28876	0.21403	0.076889	-2.4229	-2.7646	-2.4854	-3.1979	-2.7687	-2.7021	-3.1104	-2.7562	-2.8187	-2.8479	-2.7396	-2.9604	-2.8688	-2.7792	-2.8979	-2.7542	68.190	54.906	190.191	97.781	-64.281	137.408	195.901	237.119	208.377	196.595	213.270	128.267	225.581	230.553	75.814	198.818	0.00014973	0.00056644	0.00013247	1170.6	1.2688e-06	5.2052e-06	1160.6	304.61	2.3494e-06	6.7698e-06	350.73	116.49	100.63	34.748	2.4379e-06	43.425	0.00061384	0.00064703	0.00018217	1201.9	7.075e-06	7.0533e-06	1198.8	315.5	6.9652e-06	7.0904e-06	363.43	122.28	106.09	36.394	6.9474e-06	45.402	196.824	24.487	21.439	-83.036	-42.295	39.241	-83.270	-78.473	39.955	45.203	-79.029	-74.995	-74.283	-69.426	0.432	-70.184	-8191	255	
7436.488	1	1	0	0	0.14735	0.19108	0.14671	0.24698	0.1616	0.074385	0.37172	0.33285	0.14002	0.055745	0.22885	0.18291	0.1962	0.23006	0.21702	0.16976	-2.4125	-2.7667	-2.5646	-3.0375	-2.6146	-2.7625	-3.1437	-2.775	-2.8146	-2.9688	-2.7125	-3.0312	-2.6167	-2.6625	-2.9333	-2.5771	120.514	93.975	151.712	254.681	105.294	-89.555	182.425	255.766	73.045	-36.600	-50.269	-19.642	137.715	15.367	130.570	262.832	0.00020638	0.00054552	0.00015693	1173.8	1.4316e-06	5.8582e-06	1163.9	305.03	2.9071e-06	6.7408e-06	350.4	116.31	101.31	34.951	4.7068e-06	43.358	0.0005943	0.00062511	0.00017532	1202	6.7504e-06	6.799e-06	1198.6	315.67	6.6786e-06	6.7387e-06	363.12	122.08	106.04	36.422	6.7328e-06	45.271	193.850	-2.019	-22.499	-82.986	64.319	51.977	-83.094	-78.549	-1.820	70.719	-78.707	-74.849	-74.185	-69.474	33.053	-70.142	-8191	255	
7436.583	1	1	0	0	0.20319	0.25932	0.18171	0.26663	0.13329	0.059631	0.28815	0.23979	0.068772	0.014601	0.15284	0.20429	0.21147	0.12351	0.061918	0.22242	-2.3958	-2.6396	-2.6562	-3.0062	-2.775	-2.6937	-3.1083	-2.7458	-2.925	-2.8688	-2.75	-3.0521	-2.7271	-2.5687	-2.8479	-2.7833	51.923	11.912	136.134	212.939	-83.640	45.049	138.556	223.272	190.412	260.770	256.391	247.985	232.469	232.745	-93.695	207.928	0.00016327	0.0002669	0.00017423	1171.4	1.6186e-06	3.1187e-06	1161.8	304.89	2.789e-06	3.4862e-06	351.77	116.06	100.67	34.879	2.8851e-06	43.534	0.00058295	0.00062778	0.0001767	1200.4	6.8453e-06	6.8073e-06	1197.9	315.48	6.7892e-06	6.7456e-06	362.88	122.04	105.98	36.413	6.5468e-06	45.305	194.520	15.861	26.282	-83.067	117.819	61.783	-83.138	-78.346	-11.221	34.183	-78.927	-74.754	-74.292	-69.518	23.849	-70.113	-8191	255	
7436.654	1	1	0	0	0.27836	0.13709	0.09288	0.43007	0.18166	0.18568	0.43479	0.17392	0.22476	0.22301	0.153	0.060707	0.1607	0.078039	0.18122	0.22877	-2.1896	-2.9333	-2.5292	-2.9146	-2.8354	-2.7062	-3.0708	-2.8875	-2.7021	-2.9167	-2.7646	-2.8937	-2.8063	-2.6708	-2.9854	-2.8917	230.276	52.983	20.038	216.710	214.236	164.644	197.711	-79.125	35.238	57.193	-90.553	226.277	169.181	250.516	-24.903	105.579	0.00014692	0.00033897	8.6276e-05	1169.5	3.2665e-06	3.3161e-06	1161.4	303.3	3.4273e-06	2.5461e-06	351.91	115.86	100.7	34.907	3.4242e-06	43.32	0.00056745	0.00059783	0.00016764	1197.9	6.585e-06	6.5932e-06	1195.8	314.4	6.5204e-06	6.6166e-06	362.82	121.99	105.7	36.366	6.6482e-06	45.205	186.946	16.743	-20.707	-83.107	66.038	43.611	-82.909	-78.390	20.552	149.350	-78.968	-74.534	-74.107	-69.473	34.912	-70.056	-8191	255	
7436.752	1	1	0	0	0.21569	0.049282	0.063004	0.15445	0.11342	0.22358	0.1163	0.046619	0.12334	0.14001	0.16369	0.22082	0.16439	0.10064	0.018386	0.14802	-2.1042	-2.9208	-2.6771	-2.9	-2.8208	-2.5125	-2.975	-2.6625	-2.6479	-2.7938	-2.7854	-2.8438	-2.8917	-2.4062	-2.9208	-2.8646	-95.662	148.021	218.135	244.424	184.431	239.809	200.653	173.672	173.831	-77.256	-31.052	-20.676	-56.998	147.071	-37.396	27.341	0.00012629	0.00021047	0.00010949	1166.8	7.0721e-07	3.6765e-06	1160.2	305.35	8.6932e-07	1.9927e-06	349.82	116.21	100.99	35.027	2.2446e-06	43.092	0.00058109	0.00062266	0.00017564	1197.9	6.8952e-06	6.8554e-06	1197.3	315.54	6.8314e-06	6.8365e-06	362.73	122.22	105.95	36.418	6.8073e-06	45.194	191.790	9.977	18.592	-83.283	-88.334	63.860	-83.205	-78.455	141.312	126.638	-79.018	-74.679	-74.198	-69.424	125.940	-69.873	-8191	255	
7436.871	1	1	0	0	0.17717	0.15638	0.17148	0.30949	0.056719	0.14391	0.15081	0.097012	0.20801	0.067046	0.11652	0.29584	0.10414	0.37763	0.17954	0.26472	-2.1229	-2.7792	-2.6417	-2.8896	-2.9396	-2.6521	-2.9375	-2.8854	-2.4542	-2.9229	-2.8125	-2.7104	-3.1604	-2.5646	-2.4792	-2.8521	85.755	-21.393	40.914	-57.371	28.891	185.379	238.931	135.064	63.023	63.319	259.783	200.331	196.899	-76.491	118.132	146.497	0.00013848	0.00059983	8.4285e-05	1168.8	9.3935e-07	6.0235e-06	1161	304.15	2.3478e-06	6.1082e-06	352.29	116.81	100.78	34.914	3.1427e-06	43.304	0.00057855	0.00062104	0.00017371	1200.1	6.8175e-06	6.7665e-06	1197.5	315.37	6.8757e-06	6.8228e-06	363.6	122.26	105.95	36.407	6.7571e-06	45.284	194.930	-0.647	-26.406	-83.035	75.800	65.890	-83.371	-78.426	-47.585	55.164	-78.803	-74.657	-74.096	-69.562	84.015	-70.028	-8191	255	
7436.967	1	1	0	0	0.24197	0.065248	0.3533	0.018816	0.14048	0.2041	0.041671	0.10166	0.13125	0.10585	0.19879	0.2483	0.18346	0.18696	0.094135	0.042071	-2.1437	-2.8833	-2.4875	-2.7792	-2.8667	-2.675	-2.9292	-2.8125	-2.4813	-2.9646	-2.7146	-2.6792	-2.8792	-2.5833	-2.8563	-2.9938	220.466	106.922	177.469	228.542	5.366	-74.913	168.878	245.833	43.715	149.008	215.962	-72.413	242.698	206.693	12.897	106.405	0.00014288	0.00044489	0.00021431	1172.5	1.9497e-06	5.0605e-06	1163.5	304.55	2.1892e-06	1.1612e-06	350.65	116.22	101.12	35.001	4.3033e-06	43.353	0.00058371	0.00062409	0.00017586	1200.5	6.7212e-06	6.8477e-06	1198.8	315.44	6.7703e-06	6.8014e-06	363.6	122.12	106.34	36.471	6.8248e-06	45.334	187.701	43.051	-33.646	-83.047	-73.403	94.067	-83.184	-78.401	-20.928	32.393	-78.987	-74.879	-74.368	-69.433	5.908	-69.971	-8191	255	
7437.063	1	1	0	0	0.30182	0.10282	0.14355	0.14554	0.17561	0.041838	0.15539	0.12291	0.1545	0.09638	0.27799	0.1504	0.10092	0.14001	0.19286	0.10803	-2.2417	-2.6646	-2.6271	-2.7146	-2.7021	-2.6604	-2.6312	-3.0396	-2.5583	-2.7667	-2.8896	-2.7542	-2.9083	-2.9083	-2.6125	-2.9437	155.220	135.148	222.379	7.881	144.551	80.162	211.160	258.592	239.224	84.985	201.023	-47.804	257.094	185.954	-64.136	224.959	0.00012571	0.00026447	0.00015284	1170.3	1.5631e-06	3.6944e-06	1166.2	304.48	1.7929e-06	4.8683e-06	351.11	116.26	100.77	34.834	2.6552e-06	43.207	0.00058521	0.00062695	0.0001768	1200.3	6.7912e-06	6.9132e-06	1199.3	315.03	6.8335e-06	6.9041e-06	363.12	122.1	105.95	36.39	6.7071e-06	45.172	207.521	-12.504	32.422	-83.131	56.943	60.839	-83.116	-78.439	-3.128	51.613	-78.971	-74.817	-74.466	-69.257	80.774	-69.800	-8191	255	
7437.159	1	1	0	0	0.18158	0.088997	0.059676	0.10616	0.093503	0.26159	0.23302	0.14762	0.14185	0.12954	0.099352	0.16042	0.042459	0.23101	0.20472	0.2323	-2.1542	-2.8688	-2.7	-2.6542	-2.8896	-2.6583	-2.8271	-2.8958	-2.4083	-2.7562	-2.9083	-2.6771	-2.9167	-2.8896	-2.8604	-3.0812	153.761	102.358	206.231	187.864	155.668	250.630	160.135	-49.436	-81.340	45.005	96.901	170.131	-37.222	257.419	220.137	-16.354	0.00016906	0.00048841	0.000155	1169.6	1.6427e-06	2.706e-06	1163.6	304.29	1.8552e-06	4.2547e-06	351.31	115.75	100.72	34.929	2.2968e-06	43.242	0.00057767	0.000619	0.0001732	1199.3	6.6972e-06	6.7334e-06	1197.2	314.62	6.6483e-06	6.6541e-06	362.74	121.81	105.72	36.356	6.6131e-06	45.175	189.346	59.544	-0.307	-83.355	95.564	44.530	-83.223	-78.329	-11.170	45.972	-79.075	-74.772	-74.215	-69.616	-33.768	-70.123	-8191	255	
7437.280	1	1	0	0	0.091223	0.21158	0.10063	0.28534	0.1279	0.25361	0.11893	0.27043	0.13773	0.18852	0.10065	0.10758	0.25861	0.17123	0.079094	0.3125	-2.0896	-2.7854	-2.8042	-2.5479	-2.9146	-2.6063	-2.9833	-2.9938	-2.6188	-2.8104	-2.8854	-2.5938	-3.0542	-2.8625	-2.775	-2.8958	225.282	-10.066	-15.194	195.381	133.071	171.669	-36.014	219.800	217.184	263.511	241.929	-42.800	259.080	238.821	-79.385	95.167	0.00017449	0.00048116	0.00012907	1167	2.0263e-06	4.8316e-07	1158.9	303.28	4.2268e-06	4.9387e-06	351.07	116.46	100.46	34.896	3.7809e-06	43.364	0.00056854	0.0006065	0.00016785	1197.2	6.5785e-06	6.5052e-06	1194.2	314.29	6.4867e-06	6.4825e-06	361.81	121.86	105.55	36.359	6.4409e-06	45.232	194.104	31.744	-12.867	-83.150	48.091	39.496	-83.206	-78.341	35.367	107.177	-78.817	-75.034	-74.251	-69.331	58.271	-69.951	-8191	255	
7437.352	1	1	0	0	0.062452	0.20896	0.067014	0.23662	0.069281	0.13826	0.33487	0.37293	0.18976	0.089358	0.14012	0.17641	0.23151	0.18677	0.33752	0.10068	-2.0375	-2.6604	-2.9062	-2.5917	-2.8688	-2.7979	-2.5708	-2.9333	-2.7167	-2.6	-3.0271	-2.7583	-2.7896	-2.8667	-2.6458	-2.9313	149.679	-2.077	69.916	259.883	-5.730	160.271	189.451	158.267	76.404	-46.755	230.589	230.631	-12.988	205.865	79.273	188.830	0.00012615	5.7359e-05	0.00020934	1165.2	5.8082e-07	2.0072e-06	1159.7	304.9	3.1353e-06	4.9634e-06	352.35	115.64	100.53	34.905	2.7202e-06	43.281	0.00055552	0.00059006	0.00016276	1196.1	6.4521e-06	6.4592e-06	1193.5	314.73	6.481e-06	6.4839e-06	362.16	121.74	105.64	36.356	6.531e-06	45.146	207.775	15.336	-4.176	-83.138	181.852	25.129	-83.304	-78.576	61.767	43.895	-79.042	-74.799	-74.174	-69.536	251.229	-70.221	-8191	255	
7437.472	1	1	0	0	0.21655	0.023135	0.13977	0.28178	0.19608	0.023866	0.085831	0.20796	0.047558	0.16633	0.13888	0.26207	0.12279	0.1821	0.091599	0.20933	-2.4354	-2.4875	-2.8375	-2.7208	-2.725	-3.0062	-2.7479	-2.8958	-2.925	-2.6125	-3.1229	-2.475	-2.7188	-2.9396	-2.5958	-2.9604	48.191	-55.712	37.474	142.347	-4.753	112.450	-19.312	154.262	-80.701	168.262	12.719	-95.318	-60.541	163.104	60.148	140.267	0.00015524	0.00039393	0.00010163	1167.8	1.479e-06	2.4371e-06	1159.9	304.71	1.4268e-06	1.9496e-06	350.73	116.06	100.69	34.821	5.1062e-06	43.399	0.00055797	0.00059234	0.00016583	1197.3	6.3865e-06	6.3801e-06	1193.7	314.67	6.3005e-06	6.2919e-06	361.7	121.67	105.7	36.255	6.2514e-06	45.143	187.462	13.302	-6.263	-83.030	50.574	120.642	-83.490	-78.477	21.687	-53.411	-79.004	-74.756	-74.208	-69.418	7.371	-70.157	-8191	255	
7437.569	1	1	0	0	0.27824	0.18473	0.27268	0.37067	0.085381	0.092977	0.27853	0.12045	0.11707	0.32577	0.13895	0.11746	0.16731	0.20179	0.11457	0.14972	-2.2542	-2.5521	-2.8333	-2.9604	-2.8917	-2.9062	-2.8063	-2.9562	-2.7792	-2.4958	-3.0979	-2.6896	-2.7875	-2.7583	-2.5792	-3.1125	165.969	-45.639	54.198	237.072	236.358	96.802	205.188	28.692	2.895	72.823	37.670	201.527	-88.933	225.849	209.620	107.508	0.00017103	0.00054443	0.00015656	1167.9	2.405e-06	2.63e-06	1160.6	303.75	2.9838e-06	3.1498e-06	350.03	115.79	100.98	35.02	2.6395e-06	43.298	0.00053754	0.00057624	0.00015877	1195.9	6.2668e-06	6.1499e-06	1193.6	313.96	6.1651e-06	6.2013e-06	361.68	121.53	105.54	36.306	6.1549e-06	45.076	191.021	-17.869	-30.520	-83.186	102.295	57.666	-83.183	-78.381	49.274	39.843	-78.790	-74.784	-74.221	-69.282	59.119	-69.862	-8191	255	
7437.663	1	1	0	0	0.20707	0.04127	0.14125	0.43332	0.19566	0.13989	0.12694	0.24725	0.12114	0.27241	0.080413	0.064605	0.15509	0.076734	0.10471	0.1259	-2.5	-2.5312	-2.7896	-2.7604	-2.6104	-2.9938	-2.6625	-2.9333	-2.8958	-2.6396	-2.9833	-2.7062	-2.6583	-2.9375	-2.6167	-2.6792	153.941	-61.347	33.200	212.057	167.026	190.965	235.636	247.954	164.780	133.629	82.917	12.046	229.760	253.834	126.267	92.231	0.00016003	0.00047984	0.00014902	1165	4.9357e-07	4.0127e-06	1157.8	304.86	5.9858e-07	4.49e-06	349.65	116.37	100.31	34.832	4.9782e-06	43.228	0.00052708	0.00056555	0.00015497	1194	6.1347e-06	6.0871e-06	1192.6	314.07	6.088e-06	6.0938e-06	361.15	121.75	105.19	36.272	6.0448e-06	45.075	198.705	28.225	-11.888	-83.217	213.715	-22.648	-83.187	-78.336	38.283	102.738	-78.985	-75.035	-74.056	-69.359	51.221	-69.802	-8191	255	
7437.759	1	1	0	0	0.25751	0.19245	0.15046	0.11907	0.16927	0.15321	0.34876	0.040485	0.10997	0.10814	0.11069	0.1443	0.096109	0.14546	0.21743	0.17095	-2.3563	-2.7	-2.8979	-2.9604	-2.5083	-2.9333	-2.8417	-2.8667	-2.9188	-2.6521	-2.8812	-2.9375	-2.5729	-3	-2.7979	-2.6646	89.421	153.454	123.548	255.100	14.283	162.949	228.556	-11.667	118.144	86.760	205.935	259.251	77.090	-53.416	225.961	-52.577	0.00012779	0.00048711	0.00010595	1163.7	3.2935e-06	2.5239e-06	1156.6	304.14	2.2369e-06	4.1178e-06	350.79	115.7	100.15	34.803	2.7283e-06	43.289	0.00051577	0.00055353	0.00015261	1193.6	6.0785e-06	6.0025e-06	1192.2	314.11	5.9845e-06	6.0551e-06	361.6	121.55	105.18	36.247	6.0994e-06	45.145	196.125	21.780	-30.684	-83.272	70.443	56.536	-83.232	-78.415	-48.354	-55.493	-78.864	-74.506	-74.125	-69.438	74.565	-70.287	-8191	255	
7437.880	1	1	0	0	0.22498	0.12259	0.013115	0.16224	0.091359	0.085104	0.23906	0.21707	0.024281	0.16769	0.12786	0.30087	0.23751	0.2596	0.097047	0.25122	-2.5042	-2.6583	-2.7583	-3.0021	-2.4625	-2.9208	-2.8625	-2.9583	-2.9646	-2.6458	-2.9062	-2.9479	-2.6188	-2.9646	-2.8875	-2.7646	235.178	171.243	69.459	206.084	-56.209	69.666	230.071	195.620	226.883	172.937	242.940	215.652	111.372	-30.895	-4.947	-82.609	0.00014538	0.00064333	0.00015891	1163.4	2.0972e-06	2.3337e-06	1157.5	303.78	2.8565e-06	3.3813e-06	350.91	116.1	100.36	34.849	2.657e-06	43.325	0.00052446	0.00055604	0.00015477	1194.2	6.0507e-06	6.0555e-06	1192.6	314.28	6.0137e-06	6.0943e-06	361.9	121.55	105.23	36.227	5.9761e-06	45.111	181.155	12.337	-17.751	-83.335	125.657	59.513	-83.199	-78.355	74.252	99.738	-78.787	-74.964	-74.296	-69.290	49.395	-69.891	-8191	255	
7437.951	1	1	0	0	0.12366	0.092943	0.27663	0.16593	0.28031	0.23042	0.18803	0.079909	0.067076	0.2011	0.14249	0.14001	0.1171	0.17424	0.25058	0.14661	-2.5146	-2.3812	-2.7062	-2.975	-2.7062	-2.7833	-2.8854	-2.675	-2.9854	-2.8688	-3.0229	-3.1042	-2.6813	-2.9	-2.6771	-2.5958	209.530	193.809	-71.923	262.597	249.260	-33.076	12.370	129.585	175.809	219.571	234.779	194.221	55.460	152.588	166.314	237.665	0.00013931	0.00021796	9.8031e-05	1167.9	3.1919e-06	4.4079e-06	1161.7	304.79	1.4022e-06	4.1184e-06	350.78	115.78	100.4	34.973	4.2504e-06	43.268	0.00052102	0.00056134	0.00015489	1196	6.1213e-06	6.1291e-06	1193	314.4	6.1179e-06	6.1325e-06	362.08	121.69	105.38	36.305	6.131e-06	45.096	200.739	89.266	17.156	-83.162	46.339	81.990	-83.105	-78.360	42.246	85.584	-78.828	-74.605	-74.161	-69.232	55.107	-69.966	-8191	255	
7438.048	1	1	0	0	0.21947	0.22772	0.029173	0.27437	0.25263	0.34209	0.24096	0.17029	0.30908	0.26926	0.20427	0.12248	0.20177	0.069351	0.31345	0.23877	-2.5167	-2.6104	-2.7479	-3.0687	-2.5083	-2.6479	-3.0062	-2.6646	-3.0458	-2.6063	-2.8479	-3.1937	-2.5812	-2.8708	-2.7271	-2.5667	82.957	230.152	138.552	218.471	236.721	-46.006	248.457	251.088	7.535	41.689	238.550	-61.157	97.858	179.717	7.385	140.186	0.00015709	0.00046983	5.1739e-05	1167.8	2.2849e-06	4.0866e-06	1161.8	304.88	3.5285e-06	6.1331e-06	352.13	116.45	100.72	34.965	2.1936e-06	43.159	0.00052888	0.00056848	0.00015764	1196.4	6.1737e-06	6.1732e-06	1193.7	314.63	6.1365e-06	6.253e-06	362.35	121.76	105.5	36.325	6.1208e-06	45.136	196.992	-0.592	257.285	-83.099	68.383	23.260	-83.123	-78.274	8.133	82.549	-78.944	-74.849	-74.328	-69.573	39.405	-70.182	-8191	255	
7438.168	1	1	0	0	0.027155	0.16155	0.14836	0.19521	0.17997	0.24294	0.040159	0.13506	0.16614	0.09335	0.18498	0.089128	0.070788	0.17127	0.13376	0.095302	-2.4313	-2.7479	-2.5312	-2.9542	-2.5	-2.8396	-2.9313	-2.9208	-2.7833	-2.6229	-2.7104	-2.7771	-2.8125	-2.9271	-3.0021	-2.4979	232.339	82.487	190.361	245.297	18.526	72.407	-34.689	142.742	79.232	-27.591	159.421	224.323	98.076	244.025	-71.558	130.765	0.00015654	0.00036867	0.00015381	1167.9	2.799e-06	3.8399e-06	1156	304.09	9.3058e-07	4.6159e-06	350.11	116.38	100.77	34.905	3.5574e-06	43.358	0.00053727	0.00057288	0.00015913	1196.7	6.2562e-06	6.2412e-06	1192.6	314.29	6.1921e-06	6.1794e-06	361.93	121.81	105.61	36.292	6.0924e-06	45.113	201.247	-17.781	-15.236	-83.121	58.826	34.949	-83.097	-78.313	196.195	41.191	-78.932	-74.896	-74.279	-69.443	60.697	-69.996	-8191	255	
#DATA ENDS
