BOXY.EXE: ISS Imagent and Oximeter Data Acquisition Program Version 0.80
Ascii Record File

#ACQ INFORMATION
2  Detector Channels 
16  External MUX Channels 
1  Auxiliary Channels 
5000  Waveform (CCF) Frequency (Hz)
1  Waveforms Skipped 
30  Waveforms Averaged 
1  Cycles Averaged 
16  Acquisitions per Waveform 
10.0806  Updata Rate (Hz) 

#FILE INFORMATION
TRUE -- External MUX Channel results are PARSED.
FALSE -- AC DC and Phase are NOT grouped.
TRUE -- Companion Program Settings File CREATED.
FALSE -- AC data not excluded
FALSE -- DC data not excluded
FALSE -- Phase data not excluded
FALSE -- Auxillary Chn. data not excluded
Tab delimiters

#CALIBRATION STATE
TRUE -- Waveform Calibration Values APPLIED.


#AUX CALIBRATION VALUES
Val Type	aux-1	

Term	1.0000e+00	
Factor	0.0000e+00	


#WF CALIBRATION VALUES
A = Detector Channel
Val Type	A-AC1	A-AC2	A-AC3	A-AC4	A-AC5	A-AC6	A-AC7	A-AC8	A-AC9	A-AC10	A-AC11	A-AC12	A-AC13	A-AC14	A-AC15	A-AC16	A-DC1	A-DC2	A-DC3	A-DC4	A-DC5	A-DC6	A-DC7	A-DC8	A-DC9	A-DC10	A-DC11	A-DC12	A-DC13	A-DC14	A-DC15	A-DC16	A-Ph1	A-Ph2	A-Ph3	A-Ph4	A-Ph5	A-Ph6	A-Ph7	A-Ph8	A-Ph9	A-Ph10	A-Ph11	A-Ph12	A-Ph13	A-Ph14	A-Ph15	A-Ph16	

Term	0.00000e+00	0.00000e+00	0.00000e+00	0.00000e+00	0.00000e+00	0.00000e+00	0.00000e+00	0.00000e+00	0.00000e+00	0.00000e+00	0.00000e+00	0.00000e+00	0.00000e+00	0.00000e+00	0.00000e+00	0.00000e+00	0.00000e+00	0.00000e+00	0.00000e+00	0.00000e+00	0.00000e+00	0.00000e+00	0.00000e+00	0.00000e+00	0.00000e+00	0.00000e+00	0.00000e+00	0.00000e+00	0.00000e+00	0.00000e+00	0.00000e+00	0.00000e+00	0.00000e+00	0.00000e+00	0.00000e+00	0.00000e+00	0.00000e+00	0.00000e+00	0.00000e+00	0.00000e+00	0.00000e+00	0.00000e+00	0.00000e+00	0.00000e+00	0.00000e+00	0.00000e+00	0.00000e+00	0.00000e+00	
Factor	1.00000e+00	1.00000e+00	1.00000e+00	1.00000e+00	1.00000e+00	1.00000e+00	1.00000e+00	1.00000e+00	1.00000e+00	1.00000e+00	1.00000e+00	1.00000e+00	1.00000e+00	1.00000e+00	1.00000e+00	1.00000e+00	1.00000e+00	1.00000e+00	1.00000e+00	1.00000e+00	1.00000e+00	1.00000e+00	1.00000e+00	1.00000e+00	1.00000e+00	1.00000e+00	1.00000e+00	1.00000e+00	1.00000e+00	1.00000e+00	1.00000e+00	1.00000e+00	X	X	X	X	X	X	X	X	X	X	X	X	X	X	X	X	

B = Detector Channel
Val Type	B-AC1	B-AC2	B-AC3	B-AC4	B-AC5	B-AC6	B-AC7	B-AC8	B-AC9	B-AC10	B-AC11	B-AC12	B-AC13	B-AC14	B-AC15	B-AC16	B-DC1	B-DC2	B-DC3	B-DC4	B-DC5	B-DC6	B-DC7	B-DC8	B-DC9	B-DC10	B-DC11	B-DC12	B-DC13	B-DC14	B-DC15	B-DC16	B-Ph1	B-Ph2	B-Ph3	B-Ph4	B-Ph5	B-Ph6	B-Ph7	B-Ph8	B-Ph9	B-Ph10	B-Ph11	B-Ph12	B-Ph13	B-Ph14	B-Ph15	B-Ph16	

Term	0.00000e+00	0.00000e+00	0.00000e+00	0.00000e+00	0.00000e+00	0.00000e+00	0.00000e+00	0.00000e+00	0.00000e+00	0.00000e+00	0.00000e+00	0.00000e+00	0.00000e+00	0.00000e+00	0.00000e+00	0.00000e+00	0.00000e+00	0.00000e+00	0.00000e+00	0.00000e+00	0.00000e+00	0.00000e+00	0.00000e+00	0.00000e+00	0.00000e+00	0.00000e+00	0.00000e+00	0.00000e+00	0.00000e+00	0.00000e+00	0.00000e+00	0.00000e+00	-2.01985e+02	-1.29378e+02	-1.28570e+02	-1.80487e+02	-8.05482e+01	-6.35979e+01	-1.57016e+02	-1.62015e+02	-9.10596e+01	-6.42508e+01	-1.71443e+02	-1.71615e+02	-1.83224e+02	-1.76661e+02	-7.99887e+01	-1.49508e+02	
Factor	5.02138e-05	2.16187e-04	5.75228e-05	2.02782e-01	2.24451e-06	2.39498e-06	2.11821e-01	6.23708e-02	2.36109e-06	2.12806e-06	1.02550e-01	4.02935e-02	4.67635e-02	1.15781e-02	2.14567e-06	1.65216e-02	1.48403e-05	2.08106e-05	5.80611e-06	1.01095e-01	2.10257e-07	2.31288e-07	9.93696e-02	3.12328e-02	2.09323e-07	2.30627e-07	4.98278e-02	1.95568e-02	2.33408e-02	5.84236e-03	2.17295e-07	8.10984e-03	X	X	X	X	X	X	X	X	X	X	X	X	X	X	X	X	



#DISTANCE SETTINGS
A = Detector Channel
A-1	A-2	A-3	A-4	A-5	A-6	A-7	A-8	A-9	A-10	A-11	A-12	A-13	A-14	A-15	A-16	

2.5000e+00	3.0000e+00	2.5000e+00	3.0000e+00	2.0000e+00	3.0000e+00	1.5000e+00	3.0000e+00	3.0000e+00	3.0000e+00	3.0000e+00	3.0000e+00	3.0000e+00	3.0000e+00	1.5000e+00	3.0000e+00	

B = Detector Channel
B-1	B-2	B-3	B-4	B-5	B-6	B-7	B-8	B-9	B-10	B-11	B-12	B-13	B-14	B-15	B-16	

1.0000e+01	1.0000e+01	1.0000e+01	1.4400e+00	1.0000e+01	1.0000e+01	1.5100e+00	1.9400e+00	1.0000e+01	1.0000e+01	1.9900e+00	2.4900e+00	2.4100e+00	2.9000e+00	1.0000e+01	2.9800e+00	




#DATA BEGINS
time	group	step	mark	flag	A-AC1	A-AC2	A-AC3	A-AC4	A-AC5	A-AC6	A-AC7	A-AC8	A-AC9	A-AC10	A-AC11	A-AC12	A-AC13	A-AC14	A-AC15	A-AC16	A-DC1	A-DC2	A-DC3	A-DC4	A-DC5	A-DC6	A-DC7	A-DC8	A-DC9	A-DC10	A-DC11	A-DC12	A-DC13	A-DC14	A-DC15	A-DC16	A-Ph1	A-Ph2	A-Ph3	A-Ph4	A-Ph5	A-Ph6	A-Ph7	A-Ph8	A-Ph9	A-Ph10	A-Ph11	A-Ph12	A-Ph13	A-Ph14	A-Ph15	A-Ph16	B-AC1	B-AC2	B-AC3	B-AC4	B-AC5	B-AC6	B-AC7	B-AC8	B-AC9	B-AC10	B-AC11	B-AC12	B-AC13	B-AC14	B-AC15	B-AC16	B-DC1	B-DC2	B-DC3	B-DC4	B-DC5	B-DC6	B-DC7	B-DC8	B-DC9	B-DC10	B-DC11	B-DC12	B-DC13	B-DC14	B-DC15	B-DC16	B-Ph1	B-Ph2	B-Ph3	B-Ph4	B-Ph5	B-Ph6	B-Ph7	B-Ph8	B-Ph9	B-Ph10	B-Ph11	B-Ph12	B-Ph13	B-Ph14	B-Ph15	B-Ph16	aux-1	digaux	

22427.775	1	1	0	768	0.13637	0.27826	0.10268	0.36897	0.18483	0.083909	0.14882	0.167	0.20545	0.22775	0.17792	0.18692	0.22348	0.20309	0.25054	0.43708	-2.0521	-2.5938	-2.8125	-2.6146	-2.6875	-2.7271	-2.5271	-2.8333	-2.5604	-2.7375	-2.9896	-2.7771	-2.85	-2.9375	-2.4188	-2.9146	217.849	5.087	71.128	187.026	59.528	163.513	250.382	191.472	-31.401	164.498	206.963	-41.677	185.758	-46.889	51.370	227.005	0.0010237	0.0025582	0.00048688	520.51	2.3317e-05	1.0971e-05	1018.2	199.24	1.343e-05	1.1318e-05	439.56	190.27	83.482	40.03	2.2652e-05	108.52	0.033403	0.04698	0.013332	699.4	0.00048548	0.00053777	1149.3	253.12	0.00049572	0.0005532	517.98	219.54	131.5	50.42	0.00052607	118.73	85.136	76.148	-80.261	-92.375	43.988	-47.939	-92.845	-88.689	201.725	7.475	-88.787	-85.096	-85.329	-79.355	250.886	-80.718	-8191	255	
22427.871	1	1	0	0	0.053836	0.12846	0.28115	0.12565	0.18375	0.1138	0.16998	0.13277	0.097786	0.31893	0.13124	0.15718	0.17672	0.087954	0.18252	0.32448	-2.3625	-2.3167	-2.8083	-2.7083	-2.675	-2.8937	-2.6437	-2.7687	-2.7771	-2.5375	-2.9313	-2.7896	-2.6229	-2.9792	-2.7229	-2.8063	135.345	127.977	211.072	4.316	241.669	55.756	214.669	167.362	56.440	-101.612	224.976	-106.257	-71.358	150.261	156.074	-103.997	0.0010698	0.000153	0.00058142	523.6	8.6893e-06	3.0586e-05	1020.7	197.24	6.6544e-05	1.9598e-05	435.11	188	80.244	39.509	1.9307e-05	108.69	0.035687	0.04948	0.013826	705.7	0.00048699	0.00053421	1142.5	248.17	0.00046778	0.00051495	501.6	212.44	123.3	48.538	0.00047376	116.58	147.994	-86.912	-57.956	-92.560	96.993	237.962	-92.731	-88.384	87.150	-65.775	-88.792	-84.469	-84.535	-79.230	64.050	-80.538	-8191	255	
22427.969	1	1	0	0	0.13695	0.022447	0.21145	0.053705	0.10366	0.26919	0.064665	0.20348	0.18506	0.10044	0.22885	0.11066	0.28378	0.098833	0.29658	0.31689	-2.0521	-2.4208	-2.7792	-2.8604	-2.7708	-2.8167	-2.5958	-2.7021	-2.5104	-2.6458	-3.1583	-2.7396	-2.6229	-3.0229	-2.5625	-2.8729	48.260	180.484	147.286	22.412	-88.679	36.779	222.934	-99.069	91.247	205.164	-53.484	202.869	213.291	189.674	-32.562	190.611	0.00037285	0.0029111	0.0002828	515.64	2.6732e-05	4.1298e-05	1017.2	197.3	1.1206e-05	1.0877e-05	436.95	187.88	80.964	39.666	1.1959e-05	108.75	0.032416	0.045432	0.012705	683.22	0.00046063	0.00050994	1131.5	245.5	0.00046297	0.00051217	503.81	213.69	124.7	49.17	0.00048003	117.1	116.838	-45.360	-39.190	-92.983	139.380	12.437	-93.004	-88.269	-19.418	20.373	-88.796	-84.393	-84.903	-79.051	206.289	-80.693	-8191	255	
22428.062	1	1	0	0	0.30517	0.086632	0.19824	0.16834	0.10915	0.2583	0.13531	0.14808	0.013956	0.14758	0.22446	0.09617	0.17752	0.16681	0.08834	0.086497	-2.1729	-2.6583	-2.5896	-2.7208	-2.5104	-2.95	-2.7104	-2.8771	-2.9437	-2.6437	-2.8375	-2.7458	-2.5896	-2.8438	-2.7667	-2.6896	48.094	140.732	-24.896	-94.347	79.223	209.276	12.057	-6.744	84.750	68.203	30.271	-22.085	-54.606	241.215	24.739	34.197	0.0006514	0.00077155	0.00049802	520.09	8.5944e-06	3.2894e-05	1030	200.56	1.7753e-05	1.0383e-05	444.85	189.8	82.323	40	2.0447e-05	108.4	0.033066	0.046218	0.012922	691.72	0.00047268	0.00052436	1144.5	250.94	0.00048214	0.00053402	514.62	217.72	129.96	50.14	0.0005134	118.31	102.220	-54.001	-81.441	-92.718	-26.512	95.080	-92.829	-88.410	75.758	2.843	-89.128	-84.750	-85.260	-79.169	104.752	-80.856	-8191	255	
22428.158	1	1	0	0	0.31977	0.16774	0.12682	0.15408	0.11542	0.26813	0.12805	0.16949	0.19317	0.24217	0.10059	0.0054097	0.14582	0.089312	0.12488	0.20871	-2.4125	-2.4542	-2.6104	-2.7854	-2.6042	-2.7708	-2.8042	-2.7562	-2.9604	-2.4542	-2.8083	-2.9688	-2.5812	-2.9688	-2.6813	-2.7646	-5.239	-42.145	140.473	-102.009	-6.329	0.616	-102.591	200.057	-11.023	43.907	-6.079	87.174	-92.238	150.848	82.731	184.599	0.0013712	0.0027037	0.0005236	525.69	1.6856e-05	4.108e-05	1023.4	199.82	6.4329e-06	2.4537e-05	441.07	189.79	80.977	39.987	2.2011e-05	108.76	0.035387	0.049341	0.013709	709.17	0.00049419	0.00054378	1149.6	252.29	0.00048569	0.00053552	511.53	216.93	128.39	49.921	0.00050218	118.05	131.783	3.882	52.422	-92.790	-40.250	59.178	-92.897	-88.250	124.644	31.863	-89.359	-84.612	-84.741	-79.183	45.789	-80.723	-8191	255	
22428.256	1	1	0	0	0.055635	0.055894	0.26375	0.11754	0.28005	0.19515	0.18662	0.11061	0.22855	0.22161	0.16316	0.17664	0.2731	0.32491	0.14274	0.025012	-2.4375	-2.4479	-2.7062	-2.8333	-2.4125	-2.8833	-2.7458	-2.6542	-2.8729	-2.7313	-2.6542	-2.9708	-2.5396	-2.8563	-2.7125	-2.7896	-49.957	3.822	24.093	202.362	-8.076	113.433	178.715	152.266	15.938	171.762	22.418	-100.617	144.912	-79.348	189.483	-70.563	0.001155	0.0024035	0.00065311	522.32	1.5899e-05	2.8262e-05	1023.6	200.73	1.0784e-05	2.8501e-05	445.84	192.6	83.615	40.567	2.34e-05	110.02	0.034753	0.048468	0.013458	701.97	0.00048934	0.00053566	1149.9	253.76	0.00049321	0.00054652	519.44	221.42	133.59	51.163	0.00054074	120.73	122.876	83.595	-28.898	-92.323	211.170	81.720	-92.865	-88.396	-22.666	38.497	-88.979	-84.792	-85.335	-79.470	-0.937	-80.707	-8191	255	
22428.377	1	1	0	0	0.28377	0.17511	0.037002	0.18195	0.062341	0.28476	0.10459	0.073951	0.2381	0.015696	0.23121	0.35342	0.29656	0.12693	0.05962	0.24047	-2.4437	-2.5833	-2.6521	-2.8958	-2.3458	-3.0146	-2.7438	-2.6937	-2.9458	-2.5625	-2.7687	-2.9083	-2.4875	-2.9146	-2.7104	-2.7271	44.942	186.164	16.115	247.587	244.195	38.254	245.235	142.369	152.498	202.448	205.363	206.302	-67.188	124.138	-86.747	202.406	0.0010407	0.00034594	0.00020792	532.86	8.5126e-06	4.6205e-05	1036.6	204.48	2.4231e-05	3.33e-05	451.06	194.59	85.354	40.745	2.7059e-05	109.67	0.037567	0.052361	0.014545	731.44	0.00052941	0.00057409	1175.9	261.34	0.0005149	0.00056043	526.99	223.89	134.28	51.099	0.00052536	120.6	137.445	17.073	162.711	-92.723	94.946	10.678	-92.685	-88.729	-44.466	165.713	-88.915	-84.466	-84.758	-79.472	19.350	-80.694	-8191	255	
22428.473	1	1	0	0	0.099685	0.24651	0.088084	0.14997	0.091271	0.16123	0.18082	0.36343	0.16901	0.11606	0.18355	0.10933	0.1271	0.054908	0.16081	0.50147	-2.4	-2.6396	-2.6417	-2.8667	-2.3479	-2.7271	-2.8021	-2.5479	-2.8417	-2.9	-2.7313	-3.075	-2.6125	-2.9333	-2.8438	-2.8521	73.950	133.972	-82.940	95.456	199.707	56.569	221.053	193.659	167.604	50.897	-5.443	-23.024	186.968	19.216	165.358	205.661	0.0013509	0.0024589	0.00033368	536.51	1.2578e-05	4.2321e-05	1037.1	207.34	3.2681e-06	1.3715e-05	448.78	195.81	86.902	40.563	3.9673e-05	109.6	0.036591	0.051371	0.0143	729.39	0.00052796	0.00058306	1183.5	265.92	0.00053078	0.00058544	534.14	226.44	137.31	51.55	0.00054388	120.44	119.407	-64.929	5.795	-92.806	41.488	-23.320	-93.050	-88.519	-22.989	42.311	-88.770	-84.874	-85.455	-79.241	-31.642	-81.253	-8191	255	
22428.568	1	1	0	0	0.088155	0.16917	0.28162	0.17736	0.32824	0.2636	0.27896	0.21806	0.076748	0.31319	0.18656	0.15779	0.10291	0.1886	0.24359	0.13008	-2.4	-2.5708	-2.5604	-2.9625	-2.6896	-2.7729	-3.025	-2.5917	-3.1271	-2.7583	-2.6208	-2.9708	-2.7042	-2.9313	-2.8312	-2.7646	52.246	195.351	231.129	10.690	-82.313	-96.308	206.582	-62.966	-42.326	79.874	112.826	81.283	159.173	182.790	-16.298	186.491	0.0013135	0.0028228	0.0002934	530.63	7.1329e-06	3.6916e-05	1035.5	203.93	1.6712e-05	1.2598e-05	448.37	192.13	84.713	39.942	2.8376e-05	108.82	0.037106	0.051538	0.014277	725.02	0.00051483	0.00056266	1169.8	260.26	0.00050812	0.00055513	523.15	221.74	132.65	50.411	0.00051974	119.14	108.166	17.107	-30.091	-92.878	25.034	56.144	-93.250	-88.482	94.541	12.141	-89.231	-84.738	-85.247	-78.855	117.552	-80.688	-8191	255	
22428.664	1	1	0	0	0.10642	0.14095	0.50242	0.37777	0.15139	0.095525	0.19224	0.07326	0.12466	0.19584	0.29267	0.14955	0.15829	0.15799	0.1558	0.17552	-2.5312	-2.7521	-2.4292	-2.9833	-2.5938	-2.7125	-3.0938	-2.6333	-2.9875	-2.7958	-2.6458	-3.0083	-2.5708	-2.7125	-2.8708	-2.8083	80.864	151.740	-89.463	214.848	75.487	-30.488	106.104	31.483	191.276	96.018	128.933	152.399	207.029	164.284	90.573	156.103	0.0005998	0.001859	0.00075045	531.55	4.4415e-06	1.5061e-05	1025.8	205.96	2.3098e-05	1.6864e-05	453.22	193.14	86.248	40.505	9.1929e-06	110.61	0.035866	0.049937	0.014162	720.38	0.00051004	0.00055966	1171.3	261.63	0.00051162	0.00056492	529.48	224.85	135.95	51.365	0.00054719	121.07	109.217	164.923	212.876	-92.587	-21.594	96.939	-92.764	-88.604	109.315	210.324	-88.614	-84.799	-85.345	-79.517	229.370	-80.488	-8191	255	
22428.762	1	1	0	0	0.21807	0.21961	0.17901	0.14876	0.23605	0.24763	0.13656	0.052725	0.3844	0.15619	0.034888	0.021342	0.15622	0.23509	0.091643	0.4871	-2.2854	-2.8083	-2.3229	-2.7854	-2.8063	-2.7896	-2.9521	-2.7771	-2.8063	-2.8812	-2.7313	-2.9854	-2.6625	-2.7792	-2.8583	-2.6604	176.435	93.235	-71.753	107.010	-88.888	36.110	168.263	232.253	41.072	85.575	-14.279	112.430	-18.689	-49.246	128.824	194.745	0.000988	0.0013382	0.00041907	539.7	3.1665e-05	3.7872e-05	1047.8	208.25	4.1145e-05	7.8927e-06	454.49	196.32	85.728	40.519	2.6038e-05	110.05	0.037656	0.052543	0.014818	739.07	0.00053742	0.00059254	1194	267.9	0.00053326	0.00058442	536.47	226.86	136.54	51.499	0.00054326	120.67	105.587	58.127	25.551	-92.287	49.189	100.333	-92.760	-88.498	-70.403	82.400	-89.164	-84.895	-85.477	-79.151	100.309	-80.480	-8191	255	
22428.857	1	1	0	0	0.11374	0.46354	0.18717	0.15685	0.063077	0.21459	0.20271	0.30811	0.22297	0.17168	0.17655	0.22559	0.23512	0.27374	0.12471	0.14757	-2.2604	-2.9604	-2.5708	-2.8229	-2.7146	-2.4875	-2.8979	-2.6354	-2.7146	-2.9271	-2.6562	-2.8063	-2.7479	-2.5208	-2.7333	-2.6917	38.235	-7.106	220.395	83.208	247.290	-45.643	166.157	191.404	91.823	125.370	-43.692	232.540	105.522	229.236	68.187	99.095	0.00073928	0.0011902	0.0006411	534.85	3.0544e-05	2.6598e-05	1028.4	202.97	2.3059e-05	1.1532e-05	443.58	191.06	83.756	39.776	1.7106e-05	108.91	0.03656	0.050902	0.014301	723.44	0.00050959	0.00056287	1167	258.43	0.00050274	0.00055301	520.11	219.92	131.05	50.273	0.00051986	118.75	128.914	125.351	-105.043	-92.827	166.107	19.001	-93.070	-88.623	45.697	157.007	-89.292	-84.991	-84.610	-79.689	-43.170	-80.677	-8191	255	
22428.953	1	1	0	0	0.2008	0.081712	0.12737	0.075443	0.28229	0.12977	0.03613	0.15168	0.10229	0.22056	0.24796	0.3478	0.123	0.14041	0.24694	0.42932	-2.2458	-2.9292	-2.6729	-2.7896	-2.7167	-2.5438	-2.95	-2.6792	-2.6521	-2.7354	-2.5646	-2.8125	-2.9083	-2.6958	-2.95	-2.8542	-105.317	107.743	194.625	-103.640	90.894	-4.800	145.190	183.555	79.540	193.161	101.126	203.755	2.184	102.027	115.213	208.971	0.0014131	0.0018242	0.00079142	528.01	1.1056e-05	1.3067e-05	1033.1	206.28	2.4133e-05	3.8334e-05	448.52	191.24	84.464	40.022	3.1297e-05	108.13	0.03606	0.050798	0.014321	724.28	0.00051727	0.00057442	1177.1	261.74	0.00051406	0.00057229	527.17	221.79	132.95	50.584	0.00052716	118.41	100.826	41.876	-104.368	-92.613	218.070	52.243	-92.982	-88.905	178.248	246.836	-89.049	-85.049	-85.652	-79.239	139.631	-80.733	-8191	255	
22429.072	1	1	0	0	0.078922	0.097091	0.10928	0.27987	0.23619	0.099677	0.14868	0.22754	0.22385	0.10184	0.27597	0.21694	0.11976	0.14576	0.060756	0.25387	-2.0687	-2.8583	-2.6542	-2.775	-2.8104	-2.3667	-2.8854	-2.7396	-2.5062	-2.8417	-2.8833	-2.7562	-2.8354	-2.5896	-2.8771	-2.7104	211.691	97.481	123.925	140.357	171.640	137.474	150.961	188.104	-81.894	13.193	223.050	6.919	-63.703	170.958	215.154	-97.246	0.00078698	0.00043142	0.00043232	530.73	2.102e-05	2.7617e-05	1015.8	200.57	3.4459e-05	2.8431e-05	442.59	190.35	84.433	39.81	4.3046e-05	107.95	0.035601	0.04984	0.013857	710.19	0.0004925	0.00054536	1150.7	253.43	0.00048756	0.0005376	513.74	217.66	129.24	49.806	0.00050207	117.69	123.380	-75.260	187.577	-92.883	-35.748	61.006	-92.844	-88.606	47.991	76.270	-88.854	-84.943	-85.173	-79.677	36.167	-80.634	-8191	255	
22429.168	1	1	0	0	0.23525	0.13591	0.029805	0.10999	0.27781	0.10275	0.201	0.035094	0.27225	0.16495	0.018506	0.23348	0.094047	0.12887	0.15371	0.20503	-2.0938	-2.8396	-2.6271	-2.5917	-2.7604	-2.6042	-2.7583	-2.9062	-2.5458	-2.9062	-2.6979	-2.675	-3.0104	-2.5083	-2.8229	-2.9229	-90.505	-58.284	134.516	217.973	104.450	60.437	236.895	-34.036	-39.366	143.316	90.463	-88.949	31.067	130.296	79.446	165.292	0.0010561	0.0019737	0.00093897	523.94	3.5789e-05	8.4962e-06	1028.8	201.67	4.2623e-05	2.0399e-05	445.29	192.37	82.394	40.547	1.5924e-05	109.78	0.03461	0.048488	0.013609	704.1	0.00049239	0.0005478	1157.2	255.43	0.00050484	0.00056281	523.74	222.52	134.34	51.34	0.00054772	120.8	114.845	26.264	-106.004	-92.527	230.239	-104.978	-92.900	-88.838	104.011	54.846	-88.573	-84.894	-85.003	-79.252	174.933	-80.680	-8191	255	
22429.264	1	1	0	0	0.12869	0.21066	0.25368	0.07586	0.33796	0.16766	0.15541	0.35147	0.30957	0.17466	0.075347	0.069013	0.22468	0.15387	0.26246	0.31629	-2.1208	-2.775	-2.5729	-2.6417	-2.9375	-2.7062	-2.9229	-2.7167	-2.425	-2.7604	-2.7833	-2.575	-2.825	-2.6312	-2.8104	-3.0187	58.906	104.898	185.694	10.077	164.790	173.208	187.153	185.609	160.561	235.457	158.140	174.470	-101.980	210.314	11.205	198.224	0.00083613	0.0010756	0.00042864	533.91	2.1718e-05	2.5194e-05	1034.9	204.23	2.87e-05	1.0429e-05	448.29	191.73	83.862	39.981	1.5206e-05	108.1	0.037996	0.053151	0.014826	735.32	0.00053807	0.00059507	1181.7	262.74	0.00052846	0.00058245	527.45	222.51	133.93	50.789	0.00053759	118.98	131.244	-59.617	68.791	-92.767	20.094	45.099	-92.985	-88.596	-7.666	241.490	-88.678	-84.603	-84.858	-79.164	155.715	-81.083	-8191	255	
22429.336	1	1	0	0	0.076822	0.27223	0.10228	0.1641	0.18614	0.08061	0.042147	0.10712	0.07751	0.15757	0.081414	0.1642	0.11125	0.27019	0.14473	0.32178	-2.1625	-2.8958	-2.7313	-2.7542	-2.9417	-2.625	-2.7542	-2.8354	-2.6167	-2.8812	-2.8667	-2.4792	-2.8354	-2.6458	-2.7625	-3.0604	247.214	124.836	3.239	-89.574	36.867	153.437	171.427	163.088	82.290	10.112	-99.775	214.062	-15.828	237.139	222.756	181.318	0.00063901	0.0026103	0.00048603	527.36	1.0993e-05	1.9878e-05	1029	203.58	1.6333e-06	4.0145e-05	446.56	190.28	83.107	40.182	2.8834e-05	109.47	0.0371	0.051332	0.014375	725.33	0.00052585	0.00057805	1171.3	260.64	0.00052261	0.00057541	525.39	221.78	133.56	51.005	0.00053742	119.66	98.515	-45.801	94.703	-92.924	76.249	118.416	-92.955	-88.525	46.020	43.202	-89.209	-84.986	-85.340	-79.146	175.323	-80.557	-8191	255	
22429.455	1	1	0	0	0.1001	0.24613	0.21702	0.23494	0.28988	0.20484	0.067215	0.12383	0.085218	0.21685	0.039994	0.22152	0.11599	0.10643	0.13885	0.11937	-2.1813	-2.7646	-2.725	-2.5479	-2.8896	-2.7271	-2.6792	-2.8896	-2.7542	-2.6833	-2.7979	-2.5479	-2.8042	-2.7021	-2.5479	-2.9188	-80.559	151.391	132.671	-25.981	96.554	180.813	83.460	172.299	167.037	153.882	109.834	248.239	230.185	247.123	-103.573	245.240	0.0010084	0.0038779	0.00074279	527.49	2.8522e-05	8.4574e-06	1031.3	202.32	1.9959e-05	3.6126e-05	445.36	190.37	83.063	40.093	3.7416e-05	109.73	0.037082	0.051338	0.014333	721.23	0.00051977	0.00056927	1167.9	259.09	0.00051634	0.00056459	523.97	221.61	133.43	50.92	0.00053637	120.2	95.613	54.026	157.964	-93.036	-2.651	-64.721	-92.706	-88.493	162.723	103.055	-88.715	-84.950	-85.239	-79.074	79.678	-80.574	-8191	255	
22429.553	1	1	0	0	0.19881	0.17421	0.30661	0.11353	0.15073	0.31808	0.066763	0.16878	0.25128	0.21229	0.22656	0.038481	0.10963	0.37397	0.12365	0.28646	-2.1604	-2.9375	-2.7792	-2.5958	-2.9104	-2.7833	-2.7083	-3.0458	-2.5812	-2.8083	-2.9479	-2.6813	-2.7667	-2.6833	-2.55	-3.0625	167.836	48.309	180.423	228.986	49.187	178.307	-21.825	174.258	7.797	-11.082	198.254	166.388	28.220	192.541	79.647	169.577	0.00065938	0.0025884	0.00052621	527.99	4.7271e-05	2.6536e-05	1032.7	203.17	1.4521e-05	2.4192e-05	447.02	190.71	84.01	40.248	4.5173e-06	109.92	0.037395	0.052201	0.014586	728.1	0.00052522	0.00057618	1170.9	260.99	0.00051872	0.00057342	526.24	222.81	134.12	51.091	0.000541	120.72	63.182	33.565	85.228	-92.535	42.844	130.886	-92.817	-88.797	45.280	43.929	-89.037	-84.565	-85.453	-79.431	-26.682	-80.950	-8191	255	
22429.648	1	1	0	0	0.15486	0.16667	0.21889	0.1322	0.19519	0.060372	0.2874	0.13967	0.044932	0.13537	0.14322	0.25416	0.1456	0.31576	0.40937	0.23186	-2.2458	-2.7354	-2.8312	-2.6979	-2.8875	-2.7729	-2.5167	-2.9354	-2.5354	-2.7042	-2.9542	-2.7562	-2.6479	-2.5604	-2.4833	-2.8688	93.560	-23.101	22.314	189.725	54.781	207.842	-100.754	222.090	247.690	8.675	158.635	242.382	-8.586	203.121	-59.690	228.121	0.00073858	0.0019146	0.00076962	538	1.8708e-05	2.1704e-05	1031.5	203.91	1.9589e-05	1.684e-05	448.98	190.56	82.807	40.33	6.7787e-06	108.87	0.037147	0.051895	0.014522	728.95	0.00052352	0.0005744	1174	260.07	0.00051368	0.00056552	523.37	220.98	131.21	50.294	0.00051712	118.78	121.272	-79.628	226.758	-92.415	59.432	-18.275	-93.095	-88.368	-49.499	-57.353	-88.826	-84.696	-84.684	-79.252	-90.447	-80.638	-8191	255	
22429.770	1	1	0	0	0.077192	0.089981	0.083811	0.08717	0.064999	0.11019	0.12297	0.086349	0.091983	0.15916	0.21889	0.24121	0.10212	0.17144	0.20215	0.10954	-2.1896	-2.5958	-2.7271	-2.5917	-2.7708	-2.7292	-2.6312	-2.8854	-2.6813	-2.6104	-2.9792	-2.575	-2.7646	-2.8438	-2.4896	-2.9625	-93.269	35.897	137.875	-81.064	-1.842	152.964	190.073	128.754	186.800	121.016	112.294	212.305	236.046	-103.261	-18.067	98.972	0.00075234	0.0020323	0.00042391	524.19	5.3689e-06	2.903e-05	1020.6	199.07	2.5327e-05	8.2755e-06	443.39	191.53	83.334	40.002	1.6057e-05	109.5	0.034986	0.048455	0.013564	702.26	0.00048915	0.00053735	1151.7	253.74	0.00049549	0.0005474	517.97	220.22	131.05	50.327	0.00052087	119.19	106.693	84.478	224.902	-92.577	117.878	-28.852	-93.171	-88.783	-9.947	-32.481	-88.876	-84.651	-85.472	-79.747	55.967	-80.853	-8191	255	
22429.863	1	1	0	0	0.37637	0.28391	0.25294	0.10934	0.28662	0.38664	0.34612	0.25933	0.13711	0.15422	0.22517	0.14481	0.14195	0.30048	0.117	0.34557	-2.1562	-2.6708	-2.9437	-2.575	-2.7604	-2.8167	-2.5854	-2.6813	-2.5271	-2.6646	-3.1437	-2.7438	-2.5417	-2.9896	-2.6125	-2.9958	146.364	-0.186	-2.189	171.400	162.440	-80.464	69.321	129.545	180.724	195.463	245.569	177.264	181.128	182.023	-44.018	203.051	0.00099694	0.00036932	0.00013829	530.25	9.4278e-06	2.2767e-05	1024.6	199.14	1.1684e-05	1.2679e-05	440.25	190.73	82.628	39.858	1.8453e-05	109.88	0.035489	0.04947	0.01371	709.39	0.00049189	0.00053912	1150.8	251.54	0.00048288	0.00053431	514.23	218.2	129.59	50.097	0.00051196	119.17	118.752	-91.576	-4.383	-92.561	-86.780	190.408	-92.978	-88.683	-15.521	142.972	-88.692	-84.648	-85.693	-79.157	4.996	-80.754	-8191	255	
22429.938	1	1	0	0	0.1309	0.048264	0.21506	0.11305	0.20689	0.19762	0.38131	0.28329	0.23153	0.15484	0.086308	0.062438	0.11454	0.45695	0.098241	0.088188	-2.4	-2.6521	-2.8542	-2.6	-2.6312	-2.7542	-2.5062	-2.8063	-2.6562	-2.5917	-2.8729	-2.5958	-2.5312	-2.9354	-2.525	-2.8479	164.590	-91.433	227.236	215.332	-69.352	214.405	221.891	86.415	187.280	250.167	187.490	11.747	8.193	200.977	18.677	-57.616	0.00048583	0.0019384	6.0495e-05	524.38	2.5556e-05	4.6684e-06	1028.1	203.74	1.1032e-05	3.7806e-05	449.73	192.36	84.4	40.291	2.2575e-05	110.34	0.03532	0.049546	0.013863	713.23	0.00050078	0.00055588	1167.1	257.85	0.0005053	0.00055917	525	222.53	133.09	50.856	0.00053131	120.46	138.033	-26.445	63.079	-92.672	47.265	149.375	-92.769	-88.952	-98.932	115.964	-88.835	-85.019	-85.216	-79.094	-32.316	-80.778	-8191	255	
22430.057	1	1	0	0	0.034689	0.11816	0.20952	0.2276	0.27232	0.15985	0.29454	0.20897	0.1355	0.043768	0.16048	0.21254	0.12464	0.21541	0.072003	0.22921	-2.2625	-2.3438	-2.7354	-2.5771	-2.3708	-2.8333	-2.7938	-2.7521	-2.8354	-2.6063	-2.9667	-2.7396	-2.5187	-2.9437	-2.6437	-2.8208	4.022	-50.233	153.881	233.306	-63.661	-100.857	215.978	117.936	14.648	52.402	-87.388	-13.050	82.586	73.261	197.278	137.503	0.0012598	0.0034956	0.000502	533.41	1.7685e-05	1.0878e-05	1031.2	201.24	5.7294e-06	1.3556e-05	443.28	189.57	81.698	39.883	1.6178e-05	109.19	0.036428	0.050443	0.014087	718.83	0.00050678	0.00055744	1164.8	255.59	0.00049183	0.00054104	515.28	217.27	128.26	49.691	0.00050198	118.19	113.437	70.381	-39.184	-92.652	12.242	-27.744	-92.466	-88.788	217.541	11.963	-88.947	-84.933	-84.868	-78.981	68.899	-80.703	-8191	255	
22430.152	1	1	0	0	0.065695	0.11298	0.16354	0.1043	0.37465	0.26389	0.034303	0.15232	0.24164	0.14779	0.059489	0.23892	0.25296	0.20691	0.12147	0.22686	-2.3979	-2.4813	-2.7521	-2.7083	-2.7438	-2.9062	-2.8083	-2.8333	-2.8125	-2.3812	-2.8979	-2.7146	-2.5583	-2.7583	-2.5375	-2.7979	-5.522	-33.738	26.652	11.716	6.285	3.041	9.987	148.831	168.195	-34.382	206.542	224.640	10.889	176.795	194.171	-83.800	0.00090724	0.0011814	9.4931e-05	526.73	2.7671e-05	1.4011e-05	1028.3	202.83	1.8721e-05	2.7049e-05	448.97	193.32	84.786	40.294	1.3456e-05	110.38	0.034432	0.048244	0.013526	706.8	0.00049056	0.00054468	1159.2	256.46	0.00049748	0.00055231	523.08	221.7	133.18	50.793	0.0005255	120.08	117.125	110.629	126.311	-92.596	-10.406	-29.404	-92.933	-88.704	137.785	83.022	-88.828	-84.922	-85.056	-78.957	178.362	-80.752	-8191	255	
22430.248	1	1	0	0	0.2526	0.074825	0.055186	0.2527	0.10549	0.10941	0.22543	0.1233	0.26576	0.29582	0.10144	0.076904	0.17083	0.093307	0.19873	0.29773	-2.3021	-2.55	-2.6875	-2.5208	-2.4708	-2.9042	-2.8229	-2.6458	-2.8625	-2.5917	-2.8896	-2.8896	-2.5729	-2.7875	-2.5958	-2.8042	139.623	37.728	38.478	191.855	69.946	59.204	163.866	219.407	-13.363	158.111	47.998	247.977	240.360	245.090	40.903	211.142	0.00063709	0.00083511	0.00064942	529.01	7.9601e-06	2.4252e-05	1033.8	204.18	4.8184e-05	2.3865e-05	449.3	194.42	84.565	40.321	2.3338e-05	110.65	0.036176	0.05069	0.014162	720.98	0.00051528	0.00056966	1174.5	260.82	0.00051112	0.0005607	526.09	222.69	133.51	50.765	0.00052205	120.43	79.886	252.714	-54.047	-93.330	39.462	248.359	-92.569	-88.709	-24.929	121.105	-89.132	-85.078	-84.981	-78.952	104.573	-80.646	-8191	255	
22430.369	1	1	0	0	0.11841	0.0079274	0.11092	0.17044	0.0040586	0.074783	0.15874	0.19375	0.18788	0.10762	0.035822	0.25849	0.29645	0.047901	0.16788	0.11352	-2.3375	-2.4583	-2.6667	-2.7396	-2.6854	-2.8146	-2.9521	-2.6937	-2.8271	-2.5104	-2.8667	-2.8104	-2.4646	-2.675	-2.6729	-2.6833	166.488	-40.858	44.055	-0.674	210.475	-34.274	201.984	207.483	119.967	35.962	-50.242	244.776	-55.685	44.019	176.113	237.285	0.0010215	0.0025179	0.00077032	531.24	5.0978e-05	1.2536e-05	1036.2	203.79	4.8096e-05	2.6687e-05	447.34	194.11	83.495	40.243	7.8971e-06	111.08	0.036042	0.050023	0.013879	717.46	0.00050241	0.00055113	1163.1	256.55	0.00049269	0.00053941	519.75	220.48	130.53	50.192	0.0005042	120.33	154.217	36.003	-80.892	-93.263	217.580	247.079	-93.094	-88.715	129.292	-1.706	-88.742	-84.568	-84.947	-79.183	-99.932	-80.557	-8191	255	
22430.465	1	1	0	0	0.3464	0.24968	0.16153	0.12483	0.045326	0.27607	0.1137	0.18354	0.19451	0.13625	0.13474	0.037623	0.19183	0.13854	0.038828	0.26721	-2.5125	-2.7792	-2.875	-2.8667	-2.5375	-2.6875	-2.7083	-2.6229	-2.8021	-2.6583	-2.6458	-2.9062	-2.3521	-2.8125	-2.575	-2.6771	43.108	-87.006	14.133	26.422	30.773	87.035	188.237	247.681	-25.047	78.925	139.865	-101.656	189.565	91.453	34.800	194.764	0.00041669	0.0019162	0.00095898	529.71	6.6223e-05	4.1313e-05	1037.7	205.75	1.3865e-05	3.6659e-05	455.18	194.73	84.957	40.722	1.6252e-05	110.5	0.03503	0.048856	0.013622	714.24	0.00050483	0.00055435	1174.4	261.05	0.00051434	0.00056782	531.35	225.75	136.25	51.631	0.00054476	121.3	127.481	53.423	-64.510	-92.800	121.245	17.515	-92.871	-88.579	222.985	105.412	-88.751	-85.036	-85.531	-79.123	38.782	-80.589	-8191	255	
22430.561	1	1	0	0	0.20117	0.24646	0.11745	0.020639	0.061185	0.11635	0.14591	0.17764	0.18091	0.068021	0.078195	0.26656	0.098658	0.26786	0.14921	0.29703	-2.4979	-2.5083	-2.6042	-2.8333	-2.4583	-2.8438	-2.9646	-2.5062	-2.8375	-2.8625	-2.675	-3.0187	-2.6458	-2.7229	-2.8438	-2.7188	-32.932	-96.209	172.089	218.097	114.642	-37.533	171.650	-32.242	87.970	-93.425	231.482	209.986	228.106	225.624	204.118	234.968	0.00054241	0.0016413	0.0006651	536.59	3.1827e-06	1.5525e-05	1031.9	205.26	1.9892e-05	2.7917e-05	449.41	194.27	84.319	40.636	2.7199e-05	111.3	0.037479	0.051731	0.014404	729.61	0.00051937	0.00057054	1173.6	261.27	0.00051317	0.00056461	528.35	223.8	133.7	51.097	0.00052851	121.44	102.858	-58.994	6.726	-92.627	-89.473	-48.311	-92.889	-88.356	111.523	55.011	-89.087	-84.840	-84.728	-79.250	-54.562	-80.622	-8191	255	
22430.633	1	1	0	0	0.19517	0.19174	0.16664	0.1032	0.20329	0.23884	0.27559	0.080985	0.091792	0.066041	0.18191	0.098376	0.026572	0.12327	0.17664	0.23191	-2.3708	-2.7271	-2.5729	-2.775	-2.5667	-2.65	-2.8375	-2.5542	-2.6958	-2.7062	-2.5604	-2.9875	-2.5229	-2.6167	-2.7979	-2.725	-16.479	22.801	-29.175	87.866	230.603	221.616	173.314	37.127	-29.170	129.421	234.337	78.722	205.016	234.804	77.735	66.936	0.0011545	0.0027267	5.1675e-05	534.89	3.8445e-05	5.6582e-05	1037.3	204.64	4.0074e-05	1.2957e-05	446.67	193.94	85.258	40.532	1.5438e-05	111.32	0.036535	0.05052	0.014062	723.25	0.00051227	0.00055975	1173	259.43	0.00051063	0.00055785	525.83	223.57	132.77	51.009	0.00052879	121.07	149.784	-92.516	-84.367	-92.640	80.062	-3.774	-92.923	-88.240	9.558	-1.913	-89.164	-84.819	-85.360	-79.450	82.288	-80.636	-8191	255	
22430.754	1	1	0	0	0.086228	0.27981	0.097218	0.16074	0.2157	0.13755	0.24748	0.23617	0.15882	0.21047	0.24349	0.32713	0.18146	0.10153	0.16958	0.1898	-2.2854	-2.7083	-2.4125	-3.025	-2.6125	-2.6354	-2.8917	-2.5292	-2.8042	-2.825	-2.6458	-2.8896	-2.6167	-2.5896	-2.8583	-2.5417	111.038	135.699	250.527	81.950	89.556	101.400	189.787	-58.222	162.497	-31.162	137.457	228.049	214.049	174.163	-55.062	235.037	0.0012202	0.0025948	0.00035412	530.35	3.3563e-05	3.3779e-05	1034.2	204.75	1.7761e-05	2.1862e-05	450.36	193.09	83.925	40.531	3.3047e-05	111.11	0.036118	0.050179	0.014028	719.8	0.00050793	0.00055289	1170.3	258.87	0.00050295	0.00055486	525.6	223.83	132.9	51.142	0.00052972	121.83	160.873	16.643	-24.989	-93.365	107.208	88.842	-92.519	-88.489	168.144	-32.206	-89.008	-84.914	-85.259	-79.058	205.605	-80.705	-8191	255	
22430.850	1	1	0	0	0.051099	0.30367	0.26297	0.091334	0.12681	0.16762	0.1604	0.15277	0.14881	0.19981	0.25156	0.041466	0.21038	0.066528	0.16899	0.050898	-2.3604	-2.6937	-2.2625	-2.6271	-2.6562	-2.525	-2.85	-2.4938	-2.7021	-2.6875	-2.6083	-2.8875	-2.7021	-2.7479	-3.0083	-2.6292	-56.571	117.082	52.222	179.015	-86.318	26.480	230.910	248.575	74.712	6.182	-16.510	238.517	-45.796	164.331	49.074	197.238	0.0012401	0.002733	0.00080421	536.07	2.6578e-05	8.0907e-06	1046	205.71	2.1163e-05	6.0092e-06	450.83	194.19	85.035	40.586	1.8541e-05	110.62	0.03648	0.050923	0.01432	727.55	0.00051742	0.00057216	1182	262.36	0.00051505	0.00057074	530.61	224.63	134.82	51.37	0.00054325	121.6	139.384	-65.752	44.731	-92.698	-12.648	-11.362	-93.121	-88.285	-64.379	-5.963	-88.979	-85.206	-85.492	-80.035	80.627	-80.515	-8191	255	
22430.943	1	1	0	0	0.11289	0.10761	0.12429	0.29877	0.069515	0.1759	0.20878	0.1271	0.060533	0.19147	0.35487	0.031603	0.2853	0.31324	0.092031	0.29571	-2.0354	-2.8604	-2.3708	-2.7521	-2.6146	-2.4792	-2.8979	-2.5438	-2.6896	-2.8417	-2.6542	-2.8375	-2.7562	-2.5438	-2.7792	-2.6667	10.122	208.476	-100.960	236.098	235.709	-5.708	96.999	100.024	-54.305	139.542	229.891	133.013	133.316	-59.153	-10.407	217.567	0.00047619	0.0034676	0.00083559	535.47	1.7123e-05	8.3702e-06	1036.9	206.85	1.6199e-05	4.2978e-06	451.03	195.01	85.611	41.061	1.3079e-05	111.39	0.037139	0.051889	0.014559	731.59	0.00052558	0.00058144	1186.7	264.62	0.00052497	0.00058085	534.81	226.08	135.93	51.853	0.00055061	122.26	126.238	37.584	25.573	-93.262	53.980	217.000	-92.534	-88.650	17.237	180.352	-89.065	-84.649	-85.091	-78.977	-86.163	-80.723	-8191	255	
22431.039	1	1	0	0	0.1241	0.23206	0.29786	0.11676	0.04469	0.055457	0.21592	0.094048	0.073605	0.23049	0.36795	0.072462	0.22083	0.10804	0.25243	0.15154	-2.225	-2.7854	-2.4917	-2.6542	-2.675	-2.5	-2.8125	-2.4917	-2.5042	-2.8667	-2.5667	-2.7562	-2.6542	-2.6354	-2.8792	-2.8333	139.345	41.451	-104.277	174.768	17.367	191.000	136.593	181.266	127.863	222.180	200.762	-13.006	179.856	-88.420	-77.210	193.586	0.0010376	0.0041966	0.0016407	534.9	3.1e-05	2.5186e-05	1047.3	205.26	2.3428e-05	1.6086e-05	452.63	195.38	86.12	40.692	4.6371e-05	111.98	0.037376	0.052284	0.014613	730.26	0.00052606	0.00058001	1188.2	262.92	0.00052664	0.0005828	535.79	226.88	137.73	52.19	0.00056092	123.41	107.403	-18.032	168.260	-92.683	59.818	-18.989	-92.472	-88.837	72.899	182.961	-89.390	-84.858	-85.320	-79.098	28.294	-80.901	-8191	255	
22431.160	1	1	0	0	0.12734	0.17449	0.28712	0.11243	0.0806	0.11486	0.14729	0.0848	0.15449	0.19619	0.10194	0.29008	0.056909	0.21278	0.15387	0.19067	-2.1104	-2.7083	-2.4437	-2.7583	-2.7479	-2.6479	-2.8854	-2.7604	-2.525	-2.7	-2.65	-2.7854	-2.8271	-2.6188	-2.7125	-2.7438	233.652	-105.726	-83.923	-98.516	67.050	-99.133	157.132	117.058	134.838	215.403	199.134	215.315	148.878	133.973	32.560	195.819	0.00093457	0.0010882	0.00042017	536.96	1.6581e-05	1.7101e-05	1052.9	209.91	2.2635e-05	1.3815e-05	458.87	199.7	86.704	41.167	3.2934e-05	112.81	0.038969	0.054927	0.015396	754.41	0.00055934	0.00062223	1216.5	273.03	0.00056415	0.00062358	550.69	232.49	141.98	53.027	0.00057881	124.54	143.793	72.698	-96.213	-92.810	-96.584	37.267	-92.489	-88.561	-17.791	-67.324	-89.283	-85.067	-85.666	-79.163	90.900	-80.771	-8191	255	
22431.232	1	1	0	0	0.14855	0.15095	0.10811	0.068547	0.27235	0.15757	0.24173	0.20728	0.21295	0.079271	0.072881	0.11109	0.050683	0.15618	0.14405	0.019171	-1.9896	-3.0083	-2.575	-2.6229	-2.9646	-2.5229	-2.8854	-2.7417	-2.5458	-2.8104	-2.8021	-2.7271	-2.7292	-2.6146	-2.7167	-2.9	59.710	172.392	111.292	-39.028	-11.499	241.112	234.273	230.899	189.084	29.123	192.586	202.519	-24.860	-106.117	-23.082	251.920	0.0010645	0.0022487	0.0004305	538.31	1.2318e-05	2.3574e-05	1050.7	207.04	1.049e-05	9.8595e-06	455.62	195.77	85.865	40.843	2.3665e-05	111.77	0.039668	0.055152	0.015305	749.32	0.00055357	0.00061032	1202.9	267.7	0.000541	0.00059633	538.75	227.45	137.48	52.141	0.00055535	122.72	121.120	181.391	93.683	-92.996	122.036	204.835	-92.686	-88.583	61.704	60.549	-89.019	-84.838	-85.351	-79.393	68.501	-80.634	-8191	255	
22431.328	1	1	0	0	0.12347	0.23923	0.33431	0.26123	0.27086	0.051349	0.25847	0.21474	0.18535	0.15273	0.19788	0.17297	0.060993	0.27856	0.15293	0.16036	-2.0979	-2.5396	-2.5479	-2.6667	-2.6562	-2.7333	-2.6875	-3.0375	-2.5625	-2.9708	-2.8083	-2.6125	-2.9813	-2.5396	-2.6854	-2.8063	77.234	61.924	-29.286	80.225	61.825	214.374	193.834	164.816	218.477	188.735	186.186	-58.434	-17.878	150.854	208.117	186.772	0.001307	0.0008801	0.00015677	541.59	2.3634e-05	3.2003e-05	1051.1	206.48	1.2408e-05	3.8285e-05	454.48	196.83	85.311	40.929	1.3346e-05	111.06	0.038469	0.053831	0.014942	743.93	0.0005442	0.00059793	1201	267.86	0.00054177	0.00059562	540.09	228.38	137.8	52.031	0.0005515	122.4	91.781	217.850	-12.670	-93.205	62.045	-27.942	-92.864	-89.055	196.760	-64.432	-89.084	-85.026	-85.747	-79.720	177.627	-80.928	-8191	255	
22431.449	1	1	0	0	0.056648	0.086713	0.25416	0.14027	0.087505	0.19853	0.22928	0.16653	0.23179	0.28624	0.12533	0.25004	0.33879	0.13491	0.10524	0.1811	-1.9854	-2.8063	-2.7083	-2.7188	-2.7625	-2.7979	-2.7792	-2.8042	-2.475	-2.8104	-2.7146	-2.7104	-2.8896	-2.7146	-2.8083	-3.1083	21.136	204.970	28.920	179.380	196.920	30.977	217.757	94.113	137.141	91.463	-48.741	184.325	-74.611	-72.754	135.676	227.033	0.00051775	0.001095	0.00029857	538.16	1.1048e-05	2.0838e-05	1043.3	205.29	1.9592e-05	1.9942e-05	453.13	195.48	84.891	40.596	3.0634e-05	111.71	0.037761	0.052609	0.014543	734.59	0.00052733	0.00058161	1188.6	263.86	0.00052378	0.00057603	532.14	225.37	134.5	51.245	0.00053093	121.81	113.749	-102.809	238.841	-92.758	228.826	12.641	-92.842	-88.826	168.012	160.427	-89.283	-85.040	-84.350	-79.486	-0.082	-80.667	-8191	255	
22431.547	1	1	0	0	0.33622	0.15351	0.37943	0.089989	0.2243	0.15435	0.21526	0.16273	0.083223	0.15649	0.19788	0.28015	0.22332	0.12107	0.11207	0.27936	-2.2021	-2.7104	-2.7271	-2.6875	-2.7396	-2.4313	-2.7271	-2.9646	-2.6292	-2.7875	-2.9688	-2.6937	-2.8979	-2.7104	-2.6875	-2.8979	123.947	-54.413	67.413	242.399	139.140	98.867	187.541	-7.430	51.954	-91.872	193.943	248.947	246.249	157.270	56.439	241.549	0.0017531	0.0014355	0.00040808	532.09	2.8884e-05	4.6111e-05	1048.4	204.43	2.9805e-05	3.8174e-05	451.48	194.62	84.493	40.458	3.9149e-05	112.77	0.036578	0.050916	0.014253	726.56	0.00051452	0.00056512	1179.9	260.51	0.00051039	0.00056388	530.87	225.22	133.94	51.406	0.00053875	122.99	124.579	168.032	-65.702	-92.579	44.883	4.748	-92.778	-89.025	-11.385	95.501	-89.134	-84.751	-85.343	-79.718	-35.141	-80.846	-8191	255	
22431.643	1	1	0	0	0.074988	0.19846	0.31265	0.33685	0.19287	0.048071	0.25743	0.12127	0.20236	0.10578	0.27098	0.20569	0.20286	0.036628	0.21862	0.27558	-2.3	-2.6667	-2.65	-2.7188	-2.9333	-2.7	-2.65	-2.8354	-2.6417	-2.5104	-2.8667	-2.4938	-2.6771	-2.5604	-2.5958	-3.1688	164.882	174.147	-29.866	145.791	-18.572	110.276	231.459	235.506	-47.429	133.706	176.727	-67.716	217.036	99.024	191.250	-78.084	0.0016988	0.0032611	0.00063822	547.71	2.3489e-05	1.4373e-05	1046.5	205.61	2.8271e-05	3.0456e-05	454.13	194.95	85.128	40.052	2.1977e-05	111.14	0.037538	0.052038	0.014555	738.82	0.00052934	0.00058054	1192.2	263.92	0.00052804	0.00057885	534.98	225.93	135.28	51.277	0.00054142	121.79	132.096	-66.821	243.643	-92.395	58.537	72.820	-92.937	-88.002	11.014	46.704	-89.434	-85.185	-84.866	-79.550	15.102	-80.877	-8191	255	
22431.738	1	1	0	0	0.28078	0.12668	0.26312	0.14803	0.14831	0.17562	0.065435	0.12493	0.16019	0.22454	0.38156	0.19504	0.28412	0.19492	0.19126	0.10628	-2.2354	-2.6063	-2.9813	-2.5312	-2.6937	-2.6646	-2.7062	-2.9729	-2.5792	-2.8354	-2.9792	-2.5958	-2.5271	-2.7917	-2.4146	-3.0646	64.099	-104.451	196.079	98.669	115.936	163.031	152.966	-23.821	-59.996	127.427	209.354	125.537	155.088	79.872	167.816	132.012	0.00043709	0.0023761	0.00085817	536.79	1.2909e-05	1.9054e-05	1036.8	204.04	2.8125e-05	1.582e-05	449.5	194.14	83.123	40.578	2.6172e-05	112.02	0.037178	0.05109	0.014254	726.89	0.00051419	0.00056457	1179.7	259.92	0.00051592	0.00056827	528.8	224.59	134.23	51.587	0.00054905	122.83	149.113	-42.170	-92.888	-92.355	58.925	79.729	-92.786	-88.570	-63.165	-92.965	-89.321	-84.744	-84.362	-79.613	114.935	-80.394	-8191	255	
22431.834	1	1	0	0	0.11937	0.16841	0.2877	0.17012	0.35921	0.2821	0.36453	0.18953	0.1098	0.35051	0.32245	0.16828	0.22613	0.0083333	0.11141	0.43828	-2.1125	-2.7292	-2.7583	-2.6417	-2.7146	-2.7375	-2.7083	-2.7188	-2.5687	-2.6417	-3.1021	-2.5875	-2.5687	-2.95	-2.5062	-2.8479	164.691	114.847	-98.681	-48.241	-54.205	-92.068	120.916	232.390	-37.493	36.782	213.005	-67.823	148.478	-88.326	-52.615	-95.052	0.001064	0.00049933	0.00031192	540.61	1.8481e-05	1.5137e-05	1051.6	209.08	9.0271e-06	1.7865e-05	457.18	197.4	85.116	40.935	5.0639e-06	112.4	0.038303	0.053941	0.015239	752.22	0.00055309	0.00061116	1211.8	270.88	0.00055565	0.00061023	544.24	229.93	138.62	52.498	0.00057124	124.15	130.344	-84.853	115.881	-93.525	193.076	132.368	-92.629	-88.991	-77.783	24.075	-89.172	-84.826	-84.892	-79.579	66.840	-80.577	-8191	255	
22431.930	1	1	0	0	0.038078	0.18706	0.18483	0.16936	0.25051	0.21535	0.15177	0.24668	0.1383	0.20191	0.29724	0.54582	0.09137	0.097154	0.03846	0.15645	-2.2417	-2.5292	-2.775	-2.6771	-2.6104	-2.6188	-2.7104	-2.975	-2.6625	-2.5125	-2.9521	-2.4938	-2.6771	-2.9083	-2.5792	-2.9688	-41.456	157.623	-98.225	-92.629	128.030	11.899	213.008	146.431	-2.822	-10.218	198.061	247.032	16.834	140.544	-80.211	-40.045	0.0012884	0.0017202	0.00074479	548.89	3.1377e-05	2.5202e-05	1060.3	212.02	6.8337e-05	3.8074e-05	465.03	201.52	88.512	40.901	4.5528e-05	112.3	0.039078	0.054967	0.015394	757.84	0.00056548	0.00062695	1223.9	276.12	0.00058037	0.00064723	560.2	237.99	147.41	54.192	0.00063235	126.41	118.671	211.950	-63.572	-92.193	30.717	204.098	-92.739	-88.493	-1.051	137.618	-88.920	-84.986	-85.901	-79.896	56.044	-80.832	-8191	255	
22432.049	1	1	0	0	0.13565	0.29193	0.28524	0.094125	0.11557	0.063567	0.052472	0.089251	0.13492	0.022906	0.35084	0.18529	0.019358	0.18658	0.37093	0.27011	-2.1521	-2.45	-2.9396	-2.7729	-2.6063	-2.8187	-2.6792	-2.8	-2.7604	-2.5417	-2.9104	-2.8458	-2.7771	-2.8208	-2.4521	-2.8937	176.208	57.185	-63.503	174.541	114.318	174.570	49.135	138.863	-96.093	-43.174	153.744	205.392	-8.238	58.393	-54.069	171.627	0.00067611	0.0018769	0.00099419	550.83	1.7023e-05	6.5166e-06	1068.7	211.86	4.1352e-05	2.7884e-05	463.87	200.15	89.341	40.816	8.2252e-06	111.57	0.043285	0.060595	0.016905	786.34	0.00060509	0.00066789	1243.5	281.57	0.00059817	0.00066069	560.01	236.7	147.12	53.588	0.0006213	124.69	145.686	47.973	31.549	-93.480	88.514	173.217	-93.068	-88.845	105.714	202.727	-89.356	-85.023	-85.879	-79.788	-72.875	-80.494	-8191	255	
22432.145	1	1	0	0	0.20275	0.33576	0.2483	0.44343	0.13287	0.097205	0.56103	0.37098	0.19281	0.070716	0.10599	0.13375	0.14602	0.32252	0.17057	0.15587	-2.3833	-2.475	-2.7375	-2.6417	-2.6833	-2.9062	-2.6625	-2.7604	-2.9292	-2.6688	-2.9896	-2.7604	-2.5	-2.9021	-2.6083	-2.9167	16.546	-105.412	-74.691	-94.563	34.905	174.299	225.706	169.139	97.742	104.228	214.618	198.955	130.728	148.555	-63.454	155.276	0.0013958	0.0030631	0.00063273	547.22	1.5192e-05	2.2423e-05	1056.3	212.84	1.7871e-05	1.5004e-05	464.58	199.8	91.056	40.596	3.4213e-05	111.02	0.042493	0.059405	0.016593	776.57	0.00059503	0.00065805	1234.1	280.07	0.00059243	0.00066094	561.13	236.96	149.51	53.868	0.00063341	125.33	107.070	15.531	69.843	-92.792	31.798	11.324	-93.237	-89.203	51.345	98.963	-89.161	-85.177	-86.313	-79.739	33.765	-80.711	-8191	255	
22432.240	1	1	0	0	0.1833	0.19621	0.16242	0.37093	0.18819	0.19314	0.13195	0.29131	0.29978	0.21052	0.21998	0.22024	0.15118	0.15235	0.21351	0.065541	-2.3812	-2.4042	-2.6813	-2.5708	-2.6104	-2.9208	-2.7333	-2.7396	-3.0312	-2.7792	-3.0271	-2.8271	-2.5146	-2.9437	-2.5354	-2.7646	162.596	77.975	168.481	203.582	-42.795	-61.129	216.884	244.018	-76.862	244.191	209.786	219.181	207.468	-99.861	18.712	58.053	0.0013305	0.0038424	0.00029965	549.03	1.8486e-05	1.2617e-05	1055.4	213.92	5.0608e-05	1.7901e-05	464.73	200.73	90.477	40.669	5.9689e-06	111.65	0.043461	0.060946	0.016913	783.51	0.00060873	0.00067248	1242.4	282.62	0.00061124	0.00067834	567.13	240.02	151.81	54.405	0.00064798	126.07	110.997	238.536	228.184	-93.065	26.366	13.060	-92.633	-88.975	-93.106	-74.509	-89.240	-84.901	-85.610	-79.594	152.087	-80.558	-8191	255	
22432.338	1	1	0	0	0.19635	0.12725	0.27639	0.25364	0.21024	0.26977	0.27446	0.095914	0.093288	0.25729	0.10927	0.12872	0.23365	0.1844	0.22558	0.10074	-2.4688	-2.625	-2.7542	-2.8875	-2.4833	-2.7021	-2.7792	-2.625	-2.9437	-2.6208	-2.7771	-2.6229	-2.4729	-2.8021	-2.6292	-2.6625	135.104	219.633	39.381	247.026	168.633	5.268	209.959	179.305	-18.929	196.906	-65.298	212.020	111.853	127.314	64.497	-35.971	0.00084081	0.0033777	0.00066829	546.92	1.8087e-05	1.3836e-05	1063.8	213.9	1.741e-05	2.066e-05	464.69	199.82	89.12	40.337	1.1584e-05	111.64	0.044336	0.061824	0.017122	787.72	0.00061455	0.00067802	1248.5	283.02	0.00060879	0.00067263	563.28	237.41	147.69	53.279	0.00061133	124.55	75.024	-13.312	121.874	-93.231	158.685	80.577	-92.893	-89.088	-92.288	-12.961	-89.441	-85.232	-86.408	-79.394	45.970	-80.846	-8191	255	
22432.457	1	1	0	0	0.050172	0.10673	0.25131	0.17804	0.11849	0.12873	0.38841	0.13864	0.096824	0.2423	0.10818	0.044859	0.27902	0.32907	0.22044	0.30257	-2.4062	-2.5854	-2.7354	-2.6583	-2.5979	-2.8812	-2.7021	-2.5958	-2.7729	-2.4458	-2.7854	-3.0479	-2.575	-2.8875	-2.6792	-2.6104	114.957	30.797	8.923	204.037	-39.608	-92.189	207.226	-46.728	164.835	-30.966	50.908	173.766	-49.623	86.786	142.419	169.493	0.0011158	0.002143	0.0008761	546.02	6.0369e-05	2.9762e-05	1054.8	208.42	1.539e-05	5.9354e-06	458.87	197.1	86.812	40.06	2.2435e-05	110.46	0.041686	0.057942	0.016163	767.55	0.00058384	0.00064409	1222.9	276.22	0.00058432	0.00064562	551.01	233.11	143.39	52.479	0.00059068	122.8	110.212	-27.626	-62.830	-92.548	-98.105	80.102	-92.513	-88.476	56.941	23.601	-88.738	-85.288	-85.864	-79.110	39.823	-80.628	-8191	255	
22432.529	1	1	0	0	0.24604	0.074357	0.19232	0.33053	0.086822	0.18898	0.092374	0.13032	0.14031	0.20618	0.17166	0.16632	0.099874	0.080682	0.2862	0.44767	-2.2646	-2.4688	-2.5271	-2.9562	-2.525	-2.9583	-2.7625	-2.4854	-2.8917	-2.7313	-2.7646	-3	-2.4625	-2.8646	-2.7104	-2.5854	61.798	240.760	3.796	21.119	17.307	-68.214	-83.904	106.821	-46.853	97.174	219.420	-98.664	149.676	-20.394	-63.620	135.741	0.00064099	0.0019977	0.00044271	540.67	1.5527e-05	1.956e-05	1046.5	205.22	3.185e-05	3.2196e-05	450.41	193.33	84.621	39.645	1.9592e-05	109.77	0.040481	0.056275	0.015606	751.69	0.00056481	0.00061911	1201.8	268.95	0.00055489	0.00061069	538.69	226.79	137.77	51.265	0.00056884	121.25	149.535	9.485	129.155	-92.508	-10.908	120.876	-92.993	-88.888	7.867	90.665	-89.546	-84.920	-85.530	-79.196	20.551	-80.723	-8191	255	
22432.627	1	1	0	0	0.12222	0.11171	0.11823	0.065205	0.07358	0.054218	0.26755	0.10312	0.083306	0.054889	0.077287	0.26265	0.14021	0.2999	0.076584	0.25416	-2.2583	-2.6	-2.5521	-2.9292	-2.6292	-2.8771	-2.6875	-2.3667	-2.7812	-2.6937	-2.7792	-2.8708	-2.5	-2.7646	-2.8125	-2.6771	186.597	130.656	185.959	145.790	-88.542	158.867	245.630	114.393	228.403	-70.340	-77.107	204.806	187.437	-85.800	184.396	208.973	0.00089765	0.0046933	0.00080729	536.11	3.4537e-05	2.0595e-05	1038.3	202.28	1.5334e-05	2.8944e-05	447.22	192.63	81.833	39.462	2.0958e-05	109.84	0.039247	0.05467	0.015249	742.86	0.00055136	0.00060122	1190.2	263.35	0.00054009	0.00058782	530.25	223.34	133.78	50.658	0.00054907	121.16	125.739	-21.088	-11.260	-92.544	-6.140	44.033	-92.794	-89.090	-52.335	53.923	-88.902	-84.688	-85.125	-79.988	-7.944	-80.796	-8191	255	
22432.723	1	1	0	0	0.11497	0.13701	0.20982	0.12077	0.18771	0.21451	0.20755	0.042061	0.16159	0.20906	0.083214	0.19241	0.182	0.3432	0.18841	0.18816	-2.2292	-2.5687	-2.4896	-2.7271	-2.4542	-2.5438	-2.9125	-2.5042	-2.8542	-2.7833	-2.6792	-2.9	-2.6667	-2.7938	-2.7583	-2.5583	-102.846	25.704	-40.562	-86.307	188.689	-35.773	200.798	157.754	100.643	0.084	244.238	225.124	88.060	-38.563	-9.974	151.494	0.0009114	0.0023489	0.00059713	532.8	1.7586e-05	1.4672e-05	1038.1	201.27	3.4303e-05	3.027e-05	442.22	189.75	81.422	38.859	2.0032e-05	108.89	0.037667	0.052819	0.014815	734.31	0.00053533	0.00058705	1181.1	260.25	0.00052441	0.00057412	524.11	220.91	131.05	49.777	0.00053199	119.78	110.969	48.549	-7.866	-92.942	176.752	101.329	-93.118	-88.732	247.193	122.538	-89.037	-84.569	-85.013	-79.488	78.961	-80.800	-8191	255	
22432.842	1	1	0	0	0.079474	0.041154	0.064321	0.10782	0.092411	0.099878	0.16006	0.11168	0.10572	0.025542	0.11877	0.089686	0.14511	0.24772	0.046271	0.090014	-2.2292	-2.6271	-2.4125	-2.8229	-2.6	-2.4604	-2.8542	-2.4896	-2.5792	-2.7083	-2.625	-2.7542	-2.5542	-2.5062	-2.7333	-2.6042	162.645	-61.123	199.029	60.834	-92.302	-17.599	-52.611	67.040	156.577	0.083	172.244	6.291	53.472	186.769	203.418	112.573	0.00073641	0.001906	0.0010885	529.58	2.5009e-05	2.5553e-05	1041.3	201.05	1.1391e-05	2.6074e-05	446.71	191.72	82.898	39.37	3.2994e-05	108.49	0.03686	0.051249	0.014403	727.24	0.00052595	0.00057925	1183.3	261.17	0.00053372	0.00058894	530.59	223.64	134.93	50.604	0.00055751	120.39	107.397	163.979	9.986	-92.956	-68.206	41.215	-93.094	-88.330	98.708	-105.171	-89.254	-85.118	-86.142	-79.543	197.014	-80.647	-8191	255	
22432.938	1	1	0	0	0.12681	0.16496	0.2852	0.21364	0.14437	0.093521	0.19139	0.24711	0.16816	0.17048	0.083862	0.089411	0.098449	0.4028	0.19924	0.12003	-2.1813	-2.7021	-2.3812	-2.7833	-2.8	-2.5542	-2.9083	-2.3625	-2.6521	-2.8438	-2.4292	-2.7604	-2.6958	-2.5979	-2.7167	-2.6854	219.062	223.746	-4.856	241.631	-64.844	-58.972	94.348	210.239	-15.990	-6.499	238.450	-82.358	60.598	226.898	220.371	210.672	0.0016522	0.0030596	0.001315	537.44	1.4622e-05	2.7475e-05	1036.7	204.66	3.2077e-05	1.0713e-05	444.56	194.07	84.857	39.767	1.9373e-05	111.06	0.038398	0.053745	0.015144	742.47	0.00054557	0.00060277	1192.7	264.95	0.00054487	0.00060028	535.43	226.91	137.84	51.535	0.00057463	122.09	100.677	-45.682	-35.103	-92.891	15.602	202.057	-92.646	-88.487	51.018	195.273	-89.056	-84.556	-85.386	-79.652	232.845	-80.865	-8191	255	
22433.033	1	1	0	0	0.040295	0.21216	0.11159	0.27117	0.16474	0.075788	0.10081	0.12521	0.18679	0.06837	0.12031	0.10231	0.052728	0.13652	0.12471	0.40134	-2.2958	-2.6146	-2.4854	-2.6229	-2.7479	-2.6333	-2.8333	-2.5312	-2.4958	-2.7938	-2.4854	-2.7792	-2.6813	-2.6104	-2.7417	-2.7146	20.260	-4.473	-87.008	-92.397	48.504	124.869	180.745	-66.445	-1.950	26.795	13.749	233.976	-100.466	-19.304	70.038	161.260	0.0013423	0.0016743	0.00033874	541.17	3.9945e-07	2.4517e-05	1043.5	206.89	2.0649e-05	3.887e-05	454.52	195.09	86.213	40.036	2.3152e-05	110.58	0.039476	0.05513	0.015509	750.05	0.00055964	0.00062178	1210.7	271.02	0.00057264	0.00063367	548.35	231.4	141.51	52.134	0.00058649	122.8	136.719	86.584	-84.552	-92.519	-14.780	193.995	-93.059	-88.931	160.511	32.991	-88.787	-85.205	-85.496	-79.665	59.338	-80.690	-8191	255	
22433.129	1	1	0	0	0.06509	0.076735	0.030394	0.22328	0.18663	0.10159	0.25477	0.1799	0.064102	0.034975	0.2243	0.33039	0.2791	0.081126	0.14125	0.30033	-2.2896	-2.7583	-2.3667	-2.8438	-2.6875	-2.4292	-2.8875	-2.6292	-2.5875	-2.8354	-2.6	-2.8375	-2.7438	-2.3542	-2.8375	-2.7625	-36.576	245.960	-93.386	195.266	-56.101	110.238	143.168	-93.747	-34.434	48.822	-88.594	144.016	-62.130	122.472	153.498	162.000	0.00092775	0.00052849	9.4999e-05	533.4	3.7323e-05	2.6838e-05	1042.4	201.02	2.2171e-05	2.3354e-05	447.54	193.08	82.898	39.615	3.3002e-05	109.82	0.039401	0.054833	0.015248	736.62	0.00054074	0.0005953	1189.9	261.31	0.00053247	0.00058733	530.18	224.06	133.75	50.806	0.00054967	121.35	70.495	-89.492	232.176	-92.754	165.345	84.885	-92.463	-88.453	54.032	-83.655	-88.877	-84.833	-85.502	-79.389	62.939	-80.551	-8191	255	
22433.227	1	1	0	0	0.13093	0.32602	0.13381	0.046882	0.22823	0.17828	0.04311	0.21966	0.12441	0.063381	0.1231	0.28079	0.20546	0.23839	0.19073	0.38594	-2.0375	-2.8125	-2.5146	-2.7292	-2.7313	-2.4792	-2.6542	-2.6437	-2.4167	-2.7687	-2.8542	-2.4646	-2.8021	-2.4208	-2.6104	-2.7438	70.526	170.754	-44.627	167.221	20.190	-25.495	165.767	237.123	84.382	-98.165	203.906	-57.102	182.324	221.561	237.466	215.808	0.00093715	0.0030515	0.00056397	527.54	1.8038e-05	1.7697e-05	1028.2	198.27	4.5681e-05	5.643e-05	442.06	191.02	80.393	39.101	1.7174e-05	108.98	0.037558	0.052673	0.014778	727.65	0.00053091	0.00058492	1175.4	256.86	0.00051654	0.00056607	518.95	218.94	128.18	49.276	0.00050649	118.07	117.775	-93.295	3.380	-92.552	55.613	28.349	-92.718	-88.989	201.115	30.482	-88.830	-84.629	-84.812	-79.017	127.908	-80.676	-8191	255	
22433.322	1	1	0	0	0.17013	0.17121	0.1128	0.030505	0.094889	0.16321	0.36398	0.037154	0.36314	0.29704	0.19747	0.013001	0.29799	0.14654	0.054163	0.28599	-2.0833	-2.6979	-2.6417	-2.7104	-2.7396	-2.4125	-2.8396	-2.6208	-2.3771	-2.9208	-2.4396	-2.6917	-2.9604	-2.6146	-2.6458	-2.9146	-87.555	161.045	14.984	137.450	163.702	1.086	215.553	-63.300	232.316	125.467	243.953	-49.456	203.506	-103.468	29.709	101.795	0.0013441	0.0024138	0.00084266	513.51	9.1699e-06	1.7359e-05	1011.6	192.42	2.3529e-05	1.5791e-05	431.28	187.44	77.823	38.937	2.2637e-05	110.08	0.034173	0.047429	0.013062	687.19	0.00047268	0.00051855	1132.7	243.15	0.00046842	0.00051345	501.45	213.33	122.69	48.329	0.00047471	117.3	111.395	-63.942	0.861	-92.935	16.932	89.199	-93.031	-88.415	19.453	65.071	-88.538	-84.222	-84.910	-79.224	-70.558	-80.804	-8191	255	
22433.418	1	1	0	0	0.14903	0.18978	0.16493	0.037481	0.17541	0.32494	0.26671	0.098131	0.20547	0.19617	0.20989	0.15338	0.154	0.30299	0.1764	0.1761	-1.8917	-2.7417	-2.5563	-2.6042	-2.925	-2.25	-2.7313	-2.75	-2.3771	-2.7917	-2.65	-2.4354	-2.6042	-2.5938	-2.5438	-2.8	-76.823	99.714	-55.038	70.377	-1.537	6.995	145.587	242.525	36.712	90.745	-53.081	156.858	249.354	-102.693	190.710	129.421	0.0014444	0.0026622	0.00023331	511.66	3.0416e-05	1.0374e-05	1003.9	190.62	2.0147e-05	2.0685e-05	431.32	186.42	75.728	38.769	1.8425e-05	109.2	0.032574	0.04508	0.012439	670.53	0.0004463	0.00049585	1114.3	237.81	0.00044755	0.00049433	493.06	210.72	118.45	47.348	0.00044711	116.37	122.715	-20.165	-48.505	-92.320	50.068	99.209	-92.646	-88.234	234.055	-54.257	-88.757	-84.702	-84.265	-79.193	-14.375	-80.347	-8191	255	
22433.539	1	1	0	0	0.022888	0.021127	0.25935	0.20066	0.28256	0.1291	0.085866	0.10916	0.19697	0.21693	0.10782	0.15564	0.20928	0.27844	0.17197	0.25709	-1.8417	-2.7188	-2.6729	-2.4625	-2.7542	-2.5021	-2.6833	-2.8021	-2.3625	-2.8208	-2.7854	-2.55	-2.7375	-2.6583	-2.4917	-2.8563	112.999	92.833	220.271	97.918	114.555	-56.896	184.619	85.841	104.125	205.920	80.996	195.708	193.251	-102.949	190.006	-73.902	0.0014853	0.0013874	5.9973e-05	503.71	1.2605e-05	2.571e-05	1003	189.43	2.9791e-05	2.4251e-05	436.3	188.55	78.604	39.917	1.5978e-05	111.31	0.030495	0.042215	0.011804	658.9	0.00043284	0.00048224	1107.9	237.09	0.00044796	0.00050032	500.52	214	122.66	48.977	0.00047776	119.58	136.482	84.503	96.947	-92.255	230.360	60.467	-92.545	-88.219	48.063	5.631	-88.497	-84.385	-85.081	-79.038	-20.146	-80.592	-8191	255	
22433.635	1	1	0	0	0.20526	0.035674	0.44614	0.083495	0.20706	0.18334	0.24817	0.054959	0.073454	0.18915	0.33182	0.080646	0.17694	0.44266	0.13253	0.10344	-2.0792	-2.6792	-2.6646	-2.4417	-2.5396	-2.4458	-2.5229	-2.9083	-2.5354	-2.6292	-2.6521	-2.6375	-2.6146	-2.675	-2.4604	-2.9729	213.642	122.535	54.515	34.953	17.005	-6.169	171.129	191.941	209.942	103.720	-104.637	-94.287	188.903	186.978	52.915	235.714	0.0016435	0.00021857	0.00025487	511.23	3.3395e-05	2.8598e-05	1008	188.67	2.1945e-05	1.1256e-05	424.22	185.46	76.476	38.601	2.1463e-05	108.1	0.033158	0.04554	0.012634	679.15	0.00045103	0.00048957	1114	234.9	0.00043097	0.00046825	485.18	207.39	116.06	46.84	0.00043877	115.37	111.912	132.729	16.116	-92.095	239.042	-37.839	-92.645	-88.067	71.576	65.299	-88.826	-84.222	-84.542	-79.015	113.218	-80.655	-8191	255	
22433.730	1	1	0	0	0.22732	0.20055	0.10259	0.43363	0.045042	0.29844	0.19669	0.20268	0.079803	0.04455	0.070664	0.32345	0.3066	0.13696	0.076167	0.22654	-2.0979	-2.5875	-2.6542	-2.4604	-2.8708	-2.6396	-2.7167	-2.7812	-2.4688	-2.5563	-2.7729	-2.3979	-2.8729	-2.7708	-2.4125	-3.0229	156.495	52.384	-50.476	180.141	155.136	-38.186	221.756	227.883	201.642	60.448	251.369	232.378	231.968	218.389	49.807	184.845	0.0010216	0.0013631	0.00083861	509.79	9.675e-06	2.3992e-05	1004.9	189.38	2.6378e-05	1.2467e-05	433.67	185.58	76.961	38.742	1.3287e-05	109.22	0.030579	0.042725	0.011982	664.52	0.00043802	0.00048055	1109.4	236.63	0.0004406	0.00048603	495.03	210.96	121.15	47.792	0.00047514	117.22	131.740	-70.217	77.298	-92.541	-87.837	103.364	-92.704	-88.165	91.902	191.482	-88.996	-84.754	-85.510	-79.214	95.681	-80.536	-8191	255	
22433.826	1	1	0	0	0.13523	0.024134	0.031441	0.10818	0.15069	0.039004	0.2415	0.12271	0.039288	0.15029	0.15589	0.10535	0.12483	0.16192	0.060514	0.24256	-2.0604	-2.4646	-2.8958	-2.7229	-2.6396	-2.6042	-2.6083	-2.8771	-2.5417	-2.6063	-2.8521	-2.4292	-2.725	-2.7333	-2.4313	-2.8875	-36.234	140.204	-56.870	175.889	-67.039	193.719	198.272	-80.079	-59.153	237.872	248.032	94.099	192.477	201.573	89.444	225.999	0.0015214	0.0029718	0.00093681	519.12	4.0033e-05	1.4996e-05	1012.8	193.27	2.5324e-05	1.0347e-05	439.37	188.69	80.104	39.166	1.3618e-05	109.92	0.033018	0.045704	0.012858	687.7	0.00046525	0.00051158	1131.3	244.17	0.00046686	0.00051417	506.53	215.37	125.4	48.897	0.00050418	119.24	108.058	-43.140	53.333	-92.720	-28.113	54.529	-92.625	-88.264	131.418	-95.087	-89.000	-84.586	-84.405	-79.657	-56.478	-80.578	-8191	255	
22433.924	1	1	0	0	0.045731	0.21866	0.043639	0.16233	0.10075	0.22139	0.18876	0.13622	0.22737	0.17063	0.17932	0.19653	0.045605	0.11306	0.099896	0.26225	-2.0312	-2.4313	-2.6771	-2.4479	-2.5833	-2.7188	-2.4042	-2.8771	-2.7292	-2.475	-2.8146	-2.5062	-2.6375	-2.7979	-2.4437	-2.9625	199.710	245.600	237.674	175.153	-38.234	-23.038	103.584	64.603	234.658	239.188	-103.475	167.105	231.259	68.080	-74.777	177.852	0.0012221	0.00084829	0.00065115	528.84	1.7541e-05	1.8888e-05	1038.5	200.39	3.9645e-05	2.0523e-05	448.58	191.79	81.478	39.303	1.3436e-05	110.04	0.034858	0.049018	0.013926	717.23	0.00050598	0.00056104	1174.5	256.75	0.00051017	0.0005644	525	221.42	130.59	49.962	0.00053435	120.59	117.833	59.966	145.734	-92.442	-95.553	104.308	-93.163	-88.632	-31.723	181.681	-89.008	-84.672	-84.629	-79.058	-27.170	-80.589	-8191	255	
22434.018	1	1	0	0	0.25355	0.16929	0.14045	0.27598	0.11008	0.23884	0.26633	0.074274	0.025422	0.26344	0.23635	0.29378	0.23492	0.1727	0.31762	0.17464	-2.0229	-2.4646	-2.7458	-2.5896	-2.5042	-2.6417	-2.5083	-2.6833	-2.5271	-2.4417	-2.6813	-2.5938	-2.475	-2.8333	-2.4813	-2.7917	193.093	-43.974	-88.522	192.628	234.251	121.383	213.858	236.511	116.607	-100.191	196.199	205.056	198.431	-81.706	85.042	200.894	0.0008069	0.0014119	0.00059846	530.81	8.611e-07	2.4797e-05	1035	198.66	1.8622e-05	3.498e-05	440.94	190.05	81.073	39.517	1.4955e-05	110.43	0.036693	0.050728	0.014251	721.23	0.00051147	0.00056531	1170.4	254.53	0.00050848	0.00055989	519.81	219.85	130.12	50.277	0.00053746	120.74	155.957	73.077	76.586	-92.791	200.737	55.155	-92.896	-88.698	108.532	70.952	-89.345	-84.431	-84.111	-79.458	92.860	-80.505	-8191	255	
22434.113	1	1	0	0	0.19813	0.18272	0.20561	0.23654	0.12797	0.010622	0.22291	0.20078	0.18566	0.099393	0.10926	0.017753	0.18422	0.13445	0.067696	0.20968	-2.2167	-2.4104	-2.8104	-2.4813	-2.6271	-2.975	-2.6083	-2.6771	-2.8104	-2.5125	-2.8917	-2.7562	-2.425	-2.7875	-2.4646	-2.6417	193.040	168.034	-31.698	-72.059	87.371	109.827	171.483	234.621	51.786	226.571	-72.444	178.155	85.686	132.032	33.999	-91.721	0.00014951	0.00042941	0.00092419	533.34	1.3449e-05	2.3928e-05	1040.2	202.22	3.3641e-05	9.857e-06	449.44	193.02	82.934	40.285	1.2827e-05	111.51	0.037112	0.051841	0.014693	731.42	0.00053642	0.00059461	1189.5	263.11	0.00054363	0.00060624	538.05	226.89	136.89	51.992	0.00057808	123.2	134.122	215.286	-84.584	-92.283	34.492	17.373	-93.084	-88.898	66.363	19.938	-89.286	-85.046	-85.365	-79.090	168.162	-80.460	-8191	255	
22434.234	1	1	0	0	0.18301	0.1861	0.20552	0.12712	0.2691	0.073904	0.019901	0.19722	0.27678	0.17525	0.16421	0.094913	0.34331	0.091297	0.16246	0.1419	-2.1833	-2.3208	-2.7042	-2.5292	-2.3958	-2.8083	-2.5125	-2.4917	-2.6458	-2.2938	-2.8021	-2.5042	-2.4729	-2.8542	-2.3354	-2.5312	106.704	-62.135	-96.739	123.890	-51.188	85.492	162.599	-91.777	26.539	13.023	78.831	-46.325	238.508	94.798	168.794	252.123	0.0015426	0.0021126	0.0010323	539.17	1.4974e-05	1.4275e-05	1044.9	203.91	3.8261e-05	4.8137e-05	454.86	194.88	84.239	40.669	1.0317e-05	111.95	0.039624	0.055452	0.015414	746.72	0.00055455	0.0006143	1205.1	267.84	0.00056254	0.00062265	546.4	230.17	140.57	52.983	0.00060186	125.21	133.586	-42.345	-18.843	-93.094	25.376	209.840	-93.541	-89.073	-44.626	69.680	-89.017	-84.816	-85.081	-78.974	156.853	-80.708	-8191	255	
22434.330	1	1	0	0	0.20206	0.24495	0.072343	0.26478	0.23291	0.24816	0.13966	0.10171	0.18978	0.2169	0.30977	0.24633	0.1236	0.13562	0.13485	0.082443	-2.2604	-2.4771	-2.6646	-2.6063	-2.4437	-2.8604	-2.6813	-2.5438	-2.6979	-2.6271	-2.7042	-2.6979	-2.4729	-2.7812	-2.4396	-2.5104	29.532	59.396	-50.650	203.494	-71.872	63.344	142.385	184.785	167.883	-27.236	224.463	226.272	22.864	205.845	-77.673	136.764	0.0012761	0.0027872	0.00059938	543.82	1.9224e-05	3.9843e-05	1052	206.88	8.4882e-06	4.1148e-05	453.81	193.9	83.108	39.834	2.4713e-05	111.65	0.041508	0.05862	0.016253	767.74	0.00058815	0.00064772	1222.4	272.96	0.00057575	0.00063183	546.12	229.3	138.32	52.038	0.00056714	123.09	121.103	13.606	189.172	-92.872	8.520	27.027	-93.038	-88.442	-65.380	72.329	-89.100	-84.805	-85.304	-79.420	32.710	-80.741	-8191	255	
22434.402	1	1	0	0	0.094042	0.10352	0.1035	0.055603	0.084245	0.14587	0.1558	0.045166	0.20193	0.16978	0.14349	0.05881	0.27712	0.19258	0.11849	0.13147	-2.2667	-2.3146	-2.4479	-2.6792	-2.2354	-2.7958	-2.7812	-2.5708	-2.7812	-2.6375	-2.7896	-2.6646	-2.4271	-2.8146	-2.5187	-2.5812	65.474	98.338	-39.049	126.386	-28.578	-44.911	201.095	-37.947	84.418	-71.768	145.632	134.026	-56.902	-37.267	92.245	210.322	0.0011311	0.00083083	0.00066035	530.63	1.6609e-05	8.4505e-06	1030.9	198.89	9.5204e-06	6.0986e-06	444.56	190.15	81.522	39.449	9.7347e-06	110.69	0.037964	0.052546	0.014553	723.05	0.00052227	0.00057387	1170.2	256.21	0.00052311	0.00057669	524.62	221.83	132.32	50.636	0.00054955	120.99	127.138	201.562	-25.563	-92.198	44.501	124.005	-92.828	-88.657	47.854	72.785	-89.118	-84.565	-84.859	-79.399	7.414	-80.301	-8191	255	
22434.498	1	1	0	0	0.096836	0.18476	0.20812	0.18678	0.12728	0.16251	0.12302	0.19004	0.11554	0.28112	0.1798	0.39009	0.14332	0.1739	0.24188	0.30926	-2.3688	-2.4896	-2.6229	-2.7771	-2.4229	-2.7333	-2.7375	-2.3771	-2.7812	-2.5438	-2.6562	-2.8563	-2.3354	-2.7417	-2.6583	-2.6021	18.590	223.130	-10.697	23.079	113.863	192.858	165.220	234.534	-46.073	181.283	133.394	213.182	245.903	198.786	69.635	223.721	0.00040998	0.001849	0.00018707	529.24	3.9389e-05	3.9951e-05	1024.8	197.77	1.3547e-05	2.0261e-05	440.42	190.29	80.035	39.398	8.5382e-06	109.88	0.037947	0.052783	0.01456	726.53	0.00052728	0.00057793	1170.4	255.57	0.00051698	0.00056915	519.97	219.92	130.56	50.202	0.00054127	120.8	138.579	34.344	212.884	-92.976	-83.863	121.176	-92.879	-88.773	6.430	232.284	-88.937	-84.619	-84.942	-79.360	244.444	-80.383	-8191	255	
22434.619	1	1	0	0	0.077564	0.15234	0.16779	0.15997	0.1717	0.26954	0.39577	0.094076	0.09051	0.023149	0.11788	0.30508	0.24455	0.18621	0.24721	0.15216	-2.3396	-2.3812	-2.4375	-2.6917	-2.2333	-2.6396	-2.7833	-2.3583	-2.6333	-2.5604	-2.6792	-2.7021	-2.3646	-2.7562	-2.7042	-2.5271	168.523	152.031	155.747	193.127	246.479	12.626	175.726	48.338	60.725	98.351	139.930	154.171	109.726	-74.204	127.852	101.330	0.0014533	0.00045208	0.00040751	530.46	3.2273e-05	3.8946e-05	1039.4	204.89	2.1242e-06	2.9607e-05	455.12	192.57	83.403	39.96	1.0595e-05	111.77	0.038061	0.052927	0.014892	738.98	0.00055069	0.00060653	1197.4	266.67	0.00055674	0.00061383	540.68	227.55	137.37	51.807	0.00057071	123	131.519	18.838	236.736	-92.478	-54.235	0.787	-93.165	-88.712	233.327	61.433	-89.546	-84.661	-85.123	-78.934	82.652	-80.610	-8191	255	
22434.715	1	1	0	0	0.14869	0.10399	0.12854	0.15456	0.084223	0.23577	0.21372	0.49298	0.18671	0.1204	0.35211	0.16667	0.031786	0.1059	0.30922	0.11918	-2.25	-2.5458	-2.4958	-2.725	-2.425	-2.3979	-2.7521	-2.2083	-2.6646	-2.6458	-2.4396	-2.7167	-2.5167	-2.4167	-2.5438	-2.4625	150.459	-43.400	211.919	76.670	-43.766	123.164	188.097	134.364	13.288	-25.199	148.479	183.382	-83.117	201.598	-44.316	-27.758	0.0016052	0.0035725	0.0010821	529.43	3.6116e-05	2.4521e-05	1018.5	195.98	8.3707e-06	1.0042e-05	433.97	186.95	76.79	38.407	2.8349e-05	107.99	0.038644	0.052962	0.014565	722.52	0.00051285	0.00055364	1151.2	248.36	0.00047888	0.00052313	503.1	213.28	122.6	48.015	0.00048838	117.43	114.222	120.122	226.297	-92.920	72.663	-52.591	-92.901	-88.085	-23.981	133.607	-88.774	-84.110	-85.057	-79.390	26.016	-80.790	-8191	255	
22434.811	1	1	0	0	0.17742	0.20918	0.28342	0.16556	0.2304	0.39075	0.043654	0.099417	0.14893	0.23038	0.15233	0.19672	0.24936	0.15711	0.3057	0.10983	-2.3521	-2.5812	-2.3292	-2.8833	-2.5146	-2.5396	-2.7042	-2.4646	-2.8292	-2.5771	-2.6333	-2.8771	-2.5604	-2.4583	-2.5604	-2.6125	172.416	-18.043	230.532	-48.208	242.161	43.414	146.878	-28.130	69.844	120.978	148.979	23.004	158.704	142.774	49.076	-77.283	0.00087734	0.0028288	0.00070737	521.07	1.1975e-05	1.4872e-05	1020.5	197.39	4.2028e-05	1.2071e-05	437.61	187.65	79.507	38.735	2.6953e-05	108.92	0.033615	0.046637	0.013109	693.08	0.00047835	0.00052641	1142.7	249.25	0.00048634	0.00053727	513.22	216.76	128.14	49.118	0.00051746	118.31	121.751	73.385	-26.870	-92.644	-87.819	20.214	-92.702	-88.673	116.875	169.040	-89.074	-84.947	-85.850	-79.368	5.949	-80.631	-8191	255	
22434.930	1	1	0	0	0.21125	0.1857	0.17291	0.38898	0.066613	0.082717	0.16268	0.16772	0.18031	0.13794	0.0737	0.26389	0.10611	0.054313	0.098698	0.29652	-2.1792	-2.4542	-2.3896	-2.7854	-2.5625	-2.625	-2.9917	-2.4021	-2.4958	-2.7604	-2.4042	-2.7354	-2.4188	-2.4479	-2.8104	-2.5917	-33.137	212.738	161.761	137.364	-81.115	142.690	-93.238	200.481	75.432	33.122	-93.361	167.218	238.917	96.912	67.274	116.103	0.0014777	0.0051601	0.00043898	520.81	1.7422e-05	2.4635e-06	1025.3	200.13	2.5865e-05	1.6316e-05	443.07	188.89	80.299	38.879	1.9194e-05	108.37	0.035542	0.049508	0.013752	708.32	0.00050188	0.00055379	1159.7	254.33	0.00050734	0.00055869	519.54	218.34	129.33	49.247	0.00052567	118.16	99.958	-50.050	102.963	-91.979	81.457	-32.767	-93.097	-89.118	65.446	157.667	-88.956	-84.507	-85.014	-79.787	92.705	-80.415	-8191	255	
22435.004	1	1	0	0	0.12746	0.22302	0.095326	0.25763	0.36483	0.095246	0.30472	0.030739	0.095676	0.18074	0.26335	0.17555	0.11977	0.27392	0.15889	0.12807	-2.2604	-2.6792	-2.4958	-2.8312	-2.5854	-2.4479	-2.8354	-2.4917	-2.6021	-2.5833	-2.275	-2.6375	-2.5208	-2.5417	-2.6833	-2.6875	57.903	15.479	-44.286	83.663	62.058	-35.755	208.773	47.316	-74.515	-28.884	229.359	133.011	223.466	212.509	73.799	217.995	0.00095176	0.0009912	0.0010794	524.92	1.4138e-05	1.4919e-05	1021.1	198.45	8.6007e-06	1.1798e-05	441.25	189.73	80.012	38.935	1.7071e-05	108.71	0.035505	0.049497	0.013856	709.03	0.00049776	0.00054688	1154.3	252.02	0.00050056	0.0005578	519.21	218.86	130.27	49.911	0.000544	119.77	138.549	34.583	-17.341	-93.085	55.418	8.530	-93.294	-88.565	81.654	96.999	-88.779	-84.431	-85.099	-79.720	-2.539	-80.581	-8191	255	
22435.100	1	1	0	0	0.049203	0.15644	0.1858	0.17975	0.082904	0.060507	0.12764	0.050757	0.23134	0.070739	0.21783	0.19662	0.14169	0.17051	0.077467	0.15779	-2.1437	-2.7042	-2.4208	-2.625	-2.6854	-2.5	-2.7562	-2.4562	-2.4271	-2.8208	-2.6146	-2.5917	-2.7417	-2.5646	-2.7104	-2.5563	41.241	64.105	183.259	20.888	245.958	75.264	206.902	251.266	-19.696	122.683	202.929	97.325	244.390	-70.536	35.544	223.746	0.0010886	0.002698	0.00048509	531.86	3.2522e-05	6.2402e-05	1038.5	200.39	1.1255e-05	5.55e-05	448.06	190.85	80.866	39.062	1.9705e-05	109.14	0.037369	0.052372	0.014724	730.94	0.00053356	0.00058694	1183.2	260.15	0.00052561	0.00058333	527.19	221.54	131.46	50.018	0.00053125	119.61	108.481	-105.585	101.815	-92.961	21.171	180.606	-93.182	-88.560	129.015	-9.344	-89.091	-84.427	-85.146	-79.809	65.688	-80.766	-8191	255	
22435.219	1	1	0	0	0.23354	0.21764	0.23925	0.31183	0.17439	0.29731	0.12653	0.3221	0.064851	0.056473	0.084462	0.1513	0.089111	0.10347	0.26809	0.34045	-1.9833	-2.6667	-2.4104	-2.7042	-2.5729	-2.3354	-2.7792	-2.4958	-2.3833	-2.6417	-2.6292	-2.7562	-2.7604	-2.4229	-2.4396	-2.7979	90.930	234.357	213.076	94.134	-64.796	110.732	130.293	69.498	143.841	73.975	-92.720	9.453	196.747	-43.321	38.632	249.765	0.0014404	0.0015225	0.0003623	522.36	2.8126e-05	2.9332e-05	1019.5	197.38	3.4298e-06	1.9281e-05	439.14	187.59	79.121	38.354	1.5926e-05	108.24	0.036337	0.050704	0.014145	716.5	0.00051316	0.00056683	1162.5	253.95	0.00051138	0.00056467	519.35	217.88	129.79	49.627	0.00053699	118.76	144.817	140.777	244.913	-92.585	24.650	73.084	-92.620	-88.773	59.037	92.021	-89.219	-84.817	-84.677	-78.909	2.235	-80.789	-8191	255	
22435.314	1	1	0	0	0.15517	0.060345	0.1079	0.10343	0.023425	0.24404	0.08083	0.12407	0.20586	0.064942	0.064528	0.20949	0.20883	0.47903	0.3218	0.12097	-1.9188	-2.6167	-2.3646	-2.5083	-2.8	-2.3396	-2.6417	-2.6146	-2.3937	-2.7542	-2.4729	-2.5146	-2.5979	-2.5521	-2.5417	-2.6813	56.126	-29.681	-46.247	235.745	176.612	-50.820	-31.748	122.871	181.377	207.139	-71.876	245.009	196.411	238.728	-45.439	12.879	0.00091545	0.0019832	0.00052184	524.99	4.3785e-06	2.1069e-05	1031.1	199.64	1.6099e-05	2.4618e-05	438.07	186.97	80.094	38.784	1.4364e-05	108.1	0.037291	0.052583	0.014585	725.27	0.0005297	0.00058357	1172.8	257.38	0.00052289	0.00057541	520.38	218.13	130.94	49.737	0.00054508	119.05	124.423	145.329	-43.645	-92.509	-6.560	207.624	-92.791	-88.781	-76.779	14.432	-88.747	-84.751	-85.193	-78.917	101.753	-80.792	-8191	255	
22435.410	1	1	0	0	0.35244	0.16271	0.078126	0.20321	0.22971	0.09254	0.29645	0.10259	0.25258	0.22466	0.18196	0.16121	0.15489	0.31389	0.18758	0.32988	-1.8687	-2.575	-2.2479	-2.6208	-2.6792	-2.2583	-2.6667	-2.6542	-2.4146	-2.5375	-2.5938	-2.5458	-2.7646	-2.3667	-2.6208	-2.9125	79.115	192.033	247.275	105.380	-102.212	98.238	148.318	172.353	-62.058	22.496	195.101	-47.911	-22.569	-62.944	-82.117	183.898	0.00080309	0.0012964	0.00024091	525.21	4.085e-06	3.2279e-05	1028.5	198.62	1.9576e-05	3.2526e-05	443.3	189.71	81.154	38.719	1.8596e-05	108.48	0.037515	0.0525	0.014639	727.15	0.00053569	0.00058699	1174.6	259.12	0.00053284	0.0005918	525	221.72	132.87	50.017	0.0005438	119.45	138.439	225.923	-87.697	-93.139	208.526	72.182	-92.885	-88.491	-2.137	8.079	-88.987	-84.668	-85.067	-79.206	56.912	-80.725	-8191	255	
22435.531	1	1	0	0	0.26641	0.21422	0.21252	0.16782	0.22973	0.21564	0.28575	0.21471	0.19346	0.3791	0.12197	0.32942	0.077114	0.1564	0.09654	0.27676	-1.7854	-2.5479	-2.6708	-2.5292	-2.9125	-2.5521	-2.6667	-2.6854	-2.5229	-2.7417	-2.6583	-2.4396	-2.5354	-2.4521	-2.575	-2.7854	137.775	54.624	-55.651	-41.078	146.456	11.527	171.032	85.757	40.536	5.828	-100.286	198.937	218.524	157.249	148.013	114.952	0.0005666	0.0015558	0.00061987	518.88	1.8298e-05	4.1135e-05	1020.3	197.59	2.1998e-05	3.6091e-05	438.21	187.25	79.975	38.548	1.2837e-05	108.53	0.037095	0.051409	0.014136	712.97	0.00050814	0.00056003	1155.3	251.96	0.00050162	0.00055242	513.72	216.94	127.83	48.936	0.00051581	118.38	82.691	137.532	172.634	-92.402	24.921	-30.539	-92.878	-88.219	-86.902	167.959	-88.999	-84.779	-84.890	-79.252	187.793	-80.917	-8191	255	
22435.629	1	1	0	0	0.23186	0.088269	0.038642	0.10657	0.095776	0.15033	0.11312	0.38454	0.11391	0.036121	0.28742	0.35509	0.25722	0.047013	0.064327	0.16476	-2.1104	-2.6542	-2.6333	-2.4333	-2.6562	-2.5229	-2.5687	-2.7146	-2.2917	-2.8083	-2.4792	-2.4167	-2.9896	-2.7354	-2.4062	-2.9	-54.623	139.975	-37.095	223.268	179.381	106.670	177.602	-79.802	9.116	234.391	236.854	198.900	16.468	-82.674	50.632	235.995	0.0015025	0.0030672	0.00071731	524.49	2.2485e-05	3.3456e-05	1024.6	197.96	3.3356e-05	2.9429e-05	440.95	187.57	80.988	38.822	2.7163e-05	107.9	0.035881	0.049825	0.013916	712.85	0.00050907	0.00056203	1161.2	254.34	0.00051353	0.0005648	518.28	218.46	130.53	49.582	0.00053473	118.9	167.689	-39.324	135.225	-92.487	98.492	38.158	-92.637	-88.554	-49.672	149.152	-89.239	-84.839	-84.886	-79.999	87.580	-80.604	-8191	255	
22435.699	1	1	0	0	0.13321	0.09172	0.016827	0.25568	0.35091	0.24895	0.31207	0.10799	0.21628	0.17332	0.1244	0.30478	0.2204	0.078919	0.15722	0.072197	-2.0146	-2.9313	-2.6708	-2.375	-2.6688	-2.7	-2.4396	-2.8312	-2.4271	-2.5521	-2.6833	-2.5979	-2.4896	-2.5646	-2.4188	-2.8563	50.149	125.319	-88.057	-71.459	169.523	124.775	242.998	42.693	152.359	203.129	-77.826	197.035	193.866	34.739	42.573	245.594	0.0012772	0.0006106	0.00080426	532.13	2.8323e-05	3.7204e-05	1024.4	199.2	8.4636e-06	2.9861e-05	444.07	188.85	79.94	38.622	1.7257e-05	108.78	0.037397	0.051969	0.014592	728.79	0.00053125	0.00058135	1174.2	258.32	0.00052085	0.00056992	522.64	219.82	130.35	49.678	0.00053439	119.27	127.601	-25.657	-96.364	-92.584	-29.131	104.233	-92.717	-88.933	-36.691	80.313	-89.150	-84.883	-84.886	-79.295	-31.335	-80.840	-8191	255	
22435.795	1	1	0	0	0.07711	0.077552	0.17355	0.12772	0.1445	0.16933	0.072423	0.25339	0.25185	0.11857	0.057287	0.13831	0.23698	0.22017	0.20828	0.17946	-2.0646	-2.4	-2.5708	-2.3063	-2.7646	-2.5208	-2.5146	-2.85	-2.4375	-2.4688	-2.8208	-2.4792	-2.6354	-2.5187	-2.4771	-2.8083	-19.516	57.023	151.182	13.813	-15.038	211.202	251.482	110.352	-6.421	-82.925	201.634	130.777	188.558	200.143	237.170	187.521	0.0014491	0.0038031	0.00049971	527.44	1.1969e-05	4.4918e-05	1023.4	196.91	3.5651e-05	1.3171e-05	439.28	189.75	80.701	38.921	6.3714e-06	108.86	0.036503	0.051011	0.014168	715.8	0.00051005	0.00056003	1162.1	255.16	0.00051129	0.00056019	519.02	218.88	130.72	49.67	0.0005365	119.75	95.714	-57.244	-22.363	-92.944	-11.582	18.017	-92.998	-88.660	197.075	46.152	-89.045	-84.820	-84.628	-79.592	-4.354	-80.771	-8191	255	
22435.914	1	1	0	0	0.43971	0.3703	0.2231	0.15995	0.016839	0.19363	0.13205	0.074176	0.059772	0.24542	0.10654	0.19355	0.21612	0.24076	0.12549	0.20167	-1.8542	-2.4875	-2.7125	-2.4708	-2.6312	-2.7042	-2.4583	-2.7583	-2.3521	-2.5396	-2.775	-2.3542	-2.5875	-2.5	-2.3167	-2.8667	78.455	160.987	15.077	221.592	182.510	-71.261	234.728	238.115	2.236	21.970	116.743	30.085	-100.911	-46.426	251.660	243.010	0.0013482	0.00062937	0.00058994	529.64	1.016e-05	1.5513e-05	1032.5	199.07	1.821e-05	2.5825e-05	445.81	188.92	80.758	38.958	1.5233e-05	109.98	0.037108	0.051742	0.014509	725.2	0.00052629	0.0005804	1174.9	258.78	0.00052377	0.00057776	527.54	221.31	131.41	50.083	0.00053737	120.22	153.671	-1.355	231.496	-92.572	-48.072	-60.215	-92.783	-89.029	-90.150	101.650	-88.882	-84.918	-84.969	-79.615	-30.363	-80.805	-8191	255	
22436.010	1	1	0	0	0.30147	0.15162	0.079064	0.15426	0.10636	0.23664	0.26969	0.19971	0.34153	0.19641	0.12928	0.13475	0.30661	0.065519	0.15903	0.23384	-2.2854	-2.5812	-2.6937	-2.5312	-2.5187	-2.5083	-2.5896	-2.725	-2.4417	-2.3625	-2.7125	-2.4688	-2.7208	-2.7833	-2.5146	-2.75	249.488	-30.496	77.904	-32.332	209.287	-59.241	-84.644	191.930	214.757	106.661	130.912	207.698	58.659	-42.908	-12.544	136.993	0.0019126	0.0022332	0.00028044	525.44	1.2565e-05	3.5712e-06	1027.6	198.63	5.9605e-06	2.5948e-05	439.92	188.77	79.705	38.954	1.9122e-05	108.27	0.036737	0.051084	0.014291	719.76	0.00051795	0.00056938	1167.6	256.9	0.00051341	0.00056862	518.19	218.38	129.16	49.554	0.00052786	118.39	104.902	-95.719	23.417	-92.988	56.790	117.495	-93.000	-88.598	42.799	124.678	-88.845	-84.718	-85.117	-79.392	62.092	-80.645	-8191	255	
22436.107	1	1	0	0	0.1816	0.02025	0.077365	0.02734	0.1151	0.21704	0.12639	0.20414	0.1087	0.27003	0.20419	0.18197	0.27119	0.075428	0.2643	0.18566	-2.0042	-2.4792	-2.7021	-2.35	-2.6229	-2.7438	-2.4562	-2.7562	-2.5521	-2.2812	-2.7438	-2.5958	-2.7667	-2.8688	-2.2188	-2.7583	-11.028	1.847	23.825	85.576	-78.914	-6.185	242.957	145.071	132.595	149.763	228.464	166.105	49.648	227.351	-33.102	208.263	0.0012051	0.003462	0.00089768	523.34	3.7287e-05	2.625e-05	1014.6	198.41	2.3926e-05	4.7896e-06	439.7	188.65	80.398	39.262	1.4508e-05	108.53	0.035833	0.0501	0.013977	708.36	0.00050146	0.00055445	1152.7	252.83	0.00050291	0.0005619	520.49	219.46	131.46	50.105	0.00054628	119.91	115.622	223.599	214.627	-93.107	-100.007	3.687	-92.806	-88.713	99.189	-86.922	-89.116	-84.627	-84.772	-79.680	53.537	-80.938	-8191	255	
22436.203	1	1	0	0	0.056278	0.13479	0.21402	0.33137	0.27803	0.065379	0.033779	0.1797	0.10781	0.040091	0.066244	0.086068	0.066283	0.44245	0.040782	0.17726	-2.1875	-2.3542	-2.7812	-2.5542	-2.3688	-2.7313	-2.4875	-2.5083	-2.6625	-2.3896	-2.8833	-2.6854	-2.5729	-2.7438	-2.5271	-2.8375	-39.409	21.829	-48.547	127.691	202.692	71.039	27.079	136.391	234.463	60.273	69.470	102.051	138.356	204.509	-64.733	144.784	0.00081675	0.00062762	0.00052093	530	6.555e-06	2.9945e-05	1021	198.3	1.8051e-05	5.2751e-05	442.35	189.46	81.134	38.902	1.9854e-05	108.3	0.037501	0.052625	0.014673	724.88	0.00052039	0.00057808	1170.7	256.63	0.00051718	0.00057162	521.19	219.49	129.93	49.654	0.00053123	119.31	138.234	179.547	247.464	-92.241	178.327	-68.526	-92.977	-88.403	-9.488	-27.771	-89.329	-84.807	-85.645	-79.445	25.012	-80.606	-8191	255	
22436.299	1	1	0	0	0.084585	0.2001	0.11396	0.25494	0.099674	0.15275	0.18801	0.012612	0.15428	0.15126	0.090594	0.14854	0.22552	0.045185	0.052928	0.31248	-2.1937	-2.25	-2.5854	-2.6625	-2.5479	-2.7042	-2.4583	-2.7188	-2.7375	-2.5438	-2.7104	-2.5958	-2.3208	-2.6437	-2.4354	-2.6771	-65.003	67.304	-37.928	72.892	9.710	145.881	-40.917	99.788	106.073	104.614	-67.657	153.101	0.633	160.317	180.903	193.778	0.0013586	0.0023753	0.00069796	524.01	3.3086e-05	2.0488e-05	1020.5	197.22	1.4047e-05	3.0886e-05	437.73	186.72	79.027	38.552	2.2041e-05	109.43	0.036351	0.050722	0.014169	713.24	0.00050861	0.00056051	1156.6	251.03	0.00049741	0.00054729	512.58	215.76	126.63	48.942	0.0005173	118.96	101.624	52.348	0.665	-92.937	-72.126	-86.817	-92.577	-88.796	35.165	100.500	-88.981	-84.739	-84.953	-79.406	59.061	-80.654	-8191	255	
22436.395	1	1	0	0	0.15312	0.22997	0.14553	0.018494	0.35716	0.14838	0.12943	0.13029	0.2429	0.10017	0.050772	0.28649	0.077922	0.046644	0.072713	0.2232	-2.3542	-2.4917	-2.5333	-2.5625	-2.3417	-2.7062	-2.7292	-2.5167	-2.8	-2.4104	-2.6083	-2.7271	-2.4458	-2.6625	-2.3125	-2.4896	52.117	59.752	195.531	177.180	6.355	113.137	235.142	15.775	-30.179	-22.527	58.620	-105.289	-49.747	199.828	-49.124	178.995	0.0010484	0.003365	0.00027291	525.01	1.223e-05	3.5328e-05	1026.5	198.19	2.5539e-05	2.4932e-05	437.3	188.36	80.51	39.119	1.9829e-05	108.73	0.035896	0.050483	0.014079	715.76	0.00051784	0.00057138	1167.5	255.92	0.00052283	0.00057798	521.02	219.96	132.25	50.175	0.00055188	119.92	100.293	35.584	-23.315	-92.242	56.459	180.991	-92.508	-88.558	22.177	225.340	-88.987	-84.400	-84.229	-79.364	-54.526	-80.804	-8191	255	
22436.490	1	1	0	0	0.087335	0.22579	0.088306	0.16194	0.11095	0.19018	0.19185	0.06067	0.19258	0.22515	0.28126	0.23688	0.11124	0.12694	0.158	0.29091	-2.2896	-2.4333	-2.4854	-2.4771	-2.2938	-2.7687	-2.4979	-2.4938	-2.65	-2.4562	-2.7792	-2.7687	-2.3542	-2.6562	-2.5979	-2.6625	187.317	8.926	240.155	-38.379	64.355	-81.768	200.907	121.851	252.677	-62.307	196.721	250.860	-34.886	-2.161	-58.333	192.945	0.00087923	0.0017304	0.00039674	524.44	3.7916e-05	4.5766e-05	1024.2	198.48	3.2656e-05	4.5279e-05	438.4	189.28	79.667	38.834	2.7295e-05	108.52	0.038059	0.052788	0.014662	726.33	0.00052845	0.00057852	1167.2	256.86	0.00052167	0.00057559	520.21	219.94	130.94	49.86	0.00053591	119.34	130.866	144.891	26.076	-92.808	-59.562	-50.030	-92.821	-88.473	112.620	-3.371	-88.965	-84.899	-84.827	-79.059	183.822	-80.762	-8191	255	
22436.611	1	1	0	0	0.2252	0.18599	0.18337	0.12237	0.17853	0.075992	0.021822	0.032054	0.10671	0.030978	0.15728	0.26901	0.21571	0.056572	0.039273	0.22981	-2.2896	-2.4313	-2.6521	-2.8312	-2.475	-2.7208	-2.6896	-2.5729	-2.7792	-2.5354	-2.45	-2.8583	-2.4604	-2.55	-2.5938	-2.4771	137.295	6.535	101.646	224.811	-76.470	0.510	104.872	167.951	184.151	137.026	-104.481	-98.691	205.791	-34.691	135.676	165.234	0.001807	0.0035004	0.00047058	522.14	1.4958e-05	1.479e-05	1028.8	198.85	2.1931e-05	1.8359e-06	439.59	190.13	79.652	38.811	9.9404e-06	109.22	0.037083	0.051536	0.014355	721.05	0.00052147	0.00057176	1169.2	256.96	0.00051873	0.00056979	520.57	219.54	130.14	49.667	0.00052783	119.36	177.866	23.154	-74.524	-92.558	128.714	126.430	-93.200	-88.980	154.594	38.846	-88.972	-85.076	-85.120	-79.274	-103.063	-80.610	-8191	255	
22436.707	1	1	0	0	0.099882	0.044901	0.20478	0.0045117	0.23046	0.30687	0.18067	0.2218	0.16021	0.26616	0.24878	0.28096	0.14844	0.23666	0.089361	0.39983	-2.3625	-2.5792	-2.3125	-2.8125	-2.5833	-2.7375	-2.6729	-2.4521	-2.7021	-2.6167	-2.4979	-2.8063	-2.4167	-2.5667	-2.6146	-2.5062	86.388	110.005	29.732	-36.240	-65.955	20.730	-81.868	123.675	-98.869	38.031	224.397	189.007	177.341	190.230	16.938	230.771	0.00079407	0.0042803	0.0004333	527.79	3.4233e-05	1.5411e-05	1026.6	200.27	2.8512e-05	2.3256e-05	441.41	189.81	80.286	39.015	1.1266e-05	109.38	0.036338	0.050736	0.014089	716.27	0.00051548	0.00056077	1164.8	255.99	0.00051116	0.00056261	520.08	219.64	130.01	49.583	0.0005298	119.53	97.169	-105.713	189.894	-92.449	31.575	203.239	-93.246	-88.575	-1.197	2.691	-88.764	-84.732	-84.476	-79.409	135.398	-80.789	-8191	255	
22436.805	1	1	0	0	0.27191	0.17622	0.13274	0.22356	0.078782	0.047716	0.24685	0.39871	0.090151	0.075789	0.30794	0.35719	0.17871	0.30213	0.15053	0.28659	-2.3396	-2.6542	-2.4271	-2.7729	-2.7438	-2.6229	-2.6604	-2.4375	-2.4958	-2.5208	-2.4771	-2.8479	-2.4667	-2.6458	-2.6479	-2.6458	237.609	75.361	240.818	-72.727	93.237	252.529	155.537	-81.137	59.175	-54.671	214.587	216.655	172.790	-50.102	85.638	193.176	0.0013644	0.003296	0.00058266	526.2	2.9856e-05	2.6219e-05	1025.3	198.04	1.4316e-05	2.3227e-05	439.91	187.98	79.49	38.692	3.3568e-05	107.08	0.036245	0.050592	0.014163	719.06	0.00051056	0.00056524	1166.9	255.62	0.00051226	0.00056226	519.46	217.36	128.06	49.023	0.00052007	117.45	96.671	54.301	28.529	-92.891	118.316	130.852	-92.931	-88.584	172.486	134.264	-89.087	-84.590	-85.119	-79.176	194.832	-80.757	-8191	255	
22436.900	1	1	0	0	0.23471	0.10007	0.081613	0.093559	0.18686	0.070126	0.092663	0.062908	0.26108	0.17046	0.15625	0.075243	0.087288	0.062216	0.091898	0.070273	-2.1979	-2.4583	-2.5792	-2.8729	-2.4938	-2.4646	-2.8	-2.4625	-2.7687	-2.6854	-2.4917	-2.7562	-2.5687	-2.3125	-2.7875	-2.3333	141.528	-17.382	124.338	24.950	73.087	-20.777	69.123	122.813	251.376	62.756	228.299	204.022	243.783	117.600	-39.917	212.659	0.0015764	0.001546	0.00049526	523.22	1.2659e-05	6.7534e-06	1020.7	197.66	1.6202e-05	9.8781e-06	438.7	187.38	79.388	38.555	1.8142e-05	108.31	0.035232	0.048716	0.013668	703.62	0.00048926	0.0005369	1149.1	250.45	0.0004932	0.00054757	513.75	217.25	128.15	49.256	0.00052707	118.61	122.521	214.148	-30.671	-92.462	133.019	-72.818	-92.947	-88.205	-41.554	64.425	-89.228	-84.414	-85.463	-79.544	26.591	-80.777	-8191	255	
22436.994	1	1	0	0	0.081535	0.1794	0.28979	0.14731	0.2524	0.24338	0.16526	0.28834	0.37743	0.061568	0.22776	0.13741	0.28607	0.48947	0.15359	0.19288	-2.0062	-2.575	-2.2562	-2.8458	-2.5833	-2.4313	-2.7583	-2.4917	-2.5583	-2.55	-2.7438	-2.7604	-2.5167	-2.6	-2.7562	-2.5396	-46.263	96.856	120.222	229.390	194.842	74.708	163.695	-85.537	-77.170	109.315	135.044	232.922	-102.825	-99.093	-10.925	32.343	0.001121	0.0021361	0.00078185	532.1	2.1993e-05	1.649e-05	1030.5	198.74	2.0166e-05	1.0861e-05	442.34	188.82	80.132	38.552	1.4442e-05	109.36	0.036275	0.050816	0.014263	722.87	0.00051335	0.00056501	1170.2	255.75	0.0005099	0.00056105	520.07	218.35	128.72	49.268	0.00052296	118.74	152.615	34.063	14.204	-92.779	11.074	96.982	-92.658	-88.501	206.585	200.908	-89.107	-84.627	-84.880	-79.243	253.179	-80.837	-8191	255	
22437.092	1	1	0	0	0.0875	0.15355	0.1731	0.087933	0.023119	0.25272	0.15795	0.15084	0.15921	0.24756	0.27621	0.11833	0.080884	0.25442	0.23637	0.35664	-2.0604	-2.6896	-2.3479	-2.7604	-2.6604	-2.3354	-2.7417	-2.4542	-2.3688	-2.7438	-2.6021	-2.6854	-2.4813	-2.5771	-2.6708	-2.5896	113.322	-96.532	80.549	42.295	-67.781	105.459	173.994	230.408	136.749	-29.881	227.562	143.295	35.745	253.170	-87.244	224.484	0.0013091	0.0039234	0.00086193	531.79	4.1951e-05	1.9592e-05	1025	197.63	2.4496e-05	3.2369e-05	439.91	189.07	80.09	38.805	1.3076e-05	107.8	0.035724	0.049933	0.01405	716.48	0.00050227	0.00055369	1161.9	252.06	0.00049328	0.0005444	515	216.86	126.77	48.853	0.00051218	118.29	102.631	191.384	-20.026	-92.673	227.489	155.773	-92.547	-88.388	20.553	59.021	-89.208	-84.735	-84.831	-79.190	5.359	-80.623	-8191	255	
22437.211	1	1	0	0	0.19798	0.17053	0.22112	0.19321	0.22435	0.3743	0.14467	0.34967	0.28105	0.16417	0.13733	0.14615	0.037414	0.053938	0.1382	0.2195	-2.1167	-2.6917	-2.3042	-2.5771	-2.6708	-2.5104	-2.9208	-2.6979	-2.4208	-2.8417	-2.4896	-2.8042	-2.6813	-2.3229	-2.5375	-2.6104	180.960	220.082	80.283	29.373	249.932	-77.445	-69.515	171.178	60.102	10.154	129.473	-72.195	121.951	-99.488	185.678	92.145	0.0011999	0.0028763	0.00053408	526.98	4.8957e-06	2.4552e-05	1027.6	198.4	4.5202e-05	3.0851e-05	438.58	187.81	79.923	38.605	2.9073e-05	107.54	0.035294	0.04941	0.013852	712.46	0.00049774	0.00054679	1158	251.72	0.00048758	0.00053852	512.56	215.15	126.72	48.902	0.00050735	117.42	122.860	-33.100	-38.901	-93.074	215.597	-13.669	-92.711	-88.408	113.091	92.030	-88.968	-84.616	-84.493	-79.369	52.714	-80.748	-8191	255	
22437.309	1	1	0	0	0.08553	0.23333	0.26869	0.065609	0.22136	0.1773	0.033292	0.10427	0.10484	0.19849	0.47484	0.14844	0.070728	0.12564	0.13324	0.22541	-2.075	-2.6229	-2.2625	-2.5417	-2.7333	-2.3833	-2.775	-2.5333	-2.5854	-2.6792	-2.5375	-2.7042	-2.7833	-2.2042	-2.6583	-2.5812	63.986	-95.057	148.087	-40.177	20.023	-64.637	-46.023	248.835	63.689	45.138	162.086	-5.759	53.679	224.940	163.372	215.668	0.0010268	0.0022131	0.00066993	534.88	9.5412e-06	2.6542e-05	1026.2	198.92	1.1536e-05	1.325e-05	443.51	189.41	80.525	38.902	3.0712e-05	108.94	0.034864	0.049002	0.013678	713.7	0.00049292	0.000545	1156	253.42	0.0004918	0.00054564	516.14	217.7	127.92	49.195	0.00050673	118.26	135.166	-54.868	-35.825	-92.810	226.162	196.554	-92.874	-88.580	138.660	50.112	-88.679	-84.333	-85.015	-79.541	-23.665	-80.788	-8191	255	
22437.404	1	1	0	0	0.31516	0.062631	0.14134	0.19516	0.12709	0.10135	0.12931	0.21996	0.17668	0.26456	0.24606	0.22249	0.056501	0.27498	0.19213	0.1999	-2.0729	-2.5458	-2.3208	-2.5042	-2.9229	-2.5479	-2.6792	-2.5563	-2.3646	-2.7313	-2.5771	-2.625	-2.5771	-2.4813	-2.6646	-2.7479	130.150	-17.738	156.813	108.351	-25.956	239.593	166.118	-28.718	64.371	0.381	-84.994	240.510	225.196	46.000	180.791	-79.984	0.0011652	0.00062316	0.00056776	529.48	2.4194e-05	2.7204e-05	1029	202.6	7.6321e-06	3.3503e-05	443.23	191.28	81.31	39.236	2.2345e-06	109.98	0.034756	0.048096	0.013313	704.66	0.00047754	0.00052719	1152.2	251.18	0.00047078	0.00051956	512.47	215.86	125.68	48.667	0.0004804	118.12	57.700	216.205	-62.327	-92.790	205.258	43.259	-93.024	-88.499	140.517	69.970	-88.829	-84.571	-84.940	-79.310	-38.643	-80.713	-8191	255	
22437.500	1	1	0	0	0.1992	0.057608	0.14652	0.13878	0.18123	0.1521	0.055173	0.16321	0.13706	0.12165	0.21125	0.28591	0.18959	0.09264	0.060715	0.14857	-1.8813	-2.6396	-2.4167	-2.4917	-2.7313	-2.4104	-2.8	-2.525	-2.4188	-2.5979	-2.5875	-2.5521	-2.7042	-2.3896	-2.5146	-2.6521	-92.261	120.858	33.154	-30.872	7.622	-75.037	-2.500	54.243	-92.917	169.932	122.299	-87.613	164.134	-86.259	94.519	71.991	0.0014218	0.00049912	0.00086986	531.44	1.7921e-05	2.079e-05	1035.4	200.92	1.9947e-05	2.3183e-05	445.42	189.21	80.377	39.295	1.921e-05	109.7	0.032732	0.045389	0.012555	694.01	0.00044974	0.00049215	1138.4	245.94	0.00043651	0.00047607	501.71	211.18	120.04	47.369	0.00043336	116.52	99.380	152.217	-2.563	-92.752	101.479	150.662	-92.548	-88.266	83.431	-50.660	-88.800	-84.687	-84.787	-79.564	42.256	-80.698	-8191	255	
22437.596	1	1	0	0	0.21448	0.1061	0.066857	0.13629	0.21697	0.11056	0.1552	0.14529	0.17914	0.05421	0.097434	0.044658	0.17438	0.39688	0.050506	0.17505	-1.8521	-2.6813	-2.4583	-2.4813	-2.725	-2.3125	-2.5646	-2.8937	-2.2917	-2.6188	-2.5375	-2.4083	-2.75	-2.4354	-2.3563	-2.825	93.408	189.809	28.321	-63.875	-33.645	70.351	161.196	125.632	211.698	-34.767	28.587	-71.321	-25.212	236.496	-19.275	191.167	0.0012852	0.001988	0.00059576	534.05	1.0048e-05	5.0125e-05	1028.2	198.48	9.0048e-06	1.7598e-05	439.79	188.19	80.051	39.345	1.0562e-05	108.89	0.030004	0.041622	0.011679	678.49	0.00042168	0.00046159	1122.3	241.94	0.00040842	0.00044544	492.5	207.81	116.55	46.356	0.00039862	113.83	147.736	31.093	55.957	-92.718	51.686	-59.634	-92.534	-88.713	-72.416	25.105	-88.918	-84.623	-85.218	-79.043	117.628	-80.576	-8191	255	
#DATA ENDS
