BOXY.EXE: ISS Imagent and Oximeter Data Acquisition Program Version 0.80
Ascii Record File

#ACQ INFORMATION
2  Detector Channels 
16  External MUX Channels 
1  Auxiliary Channels 
5000  Waveform (CCF) Frequency (Hz)
1  Waveforms Skipped 
30  Waveforms Averaged 
1  Cycles Averaged 
16  Acquisitions per Waveform 
10.0806  Updata Rate (Hz) 

#FILE INFORMATION
TRUE -- External MUX Channel results are PARSED.
FALSE -- AC DC and Phase are NOT grouped.
TRUE -- Companion Program Settings File CREATED.
FALSE -- AC data not excluded
FALSE -- DC data not excluded
FALSE -- Phase data not excluded
FALSE -- Auxillary Chn. data not excluded
Tab delimiters

#CALIBRATION STATE
TRUE -- Waveform Calibration Values APPLIED.


#AUX CALIBRATION VALUES
Val Type	aux-1	

Term	1.0000e+00	
Factor	0.0000e+00	


#WF CALIBRATION VALUES
A = Detector Channel
Val Type	A-AC1	A-AC2	A-AC3	A-AC4	A-AC5	A-AC6	A-AC7	A-AC8	A-AC9	A-AC10	A-AC11	A-AC12	A-AC13	A-AC14	A-AC15	A-AC16	A-DC1	A-DC2	A-DC3	A-DC4	A-DC5	A-DC6	A-DC7	A-DC8	A-DC9	A-DC10	A-DC11	A-DC12	A-DC13	A-DC14	A-DC15	A-DC16	A-Ph1	A-Ph2	A-Ph3	A-Ph4	A-Ph5	A-Ph6	A-Ph7	A-Ph8	A-Ph9	A-Ph10	A-Ph11	A-Ph12	A-Ph13	A-Ph14	A-Ph15	A-Ph16	

Term	0.00000e+00	0.00000e+00	0.00000e+00	0.00000e+00	0.00000e+00	0.00000e+00	0.00000e+00	0.00000e+00	0.00000e+00	0.00000e+00	0.00000e+00	0.00000e+00	0.00000e+00	0.00000e+00	0.00000e+00	0.00000e+00	0.00000e+00	0.00000e+00	0.00000e+00	0.00000e+00	0.00000e+00	0.00000e+00	0.00000e+00	0.00000e+00	0.00000e+00	0.00000e+00	0.00000e+00	0.00000e+00	0.00000e+00	0.00000e+00	0.00000e+00	0.00000e+00	0.00000e+00	0.00000e+00	0.00000e+00	0.00000e+00	0.00000e+00	0.00000e+00	0.00000e+00	0.00000e+00	0.00000e+00	0.00000e+00	0.00000e+00	0.00000e+00	0.00000e+00	0.00000e+00	0.00000e+00	0.00000e+00	
Factor	1.00000e+00	1.00000e+00	1.00000e+00	1.00000e+00	1.00000e+00	1.00000e+00	1.00000e+00	1.00000e+00	1.00000e+00	1.00000e+00	1.00000e+00	1.00000e+00	1.00000e+00	1.00000e+00	1.00000e+00	1.00000e+00	1.00000e+00	1.00000e+00	1.00000e+00	1.00000e+00	1.00000e+00	1.00000e+00	1.00000e+00	1.00000e+00	1.00000e+00	1.00000e+00	1.00000e+00	1.00000e+00	1.00000e+00	1.00000e+00	1.00000e+00	1.00000e+00	X	X	X	X	X	X	X	X	X	X	X	X	X	X	X	X	

B = Detector Channel
Val Type	B-AC1	B-AC2	B-AC3	B-AC4	B-AC5	B-AC6	B-AC7	B-AC8	B-AC9	B-AC10	B-AC11	B-AC12	B-AC13	B-AC14	B-AC15	B-AC16	B-DC1	B-DC2	B-DC3	B-DC4	B-DC5	B-DC6	B-DC7	B-DC8	B-DC9	B-DC10	B-DC11	B-DC12	B-DC13	B-DC14	B-DC15	B-DC16	B-Ph1	B-Ph2	B-Ph3	B-Ph4	B-Ph5	B-Ph6	B-Ph7	B-Ph8	B-Ph9	B-Ph10	B-Ph11	B-Ph12	B-Ph13	B-Ph14	B-Ph15	B-Ph16	

Term	0.00000e+00	0.00000e+00	0.00000e+00	0.00000e+00	0.00000e+00	0.00000e+00	0.00000e+00	0.00000e+00	0.00000e+00	0.00000e+00	0.00000e+00	0.00000e+00	0.00000e+00	0.00000e+00	0.00000e+00	0.00000e+00	0.00000e+00	0.00000e+00	0.00000e+00	0.00000e+00	0.00000e+00	0.00000e+00	0.00000e+00	0.00000e+00	0.00000e+00	0.00000e+00	0.00000e+00	0.00000e+00	0.00000e+00	0.00000e+00	0.00000e+00	0.00000e+00	-2.01985e+02	-1.29378e+02	-1.28570e+02	-1.80487e+02	-8.05482e+01	-6.35979e+01	-1.57016e+02	-1.62015e+02	-9.10596e+01	-6.42508e+01	-1.71443e+02	-1.71615e+02	-1.83224e+02	-1.76661e+02	-7.99887e+01	-1.49508e+02	
Factor	5.02138e-05	2.16187e-04	5.75228e-05	2.02782e-01	2.24451e-06	2.39498e-06	2.11821e-01	6.23708e-02	2.36109e-06	2.12806e-06	1.02550e-01	4.02935e-02	4.67635e-02	1.15781e-02	2.14567e-06	1.65216e-02	1.48403e-05	2.08106e-05	5.80611e-06	1.01095e-01	2.10257e-07	2.31288e-07	9.93696e-02	3.12328e-02	2.09323e-07	2.30627e-07	4.98278e-02	1.95568e-02	2.33408e-02	5.84236e-03	2.17295e-07	8.10984e-03	X	X	X	X	X	X	X	X	X	X	X	X	X	X	X	X	



#DISTANCE SETTINGS
A = Detector Channel
A-1	A-2	A-3	A-4	A-5	A-6	A-7	A-8	A-9	A-10	A-11	A-12	A-13	A-14	A-15	A-16	

2.5000e+00	3.0000e+00	2.5000e+00	3.0000e+00	2.0000e+00	3.0000e+00	1.5000e+00	3.0000e+00	3.0000e+00	3.0000e+00	3.0000e+00	3.0000e+00	3.0000e+00	3.0000e+00	1.5000e+00	3.0000e+00	

B = Detector Channel
B-1	B-2	B-3	B-4	B-5	B-6	B-7	B-8	B-9	B-10	B-11	B-12	B-13	B-14	B-15	B-16	

1.0000e+01	1.0000e+01	1.0000e+01	1.4400e+00	1.0000e+01	1.0000e+01	1.5100e+00	1.9400e+00	1.0000e+01	1.0000e+01	1.9900e+00	2.4900e+00	2.4100e+00	2.9000e+00	1.0000e+01	2.9800e+00	




#DATA BEGINS
time	group	step	mark	flag	A-AC1	A-AC2	A-AC3	A-AC4	A-AC5	A-AC6	A-AC7	A-AC8	A-AC9	A-AC10	A-AC11	A-AC12	A-AC13	A-AC14	A-AC15	A-AC16	A-DC1	A-DC2	A-DC3	A-DC4	A-DC5	A-DC6	A-DC7	A-DC8	A-DC9	A-DC10	A-DC11	A-DC12	A-DC13	A-DC14	A-DC15	A-DC16	A-Ph1	A-Ph2	A-Ph3	A-Ph4	A-Ph5	A-Ph6	A-Ph7	A-Ph8	A-Ph9	A-Ph10	A-Ph11	A-Ph12	A-Ph13	A-Ph14	A-Ph15	A-Ph16	B-AC1	B-AC2	B-AC3	B-AC4	B-AC5	B-AC6	B-AC7	B-AC8	B-AC9	B-AC10	B-AC11	B-AC12	B-AC13	B-AC14	B-AC15	B-AC16	B-DC1	B-DC2	B-DC3	B-DC4	B-DC5	B-DC6	B-DC7	B-DC8	B-DC9	B-DC10	B-DC11	B-DC12	B-DC13	B-DC14	B-DC15	B-DC16	B-Ph1	B-Ph2	B-Ph3	B-Ph4	B-Ph5	B-Ph6	B-Ph7	B-Ph8	B-Ph9	B-Ph10	B-Ph11	B-Ph12	B-Ph13	B-Ph14	B-Ph15	B-Ph16	aux-1	digaux	

21432.578	1	1	0	256	0.28831	0.020369	0.10066	0.25202	0.40021	0.17008	0.12805	0.22198	0.11145	0.13023	0.16696	0.019433	0.14456	0.1486	0.071979	0.13434	-2.2458	-2.6854	-2.6208	-3.1375	-2.6875	-2.8417	-3.0083	-2.6333	-2.8521	-2.6688	-2.5583	-2.8812	-2.7167	-2.6667	-2.9542	-2.6208	502.404	267.242	480.309	414.627	425.135	513.694	439.895	349.988	201.995	383.122	301.057	176.610	272.080	243.822	420.898	379.655	0.00054752	0.00033947	8.3828e-05	1008.6	4.4784e-06	1.8447e-06	1050.7	218.23	3.1576e-06	3.2015e-06	264.67	77.693	62.119	17.939	3.3452e-06	24.514	0.00027999	0.00021881	6.2162e-05	1032.7	2.6028e-06	2.4126e-06	1077.8	224.29	2.5298e-06	2.4648e-06	273.13	79.916	63.915	18.912	2.297e-06	25.759	483.538	249.280	256.303	172.040	275.057	310.511	171.782	178.701	289.306	277.237	178.216	184.261	184.609	191.319	285.237	190.917	-8191	255	
21432.697	1	1	0	0	0.0097399	0.20806	0.065803	0.071545	0.26687	0.097731	0.20991	0.13774	0.1257	0.042774	0.16073	0.086099	0.085321	0.21415	0.19226	0.22551	-2.4708	-2.7812	-2.5	-2.9188	-2.8333	-2.8896	-2.9042	-2.6896	-2.7812	-2.7104	-2.7083	-2.8958	-2.7396	-2.6146	-2.9729	-2.7646	170.425	305.749	519.279	203.976	409.929	234.725	244.688	437.228	164.544	262.421	414.716	520.425	169.374	414.746	394.365	461.516	0.00058873	0.00026154	5.4287e-05	1000	2.7539e-06	3.5578e-06	1043.3	215.2	4.2502e-06	2.4328e-06	261.09	76.654	61.064	17.803	3.0185e-06	23.934	0.00027912	0.0002212	6.2113e-05	1025.1	2.5822e-06	2.3476e-06	1070.9	221.49	2.4316e-06	2.2462e-06	270.04	79.005	62.956	18.665	2.2277e-06	25.326	482.178	254.393	274.695	172.016	269.719	327.203	171.784	178.991	267.914	342.234	178.373	184.393	184.918	191.099	320.364	191.076	-8191	255	
21432.793	1	1	0	0	0.26896	0.1145	0.27249	0.1621	0.21041	0.159	0.15792	0.22028	0.15755	0.14523	0.1565	0.10663	0.17326	0.12354	0.022204	0.095366	-2.2958	-2.7375	-2.5896	-3.0208	-2.6396	-2.6958	-3.1333	-2.6896	-2.7708	-3	-2.6583	-2.7854	-2.8979	-2.6042	-2.8167	-2.6312	393.999	235.011	346.263	362.229	204.667	463.063	239.872	478.082	243.731	482.188	412.788	272.769	209.722	354.586	227.427	251.634	0.00053029	0.00031799	7.9929e-05	990.16	2.4719e-06	3.5393e-06	1032.6	212.9	5.0546e-06	3.5657e-06	259.78	76.151	61.156	17.713	3.4618e-06	23.868	0.00026345	0.00019007	5.4239e-05	1014.1	2.3733e-06	2.0927e-06	1059.9	219.21	2.2053e-06	1.9565e-06	268.14	78.629	62.743	18.608	1.6772e-06	25.338	480.974	269.489	233.385	172.011	279.298	313.230	171.785	178.848	271.541	305.531	178.387	184.119	184.277	191.107	302.452	191.046	-8191	255	
21432.889	1	1	0	0	0.24168	0.085175	0.24649	0.3169	0.11744	0.28843	0.14159	0.14895	0.055665	0.40091	0.30233	0.075748	0.2052	0.13987	0.25541	0.091177	-2.2812	-2.8854	-2.4854	-2.9458	-2.7687	-2.575	-3.1229	-2.6792	-2.6354	-2.8458	-2.5229	-2.9479	-2.8042	-2.65	-2.8958	-2.8583	356.323	477.100	207.966	473.708	257.004	435.324	180.781	511.884	332.448	264.259	495.279	184.935	443.248	425.011	253.526	399.498	0.00056322	0.00024561	5.2862e-05	995.24	5.0226e-06	2.5302e-06	1034.9	213.59	4.5719e-06	3.0521e-06	260.06	75.933	61.032	17.801	3.4725e-06	24.081	0.00022183	0.00014511	4.1211e-05	1016	1.8892e-06	1.7833e-06	1061.6	219.63	1.7792e-06	1.5452e-06	268.6	78.82	62.844	18.689	1.4323e-06	25.427	481.160	247.625	276.568	172.120	292.863	287.961	171.826	178.950	258.259	323.383	178.456	184.427	184.791	191.074	285.173	190.867	-8191	255	
21432.984	1	1	0	0	0.24806	0.1802	0.085997	0.27284	0.22877	0.14035	0.15792	0.094038	0.1514	0.058482	0.17839	0.01942	0.20676	0.24608	0.2326	0.067554	-2.3104	-2.9125	-2.6208	-2.7833	-2.9021	-2.4646	-2.925	-2.7542	-2.7167	-2.9167	-2.8604	-2.8792	-2.8312	-2.6521	-2.8438	-2.6583	510.563	212.364	169.541	493.938	304.106	180.037	466.642	402.678	518.935	199.445	518.942	237.735	441.014	442.942	439.422	478.427	0.00056589	0.00033383	9.1867e-05	995.29	3.6901e-06	1.8634e-06	1035.6	213.38	3.1888e-06	2.3014e-06	260.35	76.98	61.255	18.023	2.0636e-06	24.357	0.00022483	0.00013128	3.9264e-05	1017.3	1.728e-06	1.6084e-06	1063.5	219.9	1.9515e-06	1.8162e-06	269.15	79.2	63.35	18.916	2.4572e-06	25.67	478.345	243.775	257.130	172.138	283.763	282.711	171.875	178.730	266.388	302.965	178.651	184.278	184.557	190.641	272.828	190.957	-8191	255	
21433.105	1	1	0	0	0.10948	0.069346	0.18851	0.2365	0.14238	0.12137	0.14789	0.045933	0.087057	0.33394	0.19399	0.17102	0.12311	0.1416	0.19748	0.20306	-2.1125	-2.8063	-2.6208	-2.8542	-2.9917	-2.6375	-2.9938	-2.7229	-2.6729	-2.8583	-2.4875	-2.6396	-2.9688	-2.7125	-2.7938	-2.75	357.083	313.027	482.384	465.043	378.463	462.703	457.426	345.451	255.999	334.762	433.684	236.494	460.162	189.616	249.520	400.542	0.00054329	0.00036709	0.0001021	999.47	3.6559e-06	3.7064e-06	1044.6	215.12	3.9019e-06	2.8433e-06	262.77	77.241	61.906	18.129	3.1991e-06	24.241	0.00029368	0.00023555	7.1875e-05	1021.9	2.9506e-06	2.9138e-06	1069.4	221.74	2.8921e-06	2.6661e-06	271.28	79.94	63.765	19.025	2.5242e-06	25.744	479.205	242.149	260.183	172.055	272.747	305.918	171.632	178.921	252.553	308.846	178.432	184.336	184.486	191.183	293.259	190.682	-8191	255	
21433.178	1	1	0	0	0.10398	0.23425	0.098486	0.32555	0.10013	0.097752	0.18112	0.17868	0.22021	0.17631	0.33931	0.17236	0.18918	0.15556	0.023364	0.10357	-2.1792	-2.8354	-2.5729	-2.5708	-2.8729	-2.6813	-2.8187	-2.9188	-2.6292	-2.7229	-2.7875	-2.5083	-2.8063	-2.5125	-2.7896	-2.9542	266.718	416.007	455.778	356.116	467.368	351.959	514.106	325.785	191.073	201.489	482.243	491.995	321.218	443.947	477.819	217.537	0.00060023	0.00027053	4.5291e-05	1002.6	3.4466e-06	3.8132e-06	1043	215.9	3.8078e-06	3.7548e-06	262.85	76.748	61.823	17.868	2.8278e-06	24.344	0.00030228	0.00024591	6.5851e-05	1025.2	2.8923e-06	2.8236e-06	1070.3	222.26	3.0443e-06	2.8026e-06	271.32	79.495	63.561	18.894	2.5885e-06	25.642	483.396	246.119	254.253	172.063	282.187	286.170	172.000	178.668	280.043	344.192	178.501	184.196	184.839	190.843	286.301	190.928	-8191	255	
21433.273	1	1	0	0	0.061665	0.040403	0.1025	0.32944	0.16733	0.18736	0.082106	0.12406	0.27955	0.16834	0.10413	0.17901	0.12844	0.13648	0.25477	0.24646	-2.1729	-2.6917	-2.8771	-2.5854	-2.8771	-2.6792	-2.7562	-2.9	-2.8083	-2.9625	-2.7583	-2.55	-2.9396	-2.7188	-2.6063	-2.8042	425.045	231.034	187.593	497.390	245.906	431.469	230.052	168.214	382.525	441.954	496.503	502.247	263.201	222.057	373.206	449.229	0.00057506	0.0002949	7.5472e-05	999.68	3.092e-06	2.6811e-06	1043.6	215.96	5.6375e-06	3.4602e-06	261.66	77.5	61.386	18.085	3.2674e-06	24.313	0.00029053	0.00023668	6.9964e-05	1022.1	2.8853e-06	2.7528e-06	1069.4	222.36	2.9855e-06	2.8276e-06	271.01	79.747	63.504	18.963	3.173e-06	25.699	482.637	238.778	238.050	172.076	270.477	324.661	171.846	178.732	265.704	309.739	178.445	184.139	184.759	191.024	293.038	190.557	-8191	255	
21433.369	1	1	0	0	0.12366	0.19119	0.17945	0.28028	0.25567	0.20035	0.1076	0.19345	0.23652	0.30935	0.22939	0.18007	0.084137	0.17209	0.10603	0.3075	-2.2375	-2.7104	-2.7646	-2.7708	-2.9688	-2.7771	-2.8604	-2.9396	-2.4583	-2.7958	-2.8312	-2.4583	-2.9021	-2.5979	-2.6479	-2.9437	411.051	381.621	424.946	495.399	314.423	465.695	435.864	448.284	432.661	313.812	441.236	429.352	446.529	196.720	229.415	491.016	0.00056139	0.00022804	0.00010515	994.13	3.1549e-06	3.0529e-06	1038.3	215.09	4.047e-06	2.5135e-06	261.98	77.114	61.556	18.098	4.1359e-06	24.35	0.00034331	0.00032764	9.3865e-05	1020	3.8968e-06	4.0003e-06	1067.2	222.23	4.2741e-06	4.2382e-06	271.73	79.78	63.801	19.081	4.0095e-06	25.763	484.102	235.060	251.732	171.911	264.159	306.699	171.890	178.806	252.076	300.553	178.442	184.464	184.741	191.033	283.201	190.865	-8191	255	
21433.488	1	1	0	0	0.24003	0.14291	0.016101	0.093067	0.10624	0.15746	0.36622	0.24061	0.25169	0.12862	0.191	0.14727	0.16695	0.19501	0.1713	0.18195	-2.1125	-2.7438	-2.9021	-2.75	-3.0333	-2.7417	-2.6917	-3.0646	-2.6979	-2.7375	-2.9854	-2.5771	-2.8792	-2.6917	-2.5875	-2.8708	431.642	427.067	463.829	496.811	444.356	194.525	382.160	501.549	320.170	197.244	496.347	434.733	346.169	495.038	448.156	335.442	0.00056953	0.0001702	5.9775e-05	999.98	1.4558e-06	3.132e-06	1047.1	218.23	3.1678e-06	4.019e-06	264.67	78.08	63.039	18.547	2.9461e-06	24.653	0.00039812	0.00035686	9.6357e-05	1025.1	3.7465e-06	3.6332e-06	1073.8	224.35	3.5197e-06	3.335e-06	274.22	80.853	64.966	19.44	2.6406e-06	26.144	481.115	215.728	269.504	172.173	258.815	331.281	171.850	178.577	270.857	296.644	178.641	184.232	184.414	190.712	303.148	190.829	-8191	255	
21433.586	1	1	0	0	0.27574	0.051954	0.1778	0.061852	0.03301	0.091137	0.22167	0.23402	0.17432	0.23648	0.15362	0.1648	0.32181	0.13557	0.12686	0.12704	-2.4083	-2.6396	-2.8396	-2.7604	-2.8875	-2.7438	-2.7562	-2.8812	-2.4792	-2.6521	-2.7542	-2.5521	-2.7562	-2.8917	-2.6417	-3	462.106	222.362	403.447	429.419	216.175	240.237	452.197	461.068	376.660	453.373	490.838	349.335	249.859	509.465	266.720	324.302	0.00055271	0.0001655	7.1057e-05	1013.1	2.8845e-06	2.3148e-06	1060.2	221.61	3.8122e-06	2.5002e-06	267.34	78.305	63.717	18.641	4.359e-07	24.977	0.00027881	0.00021235	5.5835e-05	1037	2.3864e-06	2.1283e-06	1082.9	227.53	2.2249e-06	2.031e-06	275.91	81.212	65.348	19.528	2.1109e-06	26.227	482.606	240.237	218.506	171.875	276.897	319.549	171.709	178.401	261.097	313.822	178.266	183.932	184.138	190.996	240.835	190.599	-8191	255	
21433.682	1	1	0	0	0.16317	0.04627	0.077471	0.19458	0.16313	0.066784	0.030826	0.25539	0.10676	0.27649	0.13807	0.26268	0.10874	0.086569	0.10011	0.17065	-2.1562	-2.7083	-2.8625	-2.5896	-2.8625	-2.7646	-2.6396	-2.8937	-2.6875	-2.6437	-2.8292	-2.6688	-2.5896	-2.9208	-2.4625	-2.8937	227.439	166.040	408.905	462.086	356.277	265.600	347.515	435.251	357.814	406.204	317.905	366.148	191.794	211.973	259.860	316.018	0.00056535	0.00019595	7.9532e-05	1011.3	3.2965e-06	3.1971e-06	1056.9	219.67	3.98e-06	2.5647e-06	265.12	77.998	63.601	18.434	2.5817e-06	24.902	0.00025507	0.00019432	5.4372e-05	1035.1	2.3452e-06	2.1524e-06	1081.9	226.45	2.228e-06	2.0929e-06	275.25	80.996	64.971	19.411	2.0901e-06	26.224	481.971	252.069	258.104	172.087	283.408	312.675	171.848	178.583	250.738	316.235	178.494	184.120	184.437	190.763	297.177	190.704	-8191	255	
21433.777	1	1	0	0	0.12153	0.075319	0.12329	0.10114	0.15877	0.17013	0.050779	0.23743	0.024583	0.19289	0.24612	0.20036	0.17687	0.26268	0.10718	0.1562	-2.3187	-2.3958	-2.7458	-2.7521	-2.6896	-2.8417	-2.7125	-2.8104	-2.675	-2.5583	-2.9854	-2.6063	-2.6437	-2.925	-2.4146	-2.8771	253.192	211.605	261.957	162.095	320.179	483.767	223.459	443.810	165.519	288.754	178.830	178.785	204.760	438.277	217.835	312.037	0.00062393	0.0003471	7.0898e-05	1009.5	3.9378e-06	2.8562e-06	1050.3	220.46	2.9032e-06	2.9113e-06	266.35	78.576	63.358	18.543	2.8435e-06	24.79	0.0002576	0.00019584	5.1614e-05	1032.2	2.255e-06	2.0618e-06	1078.7	226.15	2.2162e-06	2.115e-06	275.78	81.134	65.176	19.471	2.1648e-06	26.181	482.977	245.102	291.376	171.923	300.452	331.319	171.919	178.779	267.530	324.266	178.626	184.033	184.426	190.735	265.825	190.486	-8191	255	
21433.873	1	1	0	0	0.11517	0.37228	0.18354	0.1159	0.0087149	0.036541	0.43265	0.061795	0.29151	0.13699	0.19874	0.30466	0.063933	0.10263	0.024207	0.019218	-2.2396	-2.425	-2.7146	-2.7104	-2.5938	-2.8333	-2.8479	-3.0917	-2.8396	-2.7313	-2.7625	-2.7208	-2.6312	-2.9437	-2.4604	-2.7083	283.956	447.472	320.065	179.525	520.132	389.279	375.077	388.886	333.189	446.434	199.740	429.427	447.916	225.308	512.092	486.790	0.00058329	0.00020741	9.9036e-05	1006.4	3.0506e-06	1.9508e-06	1050.9	219.17	4.2078e-06	2.7235e-06	266.52	77.999	62.473	18.393	2.6212e-06	24.735	0.00025971	0.00019584	5.3053e-05	1030.6	2.4228e-06	2.0267e-06	1078	225.84	2.3196e-06	2.239e-06	275.01	80.658	64.651	19.282	2.1476e-06	26.073	481.833	235.751	259.486	172.107	271.468	347.724	171.912	178.602	274.984	320.769	178.567	184.164	184.063	190.932	285.857	190.803	-8191	255	
21433.969	1	1	0	0	0.10475	0.12191	0.046271	0.33668	0.067799	0.057645	0.34124	0.19457	0.12289	0.049102	0.11261	0.25838	0.20348	0.12124	0.19451	0.26446	-2.3729	-2.5354	-2.8812	-2.7146	-2.6917	-2.7896	-2.7958	-2.8771	-2.6937	-2.6188	-3.0125	-2.6604	-2.775	-3.0125	-2.6937	-2.8063	216.735	256.438	408.549	485.143	432.337	176.509	173.387	490.768	485.101	423.338	353.098	498.635	389.576	297.848	359.436	484.770	0.0005784	0.00025874	6.2334e-05	1004.6	3.9802e-06	3.5688e-06	1050.1	218.99	4.0094e-06	1.6663e-06	264.34	77.666	62.737	18.554	1.7725e-06	24.678	0.00026345	0.00019415	5.2811e-05	1027.5	2.4587e-06	2.1804e-06	1074.9	225.17	2.3588e-06	2.4115e-06	274.29	80.464	64.519	19.348	2.3518e-06	26.004	480.510	256.538	263.515	172.072	280.110	317.069	171.781	178.793	277.938	306.026	178.333	183.898	184.085	190.932	306.209	190.818	-8191	255	
21434.090	1	1	0	0	0.21352	0.26051	0.24306	0.12276	0.23173	0.058696	0.066833	0.12512	0.13015	0.018836	0.071003	0.051867	0.0774	0.020783	0.17891	0.2606	-2.4458	-2.5563	-2.8688	-2.8438	-2.7333	-2.8646	-2.9104	-2.8542	-2.8417	-2.4917	-2.7521	-2.7771	-2.6271	-3.0021	-2.6375	-2.6521	385.190	300.597	319.494	514.188	287.435	507.625	433.713	464.315	472.559	240.699	497.956	313.308	465.377	307.049	193.054	365.866	0.00056066	0.00036599	0.0001009	1004.4	2.5913e-06	3.2337e-06	1050.1	219.47	4.7319e-06	2.2258e-06	266.76	78.647	62.775	18.438	2.3256e-06	24.724	0.00026524	0.00020234	6.0033e-05	1028.6	2.4311e-06	2.3596e-06	1077.3	225.77	2.4364e-06	2.1876e-06	275.78	80.943	64.905	19.377	2.2784e-06	26.083	485.860	250.630	251.482	172.016	262.141	312.684	171.582	178.824	266.279	309.129	178.514	184.060	184.147	191.389	303.464	190.633	-8191	255	
21434.186	1	1	0	0	0.26876	0.2158	0.24945	0.37681	0.23009	0.093183	0.10867	0.04895	0.070255	0.071602	0.18574	0.15618	0.28866	0.19079	0.33208	0.12905	-2.5812	-2.5062	-2.7938	-2.7104	-2.5708	-2.9708	-2.7792	-2.8312	-2.9313	-2.8271	-2.7396	-2.8708	-2.4979	-2.8479	-2.7896	-2.5979	218.936	396.625	194.355	487.811	185.470	433.961	509.975	221.338	271.166	195.600	465.836	242.418	249.114	438.224	502.062	359.663	0.00054893	0.00022664	0.00010125	1008.6	4.8093e-06	2.5711e-06	1053.4	219.64	5.9458e-06	1.8579e-06	266.3	78.182	62.594	18.307	2.5252e-06	24.721	0.00027099	0.00020828	5.4807e-05	1031.2	2.4929e-06	2.2228e-06	1077.5	225.84	2.4251e-06	2.3553e-06	275.18	80.802	64.662	19.282	2.3214e-06	26.025	483.512	249.850	235.954	172.153	259.536	337.548	171.662	178.501	268.591	345.510	178.362	184.469	184.691	191.237	272.554	190.877	-8191	255	
21434.281	1	1	0	0	0.25419	0.022575	0.25361	0.2918	0.13051	0.1774	0.45422	0.24859	0.10073	0.14113	0.037487	0.2555	0.21392	0.11039	0.1695	0.30676	-2.3042	-2.4813	-2.5812	-2.875	-2.5187	-2.8333	-2.7729	-2.6396	-3.0938	-2.7292	-2.6646	-2.9104	-2.5396	-2.8688	-2.8063	-2.4688	247.236	166.115	291.201	483.916	224.759	386.915	177.885	175.938	235.972	317.634	458.410	465.752	468.402	423.958	275.182	429.153	0.00060013	0.0002046	8.1727e-05	1005.3	3.6684e-06	2.8459e-06	1048.5	218.37	4.185e-06	2.3285e-06	264.46	77.913	62.191	18.183	3.6503e-06	24.634	0.00027266	0.00021066	5.973e-05	1028.1	2.545e-06	2.2719e-06	1073.6	224.98	2.4508e-06	2.2491e-06	273.95	80.274	64.345	19.132	1.9131e-06	25.898	487.229	251.536	210.428	172.129	282.944	352.472	171.705	178.864	263.956	337.274	178.736	183.831	184.466	191.180	281.516	190.366	-8191	255	
21434.379	1	1	0	0	0.078131	0.14066	0.12702	0.097275	0.18796	0.046673	0.081807	0.22286	0.048512	0.061956	0.18857	0.13403	0.24706	0.17883	0.036916	0.18606	-2.4042	-2.6896	-2.5979	-3.0271	-2.5021	-2.9229	-2.95	-2.5917	-2.8417	-2.7625	-2.6562	-2.85	-2.5583	-2.9354	-2.6625	-2.6875	405.997	480.127	409.664	315.882	263.755	393.352	388.452	368.264	358.705	397.758	465.217	488.340	508.940	483.121	284.870	452.767	0.00058994	0.0002977	9.7594e-05	1002.4	3.1551e-06	2.4883e-06	1043.7	217.51	3.6565e-06	1.9177e-06	264.25	77.051	61.722	18.131	3.0041e-06	24.426	0.00023989	0.0001612	4.4707e-05	1024.8	2.0737e-06	1.6841e-06	1070.5	223.52	1.8521e-06	1.7547e-06	273.01	79.733	63.719	19.001	1.866e-06	25.686	483.805	256.347	245.260	172.031	298.405	319.521	171.737	178.754	282.943	307.512	178.499	184.253	184.567	191.157	294.655	191.158	-8191	255	
21434.475	1	1	0	0	0.16152	0.14195	0.070724	0.13997	0.25481	0.35587	0.073481	0.1977	0.064771	0.25168	0.039634	0.11808	0.20194	0.20013	0.10265	0.14046	-2.2125	-2.4521	-2.7458	-2.9417	-2.8229	-2.8708	-2.8854	-2.6042	-2.9125	-2.7875	-2.6833	-2.8479	-2.575	-2.7438	-2.7708	-2.4792	321.898	226.922	366.951	174.613	329.381	271.031	364.589	316.514	257.167	196.042	410.586	451.283	513.587	464.401	467.937	462.029	0.0005708	0.00037293	6.8764e-05	1000.7	3.7754e-06	2.6684e-06	1044.1	215.88	5.0112e-06	3.0044e-06	262.43	77.515	62.023	18.055	3.097e-06	24.334	0.00023745	0.00016826	4.7792e-05	1022.4	2.174e-06	1.9934e-06	1069.3	222.28	2.3654e-06	2.2529e-06	271.38	79.691	63.677	18.942	3.0643e-06	25.668	480.323	250.582	260.567	171.914	271.374	295.188	171.711	178.789	261.719	325.300	178.400	184.441	184.330	190.789	311.970	190.690	-8191	255	
21434.568	1	1	0	0	0.21322	0.17346	0.13732	0.10321	0.35274	0.20517	0.15598	0.084201	0.097219	0.15381	0.2488	0.34785	0.24709	0.24762	0.28003	0.35456	-2.3708	-2.5187	-2.6437	-3.1271	-2.5958	-2.7083	-2.9833	-2.5042	-2.6979	-2.7167	-2.825	-2.7542	-2.6854	-2.7917	-2.8979	-2.8042	253.896	415.758	247.904	512.236	382.863	492.023	485.613	242.160	447.744	502.085	458.450	474.296	516.458	470.349	310.243	477.795	0.00055847	0.00016343	5.4932e-05	998.44	3.0982e-06	3.6596e-06	1040.2	215.43	2.5863e-06	4.3012e-06	263.52	76.877	61.993	17.982	2.5096e-06	24.282	0.00033984	0.00030561	8.5193e-05	1020.9	3.4723e-06	3.5724e-06	1067.3	222.1	3.4883e-06	3.3888e-06	271.84	79.697	63.886	18.985	3.0494e-06	25.729	477.347	256.735	270.370	172.186	294.373	314.166	171.826	178.669	232.050	325.430	178.412	184.147	184.719	191.251	281.815	191.060	-8191	255	
21434.664	1	1	0	0	0.060147	0.15257	0.27956	0.087301	0.26074	0.17721	0.52815	0.14456	0.086906	0.095144	0.18132	0.2914	0.44741	0.008856	0.086505	0.13797	-2.4667	-2.6708	-2.5167	-2.9625	-2.6396	-2.7375	-3.0667	-2.7958	-2.7104	-2.8125	-2.6896	-2.7188	-2.6896	-2.5979	-2.8979	-2.575	266.284	300.676	485.278	458.106	455.693	415.438	454.735	507.873	471.414	293.220	176.929	169.645	297.680	219.575	278.968	306.747	0.00058403	0.00026718	9.8347e-05	1000.4	3.9393e-06	2.8907e-06	1043.8	217.29	4.8435e-06	4.4521e-06	264.17	77.171	62.113	18.118	2.1658e-06	24.44	0.00032859	0.00028268	8.1455e-05	1022.8	3.0487e-06	3.0328e-06	1068.2	223.26	3.2149e-06	3.0438e-06	272.47	79.904	63.934	19.06	2.8769e-06	25.755	485.551	279.796	259.327	172.028	252.750	317.266	171.809	178.588	266.883	320.078	178.580	184.513	184.389	191.051	297.956	190.528	-8191	255	
21434.785	1	1	0	0	0.12588	0.2069	0.08244	0.15125	0.18808	0.12766	0.31276	0.095914	0.11594	0.20435	0.23203	0.26877	0.088507	0.39942	0.18466	0.2211	-2.2875	-2.7604	-2.4646	-2.8937	-2.7375	-2.6917	-2.9417	-2.7062	-2.7979	-2.8833	-2.7354	-2.7333	-2.7812	-2.6188	-2.8896	-2.6917	176.576	201.269	203.171	464.930	375.972	505.949	432.624	369.897	483.848	469.917	163.027	484.471	518.942	512.968	275.681	357.250	0.00059765	0.00030517	5.8248e-05	996.54	2.9931e-06	2.1289e-06	1040.3	216.98	4.1575e-06	2.016e-06	263.06	77.515	62.246	18.159	3.169e-06	24.483	0.00030797	0.00023672	6.8996e-05	1019.9	2.8604e-06	2.788e-06	1066.9	223.02	2.9663e-06	2.7099e-06	272.31	79.845	64.131	19.106	2.7687e-06	25.876	483.866	241.514	249.658	172.095	261.490	287.949	171.883	178.421	239.995	307.041	178.411	183.947	184.690	190.951	267.152	191.313	-8191	255	
21434.883	1	1	0	0	0.056689	0.16716	0.25641	0.25198	0.10714	0.11259	0.35483	0.20906	0.21831	0.1975	0.088732	0.090724	0.24317	0.074844	0.02861	0.16504	-2.3646	-2.7833	-2.5604	-2.9833	-2.7896	-2.7792	-3.125	-2.7313	-2.6292	-2.8312	-2.6	-2.8771	-2.7354	-2.7771	-2.9396	-2.6979	399.854	177.394	462.217	469.940	161.470	333.193	498.373	387.694	373.679	479.540	235.568	439.815	253.321	444.499	355.454	462.518	0.00061313	0.00022433	8.7081e-05	996.91	3.1954e-06	3.0537e-06	1039.6	217.22	5.7545e-06	2.4579e-06	263.18	77.807	62.298	18.345	4.0334e-06	24.773	0.00031078	0.00025116	7.046e-05	1022	2.9107e-06	2.802e-06	1067.4	223.77	3.118e-06	2.8963e-06	272.92	80.34	64.475	19.262	2.7198e-06	25.994	483.049	256.904	283.020	172.199	286.332	292.688	171.894	178.745	274.523	310.938	178.365	184.100	184.148	190.922	289.236	190.633	-8191	255	
21434.979	1	1	0	0	0.17006	0.059802	0.20198	0.20287	0.064929	0.23118	0.17209	0.18805	0.30353	0.19564	0.075784	0.17301	0.28962	0.19906	0.28869	0.21304	-2.3604	-2.9271	-2.6646	-2.8479	-2.8146	-2.5938	-3.1354	-2.6979	-2.4417	-2.8917	-2.7208	-2.9125	-2.6875	-2.6583	-2.8708	-2.6354	160.985	328.764	303.957	466.339	326.129	497.379	375.169	386.807	273.345	467.490	384.800	511.902	245.082	412.680	424.504	458.108	0.00056385	0.00029073	5.6554e-05	998.81	2.5678e-06	2.7544e-06	1044.5	218.13	5.0343e-06	2.7688e-06	265.36	77.914	62.635	18.43	2.2779e-06	24.64	0.00030018	0.00023767	7.1863e-05	1022.4	2.8814e-06	2.8058e-06	1070.2	224.55	2.8965e-06	2.7286e-06	274.05	80.517	64.606	19.341	2.7515e-06	26.059	481.493	244.655	275.736	172.186	281.706	346.503	171.851	178.939	251.415	321.825	178.541	184.354	184.728	190.886	290.807	190.567	-8191	255	
21435.051	1	1	0	0	0.083869	0.062012	0.16531	0.20893	0.14126	0.24457	0.17976	0.094741	0.28532	0.18105	0.20106	0.15151	0.15375	0.25625	0.26439	0.22096	-2.1542	-2.7896	-2.4875	-2.7417	-2.9229	-2.6167	-3.0646	-2.7583	-2.7208	-2.9771	-2.8125	-2.6271	-2.8625	-2.4271	-2.7938	-2.8042	499.963	456.265	396.442	450.349	270.873	271.074	452.091	326.092	174.239	314.996	501.954	295.471	458.340	370.502	326.773	497.667	0.00057845	0.00023697	8.3376e-05	1001.3	5.1948e-06	4.3761e-06	1046.6	218.09	5.3967e-06	3.2952e-06	266.85	78.177	62.752	18.364	4.8223e-06	24.587	0.00030509	0.00024153	6.9685e-05	1024.4	2.8621e-06	2.7519e-06	1071.6	224.8	2.842e-06	2.6315e-06	274.75	80.795	64.719	19.303	2.6451e-06	26.034	485.662	251.321	245.641	172.025	284.270	311.190	171.768	178.828	258.995	315.813	178.423	184.163	184.815	191.169	275.613	190.682	-8191	255	
21435.170	1	1	0	0	0.14777	0.019653	0.16605	0.30233	0.18036	0.1299	0.1677	0.10651	0.08832	0.16542	0.0757	0.30833	0.32527	0.16405	0.14021	0.062819	-2.2667	-3.0187	-2.7292	-2.7458	-2.7708	-2.6125	-2.8667	-2.8333	-2.6583	-2.85	-2.7042	-2.6833	-2.9958	-2.65	-2.8479	-2.8146	351.421	163.859	296.792	165.673	412.811	500.281	417.081	312.845	239.821	206.535	368.043	392.980	347.114	256.715	255.930	368.710	0.00053304	0.00025479	0.00011262	998.7	2.6278e-06	1.9328e-06	1041.7	218.25	5.2654e-06	4.5024e-06	263.74	78.225	62.285	18.212	3.7425e-06	24.453	0.00029498	0.00023642	7.0339e-05	1023	2.7898e-06	2.7465e-06	1069.2	224.2	2.8294e-06	2.6383e-06	273.39	80.556	64.161	19.152	2.7026e-06	25.825	481.950	247.048	244.033	171.979	257.862	348.881	171.849	178.642	268.934	300.295	178.541	184.412	184.541	190.825	291.251	190.987	-8191	255	
21435.268	1	1	0	0	0.044722	0.22629	0.053002	0.15177	0.18472	0.21151	0.26532	0.073434	0.24052	0.1688	0.094925	0.013984	0.23074	0.020895	0.23885	0.14336	-1.9562	-2.9854	-2.6063	-2.7917	-2.9792	-2.5667	-2.8792	-2.8729	-2.5187	-2.8854	-2.85	-2.725	-2.775	-2.8146	-2.8729	-2.8667	226.440	327.487	431.865	424.877	238.400	441.501	433.945	161.148	240.198	196.126	506.977	418.536	162.333	259.771	499.348	161.577	0.0005541	0.00021095	7.4295e-05	994.99	3.1682e-06	4.146e-06	1035.5	216.98	5.229e-06	2.0879e-06	264.55	77.553	62.23	18.233	2.5808e-06	24.424	0.00029662	0.00025116	6.8512e-05	1017.8	2.8293e-06	2.7109e-06	1063.4	223.26	2.8376e-06	2.7815e-06	272.6	80.103	64.112	19.142	2.8289e-06	25.82	484.134	267.561	252.864	172.253	251.774	328.612	171.714	178.888	245.665	294.117	178.607	184.386	184.225	190.867	326.247	190.759	-8191	255	
21435.363	1	1	0	0	0.31855	0.33859	0.060189	0.38296	0.11457	0.12532	0.26409	0.068085	0.29338	0.12084	0.19158	0.16687	0.23545	0.23847	0.18945	0.18602	-2.25	-2.6917	-2.75	-2.5125	-2.8812	-2.6271	-2.8458	-2.8354	-2.525	-2.9167	-2.6625	-2.4771	-2.7833	-2.5604	-2.5167	-2.7833	328.642	181.153	230.102	491.730	385.206	419.722	447.068	499.524	188.443	287.273	476.000	383.929	481.228	354.986	489.255	225.568	0.00058657	0.00031949	6.639e-05	993.41	3.381e-06	3.0406e-06	1034.2	215.81	3.9484e-06	2.686e-06	263.99	77.173	62.078	18.075	2.0134e-06	24.361	0.00031118	0.00025042	7.2649e-05	1015.6	2.976e-06	2.7682e-06	1061.8	222.3	3.0644e-06	2.8088e-06	271.94	79.707	63.688	19.017	2.8828e-06	25.689	479.586	213.737	228.120	172.104	261.993	340.873	172.103	178.843	251.415	306.092	178.535	183.765	184.272	191.109	277.855	191.034	-8191	255	
21435.459	1	1	0	0	0.29621	0.17755	0.15938	0.044589	0.20589	0.15699	0.15882	0.19478	0.31797	0.24365	0.13504	0.21489	0.063605	0.062932	0.19174	0.024615	-2.1229	-2.7062	-2.6625	-2.7313	-2.8854	-2.7188	-2.7604	-2.8187	-2.5729	-2.6896	-2.7375	-2.6312	-2.9396	-2.6271	-2.45	-2.9313	402.866	287.754	228.115	510.060	355.340	306.604	436.048	480.372	399.225	414.397	192.287	235.751	214.317	313.173	304.187	451.332	0.00056315	0.00026061	5.4779e-05	986.09	4.2359e-06	3.071e-06	1033.1	215.46	5.3266e-06	2.4278e-06	261.89	76.825	61.703	18.051	2.1107e-06	24.343	0.00030769	0.00026308	7.2806e-05	1012	3.075e-06	2.9908e-06	1059.5	221.66	3.1917e-06	3.0798e-06	270.89	79.624	63.515	18.988	3.0335e-06	25.69	480.427	243.948	256.820	172.039	282.565	309.152	171.907	178.629	277.885	302.509	178.345	183.986	184.770	190.901	290.984	190.942	-8191	255	
21435.578	1	1	0	0	0.14059	0.098441	0.059014	0.26315	0.16005	0.18779	0.045164	0.14445	0.24389	0.23317	0.22049	0.28394	0.050171	0.12528	0.23525	0.17983	-2.0542	-2.5896	-2.8021	-2.7562	-2.8812	-2.8854	-2.7729	-2.9958	-2.7729	-2.6104	-2.9667	-2.525	-2.8667	-2.7104	-2.7125	-2.9354	504.586	347.549	239.342	445.529	203.861	418.656	216.278	395.469	331.077	342.577	353.992	430.326	290.982	246.397	180.365	508.832	0.0005632	0.0002492	7.2057e-05	987.92	4.477e-06	3.1853e-06	1033.7	216.16	3.4806e-06	3.4723e-06	261.55	76.869	61.334	18.058	4.4824e-06	24.492	0.00031635	0.00028385	7.4681e-05	1014	3.206e-06	3.0684e-06	1060	222.24	3.0832e-06	2.939e-06	271.21	79.596	63.64	18.981	2.924e-06	25.72	484.151	261.880	262.323	171.942	279.704	327.363	171.664	178.782	282.962	313.913	178.480	184.428	184.615	191.207	282.313	191.053	-8191	255	
21435.650	1	1	0	0	0.015383	0.14419	0.047487	0.026713	0.13294	0.061378	0.13441	0.066105	0.096753	0.12591	0.25185	0.082317	0.26689	0.049155	0.20762	0.09386	-2.2521	-2.5417	-2.6354	-2.6604	-2.6708	-2.8104	-2.4771	-3.0187	-2.5917	-2.6958	-2.9271	-2.6542	-2.8104	-2.6479	-2.5292	-2.9417	325.071	315.229	183.409	180.358	420.356	486.664	459.007	459.374	205.910	328.474	435.637	254.862	506.273	445.188	289.672	453.059	0.00055054	0.00032094	6.5952e-05	992.63	3.3351e-06	2.1464e-06	1034.4	216.54	4.1928e-06	3.2578e-06	262	76.796	61.807	18.04	4.0058e-06	24.493	0.00031403	0.00028034	7.4548e-05	1014.6	3.0277e-06	2.9345e-06	1059.8	222.12	3.057e-06	3.0001e-06	271.51	79.539	63.776	19.034	2.9702e-06	25.775	485.173	217.976	254.996	172.148	257.502	343.343	171.779	178.708	247.059	324.988	178.586	184.218	184.347	191.150	287.231	190.777	-8191	255	
21435.770	1	1	0	0	0.17731	0.13362	0.29116	0.061938	0.066911	0.05729	0.082946	0.10077	0.23385	0.15829	0.1246	0.15486	0.10037	0.23745	0.15447	0.39536	-2.2146	-2.7	-2.8563	-2.7729	-2.6188	-2.9542	-2.5583	-2.8917	-2.6333	-2.6688	-2.8979	-2.5896	-2.7333	-2.8063	-2.4792	-2.8688	233.893	162.619	178.006	179.774	499.534	514.182	460.621	438.947	400.630	489.099	519.293	516.208	477.899	162.141	161.638	437.001	0.00055024	0.00038314	4.6902e-05	986.69	3.4131e-06	2.7578e-06	1033.4	215.91	4.5963e-06	1.3664e-06	263.14	77.319	61.834	18.266	2.8669e-06	24.443	0.00030803	0.00027648	7.4258e-05	1011.9	3.163e-06	2.9085e-06	1060.3	222.1	3.1198e-06	3.0183e-06	271.66	79.87	63.839	19.117	3.0245e-06	25.821	484.098	264.988	228.908	172.165	244.920	316.007	171.848	178.761	262.567	296.664	179.014	184.314	185.054	190.901	295.316	191.092	-8191	255	
21435.865	1	1	0	0	0.31186	0.34159	0.067406	0.24499	0.095574	0.19927	0.11165	0.21159	0.26202	0.063328	0.080407	0.044434	0.19778	0.38348	0.24145	0.23271	-2.0667	-2.6063	-2.8146	-2.5917	-2.6771	-2.7875	-2.7021	-2.8083	-2.7646	-2.7333	-2.975	-2.7083	-2.4396	-2.8729	-2.5417	-2.8396	388.558	203.639	511.140	499.079	506.518	309.348	244.393	496.531	455.432	467.675	458.178	269.107	516.357	488.770	457.019	420.791	0.00060111	0.00040233	3.8041e-05	988.85	4.9494e-06	5.7509e-06	1036	216.39	3.7407e-06	3.0983e-06	263.29	76.957	61.839	18.346	1.3783e-06	24.527	0.00032355	0.00027795	7.352e-05	1012.9	3.163e-06	2.9586e-06	1060.7	222.7	3.088e-06	2.9736e-06	271.67	79.927	64.027	19.188	3.0399e-06	25.898	482.681	257.264	279.272	172.069	270.106	310.745	171.986	178.736	273.009	345.215	178.453	183.845	184.167	191.006	301.673	190.765	-8191	255	
21435.963	1	1	0	0	0.08539	0.038029	0.17512	0.13392	0.081102	0.11337	0.18947	0.2634	0.098573	0.19721	0.14746	0.16894	0.06638	0.12821	0.23019	0.18501	-2.2458	-2.7021	-2.8521	-2.7979	-2.575	-2.9313	-2.6792	-2.8937	-2.9979	-2.5917	-2.8875	-2.6063	-2.6271	-2.9604	-2.5729	-2.5958	488.957	231.983	494.532	445.991	452.207	301.213	457.273	265.033	343.332	477.392	500.204	502.003	474.352	415.784	423.271	382.152	0.00055362	0.00030905	8.7052e-05	988.86	4.9418e-06	3.3646e-06	1036.2	217.91	4.513e-06	3.1076e-06	262.72	77.762	62.351	18.32	3.0836e-06	24.627	0.00030859	0.00027713	7.4608e-05	1013.9	3.1184e-06	2.8492e-06	1062.6	223.16	3.0771e-06	2.9852e-06	272.09	80.179	64.276	19.222	2.8778e-06	25.989	480.412	246.797	261.220	172.181	270.930	297.261	171.832	178.812	262.644	325.321	178.668	184.181	184.428	190.560	274.497	190.877	-8191	255	
21436.059	1	1	0	0	0.094605	0.029487	0.14742	0.13706	0.12588	0.15142	0.19191	0.18637	0.041003	0.25453	0.31198	0.046258	0.04219	0.22643	0.070201	0.24964	-2.4021	-2.7208	-2.7938	-2.9271	-2.6333	-3.0583	-2.7979	-2.7792	-2.8354	-2.6813	-2.7708	-2.6917	-2.35	-2.8563	-2.5083	-2.7208	354.010	177.932	172.992	174.656	336.091	508.063	408.428	472.297	236.306	450.049	186.856	440.615	407.073	349.160	400.718	495.887	0.00059205	0.00021211	6.7954e-05	994.49	3.4606e-06	1.1927e-06	1035.8	217.54	6.6977e-06	2.4224e-06	264.59	77.218	62.289	18.301	2.0482e-06	24.749	0.00031298	0.00027899	7.7185e-05	1017.7	3.0623e-06	2.9489e-06	1063.6	223.58	2.9785e-06	2.9285e-06	273.06	80.148	64.334	19.259	2.8049e-06	26.073	484.196	256.184	293.822	171.880	276.282	277.787	171.776	178.711	260.919	311.030	178.643	184.044	184.220	190.555	284.724	190.502	-8191	255	
21436.180	1	1	0	0	0.24373	0.10299	0.21354	0.18503	0.11955	0.069637	0.16379	0.048035	0.23316	0.26671	0.044305	0.10449	0.050974	0.26634	0.22195	0.12608	-2.3937	-2.4625	-2.8104	-2.9083	-2.5479	-2.8708	-2.6896	-2.6875	-2.825	-2.6875	-2.8167	-2.7771	-2.4729	-2.8958	-2.5292	-2.6458	272.049	173.863	196.718	399.050	494.638	513.462	181.957	513.581	267.509	197.809	450.061	229.589	226.630	374.270	473.104	237.281	0.00060422	0.0002887	0.00010458	995.58	4.3166e-06	3.1995e-06	1037.4	217.24	6.2852e-06	3.5256e-06	263.38	77.798	62.717	18.398	4.2168e-06	24.663	0.00031669	0.0002757	7.3e-05	1017.4	3.1017e-06	2.92e-06	1064.3	223.68	2.9384e-06	3.0025e-06	272.84	80.392	64.395	19.289	2.8878e-06	26.025	484.997	234.547	248.485	172.087	271.323	288.032	171.964	178.683	237.962	321.815	178.443	184.306	184.656	190.718	298.752	191.060	-8191	255	
21436.275	1	1	0	0	0.24305	0.18316	0.13309	0.23081	0.054869	0.045938	0.070238	0.22653	0.29762	0.22352	0.1783	0.1991	0.17487	0.37169	0.16349	0.16678	-2.3563	-2.3771	-2.7771	-2.8646	-2.4833	-2.8542	-2.8063	-2.575	-2.7583	-2.6208	-2.6937	-2.7458	-2.6271	-2.7938	-2.7687	-2.6375	338.519	235.720	365.717	496.595	501.161	452.169	475.850	460.598	297.314	296.133	203.422	473.002	194.572	190.502	376.737	224.947	0.00054741	0.00030103	9.5259e-05	993.19	3.7683e-06	2.0758e-06	1032.8	217.59	5.1633e-06	2.3147e-06	262.63	77.397	62.275	18.37	2.0434e-06	24.65	0.00031329	0.0002724	7.5237e-05	1016.9	3.2279e-06	2.9022e-06	1062.1	224.04	3.0265e-06	2.9328e-06	272.54	80.323	64.285	19.271	2.8638e-06	26.038	483.187	208.391	239.454	172.167	283.268	293.963	171.953	178.529	278.466	302.807	178.795	184.204	184.556	190.871	288.940	190.745	-8191	255	
21436.348	1	1	0	0	0.2247	0.094446	0.4751	0.12258	0.069598	0.38285	0.10147	0.22207	0.19509	0.046878	0.034748	0.094153	0.1387	0.20864	0.16348	0.18232	-2.5292	-2.5875	-2.5708	-3.0333	-2.5542	-2.8479	-2.7604	-2.5729	-2.8667	-2.5771	-2.6396	-2.9792	-2.625	-2.8125	-2.7687	-2.6667	426.311	426.649	369.814	482.252	423.411	458.230	519.701	462.886	430.640	409.415	223.794	375.947	169.325	344.691	377.699	427.933	0.000552	0.00030688	5.1618e-05	991.66	4.5033e-06	3.4595e-06	1036.4	217.16	3.7462e-06	1.6574e-06	263.36	77.745	61.981	18.247	2.5196e-06	24.688	0.00030571	0.00027344	7.5673e-05	1014.9	3.1898e-06	2.9215e-06	1061.5	223.39	2.9549e-06	2.9938e-06	272.71	80.448	64.223	19.24	2.8592e-06	26.026	482.238	261.814	222.884	172.089	298.403	314.621	171.953	178.582	271.315	277.340	178.354	183.923	184.507	191.079	285.336	190.571	-8191	255	
21436.469	1	1	0	0	0.16565	0.20851	0.10736	0.14965	0.07169	0.096573	0.29713	0.27169	0.087274	0.024566	0.048484	0.27417	0.14351	0.2663	0.19105	0.22374	-2.4271	-2.625	-2.6021	-3.0479	-2.4562	-2.8229	-2.8937	-2.5771	-2.8792	-2.6375	-2.6917	-2.8937	-2.5542	-2.725	-2.8271	-2.7146	300.803	370.216	292.834	461.019	355.624	313.325	473.549	436.366	188.753	415.650	458.980	465.461	464.537	178.734	221.397	462.195	0.00056582	0.00016594	0.0001221	988.4	2.9135e-06	1.7275e-06	1038.7	216.84	4.2534e-06	1.5764e-06	264.25	77.642	62.368	18.317	2.8809e-06	24.546	0.00030534	0.00026577	7.5334e-05	1015.5	3.0505e-06	2.9913e-06	1063.1	223.56	2.9292e-06	2.8929e-06	272.78	80.338	64.363	19.286	2.9901e-06	26.033	478.676	256.246	230.878	172.001	281.712	274.966	171.829	179.109	263.465	318.006	178.557	184.191	184.618	190.920	300.510	190.757	-8191	255	
21436.562	1	1	0	0	0.17945	0.18367	0.062632	0.22703	0.062722	0.24584	0.16033	0.088624	0.070017	0.21621	0.18108	0.36271	0.11478	0.098668	0.13165	0.054662	-2.5604	-2.7125	-2.4938	-2.8979	-2.7188	-2.8771	-2.8167	-2.5812	-2.8417	-2.5854	-2.7167	-2.8563	-2.7792	-2.6958	-2.8021	-2.5167	313.544	210.260	458.351	275.987	403.612	168.405	385.445	498.563	330.345	350.264	347.254	179.626	255.101	219.646	258.585	373.405	0.00058546	0.00045244	7.3974e-05	995.86	3.8032e-06	2.7132e-06	1036.5	216.81	3.5985e-06	1.4216e-06	265.05	77.611	62.376	18.295	2.7243e-06	24.721	0.0003059	0.00026993	7.0762e-05	1017	3.1052e-06	2.9393e-06	1063.3	223.42	3.0797e-06	3.0082e-06	273.54	80.31	64.426	19.296	2.79e-06	26.095	479.587	251.324	230.216	172.076	267.739	317.621	171.823	178.500	274.144	303.641	178.517	184.374	184.424	190.804	283.359	190.816	-8191	255	
21436.658	1	1	0	0	0.21739	0.14978	0.27246	0.24353	0.20695	0.032495	0.22664	0.16426	0.19041	0.048475	0.095076	0.27908	0.050988	0.10343	0.15576	0.020203	-2.4792	-2.6437	-2.5687	-3.0271	-2.7375	-2.85	-3.125	-2.7292	-2.7333	-2.65	-2.6937	-2.8229	-2.6688	-2.8396	-3.0333	-2.6437	394.023	216.932	345.012	462.825	161.349	274.909	447.088	218.293	266.420	476.848	227.561	169.161	334.189	462.495	382.933	399.802	0.0005621	0.00034165	9.8231e-05	992.67	4.2089e-06	3.8324e-06	1041.8	218.27	4.3889e-06	2.4957e-06	264.33	77.705	61.829	18.319	3.5661e-06	24.413	0.00031137	0.00027396	7.7318e-05	1016.3	3.0649e-06	3.0361e-06	1065.7	224.26	3.0378e-06	2.9131e-06	273.32	80.468	64.408	19.318	2.8909e-06	26.036	482.635	261.103	244.605	172.318	269.487	301.316	172.014	178.690	250.101	346.576	178.334	184.055	184.539	191.061	304.135	190.807	-8191	255	
21436.754	1	1	0	0	0.25333	0.21049	0.10974	0.30188	0.20802	0.091933	0.25977	0.20418	0.077867	0.058693	0.30075	0.34509	0.14157	0.16681	0.2442	0.1828	-2.3375	-2.8292	-2.5062	-2.9146	-2.7375	-2.5729	-2.8979	-2.6542	-2.8688	-2.5521	-2.6229	-2.6813	-2.6146	-2.6125	-2.7958	-2.7687	425.828	180.723	208.371	434.087	413.351	488.718	229.823	481.470	317.319	185.846	433.552	429.964	403.135	195.752	255.233	420.114	0.00053159	0.0003626	6.6847e-05	994.67	3.2169e-06	3.697e-06	1038.3	218.35	3.5928e-06	3.6748e-06	262.91	77.911	62.821	18.312	2.9963e-06	24.723	0.00030822	0.00027422	7.6592e-05	1018	3.0864e-06	3.0178e-06	1063.8	223.74	3.0138e-06	2.9342e-06	273.49	80.582	64.397	19.295	2.9706e-06	26.091	481.215	239.142	254.964	172.064	274.489	326.884	171.859	178.517	254.227	329.624	178.393	184.242	184.575	191.114	263.786	190.659	-8191	255	
21436.875	1	1	0	0	0.1522	0.071402	0.11477	0.083901	0.17275	0.17932	0.33385	0.17627	0.29663	0.11957	0.3566	0.36119	0.11424	0.25384	0.24365	0.29747	-2.1729	-2.7771	-2.525	-2.8812	-2.5271	-2.5604	-3.0646	-2.7271	-2.7562	-3.0375	-2.5354	-2.8396	-2.7896	-2.6354	-2.8917	-2.5479	206.500	406.375	304.273	345.236	188.878	305.951	461.198	373.570	319.124	335.070	443.509	205.224	509.220	502.885	224.071	187.845	0.00054502	0.00019665	0.00013773	995.9	4.1871e-06	2.6755e-06	1037	217.68	5.4824e-06	2.8614e-06	264.27	77.75	62.647	18.3	3.9027e-06	24.683	0.00031591	0.00026299	7.4125e-05	1017.8	3.0952e-06	3.0284e-06	1064.5	223.81	2.9951e-06	2.8386e-06	273.33	80.325	64.445	19.262	2.9032e-06	26.018	484.007	263.143	258.767	172.249	279.772	353.962	171.988	178.757	255.443	305.773	178.297	184.234	184.457	190.537	296.981	191.137	-8191	255	
21436.947	1	1	0	0	0.20531	0.05401	0.19204	0.19277	0.077369	0.30429	0.29376	0.12114	0.048778	0.21736	0.29177	0.10309	0.11259	0.28649	0.2962	0.31062	-2.2917	-3.0146	-2.5771	-2.9646	-2.8896	-2.6333	-2.7625	-2.5708	-2.6083	-2.9354	-2.6354	-2.8708	-2.8042	-2.4125	-2.85	-2.75	256.249	319.288	461.481	428.747	425.575	263.915	460.145	438.631	233.765	330.069	479.068	516.307	260.585	420.822	181.958	452.011	0.00056754	0.00032286	8.7452e-05	996.07	4.7002e-06	2.8109e-06	1037.7	218.22	4.7303e-06	2.5946e-06	264.52	77.813	62.488	18.509	2.8274e-06	24.746	0.00031851	0.00025992	7.7306e-05	1018.1	3.0404e-06	2.9224e-06	1064.1	224.41	3.0609e-06	2.8987e-06	273.73	80.584	64.524	19.351	2.8452e-06	26.063	483.864	233.917	249.449	172.127	283.057	328.175	171.895	178.890	279.850	307.753	178.377	184.347	184.808	190.544	280.404	190.523	-8191	255	
21437.043	1	1	0	0	0.23467	0.15338	0.12019	0.10936	0.29628	0.05157	0.25063	0.11533	0.23615	0.078588	0.35679	0.25134	0.068711	0.048304	0.22606	0.2643	-2.1792	-2.7979	-2.525	-3.0854	-2.9583	-2.5563	-2.9854	-2.8604	-2.6229	-2.9	-2.6833	-2.5542	-2.7188	-2.4479	-2.9625	-2.6	217.852	261.542	385.038	365.241	228.837	505.247	418.019	442.778	265.893	440.365	399.327	192.712	415.546	173.225	191.182	340.243	0.00059042	0.00030554	7.5041e-05	995.02	5.1926e-06	3.6454e-06	1038.1	217.07	4.9321e-06	3.0309e-06	264.47	78.13	62.332	18.345	2.4537e-06	24.641	0.000328	0.00026386	7.5358e-05	1018.7	3.0759e-06	3.0005e-06	1063.8	224.03	3.0334e-06	2.9573e-06	273.28	80.425	64.408	19.319	2.8751e-06	26.017	481.752	236.868	241.422	172.037	287.719	318.936	171.870	178.786	252.491	326.779	178.632	184.462	184.589	191.059	287.728	190.646	-8191	255	
21437.139	1	1	0	0	0.38795	0.096904	0.18174	0.19863	0.07226	0.20946	0.27437	0.28272	0.24853	0.09744	0.20141	0.36478	0.086886	0.14956	0.074099	0.31928	-2.1	-2.7917	-2.575	-2.9146	-2.8292	-2.5333	-2.85	-2.7938	-2.5812	-2.9229	-2.6188	-2.6979	-2.8937	-2.7396	-2.8312	-2.7625	215.169	226.590	207.055	439.946	513.365	500.393	437.982	473.562	257.188	335.234	411.182	173.773	382.589	448.020	278.187	473.629	0.0006098	0.00039881	8.827e-05	995.77	3.8467e-06	3.8566e-06	1036.5	217.61	4.4534e-06	3.2729e-06	265.7	78.145	62.524	18.387	3.5409e-06	24.657	0.00032343	0.00027557	7.652e-05	1017.8	3.0207e-06	2.9971e-06	1064.9	224.31	3.1115e-06	2.9467e-06	273.89	80.566	64.549	19.343	2.9176e-06	26.047	477.654	242.683	259.539	172.062	281.619	309.978	171.867	178.536	273.849	313.470	178.207	184.085	184.759	190.859	283.414	190.836	-8191	255	
21437.260	1	1	0	0	0.16523	0.171	0.079299	0.36332	0.10098	0.26561	0.21155	0.061539	0.45648	0.33689	0.12333	0.14534	0.060482	0.25383	0.028413	0.042417	-2.2125	-2.7313	-2.4917	-2.5438	-3.05	-2.4604	-2.6729	-2.8187	-2.5958	-2.8958	-2.8083	-2.5667	-2.7083	-2.7104	-2.6021	-2.675	322.368	246.409	211.317	414.528	194.688	499.046	350.607	369.269	408.754	174.793	437.964	485.970	243.519	395.610	385.242	266.704	0.00053309	0.00027326	6.8172e-05	995.95	4.1286e-06	2.8029e-06	1043.6	218.23	3.7684e-06	2.7686e-06	263.99	78.032	62.648	18.412	2.2134e-06	24.464	0.00031598	0.0002633	7.4971e-05	1019	3.0286e-06	2.9759e-06	1066.8	224.29	2.9488e-06	2.892e-06	273.7	80.445	64.619	19.316	2.9443e-06	26.035	483.236	233.890	270.438	172.195	262.277	335.651	172.015	178.890	269.065	305.416	178.527	184.162	184.354	190.704	293.065	190.900	-8191	255	
21437.355	1	1	0	0	0.13766	0.18108	0.048985	0.2058	0.13725	0.068814	0.37251	0.085147	0.099896	0.11333	0.28982	0.30001	0.17683	0.28644	0.35489	0.29463	-2.0042	-3.0021	-2.6083	-2.6958	-2.8167	-2.6271	-2.7021	-2.9583	-2.7021	-2.6917	-2.8375	-2.7	-2.9854	-2.7042	-2.7	-2.9021	283.087	461.602	228.970	177.201	321.508	200.193	427.423	436.415	360.840	435.087	193.561	185.244	434.425	462.800	283.486	247.296	0.00058401	0.00027403	9.3282e-05	993.32	4.6245e-06	4.0828e-06	1041.1	217.3	4.4705e-06	3.0564e-06	265.14	77.974	62.497	18.378	2.8646e-06	24.583	0.0003139	0.00026529	7.4778e-05	1018.3	3.0299e-06	3.0087e-06	1066	223.93	3.0352e-06	2.9136e-06	273.78	80.482	64.59	19.357	2.991e-06	26.054	481.425	262.426	240.113	172.153	276.507	302.928	171.800	178.729	280.048	308.914	178.337	184.157	184.503	190.348	275.077	190.976	-8191	255	
21437.451	1	1	0	0	0.20228	0.20897	0.15463	0.17605	0.021839	0.085502	0.16069	0.089943	0.12265	0.061886	0.24368	0.068802	0.19899	0.21075	0.27469	0.21493	-2.2375	-2.5917	-2.6875	-2.6375	-2.8917	-2.6396	-2.6958	-2.8958	-2.5646	-2.6979	-2.775	-2.55	-2.8958	-2.5833	-2.6729	-2.925	385.318	236.757	216.715	422.710	453.096	180.446	374.475	262.003	434.191	443.425	516.755	354.181	247.373	230.791	289.312	372.562	0.00053424	0.00023175	5.191e-05	994.48	2.5341e-06	2.976e-06	1039.9	218.19	4.1434e-06	2.842e-06	264.12	77.756	62.783	18.367	3.6084e-06	24.72	0.00031446	0.00026954	7.225e-05	1017	3.057e-06	2.9696e-06	1065.1	224.74	3.2162e-06	2.9242e-06	273.28	80.523	64.515	19.294	2.8375e-06	26.1	480.194	232.341	234.836	172.072	294.314	306.622	171.867	178.801	298.006	325.929	178.225	184.161	184.622	190.809	310.445	190.697	-8191	255	
21437.549	1	1	0	0	0.15893	0.099544	0.26287	0.30505	0.23917	0.082012	0.33457	0.24882	0.037901	0.1889	0.31779	0.045847	0.18578	0.19457	0.030926	0.17224	-2.1458	-2.6792	-2.6021	-2.7021	-2.8583	-2.7021	-2.6688	-3.0229	-2.3896	-2.7979	-2.7479	-2.5667	-2.9313	-2.8	-2.7812	-2.9667	248.712	262.593	456.052	497.500	414.544	480.799	478.440	443.132	480.646	221.771	364.008	354.073	273.056	508.062	504.607	514.570	0.00062297	0.00028853	8.2187e-05	995.84	4.4531e-06	3.2859e-06	1045.2	217.45	5.1086e-06	2.1883e-06	265.08	78.097	62.599	18.318	2.9906e-06	24.616	0.00032565	0.00026958	7.6072e-05	1019.4	3.0549e-06	3.0159e-06	1067.3	224.63	3.0871e-06	2.9602e-06	273.98	80.729	64.612	19.346	3.0123e-06	26.068	485.090	251.633	258.105	172.269	278.453	315.143	171.939	178.784	268.297	313.981	178.419	184.094	184.511	191.120	309.561	190.480	-8191	255	
21437.643	1	1	0	0	0.24603	0.19113	0.15909	0.079637	0.33094	0.1605	0.12296	0.15239	0.12778	0.19419	0.26279	0.15091	0.18572	0.18171	0.053461	0.25095	-2	-2.6833	-2.9437	-2.5896	-2.8333	-2.7062	-2.7562	-2.8917	-2.5125	-2.5146	-2.8896	-2.6542	-2.8958	-2.7854	-2.7104	-3.0563	238.400	266.344	432.610	201.003	395.035	273.490	471.484	403.070	164.960	276.194	490.917	466.566	389.349	515.765	204.629	342.786	0.00057798	0.00035712	5.593e-05	994.14	4.8251e-06	2.3493e-06	1040.5	218.42	4.9206e-06	2.2408e-06	266.01	77.934	62.861	18.453	2.461e-06	24.552	0.00032043	0.00027431	7.5673e-05	1018.8	3.1885e-06	2.9306e-06	1065.8	224.57	3.1185e-06	2.8968e-06	274.1	80.597	64.55	19.362	3.0258e-06	26.054	484.281	252.920	263.700	171.934	290.256	302.226	171.805	178.647	281.967	328.864	178.159	184.082	184.628	190.654	291.282	190.690	-8191	255	
21437.740	1	1	0	0	0.1862	0.23382	0.16715	0.28541	0.092415	0.2	0.31692	0.1563	0.15239	0.093344	0.10363	0.21573	0.13988	0.11074	0.24395	0.12176	-2.2583	-2.5687	-2.7812	-2.7625	-2.9	-2.7313	-2.6583	-2.9625	-2.9	-2.5771	-3.0812	-2.5792	-2.5104	-2.8333	-2.7062	-2.85	264.953	233.990	506.862	444.367	433.666	471.549	462.206	311.802	430.024	272.095	508.435	495.552	397.699	392.037	174.391	514.784	0.00058732	0.00029424	6.7642e-05	995.41	4.8962e-06	1.4541e-06	1038	217.98	6.1132e-06	3.5298e-06	266.32	78.146	62.551	18.434	2.6545e-06	24.746	0.00032541	0.0002685	7.4028e-05	1018.6	3.1749e-06	2.973e-06	1065.5	224.44	3.0413e-06	2.9799e-06	274.09	80.555	64.452	19.34	3.1173e-06	26.058	482.324	258.037	280.760	172.019	281.669	287.964	171.720	178.781	265.845	315.826	178.995	183.960	184.424	190.929	283.296	190.620	-8191	255	
21437.859	1	1	0	0	0.074572	0.12394	0.025232	0.10879	0.16186	0.097044	0.27098	0.25974	0.079111	0.2355	0.14983	0.071956	0.16934	0.14588	0.13955	0.1663	-2.2583	-2.6646	-2.8937	-2.7229	-2.8833	-2.9271	-2.6979	-2.9521	-2.9167	-2.5396	-2.7396	-2.5062	-2.7792	-2.8083	-2.5187	-2.9813	459.271	220.657	208.874	368.240	385.190	486.938	448.189	479.782	489.364	283.101	362.022	481.051	332.999	496.488	246.918	500.696	0.00058108	0.00013436	8.4185e-05	996.06	3.2948e-06	2.5683e-06	1038.3	218.38	4.5466e-06	3.8768e-06	264.63	78.468	62.798	18.379	2.821e-06	24.672	0.00032046	0.00027895	7.5068e-05	1018.1	3.1722e-06	2.9354e-06	1063.3	224.46	3.1163e-06	2.9587e-06	273.69	80.699	64.628	19.321	3.0172e-06	26.085	482.329	213.657	248.014	172.132	290.819	303.123	171.889	178.798	282.333	346.166	178.387	184.068	184.616	190.754	319.897	191.012	-8191	255	
21437.953	1	1	0	0	0.12454	0.19148	0.15896	0.076052	0.084708	0.19682	0.18517	0.19176	0.26114	0.026793	0.21257	0.090294	0.08556	0.071242	0.14121	0.18423	-2.3729	-2.6188	-2.9229	-2.7729	-2.85	-2.9437	-2.7979	-2.8167	-2.8812	-2.4792	-2.7271	-2.75	-2.7458	-2.9708	-2.6229	-2.8396	218.160	431.929	410.161	425.883	485.303	277.720	465.795	188.685	253.365	229.650	358.652	430.332	505.830	418.029	309.501	487.164	0.00057353	0.00031846	6.7382e-05	994.32	3.1348e-06	2.9183e-06	1039.6	218.73	4.8241e-06	2.1899e-06	263.9	78.399	62.545	18.463	3.4085e-06	24.717	0.00031517	0.00027496	7.5419e-05	1018.6	3.0111e-06	2.9855e-06	1065.6	224.66	3.0771e-06	2.9852e-06	273.56	80.628	64.479	19.329	3.0344e-06	26.047	481.570	245.837	239.999	172.048	272.041	279.520	171.872	178.568	260.098	306.881	178.590	184.416	184.521	190.949	291.369	190.732	-8191	255	
21438.051	1	1	0	0	0.18196	0.14327	0.054484	0.3835	0.13946	0.2433	0.15725	0.07665	0.12002	0.13163	0.067996	0.12447	0.047412	0.11992	0.15917	0.18728	-2.3771	-2.5812	-2.8	-2.6854	-2.7417	-2.9896	-2.4062	-2.6708	-2.7292	-2.475	-2.8812	-2.7167	-2.5729	-3.05	-2.75	-2.7271	241.060	452.388	396.636	452.454	176.891	184.916	519.116	403.902	365.297	516.585	187.622	457.957	451.733	435.999	299.855	457.402	0.0005812	0.00024684	5.712e-05	992.64	4.6942e-06	2.5594e-06	1037.8	217.9	3.5117e-06	1.1478e-06	264.83	78.358	62.353	18.422	2.7783e-06	24.599	0.00031489	0.0002825	7.4947e-05	1018.2	3.1731e-06	3.0048e-06	1064.9	224.45	3.1015e-06	3.0289e-06	273.87	80.71	64.498	19.392	2.9394e-06	26.043	483.114	247.214	263.500	172.156	268.369	332.678	171.853	178.799	271.703	353.265	178.396	184.046	184.227	190.925	305.146	190.756	-8191	255	
21438.170	1	1	0	0	0.095286	0.07391	0.13166	0.22739	0.11531	0.23144	0.16867	0.094399	0.087911	0.056107	0.10529	0.23094	0.2034	0.052898	0.1224	0.23088	-2.45	-2.6125	-2.6667	-2.9271	-2.4104	-2.8396	-2.8	-2.8042	-2.8521	-2.6917	-2.8479	-2.7458	-2.5271	-2.9792	-2.4854	-2.5521	383.912	334.749	315.397	457.482	281.447	394.534	194.735	463.029	345.431	164.798	427.112	241.810	183.064	163.139	452.477	352.617	0.0005755	0.00023387	7.3985e-05	997.2	3.3895e-06	2.7392e-06	1039.4	217.82	4.4854e-06	3.8443e-06	265.8	77.896	62.602	18.344	3.3048e-06	24.761	0.0003139	0.00027717	7.1028e-05	1019.3	3.0719e-06	2.8969e-06	1066	224.55	2.999e-06	3.0625e-06	273.96	80.565	64.551	19.328	2.8774e-06	26.037	483.956	232.747	233.597	171.933	295.968	286.819	171.749	178.776	260.172	338.812	178.563	184.173	184.583	190.930	293.224	190.776	-8191	255	
21438.242	1	1	0	0	0.13049	0.090968	0.31959	0.1918	0.022055	0.025727	0.022034	0.38358	0.1794	0.21489	0.24875	0.12185	0.15066	0.25922	0.16287	0.016945	-2.5042	-2.3458	-2.6	-2.7896	-2.5708	-2.9979	-2.6437	-2.7208	-2.875	-2.6625	-2.8917	-2.9833	-2.6208	-2.8417	-2.9542	-2.7854	286.799	476.263	378.262	382.366	434.866	517.002	511.901	452.395	188.176	453.402	293.465	454.834	417.383	507.114	166.034	226.199	0.00056124	0.00024772	4.4647e-05	992.77	2.8069e-06	3.6304e-06	1036.2	218.58	4.2569e-06	2.618e-06	265.5	78.139	62.33	18.378	3.6554e-06	24.653	0.00031227	0.00027648	7.4197e-05	1018.2	3.0737e-06	2.9711e-06	1065.1	224.65	2.9933e-06	2.9405e-06	274.09	80.697	64.455	19.341	2.9362e-06	26.099	484.223	236.001	243.891	171.993	286.728	309.199	171.908	178.641	257.936	271.241	178.294	184.141	184.434	190.848	281.658	190.733	-8191	255	
21438.338	1	1	0	0	0.14354	0.10367	0.24189	0.39329	0.286	0.26427	0.42312	0.13289	0.091721	0.1359	0.39689	0.18243	0.29646	0.12899	0.25597	0.12237	-2.4562	-2.5646	-2.7958	-2.9583	-2.65	-3.0292	-2.8875	-2.7729	-2.9125	-2.5625	-2.8021	-2.9062	-2.5979	-2.7604	-2.7042	-2.6646	364.766	174.014	346.017	455.172	320.212	375.657	519.996	304.164	336.101	446.382	492.885	497.137	477.539	287.339	183.510	439.964	0.00059399	0.00023722	6.7489e-05	994.35	3.2407e-06	2.7398e-06	1043.1	218.51	4.428e-06	2.4183e-06	265.2	78.329	62.464	18.438	2.0983e-06	24.707	0.00031131	0.00027518	7.5008e-05	1017.6	3.0093e-06	2.9253e-06	1066.4	224.49	2.9964e-06	2.9193e-06	273.97	80.677	64.584	19.354	2.9539e-06	26.051	484.516	235.122	262.665	172.035	280.692	294.156	171.867	178.866	264.432	288.228	178.328	184.104	184.484	191.076	267.435	190.454	-8191	255	
21438.434	1	1	0	0	0.035825	0.11747	0.10474	0.25127	0.19709	0.1419	0.16719	0.25392	0.03379	0.011762	0.18216	0.081096	0.26775	0.28181	0.15876	0.28667	-2.4604	-2.45	-2.6896	-2.8479	-2.6458	-2.7521	-3.0875	-2.6354	-2.8604	-2.7313	-2.7188	-2.8229	-2.55	-2.7833	-2.8083	-2.6042	220.989	454.403	416.631	439.526	276.344	408.641	411.881	487.723	283.291	359.172	484.532	417.086	375.040	462.385	161.372	447.915	0.00058495	0.00044222	7.2182e-05	993.54	3.877e-06	2.8117e-06	1042.2	218.72	4.436e-06	4.1535e-06	264.79	78.366	62.641	18.487	2.9945e-06	24.822	0.00031353	0.00027474	7.2842e-05	1017.6	3.0408e-06	2.7085e-06	1065.7	224.8	3.016e-06	2.9684e-06	273.95	80.764	64.662	19.387	2.8547e-06	26.107	481.884	252.758	244.704	172.024	268.654	313.218	171.922	178.467	268.528	299.840	178.534	183.969	184.860	190.889	291.660	191.089	-8191	255	
21438.555	1	1	0	0	0.033803	0.20531	0.089958	0.10806	0.10024	0.1051	0.2238	0.097572	0.077433	0.10084	0.24556	0.15945	0.093923	0.28311	0.20964	0.1354	-2.4396	-2.525	-2.7417	-3.0083	-2.5979	-2.7521	-2.8625	-2.5896	-2.9313	-2.8042	-2.6958	-2.8187	-2.6562	-2.6792	-2.7604	-2.7667	422.895	360.496	313.163	397.958	300.546	283.616	490.068	241.521	474.723	201.575	192.338	439.382	504.553	325.824	306.439	496.217	0.00059872	0.00022362	9.8074e-05	994.02	2.357e-06	4.7032e-06	1040	218.37	4.9638e-06	2.3804e-06	264.16	78.329	62.68	18.427	3.9457e-06	24.77	0.00031356	0.00026945	7.7342e-05	1018.6	3.0268e-06	2.8155e-06	1065.6	224.57	2.9628e-06	3.0078e-06	273.88	80.69	64.692	19.357	2.9552e-06	26.088	484.358	272.101	244.060	172.006	286.934	299.971	171.690	178.908	252.725	296.048	178.556	184.147	184.344	190.981	287.052	190.561	-8191	255	
21438.650	1	1	0	0	0.28689	0.16848	0.0554	0.27017	0.17653	0.19274	0.14424	0.37234	0.051167	0.26378	0.15875	0.27988	0.35493	0.14355	0.04751	0.13784	-2.4708	-2.4938	-2.6833	-2.8458	-2.4833	-2.7313	-3.0021	-2.6896	-2.775	-2.7917	-2.6458	-2.9938	-2.6312	-2.65	-2.8333	-2.75	454.892	256.821	417.032	446.156	337.040	213.264	495.210	445.821	290.769	211.702	377.663	492.604	504.430	220.322	412.697	418.910	0.00059079	0.00018121	7.6251e-05	996.46	3.402e-06	1.8687e-06	1039.5	218.61	4.2919e-06	2.7367e-06	265.43	78.105	62.664	18.366	4.1482e-06	24.727	0.00031298	0.00027691	7.4572e-05	1019.4	3.0579e-06	2.8579e-06	1065	224.87	2.9763e-06	2.9136e-06	274.15	80.74	64.531	19.329	2.8783e-06	26.107	483.590	249.152	257.392	172.098	270.910	269.413	171.795	178.616	263.459	334.320	178.485	184.208	184.770	190.944	291.450	190.485	-8191	255	
21438.746	1	1	0	0	0.24541	0.078514	0.29559	0.19889	0.23743	0.35346	0.14783	0.14894	0.16502	0.1015	0.17123	0.27454	0.19717	0.020438	0.075348	0.18477	-2.3396	-2.8375	-2.6396	-3.0625	-2.6917	-2.7542	-3.0417	-2.6792	-2.8521	-2.8208	-2.7333	-2.9083	-2.6937	-2.6833	-2.9958	-2.6833	481.976	161.007	504.613	502.252	253.658	165.882	458.728	223.893	325.200	235.815	303.814	517.819	504.444	474.908	364.184	284.223	0.0005983	0.00022706	4.7591e-05	995.75	3.6905e-06	2.7364e-06	1038.2	217.66	2.9808e-06	2.71e-06	264.81	77.649	62.048	18.468	2.314e-06	24.673	0.00031186	0.00025398	7.6036e-05	1018.7	3.0413e-06	2.921e-06	1064.7	224.31	2.9218e-06	2.9813e-06	273.95	80.586	64.436	19.389	2.9425e-06	26.046	481.088	247.416	233.679	172.054	291.846	337.816	172.066	178.658	250.991	296.734	178.325	184.169	184.177	190.928	298.811	190.690	-8191	255	
21438.818	1	1	0	0	0.064917	0.093633	0.10677	0.15498	0.18481	0.19859	0.21204	0.063072	0.20663	0.088882	0.068227	0.10662	0.12364	0.077452	0.13383	0.10741	-2.5354	-2.7667	-2.4229	-3.0687	-2.6417	-2.7208	-2.9417	-2.6958	-2.8708	-2.8875	-2.5312	-3.0479	-2.7313	-2.5333	-2.8479	-2.6854	336.450	356.541	198.356	493.258	350.851	203.216	450.532	480.229	268.490	174.569	413.168	493.708	214.155	412.801	219.598	244.521	0.00057441	0.0002825	7.4978e-05	995.76	3.9405e-06	3.3672e-06	1038.8	217.51	4.9692e-06	9.88e-07	265.93	77.941	62.283	18.352	2.9771e-06	24.68	0.00031273	0.00026325	7.427e-05	1018.3	3.0895e-06	3.0357e-06	1066.1	224.63	3.1381e-06	2.9145e-06	274.68	80.629	64.442	19.313	2.8538e-06	26.109	482.752	260.368	257.971	172.166	300.764	321.878	171.725	178.713	261.412	304.574	178.387	184.097	184.008	191.198	301.395	190.706	-8191	255	
21438.939	1	1	0	0	0.099639	0.22163	0.17008	0.12282	0.31061	0.16314	0.20794	0.26473	0.12707	0.1445	0.17742	0.17537	0.077047	0.24991	0.10941	0.12077	-2.2896	-2.675	-2.5167	-2.7583	-2.7521	-2.6771	-2.8208	-2.6958	-2.6396	-2.8354	-2.6125	-2.6854	-2.7062	-2.7375	-2.6708	-2.6771	485.574	264.799	358.427	462.456	201.882	406.949	418.878	428.279	287.882	439.894	516.085	325.241	507.837	255.924	455.122	228.722	0.00057129	0.00034496	5.0751e-05	993.35	3.9277e-06	2.0261e-06	1035.1	218.19	3.539e-06	2.8415e-06	265.72	77.848	62.77	18.372	1.8397e-06	24.728	0.00031557	0.0002659	7.4657e-05	1018	3.1149e-06	2.9528e-06	1064	224.63	3.0478e-06	2.8511e-06	274.61	80.69	64.541	19.33	2.924e-06	26.102	483.796	236.777	268.743	172.119	280.266	289.462	171.845	178.673	270.905	300.174	178.409	183.838	184.579	191.033	315.826	190.519	-8191	255	
21439.033	1	1	0	0	0.093092	0.17517	0.15954	0.13191	0.10803	0.20551	0.10033	0.11908	0.052951	0.068203	0.12792	0.066714	0.15661	0.17118	0.087518	0.18115	-2.2896	-2.8146	-2.5417	-3.0062	-2.7271	-2.5812	-2.85	-2.7313	-2.5187	-3.1354	-2.7917	-2.5687	-2.7167	-2.6333	-2.8688	-2.8625	362.259	315.464	455.412	196.329	330.592	186.044	424.891	413.366	375.572	294.281	183.415	317.041	247.518	330.503	421.603	212.943	0.00055801	0.00025038	0.0001236	993.38	3.1616e-06	3.8848e-06	1038.2	218.75	4.2707e-06	3.6845e-06	264.61	77.963	62.362	18.386	4.0501e-06	24.544	0.00030951	0.00026594	7.6641e-05	1016.8	3.0422e-06	2.9827e-06	1065.4	224.5	3.0352e-06	2.8612e-06	273.58	80.593	64.481	19.35	2.8674e-06	26.068	478.990	236.113	265.501	172.169	263.424	315.502	171.718	178.801	255.909	326.893	178.423	184.179	184.419	190.752	286.978	190.816	-8191	255	
21439.133	1	1	0	0	0.25433	0.060448	0.05097	0.14038	0.19085	0.20077	0.16711	0.099338	0.30672	0.15712	0.27641	0.20192	0.29327	0.15837	0.12415	0.21722	-2.2146	-2.7625	-2.6875	-2.9729	-2.7938	-2.5708	-2.8438	-2.7562	-2.5875	-2.8208	-2.6854	-2.6667	-2.9	-2.6271	-3.0583	-2.8625	337.084	506.050	332.952	433.919	186.548	395.796	324.265	380.478	505.300	349.730	165.685	508.470	380.866	192.537	368.757	498.828	0.00058258	0.0003486	7.7361e-05	994.81	3.5624e-06	2.7452e-06	1038.3	218.52	3.99e-06	3.7445e-06	263.82	78.058	62.139	18.35	3.6169e-06	24.634	0.00031091	0.00027375	7.6471e-05	1017.6	3.0426e-06	3.052e-06	1064.7	224.56	2.9706e-06	2.8136e-06	273.71	80.698	64.472	19.348	2.9326e-06	26.108	481.410	238.370	274.691	172.166	278.379	290.086	172.025	178.678	264.495	296.182	178.527	183.853	184.689	190.856	280.130	191.024	-8191	255	
21439.252	1	1	0	0	0.092497	0.1907	0.13504	0.13358	0.05838	0.11897	0.24109	0.23437	0.14151	0.10314	0.13547	0.14777	0.19468	0.04102	0.22039	0.16097	-2.2562	-2.7729	-2.4188	-2.8187	-2.8979	-2.6208	-2.8792	-2.9146	-2.4125	-2.8563	-2.8	-2.6125	-2.925	-2.675	-2.75	-2.6583	167.316	210.907	349.785	243.942	163.658	505.265	172.785	161.091	285.649	425.279	458.142	191.988	373.685	276.001	186.879	188.712	0.0005911	0.00028241	8.4204e-05	993.37	2.8716e-06	3.4874e-06	1039.2	218.29	4.1e-06	3.7263e-06	264.49	78.043	62.51	18.493	3.0139e-06	24.701	0.00031644	0.00026538	7.4367e-05	1017.3	3.0763e-06	2.9619e-06	1064.2	224.56	3.0304e-06	2.9419e-06	274.01	80.598	64.473	19.341	2.9285e-06	26.065	481.169	244.540	225.649	171.951	275.391	326.724	171.833	178.811	262.706	323.641	178.118	184.313	184.268	191.173	285.033	190.744	-8191	255	
21439.348	1	1	0	0	0.16191	0.081875	0.10177	0.27216	0.16762	0.12138	0.27523	0.11058	0.28627	0.17342	0.11217	0.11766	0.25089	0.02581	0.21052	0.24994	-2.0729	-2.7833	-2.5708	-2.7083	-2.9792	-2.6458	-2.9917	-2.8646	-2.5542	-2.7	-2.7604	-2.6542	-2.6937	-2.7687	-2.75	-2.8896	199.808	355.219	347.705	183.998	220.000	445.039	279.956	408.384	184.009	494.591	500.318	460.964	313.057	355.664	208.725	376.506	0.00056461	0.00042167	6.8039e-05	993.99	1.27e-06	2.8931e-06	1035.7	217.85	4.7071e-06	1.9633e-06	263.59	78.072	62.321	18.504	3.0188e-06	24.853	0.00031202	0.00026716	7.5673e-05	1017.4	3.0001e-06	2.9277e-06	1063.2	224.46	2.9772e-06	2.8924e-06	273.47	80.553	64.535	19.416	2.8669e-06	26.126	484.205	232.314	255.329	172.176	261.824	319.183	171.925	178.645	266.652	326.297	178.410	184.168	184.498	191.157	296.934	190.899	-8191	255	
21439.443	1	1	0	0	0.26469	0.1343	0.090584	0.17323	0.25656	0.16999	0.24547	0.04704	0.077374	0.093382	0.13273	0.12762	0.47247	0.39748	0.1088	0.11232	-2.3542	-2.7562	-2.6875	-2.5917	-2.9188	-2.7396	-2.7479	-2.8937	-2.4833	-2.8208	-2.7896	-2.6021	-2.8771	-2.5521	-2.5208	-2.6625	508.245	302.247	463.432	481.175	372.262	492.935	387.359	350.085	309.833	498.172	515.740	377.605	211.282	161.005	335.184	508.688	0.00058034	0.00022836	4.8392e-05	992.06	4.3998e-06	2.1452e-06	1036.6	217.97	5.1427e-06	2.5313e-06	265.38	78.158	62.684	18.45	2.643e-06	24.793	0.00031264	0.00026195	7.4693e-05	1015.8	2.9475e-06	2.8473e-06	1063.7	224.05	3.1054e-06	2.8401e-06	274.09	80.552	64.583	19.337	2.8633e-06	26.122	481.748	259.865	258.512	172.291	274.343	297.885	171.740	178.775	280.333	319.065	178.264	184.317	184.294	190.858	284.480	190.536	-8191	255	
21439.539	1	1	0	0	0.26825	0.1627	0.10956	0.099941	0.076714	0.23992	0.071639	0.2388	0.033207	0.053694	0.19131	0.16492	0.4534	0.24522	0.093972	0.10609	-2.1375	-2.7542	-2.6458	-2.6729	-2.9	-2.5083	-2.8187	-3.0167	-2.5438	-2.8667	-2.7125	-2.4625	-2.8125	-2.7125	-2.4979	-2.9333	225.661	169.079	442.627	464.961	256.683	470.751	371.188	519.060	372.563	452.018	255.045	284.473	458.149	195.906	461.195	301.215	0.00058054	0.00030193	8.6778e-05	991.87	3.6403e-06	2.9585e-06	1036.7	217.86	3.0245e-06	1.5083e-06	265.35	77.576	62.511	18.427	2.3544e-06	24.74	0.00031356	0.00028172	7.0968e-05	1016.8	3.0654e-06	2.9851e-06	1063.7	224.3	3.0579e-06	2.7829e-06	273.93	80.518	64.67	19.4	2.8728e-06	26.135	483.104	266.170	231.425	172.309	278.524	335.635	172.045	178.839	275.545	329.553	178.350	184.041	184.282	190.702	299.332	190.818	-8191	255	
21439.635	1	1	0	0	0.12068	0.096898	0.19075	0.27622	0.24032	0.30419	0.1642	0.26893	0.25491	0.27621	0.19273	0.2185	0.22406	0.18188	0.29338	0.076785	-2.1792	-2.8271	-2.8333	-2.6312	-2.8229	-2.6708	-2.6354	-2.8083	-2.6708	-2.85	-3.0083	-2.4083	-2.8438	-2.7479	-2.6083	-2.9813	348.678	504.250	349.563	454.690	480.149	240.282	440.667	481.239	309.481	292.845	496.255	207.227	439.911	302.882	424.789	349.100	0.00061205	0.00043595	7.0256e-05	996.04	2.5973e-06	1.8834e-06	1038.3	218.86	5.0799e-06	3.061e-06	264.56	78.002	62.848	18.469	2.9348e-06	24.587	0.00032219	0.00026013	7.1899e-05	1018.5	3.0259e-06	2.9648e-06	1064	224.86	3.0461e-06	2.9751e-06	273.74	80.678	64.619	19.403	2.8733e-06	26.155	481.650	240.365	256.056	172.127	279.252	344.475	171.855	178.774	250.627	329.013	178.485	184.218	184.137	191.003	311.072	190.876	-8191	255	
21439.730	1	1	0	0	0.24072	0.10981	0.30854	0.15463	0.17437	0.1482	0.29139	0.084055	0.084495	0.18805	0.33563	0.044316	0.27641	0.22384	0.13831	0.029028	-2.2042	-2.6667	-2.7333	-2.6854	-2.7146	-2.8875	-2.7125	-2.9146	-2.5687	-2.6917	-2.9375	-2.6875	-2.9562	-2.7021	-2.5958	-2.9938	450.167	493.323	504.424	437.441	475.339	345.676	463.152	512.696	471.657	173.125	426.908	253.186	285.713	195.717	504.502	169.225	0.00060823	0.0003545	8.4659e-05	992.53	5.0819e-06	1.22e-06	1038.7	218.06	5.7696e-06	1.2289e-06	264.14	78.313	62.098	18.488	2.2424e-06	24.806	0.00031449	0.00027119	7.4572e-05	1017.8	3.0584e-06	2.8439e-06	1065.3	224.36	3.0077e-06	2.965e-06	273.61	80.661	64.602	19.349	2.8389e-06	26.118	485.062	230.953	251.844	172.014	275.794	265.933	171.925	178.648	251.141	329.602	178.761	184.042	184.598	190.760	293.169	191.011	-8191	255	
21439.828	1	1	0	0	0.1345	0.11739	0.044866	0.038328	0.062165	0.23851	0.34237	0.10913	0.079773	0.11144	0.18118	0.12324	0.12286	0.061001	0.1935	0.29542	-2.2646	-2.6333	-2.85	-2.5583	-2.8187	-2.9042	-2.6875	-2.9938	-2.7479	-2.8229	-2.9	-2.475	-2.4417	-2.8563	-2.7042	-3.0167	509.704	447.117	260.578	485.925	219.410	209.300	160.761	437.953	459.461	326.875	491.019	451.268	311.770	458.765	204.873	388.149	0.00058558	0.0002515	9.037e-05	994.45	4.0087e-06	2.776e-06	1036.9	218.09	5.8087e-06	2.9621e-06	264.55	78.246	62.041	18.47	3.3539e-06	24.564	0.00031505	0.00027873	7.3834e-05	1016.5	3.0995e-06	2.8617e-06	1063.1	224.29	3.0936e-06	3.0496e-06	273.69	80.609	64.337	19.369	2.9919e-06	26.075	481.155	242.740	262.178	172.031	278.022	337.482	171.933	178.455	279.517	326.576	178.459	184.005	184.528	191.051	287.657	190.942	-8191	255	
21439.945	1	1	0	0	0.27787	0.28296	0.1055	0.1699	0.033245	0.086901	0.20996	0.2521	0.21506	0.10128	0.1214	0.1802	0.16095	0.23451	0.2257	0.16647	-2.2938	-2.5479	-2.7271	-2.6396	-2.8167	-2.8937	-2.5917	-2.9917	-2.8896	-2.6083	-2.9708	-2.6312	-2.5417	-2.9437	-2.3354	-2.8667	279.475	304.870	456.528	458.938	294.618	380.494	458.885	492.899	446.481	489.366	313.077	475.872	506.981	484.899	337.401	408.917	0.00059096	0.00021271	7.2937e-05	994.91	3.9994e-06	3.3684e-06	1039.4	217.08	5.2574e-06	3.336e-06	265.99	78.041	62.663	18.446	4.0193e-06	24.688	0.00031428	0.00026096	7.1234e-05	1015.2	3.0947e-06	2.8983e-06	1064	224.01	3.0705e-06	2.9251e-06	273.83	80.546	64.403	19.355	2.9063e-06	26.097	479.717	221.329	253.839	172.202	304.966	336.589	171.912	178.766	277.780	321.182	178.504	183.947	184.524	190.834	279.119	190.653	-8191	255	
21440.043	1	1	0	0	0.05194	0.077564	0.083996	0.10945	0.076518	0.1096	0.18385	0.18285	0.11553	0.13082	0.24922	0.1774	0.050679	0.21112	0.11945	0.11623	-2.2521	-2.6208	-2.8792	-2.5938	-2.6271	-3.0187	-2.7438	-2.7208	-2.8937	-2.6417	-2.8271	-2.6792	-2.65	-2.8708	-2.5042	-2.975	286.224	193.705	274.626	392.624	261.958	444.364	399.079	422.981	405.611	454.172	392.558	452.438	310.516	469.240	391.616	461.055	0.00057456	0.00024884	8.7927e-05	986.57	3.3021e-06	2.4665e-06	1034.3	218.26	3.4221e-06	2.4671e-06	265.04	78.185	61.587	18.372	3.1802e-06	24.678	0.00031279	0.00026759	7.3314e-05	1014.8	2.9353e-06	2.9003e-06	1062	224.14	2.9737e-06	2.8156e-06	273.45	80.541	64.347	19.329	2.9394e-06	26.109	482.339	272.619	254.862	172.106	285.927	296.914	171.797	178.893	255.036	317.903	178.465	183.996	184.455	191.008	273.188	190.765	-8191	255	
21440.115	1	1	0	0	0.36172	0.22503	0.21436	0.21033	0.082693	0.1763	0.045566	0.036984	0.033243	0.18755	0.29242	0.1895	0.13071	0.089486	0.15532	0.28223	-2.3479	-2.4146	-2.6417	-2.7604	-2.6104	-2.7958	-2.6312	-2.6146	-2.825	-2.5	-3	-2.7417	-2.475	-2.9021	-2.55	-2.6292	454.343	250.497	247.967	437.443	295.575	507.547	275.019	178.047	438.842	370.901	476.731	417.508	240.382	362.457	175.927	462.343	0.00058057	0.00024487	0.00010564	991.8	4.1805e-06	4.1823e-06	1034.6	218.2	5.4719e-06	1.6515e-06	265.78	78.144	62.695	18.363	3.76e-06	24.709	0.00030927	0.00027934	7.5455e-05	1014.9	3.1175e-06	2.8646e-06	1061.8	224.6	2.9994e-06	3.0577e-06	273.94	80.708	64.687	19.36	2.9783e-06	26.063	482.797	233.847	235.121	171.933	287.237	316.090	171.784	178.841	279.912	290.045	178.679	184.363	184.698	191.153	294.415	190.817	-8191	255	
21440.213	1	1	0	0	0.077099	0.27829	0.2147	0.27257	0.21485	0.17705	0.071056	0.20415	0.041638	0.23888	0.168	0.073656	0.042491	0.17757	0.26166	0.16915	-2.4229	-2.4042	-2.7646	-2.8542	-2.5563	-2.8792	-2.7146	-2.6063	-2.775	-2.5833	-2.7687	-2.4833	-2.6	-2.8438	-2.75	-2.6104	185.732	255.747	312.973	434.139	275.925	398.348	365.281	474.754	254.517	168.025	419.531	230.459	357.291	194.517	461.913	254.732	0.00058128	0.00032479	9.4593e-05	992.51	3.0044e-06	2.5702e-06	1036.5	217.63	3.7518e-06	2.0161e-06	265.52	77.852	62.169	18.371	4.4323e-06	24.683	0.00031434	0.00026568	7.3979e-05	1014.3	2.9856e-06	2.7952e-06	1061.8	224.49	2.8834e-06	2.9165e-06	273.94	80.536	64.489	19.369	3.0711e-06	26.144	479.463	240.763	266.764	172.132	292.740	301.407	171.704	178.846	281.864	295.718	178.388	184.172	184.617	190.976	308.747	190.518	-8191	255	
21440.330	1	1	0	0	0.087854	0.25044	0.073456	0.45001	0.16531	0.20723	0.31042	0.2204	0.28325	0.42132	0.20472	0.17843	0.13334	0.0444	0.1446	0.25428	-2.4521	-2.6167	-2.6312	-2.9333	-2.6854	-2.8771	-2.9354	-2.6458	-2.725	-2.5312	-2.8042	-2.6833	-2.5708	-3.0958	-2.6854	-2.5896	240.194	307.838	479.158	486.872	219.913	293.687	513.411	470.957	351.216	295.211	490.091	503.556	226.678	474.938	338.783	220.361	0.00059138	0.00019835	9.6469e-05	992.95	3.0861e-06	3.4248e-06	1038.5	217.73	4.2669e-06	2.7272e-06	266.17	78.222	62.458	18.342	2.0974e-06	24.77	0.00031291	0.00026473	7.381e-05	1016.7	3.0754e-06	2.8848e-06	1063.4	224.27	2.9846e-06	2.9222e-06	274.08	80.6	64.658	19.391	2.9625e-06	26.159	482.966	268.893	242.401	172.191	257.699	329.516	171.976	178.838	269.433	320.084	178.594	184.334	184.804	190.724	303.499	190.767	-8191	255	
21440.428	1	1	0	0	0.17157	0.29369	0.24997	0.27756	0.22478	0.019395	0.087237	0.28953	0.17277	0.15569	0.045934	0.0794	0.11005	0.17435	0.26228	0.052337	-2.3583	-2.4854	-2.6521	-2.8688	-2.6125	-2.8083	-2.875	-2.7354	-2.8792	-2.7083	-2.7	-2.8208	-2.6063	-2.8104	-2.8646	-2.6042	245.509	355.013	267.421	430.122	469.795	382.626	254.763	443.538	449.833	253.853	517.093	388.902	179.966	332.790	428.151	298.832	0.00057408	0.00040248	6.6044e-05	994.29	3.8342e-06	3.4248e-06	1036.2	218.71	5.3027e-06	2.0782e-06	267.03	77.996	62.886	18.572	2.2512e-06	24.692	0.0003016	0.00026772	7.7403e-05	1017.4	3.054e-06	2.9537e-06	1063.2	224.68	2.9297e-06	2.8338e-06	274.54	80.587	64.718	19.404	2.8266e-06	26.126	482.589	257.498	253.572	172.282	283.782	306.001	171.960	178.796	279.723	319.470	178.515	184.270	184.462	190.920	273.155	190.652	-8191	255	
21440.523	1	1	0	0	0.25644	0.1483	0.039003	0.31008	0.080926	0.19287	0.1208	0.038855	0.2523	0.098048	0.19061	0.15281	0.15836	0.088259	0.36465	0.23107	-2.3771	-2.5792	-2.6896	-2.8771	-2.5604	-2.825	-2.9625	-2.4604	-2.9	-2.6771	-2.7938	-2.8812	-2.6604	-2.9021	-2.825	-2.4313	257.850	214.809	194.433	467.066	371.565	400.023	450.513	439.811	432.538	237.160	485.989	173.777	443.116	364.532	506.728	405.637	0.00054875	0.00031179	5.0421e-05	998.54	4.2838e-06	3.3566e-06	1034	218.49	3.4995e-06	1.8513e-06	264.99	78.325	62.822	18.387	3.2423e-06	24.696	0.00031443	0.0002633	7.3217e-05	1017.2	3.0715e-06	2.8993e-06	1062.6	224.63	2.9972e-06	2.9674e-06	274.3	80.693	64.591	19.342	2.752e-06	26.122	483.865	259.487	255.494	172.148	270.293	296.221	171.975	178.886	260.838	333.598	178.437	184.053	184.242	190.776	286.203	190.558	-8191	255	
21440.619	1	1	0	0	0.15818	0.26378	0.35904	0.29787	0.20666	0.39679	0.28533	0.13023	0.37357	0.17134	0.03821	0.15246	0.17625	0.044701	0.31309	0.22327	-2.3458	-2.5333	-2.6542	-2.9771	-2.5792	-2.625	-2.9833	-2.4771	-2.8458	-2.75	-2.5583	-2.8937	-2.5979	-2.7271	-3.0479	-2.6146	447.365	496.834	196.111	504.981	484.116	229.960	483.628	469.471	476.578	471.081	205.573	462.100	175.243	279.458	179.121	341.165	0.00057986	0.000407	5.8608e-05	992.92	4.0651e-06	3.3461e-06	1034.1	218.46	4.6994e-06	2.8124e-06	264.23	77.951	62.599	18.487	2.3793e-06	24.736	0.00031369	0.00026672	7.2988e-05	1014.6	3.0693e-06	2.9383e-06	1062.4	224.43	2.9344e-06	2.8204e-06	273.78	80.517	64.673	19.378	2.8135e-06	26.092	481.850	219.774	264.487	172.013	290.157	316.681	171.902	178.787	268.692	316.904	178.382	184.157	184.274	190.812	308.795	190.595	-8191	255	
21440.717	1	1	0	0	0.12332	0.073312	0.30277	0.079438	0.030779	0.23799	0.28825	0.11943	0.20214	0.045927	0.096516	0.2285	0.21521	0.12599	0.1268	0.022029	-2.3937	-2.7854	-2.6917	-3.0729	-2.7333	-2.7854	-2.9104	-2.4958	-2.7583	-2.7667	-2.7104	-2.9542	-2.7062	-2.6625	-2.9542	-2.6021	352.386	209.873	399.636	195.716	232.056	204.034	411.359	199.452	329.328	495.111	337.214	504.276	291.293	212.615	428.845	512.720	0.0005735	0.00024049	8.0912e-05	992.53	3.6688e-06	3.7317e-06	1037.8	217.89	5.9011e-06	2.8238e-06	264.2	77.635	63.021	18.452	1.4134e-06	24.709	0.00030945	0.00024596	7.502e-05	1015.7	3.0811e-06	2.9094e-06	1063.4	224.58	2.9323e-06	2.9655e-06	273.86	80.678	64.814	19.357	2.7225e-06	26.122	482.254	248.805	257.958	172.172	275.824	321.440	171.872	178.539	269.748	290.828	178.334	184.288	184.529	190.809	272.737	191.218	-8191	255	
21440.812	1	1	0	0	0.37252	0.066087	0.012545	0.34565	0.22235	0.083272	0.073181	0.091038	0.048288	0.12165	0.17859	0.12614	0.23823	0.14297	0.17689	0.13118	-2.225	-2.8187	-2.6271	-3.0021	-2.5292	-2.6042	-2.9896	-2.6375	-2.6521	-2.9167	-2.6708	-2.8958	-2.8021	-2.5271	-2.8375	-2.5896	399.305	236.629	388.269	490.551	366.111	304.083	320.343	362.685	187.174	441.426	374.820	473.145	477.605	219.914	436.841	390.310	0.00059432	0.0003638	6.851e-05	996.62	3.133e-06	3.1626e-06	1036.7	218.04	5.5205e-06	2.795e-06	266.42	78.175	62.306	18.474	4.319e-06	24.697	0.0003075	0.00026932	7.5564e-05	1016.5	3.1008e-06	2.828e-06	1063	224.53	2.9126e-06	2.8204e-06	274.23	80.619	64.67	19.395	2.866e-06	26.094	483.146	248.213	243.532	172.066	286.859	296.021	171.842	178.929	263.156	311.436	178.425	184.077	184.768	190.852	295.792	190.370	-8191	255	
21440.932	1	1	0	0	0.11907	0.22333	0.065973	0.17761	0.034429	0.086792	0.19394	0.17799	0.17223	0.21194	0.25333	0.079443	0.1946	0.35127	0.19442	0.065588	-2.1792	-2.8083	-2.4646	-2.8896	-2.7604	-2.5792	-2.975	-2.6688	-2.6312	-2.9083	-2.75	-2.7625	-2.7271	-2.6083	-2.9917	-2.575	253.198	487.837	356.576	402.999	367.595	503.819	445.008	473.896	235.993	369.234	314.022	216.761	182.653	239.584	467.363	274.128	0.00058393	0.00032311	5.408e-05	992.14	3.5678e-06	3.8358e-06	1036.3	218.59	5.328e-06	2.9873e-06	265.23	77.446	62.408	18.42	2.2364e-06	24.781	0.00031703	0.00026954	7.3846e-05	1016	3.0584e-06	2.908e-06	1063.9	224.61	2.9637e-06	2.8775e-06	274.02	80.484	64.514	19.402	2.8135e-06	26.058	480.728	261.465	261.312	171.948	254.809	304.143	171.911	178.752	258.222	318.491	178.730	184.166	184.387	191.192	284.886	190.455	-8191	255	
21441.027	1	1	0	0	0.16873	0.28926	0.13579	0.016576	0.062519	0.0026926	0.15129	0.1946	0.22832	0.15359	0.26471	0.056701	0.17243	0.15028	0.11133	0.1214	-2.1604	-2.7292	-2.6813	-2.6417	-2.6063	-2.7271	-3.0208	-2.6354	-2.6521	-2.8792	-2.8375	-2.7	-2.8458	-2.5	-2.8208	-2.7917	351.016	186.914	379.704	460.782	396.888	329.399	382.670	450.350	263.668	286.408	409.628	483.283	475.220	173.695	183.625	298.678	0.00054205	0.00025057	8.1992e-05	997.58	2.9676e-06	1.0356e-06	1038.8	217.69	5.5712e-06	2.0529e-06	265.07	77.815	62.969	18.455	3.115e-06	24.645	0.00031026	0.0002561	7.4717e-05	1016.7	2.9651e-06	2.9725e-06	1063.3	224.42	3.0552e-06	2.8655e-06	273.94	80.512	64.705	19.399	2.7755e-06	26.071	483.283	248.502	235.020	172.198	269.729	329.668	171.903	178.875	266.846	324.344	178.497	184.087	184.686	190.595	301.292	190.967	-8191	255	
21441.123	1	1	0	0	0.34572	0.13503	0.29149	0.073997	0.11398	0.039643	0.52014	0.067213	0.1193	0.19063	0.23309	0.104	0.070416	0.1537	0.32006	0.13168	-2.1813	-2.9333	-2.6229	-2.6917	-2.7375	-2.4854	-2.9458	-2.7333	-2.5438	-2.9479	-2.5083	-2.7625	-2.6896	-2.7229	-3.0229	-2.6896	353.968	452.787	304.732	441.452	519.981	182.611	469.944	293.230	483.914	302.439	511.638	295.390	180.017	420.520	409.287	368.082	0.00055828	0.00023614	6.225e-05	989.8	2.5675e-06	3.0448e-06	1039.1	217.75	5.5508e-06	2.4012e-06	265.09	78.061	62.209	18.507	4.033e-06	24.98	0.00031761	0.00027054	7.4742e-05	1015.8	2.8722e-06	2.8632e-06	1063.7	224.25	3.0068e-06	2.7099e-06	274.16	80.623	64.668	19.385	2.8534e-06	26.186	481.534	262.778	247.785	171.992	262.822	327.863	171.927	178.836	264.662	305.462	178.389	184.227	184.532	190.846	294.950	190.439	-8191	255	
21441.219	1	1	0	0	0.035392	0.18063	0.26544	0.49522	0.10961	0.18263	0.14238	0.47047	0.09336	0.20871	0.013181	0.23484	0.13175	0.204	0.16193	0.076435	-2.1188	-2.9417	-2.6979	-2.8688	-2.7375	-2.6479	-2.8875	-2.675	-2.6813	-2.7729	-2.6792	-2.8396	-2.9854	-2.6	-2.7354	-2.7083	390.964	200.982	471.886	459.835	171.165	311.375	402.182	432.832	188.756	226.108	401.962	178.042	376.163	221.218	268.419	294.841	0.00055244	0.00020389	5.9773e-05	993.03	4.914e-06	2.6569e-06	1039.6	218.76	3.1626e-06	2.5642e-06	265.6	78.047	62.792	18.52	2.6789e-06	24.824	0.00031517	0.0002548	7.45e-05	1016.3	2.9983e-06	2.9051e-06	1063.9	224.77	2.9938e-06	2.7887e-06	273.98	80.756	64.768	19.408	3.0095e-06	26.152	483.335	248.174	245.122	172.150	272.241	301.331	171.867	178.707	285.657	313.320	178.405	184.113	184.196	190.921	290.317	190.879	-8191	255	
21441.340	1	1	0	0	0.26049	0.063054	0.30403	0.19859	0.13487	0.23339	0.24795	0.059907	0.15044	0.036801	0.056858	0.11247	0.15646	0.076746	0.041666	0.064361	-2.0708	-2.9437	-2.6208	-2.6708	-3.0458	-2.6729	-2.9396	-2.8354	-2.6667	-2.8937	-2.7708	-2.6667	-2.7542	-2.8146	-2.8229	-2.6813	288.763	462.697	469.781	462.727	258.409	352.287	467.773	240.161	484.849	252.120	328.388	516.948	405.748	275.422	286.494	495.847	0.00057296	0.00027805	4.9192e-05	991.91	4.7253e-06	3.5675e-06	1039.2	217.28	3.4205e-06	2.3785e-06	265.21	77.919	62.682	18.411	2.0324e-06	24.875	0.00031242	0.00026464	6.9939e-05	1015	3.0264e-06	3.0916e-06	1063	224.22	3.0273e-06	2.9309e-06	274.12	80.641	64.61	19.388	2.847e-06	26.215	482.960	255.060	250.314	171.927	283.774	319.843	172.006	178.589	284.538	325.131	178.527	184.088	184.444	190.801	288.375	190.731	-8191	255	
21441.410	1	1	0	0	0.15347	0.063109	0.057078	0.076171	0.25093	0.13955	0.33656	0.01018	0.11955	0.15501	0.25284	0.10261	0.27618	0.095677	0.097946	0.13554	-2.1271	-2.7687	-2.6354	-2.675	-2.7167	-2.6625	-2.8104	-2.7354	-2.6	-2.8729	-2.8688	-2.5187	-2.8771	-2.7521	-2.8917	-2.8625	349.438	238.973	221.616	450.426	382.310	349.637	429.335	511.216	239.668	319.989	515.428	230.418	355.852	499.200	378.942	335.357	0.00054037	0.00021598	5.277e-05	992.85	3.9559e-06	3.7297e-06	1035.2	218.47	5.8336e-06	2.4269e-06	264.09	78.043	62.891	18.486	3.0225e-06	24.787	0.0003067	0.00026434	7.1427e-05	1016.2	2.9874e-06	2.8776e-06	1063	224.69	3.1324e-06	2.8348e-06	273.72	80.676	64.827	19.397	2.9199e-06	26.114	479.004	240.187	243.053	172.163	280.428	319.972	172.085	178.529	251.204	323.817	178.449	184.437	184.702	190.591	287.684	191.106	-8191	255	
21441.508	1	1	0	0	0.12071	0.097737	0.22628	0.13105	0.1988	0.24426	0.26177	0.1187	0.18722	0.19859	0.19485	0.032026	0.16409	0.31832	0.23438	0.10402	-2.1292	-2.6521	-2.8396	-2.575	-2.8812	-2.6667	-2.6542	-2.8479	-2.5104	-2.7146	-2.9104	-2.6625	-2.8583	-2.725	-2.575	-2.7625	465.800	410.379	502.886	509.630	474.765	488.562	424.450	518.389	426.425	409.968	168.672	474.012	248.427	374.474	336.080	487.084	0.00058004	0.00027849	6.1512e-05	993.32	2.8565e-06	3.0293e-06	1039	218.24	4.4063e-06	1.8731e-06	266.01	78.349	62.812	18.426	3.2936e-06	24.819	0.00031421	0.00026555	7.3895e-05	1016.3	2.9567e-06	2.8665e-06	1064.3	224.43	3.1102e-06	2.9141e-06	274.73	80.795	64.627	19.345	2.8927e-06	26.114	485.049	240.827	232.008	171.979	275.035	302.530	171.719	178.812	269.300	337.734	178.376	184.124	184.561	190.979	277.252	190.649	-8191	255	
21441.629	1	1	0	0	0.34998	0.099538	0.031767	0.32718	0.031442	0.059782	0.21179	0.047207	0.11512	0.19082	0.34789	0.10434	0.12002	0.024088	0.16002	0.31006	-2.0396	-2.8	-2.7458	-2.7	-2.8104	-2.7146	-2.6125	-2.8937	-2.6167	-2.6979	-2.8667	-2.4604	-2.8729	-2.7646	-2.6917	-2.8375	505.386	240.106	293.960	220.260	192.226	427.281	405.381	471.470	305.172	182.493	163.379	446.773	450.510	286.910	461.214	520.327	0.00059551	0.00041863	6.9091e-05	991.63	4.9184e-06	2.7278e-06	1041.7	217.56	3.9009e-06	4.2078e-06	264.32	77.968	62.499	18.45	3.003e-06	24.589	0.0003092	0.00026473	7.058e-05	1015.5	3.0715e-06	2.8155e-06	1063.3	224.29	3.0561e-06	2.9246e-06	273.47	80.669	64.427	19.361	2.8017e-06	26.063	480.351	256.280	215.302	172.098	261.429	316.660	171.831	178.612	262.335	319.212	178.544	184.160	184.667	190.925	299.598	190.734	-8191	255	
21441.725	1	1	0	0	0.19216	0.0030439	0.23866	0.1984	0.20735	0.20697	0.062494	0.16224	0.034149	0.24921	0.1419	0.28772	0.16014	0.064359	0.061883	0.28677	-2.1437	-2.6104	-2.8271	-2.6688	-2.7583	-2.7021	-2.5979	-2.8896	-2.7438	-2.8375	-2.9333	-2.6437	-2.8	-2.725	-2.375	-3.0292	425.950	272.551	342.924	463.847	383.967	472.125	390.849	348.995	406.804	217.780	414.083	354.138	415.076	520.200	295.702	444.449	0.00059806	0.00029531	6.8204e-05	990.1	3.263e-06	1.5676e-06	1038.4	218.17	4.1389e-06	2.9302e-06	264.79	77.578	62.44	18.427	3.1095e-06	25.014	0.00031295	0.00026464	7.1657e-05	1014.6	3.0045e-06	2.8853e-06	1061.8	224.32	3.0369e-06	2.8314e-06	273.92	80.498	64.428	19.384	2.9525e-06	26.135	483.011	246.554	269.583	172.111	278.069	265.047	171.815	178.593	262.553	301.801	178.492	184.110	184.447	190.575	286.097	190.946	-8191	255	
21441.820	1	1	0	0	0.1706	0.15596	0.14664	0.26678	0.13424	0.13489	0.22133	0.15331	0.11417	0.094661	0.036213	0.09208	0.22562	0.10045	0.34843	0.29651	-2.1458	-2.6125	-2.8729	-2.6479	-2.7687	-2.7438	-2.5396	-2.7875	-2.7833	-2.7646	-2.9083	-2.5833	-2.7208	-2.8729	-2.5	-2.9062	176.195	345.494	510.057	501.956	456.005	391.739	446.259	431.438	449.985	280.569	426.308	510.481	185.746	171.908	371.038	439.007	0.00060926	0.00028232	7.2199e-05	992.57	3.2825e-06	3.7491e-06	1038.2	217.53	5.2082e-06	4.1196e-06	264.64	78.232	62.917	18.497	2.4213e-06	24.782	0.00032265	0.0002639	7.2322e-05	1014.9	3.0794e-06	2.935e-06	1063	224.26	2.9209e-06	3.0087e-06	273.67	80.631	64.57	19.367	2.9593e-06	26.138	483.604	242.477	255.075	172.034	268.660	336.692	171.780	178.645	272.436	312.977	178.471	183.840	184.694	190.674	288.670	190.636	-8191	255	
21441.918	1	1	0	0	0.062907	0.13861	0.20397	0.075848	0.30819	0.057222	0.2265	0.0561	0.044497	0.1484	0.14099	0.19388	0.033611	0.23686	0.25908	0.094494	-2.4333	-2.7313	-2.6937	-2.6312	-2.7083	-2.65	-2.8042	-2.8021	-2.6312	-2.5292	-3.0208	-2.7	-2.7458	-2.7917	-2.6375	-2.9271	503.929	399.026	313.223	500.412	337.822	400.981	519.425	501.584	406.328	315.601	409.937	474.456	432.703	472.976	473.700	171.624	0.00057469	0.00041144	6.6747e-05	988.34	4.8697e-06	2.9665e-06	1033.8	217.89	5.1404e-06	1.6888e-06	265.33	77.966	62.397	18.456	2.9961e-06	24.707	0.00031223	0.00027327	7.381e-05	1014.2	2.9922e-06	2.8342e-06	1061.3	223.96	3.03e-06	2.9938e-06	273.88	80.488	64.547	19.33	2.9688e-06	26.086	480.846	239.922	222.147	171.977	261.503	297.422	171.731	178.700	272.880	321.660	178.549	184.022	184.775	191.113	290.974	190.818	-8191	255	
21442.012	1	1	0	0	0.18246	0.031662	0.12792	0.020108	0.20376	0.052729	0.26782	0.061589	0.31644	0.37477	0.093014	0.17304	0.15141	0.1306	0.1657	0.11692	-2.3396	-2.6417	-2.8312	-2.7479	-2.6375	-2.8917	-2.6896	-2.8979	-2.7146	-2.4833	-2.8396	-2.6083	-2.6271	-2.7208	-2.3812	-2.7354	352.708	209.004	284.852	349.855	213.954	219.443	453.487	405.477	271.211	172.150	511.293	193.594	447.403	245.630	327.683	451.910	0.00058721	0.00037182	5.2409e-05	993.34	3.4694e-06	3.1921e-06	1038.6	217.84	6.2356e-06	1.7311e-06	264.58	78.022	62.807	18.431	3.4997e-06	24.693	0.00031715	0.00027379	7.5383e-05	1016.1	3.0833e-06	2.8318e-06	1062	224.43	2.9362e-06	2.8963e-06	273.99	80.664	64.676	19.328	2.8547e-06	26.113	481.489	235.311	242.390	172.123	286.613	333.626	171.873	178.633	268.404	288.918	178.383	183.906	184.709	190.399	306.925	191.033	-8191	255	
21442.107	1	1	0	0	0.25699	0.094574	0.15544	0.34234	0.15033	0.09393	0.2415	0.10368	0.12724	0.21254	0.13954	0.14229	0.15713	0.06425	0.19102	0.14618	-2.4042	-2.35	-2.7729	-2.7292	-2.7062	-2.9437	-2.5938	-2.9333	-2.7938	-2.7292	-2.8229	-2.7104	-2.7708	-2.6875	-2.5083	-2.9521	248.758	293.060	438.516	486.908	235.148	328.059	164.931	411.129	332.549	250.444	515.771	491.342	338.635	172.920	234.455	302.902	0.00058304	0.00035153	7.3087e-05	988.55	4.2026e-06	4.0615e-06	1036	218.27	5.5519e-06	2.6886e-06	263.8	77.797	62.547	18.372	4.097e-06	24.647	0.000302	0.00026187	7.3181e-05	1013.6	3.0439e-06	2.8694e-06	1061	224.06	3.0143e-06	2.9006e-06	273.24	80.4	64.486	19.344	2.8787e-06	26.057	481.029	242.198	230.176	172.155	284.705	294.782	171.981	178.898	253.764	314.404	178.173	184.523	184.428	190.962	293.183	190.686	-8191	255	
21442.203	1	1	0	0	0.2403	0.28149	0.17665	0.14413	0.066452	0.10279	0.1017	0.29546	0.34844	0.11892	0.17013	0.22458	0.23917	0.16949	0.15151	0.15977	-2.2625	-2.4417	-2.7313	-2.9208	-2.5062	-2.8688	-2.9479	-2.6937	-2.6896	-2.6167	-3.0542	-2.65	-2.625	-2.8771	-2.7583	-2.5687	463.649	292.247	413.171	459.002	496.662	242.617	472.132	498.081	370.060	185.032	455.217	414.585	292.864	433.817	449.517	180.741	0.00055242	0.00027666	5.225e-05	990.67	2.558e-06	1.9732e-06	1036.4	216.88	4.5467e-06	3.7767e-06	265.3	77.966	62.812	18.364	1.3392e-06	24.524	0.00030757	0.00027188	7.1826e-05	1014.2	3.0991e-06	2.8632e-06	1060.3	223.92	2.8333e-06	2.8228e-06	274.17	80.435	64.601	19.312	2.9154e-06	25.998	483.234	253.906	231.925	171.892	277.339	303.387	171.839	178.850	285.378	329.261	178.312	184.009	184.744	191.058	293.227	190.642	-8191	255	
21442.301	1	1	0	0	0.38052	0.12967	0.082397	0.21715	0.18118	0.11146	0.10437	0.066086	0.088192	0.16676	0.35434	0.20664	0.18313	0.27943	0.24879	0.078635	-2.6146	-2.3854	-2.7812	-2.8125	-2.5	-2.9354	-2.7833	-2.6167	-2.7729	-2.7271	-2.7646	-2.8771	-2.5979	-2.5479	-2.7417	-2.7417	163.322	458.466	291.256	241.171	422.271	397.458	161.468	351.293	293.274	232.081	167.008	289.331	177.750	486.250	251.223	229.835	0.00058808	0.00031395	0.00010516	991.43	1.7155e-06	2.9952e-06	1036.4	217.17	4.5879e-06	1.7838e-06	263.51	77.501	62.022	18.344	3.742e-06	24.755	0.0003075	0.00026573	7.5032e-05	1015.2	3.0062e-06	2.8718e-06	1060.4	224.2	2.931e-06	2.9261e-06	273.15	80.364	64.346	19.311	2.8683e-06	26.012	481.070	259.107	253.447	172.036	282.499	321.608	171.933	178.595	270.616	333.347	178.616	184.086	184.776	191.072	309.288	190.877	-8191	255	
21442.420	1	1	0	0	0.16553	0.10941	0.41414	0.25343	0.13217	0.12546	0.076493	0.12338	0.023369	0.16133	0.1646	0.17917	0.21035	0.20409	0.099435	0.29648	-2.4979	-2.5125	-2.7104	-2.9229	-2.7375	-2.7542	-2.675	-2.7	-3.0458	-2.6625	-2.8646	-2.8958	-2.4188	-2.7583	-2.6312	-2.5583	436.195	170.626	508.230	502.681	464.457	197.517	436.391	272.868	311.867	506.527	450.613	212.611	455.519	476.527	400.312	421.957	0.0005586	0.00027164	7.4368e-05	989.84	4.676e-06	2.6027e-06	1030.9	217.9	4.9883e-06	3.0093e-06	264.81	77.73	62.799	18.292	3.3008e-06	24.782	0.00030376	0.00027418	7.2443e-05	1015.6	3.1293e-06	2.8468e-06	1060.6	224.25	2.8773e-06	2.9222e-06	273.29	80.447	64.555	19.275	2.8058e-06	26.102	481.042	222.175	252.318	172.088	286.641	331.998	171.896	178.831	283.134	310.224	178.555	184.028	184.588	191.207	278.670	191.210	-8191	255	
#DATA ENDS
