BOXY.EXE: ISS Imagent and Oximeter Data Acquisition Program Version 0.80
Ascii Record File

#ACQ INFORMATION
2  Detector Channels 
16  External MUX Channels 
1  Auxiliary Channels 
5000  Waveform (CCF) Frequency (Hz)
1  Waveforms Skipped 
30  Waveforms Averaged 
1  Cycles Averaged 
16  Acquisitions per Waveform 
10.0806  Updata Rate (Hz) 

#FILE INFORMATION
TRUE -- External MUX Channel results are PARSED.
FALSE -- AC DC and Phase are NOT grouped.
TRUE -- Companion Program Settings File CREATED.
FALSE -- AC data not excluded
FALSE -- DC data not excluded
FALSE -- Phase data not excluded
FALSE -- Auxillary Chn. data not excluded
Tab delimiters

#CALIBRATION STATE
TRUE -- Waveform Calibration Values APPLIED.


#AUX CALIBRATION VALUES
Val Type	aux-1	

Term	1.0000e+00	
Factor	0.0000e+00	


#WF CALIBRATION VALUES
A = Detector Channel
Val Type	A-AC1	A-AC2	A-AC3	A-AC4	A-AC5	A-AC6	A-AC7	A-AC8	A-AC9	A-AC10	A-AC11	A-AC12	A-AC13	A-AC14	A-AC15	A-AC16	A-DC1	A-DC2	A-DC3	A-DC4	A-DC5	A-DC6	A-DC7	A-DC8	A-DC9	A-DC10	A-DC11	A-DC12	A-DC13	A-DC14	A-DC15	A-DC16	A-Ph1	A-Ph2	A-Ph3	A-Ph4	A-Ph5	A-Ph6	A-Ph7	A-Ph8	A-Ph9	A-Ph10	A-Ph11	A-Ph12	A-Ph13	A-Ph14	A-Ph15	A-Ph16	

Term	0.00000e+00	0.00000e+00	0.00000e+00	0.00000e+00	0.00000e+00	0.00000e+00	0.00000e+00	0.00000e+00	0.00000e+00	0.00000e+00	0.00000e+00	0.00000e+00	0.00000e+00	0.00000e+00	0.00000e+00	0.00000e+00	0.00000e+00	0.00000e+00	0.00000e+00	0.00000e+00	0.00000e+00	0.00000e+00	0.00000e+00	0.00000e+00	0.00000e+00	0.00000e+00	0.00000e+00	0.00000e+00	0.00000e+00	0.00000e+00	0.00000e+00	0.00000e+00	0.00000e+00	0.00000e+00	0.00000e+00	0.00000e+00	0.00000e+00	0.00000e+00	0.00000e+00	0.00000e+00	0.00000e+00	0.00000e+00	0.00000e+00	0.00000e+00	0.00000e+00	0.00000e+00	0.00000e+00	0.00000e+00	
Factor	1.00000e+00	1.00000e+00	1.00000e+00	1.00000e+00	1.00000e+00	1.00000e+00	1.00000e+00	1.00000e+00	1.00000e+00	1.00000e+00	1.00000e+00	1.00000e+00	1.00000e+00	1.00000e+00	1.00000e+00	1.00000e+00	1.00000e+00	1.00000e+00	1.00000e+00	1.00000e+00	1.00000e+00	1.00000e+00	1.00000e+00	1.00000e+00	1.00000e+00	1.00000e+00	1.00000e+00	1.00000e+00	1.00000e+00	1.00000e+00	1.00000e+00	1.00000e+00	X	X	X	X	X	X	X	X	X	X	X	X	X	X	X	X	

B = Detector Channel
Val Type	B-AC1	B-AC2	B-AC3	B-AC4	B-AC5	B-AC6	B-AC7	B-AC8	B-AC9	B-AC10	B-AC11	B-AC12	B-AC13	B-AC14	B-AC15	B-AC16	B-DC1	B-DC2	B-DC3	B-DC4	B-DC5	B-DC6	B-DC7	B-DC8	B-DC9	B-DC10	B-DC11	B-DC12	B-DC13	B-DC14	B-DC15	B-DC16	B-Ph1	B-Ph2	B-Ph3	B-Ph4	B-Ph5	B-Ph6	B-Ph7	B-Ph8	B-Ph9	B-Ph10	B-Ph11	B-Ph12	B-Ph13	B-Ph14	B-Ph15	B-Ph16	

Term	0.00000e+00	0.00000e+00	0.00000e+00	0.00000e+00	0.00000e+00	0.00000e+00	0.00000e+00	0.00000e+00	0.00000e+00	0.00000e+00	0.00000e+00	0.00000e+00	0.00000e+00	0.00000e+00	0.00000e+00	0.00000e+00	0.00000e+00	0.00000e+00	0.00000e+00	0.00000e+00	0.00000e+00	0.00000e+00	0.00000e+00	0.00000e+00	0.00000e+00	0.00000e+00	0.00000e+00	0.00000e+00	0.00000e+00	0.00000e+00	0.00000e+00	0.00000e+00	3.37194e+01	-1.68587e+02	-1.35414e+02	-1.80770e+02	-1.05564e+02	-1.05091e+02	-1.55686e+02	-1.62015e+02	-9.81900e+01	-8.14180e+01	-1.72633e+02	-1.70093e+02	-1.81385e+02	-1.76491e+02	-1.12733e+02	-1.49752e+02	
Factor	4.74211e-05	1.08441e-04	2.30837e-05	1.85097e-01	9.01655e-07	1.19884e-06	1.81138e-01	5.42658e-02	1.20113e-06	1.08790e-06	1.10167e-01	3.06233e-02	3.78414e-02	9.83169e-03	9.60378e-07	1.40816e-02	4.97090e-07	4.99476e-07	1.38873e-07	8.54261e-02	5.49520e-09	5.46460e-09	7.88256e-02	2.49800e-02	5.49752e-09	5.45879e-09	4.68186e-02	1.32798e-02	1.62271e-02	4.37497e-03	5.48598e-09	6.00434e-03	X	X	X	X	X	X	X	X	X	X	X	X	X	X	X	X	



#DISTANCE SETTINGS
A = Detector Channel
A-1	A-2	A-3	A-4	A-5	A-6	A-7	A-8	A-9	A-10	A-11	A-12	A-13	A-14	A-15	A-16	

2.5000e+00	3.0000e+00	2.5000e+00	3.0000e+00	2.0000e+00	3.0000e+00	1.5000e+00	3.0000e+00	3.0000e+00	3.0000e+00	3.0000e+00	3.0000e+00	3.0000e+00	3.0000e+00	1.5000e+00	3.0000e+00	

B = Detector Channel
B-1	B-2	B-3	B-4	B-5	B-6	B-7	B-8	B-9	B-10	B-11	B-12	B-13	B-14	B-15	B-16	

1.0000e+01	1.0000e+01	1.0000e+01	1.4400e+00	1.0000e+01	1.0000e+01	1.5100e+00	1.9400e+00	1.0000e+01	1.0000e+01	1.9900e+00	2.4900e+00	2.4100e+00	2.9000e+00	1.0000e+01	2.9800e+00	




#DATA BEGINS
time	group	step	mark	flag	A-AC1	A-AC2	A-AC3	A-AC4	A-AC5	A-AC6	A-AC7	A-AC8	A-AC9	A-AC10	A-AC11	A-AC12	A-AC13	A-AC14	A-AC15	A-AC16	A-DC1	A-DC2	A-DC3	A-DC4	A-DC5	A-DC6	A-DC7	A-DC8	A-DC9	A-DC10	A-DC11	A-DC12	A-DC13	A-DC14	A-DC15	A-DC16	A-Ph1	A-Ph2	A-Ph3	A-Ph4	A-Ph5	A-Ph6	A-Ph7	A-Ph8	A-Ph9	A-Ph10	A-Ph11	A-Ph12	A-Ph13	A-Ph14	A-Ph15	A-Ph16	B-AC1	B-AC2	B-AC3	B-AC4	B-AC5	B-AC6	B-AC7	B-AC8	B-AC9	B-AC10	B-AC11	B-AC12	B-AC13	B-AC14	B-AC15	B-AC16	B-DC1	B-DC2	B-DC3	B-DC4	B-DC5	B-DC6	B-DC7	B-DC8	B-DC9	B-DC10	B-DC11	B-DC12	B-DC13	B-DC14	B-DC15	B-DC16	B-Ph1	B-Ph2	B-Ph3	B-Ph4	B-Ph5	B-Ph6	B-Ph7	B-Ph8	B-Ph9	B-Ph10	B-Ph11	B-Ph12	B-Ph13	B-Ph14	B-Ph15	B-Ph16	aux-1	digaux	

7778.010	1	1	0	512	0.037737	0.27077	0.23413	0.21505	0.17534	0.20034	0.14903	0.155	0.22899	0.20673	0.22543	0.20624	0.12137	0.3206	0.3226	0.062335	-1.9562	-2.4229	-2.5229	-2.4625	-2.4104	-2.5521	-2.3604	-2.6729	-2.5292	-2.5104	-2.8021	-2.2125	-2.525	-2.65	-2.2	-2.4979	484.808	480.442	459.864	400.313	240.149	419.368	177.686	513.558	298.857	179.133	398.786	452.269	415.682	322.571	354.519	225.524	0.0010051	0.00072148	8.721e-05	241.76	5.8348e-06	3.7443e-06	311.12	104.04	6.8998e-06	4.5699e-06	156.79	76.806	50.196	26.54	6.766e-06	43.333	0.0011214	0.0010153	0.00026454	426.81	1.2166e-05	1.1095e-05	466.34	158.1	1.2065e-05	1.0949e-05	239.29	104.05	81.925	34.804	1.036e-05	55.04	367.686	287.319	286.582	184.137	334.185	390.705	183.854	189.993	302.712	298.780	188.180	192.001	193.843	197.862	509.708	194.624	-8191	255	
7778.106	1	1	0	0	0.20335	0.096456	0.076751	0.26106	0.19061	0.14213	0.20748	0.20115	0.12747	0.14528	0.28485	0.22598	0.018448	0.13594	0.13749	0.19478	-2.0542	-2.3521	-2.5667	-2.3729	-2.425	-2.4917	-2.4458	-2.6896	-2.5792	-2.5021	-2.6333	-2.2062	-2.5396	-2.6521	-2.2771	-2.6375	287.015	438.923	287.691	438.023	497.484	365.377	528.506	389.103	212.384	320.397	283.119	184.035	470.612	521.165	479.002	507.617	0.00091828	0.00098165	0.000134	243.04	8.3464e-06	5.5619e-06	314.15	103.39	6.5746e-06	7.0958e-06	157.6	76.584	50.167	26.557	1.2234e-05	43.235	0.0010776	0.0009821	0.00026374	433.96	1.1553e-05	1.0691e-05	467.92	159.99	1.156e-05	1.0554e-05	241.49	104.87	80.39	34.506	1.0781e-05	55.328	370.625	256.619	204.557	184.179	381.489	323.233	183.522	189.966	341.014	374.261	187.758	192.123	193.804	197.778	190.944	194.853	-8191	255	
7778.203	1	1	0	0	0.068099	0.12084	0.29884	0.099252	0.14005	0.15937	0.14588	0.23339	0.058548	0.17822	0.12134	0.16805	0.032252	0.29243	0.30516	0.41492	-2.1979	-2.0667	-2.6896	-2.4396	-2.4104	-2.6104	-2.4375	-2.5354	-2.5125	-2.2708	-2.7313	-2.4833	-2.3646	-2.7	-2.5292	-2.5042	462.387	420.197	234.160	187.780	362.277	313.615	437.326	362.707	183.879	402.524	507.287	295.322	526.912	174.870	198.232	504.155	0.0010738	0.00068856	0.00027002	243.1	5.6734e-06	1.3818e-06	314.6	103.47	4.185e-06	3.5366e-06	156.89	76.894	50.246	26.479	1.4608e-05	43.145	0.0010402	0.00095902	0.00027957	439.67	1.1329e-05	1.0598e-05	482.17	161.57	1.1441e-05	1.0533e-05	250.01	105.68	80.308	34.495	1.1806e-05	55.306	372.720	287.632	514.355	184.912	282.689	426.886	183.811	190.107	404.534	339.200	187.622	192.146	193.666	197.616	174.262	194.816	-8191	255	
7778.297	1	1	0	0	0.097348	0.12705	0.2378	0.14049	0.10946	0.27035	0.098412	0.26014	0.074314	0.19292	0.07097	0.12506	0.32764	0.18201	0.28092	0.069353	-2.0542	-2.4083	-2.7104	-2.4437	-2.3542	-2.7896	-2.3563	-2.6229	-2.6958	-2.3729	-2.6604	-2.6167	-2.2812	-2.8083	-2.3688	-2.4417	290.732	519.755	321.552	487.449	350.605	286.541	399.065	525.195	497.326	326.254	193.192	490.027	509.646	344.274	464.465	426.782	0.0010905	0.00038816	0.00012073	239.94	7.961e-06	1.1759e-06	314.61	103.47	9.8379e-06	6.1415e-06	156.77	76.669	50.146	26.546	1.0803e-05	43.102	0.0010346	0.00095612	0.00030277	435.97	1.1189e-05	1.0506e-05	493.18	159.84	1.1256e-05	1.0574e-05	256.14	104.46	79.703	34.619	1.2416e-05	54.932	361.418	225.123	525.202	184.905	304.095	216.023	183.683	190.300	342.727	525.285	188.024	192.139	194.013	197.623	200.558	194.877	-8191	255	
7778.418	1	1	0	0	0.037569	0.26925	0.060386	0.16648	0.071988	0.076276	0.095053	0.27061	0.26791	0.1074	0.24613	0.034286	0.14784	0.17174	0.10127	0.12608	-2.2917	-2.3333	-2.4562	-2.5896	-2.225	-2.5708	-2.3812	-2.4625	-2.5854	-2.4188	-2.6813	-2.4729	-2.2687	-2.6125	-2.3604	-2.5563	251.084	292.155	296.069	412.221	330.707	382.134	317.674	494.922	344.632	498.961	184.781	446.008	371.852	482.390	182.325	465.032	0.0010173	0.00098305	0.00028491	239.66	7.5691e-06	1.0245e-05	313.71	102.76	4.989e-06	5.3336e-06	155.95	76.625	50.233	26.647	7.5732e-06	43.38	0.0010124	0.00098123	0.00031528	429.33	1.0939e-05	1.0859e-05	499.5	157.56	1.0896e-05	1.0984e-05	257.89	103.44	78.637	35.076	1.2553e-05	54.404	361.485	512.296	184.297	185.263	299.249	188.576	183.616	190.240	386.249	203.262	188.605	192.225	193.987	197.272	493.821	194.853	-8191	255	
7778.514	1	1	0	0	0.1459	0.089099	0.28965	0.28429	0.12667	0.1621	0.068304	0.18936	0.087127	0.25993	0.058777	0.31292	0.031866	0.15788	0.12695	0.1092	-2.2167	-2.3479	-2.6042	-2.5312	-2.2938	-2.675	-2.4813	-2.2958	-2.8146	-2.2188	-2.5438	-2.7104	-2.2417	-2.7583	-2.5792	-2.5	209.573	264.969	337.617	251.942	300.125	188.555	434.327	532.439	232.560	292.326	180.857	435.196	373.636	446.539	440.221	278.273	0.00095408	0.0012505	0.00015116	240.97	7.2292e-06	1.241e-05	313.05	103.73	9.7094e-06	8.0503e-06	155.98	76.609	50.03	26.636	6.9716e-06	43.047	0.00097499	0.0010347	0.00031241	421.76	1.052e-05	1.1436e-05	496.42	155.59	1.0537e-05	1.1648e-05	254.34	102.09	77.417	35.552	1.2107e-05	53.9	370.935	465.500	291.141	185.032	281.933	204.423	183.794	190.430	313.415	214.241	188.445	192.217	193.430	197.320	353.760	194.970	-8191	255	
7778.585	1	1	0	0	0.21216	0.20218	0.2362	0.2195	0.13778	0.22735	0.164	0.4732	0.18407	0.26376	0.22696	0.029474	0.1838	0.11607	0.27607	0.23632	-2.2625	-2.5146	-2.4771	-2.625	-2.2542	-2.6208	-2.4062	-2.4167	-2.7854	-2.6208	-2.5083	-2.6583	-2.3625	-2.6479	-2.3771	-2.5292	246.740	366.883	242.575	226.066	488.490	210.122	474.410	488.552	292.801	289.893	386.294	204.153	179.604	210.978	291.107	476.111	0.0013948	0.00087834	0.00016399	241.36	9.0605e-06	1.1631e-05	312.66	103.22	4.9132e-06	1.0583e-05	155.5	76.424	49.965	26.562	4.77e-06	42.974	0.00096065	0.0010992	0.00030295	417.56	1.0523e-05	1.2136e-05	489.55	154.39	1.0648e-05	1.2307e-05	250.85	101.46	78.414	35.93	1.1711e-05	53.428	360.129	493.254	329.143	184.988	229.911	215.331	183.803	190.234	242.037	177.091	188.615	191.993	193.539	197.689	322.576	194.945	-8191	255	
7778.706	1	1	0	0	0.16002	0.2513	0.16175	0.11371	0.13423	0.12111	0.10502	0.13326	0.23193	0.025006	0.091728	0.12969	0.13688	0.053358	0.18645	0.18386	-2.2042	-2.15	-2.5854	-2.6813	-2.3521	-2.5729	-2.5146	-2.4313	-2.6771	-2.5792	-2.4625	-2.6917	-2.3167	-2.5187	-2.6229	-2.5708	318.803	417.278	259.588	249.704	454.394	351.043	484.064	496.473	239.150	269.444	283.264	511.847	432.546	494.317	393.408	449.004	0.0014166	0.00048775	0.00020844	240.37	3.6762e-06	1.8363e-06	310.06	102.3	1.0103e-05	4.3928e-06	156.16	76.586	50.231	26.644	7.0318e-06	42.917	0.00098609	0.0011335	0.00029162	412.51	1.1e-05	1.2434e-05	482.83	153.09	1.1252e-05	1.2582e-05	248.11	101.08	81.034	36.232	1.1603e-05	53.466	344.158	174.676	289.942	185.127	216.919	236.964	183.696	190.208	215.446	367.301	188.718	192.146	193.155	197.709	316.824	194.976	-8191	255	
7778.802	1	1	0	0	0.091344	0.12838	0.054508	0.039256	0.11043	0.10117	0.2304	0.1176	0.20616	0.12251	0.097736	0.12085	0.11266	0.10346	0.39682	0.11483	-2.3479	-2.5271	-2.5292	-2.5896	-2.4521	-2.5938	-2.5896	-2.3583	-2.7208	-2.6312	-2.4437	-2.7	-2.3479	-2.5521	-2.5812	-2.475	369.189	467.829	260.946	240.439	463.432	258.159	334.795	403.258	455.384	400.932	435.453	295.877	356.552	414.034	344.753	453.645	0.0018665	0.0012294	0.00011141	241.6	1.4357e-05	6.274e-06	311.34	102.63	8.853e-06	1.3185e-05	154.54	76.408	50.489	26.624	4.3459e-06	42.972	0.0010757	0.0011533	0.00029142	411.82	1.2084e-05	1.2493e-05	480.92	153.09	1.2278e-05	1.2562e-05	247.45	101.4	84.1	36.158	1.1619e-05	53.784	328.098	337.300	256.944	184.755	531.015	440.484	183.729	190.087	196.339	372.547	188.453	191.780	193.013	197.675	359.647	194.693	-8191	255	
7778.898	1	1	0	0	0.28001	0.2794	0.23917	0.073038	0.28902	0.10745	0.17647	0.20182	0.25221	0.45441	0.28723	0.31936	0.18512	0.15179	0.037649	0.4674	-2.0438	-2.2792	-2.4313	-2.525	-2.4521	-2.5771	-2.6562	-2.4083	-2.5458	-2.675	-2.2562	-2.7104	-2.4042	-2.4583	-2.5604	-2.4	258.142	236.258	214.428	190.188	272.179	228.447	306.487	368.518	343.812	472.212	508.449	498.601	493.175	265.766	221.160	491.713	0.0011587	0.00085952	6.0443e-05	239.65	6.0413e-06	9.2026e-06	308.78	102.28	6.6159e-06	8.2066e-06	155.55	76.161	50.336	26.688	8.3264e-06	42.982	0.0011625	0.0011414	0.00029132	416.26	1.3016e-05	1.2414e-05	481.09	155.31	1.3227e-05	1.2457e-05	247.42	102.92	86.419	36.06	1.1596e-05	54.647	336.650	226.970	336.939	184.640	192.421	341.023	184.011	189.674	217.575	354.780	188.431	191.881	193.589	197.765	337.776	194.435	-8191	255	
7778.995	1	1	0	0	0.12083	0.07019	0.10354	0.16891	0.067632	0.19714	0.28862	0.34675	0.079955	0.029446	0.13285	0.16397	0.095701	0.2193	0.1459	0.1074	-2.0104	-2.4083	-2.3667	-2.6042	-2.4188	-2.4	-2.7542	-2.3542	-2.5958	-2.5708	-2.2375	-2.5292	-2.4542	-2.5167	-2.7583	-2.5625	366.736	287.713	348.468	262.017	217.128	190.692	461.849	441.789	506.481	430.654	462.769	447.234	417.480	471.366	363.069	408.710	0.0010988	0.0008484	0.00019554	238.81	9.6174e-06	5.8349e-06	306.87	101.59	3.6564e-06	9.1276e-06	153.57	76.017	49.888	26.75	4.351e-06	43.234	0.0012185	0.0011242	0.00028951	428.73	1.3435e-05	1.2112e-05	476.48	158.63	1.3359e-05	1.2195e-05	245.73	105.25	86.717	36.034	1.1564e-05	55.954	362.939	248.543	305.619	184.071	399.282	361.585	183.864	189.738	307.108	424.187	188.120	191.573	193.824	197.682	286.536	194.537	-8191	255	
7779.115	1	1	0	0	0.22817	0.27274	0.027129	0.12134	0.20461	0.11439	0.15398	0.05435	0.12688	0.11539	0.10763	0.15181	0.14945	0.13647	0.06252	0.19718	-2.2333	-2.5896	-2.2333	-2.8146	-2.4458	-2.3167	-2.7438	-2.2687	-2.4437	-2.6104	-2.3187	-2.7708	-2.6188	-2.4813	-2.7792	-2.5104	300.743	214.023	416.602	503.835	258.660	470.264	429.328	318.151	216.079	390.003	466.114	484.681	214.667	464.216	290.391	415.024	0.00086642	0.0010719	2.7844e-05	237.94	2.3053e-06	6.4166e-06	304.54	101.86	1.0831e-05	4.8971e-06	153.76	76.142	50.211	26.673	1.2561e-05	43.091	0.0012223	0.0011266	0.00029064	444.49	1.3392e-05	1.217e-05	477.32	163.57	1.322e-05	1.2177e-05	246.96	107.44	85.945	35.935	1.1795e-05	56.877	381.877	301.361	439.520	183.994	317.942	367.668	183.472	189.672	351.612	407.738	188.029	192.120	193.942	197.297	189.623	194.359	-8191	255	
7779.210	1	1	0	0	0.34775	0.12952	0.26536	0.066387	0.25034	0.041462	0.19982	0.11122	0.15122	0.097991	0.096256	0.14032	0.13261	0.22363	0.11733	0.069836	-2.1396	-2.4146	-2.1667	-2.6688	-2.5292	-2.35	-2.725	-2.4521	-2.5604	-2.7875	-2.3354	-2.6896	-2.5021	-2.3354	-2.5833	-2.7167	297.090	193.102	532.281	455.172	176.851	480.571	394.772	405.510	450.395	189.621	486.939	502.873	409.768	207.068	507.576	451.845	0.000765	0.00023821	0.00042939	236.94	7.2538e-06	6.9502e-06	305.83	101.7	1.6081e-05	1.0494e-05	153.52	76.01	50.316	26.637	5.8556e-06	42.891	0.0011981	0.001122	0.00030462	457.61	1.3246e-05	1.2189e-05	485.85	166.64	1.2997e-05	1.2024e-05	252.86	108.46	84.78	35.654	1.2456e-05	56.998	376.163	337.201	507.728	184.797	373.328	332.254	183.409	190.666	343.065	395.076	187.858	192.020	193.455	197.596	185.055	194.792	-8191	255	
7779.307	1	1	0	0	0.14356	0.12462	0.15502	0.20654	0.19648	0.10867	0.20432	0.2216	0.16652	0.16726	0.21522	0.25317	0.28242	0.067333	0.073517	0.3017	-2.0083	-2.7208	-2.4	-2.5375	-2.525	-2.3229	-2.5646	-2.4229	-2.3271	-2.9208	-2.3521	-2.4792	-2.5354	-2.3292	-2.5896	-2.5458	401.163	406.200	213.723	278.703	278.327	324.370	411.574	181.909	440.542	396.760	496.617	432.432	485.486	454.644	214.627	450.114	0.0010142	0.0013629	0.0001459	236.81	1.3921e-06	1.4289e-05	307.27	101.16	1.5937e-05	3.9231e-06	153.57	75.886	49.811	26.712	9.051e-06	42.932	0.001157	0.0010868	0.00032324	455.84	1.2779e-05	1.1819e-05	497.26	166.02	1.2651e-05	1.1775e-05	260.53	107.93	84.254	35.587	1.3401e-05	56.742	348.099	298.736	503.585	184.880	292.457	392.381	183.972	190.420	278.079	443.372	187.821	192.198	193.768	197.338	192.506	194.781	-8191	255	
7779.402	1	1	0	0	0.27486	0.23941	0.23034	0.14111	0.19972	0.12257	0.14569	0.065296	0.14119	0.1965	0.2683	0.10991	0.096184	0.13957	0.19607	0.14707	-1.8875	-2.6188	-2.325	-2.3208	-2.6188	-2.4	-2.6708	-2.5625	-2.2667	-2.7458	-2.4146	-2.5292	-2.7	-2.45	-2.6646	-2.5146	294.393	344.482	235.490	284.576	395.503	327.252	258.155	350.484	482.895	425.462	431.598	521.319	379.495	195.148	200.221	356.509	0.00095825	0.00052305	0.00012233	236.37	6.5722e-06	9.4294e-06	304.26	101.48	9.5747e-06	5.0076e-06	153.85	75.794	50.315	26.797	2.5815e-06	42.871	0.0011416	0.0010841	0.00034724	451.41	1.2647e-05	1.1943e-05	509.41	164.7	1.2555e-05	1.2032e-05	268.23	107.12	83.832	35.962	1.4178e-05	56.257	391.092	522.800	503.248	185.285	279.564	200.111	183.806	190.634	393.064	529.376	188.147	192.132	193.435	197.222	359.855	194.632	-8191	255	
7779.498	1	1	0	0	0.19458	0.14473	0.12183	0.044499	0.06442	0.12269	0.20734	0.09189	0.18704	0.28762	0.033083	0.12664	0.055164	0.22925	0.21591	0.025581	-1.8792	-2.5354	-2.5187	-2.4604	-2.5354	-2.3583	-2.5896	-2.4604	-2.4875	-2.7125	-2.5521	-2.5479	-2.8063	-2.2625	-2.4167	-2.75	186.506	427.236	526.050	397.685	471.027	382.287	272.275	374.696	185.538	270.850	175.484	308.288	215.148	202.482	239.653	181.719	0.0011471	0.0010256	0.00011306	235.47	7.9835e-06	2.0637e-05	304.47	101.12	1.2876e-05	1.6701e-05	151.95	75.746	49.538	26.556	7.8442e-06	42.523	0.0011243	0.0011263	0.00036021	444.06	1.2304e-05	1.2465e-05	513.15	161.9	1.2169e-05	1.2641e-05	268.69	105.53	82.238	36.399	1.396e-05	55.431	361.940	443.545	485.613	185.112	343.527	525.890	184.041	190.322	342.536	221.169	188.101	192.015	193.537	197.189	294.953	194.835	-8191	255	
7779.594	1	1	0	0	0.16972	0.095446	0.22969	0.21873	0.18389	0.11619	0.10887	0.1927	0.17844	0.098438	0.21495	0.14059	0.2297	0.11366	0.26848	0.17242	-1.9458	-2.5833	-2.4083	-2.4021	-2.6229	-2.4604	-2.6562	-2.6354	-2.2208	-2.7042	-2.5021	-2.3438	-2.7083	-2.3354	-2.3542	-2.65	469.616	458.025	441.187	436.967	219.659	380.059	340.633	311.677	385.193	306.851	415.604	192.357	176.857	211.147	277.580	470.665	0.0010974	0.0014799	9.3267e-05	235.88	7.7965e-06	1.1192e-05	304.04	101.23	6.3931e-06	8.1188e-06	153.26	75.488	50.106	26.64	6.1652e-06	42.81	0.0010761	0.0011765	0.00034929	434.39	1.174e-05	1.3006e-05	504.92	159.17	1.1708e-05	1.3191e-05	263.08	104.24	81.225	36.914	1.3385e-05	55.065	343.468	493.974	368.592	184.671	368.084	446.989	184.157	190.289	271.149	190.725	188.538	192.103	193.396	197.458	308.469	194.972	-8191	255	
7779.715	1	1	0	0	0.25425	0.16265	0.029019	0.10281	0.10088	0.26334	0.13656	0.061262	0.20156	0.11401	0.049066	0.15306	0.11547	0.14702	0.042162	0.12561	-1.8229	-2.4583	-2.2521	-2.3833	-2.4917	-2.2458	-2.4583	-2.5646	-2.3125	-2.45	-2.4604	-2.3312	-2.8937	-2.3937	-2.3937	-2.6979	473.866	427.150	489.908	502.182	400.773	445.656	380.463	392.650	311.092	189.203	218.606	510.653	514.886	435.438	369.164	530.298	0.0015019	0.00048086	0.00012634	236.79	5.8393e-06	5.6637e-06	304.22	101.09	1.2248e-05	2.459e-06	153.77	75.66	49.999	26.505	4.5423e-06	42.832	0.0010686	0.0012268	0.00033342	427.06	1.1671e-05	1.3498e-05	496.63	157.29	1.1723e-05	1.3442e-05	256.97	103.04	81.615	36.937	1.2583e-05	54.436	346.400	471.851	322.193	185.326	206.179	531.780	184.034	190.618	202.782	490.958	188.647	192.325	193.031	197.379	322.847	194.867	-8191	255	
7779.811	1	1	0	0	0.11316	0.12633	0.28894	0.13124	0.070631	0.1582	0.51219	0.22699	0.10152	0.04049	0.24282	0.11837	0.32458	0.38313	0.036868	0.33132	-1.7875	-2.4708	-2.5208	-2.3375	-2.6063	-2.5625	-2.4375	-2.7417	-2.4375	-2.675	-2.6896	-2.3167	-2.5479	-2.5583	-2.3063	-2.9271	294.018	491.340	374.971	202.375	332.165	304.819	457.325	519.961	495.505	394.665	476.809	407.569	173.255	423.984	472.555	202.780	0.0015544	0.00012588	0.00015327	237.86	6.9732e-06	1.1401e-06	306.29	101.13	9.8149e-06	2.8505e-06	152.92	75.628	50.107	26.528	4.0678e-06	42.505	0.0010984	0.001241	0.00032031	423.34	1.2316e-05	1.3742e-05	491.23	156.15	1.2634e-05	1.3653e-05	255.13	102.64	84.63	37.018	1.2479e-05	54.164	342.541	371.717	309.045	184.540	214.504	186.192	183.717	190.072	184.719	362.171	188.389	192.027	192.952	197.552	337.390	194.679	-8191	255	
7779.883	1	1	0	0	0.14363	0.10343	0.22504	0.20839	0.081264	0.093008	0.1002	0.2367	0.16103	0.062862	0.17241	0.14524	0.33695	0.26307	0.079013	0.19377	-2.0229	-2.4229	-2.625	-2.3104	-2.6167	-2.4792	-2.4417	-2.7833	-2.4625	-2.4792	-2.5771	-2.275	-2.6437	-2.6271	-2.2146	-2.6125	397.883	512.114	446.791	398.877	395.267	389.817	530.556	385.212	239.947	510.362	267.484	467.898	480.104	474.405	525.800	480.256	0.0023071	0.0005837	0.00025866	237.93	9.4571e-06	1.7169e-05	303.22	101.48	1.4377e-05	6.4346e-06	153.05	75.003	50.277	26.417	1.7245e-06	42.576	0.0011905	0.0012381	0.00031747	422.6	1.3328e-05	1.3608e-05	489.38	155.96	1.3537e-05	1.3318e-05	252.84	102.35	86.61	36.534	1.2204e-05	54.222	346.621	188.192	327.126	184.972	174.876	364.310	184.099	190.206	187.930	341.409	188.258	191.928	193.289	197.691	255.378	194.327	-8191	255	
7779.979	1	1	0	0	0.14352	0.054709	0.099553	0.12024	0.059928	0.076596	0.16241	0.19951	0.15663	0.04482	0.1515	0.13833	0.23138	0.15866	0.25237	0.19766	-1.975	-2.3354	-2.5167	-2.1271	-2.5083	-2.3083	-2.1354	-2.6771	-2.4813	-2.3896	-2.5583	-2.3021	-2.4188	-2.5104	-2.3563	-2.6771	349.667	375.496	391.663	434.082	398.722	184.811	197.021	519.515	245.220	199.486	284.628	233.930	410.313	491.839	524.021	483.202	0.0013097	0.00066094	0.00019636	239.02	9.9887e-07	1.125e-05	305.82	101.94	5.1736e-06	9.9341e-06	152.97	75.558	49.687	26.504	1.1745e-05	42.66	0.0012557	0.0011966	0.00030985	427.7	1.3856e-05	1.305e-05	484.72	158.05	1.3957e-05	1.2861e-05	251	104.14	88.045	36.362	1.1997e-05	55.097	347.983	293.898	350.450	184.593	226.924	360.718	183.639	189.740	496.491	297.561	188.560	191.848	193.725	197.769	326.187	194.198	-8191	255	
7780.075	1	1	0	0	0.20269	0.25813	0.35135	0.35076	0.15144	0.13737	0.13335	0.25928	0.1263	0.16744	0.1527	0.22865	0.4154	0.28488	0.075566	0.17059	-1.9292	-2.15	-2.4542	-2.2875	-2.6417	-2.5458	-2.2812	-2.65	-2.3875	-2.3208	-2.6958	-2.2229	-2.475	-2.6625	-2.2271	-2.7146	270.684	483.001	475.952	467.258	424.559	219.845	455.480	494.086	290.634	178.155	390.138	178.549	186.551	222.008	361.626	454.675	0.00087945	0.00061105	0.00015747	237.48	3.1039e-06	6.3971e-06	303.55	101.24	9.4969e-06	3.7755e-06	152.73	75.831	49.702	26.504	6.3032e-06	42.862	0.0012808	0.0011636	0.00030362	441.18	1.4025e-05	1.2833e-05	482.71	162.51	1.4072e-05	1.2709e-05	249.18	106.74	87.528	36.209	1.1878e-05	56.256	375.501	278.601	343.669	183.855	211.180	379.578	184.226	189.796	342.898	351.509	188.094	191.697	193.696	197.680	244.379	194.518	-8191	255	
7780.194	1	1	0	0	0.23762	0.089255	0.08112	0.11045	0.098142	0.2326	0.14368	0.10684	0.28437	0.11986	0.019504	0.10066	0.12077	0.21437	0.11277	0.32504	-2.0729	-2.2979	-2.5312	-2.4437	-2.6063	-2.6354	-2.2604	-2.6167	-2.5292	-2.425	-2.8208	-2.4875	-2.4417	-2.7104	-2.3729	-2.8667	484.861	512.601	331.421	286.670	336.530	267.663	292.851	269.464	242.303	207.622	499.168	200.241	393.960	231.048	275.122	423.926	0.00076217	0.00058081	6.4684e-05	235.21	9.4083e-06	1.2337e-05	305.62	101.43	8.8384e-06	1.1352e-05	152.89	75.813	49.778	26.519	9.1007e-06	42.868	0.0012584	0.0011508	0.00030306	455.35	1.3705e-05	1.2642e-05	483.48	165.94	1.3589e-05	1.2421e-05	250.6	108.32	86.107	35.868	1.2075e-05	56.731	350.886	243.189	233.059	184.216	347.864	303.526	183.464	189.989	343.245	381.335	187.970	191.765	193.931	197.375	519.686	194.681	-8191	255	
7780.290	1	1	0	0	0.22448	0.099375	0.04544	0.26126	0.23276	0.22325	0.12709	0.1539	0.065981	0.13859	0.15222	0.19305	0.174	0.085384	0.031575	0.10744	-2.15	-2.2125	-2.5875	-2.4938	-2.325	-2.6625	-2.1625	-2.5979	-2.6375	-2.3396	-2.7792	-2.625	-2.5125	-2.7313	-2.5375	-2.6	444.601	268.951	408.751	244.918	372.434	390.675	512.474	222.655	319.538	401.256	227.762	431.613	513.975	391.741	175.088	454.600	0.00099107	0.0010474	0.0001634	237.89	8.7471e-06	6.6967e-06	308.43	101.81	4.3457e-06	9.3699e-06	153.72	75.338	49.998	26.456	1.5102e-05	42.623	0.001205	0.0011157	0.00031251	464.31	1.3225e-05	1.2318e-05	493.78	168.4	1.3225e-05	1.2229e-05	257.17	108.92	84.941	35.618	1.2875e-05	56.704	378.263	259.772	518.766	184.516	351.275	331.722	183.250	190.091	387.896	356.381	187.840	191.947	193.638	197.407	521.408	194.895	-8191	255	
7780.388	1	1	0	0	0.21437	0.20775	0.19298	0.06108	0.092654	0.16239	0.13917	0.21784	0.10259	0.2918	0.26961	0.10252	0.12928	0.21405	0.1395	0.16621	-2.1792	-2.1458	-2.4021	-2.3958	-2.2917	-2.6833	-2.2771	-2.4583	-2.7125	-2.2188	-2.6708	-2.5083	-2.3375	-2.7396	-2.4771	-2.7	356.655	200.931	398.156	282.995	456.311	453.122	266.085	481.089	348.053	389.088	479.719	218.453	387.387	209.083	312.255	525.616	0.0011955	0.0010023	0.00033694	237.92	2.2739e-06	8.6478e-07	305.38	101.96	1.1194e-05	7.3297e-06	154.19	75.515	49.988	26.41	1.2974e-05	42.748	0.0011672	0.0010746	0.00032856	457.42	1.2578e-05	1.174e-05	501.13	165.41	1.2586e-05	1.1696e-05	262.41	107.46	83.38	35.38	1.354e-05	55.992	361.900	286.378	482.707	185.021	391.085	248.021	183.603	190.531	344.790	328.099	188.014	192.156	193.462	197.443	511.714	194.763	-8191	255	
7780.507	1	1	0	0	0.049023	0.16974	0.47557	0.063874	0.14658	0.25946	0.18039	0.31976	0.30214	0.18325	0.2351	0.08761	0.18961	0.21901	0.12562	0.056796	-2.0812	-2.3146	-2.6792	-2.4521	-2.3	-2.8875	-2.5958	-2.3875	-2.7542	-2.3396	-2.5312	-2.65	-2.3875	-2.5167	-2.4875	-2.4208	237.638	484.294	393.774	418.913	347.349	378.149	432.258	403.393	477.404	490.059	490.765	258.550	403.972	201.345	349.314	405.898	0.00087129	0.00098943	0.00027156	237.86	6.8899e-06	1.1015e-05	308.82	101.63	4.6534e-06	9.12e-06	152.97	75.889	50.129	26.47	3.633e-06	42.556	0.0011305	0.0010648	0.00034352	448.54	1.2193e-05	1.1677e-05	509.48	162.57	1.2076e-05	1.181e-05	265.9	105.91	82.085	35.689	1.394e-05	55.455	360.273	463.480	519.600	184.977	347.330	229.529	183.405	190.610	334.183	196.888	188.169	192.214	193.488	197.129	297.516	194.772	-8191	255	
7780.578	1	1	0	0	0.12697	0.032712	0.14943	0.26063	0.14538	0.19272	0.19266	0.049895	0.15596	0.44238	0.17158	0.28288	0.03477	0.15509	0.058872	0.19796	-2.0167	-2.3604	-2.5354	-2.6625	-2.175	-2.4938	-2.5667	-2.3625	-2.5521	-2.3063	-2.7625	-2.5771	-2.2833	-2.5312	-2.5646	-2.4688	188.632	342.874	460.596	322.128	430.490	296.318	398.083	299.208	328.736	232.830	487.774	290.515	453.183	527.926	384.331	188.283	0.0010121	0.0013981	9.2754e-05	237.75	9.3276e-06	1.4305e-05	305.9	101.97	2.8053e-06	1.3397e-05	154.03	75.732	49.901	26.633	8.7494e-06	42.652	0.0010963	0.0011103	0.00035065	440.39	1.1809e-05	1.2317e-05	511.88	160.46	1.1751e-05	1.2561e-05	265.98	104.78	81.231	36.352	1.386e-05	55.246	360.646	487.781	302.084	185.199	354.369	527.526	184.013	190.225	353.372	214.898	188.367	192.119	193.502	197.430	311.321	194.950	-8191	255	
7780.675	1	1	0	0	0.08401	0.36651	0.11277	0.15842	0.011272	0.080231	0.13924	0.19455	0.055615	0.095717	0.18554	0.24445	0.39355	0.050402	0.13483	0.072242	-2.3042	-2.2562	-2.6208	-2.6333	-2.3312	-2.7042	-2.6813	-2.3146	-2.7021	-2.3729	-2.6104	-2.4792	-2.2792	-2.6063	-2.5417	-2.3729	217.032	469.287	433.560	206.718	220.858	264.617	266.393	492.008	231.414	361.296	264.614	453.293	201.862	412.420	242.223	233.244	0.0011699	0.0015458	0.00015998	237.08	2.1785e-06	9.3392e-06	305.46	101.32	8.018e-06	5.097e-06	153.41	75.593	49.586	26.432	1.0324e-05	42.56	0.0010802	0.0012064	0.0003481	439.09	1.1782e-05	1.3379e-05	509.91	159.97	1.1765e-05	1.3576e-05	263.84	104.68	81.665	37.121	1.3554e-05	54.915	374.326	500.951	294.627	184.747	232.356	245.845	183.927	190.433	314.173	233.950	188.093	192.138	193.434	196.982	319.243	194.890	-8191	255	
7780.795	1	1	0	0	0.17739	0.27571	0.062318	0.14711	0.23912	0.18891	0.10885	0.4136	0.21514	0.17169	0.091689	0.020089	0.11634	0.079428	0.18362	0.11347	-2.4854	-2.4042	-2.3354	-2.6437	-2.125	-2.7021	-2.6708	-2.2729	-2.7625	-2.3479	-2.3771	-2.8729	-2.3229	-2.7875	-2.5833	-2.3875	199.434	330.874	293.005	492.514	262.956	301.721	451.710	298.352	422.693	184.700	304.079	360.760	527.950	420.739	296.396	499.827	0.0014351	0.0010607	0.00028812	237.81	7.7679e-06	1.0843e-05	304.81	101.63	1.619e-05	8.3881e-06	152.77	75.3	50.329	26.579	5.5069e-06	42.716	0.0011054	0.0012893	0.00034288	439.27	1.245e-05	1.4468e-05	510.28	161.31	1.2821e-05	1.4729e-05	264.09	105.06	85.117	37.875	1.3573e-05	55.107	356.644	479.914	320.719	185.172	193.546	204.224	184.256	190.540	201.284	466.760	188.809	192.161	192.593	197.276	370.480	194.881	-8191	255	
7780.891	1	1	0	0	0.033864	0.040452	0.30881	0.21377	0.13359	0.26072	0.066627	0.15309	0.24548	0.26192	0.041502	0.17975	0.10707	0.084622	0.25942	0.1621	-2.1146	-2.3354	-2.2958	-2.5917	-2.4562	-2.6271	-2.5708	-2.4938	-2.6188	-2.4104	-2.3229	-2.7396	-2.4875	-2.5417	-2.6458	-2.2042	306.247	405.000	209.541	388.845	409.219	477.510	391.342	502.683	440.373	399.003	475.829	247.086	419.222	239.752	385.077	295.085	0.0017306	0.001041	0.0002995	236.56	1.2896e-05	7.3361e-06	305.18	101.16	2.0017e-05	7.9329e-06	153.66	75.367	49.912	26.563	1.0523e-05	42.692	0.0012089	0.0013509	0.0003397	436.53	1.3436e-05	1.4494e-05	502.79	159.12	1.3497e-05	1.4387e-05	259.58	103.8	87.28	37.488	1.3051e-05	54.729	335.438	264.090	316.662	185.062	182.384	372.681	183.767	190.062	206.916	379.176	188.318	192.183	192.960	197.794	342.080	194.785	-8191	255	
7780.987	1	1	0	0	0.12325	0.083242	0.085321	0.18947	0.067835	0.048248	0.10593	0.29796	0.34471	0.16749	0.42047	0.069207	0.12796	0.11941	0.23664	0.1022	-2.2771	-2.4437	-2.2812	-2.625	-2.4375	-2.5708	-2.8312	-2.1896	-2.6854	-2.5125	-2.3667	-2.7021	-2.4271	-2.7854	-2.525	-2.3875	467.380	357.941	346.440	487.442	467.513	276.459	177.564	198.394	446.175	352.105	498.741	329.703	326.296	195.725	478.003	260.714	0.0013196	0.0013995	0.00024981	237.42	1.3475e-05	1.364e-05	308.08	101.66	1.4068e-05	1.1257e-05	153.99	75.744	49.641	26.592	9.7414e-06	42.828	0.0012609	0.0012894	0.00032792	431.84	1.4181e-05	1.3969e-05	498.82	158.85	1.4221e-05	1.3824e-05	256.88	104.07	89.093	37.001	1.2734e-05	55.028	347.611	272.336	304.954	184.665	197.086	330.607	184.075	190.058	210.776	344.315	188.406	192.203	193.096	197.654	300.302	194.501	-8191	255	
7781.108	1	1	0	0	0.073801	0.063305	0.15916	0.36374	0.3147	0.23826	0.10724	0.18629	0.19243	0.15433	0.24042	0.10458	0.16647	0.071687	0.078052	0.20053	-2.1417	-2.3958	-2.1896	-2.6292	-2.4396	-2.5917	-2.65	-2.3042	-2.5625	-2.6729	-2.1667	-2.8042	-2.2625	-2.2458	-2.6042	-2.3125	464.408	218.851	202.605	469.116	494.457	331.693	418.559	262.714	449.858	234.486	284.093	420.253	329.173	492.175	270.777	518.703	0.0013315	0.00062239	0.00022755	238.6	3.5329e-06	8.6302e-06	306.95	102.11	4.643e-06	1.6856e-05	153.77	75.496	49.734	26.611	3.5018e-06	42.726	0.0013205	0.0012517	0.0003216	440.11	1.4806e-05	1.3612e-05	496.45	162.7	1.4904e-05	1.3673e-05	257.26	106.9	91.627	37.183	1.2942e-05	56.551	343.402	289.678	355.316	184.656	172.196	343.461	183.953	189.936	485.947	358.691	188.497	191.370	193.280	197.668	381.491	194.297	-8191	255	
7781.180	1	1	0	0	0.28471	0.16112	0.19181	0.29927	0.087557	0.19787	0.15982	0.060331	0.18854	0.21257	0.25486	0.14832	0.2378	0.068361	0.22895	0.25852	-2.2771	-2.4292	-2.1896	-2.5708	-2.2458	-2.4833	-2.7125	-2.3333	-2.2812	-2.5187	-2.2333	-2.5917	-2.3625	-2.3896	-2.4708	-2.3688	315.176	287.535	174.269	484.986	360.266	508.307	476.162	415.054	341.814	483.360	461.750	477.590	367.952	233.018	180.672	448.641	0.000911	0.00059231	7.1467e-05	239.62	8.9445e-07	4.8029e-06	304.64	101.89	1.5977e-05	7.7927e-06	153.51	75.367	49.877	26.569	6.0053e-06	42.633	0.0013797	0.0012609	0.0003252	459.88	1.5111e-05	1.3621e-05	493.96	168.08	1.487e-05	1.3521e-05	256.4	109.27	90.409	36.822	1.2752e-05	57.475	369.129	253.617	413.029	184.062	475.936	261.762	184.112	189.972	331.647	345.155	188.195	191.562	193.540	197.475	189.251	194.560	-8191	255	
7781.276	1	1	0	0	0.11428	0.14462	0.039662	0.13433	0.22488	0.37958	0.41112	0.11546	0.26106	0.095004	0.4041	0.15389	0.13452	0.12123	0.16883	0.056354	-1.9542	-2.45	-2.3312	-2.4625	-2.3479	-2.1833	-2.6229	-2.3542	-2.4792	-2.7479	-2.2438	-2.8104	-2.3937	-2.2854	-2.6021	-2.3292	294.588	446.329	323.379	366.384	526.120	422.828	473.518	329.107	415.712	505.075	472.104	433.600	435.499	204.220	441.738	205.802	0.0006622	0.00068767	0.00019862	237.63	7.4339e-06	1.1683e-05	305.76	101.91	8.3138e-06	5.6898e-06	152.49	75.331	49.709	26.5	1.7398e-05	42.647	0.0013326	0.0012392	0.00032512	474.4	1.4741e-05	1.3462e-05	498.63	172.53	1.4589e-05	1.3454e-05	260.41	111.52	89.691	36.815	1.3422e-05	58.445	387.108	317.810	182.299	183.955	369.461	346.549	183.474	189.782	392.099	332.646	188.023	191.715	193.880	197.605	192.156	194.787	-8191	255	
7781.395	1	1	0	0	0.14681	0.061881	0.033472	0.14043	0.17149	0.090785	0.16884	0.48298	0.13586	0.19548	0.23142	0.14877	0.19388	0.20617	0.16036	0.080449	-1.9771	-2.5312	-2.1437	-2.6104	-2.4583	-2.4167	-2.6646	-2.4354	-2.3833	-2.6042	-2.3417	-2.6083	-2.4125	-2.3083	-2.5667	-2.4479	172.503	337.679	393.431	488.331	401.411	396.445	279.869	435.221	336.597	396.084	442.185	422.614	461.686	355.719	515.577	314.039	0.00079833	0.00039262	0.00037785	236.21	8.9712e-06	8.299e-06	304.46	101.02	6.2307e-06	5.9833e-06	153.1	75.556	49.941	26.665	1.4806e-05	42.613	0.0013026	0.0012197	0.0003446	481.35	1.431e-05	1.3202e-05	509.23	173.68	1.4114e-05	1.3116e-05	267.27	111.5	88.053	36.512	1.4282e-05	58.257	358.744	293.888	517.326	185.069	348.005	296.419	183.384	190.073	385.060	349.245	187.630	192.035	193.558	197.374	176.244	194.952	-8191	255	
7781.491	1	1	0	0	0.10733	0.18776	0.20752	0.10473	0.052062	0.081694	0.11899	0.16443	0.21496	0.074021	0.023888	0.20838	0.19483	0.19976	0.31334	0.20709	-1.8188	-2.4854	-2.2979	-2.5042	-2.5979	-2.2229	-2.7875	-2.3104	-2.4021	-2.6229	-2.4042	-2.5854	-2.5021	-2.4021	-2.5	-2.6708	248.876	273.603	275.355	470.556	480.984	376.225	317.200	282.908	329.479	270.708	174.147	264.453	517.581	403.874	372.952	512.677	0.0011342	0.00018138	0.00027037	238.3	8.3789e-06	6.783e-06	303.95	100.8	2.0188e-06	1.6701e-06	151.22	75.376	49.904	26.629	9.7995e-06	42.458	0.0012634	0.001182	0.00036811	476.01	1.3897e-05	1.2865e-05	521.28	171.1	1.3762e-05	1.2873e-05	274.17	110.14	87.169	36.529	1.5125e-05	57.681	358.867	176.236	530.461	185.217	330.085	257.021	183.571	190.399	467.942	312.651	187.635	192.233	193.532	197.351	515.807	195.083	-8191	255	
7781.587	1	1	0	0	0.20797	0.30042	0.2468	0.33927	0.19322	0.32964	0.046633	0.20109	0.27479	0.051798	0.065439	0.2401	0.11822	0.062965	0.071044	0.12445	-1.7604	-2.7917	-2.45	-2.4104	-2.4021	-2.325	-2.4375	-2.4333	-2.3167	-2.6437	-2.375	-2.4667	-2.6104	-2.3187	-2.5375	-2.5479	518.180	360.866	380.240	506.678	235.074	174.503	478.215	480.392	391.747	413.574	532.057	519.107	476.031	334.527	423.352	212.497	0.00093954	0.0005985	0.00019719	235.24	6.0424e-06	8.9147e-06	302.07	100.61	7.5534e-06	9.035e-06	151.19	75.83	49.937	26.763	5.3018e-06	42.404	0.0012446	0.0012061	0.00039133	469.59	1.3847e-05	1.3486e-05	535.27	170.17	1.3815e-05	1.3715e-05	282.31	109.84	87.278	37.384	1.5885e-05	57.466	355.667	512.180	175.489	185.486	347.302	178.100	183.738	190.396	427.278	254.645	187.411	192.315	194.022	196.824	209.374	194.679	-8191	255	
7781.683	1	1	0	0	0.18655	0.16166	0.2436	0.058477	0.17196	0.19488	0.271	0.34174	0.17845	0.14893	0.07122	0.28352	0.16438	0.18714	0.19632	0.21321	-1.7958	-2.5521	-2.2792	-2.5229	-2.7	-2.1896	-2.6854	-2.3917	-2.2146	-2.825	-2.4625	-2.4938	-2.6896	-2.375	-2.4292	-2.5687	392.713	252.298	338.337	206.331	415.812	492.897	351.954	481.527	210.098	348.899	280.195	175.181	507.322	504.410	515.198	436.359	0.0012103	0.002214	6.8919e-05	234.56	3.8581e-06	9.575e-06	302.64	100.91	1.6704e-05	1.9465e-05	151.31	75.038	50.011	26.87	9.2862e-06	42.576	0.0012445	0.0013062	0.00040794	467.29	1.3801e-05	1.472e-05	540.38	169.7	1.392e-05	1.513e-05	286.2	110.24	87.954	38.776	1.6259e-05	57.849	367.169	480.811	220.211	185.128	348.868	184.363	184.118	190.221	332.510	184.099	188.550	192.096	193.686	196.856	365.810	195.015	-8191	255	
7781.755	1	1	0	0	0.072701	0.13792	0.11229	0.18784	0.17026	0.15294	0.16559	0.015571	0.29075	0.18403	0.074838	0.18421	0.11142	0.31772	0.080221	0.36736	-1.8167	-2.5438	-2.2854	-2.25	-2.5917	-2.2854	-2.4708	-2.6792	-2.2812	-2.6896	-2.5812	-2.3979	-2.7896	-2.3583	-2.5687	-2.6792	220.568	431.510	454.442	377.972	364.805	344.417	454.852	206.275	261.295	525.418	412.773	192.074	514.672	377.049	399.094	432.197	0.0012154	0.0015869	3.9164e-05	233.32	2.0098e-06	1.3888e-05	298.09	99.78	6.8798e-06	8.8396e-06	150.31	75.414	49.842	27.065	7.7053e-06	42.883	0.001275	0.0014577	0.0004164	470.64	1.4303e-05	1.6385e-05	540.72	170.47	1.4432e-05	1.6652e-05	286.3	111.22	90.347	40.219	1.6353e-05	58.2	370.929	488.845	269.852	184.682	258.481	518.249	184.231	190.264	476.214	215.893	188.685	192.131	192.987	196.978	330.627	194.807	-8191	255	
7781.876	1	1	0	0	0.047052	0.18932	0.038376	0.033287	0.10378	0.055317	0.081732	0.047878	0.33973	0.11207	0.10709	0.04759	0.2937	0.29973	0.28661	0.41162	-2.025	-2.3333	-2.25	-2.375	-2.5833	-2.1729	-2.3292	-2.6813	-2.1292	-2.5542	-2.6417	-2.4542	-2.6375	-2.4104	-2.3229	-2.5958	316.013	206.770	517.314	460.143	338.596	366.622	448.271	531.822	339.536	251.390	487.375	318.656	490.970	207.983	461.904	483.092	0.0017315	0.0009125	0.00019004	234.18	1.4671e-05	4.975e-06	297.07	99.343	1.7693e-05	7.1979e-06	150.62	75.293	50.1	26.896	3.8548e-06	42.499	0.0013527	0.0015698	0.00041598	472.23	1.5247e-05	1.7599e-05	539.36	171.05	1.5754e-05	1.7725e-05	285.75	111.36	94.331	40.872	1.6433e-05	58.285	336.877	197.627	310.706	185.041	187.884	267.787	184.139	190.375	205.117	529.455	188.715	192.303	192.652	197.160	358.661	194.623	-8191	255	
7781.972	1	1	0	0	0.024541	0.27792	0.16512	0.17732	0.15571	0.074367	0.051287	0.46402	0.12	0.1728	0.052084	0.27129	0.17523	0.11893	0.078012	0.12011	-1.8937	-2.5521	-2.5354	-2.275	-2.8312	-2.5917	-2.4562	-2.7458	-2.3792	-2.4062	-2.6729	-2.4062	-2.6229	-2.5146	-2.4562	-2.6729	451.793	207.412	364.907	199.154	341.872	519.306	383.247	498.236	224.085	278.690	439.446	476.169	262.091	471.594	253.180	404.401	0.0017311	0.00073059	0.00018711	231.03	1.7302e-05	3.3132e-06	294.72	99.171	1.9176e-05	1.5019e-05	148.7	74.985	49.84	26.876	3.5177e-06	42.569	0.001502	0.0016426	0.00041954	473.79	1.6821e-05	1.7965e-05	536.96	170.16	1.7095e-05	1.77e-05	283.84	110.64	98.107	40.715	1.6325e-05	58.285	333.757	259.019	291.250	185.030	529.780	435.991	184.037	190.158	187.735	347.352	188.560	191.907	192.538	197.429	346.124	194.596	-8191	255	
7782.068	1	1	0	0	0.031292	0.31315	0.2776	0.1796	0.28356	0.20704	0.11528	0.20934	0.10365	0.17345	0.26779	0.30373	0.15172	0.3314	0.31081	0.26557	-1.9021	-2.5625	-2.5021	-2.1583	-2.7938	-2.5792	-2.3208	-2.6	-2.5167	-2.525	-2.6917	-2.3146	-2.5042	-2.6292	-2.325	-2.7875	316.962	315.653	255.488	301.779	527.066	256.406	427.926	472.242	315.985	255.392	343.027	459.519	417.665	429.655	326.496	493.287	0.0017555	0.0011162	0.00010001	231.81	7.2318e-06	1.241e-05	294.81	99.177	4.5234e-06	1.2778e-05	147.87	74.875	49.523	26.86	7.848e-06	42.445	0.001621	0.0016188	0.0004197	477.31	1.8103e-05	1.769e-05	535.11	172.02	1.8266e-05	1.7364e-05	282.51	112.03	100.83	40.299	1.5993e-05	58.832	336.540	250.745	334.569	184.532	520.254	354.511	184.132	190.378	446.190	361.252	188.297	191.628	192.811	197.400	368.196	194.365	-8191	255	
7782.187	1	1	0	0	0.045563	0.28811	0.13925	0.07572	0.15177	0.09511	0.23648	0.14164	0.02292	0.12525	0.17146	0.041433	0.053953	0.2825	0.033962	0.23391	-2.1042	-2.5167	-2.5625	-2.3021	-2.4979	-2.7062	-2.3771	-2.6354	-2.5354	-2.4021	-2.8021	-2.5333	-2.8042	-2.5938	-2.2812	-2.7417	333.570	412.928	472.736	345.649	461.891	372.590	500.717	175.113	392.723	525.549	188.028	279.865	472.669	462.926	250.126	494.548	0.0011792	0.0010845	0.00032532	230.86	7.0734e-06	1.2585e-05	295.59	99.317	4.8311e-06	1.1026e-05	149.9	75.578	50.095	27.043	6.7343e-06	42.785	0.0016814	0.0015539	0.00040616	486.18	1.8402e-05	1.7034e-05	528.19	175.85	1.8591e-05	1.6818e-05	278.85	114.84	100.88	39.961	1.5514e-05	59.983	345.155	312.307	341.500	184.149	382.423	364.409	184.292	189.879	516.053	348.007	188.479	191.488	193.724	196.901	323.767	194.481	-8191	255	
7782.283	1	1	0	0	0.1133	0.2148	0.12085	0.26399	0.03215	0.051722	0.15067	0.18668	0.094192	0.25581	0.1175	0.14512	0.12409	0.29818	0.19807	0.38958	-1.975	-2.1854	-2.7521	-2.2062	-2.425	-2.4875	-2.4875	-2.6562	-2.4583	-2.4771	-2.6521	-2.4062	-2.4437	-2.5104	-2.3646	-2.775	458.484	216.939	285.709	438.916	365.887	323.489	513.532	206.488	324.697	455.928	243.658	472.347	288.648	514.371	275.672	218.662	0.00097335	0.00092472	0.00024208	233.61	6.44e-06	5.4202e-06	295.5	99.395	9.4538e-06	5.0425e-06	149.09	75.41	49.854	26.781	9.6398e-06	42.725	0.0016578	0.0015032	0.00039261	502.76	1.7908e-05	1.6478e-05	522.02	180.2	1.7952e-05	1.6351e-05	276.11	117.2	99.127	39.572	1.5434e-05	60.89	368.895	249.966	302.430	184.063	364.090	296.728	183.825	189.820	372.684	358.847	187.824	191.690	193.790	197.035	190.873	194.261	-8191	255	
7782.379	1	1	0	0	0.18665	0.20725	0.17887	0.114	0.1377	0.0787	0.090375	0.13627	0.050751	0.1566	0.023567	0.16933	0.24879	0.076457	0.22008	0.16714	-2.0104	-2.2479	-2.6604	-2.4979	-2.6479	-2.6208	-2.3833	-2.6792	-2.4417	-2.3521	-2.5208	-2.425	-2.325	-2.6083	-2.3187	-2.6021	420.020	363.040	443.464	178.265	457.933	205.709	206.062	383.381	489.982	519.795	498.712	335.179	387.961	223.102	463.906	491.282	0.00087969	0.0011038	0.0001526	231.14	1.2936e-05	1.3613e-05	296.87	99.425	1.2747e-05	1.2575e-05	149.11	74.884	50.175	26.902	1.7316e-05	42.663	0.0016003	0.0014685	0.00039427	516.71	1.7347e-05	1.6128e-05	527.51	184.16	1.7441e-05	1.6023e-05	281.24	119.12	98.049	39.46	1.6411e-05	61.785	374.322	254.183	517.174	184.471	353.558	400.634	183.420	190.055	341.845	346.685	187.570	191.755	193.732	197.177	201.163	194.634	-8191	255	
7782.475	1	1	0	0	0.23368	0.2454	0.15501	0.19462	0.1196	0.10217	0.19624	0.15325	0.16053	0.18811	0.11073	0.15874	0.18485	0.26213	0.2612	0.19559	-2.0083	-2.2583	-2.6354	-2.5187	-2.4313	-2.6583	-2.3312	-2.5812	-2.5854	-2.2896	-2.625	-2.5312	-2.3479	-2.7438	-2.4188	-2.5375	267.286	336.208	399.725	220.308	206.178	231.487	417.552	487.167	385.780	437.087	520.137	416.650	407.566	432.966	398.870	488.444	0.0009366	0.0013605	0.00042317	231.02	5.732e-06	9.3075e-06	298.03	98.965	4.5957e-06	1.1711e-05	150.32	75.039	50.182	26.799	1.8245e-05	42.232	0.0015751	0.0014532	0.00042098	525.86	1.696e-05	1.5916e-05	544.46	184.85	1.7128e-05	1.578e-05	291.43	118.89	96.779	39.084	1.7598e-05	61.505	355.746	287.968	514.552	185.086	282.556	329.004	183.245	190.121	374.407	379.293	187.152	192.013	193.585	197.031	192.204	194.777	-8191	255	
7782.571	1	1	0	0	0.33669	0.11588	0.24724	0.26272	0.087103	0.16557	0.02331	0.044225	0.1207	0.11142	0.19172	0.099051	0.08424	0.16875	0.20775	0.13411	-2.1479	-2.2667	-2.5979	-2.5104	-2.2062	-2.6	-2.4917	-2.3625	-2.4792	-2.375	-2.7417	-2.5875	-2.3146	-2.8125	-2.375	-2.6063	259.977	472.837	454.923	412.482	318.279	358.292	475.597	480.335	464.808	399.149	485.013	423.641	416.090	299.394	221.719	391.200	0.00086209	0.00086833	0.00031341	231.07	2.1142e-06	6.6255e-06	296.36	98.983	8.5643e-06	2.8546e-06	149.61	75.266	49.976	26.914	1.0873e-05	42.188	0.0015554	0.0014434	0.00045725	524.21	1.6962e-05	1.5946e-05	564.89	183.75	1.6993e-05	1.5869e-05	301.09	117.85	96.238	39.315	1.8695e-05	60.951	375.477	371.079	511.743	185.363	386.065	271.345	183.260	190.112	385.987	286.329	187.406	192.197	193.515	196.706	222.591	194.450	-8191	255	
7782.667	1	1	0	0	0.054589	0.12954	0.1055	0.11385	0.18854	0.15625	0.066902	0.19494	0.10631	0.2199	0.10467	0.16207	0.19025	0.31191	0.092665	0.27096	-2.3479	-2.2896	-2.4458	-2.4188	-2.1958	-2.6875	-2.5	-2.4708	-2.45	-2.3312	-2.6188	-2.6583	-2.3125	-2.7521	-2.575	-2.4813	335.944	508.119	470.055	461.364	440.821	309.322	190.721	483.672	241.143	204.147	209.242	389.470	424.821	217.822	409.641	479.474	0.000775	0.00048643	0.00012122	229.93	6.8333e-06	1.639e-05	297.83	98.785	7.5075e-06	2.5364e-05	150.24	74.76	49.999	26.821	8.0502e-06	42.355	0.0015268	0.0014861	0.00047879	515.56	1.655e-05	1.6412e-05	574	180.34	1.6393e-05	1.6453e-05	304.47	115.81	94.325	39.779	1.8724e-05	59.844	368.165	188.024	421.841	184.708	387.991	186.426	183.706	190.439	403.398	216.709	188.379	192.158	193.334	196.410	331.367	194.457	-8191	255	
7782.788	1	1	0	0	0.050482	0.041773	0.21048	0.17129	0.27907	0.19805	0.12098	0.1004	0.35026	0.16204	0.23613	0.069344	0.089198	0.21889	0.12102	0.15191	-2.2979	-2.3	-2.4979	-2.6063	-2.2333	-2.7479	-2.4938	-2.3917	-2.9792	-2.3229	-2.5812	-2.7812	-2.3479	-2.6604	-2.6375	-2.5208	264.285	406.492	527.784	355.951	227.831	233.105	297.680	405.615	417.264	190.407	179.172	390.548	430.442	424.596	452.786	492.745	0.00073727	0.0016131	0.00025194	231.58	5.8799e-06	2.6462e-05	295.45	99.983	1.2191e-05	1.8943e-05	149.32	75.052	49.718	26.625	9.5719e-06	42.061	0.0014576	0.0015404	0.00046821	501.3	1.5712e-05	1.699e-05	567.8	177.07	1.5626e-05	1.7177e-05	298.25	114.06	92.091	40.217	1.7877e-05	58.862	365.334	482.565	303.478	185.072	356.523	176.583	184.117	190.073	342.183	209.710	188.713	192.092	193.291	197.018	345.827	194.463	-8191	255	
7782.884	1	1	0	0	0.1058	0.12321	0.11032	0.033168	0.14834	0.14236	0.31139	0.20886	0.18757	0.12624	0.015424	0.0735	0.26114	0.13668	0.33872	0.15303	-2.1833	-2.3458	-2.5729	-2.6	-2.3438	-2.675	-2.5187	-2.3146	-2.8167	-2.2792	-2.4521	-2.6604	-2.3667	-2.7729	-2.6396	-2.4125	511.461	306.338	216.723	411.847	384.248	349.054	479.324	504.580	200.783	282.702	277.380	367.634	194.914	389.230	174.868	183.828	0.0014512	0.0015391	0.00012029	233.85	9.0267e-06	1.4944e-05	297.5	100.22	1.2926e-05	8.9211e-06	150.53	75.091	49.914	26.765	1.5696e-05	41.997	0.0014121	0.0016054	0.00044665	493.89	1.5452e-05	1.7782e-05	558.5	175.27	1.5602e-05	1.7947e-05	293.34	113	92.859	40.68	1.7131e-05	58.098	358.539	479.932	283.896	185.098	176.933	531.424	183.910	190.614	219.051	201.884	188.198	191.958	192.919	196.892	348.399	194.534	-8191	255	
7782.980	1	1	0	0	0.11866	0.20578	0.14248	0.23099	0.063776	0.19647	0.071624	0.17714	0.06062	0.18225	0.10587	0.24613	0.11122	0.24095	0.30007	0.37632	-2.3125	-2.3979	-2.3812	-2.6708	-2.2542	-2.7125	-2.6083	-2.4792	-2.7333	-2.3521	-2.3354	-2.8333	-2.3354	-2.7562	-2.5646	-2.2583	302.123	460.587	219.388	191.828	221.478	514.354	354.590	173.100	407.843	353.331	407.896	223.478	428.892	428.237	371.303	321.272	0.0014694	0.00052552	0.00024992	233.27	1.4618e-05	8.2234e-06	298.93	100.78	1.7135e-05	1.0089e-05	151.03	74.793	49.897	26.658	9.1777e-06	42.064	0.0014312	0.0016465	0.00042367	483.6	1.5848e-05	1.7919e-05	547.18	172.32	1.6168e-05	1.8013e-05	286.69	111.16	95.025	40.471	1.6372e-05	57.432	343.186	175.964	314.248	185.045	234.974	329.252	184.089	190.077	173.026	344.378	188.110	192.294	192.477	197.054	325.864	194.650	-8191	255	
7783.052	1	1	0	0	0.1427	0.23013	0.037086	0.23416	0.2217	0.23354	0.044903	0.08178	0.13969	0.2138	0.21447	0.18964	0.069384	0.24049	0.16909	0.053964	-2.1333	-2.4813	-2.3917	-2.6104	-2.5604	-2.4396	-2.475	-2.2146	-2.5146	-2.3917	-2.4083	-2.6646	-2.4667	-2.3875	-2.6708	-2.3937	366.333	526.887	477.819	428.640	376.725	194.854	355.819	200.523	332.879	388.170	527.775	384.141	419.519	433.102	290.671	333.450	0.0019827	0.0022047	7.2082e-05	233.6	1.2144e-05	1.3675e-05	301.21	100.92	1.5438e-05	1.5525e-05	151.55	75.504	50.423	26.577	8.2381e-06	42.242	0.001495	0.0016009	0.00040398	471.96	1.6488e-05	1.7047e-05	535.53	168.71	1.649e-05	1.6848e-05	278.7	109.16	95.849	39.389	1.5376e-05	56.809	338.836	274.521	288.821	184.937	530.481	329.026	184.025	190.013	210.141	382.126	188.678	191.669	192.480	197.351	319.383	194.538	-8191	255	
7783.173	1	1	0	0	0.1539	0.068561	0.089483	0.060157	0.19605	0.040753	0.15787	0.16303	0.13591	0.11261	0.13778	0.12463	0.16117	0.25305	0.24192	0.35168	-2.1167	-2.575	-2.2562	-2.6958	-2.4479	-2.8146	-2.7854	-2.2854	-2.5542	-2.6375	-2.2896	-2.6625	-2.3854	-2.3646	-2.6771	-2.3542	458.149	473.911	325.470	419.918	175.736	382.685	506.856	465.830	465.067	524.247	435.122	524.505	180.944	486.662	188.257	189.587	0.0015644	0.0011033	0.00032993	236.77	8.2322e-06	1.5624e-05	303.19	101.79	7.963e-06	8.2002e-06	152.73	75.047	50.37	26.476	1.823e-06	42.398	0.0015238	0.0015111	0.00038738	470.53	1.7125e-05	1.6386e-05	531.79	170.72	1.7266e-05	1.6417e-05	277.25	110.66	98.702	39.177	1.5275e-05	57.835	339.637	315.143	313.985	184.537	173.914	359.235	183.824	190.111	188.045	385.897	188.260	191.993	192.689	197.249	393.603	194.025	-8191	255	
7783.269	1	1	0	0	0.20237	0.1836	0.23294	0.10881	0.10917	0.021236	0.43964	0.1498	0.24903	0.25499	0.31773	0.15066	0.22975	0.16011	0.25766	0.14176	-1.9854	-2.4583	-2.2458	-2.7208	-2.4417	-2.3417	-2.7917	-2.1917	-2.3333	-2.6375	-2.5542	-2.8479	-2.5667	-2.5062	-2.8521	-2.5146	278.523	223.564	253.611	364.305	397.490	336.828	475.643	340.589	337.683	262.970	202.343	385.657	473.854	454.340	183.073	452.679	0.00091294	0.00089938	0.00018146	238.23	5.5435e-06	1.3173e-05	303.91	102.3	1.9657e-05	7.6391e-06	151.8	75.315	50.159	26.549	5.3063e-07	42.356	0.0015881	0.0014847	0.00038151	485.57	1.7657e-05	1.6054e-05	528.35	175.81	1.7449e-05	1.6076e-05	274.65	113.23	98.715	38.928	1.4979e-05	59.233	354.448	247.655	355.950	184.430	285.923	311.764	183.875	189.487	325.210	400.289	188.514	191.355	193.507	197.183	291.658	194.292	-8191	255	
7783.363	1	1	0	0	0.16866	0.014684	0.13975	0.14557	0.12589	0.051679	0.099639	0.087234	0.12152	0.082968	0.11479	0.11324	0.28665	0.11091	0.29938	0.22482	-2.0125	-2.5687	-2.25	-2.6542	-2.5896	-2.4562	-2.6583	-2.2458	-2.65	-2.675	-2.4208	-2.4708	-2.6042	-2.6917	-2.5125	-2.5812	523.635	295.709	240.630	338.445	524.014	264.908	411.805	464.194	174.573	404.126	240.341	342.869	208.649	299.540	267.778	461.021	0.0006424	0.00026411	0.00016683	239.47	1.0447e-05	1.6982e-05	305.08	102.51	8.1737e-06	1.0927e-05	153.31	75.684	50.377	26.7	4.7142e-06	42.402	0.0015819	0.0014754	0.0003813	508.59	1.7771e-05	1.6339e-05	534.64	184.4	1.7868e-05	1.6529e-05	280.36	117.4	99.262	39.202	1.5518e-05	60.685	377.952	280.418	391.331	184.561	341.886	354.136	184.045	189.634	379.656	417.436	187.990	191.187	193.724	197.292	529.547	194.498	-8191	255	
7783.459	1	1	0	0	0.12969	0.10132	0.099491	0.29645	0.051227	0.076607	0.053045	0.27889	0.25869	0.14995	0.055262	0.35157	0.052325	0.20286	0.22257	0.064821	-2.1417	-2.6312	-2.3708	-2.7562	-2.5646	-2.5083	-2.725	-2.5021	-2.55	-2.8146	-2.4271	-2.8	-2.5646	-2.2188	-2.8042	-2.5396	250.467	227.303	435.116	508.721	440.941	370.984	359.129	469.809	487.935	524.972	327.008	174.771	476.180	423.318	301.984	430.860	0.00076043	0.00099881	0.00025876	237.66	1.3355e-05	9.7602e-06	306.16	102.22	6.7467e-06	5.5846e-06	153.94	75.796	50.428	26.837	1.476e-05	42.722	0.0015656	0.0014628	0.00039084	520.2	1.7088e-05	1.562e-05	534.33	185.31	1.6691e-05	1.5557e-05	282.01	117.72	96.206	38.64	1.5852e-05	60.772	369.228	293.866	205.325	184.740	334.655	360.236	183.880	190.077	397.058	470.119	187.558	192.007	193.430	197.252	192.903	194.803	-8191	255	
7783.580	1	1	0	0	0.096432	0.096199	0.095784	0.24883	0.029793	0.14455	0.197	0.053032	0.12463	0.1212	0.030116	0.097633	0.085828	0.22265	0.095419	0.24839	-2.1354	-2.675	-2.3917	-2.5542	-2.5771	-2.2542	-2.5917	-2.4833	-2.3	-2.625	-2.4292	-2.5542	-2.5021	-2.4521	-2.5438	-2.7271	411.202	406.744	444.070	284.671	525.036	386.894	243.217	528.691	440.806	287.115	206.709	455.263	409.543	492.740	281.655	508.807	0.00085696	0.00092907	0.00028641	238.36	8.6742e-06	9.1732e-06	307.9	102.39	1.3899e-05	5.0101e-06	154.31	75.42	50.463	26.704	9.2037e-06	42.216	0.0014771	0.0013841	0.00040475	515.42	1.6256e-05	1.4919e-05	545.58	183.72	1.5951e-05	1.481e-05	288.66	116.01	93.825	37.94	1.647e-05	59.848	371.822	264.788	494.334	184.831	326.543	340.580	183.669	190.120	369.337	387.186	187.240	192.246	193.536	197.164	229.042	194.628	-8191	255	
7783.676	1	1	0	0	0.01659	0.10141	0.059198	0.28354	0.071976	0.11536	0.060708	0.23869	0.17724	0.19358	0.1165	0.22235	0.25666	0.11336	0.23701	0.13723	-1.875	-2.6854	-2.3917	-2.4479	-2.5104	-2.3729	-2.7438	-2.6813	-2.3063	-2.6833	-2.4375	-2.5625	-2.8229	-2.4292	-2.6021	-2.4479	222.987	487.354	278.792	413.690	500.779	324.345	252.388	510.759	459.866	417.134	520.465	466.241	194.737	202.586	490.269	176.079	0.001051	0.00038871	0.00026737	238.71	5.0907e-06	6.4405e-06	307.34	102.46	1.6497e-05	9.0584e-06	154.24	75.559	50.01	26.711	1.0043e-05	42.34	0.0014218	0.0013412	0.00042558	506.27	1.5831e-05	1.474e-05	557.73	181.4	1.5626e-05	1.4876e-05	296.63	115.04	93.305	38.333	1.7431e-05	59.605	365.826	265.034	499.234	185.414	352.569	205.060	183.449	190.266	343.829	177.817	187.615	192.024	193.379	196.940	530.941	194.635	-8191	255	
7783.748	1	1	0	0	0.24479	0.072204	0.054127	0.35818	0.0098702	0.22153	0.1679	0.4139	0.10274	0.094856	0.13767	0.1263	0.35029	0.24741	0.18789	0.096294	-1.9062	-2.5417	-2.3833	-2.2562	-2.6479	-2.3021	-2.5167	-2.5292	-2.2938	-2.6917	-2.6042	-2.4813	-2.6458	-2.2833	-2.6542	-2.6375	285.299	471.719	347.838	514.674	323.514	366.995	178.110	526.294	476.928	447.852	418.807	497.266	492.889	465.361	368.518	425.651	0.001262	0.001509	0.00016812	237.97	5.3328e-06	1.7084e-05	306.19	102.15	8.3389e-06	8.6258e-06	154.93	75.467	50.432	26.763	4.321e-06	42.489	0.0014075	0.0013953	0.00044607	498.14	1.5433e-05	1.5302e-05	564.1	178.03	1.5082e-05	1.5441e-05	298.08	113.46	91.55	38.995	1.7442e-05	58.952	360.858	474.506	176.655	185.233	318.343	190.772	183.613	190.155	337.480	238.579	188.249	192.111	193.449	196.813	416.912	194.498	-8191	255	
7783.868	1	1	0	0	0.20589	0.03451	0.11105	0.15788	0.16346	0.17645	0.1688	0.1997	0.056496	0.29279	0.19607	0.19652	0.23188	0.057594	0.24626	0.11074	-1.9375	-2.5687	-2.4354	-2.4396	-2.6354	-2.4208	-2.475	-2.5833	-2.3646	-2.7479	-2.5167	-2.3458	-2.6604	-2.4542	-2.475	-2.6833	354.448	428.286	326.093	326.840	488.653	182.041	383.858	453.117	173.282	315.928	397.285	509.163	448.340	449.333	386.098	490.261	0.0011131	0.001283	0.00015751	239.3	7.2575e-06	1.9477e-05	305.41	102.09	8.5255e-06	2.5516e-05	152.98	75.983	50.15	26.908	6.488e-06	42.437	0.0013623	0.0014668	0.00044239	491.28	1.493e-05	1.6354e-05	559.8	176.05	1.4788e-05	1.6431e-05	294.14	112.56	90.361	39.682	1.6768e-05	58.384	371.267	467.055	319.864	184.783	282.425	179.555	184.321	189.859	228.589	206.849	188.462	192.046	193.404	197.034	320.586	194.656	-8191	255	
7783.965	1	1	0	0	0.18379	0.22991	0.12452	0.14019	0.088746	0.059156	0.11407	0.42547	0.057553	0.28572	0.17852	0.11905	0.14302	0.099479	0.090306	0.12071	-1.7125	-2.6917	-2.3542	-2.2896	-2.6167	-2.4458	-2.3812	-2.6312	-2.2521	-2.8146	-2.6312	-2.6125	-2.775	-2.4625	-2.3479	-2.9396	227.211	514.721	246.301	406.788	409.561	378.672	373.027	432.832	235.968	389.337	524.577	276.096	442.902	520.898	182.665	175.373	0.001347	0.0017524	0.00025736	239.62	1.3362e-06	6.5673e-06	306.21	102.08	7.8218e-06	1.2217e-05	154.1	75.389	50.539	26.812	1.2413e-05	42.34	0.0013372	0.0015349	0.00042421	483.27	1.4846e-05	1.7034e-05	551.16	174.07	1.4943e-05	1.7133e-05	290.03	111.62	91.977	40.335	1.6338e-05	58.059	348.481	505.832	323.518	185.165	399.816	175.695	184.127	190.258	251.305	195.927	188.629	192.013	192.918	197.064	325.196	194.817	-8191	255	
7784.061	1	1	0	0	0.089565	0.082027	0.21103	0.060841	0.04335	0.14733	0.17533	0.11992	0.16729	0.05557	0.13274	0.2164	0.13282	0.16241	0.090444	0.18538	-1.9521	-2.5062	-2.4813	-2.3438	-2.5979	-2.5229	-2.6437	-2.6771	-2.3271	-2.6188	-2.6083	-2.1646	-2.625	-2.4542	-2.3208	-2.7521	209.689	192.058	449.327	259.256	506.800	382.012	356.323	487.932	250.618	220.408	426.314	487.500	434.821	235.991	364.755	177.602	0.0019415	0.00011525	0.00030341	238.95	6.6955e-06	3.7358e-06	306.4	101.56	2.5504e-05	3.4501e-06	153.73	75.809	49.886	26.773	3.3717e-06	42.202	0.0013977	0.0015915	0.00041331	477.68	1.5645e-05	1.7531e-05	543.98	172.68	1.6001e-05	1.7482e-05	286.81	111.02	95.29	40.497	1.611e-05	57.703	344.829	267.938	329.317	185.467	483.990	426.117	183.817	190.426	177.974	449.512	188.645	191.898	192.467	197.379	382.781	194.781	-8191	255	
7784.157	1	1	0	0	0.15836	0.088709	0.20648	0.022521	0.069912	0.11897	0.29007	0.15163	0.13314	0.10337	0.095171	0.15541	0.083518	0.17244	0.070119	0.050745	-1.9312	-2.5833	-2.5271	-2.3563	-2.5708	-2.6479	-2.4646	-2.7125	-2.3792	-2.5729	-2.8125	-2.4375	-2.7104	-2.5021	-2.3396	-2.7542	267.469	496.524	209.035	420.966	435.054	340.862	295.039	361.507	528.868	178.790	379.302	351.873	423.549	516.290	451.579	265.152	0.0016767	0.0011294	0.00028245	238.51	1.0608e-05	5.8853e-06	304.69	102.8	1.4088e-05	1.4607e-05	153.17	75.882	50.425	26.805	3.9204e-06	42.553	0.0015077	0.0015883	0.00040806	474.21	1.6802e-05	1.7368e-05	540.93	171.91	1.7064e-05	1.7064e-05	283.94	110.74	98.037	40	1.5672e-05	57.712	337.629	282.741	276.496	185.118	177.188	343.293	184.228	190.299	211.171	369.112	187.827	191.728	192.758	197.233	400.793	194.488	-8191	255	
7784.278	1	1	0	0	0.11978	0.088037	0.059849	0.20009	0.12201	0.33727	0.16037	0.16977	0.39197	0.19879	0.014221	0.095815	0.30278	0.082224	0.31986	0.1444	-2.1083	-2.3729	-2.6792	-2.3417	-2.4917	-2.5396	-2.3292	-2.6125	-2.4792	-2.5417	-2.6979	-2.5187	-2.5167	-2.4562	-2.4146	-2.7375	260.527	409.817	202.018	513.435	218.643	346.361	186.266	369.858	490.029	453.389	347.057	399.283	448.709	179.312	335.877	501.068	0.0014907	0.0011336	0.00018023	239.09	8.5739e-06	1.1365e-05	306.88	102	6.7614e-06	1.2309e-05	153.79	75.955	50.484	26.772	9.5968e-06	42.585	0.0015785	0.001522	0.00039454	474.94	1.7333e-05	1.6477e-05	530.56	172.13	1.7404e-05	1.6139e-05	277.4	111.38	98.306	39.135	1.494e-05	58.166	350.436	255.925	291.090	184.056	498.398	352.332	184.311	189.638	246.306	404.356	188.169	191.675	193.295	197.267	386.187	194.445	-8191	255	
7784.347	1	1	0	0	0.14267	0.30657	0.22011	0.2414	0.14635	0.23643	0.24398	0.18653	0.14402	0.14076	0.19405	0.081223	0.17641	0.21654	0.15312	0.17441	-2.1854	-2.4458	-2.6688	-2.1771	-2.4792	-2.5354	-2.1833	-2.7104	-2.3083	-2.4896	-2.6146	-2.4729	-2.6771	-2.5187	-2.3708	-2.6729	385.177	341.673	514.818	513.314	185.423	514.936	481.150	364.083	368.909	525.775	235.059	203.594	290.127	479.877	507.904	258.171	0.0012158	0.0010637	8.0962e-05	237.82	8.4194e-06	4.6797e-06	305.6	102.41	6.1503e-06	1.3119e-05	153.3	75.825	50.171	26.724	6.1143e-06	42.581	0.0015788	0.001447	0.00037612	484.55	1.7141e-05	1.5707e-05	520.97	174.82	1.7091e-05	1.5427e-05	270.97	113.05	96.394	38.484	1.4242e-05	58.85	358.298	278.418	311.043	184.494	366.328	305.529	183.721	189.919	378.565	358.338	188.795	191.691	193.633	197.283	302.275	194.469	-8191	255	
7784.468	1	1	0	0	0.1439	0.21116	0.076202	0.094602	0.066731	0.072635	0.047227	0.093779	0.13117	0.091044	0.11074	0.18541	0.19102	0.086661	0.26482	0.13878	-2.1083	-2.4104	-2.6063	-2.3625	-2.5125	-2.4625	-2.4375	-2.5542	-2.2542	-2.5167	-2.7479	-2.4688	-2.6708	-2.7229	-2.3625	-2.6562	465.254	318.347	448.455	237.016	492.739	399.365	368.624	198.097	221.629	316.956	247.865	438.721	408.204	479.611	522.943	193.681	0.00074943	0.00043349	0.00013415	240.68	8.2798e-06	3.1606e-06	306.32	102.1	8.125e-06	9.0651e-06	154.16	76.122	50.07	26.713	8.8281e-06	42.429	0.0014992	0.0013693	0.00035616	492.01	1.6105e-05	1.4845e-05	512.51	176.8	1.6001e-05	1.4631e-05	267.93	114.15	93.935	38.012	1.4323e-05	59.451	369.288	301.763	378.498	184.213	339.174	299.213	183.972	189.780	306.708	337.938	188.292	191.780	193.717	197.395	505.347	194.464	-8191	255	
7784.564	1	1	0	0	0.12898	0.075192	0.14515	0.10372	0.19211	0.16133	0.075147	0.17646	0.084275	0.04572	0.09025	0.13853	0.2988	0.090088	0.13727	0.27602	-2.1	-2.3563	-2.4854	-2.45	-2.4771	-2.6792	-2.5	-2.7583	-2.4417	-2.4021	-2.7167	-2.3271	-2.3125	-2.5625	-2.4479	-2.6854	426.544	282.437	458.546	383.215	510.710	516.034	255.967	530.900	401.255	472.428	410.979	521.278	213.053	336.464	394.880	447.593	0.00080251	0.00077131	0.00026009	238.02	1.2699e-05	7.8871e-06	308.28	102.83	1.3324e-05	6.9604e-06	153.55	75.417	50.269	26.749	1.7923e-05	42.307	0.0014477	0.0013442	0.00036901	504.6	1.5798e-05	1.473e-05	524.45	180.55	1.5773e-05	1.4575e-05	276.18	115.56	93.065	37.832	1.5275e-05	59.693	369.538	259.687	518.843	184.513	359.458	345.942	183.502	190.122	362.210	338.247	187.821	191.883	193.372	197.592	177.025	194.954	-8191	255	
7784.660	1	1	0	0	0.10798	0.30623	0.17813	0.28907	0.087904	0.18023	0.27111	0.39581	0.17297	0.074528	0.1097	0.029758	0.21976	0.37795	0.1318	0.2023	-2.275	-2.25	-2.4813	-2.4667	-2.2667	-2.8021	-2.4646	-2.7667	-2.4333	-2.4021	-2.6437	-2.4813	-2.4708	-2.725	-2.4396	-2.7125	443.214	303.058	217.827	434.181	344.163	294.543	385.575	323.369	304.789	511.175	477.186	410.417	309.458	434.869	420.909	446.216	0.00096704	0.00065953	0.00038994	237.14	6.4844e-06	1.3396e-05	307.18	101.41	3.5692e-06	3.368e-06	153.37	75.741	50.03	26.702	1.406e-05	42.523	0.0014104	0.0013097	0.00039099	503.18	1.5399e-05	1.4299e-05	538.57	179.02	1.535e-05	1.4131e-05	283.7	114.44	91.615	37.492	1.614e-05	59.074	350.603	250.490	522.630	184.658	263.628	333.331	183.052	190.416	438.721	300.109	187.708	192.144	193.634	197.204	210.719	194.657	-8191	255	
7784.757	1	1	0	0	0.20858	0.061354	0.12108	0.07721	0.16108	0.14241	0.15102	0.15435	0.083697	0.080133	0.12867	0.22029	0.19397	0.19434	0.3474	0.22806	-2.2083	-2.2062	-2.725	-2.4854	-2.2625	-2.6792	-2.4458	-2.2979	-2.4625	-2.4771	-2.8646	-2.5958	-2.1188	-2.4958	-2.5062	-2.6188	372.183	504.497	342.099	475.898	313.019	415.541	215.600	329.735	492.110	396.649	185.087	191.524	198.686	528.364	328.261	451.322	0.0010801	0.0010048	0.00024741	238.59	8.7018e-06	6.3938e-06	306.3	102.06	1.3512e-05	9.7148e-06	154.67	75.316	49.91	26.726	8.873e-06	42.328	0.0013739	0.0012907	0.00041215	495.27	1.5027e-05	1.4305e-05	551.57	176.89	1.5185e-05	1.4523e-05	292.05	113.63	91.453	38.032	1.7072e-05	58.778	374.974	469.724	173.402	185.588	351.567	207.270	183.534	190.753	332.992	245.823	187.770	192.253	193.512	197.048	529.145	194.942	-8191	255	
7784.877	1	1	0	0	0.23972	0.35694	0.28699	0.066987	0.30415	0.16628	0.093154	0.081972	0.10717	0.10853	0.13947	0.20793	0.090202	0.079244	0.2435	0.03381	-2.1583	-2.2604	-2.5563	-2.4854	-2.3083	-2.7313	-2.5396	-2.6125	-2.6437	-2.475	-2.5812	-2.4917	-2.1813	-2.6771	-2.55	-2.325	175.894	475.885	258.253	520.545	382.254	194.191	185.477	475.511	224.924	363.803	483.042	433.671	213.107	512.497	341.835	487.702	0.00089284	0.0015164	7.7991e-05	237.67	3.3027e-06	2.0163e-05	305.61	101.21	4.3714e-06	1.4594e-05	152.89	75.306	50.158	26.75	6.1657e-06	42.385	0.0013657	0.0013685	0.00043419	490.63	1.4867e-05	1.5172e-05	559.25	174.72	1.478e-05	1.5397e-05	292.77	112.31	90.046	38.705	1.7023e-05	58.265	366.983	466.293	508.202	185.115	523.292	175.677	184.149	190.681	357.127	221.862	188.219	192.120	193.118	196.701	323.358	194.762	-8191	255	
7784.949	1	1	0	0	0.13808	0.13223	0.070191	0.29344	0.058931	0.24468	0.26391	0.06981	0.29201	0.11242	0.12976	0.23799	0.24727	0.14131	0.02868	0.11016	-2.0833	-2.3771	-2.5917	-2.6479	-2.1333	-2.5396	-2.4333	-2.2938	-2.6312	-2.4	-2.5104	-2.6333	-2.3563	-2.7521	-2.6458	-2.3708	472.044	350.269	340.063	293.398	249.223	435.167	274.587	230.359	466.645	213.861	178.158	232.401	225.893	425.846	309.431	379.417	0.00089222	0.0018026	0.00020168	238.23	7.8691e-06	2.04e-05	303.76	101.47	5.4448e-06	1.1279e-05	152.46	75.411	49.956	26.703	7.1145e-06	42.317	0.0013225	0.0014567	0.00042759	483.89	1.4541e-05	1.6143e-05	553.55	173.35	1.4463e-05	1.6356e-05	289.37	111.33	89.488	39.448	1.6428e-05	57.789	376.948	477.848	316.873	184.841	306.701	178.739	184.148	190.018	393.098	188.708	188.721	192.379	192.944	196.782	376.768	194.628	-8191	255	
7785.045	1	1	0	0	0.17884	0.13642	0.26136	0.10991	0.4956	0.15269	0.20336	0.10241	0.12009	0.17085	0.029712	0.070994	0.18758	0.16698	0.12942	0.27286	-2.1917	-2.5354	-2.4771	-2.65	-2.1646	-2.6646	-2.5667	-2.3646	-2.6437	-2.25	-2.5271	-2.6396	-2.3729	-2.6875	-2.6271	-2.2958	254.610	446.507	411.341	359.507	410.629	329.017	421.667	367.627	211.470	230.201	200.665	517.867	528.967	183.883	410.217	512.050	0.0013791	0.0011504	7.8537e-05	237.14	1.028e-05	5.341e-06	303.96	101.14	1.6359e-05	6.8898e-06	152.13	75.582	49.966	26.857	1.0088e-05	42.359	0.0013195	0.0015344	0.00041583	479.11	1.4806e-05	1.7046e-05	548.36	172.65	1.508e-05	1.7392e-05	288.13	111.61	92.719	40.441	1.6463e-05	58.009	361.677	464.246	380.735	185.004	209.142	181.309	183.788	190.184	187.561	231.180	188.249	192.180	192.767	196.972	291.983	194.617	-8191	255	
7785.141	1	1	0	0	0.051108	0.09069	0.26232	0.10171	0.12477	0.17806	0.16363	0.15235	0.21252	0.070366	0.22245	0.24609	0.10854	0.16649	0.13342	0.38243	-2.275	-2.4979	-2.3271	-2.5563	-2.2875	-2.6958	-2.5	-2.2438	-2.6562	-2.4021	-2.4729	-2.8729	-2.1542	-2.6771	-2.5542	-2.3521	347.653	368.254	404.031	300.394	442.013	267.047	344.673	454.315	456.182	495.783	485.198	414.675	510.146	469.928	196.301	504.272	0.0018226	0.00034659	0.00022916	236.55	1.5092e-05	5.684e-06	304.51	101.5	1.3089e-05	8.9142e-06	152.52	75.609	50.428	26.869	2.4462e-06	42.419	0.0014351	0.001629	0.0004176	480.55	1.6249e-05	1.7906e-05	548.5	172.9	1.6579e-05	1.8087e-05	288.93	111.83	97.641	40.902	1.6699e-05	58.287	336.901	444.723	318.224	185.075	527.241	347.956	184.100	190.130	529.692	352.754	188.706	192.071	192.906	197.049	482.466	194.694	-8191	255	
7785.260	1	1	0	0	0.086223	0.09374	0.20283	0.14769	0.17297	0.23079	0.093178	0.21289	0.14903	0.24266	0.078447	0.27665	0.1369	0.17418	0.28213	0.28057	-2.1521	-2.4854	-2.3042	-2.5	-2.3208	-2.4458	-2.5854	-2.3187	-2.4958	-2.3479	-2.2771	-2.7938	-2.2917	-2.6396	-2.6146	-2.2583	182.722	304.483	388.838	325.025	293.893	316.076	513.404	210.822	442.382	245.799	437.679	298.761	303.484	428.332	375.920	471.197	0.0015876	0.0012645	0.00024074	236.21	1.3877e-05	1.7591e-05	302.57	100.51	1.6928e-05	1.7472e-05	151.94	75.641	50.436	26.761	7.5194e-06	42.398	0.0015831	0.0016557	0.00042375	483.12	1.785e-05	1.7982e-05	549.8	174	1.8038e-05	1.7897e-05	288.46	112.2	100.98	40.584	1.6441e-05	58.634	334.866	263.213	337.708	184.797	516.269	337.226	183.867	189.926	188.741	394.198	188.624	191.640	192.838	196.935	351.516	194.400	-8191	255	
7785.356	1	1	0	0	0.10168	0.082617	0.068695	0.17122	0.14233	0.084193	0.14934	0.1359	0.12531	0.088534	0.094081	0.1388	0.26117	0.033675	0.055635	0.13207	-2.1104	-2.5354	-2.2875	-2.6104	-2.3021	-2.4979	-2.6125	-2.3688	-2.5625	-2.625	-2.3021	-2.6625	-2.3083	-2.4604	-2.7188	-2.2875	328.754	525.858	527.507	434.850	509.785	482.934	464.009	300.736	487.524	321.555	454.508	191.191	373.220	434.755	229.828	427.015	0.0016706	0.00079381	0.00015832	236.76	6.927e-06	1.6008e-05	302.1	101.02	1.5124e-05	1.1946e-05	151.69	75.752	49.945	26.848	9.9e-06	42.434	0.0016694	0.0016137	0.00041741	490.96	1.8666e-05	1.7522e-05	544.66	176.87	1.8735e-05	1.7442e-05	285.81	114.43	102.57	40.238	1.6086e-05	59.661	339.285	304.987	354.359	184.190	189.099	354.249	184.008	189.697	267.026	387.503	188.586	191.470	193.257	197.012	354.847	194.365	-8191	255	
7785.452	1	1	0	0	0.037591	0.12606	0.061672	0.24519	0.2742	0.14785	0.045778	0.043154	0.0067423	0.19317	0.20441	0.10713	0.22559	0.21455	0.24705	0.27791	-2.1958	-2.5938	-2.2604	-2.4813	-2.3	-2.3333	-2.5375	-2.1896	-2.4958	-2.6542	-2.4604	-2.4979	-2.4167	-2.2062	-2.6188	-2.2271	313.890	424.251	408.590	453.772	429.361	521.670	276.859	211.692	358.471	425.682	258.667	405.916	489.905	396.800	300.078	525.637	0.00098879	0.0010552	5.6918e-05	237.48	7.3567e-06	1.21e-05	304.45	101.56	1.9532e-05	8.0725e-06	150.77	75.421	50.068	26.925	2.5181e-06	42.401	0.0016971	0.0015718	0.00040813	507.79	1.8797e-05	1.7129e-05	537.89	182.31	1.8652e-05	1.7121e-05	283.49	117.29	101.89	40.109	1.592e-05	61.027	346.654	292.318	267.246	183.906	309.204	323.009	184.181	189.615	338.692	337.060	188.752	191.442	193.907	197.089	474.804	194.471	-8191	255	
7785.548	1	1	0	0	0.28108	0.061136	0.19049	0.14395	0.24759	0.061441	0.17097	0.22382	0.16956	0.18564	0.097815	0.14058	0.088811	0.39961	0.17815	0.23008	-1.8188	-2.5687	-2.4104	-2.6813	-2.4375	-2.5521	-2.6729	-2.3583	-2.4875	-2.5417	-2.1208	-2.5542	-2.4896	-2.3208	-2.6021	-2.4125	363.561	175.330	381.754	306.418	396.904	348.671	276.078	184.115	496.364	326.496	432.773	441.767	266.421	500.785	207.358	172.628	0.00092218	0.0011781	5.3078e-05	235	9.7025e-06	1.0297e-05	302.22	101.51	1.3398e-05	1.1874e-05	152.67	75.555	50.143	26.717	5.4333e-06	42.55	0.0016667	0.0015332	0.00040131	521.16	1.8068e-05	1.6625e-05	535.51	185.74	1.7879e-05	1.6535e-05	283.71	119.16	99.836	39.631	1.6153e-05	61.867	374.386	300.030	419.388	183.978	370.969	365.713	183.859	189.792	338.836	341.759	187.644	191.812	193.445	197.054	177.223	194.389	-8191	255	
7785.645	1	1	0	0	0.1849	0.37094	0.13168	0.13272	0.042929	0.073269	0.15838	0.27667	0.29007	0.072121	0.078296	0.24756	0.09111	0.17664	0.057385	0.10696	-1.9375	-2.5458	-2.2	-2.6396	-2.6104	-2.3021	-2.7125	-2.5083	-2.3604	-2.7812	-2.2708	-2.6333	-2.4917	-2.225	-2.7542	-2.425	334.434	443.441	469.251	250.087	211.624	417.126	331.073	193.347	210.596	464.667	228.548	175.610	277.705	479.324	397.890	419.253	0.00093392	0.00062469	0.00045695	236.19	8.8752e-06	6.9927e-06	304.5	101.43	1.3938e-05	9.9978e-06	153.57	75.087	50.3	26.565	1.1312e-05	42.3	0.0016126	0.0014937	0.00041585	532.03	1.7468e-05	1.6112e-05	545.28	187.08	1.7052e-05	1.5772e-05	288.32	118.17	96.171	38.614	1.6418e-05	60.77	365.680	259.326	521.551	184.812	331.203	339.678	183.417	189.909	381.633	372.653	187.694	192.037	193.736	197.223	509.395	194.562	-8191	255	
7785.741	1	1	0	0	0.10441	0.028056	0.11199	0.16939	0.078163	0.1812	0.19257	0.16974	0.13899	0.28668	0.12161	0.088677	0.02672	0.27209	0.26152	0.12066	-1.7687	-2.5417	-2.2375	-2.5646	-2.5792	-2.3208	-2.5542	-2.6042	-2.3167	-2.6354	-2.3792	-2.6937	-2.3729	-2.3	-2.5729	-2.4729	310.406	387.010	188.174	287.114	519.606	265.478	387.104	513.449	252.099	311.169	298.988	399.958	419.980	188.399	277.852	418.256	0.001035	0.00040818	0.00065239	236.83	9.6514e-06	3.3288e-06	305.04	100.55	5.4685e-06	1.8146e-06	152.77	75.541	50.08	26.429	1.8197e-05	42.027	0.0015018	0.0013889	0.0004227	516.52	1.6253e-05	1.5021e-05	551.65	182.59	1.6116e-05	1.4962e-05	292.97	116.03	94.061	38.091	1.7107e-05	59.789	360.895	194.238	526.197	184.902	340.641	298.794	183.188	190.261	371.698	496.698	187.555	192.169	193.296	196.979	189.463	194.380	-8191	255	
7785.837	1	1	0	0	0.33708	0.16146	0.16362	0.18648	0.21596	0.043061	0.15336	0.0288	0.14194	0.11694	0.26281	0.21868	0.19394	0.12915	0.046524	0.17307	-1.7896	-2.6125	-2.3875	-2.5833	-2.625	-2.2208	-2.5521	-2.5208	-2.3667	-2.6646	-2.2562	-2.4583	-2.6354	-2.3396	-2.5938	-2.6063	460.205	225.485	355.326	354.653	278.506	520.159	433.008	330.179	475.538	209.023	408.008	524.502	466.822	474.867	403.142	454.154	0.00063626	0.00040566	0.00023349	237.9	8.857e-06	8.6826e-06	305.9	100.82	1.035e-05	9.3162e-06	153.2	75.65	50.18	26.62	1.3804e-06	42.213	0.001452	0.0013689	0.00044427	509.64	1.598e-05	1.5334e-05	568.44	181.3	1.5946e-05	1.5498e-05	302.35	115.62	94.091	38.924	1.826e-05	59.792	355.747	283.863	502.562	185.132	333.840	208.054	183.711	190.479	276.725	187.286	187.522	192.146	193.465	196.598	350.858	194.684	-8191	255	
7785.956	1	1	0	0	0.40764	0.34104	0.14077	0.14419	0.22571	0.25142	0.50255	0.26377	0.13018	0.14231	0.12261	0.090229	0.30946	0.23907	0.13567	0.24684	-1.75	-2.5563	-2.2771	-2.4417	-2.6	-2.1688	-2.6521	-2.5729	-2.3271	-2.8271	-2.4646	-2.5104	-2.6271	-2.225	-2.4729	-2.6417	386.837	312.007	247.113	375.954	327.642	459.614	445.291	516.964	320.949	451.605	209.939	258.310	456.959	175.667	214.189	378.727	0.00073556	0.0012768	0.00016149	236.67	1.6199e-05	1.9604e-05	303.77	100.89	1.3247e-05	1.6424e-05	151.83	75.111	49.835	26.675	1.0487e-05	42.142	0.0014676	0.0014878	0.00047162	509.78	1.6109e-05	1.6785e-05	580.05	181.5	1.6161e-05	1.698e-05	306.72	115.44	93.563	40.076	1.8452e-05	59.478	358.283	446.918	285.986	184.921	354.381	194.533	183.790	190.446	379.266	210.405	187.973	192.186	193.589	196.555	391.173	194.934	-8191	255	
7786.052	1	1	0	0	0.20783	0.067905	0.146	0.28115	0.057096	0.25299	0.11088	0.14556	0.12762	0.28395	0.14118	0.15547	0.16072	0.097831	0.14022	0.09274	-1.9021	-2.6021	-2.3542	-2.2438	-2.6708	-2.5021	-2.475	-2.6437	-2.2583	-2.6021	-2.4688	-2.3438	-2.6833	-2.4021	-2.6125	-2.6208	386.847	510.389	236.407	491.493	453.058	424.331	194.626	333.071	235.454	242.332	207.298	470.063	433.494	518.734	491.902	304.686	0.00075323	0.0018363	0.00030654	238.57	7.4082e-06	1.7256e-05	304.23	101.7	7.599e-06	1.6448e-05	153.14	75.119	49.809	26.503	1.6504e-05	42.169	0.0014356	0.0015835	0.00045975	501.1	1.5532e-05	1.749e-05	569.6	178.26	1.5551e-05	1.7587e-05	299.52	113.82	92.475	40.477	1.754e-05	58.706	355.198	489.341	334.024	184.877	246.679	219.057	184.266	190.341	297.928	217.995	188.481	192.047	193.422	196.830	325.845	194.688	-8191	255	
7786.148	1	1	0	0	0.098198	0.25389	0.078224	0.06162	0.12748	0.14748	0.16976	0.26559	0.15363	0.20967	0.26593	0.38127	0.25702	0.091012	0.18659	0.4178	-2.0375	-2.4354	-2.5917	-2.1167	-2.3708	-2.4771	-2.4062	-2.7229	-2.2625	-2.4583	-2.5146	-2.3646	-2.6458	-2.4437	-2.375	-2.8083	490.878	221.989	202.383	207.543	197.237	213.556	495.636	468.116	425.814	371.315	469.682	183.642	273.449	278.442	260.061	469.630	0.001408	0.0006781	0.00019692	239.7	1.0297e-05	6.5022e-06	304.18	101.32	1.5494e-05	1.9873e-06	153.39	74.915	50.034	26.563	7.0713e-06	42.045	0.0014327	0.0016466	0.00044164	494.68	1.5811e-05	1.8177e-05	561.03	176.16	1.6014e-05	1.8113e-05	293.38	112.43	93.996	40.622	1.6806e-05	57.971	351.260	521.952	356.950	185.136	532.223	194.295	184.271	190.463	520.659	301.959	188.754	192.092	192.780	197.130	324.830	194.773	-8191	255	
7786.244	1	1	0	0	0.055431	0.096747	0.15107	0.20017	0.29092	0.11102	0.14771	0.26095	0.18943	0.081705	0.12469	0.15559	0.062858	0.15891	0.22465	0.27025	-1.7313	-2.6	-2.5896	-2.2271	-2.7708	-2.45	-2.45	-2.5729	-2.5208	-2.6667	-2.5167	-2.1792	-2.5979	-2.5917	-2.1625	-2.7479	478.507	460.904	446.611	421.208	343.493	266.117	431.176	342.327	230.454	397.905	528.094	520.268	490.434	179.944	240.868	235.061	0.0013885	0.0012784	0.00014757	238.35	1.4407e-05	1.2927e-05	305.95	101.9	2.1995e-05	2.8373e-06	153.91	74.914	50.085	26.572	6.9547e-06	41.969	0.0014886	0.0016492	0.00042387	485.21	1.6624e-05	1.8187e-05	553.89	174.35	1.7128e-05	1.8233e-05	292.03	112.12	98.377	40.744	1.6894e-05	58.062	339.288	256.255	315.600	185.146	531.018	341.349	184.084	190.264	200.311	485.544	188.640	192.171	192.453	197.301	311.667	194.597	-8191	255	
7786.340	1	1	0	0	0.16005	0.12612	0.12627	0.092057	0.04416	0.14928	0.091206	0.23969	0.078702	0.13192	0.076926	0.065199	0.033422	0.031892	0.20461	0.1768	-1.9375	-2.5563	-2.5667	-2.3812	-2.6292	-2.5958	-2.2792	-2.6312	-2.4354	-2.4875	-2.5563	-2.3646	-2.6125	-2.7583	-2.4313	-2.7313	457.870	303.812	222.289	467.302	280.210	235.604	317.268	497.450	430.640	488.126	192.765	254.657	250.344	463.661	187.438	403.553	0.0016592	0.0013456	0.000195	236.64	1.5756e-05	4.1137e-06	305.01	101.73	1.4559e-05	6.0287e-06	152.4	75.449	49.931	26.61	1.2574e-05	42.174	0.0016267	0.0016592	0.00042672	488.53	1.8074e-05	1.8031e-05	553.08	175.13	1.8328e-05	1.7782e-05	289.08	112.52	100.99	40.244	1.6491e-05	58.341	330.583	265.938	349.629	185.046	187.229	331.968	183.872	189.874	172.472	420.733	188.586	192.138	192.710	197.135	389.050	194.360	-8191	255	
7786.437	1	1	0	0	0.27607	0.13288	0.27305	0.10401	0.3153	0.20127	0.27055	0.13838	0.14363	0.096589	0.14275	0.18806	0.26671	0.31031	0.062787	0.27265	-1.9125	-2.35	-2.5521	-2.0958	-2.5563	-2.4562	-2.3187	-2.8979	-2.375	-2.4792	-2.7167	-2.4396	-2.4062	-2.7104	-2.3021	-2.7271	521.882	443.107	486.162	473.116	317.747	426.134	250.271	433.839	379.782	354.640	470.253	474.251	200.509	447.898	483.761	476.578	0.0011777	0.0014135	0.00026348	239.49	1.0632e-05	1.4934e-05	304.18	101.58	9.5842e-06	7.4367e-06	153.19	75.066	49.61	26.587	9.1412e-06	42.518	0.0016786	0.0015954	0.00041218	494.58	1.8538e-05	1.7251e-05	543.69	177.29	1.864e-05	1.7136e-05	284.01	114.47	101.5	39.68	1.5972e-05	59.368	348.860	287.914	308.986	184.140	230.541	315.658	184.271	189.733	466.919	424.964	188.632	191.583	193.454	197.104	305.250	194.153	-8191	255	
7786.557	1	1	0	0	0.047754	0.12518	0.050665	0.13249	0.33435	0.066026	0.11202	0.1546	0.14298	0.052924	0.22655	0.086142	0.079939	0.28979	0.18756	0.13996	-2.1958	-2.5229	-2.6583	-2.3833	-2.5896	-2.6312	-2.2208	-2.6708	-2.625	-2.4479	-2.7896	-2.3563	-2.5521	-2.5271	-2.3375	-2.6583	395.072	367.395	178.649	527.171	391.307	490.565	514.606	435.121	306.746	518.650	510.220	523.920	390.983	220.253	216.512	371.469	0.00092132	0.00051214	0.00017527	238.42	1.044e-05	9.4608e-06	304.92	100.94	1.6955e-05	8.334e-06	152.21	75.05	50.058	26.593	3.2821e-06	42.169	0.0016742	0.0015419	0.00039742	508.45	1.8372e-05	1.6772e-05	536.52	182	1.8275e-05	1.6758e-05	280.97	117.03	100.32	39.521	1.5861e-05	60.742	355.015	280.388	245.666	183.804	349.723	349.267	183.840	189.600	353.958	304.091	188.047	191.632	193.396	197.116	233.717	194.428	-8191	255	
7786.652	1	1	0	0	0.12432	0.20251	0.19562	0.10779	0.099644	0.10463	0.029728	0.26122	0.18552	0.031288	0.10128	0.076676	0.41277	0.14056	0.17502	0.11797	-2.0812	-2.4125	-2.7333	-2.3333	-2.5208	-2.7938	-2.4417	-2.5625	-2.625	-2.2542	-2.6437	-2.4521	-2.3979	-2.5875	-2.5104	-2.8229	335.394	499.323	183.998	368.441	432.982	474.676	409.431	186.135	340.777	185.624	483.000	343.025	519.349	458.723	183.624	365.166	0.0011048	0.00089183	0.00017373	236.25	5.0292e-06	1.4576e-05	306.49	101.67	1.2034e-05	7.2891e-06	152.67	75.47	49.371	26.559	1.8681e-05	42.223	0.0016546	0.0015437	0.00040308	529.14	1.8171e-05	1.678e-05	543.06	187.93	1.8092e-05	1.6734e-05	285.81	119.84	99.524	39.365	1.656e-05	61.753	383.347	332.915	189.159	184.120	396.041	334.462	183.988	189.732	352.124	364.409	187.691	191.731	193.419	197.120	512.045	194.570	-8191	255	
7786.748	1	1	0	0	0.11661	0.16764	0.15159	0.010704	0.12563	0.14872	0.283	0.15994	0.22126	0.11695	0.15061	0.21115	0.057409	0.24591	0.21303	0.26446	-2.0792	-2.2479	-2.625	-2.4688	-2.3042	-2.5563	-2.4062	-2.6167	-2.7562	-2.3833	-2.7146	-2.4042	-2.4917	-2.5792	-2.3812	-2.6312	419.617	307.355	217.045	370.224	520.382	404.312	277.705	500.394	336.969	416.422	210.497	478.251	306.658	248.881	490.876	517.232	0.0010716	0.0010365	0.00035153	235.45	1.2754e-05	8.0002e-06	304.69	100.88	1.6387e-05	1.077e-05	153.61	75.401	49.996	26.723	1.3746e-05	42.254	0.0016138	0.00151	0.00042355	538.03	1.7669e-05	1.641e-05	555.36	189.24	1.7642e-05	1.6371e-05	295.43	120.38	98.513	39.108	1.7644e-05	61.72	378.252	266.480	518.040	184.736	332.403	359.076	183.418	189.948	372.857	395.058	187.030	191.877	193.404	197.108	522.659	194.771	-8191	255	
7786.844	1	1	0	0	0.14585	0.11524	0.13714	0.24835	0.31221	0.17449	0.17089	0.17458	0.084063	0.27913	0.12537	0.092674	0.17955	0.13207	0.11085	0.046645	-2.1583	-2.475	-2.7604	-2.4771	-2.4854	-2.6729	-2.3458	-2.65	-2.6292	-2.4354	-2.5625	-2.7333	-2.4333	-2.7812	-2.3729	-2.7021	450.965	467.633	182.953	468.367	280.159	374.714	494.135	325.265	397.988	526.925	492.061	183.046	279.881	484.494	342.705	349.321	0.00092881	0.00097977	0.0003761	238.03	8.2596e-06	6.434e-06	306.24	101.09	9.5431e-06	6.0861e-06	151.38	75.36	50.245	26.612	8.0143e-06	42.04	0.0015644	0.0014585	0.00044505	528.01	1.6994e-05	1.5676e-05	565.15	185.26	1.6816e-05	1.5693e-05	300.61	118.02	96.343	38.755	1.8391e-05	60.874	354.222	240.647	485.933	185.101	306.327	332.764	183.205	190.494	406.955	198.267	187.283	192.420	193.443	196.945	193.609	194.759	-8191	255	
7786.940	1	1	0	0	0.33841	0.16479	0.077804	0.24042	0.34992	0.23564	0.098534	0.16951	0.10676	0.12018	0.11453	0.14357	0.088229	0.34218	0.13765	0.074664	-2.1021	-2.4042	-2.5896	-2.4458	-2.4146	-2.7729	-2.625	-2.4792	-2.675	-2.3271	-2.7292	-2.6937	-2.4042	-2.7333	-2.4021	-2.6813	514.607	404.263	226.200	473.246	203.775	271.607	314.300	503.619	444.545	379.655	249.753	452.354	172.870	252.749	349.072	407.164	0.00053111	0.0010173	9.4107e-05	237.46	5.5948e-06	1.1958e-05	305.8	100.83	1.4348e-05	1.3696e-05	151.9	75.116	49.509	26.657	8.6295e-06	42.198	0.0015238	0.0014694	0.00047173	521.72	1.6767e-05	1.615e-05	581.13	183.89	1.6649e-05	1.6455e-05	308.19	116.62	95.424	39.292	1.8901e-05	60.148	353.080	480.129	180.790	185.570	389.612	201.181	183.689	190.379	353.534	208.176	188.138	192.464	193.501	196.587	495.723	194.949	-8191	255	
7787.036	1	1	0	0	0.1553	0.21639	0.36907	0.28579	0.23666	0.13048	0.19254	0.14391	0.1321	0.1786	0.21656	0.047441	0.065869	0.32157	0.060438	0.24286	-2.4104	-2.4104	-2.6	-2.5938	-2.2708	-2.625	-2.5521	-2.475	-2.6104	-2.5458	-2.55	-2.425	-2.3125	-2.7521	-2.6167	-2.3729	417.647	308.568	228.837	188.026	420.616	195.920	413.247	398.277	414.004	283.718	419.490	348.240	252.970	259.475	375.405	447.576	0.00070981	0.0026584	0.00010777	236.79	6.1699e-06	1.8485e-05	301.55	100.79	1.4349e-05	1.3904e-05	151.58	75.014	49.792	26.461	1.0572e-05	42.141	0.0014796	0.0015454	0.0004798	512.61	1.6407e-05	1.7102e-05	582.38	181.69	1.6227e-05	1.7527e-05	308.12	115.82	94.603	40.379	1.8791e-05	60.013	372.805	480.068	194.531	184.687	323.556	182.184	184.127	190.473	308.986	225.488	188.566	192.060	194.066	196.627	312.780	194.591	-8191	255	
7787.132	1	1	0	0	0.15567	0.32505	0.14791	0.23917	0.16084	0.42772	0.11087	0.22901	0.20762	0.20493	0.079815	0.11113	0.12003	0.11823	0.13508	0.15742	-2.3021	-2.3312	-2.5208	-2.7354	-2.2167	-2.6729	-2.6021	-2.475	-2.6604	-2.6104	-2.5938	-2.6937	-2.4125	-2.4833	-2.4771	-2.4375	295.005	348.132	332.773	470.539	349.569	397.314	275.349	344.354	200.089	444.242	295.574	518.729	528.983	454.053	377.636	238.814	0.00092242	0.0011203	0.00034573	235.74	3.2604e-06	1.5069e-05	302.61	100.42	3.184e-06	1.3828e-05	151.95	75.057	49.853	26.596	1.221e-05	42.123	0.0014605	0.0016597	0.00047268	507.48	1.6231e-05	1.8273e-05	575.95	180.1	1.6121e-05	1.8509e-05	302.88	114.59	94.556	41.073	1.8131e-05	59.445	351.905	443.449	331.776	184.783	497.375	193.747	184.227	190.385	251.478	211.672	188.545	192.297	192.764	196.908	344.757	194.951	-8191	255	
7787.228	1	1	0	0	0.15384	0.32326	0.32611	0.18973	0.089306	0.17782	0.19964	0.08632	0.17585	0.083205	0.1166	0.3315	0.15153	0.26788	0.16911	0.24836	-2.0875	-2.6417	-2.4625	-2.7125	-2.1625	-2.6708	-2.7146	-2.4271	-2.7687	-2.6813	-2.5271	-2.775	-2.1979	-2.6063	-2.4708	-2.2438	374.887	362.384	319.060	420.129	335.670	472.604	352.704	208.162	330.165	188.169	439.941	510.822	172.261	471.148	440.800	366.582	0.0014917	0.0010232	0.00032574	236.17	1.028e-05	2.0551e-06	302.92	100.71	1.2073e-05	1.7277e-06	151.38	74.88	49.376	26.535	5.1705e-06	42.153	0.0014791	0.0017181	0.00045454	498.69	1.6536e-05	1.8826e-05	564.87	177.57	1.6626e-05	1.8838e-05	296.09	113.09	96.239	41.033	1.7155e-05	58.529	348.695	429.774	300.434	184.508	180.127	214.036	184.287	190.071	179.803	305.820	188.341	191.938	192.739	197.029	387.315	194.819	-8191	255	
7787.349	1	1	0	0	0.070387	0.061199	0.099549	0.097136	0.08446	0.057032	0.291	0.10201	0.16089	0.06621	0.12605	0.081457	0.29174	0.32273	0.028582	0.11013	-2.1333	-2.4771	-2.3792	-2.7271	-2.1813	-2.3146	-2.7062	-2.25	-2.6292	-2.4437	-2.2979	-2.75	-2.3229	-2.6083	-2.7313	-2.3812	192.969	480.976	448.619	422.217	308.980	292.908	505.991	193.227	492.076	178.884	308.815	316.959	271.544	220.940	358.778	331.435	0.0019399	0.00079033	0.00011431	236.49	1.2559e-05	1.8321e-05	301.89	100.64	2.4786e-05	1.738e-05	152.44	74.797	49.535	26.434	1.0631e-05	42.169	0.0015232	0.0016789	0.00042762	483.47	1.6957e-05	1.8099e-05	549.56	173.01	1.7051e-05	1.7835e-05	287.64	110.77	97.58	40.172	1.6342e-05	57.778	332.770	268.170	272.032	184.775	191.435	362.332	183.994	190.120	519.632	420.101	189.083	192.045	193.211	197.411	350.490	194.555	-8191	255	
7787.445	1	1	0	0	0.026187	0.12424	0.12075	0.089638	0.059969	0.37722	0.064546	0.069444	0.031485	0.11858	0.067341	0.33736	0.076324	0.089506	0.23765	0.15043	-2.1333	-2.5958	-2.3333	-2.7271	-2.3583	-2.6396	-2.5458	-2.4042	-2.775	-2.5771	-2.2438	-2.7479	-2.4583	-2.6208	-2.7875	-2.3583	176.530	287.356	286.299	515.599	397.839	181.433	490.650	185.396	378.152	514.052	527.949	402.544	513.263	260.082	196.991	393.620	0.001728	0.0013946	0.00013984	236.98	8.5175e-06	1.0132e-05	304.46	101.75	1.179e-05	1.7357e-05	151.92	75.349	49.535	26.391	1.1175e-05	42.028	0.001579	0.0015956	0.00041198	478.38	1.7689e-05	1.7294e-05	541.18	172.48	1.7705e-05	1.7114e-05	283.61	111.12	99.482	39.634	1.5834e-05	57.99	347.094	276.826	259.945	184.943	179.129	362.245	184.117	189.768	208.825	359.282	188.352	191.682	192.986	197.463	339.058	194.150	-8191	255	
7787.517	1	1	0	0	0.031997	0.24083	0.061257	0.18609	0.10164	0.19876	0.16127	0.073248	0.095068	0.19873	0.13627	0.1006	0.10837	0.07031	0.15342	0.065031	-1.9542	-2.6417	-2.1188	-2.6271	-2.3958	-2.3479	-2.6896	-2.4729	-2.5521	-2.6771	-2.3208	-2.6125	-2.45	-2.4833	-2.7521	-2.4375	255.390	386.813	210.310	433.227	491.065	392.876	481.815	325.788	475.262	359.536	321.145	432.717	358.176	377.412	372.208	310.423	0.0013112	0.0013245	0.00028699	238.94	3.3741e-06	5.5927e-06	303.87	101.7	8.0162e-06	1.033e-05	152.28	75.19	49.685	26.465	4.7703e-06	42.314	0.0016369	0.0015372	0.00040169	487.04	1.8152e-05	1.6693e-05	535.8	176	1.8103e-05	1.6618e-05	280.51	113.44	100.19	39.331	1.552e-05	59.447	341.845	267.055	339.875	184.351	312.792	396.766	184.100	189.606	361.259	368.223	188.234	191.517	193.340	196.989	348.066	194.386	-8191	255	
7787.638	1	1	0	0	0.25694	0.067658	0.17192	0.085024	0.16335	0.12632	0.35547	0.19652	0.1458	0.061749	0.059259	0.092245	0.20245	0.13801	0.13773	0.1154	-2.1979	-2.5771	-2.4229	-2.6125	-2.4062	-2.3417	-2.6167	-2.4042	-2.6312	-2.5771	-2.2646	-2.7333	-2.575	-2.2958	-2.7417	-2.5938	206.486	324.472	337.946	212.977	407.236	525.801	495.237	215.047	404.256	357.241	507.509	317.771	282.678	443.522	395.574	278.798	0.0013529	0.00047677	0.00023032	237.65	1.3679e-05	8.8614e-06	303.53	101.57	1.0365e-05	8.9326e-06	151.35	75.347	49.439	26.533	7.2941e-06	42.363	0.0016479	0.0015143	0.00039541	506.57	1.8189e-05	1.6664e-05	532.89	182.31	1.808e-05	1.662e-05	280.78	116.96	99.904	39.441	1.5778e-05	61.035	365.410	508.442	309.718	183.878	323.252	327.182	183.988	189.475	350.832	345.030	188.117	191.554	193.866	197.245	214.812	194.274	-8191	255	
7787.732	1	1	0	0	0.042394	0.20237	0.24598	0.11815	0.23238	0.10177	0.15514	0.29635	0.35327	0.087958	0.026339	0.11564	0.16282	0.016016	0.061945	0.086571	-2.0312	-2.5375	-2.3583	-2.6021	-2.4021	-2.3583	-2.7542	-2.4521	-2.6229	-2.7625	-2.2562	-2.4875	-2.3646	-2.4417	-2.7208	-2.4396	519.851	241.034	230.931	300.678	349.918	462.207	482.188	493.452	441.045	464.210	287.176	205.442	435.385	362.525	288.456	352.479	0.00089013	0.00056988	9.1244e-05	236.8	1.1307e-05	8.9275e-06	304.68	101.12	5.0749e-06	1.1305e-05	152.7	75.196	49.603	26.585	1.7581e-05	42.442	0.0016425	0.0015229	0.00040819	527.81	1.8072e-05	1.6775e-05	542.3	187.89	1.7992e-05	1.6669e-05	288.28	120.06	99.565	39.576	1.6776e-05	62.214	350.264	282.940	514.244	183.903	333.422	332.796	183.887	189.508	270.053	353.671	187.868	191.699	193.770	197.193	527.669	194.562	-8191	255	
7787.830	1	1	0	0	0.35643	0.2364	0.094513	0.14702	0.32852	0.10411	0.30013	0.17941	0.13485	0.19464	0.21649	0.27919	0.17709	0.35736	0.21998	0.10469	-1.8813	-2.6146	-2.2292	-2.5958	-2.5979	-2.3375	-2.475	-2.5833	-2.4521	-2.7583	-2.3667	-2.4688	-2.5438	-2.5104	-2.8042	-2.4208	487.807	395.514	417.794	458.245	322.541	502.907	255.437	432.951	178.226	339.959	508.975	342.385	387.521	509.460	459.954	249.582	0.00074364	0.0011354	0.00039279	236.46	3.8546e-06	1.3659e-05	304.43	99.969	6.6962e-06	8.6301e-06	152.22	75.463	49.827	26.81	1.8043e-05	42.312	0.0016317	0.0015192	0.00043884	541.82	1.7981e-05	1.6849e-05	562.13	190.83	1.8042e-05	1.6714e-05	301.48	121.65	100.43	39.84	1.8523e-05	62.73	368.614	264.536	180.183	184.805	328.347	344.576	183.159	190.240	309.488	308.927	187.984	191.776	193.144	196.732	530.382	194.800	-8191	255	
#DATA ENDS
