BOXY.EXE: ISS Imagent and Oximeter Data Acquisition Program Version 0.80
Ascii Record File

#ACQ INFORMATION
2  Detector Channels 
16  External MUX Channels 
1  Auxiliary Channels 
5000  Waveform (CCF) Frequency (Hz)
1  Waveforms Skipped 
30  Waveforms Averaged 
1  Cycles Averaged 
16  Acquisitions per Waveform 
10.0806  Updata Rate (Hz) 

#FILE INFORMATION
TRUE -- External MUX Channel results are PARSED.
FALSE -- AC DC and Phase are NOT grouped.
TRUE -- Companion Program Settings File CREATED.
FALSE -- AC data not excluded
FALSE -- DC data not excluded
FALSE -- Phase data not excluded
FALSE -- Auxillary Chn. data not excluded
Tab delimiters

#CALIBRATION STATE
TRUE -- Waveform Calibration Values APPLIED.


#AUX CALIBRATION VALUES
Val Type	aux-1	

Term	1.0000e+00	
Factor	0.0000e+00	


#WF CALIBRATION VALUES
A = Detector Channel
Val Type	A-AC1	A-AC2	A-AC3	A-AC4	A-AC5	A-AC6	A-AC7	A-AC8	A-AC9	A-AC10	A-AC11	A-AC12	A-AC13	A-AC14	A-AC15	A-AC16	A-DC1	A-DC2	A-DC3	A-DC4	A-DC5	A-DC6	A-DC7	A-DC8	A-DC9	A-DC10	A-DC11	A-DC12	A-DC13	A-DC14	A-DC15	A-DC16	A-Ph1	A-Ph2	A-Ph3	A-Ph4	A-Ph5	A-Ph6	A-Ph7	A-Ph8	A-Ph9	A-Ph10	A-Ph11	A-Ph12	A-Ph13	A-Ph14	A-Ph15	A-Ph16	

Term	0.00000e+00	0.00000e+00	0.00000e+00	0.00000e+00	0.00000e+00	0.00000e+00	0.00000e+00	0.00000e+00	0.00000e+00	0.00000e+00	0.00000e+00	0.00000e+00	0.00000e+00	0.00000e+00	0.00000e+00	0.00000e+00	0.00000e+00	0.00000e+00	0.00000e+00	0.00000e+00	0.00000e+00	0.00000e+00	0.00000e+00	0.00000e+00	0.00000e+00	0.00000e+00	0.00000e+00	0.00000e+00	0.00000e+00	0.00000e+00	0.00000e+00	0.00000e+00	0.00000e+00	0.00000e+00	0.00000e+00	0.00000e+00	0.00000e+00	0.00000e+00	0.00000e+00	0.00000e+00	0.00000e+00	0.00000e+00	0.00000e+00	0.00000e+00	0.00000e+00	0.00000e+00	0.00000e+00	0.00000e+00	
Factor	1.00000e+00	1.00000e+00	1.00000e+00	1.00000e+00	1.00000e+00	1.00000e+00	1.00000e+00	1.00000e+00	1.00000e+00	1.00000e+00	1.00000e+00	1.00000e+00	1.00000e+00	1.00000e+00	1.00000e+00	1.00000e+00	1.00000e+00	1.00000e+00	1.00000e+00	1.00000e+00	1.00000e+00	1.00000e+00	1.00000e+00	1.00000e+00	1.00000e+00	1.00000e+00	1.00000e+00	1.00000e+00	1.00000e+00	1.00000e+00	1.00000e+00	1.00000e+00	X	X	X	X	X	X	X	X	X	X	X	X	X	X	X	X	

B = Detector Channel
Val Type	B-AC1	B-AC2	B-AC3	B-AC4	B-AC5	B-AC6	B-AC7	B-AC8	B-AC9	B-AC10	B-AC11	B-AC12	B-AC13	B-AC14	B-AC15	B-AC16	B-DC1	B-DC2	B-DC3	B-DC4	B-DC5	B-DC6	B-DC7	B-DC8	B-DC9	B-DC10	B-DC11	B-DC12	B-DC13	B-DC14	B-DC15	B-DC16	B-Ph1	B-Ph2	B-Ph3	B-Ph4	B-Ph5	B-Ph6	B-Ph7	B-Ph8	B-Ph9	B-Ph10	B-Ph11	B-Ph12	B-Ph13	B-Ph14	B-Ph15	B-Ph16	

Term	0.00000e+00	0.00000e+00	0.00000e+00	0.00000e+00	0.00000e+00	0.00000e+00	0.00000e+00	0.00000e+00	0.00000e+00	0.00000e+00	0.00000e+00	0.00000e+00	0.00000e+00	0.00000e+00	0.00000e+00	0.00000e+00	0.00000e+00	0.00000e+00	0.00000e+00	0.00000e+00	0.00000e+00	0.00000e+00	0.00000e+00	0.00000e+00	0.00000e+00	0.00000e+00	0.00000e+00	0.00000e+00	0.00000e+00	0.00000e+00	0.00000e+00	0.00000e+00	-2.01985e+02	-1.29378e+02	-1.28570e+02	-1.80487e+02	-8.05482e+01	-6.35979e+01	-1.57016e+02	-1.62015e+02	-9.10596e+01	-6.42508e+01	-1.71443e+02	-1.71615e+02	-1.83224e+02	-1.76661e+02	-7.99887e+01	-1.49508e+02	
Factor	5.02138e-05	2.16187e-04	5.75228e-05	2.02782e-01	2.24451e-06	2.39498e-06	2.11821e-01	6.23708e-02	2.36109e-06	2.12806e-06	1.02550e-01	4.02935e-02	4.67635e-02	1.15781e-02	2.14567e-06	1.65216e-02	1.48403e-05	2.08106e-05	5.80611e-06	1.01095e-01	2.10257e-07	2.31288e-07	9.93696e-02	3.12328e-02	2.09323e-07	2.30627e-07	4.98278e-02	1.95568e-02	2.33408e-02	5.84236e-03	2.17295e-07	8.10984e-03	X	X	X	X	X	X	X	X	X	X	X	X	X	X	X	X	



#DISTANCE SETTINGS
A = Detector Channel
A-1	A-2	A-3	A-4	A-5	A-6	A-7	A-8	A-9	A-10	A-11	A-12	A-13	A-14	A-15	A-16	

2.5000e+00	3.0000e+00	2.5000e+00	3.0000e+00	2.0000e+00	3.0000e+00	1.5000e+00	3.0000e+00	3.0000e+00	3.0000e+00	3.0000e+00	3.0000e+00	3.0000e+00	3.0000e+00	1.5000e+00	3.0000e+00	

B = Detector Channel
B-1	B-2	B-3	B-4	B-5	B-6	B-7	B-8	B-9	B-10	B-11	B-12	B-13	B-14	B-15	B-16	

1.0000e+01	1.0000e+01	1.0000e+01	1.4400e+00	1.0000e+01	1.0000e+01	1.5100e+00	1.9400e+00	1.0000e+01	1.0000e+01	1.9900e+00	2.4900e+00	2.4100e+00	2.9000e+00	1.0000e+01	2.9800e+00	




#DATA BEGINS
time	group	step	mark	flag	A-AC1	A-AC2	A-AC3	A-AC4	A-AC5	A-AC6	A-AC7	A-AC8	A-AC9	A-AC10	A-AC11	A-AC12	A-AC13	A-AC14	A-AC15	A-AC16	A-DC1	A-DC2	A-DC3	A-DC4	A-DC5	A-DC6	A-DC7	A-DC8	A-DC9	A-DC10	A-DC11	A-DC12	A-DC13	A-DC14	A-DC15	A-DC16	A-Ph1	A-Ph2	A-Ph3	A-Ph4	A-Ph5	A-Ph6	A-Ph7	A-Ph8	A-Ph9	A-Ph10	A-Ph11	A-Ph12	A-Ph13	A-Ph14	A-Ph15	A-Ph16	B-AC1	B-AC2	B-AC3	B-AC4	B-AC5	B-AC6	B-AC7	B-AC8	B-AC9	B-AC10	B-AC11	B-AC12	B-AC13	B-AC14	B-AC15	B-AC16	B-DC1	B-DC2	B-DC3	B-DC4	B-DC5	B-DC6	B-DC7	B-DC8	B-DC9	B-DC10	B-DC11	B-DC12	B-DC13	B-DC14	B-DC15	B-DC16	B-Ph1	B-Ph2	B-Ph3	B-Ph4	B-Ph5	B-Ph6	B-Ph7	B-Ph8	B-Ph9	B-Ph10	B-Ph11	B-Ph12	B-Ph13	B-Ph14	B-Ph15	B-Ph16	aux-1	digaux	

22460.502	1	1	0	256	0.14423	0.20167	0.12126	0.12859	0.20912	0.22536	0.20525	0.074316	0.099104	0.10967	0.18645	0.26433	0.29474	0.1501	0.27601	0.13942	-2.1625	-2.3708	-2.6333	-2.7792	-2.2708	-2.5917	-2.5375	-2.6292	-2.7438	-2.2687	-2.5187	-2.7687	-2.4208	-2.5167	-2.5604	-2.6333	-25.458	1.880	185.915	248.962	197.734	95.280	133.774	86.748	231.849	-103.594	137.683	16.106	-48.241	-85.081	-48.773	229.305	0.0007513	0.0013859	0.00046669	535.12	1.0994e-05	2.1072e-05	1033.8	204.58	4.7004e-06	1.0191e-05	450.82	190.67	84.238	39.154	1.3801e-05	107.16	0.035117	0.049145	0.013662	715.5	0.00049845	0.0005497	1161.8	257.99	0.00049836	0.00054956	522.98	218.19	130.5	49.219	0.0005042	116.72	99.712	-81.708	-31.258	-92.349	-46.660	-15.847	-93.142	-88.737	74.063	73.339	-89.296	-84.843	-85.034	-79.354	-72.570	-80.727	-8191	255	
22460.621	1	1	0	0	0.22889	0.13608	0.11826	0.16078	0.02757	0.079735	0.15973	0.20383	0.055438	0.020709	0.22779	0.13081	0.14312	0.33336	0.15597	0.1548	-2.3708	-2.3479	-2.3896	-2.4604	-2.2125	-2.5875	-2.6625	-2.5958	-2.6958	-2.5312	-2.5938	-2.6771	-2.3625	-2.5646	-2.3688	-2.5875	232.538	48.831	-2.732	71.728	-44.091	-75.903	-99.151	143.221	221.038	-5.084	229.921	185.737	252.946	105.056	235.026	182.191	0.00095184	0.0025768	0.00071536	531.55	4.1315e-05	1.9494e-05	1030.3	203.07	4.9714e-06	7.101e-05	448.74	189.38	84.172	39.216	8.2342e-06	107.23	0.03472	0.048559	0.013429	706.95	0.0004892	0.00053828	1153.2	256.38	0.00049375	0.00054741	522.44	218.66	133.49	49.966	0.00053495	118.17	118.366	-95.450	-24.798	-92.121	-56.280	-17.376	-92.943	-88.591	110.543	-73.166	-88.975	-85.322	-85.067	-79.162	-1.198	-80.861	-8191	255	
22460.717	1	1	0	0	0.14767	0.18634	0.11377	0.23586	0.21702	0.057343	0.078565	0.16805	0.28277	0.13046	0.22293	0.26184	0.14074	0.33255	0.18297	0.16235	-2.3	-2.2938	-2.4375	-2.7313	-2.4896	-2.6063	-2.4708	-2.3917	-2.7979	-2.4625	-2.5875	-2.6208	-2.2417	-2.7479	-2.4354	-2.4958	198.179	2.400	134.706	-43.648	204.529	-9.808	-39.252	246.197	104.775	21.587	48.885	221.626	130.479	137.616	222.655	181.980	0.0019837	0.0045639	0.00095573	544.94	1.4259e-05	4.2904e-05	1043.2	209.03	1.0347e-05	3.3685e-05	455.87	192.54	85.753	39.537	8.5802e-06	107.83	0.037605	0.052451	0.014663	740.69	0.00053621	0.00059032	1192.2	268.35	0.00053471	0.0005858	536.57	224.34	137.67	50.681	0.0005509	118.97	119.075	-4.127	-64.749	-92.555	-58.142	95.471	-92.970	-88.787	174.854	82.547	-89.590	-85.173	-85.842	-79.659	196.348	-81.004	-8191	255	
22460.812	1	1	0	0	0.10369	0.1209	0.20202	0.17145	0.19407	0.013054	0.30501	0.073532	0.14158	0.1539	0.2244	0.12721	0.058433	0.30803	0.14481	0.065335	-2.2354	-2.4146	-2.3333	-2.65	-2.3667	-2.3917	-2.7458	-2.4396	-2.7	-2.4167	-2.6833	-2.7167	-2.4062	-2.6417	-2.5229	-2.4917	9.236	238.296	43.659	49.274	9.724	38.137	159.246	169.720	234.432	44.112	134.517	-38.133	-97.945	-76.565	22.252	-95.541	0.00040833	0.0038201	0.00030893	542.44	2.7898e-05	2.9323e-05	1046.5	209.43	3.2963e-05	2.5567e-05	452.07	193.44	85.021	39.463	2.2646e-05	108.36	0.038414	0.053166	0.014839	746.97	0.00054187	0.00059455	1192	268.65	0.00053782	0.00058851	537.41	224.77	136.97	50.566	0.00054662	119.43	22.082	-3.583	169.154	-92.889	227.144	117.387	-93.249	-88.688	-89.914	23.638	-89.243	-85.302	-86.070	-78.990	93.307	-80.916	-8191	255	
22460.908	1	1	0	0	0.1158	0.34332	0.25894	0.16958	0.29516	0.18284	0.19611	0.04058	0.24025	0.11924	0.29366	0.092132	0.073623	0.10237	0.26884	0.34873	-2.2958	-2.4979	-2.4313	-2.7333	-2.4188	-2.5646	-2.7708	-2.3771	-2.7188	-2.4604	-2.375	-2.6458	-2.2771	-2.5	-2.6083	-2.4604	175.866	168.083	45.741	140.301	177.571	-33.972	216.487	-16.464	162.798	222.206	211.232	218.566	252.231	238.292	105.563	239.461	0.00095105	0.0047847	0.0001931	538.02	8.4718e-06	1.9682e-05	1045.4	208.8	2.529e-05	9.1677e-06	454.27	194.49	85.543	39.572	3.34e-05	108.87	0.037804	0.052247	0.014577	738	0.00053143	0.00058475	1188.8	267.33	0.00052856	0.00057983	536.5	225.46	136.49	50.557	0.00054406	119.66	86.367	-5.808	137.530	-93.023	81.204	34.681	-92.808	-88.961	100.212	-76.672	-89.236	-85.149	-86.005	-79.232	88.136	-80.900	-8191	255	
22461.029	1	1	0	0	0.16247	0.27839	0.3255	0.06626	0.24137	0.17516	0.0083137	0.07207	0.16579	0.18477	0.31053	0.078465	0.18496	0.1644	0.10824	0.3266	-2.1479	-2.55	-2.3896	-2.6437	-2.3979	-2.4792	-2.8083	-2.3708	-2.6354	-2.7604	-2.325	-2.8333	-2.3896	-2.3063	-2.6021	-2.4646	-76.990	30.532	242.842	119.579	-85.758	57.256	129.248	99.175	27.184	157.531	-58.994	-53.225	-74.754	196.574	-23.753	196.921	0.001286	0.0020956	0.00023769	533.18	9.342e-06	5.515e-06	1035.1	207.16	1.2586e-05	2.3057e-05	451.28	189.98	83.499	39.34	8.4132e-06	108.02	0.037096	0.051481	0.014378	730.36	0.00051635	0.00056553	1177.6	263.03	0.00050869	0.00056216	528.43	220.02	133.36	49.847	0.00052669	118.28	151.696	106.158	73.276	-93.100	46.917	39.248	-92.972	-88.725	109.166	-102.437	-89.095	-84.938	-85.337	-79.309	-49.451	-80.968	-8191	255	
22461.100	1	1	0	0	0.22591	0.063219	0.31299	0.28593	0.046319	0.14808	0.11279	0.29917	0.13909	0.14976	0.17599	0.30226	0.13832	0.12384	0.22987	0.2143	-2.2229	-2.4813	-2.3063	-2.6813	-2.5312	-2.5292	-2.6646	-2.4771	-2.4917	-2.4562	-2.5542	-2.6688	-2.6021	-2.2854	-2.6083	-2.5563	122.664	108.002	252.390	-104.008	-9.319	-75.118	163.436	173.871	65.565	144.699	151.234	226.878	188.986	5.770	-34.557	-40.316	0.0012235	0.0023871	0.00042464	534.73	6.3999e-06	3.1804e-05	1032.8	205.95	1.5884e-05	3.7072e-05	451.04	192.78	84.95	38.99	1.2435e-05	108.18	0.036189	0.050592	0.014202	726.74	0.00051231	0.00056708	1174.5	263.75	0.00051038	0.00056559	530.38	222.42	134.07	49.972	0.00053419	118.74	134.270	39.909	1.052	-93.003	90.695	9.844	-92.810	-88.956	26.733	-36.905	-89.111	-85.004	-85.367	-78.899	26.721	-80.612	-8191	255	
22461.221	1	1	0	0	0.069649	0.095817	0.066563	0.12049	0.35103	0.21689	0.068915	0.1011	0.21599	0.11288	0.12494	0.29437	0.075719	0.075719	0.14466	0.24044	-2.2083	-2.6042	-2.2792	-2.3833	-2.5729	-2.2438	-2.85	-2.4375	-2.5354	-2.7979	-2.375	-2.7333	-2.6042	-2.4625	-2.5042	-2.4333	-25.596	-82.239	-89.069	12.770	237.984	34.391	247.523	186.103	17.175	9.365	157.438	240.728	57.776	-63.067	181.593	148.051	0.0011555	0.00052283	0.00068057	537.62	7.4185e-06	2.7686e-05	1041.1	210.38	1.3134e-05	3.3207e-05	456.34	193.62	85.663	39.617	2.9424e-05	109.34	0.036699	0.051407	0.014391	733.4	0.00052059	0.00057627	1185.5	266.86	0.00052434	0.00057958	537	224.61	136.52	50.69	0.00054688	119.64	145.239	11.553	186.801	-92.760	7.959	210.325	-92.537	-88.868	59.261	-39.218	-89.344	-85.359	-85.878	-79.362	-8.905	-81.113	-8191	255	
22461.316	1	1	0	0	0.28525	0.065683	0.15516	0.12882	0.18123	0.13868	0.15022	0.17451	0.21414	0.050107	0.17113	0.23538	0.04998	0.3009	0.053188	0.17528	-1.8833	-2.6125	-2.3917	-2.3667	-2.5771	-2.2812	-2.8438	-2.4854	-2.3688	-2.525	-2.4333	-2.5625	-2.7208	-2.4313	-2.6896	-2.5312	37.331	224.593	165.394	223.076	89.152	-31.620	186.481	221.154	108.782	71.482	-60.526	209.605	238.744	128.463	237.630	209.689	0.00080097	0.0021069	0.00075042	539.78	3.1399e-05	1.905e-05	1041.6	209.58	1.5713e-05	3.1439e-05	454.64	193.24	84.534	39.17	2.0823e-05	108.49	0.037296	0.052082	0.01448	731.53	0.00051603	0.00056543	1178.7	263.46	0.00050616	0.00056108	529.5	221.67	132.76	49.816	0.00052481	118.43	171.011	29.929	-37.131	-93.091	43.030	27.043	-92.923	-88.745	105.345	209.534	-89.150	-85.044	-85.108	-79.246	25.602	-80.993	-8191	255	
22461.412	1	1	0	0	0.21911	0.21835	0.16079	0.072014	0.027226	0.22702	0.11138	0.14632	0.019605	0.039267	0.22009	0.32923	0.19278	0.18286	0.087214	0.1504	-2.0563	-2.5625	-2.3917	-2.5417	-2.3875	-2.1875	-2.825	-2.5208	-2.3146	-2.6104	-2.6312	-2.7271	-2.6583	-2.3125	-2.675	-2.7292	77.312	61.093	-29.467	-61.086	-70.873	-67.436	158.850	120.745	168.980	173.323	160.334	223.870	185.475	-57.277	118.555	-99.132	0.00049607	0.0019185	0.00081634	531.52	6.5577e-06	2.1935e-05	1037.4	204.67	1.4014e-05	2.3096e-05	448.42	192.46	83.975	39.019	3.0362e-05	107.87	0.035968	0.050516	0.01393	720.19	0.00050011	0.00055263	1166.1	257.81	0.00049345	0.00054718	523.62	219.66	131.92	49.712	0.00052693	118.43	80.022	234.186	-70.580	-92.781	-52.513	87.987	-93.235	-88.818	-1.619	115.618	-89.085	-85.172	-85.080	-79.213	120.465	-81.157	-8191	255	
22461.510	1	1	0	0	0.1443	0.06355	0.16466	0.17579	0.33335	0.075223	0.17166	0.10986	0.10708	0.031874	0.20872	0.31404	0.24049	0.10467	0.2706	0.1242	-1.8042	-2.5833	-2.3	-2.5417	-2.7229	-2.2521	-2.6042	-2.575	-2.2917	-2.6458	-2.6292	-2.5458	-2.5062	-2.3854	-2.4938	-2.8354	143.982	48.772	-68.582	-103.192	173.726	60.347	152.752	40.212	-40.913	149.566	238.318	193.336	199.473	-67.561	30.704	192.672	0.002005	0.0031404	0.00067194	535.2	2.2923e-06	3.9178e-05	1049.5	209.38	3.6264e-05	2.7967e-05	452.15	191.08	84.268	39.283	2.1041e-05	107.65	0.036814	0.051749	0.014471	732	0.00052636	0.00058025	1186	264.9	0.00051613	0.00057095	530.06	221.17	133.11	49.929	0.00052111	118.18	135.404	-12.223	25.840	-93.403	-90.848	-17.333	-93.175	-89.121	188.112	4.443	-89.088	-85.156	-85.375	-79.023	100.535	-80.997	-8191	255	
22461.629	1	1	0	0	0.12693	0.05342	0.22228	0.20536	0.088338	0.083294	0.17138	0.16195	0.33822	0.066106	0.046431	0.1945	0.096526	0.16858	0.021545	0.31354	-1.7521	-2.6688	-2.3854	-2.4938	-2.8	-2.3438	-2.7104	-2.675	-2.3771	-2.7208	-2.4667	-2.4688	-2.6125	-2.3812	-2.5396	-2.7854	-82.364	190.002	76.476	104.120	164.920	2.442	-17.903	-95.903	-50.741	-24.823	-40.399	-100.158	-15.898	156.894	192.613	205.212	0.00081157	0.0013262	0.001072	538.91	1.0821e-05	2.948e-05	1036.5	204.99	5.5079e-05	3.4104e-05	450.09	191.87	85.308	39.703	5.9835e-06	108.93	0.035853	0.049786	0.013811	719.01	0.00050597	0.0005522	1168	259.99	0.00050281	0.00055418	526.42	221.26	133.21	50.123	0.00052556	119.35	141.740	33.349	32.205	-93.157	-90.477	-85.318	-92.802	-88.456	226.406	-20.986	-89.408	-84.779	-85.543	-78.927	26.759	-80.848	-8191	255	
22461.699	1	1	0	0	0.011123	0.1886	0.016839	0.12996	0.34138	0.036969	0.064369	0.047485	0.15333	0.11333	0.31441	0.057916	0.098293	0.20533	0.071485	0.19801	-1.8167	-2.6646	-2.3792	-2.2938	-2.7208	-2.4437	-2.6188	-2.8312	-2.4375	-2.5708	-2.6813	-2.4792	-2.5917	-2.4292	-2.3271	-2.7646	-22.405	-15.018	-77.896	-74.740	-82.063	229.065	-85.922	111.461	49.764	-32.385	167.812	94.930	128.911	224.500	11.398	-72.468	0.0015911	0.003153	0.00053629	531.88	9.6241e-06	1.2606e-05	1040.9	207.32	1.8601e-05	1.7221e-05	455.09	193.35	84.731	39.358	1.1132e-05	108.65	0.036456	0.050853	0.013978	725.01	0.00050989	0.00055958	1175.1	261.63	0.00050883	0.00056257	531.82	223.28	134.51	50.272	0.00053443	119.73	120.220	19.211	-97.497	-93.036	96.171	39.301	-92.928	-88.814	170.732	59.882	-89.619	-85.096	-85.018	-79.254	39.176	-80.711	-8191	255	
22461.797	1	1	0	0	0.11404	0.15565	0.13838	0.21611	0.18449	0.121	0.19095	0.10662	0.32326	0.093117	0.24389	0.074661	0.039291	0.1418	0.26723	0.41732	-1.9562	-2.5333	-2.5896	-2.3333	-2.5979	-2.5417	-2.4333	-2.7375	-2.3417	-2.6208	-2.8042	-2.4771	-2.6979	-2.6021	-2.4083	-2.6979	-72.237	-38.713	179.063	229.947	-82.533	127.632	243.515	-101.535	193.850	-26.295	243.018	200.113	169.299	90.233	-106.051	182.521	0.00096743	0.002924	7.9673e-05	532.49	1.9353e-06	2.5304e-05	1040	208.62	2.0704e-05	5.3396e-05	454.86	192.51	84.457	39.066	2.4575e-05	107.93	0.037062	0.051597	0.014396	731.32	0.00052237	0.00057246	1180.9	265.26	0.00051609	0.00057068	531.95	222.31	134.33	49.88	0.00053184	118.48	150.865	-101.472	171.774	-92.572	166.700	217.651	-92.965	-88.910	204.848	49.369	-89.321	-85.262	-85.150	-79.467	77.396	-80.782	-8191	255	
22461.893	1	1	0	0	0.30621	0.16763	0.14519	0.11875	0.21753	0.22095	0.17951	0.20939	0.15969	0.036265	0.18537	0.1344	0.1285	0.073607	0.13482	0.20949	-1.8563	-2.5417	-2.6167	-2.4625	-2.5646	-2.3688	-2.5687	-2.7562	-2.4708	-2.5625	-2.7792	-2.3708	-2.8104	-2.6542	-2.5354	-2.9771	72.443	149.920	-59.481	224.614	-15.232	97.867	155.930	-16.259	251.309	221.641	-39.036	235.992	50.345	143.274	-86.603	138.310	0.0013387	0.0013921	0.00058459	533.28	8.9515e-06	3.232e-05	1043.7	206.55	2.5009e-05	7.6327e-06	453.08	191.97	84.175	38.869	2.932e-05	107.96	0.036581	0.050626	0.014128	725.85	0.00051271	0.00056173	1172.8	262.05	0.00050579	0.00055628	526.83	221	132.07	49.467	0.00052377	118.06	102.146	37.224	-42.128	-93.129	-81.527	-41.711	-92.870	-88.657	32.116	215.200	-89.122	-84.878	-85.369	-79.185	-15.239	-80.912	-8191	255	
22462.014	1	1	0	0	0.20803	0.27075	0.073039	0.25766	0.11437	0.098443	0.12088	0.027898	0.12045	0.15035	0.17	0.35085	0.19737	0.27986	0.20051	0.37479	-2.0625	-2.5563	-2.7042	-2.4146	-2.7646	-2.7188	-2.5708	-2.8125	-2.6396	-2.3542	-2.9562	-2.6375	-2.4833	-2.5146	-2.3854	-2.7062	-101.881	243.440	214.260	49.882	-59.579	-73.556	84.743	-13.442	-24.671	89.208	207.975	-87.787	-51.471	251.927	96.185	202.081	0.00087506	0.0010912	0.00048897	536.23	3.7426e-05	1.4415e-05	1041.5	207.53	3.1156e-05	3.4116e-05	453.5	191.71	85.16	39.013	3.021e-05	108.09	0.035822	0.049814	0.013991	724.65	0.00050823	0.00055717	1175.8	262.3	0.00050553	0.00055776	530.73	221.78	133.67	49.651	0.00053208	118.59	105.350	242.022	133.298	-92.839	2.066	203.325	-92.846	-88.711	-67.131	23.570	-89.101	-84.978	-85.312	-79.640	-19.656	-80.871	-8191	255	
22462.109	1	1	0	0	0.11794	0.17223	0.12617	0.11106	0.20216	0.2208	0.15755	0.056307	0.091518	0.26259	0.20106	0.072785	0.078502	0.11204	0.057933	0.30488	-2.0187	-2.4813	-2.5917	-2.5583	-2.7646	-2.7354	-2.4833	-2.7083	-2.5521	-2.3917	-2.7833	-2.4083	-2.6125	-2.7146	-2.3917	-2.9146	186.187	112.239	5.082	232.904	8.076	131.806	220.710	165.999	3.176	24.325	39.693	7.961	34.905	-86.975	16.930	240.410	0.0008544	0.0051411	0.00017714	538.13	2.8044e-05	3.483e-05	1047.6	207.05	3.6501e-05	2.2278e-05	453.64	193.27	84.812	39.27	1.4679e-05	108.34	0.036343	0.050857	0.014287	730.54	0.00051876	0.00057163	1183.6	263.9	0.00051447	0.00057064	533.31	223.25	134.73	50.187	0.00054403	119.2	139.107	4.390	-63.418	-93.273	-87.184	-93.050	-93.077	-88.837	-7.860	136.788	-89.613	-84.958	-85.784	-79.227	56.711	-80.504	-8191	255	
22462.205	1	1	0	0	0.14716	0.25107	0.163	0.10248	0.10468	0.1531	0.07423	0.18913	0.26741	0.21032	0.11991	0.22671	0.053298	0.19007	0.058372	0.19091	-1.8896	-2.2729	-2.7062	-2.5042	-2.6104	-2.6625	-2.55	-2.6688	-2.6813	-2.4562	-2.8083	-2.6792	-2.5521	-2.7958	-2.4708	-2.8208	-35.537	182.700	148.767	21.313	126.426	106.604	114.454	157.081	-88.610	59.994	69.907	188.540	-15.784	223.166	63.513	155.236	0.0012387	0.00095157	0.00060862	541.01	9.4071e-06	2.4708e-05	1036.8	208.64	3.0242e-05	1.0632e-05	453.88	192.18	83.565	38.858	1.734e-05	107.03	0.037265	0.052294	0.014615	734.08	0.00052585	0.00057964	1182.5	264.82	0.00051575	0.00057083	530.84	221.44	134.39	49.8	0.00054065	118.22	142.944	116.788	159.927	-93.698	0.033	-95.889	-93.245	-88.888	132.187	-49.217	-89.253	-85.188	-85.522	-79.381	128.860	-80.673	-8191	255	
22462.301	1	1	0	0	0.2663	0.041996	0.078069	0.2695	0.11739	0.17145	0.28391	0.13965	0.038526	0.16983	0.15708	0.26571	0.19799	0.11172	0.057314	0.27535	-2.0125	-2.3917	-2.7104	-2.4958	-2.4979	-2.875	-2.6708	-2.6	-2.7583	-2.4688	-2.7771	-2.5958	-2.6583	-2.7313	-2.4625	-2.8479	252.886	110.923	216.257	-75.475	200.539	27.115	159.668	52.065	-73.906	-63.891	169.443	-37.843	238.585	-23.919	-13.352	160.058	0.0010925	0.0012169	0.0003883	533.6	7.5411e-06	1.1831e-05	1041.7	209.48	1.5637e-05	1.0888e-05	454.39	195.31	86.741	39.586	1.3082e-05	109.13	0.037482	0.052924	0.014837	742.66	0.00054041	0.00060133	1197.1	270.3	0.00054679	0.00061226	543.97	227.93	140.09	51.47	0.00057523	120.65	152.127	83.565	-61.759	-92.284	-0.221	52.447	-93.051	-88.789	-67.312	-29.981	-89.303	-85.218	-85.564	-79.474	-79.332	-80.783	-8191	255	
22462.396	1	1	0	0	0.084694	0.31929	0.29206	0.2035	0.10869	0.10292	0.10117	0.084243	0.1295	0.092881	0.17766	0.2512	0.26406	0.26963	0.11519	0.20107	-2.3312	-2.3438	-2.5625	-2.5167	-2.4333	-2.6521	-2.5354	-2.6083	-2.8458	-2.5354	-2.7875	-2.7938	-2.5687	-2.9229	-2.4313	-2.7854	51.815	-105.014	132.818	146.121	-18.378	-8.796	204.304	97.459	242.218	86.303	204.466	102.244	227.599	193.328	-61.540	153.610	0.0012745	0.0034719	0.00084617	541.51	3.0688e-05	2.6901e-05	1042.2	209.12	2.1488e-05	1.8701e-05	454.52	192.64	83.558	39.217	1.9592e-05	108.18	0.039515	0.054957	0.015256	746.73	0.00054538	0.0005989	1193.2	266.8	0.0005312	0.00058798	534.37	222.97	134.39	50.172	0.00054024	119.27	127.097	76.017	-34.728	-92.854	217.620	119.063	-92.841	-88.955	182.214	-58.513	-89.526	-85.156	-85.645	-79.094	-29.584	-80.547	-8191	255	
22462.492	1	1	0	0	0.31708	0.21262	0.20665	0.37637	0.13565	0.15601	0.4239	0.23719	0.14455	0.090404	0.11416	0.32227	0.05946	0.36847	0.097841	0.11405	-2.2667	-2.6146	-2.7396	-2.7479	-2.4875	-2.7083	-2.6375	-2.6917	-2.7562	-2.55	-2.7833	-2.7771	-2.4646	-2.8146	-2.5417	-2.6146	199.036	200.821	189.178	188.250	-80.577	-72.808	221.091	190.820	-19.556	201.054	234.210	172.013	172.770	189.774	185.984	165.121	0.0010211	0.0019883	0.0010756	534.73	3.2175e-05	9.5016e-06	1045.2	209.97	1.561e-05	1.992e-05	455.49	193.9	86.731	39.802	2.5788e-05	109.22	0.037434	0.052423	0.014706	736.25	0.0005369	0.00059762	1195.7	269.05	0.00053845	0.00059944	542.69	226.77	139.41	51.064	0.00056598	120.78	153.360	20.492	60.487	-92.846	20.432	113.960	-93.146	-88.777	77.518	-78.224	-89.567	-85.144	-85.385	-79.217	249.741	-80.995	-8191	255	
22462.613	1	1	0	0	0.090904	0.1063	0.10676	0.13102	0.23577	0.13522	0.14588	0.25083	0.041437	0.29586	0.18175	0.10854	0.27491	0.1346	0.20597	0.30158	-2.4646	-2.4292	-2.5292	-2.5167	-2.5	-2.7479	-2.6	-2.55	-2.7708	-2.575	-2.7917	-2.5896	-2.4667	-2.6521	-2.5417	-2.625	-19.937	222.250	165.386	248.749	79.002	184.641	158.455	62.405	97.609	132.496	241.320	-80.275	111.696	-105.213	79.335	233.034	0.00085769	0.0013686	0.00032902	539.3	1.6041e-05	2.7948e-05	1036.7	209.63	6.6353e-06	1.9896e-05	458.53	195.75	86.695	39.541	1.3921e-05	108.61	0.038989	0.054459	0.015132	744.94	0.00054918	0.00060596	1196.6	270.15	0.00054793	0.00060643	545.02	227.95	139.92	51.12	0.00056571	120.28	150.628	214.790	188.505	-93.017	229.695	131.678	-92.774	-89.307	123.445	147.139	-88.971	-85.538	-86.181	-79.348	71.536	-80.774	-8191	255	
22462.709	1	1	0	0	0.23037	0.091404	0.2521	0.29396	0.33457	0.16924	0.22419	0.051003	0.16516	0.12352	0.13849	0.1113	0.12073	0.26645	0.26707	0.28887	-2.3333	-2.4729	-2.6354	-2.7354	-2.3646	-2.6646	-2.7125	-2.4208	-2.5125	-2.4521	-2.7812	-2.9938	-2.2646	-2.6063	-2.4479	-2.4375	4.990	236.945	-6.898	-10.738	92.478	6.905	18.514	109.422	-53.766	178.722	190.431	213.283	-79.044	-36.614	112.969	201.101	0.00067177	0.0022995	0.00089477	540.94	1.9655e-05	9.8034e-06	1043.4	209.73	2.5005e-05	7.7177e-06	460.87	195.8	86.904	39.656	1.1915e-05	109.08	0.038966	0.054126	0.015067	745.33	0.00054828	0.00060368	1199.9	271.5	0.00055659	0.00061559	548.87	229.86	142.22	51.859	0.00058793	122	139.729	60.258	-7.636	-93.019	3.120	51.729	-93.112	-88.438	122.198	174.743	-89.462	-85.054	-85.401	-79.173	117.923	-80.814	-8191	255	
22462.805	1	1	0	0	0.12891	0.16929	0.032262	0.2194	0.090701	0.081446	0.039552	0.16741	0.078041	0.40437	0.16976	0.16174	0.19595	0.15054	0.11501	0.34382	-2.1958	-2.4208	-2.3583	-2.9167	-2.2667	-2.8125	-2.7083	-2.4646	-2.9313	-2.5208	-2.6688	-2.8917	-2.5979	-2.7104	-2.7583	-2.5167	-34.922	-10.598	195.459	-46.209	169.698	245.929	-40.538	228.152	116.926	75.457	241.033	-66.058	179.994	181.794	-91.610	184.114	0.001431	0.0037933	0.00063686	543.44	2.2574e-05	2.048e-05	1058.9	213.27	4.9788e-05	2.5344e-05	459.35	196.37	86.545	39.668	3.6594e-05	109.46	0.040721	0.056389	0.015776	764.94	0.00057297	0.00062761	1218	276.84	0.0005702	0.00062466	552.4	231.38	142.53	51.972	0.00058868	122.36	138.187	21.718	190.031	-92.503	45.618	76.582	-92.894	-88.881	-20.795	-15.658	-89.366	-85.016	-85.490	-79.363	80.184	-80.559	-8191	255	
22462.900	1	1	0	0	0.079211	0.23811	0.04072	0.22929	0.26686	0.28748	0.28192	0.10176	0.14746	0.18305	0.13499	0.21799	0.19452	0.082561	0.053174	0.14134	-2.2104	-2.6479	-2.5167	-2.8438	-2.4083	-2.6167	-2.9021	-2.5563	-2.7021	-2.4979	-2.5042	-2.8583	-2.5354	-2.6688	-2.675	-2.5646	-23.939	8.703	216.760	-18.251	-5.001	111.048	135.153	48.275	-58.989	176.998	245.761	-27.840	-101.502	34.912	140.220	125.214	0.0018522	0.00085131	0.00041888	547.7	2.247e-05	1.9622e-05	1062.1	213.97	1.5061e-05	5.8742e-05	459.8	196.19	86.521	39.351	1.7129e-05	110.17	0.040439	0.056369	0.015841	765.36	0.00057172	0.00063021	1219.7	276.53	0.00056991	0.0006207	551.32	230.18	141.01	51.458	0.00058183	122.15	152.268	26.148	250.928	-92.868	51.634	81.094	-92.899	-89.150	-99.659	102.064	-89.182	-85.426	-86.499	-79.934	-86.148	-80.699	-8191	255	
22462.994	1	1	0	0	0.34174	0.15792	0.050703	0.15831	0.21723	0.093947	0.20487	0.10408	0.051144	0.1974	0.27048	0.41433	0.042449	0.11385	0.17822	0.22726	-2.2729	-2.5583	-2.3771	-3	-2.5854	-2.6854	-2.9271	-2.5333	-2.6063	-2.6792	-2.5208	-2.9229	-2.5333	-2.5417	-2.8	-2.3688	177.869	-30.799	51.812	139.368	65.280	237.170	245.776	-24.301	87.288	246.940	188.705	240.546	60.799	212.567	153.469	220.497	0.000752	0.0005141	0.00032012	547.25	4.0837e-05	3.5386e-05	1056.6	214.29	1.9044e-05	9.9886e-06	460.76	196.37	87.896	39.469	1.9704e-05	109.97	0.040141	0.056313	0.01584	763.46	0.00057639	0.00063714	1225.7	278.49	0.00057887	0.00063657	554.94	232.15	144.22	52.271	0.00060278	122.83	120.132	-82.115	21.470	-93.021	14.889	43.499	-92.965	-89.002	223.720	67.827	-89.356	-85.266	-85.939	-79.830	-24.619	-81.025	-8191	255	
22463.092	1	1	0	0	0.11731	0.097942	0.15867	0.19465	0.16214	0.22194	0.064005	0.086239	0.060759	0.13823	0.13627	0.27853	0.086412	0.11889	0.17424	0.24314	-2.3708	-2.5458	-2.5208	-2.75	-2.575	-2.5479	-2.8583	-2.4062	-2.4583	-2.7938	-2.5167	-2.7354	-2.4875	-2.5667	-2.725	-2.4958	48.991	197.882	135.169	-24.124	54.414	122.203	64.171	44.797	26.903	-30.372	203.515	236.599	100.032	138.833	183.155	190.159	0.0014331	0.0021013	0.00064855	546.63	4.7932e-05	2.585e-05	1061.4	214.44	1.6155e-05	2.3356e-05	471.68	199.66	88.85	40.314	1.526e-05	111.17	0.041362	0.057813	0.01627	774.21	0.00059386	0.00065843	1243	284.34	0.00060978	0.00067938	571.38	238.94	150.8	53.959	0.00064833	125.6	145.424	-22.166	-19.587	-92.790	33.402	82.486	-92.931	-88.452	-26.315	54.289	-89.403	-85.564	-86.031	-79.009	176.741	-81.020	-8191	255	
22463.188	1	1	0	0	0.24363	0.027614	0.4319	0.17277	0.078766	0.037284	0.13551	0.28351	0.14851	0.16587	0.26412	0.098022	0.054177	0.2336	0.19603	0.33833	-2.1771	-2.6208	-2.4333	-2.7646	-2.625	-2.4708	-2.7583	-2.475	-2.6875	-2.7292	-2.4125	-2.7604	-2.5271	-2.3438	-2.6417	-2.6375	3.517	232.495	-17.634	153.939	248.855	239.663	15.536	220.724	130.019	93.057	-87.354	-93.164	229.899	193.766	-3.487	179.153	0.0012477	0.00099938	0.00015232	550.95	4.5499e-05	4.0862e-05	1065.1	216.98	1.2935e-05	5.0887e-06	469.58	199.84	88.34	40.321	4.2198e-05	110.84	0.044332	0.061972	0.017383	795.16	0.00062476	0.00068918	1256.1	287.6	0.00061462	0.00068151	569.97	238.08	148.15	53.692	0.00062951	124.8	74.447	35.002	-68.871	-92.900	203.830	138.542	-93.036	-89.335	85.144	128.334	-89.156	-85.275	-85.688	-79.532	74.439	-80.869	-8191	255	
22463.309	1	1	0	0	0.05629	0.28095	0.23561	0.088815	0.12064	0.18507	0.095025	0.086299	0.17121	0.069088	0.088772	0.2827	0.2526	0.12044	0.13838	0.19788	-2.2667	-2.7229	-2.2687	-2.7708	-2.5833	-2.5438	-2.8167	-2.3479	-2.5646	-2.7687	-2.5083	-2.7125	-2.6312	-2.5	-2.6479	-2.6667	-100.942	-22.551	-36.950	30.178	-93.200	105.189	167.673	232.653	-51.795	29.043	143.822	250.720	183.251	198.278	90.539	115.700	0.0010197	0.0012838	0.00061543	553.21	9.7648e-06	1.6196e-05	1060.9	212.5	2.0067e-05	9.0163e-06	468.52	197.18	87.209	40.333	3.4791e-05	111.38	0.042862	0.05957	0.016579	779.36	0.00059352	0.00065191	1233.5	277.9	0.00057831	0.00063892	558.1	233.46	144.48	52.9	0.00061507	124.74	138.242	-16.109	53.716	-93.101	-37.756	2.910	-92.941	-89.138	57.586	229.609	-89.610	-84.692	-86.043	-79.378	39.727	-80.695	-8191	255	
22463.404	1	1	0	0	0.037091	0.11875	0.2265	0.029789	0.056255	0.20178	0.10034	0.16119	0.12144	0.129	0.07824	0.1391	0.027503	0.12954	0.28169	0.27125	-1.9729	-2.4896	-2.4	-2.5625	-2.5583	-2.6063	-2.7083	-2.7729	-2.4021	-2.8979	-2.5375	-2.525	-2.7083	-2.4625	-2.7938	-2.7562	-2.640	61.609	117.638	-76.511	-48.775	-63.914	225.876	81.789	-36.788	-36.968	130.314	235.640	-5.690	-86.528	10.292	193.338	0.00082486	0.001292	0.00095162	555.7	7.7243e-06	4.9811e-05	1074.3	216.06	1.504e-05	1.8933e-05	469.35	199.33	91.028	40.272	2.3644e-05	110.06	0.042849	0.060677	0.016843	789.11	0.00061105	0.00067568	1251.6	285.23	0.00060762	0.00066933	568.35	237.11	149.14	53.305	0.00062912	124.14	138.989	-25.089	46.884	-92.704	164.795	90.283	-93.226	-89.479	78.890	206.873	-89.677	-85.449	-86.342	-79.134	71.720	-80.922	-8191	255	
22463.502	1	1	0	0	0.3449	0.17521	0.1761	0.25642	0.2268	0.12093	0.2465	0.20061	0.11322	0.31463	0.3435	0.4179	0.13691	0.13873	0.12982	0.11603	-1.9229	-2.4229	-2.3208	-2.5104	-2.7188	-2.5104	-2.6708	-2.6604	-2.3583	-2.7	-2.6813	-2.6083	-2.8708	-2.3417	-2.6167	-2.7229	122.507	241.654	65.924	125.898	80.195	-28.344	173.416	212.006	169.422	21.348	-66.372	252.425	-50.925	199.960	151.028	-59.016	0.0011898	0.0012748	0.00093352	552.36	2.8828e-05	4.4191e-05	1074.1	215.27	1.1248e-05	1.8686e-05	469.04	200.4	89.471	40.307	5.9514e-05	110.16	0.043006	0.060177	0.016676	781.96	0.00059741	0.00065466	1240.4	282.11	0.0005891	0.00065181	564.51	236.82	147.08	52.885	0.00060546	123.18	168.569	-89.648	48.710	-93.400	24.975	49.025	-92.936	-89.399	1.767	197.444	-89.649	-85.425	-85.849	-79.675	85.155	-80.782	-8191	255	
22463.572	1	1	0	0	0.081095	0.24526	0.092124	0.18173	0.10703	0.17075	0.29983	0.018286	0.17853	0.1417	0.18232	0.14479	0.19146	0.26602	0.16323	0.1166	-1.9396	-2.8229	-2.3708	-2.5854	-2.6917	-2.3563	-2.5563	-2.5271	-2.4417	-2.8208	-2.6292	-2.4938	-2.7833	-2.3604	-2.6271	-2.8542	165.076	-64.199	192.055	151.541	-1.853	-71.021	177.768	25.382	-75.955	142.141	135.004	219.553	-86.544	221.679	70.726	133.448	0.0011016	0.0047366	0.0007971	557.62	1.3341e-05	3.3837e-05	1075.6	219.45	4.5522e-05	2.3333e-05	477.38	202.35	91.876	40.255	4.4031e-05	111.74	0.04163	0.057789	0.016037	775.97	0.00058759	0.00064892	1245.1	285.83	0.00059581	0.00065712	571.12	239.56	150.23	53.19	0.00061313	124.77	153.341	59.775	62.023	-92.652	83.367	186.102	-92.819	-89.018	118.063	114.989	-89.912	-85.670	-86.271	-79.589	44.091	-80.742	-8191	255	
22463.693	1	1	0	0	0.15947	0.13386	0.23221	0.088809	0.069206	0.25798	0.096551	0.053237	0.03105	0.28914	0.083702	0.39411	0.15296	0.19392	0.15361	0.1937	-2.0208	-2.6	-2.4271	-2.3604	-2.7125	-2.4708	-2.5021	-2.8688	-2.1292	-2.8688	-2.7542	-2.3563	-2.7646	-2.4417	-2.1813	-2.8812	156.415	151.605	140.200	119.479	20.867	119.891	223.995	224.713	107.281	-52.083	241.481	180.692	221.719	-105.401	231.608	250.316	0.0013069	0.0014233	0.00079628	549.85	4.8438e-05	3.2476e-05	1061.6	214.63	3.5934e-05	2.8527e-05	466.89	196.73	87.505	39.518	3.7682e-05	110.9	0.042068	0.058856	0.016261	779.43	0.0005794	0.00063091	1222.9	275.55	0.00054716	0.0005984	549.26	229.79	140.11	51.112	0.00055966	122.06	83.299	46.281	103.078	-92.627	50.008	107.454	-93.375	-89.136	-64.385	59.206	-89.308	-85.069	-85.414	-79.343	235.475	-81.053	-8191	255	
22463.789	1	1	0	0	0.088234	0.045214	0.093498	0.14341	0.43757	0.12948	0.26336	0.36577	0.17555	0.28972	0.27665	0.20932	0.072565	0.1828	0.12184	0.14207	-1.9583	-2.55	-2.5021	-2.4229	-2.875	-2.4354	-2.5708	-2.525	-2.3104	-2.4604	-2.7854	-2.5854	-2.6875	-2.5792	-2.3583	-2.8396	-32.368	46.731	142.342	93.115	212.347	-36.923	61.315	-57.690	24.016	121.115	237.706	165.164	32.257	48.890	217.395	240.581	0.0010479	0.0010132	0.00016959	539.1	4.4386e-05	4.075e-06	1054.7	211.94	2.4719e-06	1.4105e-05	463.87	197.3	87.529	39.837	1.2093e-05	110.34	0.038389	0.053605	0.014966	748.11	0.00054599	0.00059909	1207.2	273.38	0.00054789	0.00060536	549.97	230.32	141.48	51.625	0.00057322	122.18	120.846	-25.231	33.182	-92.448	50.023	-9.332	-92.881	-88.953	170.137	40.002	-89.033	-85.274	-85.937	-79.444	149.215	-81.180	-8191	255	
22463.885	1	1	0	0	0.091698	0.22426	0.057321	0.15459	0.38667	0.22747	0.27935	0.023355	0.16411	0.086945	0.20524	0.25475	0.070065	0.11874	0.27532	0.19422	-1.8813	-2.7042	-2.4917	-2.6104	-2.7625	-2.725	-2.3479	-2.7521	-2.3583	-2.7271	-2.7104	-2.6188	-2.7396	-2.5625	-2.3396	-2.9292	58.956	-92.788	204.977	-106.761	232.022	172.552	-82.007	217.329	237.513	60.993	221.473	236.002	27.400	-46.301	27.641	178.598	0.0015518	0.0011631	4.3495e-05	549.03	2.7638e-05	2.5804e-05	1060.2	210.47	1.8787e-05	1.9278e-05	461.97	197.12	86.037	39.478	3.8337e-05	110.11	0.039742	0.05508	0.015299	758.16	0.00055355	0.00060675	1205.8	270.39	0.00053057	0.00058707	542.13	226.96	136.77	50.683	0.00055034	121.32	102.486	56.666	132.067	-92.600	165.186	158.896	-93.375	-89.043	146.510	-40.677	-89.533	-85.000	-85.610	-79.639	32.756	-80.699	-8191	255	
22463.980	1	1	0	0	0.16639	0.12558	0.20301	0.073593	0.15474	0.14753	0.24846	0.033633	0.17731	0.19467	0.12574	0.29113	0.09635	0.24814	0.23438	0.28405	-1.8937	-2.5521	-2.6708	-2.2417	-2.6437	-2.5812	-2.5479	-2.725	-2.3375	-2.5521	-2.8375	-2.4688	-2.5312	-2.4729	-2.4146	-3.0146	47.856	229.948	252.954	161.219	89.174	35.490	211.171	191.827	196.568	5.859	-4.907	245.161	-35.179	238.758	-16.149	251.930	0.0013589	0.0023267	0.00064893	540.48	1.6076e-05	5.0628e-05	1049.3	208.49	2.5722e-05	7.5641e-06	455.82	193.89	83.559	39.939	1.2929e-05	110.17	0.037614	0.0522	0.014597	737.53	0.00052346	0.00057494	1192	264.53	0.00051155	0.00055779	532.41	222.68	132.03	49.865	0.00051466	119.95	132.486	-63.781	-20.306	-92.974	-37.563	123.167	-93.013	-88.902	-25.734	142.677	-89.165	-84.758	-85.421	-79.330	100.992	-80.723	-8191	255	
22464.100	1	1	0	0	0.17857	0.1276	0.19884	0.13082	0.15689	0.15161	0.14032	0.03908	0.061347	0.25552	0.044706	0.32692	0.10759	0.16991	0.12579	0.1215	-2.0958	-2.4188	-2.8	-2.5396	-2.6083	-2.65	-2.4042	-2.7104	-2.4833	-2.5292	-2.8333	-2.5271	-2.6417	-2.7542	-2.2687	-2.8833	-16.008	-28.499	-88.745	-28.935	-67.450	-54.555	210.107	-98.662	136.704	23.557	131.249	251.830	-4.785	-10.043	-70.939	-69.307	0.0015263	0.001223	0.00045662	536.01	2.1301e-05	1.4271e-05	1043	206.23	1.0422e-05	1.5889e-05	460.1	194.38	83.915	39.618	2.7251e-05	110.79	0.035149	0.049141	0.013831	722.1	0.00051069	0.00056382	1186.1	264.44	0.00053286	0.00060346	543.92	227.9	138.47	51.856	0.00058518	123.38	104.950	127.502	-62.275	-92.924	133.701	198.536	-92.281	-89.132	120.931	128.604	-89.249	-85.105	-85.080	-79.295	57.886	-80.587	-8191	255	
22464.195	1	1	0	0	0.35889	0.036478	0.24032	0.011435	0.14617	0.089767	0.18533	0.2566	0.25453	0.15925	0.10589	0.32211	0.032687	0.26576	0.41056	0.28023	-2.0021	-2.3146	-2.6271	-2.4292	-2.5458	-2.6646	-2.4396	-2.6333	-2.4333	-2.3354	-2.9125	-2.5667	-2.5354	-2.8875	-2.3667	-2.7104	-20.963	43.184	46.999	-35.176	-52.963	138.590	179.306	-25.785	58.083	212.943	213.657	208.412	118.285	-76.274	227.235	191.165	0.00090677	0.0011418	0.00016122	542.28	1.5788e-05	9.4327e-06	1053.3	208.4	1.0862e-05	1.3193e-05	457.47	194.61	84.213	39.586	1.2682e-05	110.09	0.040622	0.056823	0.01598	763.6	0.00058243	0.00064701	1228.4	276.12	0.00059224	0.00065353	554.55	231.71	142.35	52.446	0.0006077	123.15	111.405	-104.664	8.228	-92.540	68.461	-29.734	-93.184	-88.774	-55.783	180.290	-88.991	-85.130	-85.468	-79.669	136.343	-80.956	-8191	255	
22464.293	1	1	0	0	0.08236	0.05626	0.09178	0.098903	0.096948	0.070766	0.081892	0.24396	0.27028	0.11853	0.2817	0.28873	0.07614	0.13613	0.11998	0.1506	-2.2687	-2.4667	-2.5979	-2.5812	-2.3896	-2.575	-2.5083	-2.5	-2.6417	-2.5979	-2.8917	-2.6604	-2.4146	-2.8375	-2.3958	-2.8187	174.312	186.337	-39.309	180.020	-69.597	115.154	193.020	63.644	159.920	195.106	-95.201	210.483	161.094	186.866	238.539	226.358	0.00099739	0.0017134	0.0008639	535.1	1.9247e-05	3.0419e-05	1048	205.53	8.9308e-06	1.075e-05	461.69	192.04	84.091	39.217	4.8568e-06	110.25	0.041298	0.057773	0.015894	754.63	0.00056743	0.00062064	1205.5	268.56	0.00055203	0.00061009	543.25	226.54	137.75	51.367	0.00057602	122.34	112.060	-37.194	242.077	-93.223	140.891	152.404	-92.821	-88.674	215.598	-33.342	-89.253	-85.018	-85.490	-79.078	122.426	-80.801	-8191	255	
22464.389	1	1	0	0	0.02126	0.054371	0.17567	0.27255	0.14248	0.064833	0.067738	0.17791	0.022356	0.15288	0.085201	0.031313	0.13818	0.18669	0.20077	0.14051	-2.2438	-2.4104	-2.6979	-2.5458	-2.5625	-2.5417	-2.4208	-2.6354	-2.6437	-2.575	-2.7271	-2.5479	-2.3542	-2.6688	-2.4417	-2.6813	166.877	148.667	188.081	169.265	117.350	32.269	31.226	240.443	145.722	-78.110	178.609	229.164	167.844	179.873	-94.408	199.918	0.00015922	0.00068256	0.00070204	539.03	2.6445e-05	3.5929e-05	1044.2	209.14	7.2504e-06	4.1084e-05	462.82	195.41	84.655	39.694	3.4293e-05	111.14	0.039894	0.056077	0.015638	756.04	0.00056836	0.00062716	1210.8	271.92	0.00056016	0.00061709	547.63	229.39	139.46	51.762	0.00057454	123.05	98.288	15.723	-85.645	-93.008	23.803	172.671	-92.760	-88.992	206.129	107.001	-89.013	-85.107	-85.958	-79.502	96.926	-80.735	-8191	255	
22464.484	1	1	0	0	0.1278	0.050155	0.065014	0.17274	0.11579	0.14403	0.20187	0.14502	0.086921	0.075974	0.055966	0.27436	0.33196	0.17765	0.17841	0.027433	-2.0812	-2.5375	-2.7188	-2.5021	-2.5146	-2.6958	-2.7125	-2.5667	-2.8146	-2.3646	-2.8875	-2.8083	-2.4833	-2.6792	-2.4625	-2.5854	134.438	110.179	-66.378	15.126	-54.757	65.717	148.082	163.832	-12.200	70.058	146.267	162.786	153.904	245.132	121.115	191.661	0.00046179	0.0019946	0.00057265	548.27	2.8188e-05	2.2963e-05	1066.5	209.53	1.3213e-05	1.8584e-05	459.54	195.19	84.882	39.52	3.7068e-05	110.92	0.039749	0.055694	0.015454	756.18	0.00055795	0.00061341	1210.7	269.54	0.00053463	0.00058023	538.71	224.78	134.08	50.248	0.00053174	121.17	104.305	27.827	-87.647	-92.552	-36.050	99.317	-92.949	-88.473	-1.286	196.685	-89.136	-84.873	-85.774	-79.500	-13.586	-80.925	-8191	255	
22464.580	1	1	0	0	0.047678	0.15029	0.30993	0.028929	0.20343	0.19191	0.18173	0.18675	0.1458	0.11213	0.27473	0.19143	0.24242	0.20342	0.25901	0.3059	-2.2812	-2.5396	-2.6708	-2.7292	-2.2396	-2.6875	-2.6396	-2.5875	-2.7458	-2.4583	-2.6937	-2.7396	-2.3792	-2.8625	-2.5083	-2.4896	-58.996	36.354	-5.024	-25.514	74.813	240.605	251.491	187.831	-18.835	-35.831	244.643	224.091	134.209	234.190	-4.452	229.034	0.0014434	0.00061146	0.00080019	542.67	2.1645e-05	2.5179e-05	1044.9	209.16	2.3854e-05	3.3676e-05	458.57	195.43	84.071	39.625	1.383e-05	110.14	0.037435	0.052799	0.014801	743.92	0.00054813	0.00060656	1202.1	270.71	0.00055805	0.00061553	547.34	229.03	139.52	51.649	0.00057673	122.31	139.626	10.702	-53.965	-92.490	16.474	88.388	-92.807	-88.969	173.441	-8.538	-89.138	-85.228	-85.969	-79.922	-61.783	-80.904	-8191	255	
22464.701	1	1	0	0	0.16415	0.052786	0.22434	0.14825	0.11854	0.19394	0.27771	0.32295	0.086355	0.13257	0.27666	0.19013	0.32165	0.28281	0.2669	0.17585	-2.3688	-2.4417	-2.6375	-2.8438	-2.4417	-2.6708	-2.6625	-2.3583	-2.6146	-2.6667	-2.7542	-2.6479	-2.3937	-2.6771	-2.4542	-2.6	-41.456	157.227	-23.621	-89.663	147.667	200.107	41.500	124.726	-76.917	56.540	190.297	201.721	-49.548	135.217	143.993	160.467	0.00157	0.00086867	0.0009058	536.49	1.3016e-05	5.3079e-06	1042.7	205.37	2.6939e-05	3.4394e-05	454.89	192.82	83.241	39.453	3.7876e-05	110.17	0.040025	0.055867	0.015497	749.9	0.00055721	0.00061167	1200.2	268.39	0.00055299	0.00060716	540.71	226.36	136.45	51.242	0.00056841	122.17	113.882	25.199	-9.218	-92.455	68.963	-45.198	-92.704	-88.762	6.909	121.841	-89.175	-84.777	-85.304	-79.346	133.665	-80.636	-8191	255	
22464.799	1	1	0	0	0.047892	0.14486	0.22884	0.11095	0.33441	0.0879	0.1712	0.08087	0.18753	0.052495	0.06807	0.29204	0.31806	0.081338	0.10593	0.11272	-2.0771	-2.4583	-2.4042	-2.8083	-2.5396	-2.6333	-2.6833	-2.4458	-2.7938	-2.5062	-2.5104	-2.7625	-2.5312	-2.7333	-2.6917	-2.5062	189.039	79.862	-54.813	125.624	72.353	-39.006	17.111	66.358	193.825	139.737	-96.725	247.678	66.553	139.950	-81.355	222.338	0.0013181	0.00058986	0.00050388	540.02	3.7425e-05	1.8073e-05	1048.8	208.95	9.9061e-06	1.2734e-05	457.34	193.94	84.307	39.479	1.7287e-05	110.74	0.039358	0.054957	0.015464	752.13	0.00056443	0.0006226	1206.9	271.31	0.00056641	0.00062372	547.56	228.78	139.45	51.75	0.00058716	123.05	124.489	6.041	143.393	-93.013	62.852	224.460	-92.920	-89.017	124.906	39.509	-89.184	-84.750	-85.082	-78.987	104.664	-80.699	-8191	255	
22464.869	1	1	0	0	0.28633	0.15035	0.062883	0.20462	0.048451	0.12949	0.02487	0.1284	0.36006	0.18376	0.21944	0.18604	0.11015	0.1203	0.25174	0.24844	-2.1979	-2.5875	-2.375	-2.6021	-2.5542	-2.6708	-2.7333	-2.2354	-2.7562	-2.5708	-2.6042	-2.7167	-2.4083	-2.5625	-2.7979	-2.4396	156.800	60.793	179.994	-15.228	-94.956	147.653	101.643	53.662	94.809	87.136	16.303	194.679	247.022	204.771	242.062	195.122	0.00045955	0.00065138	0.00040289	537.53	1.5117e-05	3.3884e-05	1041.4	205.26	6.6583e-06	5.5352e-06	452.34	193.31	82.124	39.626	1.4896e-05	109.74	0.04027	0.055701	0.015552	750.68	0.00055979	0.00061274	1196.4	266.56	0.00054899	0.00060054	540.47	226.16	136.13	50.991	0.00057094	121.62	139.071	193.446	54.467	-93.133	-15.398	-41.627	-92.716	-88.692	186.988	148.943	-89.199	-85.036	-85.462	-79.520	18.493	-80.578	-8191	255	
22464.990	1	1	0	0	0.18873	0.12731	0.03828	0.078705	0.048053	0.082308	0.43604	0.18441	0.14881	0.17702	0.21693	0.32733	0.19972	0.025914	0.22618	0.32271	-2.1375	-2.5333	-2.3146	-2.5312	-2.425	-2.5563	-2.8792	-2.4042	-2.6229	-2.5438	-2.5729	-2.7188	-2.4354	-2.4813	-2.5958	-2.4333	12.608	220.857	60.893	-16.444	43.212	72.996	194.525	-15.653	-27.065	58.869	168.894	217.567	-32.022	62.195	54.550	113.520	0.0013152	0.00051098	0.00081032	533.53	3.9776e-05	1.3044e-05	1037.2	202.26	3.9114e-05	1.1157e-05	445.49	189.68	81.651	38.721	9.4951e-06	109.08	0.039434	0.054896	0.015368	743.72	0.00055304	0.00060911	1191.6	264.31	0.00054316	0.00059586	531.3	222.49	133.54	50.22	0.00055842	120.2	123.504	168.595	97.109	-93.380	219.109	-16.284	-92.838	-88.487	17.373	198.225	-89.076	-84.940	-85.678	-78.793	-10.149	-81.096	-8191	255	
22465.086	1	1	0	0	0.20969	0.16762	0.13015	0.13335	0.032993	0.20879	0.34291	0.23686	0.20694	0.20471	0.11623	0.36339	0.26867	0.25308	0.40312	0.12882	-2.2104	-2.4146	-2.2687	-2.5521	-2.65	-2.7188	-2.8812	-2.3479	-2.5208	-2.8563	-2.6354	-2.7417	-2.7479	-2.4292	-2.8854	-2.4375	159.653	94.013	104.948	197.160	192.189	69.385	209.854	-89.945	166.207	-50.266	212.376	234.017	184.410	181.896	-24.913	228.410	0.00041904	0.0049658	0.00067195	524.27	1.6399e-06	2.8604e-05	1033.3	199.65	2.4471e-05	1.2605e-05	449.14	190.52	81.502	39.158	1.2896e-05	109.49	0.038219	0.053247	0.014846	731.59	0.00053764	0.00059142	1184.5	261.65	0.00054037	0.00059681	535.08	223.42	135.08	50.696	0.00056885	121.13	88.420	-63.447	120.429	-92.965	126.753	46.756	-92.898	-88.842	158.574	216.990	-89.248	-84.913	-85.781	-79.665	236.457	-80.775	-8191	255	
22465.182	1	1	0	0	0.35291	0.265	0.32251	0.22027	0.17604	0.028288	0.22142	0.15638	0.22328	0.069415	0.2833	0.16206	0.15814	0.16826	0.12814	0.11925	-1.9042	-2.4875	-2.4271	-2.5958	-2.5375	-2.3583	-2.9104	-2.6063	-2.3792	-2.5667	-2.4375	-2.6396	-2.4375	-2.4854	-2.8042	-2.5042	-49.838	196.475	-86.483	-75.760	-64.853	122.820	223.270	120.772	82.329	90.372	115.151	202.723	222.717	168.393	164.194	-18.163	0.0011013	0.0021964	0.00064708	536.73	5.8519e-06	2.3784e-05	1040.8	208.99	2.8711e-05	3.9857e-05	464.13	197.2	87.878	39.513	6.7374e-05	110.04	0.03919	0.055317	0.015501	750.34	0.00056673	0.00063174	1215.6	275.52	0.00059433	0.00066389	561.02	235.57	148.57	53.473	0.0006573	125.12	132.685	89.785	120.727	-92.613	-35.857	-4.974	-93.084	-89.322	6.746	36.491	-89.474	-85.074	-85.705	-79.942	-37.752	-80.994	-8191	255	
22465.277	1	1	0	0	0.15688	0.23266	0.052429	0.19871	0.20928	0.13811	0.23925	0.13479	0.3743	0.14423	0.21177	0.43854	0.027078	0.14875	0.15546	0.18795	-2.2292	-2.6562	-2.2708	-2.7542	-2.5396	-2.3958	-2.7229	-2.5625	-2.45	-2.8583	-2.5979	-2.7854	-2.5042	-2.5	-2.6375	-2.6188	69.436	200.297	27.675	206.653	88.489	173.330	144.062	246.953	-18.405	217.513	-84.148	143.390	161.679	173.516	111.293	175.493	0.00067598	0.0022772	0.00031232	546.29	1.5359e-05	4.7954e-05	1052.8	210.81	1.3571e-05	4.1702e-05	461.64	193.65	85.3	38.824	2.1369e-05	109.03	0.045405	0.063192	0.017629	793.84	0.00062926	0.00069068	1242.4	281.05	0.00060601	0.00066268	557.43	231.58	142.84	51.645	0.00061409	122.4	139.153	236.939	-35.083	-93.380	226.817	212.484	-92.878	-88.982	97.822	110.663	-89.292	-85.263	-85.573	-79.945	-19.766	-80.858	-8191	255	
22465.396	1	1	0	0	0.13843	0.10353	0.15935	0.10174	0.080008	0.05762	0.28234	0.13901	0.15745	0.3298	0.029952	0.16303	0.25327	0.19032	0.085801	0.18283	-1.9688	-2.6375	-2.425	-2.5625	-2.6542	-2.5	-2.7604	-2.575	-2.4646	-2.6229	-2.45	-2.7146	-2.7438	-2.5062	-2.5979	-2.5354	97.084	-65.146	0.071	247.360	63.891	115.637	237.943	191.909	21.875	156.998	-43.261	-90.381	-74.587	-27.450	107.437	205.637	0.00083846	0.0023464	0.00014076	538.25	3.3124e-05	3.0733e-05	1044.5	202.12	1.1162e-05	3.4057e-05	451.03	189.66	81.279	38.502	4.8415e-06	107.99	0.042145	0.059041	0.016358	762.51	0.00058835	0.00064255	1207.4	268.51	0.00056588	0.00062357	537.97	223.97	135.54	50.208	0.00057277	119.97	41.675	-65.998	118.099	-92.927	-43.935	181.228	-93.257	-89.198	217.917	-80.730	-89.702	-84.466	-84.608	-79.020	246.237	-80.751	-8191	255	
22465.494	1	1	0	0	0.18949	0.21819	0.15666	0.096036	0.13694	0.23192	0.36661	0.17321	0.069029	0.19635	0.017277	0.14062	0.27211	0.3132	0.15985	0.057893	-1.9333	-2.575	-2.3979	-2.5417	-2.7646	-2.5396	-2.8354	-2.6292	-2.2875	-2.7792	-2.6521	-2.7625	-2.6896	-2.5187	-2.675	-2.8146	251.821	-87.897	8.237	-50.093	206.002	95.732	134.350	172.542	117.627	90.765	232.801	114.730	110.038	86.953	177.473	-4.300	0.001124	0.0034116	0.00019836	525.18	5.3795e-05	6.4741e-06	1030.9	202.75	4.2596e-05	2.9096e-05	447.41	189.95	82.505	38.674	2.4245e-05	109.06	0.039417	0.054817	0.015372	737.67	0.00055671	0.00061728	1190.2	265.34	0.00055987	0.00061801	536.84	225.14	136.69	50.978	0.00058067	121.18	128.059	-62.000	-15.215	-92.682	77.983	190.967	-92.896	-89.071	0.421	88.611	-88.908	-84.772	-85.227	-79.343	-43.817	-80.784	-8191	255	
22465.564	1	1	0	0	0.084212	0.037334	0.27089	0.088316	0.14457	0.029379	0.28159	0.1555	0.14735	0.24515	0.068482	0.058888	0.1279	0.15765	0.045778	0.23759	-1.9875	-2.5187	-2.4083	-2.5312	-2.6104	-2.5167	-2.6146	-2.6437	-2.1562	-2.8063	-2.4646	-2.5292	-2.7521	-2.3812	-2.5042	-2.7958	-16.965	202.888	129.084	-93.907	120.782	192.423	245.626	25.458	34.554	-15.648	105.179	-88.222	60.206	221.606	0.229	191.160	0.0004447	0.00061969	0.00083067	529.61	1.7734e-05	1.4629e-05	1029.6	199.17	4.5238e-06	1.668e-05	448.04	189.96	79.693	38.893	1.0112e-05	109.93	0.039742	0.054943	0.015279	737.45	0.00055185	0.00060526	1184.5	260.96	0.00054452	0.00059983	531.63	222.59	133.52	50.586	0.00056981	121.38	179.017	118.374	12.919	-92.648	69.885	17.446	-92.939	-88.795	-54.836	94.453	-89.245	-84.940	-84.629	-79.763	185.085	-80.959	-8191	255	
22465.660	1	1	0	0	0.015311	0.12982	0.15705	0.12447	0.072035	0.054856	0.27051	0.19845	0.085154	0.27069	0.070462	0.29198	0.16522	0.049601	0.2108	0.07046	-1.9104	-2.4375	-2.5479	-2.4667	-2.7333	-2.3604	-2.6604	-2.7188	-2.4062	-2.7313	-2.6625	-2.4354	-2.5896	-2.4208	-2.5375	-2.7083	39.629	133.726	202.286	-21.750	-19.053	-54.371	219.242	81.199	229.110	165.533	251.648	183.402	164.700	200.188	27.714	43.092	0.001024	0.0023628	0.00026138	527.92	1.1044e-05	2.5132e-05	1031.6	199.91	1.5329e-05	4.8874e-05	452.4	190.91	80.5	38.948	1.895e-05	110.41	0.039419	0.05497	0.015328	741.63	0.00056197	0.00061663	1189.8	263.42	0.00055739	0.00061553	537.08	225.25	135.74	51.129	0.00058203	122.63	95.526	108.745	94.657	-93.128	-91.745	203.954	-92.959	-88.497	229.874	128.243	-89.075	-84.936	-85.040	-79.657	162.299	-80.511	-8191	255	
22465.781	1	1	0	0	0.23322	0.29162	0.21514	0.11901	0.16434	0.18045	0.084782	0.18817	0.051162	0.25683	0.2217	0.046044	0.11997	0.24574	0.079699	0.12011	-1.8875	-2.6354	-2.5292	-2.6458	-2.5667	-2.525	-2.6854	-2.7625	-2.4979	-2.7062	-2.5479	-2.4188	-2.6021	-2.4562	-2.3958	-2.8167	93.130	7.778	3.030	221.697	198.057	42.954	186.168	184.408	-102.870	115.251	-100.568	-5.205	94.157	178.107	-41.450	222.555	0.001679	0.001195	0.00068075	531.51	6.3093e-07	3.9577e-05	1037.5	204.18	4.5523e-05	1.3524e-05	454.97	192.86	83.485	39.147	2.4566e-05	109.48	0.040521	0.056752	0.015961	755.63	0.00058166	0.00064326	1213.3	271.76	0.00058709	0.00064842	550.08	229.97	141.37	52.092	0.00061511	123.11	107.927	58.330	-10.361	-92.935	41.029	44.092	-92.996	-88.877	-9.744	-64.454	-89.070	-84.741	-86.262	-79.710	-87.393	-80.813	-8191	255	
22465.879	1	1	0	0	0.093553	0.18038	0.16081	0.04314	0.12623	0.17946	0.042699	0.014026	0.27137	0.14892	0.096376	0.1071	0.070576	0.17409	0.22084	0.1942	-1.8396	-2.5687	-2.5479	-2.4292	-2.7417	-2.4104	-2.3958	-2.7417	-2.3625	-2.5146	-2.7896	-2.4604	-2.5979	-2.4146	-2.5167	-2.8667	179.838	170.065	162.364	194.974	25.620	22.466	114.091	-33.461	57.619	-64.475	168.590	231.136	131.844	46.587	-76.488	188.749	0.0012739	0.0021053	0.00076138	538.29	5.0109e-05	5.0773e-05	1045.3	207.15	3.105e-05	1.7938e-05	453.61	191.81	83.305	38.524	4.495e-06	109.43	0.04241	0.059012	0.016487	768.08	0.00059911	0.00065666	1224	274.35	0.00059498	0.00065565	550.43	229.25	140.82	51.72	0.00060587	122.75	134.007	-13.334	25.210	-92.730	-37.440	115.820	-92.915	-88.377	-104.959	96.156	-89.239	-84.846	-85.928	-79.576	221.888	-80.816	-8191	255	
22465.975	1	1	0	0	0.17477	0.15376	0.077786	0.24637	0.1381	0.17098	0.070635	0.054567	0.18304	0.23954	0.14595	0.29579	0.30403	0.18406	0.21503	0.22108	-1.975	-2.4667	-2.6604	-2.4688	-2.6312	-2.6125	-2.4354	-2.7125	-2.4833	-2.7958	-2.9062	-2.6125	-2.5729	-2.6917	-2.3979	-2.7917	94.115	89.268	181.960	241.299	-83.849	14.906	235.847	230.851	66.702	119.033	208.304	246.963	-73.093	169.297	3.045	203.061	0.0014094	0.0024698	0.001091	532.97	2.9441e-05	1.8556e-05	1035	204.27	3.0533e-05	2.3998e-05	457.55	193.73	83.687	39.067	3.2901e-05	109.92	0.041391	0.057826	0.016141	759.42	0.00058694	0.00064821	1213.7	271.65	0.00059148	0.00065385	553.73	231.17	142.9	52.423	0.00062853	124.11	140.230	-12.281	-36.544	-93.232	-57.334	150.708	-92.956	-89.104	-76.612	99.660	-89.328	-85.322	-85.261	-79.402	237.635	-81.028	-8191	255	
22466.094	1	1	0	0	0.12589	0.10589	0.20932	0.24746	0.065188	0.079393	0.10056	0.115	0.095388	0.086104	0.21098	0.22258	0.057237	0.04313	0.19782	0.25051	-2.0729	-2.3604	-2.7042	-2.4771	-2.4271	-2.5271	-2.3667	-2.6562	-2.4437	-2.5292	-2.8187	-2.425	-2.6708	-2.6188	-2.45	-2.9771	129.146	121.624	195.922	188.598	-73.731	132.032	223.535	28.906	104.052	113.447	177.125	184.198	209.373	175.745	109.156	141.052	0.0014201	0.0023185	0.00055178	536.43	1.051e-05	3.0707e-05	1057.5	210.86	7.0698e-05	2.799e-05	467.67	198.42	87.511	39.089	1.8053e-05	109.89	0.043464	0.061136	0.01722	785.68	0.00063321	0.00070009	1254.1	285.82	0.00063942	0.00070729	572.71	239.84	150.64	53.747	0.00067062	125.85	109.520	34.916	-39.850	-93.073	36.602	-106.287	-93.132	-89.445	14.393	17.553	-89.412	-85.275	-85.473	-80.239	83.161	-80.636	-8191	255	
22466.164	1	1	0	0	0.26171	0.23234	0.14672	0.19118	0.17573	0.12745	0.091506	0.24474	0.10766	0.10745	0.15998	0.13982	0.39294	0.056142	0.035311	0.14233	-2.075	-2.3104	-2.4896	-2.4146	-2.5563	-2.6146	-2.5333	-2.6479	-2.6292	-2.4042	-2.7104	-2.5104	-2.6083	-2.6813	-2.3854	-2.7229	202.027	-99.949	-77.290	119.929	52.016	208.559	222.497	226.978	-34.859	229.808	174.715	216.022	-84.448	97.349	-52.456	134.407	0.0010426	0.0039288	7.6484e-05	543.07	2.7445e-05	1.0729e-05	1058.4	212.99	1.6196e-05	3.8807e-05	464.57	197.8	88.853	39.416	4.7838e-05	109.73	0.045775	0.063906	0.017927	800.08	0.00065424	0.00072672	1264.8	290.3	0.0006659	0.00074214	582.2	243.33	155.62	54.648	0.00069653	126.2	142.774	48.255	169.885	-92.717	227.376	110.709	-92.830	-89.084	129.537	47.954	-89.517	-85.534	-86.152	-79.324	-36.965	-80.586	-8191	255	
22466.262	1	1	0	0	0.069736	0.40307	0.2165	0.21293	0.12208	0.10996	0.37482	0.17229	0.29126	0.11916	0.076807	0.13386	0.067353	0.14409	0.2195	0.11915	-2.0438	-2.4083	-2.7708	-2.5646	-2.5333	-2.6146	-2.4417	-2.775	-2.7229	-2.2625	-2.7375	-2.5146	-2.5375	-2.6667	-2.4458	-2.6375	-41.577	223.575	-39.723	229.185	-22.291	-68.682	-97.841	191.603	153.521	23.520	-23.952	203.949	132.639	40.616	133.580	-15.725	0.0016613	0.00047904	3.6749e-05	540.95	2.2865e-05	1.5836e-05	1051.1	209.78	3.4109e-05	3.9033e-06	461.16	195.07	85.534	39.163	1.9761e-05	108.92	0.047068	0.065468	0.0181	799.96	0.00064843	0.00070349	1247.6	283.47	0.00063341	0.0006985	565.97	235.9	147.41	52.981	0.00065264	123.89	105.500	49.387	116.898	-93.091	81.770	61.186	-93.011	-88.868	-35.465	0.390	-89.448	-85.265	-85.524	-79.558	108.215	-80.741	-8191	255	
22466.383	1	1	0	0	0.13077	0.1243	0.25626	0.39491	0.16166	0.20996	0.25353	0.051699	0.14976	0.10768	0.13412	0.063627	0.074641	0.0034777	0.14687	0.26624	-2.1875	-2.1708	-2.6562	-2.7375	-2.4854	-2.8354	-2.6104	-2.7	-2.6708	-2.3937	-2.7458	-2.5583	-2.3708	-2.7	-2.4938	-2.6063	-60.226	142.669	-20.234	235.604	14.954	103.893	200.905	22.993	82.974	243.724	-93.889	223.351	-0.956	103.708	-62.137	118.672	0.0010269	0.0021535	0.00044288	537.74	4.375e-05	2.0377e-05	1050.8	207.42	3.5865e-05	2.1668e-05	460.37	195.65	86.045	39.121	3.1945e-05	109.99	0.043959	0.061536	0.016984	775.25	0.00060839	0.00067145	1228.4	276.84	0.000608	0.00067546	560.87	234.69	146.49	53.08	0.00065371	124.96	116.728	-20.232	-2.712	-92.973	77.973	208.727	-93.027	-89.234	54.434	-58.766	-89.172	-84.981	-85.446	-79.259	44.975	-80.695	-8191	255	
22466.479	1	1	0	0	0.10243	0.19401	0.03321	0.084629	0.22461	0.2409	0.22573	0.22522	0.21397	0.061859	0.087955	0.078001	0.28723	0.43635	0.15645	0.31323	-2.3271	-2.2875	-2.6562	-2.8042	-2.3458	-2.5833	-2.5812	-2.6729	-2.7229	-2.2479	-2.7917	-2.5312	-2.325	-2.6312	-2.4354	-2.5896	44.921	234.830	-21.368	242.605	11.859	-89.144	-26.386	129.591	52.866	27.236	-98.193	245.296	-15.395	150.388	224.264	184.450	0.00066892	0.0017141	0.00081488	546.71	2.561e-05	3.7418e-05	1059.3	210.89	3.45e-05	1.5626e-05	463.27	196.86	85.839	38.864	1.0775e-05	110.67	0.045244	0.063543	0.017809	795.12	0.0006474	0.0007142	1255.1	285.85	0.00063869	0.00070512	569.45	237.44	148.33	53.228	0.00065038	125.59	146.344	-48.118	-52.012	-93.283	-25.837	14.233	-93.300	-89.268	-7.486	66.725	-89.151	-85.376	-85.838	-79.308	-28.424	-80.636	-8191	255	
22466.574	1	1	0	0	0.088138	0.23431	0.25612	0.25437	0.22727	0.21513	0.21779	0.087214	0.18145	0.33549	0.22596	0.067755	0.19937	0.16582	0.079309	0.28878	-2.275	-2.2396	-2.6979	-2.4396	-2.2354	-2.7292	-2.4521	-2.5979	-2.6292	-2.5604	-2.6792	-2.7979	-2.2875	-2.6562	-2.4479	-2.6729	-92.720	36.938	-50.503	116.130	224.814	-3.592	243.812	75.733	147.502	195.875	-37.524	-101.487	-81.776	-62.380	-12.091	213.825	0.001062	0.0023727	0.00025218	539.45	1.7203e-05	4.1263e-05	1055.3	204.29	5.0685e-06	1.7783e-05	453.18	192.24	82.977	38.584	2.5437e-05	109.03	0.044761	0.062636	0.017367	782.29	0.00062159	0.0006797	1233.7	276.1	0.00060287	0.00065983	551.04	229.66	141.39	51.66	0.00061503	122.21	109.544	36.979	-42.183	-92.423	117.874	114.602	-92.861	-88.929	225.852	44.077	-88.691	-85.139	-85.516	-79.588	-25.355	-80.624	-8191	255	
22466.695	1	1	0	0	0.27345	0.13278	0.15904	0.18381	0.1302	0.228	0.11822	0.029485	0.17265	0.26134	0.28304	0.32944	0.081053	0.16601	0.099706	0.12745	-2.3229	-2.3438	-2.5479	-2.6833	-2.3563	-2.7167	-2.6562	-2.5167	-2.7	-2.4813	-2.5021	-2.7833	-2.4542	-2.6542	-2.6688	-2.6188	-62.652	-5.284	33.800	68.573	148.171	-97.854	-73.849	4.164	-42.342	38.526	-59.626	181.452	230.039	-106.851	163.914	217.904	0.0013221	0.0027331	0.00064984	533.92	1.0359e-05	4.1484e-05	1049.7	206.65	3.2938e-05	1.5122e-05	456.44	192.07	83.66	38.529	1.1445e-05	108.71	0.042406	0.059726	0.016533	768.84	0.00060328	0.00066303	1225.1	275.07	0.00060034	0.00065903	553.14	230.44	141.47	51.487	0.00060607	121.92	118.521	242.436	-39.157	-92.653	-70.507	-82.174	-92.786	-88.944	203.297	-42.244	-89.179	-84.986	-85.430	-78.921	64.919	-80.620	-8191	255	
22466.766	1	1	0	0	0.22	0.20129	0.16621	0.22155	0.06818	0.17846	0.079544	0.23981	0.094678	0.441	0.3905	0.13064	0.21156	0.14095	0.26549	0.093102	-2.2854	-2.3875	-2.3625	-2.7104	-2.4813	-2.6771	-2.6396	-2.4917	-2.6021	-2.4188	-2.5729	-2.8917	-2.525	-2.6146	-2.6813	-2.4188	80.781	86.998	7.101	125.474	183.329	164.964	169.993	-94.061	147.350	122.769	182.816	159.256	-104.371	205.532	37.587	46.554	0.0015354	0.0033561	0.00074125	534.67	1.283e-05	3.3689e-05	1038.4	203.71	1.6902e-05	1.3329e-05	454.75	191.43	81.434	38.621	1.915e-05	109.15	0.041214	0.057536	0.016007	754.19	0.0005785	0.00063411	1209	269.42	0.00057703	0.00063596	545.88	227.96	138.38	51.14	0.00059568	122.32	121.520	230.340	45.733	-93.100	176.556	44.498	-93.023	-89.064	-62.603	17.659	-89.311	-84.714	-85.813	-79.589	51.235	-80.824	-8191	255	
22466.861	1	1	0	0	0.070492	0.18915	0.13839	0.23491	0.25842	0.070873	0.28256	0.34504	0.11069	0.069528	0.31218	0.17774	0.029964	0.15849	0.17226	0.14396	-2.2333	-2.575	-2.3042	-2.6875	-2.3958	-2.4521	-2.7354	-2.4458	-2.6667	-2.3896	-2.4167	-2.7104	-2.4	-2.5729	-2.5854	-2.5792	-101.545	135.374	169.428	181.084	250.460	122.407	240.798	178.044	130.579	-86.597	246.172	166.591	64.894	-65.210	-23.499	213.404	0.0011046	0.0020895	0.00024065	537.26	1.8775e-05	4.407e-05	1045.5	204.29	3.2694e-05	2.9508e-05	449.92	191.21	82.028	38.604	3.7822e-05	109.29	0.041104	0.057333	0.016048	756.56	0.00057974	0.00063573	1211.6	269.68	0.00057278	0.00062752	542.78	226.5	136.99	50.703	0.00057779	121.47	147.201	-102.734	-97.222	-92.895	-20.661	9.180	-92.979	-89.037	35.409	179.903	-89.040	-84.705	-85.524	-79.825	135.687	-80.479	-8191	255	
22466.959	1	1	0	0	0.066787	0.10025	0.15347	0.1412	0.28487	0.10725	0.14778	0.20651	0.29901	0.046595	0.32763	0.28593	0.27871	0.12755	0.38551	0.36981	-2.2396	-2.4667	-2.2938	-2.6292	-2.4396	-2.6833	-2.8083	-2.3458	-2.675	-2.525	-2.3708	-2.7708	-2.7292	-2.4979	-2.6521	-2.5792	-82.954	-83.166	179.508	-54.427	-87.255	19.135	49.517	-101.248	-101.526	123.765	240.027	167.900	133.984	224.604	-4.526	222.580	0.0014719	0.0011712	0.00046992	531.09	4.3013e-06	2.0869e-05	1036.3	203.69	1.4156e-05	8.5811e-06	452.08	192.03	80.508	38.618	2.9889e-05	109.36	0.039724	0.055616	0.015549	747.8	0.00056857	0.00062415	1201.8	268.3	0.00056615	0.00062707	543.42	227.48	138.4	51.202	0.00059663	122.29	147.708	-1.021	2.433	-92.955	190.845	131.106	-93.087	-88.768	162.435	-38.697	-89.676	-84.652	-85.487	-79.404	27.677	-80.974	-8191	255	
22467.076	1	1	0	0	0.28791	0.027901	0.20934	0.1055	0.10601	0.16369	0.18753	0.11586	0.35285	0.053659	0.1935	0.089481	0.20277	0.23022	0.19154	0.19888	-1.9458	-2.4458	-2.3458	-2.7958	-2.5812	-2.5187	-2.7292	-2.7021	-2.6354	-2.7229	-2.4771	-2.7687	-2.4875	-2.4375	-2.6458	-2.5687	21.263	67.903	-29.714	-11.251	215.402	-56.740	227.158	172.870	78.758	42.925	-81.125	126.533	136.981	-38.739	12.775	231.532	0.0012017	0.00072145	0.00032378	536.01	1.4661e-05	2.7429e-05	1047.6	204.24	4.841e-05	2.6461e-05	454.35	192.46	83.853	38.892	1.0402e-05	109.12	0.041116	0.057608	0.016118	760.02	0.00058359	0.0006422	1218.1	272.83	0.00058782	0.00065158	552.02	230.92	141.84	51.88	0.00061853	122.8	83.900	-55.770	-40.741	-92.923	63.402	27.334	-92.911	-88.907	5.080	21.761	-89.596	-85.310	-85.625	-79.285	199.199	-80.787	-8191	255	
22467.174	1	1	0	0	0.15218	0.054283	0.13698	0.13711	0.075918	0.18433	0.039254	0.1508	0.030183	0.10874	0.23726	0.11737	0.080089	0.20839	0.11088	0.16131	-2.1583	-2.5646	-2.2458	-2.4562	-2.4958	-2.3604	-2.8833	-2.4979	-2.4062	-2.8208	-2.2979	-2.6479	-2.6813	-2.3354	-2.8229	-2.6792	-20.320	-53.525	113.441	-66.297	222.361	114.221	-64.506	228.630	-27.443	43.074	227.119	199.270	171.777	-94.321	-71.797	225.914	0.0012828	0.0044527	0.0011677	537.3	1.8906e-05	1.7446e-05	1053	206.95	3.5302e-05	2.5123e-05	452.36	192.59	82.011	38.867	1.7594e-05	109.1	0.042143	0.05871	0.016486	766.89	0.00058839	0.00064977	1219.2	271.69	0.00057663	0.00063588	546.14	228.49	138.85	51.264	0.00059836	122.34	74.467	-18.673	-83.481	-92.540	38.564	126.773	-93.048	-88.647	83.274	-10.571	-89.679	-84.719	-85.304	-79.331	2.733	-80.845	-8191	255	
22467.270	1	1	0	0	0.27127	0.048417	0.055876	0.20444	0.2747	0.15371	0.2297	0.1646	0.055367	0.18321	0.093055	0.2822	0.071046	0.17213	0.13989	0.2964	-1.975	-2.6042	-2.4688	-2.6375	-2.6667	-2.2854	-2.7833	-2.4729	-2.5167	-2.7333	-2.5708	-2.5708	-2.575	-2.4667	-2.8417	-2.7167	110.873	-70.217	91.643	183.441	3.570	109.703	143.620	-40.039	-88.979	-21.480	232.121	194.601	238.825	231.881	130.309	223.976	0.00047533	0.0029223	0.00068101	538.91	1.6125e-05	8.0811e-06	1052.6	208.26	2.4159e-05	8.094e-06	462.26	194.32	84.637	39.036	2.1833e-05	110.13	0.041533	0.05847	0.016478	768.69	0.00059829	0.00066265	1231.3	276.37	0.00059756	0.00066297	557.35	231.72	142.03	51.858	0.00061627	123.47	167.832	11.200	134.302	-92.052	-91.922	-70.756	-93.076	-89.362	-63.516	75.020	-89.328	-85.299	-85.528	-79.747	143.473	-80.838	-8191	255	
22467.365	1	1	0	0	0.089393	0.13775	0.098716	0.10777	0.12472	0.096492	0.18722	0.13279	0.085099	0.30418	0.18887	0.311	0.051768	0.090419	0.36362	0.24395	-2.0229	-2.525	-2.4333	-2.4938	-2.7646	-2.5271	-2.5292	-2.4854	-2.4333	-2.7896	-2.3771	-2.7	-2.7417	-2.5167	-2.7812	-2.7333	171.637	243.436	79.941	135.033	20.413	45.138	133.984	217.383	174.539	194.933	-44.310	227.148	204.467	251.613	113.571	-83.914	0.0018419	0.00080313	0.00041002	538.39	2.9231e-05	2.1055e-05	1052	206.06	1.9606e-05	3.643e-05	460.11	192.08	83.604	38.695	2.1413e-05	108.91	0.042177	0.059054	0.016505	770.74	0.00059989	0.00066864	1233.1	276.3	0.00060323	0.00066453	555.92	230.93	142.47	51.923	0.00061741	122.45	105.300	233.404	-11.568	-92.523	28.217	179.594	-92.921	-88.532	167.999	-35.731	-89.493	-85.271	-85.627	-79.479	60.783	-80.721	-8191	255	
22467.463	1	1	0	0	0.093649	0.16424	0.02272	0.19553	0.24044	0.13503	0.026118	0.17622	0.017415	0.16228	0.19617	0.05972	0.12125	0.1895	0.34158	0.32266	-1.9042	-2.6833	-2.4188	-2.55	-2.6312	-2.4833	-2.8708	-2.5771	-2.3896	-2.6229	-2.525	-2.8042	-2.5375	-2.3896	-2.4167	-2.6417	133.861	172.148	-77.379	143.843	109.141	153.849	-44.201	204.113	34.568	111.805	148.104	56.881	-78.375	162.095	17.281	196.303	0.0016286	0.00254	0.00039133	531.71	2.0708e-05	4.1871e-05	1037	202.47	4.9661e-05	1.5311e-05	451.02	190.93	82.221	38.468	2.128e-05	108.77	0.041748	0.058084	0.016128	754.67	0.00057364	0.00063107	1201.2	266.87	0.00056527	0.00062561	540.87	225.83	137.65	50.862	0.00059239	121.6	153.595	15.807	88.146	-93.028	196.732	60.709	-93.330	-88.449	82.330	72.348	-89.122	-84.703	-85.510	-79.505	153.124	-80.828	-8191	255	
22467.559	1	1	0	0	0.19335	0.13304	0.34713	0.042051	0.26625	0.36763	0.051399	0.13081	0.16748	0.12274	0.12476	0.10532	0.27737	0.15261	0.25322	0.12842	-1.9083	-2.6229	-2.4146	-2.6354	-2.6729	-2.4333	-2.6854	-2.8042	-2.2208	-2.6125	-2.5687	-2.3604	-2.9688	-2.3083	-2.4104	-2.8104	96.176	242.644	-16.154	206.857	81.179	139.750	-32.086	200.006	235.412	-45.265	-104.303	174.646	-6.340	-41.217	-25.601	-91.591	0.00055808	0.0017871	0.00048734	536.02	1.5352e-05	4.0643e-05	1049.4	206.03	2.3479e-05	1.8794e-05	454.16	192.63	83.082	38.784	3.1904e-05	109.74	0.040613	0.057056	0.015992	755.8	0.00058179	0.0006437	1218.9	272.66	0.00058896	0.0006487	550.65	229.19	140.51	51.601	0.00060421	122.58	101.613	47.041	18.590	-92.681	149.433	-15.232	-92.868	-89.155	87.650	-97.314	-89.373	-85.296	-85.730	-79.697	136.866	-80.669	-8191	255	
22467.654	1	1	0	0	0.1946	0.21662	0.13731	0.14686	0.19641	0.16447	0.29016	0.16205	0.14377	0.027879	0.23394	0.46631	0.084137	0.092493	0.062558	0.062673	-2.0146	-2.5354	-2.3833	-2.5854	-2.5708	-2.575	-2.6208	-2.6292	-2.3438	-2.7042	-2.7375	-2.5229	-2.6458	-2.5667	-2.4521	-2.8896	29.596	11.525	-66.362	52.818	96.726	0.833	29.545	-102.777	-75.244	-93.326	247.329	220.903	192.866	228.525	89.681	-100.653	0.0011651	0.00081994	0.00084322	538.44	1.4507e-05	4.6438e-05	1039.8	202.21	2.342e-05	2.383e-05	453.85	192.42	81.507	38.878	1.9452e-05	110.57	0.041562	0.058017	0.016075	757.25	0.00057912	0.00063794	1207.3	268.47	0.00057234	0.00063142	543.61	227.65	138.24	51.415	0.00060363	123.22	147.738	25.135	-17.165	-92.898	223.626	103.053	-92.733	-89.014	251.702	80.243	-89.120	-84.825	-84.749	-79.413	24.497	-80.510	-8191	255	
22467.775	1	1	0	0	0.18132	0.22442	0.069998	0.19017	0.099014	0.24475	0.13576	0.2939	0.12335	0.088336	0.18096	0.17609	0.092432	0.15156	0.063636	0.033155	-1.9125	-2.6042	-2.55	-2.25	-2.6813	-2.5896	-2.5646	-2.7438	-2.3438	-2.6125	-2.6771	-2.5542	-2.5812	-2.3875	-2.3937	-2.8083	106.218	252.217	96.281	250.800	185.522	-77.535	156.002	166.784	-15.518	45.274	241.746	-66.512	165.217	-89.478	81.801	190.548	0.0015509	0.0025422	0.00021123	534.11	8.2139e-06	2.1755e-05	1037.8	205.02	1.9535e-05	4.8102e-05	459.34	193.04	84.831	38.869	4.1874e-05	109.04	0.04177	0.058399	0.016262	764.22	0.00059071	0.00064983	1216.6	272.78	0.00059231	0.00065258	551.54	230.55	142.63	51.896	0.00062157	123.02	130.116	63.223	69.655	-92.782	112.241	53.184	-92.895	-88.899	201.196	85.871	-89.200	-85.260	-85.360	-79.475	160.971	-80.872	-8191	255	
22467.871	1	1	0	0	0.14093	0.19448	0.0092112	0.0030585	0.028878	0.24717	0.1184	0.1154	0.046217	0.12289	0.040333	0.058901	0.13602	0.16571	0.079448	0.13977	-2.0958	-2.5958	-2.5875	-2.1958	-2.7333	-2.5292	-2.4979	-2.8396	-2.4854	-2.5687	-2.8292	-2.4542	-2.6771	-2.4375	-2.4167	-2.8771	52.913	190.608	63.754	-7.602	135.938	227.326	172.166	167.816	184.410	140.641	-50.344	250.715	185.599	36.631	56.005	54.187	0.0011357	0.0023372	0.001259	535.52	7.6948e-06	2.4842e-05	1051.3	207.61	2.9161e-05	4.5328e-05	459.22	192.64	84.908	38.899	7.9395e-06	109.77	0.042607	0.059135	0.016446	768.36	0.00059792	0.00065706	1221.6	275.71	0.00059998	0.00065935	557.03	232.49	145.18	52.349	0.00063888	124.15	151.460	-52.712	201.301	-92.710	-20.723	181.605	-93.268	-89.533	4.014	63.534	-89.370	-85.040	-85.386	-79.307	31.344	-80.805	-8191	255	
22467.967	1	1	0	0	0.18877	0.15114	0.11365	0.17504	0.18471	0.20652	0.23624	0.15452	0.10417	0.255	0.39737	0.21817	0.24114	0.1882	0.054878	0.10651	-1.9125	-2.5229	-2.5021	-2.6667	-2.8125	-2.5021	-2.3979	-2.7438	-2.2854	-2.6188	-2.7646	-2.3417	-2.5875	-2.5979	-2.3354	-2.9646	-51.244	172.866	230.059	245.918	-61.956	193.194	245.607	-45.459	12.689	121.775	225.161	228.058	62.123	52.924	87.035	9.493	0.0018768	0.0013533	0.0011066	540.52	7.4146e-06	2.4102e-05	1053.3	208.52	5.7885e-05	1.985e-05	457.73	192.91	84.34	38.255	5.4738e-06	107.62	0.044223	0.061616	0.017199	787.61	0.00062164	0.00067952	1239.2	279.24	0.00060232	0.00065121	551.89	229.24	139.75	50.769	0.00059467	120.76	138.976	244.121	85.451	-92.870	115.198	-64.542	-93.299	-89.345	227.382	219.573	-89.106	-84.824	-85.305	-79.573	66.761	-80.908	-8191	255	
22468.062	1	1	0	0	0.18773	0.14256	0.1877	0.058838	0.077985	0.12604	0.13314	0.13184	0.088184	0.048323	0.2234	0.16207	0.12242	0.026262	0.10401	0.091977	-1.9562	-2.4562	-2.8792	-2.3708	-2.4688	-2.5979	-2.4708	-2.6562	-2.3479	-2.6	-2.8125	-2.5333	-2.575	-2.6021	-2.4	-2.9667	163.866	176.218	165.233	213.239	31.292	87.561	-83.535	141.856	-2.567	82.759	180.233	239.678	-54.094	241.606	42.251	-9.423	0.00076348	0.0023827	0.00041902	534.9	1.217e-05	1.5847e-05	1047.4	205.26	8.1543e-06	8.4697e-06	456.86	193.13	83.415	38.214	1.0003e-05	107.97	0.040378	0.056504	0.015874	754.33	0.0005791	0.00063672	1215.8	273.39	0.00058489	0.00064293	551.15	229.75	140.78	51.156	0.00061159	121.9	181.528	104.662	66.159	-93.030	87.031	206.016	-93.186	-88.845	-88.516	81.771	-89.460	-84.703	-86.254	-79.548	171.749	-80.637	-8191	255	
22468.158	1	1	0	0	0.30874	0.099438	0.083146	0.13681	0.056577	0.22656	0.29174	0.25011	0.053502	0.21716	0.20301	0.33257	0.25404	0.10781	0.038349	0.082636	-1.9937	-2.5271	-2.75	-2.4167	-2.5667	-2.5229	-2.4625	-2.6417	-2.4542	-2.3375	-2.85	-2.7167	-2.5854	-2.7229	-2.3771	-2.9	210.498	-64.753	-99.127	193.597	0.985	-47.171	110.050	-75.636	130.753	164.428	3.052	-86.674	66.768	-10.746	-75.231	205.473	0.00031422	0.0024381	0.00045774	531.56	1.7524e-05	1.0696e-05	1042.4	203.43	7.4462e-06	1.3745e-05	447.98	188.58	81.738	37.835	1.8759e-05	107.12	0.041851	0.058603	0.016467	760.91	0.00058416	0.0006407	1208.2	268.42	0.00056542	0.0006251	539.16	224	135.65	49.974	0.00058203	119.31	53.103	214.213	198.840	-92.883	32.057	182.543	-93.086	-88.946	-5.168	-62.374	-89.294	-85.051	-85.673	-79.573	-35.814	-80.839	-8191	255	
22468.254	1	1	0	0	0.19789	0.10311	0.19517	0.095572	0.25813	0.2734	0.16012	0.25714	0.14981	0.17981	0.42184	0.21511	0.14873	0.25457	0.22012	0.14349	-2.0146	-2.3688	-2.5917	-2.475	-2.5979	-2.7438	-2.4562	-2.8312	-2.7313	-2.4458	-2.8375	-2.5062	-2.4188	-2.75	-2.5792	-2.6875	170.400	41.131	-77.566	-59.561	116.794	49.118	214.346	146.999	55.649	-88.755	-98.529	187.906	214.490	189.103	39.644	205.692	0.0013925	0.0036541	0.00070047	525.25	3.4941e-06	1.8186e-05	1040	203.94	9.9401e-06	9.9864e-06	449.4	191.16	82.399	38.322	1.334e-05	107.54	0.039914	0.055591	0.015677	744.74	0.00056563	0.00062733	1201.6	268.68	0.00057461	0.00064453	546.04	228.39	141.5	51.562	0.00062314	121.71	164.558	247.090	246.345	-93.995	124.579	40.566	-93.056	-88.838	232.965	-61.560	-89.559	-85.186	-85.816	-79.343	208.272	-80.801	-8191	255	
22468.375	1	1	0	0	0.16306	0.24967	0.18612	0.18664	0.19461	0.27786	0.062568	0.10814	0.2251	0.096321	0.1781	0.09063	0.14557	0.035153	0.32346	0.15907	-2.1437	-2.4146	-2.6188	-2.6312	-2.2687	-2.8167	-2.5417	-2.5812	-2.5271	-2.3979	-2.7625	-2.5479	-2.45	-2.6562	-2.3083	-2.7146	150.234	112.531	-83.815	228.449	90.439	-4.138	-33.283	102.329	29.987	203.175	173.723	-97.619	179.624	43.883	92.451	148.333	0.0001262	0.0029962	0.00024501	528.82	2.659e-05	5.704e-05	1037.5	202.56	1.4219e-05	1.3064e-05	446.08	189.38	80.617	37.779	4.3897e-05	106.99	0.042422	0.059053	0.0164	757.87	0.00058502	0.00064585	1205.9	268.83	0.00057309	0.00063429	540.1	224.39	136.36	50.178	0.00057857	119.14	143.939	-13.903	201.964	-93.723	16.320	7.378	-93.166	-88.544	143.356	-20.970	-89.729	-85.192	-84.518	-79.113	63.520	-80.619	-8191	255	
22468.471	1	1	0	0	0.057732	0.1667	0.18861	0.13163	0.075491	0.17422	0.22805	0.026905	0.16736	0.055624	0.15392	0.15471	0.30623	0.14931	0.15444	0.12022	-2.2375	-2.2313	-2.65	-2.5458	-2.2938	-2.7979	-2.4604	-2.3708	-2.7562	-2.3792	-2.8792	-2.4354	-2.2979	-2.675	-2.4875	-2.5125	122.389	237.484	-66.370	-86.663	-0.144	116.159	210.043	106.807	219.555	60.006	211.143	195.450	32.283	-103.826	-38.637	-17.243	0.00061354	0.0014775	0.0014004	524.31	1.8368e-05	2.1113e-05	1034.4	201.89	1.2815e-05	3.758e-05	448.57	190.24	80.985	37.937	4.0416e-05	107.84	0.039143	0.054731	0.015201	733.94	0.00055482	0.00061916	1192.3	265.16	0.00056847	0.00062803	541.06	225.67	137.6	50.681	0.00059301	120.82	148.007	213.218	23.962	-92.822	226.130	245.318	-93.171	-88.710	-35.928	36.944	-89.417	-84.850	-85.918	-79.303	-52.995	-80.275	-8191	255	
22468.566	1	1	0	0	0.06634	0.33955	0.17041	0.2631	0.16103	0.12823	0.23133	0.20048	0.1772	0.29702	0.22751	0.30232	0.154	0.26081	0.065397	0.16546	-2.2687	-2.3	-2.6208	-2.6167	-2.4604	-2.6521	-2.6208	-2.5146	-2.6792	-2.3417	-2.4729	-2.5625	-2.25	-2.9125	-2.5521	-2.55	-15.287	126.580	113.809	83.508	181.026	-106.278	174.098	195.078	195.777	15.569	187.524	231.868	197.133	158.251	10.653	196.106	0.0010164	0.0032858	0.00061338	528.18	2.4483e-05	4.2593e-05	1040.7	203.28	2.5132e-05	9.6972e-06	452.01	189.54	82.078	38.107	1.9565e-05	108.04	0.041156	0.057449	0.016102	754.86	0.00059012	0.00065579	1211.8	271.58	0.00059315	0.00065814	548.44	227.71	140.38	51.264	0.00061255	121.21	146.475	25.164	7.294	-92.820	186.897	224.269	-93.038	-89.268	106.416	-12.005	-89.305	-84.831	-85.742	-79.329	-95.972	-80.470	-8191	255	
22468.662	1	1	0	0	0.29495	0.20108	0.15766	0.24314	0.091912	0.068815	0.11671	0.42946	0.15706	0.12077	0.20033	0.21521	0.10881	0.39995	0.23077	0.34329	-2.2292	-2.3146	-2.5812	-2.7833	-2.3688	-2.8167	-2.6146	-2.4437	-2.7875	-2.2625	-2.4583	-2.6937	-2.3958	-2.6646	-2.5333	-2.5042	44.724	109.065	-84.532	-69.614	88.883	-77.845	215.106	-72.821	-0.955	171.055	79.716	140.348	88.674	205.529	132.620	166.047	0.00078604	0.0059365	0.00081711	534.33	3.4621e-05	1.0415e-05	1040.3	202.96	2.5746e-05	2.7513e-05	450.76	190.85	82.002	38.456	2.6631e-05	108.62	0.042337	0.058622	0.016347	762.28	0.00059645	0.00065421	1211.9	270.22	0.00059117	0.0006509	545.28	227.22	140.41	51.467	0.00061859	122.32	88.179	19.220	-55.023	-93.151	155.731	164.791	-92.924	-88.832	-24.459	53.096	-89.434	-84.951	-85.453	-79.414	-30.073	-80.500	-8191	255	
22468.734	1	1	0	0	0.032076	0.20858	0.15231	0.25308	0.11945	0.055113	0.16498	0.24116	0.17169	0.20405	0.12232	0.14881	0.10866	0.20794	0.026357	0.062538	-2.0729	-2.4771	-2.5146	-2.8375	-2.3812	-2.7208	-2.8375	-2.5729	-2.7313	-2.5896	-2.6458	-2.525	-2.4854	-2.5167	-2.5833	-2.4083	65.427	-0.223	6.790	171.106	188.196	-4.425	-91.178	123.093	98.171	-12.775	-85.011	48.010	-32.224	-78.122	-52.548	164.978	0.00074138	0.0039051	0.00014407	537.71	1.8646e-05	1.1765e-05	1053.1	209.3	4.8522e-05	2.9487e-05	462.25	195.26	84.909	38.831	2.6001e-05	109.05	0.043412	0.061209	0.017175	784.04	0.0006417	0.00071081	1251.9	286.69	0.00066202	0.00072943	573	238.6	150.24	53.472	0.00066441	124.86	-19.346	-19.590	-39.016	-92.986	-71.460	100.172	-93.075	-89.281	28.970	59.448	-89.234	-84.869	-85.561	-79.517	53.222	-80.918	-8191	255	
22468.855	1	1	0	0	0.096912	0.11046	0.23755	0.15075	0.14001	0.35882	0.16354	0.32447	0.070102	0.26888	0.27646	0.080039	0.082997	0.14307	0.073757	0.15953	-2.2062	-2.5229	-2.4125	-2.9104	-2.5292	-2.6583	-2.5771	-2.2708	-2.6188	-2.5375	-2.3479	-2.7292	-2.3479	-2.3937	-2.7104	-2.6271	-38.661	-47.747	-32.229	12.482	186.226	-99.348	216.325	203.744	109.860	83.811	22.878	126.169	177.290	-83.325	96.584	103.497	0.0011161	0.0050867	0.00051311	532.37	4.123e-05	1.5373e-05	1046	204.8	2.4576e-05	2.6201e-05	452.57	192.8	84.145	38.47	1.8005e-05	109.07	0.045011	0.062204	0.017344	778.75	0.00062469	0.000683	1230.2	277.25	0.00061706	0.00068053	557.57	232.41	144.74	52.467	0.00064804	124.28	132.052	-9.094	252.399	-92.962	-6.826	-47.564	-93.040	-89.008	-59.851	74.755	-89.043	-85.222	-85.287	-79.485	203.617	-80.880	-8191	255	
22468.951	1	1	0	0	0.044668	0.19207	0.12215	0.09725	0.10164	0.26981	0.1357	0.13971	0.18981	0.092768	0.18007	0.11226	0.10651	0.27159	0.16977	0.29674	-2.1146	-2.5208	-2.3958	-2.7354	-2.4625	-2.5833	-2.7083	-2.2771	-2.6312	-2.4938	-2.4396	-2.8312	-2.5583	-2.5292	-2.7438	-2.4292	-70.097	179.740	31.366	-90.335	24.911	189.065	107.227	135.859	233.857	139.894	223.373	-22.518	-33.501	189.326	89.278	202.789	0.0005339	0.0022	0.00098302	542.4	1.8413e-05	2.3539e-05	1049	210.66	3.948e-05	4.138e-05	461.6	194.1	86.131	38.79	2.1262e-05	108.91	0.045469	0.0635	0.017926	800.55	0.00065984	0.00072883	1261.7	289.33	0.0006648	0.00072651	572.89	237.89	150.92	53.689	0.00068854	125.43	156.024	10.144	-46.535	-93.244	36.345	-31.767	-93.095	-88.903	31.435	-17.115	-89.314	-85.537	-86.257	-79.510	67.291	-80.842	-8191	255	
22469.047	1	1	0	0	0.40351	0.11883	0.20576	0.2184	0.12637	0.25243	0.012126	0.13038	0.22056	0.37185	0.21689	0.03587	0.31592	0.18442	0.12281	0.24126	-2.1312	-2.6229	-2.2583	-2.6979	-2.5875	-2.4437	-2.7687	-2.3958	-2.4833	-2.6271	-2.4167	-2.5833	-2.4604	-2.4521	-2.725	-2.3625	242.069	69.516	68.142	-97.013	59.609	36.513	111.561	122.610	95.056	242.322	208.881	-55.504	-9.656	150.137	108.382	214.295	0.0016988	0.0041202	0.0011818	546.35	5.8372e-05	1.1496e-05	1062.6	214.11	1.4621e-05	1.2068e-05	470.75	197.28	88.201	39.132	1.8811e-05	110.41	0.048118	0.067563	0.019277	828.77	0.00070551	0.00077967	1293.9	298.82	0.00071523	0.00078955	595.68	247.37	160.75	55.934	0.00074961	128.7	102.154	-6.149	100.515	-92.685	53.679	185.179	-92.890	-89.241	80.757	-88.548	-89.197	-85.526	-85.179	-79.887	82.243	-81.021	-8191	255	
22469.145	1	1	0	0	0.26431	0.13801	0.16438	0.059832	0.14696	0.12932	0.1789	0.15272	0.079069	0.041804	0.13646	0.096726	0.11194	0.28535	0.16118	0.084754	-2.0958	-2.6813	-2.375	-2.5979	-2.4854	-2.4583	-2.9083	-2.5021	-2.5833	-2.8021	-2.5396	-2.7687	-2.6208	-2.4229	-2.775	-2.5083	-79.671	230.971	-68.320	237.679	-39.792	-84.623	221.924	241.984	163.112	120.223	123.221	148.231	111.223	-91.525	198.488	59.388	0.00061218	0.0023962	0.00088342	548.43	2.095e-05	4.1049e-05	1060.3	213.21	7.2657e-06	5.3094e-05	464.7	196.73	86.609	38.651	3.5959e-05	109.1	0.050879	0.070693	0.019832	834.38	0.00070571	0.00077818	1288.2	295.94	0.00069591	0.00076669	585.66	243.51	155.07	54.571	0.00071327	126.38	100.341	88.339	226.340	-93.393	66.276	2.145	-92.924	-88.981	132.586	121.011	-89.474	-84.882	-86.184	-79.541	43.119	-80.972	-8191	255	
22469.264	1	1	0	0	0.081711	0.2585	0.14908	0.20008	0.13473	0.10184	0.33283	0.19632	0.076938	0.016547	0.242	0.22971	0.19832	0.088376	0.23591	0.090996	-2.1146	-2.6146	-2.2521	-2.6021	-2.5771	-2.4646	-2.7792	-2.4396	-2.4313	-2.6375	-2.5125	-2.6625	-2.6646	-2.4604	-2.5812	-2.5271	-8.985	63.873	245.875	206.186	153.931	166.973	172.126	-93.129	26.600	170.721	44.399	171.020	89.245	80.776	47.824	194.690	0.0015306	0.0013504	0.00075913	538.63	5.8791e-06	2.3044e-05	1053.2	209	3.9671e-05	1.8557e-05	459.01	193.55	85.162	38.827	8.1841e-06	108.67	0.047753	0.066478	0.018659	807.93	0.00066224	0.00073318	1264.2	286.77	0.00065503	0.00072623	573.28	238.01	150.48	53.71	0.00069322	125.88	127.438	-100.753	-2.624	-92.803	122.276	49.640	-93.277	-89.110	-98.587	10.073	-89.291	-84.905	-85.797	-79.169	80.802	-81.028	-8191	255	
22469.334	1	1	0	0	0.1034	0.10256	0.14411	0.20302	0.17567	0.12401	0.24437	0.092928	0.031784	0.171	0.16323	0.14278	0.058395	0.022148	0.094815	0.24751	-1.8312	-2.8083	-2.3896	-2.8083	-2.6125	-2.4042	-2.7792	-2.6125	-2.4854	-2.7396	-2.7167	-2.7896	-2.7	-2.4188	-2.7833	-2.5125	230.489	248.971	44.475	178.602	-15.796	124.595	-46.889	158.811	246.294	78.436	213.994	220.064	-101.317	-81.315	184.831	157.306	0.00074684	0.0033276	0.00067727	543.55	1.0877e-05	2.6415e-05	1067.8	211.38	4.1701e-05	1.4159e-05	463.55	195.93	86.393	38.907	2.1449e-05	108.12	0.048231	0.06797	0.019142	820.91	0.00069632	0.00077067	1286.9	295.2	0.00069493	0.00077052	584.23	242.94	155.68	54.63	0.00071471	125.7	125.086	13.145	146.095	-92.869	11.056	128.559	-93.033	-89.622	199.970	228.829	-89.036	-85.331	-85.946	-79.587	237.405	-81.150	-8191	255	
22469.455	1	1	0	0	0.028748	0.13436	0.26385	0.34679	0.3495	0.061471	0.085929	0.040682	0.21665	0.13512	0.073892	0.16795	0.23097	0.04142	0.099753	0.039078	-2.0479	-2.5604	-2.4813	-2.5646	-2.55	-2.4	-2.7542	-2.3542	-2.4375	-2.8458	-2.5167	-2.5479	-2.7104	-2.2687	-2.7375	-2.7875	44.570	6.856	46.398	-49.918	77.703	-9.017	-44.624	84.148	-97.828	-84.533	42.851	166.657	-38.174	185.401	-65.945	194.899	0.0012688	0.00050448	0.00056549	542.52	1.0887e-05	2.2229e-05	1060.7	209.17	2.8867e-05	9.1457e-06	456.08	193.33	84.069	38.376	3.2505e-05	107.69	0.04864	0.068192	0.018892	811.98	0.00067715	0.00074995	1268.3	288.31	0.00066667	0.00073696	571.17	237.07	150.26	53.14	0.000671	123.35	89.464	188.869	28.880	-92.649	39.959	-32.310	-92.891	-89.367	-41.457	-62.579	-89.567	-85.275	-85.771	-79.656	114.280	-80.916	-8191	255	
22469.551	1	1	0	0	0.021796	0.1764	0.13769	0.23858	0.052558	0.23759	0.19696	0.3508	0.18995	0.12961	0.16255	0.085309	0.12288	0.24273	0.057203	0.11726	-1.7521	-2.6396	-2.5604	-2.4667	-2.7188	-2.4333	-2.825	-2.7146	-2.3229	-2.6833	-2.5333	-2.6375	-2.6667	-2.5271	-2.6729	-3.0208	19.419	-41.795	168.031	122.786	239.833	197.300	178.024	231.593	205.182	160.822	-76.766	-104.285	163.176	188.840	168.080	237.352	0.0021139	0.0022491	0.00068777	534.11	1.3072e-05	2.9527e-05	1044.4	206.59	2.1563e-05	2.109e-05	453.54	191.45	83.529	38.329	2.5819e-05	107.78	0.045883	0.063731	0.017666	788.16	0.00063475	0.00069951	1236.2	278.19	0.00062446	0.00068961	556.03	231.17	144.65	52.077	0.00064837	122.79	119.293	-54.663	57.287	-93.320	-61.669	122.605	-93.312	-88.771	27.540	176.012	-89.516	-85.287	-86.120	-79.606	-36.315	-80.819	-8191	255	
22469.646	1	1	0	0	0.053359	0.14138	0.19364	0.25526	0.22808	0.143	0.10771	0.26229	0.21276	0.13157	0.050635	0.26752	0.067613	0.17433	0.084923	0.12882	-1.8708	-2.6979	-2.5979	-2.55	-2.7042	-2.5479	-2.5958	-2.6229	-2.4917	-2.6854	-2.6312	-2.5979	-2.8917	-2.55	-2.6083	-2.8479	-2.092	4.453	30.718	227.907	18.155	105.662	-51.027	151.007	207.751	-14.095	147.532	-73.453	58.601	-49.588	132.401	-106.466	0.0016997	0.0015901	0.00020499	544.88	2.951e-05	1.5855e-05	1050.3	208.56	1.3935e-05	2.1728e-05	459.43	194.09	84.802	37.742	1.6366e-05	108.15	0.045177	0.063276	0.017701	793.28	0.00065041	0.0007179	1255.9	284.98	0.00065212	0.0007192	568.13	236.77	150.29	52.702	0.00067068	124	129.259	246.432	146.798	-92.670	35.586	125.792	-93.023	-89.046	61.663	56.669	-89.527	-85.133	-85.466	-79.723	-11.857	-80.554	-8191	255	
22469.742	1	1	0	0	0.031945	0.20258	0.17212	0.35622	0.21176	0.18743	0.13716	0.099279	0.12182	0.14294	0.11637	0.42009	0.25627	0.056529	0.085234	0.15538	-2.1562	-2.6979	-2.5229	-2.4396	-2.8792	-2.6437	-2.5104	-2.7292	-2.5	-2.6521	-2.4792	-2.4542	-2.6979	-2.6937	-2.4083	-2.875	161.759	100.180	105.112	-77.335	161.113	10.349	-82.484	85.730	193.973	-12.770	-29.115	192.563	-74.852	-3.134	-59.094	33.373	0.0012432	0.0049576	0.00083	539.52	8.7032e-06	2.8621e-05	1051.1	208.14	1.2698e-05	4.6376e-05	455.04	191.46	82.942	38.53	2.0711e-05	107.94	0.046244	0.064563	0.017957	797.23	0.00065114	0.00071447	1250.6	283.99	0.00064702	0.00070906	565.34	234.64	147.87	52.73	0.00065563	123.21	131.747	-35.405	-7.594	-93.052	8.234	55.315	-92.824	-89.212	181.041	82.770	-89.275	-85.096	-85.890	-79.507	190.994	-80.569	-8191	255	
22469.863	1	1	0	0	0.12533	0.10729	0.19706	0.26886	0.067252	0.15837	0.20055	0.30376	0.084593	0.27759	0.12444	0.16276	0.24585	0.16926	0.15009	0.36764	-1.9292	-2.5854	-2.5687	-2.4271	-2.7458	-2.4062	-2.3937	-2.5625	-2.3	-2.6333	-2.5563	-2.4875	-2.6688	-2.6958	-2.4417	-2.8521	139.628	64.635	-105.001	250.253	229.046	-71.018	186.059	-61.138	-18.054	219.294	174.187	146.783	-83.744	159.290	210.223	147.943	0.00064377	0.0025786	0.0011531	533.17	1.8897e-05	1.825e-05	1038.5	204.8	1.8162e-05	1.286e-05	451.68	191.17	82.527	38.43	1.7414e-05	107.98	0.044761	0.061715	0.017127	776.05	0.00061958	0.00067633	1224.1	275.32	0.00061165	0.00067571	555.18	231.62	145.07	52.14	0.00065089	123.39	92.469	-106.867	32.401	-93.253	177.407	-8.366	-93.183	-89.293	90.907	89.267	-89.782	-85.105	-85.599	-79.478	22.818	-80.895	-8191	255	
22469.936	1	1	0	0	0.10128	0.12108	0.42664	0.092059	0.23049	0.052229	0.16174	0.11825	0.081768	0.076486	0.21355	0.2613	0.053299	0.06412	0.13641	0.30464	-2.0312	-2.5458	-2.5354	-2.4125	-2.5896	-2.7521	-2.3979	-2.8208	-2.3271	-2.6188	-2.8396	-2.4021	-2.6333	-2.4875	-2.4146	-2.8854	128.711	131.591	-55.083	128.927	-44.234	62.543	144.078	244.564	217.003	88.392	224.051	249.845	110.742	-23.253	20.109	197.914	0.00097659	0.0026301	0.00019911	541.23	1.4571e-05	3.6702e-05	1054.9	211.45	1.7481e-05	2.2374e-05	458.3	195.12	85.735	38.286	5.895e-05	108.24	0.045517	0.063631	0.017897	801.39	0.00066485	0.00073331	1265.6	290.21	0.00066463	0.00072933	571.78	237.93	150.21	52.912	0.00067669	124.42	130.430	80.675	246.804	-93.084	38.891	-68.393	-92.968	-89.195	151.521	-24.451	-89.425	-85.629	-86.104	-80.033	103.825	-80.625	-8191	255	
22470.031	1	1	0	0	0.21374	0.19107	0.16577	0.082644	0.11839	0.051769	0.1208	0.25504	0.06389	0.22046	0.21318	0.11159	0.33107	0.12697	0.17527	0.17926	-2.0563	-2.5125	-2.5625	-2.5479	-2.6833	-2.4917	-2.6833	-2.9375	-2.4771	-2.4333	-2.8771	-2.3083	-2.7292	-2.525	-2.4833	-2.7313	117.680	252.771	-41.773	164.287	44.315	51.942	189.020	219.205	-86.131	-11.844	-9.411	161.417	129.724	173.817	-85.085	173.001	0.001024	0.0024436	0.00020172	546.4	3.5023e-05	4.788e-05	1063.1	215.87	1.3095e-05	2.8174e-05	465.8	198.37	88.375	38.854	3.15e-05	109.15	0.046671	0.065259	0.018465	813.22	0.00067867	0.00075007	1281.4	296.17	0.00068951	0.00076322	587.85	245.19	157.54	54.528	0.00072035	126.8	108.288	-24.978	-55.302	-93.108	20.195	100.604	-93.157	-89.101	-3.792	40.172	-89.664	-85.454	-86.193	-79.846	-16.206	-80.995	-8191	255	
22470.150	1	1	0	0	0.18651	0.26528	0.22744	0.33045	0.21103	0.06469	0.2459	0.14661	0.36325	0.15883	0.26361	0.36463	0.24625	0.30731	0.011938	0.2285	-2.05	-2.2292	-2.6708	-2.5229	-2.6208	-2.8187	-2.5438	-2.6813	-2.5771	-2.5958	-2.8521	-2.4979	-2.4125	-2.6333	-2.5187	-2.7771	-90.138	138.971	-32.473	-103.102	34.340	-42.833	219.984	161.500	249.395	11.672	133.073	212.883	182.310	-67.030	233.094	-4.506	0.0010154	0.0018123	0.00059853	551.15	7.5293e-06	1.3703e-05	1063.1	214.76	7.9347e-06	2.2392e-05	467.66	198.3	88.901	38.859	2.9576e-05	108.87	0.049538	0.06905	0.019389	829.66	0.00070145	0.00077616	1296.6	298.84	0.00070473	0.00078163	591.99	245.95	159.32	54.976	0.00073244	126.49	108.536	9.499	51.720	-93.452	201.006	203.178	-93.126	-89.557	12.036	156.488	-89.440	-85.495	-86.910	-79.874	-11.699	-81.131	-8191	255	
22470.246	1	1	0	0	0.28698	0.36859	0.19377	0.099796	0.16445	0.12382	0.27516	0.11764	0.20243	0.21242	0.021571	0.1352	0.12273	0.20437	0.061812	0.45986	-2.0792	-2.4521	-2.5708	-2.3812	-2.4938	-2.6854	-2.3708	-2.7333	-2.6667	-2.4792	-2.9167	-2.4875	-2.5229	-2.6958	-2.2979	-2.6521	101.804	-23.568	-78.776	-74.416	54.911	121.344	108.846	67.319	169.488	40.301	-58.661	203.102	249.624	-86.937	242.131	-102.210	0.001046	0.0032705	0.00072188	548.75	1.5556e-05	3.1796e-05	1055	211.83	1.2691e-05	1.4341e-05	462.67	196.42	88.404	38.757	1.8361e-05	108.58	0.049073	0.068559	0.019203	820.12	0.00068368	0.00075472	1276.9	292.66	0.00068102	0.000755	583.33	242.8	155.32	54.372	0.00072067	126.15	127.840	-87.410	153.373	-92.465	80.375	189.454	-92.848	-88.976	115.751	-5.340	-89.515	-85.059	-85.467	-79.224	197.240	-80.534	-8191	255	
22470.344	1	1	0	0	0.19879	0.16424	0.1966	0.13451	0.1572	0.16884	0.45088	0.28743	0.21409	0.11352	0.35501	0.29493	0.24417	0.30836	0.15214	0.24078	-2.1688	-2.1271	-2.6688	-2.5292	-2.425	-2.6562	-2.5521	-2.6063	-2.5458	-2.4417	-2.8812	-2.6375	-2.5438	-2.7438	-2.4833	-2.5667	234.318	-6.978	78.070	213.973	160.190	234.963	142.283	-80.454	178.870	243.014	220.411	160.548	226.039	-102.382	137.046	180.615	0.0014396	0.0012853	0.00093048	547.21	1.7122e-05	1.9348e-05	1068.5	211.9	5.1972e-05	2.828e-06	466.99	197.3	88.267	39.122	1.8942e-05	109.69	0.049084	0.069017	0.019282	826.36	0.00069739	0.00077687	1292.2	295.88	0.00069538	0.00076897	586.14	243.08	155.74	54.726	0.00071234	126.96	116.355	58.196	-24.256	-93.005	42.917	8.834	-92.936	-89.131	51.695	54.053	-89.702	-85.119	-85.560	-79.235	-90.213	-80.587	-8191	255	
#DATA ENDS
