BOXY.EXE: ISS Imagent and Oximeter Data Acquisition Program Version 0.80
Ascii Record File

#ACQ INFORMATION
2  Detector Channels 
16  External MUX Channels 
1  Auxiliary Channels 
5000  Waveform (CCF) Frequency (Hz)
1  Waveforms Skipped 
30  Waveforms Averaged 
1  Cycles Averaged 
16  Acquisitions per Waveform 
10.0806  Updata Rate (Hz) 

#FILE INFORMATION
TRUE -- External MUX Channel results are PARSED.
FALSE -- AC DC and Phase are NOT grouped.
TRUE -- Companion Program Settings File CREATED.
FALSE -- AC data not excluded
FALSE -- DC data not excluded
FALSE -- Phase data not excluded
FALSE -- Auxillary Chn. data not excluded
Tab delimiters

#CALIBRATION STATE
TRUE -- Waveform Calibration Values APPLIED.


#AUX CALIBRATION VALUES
Val Type	aux-1	

Term	1.0000e+00	
Factor	0.0000e+00	


#WF CALIBRATION VALUES
A = Detector Channel
Val Type	A-AC1	A-AC2	A-AC3	A-AC4	A-AC5	A-AC6	A-AC7	A-AC8	A-AC9	A-AC10	A-AC11	A-AC12	A-AC13	A-AC14	A-AC15	A-AC16	A-DC1	A-DC2	A-DC3	A-DC4	A-DC5	A-DC6	A-DC7	A-DC8	A-DC9	A-DC10	A-DC11	A-DC12	A-DC13	A-DC14	A-DC15	A-DC16	A-Ph1	A-Ph2	A-Ph3	A-Ph4	A-Ph5	A-Ph6	A-Ph7	A-Ph8	A-Ph9	A-Ph10	A-Ph11	A-Ph12	A-Ph13	A-Ph14	A-Ph15	A-Ph16	

Term	0.00000e+00	0.00000e+00	0.00000e+00	0.00000e+00	0.00000e+00	0.00000e+00	0.00000e+00	0.00000e+00	0.00000e+00	0.00000e+00	0.00000e+00	0.00000e+00	0.00000e+00	0.00000e+00	0.00000e+00	0.00000e+00	0.00000e+00	0.00000e+00	0.00000e+00	0.00000e+00	0.00000e+00	0.00000e+00	0.00000e+00	0.00000e+00	0.00000e+00	0.00000e+00	0.00000e+00	0.00000e+00	0.00000e+00	0.00000e+00	0.00000e+00	0.00000e+00	0.00000e+00	0.00000e+00	0.00000e+00	0.00000e+00	0.00000e+00	0.00000e+00	0.00000e+00	0.00000e+00	0.00000e+00	0.00000e+00	0.00000e+00	0.00000e+00	0.00000e+00	0.00000e+00	0.00000e+00	0.00000e+00	
Factor	1.00000e+00	1.00000e+00	1.00000e+00	1.00000e+00	1.00000e+00	1.00000e+00	1.00000e+00	1.00000e+00	1.00000e+00	1.00000e+00	1.00000e+00	1.00000e+00	1.00000e+00	1.00000e+00	1.00000e+00	1.00000e+00	1.00000e+00	1.00000e+00	1.00000e+00	1.00000e+00	1.00000e+00	1.00000e+00	1.00000e+00	1.00000e+00	1.00000e+00	1.00000e+00	1.00000e+00	1.00000e+00	1.00000e+00	1.00000e+00	1.00000e+00	1.00000e+00	X	X	X	X	X	X	X	X	X	X	X	X	X	X	X	X	

B = Detector Channel
Val Type	B-AC1	B-AC2	B-AC3	B-AC4	B-AC5	B-AC6	B-AC7	B-AC8	B-AC9	B-AC10	B-AC11	B-AC12	B-AC13	B-AC14	B-AC15	B-AC16	B-DC1	B-DC2	B-DC3	B-DC4	B-DC5	B-DC6	B-DC7	B-DC8	B-DC9	B-DC10	B-DC11	B-DC12	B-DC13	B-DC14	B-DC15	B-DC16	B-Ph1	B-Ph2	B-Ph3	B-Ph4	B-Ph5	B-Ph6	B-Ph7	B-Ph8	B-Ph9	B-Ph10	B-Ph11	B-Ph12	B-Ph13	B-Ph14	B-Ph15	B-Ph16	

Term	0.00000e+00	0.00000e+00	0.00000e+00	0.00000e+00	0.00000e+00	0.00000e+00	0.00000e+00	0.00000e+00	0.00000e+00	0.00000e+00	0.00000e+00	0.00000e+00	0.00000e+00	0.00000e+00	0.00000e+00	0.00000e+00	0.00000e+00	0.00000e+00	0.00000e+00	0.00000e+00	0.00000e+00	0.00000e+00	0.00000e+00	0.00000e+00	0.00000e+00	0.00000e+00	0.00000e+00	0.00000e+00	0.00000e+00	0.00000e+00	0.00000e+00	0.00000e+00	-9.50698e+01	-1.34209e+02	-1.30506e+02	-1.80748e+02	-5.50128e+01	-6.60304e+01	-1.57031e+02	-1.62015e+02	-5.45825e+01	-5.31485e+01	-1.71629e+02	-1.71410e+02	-1.83807e+02	-1.76817e+02	-5.88180e+01	-1.49577e+02	
Factor	1.70242e-05	1.65196e-04	5.02263e-05	1.72618e-01	1.54288e-06	1.59518e-06	1.73682e-01	5.09113e-02	1.15026e-06	1.72375e-06	8.36987e-02	3.22256e-02	4.11735e-02	9.43077e-03	1.40902e-06	1.35806e-02	3.22070e-06	3.66523e-06	1.02384e-06	8.63279e-02	3.97030e-08	4.03732e-08	8.18899e-02	2.56352e-02	3.97281e-08	4.04783e-08	4.06540e-02	1.57543e-02	2.06171e-02	4.74922e-03	4.00296e-08	6.62632e-03	X	X	X	X	X	X	X	X	X	X	X	X	X	X	X	X	



#DISTANCE SETTINGS
A = Detector Channel
A-1	A-2	A-3	A-4	A-5	A-6	A-7	A-8	A-9	A-10	A-11	A-12	A-13	A-14	A-15	A-16	

2.5000e+00	3.0000e+00	2.5000e+00	3.0000e+00	2.0000e+00	3.0000e+00	1.5000e+00	3.0000e+00	3.0000e+00	3.0000e+00	3.0000e+00	3.0000e+00	3.0000e+00	3.0000e+00	1.5000e+00	3.0000e+00	

B = Detector Channel
B-1	B-2	B-3	B-4	B-5	B-6	B-7	B-8	B-9	B-10	B-11	B-12	B-13	B-14	B-15	B-16	

1.0000e+01	1.0000e+01	1.0000e+01	1.4400e+00	1.0000e+01	1.0000e+01	1.5100e+00	1.9400e+00	1.0000e+01	1.0000e+01	1.9900e+00	2.4900e+00	2.4100e+00	2.9000e+00	1.0000e+01	2.9800e+00	




#DATA BEGINS
time	group	step	mark	flag	A-AC1	A-AC2	A-AC3	A-AC4	A-AC5	A-AC6	A-AC7	A-AC8	A-AC9	A-AC10	A-AC11	A-AC12	A-AC13	A-AC14	A-AC15	A-AC16	A-DC1	A-DC2	A-DC3	A-DC4	A-DC5	A-DC6	A-DC7	A-DC8	A-DC9	A-DC10	A-DC11	A-DC12	A-DC13	A-DC14	A-DC15	A-DC16	A-Ph1	A-Ph2	A-Ph3	A-Ph4	A-Ph5	A-Ph6	A-Ph7	A-Ph8	A-Ph9	A-Ph10	A-Ph11	A-Ph12	A-Ph13	A-Ph14	A-Ph15	A-Ph16	B-AC1	B-AC2	B-AC3	B-AC4	B-AC5	B-AC6	B-AC7	B-AC8	B-AC9	B-AC10	B-AC11	B-AC12	B-AC13	B-AC14	B-AC15	B-AC16	B-DC1	B-DC2	B-DC3	B-DC4	B-DC5	B-DC6	B-DC7	B-DC8	B-DC9	B-DC10	B-DC11	B-DC12	B-DC13	B-DC14	B-DC15	B-DC16	B-Ph1	B-Ph2	B-Ph3	B-Ph4	B-Ph5	B-Ph6	B-Ph7	B-Ph8	B-Ph9	B-Ph10	B-Ph11	B-Ph12	B-Ph13	B-Ph14	B-Ph15	B-Ph16	aux-1	digaux	

2496.217	1	1	0	256	0.2056	0.20294	0.087333	0.22265	0.2765	0.18937	0.44012	0.10301	0.11105	0.074886	0.3224	0.24984	0.10444	0.10755	0.20772	0.29435	-2.3292	-2.7771	-2.8229	-2.7354	-2.75	-2.8688	-2.7417	-2.8792	-2.8063	-2.5729	-2.9062	-2.7146	-2.7542	-3.05	-2.5	-2.8833	216.161	311.473	158.927	357.688	323.229	313.938	329.120	34.658	306.439	382.899	37.487	74.279	67.236	164.646	28.084	136.890	0.00019806	0.00031916	0.00019913	1215	2.2071e-06	4.3881e-06	1280.9	249.33	2.9229e-06	3.1358e-06	315.69	88.283	68.974	19.671	1.4008e-06	28.356	0.00030817	0.00031397	8.7421e-05	1185.6	3.411e-06	3.4517e-06	1255	246.44	3.4467e-06	3.4139e-06	312.2	88.371	69.472	19.969	3.578e-06	28.637	181.217	118.270	102.642	38.444	117.757	132.841	38.664	45.946	222.267	171.641	45.304	52.712	53.150	58.952	149.223	58.448	-8191	255	
2496.314	1	1	0	0	0.19368	0.068883	0.12611	0.087911	0.11122	0.11248	0.43849	0.19322	0.092346	0.31748	0.17512	0.22759	0.093902	0.037693	0.17533	0.19464	-2.3208	-2.6292	-2.9896	-2.8479	-2.6458	-2.9333	-3.0062	-2.825	-2.8479	-2.6688	-3.2333	-2.8771	-2.7125	-2.9792	-2.7833	-2.7854	337.562	323.545	329.846	387.630	272.619	210.752	359.513	299.675	229.585	33.230	378.022	117.204	91.476	56.972	218.093	172.402	0.00020134	0.00039766	0.00014168	1216.3	5.1741e-06	3.2169e-06	1289.4	249.28	2.202e-06	6.7425e-06	320.78	89.055	69.852	20.041	2.4734e-06	28.794	0.00031855	0.00033565	9.6486e-05	1189.8	3.9625e-06	3.9864e-06	1264.8	247.86	4.1888e-06	4.2538e-06	317.14	89.714	70.735	20.298	4.0612e-06	29.046	186.431	95.170	92.484	38.459	220.178	211.139	38.719	45.788	190.110	191.026	45.267	52.225	52.800	58.867	206.888	58.737	-8191	255	
2496.434	1	1	0	0	0.062874	0.20455	0.086624	0.14214	0.11838	0.2013	0.16804	0.070881	0.16506	0.15307	0.047882	0.20274	0.21559	0.067487	0.17043	0.099711	-2.5646	-2.525	-2.8083	-2.8292	-2.6396	-2.9417	-2.7938	-3.0458	-2.9146	-2.7042	-2.9083	-3.075	-2.6417	-3.0083	-2.6937	-2.7313	196.909	265.176	178.238	359.518	45.159	191.831	363.180	380.066	125.673	294.063	293.512	169.599	284.846	141.241	272.902	315.766	0.00021291	0.00045611	2.402e-05	1229.3	2.9889e-06	4.3319e-06	1293.2	249.62	3.0855e-06	1.3907e-06	314.58	88.648	69.154	19.883	4.6476e-06	28.337	0.0003239	0.00033315	9.1341e-05	1200.4	3.537e-06	3.4045e-06	1266.3	247.66	3.421e-06	3.3992e-06	312.32	88.795	69.55	20.059	3.4012e-06	28.576	182.003	108.668	143.583	38.648	163.822	167.866	38.740	45.794	260.868	137.422	45.408	52.616	52.728	58.819	196.725	58.792	-8191	255	
2496.506	1	1	0	0	0.12266	0.097881	0.11301	0.30151	0.075057	0.11379	0.049509	0.12334	0.23452	0.12564	0.18987	0.2121	0.33538	0.25643	0.33942	0.32975	-2.5292	-2.6542	-2.8104	-2.8417	-2.7729	-2.8521	-2.7958	-2.8208	-2.8458	-2.6396	-2.8688	-2.8063	-2.5729	-2.8979	-2.8542	-2.7	153.944	271.180	201.698	336.124	71.767	97.246	54.702	28.246	177.255	276.703	71.293	363.664	385.145	53.952	151.912	76.506	0.00017868	9.9564e-05	5.2125e-05	1208.8	6.5536e-06	3.4877e-06	1280.3	248.12	3.6291e-06	4.0234e-06	315.8	87.778	69.446	19.763	4.3366e-06	28.445	0.00029683	0.00030906	8.7269e-05	1182.5	3.4782e-06	3.4798e-06	1253.4	246.08	3.5311e-06	3.4578e-06	312.43	88.293	69.481	19.955	3.3984e-06	28.696	184.843	78.110	76.090	38.659	196.079	190.250	38.746	46.043	185.125	88.199	45.603	52.513	53.058	58.957	225.789	58.418	-8191	255	
2496.627	1	1	0	0	0.11746	0.13407	0.086867	0.35688	0.15049	0.18938	0.060969	0.18442	0.046681	0.26892	0.1608	0.13788	0.1419	0.10682	0.27217	0.22394	-2.5062	-2.7083	-2.7938	-2.9313	-2.7667	-2.9417	-2.8396	-2.8125	-2.95	-2.7333	-2.9146	-2.8458	-2.4938	-2.9229	-3.0938	-2.6375	382.293	372.470	374.863	31.074	359.499	264.459	324.787	78.578	274.583	241.359	334.737	256.795	230.929	109.353	238.954	53.169	0.00015025	0.00039547	7.2313e-05	1215.3	3.8286e-06	1.9014e-06	1286.3	250.48	1.8436e-06	4.1203e-06	319.03	88.914	69.441	19.871	2.4183e-06	28.646	0.00030583	0.00031858	9.0232e-05	1187.9	3.6175e-06	3.6777e-06	1261.3	247.31	3.7547e-06	3.7873e-06	314.56	89.066	69.907	20.184	4.0324e-06	28.998	187.784	85.939	203.888	38.764	203.666	120.223	38.792	45.731	216.403	191.067	45.228	52.503	52.703	59.110	234.781	58.956	-8191	255	
2496.723	1	1	0	0	0.23505	0.059027	0.15015	0.019831	0.1945	0.12448	0.26723	0.48525	0.15668	0.35229	0.31911	0.29706	0.19579	0.087584	0.14036	0.26372	-2.5583	-2.6979	-2.6833	-2.9833	-2.6521	-2.8521	-2.7854	-2.6396	-2.8312	-2.6813	-2.7229	-2.7208	-2.6396	-2.8333	-2.7896	-2.5687	168.209	101.369	177.892	74.471	223.685	297.633	312.902	304.757	360.066	380.039	342.627	303.487	264.069	140.629	180.253	270.632	0.00018794	0.0003806	2.1878e-05	1228.8	4.7293e-06	5.1953e-07	1299.1	253.09	1.7178e-06	3.49e-06	320.81	89.343	70.247	20.023	2.6871e-06	28.729	0.00036149	0.00038259	0.00010737	1202.1	4.2829e-06	4.236e-06	1275.8	250.55	4.1807e-06	4.0681e-06	316.69	89.766	70.524	20.257	3.914e-06	29.041	183.449	59.536	365.927	38.490	186.125	107.793	38.860	45.758	175.952	206.223	45.236	52.489	52.524	58.388	231.105	58.858	-8191	255	
2496.817	1	1	0	0	0.14215	0.16665	0.11126	0.3301	0.23158	0.16663	0.24948	0.069847	0.042743	0.25822	0.32056	0.092754	0.27959	0.089743	0.094816	0.21004	-2.6437	-2.6813	-2.6604	-3.1646	-2.4729	-2.6833	-2.9688	-2.8708	-3.0125	-2.7167	-2.8729	-3.0833	-2.6833	-2.5792	-2.8521	-2.5417	59.105	49.482	218.140	323.777	118.930	202.817	322.787	349.450	105.144	302.788	373.666	251.717	71.800	67.751	78.455	232.199	0.00018468	0.00071311	5.7835e-05	1232.7	4.552e-06	1.8205e-06	1301.1	251.9	2.7963e-06	2.7993e-06	319.73	88.556	69.791	19.929	2.2127e-06	28.65	0.00034441	0.00035228	9.8367e-05	1205.2	3.8442e-06	3.8961e-06	1274	249.6	3.8542e-06	3.8051e-06	316	89.179	70.068	20.203	3.7772e-06	29.015	177.883	114.511	76.818	38.461	221.295	64.447	38.688	45.694	223.363	191.923	45.552	52.378	53.044	59.137	145.057	58.607	-8191	255	
2496.915	1	1	0	0	0.13312	0.033867	0.15846	0.086339	0.29032	0.16459	0.21578	0.19881	0.10654	0.25896	0.23841	0.22233	0.15626	0.20549	0.20162	0.22377	-2.1688	-2.8146	-2.8063	-3.1792	-2.6896	-2.7896	-3.0854	-2.6125	-2.9354	-2.6708	-2.9125	-3.075	-2.6417	-2.8667	-2.8521	-2.7375	211.846	43.899	302.802	33.824	151.169	200.823	318.345	369.669	297.257	369.021	290.282	369.666	38.629	30.324	38.259	335.721	0.00014686	0.00048626	4.5699e-05	1228.5	5.2511e-06	2.6507e-06	1300.4	251.72	2.63e-06	4.8022e-06	319.68	88.934	69.209	20.007	2.8779e-06	28.809	0.00034384	0.00035751	0.00010059	1201.4	3.9701e-06	3.9787e-06	1274.3	249.38	4.0887e-06	3.9723e-06	316.17	89.282	70.015	20.249	4.0215e-06	29.092	182.382	117.518	63.560	38.575	230.612	197.823	38.887	45.767	251.635	173.660	45.510	52.883	52.724	58.735	219.499	58.507	-8191	255	
2497.034	1	1	0	0	0.1517	0.11608	0.1775	0.13501	0.067109	0.22774	0.037878	0.16468	0.070849	0.16246	0.058628	0.12571	0.075545	0.098539	0.17873	0.098988	-2.4208	-2.75	-2.6437	-3.0667	-2.7146	-2.7604	-3.1271	-2.5479	-2.8563	-2.6396	-2.8292	-2.9146	-2.7896	-2.5583	-2.9688	-2.4313	44.852	29.952	328.662	244.017	177.516	286.844	289.585	286.879	102.426	381.734	265.724	385.585	320.053	332.621	244.888	308.652	0.00018622	0.00024148	8.879e-05	1230.2	4.3719e-06	2.8733e-06	1301	252.63	3.3647e-06	2.9903e-06	317.13	88.456	69.205	19.849	3.8408e-06	28.816	0.00034307	0.00037183	0.00010159	1205	4.0609e-06	4.0251e-06	1276.4	249.66	4.0675e-06	4.0454e-06	315.85	89.009	70.134	20.148	3.974e-06	28.981	183.466	53.168	120.676	38.449	216.855	139.133	38.830	45.783	227.984	189.500	45.466	52.307	52.780	59.170	182.429	58.520	-8191	255	
2497.106	1	1	0	0	0.32159	0.20882	0.16189	0.21755	0.057231	0.077055	0.16705	0.1313	0.14336	0.12735	0.24093	0.068268	0.26313	0.20786	0.22305	0.39436	-2.3917	-2.7687	-2.3875	-3.0312	-2.7062	-2.7042	-3.1688	-2.7521	-2.8667	-2.9396	-2.5958	-3.0083	-2.6958	-2.525	-3.1083	-2.5875	105.774	39.347	145.965	254.992	275.102	261.293	372.425	117.079	69.268	177.551	365.468	126.382	85.135	356.735	203.388	329.553	0.00017101	0.00030549	0.0001002	1218.4	4.0742e-06	1.6522e-06	1282.8	248.02	2.6044e-06	4.2541e-06	315.55	87.404	68.164	19.69	4.9204e-06	28.453	0.00034109	0.00034953	9.6252e-05	1191.4	3.7951e-06	3.6465e-06	1254.1	246.03	3.5982e-06	3.5105e-06	311.35	87.655	68.732	19.835	3.4399e-06	28.594	191.986	372.216	99.797	38.614	223.867	181.295	38.699	45.914	220.572	197.717	45.351	52.443	52.832	58.619	195.000	58.416	-8191	255	
2497.202	1	1	0	0	0.098857	0.082015	0.21842	0.29908	0.19047	0.21614	0.05734	0.14695	0.10919	0.11159	0.14907	0.049834	0.083783	0.12361	0.31721	0.22653	-2.35	-2.9667	-2.4771	-2.9313	-2.7562	-2.6312	-2.9104	-2.7458	-2.8125	-2.8208	-2.7	-3.0625	-2.7771	-2.6271	-2.9104	-2.6562	185.359	30.479	298.145	33.803	141.120	66.271	182.838	196.548	287.687	153.135	294.313	330.199	91.735	80.611	270.548	220.157	0.00015668	8.2964e-05	0.00017992	1201.9	2.9538e-06	1.4406e-06	1268.8	246.97	2.1198e-06	3.0519e-06	313.7	86.992	68.244	19.589	3.548e-06	28.587	0.00030749	0.0003161	8.9882e-05	1174.8	3.657e-06	3.5843e-06	1244.9	244.43	3.7271e-06	3.6972e-06	311.33	87.512	68.635	19.819	3.6807e-06	28.724	187.533	134.443	116.407	38.826	169.293	109.782	38.690	45.872	259.262	136.838	45.185	52.287	52.314	59.096	248.759	58.701	-8191	255	
2497.322	1	1	0	0	0.14486	0.19049	0.18868	0.21484	0.30017	0.17821	0.46111	0.096206	0.063267	0.19262	0.10779	0.2519	0.16172	0.20081	0.32614	0.28722	-2.4104	-2.8312	-2.65	-2.9458	-2.7104	-2.5563	-3.0563	-2.8167	-2.7812	-2.9542	-2.7542	-2.8896	-2.9104	-2.5312	-2.8958	-2.7812	267.858	224.809	59.219	329.132	335.620	358.096	339.629	344.743	97.339	160.059	68.169	343.375	366.182	328.491	175.543	356.222	0.00019298	0.00021782	1.6925e-05	1212.7	3.77e-06	1.2785e-06	1278.6	246.87	2.3707e-06	2.9614e-06	316.78	87.267	68.735	19.661	4.0555e-06	28.392	0.00033498	0.00034368	9.5496e-05	1183.1	3.9008e-06	3.7817e-06	1252.4	244.67	3.8488e-06	3.8786e-06	312.64	87.791	69.146	19.871	3.8938e-06	28.665	178.371	52.223	75.504	38.526	211.725	155.967	38.857	45.830	184.385	155.192	45.130	52.597	52.252	59.365	169.387	58.524	-8191	255	
2497.418	1	1	0	0	0.27779	0.18763	0.13317	0.38944	0.020969	0.097117	0.21677	0.16448	0.2198	0.10682	0.070416	0.14007	0.11001	0.20363	0.023965	0.10428	-2.225	-2.9604	-2.65	-2.8958	-2.7896	-2.6875	-3.0729	-2.9646	-2.7667	-2.8292	-2.8833	-2.8187	-2.8063	-2.6188	-2.8854	-2.6146	276.873	336.879	226.522	306.270	102.323	318.517	315.743	49.522	282.707	364.882	342.525	71.061	185.415	58.622	365.062	233.075	0.00022143	0.00033941	3.0164e-05	1217.3	3.3602e-06	1.6361e-06	1281.9	247.36	2.4133e-06	3.7664e-06	318.42	87.456	68.873	19.665	3.9185e-06	28.52	0.0003391	0.0003562	9.8207e-05	1190.2	3.8853e-06	3.849e-06	1259.9	245.61	3.9256e-06	3.8466e-06	313.81	88.028	69.054	19.904	3.9322e-06	28.767	184.173	52.434	69.822	38.610	274.950	198.616	38.719	46.023	199.409	141.142	45.442	52.681	52.467	58.803	250.664	58.415	-8191	255	
2497.515	1	1	0	0	0.1712	0.11619	0.12422	0.089738	0.087197	0.20406	0.27778	0.17501	0.040137	0.15236	0.079186	0.15155	0.067863	0.18641	0.21947	0.1088	-2.175	-2.9104	-2.625	-2.7875	-2.9708	-2.6396	-3.0563	-2.8875	-2.5979	-2.9479	-2.9208	-2.7646	-2.8083	-2.5438	-2.7125	-3.0062	50.295	162.228	245.399	378.497	51.135	245.052	293.999	77.380	259.620	125.358	357.780	271.329	357.083	282.551	207.833	292.103	0.0001787	0.00043224	0.00010853	1218.2	4.0157e-06	3.9739e-06	1279.4	248.27	4.1129e-06	5.0483e-06	318.44	88.356	69.301	19.687	2.73e-06	28.418	0.00033464	0.00035544	0.00010002	1188.5	3.9063e-06	3.8885e-06	1257.2	245.69	3.9392e-06	3.878e-06	313.8	88.226	69.27	19.856	3.9451e-06	28.781	187.268	126.561	101.971	38.567	225.214	364.218	38.729	45.607	204.141	218.912	45.297	52.244	52.868	59.345	180.214	58.859	-8191	255	
2497.611	1	1	0	0	0.13804	0.24841	0.16273	0.20146	0.09919	0.18789	0.44456	0.33125	0.2034	0.044612	0.38773	0.23873	0.21656	0.075159	0.094239	0.087413	-2.1958	-2.8875	-2.5354	-2.8458	-2.9375	-2.6542	-3.1562	-3.0083	-2.5583	-3.0312	-2.6937	-2.5458	-2.9708	-2.6437	-2.8458	-2.7583	383.085	169.053	263.068	381.852	123.376	372.411	325.734	349.558	95.298	306.949	327.455	360.672	360.597	146.696	208.093	219.967	0.00019395	0.0004477	0.00014479	1214.2	5.7255e-06	3.6074e-06	1289.3	248.02	3.9123e-06	6.379e-06	318.16	87.96	68.973	19.732	4.5481e-06	28.665	0.0003445	0.00035314	9.8329e-05	1189.8	3.9193e-06	3.9953e-06	1260.6	245.54	4.0524e-06	4.0622e-06	314.34	88.351	69.472	19.985	4.0598e-06	28.853	184.244	130.528	62.367	38.614	175.158	58.069	38.723	45.867	206.065	191.368	45.577	52.858	52.636	58.871	237.762	58.847	-8191	255	
2497.707	1	1	0	0	0.33363	0.19266	0.22968	0.23123	0.1355	0.2274	0.2654	0.091291	0.1027	0.18778	0.13485	0.15735	0.11012	0.23498	0.15695	0.19728	-2.1667	-2.9208	-2.7896	-2.8771	-3.15	-2.6458	-3.0083	-2.9271	-2.5917	-3.0563	-2.925	-2.6896	-3.0771	-2.7771	-2.8792	-3.0438	64.692	257.271	192.395	241.209	128.381	381.157	241.462	360.219	44.341	136.992	92.504	282.171	376.532	306.375	355.807	38.025	0.00017644	0.00074734	0.00019224	1225.6	2.0217e-06	6.9099e-06	1289.7	248.05	2.1787e-06	4.7293e-06	316.98	87.884	69.293	19.675	6.4414e-06	28.593	0.00035444	0.00037072	0.00010316	1196.7	4.0529e-06	4.1e-06	1266.9	246.06	4.1046e-06	4.0717e-06	313.97	88.33	69.633	19.991	4.0525e-06	28.875	170.225	107.675	110.988	38.629	239.024	162.189	38.811	45.902	166.925	182.047	45.246	52.228	52.848	58.762	223.555	58.652	-8191	255	
2497.803	1	1	0	0	0.22312	0.27153	0.30264	0.12479	0.12394	0.1465	0.12681	0.14776	0.10105	0.065797	0.19008	0.28182	0.31128	0.09582	0.16935	0.17633	-2.1146	-2.8812	-2.8125	-2.6042	-2.9396	-2.8479	-2.9458	-3.0396	-2.6708	-2.8896	-2.9646	-2.6646	-2.875	-2.6792	-2.7646	-3.0083	245.820	153.374	375.694	270.204	192.409	198.709	329.061	259.894	265.461	92.729	72.337	98.484	301.380	105.963	51.611	138.248	0.00020312	0.00014476	0.00017084	1222.7	1.5109e-06	4.2724e-06	1296	248.3	2.8333e-06	1.1937e-06	318.6	88.173	69	19.846	3.4125e-06	28.473	0.0003593	0.00037637	0.00010629	1197.5	4.1053e-06	4.162e-06	1269.6	246.33	4.2457e-06	4.2845e-06	315.05	88.662	69.866	20.062	4.3043e-06	29.012	181.402	38.356	140.145	38.600	63.125	227.101	38.735	45.740	207.802	149.287	45.282	52.629	52.511	59.191	249.971	58.696	-8191	255	
2497.899	1	1	0	0	0.10362	0.0844	0.15817	0.30651	0.15142	0.23998	0.086107	0.065852	0.14078	0.15725	0.32737	0.3679	0.037299	0.063925	0.058874	0.20853	-2.0958	-2.9604	-2.7812	-2.6271	-3.0312	-2.7271	-2.8583	-2.9875	-2.6167	-2.8688	-2.9792	-2.7438	-2.9479	-2.7438	-2.6896	-3.1229	70.251	182.370	275.827	316.539	32.793	144.844	291.504	158.197	58.558	179.696	293.700	60.961	229.193	262.378	131.957	259.933	0.00016943	0.00016351	0.00018455	1232.3	3.3174e-06	3.884e-06	1298.1	250.66	4.448e-06	1.5636e-06	318.41	88.354	69.09	19.936	5.616e-06	28.639	0.00037046	0.00038784	0.00010807	1205.3	4.2707e-06	4.3167e-06	1274.5	248.43	4.3081e-06	4.2102e-06	315.86	88.694	69.923	20.114	4.2074e-06	28.977	185.253	105.809	117.611	38.487	224.370	187.876	38.779	46.123	197.803	166.603	45.185	51.990	53.002	59.001	175.091	58.818	-8191	255	
2497.995	1	1	0	0	0.3788	0.13571	0.12584	0.23237	0.19861	0.23343	0.032863	0.23503	0.20645	0.19175	0.066337	0.15612	0.21842	0.1015	0.034525	0.085138	-2.3625	-2.85	-2.7625	-2.6771	-2.8563	-2.7562	-2.9604	-3.2917	-2.7188	-2.8458	-2.9917	-2.7208	-3.0354	-2.8208	-2.675	-3.0271	77.243	134.755	361.161	316.459	82.624	214.905	165.380	281.304	138.212	322.329	36.338	339.877	328.487	329.293	117.230	168.321	0.00018586	0.00043483	0.0001008	1233.9	4.4144e-06	3.2538e-06	1296	250.1	3.9252e-06	6.5376e-06	317.87	87.665	68.907	19.68	1.9027e-06	28.335	0.00036549	0.00039253	0.00010609	1206.1	4.2323e-06	4.1908e-06	1273.8	247.98	4.1049e-06	4.1284e-06	315.5	88.423	69.503	19.945	4.0117e-06	28.76	177.340	57.045	184.416	38.430	176.289	171.316	38.895	45.586	141.167	197.204	45.468	52.572	52.530	59.262	205.540	58.788	-8191	255	
2498.114	1	1	0	0	0.078519	0.092941	0.13348	0.11206	0.20427	0.04887	0.17894	0.09182	0.25581	0.11882	0.21987	0.14018	0.017179	0.033064	0.098609	0.26906	-2.1708	-2.7375	-2.8896	-2.6792	-2.8896	-2.8354	-2.9437	-3	-2.7958	-2.8625	-2.9146	-2.6625	-2.9125	-2.9625	-2.5625	-2.8875	42.040	342.013	377.326	318.585	334.562	196.896	272.878	86.312	167.103	233.537	242.812	270.191	387.174	145.467	108.939	268.895	0.00018121	0.00069485	0.00015414	1221.4	3.7408e-06	3.4354e-06	1287.7	248.7	3.0373e-06	3.7273e-06	317.32	87.35	69.148	19.663	3.3992e-06	28.371	0.00034193	0.00035509	9.8033e-05	1193.9	3.9168e-06	3.8355e-06	1262.6	245.89	3.7993e-06	3.7695e-06	313.52	87.79	69.27	19.813	3.777e-06	28.628	184.226	113.697	98.639	38.571	221.667	141.165	38.630	46.037	250.604	178.771	45.397	52.131	52.851	58.840	233.655	58.500	-8191	255	
2498.210	1	1	0	0	0.093158	0.082207	0.33299	0.28883	0.18624	0.073229	0.30882	0.17787	0.11224	0.019102	0.306	0.19819	0.23422	0.032077	0.23291	0.10562	-2.2646	-2.7562	-3.0292	-2.7167	-2.7729	-2.7792	-2.65	-2.9833	-2.725	-2.5438	-2.9604	-2.6792	-2.5792	-2.9458	-2.5896	-2.9375	350.331	60.760	347.102	259.108	207.159	39.765	346.246	186.713	142.121	308.306	378.160	351.262	127.210	376.094	166.691	251.076	0.00018589	0.00056884	6.5517e-05	1212.9	1.7269e-06	2.5604e-06	1275.6	246.39	1.7223e-06	5.5992e-06	314.58	86.477	68.342	19.278	2.1789e-06	28.174	0.00031957	0.00033746	9.1126e-05	1185.7	3.5542e-06	3.5307e-06	1250.4	243.79	3.384e-06	3.3359e-06	309.89	86.989	68.404	19.545	3.2622e-06	28.285	182.271	96.761	161.099	38.394	268.744	189.522	38.707	46.063	192.402	188.854	45.374	52.352	52.765	58.936	120.947	58.554	-8191	255	
2498.307	1	1	0	0	0.088607	0.12186	0.18514	0.3056	0.13396	0.073719	0.050063	0.040281	0.045229	0.25754	0.063862	0.1091	0.088134	0.084055	0.046088	0.31193	-2.2979	-2.7104	-2.8104	-2.7042	-2.7792	-2.9167	-3.1146	-3.0333	-2.7771	-2.6167	-2.9292	-2.7896	-2.8063	-2.9813	-2.7562	-2.9521	335.727	325.940	78.719	371.709	87.117	76.736	39.932	263.861	94.081	325.871	363.148	195.615	233.909	77.244	64.191	321.616	0.00021592	0.0002455	7.4289e-05	1195.1	5.4077e-06	6.9885e-06	1260.3	243.17	3.7777e-06	1.2238e-06	312.36	85.735	67.277	19.116	3.2013e-06	27.687	0.00028196	0.00028672	7.9812e-05	1166.9	3.1389e-06	3.016e-06	1233.6	240.29	3.0558e-06	3.1092e-06	307.64	85.883	67.389	19.329	3.0975e-06	28.007	177.800	122.904	172.848	38.646	267.923	172.251	38.832	45.846	171.387	159.298	45.529	52.487	52.587	58.908	175.373	58.392	-8191	255	
2498.403	1	1	0	0	0.088042	0.17824	0.16746	0.22914	0.14368	0.17846	0.21628	0.19566	0.19575	0.31509	0.14457	0.14688	0.017525	0.10491	0.19121	0.16157	-2.3729	-2.3958	-2.9583	-2.8229	-2.7208	-2.8083	-2.8396	-2.8812	-2.9333	-2.7229	-3.0417	-2.5958	-2.7042	-3.025	-2.6771	-2.7625	128.589	309.339	220.393	363.832	183.347	286.584	322.499	335.914	162.959	317.746	68.745	71.327	385.489	80.704	233.902	214.964	0.00017921	0.00022846	0.00019275	1190.8	5.2348e-06	2.8138e-06	1258.5	242.65	3.1316e-06	1.1137e-06	311.31	85.678	67.655	19.226	1.3666e-06	27.713	0.0002789	0.00028338	8.0335e-05	1161.8	3.1494e-06	3.1153e-06	1230.8	239.48	3.0427e-06	3.0613e-06	307.07	86.03	67.37	19.371	3.0306e-06	27.993	179.319	145.372	117.877	38.522	238.372	148.036	38.909	46.061	160.605	133.388	45.143	52.723	52.810	58.994	184.701	58.951	-8191	255	
2498.499	1	1	0	0	0.12131	0.29239	0.12477	0.059152	0.3475	0.21739	0.053386	0.24964	0.31453	0.30329	0.24907	0.17422	0.15935	0.079905	0.20262	0.065832	-2.4521	-2.7875	-2.8563	-2.7729	-2.5958	-3.0125	-2.925	-3.0021	-3.0187	-2.6083	-2.9729	-2.9	-2.6708	-2.8312	-2.6875	-3.0354	161.139	323.815	319.261	286.824	160.661	322.301	330.638	354.451	264.399	66.084	43.858	89.737	262.827	278.200	56.170	369.691	0.00019049	0.00020508	9.246e-05	1189.4	2.2231e-06	3.7326e-06	1256.4	241.25	2.3066e-06	3.4076e-06	311.07	85.589	66.929	19.16	3.7522e-06	27.784	0.00026567	0.00027622	7.5736e-05	1161.4	3.0518e-06	2.9928e-06	1228.1	239.1	3.0822e-06	3.0764e-06	306.69	85.777	67.247	19.333	3.0871e-06	27.987	178.596	106.069	58.655	38.599	241.097	136.295	38.725	45.831	244.440	151.426	45.522	52.641	52.737	59.112	206.851	58.779	-8191	255	
2498.595	1	1	0	0	0.19006	0.077432	0.18835	0.26372	0.22584	0.15496	0.18964	0.16069	0.12288	0.22123	0.21601	0.11128	0.084508	0.11757	0.067477	0.11283	-2.5062	-2.6354	-2.9708	-2.8438	-2.6625	-2.9792	-3.0062	-2.9917	-2.9104	-2.7583	-3.0479	-2.8896	-2.5875	-3.05	-2.7521	-2.5354	320.894	116.264	176.460	381.553	377.371	285.305	299.630	376.910	243.878	340.030	340.007	103.524	208.626	372.716	66.321	274.074	0.00016331	0.00036185	0.00015122	1184.4	3.0177e-06	4.1795e-06	1255.6	241.22	1.6771e-06	2.3046e-06	311.53	85.767	67.302	19.247	1.8405e-06	27.736	0.00027249	0.00027604	7.5666e-05	1160.6	3.1096e-06	3.0135e-06	1228.4	238.63	3.05e-06	2.9996e-06	306.72	85.69	67.301	19.337	2.9821e-06	27.958	178.513	138.918	121.216	38.595	206.675	182.626	38.793	45.826	222.742	196.936	45.538	52.731	52.681	59.031	97.987	59.091	-8191	255	
2498.716	1	1	0	0	0.12485	0.21456	0.23633	0.27089	0.099969	0.062574	0.18055	0.23133	0.075928	0.18769	0.36061	0.090894	0.11504	0.061689	0.14482	0.1201	-2.55	-2.6771	-2.7812	-2.8958	-2.6729	-3.0042	-2.9104	-2.8104	-2.925	-2.6063	-3.0042	-2.9604	-2.5021	-3.0042	-2.7917	-2.6625	280.805	169.569	214.785	336.905	310.595	77.649	341.777	313.168	373.807	164.340	347.199	210.274	76.603	161.113	225.389	54.370	0.00016378	0.00071286	8.5971e-05	1184.6	4.1118e-06	4.9112e-06	1254.6	240.76	2.7326e-06	3.1346e-07	310.68	85.391	66.83	19.161	2.9778e-06	27.616	0.00026975	0.00027327	7.5598e-05	1157	2.992e-06	2.9775e-06	1226.3	238.25	3.0075e-06	2.9849e-06	306.25	85.523	66.888	19.301	3.0467e-06	27.834	188.004	115.419	65.808	38.677	220.084	154.975	38.885	46.000	189.141	230.120	45.438	52.697	52.760	59.844	201.432	58.892	-8191	255	
2498.810	1	1	0	0	0.36738	0.10191	0.19766	0.31714	0.12813	0.14185	0.32746	0.26878	0.2126	0.12125	0.17366	0.28049	0.27493	0.076443	0.19659	0.2973	-2.5208	-2.5271	-2.7458	-2.9188	-2.5875	-2.925	-2.7792	-2.8021	-2.8625	-2.4521	-2.9083	-2.9854	-2.6583	-2.8438	-2.7021	-2.6333	321.568	174.175	266.487	339.488	250.714	172.101	365.525	283.316	87.664	350.076	201.605	149.958	347.147	213.152	87.027	294.299	0.00017821	0.00024988	0.00014145	1187	5.4952e-06	5.6231e-06	1247.7	240.73	3.1866e-06	2.1688e-06	310.6	85.53	67.078	19.34	4.2668e-06	27.96	0.0002655	0.00027144	7.746e-05	1156	3.113e-06	3.0264e-06	1225.1	238.35	3.1114e-06	3.0484e-06	306.69	85.521	67.177	19.411	3.0898e-06	27.963	179.788	137.595	112.679	38.407	199.381	147.325	38.896	46.175	194.175	67.870	45.395	52.575	52.851	59.637	226.538	58.941	-8191	255	
2498.906	1	1	0	0	0.26705	0.17487	0.11785	0.11868	0.039055	0.12259	0.092159	0.069371	0.16189	0.12118	0.16823	0.066757	0.20082	0.061473	0.25715	0.11326	-2.5542	-2.5729	-2.8104	-3.0187	-2.575	-3.0292	-3.0958	-2.7771	-3.0708	-2.6021	-2.7667	-2.9437	-2.4833	-2.9521	-2.8854	-2.6562	54.366	328.946	92.467	353.729	75.920	139.655	328.886	319.787	338.289	63.588	292.915	43.501	386.688	364.345	103.914	310.477	0.00018962	0.00077115	7.6932e-05	1182.8	4.2964e-06	4.6597e-06	1254.1	241.37	2.5247e-06	2.2292e-06	310.41	85.619	67.318	19.226	1.9155e-06	27.781	0.00026753	0.00027911	7.974e-05	1157.3	3.1213e-06	3.0285e-06	1227.8	238.43	3.0939e-06	3.0936e-06	305.72	85.679	67.198	19.362	3.0817e-06	27.995	190.707	129.892	114.010	38.473	209.458	146.478	38.946	46.159	197.993	172.302	45.381	52.468	52.888	59.534	318.599	58.743	-8191	255	
2499.002	1	1	0	0	0.33914	0.018455	0.1518	0.15912	0.26067	0.14229	0.22669	0.1937	0.3962	0.12732	0.15502	0.19077	0.18949	0.034509	0.19609	0.17013	-2.5042	-2.5979	-2.6479	-2.8312	-2.4771	-2.7896	-2.9229	-2.6042	-2.7583	-2.7104	-2.7125	-2.9125	-2.7375	-2.9917	-2.8688	-2.5417	47.730	139.384	160.758	228.602	327.552	246.786	322.883	43.971	73.904	63.459	317.134	256.640	295.432	326.822	58.095	152.997	0.00020136	0.00022875	0.00016	1187.2	3.7588e-06	1.2519e-06	1254.9	241.35	2.9949e-06	4.0498e-06	312.37	85.969	67.144	19.314	2.7166e-06	27.789	0.00027464	0.0002827	7.8637e-05	1160.1	3.1366e-06	3.1246e-06	1229.6	238.8	3.118e-06	3.177e-06	307	85.925	67.206	19.402	3.1799e-06	27.986	188.067	71.490	92.810	38.624	158.597	165.834	38.744	45.788	217.057	197.609	45.308	52.554	52.610	59.394	157.958	58.666	-8191	255	
2499.098	1	1	0	0	0.097815	0.1309	0.07064	0.26581	0.28687	0.11276	0.21789	0.14977	0.060385	0.10178	0.37554	0.241	0.030971	0.28461	0.043905	0.06152	-2.6458	-2.7562	-2.9188	-3.0208	-2.6875	-2.9104	-3.0271	-2.7542	-3.0271	-2.9958	-2.7687	-2.8625	-2.7042	-2.6979	-3.0292	-2.6729	206.095	322.388	279.672	299.989	184.223	216.925	328.110	379.832	342.623	203.138	99.749	79.050	294.457	42.137	375.973	117.781	0.00021001	0.00022509	8.2323e-05	1190.4	4.4003e-06	5.7282e-06	1260.8	242.27	3.1627e-06	2.1138e-06	311.86	85.459	67.308	19.248	4.586e-06	28.056	0.00027975	0.00029019	8.0327e-05	1161.1	3.2378e-06	3.1914e-06	1233.4	239.29	3.1907e-06	3.1429e-06	307.15	85.739	67.467	19.359	3.1799e-06	28.04	189.552	125.688	67.378	38.551	265.957	168.380	38.770	46.022	169.887	243.643	45.410	52.656	52.407	59.375	256.057	58.868	-8191	255	
2499.195	1	1	0	0	0.13273	0.16268	0.17513	0.35644	0.10066	0.03016	0.23539	0.20424	0.10705	0.12553	0.23645	0.29907	0.26248	0.040289	0.10226	0.055045	-2.3104	-2.7792	-2.5563	-3.0938	-2.6083	-2.7958	-3.0208	-2.7625	-2.9354	-2.6979	-2.7708	-3.0458	-2.6771	-2.85	-3.0771	-2.6958	161.827	69.276	192.548	377.202	115.490	94.656	295.714	313.471	250.760	75.776	236.201	320.487	384.025	337.284	47.746	113.257	0.00017963	0.00017113	0.00010285	1190.3	3.3553e-06	3.1261e-06	1261.4	241.64	2.8711e-06	2.2038e-06	311.69	85.69	67.121	19.325	4.492e-06	27.897	0.00028441	0.00028011	8.0476e-05	1162.8	3.2298e-06	3.1763e-06	1233.4	239.25	3.242e-06	3.2616e-06	307.17	85.968	67.466	19.402	3.2256e-06	28.055	195.033	133.339	96.805	38.732	206.581	208.570	38.902	46.060	236.922	240.304	45.473	52.490	52.947	59.142	180.122	58.815	-8191	255	
2499.291	1	1	0	0	0.11625	0.17219	0.088938	0.13903	0.069709	0.12436	0.15305	0.091315	0.071928	0.43548	0.21632	0.094906	0.093611	0.18087	0.19024	0.17704	-2.5271	-2.9188	-2.4521	-3.0687	-2.8104	-2.5854	-3.0417	-2.7625	-2.8208	-2.8104	-2.6437	-2.9375	-2.8958	-2.6688	-2.8958	-2.7313	230.576	304.262	370.234	326.128	43.939	148.897	338.845	58.759	192.427	32.643	326.628	123.691	69.804	365.435	191.098	58.838	0.00019551	0.0002862	0.00021802	1195.1	5.9782e-06	4.3345e-06	1264.2	241.78	2.1383e-06	4.4335e-06	311.63	85.946	67.414	19.332	1.8271e-06	27.893	0.00029039	0.00029166	8.2528e-05	1165.8	3.2953e-06	3.2045e-06	1234.6	239.47	3.2978e-06	3.1985e-06	307.6	86.149	67.481	19.42	3.1106e-06	28.066	185.377	140.958	134.535	38.410	237.728	193.068	38.776	45.835	259.077	193.668	45.308	52.613	52.837	59.352	253.036	58.579	-8191	255	
2499.387	1	1	0	0	0.22669	0.14612	0.20581	0.31812	0.11743	0.058622	0.21315	0.14563	0.25281	0.24505	0.11759	0.082487	0.2707	0.012094	0.12198	0.13236	-2.4479	-3	-2.7062	-2.9333	-2.5333	-2.6896	-3.2167	-2.8146	-2.825	-2.8937	-2.6813	-3.0438	-2.7583	-2.475	-3	-2.7396	85.733	145.577	179.777	376.445	199.532	385.288	312.317	80.156	311.106	288.924	76.169	120.311	75.435	320.193	367.414	255.188	0.00017678	0.00025026	0.0001274	1192	5.4311e-06	5.1985e-06	1263.8	242.42	1.2906e-06	4.2171e-06	311.28	85.516	67.432	19.182	3.7933e-06	28.043	0.00028042	0.00029283	8.1717e-05	1164.2	3.1826e-06	3.1199e-06	1235	239.65	3.2042e-06	3.1895e-06	307.41	85.916	67.512	19.362	3.0671e-06	28.05	178.565	45.441	139.255	38.650	218.565	144.105	38.750	45.818	243.692	215.524	45.153	52.763	52.747	59.171	206.991	58.985	-8191	255	
2499.508	1	1	0	0	0.11072	0.058476	0.10913	0.26169	0.26954	0.22735	0.12339	0.066339	0.28134	0.2024	0.23656	0.18164	0.1763	0.33162	0.31368	0.24074	-2.3271	-2.825	-2.3417	-2.8917	-2.8458	-2.6688	-3.1437	-2.7271	-2.6312	-2.9833	-2.7646	-2.8063	-3.0583	-2.7854	-2.925	-2.6708	137.409	216.730	197.001	310.117	59.311	351.064	271.069	70.220	376.609	165.057	356.397	250.852	58.833	45.001	54.618	330.987	0.00016247	0.0001032	8.171e-05	1188.3	3.9383e-06	2.9979e-06	1259.9	242.19	1.2792e-06	4.6901e-06	311.91	85.795	67.452	19.161	2.255e-06	27.94	0.00028098	0.00028411	8.0442e-05	1164	3.2069e-06	3.1318e-06	1234.7	239.65	3.1433e-06	3.096e-06	307.48	86.027	67.527	19.371	2.979e-06	28.067	187.732	67.681	115.322	38.658	178.832	175.672	38.933	45.880	165.629	172.877	45.553	52.429	52.846	58.959	216.828	59.009	-8191	255	
2499.604	1	1	0	0	0.25704	0.28044	0.036168	0.17913	0.15317	0.24568	0.14167	0.090233	0.15507	0.086089	0.12749	0.25571	0.16162	0.14767	0.18291	0.20375	-2.0292	-3.0125	-2.5917	-2.8333	-2.8021	-2.5896	-3.0396	-2.9083	-2.6917	-2.8729	-2.6688	-2.875	-2.95	-2.6229	-2.9938	-2.9083	69.798	35.191	351.786	307.251	112.460	351.203	163.315	47.047	262.747	245.035	232.804	177.156	221.672	138.369	125.307	159.106	0.0001828	0.00052754	0.00011322	1190	1.2684e-06	1.7705e-06	1263.4	241.64	1.7948e-06	3.2071e-06	311.13	85.559	67.343	19.199	4.8953e-07	27.819	0.00026616	0.00026976	7.5768e-05	1162.2	3e-06	2.9428e-06	1231.1	238.63	2.9144e-06	2.8853e-06	306.07	85.754	67.185	19.291	2.9005e-06	27.945	189.123	121.354	117.026	38.775	223.823	207.300	38.798	45.780	238.738	229.174	45.296	52.814	53.026	59.157	221.628	58.718	-8191	255	
2499.675	1	1	0	0	0.16455	0.25943	0.24857	0.25496	0.12638	0.055226	0.13984	0.19623	0.11097	0.26368	0.082204	0.27315	0.37203	0.16515	0.044657	0.0083531	-2.1792	-2.9375	-2.65	-2.8083	-2.8417	-2.6583	-3.1646	-2.8563	-2.7292	-3.125	-2.8354	-2.8937	-2.8771	-2.7042	-2.7438	-2.9854	105.014	320.914	149.621	51.983	145.233	174.467	346.426	86.004	186.565	126.426	333.953	278.256	111.421	260.329	173.032	325.582	0.00018504	0.00042645	0.00017797	1186.7	3.9816e-07	3.2486e-06	1251.8	240.5	1.5389e-06	3.09e-06	310.49	84.81	67.09	19.009	2.5002e-06	27.69	0.00026116	0.00026254	7.4211e-05	1157.3	2.858e-06	2.8067e-06	1223.3	237.98	2.8716e-06	2.8342e-06	305.73	85.323	66.86	19.175	2.8357e-06	27.809	183.250	76.128	171.992	38.634	214.088	120.849	38.869	45.854	151.788	130.380	45.288	52.949	52.974	59.006	270.425	58.417	-8191	255	
2499.796	1	1	0	0	0.053066	0.44763	0.29174	0.27225	0.23055	0.21506	0.053837	0.2908	0.086574	0.16443	0.066482	0.16346	0.33907	0.079999	0.06885	0.26816	-2.1458	-2.7354	-2.8729	-2.8146	-2.8812	-2.5854	-3.0083	-3	-2.6896	-2.9979	-2.8396	-2.6354	-2.9292	-2.8417	-2.7875	-2.9417	46.049	125.450	295.601	345.433	45.495	64.023	317.664	263.691	131.207	49.989	370.497	316.719	355.122	93.917	189.379	319.243	0.00015851	0.00030546	0.00010556	1182.9	3.8714e-06	4.4955e-06	1248.1	241.91	1.0191e-06	1.4992e-06	310.73	85.637	66.864	19.093	2.2303e-06	27.649	0.00025166	0.00025627	7.1074e-05	1152.6	2.817e-06	2.8171e-06	1218.5	238.02	2.8233e-06	2.8084e-06	305.04	85.309	66.636	19.131	2.7852e-06	27.774	184.919	41.852	90.477	38.481	180.209	197.718	38.785	45.944	202.248	153.305	45.551	52.970	52.684	59.572	259.008	58.418	-8191	255	
2499.890	1	1	0	0	0.18533	0.072215	0.24205	0.29324	0.26546	0.32958	0.179	0.35558	0.26821	0.27851	0.2043	0.081334	0.10277	0.018105	0.16603	0.10488	-2.2229	-2.8833	-2.7875	-2.7667	-3.0708	-2.4625	-2.8396	-2.9146	-2.725	-3.0208	-2.8958	-2.7333	-3.1125	-2.6146	-2.725	-3.0021	103.011	53.561	293.483	338.299	190.690	374.794	252.282	325.499	116.560	108.599	292.095	219.408	263.472	339.326	168.315	63.077	0.00016531	0.00020865	0.00016107	1174.5	4.8717e-06	3.7337e-06	1238.3	238.17	3.9891e-06	3.6604e-06	306.89	84.773	66.204	18.852	3.8589e-06	27.532	0.0002482	0.00024552	6.8051e-05	1143.5	2.7297e-06	2.6732e-06	1210.4	235.97	2.6728e-06	2.6716e-06	303.23	84.762	66.258	19.007	2.6828e-06	27.617	183.901	128.824	113.001	38.879	217.520	173.229	38.960	45.927	207.626	180.831	45.417	52.646	52.737	59.169	212.351	58.871	-8191	255	
2499.988	1	1	0	0	0.17681	0.19129	0.096903	0.18109	0.14216	0.14453	0.17708	0.11536	0.1778	0.2239	0.11661	0.20702	0.18372	0.05424	0.038428	0.16043	-2.0833	-3.0271	-2.8646	-2.8625	-3.1125	-2.8312	-2.9125	-3.2354	-2.6729	-2.8896	-2.9458	-2.7417	-3.1063	-2.7917	-2.6958	-3.0271	284.399	67.434	275.440	325.948	84.237	244.405	372.765	76.574	126.363	48.359	342.854	35.240	31.461	354.263	172.819	134.947	0.0001835	0.00028946	0.00010201	1165.4	5.9159e-06	3.7631e-06	1234.9	239.31	1.3617e-06	1.7966e-06	307.01	84.989	66.242	18.897	2.4706e-06	27.739	0.00023883	0.00024622	6.716e-05	1139.1	2.7182e-06	2.7171e-06	1208.3	235.83	2.7195e-06	2.7777e-06	302.97	84.907	66.354	19.022	2.8224e-06	27.719	184.936	135.964	119.245	38.761	178.892	209.269	39.007	46.169	214.651	92.106	45.440	52.498	52.829	59.233	174.834	58.957	-8191	255	
2500.107	1	1	0	0	0.16057	0.16975	0.063185	0.099138	0.31533	0.29152	0.2696	0.088429	0.023729	0.17557	0.12507	0.39773	0.16362	0.072849	0.25786	0.056142	-2.4083	-2.7708	-2.5438	-2.7417	-2.8604	-2.7812	-2.9	-3.0854	-2.5104	-2.5563	-2.9917	-2.7125	-2.9083	-2.7583	-2.7417	-2.9688	131.720	109.022	318.823	44.309	100.375	131.215	331.503	335.685	248.826	121.019	326.228	316.482	290.586	115.413	59.061	252.201	0.00017242	0.00030098	0.0001155	1171.9	7.6742e-06	3.3705e-06	1239.4	239.04	3.0646e-06	4.137e-06	306.81	85.266	67.085	18.991	3.9381e-06	27.512	0.00025312	0.00025926	7.3002e-05	1143	2.9207e-06	2.846e-06	1212.3	236.37	2.8594e-06	2.8108e-06	302.84	84.935	66.624	19.103	2.7511e-06	27.584	196.087	103.938	59.889	38.593	195.518	175.473	39.062	45.842	202.164	212.714	45.413	52.079	52.521	59.337	156.702	58.648	-8191	255	
2500.203	1	1	0	0	0.11626	0.28518	0.19894	0.19753	0.069969	0.22993	0.063115	0.27379	0.010748	0.19146	0.097636	0.3114	0.093648	0.070114	0.23524	0.39467	-2.3083	-2.8312	-2.7687	-2.8021	-2.975	-2.675	-2.7167	-3.0187	-2.6104	-2.8271	-3.0271	-2.8354	-2.9625	-2.8771	-2.6667	-3.075	111.244	297.735	168.782	348.103	45.698	230.065	267.388	300.552	209.790	383.023	292.301	351.684	82.783	254.909	275.990	174.573	0.00017994	0.00037384	9.0847e-05	1169.1	4.1911e-06	4.0551e-06	1240	238.73	1.7179e-06	5.2781e-06	306.63	85.147	65.946	18.958	2.445e-06	27.486	0.00024531	0.00024404	6.775e-05	1139	2.6899e-06	2.6423e-06	1209.8	235.66	2.6855e-06	2.6549e-06	301.85	84.952	66.28	19.034	2.654e-06	27.699	196.778	385.627	137.465	38.635	196.103	187.178	38.978	46.200	223.201	172.974	45.309	52.815	52.952	59.549	167.837	58.825	-8191	255	
2500.275	1	1	0	0	0.22643	0.33005	0.25711	0.046899	0.21248	0.17112	0.23368	0.094773	0.047007	0.21287	0.098212	0.2734	0.089719	0.278	0.14371	0.07865	-2.3146	-2.7146	-2.8708	-2.7521	-2.9604	-2.9792	-2.8125	-2.9146	-2.7875	-2.6625	-2.9229	-2.7083	-2.9625	-2.9938	-2.7146	-2.8833	321.714	366.158	180.694	65.563	227.657	95.339	319.148	377.772	317.907	159.847	285.478	329.399	343.060	42.977	97.483	236.302	0.00019011	0.00020256	0.00019266	1164.9	4.5297e-06	4.1395e-06	1235.9	238.55	3.2592e-06	5.2679e-06	306.93	84.257	65.822	19.033	3.0688e-06	27.395	0.00024341	0.00024214	6.8036e-05	1139.1	2.6993e-06	2.6397e-06	1207	235.96	2.7323e-06	2.6881e-06	302.11	84.56	65.977	19.03	2.5905e-06	27.588	183.847	168.580	121.071	38.439	238.779	172.226	38.962	46.020	199.983	192.486	45.381	53.054	52.898	59.564	206.647	58.630	-8191	255	
2500.396	1	1	0	0	0.085125	0.080511	0.19387	0.20135	0.21751	0.20877	0.22437	0.078472	0.21168	0.31229	0.050085	0.13915	0.19497	0.22625	0.13304	0.16532	-2.2646	-2.8	-2.9417	-2.8646	-2.9729	-2.8396	-2.7854	-3.05	-2.6063	-2.7812	-2.8979	-2.7375	-2.7354	-2.775	-2.6208	-2.9854	268.880	242.845	146.702	38.673	296.698	334.079	268.017	89.743	256.499	140.325	173.687	358.383	242.333	194.023	262.656	76.237	0.00019557	0.00039508	8.4878e-06	1166.2	4.3615e-06	3.5405e-06	1236.3	238.66	3.821e-06	2.6398e-06	305.96	85.066	66.191	18.888	5.2737e-07	27.707	0.00023985	0.00024025	6.8038e-05	1139.2	2.7492e-06	2.6599e-06	1208.9	235.42	2.7345e-06	2.6601e-06	302.13	84.763	66.237	19.065	2.624e-06	27.649	185.068	132.239	182.940	38.770	230.711	157.049	38.768	46.134	220.495	185.402	45.613	52.386	53.211	59.540	245.104	58.847	-8191	255	
2500.492	1	1	0	0	0.14174	0.036534	0.22613	0.35285	0.095217	0.25724	0.42412	0.14247	0.16324	0.2309	0.15648	0.19722	0.17926	0.072775	0.11922	0.099824	-2.2875	-2.4708	-2.8708	-2.8479	-2.8229	-2.9104	-2.6958	-3.0625	-2.9333	-2.7938	-3.0458	-2.7667	-2.6104	-2.9667	-2.5896	-2.8854	174.764	151.214	39.288	336.894	215.500	202.828	322.024	289.448	323.553	313.365	356.198	302.445	47.748	109.557	378.851	212.878	0.00017903	0.00030549	9.3964e-05	1169.3	3.0532e-06	1.9684e-06	1232.8	238.68	2.5622e-06	2.5047e-06	307.98	84.383	66.354	18.758	7.9058e-07	27.362	0.00024578	0.00024236	6.8013e-05	1141.1	2.6551e-06	2.6275e-06	1208.4	235.53	2.6344e-06	2.5285e-06	302.17	84.361	65.913	18.898	2.3602e-06	27.379	191.069	82.916	136.105	38.619	239.948	189.423	38.903	45.971	169.815	191.736	45.657	52.950	52.882	59.296	293.241	58.810	-8191	255	
2500.588	1	1	0	0	0.15265	0.21123	0.10345	0.21059	0.25293	0.11467	0.087186	0.13506	0.26928	0.22113	0.17337	0.20065	0.26817	0.063108	0.051166	0.17764	-2.5	-2.4167	-2.9562	-2.8792	-2.825	-2.9062	-2.8646	-2.7354	-2.8812	-2.575	-2.9688	-2.675	-2.4896	-2.9708	-2.5833	-2.8333	126.200	253.737	34.405	283.104	50.189	325.996	311.150	379.836	320.241	125.380	272.723	66.710	62.842	377.493	101.941	83.266	0.0001727	0.00032117	0.00013757	1144.7	4.8822e-06	4.7779e-06	1212.7	232.78	2.0349e-06	4.8511e-06	300.15	83.089	65.326	18.67	4.2686e-06	26.975	0.00021015	0.0002047	5.537e-05	1117.4	2.1875e-06	2.0835e-06	1182.8	230.54	2.1299e-06	2.0891e-06	295.96	83.056	64.733	18.637	2.1268e-06	26.952	186.111	108.417	151.418	38.923	221.523	176.475	38.890	46.130	167.026	207.810	45.499	52.984	53.023	59.607	209.866	58.990	-8191	255	
2500.684	1	1	0	0	0.0915	0.27385	0.042623	0.091341	0.27676	0.094784	0.074921	0.095249	0.14126	0.11923	0.1613	0.35106	0.19193	0.20832	0.18226	0.20157	-2.3375	-2.5583	-2.8271	-2.7917	-2.7396	-3.0187	-2.9375	-2.7792	-3.0771	-2.6125	-2.9604	-2.8583	-2.7583	-2.9542	-2.8625	-2.9104	121.508	130.787	91.195	284.713	94.821	360.662	40.532	290.168	164.919	305.913	310.017	361.239	152.757	90.681	208.262	322.331	0.00019244	0.00053028	6.5634e-05	1131.5	1.2183e-06	2.7815e-06	1203.1	233.04	1.939e-06	3.7379e-06	300.9	83.47	64.517	18.537	2.7147e-06	27.03	0.00018867	0.00019356	5.261e-05	1105.9	2.1638e-06	2.0616e-06	1176.4	229.97	2.0802e-06	2.1157e-06	295.32	82.98	64.718	18.601	2.1221e-06	27	189.335	108.086	99.853	38.613	182.644	151.062	39.018	46.157	238.741	189.322	45.402	52.619	52.597	59.105	172.640	58.918	-8191	255	
2500.805	1	1	0	0	0.090975	0.18229	0.077024	0.21955	0.11659	0.088408	0.15607	0.1702	0.2872	0.27502	0.069547	0.11365	0.29982	0.28315	0.034361	0.22527	-2.5542	-2.5583	-3.0479	-2.8292	-2.7333	-3.0729	-2.8979	-2.8458	-3.0438	-2.6292	-2.9313	-3.0292	-2.5187	-3.0521	-2.7	-2.8583	314.070	386.030	255.607	284.007	279.848	190.145	358.772	358.616	78.822	288.430	335.986	37.066	83.237	90.573	328.314	276.798	0.00018741	0.00046521	0.00012606	1133	4.6556e-06	1.5458e-06	1199.7	233.45	3.2478e-06	1.9771e-06	300.1	83.121	65.248	18.487	1.9893e-06	26.927	0.00019663	0.00019154	5.2399e-05	1102.9	2.1399e-06	2.1087e-06	1173.6	229.81	2.1161e-06	2.0854e-06	294.93	82.995	64.641	18.555	2.1246e-06	26.911	184.265	114.102	69.472	38.837	227.815	185.692	39.200	46.154	189.009	231.491	45.276	52.358	53.272	59.483	176.670	59.062	-8191	255	
2500.876	1	1	0	0	0.12703	0.31218	0.21497	0.29125	0.38043	0.20115	0.2601	0.16764	0.2433	0.13342	0.17045	0.25967	0.27756	0.096266	0.24269	0.19108	-2.3771	-2.5958	-2.875	-2.9437	-2.4521	-2.8625	-2.75	-2.6667	-2.8312	-2.5792	-2.9313	-2.8563	-2.6437	-2.8875	-2.6417	-2.8333	295.920	116.289	251.978	344.327	50.353	307.952	264.684	295.273	337.950	349.628	322.106	327.348	315.441	282.136	189.218	42.220	0.00018237	0.00025684	8.8986e-05	1130.7	4.5629e-06	3.1459e-06	1196.9	232.81	1.0954e-06	3.5765e-06	298.16	83.133	64.899	18.621	2.077e-06	26.905	0.00019318	0.00019417	5.4148e-05	1102.7	2.1843e-06	2.121e-06	1170.9	229.98	2.1388e-06	2.1362e-06	294.8	82.988	64.529	18.7	2.1428e-06	26.98	177.630	124.222	177.812	38.745	182.815	238.562	38.965	46.307	214.657	219.702	45.520	52.681	53.001	59.433	228.702	58.892	-8191	255	
2500.971	1	1	0	0	0.17615	0.14153	0.14325	0.384	0.18148	0.027993	0.35011	0.051975	0.15066	0.01295	0.25016	0.049206	0.08701	0.19076	0.06482	0.15819	-2.6688	-2.6875	-2.7042	-3.1	-2.7562	-3.05	-2.9667	-2.6604	-2.8583	-2.7042	-2.9333	-2.9562	-2.8	-2.9938	-2.7958	-2.9437	78.275	134.157	370.722	342.312	110.672	252.917	287.230	349.099	153.060	185.786	332.175	107.495	39.557	64.999	210.940	261.858	0.00016858	0.00033116	7.9561e-05	1131.4	3.9737e-06	2.5062e-06	1196.1	233.09	2.8578e-06	5.1367e-06	300.96	83.239	64.643	18.619	4.6887e-06	27.15	0.00019426	0.00019519	5.4466e-05	1102.7	2.1824e-06	2.1299e-06	1172	229.48	2.1314e-06	2.0925e-06	295.77	82.994	64.595	18.678	2.1417e-06	26.992	183.886	83.851	59.440	38.865	164.949	161.423	39.105	46.065	270.604	230.959	45.579	52.882	53.334	59.363	189.095	59.059	-8191	255	
2501.069	1	1	0	0	0.073946	0.1901	0.10576	0.10284	0.093456	0.24148	0.079867	0.055236	0.098978	0.30203	0.065668	0.10722	0.1203	0.14376	0.26344	0.20417	-2.6688	-2.8167	-2.7896	-3.3521	-2.6271	-2.9521	-3.1792	-2.6625	-2.9958	-2.75	-2.8354	-3.0479	-2.4271	-2.7083	-2.8521	-2.7333	31.743	140.528	361.283	332.206	242.271	158.067	62.592	200.888	75.055	172.896	30.794	365.527	60.239	321.952	198.031	303.357	0.00016409	0.0001931	0.00011102	1132.2	3.9981e-06	2.9066e-06	1202.7	232.79	1.5898e-06	4.3574e-06	298.3	83.27	64.427	18.574	2.945e-06	27.16	0.00019701	0.00019571	5.4963e-05	1102.1	2.1807e-06	2.1207e-06	1172.6	229.57	2.2331e-06	2.1711e-06	294.56	83.006	64.493	18.67	2.1843e-06	27.051	183.684	100.387	117.271	38.893	182.555	177.420	39.098	46.109	192.968	197.364	45.282	52.515	53.373	59.289	180.056	58.839	-8191	255	
2501.188	1	1	0	0	0.12617	0.16672	0.15493	0.14541	0.13868	0.31674	0.13526	0.2151	0.18008	0.12485	0.066465	0.20202	0.15517	0.32919	0.091212	0.14309	-2.6542	-2.5396	-2.7604	-3.1292	-2.6083	-2.7562	-2.8583	-2.5896	-2.9771	-2.6583	-2.8771	-2.9646	-2.5625	-2.6417	-2.9021	-2.8375	77.088	75.412	88.895	31.052	280.919	290.195	293.236	356.440	159.808	79.819	363.011	311.649	58.633	82.461	107.016	376.976	0.00018507	0.00052029	0.00011666	1127	2.9728e-06	1.4615e-06	1198.9	233.37	3.8009e-06	1.232e-06	301.04	83.038	64.635	18.653	2.0252e-06	26.917	0.00020534	0.00019985	5.6409e-05	1099.9	2.2467e-06	2.2103e-06	1171.6	229.95	2.292e-06	2.2242e-06	295.22	83.004	64.407	18.695	2.1921e-06	26.962	177.496	79.284	143.794	38.701	218.957	220.361	38.965	45.988	191.702	252.597	45.524	52.862	53.013	59.764	203.762	58.842	-8191	255	
2501.284	1	1	0	0	0.12362	0.13948	0.12755	0.045222	0.15377	0.1194	0.076417	0.14695	0.11013	0.1713	0.36458	0.26287	0.23724	0.058632	0.20026	0.32035	-2.5021	-2.5833	-2.4771	-3.1229	-2.7438	-2.9708	-3.0542	-2.6729	-3.0354	-2.7396	-2.6667	-3.0979	-2.6042	-2.8083	-3.0333	-2.6896	306.065	238.999	41.065	115.436	54.876	217.926	288.690	131.667	135.100	156.848	343.367	359.223	46.741	250.815	227.266	385.033	0.00016734	0.00013672	0.00010971	1130.7	4.2462e-06	5.0127e-06	1196.7	232.56	3.3729e-06	5.2824e-06	300.68	82.939	65.316	18.656	4.2094e-06	26.92	0.00020822	0.00020057	5.6691e-05	1102.4	2.3314e-06	2.2433e-06	1171.4	229.46	2.3029e-06	2.2624e-06	295.72	83.12	64.881	18.767	2.2759e-06	27.05	180.926	85.590	92.150	38.573	228.756	182.866	39.209	46.055	196.514	178.099	45.576	52.652	52.927	59.044	173.927	58.740	-8191	255	
2501.380	1	1	0	0	0.065469	0.15223	0.16625	0.2732	0.28966	0.13772	0.17861	0.22958	0.063006	0.11057	0.36324	0.074577	0.12614	0.087209	0.12834	0.01259	-2.5104	-2.8583	-2.5417	-3.0146	-2.7521	-2.9604	-3.2458	-2.6479	-3.0021	-3.0667	-2.575	-3.2417	-2.7562	-2.8104	-2.9813	-2.8021	332.739	385.548	56.357	336.470	235.359	292.840	307.713	340.383	61.605	122.327	33.196	87.580	87.835	377.660	166.536	191.936	0.00018472	0.00021724	9.5833e-05	1137.1	4.1137e-06	2.2946e-06	1208.7	233.47	1.7655e-06	7.1845e-07	300.78	83.827	65.305	18.675	3.0768e-06	27.19	0.00021003	0.00020771	5.7911e-05	1108.2	2.3096e-06	2.3052e-06	1180.5	230.55	2.2893e-06	2.3163e-06	296.32	83.372	64.801	18.756	2.2913e-06	27.124	183.338	79.157	106.996	38.640	232.522	142.340	38.765	46.093	219.301	218.229	45.718	52.782	53.048	59.288	138.689	58.789	-8191	255	
2501.476	1	1	0	0	0.1845	0.13458	0.17695	0.17272	0.14446	0.28026	0.2136	0.041281	0.14018	0.068214	0.23506	0.29665	0.10066	0.20852	0.19229	0.21493	-2.3333	-2.8396	-2.4792	-3.0083	-2.8063	-2.6875	-3.1979	-2.7708	-2.7708	-2.9042	-2.75	-2.9708	-2.8375	-2.575	-2.8354	-2.5458	82.030	183.839	113.536	83.907	364.538	153.590	332.326	81.763	341.977	315.288	41.552	214.920	277.858	165.813	49.916	251.426	0.00016199	0.00027908	8.4677e-05	1136.7	4.8005e-06	5.5435e-06	1206	234.39	1.6019e-06	4.4636e-06	300.02	83.354	65.05	18.729	2.7968e-06	27.138	0.00021086	0.00020616	5.8719e-05	1109.3	2.3305e-06	2.32e-06	1180.4	230.79	2.3161e-06	2.253e-06	296.13	83.412	64.811	18.771	2.354e-06	27.174	180.707	97.799	62.104	38.650	183.286	170.341	39.018	46.087	255.343	200.904	45.540	52.822	53.092	58.986	253.469	58.907	-8191	255	
2501.572	1	1	0	0	0.1684	0.10071	0.27991	0.12822	0.15505	0.16939	0.18605	0.40869	0.062939	0.32914	0.27307	0.22144	0.16264	0.19036	0.056628	0.078512	-2.4813	-2.8375	-2.65	-3.0042	-2.825	-2.5396	-3.1375	-2.7375	-2.7917	-2.9958	-2.7104	-2.8542	-2.8458	-2.7	-2.9437	-2.6875	32.031	160.979	166.778	292.668	319.163	234.720	67.455	359.536	298.682	123.549	315.754	274.241	373.876	277.484	77.879	309.565	0.00016284	0.00044239	9.9217e-05	1135.4	5.533e-06	2.5369e-06	1207.6	233.07	2.1984e-06	4.6879e-06	299.94	83.528	65.436	18.768	4.7231e-06	27.055	0.00020906	0.00021234	6.1044e-05	1109.1	2.4376e-06	2.3262e-06	1180.2	230.43	2.3664e-06	2.2869e-06	296.05	83.431	65.136	18.789	2.2744e-06	27.081	190.471	101.318	137.681	38.387	230.081	195.957	38.918	46.210	234.333	154.876	45.615	52.895	52.608	59.584	187.529	58.971	-8191	255	
2501.668	1	1	0	0	0.074678	0.028651	0.12712	0.22255	0.11043	0.25581	0.11604	0.23028	0.19438	0.024156	0.10162	0.017382	0.14768	0.3993	0.17618	0.2666	-2.3438	-2.8542	-2.7188	-2.9062	-2.9813	-2.7083	-2.9604	-2.7167	-2.5667	-2.9333	-2.6437	-2.8542	-2.8083	-2.6375	-3.0563	-2.7854	145.494	229.078	324.705	322.859	42.786	140.755	61.976	41.671	118.049	194.530	239.452	302.269	99.442	371.741	272.587	247.403	0.00013361	0.00020205	0.000126	1133.9	3.2261e-06	3.6782e-06	1206.2	234.59	3.2627e-06	2.9314e-06	300.83	83.479	64.788	18.702	3.7807e-06	27.155	0.00020412	0.00020675	5.8884e-05	1108.1	2.3064e-06	2.2737e-06	1179.1	230.99	2.3596e-06	2.2971e-06	296.38	83.522	64.91	18.83	2.3114e-06	27.155	181.032	119.907	102.063	38.746	191.028	159.960	39.176	45.987	215.172	166.501	45.690	52.491	53.025	59.392	188.361	59.102	-8191	255	
2501.789	1	1	0	0	0.096063	0.18925	0.12575	0.40711	0.26607	0.15156	0.19335	0.25002	0.35799	0.038678	0.2505	0.26233	0.28683	0.11238	0.16574	0.02415	-2.2729	-2.9271	-2.4917	-2.8187	-2.9146	-2.5333	-2.9625	-2.9604	-2.7333	-2.9292	-2.8896	-2.9021	-2.9083	-2.5979	-2.9729	-2.8417	48.568	333.637	190.112	329.755	222.108	363.492	30.586	304.208	279.677	156.445	242.379	358.538	381.943	93.655	48.147	111.539	0.00017172	0.00051923	0.00011852	1138.3	5.8442e-06	2.9395e-06	1208.2	233.6	1.6861e-06	4.8187e-06	301.29	83.946	65.061	18.717	2.6413e-06	26.922	0.00021288	0.00021217	5.7947e-05	1111	2.3871e-06	2.3221e-06	1183.1	230.73	2.3718e-06	2.2999e-06	296.52	83.654	65.058	18.786	2.2951e-06	27.128	189.808	121.515	111.840	38.826	202.132	174.395	38.958	46.091	246.914	200.845	45.478	52.930	53.182	59.481	185.245	59.111	-8191	255	
2501.885	1	1	0	0	0.22859	0.12682	0.11936	0.10291	0.11046	0.10855	0.20608	0.31444	0.19526	0.21822	0.1774	0.063349	0.035321	0.23018	0.2146	0.27821	-2.1979	-2.8167	-2.6333	-2.8375	-2.9125	-2.5979	-2.8937	-2.9917	-2.6042	-2.9625	-2.9521	-2.8563	-2.8167	-2.4854	-2.7917	-2.9562	101.055	54.821	57.697	186.148	211.229	45.340	363.110	337.247	261.487	167.498	39.746	325.468	323.461	350.042	207.288	86.896	0.00015803	0.00022542	9.2066e-05	1136	5.0361e-06	2.5421e-06	1209.7	234.09	3.4843e-06	4.1455e-06	303.01	84.197	65.847	18.72	1.5411e-06	27.178	0.00021502	0.00021775	6.1006e-05	1109.2	2.4528e-06	2.4853e-06	1183.2	230.9	2.4908e-06	2.4957e-06	297.86	83.826	65.445	18.843	2.4772e-06	27.242	171.120	110.814	106.615	38.944	203.756	177.162	39.174	46.031	234.656	212.787	45.668	52.920	53.423	59.000	198.198	58.761	-8191	255	
2501.979	1	1	0	0	0.26678	0.11655	0.15274	0.067169	0.1907	0.11506	0.37316	0.23929	0.046399	0.12839	0.28578	0.12661	0.071251	0.26044	0.23556	0.10679	-2.2167	-2.7792	-2.7854	-2.8792	-2.8417	-2.575	-2.7417	-2.8	-2.7271	-2.9437	-2.8521	-2.6854	-2.8542	-2.6604	-2.7583	-3.0375	81.918	280.898	343.058	223.459	144.363	56.080	288.627	28.724	251.257	166.350	65.591	366.509	358.461	309.473	305.781	60.582	0.00019305	0.00044252	0.00011856	1143.6	3.591e-06	2.7049e-06	1217.7	234.09	2.9518e-06	2.6438e-06	301.1	83.799	65.665	18.753	2.1367e-06	27.017	0.00022062	0.00022501	6.2145e-05	1116.7	2.4418e-06	2.4117e-06	1188.7	231.56	2.4011e-06	2.3638e-06	297.36	83.879	65.336	18.875	2.2534e-06	27.18	184.055	142.070	179.055	38.502	172.222	183.936	38.854	46.214	256.336	142.940	45.678	52.697	52.749	59.637	167.910	58.656	-8191	255	
2502.076	1	1	0	0	0.11094	0.12317	0.093307	0.01499	0.11209	0.2858	0.23257	0.19225	0.12818	0.16052	0.22683	0.35217	0.068482	0.079904	0.29083	0.18455	-2.3083	-2.9021	-2.7667	-2.675	-2.8563	-2.5729	-2.9	-2.8229	-2.4646	-2.7833	-2.8812	-2.5229	-2.9396	-2.7854	-2.7271	-2.8625	386.906	271.570	262.431	363.012	197.825	84.073	327.977	288.048	48.553	121.383	78.277	295.735	139.419	301.497	245.821	39.835	0.00018272	0.00043923	0.00014593	1142.1	5.7137e-06	9.5682e-07	1206.8	234.05	2.3079e-06	2.2413e-06	300.06	83.534	65.289	18.797	2.6174e-06	26.971	0.00020818	0.00020318	5.5048e-05	1110.7	2.1895e-06	2.1658e-06	1178.2	230.31	2.1742e-06	2.1437e-06	295.48	83.302	65.006	18.754	2.1116e-06	26.992	187.299	119.232	102.985	38.649	258.311	254.217	38.956	46.095	215.992	179.660	45.560	52.824	52.590	59.193	210.416	59.593	-8191	255	
2502.172	1	1	0	0	0.216	0.18547	0.14037	0.12586	0.17639	0.18661	0.1455	0.13327	0.17538	0.31251	0.23047	0.068459	0.42446	0.095904	0.26745	0.3974	-2.4083	-3.0187	-2.775	-2.8438	-2.9792	-2.725	-2.9667	-2.9688	-2.4646	-2.9021	-2.8854	-2.7062	-2.8708	-2.7604	-2.7333	-3.0271	127.057	196.196	213.201	295.554	151.756	227.452	384.841	36.211	340.095	201.907	33.253	348.638	320.436	235.220	251.661	351.830	0.00019546	0.00042848	7.1077e-05	1130.4	2.7359e-06	2.6489e-06	1205.9	235.36	2.2862e-06	6.5084e-06	300.97	83.613	65.446	18.697	2.5272e-06	27.282	0.00020332	0.00020542	5.6687e-05	1104	2.3268e-06	2.295e-06	1178	230.87	2.3823e-06	2.3515e-06	296.55	83.555	65.225	18.812	2.4315e-06	27.235	185.854	90.012	149.715	38.796	240.038	177.810	39.037	46.244	208.403	214.997	45.463	52.751	53.051	59.305	192.175	59.001	-8191	255	
2502.268	1	1	0	0	0.19603	0.015203	0.18778	0.26449	0.32165	0.14786	0.22382	0.052243	0.19603	0.1496	0.11093	0.19729	0.046355	0.17986	0.17793	0.28735	-2.3458	-2.7396	-2.8104	-2.7083	-3.0604	-2.9417	-3.0271	-3.1	-2.9208	-2.8438	-3.0042	-2.5354	-2.9083	-2.8187	-2.7313	-2.7271	37.412	53.215	48.233	358.358	139.044	294.819	383.349	314.146	256.483	276.891	132.887	72.378	126.190	224.988	216.238	255.076	0.00020901	0.00027455	0.00012862	1139.8	3.7902e-06	2.6747e-06	1205.9	234.15	2.89e-06	1.2199e-06	300.95	84.035	65.664	18.784	2.111e-06	27.113	0.00022036	0.00021689	6.1409e-05	1112.4	2.4195e-06	2.3693e-06	1181.7	231.26	2.4193e-06	2.3483e-06	296.33	83.615	65.297	18.856	2.3504e-06	27.131	175.844	139.797	116.685	38.750	203.251	177.580	38.775	46.157	201.428	207.993	45.666	52.705	53.412	59.395	258.562	59.023	-8191	255	
2502.364	1	1	0	0	0.10324	0.31996	0.27696	0.16616	0.38547	0.29086	0.14587	0.14646	0.15274	0.34035	0.13319	0.17095	0.090961	0.51293	0.38222	0.099223	-2.5187	-2.7208	-2.7708	-2.8271	-2.775	-2.8333	-2.9292	-2.9625	-2.7917	-2.8375	-3.0958	-2.7125	-2.8083	-3.0292	-2.5312	-2.9854	169.918	45.692	334.919	90.737	55.609	56.082	266.789	375.078	231.573	386.740	313.567	293.099	256.590	37.163	103.006	368.389	0.0001763	0.00034468	7.7301e-05	1135.6	4.4267e-06	4.0009e-06	1201.1	233.42	3.2164e-06	3.082e-06	300.49	83.703	64.846	18.674	1.9579e-06	27.087	0.00021107	0.00020228	5.5887e-05	1106.9	2.2268e-06	2.1278e-06	1175.8	230.25	2.1706e-06	2.0875e-06	295.08	83.353	64.642	18.699	2.1235e-06	26.991	184.384	87.033	127.856	38.755	223.389	139.221	38.956	46.149	211.889	215.937	45.582	52.780	52.947	59.219	218.329	58.385	-8191	255	
2502.485	1	1	0	0	0.1126	0.079688	0.29732	0.22001	0.10664	0.078227	0.21605	0.13951	0.069995	0.18359	0.3157	0.15239	0.24239	0.22692	0.17541	0.36688	-2.3187	-2.6208	-2.9688	-2.8229	-2.8646	-2.8604	-2.8812	-3.1083	-2.7062	-2.8583	-3.1125	-2.6917	-2.7333	-2.8729	-2.7417	-3.1375	172.032	262.635	260.458	54.266	270.671	229.883	302.907	352.957	31.461	270.616	53.535	244.579	64.484	78.681	356.777	45.168	0.00016083	0.00012959	6.3285e-05	1125.1	2.5341e-06	2.5378e-06	1192.9	232.55	2.8172e-06	3.3736e-06	299.06	83.735	64.857	18.72	3.4761e-06	27.06	0.00019672	0.00018903	5.341e-05	1100.1	2.2191e-06	2.1162e-06	1170.1	229.73	2.1499e-06	2.1212e-06	294.32	83.347	64.579	18.726	2.1794e-06	27.002	183.131	89.386	131.330	38.875	188.340	221.210	38.990	46.334	216.741	254.142	45.668	52.641	52.912	59.552	214.039	59.084	-8191	255	
2502.581	1	1	0	0	0.33274	0.16517	0.094876	0.34019	0.22448	0.1453	0.25049	0.14425	0.12493	0.013363	0.34022	0.11106	0.24418	0.19999	0.20165	0.19951	-2.4313	-2.7896	-2.9771	-2.8458	-2.7542	-2.9417	-2.9	-2.9625	-2.7792	-2.8083	-3.0167	-2.8021	-2.7896	-3.0083	-2.8063	-2.8417	195.898	332.750	48.998	353.212	28.937	56.465	313.647	263.205	303.210	296.439	291.223	340.823	378.923	327.052	338.980	367.310	0.000162	0.00039355	9.834e-05	1130.9	2.6528e-06	2.7114e-06	1197.4	232.61	2.8582e-06	3.4332e-06	299.68	83.482	64.893	18.728	2.5713e-06	26.9	0.00020447	0.00019817	5.3602e-05	1098.2	2.1931e-06	2.1444e-06	1168.9	229.31	2.218e-06	2.1965e-06	294.63	83.276	64.659	18.723	2.2501e-06	27.003	170.896	97.228	99.324	38.545	250.795	211.875	39.102	46.169	226.229	169.426	45.377	52.925	52.943	59.467	217.121	59.223	-8191	255	
2502.677	1	1	0	0	0.11046	0.14045	0.22387	0.20413	0.11418	0.15838	0.10281	0.10199	0.29343	0.1471	0.27525	0.04161	0.038573	0.14148	0.14062	0.040229	-2.3646	-2.6292	-2.9375	-2.7875	-2.75	-3.0812	-2.6521	-3.0229	-2.9083	-2.6917	-3.0083	-2.7625	-2.6833	-2.9792	-2.6229	-2.9813	213.038	101.622	274.461	102.223	253.414	35.328	225.944	231.729	203.607	69.271	212.405	275.495	130.016	40.123	103.158	86.808	0.00019947	0.00015834	0.00012534	1116.6	3.1704e-06	2.0086e-06	1192.5	231.46	4.083e-06	2.9285e-06	299.49	83.345	64.933	18.612	3.0895e-06	26.715	0.0001984	0.00019391	5.5885e-05	1092.2	2.2222e-06	2.1476e-06	1161.8	229.07	2.1678e-06	2.1611e-06	293.72	82.865	64.515	18.666	2.18e-06	26.912	181.767	136.385	106.769	38.760	246.243	198.233	39.057	46.059	205.483	224.063	45.634	52.732	53.205	59.581	221.042	58.636	-8191	255	
2502.773	1	1	0	0	0.1493	0.23201	0.11397	0.14775	0.060301	0.20506	0.12228	0.1498	0.12429	0.20052	0.23035	0.18049	0.11204	0.18146	0.17388	0.063474	-2.3521	-2.6354	-2.7938	-2.8042	-2.725	-2.8729	-2.7625	-2.8604	-2.7854	-2.5375	-2.9646	-2.775	-2.6562	-2.8563	-2.5604	-2.8625	348.817	244.931	335.996	32.924	159.264	35.593	172.741	283.538	313.553	275.757	59.421	284.440	262.855	362.675	302.527	275.754	0.00017056	0.00026028	6.894e-05	1118	5.3962e-06	2.6472e-06	1190.4	231.7	1.1627e-06	2.5183e-06	299.5	83.238	65.378	18.801	2.52e-06	27.184	0.0002006	0.00019894	5.7469e-05	1092.7	2.2794e-06	2.2542e-06	1162.4	229.01	2.3695e-06	2.298e-06	294.62	82.981	64.931	18.814	2.3954e-06	27.134	174.817	91.202	172.273	38.892	209.341	99.347	39.111	46.151	173.150	173.184	45.494	52.613	52.808	59.566	150.860	59.085	-8191	255	
2502.868	1	1	0	0	0.11161	0.34184	0.26758	0.26648	0.16476	0.19235	0.39928	0.19685	0.13739	0.055425	0.32068	0.1517	0.048092	0.32421	0.21297	0.12107	-2.5042	-2.5604	-2.9688	-2.8667	-2.6875	-2.8312	-2.7417	-2.7875	-2.8063	-2.5146	-2.8854	-2.7042	-2.7708	-2.9958	-2.6583	-2.9021	294.475	78.450	173.179	387.081	189.344	227.916	316.900	228.629	321.123	355.906	320.665	385.836	131.712	343.124	270.121	278.398	0.00020502	0.00030136	6.8416e-05	1133.6	3.1163e-06	3.7539e-06	1199.8	234.08	2.9684e-06	5.3797e-06	301.05	83.823	65.378	18.644	2.343e-06	27.169	0.0002234	0.00021895	6.0272e-05	1102.1	2.4733e-06	2.3845e-06	1173.8	230.94	2.482e-06	2.4338e-06	296.02	83.717	65.199	18.823	2.4115e-06	27.162	183.297	146.551	106.047	38.894	249.439	151.316	38.771	46.102	206.149	196.324	45.496	52.463	53.047	59.550	162.699	58.849	-8191	255	
2502.964	1	1	0	0	0.10413	0.19235	0.21979	0.11331	0.31066	0.26815	0.18477	0.25793	0.27591	0.11304	0.22803	0.14044	0.13287	0.14282	0.16808	0.34722	-2.6292	-2.6833	-2.7021	-2.9458	-2.4562	-3.1042	-2.8979	-2.8729	-2.8625	-2.6771	-2.9625	-2.9062	-2.7	-2.8833	-2.85	-2.8688	194.027	125.870	127.734	65.028	229.200	52.044	318.218	334.240	138.613	375.193	263.689	298.844	228.226	47.025	349.245	255.686	0.00016424	0.00038941	1.9417e-05	1135.2	2.9626e-06	6.0393e-06	1204	234.66	1.5764e-06	6.2641e-06	301.74	83.616	65.682	18.881	6.8985e-07	27.354	0.00021889	0.00022106	6.1194e-05	1107.5	2.5188e-06	2.4756e-06	1179.9	231.76	2.4762e-06	2.4844e-06	296.68	83.802	65.529	18.93	2.4602e-06	27.233	184.883	72.269	109.279	38.632	206.314	195.815	39.208	46.066	187.449	210.370	45.343	52.686	53.140	59.045	246.712	58.982	-8191	255	
2503.060	1	1	0	0	0.10689	0.28084	0.041548	0.4511	0.10352	0.05657	0.18879	0.08203	0.16394	0.16645	0.13529	0.17917	0.17057	0.1451	0.12766	0.097013	-2.5396	-2.6188	-2.925	-3.075	-2.5625	-2.7896	-2.9875	-2.7917	-2.8438	-2.6521	-2.8417	-2.9479	-2.5667	-3.0229	-2.6813	-2.7833	78.205	237.701	160.965	316.819	343.336	287.316	36.781	32.652	287.807	375.665	113.625	343.128	69.689	67.475	267.603	142.822	0.00021632	0.00033241	8.794e-05	1130.5	5.0056e-06	4.7322e-06	1204.1	234.21	3.1738e-06	2.2939e-06	300.86	83.655	66.007	18.839	1.384e-06	27.078	0.00021887	0.00021846	6.1936e-05	1105.2	2.4735e-06	2.3739e-06	1175.2	231.27	2.4326e-06	2.3749e-06	296.47	83.708	65.263	18.919	2.3759e-06	27.126	182.719	116.181	72.094	38.742	214.684	169.794	38.786	46.268	189.393	110.575	45.213	52.656	53.074	59.564	172.990	58.637	-8191	255	
2503.156	1	1	0	0	0.22288	0.091696	0.16211	0.23355	0.13165	0.14722	0.16115	0.18697	0.25583	0.13903	0.14285	0.16653	0.072668	0.050363	0.16664	0.050408	-2.5729	-2.5771	-2.8271	-3.0563	-2.6458	-2.8271	-2.8979	-2.6937	-2.9	-2.6125	-2.8583	-3.0583	-2.6896	-3.1146	-2.9854	-2.8542	352.364	211.399	94.269	314.280	224.459	363.371	247.626	382.189	333.420	214.290	267.810	73.519	332.834	32.894	150.873	374.825	0.00016989	0.00021933	3.7245e-05	1132.1	2.7213e-06	2.3039e-06	1196.2	233.81	3.6098e-06	4.484e-06	301.13	84.041	65.78	18.982	4.0209e-06	27.098	0.00021514	0.00021721	5.9587e-05	1105.3	2.4905e-06	2.388e-06	1172	231.4	2.4654e-06	2.4521e-06	297.19	83.707	65.332	18.956	2.4193e-06	27.162	178.950	117.085	384.860	38.727	204.082	167.109	39.026	45.984	230.578	220.184	45.458	52.665	53.356	59.075	160.906	59.072	-8191	255	
2503.277	1	1	0	0	0.051265	0.22763	0.12789	0.28301	0.12896	0.060435	0.29793	0.21696	0.33403	0.27183	0.10354	0.18112	0.15178	0.20259	0.18495	0.075295	-2.5187	-2.7917	-2.8312	-3.1917	-2.8688	-2.9542	-2.8333	-2.7521	-2.9375	-2.7521	-2.8479	-3.0229	-2.6729	-2.9229	-2.8438	-2.675	182.189	105.263	178.124	32.581	129.923	135.548	332.668	315.737	225.433	226.374	345.075	156.642	48.976	291.612	145.446	103.547	0.00019122	0.00038626	0.00011106	1126.2	6.5766e-06	3.0952e-06	1194.4	234.76	1.4968e-06	2.6559e-06	302.18	83.988	65.685	18.936	9.9109e-07	27.097	0.00022576	0.00022078	6.1147e-05	1099.8	2.4886e-06	2.367e-06	1171.7	231.64	2.4589e-06	2.3644e-06	296.86	83.705	65.188	18.987	2.3644e-06	27.16	184.416	148.601	149.662	38.847	209.813	241.847	38.865	46.070	213.161	198.048	45.604	52.681	53.188	59.367	161.202	59.101	-8191	255	
2503.371	1	1	0	0	0.24599	0.071844	0.12214	0.32013	0.053878	0.17548	0.2817	0.046283	0.1609	0.05788	0.15091	0.19456	0.075434	0.15114	0.12434	0.085875	-2.6	-2.975	-2.7042	-3.0875	-2.6375	-2.7667	-2.8979	-2.7708	-3.0062	-2.7104	-2.8646	-3.1375	-2.7604	-2.675	-2.9896	-2.7333	188.214	54.374	291.644	383.528	89.415	235.060	320.997	35.599	379.513	269.780	63.840	63.776	111.183	59.357	208.780	31.313	0.0001797	0.00065277	5.4422e-05	1130.4	4.0132e-06	2.6625e-06	1199.2	234.99	4.672e-06	4.4972e-06	301.73	84.353	65.473	18.961	1.6765e-06	27.073	0.00022164	0.00021403	6.1373e-05	1101.6	2.4635e-06	2.4352e-06	1172	231.96	2.4698e-06	2.4512e-06	296.81	83.847	65.307	18.989	2.4772e-06	27.225	177.825	104.442	97.561	38.638	248.345	217.546	39.022	46.062	201.676	211.558	45.543	52.673	52.544	59.378	150.387	59.150	-8191	255	
2503.467	1	1	0	0	0.087708	0.22031	0.15221	0.35201	0.2076	0.1419	0.11859	0.14755	0.15262	0.19908	0.25493	0.26421	0.16333	0.2106	0.16538	0.20088	-2.5208	-2.7854	-2.5271	-3.1104	-2.6792	-2.7104	-3.2083	-2.5333	-3.0104	-2.875	-2.7229	-3.0854	-2.8292	-2.8604	-2.8917	-2.7479	84.590	52.455	178.892	347.226	314.359	378.840	286.573	353.424	49.640	36.599	366.968	378.985	370.963	385.656	89.157	339.332	0.00015813	0.00056042	7.8756e-05	1135	6.1163e-06	3.3003e-06	1205.6	234.45	2.1081e-06	3.2857e-06	301.51	83.706	65.664	19.008	1.7901e-06	27.091	0.00022914	0.00022762	6.3621e-05	1106.3	2.5569e-06	2.4904e-06	1177.1	232.16	2.5629e-06	2.4543e-06	297.17	83.771	65.512	19.032	2.4215e-06	27.136	179.699	129.254	145.053	38.685	185.353	167.415	38.920	45.928	224.253	193.868	45.649	52.729	53.047	59.231	259.830	58.801	-8191	255	
2503.563	1	1	0	0	0.11347	0.16299	0.13429	0.1575	0.0406	0.050192	0.20888	0.28825	0.09344	0.26322	0.11245	0.31803	0.052548	0.092088	0.29655	0.09917	-2.4833	-2.8417	-2.5729	-2.9938	-2.8875	-2.8896	-3.1875	-2.7687	-2.7583	-2.9021	-2.6458	-2.9604	-2.7	-2.7375	-3.0208	-2.7083	146.545	332.240	88.025	47.891	82.137	367.051	305.681	355.931	125.286	81.793	366.895	353.344	221.222	77.245	184.368	42.151	0.00016942	0.00035968	1.3791e-05	1135.6	4.6127e-06	1.7189e-06	1199.7	235.72	3.1283e-06	3.9661e-06	302.25	84.492	65.698	18.818	2.2868e-06	26.911	0.00022197	0.00022021	6.2356e-05	1106.1	2.4603e-06	2.3769e-06	1174.3	232.5	2.4338e-06	2.4207e-06	297.48	84.029	65.471	18.947	2.405e-06	27.12	183.848	80.858	28.939	38.673	248.267	192.677	39.094	46.020	210.695	168.125	45.578	52.612	53.127	59.175	192.654	59.188	-8191	255	
2503.659	1	1	0	0	0.093033	0.29795	0.21666	0.34036	0.22243	0.18466	0.19903	0.33567	0.31565	0.14713	0.051254	0.39489	0.15565	0.25696	0.24583	0.01374	-2.3104	-2.7333	-2.6542	-3.025	-2.6917	-2.7292	-3.3812	-2.8875	-2.7396	-3.0854	-2.6729	-2.9208	-2.9271	-2.8167	-2.9083	-2.7021	164.049	141.737	57.236	372.931	65.634	281.103	309.007	385.019	64.333	141.978	380.650	348.931	237.224	371.198	129.285	39.719	0.00017852	0.00062185	0.00015435	1132.4	3.4657e-06	2.1415e-06	1201.1	234.48	2.4038e-06	1.786e-06	302.59	84.054	65.88	18.882	3.046e-06	27.152	0.00022236	0.00022492	6.0095e-05	1105.4	2.5369e-06	2.4911e-06	1175.8	232.63	2.5781e-06	2.4925e-06	297.4	83.941	65.488	19.025	2.5131e-06	27.229	186.996	113.125	145.107	38.582	239.269	138.806	39.021	46.257	203.911	161.139	45.364	52.518	52.898	59.605	187.519	58.823	-8191	255	
2503.756	1	1	0	0	0.26134	0.043617	0.17114	0.16268	0.060657	0.18269	0.29786	0.10498	0.21863	0.022508	0.14313	0.098563	0.038586	0.2338	0.10143	0.23425	-2.3021	-2.8021	-2.4833	-3.1083	-2.8229	-2.6667	-3.025	-2.85	-2.8438	-2.95	-2.6917	-2.7396	-2.7229	-2.5333	-2.9854	-2.7062	137.681	375.205	82.921	199.048	147.406	32.478	358.500	124.783	186.478	371.166	299.237	136.314	97.908	175.098	384.542	33.873	0.00017746	0.00041502	0.00022873	1132.5	3.1752e-06	3.8169e-06	1204.8	234.9	1.9982e-06	2.484e-06	301.62	84.018	65.507	19.113	2.894e-06	27.169	0.00022471	0.00022265	6.4485e-05	1107.2	2.5244e-06	2.5051e-06	1179.2	232.75	2.4757e-06	2.421e-06	297.12	83.886	65.609	19.063	2.438e-06	27.244	189.573	151.704	89.574	38.844	173.815	198.460	38.984	45.862	244.900	201.144	45.698	52.607	52.580	59.366	212.501	58.682	-8191	255	
2503.876	1	1	0	0	0.1365	0.14345	0.11109	0.16905	0.046574	0.12213	0.20654	0.081868	0.10987	0.09901	0.42348	0.12774	0.062912	0.19529	0.20577	0.11487	-2.4708	-2.9167	-2.6375	-2.9417	-2.9229	-2.7208	-3.3042	-2.8771	-2.6917	-2.8792	-2.8937	-2.7938	-2.8708	-2.5687	-2.8917	-2.7021	141.171	84.862	372.423	279.947	28.369	86.225	278.067	363.720	163.728	83.944	320.353	346.054	135.188	316.315	257.497	357.811	0.00017829	0.00028893	0.00013601	1135.3	3.8763e-06	4.6386e-06	1207.6	235.79	2.2176e-06	3.3085e-06	303.32	83.778	66.043	18.746	3.2583e-06	27.209	0.00022133	0.0002259	6.2606e-05	1108.7	2.4807e-06	2.4625e-06	1178.8	232.5	2.5072e-06	2.4456e-06	297.75	83.971	65.63	18.985	2.3989e-06	27.172	194.511	112.222	106.287	38.720	193.598	200.698	38.915	46.010	209.181	205.196	45.637	52.857	52.892	58.788	145.442	58.848	-8191	255	
2503.972	1	1	0	0	0.21336	0.060587	0.16084	0.22924	0.25677	0.19776	0.090839	0.31957	0.18986	0.26098	0.2706	0.073523	0.086885	0.21706	0.14556	0.093514	-2.1625	-2.8688	-2.6063	-2.9146	-2.8937	-2.6625	-2.9708	-2.8625	-2.5208	-2.8979	-2.7146	-2.9042	-3.0271	-2.6208	-2.9688	-2.9875	252.847	210.691	109.253	315.293	78.125	274.145	333.212	309.169	175.731	190.746	317.661	381.814	28.114	343.795	377.230	286.307	0.00018933	0.00028553	0.00013394	1139.3	2.1235e-06	3.6518e-06	1203.7	234.82	3.551e-06	3.6691e-06	302.89	83.684	65.983	18.808	3.1125e-06	27.13	0.00021473	0.0002151	5.9248e-05	1110	2.3632e-06	2.3021e-06	1178.1	232.42	2.3997e-06	2.2822e-06	297.82	83.935	65.676	18.996	2.338e-06	27.115	183.254	103.958	64.740	38.709	234.096	183.446	38.981	46.014	204.523	214.271	45.606	52.463	53.277	59.412	229.224	59.061	-8191	255	
2504.044	1	1	0	0	0.13427	0.083081	0.10995	0.34559	0.072676	0.21981	0.20421	0.21591	0.12174	0.11951	0.02949	0.24993	0.094553	0.13555	0.041083	0.18753	-2.1562	-2.9021	-2.5875	-2.8521	-3.0208	-2.7125	-3.0062	-3.0125	-2.7562	-2.7958	-2.7604	-2.75	-2.8833	-2.7417	-2.9021	-2.8896	261.081	331.836	79.597	341.877	150.078	110.257	258.014	64.663	220.627	368.630	187.302	269.409	285.274	369.997	386.776	375.567	0.00016658	0.00021535	5.6068e-05	1137.4	5.386e-06	4.2847e-06	1207	234.53	2.6694e-06	1.339e-06	302.97	84.02	65.825	19.009	2.5511e-06	27.094	0.00021275	0.00020906	5.8542e-05	1107.1	2.3918e-06	2.3286e-06	1178.8	232.21	2.3848e-06	2.327e-06	297.34	83.866	65.565	19.05	2.3132e-06	27.249	172.347	186.962	77.303	38.761	204.003	176.425	39.009	46.018	219.968	176.270	45.538	52.532	52.841	59.422	126.202	58.871	-8191	255	
2504.140	1	1	0	0	0.21094	0.19514	0.22415	0.22489	0.05482	0.13546	0.13083	0.15066	0.18314	0.1408	0.27301	0.37497	0.057867	0.22088	0.18607	0.26355	-2.1937	-2.6417	-2.8146	-2.825	-3.0542	-2.6625	-3.0438	-2.9896	-2.6271	-2.9979	-2.9667	-2.475	-3.0229	-2.4958	-2.8771	-2.9104	241.626	330.200	192.532	375.413	273.022	331.804	206.529	29.357	136.594	33.178	284.726	305.141	104.973	362.938	51.006	358.627	0.0001972	0.00029185	6.1791e-05	1136.9	4.3357e-06	1.8764e-06	1207.7	235.2	3.8117e-06	3.5377e-06	302.83	84.464	65.979	18.898	2.9227e-06	27.242	0.0002152	0.00021261	5.9515e-05	1109.2	2.3589e-06	2.3615e-06	1181.2	232.55	2.4282e-06	2.4344e-06	297.57	84.277	65.731	19.08	2.4476e-06	27.278	182.633	129.642	117.786	38.706	216.598	75.508	38.993	46.093	178.552	163.031	45.300	52.384	53.436	58.952	213.722	58.744	-8191	255	
2504.259	1	1	0	0	0.052387	0.17671	0.058353	0.36445	0.15721	0.19774	0.22409	0.23257	0.1449	0.22347	0.12205	0.24614	0.14831	0.043321	0.078593	0.069428	-2.0396	-2.9375	-2.6667	-2.7854	-3.0812	-2.7979	-2.9	-2.9708	-2.4167	-2.9146	-3.0542	-2.725	-3.0021	-2.7917	-2.8833	-2.9354	308.236	53.064	334.856	337.183	108.135	126.865	316.071	363.946	381.246	287.140	40.801	127.716	382.676	201.608	54.522	91.183	0.0001781	0.00023465	7.1278e-05	1140.7	4.0858e-06	1.2262e-06	1205.6	236.46	2.0896e-06	4.5313e-06	301.88	83.964	65.803	18.936	2.2502e-06	27.228	0.00022736	0.00022169	6.3681e-05	1111.3	2.5008e-06	2.4885e-06	1180.7	233.04	2.4818e-06	2.4887e-06	298.09	83.98	65.619	19.037	2.464e-06	27.246	183.156	96.595	131.980	38.751	201.321	202.406	38.887	46.000	170.768	233.287	45.673	52.714	53.287	59.304	230.582	58.990	-8191	255	
2504.355	1	1	0	0	0.44675	0.14614	0.2902	0.38168	0.14818	0.42191	0.17725	0.16795	0.10785	0.24109	0.12915	0.25531	0.11485	0.13067	0.037567	0.20627	-2.15	-2.7687	-2.7375	-2.6771	-2.9708	-2.8646	-2.7917	-2.9771	-2.7417	-2.9729	-2.9562	-2.6458	-2.8563	-2.7687	-2.6458	-2.8083	213.407	255.619	165.971	351.551	95.502	386.511	290.639	350.537	101.344	29.254	28.885	353.252	54.890	356.529	80.739	134.597	0.00018456	0.00043619	0.00011017	1135.3	2.4969e-06	2.6712e-06	1207.6	236.45	1.3248e-06	4.3488e-06	302.28	83.711	65.554	18.989	3.2406e-06	27.264	0.00022587	0.00022482	6.2563e-05	1109.9	2.5342e-06	2.4903e-06	1180.7	232.96	2.5028e-06	2.4639e-06	297.54	83.997	65.708	19.043	2.469e-06	27.246	187.064	113.060	97.276	38.953	239.498	206.747	39.224	46.090	229.695	188.856	45.562	52.739	53.121	59.424	137.173	59.161	-8191	255	
2504.451	1	1	0	0	0.14817	0.22499	0.11435	0.13352	0.094779	0.21366	0.14979	0.13469	0.13135	0.13117	0.57262	0.098594	0.17387	0.3947	0.31614	0.12878	-2.2687	-2.6833	-2.8771	-2.6688	-2.7542	-2.8771	-2.8896	-3.0375	-2.6521	-2.9167	-2.9354	-2.6729	-3.0292	-2.9021	-2.7812	-2.9417	117.330	290.868	248.630	265.090	214.515	281.487	89.458	357.790	241.043	386.745	343.971	277.497	386.139	33.552	371.291	68.753	0.00018912	0.00030473	0.00010057	1134.5	4.988e-06	2.6834e-06	1205.8	236.01	1.2494e-06	5.7661e-06	301.79	83.935	65.866	18.945	3.9969e-06	27.087	0.00022044	0.0002208	6.0654e-05	1107.9	2.5159e-06	2.4207e-06	1179.2	233.08	2.4575e-06	2.4405e-06	297.19	84.032	65.505	19.012	2.4605e-06	27.181	189.424	54.725	168.449	38.856	213.920	129.514	39.087	46.091	192.670	208.969	45.956	52.837	53.149	59.453	240.681	58.662	-8191	255	
2504.548	1	1	0	0	0.07395	0.058133	0.047954	0.33299	0.16958	0.090795	0.30787	0.29462	0.23456	0.20605	0.12998	0.093546	0.19286	0.22412	0.12717	0.25968	-2.2979	-2.7104	-2.8542	-2.7708	-2.9562	-2.8625	-2.7646	-3.0271	-2.8479	-2.8958	-3.2229	-2.7708	-2.9125	-2.8625	-2.5521	-3.0667	327.530	97.603	293.222	339.926	216.824	226.376	316.347	286.605	80.119	321.167	289.291	372.698	82.567	111.153	345.782	345.817	0.00017717	0.00032284	0.00010717	1135.6	4.5491e-06	3.2782e-06	1204.3	235.35	4.1306e-06	2.0744e-06	301.91	84.073	65.718	18.98	2.2952e-06	27.203	0.00021948	0.00021832	6.2998e-05	1108.4	2.489e-06	2.4356e-06	1177.3	232.68	2.5455e-06	2.4958e-06	297.21	84.057	65.726	19.017	2.5541e-06	27.311	197.128	45.196	114.222	38.743	177.649	211.501	39.090	46.118	184.070	237.893	45.527	52.809	53.116	59.143	205.437	59.039	-8191	255	
2504.668	1	1	0	0	0.062836	0.17206	0.16859	0.16361	0.11136	0.13327	0.20737	0.1928	0.13678	0.1447	0.17072	0.057319	0.093494	0.18608	0.21516	0.10248	-2.2229	-2.7438	-2.9521	-2.7917	-2.8417	-2.8083	-2.8604	-2.8979	-2.725	-2.8	-3.1	-2.625	-2.7896	-2.9208	-2.6646	-2.8583	45.974	173.793	181.051	141.765	139.574	140.843	292.895	84.444	178.968	283.733	383.299	101.346	47.044	43.452	168.331	247.747	0.00018121	0.00044542	8.7057e-05	1133.9	2.1322e-06	4.8266e-06	1209.1	236.75	1.905e-06	6.3969e-06	303.37	84.221	65.814	18.84	1.7228e-06	27.398	0.00023001	0.00023327	6.5201e-05	1108	2.5919e-06	2.52e-06	1180.4	233.21	2.5839e-06	2.5342e-06	298.43	84.048	65.57	19.047	2.5826e-06	27.26	193.236	125.323	143.765	38.825	224.624	163.816	39.125	46.051	263.981	205.369	45.521	52.508	53.025	59.492	173.341	58.504	-8191	255	
2504.740	1	1	0	0	0.065444	0.18368	0.2381	0.13425	0.10258	0.083534	0.20014	0.29215	0.29068	0.090321	0.17759	0.19247	0.2671	0.16806	0.22639	0.093837	-2.3438	-2.6792	-3.0458	-2.8063	-3.0021	-2.9333	-2.7562	-2.9938	-2.8563	-2.7	-2.9292	-3.0687	-2.6854	-2.9958	-2.7396	-2.9521	79.204	120.788	321.530	297.405	327.503	92.293	316.393	350.039	283.747	75.393	353.256	197.073	325.220	193.256	311.990	382.523	0.00019555	0.00030849	9.2292e-05	1134.7	3.8836e-06	3.3108e-06	1204.9	236.01	6.6488e-07	4.7456e-06	303.34	84.047	65.965	19.078	3.5571e-06	27.219	0.00023234	0.00023475	6.4768e-05	1109.2	2.5703e-06	2.5383e-06	1179.1	232.97	2.5533e-06	2.5651e-06	298.14	84.151	65.836	19.045	2.5616e-06	27.329	186.759	113.246	174.008	38.796	207.236	143.362	39.037	46.247	291.031	179.468	45.220	52.634	53.276	59.360	192.897	58.811	-8191	255	
2504.836	1	1	0	0	0.32853	0.10043	0.13655	0.063602	0.13387	0.10822	0.30444	0.18823	0.09683	0.074448	0.10179	0.21674	0.26097	0.053781	0.068768	0.095443	-2.3208	-2.7083	-2.7229	-2.7687	-2.7708	-3.0083	-2.6813	-2.8229	-3.0042	-2.6813	-2.9958	-2.8229	-2.7146	-2.9604	-2.6646	-2.9604	281.462	177.410	96.380	290.610	265.333	264.629	327.363	323.117	372.361	289.817	287.634	133.759	306.906	378.068	319.735	111.752	0.00020009	0.00012526	6.1818e-05	1142.3	5.5706e-06	2.764e-06	1204.5	236.79	3.0855e-06	1.9628e-06	301.94	84.026	65.837	19.107	3.7045e-06	27.279	0.00023048	0.00023054	6.1076e-05	1112.5	2.6148e-06	2.4842e-06	1180.7	233.68	2.5629e-06	2.5263e-06	298.06	84.156	65.602	19.065	2.4923e-06	27.294	178.391	113.566	119.156	38.754	189.821	192.295	39.028	46.009	207.442	284.058	45.709	52.739	52.604	59.627	236.033	58.990	-8191	255	
2504.957	1	1	0	0	0.29165	0.12667	0.30418	0.34779	0.16436	0.22207	0.13868	0.28876	0.11868	0.15324	0.086956	0.22504	0.03083	0.09621	0.069956	0.11648	-2.4896	-2.5812	-2.8083	-2.9437	-2.7	-2.8438	-2.8271	-2.9292	-2.9042	-2.6646	-2.9458	-2.6708	-2.75	-3.0271	-2.8875	-2.8312	140.002	288.761	34.419	358.813	62.004	153.435	292.495	351.628	61.878	134.249	259.479	227.005	258.412	52.586	202.333	289.541	0.00020716	0.00038277	6.8087e-05	1142.5	4.0878e-06	1.9734e-06	1210.3	235.69	2.0133e-06	5.057e-06	301.71	84.551	66.027	19.025	4.7612e-07	27.329	0.00022803	0.0002306	6.4545e-05	1115.1	2.5168e-06	2.4796e-06	1183.2	233.38	2.4828e-06	2.5258e-06	297.88	84.316	65.744	19.068	2.5301e-06	27.295	180.219	114.430	136.190	38.786	195.455	155.380	39.012	46.129	226.673	157.793	45.309	52.439	52.701	59.115	164.516	59.210	-8191	255	
2505.053	1	1	0	0	0.049296	0.19185	0.29528	0.22797	0.12019	0.24133	0.22994	0.14412	0.07626	0.055227	0.082246	0.077574	0.055763	0.16122	0.19325	0.14381	-2.4417	-2.6542	-2.8937	-2.9813	-2.6729	-2.95	-2.8312	-2.8875	-2.9292	-2.7354	-2.9437	-2.8292	-2.7313	-3.0208	-2.9354	-2.7625	313.643	70.912	191.594	358.375	63.305	151.205	356.913	252.352	270.271	224.809	286.369	224.804	77.954	227.867	301.690	320.726	0.00018779	0.00040458	9.4238e-05	1141.9	4.0351e-06	3.0286e-06	1209.7	236	3.1985e-06	3.6126e-06	302.11	84.061	65.87	18.861	1.9373e-06	27.207	0.00022419	0.00022592	6.4572e-05	1112.8	2.5517e-06	2.4957e-06	1182.2	233.28	2.5574e-06	2.4605e-06	298.08	84.089	65.71	19.032	2.4825e-06	27.294	182.610	114.719	105.986	38.831	182.212	165.417	38.747	46.080	217.730	178.446	45.622	52.728	52.941	59.408	166.728	59.007	-8191	255	
2505.149	1	1	0	0	0.1189	0.056234	0.23166	0.28602	0.19904	0.1147	0.24828	0.13339	0.28586	0.18044	0.17043	0.24251	0.11392	0.11036	0.078774	0.16101	-2.525	-2.6604	-2.8521	-2.8583	-2.7146	-3.0104	-3.0021	-2.7167	-2.9062	-2.6542	-2.8896	-3.0896	-2.7	-2.9938	-2.8396	-2.6792	293.914	387.486	171.831	34.681	101.028	98.683	311.481	174.688	357.076	321.966	324.509	353.616	247.000	276.570	182.617	168.375	0.00017084	0.00043251	4.5046e-05	1139.9	4.7874e-06	2.6753e-06	1209.9	237.56	2.9214e-06	3.8478e-06	303.01	84.465	65.753	19.026	1.6939e-06	27.104	0.00022884	0.00022816	6.3636e-05	1110.6	2.521e-06	2.5298e-06	1181.5	233.48	2.4871e-06	2.4482e-06	297.9	84.121	65.673	19.057	2.5466e-06	27.197	186.026	70.842	112.955	38.726	149.857	181.312	39.100	45.955	194.235	202.640	45.342	52.449	52.981	59.370	222.584	58.634	-8191	255	
2505.268	1	1	0	0	0.16883	0.28602	0.16138	0.053478	0.13769	0.1663	0.16789	0.35041	0.13937	0.081909	0.18208	0.19096	0.37335	0.055573	0.16672	0.21398	-2.3187	-2.6542	-2.6708	-2.975	-2.5812	-2.8542	-2.95	-2.6667	-3.0583	-2.8542	-2.8333	-2.9021	-2.575	-2.9938	-2.8083	-2.7167	328.809	76.786	65.631	42.238	267.018	110.508	304.224	299.406	237.198	303.389	178.607	366.270	330.993	323.122	32.467	283.116	0.00017229	0.00031944	0.000123	1138.9	3.4878e-06	5.2135e-06	1206.1	236.38	2.0929e-06	7.1436e-07	302.83	84.271	65.767	19.07	1.5135e-06	27.003	0.00022869	0.00022792	6.2738e-05	1112.2	2.5986e-06	2.5137e-06	1182.3	233.31	2.5174e-06	2.5144e-06	298.33	84.198	65.712	19.043	2.4612e-06	27.209	181.986	117.671	139.487	38.693	226.656	141.538	38.967	46.179	242.160	120.086	45.370	52.737	53.184	59.424	114.706	58.990	-8191	255	
2505.341	1	1	0	0	0.20096	0.11368	0.19581	0.045897	0.078278	0.11022	0.28737	0.26042	0.072626	0.069217	0.014295	0.11827	0.3123	0.20684	0.19483	0.031891	-2.6417	-2.6833	-2.8521	-3.1562	-2.6417	-3	-2.7958	-2.8729	-3.0292	-2.7	-2.8979	-3.0312	-2.7042	-3	-2.8312	-2.6188	267.497	292.118	369.454	335.593	211.084	107.639	337.190	314.365	162.151	330.402	342.336	36.519	293.175	342.676	118.708	28.830	0.00018071	0.00034669	9.9907e-05	1139.8	3.0748e-06	4.405e-06	1207	235.5	4.0146e-06	1.3042e-06	304.57	84.214	65.849	18.907	3.1957e-06	26.993	0.0002287	0.00022643	6.3333e-05	1112	2.5404e-06	2.5126e-06	1180.8	233.23	2.5638e-06	2.5158e-06	298.78	84.017	65.732	19.031	2.526e-06	27.204	184.095	96.151	120.306	38.609	206.080	158.184	39.049	46.157	222.579	165.134	45.600	52.299	53.231	59.138	182.291	58.876	-8191	255	
2505.436	1	1	0	0	0.1883	0.18626	0.19895	0.23987	0.11939	0.16587	0.0098986	0.10897	0.28209	0.098012	0.23801	0.038839	0.14861	0.20873	0.17919	0.1008	-2.6333	-2.8396	-2.7521	-3.0187	-2.7208	-2.6979	-3.2021	-2.6396	-2.925	-2.8604	-2.7479	-2.9625	-2.5458	-2.8104	-2.9729	-2.7667	36.112	48.178	224.458	328.937	38.473	240.405	304.605	324.429	54.843	132.584	128.914	95.543	268.091	81.252	211.440	208.344	0.00016845	0.00045149	0.00019945	1139.5	2.72e-06	4.1724e-06	1205.4	236.74	1.7634e-06	2.8004e-06	303.53	84.622	65.646	19.04	4.4009e-06	27.108	0.00022929	0.00023021	6.5728e-05	1110.6	2.6235e-06	2.5309e-06	1180.2	233.63	2.631e-06	2.5409e-06	298.08	84.354	65.675	19.07	2.549e-06	27.217	188.007	101.115	114.134	38.690	206.580	177.254	38.907	46.100	256.378	269.674	45.582	52.761	53.296	59.178	199.200	59.085	-8191	255	
2505.556	1	1	0	0	0.28345	0.10094	0.27882	0.16414	0.060922	0.034133	0.22651	0.10644	0.14832	0.26346	0.18325	0.061505	0.068764	0.032585	0.052398	0.076851	-2.4625	-2.7687	-2.4708	-3.0104	-2.7021	-2.7729	-2.9125	-2.6667	-2.9854	-2.95	-2.8104	-2.9979	-2.6292	-2.6562	-2.9896	-2.5958	139.093	110.767	69.394	292.678	260.485	173.198	319.322	369.538	281.248	88.036	347.291	230.625	203.986	374.158	204.623	287.589	0.00017901	0.0004932	0.00012171	1139	1.9299e-06	2.0161e-06	1210.9	235.28	2.1459e-06	3.9008e-06	303.88	84.964	65.722	18.98	4.1457e-06	27.4	0.00023386	0.0002325	6.7021e-05	1110.8	2.621e-06	2.5804e-06	1183	233.14	2.6104e-06	2.549e-06	298.51	84.471	65.758	19.019	2.5277e-06	27.386	187.392	134.324	91.992	38.813	207.625	252.478	38.928	45.972	200.621	198.933	45.439	52.901	53.110	59.239	164.109	59.286	-8191	255	
2505.652	1	1	0	0	0.10167	0.16869	0.10046	0.037082	0.23458	0.11573	0.18032	0.19351	0.27186	0.20985	0.29128	0.13847	0.21712	0.30535	0.25132	0.20899	-2.4958	-2.6875	-2.7083	-3.0208	-2.7958	-2.7875	-3.1188	-2.7604	-2.7854	-2.9979	-2.7771	-2.8667	-2.8271	-2.6583	-3.0375	-2.7021	218.962	57.267	351.794	318.876	142.443	38.703	360.515	256.859	31.952	47.120	360.064	306.393	188.538	336.041	260.094	385.494	0.00017068	0.0001206	4.6282e-05	1142.1	3.9258e-06	2.4088e-06	1207.4	235.43	1.3671e-06	2.5202e-06	302.82	84.116	65.886	18.905	2.2536e-06	27.147	0.0002296	0.00023226	6.5451e-05	1113.7	2.5557e-06	2.5269e-06	1182.3	233.15	2.6253e-06	2.5822e-06	297.95	84.214	65.699	19.062	2.5623e-06	27.246	177.214	142.889	156.539	38.517	212.398	150.238	38.902	46.100	249.842	177.309	45.459	52.692	53.547	59.220	159.258	58.880	-8191	255	
2505.749	1	1	0	0	0.062561	0.18671	0.1228	0.38869	0.33548	0.1079	0.23087	0.26013	0.12215	0.18141	0.12337	0.067494	0.13753	0.123	0.11113	0.075675	-2.3292	-3.0396	-2.6	-3.0958	-2.7167	-2.8417	-3.025	-2.8167	-2.8333	-3.0687	-2.6292	-3.0062	-2.7771	-2.7542	-3.0938	-2.7979	336.473	124.226	236.461	325.788	257.393	68.119	205.218	231.570	233.422	32.899	300.928	282.713	296.956	40.059	152.786	315.126	0.0001662	0.00024494	8.8581e-05	1141.1	1.8418e-06	2.1764e-06	1213	237.43	2.0505e-06	4.234e-06	302.34	84.273	66.15	19.006	4.4815e-06	27.204	0.00023262	0.00023666	6.5937e-05	1115.4	2.6201e-06	2.5813e-06	1183.1	234.04	2.5707e-06	2.5729e-06	298.47	84.272	65.771	19.077	2.6123e-06	27.31	181.940	143.650	120.943	38.796	250.786	118.422	38.959	46.266	225.804	168.138	45.624	52.880	53.059	59.573	193.762	58.750	-8191	255	
2505.845	1	1	0	0	0.19288	0.093463	0.11647	0.34016	0.10667	0.11034	0.32828	0.18023	0.027832	0.082236	0.35206	0.20317	0.19344	0.099021	0.22865	0.28134	-2.3375	-2.8875	-2.6417	-3.0104	-2.8646	-2.7333	-3.05	-2.8417	-2.6583	-3.0812	-2.6625	-3	-2.8042	-2.6813	-2.925	-2.8708	338.713	203.952	378.865	312.469	228.557	350.405	296.602	237.694	108.525	328.845	259.544	345.925	381.838	232.457	291.363	126.070	0.0001679	0.00016418	0.00016338	1142.4	2.2544e-06	3.9671e-06	1209.6	236.37	2.3793e-06	7.3921e-07	303.5	84.742	65.563	18.958	3.4103e-06	27.087	0.00023632	0.00023441	6.5029e-05	1114.7	2.6313e-06	2.5553e-06	1184.2	233.32	2.5986e-06	2.5755e-06	298.72	84.519	65.573	19.043	2.5702e-06	27.276	175.708	70.852	98.405	38.717	205.512	177.506	39.142	45.935	254.671	154.592	45.287	52.663	53.311	59.353	178.733	58.696	-8191	255	
2505.965	1	1	0	0	0.18334	0.13289	0.062138	0.30575	0.29194	0.37191	0.14648	0.085989	0.35688	0.022213	0.05946	0.18691	0.17472	0.079208	0.12378	0.17021	-2.4604	-2.875	-2.6542	-2.9625	-2.8125	-2.675	-3.1354	-2.9917	-2.7271	-3.0896	-2.9083	-2.8021	-2.9313	-2.7104	-2.8875	-2.7917	230.570	47.116	362.878	328.386	348.975	131.194	357.214	377.346	221.445	369.697	296.228	72.844	250.149	336.509	362.676	336.257	0.00019507	0.00053278	0.00013768	1141.1	2.9332e-06	8.6804e-07	1212.5	236.1	3.424e-06	4.0706e-06	302.08	84.376	65.126	18.984	1.0567e-06	27.163	0.00023301	0.00023363	6.5878e-05	1113.4	2.6101e-06	2.5651e-06	1184.7	233.77	2.5588e-06	2.5092e-06	298.39	84.186	65.462	19.074	2.5371e-06	27.274	175.902	112.813	147.119	38.602	175.428	334.793	39.265	45.958	172.673	182.745	45.427	52.657	53.171	59.429	218.507	58.922	-8191	255	
2506.037	1	1	0	0	0.096347	0.042587	0.13031	0.1335	0.12255	0.10841	0.085227	0.091173	0.096128	0.056563	0.18122	0.089545	0.094855	0.29423	0.034724	0.096431	-2.4208	-2.9042	-2.7229	-2.9583	-2.95	-2.5812	-3.1	-2.9729	-2.6937	-3.1	-2.5938	-2.9292	-3.025	-2.7958	-2.9958	-2.8583	209.254	97.784	315.469	320.634	368.401	380.886	348.723	362.822	362.662	173.322	30.839	250.644	152.519	376.996	311.014	54.192	0.00016412	0.00020011	1.5398e-05	1143.7	2.4796e-06	2.8791e-06	1209.2	235.48	2.6309e-06	2.6159e-06	303.1	83.612	65.848	18.939	3.2252e-06	27.363	0.00023168	0.00023085	6.412e-05	1114.5	2.591e-06	2.5777e-06	1184.3	233.23	2.5819e-06	2.5237e-06	298.68	83.935	65.853	19.048	2.5557e-06	27.381	186.778	122.726	77.930	38.653	156.992	98.124	38.830	46.009	218.198	187.322	45.844	52.649	53.146	59.649	208.738	58.952	-8191	255	
#DATA ENDS
