BOXY.EXE: ISS Imagent and Oximeter Data Acquisition Program Version 0.80
Ascii Record File

#ACQ INFORMATION
2  Detector Channels 
16  External MUX Channels 
1  Auxiliary Channels 
5000  Waveform (CCF) Frequency (Hz)
1  Waveforms Skipped 
30  Waveforms Averaged 
1  Cycles Averaged 
16  Acquisitions per Waveform 
10.0806  Updata Rate (Hz) 

#FILE INFORMATION
TRUE -- External MUX Channel results are PARSED.
FALSE -- AC DC and Phase are NOT grouped.
TRUE -- Companion Program Settings File CREATED.
FALSE -- AC data not excluded
FALSE -- DC data not excluded
FALSE -- Phase data not excluded
FALSE -- Auxillary Chn. data not excluded
Tab delimiters

#CALIBRATION STATE
TRUE -- Waveform Calibration Values APPLIED.


#AUX CALIBRATION VALUES
Val Type	aux-1	

Term	1.0000e+00	
Factor	0.0000e+00	


#WF CALIBRATION VALUES
A = Detector Channel
Val Type	A-AC1	A-AC2	A-AC3	A-AC4	A-AC5	A-AC6	A-AC7	A-AC8	A-AC9	A-AC10	A-AC11	A-AC12	A-AC13	A-AC14	A-AC15	A-AC16	A-DC1	A-DC2	A-DC3	A-DC4	A-DC5	A-DC6	A-DC7	A-DC8	A-DC9	A-DC10	A-DC11	A-DC12	A-DC13	A-DC14	A-DC15	A-DC16	A-Ph1	A-Ph2	A-Ph3	A-Ph4	A-Ph5	A-Ph6	A-Ph7	A-Ph8	A-Ph9	A-Ph10	A-Ph11	A-Ph12	A-Ph13	A-Ph14	A-Ph15	A-Ph16	

Term	0.00000e+00	0.00000e+00	0.00000e+00	0.00000e+00	0.00000e+00	0.00000e+00	0.00000e+00	0.00000e+00	0.00000e+00	0.00000e+00	0.00000e+00	0.00000e+00	0.00000e+00	0.00000e+00	0.00000e+00	0.00000e+00	0.00000e+00	0.00000e+00	0.00000e+00	0.00000e+00	0.00000e+00	0.00000e+00	0.00000e+00	0.00000e+00	0.00000e+00	0.00000e+00	0.00000e+00	0.00000e+00	0.00000e+00	0.00000e+00	0.00000e+00	0.00000e+00	0.00000e+00	0.00000e+00	0.00000e+00	0.00000e+00	0.00000e+00	0.00000e+00	0.00000e+00	0.00000e+00	0.00000e+00	0.00000e+00	0.00000e+00	0.00000e+00	0.00000e+00	0.00000e+00	0.00000e+00	0.00000e+00	
Factor	1.00000e+00	1.00000e+00	1.00000e+00	1.00000e+00	1.00000e+00	1.00000e+00	1.00000e+00	1.00000e+00	1.00000e+00	1.00000e+00	1.00000e+00	1.00000e+00	1.00000e+00	1.00000e+00	1.00000e+00	1.00000e+00	1.00000e+00	1.00000e+00	1.00000e+00	1.00000e+00	1.00000e+00	1.00000e+00	1.00000e+00	1.00000e+00	1.00000e+00	1.00000e+00	1.00000e+00	1.00000e+00	1.00000e+00	1.00000e+00	1.00000e+00	1.00000e+00	X	X	X	X	X	X	X	X	X	X	X	X	X	X	X	X	

B = Detector Channel
Val Type	B-AC1	B-AC2	B-AC3	B-AC4	B-AC5	B-AC6	B-AC7	B-AC8	B-AC9	B-AC10	B-AC11	B-AC12	B-AC13	B-AC14	B-AC15	B-AC16	B-DC1	B-DC2	B-DC3	B-DC4	B-DC5	B-DC6	B-DC7	B-DC8	B-DC9	B-DC10	B-DC11	B-DC12	B-DC13	B-DC14	B-DC15	B-DC16	B-Ph1	B-Ph2	B-Ph3	B-Ph4	B-Ph5	B-Ph6	B-Ph7	B-Ph8	B-Ph9	B-Ph10	B-Ph11	B-Ph12	B-Ph13	B-Ph14	B-Ph15	B-Ph16	

Term	0.00000e+00	0.00000e+00	0.00000e+00	0.00000e+00	0.00000e+00	0.00000e+00	0.00000e+00	0.00000e+00	0.00000e+00	0.00000e+00	0.00000e+00	0.00000e+00	0.00000e+00	0.00000e+00	0.00000e+00	0.00000e+00	0.00000e+00	0.00000e+00	0.00000e+00	0.00000e+00	0.00000e+00	0.00000e+00	0.00000e+00	0.00000e+00	0.00000e+00	0.00000e+00	0.00000e+00	0.00000e+00	0.00000e+00	0.00000e+00	0.00000e+00	0.00000e+00	3.37194e+01	-1.68587e+02	-1.35414e+02	-1.80770e+02	-1.05564e+02	-1.05091e+02	-1.55686e+02	-1.62015e+02	-9.81900e+01	-8.14180e+01	-1.72633e+02	-1.70093e+02	-1.81385e+02	-1.76491e+02	-1.12733e+02	-1.49752e+02	
Factor	4.74211e-05	1.08441e-04	2.30837e-05	1.85097e-01	9.01655e-07	1.19884e-06	1.81138e-01	5.42658e-02	1.20113e-06	1.08790e-06	1.10167e-01	3.06233e-02	3.78414e-02	9.83169e-03	9.60378e-07	1.40816e-02	4.97090e-07	4.99476e-07	1.38873e-07	8.54261e-02	5.49520e-09	5.46460e-09	7.88256e-02	2.49800e-02	5.49752e-09	5.45879e-09	4.68186e-02	1.32798e-02	1.62271e-02	4.37497e-03	5.48598e-09	6.00434e-03	X	X	X	X	X	X	X	X	X	X	X	X	X	X	X	X	



#DISTANCE SETTINGS
A = Detector Channel
A-1	A-2	A-3	A-4	A-5	A-6	A-7	A-8	A-9	A-10	A-11	A-12	A-13	A-14	A-15	A-16	

2.5000e+00	3.0000e+00	2.5000e+00	3.0000e+00	2.0000e+00	3.0000e+00	1.5000e+00	3.0000e+00	3.0000e+00	3.0000e+00	3.0000e+00	3.0000e+00	3.0000e+00	3.0000e+00	1.5000e+00	3.0000e+00	

B = Detector Channel
B-1	B-2	B-3	B-4	B-5	B-6	B-7	B-8	B-9	B-10	B-11	B-12	B-13	B-14	B-15	B-16	

1.0000e+01	1.0000e+01	1.0000e+01	1.4400e+00	1.0000e+01	1.0000e+01	1.5100e+00	1.9400e+00	1.0000e+01	1.0000e+01	1.9900e+00	2.4900e+00	2.4100e+00	2.9000e+00	1.0000e+01	2.9800e+00	




#DATA BEGINS
time	group	step	mark	flag	A-AC1	A-AC2	A-AC3	A-AC4	A-AC5	A-AC6	A-AC7	A-AC8	A-AC9	A-AC10	A-AC11	A-AC12	A-AC13	A-AC14	A-AC15	A-AC16	A-DC1	A-DC2	A-DC3	A-DC4	A-DC5	A-DC6	A-DC7	A-DC8	A-DC9	A-DC10	A-DC11	A-DC12	A-DC13	A-DC14	A-DC15	A-DC16	A-Ph1	A-Ph2	A-Ph3	A-Ph4	A-Ph5	A-Ph6	A-Ph7	A-Ph8	A-Ph9	A-Ph10	A-Ph11	A-Ph12	A-Ph13	A-Ph14	A-Ph15	A-Ph16	B-AC1	B-AC2	B-AC3	B-AC4	B-AC5	B-AC6	B-AC7	B-AC8	B-AC9	B-AC10	B-AC11	B-AC12	B-AC13	B-AC14	B-AC15	B-AC16	B-DC1	B-DC2	B-DC3	B-DC4	B-DC5	B-DC6	B-DC7	B-DC8	B-DC9	B-DC10	B-DC11	B-DC12	B-DC13	B-DC14	B-DC15	B-DC16	B-Ph1	B-Ph2	B-Ph3	B-Ph4	B-Ph5	B-Ph6	B-Ph7	B-Ph8	B-Ph9	B-Ph10	B-Ph11	B-Ph12	B-Ph13	B-Ph14	B-Ph15	B-Ph16	aux-1	digaux	

6911.522	1	1	0	256	0.062916	0.46744	0.17537	0.05178	0.10111	0.14268	0.27887	0.28332	0.067823	0.065755	0.22359	0.030253	0.21689	0.22625	0.095716	0.17057	-2.5646	-2.5167	-2.9583	-3.0062	-2.7354	-3.2771	-2.9354	-3.0542	-3.0687	-2.7917	-3.1	-2.925	-2.7833	-3.0375	-2.6771	-2.7833	390.914	283.401	262.562	179.289	122.220	298.099	381.277	384.711	349.264	208.470	112.044	331.992	305.663	326.492	220.772	122.829	0.00069431	0.00036616	7.1004e-05	1257.9	2.3289e-06	1.7264e-06	1331.6	262.84	2.8596e-06	1.3456e-06	323.44	89.973	70.216	20.474	2.2188e-06	28.516	7.5107e-05	6.6629e-05	2.0641e-05	1173.1	7.3807e-07	6.9109e-07	1242.9	245.7	6.9724e-07	6.6905e-07	290.86	82.435	62.095	18.857	7.6128e-07	26.152	339.324	119.163	151.995	101.588	221.627	206.362	101.442	108.877	210.810	216.601	108.238	115.173	115.434	122.270	162.490	121.556	-8191	255	
6911.618	1	1	0	0	0.38951	0.11937	0.11595	0.13872	0.26343	0.28688	0.21784	0.2239	0.17775	0.19027	0.2121	0.1485	0.10778	0.14428	0.23081	0.23507	-2.5187	-2.6083	-2.775	-3.2	-2.8875	-3.0917	-3.0042	-2.8479	-3.0687	-2.8229	-3.0229	-2.9813	-2.7292	-3.2104	-2.8167	-3	205.227	431.518	230.806	119.050	307.025	406.512	415.023	352.336	196.682	327.820	183.679	314.949	435.438	118.672	222.915	126.488	0.00060212	0.00012172	4.4888e-05	1240.7	2.4871e-06	1.7902e-06	1320.1	262.75	5.1462e-06	3.8569e-06	325.04	90.126	71.091	20.515	3.0735e-06	28.55	6.3776e-05	6.0947e-05	1.9034e-05	1158.2	6.7274e-07	6.7583e-07	1232.8	244.67	6.7256e-07	6.9454e-07	290.87	82.605	62.273	18.958	7.8404e-07	26.239	336.082	126.723	163.910	101.703	192.773	205.000	101.502	108.732	234.541	149.739	108.220	114.915	115.599	122.147	210.597	121.458	-8191	255	
6911.690	1	1	0	0	0.17035	0.088671	0.13813	0.25225	0.32189	0.12283	0.12778	0.087717	0.31798	0.22151	0.19382	0.12844	0.24505	0.25622	0.086908	0.1138	-2.6813	-2.8458	-2.8208	-2.875	-2.825	-3.0458	-3.0708	-2.8438	-2.9583	-2.9417	-2.9583	-2.9333	-2.7229	-3.0042	-2.9104	-2.7417	303.850	324.287	99.603	390.221	201.211	364.083	335.076	196.940	418.875	92.410	409.446	235.668	232.473	103.673	390.963	333.760	0.00079286	0.00026512	5.4321e-05	1251.4	3.8967e-06	4.0116e-06	1332	263.27	4.0896e-06	3.6667e-06	324.83	91.225	71.287	20.564	1.9164e-06	28.87	6.6619e-05	6.7964e-05	1.9619e-05	1164.9	6.7852e-07	7.4591e-07	1239.1	245.43	6.8027e-07	7.5346e-07	291.39	83.032	62.535	19.086	7.4637e-07	26.365	341.541	184.967	212.623	101.698	174.413	163.174	101.496	108.653	235.509	227.502	108.186	115.236	115.158	121.994	235.519	121.411	-8191	255	
6911.810	1	1	0	0	0.11915	0.053276	0.20333	0.27222	0.17263	0.17854	0.32676	0.21078	0.31563	0.11532	0.23705	0.15578	0.14469	0.16982	0.078577	0.07713	-2.3312	-2.8354	-2.8396	-3.175	-2.6333	-2.8375	-3.1375	-2.8688	-2.8958	-2.8542	-2.8	-3.1937	-2.6583	-2.9229	-2.7729	-2.7708	137.499	113.499	210.285	386.218	320.245	126.203	401.204	427.114	326.961	207.131	134.235	91.361	161.062	359.374	287.730	353.725	0.00063042	0.00042947	3.114e-05	1254.4	4.3059e-06	1.7321e-06	1336.2	263.05	1.838e-06	1.7612e-06	326.03	90.999	71.928	20.889	2.7009e-06	29.043	6.4741e-05	6.8868e-05	1.8163e-05	1167.7	6.459e-07	6.9811e-07	1241.9	245.81	6.2594e-07	6.9528e-07	291.51	82.992	62.772	19.194	6.5113e-07	26.549	343.399	130.903	206.604	101.653	192.420	310.640	101.677	108.877	251.581	138.472	108.420	114.848	115.356	122.001	200.415	120.827	-8191	255	
6911.905	1	1	0	0	0.25886	0.13512	0.090747	0.22907	0.086201	0.055698	0.15544	0.1921	0.045789	0.265	0.18927	0.32221	0.21182	0.045594	0.16816	0.069868	-2.3792	-2.8833	-2.6896	-3.2271	-2.6333	-2.9271	-3.0958	-2.7271	-3.1604	-2.9125	-2.9313	-3.0187	-2.875	-2.9875	-2.9333	-2.7333	229.192	242.182	224.191	447.053	209.151	348.736	358.068	96.575	202.182	367.558	372.660	395.706	109.653	100.832	421.694	153.440	0.00078362	0.00013377	3.4249e-05	1263.4	2.7724e-06	2.4635e-06	1340.8	266.43	5.8811e-06	2.001e-06	330.23	91.841	72.358	21.016	1.7678e-06	29.281	6.3708e-05	6.4997e-05	1.6771e-05	1176	6.9461e-07	7.2225e-07	1251.3	248.6	7.2084e-07	7.4712e-07	294.04	83.709	63.611	19.479	7.1554e-07	26.821	331.300	114.632	203.896	101.374	238.796	238.145	101.475	108.714	218.632	291.692	108.353	114.953	115.368	121.926	118.451	121.414	-8191	255	
6912.001	1	1	0	0	0.097287	0.067614	0.27514	0.15188	0.25675	0.075502	0.43157	0.16405	0.15586	0.21527	0.31805	0.24751	0.20023	0.10082	0.094639	0.18284	-2.525	-2.7646	-2.7125	-3.1104	-2.7958	-2.8812	-3.3187	-2.7229	-2.8208	-2.775	-2.7562	-3.1042	-2.8146	-2.9375	-2.9688	-2.7396	111.964	140.037	205.294	326.343	262.614	246.055	415.268	446.066	123.716	431.147	374.487	131.265	185.004	225.656	361.732	241.054	0.00075746	2.0329e-05	9.7e-05	1272	3.2341e-06	7.758e-07	1350.9	268.49	4.4768e-06	3.0176e-06	330.02	92.554	72.915	20.963	3.1356e-06	29.586	7.4188e-05	6.9626e-05	1.8046e-05	1183.8	7.7218e-07	7.6259e-07	1259.2	250.18	7.7253e-07	7.461e-07	295.5	84.226	64.032	19.494	6.8003e-07	26.915	338.846	178.470	136.255	101.529	213.957	110.340	101.429	108.588	215.447	220.079	108.242	114.910	115.049	122.031	226.608	121.484	-8191	255	
6912.121	1	1	0	0	0.27998	0.082923	0.24254	0.25907	0.025364	0.18962	0.13889	0.25569	0.09141	0.098906	0.13509	0.21715	0.23547	0.2029	0.17823	0.17885	-2.5708	-2.6542	-2.7125	-3.3688	-2.6292	-2.8667	-3.1958	-2.8646	-2.9292	-2.925	-2.7042	-3.0938	-2.7458	-2.7979	-2.9917	-2.8208	293.886	110.634	193.556	344.838	194.220	287.453	388.063	420.032	266.296	310.631	94.248	111.688	407.093	91.763	252.095	408.667	0.00074847	0.00023994	4.7416e-05	1273.1	3.0515e-06	1.9831e-07	1351.9	268.08	1.4477e-06	6.6577e-07	329.83	92.196	72.382	21.032	2.5177e-06	29.362	7.4271e-05	6.4365e-05	1.6947e-05	1185.2	7.8641e-07	7.1085e-07	1256.8	250.31	7.8076e-07	7.181e-07	295.48	84.314	63.97	19.503	6.8233e-07	26.954	324.624	148.963	205.064	101.547	231.730	398.303	101.491	108.672	214.274	366.372	108.347	114.781	115.523	121.998	180.418	121.236	-8191	255	
6912.218	1	1	0	0	0.079652	0.10503	0.025203	0.23256	0.026894	0.021815	0.22099	0.29	0.12944	0.27291	0.15584	0.37148	0.28787	0.033285	0.17183	0.27473	-2.4875	-2.9	-2.6979	-3.1417	-2.8625	-2.8792	-3.4437	-2.8625	-3.0125	-2.8792	-2.8833	-3.0521	-2.95	-2.8375	-2.9146	-2.7875	294.091	424.191	170.437	348.070	194.588	158.087	414.020	367.416	120.762	272.333	418.184	392.065	277.778	358.467	98.362	447.720	0.00076025	0.00012862	1.9773e-05	1275.8	2.223e-06	1.9886e-06	1348.6	267.47	2.9722e-06	2.6879e-06	330.12	91.971	72.843	21.02	1.9093e-06	29.24	7.7524e-05	6.6029e-05	1.746e-05	1186.1	7.9975e-07	7.2707e-07	1256.5	250.06	7.8925e-07	7.2009e-07	295.18	84.171	63.894	19.409	6.6634e-07	26.922	337.404	118.139	174.446	101.627	228.638	154.586	101.632	108.606	198.758	254.857	108.695	114.989	115.315	122.048	235.418	121.446	-8191	255	
6912.314	1	1	0	0	0.33397	0.19215	0.20744	0.16087	0.21884	0.056271	0.21338	0.39402	0.20279	0.13199	0.20437	0.21732	0.088062	0.17267	0.20293	0.31591	-2.5521	-2.8979	-2.6813	-3.1813	-2.9458	-2.7833	-3.2938	-3.0125	-2.7438	-3.0292	-2.825	-3.2708	-2.8812	-2.7333	-2.9562	-2.8333	285.904	222.210	336.494	92.978	217.178	402.988	332.345	355.436	205.406	378.405	431.292	117.768	423.954	420.726	243.786	134.896	0.00069085	0.00032485	4.7442e-05	1273.8	1.9886e-06	1.8215e-06	1347.9	268.35	3.4673e-06	1.5941e-06	329.03	91.223	72.329	20.787	2.8595e-06	29.122	7.4886e-05	6.4501e-05	1.6747e-05	1184.3	7.7623e-07	6.9484e-07	1254.8	250.02	7.4616e-07	6.8077e-07	294.24	83.766	63.557	19.274	6.8313e-07	26.836	335.306	176.289	217.433	101.463	209.273	242.047	101.505	108.644	269.371	233.158	108.310	114.864	115.752	121.639	250.124	121.473	-8191	255	
6912.410	1	1	0	0	0.25064	0.20754	0.18656	0.22421	0.23904	0.24127	0.18564	0.064948	0.20401	0.27478	0.12939	0.095865	0.1275	0.071191	0.23321	0.18644	-2.4542	-3.0958	-2.6833	-3.1	-2.9625	-2.7438	-3.4333	-2.9771	-2.6667	-3.1646	-2.9625	-3.0958	-2.9104	-2.7542	-3.1937	-2.8354	223.213	396.680	120.374	408.745	214.226	427.800	379.086	300.600	162.598	94.131	266.797	444.092	194.868	226.682	119.350	400.367	0.00069313	0.00017678	9.5206e-05	1270.9	1.3703e-06	8.8486e-07	1344	267.92	2.9229e-06	1.943e-06	328.59	90.968	71.946	20.825	3.0631e-06	29.048	7.1849e-05	6.3354e-05	1.7725e-05	1184.1	7.5353e-07	6.7552e-07	1252.1	249.79	7.3584e-07	6.7226e-07	294.67	83.741	63.516	19.227	7.2928e-07	26.742	334.407	152.894	127.512	101.538	180.175	299.002	101.511	108.897	232.501	228.177	108.339	114.831	115.529	121.811	179.831	121.364	-8191	255	
6912.506	1	1	0	0	0.19826	0.18412	0.031727	0.23954	0.05685	0.17485	0.27093	0.13628	0.09091	0.13442	0.22498	0.15787	0.17567	0.19687	0.12264	0.13618	-2.3104	-2.9521	-2.6625	-3.1937	-2.9042	-2.6396	-3.0646	-2.6979	-2.8187	-3.1104	-2.7042	-2.9354	-2.9646	-2.8292	-2.9125	-2.9979	290.165	376.213	111.765	371.674	148.379	334.802	379.216	405.811	140.128	328.991	388.398	169.250	398.700	156.188	271.457	397.640	0.00067454	0.00043395	4.2277e-05	1267.4	2.3643e-06	1.1064e-06	1338.4	264.72	2.0077e-06	3.5676e-06	325.56	90.415	70.944	20.36	2.5839e-06	28.758	7.0137e-05	5.8754e-05	1.839e-05	1178.7	7.1228e-07	6.4489e-07	1248.6	247.5	7.0423e-07	6.3597e-07	291.63	82.766	62.475	18.868	7.4288e-07	26.333	340.814	223.695	191.869	101.582	215.733	195.351	101.471	108.744	141.575	153.166	108.328	114.955	115.767	122.278	195.981	121.394	-8191	255	
6912.602	1	1	0	0	0.24204	0.063612	0.22916	0.32302	0.15003	0.12789	0.19609	0.076808	0.17644	0.24737	0.11268	0.10665	0.10924	0.048684	0.15559	0.10587	-2.3104	-2.9396	-2.7833	-3.0479	-3.0563	-2.7125	-3.1771	-2.8896	-2.6521	-3.0521	-2.7208	-2.8771	-2.9979	-2.8292	-2.9396	-3.2479	144.152	408.632	378.715	340.696	320.088	429.014	392.956	372.307	216.576	349.044	262.121	279.921	333.727	130.023	315.971	395.007	0.000663	0.00023083	5.5226e-05	1252.1	2.5377e-06	2.4647e-06	1326.8	261.76	3.186e-06	2.8615e-06	323.06	89.481	70.477	20.09	2.4254e-06	28.354	6.6782e-05	5.8713e-05	1.9063e-05	1167.3	6.959e-07	6.4804e-07	1236.4	244.26	6.6596e-07	6.3837e-07	288.66	81.726	61.459	18.588	6.8079e-07	25.867	339.369	137.821	134.227	101.766	255.311	228.505	101.607	108.615	207.239	200.156	108.187	114.963	115.556	122.216	146.156	121.611	-8191	255	
6912.698	1	1	0	0	0.18001	0.048606	0.033896	0.14589	0.1123	0.22189	0.16041	0.11766	0.079036	0.1362	0.074374	0.30554	0.11118	0.32778	0.1096	0.10474	-2.3646	-3.0771	-2.9625	-2.9479	-3	-2.8583	-3.3583	-3.1292	-2.5958	-3.2667	-3.1354	-3.025	-3.2521	-2.9021	-2.9062	-3.2021	287.766	433.671	304.849	428.826	266.525	99.472	359.272	370.175	193.960	358.861	103.234	434.416	375.910	446.983	436.182	368.972	0.0007295	0.00033387	5.5295e-05	1241.2	1.8885e-06	4.491e-06	1312.8	257.68	2.1391e-06	3.1872e-06	318.7	87.83	68.945	19.836	3.2519e-06	28.01	5.8619e-05	5.3738e-05	1.6667e-05	1150.1	5.771e-07	5.9214e-07	1220.8	239.7	5.7457e-07	5.9638e-07	283.71	80.443	60.495	18.408	6.4313e-07	25.631	333.553	132.196	229.262	101.647	185.546	243.599	101.713	108.748	191.991	250.304	108.450	115.460	115.554	122.472	253.527	121.888	-8191	255	
6912.817	1	1	0	0	0.24469	0.12344	0.10985	0.27841	0.1478	0.19378	0.036095	0.14969	0.10467	0.26999	0.16673	0.13325	0.19202	0.29875	0.28508	0.15518	-2.3646	-2.9833	-2.9562	-2.9042	-3.1521	-2.8542	-3.175	-3.2792	-2.8271	-3.1354	-3.0229	-2.6688	-3.1875	-2.9708	-2.7833	-2.975	352.102	161.454	233.712	337.805	201.964	238.818	411.836	405.155	223.340	217.928	448.224	132.637	93.799	415.000	98.969	335.530	0.00071602	0.00033293	1.0061e-05	1218.2	2.2445e-06	2.7485e-06	1291.6	253.79	5.4197e-06	1.3711e-06	314.57	87.301	68.69	19.571	2.2808e-06	27.66	5.6683e-05	5.6883e-05	1.6381e-05	1135.2	5.6915e-07	6.2217e-07	1204.3	236.91	5.4085e-07	5.8539e-07	280.13	79.38	59.677	18.122	5.6275e-07	25.219	344.083	398.624	107.822	101.777	188.907	198.263	101.849	108.917	194.421	223.000	108.633	115.284	115.959	122.249	186.612	122.233	-8191	255	
6912.913	1	1	0	0	0.19358	0.17712	0.069515	0.24236	0.1058	0.10561	0.15266	0.098481	0.13435	0.17293	0.022732	0.17105	0.17857	0.11118	0.10493	0.070097	-2.3458	-3.1333	-2.8104	-2.8937	-3.2604	-2.7938	-3.0042	-3.1104	-2.8625	-2.9396	-3.1979	-2.8312	-3.1146	-2.9104	-2.8021	-2.9854	401.045	322.839	423.021	434.549	362.827	218.978	369.069	225.905	350.339	226.947	267.495	446.446	369.386	192.535	266.318	143.562	0.00071967	0.0003471	8.2475e-05	1199.6	2.7006e-06	1.872e-06	1268.4	250.78	3.0717e-06	5.9238e-07	307.76	86.476	67.897	19.654	9.5066e-07	27.64	5.1359e-05	5.1503e-05	1.3939e-05	1115.7	5.062e-07	5.6026e-07	1184.7	232.43	5.1905e-07	5.6155e-07	275.6	78.601	59.17	18.09	5.4468e-07	25.096	335.452	164.696	142.506	101.754	211.086	183.782	101.839	108.918	219.389	329.556	108.370	115.284	115.887	122.633	184.496	121.569	-8191	255	
6912.985	1	1	0	0	0.14786	0.12335	0.065529	0.21493	0.29701	0.20651	0.18452	0.055307	0.029283	0.12804	0.19798	0.15849	0.060934	0.22984	0.10565	0.3328	-2.3354	-3.0333	-3.0687	-2.9104	-3.0646	-2.8688	-3.0104	-3.1542	-2.6125	-3.0396	-3.0292	-2.6729	-2.9708	-2.8792	-2.8438	-3.1021	266.585	104.189	382.888	383.472	197.097	148.000	386.501	97.215	181.842	144.107	354.051	220.511	336.307	93.047	162.816	109.037	0.00066088	0.00013945	7.173e-05	1191.9	3.284e-06	3.824e-06	1261.4	247.49	8.519e-07	2.7597e-06	306.62	86.568	67.704	19.528	1.8471e-06	27.644	5.3539e-05	5.3207e-05	1.3506e-05	1107.4	5.4154e-07	5.6614e-07	1177.4	230.71	5.4647e-07	5.6172e-07	274.41	78.416	59.086	17.947	5.2268e-07	24.991	335.199	138.109	150.916	101.850	181.374	164.940	101.841	109.162	214.475	246.298	108.466	115.177	115.543	122.176	224.548	122.052	-8191	255	
6913.083	1	1	0	0	0.055947	0.19505	0.20195	0.22265	0.14141	0.11302	0.13803	0.15839	0.12678	0.04463	0.07896	0.2895	0.19101	0.16068	0.18887	0.22076	-2.4188	-2.8563	-2.8438	-2.7875	-2.9917	-2.8271	-2.9458	-3.0833	-2.9208	-2.9938	-3.0229	-2.6479	-2.8167	-2.9833	-2.7625	-3.2438	342.865	450.286	429.598	104.608	213.162	364.543	360.020	196.367	309.428	136.184	385.471	426.250	243.439	427.824	196.310	377.521	0.0007891	0.00013848	7.455e-05	1187.7	1.7908e-06	2.4412e-06	1263.2	247.21	2.8915e-06	2.1872e-06	305.35	85.833	67.585	19.346	7.5134e-07	27.537	5.4789e-05	4.9397e-05	1.2842e-05	1104.3	5.4658e-07	5.4544e-07	1176.3	229.92	5.5837e-07	5.2414e-07	273.31	78.255	59.083	17.885	5.0256e-07	24.957	336.243	146.422	149.191	101.694	197.851	220.073	101.559	108.901	233.140	218.084	108.579	115.127	116.019	122.574	215.011	121.982	-8191	255	
6913.202	1	1	0	0	0.26362	0.15156	0.28037	0.04419	0.080338	0.1468	0.30129	0.080853	0.048406	0.11406	0.1504	0.043298	0.088252	0.29058	0.31996	0.26396	-2.3479	-2.9167	-3.0458	-2.8812	-2.9104	-3.1083	-2.9562	-3.1104	-2.8896	-2.9813	-3.2354	-2.8	-3.0708	-2.9646	-2.825	-3.1229	291.043	328.808	320.256	185.015	112.014	385.795	433.056	367.476	216.404	148.446	113.071	326.847	364.242	400.759	101.398	129.378	0.00072129	0.00038575	3.4775e-05	1192.6	2.0518e-06	3.5884e-06	1265.9	247.64	1.6736e-06	1.0479e-06	308.38	86.388	67.3	19.604	1.8456e-07	27.615	5.6879e-05	4.9108e-05	1.2826e-05	1105.4	5.7405e-07	5.3011e-07	1175.9	230.4	5.8874e-07	5.2599e-07	274.78	78.462	58.93	17.966	5.053e-07	24.993	332.561	167.098	133.742	101.785	180.053	202.665	101.861	109.204	332.794	286.970	108.583	115.328	115.962	122.549	202.934	121.440	-8191	255	
6913.298	1	1	0	0	0.11059	0.11627	0.16572	0.25936	0.055658	0.11022	0.30501	0.029396	0.064058	0.090584	0.079828	0.33579	0.14709	0.1094	0.13458	0.16178	-2.5021	-2.8354	-3.1417	-2.8521	-2.8854	-3.175	-3.0771	-3.2354	-2.9229	-2.7896	-3.2833	-2.7333	-3.15	-2.9729	-2.7708	-2.9729	219.794	435.581	203.119	415.468	264.171	383.808	396.933	440.927	130.393	327.965	285.351	341.680	365.322	104.493	187.212	342.900	0.00071594	0.00017611	4.3055e-05	1192.3	4.1951e-06	2.0498e-06	1271.8	248.71	2.2253e-06	1.2289e-06	306.23	86.386	67.241	19.642	2.2215e-06	27.459	5.9287e-05	4.9045e-05	1.3003e-05	1108	6.1017e-07	5.4248e-07	1180.2	230.73	6.0299e-07	5.3555e-07	273.95	78.662	59.163	18.007	5.0649e-07	25.153	331.595	98.861	172.231	101.819	179.846	193.596	101.611	108.828	193.652	197.271	108.330	115.206	115.848	122.579	182.057	121.651	-8191	255	
6913.394	1	1	0	0	0.063446	0.14773	0.15745	0.37708	0.18333	0.070519	0.098335	0.15953	0.085059	0.38871	0.14055	0.14403	0.29188	0.049384	0.19132	0.14471	-2.1979	-2.7583	-3.0146	-2.7792	-2.8229	-3.0021	-2.9208	-3.0812	-3.025	-2.5917	-3.0417	-2.875	-2.9917	-3.1458	-2.6979	-3.1146	161.456	214.505	295.775	449.101	341.931	123.890	444.105	330.508	224.542	360.193	377.414	97.816	177.070	398.430	141.090	427.608	0.00069912	0.00013418	1.8088e-05	1192	3.7121e-06	2.3592e-06	1272.8	247.98	2.382e-06	1.524e-07	308.97	86.066	67.583	19.415	2.2606e-06	27.494	5.8025e-05	4.9103e-05	1.3018e-05	1110.9	5.9267e-07	5.389e-07	1181.7	231.63	5.8738e-07	5.278e-07	275.33	78.778	59.146	17.911	5.4801e-07	25.158	334.852	169.348	247.627	101.866	209.360	189.546	101.630	108.773	245.239	121.335	108.643	115.408	116.078	122.233	166.804	121.635	-8191	255	
6913.490	1	1	0	0	0.03139	0.2226	0.10632	0.32152	0.10715	0.11864	0.066893	0.24971	0.088405	0.086089	0.12971	0.26759	0.1662	0.30589	0.33874	0.074619	-2.4188	-2.7313	-3.0687	-3.0375	-2.9167	-3.1021	-2.8708	-3.1583	-3.1562	-2.875	-3.1333	-3.0875	-3.0333	-3.1521	-2.75	-3.1083	217.235	282.272	362.881	387.328	218.232	427.795	403.661	398.470	353.998	210.749	124.282	143.704	102.507	145.366	110.866	129.002	0.00070893	2.4165e-05	9.08e-05	1196	2.027e-06	2.9085e-06	1275.3	249.27	2.1622e-06	3.0255e-06	308.54	86.42	67.761	19.54	9.0603e-07	27.605	5.7613e-05	4.9158e-05	1.3824e-05	1114	5.9105e-07	5.4261e-07	1185.6	232.23	5.7749e-07	5.3674e-07	276.17	78.989	59.383	18.027	5.7252e-07	25.229	328.128	104.534	171.901	101.747	233.325	233.500	101.472	109.219	219.940	277.792	108.458	115.294	115.865	122.346	179.606	121.605	-8191	255	
6913.586	1	1	0	0	0.17198	0.055829	0.10165	0.10721	0.11553	0.16736	0.20462	0.14796	0.096668	0.09614	0.096455	0.24744	0.11937	0.159	0.058003	0.15578	-2.5167	-2.6188	-3.0375	-2.9854	-2.8187	-3.1146	-2.9167	-3.0854	-3.0833	-2.7854	-3.0875	-2.9188	-2.8563	-3.0187	-2.8271	-2.9396	292.313	148.193	319.406	102.949	368.501	396.846	300.165	286.503	332.342	97.975	280.717	164.575	108.885	270.509	253.115	434.455	0.00055511	0.00011974	7.1396e-05	1200.1	1.3899e-06	2.118e-06	1280.9	249.82	1.1432e-06	3.6602e-06	308.05	86.703	68.421	19.474	4.1307e-06	27.607	5.6282e-05	4.7097e-05	1.4669e-05	1118.1	5.6614e-07	5.121e-07	1191.3	232.92	5.5414e-07	5.1815e-07	276.28	79.256	59.535	17.998	5.9545e-07	25.251	345.709	116.366	168.507	101.725	199.072	139.045	101.844	109.002	309.594	222.402	108.772	115.441	115.557	122.582	200.504	122.053	-8191	255	
6913.683	1	1	0	0	0.15224	0.22718	0.24417	0.11426	0.25152	0.24108	0.32819	0.10954	0.20309	0.18286	0.23925	0.1678	0.14456	0.1531	0.046452	0.1416	-2.5312	-2.9125	-2.9458	-3.1312	-2.7896	-2.9521	-2.8563	-2.9396	-3.0396	-2.8063	-3.0333	-2.8375	-2.8479	-3.1979	-2.8979	-3.0083	218.612	118.513	361.512	421.678	108.554	249.385	394.795	388.445	388.631	337.972	415.884	348.226	132.957	94.482	441.931	390.565	0.00066564	0.00028631	3.8762e-05	1205.3	2.1501e-06	2.2748e-06	1280.8	249.67	4.1502e-06	1.8012e-06	311.61	86.655	67.951	19.613	2.0629e-06	27.714	5.3894e-05	4.7115e-05	1.5143e-05	1119.9	5.5725e-07	5.3008e-07	1191.5	232.83	5.5515e-07	5.3248e-07	277.46	79.081	59.421	18.063	6.193e-07	25.299	339.143	172.606	220.208	101.604	177.566	161.496	101.772	108.995	243.406	238.814	108.458	115.662	115.924	122.392	187.828	121.744	-8191	255	
6913.803	1	1	0	0	0.1375	0.27735	0.13851	0.28093	0.17529	0.099176	0.31885	0.11862	0.05494	0.1385	0.079168	0.18286	0.086752	0.090806	0.12141	0.05531	-2.5521	-2.7667	-2.9125	-3.2	-2.8104	-2.9833	-2.9146	-2.8667	-3.1417	-2.825	-2.9958	-3.0292	-2.6125	-3.0021	-2.8125	-2.6333	147.928	203.577	364.507	362.347	216.969	376.696	423.695	363.014	151.386	118.261	241.267	395.757	162.730	394.011	407.489	266.470	0.00059779	0.00030803	4.433e-05	1200.7	1.6179e-06	3.3088e-06	1278.8	250.8	4.2198e-06	1.7887e-06	310.56	86.749	67.96	19.566	6.1649e-07	27.5	5.3558e-05	5.0929e-05	1.5652e-05	1119.8	5.4599e-07	5.4785e-07	1191.4	233.01	5.2019e-07	5.4967e-07	277.42	79.058	59.419	18.066	5.8587e-07	25.183	345.184	189.765	194.434	101.554	237.338	240.714	101.533	108.589	234.405	269.848	108.390	115.531	116.063	122.424	109.122	121.676	-8191	255	
6913.898	1	1	0	0	0.035989	0.057202	0.14701	0.35735	0.067439	0.12027	0.27357	0.25679	0.10542	0.15193	0.11595	0.30654	0.19806	0.047797	0.052366	0.15925	-2.5146	-2.7438	-3.0958	-3.1375	-2.8542	-2.9354	-2.9771	-2.9667	-3.0646	-2.6896	-3.0125	-3.1208	-2.9	-3.0104	-2.8646	-2.7229	420.894	432.056	413.837	423.880	244.030	259.424	409.312	125.039	172.665	336.889	379.497	121.401	131.795	94.204	99.531	388.378	0.00071956	0.00020717	7.6916e-05	1203.9	2.7573e-06	1.6569e-06	1281.3	249.67	4.0778e-06	2.8093e-06	308.88	86.309	68.061	19.514	4.0091e-06	27.575	5.1491e-05	5.2598e-05	1.4705e-05	1120	5.3729e-07	5.8464e-07	1192.1	233	5.3954e-07	6.0722e-07	277.3	79.041	59.414	18.107	5.9658e-07	25.25	335.351	149.906	160.983	101.761	219.997	229.000	101.530	108.773	173.319	214.155	108.379	115.336	116.034	122.420	240.428	121.845	-8191	255	
6913.994	1	1	0	0	0.19616	0.20073	0.12085	0.21933	0.3048	0.303	0.12195	0.18612	0.22481	0.17959	0.079864	0.099635	0.13305	0.34224	0.17809	0.096471	-2.5458	-2.8917	-3.0729	-3.1021	-2.775	-3.0458	-3.0271	-2.7104	-3.1667	-2.8438	-3.0021	-3.4667	-2.9729	-2.8583	-3.1083	-2.6979	238.774	362.507	338.682	310.249	316.080	256.309	362.566	344.952	195.177	332.184	383.293	256.470	320.114	119.452	253.210	400.972	0.00077714	0.0003258	5.0768e-05	1202.8	2.4144e-06	1.7472e-06	1278.1	250.6	4.5017e-06	1.8352e-06	308.37	86.581	68.564	19.778	2.41e-06	27.752	5.3911e-05	5.4908e-05	1.4932e-05	1118.6	5.5538e-07	6.0857e-07	1190.5	233.26	5.5536e-07	6.2173e-07	276.6	79.023	59.568	18.187	5.7446e-07	25.259	338.221	120.899	126.097	101.582	197.304	204.643	101.733	108.716	193.054	304.193	108.500	115.384	115.915	122.495	238.731	122.073	-8191	255	
6914.090	1	1	0	0	0.16401	0.38183	0.058679	0.46345	0.26827	0.042246	0.27945	0.20193	0.34126	0.030209	0.1081	0.22066	0.055107	0.32087	0.19623	0.0085894	-2.5438	-2.7375	-2.7354	-3.0938	-2.6729	-2.8979	-3.0583	-2.8063	-2.9813	-2.7729	-2.8312	-2.9375	-2.7583	-2.9	-2.925	-2.7875	224.036	406.345	430.897	400.012	332.430	115.268	418.708	408.453	397.671	248.406	354.519	92.473	191.394	438.403	176.063	287.592	0.00073111	0.00023975	6.5071e-05	1209.5	1.8546e-06	1.2296e-06	1278.3	249.45	5.7183e-06	3.0351e-06	310.99	86.255	68.215	19.623	1.5642e-06	27.778	5.579e-05	5.4821e-05	1.3905e-05	1120.8	5.8855e-07	6.0665e-07	1190.3	232.95	5.8347e-07	5.9905e-07	277.49	78.943	59.611	18.146	5.6215e-07	25.195	334.518	130.880	145.897	101.547	206.333	196.292	101.538	108.812	205.677	251.996	108.636	115.121	115.861	122.401	267.499	121.783	-8191	255	
6914.211	1	1	0	0	0.23294	0.13068	0.24557	0.26909	0.19519	0.18246	0.089663	0.24264	0.17318	0.10775	0.22581	0.045034	0.12236	0.14269	0.25848	0.19801	-2.525	-2.8417	-2.6792	-3.3333	-2.7687	-2.9708	-3.1167	-2.8625	-2.9083	-2.8667	-2.9979	-2.9583	-2.6333	-2.8542	-2.9167	-2.7646	107.487	291.818	310.399	381.963	153.485	387.140	335.676	417.096	258.972	122.033	393.870	264.039	418.367	122.540	198.742	350.347	0.00062524	0.00013339	5.2951e-05	1204.5	2.4249e-06	1.8194e-06	1277.7	250.72	6.0136e-06	1.9701e-06	309.67	86.852	67.929	19.532	1.6282e-06	27.939	5.8074e-05	5.4585e-05	1.4085e-05	1119.5	6.1331e-07	5.9208e-07	1190	233.29	6.2871e-07	5.8847e-07	276.91	79.12	59.676	18.113	5.5181e-07	25.297	332.881	114.524	101.589	101.653	230.552	202.272	101.685	109.086	184.225	138.915	108.219	115.366	115.619	122.352	443.980	121.658	-8191	255	
6914.282	1	1	0	0	0.13503	0.22231	0.15693	0.186	0.16743	0.11864	0.48551	0.19049	0.17692	0.12537	0.13209	0.075428	0.21009	0.3354	0.1241	0.19789	-2.5479	-2.9292	-2.7979	-3.025	-2.7104	-3.1	-3.2729	-2.8292	-3.1208	-2.9562	-2.7417	-3.0229	-2.8583	-2.8104	-3.125	-2.85	233.071	340.411	389.479	412.068	98.741	160.250	347.048	411.188	388.528	355.575	397.004	168.072	122.026	418.879	407.285	334.374	0.00071636	0.00049826	5.5258e-05	1208.6	2.08e-06	1.8637e-06	1284.5	250.71	3.462e-06	3.4296e-06	311.56	86.793	68.331	19.871	9.377e-07	27.836	6.1828e-05	5.2895e-05	1.3792e-05	1122.1	6.3881e-07	5.7583e-07	1194.3	233.65	6.4284e-07	5.7716e-07	277.66	79.463	59.933	18.231	5.6404e-07	25.332	336.907	142.407	185.701	101.715	201.003	272.102	101.574	108.931	162.514	300.497	108.487	115.189	115.829	122.288	244.968	121.553	-8191	255	
6914.378	1	1	0	0	0.13449	0.17371	0.050484	0.13645	0.0096034	0.17442	0.23314	0.10392	0.18312	0.033302	0.13435	0.27515	0.28933	0.20126	0.12652	0.16687	-2.6542	-2.7458	-2.5521	-3.0292	-2.9375	-2.9896	-3.2125	-2.9021	-2.8854	-2.9083	-2.9292	-3.1146	-2.9229	-2.7125	-3.0375	-2.8375	115.927	326.485	273.158	178.472	140.455	213.483	271.413	425.446	330.543	202.409	246.958	393.673	424.657	104.190	339.398	102.827	0.00068187	0.00029375	1.5586e-05	1209.5	1.2702e-06	4.8419e-07	1285.2	251.22	1.7043e-06	7.2134e-07	312.61	87.554	68.725	19.906	3.2548e-06	27.861	6.3432e-05	5.4294e-05	1.4097e-05	1127.6	6.5201e-07	5.8124e-07	1198.8	234.76	6.4294e-07	5.8358e-07	278.56	79.827	60.267	18.287	5.6029e-07	25.563	328.866	123.259	303.445	101.745	232.748	419.324	101.567	108.707	216.623	193.157	108.520	115.451	115.506	122.077	211.865	121.594	-8191	255	
6914.499	1	1	0	0	0.13283	0.17639	0.44931	0.4017	0.053666	0.16674	0.13913	0.19617	0.057015	0.046245	0.18738	0.19361	0.089527	0.22356	0.17162	0.18717	-2.5667	-2.9604	-2.8354	-3.2583	-2.8958	-2.6708	-3.1354	-2.9375	-2.7958	-3.0583	-2.7354	-3.0208	-2.9271	-2.8167	-3.0375	-2.9333	210.374	257.569	209.885	413.213	289.804	144.394	393.575	339.183	235.041	387.401	285.021	403.120	310.320	209.045	206.696	116.460	0.00063786	0.0004698	4.5662e-05	1218.8	2.0564e-06	2.1585e-06	1290	252.44	3.0894e-06	6.4923e-08	313.31	87.018	68.678	19.851	3.0675e-06	27.791	6.3426e-05	5.3674e-05	1.4197e-05	1132.6	6.4766e-07	5.8594e-07	1201.2	235.73	6.4415e-07	5.7759e-07	279.26	79.933	60.275	18.321	5.873e-07	25.57	343.945	162.647	160.260	101.667	210.505	108.013	101.706	108.936	136.461	141.831	108.520	115.433	115.243	122.277	121.820	121.563	-8191	255	
6914.595	1	1	0	0	0.1722	0.042772	0.17924	0.39336	0.11498	0.20737	0.24363	0.30004	0.14853	0.12769	0.19194	0.14592	0.30492	0.12991	0.23339	0.10846	-2.4333	-3.0062	-2.7167	-3.0771	-2.9271	-2.8312	-3.2458	-2.7271	-2.925	-3.1813	-2.8812	-3.1063	-3.1417	-2.9146	-2.9479	-2.8792	253.619	376.116	208.028	105.509	431.854	211.177	369.693	439.601	226.158	410.322	360.389	130.836	203.204	141.280	338.138	237.570	0.00071113	0.00035144	5.5182e-05	1215.9	3.4736e-06	2.6393e-07	1295.6	252.04	4.283e-06	2.014e-06	310.9	87.526	68.439	19.916	3.5919e-06	28.008	6.1507e-05	5.3303e-05	1.5246e-05	1134.1	6.4523e-07	5.8367e-07	1204.8	235.99	6.3635e-07	5.8281e-07	279.89	80.194	60.356	18.36	6.3317e-07	25.623	338.420	146.715	190.446	101.649	171.464	294.780	101.637	109.037	216.626	212.588	108.300	115.111	115.503	122.285	145.184	121.465	-8191	255	
6914.691	1	1	0	0	0.1084	0.076208	0.080447	0.21607	0.092188	0.15177	0.055776	0.021015	0.16431	0.18601	0.25518	0.22362	0.21911	0.077866	0.13925	0.046692	-2.35	-2.85	-2.6875	-3.0354	-3.025	-2.7646	-3.2979	-3.0208	-2.8917	-3.0187	-2.9021	-2.9521	-2.925	-2.8375	-2.9667	-2.9104	205.561	210.088	245.120	396.787	349.887	265.894	365.541	419.625	92.897	243.114	283.777	189.086	292.624	257.695	402.190	431.581	0.000757	0.00026666	3.5736e-05	1220.8	8.167e-07	2.9634e-06	1294.5	253.27	2.0984e-06	2.0854e-06	313.37	88.033	68.903	19.888	1.2821e-06	28.167	6.2127e-05	5.311e-05	1.6593e-05	1136.8	6.382e-07	5.8489e-07	1207.6	236.7	6.2816e-07	5.7804e-07	280.89	80.384	60.383	18.389	6.5004e-07	25.693	332.178	128.063	221.872	101.609	182.451	193.488	101.628	108.738	209.344	243.355	108.412	114.934	115.870	122.044	169.440	121.673	-8191	255	
6914.786	1	1	0	0	0.22169	0.28533	0.11233	0.16895	0.26053	0.18856	0.091096	0.18493	0.084332	0.2126	0.21574	0.2177	0.12141	0.17172	0.16465	0.095693	-2.3167	-3.1708	-2.8146	-3.0583	-3.0979	-2.8625	-3.1063	-3.075	-2.7708	-3.075	-2.8167	-2.7	-3.0625	-2.75	-2.9917	-3.0104	212.720	307.470	338.203	384.418	357.705	449.227	361.497	378.649	202.071	109.880	391.521	362.646	189.782	178.445	362.651	130.916	0.00067752	0.00055725	4.1178e-05	1225.9	8.6892e-07	3.1007e-06	1300.8	253.75	4.2869e-06	3.1438e-06	314.64	88.006	69.295	19.874	3.1662e-06	28.11	5.9415e-05	5.2543e-05	1.7017e-05	1139.8	6.1132e-07	5.8354e-07	1211.8	236.91	6.1015e-07	5.9257e-07	281.7	80.414	60.669	18.408	6.8602e-07	25.716	342.488	158.796	166.093	101.637	232.295	266.128	101.654	108.914	258.202	202.123	108.192	115.240	115.468	122.221	145.845	121.600	-8191	255	
6914.882	1	1	0	0	0.31527	0.050099	0.27338	0.08671	0.37338	0.18858	0.1775	0.41788	0.17634	0.17917	0.17146	0.039102	0.22156	0.23724	0.1329	0.33997	-2.2438	-2.8875	-2.6771	-2.8604	-2.9333	-2.6396	-3.1729	-2.875	-2.9771	-3.0083	-2.8312	-2.8438	-3.0354	-2.6688	-2.7958	-2.9229	248.197	99.819	308.895	438.976	207.329	266.433	430.296	363.609	305.330	359.079	438.652	200.502	283.060	116.107	435.043	446.956	0.00064544	0.00024463	4.0977e-05	1226.1	2.3869e-06	1.4161e-06	1301.2	253.32	7.3116e-07	1.1223e-06	315.36	88.145	69.198	19.94	2.6382e-06	28.199	5.8807e-05	5.5721e-05	1.7148e-05	1140.4	5.8665e-07	6.1511e-07	1212.3	237.34	5.8446e-07	6.3342e-07	282.23	80.543	60.621	18.506	6.6719e-07	25.749	338.260	139.001	210.448	101.711	215.446	298.344	101.588	108.688	230.897	165.772	108.442	115.366	115.515	122.456	231.998	121.486	-8191	255	
6914.978	1	1	0	0	0.097523	0.11	0.067095	0.11814	0.10631	0.27604	0.33184	0.05584	0.21509	0.30621	0.1511	0.24868	0.19556	0.094966	0.027093	0.044712	-2.2708	-2.8417	-2.7604	-2.9583	-2.9146	-2.7646	-2.9938	-2.9	-2.7479	-3.0104	-2.9229	-2.9208	-3.0479	-2.5312	-2.9521	-3.1312	415.960	110.923	394.970	261.645	343.727	314.901	371.021	420.166	199.966	241.781	259.209	407.346	387.231	286.967	263.806	429.554	0.00075836	9.6193e-05	7.571e-05	1224.1	1.6106e-06	2.8631e-06	1303	254.41	3.4204e-06	2.3264e-06	314.71	87.963	68.888	20.014	2.6328e-06	28.213	5.795e-05	5.9152e-05	1.6393e-05	1139.9	5.7696e-07	6.41e-07	1213.7	237.58	5.7691e-07	6.4423e-07	282.29	80.327	60.543	18.533	6.4018e-07	25.731	336.182	106.686	171.340	101.609	223.574	165.471	101.376	108.833	245.532	227.744	108.196	115.153	115.230	122.110	194.256	121.847	-8191	255	
6915.074	1	1	0	0	0.19481	0.10462	0.17456	0.19906	0.096333	0.34875	0.25965	0.18081	0.094836	0.10036	0.09848	0.096416	0.046435	0.19156	0.15378	0.13279	-2.1979	-3.0312	-2.8375	-2.6771	-3.0083	-2.7729	-3.1375	-3.0167	-2.9229	-2.7729	-2.8021	-2.7167	-3.1271	-2.7062	-2.7354	-2.9354	262.633	100.928	332.261	93.638	262.243	336.620	363.073	242.749	280.922	383.725	441.732	140.815	355.852	380.738	396.393	184.128	0.0007183	0.00019952	7.4767e-05	1225.3	2.1683e-06	3.8047e-06	1303.9	254.14	2.7388e-06	2.2172e-06	314.56	88.618	69.735	19.954	2.1846e-06	28.199	5.8851e-05	6.1278e-05	1.6034e-05	1140.4	5.9988e-07	6.7216e-07	1214.1	237.75	6.1218e-07	6.754e-07	282.4	80.739	61.011	18.539	6.2552e-07	25.722	335.687	420.434	210.799	101.539	205.473	129.725	101.539	108.569	219.441	231.268	108.217	115.129	115.646	121.942	247.631	121.267	-8191	255	
6915.170	1	1	0	0	0.086499	0.16207	0.26236	0.40843	0.15213	0.28087	0.28526	0.28962	0.17834	0.16693	0.3184	0.15127	0.2252	0.079579	0.12311	0.17252	-2.0979	-2.7313	-2.9229	-2.6417	-2.9688	-3.0438	-2.8646	-3.0062	-2.6813	-2.8208	-2.7958	-2.6083	-2.8208	-2.8083	-2.8063	-3.0312	339.269	220.346	133.416	410.857	309.715	414.843	441.864	376.746	147.900	434.180	393.700	394.102	328.550	255.460	355.353	92.444	0.00070841	0.00030753	6.0011e-05	1229.9	2.3656e-06	8.7548e-07	1304	255.64	3.4022e-06	1.5871e-06	315.65	88.724	70.077	20.16	9.8875e-07	28.311	6.2337e-05	6.2062e-05	1.6091e-05	1142.3	6.5784e-07	6.8544e-07	1214.3	238.17	6.7906e-07	6.914e-07	282.9	80.803	61.216	18.632	6.4029e-07	25.789	337.543	192.335	148.801	101.529	226.265	228.546	101.433	108.566	182.041	284.746	108.311	115.306	115.815	122.195	180.028	121.113	-8191	255	
6915.291	1	1	0	0	0.23942	0.20048	0.10324	0.25306	0.14787	0.074819	0.34378	0.49563	0.28725	0.16064	0.18473	0.14946	0.2481	0.14301	0.049157	0.10371	-2.3417	-2.9021	-2.8542	-2.8396	-2.8792	-2.7833	-2.9125	-3.2438	-2.7458	-2.9062	-3.0312	-2.7562	-3.0375	-2.7958	-2.7854	-2.8729	94.522	109.155	437.280	442.410	324.394	386.173	398.904	417.092	235.220	276.078	441.528	415.198	367.085	369.123	100.311	283.149	0.00081202	7.4698e-05	5.3905e-05	1226.8	2.9718e-06	2.9395e-06	1304.7	255.81	2.6913e-06	2.4866e-06	316.45	88.267	69.548	19.988	2.8663e-06	28.17	6.7471e-05	6.2153e-05	1.5917e-05	1143.1	6.9482e-07	6.7463e-07	1215.6	238.81	7.0358e-07	6.5508e-07	282.84	80.825	61.192	18.593	6.1184e-07	25.821	343.616	160.445	243.883	101.577	174.657	286.144	101.653	108.962	179.137	199.006	108.439	115.195	115.228	122.380	186.802	121.789	-8191	255	
6915.387	1	1	0	0	0.20032	0.070618	0.10016	0.20057	0.28517	0.22922	0.23498	0.18238	0.014844	0.15236	0.15513	0.16659	0.29624	0.21346	0.2632	0.28363	-2.3812	-2.7583	-2.9875	-2.7562	-3.1646	-2.9479	-2.9229	-3.0354	-2.9396	-2.7938	-3.0458	-2.7771	-3.0354	-2.9062	-2.6771	-3.0771	367.332	211.433	225.619	351.082	156.001	411.213	392.337	179.464	431.970	297.063	226.435	256.517	398.018	375.140	211.974	353.505	0.00070298	0.00017863	2.5858e-05	1230.4	8.4088e-07	6.8932e-07	1303.3	256.28	4.2521e-06	2.8612e-06	316.63	88.722	69.61	20.148	9.5563e-07	28.256	6.8284e-05	5.8718e-05	1.5126e-05	1145.9	7.0626e-07	6.3385e-07	1216	238.71	7.1057e-07	6.3907e-07	283.45	80.939	61.212	18.605	6.0585e-07	25.895	333.936	376.385	170.539	101.610	182.561	314.211	101.690	108.773	184.638	234.937	108.307	114.994	115.509	122.199	230.907	121.543	-8191	255	
6915.483	1	1	0	0	0.13753	0.079042	0.096685	0.14713	0.089161	0.14156	0.086088	0.23774	0.13963	0.17125	0.2089	0.13415	0.089539	0.020519	0.15929	0.1949	-2.3229	-2.8125	-2.9292	-2.8083	-2.9604	-2.9938	-2.9208	-2.9396	-2.9771	-2.6771	-3.1292	-2.7333	-2.9813	-3.0021	-2.6625	-2.8708	401.764	440.791	368.455	419.491	131.123	282.067	393.101	311.460	172.501	113.106	429.513	373.826	152.263	402.519	273.992	309.687	0.00063367	0.00030419	2.487e-05	1227.7	3.059e-06	2.2223e-06	1307.7	257.09	3.0732e-06	1.8051e-06	316.78	88.778	69.573	20.206	2.331e-06	28.169	6.976e-05	5.8683e-05	1.4932e-05	1146.7	7.024e-07	6.2679e-07	1217	239.51	6.8405e-07	6.1879e-07	282.85	81.144	61.123	18.639	5.9807e-07	25.887	342.075	435.412	234.511	101.701	199.421	295.987	101.757	108.880	221.575	270.757	108.644	115.059	115.293	122.098	246.525	121.320	-8191	255	
6915.579	1	1	0	0	0.35162	0.15424	0.31824	0.075732	0.31894	0.22739	0.11299	0.45479	0.1614	0.12658	0.093947	0.28734	0.18751	0.063351	0.14945	0.35998	-2.4917	-2.7229	-2.9688	-2.7917	-3.0125	-2.9417	-2.8396	-3.0333	-2.9979	-2.6333	-2.9813	-2.7771	-3.0229	-3.05	-2.7396	-3.0229	361.283	400.880	326.444	438.417	427.819	180.034	393.780	414.827	203.131	229.854	370.876	97.421	206.058	380.772	327.786	361.689	0.00082148	0.00026631	2.7591e-05	1228.6	7.1108e-07	1.4733e-06	1305.3	257.6	2.7046e-06	1.0991e-06	317.09	88.696	69.531	20.091	1.2081e-06	28.407	6.5342e-05	5.6777e-05	1.5122e-05	1145.8	6.632e-07	6.0464e-07	1216.2	240.14	6.5899e-07	6.1112e-07	283.54	81.144	61.151	18.561	6.0646e-07	25.951	339.648	147.476	206.854	101.523	377.011	108.329	101.483	109.191	258.599	240.719	108.491	114.960	115.562	122.369	219.866	121.482	-8191	255	
6915.676	1	1	0	0	0.19117	0.072198	0.30339	0.039759	0.19462	0.08368	0.15679	0.18264	0.27488	0.17298	0.091044	0.29609	0.1562	0.22573	0.22266	0.088113	-2.3937	-2.6875	-3.1354	-2.8646	-2.8083	-3.2313	-2.8042	-3.0646	-2.9667	-2.7354	-3.1188	-2.7833	-2.9125	-2.9854	-2.8625	-2.95	240.736	255.739	194.690	151.233	233.260	325.251	357.863	319.715	413.414	218.307	102.607	367.689	377.592	403.023	242.263	362.849	0.00072183	0.00011705	4.6796e-05	1233.3	1.9718e-06	6.0366e-06	1306.6	257.21	2.5639e-06	1.4107e-06	316.06	88.797	69.827	20.147	3.0512e-06	28.437	6.2658e-05	5.4092e-05	1.5324e-05	1146.6	6.3644e-07	5.8446e-07	1214.9	239.9	6.3318e-07	5.7169e-07	283.44	81.139	61.071	18.561	6.4818e-07	25.947	336.736	219.470	164.144	101.609	132.460	201.357	101.717	109.003	243.256	308.931	108.507	114.942	115.483	122.268	184.321	121.396	-8191	255	
6915.772	1	1	0	0	0.29254	0.18525	0.032077	0.11372	0.19804	0.18817	0.17804	0.22446	0.14444	0.21575	0.16021	0.13614	0.094734	0.21705	0.081504	0.10729	-2.5042	-2.6688	-2.9208	-2.9271	-2.7042	-3.1063	-2.8292	-2.8896	-2.9958	-2.75	-3.0292	-2.8833	-2.6854	-2.925	-2.8833	-2.9062	339.493	230.596	415.402	363.864	316.239	350.749	355.569	344.388	167.474	181.659	322.986	429.394	165.460	442.997	340.850	190.297	0.00083446	0.00025079	3.8077e-05	1230.2	1.7251e-06	9.0163e-07	1305.2	257.35	2.4299e-06	2.6188e-06	317.17	88.679	69.515	20.14	3.56e-06	28.241	6.1767e-05	5.2004e-05	1.6079e-05	1145.2	6.1288e-07	5.5601e-07	1217.3	239.8	5.9601e-07	5.5954e-07	283.81	81.109	61.049	18.552	6.5824e-07	25.879	340.509	131.304	167.734	101.572	223.662	162.569	101.663	108.779	202.058	189.444	108.260	114.896	116.111	122.214	184.256	121.419	-8191	255	
6915.891	1	1	0	0	0.10728	0.051502	0.27384	0.16978	0.056201	0.16277	0.12689	0.31913	0.039757	0.18747	0.29295	0.29075	0.28541	0.072361	0.021751	0.21253	-2.4146	-2.6458	-2.9813	-2.7271	-2.5563	-3.1542	-2.7875	-2.9083	-3.0333	-2.7458	-3.1479	-3.0146	-2.6063	-3.075	-2.7854	-2.7354	352.642	438.720	216.491	443.629	363.176	285.360	377.782	93.610	421.361	351.039	365.956	125.629	409.409	397.138	125.612	100.913	0.00078003	0.00039453	8.2903e-05	1229.6	1.2755e-06	2.0162e-06	1306.1	256.47	4.6728e-06	3.9084e-06	317.33	88.555	69.823	20.094	2.252e-06	28.363	5.8524e-05	5.2662e-05	1.6213e-05	1145.9	5.9039e-07	5.5846e-07	1217.7	239.23	5.8189e-07	5.8039e-07	284.25	80.932	61.026	18.576	6.5607e-07	25.873	341.608	130.744	433.668	101.555	126.372	227.045	101.501	108.761	213.430	198.592	108.289	114.843	115.392	121.947	215.563	121.176	-8191	255	
6915.987	1	1	0	0	0.13723	0.091392	0.19446	0.023732	0.23691	0.14659	0.16562	0.33488	0.19674	0.16218	0.26079	0.1907	0.12986	0.10197	0.14455	0.15155	-2.55	-2.6979	-2.9292	-2.9958	-2.675	-2.9625	-3.0062	-2.7438	-3.0625	-2.6833	-2.9833	-3.0104	-2.6979	-3.0583	-2.9042	-2.6729	223.863	400.106	246.097	274.973	418.055	286.131	385.285	433.234	276.874	310.760	405.645	108.708	228.269	426.382	270.635	271.343	0.00075988	0.00024661	3.5654e-05	1231.1	1.9363e-07	3.9878e-06	1305.5	257.62	3.2621e-06	4.0289e-06	316.41	88.346	69.686	20.24	1.5489e-06	28.441	5.6953e-05	5.5053e-05	1.6307e-05	1145.2	5.782e-07	6.0088e-07	1218.6	239.78	5.7269e-07	6.1168e-07	283.8	80.934	60.854	18.618	6.5449e-07	25.93	343.507	148.226	213.782	101.593	412.916	221.953	101.471	108.804	193.864	265.777	108.482	114.991	115.447	122.655	185.671	121.557	-8191	255	
6916.083	1	1	0	0	0.24319	0.11988	0.10733	0.37033	0.21575	0.24676	0.10622	0.26861	0.10276	0.23153	0.059373	0.15906	0.13398	0.15214	0.10259	0.21484	-2.6479	-2.6562	-2.9979	-3.0708	-2.8125	-2.8958	-2.925	-2.8417	-3.0417	-2.7854	-2.8583	-3.0354	-2.6354	-3.0646	-2.8646	-2.7604	298.846	337.249	225.629	405.201	91.288	437.108	414.735	357.086	435.540	175.124	159.839	360.006	228.831	414.901	118.682	219.538	0.00069324	0.00031182	7.2658e-05	1227.1	2.3612e-06	2.7016e-06	1307	257.36	3.0589e-06	2.8681e-06	317.73	88.783	69.768	20.224	1.6609e-06	28.362	5.6076e-05	5.8679e-05	1.6276e-05	1144.5	5.843e-07	6.4265e-07	1219.1	240.15	5.8042e-07	6.6136e-07	284.38	81.02	61.043	18.664	6.2617e-07	25.853	332.109	136.766	184.295	101.987	214.943	132.455	101.588	108.764	193.159	190.487	108.328	115.167	115.318	122.174	269.067	121.751	-8191	255	
6916.179	1	1	0	0	0.10559	0.038895	0.071335	0.12861	0.28795	0.19191	0.13134	0.38807	0.1272	0.17967	0.052145	0.063867	0.11249	0.082177	0.081211	0.10957	-2.4938	-2.7729	-2.6875	-3.0875	-2.7313	-3.0354	-3.0729	-2.7771	-3.1208	-2.8021	-2.8604	-3.2271	-2.7792	-2.8937	-2.8979	-2.7771	187.561	202.008	404.093	431.248	345.466	348.392	330.134	396.376	234.926	104.445	302.953	290.880	379.256	235.921	145.320	293.293	0.00061198	0.00014264	4.6623e-05	1234.6	4.8626e-06	3.2063e-06	1312.5	257.27	3.0257e-06	1.5969e-06	317.86	88.448	70.036	20.181	3.2541e-06	28.463	5.7376e-05	6.0584e-05	1.5628e-05	1147.1	6.0237e-07	6.5986e-07	1219.7	240.09	5.9287e-07	6.5913e-07	284.14	80.945	61.102	18.682	6.1147e-07	25.839	340.119	444.102	215.733	101.544	181.991	217.875	101.635	108.735	215.793	100.930	108.473	115.217	115.697	122.405	226.946	121.602	-8191	255	
6916.275	1	1	0	0	0.17214	0.26708	0.090411	0.21801	0.067044	0.26927	0.10599	0.25375	0.044808	0.16815	0.16198	0.2526	0.12243	0.14488	0.28923	0.17298	-2.5958	-2.7521	-2.7333	-3.3063	-2.7354	-2.9396	-2.85	-2.6708	-3.0563	-2.7917	-2.7646	-3.0292	-2.8083	-2.7562	-3	-2.7104	335.749	270.809	181.337	99.699	386.332	434.591	103.252	125.009	102.081	248.580	123.503	342.365	260.947	108.545	246.538	93.655	0.00073963	3.9305e-05	5.5545e-05	1237.2	3.0586e-06	2.7621e-06	1304	257.54	3.2678e-06	2.1077e-06	315.22	88.902	69.41	20.166	2.0242e-06	28.444	6.0837e-05	6.0699e-05	1.5107e-05	1147.7	6.2627e-07	6.3836e-07	1218.8	239.65	6.3189e-07	6.3088e-07	283.36	81.027	61.057	18.7	5.8825e-07	25.821	332.429	176.986	226.868	101.526	193.680	158.571	101.661	108.531	216.834	249.605	108.349	115.135	115.410	122.222	208.170	121.534	-8191	255	
6916.371	1	1	0	0	0.085978	0.095244	0.1558	0.21728	0.24835	0.14236	0.41369	0.33592	0.14627	0.15108	0.11426	0.16162	0.20437	0.3513	0.10399	0.022746	-2.5875	-2.8333	-2.7188	-3.3146	-2.7354	-3.05	-3.1875	-2.9062	-3.0042	-2.7542	-2.7667	-2.8937	-2.8688	-2.9375	-3.1208	-2.7	382.986	431.713	221.212	412.487	179.852	339.433	404.494	359.684	231.855	212.957	403.826	334.883	415.990	422.016	198.560	229.176	0.00081417	5.55e-05	3.7224e-05	1236.4	1.7906e-06	3.326e-06	1308.4	256.97	4.9147e-06	2.9867e-06	317.55	88.701	69.587	20.15	2.6902e-06	28.386	6.3235e-05	5.8035e-05	1.4705e-05	1147.2	6.678e-07	6.1233e-07	1218.1	239.61	6.5865e-07	6.0971e-07	283.49	80.803	61.163	18.57	5.6319e-07	25.846	337.923	138.182	201.462	101.653	231.944	218.022	101.609	108.738	230.490	253.446	108.422	115.027	115.548	122.296	211.670	121.568	-8191	255	
6916.467	1	1	0	0	0.14078	0.14223	0.12314	0.34494	0.22341	0.23214	0.31438	0.15193	0.23288	0.11132	0.24915	0.13559	0.22358	0.12187	0.22335	0.25223	-2.625	-2.9229	-2.8875	-3.3438	-2.7083	-3.0062	-3.1063	-2.7854	-3.0271	-2.8417	-2.7542	-3.0583	-2.8896	-2.8333	-2.9625	-2.8187	336.363	267.857	166.571	419.696	243.381	368.799	114.569	353.595	150.639	343.788	415.440	338.920	414.084	319.109	169.309	428.892	0.00080656	0.00033538	2.4546e-05	1228.1	2.9328e-06	7.0694e-07	1305.4	257.24	2.7148e-06	1.7593e-06	317.23	88.561	69.589	20.169	8.8157e-07	28.311	6.2983e-05	5.4067e-05	1.382e-05	1143.1	6.4306e-07	5.7587e-07	1214.6	239.44	6.3199e-07	5.7154e-07	283.58	80.697	61.048	18.584	5.2933e-07	25.793	329.667	184.152	417.524	101.805	146.830	209.307	101.756	108.828	242.654	281.946	108.308	115.045	115.558	122.205	295.342	121.507	-8191	255	
6916.588	1	1	0	0	0.14713	0.21358	0.27432	0.37588	0.05254	0.093994	0.12627	0.12868	0.1126	0.1306	0.30817	0.2307	0.12164	0.14382	0.14989	0.051934	-2.4875	-2.9437	-2.65	-3.1208	-2.8271	-2.6792	-3.1521	-2.7917	-2.8063	-3.0979	-2.6479	-2.9313	-2.9146	-2.6917	-2.9396	-2.7625	402.372	196.810	214.272	398.434	156.224	125.840	377.456	410.135	433.906	202.607	352.960	327.122	135.804	430.092	275.529	316.024	0.0006629	0.00026841	4.4351e-05	1230.9	1.8537e-06	8.572e-07	1302.7	256.47	4.547e-06	1.1858e-06	315.22	88.187	69.435	20.199	1.9669e-06	28.332	6.0344e-05	5.1528e-05	1.3322e-05	1142.7	6.2597e-07	5.6076e-07	1212.9	239.57	6.1019e-07	5.4818e-07	281.89	81.024	60.885	18.557	5.176e-07	25.831	334.368	112.222	172.097	101.562	243.438	215.456	101.457	109.089	231.664	231.668	108.400	115.174	115.785	122.344	165.521	121.477	-8191	255	
6916.683	1	1	0	0	0.07424	0.19958	0.11127	0.30245	0.11799	0.31627	0.37334	0.068828	0.11083	0.1931	0.24002	0.10896	0.077135	0.17034	0.14342	0.046817	-2.5021	-2.9958	-2.6125	-3.1021	-2.9437	-2.8292	-3.2229	-2.7958	-2.7667	-3.0083	-2.8812	-2.8229	-2.8542	-2.5271	-2.9354	-2.7896	317.609	96.421	389.756	423.852	143.435	193.583	363.370	290.339	386.075	303.550	448.861	316.935	273.479	223.659	335.382	332.480	0.00068738	0.00016686	7.0276e-05	1230.5	1.9341e-06	1.6787e-06	1304.7	256.28	4.236e-06	2.8142e-06	315.17	88.424	69.326	20.148	3.5723e-06	28.487	5.6671e-05	4.8307e-05	1.3269e-05	1141.8	5.7741e-07	5.2784e-07	1211.7	239.21	5.7986e-07	5.235e-07	282.57	80.899	60.679	18.493	5.4163e-07	25.847	337.147	101.119	162.115	101.553	256.372	188.185	101.630	108.798	191.694	184.541	108.338	115.305	115.680	122.212	174.368	121.592	-8191	255	
6916.756	1	1	0	0	0.17911	0.13789	0.038307	0.20881	0.10824	0.12996	0.20191	0.10144	0.1955	0.19907	0.19561	0.22435	0.052436	0.15125	0.13001	0.18868	-2.5646	-2.8792	-2.5458	-3.1375	-2.8604	-2.5292	-3.05	-2.7938	-2.8229	-3.1	-2.7875	-3.0479	-2.9229	-2.7375	-2.9375	-2.9104	422.658	319.716	300.820	406.921	241.864	99.193	129.838	407.431	301.693	177.149	443.485	291.784	317.667	440.338	151.805	293.219	0.00077666	0.00023369	4.0634e-05	1227.1	3.3713e-06	2.5525e-06	1302.5	256.5	1.4474e-06	1.5168e-06	316.43	88.66	69.297	20.08	3.3317e-06	28.268	5.7185e-05	4.7475e-05	1.3979e-05	1140.5	5.7513e-07	5.3336e-07	1211.8	239.11	5.768e-07	5.1942e-07	282.98	80.863	60.898	18.489	5.8446e-07	25.856	332.760	136.487	191.255	101.755	236.536	198.994	101.591	109.119	209.763	210.577	108.572	115.151	115.362	122.468	187.819	121.571	-8191	255	
6916.852	1	1	0	0	0.22639	0.18255	0.13589	0.1581	0.11447	0.062127	0.049761	0.098697	0.17598	0.078813	0.17497	0.04299	0.21901	0.20999	0.10345	0.14165	-2.3896	-2.9208	-2.6896	-2.9042	-2.7458	-2.7771	-3.2542	-2.875	-2.7062	-3.1833	-2.7333	-2.875	-2.9917	-2.6333	-2.9875	-2.8375	131.299	250.421	329.420	131.019	312.608	323.381	231.057	427.554	281.022	315.270	312.595	252.079	416.255	97.073	257.976	207.678	0.00071157	0.00022508	6.6501e-05	1221.2	7.4684e-07	1.4293e-06	1301.9	256.87	6.7668e-06	3.6879e-06	317.18	88.14	69.66	20.224	1.9465e-06	28.442	5.7189e-05	4.7897e-05	1.5451e-05	1138.7	5.7396e-07	5.3167e-07	1213.1	239.01	5.9223e-07	5.3568e-07	283.77	80.862	60.831	18.556	6.4479e-07	25.943	338.076	387.548	170.161	101.866	207.180	202.101	101.649	108.742	198.630	164.955	108.367	115.272	115.686	122.053	197.363	121.713	-8191	255	
6916.971	1	1	0	0	0.1227	0.14318	0.027585	0.094969	0.088998	0.11731	0.27357	0.29041	0.10211	0.13538	0.35749	0.13441	0.10745	0.10426	0.11056	0.029741	-2.2208	-2.8646	-2.8125	-2.9396	-3.0208	-2.6021	-3.0479	-3.0062	-2.8438	-3.0854	-2.8542	-2.85	-3.0312	-2.9604	-2.8271	-3.2083	270.288	122.190	305.964	116.966	174.196	334.610	292.013	392.351	334.386	277.433	399.915	338.261	365.332	382.921	108.992	180.616	0.00068206	0.00038303	4.6447e-05	1227.6	2.747e-06	7.5755e-07	1301.8	255.84	3.5653e-06	1.8984e-06	317.42	88.672	69.796	20.108	1.8672e-06	28.225	5.8393e-05	5.1022e-05	1.6595e-05	1141.4	5.9396e-07	5.686e-07	1214.6	239.42	5.7339e-07	5.7224e-07	284.51	80.881	60.888	18.555	6.572e-07	25.879	339.517	132.667	188.237	101.646	181.215	213.849	101.704	108.826	222.045	295.309	108.544	114.874	115.852	122.268	202.095	121.980	-8191	255	
6917.067	1	1	0	0	0.12747	0.20284	0.19772	0.27576	0.087094	0.22723	0.10314	0.3279	0.13376	0.10519	0.13888	0.22323	0.20325	0.11238	0.20716	0.115	-2.2604	-3.0938	-2.8708	-3.0104	-3.0542	-2.8479	-3.0354	-2.9833	-2.8167	-2.9521	-2.9938	-2.7729	-3.2792	-2.7083	-3.05	-2.9521	299.832	181.704	283.129	396.365	344.884	355.924	93.950	397.161	90.938	217.969	445.191	430.214	139.064	130.564	381.378	393.568	0.00073802	0.00039376	4.552e-05	1227.6	2.9851e-06	9.6149e-07	1301.7	255.77	3.2406e-06	9.1488e-07	318.31	88.799	69.897	20.077	1.2968e-07	28.25	5.6892e-05	5.4936e-05	1.6642e-05	1142.5	5.7553e-07	6.0362e-07	1216.9	239.24	5.7122e-07	6.1062e-07	284.67	80.897	60.822	18.549	6.365e-07	25.82	336.904	135.480	146.040	101.718	248.800	111.448	101.585	108.900	231.325	163.914	108.298	115.073	115.703	122.286	351.455	121.509	-8191	255	
6917.163	1	1	0	0	0.37052	0.11157	0.19614	0.24534	0.16246	0.19112	0.24376	0.24813	0.16084	0.093945	0.31669	0.051021	0.22281	0.099627	0.23343	0.32466	-2.3812	-3.0312	-2.8229	-2.825	-3.2271	-2.85	-2.9688	-3.1312	-2.625	-2.9521	-2.9854	-2.8354	-2.9042	-2.7333	-3.0062	-3.0292	223.232	97.525	350.827	396.965	309.593	357.665	422.004	326.543	98.688	97.209	389.119	410.015	188.483	174.107	319.084	406.944	0.00083758	0.00040614	5.0872e-05	1226.3	3.483e-06	3.9197e-06	1305	256.6	4.0695e-06	4.0292e-07	316.22	88.52	69.31	20.106	1.5597e-07	28.148	5.6405e-05	5.7878e-05	1.6097e-05	1142.4	5.6905e-07	6.2248e-07	1214.7	239.18	5.7685e-07	6.4019e-07	283.45	80.77	60.795	18.586	6.2126e-07	25.705	334.356	149.651	222.597	101.628	215.579	179.484	101.715	108.804	185.187	392.379	108.237	115.085	115.790	122.081	432.165	121.638	-8191	255	
6917.284	1	1	0	0	0.27725	0.057834	0.17495	0.1651	0.16966	0.061371	0.23007	0.23067	0.041303	0.11596	0.057024	0.051321	0.18302	0.15975	0.14875	0.21986	-2.1521	-2.9417	-2.7979	-2.7313	-3.1021	-2.8271	-2.9958	-3.0375	-2.6083	-2.9938	-3.0896	-2.6583	-2.9417	-2.9146	-2.6958	-3.0625	262.275	110.453	100.286	339.628	314.002	338.022	391.077	342.606	144.264	327.556	375.901	446.931	309.874	418.547	188.317	415.280	0.00078129	8.6516e-05	4.7815e-05	1226.8	3.4446e-06	3.942e-06	1304.8	256.13	4.4502e-06	2.2067e-06	318.68	88.38	69.323	20.165	1.9263e-06	28.39	5.7762e-05	6.0533e-05	1.5643e-05	1141.8	5.9795e-07	6.5598e-07	1215.5	238.88	6.1223e-07	6.7383e-07	284.45	80.939	60.939	18.627	6.3005e-07	25.798	336.273	154.579	141.544	101.518	197.821	222.853	101.606	108.909	234.361	246.584	108.457	115.223	115.247	122.213	243.449	121.561	-8191	255	
6917.380	1	1	0	0	0.15101	0.16931	0.18971	0.18773	0.17809	0.10302	0.17328	0.15948	0.103	0.29307	0.082892	0.19348	0.29023	0.31119	0.42909	0.12109	-2.3729	-2.8521	-2.8479	-2.8063	-3.0021	-2.8167	-2.9938	-3.2188	-2.6729	-2.9583	-3.125	-2.7146	-3.075	-2.8312	-2.8208	-2.9521	255.535	240.710	319.748	424.357	286.452	271.557	91.097	379.876	419.451	279.009	388.718	414.984	366.250	221.217	378.934	156.601	0.0008726	0.00030381	2.9763e-05	1225.7	2.8164e-06	2.984e-06	1303.5	257.03	4.8313e-06	2.9695e-06	316.53	88.752	69.543	20.043	2.5251e-06	28.271	6.409e-05	6.2192e-05	1.6027e-05	1142.1	6.6859e-07	6.8397e-07	1214.8	239.39	6.6882e-07	6.7491e-07	284.15	80.912	61.191	18.607	6.3003e-07	25.769	337.080	139.318	166.912	101.517	244.188	228.548	101.688	108.698	183.600	252.298	108.345	115.275	115.911	122.436	153.651	121.358	-8191	255	
6917.452	1	1	0	0	0.1394	0.20794	0.050553	0.15977	0.099504	0.17057	0.16657	0.16305	0.080714	0.025287	0.32823	0.12709	0.092132	0.26857	0.20734	0.14087	-2.2396	-2.85	-2.9896	-2.9437	-2.8396	-2.9188	-2.8125	-3.1667	-2.8646	-2.7792	-2.9729	-2.8854	-2.9146	-2.8688	-2.5854	-2.9854	152.268	403.594	368.553	385.913	450.855	222.848	380.296	412.613	221.803	150.629	412.243	345.228	114.685	421.275	308.997	386.697	0.00075147	2.4555e-05	4.6766e-05	1230	2.1522e-06	2.4805e-06	1304.8	256.11	4.3413e-06	2.8757e-06	316.2	88.426	69.586	19.988	3.5843e-06	28.296	6.7344e-05	6.0988e-05	1.5765e-05	1144.3	7.0012e-07	6.5823e-07	1214.9	239.54	7.1303e-07	6.5552e-07	283.84	80.703	61.241	18.54	6.1152e-07	25.838	337.848	359.093	146.775	101.715	215.529	167.974	101.684	108.976	221.374	207.977	108.541	114.966	115.540	122.018	237.626	121.666	-8191	255	
6917.572	1	1	0	0	0.095145	0.25042	0.21457	0.050521	0.072891	0.28745	0.25459	0.19526	0.27167	0.2782	0.1673	0.046861	0.27701	0.16679	0.13296	0.10381	-2.3521	-2.6937	-3.0542	-2.8271	-3.0062	-2.8958	-2.8812	-2.9583	-2.8271	-2.7833	-3.0333	-2.7417	-2.8521	-2.825	-2.8271	-3.0708	421.697	287.626	133.950	445.365	323.814	262.032	319.121	390.427	200.190	429.508	350.257	136.444	386.185	417.882	207.133	420.702	0.00087773	0.00014668	5.8481e-05	1229.1	4.7335e-06	6.6356e-06	1304.9	257.48	1.6493e-06	8.7246e-07	318.57	88.242	69.213	20.031	1.9753e-06	28.376	6.9566e-05	5.9015e-05	1.5611e-05	1144.8	7.2674e-07	6.5143e-07	1216.2	239.81	7.1751e-07	6.5115e-07	284.48	80.761	61.251	18.55	6.1034e-07	25.842	338.714	445.918	190.217	101.687	200.847	192.869	101.722	108.969	243.148	446.489	108.505	114.944	115.322	122.587	205.566	121.758	-8191	255	
6917.668	1	1	0	0	0.044773	0.066912	0.18177	0.15006	0.14405	0.28628	0.17968	0.06069	0.18111	0.059894	0.065271	0.096147	0.029872	0.26613	0.19018	0.1836	-2.2292	-2.8771	-2.9875	-2.8896	-2.9625	-2.9604	-2.9188	-3.1333	-2.7604	-2.75	-3.0896	-2.6479	-2.875	-2.9083	-2.7458	-2.9833	200.645	270.997	311.241	409.331	295.965	244.423	105.485	272.580	342.036	448.217	325.424	163.335	425.426	405.644	414.951	375.680	0.00076571	0.00027828	4.2397e-05	1227.7	7.384e-07	3.5527e-06	1304.6	256.99	1.7548e-06	2.5441e-06	316.18	88.457	70.004	20.028	2.6838e-06	28.28	6.9153e-05	5.8667e-05	1.4979e-05	1143.3	7.0018e-07	6.3273e-07	1213.7	239.75	6.9092e-07	6.2094e-07	283.87	80.687	61.167	18.505	5.8657e-07	25.827	335.940	123.940	131.345	101.616	224.739	224.908	101.509	109.073	164.342	194.209	108.355	115.131	115.853	122.426	178.268	121.343	-8191	255	
6917.765	1	1	0	0	0.15503	0.07337	0.067046	0.11869	0.18963	0.27578	0.43086	0.1964	0.10467	0.13455	0.19682	0.023984	0.14456	0.067447	0.1666	0.13529	-2.3625	-2.8021	-2.9958	-2.8771	-2.975	-3.0333	-2.6979	-3.075	-2.9896	-2.8312	-3.1625	-2.8438	-2.8854	-3.0917	-2.8625	-3.0667	104.404	447.517	312.776	271.958	144.913	220.780	384.391	425.733	249.594	273.368	397.945	162.331	172.350	445.628	229.767	149.582	0.00072654	0.0002271	6.0741e-05	1225.4	1.191e-06	8.2816e-07	1303.7	256.95	2.2791e-06	3.615e-06	317.87	88.448	68.934	19.988	1.9764e-06	28.088	6.4357e-05	5.5285e-05	1.4957e-05	1142.1	6.5762e-07	5.899e-07	1214.3	239.89	6.2962e-07	5.7477e-07	283.34	80.644	60.683	18.395	5.7756e-07	25.747	334.509	127.066	152.332	101.804	261.919	269.729	101.845	108.921	207.069	254.371	108.513	114.979	116.142	122.470	210.028	122.392	-8191	255	
6917.884	1	1	0	0	0.10747	0.13401	0.34007	0.060444	0.15793	0.12126	0.22057	0.16241	0.23153	0.31189	0.11836	0.12046	0.14978	0.27269	0.25384	0.18567	-2.4437	-2.7104	-3.0312	-2.8583	-2.8729	-2.975	-2.9396	-3.0604	-3.0229	-2.7188	-3.0958	-2.9771	-2.8042	-3.0938	-2.6542	-2.9375	100.044	317.208	206.231	430.799	394.476	444.111	427.308	387.371	249.691	241.141	246.043	403.282	124.799	381.756	208.671	435.873	0.00069079	0.00016831	7.0582e-05	1222.8	2.7109e-06	1.673e-06	1297.2	255.77	3.0375e-06	1.2967e-06	316.96	88.119	69.941	19.927	2.5208e-06	28.048	5.9099e-05	5.0775e-05	1.4704e-05	1140	6.0359e-07	5.5833e-07	1209.9	238.89	5.9763e-07	5.4897e-07	283.27	80.613	60.814	18.389	6.217e-07	25.738	342.047	126.132	188.117	101.567	239.399	312.359	101.805	108.913	224.576	269.887	108.273	115.289	115.664	122.520	220.700	121.676	-8191	255	
6917.980	1	1	0	0	0.1069	0.14984	0.12046	0.18599	0.21927	0.10074	0.28966	0.26728	0.12968	0.096218	0.15466	0.12252	0.20873	0.10612	0.024745	0.067058	-2.3875	-2.6104	-2.8729	-3.1146	-2.6646	-3.225	-2.8125	-2.8563	-2.8417	-2.7125	-3.1312	-2.9771	-2.7104	-3.1667	-2.6917	-2.8604	289.397	427.011	424.535	418.366	392.496	207.734	368.905	114.433	163.103	296.788	276.895	449.839	167.902	208.150	275.569	299.367	0.00070536	7.9381e-05	4.1818e-05	1221.5	2.2455e-06	2.5648e-06	1304.5	255.95	3.8294e-06	1.8194e-06	316.11	88.041	69.257	20.008	2.2422e-06	27.86	5.9278e-05	5.0635e-05	1.57e-05	1139.8	5.9491e-07	5.4735e-07	1211.4	238.76	5.9332e-07	5.5343e-07	283.35	80.517	60.621	18.398	6.5484e-07	25.626	337.950	154.695	104.196	101.432	169.635	162.299	101.490	108.663	235.210	150.437	108.463	115.273	115.619	122.181	234.437	121.666	-8191	255	
6918.051	1	1	0	0	0.42143	0.19297	0.12525	0.25664	0.077718	0.19158	0.05799	0.17298	0.10694	0.099219	0.068509	0.19423	0.25633	0.22995	0.096655	0.19205	-2.4688	-2.775	-3.0062	-2.9167	-2.6104	-3.1396	-2.9729	-2.8438	-3.1396	-2.7854	-2.8937	-2.6792	-2.6771	-3.0771	-2.7542	-2.95	300.561	439.146	312.998	366.986	301.043	258.119	210.729	169.853	246.132	345.460	398.281	357.048	201.707	332.939	279.224	365.942	0.00071209	0.0004604	2.8024e-05	1224.2	2.3187e-06	1.8531e-06	1294.9	255.26	3.5604e-06	1.6897e-06	317.09	87.782	69.12	19.974	2.586e-06	28.203	5.8351e-05	5.236e-05	1.6268e-05	1138.9	5.8396e-07	5.7422e-07	1209.4	238.62	5.7429e-07	5.6935e-07	282.91	80.273	60.553	18.417	6.4505e-07	25.738	336.319	135.778	173.521	101.694	245.944	180.553	101.647	109.251	233.464	217.043	108.200	115.233	115.691	122.597	199.532	121.788	-8191	255	
6918.147	1	1	0	0	0.28881	0.059442	0.33364	0.22049	0.14924	0.19841	0.085063	0.10141	0.17865	0.19829	0.10158	0.049781	0.18062	0.22554	0.15986	0.27452	-2.6292	-2.6542	-2.9104	-3.0292	-2.7771	-3.0208	-2.8625	-2.8354	-2.9437	-2.6208	-3.0667	-2.9417	-2.7146	-3.0563	-2.975	-2.9542	298.320	185.175	278.039	379.488	280.708	415.349	351.578	395.125	213.066	119.578	160.483	117.451	128.872	145.657	302.893	421.330	0.00067355	6.4349e-05	6.728e-05	1222	2.8993e-06	3.7623e-06	1296.8	256.25	4.6708e-06	1.5457e-06	317.54	88.002	68.926	19.906	4.2531e-06	28.18	5.4992e-05	5.3713e-05	1.6392e-05	1137	5.5527e-07	5.8977e-07	1207.7	238.25	5.5273e-07	5.9787e-07	283	80.315	60.421	18.434	6.2288e-07	25.682	331.267	389.695	149.127	101.591	219.197	200.039	101.528	108.812	224.150	230.324	108.564	115.178	115.677	122.306	176.588	121.745	-8191	255	
6918.244	1	1	0	0	0.1043	0.16453	0.15778	0.11573	0.15903	0.16008	0.28211	0.27654	0.042428	0.042303	0.12343	0.14118	0.20286	0.14853	0.1551	0.2763	-2.4396	-2.7438	-2.7938	-3.1792	-2.775	-2.9562	-2.8604	-2.6813	-2.9271	-2.6562	-2.9375	-2.9208	-2.6333	-2.7938	-2.725	-2.6854	438.694	155.992	249.283	411.024	226.121	182.785	414.960	351.403	242.324	256.151	156.265	129.444	113.123	382.226	425.178	387.943	0.00058191	0.00023126	2.818e-05	1219.6	2.1857e-06	2.5296e-06	1294.8	255.71	3.7159e-06	3.7184e-06	315.34	87.6	69.384	19.974	2.2128e-06	27.98	5.4119e-05	5.7972e-05	1.5894e-05	1136.5	5.5724e-07	6.259e-07	1208.5	238.57	5.6177e-07	6.4016e-07	282.84	80.338	60.603	18.488	6.0401e-07	25.622	342.557	187.920	132.859	101.552	201.656	219.080	101.518	108.887	235.597	188.287	108.616	115.050	115.586	122.543	259.908	121.634	-8191	255	
6918.364	1	1	0	0	0.11253	0.062352	0.021596	0.31311	0.17842	0.14408	0.091298	0.22175	0.34862	0.054749	0.28793	0.11686	0.15671	0.16223	0.11839	0.22017	-2.4208	-2.5854	-2.6604	-3.0604	-2.6604	-2.8563	-3.0646	-2.5583	-2.9854	-2.9458	-2.7833	-2.9771	-2.6292	-2.9125	-2.8375	-2.7	207.947	441.960	118.843	436.666	345.445	183.497	378.672	340.928	391.446	343.551	445.798	423.117	319.108	180.753	236.205	348.654	0.00086521	0.00018812	5.5677e-05	1221.7	1.6712e-06	2.3012e-06	1300.8	255.75	4.7995e-06	3.7996e-06	315.92	87.791	69.157	20.134	3.721e-06	28.11	5.5174e-05	5.784e-05	1.5218e-05	1137.4	5.8222e-07	6.2596e-07	1208.2	238.39	5.9346e-07	6.4292e-07	282.42	80.282	60.553	18.488	5.8725e-07	25.558	335.641	128.515	144.693	101.490	192.788	349.752	101.726	108.988	177.210	258.408	108.494	115.104	115.385	122.697	208.938	121.567	-8191	255	
6918.460	1	1	0	0	0.066617	0.11807	0.21137	0.2596	0.098711	0.3009	0.26577	0.17987	0.074509	0.15656	0.2462	0.086753	0.08427	0.19749	0.10241	0.092803	-2.5312	-2.7958	-2.7188	-3.1646	-2.8021	-2.8417	-2.9854	-2.7958	-2.9958	-2.8604	-2.7188	-3.0792	-2.6771	-2.8438	-2.9625	-2.7396	445.367	399.290	276.915	404.016	343.547	203.053	333.415	362.344	326.505	439.440	415.556	132.464	405.663	387.426	381.863	246.351	0.00075411	9.516e-05	7.9753e-05	1219.4	2.71e-06	4.9704e-06	1297.9	256.6	3.5962e-06	2.8201e-06	317.05	87.559	69.421	19.932	3.7301e-06	27.763	5.8547e-05	5.5977e-05	1.4262e-05	1136.2	6.0487e-07	6.1498e-07	1208.8	238.43	5.9294e-07	5.9089e-07	282.63	80.11	60.758	18.428	5.5514e-07	25.535	332.990	200.365	209.546	101.673	194.402	222.259	101.623	108.963	172.136	288.768	108.311	115.107	115.503	122.085	172.769	121.798	-8191	255	
6918.557	1	1	0	0	0.095432	0.12076	0.1748	0.16264	0.21396	0.2172	0.13594	0.055694	0.051106	0.19208	0.082017	0.13802	0.23795	0.055016	0.22233	0.29477	-2.5687	-2.8854	-2.7854	-3.1896	-2.8354	-2.8792	-3.1771	-2.6854	-2.9208	-3.1042	-2.6375	-2.9708	-2.7979	-2.9167	-2.8312	-2.6458	285.680	117.380	379.675	270.559	342.994	160.022	367.435	263.691	205.075	415.168	450.820	130.179	120.175	423.887	392.823	101.731	0.00081631	0.00040594	8.1926e-05	1224.8	2.4849e-06	2.9501e-06	1302.7	255.4	5.5899e-06	1.4125e-06	315.56	88.301	69.666	19.976	1.8511e-06	28.083	5.993e-05	5.3646e-05	1.3988e-05	1136.4	6.1639e-07	5.7696e-07	1209	238.36	6.2075e-07	5.7241e-07	281.72	80.358	60.758	18.409	5.3181e-07	25.671	336.112	157.854	146.279	101.759	224.096	230.972	101.645	109.051	207.014	149.579	108.400	115.091	115.455	122.154	282.920	121.578	-8191	255	
6918.653	1	1	0	0	0.23838	0.32092	0.14731	0.11681	0.0095548	0.10209	0.019053	0.23816	0.28189	0.22995	0.070287	0.35893	0.13196	0.02149	0.084822	0.16497	-2.5417	-2.9792	-2.7229	-3.1021	-2.7	-2.7083	-3.2208	-2.6417	-2.8688	-2.8667	-2.675	-2.9917	-2.6813	-2.8	-3.1562	-2.7104	292.027	93.293	366.061	413.519	170.141	440.525	174.951	91.583	265.923	205.856	150.430	120.354	342.171	185.524	102.533	438.395	0.00076486	0.00016634	5.5528e-05	1223.8	5.6631e-06	2.5744e-06	1298.5	256.03	5.0169e-06	3.3159e-06	315.48	88.245	69.327	19.962	9.0281e-07	28.003	6.0517e-05	5.1891e-05	1.3416e-05	1136.5	6.1728e-07	5.6653e-07	1208.8	238.2	6.2304e-07	5.6171e-07	282.58	80.431	60.846	18.418	5.2577e-07	25.65	343.667	121.318	191.104	101.634	202.710	239.834	101.679	108.786	224.926	255.088	108.418	115.267	115.811	122.476	231.682	121.495	-8191	255	
6918.749	1	1	0	0	0.22536	0.14497	0.124	0.25787	0.23249	0.061636	0.35418	0.16748	0.044043	0.04484	0.23889	0.12515	0.16452	0.13064	0.19127	0.046153	-2.5083	-2.8917	-2.55	-3.1167	-2.7896	-2.7938	-3.1396	-2.7792	-2.8708	-2.9792	-2.6771	-3.025	-2.8708	-2.7458	-2.825	-2.9604	126.219	102.736	403.688	118.430	316.959	394.816	360.300	148.052	399.963	357.852	151.551	335.585	93.649	281.907	287.588	267.038	0.00064581	0.00021038	3.3571e-05	1223.6	1.3894e-06	2.415e-06	1303.3	256.5	3.5272e-06	1.1949e-06	317.24	88.229	69.139	19.995	1.819e-06	28.14	6.0027e-05	5.1643e-05	1.3201e-05	1139.1	6.2086e-07	5.4054e-07	1209.1	239.1	5.9502e-07	5.4166e-07	282.28	80.505	60.753	18.441	5.1944e-07	25.727	342.552	162.508	110.890	101.672	150.913	205.709	101.585	108.991	222.372	174.121	108.252	115.083	115.958	122.132	209.263	121.490	-8191	255	
6918.845	1	1	0	0	0.19083	0.19238	0.2194	0.105	0.27155	0.14431	0.055971	0.40362	0.046689	0.13512	0.044234	0.14682	0.16284	0.22559	0.074553	0.042974	-2.2167	-2.975	-2.7125	-3.0646	-2.8729	-2.8	-3.1708	-2.8104	-2.8083	-2.925	-2.6854	-2.9667	-2.8479	-2.6	-2.9333	-2.9396	409.362	343.296	404.164	120.171	124.653	352.656	100.299	434.080	406.553	322.037	184.853	365.486	363.998	215.956	345.842	312.897	0.00073632	0.00026731	5.7098e-05	1226.2	1.8905e-06	5.6632e-07	1297.6	256.04	2.8795e-06	3.6417e-06	316.81	88.109	69.103	19.844	2.1395e-06	28.157	5.829e-05	4.9067e-05	1.3901e-05	1139.2	6.0281e-07	5.4564e-07	1210	238.77	5.8606e-07	5.3838e-07	282.84	80.582	60.554	18.352	5.54e-07	25.669	340.929	156.358	133.013	101.871	230.150	108.512	101.625	108.982	199.841	283.655	108.514	115.142	115.597	122.083	198.530	121.631	-8191	255	
6918.964	1	1	0	0	0.15466	0.13223	0.071796	0.23999	0.18014	0.1725	0.2012	0.16585	0.10419	0.13951	0.20941	0.099633	0.32582	0.16791	0.12944	0.20001	-2.2958	-3.1208	-2.5812	-3.0958	-2.8917	-2.7229	-3.2958	-2.95	-2.8125	-3.1021	-2.7646	-3.0125	-3.1042	-2.7562	-2.9729	-2.8896	293.739	225.790	190.185	446.588	288.741	95.466	102.938	102.032	406.273	391.020	387.025	381.403	167.639	139.767	418.320	111.368	0.00067879	0.00018833	2.3423e-05	1222.8	3.5946e-06	1.1437e-06	1302.8	256.19	2.4701e-06	2.1009e-06	316.21	88.638	69.553	20.184	1.9401e-06	28.206	5.7385e-05	4.8952e-05	1.4402e-05	1139.6	5.8405e-07	5.3309e-07	1211.7	238.9	5.7738e-07	5.1293e-07	282.28	80.819	60.665	18.426	5.8799e-07	25.729	341.527	138.705	263.298	101.635	216.237	194.523	101.683	108.837	207.929	216.586	108.361	114.888	115.915	122.604	216.075	121.400	-8191	255	
6919.060	1	1	0	0	0.23393	0.32941	0.2967	0.19347	0.072466	0.23991	0.14228	0.12843	0.1621	0.091915	0.31085	0.13552	0.19305	0.13575	0.060617	0.043798	-2.2521	-2.9958	-2.7792	-2.7917	-2.8563	-2.5312	-3.1021	-2.8	-2.5417	-3.1521	-2.8208	-2.9938	-2.8812	-2.6417	-2.9021	-2.7271	429.952	445.609	401.191	315.262	203.364	303.094	439.952	300.432	418.871	320.421	308.722	354.958	397.774	113.203	402.292	262.984	0.00066716	0.00027038	9.6688e-05	1224.9	2.7486e-06	2.6926e-06	1298.1	255.82	3.1294e-06	7.3168e-07	315.98	87.951	69.435	20.065	3.6227e-06	28.098	5.4811e-05	4.7044e-05	1.4814e-05	1137.7	5.6224e-07	5.1023e-07	1210.6	238.41	5.6549e-07	5.1035e-07	283.08	80.404	60.601	18.439	5.9851e-07	25.687	338.669	201.103	136.631	101.697	187.680	175.317	101.863	108.903	231.786	194.358	108.664	115.084	115.884	122.123	182.446	121.848	-8191	255	
6919.156	1	1	0	0	0.025363	0.067352	0.2046	0.11956	0.058958	0.12026	0.32558	0.083513	0.088762	0.24343	0.066275	0.090781	0.035947	0.30429	0.3379	0.12258	-2.3583	-2.9125	-2.7875	-2.8083	-3.0979	-2.6396	-2.9938	-2.9083	-2.6063	-3.0667	-2.8125	-2.8583	-3.0729	-2.4875	-2.8937	-2.9292	357.011	362.221	256.779	368.061	93.852	394.886	430.779	309.537	238.140	298.369	119.241	246.706	198.252	377.851	118.518	315.082	0.000691	0.00024086	5.6078e-05	1218	1.1334e-06	1.5799e-06	1300.7	256.12	4.2171e-06	2.0877e-06	316.4	87.906	69.007	19.948	1.5824e-06	28.187	5.4338e-05	4.7078e-05	1.5331e-05	1134.6	5.3992e-07	5.2625e-07	1208	238.22	5.3578e-07	5.3182e-07	282.85	80.26	60.257	18.394	6.0468e-07	25.658	334.731	122.841	139.240	101.644	237.980	144.248	101.932	109.122	212.165	287.191	108.392	115.297	115.761	122.541	203.241	121.751	-8191	255	
6919.252	1	1	0	0	0.10843	0.1729	0.0513	0.19256	0.15542	0.10027	0.16264	0.098147	0.062638	0.085994	0.16063	0.10303	0.2177	0.20916	0.23623	0.20128	-2.1437	-2.9021	-2.6875	-2.875	-3.025	-2.6562	-3.0917	-3.1437	-2.8667	-2.9938	-2.9271	-2.7979	-3.0167	-2.7625	-2.8146	-3.0042	217.039	285.280	208.718	316.359	226.070	154.114	371.377	383.378	158.835	436.451	133.649	260.916	383.608	184.081	94.151	340.842	0.0007809	0.00025114	4.0484e-06	1222.9	2.9932e-06	4.0975e-06	1300.4	256.63	3.1643e-06	1.6633e-06	315.5	87.803	69.201	19.951	9.0239e-07	28.126	5.262e-05	5.0215e-05	1.4994e-05	1136.4	5.213e-07	5.5747e-07	1208.5	238.23	5.2126e-07	5.6509e-07	282.37	80.148	60.377	18.436	5.951e-07	25.592	345.292	191.396	429.255	101.677	272.442	174.867	101.617	108.899	228.443	205.305	108.482	115.342	115.729	122.077	306.289	121.421	-8191	255	
6919.348	1	1	0	0	0.15219	0.28911	0.13135	0.14557	0.25722	0.21288	0.13006	0.17989	0.40389	0.23502	0.038972	0.30916	0.24421	0.24817	0.18282	0.18132	-2.1396	-2.9042	-2.9021	-2.9146	-2.9292	-2.9437	-2.875	-2.9417	-2.6104	-2.8875	-2.85	-2.6083	-2.8833	-2.8625	-2.8583	-3.1146	154.533	409.173	230.571	262.067	302.254	254.216	417.060	242.602	216.986	256.689	244.894	179.083	413.352	426.261	223.505	356.786	0.00070735	0.00035727	4.7457e-05	1223.6	1.4074e-06	3.1233e-06	1296.9	255.61	2.4819e-06	1.5861e-06	316.23	88.121	69.72	19.967	1.8357e-06	28.156	5.1627e-05	5.3731e-05	1.4876e-05	1135.4	5.3547e-07	6.0434e-07	1207.9	238.1	5.3444e-07	5.9779e-07	282.56	80.401	60.646	18.456	5.7826e-07	25.659	337.597	133.457	238.453	101.606	169.690	181.554	101.632	108.782	173.769	223.066	108.330	115.303	115.756	122.623	132.421	121.413	-8191	255	
6919.445	1	1	0	0	0.13041	0.17833	0.10525	0.02544	0.17748	0.14551	0.051818	0.076896	0.19136	0.21407	0.29972	0.029223	0.033703	0.13831	0.14081	0.08717	-2.0854	-3.0208	-2.975	-2.8125	-3.1125	-2.7458	-2.9083	-3.0583	-2.7104	-2.875	-2.6771	-2.7125	-2.9021	-2.7562	-2.625	-3.0021	300.938	318.841	152.849	341.766	165.629	431.981	414.255	98.167	402.742	110.764	426.531	283.121	423.497	157.853	358.617	335.646	0.00076946	0.00029078	5.611e-05	1218.1	3.1207e-06	2.48e-06	1294.2	256	3.0425e-06	2.7784e-06	316.02	88.064	69.436	20.005	2.2737e-06	28.126	5.6051e-05	5.703e-05	1.4797e-05	1135.7	5.787e-07	6.2941e-07	1207.9	238.41	5.8788e-07	6.2776e-07	282.25	80.284	60.668	18.499	5.9519e-07	25.624	332.663	120.115	197.303	101.615	167.310	196.752	101.602	108.725	243.253	239.845	108.491	115.623	115.536	122.059	218.846	121.881	-8191	255	
6919.565	1	1	0	0	0.043309	0.30515	0.084551	0.099775	0.041226	0.082613	0.16564	0.12184	0.135	0.063125	0.19539	0.15522	0.1458	0.28501	0.053752	0.28973	-2.3812	-2.7521	-2.8563	-2.7021	-2.9146	-2.6854	-2.8042	-3.15	-2.6937	-3.0271	-2.9979	-2.6833	-2.7687	-2.7104	-2.7292	-2.9208	432.425	367.692	438.373	397.103	142.396	403.131	409.385	433.687	257.716	199.300	92.321	407.759	93.119	421.419	391.138	102.918	0.00074165	8.0932e-05	4.2694e-05	1224.5	1.9106e-06	3.3849e-06	1300.1	255.92	4.6213e-06	2.09e-06	314.67	88.299	69.327	19.969	1.6624e-06	28.311	5.9266e-05	5.7185e-05	1.4696e-05	1136.1	6.1119e-07	6.055e-07	1209.1	238.21	6.2087e-07	6.1492e-07	282.34	80.467	60.751	18.467	5.636e-07	25.696	333.742	303.044	232.854	101.684	211.222	159.061	101.615	108.982	215.880	249.527	108.605	115.386	115.592	122.654	169.506	121.505	-8191	255	
6919.661	1	1	0	0	0.17397	0.25959	0.17452	0.23565	0.20544	0.073767	0.47987	0.18031	0.27482	0.226	0.11861	0.33523	0.18135	0.094385	0.2536	0.36548	-2.4271	-2.6604	-3.0083	-2.7167	-2.7771	-2.9958	-2.7896	-2.9917	-2.9229	-2.7812	-3.0521	-2.5708	-2.9771	-2.8187	-2.5479	-2.9625	450.240	252.744	382.676	349.294	305.750	115.220	367.155	438.401	189.439	432.081	313.119	422.836	114.926	347.847	292.955	432.314	0.00081036	6.614e-05	6.8034e-05	1217.7	2.4333e-06	1.7854e-06	1301.4	255.49	6.4317e-06	6.957e-07	315.58	87.806	69.324	19.987	4.0285e-06	27.975	6.1885e-05	5.4626e-05	1.4335e-05	1134.3	6.3072e-07	5.8291e-07	1208.4	238.19	6.3143e-07	5.8072e-07	281.7	80.394	60.856	18.454	5.5173e-07	25.638	329.447	92.850	166.323	101.669	163.493	228.531	101.568	108.819	211.041	208.403	108.380	115.224	115.921	122.233	140.930	121.473	-8191	255	
6919.758	1	1	0	0	0.11862	0.10623	0.16125	0.27998	0.062194	0.30527	0.23252	0.22115	0.046323	0.017299	0.079455	0.27832	0.24109	0.12738	0.089008	0.1375	-2.1771	-2.7313	-2.8937	-2.8042	-3.0146	-2.8479	-2.8396	-2.9875	-2.775	-2.6375	-2.8833	-2.7417	-2.9771	-2.8333	-2.7625	-3.0292	185.667	448.461	117.441	373.883	133.928	169.551	375.770	352.158	134.389	297.358	197.680	370.847	115.873	313.431	103.555	431.962	0.00077835	0.00019297	4.1329e-05	1221.5	1.8027e-06	4.3082e-06	1291.9	255.75	1.0999e-06	1.7625e-06	315.68	88.233	69.172	20.146	2.8462e-06	28.366	6.1352e-05	5.1575e-05	1.3371e-05	1134.1	6.2706e-07	5.5736e-07	1204.3	238.34	6.3559e-07	5.6609e-07	281.94	80.498	60.648	18.452	5.4263e-07	25.77	340.807	206.891	157.312	101.736	212.371	201.571	101.606	108.888	223.786	198.529	108.388	115.190	115.846	122.509	217.555	121.709	-8191	255	
6919.852	1	1	0	0	0.30516	0.13115	0.35697	0.21594	0.20741	0.10092	0.25007	0.24114	0.20874	0.19442	0.085807	0.027506	0.048625	0.22365	0.20641	0.32478	-2.3146	-2.7188	-2.9562	-2.8812	-2.7792	-3.0771	-2.7104	-2.9333	-2.9917	-2.7646	-3.1104	-2.7438	-2.625	-3.1354	-2.7313	-3.0583	397.684	180.887	237.428	362.894	360.930	252.289	329.098	425.052	162.491	292.450	296.689	381.566	258.223	448.646	156.019	189.426	0.00065532	0.00026095	2.8553e-05	1221.8	3.6667e-06	5.7272e-07	1301.2	255.92	3.1189e-06	2.1989e-06	315.95	88.395	68.835	20.018	2.9801e-06	28.224	6.0877e-05	5.2153e-05	1.3663e-05	1135.8	6.2163e-07	5.668e-07	1207.4	238.45	6.0837e-07	5.5453e-07	282.18	80.476	60.597	18.443	5.4599e-07	25.676	346.621	137.298	135.825	101.712	193.952	199.610	101.602	108.863	237.936	204.217	108.254	115.420	115.607	122.152	189.479	121.868	-8191	255	
6919.925	1	1	0	0	0.2506	0.1402	0.061941	0.16817	0.12397	0.114	0.23474	0.34159	0.10907	0.26244	0.056336	0.18058	0.13577	0.16789	0.040389	0.062604	-2.525	-2.7458	-3.0083	-2.9417	-2.8979	-3.075	-2.8417	-3.1417	-2.9771	-2.6813	-3.0792	-2.7333	-2.7583	-2.9167	-2.3667	-2.8958	289.739	263.973	291.385	151.098	169.809	231.236	351.191	93.935	412.132	307.804	298.043	92.769	182.444	442.984	405.240	99.261	0.00073705	0.00029466	2.396e-05	1222.3	3.9998e-06	1.1586e-06	1298.4	255.39	7.8369e-07	3.6077e-06	316.3	87.979	69.31	19.936	3.1744e-06	27.942	5.9388e-05	4.9854e-05	1.3581e-05	1136.3	5.9117e-07	5.3766e-07	1206	238.77	5.8734e-07	5.4186e-07	282.26	80.582	60.643	18.4	5.642e-07	25.709	342.645	151.490	186.038	101.584	165.611	202.888	101.597	108.996	281.704	222.398	108.812	115.084	115.766	122.272	177.434	121.922	-8191	255	
6920.044	1	1	0	0	0.12139	0.11292	0.11214	0.097027	0.15836	0.25362	0.19174	0.088952	0.080093	0.26595	0.33263	0.18295	0.1041	0.070104	0.12811	0.036683	-2.3229	-2.625	-2.9979	-2.9146	-2.825	-2.9833	-2.8917	-2.9479	-2.9437	-2.85	-2.9854	-2.925	-2.8271	-2.9646	-2.7583	-2.9208	126.052	161.173	329.105	424.716	160.442	293.452	384.926	387.924	247.974	91.718	353.802	397.692	271.780	419.808	295.325	396.636	0.00077588	0.00023307	4.6499e-05	1223.1	3.2502e-06	9.5776e-07	1294.1	256.24	2.0723e-06	1.3734e-06	316.34	88.333	69.192	20.091	2.7163e-06	27.986	5.6717e-05	4.858e-05	1.3978e-05	1133.7	5.8259e-07	5.1177e-07	1206.5	238.36	5.6875e-07	5.1322e-07	282.46	80.391	60.661	18.409	5.9038e-07	25.654	340.719	156.977	150.708	101.644	211.264	232.509	101.621	109.014	235.588	174.613	108.346	115.274	115.593	122.586	193.370	121.865	-8191	255	
6920.140	1	1	0	0	0.052601	0.091182	0.19864	0.22855	0.07759	0.26248	0.1117	0.22259	0.045253	0.2045	0.13338	0.1184	0.12137	0.067107	0.077491	0.19304	-2.4542	-2.6208	-2.8854	-2.8438	-2.8312	-3.0646	-2.8729	-2.9708	-2.9208	-2.575	-2.9479	-2.8979	-2.7083	-3.1458	-2.9167	-2.7125	427.311	267.875	417.247	404.325	408.911	304.321	320.855	421.946	204.472	143.421	103.304	329.631	447.620	281.398	183.216	212.336	0.00078419	0.00028575	0.00011237	1217.5	2.0313e-06	3.5403e-06	1294.5	255.89	3.7934e-06	2.0061e-06	317.03	88.509	69.308	19.996	2.3298e-06	28.122	5.6255e-05	4.7293e-05	1.4907e-05	1133.3	5.6301e-07	5.205e-07	1207.6	238.23	5.5577e-07	5.2808e-07	282.67	80.554	60.544	18.367	6.1746e-07	25.736	339.007	157.106	189.798	101.663	218.074	205.341	101.606	109.291	180.641	151.512	108.382	115.250	115.385	122.548	154.934	121.826	-8191	255	
6920.237	1	1	0	0	0.1478	0.043688	0.28745	0.11419	0.35555	0.12619	0.021648	0.39202	0.047518	0.0031393	0.29452	0.25548	0.15712	0.2745	0.2622	0.26247	-2.675	-2.6375	-3.0062	-3.025	-2.6688	-2.9917	-2.9146	-2.8312	-3.0833	-2.7229	-2.8312	-2.9396	-2.5708	-2.7979	-2.6	-2.8146	386.652	109.850	428.642	93.718	430.806	190.246	107.058	450.283	180.825	282.936	403.108	448.381	362.581	361.247	439.302	338.184	0.00073471	0.00027997	8.2259e-05	1217.7	2.7337e-06	3.1094e-06	1291.1	255.36	3.4655e-06	5.629e-06	313.87	88.108	69.635	20.012	1.2822e-06	28.157	5.4451e-05	4.961e-05	1.5509e-05	1134.8	5.5095e-07	5.441e-07	1206	238.2	5.3555e-07	5.5486e-07	282.4	80.401	60.593	18.413	6.245e-07	25.686	344.370	148.795	205.853	101.570	207.095	186.218	101.706	108.905	209.463	220.146	108.337	115.457	115.622	122.070	253.020	121.752	-8191	255	
6920.333	1	1	0	0	0.059676	0.092249	0.14465	0.3597	0.14951	0.06381	0.16504	0.15666	0.20631	0.27439	0.033863	0.068792	0.081264	0.23385	0.036992	0.30502	-2.6	-2.7375	-2.7042	-3.0229	-2.5479	-2.9208	-2.7958	-2.7708	-2.9979	-2.5771	-2.8063	-3.0083	-2.5708	-2.9479	-2.7438	-2.7083	122.243	133.033	96.783	413.155	155.867	230.661	341.501	111.666	198.204	103.039	215.121	427.136	389.656	444.103	273.058	336.769	0.00068761	0.00024018	3.1608e-05	1219.1	2.308e-06	3.4242e-06	1297.4	256.21	3.2878e-06	3.7708e-06	317.17	87.741	69.303	19.945	2.2988e-06	28.304	5.3126e-05	5.3648e-05	1.5812e-05	1133.3	5.512e-07	5.8096e-07	1207.8	238.37	5.3654e-07	6.048e-07	282.7	80.364	60.56	18.476	6.0159e-07	25.711	339.243	127.107	198.311	101.709	238.023	213.258	101.732	108.812	192.260	201.537	108.299	115.254	115.757	122.251	190.471	121.467	-8191	255	
6920.453	1	1	0	0	0.048946	0.27779	0.11999	0.17668	0.10246	0.071881	0.53253	0.24274	0.33269	0.4113	0.13943	0.18056	0.08718	0.20823	0.070753	0.23912	-2.4667	-2.5625	-2.6312	-3.0729	-2.65	-2.8979	-2.9271	-2.7292	-2.9042	-2.3667	-2.8354	-2.9583	-2.5167	-2.7271	-2.9417	-2.6333	426.897	116.879	191.641	426.573	414.972	437.834	390.661	411.453	375.448	203.125	400.470	414.760	146.120	175.869	325.275	216.141	0.00076077	0.00012509	4.37e-05	1223.6	3.7958e-06	1.0696e-06	1297.7	256.29	2.3527e-06	3.9167e-06	316.74	87.847	69.231	19.976	2.0122e-06	28.026	5.3304e-05	5.6299e-05	1.5169e-05	1135.7	5.5586e-07	6.1312e-07	1206.7	238.66	5.5373e-07	6.3619e-07	283.29	80.26	60.569	18.498	6.0035e-07	25.67	329.482	179.657	208.200	101.661	173.537	228.279	101.716	108.961	259.842	186.180	108.109	114.897	115.346	122.236	277.473	121.720	-8191	255	
6920.550	1	1	0	0	0.1258	0.26637	0.1162	0.061995	0.087462	0.12164	0.24241	0.41952	0.24675	0.084086	0.21576	0.27318	0.19498	0.058727	0.20703	0.31564	-2.3896	-2.6667	-2.8563	-3.1208	-2.6625	-2.75	-3.025	-2.7583	-2.9313	-2.8063	-2.9042	-2.9604	-2.7667	-2.9583	-2.8563	-2.4479	378.295	125.826	425.634	434.455	106.150	198.246	349.633	422.569	361.566	450.286	435.710	221.114	365.144	430.082	129.923	303.808	0.0006474	0.00010494	4.7514e-05	1219.7	4.9821e-06	2.576e-06	1295.5	254.47	5.4027e-06	4.2864e-06	315.71	88.216	69.686	20.093	2.1002e-06	28.141	5.7059e-05	5.8536e-05	1.5178e-05	1133.5	5.9062e-07	6.3222e-07	1206	238.08	5.9412e-07	6.2922e-07	282.85	80.352	60.614	18.483	5.8114e-07	25.629	341.862	207.944	174.827	101.865	211.115	135.339	101.420	108.728	233.372	244.332	108.518	115.334	115.768	122.545	204.172	121.909	-8191	255	
6920.646	1	1	0	0	0.21989	0.20847	0.14319	0.22297	0.25592	0.3188	0.49241	0.07265	0.1468	0.13356	0.19091	0.17555	0.17796	0.11816	0.037226	0.09225	-2.35	-2.6479	-2.6854	-3.0792	-2.5396	-2.8937	-2.9313	-2.7417	-2.8104	-2.9542	-2.8875	-3.0438	-2.675	-2.9292	-2.8604	-2.6083	313.737	290.451	233.944	342.012	302.617	200.221	392.775	211.316	167.505	310.357	407.458	430.201	260.857	281.726	225.233	449.272	0.00066698	0.00013581	2.7273e-06	1218.3	2.2427e-06	2.0368e-06	1290.6	254.8	6.195e-06	3.8678e-06	315.93	88.111	69.213	19.952	2.7849e-06	28.219	6.0048e-05	5.6675e-05	1.4597e-05	1132.1	6.2529e-07	6.1009e-07	1204.7	237.97	6.204e-07	6.0377e-07	282.45	80.383	60.659	18.433	5.6573e-07	25.656	340.794	187.565	421.157	101.741	206.538	162.422	101.804	108.791	221.142	244.403	108.488	115.425	115.895	122.263	185.574	121.676	-8191	255	
6920.742	1	1	0	0	0.041943	0.12932	0.20646	0.3868	0.14616	0.36837	0.34573	0.096248	0.096366	0.1941	0.22198	0.054128	0.26492	0.090257	0.086905	0.083661	-2.5917	-2.7896	-2.7146	-3.1021	-2.7417	-2.7979	-3.0583	-2.6813	-2.8563	-2.7	-2.7833	-2.9896	-2.7229	-2.5854	-2.9062	-2.7833	366.270	161.623	182.306	418.723	202.233	162.476	347.131	229.592	302.388	333.408	431.154	274.343	317.219	329.102	290.156	309.279	0.00078159	0.00024207	9.3211e-06	1209.8	3.345e-06	1.0291e-06	1291	254.66	2.3334e-06	3.1816e-06	314.46	88.055	69.126	19.938	2.5217e-06	28.216	6.1181e-05	5.4465e-05	1.4008e-05	1130.6	6.3765e-07	5.8651e-07	1202	237.71	6.266e-07	5.6711e-07	281.62	80.234	60.638	18.415	5.5104e-07	25.653	344.562	124.620	155.371	101.805	179.671	217.091	101.695	109.054	227.509	245.000	108.548	115.286	115.779	122.257	335.910	121.591	-8191	255	
6920.836	1	1	0	0	0.059959	0.1711	0.16032	0.21811	0.092734	0.48351	0.2477	0.11835	0.08261	0.13858	0.058552	0.2482	0.031551	0.2451	0.28678	0.19068	-2.4583	-2.8125	-2.5542	-3.0854	-2.6729	-2.8771	-3.2208	-2.7188	-2.7812	-2.7375	-2.6083	-2.9688	-2.7687	-2.5896	-2.9	-2.5312	447.981	389.788	102.191	410.107	425.899	345.776	401.525	336.670	204.784	139.398	208.601	392.472	224.397	431.733	206.246	311.437	0.0007533	0.00019848	3.2195e-05	1215.2	1.0804e-06	1.4775e-06	1295.2	254.89	3.132e-06	9.3081e-07	317.68	88.08	68.917	19.899	2.0558e-06	28.117	6.1994e-05	5.239e-05	1.3847e-05	1132	6.4129e-07	5.702e-07	1204	238.06	6.3968e-07	5.6007e-07	282.49	80.442	60.718	18.4	5.2632e-07	25.684	338.397	220.687	201.173	101.743	178.303	439.872	101.713	108.781	188.555	157.454	108.695	115.107	116.061	122.366	213.662	121.583	-8191	255	
6920.934	1	1	0	0	0.2118	0.26968	0.073635	0.25319	0.20889	0.31686	0.45407	0.18323	0.1969	0.14291	0.094887	0.21422	0.23161	0.067583	0.21983	0.12068	-2.2333	-2.8688	-2.5646	-3.0729	-2.7167	-2.8063	-3.1188	-2.7938	-2.8563	-3.0167	-2.6333	-3.0042	-2.8063	-2.6875	-3.0062	-2.8708	199.858	234.076	273.141	417.925	180.031	412.483	405.868	99.111	136.828	323.603	376.921	131.065	432.458	421.775	303.386	361.485	0.00073787	0.00033094	6.159e-05	1215.2	1.5471e-06	1.4851e-06	1294.2	255.22	2.5991e-06	2.1591e-06	314.29	88.365	69.383	19.948	3.5233e-06	28.103	6.1511e-05	5.1745e-05	1.3621e-05	1132.5	6.2112e-07	5.5011e-07	1202.9	238.31	6.086e-07	5.5467e-07	281.57	80.654	60.623	18.384	5.326e-07	25.71	341.815	132.546	104.536	101.615	250.732	264.580	101.606	108.942	162.822	237.996	108.584	115.223	115.712	122.016	212.625	121.901	-8191	255	
6921.053	1	1	0	0	0.17886	0.25357	0.27954	0.32505	0.20304	0.15644	0.30028	0.21935	0.047877	0.049987	0.25192	0.11907	0.073637	0.14501	0.24397	0.37867	-2.3312	-2.9542	-2.6396	-2.9771	-2.8958	-2.7313	-3.1146	-2.6167	-2.8146	-3.0729	-2.7333	-2.7792	-2.9854	-2.625	-3.0146	-2.7083	139.115	188.116	105.632	429.779	431.075	322.000	397.870	412.066	405.949	356.545	440.613	434.816	370.172	412.035	310.949	147.953	0.00081087	0.00017585	6.2938e-05	1218.6	5.8034e-07	3.1608e-06	1292.2	255.69	4.265e-06	1.6792e-06	313.24	87.668	69.019	19.966	1.7428e-06	28.093	5.9058e-05	4.9447e-05	1.3675e-05	1132.7	5.9061e-07	5.4547e-07	1202.5	238.32	5.8444e-07	5.2373e-07	281.69	80.27	60.431	18.402	5.5325e-07	25.679	336.385	252.117	176.513	101.895	213.600	222.099	101.605	108.811	216.322	193.471	108.370	115.068	115.477	122.353	175.552	121.824	-8191	255	
6921.149	1	1	0	0	0.17012	0.078231	0.09109	0.14994	0.061486	0.044655	0.1982	0.21183	0.1145	0.26809	0.039388	0.22554	0.20935	0.12082	0.17294	0.2582	-2.2938	-2.9521	-2.5792	-2.9146	-2.8958	-2.6688	-3.0896	-2.8417	-2.9375	-3.05	-2.8854	-3.0292	-3.0021	-2.6146	-3.0958	-2.9396	134.018	351.794	408.068	378.715	157.698	267.296	313.893	433.842	346.246	335.871	164.776	344.277	376.436	320.009	205.888	144.974	0.00076216	0.00019559	4.8385e-05	1214.1	1.3928e-06	2.0707e-06	1297.3	255.81	2.0022e-06	3.1287e-06	315.49	87.79	69.143	19.97	2.5139e-06	27.924	5.7028e-05	4.8096e-05	1.4524e-05	1131.1	5.6602e-07	5.2548e-07	1202.1	238.21	5.7998e-07	5.1438e-07	282.21	80.308	60.634	18.399	5.9393e-07	25.69	341.326	190.903	167.766	101.576	182.131	178.156	101.693	108.907	245.139	259.450	108.255	115.202	115.590	122.334	162.941	121.901	-8191	255	
6921.221	1	1	0	0	0.17161	0.10292	0.17013	0.43687	0.11164	0.16565	0.25881	0.14605	0.13768	0.1787	0.20918	0.072759	0.12936	0.10017	0.13863	0.069181	-2.2583	-3.0167	-2.6188	-3.0083	-3.0771	-2.7687	-3.0812	-3.0208	-2.7	-3.1042	-2.8333	-2.9854	-2.9896	-2.8583	-3.1021	-3.0354	157.827	276.365	305.856	373.134	180.813	438.586	424.597	129.043	153.644	160.985	420.024	423.582	211.097	185.609	297.824	447.482	0.00068808	0.00029094	1.1613e-05	1212.8	9.7694e-07	2.9002e-06	1292.1	254.72	2.1824e-06	9.8234e-07	314.2	88.129	69.102	20.036	2.5236e-06	28.253	5.4655e-05	4.6996e-05	1.5002e-05	1130	5.5219e-07	5.2363e-07	1202.1	237.91	5.6418e-07	5.2261e-07	282.37	80.419	60.419	18.424	6.0878e-07	25.703	336.685	95.546	263.172	101.764	252.380	180.543	101.792	108.973	177.807	94.042	108.302	115.247	115.608	122.260	223.699	121.718	-8191	255	
6921.341	1	1	0	0	0.17079	0.091917	0.077186	0.3349	0.092787	0.44708	0.11312	0.060356	0.077292	0.086729	0.18705	0.36772	0.33393	0.10555	0.29921	0.1129	-2.2625	-3.025	-2.6979	-3.0542	-3.0917	-2.75	-3.0062	-2.8896	-2.6063	-3.0625	-2.5792	-2.925	-2.9667	-2.6437	-3.0229	-2.9646	396.513	376.800	185.677	400.663	409.579	203.994	422.232	359.569	218.323	340.109	399.445	366.939	408.824	302.494	379.105	232.819	0.00075775	0.00022434	3.8781e-05	1218	1.8555e-06	3.2138e-06	1293	255.69	4.4952e-06	5.3708e-06	314.48	88.189	69.662	19.982	3.889e-06	28.151	5.4787e-05	4.8771e-05	1.5397e-05	1133.2	5.3977e-07	5.4332e-07	1203.8	238.19	5.3541e-07	5.4462e-07	282.27	80.634	60.514	18.449	6.0677e-07	25.671	339.324	126.746	167.685	101.492	246.754	173.224	101.576	108.983	207.545	227.883	108.199	114.931	115.938	122.317	243.425	121.965	-8191	255	
#DATA ENDS
