BOXY.EXE: ISS Imagent and Oximeter Data Acquisition Program Version 0.80
Ascii Record File

#ACQ INFORMATION
2  Detector Channels 
16  External MUX Channels 
1  Auxiliary Channels 
5000  Waveform (CCF) Frequency (Hz)
1  Waveforms Skipped 
30  Waveforms Averaged 
1  Cycles Averaged 
16  Acquisitions per Waveform 
10.0806  Updata Rate (Hz) 

#FILE INFORMATION
TRUE -- External MUX Channel results are PARSED.
FALSE -- AC DC and Phase are NOT grouped.
TRUE -- Companion Program Settings File CREATED.
FALSE -- AC data not excluded
FALSE -- DC data not excluded
FALSE -- Phase data not excluded
FALSE -- Auxillary Chn. data not excluded
Tab delimiters

#CALIBRATION STATE
TRUE -- Waveform Calibration Values APPLIED.


#AUX CALIBRATION VALUES
Val Type	aux-1	

Term	1.0000e+00	
Factor	0.0000e+00	


#WF CALIBRATION VALUES
A = Detector Channel
Val Type	A-AC1	A-AC2	A-AC3	A-AC4	A-AC5	A-AC6	A-AC7	A-AC8	A-AC9	A-AC10	A-AC11	A-AC12	A-AC13	A-AC14	A-AC15	A-AC16	A-DC1	A-DC2	A-DC3	A-DC4	A-DC5	A-DC6	A-DC7	A-DC8	A-DC9	A-DC10	A-DC11	A-DC12	A-DC13	A-DC14	A-DC15	A-DC16	A-Ph1	A-Ph2	A-Ph3	A-Ph4	A-Ph5	A-Ph6	A-Ph7	A-Ph8	A-Ph9	A-Ph10	A-Ph11	A-Ph12	A-Ph13	A-Ph14	A-Ph15	A-Ph16	

Term	0.00000e+00	0.00000e+00	0.00000e+00	0.00000e+00	0.00000e+00	0.00000e+00	0.00000e+00	0.00000e+00	0.00000e+00	0.00000e+00	0.00000e+00	0.00000e+00	0.00000e+00	0.00000e+00	0.00000e+00	0.00000e+00	0.00000e+00	0.00000e+00	0.00000e+00	0.00000e+00	0.00000e+00	0.00000e+00	0.00000e+00	0.00000e+00	0.00000e+00	0.00000e+00	0.00000e+00	0.00000e+00	0.00000e+00	0.00000e+00	0.00000e+00	0.00000e+00	0.00000e+00	0.00000e+00	0.00000e+00	0.00000e+00	0.00000e+00	0.00000e+00	0.00000e+00	0.00000e+00	0.00000e+00	0.00000e+00	0.00000e+00	0.00000e+00	0.00000e+00	0.00000e+00	0.00000e+00	0.00000e+00	
Factor	1.00000e+00	1.00000e+00	1.00000e+00	1.00000e+00	1.00000e+00	1.00000e+00	1.00000e+00	1.00000e+00	1.00000e+00	1.00000e+00	1.00000e+00	1.00000e+00	1.00000e+00	1.00000e+00	1.00000e+00	1.00000e+00	1.00000e+00	1.00000e+00	1.00000e+00	1.00000e+00	1.00000e+00	1.00000e+00	1.00000e+00	1.00000e+00	1.00000e+00	1.00000e+00	1.00000e+00	1.00000e+00	1.00000e+00	1.00000e+00	1.00000e+00	1.00000e+00	X	X	X	X	X	X	X	X	X	X	X	X	X	X	X	X	

B = Detector Channel
Val Type	B-AC1	B-AC2	B-AC3	B-AC4	B-AC5	B-AC6	B-AC7	B-AC8	B-AC9	B-AC10	B-AC11	B-AC12	B-AC13	B-AC14	B-AC15	B-AC16	B-DC1	B-DC2	B-DC3	B-DC4	B-DC5	B-DC6	B-DC7	B-DC8	B-DC9	B-DC10	B-DC11	B-DC12	B-DC13	B-DC14	B-DC15	B-DC16	B-Ph1	B-Ph2	B-Ph3	B-Ph4	B-Ph5	B-Ph6	B-Ph7	B-Ph8	B-Ph9	B-Ph10	B-Ph11	B-Ph12	B-Ph13	B-Ph14	B-Ph15	B-Ph16	

Term	0.00000e+00	0.00000e+00	0.00000e+00	0.00000e+00	0.00000e+00	0.00000e+00	0.00000e+00	0.00000e+00	0.00000e+00	0.00000e+00	0.00000e+00	0.00000e+00	0.00000e+00	0.00000e+00	0.00000e+00	0.00000e+00	0.00000e+00	0.00000e+00	0.00000e+00	0.00000e+00	0.00000e+00	0.00000e+00	0.00000e+00	0.00000e+00	0.00000e+00	0.00000e+00	0.00000e+00	0.00000e+00	0.00000e+00	0.00000e+00	0.00000e+00	0.00000e+00	3.37194e+01	-1.68587e+02	-1.35414e+02	-1.80770e+02	-1.05564e+02	-1.05091e+02	-1.55686e+02	-1.62015e+02	-9.81900e+01	-8.14180e+01	-1.72633e+02	-1.70093e+02	-1.81385e+02	-1.76491e+02	-1.12733e+02	-1.49752e+02	
Factor	4.74211e-05	1.08441e-04	2.30837e-05	1.85097e-01	9.01655e-07	1.19884e-06	1.81138e-01	5.42658e-02	1.20113e-06	1.08790e-06	1.10167e-01	3.06233e-02	3.78414e-02	9.83169e-03	9.60378e-07	1.40816e-02	4.97090e-07	4.99476e-07	1.38873e-07	8.54261e-02	5.49520e-09	5.46460e-09	7.88256e-02	2.49800e-02	5.49752e-09	5.45879e-09	4.68186e-02	1.32798e-02	1.62271e-02	4.37497e-03	5.48598e-09	6.00434e-03	X	X	X	X	X	X	X	X	X	X	X	X	X	X	X	X	



#DISTANCE SETTINGS
A = Detector Channel
A-1	A-2	A-3	A-4	A-5	A-6	A-7	A-8	A-9	A-10	A-11	A-12	A-13	A-14	A-15	A-16	

2.5000e+00	3.0000e+00	2.5000e+00	3.0000e+00	2.0000e+00	3.0000e+00	1.5000e+00	3.0000e+00	3.0000e+00	3.0000e+00	3.0000e+00	3.0000e+00	3.0000e+00	3.0000e+00	1.5000e+00	3.0000e+00	

B = Detector Channel
B-1	B-2	B-3	B-4	B-5	B-6	B-7	B-8	B-9	B-10	B-11	B-12	B-13	B-14	B-15	B-16	

1.0000e+01	1.0000e+01	1.0000e+01	1.4400e+00	1.0000e+01	1.0000e+01	1.5100e+00	1.9400e+00	1.0000e+01	1.0000e+01	1.9900e+00	2.4900e+00	2.4100e+00	2.9000e+00	1.0000e+01	2.9800e+00	




#DATA BEGINS
time	group	step	mark	flag	A-AC1	A-AC2	A-AC3	A-AC4	A-AC5	A-AC6	A-AC7	A-AC8	A-AC9	A-AC10	A-AC11	A-AC12	A-AC13	A-AC14	A-AC15	A-AC16	A-DC1	A-DC2	A-DC3	A-DC4	A-DC5	A-DC6	A-DC7	A-DC8	A-DC9	A-DC10	A-DC11	A-DC12	A-DC13	A-DC14	A-DC15	A-DC16	A-Ph1	A-Ph2	A-Ph3	A-Ph4	A-Ph5	A-Ph6	A-Ph7	A-Ph8	A-Ph9	A-Ph10	A-Ph11	A-Ph12	A-Ph13	A-Ph14	A-Ph15	A-Ph16	B-AC1	B-AC2	B-AC3	B-AC4	B-AC5	B-AC6	B-AC7	B-AC8	B-AC9	B-AC10	B-AC11	B-AC12	B-AC13	B-AC14	B-AC15	B-AC16	B-DC1	B-DC2	B-DC3	B-DC4	B-DC5	B-DC6	B-DC7	B-DC8	B-DC9	B-DC10	B-DC11	B-DC12	B-DC13	B-DC14	B-DC15	B-DC16	B-Ph1	B-Ph2	B-Ph3	B-Ph4	B-Ph5	B-Ph6	B-Ph7	B-Ph8	B-Ph9	B-Ph10	B-Ph11	B-Ph12	B-Ph13	B-Ph14	B-Ph15	B-Ph16	aux-1	digaux	

7704.073	1	1	0	256	0.15088	0.25042	0.26836	0.10555	0.044372	0.15273	0.14629	0.26904	0.23129	0.081766	0.3433	0.1395	0.3816	0.043829	0.22463	0.28735	-2.2417	-2.1	-2.6125	-2.4979	-2.2833	-2.6479	-2.3187	-2.5146	-2.6708	-2.3083	-2.6333	-2.5938	-2.2625	-2.7542	-2.4583	-2.4938	-71.806	73.981	109.476	129.903	-25.817	-77.079	153.900	171.782	164.559	-26.128	173.193	112.845	161.592	159.797	194.894	124.290	0.0015963	0.0013164	0.00016443	502.11	8.8554e-06	1.0113e-05	672.44	218.66	1.0413e-05	5.6941e-06	334.8	155.4	102.99	59.323	1.2212e-05	92.793	0.00081966	0.00081995	0.00025871	617.45	8.641e-06	8.9534e-06	774.63	246.39	8.5808e-06	9.1115e-06	383.58	163.18	114.53	61.147	1.0045e-05	92.884	2.460	168.456	-146.452	-142.068	-56.307	-143.195	-143.334	-136.684	-5.294	-127.979	-138.605	-134.535	-132.994	-129.037	-92.145	-131.701	-8191	255	
7704.193	1	1	0	0	0.027322	0.16945	0.21385	0.23869	0.26727	0.10614	0.34735	0.058195	0.16355	0.25014	0.24113	0.14553	0.11891	0.18114	0.29797	0.046718	-2.1937	-2.1813	-2.425	-2.5938	-2.3708	-2.5229	-2.2271	-2.2417	-2.5563	-2.55	-2.4167	-2.6333	-2.3604	-2.6479	-2.3625	-2.4396	-120.148	72.163	-47.821	156.114	18.972	-31.456	88.568	142.458	-135.569	137.620	-47.465	177.470	119.326	155.567	-46.742	98.130	0.0016688	0.00058801	0.000283	503.67	6.9896e-06	1.2047e-05	666.99	217.22	4.0639e-06	3.7876e-06	332.9	154.84	102.78	58.913	7.2632e-06	92.185	0.00079615	0.00087696	0.00025727	617.19	8.7525e-06	9.9593e-06	776.8	246.61	8.9466e-06	1.0298e-05	384.21	163.68	115.77	61.872	1.038e-05	92.865	6.092	164.545	-56.164	-141.977	-51.933	191.163	-143.281	-136.700	-108.233	-150.029	-138.694	-134.487	-133.271	-129.230	-15.630	-131.611	-8191	255	
7704.288	1	1	0	0	0.11856	0.2005	0.14379	0.19294	0.12057	0.1767	0.25948	0.16046	0.16719	0.031629	0.20194	0.20062	0.23608	0.16076	0.11352	0.15994	-2.1667	-2.3917	-2.4958	-2.7708	-2.2354	-2.6375	-2.4354	-2.3854	-2.7646	-2.4292	-2.3792	-2.7354	-2.2583	-2.6917	-2.4813	-2.5396	-66.148	181.067	-13.314	174.177	91.512	45.309	161.091	194.413	-71.271	155.515	-128.086	-152.725	176.283	-55.782	-46.131	-138.426	0.0022011	0.00027754	0.00024575	501.6	9.7287e-06	1.078e-05	666.19	216.75	1.0332e-05	7.9459e-06	332.55	153.18	102.03	58.727	5.3499e-06	92.013	0.00084753	0.00098072	0.00026086	618.65	9.3218e-06	1.078e-05	774.19	245.65	9.4485e-06	1.0921e-05	381.36	162.69	117.01	62.016	9.9651e-06	92.337	-15.658	48.537	-69.468	-142.113	-131.386	194.393	-143.318	-136.343	204.488	-12.742	-138.368	-134.563	-133.332	-128.894	-25.992	-131.873	-8191	255	
7704.384	1	1	0	0	0.12514	0.19941	0.31314	0.17891	0.24083	0.10176	0.32984	0.18362	0.12515	0.25447	0.35056	0.25126	0.19111	0.1153	0.095761	0.45658	-2.1792	-2.3896	-2.4458	-2.7229	-2.3937	-2.5646	-2.7875	-2.1437	-2.5521	-2.2625	-2.3625	-2.7979	-2.3958	-2.8667	-2.6063	-2.4938	115.254	-13.177	-47.459	102.255	-8.083	-20.869	121.848	-98.914	158.038	117.351	183.289	129.690	137.131	-43.922	-98.249	88.969	0.0018051	0.00055898	0.00028588	500.46	1.0857e-05	6.5375e-06	663.8	215.96	1.0487e-05	1.161e-05	332.32	153.79	102.44	58.738	7.2453e-06	91.616	0.00088329	0.00098527	0.0002494	612.61	9.8277e-06	1.0693e-05	766.52	244.45	9.9869e-06	1.07e-05	377.83	161.75	118.86	61.753	9.7566e-06	91.855	-14.863	-22.348	-19.589	-142.019	164.390	-37.334	-143.095	-136.623	192.028	-7.224	-138.731	-134.624	-133.187	-128.930	-94.068	-131.611	-8191	255	
7704.504	1	1	0	0	0.096348	0.1064	0.34247	0.12347	0.052316	0.052279	0.16964	0.02032	0.24237	0.14713	0.11395	0.059765	0.39333	0.13505	0.086595	0.14952	-2.1437	-2.4188	-2.2333	-2.5479	-2.4646	-2.6208	-2.6979	-2.3792	-2.6542	-2.6646	-2.3937	-2.7812	-2.4396	-2.5062	-2.7396	-2.3875	-78.334	169.475	109.365	163.470	-147.196	-122.405	80.133	-111.886	49.247	29.156	-118.227	-98.780	157.892	168.287	178.374	-139.213	0.0024346	0.0015035	0.00013513	498.87	2.6779e-06	6.0277e-06	664.71	216.15	8.6582e-06	3.153e-06	332.78	153.89	102	58.43	7.1779e-06	91.28	0.00095023	0.00096905	0.00024401	608.01	1.0374e-05	1.0235e-05	760.88	243.39	1.0423e-05	1.0199e-05	374.72	161.73	120.05	61.141	9.3454e-06	91.718	-10.781	-86.535	204.322	-142.156	189.995	3.316	-143.040	-136.695	-134.442	83.824	-138.763	-134.674	-133.109	-128.984	-68.912	-131.935	-8191	255	
7704.576	1	1	0	0	0.23268	0.09435	0.013865	0.048968	0.1741	0.14386	0.22852	0.1631	0.22976	0.16927	0.20126	0.27883	0.18017	0.20206	0.22315	0.25654	-2.2687	-2.3479	-2.2271	-2.6979	-2.4708	-2.3688	-2.7146	-2.5458	-2.3208	-2.6	-2.4021	-2.7792	-2.4729	-2.4833	-2.7583	-2.5563	-71.879	-87.340	59.526	-123.155	134.304	195.244	-116.958	94.858	-63.496	201.639	155.220	183.046	-50.738	133.190	-51.390	95.119	0.0021889	0.00049189	0.00016953	498.79	5.1223e-06	7.5799e-06	665.89	215.75	4.8657e-06	1.1268e-05	333.37	153.65	102.49	58.693	8.4937e-06	91.865	0.00096647	0.00090511	0.00022918	608.13	1.0431e-05	9.53e-06	752.17	243.56	1.0224e-05	9.3962e-06	369.3	162.14	119.2	60.531	8.7007e-06	92.301	-5.621	-6.773	12.767	-142.564	-58.116	-42.115	-143.108	-136.967	-19.813	-58.207	-138.605	-134.611	-133.106	-128.918	22.030	-131.831	-8191	255	
7704.672	1	1	0	0	0.30033	0.14866	0.24878	0.11348	0.29976	0.20853	0.16304	0.14682	0.093782	0.13566	0.12848	0.3426	0.11152	0.035742	0.081682	0.37279	-2.0333	-2.6479	-2.2021	-2.7479	-2.4042	-2.4458	-2.7062	-2.3979	-2.6667	-2.7521	-2.3917	-2.8	-2.4458	-2.4646	-2.8063	-2.5167	190.203	-62.958	-43.363	106.574	-105.623	193.186	-30.893	34.827	160.146	74.999	50.201	134.231	139.807	55.428	166.184	185.357	0.0013523	0.00089957	0.00017523	501.29	2.4343e-06	1.0113e-05	662.3	216.9	5.7014e-06	7.9981e-06	331.27	154.5	103.43	58.574	5.8107e-06	91.342	0.00093326	0.00084823	0.00021761	616.12	1.0236e-05	9.1913e-06	748.71	247.06	1.011e-05	9.222e-06	369.03	164.04	119	60.421	8.6621e-06	92.963	15.178	-58.461	-31.188	-142.060	75.075	-107.914	-143.236	-136.860	-46.110	17.702	-138.606	-134.736	-133.188	-129.011	-51.298	-131.775	-8191	255	
7704.768	1	1	0	0	0.08226	0.11604	0.1527	0.15407	0.13207	0.11225	0.085919	0.1448	0.043687	0.1777	0.34781	0.32172	0.19598	0.1036	0.2967	0.18011	-2.2313	-2.4896	-2.3396	-2.3354	-2.4979	-2.3146	-2.8542	-2.1958	-2.6396	-2.5958	-2.5042	-2.775	-2.6312	-2.4771	-2.6646	-2.4333	91.410	203.779	30.183	40.235	193.258	196.293	192.767	77.140	44.371	-79.323	173.780	-137.995	-112.606	171.300	-143.666	134.855	0.0012341	0.00051707	0.00022519	501.32	1.3026e-06	7.5572e-06	665.13	216.01	6.882e-06	1.0171e-05	331.66	153.57	102.54	58.304	6.7607e-06	91.269	0.00090639	0.00083248	0.00021799	625.11	9.9874e-06	9.1016e-06	752.57	250.33	1.0054e-05	9.382e-06	372.44	165.85	119.17	60.441	9.5641e-06	93.817	5.871	-83.837	141.796	-142.003	12.758	-104.044	-143.072	-136.869	12.880	-20.726	-138.873	-134.615	-133.037	-128.983	191.026	-131.901	-8191	255	
7704.889	1	1	0	0	0.10989	0.2222	0.073626	0.02939	0.22332	0.26046	0.21815	0.27638	0.17087	0.0489	0.016872	0.2475	0.21412	0.199	0.14166	0.23594	-2.0938	-2.425	-2.2979	-2.4583	-2.5312	-2.5146	-2.5396	-2.3917	-2.3833	-2.7313	-2.3292	-2.7292	-2.575	-2.3979	-2.6562	-2.5	134.294	-14.680	-37.196	150.895	121.785	51.975	148.765	114.518	146.346	201.757	110.326	171.791	197.324	-151.300	77.033	137.149	0.0018582	0.0010576	0.00023233	498.04	6.513e-06	7.4921e-06	659.68	215.35	1.9865e-05	1.1022e-05	329.62	152.19	101.69	57.891	1.4155e-05	90.309	0.00095048	0.00089009	0.00024921	642.77	1.0534e-05	9.7225e-06	768.35	254.33	1.053e-05	9.8356e-06	381.44	166.76	119.19	60.271	1.0559e-05	93.585	6.767	-87.858	152.986	-142.302	-33.021	-17.530	-143.541	-136.770	-30.294	32.675	-138.844	-134.759	-133.158	-129.126	159.025	-131.744	-8191	255	
7704.985	1	1	0	0	0.04001	0.10756	0.15038	0.22608	0.040037	0.071021	0.25921	0.2605	0.21582	0.25655	0.3767	0.29783	0.088337	0.098811	0.060137	0.11549	-2.1292	-2.5479	-2.2083	-2.725	-2.5938	-2.2396	-2.6979	-2.5187	-2.4271	-2.7812	-2.4604	-2.6708	-2.6604	-2.4354	-2.7125	-2.8396	15.090	-13.985	134.608	-123.201	99.149	111.767	110.053	78.122	-43.378	78.622	184.010	95.532	2.477	203.343	84.105	132.607	0.0017704	0.00031612	0.00020843	499.47	9.3593e-06	2.4698e-06	661.9	214.35	9.9894e-06	2.3965e-06	326.47	152.72	102	58.058	1.2819e-05	90.723	0.00094898	0.00088748	0.00027173	641.76	1.0357e-05	9.5509e-06	777.24	252.43	1.0233e-05	9.5685e-06	385.22	165.42	118.48	60.127	1.1015e-05	93.145	8.986	-44.190	126.606	-142.308	-1.813	-13.184	-143.521	-136.447	-27.438	132.763	-138.994	-134.709	-132.911	-129.154	156.642	-131.748	-8191	255	
7705.081	1	1	0	0	0.22132	0.24355	0.11615	0.16606	0.018344	0.066147	0.23813	0.24411	0.12369	0.18523	0.10335	0.14389	0.37353	0.16088	0.18122	0.14046	-2.0042	-2.65	-2.2604	-2.5208	-2.6417	-2.5896	-2.6437	-2.4833	-2.3208	-2.8104	-2.4208	-2.6042	-2.5583	-2.4854	-2.5146	-2.6604	193.177	-41.486	45.692	-111.710	-119.062	87.377	-68.582	157.624	-38.395	137.464	2.160	183.456	81.878	-152.035	-147.968	-93.972	0.001516	0.0013843	0.00028659	496.99	2.6799e-06	9.1424e-06	659.24	215.01	3.7036e-06	1.0811e-05	329.99	153.23	102.39	58.387	6.0194e-06	91.02	0.00091343	0.00087123	0.00028136	631.65	9.953e-06	9.5218e-06	780.64	249.34	9.5668e-06	9.3558e-06	386.02	163.45	116.06	60.343	1.0626e-05	92.354	10.720	144.241	146.901	-142.167	159.793	192.313	-143.401	-136.598	50.907	-14.761	-139.107	-134.234	-132.798	-129.004	-125.777	-131.641	-8191	255	
7705.153	1	1	0	0	0.35756	0.062657	0.23582	0.088916	0.13485	0.22961	0.12156	0.098449	0.19117	0.033361	0.094009	0.13427	0.34698	0.30388	0.080861	0.10136	-1.8813	-2.625	-2.2167	-2.3292	-2.7458	-2.6208	-2.8229	-2.6937	-2.2604	-2.6125	-2.5312	-2.5271	-2.6958	-2.5229	-2.5292	-2.7021	-1.038	177.619	-110.002	175.073	-117.635	-60.658	59.490	-91.593	-34.566	101.350	123.905	-108.927	-115.185	174.574	42.532	145.707	0.0018958	0.00030764	0.00017278	498.71	8.5897e-06	9.3613e-06	663.02	215.77	4.752e-06	1.2492e-05	331.58	153.82	102.43	58.531	4.5351e-06	91.226	0.00083995	0.00086101	0.00027129	618.51	9.2156e-06	9.5989e-06	778.03	247.37	9.1724e-06	9.8583e-06	387.49	163.4	115.92	61.067	1.0568e-05	92.324	2.670	152.095	-51.116	-142.113	-78.705	-137.045	-143.205	-136.560	-32.975	-140.602	-138.560	-134.623	-132.890	-129.385	-53.136	-131.862	-8191	255	
7705.274	1	1	0	0	0.059629	0.2387	0.072876	0.14786	0.097097	0.13066	0.34981	0.23421	0.077462	0.071286	0.041623	0.21508	0.13942	0.1628	0.12974	0.12602	-1.7979	-2.7625	-2.4646	-2.3187	-2.6417	-2.3854	-2.5083	-2.7396	-2.3125	-2.9042	-2.7042	-2.4729	-2.7771	-2.5667	-2.5604	-2.8958	-114.501	-61.008	119.210	-76.786	76.946	202.148	-79.933	31.794	-69.328	110.617	178.671	159.387	-150.533	102.191	111.143	14.862	0.0018122	0.0012305	0.00021011	499.59	3.476e-06	4.2936e-06	666.11	216.25	1.1504e-05	9.4381e-06	332.22	153.58	102.17	58.346	8.315e-06	90.979	0.0008328	0.00093151	0.00026846	617.16	9.1477e-06	1.0346e-05	775.22	246.6	9.0953e-06	1.0366e-05	383.81	162.54	115.59	61.42	1.0128e-05	91.898	0.087	97.766	-22.396	-142.125	96.234	-93.387	-143.148	-136.656	25.925	-145.263	-138.636	-134.485	-133.312	-129.246	1.450	-131.586	-8191	255	
7705.368	1	1	0	0	0.080066	0.13309	0.060924	0.26071	0.12549	0.1582	0.28345	0.10295	0.21579	0.12162	0.2883	0.19562	0.17197	0.23658	0.048539	0.28942	-1.75	-2.5104	-2.4458	-2.4958	-2.7792	-2.4604	-2.6708	-2.7396	-2.4042	-2.5021	-2.6583	-2.4146	-2.6354	-2.5021	-2.5521	-2.7333	121.154	37.994	96.051	103.542	0.033	-149.761	-72.319	-130.531	-113.836	24.312	-126.454	160.482	43.622	203.341	-86.171	165.825	0.0023002	0.00059795	0.0002446	500.93	5.193e-06	9.2799e-06	664.56	216.96	1.9267e-05	8.5271e-06	333.39	154.5	102.17	58.773	1.779e-06	91.36	0.00083712	0.0009615	0.00025554	611.15	9.2132e-06	1.0621e-05	768.76	245.3	9.3164e-06	1.0607e-05	380.96	162.26	117.09	61.82	9.7964e-06	92.069	-0.373	-19.971	-11.061	-142.111	194.064	147.505	-142.866	-136.477	198.793	-147.582	-138.351	-134.487	-133.268	-128.909	-115.652	-131.783	-8191	255	
7705.466	1	1	0	0	0.21081	0.064987	0.20381	0.043329	0.040996	0.12971	0.32012	0.18048	0.13682	0.12202	0.22335	0.087278	0.21484	0.18123	0.30376	0.19568	-1.9854	-2.4625	-2.4917	-2.2792	-2.7167	-2.4208	-2.4854	-2.5979	-2.3604	-2.5687	-2.6125	-2.4458	-2.8833	-2.5083	-2.275	-2.975	-106.032	100.491	136.384	28.987	28.894	152.885	97.671	106.661	78.581	-152.147	-136.335	149.671	-62.615	120.088	148.227	158.686	0.002182	8.0358e-05	0.00032306	503.14	7.6408e-06	7.3008e-06	666.97	218.28	1.7273e-05	1.3678e-05	333.47	154.62	102.51	58.78	4.3514e-06	91.638	0.00088355	0.00096309	0.00024688	608.8	9.699e-06	1.05e-05	764.28	244.85	9.9204e-06	1.048e-05	379.29	162.24	119.16	61.75	9.6316e-06	92.181	-16.734	21.286	-75.257	-142.079	200.808	40.359	-143.136	-136.491	-147.323	4.080	-138.856	-134.724	-133.447	-129.082	-20.398	-131.782	-8191	255	
7705.585	1	1	0	0	0.12856	0.27383	0.20278	0.056358	0.080636	0.23008	0.21765	0.19189	0.17143	0.20258	0.095054	0.24422	0.074101	0.18956	0.24837	0.18828	-1.7521	-2.6	-2.4771	-2.3604	-2.7104	-2.5062	-2.475	-2.775	-2.4583	-2.4542	-2.7375	-2.5458	-2.7292	-2.6458	-2.2958	-2.7875	138.791	-115.628	-51.235	-22.344	10.269	202.281	104.828	163.404	-32.782	-15.011	-153.011	-148.670	100.817	152.623	-30.044	165.389	0.002058	0.0010397	0.00015483	502.03	6.7778e-06	1.7275e-05	666.26	217.24	1.45e-05	1.6273e-05	334.57	154.77	102.61	58.945	7.2489e-06	92.108	0.00095414	0.00095712	0.00024685	610.94	1.0569e-05	1.05e-05	764.92	245.6	1.0755e-05	1.0313e-05	379.21	163.08	120.85	61.729	9.5388e-06	92.883	-8.170	-42.098	-58.488	-142.005	202.188	-8.664	-143.102	-136.532	204.265	9.842	-138.352	-134.585	-133.331	-129.059	-7.910	-131.727	-8191	255	
7705.681	1	1	0	0	0.19394	0.22691	0.043644	0.05152	0.10691	0.040705	0.25387	0.16582	0.26497	0.25347	0.13008	0.17988	0.2629	0.17641	0.25046	0.35305	-1.9021	-2.4479	-2.6542	-2.3375	-2.5729	-2.5146	-2.3646	-2.7562	-2.5708	-2.3958	-2.7687	-2.4208	-2.6917	-2.6583	-2.3812	-2.8417	46.246	-127.226	2.668	170.751	-147.597	-6.263	-65.033	119.680	19.493	-147.231	109.258	-136.869	-139.910	-127.170	-15.087	146.970	0.0021327	0.001337	8.1617e-05	500.02	2.4966e-06	2.0162e-05	666.42	217.25	8.0125e-06	1.0328e-05	332.2	154.19	103.03	58.602	3.5156e-06	91.768	0.0010121	0.0009416	0.00024703	620.48	1.1253e-05	1.0419e-05	765.45	249.22	1.1356e-05	1.031e-05	379.9	165.04	122.86	61.64	9.6818e-06	93.684	-1.525	-72.577	-87.241	-142.273	187.680	-13.799	-143.122	-136.881	-14.927	14.866	-138.504	-134.879	-133.125	-128.992	-64.803	-131.759	-8191	255	
7705.753	1	1	0	0	0.087202	0.10548	0.30369	0.017051	0.17181	0.12929	0.32299	0.044305	0.20675	0.052866	0.18634	0.3754	0.19537	0.13611	0.11386	0.2086	-2.1646	-2.4688	-2.5875	-2.3021	-2.675	-2.6271	-2.3854	-2.7667	-2.7	-2.3979	-2.7521	-2.5417	-2.5458	-2.6479	-2.4042	-2.7875	-79.577	-57.171	4.769	98.631	13.978	16.578	181.342	193.689	124.379	-107.096	-112.546	122.245	-2.165	-63.540	-74.579	-130.820	0.00204	0.00017559	6.7869e-05	501.8	3.4086e-06	1.2796e-06	667.38	217.81	4.3195e-06	2.3467e-06	332.49	153.88	103.3	58.849	2.0961e-06	91.827	0.0010499	0.00094979	0.00024903	637.19	1.143e-05	1.0469e-05	766.76	253.59	1.1428e-05	1.0291e-05	379.42	167.13	122.03	61.492	9.6638e-06	94.468	2.391	2.708	-131.120	-142.254	194.718	-115.033	-143.168	-136.964	-27.931	111.458	-138.851	-134.826	-133.139	-128.950	7.572	-131.910	-8191	255	
7705.873	1	1	0	0	0.1473	0.22125	0.098085	0.15737	0.050868	0.067485	0.11282	0.34965	0.31332	0.18598	0.15836	0.066939	0.13409	0.25511	0.25178	0.1325	-2.1625	-2.3063	-2.6208	-2.2292	-2.4729	-2.7042	-2.3896	-2.7667	-2.4979	-2.6167	-2.6792	-2.5458	-2.625	-2.6771	-2.2812	-2.7938	-151.381	-92.592	-107.827	-18.181	139.459	191.924	-147.275	118.950	-141.333	27.193	157.777	185.953	111.128	123.620	-128.480	119.435	0.0017527	0.00067991	0.00028205	496.63	4.4143e-06	5.2713e-06	663.7	216.42	1.3421e-05	1.4973e-05	333.38	154.62	102.27	58.583	1.6086e-05	91.939	0.0010209	0.00092257	0.00024608	644.01	1.0972e-05	1.0095e-05	767.09	255.23	1.0855e-05	9.9513e-06	380.02	167.95	120.39	61.235	9.8245e-06	94.907	11.984	-46.615	167.133	-142.458	-39.936	-86.073	-143.140	-136.579	-71.834	-10.770	-138.829	-134.854	-132.939	-129.107	174.617	-131.574	-8191	255	
7705.969	1	1	0	0	0.029259	0.11566	0.050575	0.28307	0.17576	0.12371	0.17694	0.27003	0.071455	0.08818	0.26806	0.37379	0.3712	0.18542	0.059766	0.25172	-1.9521	-2.2625	-2.5833	-2.5396	-2.5417	-2.7833	-2.3167	-2.6021	-2.6125	-2.3542	-2.6708	-2.5604	-2.5229	-2.7188	-2.3333	-2.7625	117.376	-52.982	0.170	142.818	-28.934	-88.696	144.083	197.903	-146.541	116.017	141.188	150.463	188.544	121.428	-77.563	75.183	0.0017648	0.00090704	0.00028003	503.25	1.0739e-05	6.6295e-06	668.77	218.27	1.1776e-05	6.4143e-06	332.17	154.71	103.08	58.885	8.4333e-06	92.395	0.00096606	0.00088587	0.00025189	646.17	1.0332e-05	9.6302e-06	773.52	255.31	1.0397e-05	9.5594e-06	384.99	168.07	119.19	60.996	1.0419e-05	95.01	13.259	-109.536	193.525	-142.135	0.942	-3.125	-143.461	-136.435	-41.821	76.425	-138.927	-134.735	-132.954	-129.080	205.472	-131.671	-8191	255	
7706.065	1	1	0	0	0.1221	0.16664	0.43488	0.16618	0.21475	0.074959	0.3075	0.38071	0.28758	0.14737	0.11346	0.34524	0.12171	0.20928	0.069256	0.34129	-2.1875	-2.1437	-2.7	-2.5708	-2.4437	-2.8937	-2.4437	-2.5604	-2.6604	-2.325	-2.5458	-2.5729	-2.5438	-2.6562	-2.525	-2.6208	-60.786	154.418	-35.958	146.217	166.175	39.044	155.489	184.252	169.175	76.064	107.994	194.685	176.654	134.933	185.893	-139.874	0.0015509	0.00049385	0.00021436	501.51	1.0446e-05	1.526e-05	667.69	218.24	1.6206e-05	2.0187e-06	332.97	154.5	102.69	58.897	1.0039e-05	91.748	0.0009403	0.00086393	0.00026945	644.03	1.0177e-05	9.6061e-06	785.72	255.27	1.0409e-05	9.696e-06	392.86	168.02	119.89	61.285	1.1599e-05	94.85	9.910	-105.606	131.069	-141.987	-36.742	-14.822	-143.631	-136.549	-8.758	-98.552	-138.971	-134.392	-132.887	-128.941	185.012	-131.813	-8191	255	
7706.186	1	1	0	0	0.17187	0.19062	0.15993	0.33066	0.1405	0.14045	0.10024	0.15826	0.13186	0.17447	0.29888	0.093388	0.044927	0.22394	0.16967	0.065563	-2.1667	-2.5229	-2.625	-2.6771	-2.5	-2.6875	-2.4625	-2.5812	-2.65	-2.3292	-2.4688	-2.6625	-2.5979	-2.9104	-2.4917	-2.6688	93.925	-45.080	199.851	-106.311	109.393	120.468	110.493	-96.057	-28.460	-66.520	-132.435	145.118	-46.775	124.695	-150.845	-17.243	0.0014676	0.0015802	0.00019183	504.21	9.0084e-06	4.698e-06	661.79	215.79	6.7088e-06	9.6891e-06	332.01	153.78	101.95	58.475	2.3441e-06	91.24	0.00097059	0.00092476	0.00030015	649.34	1.0624e-05	1.047e-05	801.35	255.14	1.0764e-05	1.0592e-05	400.09	167.62	119.93	61.689	1.2425e-05	94.414	6.935	205.599	114.410	-141.841	-41.559	97.433	-143.301	-136.383	45.527	154.108	-138.786	-134.441	-133.201	-129.577	-30.521	-131.673	-8191	255	
7706.282	1	1	0	0	0.36703	0.13728	0.21004	0.15786	0.044469	0.1846	0.27581	0.15413	0.27735	0.094768	0.14735	0.11743	0.34562	0.32915	0.18799	0.13246	-2.3063	-2.2896	-2.7146	-2.4792	-2.2333	-2.7313	-2.6271	-2.4833	-2.7646	-2.4354	-2.6729	-2.5208	-2.3375	-2.8063	-2.6437	-2.4521	-57.034	189.483	-115.705	150.352	-123.185	11.566	121.986	21.444	-49.095	33.282	53.026	116.584	105.061	171.532	147.925	164.329	0.0015209	0.001136	0.00019632	499.98	2.6938e-06	1.0779e-05	666.54	216.86	5.3248e-06	1.1887e-05	332.94	153.73	102.38	58.096	6.2672e-06	91.434	0.00097413	0.00099812	0.00031163	643.53	1.0361e-05	1.0985e-05	801.41	252.73	1.0309e-05	1.1084e-05	396.96	166.03	118.29	61.916	1.1745e-05	93.731	5.458	126.136	-59.197	-141.866	155.018	-146.885	-143.358	-136.784	-9.057	-119.819	-138.679	-134.540	-133.094	-129.113	-12.638	-131.592	-8191	255	
7706.377	1	1	0	0	0.20325	0.079845	0.20367	0.11678	0.28125	0.20476	0.054156	0.096899	0.12405	0.03767	0.26852	0.15305	0.15928	0.22967	0.27189	0.29884	-2.2229	-2.4771	-2.5521	-2.7458	-2.2708	-2.6667	-2.4625	-2.5375	-2.6771	-2.2562	-2.4958	-2.6958	-2.4771	-2.925	-2.5896	-2.4396	138.001	201.629	-136.059	-121.675	37.987	-117.664	198.439	-114.819	118.290	183.622	-140.064	149.252	158.404	193.634	169.684	167.771	0.0015714	0.00076942	0.00014526	501.54	3.6334e-06	1.1853e-05	664.58	215.27	3.8475e-06	1.0515e-05	331.56	153.42	101.77	58.543	3.8333e-06	91.778	0.00092088	0.0010265	0.0002914	633.4	9.9247e-06	1.1304e-05	790.03	249.52	9.8887e-06	1.1316e-05	389.89	164.46	117.36	62.154	1.0898e-05	93.154	1.594	48.710	-73.667	-142.014	8.301	193.920	-143.023	-136.781	-81.170	170.298	-138.535	-134.802	-133.423	-129.225	30.195	-131.607	-8191	255	
7706.448	1	1	0	0	0.033361	0.14047	0.10301	0.013783	0.18007	0.079236	0.22812	0.27046	0.045838	0.16034	0.20331	0.28206	0.39192	0.18184	0.1788	0.18906	-2.2	-2.4021	-2.4021	-2.6625	-2.4646	-2.6437	-2.5521	-2.2833	-2.5917	-2.5271	-2.5042	-2.7896	-2.5479	-2.6229	-2.5083	-2.2229	18.490	136.854	98.075	-128.981	-88.484	107.475	196.727	196.361	-129.122	89.101	164.608	63.202	134.864	-115.314	76.095	173.793	0.0018897	0.00020436	0.00030887	500.45	7.832e-06	4.7239e-06	664	215.79	6.4015e-06	5.7142e-06	332.69	154.04	101.77	58.698	1.6503e-05	91.735	0.00090309	0.0010401	0.00027286	624.94	9.9812e-06	1.1546e-05	783.14	248.04	1.0275e-05	1.1642e-05	386.25	163.82	118.92	62.326	1.0506e-05	92.811	-8.231	205.000	-35.622	-141.865	-116.784	-103.920	-143.171	-136.330	-150.154	145.476	-138.327	-134.354	-133.123	-128.993	-67.912	-131.633	-8191	255	
7706.546	1	1	0	0	0.19007	0.034711	0.078866	0.12042	0.17684	0.2095	0.072024	0.077079	0.17784	0.12077	0.038637	0.063817	0.17186	0.22474	0.10472	0.24564	-2.2771	-2.3292	-2.4583	-2.8438	-2.4688	-2.5146	-2.65	-2.4417	-2.7125	-2.4479	-2.5167	-2.75	-2.3708	-2.6417	-2.4688	-2.4479	99.651	-76.931	-109.600	-9.446	177.901	94.344	-75.782	1.648	108.832	-18.798	-75.833	192.048	197.961	107.276	-26.085	22.631	0.0022927	0.00043719	0.00016999	502.53	6.93e-06	4.4337e-06	665.16	214.79	1.0184e-05	8.9864e-06	331.15	153.78	101.94	58.596	5.8974e-06	91.492	0.00094741	0.0010359	0.00026035	618.85	1.0472e-05	1.1246e-05	774.88	246.58	1.0801e-05	1.1417e-05	383.4	163.2	121.19	62.074	1.0316e-05	92.465	-8.161	-85.642	-66.603	-142.407	177.667	20.737	-143.429	-136.598	167.305	52.610	-138.716	-134.440	-133.042	-129.082	165.136	-131.866	-8191	255	
7706.665	1	1	0	0	0.17934	0.19212	0.12577	0.20675	0.18765	0.084653	0.31601	0.22177	0.24142	0.34725	0.11955	0.089732	0.34132	0.20904	0.22231	0.44518	-2.0333	-2.3542	-2.2667	-2.7687	-2.475	-2.7271	-2.6188	-2.4188	-2.4938	-2.4813	-2.3333	-2.7375	-2.425	-2.5292	-2.5833	-2.5521	142.953	-67.879	74.296	-112.702	-88.869	-42.072	127.015	81.116	-26.492	195.126	-141.073	147.233	152.148	-129.142	121.148	150.800	0.0024159	0.00093698	5.8603e-05	499.53	3.9244e-06	1.1307e-05	663.99	214.76	1.3271e-05	9.66e-06	329.18	153.79	101.9	58.24	8.5128e-06	91.161	0.0010093	0.0010101	0.00025677	618.46	1.1207e-05	1.0946e-05	773.94	247.45	1.1546e-05	1.127e-05	383.54	164.5	124.22	62.147	1.0772e-05	93.52	-11.429	-109.709	-124.959	-142.103	70.837	-29.649	-143.304	-136.839	-133.825	36.008	-138.458	-134.977	-133.318	-128.985	-56.860	-131.979	-8191	255	
7706.761	1	1	0	0	0.30559	0.41023	0.078793	0.27383	0.43249	0.2032	0.13451	0.2121	0.2756	0.18931	0.05232	0.23913	0.4495	0.12044	0.021671	0.075161	-2.1917	-2.5333	-2.2792	-2.6396	-2.4875	-2.2771	-2.6458	-2.2438	-2.575	-2.7146	-2.3896	-2.7104	-2.3812	-2.5021	-2.7	-2.5542	-76.853	-128.144	123.515	202.891	49.872	-76.495	52.732	-151.839	121.275	126.191	77.312	23.270	176.765	150.062	154.821	-111.598	0.0015852	0.001673	0.00018621	497.22	8.3932e-06	1.2296e-05	661.71	215.33	5.5249e-06	5.6709e-06	330.04	153.65	102.08	58.148	4.978e-06	90.922	0.0011382	0.0010618	0.0002738	637.64	1.2507e-05	1.1407e-05	777.22	251.8	1.2429e-05	1.1411e-05	385.29	166.87	125.78	61.918	1.0827e-05	94.562	-10.019	-58.572	-60.660	-142.360	133.159	2.321	-143.385	-136.758	-152.329	-12.378	-138.567	-134.643	-132.953	-129.179	-73.618	-131.861	-8191	255	
7706.857	1	1	0	0	0.15381	0.13234	0.21393	0.10035	0.14096	0.075838	0.099982	0.20437	0.15505	0.11124	0.12952	0.24231	0.062793	0.019874	0.29419	0.18744	-2.025	-2.6625	-2.1854	-2.6813	-2.3354	-2.4479	-2.8104	-2.4104	-2.5354	-2.6875	-2.3875	-2.6896	-2.4792	-2.6542	-2.725	-2.5667	178.658	-79.302	188.685	201.921	126.688	-102.194	189.918	131.662	136.177	108.495	12.041	191.721	46.292	47.707	-136.156	184.289	0.0017963	0.00033563	0.00017042	497.85	8.816e-06	1.5913e-05	659.8	215.38	8.6494e-06	1.1238e-05	330.31	153.62	101.99	58.408	1.9871e-06	91.349	0.00117	0.0010741	0.00027809	656.2	1.2868e-05	1.1558e-05	777.16	257.16	1.2508e-05	1.1433e-05	386.04	169.44	125.17	61.958	1.073e-05	95.583	10.498	56.143	-106.396	-142.390	-97.734	-13.037	-143.404	-137.086	27.582	42.059	-138.800	-134.440	-133.092	-128.900	-17.322	-131.932	-8191	255	
7706.954	1	1	0	0	0.20643	0.16282	0.16779	0.16728	0.062285	0.33419	0.19467	0.093142	0.066832	0.14567	0.16309	0.15965	0.048443	0.526	0.35418	0.12274	-2.0292	-2.5062	-2.2604	-2.7979	-2.425	-2.4875	-2.7042	-2.5375	-2.3708	-2.6396	-2.4313	-2.825	-2.5229	-2.3979	-2.6813	-2.6125	-4.163	-64.340	193.224	-50.010	-105.310	-22.868	143.869	179.624	140.072	-150.025	-105.509	141.500	-8.738	76.533	-100.579	203.490	0.0018752	0.0008408	0.0002816	496.43	5.6339e-06	2.3307e-05	660.06	214.47	9.5264e-06	4.8658e-06	330.36	153.01	102.36	58.06	1.2011e-05	91.234	0.0011224	0.0010288	0.00027384	661.93	1.2234e-05	1.1131e-05	779.85	259.2	1.1969e-05	1.103e-05	387.72	169.88	123.03	61.435	1.0971e-05	95.719	-0.031	-83.534	-124.344	-142.393	-43.417	11.824	-143.614	-136.831	-40.571	11.098	-138.935	-134.502	-133.086	-128.809	-147.183	-131.683	-8191	255	
7707.050	1	1	0	0	0.077568	0.20572	0.1947	0.13601	0.083557	0.31843	0.21356	0.2654	0.19065	0.18501	0.18842	0.28489	0.2733	0.23821	0.16391	0.3143	-2.0479	-2.4979	-2.4479	-2.6417	-2.575	-2.125	-2.7167	-2.4521	-2.5083	-2.7375	-2.45	-2.6271	-2.5687	-2.45	-2.5042	-2.6208	196.259	201.478	78.174	57.721	119.974	-46.951	-152.354	193.823	146.127	26.728	181.122	171.236	186.311	167.992	-41.506	52.058	0.0019846	0.00045605	0.00027298	501.82	4.5799e-06	6.1901e-06	661.75	216.77	3.366e-06	6.2333e-06	332.41	153.01	101.49	58.256	1.2265e-05	91.177	0.0010604	0.00098694	0.00028261	664.52	1.1615e-05	1.0644e-05	788.6	260.46	1.1536e-05	1.0764e-05	394.15	169.72	122.13	61.301	1.1687e-05	95.488	-3.933	-102.477	142.204	-141.943	-30.770	-18.852	-143.275	-136.745	-56.816	26.320	-138.541	-134.553	-133.402	-129.060	173.563	-131.755	-8191	255	
7707.146	1	1	0	0	0.019117	0.23628	0.11586	0.2328	0.13621	0.16164	0.10445	0.11966	0.078644	0.090618	0.091277	0.30637	0.11726	0.30945	0.098486	0.29864	-1.8792	-2.6292	-2.3396	-2.6208	-2.6208	-2.4313	-2.725	-2.4896	-2.3146	-2.6479	-2.2042	-2.6521	-2.6958	-2.3854	-2.4792	-2.7438	-2.334	-55.525	-139.638	171.723	165.226	-29.857	-77.089	176.351	-146.929	-1.725	145.021	70.744	106.235	176.003	94.575	135.592	0.001916	0.00047598	0.00018713	496.25	9.7249e-06	4.381e-06	665.68	216.12	9.01e-06	5.52e-06	331.81	154.12	101.91	58.237	1.0719e-05	91.517	0.0010355	0.00096448	0.00030116	658.54	1.1361e-05	1.0536e-05	799.72	258.61	1.1353e-05	1.0724e-05	402.3	169.74	121.95	61.539	1.2492e-05	95.519	10.691	193.876	-107.214	-142.184	-35.220	20.173	-143.277	-136.239	-37.857	-96.927	-139.101	-134.653	-133.086	-129.120	193.298	-131.703	-8191	255	
7707.266	1	1	0	0	0.056506	0.090829	0.17377	0.085965	0.17917	0.16892	0.38338	0.39016	0.17896	0.039955	0.17464	0.16697	0.099997	0.18081	0.105	0.093484	-1.9375	-2.75	-2.3312	-2.3417	-2.55	-2.3292	-2.6521	-2.6625	-2.2687	-2.6917	-2.3667	-2.4771	-2.6604	-2.3625	-2.6625	-2.7292	5.117	-109.896	171.810	-53.077	-143.536	166.011	92.906	125.057	153.452	63.830	34.552	103.094	39.557	201.783	126.043	97.357	0.0022096	0.0003133	0.0002271	498.27	4.66e-06	3.2786e-06	664.57	217.12	6.7991e-06	9.5612e-06	333.94	153.63	101.49	58.356	1.0288e-06	91.61	0.0010221	0.00097928	0.00031713	651.39	1.1056e-05	1.0726e-05	805.47	256.6	1.0884e-05	1.088e-05	403.41	168.04	120.43	61.858	1.257e-05	94.985	4.244	144.492	63.576	-141.720	-15.778	73.115	-143.169	-136.929	-40.247	201.922	-138.492	-134.625	-133.122	-129.305	193.470	-131.702	-8191	255	
7707.363	1	1	0	0	0.24497	0.20532	0.33334	0.05968	0.24119	0.17827	0.080954	0.065924	0.24509	0.08758	0.17698	0.39774	0.20534	0.30981	0.089058	0.41389	-1.7042	-2.7229	-2.4354	-2.3812	-2.7104	-2.3833	-2.65	-2.6604	-2.4479	-2.7146	-2.5687	-2.4604	-2.7021	-2.3688	-2.7542	-2.6396	-66.375	-61.858	-138.393	-29.859	41.144	-132.288	-94.967	118.711	144.830	112.807	47.639	147.441	188.619	-127.138	164.670	142.272	0.002048	0.0017306	0.00013804	499	1.0196e-05	9.338e-06	665.36	215.13	1.2519e-05	1.0351e-05	333.09	153.06	102.47	58.216	9.9674e-06	91.204	0.00099267	0.0010394	0.00032405	647.01	1.0892e-05	1.16e-05	807.92	255.18	1.0802e-05	1.1809e-05	403.87	167.36	120.31	62.536	1.257e-05	94.521	-1.235	101.443	197.782	-142.094	-56.261	70.846	-143.273	-136.585	-54.461	-137.149	-138.594	-134.691	-132.879	-129.345	7.487	-131.704	-8191	255	
7707.457	1	1	0	0	0.14021	0.14353	0.1096	0.10057	0.066503	0.14753	0.12385	0.035088	0.12978	0.038829	0.12724	0.35989	0.2703	0.26145	0.15636	0.076145	-1.7875	-2.4542	-2.4125	-2.3312	-2.625	-2.6104	-2.6688	-2.4854	-2.3417	-2.7375	-2.6104	-2.4437	-2.6688	-2.4604	-2.3479	-2.8438	-122.130	182.435	-151.091	177.440	-25.823	82.421	186.963	195.142	-35.007	-96.088	99.181	-140.962	-144.965	187.660	40.807	-70.114	0.001883	0.001231	0.00035326	497.67	1.5418e-05	1.6378e-05	662.77	214.75	7.1234e-06	1.2895e-05	328.15	152.18	101.12	57.918	9.6034e-06	90.51	0.00099822	0.0011356	0.00032397	649.49	1.1164e-05	1.2885e-05	807.91	255.48	1.1349e-05	1.3132e-05	403.91	167.27	121.75	63.183	1.2757e-05	94.223	9.024	142.411	-58.044	-142.236	-37.898	-151.393	-143.039	-136.674	-150.929	187.531	-138.291	-134.698	-133.102	-129.227	25.813	-131.793	-8191	255	
7707.553	1	1	0	0	0.22784	0.036125	0.10595	0.18782	0.22316	0.14366	0.27234	0.070174	0.22056	0.11908	0.23523	0.16515	0.16365	0.38126	0.20798	0.13735	-1.7833	-2.6583	-2.5417	-2.1229	-2.5958	-2.3896	-2.5875	-2.7875	-2.2	-2.6792	-2.6354	-2.4396	-2.6646	-2.5229	-2.2521	-2.9042	4.824	-131.703	35.055	137.294	-9.272	-148.941	-148.071	-131.170	52.038	-45.606	90.857	186.906	28.200	-153.109	154.228	123.685	0.0020931	0.0012328	0.00023969	495.72	5.6772e-06	6.1163e-06	660.65	213.34	1.0443e-05	3.1101e-06	327.01	151.72	100.74	57.671	8.1477e-06	90.254	0.0010665	0.0012289	0.00032502	649.34	1.1968e-05	1.3748e-05	804.68	254.79	1.2204e-05	1.3774e-05	401.08	166.95	124.19	63.563	1.256e-05	93.937	-10.492	187.096	77.394	-142.130	-112.880	-20.016	-143.119	-136.809	199.858	123.906	-138.508	-134.531	-133.185	-129.285	-63.187	-131.783	-8191	255	
7707.674	1	1	0	0	0.16528	0.1854	0.087837	0.24781	0.12321	0.23775	0.21065	0.11734	0.037676	0.13178	0.28301	0.36331	0.19102	0.21597	0.15246	0.24305	-1.6396	-2.6	-2.4875	-2.4208	-2.6896	-2.5062	-2.5917	-2.7792	-2.3354	-2.625	-2.5542	-2.2896	-2.6312	-2.4688	-2.1312	-2.7313	184.312	50.468	-83.002	57.915	-87.437	45.861	-72.112	-23.006	61.622	-119.770	58.827	124.191	200.120	-53.850	42.300	186.180	0.0024938	0.00052485	0.00034008	494.05	2.8889e-06	4.2514e-06	658.94	214.25	1.0099e-05	1.5531e-05	331.16	152.67	100.86	57.746	2.7587e-06	90.621	0.0011371	0.0012308	0.00031132	640.13	1.2418e-05	1.3182e-05	793.7	252.12	1.2504e-05	1.2953e-05	395.56	165.98	125.62	62.926	1.2005e-05	93.783	-7.461	-109.516	-34.197	-142.005	139.684	33.226	-143.164	-136.442	-93.027	7.088	-138.598	-134.659	-133.406	-129.176	11.689	-131.705	-8191	255	
7707.745	1	1	0	0	0.22656	0.15392	0.23635	0.1028	0.18844	0.2342	0.30387	0.37702	0.26105	0.20438	0.26197	0.10067	0.21304	0.18561	0.20108	0.24638	-1.8667	-2.6188	-2.4542	-2.4375	-2.6396	-2.3583	-2.3708	-2.8396	-2.4583	-2.55	-2.6083	-2.4042	-2.5833	-2.6021	-2.275	-2.7188	-60.513	96.064	18.284	168.665	-59.377	-60.505	203.558	35.686	173.813	157.034	192.558	-38.115	203.037	128.054	2.824	-133.109	0.00205	0.0013984	0.00013899	494.37	5.9365e-06	1.6677e-05	658.03	214.57	8.0279e-06	1.7975e-05	326.9	151.88	101.56	57.521	9.7137e-06	90.407	0.0012026	0.0011925	0.00030782	642.46	1.3297e-05	1.3039e-05	792.41	253.41	1.3453e-05	1.2863e-05	394.61	166.77	128.09	62.592	1.1944e-05	94.031	-11.247	-73.577	-64.824	-142.425	161.945	-5.091	-143.328	-136.736	190.184	-6.714	-138.598	-134.631	-133.395	-129.084	-28.268	-131.839	-8191	255	
7707.866	1	1	0	0	0.28156	0.052311	0.21018	0.08347	0.37533	0.080299	0.21779	0.071092	0.20139	0.17066	0.10598	0.29098	0.028242	0.34822	0.35175	0.063295	-2.0271	-2.6833	-2.7417	-2.3229	-2.6604	-2.4792	-2.5125	-2.7812	-2.5208	-2.3542	-2.8333	-2.4292	-2.7062	-2.7125	-2.3708	-2.7104	90.056	-144.918	128.858	5.661	-67.148	175.228	122.415	202.506	71.821	-20.643	160.702	174.595	-95.204	190.319	-141.033	111.871	0.0018965	0.00077692	0.00035304	495.77	3.0999e-06	1.0945e-05	654.91	213.36	5.307e-06	2.0518e-06	328.33	150.91	100.8	57.319	2.9996e-06	89.688	0.0012694	0.0011782	0.00030782	656.74	1.41e-05	1.3049e-05	791.74	257.59	1.4288e-05	1.2968e-05	395.55	169.33	129.44	62.413	1.2043e-05	94.955	-3.368	-46.967	-87.206	-142.702	59.938	-8.022	-142.806	-136.710	-95.004	117.295	-138.648	-134.620	-133.013	-129.054	-68.467	-131.827	-8191	255	
7707.962	1	1	0	0	0.21082	0.19835	0.27358	0.38031	0.25667	0.22715	0.16848	0.083569	0.10452	0.10041	0.094397	0.11599	0.24407	0.098764	0.23152	0.1738	-2.0708	-2.3937	-2.6875	-2.5062	-2.6229	-2.6354	-2.1208	-2.6646	-2.3625	-2.4333	-2.8479	-2.5042	-2.4396	-2.6646	-2.3542	-2.7625	-154.706	10.383	145.121	182.104	18.442	126.884	-139.349	202.360	93.015	-31.684	-113.029	192.275	-121.243	175.408	89.104	158.943	0.0016328	0.00036777	0.00023505	493.83	9.9332e-06	1.3842e-05	657.16	212.94	1.1793e-05	1.3759e-05	325.84	151.52	100.8	57.407	4.8528e-06	89.926	0.0012941	0.0011699	0.00030574	671.24	1.4004e-05	1.2889e-05	789.24	261.89	1.3929e-05	1.2525e-05	392.98	170.88	127.46	62.069	1.1796e-05	95.772	14.281	84.359	-29.884	-142.337	-12.554	-7.032	-143.442	-136.883	-23.297	36.975	-138.963	-134.602	-133.119	-129.006	-153.249	-131.964	-8191	255	
7708.058	1	1	0	0	0.21246	0.14984	0.20967	0.18183	0.041557	0.13595	0.023403	0.16946	0.062825	0.10049	0.18465	0.069367	0.14834	0.031237	0.18171	0.051333	-2.1	-2.3833	-2.4625	-2.4208	-2.5812	-2.625	-2.35	-2.5812	-2.5917	-2.375	-2.8	-2.4125	-2.5542	-2.6833	-2.5104	-2.9688	-76.423	194.591	131.327	-151.890	144.613	161.972	23.633	-92.668	-8.001	138.826	123.455	49.529	-90.237	105.616	133.531	133.135	0.001359	0.00086131	0.0002199	492.17	7.6308e-06	2.0479e-05	659.31	212.73	2.0599e-05	7.7909e-06	327.2	151.37	100.8	57.335	1.327e-05	89.916	0.0012302	0.0011197	0.0003004	677.52	1.3146e-05	1.2256e-05	790.6	263.05	1.3175e-05	1.2035e-05	394.55	171.86	125.82	61.736	1.2217e-05	96.023	3.305	-26.374	201.352	-142.759	36.532	-6.129	-143.423	-136.521	-10.876	-27.554	-138.804	-134.633	-133.510	-129.112	174.947	-131.897	-8191	255	
7708.155	1	1	0	0	0.3076	0.17405	0.35804	0.11011	0.19429	0.13932	0.0957	0.19289	0.24531	0.11972	0.055236	0.10055	0.057054	0.14429	0.19914	0.15116	-2.0521	-2.1979	-2.5979	-2.525	-2.5417	-2.5875	-2.3438	-2.5417	-2.5729	-2.1771	-2.7	-2.4646	-2.4604	-2.8125	-2.2979	-2.725	-35.254	-142.492	96.970	-147.909	-134.829	-29.432	80.663	140.275	-36.366	96.522	159.937	-149.924	-96.227	150.810	-36.972	112.047	0.0017884	0.00047756	0.00037867	492.15	4.2509e-06	1.1268e-05	657.09	213.64	1.0882e-05	1.4513e-05	327.28	152.61	100.51	57.641	1.347e-05	90.191	0.0011718	0.0010759	0.00030934	676.31	1.2502e-05	1.1645e-05	797.76	262.18	1.2466e-05	1.1479e-05	399.29	171.47	123.81	61.28	1.2692e-05	95.574	-3.589	29.193	135.644	-142.228	46.164	32.732	-143.812	-136.809	-19.502	21.396	-139.228	-134.653	-133.376	-129.191	171.345	-131.502	-8191	255	
7708.251	1	1	0	0	0.15929	0.11036	0.25072	0.043788	0.099096	0.10325	0.24678	0.33914	0.18798	0.0099863	0.20384	0.18011	0.21936	0.21459	0.22564	0.15066	-2.1188	-2.0625	-2.6063	-2.5	-2.4	-2.7438	-2.4104	-2.5125	-2.6021	-2.3563	-2.5812	-2.7771	-2.4292	-2.7833	-2.2458	-2.675	-3.083	179.693	-125.662	-135.580	-74.782	-46.767	135.363	-84.562	182.793	200.201	-138.194	150.385	199.122	-121.127	199.816	77.371	0.0015406	0.00029347	0.00018119	497.05	9.0347e-07	4.0971e-06	658.46	214.3	4.3794e-06	6.1315e-06	329.7	151.92	101.38	57.523	1.2983e-05	90.301	0.0011068	0.0010204	0.0003202	665.36	1.1823e-05	1.1035e-05	802.95	258.59	1.1678e-05	1.0907e-05	401.6	168.97	121.81	60.991	1.2903e-05	94.491	11.846	-144.289	155.475	-142.074	116.324	-28.642	-143.505	-136.608	-39.950	76.474	-138.741	-134.474	-133.173	-129.192	194.267	-131.967	-8191	255	
7708.347	1	1	0	0	0.14798	0.22213	0.099673	0.13108	0.13229	0.030926	0.15572	0.051264	0.12103	0.15458	0.099696	0.065394	0.27021	0.33685	0.077812	0.14332	-2.1562	-2.2333	-2.4417	-2.65	-2.3729	-2.7438	-2.4	-2.4958	-2.6667	-2.2938	-2.6688	-2.6167	-2.4104	-2.7812	-2.3312	-2.5208	-87.949	197.264	184.545	175.927	-149.130	-65.319	76.207	-113.654	-54.685	131.677	52.043	180.031	128.511	-121.397	48.071	200.481	0.0020754	0.00090297	4.4625e-05	495.24	1.3688e-05	1.0333e-05	661.67	213.49	1.8657e-05	2.1492e-05	327.97	151.6	100.71	57.32	2.9236e-06	90.222	0.0010663	0.0010273	0.00033427	661.64	1.1736e-05	1.1745e-05	820.15	258.58	1.2136e-05	1.2146e-05	412.04	169.5	122.85	62.026	1.4098e-05	94.81	0.187	-142.576	38.539	-142.146	2.476	169.800	-143.232	-136.382	-8.534	-146.548	-138.780	-134.641	-133.046	-129.171	-119.204	-131.718	-8191	255	
7708.441	1	1	0	0	0.16032	0.070315	0.20074	0.3522	0.12735	0.1332	0.26339	0.18368	0.12222	0.33397	0.23414	0.31866	0.13374	0.27861	0.092238	0.25759	-2.2167	-2.4875	-2.5792	-2.6042	-2.1833	-2.5479	-2.4125	-2.6021	-2.7021	-2.2396	-2.4833	-2.5729	-2.4708	-2.6979	-2.4104	-2.5729	129.803	-129.101	94.768	-134.900	119.695	-32.199	137.554	69.877	-117.442	110.098	150.087	-102.897	-126.267	128.065	-97.282	88.260	0.0016442	0.0011531	3.5698e-05	493.32	6.5925e-06	9.1907e-06	658.92	213.75	6.1388e-06	1.5526e-05	328.99	152.32	100.65	57.536	2.5331e-06	90.367	0.0011044	0.0011556	0.00035558	662.23	1.1867e-05	1.2809e-05	822.23	257.53	1.1837e-05	1.2998e-05	410.17	169.04	121.81	62.775	1.3511e-05	94.519	1.631	115.279	63.626	-142.293	-48.453	-140.556	-142.818	-136.573	-35.142	-147.339	-138.503	-134.757	-133.462	-129.144	22.066	-131.709	-8191	255	
7708.537	1	1	0	0	0.22216	0.25338	0.17781	0.16147	0.16734	0.39318	0.12558	0.1364	0.1401	0.10007	0.10174	0.048773	0.14281	0.13944	0.154	0.19297	-2.3187	-2.3875	-2.3771	-2.7562	-2.3292	-2.875	-2.675	-2.4229	-2.7875	-2.4146	-2.5812	-2.8354	-2.4854	-2.6896	-2.4875	-2.3521	72.604	160.319	140.876	-104.904	186.999	85.572	125.000	121.625	71.592	-81.120	-30.112	98.103	-103.007	186.451	-19.798	-140.903	0.0017815	0.0012341	0.00027872	496.58	5.8702e-06	1.0099e-05	657.97	213.66	8.9676e-06	2.2976e-06	329.68	152	100.73	57.684	1.1351e-05	90.365	0.0010678	0.0012045	0.00033628	654.88	1.1575e-05	1.3305e-05	812.71	255.46	1.1691e-05	1.3516e-05	405.07	168.2	122.09	63.237	1.3007e-05	94.247	0.116	62.236	-41.107	-142.170	195.606	178.082	-143.299	-136.691	-70.732	19.238	-138.424	-134.453	-133.330	-129.244	-21.676	-131.786	-8191	255	
7708.635	1	1	0	0	0.13722	0.13294	0.15971	0.054194	0.034902	0.1335	0.17301	0.25742	0.23683	0.20654	0.11701	0.3709	0.14445	0.19852	0.20525	0.22082	-2.1937	-2.1917	-2.4938	-2.5917	-2.4417	-2.6417	-2.5458	-2.2375	-2.5833	-2.7146	-2.5125	-2.7687	-2.2167	-2.6854	-2.4292	-2.3146	64.043	-131.898	-132.357	-44.631	-66.907	-81.389	134.577	163.422	-81.546	-96.771	163.345	127.336	100.715	-123.390	83.781	168.202	0.0022535	0.00037372	3.2952e-05	497.3	1.2518e-05	7.4339e-06	663.03	214.01	5.6618e-06	9.3467e-06	331.29	152.45	100.76	57.762	1.2318e-06	90.523	0.0010871	0.0012497	0.00032306	649.95	1.1973e-05	1.3633e-05	806.55	254.11	1.2148e-05	1.3646e-05	400.36	166.96	124.21	63.256	1.2493e-05	93.867	-9.729	-33.745	40.337	-142.070	198.813	26.122	-143.126	-136.712	186.379	-49.306	-138.374	-134.589	-133.637	-129.000	-51.890	-131.778	-8191	255	
7708.754	1	1	0	0	0.024295	0.1453	0.048337	0.061833	0.34493	0.11774	0.15579	0.38826	0.26211	0.072896	0.083812	0.11806	0.14899	0.092285	0.076085	0.13485	-2.2	-2.4958	-2.2729	-2.7146	-2.2375	-2.4896	-2.6729	-2.35	-2.7042	-2.4396	-2.5125	-2.6708	-2.1979	-2.7	-2.65	-2.4437	-101.301	-47.037	38.565	149.628	83.306	38.019	39.156	135.008	-99.797	-96.176	-150.147	182.264	160.964	181.480	83.073	166.783	0.0023226	0.00099798	0.00033205	497.46	1.6761e-05	1.7742e-05	664.08	214.36	2.2786e-05	3.0111e-06	331.28	152.38	100.68	57.729	4.511e-06	90.711	0.001152	0.0012389	0.0003121	644.5	1.2689e-05	1.3284e-05	799.78	252.01	1.2716e-05	1.3068e-05	394.73	165.72	125.19	62.597	1.177e-05	93.54	-13.014	-90.694	-67.942	-141.909	187.622	-39.909	-142.989	-136.451	192.424	-48.865	-138.701	-134.720	-133.370	-129.078	-11.883	-131.789	-8191	255	
7708.850	1	1	0	0	0.12138	0.15903	0.19212	0.1992	0.095538	0.061765	0.22034	0.14843	0.16104	0.090408	0.19108	0.1683	0.19757	0.28749	0.16195	0.21387	-2.3771	-2.45	-2.2188	-2.7396	-2.3438	-2.4729	-2.6479	-2.3729	-2.8563	-2.7229	-2.5396	-2.7604	-2.575	-2.5479	-2.7271	-2.4604	24.526	-69.683	-131.462	-47.740	-152.072	-60.427	131.914	-140.194	98.845	-8.235	164.766	190.506	-135.089	-150.523	62.557	157.796	0.0022922	0.0014265	0.00020956	499.69	1.1887e-05	1.9378e-05	660.24	214.54	1.0403e-05	6.4193e-06	331.85	153.09	100.94	58.402	1.0871e-05	91.949	0.0011697	0.0011546	0.00029171	638.81	1.2785e-05	1.224e-05	787.24	250.57	1.2548e-05	1.1824e-05	388.28	165.41	124.15	61.844	1.049e-05	93.709	-6.114	-80.261	-64.763	-142.074	132.644	-6.853	-143.236	-136.788	-98.559	18.061	-138.821	-134.808	-133.127	-129.272	-32.132	-131.974	-8191	255	
7708.946	1	1	0	0	0.21984	0.12966	0.16909	0.33913	0.24633	0.10765	0.074242	0.19999	0.098769	0.13764	0.32541	0.26394	0.23194	0.20657	0.057821	0.34961	-2.0875	-2.4479	-2.3937	-2.4979	-2.5833	-2.3729	-2.5646	-2.35	-2.4667	-2.6333	-2.3937	-2.7042	-2.3958	-2.5042	-2.7271	-2.6271	172.561	155.252	-3.541	128.269	101.240	-89.398	95.808	169.624	18.556	-115.215	-138.473	-141.668	-3.632	-97.485	-105.612	72.950	0.0020465	0.0010462	0.00017207	496.1	7.1529e-06	1.1064e-05	667.96	216.56	3.1302e-06	7.6384e-06	334.83	155.08	102.61	58.746	8.8946e-06	92.495	0.0010903	0.0010065	0.00025589	630.34	1.1784e-05	1.0643e-05	771.74	249.88	1.1312e-05	1.0203e-05	379.36	165.5	120.97	60.996	9.1515e-06	93.909	-6.892	-113.464	-53.928	-142.115	-109.975	11.922	-143.321	-136.825	46.983	-24.503	-138.704	-134.439	-133.113	-129.119	-82.984	-131.794	-8191	255	
7709.043	1	1	0	0	0.21718	0.12905	0.15005	0.039613	0.15903	0.1675	0.38596	0.17921	0.27325	0.17084	0.076121	0.30597	0.22247	0.075929	0.085133	0.14027	-2.3146	-2.5875	-2.1958	-2.7271	-2.5604	-2.4083	-2.7479	-2.4437	-2.5042	-2.6625	-2.3854	-2.6792	-2.4562	-2.375	-2.7562	-2.6479	-105.862	30.835	-111.625	87.440	-132.482	162.563	147.903	73.726	80.232	102.292	-105.506	179.878	123.354	-17.391	-103.087	89.114	0.0018265	0.00095904	0.00024055	503.59	4.8241e-06	9.6399e-06	670.95	218.59	1.1379e-05	1.3798e-05	337.17	155.93	102.28	58.83	9.452e-06	92.499	0.00096845	0.00087861	0.00022533	626.5	1.0434e-05	9.4282e-06	761.4	251	1.0291e-05	9.5022e-06	377.39	167.16	119.92	60.959	9.2779e-06	94.777	-2.407	-71.022	-6.887	-142.384	9.723	-50.495	-143.451	-136.938	-23.926	-41.610	-138.749	-134.741	-132.699	-129.088	194.370	-131.979	-8191	255	
7709.139	1	1	0	0	0.18683	0.063571	0.11902	0.1636	0.0367	0.09174	0.33504	0.39948	0.17149	0.043903	0.33304	0.16188	0.01886	0.171	0.13423	0.39537	-1.9521	-2.625	-2.225	-2.6958	-2.5625	-2.4021	-2.6312	-2.2687	-2.2729	-2.6854	-2.2979	-2.8854	-2.6167	-2.3063	-2.6813	-2.6771	29.532	132.838	-132.508	-93.616	123.274	7.303	116.610	141.818	121.531	118.085	174.554	197.296	-35.529	124.163	110.996	157.028	0.0017036	0.00043496	0.00026258	503.55	5.8787e-06	1.4e-05	671.92	218.71	1.0564e-05	1.4608e-05	337.97	155.71	102.2	58.54	1.2881e-05	92.755	0.00095873	0.00088366	0.000237	641.11	1.0372e-05	9.4538e-06	768.24	254.52	1.0088e-05	9.431e-06	381.3	168.21	118.8	60.656	9.7004e-06	95.131	-1.684	49.387	183.530	-142.212	-39.055	-44.331	-143.653	-136.863	-6.041	6.297	-138.758	-134.464	-132.892	-128.975	189.190	-131.631	-8191	255	
7709.235	1	1	0	0	0.36724	0.15748	0.19834	0.1105	0.12084	0.28424	0.071353	0.18315	0.17249	0.14622	0.25795	0.23642	0.036089	0.13542	0.12458	0.22542	-2.1875	-2.6521	-2.2875	-2.5333	-2.4479	-2.1792	-2.8417	-2.3604	-2.4792	-2.7625	-2.4604	-2.5021	-2.6958	-2.6229	-2.6646	-2.8	166.604	64.981	-133.613	-3.349	102.328	-62.223	118.745	-149.070	-83.567	178.202	182.872	157.118	184.018	-111.204	175.970	108.909	0.0019083	0.00113	0.00021633	501.35	6.3641e-06	2.7768e-06	671.77	219.16	1.158e-05	3.9861e-06	338.57	156.12	102.7	58.508	1.2135e-05	93.059	0.00092775	0.0008634	0.00025036	642.17	1.0118e-05	9.2508e-06	777.43	254.73	9.7604e-06	9.1128e-06	386.96	167.55	117.77	60.421	1.0036e-05	94.761	-1.532	-58.840	165.066	-142.319	-15.295	-108.377	-143.200	-136.755	-42.889	-111.280	-138.793	-134.699	-132.936	-129.090	167.487	-131.815	-8191	255	
7709.356	1	1	0	0	0.033089	0.10246	0.1472	0.31667	0.064468	0.21532	0.13209	0.31237	0.13683	0.25884	0.078884	0.29238	0.19057	0.16286	0.069136	0.17414	-1.8729	-2.8458	-2.3833	-2.6104	-2.6667	-2.2313	-2.8625	-2.55	-2.2875	-2.5396	-2.325	-2.5583	-2.7542	-2.5104	-2.6375	-2.5604	107.034	-0.816	74.653	201.197	59.397	-108.631	62.443	184.507	64.104	-38.781	-119.703	159.765	125.828	-24.230	149.185	124.206	0.0019234	0.00052233	9.9373e-05	502.98	4.9527e-06	6.1926e-06	676.73	220.02	6.3539e-06	5.1515e-06	340.01	156.45	102.88	58.918	8.8673e-06	93.729	0.00088081	0.00082605	0.00026088	634.32	9.7093e-06	9.0214e-06	784.9	252.85	9.4053e-06	8.9291e-06	390.93	166.45	116.3	60.508	9.985e-06	94.286	10.609	-28.894	162.645	-141.992	34.131	-50.101	-143.135	-136.811	10.519	-13.197	-138.647	-134.579	-133.459	-129.220	205.196	-131.703	-8191	255	
7709.450	1	1	0	0	0.078124	0.24079	0.049728	0.16056	0.092662	0.2441	0.17299	0.11258	0.26023	0.099013	0.19934	0.099111	0.24555	0.20281	0.2587	0.12792	-1.7417	-2.7396	-2.1813	-2.4021	-2.6	-2.1271	-2.4896	-2.5854	-2.1604	-2.575	-2.6229	-2.5208	-2.7521	-2.5354	-2.4479	-2.5563	54.652	73.996	-18.188	137.993	-35.123	-18.073	49.161	166.318	11.943	106.381	138.543	150.331	135.604	-135.724	-78.580	161.797	0.0016905	0.0010529	0.00020547	505.95	9.7855e-06	7.3199e-06	679.93	220.86	6.1225e-06	4.9236e-06	342.26	157.39	103.44	59.108	2.5513e-06	93.44	0.00081529	0.00079355	0.00025674	621.55	8.9003e-06	8.8443e-06	785.53	249.96	8.7168e-06	8.8799e-06	391.07	165.38	115.09	60.897	9.9136e-06	93.778	4.477	111.734	37.163	-141.992	-15.464	-141.182	-143.471	-136.722	-16.557	182.990	-138.593	-134.691	-132.991	-129.145	18.286	-131.714	-8191	255	
7709.546	1	1	0	0	0.22785	0.23911	0.18165	0.11812	0.25817	0.16633	0.11763	0.042389	0.073555	0.2466	0.19856	0.27168	0.064581	0.2369	0.18585	0.27141	-1.8771	-2.5125	-2.2375	-2.5667	-2.5438	-2.2208	-2.625	-2.5646	-2.0375	-2.7667	-2.5146	-2.5625	-2.5479	-2.4437	-2.55	-2.8167	157.418	-64.852	200.614	201.840	81.479	-111.625	193.100	38.213	-68.261	151.589	51.341	173.179	76.530	-83.842	91.238	143.027	0.0019703	0.00048981	7.9301e-05	506.96	7.1567e-06	1.1612e-05	681.85	220.97	1.2204e-05	3.9371e-06	341.38	156.95	103.39	58.901	8.5793e-06	93.255	0.0007788	0.0008309	0.00025243	614.34	8.5548e-06	9.3391e-06	782.51	248.77	8.5601e-06	9.6841e-06	390.76	165.27	115.17	61.479	9.9875e-06	93.71	4.350	106.102	-22.927	-142.072	-5.862	177.628	-143.190	-136.977	-64.678	178.524	-138.810	-134.702	-133.258	-129.281	1.655	-131.885	-8191	255	
7709.642	1	1	0	0	0.31533	0.20897	0.081978	0.12539	0.22788	0.037979	0.073862	0.09194	0.099666	0.16491	0.026772	0.14723	0.21331	0.38154	0.28036	0.26656	-2.075	-2.5354	-2.375	-2.4604	-2.4875	-2.3396	-2.4521	-2.65	-2.3	-2.625	-2.4583	-2.5375	-2.6521	-2.5354	-2.4688	-2.7667	53.092	-82.529	133.200	59.403	177.974	140.700	-2.536	138.001	-67.612	-26.395	-22.185	166.008	178.121	126.720	-96.798	111.914	0.0017908	0.00047804	0.00026276	504.86	4.2524e-06	1.0644e-05	678.29	220.34	5.3265e-06	1.9869e-06	342.13	157.1	103.01	59.166	1.1586e-05	92.956	0.00079128	0.00090285	0.00025187	614.48	8.7024e-06	1.0032e-05	779.55	248.18	8.8094e-06	1.024e-05	389.14	165.1	116.62	62.187	1.0066e-05	93.666	-1.239	160.656	-29.628	-142.076	107.058	171.040	-143.090	-136.709	-142.984	-70.715	-138.603	-134.678	-133.411	-129.438	-3.316	-131.911	-8191	255	
7709.738	1	1	0	0	0.24631	0.026816	0.19678	0.15104	0.070808	0.14134	0.26047	0.31775	0.14619	0.1918	0.15094	0.073494	0.1559	0.14766	0.12195	0.19811	-1.8104	-2.4896	-2.3104	-2.3875	-2.5458	-2.5187	-2.4146	-2.7062	-2.4958	-2.5792	-2.6312	-2.2958	-2.7583	-2.6646	-2.5042	-2.75	172.516	-127.271	-53.045	-44.312	-38.193	-52.035	24.874	154.865	5.643	102.152	171.970	87.099	133.403	92.431	172.369	94.329	0.0017858	0.00038804	0.00026041	505.08	8.9993e-06	3.5765e-06	674.88	219.88	1.4261e-05	1.0132e-05	344.16	156.77	103.37	59.353	5.377e-06	93.886	0.00085832	0.00097279	0.00025042	614.19	9.315e-06	1.046e-05	772.39	246.53	9.1831e-06	1.0106e-05	383.93	163.72	116.94	61.828	9.1088e-06	93.17	-10.571	84.544	-40.155	-141.994	181.951	-33.671	-143.206	-136.507	-128.012	2.279	-138.553	-134.625	-133.297	-129.025	25.089	-131.825	-8191	255	
7709.835	1	1	0	0	0.11009	0.15263	0.23373	0.12692	0.27114	0.20756	0.40821	0.16099	0.29763	0.32363	0.10661	0.31551	0.045312	0.10771	0.27232	0.19123	-1.9188	-2.5812	-2.5104	-2.3458	-2.6021	-2.3396	-2.2375	-2.7917	-2.1479	-2.575	-2.6146	-2.3688	-2.7792	-2.5979	-2.6042	-2.6937	178.593	21.782	72.815	124.355	-72.421	-71.557	122.744	-149.692	189.351	156.836	-31.503	162.087	-140.363	81.472	-87.776	190.912	0.0022878	0.0013459	7.3755e-05	504.78	9.7871e-06	8.7815e-06	679.97	222.08	1.2025e-05	1.6213e-05	344.22	158.3	103.74	59.647	3.9455e-06	93.804	0.0008581	0.00090548	0.00022945	602.68	9.319e-06	9.6097e-06	763.69	244.72	9.1798e-06	9.2087e-06	379.16	163.32	117.5	61.275	8.4348e-06	92.917	-13.947	-78.689	21.573	-142.097	155.041	-74.692	-143.281	-136.765	167.805	29.374	-138.733	-134.610	-133.487	-129.112	3.412	-131.667	-8191	255	
7709.931	1	1	0	0	0.21467	0.14416	0.1664	0.12482	0.11248	0.028331	0.2138	0.055655	0.097624	0.1875	0.1977	0.041468	0.15381	0.19587	0.12333	0.30057	-1.8625	-2.2083	-2.4125	-2.3	-2.6375	-2.5312	-2.4688	-2.7521	-2.5229	-2.3979	-2.5771	-2.45	-2.6167	-2.5021	-2.2958	-2.675	-42.965	-60.693	-74.210	-115.891	125.575	-0.433	137.940	-118.001	117.899	-63.638	156.621	64.856	112.606	-132.216	24.134	115.829	0.0020148	0.00044523	0.00016165	507.65	3.6175e-06	2.0865e-06	677.93	221.42	4.8087e-06	8.1597e-06	345.24	158.19	103.98	59.44	1.5279e-06	94.229	0.00086253	0.00083145	0.0002157	601.96	9.541e-06	9.1517e-06	760.73	246.1	9.6549e-06	9.0269e-06	378.28	164.02	118.31	61.024	8.2719e-06	93.245	4.206	-114.393	12.193	-142.361	-138.948	-32.409	-143.018	-136.627	-56.467	22.438	-138.807	-134.870	-133.280	-128.930	-27.697	-131.925	-8191	255	
7710.051	1	1	0	0	0.17349	0.090303	0.08516	0.24362	0.16198	0.057997	0.21715	0.013211	0.2838	0.012133	0.34061	0.086956	0.22251	0.11623	0.2021	0.1705	-1.85	-2.4979	-2.6542	-2.3146	-2.4938	-2.4875	-2.2687	-2.8063	-2.5771	-2.3104	-2.9667	-2.3417	-2.6063	-2.5854	-2.3542	-2.7438	-150.140	134.156	-50.235	44.656	195.740	171.765	121.872	-47.012	183.387	-72.228	149.361	184.301	-127.472	141.153	-96.061	133.126	0.0013516	0.00055737	0.00016787	507.58	4.1861e-06	1.5074e-05	681.28	221.71	2.3364e-06	1.0125e-05	344	157.85	104.79	59.36	2.8409e-06	94.036	0.0008889	0.00080806	0.0002109	610.41	9.7091e-06	8.9686e-06	759.16	248.81	9.913e-06	8.9609e-06	378.5	165.94	119.12	61.026	8.2202e-06	94.138	-1.994	-63.754	-105.305	-142.337	45.375	-31.418	-143.294	-136.907	84.553	-48.182	-139.096	-134.915	-133.134	-128.982	-113.189	-131.872	-8191	255	
7710.147	1	1	0	0	0.18569	0.17822	0.19042	0.098774	0.23081	0.18126	0.072363	0.19193	0.093722	0.12493	0.30028	0.083104	0.10464	0.24643	0.25695	0.28131	-2.1354	-2.2354	-2.4521	-2.3187	-2.6021	-2.6521	-2.2625	-2.7646	-2.4854	-2.325	-2.7979	-2.6604	-2.4938	-2.4417	-2.1562	-2.6646	173.556	25.200	10.437	153.647	-76.690	144.835	-39.216	168.159	-22.992	-29.485	162.645	157.752	-72.302	96.717	-146.303	176.562	0.0018205	0.00082831	0.00012489	502.79	7.5784e-06	7.2325e-06	685.29	222.97	3.5157e-06	5.9367e-06	344.6	158.48	103.61	59.454	6.2231e-06	93.814	0.0008887	0.00079574	0.00020737	616.98	9.3866e-06	8.6144e-06	756.85	250.89	9.3849e-06	8.5226e-06	376.93	167.4	117.54	60.854	8.2867e-06	94.759	8.686	-80.515	-49.285	-142.330	35.510	-67.922	-143.230	-136.638	-9.840	-7.594	-138.747	-134.830	-132.969	-129.071	202.515	-131.878	-8191	255	
7710.219	1	1	0	0	0.17218	0.12463	0.078085	0.046219	0.04286	0.056283	0.030881	0.28486	0.11014	0.0508	0.21827	0.23973	0.2428	0.082813	0.14041	0.20971	-2.2458	-2.3229	-2.5458	-2.3146	-2.5667	-2.5979	-2.3729	-2.5896	-2.5083	-2.3729	-2.8104	-2.4708	-2.675	-2.6896	-2.2125	-2.6625	-98.570	-47.573	2.979	-10.346	-84.711	-145.742	-134.582	172.703	79.852	190.221	202.554	185.946	185.208	144.726	-101.378	105.563	0.0017659	0.00092535	8.4502e-05	505.4	9.9273e-06	1.1352e-05	680.35	221.82	1.7322e-05	9.3387e-06	345.76	158.56	104.21	59.536	1.6673e-05	93.817	0.00085796	0.00077236	0.0002119	624.94	9.0063e-06	8.366e-06	758.12	252.22	9.1121e-06	8.3301e-06	380.92	168.26	117.09	60.787	8.8974e-06	94.948	-3.789	-81.044	101.303	-142.464	-39.271	-59.072	-143.442	-136.869	-13.629	-3.172	-138.850	-134.510	-133.411	-129.147	-138.167	-131.804	-8191	255	
7710.315	1	1	0	0	0.18444	0.1422	0.10412	0.090611	0.17143	0.096505	0.33581	0.24102	0.22634	0.10913	0.19941	0.13109	0.29198	0.23605	0.099213	0.11895	-2.0396	-2.2604	-2.5646	-2.5604	-2.2938	-2.7604	-2.5625	-2.6833	-2.5604	-2.0917	-2.8229	-2.5354	-2.4521	-2.6188	-2.2979	-2.4562	-128.952	-23.147	4.710	151.293	-25.938	199.225	147.319	85.072	82.859	139.665	127.235	165.178	178.511	195.086	-104.809	137.425	0.0014538	0.00095046	8.8128e-05	507.74	7.5861e-06	9.0131e-06	678.9	220.91	3.3148e-06	6.0977e-06	342.8	157.63	103.87	59.202	8.4403e-06	93.126	0.00085205	0.00077874	0.0002309	632.2	9.0927e-06	8.5024e-06	770.34	252.39	9.0687e-06	8.2806e-06	385.05	167.4	116.41	60.388	9.6317e-06	94.227	11.439	-99.887	127.772	-142.034	-38.171	-51.714	-143.210	-136.421	43.437	-18.524	-139.003	-134.575	-133.175	-129.066	153.343	-131.708	-8191	255	
7710.434	1	1	0	0	0.07543	0.16929	0.17601	0.022074	0.13387	0.17385	0.2262	0.13398	0.091871	0.14884	0.025708	0.075322	0.24034	0.30887	0.072046	0.092252	-2.1396	-2.3917	-2.4625	-2.4271	-2.2125	-2.65	-2.3563	-2.5104	-2.6208	-2.3104	-2.6063	-2.6833	-2.2458	-2.7667	-2.3812	-2.5896	-138.027	54.457	8.918	-154.197	-57.953	-143.840	48.739	154.518	-40.375	2.261	125.296	-148.241	151.798	180.865	-105.210	117.381	0.0016595	0.00057289	8.0163e-05	506.8	1.2129e-05	5.0974e-06	680.32	221.44	8.9714e-06	6.1756e-06	343.59	157.74	103.15	59.025	5.9145e-06	93.232	0.00083641	0.00077103	0.00024596	626.31	8.8214e-06	8.3427e-06	777.91	250.17	8.7825e-06	8.1744e-06	387.07	166.14	114.93	60.244	9.752e-06	93.561	5.160	-105.779	176.324	-142.292	-57.223	1.495	-143.174	-136.630	-5.975	-108.764	-138.736	-134.545	-133.248	-129.258	-136.748	-131.614	-8191	255	
7710.530	1	1	0	0	0.09941	0.16168	0.17898	0.25121	0.27381	0.049627	0.21662	0.27086	0.11399	0.20246	0.34096	0.27799	0.15413	0.14557	0.12451	0.20204	-2.1729	-2.1958	-2.4479	-2.3	-2.3708	-2.6771	-2.5292	-2.4708	-2.6979	-2.4229	-2.5792	-2.5125	-2.425	-2.6958	-2.4208	-2.7229	-40.722	-51.529	-140.173	-28.649	2.509	176.324	127.050	-111.730	18.313	-133.032	-107.921	154.470	-60.258	166.918	167.510	142.090	0.0016876	0.00075285	9.9155e-05	504.74	8.194e-06	1.0063e-05	678.53	222.11	5.8445e-06	7.4995e-06	343.48	156.45	103.52	58.796	5.6148e-06	92.86	0.00079454	0.00077548	0.00025101	618.19	8.5745e-06	8.7111e-06	783.34	249.11	8.6492e-06	8.7244e-06	389.89	165.01	114.7	60.63	1.0042e-05	93.316	6.874	123.126	-113.047	-142.024	-26.188	-151.876	-143.438	-136.858	-11.541	-120.585	-138.574	-134.637	-133.234	-129.335	-106.543	-131.753	-8191	255	
7710.626	1	1	0	0	0.11018	0.29587	0.16693	0.17065	0.13825	0.24689	0.25695	0.10117	0.30958	0.14846	0.19121	0.23052	0.086674	0.38981	0.26317	0.42046	-2.1167	-2.3208	-2.5375	-2.6104	-2.3312	-2.6104	-2.4979	-2.4292	-2.5187	-2.5104	-2.6167	-2.6188	-2.4604	-2.7875	-2.6063	-2.6271	-95.916	46.844	112.901	-151.771	-145.410	-11.436	141.370	17.644	-58.794	-112.037	150.567	193.476	-146.453	187.285	-1.825	168.337	0.0017598	0.0008353	0.00010316	506.15	7.8512e-06	1.1576e-05	677.73	219.94	1.412e-05	1.4944e-05	341.83	156.3	102.66	58.596	5.5695e-06	92.488	0.00079448	0.00084622	0.00025637	619.74	8.6584e-06	9.6932e-06	784.38	249.07	8.8892e-06	9.9106e-06	390.95	165.26	115.29	61.276	1.0137e-05	92.694	1.665	104.407	-53.761	-142.240	-41.267	-92.800	-142.991	-136.614	-55.347	-150.922	-138.834	-134.589	-133.186	-129.161	-4.670	-132.088	-8191	255	
7710.747	1	1	0	0	0.2722	0.054397	0.18647	0.10775	0.092262	0.21592	0.19788	0.21751	0.072666	0.14165	0.11679	0.065251	0.13442	0.31703	0.16261	0.21801	-2.3396	-2.3333	-2.6042	-2.6396	-2.3021	-2.5542	-2.6229	-2.2771	-2.7958	-2.3708	-2.4854	-2.8083	-2.4229	-2.6312	-2.5938	-2.4917	177.985	-55.768	-23.067	103.504	-41.477	-73.283	173.720	-108.770	-24.979	20.775	-132.932	155.904	90.489	202.525	-123.433	183.897	0.0017329	0.0014687	0.0002059	504.11	4.0759e-06	1.3234e-05	677.57	220.9	2.2535e-06	8.9741e-06	341.03	156.01	102.57	58.415	6.8797e-06	91.973	0.0008042	0.0009137	0.00024909	614.02	8.6985e-06	1.0083e-05	780.11	247.29	8.9239e-06	1.0344e-05	387.34	164.48	115.98	61.486	9.8781e-06	92.337	5.727	168.144	-51.304	-141.958	17.474	-107.730	-143.166	-136.704	179.387	-10.814	-138.427	-134.558	-133.326	-129.029	-15.287	-131.968	-8191	255	
7710.843	1	1	0	0	0.2486	0.086672	0.20505	0.093477	0.25458	0.068972	0.28982	0.052348	0.068615	0.089917	0.070826	0.068355	0.14089	0.12512	0.070339	0.15765	-2.3125	-2.3646	-2.3063	-2.6771	-2.2562	-2.6542	-2.7292	-2.2521	-2.7083	-2.6063	-2.6896	-2.7583	-2.4583	-2.6375	-2.6562	-2.4083	43.677	90.821	20.678	-73.319	-154.149	129.194	166.721	-143.361	-77.998	43.303	183.416	189.340	166.539	162.101	-43.808	177.259	0.0019241	0.00020962	0.00045961	504.78	1.0491e-05	1.0097e-06	679.5	219.53	1.8487e-05	8.131e-06	339.8	155.86	103.17	58.622	7.2183e-06	91.659	0.00084433	0.0009557	0.00024305	610.54	9.1639e-06	1.0284e-05	773.09	245.44	9.3313e-06	1.0287e-05	382.34	163.22	117.09	61.275	9.482e-06	91.796	-13.396	97.713	-53.827	-142.007	-150.596	-5.396	-143.111	-136.566	176.687	-23.739	-138.773	-134.785	-133.469	-129.393	-10.776	-131.825	-8191	255	
7710.915	1	1	0	0	0.30696	0.060199	0.099737	0.13866	0.24742	0.13629	0.14923	0.1978	0.23682	0.091854	0.21435	0.22325	0.15079	0.14584	0.060311	0.33336	-2.3375	-2.3958	-2.2333	-2.65	-2.1771	-2.4813	-2.6729	-2.3604	-2.6583	-2.4771	-2.4583	-2.6729	-2.4354	-2.5938	-2.6854	-2.6188	-78.791	-107.996	40.576	195.846	190.950	16.533	189.293	171.189	-7.687	155.310	116.942	-152.819	-13.704	2.204	-100.422	179.353	0.0022559	0.00054387	0.00020858	501.56	6.053e-06	1.0362e-05	674.87	217.96	1.9337e-05	1.0533e-05	342.2	156.3	102.33	58.458	1.3557e-05	92.104	0.0008951	0.00094627	0.00023731	606.1	9.8584e-06	1.0087e-05	769.88	244.86	9.886e-06	9.9915e-06	380.43	162.98	118.81	60.894	9.1292e-06	91.813	-15.041	151.064	-76.322	-141.962	176.933	-2.866	-143.349	-136.670	190.325	-5.181	-138.786	-134.652	-133.559	-128.910	-56.914	-131.853	-8191	255	
7711.036	1	1	0	0	0.072402	0.26965	0.14357	0.12705	0.14618	0.1172	0.10498	0.33349	0.028453	0.12536	0.013648	0.042143	0.06418	0.17806	0.07344	0.20827	-2.2083	-2.4396	-2.4354	-2.6167	-2.3958	-2.4125	-2.7188	-2.3312	-2.6396	-2.7313	-2.4667	-2.6688	-2.5208	-2.6375	-2.4875	-2.3354	133.192	194.902	-131.088	50.486	88.078	-75.455	132.325	145.601	27.594	-59.600	88.951	-119.148	111.007	-34.167	-81.175	55.102	0.0021747	0.0014634	0.00028181	501.65	5.0394e-06	1.2231e-05	675.13	218.94	1.6519e-05	1.1274e-05	340.11	156.37	102.91	58.405	5.5872e-06	92.261	0.00092536	0.00088752	0.00022582	606.22	1.0124e-05	9.5359e-06	763.77	245.36	1.0137e-05	9.5069e-06	377.17	163.67	119.58	60.482	8.8126e-06	92.455	-6.210	-95.984	-23.172	-141.960	191.093	9.726	-143.249	-136.844	-142.888	53.250	-138.698	-134.864	-133.418	-129.011	8.035	-131.897	-8191	255	
7711.132	1	1	0	0	0.16301	0.12151	0.26599	0.1556	0.14194	0.26367	0.12568	0.060535	0.10569	0.089604	0.26678	0.08542	0.081549	0.13114	0.21848	0.28274	-2.0854	-2.4542	-2.1479	-2.7354	-2.2979	-2.4729	-2.6562	-2.4813	-2.5896	-2.4437	-2.3125	-2.5396	-2.4229	-2.4875	-2.6167	-2.4188	162.753	97.458	-8.034	92.191	84.628	4.681	-117.093	155.680	5.556	159.991	101.095	198.870	134.629	189.067	25.965	136.571	0.0019794	0.0011437	0.00020339	501.43	5.6149e-06	8.3982e-06	673.27	219.92	1.4974e-05	1.6226e-06	340.51	156.04	103.39	58.516	5.6852e-06	91.76	0.0009393	0.00085742	0.00021986	614.27	1.0286e-05	9.2348e-06	759.24	248.35	1.0115e-05	9.2758e-06	375.44	164.86	119.07	60.192	8.5628e-06	92.724	-2.197	-111.742	-49.986	-142.329	-87.568	-122.880	-143.247	-136.805	-18.928	-121.618	-138.630	-135.012	-133.595	-129.264	-40.133	-132.006	-8191	255	
7711.228	1	1	0	0	0.12958	0.14571	0.1375	0.069384	0.10847	0.1769	0.11683	0.10851	0.13423	0.12763	0.1927	0.10386	0.085706	0.28219	0.26978	0.17007	-2.1042	-2.5708	-2.2542	-2.6208	-2.5042	-2.2646	-2.825	-2.3667	-2.3312	-2.6396	-2.4125	-2.6875	-2.4958	-2.4813	-2.6208	-2.5792	75.815	203.281	-111.015	-118.849	166.308	141.613	202.380	168.278	168.587	-87.797	130.606	156.462	106.313	193.231	39.170	161.395	0.0015076	0.00081535	0.00012535	502.21	7.097e-06	8.6265e-06	673.89	219.47	1.2214e-05	3.9496e-06	341.16	155.22	103.27	58.32	8.6869e-06	91.712	0.00091381	0.00083375	0.00021501	623.18	9.9808e-06	8.9758e-06	756.85	250.41	9.6637e-06	8.9224e-06	374	165.47	117.69	59.925	8.6044e-06	93.188	11.849	-73.065	-80.743	-142.468	-98.158	-17.857	-143.459	-136.842	-6.242	86.473	-138.833	-134.828	-133.134	-129.228	-64.448	-131.867	-8191	255	
7711.348	1	1	0	0	0.15267	0.10935	0.090867	0.21686	0.012145	0.19801	0.14686	0.13301	0.07932	0.056735	0.16533	0.29793	0.15918	0.1153	0.11509	0.49772	-1.9479	-2.6813	-2.2438	-2.6625	-2.5917	-2.3187	-2.7292	-2.3688	-2.4521	-2.5354	-2.5125	-2.5062	-2.6312	-2.6	-2.6833	-2.5458	-29.134	18.022	46.782	102.958	200.175	113.431	126.740	72.454	-133.108	82.161	135.597	128.844	-65.386	84.048	-65.138	131.748	0.0019979	0.0011232	3.7326e-05	502.5	4.2785e-06	1.2271e-05	673.83	218.51	1.2759e-05	9.8449e-06	339.02	155.49	102.82	58.103	1.5874e-05	91.264	0.0008816	0.00081963	0.00022345	630.97	9.8005e-06	8.9639e-06	765.66	253.3	9.7329e-06	9.0674e-06	380.69	167.03	117.8	59.858	9.4491e-06	93.521	2.883	-89.530	184.101	-141.987	48.834	-45.563	-143.270	-136.972	-24.854	55.532	-138.928	-134.912	-133.173	-129.055	157.435	-132.002	-8191	255	
7711.443	1	1	0	0	0.13537	0.11919	0.19069	0.28006	0.10391	0.063935	0.21418	0.076116	0.18404	0.20074	0.13448	0.17703	0.1335	0.14241	0.072334	0.13302	-1.7833	-2.5917	-2.2708	-2.4396	-2.4792	-2.2875	-2.7062	-2.1958	-2.4146	-2.8292	-2.3167	-2.5396	-2.7458	-2.4604	-2.4896	-2.6479	-27.543	120.006	-77.961	99.833	-111.861	-107.443	168.931	201.603	-135.775	95.214	80.450	204.173	198.736	151.892	43.475	169.781	0.0016026	0.0010424	0.00018164	504.56	4.2712e-06	1.0693e-05	671.39	219.43	6.364e-06	7.7937e-06	336.97	155.9	102.46	58.19	7.0225e-06	91.804	0.00088114	0.00081974	0.00024382	634.33	9.6803e-06	8.8325e-06	773.64	252.93	9.4826e-06	8.8311e-06	384.66	165.96	116.34	59.504	9.6032e-06	93.128	6.214	-35.216	-64.280	-142.015	-92.966	6.945	-143.284	-136.645	-61.370	-28.284	-139.029	-134.625	-133.200	-129.202	153.704	-131.900	-8191	255	
7711.515	1	1	0	0	0.30603	0.14889	0.091527	0.097875	0.056463	0.13758	0.24974	0.16543	0.20007	0.15767	0.17089	0.17019	0.23963	0.046378	0.31889	0.18348	-1.9104	-2.6646	-2.5458	-2.5229	-2.45	-2.3187	-2.8	-2.5333	-2.3354	-2.8083	-2.3167	-2.5833	-2.5354	-2.3729	-2.6458	-2.6667	4.106	82.659	-92.956	150.740	-44.846	167.724	30.109	119.662	-91.257	15.549	-116.663	111.704	159.426	41.130	77.249	174.322	0.0017454	0.00041927	0.00010504	500.94	8.8471e-06	3.6902e-06	676.41	220.32	9.7282e-06	3.6386e-07	339.75	156.71	103.13	58.61	6.0912e-06	92.04	0.00081246	0.00075634	0.00024166	616.99	8.7246e-06	8.1321e-06	773.07	248.76	8.5261e-06	8.2946e-06	385.67	164.54	114.57	59.671	9.5736e-06	92.377	4.829	176.238	187.667	-142.352	-4.140	-102.310	-143.333	-136.519	-28.075	117.244	-138.921	-134.709	-133.604	-129.074	-128.237	-131.965	-8191	255	
7711.611	1	1	0	0	0.37739	0.23885	0.073495	0.15394	0.15977	0.3074	0.14919	0.16112	0.1859	0.41744	0.16608	0.37002	0.097777	0.2782	0.096325	0.17678	-1.8146	-2.6417	-2.3146	-2.5292	-2.65	-2.2354	-2.6042	-2.5146	-2.1063	-2.5167	-2.4604	-2.4729	-2.6417	-2.4562	-2.6562	-2.5229	22.091	71.316	115.100	4.764	-43.819	-37.836	26.343	9.881	154.931	186.202	115.332	189.933	-8.587	197.267	13.600	65.271	0.0016053	0.00061059	0.00018008	507.64	5.0061e-06	3.1202e-06	679.99	220.59	1.1327e-05	1.6771e-05	340.53	156.34	102.96	58.462	5.0464e-06	92.322	0.00076744	0.00076181	0.00024373	610.12	8.2936e-06	8.3744e-06	774.62	246.74	8.1879e-06	8.5602e-06	386.55	163.2	113.74	60.043	9.7004e-06	92.246	-2.832	115.364	204.299	-142.222	-51.100	130.430	-143.276	-136.650	-74.521	-142.600	-138.951	-134.670	-133.509	-129.309	-118.999	-131.835	-8191	255	
7711.731	1	1	0	0	0.13117	0.24553	0.044982	0.26883	0.17777	0.24511	0.32066	0.11685	0.07677	0.1171	0.10311	0.19502	0.11822	0.17314	0.058243	0.23369	-1.6708	-2.6521	-2.4792	-2.5354	-2.6417	-2.35	-2.5438	-2.6229	-2.3958	-2.7292	-2.5062	-2.3438	-2.8854	-2.5792	-2.625	-2.7333	-69.159	-17.526	172.062	140.183	200.550	178.992	128.778	164.166	-65.093	-70.246	-29.417	133.806	-103.912	144.822	-70.960	87.806	0.0018	0.0011431	0.00014417	506.35	4.7299e-06	4.2659e-06	676.75	219.46	8.0501e-06	2.9995e-06	342.03	156.55	102.6	58.54	3.4229e-06	92.188	0.00076395	0.00082718	0.00024792	609.94	8.3375e-06	9.146e-06	775.33	246.57	8.1135e-06	9.2139e-06	385.03	162.99	113.4	60.552	9.2755e-06	91.905	6.733	125.297	-39.175	-142.123	-54.534	201.140	-142.967	-136.699	-62.049	201.989	-138.683	-134.599	-133.267	-129.372	36.518	-131.736	-8191	255	
7711.827	1	1	0	0	0.1022	0.20664	0.27968	0.16956	0.11135	0.045628	0.15418	0.17648	0.054912	0.078057	0.098463	0.28158	0.29233	0.26602	0.14048	0.12872	-1.9354	-2.5979	-2.4229	-2.2875	-2.6562	-2.3479	-2.5333	-2.4125	-2.2896	-2.6396	-2.5563	-2.4437	-2.7646	-2.5938	-2.4792	-2.7958	-118.878	200.809	-47.127	198.560	-131.790	96.737	-9.546	-103.192	39.158	63.991	10.612	149.331	120.072	-111.797	140.539	95.553	0.002033	0.00047773	0.0001223	505.46	5.3832e-06	9.9047e-06	680.48	221.73	6.6036e-06	9.679e-06	342.98	156.48	102.63	58.709	3.3841e-06	92.316	0.0007508	0.00085998	0.00023603	605.71	8.2685e-06	9.5327e-06	771.21	245.78	8.2803e-06	9.5323e-06	382.68	162.48	113.9	60.821	8.8352e-06	91.766	-5.789	131.117	-46.556	-142.344	-122.145	-116.974	-142.961	-136.669	191.768	196.367	-138.940	-134.650	-133.627	-129.314	25.303	-131.781	-8191	255	
7711.924	1	1	0	0	0.292	0.16089	0.18603	0.059128	0.19529	0.19967	0.11606	0.22722	0.22251	0.20196	0.01086	0.18597	0.30995	0.28494	0.12852	0.12728	-1.95	-2.4625	-2.3396	-2.3271	-2.725	-2.3187	-2.6021	-2.6667	-2.3125	-2.5354	-2.5375	-2.4208	-2.6479	-2.3958	-2.5146	-2.8271	131.950	39.971	37.699	40.615	-70.239	121.091	40.408	-27.625	22.263	-92.374	-125.779	-118.316	-147.571	67.385	66.692	108.388	0.0025578	0.00059111	0.00014848	506.94	1.17e-05	9.9963e-06	680.51	221.23	8.7119e-06	8.7993e-06	342.97	156.15	103.22	58.633	5.389e-06	91.823	0.00077003	0.00086603	0.0002225	600.16	8.53e-06	9.5297e-06	764.93	244.88	8.7439e-06	9.5656e-06	380.54	162.26	116	60.937	8.7018e-06	91.365	-10.350	-88.183	-28.808	-142.211	179.552	-120.272	-143.008	-136.754	-115.071	-66.113	-138.719	-134.462	-133.571	-129.052	-15.939	-131.971	-8191	255	
7712.020	1	1	0	0	0.30738	0.21468	0.21921	0.10336	0.02281	0.088018	0.11699	0.24359	0.043438	0.18091	0.046743	0.026323	0.16101	0.21716	0.24517	0.36526	-1.9562	-2.3	-2.475	-2.4188	-2.5896	-2.5521	-2.4354	-2.65	-2.4188	-2.4854	-2.5125	-2.3563	-2.7125	-2.5312	-2.2667	-2.7917	130.545	103.877	42.688	22.945	50.686	-0.464	80.806	143.116	-96.921	-56.717	-131.901	120.553	87.198	138.771	-54.138	107.197	0.0022814	0.00093493	0.00017714	504.52	1.4867e-05	6.3376e-06	679.92	220.25	8.5428e-07	5.8542e-06	343.53	156.88	102.07	58.745	7.8701e-06	91.908	0.00084243	0.00087112	0.00022388	600.74	9.3708e-06	9.5993e-06	764.18	244.81	9.58e-06	9.5665e-06	380.25	162.47	117.95	60.696	8.6972e-06	91.544	-9.533	-82.198	-69.424	-142.019	185.924	15.823	-143.430	-136.284	130.936	38.761	-138.975	-134.942	-133.492	-129.119	-73.284	-131.992	-8191	255	
7712.116	1	1	0	0	0.24875	0.38257	0.18793	0.22159	0.35134	0.14433	0.13995	0.24509	0.12296	0.20173	0.17851	0.19887	0.021293	0.23462	0.1288	0.31127	-1.825	-2.6271	-2.5083	-2.4104	-2.5896	-2.5062	-2.4854	-2.8333	-2.3896	-2.3208	-2.7521	-2.2625	-2.5479	-2.6708	-2.1458	-2.6896	93.326	-135.020	-115.066	52.861	51.963	7.727	183.501	-101.683	28.514	175.795	197.399	158.962	20.546	205.134	-62.150	105.386	0.0017975	0.00071951	0.00033824	505.28	5.2583e-06	1.5565e-05	676.83	220.71	5.8808e-06	8.5195e-06	341.56	156.56	102.46	58.376	1.3427e-05	91.97	0.00089211	0.00084681	0.00021871	603.84	9.7207e-06	9.2134e-06	759.13	245.08	9.7536e-06	9.0168e-06	376.88	163.2	118.27	60.443	8.562e-06	92.329	-2.459	-17.277	-73.466	-142.068	154.345	-41.922	-143.285	-136.785	172.727	-45.160	-138.726	-134.587	-133.275	-129.036	-14.701	-132.083	-8191	255	
7712.212	1	1	0	0	0.15646	0.043325	0.18503	0.38126	0.16067	0.1403	0.17128	0.091304	0.27958	0.0097988	0.12672	0.036597	0.22642	0.19865	0.17678	0.2541	-2.1146	-2.3167	-2.5583	-2.4083	-2.5021	-2.6437	-2.5271	-2.6771	-2.5229	-2.3979	-2.7062	-2.4458	-2.5833	-2.8604	-2.4271	-2.8104	-145.285	-61.208	156.233	-137.139	188.552	42.674	-22.167	66.499	76.486	157.121	-136.708	-12.519	-112.315	114.136	63.255	148.288	0.0017266	0.0010404	0.00013507	504.28	1.0414e-05	4.2335e-06	677.77	221.1	5.345e-06	3.6599e-06	342.29	156.6	103.05	58.588	3.4408e-06	92.118	0.00094068	0.00085152	0.00022234	618.55	1.0235e-05	9.319e-06	762.01	249.54	1.0148e-05	9.1163e-06	376.86	165.3	118.8	60.357	8.3975e-06	92.97	-8.935	168.815	-52.139	-142.226	-62.839	-86.556	-143.106	-136.982	73.194	-12.229	-138.825	-134.871	-133.350	-129.179	-143.201	-131.814	-8191	255	
7712.308	1	1	0	0	0.23883	0.098283	0.16706	0.32097	0.17131	0.2099	0.22388	0.05349	0.27813	0.22473	0.31419	0.13613	0.19863	0.18277	0.11316	0.12504	-2.2021	-2.4	-2.7896	-2.5292	-2.4396	-2.6604	-2.3396	-2.7938	-2.475	-2.4729	-2.7938	-2.4062	-2.4146	-2.6479	-2.3083	-2.7562	-76.476	-94.309	157.017	-152.082	77.232	160.023	80.271	126.841	80.487	173.297	194.328	-42.120	-41.341	172.392	133.470	89.075	0.0015697	0.0015592	0.00012239	506.13	8.3067e-06	1.4347e-05	678.37	220.79	4.0468e-06	8.4187e-06	341.37	156.76	103.3	58.565	8.7436e-06	92.39	0.00090791	0.00081834	0.00021377	624.43	9.7405e-06	8.9868e-06	759.18	251.37	9.6651e-06	8.8221e-06	376.79	166.31	117.63	60.273	8.5192e-06	93.541	6.834	-104.685	-113.619	-142.322	33.384	-24.941	-143.244	-136.759	-71.777	-4.496	-138.822	-134.978	-133.327	-129.169	182.229	-131.982	-8191	255	
7712.429	1	1	0	0	0.090757	0.13702	0.16656	0.1945	0.21626	0.24812	0.15782	0.2576	0.11553	0.10724	0.34289	0.11442	0.16452	0.24012	0.19397	0.26813	-2.0563	-2.1917	-2.5625	-2.3208	-2.5	-2.5542	-2.3729	-2.5229	-2.45	-2.4	-2.7542	-2.4458	-2.3583	-2.5375	-2.2521	-2.7	109.461	-11.981	-40.338	144.699	166.433	86.739	8.626	157.084	172.698	-140.061	136.779	122.437	-43.341	128.738	28.995	177.056	0.0015694	0.001148	0.00025636	506.07	6.971e-06	5.0533e-06	680.11	221.03	7.5351e-06	9.3119e-06	341.47	156.23	102.48	58.226	8.5371e-06	91.59	0.00087537	0.0008004	0.00022024	632.61	9.5142e-06	8.879e-06	767.59	253.72	9.6823e-06	8.8671e-06	382.26	167.64	117.19	60.034	9.43e-06	93.538	11.020	-78.044	149.045	-142.322	-10.268	16.168	-143.397	-136.750	-48.733	-6.277	-139.010	-134.705	-132.871	-129.146	196.475	-131.965	-8191	255	
7712.523	1	1	0	0	0.2178	0.1932	0.15212	0.098993	0.08713	0.07911	0.0542	0.15841	0.19119	0.075559	0.078459	0.0875	0.18305	0.2211	0.1011	0.018314	-2.0604	-2.1958	-2.6542	-2.3125	-2.4208	-2.7771	-2.3563	-2.5917	-2.6917	-2.3187	-2.7167	-2.5667	-2.4688	-2.6583	-2.1958	-2.5042	167.066	102.286	-119.850	192.813	33.566	-139.653	-109.162	85.475	71.525	-57.575	-100.110	-151.879	161.097	141.205	150.763	184.203	0.0016939	0.0011357	9.2188e-05	504.67	5.4698e-06	9.6032e-06	672.9	220.48	1.7334e-05	9.262e-06	337.96	156.29	102.94	58.248	5.7576e-06	91.37	0.00088186	0.00080657	0.00024257	634.1	9.4739e-06	8.8527e-06	775.91	253.59	9.6475e-06	8.8077e-06	388.07	166.99	117.07	60.015	1.022e-05	93.254	-2.064	-75.907	133.339	-142.291	22.636	-2.488	-143.566	-136.694	-65.995	28.895	-138.920	-134.579	-133.131	-129.307	184.053	-131.781	-8191	255	
7712.619	1	1	0	0	0.045981	0.1112	0.18603	0.25471	0.12682	0.074876	0.24537	0.22656	0.24946	0.21275	0.11394	0.094226	0.1208	0.21049	0.034711	0.25056	-2.0292	-2.2125	-2.3792	-2.5354	-2.2854	-2.6521	-2.5792	-2.425	-2.5271	-2.2	-2.5417	-2.4792	-2.2333	-2.7938	-2.2354	-2.4208	80.367	137.941	-47.712	117.988	7.166	79.392	153.816	-89.231	-96.903	124.282	-71.802	125.874	174.199	179.939	70.914	203.290	0.0016376	0.0011059	0.00020749	506.72	6.5347e-06	2.9899e-06	671.52	219.56	6.787e-06	2.7197e-06	341.7	156.51	103.29	58.534	4.272e-06	92.334	0.00086912	0.00079732	0.00025445	626.93	9.0232e-06	8.5422e-06	777.01	249.24	8.7266e-06	8.2877e-06	386.12	164.65	114.32	59.829	9.7795e-06	92.61	-4.475	180.538	99.697	-142.079	-54.022	-58.832	-143.105	-136.420	28.627	194.221	-138.643	-134.378	-133.206	-129.217	42.706	-131.782	-8191	255	
7712.716	1	1	0	0	0.094585	0.16936	0.067157	0.077941	0.19166	0.19808	0.11891	0.22953	0.10753	0.066078	0.24974	0.20497	0.40722	0.16129	0.15375	0.40185	-2.1271	-2.1729	-2.4333	-2.5229	-2.3104	-2.7521	-2.4021	-2.3417	-2.6958	-2.3354	-2.5146	-2.6458	-2.2271	-2.8438	-2.5833	-2.3438	-103.126	133.742	-116.200	118.152	-128.806	7.950	-14.806	131.231	-125.659	-69.197	76.948	-145.128	145.187	184.940	-111.448	158.142	0.0016216	0.00077381	8.2399e-05	505.31	4.9443e-06	1.0551e-06	677.17	220.24	5.1466e-06	5.7252e-06	341.5	156.76	103.01	58.457	4.214e-06	92.194	0.00078978	0.00078221	0.00024804	613.02	8.3763e-06	8.5951e-06	777.61	246.9	8.3749e-06	8.6887e-06	386.45	163.95	113.65	60.283	9.7933e-06	92.269	9.726	119.398	15.120	-141.916	-65.321	-120.684	-143.336	-136.871	5.046	195.394	-138.756	-134.824	-133.287	-129.270	-40.349	-131.943	-8191	255	
7712.812	1	1	0	0	0.26214	0.10584	0.18948	0.32833	0.36732	0.2739	0.13305	0.24427	0.11858	0.068436	0.15194	0.088853	0.31744	0.12246	0.23686	0.15131	-2.1042	-2.1625	-2.3812	-2.5417	-2.25	-2.5125	-2.5333	-2.4479	-2.5583	-2.2854	-2.5917	-2.5812	-2.4708	-2.675	-2.3646	-2.3583	41.750	-71.605	-107.942	-96.796	65.530	25.987	108.975	159.347	64.530	-57.325	123.475	-118.103	131.503	178.370	-124.369	183.298	0.0019083	0.00094036	0.00020445	505.3	5.3358e-06	7.9113e-06	677.51	219.93	4.4122e-06	1.2898e-05	341.83	155.26	102.35	58.323	6.7245e-06	91.455	0.00077253	0.00083993	0.00024999	614.66	8.4219e-06	9.5032e-06	780.21	247.32	8.5064e-06	9.6373e-06	386.65	163.71	114.02	60.746	9.9128e-06	91.922	-0.330	131.091	-52.162	-142.371	59.591	-136.478	-143.305	-136.770	-120.738	186.228	-139.003	-134.741	-133.142	-129.256	-54.821	-132.016	-8191	255	
7712.906	1	1	0	0	0.21539	0.29034	0.12349	0.026955	0.29352	0.13808	0.18357	0.15796	0.099675	0.15271	0.19975	0.14621	0.27888	0.17645	0.2224	0.34956	-2.0958	-2.1917	-2.3854	-2.6688	-2.2396	-2.6417	-2.5354	-2.3604	-2.8208	-2.4125	-2.3833	-2.7604	-2.3937	-2.6604	-2.5646	-2.2604	159.991	182.658	179.402	189.952	179.219	-50.806	-7.109	140.309	-62.556	105.320	146.861	174.515	-58.180	-126.976	-151.185	196.155	0.0017489	0.00017112	0.00020711	500.87	5.7851e-07	7.6701e-06	671.3	218.97	6.951e-06	9.7922e-06	339.92	156.09	102.6	58.336	4.183e-06	91.496	0.00080458	0.00092946	0.00025128	614.05	8.8691e-06	1.0293e-05	774.76	246.16	8.8847e-06	1.0239e-05	383.12	162.78	114.91	60.963	9.4235e-06	91.404	1.383	116.934	-6.034	-141.989	58.746	-78.102	-143.165	-136.771	-140.749	-152.014	-139.155	-134.912	-133.376	-129.251	-65.678	-131.853	-8191	255	
7713.027	1	1	0	0	0.18552	0.18684	0.2792	0.2336	0.0811	0.21394	0.31158	0.046436	0.12225	0.18788	0.29108	0.36896	0.071789	0.16549	0.19351	0.27528	-2.0687	-2.3854	-2.2604	-2.6521	-2.2562	-2.5187	-2.5333	-2.2083	-2.6604	-2.45	-2.5708	-2.6917	-2.4854	-2.4688	-2.4688	-2.3646	108.855	204.686	-40.797	116.070	179.536	-143.441	60.424	-87.376	-70.520	62.266	166.797	-153.322	-43.802	164.053	-100.831	157.463	0.0022013	0.00035489	0.00013508	501.06	8.4654e-06	1.2283e-05	673.51	220.68	1.2665e-05	1.06e-05	340.2	155.62	102.5	58.422	7.2156e-06	91.774	0.00082092	0.00092411	0.00023427	604.39	9.1257e-06	1.0152e-05	768.93	245.31	9.3747e-06	1.0231e-05	381.39	162.24	117.04	60.99	9.3526e-06	91.464	-6.153	-8.576	-89.120	-142.130	-139.628	30.439	-143.405	-136.875	197.638	33.510	-138.806	-134.702	-133.776	-129.267	-23.678	-131.804	-8191	255	
7713.123	1	1	0	0	0.033472	0.12879	0.14892	0.26137	0.21014	0.31644	0.063872	0.20349	0.12978	0.14194	0.24455	0.16127	0.054479	0.043059	0.12488	0.13297	-2.1229	-2.5312	-2.2958	-2.8292	-2.4625	-2.4938	-2.8417	-2.3167	-2.5312	-2.5312	-2.3479	-2.8667	-2.4667	-2.6083	-2.6104	-2.3563	32.563	179.584	47.104	173.100	-21.641	-147.987	100.968	176.174	-153.033	-72.334	191.060	-98.020	-149.346	192.202	-26.703	75.902	0.0024844	0.0011777	0.0003115	501.58	2.2171e-06	1.3792e-06	672.53	219.02	1.9108e-05	9.4468e-06	335.94	154.53	102.4	58.043	2.4168e-06	91.208	0.00089801	0.00093726	0.00023753	608.33	1.0198e-05	1.0382e-05	771.63	246.19	1.0618e-05	1.0627e-05	383.22	163.46	121.12	61.116	9.9661e-06	91.992	-17.184	-100.444	-47.827	-142.166	190.675	-134.045	-143.359	-136.591	-149.329	14.154	-138.890	-134.855	-133.149	-129.259	-29.165	-131.860	-8191	255	
7713.219	1	1	0	0	0.18079	0.17014	0.15659	0.15062	0.28864	0.21003	0.15729	0.066717	0.48361	0.16239	0.23281	0.34729	0.092581	0.2991	0.094567	0.26478	-2.0333	-2.4125	-2.2583	-2.6229	-2.275	-2.5104	-2.7104	-2.35	-2.5396	-2.5958	-2.3	-2.6521	-2.3333	-2.5917	-2.55	-2.4813	-63.855	113.053	69.453	182.147	-99.460	-148.796	112.404	32.314	157.752	78.855	-136.117	94.208	188.194	-142.341	138.531	89.874	0.0022506	0.001865	0.00012739	501.15	9.0418e-06	8.6938e-06	670.06	217.83	4.5715e-06	1.2478e-05	334.89	154.36	101.97	58.052	6.8206e-06	90.57	0.0010287	0.00098754	0.00025194	621.64	1.1412e-05	1.0625e-05	773.48	248.81	1.1399e-05	1.0636e-05	381.43	164.45	122.23	60.882	9.8323e-06	92.398	0.720	-46.658	-51.277	-142.423	-83.435	-78.360	-143.107	-136.864	113.757	5.615	-138.463	-134.667	-133.177	-129.028	-53.447	-132.040	-8191	255	
7713.315	1	1	0	0	0.22413	0.16419	0.19737	0.20403	0.13521	0.15131	0.30674	0.33852	0.25571	0.31699	0.047338	0.30895	0.15186	0.16813	0.20811	0.24731	-2.0708	-2.45	-2.2583	-2.6729	-2.4458	-2.45	-2.65	-2.3063	-2.3792	-2.5708	-2.6021	-2.7042	-2.4875	-2.5354	-2.5563	-2.5042	-78.195	-114.615	58.576	-123.393	-93.747	174.180	105.067	50.426	6.086	57.481	177.671	140.170	181.704	109.059	56.468	-151.841	0.0016119	0.00073372	0.00012298	497.77	5.9123e-06	7.6561e-06	668.96	217.52	1.0187e-05	3.5095e-06	335.29	154.17	101.36	57.815	3.8274e-06	90.675	0.0010435	0.00094949	0.00024371	628.96	1.1339e-05	1.0222e-05	767.18	251.53	1.1262e-05	1.0286e-05	379.17	165.8	121.31	60.447	9.5258e-06	93.052	-7.588	-99.084	-56.088	-142.429	-2.292	52.822	-143.317	-136.811	32.422	-39.431	-138.865	-134.925	-132.838	-129.080	195.318	-131.972	-8191	255	
7713.387	1	1	0	0	0.25603	0.030843	0.099759	0.22389	0.31614	0.0033734	0.1443	0.21875	0.157	0.22622	0.24102	0.34761	0.14398	0.12726	0.2091	0.33092	-2.0854	-2.5104	-2.3083	-2.6958	-2.3979	-2.5062	-2.7729	-2.3396	-2.5833	-2.4292	-2.3646	-2.7667	-2.5625	-2.3833	-2.6875	-2.4813	72.142	-26.613	131.547	65.410	-114.995	56.831	-132.418	-148.605	-4.449	-50.007	104.616	-149.375	-147.089	160.273	-75.866	-115.532	0.0011217	0.0011266	0.00016846	502.6	1.133e-05	7.4504e-06	669.69	217.86	9.7189e-06	5.4711e-06	335.39	154.28	101.85	58.043	5.2889e-06	91.008	0.0010039	0.00092583	0.00024031	640.55	1.1039e-05	1.0033e-05	767.92	254.82	1.0796e-05	9.9862e-06	380.95	167.46	119.91	60.422	9.6808e-06	93.897	8.974	-36.201	-141.907	-142.282	-10.878	-3.669	-143.222	-136.760	-4.816	59.128	-139.120	-135.083	-133.237	-129.263	-102.599	-132.015	-8191	255	
7713.507	1	1	0	0	0.23088	0.22308	0.33894	0.28701	0.14583	0.11862	0.16919	0.13031	0.079098	0.065991	0.21445	0.27475	0.13374	0.25253	0.072688	0.15343	-2.0521	-2.6042	-2.1542	-2.6312	-2.55	-2.4729	-2.8063	-2.4917	-2.4292	-2.6875	-2.3125	-2.7333	-2.4354	-2.4021	-2.6271	-2.5417	-70.539	57.812	48.665	164.368	-6.225	-53.025	116.995	113.970	-95.080	-131.583	107.079	-123.014	-132.535	147.103	-96.925	185.115	0.0018779	0.0016764	0.00013232	503.53	1.0387e-05	1.1184e-05	671.43	217.61	8.5925e-06	8.1035e-06	337.95	154.82	102.23	57.98	1.0962e-05	90.87	0.00097469	0.00090689	0.00025089	647.41	1.0636e-05	9.8022e-06	775.41	256.29	1.0346e-05	9.6384e-06	385.3	167.72	118.9	60.076	1.0019e-05	93.55	0.976	-52.909	159.634	-142.127	-15.519	-27.353	-143.593	-136.768	21.516	-88.279	-138.847	-134.602	-133.442	-129.096	170.882	-131.890	-8191	255	
7713.604	1	1	0	0	0.21099	0.0903	0.089146	0.036726	0.11489	0.064523	0.18641	0.19352	0.22328	0.16383	0.1061	0.18186	0.1263	0.22417	0.14791	0.22796	-2.0708	-2.6813	-2.275	-2.5917	-2.6458	-2.4333	-2.7417	-2.4625	-2.2667	-2.5646	-2.4792	-2.7604	-2.8521	-2.2917	-2.6375	-2.6729	-80.559	-133.238	0.077	-84.271	-128.916	-80.652	38.681	197.193	146.828	-69.992	-56.897	-102.654	183.766	-75.994	-119.946	112.872	0.0018658	0.00045529	0.00025063	504.09	7.6934e-06	9.9576e-06	670.07	219.36	1.8709e-06	5.8283e-06	336.99	154.61	101.59	57.927	7.516e-06	90.673	0.00092355	0.00085961	0.00026139	643.73	1.0269e-05	9.4833e-06	784.49	255.57	1.0147e-05	9.4416e-06	390.86	166.84	118.02	59.898	1.0765e-05	93.033	4.674	-79.357	152.479	-141.930	-28.599	15.175	-143.428	-136.673	-44.664	181.812	-139.187	-134.658	-132.969	-129.064	153.658	-132.013	-8191	255	
7713.700	1	1	0	0	0.073311	0.10034	0.17522	0.19686	0.11119	0.23033	0.13097	0.19978	0.029225	0.20387	0.21838	0.012709	0.016255	0.11238	0.25543	0.25494	-1.7083	-2.7521	-2.175	-2.3521	-2.6229	-2.1979	-2.5479	-2.4125	-2.4292	-2.5646	-2.4146	-2.3521	-2.4833	-2.4917	-2.4708	-2.7375	51.887	-79.136	63.791	200.160	18.833	191.805	-140.223	61.918	-121.906	38.426	148.985	-91.743	161.338	160.028	36.385	169.584	0.0014554	0.00010057	0.00013264	501.82	4.1557e-06	5.8122e-06	668.85	218.26	8.4193e-06	1.0846e-05	334.4	153.36	101.36	57.631	3.6115e-06	90.292	0.0009102	0.00085603	0.0002764	636.63	9.9263e-06	9.474e-06	789.58	253.25	9.9018e-06	9.6501e-06	395.02	165.54	117.58	60.028	1.133e-05	92.258	6.848	167.275	138.414	-142.111	0.225	-59.427	-143.447	-136.881	-49.686	-96.159	-139.020	-134.734	-133.431	-129.281	-102.894	-131.920	-8191	255	
7713.796	1	1	0	0	0.41326	0.097863	0.33265	0.11792	0.049322	0.15853	0.35314	0.22842	0.16457	0.13666	0.25322	0.11025	0.20917	0.1682	0.12727	0.41164	-1.6896	-2.6042	-2.3104	-2.3646	-2.5125	-2.2917	-2.6625	-2.7104	-2.2104	-2.5729	-2.5229	-2.5604	-2.7938	-2.3854	-2.5479	-2.7979	101.834	117.737	-114.434	154.206	169.325	84.117	35.753	62.028	111.992	-76.785	191.638	-121.364	71.525	179.823	-39.496	114.484	0.0016419	0.0010714	0.00014446	500.23	9.2843e-06	8.6107e-06	667.9	217.24	6.2316e-06	1.2928e-05	332.43	151.98	101.38	57.483	1.458e-05	89.352	0.00089988	0.00091266	0.00029059	632.06	9.9476e-06	1.0277e-05	797.8	252.31	1.0086e-05	1.0788e-05	399.49	165.43	118.4	60.973	1.2191e-05	92.261	1.667	143.864	37.014	-142.056	-38.408	202.940	-143.273	-136.893	-28.545	188.587	-138.776	-134.780	-133.203	-129.206	42.763	-131.987	-8191	255	
7713.917	1	1	0	0	0.11836	0.11957	0.051172	0.06518	0.16588	0.11329	0.16598	0.17709	0.35454	0.42365	0.11566	0.072293	0.11372	0.1433	0.01949	0.20026	-1.8188	-2.6375	-2.4292	-2.4521	-2.7271	-2.5	-2.5896	-2.6792	-2.3667	-2.5271	-2.6188	-2.3021	-2.6396	-2.5271	-2.5521	-2.7479	44.477	-14.120	67.606	155.511	-152.507	87.493	-134.547	97.037	66.379	24.914	-41.991	-66.444	183.407	129.184	-132.526	123.051	0.0018396	0.0010326	0.00016859	497.6	2.7824e-06	5.5182e-06	661.58	216.05	9.5025e-06	1.708e-05	333.89	152.4	100.96	57.354	3.6554e-06	89.44	0.00094449	0.0010381	0.00030243	633.56	1.006e-05	1.1261e-05	793.3	250.68	9.9504e-06	1.1303e-05	394.2	164.26	117.09	61.349	1.1417e-05	91.896	7.339	135.868	-32.832	-141.982	-68.954	204.096	-142.972	-136.682	-24.900	-112.825	-138.511	-134.717	-133.471	-129.211	-106.395	-131.820	-8191	255	
#DATA ENDS
