BOXY.EXE: ISS Imagent and Oximeter Data Acquisition Program Version 0.80
Ascii Record File

#ACQ INFORMATION
2  Detector Channels 
16  External MUX Channels 
1  Auxiliary Channels 
5000  Waveform (CCF) Frequency (Hz)
1  Waveforms Skipped 
30  Waveforms Averaged 
1  Cycles Averaged 
16  Acquisitions per Waveform 
10.0806  Updata Rate (Hz) 

#FILE INFORMATION
TRUE -- External MUX Channel results are PARSED.
FALSE -- AC DC and Phase are NOT grouped.
TRUE -- Companion Program Settings File CREATED.
FALSE -- AC data not excluded
FALSE -- DC data not excluded
FALSE -- Phase data not excluded
FALSE -- Auxillary Chn. data not excluded
Tab delimiters

#CALIBRATION STATE
TRUE -- Waveform Calibration Values APPLIED.


#AUX CALIBRATION VALUES
Val Type	aux-1	

Term	1.0000e+00	
Factor	0.0000e+00	


#WF CALIBRATION VALUES
A = Detector Channel
Val Type	A-AC1	A-AC2	A-AC3	A-AC4	A-AC5	A-AC6	A-AC7	A-AC8	A-AC9	A-AC10	A-AC11	A-AC12	A-AC13	A-AC14	A-AC15	A-AC16	A-DC1	A-DC2	A-DC3	A-DC4	A-DC5	A-DC6	A-DC7	A-DC8	A-DC9	A-DC10	A-DC11	A-DC12	A-DC13	A-DC14	A-DC15	A-DC16	A-Ph1	A-Ph2	A-Ph3	A-Ph4	A-Ph5	A-Ph6	A-Ph7	A-Ph8	A-Ph9	A-Ph10	A-Ph11	A-Ph12	A-Ph13	A-Ph14	A-Ph15	A-Ph16	

Term	0.00000e+00	0.00000e+00	0.00000e+00	0.00000e+00	0.00000e+00	0.00000e+00	0.00000e+00	0.00000e+00	0.00000e+00	0.00000e+00	0.00000e+00	0.00000e+00	0.00000e+00	0.00000e+00	0.00000e+00	0.00000e+00	0.00000e+00	0.00000e+00	0.00000e+00	0.00000e+00	0.00000e+00	0.00000e+00	0.00000e+00	0.00000e+00	0.00000e+00	0.00000e+00	0.00000e+00	0.00000e+00	0.00000e+00	0.00000e+00	0.00000e+00	0.00000e+00	0.00000e+00	0.00000e+00	0.00000e+00	0.00000e+00	0.00000e+00	0.00000e+00	0.00000e+00	0.00000e+00	0.00000e+00	0.00000e+00	0.00000e+00	0.00000e+00	0.00000e+00	0.00000e+00	0.00000e+00	0.00000e+00	
Factor	1.00000e+00	1.00000e+00	1.00000e+00	1.00000e+00	1.00000e+00	1.00000e+00	1.00000e+00	1.00000e+00	1.00000e+00	1.00000e+00	1.00000e+00	1.00000e+00	1.00000e+00	1.00000e+00	1.00000e+00	1.00000e+00	1.00000e+00	1.00000e+00	1.00000e+00	1.00000e+00	1.00000e+00	1.00000e+00	1.00000e+00	1.00000e+00	1.00000e+00	1.00000e+00	1.00000e+00	1.00000e+00	1.00000e+00	1.00000e+00	1.00000e+00	1.00000e+00	X	X	X	X	X	X	X	X	X	X	X	X	X	X	X	X	

B = Detector Channel
Val Type	B-AC1	B-AC2	B-AC3	B-AC4	B-AC5	B-AC6	B-AC7	B-AC8	B-AC9	B-AC10	B-AC11	B-AC12	B-AC13	B-AC14	B-AC15	B-AC16	B-DC1	B-DC2	B-DC3	B-DC4	B-DC5	B-DC6	B-DC7	B-DC8	B-DC9	B-DC10	B-DC11	B-DC12	B-DC13	B-DC14	B-DC15	B-DC16	B-Ph1	B-Ph2	B-Ph3	B-Ph4	B-Ph5	B-Ph6	B-Ph7	B-Ph8	B-Ph9	B-Ph10	B-Ph11	B-Ph12	B-Ph13	B-Ph14	B-Ph15	B-Ph16	

Term	0.00000e+00	0.00000e+00	0.00000e+00	0.00000e+00	0.00000e+00	0.00000e+00	0.00000e+00	0.00000e+00	0.00000e+00	0.00000e+00	0.00000e+00	0.00000e+00	0.00000e+00	0.00000e+00	0.00000e+00	0.00000e+00	0.00000e+00	0.00000e+00	0.00000e+00	0.00000e+00	0.00000e+00	0.00000e+00	0.00000e+00	0.00000e+00	0.00000e+00	0.00000e+00	0.00000e+00	0.00000e+00	0.00000e+00	0.00000e+00	0.00000e+00	0.00000e+00	-5.24022e+01	-1.64169e+02	-9.76990e+01	-1.80969e+02	-5.66720e+01	-9.77327e+01	-1.56073e+02	-1.62015e+02	-2.91745e+01	-6.44927e+01	-1.73276e+02	-1.70265e+02	-1.82009e+02	-1.76771e+02	-6.96488e+01	-1.50163e+02	
Factor	1.86859e-05	9.78118e-05	2.79070e-05	1.67683e-01	9.76611e-07	1.10387e-06	1.73110e-01	5.09591e-02	1.07639e-06	1.05178e-06	1.04153e-01	2.91335e-02	3.50756e-02	9.31146e-03	9.58455e-07	1.36155e-02	6.11716e-07	6.27859e-07	1.75053e-07	7.79073e-02	6.84918e-09	6.89061e-09	7.55109e-02	2.36384e-02	6.84905e-09	6.88618e-09	4.50172e-02	1.28399e-02	1.55609e-02	4.22386e-03	6.88738e-09	5.88561e-03	X	X	X	X	X	X	X	X	X	X	X	X	X	X	X	X	



#DISTANCE SETTINGS
A = Detector Channel
A-1	A-2	A-3	A-4	A-5	A-6	A-7	A-8	A-9	A-10	A-11	A-12	A-13	A-14	A-15	A-16	

2.5000e+00	3.0000e+00	2.5000e+00	3.0000e+00	2.0000e+00	3.0000e+00	1.5000e+00	3.0000e+00	3.0000e+00	3.0000e+00	3.0000e+00	3.0000e+00	3.0000e+00	3.0000e+00	1.5000e+00	3.0000e+00	

B = Detector Channel
B-1	B-2	B-3	B-4	B-5	B-6	B-7	B-8	B-9	B-10	B-11	B-12	B-13	B-14	B-15	B-16	

1.0000e+01	1.0000e+01	1.0000e+01	1.4400e+00	1.0000e+01	1.0000e+01	1.5100e+00	1.9400e+00	1.0000e+01	1.0000e+01	1.9900e+00	2.4900e+00	2.4100e+00	2.9000e+00	1.0000e+01	2.9800e+00	




#DATA BEGINS
time	group	step	mark	flag	A-AC1	A-AC2	A-AC3	A-AC4	A-AC5	A-AC6	A-AC7	A-AC8	A-AC9	A-AC10	A-AC11	A-AC12	A-AC13	A-AC14	A-AC15	A-AC16	A-DC1	A-DC2	A-DC3	A-DC4	A-DC5	A-DC6	A-DC7	A-DC8	A-DC9	A-DC10	A-DC11	A-DC12	A-DC13	A-DC14	A-DC15	A-DC16	A-Ph1	A-Ph2	A-Ph3	A-Ph4	A-Ph5	A-Ph6	A-Ph7	A-Ph8	A-Ph9	A-Ph10	A-Ph11	A-Ph12	A-Ph13	A-Ph14	A-Ph15	A-Ph16	B-AC1	B-AC2	B-AC3	B-AC4	B-AC5	B-AC6	B-AC7	B-AC8	B-AC9	B-AC10	B-AC11	B-AC12	B-AC13	B-AC14	B-AC15	B-AC16	B-DC1	B-DC2	B-DC3	B-DC4	B-DC5	B-DC6	B-DC7	B-DC8	B-DC9	B-DC10	B-DC11	B-DC12	B-DC13	B-DC14	B-DC15	B-DC16	B-Ph1	B-Ph2	B-Ph3	B-Ph4	B-Ph5	B-Ph6	B-Ph7	B-Ph8	B-Ph9	B-Ph10	B-Ph11	B-Ph12	B-Ph13	B-Ph14	B-Ph15	B-Ph16	aux-1	digaux	

2201.844	1	1	0	512	0.10919	0.18588	0.19233	0.04812	0.15937	0.076474	0.15084	0.12942	0.15722	0.32633	0.34061	0.098925	0.18227	0.24138	0.16429	0.041911	-2.9042	-2.8792	-3.4208	-3.0521	-2.9729	-3.4333	-2.9979	-3.2062	-3.525	-2.75	-3.4229	-3.2708	-2.8271	-3.4125	-3.0604	-3.0958	133.271	245.389	35.784	104.607	242.859	75.552	221.998	167.473	84.915	138.387	220.405	205.633	-26.794	-21.221	211.445	250.985	0.00015697	0.00024733	4.863e-05	349.7	2.6342e-06	1.5507e-06	506.09	159.57	1.1393e-06	2.4442e-06	237.04	87.85	62.338	28.722	1.3755e-06	43.222	2.5756e-05	1.8603e-05	4.9868e-06	331.68	2.1775e-07	1.9318e-07	478.54	151.22	2.1313e-07	1.9594e-07	214.75	81.763	56.702	26.802	2.245e-07	39.532	238.318	2.472	69.345	-37.022	114.119	-8.991	-38.947	-30.915	140.040	96.048	-34.318	-28.950	-24.879	-19.880	156.764	-24.428	-8191	255	
2201.940	1	1	0	0	0.1074	0.14714	0.16615	0.14809	0.10377	0.14897	0.2329	0.11601	0.066144	0.27458	0.049489	0.21044	0.10274	0.072875	0.19097	0.05213	-3.1146	-2.8458	-3.3417	-2.9938	-3.0104	-3.275	-3.1646	-3.2	-3.4729	-2.9417	-3.3833	-3.1	-3.0271	-3.4	-3.1958	-3.1833	-6.515	175.348	158.631	28.781	101.788	68.829	223.459	129.868	70.850	104.733	195.536	218.431	242.718	97.743	112.457	277.466	0.00013925	0.00022432	4.4811e-05	351.06	1.9521e-06	2.3716e-06	509.32	160.33	1.21e-06	1.6189e-06	237.57	88.809	62.962	28.677	1.0947e-06	43.192	2.4546e-05	1.7758e-05	5.4135e-06	331.5	2.1227e-07	1.8864e-07	480.34	152.01	2.1724e-07	1.9485e-07	216.4	82.45	57.369	26.888	2.3365e-07	39.471	224.304	14.212	82.904	-37.525	141.665	68.987	-39.305	-30.725	164.651	101.090	-34.769	-28.814	-24.645	-20.008	114.035	-24.263	-8191	255	
2202.012	1	1	0	0	0.14666	0.1758	0.11404	0.15852	0.22455	0.090487	0.35957	0.12499	0.047228	0.14684	0.079606	0.19773	0.25896	0.20107	0.29911	0.20854	-2.9375	-2.7729	-3.2917	-3.1667	-2.9625	-3.3729	-3	-3.2083	-3.3708	-2.8833	-3.3229	-3.3	-2.7875	-3.4688	-3.0833	-3.1917	188.678	121.873	76.691	263.950	280.413	32.442	285.781	118.551	-18.681	157.313	261.336	-48.612	277.083	232.805	-44.133	-28.381	0.00013482	0.00021087	3.7951e-05	353.97	2.191e-06	2.1281e-06	517.82	161.85	1.4808e-06	2.0293e-06	239.43	88.718	63.465	28.649	2.2341e-06	43.216	2.4435e-05	1.7978e-05	5.9037e-06	335.56	2.0325e-07	1.9081e-07	486.18	153.09	2.0001e-07	2.0284e-07	217.58	82.735	57.9	26.766	2.5278e-07	39.313	226.575	1.298	93.056	-37.660	113.140	102.296	-39.046	-31.080	204.393	133.212	-34.457	-29.075	-25.112	-19.832	112.420	-24.811	-8191	255	
2202.108	1	1	0	0	0.1743	0.068168	0.27256	0.22453	0.12728	0.15747	0.19883	0.10061	0.14418	0.1727	0.035175	0.096342	0.058454	0.1716	0.24487	0.16037	-3.1583	-3.0021	-3.2438	-3.2896	-2.7438	-3.3625	-3.1604	-3.0438	-3.3583	-3.1042	-3.1021	-3.4146	-2.8833	-3.2896	-3.2875	-3.0354	167.272	22.964	205.315	-20.412	150.123	46.256	-46.544	290.654	147.452	149.371	166.068	302.601	253.721	-14.726	120.934	-48.716	0.00014159	0.00015332	2.962e-05	359.97	1.2821e-06	1.5019e-06	520.92	163.38	6.5718e-07	1.6913e-06	241.96	89.59	63.779	28.889	1.7946e-06	43.156	2.3742e-05	1.9125e-05	5.9919e-06	340.62	2.0057e-07	2.0923e-07	490.71	154.45	1.9809e-07	2.2202e-07	219.74	83.447	58.182	26.956	2.4624e-07	39.431	230.603	14.447	75.176	-37.581	107.169	77.000	-39.104	-30.877	199.231	97.124	-34.667	-29.124	-24.948	-19.861	102.175	-24.412	-8191	255	
2202.227	1	1	0	0	0.12624	0.1547	0.090498	0.058096	0.28806	0.053326	0.15511	0.25936	0.15186	0.30136	0.011565	0.35371	0.13391	0.17368	0.27003	0.10179	-3.1917	-2.9688	-3.1604	-3.3417	-2.9792	-3.3563	-3.15	-2.9083	-3.4583	-3.1208	-3.1771	-3.3729	-2.8771	-3.3542	-3.1167	-3.1146	188.316	245.241	-15.382	243.655	153.456	234.679	-35.922	132.760	259.357	142.974	175.618	289.301	122.137	-29.648	236.012	251.572	0.00014446	0.00027107	4.3415e-05	360.56	1.7755e-06	1.7788e-06	517.12	162.73	2.8784e-06	1.5198e-06	239.8	89.399	64.135	28.701	1.344e-06	43.268	2.3236e-05	2.0759e-05	6.0083e-06	341.01	2.0007e-07	2.2591e-07	489.1	154.16	1.9859e-07	2.2909e-07	218.87	83.259	58.248	26.944	2.3143e-07	39.53	227.853	14.065	89.339	-37.559	104.224	56.357	-39.406	-30.785	150.190	126.322	-34.470	-29.052	-24.775	-19.851	124.053	-24.326	-8191	255	
2202.323	1	1	0	0	0.22087	0.081681	0.11116	0.11013	0.051056	0.11853	0.13289	0.19551	0.18494	0.077763	0.44651	0.2376	0.42707	0.2078	0.050207	0.25112	-3.0229	-3.0104	-3.1937	-3.4437	-2.9354	-3.2708	-3.2562	-2.9458	-3.2208	-3.1583	-3.1437	-3.4375	-3.0229	-3.1271	-3.3604	-3.0458	207.287	226.169	184.438	207.504	47.550	60.473	117.498	293.947	181.815	-38.031	-44.934	8.260	288.243	254.271	264.075	215.306	0.00015377	0.00016561	3.3468e-05	353.01	1.5166e-06	1.9282e-06	508.24	158.84	7.043e-07	1.9478e-06	234.58	87.705	63.063	28.529	7.3366e-07	42.812	2.3891e-05	2.186e-05	5.7425e-06	333.17	2.0242e-07	2.3712e-07	477.75	150.74	2.053e-07	2.4016e-07	213.55	81.914	57.139	26.748	2.0869e-07	39.081	223.174	49.772	67.234	-37.602	107.721	74.587	-39.311	-30.872	155.259	84.194	-34.441	-28.646	-25.078	-19.767	98.664	-24.406	-8191	255	
2202.419	1	1	0	0	0.32962	0.16818	0.09324	0.151	0.062293	0.13663	0.20008	0.2867	0.053404	0.12099	0.23541	0.27033	0.28227	0.099692	0.24001	0.13726	-2.7438	-3.0229	-3.0354	-3.3729	-3.0083	-3.2979	-3.2146	-3.0771	-3.2125	-3.1833	-3.0771	-3.3417	-2.9833	-3.1667	-3.3333	-3.0792	68.939	227.994	200.664	66.932	-40.034	-42.645	297.515	210.292	69.969	291.885	255.135	286.275	-27.581	274.740	304.933	-47.774	0.00013581	0.00016257	4.5583e-05	337.06	4.9746e-07	2.2517e-06	486.68	153.24	2.1603e-06	2.1196e-06	228.2	85.963	61.552	28.124	1.6215e-06	42.547	2.4102e-05	2.025e-05	5.0255e-06	318.43	2.0585e-07	2.1997e-07	459.47	145.7	2.1226e-07	2.1604e-07	207.24	80.03	56.162	26.44	2.0546e-07	38.702	224.012	8.405	87.948	-37.599	40.320	98.099	-39.351	-30.923	155.385	81.778	-34.492	-28.955	-24.848	-19.563	113.144	-24.390	-8191	255	
2202.515	1	1	0	0	0.062083	0.057028	0.14395	0.23614	0.05345	0.14445	0.11794	0.14447	0.15791	0.14992	0.32637	0.2406	0.28571	0.21191	0.10541	0.11326	-2.8333	-3.075	-2.9854	-3.3917	-3.1	-3.175	-3.3375	-2.9896	-3.2875	-3.0917	-3.0125	-3.4917	-3.2354	-3.2896	-3.2479	-3.0208	243.544	-1.091	196.034	293.362	208.184	177.821	176.613	291.987	207.662	31.785	-27.882	-45.323	298.858	270.128	21.808	240.804	0.00013857	0.00025033	3.2432e-05	333.57	8.8804e-07	2.5821e-06	481.78	152.9	1.4778e-06	8.4355e-07	227.98	86.013	61.252	28.31	4.5171e-07	42.597	2.5353e-05	1.9602e-05	5.0288e-06	315.18	2.2609e-07	2.1237e-07	455.28	144.68	2.2541e-07	2e-07	206.45	80.102	56.05	26.496	1.8429e-07	38.877	217.821	-10.437	78.513	-37.494	179.784	64.682	-39.135	-30.752	95.542	62.520	-34.135	-28.929	-24.801	-19.728	98.580	-24.334	-8191	255	
2202.611	1	1	0	0	0.060816	0.072251	0.13321	0.10578	0.079664	0.10509	0.32783	0.11935	0.14641	0.22529	0.095114	0.12731	0.2242	0.2194	0.33005	0.29727	-2.6688	-3.2042	-2.6833	-3.4104	-3.2438	-2.8542	-3.2771	-2.9375	-3.0292	-3.3896	-2.8563	-3.2625	-2.9708	-2.9313	-3.2438	-3.025	211.725	194.243	304.853	28.898	269.111	207.408	276.849	-45.085	213.486	111.128	285.595	0.068	240.696	34.561	6.951	231.779	0.00016285	0.0001155	4.9961e-05	329.94	6.8982e-07	1.6102e-06	485.41	153.08	1.1847e-06	2.0007e-06	228.61	86.283	61.526	28.488	1.5223e-06	43.251	2.6487e-05	1.8714e-05	4.7468e-06	312.7	2.179e-07	1.9733e-07	456.14	145.39	2.3352e-07	1.9182e-07	208.19	80.503	56.143	26.686	1.8272e-07	39.453	224.263	-42.872	51.746	-37.084	134.496	79.389	-39.099	-30.584	149.347	65.661	-34.328	-28.668	-24.884	-19.844	98.145	-24.202	-8191	255	
2202.707	1	1	0	0	0.33388	0.096911	0.060043	0.058995	0.074834	0.11356	0.053327	0.21627	0.16434	0.13957	0.14635	0.25324	0.15038	0.16777	0.12478	0.19753	-2.525	-3.3479	-2.8812	-3.4021	-3.0229	-3.0083	-3.3438	-3.0917	-2.9833	-3.2229	-2.9042	-3.2083	-3.175	-2.8417	-3.4479	-2.925	8.366	292.962	-40.120	37.978	296.575	245.261	255.272	290.786	189.476	52.566	207.422	284.117	104.177	268.735	296.784	87.289	0.0001348	0.00014197	2.5811e-05	335.05	2.0551e-06	2.3747e-06	493.31	156.33	1.4495e-06	1.1814e-06	232.46	86.754	61.485	28.786	1.5606e-06	43.516	2.6346e-05	1.7099e-05	4.6115e-06	318.37	2.1762e-07	1.9628e-07	464.37	148.1	2.2867e-07	1.8455e-07	211.06	80.97	56.176	26.902	1.8904e-07	39.674	224.222	-12.205	81.973	-37.549	112.113	70.897	-39.048	-30.827	117.588	108.121	-34.475	-28.754	-25.328	-19.706	151.141	-24.715	-8191	255	
2202.804	1	1	0	0	0.26234	0.16325	0.03162	0.13898	0.10332	0.27048	0.12229	0.27361	0.02565	0.12422	0.091117	0.062056	0.18053	0.13513	0.19868	0.089826	-2.6562	-3.2521	-2.9625	-3.2542	-3.1437	-2.9458	-3.4896	-2.9292	-3.2542	-3.3125	-3.0146	-3.2667	-3.2354	-2.85	-3.2938	-3.2188	217.453	297.323	40.682	201.202	144.787	-5.369	209.144	202.885	81.426	286.267	308.868	-1.739	102.253	33.804	165.376	213.232	0.00014895	0.00019232	6.5392e-05	341.43	1.5784e-06	1.8113e-06	503.92	159	1.7921e-06	1.3771e-06	235.97	87.625	61.668	29.117	1.9891e-06	43.802	2.486e-05	1.7308e-05	4.7096e-06	324.7	2.0506e-07	1.8639e-07	473.78	150.27	2.1415e-07	1.8158e-07	213.74	81.273	56.403	27.186	1.9719e-07	39.945	227.730	8.793	85.404	-37.712	141.983	66.266	-38.817	-30.899	133.305	89.554	-34.465	-28.696	-24.936	-19.539	97.025	-24.541	-8191	255	
2202.924	1	1	0	0	0.09898	0.22454	0.20677	0.051727	0.21794	0.23444	0.14134	0.068904	0.23615	0.16506	0.10459	0.034974	0.2119	0.084461	0.16732	0.11107	-2.3688	-3.4813	-2.8396	-3.225	-3.2708	-2.6917	-3.3229	-2.9667	-2.9333	-3.4521	-2.95	-3.2021	-3.4083	-2.95	-3.3396	-3.1146	63.897	192.348	173.394	265.878	-0.422	77.896	83.063	34.002	173.346	77.269	-7.738	109.716	32.104	294.202	30.987	295.502	0.0001561	0.00020941	3.2867e-05	356.63	1.011e-06	1.9725e-06	525.08	165.65	1.679e-06	2.7433e-06	245	90.577	63.697	29.781	1.0108e-06	44.855	2.4509e-05	1.6515e-05	5.183e-06	337.92	1.9963e-07	1.8708e-07	492.95	156.85	2.1129e-07	1.8344e-07	223.23	84.35	58.212	27.802	2.2487e-07	40.843	229.809	-4.769	72.676	-37.313	115.350	69.359	-39.479	-30.860	142.488	98.917	-34.618	-28.991	-25.199	-20.061	147.821	-24.543	-8191	255	
2203.019	1	1	0	0	0.16543	0.12716	0.083318	0.24686	0.10408	0.336	0.16627	0.23463	0.03982	0.11335	0.093679	0.29836	0.15886	0.30759	0.33827	0.12953	-2.4542	-3.4708	-2.9583	-2.9958	-3.5042	-2.9667	-3.4167	-3.2438	-2.8083	-3.3167	-3.2062	-3.1854	-3.1833	-2.9667	-3.2875	-3.1167	88.326	50.911	294.878	211.610	218.378	190.887	228.235	147.296	118.320	-31.704	249.471	97.976	-6.055	291.700	183.054	255.981	0.00017277	0.00019499	5.5332e-05	378.21	1.6079e-06	1.9853e-06	549.22	174.64	1.4843e-06	1.9569e-06	260.01	95.128	67.126	30.308	1.3896e-06	46.108	2.534e-05	1.6749e-05	5.706e-06	357.01	2.0064e-07	1.9456e-07	519.45	164.89	2.153e-07	1.9554e-07	235.42	88.476	61.006	28.424	2.4558e-07	41.896	230.970	4.505	61.449	-37.435	102.058	56.505	-39.276	-31.067	152.629	94.381	-34.562	-29.093	-25.492	-19.838	91.838	-24.608	-8191	255	
2203.115	1	1	0	0	0.21349	0.083307	0.24627	0.074198	0.13879	0.30239	0.2121	0.11243	0.16707	0.074413	0.10944	0.17813	0.20216	0.28571	0.10669	0.21924	-2.3771	-3.2583	-2.7917	-2.9062	-3.4979	-2.8854	-3.3208	-3.3208	-3.0438	-3.4604	-3.2708	-2.9417	-3.4333	-3.0604	-3.0229	-3.4729	277.584	282.448	40.662	83.478	-2.696	-24.536	287.844	308.543	287.823	19.847	44.313	41.140	-39.189	293.124	58.675	223.162	0.00013696	0.00024442	6.1199e-05	408.92	5.2115e-07	2.2336e-06	592.64	187.14	2.0289e-06	1.9553e-06	274.08	101.07	70.522	31.07	9.9294e-07	47.054	2.5618e-05	1.8222e-05	6.3482e-06	386.09	2.0252e-07	2.0821e-07	556.96	177.25	2.2162e-07	2.1581e-07	249.23	94.027	64.452	29.123	2.6643e-07	42.95	223.476	2.836	87.582	-37.970	150.621	86.544	-39.384	-31.247	152.831	106.570	-34.864	-29.494	-26.007	-20.016	92.524	-24.613	-8191	255	
2203.211	1	1	0	0	0.18786	0.18259	0.15751	0.15043	0.3184	0.021139	0.23906	0.11471	0.25221	0.093732	0.13371	0.12116	0.14098	0.16855	0.20592	0.11563	-2.5083	-2.9958	-2.9979	-2.9458	-3.2708	-2.8854	-3.3396	-3.1542	-3.0062	-3.4562	-3.2708	-3.025	-3.3958	-3.0792	-3.0917	-3.2771	58.544	212.888	22.302	244.565	203.106	203.219	150.631	240.743	20.113	264.911	-45.503	19.540	250.015	272.833	310.286	199.512	0.0001533	0.00022304	5.7915e-05	430.29	1.7927e-06	2.387e-06	614.66	193.11	2.0408e-06	1.9327e-06	280.58	102.53	72.103	31.618	1.7552e-06	47.465	2.593e-05	2.1075e-05	6.2931e-06	406.29	2.1113e-07	2.4645e-07	578.54	183.06	2.1617e-07	2.4413e-07	254.24	95.547	65.575	29.635	2.6459e-07	43.424	231.501	-19.225	43.497	-37.876	144.794	77.690	-39.657	-31.513	127.647	105.070	-35.068	-29.416	-25.818	-19.950	87.093	-24.527	-8191	255	
2203.307	1	1	0	0	0.076613	0.11673	0.027146	0.093571	0.044537	0.070402	0.21177	0.14112	0.12179	0.20065	0.090907	0.13965	0.07651	0.39378	0.37517	0.27883	-2.4583	-3.1667	-2.9917	-3.0167	-3.4542	-3.1458	-3.1896	-3.4667	-2.9042	-3.1958	-3.3146	-2.7958	-3.3958	-3.275	-2.9292	-3.4875	257.404	267.145	35.554	-49.104	62.716	196.326	249.104	82.289	19.169	292.135	219.959	-5.742	-22.315	302.528	-11.726	-34.375	0.00016389	0.00029583	3.2585e-05	437.74	2.0518e-06	2.4032e-06	617.65	192.13	1.2265e-06	2.0237e-06	277.88	101.54	70.994	32.104	1.1751e-06	48.014	2.6408e-05	2.2714e-05	6.28e-06	412.91	2.0867e-07	2.6016e-07	582.71	182.7	2.2926e-07	2.576e-07	252.29	94.694	64.573	30.042	2.4704e-07	43.809	226.600	9.969	40.750	-37.673	125.144	72.206	-39.276	-31.336	152.902	111.434	-34.942	-29.286	-25.342	-19.880	83.585	-24.692	-8191	255	
2203.403	1	1	0	0	0.32236	0.066752	0.062371	0.26231	0.21603	0.064735	0.21438	0.26165	0.095003	0.11315	0.09264	0.14092	0.086913	0.15811	0.014438	0.19002	-2.6688	-3.2	-3.1917	-3.1042	-3.2458	-3.1792	-3.1333	-3.3854	-2.9125	-3.2604	-3.4354	-2.9021	-3.2542	-3.2521	-2.9729	-3.4271	155.373	120.500	168.220	241.257	71.645	301.030	228.094	281.602	300.399	140.115	-15.051	33.966	217.099	199.667	305.967	268.676	0.00017114	0.00011972	5.2551e-05	430.17	9.7432e-07	2.4631e-06	606.63	187.12	1.7179e-06	1.5961e-06	268.27	98.393	67.506	31.95	1.608e-06	47.813	2.7218e-05	2.4184e-05	5.9591e-06	406.27	2.2956e-07	2.6397e-07	567.46	176.32	2.5366e-07	2.6386e-07	243.31	91.538	61.794	29.945	2.3902e-07	43.544	228.102	41.568	73.831	-37.740	117.667	58.054	-39.352	-31.239	147.713	63.308	-34.688	-29.230	-25.477	-20.015	101.058	-24.888	-8191	255	
2203.524	1	1	0	0	0.1122	0.069297	0.10427	0.095378	0.34123	0.24699	0.13451	0.23633	0.1863	0.041413	0.2417	0.027288	0.20948	0.16348	0.19343	0.14175	-2.5542	-3.05	-3.3542	-2.7104	-3.1312	-3.1479	-2.9271	-3.4625	-3.1292	-2.9521	-3.2458	-3.1688	-3.2917	-3.1437	-2.8812	-3.4896	-27.173	-26.315	-34.948	17.934	21.210	280.466	223.532	246.091	225.525	270.481	-16.431	278.540	144.317	-13.439	52.589	289.964	0.00016958	0.00021243	4.8911e-05	417.24	1.8582e-06	2.1826e-06	585.83	180.46	1.0064e-06	3.128e-06	260.14	95.913	65.763	31.572	1.721e-06	47.018	2.8935e-05	2.3432e-05	5.671e-06	394.63	2.4594e-07	2.4518e-07	554.05	170.77	2.6669e-07	2.4789e-07	236.78	89.522	60.144	29.63	2.3028e-07	42.971	231.557	-9.950	74.285	-37.394	114.112	67.691	-39.037	-30.996	90.827	93.493	-34.482	-28.774	-24.989	-19.923	91.893	-24.518	-8191	255	
2203.620	1	1	0	0	0.09365	0.12968	0.1606	0.27311	0.17946	0.13361	0.12399	0.1948	0.22844	0.16335	0.29575	0.042412	0.11139	0.22501	0.078858	0.17282	-2.6	-3.1312	-3.2729	-2.6896	-3.2708	-3.2125	-2.9521	-3.4938	-3.0062	-2.975	-3.4208	-2.9854	-3.2417	-3.2146	-2.8729	-3.4208	-34.734	262.086	-19.538	235.273	14.133	-31.238	217.562	-23.606	272.087	91.965	215.584	250.854	101.122	-37.606	-46.354	309.705	0.00015329	0.0002573	6.4703e-05	405.14	1.8726e-06	1.9071e-06	570.11	174.32	2.0533e-06	1.7887e-06	252.2	93.33	64.323	31.091	2.7907e-06	46.399	3.0624e-05	2.2318e-05	5.3876e-06	382.55	2.67e-07	2.3389e-07	537.04	164.63	2.683e-07	2.3204e-07	228.42	86.761	58.577	29.141	2.2124e-07	42.239	225.090	-5.579	75.222	-37.626	125.434	51.061	-38.834	-30.779	161.451	102.756	-34.374	-28.769	-25.196	-19.893	130.092	-24.642	-8191	255	
2203.716	1	1	0	0	0.10069	0.28346	0.079131	0.31097	0.085395	0.061398	0.38828	0.32572	0.054849	0.10336	0.10704	0.11106	0.22287	0.12529	0.1661	0.19003	-2.7125	-2.9792	-3.1917	-2.9542	-3.2812	-3.1917	-3.05	-3.3812	-3.3688	-2.9292	-3.4188	-3.1521	-3.0812	-3.425	-2.9771	-3.2958	94.820	-23.778	160.557	248.675	290.898	38.582	306.178	292.229	-4.469	135.615	231.103	-3.112	-34.810	25.555	265.100	164.992	0.00017601	0.00019235	6.5885e-05	395.37	1.8634e-06	2.7934e-06	554.92	167.25	1.0686e-06	2.229e-06	241.28	89.834	61.994	30.562	5.9282e-07	45.242	2.9424e-05	2.0855e-05	5.1816e-06	373.4	2.5509e-07	2.1757e-07	521.8	158.46	2.521e-07	2.2023e-07	219.61	83.82	56.739	28.588	2.1035e-07	41.36	231.963	7.698	68.698	-37.266	137.892	84.939	-39.135	-30.652	236.476	133.454	-34.465	-28.837	-24.708	-19.984	60.216	-24.618	-8191	255	
2203.812	1	1	0	0	0.19454	0.14841	0.24862	0.20089	0.27061	0.18414	0.21558	0.16896	0.21192	0.22775	0.13707	0.04535	0.081178	0.18608	0.36356	0.036625	-2.775	-3.0958	-3.2833	-3.0438	-3.0854	-3.1708	-3.0125	-3.1688	-3.2021	-2.9313	-3.2833	-3.1875	-3.0667	-3.2104	-3.0479	-3.2854	165.558	139.108	-24.883	307.551	178.205	6.320	251.978	132.924	252.145	20.060	123.234	-20.264	95.662	44.534	93.768	-43.208	0.00016282	0.0002437	5.8154e-05	381.73	2.0509e-06	1.7448e-06	542.56	163.15	2.6477e-06	1.9158e-06	238.78	88.581	61.212	30.317	1.9961e-06	45.459	2.8786e-05	1.9678e-05	5.0306e-06	361.49	2.3758e-07	2.027e-07	510.15	154.52	2.3959e-07	2.1023e-07	216.54	82.684	55.885	28.36	2.1223e-07	41.357	226.684	-27.810	102.950	-37.205	88.532	83.031	-38.937	-30.589	118.674	90.251	-34.362	-28.854	-24.677	-19.557	94.980	-24.347	-8191	255	
2203.908	1	1	0	0	0.21496	0.10298	0.1898	0.23052	0.20278	0.060647	0.061034	0.12434	0.16339	0.19313	0.20047	0.16629	0.071248	0.24142	0.048773	0.1059	-2.7833	-2.9625	-3.2729	-3.0438	-3.0792	-3.3104	-2.8167	-3.2667	-3.1417	-2.8375	-3.3521	-3.2354	-3.0521	-3.2375	-2.9792	-3.2271	2.442	-17.213	256.219	244.999	156.656	54.414	242.708	270.173	-24.796	6.628	294.151	273.855	267.064	-3.992	138.545	-10.281	0.00016198	0.00019532	4.6687e-05	377.07	1.126e-06	1.961e-06	537.26	161.55	1.5238e-06	2.6031e-06	236.92	88.82	60.888	30.473	1.5099e-06	45.491	2.6982e-05	1.9108e-05	5.3924e-06	358.06	2.3514e-07	1.9951e-07	506.68	153.33	2.3243e-07	2.0211e-07	215.94	82.86	55.939	28.494	2.333e-07	41.428	235.931	-4.553	41.693	-36.912	135.486	85.756	-39.046	-30.878	155.011	105.125	-34.518	-28.856	-24.717	-19.697	168.687	-24.272	-8191	255	
2204.005	1	1	0	0	0.079703	0.35092	0.032768	0.12262	0.094372	0.15727	0.026351	0.15216	0.11385	0.16993	0.26263	0.23173	0.12006	0.15219	0.076816	0.14561	-2.8563	-2.7521	-3.4375	-3.1917	-3.0208	-3.4125	-3.0812	-3.1437	-3.0833	-2.8563	-3.0604	-3.3333	-2.8479	-3.5354	-2.9062	-3.125	-29.569	111.546	146.007	-38.143	30.057	193.670	-16.443	211.815	6.663	253.332	220.444	230.158	3.069	38.422	-19.903	268.899	0.00015964	0.00014962	4.2166e-05	385.91	8.9461e-07	2.4853e-06	556.98	168.26	1.601e-06	1.593e-06	248.07	92.588	63.755	30.926	1.0191e-06	46.021	2.6597e-05	1.9254e-05	6.0882e-06	366.88	2.3216e-07	2.0817e-07	524.21	160.04	2.3589e-07	2.2301e-07	225.22	85.908	58.264	29.014	2.7766e-07	41.893	227.496	16.649	124.123	-37.270	81.131	49.366	-39.084	-30.517	199.033	145.295	-34.543	-28.662	-24.722	-19.764	93.112	-24.709	-8191	255	
2204.099	1	1	0	0	0.060899	0.25208	0.10803	0.04935	0.20499	0.10366	0.17037	0.16652	0.12379	0.11009	0.12195	0.25051	0.015327	0.20825	0.52802	0.17612	-3.0396	-2.7542	-3.2479	-3.1167	-2.7146	-3.5604	-2.9917	-3.0917	-3.2896	-2.8896	-3.2667	-3.125	-2.9583	-3.4021	-3.1771	-2.9417	43.751	-3.960	3.759	178.098	54.748	66.404	289.274	271.661	217.815	180.930	200.381	294.688	2.779	102.699	70.942	282.325	0.00015974	0.00026344	9.1273e-05	403.42	1.5929e-06	1.7328e-06	574.92	173.58	2.8772e-06	1.7134e-06	254.62	94.569	65.541	31.317	1.6237e-06	46.761	2.8e-05	2.0841e-05	6.9718e-06	382.52	2.4905e-07	2.2871e-07	541.36	165.36	2.4127e-07	2.3848e-07	231.78	88	59.759	29.396	3.0104e-07	42.668	233.132	-0.311	69.614	-37.315	86.272	68.092	-39.264	-30.859	140.738	100.568	-34.654	-28.675	-25.161	-19.938	87.272	-24.297	-8191	255	
2204.195	1	1	0	0	0.11727	0.040559	0.14063	0.2401	0.16375	0.11864	0.27236	0.20579	0.081817	0.22266	0.077933	0.18961	0.28422	0.18695	0.18859	0.11101	-3.0042	-3.0333	-3.0979	-3.2583	-2.8896	-3.3812	-3.1688	-3.0771	-3.2583	-3.1771	-3.3854	-3.3875	-3.0125	-3.325	-3.2812	-3.0396	294.566	67.237	284.269	283.146	197.107	-22.837	292.627	281.348	84.910	188.952	204.305	-21.960	271.517	309.374	166.604	241.086	0.00017411	0.00020505	6.8448e-05	415.51	9.8704e-07	2.791e-06	589.6	179.52	1.1021e-06	1.6552e-06	261.79	97.251	66.752	31.666	1.3106e-06	47.182	2.7992e-05	2.371e-05	7.5455e-06	393.52	2.549e-07	2.5622e-07	556.02	170.39	2.4471e-07	2.6641e-07	237.72	90.446	61.241	29.838	3.0821e-07	43.28	226.340	-29.587	69.046	-37.509	124.218	109.203	-39.219	-31.160	143.772	100.349	-34.439	-28.867	-25.423	-19.830	111.874	-24.520	-8191	255	
2204.316	1	1	0	0	0.10599	0.026125	0.18036	0.064441	0.24857	0.14922	0.15779	0.16318	0.046714	0.052192	0.36226	0.073093	0.08251	0.1931	0.27748	0.039852	-3.0229	-3.0438	-3.1708	-3.3479	-3.0292	-3.2333	-3.2333	-3.1604	-3.5187	-2.9729	-2.9938	-3.4938	-2.9771	-3.3146	-3.1208	-2.9458	207.045	87.120	310.454	-1.374	265.113	-38.594	-38.218	309.978	-0.669	139.810	148.991	269.825	202.296	278.682	102.274	-19.503	0.00017508	0.0002702	8.1251e-05	422.77	2.0012e-06	3.9148e-06	596.81	181.93	1.2794e-06	1.5288e-06	264.08	97.681	67.177	31.949	2.0811e-06	47.666	2.8679e-05	2.626e-05	7.6443e-06	401.67	2.5453e-07	2.9235e-07	562.78	172.87	2.5938e-07	2.9829e-07	240.07	91.114	61.428	29.976	2.892e-07	43.504	219.106	15.008	36.235	-37.559	93.966	67.324	-39.395	-31.108	112.088	121.610	-34.489	-28.955	-25.000	-20.021	75.460	-24.372	-8191	255	
2204.412	1	1	0	0	0.26689	0.10695	0.14459	0.15314	0.13099	0.13342	0.18926	0.024957	0.098187	0.26755	0.21385	0.29188	0.087518	0.30624	0.15354	0.28458	-2.8542	-3.075	-2.9917	-3.4417	-2.8917	-3.1208	-3.2854	-3.15	-3.2375	-3.35	-3	-3.5438	-2.9104	-3.2167	-3.2833	-2.8896	177.449	216.023	138.403	70.722	131.878	-23.436	201.919	-35.881	15.777	-40.279	275.972	-36.808	-48.057	-7.407	259.484	172.442	0.00015957	9.4025e-05	7.1124e-05	421.75	1.2602e-06	1.5627e-06	585.33	176.87	2.363e-06	1.9126e-06	254.31	94.454	65.141	31.51	8.4516e-07	46.57	3.0043e-05	2.7723e-05	7.2789e-06	398	2.5836e-07	2.9899e-07	553.99	168.37	2.6571e-07	3.0081e-07	231.52	87.895	59.471	29.639	2.6641e-07	42.487	226.508	27.662	62.036	-37.443	111.435	94.597	-39.198	-30.754	134.439	121.696	-34.211	-28.717	-25.018	-20.014	129.998	-24.382	-8191	255	
2204.484	1	1	0	0	0.32615	0.12537	0.23427	0.13923	0.061661	0.15393	0.21892	0.24209	0.22627	0.11012	0.24961	0.18239	0.16393	0.25073	0.13913	0.08737	-2.7958	-3.2354	-2.9292	-3.2375	-3.0083	-3.1708	-3.3458	-2.8	-3.4333	-2.9583	-3.0354	-3.5292	-2.9021	-3.0979	-3.4167	-2.9854	-24.165	-24.534	291.644	292.581	236.215	166.103	-30.336	281.608	165.255	164.066	185.125	208.150	305.762	296.828	266.634	269.975	0.00016879	0.00028939	4.3482e-05	403.66	1.0775e-06	1.7045e-06	568.03	170.32	1.935e-06	2.1148e-06	248.67	92.656	64.198	31.282	1.3345e-06	46.145	3.0655e-05	2.7126e-05	6.5648e-06	381.28	2.7459e-07	2.8434e-07	535.37	162.14	2.7737e-07	2.7913e-07	226.38	86.206	58.427	29.32	2.5747e-07	42.161	224.530	-3.650	77.402	-37.507	105.225	52.151	-39.012	-30.888	187.674	86.766	-34.473	-28.816	-24.673	-19.827	86.324	-24.484	-8191	255	
2204.604	1	1	0	0	0.22263	0.11167	0.1633	0.12301	0.21562	0.028325	0.28407	0.28291	0.17351	0.065366	0.093575	0.06062	0.12807	0.25343	0.1325	0.18643	-2.9854	-3.1958	-2.8146	-3.3542	-2.8812	-3.0708	-3.3958	-2.9771	-3.2771	-3.3875	-2.9854	-3.5229	-3.0604	-3.1417	-3.5187	-2.9562	206.083	307.503	210.980	-14.094	114.748	121.370	-46.029	124.166	52.625	113.625	307.934	26.321	-24.324	281.487	66.764	113.000	0.00016964	6.9084e-05	4.887e-05	394.96	2.2596e-06	2.8791e-06	562.25	168.84	8.0997e-07	2.3489e-06	245.19	91.796	63.3	31.266	2.0501e-06	46.301	3.1608e-05	2.5342e-05	6.272e-06	375.35	2.8621e-07	2.7713e-07	529.32	160.08	2.9031e-07	2.7031e-07	223.69	85.855	57.954	29.321	2.4307e-07	42.292	233.382	-36.884	99.129	-37.417	106.890	99.317	-39.056	-30.861	121.116	141.370	-34.060	-28.476	-24.729	-19.997	78.990	-24.157	-8191	255	
2204.700	1	1	0	0	0.20695	0.12956	0.13814	0.16306	0.12974	0.10835	0.092547	0.22675	0.17341	0.12503	0.17043	0.035476	0.1897	0.27681	0.19111	0.16581	-2.5229	-3.2146	-2.8771	-3.3792	-3.1229	-2.9875	-3.4167	-3.1479	-3.1396	-3.35	-3.1562	-3.0875	-3.4354	-2.975	-3.275	-3.1146	279.737	76.006	277.180	145.741	37.338	89.433	208.672	262.507	225.178	72.857	274.228	231.950	-23.911	276.339	66.529	264.006	0.00017342	0.00024353	3.9164e-05	393.13	1.4119e-06	1.0759e-06	555.73	166.49	1.5669e-06	1.5869e-06	243.69	91.135	63.086	30.797	1.3275e-06	45.792	3.2613e-05	2.3437e-05	6.1265e-06	373.22	2.914e-07	2.5333e-07	525.61	158.03	2.8618e-07	2.4356e-07	221.34	84.82	57.425	28.921	2.2385e-07	41.83	225.178	-4.528	39.554	-37.042	126.830	70.935	-38.794	-30.567	141.135	97.579	-34.252	-28.650	-24.703	-19.941	121.017	-24.318	-8191	255	
2204.797	1	1	0	0	0.2723	0.011965	0.051241	0.11167	0.15635	0.11871	0.097158	0.26412	0.11985	0.18696	0.10466	0.12957	0.11067	0.19581	0.16367	0.072364	-2.7271	-3.1729	-3.0062	-3.4708	-3.025	-3.0292	-3.4958	-2.9104	-3.1083	-3.4646	-2.9021	-3.1958	-3.3833	-3.0938	-3.1896	-3.0625	193.306	215.228	-7.245	179.023	58.627	198.763	250.104	51.207	256.320	181.999	249.528	282.008	194.110	247.752	54.348	304.558	0.00016598	0.00013972	5.4417e-05	386.83	1.2927e-06	2.4008e-06	549.23	163.53	1.693e-06	1.5173e-06	238.48	89.314	61.797	30.208	1.8131e-06	45.223	3.1098e-05	2.1682e-05	5.5776e-06	367.27	2.6924e-07	2.4055e-07	517.12	155.72	2.6807e-07	2.2991e-07	217.02	83.283	56.147	28.43	2.2202e-07	41.244	225.121	-21.993	41.665	-37.393	103.189	65.414	-39.061	-30.560	172.318	85.421	-34.303	-28.388	-24.837	-19.889	111.322	-24.657	-8191	255	
2204.893	1	1	0	0	0.39305	0.12067	0.1259	0.20091	0.14311	0.14864	0.25951	0.1255	0.22592	0.056162	0.20631	0.12015	0.18544	0.23095	0.039973	0.12266	-2.7083	-3.2708	-3.0187	-3.2417	-3.0312	-2.9396	-3.4167	-3.0271	-3.2125	-3.5729	-2.8979	-3.2625	-3.2396	-2.9562	-3.375	-3.1562	258.001	246.082	53.802	-10.589	21.437	238.024	254.937	235.334	-38.358	225.054	55.039	264.899	233.978	234.645	45.431	310.161	0.00016393	0.00028722	5.0566e-05	382.05	1.8847e-06	1.7531e-06	541.7	160.4	2.809e-06	1.9181e-06	233.7	88.434	61.08	30.224	1.2075e-06	45.091	2.9165e-05	2.0929e-05	5.6987e-06	361.38	2.4958e-07	2.2802e-07	509.32	152.08	2.5717e-07	2.2361e-07	213.33	82.419	55.642	28.314	2.3516e-07	41.225	219.962	2.329	75.771	-37.048	90.458	67.783	-38.823	-30.818	132.894	95.156	-34.383	-28.754	-24.606	-19.637	137.151	-24.398	-8191	255	
2205.013	1	1	0	0	0.27076	0.11127	0.27836	0.21528	0.03056	0.17048	0.10942	0.21094	0.22345	0.12294	0.1934	0.10772	0.28675	0.12888	0.068933	0.36736	-2.6208	-3.4896	-2.925	-3.2313	-3.3167	-2.9792	-3.5875	-3.2167	-3.0229	-3.5208	-2.9292	-3.2604	-3.3229	-2.9542	-3.3146	-3.1833	-22.543	269.954	236.257	43.956	285.957	-25.736	254.370	177.521	181.625	27.835	-19.092	174.507	302.105	299.338	160.853	212.497	0.0001527	0.00013917	7.5832e-05	379.81	1.7357e-06	2.2558e-06	540.81	157.68	1.4131e-06	1.5323e-06	233.88	87.872	60.308	30.077	5.4834e-07	45.209	2.7588e-05	1.9761e-05	6.0189e-06	360.4	2.3595e-07	2.1875e-07	508.66	150.5	2.5033e-07	2.0664e-07	212.16	81.844	55.134	28.2	2.5307e-07	41.328	224.384	-35.956	72.150	-37.303	158.962	55.373	-38.706	-30.638	163.408	121.367	-34.048	-28.811	-24.653	-19.869	120.555	-24.331	-8191	255	
2205.108	1	1	0	0	0.26172	0.1181	0.16614	0.093084	0.17158	0.1926	0.1548	0.16402	0.20628	0.19871	0.17398	0.24452	0.18388	0.19593	0.3556	0.28256	-2.6063	-3.2562	-2.9271	-3.2021	-3.3563	-2.9875	-3.4479	-3.2833	-2.9562	-3.5375	-3.1521	-3.1063	-3.5021	-2.8208	-3.3917	-3.3771	296.806	181.946	139.390	283.610	155.381	115.970	64.730	65.397	175.350	-23.855	298.344	211.329	310.021	-12.757	301.602	286.345	0.0001674	0.00019046	6.9369e-05	378.12	1.2212e-06	1.8098e-06	533.86	157.25	2.3413e-06	2.6604e-06	233.74	87.619	60.089	30.078	7.6635e-07	45.28	2.7158e-05	1.9192e-05	6.4339e-06	357.82	2.2793e-07	2.1815e-07	504.88	149.34	2.3525e-07	1.9834e-07	212.14	81.543	54.804	28.107	2.6871e-07	41.387	230.794	8.973	88.387	-37.280	109.499	58.308	-38.866	-30.494	105.411	102.061	-33.973	-28.760	-24.883	-19.999	78.234	-24.531	-8191	255	
2205.204	1	1	0	0	0.014055	0.16115	0.14894	0.081942	0.12418	0.22866	0.17604	0.045704	0.083331	0.22284	0.25734	0.29806	0.062878	0.31971	0.063418	0.32908	-2.2729	-3.4688	-3.0646	-3.0021	-3.5583	-2.9896	-3.1479	-3.3604	-3.0229	-3.2333	-3.2583	-3.2229	-3.3958	-3.1937	-3.2812	-3.4375	55.453	74.637	-40.477	-35.320	60.860	106.631	-8.761	63.849	230.905	190.658	57.804	188.865	184.627	157.301	37.750	140.553	0.00013923	0.00016868	7.1901e-05	376.59	1.4763e-06	1.7136e-06	533.34	156.64	2.0748e-06	1.5174e-06	230.25	86.775	59.725	29.763	1.3461e-06	44.658	2.7189e-05	1.9987e-05	6.683e-06	357.57	2.2067e-07	2.2626e-07	504.52	148.51	2.3147e-07	2.3027e-07	209.87	80.583	54.25	27.887	2.642e-07	40.801	228.156	1.449	77.678	-37.393	106.328	77.896	-39.016	-30.651	155.096	101.148	-34.163	-28.562	-24.171	-19.849	101.503	-24.449	-8191	255	
2205.300	1	1	0	0	0.051382	0.17291	0.11029	0.14954	0.30391	0.20647	0.17434	0.061509	0.25335	0.030562	0.26022	0.21004	0.13902	0.15596	0.22034	0.24429	-2.6875	-3.4958	-3.2938	-3.0812	-3.6417	-2.9271	-3.1854	-3.3271	-3.1854	-3.3479	-3.2521	-2.9479	-3.2104	-3.0708	-3.3187	-3.4479	254.335	266.935	38.878	5.632	162.105	-1.600	-27.873	189.989	99.284	83.796	163.781	-30.830	57.259	-22.271	275.263	-21.577	0.0001623	0.00010029	5.647e-05	373.97	1.8522e-06	1.5409e-06	529.77	155.51	1.5296e-06	2.992e-06	232.49	86.29	59.369	29.7	1.0555e-06	45.06	2.5791e-05	2.0624e-05	6.7195e-06	354.04	2.0874e-07	2.3833e-07	499.43	147.77	2.1737e-07	2.3631e-07	209.63	80.203	54.223	27.836	2.601e-07	40.907	223.342	21.799	83.650	-37.186	146.436	89.964	-38.707	-30.753	194.303	121.901	-34.366	-28.842	-25.220	-19.989	98.503	-24.463	-8191	255	
2205.396	1	1	0	0	0.097312	0.14253	0.16754	0.39047	0.066011	0.12209	0.13554	0.2311	0.20514	0.037572	0.082729	0.073591	0.2148	0.17021	0.24781	0.26827	-2.6063	-3.3125	-3.1917	-3.0979	-3.1958	-3.1229	-3.1437	-3.2854	-3.1667	-3.3875	-3.1333	-3.0208	-3.3292	-3.1	-3.2417	-3.3021	-27.876	267.984	38.533	165.414	81.361	122.570	246.747	152.578	178.920	78.421	259.726	1.935	207.821	272.356	165.652	237.376	0.00017562	0.00010694	3.1672e-05	375.45	2.0758e-06	1.4267e-06	527.71	156.62	6.0357e-07	2.0594e-06	230.82	86.415	59.653	29.714	3.201e-07	45.022	2.6195e-05	2.3474e-05	6.3398e-06	355.08	2.1582e-07	2.6259e-07	500.29	148.4	2.2896e-07	2.5717e-07	209.97	80.388	54.449	27.844	2.4909e-07	41.076	230.027	18.917	63.635	-36.868	128.951	96.570	-38.806	-30.862	55.189	128.716	-34.195	-28.743	-24.537	-19.855	197.701	-24.272	-8191	255	
2205.492	1	1	0	0	0.11201	0.22821	0.11385	0.29658	0.17479	0.050163	0.28835	0.25961	0.13257	0.080312	0.069902	0.094262	0.16913	0.32718	0.16223	0.14225	-2.6333	-3.1417	-3.3396	-2.9354	-3.1583	-3.1417	-3.1125	-3.3354	-2.9875	-3.15	-3.375	-3.0167	-3.425	-3.2375	-3.0708	-3.3292	170.196	177.393	58.059	288.504	270.102	306.548	23.665	298.002	5.808	221.593	224.222	264.258	270.775	-19.813	49.846	156.021	0.00015153	7.5022e-05	5.7098e-05	371.89	1.9043e-06	1.8616e-06	530.05	154.95	1.3927e-06	1.5684e-06	230.78	86.75	59.695	29.791	1.9021e-06	45.293	2.6859e-05	2.44e-05	6.0138e-06	352.65	2.2732e-07	2.6341e-07	499.73	147.29	2.393e-07	2.576e-07	209.91	80.658	54.424	27.989	2.3631e-07	41.229	234.605	-2.307	54.522	-37.331	114.366	114.372	-38.891	-30.589	152.023	94.373	-34.229	-28.826	-24.710	-19.674	120.326	-24.547	-8191	255	
2205.613	1	1	0	0	0.15827	0.30143	0.19368	0.25178	0.099067	0.25142	0.25269	0.09455	0.20415	0.081078	0.13966	0.055721	0.23884	0.14769	0.13185	0.18631	-2.6937	-2.9833	-3.2896	-3.0563	-3.0979	-3.0542	-2.9521	-3.3479	-3.0312	-3.1333	-3.5187	-2.7021	-3.2354	-3.1979	-3.0333	-3.5833	37.621	-26.765	223.629	61.164	16.591	37.559	286.301	249.113	-31.130	184.995	223.281	33.740	-40.829	-7.169	3.944	25.304	0.00014715	0.00010767	2.3946e-05	373.52	1.4437e-06	2.3616e-06	526.84	155.17	9.894e-07	2.3261e-06	228.31	86.069	59.653	29.713	8.3192e-07	44.925	2.8571e-05	2.3873e-05	5.8544e-06	354.43	2.5196e-07	2.5745e-07	498.63	146.86	2.5994e-07	2.5153e-07	208.05	80.137	54.498	27.864	2.3014e-07	40.988	230.200	-46.933	57.869	-37.140	146.880	74.019	-38.650	-30.711	193.076	112.181	-34.353	-28.730	-25.245	-20.023	169.662	-24.396	-8191	255	
2205.709	1	1	0	0	0.0047502	0.11948	0.25187	0.12593	0.12622	0.16346	0.20688	0.11592	0.11618	0.11796	0.36206	0.44859	0.14562	0.3476	0.002543	0.093302	-2.5417	-3.0583	-3.4479	-2.9417	-3.3	-3.3479	-2.9479	-3.6312	-3	-3.3583	-3.2146	-3.0187	-3.4271	-3.2375	-3.0062	-3.5	253.519	203.700	41.937	273.770	84.130	91.754	210.124	182.348	187.552	-25.533	260.504	297.777	307.541	-42.825	180.000	229.152	0.00016662	0.00010016	6.2967e-05	373.13	1.7578e-06	3.1599e-06	526.74	155.04	2.7737e-06	2.6074e-06	227.3	85.976	59.519	29.976	7.7864e-07	45.163	3.0008e-05	2.1857e-05	5.5433e-06	352.72	2.614e-07	2.3635e-07	497.06	146.69	2.6952e-07	2.3803e-07	207.45	80.126	54.508	28.041	2.2187e-07	41.281	233.591	285.155	62.017	-37.082	119.009	60.277	-38.803	-30.357	133.626	88.476	-34.247	-28.937	-24.801	-19.930	116.967	-24.414	-8191	255	
2205.781	1	1	0	0	0.13926	0.12617	0.16331	0.048286	0.24238	0.14904	0.34169	0.11766	0.13686	0.091804	0.26635	0.020356	0.069821	0.31521	0.11091	0.21295	-2.4938	-3.0479	-3.2771	-2.9313	-3.3063	-3.3333	-3.0521	-3.4333	-3.2687	-2.9479	-3.5542	-3.1854	-3.0646	-3.3229	-2.8146	-3.4521	154.959	240.996	154.953	269.513	69.186	180.895	253.572	292.510	91.668	167.237	277.131	-32.448	309.016	-19.398	259.477	37.900	0.0001462	0.00021186	4.8706e-05	371.76	2.998e-06	1.7339e-06	527.49	153.95	7.3087e-07	1.6014e-06	229.53	86.336	60.033	30.258	2.055e-06	45.231	2.9747e-05	2.1253e-05	5.1688e-06	352.72	2.5859e-07	2.2947e-07	498.89	146.42	2.6412e-07	2.3267e-07	207.92	80.361	54.597	28.296	2.21e-07	41.428	233.186	-6.155	41.307	-37.219	91.655	74.357	-38.954	-30.694	73.480	88.675	-34.278	-28.765	-25.137	-20.168	113.306	-24.541	-8191	255	
2205.877	1	1	0	0	0.10611	0.19414	0.31465	0.23417	0.075405	0.23289	0.1611	0.20965	0.25888	0.23288	0.053573	0.15545	0.12546	0.0086981	0.24263	0.24914	-2.7646	-3.0062	-3.3458	-2.9542	-3.15	-3.4833	-2.9062	-3.2188	-3.2479	-2.9021	-3.2646	-3.225	-3.0125	-3.3708	-3.0354	-3.0083	271.026	252.136	107.506	228.298	305.837	16.398	228.082	293.124	44.676	180.983	82.533	261.213	161.109	93.582	55.657	263.473	0.00015458	0.00021077	3.7144e-05	375.37	1.3641e-06	2.7057e-06	531.26	155.4	2.0274e-06	1.6143e-06	230.98	86.963	60.068	29.925	1.8955e-06	45.437	2.9525e-05	2.1469e-05	5.4325e-06	355.94	2.6027e-07	2.2565e-07	500.89	147.88	2.5958e-07	2.3194e-07	210.27	81.034	54.868	28.008	2.3413e-07	41.416	225.653	-22.866	41.035	-37.208	111.684	89.997	-39.013	-30.898	134.708	98.429	-34.101	-28.782	-25.127	-20.040	121.038	-24.550	-8191	255	
2205.996	1	1	0	0	0.023665	0.084307	0.050471	0.037995	0.13895	0.16049	0.13429	0.28068	0.37206	0.22582	0.18835	0.33541	0.051783	0.23844	0.17552	0.19137	-2.9875	-2.7583	-3.3104	-3.1479	-3.1104	-3.4646	-3.025	-3.3583	-3.2583	-2.9125	-3.4792	-3.2042	-3.0042	-3.4896	-3.1312	-3.0563	270.169	22.634	258.269	102.366	-22.376	265.638	291.065	281.056	254.006	158.289	244.279	287.660	227.972	-12.722	62.335	289.036	0.00016279	0.00020774	6.6417e-05	379.68	1.3897e-06	2.1416e-06	534.62	157.47	2.2633e-06	1.7746e-06	233.3	87.372	60.692	29.976	1.4818e-06	45.435	2.9078e-05	2.0841e-05	5.838e-06	359.93	2.5595e-07	2.2143e-07	505.57	149.77	2.5628e-07	2.3254e-07	212.48	81.815	55.564	28.129	2.6491e-07	41.433	228.830	5.859	103.343	-37.331	97.470	90.722	-38.800	-30.806	145.017	103.467	-34.372	-28.965	-24.982	-20.169	158.558	-24.653	-8191	255	
2206.092	1	1	0	0	0.070571	0.13916	0.16714	0.20297	0.14873	0.16682	0.22781	0.12531	0.10631	0.15825	0.067712	0.046151	0.16025	0.079694	0.16766	0.12306	-3.0729	-3.0458	-3.3583	-3.1542	-2.8771	-3.4417	-2.9313	-3.2375	-3.4688	-2.9437	-3.3271	-3.2958	-3.1375	-3.5104	-3.0646	-3.4396	55.389	202.970	-13.313	185.753	62.118	234.033	-48.374	301.264	22.613	72.597	246.929	182.150	-40.434	177.427	302.794	209.401	0.00017244	0.00026703	4.6667e-05	385.07	2.2814e-06	9.8607e-07	544.14	160.74	1.8514e-06	1.2965e-06	237.33	89.045	61.332	29.963	1.7817e-06	45.629	2.969e-05	2.2022e-05	6.699e-06	365.18	2.7006e-07	2.2818e-07	513.25	152.22	2.637e-07	2.3802e-07	215.64	82.845	55.987	28.113	3.0672e-07	41.647	224.624	9.321	60.112	-36.858	118.396	137.540	-38.860	-30.501	115.613	105.684	-34.409	-28.535	-24.989	-19.910	88.941	-24.748	-8191	255	
2206.188	1	1	0	0	0.1517	0.19052	0.19235	0.084324	0.32461	0.15158	0.15286	0.14036	0.18393	0.18686	0.03454	0.3378	0.27804	0.10955	0.17315	0.067225	-2.8312	-2.8771	-3.2687	-3.2083	-3.0917	-3.275	-3.1146	-2.9146	-3.2188	-3.0167	-3.2729	-3.3292	-2.9938	-3.4125	-3.175	-3.0021	90.555	196.982	86.929	180.177	148.280	234.705	94.556	19.689	200.606	211.989	138.607	273.105	66.873	-25.045	67.280	104.378	0.00015819	0.00024814	3.6933e-05	388.41	1.769e-06	1.4644e-06	543.95	160.49	1.3225e-06	3.1248e-06	238.07	88.879	60.469	29.824	1.8469e-06	45.686	2.9408e-05	2.328e-05	7.6352e-06	368.39	2.6962e-07	2.4331e-07	514.96	152.42	2.6118e-07	2.5895e-07	215.57	82.767	55.599	28.093	3.127e-07	41.786	227.094	37.354	64.869	-37.572	104.998	78.707	-38.715	-30.625	137.833	130.125	-33.912	-28.798	-24.743	-19.845	94.459	-24.396	-8191	255	
2206.284	1	1	0	0	0.19245	0.067362	0.14344	0.17161	0.3814	0.16613	0.10118	0.10658	0.10442	0.091825	0.10007	0.085424	0.10229	0.076369	0.066969	0.044146	-2.9021	-3.0042	-3.1312	-3.4521	-2.9188	-3.2229	-3.3729	-3.0479	-3.4104	-3.0354	-3.3542	-3.3854	-2.975	-3.4833	-3.3792	-3.1667	89.051	129.295	107.150	122.856	4.155	103.617	16.084	308.339	289.384	42.810	125.537	213.250	292.812	32.567	155.370	169.000	0.00017175	0.0001523	8.1972e-05	379.59	2.2342e-06	2.14e-06	537.52	157.41	1.3926e-06	3.9374e-06	234.44	87.905	60.206	29.938	8.006e-07	45.65	2.9136e-05	2.432e-05	7.594e-06	360.41	2.4761e-07	2.6519e-07	507.39	149.8	2.441e-07	2.7149e-07	213.64	82.179	55.098	28.103	3.0474e-07	41.932	223.551	-1.058	70.764	-37.014	124.889	90.612	-39.003	-30.558	90.237	117.300	-34.288	-28.588	-24.918	-19.885	51.691	-24.460	-8191	255	
2206.405	1	1	0	0	0.04505	0.22665	0.14869	0.27633	0.11209	0.24553	0.15206	0.2355	0.16343	0.12127	0.14041	0.27157	0.11984	0.03034	0.21566	0.050265	-2.9042	-3.1583	-3.0167	-3.4437	-3.0042	-3.5167	-3.2687	-3.1375	-3.4125	-3.1937	-3.1229	-3.375	-2.9417	-3.2958	-3.1958	-2.9896	178.326	258.684	4.816	169.035	192.552	16.391	218.174	-21.064	298.048	199.804	197.922	47.811	168.518	62.438	7.270	2.442	0.00015045	0.00029045	3.7254e-05	374.25	1.8867e-06	1.6769e-06	529.34	156.56	1.3057e-06	2.1194e-06	232.32	86.679	59.668	29.476	3.5036e-07	45.109	2.8162e-05	2.6054e-05	7.2753e-06	355.01	2.419e-07	2.697e-07	501.02	148.57	2.3822e-07	2.7758e-07	211.62	80.936	54.515	27.654	2.7552e-07	41.198	230.792	25.129	42.861	-37.294	95.265	48.403	-38.806	-30.469	182.955	110.838	-34.225	-28.478	-24.919	-19.438	-32.155	-24.567	-8191	255	
2206.477	1	1	0	0	0.21153	0.25849	0.17673	0.075744	0.14263	0.24554	0.25167	0.15529	0.12225	0.13127	0.063615	0.10157	0.23367	0.16076	0.28316	0.080842	-3.0771	-2.9813	-3.2104	-3.4292	-3.025	-3.3812	-3.2146	-2.8792	-3.2604	-3.2104	-3.0417	-3.4625	-3.0229	-3.2375	-3.3229	-2.875	233.770	-9.940	125.636	227.440	180.662	77.950	-25.082	-42.061	92.010	202.018	-27.157	57.044	131.905	1.870	124.650	285.735	0.00016689	0.00032117	2.1983e-05	368.08	1.3041e-06	1.9303e-06	523.02	155.09	1.6057e-06	2.2159e-06	231.2	86.622	59.245	29.229	1.4576e-06	45.183	2.754e-05	2.628e-05	6.7162e-06	347.59	2.4674e-07	2.8827e-07	493.16	147.44	2.5023e-07	2.9088e-07	210.35	80.63	54.263	27.485	2.5907e-07	41.233	230.506	39.699	29.658	-37.242	124.627	79.658	-38.882	-30.641	162.456	87.905	-34.203	-28.659	-24.682	-19.902	96.472	-24.520	-8191	255	
2206.573	1	1	0	0	0.19176	0.16739	0.048229	0.18851	0.07823	0.11281	0.052151	0.18283	0.18213	0.22295	0.29886	0.12324	0.19266	0.04814	0.061204	0.16638	-3.0604	-3.2292	-3.1396	-3.4688	-2.8917	-3.1104	-3.4604	-3.1688	-3.3667	-3.2271	-2.9854	-3.6937	-2.9896	-3.2042	-3.2146	-3.0271	226.562	145.823	225.582	-17.115	-30.287	-48.472	99.881	116.725	248.546	6.729	271.915	7.041	-36.376	-24.625	257.784	242.323	0.00015343	0.00013287	5.7123e-05	367.03	1.794e-06	1.3681e-06	521.97	155.39	3.8054e-06	1.325e-06	231.77	86.747	59.413	29.306	2.0031e-06	45.164	2.9515e-05	2.6666e-05	6.7479e-06	347.05	2.7606e-07	2.8864e-07	492.82	147.94	2.7596e-07	2.9367e-07	210.55	80.667	54.347	27.545	2.5937e-07	41.18	229.362	-31.501	88.203	-37.160	153.859	75.440	-38.888	-30.523	134.471	134.356	-34.177	-28.529	-24.640	-19.882	122.520	-24.181	-8191	255	
2206.693	1	1	0	0	0.040444	0.1685	0.095082	0.12117	0.14473	0.12222	0.023333	0.1185	0.24012	0.076286	0.18018	0.082733	0.058599	0.24227	0.12791	0.056696	-2.7021	-3.2979	-3.0125	-3.3958	-2.9813	-3.0521	-3.5021	-2.8167	-3.2917	-3.2687	-2.9313	-3.3937	-3.25	-2.9458	-3.5083	-2.9583	192.631	216.743	131.095	117.840	218.645	-15.445	279.283	-48.554	242.203	111.837	273.914	176.943	310.361	242.076	219.152	33.369	0.00015888	0.00016377	4.8907e-05	365.03	1.6507e-06	3.7912e-06	522.27	155.21	1.4526e-06	1.5605e-06	232.98	86.835	59.584	29.035	1.5606e-06	44.844	3.1817e-05	2.5839e-05	6.6527e-06	345.76	2.9168e-07	2.7907e-07	492.07	147.81	2.942e-07	2.7347e-07	211.33	80.924	54.431	27.352	2.5061e-07	41.031	231.773	0.092	59.580	-37.298	126.936	62.091	-38.995	-30.845	169.548	68.447	-34.284	-28.703	-24.989	-19.570	100.925	-24.344	-8191	255	
2206.789	1	1	0	0	0.032681	0.33609	0.16462	0.17661	0.28812	0.03227	0.23859	0.21816	0.14192	0.16735	0.040478	0.27677	0.14491	0.34062	0.098237	0.18703	-2.9188	-3.0354	-2.8229	-3.3083	-2.9646	-3.0729	-3.4542	-3.0896	-3.275	-3.2604	-2.9354	-3.1521	-3.1479	-2.9667	-3.4625	-3.0083	184.140	109.752	112.168	73.349	247.867	145.429	211.442	-23.628	308.603	39.248	136.901	277.974	295.841	-47.867	22.072	180.020	0.00015966	0.00026727	5.1954e-05	362.58	1.5739e-06	1.6421e-06	519.77	155.17	1.8866e-06	2.0288e-06	229.82	85.931	59.484	29.095	1.7964e-06	44.904	3.263e-05	2.3865e-05	6.3074e-06	343.72	2.9814e-07	2.6039e-07	489.52	147.43	3.0094e-07	2.6081e-07	209.35	80.267	54.119	27.251	2.4314e-07	40.967	229.313	6.402	87.382	-37.130	142.699	73.404	-38.881	-30.673	129.130	52.041	-34.555	-28.722	-25.345	-19.735	93.921	-24.563	-8191	255	
2206.886	1	1	0	0	0.020131	0.11376	0.11622	0.068026	0.11827	0.33124	0.28142	0.046356	0.27287	0.058619	0.045495	0.041477	0.073747	0.23016	0.33795	0.068493	-2.7333	-3.2646	-2.8042	-3.3021	-3.3396	-2.9104	-3.4188	-3.0458	-3.2083	-3.3125	-2.9833	-3.3021	-3.1771	-2.9125	-3.3167	-3.0854	189.630	40.146	151.144	247.308	58.628	41.912	268.691	249.890	61.502	277.359	223.471	145.578	268.066	226.008	157.483	246.752	0.00014433	0.00027178	5.6188e-05	363.36	1.3424e-06	2.3798e-06	517.6	153.49	1.0293e-06	2.1227e-06	228.76	85.944	59.018	28.998	1.8819e-06	44.586	3.3017e-05	2.3746e-05	6.1505e-06	343.89	3.0007e-07	2.6105e-07	488.34	146.9	2.9772e-07	2.5776e-07	209.09	80.153	54.022	27.275	2.6116e-07	40.902	224.180	-29.508	61.402	-37.088	84.534	41.819	-38.858	-30.440	119.285	116.062	-34.484	-28.839	-24.733	-19.917	127.690	-24.398	-8191	255	
2207.005	1	1	0	0	0.21931	0.11409	0.12276	0.22724	0.22452	0.23036	0.31735	0.40779	0.22502	0.21757	0.068999	0.033419	0.13352	0.042135	0.090997	0.17126	-2.675	-3.2104	-2.975	-3.2042	-3.2438	-2.9458	-3.475	-2.7979	-3.1312	-3.3563	-3.0417	-3.2062	-3.3125	-2.8729	-3.2042	-3.1021	163.863	22.158	99.000	218.143	126.762	204.866	205.803	216.431	153.182	206.226	142.435	195.373	229.042	119.277	74.426	280.782	0.00015303	0.00024392	6.3125e-05	362.87	8.3033e-07	3.4564e-06	514.91	154.61	1.0117e-06	1.0205e-06	229.41	85.624	58.959	28.997	2.1913e-06	44.722	3.2232e-05	2.3699e-05	6.2829e-06	343.06	2.8213e-07	2.6163e-07	486.35	146.72	2.8372e-07	2.4618e-07	209.26	79.932	53.879	27.165	2.6407e-07	40.911	241.988	-9.244	100.330	-37.399	123.043	83.948	-38.977	-30.813	125.715	128.353	-34.682	-28.992	-24.777	-19.771	123.810	-24.465	-8191	255	
2207.078	1	1	0	0	0.39232	0.18825	0.12913	0.1817	0.011913	0.19479	0.091698	0.073781	0.16016	0.28027	0.33839	0.18964	0.018641	0.20988	0.2167	0.22266	-2.575	-3.3708	-2.9917	-3.175	-3.3688	-2.8958	-3.25	-2.95	-3.0729	-3.2583	-3.0208	-3.3042	-3.3875	-2.8104	-3.3167	-3.2208	154.064	198.167	2.763	8.539	1.049	36.382	-22.731	235.722	160.878	61.533	186.463	231.782	108.498	263.961	174.106	157.113	0.00016111	0.0001497	4.6948e-05	359.61	2.6632e-06	2.2136e-06	516.33	153.62	2.046e-06	2.1308e-06	230.39	85.783	58.841	28.864	1.6837e-06	44.612	3.1696e-05	2.2596e-05	6.8245e-06	341.35	2.7056e-07	2.5271e-07	487.5	146.32	2.816e-07	2.4549e-07	209.58	80.055	53.772	27.072	2.9182e-07	40.955	235.451	26.505	83.224	-36.828	106.623	78.609	-38.798	-30.736	142.396	73.384	-34.549	-28.755	-24.907	-19.775	168.434	-24.260	-8191	255	
2207.172	1	1	0	0	0.11365	0.15276	0.072896	0.10834	0.13262	0.16853	0.21367	0.055216	0.19208	0.19726	0.21755	0.081031	0.060613	0.14629	0.11684	0.18591	-2.4625	-3.2938	-2.9021	-3.125	-3.3458	-2.9083	-3.2417	-3.1667	-2.8917	-3.4583	-3.0792	-3.1375	-3.2708	-2.9083	-3.1458	-3.2625	248.242	-3.518	168.554	27.932	192.687	305.116	206.201	307.734	-10.668	-40.831	291.770	227.485	268.058	94.184	52.154	-15.227	0.00015359	0.00024453	6.1628e-05	358.45	1.7606e-06	2.6236e-06	516.71	153.44	1.546e-06	5.9276e-07	227.94	85.116	58.493	28.572	1.3073e-06	44.414	3.068e-05	2.2851e-05	7.3872e-06	340.31	2.6629e-07	2.4997e-07	485.91	145.71	2.7292e-07	2.4797e-07	208.51	79.408	53.483	26.803	3.1589e-07	40.464	227.875	24.253	79.739	-37.220	115.440	72.621	-39.027	-30.566	141.129	263.360	-34.245	-28.846	-25.114	-19.788	105.861	-24.310	-8191	255	
2207.293	1	1	0	0	0.4961	0.19355	0.22772	0.11888	0.15979	0.13341	0.15497	0.12087	0.085944	0.064872	0.019336	0.41772	0.047349	0.16014	0.16277	0.031247	-2.4875	-3.3396	-3.1437	-2.9458	-3.4521	-2.7938	-3.3375	-3.0854	-3.0292	-3.3354	-3.1417	-3.0708	-3.35	-2.9979	-3.2313	-3.3812	251.283	39.915	156.673	253.722	-39.768	19.988	261.166	197.537	140.992	74.266	145.192	-36.724	70.939	245.896	3.960	-21.138	0.00014464	0.00025828	4.8156e-05	356.68	2.5599e-06	2.5108e-06	510.42	152.55	1.0461e-06	1.8397e-06	227.62	84.533	57.85	28.515	1.3289e-06	43.965	3.0693e-05	2.322e-05	7.7319e-06	338.12	2.537e-07	2.6418e-07	482.4	144.66	2.6603e-07	2.6697e-07	207.06	78.815	52.929	26.682	3.1085e-07	40.287	223.319	13.554	56.087	-37.253	120.051	81.588	-38.795	-30.300	154.032	155.290	-34.410	-28.720	-24.763	-19.951	120.112	-24.409	-8191	255	
2207.389	1	1	0	0	0.15114	0.25393	0.0058829	0.20744	0.21744	0.19289	0.1017	0.14757	0.17751	0.38136	0.082306	0.2413	0.15298	0.024563	0.10362	0.21534	-2.4479	-3.3021	-3.0646	-2.9479	-3.3625	-2.9437	-3.1479	-3.3146	-2.8875	-3.2521	-3.1188	-3.1333	-3.3542	-3.0521	-3.2854	-3.4104	-5.943	-22.984	85.327	98.926	-19.400	27.105	242.018	212.884	-44.558	94.571	129.936	18.342	-26.614	285.358	-47.600	228.756	0.0001769	0.00019722	5.8742e-05	355.52	1.2432e-06	2.3393e-06	509.62	152.28	1.7378e-06	1.9421e-06	227.13	84.64	57.649	28.437	2.6862e-06	44.081	2.8985e-05	2.5526e-05	7.7815e-06	338.07	2.4316e-07	2.8714e-07	482.32	144.6	2.6436e-07	2.8909e-07	206.98	78.903	52.749	26.673	3.1518e-07	40.342	230.117	-42.339	81.949	-37.257	91.679	130.815	-39.010	-30.603	115.350	103.908	-34.079	-28.831	-24.744	-19.945	91.549	-24.567	-8191	255	
2207.485	1	1	0	0	0.25278	0.18973	0.11973	0.043372	0.17133	0.05787	0.10564	0.052854	0.095135	0.069035	0.018559	0.16686	0.1572	0.1107	0.1388	0.14836	-2.5646	-3.3896	-3.3063	-2.8063	-3.3104	-3.1104	-3.0438	-3.4458	-2.95	-3.2562	-3.3063	-3.0583	-3.2562	-3.1521	-2.9729	-3.55	308.551	-11.970	68.169	113.781	67.524	58.846	245.291	118.687	259.768	256.617	233.916	285.117	62.462	293.923	-10.571	291.231	0.00016637	0.00020279	4.6381e-05	356.47	1.1067e-06	1.9143e-06	510.54	152.05	1.5052e-06	3.1202e-06	226.05	84.824	58.138	28.507	1.2443e-06	44.053	2.9712e-05	2.7708e-05	7.5316e-06	337.17	2.5535e-07	3.0553e-07	482.48	144.39	2.674e-07	3.1021e-07	206.89	78.97	53.197	26.748	3.0144e-07	40.423	231.545	-17.824	126.825	-37.299	110.229	90.349	-38.776	-30.561	179.041	126.033	-34.271	-28.707	-24.972	-19.797	94.435	-24.395	-8191	255	
2207.581	1	1	0	0	0.16177	0.074204	0.21063	0.09959	0.19222	0.11998	0.14364	0.27648	0.28365	0.19285	0.30108	0.12629	0.24817	0.15122	0.060942	0.11145	-2.4938	-3.2021	-3.3229	-2.8917	-3.4313	-3.0333	-3.1521	-3.4917	-2.8042	-3.2583	-3.2812	-3.0146	-3.3542	-3.2	-2.8833	-3.4771	51.473	310.628	80.742	75.613	28.767	-1.950	-35.282	-28.981	9.096	230.902	266.067	-18.280	305.824	279.313	-5.422	204.780	0.00016001	0.00017006	6.6509e-05	357	1.1358e-06	1.9374e-06	513.24	153.45	1.1951e-06	1.5099e-06	228.85	85.303	58.243	28.312	2.7077e-06	44.046	3.1135e-05	2.8782e-05	7.2527e-06	338.86	2.7612e-07	3.1454e-07	485.6	145.6	2.8815e-07	3.1368e-07	208.62	79.458	53.176	26.522	2.9854e-07	40.198	229.498	-39.182	19.538	-37.245	87.553	67.028	-38.994	-30.709	189.216	102.067	-34.261	-28.651	-24.760	-19.692	90.111	-24.336	-8191	255	
2207.653	1	1	0	0	0.09682	0.18538	0.12604	0.23874	0.14639	0.39665	0.042117	0.049598	0.098554	0.030442	0.20375	0.2652	0.12518	0.12751	0.23733	0.2097	-2.6396	-2.9125	-3.2521	-2.9979	-3.175	-3.0687	-3.1125	-3.4188	-3.0833	-3.1562	-3.225	-2.975	-3.4167	-3.3042	-2.925	-3.4396	281.313	111.152	-35.027	0.554	193.073	108.355	-1.766	14.277	19.403	-45.984	291.338	179.907	-9.532	-22.677	-13.076	260.231	0.0001558	0.00019797	5.6888e-05	358.74	2.803e-06	1.8988e-06	517.45	154.44	1.057e-06	2.3675e-06	231.5	85.846	58.333	28.18	2.0337e-06	43.671	3.262e-05	2.9818e-05	7.2607e-06	339.94	3.16e-07	3.1875e-07	487.74	146.8	3.2346e-07	3.2051e-07	210.69	79.994	53.763	26.364	2.9779e-07	39.938	228.762	-5.295	89.955	-37.208	127.427	84.746	-38.613	-30.838	137.899	73.353	-34.119	-28.602	-24.711	-19.602	78.893	-24.228	-8191	255	
2207.774	1	1	0	0	0.12473	0.15821	0.12436	0.19451	0.12356	0.12701	0.33412	0.049335	0.11881	0.099809	0.057329	0.12645	0.073775	0.043753	0.31111	0.06005	-2.7438	-2.9167	-3.3542	-2.7729	-3.1479	-3.4021	-2.8708	-3.4542	-3.1479	-2.9958	-3.5792	-2.8979	-3.2833	-3.3708	-2.85	-3.5021	121.944	-9.659	85.118	20.328	7.366	46.271	306.690	223.336	180.206	-46.165	6.512	-4.707	210.301	173.429	108.561	20.218	0.00017021	0.00021395	6.5343e-05	364.92	2.5643e-06	3.6581e-06	523.81	155.59	1.6442e-06	2.1937e-06	233.82	86.423	58.998	28.09	1.2603e-06	43.907	3.6417e-05	2.7727e-05	7.2206e-06	345.6	3.3781e-07	3.0947e-07	494.05	148.52	3.4746e-07	3.1082e-07	213.02	80.628	54.15	26.44	2.8792e-07	40.204	232.301	-1.412	65.575	-36.929	122.471	55.574	-38.940	-30.718	100.406	88.272	-34.425	-28.574	-24.911	-19.883	72.217	-24.321	-8191	255	
2207.870	1	1	0	0	0.38119	0.30653	0.067315	0.32721	0.012287	0.20559	0.0538	0.089771	0.059642	0.10292	0.13874	0.079935	0.19996	0.10376	0.1106	0.20803	-2.6854	-3.0167	-3.3021	-3.0792	-3.1583	-3.4083	-2.8708	-3.4958	-3.1104	-3.0917	-3.2792	-3.0271	-3.0875	-3.4125	-2.8708	-3.4979	69.141	311.041	305.740	201.953	152.388	5.269	90.350	99.613	222.456	140.897	-26.491	-2.114	31.403	160.959	125.132	235.400	0.00015073	0.00023902	3.7022e-05	367.15	1.1431e-06	3.0374e-06	524.26	156.91	2.6084e-06	1.2086e-06	233.93	86.493	58.86	28.322	1.96e-06	44.188	3.7177e-05	2.7602e-05	6.9073e-06	347.49	3.4115e-07	2.9918e-07	496.2	149.14	3.4128e-07	2.9509e-07	213.27	80.917	54.078	26.582	2.8052e-07	40.464	220.150	10.058	81.209	-37.440	167.591	77.095	-38.827	-30.814	117.154	126.931	-34.372	-28.900	-24.856	-20.031	146.724	-24.547	-8191	255	
2207.966	1	1	0	0	0.11049	0.20469	0.20712	0.20875	0.05126	0.23871	0.16991	0.25705	0.31392	0.15009	0.22351	0.14422	0.028039	0.15377	0.079439	0.25936	-2.7167	-3.0125	-3.3833	-2.8667	-3.0708	-3.2333	-3.2083	-3.1813	-3.1021	-3.0083	-3.2313	-2.9708	-2.8458	-3.2875	-2.9521	-3.0917	221.844	-25.185	220.995	173.140	34.820	194.389	248.518	267.857	221.242	102.268	213.093	310.984	15.950	-33.069	274.091	300.552	0.00013114	0.00019381	6.9951e-05	360.18	2.9584e-06	3.4723e-06	519.52	154.71	1.6638e-06	1.935e-06	231.12	85.516	58.415	28.382	1.0508e-06	44.358	3.5112e-05	2.6626e-05	6.621e-06	341.45	3.2297e-07	2.742e-07	489.33	147.21	3.1855e-07	2.7956e-07	210.87	80.146	53.654	26.646	2.7729e-07	40.777	235.451	15.358	74.538	-37.001	90.935	71.292	-38.727	-30.619	129.683	101.620	-34.258	-28.804	-24.531	-20.034	99.718	-24.438	-8191	255	
2208.087	1	1	0	0	0.24123	0.37568	0.18469	0.070945	0.11525	0.023625	0.030397	0.03553	0.40203	0.16925	0.18233	0.075786	0.094071	0.10501	0.12741	0.13831	-2.6542	-2.7562	-3.3729	-2.9917	-3.0563	-3.3417	-3.2125	-2.9875	-3.1729	-2.7979	-3.4354	-3.1146	-2.975	-3.3708	-2.9646	-3.0083	86.563	-27.403	111.821	128.887	-38.284	3.830	218.449	48.911	176.904	258.299	270.527	271.029	14.879	253.638	184.264	224.331	0.00014045	0.00027118	4.7394e-05	354.43	2.2122e-06	1.585e-06	512.04	152.54	1.7267e-06	1.168e-06	229.93	84.979	57.93	28.579	2.9904e-07	44.886	3.3322e-05	2.4551e-05	6.8646e-06	336.62	2.968e-07	2.6931e-07	484.1	145.01	2.9468e-07	2.6644e-07	208.64	79.437	53.132	26.859	2.9857e-07	41.086	228.463	5.696	64.478	-37.044	127.114	55.855	-38.753	-30.704	125.093	57.175	-34.221	-28.725	-25.213	-19.667	160.427	-24.324	-8191	255	
2208.181	1	1	0	0	0.15021	0.12316	0.21487	0.14858	0.079068	0.11406	0.1079	0.23382	0.10381	0.25774	0.074161	0.22192	0.11539	0.17104	0.065561	0.044344	-2.8104	-2.8	-3.4458	-3.2833	-3.0708	-3.3583	-3.1104	-3.2604	-3.3417	-2.8438	-3.2375	-3.0958	-3.0625	-3.4708	-3.1188	-3.1792	146.147	64.854	-28.561	-6.955	265.591	94.444	25.617	169.527	192.286	-9.146	26.527	277.367	24.321	282.352	159.915	-38.934	0.00013009	0.0001701	3.1646e-05	356.72	1.1546e-06	1.7577e-06	518.23	152.26	1.8975e-06	1.2463e-06	229.39	85.915	58.404	29.535	2.7726e-06	46.039	3.2186e-05	2.4162e-05	7.3015e-06	340.75	2.8029e-07	2.5544e-07	489.64	145.09	2.8653e-07	2.6066e-07	209.13	79.948	53.448	27.681	3.2365e-07	42.325	223.608	18.171	84.863	-37.194	134.692	53.875	-38.900	-30.778	102.463	115.036	-34.277	-28.804	-24.909	-19.883	111.530	-24.488	-8191	255	
2208.277	1	1	0	0	0.057753	0.10609	0.13135	0.19555	0.19885	0.1885	0.1751	0.14178	0.10421	0.27967	0.21664	0.23319	0.13583	0.1801	0.15694	0.19315	-3.0667	-2.7333	-3.2333	-3.1813	-2.95	-3.3667	-3.2188	-2.9396	-3.4104	-3	-3.175	-3.3229	-2.7854	-3.3042	-3.0792	-3.0583	306.492	-28.982	175.235	19.080	227.697	279.472	68.542	256.962	218.379	171.671	279.504	-36.449	22.912	29.109	111.507	260.044	0.00016301	0.00018944	1.7203e-05	365.76	2.7848e-06	2.9254e-06	533.61	153.52	1.017e-06	1.6226e-06	234.34	89.741	60.597	31.99	1.777e-06	50.139	3.185e-05	2.4205e-05	8.0641e-06	347.62	2.8224e-07	2.7162e-07	504.31	146.03	2.8783e-07	2.8084e-07	213.4	83.45	55.612	30.051	3.6974e-07	46.015	220.660	47.850	69.245	-37.293	130.562	68.962	-38.772	-30.775	157.934	127.147	-33.845	-28.923	-25.157	-20.401	136.289	-24.945	-8191	255	
2208.373	1	1	0	0	0.10761	0.16865	0.27565	0.086144	0.10335	0.18037	0.18496	0.17707	0.28997	0.059855	0.11555	0.098169	0.27977	0.15314	0.086268	0.116	-2.8333	-2.9688	-2.9542	-3.3187	-2.7917	-3.35	-3.2417	-2.9854	-3.2479	-2.9396	-3.0563	-3.3063	-2.7729	-3.2771	-3.3042	-2.9229	70.536	225.996	-25.270	133.210	296.048	13.852	219.335	254.609	45.952	195.658	-44.354	234.973	276.521	291.966	269.915	230.401	0.0001659	0.00022218	6.1258e-05	392.62	1.7777e-06	1.9227e-06	567.01	159	3.2431e-06	2.3519e-06	246.97	97.174	66.154	36.049	1.0922e-06	56.5	3.4301e-05	2.8844e-05	9.4404e-06	370.23	3.0771e-07	3.3203e-07	536.25	151.11	3.2507e-07	3.5076e-07	225.77	90.574	60.386	33.795	4.1676e-07	51.485	220.730	24.744	70.113	-37.189	143.271	53.172	-38.783	-30.919	107.835	140.727	-34.370	-29.219	-26.111	-21.161	95.672	-25.049	-8191	255	
2208.469	1	1	0	0	0.13926	0.13296	0.32582	0.18302	0.079729	0.13374	0.18795	0.031118	0.10773	0.14761	0.20246	0.16832	0.04553	0.24011	0.093747	0.11372	-2.8417	-3.0312	-2.9813	-3.2646	-3.0979	-3.2562	-3.2333	-2.8167	-3.3146	-3.0583	-3.0667	-3.5708	-2.7708	-3.2917	-3.2833	-2.8583	167.737	3.517	9.405	-42.658	195.040	71.933	234.387	177.228	189.590	168.907	105.687	214.750	177.999	204.416	124.207	297.007	0.00018085	0.00020461	5.2831e-05	407.44	1.4605e-06	2.3127e-06	594.26	168.1	2.4661e-06	1.2067e-06	263.03	105.46	72.393	39.962	2.4266e-06	60.794	3.8771e-05	3.6571e-05	1.0859e-05	387.93	3.6231e-07	4.3671e-07	564.29	160.13	3.9485e-07	4.7652e-07	241.14	98.251	66.047	37.448	4.7636e-07	55.751	230.534	13.205	68.363	-37.598	76.801	104.802	-39.159	-31.045	236.709	75.186	-34.535	-29.640	-26.214	-21.368	115.105	-25.504	-8191	255	
2208.566	1	1	0	0	0.16688	0.12216	0.36254	0.15048	0.25063	0.078709	0.018249	0.2812	0.12504	0.27166	0.12249	0.090599	0.062225	0.11413	0.11787	0.14627	-3.0896	-3.1813	-3.0375	-3.3646	-3.0396	-3.1688	-3.3333	-3.0667	-3.2812	-2.9333	-3.0583	-3.5354	-2.95	-3.2229	-3.2104	-3.0229	240.298	51.910	123.659	-7.984	282.463	118.909	40.617	250.046	254.001	10.351	-30.859	294.687	255.078	276.868	28.441	146.965	0.00020991	0.00028849	6.9719e-05	422.22	1.6134e-06	1.8121e-06	608.9	176.89	3.3244e-06	3.7654e-06	276.51	110.12	76.396	41.979	2.4815e-06	63.287	4.6836e-05	4.6149e-05	1.2618e-05	401.46	4.7075e-07	5.5057e-07	577.76	169.04	4.835e-07	5.7353e-07	253.28	103.15	69.967	39.401	5.2997e-07	58.165	231.897	0.533	74.232	-37.605	109.945	48.993	-39.329	-31.434	154.561	96.407	-35.056	-29.872	-26.364	-21.884	111.691	-25.958	-8191	255	
2208.686	1	1	0	0	0.39149	0.14189	0.22667	0.024669	0.091203	0.11774	0.20234	0.090202	0.10616	0.2507	0.058778	0.19725	0.094729	0.2748	0.23258	0.22381	-2.9479	-3.1063	-3.0667	-3.3125	-3.0729	-3.1875	-3.2875	-3.0208	-3.2479	-3.2708	-3.1312	-3.4146	-2.925	-3.2896	-3.3292	-2.8083	60.066	85.880	96.409	32.479	199.785	250.881	301.095	283.272	89.975	284.128	19.366	214.725	283.239	280.723	181.212	276.511	0.00024792	3.3686e-05	9.0497e-05	420.58	4.4249e-06	2.232e-06	606.73	174.19	3.3529e-06	2.8464e-06	269.9	107.23	72.386	39.454	2.3214e-06	60.281	5.4696e-05	5.2688e-05	1.2937e-05	400.86	5.1701e-07	5.6045e-07	573.19	165.61	5.3074e-07	5.4899e-07	246.77	99.977	66.886	37.277	4.7443e-07	55.244	226.766	250.972	68.845	-37.772	167.050	26.154	-39.289	-31.369	170.319	92.982	-34.527	-29.562	-26.364	-21.372	70.950	-25.500	-8191	255	
2208.782	1	1	0	0	0.12533	0.036991	0.1931	0.12504	0.12966	0.018414	0.16836	0.20525	0.10848	0.21475	0.13906	0.29917	0.11146	0.35515	0.057247	0.06743	-2.825	-3.1979	-3.0708	-3.1479	-3.1104	-2.9708	-3.5125	-2.7687	-3.225	-3.1479	-2.8438	-3.5167	-3.2062	-3.0687	-3.2979	-2.9188	-48.195	225.622	241.968	76.152	-21.017	101.695	154.783	223.579	175.943	245.321	117.960	112.438	76.118	305.958	76.997	190.778	0.000186	8.7068e-05	3e-05	416.67	2.3907e-06	2.2253e-06	592.9	166.91	3.009e-06	1.433e-06	260.42	101.91	68.512	36.79	1.1536e-06	56.678	5.4859e-05	4.6847e-05	1.1272e-05	394.98	4.9534e-07	4.774e-07	560.11	159.19	4.9061e-07	4.4422e-07	236.74	95.253	63.386	34.595	3.994e-07	51.808	225.280	6.816	83.967	-37.357	96.139	9.845	-39.134	-30.953	164.615	111.465	-34.306	-29.496	-25.664	-20.913	130.256	-25.301	-8191	255	
2208.879	1	1	0	0	0.22415	0.17977	0.032423	0.019078	0.084585	0.032019	0.088648	0.099456	0.059054	0.3247	0.071886	0.12626	0.21489	0.22907	0.25374	0.24916	-2.7042	-3.2104	-3.0042	-3.1771	-3.0729	-3.0646	-3.3917	-3.0917	-3.2708	-3.2917	-2.6479	-3.4771	-3.2229	-3.0042	-3.4417	-2.9167	-6.137	302.881	243.254	133.222	209.360	263.428	255.130	238.142	-15.475	83.674	-26.600	17.988	12.381	283.060	9.734	216.811	0.00018866	0.00021383	5.2456e-05	407.01	1.9382e-06	2.9082e-06	581.43	162.88	1.9205e-06	4.3236e-06	251.28	98.565	66.765	35.264	1.9209e-06	54.534	4.9992e-05	3.9069e-05	9.8628e-06	386	4.628e-07	4.1311e-07	549.91	155.29	4.5456e-07	3.9409e-07	229.59	92.279	61.417	33.089	3.6154e-07	50.03	229.499	25.963	86.365	-37.065	83.791	82.053	-39.094	-30.835	168.793	92.632	-34.395	-29.351	-25.496	-20.710	120.600	-25.213	-8191	255	
2208.950	1	1	0	0	0.096166	0.07151	0.16289	0.040953	0.025019	0.17439	0.25035	0.25807	0.16168	0.20708	0.10943	0.16088	0.34487	0.27807	0.17907	0.13746	-2.7313	-3.2208	-2.6688	-3.3896	-3.0625	-3.1417	-3.3229	-2.9875	-3.2208	-3.275	-3.0271	-3.2229	-2.9104	-3.0563	-3.3187	-3.0021	174.340	130.168	169.012	2.508	161.697	39.367	106.419	253.897	249.931	270.937	281.387	241.046	270.939	300.693	38.118	267.240	0.00017135	0.00027519	8.6416e-05	405.42	1.1809e-06	4.0974e-06	583.16	163.24	2.5066e-06	7.4008e-07	253.96	99.812	67.585	35.822	1.0377e-06	55.06	4.7476e-05	3.563e-05	9.2483e-06	384.16	4.4119e-07	3.9338e-07	550.26	155.76	4.4252e-07	3.834e-07	230.93	93.306	62.074	33.688	3.6111e-07	50.641	233.410	13.983	28.608	-37.386	125.290	83.214	-38.974	-31.031	114.529	175.128	-34.499	-29.416	-25.486	-20.918	-4.914	-25.149	-8191	255	
2209.069	1	1	0	0	0.19354	0.17454	0.089786	0.12079	0.076114	0.34989	0.21397	0.064211	0.1901	0.22676	0.090965	0.2875	0.10475	0.40762	0.14637	0.26347	-2.6479	-3.0687	-2.9854	-3.1292	-3.2979	-2.7875	-3.3333	-3.1479	-2.8771	-3.3729	-2.9521	-3.0812	-3.1875	-2.9479	-3.1833	-3.1167	9.796	-48.372	270.219	-35.810	102.165	-8.689	-17.080	153.771	162.730	101.850	254.951	-7.387	147.888	249.590	126.561	219.179	0.00019946	0.00020016	3.9052e-05	405.56	2.3576e-06	2.2772e-06	581.9	164.24	7.9386e-07	2.6457e-06	252.64	100.01	67.695	35.762	2.5474e-06	55.323	4.4451e-05	3.3641e-05	9.2235e-06	385.8	4.1787e-07	3.7908e-07	550.82	156.24	4.2481e-07	3.6528e-07	231.54	93.63	62.002	33.547	3.8123e-07	50.541	221.762	3.112	71.391	-37.399	100.650	102.665	-38.852	-30.759	89.315	84.805	-34.487	-29.112	-25.447	-20.548	142.517	-24.885	-8191	255	
2209.165	1	1	0	0	0.16402	0.083771	0.21379	0.086812	0.085979	0.26526	0.1847	0.40099	0.25103	0.04263	0.20188	0.18866	0.12029	0.14375	0.25862	0.068076	-2.5417	-3.0646	-3.0417	-3.1417	-3.3542	-2.8104	-3.575	-3.05	-3.0458	-3.4313	-2.9938	-3.2208	-3.4521	-2.9729	-3.2771	-3.1167	148.044	-29.040	164.869	310.693	184.876	278.077	228.090	-40.475	232.462	145.480	25.598	256.462	178.693	15.793	6.930	-36.669	0.00019181	0.00021037	8.4428e-05	404.45	1.3279e-06	2.6018e-06	580.46	162.4	2.8925e-06	1.0291e-06	252.7	99.57	66.398	34.623	2.2952e-06	53.457	4.2756e-05	3.2012e-05	9.6334e-06	384.97	3.8739e-07	3.4829e-07	550.83	155.02	3.8734e-07	3.4082e-07	230.27	92.835	61.133	32.435	4.1184e-07	49.181	231.055	25.318	87.314	-37.257	126.656	80.465	-38.912	-30.560	97.665	125.323	-34.453	-29.034	-25.105	-20.296	124.329	-24.928	-8191	255	
2209.261	1	1	0	0	0.086131	0.19334	0.20408	0.27013	0.025833	0.094579	0.066895	0.084192	0.22944	0.17034	0.15974	0.27997	0.085542	0.22214	0.19134	0.20474	-2.3583	-3.3375	-3.0417	-3.0312	-3.1688	-2.9896	-3.35	-3.3312	-2.925	-3.4646	-3.1375	-3.0646	-3.2313	-2.9833	-3.3521	-3.125	226.547	58.560	292.901	203.562	55.758	117.797	283.404	195.039	98.964	2.404	46.434	-46.716	-38.912	42.388	12.128	272.916	0.00018967	0.00027082	6.5999e-05	404.08	1.3531e-06	2.6743e-06	581.84	162.62	1.0061e-06	2.3164e-06	249.79	98.217	66.584	33.541	2.38e-06	51.84	4.0933e-05	3.1683e-05	1.0012e-05	385.06	3.5921e-07	3.4121e-07	551.57	154.66	3.6999e-07	3.3947e-07	229.2	92.293	60.846	31.543	4.1905e-07	47.551	221.884	-24.609	37.200	-37.243	120.073	64.706	-38.889	-30.513	162.365	111.539	-34.127	-29.110	-24.897	-20.212	122.916	-24.587	-8191	255	
2209.358	1	1	0	0	0.18161	0.2708	0.15882	0.30447	0.18378	0.144	0.15564	0.24363	0.36477	0.080144	0.24208	0.17938	0.068578	0.14836	0.18135	0.15499	-2.5687	-3.2854	-3.0104	-2.9792	-3.2125	-2.9771	-3.2417	-3.3688	-2.9021	-3.4083	-3.125	-3.0708	-3.2042	-3.2833	-2.9896	-3.2583	45.542	221.183	204.488	-47.279	35.909	85.866	-29.164	-32.352	109.980	212.855	-46.667	301.652	77.974	-17.897	-42.082	103.501	0.00018236	0.00022705	7.5068e-05	405.3	1.3818e-06	1.8865e-06	580.87	161.71	2.0902e-06	3.0504e-06	249.52	98.219	66.174	33.051	2.1486e-06	50.948	3.8551e-05	3.0073e-05	1.0529e-05	385.11	3.3484e-07	3.4002e-07	548.62	154.87	3.4047e-07	3.5569e-07	227.98	91.862	60.589	31.043	4.091e-07	46.728	226.326	29.785	65.737	-37.426	156.742	153.143	-38.906	-30.476	154.445	128.383	-33.978	-28.807	-24.766	-20.191	101.952	-24.654	-8191	255	
2209.478	1	1	0	0	0.04929	0.12248	0.072648	0.10367	0.063006	0.2758	0.23864	0.20802	0.10732	0.17733	0.11614	0.24496	0.071266	0.2866	0.14786	0.19264	-2.4667	-3.3521	-3.1958	-2.8792	-3.475	-3.1375	-3.1917	-3.1542	-2.8958	-3.2625	-3.3271	-3.0604	-3.2979	-3.0604	-3.0875	-3.2438	153.581	217.867	113.464	-30.484	222.333	175.489	209.500	-10.787	280.998	224.091	134.641	305.411	2.926	261.537	138.942	216.026	0.00016521	0.00012235	3.5537e-05	409.26	1.9471e-06	3.2669e-06	585.87	165	2.6989e-06	2.5603e-06	252.08	99.461	66.92	32.936	2.1451e-06	50.755	3.7302e-05	3.2918e-05	1.035e-05	388.16	3.2741e-07	3.7518e-07	552.68	157.1	3.392e-07	3.7865e-07	230.4	92.52	61.003	30.866	3.8983e-07	46.429	228.730	-1.291	37.201	-37.296	121.337	86.033	-38.944	-30.580	124.340	138.756	-33.963	-28.891	-25.115	-20.001	70.243	-24.371	-8191	255	
2209.574	1	1	0	0	0.10029	0.27557	0.18438	0.079047	0.24396	0.19753	0.017764	0.2943	0.098778	0.17757	0.10161	0.13614	0.011192	0.039037	0.36744	0.1011	-2.4229	-2.9708	-3.0354	-2.8792	-3.2792	-2.9646	-2.9521	-3.2667	-3.0354	-3.1813	-3.3021	-2.8208	-3.2938	-3.0854	-3.1792	-3.2833	287.046	33.958	26.575	154.931	118.965	-45.066	110.375	196.594	262.983	222.981	155.048	-32.310	160.126	89.291	174.292	-25.811	0.00016958	0.00019528	7.7093e-05	409.39	7.6988e-07	1.8111e-06	589.48	166.19	8.7371e-07	1.142e-06	253.88	100.04	66.355	32.627	1.8644e-06	50.75	3.6925e-05	3.643e-05	9.8584e-06	389.74	3.3024e-07	4.0093e-07	556.14	158.41	3.4709e-07	4.0974e-07	232.13	93.154	61.098	30.827	3.7751e-07	46.321	226.432	-31.024	71.619	-37.154	121.607	27.975	-38.873	-30.659	148.956	85.295	-34.210	-28.685	-24.712	-20.123	92.111	-24.336	-8191	255	
2209.646	1	1	0	0	0.28445	0.10795	0.35121	0.30713	0.19959	0.28685	0.099444	0.12502	0.11583	0.22502	0.11169	0.16845	0.24076	0.23193	0.15303	0.019126	-2.5854	-3.2479	-2.9292	-2.9271	-3.2479	-3.1604	-3.0312	-3.5604	-2.7625	-3.3812	-3.2729	-2.8625	-3.375	-3.1896	-2.9667	-3.5042	115.902	270.584	93.827	-38.690	15.226	-22.870	163.672	132.075	77.226	255.487	209.838	302.159	229.504	-3.803	-38.058	191.249	0.00020729	0.00027447	4.0645e-05	413.13	6.6532e-07	2.2638e-06	590.5	167.22	1.19e-06	3.1748e-06	255.36	100	66.48	32.696	2.3453e-06	50.151	3.8327e-05	3.6895e-05	9.2012e-06	391.74	3.4818e-07	4.0469e-07	557.38	159.66	3.6166e-07	3.9211e-07	232.41	92.958	61.278	30.663	3.5809e-07	45.887	227.266	11.519	53.143	-37.414	153.402	40.174	-38.951	-30.624	150.606	100.023	-34.251	-28.757	-24.878	-19.887	88.957	-24.217	-8191	255	
2209.767	1	1	0	0	0.040352	0.11264	0.12184	0.11522	0.29159	0.32263	0.069628	0.050222	0.042613	0.17283	0.10138	0.032081	0.039402	0.056573	0.29635	0.18571	-2.4667	-3.1854	-3.225	-2.8521	-3.1021	-3.1813	-2.8396	-3.2771	-3.0271	-3.0292	-3.2188	-2.9354	-3.1875	-3.1833	-2.9479	-3.2417	94.019	160.314	246.209	-1.603	135.019	233.177	158.147	275.976	72.453	218.855	92.704	196.287	223.909	175.862	-5.375	-33.227	0.00020533	0.00022025	6.4804e-05	412.48	1.9984e-06	1.8081e-06	588.33	168.12	1.014e-06	3.388e-06	253.49	98.401	66.547	32.499	2.3612e-06	50.064	3.9871e-05	3.5291e-05	8.6888e-06	390.67	3.7489e-07	3.7973e-07	555.18	159.26	3.9326e-07	3.7606e-07	231.46	92.037	61.13	30.578	3.5094e-07	45.681	229.479	16.309	57.943	-36.899	152.079	59.040	-38.927	-30.344	110.941	125.053	-34.168	-28.740	-24.956	-19.966	100.626	-24.331	-8191	255	
2209.863	1	1	0	0	0.0061469	0.31799	0.062358	0.27735	0.23332	0.082108	0.17917	0.18851	0.13055	0.25064	0.21273	0.28959	0.16332	0.29214	0.11181	0.1238	-2.7562	-2.9062	-3.2812	-2.8	-3.1333	-3.2667	-2.9688	-3.2604	-3.0854	-3.1271	-3.3167	-2.9625	-3.2833	-3.2104	-3.0438	-3.3187	292.045	253.118	170.210	-22.030	279.034	6.331	107.404	214.768	20.206	117.519	257.617	282.347	249.768	307.508	222.677	-19.126	0.00018822	0.00018312	6.1302e-05	411.12	2.9488e-06	2.3213e-06	589.42	166.91	1.8419e-06	1.2631e-06	254.57	99.068	66.104	32.409	6.7512e-07	49.674	4.2885e-05	3.4233e-05	8.6644e-06	391.1	4.0106e-07	3.7135e-07	555.6	159.53	4.0417e-07	3.682e-07	231.44	92.32	60.901	30.439	3.4249e-07	45.445	226.517	-11.020	61.847	-37.131	139.584	32.796	-38.834	-30.711	165.771	128.670	-34.080	-28.764	-25.000	-19.995	130.385	-24.455	-8191	255	
2209.959	1	1	0	0	0.27304	0.24359	0.1786	0.19238	0.10778	0.20359	0.15619	0.23995	0.35065	0.085224	0.15617	0.12975	0.11628	0.29271	0.37272	0.21587	-2.6396	-3.0646	-3.3187	-3.1771	-3.175	-3.4125	-2.9271	-3.2021	-3.0875	-3.0771	-3.4479	-3.0667	-3.0896	-3.3333	-2.8125	-3.375	102.456	59.460	208.489	-31.204	47.093	229.542	231.891	261.711	215.140	288.157	243.053	-16.168	-48.154	205.435	203.961	177.548	0.00017835	0.0003266	7.0319e-05	410.89	9.1711e-07	1.5387e-06	587.29	168.79	2.6084e-06	1.0294e-06	254.96	98.435	66	32.269	1.282e-06	49.251	4.2456e-05	3.2145e-05	7.9572e-06	390.92	3.9436e-07	3.353e-07	555.02	160.37	3.9388e-07	3.498e-07	231.79	92.103	60.744	30.231	3.3124e-07	45.04	233.054	9.910	82.874	-37.157	153.970	12.782	-38.768	-30.730	98.718	105.059	-34.388	-28.840	-24.891	-20.384	131.602	-24.459	-8191	255	
2210.055	1	1	0	0	0.085738	0.26927	0.1832	0.23869	0.1739	0.26519	0.29125	0.10362	0.13512	0.22254	0.13795	0.14589	0.21187	0.30991	0.16058	0.28788	-2.6625	-2.875	-3.2125	-3.1375	-3.0792	-3.6167	-2.7771	-3.2958	-3.0563	-3.0479	-3.4125	-3.3021	-3.0625	-3.3896	-3.0875	-3.2833	255.728	97.164	267.677	236.420	305.624	-18.797	-22.231	22.353	-44.635	296.863	-26.896	164.099	290.311	310.749	296.102	220.193	0.00016593	0.00024056	4.708e-05	414.38	1.1456e-06	1.6468e-06	591.14	170.78	1.3259e-06	2.5003e-06	257.29	98.582	65.956	31.861	1.0129e-06	48.358	4.2021e-05	3.1291e-05	8.0842e-06	394.15	3.8519e-07	3.3312e-07	557.17	162.79	3.8095e-07	3.3437e-07	233.89	92.043	60.795	29.956	3.3867e-07	44.143	226.975	-14.783	85.153	-37.293	118.052	87.703	-38.733	-30.810	126.878	79.730	-34.489	-28.829	-24.910	-19.999	137.951	-24.515	-8191	255	
2210.174	1	1	0	0	0.15817	0.34688	0.16953	0.2056	0.28809	0.23547	0.09187	0.13283	0.15432	0.26244	0.10185	0.011181	0.068559	0.16164	0.19671	0.079227	-2.9062	-2.7667	-3.3021	-3.0521	-2.9521	-3.3708	-2.9208	-3.225	-3.0771	-2.9125	-3.3333	-3.0833	-3.1562	-3.4062	-3.1396	-2.9604	75.361	18.735	76.489	235.305	174.821	59.192	30.987	306.391	223.784	253.685	83.905	164.458	-45.067	249.885	161.048	304.370	0.0001813	0.00031006	6.8681e-05	417.49	6.3917e-07	1.2917e-06	590.2	175.2	1.0204e-06	2.7006e-06	261.02	98.069	66.435	31.533	2.7208e-06	47.47	3.9119e-05	2.9829e-05	8.2362e-06	396.74	3.5513e-07	3.1991e-07	559.68	166.63	3.4728e-07	3.1539e-07	237.74	91.514	60.961	29.59	3.5192e-07	43.412	229.692	-5.924	93.938	-37.283	88.236	56.119	-39.247	-30.733	113.004	91.471	-34.399	-29.079	-25.294	-20.373	109.215	-24.629	-8191	255	
2210.246	1	1	0	0	0.12767	0.11242	0.13842	0.14918	0.15854	0.4615	0.078068	0.37852	0.043897	0.33473	0.18003	0.21261	0.21353	0.061193	0.15807	0.14109	-2.925	-3.1104	-3.3104	-3.3521	-2.9021	-3.3771	-3.0604	-3.1396	-3.2042	-2.9708	-3.2562	-3.2771	-3.0375	-3.2708	-3.0708	-3.1729	229.033	48.761	17.467	-38.073	2.030	-7.275	243.692	211.672	9.642	67.640	-41.033	253.783	43.701	74.510	168.962	245.425	0.00016883	0.00021985	4.5672e-05	428.35	1.036e-06	3.5639e-06	603.71	181.05	2.5512e-06	2.5603e-06	266.49	99.829	67.524	31.508	8.4747e-07	47.648	3.7183e-05	2.8572e-05	8.966e-06	406.32	3.4244e-07	3.0166e-07	571.36	172.29	3.4695e-07	3.148e-07	243.09	92.95	62.017	29.612	3.8618e-07	43.616	226.559	-14.594	83.106	-37.496	86.580	95.374	-39.267	-30.989	94.897	107.094	-34.380	-29.104	-25.429	-20.206	124.999	-24.569	-8191	255	
2210.366	1	1	0	0	0.055506	0.17347	0.23559	0.30043	0.13697	0.051305	0.18099	0.29327	0.052855	0.092283	0.062231	0.18466	0.31969	0.050556	0.096692	0.077782	-2.8708	-2.9146	-3.2812	-3.3958	-3.1688	-3.425	-3.3021	-3.2188	-3.4146	-3.1646	-3.2062	-3.3312	-3.0229	-3.3958	-3.1667	-3.1292	156.005	-4.611	89.351	189.073	228.670	224.755	181.104	233.352	33.776	195.121	92.303	-36.823	263.105	253.681	200.398	264.498	0.00015145	0.00019664	5.6647e-05	431.14	2.8316e-06	1.12e-06	609.44	182.18	1.4863e-06	1.1671e-06	267.91	99.999	67.476	31.771	2.3102e-06	47.726	3.6377e-05	2.9023e-05	9.8602e-06	410.53	3.3685e-07	3.215e-07	575.27	173.38	3.3619e-07	3.2365e-07	244.22	93.075	62.048	29.734	4.0062e-07	43.635	223.127	24.374	71.912	-37.565	146.079	110.745	-39.318	-31.335	130.733	124.924	-34.651	-28.939	-25.125	-19.977	131.284	-24.267	-8191	255	
2210.462	1	1	0	0	0.13416	0.14429	0.21638	0.1403	0.052464	0.12595	0.078976	0.1026	0.16175	0.20644	0.12986	0.09597	0.15171	0.16069	0.10503	0.0054648	-3.125	-2.9104	-3.0146	-3.2729	-2.825	-3.3375	-3.2729	-3	-3.5354	-2.9125	-3.3958	-3.3729	-2.8271	-3.4125	-3.0354	-3.1562	51.414	166.542	80.369	276.578	265.684	73.017	180.867	242.794	-12.575	5.751	276.373	264.766	293.108	-22.707	167.627	277.068	0.00014412	0.00022807	5.3244e-05	431.68	6.894e-07	2.2238e-06	604.46	181.98	1.6267e-06	1.2687e-06	266.42	98.819	67.231	31.407	2.2456e-06	47.57	3.5042e-05	3.091e-05	9.8292e-06	407.7	3.1428e-07	3.3013e-07	571.12	173.02	3.0575e-07	3.3939e-07	242.44	92.075	61.309	29.493	3.7e-07	43.345	224.148	19.862	97.976	-37.673	95.626	86.853	-38.906	-30.792	148.660	142.026	-34.480	-29.020	-25.297	-20.133	84.471	-24.492	-8191	255	
2210.559	1	1	0	0	0.11166	0.15789	0.078233	0.17739	0.11422	0.178	0.048672	0.21887	0.13476	0.091362	0.04596	0.28147	0.24922	0.050863	0.15451	0.049297	-2.8812	-2.8417	-2.9833	-3.3646	-2.9271	-3.25	-3.3417	-2.9542	-3.55	-3.0438	-3.3521	-3.2542	-3.1104	-3.5396	-3.2167	-2.9979	262.812	302.876	274.591	276.757	62.053	92.738	290.661	235.310	282.586	196.418	181.087	212.050	192.214	178.716	200.212	98.867	0.00016135	0.0002599	4.3344e-05	420.86	1.2533e-06	2.445e-06	593	179.01	2.7332e-06	2.6898e-06	261.96	97.663	66.623	31.203	2.4868e-06	46.88	3.3804e-05	3.2125e-05	9.1268e-06	399.26	2.9451e-07	3.3873e-07	560.17	170.3	2.9253e-07	3.393e-07	238.76	90.759	60.677	29.237	3.395e-07	42.842	227.538	-5.371	63.303	-37.765	113.512	61.620	-39.385	-31.041	142.556	99.577	-34.673	-28.895	-25.509	-19.840	96.858	-24.420	-8191	255	
2210.655	1	1	0	0	0.044022	0.087637	0.15033	0.13503	0.091678	0.14895	0.073614	0.24785	0.25775	0.11192	0.20408	0.21181	0.11639	0.3657	0.034709	0.14402	-2.8521	-2.9292	-2.9896	-3.4229	-2.8271	-3.1979	-3.3563	-2.9458	-3.35	-3.1937	-2.8896	-3.4521	-2.8104	-3.2771	-3.1458	-2.8896	231.847	-39.414	267.622	295.348	18.939	122.164	-16.710	238.068	240.418	90.019	-22.014	284.387	74.746	57.787	293.162	239.493	0.00016641	0.00026585	7.9105e-05	416.32	2.3633e-06	3.5668e-06	588.03	178.01	1.3612e-06	2.1259e-06	258.12	96.004	66.054	30.976	6.2189e-07	46.532	3.2935e-05	3.1678e-05	8.2661e-06	394	2.9484e-07	3.502e-07	554.85	169	2.985e-07	3.3635e-07	235.84	89.469	60.028	29.035	3.0591e-07	42.497	225.485	12.176	81.318	-37.530	136.695	60.643	-39.106	-31.150	162.677	112.487	-34.359	-28.991	-24.998	-20.060	8.459	-24.480	-8191	255	
2210.775	1	1	0	0	0.1204	0.090023	0.15083	0.37898	0.14323	0.10167	0.31141	0.28359	0.086392	0.14418	0.3289	0.20907	0.11471	0.064524	0.1569	0.27532	-2.9833	-2.9229	-2.8229	-3.2687	-2.9833	-3.0979	-3.3479	-2.8521	-3.2687	-3.2708	-2.7667	-3.5438	-3.0042	-3.2021	-3.3146	-2.95	21.586	251.478	97.770	-13.830	203.623	-9.761	230.976	213.404	45.923	-22.544	11.583	307.829	76.480	192.836	35.431	271.638	0.0001628	0.00028883	1.5167e-05	407.51	1.9443e-06	3.4672e-06	579.87	175.29	1.6184e-06	2.2152e-06	257.03	95.604	64.771	30.905	2.3105e-07	46.573	3.3382e-05	3.099e-05	7.6297e-06	386.02	3.031e-07	3.2684e-07	548.39	166.67	3.1216e-07	3.2336e-07	234.24	89.049	59.466	28.988	2.9603e-07	42.564	227.713	39.800	59.771	-37.579	143.761	55.111	-39.105	-30.955	166.402	111.746	-34.580	-28.883	-25.122	-20.296	82.827	-24.443	-8191	255	
2210.847	1	1	0	0	0.20933	0.11238	0.10338	0.13893	0.095822	0.09891	0.042773	0.18734	0.23668	0.10336	0.11907	0.085776	0.16158	0.014741	0.31634	0.14227	-2.8021	-2.95	-2.9104	-3.4	-3.0917	-3.2375	-3.475	-2.9771	-3.0438	-3.2729	-2.8583	-3.4188	-2.9354	-2.9875	-3.3167	-3.0833	33.478	112.839	163.849	32.541	238.196	253.758	239.168	266.379	165.389	146.860	296.927	114.332	287.289	155.894	90.248	14.322	0.00016662	6.3917e-05	6.3062e-05	401.43	1.8116e-06	2.1594e-06	575.14	173.69	1.6867e-06	1.3303e-06	256.04	94.948	65.1	30.705	2.2394e-06	46.338	3.5177e-05	2.8985e-05	7.1425e-06	381.37	3.2692e-07	3.1322e-07	544.1	165.33	3.3057e-07	3.1252e-07	233.26	88.583	59.329	28.769	2.7613e-07	42.271	230.244	44.585	40.410	-37.341	146.079	39.547	-39.350	-30.878	152.880	109.334	-34.386	-28.411	-25.282	-20.252	85.919	-24.503	-8191	255	
2210.943	1	1	0	0	0.032178	0.23675	0.045708	0.2559	0.23722	0.11838	0.062179	0.15742	0.2208	0.2587	0.15849	0.18661	0.15794	0.10863	0.11513	0.26682	-2.7	-3.0854	-3	-3.2583	-3.1042	-2.9437	-3.3792	-3.1479	-3.15	-3.3563	-3.0708	-3.2125	-3.1229	-2.9	-3.3917	-3.1458	-8.888	156.682	160.620	227.305	3.903	289.675	117.660	192.777	215.546	15.371	-18.117	-14.638	153.020	231.339	82.321	219.023	0.00015827	0.00025316	5.2389e-05	402.8	3.3747e-06	2.2389e-06	577.18	175.23	2.6168e-06	2.6877e-06	256.83	94.895	65.167	30.496	2.0011e-06	45.782	3.5643e-05	2.6655e-05	7.0718e-06	380.49	3.3231e-07	2.9617e-07	542.57	165.89	3.3896e-07	2.9611e-07	233.39	88.319	59.51	28.688	2.7412e-07	41.914	225.628	-11.525	86.817	-37.419	108.397	92.184	-39.208	-31.063	119.938	97.452	-34.164	-28.810	-24.965	-20.128	83.181	-24.577	-8191	255	
2211.039	1	1	0	0	0.1642	0.19089	0.23964	0.1051	0.042715	0.15464	0.22865	0.16794	0.090587	0.16854	0.048604	0.12335	0.15225	0.1343	0.13747	0.14383	-2.7917	-3.2771	-2.7958	-3.3833	-3.0812	-2.6792	-3.2479	-2.9667	-3.0375	-3.2438	-2.8396	-3.4417	-3.1479	-3.0333	-3.275	-3.1729	195.262	105.777	119.862	18.859	176.816	279.697	-46.147	299.623	54.958	125.248	22.417	269.061	248.292	18.251	280.853	266.254	0.00015705	0.0001461	4.1159e-05	407.02	2.1293e-06	1.489e-06	584.81	179.73	4.6345e-07	1.7944e-06	266.62	97.564	67.404	31.029	1.3169e-06	46.289	3.5455e-05	2.6539e-05	6.7961e-06	384.76	3.2444e-07	2.8069e-07	549.76	170.42	3.273e-07	2.7878e-07	241.89	90.899	61.798	28.901	2.7852e-07	42.398	231.913	22.748	66.066	-37.717	84.653	97.363	-39.274	-31.080	155.634	127.650	-34.488	-29.149	-25.752	-20.695	127.117	-24.799	-8191	255	
2211.158	1	1	0	0	0.17136	0.28493	0.19134	0.16332	0.033202	0.047882	0.063923	0.29998	0.26684	0.054613	0.046413	0.23253	0.14306	0.02751	0.22732	0.3115	-2.45	-3.3583	-2.6729	-3.3479	-3.1979	-3.0354	-3.2542	-3.0812	-3.2271	-3.3375	-3	-3.2708	-3.3375	-2.9604	-3.2479	-3.0104	64.859	179.058	288.787	307.679	-47.381	221.185	136.721	256.174	81.047	82.837	51.062	310.104	-28.719	24.582	302.814	309.009	0.00015001	0.00025261	6.3853e-05	415.01	1.0748e-06	3.5518e-06	597.04	186.46	1.9928e-06	7.8922e-07	270.81	101.81	70.762	30.359	2.7034e-06	44.431	3.5539e-05	2.615e-05	7.1877e-06	393.84	3.2217e-07	3.0001e-07	563.81	176.86	3.4245e-07	3.1114e-07	248.25	94.936	64.692	28.521	3.5457e-07	40.647	230.015	-4.628	43.747	-38.037	90.933	60.198	-39.511	-31.560	135.414	122.487	-34.967	-29.613	-25.993	-20.655	129.402	-24.561	-8191	255	
2211.254	1	1	0	0	0.15881	0.30971	0.1759	0.24362	0.22039	0.14251	0.069113	0.26332	0.26215	0.086775	0.35794	0.12593	0.4046	0.16206	0.11944	0.17792	-2.5479	-3.3937	-2.9229	-2.9813	-3.2625	-2.9229	-3.2479	-3.1979	-2.9104	-3.2396	-3.0438	-3.2479	-3.2896	-3.0771	-3.2521	-3.2562	-28.896	102.517	106.973	201.689	185.202	64.293	304.553	28.594	298.759	82.751	267.443	180.071	223.843	292.173	292.136	183.715	0.00013297	0.00020752	2.9828e-05	398.9	4.789e-07	2.2836e-06	561.46	167.4	2.5509e-06	3.3466e-06	251.58	95.01	64.215	29.169	1.5482e-06	42.156	4.1115e-05	3.2524e-05	9.9962e-06	379.7	4.1129e-07	3.8949e-07	529.34	159.66	4.7007e-07	4.2549e-07	229.5	88.866	59.443	27.485	5.9704e-07	38.827	219.761	-25.754	78.114	-38.335	56.963	80.435	-39.947	-31.835	129.322	55.201	-35.438	-29.802	-25.638	-20.741	99.565	-24.884	-8191	255	
2211.351	1	1	0	0	0.097758	0.092011	0.10546	0.1255	0.054841	0.021298	0.083319	0.19587	0.10073	0.14187	0.32154	0.2031	0.22863	0.24464	0.1162	0.19727	-2.4562	-3.2021	-2.9813	-3.1833	-3.3021	-2.7938	-3.2646	-3.075	-2.8396	-3.5667	-2.9646	-3.2062	-3.15	-2.8542	-3.1333	-3.25	90.604	-25.769	116.861	249.717	222.187	253.821	93.846	104.822	44.118	103.688	286.341	83.877	196.575	269.518	15.971	203.089	0.00014706	0.00028899	6.1034e-05	414.69	1.4173e-06	3.2442e-06	536.84	134.95	9.6796e-07	1.4917e-06	208.22	83.895	56.43	28.712	2.3007e-06	41.774	5.7942e-05	5.0166e-05	1.6405e-05	395.39	6.0687e-07	5.8005e-07	510.91	129.58	6.2807e-07	5.8303e-07	191.83	78.74	52.348	27.069	7.4352e-07	38.445	223.484	13.466	102.761	-38.690	102.366	48.588	-40.070	-31.972	103.675	149.811	-35.316	-29.647	-25.812	-20.666	44.206	-24.889	-8191	255	
2211.447	1	1	0	0	0.058928	0.075112	0.19044	0.22304	0.15368	0.084381	0.19584	0.20298	0.27648	0.14401	0.064056	0.10633	0.10173	0.11815	0.24855	0.10319	-2.5875	-3.3187	-2.9333	-3.1521	-3.3333	-3.0563	-3.0292	-3.3583	-2.5729	-3.2771	-2.95	-3.0312	-3.4458	-2.9958	-3.2354	-3.2313	-22.030	240.439	184.835	39.793	193.092	287.574	210.340	205.323	249.844	93.545	-14.822	268.307	56.453	194.914	142.304	-27.559	0.0001079	0.00013029	7.6205e-05	382	9.74e-07	5.9258e-07	532.6	127.76	1.2006e-06	2.6956e-06	191.87	78.512	52.518	28.721	1.7609e-06	41.901	6.2413e-05	5.6312e-05	1.8727e-05	365.25	6.2148e-07	6.362e-07	506.64	122.74	6.2005e-07	6.4432e-07	178.41	73.79	48.724	27.116	7.74e-07	38.597	239.326	52.398	38.116	-39.022	138.008	274.268	-40.060	-31.967	125.797	88.408	-35.478	-29.828	-26.141	-20.673	66.137	-25.206	-8191	255	
2211.543	1	1	0	0	0.27433	0.056444	0.17169	0.11014	0.15353	0.29226	0.25718	0.080129	0.33425	0.061926	0.11979	0.12994	0.093148	0.13397	0.19618	0.24206	-2.4562	-3.1104	-3.0938	-2.8542	-3.5646	-2.7021	-3.0021	-3.4854	-2.7021	-3.2979	-3.1125	-3.0083	-3.4229	-2.9854	-3.1125	-3.2812	-20.852	8.922	27.564	-8.859	228.360	16.244	273.909	167.088	203.734	105.075	-28.418	282.699	122.694	212.281	298.149	238.926	0.00011658	0.0002352	4.8396e-05	373.44	1.3504e-06	1.8891e-06	521.1	123.74	1.1584e-06	2.2045e-06	197.22	83.29	57.082	28.971	3.5209e-06	41.337	6.1369e-05	6.2089e-05	1.8972e-05	357.52	5.9741e-07	6.7786e-07	497.33	119.38	5.9632e-07	6.9167e-07	181.97	78.358	52.88	27.528	7.1831e-07	38.008	230.226	29.152	72.270	-38.910	92.638	122.156	-40.225	-31.761	133.409	147.047	-34.936	-29.297	-25.678	-21.113	72.939	-25.103	-8191	255	
2211.637	1	1	0	0	0.14116	0.12053	0.29016	0.28396	0.09172	0.15261	0.089085	0.092403	0.21165	0.072165	0.031815	0.037536	0.12059	0.15671	0.12678	0.27695	-2.65	-3.1792	-3.075	-2.8458	-3.1771	-3.1354	-3.0896	-3.3875	-2.8771	-3.1667	-3.1208	-3.0104	-3.1833	-3.1229	-2.9979	-3.3063	56.987	224.689	296.556	212.145	33.939	117.111	301.021	205.057	237.817	286.695	192.576	125.004	34.072	273.209	103.986	197.206	0.00015561	2.2814e-05	1.7912e-05	367.46	1.9307e-06	2.6828e-06	496.35	138.21	6.3763e-07	9.8081e-07	221.66	91.377	65.918	29.744	1.0803e-06	43.171	5.8819e-05	6.2867e-05	1.7186e-05	350.83	5.6263e-07	6.5255e-07	471.6	131.96	5.3478e-07	6.1816e-07	203.88	85.749	60.622	28.168	5.5389e-07	39.462	235.045	45.843	69.686	-38.656	116.372	100.909	-40.007	-31.578	156.108	91.868	-35.140	-29.803	-26.258	-20.946	94.493	-25.327	-8191	255	
#DATA ENDS
