BOXY.EXE: ISS Imagent and Oximeter Data Acquisition Program Version 0.80
Ascii Record File

#ACQ INFORMATION
2  Detector Channels 
16  External MUX Channels 
1  Auxiliary Channels 
5000  Waveform (CCF) Frequency (Hz)
1  Waveforms Skipped 
30  Waveforms Averaged 
1  Cycles Averaged 
16  Acquisitions per Waveform 
10.0806  Updata Rate (Hz) 

#FILE INFORMATION
TRUE -- External MUX Channel results are PARSED.
FALSE -- AC DC and Phase are NOT grouped.
TRUE -- Companion Program Settings File CREATED.
FALSE -- AC data not excluded
FALSE -- DC data not excluded
FALSE -- Phase data not excluded
FALSE -- Auxillary Chn. data not excluded
Tab delimiters

#CALIBRATION STATE
TRUE -- Waveform Calibration Values APPLIED.


#AUX CALIBRATION VALUES
Val Type	aux-1	

Term	1.0000e+00	
Factor	0.0000e+00	


#WF CALIBRATION VALUES
A = Detector Channel
Val Type	A-AC1	A-AC2	A-AC3	A-AC4	A-AC5	A-AC6	A-AC7	A-AC8	A-AC9	A-AC10	A-AC11	A-AC12	A-AC13	A-AC14	A-AC15	A-AC16	A-DC1	A-DC2	A-DC3	A-DC4	A-DC5	A-DC6	A-DC7	A-DC8	A-DC9	A-DC10	A-DC11	A-DC12	A-DC13	A-DC14	A-DC15	A-DC16	A-Ph1	A-Ph2	A-Ph3	A-Ph4	A-Ph5	A-Ph6	A-Ph7	A-Ph8	A-Ph9	A-Ph10	A-Ph11	A-Ph12	A-Ph13	A-Ph14	A-Ph15	A-Ph16	

Term	0.00000e+00	0.00000e+00	0.00000e+00	0.00000e+00	0.00000e+00	0.00000e+00	0.00000e+00	0.00000e+00	0.00000e+00	0.00000e+00	0.00000e+00	0.00000e+00	0.00000e+00	0.00000e+00	0.00000e+00	0.00000e+00	0.00000e+00	0.00000e+00	0.00000e+00	0.00000e+00	0.00000e+00	0.00000e+00	0.00000e+00	0.00000e+00	0.00000e+00	0.00000e+00	0.00000e+00	0.00000e+00	0.00000e+00	0.00000e+00	0.00000e+00	0.00000e+00	0.00000e+00	0.00000e+00	0.00000e+00	0.00000e+00	0.00000e+00	0.00000e+00	0.00000e+00	0.00000e+00	0.00000e+00	0.00000e+00	0.00000e+00	0.00000e+00	0.00000e+00	0.00000e+00	0.00000e+00	0.00000e+00	
Factor	1.00000e+00	1.00000e+00	1.00000e+00	1.00000e+00	1.00000e+00	1.00000e+00	1.00000e+00	1.00000e+00	1.00000e+00	1.00000e+00	1.00000e+00	1.00000e+00	1.00000e+00	1.00000e+00	1.00000e+00	1.00000e+00	1.00000e+00	1.00000e+00	1.00000e+00	1.00000e+00	1.00000e+00	1.00000e+00	1.00000e+00	1.00000e+00	1.00000e+00	1.00000e+00	1.00000e+00	1.00000e+00	1.00000e+00	1.00000e+00	1.00000e+00	1.00000e+00	X	X	X	X	X	X	X	X	X	X	X	X	X	X	X	X	

B = Detector Channel
Val Type	B-AC1	B-AC2	B-AC3	B-AC4	B-AC5	B-AC6	B-AC7	B-AC8	B-AC9	B-AC10	B-AC11	B-AC12	B-AC13	B-AC14	B-AC15	B-AC16	B-DC1	B-DC2	B-DC3	B-DC4	B-DC5	B-DC6	B-DC7	B-DC8	B-DC9	B-DC10	B-DC11	B-DC12	B-DC13	B-DC14	B-DC15	B-DC16	B-Ph1	B-Ph2	B-Ph3	B-Ph4	B-Ph5	B-Ph6	B-Ph7	B-Ph8	B-Ph9	B-Ph10	B-Ph11	B-Ph12	B-Ph13	B-Ph14	B-Ph15	B-Ph16	

Term	0.00000e+00	0.00000e+00	0.00000e+00	0.00000e+00	0.00000e+00	0.00000e+00	0.00000e+00	0.00000e+00	0.00000e+00	0.00000e+00	0.00000e+00	0.00000e+00	0.00000e+00	0.00000e+00	0.00000e+00	0.00000e+00	0.00000e+00	0.00000e+00	0.00000e+00	0.00000e+00	0.00000e+00	0.00000e+00	0.00000e+00	0.00000e+00	0.00000e+00	0.00000e+00	0.00000e+00	0.00000e+00	0.00000e+00	0.00000e+00	0.00000e+00	0.00000e+00	-1.80303e+02	-1.38097e+02	-1.19944e+02	-1.80819e+02	-7.90061e+01	-8.11867e+01	-1.57378e+02	-1.62015e+02	-8.94823e+01	-7.32125e+01	-1.71564e+02	-1.71541e+02	-1.83671e+02	-1.76147e+02	-9.09538e+01	-1.49257e+02	
Factor	2.87017e-05	1.45962e-04	4.30770e-05	1.57142e-01	1.46671e-06	1.61965e-06	1.59980e-01	4.53428e-02	1.43660e-06	1.32136e-06	7.50420e-02	2.82269e-02	3.42424e-02	8.08152e-03	1.41912e-06	1.17899e-02	2.86743e-06	3.12586e-06	8.73151e-07	7.88825e-02	3.38613e-08	3.44756e-08	7.56613e-02	2.28643e-02	3.41259e-08	3.46871e-08	3.65790e-02	1.37491e-02	1.70758e-02	4.08423e-03	3.47117e-08	5.78306e-03	X	X	X	X	X	X	X	X	X	X	X	X	X	X	X	X	



#DISTANCE SETTINGS
A = Detector Channel
A-1	A-2	A-3	A-4	A-5	A-6	A-7	A-8	A-9	A-10	A-11	A-12	A-13	A-14	A-15	A-16	

2.5000e+00	3.0000e+00	2.5000e+00	3.0000e+00	2.0000e+00	3.0000e+00	1.5000e+00	3.0000e+00	3.0000e+00	3.0000e+00	3.0000e+00	3.0000e+00	3.0000e+00	3.0000e+00	1.5000e+00	3.0000e+00	

B = Detector Channel
B-1	B-2	B-3	B-4	B-5	B-6	B-7	B-8	B-9	B-10	B-11	B-12	B-13	B-14	B-15	B-16	

1.0000e+01	1.0000e+01	1.0000e+01	1.4400e+00	1.0000e+01	1.0000e+01	1.5100e+00	1.9400e+00	1.0000e+01	1.0000e+01	1.9900e+00	2.4900e+00	2.4100e+00	2.9000e+00	1.0000e+01	2.9800e+00	




#DATA BEGINS
time	group	step	mark	flag	A-AC1	A-AC2	A-AC3	A-AC4	A-AC5	A-AC6	A-AC7	A-AC8	A-AC9	A-AC10	A-AC11	A-AC12	A-AC13	A-AC14	A-AC15	A-AC16	A-DC1	A-DC2	A-DC3	A-DC4	A-DC5	A-DC6	A-DC7	A-DC8	A-DC9	A-DC10	A-DC11	A-DC12	A-DC13	A-DC14	A-DC15	A-DC16	A-Ph1	A-Ph2	A-Ph3	A-Ph4	A-Ph5	A-Ph6	A-Ph7	A-Ph8	A-Ph9	A-Ph10	A-Ph11	A-Ph12	A-Ph13	A-Ph14	A-Ph15	A-Ph16	B-AC1	B-AC2	B-AC3	B-AC4	B-AC5	B-AC6	B-AC7	B-AC8	B-AC9	B-AC10	B-AC11	B-AC12	B-AC13	B-AC14	B-AC15	B-AC16	B-DC1	B-DC2	B-DC3	B-DC4	B-DC5	B-DC6	B-DC7	B-DC8	B-DC9	B-DC10	B-DC11	B-DC12	B-DC13	B-DC14	B-DC15	B-DC16	B-Ph1	B-Ph2	B-Ph3	B-Ph4	B-Ph5	B-Ph6	B-Ph7	B-Ph8	B-Ph9	B-Ph10	B-Ph11	B-Ph12	B-Ph13	B-Ph14	B-Ph15	B-Ph16	aux-1	digaux	

9372.213	1	1	0	512	0.12333	0.19631	0.053996	0.30398	0.11433	0.073909	0.33511	0.050704	0.24807	0.32632	0.13816	0.14791	0.023835	0.10919	0.25774	0.28352	-2.2562	-2.6083	-2.4875	-2.6125	-2.3812	-2.9521	-2.5687	-2.375	-2.8125	-2.3667	-2.625	-2.5792	-2.4417	-2.4813	-2.5396	-2.4458	96.812	182.975	288.631	49.276	328.337	240.951	275.615	227.464	133.559	121.630	401.043	276.494	107.545	391.809	87.357	243.726	0.00053116	0.00028408	5.3105e-05	301.02	2.6099e-06	3.28e-06	374.57	93.68	3.2437e-06	1.5658e-06	167.49	84.14	38.824	18.511	3.1835e-06	45.056	5.9284e-05	1.5082e-05	3.5435e-06	291.07	1.8059e-07	1.5758e-07	363.54	90.878	1.6999e-07	1.4793e-07	162.69	81.614	37.488	18.226	1.724e-07	44.106	102.107	132.780	123.126	53.402	180.259	190.370	52.649	59.041	159.456	175.302	57.789	62.225	62.682	67.973	183.571	66.118	-8191	255	
9372.309	1	1	0	0	0.28282	0.16128	0.049705	0.29572	0.075952	0.059292	0.1705	0.30129	0.20006	0.079915	0.14684	0.20081	0.24241	0.13074	0.073168	0.12681	-2.2313	-2.3479	-2.3688	-2.7729	-2.4104	-2.7188	-2.5792	-2.3917	-2.5229	-2.4521	-2.725	-2.5333	-2.5	-2.6063	-2.625	-2.4667	228.601	77.684	346.586	87.422	80.179	75.109	172.756	280.679	292.970	205.394	334.479	378.883	191.620	311.771	153.286	284.558	0.00052046	0.00021096	9.3482e-05	303.18	2.4864e-06	2.5811e-06	383.43	95.577	2.5788e-06	2.6647e-06	171.55	85.543	39.602	18.679	2.4797e-06	45.652	5.8699e-05	1.4503e-05	4.0929e-06	292.36	1.7763e-07	1.4473e-07	370.57	92.347	1.7987e-07	1.2878e-07	167.04	83.049	37.941	18.384	1.6835e-07	44.826	104.360	107.086	145.687	53.329	188.436	158.882	53.413	58.973	185.892	180.522	57.712	62.268	62.756	67.817	178.270	65.667	-8191	255	
9372.405	1	1	0	0	0.21736	0.26452	0.50464	0.072209	0.051165	0.12547	0.29121	0.24211	0.12242	0.1902	0.11522	0.23652	0.2823	0.20095	0.11417	0.22689	-2.2625	-2.5292	-2.2687	-2.7562	-2.4688	-2.525	-2.7521	-2.3875	-2.7021	-2.5312	-2.5146	-2.6792	-2.5229	-2.525	-2.6167	-2.3979	45.975	288.637	346.241	312.844	330.266	345.379	319.382	152.321	79.175	67.047	87.863	267.850	285.318	325.986	204.120	306.779	0.0005594	0.00027944	9.3021e-05	303.52	2.6559e-06	2.3175e-06	387.3	95.242	3.8463e-06	1.7015e-06	173.72	86.31	39.592	18.881	2.366e-06	46.1	6.1584e-05	1.4145e-05	4.5349e-06	294.29	1.892e-07	1.425e-07	375.91	92.747	1.7426e-07	1.5378e-07	168.65	84.158	38.245	18.543	1.7667e-07	45.151	103.894	118.261	137.814	53.360	174.760	185.629	52.963	58.980	171.404	171.333	57.785	62.173	62.947	67.955	160.346	65.779	-8191	255	
9372.526	1	1	0	0	0.13639	0.098367	0.13094	0.17786	0.14907	0.12422	0.091654	0.21819	0.29801	0.045659	0.097702	0.10969	0.19333	0.094438	0.16069	0.17811	-2.1146	-2.5125	-2.4562	-2.6896	-2.4042	-2.4417	-2.825	-2.3542	-2.7042	-2.7875	-2.4188	-2.8229	-2.5187	-2.6	-2.8458	-2.4625	260.245	103.294	104.138	92.645	302.231	373.268	71.441	362.603	52.497	257.163	287.287	217.497	160.481	400.472	210.433	349.526	0.00059788	0.00024221	9.959e-05	304.37	2.9698e-06	2.306e-06	387.24	94.865	3.2014e-06	2.1794e-06	172.95	85.361	39.467	18.974	2.4294e-06	45.307	6.3101e-05	1.5128e-05	4.2111e-06	295.46	1.7939e-07	1.4537e-07	375.98	92.648	1.8563e-07	1.3781e-07	167.25	83.278	38.049	18.501	1.8715e-07	44.366	103.478	115.022	133.129	53.657	167.906	174.932	53.321	58.714	184.662	187.547	57.473	62.287	63.537	67.670	181.331	65.799	-8191	255	
9372.597	1	1	0	0	0.060955	0.47345	0.18853	0.22403	0.1348	0.070747	0.080542	0.1388	0.076034	0.19415	0.12692	0.2998	0.17781	0.026606	0.22257	0.25936	-2.2229	-2.5917	-2.4396	-2.6333	-2.4604	-2.6042	-2.9646	-2.5563	-2.6813	-2.7479	-2.4979	-2.7729	-2.7083	-2.5333	-2.7938	-2.7604	202.655	81.755	289.932	158.999	293.129	267.283	212.665	50.708	394.656	127.328	375.607	173.841	51.638	241.887	167.571	52.126	0.00055631	0.00027682	0.00011294	298.25	2.7644e-06	2.9626e-06	375.31	94.597	2.6212e-06	2.7145e-06	169	85.598	39.55	18.865	2.1983e-06	45.469	6.1005e-05	1.3812e-05	4.0729e-06	289.38	1.789e-07	1.5457e-07	365.17	92.137	1.8599e-07	1.2921e-07	165.28	83.017	38.093	18.51	1.7855e-07	44.515	104.231	128.380	149.397	53.427	168.177	166.985	53.634	58.710	170.017	189.302	57.807	62.150	63.100	67.501	170.044	65.898	-8191	255	
9372.693	1	1	0	0	0.26733	0.076488	0.064311	0.23688	0.11079	0.16921	0.28272	0.11597	0.13385	0.17852	0.177	0.046901	0.20525	0.24019	0.068862	0.20092	-2.0542	-2.6458	-2.3458	-2.6292	-2.7021	-2.5854	-3.0187	-2.5312	-2.5479	-2.7604	-2.5312	-2.7938	-2.4813	-2.3979	-2.7042	-2.4646	183.566	346.658	212.373	347.046	243.248	46.969	344.652	306.883	204.748	129.075	185.486	141.626	308.032	134.474	213.900	45.362	0.00057801	0.00024856	0.00010056	301.76	2.9693e-06	3.1147e-06	378.97	94.963	2.9471e-06	1.5441e-06	172.07	86.712	39.695	19.077	2.4584e-06	46.55	6.1542e-05	1.3389e-05	4.273e-06	290.96	1.765e-07	1.5033e-07	368.71	92.554	1.8577e-07	1.386e-07	167.92	84.219	38.435	18.675	1.6618e-07	45.585	104.596	113.212	132.492	53.532	187.998	173.784	53.201	58.703	169.709	169.333	57.681	62.402	62.692	67.763	179.686	65.909	-8191	255	
9372.790	1	1	0	0	0.13362	0.17031	0.04922	0.076279	0.10692	0.17291	0.28815	0.052828	0.095904	0.095196	0.07317	0.28569	0.1804	0.13167	0.20793	0.28414	-2.1229	-2.8708	-2.4896	-2.6854	-2.5438	-2.3854	-2.9188	-2.8833	-2.6312	-2.6667	-2.5896	-2.575	-2.4625	-2.2875	-2.6625	-2.5708	397.877	340.595	389.769	229.174	253.703	201.760	289.651	342.082	305.932	147.820	330.671	235.447	313.754	330.211	266.188	371.373	0.00059231	0.00033107	6.9112e-05	297.94	3.128e-06	3.0279e-06	389.94	98.908	2.2117e-06	2.4496e-06	183.97	94.188	42.563	20.303	3.0779e-06	49.686	6.4338e-05	1.4789e-05	4.1911e-06	289.47	1.8342e-07	1.7504e-07	381.05	95.981	1.9722e-07	1.5002e-07	180.26	91.581	41.221	19.959	1.8694e-07	48.501	103.851	129.308	134.696	53.436	179.750	171.725	53.301	58.740	181.678	183.774	57.495	62.081	62.727	67.640	170.282	65.630	-8191	255	
9372.908	1	1	0	0	0.072563	0.080159	0.18646	0.19438	0.23859	0.026942	0.25571	0.20847	0.070884	0.1635	0.13338	0.099641	0.096453	0.17491	0.11591	0.099364	-1.8708	-2.5396	-2.5792	-2.6646	-2.7854	-2.4583	-2.7021	-2.3708	-2.5771	-2.6167	-2.5958	-2.6042	-2.5583	-2.3833	-2.7542	-2.5687	112.439	329.105	92.809	108.809	336.397	144.922	290.119	134.427	199.203	149.403	295.174	397.330	226.015	187.159	84.438	269.025	0.00058625	0.00032549	0.00012165	299.97	3.0102e-06	3.2568e-06	399.73	99.354	2.1159e-06	2.9034e-06	185.5	91.807	41.822	19.806	3.0363e-06	47.873	6.4487e-05	1.3226e-05	4.8296e-06	290.63	1.7086e-07	1.5866e-07	387.69	96.394	1.8627e-07	1.4496e-07	180.28	89.686	40.489	19.468	1.7804e-07	46.842	102.771	102.510	134.638	53.669	189.233	185.838	53.197	58.886	185.355	183.676	57.780	62.058	62.578	67.395	164.998	65.707	-8191	255	
9373.005	1	1	0	0	0.089553	0.2189	0.12622	0.083715	0.049134	0.080126	0.1456	0.018925	0.14106	0.19235	0.057086	0.23857	0.20779	0.23245	0.039155	0.067656	-1.8646	-2.675	-2.3042	-2.5667	-2.7083	-2.5208	-2.6958	-2.6208	-2.5333	-2.9333	-2.4562	-2.5396	-2.8708	-2.3292	-2.5729	-2.5667	390.544	387.147	128.922	398.718	285.343	378.903	221.422	328.044	87.920	164.822	253.089	90.469	171.223	384.048	184.143	294.004	0.00059152	0.00026586	0.00010649	298.91	3.1021e-06	2.6058e-06	389.32	97.073	2.2069e-06	2.1986e-06	176.63	88.298	40.607	19.404	2.6193e-06	47.157	6.5354e-05	1.3884e-05	4.2384e-06	289.35	1.7206e-07	1.55e-07	375.26	94.147	1.8464e-07	1.2892e-07	171.7	85.821	39.215	18.982	1.9352e-07	45.985	104.106	109.961	147.299	53.500	173.916	164.020	52.959	58.821	169.975	196.777	57.947	62.070	62.868	67.613	178.038	65.825	-8191	255	
9373.101	1	1	0	0	0.16467	0.13642	0.24912	0.082996	0.21759	0.13117	0.035618	0.057091	0.09718	0.17755	0.21585	0.092478	0.099374	0.10068	0.30174	0.29641	-1.9562	-2.575	-2.3438	-2.525	-2.7313	-2.5187	-2.4917	-2.6312	-2.4	-2.6542	-2.5042	-2.5604	-2.5854	-2.5062	-2.5292	-2.6646	95.125	345.416	263.121	246.378	277.499	283.122	400.356	109.408	49.601	392.614	150.581	256.983	115.250	161.032	245.338	195.499	0.00056963	0.00026086	5.8729e-05	300.65	2.6339e-06	3.1718e-06	393.9	97.943	2.9596e-06	1.85e-06	183.18	91.595	41.85	19.963	2.4741e-06	48.719	6.2146e-05	1.5909e-05	3.7564e-06	291.2	1.5054e-07	1.5679e-07	382.31	95.166	1.8783e-07	1.4814e-07	177.73	89.253	40.45	19.548	1.8817e-07	47.63	101.929	119.207	137.170	53.516	176.786	170.223	53.006	58.785	177.598	174.612	57.706	62.243	62.805	67.690	181.890	65.804	-8191	255	
9373.197	1	1	0	0	0.08579	0.12702	0.13878	0.050475	0.17878	0.12712	0.076606	0.097399	0.34639	0.1907	0.23056	0.091412	0.195	0.24715	0.21138	0.33325	-1.9062	-2.7	-2.4792	-2.4938	-2.6833	-2.5729	-2.7667	-2.7479	-2.3729	-2.5458	-2.6854	-2.6188	-2.6854	-2.5771	-2.5125	-2.7646	54.899	291.521	324.441	42.423	224.080	319.593	316.739	196.936	145.643	253.560	340.795	180.485	115.559	99.298	193.886	293.047	0.00060291	0.00026019	8.8062e-05	303.22	2.8952e-06	3.6211e-06	404.88	99.668	3.6747e-06	1.905e-06	188.9	93.923	42.498	20.159	2.2873e-06	49.915	6.4487e-05	1.3786e-05	4.2111e-06	293.65	1.6698e-07	1.6792e-07	392.9	97.093	2.044e-07	1.5855e-07	183.77	91.607	41.053	19.837	1.7963e-07	48.754	105.518	131.781	140.830	53.366	200.168	170.509	53.069	58.943	167.311	207.293	57.664	62.210	63.219	67.738	160.871	65.767	-8191	255	
9373.293	1	1	0	0	0.23089	0.078029	0.1184	0.091435	0.086281	0.27598	0.015317	0.21384	0.18333	0.15587	0.053775	0.16846	0.2735	0.18712	0.15731	0.050074	-1.9896	-2.7562	-2.6375	-2.4	-2.6396	-2.5958	-2.7271	-2.7	-2.3083	-2.5292	-2.5187	-2.3521	-2.6583	-2.4938	-2.4958	-2.7146	353.387	162.076	237.281	139.601	330.425	341.303	282.747	332.789	387.410	347.317	192.542	320.229	43.010	53.846	197.954	197.101	0.00062199	0.00025105	0.00011873	309.29	2.8294e-06	2.9273e-06	409.8	100.14	3.5268e-06	2.0534e-06	187.88	92.856	42.004	19.998	3.3608e-06	48.779	6.475e-05	1.3454e-05	4.0638e-06	298	1.7446e-07	1.4092e-07	397.96	97.502	1.8158e-07	1.2509e-07	181.81	90.232	40.362	19.588	1.7161e-07	47.635	103.371	118.913	148.059	53.346	173.296	174.308	53.499	58.938	170.808	182.774	57.844	62.208	63.089	67.966	171.583	65.854	-8191	255	
9373.389	1	1	0	0	0.051471	0.33348	0.15219	0.13659	0.14481	0.18604	0.10389	0.13864	0.052337	0.20009	0.14707	0.24683	0.064948	0.094041	0.31195	0.17019	-2.0062	-2.5271	-2.4479	-2.4833	-2.6625	-2.4229	-2.4875	-2.7729	-2.4917	-2.6542	-2.5312	-2.3875	-2.7313	-2.6667	-2.4813	-2.6875	138.615	233.650	119.037	149.916	363.805	84.091	313.467	395.849	308.664	47.479	61.358	325.009	187.535	221.643	326.418	57.133	0.00060028	0.00031447	7.6982e-05	301.27	2.8531e-06	2.3567e-06	395.77	98.718	3.2347e-06	2.3933e-06	183.26	91.748	42.266	20.211	3.6336e-06	48.669	6.1913e-05	1.365e-05	2.8268e-06	290.95	1.4582e-07	1.3639e-07	383.61	95.479	1.7305e-07	1.3304e-07	178.2	89.444	40.501	19.743	1.7862e-07	47.836	104.312	115.426	153.265	52.860	184.621	167.284	53.162	58.636	173.253	196.038	57.930	62.120	62.771	67.663	172.087	65.668	-8191	255	
9373.485	1	1	0	0	0.19176	0.30048	0.24855	0.31339	0.18702	0.24209	0.12398	0.18292	0.10734	0.17218	0.2594	0.12038	0.31744	0.13464	0.057996	0.24621	-2.0208	-2.4167	-2.5354	-2.2	-2.4813	-2.4625	-2.4375	-2.7875	-2.4125	-2.5729	-2.7771	-2.4708	-2.65	-2.3708	-2.2646	-2.8104	397.523	203.031	322.581	376.638	93.771	344.098	367.674	157.361	379.395	216.255	217.610	383.163	353.469	230.063	399.451	187.731	0.00059598	0.00025776	9.6158e-05	301.96	2.8401e-06	3.8164e-06	399.1	99.202	3.3744e-06	2.1799e-06	188.37	94.596	43.11	20.553	2.8508e-06	49.787	6.3095e-05	1.2367e-05	3.7837e-06	291.73	1.6105e-07	1.4552e-07	387.1	96.893	1.8712e-07	1.2531e-07	182.31	91.865	41.456	20.132	1.8195e-07	48.781	105.252	129.052	130.971	53.271	173.610	175.057	53.094	58.891	181.871	183.852	58.153	62.125	62.429	67.461	191.432	65.872	-8191	255	
9373.606	1	1	0	0	0.10223	0.25957	0.20513	0.035929	0.13308	0.17944	0.17986	0.087981	0.14645	0.02652	0.22787	0.088545	0.17327	0.089965	0.24357	0.25384	-1.8875	-2.4354	-2.7208	-2.3937	-2.6875	-2.7042	-2.3104	-2.5708	-2.5146	-2.5938	-2.6896	-2.2729	-2.3021	-2.6646	-2.2833	-2.5542	317.365	224.734	308.060	320.482	230.441	84.013	105.331	251.880	282.657	249.211	71.872	248.460	381.970	331.885	128.174	55.842	0.00060186	0.00026872	7.6504e-05	300.64	3.1042e-06	2.9626e-06	397.45	100.3	2.7633e-06	2.6919e-06	188.34	94.207	43.347	20.575	2.7761e-06	49.87	6.4404e-05	1.4483e-05	3.7473e-06	290.88	1.6585e-07	1.481e-07	386.04	97.365	1.7504e-07	1.592e-07	182.96	91.97	41.635	20.175	1.9055e-07	48.802	104.024	112.471	134.656	53.458	162.609	158.841	53.129	58.734	180.209	175.780	57.921	61.905	62.496	67.550	158.899	65.531	-8191	255	
9373.702	1	1	0	0	0.14861	0.14008	0.12916	0.24244	0.088244	0.095309	0.087445	0.10482	0.20561	0.087328	0.09077	0.27734	0.01506	0.20938	0.10834	0.14722	-2.125	-2.3167	-2.625	-2.2375	-2.5479	-2.4917	-2.3958	-2.7833	-2.7146	-2.4396	-2.6833	-2.6354	-2.4875	-2.6021	-2.35	-2.6771	218.217	108.645	198.891	391.121	240.193	300.946	190.399	355.897	358.213	277.539	346.359	139.586	47.016	129.785	58.365	175.963	0.00059599	0.0003261	6.9676e-05	302.04	3.0468e-06	2.4631e-06	396.81	99.122	3.909e-06	1.9046e-06	182.98	91.502	42.484	20.161	3.3477e-06	48.438	6.2731e-05	1.6424e-05	3.9601e-06	291.97	1.8885e-07	1.3639e-07	386.31	96.371	1.948e-07	1.4829e-07	178.17	89.545	40.84	19.823	1.8932e-07	47.34	107.588	110.063	122.906	53.474	181.412	176.735	53.223	58.671	171.415	181.590	58.015	62.068	62.996	67.280	155.175	65.227	-8191	255	
9373.798	1	1	0	0	0.2597	0.05703	0.15214	0.2349	0.13523	0.29032	0.19048	0.099388	0.039929	0.097332	0.36704	0.21826	0.27963	0.10962	0.16245	0.15969	-2.0917	-2.1688	-2.6833	-2.5896	-2.4854	-2.9458	-2.3729	-2.8083	-2.4521	-2.5979	-2.8604	-2.5396	-2.5896	-2.6937	-2.4979	-2.6417	178.057	119.021	353.332	380.362	69.577	243.176	331.575	221.208	319.232	140.189	56.155	54.337	362.031	387.041	328.230	276.820	0.00061669	0.00026158	7.3321e-05	294.61	2.9771e-06	3.389e-06	380.62	96.59	3.2352e-06	2.4582e-06	178.81	90.787	41.893	20.13	3.5538e-06	48.516	6.4338e-05	1.4783e-05	3.3707e-06	284.97	1.6782e-07	1.2749e-07	369.88	93.802	1.8001e-07	1.472e-07	173.54	88.369	40.403	19.764	1.92e-07	47.447	101.337	119.315	142.796	53.579	188.400	164.262	52.640	59.120	184.959	181.441	57.600	61.921	62.481	67.161	171.367	65.326	-8191	255	
9373.894	1	1	0	0	0.26155	0.14052	0.25361	0.071661	0.046437	0.17374	0.27909	0.28562	0.18823	0.18124	0.063586	0.37887	0.050898	0.24868	0.22018	0.11217	-1.9188	-2.4917	-2.7917	-2.5771	-2.6063	-2.7646	-2.4083	-2.5292	-2.7562	-2.3979	-2.7104	-2.3979	-2.5271	-2.8333	-2.6958	-2.6042	261.822	255.373	142.679	232.811	53.845	234.246	158.063	303.206	331.734	192.596	312.769	278.415	380.835	299.764	170.252	66.250	0.0006097	0.00027729	8.068e-05	294.05	3.1894e-06	2.5238e-06	383.97	97.477	2.9185e-06	2.7442e-06	182.84	93.577	42.759	20.546	3.4976e-06	49.283	6.2779e-05	1.4418e-05	4.0038e-06	284.87	1.6543e-07	1.3805e-07	373.06	94.647	1.6523e-07	1.6173e-07	177.95	90.858	41.263	20.13	1.8274e-07	48.455	101.890	122.123	145.476	53.431	184.263	197.880	53.065	58.926	178.223	185.242	57.816	61.736	62.669	67.136	168.320	65.437	-8191	255	
9373.989	1	1	0	0	0.085963	0.03424	0.33046	0.19289	0.11361	0.046948	0.19067	0.019489	0.36229	0.21741	0.2059	0.088496	0.2825	0.33654	0.15732	0.024612	-2.3917	-2.4042	-2.7313	-2.4521	-2.4229	-2.8396	-2.5292	-2.5646	-2.7396	-2.3438	-2.8563	-2.5812	-2.3563	-2.625	-2.4938	-2.4896	204.417	340.484	393.939	201.095	87.878	139.168	193.624	212.841	79.805	382.976	114.802	293.767	266.666	352.281	113.386	349.628	0.00060322	0.00026033	9.8139e-05	294.03	2.2226e-06	1.9103e-06	387.03	98.021	2.6606e-06	2.2596e-06	184.03	93.496	42.617	20.659	2.7417e-06	49.502	6.3962e-05	1.4744e-05	3.7436e-06	284.61	1.7622e-07	1.374e-07	376.1	95.363	1.6316e-07	1.6166e-07	178.66	90.92	41.297	20.183	1.8672e-07	48.511	103.462	136.403	137.623	53.358	171.448	187.637	53.172	58.782	166.022	182.099	57.762	61.721	62.377	67.353	175.267	65.587	-8191	255	
9374.085	1	1	0	0	0.20942	0.23276	0.14541	0.083945	0.23416	0.27422	0.32143	0.32567	0.35019	0.3536	0.2892	0.40485	0.14432	0.21495	0.15073	0.094506	-2.4188	-2.2667	-2.5458	-2.4938	-2.5521	-2.7146	-2.7313	-2.3167	-2.7167	-2.6063	-2.8208	-2.6604	-2.2896	-2.8458	-2.4958	-2.6146	229.637	271.047	165.027	321.254	87.115	390.980	266.573	278.425	80.225	294.872	326.470	316.716	305.558	72.186	159.682	164.495	0.00062455	0.0002683	8.3649e-05	297.58	2.5056e-06	3.6309e-06	386.55	98.022	3.0178e-06	2.2509e-06	183.04	92.848	43.28	20.47	2.8251e-06	49.178	6.4033e-05	1.3656e-05	3.9055e-06	287.23	1.8003e-07	1.3855e-07	376.93	95.343	1.7404e-07	1.6274e-07	177.92	90.48	41.573	20.06	1.8578e-07	48.114	103.364	121.446	137.916	53.437	191.915	165.755	52.957	58.610	167.135	183.651	57.741	61.846	62.594	67.256	171.279	65.477	-8191	255	
9374.206	1	1	0	0	0.12501	0.13151	0.074147	0.22116	0.16223	0.12527	0.2612	0.13164	0.01501	0.13941	0.087656	0.15801	0.072191	0.18435	0.10334	0.21582	-2.1771	-2.4521	-2.5812	-2.525	-2.4271	-2.6562	-2.5583	-2.675	-2.7646	-2.3958	-2.5771	-2.6604	-2.4354	-2.7771	-2.5729	-2.6042	45.242	388.353	141.724	120.869	206.765	315.195	335.254	289.307	363.709	318.156	277.101	65.076	198.986	334.880	291.131	264.750	0.00058789	0.00030243	8.0741e-05	291.87	2.7442e-06	2.305e-06	379.4	97.278	2.8405e-06	3.0223e-06	180.27	92.522	42.753	20.41	2.8664e-06	49.015	6.1244e-05	1.3695e-05	3.7309e-06	283.29	1.6056e-07	1.2289e-07	369.95	94.661	1.8037e-07	1.5985e-07	175.23	89.86	41.103	20.056	1.9938e-07	48.081	104.556	131.395	132.196	53.201	171.751	181.631	53.165	58.827	174.724	188.738	57.619	61.870	63.195	67.418	177.394	65.445	-8191	255	
9374.302	1	1	0	0	0.13002	0.25502	0.12381	0.14868	0.18129	0.047544	0.18151	0.1564	0.30529	0.25349	0.20182	0.14789	0.32533	0.032241	0.21729	0.074832	-2.275	-2.4146	-2.5812	-3.0208	-2.4292	-2.5667	-2.5646	-2.5687	-2.6208	-2.4417	-2.725	-2.9354	-2.4896	-2.6562	-2.7062	-2.5104	79.339	234.768	390.214	166.112	271.812	225.662	394.604	56.873	97.340	253.530	160.887	377.285	269.573	88.361	193.990	363.028	0.00061402	0.00032193	7.8869e-05	294.21	2.4762e-06	3.9468e-06	384.79	97.991	3.0547e-06	2.7004e-06	182.11	92.756	42.714	20.491	2.2524e-06	49.216	6.2164e-05	1.5623e-05	3.82e-06	285.17	1.734e-07	1.407e-07	373.48	95.377	1.8094e-07	1.5906e-07	177.12	90.075	41.223	20.04	1.6184e-07	48.058	105.310	119.593	141.196	53.429	195.954	172.826	53.086	58.858	176.562	191.449	57.644	61.755	62.658	67.303	168.531	65.802	-8191	255	
9374.398	1	1	0	0	0.10213	0.20873	0.15979	0.13571	0.13451	0.12406	0.065701	0.11465	0.11111	0.15318	0.028889	0.086189	0.20384	0.16637	0.20833	0.27946	-2.2938	-2.3604	-2.3	-2.6708	-2.4896	-2.7062	-2.7292	-2.6188	-2.6146	-2.5187	-2.5417	-2.7792	-2.3937	-2.5729	-2.4896	-2.5896	157.381	276.744	174.069	102.714	303.886	342.355	282.772	102.787	372.667	120.887	129.319	104.031	389.497	152.052	65.373	367.074	0.00058138	0.00028577	6.9681e-05	297.01	2.8366e-06	3.4408e-06	390.24	98.676	2.8119e-06	3.2367e-06	183.53	92.929	43.094	20.389	2.1564e-06	49.489	6.2277e-05	1.4047e-05	3.7e-06	287.93	1.8052e-07	1.5909e-07	378.53	95.679	1.6935e-07	1.6375e-07	178.39	90.341	41.384	19.985	1.6922e-07	48.297	104.994	119.209	157.001	53.646	178.571	174.906	53.263	59.011	173.699	184.263	57.569	61.859	62.655	66.849	183.805	65.544	-8191	255	
9374.470	1	1	0	0	0.16473	0.075899	0.21193	0.12812	0.17464	0.035327	0.33427	0.18984	0.10744	0.075379	0.088786	0.075961	0.014075	0.14445	0.23563	0.14055	-2.1312	-2.3917	-2.3771	-2.7021	-2.4417	-2.6896	-2.8167	-2.3104	-2.7083	-2.4979	-2.5312	-2.7062	-2.3187	-2.5958	-2.7979	-2.3875	138.536	381.999	244.161	163.384	107.697	175.514	106.749	308.762	148.417	337.636	339.340	110.708	140.844	83.585	366.314	71.183	0.00060751	0.0003813	8.1478e-05	301.73	2.689e-06	2.3681e-06	394.66	99.443	2.5655e-06	2.6961e-06	185.76	93.317	43.552	20.49	3.7879e-06	49.09	6.4404e-05	1.4665e-05	4.0038e-06	290.86	1.7481e-07	1.3805e-07	383.04	96.871	1.852e-07	1.433e-07	180.21	91.109	41.68	20.054	1.9402e-07	47.958	103.356	123.567	136.185	53.223	195.508	159.665	52.941	59.362	171.549	177.639	57.722	61.726	63.035	67.263	178.126	65.347	-8191	255	
9374.566	1	1	0	0	0.095789	0.33326	0.065239	0.15598	0.24149	0.19443	0.11003	0.054175	0.14455	0.28297	0.075319	0.19825	0.25171	0.18792	0.20872	0.21305	-2.1542	-2.5667	-2.4917	-2.5896	-2.4583	-2.4958	-2.6521	-2.5563	-2.6875	-2.8083	-2.4313	-2.6688	-2.3812	-2.675	-2.6417	-2.6063	299.105	270.403	192.389	349.480	393.329	231.027	273.679	341.315	117.210	50.970	61.536	330.726	60.977	297.892	296.106	389.614	0.000579	0.00034925	0.00010686	299.79	3.0207e-06	3.4496e-06	383.37	97.78	2.7553e-06	2.2167e-06	181.99	92	43.443	20.328	2.9242e-06	48.869	6.2689e-05	1.4353e-05	4.5113e-06	287.7	1.6931e-07	1.3819e-07	373.12	95.298	1.734e-07	1.4207e-07	176.02	89.673	41.53	19.968	1.7045e-07	47.842	103.577	126.549	135.061	53.616	188.009	176.794	53.311	58.917	166.490	184.924	57.502	61.866	62.303	67.104	172.505	65.505	-8191	255	
9374.686	1	1	0	0	0.12022	0.087763	0.15819	0.19739	0.080449	0.13506	0.026805	0.0064164	0.10191	0.22435	0.2035	0.21099	0.22581	0.27257	0.14456	0.26213	-2.1437	-2.6646	-2.4042	-2.75	-2.6125	-2.4104	-2.875	-2.4562	-2.6354	-2.7188	-2.5125	-2.8583	-2.4396	-2.4271	-2.7708	-2.4896	110.844	188.514	309.272	330.001	273.472	350.744	148.080	68.058	287.476	128.765	351.775	339.831	180.426	292.437	213.122	308.812	0.00059836	0.00034274	0.00010443	297.86	3.0796e-06	3.3043e-06	385.3	99.006	3.0845e-06	2.6965e-06	184.15	93.98	44.037	20.723	2.4308e-06	49.704	6.429e-05	1.4972e-05	4.3949e-06	287.99	1.7072e-07	1.5284e-07	375.5	96.627	1.7241e-07	1.4381e-07	179.22	91.175	42.164	20.298	1.7689e-07	48.508	103.989	106.436	127.024	53.512	177.863	165.729	52.881	58.805	167.262	187.641	57.824	61.616	62.745	67.185	169.006	65.279	-8191	255	
9374.782	1	1	0	0	0.079812	0.18452	0.17918	0.19987	0.34256	0.22078	0.13352	0.10405	0.072988	0.1966	0.085502	0.17719	0.14423	0.1224	0.086223	0.33284	-2.1333	-2.5625	-2.5521	-2.7729	-2.5938	-2.575	-2.7396	-2.5396	-2.4729	-2.6125	-2.4062	-2.7104	-2.6208	-2.5958	-2.7271	-2.6	309.490	94.084	395.772	295.915	136.665	316.315	330.217	317.377	216.792	87.184	246.496	253.912	375.494	280.965	57.245	253.831	0.00059112	0.00026262	5.8197e-05	299.84	2.8247e-06	2.6105e-06	392.37	99.939	3.4824e-06	2.3141e-06	185.15	93.266	43.714	20.726	2.9708e-06	49.443	6.2528e-05	1.5838e-05	4.1093e-06	290.12	1.8758e-07	1.639e-07	379.58	97.131	1.889e-07	1.381e-07	180.1	91.358	42.017	20.21	1.7378e-07	48.314	106.185	140.287	151.007	53.056	181.374	186.452	53.031	58.751	176.734	191.027	57.778	61.817	62.795	67.351	175.928	65.305	-8191	255	
9374.879	1	1	0	0	0.078364	0.056158	0.23832	0.35439	0.091664	0.14108	0.19233	0.1499	0.1961	0.19272	0.40234	0.17238	0.19892	0.030073	0.073333	0.069252	-1.8604	-2.6354	-2.4792	-2.5563	-2.4979	-2.4958	-2.6708	-2.6437	-2.3146	-2.7771	-2.4313	-2.7333	-2.5062	-2.4333	-2.65	-2.7333	342.834	175.358	394.940	61.002	64.290	92.134	88.315	218.112	138.653	101.212	335.389	339.555	58.125	363.236	79.660	318.084	0.00060821	0.00033714	7.9236e-05	301.95	3.325e-06	2.703e-06	392.07	99.044	2.5298e-06	1.9134e-06	184.42	93.034	42.892	20.413	3.0011e-06	48.517	6.4541e-05	1.4893e-05	4.1875e-06	291.47	1.6959e-07	1.5571e-07	380.68	96.699	1.7973e-07	1.3109e-07	179.12	90.278	41.317	19.937	1.8788e-07	47.427	104.134	112.395	149.699	53.356	173.639	187.094	53.089	58.841	179.393	194.627	57.585	61.810	62.252	67.320	177.813	65.155	-8191	255	
9374.998	1	1	0	0	0.18063	0.29837	0.34194	0.13125	0.16442	0.2062	0.12343	0.070639	0.10715	0.083033	0.20749	0.18716	0.16176	0.10598	0.11594	0.16607	-2.1375	-2.6458	-2.3688	-2.7812	-2.6854	-2.3271	-2.5292	-2.5667	-2.3958	-2.675	-2.6646	-2.5708	-2.6958	-2.2521	-2.7333	-2.6688	57.956	100.190	120.122	85.601	351.515	88.694	307.315	357.489	223.521	98.946	257.731	266.848	90.587	183.090	156.906	293.610	0.00057768	0.00025411	5.5585e-05	296.4	3.1169e-06	3.122e-06	378.19	97.653	2.5729e-06	2.1951e-06	177.81	90.504	42.575	20.303	2.8455e-06	48.195	6.1907e-05	1.365e-05	4.2912e-06	287.68	1.6811e-07	1.3726e-07	368.03	94.957	1.8798e-07	1.5602e-07	172.32	88.088	40.894	19.809	1.8339e-07	47.177	103.669	116.578	134.233	53.121	181.485	175.155	53.341	58.472	166.518	170.529	57.719	61.748	62.659	67.373	182.508	65.404	-8191	255	
9375.069	1	1	0	0	0.15275	0.10434	0.30762	0.18044	0.049379	0.25231	0.25435	0.069257	0.19679	0.21018	0.17973	0.15477	0.26442	0.060927	0.079628	0.19007	-1.9979	-2.8083	-2.4562	-2.5542	-2.7188	-2.2854	-2.7687	-2.475	-2.5187	-2.7271	-2.5792	-2.5479	-2.8438	-2.4688	-2.7583	-2.8083	79.226	78.068	357.770	66.701	85.860	317.619	329.079	324.268	289.212	142.546	347.488	319.063	265.202	154.394	286.830	44.192	0.00057423	0.00023544	6.3633e-05	297.26	3.2644e-06	2.7655e-06	384.65	97.949	3.3871e-06	2.4947e-06	180.87	91.448	43.055	20.363	3.8293e-06	48.786	6.2223e-05	1.3259e-05	4.0165e-06	287.52	1.6423e-07	1.522e-07	370.93	95.105	1.8847e-07	1.248e-07	175.39	89.296	41.391	19.985	1.9496e-07	47.84	104.250	121.135	146.900	53.322	168.477	170.895	52.863	58.871	161.785	170.592	57.624	61.621	62.282	67.690	176.703	65.414	-8191	255	
9375.167	1	1	0	0	0.17933	0.20312	0.15701	0.25924	0.15745	0.13193	0.3894	0.15602	0.17089	0.042871	0.10684	0.32611	0.2124	0.098962	0.080123	0.22957	-2.0125	-2.5917	-2.5521	-2.475	-2.6854	-2.6604	-2.6688	-2.7313	-2.375	-2.7583	-2.4771	-2.6188	-2.7812	-2.5708	-2.6396	-2.7458	267.057	187.956	54.934	283.431	356.184	176.070	397.502	229.877	367.765	310.765	369.624	346.033	300.145	231.786	217.127	353.481	0.00057849	0.00030909	7.3216e-05	296.34	3.0806e-06	2.4169e-06	386.42	98.38	2.9094e-06	2.4195e-06	184.11	93.173	43.731	20.591	2.2419e-06	49.756	6.4087e-05	1.5278e-05	3.9601e-06	287.85	1.7403e-07	1.4293e-07	374.62	96.229	1.8357e-07	1.5154e-07	178.79	90.876	41.942	20.218	1.7515e-07	48.649	101.058	122.475	145.534	52.924	172.420	176.830	53.227	58.911	162.529	188.947	57.528	61.816	62.468	67.359	172.996	65.368	-8191	255	
9375.286	1	1	0	0	0.18259	0.26295	0.25679	0.099144	0.27326	0.058861	0.15702	0.14583	0.13592	0.29517	0.40684	0.21708	0.19543	0.093296	0.22017	0.12092	-1.8417	-2.75	-2.4437	-2.4375	-2.7167	-2.3563	-2.7083	-2.5208	-2.3021	-2.6937	-2.5625	-2.4562	-2.8375	-2.4313	-2.6562	-2.7021	243.233	123.623	221.435	156.985	240.212	358.651	339.670	330.649	386.381	203.991	261.206	373.238	337.895	372.172	213.279	392.200	0.00060471	0.00026914	8.0171e-05	299.44	2.6647e-06	2.7959e-06	388.66	98.48	3.898e-06	2.244e-06	184.67	93.501	43.014	20.829	2.2217e-06	49.843	6.4368e-05	1.4659e-05	4.0692e-06	288.71	1.7051e-07	1.5062e-07	377.39	96.202	1.9686e-07	1.5183e-07	179.44	91.275	41.647	20.404	1.9634e-07	48.834	103.387	104.845	135.575	53.244	187.008	183.806	53.481	58.878	168.291	179.192	57.959	61.727	62.562	67.284	164.987	65.251	-8191	255	
9375.382	1	1	0	0	0.15859	0.16242	0.28214	0.096009	0.14307	0.089883	0.20135	0.20921	0.063726	0.18565	0.24236	0.092276	0.24618	0.14588	0.10664	0.20297	-1.925	-2.6021	-2.5604	-2.4792	-2.7812	-2.5354	-2.5563	-2.4271	-2.225	-2.5771	-2.7083	-2.5062	-2.7771	-2.4042	-2.4771	-2.5458	330.675	200.653	226.234	354.290	59.484	395.445	355.922	370.789	395.475	298.837	59.695	327.555	233.538	260.233	156.375	75.790	0.00060273	0.00036783	0.0001089	292.15	2.9852e-06	2.6867e-06	376.35	97.375	2.8314e-06	2.8481e-06	180.53	93.034	43.298	20.839	3.5718e-06	49.848	6.5575e-05	1.3637e-05	3.971e-06	282.04	1.7594e-07	1.4358e-07	365.09	94.764	1.8179e-07	1.4431e-07	175.48	90.599	41.61	20.462	2.1225e-07	48.786	100.701	121.322	132.036	53.447	167.565	175.186	53.219	58.992	177.697	186.591	57.986	61.770	62.926	67.121	160.535	65.277	-8191	255	
9375.478	1	1	0	0	0.085141	0.1278	0.14879	0.0761	0.17555	0.1347	0.058524	0.11406	0.10099	0.21889	0.3516	0.22101	0.25729	0.30841	0.16647	0.12532	-1.9438	-2.3812	-2.6646	-2.2792	-2.4458	-2.4833	-2.4604	-2.7438	-2.5625	-2.6562	-2.6875	-2.6646	-2.5083	-2.7667	-2.3854	-2.7875	363.131	132.799	176.695	243.101	253.711	136.340	299.690	368.798	396.435	266.695	332.122	397.247	155.026	103.170	173.267	309.581	0.00059681	0.00027195	7.9628e-05	293.65	2.2305e-06	3.1958e-06	380.64	99.153	2.7857e-06	1.9881e-06	184	93.597	43.292	20.713	3.5194e-06	50.107	6.3932e-05	1.363e-05	3.7909e-06	283.87	1.6924e-07	1.42e-07	370.98	95.758	1.8783e-07	1.4077e-07	178.11	91.131	41.623	20.378	2.069e-07	48.997	106.109	112.326	136.171	53.410	195.888	187.002	53.031	58.681	181.444	176.372	57.640	61.725	62.675	67.696	169.819	65.629	-8191	255	
9375.599	1	1	0	0	0.091087	0.20146	0.017357	0.30705	0.10062	0.1322	0.29809	0.1842	0.45059	0.20672	0.17945	0.15505	0.33648	0.27888	0.10736	0.067365	-2.0563	-2.5792	-2.7438	-2.3312	-2.6437	-2.4729	-2.45	-2.7062	-2.3	-2.5667	-2.7542	-2.4125	-2.7562	-2.6708	-2.2292	-2.7896	287.516	366.687	346.187	374.973	142.297	393.777	148.432	398.189	194.513	118.897	56.400	306.210	213.991	50.148	228.095	266.471	0.00060843	0.00025013	7.0674e-05	295.89	3.2941e-06	2.8249e-06	390.82	98.768	2.6519e-06	2.5615e-06	184.54	92.806	42.754	20.532	3.3431e-06	49.591	6.2988e-05	1.4698e-05	3.7127e-06	286.7	1.6768e-07	1.4796e-07	378.18	95.935	1.8542e-07	1.4511e-07	179.44	90.746	41.13	20.064	1.9178e-07	48.572	106.092	101.964	139.253	53.243	183.249	167.236	53.401	58.874	169.818	196.632	57.821	62.060	62.590	67.303	159.146	65.294	-8191	255	
9375.695	1	1	0	0	0.079033	0.19442	0.28855	0.23845	0.25925	0.12052	0.17723	0.24848	0.21997	0.23092	0.027606	0.19826	0.086084	0.20684	0.035453	0.20289	-2.0729	-2.4375	-2.6104	-2.4688	-2.6292	-2.6292	-2.2375	-2.4458	-2.5729	-2.4104	-2.6437	-2.2812	-2.4354	-2.6146	-2.3708	-2.8	83.488	47.130	178.724	286.602	233.902	303.566	270.153	100.037	140.607	130.131	125.653	382.993	276.538	316.610	69.488	346.458	0.00060607	0.00025582	6.8692e-05	301.56	2.8508e-06	3.3643e-06	392.16	98.515	2.2759e-06	2.8036e-06	182.38	91.388	41.899	20.12	3.0784e-06	48.598	6.469e-05	1.4555e-05	3.7709e-06	291.29	1.5753e-07	1.3022e-07	380.32	95.463	1.643e-07	1.5949e-07	177.19	89.023	40.414	19.741	1.8614e-07	47.73	103.478	133.134	142.099	53.476	197.317	194.242	53.177	58.874	153.866	176.690	57.927	61.990	63.143	67.403	175.425	65.689	-8191	255	
9375.767	1	1	0	0	0.22398	0.17171	0.18966	0.31443	0.2258	0.22465	0.10885	0.24215	0.18646	0.12642	0.12997	0.065468	0.013946	0.12891	0.043678	0.063671	-1.9729	-2.5833	-2.5438	-2.3271	-2.3812	-2.5104	-2.5021	-2.7021	-2.3771	-2.4125	-2.8312	-2.525	-2.425	-2.4125	-2.3583	-2.6396	297.218	52.774	316.186	338.157	171.577	122.163	381.654	326.177	325.570	286.297	74.131	279.327	242.019	46.868	136.733	360.282	0.00057081	0.00031038	9.8981e-05	300.26	3.4353e-06	2.556e-06	391.63	97.234	3.0497e-06	1.5419e-06	181.47	90.992	41.509	20.153	2.9143e-06	48.96	6.0174e-05	1.4418e-05	3.6472e-06	289.86	1.6268e-07	1.3747e-07	380.19	94.814	1.7177e-07	1.3738e-07	177.04	88.95	40.001	19.737	1.9619e-07	48.013	105.331	126.714	132.087	53.611	176.376	173.552	53.205	59.070	163.942	192.150	57.645	62.130	62.811	67.670	156.775	65.688	-8191	255	
9375.887	1	1	0	0	0.063659	0.12258	0.23063	0.11725	0.15011	0.1819	0.016671	0.34423	0.18983	0.095283	0.20413	0.40533	0.16087	0.003813	0.058533	0.093929	-2.0479	-2.3208	-2.5917	-2.3917	-2.6063	-2.7646	-2.5417	-2.6583	-2.6896	-2.3771	-2.6625	-2.4729	-2.3875	-2.6063	-2.4146	-2.8167	99.027	326.974	85.138	360.990	64.500	302.786	103.864	305.179	274.703	361.134	227.082	88.632	43.066	130.461	334.300	144.801	0.00060235	0.00038716	8.9147e-05	299.41	2.9842e-06	2.0811e-06	394.51	97.917	2.7309e-06	2.4889e-06	184.09	91.843	41.518	20.2	2.643e-06	49.482	6.297e-05	1.544e-05	3.9055e-06	291.45	1.8088e-07	1.2684e-07	382.13	95.09	1.7127e-07	1.4619e-07	178.38	89.503	40.006	19.771	1.899e-07	48.373	101.724	118.653	145.193	53.576	185.539	162.204	53.111	59.036	182.382	181.191	58.055	62.183	63.357	67.815	174.781	65.819	-8191	255	
9375.982	1	1	0	0	0.10045	0.23134	0.1385	0.28716	0.29876	0.056535	0.40388	0.10276	0.14093	0.24284	0.12096	0.027979	0.13475	0.10158	0.094809	0.32364	-2.1333	-2.3792	-2.5208	-2.4125	-2.4062	-2.7792	-2.4583	-2.7146	-2.6604	-2.3625	-2.7479	-2.4396	-2.5833	-2.7958	-2.3833	-2.6833	332.804	282.189	47.747	337.335	336.424	217.928	268.562	366.525	46.045	220.715	98.205	361.792	274.473	370.418	370.348	355.163	0.0006257	0.00021907	5.5306e-05	302.31	3.5396e-06	2.0088e-06	396.72	97.439	3.0335e-06	2.8276e-06	185.3	92.66	41.684	20.303	3.3527e-06	50.005	6.5903e-05	1.4145e-05	3.6127e-06	291.47	1.7798e-07	1.3697e-07	385.55	95.01	1.7362e-07	1.5645e-07	180.08	90.186	40.223	19.923	1.7732e-07	48.899	104.250	107.612	114.159	53.509	174.560	169.117	53.029	59.088	192.233	176.613	58.218	62.109	62.718	67.630	162.771	65.790	-8191	255	
9376.078	1	1	0	0	0.14905	0.067508	0.064882	0.27825	0.24018	0.20022	0.25142	0.093142	0.091441	0.29439	0.062673	0.10969	0.13802	0.14774	0.13179	0.15424	-2.2042	-2.3958	-2.5354	-2.4854	-2.5729	-2.7	-2.3854	-2.5292	-2.6188	-2.3875	-2.8083	-2.5479	-2.3146	-2.6417	-2.4771	-2.5062	148.723	69.286	126.930	349.804	316.620	293.642	379.315	294.064	85.999	214.010	236.063	124.211	381.823	273.273	229.452	314.369	0.00060276	0.00031611	7.131e-05	301.84	2.6733e-06	2.3535e-06	402.5	98.86	2.7648e-06	2.6569e-06	188.95	93.547	42.558	20.35	2.9208e-06	49.776	6.4589e-05	1.419e-05	3.8073e-06	291.99	1.6902e-07	1.3151e-07	389.65	96.373	1.7262e-07	1.4359e-07	183.19	91.7	41.01	19.958	1.9142e-07	48.522	102.691	111.237	132.355	53.359	175.282	176.101	53.060	58.550	170.735	174.445	58.034	62.039	62.510	67.850	171.033	65.698	-8191	255	
9376.174	1	1	0	0	0.30635	0.22605	0.26665	0.17358	0.13191	0.25636	0.058777	0.086555	0.3454	0.29636	0.14351	0.28551	0.12008	0.07646	0.03077	0.069792	-2.1688	-2.3646	-2.3417	-2.4333	-2.2896	-2.6667	-2.7125	-2.4729	-2.6312	-2.4292	-2.6542	-2.5208	-2.3187	-2.7125	-2.4708	-2.425	348.792	372.848	359.852	348.703	157.698	256.038	365.242	300.465	161.219	92.139	309.728	358.489	343.476	263.349	156.992	121.947	0.00060995	0.00033638	6.6034e-05	299.13	2.3361e-06	3.023e-06	388.5	98.686	2.7257e-06	2.3704e-06	182.02	91.124	42.277	20.004	3.162e-06	48.584	6.3233e-05	1.4679e-05	3.5763e-06	290.32	1.6874e-07	1.3295e-07	378.7	95.418	1.7042e-07	1.6859e-07	177.36	89.111	40.714	19.71	1.9099e-07	47.555	103.541	116.527	146.028	52.969	177.762	188.377	53.203	59.158	162.365	185.835	57.862	62.196	62.924	67.663	160.326	65.508	-8191	255	
9376.270	1	1	0	0	0.19548	0.14578	0.13701	0.089932	0.2323	0.11885	0.1246	0.26929	0.026759	0.1023	0.16296	0.19261	0.1277	0.26834	0.1034	0.05928	-2.0792	-2.3896	-2.5708	-2.5146	-2.3542	-2.6167	-2.725	-2.4646	-2.525	-2.4688	-2.625	-2.5583	-2.4083	-2.7396	-2.5729	-2.5667	62.076	385.644	48.255	52.436	313.986	124.354	240.388	338.100	369.741	304.307	297.390	292.919	313.315	382.526	73.404	359.052	0.00058418	0.00034143	8.9139e-05	298.48	3.1419e-06	3.3538e-06	395.35	99.457	3.4155e-06	2.0682e-06	184.4	92.302	42.885	20.077	2.6464e-06	48.162	6.2791e-05	1.5603e-05	4.1147e-06	289.69	1.8045e-07	1.3848e-07	381.8	96.715	1.8286e-07	1.4944e-07	179.37	89.909	41.162	19.629	1.792e-07	47.293	106.422	109.143	145.317	53.218	174.786	177.746	53.247	58.882	177.066	168.470	57.776	61.859	62.964	67.475	172.419	65.893	-8191	255	
9376.366	1	1	0	0	0.090928	0.18949	0.13656	0.23402	0.12739	0.23464	0.079992	0.17628	0.16365	0.14171	0.15213	0.13408	0.072507	0.21965	0.14485	0.084518	-2.2396	-2.4188	-2.4292	-2.6625	-2.3021	-2.8167	-2.5333	-2.3292	-2.8417	-2.3917	-2.475	-2.7292	-2.3667	-2.5563	-2.5812	-2.5854	263.643	363.262	286.597	319.557	253.996	240.165	314.822	394.407	256.328	211.558	49.352	102.412	115.817	298.010	361.974	310.833	0.00062819	0.00028231	0.00010155	303.45	2.9243e-06	2.64e-06	397.26	99.962	2.8575e-06	2.3209e-06	185.48	92.22	42.469	19.889	2.364e-06	48.563	6.4744e-05	1.4789e-05	3.9383e-06	293.94	1.7135e-07	1.351e-07	386.67	96.932	1.6089e-07	1.5219e-07	180.29	89.7	40.84	19.505	1.698e-07	47.439	104.367	120.391	131.038	53.545	200.923	175.677	53.063	59.159	176.647	184.591	57.611	62.304	63.253	67.637	183.728	65.717	-8191	255	
9376.463	1	1	0	0	0.0058976	0.13207	0.19577	0.12169	0.41924	0.1318	0.056765	0.17306	0.0929	0.28927	0.19982	0.17455	0.15692	0.098171	0.068272	0.20093	-2.0687	-2.4667	-2.3812	-2.6792	-2.1542	-2.6625	-2.6708	-2.3771	-2.575	-2.6146	-2.5458	-2.5687	-2.3396	-2.5417	-2.5896	-2.3354	237.091	378.689	43.643	135.744	341.667	260.076	210.535	330.340	285.280	196.905	233.348	395.719	47.775	296.926	235.810	292.921	0.00061286	0.00028855	0.00010044	305.26	3.4805e-06	2.4539e-06	403.44	100.67	2.8593e-06	2.652e-06	189.3	93.399	42.619	20.013	1.8671e-06	48.971	6.2922e-05	1.4705e-05	4.0893e-06	296.49	1.7537e-07	1.4487e-07	391.43	97.785	1.7319e-07	1.4243e-07	183.21	90.919	41.106	19.616	1.7493e-07	47.872	101.443	126.487	122.669	53.555	191.705	181.655	53.207	59.245	186.255	184.397	57.647	62.082	62.939	67.716	169.018	66.029	-8191	255	
9376.559	1	1	0	0	0.15039	0.16558	0.21507	0.12149	0.11209	0.075012	0.040691	0.049936	0.23278	0.10371	0.058589	0.15224	0.29501	0.094594	0.25252	0.058535	-2.175	-2.4646	-2.4313	-2.6813	-2.5583	-2.6104	-2.6437	-2.3646	-2.7708	-2.65	-2.3	-2.5229	-2.4521	-2.4771	-2.6146	-2.5104	164.914	65.806	58.049	343.263	301.073	99.868	215.442	157.563	316.810	153.212	251.679	320.499	380.034	218.464	295.849	311.156	0.00059358	0.00024864	0.00010045	303.82	2.8057e-06	2.508e-06	396.07	99.407	2.8455e-06	1.4546e-06	183.39	91.133	42.286	19.997	2.5177e-06	48.149	6.2486e-05	1.3611e-05	4.1602e-06	293.98	1.6564e-07	1.3316e-07	384.33	96.483	1.6196e-07	1.287e-07	178.06	88.742	40.53	19.507	1.7233e-07	47.208	102.959	110.184	140.082	53.197	172.167	167.589	52.918	58.785	161.205	183.084	58.094	62.234	62.536	67.694	152.831	65.560	-8191	255	
9376.679	1	1	0	0	0.24506	0.07997	0.11598	0.10369	0.17726	0.056678	0.13057	0.19377	0.22752	0.19843	0.027034	0.27384	0.29044	0.14528	0.3217	0.1584	-2.1729	-2.5542	-2.3521	-2.6667	-2.4813	-2.5958	-2.6354	-2.4083	-2.5646	-2.6479	-2.5042	-2.7604	-2.3708	-2.4375	-2.6771	-2.3896	392.754	161.596	217.068	53.122	111.888	355.585	305.332	254.848	390.552	220.631	296.854	359.477	98.326	202.595	340.539	255.228	0.000587	0.00025605	8.2632e-05	304.53	2.5925e-06	3.4461e-06	397.04	99.509	2.326e-06	2.5511e-06	185.09	91.996	42.234	19.957	2.8753e-06	48.576	6.1118e-05	1.3435e-05	4.1475e-06	293.44	1.6035e-07	1.4516e-07	386.21	96.41	1.702e-07	1.3658e-07	179.44	89.46	40.542	19.514	1.6076e-07	47.605	104.244	116.947	147.631	53.255	189.731	177.692	53.339	58.967	173.685	174.610	57.774	62.110	63.122	67.828	162.741	66.004	-8191	255	
9376.775	1	1	0	0	0.057742	0.17625	0.10332	0.18485	0.15395	0.20633	0.074661	0.13709	0.27644	0.22022	0.17343	0.11855	0.13187	0.31553	0.11878	0.12805	-2.0375	-2.4792	-2.3292	-2.6542	-2.4083	-2.4813	-2.7458	-2.2958	-2.5208	-2.5229	-2.3937	-2.5896	-2.325	-2.5417	-2.5083	-2.4875	301.708	114.473	188.262	367.725	329.890	208.711	303.927	393.392	151.105	55.983	396.432	117.332	346.438	333.107	248.889	271.357	0.00060513	0.00024534	8.7226e-05	306.18	3.1504e-06	3.613e-06	403.44	98.875	3.6117e-06	2.9269e-06	188.13	93.488	42.734	20.265	2.8478e-06	49.821	6.3956e-05	1.266e-05	3.9619e-06	296.43	1.7537e-07	1.4638e-07	390.86	97.013	1.852e-07	1.4402e-07	182.81	91.268	41.02	19.844	1.6148e-07	48.735	102.154	119.682	128.362	53.439	190.605	176.333	52.961	59.092	161.343	184.099	57.718	62.090	63.085	67.618	165.961	65.841	-8191	255	
9376.870	1	1	0	0	0.094267	0.1659	0.10062	0.12637	0.020855	0.28464	0.29392	0.21234	0.081278	0.10536	0.064451	0.25874	0.13905	0.21635	0.081692	0.12263	-2.1188	-2.5271	-2.3438	-2.5229	-2.5167	-2.3917	-2.7146	-2.4125	-2.6146	-2.7333	-2.2771	-2.6625	-2.4646	-2.3104	-2.7042	-2.5021	314.389	85.078	137.850	304.862	311.260	102.228	297.919	231.488	361.748	322.802	265.248	58.951	202.762	77.865	321.998	338.527	0.00060215	0.000303	6.9921e-05	304.7	2.616e-06	3.8417e-06	403.12	100.32	2.8701e-06	3.084e-06	191.01	95.836	43.287	20.562	3.5326e-06	50.505	6.4834e-05	1.4112e-05	4.0201e-06	294.2	1.4807e-07	1.555e-07	392.16	97.741	1.8392e-07	1.3448e-07	185.37	93.141	41.641	20.174	1.912e-07	49.274	105.609	109.338	145.607	53.056	165.740	194.870	52.938	59.296	169.182	178.727	57.698	61.933	63.302	67.768	184.340	65.870	-8191	255	
9376.968	1	1	0	0	0.20501	0.047279	0.18903	0.21898	0.19047	0.2263	0.10878	0.042085	0.17128	0.022479	0.11399	0.152	0.23703	0.21655	0.11683	0.2091	-1.9833	-2.6479	-2.3667	-2.7417	-2.5187	-2.3896	-2.7167	-2.5729	-2.6729	-2.7167	-2.3542	-2.4979	-2.8229	-2.5667	-2.5833	-2.5479	263.994	111.874	242.472	326.599	285.372	238.650	138.023	328.397	308.917	394.544	125.208	392.924	109.366	126.348	362.320	387.614	0.00062937	0.00031242	6.3761e-05	301.99	3.7451e-06	3.2659e-06	395	98.837	2.8053e-06	1.8558e-06	184.85	92.798	42.416	20.214	3.2071e-06	49.18	6.5139e-05	1.195e-05	3.9456e-06	290.87	1.5781e-07	1.4063e-07	384.46	96.255	1.6857e-07	1.2047e-07	180.22	90.447	40.827	19.811	1.6741e-07	48.042	102.248	114.897	149.359	53.543	180.841	160.768	53.394	58.888	178.539	197.300	57.771	62.329	63.112	67.886	180.796	65.666	-8191	255	
9377.062	1	1	0	0	0.2574	0.088266	0.14809	0.24216	0.056484	0.19606	0.23282	0.20724	0.28217	0.071887	0.06232	0.2779	0.16254	0.04665	0.07657	0.15452	-1.9583	-2.6167	-2.3438	-2.5563	-2.7333	-2.4458	-2.6583	-2.5563	-2.4437	-2.7542	-2.4833	-2.6167	-2.5812	-2.4333	-2.4125	-2.5083	182.931	70.151	283.069	274.993	392.101	170.087	306.719	202.957	282.035	194.038	360.927	389.217	261.626	278.332	135.600	275.716	0.00059312	0.00031738	8.6833e-05	302.03	3.1772e-06	2.7071e-06	402.19	98.81	2.5875e-06	2.4192e-06	188.33	93.951	42.766	20.37	2.7812e-06	49.939	6.2934e-05	1.3975e-05	3.9201e-06	290.96	1.504e-07	1.5528e-07	386.97	96.539	1.7916e-07	1.3521e-07	183.3	91.561	41.143	19.98	1.8028e-07	49.04	101.360	106.090	143.575	53.338	185.910	177.378	53.287	58.687	182.900	179.462	57.935	62.222	62.449	67.834	172.887	65.745	-8191	255	
9377.160	1	1	0	0	0.15603	0.14079	0.068349	0.013914	0.30036	0.053307	0.0080916	0.10987	0.2815	0.24342	0.091037	0.1093	0.060053	0.11324	0.091628	0.31434	-2.0333	-2.7792	-2.3667	-2.3771	-2.6896	-2.4313	-2.8708	-2.7042	-2.4188	-2.7333	-2.5833	-2.4083	-2.6875	-2.3458	-2.6396	-2.7354	92.656	225.065	71.821	315.878	253.145	316.086	247.867	366.093	250.116	312.074	82.352	362.851	380.098	399.220	184.669	344.708	0.00062384	0.00019564	8.9805e-05	302.58	2.9478e-06	2.5712e-06	404.28	99.759	2.7873e-06	2.7546e-06	192.26	95.871	43.192	20.651	2.8773e-06	50.924	6.4804e-05	1.3956e-05	3.8182e-06	292.64	1.5936e-07	1.4774e-07	392.89	97.281	1.7404e-07	1.3564e-07	186.07	93.508	41.542	20.226	1.9482e-07	49.911	103.535	110.315	141.680	53.375	198.403	170.026	53.083	58.903	166.870	192.131	57.884	62.103	63.362	68.235	162.949	66.070	-8191	255	
9377.279	1	1	0	0	0.13084	0.05291	0.14302	0.1704	0.10349	0.14197	0.11719	0.21408	0.1119	0.1066	0.09663	0.35198	0.16991	0.13181	0.16701	0.079293	-2.0521	-2.5896	-2.5792	-2.5167	-2.5771	-2.5375	-2.5938	-2.55	-2.4333	-2.4625	-2.4562	-2.3958	-2.4542	-2.5438	-2.6417	-2.7333	336.268	137.894	259.691	174.236	375.954	300.042	310.969	246.884	179.888	153.142	111.754	385.782	284.707	167.895	74.784	77.447	0.00061281	0.00035687	6.6716e-05	304.53	1.7852e-06	3.756e-06	411.64	100.58	3.5291e-06	2.3076e-06	194.92	96.728	42.918	20.76	3.4433e-06	50.92	6.5557e-05	1.5649e-05	3.851e-06	295.2	1.6183e-07	1.5313e-07	400.87	97.897	1.8506e-07	1.4475e-07	188.93	94.28	41.453	20.219	1.9959e-07	50.093	104.947	120.510	127.264	53.434	168.914	175.453	53.191	58.975	181.541	170.167	57.806	62.294	63.453	68.172	175.535	65.873	-8191	255	
9377.375	1	1	0	0	0.02169	0.061569	0.13637	0.27947	0.22792	0.27297	0.15748	0.082445	0.063869	0.20689	0.11583	0.064077	0.1365	0.15915	0.21118	0.10094	-1.8563	-2.5438	-2.3812	-2.3021	-2.7021	-2.3792	-2.6604	-2.6813	-2.4292	-2.6708	-2.8146	-2.5396	-2.6813	-2.3083	-2.5083	-2.8187	280.683	372.651	207.526	67.451	182.259	314.009	281.946	147.022	365.527	134.814	97.852	233.417	127.747	125.619	298.783	396.236	0.00061896	0.00029765	8.5014e-05	304.36	2.766e-06	2.888e-06	404.83	99.353	2.7778e-06	2.3183e-06	188.42	93.753	42.525	20.155	2.7616e-06	49.795	6.619e-05	1.4757e-05	3.8055e-06	293.87	1.6648e-07	1.5507e-07	392.47	96.242	1.8826e-07	1.3196e-07	182.79	91.281	40.709	19.822	1.6922e-07	48.709	105.265	130.320	134.852	53.371	179.930	176.581	53.569	59.068	183.063	196.220	57.875	62.357	63.391	68.002	175.862	65.830	-8191	255	
9377.471	1	1	0	0	0.25001	0.12101	0.17893	0.35217	0.18575	0.27911	0.2267	0.19545	0.080677	0.070761	0.14525	0.1458	0.095675	0.21474	0.045403	0.20699	-1.8937	-2.7208	-2.5	-2.3042	-2.5917	-2.4167	-2.5458	-2.5	-2.4292	-2.5917	-2.65	-2.6104	-2.6271	-2.5396	-2.4417	-2.7938	194.209	92.859	249.071	201.552	115.622	251.070	281.258	303.802	136.317	296.444	151.725	81.884	195.305	387.172	336.245	67.467	0.00064279	0.00034531	6.579e-05	303.6	2.7446e-06	2.5776e-06	403.28	100.21	2.4155e-06	3.3391e-06	191.48	94.83	42.88	20.504	3.3339e-06	50.93	6.6817e-05	1.3741e-05	3.5017e-06	293.48	1.6832e-07	1.4429e-07	393.69	97.168	1.7141e-07	1.4222e-07	186.06	92.534	41.119	20.071	1.9222e-07	49.928	102.207	119.441	138.228	53.214	183.457	176.173	53.331	58.888	167.065	186.181	58.167	62.150	63.118	67.943	158.743	65.955	-8191	255	
9377.567	1	1	0	0	0.2791	0.12488	0.34572	0.19217	0.27115	0.083254	0.069748	0.23119	0.27973	0.20732	0.074034	0.19342	0.21966	0.29651	0.037047	0.34814	-1.7979	-2.5667	-2.6312	-2.4313	-2.5354	-2.575	-2.4958	-2.6917	-2.3604	-2.575	-2.5792	-2.5021	-2.5333	-2.5771	-2.3896	-2.7625	381.539	295.971	276.914	100.015	373.357	266.689	72.840	61.490	95.542	106.606	329.377	78.461	151.013	253.019	134.939	349.991	0.00061072	0.00024972	7.1985e-05	308.82	3.2163e-06	2.5092e-06	419.13	102.05	3.5788e-06	2.4483e-06	196.34	97.208	43.609	20.947	3.4013e-06	52.267	6.4655e-05	1.4555e-05	3.549e-06	298.73	1.6253e-07	1.3474e-07	407.74	99.108	1.7134e-07	1.4207e-07	191.32	94.849	41.882	20.47	1.86e-07	51.114	103.794	133.738	118.546	53.276	199.827	180.577	53.419	58.796	175.147	182.072	57.861	62.112	63.639	67.696	171.535	65.948	-8191	255	
9377.664	1	1	0	0	0.16726	0.24209	0.29483	0.039153	0.18534	0.27308	0.072841	0.15218	0.080473	0.20221	0.0031919	0.15391	0.063504	0.099953	0.15107	0.13008	-1.9521	-2.4208	-2.4208	-2.4354	-2.4458	-2.4125	-2.6021	-2.9125	-2.2646	-2.6104	-2.7917	-2.5521	-2.7104	-2.6167	-2.5542	-2.7896	290.159	199.066	400.356	209.135	354.344	136.825	386.965	337.412	171.885	161.614	294.225	368.698	125.334	195.026	130.124	268.937	0.00065364	0.00033785	0.00011885	314.72	3.7381e-06	3.0017e-06	433.76	103.54	3.6945e-06	2.1685e-06	202.05	99.41	43.916	21.048	2.9838e-06	52.864	6.7582e-05	1.3487e-05	3.7909e-06	303.61	1.8038e-07	1.481e-07	419.71	100.83	1.8336e-07	1.4887e-07	195.92	96.78	42.308	20.55	1.967e-07	51.697	106.377	125.706	133.824	53.416	178.835	174.481	52.888	58.695	165.507	173.789	57.643	62.319	63.180	67.835	164.991	65.801	-8191	255	
9377.760	1	1	0	0	0.13254	0.12748	0.2451	0.2013	0.087669	0.32196	0.29799	0.15674	0.43958	0.25267	0.18953	0.081599	0.30554	0.18571	0.21392	0.046291	-1.9271	-2.3937	-2.4542	-2.3875	-2.7125	-2.6562	-2.4646	-2.7354	-2.4979	-2.5354	-2.8896	-2.5104	-2.3646	-2.5417	-2.4354	-2.725	103.937	154.007	384.664	399.410	176.670	277.775	315.363	333.308	275.822	46.391	81.105	334.812	322.120	96.284	147.487	335.014	0.00065107	0.00036594	8.1905e-05	315.06	3.436e-06	3.0114e-06	426.38	101.98	2.9178e-06	3.1995e-06	194.82	95.537	42.843	20.449	3.3671e-06	50.652	6.6739e-05	1.4073e-05	3.8346e-06	304.69	1.6324e-07	1.4336e-07	411.42	99.301	1.7504e-07	1.4944e-07	188.95	93.078	41.148	20.025	1.8831e-07	49.635	104.631	125.838	148.009	53.556	184.846	187.494	53.250	59.303	164.588	199.667	58.255	62.335	63.174	67.586	168.627	66.029	-8191	255	
9377.856	1	1	0	0	0.063345	0.21726	0.13171	0.085757	0.16463	0.16257	0.067882	0.097445	0.17779	0.10061	0.21441	0.1537	0.1878	0.081168	0.19827	0.12989	-1.9937	-2.2792	-2.6562	-2.3958	-2.5333	-2.7604	-2.5083	-2.7938	-2.5396	-2.4854	-2.5104	-2.5187	-2.3542	-2.6208	-2.4125	-2.7333	109.678	332.611	177.958	67.414	266.393	49.144	296.684	305.536	132.388	253.988	325.047	352.607	112.324	244.716	91.113	340.530	0.00065722	0.00029998	9.9853e-05	315.15	3.5668e-06	2.3882e-06	418.46	101.41	2.7425e-06	2.1369e-06	191.95	95.047	42.808	20.102	2.3201e-06	50.296	6.6232e-05	1.3637e-05	3.7418e-06	303.87	1.686e-07	1.3395e-07	408.47	99.215	1.653e-07	1.4092e-07	187.41	92.489	41.147	19.781	1.745e-07	49.026	105.580	118.470	131.205	53.246	174.377	176.941	52.950	58.651	179.590	179.694	57.847	62.261	63.173	67.866	178.197	65.762	-8191	255	
9377.952	1	1	0	0	0.27398	0.21149	0.013875	0.17389	0.14906	0.28329	0.1149	0.056879	0.23655	0.095416	0.18712	0.22857	0.14837	0.030362	0.057933	0.1372	-2.0354	-2.2854	-2.7417	-2.4604	-2.6125	-2.7438	-2.5021	-2.5396	-2.4042	-2.1958	-2.6125	-2.5229	-2.4708	-2.5729	-2.4688	-2.7729	204.543	210.903	309.194	342.164	330.944	327.181	306.842	42.000	386.069	368.547	394.861	360.223	331.636	158.051	196.392	320.441	0.00063255	0.00025133	6.3648e-05	319.74	2.5797e-06	3.625e-06	422.35	102.23	3.2909e-06	2.9961e-06	192.13	93.716	41.99	19.94	3.1711e-06	49.635	6.5449e-05	1.3754e-05	3.5981e-06	307.79	1.7544e-07	1.2849e-07	409	99.58	1.8243e-07	1.4316e-07	186.46	91.299	40.569	19.599	1.9453e-07	48.57	104.567	127.115	133.552	53.079	174.041	186.395	52.938	58.936	176.901	188.471	57.657	62.160	62.783	67.974	169.862	66.177	-8191	255	
9378.071	1	1	0	0	0.18002	0.054571	0.10165	0.27728	0.19734	0.13462	0.071184	0.043185	0.073108	0.071486	0.15415	0.067096	0.072847	0.37605	0.16646	0.054519	-2.1792	-2.3771	-2.6562	-2.5729	-2.3646	-2.7396	-2.3063	-2.5312	-2.8187	-2.4271	-2.7667	-2.6937	-2.5458	-2.7771	-2.5604	-2.5729	193.578	291.333	65.741	340.054	132.501	244.358	328.852	194.032	287.375	201.205	209.197	378.176	360.537	309.549	264.470	259.890	0.00061241	0.00024122	8.2372e-05	320.21	3.0532e-06	2.6945e-06	426.08	102.11	3.1734e-06	3.4812e-06	194.29	94.557	42.447	20.158	3.0285e-06	50.587	6.4493e-05	1.4731e-05	3.649e-06	309.07	1.7326e-07	1.3855e-07	413.47	99.314	1.653e-07	1.4764e-07	188.78	92.223	40.85	19.681	1.8802e-07	49.643	103.427	119.371	134.923	53.085	165.637	172.123	52.907	58.897	170.411	175.240	57.889	62.621	63.248	68.190	171.522	66.149	-8191	255	
9378.167	1	1	0	0	0.078513	0.015618	0.075928	0.11878	0.10842	0.16673	0.18403	0.35568	0.18251	0.14428	0.22383	0.063522	0.097643	0.12693	0.18193	0.34854	-2.2542	-2.3812	-2.5292	-2.5083	-2.3812	-2.825	-2.5687	-2.4979	-2.7417	-2.4042	-2.6521	-2.7417	-2.3917	-2.5833	-2.4771	-2.6396	201.323	110.157	215.548	135.523	107.315	98.840	187.784	54.366	226.156	383.189	345.640	188.860	73.084	120.273	304.921	327.827	0.00062533	0.00028955	6.2323e-05	324.01	3.0309e-06	2.3679e-06	430.64	102.7	3.2235e-06	2.1995e-06	193.98	94.717	42.904	20.106	2.8431e-06	50.606	6.386e-05	1.5414e-05	3.7855e-06	313.36	1.5238e-07	1.267e-07	418.03	100.12	1.5933e-07	1.4489e-07	188.94	92.484	41.133	19.772	1.7334e-07	49.527	104.196	119.880	126.295	52.992	171.738	176.263	53.130	58.984	183.015	176.194	57.981	62.489	63.733	68.165	175.626	66.236	-8191	255	
9378.239	1	1	0	0	0.092411	0.19035	0.10574	0.19555	0.32732	0.098633	0.041809	0.1328	0.28661	0.25561	0.197	0.10413	0.13723	0.27158	0.25684	0.34227	-2.3042	-2.2875	-2.575	-2.525	-2.4458	-2.775	-2.625	-2.625	-2.55	-2.4229	-2.5979	-2.4896	-2.5812	-2.5833	-2.4313	-2.4583	374.715	144.996	195.470	367.844	378.175	250.552	293.713	363.079	288.263	98.783	304.021	397.600	388.592	379.414	209.385	330.387	0.00065796	0.00024952	8.5545e-05	318.74	2.6656e-06	3.4044e-06	427.77	103.88	3.058e-06	2.9835e-06	204.13	101.45	45.775	22.292	3.7869e-06	56.3	6.5527e-05	1.4861e-05	4.0911e-06	308.09	1.8222e-07	1.3359e-07	415.8	101.36	1.8421e-07	1.5515e-07	198.43	99.19	44.175	21.785	1.8621e-07	55.154	103.312	126.928	132.006	53.292	180.880	174.592	53.390	58.751	170.427	183.266	57.746	61.932	63.117	67.474	163.612	65.570	-8191	255	
9378.359	1	1	0	0	0.054989	0.22179	0.22005	0.25497	0.16273	0.16975	0.1244	0.068461	0.067001	0.29135	0.067443	0.21518	0.24057	0.15995	0.037582	0.14769	-2.3417	-2.4188	-2.7062	-2.5333	-2.1875	-2.7542	-2.5708	-2.4792	-2.7542	-2.5875	-2.5729	-2.7833	-2.4396	-2.6604	-2.5146	-2.3583	303.252	107.264	289.865	372.175	218.384	189.338	367.068	125.522	152.921	180.018	156.987	42.728	358.712	45.274	253.394	281.406	0.00071617	0.00037092	0.00010099	303.12	2.9915e-06	2.8351e-06	426.8	106.31	4.2381e-06	2.768e-06	214.45	108.81	48.016	23.359	3.5911e-06	58.823	7.1417e-05	1.5414e-05	4.0729e-06	292.91	1.8278e-07	1.4674e-07	416.88	103.48	2.0227e-07	1.6881e-07	208.9	106.2	46.149	22.903	1.988e-07	57.54	105.545	121.846	141.666	53.663	184.045	177.591	53.025	58.951	173.481	175.419	58.102	61.805	62.797	67.273	174.505	65.701	-8191	255	
9378.455	1	1	0	0	0.22229	0.17986	0.14646	0.25194	0.15239	0.097964	0.21907	0.28299	0.049099	0.15388	0.054549	0.29788	0.16956	0.10083	0.11166	0.28128	-2.3375	-2.5167	-2.4333	-2.6854	-2.3333	-2.4938	-2.5833	-2.45	-2.5833	-2.4021	-2.4708	-2.6917	-2.4729	-2.4896	-2.6375	-2.3354	241.644	305.871	268.484	281.565	199.690	201.573	64.325	297.750	347.482	310.474	337.144	133.397	247.985	399.705	141.285	366.227	0.00071744	0.0003343	9.3093e-05	307.9	2.8495e-06	3.4856e-06	443.32	108.23	2.7716e-06	2.7112e-06	219.49	110.87	48.255	23.395	2.9682e-06	58.602	7.4786e-05	1.7134e-05	4.5713e-06	298.6	1.7784e-07	1.5162e-07	430.09	105.5	1.9189e-07	1.7221e-07	213.22	107.79	46.529	22.896	1.9627e-07	57.388	103.424	119.315	137.549	53.495	183.181	168.176	53.017	59.009	177.390	180.267	57.847	62.219	62.730	67.583	164.685	65.513	-8191	255	
9378.552	1	1	0	0	0.046083	0.15589	0.14415	0.26786	0.15256	0.21831	0.13307	0.045576	0.11386	0.23445	0.37951	0.16277	0.18323	0.10976	0.13033	0.050388	-2.3646	-2.525	-2.4229	-2.7	-2.6125	-2.5833	-2.6875	-2.2854	-2.6396	-2.6354	-2.5396	-2.6833	-2.3688	-2.4729	-2.6542	-2.5667	53.828	273.216	223.684	144.538	239.691	358.622	317.012	104.969	165.888	271.368	72.760	90.516	133.576	261.968	245.752	120.306	0.00068959	0.00037216	7.6238e-05	312.84	3.5883e-06	4.7009e-06	428.26	107.28	3.0306e-06	2.7539e-06	210.05	107.69	48.077	23.323	3.0494e-06	57.177	7.3514e-05	1.5974e-05	4.2803e-06	301.87	1.7876e-07	1.6002e-07	418.09	104.39	1.7482e-07	1.5486e-07	204.53	104.91	46.241	22.903	1.8202e-07	55.81	102.324	122.497	134.032	53.570	175.678	177.432	53.843	59.323	170.081	191.257	57.821	61.869	62.772	67.293	175.383	65.273	-8191	255	
9378.648	1	1	0	0	0.098089	0.17438	0.13424	0.094539	0.12856	0.27259	0.13797	0.10152	0.099642	0.25287	0.13644	0.38243	0.10623	0.1907	0.12982	0.23704	-2.2646	-2.4958	-2.3792	-2.6417	-2.5333	-2.5583	-2.7542	-2.3979	-2.6604	-2.6875	-2.4104	-2.8438	-2.35	-2.6646	-2.7208	-2.4729	106.854	125.806	309.902	92.802	45.389	297.004	368.811	327.825	292.321	181.782	349.300	313.664	203.482	393.371	67.919	374.523	0.00071255	0.00024652	7.6065e-05	303.63	3.7677e-06	2.7066e-06	415.83	103.71	3.1824e-06	3.0512e-06	204.53	104.27	46.714	22.75	3.2145e-06	55.879	7.1381e-05	1.4522e-05	3.7109e-06	294.15	1.789e-07	1.4228e-07	403.76	101.3	1.7646e-07	1.6585e-07	198.93	101.6	44.716	22.255	1.6871e-07	54.739	103.364	125.731	146.750	53.484	173.771	182.842	53.430	58.979	163.018	187.006	57.714	61.997	62.619	67.799	168.591	65.592	-8191	255	
9378.768	1	1	0	0	0.29196	0.058687	0.13596	0.11926	0.22192	0.23691	0.1422	0.13955	0.19441	0.040799	0.049205	0.18114	0.13426	0.060089	0.34496	0.19664	-1.9708	-2.45	-2.2542	-2.5812	-2.3812	-2.4854	-2.6396	-2.2833	-2.5896	-2.65	-2.4396	-2.7417	-2.4583	-2.5729	-2.7646	-2.6188	265.633	314.485	122.787	139.799	103.429	83.721	264.253	247.507	329.040	326.513	297.214	365.028	302.100	290.657	339.429	342.539	0.00068975	0.00028088	8.5747e-05	307.5	3.5256e-06	2.9007e-06	426.22	103.73	3.6807e-06	2.8913e-06	203.68	103.47	45.562	22.351	3.524e-06	55.945	6.9368e-05	1.5095e-05	4.3239e-06	296.62	1.8172e-07	1.5758e-07	411.92	101.06	1.7596e-07	1.4532e-07	198.75	100.76	43.947	21.86	1.8354e-07	54.66	103.943	109.418	125.625	53.382	189.329	174.172	52.959	58.973	173.478	181.925	57.731	62.076	62.590	67.878	173.988	65.668	-8191	255	
9378.863	1	1	0	0	0.14857	0.10664	0.014391	0.049317	0.12521	0.046317	0.12037	0.117	0.11396	0.11131	0.12284	0.15201	0.19218	0.41653	0.17579	0.087759	-2.1417	-2.5229	-2.4396	-2.5854	-2.4042	-2.6063	-2.825	-2.3917	-2.4896	-2.6542	-2.3625	-2.85	-2.4396	-2.5417	-2.7021	-2.6562	318.958	332.426	337.145	164.429	275.438	295.089	360.405	91.887	116.731	157.298	56.733	347.854	168.567	327.083	86.948	111.307	0.00069934	0.00035555	7.1296e-05	311.13	3.2043e-06	3.1997e-06	428.63	104.68	3.7739e-06	2.7849e-06	207.28	103.96	46.141	22.216	3.2994e-06	55.899	7.2188e-05	1.5584e-05	4.3075e-06	300.72	1.7001e-07	1.5737e-07	416.43	101.89	1.8236e-07	1.381e-07	200.86	101.37	44.282	21.843	1.9128e-07	54.735	105.648	100.904	135.670	53.459	186.740	187.905	53.250	59.129	174.975	176.946	58.058	62.156	62.593	67.468	163.120	65.621	-8191	255	
9378.961	1	1	0	0	0.3877	0.10875	0.18354	0.10451	0.1092	0.1701	0.071724	0.33677	0.071219	0.335	0.099414	0.51692	0.044837	0.081677	0.26157	0.012105	-2.0375	-2.6417	-2.4521	-2.6396	-2.4583	-2.3708	-2.7875	-2.4521	-2.6667	-2.6667	-2.4542	-2.7208	-2.65	-2.4896	-2.6021	-2.5729	140.777	293.928	51.095	158.066	184.341	318.720	271.548	70.321	138.185	79.241	213.614	337.012	80.578	371.738	153.071	385.057	0.00069423	0.00023894	0.00010251	311.41	3.96e-06	3.1327e-06	423.25	104.18	3.1397e-06	2.5338e-06	202.37	101.2	44.861	21.883	3.0915e-06	54.077	7.2582e-05	1.3441e-05	3.951e-06	300.92	1.7636e-07	1.5967e-07	411.29	100.84	1.8321e-07	1.3723e-07	195.73	98.468	43.169	21.457	1.724e-07	53.028	103.761	126.990	134.137	53.673	188.172	189.246	53.257	58.850	174.771	178.673	57.994	62.013	62.942	68.036	173.877	65.588	-8191	255	
9379.057	1	1	0	0	0.088244	0.22231	0.17126	0.12098	0.10675	0.13805	0.049953	0.24389	0.17365	0.35886	0.089664	0.16551	0.33318	0.22432	0.19585	0.23359	-1.9604	-2.525	-2.4354	-2.4646	-2.6312	-2.3167	-2.6458	-2.5771	-2.3917	-2.5417	-2.575	-2.5104	-2.5625	-2.4604	-2.7167	-2.6813	67.329	103.134	141.738	255.320	329.807	308.964	135.051	192.654	152.323	58.259	308.492	352.336	256.439	387.233	139.191	341.513	0.00065301	0.00035987	7.5595e-05	308.31	3.198e-06	3.4506e-06	417.76	102.13	3.7784e-06	2.3517e-06	201.15	100.57	44.034	21.717	2.924e-06	54.241	6.7803e-05	1.4919e-05	4.0529e-06	297.61	1.5992e-07	1.499e-07	406.37	99.567	1.7383e-07	1.3745e-07	195.2	97.877	42.673	21.259	1.7898e-07	53.255	103.545	134.590	142.534	53.514	171.710	180.311	53.624	59.079	179.520	181.503	57.758	62.016	63.347	67.540	175.657	65.975	-8191	255	
9379.151	1	1	0	0	0.15582	0.13267	0.23567	0.031113	0.037883	0.091559	0.10691	0.10913	0.17439	0.13054	0.15019	0.20743	0.16244	0.1043	0.31495	0.22229	-2.0187	-2.6521	-2.4354	-2.6167	-2.5646	-2.4229	-2.6542	-2.5187	-2.3917	-2.6937	-2.3958	-2.5646	-2.8187	-2.5167	-2.85	-2.6542	331.817	162.678	244.355	237.199	289.002	238.857	262.321	382.518	189.084	42.454	127.874	357.246	363.939	295.468	223.882	177.902	0.00067962	0.00037688	7.3643e-05	312.4	2.7036e-06	3.1801e-06	433.85	104.31	2.772e-06	2.1037e-06	206.31	103.16	44.918	21.994	4.002e-06	55.921	6.8012e-05	1.4763e-05	3.9565e-06	301.48	1.6056e-07	1.4846e-07	421.42	101.31	1.8577e-07	1.3275e-07	201.02	100.26	43.283	21.497	2.006e-07	54.701	103.749	107.726	128.203	53.572	177.361	174.393	53.173	59.398	175.652	194.279	57.745	62.505	63.109	67.750	179.824	66.007	-8191	255	
9379.247	1	1	0	0	0.25018	0.17397	0.087132	0.26211	0.368	0.094687	0.15793	0.23587	0.26391	0.051279	0.12546	0.084114	0.17092	0.12815	0.066893	0.11118	-1.9292	-2.5354	-2.3104	-2.4375	-2.6188	-2.5708	-2.7354	-2.6771	-2.5458	-2.6375	-2.5979	-2.5896	-2.625	-2.3812	-2.5563	-2.7333	354.505	385.020	70.366	384.348	85.896	323.865	393.560	365.167	57.734	348.581	279.050	250.810	372.344	51.954	170.141	379.579	0.00069752	0.00028613	8.7197e-05	316.3	2.9326e-06	3.2855e-06	447.99	106.28	3.5653e-06	3.2859e-06	211.05	104.82	45.527	22.125	3.3066e-06	56.642	7.2689e-05	1.3617e-05	4.2875e-06	306.07	1.7481e-07	1.634e-07	434.51	102.98	1.8392e-07	1.4063e-07	206.2	102.25	43.643	21.67	1.9402e-07	55.561	104.214	117.807	135.609	53.602	174.780	185.775	53.052	58.992	172.738	176.126	57.924	62.240	62.721	67.961	161.729	65.635	-8191	255	
9379.368	1	1	0	0	0.043843	0.056588	0.16886	0.16462	0.07537	0.18327	0.10845	0.2092	0.1821	0.18848	0.22748	0.20564	0.12948	0.10662	0.14219	0.050827	-1.8708	-2.5833	-2.4813	-2.5646	-2.7625	-2.5104	-2.55	-2.6667	-2.275	-3.0104	-2.4354	-2.65	-2.5	-2.3417	-2.7833	-2.8896	66.237	389.008	238.529	312.063	392.682	202.456	321.393	299.056	68.586	72.359	367.685	369.648	85.678	69.993	335.857	373.512	0.00069975	0.00024705	9.1511e-05	319.19	2.7437e-06	2.6076e-06	449.53	105.33	2.9361e-06	3.2636e-06	208.15	102.99	44.994	21.869	3.0495e-06	54.717	7.2869e-05	1.4307e-05	3.9146e-06	308.75	1.6846e-07	1.5327e-07	435.92	102.54	1.8122e-07	1.5898e-07	202.25	100.48	43.164	21.32	1.8766e-07	53.701	103.602	129.037	134.746	53.436	192.828	178.431	53.297	58.887	156.400	183.091	57.891	62.348	63.219	67.699	169.298	65.913	-8191	255	
9379.464	1	1	0	0	0.1028	0.23721	0.26374	0.20174	0.26261	0.053221	0.04255	0.12581	0.16825	0.078361	0.23751	0.18617	0.13864	0.27205	0.095273	0.27336	-2.0438	-2.5563	-2.4771	-2.3833	-2.6083	-2.4229	-2.6146	-2.5271	-2.325	-2.7208	-2.6271	-2.6458	-2.7479	-2.4417	-2.5854	-2.9333	96.912	398.342	180.057	347.829	71.295	41.989	297.610	194.453	222.784	220.951	392.341	330.152	69.695	360.405	274.697	276.237	0.00068555	0.0003096	9.5057e-05	312.71	3.2254e-06	3.0578e-06	436.81	103.45	3.4258e-06	2.7467e-06	205.93	102.44	45.005	21.919	2.5206e-06	55.473	7.1519e-05	1.4633e-05	4.0838e-06	302.77	1.7925e-07	1.3639e-07	422.33	101.04	1.7781e-07	1.4388e-07	200.59	99.775	43.212	21.509	2.0531e-07	54.268	105.610	117.159	128.070	53.033	181.605	184.300	53.508	59.376	179.507	185.716	58.238	62.239	63.398	67.605	181.446	65.909	-8191	255	
9379.536	1	1	0	0	0.10386	0.080628	0.023342	0.094024	0.12629	0.14765	0.084348	0.25757	0.10066	0.080542	0.10353	0.26117	0.089993	0.20535	0.27024	0.23983	-1.9354	-2.675	-2.6292	-2.4417	-2.6146	-2.5146	-2.5229	-2.7646	-2.4437	-2.6396	-2.7604	-2.3396	-2.625	-2.5292	-2.5583	-2.8896	153.829	288.526	137.007	197.745	238.012	137.702	329.270	45.863	50.424	329.324	135.001	323.189	353.405	51.476	334.505	333.775	0.00069385	0.00035979	6.6794e-05	314.16	3.7435e-06	2.7899e-06	442.24	105.57	2.6229e-06	2.693e-06	209.17	104.12	45.162	22.016	3.5026e-06	55.901	7.1208e-05	1.4372e-05	3.5908e-06	304.41	1.7432e-07	1.4257e-07	428.55	102.8	1.8577e-07	1.4655e-07	203.47	101.15	43.541	21.636	1.9916e-07	54.723	104.606	116.338	142.744	53.619	170.858	189.055	53.021	59.014	160.719	194.423	58.068	62.234	63.055	67.608	168.981	65.971	-8191	255	
9379.632	1	1	0	0	0.13286	0.16982	0.37325	0.16331	0.30891	0.13206	0.12269	0.34644	0.12741	0.24072	0.28775	0.17169	0.14909	0.042264	0.15542	0.1926	-2.0563	-2.6188	-2.6562	-2.2583	-2.6083	-2.5958	-2.4104	-2.6104	-2.4917	-2.5792	-2.7708	-2.4354	-2.6646	-2.6042	-2.5521	-2.8292	330.628	362.919	94.750	318.423	44.012	135.306	192.333	64.131	353.263	392.310	68.638	356.551	369.728	292.527	117.467	254.273	0.00069392	0.00027871	9.5729e-05	315.49	3.3024e-06	3.751e-06	444.74	106.15	3.4187e-06	2.9069e-06	211.72	103.69	45.272	22.015	3.2886e-06	56.025	7.1315e-05	1.4613e-05	3.8219e-06	307.09	1.7735e-07	1.5097e-07	432.13	103.27	1.9423e-07	1.4229e-07	204.97	101.35	43.647	21.63	2.027e-07	54.858	104.695	130.311	136.837	53.469	188.999	174.865	53.268	58.829	195.795	191.355	57.855	62.269	63.197	67.689	177.598	65.785	-8191	255	
9379.753	1	1	0	0	0.11801	0.21185	0.14638	0.27301	0.13591	0.16421	0.12489	0.16695	0.014371	0.20757	0.060118	0.071585	0.24101	0.11463	0.097962	0.12559	-2.0396	-2.5333	-2.6021	-2.3833	-2.7938	-2.6729	-2.5729	-2.8021	-2.4229	-2.625	-2.7062	-2.4021	-2.6688	-2.5396	-2.4729	-2.9167	258.023	107.300	353.386	45.956	194.473	141.491	340.194	304.776	91.488	265.279	224.903	132.841	346.002	330.504	213.382	254.703	0.00067328	0.00029883	0.00011555	319.79	2.655e-06	3.1365e-06	435.76	105.34	3.1889e-06	2.3933e-06	203.82	100.9	44.522	21.63	3.2107e-06	53.652	6.9786e-05	1.4613e-05	4.2693e-06	308.35	1.71e-07	1.2871e-07	424.09	101.98	1.857e-07	1.4872e-07	197.3	98.158	42.936	21.189	1.9185e-07	52.598	104.163	107.947	136.368	53.696	178.794	186.418	52.991	58.979	171.697	175.925	58.005	62.354	63.257	67.869	183.508	65.943	-8191	255	
9379.849	1	1	0	0	0.15344	0.06352	0.072577	0.26254	0.22828	0.086285	0.049241	0.10026	0.067016	0.023352	0.27649	0.1297	0.34178	0.080289	0.12869	0.30429	-1.8125	-2.3	-2.6479	-2.3667	-2.5271	-2.5625	-2.5938	-2.8479	-2.5563	-2.3979	-2.7271	-2.4479	-2.5396	-2.7292	-2.3	-2.7521	73.810	215.902	223.550	122.738	266.925	98.483	129.995	334.388	129.144	324.808	384.293	368.448	166.308	308.534	260.745	334.812	0.00066886	0.00026367	9.0548e-05	311.84	2.4597e-06	3.1744e-06	422.52	103.4	3.5715e-06	3.0773e-06	201.78	100.62	44.284	21.581	2.9435e-06	53.73	6.9111e-05	1.3344e-05	3.9601e-06	301.42	1.6472e-07	1.5866e-07	410.55	100.63	1.8215e-07	1.5356e-07	195.99	97.96	42.793	21.186	2.0089e-07	52.824	106.752	125.629	124.409	53.322	187.615	165.295	53.100	59.019	174.610	184.139	58.165	62.237	63.099	67.960	172.434	65.996	-8191	255	
9379.943	1	1	0	0	0.057982	0.23448	0.026786	0.19374	0.12541	0.18631	0.18187	0.3773	0.26294	0.10145	0.17334	0.13451	0.036375	0.21371	0.12942	0.06743	-2.1979	-2.425	-2.8312	-2.5271	-2.4125	-2.7458	-2.6479	-2.6792	-2.5021	-2.5021	-2.8396	-2.5667	-2.5625	-2.5375	-2.4313	-2.6854	365.814	91.192	301.149	137.258	224.243	256.266	303.654	395.993	192.022	242.578	357.616	357.666	246.949	195.048	391.233	182.784	0.0006545	0.00031645	8.2435e-05	313.44	3.4905e-06	2.6293e-06	431.38	104.1	2.6276e-06	3.2872e-06	204.47	101.47	45.021	21.712	2.6407e-06	54.453	7.0378e-05	1.3669e-05	3.9601e-06	303.33	1.7685e-07	1.3129e-07	417.55	101.4	1.9061e-07	1.5862e-07	198.35	98.816	43.116	21.249	1.9135e-07	53.381	102.707	124.850	138.802	53.325	175.800	174.748	52.924	59.092	165.369	187.833	57.738	62.073	63.359	67.886	166.019	65.870	-8191	255	
9380.041	1	1	0	0	0.18844	0.11794	0.083255	0.21361	0.23645	0.11073	0.12129	0.22885	0.16129	0.17024	0.22708	0.039923	0.11519	0.28836	0.090487	0.20807	-2.0312	-2.4833	-2.6646	-2.4333	-2.425	-2.5833	-2.5667	-2.7333	-2.4083	-2.4167	-2.7542	-2.5021	-2.5104	-2.6958	-2.2917	-2.7188	366.976	186.127	291.260	397.144	184.337	140.935	98.910	82.329	356.970	115.380	361.724	55.679	110.472	340.793	154.163	318.651	0.00067121	0.00027313	0.00011785	314.92	3.0472e-06	2.3995e-06	434.57	105.35	3.0172e-06	1.8006e-06	207.58	101.99	44.88	21.797	3.3666e-06	54.94	7.0258e-05	1.5284e-05	3.9074e-06	305.88	1.7206e-07	1.5277e-07	423.18	102.43	1.6985e-07	1.4316e-07	200.49	99.582	43.18	21.295	2.0075e-07	53.674	104.817	125.888	138.961	53.416	168.346	170.315	53.097	58.656	165.601	164.613	57.717	62.126	63.070	67.299	178.808	66.010	-8191	255	
9380.160	1	1	0	0	0.18508	0.037554	0.12105	0.16217	0.23525	0.099478	0.065071	0.12068	0.091444	0.15689	0.19593	0.15821	0.079684	0.095715	0.26419	0.11319	-2.0375	-2.3812	-2.7292	-2.325	-2.3812	-2.8417	-2.4583	-2.6104	-2.7854	-2.4688	-2.7979	-2.5958	-2.5104	-2.6104	-2.5187	-2.8146	121.988	376.191	393.263	385.946	159.842	374.327	257.998	350.351	292.220	53.554	80.829	316.739	83.104	116.253	260.016	320.270	0.0006644	0.00031187	7.837e-05	315.23	2.6245e-06	3.377e-06	435.64	104.24	2.3893e-06	2.4305e-06	201.09	99.932	44.466	21.552	3.1116e-06	53.372	6.8012e-05	1.5961e-05	4.1402e-06	306.77	1.8405e-07	1.4473e-07	421.19	101.29	1.7945e-07	1.6845e-07	195.8	97.504	42.825	21.062	1.9005e-07	52.304	105.849	118.872	143.853	53.483	184.132	173.027	52.849	59.105	168.250	182.512	58.003	62.313	62.807	68.167	168.152	65.648	-8191	255	
9380.232	1	1	0	0	0.29814	0.24491	0.11011	0.12026	0.17353	0.053161	0.1714	0.28234	0.058528	0.11672	0.2646	0.27464	0.24944	0.17338	0.20833	0.16774	-2.1729	-2.2833	-2.6917	-2.4667	-2.525	-2.8875	-2.5792	-2.4396	-2.6771	-2.3979	-2.7083	-2.7646	-2.4604	-2.5229	-2.3708	-2.5917	96.625	184.100	220.902	57.300	103.976	219.582	337.008	360.785	243.939	179.651	260.991	69.597	44.397	53.304	376.031	322.795	0.00061164	0.00027265	8.7358e-05	309.99	2.8062e-06	3.4508e-06	421.27	103.2	3.0564e-06	2.1455e-06	200.15	100.32	44.714	21.537	2.8638e-06	53.885	6.6524e-05	1.505e-05	3.4399e-06	300.99	1.7601e-07	1.3941e-07	409.98	100.25	1.7881e-07	1.6303e-07	194.59	97.374	42.906	21.169	1.8882e-07	52.785	103.908	124.059	122.553	53.234	188.028	166.003	52.977	59.147	177.688	185.545	57.985	62.402	63.194	67.772	159.435	65.930	-8191	255	
9380.328	1	1	0	0	0.1414	0.034974	0.19411	0.14757	0.10537	0.14172	0.2607	0.23888	0.16007	0.14901	0.15349	0.12801	0.084298	0.18236	0.11445	0.26914	-2.2542	-2.475	-2.5521	-2.7062	-2.3375	-2.5438	-2.4979	-2.5062	-2.7125	-2.5292	-2.5771	-2.6083	-2.3979	-2.8708	-2.6854	-2.7104	327.809	170.190	185.798	301.996	354.616	288.952	371.736	334.663	77.176	325.234	220.607	275.703	355.008	371.228	208.307	269.366	0.00065481	0.00021706	7.9935e-05	314.13	2.7628e-06	3.4453e-06	429.84	103.85	3.1915e-06	2.8637e-06	203.54	101.37	44.799	21.657	3.6637e-06	54.547	6.7552e-05	1.2868e-05	3.6454e-06	304.08	1.7516e-07	1.2821e-07	418.39	101.23	1.7582e-07	1.4894e-07	198.29	98.593	43.197	21.261	1.8903e-07	53.401	102.010	127.849	136.945	53.178	159.281	169.016	53.126	59.290	174.501	187.202	58.089	62.277	62.746	67.760	168.459	65.657	-8191	255	
9380.448	1	1	0	0	0.22903	0.069262	0.15196	0.1502	0.12628	0.12081	0.25048	0.34283	0.1147	0.077959	0.24494	0.092676	0.08626	0.065545	0.2493	0.15404	-2.2333	-2.3	-2.5812	-2.7646	-2.5375	-2.6979	-2.5854	-2.5479	-2.725	-2.6979	-2.6208	-2.7354	-2.5479	-2.7229	-2.625	-2.675	202.766	100.548	185.722	158.562	80.816	196.550	296.792	324.935	295.971	290.789	302.216	392.901	392.688	362.563	301.185	352.137	0.00066948	0.00027505	9.6206e-05	315.79	3.8802e-06	3.6815e-06	437.92	104.9	2.5176e-06	2.1432e-06	207.32	102.89	45.454	21.834	2.737e-06	55.458	6.9661e-05	1.587e-05	4.3403e-06	305.64	1.8377e-07	1.4221e-07	424.43	102.39	1.744e-07	1.5436e-07	200.98	100.04	43.61	21.519	1.8151e-07	54.264	103.871	127.183	126.425	53.305	179.648	171.797	53.217	59.008	167.260	198.753	57.795	62.259	63.052	67.673	185.499	65.862	-8191	255	
9380.545	1	1	0	0	0.065768	0.18983	0.1199	0.027126	0.085194	0.08275	0.19932	0.11208	0.082867	0.18435	0.32047	0.20155	0.11882	0.18834	0.26878	0.21778	-2.2729	-2.4375	-2.4583	-2.6125	-2.45	-2.7417	-2.7333	-2.4833	-2.775	-2.4917	-2.5479	-2.6792	-2.3958	-2.7458	-2.6646	-2.5792	123.983	101.590	90.300	386.814	386.337	273.147	365.719	95.106	289.658	59.129	388.933	382.823	75.702	101.533	249.235	247.616	0.00068582	0.00031026	9.2672e-05	316.22	3.2322e-06	3.8334e-06	433.75	104.46	4.0269e-06	2.4268e-06	202.62	100.76	44.743	21.796	2.9096e-06	53.691	7.0133e-05	1.5011e-05	4.1802e-06	306.8	1.8102e-07	1.318e-07	421.19	101.96	1.8897e-07	1.4337e-07	196.22	97.988	43.115	21.305	1.6488e-07	52.575	104.292	123.523	129.491	53.464	193.557	158.222	53.217	58.950	171.871	182.949	57.680	61.940	62.940	67.674	172.785	65.849	-8191	255	
9380.641	1	1	0	0	0.13067	0.15228	0.11113	0.16017	0.1847	0.058718	0.23882	0.068963	0.20122	0.077774	0.21969	0.3448	0.13468	0.20303	0.14482	0.16883	-2.2375	-2.3333	-2.4188	-2.7583	-2.325	-2.6146	-2.7729	-2.3354	-2.7625	-2.5875	-2.5125	-2.7687	-2.4146	-2.6833	-2.825	-2.4688	358.778	388.929	54.282	76.026	375.851	283.965	256.315	290.990	170.999	340.476	133.112	397.528	149.702	300.180	222.470	319.588	0.0006241	0.0003169	7.9177e-05	312.74	2.2289e-06	3.0846e-06	421.86	103.37	3.1483e-06	3.4858e-06	199.97	99.511	44.434	21.733	2.7131e-06	53.785	6.6722e-05	1.4451e-05	3.9383e-06	301.3	1.5449e-07	1.565e-07	408.04	100.6	1.83e-07	1.54e-07	194.39	97.296	43.074	21.263	1.6785e-07	52.775	104.521	120.995	130.318	53.356	181.993	186.411	53.020	59.311	175.253	175.603	57.917	61.999	62.914	67.426	170.300	65.697	-8191	255	
9380.761	1	1	0	0	0.055415	0.19148	0.17895	0.17389	0.092289	0.13565	0.32661	0.33512	0.31801	0.13053	0.090103	0.13771	0.1748	0.29747	0.046042	0.30407	-2.3875	-2.4313	-2.475	-2.7375	-2.5833	-2.4229	-2.6521	-2.5125	-2.6083	-2.5396	-2.4271	-2.8208	-2.4292	-2.6271	-2.7188	-2.1792	63.943	132.716	141.198	81.622	294.990	361.286	357.092	280.504	185.227	345.989	89.270	228.537	317.781	110.919	164.517	64.683	0.00068356	0.00040851	0.00012172	313.72	3.3438e-06	3.2871e-06	430.95	104.05	4.2103e-06	2.8961e-06	203.6	101.8	44.83	21.865	3.1402e-06	54.873	6.8705e-05	1.4444e-05	4.1748e-06	303.4	1.7326e-07	1.392e-07	416.8	101.42	1.8137e-07	1.3687e-07	197.86	98.941	43.382	21.445	1.7204e-07	53.58	103.961	113.418	134.332	53.731	170.702	177.734	53.155	58.838	161.342	185.626	57.690	62.246	62.868	67.789	176.835	65.822	-8191	255	
9380.833	1	1	0	0	0.061741	0.18131	0.23751	0.11521	0.11477	0.19331	0.21802	0.39174	0.29737	0.31384	0.16785	0.24986	0.37866	0.17858	0.067452	0.091197	-2.1667	-2.5354	-2.2062	-2.6729	-2.425	-2.3563	-2.8896	-2.4021	-2.7354	-2.7125	-2.4708	-2.5646	-2.5083	-2.5458	-2.8042	-2.5625	345.827	87.049	385.684	342.185	199.686	397.711	257.335	184.370	81.233	285.752	340.830	343.482	73.402	165.588	153.820	338.842	0.00066068	0.00027758	0.00012035	316.31	3.0991e-06	4.7142e-06	437.09	105.83	3.0362e-06	3.1924e-06	207.13	103.09	45.464	22.156	3.8281e-06	55.147	6.6483e-05	1.3024e-05	4.3421e-06	305.64	1.6888e-07	1.5478e-07	423.91	102.77	1.8264e-07	1.6267e-07	201.32	100.35	43.69	21.63	1.7999e-07	54.317	104.326	116.318	138.978	53.280	183.257	172.620	52.863	59.211	173.628	180.367	57.915	61.935	63.322	67.397	167.115	65.776	-8191	255	
9380.929	1	1	0	0	0.034182	0.22446	0.11797	0.33198	0.21862	0.090778	0.34683	0.050223	0.037118	0.23051	0.16036	0.26184	0.3687	0.11468	0.18689	0.11047	-2.1583	-2.5167	-2.3937	-2.7313	-2.4333	-2.6146	-2.7958	-2.3604	-2.425	-2.5604	-2.5333	-2.6667	-2.5479	-2.4458	-2.5062	-2.5917	97.734	236.395	265.398	337.809	391.085	64.801	369.654	235.209	268.711	144.501	324.562	387.021	53.409	243.467	307.474	271.277	0.00067855	0.00033867	0.00010279	318.16	3.3262e-06	3.8693e-06	437.96	105.15	3.0093e-06	2.4105e-06	203.95	100.65	44.717	21.793	3.0846e-06	54.036	6.99e-05	1.3851e-05	4.0838e-06	308.67	1.7297e-07	1.5464e-07	424.42	102.55	1.7994e-07	1.4475e-07	198.3	98.532	43.268	21.333	1.7197e-07	52.875	104.215	125.735	137.814	53.450	178.613	183.228	53.058	58.891	166.935	197.772	57.692	62.113	62.981	67.823	167.337	65.841	-8191	255	
9381.048	1	1	0	0	0.19431	0.042758	0.16722	0.24046	0.080681	0.20567	0.24045	0.07805	0.21237	0.15156	0.032764	0.34562	0.25051	0.15619	0.12188	0.28822	-2.1875	-2.6188	-2.4896	-2.5354	-2.5729	-2.3833	-2.5687	-2.4333	-2.4167	-2.8979	-2.5417	-2.6437	-2.5771	-2.4437	-2.6521	-2.5	307.344	328.149	178.158	266.930	352.587	235.599	205.187	124.045	231.412	107.160	382.071	53.806	77.550	364.628	249.267	398.431	0.00065952	0.00037793	8.3884e-05	311.91	2.6268e-06	2.4288e-06	423.01	103.61	3.539e-06	2.3935e-06	201.79	100.77	44.663	21.795	3.08e-06	54.089	6.7522e-05	1.3656e-05	3.7236e-06	301.93	1.4835e-07	1.2964e-07	410	100.7	1.8264e-07	1.1996e-07	195.81	98.161	43.241	21.423	1.6965e-07	53.108	104.384	125.884	141.373	53.386	184.855	148.625	53.234	58.883	167.281	184.784	57.590	62.068	63.095	67.814	172.960	65.877	-8191	255	
9381.144	1	1	0	0	0.031181	0.22425	0.3272	0.21996	0.049175	0.087727	0.17598	0.48423	0.10119	0.23815	0.081515	0.14571	0.13285	0.17574	0.20007	0.30262	-1.975	-2.5354	-2.3521	-2.5979	-2.5083	-2.3354	-2.75	-2.5021	-2.3021	-2.8021	-2.6063	-2.7229	-2.5792	-2.4667	-2.6167	-2.5542	299.047	256.885	285.729	357.164	210.814	218.310	89.788	373.180	347.920	263.225	92.057	399.381	210.555	125.774	292.506	372.123	0.00064615	0.00029655	0.00010182	314.14	3.8224e-06	2.8516e-06	433.77	104.55	2.9936e-06	2.1781e-06	204.39	101.72	45.532	21.927	3.6449e-06	54.69	6.791e-05	1.3558e-05	3.8182e-06	303.76	1.6091e-07	1.3941e-07	417.41	101.57	1.729e-07	1.2278e-07	198.13	99.143	43.559	21.509	1.7934e-07	53.517	107.150	115.959	127.319	53.337	176.893	185.739	52.947	59.157	177.120	181.492	57.789	62.073	62.877	67.836	166.795	65.800	-8191	255	
9381.240	1	1	0	0	0.19297	0.1313	0.37634	0.1529	0.18696	0.22143	0.11297	0.085135	0.090276	0.1105	0.24902	0.23172	0.15651	0.18436	0.28613	0.44449	-2.0333	-2.7208	-2.3292	-2.7188	-2.5771	-2.4167	-2.6521	-2.6375	-2.3417	-2.7104	-2.4771	-2.5687	-2.5958	-2.5021	-2.6437	-2.7167	324.347	329.994	258.485	179.810	65.257	186.902	244.567	291.925	66.778	357.607	370.578	66.883	40.876	46.823	211.153	347.918	0.00065256	0.0003092	8.9269e-05	316.08	3.076e-06	2.9763e-06	433.85	105.1	3.121e-06	2.1308e-06	205.88	102.51	45.208	22.088	2.8486e-06	55.296	6.9685e-05	1.2679e-05	3.9092e-06	305.88	1.631e-07	1.4092e-07	421.95	102.35	1.6686e-07	1.308e-07	200.7	100.07	43.697	21.644	1.8245e-07	54.207	103.554	118.762	141.448	53.319	188.558	184.611	53.123	58.766	184.282	186.031	57.755	62.089	62.735	67.512	171.109	66.025	-8191	255	
9381.336	1	1	0	0	0.099579	0.14269	0.17475	0.12922	0.12811	0.21604	0.053059	0.19471	0.23925	0.10792	0.37484	0.14037	0.21144	0.15806	0.080177	0.077855	-2.0958	-2.5938	-2.4	-2.5479	-2.8063	-2.175	-2.7021	-2.6188	-2.3875	-2.75	-2.7146	-2.5542	-2.8563	-2.5229	-2.7479	-2.4917	386.177	309.684	143.306	79.855	300.638	113.110	291.036	118.317	55.781	116.645	247.594	128.240	388.810	95.373	326.731	89.970	0.00066112	0.00028719	7.2339e-05	318.1	3.189e-06	4.7083e-06	436.94	105.59	3.079e-06	2.5806e-06	202.75	101.29	45.021	21.823	3.6052e-06	53.959	6.9822e-05	1.2536e-05	3.247e-06	307.81	1.5576e-07	1.481e-07	422.7	102.52	1.7241e-07	1.3427e-07	197.23	98.82	43.35	21.351	1.7884e-07	52.984	102.074	132.858	135.657	53.263	192.307	161.913	52.945	59.174	178.664	170.695	57.599	62.238	62.833	67.467	184.009	65.843	-8191	255	
9381.408	1	1	0	0	0.16594	0.29739	0.26514	0.23736	0.17533	0.18376	0.14211	0.28631	0.1015	0.057652	0.339	0.2311	0.075423	0.21485	0.047859	0.22399	-2.0417	-2.5125	-2.3771	-2.375	-2.7833	-2.4542	-2.6792	-2.5687	-2.2479	-2.7562	-2.3667	-2.4521	-2.825	-2.4729	-2.3979	-2.75	258.818	193.939	387.004	322.141	380.912	229.863	349.167	367.497	206.249	85.189	70.317	87.421	280.198	79.038	321.183	300.002	0.00067032	0.00031918	8.6193e-05	311.51	3.2725e-06	3.3734e-06	421.95	103.75	3.4287e-06	2.6483e-06	201.16	100.81	45.246	21.746	3.8858e-06	54.362	6.9679e-05	1.2862e-05	3.8273e-06	301.66	1.4271e-07	1.3733e-07	409.39	100.81	1.9004e-07	1.2184e-07	195.27	98.207	43.437	21.403	1.8115e-07	53.354	103.069	109.797	135.707	53.266	185.730	184.091	52.936	58.834	184.566	182.051	57.945	62.126	63.163	67.569	181.553	65.726	-8191	255	
9381.529	1	1	0	0	0.20789	0.124	0.17254	0.43401	0.10442	0.10788	0.042096	0.1669	0.036975	0.092051	0.11799	0.2464	0.26209	0.31817	0.24998	0.28131	-1.9583	-2.6792	-2.5896	-2.4979	-2.7938	-2.4708	-2.7458	-2.7042	-2.2687	-2.5708	-2.6208	-2.4104	-2.6354	-2.2812	-2.4479	-2.7667	233.969	377.551	227.090	349.863	272.566	393.119	228.336	381.131	287.831	217.141	70.345	360.488	58.620	324.298	217.812	328.634	0.00065876	0.0002613	9.3739e-05	310.74	2.5297e-06	3.0329e-06	431.5	105.07	3.7076e-06	2.8364e-06	203.7	102.9	46.101	22.09	3.7162e-06	55.327	6.8394e-05	1.2634e-05	4.0074e-06	302.56	1.425e-07	1.4157e-07	417.56	102.12	1.8776e-07	1.2921e-07	199.4	100.03	44.073	21.646	1.6879e-07	54.123	103.598	132.801	128.483	53.465	188.181	174.929	53.311	58.769	172.979	202.034	57.730	62.136	63.205	67.583	181.216	65.811	-8191	255	
9381.625	1	1	0	0	0.30647	0.1538	0.14659	0.14386	0.20009	0.17225	0.13491	0.17852	0.22893	0.23386	0.29825	0.36524	0.14259	0.37391	0.12266	0.16658	-1.9042	-2.7083	-2.5938	-2.5292	-2.5875	-2.5167	-2.5417	-2.8292	-2.55	-2.5667	-2.5917	-2.3708	-2.6271	-2.3521	-2.3375	-2.7625	245.428	315.887	194.589	92.096	346.341	201.277	311.118	366.449	161.009	284.255	309.214	372.230	379.110	357.641	255.315	303.801	0.00066357	0.00029431	7.8897e-05	312.08	2.5992e-06	3.205e-06	432.73	105.84	3.0988e-06	2.4793e-06	209.16	103.89	45.719	22.101	3.757e-06	56.022	6.8687e-05	1.3506e-05	3.2125e-06	305.12	1.5223e-07	1.4243e-07	422.91	103.03	1.7561e-07	1.3889e-07	203.22	101.26	44.192	21.805	1.75e-07	54.892	102.066	123.812	134.065	53.423	184.685	186.966	53.637	58.728	170.850	161.057	57.944	61.999	63.019	67.915	176.456	65.741	-8191	255	
9381.721	1	1	0	0	0.10651	0.21884	0.10598	0.1606	0.17578	0.15687	0.14223	0.10009	0.33019	0.16435	0.14044	0.50486	0.080771	0.31431	0.13666	0.37718	-2.1042	-2.4625	-2.5687	-2.4437	-2.5458	-2.5375	-2.6104	-2.5479	-2.2521	-2.5333	-2.8333	-2.4771	-2.6021	-2.6437	-2.4875	-2.8312	337.515	97.761	279.712	171.683	225.495	110.882	391.834	232.984	184.217	200.695	173.755	387.858	375.986	169.675	196.608	291.618	0.00065992	0.0003382	0.00011463	318.01	2.8905e-06	2.9542e-06	435.14	106.25	4.0795e-06	2.7225e-06	206.07	102.88	45.393	21.922	3.1737e-06	54.839	6.855e-05	1.4053e-05	3.2143e-06	308.47	1.6324e-07	1.2957e-07	424.14	103.04	1.6203e-07	1.3933e-07	200.36	100.21	43.785	21.586	1.8455e-07	53.707	104.023	99.608	130.686	53.223	184.981	174.175	53.035	59.018	184.878	180.425	57.541	62.131	63.444	67.807	183.877	65.513	-8191	255	
9381.842	1	1	0	0	0.32554	0.17198	0.1945	0.13377	0.23455	0.20631	0.099336	0.24816	0.082203	0.032909	0.19421	0.16769	0.11191	0.11944	0.2181	0.10929	-1.8687	-2.4375	-2.6292	-2.3167	-2.6271	-2.5333	-2.4917	-2.7896	-2.4292	-2.5354	-3.0354	-2.4646	-2.5938	-2.6	-2.2958	-2.6354	370.962	177.774	377.553	283.829	293.094	158.351	290.876	355.508	210.037	314.240	116.075	167.654	307.923	69.352	238.676	257.348	0.00069092	0.00037258	0.00012159	312.82	3.6744e-06	3.0328e-06	425.4	104.4	3.5513e-06	2.6121e-06	203.41	102.35	45.582	22.161	3.4167e-06	55.023	6.9392e-05	1.5082e-05	3.8346e-06	302.22	1.6119e-07	1.2397e-07	412.45	101.45	1.7077e-07	1.3253e-07	197.59	99.519	43.96	21.693	1.7595e-07	53.983	103.358	121.835	135.685	52.946	184.409	168.694	53.317	58.944	167.333	185.915	57.309	61.975	63.197	67.629	163.548	65.739	-8191	255	
9381.936	1	1	0	0	0.17113	0.48244	0.2841	0.13794	0.41731	0.088553	0.066713	0.18439	0.023951	0.076288	0.22915	0.19606	0.21704	0.45192	0.21682	0.15678	-1.9979	-2.4125	-2.6958	-2.2687	-2.575	-2.6875	-2.4	-2.5875	-2.3229	-2.2896	-2.8521	-2.6	-2.5187	-2.5958	-2.4167	-2.825	326.826	162.585	266.416	306.567	204.939	225.611	322.014	314.586	135.729	153.286	388.674	151.597	352.770	350.378	173.089	129.153	0.00065338	0.0003422	9.9644e-05	312.17	2.915e-06	3.5112e-06	433.11	104.6	3.1222e-06	3.0731e-06	206.54	103.04	45.979	22.231	3.019e-06	55.653	6.8406e-05	1.4529e-05	3.0324e-06	303.01	1.6747e-07	1.3295e-07	418.42	102.37	1.6686e-07	1.5306e-07	200.96	100.6	44.225	21.846	1.792e-07	54.482	105.704	117.527	139.578	53.340	181.510	182.689	53.304	58.677	165.918	186.810	57.814	62.280	62.984	67.954	182.765	65.694	-8191	255	
9382.032	1	1	0	0	0.2233	0.22876	0.14985	0.23221	0.15764	0.11206	0.28707	0.24564	0.058667	0.060917	0.051321	0.060122	0.19129	0.24781	0.06904	0.17859	-1.9458	-2.2354	-2.5479	-2.5208	-2.6271	-2.5479	-2.3271	-2.5583	-2.525	-2.5417	-2.7667	-2.5042	-2.3479	-2.6688	-2.4729	-2.8375	251.879	44.973	134.409	347.687	322.879	345.696	266.960	381.260	175.242	375.780	377.399	390.078	119.371	350.868	357.676	328.216	0.0006855	0.00036056	8.2119e-05	315.2	3.618e-06	3.7674e-06	436.37	105.33	3.0265e-06	3.2427e-06	207.41	104.07	46.319	22.322	3.4553e-06	55.818	6.935e-05	1.3741e-05	3.3162e-06	304.91	1.655e-07	1.4078e-07	421.99	103.03	1.5982e-07	1.6209e-07	201.75	101.26	44.341	21.9	1.7573e-07	54.738	103.981	119.684	138.331	53.143	173.855	175.052	52.878	58.712	180.480	177.293	57.851	62.119	63.235	67.570	177.660	65.512	-8191	255	
#DATA ENDS
