BOXY.EXE: ISS Imagent and Oximeter Data Acquisition Program Version 0.80
Ascii Record File

#ACQ INFORMATION
2  Detector Channels 
16  External MUX Channels 
1  Auxiliary Channels 
5000  Waveform (CCF) Frequency (Hz)
1  Waveforms Skipped 
30  Waveforms Averaged 
1  Cycles Averaged 
16  Acquisitions per Waveform 
10.0806  Updata Rate (Hz) 

#FILE INFORMATION
TRUE -- External MUX Channel results are PARSED.
FALSE -- AC DC and Phase are NOT grouped.
TRUE -- Companion Program Settings File CREATED.
FALSE -- AC data not excluded
FALSE -- DC data not excluded
FALSE -- Phase data not excluded
FALSE -- Auxillary Chn. data not excluded
Tab delimiters

#CALIBRATION STATE
TRUE -- Waveform Calibration Values APPLIED.


#AUX CALIBRATION VALUES
Val Type	aux-1	

Term	1.0000e+00	
Factor	0.0000e+00	


#WF CALIBRATION VALUES
A = Detector Channel
Val Type	A-AC1	A-AC2	A-AC3	A-AC4	A-AC5	A-AC6	A-AC7	A-AC8	A-AC9	A-AC10	A-AC11	A-AC12	A-AC13	A-AC14	A-AC15	A-AC16	A-DC1	A-DC2	A-DC3	A-DC4	A-DC5	A-DC6	A-DC7	A-DC8	A-DC9	A-DC10	A-DC11	A-DC12	A-DC13	A-DC14	A-DC15	A-DC16	A-Ph1	A-Ph2	A-Ph3	A-Ph4	A-Ph5	A-Ph6	A-Ph7	A-Ph8	A-Ph9	A-Ph10	A-Ph11	A-Ph12	A-Ph13	A-Ph14	A-Ph15	A-Ph16	

Term	0.00000e+00	0.00000e+00	0.00000e+00	0.00000e+00	0.00000e+00	0.00000e+00	0.00000e+00	0.00000e+00	0.00000e+00	0.00000e+00	0.00000e+00	0.00000e+00	0.00000e+00	0.00000e+00	0.00000e+00	0.00000e+00	0.00000e+00	0.00000e+00	0.00000e+00	0.00000e+00	0.00000e+00	0.00000e+00	0.00000e+00	0.00000e+00	0.00000e+00	0.00000e+00	0.00000e+00	0.00000e+00	0.00000e+00	0.00000e+00	0.00000e+00	0.00000e+00	0.00000e+00	0.00000e+00	0.00000e+00	0.00000e+00	0.00000e+00	0.00000e+00	0.00000e+00	0.00000e+00	0.00000e+00	0.00000e+00	0.00000e+00	0.00000e+00	0.00000e+00	0.00000e+00	0.00000e+00	0.00000e+00	
Factor	1.00000e+00	1.00000e+00	1.00000e+00	1.00000e+00	1.00000e+00	1.00000e+00	1.00000e+00	1.00000e+00	1.00000e+00	1.00000e+00	1.00000e+00	1.00000e+00	1.00000e+00	1.00000e+00	1.00000e+00	1.00000e+00	1.00000e+00	1.00000e+00	1.00000e+00	1.00000e+00	1.00000e+00	1.00000e+00	1.00000e+00	1.00000e+00	1.00000e+00	1.00000e+00	1.00000e+00	1.00000e+00	1.00000e+00	1.00000e+00	1.00000e+00	1.00000e+00	X	X	X	X	X	X	X	X	X	X	X	X	X	X	X	X	

B = Detector Channel
Val Type	B-AC1	B-AC2	B-AC3	B-AC4	B-AC5	B-AC6	B-AC7	B-AC8	B-AC9	B-AC10	B-AC11	B-AC12	B-AC13	B-AC14	B-AC15	B-AC16	B-DC1	B-DC2	B-DC3	B-DC4	B-DC5	B-DC6	B-DC7	B-DC8	B-DC9	B-DC10	B-DC11	B-DC12	B-DC13	B-DC14	B-DC15	B-DC16	B-Ph1	B-Ph2	B-Ph3	B-Ph4	B-Ph5	B-Ph6	B-Ph7	B-Ph8	B-Ph9	B-Ph10	B-Ph11	B-Ph12	B-Ph13	B-Ph14	B-Ph15	B-Ph16	

Term	0.00000e+00	0.00000e+00	0.00000e+00	0.00000e+00	0.00000e+00	0.00000e+00	0.00000e+00	0.00000e+00	0.00000e+00	0.00000e+00	0.00000e+00	0.00000e+00	0.00000e+00	0.00000e+00	0.00000e+00	0.00000e+00	0.00000e+00	0.00000e+00	0.00000e+00	0.00000e+00	0.00000e+00	0.00000e+00	0.00000e+00	0.00000e+00	0.00000e+00	0.00000e+00	0.00000e+00	0.00000e+00	0.00000e+00	0.00000e+00	0.00000e+00	0.00000e+00	3.37194e+01	-1.68587e+02	-1.35414e+02	-1.80770e+02	-1.05564e+02	-1.05091e+02	-1.55686e+02	-1.62015e+02	-9.81900e+01	-8.14180e+01	-1.72633e+02	-1.70093e+02	-1.81385e+02	-1.76491e+02	-1.12733e+02	-1.49752e+02	
Factor	4.74211e-05	1.08441e-04	2.30837e-05	1.85097e-01	9.01655e-07	1.19884e-06	1.81138e-01	5.42658e-02	1.20113e-06	1.08790e-06	1.10167e-01	3.06233e-02	3.78414e-02	9.83169e-03	9.60378e-07	1.40816e-02	4.97090e-07	4.99476e-07	1.38873e-07	8.54261e-02	5.49520e-09	5.46460e-09	7.88256e-02	2.49800e-02	5.49752e-09	5.45879e-09	4.68186e-02	1.32798e-02	1.62271e-02	4.37497e-03	5.48598e-09	6.00434e-03	X	X	X	X	X	X	X	X	X	X	X	X	X	X	X	X	



#DISTANCE SETTINGS
A = Detector Channel
A-1	A-2	A-3	A-4	A-5	A-6	A-7	A-8	A-9	A-10	A-11	A-12	A-13	A-14	A-15	A-16	

2.5000e+00	3.0000e+00	2.5000e+00	3.0000e+00	2.0000e+00	3.0000e+00	1.5000e+00	3.0000e+00	3.0000e+00	3.0000e+00	3.0000e+00	3.0000e+00	3.0000e+00	3.0000e+00	1.5000e+00	3.0000e+00	

B = Detector Channel
B-1	B-2	B-3	B-4	B-5	B-6	B-7	B-8	B-9	B-10	B-11	B-12	B-13	B-14	B-15	B-16	

1.0000e+01	1.0000e+01	1.0000e+01	1.4400e+00	1.0000e+01	1.0000e+01	1.5100e+00	1.9400e+00	1.0000e+01	1.0000e+01	1.9900e+00	2.4900e+00	2.4100e+00	2.9000e+00	1.0000e+01	2.9800e+00	




#DATA BEGINS
time	group	step	mark	flag	A-AC1	A-AC2	A-AC3	A-AC4	A-AC5	A-AC6	A-AC7	A-AC8	A-AC9	A-AC10	A-AC11	A-AC12	A-AC13	A-AC14	A-AC15	A-AC16	A-DC1	A-DC2	A-DC3	A-DC4	A-DC5	A-DC6	A-DC7	A-DC8	A-DC9	A-DC10	A-DC11	A-DC12	A-DC13	A-DC14	A-DC15	A-DC16	A-Ph1	A-Ph2	A-Ph3	A-Ph4	A-Ph5	A-Ph6	A-Ph7	A-Ph8	A-Ph9	A-Ph10	A-Ph11	A-Ph12	A-Ph13	A-Ph14	A-Ph15	A-Ph16	B-AC1	B-AC2	B-AC3	B-AC4	B-AC5	B-AC6	B-AC7	B-AC8	B-AC9	B-AC10	B-AC11	B-AC12	B-AC13	B-AC14	B-AC15	B-AC16	B-DC1	B-DC2	B-DC3	B-DC4	B-DC5	B-DC6	B-DC7	B-DC8	B-DC9	B-DC10	B-DC11	B-DC12	B-DC13	B-DC14	B-DC15	B-DC16	B-Ph1	B-Ph2	B-Ph3	B-Ph4	B-Ph5	B-Ph6	B-Ph7	B-Ph8	B-Ph9	B-Ph10	B-Ph11	B-Ph12	B-Ph13	B-Ph14	B-Ph15	B-Ph16	aux-1	digaux	

7688.994	1	1	0	512	0.054264	0.17523	0.23202	0.2512	0.040847	0.12871	0.14813	0.10372	0.12769	0.2401	0.11155	0.19825	0.095067	0.35667	0.31913	0.24568	-2.3833	-2.2917	-2.45	-2.6375	-2.4313	-2.8312	-2.5583	-2.5042	-2.7271	-2.3604	-2.5646	-2.7062	-2.3063	-2.7938	-2.35	-2.5729	9.860	177.631	-60.793	75.248	-148.991	-90.391	70.038	129.440	-92.146	158.567	136.172	132.940	158.967	116.740	-117.475	101.235	0.0018658	0.00032531	0.00013569	512.17	1.819e-06	3.4185e-06	678.41	223.06	5.7971e-06	1.5973e-06	330.14	157.87	108.69	60.166	4.1077e-06	93.12	0.00017562	0.00016473	5.241e-05	508.95	1.7829e-06	1.9017e-06	666.25	217.39	1.8717e-06	2.0157e-06	311.5	148.34	99.416	56.11	2.3205e-06	85.501	-3.258	-102.609	-52.288	-141.967	-29.639	-47.981	-143.253	-136.267	-52.267	-8.835	-138.386	-134.457	-132.723	-128.652	-40.972	-131.371	-8191	255	
7689.115	1	1	0	0	0.13803	0.037239	0.31607	0.15247	0.1116	0.27192	0.24012	0.070477	0.17807	0.27923	0.33893	0.34416	0.2668	0.3005	0.30761	0.091427	-2.2646	-2.25	-2.5208	-2.4562	-2.3417	-2.7396	-2.4896	-2.3167	-2.6875	-2.4583	-2.4521	-2.7833	-2.4062	-2.6542	-2.5792	-2.6312	139.505	137.414	-24.632	99.479	114.048	-114.968	85.123	4.582	-36.067	131.851	154.744	171.450	51.381	-141.791	166.672	14.952	0.0018708	3.5996e-05	9.5902e-05	514.31	3.7708e-06	3.9967e-07	680.46	220.5	3.9883e-06	3.6136e-06	328.14	157.21	108.14	59.707	4.6588e-06	91.716	0.00019415	0.00020433	5.9211e-05	513.4	2.0601e-06	2.4466e-06	671.97	217.37	2.2379e-06	2.6093e-06	313.43	148.49	100.23	56.051	2.6132e-06	84.56	3.153	176.906	-89.782	-141.898	-52.082	-63.330	-143.269	-136.134	-50.016	-42.553	-138.538	-134.250	-132.965	-128.458	-104.587	-131.343	-8191	255	
7689.211	1	1	0	0	0.10564	0.084497	0.27467	0.1424	0.22075	0.022487	0.27281	0.25873	0.033659	0.13031	0.39274	0.035441	0.24023	0.2352	0.19871	0.12367	-2.0958	-2.3792	-2.6063	-2.6042	-2.2313	-2.7417	-2.6063	-2.3458	-2.4875	-2.1708	-2.4813	-2.8417	-2.3146	-2.6688	-2.4479	-2.2833	40.615	57.744	-71.140	141.460	-128.108	5.212	166.079	146.660	9.001	43.240	186.187	-14.134	-87.580	160.105	-100.538	71.786	0.0018387	0.00059174	0.00011375	511.86	1.6936e-06	3.7908e-06	678.33	221.15	4.148e-06	4.8399e-06	328.55	156.5	107.6	59.228	4.9215e-07	90.962	0.00022419	0.00024726	6.4893e-05	516.18	2.367e-06	2.7509e-06	672.21	217.65	2.4744e-06	2.8627e-06	312.56	147.59	100.65	55.907	2.68e-06	84.048	2.772	-148.982	-85.419	-142.194	-48.452	-73.239	-142.847	-136.367	-50.545	-52.067	-138.448	-134.511	-132.650	-128.637	-60.748	-131.257	-8191	255	
7689.283	1	1	0	0	0.29364	0.19845	0.28946	0.15178	0.025923	0.14651	0.042891	0.072965	0.17392	0.14921	0.19617	0.073988	0.31966	0.46705	0.16099	0.17218	-2.1542	-2.4542	-2.3729	-2.8083	-2.2479	-2.7396	-2.775	-2.3271	-2.7979	-2.35	-2.5042	-2.6875	-2.3958	-2.6	-2.4229	-2.5563	189.392	-98.023	-63.155	157.303	22.353	-34.415	180.854	-131.039	190.892	203.681	0.795	23.531	-20.085	140.511	93.670	-152.518	0.0020541	0.00018583	8.9971e-05	513.44	3.5742e-06	8.2795e-06	674.28	220.13	5.447e-06	4.0698e-06	325.11	155.07	107.49	58.646	6.4459e-06	90.042	0.00025165	0.00026324	6.5758e-05	516.31	2.6393e-06	2.8691e-06	671.47	217.23	2.7707e-06	2.9727e-06	311.66	146.7	101.08	55.441	2.7659e-06	83.274	-2.162	-151.120	-31.636	-142.031	-75.682	-75.150	-143.227	-136.481	196.335	-13.187	-138.527	-134.398	-132.689	-128.704	-38.775	-131.412	-8191	255	
7689.379	1	1	0	0	0.17446	0.068639	0.045342	0.33529	0.15321	0.064265	0.19588	0.18922	0.29813	0.14111	0.15834	0.17302	0.18001	0.17306	0.3678	0.40224	-2.2	-2.4292	-2.5438	-2.8208	-2.2562	-2.5208	-2.7896	-2.3	-2.6167	-2.5646	-2.4813	-2.8583	-2.4188	-2.4729	-2.6	-2.5583	52.050	199.750	-137.131	150.142	146.663	-124.363	59.578	196.384	-30.500	-111.039	108.942	-151.354	-111.792	147.181	93.412	113.982	0.0017246	0.00063357	0.00017988	511.49	2.9177e-06	2.2164e-06	671.24	219.33	2.4572e-06	2.126e-06	323.57	154.42	106.35	58.419	4.8206e-06	89.685	0.00027983	0.00027398	6.835e-05	517.83	3.013e-06	2.9547e-06	670.28	217.62	3.1759e-06	3.0993e-06	311.48	146.48	101.53	55.281	2.9432e-06	83.075	3.844	-101.911	-34.924	-142.193	65.107	-67.047	-143.083	-136.608	194.838	11.901	-138.625	-134.321	-132.632	-128.547	-63.518	-131.485	-8191	255	
7689.500	1	1	0	0	0.11069	0.18705	0.15426	0.080588	0.049712	0.06737	0.12505	0.094238	0.11172	0.070963	0.28875	0.015632	0.15805	0.31592	0.093252	0.15869	-1.9375	-2.4896	-2.2354	-2.6042	-2.3937	-2.4125	-2.975	-2.2292	-2.5438	-2.4375	-2.4938	-2.6625	-2.4542	-2.4896	-2.7229	-2.2792	-131.216	198.693	-95.798	-0.145	-139.065	-149.375	133.153	77.394	-5.830	69.637	-127.344	121.071	24.907	120.320	39.787	81.927	0.001763	0.0002537	7.6552e-05	508.36	4.1596e-06	7.05e-06	670.31	219.51	3.4346e-06	5.6732e-06	324.26	153.71	106.27	58.234	3.7315e-06	89.505	0.0003171	0.0002869	7.267e-05	520.83	3.3311e-06	3.0332e-06	669.6	218.32	3.3395e-06	3.032e-06	310.48	146.73	101.6	55.072	2.7973e-06	83.204	-1.914	-114.875	-68.955	-141.979	-104.800	-18.639	-143.067	-136.521	-15.916	-22.832	-138.689	-134.685	-132.602	-128.587	1.210	-131.531	-8191	255	
7689.596	1	1	0	0	0.085638	0.19838	0.025826	0.13467	0.024783	0.20998	0.16198	0.18957	0.15187	0.15996	0.1569	0.14704	0.17643	0.088248	0.25021	0.12943	-2.0833	-2.5312	-2.2375	-2.8146	-2.5	-2.475	-2.7396	-2.5292	-2.4604	-2.5375	-2.4042	-2.7667	-2.4875	-2.4229	-2.6271	-2.6521	4.839	34.092	136.861	171.789	-30.913	-33.399	127.588	108.554	127.548	180.387	43.555	65.876	188.436	78.324	29.737	146.860	0.0018816	0.00050895	0.00011627	509.32	1.9977e-06	7.1674e-06	670.53	219.3	4.5894e-06	6.2934e-06	323.82	153.17	105.76	58.093	4.2468e-06	89.366	0.00030258	0.00026704	6.7568e-05	521.8	3.2e-06	2.8585e-06	667.51	218.87	3.1236e-06	2.8662e-06	309.44	146.43	100.83	54.809	2.6138e-06	83.125	2.265	-81.870	-30.077	-142.219	-5.430	-18.533	-143.278	-136.563	-35.057	-52.361	-138.287	-134.606	-132.748	-128.783	-28.349	-131.380	-8191	255	
7689.692	1	1	0	0	0.072178	0.044237	0.18434	0.36761	0.066693	0.089275	0.33273	0.46558	0.054809	0.066896	0.1643	0.16172	0.064678	0.30535	0.014652	0.37869	-2.25	-2.6167	-2.5354	-2.6542	-2.4667	-2.3583	-2.8375	-2.6208	-2.4604	-2.7667	-2.4375	-2.6813	-2.5583	-2.4021	-2.9583	-2.5312	-77.951	114.642	-5.681	110.433	-52.445	21.177	119.583	82.453	86.801	-18.974	151.939	126.358	124.137	173.729	4.951	125.050	0.0017067	0.00067328	0.00011	510.37	6.8343e-06	5.6542e-06	670.67	220.25	5.9726e-06	3.4313e-06	323.2	153.82	105.74	57.931	2.4007e-06	89.036	0.00028191	0.00024899	6.4812e-05	522.65	2.9388e-06	2.6356e-06	666.64	219.05	2.8744e-06	2.639e-06	309.07	146.49	100.15	54.671	2.6293e-06	83.026	1.828	-81.120	-90.007	-141.965	21.343	-81.226	-143.132	-136.541	-7.810	-17.959	-138.275	-134.472	-132.715	-128.642	-77.106	-131.596	-8191	255	
7689.788	1	1	0	0	0.24863	0.13566	0.29321	0.2814	0.21138	0.19462	0.029511	0.4084	0.38011	0.29128	0.19965	0.26098	0.18594	0.11281	0.18218	0.14142	-1.9688	-2.5604	-2.3604	-2.4375	-2.5479	-2.2562	-2.7208	-2.3896	-2.4271	-2.7188	-2.3104	-2.8271	-2.4833	-2.5021	-2.6625	-2.5271	-104.452	-22.693	147.960	-61.842	108.548	133.719	66.450	115.193	-135.801	-131.657	45.038	-95.112	135.719	-11.901	-26.818	153.485	0.0018031	0.00033416	6.9634e-05	509.89	1.4464e-06	7.4838e-06	671.28	220.3	3.7132e-06	6.5115e-06	323.26	153.87	106.21	58.409	2.9023e-06	89.494	0.0002654	0.00023589	6.711e-05	523.76	2.7697e-06	2.5395e-06	668.51	219.22	2.6957e-06	2.5026e-06	310.07	146.65	99.682	54.647	2.7137e-06	83.062	8.780	-28.905	170.141	-142.055	-53.667	-17.809	-143.512	-136.288	33.358	-6.170	-138.711	-134.521	-132.766	-128.720	-133.425	-131.361	-8191	255	
7689.884	1	1	0	0	0.093719	0.18486	0.21038	0.12328	0.13986	0.29403	0.13807	0.099482	0.218	0.06465	0.17054	0.242	0.29073	0.29251	0.045146	0.035814	-1.8604	-2.7125	-2.2771	-2.6792	-2.6146	-2.4125	-2.6625	-2.6229	-2.4771	-2.7604	-2.4771	-2.6729	-2.7146	-2.5792	-2.525	-2.8208	171.919	59.000	-122.901	-134.259	148.894	-88.533	151.476	-105.653	105.635	170.387	161.287	99.086	83.828	113.803	15.794	-150.932	0.0018022	0.00039797	6.9021e-05	511.72	6.8653e-07	5.8491e-06	674.15	219.86	4.5032e-06	3.4653e-06	324.51	154.22	106.47	58.635	4.1711e-06	89.912	0.0002492	0.00022344	6.941e-05	521.16	2.6205e-06	2.4034e-06	671.45	218.42	2.5418e-06	2.3836e-06	312.13	146.44	99.227	54.797	2.7427e-06	83.228	0.345	-87.033	146.765	-141.757	185.656	-6.710	-143.429	-136.404	-30.525	21.410	-138.371	-134.453	-132.823	-128.590	-108.527	-131.211	-8191	255	
7689.979	1	1	0	0	0.028392	0.028771	0.16561	0.22113	0.18154	0.11717	0.28441	0.35208	0.12041	0.16003	0.18596	0.3127	0.13342	0.32778	0.025574	0.16634	-2.1417	-2.4208	-2.3438	-2.4958	-2.6562	-2.4271	-2.6292	-2.6375	-2.2646	-2.7958	-2.4208	-2.4583	-2.6354	-2.4958	-2.7167	-2.5417	79.699	143.971	1.996	-77.296	58.439	-121.401	26.699	155.115	-0.728	141.259	152.222	112.187	-9.685	94.579	-63.836	186.127	0.0016526	0.00016369	2.5777e-05	511.86	5.6464e-06	6.8529e-06	677.68	222.34	7.8781e-06	5.6986e-06	328.04	156.03	107.37	58.765	3.5706e-06	90.648	0.00022688	0.00020744	6.6889e-05	516.81	2.2987e-06	2.2078e-06	672.57	218.83	2.2234e-06	2.2058e-06	313.26	146.91	99.463	55.168	2.5941e-06	83.61	0.507	30.090	-38.063	-142.036	-67.978	-47.781	-143.104	-136.474	-13.855	-39.923	-138.451	-134.440	-132.771	-128.642	-92.269	-131.538	-8191	255	
7690.077	1	1	0	0	0.049998	0.1104	0.1317	0.13033	0.069799	0.039828	0.23823	0.17592	0.23364	0.1362	0.1068	0.056418	0.21449	0.23077	0.15406	0.027206	-1.8563	-2.5563	-2.4021	-2.3479	-2.5	-2.2938	-2.5687	-2.6542	-2.4333	-2.7479	-2.5563	-2.5167	-2.7396	-2.5687	-2.4229	-2.6771	-125.144	59.055	-119.310	178.010	-118.952	135.440	-146.449	-0.779	-54.184	10.175	91.983	-122.485	20.284	200.329	93.990	108.687	0.0019672	0.00037772	0.00010836	515.63	3.5747e-06	5.0322e-06	684.7	222.07	5.6011e-06	2.4323e-06	330.61	155.57	107.03	59.308	2.5203e-06	91.234	0.00021177	0.00021191	6.6306e-05	517.45	2.2179e-06	2.3322e-06	675.16	218.43	2.1377e-06	2.3306e-06	314.02	146.62	99.082	55.469	2.404e-06	83.924	2.102	73.793	-101.925	-142.342	-38.062	-72.908	-142.995	-136.472	-38.079	-27.013	-138.667	-134.548	-132.664	-128.466	-59.767	-131.575	-8191	255	
7690.195	1	1	0	0	0.058061	0.034507	0.10207	0.25868	0.13535	0.079571	0.26146	0.10499	0.080914	0.11063	0.13456	0.13452	0.077439	0.26788	0.21263	0.091309	-1.6938	-2.5979	-2.2271	-2.3833	-2.6125	-2.425	-2.5625	-2.4833	-2.4417	-2.4646	-2.4375	-2.4	-2.7354	-2.4583	-2.4229	-2.7188	-118.145	-48.485	110.142	170.958	-150.113	69.206	162.006	43.332	165.937	119.907	163.301	130.191	129.232	176.259	53.750	169.331	0.0019142	0.00039353	7.9913e-05	517.48	5.0121e-06	1.934e-06	684.49	224.69	1.7148e-06	2.5389e-06	331.35	157.12	108.11	59.593	3.5177e-06	92.2	0.00019652	0.00021112	5.9597e-05	514.46	2.0353e-06	2.3328e-06	673.12	219.24	2.0302e-06	2.3613e-06	313.68	147.43	99.53	55.91	2.2725e-06	84.523	-3.453	-144.278	10.218	-142.060	-53.805	-122.463	-143.313	-136.446	-111.871	15.349	-138.317	-134.427	-132.893	-128.558	-45.558	-131.438	-8191	255	
7690.292	1	1	0	0	0.098556	0.16812	0.066672	0.19997	0.19434	0.046769	0.18159	0.063804	0.14654	0.21571	0.43224	0.2417	0.14897	0.17824	0.20183	0.19821	-1.8917	-2.5875	-2.4417	-2.2479	-2.6542	-2.3521	-2.7375	-2.6875	-2.375	-2.5875	-2.6146	-2.3521	-2.7188	-2.5146	-2.4375	-2.6875	-25.510	93.084	36.666	-95.815	202.716	-135.613	114.293	82.575	-78.716	-89.172	176.848	146.901	139.504	-152.203	-114.631	162.124	0.0018713	0.00045722	0.00013444	520.18	3.2185e-06	2.925e-06	686.38	226.53	6.1754e-06	4.088e-06	335.13	158.29	108.79	60.136	3.1273e-06	93.194	0.00019912	0.00021832	5.7405e-05	515.79	2.0927e-06	2.4037e-06	673.67	220.49	2.0822e-06	2.3391e-06	315.83	148.46	100.39	56.306	2.0758e-06	85.406	-1.895	-137.812	-47.045	-142.045	-53.006	173.668	-142.998	-136.535	-121.727	17.170	-138.501	-134.382	-132.877	-128.729	-24.835	-131.274	-8191	255	
7690.388	1	1	0	0	0.29792	0.13171	0.24264	0.14064	0.13679	0.21159	0.10295	0.065534	0.063057	0.11917	0.20666	0.15015	0.092322	0.17441	0.35235	0.35233	-1.8917	-2.3729	-2.5354	-2.3646	-2.5812	-2.5062	-2.6021	-2.7062	-2.4	-2.4917	-2.5208	-2.3125	-2.7458	-2.6604	-2.3312	-2.7375	69.080	-140.088	-62.099	92.294	-91.305	-121.378	113.959	-9.704	-114.289	107.385	128.210	124.321	102.015	95.679	-24.724	144.344	0.0019407	0.00012985	0.00010481	517.34	1.1803e-06	4.6442e-06	686.63	227	3.4139e-06	2.3596e-06	334.4	159.55	109.01	60.491	1.5551e-06	93.324	0.00020089	0.00020423	5.1928e-05	513	2.0816e-06	2.2154e-06	673.48	220.5	2.1265e-06	2.2016e-06	315.76	149.14	101.08	56.437	2.0502e-06	85.429	0.236	-128.519	-91.554	-141.998	-103.132	-18.021	-143.131	-136.375	-144.334	-38.950	-138.353	-134.621	-132.797	-128.558	184.401	-131.432	-8191	255	
7690.508	1	1	0	0	0.11638	0.19853	0.11012	0.13479	0.12992	0.1587	0.16215	0.22246	0.10852	0.25066	0.12835	0.096671	0.070224	0.27642	0.16022	0.32481	-2.0979	-2.5333	-2.5812	-2.2417	-2.7271	-2.3625	-2.2021	-2.7583	-2.4625	-2.6083	-2.7167	-2.5229	-2.6146	-2.5979	-2.4708	-2.8104	-7.639	-139.664	-154.080	85.161	-66.338	85.176	-71.914	137.490	-15.896	20.569	177.066	137.673	-79.848	126.978	176.368	180.869	0.0020397	0.00079845	6.776e-05	521.05	2.5429e-06	7.879e-06	686.54	227.12	7.9691e-06	1.8126e-06	335.94	159.37	108.78	60.003	5.3937e-06	93.281	0.00021841	0.00020231	5.2509e-05	515.79	2.2617e-06	2.2127e-06	673.77	221.08	2.3177e-06	2.1803e-06	315.88	149.05	101.46	56.193	2.0182e-06	85.506	0.035	-117.118	-44.523	-142.046	-44.852	-59.269	-143.196	-136.470	-106.776	65.392	-138.566	-134.455	-132.890	-128.530	-92.299	-131.195	-8191	255	
7690.580	1	1	0	0	0.10905	0.055326	0.16113	0.15637	0.21911	0.20488	0.10232	0.30396	0.099247	0.056846	0.11579	0.088275	0.43235	0.11154	0.066891	0.13282	-1.9958	-2.3875	-2.7042	-2.4375	-2.3792	-2.4958	-2.4625	-2.95	-2.4167	-2.525	-2.7354	-2.475	-2.4833	-2.4771	-2.1896	-2.8187	59.054	-24.869	-3.522	52.397	163.548	199.554	16.301	75.066	87.097	-152.932	183.789	-63.669	100.673	99.311	81.668	54.788	0.0018019	0.00027268	0.0001127	518.08	4.9314e-06	7.0483e-06	688.63	225.54	1.0445e-06	2.5295e-06	336.81	159.47	109.18	60.057	4.5223e-06	93.229	0.00022847	0.00019922	5.1779e-05	517.39	2.3681e-06	2.1811e-06	674.49	220.96	2.4168e-06	2.1545e-06	315.78	149.75	101.41	56.188	2.0098e-06	85.69	-3.174	-62.855	-82.973	-142.277	-89.716	-37.151	-142.982	-136.607	-30.730	-82.961	-138.584	-134.628	-132.581	-128.606	-28.917	-131.437	-8191	255	
7690.676	1	1	0	0	0.20187	0.21072	0.125	0.15921	0.28659	0.17395	0.20546	0.23544	0.13408	0.24304	0.10153	0.16872	0.16092	0.15759	0.20647	0.18691	-2.1396	-2.4021	-2.7125	-2.3563	-2.5104	-2.5146	-2.3979	-2.6521	-2.4271	-2.4688	-2.6417	-2.4292	-2.475	-2.6792	-2.4208	-2.6708	-121.958	51.457	97.940	-16.812	89.076	180.280	-72.927	99.670	39.851	65.374	-23.856	-121.452	37.073	205.047	-140.463	101.519	0.0018972	0.00064577	0.00010308	518.64	3.1404e-06	4.8268e-06	684.72	225.82	5.8148e-06	5.8651e-06	335.12	159.16	109.45	60.15	6.1526e-06	93.559	0.00023281	0.00019517	5.1314e-05	519.7	2.3881e-06	2.1595e-06	672.88	221.3	2.3766e-06	2.1293e-06	315.02	150.1	101.35	56.252	2.0254e-06	86.197	1.593	-92.997	-138.207	-141.799	-6.502	-64.860	-143.331	-136.382	4.183	-35.604	-138.527	-134.486	-132.434	-128.585	-84.884	-131.318	-8191	255	
7690.797	1	1	0	0	0.081861	0.21811	0.053427	0.033166	0.1189	0.15235	0.080935	0.13248	0.18199	0.080457	0.26072	0.14254	0.1656	0.089492	0.11956	0.20507	-1.95	-2.1979	-2.5896	-2.3646	-2.4021	-2.6458	-2.4062	-2.6896	-2.6375	-2.45	-2.7479	-2.6104	-2.4083	-2.9313	-2.3438	-2.7812	135.779	79.119	-21.315	40.621	-125.218	-64.322	176.985	182.176	191.027	162.319	150.917	-94.797	151.202	188.313	15.813	140.872	0.0019592	0.00044209	0.000128	521.22	5.7427e-06	6.2311e-06	686.09	226.14	6.4735e-06	4.1912e-06	337.18	159.89	108.84	60.539	4.4356e-06	93.617	0.0002282	0.00019125	5.2201e-05	522.54	2.2629e-06	2.0816e-06	674.81	222.18	2.2192e-06	2.0006e-06	315.97	150.62	100.79	56.134	2.0302e-06	86.167	2.486	-106.208	-55.288	-142.125	-14.370	-39.133	-143.302	-136.378	-31.229	22.195	-138.493	-134.520	-132.898	-128.763	-52.910	-131.340	-8191	255	
7690.891	1	1	0	0	0.040294	0.13798	0.083292	0.14299	0.078473	0.19462	0.15887	0.22671	0.18219	0.11109	0.049427	0.061484	0.025394	0.11643	0.013148	0.13352	-2.0687	-2.3438	-2.6521	-2.5917	-2.3792	-2.6021	-2.4146	-2.6521	-2.6271	-2.4042	-2.8375	-2.4854	-2.4292	-2.7438	-2.3333	-2.8563	-58.645	94.509	-40.683	-120.155	56.815	-1.629	155.562	192.535	61.494	-107.065	-54.793	163.665	71.706	-37.829	-123.242	155.565	0.0019444	0.0003982	3.7095e-05	518.37	4.1757e-06	2.2799e-06	689.87	227.23	5.8942e-06	3.2587e-06	339.09	159.81	109.69	60.53	7.4125e-06	93.484	0.00020543	0.00017494	5.2003e-05	520.15	2.0613e-06	1.9012e-06	675.15	222.42	2.0207e-06	1.8209e-06	317.34	150.52	100.48	56.17	2.0924e-06	85.973	-0.655	-99.449	-147.957	-142.151	-12.672	-34.886	-143.235	-136.348	-15.171	-8.674	-138.481	-134.400	-132.862	-128.609	-111.669	-131.392	-8191	255	
7690.987	1	1	0	0	0.38241	0.087387	0.1102	0.18656	0.13717	0.06494	0.091493	0.11015	0.11657	0.23975	0.25706	0.16497	0.20963	0.11076	0.21426	0.11731	-2.2438	-2.3646	-2.65	-2.6417	-2.4062	-2.5938	-2.4688	-2.6979	-2.7812	-2.3083	-2.5875	-2.45	-2.5	-2.5854	-2.3187	-2.5604	80.109	115.660	41.442	-73.937	152.951	-42.463	-58.292	8.866	-8.981	102.266	-68.099	166.869	-89.063	-98.439	16.617	123.626	0.0017449	0.00050119	2.6892e-05	520.01	3.9446e-06	4.5934e-06	689.04	228.38	8.5721e-06	4.1498e-06	337.77	160.06	109.79	60.482	3.1576e-06	93.619	0.00019707	0.00016709	5.3897e-05	518.71	1.9638e-06	1.8565e-06	677.3	221.99	2.0087e-06	1.8535e-06	318.22	150.48	100.59	56.113	2.2874e-06	85.957	2.983	-90.158	-84.308	-142.021	-30.050	-104.089	-143.025	-136.499	-73.791	-43.188	-138.507	-134.391	-132.954	-128.588	-76.447	-131.405	-8191	255	
7691.083	1	1	0	0	0.25452	0.32589	0.19548	0.16596	0.42401	0.11222	0.20295	0.19887	0.37387	0.26388	0.10191	0.21418	0.10443	0.32327	0.21359	0.082293	-2.0687	-2.1917	-2.6521	-2.5917	-2.4208	-2.8812	-2.4479	-2.5354	-2.4917	-2.2188	-2.7229	-2.6688	-2.4875	-2.7979	-2.475	-2.8021	81.483	98.980	-152.225	41.115	159.283	-73.353	75.299	153.046	-24.960	-72.101	-153.318	-137.261	143.800	183.072	44.397	144.662	0.001734	0.00029816	6.4803e-05	519.22	4.865e-06	4.2304e-06	687.74	225.35	5.2064e-06	3.3495e-06	334.22	159.04	108.42	59.806	4.6699e-06	93.058	0.0001996	0.00018017	5.9032e-05	519.27	2.0469e-06	2.0432e-06	679.44	220.71	2.0542e-06	2.0807e-06	317.8	149.75	99.955	55.926	2.4272e-06	85.625	1.548	185.748	-118.455	-142.216	-66.445	-57.889	-143.316	-136.468	-41.423	-113.825	-138.555	-134.364	-132.682	-128.727	-56.666	-131.282	-8191	255	
7691.180	1	1	0	0	0.13348	0.22935	0.13373	0.096312	0.14277	0.16695	0.25238	0.18087	0.21474	0.092159	0.19077	0.3307	0.08898	0.048187	0.092724	0.17623	-2.1813	-2.3146	-2.7375	-2.6813	-2.3542	-2.7583	-2.4938	-2.4938	-2.8438	-2.3521	-2.7188	-2.775	-2.4083	-2.9375	-2.4938	-2.7167	-25.515	186.401	-43.444	124.247	-27.537	-142.146	-147.716	-113.252	-145.066	22.666	-137.893	104.805	139.253	169.399	-104.200	108.265	0.0019464	0.00023864	6.3603e-05	517	4.8042e-06	2.2237e-06	685.61	223.81	3.6217e-06	2.9109e-06	335.6	159.13	109.48	60.031	2.5608e-06	92.841	0.00020227	0.00020077	6.1327e-05	517.49	2.041e-06	2.2324e-06	678.28	219.27	2.0367e-06	2.2413e-06	316.83	149.49	100.08	56.059	2.3284e-06	85.309	0.446	-72.771	-37.610	-142.123	-78.754	-109.603	-143.197	-136.159	-144.410	58.038	-138.328	-134.466	-132.823	-128.636	47.884	-131.432	-8191	255	
7691.276	1	1	0	0	0.18564	0.088427	0.2563	0.18883	0.046019	0.13525	0.24369	0.12551	0.15529	0.0090932	0.16443	0.043974	0.058204	0.06518	0.22387	0.30209	-2.5187	-2.4229	-2.3292	-2.8521	-2.3438	-2.6437	-2.5938	-2.4667	-2.6937	-2.3875	-2.3729	-2.7146	-2.3333	-2.7687	-2.6229	-2.4458	83.734	-138.454	180.745	-138.927	5.462	96.237	194.965	190.729	-145.199	92.221	75.659	45.405	45.245	165.809	5.178	155.977	0.0018378	0.0003307	0.00013529	516.66	2.437e-06	2.8283e-06	686.55	225.19	3.5682e-06	2.0713e-06	335.98	158.3	108.78	59.75	1.8973e-06	92.584	0.00019276	0.00020949	5.7907e-05	515.65	1.9844e-06	2.2949e-06	675.5	219.3	1.9916e-06	2.2775e-06	315.38	148.72	99.738	55.84	2.2198e-06	84.845	-1.109	164.390	-88.539	-142.122	-23.995	-70.372	-143.352	-136.298	-1.986	63.291	-138.415	-134.412	-132.880	-128.519	200.025	-131.475	-8191	255	
7691.372	1	1	0	0	0.16718	0.29296	0.41688	0.11179	0.12116	0.050305	0.19013	0.16176	0.23626	0.010545	0.32208	0.20833	0.14598	0.085266	0.11129	0.34757	-2.3292	-2.4479	-2.4458	-2.6	-2.4104	-2.6667	-2.7979	-2.2896	-2.6542	-2.4313	-2.4271	-2.8729	-2.3646	-2.6771	-2.5958	-2.4813	81.511	31.486	-43.619	105.148	-25.105	197.364	13.107	151.065	175.126	24.194	151.802	171.092	67.996	-120.377	76.592	204.048	0.0019003	0.0004816	8.5396e-05	516.4	6.8998e-07	5.8813e-06	683.23	224.42	1.8699e-06	3.3445e-06	334.01	157.88	108.03	59.274	5.5333e-06	92.156	0.00020099	0.00021729	5.5655e-05	514.37	2.0934e-06	2.3892e-06	673.52	218.74	2.1632e-06	2.4077e-06	314.57	148.08	100.03	55.681	2.2643e-06	84.563	-4.720	-77.314	-78.441	-141.974	198.087	-47.636	-143.423	-136.350	-48.907	-41.602	-138.481	-134.508	-132.886	-128.711	-39.040	-131.494	-8191	255	
7691.468	1	1	0	0	0.31414	0.074682	0.041846	0.26913	0.26503	0.2473	0.10309	0.12775	0.119	0.10449	0.24317	0.28327	0.43501	0.091141	0.3159	0.42864	-2.0833	-2.2854	-2.4083	-2.5667	-2.25	-2.6333	-2.6583	-2.3083	-2.6937	-2.4667	-2.5438	-2.9292	-2.2542	-2.6792	-2.5896	-2.4583	54.770	-122.437	-10.056	145.018	99.349	181.601	111.713	-140.524	-54.712	-74.414	204.000	182.117	-81.145	31.807	114.344	155.252	0.0020408	0.00047369	7.0831e-05	515.88	3.2228e-06	6.4075e-06	683.17	222.29	8.5822e-06	6.7035e-06	332.32	156.84	107.9	59.149	4.8238e-06	91.668	0.00022609	0.00022919	5.7318e-05	514.04	2.3819e-06	2.5075e-06	673.5	217.52	2.441e-06	2.5179e-06	313.49	147.69	100.5	55.506	2.3319e-06	84.299	-4.214	-99.150	-133.556	-142.138	-68.809	-65.550	-143.088	-136.689	-84.059	7.199	-138.658	-134.446	-132.988	-128.506	-105.350	-131.466	-8191	255	
7691.589	1	1	0	0	0.24514	0.18402	0.14542	0.11157	0.096213	0.043536	0.20262	0.26355	0.20171	0.11155	0.13529	0.30746	0.12038	0.23172	0.090569	0.27166	-2.2	-2.375	-2.2313	-2.8438	-2.3917	-2.6	-2.8146	-2.5417	-2.6125	-2.5646	-2.3667	-2.7375	-2.4271	-2.6854	-2.6813	-2.4354	-34.660	25.597	-43.520	-11.576	66.871	27.940	54.845	201.077	184.124	18.023	-118.923	167.025	161.899	-62.491	87.720	-140.553	0.0017714	0.00042209	3.1363e-05	511.12	5.0621e-06	2.3371e-06	679.62	222.42	5.1667e-07	5.6109e-06	332.52	157.46	107.75	59.262	4.1928e-06	92.031	0.00024745	0.00023221	5.8121e-05	514.17	2.6279e-06	2.4873e-06	671.15	217.76	2.5746e-06	2.4297e-06	313.21	148.23	100.74	55.516	2.1671e-06	84.697	7.276	-69.818	5.523	-142.009	-29.761	-15.593	-143.496	-136.625	4.224	0.033	-138.549	-134.562	-132.858	-128.603	-43.498	-131.735	-8191	255	
7691.685	1	1	0	0	0.079134	0.16457	0.17132	0.055156	0.085732	0.31748	0.011709	0.20707	0.039199	0.23511	0.066184	0.24263	0.02446	0.16675	0.040307	0.11656	-2.2125	-2.4917	-2.2646	-2.7083	-2.4083	-2.5167	-2.75	-2.4375	-2.7208	-2.6375	-2.3812	-2.6917	-2.5583	-2.5187	-2.8521	-2.3896	147.414	-45.345	7.540	-119.875	-71.761	101.201	88.607	145.049	-52.493	117.378	155.493	157.265	189.108	-139.234	-136.518	133.967	0.0019489	0.00017413	0.00011709	513.19	8.0906e-07	2.7153e-06	683.43	222.91	4.0979e-06	6.6141e-06	331.4	157.47	107.76	59.23	5.47e-06	91.61	0.00024174	0.00021332	5.4344e-05	514.78	2.5496e-06	2.2933e-06	670.36	218.92	2.5436e-06	2.3261e-06	312.22	148.51	100.6	55.37	2.172e-06	84.614	3.346	-85.681	-73.204	-142.178	-146.353	-18.450	-143.177	-136.247	-48.584	-3.896	-138.348	-134.529	-133.209	-128.585	-66.255	-131.555	-8191	255	
7691.781	1	1	0	0	0.097933	0.10753	0.103	0.040979	0.044908	0.24444	0.37333	0.22726	0.15747	0.18984	0.11673	0.10229	0.17754	0.17137	0.096257	0.077702	-2.2062	-2.7875	-2.3896	-2.75	-2.5229	-2.5292	-2.7083	-2.4333	-2.6833	-2.5292	-2.2583	-2.6063	-2.3521	-2.5833	-2.6146	-2.55	-54.277	-117.798	-71.313	35.874	181.978	-130.099	111.199	121.495	0.897	-19.050	-38.437	88.097	180.839	194.533	121.677	74.408	0.0019242	0.00038413	0.00011183	512.36	3.978e-06	4.6904e-06	678.26	222.42	4.7704e-06	2.5181e-07	330.37	156.57	107.07	58.72	1.5469e-06	91.208	0.00024293	0.00021553	5.5681e-05	518.6	2.6612e-06	2.3974e-06	670.8	219.8	2.6863e-06	2.473e-06	312.53	148.43	100.74	55.147	2.4079e-06	84.59	-0.461	-41.664	-92.617	-142.255	-17.193	-5.327	-143.268	-136.640	-43.111	38.381	-138.686	-134.600	-132.810	-128.809	-22.839	-131.403	-8191	255	
7691.877	1	1	0	0	0.13856	0.2899	0.2275	0.018056	0.39307	0.22982	0.28879	0.11171	0.09123	0.25398	0.1834	0.15062	0.14732	0.095498	0.085217	0.16027	-2.0187	-2.625	-2.25	-2.7542	-2.5458	-2.4229	-2.8708	-2.6479	-2.2438	-2.6792	-2.3833	-2.6083	-2.3625	-2.5854	-2.8167	-2.5333	-95.332	-46.721	54.287	-112.164	59.225	112.886	163.818	-21.413	-151.040	24.316	-101.789	144.615	158.837	134.647	42.769	95.326	0.0018696	0.00041815	1.5266e-05	512.1	5.7152e-06	2.4582e-06	677.88	222.1	6.6934e-06	4.7979e-06	330.84	156.7	106.85	58.812	3.968e-06	91.321	0.0002538	0.00022458	5.9911e-05	521.83	2.6348e-06	2.3752e-06	671.44	219.61	2.5609e-06	2.3995e-06	313.73	148.73	100.17	55.092	2.4119e-06	84.731	11.081	-82.493	-74.124	-142.198	-25.363	53.986	-143.220	-136.591	-106.773	1.840	-138.660	-134.570	-132.925	-128.665	195.028	-131.404	-8191	255	
7691.972	1	1	0	0	0.065737	0.24024	0.22167	0.15206	0.020621	0.26824	0.18191	0.27356	0.12447	0.19234	0.10378	0.34653	0.10649	0.17999	0.13764	0.20056	-1.9833	-2.625	-2.3438	-2.7167	-2.5458	-2.2917	-2.6458	-2.5187	-2.3667	-2.7979	-2.425	-2.6458	-2.4958	-2.4292	-2.4708	-2.7292	114.732	4.205	-69.985	134.014	46.459	104.451	135.195	122.246	-98.238	50.513	35.552	126.261	-67.675	130.830	2.400	116.958	0.00189	0.00022941	4.128e-05	510.97	2.9162e-06	7.0324e-06	680.65	221.42	8.6582e-06	1.5957e-07	330.23	156.05	106.41	58.984	4.2325e-06	91.562	0.00023373	0.0002065	6.121e-05	518.52	2.4404e-06	2.2087e-06	672.52	218.87	2.4304e-06	2.2645e-06	314.58	148.37	99.864	55.043	2.6151e-06	84.654	0.451	-10.441	-48.926	-141.893	17.297	-47.888	-143.252	-136.692	-87.070	83.503	-138.211	-134.428	-133.025	-128.650	-140.254	-131.328	-8191	255	
7692.069	1	1	0	0	0.082455	0.036433	0.21825	0.098645	0.20734	0.1089	0.22241	0.11635	0.13945	0.21771	0.12965	0.27473	0.099914	0.18393	0.20159	0.17946	-2.05	-2.5354	-2.2646	-2.6667	-2.6167	-2.2646	-2.7521	-2.5167	-2.2229	-2.5312	-2.4479	-2.7146	-2.5833	-2.5271	-2.5979	-2.8771	165.553	-58.925	111.612	172.564	11.744	60.070	149.739	182.820	5.400	63.594	79.435	138.197	140.382	-139.336	139.089	171.244	0.0017061	0.00048884	3.5013e-05	510.26	3.0057e-06	3.9063e-06	676.03	220.82	4.5277e-06	3.5535e-06	328	156.6	106.71	58.701	2.4746e-06	91.337	0.00023401	0.00021071	6.7432e-05	518.83	2.4741e-06	2.3036e-06	674.71	218.63	2.4665e-06	2.3683e-06	315.52	147.93	99.785	54.929	2.8162e-06	84.197	6.669	-130.962	-2.512	-142.154	-3.109	-39.654	-143.365	-136.462	-63.752	31.054	-138.586	-134.362	-132.911	-128.670	179.170	-131.472	-8191	255	
7692.188	1	1	0	0	0.19027	0.14968	0.25509	0.26388	0.23149	0.077211	0.26075	0.16912	0.16502	0.26015	0.075082	0.3287	0.10891	0.45735	0.20139	0.18448	-2.0479	-2.5625	-2.2854	-2.6604	-2.6646	-2.1208	-2.6896	-2.6729	-2.5854	-2.6771	-2.5458	-2.7021	-2.6146	-2.2625	-2.4896	-2.6375	-55.770	136.272	-146.189	132.483	150.931	204.805	86.728	128.207	-27.946	152.570	71.135	191.123	-82.815	182.372	-3.524	140.914	0.0018182	0.00020466	8.035e-05	510.53	6.2348e-06	1.367e-06	673.14	219.84	7.6408e-06	1.3652e-06	324.82	154.62	106.54	58.448	2.1986e-06	90.175	0.00023294	0.00022034	7.1359e-05	515.93	2.4769e-06	2.4727e-06	673.96	217.64	2.4384e-06	2.5483e-06	314.62	146.97	99.356	54.885	2.8557e-06	83.645	1.985	-100.836	-85.457	-142.161	-43.411	-116.770	-143.212	-136.516	-36.153	51.884	-138.810	-134.402	-132.846	-128.559	3.984	-131.359	-8191	255	
7692.285	1	1	0	0	0.24414	0.084171	0.076209	0.1551	0.13438	0.020473	0.10996	0.013748	0.11676	0.42375	0.12541	0.23364	0.2036	0.26104	0.044323	0.11958	-1.7458	-2.65	-2.3458	-2.4125	-2.65	-2.3396	-2.6667	-2.7188	-2.4729	-2.6708	-2.6188	-2.5854	-2.8146	-2.4042	-2.4292	-2.625	129.525	-38.718	-138.359	118.584	-54.664	138.655	-107.946	82.917	134.275	-76.695	133.234	104.497	133.932	-143.542	-78.130	88.907	0.00191	0.00048477	0.00011948	509.94	3.6112e-06	7.5136e-06	673.35	219.48	6.3423e-06	2.4854e-06	326.75	154.48	105.77	58.323	7.8142e-06	90.044	0.00023269	0.00024058	7.2605e-05	516.48	2.4464e-06	2.7024e-06	672.88	217.11	2.4506e-06	2.7709e-06	313.93	146.65	99.075	54.927	2.8267e-06	83.445	3.094	200.539	-37.970	-141.875	-43.513	199.110	-143.202	-136.309	-45.492	-39.910	-138.519	-134.458	-133.011	-128.737	-21.729	-131.551	-8191	255	
7692.381	1	1	0	0	0.12374	0.034281	0.1042	0.18647	0.070988	0.24612	0.20996	0.2803	0.25189	0.25336	0.14177	0.074052	0.33646	0.26519	0.12825	0.23535	-1.8875	-2.5938	-2.375	-2.4125	-2.6604	-2.5458	-2.4417	-2.7333	-2.2979	-2.625	-2.6188	-2.4083	-2.8833	-2.5625	-2.4479	-2.9437	134.170	45.797	-81.574	89.311	104.520	-114.583	151.073	205.155	152.652	5.199	-92.719	-95.299	166.951	90.050	-153.844	168.126	0.0016932	0.00072593	0.00010839	508.71	1.7826e-06	4.9162e-06	674.86	220.17	6.0713e-06	3.3585e-06	325.58	155.57	106.21	58.294	4.1591e-06	90.34	0.00023573	0.00025955	7.2144e-05	514.5	2.4863e-06	2.8601e-06	673.46	216.96	2.4871e-06	2.8847e-06	313.44	146.85	99.241	55.027	2.6988e-06	83.567	3.515	-109.852	-52.610	-142.492	165.528	-81.520	-143.284	-136.575	-83.397	-10.956	-138.219	-134.533	-132.919	-128.528	-21.238	-131.422	-8191	255	
7692.477	1	1	0	0	0.2369	0.10974	0.17407	0.021111	0.11083	0.20416	0.17651	0.11042	0.12716	0.099366	0.114	0.027304	0.095437	0.3396	0.087468	0.19425	-1.9042	-2.6688	-2.4083	-2.1375	-2.4625	-2.4562	-2.6083	-2.6521	-2.5625	-2.5	-2.6021	-2.5646	-2.8146	-2.8167	-2.3646	-2.7833	-106.139	-42.133	164.465	-2.172	112.745	121.509	173.277	110.732	69.162	-134.813	173.834	70.217	20.910	136.556	9.393	98.918	0.0017672	0.00035759	0.00015821	507.25	1.0802e-06	4.9614e-06	674.22	219.96	1.7797e-07	6.9522e-06	327.69	154.84	106.25	58.191	8.1895e-06	89.857	0.00024302	0.00026353	6.7204e-05	511.66	2.5521e-06	2.8901e-06	669.51	216.09	2.6018e-06	2.8373e-06	312.56	146.11	99.729	54.931	2.5816e-06	83.037	-0.837	28.021	-33.597	-141.993	176.791	-59.477	-143.377	-136.379	-60.891	-36.069	-138.512	-134.478	-132.815	-128.771	-101.309	-131.541	-8191	255	
7692.573	1	1	0	0	0.15265	0.11339	0.24433	0.14299	0.096138	0.12324	0.27614	0.09548	0.24887	0.066671	0.25474	0.066867	0.18157	0.13439	0.29563	0.22958	-1.9333	-2.5667	-2.6979	-2.3771	-2.6479	-2.6333	-2.5979	-2.8104	-2.3271	-2.4021	-2.8042	-2.5042	-2.7354	-2.6125	-2.2146	-2.8542	166.174	41.664	-99.368	101.978	-133.935	104.220	125.680	89.627	130.754	108.206	44.246	2.607	-112.789	180.349	-24.921	106.118	0.0018139	0.00067529	0.00015566	509.88	4.6734e-06	1.0891e-05	675.48	219.2	5.428e-06	6.9582e-06	326.78	155.26	105.99	57.971	5.5049e-06	90.238	0.00025719	0.00025425	6.4937e-05	512.4	2.7212e-06	2.7945e-06	669.19	216.05	2.7577e-06	2.7384e-06	311.94	146.33	99.997	54.742	2.5005e-06	83.174	-1.810	-89.458	-69.591	-141.977	-106.363	-27.303	-143.174	-136.386	-64.258	27.731	-138.448	-134.542	-133.176	-128.636	-89.949	-131.207	-8191	255	
7692.669	1	1	0	0	0.18455	0.035064	0.1552	0.18861	0.22498	0.066285	0.15317	0.31177	0.14042	0.15349	0.074942	0.14268	0.18077	0.062175	0.053717	0.24588	-1.9354	-2.4854	-2.6896	-2.2021	-2.5583	-2.675	-2.4896	-2.6396	-2.5042	-2.4417	-2.75	-2.5333	-2.6937	-2.7479	-2.2792	-2.7896	-118.472	204.366	-125.939	38.535	50.829	-120.463	66.252	197.312	-70.269	146.480	-72.067	131.324	125.346	-103.438	-0.843	-146.408	0.0017302	0.00046597	3.7906e-05	506.66	6.652e-06	4.7605e-06	674.25	220.6	5.1353e-06	5.1871e-06	329.6	155.79	106.56	58.358	6.8528e-06	90.503	0.00026619	0.0002421	6.2655e-05	511.42	2.7889e-06	2.6371e-06	669.29	216.79	2.815e-06	2.5652e-06	312.56	146.8	100.09	54.841	2.3421e-06	83.675	0.799	-88.422	-99.248	-142.145	-55.619	-36.736	-143.376	-136.422	-109.794	-36.247	-138.404	-134.634	-132.689	-128.674	-73.508	-131.558	-8191	255	
7692.765	1	1	0	0	0.17269	0.15002	0.19128	0.15389	0.09944	0.24769	0.092333	0.20837	0.2441	0.069437	0.14421	0.16912	0.077214	0.11663	0.15589	0.051789	-1.9188	-2.4625	-2.7792	-2.3187	-2.7104	-2.7313	-2.3333	-2.6896	-2.5792	-2.4813	-2.9208	-2.4833	-2.6479	-2.6458	-2.2146	-2.6	97.622	-27.772	-93.886	189.713	83.067	35.350	175.470	88.184	202.552	-17.419	-149.559	-124.959	-11.189	141.386	91.902	126.779	0.0019193	0.00033683	0.0001575	510.18	2.7623e-06	4.4676e-06	680.33	222.21	5.82e-06	3.4883e-06	331.57	157.06	106.96	58.912	4.3102e-06	91.62	0.00026212	0.00022417	5.8894e-05	513.96	2.6666e-06	2.4413e-06	669.57	218.83	2.6531e-06	2.361e-06	313	148.32	100.23	55.03	2.1284e-06	84.341	-0.013	-144.131	-138.155	-142.334	-51.716	7.733	-143.204	-136.588	-39.857	-23.715	-138.510	-134.402	-132.947	-128.753	-29.814	-131.434	-8191	255	
7692.861	1	1	0	0	0.050155	0.23095	0.15852	0.053665	0.21119	0.31386	0.14201	0.12712	0.13055	0.079275	0.014402	0.073459	0.19476	0.16876	0.061669	0.36127	-2.0812	-2.35	-2.5792	-2.2479	-2.3917	-2.5417	-2.325	-2.7271	-2.1958	-2.6083	-2.7792	-2.55	-2.4875	-2.6792	-2.3708	-2.6729	-56.053	192.773	2.212	10.645	-134.278	133.017	-144.679	-78.720	126.515	-131.621	188.741	170.436	-132.438	196.163	-73.916	153.448	0.0020377	0.00013689	0.00012822	511.33	5.0912e-06	5.5684e-06	682.93	224.46	6.6473e-06	7.6104e-06	335.55	157.87	108.05	59.254	2.2746e-06	92.113	0.00024055	0.00020348	5.3462e-05	515.67	2.4185e-06	2.2444e-06	670.37	220.7	2.4417e-06	2.1892e-06	315.35	149.33	100.19	55.289	2.1423e-06	84.919	7.548	-130.739	-49.333	-142.372	-31.069	-4.821	-143.293	-136.530	-68.473	-38.724	-138.602	-134.592	-132.728	-128.648	-137.749	-131.398	-8191	255	
7692.980	1	1	0	0	0.073695	0.18897	0.16196	0.10259	0.041714	0.16633	0.16187	0.15863	0.13709	0.24563	0.22475	0.29902	0.081522	0.17625	0.10731	0.12894	-2.1562	-2.3729	-2.7917	-2.4042	-2.6292	-2.6729	-2.4479	-2.7104	-2.6312	-2.3	-2.8604	-2.6458	-2.5104	-2.9062	-2.4167	-2.6917	-41.412	14.853	-85.821	-67.700	196.706	-120.303	21.846	-77.986	-105.971	-79.576	146.571	183.608	144.224	-153.978	188.521	-84.930	0.0017696	0.00046774	8.0484e-05	517.72	4.5921e-06	5.2481e-06	687.6	226.25	3.2521e-06	4.0626e-06	336.72	159.11	108.07	59.227	2.8511e-06	92.436	0.0002282	0.00019489	5.4147e-05	519.8	2.2904e-06	2.1399e-06	674.55	222.49	2.3383e-06	2.1117e-06	318.2	150.28	100.32	55.319	2.2593e-06	85.368	1.953	-108.744	-140.836	-142.095	-22.796	-36.810	-143.274	-136.354	-72.579	-1.710	-138.484	-134.506	-132.927	-128.673	-112.183	-131.340	-8191	255	
7693.052	1	1	0	0	0.28098	0.201	0.11624	0.11773	0.15507	0.2302	0.17602	0.14184	0.17375	0.32454	0.34915	0.35568	0.328	0.13261	0.094261	0.19873	-2.1437	-2.3896	-2.7875	-2.2667	-2.4313	-2.8063	-2.5479	-2.8792	-2.5771	-2.4083	-2.725	-2.5354	-2.2917	-2.6833	-2.4667	-2.75	-151.202	-85.708	-64.495	87.305	119.009	-151.452	-84.430	110.078	-30.679	-116.368	154.299	148.581	199.744	203.717	-150.012	123.636	0.001813	0.00040327	7.4036e-05	515.41	2.6555e-06	6.9838e-06	688.42	226.63	1.0798e-06	1.4033e-06	337.21	159.76	108.55	59.523	3.0967e-06	93.088	0.00022428	0.00019266	5.8367e-05	521.08	2.2819e-06	2.1344e-06	679.25	222.86	2.3144e-06	2.1025e-06	320.62	150.89	100.64	55.61	2.487e-06	85.918	4.510	-45.886	-112.406	-141.912	-73.734	-5.197	-143.147	-136.517	-16.298	63.434	-138.583	-134.520	-132.922	-128.763	-114.736	-131.411	-8191	255	
7693.150	1	1	0	0	0.31551	0.34455	0.0073913	0.1342	0.179	0.23894	0.15046	0.28755	0.10655	0.1318	0.32869	0.15907	0.26025	0.22156	0.19596	0.13537	-2.3167	-2.2292	-2.6646	-2.5938	-2.4021	-2.6104	-2.3729	-2.5625	-2.4375	-2.375	-2.55	-2.6479	-2.4854	-2.8729	-2.2708	-2.425	-34.673	-40.413	-27.026	155.768	-1.536	-21.190	-116.792	-101.788	164.634	166.047	-121.213	139.582	136.004	174.952	186.645	-65.771	0.0019195	0.00033578	8.9407e-05	519.22	2.4508e-06	3.9416e-06	688.98	227.85	4.9708e-06	4.9696e-06	342.22	161.52	109.51	59.912	2.2986e-06	94.276	0.00022369	0.00019585	6.3258e-05	521.88	2.2204e-06	2.1183e-06	681.8	223.07	2.1943e-06	2.0544e-06	324.04	152.02	100.7	55.938	2.3931e-06	86.732	3.450	-88.792	-136.397	-142.076	-7.350	-57.150	-143.191	-136.736	-65.631	-123.761	-138.404	-134.493	-132.927	-128.646	-64.501	-131.323	-8191	255	
7693.269	1	1	0	0	0.30586	0.11956	0.081101	0.26623	0.20561	0.085822	0.21679	0.13697	0.1657	0.12449	0.23904	0.06817	0.088839	0.14925	0.011465	0.28793	-2.1937	-2.2812	-2.5521	-2.6333	-2.6562	-2.7583	-2.5104	-2.5042	-2.5521	-2.2979	-2.8083	-2.6375	-2.2875	-2.8521	-2.4771	-2.4896	166.302	16.769	-7.991	125.189	142.558	121.531	12.838	-146.864	171.560	-65.670	76.762	-145.201	114.109	-119.325	32.577	138.955	0.0019571	0.00063053	6.6388e-05	520.83	4.9704e-06	4.1382e-07	698.91	229.57	5.2693e-06	8.6382e-07	345.82	162.65	110.05	60.706	2.888e-06	94.535	0.00020212	0.00018775	5.9846e-05	520.02	2.0269e-06	2.0846e-06	687.32	224.13	2.0379e-06	2.1231e-06	325.78	152.77	101.07	56.429	2.3776e-06	86.879	0.091	190.149	35.175	-142.094	-37.216	-122.479	-143.417	-136.344	-113.402	-49.247	-138.585	-134.309	-132.928	-128.779	-62.496	-131.367	-8191	255	
7693.365	1	1	0	0	0.12367	0.11367	0.1225	0.043723	0.28898	0.16336	0.15001	0.22407	0.11699	0.20046	0.16536	0.088762	0.20891	0.058681	0.19761	0.27759	-2.2521	-2.3	-2.5417	-2.6063	-2.3646	-2.7417	-2.475	-2.4562	-2.7208	-2.5167	-2.5542	-2.6667	-2.4208	-2.9229	-2.5458	-2.4813	127.218	-118.043	23.613	176.578	-58.967	-85.578	-110.899	-144.070	-49.794	-94.076	69.029	196.366	-63.314	-142.643	161.256	202.849	0.001862	0.00039229	0.00018407	519.07	4.0571e-07	3.8555e-06	696.09	229.82	6.0042e-06	1.766e-06	345.18	163.05	109.69	60.384	2.6603e-06	94.596	0.00019715	0.00020008	5.9187e-05	518.42	1.9587e-06	2.1889e-06	685.58	224.12	1.954e-06	2.2109e-06	324.94	152.78	100.68	56.398	2.2905e-06	86.7	0.034	182.723	-58.228	-141.940	93.175	12.806	-143.150	-136.638	-57.448	90.891	-138.279	-134.502	-132.889	-128.538	-61.345	-131.532	-8191	255	
7693.461	1	1	0	0	0.25885	0.23914	0.13437	0.33932	0.15514	0.15553	0.31166	0.085748	0.10558	0.31047	0.38276	0.11996	0.12662	0.14871	0.1374	0.43646	-2.1979	-2.3667	-2.5375	-2.7438	-2.2271	-2.6208	-2.6771	-2.3583	-2.675	-2.3625	-2.4583	-2.8125	-2.3792	-2.9021	-2.6937	-2.5146	104.081	101.423	-30.103	113.527	-110.504	125.506	174.775	146.784	110.817	101.175	-135.021	198.253	-125.826	109.025	68.465	135.454	0.0019323	0.00075878	8.6691e-05	520.43	1.4504e-06	6.9189e-06	696.98	230.43	2.9756e-06	5.6907e-06	346.67	163.33	109.66	60.43	2.3895e-06	94.926	0.00019624	0.00021084	5.6509e-05	519.45	1.9957e-06	2.3129e-06	684.46	223.79	2.0103e-06	2.2881e-06	324.3	152.79	100.9	56.479	2.1121e-06	86.943	2.316	-131.303	-26.479	-141.864	-77.758	40.678	-143.255	-136.558	-82.736	-2.965	-138.746	-134.438	-132.801	-128.612	-78.156	-131.416	-8191	255	
7693.557	1	1	0	0	0.078196	0.35299	0.21788	0.03701	0.19726	0.012422	0.2084	0.14184	0.36119	0.20566	0.19971	0.088578	0.070164	0.38148	0.33062	0.18488	-2.1917	-2.2438	-2.4833	-2.7646	-2.5146	-2.65	-2.6646	-2.3688	-2.5917	-2.4375	-2.4896	-2.7333	-2.4	-2.6583	-2.7562	-2.65	38.171	1.346	-61.095	92.306	-78.085	105.856	166.231	179.825	-129.145	-13.197	-108.589	193.759	5.529	-122.008	202.731	191.701	0.0020258	0.00077854	9.6596e-05	524.78	2.8015e-06	3.7885e-06	693.85	228.83	1.9982e-06	3.5388e-06	345.98	163.67	110.17	60.621	3.9173e-06	94.799	0.00019775	0.0002081	5.2518e-05	517.96	2.0407e-06	2.2375e-06	682.67	223.59	2.0795e-06	2.2613e-06	324.76	153.04	101.69	56.54	2.1082e-06	86.987	0.423	-123.467	-116.505	-142.233	-143.322	4.608	-143.217	-136.716	189.363	-25.330	-138.214	-134.371	-133.085	-128.532	-106.249	-131.298	-8191	255	
7693.678	1	1	0	0	0.042598	0.042476	0.1872	0.15941	0.083302	0.23971	0.34283	0.19917	0.040491	0.17132	0.10178	0.16887	0.066159	0.2289	0.23074	0.18402	-2.2125	-2.4562	-2.475	-2.6646	-2.4792	-2.5729	-2.7562	-2.4313	-2.5938	-2.4729	-2.3708	-2.8563	-2.3875	-2.7375	-2.625	-2.4521	-152.330	192.403	147.083	163.430	-15.853	101.098	113.947	171.734	70.067	139.581	199.699	83.964	-87.665	-129.954	114.633	200.570	0.0020262	0.0010738	9.2308e-05	521.94	1.6475e-06	3.5688e-06	700.09	229.79	5.5594e-06	3.5125e-06	343.52	163.61	109.6	60.243	3.514e-06	94.832	0.00021583	0.00021145	5.3382e-05	518.26	2.3175e-06	2.3099e-06	684.45	224.1	2.3502e-06	2.3144e-06	324.24	153.04	102.01	56.393	2.1713e-06	86.939	3.104	-96.900	-100.502	-142.195	-44.248	-41.271	-143.282	-136.522	-117.198	25.576	-138.540	-134.397	-132.779	-128.628	-44.439	-131.359	-8191	255	
7693.749	1	1	0	0	0.21148	0.22524	0.29335	0.14449	0.19027	0.11517	0.098475	0.050404	0.33616	0.33539	0.19293	0.36547	0.11363	0.20733	0.01418	0.25846	-2.0771	-2.5271	-2.2917	-2.7604	-2.3458	-2.45	-2.5667	-2.5146	-2.7812	-2.5292	-2.4979	-2.6958	-2.5917	-2.7062	-2.65	-2.4958	86.054	203.804	-28.064	147.096	42.431	-28.013	179.345	143.558	-77.293	144.630	166.368	176.451	1.074	121.861	-34.442	169.061	0.002082	5.8392e-05	9.7565e-05	521.47	3.1069e-06	6.3044e-06	694.53	227.78	4.2534e-06	2.2289e-06	343.09	161.76	109.25	59.792	2.8201e-06	93.694	0.00023531	0.00021372	5.4054e-05	520.47	2.5198e-06	2.3237e-06	683.61	223.46	2.5718e-06	2.3784e-06	323.04	152.4	102.28	55.978	2.2956e-06	86.173	0.535	-143.264	-39.163	-142.223	-38.119	-15.582	-142.999	-136.274	-8.790	-1.997	-138.699	-134.457	-132.740	-128.722	-33.592	-131.374	-8191	255	
7693.870	1	1	0	0	0.19873	0.26316	0.079655	0.13738	0.20601	0.06913	0.39557	0.14308	0.17445	0.083171	0.17941	0.32944	0.30113	0.23954	0.17715	0.29628	-2.1146	-2.475	-2.1854	-2.6771	-2.4833	-2.2938	-2.7729	-2.5083	-2.7104	-2.5292	-2.175	-2.9313	-2.5604	-2.4771	-2.7583	-2.4104	-111.328	160.578	115.799	40.667	127.899	10.264	120.184	31.152	-138.749	117.883	143.999	184.453	-94.441	177.711	28.456	-150.965	0.0019946	0.00095622	8.4612e-05	521.8	3.8547e-07	4.9575e-06	691.5	226.86	7.0666e-06	5.9174e-06	338.67	161.58	109.08	59.47	4.6962e-06	93.033	0.00025665	0.00022352	5.7616e-05	525.69	2.7138e-06	2.427e-06	683.37	223.28	2.6405e-06	2.4277e-06	320.38	152.05	101.96	55.639	2.2902e-06	86.009	3.913	-90.563	-99.961	-142.065	-46.410	-39.368	-143.287	-136.510	-7.053	8.493	-138.667	-134.340	-132.864	-128.706	-93.178	-131.462	-8191	255	
7693.965	1	1	0	0	0.26619	0.080668	0.20031	0.11601	0.1582	0.17895	0.10128	0.067916	0.11043	0.16783	0.24081	0.50292	0.32057	0.16495	0.22779	0.2388	-2.1896	-2.7167	-2.225	-2.675	-2.5604	-2.3979	-2.7146	-2.5208	-2.625	-2.7562	-2.3396	-2.7854	-2.5646	-2.4417	-2.7438	-2.6708	-42.003	-131.145	77.981	-43.097	-6.511	-152.267	-138.632	72.084	14.906	-149.133	-135.872	132.406	164.575	156.990	-56.861	-48.176	0.0016317	9.8096e-05	0.00010357	519.43	2.6732e-06	4.4185e-06	688.76	225.66	7.346e-06	3.4245e-06	338.76	160.18	108.45	59.524	2.732e-06	93.051	0.000254	0.00022115	5.7015e-05	525.99	2.5971e-06	2.3352e-06	680.91	223.34	2.4969e-06	2.2999e-06	320.33	151.89	101.39	55.625	2.2604e-06	86.247	4.601	-139.158	-38.054	-142.093	-102.741	-33.276	-143.312	-136.612	-8.578	-21.921	-138.618	-134.325	-132.807	-128.699	-127.084	-131.521	-8191	255	
7694.061	1	1	0	0	0.12129	0.082218	0.14094	0.13613	0.040951	0.27783	0.16033	0.25968	0.07646	0.24672	0.24806	0.21928	0.094462	0.18054	0.10146	0.44882	-1.9896	-2.5229	-2.1708	-2.8042	-2.4562	-2.3396	-2.5479	-2.3812	-2.4833	-2.7313	-2.4	-2.6958	-2.6625	-2.3458	-2.6042	-2.8187	66.341	-100.217	40.045	-52.305	-88.657	-103.048	175.506	103.329	11.973	153.387	137.385	115.342	-93.685	150.256	-47.564	143.443	0.0018642	0.00049264	2.3121e-05	519.74	6.3361e-06	3.7779e-06	695.28	227.55	2.4399e-06	7.4126e-06	340.54	161.09	108.73	59.6	4.8804e-06	93.34	0.00023573	0.00020827	5.778e-05	525.62	2.4617e-06	2.2034e-06	683.54	223.95	2.4028e-06	2.2172e-06	322.34	152.31	101.12	55.559	2.372e-06	86.283	4.852	-115.587	-20.210	-142.244	-69.554	-48.944	-143.651	-136.338	-6.791	-24.236	-138.391	-134.409	-132.730	-128.651	-132.333	-131.293	-8191	255	
7694.157	1	1	0	0	0.1534	0.08058	0.16455	0.16225	0.042761	0.22859	0.21445	0.14637	0.070759	0.085777	0.20849	0.17095	0.048745	0.095429	0.12368	0.24796	-1.9604	-2.6625	-2.4604	-2.6021	-2.6917	-2.5396	-2.7042	-2.475	-2.4667	-2.825	-2.4625	-2.7938	-2.7167	-2.5396	-2.7667	-2.5604	185.739	172.312	-76.612	-133.360	-70.813	33.960	196.995	43.478	-79.568	148.890	-116.473	189.580	168.443	86.003	80.332	-146.353	0.0019293	0.0003186	9.6532e-05	515.82	3.8213e-06	8.176e-06	690.73	227.15	4.7163e-06	3.7771e-06	338.27	161.08	108.43	59.346	1.5302e-06	92.595	0.00022536	0.00019982	6.0919e-05	523.74	2.3874e-06	2.1637e-06	684.33	223.74	2.3474e-06	2.2004e-06	322.28	151.98	100.68	55.41	2.5598e-06	85.788	-3.220	202.370	-142.704	-142.131	-44.811	-34.935	-143.134	-136.268	-37.149	-65.837	-138.490	-134.439	-133.051	-128.636	-41.317	-131.423	-8191	255	
7694.277	1	1	0	0	0.17421	0.18489	0.25608	0.2267	0.088621	0.35162	0.2007	0.21037	0.0563	0.21875	0.13414	0.2689	0.19307	0.17823	0.12522	0.46419	-1.9542	-2.5458	-2.3271	-2.4938	-2.6583	-2.4	-2.7125	-2.725	-2.4354	-2.9396	-2.5771	-2.6188	-2.6917	-2.5583	-2.6896	-2.7938	136.083	94.600	123.177	199.973	144.868	-150.556	97.326	-102.339	55.261	-53.468	130.577	-152.762	-111.558	176.801	-38.106	146.234	0.0018904	0.00019128	9.2688e-05	518.03	1.9332e-06	5.2331e-06	687.95	225.6	4.7774e-06	3.3818e-06	338.84	160.21	108.77	59.217	3.1431e-06	92.781	0.00022565	0.00020332	6.6382e-05	524.28	2.404e-06	2.2892e-06	686.47	222.87	2.378e-06	2.3494e-06	323.71	151.42	100.67	55.409	2.7068e-06	85.701	3.745	-59.626	-137.824	-142.270	-45.974	-151.688	-143.378	-136.172	-10.303	-5.091	-138.724	-134.353	-132.656	-128.694	-59.149	-131.485	-8191	255	
7694.349	1	1	0	0	0.056814	0.11875	0.18702	0.29199	0.1472	0.24967	0.12399	0.12385	0.15001	0.29352	0.061718	0.30656	0.072068	0.15852	0.33385	0.29937	-1.8479	-2.6604	-2.3854	-2.4146	-2.6063	-2.4125	-2.7625	-2.6375	-2.3104	-2.5208	-2.6271	-2.4958	-2.8417	-2.475	-2.6375	-2.7646	-122.603	188.500	-67.485	37.472	-36.421	187.114	163.224	13.359	1.827	-149.640	79.483	158.587	111.786	176.376	-129.964	139.389	0.0017305	0.00025503	8.8845e-05	518.33	1.1136e-06	3.1309e-06	691.29	225.5	2.3384e-06	6.1458e-07	339.58	160.81	108.45	59.204	5.9032e-06	93.604	0.00022	0.00021446	6.7605e-05	521.66	2.2986e-06	2.3694e-06	687.05	222.42	2.2741e-06	2.4692e-06	324.56	151.63	100.55	55.653	2.7147e-06	86.048	1.232	198.472	-56.475	-142.284	26.883	-142.163	-143.339	-136.488	-49.840	-36.382	-138.795	-134.580	-132.981	-128.639	-69.338	-131.407	-8191	255	
7694.445	1	1	0	0	0.094181	0.24897	0.19418	0.099167	0.055579	0.27309	0.073869	0.29265	0.15501	0.15384	0.17957	0.20642	0.17191	0.28072	0.14568	0.30164	-2.0542	-2.6083	-2.3354	-2.4771	-2.7354	-2.3812	-2.7625	-2.8167	-2.3812	-2.6708	-2.5625	-2.5729	-2.8021	-2.3396	-2.4792	-2.8604	-141.633	-87.290	109.543	155.649	-93.646	-129.435	47.921	133.411	-74.063	169.042	93.665	49.098	128.848	148.741	-108.744	69.535	0.0019688	0.00025537	0.00012822	514.04	3.0218e-06	2.7903e-06	690.66	225.41	6.9038e-06	4.3151e-06	339.58	160.94	108.3	59.267	2.5888e-06	92.834	0.00022311	0.000235	6.8801e-05	520.61	2.3128e-06	2.6388e-06	685.76	222.05	2.3388e-06	2.6805e-06	324.13	151.77	100.65	55.832	2.6818e-06	85.949	1.813	-135.625	-80.959	-141.907	-101.018	108.844	-143.084	-136.377	-72.585	-60.434	-138.608	-134.440	-132.866	-128.705	-80.287	-131.492	-8191	255	
7694.541	1	1	0	0	0.14643	0.22895	0.13336	0.14985	0.26129	0.22065	0.21007	0.23333	0.18214	0.26062	0.10635	0.16961	0.31295	0.12216	0.075102	0.4271	-2.05	-2.4875	-2.4604	-2.475	-2.625	-2.4896	-2.5187	-2.7062	-2.5542	-2.6646	-2.7292	-2.55	-2.5792	-2.6292	-2.4125	-2.85	11.396	19.279	142.430	-110.650	-76.268	-146.119	126.379	181.942	79.640	117.219	166.417	116.580	-125.153	-62.846	-94.605	161.771	0.0019689	0.00047046	3.0735e-05	516.39	3.7062e-06	1.7509e-06	685.07	224.46	4.9779e-06	7.0993e-06	337.61	160.16	107.89	59.086	6.1935e-06	92.707	0.00023272	0.00025742	6.8992e-05	521.02	2.4797e-06	2.8689e-06	682.54	221.4	2.505e-06	2.8717e-06	322.8	151.47	100.98	55.765	2.6535e-06	85.633	-1.951	-67.369	-23.471	-142.231	-84.280	-41.636	-143.214	-136.454	-113.177	-40.534	-138.619	-134.527	-133.003	-128.869	-67.668	-131.502	-8191	255	
7694.662	1	1	0	0	0.24947	0.17109	0.27387	0.11207	0.10214	0.23823	0.056888	0.067964	0.17033	0.020948	0.26409	0.14815	0.1487	0.096432	0.21645	0.041418	-1.9562	-2.4104	-2.3958	-2.2458	-2.7208	-2.3625	-2.4417	-2.7771	-2.2354	-2.5062	-2.7042	-2.3812	-2.7625	-2.4708	-2.4625	-2.8937	-121.131	90.346	103.583	120.366	186.304	110.761	184.786	-70.034	-63.058	200.064	127.396	163.724	-62.090	-94.099	127.343	109.212	0.0020742	0.0003517	4.561e-05	516.85	5.6653e-06	3.1702e-06	687.83	223.64	1.1627e-06	2.8139e-06	334.77	158.52	107.07	58.802	5.2546e-06	92.035	0.00025084	0.00026476	6.75e-05	519.45	2.6895e-06	2.9178e-06	680.94	220.01	2.72e-06	2.8561e-06	319.68	149.93	100.96	55.375	2.5446e-06	84.913	-4.228	-113.000	4.389	-142.142	-153.854	-33.894	-143.079	-136.377	-52.455	25.719	-138.541	-134.529	-133.036	-128.692	-26.220	-131.420	-8191	255	
7694.758	1	1	0	0	0.22644	0.079879	0.33882	0.12838	0.20164	0.29096	0.32621	0.19874	0.10042	0.22535	0.26744	0.070142	0.062796	0.15695	0.28641	0.33049	-1.9146	-2.2979	-2.7396	-2.4	-2.6042	-2.3646	-2.4958	-2.675	-2.225	-2.3979	-2.6833	-2.3875	-2.8521	-2.4792	-2.2854	-2.8021	147.352	203.529	-85.232	-154.396	-20.426	48.264	157.622	169.429	53.099	56.217	163.797	166.533	63.459	-125.223	-119.782	170.117	0.0018032	0.00038103	0.00010734	512.18	6.3722e-07	7.1685e-06	683.63	223.36	2.4214e-06	5.3865e-06	336.64	159.53	107.48	58.839	5.0148e-06	92.287	0.00026138	0.00024888	6.399e-05	515.42	2.7588e-06	2.7265e-06	678.37	220	2.7989e-06	2.67e-06	319.63	150.27	101.17	55.287	2.4557e-06	85.041	-1.506	-103.298	-67.799	-142.110	-98.798	26.276	-143.427	-136.670	-104.949	44.708	-138.503	-134.602	-133.115	-128.700	-64.960	-131.152	-8191	255	
7694.853	1	1	0	0	0.17501	0.16335	0.035127	0.081549	0.14624	0.14529	0.33835	0.13337	0.025513	0.21337	0.22552	0.18743	0.059894	0.20319	0.044123	0.15004	-1.9813	-2.4625	-2.4938	-2.4354	-2.5125	-2.7104	-2.2812	-2.8312	-2.4521	-2.5958	-2.7042	-2.3229	-2.475	-2.8438	-2.2104	-2.9437	-59.045	-68.005	-5.058	-28.038	132.293	6.673	174.606	147.524	-14.285	34.554	-101.355	174.597	-90.876	-149.846	39.615	-144.609	0.0019023	0.00051028	0.00010807	507.51	8.5206e-07	8.2117e-06	680.45	223.27	8.0357e-06	7.4252e-06	334.2	158.42	107.22	58.714	3.951e-06	91.828	0.00026824	0.0002367	6.1695e-05	515.16	2.8017e-06	2.5841e-06	674.55	219.72	2.8683e-06	2.5768e-06	317.96	150.46	101.13	55.093	2.4151e-06	85.142	2.373	-98.678	-8.491	-141.819	-74.737	4.518	-143.258	-136.583	-69.707	-17.001	-138.304	-134.420	-133.024	-128.691	-74.598	-131.479	-8191	255	
7694.950	1	1	0	0	0.11765	0.1822	0.065241	0.29248	0.10152	0.29204	0.20572	0.24594	0.031895	0.14002	0.34993	0.037792	0.15141	0.22943	0.1712	0.073489	-1.9729	-2.4729	-2.6271	-2.2917	-2.6604	-2.5375	-2.4104	-2.6813	-2.5583	-2.2271	-2.6271	-2.4229	-2.5729	-2.6271	-2.4271	-2.7167	-2.788	135.835	99.325	107.066	97.533	108.380	160.854	174.627	67.825	-142.824	199.578	93.562	-92.531	-141.048	126.495	-19.538	0.001829	0.00078007	8.4894e-05	511.73	4.749e-06	4.7525e-06	680.11	222.52	3.2951e-06	6.5677e-06	334.79	158.26	106.83	58.484	2.7317e-06	91.948	0.00027615	0.00023773	6.2199e-05	519.78	2.8988e-06	2.6391e-06	673.7	220.14	2.8871e-06	2.5553e-06	317.32	150.4	100.69	54.977	2.3784e-06	85.141	0.642	-94.384	-35.512	-142.258	-4.145	-18.550	-142.980	-136.326	-92.972	-19.658	-138.332	-134.689	-132.965	-128.636	-132.010	-131.563	-8191	255	
7695.045	1	1	0	0	0.17405	0.13082	0.052828	0.19187	0.16237	0.069022	0.20664	0.28865	0.094224	0.28749	0.1723	0.2903	0.32959	0.10761	0.21228	0.3733	-2.0646	-2.4396	-2.5563	-2.3438	-2.425	-2.5875	-2.2562	-2.4896	-2.3521	-2.3854	-2.5938	-2.4917	-2.6542	-2.8104	-2.3021	-2.7021	6.167	-53.636	53.929	142.509	101.384	146.342	146.142	-131.520	-22.362	134.024	-79.686	133.275	142.067	158.209	9.787	-148.876	0.0017741	0.00068891	0.00012021	510.05	6.6629e-06	5.7924e-06	680.24	221.22	5.424e-06	5.7098e-06	331.66	157.45	106.41	58.09	6.4167e-06	90.942	0.00026628	0.00022943	6.1319e-05	521.09	2.7663e-06	2.5684e-06	673.94	220.23	2.8436e-06	2.586e-06	316.3	150.13	100.34	54.54	2.6349e-06	84.456	4.977	-127.438	-55.222	-141.812	-53.368	-57.588	-143.261	-136.214	-43.374	-56.070	-138.511	-134.373	-132.798	-128.706	-129.724	-131.590	-8191	255	
7695.141	1	1	0	0	0.091761	0.12185	0.15047	0.29486	0.18326	0.10696	0.19889	0.14578	0.17093	0.11256	0.20938	0.094582	0.27315	0.11446	0.22502	0.074213	-2.1562	-2.2229	-2.7625	-2.2167	-2.6146	-2.7313	-2.4917	-2.6146	-2.6167	-2.3688	-2.7875	-2.4917	-2.4917	-2.9562	-2.4104	-2.8104	39.204	126.268	12.919	186.113	-52.649	53.084	164.752	186.236	-48.875	-21.268	147.530	-42.856	112.375	-41.449	114.175	103.624	0.0017427	0.0005193	8.0785e-06	509.05	4.3136e-06	5.3793e-06	678.28	220.55	5.2552e-06	1.879e-06	331.24	156.92	106.09	58.109	2.454e-06	91.042	0.00026741	0.00023286	6.6777e-05	522.47	2.6977e-06	2.5334e-06	675.46	220.11	2.7468e-06	2.4842e-06	317.76	149.84	99.875	54.467	2.7829e-06	84.464	0.633	-128.660	91.011	-142.022	-84.511	-82.828	-143.100	-136.394	-25.942	162.196	-138.423	-134.623	-132.850	-128.638	179.536	-131.338	-8191	255	
7695.262	1	1	0	0	0.2372	0.10019	0.22614	0.31016	0.043862	0.13031	0.071658	0.031862	0.13539	0.28457	0.10002	0.079963	0.05532	0.085097	0.072539	0.21508	-2.225	-2.1729	-2.4771	-2.5312	-2.4875	-2.8458	-2.4437	-2.6042	-2.6813	-2.3146	-2.7438	-2.8521	-2.3583	-2.7542	-2.5646	-2.5833	204.417	-52.358	182.277	156.882	86.217	66.261	31.248	-43.737	-82.878	-1.132	61.029	-103.665	197.457	189.376	-41.433	163.670	0.0018071	0.00031543	6.8799e-05	511.55	2.1006e-06	5.9257e-06	680.99	221.67	7.4844e-06	5.6572e-06	333.65	157.79	106.37	58.04	2.1628e-06	90.995	0.0002608	0.00022857	7.256e-05	522.53	2.7002e-06	2.5457e-06	678.1	219.75	2.7095e-06	2.4758e-06	320.11	149.91	99.728	54.495	2.9766e-06	84.337	1.366	-61.185	177.458	-141.978	43.354	-0.816	-143.321	-136.571	-27.961	-12.992	-138.652	-134.415	-132.790	-128.614	-150.792	-131.570	-8191	255	
7695.358	1	1	0	0	0.23264	0.28796	0.16102	0.10006	0.084963	0.049111	0.17444	0.1455	0.15145	0.26676	0.077278	0.13022	0.12749	0.28059	0.078382	0.27777	-2.3854	-2.4354	-2.6896	-2.4646	-2.3771	-2.7188	-2.4271	-2.7021	-2.7083	-2.4479	-2.6271	-2.6688	-2.3	-2.7125	-2.5604	-2.6562	140.937	63.625	158.580	86.503	84.191	99.815	45.226	130.489	98.190	-72.930	187.594	159.014	-48.611	-126.298	71.275	154.444	0.001763	0.00013732	8.7905e-05	510.23	4.4791e-06	2.7558e-06	678.15	221.33	6.3358e-06	1.0968e-06	333.69	157.19	106.54	57.945	2.5622e-06	90.637	0.00025522	0.00023172	7.5369e-05	520.03	2.5993e-06	2.5424e-06	679.29	219.64	2.5827e-06	2.5329e-06	320.61	149.44	99.678	54.59	3.0746e-06	84.248	1.924	-38.278	172.014	-141.816	-67.928	-8.500	-143.180	-136.560	-42.449	-3.258	-138.513	-134.461	-132.865	-128.735	81.504	-131.580	-8191	255	
7695.452	1	1	0	0	0.21654	0.064667	0.099334	0.10823	0.15534	0.23413	0.21451	0.10693	0.22767	0.22816	0.39641	0.1246	0.19918	0.058721	0.17387	0.20002	-2.0062	-2.2292	-2.4625	-2.5875	-2.3083	-2.6521	-2.575	-2.5187	-2.5687	-2.3396	-2.5167	-2.5104	-2.3646	-2.7188	-2.4417	-2.4417	-111.553	73.685	119.133	-30.457	-114.592	147.780	94.110	122.967	117.401	115.164	194.816	181.752	-31.576	4.798	67.773	132.196	0.0018917	0.00032571	0.00010309	506.05	5.012e-06	4.8907e-06	676.53	220.4	6.3348e-06	5.1257e-06	332.31	156.03	105.63	57.625	2.0005e-06	89.611	0.00025449	0.00025081	7.8639e-05	519.23	2.6386e-06	2.8495e-06	681.03	218.96	2.6946e-06	2.9318e-06	320.56	148.63	99.448	54.492	3.1991e-06	83.481	6.744	165.819	-110.914	-142.010	-68.356	-12.512	-143.116	-136.398	-33.991	203.068	-138.599	-134.419	-132.612	-128.786	-53.795	-131.378	-8191	255	
7695.548	1	1	0	0	0.13351	0.19475	0.31748	0.072097	0.18515	0.07502	0.64885	0.067565	0.069017	0.022052	0.19083	0.19621	0.19123	0.17343	0.18811	0.014897	-2.3187	-2.2562	-2.4792	-2.5563	-2.2292	-2.5979	-2.5646	-2.4458	-2.5812	-2.3646	-2.3604	-2.7292	-2.2521	-2.5083	-2.2792	-2.4333	32.009	41.038	-73.748	-44.194	66.438	-16.988	135.414	124.709	-53.989	-25.866	-17.455	203.586	176.983	197.872	46.379	-88.634	0.0017666	0.00035159	0.00017578	508.6	1.0984e-06	4.5842e-07	677.55	220.56	3.7555e-06	3.0083e-06	331.24	156.48	105.85	57.75	3.1584e-06	90.511	0.00026083	0.00028296	8.1091e-05	520.56	2.761e-06	3.1881e-06	682.5	219.05	2.8068e-06	3.2071e-06	320.46	149.02	99.674	54.697	3.1212e-06	83.732	1.842	-78.871	-71.239	-142.087	52.301	8.518	-143.037	-136.368	-50.281	-94.402	-138.350	-134.490	-133.161	-128.838	-106.831	-131.317	-8191	255	
7695.645	1	1	0	0	0.22887	0.0301	0.093674	0.097825	0.31071	0.19062	0.36473	0.36204	0.29363	0.23158	0.14208	0.26803	0.050685	0.15995	0.046288	0.25219	-2.2604	-2.2917	-2.2833	-2.3563	-2.1375	-2.3271	-2.6458	-2.5375	-2.7896	-2.5	-2.5333	-2.75	-2.3792	-2.6667	-2.4333	-2.6063	-117.172	-76.567	164.308	-34.395	153.679	-98.643	200.784	156.689	149.114	59.585	-152.773	138.949	183.132	141.215	106.121	176.201	0.0019845	0.00052902	3.9022e-05	508.72	5.9142e-07	3.0946e-06	675.54	220.66	5.5221e-06	2.0838e-06	332.07	157.18	105.75	57.956	3.5108e-06	90.861	0.00026918	0.00029839	7.7934e-05	519.18	2.8424e-06	3.2706e-06	679.72	218.84	2.8645e-06	3.2185e-06	320.28	148.96	100.07	54.832	2.9023e-06	83.913	-4.440	-124.899	-34.106	-142.436	-20.597	26.314	-143.150	-136.460	-49.598	64.539	-138.262	-134.508	-133.145	-128.594	-48.478	-131.451	-8191	255	
7695.741	1	1	0	0	0.19737	0.045729	0.086767	0.25913	0.12677	0.22176	0.31037	0.2484	0.12811	0.092194	0.030042	0.29093	0.12112	0.19766	0.11625	0.10584	-2.1583	-2.1708	-2.1958	-2.6833	-2.35	-2.4521	-2.4292	-2.3125	-2.5292	-2.3688	-2.4146	-2.7271	-2.0083	-2.5875	-2.4292	-2.4479	174.021	25.592	186.598	-32.758	59.851	172.550	180.887	127.369	154.660	58.683	200.208	-120.353	171.431	143.628	-135.105	78.280	0.0020524	0.00066011	0.00014539	507.95	1.8119e-06	5.4378e-06	681.69	223.24	7.7264e-07	7.4831e-06	335.94	159.02	107.18	58.109	1.1117e-06	91.255	0.00027271	0.00028418	7.0512e-05	516.42	2.8368e-06	2.9846e-06	678.81	220.15	2.8381e-06	2.9581e-06	320.44	150.13	100.97	54.961	2.6654e-06	84.267	5.205	204.909	-83.289	-142.179	10.140	-2.184	-143.154	-136.666	-147.704	7.824	-138.535	-134.570	-132.885	-128.709	-39.014	-131.587	-8191	255	
7695.837	1	1	0	0	0.19921	0.057759	0.2772	0.15714	0.16239	0.26696	0.24476	0.13727	0.082079	0.054451	0.061972	0.16575	0.14863	0.20415	0.10584	0.064568	-2.1958	-2.3	-2.2625	-2.6896	-2.3854	-2.5125	-2.5563	-2.3604	-2.4896	-2.6167	-2.4417	-2.6167	-2.2083	-2.4938	-2.6688	-2.4125	117.962	-72.045	60.873	203.611	105.967	-136.625	204.256	137.444	-21.684	49.387	-132.488	-125.663	-114.311	181.808	182.226	117.963	0.0021323	0.00070609	9.0377e-05	512.11	2.3742e-06	1.0407e-05	683.31	224.22	4.2208e-06	5.1615e-06	338.77	159.99	107.3	58.209	7.2542e-06	91.554	0.00027435	0.0002627	6.5927e-05	516.65	2.889e-06	2.7705e-06	678.35	220.66	2.8728e-06	2.7266e-06	321.08	150.46	101.42	54.893	2.5154e-06	84.546	0.293	-111.430	-108.476	-142.247	-104.594	-46.031	-143.198	-136.294	-97.072	-1.464	-138.501	-134.618	-132.711	-128.683	-27.126	-131.449	-8191	255	
7695.957	1	1	0	0	0.2031	0.092324	0.135	0.13962	0.15069	0.12852	0.040389	0.23554	0.16667	0.20191	0.10633	0.45517	0.17912	0.3354	0.21187	0.034	-2.0792	-2.2583	-2.2625	-2.5729	-2.3625	-2.575	-2.625	-2.3021	-2.5812	-2.4146	-2.4396	-2.6042	-2.3333	-2.4437	-2.6792	-2.5312	201.175	186.103	121.363	46.203	-133.207	-122.399	-101.375	133.601	102.121	149.665	23.041	173.034	-98.647	192.664	145.101	125.726	0.001799	0.00029497	6.3131e-05	510.7	1.3284e-06	5.7297e-06	686.27	225.33	6.0085e-06	6.56e-06	337.2	159	107.49	58.455	4.2336e-06	91.922	0.00027704	0.00024786	6.3507e-05	518.06	2.9679e-06	2.6817e-06	678.6	222.21	2.9564e-06	2.7048e-06	321.18	150.97	101.68	54.949	2.4567e-06	85.19	6.329	-62.888	-101.467	-142.082	-65.420	-10.652	-143.124	-136.633	-72.780	-50.488	-138.462	-134.460	-132.806	-128.955	-51.134	-131.450	-8191	255	
7696.054	1	1	0	0	0.095	0.076284	0.19358	0.25323	0.16288	0.15279	0.19633	0.2187	0.070367	0.10062	0.12513	0.22848	0.15875	0.4013	0.17815	0.27142	-2.2229	-2.4208	-2.3312	-2.6271	-2.4104	-2.5521	-2.7562	-2.5708	-2.5375	-2.4458	-2.3896	-2.6479	-2.375	-2.4458	-2.6437	-2.5563	118.719	2.542	-62.700	204.046	114.248	-127.416	29.799	74.779	121.153	87.786	163.457	129.649	-149.089	150.887	101.382	142.912	0.0018626	0.0007504	7.1249e-05	511.74	5.4815e-06	5.742e-06	690.3	226.24	3.9407e-06	7.2277e-06	340.72	160.55	107.76	58.807	3.7403e-06	92.726	0.00027003	0.00023745	6.0658e-05	521.4	2.8423e-06	2.5436e-06	679.86	224.35	2.8066e-06	2.5575e-06	321.98	152.38	101.38	55.131	2.3581e-06	85.877	3.316	-90.842	-112.161	-142.169	-12.597	-52.527	-143.120	-136.570	-36.664	-16.551	-138.568	-134.472	-132.833	-128.564	-70.531	-131.450	-8191	255	
7696.150	1	1	0	0	0.13993	0.3183	0.22299	0.36959	0.054701	0.18376	0.24849	0.17195	0.17624	0.030062	0.08075	0.025751	0.35468	0.25238	0.20411	0.26816	-1.8333	-2.4917	-2.0938	-2.6771	-2.5229	-2.3312	-2.7229	-2.4917	-2.3833	-2.6771	-2.4958	-2.725	-2.4542	-2.375	-2.5708	-2.6646	-146.527	36.377	-74.178	91.533	98.896	-99.259	153.381	121.999	-130.770	-27.292	-76.258	42.796	172.223	-153.696	-126.307	163.673	0.0017288	0.00075183	2.4387e-05	514.64	5.3998e-06	4.2638e-06	688.63	227.22	5.1198e-06	3.5295e-06	341.84	161.51	108.62	58.864	2.232e-06	93.123	0.0002536	0.00022398	5.9257e-05	523.65	2.6942e-06	2.4535e-06	680.67	225.31	2.6693e-06	2.46e-06	324.45	153.42	101.52	55.24	2.5199e-06	86.302	9.373	-90.847	-144.899	-142.436	-32.397	-69.862	-143.348	-136.428	-66.966	-25.380	-138.438	-134.465	-132.652	-128.693	160.172	-131.441	-8191	255	
7696.221	1	1	0	0	0.1718	0.14453	0.20078	0.088043	0.30178	0.18081	0.11873	0.17747	0.10496	0.18876	0.10261	0.084998	0.21977	0.16918	0.21538	0.19829	-1.8333	-2.4521	-2.2438	-2.4667	-2.7104	-2.275	-2.5417	-2.3833	-2.3292	-2.7125	-2.3167	-2.5	-2.4292	-2.4396	-2.8167	-2.4458	-103.846	-130.891	-100.254	-16.811	109.970	165.653	157.075	-143.933	127.461	76.287	38.808	-56.719	-112.806	154.193	61.511	155.150	0.0017017	0.00053556	0.00011486	514.63	6.0213e-06	4.6104e-06	688.74	226.78	4.6546e-06	3.9283e-06	339.6	161.42	107.75	59.026	5.1321e-06	93.16	0.00025396	0.00022224	6.4239e-05	525.26	2.6395e-06	2.4029e-06	683.11	224.78	2.6072e-06	2.4285e-06	324.86	153.26	101.32	55.191	2.7151e-06	86.129	5.712	-111.697	-120.518	-142.063	-56.595	-39.073	-143.436	-136.366	3.654	55.039	-138.866	-134.484	-132.955	-128.612	-137.397	-131.291	-8191	255	
7696.340	1	1	0	0	0.23385	0.15295	0.10025	0.14981	0.14612	0.37032	0.21001	0.24739	0.064125	0.15375	0.28853	0.14022	0.13322	0.16986	0.1736	0.14219	-1.8646	-2.4938	-2.2667	-2.4729	-2.4958	-2.2729	-2.6104	-2.7188	-2.3729	-2.4938	-2.3542	-2.6375	-2.4062	-2.4437	-2.5542	-2.6813	-96.799	80.507	100.374	-80.436	-24.927	67.635	-53.312	-123.742	65.548	186.176	121.202	184.113	156.919	157.488	109.554	123.858	0.0018644	0.00043882	8.6102e-05	514.69	6.1754e-06	4.4144e-06	688.38	226.21	5.3049e-06	2.5124e-06	339.47	160.97	107.9	58.819	6.8999e-07	92.546	0.00024744	0.00022203	6.9732e-05	525.69	2.6362e-06	2.434e-06	686.82	224.32	2.6278e-06	2.4813e-06	326.61	152.77	101.13	55.101	2.9453e-06	85.774	3.036	-134.484	195.858	-141.770	-20.110	-91.028	-143.188	-136.363	-7.096	-114.481	-138.569	-134.634	-132.827	-128.643	22.616	-131.265	-8191	255	
7696.436	1	1	0	0	0.16298	0.14547	0.20968	0.3724	0.061615	0.12593	0.15903	0.046943	0.036955	0.25415	0.18351	0.18565	0.32119	0.20095	0.26266	0.19336	-1.8771	-2.5896	-2.3542	-2.4604	-2.4646	-2.4062	-2.6125	-2.4354	-2.1792	-2.5417	-2.3458	-2.4521	-2.8187	-2.3542	-2.5875	-2.7062	-17.927	137.057	-116.566	195.145	88.326	-125.245	-149.154	87.760	-64.050	123.007	151.607	162.254	178.650	154.238	-35.097	-145.981	0.0018491	0.00038933	5.322e-05	516.1	1.6875e-07	5.2156e-06	684.66	225.61	2.813e-06	2.2762e-06	339.06	160.6	106.91	58.744	7.9996e-06	92.216	0.00025008	0.00023147	7.5202e-05	525.24	2.6151e-06	2.5674e-06	687.94	223.75	2.5849e-06	2.6212e-06	327.23	152.46	100.77	55.212	3.0481e-06	85.664	-0.224	-118.784	-26.429	-142.274	26.378	161.236	-143.222	-136.333	-7.455	-83.224	-138.806	-134.409	-132.955	-128.741	-38.650	-131.395	-8191	255	
7696.533	1	1	0	0	0.078607	0.14778	0.16956	0.11627	0.19541	0.021917	0.14092	0.13014	0.48332	0.34198	0.12338	0.18993	0.061651	0.10762	0.10113	0.14052	-1.9458	-2.4521	-2.3312	-2.4083	-2.55	-2.3312	-2.6437	-2.6125	-2.1688	-2.6271	-2.3875	-2.5167	-2.7604	-2.3979	-2.5792	-2.7917	-120.621	183.990	-110.691	-71.365	51.805	163.184	120.949	179.869	89.772	59.915	146.870	169.932	113.307	42.840	120.728	190.431	0.0017599	0.00041712	0.000131	513.16	2.0854e-06	3.249e-06	686.3	225.8	7.1217e-06	3.7673e-06	339.77	159.97	107.7	58.563	5.1732e-06	92.575	0.00024882	0.00025145	7.7374e-05	523.25	2.5781e-06	2.7782e-06	689.13	223.36	2.5578e-06	2.8314e-06	327.34	152.37	100.94	55.423	3.0039e-06	85.786	-0.834	-105.335	-47.755	-141.787	-46.560	-68.662	-143.259	-136.467	-22.216	15.416	-138.450	-134.453	-132.753	-128.736	-75.381	-131.510	-8191	255	
7696.629	1	1	0	0	0.44242	0.11045	0.2981	0.066602	0.17234	0.25695	0.25226	0.13129	0.13335	0.020498	0.13328	0.20623	0.043075	0.23338	0.068262	0.13897	-1.6979	-2.6271	-2.4792	-2.2729	-2.6312	-2.2646	-2.575	-2.6625	-2.3688	-2.4938	-2.5354	-2.4375	-2.75	-2.4042	-2.3958	-2.7208	26.847	180.860	46.087	-84.163	117.766	-5.309	77.470	157.648	131.158	138.636	-12.580	-139.013	-50.834	197.542	-131.603	-2.232	0.0018729	0.00024074	0.00012046	511.83	7.1258e-07	7.7447e-06	686.74	225.74	3.8652e-06	4.8709e-06	339.72	160.44	107.35	58.622	6.0719e-06	92.424	0.00024616	0.00026914	7.5294e-05	521.55	2.5662e-06	2.9655e-06	686.47	222.89	2.5969e-06	3.0119e-06	326.01	151.97	100.78	55.482	2.9372e-06	85.493	4.082	109.055	3.752	-141.912	-75.123	-93.656	-143.192	-136.660	-79.442	24.594	-138.561	-134.613	-132.850	-128.625	-42.545	-131.361	-8191	255	
7696.749	1	1	0	0	0.24523	0.097268	0.17282	0.23359	0.19521	0.17817	0.059185	0.20551	0.18044	0.10498	0.36389	0.17258	0.16559	0.23787	0.34197	0.044851	-1.7083	-2.5062	-2.4354	-2.2271	-2.6042	-2.3	-2.5958	-2.6229	-2.2938	-2.4542	-2.4729	-2.5167	-2.7833	-2.575	-2.35	-2.8292	41.589	54.900	-76.651	-55.448	-11.523	3.207	167.190	122.684	63.067	-82.943	172.313	77.697	-16.475	75.236	-89.434	-54.598	0.0018594	0.00057809	9.0144e-05	515.84	1.5288e-06	4.9303e-06	683.56	223.75	5.4183e-06	5.7585e-06	336.08	159.61	107.11	58.314	2.4314e-06	91.529	0.00025647	0.00028451	7.4443e-05	521.62	2.7392e-06	3.1562e-06	683.64	221.5	2.7941e-06	3.1619e-06	323.49	150.93	100.96	55.199	2.9188e-06	84.81	-3.624	205.418	-44.592	-141.918	-71.583	-110.667	-143.087	-136.578	-73.129	27.461	-138.412	-134.722	-132.829	-128.771	-110.758	-131.466	-8191	255	
7696.846	1	1	0	0	0.12009	0.16663	0.022872	0.18372	0.20461	0.23362	0.20244	0.19294	0.24523	0.16617	0.19658	0.29674	0.22481	0.36783	0.083012	0.28199	-1.9229	-2.6292	-2.4958	-2.2875	-2.6312	-2.5604	-2.3583	-2.6125	-2.4021	-2.6437	-2.6104	-2.3646	-2.6688	-2.5396	-2.5062	-2.7792	201.876	161.769	68.984	-138.679	-113.147	-147.166	124.432	125.093	62.098	179.755	76.222	123.912	109.198	119.456	-44.516	136.200	0.0019265	0.00061948	0.00017609	512.18	2.9439e-06	5.6029e-06	685.74	223.52	1.8543e-06	4.9141e-06	335.94	159.19	106.63	58.172	4.3529e-06	91.721	0.00027978	0.00028825	7.3031e-05	520.13	2.927e-06	3.0968e-06	681.71	220.88	2.9761e-06	3.0251e-06	323	150.63	101.2	55.097	2.7692e-06	84.998	0.824	-65.979	-21.619	-142.222	-41.293	-14.171	-143.022	-136.661	18.887	-66.099	-138.653	-134.566	-133.208	-128.546	-50.461	-131.341	-8191	255	
7696.942	1	1	0	0	0.12263	0.15211	0.4341	0.31068	0.10925	0.20925	0.084582	0.046341	0.13304	0.11862	0.073531	0.37463	0.19641	0.22512	0.067068	0.12506	-1.9958	-2.4146	-2.5479	-2.3208	-2.675	-2.6562	-2.3583	-2.7521	-2.2333	-2.5521	-2.6896	-2.425	-2.5604	-2.5312	-2.3083	-2.6667	-87.106	-68.446	-26.993	51.964	-138.979	92.629	-135.213	84.838	13.566	-116.064	109.748	192.020	81.544	-139.750	-113.045	175.470	0.0020626	0.0005376	2.0443e-05	511.14	4.3226e-06	2.2014e-06	682.55	224.22	6.1237e-06	4.5705e-06	338.11	159.27	107.14	58.497	3.7962e-06	92.157	0.00029004	0.00027246	7.0122e-05	518.74	3.0218e-06	2.9333e-06	679.13	221.13	3.0553e-06	2.8497e-06	322.01	151.05	101.76	55.167	2.688e-06	85.226	-3.478	-145.863	-27.393	-142.007	-0.063	-57.838	-143.037	-136.590	-4.412	-60.739	-138.517	-134.548	-132.992	-128.639	-76.351	-131.506	-8191	255	
7697.038	1	1	0	0	0.17825	0.18268	0.17546	0.046787	0.20043	0.22746	0.074029	0.074547	0.036836	0.24714	0.18974	0.13992	0.077798	0.14192	0.081105	0.03778	-1.9667	-2.25	-2.5896	-2.1667	-2.5292	-2.5458	-2.4896	-2.7542	-2.3542	-2.3	-2.7833	-2.3667	-2.4104	-2.5812	-2.2062	-2.8167	112.128	-135.171	-54.607	-55.521	169.898	-62.957	179.037	34.424	171.004	-127.473	197.127	135.948	-60.554	194.349	27.897	153.808	0.0017284	0.00051791	9.8623e-05	511.83	3.408e-06	5.6764e-06	680.29	221.62	7.0622e-06	3.3004e-06	336.14	158.87	106.6	58.151	2.2976e-06	91.396	0.00030018	0.00026398	6.9255e-05	522.41	3.2022e-06	2.9706e-06	679.09	221.12	3.3065e-06	2.9696e-06	321.65	151.47	101.87	54.872	2.8364e-06	85.13	-0.579	-137.529	-78.675	-142.067	-16.886	3.102	-143.091	-136.600	-27.595	-94.896	-138.487	-134.477	-132.946	-128.605	19.088	-131.464	-8191	255	
7697.134	1	1	0	0	0.10313	0.22553	0.11116	0.08059	0.1985	0.20173	0.10929	0.095837	0.19257	0.40274	0.0043297	0.52865	0.030383	0.22973	0.26737	0.34774	-1.9521	-2.3771	-2.5208	-2.4313	-2.525	-2.5417	-2.1792	-2.6167	-2.6354	-2.4708	-2.5958	-2.5271	-2.5271	-2.7333	-2.2583	-2.6521	-1.831	-25.116	77.869	119.327	81.244	147.249	115.891	160.995	-4.746	131.117	-52.420	115.327	54.343	145.274	137.576	-122.728	0.0017481	0.00030541	0.00017492	509	3.3538e-06	3.2575e-06	681.93	221.33	6.5239e-06	2.7244e-06	333.08	157.66	106.04	57.628	3.9608e-06	90.914	0.00032013	0.00027804	7.3178e-05	526.99	3.3504e-06	3.0594e-06	679.7	222.12	3.3491e-06	3.0127e-06	319.92	151.29	101.14	54.557	2.8773e-06	84.756	9.430	8.771	-23.708	-141.881	-101.261	-58.134	-143.278	-136.282	-67.142	-40.829	-138.320	-134.505	-133.023	-128.505	-75.902	-131.549	-8191	255	
7697.230	1	1	0	0	0.18871	0.094091	0.16031	0.37051	0.16673	0.17181	0.28336	0.18639	0.13547	0.16294	0.58619	0.231	0.34608	0.17155	0.13037	0.18496	-2.0083	-2.3583	-2.5979	-2.3854	-2.4042	-2.7542	-2.3271	-2.5312	-2.575	-2.3875	-2.6625	-2.5083	-2.5167	-2.6937	-2.3125	-2.8229	-110.187	-45.420	101.753	163.996	31.694	-81.355	-111.727	173.119	-148.113	130.542	197.787	-151.805	21.659	125.657	-56.243	161.164	0.0018766	0.00063692	6.9615e-05	509.43	3.6597e-06	6.5581e-06	673.06	219.3	3.7544e-06	2.4107e-06	330.52	157	105.72	57.552	3.9762e-06	90.264	0.00030946	0.00027113	7.293e-05	527.87	3.2091e-06	2.9906e-06	675.55	220.81	3.2482e-06	2.9348e-06	318.88	150.89	100.65	54.256	3.0011e-06	84.485	2.657	-92.065	199.657	-142.014	-1.607	-38.193	-143.307	-136.456	-56.674	5.867	-138.595	-134.777	-132.971	-128.690	193.695	-131.515	-8191	255	
7697.349	1	1	0	0	0.25281	0.19734	0.16472	0.27379	0.22919	0.13174	0.21329	0.23203	0.12654	0.16557	0.21482	0.12782	0.060722	0.14154	0.33084	0.19885	-2.0479	-2.3125	-2.6354	-2.4458	-2.4583	-2.775	-2.3563	-2.5125	-2.5604	-2.3542	-2.7146	-2.4604	-2.3625	-2.7708	-2.3958	-2.7208	-149.256	-146.418	-110.941	77.991	77.537	-132.145	187.919	127.868	94.667	-52.734	183.556	148.708	152.355	55.727	-76.263	59.442	0.0016842	0.00030596	0.00010619	510.11	3.3697e-06	3.8182e-06	676.11	219.9	9.8512e-06	8.8426e-06	331.28	156.74	105.68	57.49	3.8027e-06	90.64	0.00029873	0.00026264	7.6621e-05	527.8	3.0698e-06	2.8715e-06	678.84	220.41	3.0693e-06	2.7915e-06	320.15	150.25	100.1	54.223	3.1408e-06	84.599	-0.485	-108.318	170.803	-142.352	-25.375	35.804	-143.228	-136.471	-4.224	14.929	-138.408	-134.534	-132.683	-128.716	-128.318	-131.318	-8191	255	
7697.445	1	1	0	0	0.25675	0.51764	0.32374	0.11221	0.21411	0.086612	0.052306	0.18907	0.058599	0.044427	0.20391	0.14225	0.090033	0.14328	0.12471	0.15578	-2.1083	-2.4083	-2.4521	-2.3187	-2.2417	-2.7229	-2.4875	-2.6125	-2.4854	-2.3417	-2.675	-2.6271	-2.3187	-2.7667	-2.4146	-2.6896	-26.380	-39.790	129.955	94.155	133.649	-111.491	102.272	161.283	101.432	60.913	19.703	141.428	-143.368	143.302	-75.907	106.049	0.0017188	0.0001548	3.9034e-05	506.84	2.1821e-06	5.0993e-06	673.95	220.08	4.5886e-06	1.9139e-06	330.84	157.03	105.21	57.578	4.4492e-06	90.622	0.00028402	0.00025278	8.0318e-05	525.26	2.9554e-06	2.7978e-06	680.92	220.21	2.9693e-06	2.7598e-06	321.14	150.1	99.823	54.323	3.238e-06	84.471	5.361	-93.254	56.025	-142.043	-112.919	-49.948	-143.222	-136.549	-29.794	-45.169	-138.686	-134.615	-132.811	-128.810	165.598	-131.499	-8191	255	
7697.517	1	1	0	0	0.045077	0.059404	0.11933	0.32043	0.098395	0.25959	0.18818	0.13565	0.19946	0.34604	0.11134	0.4531	0.028316	0.23848	0.46117	0.055048	-2.3	-2.2646	-2.4771	-2.5771	-2.2146	-2.7104	-2.4896	-2.5146	-2.5729	-2.2417	-2.7854	-2.5812	-2.3479	-2.7833	-2.3583	-2.6063	-90.854	-132.460	-111.093	52.258	60.234	115.944	187.083	88.109	-40.565	-103.833	133.908	144.897	-125.005	157.648	-42.976	175.774	0.0016518	7.8078e-05	5.3018e-05	509.74	3.2623e-06	8.594e-06	675.04	220.5	2.7234e-06	2.5451e-06	331.73	157.19	105.94	57.404	7.5962e-06	90.201	0.00027334	0.00025424	8.234e-05	522.13	2.8482e-06	2.8427e-06	682.79	220.03	2.8516e-06	2.8885e-06	322.42	149.9	99.749	54.342	3.3565e-06	84.003	5.603	202.762	-81.249	-142.153	-68.358	-60.721	-143.257	-136.710	-42.001	-78.862	-138.422	-134.492	-132.789	-128.650	-87.926	-131.523	-8191	255	
7697.637	1	1	0	0	0.19267	0.33291	0.099584	0.12264	0.17598	0.33152	0.20378	0.098038	0.15509	0.20764	0.21157	0.27163	0.079387	0.31822	0.078356	0.48433	-2.1312	-2.3688	-2.4542	-2.5896	-2.3542	-2.5583	-2.4479	-2.4167	-2.7208	-2.3875	-2.7354	-2.7583	-2.4125	-2.8979	-2.6271	-2.4646	-55.978	143.392	-129.870	160.809	28.905	65.544	-149.541	172.023	201.595	43.801	-95.130	162.626	-146.514	-145.544	143.706	160.929	0.0019873	0.00033916	0.00010278	509.67	5.7459e-06	6.33e-06	676.51	219.45	4.6763e-06	3.8098e-06	329.54	156.29	105.11	57.485	7.3747e-06	90.148	0.00027399	0.00027688	8.5379e-05	523.64	2.861e-06	3.1165e-06	682.99	219.39	2.8726e-06	3.193e-06	322.23	149.48	99.489	54.549	3.3524e-06	83.932	-0.812	198.291	-83.092	-142.132	-40.368	-75.842	-143.084	-136.466	-30.948	172.470	-138.475	-134.639	-132.723	-128.736	-4.842	-131.417	-8191	255	
7697.734	1	1	0	0	0.10653	0.19831	0.13572	0.056893	0.089787	0.22108	0.26282	0.12797	0.083198	0.16093	0.21254	0.28405	0.1031	0.30938	0.11086	0.079173	-2.1333	-2.2	-2.5396	-2.7313	-2.2854	-2.6542	-2.6188	-2.3917	-2.7521	-2.5583	-2.5729	-2.7125	-2.3667	-2.6083	-2.4771	-2.5333	113.618	191.113	18.156	101.385	2.935	-49.893	166.086	98.159	-56.426	203.674	-119.428	-153.637	5.639	180.882	78.737	83.998	0.0019243	0.00041645	7.9895e-05	507.43	4.355e-06	3.4306e-06	677.93	219.4	8.1642e-06	1.0252e-06	330.47	156.6	104.43	57.35	9.571e-07	90.2	0.00027261	0.00030308	8.4114e-05	521.87	2.9125e-06	3.3481e-06	683.28	219.14	2.9635e-06	3.4227e-06	321.44	149.44	99.697	54.621	3.2746e-06	84.051	-6.377	-143.986	-71.093	-142.255	-33.291	2.122	-143.365	-136.464	-92.294	-72.433	-138.413	-134.519	-133.040	-128.528	13.824	-131.502	-8191	255	
7697.830	1	1	0	0	0.1115	0.073595	0.15374	0.12043	0.12339	0.14165	0.22301	0.17798	0.091938	0.20039	0.090192	0.30459	0.22502	0.30528	0.13129	0.17315	-2.1167	-2.4813	-2.4271	-2.6104	-2.1667	-2.5875	-2.6063	-2.375	-2.5917	-2.4792	-2.4146	-2.7125	-2.3625	-2.6125	-2.4979	-2.5125	91.423	119.112	102.083	-44.268	78.340	51.026	119.367	138.430	-39.071	30.723	46.644	124.163	-116.503	-118.850	-27.597	44.544	0.0020279	0.00052869	0.00012901	508.78	2.8384e-06	7.9995e-06	676.94	220.58	5.7489e-06	2.63e-06	331.5	157.54	104.97	57.692	1.6634e-06	90.446	0.00028378	0.00031316	8.0436e-05	519.95	3.0014e-06	3.4099e-06	680.01	219.08	3.0604e-06	3.4278e-06	320.79	149.54	100.29	54.776	3.1096e-06	84.096	-5.125	179.402	-71.256	-142.152	-153.523	-26.602	-143.323	-136.609	-145.954	-5.990	-138.427	-134.386	-132.932	-128.788	200.942	-131.353	-8191	255	
7697.926	1	1	0	0	0.26722	0.12626	0.18494	0.052536	0.07482	0.069336	0.12041	0.31398	0.068999	0.21338	0.076029	0.096869	0.30827	0.063185	0.14176	0.36399	-2.3479	-2.3854	-2.4813	-2.4375	-2.3542	-2.7042	-2.6792	-2.1937	-2.8604	-2.3125	-2.4333	-2.7771	-2.4167	-2.7083	-2.6271	-2.4146	104.569	110.340	100.328	175.549	122.641	-106.853	-150.609	175.613	118.076	-12.360	92.620	150.549	-146.144	120.682	-108.319	174.999	0.0018019	0.00060574	0.00018257	505.05	4.2624e-06	5.5621e-06	677.55	220	3.9365e-06	4.6637e-06	331.54	156.51	105.12	57.401	2.1341e-06	90.301	0.00029821	0.0003106	7.7591e-05	517.86	3.1862e-06	3.3289e-06	678.79	218.85	3.2144e-06	3.3285e-06	320.15	149.36	101.03	54.695	3.0706e-06	84.071	-5.327	-140.685	-87.710	-142.008	195.627	-72.027	-143.056	-136.331	-118.898	46.983	-138.594	-134.652	-132.936	-128.590	-65.755	-131.540	-8191	255	
7698.047	1	1	0	0	0.13235	0.23489	0.18511	0.12412	0.23021	0.036947	0.027637	0.096486	0.15339	0.243	0.46698	0.15904	0.16654	0.30487	0.11121	0.26548	-2.0542	-2.425	-2.1875	-2.6562	-2.3604	-2.5479	-2.7854	-2.2917	-2.6146	-2.4938	-2.4271	-2.75	-2.4688	-2.6396	-2.6333	-2.4583	174.793	155.839	-99.942	100.739	110.410	197.074	121.954	169.062	-46.203	53.683	146.221	193.609	137.498	-118.594	-122.351	190.676	0.0018882	0.00063335	0.00011908	509.92	4.4412e-06	2.5543e-06	677.02	219.27	2.5315e-06	5.1073e-06	328.37	156.06	104.82	57.378	3.3807e-06	89.825	0.00031608	0.00030062	7.6571e-05	520.33	3.3963e-06	3.2225e-06	676.76	218.81	3.415e-06	3.2425e-06	318.54	149.05	101.27	54.43	3.0575e-06	83.675	-1.505	-129.369	-38.292	-142.182	204.885	-31.706	-143.151	-136.363	182.667	-31.524	-138.775	-134.383	-132.923	-128.613	-55.034	-131.485	-8191	255	
7698.143	1	1	0	0	0.28448	0.07456	0.10476	0.28068	0.20934	0.2537	0.28595	0.14078	0.070131	0.19333	0.21472	0.13347	0.27127	0.23774	0.25981	0.31527	-2.1792	-2.3312	-2.4271	-2.7146	-2.3896	-2.3438	-2.6667	-2.4292	-2.4896	-2.5312	-2.4417	-2.6688	-2.3729	-2.6	-2.7896	-2.4208	181.553	39.447	-58.728	130.513	-80.621	95.329	178.858	102.505	-88.401	-146.776	16.555	181.737	110.413	88.424	52.019	149.880	0.0017248	0.000516	0.00019116	505.32	5.362e-06	4.2569e-06	675.91	218.51	5.4475e-06	3.5003e-06	329.52	156.05	105.45	57.319	7.831e-06	89.977	0.00033409	0.00029943	7.6849e-05	522.12	3.5384e-06	3.1905e-06	676	219.62	3.4701e-06	3.1571e-06	318.01	149.56	101.23	54.312	2.9414e-06	84.102	0.576	-136.455	-101.123	-142.049	-61.811	-54.871	-143.288	-136.534	-40.260	35.573	-138.467	-134.568	-132.883	-128.518	-29.818	-131.313	-8191	255	
7698.214	1	1	0	0	0.22891	0.024104	0.11205	0.12976	0.20123	0.087799	0.22399	0.26179	0.072606	0.053176	0.12648	0.13607	0.27999	0.33609	0.165	0.27407	-1.8458	-2.5979	-2.2208	-2.8104	-2.3854	-2.4188	-2.9083	-2.2833	-2.675	-2.7125	-2.3792	-2.7604	-2.7417	-2.5146	-2.6	-2.5417	157.624	71.016	141.840	74.561	60.495	2.421	159.653	126.503	19.431	-64.553	-44.648	-114.850	182.618	-147.912	-76.520	168.347	0.0016698	0.00039043	6.0197e-05	508.61	5.8207e-06	9.8583e-06	677.18	219.47	4.4815e-06	1.0528e-05	329.57	156.46	105.48	57.268	2.2539e-06	89.857	0.00032749	0.00028818	7.4423e-05	525.88	3.4693e-06	3.1442e-06	677.21	220.47	3.4472e-06	3.1715e-06	317.9	150.14	101.39	54.235	3.0495e-06	84.222	5.434	-22.848	130.829	-142.139	-34.545	-10.917	-143.134	-136.545	-11.289	19.745	-138.546	-134.516	-132.528	-128.774	-37.242	-131.574	-8191	255	
7698.311	1	1	0	0	0.10172	0.24667	0.17822	0.21243	0.14839	0.16609	0.21601	0.41587	0.043443	0.18108	0.18997	0.094588	0.35964	0.16312	0.11722	0.14694	-2.0438	-2.5771	-2.1188	-2.5875	-2.4271	-2.2958	-2.7104	-2.4292	-2.3896	-2.7354	-2.4521	-2.8271	-2.4667	-2.3417	-2.6833	-2.6813	28.784	-37.980	-61.748	100.365	22.356	-92.129	33.623	177.391	-64.132	-132.872	137.673	25.757	-146.202	158.733	17.563	151.401	0.0017647	0.00025748	3.3048e-05	505.38	7.3286e-06	6.3079e-06	674.62	218.55	7.2055e-06	7.6949e-06	328.51	155.67	104.78	56.833	4.8434e-06	89.631	0.00032418	0.00029038	7.8376e-05	529.56	3.4651e-06	3.1419e-06	678.27	221.06	3.4269e-06	3.1598e-06	319.33	150.21	100.9	54.052	3.2864e-06	84.141	4.911	-120.281	-39.615	-142.245	20.649	-31.428	-143.275	-136.585	-16.307	45.928	-138.749	-134.447	-132.556	-128.796	-107.196	-131.555	-8191	255	
7698.429	1	1	0	0	0.24288	0.1408	0.18937	0.092748	0.27408	0.21488	0.14983	0.15235	0.094293	0.14649	0.23324	0.39526	0.25058	0.28531	0.24071	0.32497	-1.9813	-2.6667	-2.0646	-2.6104	-2.4167	-2.2208	-2.7146	-2.6312	-2.5396	-2.9146	-2.4333	-2.625	-2.5208	-2.3542	-2.6646	-2.7104	97.004	7.369	156.895	154.662	-81.808	184.245	197.096	91.135	179.509	-69.296	-153.553	192.295	147.471	199.340	-1.672	136.936	0.0014839	0.0011447	3.9681e-06	504.59	6.0737e-06	3.9901e-06	673.28	219.11	4.9864e-06	8.0527e-06	329.53	155.34	105.11	56.792	4.2296e-06	88.832	0.00032241	0.0002879	8.388e-05	531.15	3.368e-06	3.1082e-06	682.44	221.42	3.3562e-06	3.0942e-06	321.21	149.78	100.64	53.848	3.5047e-06	83.501	5.897	-74.097	-118.568	-142.058	-32.791	-65.753	-143.125	-136.798	-32.960	-0.076	-138.472	-134.588	-132.963	-128.482	-57.505	-131.434	-8191	255	
7698.526	1	1	0	0	0.12085	0.096345	0.17322	0.40679	0.2252	0.094149	0.069916	0.10028	0.038844	0.28397	0.24584	0.080832	0.13082	0.050651	0.23557	0.05678	-1.8958	-2.7917	-2.2771	-2.5083	-2.475	-2.2458	-2.7771	-2.4896	-2.3146	-2.7896	-2.3833	-2.6063	-2.7271	-2.4521	-2.625	-2.5938	146.611	-75.856	129.536	180.834	190.151	-84.761	-28.738	167.342	39.458	97.644	152.455	140.065	-53.246	148.850	49.434	-137.268	0.0018076	2.0511e-05	0.00010741	508.39	4.4924e-06	7.8856e-06	676.05	218.14	3.138e-06	3.2485e-06	326.31	154.52	104.71	56.645	3.7468e-06	89.051	0.00031602	0.00028663	9.0665e-05	529.7	3.3405e-06	3.0889e-06	685.64	221.02	3.2981e-06	3.1185e-06	322.95	149.2	100.14	53.776	3.6928e-06	83.428	0.762	92.641	136.996	-141.927	-114.975	-55.483	-143.208	-136.422	14.688	-65.136	-138.573	-134.553	-132.621	-128.605	38.788	-131.450	-8191	255	
7698.622	1	1	0	0	0.1423	0.1229	0.30593	0.0016379	0.41303	0.10091	0.22286	0.32664	0.06319	0.28879	0.041761	0.19334	0.23641	0.1865	0.17856	0.23152	-1.95	-2.5792	-2.2708	-2.5312	-2.5792	-2.2146	-2.6021	-2.5042	-2.1583	-2.6167	-2.4646	-2.5729	-2.6625	-2.3937	-2.6167	-2.6958	-68.421	52.453	66.007	180.000	-116.261	-45.153	93.473	119.054	192.275	-127.165	8.281	-95.425	-112.050	102.823	81.518	65.841	0.001621	0.00077162	0.00012041	510.07	5.4964e-06	1.2544e-06	675.48	220.27	9.366e-06	5.7564e-07	330.27	155.06	105.08	57.037	1.6054e-06	89.22	0.00030714	0.00029192	9.4459e-05	529.44	3.2352e-06	3.2092e-06	686.47	221.08	3.1809e-06	3.2459e-06	324.85	149.38	99.998	54.186	3.6802e-06	83.506	1.102	-136.187	-69.447	-142.003	-33.870	75.239	-143.232	-136.464	-40.158	-42.560	-138.287	-134.665	-132.818	-128.684	-90.557	-131.494	-8191	255	
7698.742	1	1	0	0	0.11527	0.13428	0.094454	0.21509	0.092558	0.14506	0.23417	0.11477	0.092267	0.10055	0.03777	0.21027	0.15663	0.37304	0.18813	0.26201	-1.8604	-2.4313	-2.4667	-2.4708	-2.7917	-2.3854	-2.5542	-2.4667	-2.3958	-2.7875	-2.55	-2.4542	-2.8208	-2.2229	-2.5687	-2.8	35.804	42.722	-31.588	12.215	172.542	59.780	-126.135	178.884	105.371	-117.774	154.385	178.518	96.320	160.249	95.978	154.874	0.0017484	0.00041557	5.4897e-05	507.77	3.3224e-06	4.5529e-06	680.76	219.4	1.239e-06	1.7167e-06	330.62	155.92	104.96	56.919	4.2369e-06	89.217	0.00029674	0.00030632	9.2844e-05	526.61	3.1157e-06	3.4061e-06	688.62	220.53	3.1058e-06	3.477e-06	324.44	149.23	100.09	54.293	3.5843e-06	83.479	2.892	-130.752	-60.706	-141.817	-38.110	-114.602	-142.993	-136.496	154.682	-129.478	-138.274	-134.461	-133.249	-128.656	-64.600	-131.320	-8191	255	
7698.814	1	1	0	0	0.14535	0.071005	0.10888	0.099322	0.25665	0.19524	0.29875	0.29729	0.20111	0.073622	0.043534	0.17703	0.20434	0.42325	0.12298	0.53369	-1.85	-2.6604	-2.3979	-2.3833	-2.4813	-2.5229	-2.5458	-2.7458	-2.3229	-2.6542	-2.5708	-2.3792	-2.6271	-2.4292	-2.4229	-2.7729	102.151	22.314	135.630	161.220	-118.373	-77.232	-152.258	192.657	-47.252	-2.677	119.985	84.109	169.833	154.915	32.633	193.654	0.0019343	0.00030703	9.7713e-05	506.88	2.3701e-06	2.0908e-06	677.67	220.34	6.0804e-06	8.8069e-06	331.54	156.18	105.71	56.892	4.7444e-06	89.374	0.00029329	0.00032322	8.9817e-05	525.96	3.1121e-06	3.5787e-06	687.02	221.29	3.1084e-06	3.5804e-06	324.44	149.4	100.49	54.486	3.3803e-06	83.441	-6.974	160.521	-115.821	-142.139	-41.317	-74.055	-143.113	-136.520	-102.594	-32.094	-138.512	-134.607	-133.021	-128.921	-40.311	-131.596	-8191	255	
#DATA ENDS
