BOXY.EXE: ISS Imagent and Oximeter Data Acquisition Program Version 0.80
Ascii Record File

#ACQ INFORMATION
2  Detector Channels 
16  External MUX Channels 
1  Auxiliary Channels 
5000  Waveform (CCF) Frequency (Hz)
1  Waveforms Skipped 
30  Waveforms Averaged 
1  Cycles Averaged 
16  Acquisitions per Waveform 
10.0806  Updata Rate (Hz) 

#FILE INFORMATION
TRUE -- External MUX Channel results are PARSED.
FALSE -- AC DC and Phase are NOT grouped.
TRUE -- Companion Program Settings File CREATED.
FALSE -- AC data not excluded
FALSE -- DC data not excluded
FALSE -- Phase data not excluded
FALSE -- Auxillary Chn. data not excluded
Tab delimiters

#CALIBRATION STATE
TRUE -- Waveform Calibration Values APPLIED.


#AUX CALIBRATION VALUES
Val Type	aux-1	

Term	1.0000e+00	
Factor	0.0000e+00	


#WF CALIBRATION VALUES
A = Detector Channel
Val Type	A-AC1	A-AC2	A-AC3	A-AC4	A-AC5	A-AC6	A-AC7	A-AC8	A-AC9	A-AC10	A-AC11	A-AC12	A-AC13	A-AC14	A-AC15	A-AC16	A-DC1	A-DC2	A-DC3	A-DC4	A-DC5	A-DC6	A-DC7	A-DC8	A-DC9	A-DC10	A-DC11	A-DC12	A-DC13	A-DC14	A-DC15	A-DC16	A-Ph1	A-Ph2	A-Ph3	A-Ph4	A-Ph5	A-Ph6	A-Ph7	A-Ph8	A-Ph9	A-Ph10	A-Ph11	A-Ph12	A-Ph13	A-Ph14	A-Ph15	A-Ph16	

Term	0.00000e+00	0.00000e+00	0.00000e+00	0.00000e+00	0.00000e+00	0.00000e+00	0.00000e+00	0.00000e+00	0.00000e+00	0.00000e+00	0.00000e+00	0.00000e+00	0.00000e+00	0.00000e+00	0.00000e+00	0.00000e+00	0.00000e+00	0.00000e+00	0.00000e+00	0.00000e+00	0.00000e+00	0.00000e+00	0.00000e+00	0.00000e+00	0.00000e+00	0.00000e+00	0.00000e+00	0.00000e+00	0.00000e+00	0.00000e+00	0.00000e+00	0.00000e+00	0.00000e+00	0.00000e+00	0.00000e+00	0.00000e+00	0.00000e+00	0.00000e+00	0.00000e+00	0.00000e+00	0.00000e+00	0.00000e+00	0.00000e+00	0.00000e+00	0.00000e+00	0.00000e+00	0.00000e+00	0.00000e+00	
Factor	1.00000e+00	1.00000e+00	1.00000e+00	1.00000e+00	1.00000e+00	1.00000e+00	1.00000e+00	1.00000e+00	1.00000e+00	1.00000e+00	1.00000e+00	1.00000e+00	1.00000e+00	1.00000e+00	1.00000e+00	1.00000e+00	1.00000e+00	1.00000e+00	1.00000e+00	1.00000e+00	1.00000e+00	1.00000e+00	1.00000e+00	1.00000e+00	1.00000e+00	1.00000e+00	1.00000e+00	1.00000e+00	1.00000e+00	1.00000e+00	1.00000e+00	1.00000e+00	X	X	X	X	X	X	X	X	X	X	X	X	X	X	X	X	

B = Detector Channel
Val Type	B-AC1	B-AC2	B-AC3	B-AC4	B-AC5	B-AC6	B-AC7	B-AC8	B-AC9	B-AC10	B-AC11	B-AC12	B-AC13	B-AC14	B-AC15	B-AC16	B-DC1	B-DC2	B-DC3	B-DC4	B-DC5	B-DC6	B-DC7	B-DC8	B-DC9	B-DC10	B-DC11	B-DC12	B-DC13	B-DC14	B-DC15	B-DC16	B-Ph1	B-Ph2	B-Ph3	B-Ph4	B-Ph5	B-Ph6	B-Ph7	B-Ph8	B-Ph9	B-Ph10	B-Ph11	B-Ph12	B-Ph13	B-Ph14	B-Ph15	B-Ph16	

Term	0.00000e+00	0.00000e+00	0.00000e+00	0.00000e+00	0.00000e+00	0.00000e+00	0.00000e+00	0.00000e+00	0.00000e+00	0.00000e+00	0.00000e+00	0.00000e+00	0.00000e+00	0.00000e+00	0.00000e+00	0.00000e+00	0.00000e+00	0.00000e+00	0.00000e+00	0.00000e+00	0.00000e+00	0.00000e+00	0.00000e+00	0.00000e+00	0.00000e+00	0.00000e+00	0.00000e+00	0.00000e+00	0.00000e+00	0.00000e+00	0.00000e+00	0.00000e+00	-1.80303e+02	-1.38097e+02	-1.19944e+02	-1.80819e+02	-7.90061e+01	-8.11867e+01	-1.57378e+02	-1.62015e+02	-8.94823e+01	-7.32125e+01	-1.71564e+02	-1.71541e+02	-1.83671e+02	-1.76147e+02	-9.09538e+01	-1.49257e+02	
Factor	2.87017e-05	1.45962e-04	4.30770e-05	1.57142e-01	1.46671e-06	1.61965e-06	1.59980e-01	4.53428e-02	1.43660e-06	1.32136e-06	7.50420e-02	2.82269e-02	3.42424e-02	8.08152e-03	1.41912e-06	1.17899e-02	2.86743e-06	3.12586e-06	8.73151e-07	7.88825e-02	3.38613e-08	3.44756e-08	7.56613e-02	2.28643e-02	3.41259e-08	3.46871e-08	3.65790e-02	1.37491e-02	1.70758e-02	4.08423e-03	3.47117e-08	5.78306e-03	X	X	X	X	X	X	X	X	X	X	X	X	X	X	X	X	



#DISTANCE SETTINGS
A = Detector Channel
A-1	A-2	A-3	A-4	A-5	A-6	A-7	A-8	A-9	A-10	A-11	A-12	A-13	A-14	A-15	A-16	

2.5000e+00	3.0000e+00	2.5000e+00	3.0000e+00	2.0000e+00	3.0000e+00	1.5000e+00	3.0000e+00	3.0000e+00	3.0000e+00	3.0000e+00	3.0000e+00	3.0000e+00	3.0000e+00	1.5000e+00	3.0000e+00	

B = Detector Channel
B-1	B-2	B-3	B-4	B-5	B-6	B-7	B-8	B-9	B-10	B-11	B-12	B-13	B-14	B-15	B-16	

1.0000e+01	1.0000e+01	1.0000e+01	1.4400e+00	1.0000e+01	1.0000e+01	1.5100e+00	1.9400e+00	1.0000e+01	1.0000e+01	1.9900e+00	2.4900e+00	2.4100e+00	2.9000e+00	1.0000e+01	2.9800e+00	




#DATA BEGINS
time	group	step	mark	flag	A-AC1	A-AC2	A-AC3	A-AC4	A-AC5	A-AC6	A-AC7	A-AC8	A-AC9	A-AC10	A-AC11	A-AC12	A-AC13	A-AC14	A-AC15	A-AC16	A-DC1	A-DC2	A-DC3	A-DC4	A-DC5	A-DC6	A-DC7	A-DC8	A-DC9	A-DC10	A-DC11	A-DC12	A-DC13	A-DC14	A-DC15	A-DC16	A-Ph1	A-Ph2	A-Ph3	A-Ph4	A-Ph5	A-Ph6	A-Ph7	A-Ph8	A-Ph9	A-Ph10	A-Ph11	A-Ph12	A-Ph13	A-Ph14	A-Ph15	A-Ph16	B-AC1	B-AC2	B-AC3	B-AC4	B-AC5	B-AC6	B-AC7	B-AC8	B-AC9	B-AC10	B-AC11	B-AC12	B-AC13	B-AC14	B-AC15	B-AC16	B-DC1	B-DC2	B-DC3	B-DC4	B-DC5	B-DC6	B-DC7	B-DC8	B-DC9	B-DC10	B-DC11	B-DC12	B-DC13	B-DC14	B-DC15	B-DC16	B-Ph1	B-Ph2	B-Ph3	B-Ph4	B-Ph5	B-Ph6	B-Ph7	B-Ph8	B-Ph9	B-Ph10	B-Ph11	B-Ph12	B-Ph13	B-Ph14	B-Ph15	B-Ph16	aux-1	digaux	

9544.704	1	1	0	512	0.066039	0.23946	0.050539	0.11772	0.17789	0.10387	0.2412	0.0082346	0.22607	0.072378	0.12902	0.16275	0.16268	0.22562	0.16563	0.21962	-1.9875	-2.5312	-2.1896	-2.4979	-2.5208	-2.45	-2.6562	-2.2521	-2.3625	-2.5812	-2.1958	-2.7521	-2.475	-2.3458	-2.6312	-2.3854	67.573	49.448	230.420	64.398	74.168	42.889	161.850	-66.387	232.981	-4.404	-76.481	116.620	10.554	104.428	204.399	-43.013	0.00018456	9.2868e-05	3.558e-05	195.1	1.1644e-06	1.0116e-06	293.89	56.055	9.644e-07	2.6998e-07	113.48	40.975	17.3	7.9317	1.2873e-06	20.036	2.7312e-05	1.0172e-05	3.4781e-06	187.87	1.2183e-07	1.2871e-07	284.56	54.465	1.4937e-07	1.0428e-07	109.41	39.731	16.697	7.7302	1.51e-07	19.354	142.172	-23.444	-9.187	-98.704	43.277	24.982	-99.009	-94.336	-13.438	6.231	-94.612	-90.712	-90.366	-85.783	-6.282	-88.089	-8191	255	
9544.801	1	1	0	0	0.16208	0.27933	0.15287	0.17044	0.15179	0.15896	0.16047	0.082618	0.17697	0.23184	0.14116	0.21678	0.095378	0.11704	0.066152	0.091685	-1.9125	-2.5583	-2.1312	-2.7604	-2.4104	-2.4104	-2.5458	-2.2979	-2.4208	-2.8667	-2.1083	-2.5312	-2.3063	-2.4271	-2.5062	-2.3063	194.277	-64.912	182.626	25.001	-92.567	47.933	117.617	-0.567	-63.170	-109.865	153.603	122.243	218.707	-73.668	-0.437	203.334	0.00017833	0.00016867	5.0844e-05	196.24	6.9718e-07	1.381e-06	291.31	55.117	1.6251e-06	4.4806e-07	109.8	39.848	16.736	7.8155	8.9748e-07	19.526	2.7545e-05	1.1214e-05	3.087e-06	188.68	1.3798e-07	1.2454e-07	282.04	53.714	1.4909e-07	9.9436e-08	106.52	38.64	16.299	7.5993	1.1853e-07	18.9	150.335	-19.383	-13.398	-98.888	25.724	-10.192	-99.077	-93.912	-20.015	12.164	-94.763	-91.059	-90.468	-86.102	23.634	-87.789	-8191	255	
9544.897	1	1	0	0	0.25264	0.27465	0.26895	0.14287	0.31602	0.12532	0.11829	0.14199	0.059354	0.32271	0.37986	0.088873	0.15157	0.045136	0.1866	0.10387	-1.9583	-2.6667	-2.1625	-2.6375	-2.4854	-2.35	-2.5083	-2.4625	-2.3312	-2.6688	-2.4562	-2.4917	-2.4354	-2.2021	-2.7021	-2.2604	195.412	-2.237	96.354	193.660	192.695	-85.661	51.497	-70.964	157.238	-109.446	-66.215	103.625	49.729	14.864	110.896	-89.168	0.00015718	7.4132e-05	3.6469e-05	190.84	6.0231e-07	1.231e-06	284.28	54.489	7.9622e-07	1.3668e-06	108.23	39.583	16.368	7.7281	8.2779e-07	19.619	2.6554e-05	1.0192e-05	3.3234e-06	184.91	1.3015e-07	1.2979e-07	275.47	52.676	1.4112e-07	1.1476e-07	104.62	38.197	16.085	7.5389	1.3559e-07	18.957	146.144	-52.100	-13.182	-98.667	38.227	36.653	-98.833	-93.987	-10.492	45.904	-94.793	-90.974	-89.762	-86.255	5.869	-88.220	-8191	255	
9544.993	1	1	0	0	0.26337	0.21403	0.11425	0.058954	0.11444	0.14567	0.20717	0.19851	0.23329	0.13421	0.14234	0.11362	0.072818	0.23482	0.14026	0.13525	-1.9104	-2.6104	-2.2833	-2.3333	-2.5938	-2.2438	-2.4771	-2.3479	-2.2188	-2.5375	-2.2396	-2.3396	-2.4917	-2.3167	-2.6417	-2.4021	-78.404	-20.507	-40.746	151.151	26.998	-25.526	78.878	-101.620	-100.973	131.682	45.227	40.864	-4.233	-48.649	-48.502	-99.067	0.00016814	7.7284e-05	3.469e-05	191.62	1.2399e-06	3.4933e-07	284.63	53.621	1.2164e-06	1.4369e-06	107.32	39.323	16.641	7.7798	1.0871e-06	19.365	2.7336e-05	1.0237e-05	2.7632e-06	184.73	1.3121e-07	1.1348e-07	275.22	52.19	1.5072e-07	1.0269e-07	103.84	38.063	16.033	7.5585	1.1346e-07	18.83	146.469	-36.266	-17.796	-99.385	26.355	21.280	-98.729	-93.608	22.944	51.708	-94.953	-91.404	-90.568	-86.120	-31.594	-88.006	-8191	255	
9545.089	1	1	0	0	0.28283	0.12106	0.15362	0.2347	0.17807	0.2133	0.20906	0.21509	0.040093	0.12526	0.089526	0.21794	0.18251	0.24148	0.14721	0.08335	-2.0479	-2.5687	-2.0729	-2.4292	-2.5333	-2.4125	-2.7667	-2.5625	-2.325	-2.6208	-2.5646	-2.6	-2.6063	-2.3708	-2.6083	-2.5187	15.833	165.508	191.535	-57.374	99.912	38.051	213.986	85.655	31.380	-73.801	238.893	235.740	-14.730	-7.445	-6.806	117.189	0.00015871	0.00020982	5.1533e-05	188.51	1.0101e-06	1.3673e-06	280.85	52.655	1.2398e-06	9.473e-07	105.04	38.05	16.126	7.587	6.329e-07	19.025	2.7432e-05	1.1683e-05	2.9287e-06	182.48	1.2035e-07	1.0989e-07	271.93	51.193	1.3558e-07	9.7269e-08	101.32	37.078	15.601	7.3644	1.3299e-07	18.389	151.851	-24.533	-44.470	-99.151	30.986	10.749	-98.583	-93.484	12.637	51.574	-94.797	-91.030	-90.320	-86.148	76.911	-87.947	-8191	255	
9545.185	1	1	0	0	0.14434	0.23273	0.2052	0.071485	0.21506	0.12725	0.12631	0.063099	0.19564	0.045576	0.08498	0.23484	0.28738	0.28506	0.23713	0.15715	-1.8208	-2.6896	-2.3896	-2.4021	-2.5583	-2.2542	-2.5292	-2.4021	-2.2438	-2.6979	-2.6104	-2.2521	-2.5375	-2.3083	-2.4896	-2.4604	168.519	198.654	55.134	-92.798	-11.744	-49.846	241.302	-39.802	128.670	-35.774	117.985	237.384	237.914	-49.983	82.174	85.342	0.00016158	5.8123e-05	4.0238e-05	184.59	1.3152e-06	1.4678e-06	275.42	51.728	9.7938e-07	1.238e-06	101.77	36.897	15.696	7.4429	9.8316e-07	18.736	2.6822e-05	9.3125e-06	2.8214e-06	179.07	1.0504e-07	1.1327e-07	265.3	49.976	1.402e-07	9.7991e-08	98.354	36.038	15.29	7.2334	1.0956e-07	18.135	144.599	-32.886	-10.085	-98.759	54.060	29.652	-99.148	-93.820	-2.878	32.916	-94.571	-90.727	-90.060	-85.661	14.401	-88.045	-8191	255	
9545.306	1	1	0	0	0.24716	0.079077	0.35387	0.21014	0.21708	0.17909	0.19377	0.35021	0.33671	0.23493	0.017252	0.20101	0.065862	0.14285	0.16247	0.08871	-1.7708	-2.5979	-2.4062	-2.2771	-2.3708	-2.2396	-2.4	-2.5958	-2.3417	-2.4813	-2.3521	-2.3292	-2.4146	-2.1063	-2.3792	-2.6417	-105.690	26.491	132.489	-23.090	91.656	-82.249	188.217	-27.901	86.098	-44.290	168.899	160.931	-30.702	-2.023	122.692	26.148	0.00015085	0.00016882	3.6103e-05	186.28	1.588e-06	1.4866e-06	272.1	51.239	8.9246e-07	1.4566e-06	101.82	37.638	15.769	7.5654	8.737e-07	18.672	2.7581e-05	9.8595e-06	3.1361e-06	178.98	1.1858e-07	1.0745e-07	264.15	49.713	1.1816e-07	1.2632e-07	98.579	36.326	15.353	7.2949	1.1997e-07	18.233	152.868	-46.858	18.232	-98.571	28.433	-10.730	-98.962	-93.732	-7.486	43.731	-95.054	-91.225	-89.784	-85.840	-28.076	-87.741	-8191	255	
9545.402	1	1	0	0	0.15333	0.15481	0.1038	0.06885	0.095415	0.15157	0.16012	0.15153	0.026358	0.14743	0.26098	0.1021	0.14741	0.24501	0.069124	0.25622	-1.9688	-2.5833	-2.4354	-2.2625	-2.6146	-2.375	-2.3187	-2.475	-2.1188	-2.4479	-2.6375	-2.0187	-2.5958	-2.2354	-2.3958	-2.4208	-12.852	166.625	129.046	142.905	29.070	96.255	157.940	184.866	246.484	9.217	139.883	167.442	-27.802	145.711	101.446	-64.111	0.00017546	0.00017545	3.0445e-05	186.51	7.806e-07	1.0558e-06	274.56	51.581	9.7123e-07	1.1043e-06	102	37.609	15.947	7.3903	1.2156e-06	18.622	2.6327e-05	1.042e-05	2.8578e-06	179.35	1.1866e-07	1.1284e-07	265.88	50	1.2563e-07	1.0731e-07	98.944	36.414	15.273	7.1933	1.3415e-07	18.085	146.754	-23.283	-8.811	-98.838	32.969	17.830	-99.195	-93.607	41.027	29.000	-94.911	-91.068	-89.888	-85.419	-5.144	-87.616	-8191	255	
9545.498	1	1	0	0	0.23551	0.22906	0.19928	0.21257	0.34201	0.10369	0.3182	0.28938	0.028762	0.26465	0.046935	0.12232	0.25926	0.10285	0.24776	0.15867	-1.9021	-2.3396	-2.4229	-2.0729	-2.5438	-2.4792	-2.4479	-2.6583	-2.2687	-2.5292	-2.5292	-2.4542	-2.5208	-2.3833	-2.3312	-2.5375	185.566	234.535	-5.580	213.749	245.740	7.029	177.470	196.387	59.389	-43.889	-93.246	65.599	138.435	-29.365	101.494	96.719	0.00014623	0.00013702	3.9057e-05	186.54	1.1478e-06	6.2953e-07	272.94	51.068	8.4245e-07	1.5713e-06	101.08	36.948	15.321	7.354	7.5695e-07	18.214	2.7109e-05	1.0745e-05	2.8323e-06	179.72	1.2127e-07	1.0759e-07	264.8	49.385	1.2228e-07	1.1447e-07	97.454	35.842	14.95	7.1294	1.3682e-07	17.776	144.034	-52.894	-18.825	-98.790	9.367	27.090	-99.167	-93.646	-36.137	25.348	-94.620	-91.009	-89.976	-86.663	28.783	-88.245	-8191	255	
9545.593	1	1	0	0	0.070594	0.25813	0.1164	0.14021	0.12739	0.19246	0.18309	0.23848	0.037336	0.1669	0.095543	0.24649	0.17257	0.089784	0.15599	0.11212	-1.9417	-2.4229	-2.5354	-2.2667	-2.5563	-2.5021	-2.2	-2.5521	-2.3771	-2.4917	-2.6854	-2.2771	-2.7104	-2.4562	-2.4354	-2.5708	189.478	33.591	100.775	147.086	222.668	51.736	-2.905	135.110	-40.156	90.256	10.642	-83.744	26.474	163.270	-43.774	114.689	0.00015353	9.7218e-05	3.9989e-05	184.43	5.3153e-07	1.4435e-06	269.8	50.153	1.0479e-06	1.0851e-06	99.426	36.388	15.307	7.3157	7.645e-07	18.24	2.4935e-05	9.4753e-06	2.9342e-06	177.37	1.068e-07	9.8902e-08	259.78	48.633	1.2236e-07	1.1252e-07	95.948	35.273	14.991	7.1032	1.2959e-07	17.685	147.218	-7.452	-12.281	-98.920	8.187	6.163	-99.201	-93.923	24.968	43.970	-94.959	-91.124	-89.434	-86.149	-13.317	-87.289	-8191	255	
9545.689	1	1	0	0	0.12244	0.14139	0.12426	0.24809	0.070323	0.17087	0.15113	0.22482	0.12635	0.02313	0.24965	0.17145	0.12996	0.09383	0.10814	0.23303	-1.8542	-2.4188	-2.5604	-2.2542	-2.4229	-2.6542	-2.2812	-2.6875	-2.5146	-2.4208	-2.6042	-2.2917	-2.5208	-2.5458	-2.4313	-2.5083	-70.728	40.786	-4.303	190.941	13.662	147.726	177.120	131.241	-5.686	217.408	145.846	104.806	214.500	20.430	-92.700	-106.673	0.00015547	0.00010481	3.4446e-05	183.75	2.3093e-07	1.4363e-06	270.13	50.224	7.5253e-07	9.8093e-07	100.43	36.448	15.558	7.3204	1.2158e-06	18.365	2.5293e-05	9.7162e-06	2.332e-06	177.58	1.0991e-07	1.0515e-07	260.89	48.748	1.1731e-07	1.0847e-07	96.513	35.506	15.019	7.1033	1.28e-07	17.753	141.905	-14.466	-38.436	-99.409	-25.700	28.025	-98.910	-93.713	-33.187	12.034	-94.424	-90.990	-90.269	-85.423	9.699	-88.101	-8191	255	
9545.785	1	1	0	0	0.12496	0.16555	0.16293	0.32027	0.18455	0.051236	0.062278	0.29811	0.1152	0.13152	0.12292	0.25302	0.41358	0.044974	0.27426	0.32967	-2.0604	-2.2792	-2.5792	-2.3896	-2.4479	-2.4729	-2.45	-2.6042	-2.4	-2.3958	-2.6875	-2.5833	-2.4229	-2.5062	-2.3167	-2.7271	103.555	159.822	-4.880	162.334	-4.311	-25.339	90.704	203.525	-27.005	119.153	-7.834	204.811	99.059	208.879	5.788	165.319	0.00016652	8.9272e-05	3.5122e-05	185.45	1.0398e-06	2.179e-06	267.84	50.528	7.0331e-07	9.5406e-07	99.716	36.836	15.46	7.3623	9.108e-07	18.42	2.518e-05	1.0517e-05	2.4194e-06	178.14	1.2091e-07	9.488e-08	260.88	49.048	1.37e-07	1.0898e-07	96.908	35.718	14.987	7.1501	1.4044e-07	17.876	141.871	-36.239	-21.157	-98.834	-9.729	25.092	-99.090	-93.793	-9.794	12.888	-94.900	-90.727	-89.782	-85.993	22.095	-87.899	-8191	255	
9545.881	1	1	0	0	0.31317	0.13622	0.20293	0.15367	0.060357	0.15129	0.10297	0.14769	0.13646	0.081119	0.036479	0.1921	0.20441	0.02278	0.16393	0.17383	-1.8813	-2.3937	-2.6625	-2.4646	-2.4771	-2.5521	-2.3833	-2.5271	-2.4396	-2.45	-2.5146	-2.5563	-2.5042	-2.5729	-2.2417	-2.5042	115.787	137.625	69.985	186.840	159.812	-63.534	12.318	216.863	8.607	109.465	131.065	-102.191	90.360	-47.522	10.525	165.499	0.00015014	0.00013528	4.3026e-05	185.58	9.798e-07	1.1953e-06	272.6	50.927	1.54e-06	1.2382e-06	99.305	36.679	15.464	7.3027	9.5012e-07	18.417	2.5425e-05	1.0276e-05	2.6631e-06	178.77	1.2747e-07	1.1327e-07	263.42	49.371	1.1973e-07	1.1873e-07	96.738	35.736	15.03	7.0997	1.2265e-07	17.787	143.521	-14.704	-2.032	-99.160	12.870	18.351	-98.371	-93.349	-11.812	-0.090	-94.795	-90.869	-89.946	-85.914	20.212	-88.538	-8191	255	
9546.002	1	1	0	0	0.14498	0.13335	0.20295	0.13507	0.02189	0.28181	0.13574	0.11421	0.036272	0.1977	0.18569	0.22479	0.21379	0.27472	0.27184	0.40688	-2.0542	-2.0687	-2.6354	-2.3563	-2.4146	-2.6271	-2.1604	-2.7667	-2.5083	-2.2917	-2.5938	-2.3333	-2.5375	-2.5125	-2.4417	-2.475	175.839	210.212	-82.694	-88.721	-70.383	11.266	-8.448	25.978	93.973	-22.862	-28.252	237.636	40.576	40.135	34.026	79.024	0.00013898	0.00013196	4.9628e-05	184.1	1.5784e-06	8.911e-07	266.86	50.592	1.3168e-06	8.5513e-07	100.27	36.786	15.587	7.2913	1.008e-06	18.364	2.5401e-05	1.0667e-05	2.7595e-06	177.86	1.353e-07	8.231e-08	260.92	49.105	1.3032e-07	1.0883e-07	96.887	35.76	15.131	7.135	1.2164e-07	17.865	146.913	-24.860	-22.231	-98.634	27.504	15.710	-99.136	-93.843	8.977	14.710	-94.667	-91.090	-89.786	-85.710	-28.951	-87.884	-8191	255	
9546.098	1	1	0	0	0.085898	0.22405	0.12248	0.14736	0.11687	0.14822	0.18258	0.19799	0.25143	0.19675	0.22875	0.11996	0.13627	0.15953	0.073166	0.040995	-2.1083	-2.3812	-2.4417	-2.5687	-2.4417	-2.5083	-2.3271	-2.3479	-2.6063	-2.2875	-2.5521	-2.5687	-2.4417	-2.7062	-2.5604	-2.4833	-32.475	-58.850	-12.205	-31.748	133.902	191.858	165.949	129.482	-27.660	217.261	28.831	101.330	77.337	-64.705	201.222	28.888	0.00014915	0.00010036	4.402e-05	185.27	1.0897e-06	5.8023e-07	270.56	50.834	7.8116e-07	1.253e-06	100.97	37.188	15.522	7.402	1.5744e-06	18.511	2.5281e-05	1.0589e-05	2.5831e-06	178.43	1.2486e-07	8.4178e-08	262.79	49.272	1.1823e-07	1.0291e-07	97.684	35.829	15.16	7.1589	1.254e-07	17.943	144.320	-4.020	-2.049	-98.896	24.506	5.936	-99.271	-93.219	4.240	8.125	-94.496	-91.047	-90.041	-86.472	7.724	-87.937	-8191	255	
9546.194	1	1	0	0	0.34282	0.070889	0.25885	0.18595	0.24828	0.20581	0.38985	0.23362	0.089837	0.10778	0.18126	0.075277	0.09735	0.35811	0.14263	0.32339	-2.0062	-2.3104	-2.6708	-2.4479	-2.3375	-2.5167	-2.5521	-2.3208	-2.6312	-2.3229	-2.5771	-2.5104	-2.2875	-2.6667	-2.3875	-2.6104	99.737	222.006	-26.137	18.149	-74.855	149.483	235.371	167.256	161.529	194.362	-24.759	-59.799	-50.734	161.919	155.724	168.006	0.00015929	0.00016056	2.5409e-05	185.78	9.606e-07	1.519e-06	272.92	50.804	1.3037e-06	1.0048e-06	101.4	36.906	15.54	7.3518	1.401e-06	18.609	2.4236e-05	1.0367e-05	2.8305e-06	179.14	1.2049e-07	9.7106e-08	263.81	49.337	1.2527e-07	1.0515e-07	97.833	35.892	15.173	7.1558	1.3494e-07	18.053	152.232	-34.211	-26.694	-98.895	-2.072	43.709	-99.271	-93.419	2.064	19.832	-94.774	-91.185	-90.035	-85.804	15.135	-87.849	-8191	255	
9546.266	1	1	0	0	0.2095	0.19783	0.12568	0.1493	0.20243	0.10917	0.076606	0.1442	0.064267	0.09822	0.099342	0.018964	0.20099	0.076731	0.31674	0.076127	-2.0958	-2.3417	-2.4833	-2.4313	-2.2667	-2.7062	-2.5292	-2.325	-2.6	-2.325	-2.4292	-2.6354	-2.2687	-2.5583	-2.4083	-2.3688	222.351	-25.420	224.491	-43.511	-82.142	148.672	-6.607	74.516	-110.417	-3.587	181.697	-44.283	10.796	3.064	-84.334	-109.849	0.00015902	0.00017509	5.1786e-05	187.2	1.3279e-06	1.3325e-06	274.01	51.341	1.1359e-06	8.3627e-07	102.18	37.223	15.676	7.2485	1.6591e-06	18.244	2.4959e-05	1.111e-05	2.8086e-06	180.1	1.2409e-07	8.8775e-08	265.61	49.705	1.2755e-07	1.05e-07	98.512	36.031	15.156	7.0757	1.2033e-07	17.747	149.773	-46.332	-40.167	-99.407	34.178	11.937	-99.299	-94.019	-8.294	49.809	-94.538	-90.844	-90.644	-86.129	6.588	-87.861	-8191	255	
9546.386	1	1	0	0	0.19067	0.11618	0.073089	0.090865	0.042787	0.17867	0.081991	0.049724	0.22482	0.097017	0.2143	0.15524	0.047203	0.11196	0.21204	0.1738	-2.0854	-2.3458	-2.4042	-2.6042	-2.2208	-2.3833	-2.4688	-2.2396	-2.7146	-2.3646	-2.4688	-2.5729	-2.2333	-2.5604	-2.5208	-2.3083	60.880	141.019	88.974	45.445	-59.784	144.554	202.217	-40.393	182.711	-97.036	225.769	157.985	137.541	206.925	-108.493	194.937	0.00016138	0.00010535	5.0795e-05	185.75	5.9879e-07	1.1822e-06	270.62	50.798	1.2538e-06	1.5351e-06	102.42	37.331	15.609	7.3208	3.3973e-07	18.714	2.4827e-05	1.0361e-05	2.8268e-06	179.14	1.2486e-07	1.114e-07	263.65	49.404	1.1731e-07	1.0963e-07	98.307	36.112	15.233	7.1358	1.2026e-07	18.04	151.721	-75.302	-18.085	-99.080	-29.659	-0.061	-98.747	-93.493	-0.440	40.029	-95.144	-91.115	-90.433	-85.907	50.704	-87.763	-8191	255	
9546.482	1	1	0	0	0.12567	0.22296	0.11406	0.17089	0.15492	0.24479	0.20628	0.033568	0.25524	0.15058	0.045049	0.14132	0.069338	0.22505	0.28757	0.070455	-2.2021	-2.4062	-2.2271	-2.6562	-2.375	-2.4854	-2.7104	-2.2521	-2.7208	-2.6125	-2.3292	-2.8	-2.4542	-2.4729	-2.6063	-2.3708	59.873	56.671	157.900	-48.036	233.174	-55.485	-85.431	-95.259	-16.518	121.906	43.437	-85.561	166.728	151.892	-0.706	92.456	0.00016089	0.00016636	3.9227e-05	187.83	1.3833e-06	1.7308e-06	277.13	52.286	8.7615e-07	1.4436e-06	104.13	38.501	16.071	7.5005	8.7154e-07	19.09	2.316e-05	1.1364e-05	2.905e-06	181.25	1.1964e-07	1.1485e-07	269	50.74	1.2164e-07	1.175e-07	101.08	37.218	15.624	7.3236	1.2583e-07	18.48	145.749	-27.709	1.311	-98.983	15.965	12.826	-99.133	-93.455	6.947	19.865	-94.271	-91.098	-91.147	-85.715	17.637	-88.311	-8191	255	
9546.578	1	1	0	0	0.1776	0.15331	0.18525	0.12871	0.19177	0.076026	0.00888	0.013008	0.14252	0.058651	0.21707	0.13906	0.069873	0.2128	0.22663	0.24371	-2.1458	-2.5604	-2.3688	-2.6125	-2.3563	-2.4021	-2.6458	-2.2229	-2.5938	-2.4667	-2.1646	-2.5854	-2.3583	-2.4813	-2.5771	-2.2375	245.322	-46.796	55.534	200.372	153.625	137.186	73.666	115.239	206.138	111.147	222.168	185.885	-91.342	120.678	220.362	66.355	0.00015485	0.00017716	5.5161e-05	189.55	1.2618e-06	5.7088e-07	277.8	52.45	8.3252e-07	1.0242e-06	105.41	38.338	16.154	7.4354	1.2102e-06	18.634	2.5114e-05	1.1279e-05	3.1433e-06	182.39	1.31e-07	1.0687e-07	269.93	50.976	1.3373e-07	1.2654e-07	101.32	37.153	15.662	7.2532	1.3646e-07	18.172	147.804	-53.278	-10.412	-98.870	7.582	24.963	-98.952	-93.945	12.296	34.004	-94.812	-91.353	-89.694	-85.529	37.578	-88.389	-8191	255	
9546.675	1	1	0	0	0.18456	0.12367	0.2445	0.23787	0.19264	0.22686	0.080463	0.22816	0.32446	0.19889	0.20534	0.16852	0.079395	0.14702	0.1401	0.091656	-2.2292	-2.2938	-2.2521	-2.6917	-2.3812	-2.2792	-2.4062	-2.3063	-2.6	-2.55	-2.2708	-2.6708	-2.4938	-2.4333	-2.6542	-2.2833	113.137	174.684	-13.784	-85.878	109.391	-96.130	133.835	-8.696	47.362	144.283	38.365	-109.208	139.363	5.692	191.941	-108.766	0.00014619	0.00013954	6.2811e-05	186.36	1.2153e-06	1.2935e-06	274.21	51.837	1.0693e-06	8.0792e-07	101.11	36.966	15.454	7.3161	1.1864e-06	18.102	2.5293e-05	1.1331e-05	3.1288e-06	180.1	1.3523e-07	1.1477e-07	265.89	49.999	1.3394e-07	1.2061e-07	97.895	35.885	15.046	7.0653	1.3111e-07	17.632	147.371	-41.170	-15.472	-98.931	53.198	34.627	-98.969	-93.835	36.854	13.820	-94.826	-90.640	-89.591	-85.609	-15.201	-88.211	-8191	255	
9546.794	1	1	0	0	0.24976	0.18039	0.33025	0.20574	0.12324	0.2938	0.074033	0.094316	0.21925	0.048103	0.13285	0.074128	0.11981	0.021075	0.11682	0.029921	-2.2292	-2.6604	-2.1958	-2.5375	-2.2354	-2.3792	-2.8104	-2.425	-2.4375	-2.5958	-2.2083	-2.7958	-2.3146	-2.2771	-2.5833	-2.6208	108.674	8.920	213.570	233.917	-66.846	118.754	-56.802	141.532	81.335	128.876	129.308	169.353	-13.446	14.846	-16.229	93.570	0.00015672	0.00012695	3.7311e-05	184.13	2.6275e-07	3.4909e-07	270.7	50.684	1.3942e-06	9.653e-07	101.78	37.146	15.878	7.3425	1.6088e-06	18.295	2.7366e-05	1.0361e-05	3.1415e-06	177.45	1.2719e-07	1.0192e-07	261.78	49.33	1.3266e-07	1.0883e-07	97.484	35.923	15.21	7.1111	1.2106e-07	17.826	145.925	-31.405	-13.700	-98.811	81.923	-19.751	-99.039	-93.626	-17.033	1.390	-94.155	-90.694	-90.760	-85.836	41.270	-88.061	-8191	255	
9546.890	1	1	0	0	0.25898	0.19388	0.22155	0.18638	0.28554	0.22001	0.2222	0.093271	0.4121	0.098163	0.37806	0.37024	0.076716	0.28742	0.23717	0.14493	-2.1729	-2.4333	-2.2479	-2.4917	-2.5771	-2.0792	-2.5917	-2.3521	-2.3563	-2.6708	-2.1562	-2.475	-2.5125	-2.3104	-2.4583	-2.4667	-14.964	52.531	0.380	231.351	129.427	156.607	-92.640	227.025	219.640	-63.738	89.199	-101.708	148.494	-61.629	-81.126	34.407	0.00017111	0.00011517	5.2974e-05	184.47	8.0944e-07	1.1095e-06	269.56	51.249	9.4973e-07	8.7079e-07	101.07	37.651	15.655	7.4039	9.7158e-07	18.34	2.5634e-05	9.4297e-06	3.1579e-06	177.67	1.2472e-07	1.1434e-07	261.28	49.604	1.3146e-07	9.9726e-08	97.88	36.102	15.314	7.1528	1.2438e-07	17.904	144.114	-42.041	-9.278	-98.923	0.569	-0.356	-99.117	-93.584	20.165	2.887	-94.627	-90.896	-90.508	-85.467	33.594	-87.879	-8191	255	
9546.986	1	1	0	0	0.078575	0.20936	0.31564	0.25582	0.17925	0.097466	0.13273	0.026183	0.092219	0.1212	0.074214	0.274	0.31863	0.084482	0.012787	0.12042	-2.0729	-2.6604	-2.3917	-2.6646	-2.7667	-2.3312	-2.6417	-2.4854	-2.4938	-2.6667	-2.3729	-2.3354	-2.3583	-2.2896	-2.6562	-2.4437	89.466	-30.694	236.018	217.081	-39.914	94.146	105.915	-78.598	-102.178	77.229	111.772	-67.680	-6.574	177.169	200.557	216.166	0.00015546	7.6284e-05	5.1151e-05	186.03	3.3207e-07	1.5488e-06	271.01	51.451	8.5209e-07	1.1583e-06	102.53	37.417	15.779	7.2768	1.1625e-06	18.491	2.5675e-05	9.0715e-06	3.247e-06	178.63	1.1894e-07	9.3084e-08	264.01	49.772	1.2179e-07	1.0334e-07	98.764	36.182	15.27	7.1235	1.0992e-07	17.932	149.125	-31.861	-7.943	-99.226	-46.064	31.180	-98.780	-93.838	-5.204	-15.930	-94.466	-90.778	-90.527	-86.425	16.189	-87.950	-8191	255	
9547.082	1	1	0	0	0.26522	0.22463	0.20798	0.22762	0.1401	0.18821	0.23142	0.14372	0.19073	0.30115	0.019392	0.043281	0.15784	0.08224	0.065647	0.10286	-1.8542	-2.5083	-2.2375	-2.475	-2.475	-2.3167	-2.4813	-2.3375	-2.4313	-2.4958	-2.2021	-2.2354	-2.6125	-2.3979	-2.4271	-2.4354	193.410	89.265	78.656	109.109	-68.895	76.155	-54.860	150.589	173.923	206.082	69.786	30.816	-91.861	49.465	232.753	-19.285	0.00015709	0.00015821	4.8335e-05	184.4	1.1466e-06	1.5047e-06	269.07	50.621	6.0155e-07	1.0604e-06	99.26	36.23	15.593	7.2419	5.1876e-07	18.081	2.5861e-05	9.8595e-06	3.2434e-06	178.25	1.2077e-07	1.216e-07	261.6	49.228	1.2243e-07	1.0861e-07	96.27	35.396	15.074	7.0066	1.1563e-07	17.566	148.473	-58.042	-3.695	-98.844	25.878	22.234	-99.201	-94.319	-46.256	51.880	-94.815	-90.586	-90.677	-86.297	60.656	-88.025	-8191	255	
9547.178	1	1	0	0	0.19962	0.083129	0.14745	0.092848	0.085455	0.18499	0.11769	0.013593	0.24734	0.1154	0.28994	0.11226	0.049166	0.24465	0.29261	0.15292	-1.7729	-2.7562	-2.2938	-2.3458	-2.5583	-2.2354	-2.5938	-2.4667	-2.3354	-2.4667	-2.3396	-2.4167	-2.6896	-2.2562	-2.4667	-2.3854	9.400	32.062	-70.481	1.649	51.856	67.385	228.683	138.429	165.238	178.244	166.781	127.854	72.898	170.042	6.223	150.686	0.00013837	0.00014721	4.801e-05	180.98	1.0394e-06	1.6906e-06	265.19	50.388	1.5557e-06	7.191e-07	98.455	36.186	15.52	7.2197	1.7999e-06	18.023	2.5335e-05	8.5245e-06	3.0196e-06	176	1.1463e-07	1.1262e-07	257.39	48.463	1.3586e-07	1.0637e-07	95.388	35.092	14.923	7.0302	1.2966e-07	17.609	151.630	-34.134	-2.412	-99.096	0.583	7.588	-98.660	-93.930	-7.365	25.835	-95.205	-90.902	-89.855	-85.684	5.279	-88.147	-8191	255	
9547.274	1	1	0	0	0.35032	0.11117	0.30782	0.20587	0.3763	0.10578	0.20507	0.25239	0.17243	0.057262	0.19229	0.38237	0.062792	0.11086	0.30008	0.083113	-1.8625	-2.475	-2.3896	-2.3604	-2.4771	-2.3521	-2.4813	-2.4792	-2.3458	-2.4875	-2.4	-2.3417	-2.6813	-2.1917	-2.4729	-2.7646	-50.413	15.463	198.707	55.876	-88.929	225.342	-111.003	230.933	-99.666	184.418	111.894	3.757	241.631	217.884	225.917	26.733	0.00015442	0.0001914	5.6962e-05	183.77	1.1119e-06	1.4136e-06	263.44	50.146	1.638e-06	1.2669e-06	98.541	36.039	15.451	7.1261	4.7523e-07	17.973	2.6691e-05	1.1175e-05	3.1433e-06	175.57	1.1118e-07	1.1801e-07	255.66	48.231	1.3508e-07	1.2177e-07	95.229	35.076	14.838	6.9615	1.1831e-07	17.433	150.900	-54.349	8.519	-98.876	34.648	18.227	-98.917	-93.829	46.952	26.878	-94.761	-90.463	-89.598	-86.060	20.011	-88.477	-8191	255	
9547.395	1	1	0	0	0.21458	0.1358	0.17444	0.20828	0.32474	0.19182	0.039864	0.094334	0.13178	0.20246	0.16279	0.2317	0.15006	0.091904	0.27018	0.2833	-1.7563	-2.6667	-2.3063	-2.1271	-2.5604	-2.4021	-2.4146	-2.5479	-2.5521	-2.4771	-2.3479	-2.4479	-2.4021	-2.2854	-2.2875	-2.6875	146.282	196.941	231.918	102.028	-11.894	124.024	117.379	181.721	-65.606	111.590	176.963	-53.168	116.638	85.482	6.444	220.902	0.00015376	0.00010521	4.0133e-05	180.41	1.244e-06	1.3616e-06	261.83	49.264	1.1772e-06	8.0711e-07	96.956	35.696	15.15	7.1348	1.3972e-06	17.759	2.5556e-05	1.0126e-05	2.9487e-06	174.56	1.1019e-07	1.1147e-07	253.81	47.766	1.2719e-07	1.0052e-07	93.425	34.724	14.709	6.9424	1.3342e-07	17.382	147.563	-17.542	-25.585	-98.755	-11.585	7.860	-99.181	-93.770	-13.422	29.132	-95.007	-90.659	-90.048	-85.949	-5.929	-88.251	-8191	255	
9547.489	1	1	0	0	0.16511	0.2297	0.51185	0.070079	0.37298	0.25964	0.28089	0.15441	0.082896	0.13083	0.21815	0.1538	0.059475	0.1874	0.086571	0.088245	-1.6542	-2.4833	-2.4229	-2.2687	-2.4813	-2.4708	-2.3563	-2.6167	-2.4313	-2.6521	-2.4688	-2.2604	-2.4854	-2.2938	-2.3479	-2.5938	126.227	-38.633	29.660	219.921	190.333	4.193	-83.211	-30.044	239.790	197.580	163.752	-49.127	219.861	113.175	20.163	225.816	0.00015801	0.00016046	4.4137e-05	180.4	8.3043e-07	1.9971e-06	258.28	48.925	1.3082e-06	9.4778e-07	96.162	35.459	15.147	7.0903	1.4635e-06	17.562	2.5879e-05	1.1409e-05	2.9196e-06	172.77	1.0941e-07	1.045e-07	251.74	47.51	1.247e-07	1.1129e-07	92.912	34.312	14.668	6.8583	1.3914e-07	17.095	144.996	-58.349	-30.807	-98.941	69.237	12.903	-99.564	-93.668	-11.098	29.104	-94.660	-91.148	-89.399	-85.594	19.246	-87.749	-8191	255	
9547.563	1	1	0	0	0.056449	0.086915	0.20278	0.22797	0.1662	0.16635	0.058221	0.2702	0.14471	0.1466	0.18558	0.087521	0.088852	0.14045	0.32837	0.13235	-1.75	-2.3729	-2.4583	-2.2625	-2.4646	-2.3187	-2.3	-2.45	-2.2104	-2.4917	-2.6042	-2.1937	-2.3625	-2.4375	-2.2646	-2.5896	238.368	162.733	-17.279	-98.837	-82.451	95.818	167.405	84.107	238.128	220.877	-7.033	243.214	192.504	141.338	193.207	9.068	0.00015586	7.7971e-05	5.2642e-05	177.2	7.2162e-07	1.2347e-06	257.14	48.651	1.0546e-06	1.2204e-06	94.433	35.171	15.071	7.1719	5.3194e-07	17.835	2.5072e-05	1.0791e-05	2.8159e-06	170.73	1.1379e-07	1.193e-07	248.68	47.251	1.1923e-07	1.1765e-07	91.839	34.221	14.615	6.9578	1.4225e-07	17.285	147.624	-22.838	-3.345	-98.852	9.413	11.035	-99.228	-93.997	-8.618	43.527	-94.965	-90.612	-90.331	-85.861	-33.491	-87.889	-8191	255	
9547.659	1	1	0	0	0.16555	0.17647	0.090108	0.14836	0.083258	0.1009	0.16227	0.070346	0.22973	0.2388	0.13346	0.062634	0.34509	0.10776	0.13824	0.066355	-2.1708	-2.3854	-2.6104	-2.2771	-2.5208	-2.4396	-2.3896	-2.5021	-2.2062	-2.4	-2.5271	-2.2375	-2.5229	-2.4021	-2.2542	-2.5021	226.119	141.230	211.046	121.564	57.299	243.843	7.056	-24.283	-82.127	240.350	247.371	171.478	-60.974	-95.718	150.362	190.899	0.00014681	0.00011871	3.5718e-05	177.68	1.3721e-06	1.5991e-06	257.21	48.342	1.0914e-06	7.7678e-07	95.947	35.477	15.185	7.3257	1.7301e-06	18.115	2.6052e-05	1.124e-05	2.8214e-06	171.49	1.1929e-07	1.1104e-07	248.49	47.181	1.3074e-07	1.2357e-07	92.428	34.605	14.785	7.0861	1.3342e-07	17.639	151.105	-87.504	-21.427	-98.392	1.277	23.532	-98.859	-93.935	0.284	34.330	-94.607	-91.212	-90.424	-86.087	3.726	-88.161	-8191	255	
9547.778	1	1	0	0	0.15534	0.22537	0.098314	0.27007	0.18112	0.05569	0.29259	0.2017	0.13592	0.032864	0.054392	0.28833	0.2683	0.077016	0.074361	0.32552	-1.9396	-2.1979	-2.6146	-2.2833	-2.4729	-2.3417	-2.375	-2.4146	-2.4792	-2.5	-2.6188	-2.3229	-2.4875	-2.5042	-2.0333	-2.6833	220.326	-67.521	181.187	155.318	130.929	-54.975	-100.181	158.669	-16.195	116.943	-62.057	141.369	-72.155	231.058	-110.969	-56.199	0.00014377	0.00014679	3.8482e-05	178.59	8.5118e-07	1.7244e-06	257.64	48.842	6.4056e-07	8.9206e-07	97.339	35.83	15.249	7.2645	1.0969e-06	18.165	2.7133e-05	1.2484e-05	2.7995e-06	172.19	1.2486e-07	9.7394e-08	250.02	47.566	1.1169e-07	1.162e-07	93.361	34.79	14.795	7.0797	1.3321e-07	17.654	144.139	-11.266	-2.056	-98.736	62.464	47.540	-99.005	-93.700	2.428	40.884	-94.780	-90.205	-90.542	-86.407	28.436	-88.341	-8191	255	
9547.874	1	1	0	0	0.059504	0.21413	0.15677	0.14742	0.1188	0.24742	0.13035	0.065072	0.026307	0.11306	0.1401	0.28593	0.10085	0.020899	0.19755	0.11885	-2.0042	-2.1312	-2.3812	-2.3875	-2.2521	-2.5854	-2.3854	-2.5896	-2.5021	-2.4125	-2.6167	-2.4521	-2.1479	-2.6021	-2.1583	-2.3396	46.653	94.991	115.246	-72.559	240.782	-74.185	-53.309	73.452	224.501	131.026	-59.304	-66.230	163.764	154.533	-25.911	57.129	0.00014641	0.00010963	3.1718e-05	179.46	1.1389e-06	8.2257e-07	255.99	48.08	1.0759e-06	7.2602e-07	93.396	34.663	14.871	7.1028	8.5905e-07	17.748	2.6321e-05	1.154e-05	2.905e-06	171.97	1.346e-07	1.0422e-07	247.37	46.879	1.4198e-07	1.1533e-07	90.527	33.805	14.488	6.9323	1.3205e-07	17.173	145.122	-9.798	-12.183	-98.989	49.859	40.040	-99.284	-93.730	-11.104	-14.441	-94.988	-91.405	-90.097	-85.845	21.773	-88.286	-8191	255	
9547.970	1	1	0	0	0.24489	0.070252	0.30612	0.24705	0.24766	0.043034	0.29226	0.21612	0.12213	0.16973	0.3187	0.13371	0.15278	0.18805	0.10515	0.11237	-1.9792	-2.2104	-2.5167	-2.3187	-2.3646	-2.5812	-2.4354	-2.6021	-2.5271	-2.2729	-2.6646	-2.3333	-2.3833	-2.5271	-2.1125	-2.5187	-111.984	-19.208	-16.434	81.354	178.559	-27.390	-109.965	-112.016	107.794	-85.991	-58.491	141.794	156.642	56.649	150.301	37.444	0.00016543	6.2403e-05	2.549e-05	176.88	7.3857e-07	1.6148e-06	249.73	47.834	1.0848e-06	4.552e-07	91.512	34.487	14.749	7.0456	8.6547e-07	17.472	2.4523e-05	1.1989e-05	2.7886e-06	169.79	1.2479e-07	1.0774e-07	242.29	46.18	1.2314e-07	1.2393e-07	88.802	33.452	14.31	6.8879	1.246e-07	16.989	154.807	-49.095	2.444	-99.216	-53.538	34.612	-98.898	-94.161	8.623	25.572	-93.972	-90.932	-90.701	-86.613	-8.119	-87.984	-8191	255	
9548.066	1	1	0	0	0.20626	0.14708	0.17753	0.1554	0.11999	0.1968	0.23672	0.13118	0.15044	0.15165	0.19485	0.081081	0.034827	0.14033	0.03913	0.058489	-2.0292	-2.2479	-2.4042	-2.4896	-2.2854	-2.7188	-2.4292	-2.5729	-2.6979	-2.3854	-2.5542	-2.3833	-2.1875	-2.4792	-2.3479	-2.4854	140.956	56.647	-61.229	131.990	69.809	164.665	20.994	231.047	-98.146	129.291	143.334	130.690	45.250	-11.405	-63.392	155.060	0.00013347	0.00017799	3.1679e-05	174.23	1.5734e-06	1.1613e-06	249.07	47.152	1.2854e-06	1.0194e-06	90.197	33.574	14.455	6.9703	1.1832e-06	17.192	2.5347e-05	1.139e-05	2.9342e-06	168.8	1.4045e-07	1.0515e-07	242.42	45.826	1.2356e-07	1.2263e-07	87.343	32.778	13.981	6.7506	1.3263e-07	16.735	140.249	-44.011	-34.805	-98.971	38.141	23.332	-98.953	-94.062	-43.946	55.742	-94.570	-91.326	-90.107	-85.312	14.453	-87.643	-8191	255	
9548.162	1	1	0	0	0.2069	0.19093	0.10324	0.10153	0.18546	0.044889	0.11091	0.082316	0.28353	0.13142	0.079629	0.17223	0.10697	0.074102	0.20722	0.23007	-1.9104	-2.2438	-2.5292	-2.3042	-2.3021	-2.5062	-2.3875	-2.1583	-2.6604	-2.2292	-2.3375	-2.3917	-2.2479	-2.5312	-2.3208	-2.6708	117.964	214.850	75.304	21.671	95.065	-31.452	187.215	208.659	-83.282	-35.119	95.009	154.959	-24.387	86.510	156.486	9.162	0.00014635	0.00015726	3.2501e-05	173.22	5.7719e-07	1.363e-06	247.59	46.33	8.7501e-07	1.2345e-06	88.83	33.352	14.22	6.8693	9.4967e-07	16.998	2.4576e-05	1.2119e-05	3.3271e-06	166.7	1.4095e-07	1.2095e-07	238.97	44.804	1.2179e-07	1.1888e-07	85.782	32.34	13.814	6.6912	1.3046e-07	16.547	143.637	-47.630	-19.253	-98.732	31.904	29.667	-98.891	-94.008	-50.190	32.968	-95.338	-91.255	-89.284	-86.046	17.491	-88.393	-8191	255	
9548.258	1	1	0	0	0.13769	0.16021	0.19733	0.27556	0.14836	0.063427	0.05942	0.11508	0.17963	0.25155	0.23732	0.15531	0.1633	0.19781	0.26677	0.17993	-2.1708	-2.225	-2.4854	-2.4521	-2.4229	-2.6521	-2.3063	-2.3167	-2.5625	-2.3688	-2.5479	-2.4271	-2.2333	-2.5792	-2.4938	-2.2771	197.838	-26.180	165.693	72.777	-5.909	-82.878	158.704	-75.931	186.014	-97.237	5.881	230.069	137.063	-45.472	217.771	102.995	0.00011712	6.9603e-05	2.5937e-05	171.21	6.9441e-07	6.2791e-07	245.4	45.705	1.1619e-06	6.1066e-07	87.932	32.979	14.111	6.7283	1.3357e-06	16.872	2.3877e-05	1.0367e-05	3.0269e-06	165.78	1.2832e-07	1.1758e-07	236.62	44.396	1.348e-07	1.1432e-07	84.882	31.889	13.672	6.5569	1.259e-07	16.325	146.539	-3.107	-11.310	-99.250	4.806	32.952	-98.910	-93.956	11.082	22.703	-95.048	-91.138	-89.396	-85.876	15.585	-88.260	-8191	255	
9548.355	1	1	0	0	0.16902	0.15199	0.15458	0.1846	0.2657	0.13658	0.28293	0.14961	0.19631	0.034424	0.19077	0.24081	0.1366	0.34486	0.085013	0.086742	-1.9604	-2.4229	-2.4083	-2.4625	-2.3958	-2.5625	-2.4458	-2.2083	-2.5187	-2.2583	-2.4833	-2.4146	-2.3271	-2.3167	-2.6562	-2.3083	-8.136	73.725	120.195	240.534	157.311	-102.044	-24.712	-72.681	84.832	-102.477	55.118	58.053	155.652	159.316	165.331	-60.591	0.00013079	7.7887e-05	2.0366e-05	171.97	8.6541e-08	1.1744e-06	242.76	45.529	1.2365e-06	9.3837e-07	88.361	33.246	14.247	6.8349	1.5546e-06	16.791	2.276e-05	1.1702e-05	3.2852e-06	164.91	1.2571e-07	1.0192e-07	235.3	44.235	1.2854e-07	1.1071e-07	85.283	32.187	13.769	6.5985	1.2735e-07	16.395	148.706	-63.647	-13.817	-98.805	-107.178	78.060	-98.630	-93.990	-32.073	16.111	-94.816	-91.056	-90.223	-85.535	-20.912	-88.064	-8191	255	
9548.475	1	1	0	0	0.27656	0.10122	0.25612	0.21448	0.2323	0.1163	0.23194	0.039431	0.1842	0.30114	0.22247	0.11091	0.19767	0.15212	0.10948	0.14409	-1.9104	-2.1854	-2.2062	-2.4875	-2.4521	-2.3583	-2.4813	-2.2458	-2.7229	-2.45	-2.5	-2.7562	-2.2562	-2.4771	-2.4979	-2.3521	116.864	184.354	19.206	117.511	42.225	-41.077	112.645	144.590	-51.514	-75.371	-69.860	-2.654	106.938	94.963	172.757	-42.011	0.00014975	0.00010804	4.201e-05	171.51	9.5614e-07	8.5599e-07	244.49	45.55	9.9715e-07	1.4183e-06	89.463	33.448	14.221	6.7808	1.056e-06	16.746	2.5204e-05	1.1149e-05	3.1652e-06	164.8	1.2776e-07	1.1643e-07	236.13	44.416	1.2534e-07	1.0334e-07	86.014	32.328	13.785	6.5825	1.2135e-07	16.369	143.592	-39.919	-0.227	-98.735	39.137	25.137	-99.040	-93.773	1.466	19.297	-94.642	-90.827	-90.476	-86.343	10.766	-88.148	-8191	255	
9548.570	1	1	0	0	0.16996	0.12073	0.17719	0.20008	0.25945	0.17058	0.33015	0.19499	0.14583	0.039799	0.059017	0.074824	0.070713	0.18755	0.058842	0.090482	-2.1562	-2.4771	-2.2042	-2.6437	-2.3063	-2.6813	-2.5396	-2.4792	-2.5854	-2.4625	-2.2188	-2.6604	-2.4167	-2.4854	-2.6083	-2.3979	113.583	142.183	87.097	233.986	156.000	144.755	-42.684	47.609	-72.127	0.869	-79.140	116.950	-46.154	229.036	164.052	177.482	0.00014593	8.6563e-05	2.5345e-05	171.54	7.9813e-07	1.3431e-06	248.12	46.614	1.0853e-06	6.2735e-07	90.512	33.767	14.189	6.9002	7.969e-07	16.871	2.5126e-05	9.4101e-06	3.1615e-06	164.96	1.3192e-07	1.1614e-07	239.06	45.177	1.3266e-07	1.0088e-07	87.169	32.723	13.857	6.6824	1.2561e-07	16.43	150.539	-62.395	-30.295	-99.238	50.862	10.785	-98.920	-94.219	-9.565	43.919	-94.749	-90.629	-91.092	-86.043	17.489	-88.355	-8191	255	
9548.668	1	1	0	0	0.18546	0.12624	0.05284	0.11287	0.057013	0.26555	0.13138	0.25803	0.25602	0.19726	0.15804	0.14213	0.33287	0.25267	0.21104	0.034034	-2.1583	-2.5271	-2.3042	-2.575	-2.4292	-2.5187	-2.7771	-2.2333	-2.6479	-2.4292	-2.5458	-2.4437	-2.3396	-2.4938	-2.5938	-2.1479	-45.062	60.898	169.422	217.657	246.572	57.386	90.041	-63.998	224.087	-69.206	19.010	191.720	50.894	-30.002	51.041	-63.451	0.00014741	0.00015144	2.4987e-05	170.35	1.2278e-06	1.8821e-06	243.87	46.051	1.5493e-06	1.4444e-06	88.954	33.12	14.291	6.8325	1.6809e-06	16.811	2.4929e-05	1.1624e-05	3.0015e-06	164.21	1.2973e-07	1.1133e-07	235.65	44.692	1.3615e-07	1.1692e-07	86.028	32.361	13.838	6.6213	1.0862e-07	16.339	152.174	-28.712	-39.384	-98.793	56.357	7.075	-99.248	-93.506	-7.217	39.921	-94.633	-91.046	-90.697	-85.623	18.802	-88.454	-8191	255	
9548.786	1	1	0	0	0.23169	0.092664	0.028521	0.11138	0.21796	0.23532	0.23354	0.12951	0.12943	0.19273	0.17612	0.14274	0.086006	0.13128	0.16289	0.21359	-2.2292	-2.4646	-2.2604	-2.5563	-2.6354	-2.4562	-2.6792	-2.1688	-2.5812	-2.5646	-2.3458	-2.5458	-2.4583	-2.4437	-2.6562	-2.3625	14.172	160.643	22.620	171.233	173.737	16.329	156.895	-40.230	176.893	-68.248	176.809	65.339	-3.941	-62.134	234.147	153.253	0.00013941	8.5478e-05	2.7743e-05	170.7	1.1426e-06	1.0724e-06	244.84	46.558	8.3532e-07	7.9004e-07	89.218	33.785	14.549	6.8716	1.5221e-06	16.945	2.466e-05	1.0179e-05	3.2398e-06	164.06	1.2571e-07	1.1693e-07	236.82	44.979	1.2719e-07	1.1281e-07	86.939	32.847	13.97	6.694	1.2511e-07	16.527	150.782	-41.517	-19.808	-99.066	22.138	62.330	-99.180	-94.291	42.993	35.830	-94.434	-90.825	-90.340	-86.366	29.891	-87.742	-8191	255	
9548.858	1	1	0	0	0.18303	0.13281	0.27817	0.077681	0.22054	0.11023	0.02619	0.050433	0.13606	0.18605	0.10361	0.052344	0.12446	0.3118	0.094813	0.10898	-2.1354	-2.5479	-2.1354	-2.5563	-2.4688	-2.25	-2.5146	-2.3937	-2.3729	-2.6208	-2.2604	-2.6458	-2.3354	-2.1917	-2.5438	-2.4458	243.330	163.338	24.104	47.258	39.470	170.136	-89.626	71.329	10.387	144.657	36.409	208.598	176.718	49.299	104.666	69.157	0.00014584	0.00014313	2.4717e-05	171.51	1.0752e-06	1.1233e-06	246.5	47.311	1.1429e-06	1.3737e-06	91.128	33.858	14.464	6.7985	1.2457e-06	17.15	2.4355e-05	1.1286e-05	2.9305e-06	164.83	1.2917e-07	1.1456e-07	239.22	45.568	1.4802e-07	1.0305e-07	87.814	32.998	14.055	6.699	1.2004e-07	16.617	146.071	-48.213	-77.994	-98.884	-11.513	8.817	-98.827	-94.002	22.596	21.519	-95.168	-90.885	-90.708	-85.532	29.233	-88.063	-8191	255	
9548.954	1	1	0	0	0.12599	0.2519	0.078923	0.15381	0.089654	0.12601	0.15021	0.15541	0.28557	0.14618	0.10245	0.12325	0.17195	0.084015	0.057994	0.095943	-2.2479	-2.6542	-2.3458	-2.4917	-2.6292	-2.3917	-2.625	-2.2667	-2.2167	-2.6292	-2.3292	-2.4562	-2.5458	-2.2979	-2.6125	-2.4792	-58.202	3.809	-71.700	-86.188	57.840	14.647	-67.971	175.849	134.845	186.561	84.254	-111.079	48.671	179.302	10.635	75.524	0.00013106	8.4436e-05	5.3404e-05	170.99	7.4905e-07	1.1214e-06	244.87	46.771	1.6832e-06	1.4954e-06	90.932	34.138	14.527	7.0455	1.1066e-06	17.284	2.5526e-05	9.8595e-06	3.1652e-06	165.26	1.1463e-07	1.3e-07	238.95	45.427	1.3892e-07	1.3318e-07	87.897	33.077	14.171	6.8047	1.199e-07	16.788	151.502	-43.788	-17.663	-98.674	-22.148	57.492	-98.677	-94.210	-10.508	14.724	-94.552	-91.259	-90.478	-85.612	15.059	-87.859	-8191	255	
9549.075	1	1	0	0	0.1427	0.27197	0.067436	0.09597	0.082056	0.050052	0.20628	0.14161	0.20634	0.10383	0.20728	0.13766	0.13024	0.28979	0.010223	0.18882	-1.9333	-2.5271	-2.4625	-2.5083	-2.6146	-2.4292	-2.5208	-2.15	-2.3208	-2.8187	-2.4021	-2.3125	-2.5042	-2.1937	-2.6229	-2.5062	-5.225	152.601	-108.187	218.635	221.821	245.289	239.370	92.041	204.915	2.067	-28.517	186.412	76.336	-98.470	-11.470	164.473	0.00013773	9.8551e-05	3.5715e-05	171.65	8.2892e-07	1.1712e-06	246.5	47.131	1.8078e-06	1.2691e-06	90.12	33.728	14.572	6.9561	1.3835e-06	17.02	2.5998e-05	1.1859e-05	2.8778e-06	165.42	1.3326e-07	1.2296e-07	237.86	45.525	1.3309e-07	9.1632e-08	87.38	32.974	14.147	6.7501	1.4225e-07	16.594	151.421	-88.159	-23.591	-99.065	52.707	10.442	-99.108	-93.217	26.594	21.311	-95.193	-90.722	-90.156	-86.460	-1.541	-88.197	-8191	255	
9549.171	1	1	0	0	0.081996	0.27523	0.18879	0.17357	0.11519	0.18944	0.085288	0.23617	0.076025	0.15157	0.086096	0.19251	0.14865	0.24269	0.045719	0.08867	-1.6896	-2.5229	-2.2667	-2.4396	-2.5375	-2.5708	-2.4479	-2.4229	-2.4625	-2.6792	-2.3958	-2.5292	-2.6854	-2.3937	-2.6562	-2.4625	42.789	185.014	-26.713	48.548	98.800	7.606	147.859	188.964	-25.260	214.782	-35.400	-64.119	-5.493	209.587	17.475	124.084	0.00015772	0.00010805	1.9133e-05	172.47	2.1603e-06	1.2133e-06	243.54	47.312	1.5772e-06	6.9188e-07	91.539	34.424	14.618	7.1023	5.7359e-07	17.36	2.5395e-05	9.9962e-06	3.278e-06	165.01	1.231e-07	1.0371e-07	237.31	45.65	1.3437e-07	1.0276e-07	87.877	33.242	14.197	6.8194	1.1491e-07	16.805	148.171	-21.764	-8.765	-98.641	-8.624	15.808	-99.053	-93.611	-26.012	44.331	-94.481	-90.914	-90.734	-85.757	-22.182	-88.263	-8191	255	
9549.267	1	1	0	0	0.026115	0.029334	0.083317	0.51195	0.14173	0.16754	0.11237	0.015681	0.11856	0.17706	0.20656	0.05993	0.092601	0.062418	0.14353	0.13794	-1.6896	-2.4062	-2.4042	-2.25	-2.5917	-2.3604	-2.3542	-2.7167	-2.2854	-2.5812	-2.5021	-2.275	-2.5646	-2.0729	-2.475	-2.525	2.055	3.390	10.453	-105.720	59.137	46.440	217.952	-9.262	-111.334	28.590	44.358	-44.987	61.238	-22.652	247.906	146.597	0.00013389	9.1428e-05	2.99e-05	170.75	1.1924e-06	1.1855e-06	250.73	48.006	6.0265e-07	1.5814e-06	93.377	34.716	14.882	7.1015	8.6566e-07	17.466	2.5771e-05	1.111e-05	3.0942e-06	164.85	1.1153e-07	1.3848e-07	242.72	46.392	1.4568e-07	1.1454e-07	90.282	33.804	14.449	6.9024	1.28e-07	16.972	150.303	23.477	-9.228	-98.861	26.537	30.707	-98.908	-93.936	-7.130	30.569	-94.589	-91.166	-90.188	-86.293	24.749	-88.546	-8191	255	
9549.363	1	1	0	0	0.096998	0.17157	0.074916	0.30756	0.047711	0.18704	0.18897	0.062607	0.12595	0.088264	0.13562	0.025538	0.37871	0.062998	0.10716	0.063712	-1.8458	-2.5771	-2.5312	-2.2812	-2.7646	-2.3667	-2.3729	-2.5104	-2.3458	-2.4938	-2.4583	-2.3521	-2.4813	-2.4979	-2.5229	-2.5646	-96.866	32.374	72.645	-111.694	36.401	-30.515	-92.730	175.860	86.910	176.877	187.780	-64.001	170.521	69.222	-67.571	231.259	0.00014927	7.3659e-05	3.3818e-05	172.69	1.4229e-06	1.551e-06	249.1	47.575	5.1495e-07	7.2191e-07	92.244	34.291	14.587	6.9965	7.068e-07	17.356	2.6715e-05	9.8269e-06	2.9778e-06	166.17	1.3911e-07	1.1628e-07	241.66	46.089	1.3949e-07	1.2885e-07	89.076	33.335	14.217	6.7893	1.2583e-07	16.812	148.993	-19.218	-21.367	-99.055	26.794	1.717	-99.091	-93.859	36.607	88.978	-94.702	-90.399	-90.037	-86.228	-45.888	-88.048	-8191	255	
9549.460	1	1	0	0	0.024975	0.058512	0.25357	0.34764	0.26867	0.17895	0.13723	0.40195	0.23799	0.042566	0.10037	0.028514	0.034891	0.17222	0.13659	0.16969	-1.9188	-2.6583	-2.5729	-2.3312	-2.7208	-2.2604	-2.4104	-2.4458	-2.5479	-2.5229	-2.5083	-2.2646	-2.5458	-2.3229	-2.2604	-2.6521	-15.666	206.161	207.410	175.871	-0.965	166.424	146.958	-86.760	7.115	-35.037	-26.833	86.849	85.255	1.673	110.213	59.986	0.0001396	0.00010347	5.128e-05	170.75	7.7477e-07	6.9516e-07	244.18	46.847	1.3962e-06	1.3646e-06	90.387	33.756	14.374	6.9398	1.247e-06	17.004	2.5568e-05	1.1709e-05	2.7413e-06	164.34	1.2127e-07	1.216e-07	237.83	45.505	1.3238e-07	1.282e-07	86.933	32.652	14.085	6.7639	1.3154e-07	16.567	141.368	-21.824	10.327	-99.248	44.528	23.379	-99.490	-93.555	25.053	25.309	-95.127	-91.202	-90.341	-86.637	-20.209	-88.004	-8191	255	
9549.556	1	1	0	0	0.091333	0.18606	0.29787	0.10907	0.12052	0.36893	0.14962	0.1226	0.089591	0.057517	0.21885	0.18156	0.14596	0.25321	0.03192	0.25111	-1.8417	-2.3917	-2.2479	-2.2542	-2.6021	-2.5083	-2.2979	-2.6104	-2.3458	-2.3771	-2.5521	-2.3438	-2.5396	-2.4729	-2.2896	-2.6833	53.389	-93.502	1.018	186.895	56.754	-0.296	183.542	-80.005	144.692	-97.456	-0.229	43.585	47.188	25.868	202.370	85.641	0.00015371	8.2882e-05	2.9054e-05	169.05	7.7772e-07	1.4373e-07	245.59	46.026	8.8197e-07	1.4062e-06	88.701	32.791	14.145	6.8496	1.6755e-06	16.641	2.5658e-05	1.0758e-05	3.0342e-06	163.12	1.2486e-07	1.0414e-07	235.44	44.769	1.4198e-07	1.2169e-07	85.645	32.114	13.789	6.6144	1.3176e-07	16.213	145.533	-35.796	18.611	-98.882	34.465	-3.533	-98.923	-93.477	-3.786	18.839	-95.047	-91.005	-90.263	-86.084	-17.604	-87.876	-8191	255	
9549.652	1	1	0	0	0.13842	0.26932	0.095051	0.26874	0.059724	0.24046	0.051282	0.13126	0.18759	0.26622	0.23864	0.27171	0.19215	0.1072	0.012108	0.25124	-2.0125	-2.375	-2.4417	-2.0667	-2.3688	-2.525	-2.2292	-2.4646	-2.2167	-2.2625	-2.6292	-2.1333	-2.3937	-2.525	-2.2438	-2.65	47.768	215.136	29.553	-45.551	4.571	234.719	-2.759	75.070	247.828	-36.842	-86.125	-20.544	-79.681	-89.963	5.610	188.005	0.00015626	0.00011258	1.8811e-05	168.43	1.0196e-06	1.969e-06	241.36	46.088	9.5326e-07	7.7272e-07	88.489	33.15	14.236	6.7933	4.9037e-07	16.64	2.4457e-05	1.0113e-05	2.8014e-06	162.71	1.1372e-07	1.254e-07	234.14	44.373	1.3864e-07	1.2336e-07	85.066	32.089	13.768	6.608	1.562e-07	16.219	151.156	-18.372	17.893	-99.097	31.000	-8.390	-98.827	-94.024	-2.879	11.397	-94.446	-91.155	-90.616	-86.393	-3.506	-87.887	-8191	255	
9549.748	1	1	0	0	0.16977	0.16996	0.079501	0.31735	0.12066	0.092939	0.11639	0.042972	0.23058	0.20101	0.0829	0.38589	0.10345	0.13581	0.09359	0.18996	-1.7354	-2.0771	-2.3583	-2.1896	-2.2875	-2.475	-2.1396	-2.5687	-2.4062	-2.4542	-2.5958	-2.2042	-2.5104	-2.4688	-2.3125	-2.6146	-90.975	105.460	138.832	234.973	34.281	91.997	101.113	-91.513	223.787	-44.606	38.319	248.304	-27.281	-105.086	238.718	105.428	0.00015901	0.00013515	3.3903e-05	168.99	1.1571e-06	1.1132e-06	242.59	45.969	1.1943e-06	5.7831e-07	89.392	33.463	14.338	6.8831	1.191e-06	16.734	2.5843e-05	1.1116e-05	3.2907e-06	163.3	1.2571e-07	1.2268e-07	235.53	44.913	1.4248e-07	1.3203e-07	86.395	32.458	13.93	6.6501	1.4984e-07	16.261	142.158	-29.074	-10.475	-99.398	-28.643	47.410	-98.883	-93.643	-39.715	54.236	-94.685	-91.021	-90.310	-86.258	0.919	-88.078	-8191	255	
9549.867	1	1	0	0	0.35955	0.10148	0.13014	0.22697	0.2114	0.13802	0.077674	0.095229	0.19894	0.12309	0.19222	0.042683	0.086787	0.17839	0.19129	0.18668	-2.0229	-2.3479	-2.5979	-2.3021	-2.2917	-2.4833	-2.325	-2.4896	-2.5146	-2.3292	-2.5083	-2.3604	-2.3063	-2.5563	-2.2271	-2.5021	-46.889	198.193	178.282	77.201	73.520	61.540	164.062	26.099	79.556	217.502	66.406	-33.559	-39.411	246.054	7.607	195.187	0.00014939	0.00012359	4.9121e-05	166.7	1.1913e-06	1.1769e-06	237.07	44.733	6.1746e-07	3.2346e-07	84.789	31.677	13.729	6.5948	1.3327e-06	16.151	2.6464e-05	1.1514e-05	3.7236e-06	161	1.3911e-07	1.1456e-07	229.76	43.502	1.3565e-07	1.3463e-07	82.487	30.869	13.343	6.3766	1.3328e-07	15.647	144.587	-25.577	-17.612	-99.124	59.911	11.212	-98.673	-93.465	1.568	58.167	-94.314	-91.090	-90.080	-85.244	27.347	-88.355	-8191	255	
9549.963	1	1	0	0	0.30561	0.202	0.042969	0.15719	0.3599	0.096182	0.21342	0.061315	0.096213	0.04152	0.026989	0.14025	0.31187	0.31566	0.051118	0.15744	-1.8354	-2.0979	-2.4083	-2.475	-2.4562	-2.5625	-2.2271	-2.575	-2.4792	-2.2354	-2.6625	-2.4813	-2.2708	-2.5125	-2.3917	-2.5667	-8.733	237.578	2.119	-93.267	151.069	81.593	153.162	-16.219	-101.104	-92.524	-78.230	217.986	214.961	47.767	95.591	28.524	0.00013283	0.000139	5.1907e-05	166.81	9.8723e-07	6.4312e-07	236.12	45.042	1.1841e-06	8.2371e-07	86.28	32.737	14.164	6.7433	1.1519e-06	16.617	2.4845e-05	1.2022e-05	2.9651e-06	159.29	1.25e-07	1.216e-07	228.25	43.843	1.3629e-07	1.4106e-07	83.665	31.637	13.728	6.5678	1.6054e-07	16.197	149.565	1.614	-1.391	-98.640	21.097	22.842	-99.443	-94.130	-9.380	47.043	-94.820	-91.266	-90.712	-85.799	4.006	-87.756	-8191	255	
9550.059	1	1	0	0	0.10759	0.1159	0.13991	0.071321	0.17586	0.16161	0.29549	0.3416	0.29708	0.050435	0.26942	0.23134	0.12515	0.11551	0.18844	0.054883	-2.1917	-2.1896	-2.4583	-2.4271	-2.3521	-2.5333	-2.3458	-2.5187	-2.5833	-2.3479	-2.4146	-2.4542	-2.2854	-2.4125	-2.3042	-2.3583	77.738	247.957	-0.631	244.709	212.641	63.821	167.479	227.453	53.212	241.803	-4.876	116.393	153.155	235.514	157.520	1.268	0.00012632	2.1266e-05	2.0696e-05	169.91	1.5229e-06	1.0955e-06	243.48	47.022	1.7667e-06	7.7661e-07	90.025	33.403	14.493	6.936	5.7039e-07	16.957	2.6566e-05	1.3734e-05	3.2925e-06	163.11	1.5915e-07	1.323e-07	235.99	45.573	1.4774e-07	1.4778e-07	86.552	32.483	14.049	6.7011	1.3971e-07	16.451	139.282	115.550	-19.861	-98.867	23.175	-12.613	-99.576	-93.734	33.132	46.378	-95.085	-90.994	-89.827	-86.593	18.237	-88.157	-8191	255	
9550.155	1	1	0	0	0.2221	0.14565	0.18489	0.10888	0.14884	0.34852	0.098493	0.14961	0.24042	0.15601	0.12668	0.11452	0.18447	0.27244	0.12867	0.15231	-2.1188	-2.2292	-2.45	-2.3375	-2.3729	-2.5146	-2.1896	-2.4	-2.5104	-2.2146	-2.3833	-2.2604	-2.0563	-2.3708	-2.1604	-2.3688	37.800	95.059	40.216	-44.371	86.823	158.691	52.871	-82.734	25.979	220.916	-27.723	190.500	-88.522	114.589	225.507	-9.089	0.00014898	0.00011145	3.8363e-05	166	1.0605e-06	1.6877e-06	239.02	46.109	5.2668e-07	1.1576e-06	86.881	33.086	14.008	6.8882	1.117e-06	16.858	2.4702e-05	1.4177e-05	3.4635e-06	161.58	1.4589e-07	1.3453e-07	231.69	44.54	1.3089e-07	1.3123e-07	84.571	32.075	13.73	6.6692	1.4427e-07	16.317	152.454	-15.657	5.844	-99.159	16.715	38.472	-98.960	-93.836	20.649	-7.857	-94.528	-91.517	-90.186	-86.249	-8.886	-87.643	-8191	255	
9550.251	1	1	0	0	0.091278	0.073194	0.13725	0.19078	0.14422	0.2011	0.2687	0.1052	0.076903	0.10602	0.036676	0.060348	0.042826	0.18781	0.17562	0.068954	-1.8208	-2.1167	-2.2938	-2.3833	-2.275	-2.5	-2.3604	-2.2896	-2.6562	-2.2208	-2.3563	-2.4813	-2.1688	-2.4542	-2.175	-2.125	-69.482	-17.302	10.350	23.484	54.344	104.305	199.163	-64.320	-0.421	-64.641	67.817	-105.372	174.322	-48.977	-82.455	210.179	0.00012571	5.8325e-05	2.5861e-05	168.65	6.5449e-07	1.2174e-06	236.29	45.22	3.7544e-07	1.2968e-06	86.83	32.586	14.135	6.8187	1.2853e-06	16.696	2.5323e-05	1.3324e-05	3.5745e-06	161.43	1.4814e-07	1.2339e-07	228.99	44.186	1.4041e-07	1.4569e-07	83.673	31.771	13.77	6.6308	1.4355e-07	16.203	142.002	-31.238	-35.146	-99.021	65.647	50.920	-99.557	-94.045	-36.037	4.725	-94.670	-90.902	-89.974	-86.296	27.348	-88.038	-8191	255	
9550.348	1	1	0	0	0.17736	0.070493	0.079608	0.22976	0.16236	0.24529	0.17635	0.14251	0.079131	0.069377	0.18043	0.074418	0.098483	0.04943	0.051466	0.32014	-2.1562	-2.1042	-2.3042	-2.6667	-2.3917	-2.6083	-2.3	-2.2667	-2.5875	-2.375	-2.4938	-2.4938	-2.3271	-2.5083	-2.3375	-2.2521	192.585	-103.682	225.005	72.209	101.749	162.126	161.069	137.824	64.284	226.014	-95.335	126.181	155.279	191.604	29.827	33.475	0.00014475	9.7783e-05	2.8038e-05	166.16	5.5894e-07	1.4099e-06	234.84	45.399	1.3065e-06	3.5984e-07	85.084	32.245	13.965	6.7759	6.6052e-07	16.555	2.417e-05	1.2236e-05	3.1743e-06	160.37	1.3128e-07	1.1104e-07	227.56	44.012	1.4112e-07	1.3029e-07	82.705	31.407	13.662	6.6029	1.4188e-07	16.097	146.328	-17.748	-38.296	-98.762	85.324	3.757	-98.938	-93.420	10.729	-39.806	-95.086	-91.025	-90.278	-86.166	13.957	-87.931	-8191	255	
9550.468	1	1	0	0	0.10391	0.16569	0.039838	0.30863	0.13878	0.11954	0.043133	0.093679	0.28569	0.15497	0.14039	0.14715	0.073455	0.18921	0.12947	0.19115	-1.9625	-2.2667	-2.3521	-2.5312	-2.0938	-2.3333	-2.4271	-2.2042	-2.5896	-2.3646	-2.4583	-2.475	-2.1979	-2.4792	-2.5208	-2.3625	28.828	96.159	116.128	137.447	-22.146	227.713	203.590	17.958	156.915	195.744	199.267	126.140	70.955	165.304	5.789	126.701	0.00015588	0.00010736	3.5247e-05	165.04	1.1477e-06	1.6476e-06	232.75	45.003	6.6266e-07	1.0067e-06	85.146	32.079	14.049	6.747	5.8351e-07	16.471	2.3764e-05	1.2653e-05	3.5817e-06	159.5	1.5209e-07	1.2713e-07	225.69	43.759	1.4056e-07	1.1974e-07	82.166	31.188	13.503	6.5144	1.4781e-07	16.014	144.243	2.232	16.256	-98.839	23.324	1.422	-98.872	-93.782	-35.235	24.998	-94.645	-90.919	-90.650	-85.924	-12.502	-88.144	-8191	255	
9550.563	1	1	0	0	0.17783	0.20905	0.12089	0.17747	0.35723	0.12319	0.095487	0.27668	0.11875	0.17478	0.36519	0.10576	0.027552	0.073292	0.18508	0.19167	-1.9667	-2.2354	-2.2812	-2.6208	-2.1479	-2.4729	-2.4062	-2.1667	-2.4729	-2.3792	-2.425	-2.6188	-2.3042	-2.3	-2.4208	-2.2604	186.709	-28.570	45.470	132.361	206.180	148.767	104.861	224.896	170.674	-94.715	216.707	-63.662	-73.317	241.911	-64.683	-40.220	0.00015754	0.00012019	5.0433e-05	163.65	1.1714e-06	1.1068e-06	232.75	45.027	1.0564e-06	1.3448e-06	84.891	32.095	14.044	6.7367	1.1016e-06	16.32	2.417e-05	1.0674e-05	3.2088e-06	159.11	1.4518e-07	1.2131e-07	225.65	43.587	1.2776e-07	1.3051e-07	82.288	31.251	13.593	6.5379	1.3371e-07	15.936	143.067	-62.136	33.526	-98.746	10.712	41.071	-98.850	-93.897	-13.930	7.627	-94.839	-91.307	-90.286	-86.456	25.105	-87.896	-8191	255	
9550.659	1	1	0	0	0.11997	0.12546	0.039891	0.2591	0.046419	0.09064	0.22688	0.36474	0.11391	0.17648	0.1314	0.14589	0.22782	0.35142	0.08637	0.017835	-1.9771	-2.3542	-2.1083	-2.6333	-2.4271	-2.575	-2.6396	-2.1229	-2.5917	-2.45	-2.2938	-2.6521	-2.4125	-2.4375	-2.5563	-2.1521	-52.891	9.285	-21.686	188.865	-100.046	162.484	212.191	124.911	57.815	160.089	84.962	-94.856	30.782	-105.786	203.147	-87.333	0.0001403	0.00010804	4.134e-05	165.74	5.8649e-07	8.0953e-07	232.85	45.116	1.06e-06	7.1127e-07	85.231	32.061	14.05	6.7072	6.681e-07	16.295	2.463e-05	1.1807e-05	3.5454e-06	159.35	1.4229e-07	1.1693e-07	225.49	43.52	1.37e-07	1.1967e-07	81.911	31.139	13.562	6.5323	1.1838e-07	15.916	152.393	-37.087	-19.588	-99.203	17.539	6.414	-98.788	-93.521	-2.088	22.250	-94.980	-91.189	-90.510	-85.957	20.716	-88.050	-8191	255	
9550.755	1	1	0	0	0.095967	0.031958	0.13119	0.093982	0.14284	0.098264	0.11962	0.29189	0.04569	0.037913	0.083495	0.082771	0.049732	0.28776	0.2652	0.084069	-1.9854	-2.325	-2.2083	-2.5625	-2.3667	-2.2479	-2.4292	-2.2604	-2.6271	-2.5292	-2.3438	-2.6021	-2.3021	-2.3479	-2.4813	-2.2812	236.246	114.500	124.692	181.622	54.175	-39.258	-104.851	76.875	117.730	66.373	80.857	89.190	144.693	222.260	244.785	-88.871	0.00015918	0.00010714	3.4375e-05	165.45	1.0468e-06	9.022e-07	229.91	44.578	7.6517e-07	5.9994e-07	84.725	32.012	13.968	6.6787	1.1506e-06	16.481	2.3979e-05	1.0081e-05	3.2434e-06	159.38	1.4363e-07	1.2174e-07	224.2	43.328	1.3131e-07	1.235e-07	81.489	31.063	13.503	6.5194	1.165e-07	15.973	149.944	-39.171	12.513	-98.648	41.260	14.755	-98.693	-94.048	-3.331	28.285	-94.970	-91.174	-90.451	-86.672	14.333	-87.808	-8191	255	
9550.851	1	1	0	0	0.094596	0.19901	0.35321	0.16265	0.12634	0.19448	0.10653	0.13862	0.17153	0.28905	0.18748	0.23855	0.10924	0.19402	0.15056	0.21777	-1.9792	-2.4583	-2.2313	-2.3896	-2.4333	-2.2708	-2.6208	-2.4125	-2.3458	-2.7021	-2.1896	-2.4813	-2.3646	-2.2667	-2.5375	-2.2792	57.542	135.583	-75.185	-44.193	199.738	-75.576	104.778	-85.103	107.136	43.535	-23.929	-63.645	140.124	156.870	134.833	13.539	0.00014597	8.1169e-05	3.3173e-05	166.43	1.079e-06	8.2599e-07	232.93	44.997	1.1134e-06	1.3248e-06	84.819	31.947	14.019	6.7044	7.7179e-07	16.472	2.512e-05	1.1038e-05	3.1324e-06	159.9	1.4003e-07	1.2289e-07	225.79	43.521	1.2776e-07	1.1244e-07	81.779	31.009	13.475	6.5134	1.3545e-07	16.038	145.474	-44.649	-54.991	-99.121	25.012	65.885	-98.836	-93.555	-7.751	47.307	-95.136	-90.956	-89.892	-86.204	40.523	-88.245	-8191	255	
9550.947	1	1	0	0	0.043953	0.26368	0.18057	0.26272	0.1063	0.14051	0.26348	0.13109	0.16961	0.33407	0.1885	0.42039	0.12573	0.065175	0.0987	0.15642	-1.925	-2.6479	-2.2021	-2.5333	-2.3229	-2.2854	-2.6875	-2.3979	-2.3667	-2.6479	-2.2333	-2.3583	-2.3063	-2.0187	-2.4271	-2.375	1.068	33.394	44.280	36.357	192.448	38.813	-87.532	120.122	87.612	90.326	-9.197	-90.392	46.304	189.460	27.399	191.791	0.00012918	9.7391e-05	3.4844e-05	165.92	1.4119e-06	7.1534e-07	232.65	44.966	1.1402e-06	5.9217e-07	84.935	32.433	13.933	6.7216	1.1895e-06	16.342	2.4887e-05	1.0667e-05	3.4326e-06	160.15	1.2021e-07	1.3043e-07	225.46	43.432	1.289e-07	1.196e-07	82.238	31.383	13.505	6.5259	1.1903e-07	15.881	139.278	-39.501	-11.932	-99.320	10.677	15.819	-99.422	-93.919	21.816	89.508	-94.958	-91.400	-90.042	-86.010	2.611	-87.807	-8191	255	
9551.043	1	1	0	0	0.2194	0.4847	0.13132	0.058953	0.10748	0.11602	0.27169	0.078635	0.18435	0.065616	0.12876	0.05365	0.16094	0.15028	0.20655	0.32497	-1.9083	-2.3958	-2.2417	-2.2896	-2.5875	-2.3729	-2.6063	-2.4625	-2.2438	-2.6958	-2.3583	-2.1542	-2.4833	-1.9292	-2.5125	-2.2917	39.290	216.489	241.082	118.233	5.138	-66.736	19.544	107.321	-24.682	93.313	67.659	-11.490	120.547	-31.012	-38.090	48.213	0.00012409	7.3236e-05	3.2782e-05	164.55	5.4539e-07	8.6744e-07	230.3	44.39	1.2276e-06	1.2642e-06	83.152	31.764	14.128	6.6327	1.4557e-06	16.229	2.509e-05	1.0797e-05	3.127e-06	158.9	1.2642e-07	1.2095e-07	222.92	42.988	1.4681e-07	1.0356e-07	80.619	30.802	13.395	6.4386	1.4145e-07	15.758	149.191	-13.820	-2.923	-98.758	-18.053	7.932	-98.867	-93.629	-8.912	6.162	-94.548	-91.449	-89.993	-85.937	-6.150	-87.843	-8191	255	
9551.164	1	1	0	0	0.14226	0.14453	0.3228	0.30866	0.2135	0.19957	0.014868	0.084693	0.1603	0.20221	0.22584	0.1166	0.081372	0.24394	0.087612	0.19724	-1.775	-2.5687	-2.1813	-2.3458	-2.6208	-2.2479	-2.3937	-2.4146	-2.1813	-2.675	-2.2729	-2.1875	-2.4479	-2.3229	-2.6646	-2.325	184.866	-18.232	-96.119	-52.209	109.439	123.486	135.118	-72.105	-93.279	1.746	81.594	-35.604	122.951	244.498	208.879	199.195	0.0001327	0.00013349	3.0343e-05	164.49	1.3659e-06	9.1634e-07	229.94	43.959	4.956e-07	7.9207e-07	82.937	31.657	13.733	6.6047	1.1365e-06	16.212	2.3919e-05	1.0446e-05	3.1943e-06	158.54	1.3044e-07	1.1499e-07	222.74	42.851	1.3686e-07	1.1367e-07	80.491	30.68	13.25	6.4129	1.2019e-07	15.763	151.185	-62.946	-26.550	-98.259	10.353	43.787	-98.809	-93.700	-28.290	33.300	-94.907	-91.118	-90.379	-85.694	-21.675	-87.838	-8191	255	
9551.260	1	1	0	0	0.13415	0.25173	0.039397	0.26005	0.14458	0.085957	0.12521	0.21328	0.3756	0.087913	0.15175	0.13593	0.30997	0.062145	0.13789	0.024378	-1.7563	-2.5583	-2.3458	-2.3375	-2.5812	-2.2292	-2.4479	-2.4396	-2.2667	-2.4625	-2.4562	-2.3146	-2.4562	-2.3333	-2.4313	-2.5312	-14.693	77.556	132.758	232.372	173.942	127.257	-19.069	31.985	201.883	29.571	-99.219	202.972	179.296	163.141	41.627	138.168	0.00012046	0.00010226	5.1364e-05	163.31	5.8377e-07	1.9486e-06	228.96	44.312	2.8271e-07	6.3825e-07	83.462	31.469	13.553	6.6045	1.6777e-06	16.195	2.4732e-05	1.0367e-05	2.9342e-06	158.19	1.212e-07	1.3359e-07	221.78	42.936	1.4809e-07	1.3138e-07	80.439	30.589	13.246	6.3957	1.3451e-07	15.73	140.502	-50.982	2.804	-98.988	54.957	24.305	-98.734	-94.045	-28.150	49.785	-94.568	-90.819	-89.692	-86.094	33.818	-88.138	-8191	255	
9551.332	1	1	0	0	0.29045	0.12113	0.080611	0.20721	0.070641	0.21485	0.17461	0.17113	0.088688	0.12319	0.060527	0.044762	0.074299	0.24469	0.22495	0.1364	-1.7938	-2.4125	-2.3167	-2.2146	-2.5875	-2.1979	-2.1896	-2.3146	-1.9688	-2.4792	-2.2979	-2.1875	-2.3771	-2.2021	-2.4583	-2.4958	165.117	45.162	199.949	228.926	32.294	209.473	203.855	-24.207	237.348	103.046	-99.007	-21.010	215.054	-98.380	62.010	-95.949	0.00014205	7.2766e-05	4.2452e-05	163.74	4.8736e-07	1.4778e-06	230.74	43.677	3.8055e-07	1.1038e-06	81.64	30.831	13.644	6.4871	7.3549e-07	16.074	2.6512e-05	1.0074e-05	3.087e-06	158.36	1.1993e-07	1.2806e-07	221.82	42.36	1.4603e-07	1.0731e-07	79.164	30.086	13.054	6.3279	1.2352e-07	15.587	145.134	-68.160	-25.812	-98.886	15.537	23.101	-98.846	-93.763	-86.426	1.399	-95.186	-90.677	-90.762	-85.945	-37.119	-88.309	-8191	255	
9551.428	1	1	0	0	0.23093	0.17674	0.19108	0.24353	0.14457	0.045332	0.19768	0.14439	0.24785	0.0062739	0.055127	0.081788	0.32659	0.092774	0.31622	0.07491	-1.7583	-2.5458	-2.3479	-2.1208	-2.5167	-2.3688	-2.4562	-2.7604	-2.2333	-2.4625	-2.4104	-2.2833	-2.6146	-2.4604	-2.4854	-2.7146	190.120	-64.233	68.965	23.173	-36.372	24.621	-21.721	184.088	150.243	-55.896	140.950	110.872	-87.143	72.819	-79.569	-17.998	0.00014279	4.5621e-05	3.3983e-05	162.36	6.3684e-07	1.3279e-06	225.19	43.191	3.9381e-07	9.377e-07	81.559	31.033	13.404	6.5394	7.8204e-07	15.97	2.6524e-05	1.1084e-05	2.9578e-06	156.39	1.1739e-07	1.1003e-07	218.46	42.058	1.2947e-07	1.2834e-07	78.69	30.065	13.012	6.3557	1.3263e-07	15.555	143.058	11.241	-17.450	-98.796	-15.341	19.175	-99.099	-93.129	-7.521	10.171	-94.529	-91.211	-90.336	-86.237	7.800	-88.258	-8191	255	
9551.549	1	1	0	0	0.17046	0.11155	0.20745	0.031023	0.12888	0.15652	0.21467	0.098427	0.18325	0.12792	0.073247	0.093236	0.10661	0.19655	0.20245	0.19691	-1.8521	-2.3646	-2.4604	-2.4021	-2.5604	-2.3792	-2.3917	-2.5062	-2.2021	-2.2292	-2.6667	-2.3917	-2.5354	-2.3167	-2.3604	-2.6292	-99.248	152.941	217.297	52.341	103.355	-35.106	176.396	-29.496	-84.562	127.323	87.572	213.806	-42.040	235.791	66.602	218.507	0.00014167	9.5954e-05	4.2291e-05	162.3	1.6376e-06	1.381e-06	227.77	44.364	3.8801e-07	1.2278e-06	82.406	31.759	13.642	6.6201	9.9492e-07	16.209	2.4373e-05	1.025e-05	2.5503e-06	157.1	1.2169e-07	1.1916e-07	221.04	42.666	1.2378e-07	1.0876e-07	80.291	30.777	13.281	6.4299	1.455e-07	15.747	147.519	-43.383	29.618	-98.870	0.978	0.046	-98.786	-93.331	-16.706	62.303	-94.873	-90.836	-89.664	-85.673	14.626	-88.126	-8191	255	
9551.645	1	1	0	0	0.39825	0.056019	0.16586	0.40522	0.17173	0.14763	0.15291	0.2976	0.20115	0.121	0.014522	0.30782	0.29325	0.033774	0.17931	0.12144	-1.8813	-2.2687	-2.4417	-2.0708	-2.4146	-2.45	-2.0854	-2.4896	-2.375	-2.4979	-2.4854	-2.0917	-2.5729	-2.6375	-2.2146	-2.5312	104.244	111.444	238.572	-98.547	87.284	-41.514	162.542	-102.114	28.069	172.640	159.818	-67.417	172.951	197.411	-22.121	99.146	0.00014298	0.00017021	3.0107e-05	163.55	1.4451e-06	1.5239e-06	229.7	44.276	7.0788e-07	5.295e-07	83.954	31.986	13.836	6.6582	6.683e-07	16.51	2.4266e-05	1.0752e-05	2.8086e-06	158.24	1.1985e-07	1.0551e-07	223.77	43.253	1.3885e-07	1.1512e-07	81.177	31.131	13.383	6.4852	1.3841e-07	15.961	149.050	-38.810	-12.689	-99.580	-2.628	2.591	-99.002	-93.990	-30.961	-6.165	-94.894	-91.316	-90.319	-86.354	-11.673	-88.248	-8191	255	
9551.739	1	1	0	0	0.21976	0.38132	0.11032	0.11513	0.11961	0.17047	0.21025	0.14258	0.036661	0.32378	0.15037	0.24999	0.15993	0.13326	0.3077	0.058849	-1.9625	-2.1854	-2.6042	-2.3125	-2.5875	-2.2896	-2.3083	-2.45	-2.3208	-2.1937	-2.5062	-2.1729	-2.5083	-2.6437	-2.1146	-2.5542	120.357	103.060	-91.159	30.989	-57.682	65.895	247.684	237.323	85.379	169.477	-98.016	73.434	236.268	240.455	-42.176	172.943	0.00015839	0.0001451	4.6207e-05	164.07	9.0218e-07	8.9322e-07	232.51	44.921	4.4255e-07	8.0645e-07	85.16	32.196	13.853	6.7351	1.4031e-06	16.467	2.5891e-05	1.0823e-05	2.6467e-06	158.98	1.2246e-07	1.1183e-07	224.96	43.54	1.2356e-07	1.3188e-07	82.217	31.236	13.416	6.5228	1.301e-07	15.964	148.194	-70.375	3.668	-98.998	16.168	25.049	-98.894	-93.891	21.203	62.250	-94.709	-91.276	-91.034	-86.108	39.468	-88.272	-8191	255	
9551.837	1	1	0	0	0.079323	0.11868	0.030771	0.021201	0.20623	0.22319	0.2393	0.1434	0.30531	0.17197	0.29832	0.29121	0.087051	0.034955	0.13428	0.034667	-1.9083	-2.2542	-2.4896	-2.3479	-2.5667	-2.4604	-2.1625	-2.4354	-2.4229	-2.275	-2.6375	-2.4042	-2.2646	-2.4458	-2.3021	-2.3812	-53.669	-14.273	34.106	-55.471	120.266	24.833	222.131	72.027	125.841	101.656	-12.275	-90.442	129.613	-98.840	81.891	64.549	0.00013685	0.00012125	1.1566e-05	164.68	1.2687e-06	1.0204e-06	232.9	44.227	9.6383e-07	9.308e-07	84.215	31.921	13.765	6.6856	9.6841e-07	16.466	2.3399e-05	1.1149e-05	2.8887e-06	158.29	1.0299e-07	9.2797e-08	223.87	43.203	1.2634e-07	1.1519e-07	81.066	31.064	13.37	6.4773	1.327e-07	15.952	138.656	-60.750	8.458	-99.050	12.408	-7.540	-99.140	-93.724	-6.633	23.018	-95.050	-90.427	-90.340	-86.573	-19.615	-87.972	-8191	255	
9551.956	1	1	0	0	0.11389	0.30712	0.22735	0.034382	0.044089	0.13588	0.18915	0.080091	0.17731	0.14508	0.28578	0.21371	0.063471	0.24515	0.30148	0.091266	-1.9875	-2.1521	-2.4042	-2.2333	-2.3396	-2.5542	-2.4208	-2.5458	-2.6083	-2.2188	-2.5187	-2.4083	-2.3417	-2.575	-2.4292	-2.5708	158.074	189.666	-20.919	103.290	-32.210	163.251	198.729	184.172	-60.569	142.636	-43.975	215.795	-97.566	219.426	35.503	-106.248	0.00013388	6.617e-05	5.1106e-05	166.74	4.338e-07	9.9563e-07	231.42	44.967	5.2429e-07	8.0064e-07	84.103	31.929	13.817	6.6519	7.1094e-07	16.44	2.334e-05	1.1722e-05	2.5267e-06	159.39	1.3072e-07	9.3587e-08	224.64	43.473	1.2157e-07	1.2299e-07	81.4	31.049	13.403	6.485	1.2974e-07	16.008	150.257	-25.489	2.088	-98.626	-6.680	60.347	-98.881	-94.042	-8.740	-36.316	-94.562	-90.956	-90.164	-86.099	-22.748	-88.005	-8191	255	
9552.028	1	1	0	0	0.20511	0.14374	0.06695	0.13831	0.19298	0.14602	0.48947	0.10156	0.090825	0.12075	0.22668	0.14241	0.24721	0.20426	0.27436	0.096925	-1.7979	-2.2562	-2.4958	-2.4542	-2.0896	-2.7292	-2.1479	-2.3792	-2.4396	-2.2	-2.5687	-2.4437	-2.3104	-2.5625	-2.3271	-2.4979	151.761	54.998	-49.069	193.338	69.369	107.602	105.083	-35.164	-30.422	42.313	205.658	-32.600	220.151	-82.923	168.932	-28.574	0.00014578	0.00014414	3.94e-05	164.42	1.4203e-06	5.8398e-07	230.83	44.568	1.5933e-06	6.6746e-07	85.323	32.095	14.023	6.742	8.1923e-07	16.56	2.5281e-05	1.1429e-05	2.6267e-06	158.96	1.3516e-07	9.409e-08	224.36	43.47	1.2228e-07	1.0739e-07	81.965	31.265	13.557	6.5622	1.2605e-07	16.173	142.741	-33.779	-30.629	-98.805	24.066	34.534	-99.239	-93.833	-35.020	23.527	-94.787	-90.855	-90.024	-85.729	-18.789	-88.159	-8191	255	
9552.148	1	1	0	0	0.031146	0.21986	0.33989	0.10681	0.086375	0.10701	0.046659	0.097723	0.044565	0.19923	0.11529	0.16422	0.030058	0.34374	0.045794	0.38896	-2.3083	-2.2292	-2.3812	-2.2687	-2.2292	-2.5708	-2.2958	-2.2792	-2.6312	-2.1396	-2.4875	-2.4896	-2.3688	-2.6083	-2.4458	-2.3917	-80.420	137.051	7.917	5.244	59.386	-104.695	5.170	135.469	86.639	14.418	200.731	206.391	-84.288	174.138	220.267	112.401	0.00012216	0.00015397	4.5535e-05	164.39	8.2973e-07	1.9805e-06	231.81	44.782	1.4497e-06	9.8733e-07	84.459	32.423	13.983	6.7173	1.3481e-06	16.482	2.2724e-05	1.0283e-05	3.267e-06	159.51	1.2874e-07	9.7753e-08	225.48	43.501	1.21e-07	1.2943e-07	81.717	31.402	13.536	6.5369	1.2041e-07	16.03	151.891	-31.956	-48.880	-98.806	63.067	-2.434	-99.259	-94.284	-26.037	28.961	-94.507	-90.804	-90.225	-86.380	-7.644	-87.953	-8191	255	
9552.244	1	1	0	0	0.15769	0.30777	0.052075	0.36468	0.049948	0.13219	0.092651	0.1224	0.057975	0.13456	0.14195	0.054179	0.20095	0.40694	0.18768	0.21609	-2.0146	-2.2313	-2.4813	-2.5312	-2.2188	-2.7208	-2.2208	-2.1583	-2.6083	-2.2708	-2.4417	-2.4938	-2.3125	-2.4354	-2.3854	-2.3812	75.084	125.911	82.892	141.188	110.981	199.059	167.628	-96.081	133.738	85.247	212.465	98.717	52.424	-110.604	-7.818	168.093	0.00014733	0.00012753	1.6979e-05	163.43	1.1014e-06	6.1803e-07	231.65	44.723	8.817e-07	8.3032e-07	83.896	32.188	13.983	6.7522	7.2052e-07	16.68	2.3704e-05	1.1885e-05	2.8123e-06	158.44	1.4412e-07	1.0185e-07	224.6	43.497	1.3565e-07	1.1324e-07	81.453	31.236	13.536	6.5402	1.2576e-07	16.082	149.450	-38.490	-29.807	-99.361	57.047	15.570	-98.942	-93.939	-24.785	23.286	-94.798	-91.008	-90.958	-86.350	21.288	-88.043	-8191	255	
9552.341	1	1	0	0	0.11286	0.20744	0.096619	0.071475	0.39111	0.16934	0.091676	0.32662	0.20038	0.31251	0.1826	0.13146	0.059645	0.29865	0.25638	0.1548	-2.0854	-2.275	-2.3104	-2.5854	-2.3083	-2.5938	-2.3833	-2.375	-2.3104	-2.375	-2.4521	-2.5333	-2.2146	-2.3479	-2.3125	-2.2479	111.951	209.803	222.197	195.414	233.791	242.834	56.180	-34.305	-19.139	-44.536	7.489	-26.139	141.488	-61.833	97.000	121.381	0.0001574	0.0001704	3.8266e-05	166.08	7.2914e-07	1.3052e-06	234.27	45.378	8.7505e-07	8.5654e-07	86.519	33.268	14.131	6.7913	5.5441e-07	16.852	2.3758e-05	1.0283e-05	3.1506e-06	159.9	1.4059e-07	1.0256e-07	226.51	43.907	1.3217e-07	1.1541e-07	83.347	31.974	13.754	6.6485	1.319e-07	16.354	151.256	-14.759	-24.450	-99.138	47.993	42.173	-98.869	-93.838	24.282	40.984	-94.994	-91.062	-90.263	-86.352	0.902	-87.759	-8191	255	
9552.437	1	1	0	0	0.058343	0.17067	0.14774	0.15836	0.26152	0.28099	0.15571	0.23098	0.11792	0.21968	0.069953	0.17189	0.21071	0.22218	0.25742	0.079616	-2.1063	-2.2583	-2.1312	-2.4792	-1.9562	-2.6021	-2.4458	-2.375	-2.6083	-2.375	-2.5125	-2.6813	-2.3875	-2.5479	-2.4146	-2.2667	72.828	49.779	-37.812	127.819	-29.854	-35.791	210.979	122.735	-40.744	-72.131	215.538	175.976	6.022	45.978	180.222	139.889	0.00013215	0.00012955	4.088e-05	166.32	9.6786e-07	1.3852e-06	237.68	46.03	1.0362e-06	8.4087e-08	88.326	33.353	14.683	6.9118	5.394e-07	17.122	2.411e-05	1.1768e-05	2.9596e-06	160.83	1.4088e-07	1.0149e-07	230.45	44.734	1.2776e-07	1.1013e-07	85.437	32.464	14.003	6.7306	1.2127e-07	16.577	143.969	-37.451	-22.871	-98.545	1.627	33.882	-99.300	-93.755	16.319	4.039	-95.158	-91.094	-90.347	-86.553	-61.984	-88.054	-8191	255	
9552.557	1	1	0	0	0.10745	0.081835	0.26769	0.23751	0.30376	0.40363	0.10125	0.083061	0.19223	0.19828	0.14074	0.14597	0.042523	0.251	0.10653	0.37572	-2.1937	-2.3833	-2.2104	-2.5708	-2.3208	-2.4083	-2.5	-2.4208	-2.7542	-2.6312	-2.3833	-2.5708	-2.4354	-2.3771	-2.6188	-2.2396	117.712	-5.577	212.332	177.639	9.922	198.256	147.284	61.772	-95.620	-72.921	-91.922	163.234	91.828	-6.344	105.428	216.734	0.00015704	0.00014209	5.5443e-05	165.8	3.5162e-07	1.375e-06	239.31	46.197	1.0929e-06	6.9001e-07	87.702	33.148	14.48	6.8939	5.9348e-07	16.89	2.5072e-05	1.1103e-05	3.1324e-06	161.53	1.3481e-07	1.221e-07	231.84	44.933	1.3999e-07	1.0941e-07	85.095	32.305	13.925	6.6866	1.3668e-07	16.356	147.654	-8.224	-12.133	-98.497	-50.534	33.601	-98.716	-93.606	5.109	-27.404	-95.143	-91.124	-90.492	-86.313	36.723	-87.866	-8191	255	
9552.629	1	1	0	0	0.010547	0.1904	0.26579	0.27781	0.20648	0.20409	0.29955	0.14623	0.27314	0.10894	0.12634	0.029345	0.12601	0.28886	0.059298	0.43846	-2.0417	-2.3042	-2.2188	-2.7542	-2.2458	-2.3812	-2.5646	-2.1708	-2.4917	-2.3104	-2.2792	-2.4854	-2.3208	-2.2708	-2.7042	-2.1437	-101.589	190.622	227.646	47.706	82.579	109.279	144.668	237.133	39.646	236.562	196.437	230.587	210.473	81.404	37.827	100.066	0.00013108	0.00017279	3.2749e-05	167.28	1.0305e-06	1.7532e-06	237.67	46.563	4.5966e-07	7.8373e-07	86.58	33.297	14.36	6.9356	1.3216e-06	16.961	2.3591e-05	1.0869e-05	3.3052e-06	161.57	1.25e-07	1.2375e-07	230.05	44.897	1.3686e-07	1.0731e-07	84.374	32.309	13.873	6.7209	1.3451e-07	16.497	140.359	-32.774	15.530	-99.015	3.851	24.035	-99.318	-93.618	-10.993	-31.214	-94.323	-91.350	-89.731	-86.713	-12.584	-88.168	-8191	255	
9552.725	1	1	0	0	0.28307	0.1748	0.18138	0.15285	0.13702	0.16251	0.21191	0.28776	0.17366	0.11427	0.045693	0.1002	0.039778	0.14076	0.16545	0.17807	-2.1729	-2.2604	-2.2625	-2.5521	-2.4083	-2.5208	-2.6208	-2.2292	-2.5062	-2.5083	-2.3625	-2.4958	-2.3771	-2.2958	-2.6583	-2.2708	-90.794	7.911	33.174	21.380	55.558	165.424	89.364	57.554	114.429	137.332	134.058	24.746	112.148	192.775	0.320	25.598	0.00013851	9.5073e-05	4.46e-05	168.61	1.0788e-06	1.3385e-06	240.02	46.804	7.2512e-07	7.1761e-07	89.118	33.798	14.501	6.9632	9.7223e-07	17.144	2.5066e-05	9.6902e-06	3.0397e-06	162.29	1.3502e-07	1.1485e-07	232.05	45.504	1.3082e-07	1.1057e-07	86.119	32.758	14.057	6.7611	1.319e-07	16.696	147.544	11.700	-15.569	-99.047	43.366	27.483	-99.136	-93.872	-13.468	49.422	-94.454	-91.200	-90.362	-86.441	22.254	-87.984	-8191	255	
9552.820	1	1	0	0	0.33632	0.12089	0.057133	0.14037	0.15805	0.2089	0.061762	0.1264	0.19224	0.15185	0.19395	0.24387	0.26024	0.26234	0.13981	0.29943	-2.0833	-2.5938	-2.1708	-2.4958	-2.425	-2.3125	-2.7208	-2.4729	-2.2625	-2.4813	-2.3021	-2.5021	-2.4313	-2.3292	-2.6354	-2.2729	12.564	-23.969	74.370	-68.353	142.327	205.080	141.728	-18.326	-27.037	59.451	53.639	222.842	222.206	219.278	-58.789	150.214	0.00016646	0.00013309	5.2738e-05	168.24	1.2044e-06	9.9794e-07	241.97	47.334	1.1707e-06	1.436e-06	89.438	34.153	14.625	7.0343	6.7363e-07	17.378	2.5837e-05	1.0452e-05	3.036e-06	162.91	1.298e-07	1.2282e-07	233.97	45.662	1.2897e-07	1.0912e-07	86.68	33.095	14.184	6.825	1.2793e-07	16.846	143.300	-36.127	-18.061	-98.658	37.772	4.624	-98.565	-94.200	-2.939	25.809	-95.262	-90.833	-89.727	-86.176	43.142	-88.418	-8191	255	
9552.940	1	1	0	0	0.17789	0.254	0.13438	0.10727	0.24241	0.038294	0.25374	0.16584	0.099441	0.1949	0.26586	0.16432	0.073782	0.12714	0.21981	0.13355	-1.9833	-2.4875	-2.2729	-2.5062	-2.4229	-2.3125	-2.8	-2.3625	-2.3521	-2.5771	-2.3187	-2.5979	-2.5062	-2.3812	-2.6063	-2.4292	99.648	176.575	-30.568	76.510	125.678	-70.554	-55.646	-39.196	-102.676	-47.057	188.706	-108.456	205.779	-21.153	-33.155	-87.881	0.00016536	0.00012807	4.5133e-05	168.57	9.7712e-07	8.0218e-07	244.12	47.133	1.4065e-06	9.6572e-07	88.922	33.567	14.431	6.8604	7.8573e-07	17.016	2.4905e-05	1.0504e-05	2.9451e-06	163.12	1.2592e-07	1.1104e-07	235.42	45.768	1.2755e-07	1.1866e-07	86.303	32.718	14.043	6.7351	1.1549e-07	16.566	147.484	-26.681	-16.874	-99.079	36.198	35.908	-98.656	-93.940	-4.628	59.432	-95.167	-90.751	-90.335	-86.674	13.416	-88.173	-8191	255	
9553.036	1	1	0	0	0.18578	0.21507	0.081786	0.29056	0.27209	0.11331	0.20551	0.035794	0.1043	0.079	0.20587	0.16491	0.12207	0.12835	0.19401	0.1183	-2.1208	-2.6042	-2.3146	-2.5333	-2.5625	-2.4333	-2.6396	-2.55	-2.3583	-2.6063	-2.475	-2.4771	-2.5396	-2.3021	-2.6813	-2.4958	-54.155	65.157	91.878	203.245	120.278	38.892	-25.394	-26.000	207.008	23.532	194.294	96.025	117.703	121.567	-31.372	-75.908	0.00016479	8.877e-05	4.1057e-05	167.86	1.5059e-06	1.1914e-06	239.65	46.743	7.3982e-07	1.587e-06	88.791	33.611	14.51	7.0199	9.4494e-07	16.962	2.555e-05	8.6677e-06	2.6758e-06	162.9	1.2599e-07	1.2023e-07	231.97	45.436	1.2968e-07	9.6763e-08	85.683	32.58	14.085	6.7801	1.1274e-07	16.628	147.944	-17.300	-10.692	-99.069	-17.205	18.575	-98.976	-93.681	18.372	33.004	-95.242	-91.118	-90.563	-86.193	15.699	-88.058	-8191	255	
9553.132	1	1	0	0	0.07494	0.1585	0.065056	0.25164	0.14189	0.14416	0.13939	0.17927	0.063308	0.04996	0.25772	0.084358	0.086278	0.043022	0.24826	0.15402	-1.8917	-2.5417	-2.4458	-2.5542	-2.5292	-2.2687	-2.5083	-2.4208	-2.2521	-2.4938	-2.2104	-2.4104	-2.5438	-2.2792	-2.5958	-2.3042	-102.109	-27.917	130.303	74.667	-109.649	50.672	46.980	172.248	177.008	174.638	28.834	110.987	-104.748	110.801	-25.517	129.662	0.00013647	1.8936e-05	4.6938e-05	169.93	9.002e-07	1.1714e-06	244.28	47.194	1.4962e-06	1.5232e-06	90.509	34.05	14.83	7.0357	8.5849e-07	17.196	2.5891e-05	1.025e-05	3.0269e-06	163.3	1.1506e-07	1.1039e-07	235.63	45.848	1.3778e-07	1.0464e-07	87.189	33.039	14.241	6.8016	1.1701e-07	16.693	144.141	-49.145	-38.095	-99.136	7.635	47.153	-98.862	-93.750	17.311	28.918	-94.914	-91.055	-90.468	-86.000	-3.504	-88.463	-8191	255	
9553.229	1	1	0	0	0.095637	0.12196	0.055408	0.21412	0.096568	0.1416	0.51594	0.15773	0.092905	0.1058	0.10146	0.14515	0.26302	0.21305	0.11295	0.31061	-1.7271	-2.3521	-2.3312	-2.3375	-2.5812	-2.2771	-2.5042	-2.4354	-2.4583	-2.4437	-2.3104	-2.1979	-2.6042	-2.25	-2.5833	-2.4833	42.829	114.355	-62.414	72.050	25.590	204.238	86.284	137.892	-104.169	-6.788	3.863	211.226	211.725	-37.855	-97.929	134.900	0.00014367	9.3344e-05	2.3223e-05	173.01	1.0948e-06	2.03e-06	247.71	47.644	1.3774e-06	1.2502e-06	91.114	34.217	14.703	6.9832	1.2784e-06	17.3	2.4959e-05	9.6771e-06	2.8668e-06	165.53	1.1231e-07	1.0917e-07	238.75	46.257	1.2292e-07	9.8497e-08	87.835	33.122	14.269	6.7668	1.1505e-07	16.741	147.106	-44.970	-7.300	-99.268	53.032	21.984	-99.106	-93.616	19.164	51.210	-95.027	-91.173	-90.971	-85.807	-5.205	-88.282	-8191	255	
9553.323	1	1	0	0	0.072398	0.11387	0.24166	0.063916	0.27725	0.1055	0.3139	0.24285	0.21244	0.10761	0.10303	0.052118	0.19536	0.080586	0.1597	0.21185	-1.7833	-2.6292	-2.4417	-2.2125	-2.4417	-2.3708	-2.4021	-2.5042	-2.1333	-2.6667	-2.4437	-2.2479	-2.5354	-2.1813	-2.4667	-2.4062	172.428	-70.621	-92.464	178.623	-18.323	143.262	71.269	-85.387	-31.430	151.109	-55.801	116.606	97.489	239.680	0.172	54.652	0.00015655	9.112e-05	3.8119e-05	170.81	6.1475e-07	9.9361e-07	245.06	47.713	1.1335e-06	1.4452e-06	90.961	34.261	14.619	7.0012	1.1446e-06	17.233	2.5108e-05	9.7227e-06	2.9542e-06	164.88	1.049e-07	1.0199e-07	238.64	46.28	1.1347e-07	1.0406e-07	87.862	33.315	14.259	6.8278	1.1325e-07	16.791	143.143	-34.083	6.153	-98.953	-2.383	37.327	-99.132	-93.843	-34.102	20.442	-94.846	-90.787	-90.013	-86.054	20.612	-88.063	-8191	255	
9553.419	1	1	0	0	0.18001	0.098261	0.11427	0.14345	0.081579	0.15817	0.40675	0.19845	0.11478	0.14956	0.14606	0.112	0.46269	0.20854	0.17834	0.078422	-1.8146	-2.5938	-2.3896	-2.3167	-2.6458	-2.3854	-2.3375	-2.3542	-2.1104	-2.5417	-2.5292	-2.2354	-2.3792	-2.3021	-2.3354	-2.375	-55.393	-95.356	196.303	219.023	-26.319	159.543	-96.933	219.527	-52.865	-20.778	49.373	241.309	78.729	191.538	95.171	186.520	0.00013721	0.00012566	4.5915e-05	171.23	1.0607e-06	1.5572e-06	246.33	47.965	9.4535e-07	1.0258e-06	91.259	34.147	14.844	7.0353	1.1718e-06	17.44	2.5293e-05	1.0576e-05	2.6977e-06	165.22	1.1421e-07	1.1729e-07	238	46.484	1.2577e-07	1.0825e-07	88.491	33.317	14.388	6.8569	1.1614e-07	16.988	149.312	-8.868	-16.644	-98.799	27.299	15.302	-99.180	-94.103	-9.739	-9.386	-94.830	-91.155	-90.243	-86.238	-2.845	-88.272	-8191	255	
9553.540	1	1	0	0	0.086628	0.02289	0.36972	0.12362	0.11031	0.24128	0.15773	0.093829	0.11116	0.086739	0.22338	0.085009	0.081673	0.076959	0.087123	0.13311	-1.7271	-2.4521	-2.3979	-2.3708	-2.5646	-2.4375	-2.3396	-2.6562	-2.325	-2.4583	-2.4229	-2.2292	-2.7208	-2.4188	-2.2896	-2.5958	60.682	106.316	36.623	112.261	-50.446	191.245	46.520	224.415	48.936	240.129	-90.190	-16.197	-18.037	155.699	213.904	156.831	0.00013924	0.0001665	3.8188e-05	171.33	1.2546e-06	1.5231e-06	247.77	47.715	1.5812e-06	9.1791e-07	92.146	34.01	15.02	7.1319	1.8677e-06	17.583	2.4779e-05	1.0302e-05	2.9232e-06	165.41	1.085e-07	9.6244e-08	238.85	46.374	1.3416e-07	1.1223e-07	88.557	33.328	14.407	6.8923	1.3632e-07	16.995	139.628	-30.939	-70.162	-99.009	8.185	0.094	-99.141	-93.618	31.567	26.794	-95.078	-91.089	-90.711	-86.045	-21.901	-87.871	-8191	255	
9553.636	1	1	0	0	0.076814	0.27866	0.23296	0.15484	0.19391	0.26495	0.48881	0.12654	0.17948	0.026623	0.11473	0.13921	0.097637	0.20895	0.17543	0.097819	-1.9125	-2.375	-2.4354	-2.1271	-2.725	-2.5375	-2.3271	-2.4854	-2.3563	-2.3958	-2.6167	-2.325	-2.5625	-2.2479	-2.2917	-2.5687	32.553	204.580	110.271	169.093	185.589	-77.885	229.876	189.273	224.264	112.266	19.932	-28.683	188.708	133.183	-47.911	75.456	0.00013419	0.00014771	3.0061e-05	169.95	1.0833e-06	3.5258e-07	245.44	47.372	1.0243e-06	2.7166e-07	89.934	34.339	14.603	7.0993	8.0411e-07	17.429	2.4451e-05	1.0634e-05	2.8996e-06	164.57	1.1739e-07	1.1916e-07	237.75	46.152	1.3522e-07	1.063e-07	87.645	33.44	14.355	6.8833	1.2713e-07	16.921	142.084	-21.073	-35.981	-99.165	11.086	41.132	-98.695	-94.091	-12.148	-55.441	-94.926	-91.529	-90.788	-85.756	43.322	-87.844	-8191	255	
9553.732	1	1	0	0	0.19376	0.09117	0.19367	0.23373	0.051182	0.10231	0.14628	0.063049	0.18322	0.14975	0.028289	0.025975	0.27155	0.20967	0.094436	0.06706	-1.8771	-2.0625	-2.3875	-2.3208	-2.45	-2.6042	-2.3083	-2.4875	-2.3563	-2.5104	-2.5833	-2.275	-2.5687	-2.3271	-2.3063	-2.6271	-8.066	-60.616	66.157	71.073	133.966	98.073	49.216	196.096	33.009	-88.936	136.466	97.140	29.140	196.227	50.688	17.058	0.0001496	0.00018334	2.4527e-05	169.63	1.2103e-06	2.4629e-06	242.67	47.196	1.1642e-06	1.0393e-06	89.11	33.775	14.832	6.8876	8.7901e-07	17.102	2.5944e-05	1.1019e-05	2.5194e-06	164.3	1.2021e-07	1.012e-07	235.69	45.759	1.4333e-07	1.1526e-07	86.358	32.817	14.137	6.7715	1.2634e-07	16.656	150.158	-24.417	-19.478	-99.290	7.476	46.243	-98.998	-94.007	9.428	33.059	-94.769	-90.930	-90.412	-85.993	0.957	-87.926	-8191	255	
9553.828	1	1	0	0	0.15747	0.21533	0.41588	0.066862	0.17804	0.1361	0.054926	0.2206	0.10155	0.16338	0.10727	0.33699	0.093631	0.16629	0.29126	0.29316	-1.9771	-2.4396	-2.6792	-2.1792	-2.4125	-2.5292	-2.225	-2.525	-2.3937	-2.3688	-2.6646	-2.1833	-2.3792	-2.6437	-2.4229	-2.7104	3.958	135.805	-10.926	-92.556	151.517	54.883	-107.915	224.509	8.280	15.203	-102.906	-22.781	90.710	157.046	214.292	-93.093	0.00013218	7.689e-05	3.5232e-05	169.67	8.537e-07	1.3694e-06	241.21	46.999	1.0256e-06	4.8779e-07	89.512	33.723	14.637	7.0275	1.2122e-06	17.236	2.3513e-05	1.1742e-05	2.9778e-06	163.04	1.274e-07	1.0766e-07	234.2	45.498	1.3714e-07	1.1916e-07	86.163	32.738	14.193	6.818	1.306e-07	16.701	148.076	-21.418	-41.193	-98.348	-22.708	22.036	-99.332	-94.070	35.307	51.476	-94.729	-90.895	-90.073	-86.763	11.531	-88.733	-8191	255	
9553.924	1	1	0	0	0.20028	0.013055	0.11227	0.26744	0.18464	0.15072	0.25873	0.029422	0.18002	0.15462	0.20935	0.10703	0.03053	0.046793	0.26155	0.11519	-2.125	-2.1667	-2.4708	-2.3208	-2.4396	-2.4875	-2.2167	-2.4896	-2.2792	-2.3	-2.6875	-2.4292	-2.3833	-2.7625	-2.3187	-2.2896	75.928	-13.176	-1.145	21.334	241.812	112.610	-93.845	168.918	-33.828	-49.141	131.081	187.015	13.966	71.215	-41.122	203.049	0.00013726	0.00011033	3.9603e-05	169.82	4.9509e-07	1.214e-06	240.71	47.223	1.2114e-06	1.1055e-06	88.912	33.754	14.65	7.0565	1.3223e-06	17.222	2.3931e-05	1.1839e-05	2.5394e-06	163.05	1.3679e-07	1.147e-07	234.65	45.704	1.4077e-07	1.1158e-07	86.333	32.925	14.226	6.8536	1.3849e-07	16.805	144.632	-44.561	5.471	-99.324	40.029	22.468	-99.266	-93.775	-14.130	46.923	-94.930	-91.438	-90.896	-86.138	23.827	-88.754	-8191	255	
9554.021	1	1	0	0	0.14841	0.26538	0.11179	0.15394	0.085187	0.10711	0.14102	0.16648	0.070591	0.20176	0.10681	0.021229	0.099881	0.13833	0.20914	0.20089	-2.1	-2.2854	-2.4917	-2.4729	-2.3604	-2.5229	-2.2375	-2.4708	-2.3792	-2.5604	-2.6542	-2.2667	-2.35	-2.5958	-2.2854	-2.4729	83.451	161.415	-72.263	194.266	12.661	-1.104	34.876	185.402	-93.205	133.868	153.798	185.847	13.368	39.487	-42.445	72.822	0.00014388	8.5363e-05	2.5757e-05	169.97	1.5574e-06	1.2562e-06	243.66	47.492	1.8972e-06	5.4338e-07	89.91	34.22	14.601	7.1487	1.1867e-06	17.404	2.417e-05	1.0003e-05	2.7759e-06	163.26	1.4864e-07	9.8686e-08	235.85	45.991	1.2918e-07	1.1533e-07	87.35	33.189	14.181	6.8648	1.2959e-07	16.899	140.656	-23.187	68.714	-98.458	65.675	6.070	-99.088	-93.618	0.782	61.650	-94.689	-91.183	-89.836	-86.322	3.924	-87.972	-8191	255	
9554.139	1	1	0	0	0.1343	0.36562	0.22223	0.22189	0.19037	0.038273	0.093589	0.3863	0.080653	0.20909	0.099129	0.057004	0.087783	0.27566	0.31032	0.092854	-2.0458	-2.2479	-2.4396	-2.6167	-2.275	-2.6437	-2.3375	-2.3917	-2.4917	-2.4125	-2.5021	-2.4583	-2.175	-2.5563	-2.5021	-2.5	186.071	62.534	-91.165	110.773	-82.077	61.474	55.035	-57.364	-28.312	78.365	194.417	78.066	231.784	218.357	244.158	153.996	0.00012934	8.2711e-05	2.919e-05	169.72	6.9419e-07	1.6136e-06	243.43	46.849	4.1925e-07	7.9041e-07	88.221	33.27	14.434	7.0062	1.3294e-06	16.943	2.4744e-05	1.1071e-05	2.8559e-06	163.9	1.2063e-07	1.0386e-07	234.21	45.441	1.2897e-07	1.2112e-07	85.617	32.573	14.014	6.7592	1.4456e-07	16.478	145.014	-69.967	-41.720	-98.675	27.084	32.634	-98.750	-93.614	41.416	47.121	-94.620	-91.054	-90.661	-86.769	22.451	-87.882	-8191	255	
9554.236	1	1	0	0	0.077807	0.25821	0.28412	0.0095135	0.13076	0.14386	0.2353	0.21797	0.28681	0.26782	0.054119	0.30475	0.039098	0.16804	0.028257	0.14274	-2.0208	-2.2167	-2.5375	-2.4333	-2.2292	-2.6479	-2.4292	-2.3854	-2.7313	-2.3667	-2.5354	-2.5833	-2.1979	-2.5792	-2.2896	-2.4604	229.078	161.789	-27.683	78.156	175.344	-48.168	-69.836	-29.179	6.214	10.884	-74.083	-54.967	104.139	132.423	-58.138	135.139	0.00013728	9.7501e-05	3.8107e-05	169.88	3.315e-07	1.3413e-06	238.15	46.261	1.174e-06	4.3605e-07	89.286	33.519	14.511	6.9513	9.7735e-07	17.073	2.4015e-05	1.124e-05	2.6504e-06	162.61	1.164e-07	9.5454e-08	231.72	45.192	1.2264e-07	1.1627e-07	85.874	32.538	14.042	6.7242	1.2381e-07	16.543	148.269	-10.432	-39.381	-98.788	29.879	35.476	-98.960	-93.740	-8.510	130.131	-94.721	-91.071	-90.259	-86.177	-20.282	-88.000	-8191	255	
9554.332	1	1	0	0	0.19319	0.049134	0.021874	0.16935	0.074992	0.26268	0.068377	0.072543	0.14405	0.11746	0.13677	0.22268	0.36023	0.1997	0.1956	0.26543	-2.2708	-2.2708	-2.5958	-2.5125	-2.2875	-2.6792	-2.4021	-2.3396	-2.5312	-2.4688	-2.5021	-2.5083	-2.1646	-2.6229	-2.3667	-2.325	200.348	245.069	10.166	107.571	-88.063	34.806	108.424	162.071	116.552	-41.452	-74.198	-88.042	-77.126	-63.191	195.003	125.448	0.00014081	0.00013702	3.41e-05	169.5	1.1234e-06	2.0611e-06	241.86	46.637	5.3336e-07	9.0667e-07	88.3	33.596	14.361	6.9276	4.901e-07	16.881	2.3405e-05	1.0133e-05	3.0215e-06	162.89	1.1809e-07	1.0063e-07	232.65	45.22	1.3288e-07	1.0218e-07	85.52	32.594	13.958	6.7181	1.2597e-07	16.421	143.809	-36.554	-23.793	-98.639	-32.217	-1.504	-99.362	-93.927	1.367	17.394	-94.472	-90.584	-89.902	-86.558	12.801	-87.790	-8191	255	
9554.428	1	1	0	0	0.36367	0.18918	0.14786	0.1697	0.15565	0.23724	0.12659	0.15291	0.1068	0.14152	0.12702	0.061308	0.1636	0.20695	0.1796	0.091084	-2.1083	-2.1333	-2.5312	-2.5271	-2.4479	-2.5375	-2.525	-2.1417	-2.5646	-2.3667	-2.3229	-2.6208	-2.1792	-2.5333	-2.4313	-2.2896	-45.536	-35.855	-33.768	33.208	139.117	59.390	99.655	190.069	-69.454	85.366	158.950	40.954	243.100	127.415	104.565	162.652	0.00015472	0.00013227	4.1875e-05	168.23	9.5188e-07	6.3113e-07	238.21	46.597	8.3294e-07	1.2893e-06	88.445	33.197	14.35	6.8352	3.5965e-07	16.759	2.3101e-05	9.6511e-06	3.076e-06	161.62	1.3333e-07	1.012e-07	231.21	44.926	8.9794e-08	1.0023e-07	84.919	32.24	13.903	6.6424	1.2026e-07	16.376	143.474	-36.769	-12.075	-99.226	17.257	38.596	-98.957	-93.395	-26.817	31.046	-95.003	-90.787	-90.462	-86.155	7.770	-88.276	-8191	255	
9554.500	1	1	0	0	0.091341	0.17736	0.083036	0.1215	0.12728	0.28417	0.18616	0.15075	0.24708	0.10018	0.095893	0.092879	0.084816	0.090257	0.22048	0.066477	-2.2188	-2.1688	-2.3063	-2.5812	-2.3583	-2.4625	-2.4354	-2.2417	-2.4583	-2.475	-2.3458	-2.7292	-2.325	-2.3187	-2.6083	-2.2604	171.858	22.393	22.434	-24.926	168.992	-47.736	-93.875	55.608	171.206	144.056	-1.973	34.893	16.868	83.936	-92.653	205.857	0.000153	0.00015618	4.5608e-05	168.04	1.198e-06	1.6189e-06	236.82	45.791	6.718e-07	1.217e-06	86.17	32.566	14.157	6.761	1.4783e-06	16.613	2.2348e-05	8.9152e-06	3.3416e-06	161.57	1.2169e-07	8.4968e-08	230.27	44.533	1.1027e-07	1.024e-07	83.562	31.845	13.79	6.6168	1.1939e-07	16.156	148.370	-5.149	-19.137	-99.173	49.313	-8.011	-98.964	-93.878	7.086	38.360	-94.589	-90.637	-90.135	-86.445	15.306	-88.266	-8191	255	
#DATA ENDS
