BOXY.EXE: ISS Imagent and Oximeter Data Acquisition Program Version 0.80
Ascii Record File

#ACQ INFORMATION
2  Detector Channels 
16  External MUX Channels 
1  Auxiliary Channels 
5000  Waveform (CCF) Frequency (Hz)
1  Waveforms Skipped 
30  Waveforms Averaged 
1  Cycles Averaged 
16  Acquisitions per Waveform 
10.0806  Updata Rate (Hz) 

#FILE INFORMATION
TRUE -- External MUX Channel results are PARSED.
FALSE -- AC DC and Phase are NOT grouped.
TRUE -- Companion Program Settings File CREATED.
FALSE -- AC data not excluded
FALSE -- DC data not excluded
FALSE -- Phase data not excluded
FALSE -- Auxillary Chn. data not excluded
Tab delimiters

#CALIBRATION STATE
TRUE -- Waveform Calibration Values APPLIED.


#AUX CALIBRATION VALUES
Val Type	aux-1	

Term	1.0000e+00	
Factor	0.0000e+00	


#WF CALIBRATION VALUES
A = Detector Channel
Val Type	A-AC1	A-AC2	A-AC3	A-AC4	A-AC5	A-AC6	A-AC7	A-AC8	A-AC9	A-AC10	A-AC11	A-AC12	A-AC13	A-AC14	A-AC15	A-AC16	A-DC1	A-DC2	A-DC3	A-DC4	A-DC5	A-DC6	A-DC7	A-DC8	A-DC9	A-DC10	A-DC11	A-DC12	A-DC13	A-DC14	A-DC15	A-DC16	A-Ph1	A-Ph2	A-Ph3	A-Ph4	A-Ph5	A-Ph6	A-Ph7	A-Ph8	A-Ph9	A-Ph10	A-Ph11	A-Ph12	A-Ph13	A-Ph14	A-Ph15	A-Ph16	

Term	0.00000e+00	0.00000e+00	0.00000e+00	0.00000e+00	0.00000e+00	0.00000e+00	0.00000e+00	0.00000e+00	0.00000e+00	0.00000e+00	0.00000e+00	0.00000e+00	0.00000e+00	0.00000e+00	0.00000e+00	0.00000e+00	0.00000e+00	0.00000e+00	0.00000e+00	0.00000e+00	0.00000e+00	0.00000e+00	0.00000e+00	0.00000e+00	0.00000e+00	0.00000e+00	0.00000e+00	0.00000e+00	0.00000e+00	0.00000e+00	0.00000e+00	0.00000e+00	0.00000e+00	0.00000e+00	0.00000e+00	0.00000e+00	0.00000e+00	0.00000e+00	0.00000e+00	0.00000e+00	0.00000e+00	0.00000e+00	0.00000e+00	0.00000e+00	0.00000e+00	0.00000e+00	0.00000e+00	0.00000e+00	
Factor	1.00000e+00	1.00000e+00	1.00000e+00	1.00000e+00	1.00000e+00	1.00000e+00	1.00000e+00	1.00000e+00	1.00000e+00	1.00000e+00	1.00000e+00	1.00000e+00	1.00000e+00	1.00000e+00	1.00000e+00	1.00000e+00	1.00000e+00	1.00000e+00	1.00000e+00	1.00000e+00	1.00000e+00	1.00000e+00	1.00000e+00	1.00000e+00	1.00000e+00	1.00000e+00	1.00000e+00	1.00000e+00	1.00000e+00	1.00000e+00	1.00000e+00	1.00000e+00	X	X	X	X	X	X	X	X	X	X	X	X	X	X	X	X	

B = Detector Channel
Val Type	B-AC1	B-AC2	B-AC3	B-AC4	B-AC5	B-AC6	B-AC7	B-AC8	B-AC9	B-AC10	B-AC11	B-AC12	B-AC13	B-AC14	B-AC15	B-AC16	B-DC1	B-DC2	B-DC3	B-DC4	B-DC5	B-DC6	B-DC7	B-DC8	B-DC9	B-DC10	B-DC11	B-DC12	B-DC13	B-DC14	B-DC15	B-DC16	B-Ph1	B-Ph2	B-Ph3	B-Ph4	B-Ph5	B-Ph6	B-Ph7	B-Ph8	B-Ph9	B-Ph10	B-Ph11	B-Ph12	B-Ph13	B-Ph14	B-Ph15	B-Ph16	

Term	0.00000e+00	0.00000e+00	0.00000e+00	0.00000e+00	0.00000e+00	0.00000e+00	0.00000e+00	0.00000e+00	0.00000e+00	0.00000e+00	0.00000e+00	0.00000e+00	0.00000e+00	0.00000e+00	0.00000e+00	0.00000e+00	0.00000e+00	0.00000e+00	0.00000e+00	0.00000e+00	0.00000e+00	0.00000e+00	0.00000e+00	0.00000e+00	0.00000e+00	0.00000e+00	0.00000e+00	0.00000e+00	0.00000e+00	0.00000e+00	0.00000e+00	0.00000e+00	-5.24022e+01	-1.64169e+02	-9.76990e+01	-1.80969e+02	-5.66720e+01	-9.77327e+01	-1.56073e+02	-1.62015e+02	-2.91745e+01	-6.44927e+01	-1.73276e+02	-1.70265e+02	-1.82009e+02	-1.76771e+02	-6.96488e+01	-1.50163e+02	
Factor	1.86859e-05	9.78118e-05	2.79070e-05	1.67683e-01	9.76611e-07	1.10387e-06	1.73110e-01	5.09591e-02	1.07639e-06	1.05178e-06	1.04153e-01	2.91335e-02	3.50756e-02	9.31146e-03	9.58455e-07	1.36155e-02	6.11716e-07	6.27859e-07	1.75053e-07	7.79073e-02	6.84918e-09	6.89061e-09	7.55109e-02	2.36384e-02	6.84905e-09	6.88618e-09	4.50172e-02	1.28399e-02	1.55609e-02	4.22386e-03	6.88738e-09	5.88561e-03	X	X	X	X	X	X	X	X	X	X	X	X	X	X	X	X	



#DISTANCE SETTINGS
A = Detector Channel
A-1	A-2	A-3	A-4	A-5	A-6	A-7	A-8	A-9	A-10	A-11	A-12	A-13	A-14	A-15	A-16	

2.5000e+00	3.0000e+00	2.5000e+00	3.0000e+00	2.0000e+00	3.0000e+00	1.5000e+00	3.0000e+00	3.0000e+00	3.0000e+00	3.0000e+00	3.0000e+00	3.0000e+00	3.0000e+00	1.5000e+00	3.0000e+00	

B = Detector Channel
B-1	B-2	B-3	B-4	B-5	B-6	B-7	B-8	B-9	B-10	B-11	B-12	B-13	B-14	B-15	B-16	

1.0000e+01	1.0000e+01	1.0000e+01	1.4400e+00	1.0000e+01	1.0000e+01	1.5100e+00	1.9400e+00	1.0000e+01	1.0000e+01	1.9900e+00	2.4900e+00	2.4100e+00	2.9000e+00	1.0000e+01	2.9800e+00	




#DATA BEGINS
time	group	step	mark	flag	A-AC1	A-AC2	A-AC3	A-AC4	A-AC5	A-AC6	A-AC7	A-AC8	A-AC9	A-AC10	A-AC11	A-AC12	A-AC13	A-AC14	A-AC15	A-AC16	A-DC1	A-DC2	A-DC3	A-DC4	A-DC5	A-DC6	A-DC7	A-DC8	A-DC9	A-DC10	A-DC11	A-DC12	A-DC13	A-DC14	A-DC15	A-DC16	A-Ph1	A-Ph2	A-Ph3	A-Ph4	A-Ph5	A-Ph6	A-Ph7	A-Ph8	A-Ph9	A-Ph10	A-Ph11	A-Ph12	A-Ph13	A-Ph14	A-Ph15	A-Ph16	B-AC1	B-AC2	B-AC3	B-AC4	B-AC5	B-AC6	B-AC7	B-AC8	B-AC9	B-AC10	B-AC11	B-AC12	B-AC13	B-AC14	B-AC15	B-AC16	B-DC1	B-DC2	B-DC3	B-DC4	B-DC5	B-DC6	B-DC7	B-DC8	B-DC9	B-DC10	B-DC11	B-DC12	B-DC13	B-DC14	B-DC15	B-DC16	B-Ph1	B-Ph2	B-Ph3	B-Ph4	B-Ph5	B-Ph6	B-Ph7	B-Ph8	B-Ph9	B-Ph10	B-Ph11	B-Ph12	B-Ph13	B-Ph14	B-Ph15	B-Ph16	aux-1	digaux	

1237.273	1	1	0	256	0.13365	0.11604	0.29279	0.16602	0.049309	0.13565	0.18372	0.20195	0.30691	0.074847	0.20267	0.2256	0.31452	0.088628	0.057007	0.10671	-2.5542	-3.2646	-3.15	-3.2396	-3.2438	-3.0896	-3.3875	-3.3396	-2.7104	-3.3854	-3.3979	-3.0687	-3.3479	-3.0062	-3.0312	-3.2667	-5.692	-164.530	-106.220	156.275	78.668	-82.968	-54.053	155.797	-10.450	-107.039	176.831	97.388	167.350	141.536	16.185	174.569	0.00022835	0.00029732	4.7959e-05	1236.3	2.1501e-06	1.1703e-06	1313.1	254.35	4.2774e-06	1.2269e-06	314.83	88.672	69.858	20.399	3.0358e-06	28.235	0.00013709	0.00014275	4.294e-05	1173.1	1.4492e-06	1.6116e-06	1249	243.49	1.4647e-06	1.6183e-06	295.48	84.868	65.608	19.685	1.7144e-06	27.174	-83.006	-123.789	-54.967	-154.929	-49.758	157.219	-154.991	-147.917	-9.692	61.493	-148.484	-141.653	-140.937	-134.747	-47.852	-135.017	-8191	255	
1237.345	1	1	0	0	0.16158	0.2757	0.083416	0.27759	0.020653	0.41137	0.19377	0.32781	0.091174	0.088579	0.26262	0.15991	0.03331	0.26971	0.15193	0.20019	-2.3604	-3.0021	-3.0083	-3.1125	-3.2333	-3.1167	-3.1375	-3.3229	-2.8708	-3.3937	-3.1521	-2.9188	-3.2833	-3.1521	-3.0062	-3.2167	143.576	-42.472	-142.003	167.261	-45.457	-23.090	143.322	165.312	119.709	-29.757	-150.490	129.720	132.842	98.794	113.123	-30.472	0.00026872	0.00012432	4.7212e-05	1239.8	1.7384e-06	2.3071e-06	1318.6	256.05	8.2426e-07	3.0955e-06	318.45	89.517	70.224	20.496	2.9407e-06	28.6	0.00014348	0.0001614	4.4243e-05	1180	1.5935e-06	1.8683e-06	1257.1	245.38	1.6565e-06	1.901e-06	298.33	85.664	66.451	19.937	1.7627e-06	27.47	-83.143	-43.693	-40.944	-154.961	-80.505	-122.421	-155.006	-147.889	-11.271	-73.394	-148.473	-141.941	-141.621	-134.736	-34.531	-135.260	-8191	255	
1237.441	1	1	0	0	0.22221	0.32025	0.23293	0.12797	0.31965	0.095917	0.16917	0.25222	0.23763	0.20997	0.13953	0.16697	0.25628	0.11935	0.19115	0.231	-2.5604	-3.0271	-3.0729	-3.0354	-3.2458	-2.7583	-3.1813	-3.3354	-2.9792	-3.0396	-3.1792	-2.9167	-3.1125	-3.0542	-2.9667	-3.4792	37.863	72.040	102.598	130.243	-3.779	14.620	98.922	-162.789	98.480	57.077	111.609	143.491	-150.626	169.719	-87.535	79.384	0.00027356	0.00053772	6.1918e-05	1251.4	3.5273e-06	1.2859e-06	1323.3	257.12	3.6139e-06	1.268e-06	317.69	88.916	70.295	20.51	4.3273e-06	28.522	0.00015512	0.00016716	4.2163e-05	1186.5	1.6021e-06	1.7047e-06	1256.1	245.38	1.5194e-06	1.5865e-06	296.15	84.851	65.952	19.776	1.4101e-06	27.245	-85.814	-134.319	-163.356	-155.074	-23.406	-69.661	-154.887	-147.935	-39.641	-29.293	-148.375	-141.698	-141.128	-134.379	17.184	-135.207	-8191	255	
1237.537	1	1	0	0	0.21786	0.10745	0.16145	0.2667	0.24483	0.20062	0.096825	0.18678	0.1317	0.14718	0.08517	0.11142	0.28592	0.23683	0.029679	0.25929	-2.4437	-3.1667	-3.1146	-2.8625	-3.1917	-2.9854	-3.1312	-3.5146	-2.9125	-2.9062	-3.3292	-2.8458	-3.1875	-3.1833	-2.9083	-3.2354	171.598	-127.506	-6.788	189.155	64.846	46.315	-160.102	-98.820	-101.894	26.470	131.043	-100.174	143.611	178.478	-140.161	35.501	0.0002994	0.0002183	7.353e-05	1243.8	4.8187e-06	3.2771e-06	1319.5	257.17	5.2836e-06	1.4555e-06	318.33	90.147	71.157	20.785	1.1869e-06	29.03	0.00013792	0.00013609	3.4734e-05	1177.6	1.4869e-06	1.4548e-06	1252.6	244.99	1.4829e-06	1.4513e-06	296.68	85.698	66.715	19.939	1.3382e-06	27.618	-79.979	-62.866	25.404	-155.018	-39.649	-50.045	-154.700	-148.018	-1.482	-34.621	-148.567	-141.930	-141.388	-134.526	-62.361	-135.118	-8191	255	
1237.658	1	1	0	0	0.15213	0.19114	0.034098	0.39333	0.25685	0.23916	0.14031	0.22103	0.14493	0.043733	0.29945	0.10474	0.25813	0.28449	0.12103	0.24584	-2.3958	-3.15	-3.4375	-2.875	-3.3688	-3.3854	-3.1188	-3.4104	-2.9375	-2.9458	-3.3312	-3.0667	-3.1375	-3.1542	-3.1271	-3.3229	6.532	-149.995	92.782	182.035	-54.371	37.218	105.677	114.741	67.977	-17.210	110.123	73.734	35.846	136.612	-74.787	164.387	0.0003099	7.8859e-05	3.6416e-05	1250	2.528e-06	2.2128e-06	1327	258.05	2.6879e-06	4.2294e-06	319.43	89.853	70.75	20.605	2.3463e-06	28.861	0.00014059	0.00013085	3.3421e-05	1183.7	1.4922e-06	1.3862e-06	1256.3	246.21	1.5142e-06	1.3969e-06	296.53	85.627	66.684	19.881	1.346e-06	27.608	-80.435	63.522	-48.239	-155.153	-64.398	-100.271	-154.874	-148.035	-62.232	-35.970	-148.546	-141.875	-141.336	-134.661	-20.971	-134.966	-8191	255	
1237.754	1	1	0	0	0.059324	0.18233	0.083243	0.15324	0.051037	0.038909	0.11901	0.036074	0.18106	0.076381	0.30002	0.099103	0.19563	0.30083	0.32528	0.21026	-2.65	-2.8729	-3.0938	-2.8375	-3.0833	-3.225	-3.1417	-3.3667	-3.1021	-3.0854	-3.3146	-2.9458	-3.1042	-3.2292	-2.8521	-3.3521	-79.695	-124.765	55.123	-131.291	82.614	147.792	-163.055	73.081	-106.416	-110.987	-161.873	171.045	-92.316	-66.074	40.552	159.578	0.00029211	0.00026098	5.6911e-05	1252.3	4.6905e-06	5.661e-06	1318.5	258.53	4.0803e-06	3.4134e-06	318.77	90.087	70.715	20.563	1.6516e-06	28.928	0.00014354	0.00013121	3.3676e-05	1183	1.5531e-06	1.4217e-06	1253.2	246.79	1.5291e-06	1.3965e-06	296.84	85.868	66.316	19.744	1.3124e-06	27.573	-81.878	-98.008	30.650	-154.985	-10.042	66.094	-155.028	-148.086	-4.213	-50.797	-148.502	-141.891	-141.284	-134.452	7.712	-134.905	-8191	255	
1237.850	1	1	0	0	0.067777	0.052071	0.23262	0.29232	0.068249	0.16834	0.22893	0.24597	0.19202	0.038204	0.17266	0.07885	0.21824	0.11584	0.27819	0.11724	-2.5792	-2.9979	-3.3896	-3.2042	-3.0417	-3.1875	-2.9875	-3.3604	-3.1479	-2.8187	-3.2854	-3.0438	-3.0438	-3.3833	-2.8792	-3.2542	146.139	-48.411	-96.352	166.389	118.744	-44.680	106.975	164.077	62.986	133.878	112.704	-130.877	-127.306	145.947	3.480	66.039	0.00027111	0.00036166	6.6514e-05	1243.3	3.1667e-06	1.9299e-06	1317.2	257.66	9.0767e-07	2.7699e-06	318.1	89.566	70.197	20.439	4.5773e-06	28.457	0.0001363	0.00012394	3.2317e-05	1181.5	1.443e-06	1.3239e-06	1251.5	246.04	1.4248e-06	1.3291e-06	295.64	85.381	65.896	19.61	1.371e-06	27.39	-83.947	-65.302	-95.557	-155.077	40.940	-8.791	-154.859	-147.847	-127.154	8.898	-148.140	-141.812	-141.343	-134.381	-102.238	-135.101	-8191	255	
1237.947	1	1	0	0	0.064323	0.17798	0.25872	0.28306	0.28357	0.14758	0.10825	0.11182	0.073929	0.24393	0.12359	0.14884	0.046637	0.28819	0.16558	0.05911	-2.6479	-2.9	-3.2604	-3.1167	-2.9542	-3.3708	-2.9333	-3.225	-3.1875	-2.9625	-3.2958	-3.2229	-2.8979	-3.2875	-3	-3.1437	-135.817	-22.096	47.097	154.326	182.648	-63.037	158.721	35.576	45.956	117.807	93.056	4.927	0.932	190.843	92.340	164.874	0.00024829	0.0002582	2.8271e-05	1244.9	2.7229e-06	5.2986e-06	1311.6	257.31	1.604e-06	3.457e-06	319.49	89.749	70.587	20.323	5.1657e-07	28.631	0.00013422	0.00012556	3.5791e-05	1179.5	1.4864e-06	1.3688e-06	1250.7	246.54	1.4861e-06	1.4192e-06	297.77	85.836	66.228	19.613	1.546e-06	27.459	-82.869	-120.936	-64.538	-155.226	-56.286	-81.998	-155.099	-148.018	153.372	-32.380	-148.216	-141.713	-141.467	-134.414	36.921	-134.897	-8191	255	
1238.043	1	1	0	0	0.13301	0.18794	0.057794	0.27204	0.24661	0.22496	0.38453	0.23572	0.14161	0.095173	0.074382	0.33582	0.17865	0.15382	0.18284	0.056126	-2.7354	-2.9479	-3.3312	-2.9938	-2.9521	-3.1771	-3.2479	-3.3458	-3.2167	-2.9708	-3.3542	-3.1188	-3.0062	-3.1292	-2.9208	-3.1083	13.662	55.270	183.098	182.501	-3.207	-59.717	153.369	146.608	163.699	1.775	178.934	161.250	-139.992	-106.064	170.334	37.494	0.00027482	0.00011978	8.4486e-05	1251.5	3.0451e-06	2.4599e-06	1322.9	257.71	4.1941e-06	1.5514e-06	319.22	89.3	70.463	20.433	1.9489e-06	28.459	0.00013567	0.00012425	3.8752e-05	1184.6	1.4339e-06	1.3219e-06	1256.5	246.72	1.3893e-06	1.3083e-06	297.65	85.349	65.736	19.576	1.5106e-06	27.251	-88.858	171.930	-102.290	-155.028	-29.167	89.954	-154.991	-147.954	-30.716	-159.912	-148.364	-141.832	-141.320	-134.618	-35.458	-135.050	-8191	255	
1238.139	1	1	0	0	0.064284	0.12768	0.33419	0.20499	0.052041	0.17767	0.24546	0.093142	0.16634	0.14164	0.13978	0.23343	0.16812	0.17381	0.035441	0.1964	-2.8125	-2.7917	-3.05	-3.2458	-2.9583	-3.2604	-3.2417	-3.1688	-3.2875	-2.8	-3.2792	-3.0563	-2.8271	-3.2646	-3.0062	-2.9458	16.862	167.733	-56.201	132.814	117.301	-80.376	155.565	101.833	-4.998	-104.371	-161.862	108.901	-112.060	156.243	23.795	26.528	0.00028359	0.00019234	5.7152e-05	1242.4	4.2498e-06	6.7887e-07	1315.5	258.66	3.3298e-06	2.0686e-07	317.54	89.193	70.167	20.33	4.942e-07	28.471	0.00012437	0.00011989	3.785e-05	1177.7	1.3267e-06	1.2806e-06	1251.4	245.88	1.2757e-06	1.2927e-06	296.18	84.887	65.33	19.488	1.4439e-06	27.097	-78.389	-16.605	-114.753	-155.015	3.239	171.260	-154.887	-147.911	-34.389	-120.399	-148.497	-141.590	-141.193	-134.241	61.651	-134.908	-8191	255	
1238.235	1	1	0	0	0.21344	0.015588	0.13597	0.16485	0.28886	0.22821	0.1652	0.3107	0.053255	0.20642	0.30222	0.053797	0.17531	0.12692	0.13979	0.21117	-2.8729	-2.6833	-3.1896	-3.1229	-2.7729	-3.2229	-3.1063	-3.0646	-3.3833	-2.7938	-3.275	-3.2771	-2.9042	-3.2208	-3.0771	-2.9625	14.126	-7.332	142.294	79.870	-30.594	-150.747	107.891	124.031	142.952	170.227	35.123	-80.440	140.634	103.947	-100.297	126.533	0.00025334	0.00031815	0.00010583	1237.9	1.2566e-06	1.7833e-06	1313.7	257.27	4.4549e-06	2.5792e-06	318.17	88.785	69.865	20.145	2.9395e-06	28.351	0.00011641	0.00012256	3.674e-05	1173.8	1.266e-06	1.3609e-06	1248.8	244.52	1.272e-06	1.4047e-06	295.36	84.596	65.104	19.528	1.4681e-06	26.92	-79.016	-110.612	-81.835	-154.684	71.943	-156.589	-154.867	-147.753	-9.489	-116.279	-148.384	-141.799	-141.330	-134.392	24.331	-134.748	-8191	255	
1238.356	1	1	0	0	0.33589	0.28732	0.095751	0.35806	0.13161	0.097212	0.36256	0.14509	0.27118	0.15189	0.19454	0.086148	0.11355	0.082039	0.15549	0.16377	-3.0083	-2.875	-2.9375	-3.2646	-2.9167	-3.3812	-3.1813	-2.9583	-3.2313	-2.9625	-3.1708	-3.2604	-2.8958	-3.075	-3.1646	-2.7875	-71.785	-164.432	-92.390	155.372	76.270	3.508	97.191	185.625	139.109	-69.991	194.112	139.019	170.411	82.561	-4.415	36.533	0.00025481	7.0832e-05	0.00010552	1232.2	2.6068e-06	3.096e-06	1309.7	253.28	3.2772e-06	3.3735e-06	315.1	87.841	69.005	19.931	2.4446e-06	27.966	0.00011899	0.00013509	3.7707e-05	1169.6	1.3278e-06	1.5223e-06	1242.4	241.34	1.3211e-06	1.522e-06	292.02	83.51	64.288	19.21	1.3882e-06	26.507	-80.477	-107.420	-12.373	-155.029	-46.626	187.593	-154.796	-147.819	-0.428	29.515	-148.473	-141.766	-141.495	-134.469	-40.334	-134.847	-8191	255	
1238.450	1	1	0	0	0.17272	0.12887	0.19128	0.084163	0.20548	0.12242	0.21748	0.24755	0.14797	0.05775	0.09447	0.27845	0.18289	0.15846	0.21853	0.14887	-2.625	-3.0708	-3.1479	-3.3417	-3.1	-3.1604	-3.3604	-2.9979	-3.2729	-3.1625	-2.9854	-3.3229	-2.7396	-3.2417	-2.975	-2.875	172.534	-90.342	-141.678	-95.997	-58.934	5.161	111.627	108.813	-108.397	10.900	124.482	-121.509	184.335	-121.319	-74.711	161.426	0.00021726	0.00024183	7.1965e-05	1220.9	2.822e-06	8.6092e-07	1286.3	248.56	3.2044e-06	1.5689e-06	308.69	86.637	67.455	19.499	3.1524e-06	27.537	0.00011878	0.00013114	3.3749e-05	1152	1.2646e-06	1.3758e-06	1220.2	236.36	1.2175e-06	1.3066e-06	285.69	81.857	63.004	18.746	1.1378e-06	26.027	-86.632	-62.774	-41.489	-155.075	-91.577	65.659	-154.882	-147.864	6.331	134.877	-148.317	-141.514	-140.891	-134.161	-6.039	-134.881	-8191	255	
1238.546	1	1	0	0	0.1139	0.2869	0.12939	0.14348	0.090805	0.28753	0.32551	0.075192	0.26411	0.090332	0.04585	0.10335	0.11423	0.21665	0.025118	0.039525	-2.8312	-3.0146	-2.8708	-3.4	-3.0625	-3.2667	-3.3	-2.8187	-3.1729	-3.1125	-2.9833	-3.3875	-3.0104	-3.1042	-3.3375	-2.8771	172.917	41.209	-10.535	101.488	186.990	-2.283	161.998	-18.600	64.119	-86.550	-80.964	148.402	96.254	47.350	14.060	105.150	0.00025603	0.00022762	0.0001441	1195.5	1.6675e-06	3.3221e-06	1264.8	242.96	4.4127e-06	1.2026e-06	304.12	85.764	67.082	19.339	2.4411e-06	27.269	0.00011055	0.00011249	2.8732e-05	1127.5	1.1945e-06	1.1977e-06	1197.9	231.42	1.1785e-06	1.1636e-06	280.88	80.885	62.282	18.514	1.0609e-06	25.727	-87.500	-113.667	-39.700	-154.707	-100.148	-55.834	-154.807	-147.671	-4.619	-102.539	-148.510	-141.508	-140.844	-134.147	44.744	-135.112	-8191	255	
1238.642	1	1	0	0	0.13268	0.26734	0.14176	0.20533	0.14573	0.1123	0.06751	0.14085	0.035743	0.17447	0.084536	0.27979	0.18068	0.18753	0.18244	0.047638	-2.8688	-3.1125	-2.9271	-3.3396	-2.9437	-3.0271	-3.425	-3.05	-3.1333	-3.0438	-2.8042	-3.3021	-3.0708	-3.1521	-3.175	-2.7729	-14.618	-10.731	124.231	-126.182	82.271	144.889	105.932	137.407	-85.949	42.054	163.377	145.889	153.402	160.189	-106.494	-135.445	0.00022049	0.00017609	5.8496e-05	1174.1	3.4913e-06	3.1083e-06	1242.4	239.61	4.4675e-06	1.1647e-06	298.91	84.367	65.727	19.027	5.7071e-06	26.86	0.0001099	0.00010134	2.6609e-05	1108	1.1814e-06	1.0883e-06	1174.4	228.3	1.1656e-06	1.0507e-06	276.12	79.634	61.326	18.259	9.9957e-07	25.507	-86.386	192.477	-39.330	-154.833	-52.199	-47.065	-154.876	-147.495	-20.981	-99.306	-148.163	-141.421	-140.863	-134.114	-8.754	-134.673	-8191	255	
1238.738	1	1	0	0	0.04547	0.1958	0.20581	0.51835	0.066852	0.17208	0.31329	0.21398	0.042828	0.050506	0.17202	0.075618	0.17428	0.077263	0.19388	0.097099	-2.8	-3.1167	-2.8438	-3.3292	-3.0479	-2.9042	-3.3792	-2.9125	-2.9896	-3.2188	-2.9833	-3.1937	-3.0062	-3.0875	-3.2438	-2.9917	-83.263	55.600	154.990	139.190	-135.413	144.672	128.622	-49.880	-140.795	180.520	19.663	-66.394	139.937	-16.722	-36.463	-56.798	0.0002241	0.00042482	7.758e-05	1157.7	1.4528e-06	4.3965e-07	1234.9	240.04	2.7239e-06	2.9784e-06	299.14	84.484	66.007	19.089	6.997e-07	26.971	0.00010914	9.6136e-05	2.5213e-05	1096.8	1.1706e-06	1.054e-06	1168.5	227.79	1.1307e-06	1.0352e-06	275.43	79.758	61.292	18.199	9.7959e-07	25.524	-79.719	-73.551	-5.781	-154.994	-67.165	157.533	-154.796	-147.742	115.970	-29.160	-148.389	-141.386	-141.105	-134.106	-54.981	-134.938	-8191	255	
1238.835	1	1	0	0	0.25779	0.07953	0.075251	0.041431	0.15529	0.084947	0.14501	0.047758	0.106	0.17272	0.19162	0.34221	0.1637	0.3493	0.18178	0.058794	-2.5958	-3.0333	-3.0396	-3.4292	-3.0479	-2.9729	-3.4771	-3.0479	-3.0396	-3.1708	-2.9125	-3.2208	-3.0042	-2.9208	-3.2104	-2.9271	-63.991	-101.277	98.333	82.966	48.373	-154.342	-28.868	-55.358	176.898	191.868	118.684	-136.998	-2.340	160.732	86.098	136.534	0.00021649	0.00031106	5.0558e-05	1159.6	3.4905e-06	3.9945e-06	1231.1	239.2	2.5395e-06	1.5468e-06	297.31	83.98	65.707	18.957	8.4584e-07	26.665	0.00010473	9.2927e-05	2.5064e-05	1097.3	1.0914e-06	1.0105e-06	1166.4	226.96	1.0857e-06	9.8098e-07	274.36	79.492	60.826	18.075	9.7901e-07	25.412	-79.127	-92.307	-47.006	-154.890	-18.052	-18.249	-154.660	-147.648	41.086	-11.865	-148.087	-141.511	-140.500	-133.820	37.678	-134.564	-8191	255	
1238.955	1	1	0	0	0.13459	0.21869	0.17905	0.11345	0.074373	0.26025	0.13208	0.20479	0.21492	0.18295	0.15424	0.29112	0.13928	0.15194	0.15862	0.13614	-2.7167	-3.225	-2.8896	-3.4688	-3.1167	-3.0729	-3.4583	-3.0792	-3.0083	-3.2667	-2.7396	-3.3187	-3.0083	-2.7313	-3.0229	-3.2146	90.113	107.705	-16.451	-145.110	-73.346	-65.599	171.299	151.603	-21.960	64.349	111.938	136.085	-151.989	130.222	-70.014	81.507	0.00020878	0.00024309	7.6442e-05	1155.3	2.5536e-06	2.0391e-06	1227.2	238.08	1.358e-06	5.0653e-06	298.08	83.798	65.094	18.853	2.5526e-06	26.791	0.00010133	9.0444e-05	2.5787e-05	1095.4	1.0457e-06	9.9233e-07	1164.6	226.63	1.0574e-06	9.5368e-07	274.46	79.337	60.464	17.994	1.0581e-06	25.391	-80.861	-115.039	-64.821	-154.965	-26.357	1.818	-154.756	-147.773	-140.508	28.065	-148.092	-141.529	-141.282	-133.875	0.531	-134.663	-8191	255	
1239.051	1	1	0	0	0.05685	0.3238	0.25106	0.23442	0.13574	0.1401	0.23016	0.041215	0.14864	0.090088	0.22006	0.12138	0.25359	0.15461	0.1244	0.068677	-2.6312	-3.2542	-2.8458	-3.4083	-3.1437	-2.8083	-3.4437	-3.1167	-3.1771	-3.4	-2.9958	-3.0083	-3.1979	-2.9146	-3.2083	-3.3271	179.055	62.622	75.803	132.415	-134.450	-20.439	139.670	167.209	179.575	32.778	147.155	-150.058	98.134	26.913	147.918	116.919	0.00022526	0.00032176	0.00012763	1153.8	6.9967e-07	1.9045e-06	1230.4	237.42	3.3575e-06	2.1715e-06	296.82	83.197	65.388	18.89	3.2025e-06	26.678	9.757e-05	8.8086e-05	2.7538e-05	1093.5	1.0208e-06	9.6533e-07	1163.8	225.93	1.0219e-06	9.4639e-07	275	78.921	60.452	17.983	1.1086e-06	25.286	-86.091	-87.311	-3.022	-154.750	47.994	20.137	-154.885	-147.345	-63.175	-88.300	-147.951	-141.323	-140.853	-134.001	-62.211	-134.674	-8191	255	
1239.148	1	1	0	0	0.14023	0.1365	0.18401	0.27386	0.14583	0.12986	0.31308	0.13515	0.14314	0.2048	0.049857	0.40726	0.31836	0.20621	0.043116	0.05907	-2.5917	-3.3083	-3.025	-3.1396	-3.1542	-2.9562	-3.2896	-3.1688	-2.9083	-3.2917	-3.0771	-3.0979	-3.4396	-2.9333	-3.1354	-3.3104	107.396	-105.846	-134.977	164.242	140.051	-68.957	167.730	192.936	10.871	153.207	36.212	157.771	-139.377	116.142	-139.131	-148.857	0.00023508	0.00021295	2.4084e-05	1154.8	1.2162e-06	1.8876e-06	1225.4	237.42	1.0213e-06	7.2512e-07	296	83.117	65.621	18.922	9.2462e-07	26.802	9.6081e-05	8.8455e-05	2.8556e-05	1092.1	9.8418e-07	9.907e-07	1162.9	225.95	1.0037e-06	9.929e-07	274.35	78.829	60.441	18.013	1.129e-06	25.249	-84.150	-94.913	-60.607	-154.694	15.281	-38.318	-154.690	-147.661	7.562	-94.220	-148.321	-141.328	-141.138	-134.042	-26.956	-134.991	-8191	255	
1239.219	1	1	0	0	0.15176	0.1327	0.094433	0.149	0.049903	0.10355	0.057634	0.068987	0.15126	0.060864	0.071261	0.40851	0.070875	0.036476	0.347	0.07795	-2.4542	-3.2604	-2.9708	-3.2229	-3.2271	-2.7417	-3.2542	-3.1354	-2.9708	-3.3104	-3.0271	-3.0833	-3.3333	-2.9417	-3.1146	-3.3187	75.298	104.606	84.439	174.769	-47.640	108.982	-39.756	71.849	-143.022	-136.042	-143.267	122.793	-114.873	-125.723	38.523	-119.174	0.00020651	0.00014652	6.53e-05	1157.6	4.1405e-06	1.0929e-06	1231.1	236.73	3.2672e-06	3.0665e-06	296.25	83.577	65.394	18.855	4.8682e-06	26.835	9.318e-05	9.3403e-05	2.8866e-05	1090.9	9.6993e-07	1.049e-06	1165.4	225.04	9.812e-07	1.063e-06	274.87	78.869	60.263	18.018	1.1129e-06	25.318	-85.173	-158.544	-96.901	-154.584	-1.714	-17.712	-154.768	-147.342	-55.520	-67.735	-148.025	-141.613	-140.456	-134.219	-5.588	-134.528	-8191	255	
1239.338	1	1	0	0	0.1406	0.08456	0.14062	0.033348	0.080568	0.1349	0.11941	0.22486	0.19856	0.24624	0.41227	0.30304	0.17239	0.064298	0.092184	0.085935	-2.3583	-3.2812	-3.0312	-3.0792	-3.3312	-3.0875	-3.425	-3.2938	-2.825	-3.4458	-3.1688	-2.9583	-3.2667	-3.0812	-3.175	-3.2542	-134.976	-87.410	-42.859	-88.987	156.930	107.700	135.027	178.387	192.896	-136.377	185.519	-108.617	-141.316	18.452	126.314	133.147	0.00026346	0.00018873	1.5643e-05	1157	3.399e-06	1.8147e-06	1228.9	237.69	4.1734e-06	2.3589e-06	295.19	83.64	65.445	18.733	1.1816e-06	26.837	9.175e-05	9.8773e-05	2.8188e-05	1092.2	9.7194e-07	1.1132e-06	1163.7	225.33	9.8315e-07	1.1208e-06	273.32	78.93	60.412	18.044	1.0825e-06	25.254	-78.717	-158.113	-60.497	-154.670	25.282	143.283	-154.713	-147.662	11.939	-97.464	-148.152	-141.449	-140.730	-133.939	6.139	-134.246	-8191	255	
1239.434	1	1	0	0	0.032927	0.026749	0.26371	0.12859	0.18679	0.20705	0.019873	0.22163	0.053755	0.21131	0.092177	0.26603	0.094094	0.15198	0.2306	0.035343	-2.5125	-3.0583	-3.175	-2.9437	-3.4896	-3.0958	-3.0792	-3.1375	-3.0833	-3.1771	-3.3083	-2.8937	-3.2583	-3.0854	-3.1083	-3.2229	126.043	150.786	10.415	140.456	15.285	-61.271	-145.364	131.389	-108.241	-4.009	11.266	131.729	-144.118	142.179	-18.339	142.661	0.0002466	2.1682e-05	0.00014918	1156.2	1.6912e-06	1.7441e-06	1232.7	236.56	1.8433e-06	1.5154e-06	296.46	83.735	65.282	18.834	2.3487e-06	26.615	9.6257e-05	0.00010583	2.7613e-05	1092.6	1.0312e-06	1.1721e-06	1164.6	225.26	1.0619e-06	1.1487e-06	274.02	78.904	60.636	18.066	1.0652e-06	25.161	-81.573	175.394	-0.952	-154.828	-135.276	-89.420	-154.711	-147.719	-65.827	34.743	-148.098	-141.463	-140.890	-134.013	3.763	-134.860	-8191	255	
1239.530	1	1	0	0	0.29308	0.15395	0.22143	0.11486	0.13733	0.20318	0.16823	0.23779	0.26597	0.10932	0.31252	0.046125	0.19551	0.37085	0.21445	0.12855	-2.4646	-3.1354	-3.2188	-3.0583	-3.3292	-2.9854	-3.1917	-3.3563	-2.9583	-3.0458	-3.3375	-3.0708	-3.325	-3.2354	-2.9708	-3.3583	-35.641	-140.945	-47.826	107.111	-144.615	0.381	114.223	-148.510	-127.294	121.227	155.961	112.340	-40.740	-157.974	-164.151	73.683	0.00025422	0.00026798	6.8719e-05	1156.7	2.1863e-06	1.7104e-06	1232.6	236.92	1.6987e-06	8.0668e-07	298.05	83.482	65.736	19.005	3.8826e-06	26.689	0.00010296	0.00010328	2.6681e-05	1093.9	1.1174e-06	1.1502e-06	1166.5	225.67	1.1306e-06	1.1424e-06	274.8	79.068	61.033	18.111	1.0426e-06	25.226	-76.061	-115.010	-12.844	-154.776	-49.701	-12.430	-154.867	-147.493	-27.770	-14.822	-148.229	-141.272	-140.969	-133.888	14.100	-134.659	-8191	255	
1239.627	1	1	0	0	0.0733	0.13818	0.064611	0.32808	0.11715	0.088612	0.073247	0.1792	0.16515	0.2186	0.30999	0.034261	0.42997	0.16126	0.28052	0.26047	-2.6229	-3.1562	-3.2438	-3.1146	-3.2979	-3.1458	-3.125	-3.3396	-3.1042	-3.1292	-3.3979	-3.0708	-3.1521	-3.3604	-2.9208	-3.275	38.751	-95.472	-140.004	143.797	160.851	74.311	67.606	94.857	-36.160	-153.940	176.920	-87.100	58.714	-164.509	37.365	86.183	0.00028181	0.00037416	9.0406e-05	1162	3.5229e-06	3.0448e-06	1233.3	237.59	2.2853e-06	1.5769e-06	296.39	83.738	65.935	18.949	2.6663e-06	26.792	0.00010702	0.00010016	2.5845e-05	1097.6	1.1433e-06	1.0752e-06	1169.3	226.28	1.16e-06	1.0732e-06	274.6	79.272	61.138	18.145	1.0093e-06	25.392	-83.158	-76.662	-91.237	-154.672	-8.251	-45.053	-154.767	-147.531	24.448	-52.924	-147.799	-141.595	-141.042	-134.166	22.141	-134.639	-8191	255	
1239.747	1	1	0	0	0.059019	0.17808	0.067396	0.13888	0.069949	0.097388	0.2468	0.25724	0.091755	0.069802	0.11785	0.16419	0.32998	0.36853	0.10913	0.14054	-2.6104	-3.0417	-3.2333	-3.0375	-3.1896	-3.2083	-3.0125	-3.175	-3.0187	-3.025	-3.4708	-2.8542	-3.1271	-3.1271	-2.9271	-3.1	-0.601	10.217	111.950	-136.355	-26.368	-12.615	108.994	133.923	-102.378	-48.347	-136.649	135.284	-132.788	136.031	177.857	-118.147	0.00023492	0.00021015	9.3842e-05	1158.3	1.4897e-06	7.9877e-07	1234.6	238.01	2.4506e-06	2.5314e-06	297.28	83.825	65.731	19.071	9.2936e-07	26.859	0.00010885	9.5308e-05	2.5333e-05	1098.6	1.165e-06	1.0526e-06	1170.1	226.65	1.1735e-06	1.0649e-06	275.13	79.543	61.231	18.176	1.0165e-06	25.504	-80.818	-90.875	25.901	-154.760	21.882	34.846	-154.630	-147.611	-23.562	47.181	-148.311	-141.719	-140.802	-134.160	-65.815	-134.561	-8191	255	
1239.842	1	1	0	0	0.10529	0.10729	0.17253	0.36906	0.082641	0.059386	0.22854	0.19618	0.16936	0.075473	0.13842	0.11795	0.094444	0.064257	0.1092	0.10301	-2.5708	-3.0187	-3.1854	-3.1875	-3.1833	-3.2354	-3.0083	-3.3229	-3.0896	-3.0187	-3.5062	-3.0062	-3.1979	-3.2396	-2.9208	-3.1312	179.167	157.501	105.636	130.434	-45.985	-54.573	135.456	100.235	20.609	176.769	161.809	-3.204	-105.608	22.577	20.523	78.874	0.00019771	0.00017867	3.7408e-05	1165.2	2.8591e-06	3.0705e-06	1234.9	238.54	2.0811e-06	1.7693e-06	298.39	84.069	65.44	19.057	7.0723e-07	27.169	0.00010952	9.9127e-05	2.5716e-05	1102.5	1.1622e-06	1.0588e-06	1172.3	227.66	1.1526e-06	1.0766e-06	275.95	79.763	61.077	18.164	1.0534e-06	25.699	-73.213	8.079	-142.637	-154.781	13.731	-16.271	-154.872	-147.656	134.595	-62.313	-148.204	-141.424	-140.847	-134.188	67.405	-134.431	-8191	255	
1239.915	1	1	0	0	0.082731	0.14984	0.090428	0.1896	0.11957	0.047341	0.09777	0.20055	0.1329	0.30833	0.083775	0.21731	0.0096176	0.20461	0.064931	0.1414	-2.7	-2.8958	-3.2417	-2.9521	-3.2125	-3.1833	-3.0021	-3.225	-3.2562	-2.8729	-3.3312	-3.0146	-2.9375	-3.2625	-2.8458	-3.2646	138.228	6.483	8.289	126.232	32.821	126.205	139.672	-146.190	36.710	184.481	176.162	192.166	162.000	-123.881	83.733	179.095	0.00025088	3.888e-05	3.3182e-05	1168.5	2.4706e-06	1.6286e-06	1243.4	239.24	3.0616e-06	3.4999e-06	298.09	84.482	66.269	19.048	4.8808e-06	27.121	0.00010936	9.8162e-05	2.7123e-05	1106.7	1.1415e-06	1.0508e-06	1178.2	228.05	1.1338e-06	1.054e-06	277.03	80.115	61.415	18.215	1.1741e-06	25.72	-87.725	-4.705	6.383	-154.844	-72.010	-43.133	-154.931	-147.795	-63.947	35.616	-147.933	-141.314	-140.961	-133.876	-33.288	-134.835	-8191	255	
1240.034	1	1	0	0	0.19307	0.11131	0.32552	0.38121	0.14091	0.062947	0.11573	0.37785	0.16566	0.28771	0.14791	0.18458	0.41982	0.17025	0.19288	0.04729	-2.7062	-3.0583	-3.3792	-3.1396	-2.9792	-3.2542	-3.175	-3.175	-3.3563	-3.0521	-3.1333	-3.1292	-3.0021	-3.2354	-2.9917	-3.2021	-161.101	74.108	157.671	-142.067	148.109	1.323	126.451	158.548	-143.350	-27.693	-67.739	152.502	165.222	62.504	189.314	-48.947	0.00025333	0.00022306	5.5552e-05	1173.2	1.8756e-06	1.8866e-06	1246.3	240.73	2.7316e-06	1.6136e-06	300.63	84.583	66.156	19.219	2.8657e-06	27.041	0.00010895	9.863e-05	3.0852e-05	1112.3	1.1692e-06	1.0924e-06	1185.7	229.55	1.1896e-06	1.1042e-06	278.67	80.279	61.564	18.341	1.2764e-06	25.784	-73.386	-99.481	30.569	-154.850	-85.469	54.012	-154.770	-147.363	40.046	-69.236	-147.924	-141.519	-141.297	-134.159	139.066	-134.758	-8191	255	
1240.130	1	1	0	0	0.090432	0.051903	0.21627	0.19415	0.17729	0.20218	0.1967	0.26899	0.13131	0.2246	0.11836	0.24839	0.17646	0.19094	0.3817	0.092262	-2.9	-2.9313	-3.2083	-3.1833	-2.9333	-3.3146	-3.0583	-3.1625	-3.1417	-2.7146	-3.4146	-3.3312	-2.6792	-3.3563	-3.0938	-2.9479	-40.267	112.658	-56.536	152.960	93.909	-57.574	-121.933	160.868	-17.449	-30.540	132.941	124.111	166.423	167.677	96.328	-35.379	0.00026248	0.00015363	6.7915e-05	1183	3.384e-06	2.0656e-06	1250.1	240.86	3.7609e-06	2.5036e-06	301.51	84.532	66.221	19.21	3.5565e-06	27.138	0.00010774	0.00010108	3.1716e-05	1117.4	1.1395e-06	1.0816e-06	1188.7	229.64	1.1153e-06	1.1085e-06	280.06	80.228	61.563	18.323	1.289e-06	25.648	-80.717	189.686	-38.222	-154.865	-70.243	-54.902	-154.916	-147.708	-50.060	-52.438	-148.322	-141.418	-141.051	-134.303	-27.773	-134.573	-8191	255	
1240.226	1	1	0	0	0.22902	0.13832	0.24169	0.30001	0.35877	0.078465	0.3307	0.22699	0.25884	0.093333	0.29732	0.19654	0.37197	0.030143	0.089996	0.020186	-2.8312	-2.9042	-3.0646	-3.0938	-2.7917	-3.0958	-3.2417	-3.1479	-3.2042	-2.95	-3.0458	-3.0396	-2.9479	-3.3667	-3.0271	-2.9333	82.861	30.968	29.361	154.495	-5.754	-94.050	100.784	104.841	145.985	14.204	-127.257	182.561	136.680	-90.555	162.791	-72.469	0.00027875	0.00014099	7.4208e-05	1179.9	3.7507e-06	2.7839e-06	1254.2	241	5.7105e-07	2.9642e-06	300.16	84.46	66.515	19.169	2.0775e-06	27.124	0.00010366	0.00010449	3.2136e-05	1115.9	1.0821e-06	1.1408e-06	1188.4	229.37	1.0842e-06	1.1808e-06	279.16	80.247	61.401	18.384	1.2323e-06	25.641	-84.745	-21.900	-23.983	-154.929	-9.395	148.697	-154.874	-147.629	36.417	-39.586	-147.815	-141.436	-141.313	-134.448	-15.224	-134.887	-8191	255	
1240.347	1	1	0	0	0.22995	0.30353	0.19831	0.33527	0.15647	0.082339	0.039528	0.24304	0.14248	0.11951	0.18655	0.097639	0.017411	0.1902	0.071128	0.19155	-2.7958	-2.975	-2.9771	-3.5021	-2.8083	-3.3	-3.2313	-2.8792	-3.125	-2.8792	-3.0896	-3.2062	-3.0479	-3.1583	-3.1354	-3.1229	132.152	-46.756	86.588	145.865	-26.451	-35.933	50.467	161.861	39.217	172.983	136.070	-22.510	-111.008	-155.430	94.292	-106.231	0.00022236	0.00019395	0.0001323	1172.7	3.3128e-06	1.0954e-06	1247.4	240.4	3.4917e-06	1.5831e-06	301.69	83.915	66.499	19.185	2.301e-06	27.043	9.9118e-05	0.00010944	3.0768e-05	1110.6	1.0704e-06	1.2039e-06	1184.2	229.02	1.0607e-06	1.2488e-06	278.82	79.953	61.431	18.385	1.196e-06	25.574	-80.590	171.105	-50.025	-154.882	-27.745	-164.106	-154.705	-147.527	-60.171	-41.060	-147.864	-141.416	-140.946	-133.658	15.614	-135.163	-8191	255	
1240.443	1	1	0	0	0.19538	0.061998	0.4535	0.27267	0.078171	0.073321	0.37974	0.27644	0.26086	0.25923	0.157	0.16681	0.2513	0.10107	0.0080776	0.1619	-2.8063	-2.925	-2.8479	-3.2125	-2.9	-3.1063	-3.175	-2.9562	-3.1312	-2.9896	-2.8896	-3.4917	-2.8917	-3.2167	-3.1771	-2.8937	137.803	134.857	-71.506	125.516	165.983	-136.444	174.623	134.609	44.244	98.660	-128.012	14.810	158.532	-33.829	-110.325	96.821	0.00025561	0.00015106	9.5507e-05	1176.3	9.906e-07	1.6315e-06	1249	240.57	4.0488e-06	1.5506e-06	301.98	84.522	66.454	19.279	3.9341e-06	27.166	0.00010254	0.0001146	2.9865e-05	1113.9	1.1109e-06	1.2572e-06	1186.4	229.3	1.1222e-06	1.2424e-06	278.67	80.068	61.655	18.376	1.1173e-06	25.626	-86.514	147.595	-62.336	-154.657	64.039	-3.287	-154.784	-147.712	-17.424	64.160	-148.107	-141.423	-140.906	-134.265	-0.071	-134.637	-8191	255	
1240.515	1	1	0	0	0.13057	0.053054	0.15939	0.24922	0.1916	0.10409	0.28865	0.09609	0.11047	0.053385	0.32238	0.046144	0.41293	0.088423	0.086161	0.11846	-2.7875	-2.9708	-2.9125	-3.4667	-2.9813	-3.1333	-3.4146	-2.9396	-3.325	-3.0208	-3.0521	-3.3354	-3.0938	-3.1208	-3.3729	-2.7896	-145.757	-101.301	159.364	120.847	103.778	-131.806	134.370	-120.168	63.889	81.142	-145.839	-78.311	164.746	163.156	7.798	162.539	0.00024878	0.00034221	7.3056e-05	1178.9	3.2207e-06	3.1829e-06	1249.1	240.27	1.8922e-06	1.176e-06	300.98	85.264	66.597	19.186	1.0866e-06	27.17	0.00010588	0.0001114	2.808e-05	1113.4	1.1487e-06	1.1881e-06	1184.8	229.03	1.1691e-06	1.1976e-06	278.45	80.247	61.86	18.371	1.1109e-06	25.602	-82.520	-81.036	-31.336	-154.949	-47.395	-23.475	-154.818	-147.796	8.439	0.614	-148.005	-141.635	-141.455	-134.114	-19.961	-134.681	-8191	255	
1240.635	1	1	0	0	0.33194	0.1715	0.18564	0.083554	0.0098302	0.19479	0.163	0.29881	0.16719	0.2748	0.33354	0.059296	0.23793	0.18693	0.036827	0.17737	-2.7646	-3.0854	-3.1104	-3.4229	-3.1229	-3.125	-3.4333	-2.9708	-3.2417	-3.1167	-2.8937	-3.3083	-2.9083	-3.1375	-3.2021	-2.9708	84.281	48.246	58.962	165.044	24.173	-62.828	58.940	193.562	164.444	-77.118	18.036	-163.687	-104.743	-160.702	152.817	-101.771	0.00021313	0.00021462	0.00013583	1181.4	3.1441e-06	9.1495e-07	1254.9	240.67	4.4283e-07	1.6026e-06	301.64	84.502	66.26	19.182	2.6483e-06	27.003	0.0001129	0.00010886	2.824e-05	1114.7	1.2435e-06	1.1973e-06	1188.6	229.21	1.2481e-06	1.1839e-06	279.52	80.325	61.956	18.409	1.0788e-06	25.654	-75.998	-135.743	-67.565	-154.701	-81.051	-56.987	-154.775	-147.468	-31.281	21.060	-148.252	-141.546	-141.303	-134.261	-16.144	-134.870	-8191	255	
1240.730	1	1	0	0	0.22166	0.22918	0.16376	0.10874	0.1618	0.2108	0.17821	0.12586	0.16725	0.053948	0.35281	0.20546	0.17108	0.14776	0.0075738	0.35963	-2.8229	-3.0833	-2.9042	-3.425	-2.7833	-3.0208	-3.5354	-3.0208	-3.2313	-3.225	-3.1021	-3.2708	-3.2917	-3.1667	-3.4417	-3.0146	26.920	-129.073	35.599	118.913	-142.337	116.603	139.335	157.439	177.268	-143.917	-101.402	-158.337	-75.133	-80.279	190.215	133.221	0.00024973	0.00026015	4.849e-05	1179.3	8.3541e-07	1.3173e-06	1256.6	241.22	4.2417e-06	3.1539e-06	301.09	84.84	66.279	19.127	2.1805e-06	27.089	0.000117	0.00010359	2.7272e-05	1116.1	1.244e-06	1.1302e-06	1187.8	229.63	1.2349e-06	1.1475e-06	278.92	80.428	61.974	18.315	1.0696e-06	25.709	-77.185	-75.186	-44.247	-154.907	21.363	-55.174	-154.682	-147.942	0.427	1.168	-148.329	-141.437	-140.911	-134.002	22.284	-135.114	-8191	255	
1240.826	1	1	0	0	0.10645	0.07168	0.17554	0.20266	0.36755	0.098571	0.32535	0.16561	0.24282	0.12837	0.051053	0.19288	0.14605	0.20321	0.030186	0.060553	-2.8125	-3.1688	-3.075	-3.475	-2.9771	-2.975	-3.5333	-3.2313	-3.0979	-3.2458	-3.0104	-3.2333	-3.1708	-2.9875	-2.975	-3.1167	64.331	-52.564	164.327	120.225	153.668	-41.496	125.023	-150.855	79.024	-162.876	-131.222	159.290	9.341	-156.550	106.967	8.492	0.0002113	0.00016648	8.7155e-05	1183.5	2.1042e-06	4.5333e-06	1255.7	240.69	4.2159e-06	2.0733e-06	300.88	84.941	66.897	19.153	2.1416e-06	27.258	0.00011476	0.00010196	2.6902e-05	1117.2	1.2389e-06	1.1206e-06	1188.6	229.56	1.1866e-06	1.0885e-06	278.04	80.504	61.852	18.326	1.0539e-06	25.757	-72.770	-145.125	-98.328	-154.768	7.311	-9.709	-154.924	-147.697	4.271	21.535	-148.252	-141.584	-141.200	-134.128	24.165	-134.480	-8191	255	
1240.922	1	1	0	0	0.12733	0.13418	0.15071	0.29112	0.31583	0.046136	0.22696	0.16028	0.064128	0.17365	0.091868	0.14198	0.21685	0.056991	0.18894	0.11848	-2.7396	-3.3104	-2.9562	-3.3333	-3.2146	-2.9021	-3.4042	-3.0312	-2.9958	-3.3937	-2.9417	-3.3104	-3.1604	-3.0333	-3.3854	-3.2	146.414	74.999	116.591	182.818	-88.310	184.859	66.734	-138.507	168.520	-52.651	69.304	129.044	-143.652	80.322	-64.804	109.347	0.0002525	0.00014669	8.196e-05	1179.5	3.3964e-06	3.583e-06	1250.1	241.65	2.7093e-06	2.9996e-06	299.49	84.428	66.562	19.137	2.438e-06	27.142	0.00010882	9.7939e-05	2.767e-05	1116.8	1.1834e-06	1.0879e-06	1187.6	230.44	1.1607e-06	1.0822e-06	278.62	80.556	61.659	18.321	1.1415e-06	25.788	-89.592	-41.933	-39.388	-154.609	2.708	-78.297	-154.851	-147.621	-37.085	87.091	-148.308	-141.468	-141.278	-134.622	-46.746	-134.745	-8191	255	
1241.043	1	1	0	0	0.12692	0.13755	0.16977	0.30366	0.14412	0.30449	0.26594	0.1517	0.084048	0.2498	0.1119	0.18052	0.23825	0.090348	0.070027	0.13153	-2.4542	-3.2375	-2.8438	-3.4625	-3.1146	-2.9229	-3.4417	-3.0875	-2.8937	-3.3271	-3.1063	-3.175	-3.0708	-3.0854	-3.4042	-3.0542	93.965	-67.259	25.204	182.189	-76.356	109.553	117.186	100.566	152.130	125.303	89.488	40.766	105.292	-149.102	121.399	164.884	0.00023162	0.00017712	6.7933e-05	1181.4	3.3769e-06	4.8495e-06	1249.8	241.37	1.7169e-06	3.1996e-06	299.13	84.866	66.332	19.169	7.1543e-07	27.139	0.00010507	9.6127e-05	2.9084e-05	1118.3	1.1243e-06	1.0405e-06	1186.6	230.34	1.1003e-06	1.0293e-06	278.49	80.466	61.608	18.297	1.1619e-06	25.763	-78.423	-54.908	184.520	-154.720	-40.880	-24.179	-154.600	-147.568	-2.760	-36.167	-147.809	-141.567	-140.846	-134.211	31.863	-134.638	-8191	255	
1241.139	1	1	0	0	0.23956	0.10537	0.29331	0.3226	0.20694	0.051381	0.25989	0.19904	0.078247	0.056565	0.24245	0.033569	0.17275	0.17209	0.17501	0.039533	-2.4813	-3.2687	-3.075	-3.3792	-3.3146	-2.875	-3.4083	-3.3229	-3.0208	-3.3896	-3.0042	-3.1542	-3.2771	-3.0375	-3.3021	-3.1333	-67.411	92.598	-1.303	-150.477	86.163	-83.754	-35.494	-73.251	-149.963	-89.317	119.962	-140.105	-139.715	-18.666	105.859	116.291	0.00025645	0.00014353	6.8819e-05	1181.6	1.5102e-06	3.3136e-06	1247.1	241.3	2.7402e-06	1.5246e-06	300.96	84.604	65.973	19.155	1.2214e-06	27.033	0.00010139	9.1962e-05	2.9774e-05	1117.1	1.0686e-06	1.0346e-06	1187.3	230.05	1.0564e-06	1.0478e-06	279.38	80.285	61.493	18.311	1.2077e-06	25.658	-67.638	146.127	-47.297	-154.901	-80.508	-55.831	-154.693	-147.844	22.785	-40.852	-148.478	-141.375	-140.836	-134.486	-18.863	-134.832	-8191	255	
1241.210	1	1	0	0	0.15829	0.22724	0.19193	0.19696	0.11371	0.30845	0.14357	0.17131	0.074435	0.10492	0.37981	0.043999	0.1335	0.046944	0.1791	0.20033	-2.5646	-3.2313	-2.975	-3.0667	-3.2854	-2.8688	-3.2812	-3.1854	-2.9729	-3.4208	-3.1667	-3.1562	-3.3396	-2.9813	-3.1583	-3.2313	-155.203	-52.937	-148.065	192.408	-100.734	-103.679	164.458	-0.170	-94.793	-102.219	161.361	81.692	-53.112	84.944	-128.233	158.999	0.00024122	0.00022016	4.8563e-05	1177.9	3.0426e-06	1.7351e-06	1252.5	241.08	2.9502e-06	1.3202e-06	300.75	84.409	66.639	19.163	2.2845e-06	27.01	9.933e-05	9.9118e-05	3.098e-05	1114.6	1.04e-06	1.1007e-06	1187.9	229.8	1.0457e-06	1.1147e-06	279.42	80.043	61.499	18.371	1.1892e-06	25.597	-90.606	-19.627	-100.178	-154.830	8.998	56.501	-154.764	-147.793	-15.710	-34.773	-148.197	-141.324	-141.032	-134.312	-75.460	-134.953	-8191	255	
1241.307	1	1	0	0	0.24239	0.059878	0.025206	0.20115	0.005259	0.028381	0.1925	0.23819	0.031079	0.10192	0.095469	0.15123	0.17093	0.039815	0.17362	0.22887	-2.5438	-3.2396	-3.1479	-3.1354	-3.4062	-2.8292	-3.2854	-3.1396	-2.9125	-3.2687	-3.3063	-3.0583	-3.1437	-3.0125	-3.1354	-3.3896	133.522	-126.850	138.195	-116.190	42.973	-32.632	-162.203	73.080	-130.583	-74.120	167.148	37.731	13.454	-38.256	81.181	150.480	0.00022499	0.00029303	8.0076e-05	1176.4	7.2903e-08	1.5562e-06	1248.6	240.82	4.3764e-06	2.1725e-06	301.39	84.407	66.347	19.174	1.4712e-06	26.966	9.8825e-05	0.00010591	3.0313e-05	1113.6	1.0328e-06	1.174e-06	1185.8	229.19	1.0442e-06	1.1621e-06	278.83	80.152	61.412	18.339	1.1278e-06	25.592	-76.191	170.192	37.503	-154.910	136.441	-149.231	-154.563	-147.446	-26.286	-48.954	-148.223	-141.577	-141.244	-134.197	-16.336	-134.714	-8191	255	
1241.427	1	1	0	0	0.20139	0.19458	0.11632	0.15685	0.23715	0.15413	0.26979	0.09122	0.10133	0.1426	0.19007	0.32617	0.23854	0.13104	0.14533	0.14979	-2.325	-3.1208	-2.975	-3.0812	-3.2896	-3.1271	-3.1771	-3.3604	-2.8937	-3.3146	-3.3146	-3.0438	-3.3333	-3.1583	-3.1417	-3.175	-153.161	-19.714	89.323	126.665	163.227	125.038	149.946	193.595	57.909	-152.314	141.919	155.316	-132.053	-103.836	-121.090	160.528	0.00021575	0.00032878	2.7547e-05	1174.3	3.0741e-06	1.4318e-06	1243.6	240.45	3.2422e-06	2.3706e-06	301.54	84.826	66.596	19.302	1.9829e-06	27.067	9.5189e-05	0.00010475	2.7566e-05	1111.8	1.0173e-06	1.1417e-06	1182.9	228.63	1.0299e-06	1.1459e-06	278.25	80.124	61.492	18.403	1.0466e-06	25.51	-84.684	-129.410	98.277	-154.866	-129.033	73.771	-154.601	-147.719	-3.347	69.575	-147.990	-141.771	-141.121	-134.413	28.388	-135.114	-8191	255	
1241.523	1	1	0	0	0.15253	0.078955	0.071982	0.39443	0.045848	0.12918	0.26761	0.28424	0.067691	0.16009	0.081188	0.16694	0.18772	0.2456	0.10736	0.2286	-2.4708	-3.2562	-3.2333	-2.9667	-3.3292	-3.2438	-3.2646	-3.2854	-2.8792	-3.1771	-3.2792	-2.9979	-3.3542	-3.2313	-2.9792	-3.3542	47.077	20.094	-0.136	124.027	-22.338	-17.282	-158.823	152.189	113.889	-71.031	193.395	-121.283	186.686	-164.285	42.398	-100.090	0.00020681	0.00016603	1.6683e-05	1176.5	2.6473e-06	3.5304e-06	1248.9	240.52	2.0867e-06	2.6139e-06	301.5	84.811	66.9	19.234	2.6457e-06	27.087	9.9048e-05	0.00010259	2.65e-05	1113.3	1.0698e-06	1.1439e-06	1185.4	228.78	1.094e-06	1.125e-06	278.42	80.049	61.672	18.367	1.0365e-06	25.529	-73.974	9.276	-148.669	-154.677	-27.062	-24.989	-154.850	-147.597	-42.343	-50.690	-148.146	-141.336	-140.783	-134.096	-102.242	-134.568	-8191	255	
1241.619	1	1	0	0	0.27901	0.054757	0.21289	0.1298	0.16354	0.31943	0.099045	0.14835	0.23757	0.096135	0.18256	0.19697	0.12992	0.11906	0.087135	0.066728	-2.6208	-3.2042	-3.15	-3.0708	-3.3646	-3.0604	-3.1562	-3.3583	-2.925	-3.1	-3.2083	-2.9646	-3.3917	-3.1875	-2.925	-3.2125	80.614	-97.565	44.653	129.224	-15.644	54.835	152.511	180.511	-28.567	62.736	-57.170	-55.838	194.118	114.269	55.416	-156.836	0.0002413	0.0002825	9.7738e-05	1179	1.851e-06	2.7348e-06	1243.2	241.28	4.1052e-06	4.0346e-06	299.85	84.586	66.462	19.184	4.6443e-06	27.119	0.00010322	9.8924e-05	2.552e-05	1112.4	1.1138e-06	1.0755e-06	1182.6	229.05	1.1243e-06	1.0649e-06	277.85	80.165	61.799	18.315	9.9005e-07	25.583	-87.805	-83.483	-140.104	-154.711	-46.843	-61.865	-154.831	-147.706	-52.251	9.891	-147.992	-141.380	-141.112	-134.108	16.395	-134.860	-8191	255	
1241.716	1	1	0	0	0.15714	0.11668	0.1732	0.067167	0.1328	0.14794	0.2952	0.11093	0.223	0.21016	0.15819	0.32663	0.12757	0.062407	0.048474	0.097206	-2.7229	-3.1063	-3.3521	-3.2021	-3.4479	-3.1979	-3.1167	-3.3729	-3.0792	-3.0417	-3.3271	-2.9604	-3.3167	-3.0875	-2.9042	-3.3208	92.221	177.320	-29.847	-163.387	-85.497	-136.688	149.059	183.602	20.093	82.714	140.646	-135.111	172.143	-159.195	-94.781	-127.173	0.00024665	0.00019535	0.00011146	1173.8	3.9049e-06	2.4675e-06	1247.3	240.64	2.0733e-06	3.1538e-06	300.25	84.713	66.305	19.226	3.0754e-06	27.092	0.00010509	9.615e-05	2.468e-05	1110.7	1.1215e-06	1.019e-06	1181.1	229.22	1.1291e-06	1.0213e-06	276.88	80.15	61.689	18.288	9.6154e-07	25.611	-86.299	-76.366	-37.321	-154.743	-18.925	1.146	-154.874	-147.515	-45.035	49.458	-148.245	-141.550	-140.479	-134.211	-50.928	-134.654	-8191	255	
1241.810	1	1	0	0	0.053391	0.13669	0.25565	0.25682	0.1464	0.099198	0.24486	0.20665	0.14841	0.38516	0.13427	0.11876	0.13	0.24562	0.31809	0.092907	-2.7396	-3.0167	-3.2687	-3.1646	-3.0062	-3.1458	-3.1146	-3.2167	-3.1042	-3.1604	-3.3958	-2.975	-3.1208	-3.3875	-3.0625	-3.1562	-164.197	140.134	115.858	161.982	31.561	4.351	136.158	122.325	42.446	116.410	61.786	-105.123	36.754	-65.634	23.375	-145.075	0.00019377	0.00012522	9.1646e-05	1171.5	3.4861e-07	2.0875e-06	1244.6	241.88	1.4695e-06	2.1004e-06	299.59	84.471	65.977	19.183	1.1912e-06	27.069	0.00010443	9.4174e-05	2.4181e-05	1111.5	1.1245e-06	1.0117e-06	1180.6	229.66	1.1077e-06	1.0221e-06	276.76	80.412	61.583	18.307	9.9999e-07	25.628	-90.390	-33.400	-30.679	-154.975	68.367	-44.337	-154.755	-147.662	-15.607	0.788	-147.895	-141.584	-141.380	-134.475	-41.018	-134.792	-8191	255	
1241.908	1	1	0	0	0.19744	0.25092	0.078625	0.35923	0.086506	0.051871	0.16866	0.15186	0.1466	0.10994	0.15253	0.16987	0.20363	0.12084	0.13194	0.16107	-2.5729	-2.9771	-3.2812	-3.0312	-3.1896	-3.3063	-3.1167	-3.2979	-3.1146	-2.9979	-3.3083	-3.0833	-2.9854	-3.3708	-2.9958	-3.3542	-137.553	188.391	-121.316	176.478	132.376	-98.298	143.660	107.700	0.502	-152.214	87.725	-39.736	-159.692	110.401	-51.460	-124.332	0.0001822	0.00032014	2.2075e-05	1174.4	2.7307e-06	2.2944e-06	1250.1	241.36	4.5477e-06	3.9923e-06	302.12	84.733	66.782	19.35	1.2935e-06	27.2	0.00010222	9.3013e-05	2.5103e-05	1110.7	1.1058e-06	1.0159e-06	1183.9	229.55	1.0807e-06	1.0241e-06	278.11	80.319	61.671	18.303	1.0826e-06	25.752	-73.382	-120.791	-4.522	-154.684	-8.643	189.932	-154.854	-147.505	-33.201	-13.545	-148.123	-141.643	-140.631	-134.163	8.878	-134.869	-8191	255	
1242.027	1	1	0	0	0.10267	0.2373	0.1292	0.31266	0.098634	0.053064	0.35675	0.25186	0.27291	0.16972	0.12487	0.17371	0.113	0.27118	0.024359	0.11162	-2.8042	-2.6667	-3.2542	-3.0708	-3.075	-3.3563	-3.0687	-3.2417	-3.1646	-2.8771	-3.4792	-3.0958	-3.1833	-3.4042	-2.8021	-3.1437	13.172	111.270	15.200	138.003	141.104	11.310	185.470	31.464	65.867	-89.372	189.784	128.863	176.376	-162.457	142.343	-62.166	0.00023258	0.00054817	4.9733e-05	1178.5	2.0681e-06	1.3819e-06	1253.3	241.52	2.6653e-06	1.1021e-06	301.86	84.979	66.553	19.079	2.7149e-06	27.081	0.0001034	9.4064e-05	2.7483e-05	1114.4	1.1239e-06	1.0433e-06	1187.6	230.1	1.1387e-06	1.0815e-06	278.99	80.602	61.844	18.296	1.263e-06	25.766	-73.142	-94.485	-105.192	-154.680	-66.247	-9.132	-154.530	-147.616	-45.930	-52.438	-147.831	-141.503	-140.854	-134.380	-84.634	-134.883	-8191	255	
1242.123	1	1	0	0	0.13324	0.1327	0.18219	0.2639	0.33496	0.068941	0.14261	0.41051	0.29563	0.12077	0.073085	0.17728	0.10964	0.16968	0.11865	0.26965	-2.8458	-2.7854	-3.3104	-3.1521	-2.9562	-3.2896	-3.0604	-3.2458	-3.3167	-2.7	-3.2354	-3.1708	-2.7708	-3.1583	-3.0792	-3.0979	-90.481	109.514	122.487	-147.951	67.742	-133.904	105.808	172.344	-87.156	-88.038	193.090	191.706	-127.926	106.728	-156.410	48.068	0.00021621	0.00015387	9.5363e-05	1179	4.9667e-06	2.9611e-06	1250.9	241.18	3.95e-06	1.6653e-06	300.98	84.449	66.256	19.184	1.5053e-06	27.034	0.00011058	0.00010445	3.2312e-05	1117.1	1.2092e-06	1.133e-06	1188.7	230.31	1.1702e-06	1.1461e-06	280.13	80.356	61.827	18.354	1.3195e-06	25.729	-83.508	-103.339	-90.809	-154.871	-48.338	-19.827	-154.735	-147.823	-10.149	16.664	-147.969	-141.661	-141.258	-134.045	-22.238	-134.851	-8191	255	
1242.219	1	1	0	0	0.19161	0.19204	0.15119	0.2669	0.009331	0.11015	0.26199	0.32674	0.095367	0.42057	0.16012	0.22486	0.12314	0.14208	0.29284	0.24563	-2.8854	-2.8063	-3.3937	-3.2333	-2.8042	-3.3292	-3.3458	-3.1063	-3.25	-2.9229	-3.2208	-3.2271	-2.9333	-3.2958	-3.0896	-2.9688	-109.760	-69.599	163.727	178.186	55.678	94.979	-144.799	178.861	144.687	102.629	-114.157	158.863	72.661	150.548	120.615	-46.432	0.00020827	0.00021375	9.1337e-05	1184	1.832e-06	2.9301e-06	1252.6	242.24	4.4995e-06	8.5612e-07	301.93	84.407	66.547	19.21	4.6879e-06	27.036	0.00010671	0.00010623	3.3437e-05	1119.8	1.1481e-06	1.1605e-06	1190.3	230.45	1.1239e-06	1.2076e-06	281.04	80.399	61.825	18.372	1.3065e-06	25.716	-86.416	-141.361	-91.809	-154.960	32.357	-89.063	-154.779	-147.689	-27.740	-2.299	-148.127	-141.301	-140.939	-134.027	-28.148	-134.893	-8191	255	
1242.315	1	1	0	0	0.36017	0.2485	0.19387	0.15582	0.041701	0.14164	0.12511	0.20133	0.10587	0.241	0.16765	0.252	0.19713	0.14888	0.20777	0.13721	-2.9021	-2.6354	-3.0292	-3.1583	-3.0062	-3.1229	-3.3833	-3.1562	-3.1813	-2.9854	-3.1667	-3.2229	-3.0167	-3.2542	-3.0792	-2.9917	147.582	36.972	171.139	142.439	189.137	56.743	188.055	153.842	177.987	172.174	157.070	16.779	-118.897	-132.902	68.983	98.973	0.00025189	0.00015025	7.12e-05	1186.1	1.1945e-06	2.5437e-06	1252.7	241.83	2.6796e-06	1.2514e-06	301.18	84.749	66.338	19.138	1.871e-06	27.194	0.00010501	0.00011162	3.2676e-05	1118.7	1.1089e-06	1.2384e-06	1190.2	230.44	1.0658e-06	1.247e-06	280.23	80.379	61.884	18.433	1.2265e-06	25.672	-81.001	99.792	-52.665	-154.888	-25.754	-79.743	-154.784	-147.662	-44.368	-77.650	-148.005	-141.550	-141.281	-134.195	-77.190	-134.923	-8191	255	
1242.411	1	1	0	0	0.15371	0.32949	0.030102	0.22196	0.12687	0.18485	0.1281	0.054862	0.020115	0.10338	0.18696	0.3752	0.247	0.087947	0.18607	0.027209	-2.8625	-3.1292	-3.0021	-3.2896	-3.0292	-3.2417	-3.2292	-3.0542	-3.3229	-3.1417	-2.9875	-3.3812	-2.6542	-3.2042	-3.1125	-2.9333	37.058	-117.945	69.087	181.359	-10.547	42.775	121.654	-73.802	-73.897	44.982	91.407	136.051	-1.907	155.744	57.227	-87.579	0.00021407	0.00015986	8.4607e-05	1185.5	3.7549e-06	3.1772e-06	1255.3	242.77	3.4524e-06	1.9745e-06	303.37	85.365	66.968	19.148	2.3783e-06	27.054	0.00010338	0.00011676	3.1056e-05	1119.6	1.1391e-06	1.2983e-06	1192.7	230.81	1.1518e-06	1.304e-06	280.56	80.615	61.941	18.48	1.197e-06	25.712	-81.487	-19.840	-12.219	-154.711	-29.804	-86.082	-154.685	-147.756	-21.303	-154.714	-148.013	-141.346	-141.051	-133.995	56.015	-134.631	-8191	255	
1242.508	1	1	0	0	0.2765	0.30149	0.073675	0.22623	0.22151	0.12504	0.18113	0.18105	0.13201	0.10285	0.26649	0.31961	0.13876	0.14074	0.082815	0.051344	-2.8	-2.9708	-3.0167	-3.4521	-2.8229	-3.0708	-3.3542	-3.0396	-3.2604	-3.0333	-3.1875	-3.3625	-2.8833	-3.1417	-3.2604	-2.9333	-139.731	66.483	-158.084	139.352	-123.730	168.874	184.894	191.123	72.681	177.589	63.673	67.989	121.594	51.305	25.507	114.633	0.0002165	0.00030264	9.958e-05	1184.8	2.0147e-06	4.4834e-06	1255.5	243.25	1.2641e-06	3.0628e-06	302.89	84.845	66.717	19.321	6.6908e-07	27.076	0.00011038	0.00011952	3.0686e-05	1119.5	1.2102e-06	1.2996e-06	1189.3	230.83	1.2236e-06	1.2946e-06	280.32	80.454	62.24	18.503	1.2031e-06	25.708	-81.770	-77.407	-25.698	-154.961	65.442	-36.980	-154.735	-147.555	192.214	19.131	-148.268	-141.491	-141.092	-134.048	-130.013	-134.560	-8191	255	
1242.604	1	1	0	0	0.19467	0.097429	0.12764	0.19549	0.038648	0.20752	0.068766	0.040357	0.38912	0.13792	0.039992	0.17265	0.15726	0.20465	0.040815	0.1904	-2.6792	-3.1	-2.825	-3.7021	-2.9708	-3.1104	-3.4604	-2.9292	-3.1771	-3.075	-3.0875	-3.3979	-3.0292	-3.2208	-3.2833	-3.0042	7.218	146.181	148.622	188.781	31.810	160.519	-150.945	59.882	86.752	50.431	115.975	-157.968	163.761	-82.731	-138.474	141.179	0.0002712	0.00020426	7.0332e-05	1186.9	1.7445e-06	2.9812e-06	1259.6	243.24	2.1278e-06	4.204e-06	302.73	84.57	66.979	19.306	2.8705e-06	27.118	0.00011819	0.00011659	3.014e-05	1120.8	1.2975e-06	1.2561e-06	1191.8	230.84	1.2906e-06	1.2469e-06	280.1	80.453	62.459	18.473	1.1667e-06	25.752	-79.572	-84.912	-17.947	-154.833	-102.105	-67.970	-154.936	-147.885	25.945	8.056	-148.441	-141.433	-141.089	-133.821	37.960	-134.455	-8191	255	
1242.724	1	1	0	0	0.058637	0.11047	0.11406	0.3076	0.16897	0.1585	0.14147	0.2683	0.05277	0.11835	0.2499	0.1392	0.1109	0.10789	0.024802	0.13733	-2.8833	-3.0604	-3.0625	-3.3937	-3.0875	-3.0854	-3.3937	-2.9979	-3.2104	-3.05	-2.825	-3.3292	-3.2271	-2.9375	-3.4167	-2.9	-117.048	37.642	122.923	164.579	163.106	47.727	181.404	121.783	119.363	131.943	85.018	-53.314	84.898	-82.817	-41.539	-107.421	0.00024173	0.00028915	8.177e-05	1190.8	2.2353e-06	2.324e-06	1259.3	243.07	4.1401e-06	1.7303e-06	302.01	85.743	66.812	19.241	1.0632e-06	27.314	0.0001255	0.00011503	3.0205e-05	1126.1	1.3758e-06	1.2789e-06	1196.2	231.79	1.3633e-06	1.2487e-06	281.01	81.109	62.632	18.505	1.1518e-06	25.962	-79.944	-121.905	-48.705	-154.755	-27.368	-33.634	-154.878	-147.651	-27.739	22.578	-148.074	-141.702	-140.602	-134.260	-114.401	-134.819	-8191	255	
1242.819	1	1	0	0	0.095932	0.2454	0.13064	0.13369	0.20791	0.21696	0.1829	0.13282	0.087853	0.081545	0.09161	0.031431	0.082807	0.041191	0.084703	0.32857	-2.8312	-3.2521	-2.9521	-3.425	-3.1271	-3.2521	-3.3521	-3.1458	-3.2229	-3.3083	-3.0167	-3.4271	-3.15	-3.0771	-3.4083	-3.0167	-66.560	113.231	173.709	-151.480	177.331	16.376	84.103	-156.411	79.463	171.046	126.274	-67.580	-57.619	140.531	-9.842	-54.914	0.00021063	0.00023934	2.4497e-05	1193.2	3.9762e-06	9.1101e-07	1263.5	244.17	3.8377e-06	3.8457e-06	304.07	84.969	66.675	19.266	6.265e-07	27.307	0.00012604	0.00011342	2.9917e-05	1131.9	1.3396e-06	1.2195e-06	1201.2	232.71	1.3206e-06	1.2014e-06	281.45	81.101	62.459	18.507	1.1442e-06	26.021	-75.216	-96.285	-105.525	-154.832	-60.106	-29.993	-154.701	-147.564	-36.445	60.609	-148.102	-141.653	-140.879	-134.213	-32.642	-134.781	-8191	255	
1242.915	1	1	0	0	0.28926	0.11819	0.080291	0.11271	0.094102	0.16146	0.18169	0.30035	0.17075	0.2552	0.15973	0.098632	0.16399	0.04899	0.15685	0.17865	-2.7104	-3.1208	-3.0542	-3.4667	-3.1063	-3.1188	-3.5062	-3.2938	-3.0812	-3.4667	-3.0208	-3.4146	-3.05	-3.0708	-3.3917	-2.9792	160.993	-129.398	-19.212	110.438	69.329	29.524	192.387	151.215	-163.252	-85.916	38.979	121.105	62.742	-164.101	-148.133	-138.835	0.00024272	0.00020651	0.00011861	1196.9	4.2712e-06	3.4866e-06	1269.5	244.14	3.3346e-06	1.4703e-06	303.26	85.099	67.264	19.317	2.0435e-06	27.284	0.00012158	0.00010928	2.9739e-05	1133.5	1.3032e-06	1.2154e-06	1203.1	232.96	1.297e-06	1.1881e-06	282.01	81.323	62.607	18.521	1.2091e-06	26.011	-84.931	-93.153	-82.491	-154.825	-91.267	-28.572	-154.960	-147.690	29.057	2.927	-148.271	-141.664	-141.274	-134.598	-50.528	-134.712	-8191	255	
1243.011	1	1	0	0	0.27611	0.24043	0.2144	0.28593	0.24301	0.061654	0.27212	0.2381	0.2798	0.17309	0.12593	0.19571	0.10332	0.21601	0.082025	0.21832	-2.6437	-3.3667	-2.8667	-3.3604	-3.2542	-2.9604	-3.4354	-3.2917	-3.1021	-3.3542	-3.0417	-3.2125	-3.1354	-2.9583	-3.3083	-3.05	15.360	-69.222	58.920	185.813	154.139	18.225	125.093	118.621	-36.276	-95.461	-147.655	159.474	-99.457	137.632	-31.188	146.943	0.00024061	0.00041672	5.2862e-05	1192.4	5.3114e-06	1.8992e-06	1273.2	243.61	2.2876e-06	1.0353e-06	302.67	85.093	67.257	19.229	1.7838e-06	27.116	0.00011881	0.00010771	3.142e-05	1133.3	1.2533e-06	1.1755e-06	1203.9	233.01	1.2429e-06	1.1425e-06	282.16	81.418	62.474	18.482	1.2851e-06	26.003	-81.765	-81.497	188.676	-154.906	-16.580	-12.910	-154.992	-147.712	0.293	78.633	-148.291	-141.432	-140.989	-134.353	-44.609	-134.714	-8191	255	
1243.107	1	1	0	0	0.13869	0.047657	0.25525	0.24896	0.072742	0.21099	0.204	0.13556	0.062978	0.13225	0.19274	0.17612	0.0328	0.086583	0.034657	0.24141	-2.5896	-3.2458	-2.8937	-3.2375	-3.1229	-2.9542	-3.3917	-2.9688	-2.9896	-3.3646	-2.9771	-2.9896	-3.2	-3	-3.2146	-3.1521	97.977	129.096	175.661	168.105	81.690	163.796	135.386	102.085	-18.997	43.902	-148.934	189.083	53.481	173.666	-4.000	141.614	0.00025832	0.00026022	7.3503e-05	1194.3	1.808e-06	1.145e-06	1269.5	244.53	2.1022e-06	2.0448e-06	305.23	85.721	66.888	19.348	3.0895e-06	27.186	0.00011419	0.00010313	3.319e-05	1133	1.2039e-06	1.1472e-06	1204.3	233.04	1.2005e-06	1.1242e-06	283.28	81.449	62.522	18.513	1.3423e-06	25.94	-82.421	179.290	-36.969	-154.955	-48.459	-85.325	-154.772	-147.578	-44.381	29.972	-148.273	-141.391	-141.230	-133.974	-41.134	-134.567	-8191	255	
1243.203	1	1	0	0	0.10642	0.15981	0.29423	0.1008	0.11195	0.14425	0.096787	0.19323	0.26512	0.16645	0.028188	0.19231	0.15827	0.1244	0.14874	0.21622	-2.4917	-3.0333	-2.9896	-3.1917	-3.3375	-2.9792	-3.2667	-3.2875	-2.9833	-3.4104	-3.15	-3.0833	-3.225	-2.9271	-3.2146	-3.2208	88.901	118.411	98.864	-163.306	160.515	96.096	157.384	180.646	-114.334	108.709	73.972	34.761	191.499	-117.181	-113.874	119.600	0.00022753	6.6386e-05	8.235e-05	1197.1	3.1137e-06	2.9721e-06	1270.2	244.05	2.1465e-06	4.1215e-06	305.5	86.178	67.036	19.329	2.114e-06	27.276	0.00011118	0.00010836	3.4445e-05	1134.9	1.1943e-06	1.2223e-06	1206.2	232.82	1.1978e-06	1.2341e-06	283.83	81.419	62.407	18.586	1.4039e-06	25.969	-93.401	108.548	-13.835	-154.736	32.150	106.929	-154.944	-147.619	-6.503	-76.457	-147.887	-141.550	-141.131	-134.354	-45.300	-134.645	-8191	255	
1243.299	1	1	0	0	0.11354	0.12498	0.19182	0.21706	0.063812	0.32823	0.33825	0.30985	0.050222	0.20608	0.099769	0.14065	0.19531	0.060724	0.096526	0.15068	-2.475	-3.3438	-3.2125	-3.1437	-3.3146	-2.9437	-3.3083	-3.3312	-2.9521	-3.2812	-3.1667	-3.225	-3.5771	-3.1458	-3.025	-3.3271	-111.769	-140.897	186.657	144.517	9.975	136.263	181.533	159.899	95.785	117.426	83.772	98.866	97.892	-150.328	-2.983	181.922	0.00022776	0.00036608	9.7483e-05	1200.7	1.1156e-06	2.0536e-06	1275.7	244.51	3.7659e-06	1.8363e-06	305.58	85.715	67.391	19.417	3.2915e-06	27.474	0.00011248	0.00011874	3.5735e-05	1136.6	1.1981e-06	1.3481e-06	1209.9	233.39	1.2404e-06	1.385e-06	284.11	81.576	62.711	18.733	1.4233e-06	26.068	-80.099	-162.086	-42.610	-154.715	-130.053	179.193	-154.749	-147.746	79.972	122.609	-148.128	-141.448	-140.941	-134.297	52.831	-134.591	-8191	255	
1243.396	1	1	0	0	0.23707	0.13662	0.12705	0.19874	0.18613	0.12772	0.064396	0.032939	0.2047	0.093747	0.20649	0.11141	0.1308	0.14083	0.055696	0.091145	-2.5833	-3.1771	-3.0875	-3.0604	-3.1937	-3.25	-3.375	-3.3958	-2.9104	-3.2229	-3.0563	-3.0062	-3.3104	-3.0542	-3.0042	-3.1875	-99.690	-157.119	130.542	-164.894	60.114	121.875	180.132	96.816	-76.141	-2.452	88.464	-110.860	-153.854	169.956	100.636	-66.104	0.00025314	0.00011441	2.6329e-05	1205.5	1.5156e-06	4.4203e-06	1280	246.17	4.3837e-06	3.6286e-06	306.9	86.211	67.703	19.512	4.4016e-06	27.526	0.00011995	0.00013347	3.6357e-05	1141.9	1.3118e-06	1.5142e-06	1215.9	234.83	1.3375e-06	1.5214e-06	286.03	81.939	63.348	18.865	1.4562e-06	26.213	-76.514	-112.482	-1.319	-154.892	-76.259	2.160	-154.908	-147.742	-59.193	-42.525	-147.920	-141.629	-141.238	-134.822	-35.396	-134.820	-8191	255	
1243.516	1	1	0	0	0.103	0.12022	0.21557	0.20024	0.23834	0.10322	0.33329	0.18965	0.060919	0.1114	0.28122	0.36256	0.17178	0.11463	0.080565	0.1996	-2.5771	-3.2646	-3.1354	-3.0479	-3.3229	-3.0333	-3.0812	-3.3333	-3.0979	-3.1042	-3.3896	-2.9188	-3.4104	-2.9771	-2.9542	-3.5062	-154.952	-112.818	40.626	117.743	176.672	66.372	117.272	106.758	160.948	-90.270	148.753	111.594	135.753	-79.238	84.579	103.929	0.00025736	0.0003541	7.3927e-05	1212.1	2.4452e-06	3.3575e-06	1282.4	247.4	2.239e-06	1.1219e-06	308.17	87.058	68.523	19.628	2.6131e-06	27.994	0.00013078	0.00014485	3.6986e-05	1149.6	1.4522e-06	1.6215e-06	1223.7	236.59	1.5763e-06	1.6862e-06	288.05	82.892	64.646	19.198	1.6371e-06	26.681	-82.213	-56.151	-73.091	-154.723	-36.767	25.004	-154.963	-147.729	-21.777	-86.943	-148.229	-141.216	-141.093	-134.409	-52.214	-134.934	-8191	255	
1243.612	1	1	0	0	0.032491	0.24001	0.14551	0.17191	0.19899	0.053195	0.10048	0.14618	0.1898	0.19729	0.17343	0.098328	0.20651	0.11255	0.1347	0.30986	-2.5542	-3.1958	-3.2396	-3.0375	-3.3146	-3.2958	-3.1208	-3.4792	-3.05	-3.0771	-3.2854	-2.9229	-3.1146	-3.2354	-2.7979	-3.3729	132.050	72.988	-160.681	156.097	2.441	124.378	163.583	23.524	20.475	-93.294	-41.275	107.674	153.401	111.924	110.309	95.114	0.0002738	0.00042231	7.4799e-05	1236.3	1.2962e-06	3.1243e-06	1314.6	253.4	3.4802e-06	1.6256e-06	316.76	89.3	70.038	20.307	2.341e-06	28.587	0.00016372	0.00016625	4.3447e-05	1176	1.8854e-06	1.9156e-06	1253.1	243.18	2.0402e-06	2.0191e-06	297.21	85.648	67.411	19.872	1.917e-06	27.506	-87.676	-80.497	7.950	-154.746	-50.679	22.497	-155.096	-147.887	-11.235	-25.182	-148.291	-141.696	-141.497	-135.206	64.298	-135.148	-8191	255	
1243.709	1	1	0	0	0.12873	0.14732	0.12902	0.29501	0.12409	0.11866	0.4074	0.14678	0.11473	0.13867	0.016375	0.2654	0.12473	0.08234	0.24011	0.063624	-2.7292	-3.1146	-3.1292	-2.9583	-3.2083	-3.0083	-3.1479	-3.3833	-3.0896	-3.125	-3.4417	-3.0708	-3.1396	-3.2375	-2.9542	-3.2375	147.974	150.736	116.327	115.906	-110.178	-124.013	127.704	-161.822	-110.989	-146.713	-143.097	178.028	-61.969	140.845	-114.122	146.995	0.00028198	0.00025237	9.1034e-05	1264.2	3.3321e-06	1.8131e-06	1343.3	259.94	3.756e-06	1.4449e-06	321.47	89.814	71.319	20.532	3.3061e-06	28.591	0.00019377	0.00018404	4.6706e-05	1204.5	2.1236e-06	1.9485e-06	1277.3	249.22	2.07e-06	1.9206e-06	301.45	86.65	68.168	20.053	1.7995e-06	27.744	-78.452	-130.101	-10.682	-155.074	-102.526	73.213	-154.860	-148.139	42.548	-28.436	-148.421	-142.101	-141.210	-134.545	-8.409	-135.148	-8191	255	
1243.805	1	1	0	0	0.35983	0.064791	0.24482	0.11807	0.17571	0.1959	0.19226	0.31973	0.081516	0.21417	0.1688	0.027161	0.16896	0.10995	0.10725	0.19612	-2.5854	-2.9521	-3.2833	-3.1125	-3.1917	-3.2	-3.0208	-3.2542	-2.875	-2.9521	-3.3167	-3.0438	-3.2687	-3.2958	-3.0812	-3.1979	24.907	1.566	-60.490	52.427	-115.213	5.001	51.087	110.519	51.175	121.512	125.615	-130.415	-66.836	169.512	52.005	130.017	0.00026665	0.00019406	6.9255e-05	1269.9	2.1005e-06	6.0217e-06	1344.7	261.93	7.7286e-06	2.7111e-06	323.09	91.064	71.217	20.643	3.8553e-06	28.898	0.0001899	0.00017483	4.5294e-05	1211.6	2.0954e-06	1.9226e-06	1282.4	252.19	2.0925e-06	1.9283e-06	302.49	87.451	68.296	20.08	1.781e-06	27.971	-74.203	-130.886	4.377	-155.142	-11.206	-116.559	-154.928	-148.216	-51.334	16.883	-148.420	-141.740	-141.382	-134.757	-77.250	-135.176	-8191	255	
1243.899	1	1	0	0	0.12452	0.016459	0.1856	0.21008	0.097858	0.19228	0.20351	0.20775	0.12547	0.012943	0.20885	0.25062	0.086846	0.11841	0.059474	0.063789	-2.6667	-2.8438	-3.3438	-3.1875	-3.1583	-3.1937	-3.0625	-3.25	-3.0354	-2.9979	-3.4771	-3.1021	-3.1229	-3.3583	-2.9646	-3.2708	28.893	-87.779	29.965	172.106	106.884	-58.890	158.760	151.083	-44.236	152.038	21.450	121.541	-61.711	119.956	5.928	133.996	0.00029403	0.00038986	0.00010405	1274.2	5.8696e-07	5.7637e-06	1350.2	263	1.6401e-06	1.4023e-06	324.07	91.078	71.823	20.641	3.8982e-06	28.735	0.00018062	0.00016527	4.3718e-05	1213.6	1.9199e-06	1.7594e-06	1282.5	252.57	1.8971e-06	1.7924e-06	303.78	87.66	68.204	20.118	1.8246e-06	28.061	-75.207	-113.559	-74.622	-154.913	-96.019	1.020	-154.972	-147.964	-40.777	54.905	-148.480	-141.992	-141.316	-134.313	48.051	-135.201	-8191	255	
1243.997	1	1	0	0	0.4482	0.091617	0.12559	0.29698	0.23996	0.24196	0.42409	0.19957	0.0267	0.32712	0.26386	0.17658	0.25456	0.070055	0.085008	0.054065	-2.6917	-2.8854	-3.375	-3.1875	-3.1396	-3.4729	-3.1437	-3.4771	-3.1562	-2.8958	-3.4333	-3.0542	-2.9688	-3.3104	-2.9229	-3.2771	25.509	-0.966	45.786	139.064	-161.525	135.686	144.567	130.391	76.795	48.994	146.764	133.902	84.237	5.132	-157.981	42.776	0.00022482	0.00012565	0.0001061	1278.6	3.253e-06	2.7206e-06	1346.3	263.48	3.6303e-06	1.3612e-06	323.33	90.947	71.273	20.721	1.2904e-06	28.848	0.00017265	0.00016374	4.6116e-05	1216.4	1.9044e-06	1.7754e-06	1286	253.59	1.8831e-06	1.7947e-06	304.53	87.72	68.051	20.143	1.9442e-06	28.032	-79.475	151.247	-149.319	-155.019	-21.793	-26.021	-154.987	-148.054	61.091	136.619	-148.275	-141.667	-141.168	-134.730	50.591	-135.024	-8191	255	
1244.116	1	1	0	0	0.17677	0.2402	0.1589	0.18709	0.067252	0.11755	0.19449	0.34188	0.21061	0.1927	0.067231	0.12534	0.16341	0.1776	0.10998	0.17173	-2.9313	-2.925	-3.3021	-3.1542	-3.0146	-3.3729	-3.1042	-3.1792	-3.1896	-3.0396	-3.3458	-2.9146	-2.9833	-3.4562	-3.0021	-3.2333	-81.203	82.837	164.532	157.047	58.454	137.136	113.523	160.739	155.083	-66.993	112.495	115.298	155.433	15.580	46.217	-70.116	0.00028237	0.00032711	6.7333e-05	1268.6	3.1384e-06	5.1159e-06	1345.2	263.62	6.4952e-06	1.2412e-06	323.29	90.386	71.87	20.687	4.5085e-06	28.6	0.00016918	0.00015797	4.9235e-05	1213	1.8293e-06	1.7143e-06	1285.2	253.49	1.771e-06	1.7096e-06	305.27	87.411	67.938	20.045	1.9666e-06	27.882	-88.246	-93.661	-69.929	-155.013	-86.781	-66.783	-154.901	-147.958	-10.307	141.345	-148.408	-141.968	-141.752	-134.885	-53.763	-134.932	-8191	255	
1244.212	1	1	0	0	0.1491	0.15909	0.050635	0.13159	0.16506	0.12065	0.28267	0.13499	0.087069	0.19455	0.098643	0.14574	0.1401	0.20763	0.080282	0.09836	-2.8604	-2.9583	-3.2208	-3.175	-2.9062	-3.4521	-3.1333	-3.0833	-3.3125	-3.0229	-3.3271	-3.2521	-3.0167	-3.3771	-3.0208	-3.0708	-54.534	108.456	-141.728	86.115	-146.696	-120.638	159.232	124.409	-26.493	127.909	32.526	-63.966	96.728	132.057	-132.287	134.370	0.00032919	0.00039449	0.00011989	1275.3	5.0641e-06	1.0341e-06	1346.6	263.44	4.9027e-06	2.2271e-06	323.75	90.876	71.646	20.559	3.9125e-06	28.894	0.00015819	0.00015391	4.926e-05	1211.2	1.6828e-06	1.6626e-06	1282.9	252.18	1.6074e-06	1.6744e-06	304.48	86.911	67.421	20.003	1.8576e-06	27.788	-79.610	166.050	-119.734	-154.941	-35.669	-108.845	-155.151	-147.935	-1.154	-111.095	-148.565	-141.730	-141.383	-134.975	33.883	-135.535	-8191	255	
1244.308	1	1	0	0	0.18095	0.239	0.26227	0.14497	0.09716	0.18689	0.26047	0.18037	0.11279	0.2221	0.35658	0.049738	0.25471	0.089159	0.1363	0.13797	-2.8792	-3.0875	-3.075	-3.3125	-2.8292	-3.2229	-3.2271	-3.0938	-3.3896	-2.8063	-3.1354	-3.3812	-2.7938	-3.4167	-2.9813	-3.0771	-72.941	-146.363	-117.717	137.357	78.443	-90.089	25.203	155.031	-159.997	52.083	-159.329	107.741	-80.877	33.188	77.794	158.913	0.00020802	7.5964e-05	3.3717e-05	1266.6	3.5978e-06	1.7885e-06	1340.3	262.57	7.062e-06	1.7146e-06	321.83	90.347	71.225	20.54	2.3086e-06	28.855	0.00014462	0.00015526	4.6008e-05	1204.8	1.552e-06	1.6599e-06	1275.6	250.7	1.4879e-06	1.6851e-06	302.52	86.349	66.78	19.988	1.7091e-06	27.548	-92.469	-5.850	39.464	-155.134	-56.105	-101.516	-154.982	-147.974	-50.755	-122.963	-148.166	-141.721	-141.492	-134.865	22.673	-135.197	-8191	255	
1244.380	1	1	0	0	0.18226	0.20601	0.073063	0.23834	0.34683	0.17696	0.21837	0.12456	0.022185	0.11178	0.11114	0.22645	0.091082	0.16892	0.15119	0.33204	-2.8729	-2.7375	-3.0479	-3.4271	-2.9938	-3.3104	-3.2604	-3.1104	-3.3896	-2.9562	-3.2021	-3.3104	-3.0479	-3.2708	-3.2354	-3.0312	-2.509	-161.564	-123.810	192.392	183.339	182.919	125.988	11.178	-35.807	-152.043	-99.210	86.506	72.929	174.104	-89.164	174.606	0.00027556	0.00028256	0.00012865	1266	3.4746e-06	1.5511e-06	1336.3	260.83	2.1161e-06	1.4228e-06	320.25	89.894	70.924	20.485	4.244e-06	28.757	0.00013934	0.00015963	4.3567e-05	1200.1	1.5465e-06	1.7411e-06	1273.7	249.99	1.535e-06	1.7656e-06	301.26	86.212	66.828	19.933	1.6177e-06	27.497	-79.999	-88.236	-71.293	-154.990	-82.907	-87.802	-154.923	-147.804	-54.181	65.253	-148.675	-141.351	-141.615	-134.414	-47.162	-135.221	-8191	255	
1244.500	1	1	0	0	0.068524	0.18701	0.2902	0.4422	0.079152	0.19002	0.28399	0.1298	0.14483	0.20251	0.32517	0.032896	0.27816	0.12716	0.12151	0.1524	-2.9792	-3.0375	-2.8292	-3.4521	-3.0208	-3.1583	-3.3688	-2.9979	-3.2417	-3.0729	-3.1083	-3.4396	-2.975	-3.1896	-3.2646	-2.8708	50.228	84.991	-8.192	160.458	-146.176	-34.108	170.669	111.861	53.515	-0.352	107.379	88.576	189.108	158.897	35.804	142.531	0.00026209	0.0002022	0.00016315	1259.5	7.7433e-07	2.2208e-06	1331.9	261.28	2.8615e-06	3.4541e-06	322.75	90.089	71.153	20.418	2.3956e-06	28.558	0.0001441	0.00016058	4.1851e-05	1195	1.5943e-06	1.7674e-06	1269.4	249.42	1.6279e-06	1.7794e-06	301.35	85.911	67.033	19.885	1.6037e-06	27.316	-90.196	-71.097	-25.765	-154.917	28.989	-104.317	-154.968	-147.796	-18.328	17.347	-148.022	-141.641	-141.255	-134.593	-95.861	-134.846	-8191	255	
1244.597	1	1	0	0	0.25573	0.066008	0.097347	0.19982	0.072698	0.15209	0.10917	0.15696	0.1518	0.28422	0.29447	0.15693	0.15047	0.15444	0.12043	0.21652	-2.7583	-3.0375	-3.1667	-3.4833	-2.9479	-3.2083	-3.2958	-3.1396	-3.1146	-3.1208	-2.9729	-3.5396	-3.0458	-2.9938	-3.3104	-2.9604	54.522	81.444	165.471	131.913	51.172	-67.761	123.019	189.334	-117.068	-13.217	-157.658	-107.594	171.391	184.692	39.090	109.019	0.00025933	0.00060062	0.00010947	1256.4	4.638e-06	2.3546e-06	1327.8	260.42	1.6372e-06	2.7892e-06	321.86	89.586	71.33	20.421	3.9703e-06	28.438	0.0001548	0.00016189	4.171e-05	1192.7	1.7387e-06	1.783e-06	1267	249.05	1.7346e-06	1.7191e-06	300.53	85.583	67.105	19.813	1.5421e-06	27.308	-90.667	-96.407	-6.663	-154.923	-84.819	-124.997	-155.087	-147.901	-55.983	14.977	-148.181	-141.633	-141.152	-134.587	-15.100	-135.031	-8191	255	
1244.693	1	1	0	0	0.10878	0.0951	0.15487	0.048854	0.1426	0.098129	0.13892	0.29029	0.064676	0.11444	0.27011	0.22749	0.12303	0.15032	0.09875	0.096739	-2.8125	-3.3354	-3.0542	-3.4354	-3.0812	-3.2125	-3.3646	-3.0625	-3.3563	-3.3	-3.0646	-3.2812	-3.0375	-3.0875	-3.2479	-2.9521	93.826	64.082	-81.203	-143.828	-100.947	-74.509	20.770	165.400	9.282	-92.725	157.098	-96.395	192.432	172.562	-163.279	-73.039	0.00024131	0.00014364	4.9519e-05	1259.4	2.0364e-06	4.1374e-06	1326.4	259.74	1.9156e-06	2.2809e-06	320.91	89.78	70.419	20.29	9.4683e-07	28.288	0.00016164	0.00015277	3.9599e-05	1193.3	1.7615e-06	1.653e-06	1263.6	248.2	1.7601e-06	1.6183e-06	299.16	85.561	66.945	19.711	1.4899e-06	27.282	-85.622	-156.671	-44.735	-154.978	48.351	1.929	-154.870	-147.863	-62.094	-10.783	-148.372	-141.753	-141.188	-134.548	112.811	-135.004	-8191	255	
1244.812	1	1	0	0	0.14613	0.1253	0.3965	0.30469	0.071662	0.20349	0.13447	0.20902	0.3418	0.12453	0.049662	0.23168	0.10368	0.089046	0.14961	0.3606	-2.675	-3.0917	-2.7062	-3.4938	-3.0042	-2.9667	-3.5729	-3.1271	-3.1875	-3.3063	-3.0542	-3.2625	-3.0812	-3.1083	-3.2396	-3.0229	110.410	52.518	-84.480	171.361	-72.099	-16.983	107.564	121.424	-82.766	12.104	-51.547	182.648	-137.982	96.672	-101.237	-158.165	0.00028054	0.00022491	0.00015362	1250.1	3.0659e-06	2.0049e-06	1325.9	259.66	5.8875e-06	5.012e-07	319.54	89.529	70.942	20.29	2.4314e-06	28.326	0.00016289	0.00014387	3.8385e-05	1188.4	1.7293e-06	1.5896e-06	1260.2	248.36	1.719e-06	1.5422e-06	298.85	85.775	66.772	19.677	1.471e-06	27.359	-83.506	-112.189	-46.101	-155.088	-1.124	-16.930	-154.850	-147.825	-11.418	100.532	-148.485	-141.567	-141.145	-134.635	-24.246	-134.993	-8191	255	
1244.908	1	1	0	0	0.11097	0.17247	0.16987	0.21765	0.18208	0.28366	0.16236	0.11463	0.15666	0.1513	0.088002	0.12448	0.11824	0.17051	0.19384	0.20031	-2.7354	-3.1896	-2.8979	-3.3333	-3.1167	-2.95	-3.5062	-3.0708	-3.3354	-3.2604	-3.0021	-3.2917	-3.2458	-2.9375	-3.4083	-3.1125	57.939	-19.710	29.060	152.026	174.768	134.458	97.306	119.658	81.826	-65.440	50.764	177.213	-69.680	158.751	140.392	157.095	0.00020257	0.0002385	8.0214e-05	1250.9	3.1285e-06	1.864e-06	1322.6	258.37	4.5273e-06	3.7807e-06	319.21	89.508	70.468	20.314	1.9514e-06	28.485	0.00015739	0.00014303	3.8171e-05	1191.1	1.6888e-06	1.569e-06	1259	248.29	1.6864e-06	1.5487e-06	299.04	85.962	66.617	19.643	1.5311e-06	27.388	-69.119	-35.654	50.540	-155.000	-2.603	-93.676	-154.862	-147.985	-15.091	-8.929	-148.126	-141.933	-141.178	-134.674	-99.615	-135.054	-8191	255	
1244.979	1	1	0	0	0.10933	0.25549	0.17544	0.25318	0.17722	0.23643	0.22714	0.12663	0.33906	0.10323	0.21998	0.1262	0.49995	0.16959	0.13849	0.11087	-2.5687	-3.2896	-2.8417	-3.3896	-3.1625	-3.0125	-3.4188	-2.9729	-2.9146	-3.2875	-2.9979	-3.3417	-2.9896	-2.9313	-3.4146	-3.1708	-84.135	-31.011	-125.006	164.242	-165.974	-9.924	130.417	55.577	-64.358	-94.114	169.706	-93.188	58.031	-22.037	108.482	39.974	0.00025529	0.00013982	9.5777e-05	1255.4	2.7178e-06	3.1285e-06	1326.2	259.04	3.0247e-06	3.2465e-06	321.63	88.97	70.57	20.165	1.3538e-06	28.444	0.00015042	0.00013615	3.9749e-05	1192.3	1.5806e-06	1.5147e-06	1260.2	248.47	1.5806e-06	1.4613e-06	299.34	85.643	66.226	19.509	1.5605e-06	27.307	-77.769	73.004	-125.169	-154.852	-129.130	-8.273	-154.928	-148.099	-49.286	-5.442	-148.388	-141.400	-140.988	-134.834	9.280	-135.015	-8191	255	
1245.076	1	1	0	0	0.11605	0.060938	0.22183	0.20979	0.24974	0.012726	0.047074	0.059813	0.07471	0.24619	0.12623	0.15543	0.11292	0.090236	0.019709	0.082917	-2.5729	-3.4229	-2.7562	-3.4188	-3.1	-2.925	-3.4125	-3.1229	-2.85	-3.1958	-3.0396	-3.1104	-3.1813	-2.9646	-3.2542	-3.0083	-25.958	-148.296	-96.685	161.979	-66.926	124.392	15.013	99.350	32.635	-8.849	162.879	-47.458	133.741	28.735	77.770	-126.652	0.00023602	0.00044475	2.4934e-05	1246.9	2.1255e-06	4.3333e-06	1319.4	258.08	3.0944e-06	3.7966e-06	318.85	88.676	69.68	20.2	3.0479e-06	28.256	0.00013976	0.00012673	3.9759e-05	1185.4	1.49e-06	1.4229e-06	1257	246.95	1.5175e-06	1.3871e-06	298.25	85.311	65.725	19.541	1.6224e-06	27.17	-94.028	-100.723	63.353	-154.926	-40.047	-17.281	-154.942	-148.013	-65.075	16.049	-148.138	-141.848	-141.639	-134.672	-35.403	-135.604	-8191	255	
1245.196	1	1	0	0	0.25996	0.18707	0.10565	0.34835	0.17871	0.15789	0.25316	0.20288	0.073571	0.14472	0.11929	0.20034	0.30419	0.12244	0.27666	0.098315	-2.4396	-3.3604	-3.1583	-3.2583	-3.3792	-3.0042	-3.3292	-3.2896	-2.925	-3.3167	-3.0604	-3.0896	-3.2687	-2.9354	-3.2104	-3.3229	183.529	-35.183	-121.768	87.866	-152.677	-154.393	92.425	131.259	38.740	-33.133	59.655	-134.240	107.879	96.980	6.806	110.658	0.00018344	0.00032829	5.087e-05	1247.2	1.8231e-06	2.4071e-06	1320.7	256.76	5.3368e-07	4.3543e-06	317.1	89.38	70.589	20.148	1.7654e-06	28.468	0.00013878	0.0001279	4.2374e-05	1184.2	1.4367e-06	1.4566e-06	1258.5	246.31	1.4761e-06	1.4513e-06	298.24	85.42	65.903	19.563	1.6909e-06	27.223	-75.522	-126.506	23.975	-154.937	-64.276	-95.152	-154.838	-147.911	25.357	-89.218	-148.357	-141.800	-141.161	-134.247	-82.719	-135.155	-8191	255	
1245.292	1	1	0	0	0.14611	0.12585	0.073713	0.086665	0.14217	0.14552	0.28502	0.19717	0.13042	0.14373	0.28998	0.13146	0.17095	0.22934	0.1696	0.099055	-2.5167	-3.0396	-2.9417	-3.1688	-3.3667	-2.9083	-3.3375	-3.2875	-2.8312	-3.2396	-3.2271	-3.2229	-3.3187	-2.8083	-3.2854	-3.1562	76.327	41.039	-62.489	-50.829	138.313	82.226	120.006	184.270	-9.103	119.621	-163.024	-140.147	79.675	134.273	88.739	139.283	0.00031172	0.00045839	0.00010661	1250.6	1.2267e-06	3.5236e-06	1322.8	257.62	4.3767e-06	1.5844e-06	319.46	89.119	70.361	20.285	3.0384e-06	28.371	0.0001377	0.00013842	4.2777e-05	1187.8	1.4261e-06	1.5697e-06	1258.7	246.54	1.4532e-06	1.5731e-06	298.65	85.049	65.792	19.622	1.6445e-06	27.13	-91.042	-155.006	-64.257	-154.887	99.124	-90.040	-155.002	-147.956	-11.843	-109.320	-148.474	-141.813	-141.254	-134.537	-1.231	-135.353	-8191	255	
1245.389	1	1	0	0	0.043266	0.23715	0.17214	0.23676	0.099383	0.17002	0.40369	0.29776	0.17811	0.076677	0.13101	0.10968	0.23467	0.087106	0.25102	0.18063	-2.6271	-3.1708	-3.025	-2.9	-3.3125	-3.0792	-3.2125	-3.4458	-2.6542	-3.2021	-3.2417	-3.0396	-3.3833	-3.0875	-3.0583	-3.3458	97.835	97.515	-136.672	144.511	31.823	152.559	124.924	-160.607	77.199	-46.462	129.881	-28.648	-151.034	-156.777	60.830	62.778	0.00025057	0.00011704	8.5568e-05	1248.8	3.5058e-06	3.7271e-06	1323.2	257.87	2.7861e-07	3.4589e-06	317.34	89.192	70.495	20.287	5.2191e-06	28.447	0.0001334	0.00014661	4.0636e-05	1184.9	1.4082e-06	1.6265e-06	1258.5	246.59	1.4512e-06	1.6334e-06	298.05	85.297	65.96	19.631	1.6035e-06	27.092	-88.863	-126.671	-99.394	-155.016	-11.620	-90.815	-154.822	-147.880	161.525	-20.252	-148.159	-141.578	-141.220	-134.689	-8.647	-135.007	-8191	255	
1245.509	1	1	0	0	0.13469	0.17479	0.22926	0.13496	0.14229	0.10441	0.26328	0.43021	0.10666	0.27454	0.049626	0.20154	0.045934	0.19255	0.12562	0.38201	-2.6125	-3.0687	-3.2042	-2.9417	-3.3333	-3.1958	-3.5292	-3.5042	-2.9188	-3.2313	-3.3604	-3.0292	-3.2521	-3.175	-2.9562	-3.3333	122.412	86.834	129.272	120.026	-52.709	188.802	169.026	144.446	185.747	111.912	-103.141	-137.820	165.235	82.187	-97.120	88.915	0.00025585	8.7401e-05	5.8501e-05	1245.7	1.8439e-06	2.98e-06	1323	257.35	6.8381e-06	2.0843e-06	319.16	88.73	69.741	20.267	2.5303e-06	28.374	0.00013817	0.00015241	3.9485e-05	1185	1.4898e-06	1.6946e-06	1258.4	246.42	1.5501e-06	1.7001e-06	297.27	85.099	66.082	19.678	1.5796e-06	27.087	-83.989	-157.766	-127.793	-154.914	-19.187	-91.953	-154.903	-147.920	-10.376	-30.919	-148.300	-141.305	-141.355	-134.738	-9.616	-134.866	-8191	255	
1245.581	1	1	0	0	0.098623	0.25963	0.061487	0.40705	0.1759	0.27845	0.083915	0.2172	0.12397	0.37291	0.15412	0.19213	0.21397	0.12644	0.18747	0.0098059	-2.6729	-3.1125	-3.2	-2.9625	-3.3937	-3.2896	-3.0104	-3.45	-2.9542	-3.2542	-3.2229	-2.9562	-3.3833	-3.2	-3.1104	-3.3333	77.232	102.068	-46.876	149.445	147.565	30.540	126.043	189.290	77.799	24.511	-102.819	-148.189	-83.899	-165.269	-26.016	59.149	0.00026463	0.00017849	0.00010189	1248.3	3.3302e-06	3.9286e-06	1324.1	257.83	2.09e-06	2.0523e-06	318.53	89.252	70.49	20.371	8.214e-07	28.418	0.00014891	0.00015504	3.9299e-05	1184.2	1.6384e-06	1.653e-06	1258.7	246.35	1.6579e-06	1.652e-06	297.78	85.108	66.587	19.667	1.5472e-06	27.165	-91.219	-119.012	-19.705	-154.891	-29.113	-57.495	-154.934	-147.831	-4.706	-52.275	-147.925	-141.657	-141.469	-134.832	-121.343	-134.862	-8191	255	
1245.677	1	1	0	0	0.18835	0.011867	0.069071	0.36595	0.042763	0.23614	0.41998	0.19898	0.20884	0.056069	0.10079	0.059375	0.089566	0.085951	0.088023	0.053613	-2.4938	-3.1896	-3.3312	-3.0958	-3.3	-3.2604	-3.0396	-3.3667	-2.9771	-3.1771	-3.2938	-3.0125	-3.2083	-3.2542	-3.0271	-3.3688	-86.219	-120.930	170.789	82.809	-156.469	55.435	115.420	-95.996	-43.242	-59.778	131.542	26.942	99.147	-130.674	-5.494	40.778	0.00025381	0.00012526	0.00011447	1248.2	1.4091e-06	5.3901e-06	1325.1	258.2	2.5578e-06	4.3493e-06	319.83	89.212	70.746	20.37	1.8694e-06	28.384	0.00015551	0.00014857	3.8164e-05	1186.9	1.7069e-06	1.6243e-06	1258.1	247.04	1.7466e-06	1.6323e-06	297.95	85.387	66.798	19.654	1.5338e-06	27.204	-84.632	-33.933	-16.257	-155.118	-31.838	-90.617	-154.959	-148.024	-43.646	68.015	-148.262	-141.681	-141.404	-134.206	-5.882	-135.322	-8191	255	
1245.796	1	1	0	0	0.20881	0.23098	0.30801	0.060314	0.27216	0.14511	0.12897	0.2514	0.21516	0.088795	0.14905	0.14267	0.060473	0.2199	0.056703	0.084712	-2.5354	-3.0125	-3.2208	-3.0104	-3.1813	-3.1875	-3.1896	-3.4208	-3.0146	-3.1729	-3.4354	-2.9708	-3.3063	-3.2917	-2.9417	-3.2271	-72.687	33.953	84.662	162.572	106.028	59.692	-108.627	133.841	15.226	96.152	65.124	152.704	181.964	176.430	84.896	1.935	0.00017866	0.00020303	7.3804e-05	1253.7	2.945e-06	2.2248e-06	1317.1	258.64	5.2665e-06	1.4384e-06	319.83	89.215	70.723	20.313	2.6747e-06	28.422	0.00016052	0.00014727	3.7872e-05	1189.5	1.7312e-06	1.5815e-06	1259	247.42	1.723e-06	1.6e-06	297.95	85.677	66.816	19.677	1.5192e-06	27.315	-86.501	-93.565	-13.635	-154.946	-16.951	-55.129	-154.893	-148.082	-30.125	-9.509	-148.356	-141.692	-141.210	-134.632	-45.546	-134.872	-8191	255	
1245.892	1	1	0	0	0.19382	0.10128	0.084001	0.10242	0.098198	0.035652	0.25274	0.13918	0.19805	0.09963	0.089748	0.11809	0.22761	0.048616	0.075119	0.12165	-2.6667	-2.9583	-3.3937	-3.1604	-2.8896	-3.2938	-3.2979	-3.4417	-2.9208	-3.0521	-3.4292	-3.0396	-3.0604	-3.45	-2.8688	-3.3396	-141.933	59.890	87.978	109.127	2.743	187.970	105.540	120.978	-129.683	-1.710	100.555	41.706	169.741	186.492	-145.556	190.302	0.0002033	0.00011521	7.9166e-05	1252.1	1.4065e-06	6.4108e-06	1323.1	259.12	2.0149e-06	3.6284e-06	320.73	89.621	70.768	20.242	1.6215e-06	28.258	0.00015853	0.00014618	3.7792e-05	1190.7	1.7171e-06	1.583e-06	1259.9	248.28	1.7025e-06	1.5841e-06	298.45	85.959	66.744	19.652	1.5541e-06	27.346	-87.006	-97.228	-86.537	-155.097	-49.805	-20.436	-155.009	-148.039	-5.976	-24.679	-148.376	-141.928	-141.055	-134.215	63.181	-134.982	-8191	255	
1245.988	1	1	0	0	0.20138	0.21851	0.18984	0.27723	0.086926	0.097763	0.16631	0.23734	0.19508	0.075847	0.1619	0.1042	0.14729	0.11531	0.17092	0.12547	-2.8125	-3.0333	-3.2792	-3.125	-3.0667	-3.45	-3.1854	-3.4062	-3.1667	-2.9146	-3.3729	-3.1688	-3.1292	-3.3146	-2.9625	-3.3063	166.242	-108.627	180.036	112.997	117.331	-73.615	71.759	163.678	88.381	154.064	85.342	-163.992	183.376	-121.677	91.359	128.700	0.00022414	0.00020584	8.5113e-05	1250	2.875e-06	4.0058e-06	1327.7	258.64	2.8236e-06	1.3484e-06	322.48	89.341	70.599	20.26	9.359e-07	28.34	0.00015137	0.00013993	3.8426e-05	1191.3	1.6106e-06	1.5044e-06	1260.2	248.33	1.5912e-06	1.5104e-06	299.36	85.877	66.611	19.608	1.6105e-06	27.386	-82.097	181.888	-105.594	-154.990	-36.399	-36.089	-155.020	-147.886	21.100	57.819	-148.584	-142.038	-141.114	-134.578	-68.261	-134.721	-8191	255	
1246.084	1	1	0	0	0.074841	0.11771	0.11879	0.3411	0.10626	0.067882	0.17912	0.14923	0.16499	0.080862	0.12327	0.17084	0.090399	0.19401	0.04528	0.32626	-2.7146	-2.9125	-3.2188	-3.2667	-2.9667	-3.2667	-3.2062	-3.1771	-3.2583	-3.1375	-3.1667	-3.1542	-3.1167	-3.4	-2.8333	-3.0354	-6.845	138.731	104.554	68.304	-75.686	-109.693	128.016	123.187	-79.313	13.839	158.325	143.979	101.858	-91.450	-129.583	185.538	0.0002807	0.00030563	4.1187e-05	1251.4	3.1184e-06	2.0426e-06	1328.2	258.31	3.3738e-06	2.5332e-06	319.61	89.317	70.898	20.312	2.78e-06	28.265	0.00014473	0.00013564	4.0945e-05	1189.7	1.5685e-06	1.4555e-06	1262.2	247.8	1.5394e-06	1.4665e-06	298.79	85.85	66.413	19.597	1.6836e-06	27.262	-65.098	-164.172	-105.521	-154.990	-105.180	-33.256	-154.869	-147.930	-22.110	-55.537	-148.439	-141.773	-141.383	-134.305	-18.243	-134.970	-8191	255	
1246.205	1	1	0	0	0.13156	0.23181	0.15128	0.070672	0.13273	0.16108	0.082091	0.32329	0.10814	0.077406	0.20125	0.095194	0.08346	0.28496	0.097103	0.0678	-2.8792	-2.9167	-3.1688	-3.1583	-2.9104	-3.3479	-2.9229	-3.1979	-3.3646	-2.8896	-3.3396	-3.3354	-2.8979	-3.2188	-3.1667	-3.2625	-93.933	-70.048	-56.143	-132.923	163.182	3.798	179.388	153.030	155.233	-22.145	141.733	-155.003	179.173	179.012	-112.809	59.951	0.0002111	0.00024593	2.5134e-05	1253.3	2.1219e-06	2.1107e-06	1326.2	258.19	2.1073e-06	6.5317e-07	319.69	89.973	70.452	20.362	1.1523e-06	28.463	0.00014119	0.0001361	4.2969e-05	1190.7	1.5619e-06	1.4671e-06	1263	247.56	1.5038e-06	1.5341e-06	299.98	85.844	66.274	19.642	1.6962e-06	27.284	-66.315	187.905	117.687	-154.918	-140.911	-57.212	-154.950	-148.062	-44.284	-50.677	-148.348	-141.538	-141.635	-134.298	-68.815	-134.967	-8191	255	
1246.277	1	1	0	0	0.25027	0.12178	0.23602	0.229	0.11672	0.11568	0.32308	0.21017	0.083879	0.32774	0.074731	0.19872	0.051961	0.16532	0.05466	0.14636	-2.8812	-2.8896	-3.2375	-3.3542	-2.9688	-3.3833	-3.3646	-3.1917	-3.425	-3.0375	-3.1917	-3.2333	-2.875	-3.3021	-3.0229	-3.0563	18.249	151.208	127.869	108.134	61.958	-90.332	91.299	87.145	-63.405	71.661	-116.703	104.883	-34.176	-104.992	-60.898	169.142	0.00022771	0.0002509	0.00011821	1248.1	4.0568e-06	5.7274e-06	1323.5	258.66	3.3303e-06	4.4266e-06	318.88	89.466	70.44	20.197	1.3588e-06	28.419	0.00013772	0.00014216	4.3526e-05	1187.9	1.5116e-06	1.5694e-06	1262.5	247.76	1.4515e-06	1.6138e-06	299.64	85.262	66.182	19.626	1.6958e-06	27.224	-86.510	-157.383	-71.816	-154.968	-37.822	-95.247	-154.881	-148.029	4.976	-2.937	-148.430	-141.607	-141.324	-134.387	45.319	-134.711	-8191	255	
1246.373	1	1	0	0	0.12217	0.17839	0.13886	0.3557	0.27442	0.21538	0.015947	0.16286	0.019286	0.059394	0.1441	0.16886	0.1512	0.11122	0.070958	0.056231	-2.875	-3.0062	-3.1354	-3.2938	-2.9979	-3.1979	-3.2583	-3.125	-3.4229	-2.9271	-3.1542	-3.4896	-2.8375	-3.3833	-3.0896	-2.9375	-56.174	126.184	-136.558	173.840	-165.047	-27.131	93.180	130.564	56.686	186.573	-42.779	121.822	67.453	118.385	110.147	10.142	0.00020172	0.00063369	5.3511e-05	1252.3	2.689e-06	3.2672e-06	1326.2	259.37	3.8759e-06	9.9344e-07	320.71	89.636	70.518	20.206	1.2875e-07	28.196	0.00013538	0.00015219	4.2788e-05	1186.6	1.5024e-06	1.6901e-06	1260.7	247.61	1.4817e-06	1.7021e-06	299.41	85.375	66.177	19.677	1.6362e-06	27.166	-73.994	-121.797	-22.703	-154.893	6.322	-119.213	-154.953	-147.812	-40.045	-15.677	-148.171	-141.594	-141.420	-134.780	31.644	-135.060	-8191	255	
1246.469	1	1	0	0	0.11401	0.11356	0.22074	0.26803	0.18141	0.32004	0.20931	0.2602	0.20883	0.18037	0.11342	0.02935	0.098557	0.13415	0.21655	0.26695	-3.0687	-3.0604	-2.9708	-3.6083	-2.9583	-3.3563	-3.4646	-3.0438	-3.4208	-3.1437	-3.15	-3.4083	-2.9958	-3.2958	-3.3292	-2.9938	-109.790	172.913	-94.818	185.163	-44.769	-30.058	-86.633	133.277	-120.680	143.759	-91.240	-127.465	152.647	-17.135	133.155	88.982	0.00022749	0.0002423	7.797e-05	1248.8	1.4895e-06	1.5175e-06	1324.1	259.1	1.7075e-06	2.9174e-06	319.36	89.093	70.365	20.169	2.4525e-06	28.454	0.00013939	0.00015833	4.1693e-05	1185.5	1.5436e-06	1.738e-06	1259.2	247.4	1.5448e-06	1.7189e-06	298.96	85.197	66.352	19.688	1.5737e-06	27.156	-78.949	-94.069	-18.843	-154.778	-98.367	167.798	-155.033	-147.966	118.684	-58.286	-148.140	-141.514	-141.592	-134.481	3.817	-134.791	-8191	255	
1246.590	1	1	0	0	0.14561	0.21575	0.067018	0.12774	0.23643	0.188	0.36308	0.10589	0.1991	0.0478	0.12732	0.34395	0.28669	0.20177	0.025089	0.029495	-2.8646	-3.0583	-2.9813	-3.5896	-2.9979	-3.2396	-3.3667	-3.0917	-3.2583	-3.1646	-3.1562	-3.4604	-3.0396	-3.1021	-3.2625	-3.1125	-123.389	134.374	-11.626	104.448	67.345	137.461	163.827	160.311	-77.839	76.922	108.436	111.165	121.978	-139.565	156.567	-15.145	0.00025463	0.00027491	0.00010162	1248.4	3.0056e-06	3.6003e-06	1322.6	259.07	5.1796e-06	3.082e-06	319	89.206	70.705	20.256	4.2813e-06	28.403	0.00014791	0.00015709	4.0673e-05	1187.7	1.6346e-06	1.712e-06	1260.9	247.16	1.6438e-06	1.7114e-06	298.43	85.426	66.52	19.735	1.5526e-06	27.257	-86.518	-124.665	-21.070	-154.978	-114.976	1.606	-154.779	-147.736	-60.118	23.976	-148.181	-141.826	-141.669	-134.400	44.053	-134.923	-8191	255	
1246.686	1	1	0	0	0.0067705	0.059127	0.17445	0.24509	0.22715	0.024932	0.23427	0.16835	0.082757	0.15307	0.11442	0.28604	0.16685	0.1049	0.10049	0.28236	-2.8167	-3.1167	-3.0271	-3.6208	-3.1125	-3.1896	-3.5104	-3.1688	-3.3375	-3.0875	-3.0438	-3.5229	-3.1396	-3.1583	-3.3125	-2.9938	-90.679	152.482	-162.815	170.662	-105.067	127.098	131.377	-153.219	24.486	157.856	-24.022	-100.896	98.096	143.451	61.194	94.144	0.00023789	0.00010943	6.7004e-05	1254.7	3.7112e-06	4.4804e-06	1324.5	259.07	4.7794e-06	3.0269e-06	320.51	89.528	70.639	20.277	1.8637e-06	28.196	0.00015648	0.00015243	4.0446e-05	1188.9	1.7563e-06	1.6726e-06	1260.8	247.58	1.7413e-06	1.6345e-06	298.82	85.462	66.842	19.686	1.5055e-06	27.27	-88.094	-106.833	-66.934	-155.092	-72.600	37.826	-154.978	-147.931	-81.735	27.438	-148.504	-141.923	-141.163	-134.585	5.743	-134.795	-8191	255	
1246.780	1	1	0	0	0.043853	0.14942	0.18738	0.25553	0.15533	0.096087	0.26621	0.16615	0.13623	0.31247	0.38741	0.20882	0.32153	0.21328	0.070871	0.049136	-2.7542	-3	-3.1521	-3.5542	-3.0938	-3.0375	-3.4771	-3.0625	-3.1875	-3.2083	-3.125	-3.3792	-3.1646	-2.9542	-3.3979	-3.1688	-20.956	72.135	-138.977	185.927	94.953	173.485	136.420	156.268	138.759	106.611	-158.318	110.772	130.205	34.407	-103.766	-116.957	0.00022652	9.8181e-05	4.9331e-05	1251.6	2.1527e-06	7.2822e-06	1328	259.24	4.5589e-06	2.2336e-06	319.55	89.008	70.707	20.268	2.6182e-06	28.409	0.00016316	0.00014843	3.9022e-05	1189.3	1.7535e-06	1.625e-06	1260.7	248.13	1.756e-06	1.5851e-06	297.88	85.452	66.769	19.669	1.4917e-06	27.304	-87.935	-105.593	39.319	-155.030	-100.070	-63.649	-154.929	-147.992	29.795	17.712	-148.188	-141.609	-141.327	-134.323	-36.567	-134.929	-8191	255	
1246.878	1	1	0	0	0.27036	0.17204	0.31361	0.065797	0.076515	0.35335	0.19793	0.11279	0.15108	0.36236	0.050078	0.26741	0.21602	0.079848	0.37071	0.18797	-2.7438	-3.1542	-2.8042	-3.5229	-2.9667	-2.9813	-3.4938	-3.1437	-3.1771	-3.1979	-3.0146	-3.2146	-3.1583	-2.8521	-3.2687	-3.0146	-115.556	191.393	-10.570	-114.522	-72.800	-29.417	112.797	97.306	-128.324	-147.477	110.973	-122.680	-75.948	31.974	-60.808	-135.589	0.00027231	0.00020326	6.8471e-05	1252.7	1.1154e-06	3.2494e-06	1324	259.34	2.946e-06	3.391e-06	320.68	89.293	70.144	20.373	2.1572e-06	28.294	0.00015905	0.00014185	3.7415e-05	1189.8	1.6623e-06	1.5745e-06	1257.7	247.78	1.6873e-06	1.5372e-06	298.61	85.69	66.326	19.616	1.4951e-06	27.305	-75.515	-116.356	44.500	-154.945	-14.728	-21.671	-154.973	-147.976	5.342	53.081	-148.532	-141.774	-141.311	-134.529	-130.326	-134.778	-8191	255	
1246.972	1	1	0	0	0.12384	0.095414	0.29451	0.25618	0.084891	0.10321	0.13038	0.21138	0.073425	0.082191	0.083348	0.26816	0.22939	0.09717	0.15002	0.16604	-2.6646	-3.3688	-2.9625	-3.4313	-3.2333	-2.8958	-3.4688	-3.1437	-3.0833	-3.25	-2.9708	-3.3479	-3.0563	-2.9021	-3.275	-3.1437	-76.339	-107.172	-25.078	160.496	-54.646	-156.561	147.850	-151.258	-160.639	157.824	187.252	116.411	168.639	-161.519	-36.902	-153.309	0.00021445	0.0001268	0.00011763	1250.5	2.7408e-06	2.5554e-06	1321.5	258.57	4.9615e-06	1.7242e-06	320	89.295	70.658	20.252	1.4126e-06	28.577	0.00015305	0.00013909	3.8831e-05	1188	1.6292e-06	1.5383e-06	1257.4	247.83	1.6261e-06	1.4948e-06	297.69	85.421	66.241	19.545	1.5814e-06	27.341	-81.090	-102.760	-54.015	-154.864	-53.153	-28.482	-154.926	-147.722	-13.467	-2.066	-148.372	-141.735	-141.390	-134.609	-133.008	-135.199	-8191	255	
1247.069	1	1	0	0	0.041854	0.10706	0.19076	0.24915	0.020671	0.086791	0.26282	0.11456	0.13907	0.15903	0.24194	0.0808	0.080104	0.15027	0.069538	0.080541	-2.6417	-3.3375	-2.8667	-3.4833	-3.1396	-2.9125	-3.6208	-3.1083	-2.8812	-3.3271	-2.9625	-3.3417	-3.1729	-2.9562	-3.3292	-3.0625	190.205	-1.733	171.003	-149.255	-65.235	100.627	79.368	136.932	-126.306	-71.069	98.103	113.899	-35.393	77.789	5.407	92.247	0.00019422	0.00016169	4.3685e-05	1251.1	2.3952e-06	4.4734e-06	1327.6	258.21	2.5675e-06	2.1496e-06	319.99	89.366	70.264	20.177	1.7607e-06	28.387	0.00014878	0.00013498	4.1153e-05	1187.3	1.585e-06	1.5137e-06	1259.4	247.55	1.585e-06	1.4598e-06	299.04	85.651	66.013	19.523	1.6744e-06	27.307	-86.065	-103.708	141.461	-154.878	-14.277	-78.565	-154.999	-147.847	-14.958	-9.767	-148.515	-141.666	-141.218	-134.365	-105.512	-134.887	-8191	255	
#DATA ENDS
