BOXY.EXE: ISS Imagent and Oximeter Data Acquisition Program Version 0.80
Ascii Record File

#ACQ INFORMATION
2  Detector Channels 
16  External MUX Channels 
1  Auxiliary Channels 
5000  Waveform (CCF) Frequency (Hz)
1  Waveforms Skipped 
30  Waveforms Averaged 
1  Cycles Averaged 
16  Acquisitions per Waveform 
10.0806  Updata Rate (Hz) 

#FILE INFORMATION
TRUE -- External MUX Channel results are PARSED.
FALSE -- AC DC and Phase are NOT grouped.
TRUE -- Companion Program Settings File CREATED.
FALSE -- AC data not excluded
FALSE -- DC data not excluded
FALSE -- Phase data not excluded
FALSE -- Auxillary Chn. data not excluded
Tab delimiters

#CALIBRATION STATE
TRUE -- Waveform Calibration Values APPLIED.


#AUX CALIBRATION VALUES
Val Type	aux-1	

Term	1.0000e+00	
Factor	0.0000e+00	


#WF CALIBRATION VALUES
A = Detector Channel
Val Type	A-AC1	A-AC2	A-AC3	A-AC4	A-AC5	A-AC6	A-AC7	A-AC8	A-AC9	A-AC10	A-AC11	A-AC12	A-AC13	A-AC14	A-AC15	A-AC16	A-DC1	A-DC2	A-DC3	A-DC4	A-DC5	A-DC6	A-DC7	A-DC8	A-DC9	A-DC10	A-DC11	A-DC12	A-DC13	A-DC14	A-DC15	A-DC16	A-Ph1	A-Ph2	A-Ph3	A-Ph4	A-Ph5	A-Ph6	A-Ph7	A-Ph8	A-Ph9	A-Ph10	A-Ph11	A-Ph12	A-Ph13	A-Ph14	A-Ph15	A-Ph16	

Term	0.00000e+00	0.00000e+00	0.00000e+00	0.00000e+00	0.00000e+00	0.00000e+00	0.00000e+00	0.00000e+00	0.00000e+00	0.00000e+00	0.00000e+00	0.00000e+00	0.00000e+00	0.00000e+00	0.00000e+00	0.00000e+00	0.00000e+00	0.00000e+00	0.00000e+00	0.00000e+00	0.00000e+00	0.00000e+00	0.00000e+00	0.00000e+00	0.00000e+00	0.00000e+00	0.00000e+00	0.00000e+00	0.00000e+00	0.00000e+00	0.00000e+00	0.00000e+00	0.00000e+00	0.00000e+00	0.00000e+00	0.00000e+00	0.00000e+00	0.00000e+00	0.00000e+00	0.00000e+00	0.00000e+00	0.00000e+00	0.00000e+00	0.00000e+00	0.00000e+00	0.00000e+00	0.00000e+00	0.00000e+00	
Factor	1.00000e+00	1.00000e+00	1.00000e+00	1.00000e+00	1.00000e+00	1.00000e+00	1.00000e+00	1.00000e+00	1.00000e+00	1.00000e+00	1.00000e+00	1.00000e+00	1.00000e+00	1.00000e+00	1.00000e+00	1.00000e+00	1.00000e+00	1.00000e+00	1.00000e+00	1.00000e+00	1.00000e+00	1.00000e+00	1.00000e+00	1.00000e+00	1.00000e+00	1.00000e+00	1.00000e+00	1.00000e+00	1.00000e+00	1.00000e+00	1.00000e+00	1.00000e+00	X	X	X	X	X	X	X	X	X	X	X	X	X	X	X	X	

B = Detector Channel
Val Type	B-AC1	B-AC2	B-AC3	B-AC4	B-AC5	B-AC6	B-AC7	B-AC8	B-AC9	B-AC10	B-AC11	B-AC12	B-AC13	B-AC14	B-AC15	B-AC16	B-DC1	B-DC2	B-DC3	B-DC4	B-DC5	B-DC6	B-DC7	B-DC8	B-DC9	B-DC10	B-DC11	B-DC12	B-DC13	B-DC14	B-DC15	B-DC16	B-Ph1	B-Ph2	B-Ph3	B-Ph4	B-Ph5	B-Ph6	B-Ph7	B-Ph8	B-Ph9	B-Ph10	B-Ph11	B-Ph12	B-Ph13	B-Ph14	B-Ph15	B-Ph16	

Term	0.00000e+00	0.00000e+00	0.00000e+00	0.00000e+00	0.00000e+00	0.00000e+00	0.00000e+00	0.00000e+00	0.00000e+00	0.00000e+00	0.00000e+00	0.00000e+00	0.00000e+00	0.00000e+00	0.00000e+00	0.00000e+00	0.00000e+00	0.00000e+00	0.00000e+00	0.00000e+00	0.00000e+00	0.00000e+00	0.00000e+00	0.00000e+00	0.00000e+00	0.00000e+00	0.00000e+00	0.00000e+00	0.00000e+00	0.00000e+00	0.00000e+00	0.00000e+00	-1.80303e+02	-1.38097e+02	-1.19944e+02	-1.80819e+02	-7.90061e+01	-8.11867e+01	-1.57378e+02	-1.62015e+02	-8.94823e+01	-7.32125e+01	-1.71564e+02	-1.71541e+02	-1.83671e+02	-1.76147e+02	-9.09538e+01	-1.49257e+02	
Factor	2.87017e-05	1.45962e-04	4.30770e-05	1.57142e-01	1.46671e-06	1.61965e-06	1.59980e-01	4.53428e-02	1.43660e-06	1.32136e-06	7.50420e-02	2.82269e-02	3.42424e-02	8.08152e-03	1.41912e-06	1.17899e-02	2.86743e-06	3.12586e-06	8.73151e-07	7.88825e-02	3.38613e-08	3.44756e-08	7.56613e-02	2.28643e-02	3.41259e-08	3.46871e-08	3.65790e-02	1.37491e-02	1.70758e-02	4.08423e-03	3.47117e-08	5.78306e-03	X	X	X	X	X	X	X	X	X	X	X	X	X	X	X	X	



#DISTANCE SETTINGS
A = Detector Channel
A-1	A-2	A-3	A-4	A-5	A-6	A-7	A-8	A-9	A-10	A-11	A-12	A-13	A-14	A-15	A-16	

2.5000e+00	3.0000e+00	2.5000e+00	3.0000e+00	2.0000e+00	3.0000e+00	1.5000e+00	3.0000e+00	3.0000e+00	3.0000e+00	3.0000e+00	3.0000e+00	3.0000e+00	3.0000e+00	1.5000e+00	3.0000e+00	

B = Detector Channel
B-1	B-2	B-3	B-4	B-5	B-6	B-7	B-8	B-9	B-10	B-11	B-12	B-13	B-14	B-15	B-16	

1.0000e+01	1.0000e+01	1.0000e+01	1.4400e+00	1.0000e+01	1.0000e+01	1.5100e+00	1.9400e+00	1.0000e+01	1.0000e+01	1.9900e+00	2.4900e+00	2.4100e+00	2.9000e+00	1.0000e+01	2.9800e+00	




#DATA BEGINS
time	group	step	mark	flag	A-AC1	A-AC2	A-AC3	A-AC4	A-AC5	A-AC6	A-AC7	A-AC8	A-AC9	A-AC10	A-AC11	A-AC12	A-AC13	A-AC14	A-AC15	A-AC16	A-DC1	A-DC2	A-DC3	A-DC4	A-DC5	A-DC6	A-DC7	A-DC8	A-DC9	A-DC10	A-DC11	A-DC12	A-DC13	A-DC14	A-DC15	A-DC16	A-Ph1	A-Ph2	A-Ph3	A-Ph4	A-Ph5	A-Ph6	A-Ph7	A-Ph8	A-Ph9	A-Ph10	A-Ph11	A-Ph12	A-Ph13	A-Ph14	A-Ph15	A-Ph16	B-AC1	B-AC2	B-AC3	B-AC4	B-AC5	B-AC6	B-AC7	B-AC8	B-AC9	B-AC10	B-AC11	B-AC12	B-AC13	B-AC14	B-AC15	B-AC16	B-DC1	B-DC2	B-DC3	B-DC4	B-DC5	B-DC6	B-DC7	B-DC8	B-DC9	B-DC10	B-DC11	B-DC12	B-DC13	B-DC14	B-DC15	B-DC16	B-Ph1	B-Ph2	B-Ph3	B-Ph4	B-Ph5	B-Ph6	B-Ph7	B-Ph8	B-Ph9	B-Ph10	B-Ph11	B-Ph12	B-Ph13	B-Ph14	B-Ph15	B-Ph16	aux-1	digaux	

7562.884	1	1	0	768	0.23985	0.11917	0.14603	0.12537	0.17453	0.089546	0.30636	0.29467	0.032559	0.22219	0.22575	0.15612	0.20223	0.012493	0.25672	0.16728	-2.3438	-2.6333	-2.5917	-3.0187	-2.6771	-2.6479	-2.975	-2.7	-2.6729	-2.8083	-2.7188	-2.7812	-2.5083	-2.7188	-2.85	-2.6	275.427	259.329	100.106	-57.403	110.034	-38.751	114.277	239.233	-23.050	210.240	19.939	-63.896	127.280	274.486	39.977	226.005	9.2187e-05	0.00050662	0.00011723	1175.6	4.7663e-07	4.1685e-06	1239.2	240.73	1.9831e-06	2.8786e-06	299.96	81.097	63.532	18.348	3.522e-06	26.169	0.00023695	0.00023492	6.6294e-05	1150.3	2.6316e-06	2.5413e-06	1212.3	236.85	2.6217e-06	2.5981e-06	295.11	81.075	63.395	18.482	2.5632e-06	26.288	121.041	-10.898	30.033	-67.116	216.252	24.611	-67.137	-59.753	50.481	54.880	-60.268	-53.546	-53.760	-46.378	61.873	-46.560	-8191	255	
7562.980	1	1	0	0	0.10067	0.072094	0.20131	0.21784	0.053237	0.071686	0.20136	0.11248	0.070745	0.028784	0.37523	0.13324	0.17251	0.15527	0.14405	0.27346	-2.2458	-2.7479	-2.5854	-2.9229	-2.5812	-2.5479	-3.0646	-2.7208	-2.7021	-2.8021	-2.5208	-2.8271	-2.8187	-2.6958	-2.9	-2.7062	-51.805	33.547	-0.917	204.781	6.192	-32.787	223.628	108.329	162.808	236.631	233.326	201.209	-5.505	-40.218	-38.627	174.868	0.0001008	0.00022791	8.8847e-05	1172.5	3.8793e-06	6.4382e-06	1235	238.74	2.5078e-06	1.9199e-06	298.21	80.959	63.398	18.255	2.655e-06	25.881	0.00023475	0.00022679	6.3509e-05	1146.1	2.4861e-06	2.4227e-06	1207.5	235.5	2.4611e-06	2.4268e-06	293.45	80.674	63.019	18.348	2.364e-06	26.134	110.763	32.880	74.761	-67.117	51.446	22.730	-67.150	-59.873	21.664	55.719	-60.033	-53.936	-53.312	-46.408	70.894	-46.804	-8191	255	
7563.076	1	1	0	0	0.12606	0.1634	0.1622	0.14968	0.17896	0.10922	0.32812	0.1515	0.052911	0.086323	0.25986	0.069812	0.10127	0.40742	0.060452	0.084037	-2.1167	-2.7271	-2.3937	-2.8833	-2.6729	-2.5917	-3.0708	-2.8667	-2.5021	-2.8063	-2.6646	-2.725	-2.725	-2.5	-2.9417	-2.5375	-23.825	117.992	-34.349	240.441	-39.970	100.613	259.372	148.722	38.171	240.059	256.896	33.285	184.350	274.918	59.392	162.347	0.00013314	8.6589e-05	0.000154	1162.8	4.2532e-06	4.1348e-06	1221.6	237.99	3.097e-07	2.2505e-06	297.79	80.951	63.415	18.39	1.6175e-06	25.905	0.00021359	0.00021085	6.0309e-05	1138.2	2.3476e-06	2.3281e-06	1198.3	234.5	2.403e-06	2.354e-06	292.6	80.549	62.997	18.384	2.3531e-06	26.113	124.448	-39.270	43.070	-67.106	78.622	65.578	-67.297	-59.975	107.592	108.377	-60.248	-53.815	-53.420	-45.895	-22.734	-46.636	-8191	255	
7563.172	1	1	0	0	0.097303	0.1633	0.16062	0.059258	0.086361	0.2002	0.16811	0.23337	0.048241	0.18423	0.25326	0.1572	0.049143	0.069152	0.18285	0.057703	-2.2687	-2.7021	-2.5729	-2.7771	-2.8917	-2.3646	-2.8875	-2.7875	-2.6208	-2.8312	-2.6854	-2.7979	-2.8271	-2.5354	-2.7896	-2.4688	18.053	24.962	-42.375	255.286	161.195	85.137	222.961	205.297	68.182	-57.016	26.456	66.006	14.575	277.972	-8.086	154.726	0.00012116	0.00027033	0.00011196	1165.3	2.8499e-06	3.4326e-06	1229.8	238.17	2.294e-06	2.5599e-06	298.15	80.467	63.34	18.234	4.6214e-06	25.989	0.00021207	0.00020491	5.898e-05	1139.2	2.3061e-06	2.2925e-06	1202.4	234.81	2.2941e-06	2.2667e-06	293.08	80.366	62.976	18.319	2.1992e-06	26.139	117.070	-20.431	-14.594	-67.047	-3.807	48.067	-67.101	-59.869	33.323	42.443	-60.144	-53.986	-53.556	-46.428	43.563	-46.826	-8191	255	
7563.267	1	1	0	0	0.094149	0.30126	0.10608	0.29715	0.25955	0.14407	0.08183	0.23101	0.14743	0.089164	0.11349	0.45345	0.075237	0.087889	0.025171	0.2516	-1.9458	-2.7687	-2.6771	-2.8708	-2.7917	-2.5875	-2.9896	-2.9542	-2.6292	-2.9062	-2.7	-2.7042	-2.9396	-2.5875	-2.825	-2.7438	-67.463	199.555	204.329	245.680	272.788	121.280	17.814	-44.321	232.331	33.436	-58.899	197.255	-71.089	47.497	275.019	39.885	0.00012002	0.00019581	7.6163e-05	1164.9	2.6278e-06	4.1538e-06	1232.2	237.5	8.0281e-07	1.4894e-06	297.42	79.923	63.185	18.276	2.4933e-06	25.973	0.00020034	0.00019289	5.4552e-05	1141.6	2.2305e-06	2.1601e-06	1205.5	234.82	2.1786e-06	2.1488e-06	292.95	80.185	62.88	18.27	2.0583e-06	26.032	136.003	35.677	8.714	-66.975	106.515	0.124	-67.258	-60.072	112.268	95.089	-60.120	-53.887	-53.151	-46.277	77.664	-46.775	-8191	255	
7563.365	1	1	0	0	0.13295	0.1671	0.16209	0.25743	0.12463	0.19795	0.22126	0.23175	0.11056	0.089352	0.050666	0.12336	0.04543	0.064632	0.17227	0.21	-2.1521	-2.7167	-2.675	-2.6104	-2.8417	-2.45	-2.9854	-2.8792	-2.5854	-2.7854	-2.7167	-2.55	-2.9375	-2.5417	-2.5	-2.6917	123.081	221.385	71.891	-61.691	171.297	242.993	191.146	-47.046	134.893	182.909	3.211	244.406	65.940	-59.294	159.218	49.805	0.00013219	0.00023438	0.00016929	1166.7	1.1444e-06	1.3751e-06	1223.4	236.45	2.131e-06	3.0702e-06	295.9	79.907	63.007	18.22	2.0105e-06	25.703	0.0001798	0.00017203	4.6386e-05	1136.1	1.8986e-06	1.8313e-06	1197.6	232.9	1.8666e-06	1.7982e-06	290.94	79.639	62.396	18.18	1.8149e-06	25.817	105.522	-3.724	21.097	-67.119	64.380	261.148	-67.099	-59.943	50.365	102.188	-60.119	-53.795	-53.301	-46.365	92.298	-46.764	-8191	255	
7563.483	1	1	0	0	0.19331	0.2591	0.15749	0.20564	0.018353	0.029907	0.13253	0.20856	0.35346	0.0063363	0.095184	0.076084	0.087677	0.12054	0.056985	0.055298	-1.9021	-2.8833	-2.5417	-2.8417	-2.8958	-2.4896	-3.0021	-2.9229	-2.3667	-2.9417	-2.9042	-2.4771	-2.8375	-2.6188	-2.6271	-2.7896	35.709	86.388	186.695	-41.396	104.375	237.741	275.694	54.074	-60.363	281.417	196.346	190.536	201.867	165.795	-52.355	218.598	9.1874e-05	0.00044147	9.4582e-05	1161.4	2.2578e-06	2.1178e-06	1219.1	235.85	9.5712e-07	3.22e-06	294.64	79.814	62.78	18.107	2.0775e-06	25.823	0.00017131	0.00016704	4.5844e-05	1132.4	1.8971e-06	1.8516e-06	1191.7	232.33	1.9981e-06	1.9089e-06	289.73	79.47	62.129	18.141	2.0029e-06	25.848	131.908	15.096	49.603	-67.258	89.193	54.143	-66.964	-59.959	114.296	57.921	-59.913	-53.774	-53.646	-46.359	35.341	-46.566	-8191	255	
7563.580	1	1	0	0	0.088567	0.19505	0.11925	0.24941	0.10937	0.10129	0.082535	0.17764	0.045573	0.078343	0.19136	0.014187	0.2627	0.16368	0.11435	0.1094	-2.2208	-2.9208	-2.7479	-2.7208	-2.7667	-2.7083	-2.8563	-2.9125	-2.4562	-2.75	-2.8208	-2.5146	-2.8792	-2.7021	-2.5604	-2.7938	254.627	7.921	192.636	239.995	123.054	189.812	230.156	74.002	66.198	-4.468	229.130	198.269	-12.538	-66.468	192.596	-52.954	9.9371e-05	0.00041876	8.0372e-05	1156.8	1.4304e-07	2.2199e-06	1210.3	235.38	2.2142e-06	3.837e-06	293.87	79.481	62.14	17.998	1.6148e-06	25.635	0.00018286	0.00018341	5.0599e-05	1127	2.0001e-06	1.9808e-06	1188	232.3	2.0615e-06	2.0509e-06	290.24	79.575	62.017	18.124	2.1137e-06	25.847	121.466	-20.934	61.884	-67.147	96.952	65.778	-67.054	-59.910	52.434	4.782	-60.456	-53.684	-53.693	-46.186	42.636	-46.789	-8191	255	
7563.676	1	1	0	0	0.256	0.15927	0.099154	0.094564	0.26787	0.094922	0.40903	0.0060495	0.1915	0.23096	0.19114	0.19339	0.19783	0.089311	0.20291	0.22269	-2.0958	-2.6917	-2.6542	-2.5854	-2.9958	-2.6354	-2.7917	-2.6937	-2.6	-2.7896	-2.9104	-2.4938	-2.7375	-2.6771	-2.4896	-2.9104	42.600	51.627	162.632	-2.955	-6.104	91.722	232.715	-4.176	190.414	203.077	249.528	-68.003	132.470	129.788	131.330	62.873	0.00010367	0.00066521	7.1386e-05	1161.9	2.1999e-06	4.0931e-06	1216.6	236.44	2.6049e-06	2.1452e-06	295.96	80.073	62.529	18.158	2.7591e-06	25.916	0.00019518	0.00018711	5.3388e-05	1132.2	2.1632e-06	2.0973e-06	1192.3	233.04	2.1631e-06	2.1167e-06	291.03	79.886	62.383	18.265	2.2257e-06	26.059	100.309	0.771	55.000	-67.048	96.464	67.618	-67.104	-60.046	8.032	159.461	-60.340	-53.810	-53.672	-46.707	40.358	-46.899	-8191	255	
7563.772	1	1	0	0	0.1644	0.13728	0.13248	0.17757	0.2409	0.31971	0.13886	0.27442	0.1074	0.098954	0.21334	0.068971	0.14269	0.23581	0.22407	0.27459	-2.3563	-2.6167	-2.6271	-2.6063	-2.9062	-2.7646	-2.7812	-2.975	-2.6104	-2.8104	-2.8125	-2.4979	-2.9167	-2.8146	-2.5646	-2.9333	89.883	-76.782	60.561	269.755	132.484	206.887	172.968	239.034	-46.377	45.613	69.156	-68.723	31.578	228.375	214.682	100.999	0.00012429	0.00038973	0.00015162	1164.1	3.7928e-06	5.7058e-06	1220.6	236.3	2.5024e-06	1.096e-06	297.17	80.526	63.043	18.288	1.7631e-06	25.956	0.00019776	0.00020062	5.423e-05	1135	2.2231e-06	2.1615e-06	1196.3	233.87	2.2027e-06	2.1653e-06	292.04	80.358	62.87	18.363	2.1679e-06	26.143	112.210	8.200	47.909	-67.090	48.715	81.352	-66.956	-59.946	-12.437	25.551	-60.196	-53.705	-53.558	-46.505	76.015	-46.636	-8191	255	
7563.868	1	1	0	0	0.22304	0.1145	0.19669	0.41067	0.15288	0.077986	0.23989	0.15231	0.166	0.083753	0.074924	0.3455	0.09763	0.2185	0.34032	0.10556	-2.2604	-2.6417	-2.9396	-2.65	-2.8312	-2.7896	-2.6021	-2.9521	-2.5938	-2.6167	-2.9479	-2.6833	-2.7146	-2.8271	-2.6375	-2.8438	92.807	268.879	96.207	239.291	154.449	246.197	-72.327	-68.964	234.786	257.035	-7.385	172.526	230.437	-60.078	-1.689	19.456	0.00012248	0.00072708	9.4193e-05	1172.3	1.9723e-06	1.9717e-06	1229.5	238.24	2.4038e-06	1.455e-06	298.31	80.478	63.092	18.278	8.5842e-07	26.16	0.0001961	0.00019542	5.2853e-05	1142.7	2.142e-06	2.0772e-06	1202.6	235.03	2.1645e-06	2.0999e-06	293.38	80.449	62.999	18.386	2.149e-06	26.236	139.092	26.514	50.108	-67.072	22.408	9.067	-67.016	-60.115	38.933	-67.305	-60.392	-53.528	-53.564	-46.376	51.062	-46.987	-8191	255	
7563.964	1	1	0	0	0.17465	0.026564	0.2524	0.18381	0.099269	0.057047	0.34817	0.27616	0.068307	0.30672	0.34899	0.23604	0.15091	0.1518	0.069061	0.051514	-2.2938	-2.5375	-2.75	-2.6979	-2.6917	-2.95	-2.6688	-2.9792	-2.7333	-2.4792	-2.8667	-2.65	-2.9396	-2.9833	-2.4896	-2.9125	58.175	118.389	182.971	246.110	176.554	167.066	262.872	183.428	-16.359	-47.096	-62.679	220.151	109.719	230.826	203.414	166.431	8.719e-05	0.00043793	8.8044e-05	1167.4	2.0723e-07	3.3909e-06	1226.6	238.3	2.1856e-06	4.8749e-06	298.82	80.166	63.218	18.253	2.1736e-06	25.942	0.00020062	0.00019569	5.3444e-05	1140.7	2.1842e-06	2.1394e-06	1201.7	234.87	2.1889e-06	2.1372e-06	293.36	80.214	63.078	18.357	2.1867e-06	26.214	119.360	49.288	14.645	-67.084	-61.247	70.628	-67.220	-60.149	-24.740	48.200	-60.144	-53.863	-53.365	-46.345	-2.665	-47.107	-8191	255	
7564.060	1	1	0	0	0.03821	0.088099	0.079369	0.27587	0.16561	0.28521	0.10447	0.27841	0.18411	0.082496	0.070321	0.38047	0.046402	0.066575	0.12479	0.061054	-2.3	-2.7313	-2.7	-2.6375	-2.4979	-2.7667	-2.7562	-2.9396	-2.7021	-2.7438	-2.9042	-2.6937	-2.8604	-2.8708	-2.4188	-2.8417	176.083	47.914	221.529	277.454	-22.802	43.511	242.571	119.249	22.300	248.238	176.950	216.049	153.995	266.301	273.701	94.983	0.00011411	0.00032315	0.00014687	1170.9	2.1598e-06	2.3241e-06	1223.7	238.26	3.149e-07	5.4349e-06	299.57	80.836	63.483	18.233	4.0306e-06	26.188	0.00019358	0.00019521	5.393e-05	1141.7	2.1901e-06	2.1759e-06	1201.2	235.35	2.1496e-06	2.1491e-06	293.77	80.701	63.062	18.408	2.2007e-06	26.229	83.106	-34.525	30.555	-67.179	24.341	58.496	-66.953	-60.054	186.379	57.016	-60.384	-54.008	-53.399	-46.361	56.190	-46.592	-8191	255	
7564.179	1	1	0	0	0.20214	0.10101	0.12862	0.1021	0.18434	0.24678	0.26589	0.21958	0.066672	0.26412	0.037133	0.062451	0.11092	0.25105	0.22393	0.04736	-2.2771	-2.325	-2.7896	-2.7229	-2.7646	-2.9833	-2.9042	-2.6583	-2.4979	-2.4729	-2.9625	-2.8417	-2.5396	-2.8937	-2.575	-2.7	-66.151	101.859	159.330	252.769	262.489	66.890	209.613	211.365	76.021	-64.285	165.796	-48.038	-73.614	146.554	167.945	-46.700	0.0001461	0.00035668	0.00011034	1169.7	1.9026e-06	4.5778e-06	1224.2	239.13	1.6459e-06	3.2997e-06	297.08	80.769	63.169	18.298	3.6087e-06	26.01	0.00019858	0.00020034	5.5405e-05	1140.7	2.1814e-06	2.1238e-06	1202.7	235.98	2.2055e-06	2.134e-06	293.55	80.496	63.112	18.421	2.1756e-06	26.233	103.451	10.545	32.543	-67.284	37.471	57.367	-67.237	-60.086	-54.395	34.475	-59.966	-53.627	-53.560	-46.349	55.691	-46.841	-8191	255	
7564.275	1	1	0	0	0.22321	0.14231	0.11777	0.042253	0.079336	0.17962	0.29718	0.26647	0.18375	0.25987	0.20893	0.050368	0.067344	0.2281	0.078424	0.10578	-2.4688	-2.425	-2.7708	-2.7	-2.3812	-2.9458	-2.7062	-2.6688	-2.7542	-2.425	-2.925	-2.6021	-2.6458	-2.8354	-2.5417	-2.7	117.065	28.412	-47.563	253.751	126.675	-62.673	168.307	174.963	115.073	57.081	225.566	98.359	-51.760	-9.357	84.906	122.719	8.2251e-05	0.00024481	8.2891e-05	1170.8	2.606e-06	2.5607e-06	1231.9	238.76	2.6254e-06	2.2506e-06	298.08	80.742	63.567	18.356	3.2017e-06	26.168	0.00020086	0.0001991	5.5012e-05	1144.5	2.2188e-06	2.1578e-06	1206.3	235.88	2.2565e-06	2.2201e-06	294.05	80.703	63.267	18.462	2.2722e-06	26.285	107.581	16.205	-33.021	-67.093	18.657	59.880	-67.161	-60.049	115.785	77.341	-60.112	-53.788	-53.366	-46.643	41.722	-46.880	-8191	255	
7564.371	1	1	0	0	0.074634	0.064779	0.15555	0.036666	0.096326	0.092066	0.14581	0.094694	0.049277	0.15176	0.36795	0.090497	0.28464	0.16794	0.20493	0.15323	-2.5458	-2.5333	-2.8312	-2.7833	-2.5458	-2.8521	-2.7354	-2.7	-3.0146	-2.4583	-2.7792	-2.8063	-2.4958	-2.9125	-2.7583	-2.625	-54.687	237.823	181.365	183.874	159.638	118.039	170.824	215.713	56.943	99.814	-36.519	235.006	255.896	49.503	37.880	-55.120	0.00011611	0.00040503	0.00015063	1176.5	2.0473e-06	2.9246e-06	1229.6	239.49	1.9821e-06	1.2549e-06	298.76	81.068	63.651	18.339	3.9812e-06	26.263	0.00020264	0.00020295	5.5738e-05	1146.9	2.29e-06	2.2334e-06	1207.8	236.13	2.2729e-06	2.2431e-06	294.57	80.802	63.349	18.466	2.3132e-06	26.335	125.187	-7.371	0.483	-67.071	34.141	72.533	-67.172	-60.012	-10.681	56.151	-60.374	-53.839	-53.695	-46.088	56.001	-46.832	-8191	255	
7564.468	1	1	0	0	0.046167	0.11592	0.070124	0.15595	0.093076	0.10373	0.25711	0.12229	0.079008	0.17286	0.18007	0.062029	0.12615	0.18121	0.043632	0.1308	-2.5062	-2.4313	-2.5812	-2.8438	-2.4833	-3.0438	-2.7875	-2.7458	-2.7417	-2.6333	-2.8146	-2.8583	-2.7208	-2.8958	-2.9708	-2.6646	-5.021	127.700	26.768	93.612	69.919	238.770	215.985	215.643	109.285	62.435	254.556	-26.155	240.215	-60.165	228.859	165.434	0.00011176	0.00039091	0.00011084	1175.6	1.8497e-06	4.8139e-06	1232	239.25	1.4309e-06	5.6034e-06	299.02	81.099	63.76	18.462	2.2277e-06	26.213	0.00020595	0.00020772	5.7348e-05	1146.6	2.2947e-06	2.2592e-06	1207.9	236.39	2.3061e-06	2.2639e-06	294.82	81.061	63.425	18.531	2.3637e-06	26.294	122.448	0.204	-9.866	-67.003	67.198	94.626	-67.283	-60.178	-31.926	58.534	-60.220	-53.919	-53.777	-46.541	57.355	-46.541	-8191	255	
7564.564	1	1	0	0	0.033362	0.14513	0.067216	0.26949	0.24671	0.18989	0.27911	0.15374	0.042732	0.20022	0.18473	0.1365	0.13928	0.083739	0.19012	0.25674	-2.4437	-2.6729	-2.6562	-3.075	-2.5875	-2.6979	-2.8396	-2.6979	-2.8333	-2.6896	-2.7396	-2.9667	-2.6188	-2.8958	-2.8125	-2.6646	-4.597	165.012	70.759	202.895	38.477	213.324	148.331	202.283	54.113	213.613	228.539	246.775	1.745	-52.265	207.583	111.939	0.00010816	0.00031462	5.9664e-05	1175.2	2.6064e-06	2.7398e-06	1236.7	239.38	1.7484e-06	2.4144e-06	299.09	80.673	63.507	18.358	4.7686e-06	26.283	0.00021092	0.0002081	5.8367e-05	1148.3	2.3615e-06	2.2867e-06	1210.8	236.52	2.3944e-06	2.3241e-06	295.42	80.799	63.435	18.533	2.3965e-06	26.411	99.968	-33.662	49.118	-66.998	110.239	108.715	-67.124	-60.024	-3.481	33.860	-60.126	-53.875	-53.483	-46.294	71.186	-46.734	-8191	255	
7564.660	1	1	0	0	0.086305	0.093997	0.034213	0.18705	0.19283	0.083978	0.53676	0.10108	0.10356	0.35787	0.14883	0.10409	0.15416	0.1704	0.27009	0.12473	-2.5917	-2.6792	-2.4896	-2.975	-2.45	-2.8458	-3.0396	-2.6417	-2.9125	-2.7792	-2.7938	-2.9708	-2.6813	-2.85	-2.7812	-2.7646	55.242	152.453	41.098	187.772	25.303	191.563	224.156	233.058	224.208	135.203	-61.841	-28.764	106.454	-15.481	66.926	263.961	0.00011089	0.00026702	7.2364e-05	1176.3	1.319e-06	4.4773e-07	1237.7	240.77	1.5311e-06	2.9638e-06	300.52	81.266	63.922	18.562	2.1476e-06	26.389	0.00021238	0.00021579	5.8899e-05	1149.8	2.3946e-06	2.3441e-06	1213.8	237.36	2.4655e-06	2.3999e-06	295.92	81.159	63.821	18.586	2.4625e-06	26.476	125.672	0.256	12.525	-67.104	61.226	-11.222	-67.006	-59.858	55.932	36.348	-60.363	-53.820	-53.773	-46.694	24.974	-47.096	-8191	255	
7564.756	1	1	0	0	0.096839	0.13447	0.23022	0.14361	0.26992	0.12007	0.081676	0.32588	0.18321	0.16916	0.37759	0.23112	0.23612	0.29592	0.10261	0.29015	-2.4417	-2.6854	-2.6688	-3.0438	-2.6312	-2.675	-3.0521	-2.7208	-2.8542	-2.825	-2.6583	-2.9583	-2.5958	-2.7708	-2.8271	-2.5729	161.627	162.685	61.044	-47.451	130.494	60.641	72.482	278.215	126.925	105.780	-38.865	-66.246	-72.317	233.317	56.028	-62.352	9.9823e-05	0.00031679	8.5499e-05	1186.2	2.1759e-06	1.9882e-06	1242.1	242.06	1.6455e-06	4.486e-06	300.97	81.687	64.24	18.505	3.0182e-06	26.544	0.00022542	0.0002245	6.2341e-05	1157.4	2.4814e-06	2.4131e-06	1218.9	238.47	2.4957e-06	2.4444e-06	297.45	81.697	63.956	18.686	2.5582e-06	26.683	112.371	-9.732	-11.893	-67.128	116.888	147.827	-67.222	-60.104	-52.153	75.224	-60.361	-53.849	-53.851	-46.571	22.636	-46.894	-8191	255	
7564.852	1	1	0	0	0.12145	0.027972	0.1543	0.13181	0.17084	0.039919	0.28397	0.25575	0.17321	0.35355	0.043985	0.1431	0.33427	0.1315	0.20555	0.37782	-2.5187	-2.8063	-2.4646	-3.0458	-2.5438	-2.8083	-3.1146	-2.6104	-2.8208	-2.8187	-2.5875	-2.8125	-2.6063	-2.4354	-2.8312	-2.2896	110.611	266.626	247.248	251.479	158.379	-57.928	221.996	170.135	264.291	131.001	210.716	230.142	247.266	225.913	24.531	-3.174	0.00013759	0.00023664	9.02e-05	1189	2.6894e-06	1.7829e-06	1242.5	242.19	4.2731e-06	1.6356e-06	301.8	81.77	64.336	18.669	4.8066e-06	26.417	0.00022528	0.00022225	6.2898e-05	1159.3	2.5157e-06	2.418e-06	1221.1	238.95	2.4382e-06	2.4024e-06	297.71	81.662	64.203	18.738	2.4277e-06	26.599	127.306	-18.560	75.711	-67.236	113.221	15.751	-67.184	-60.023	35.134	49.521	-60.358	-53.942	-53.534	-46.338	62.218	-46.730	-8191	255	
7564.973	1	1	0	0	0.089401	0.079106	0.27947	0.29848	0.208	0.1221	0.14272	0.077283	0.15334	0.25425	0.24817	0.12328	0.21601	0.18379	0.21144	0.052399	-2.425	-2.7979	-2.3667	-3.0583	-2.5833	-2.6813	-3.1479	-2.6437	-2.7375	-2.9771	-2.5687	-2.7542	-2.7417	-2.5417	-2.8937	-2.6917	175.678	-29.487	92.661	231.130	149.776	-39.499	-53.368	-72.199	207.098	149.103	265.136	203.678	0.680	239.232	126.959	112.617	0.00014347	0.00041671	7.3523e-05	1191.5	2.7165e-06	1.4555e-06	1247.5	241.84	2.8689e-06	1.8943e-06	303.02	81.985	64.058	18.751	2.8037e-06	26.523	0.00022122	0.0002192	6.1839e-05	1161.3	2.4198e-06	2.4112e-06	1220.5	239.24	2.4291e-06	2.3385e-06	297.69	81.785	63.975	18.736	2.4117e-06	26.638	108.709	-30.998	43.346	-67.106	23.666	50.382	-67.177	-60.179	66.721	51.527	-60.195	-54.230	-53.587	-46.543	62.604	-46.792	-8191	255	
7565.045	1	1	0	0	0.049454	0.2773	0.32257	0.28066	0.24517	0.21921	0.19409	0.064443	0.10743	0.19699	0.11328	0.16505	0.20317	0.063297	0.11139	0.11893	-2.1375	-2.85	-2.5958	-2.9833	-2.6458	-2.6063	-3.0458	-2.7792	-2.6667	-2.7292	-2.7062	-2.9458	-2.6417	-2.675	-2.775	-2.6562	175.281	186.081	-67.435	243.085	212.413	-12.173	189.471	115.957	14.432	234.273	278.766	158.571	122.278	216.164	235.948	120.968	0.00012473	0.00024093	0.00010221	1188.1	2.6085e-06	2.7809e-06	1245.8	241.47	2.6839e-06	3.0226e-06	302.54	81.693	64.294	18.542	2.0807e-06	26.319	0.00021308	0.00020669	5.8648e-05	1160	2.2849e-06	2.2895e-06	1218.7	238.48	2.3543e-06	2.3092e-06	297.36	81.58	63.93	18.684	2.4015e-06	26.568	104.117	30.447	-3.003	-67.219	32.422	26.132	-67.055	-60.039	-46.037	53.309	-60.304	-53.683	-53.560	-46.498	-17.840	-46.827	-8191	255	
7565.165	1	1	0	0	0.29631	0.12554	0.066426	0.42666	0.028828	0.081639	0.17662	0.071394	0.051503	0.15181	0.040847	0.11895	0.18204	0.18231	0.054533	0.14261	-2.1562	-2.8438	-2.6167	-2.9208	-2.8187	-2.4333	-2.9917	-2.6437	-2.4521	-2.9313	-2.6312	-2.6875	-2.8625	-2.6979	-2.8646	-2.6896	-0.893	233.770	196.165	242.379	234.395	-54.403	216.503	277.900	277.347	-22.511	19.669	60.392	140.049	219.804	99.455	91.128	0.00013994	0.00033988	0.00014134	1185.4	3.9994e-06	4.7739e-06	1240.5	240.63	2.0762e-06	2.2088e-06	301.87	81.337	63.991	18.561	2.3919e-06	26.28	0.00021624	0.00021195	5.9813e-05	1158.1	2.3558e-06	2.3145e-06	1217.9	238.35	2.3646e-06	2.3054e-06	297.25	81.354	63.861	18.662	2.2791e-06	26.491	125.111	-36.791	46.839	-67.206	77.287	85.136	-67.133	-59.999	-61.903	10.177	-60.444	-53.945	-53.758	-46.862	111.756	-46.945	-8191	255	
7565.260	1	1	0	0	0.096589	0.23268	0.075821	0.22449	0.15835	0.23832	0.18235	0.16746	0.13725	0.22446	0.12807	0.28702	0.23444	0.07849	0.1166	0.31243	-2.2125	-2.7521	-2.5187	-2.8875	-2.7417	-2.525	-3.0167	-2.6312	-2.6688	-3.075	-2.7583	-2.7313	-2.9708	-2.6292	-2.8667	-2.6229	-51.332	115.912	-9.973	249.010	216.015	77.018	-73.893	277.897	-41.564	55.506	2.148	237.833	74.938	-62.103	120.535	274.263	0.0001268	0.00029171	4.6796e-05	1184.1	3.2418e-06	2.5555e-06	1241.9	241.27	3.7177e-06	2.2445e-06	303.03	81.817	63.855	18.546	2.8934e-06	26.419	0.00020752	0.00020164	5.692e-05	1155.1	2.2999e-06	2.2668e-06	1216.7	237.83	2.2628e-06	2.2914e-06	297.23	81.306	63.845	18.665	2.3318e-06	26.464	124.874	-30.205	-28.974	-67.037	28.734	65.736	-67.271	-60.277	3.208	37.809	-60.376	-53.884	-53.346	-46.464	-0.786	-46.878	-8191	255	
7565.356	1	1	0	0	0.29091	0.094297	0.14231	0.061077	0.02038	0.081802	0.09846	0.13518	0.037088	0.080978	0.18783	0.12384	0.19826	0.14726	0.13802	0.1089	-2.1	-2.8854	-2.7062	-2.7729	-2.7125	-2.7208	-3.0938	-2.9625	-2.5979	-2.8	-2.7771	-2.7667	-2.8104	-2.4729	-2.7917	-2.7396	169.910	26.640	164.057	188.339	-7.608	-39.859	232.611	157.029	-59.594	-3.455	17.288	-74.005	78.444	241.804	11.468	195.939	0.00010843	0.00041688	0.00016222	1183.4	2.2992e-06	3.0207e-06	1240.6	241.47	2.4202e-06	4.1047e-06	301.93	81.316	64.076	18.571	3.7665e-06	26.503	0.00021015	0.00020898	5.7501e-05	1156.1	2.339e-06	2.3275e-06	1215.2	238.36	2.4045e-06	2.372e-06	296.89	81.328	63.929	18.684	2.3652e-06	26.559	97.878	24.045	20.004	-67.228	39.466	75.800	-67.143	-60.122	70.389	77.122	-60.155	-53.766	-53.654	-46.704	6.988	-46.553	-8191	255	
7565.452	1	1	0	0	0.15373	0.21038	0.10244	0.19839	0.17153	0.24945	0.3443	0.16612	0.15976	0.10172	0.25998	0.1827	0.2948	0.10312	0.021731	0.16015	-2.1063	-2.7354	-2.6875	-2.7708	-2.8792	-2.6604	-3.0583	-2.9083	-2.5542	-2.8458	-2.7104	-2.6813	-2.9688	-2.4917	-2.7292	-2.925	62.628	69.357	223.753	267.544	25.096	-13.349	232.841	147.030	126.228	263.021	72.973	-58.825	56.469	-18.564	66.743	123.606	0.00010867	0.00046707	0.00010066	1181.2	3.2332e-06	4.7566e-06	1237.6	240.18	2.8236e-06	2.7705e-06	299.54	81.41	64.173	18.596	4.8063e-07	26.256	0.00021043	0.00020896	5.6797e-05	1152.3	2.3189e-06	2.2737e-06	1215.1	237.43	2.341e-06	2.2447e-06	296	81.384	63.599	18.63	2.2996e-06	26.404	137.094	7.864	4.826	-67.344	10.618	69.645	-67.026	-60.218	58.062	94.033	-60.082	-53.808	-53.585	-46.678	18.993	-46.595	-8191	255	
7565.572	1	1	0	0	0.28351	0.11312	0.25725	0.27404	0.10095	0.20945	0.24524	0.067351	0.080971	0.05349	0.078452	0.21212	0.057447	0.26493	0.042352	0.15439	-2.0979	-2.7042	-2.5354	-2.6917	-2.9938	-2.6521	-2.8583	-2.9646	-2.6042	-2.7354	-2.6437	-2.5354	-2.9813	-2.7625	-2.7042	-2.8333	130.704	177.854	83.514	239.263	-47.228	231.099	179.593	-42.903	252.890	-1.097	61.366	2.480	234.484	243.223	36.662	145.130	0.00010551	0.00018344	0.00014393	1180.9	2.8038e-06	3.3201e-06	1239.7	240.51	1.1727e-06	3.8245e-06	300.09	81.222	64.31	18.615	2.1275e-06	26.274	0.0002084	0.00020614	5.7412e-05	1152.4	2.3311e-06	2.2474e-06	1212.7	237.85	2.3904e-06	2.2985e-06	296.4	81.216	63.881	18.639	2.3663e-06	26.504	122.031	-1.322	7.197	-67.165	55.723	60.748	-67.120	-60.103	-11.409	75.126	-60.054	-53.822	-53.867	-46.600	66.612	-46.723	-8191	255	
7565.669	1	1	0	0	0.26104	0.23471	0.21612	0.25128	0.12259	0.10118	0.083109	0.087061	0.11591	0.13443	0.095115	0.41705	0.15679	0.15803	0.070877	0.22165	-2.0771	-2.7792	-2.5792	-2.5812	-2.8708	-2.65	-2.8792	-2.8896	-2.5563	-2.9	-2.8083	-2.5	-2.75	-2.6063	-2.6229	-2.7708	50.247	94.597	18.270	-61.949	133.001	3.109	224.521	-16.584	169.368	38.773	276.542	236.565	213.204	-1.602	97.113	178.073	0.0001333	0.00031274	0.00017421	1180.2	2.6496e-06	1.8116e-06	1239.6	240.84	5.7909e-07	1.6423e-06	300.49	81.442	64.101	18.432	2.079e-06	26.335	0.00020975	0.00020241	5.61e-05	1152.6	2.2458e-06	2.2073e-06	1213.3	237.69	2.27e-06	2.2657e-06	296.19	81.204	63.571	18.559	2.3343e-06	26.451	120.718	-8.321	9.815	-67.132	135.015	128.972	-67.226	-60.178	116.200	30.061	-60.377	-54.058	-53.233	-46.433	59.514	-46.413	-8191	255	
7565.765	1	1	0	0	0.20717	0.12858	0.078598	0.021443	0.21395	0.1932	0.19286	0.27905	0.059004	0.07542	0.091717	0.12727	0.075943	0.28722	0.091537	0.11509	-2.1125	-2.575	-2.6813	-2.6958	-2.8187	-2.8625	-2.7333	-2.8542	-2.4021	-2.7625	-2.8354	-2.6229	-2.6917	-2.7938	-2.4917	-3.0542	99.324	116.948	10.500	95.291	37.296	218.453	184.873	-32.328	249.768	-77.310	125.193	168.530	94.256	122.413	38.108	81.076	0.0001007	0.00036416	0.0001114	1177.9	2.4308e-06	4.5883e-06	1238.8	240.57	2.4596e-06	2.4374e-06	299.18	81.238	64.218	18.58	2.2646e-06	26.256	0.00020389	0.00020173	5.5565e-05	1150.9	2.2516e-06	2.2054e-06	1212.3	237.16	2.2509e-06	2.2142e-06	295.46	81.022	63.663	18.565	2.2514e-06	26.418	152.735	-29.721	-14.772	-67.348	103.054	77.941	-67.176	-59.874	22.036	76.418	-60.366	-53.692	-53.364	-46.353	69.106	-47.400	-8191	255	
7565.861	1	1	0	0	0.23266	0.13606	0.24563	0.33024	0.084869	0.1525	0.25385	0.34541	0.23919	0.05925	0.11867	0.15383	0.23933	0.050508	0.19615	0.16642	-2.375	-2.6604	-2.9021	-2.5292	-2.8083	-2.7792	-2.9062	-2.975	-2.6271	-2.5917	-2.8958	-2.5687	-2.8937	-2.8	-2.7479	-2.8604	162.343	-66.181	280.695	268.502	16.682	191.055	238.394	246.245	89.243	135.255	203.466	261.880	155.211	101.098	-56.577	257.136	9.6812e-05	0.00019759	9.0965e-05	1184	1.7023e-06	3.6426e-06	1235.7	241.21	1.4296e-06	2.387e-06	300.11	81.067	63.933	18.518	1.2424e-06	26.314	0.0002038	0.00020133	5.5842e-05	1151.9	2.2733e-06	2.2125e-06	1210.8	237.27	2.2006e-06	2.1898e-06	295.42	81.099	63.576	18.567	2.1918e-06	26.415	127.244	63.079	-15.712	-67.073	133.284	46.420	-67.250	-60.129	72.846	124.036	-60.349	-53.741	-53.741	-46.499	-10.053	-46.774	-8191	255	
7565.957	1	1	0	0	0.21495	0.14407	0.035128	0.27266	0.044814	0.29674	0.22325	0.00090819	0.35113	0.05716	0.10754	0.12558	0.19709	0.13206	0.22326	0.15786	-2.1958	-2.675	-3.0125	-2.6437	-2.7479	-2.6583	-2.6583	-2.8396	-2.5333	-2.4979	-2.8771	-2.6792	-2.7417	-2.7458	-2.6333	-3.0896	278.894	-18.660	204.584	210.337	-76.952	-38.683	171.185	180.000	189.376	49.221	280.173	-16.262	175.819	16.768	254.554	251.917	0.00013958	0.0004111	0.00010375	1183.2	3.4227e-06	2.8552e-06	1237.4	239.7	2.5153e-06	3.509e-06	299.88	81.243	63.633	18.441	2.9519e-06	26.213	0.00020209	0.00019657	5.5036e-05	1151.8	2.2389e-06	2.139e-06	1210.8	236.9	2.2246e-06	2.2078e-06	295.12	81.028	63.404	18.548	2.2618e-06	26.408	125.512	9.404	-5.729	-67.042	105.016	91.789	-67.159	-60.279	85.373	40.371	-60.192	-53.430	-53.522	-46.296	40.073	-46.677	-8191	255	
7566.053	1	1	0	0	0.053093	0.090519	0.25981	0.26133	0.081063	0.056753	0.072811	0.2139	0.2107	0.061385	0.094017	0.17429	0.14523	0.13341	0.18188	0.15643	-2.0812	-2.4875	-2.8521	-2.6396	-2.6562	-2.9125	-2.95	-2.8771	-2.5792	-2.4875	-3.1083	-2.7542	-2.625	-2.8396	-2.4271	-2.8729	223.784	-29.520	269.112	206.057	42.123	-41.563	79.809	-54.901	107.248	30.977	247.392	247.129	22.795	194.768	271.251	259.183	0.00012127	0.0001072	0.00010081	1181.5	2.3112e-06	1.4003e-06	1238.4	239.43	2.5619e-06	2.8272e-06	301.02	81.107	64.725	18.49	3.9671e-06	26.22	0.00020193	0.00019534	5.5698e-05	1151.2	2.1847e-06	2.2263e-06	1212.5	236.67	2.2816e-06	2.1948e-06	295.83	80.984	63.675	18.574	2.2569e-06	26.396	113.346	-57.851	-8.361	-67.018	-3.441	12.366	-67.009	-60.171	17.929	67.413	-60.312	-53.598	-53.785	-46.222	34.329	-46.713	-8191	255	
7566.149	1	1	0	0	0.066744	0.24898	0.11866	0.13793	0.13299	0.069464	0.17066	0.20745	0.18948	0.13198	0.087856	0.25691	0.20452	0.081157	0.23594	0.030165	-2.0979	-2.4646	-2.675	-2.5875	-2.6958	-2.7438	-2.725	-2.7667	-2.7125	-2.5438	-3.025	-2.7146	-2.6271	-2.825	-2.6271	-2.7687	-54.900	151.537	154.148	-73.447	13.763	15.497	238.412	84.737	259.467	249.259	56.766	216.166	16.153	-50.387	88.644	111.227	0.00014544	0.00021211	6.9777e-05	1176.1	2.3865e-06	1.4424e-06	1242	241.02	4.2201e-07	3.8074e-06	301.32	81.238	64.216	18.451	3.9081e-06	26.203	0.00020257	0.0001992	5.5327e-05	1149.7	2.2457e-06	2.1606e-06	1213.1	237.05	2.2213e-06	2.147e-06	295.77	80.851	63.54	18.523	2.1804e-06	26.414	116.702	-1.992	73.295	-67.173	20.395	123.032	-67.306	-60.182	2.415	89.060	-60.469	-54.074	-53.761	-46.544	71.450	-46.732	-8191	255	
7566.268	1	1	0	0	0.057499	0.23529	0.19239	0.29032	0.1032	0.11679	0.17083	0.019077	0.048026	0.16695	0.23353	0.19283	0.12621	0.16499	0.108	0.17947	-2.3979	-2.5646	-2.7313	-2.9625	-2.7271	-2.7042	-2.8021	-2.6813	-2.7375	-2.4562	-2.7771	-2.8083	-2.3729	-2.8208	-2.675	-2.7729	47.421	129.228	-58.199	247.499	219.043	-27.837	215.004	154.628	221.883	111.626	204.097	1.790	85.471	208.151	-9.971	256.315	0.00011372	0.0003461	0.00013754	1175.9	3.2887e-06	3.0913e-06	1235.5	240.27	6.5484e-07	1.9099e-06	300.78	81.238	63.445	18.563	4.3514e-06	26.25	0.00020075	0.00019955	5.5796e-05	1149.9	2.2166e-06	2.2199e-06	1211.3	237.56	2.2769e-06	2.2408e-06	295.88	81.224	63.491	18.586	2.2251e-06	26.413	115.484	13.865	13.070	-67.239	101.397	59.525	-67.239	-59.803	99.749	77.977	-60.133	-54.065	-53.686	-46.510	42.041	-46.974	-8191	255	
7566.340	1	1	0	0	0.26948	0.14099	0.13119	0.064395	0.18984	0.35794	0.3	0.15203	0.070886	0.18187	0.22017	0.053453	0.23645	0.11004	0.088258	0.2782	-2.35	-2.3521	-2.8021	-2.7292	-2.4667	-2.7771	-2.7958	-2.6708	-2.85	-2.5271	-2.9167	-2.8083	-2.5042	-2.7625	-2.6104	-2.7229	273.234	249.616	133.286	-73.667	-14.893	64.365	227.538	194.388	136.379	88.226	238.553	159.361	-12.396	73.670	158.253	84.321	0.00014253	0.00035392	8.187e-05	1180.3	2.1073e-06	3.0273e-06	1234.8	240.73	2.7041e-06	4.9122e-06	299.74	81.346	63.782	18.43	5.0709e-06	26.338	0.00020171	0.00020054	5.5974e-05	1151.3	2.2279e-06	2.1972e-06	1214	237.14	2.2062e-06	2.2178e-06	295.32	81.087	63.553	18.575	2.1761e-06	26.493	97.191	-5.274	26.661	-66.984	38.891	112.571	-67.001	-60.028	41.075	93.255	-60.300	-53.865	-53.713	-46.391	82.233	-46.806	-8191	255	
7566.436	1	1	0	0	0.38709	0.40487	0.073126	0.23866	0.078549	0.29522	0.11992	0.0974	0.080433	0.041414	0.19737	0.085372	0.25367	0.25756	0.056596	0.36307	-2.5479	-2.5292	-2.8625	-2.8333	-2.5187	-2.7667	-2.7687	-2.7771	-2.9208	-2.5292	-2.8083	-2.7229	-2.7458	-2.8187	-2.7042	-2.7083	124.607	-31.356	-42.556	217.596	-77.001	22.550	178.509	242.250	120.297	216.637	-29.697	-10.076	221.626	99.715	235.761	228.886	0.00013144	3.336e-05	8.3242e-05	1181.5	2.7482e-06	1.9277e-06	1239.8	241.32	5.6838e-06	3.4348e-07	300.74	80.968	64.255	18.506	4.6454e-06	26.259	0.0001995	0.00019649	5.5874e-05	1154	2.1857e-06	2.1664e-06	1213.6	237.6	2.2371e-06	2.2065e-06	296.15	80.975	63.715	18.605	2.2218e-06	26.483	103.605	-18.973	48.259	-67.231	95.262	147.511	-67.027	-60.015	8.951	-54.353	-60.541	-53.885	-53.574	-46.740	94.617	-46.981	-8191	255	
7566.532	1	1	0	0	0.086799	0.18697	0.16324	0.11201	0.23072	0.15813	0.27836	0.18659	0.14633	0.078035	0.23493	0.049491	0.095811	0.20912	0.094328	0.12449	-2.6562	-2.5083	-2.6042	-3.0708	-2.3458	-2.7979	-2.7229	-2.675	-2.8812	-2.5521	-2.7062	-2.9437	-2.5771	-2.9583	-2.6396	-2.4313	11.006	146.067	-62.471	226.383	18.520	181.887	194.523	279.008	132.464	55.315	236.553	25.449	-13.452	-62.897	21.734	279.795	6.7137e-05	0.00019453	0.00012763	1185.9	2.8264e-06	3.7591e-06	1242.2	240.59	2.7202e-06	4.1963e-06	299.23	80.853	64.102	18.531	1.2758e-06	26.469	0.00020337	0.00020243	5.5809e-05	1154.5	2.2636e-06	2.2492e-06	1214.4	237.26	2.2361e-06	2.2443e-06	295.23	81.217	63.633	18.623	2.2226e-06	26.501	110.941	49.103	-11.073	-67.218	-0.430	80.910	-67.171	-60.279	60.443	80.181	-60.137	-53.801	-53.796	-46.508	78.647	-46.529	-8191	255	
7566.653	1	1	0	0	0.188	0.13682	0.12853	0.10742	0.15579	0.095928	0.32968	0.18391	0.17902	0.10651	0.21955	0.10454	0.14486	0.13512	0.17025	0.1827	-2.5563	-2.4688	-2.5104	-2.9042	-2.6771	-2.6479	-2.9479	-2.6125	-2.7604	-2.6562	-2.7104	-2.8021	-2.6229	-2.8125	-2.7167	-2.5	212.551	265.765	90.991	-63.639	20.124	242.000	226.141	56.987	52.824	54.255	29.422	-12.467	-56.236	-59.498	55.325	188.131	0.00013491	0.00016321	7.4126e-05	1182.2	2.4817e-06	4.695e-06	1236.8	241.61	4.708e-06	1.809e-06	299.8	80.857	63.809	18.533	2.3106e-06	26.392	0.00020534	0.00020281	5.582e-05	1152.9	2.3436e-06	2.222e-06	1212.9	237.65	2.2912e-06	2.2154e-06	295.73	81.086	63.62	18.612	2.2099e-06	26.467	129.450	218.062	28.470	-66.988	101.173	68.255	-67.279	-59.863	64.731	78.325	-60.365	-53.853	-53.409	-46.691	90.657	-46.755	-8191	255	
7566.749	1	1	0	0	0.1192	0.052914	0.38091	0.12899	0.093275	0.053619	0.18388	0.12165	0.17614	0.11294	0.23392	0.16293	0.10568	0.11978	0.18055	0.36256	-2.2229	-2.6479	-2.5938	-2.9771	-2.5021	-2.4958	-2.8979	-2.6854	-2.7125	-2.6354	-2.6625	-2.85	-2.5458	-2.6646	-2.8625	-2.4042	199.487	64.961	255.899	237.217	-51.351	121.589	213.551	154.785	61.186	84.262	270.526	20.055	113.423	-49.181	110.005	191.084	0.0001188	0.00033303	0.00012245	1175.8	3.7254e-06	3.8175e-06	1238.1	240.1	2.9211e-06	2.2676e-06	299.84	81.172	63.72	18.536	2.0416e-06	26.285	0.00020281	0.00019641	5.6229e-05	1151.1	2.1862e-06	2.2217e-06	1210	236.83	2.1948e-06	2.1518e-06	295.22	80.95	63.452	18.533	2.1948e-06	26.376	124.394	2.781	6.715	-67.108	48.478	77.989	-67.239	-60.246	67.551	78.963	-60.500	-54.050	-53.525	-46.546	-2.444	-46.769	-8191	255	
7566.845	1	1	0	0	0.26247	0.090431	0.043323	0.29524	0.1581	0.34661	0.2289	0.19285	0.16031	0.10681	0.26772	0.12388	0.1275	0.16519	0.25371	0.16336	-2.3854	-2.6833	-2.4938	-3.0979	-2.5167	-2.6167	-2.9229	-2.5729	-2.6458	-2.5417	-2.5542	-2.8312	-2.7542	-2.65	-2.9458	-2.4813	-22.620	39.481	-23.339	-68.689	246.211	86.754	187.691	275.772	-65.574	-3.566	245.238	190.956	-19.088	175.564	223.545	74.828	0.00013098	0.0002503	8.3925e-05	1177.9	4.0932e-06	4.833e-06	1232.3	239.62	2.1276e-06	2.7108e-06	299.48	80.655	63.605	18.544	2.6877e-06	26.406	0.00019795	0.00019166	5.4785e-05	1148.3	2.2298e-06	2.1748e-06	1209	236.52	2.21e-06	2.121e-06	295.02	80.899	63.504	18.564	2.1752e-06	26.471	107.463	-10.645	50.574	-67.032	108.767	43.822	-66.950	-60.228	75.731	96.870	-60.285	-53.892	-53.343	-46.587	45.485	-46.829	-8191	255	
7566.941	1	1	0	0	0.074854	0.29246	0.13125	0.17921	0.038298	0.2586	0.17112	0.30456	0.2416	0.23903	0.13747	0.051689	0.11575	0.1788	0.19612	0.27261	-2.2875	-2.7542	-2.3708	-2.8167	-2.7167	-2.5563	-2.9125	-2.6896	-2.725	-2.7208	-2.6646	-2.9104	-2.6688	-2.7146	-2.975	-2.4125	-8.458	14.210	-8.857	228.406	118.499	4.363	273.270	238.426	-26.222	218.305	-73.131	55.124	130.839	260.386	103.062	18.392	0.00011144	0.0002468	9.8799e-05	1174	2.5616e-06	3.5926e-06	1235.1	240.98	9.8002e-07	4.0227e-06	299.79	80.884	63.909	18.468	3.303e-06	26.295	0.00019806	0.00019141	5.648e-05	1147.5	2.193e-06	2.1734e-06	1209.6	237.25	2.188e-06	2.214e-06	295.25	80.853	63.599	18.579	2.1918e-06	26.441	121.267	-40.678	27.792	-67.224	75.471	102.614	-67.153	-60.043	-39.302	45.334	-60.340	-54.046	-53.734	-46.552	71.411	-46.949	-8191	255	
7567.037	1	1	0	0	0.21797	0.11187	0.14398	0.26452	0.073846	0.31018	0.16501	0.090768	0.254	0.26544	0.21201	0.09444	0.22474	0.074684	0.20977	0.038518	-2.1021	-2.5979	-2.4542	-2.9333	-2.7167	-2.3688	-3.1104	-2.6667	-2.5938	-2.8396	-2.65	-2.7646	-2.6625	-2.4604	-2.7687	-2.6854	-33.206	176.143	134.269	219.709	66.750	178.094	165.838	-13.233	86.958	161.118	230.338	-35.687	216.053	187.412	277.538	128.347	0.00011929	0.00024547	0.00010365	1180.9	1.6524e-06	4.1102e-06	1235.8	240.59	1.7266e-06	2.976e-06	300.23	80.658	64.054	18.475	2.87e-06	26.443	0.00019953	0.00019982	5.5041e-05	1150.6	2.1977e-06	2.1816e-06	1210.8	236.77	2.2072e-06	2.1707e-06	295.83	80.815	63.642	18.56	2.2273e-06	26.48	128.085	-5.471	5.546	-67.182	81.704	39.440	-67.146	-60.012	23.106	93.697	-60.296	-53.854	-53.661	-46.798	142.141	-47.190	-8191	255	
7567.134	1	1	0	0	0.19795	0.20571	0.1304	0.17445	0.17995	0.11843	0.25454	0.077081	0.07085	0.20843	0.34275	0.048637	0.21881	0.26574	0.23939	0.1378	-2.0854	-2.8333	-2.5333	-2.9896	-2.7875	-2.3937	-2.8688	-2.6458	-2.6479	-2.8312	-2.6688	-2.7021	-2.725	-2.4875	-2.9292	-2.6583	82.030	249.005	164.263	185.264	-34.821	270.741	220.606	260.560	66.891	82.437	204.109	43.724	182.969	25.753	242.223	269.698	0.00016958	0.0001877	0.00010921	1185.1	3.4821e-06	1.7336e-06	1241.4	241.18	1.2839e-06	3.3086e-06	301.31	80.973	63.892	18.695	7.6559e-07	26.304	0.00020591	0.00019762	5.4925e-05	1152.5	2.232e-06	2.1975e-06	1213.4	237.47	2.2631e-06	2.2183e-06	296.08	81.088	63.663	18.646	2.2672e-06	26.519	123.393	-60.741	10.944	-67.155	68.544	73.796	-67.129	-59.995	-63.753	52.490	-59.893	-53.872	-53.283	-46.984	105.733	-46.915	-8191	255	
7567.254	1	1	0	0	0.14298	0.25921	0.11932	0.20068	0.10466	0.11364	0.1161	0.071623	0.16898	0.072274	0.053718	0.061401	0.027658	0.055013	0.24204	0.22258	-2.0646	-2.7333	-2.4771	-2.8229	-2.6271	-2.5521	-2.8604	-2.7604	-2.5042	-3.1312	-2.6188	-2.6875	-2.7729	-2.7562	-2.8521	-2.8312	145.315	217.944	216.101	-57.436	168.921	191.734	228.520	179.772	86.840	-28.875	-34.317	-1.056	110.781	26.696	-24.027	270.252	0.00011756	0.00045915	0.00012468	1182.7	2.8762e-06	4.2343e-06	1244.5	241.29	2.823e-06	3.0613e-06	299.93	81.593	64.095	18.577	1.9376e-06	26.319	0.0002106	0.00021132	5.7375e-05	1155.2	2.3528e-06	2.3478e-06	1219.3	238.39	2.3974e-06	2.371e-06	296.16	81.604	63.854	18.697	2.2915e-06	26.5	113.703	-27.839	86.821	-67.025	56.122	47.897	-67.100	-60.433	26.888	75.105	-60.190	-54.200	-53.508	-46.456	69.801	-46.606	-8191	255	
7567.349	1	1	0	0	0.057273	0.1935	0.11945	0.066792	0.11039	0.14844	0.24445	0.2738	0.16936	0.19298	0.27431	0.084084	0.17296	0.12832	0.12603	0.20979	-2.3625	-2.9646	-2.5729	-2.7104	-2.9458	-2.5021	-2.9521	-2.8438	-2.5958	-2.7208	-2.7875	-2.475	-2.7667	-2.6375	-2.7646	-2.925	37.547	143.275	280.848	-73.866	179.008	-23.098	252.613	244.378	233.058	146.328	234.776	-36.191	206.402	-2.975	168.082	185.973	0.00010511	0.00014006	9.9065e-05	1184.5	1.6239e-06	3.2242e-06	1236.2	238.83	2.9388e-06	2.7549e-06	297.42	80.614	63.056	18.375	1.7094e-06	26.206	0.00020051	0.00019546	5.3639e-05	1156.5	2.0732e-06	1.9701e-06	1211.6	236.41	1.9071e-06	1.8084e-06	292.94	80.28	62.585	18.368	1.6783e-06	26.191	147.084	-40.669	29.765	-66.934	45.536	41.285	-67.055	-60.120	74.859	99.668	-60.288	-53.817	-53.257	-46.373	-33.971	-46.952	-8191	255	
7567.445	1	1	0	0	0.076304	0.095166	0.2064	0.094876	0.29055	0.10832	0.088676	0.35243	0.20301	0.17078	0.087335	0.25265	0.19846	0.31931	0.19957	0.053111	-2.0271	-2.8792	-2.5	-2.7729	-3.0292	-2.5729	-2.8146	-2.9583	-2.4333	-2.9562	-2.7958	-2.6208	-2.9104	-2.6125	-2.7896	-2.9333	-66.228	-38.802	192.055	235.892	21.799	-41.120	188.196	230.837	116.529	-30.596	-70.957	-54.966	-73.996	38.933	155.921	250.994	0.00011724	0.00026816	0.00014153	1167.5	1.1168e-06	3.276e-06	1221.4	237.15	2.747e-06	4.3113e-06	295.1	79.907	63.479	18.211	1.9424e-06	26.094	0.00015644	0.00014632	4.064e-05	1136.9	1.6584e-06	1.615e-06	1196.7	233.22	1.6963e-06	1.7075e-06	290.85	79.679	62.53	18.273	1.8248e-06	26.099	138.359	10.852	15.065	-67.038	75.853	33.633	-67.115	-59.982	-1.400	67.152	-60.293	-54.065	-53.714	-46.370	6.816	-46.667	-8191	255	
7567.565	1	1	0	0	0.44875	0.17114	0.43362	0.10554	0.18017	0.46346	0.26526	0.24034	0.29196	0.26819	0.23476	0.15402	0.041903	0.15543	0.11938	0.28317	-1.9813	-2.7687	-2.8354	-2.65	-2.9417	-2.575	-2.8812	-2.7667	-2.5417	-2.7583	-2.775	-2.6667	-2.8104	-2.6875	-2.7604	-2.6896	67.024	15.970	-11.320	217.419	208.951	-62.057	187.527	-72.051	-4.069	179.560	-53.437	-9.013	205.408	-64.603	85.463	170.322	8.7887e-05	0.00037395	7.4191e-05	1164.5	2.2135e-06	1.7458e-06	1224.1	237.85	2.3401e-06	2.9587e-06	298.69	80.826	63.275	18.311	1.6195e-06	26.138	0.00017401	0.0001691	4.7354e-05	1136.6	1.9407e-06	1.9199e-06	1200.1	234.66	2.0019e-06	2.0054e-06	292.45	80.493	62.81	18.445	2.1281e-06	26.246	113.679	44.870	-16.368	-67.075	74.509	79.607	-67.222	-60.002	-17.703	66.197	-60.392	-54.010	-53.571	-46.475	13.876	-46.994	-8191	255	
7567.637	1	1	0	0	0.31008	0.1063	0.29134	0.20089	0.15793	0.11639	0.4631	0.25805	0.013241	0.15742	0.19499	0.14067	0.12304	0.19102	0.22115	0.079548	-2.2708	-2.7354	-2.6708	-2.6125	-2.75	-2.7396	-2.9479	-2.7917	-2.3896	-2.7125	-2.7354	-2.4583	-2.8229	-2.6312	-2.7542	-2.8854	233.927	177.510	146.849	266.019	240.182	-8.962	201.225	230.705	239.823	92.603	190.106	161.840	170.022	234.151	146.825	-33.917	0.00011966	0.00039367	0.00010472	1170.6	1.2757e-06	1.7064e-06	1233.3	239.63	1.0897e-06	2.5873e-06	298.93	81.028	63.223	18.444	2.7694e-06	26.455	0.00019439	0.00019294	5.4594e-05	1143.7	2.1841e-06	2.152e-06	1207.7	235.69	2.1961e-06	2.1467e-06	294.01	80.663	63.248	18.574	2.2056e-06	26.443	117.053	29.687	73.216	-67.120	182.233	98.642	-67.178	-60.156	152.278	3.204	-60.557	-53.312	-53.425	-46.700	31.488	-46.623	-8191	255	
7567.733	1	1	0	0	0.33562	0.22878	0.1831	0.14943	0.020156	0.11051	0.20519	0.10988	0.20854	0.13924	0.19324	0.11717	0.12907	0.25192	0.26571	0.057055	-2.0542	-2.975	-2.7625	-2.6479	-2.7542	-2.5875	-2.7479	-3.1042	-2.5979	-2.5854	-3.1417	-2.7562	-2.7396	-2.6958	-2.4188	-2.8208	16.205	-76.865	-34.079	191.300	84.343	190.693	150.635	-38.912	17.770	211.066	200.232	-73.109	240.168	196.970	47.782	9.344	7.545e-05	0.00014992	7.3596e-05	1177.7	1.2317e-06	2.6102e-06	1237.2	240.06	1.7415e-06	2.4537e-06	299.96	80.807	64.108	18.459	2.3177e-06	26.234	0.00020031	0.00019415	5.5012e-05	1149.3	2.1693e-06	2.1257e-06	1209.6	236.32	2.2422e-06	2.1825e-06	295.3	80.855	63.521	18.571	2.2452e-06	26.433	139.574	48.750	12.376	-67.185	56.244	99.015	-67.191	-60.075	4.875	95.069	-60.170	-54.147	-53.382	-46.700	71.710	-46.930	-8191	255	
7567.829	1	1	0	0	0.16068	0.10548	0.37871	0.18452	0.14778	0.14534	0.42431	0.32168	0.2716	0.17862	0.18404	0.20214	0.19445	0.117	0.07001	0.22765	-2.0938	-2.5417	-2.9062	-2.7521	-2.8708	-2.6708	-2.7	-3.0271	-2.7812	-2.6042	-2.9854	-2.6875	-2.8229	-2.8125	-2.5771	-2.975	30.416	-5.382	-27.642	194.522	70.026	20.454	250.371	270.565	16.094	-62.626	-45.050	216.703	196.834	-32.806	-17.182	230.137	0.00014948	0.00026019	6.9848e-05	1181.6	2.8285e-06	1.3753e-06	1238	240	2.3454e-06	2.4343e-06	298.46	81.308	64.138	18.438	2.8028e-06	26.485	0.00020145	0.00019602	5.5531e-05	1153.5	2.2219e-06	2.1973e-06	1213.4	237.03	2.2506e-06	2.2422e-06	294.74	81.033	63.685	18.616	2.2942e-06	26.469	136.153	68.051	92.182	-67.029	54.071	15.213	-67.058	-59.962	16.959	38.690	-60.437	-53.895	-53.584	-46.583	93.360	-46.932	-8191	255	
7567.950	1	1	0	0	0.13379	0.13202	0.04952	0.17592	0.18177	0.2286	0.13314	0.34252	0.19151	0.037078	0.18852	0.06801	0.17241	0.31727	0.10584	0.073678	-2.4333	-2.6021	-2.9396	-2.3896	-2.7354	-2.7562	-2.7354	-3.1021	-2.4854	-2.5208	-2.9292	-2.5375	-2.7	-2.9562	-2.5167	-2.7313	93.267	156.466	-40.526	41.842	23.302	-6.962	120.552	177.042	237.115	45.929	182.667	201.463	-4.546	246.065	-2.763	87.883	0.0001553	0.0003014	8.0006e-05	1176.9	1.6931e-06	2.2956e-06	1240.8	240.4	1.0394e-06	3.0273e-06	300.12	81.465	64.279	18.452	1.1135e-06	26.003	0.00020872	0.00020612	5.6698e-05	1153	2.2193e-06	2.154e-06	1214.3	237.1	2.2468e-06	2.1532e-06	295.26	80.993	63.524	18.532	2.1949e-06	26.299	123.611	27.480	27.930	-67.179	-2.663	128.686	-67.291	-59.943	109.140	82.068	-60.263	-53.824	-53.336	-46.523	52.211	-47.075	-8191	255	
7568.046	1	1	0	0	0.11784	0.077571	0.21655	0.21719	0.085359	0.13901	0.27139	0.35112	0.10514	0.1773	0.058068	0.24789	0.13053	0.074751	0.10068	0.1079	-2.1875	-2.4979	-2.7938	-2.5896	-2.6229	-2.9562	-2.7021	-2.9146	-2.8354	-2.7333	-2.9875	-2.6104	-2.7521	-2.9	-2.5083	-2.6479	-50.728	-69.335	49.354	-70.687	82.721	123.423	271.659	263.821	-2.807	-43.400	-6.333	-46.287	114.595	169.746	260.178	233.934	9.0803e-05	0.00042769	0.00010214	1179.7	9.3125e-07	3.7278e-06	1243.4	240.56	1.3855e-06	2.0091e-06	299.76	80.996	63.964	18.41	1.9893e-06	26.331	0.00020025	0.00019438	5.5411e-05	1152.4	2.198e-06	2.1095e-06	1214.8	236.79	2.2067e-06	2.1417e-06	295.32	80.904	63.382	18.523	2.224e-06	26.449	132.607	-24.816	25.305	-67.291	235.011	62.011	-67.399	-60.177	141.230	57.313	-60.037	-53.720	-53.543	-46.757	2.804	-47.173	-8191	255	
7568.142	1	1	0	0	0.20351	0.042637	0.18361	0.25893	0.24851	0.16079	0.32045	0.15543	0.11259	0.10633	0.063043	0.12663	0.12954	0.048271	0.086512	0.15695	-2.3417	-2.5708	-2.6417	-2.7479	-2.6063	-3.0021	-2.7417	-2.7708	-2.7271	-2.3875	-2.95	-2.6896	-2.6604	-2.9771	-2.5125	-2.8354	6.417	230.812	76.211	178.192	8.615	-8.731	196.861	-15.488	278.155	50.860	260.270	-27.945	275.417	158.717	148.105	32.545	0.00013447	0.00012476	8.6927e-05	1185.4	2.4168e-06	3.8176e-06	1237.2	239.67	1.9063e-06	2.3459e-06	299.89	81.181	64.371	18.454	3.6476e-06	26.314	0.00020539	0.00020849	5.4717e-05	1154.7	2.2914e-06	2.2638e-06	1214.7	236.9	2.2559e-06	2.2524e-06	295.52	81.009	63.681	18.556	2.3301e-06	26.448	131.002	259.135	21.713	-67.271	124.786	69.001	-67.015	-59.946	134.879	68.078	-60.401	-53.923	-53.759	-46.508	74.606	-46.771	-8191	255	
7568.214	1	1	0	0	0.3492	0.072387	0.13901	0.14906	0.049984	0.58773	0.057447	0.036439	0.28787	0.15336	0.22058	0.028843	0.18671	0.32508	0.25465	0.029299	-2.4625	-2.4437	-2.9958	-2.8708	-2.5792	-2.8208	-2.7125	-2.8958	-2.9313	-2.5896	-2.8917	-2.7771	-2.5438	-2.8583	-2.5396	-2.6917	-26.579	279.307	85.307	265.289	-50.821	132.312	153.625	278.054	152.407	59.022	265.441	67.873	267.872	-3.798	4.572	251.200	5.8729e-05	0.00031727	6.9567e-05	1183.2	1.8323e-06	2.6778e-06	1235.1	240.38	2.3908e-06	3.7065e-06	299.01	81.534	63.299	18.49	7.6794e-07	26.173	0.0002081	0.00021156	5.7775e-05	1154.2	2.2827e-06	2.2476e-06	1212.6	236.93	2.2837e-06	2.2733e-06	295.26	81.07	63.484	18.531	2.3276e-06	26.367	83.753	-1.651	17.802	-67.127	20.896	47.363	-67.139	-60.145	82.411	53.748	-60.317	-53.794	-53.418	-46.039	154.260	-47.222	-8191	255	
7568.333	1	1	0	0	0.12211	0.43464	0.25149	0.17285	0.10521	0.076384	0.30983	0.21068	0.16123	0.06871	0.12172	0.12052	0.17	0.28754	0.18861	0.23121	-2.3167	-2.5896	-2.7646	-2.8875	-2.5646	-3.0146	-2.9104	-2.6917	-3.0438	-2.7104	-2.8021	-2.8854	-2.7062	-2.8667	-2.7062	-2.7396	31.518	170.768	-16.439	195.713	179.554	140.661	212.264	169.149	-0.815	183.546	4.601	-54.150	246.978	152.165	-37.765	241.981	0.0001037	0.00045043	7.5156e-05	1180.1	4.2923e-06	2.0984e-06	1240.7	240.31	1.4705e-06	2.7062e-06	300.47	80.609	63.945	18.552	3.375e-06	26.254	0.000215	0.00021197	5.9201e-05	1153.6	2.3936e-06	2.3139e-06	1216	237.25	2.3701e-06	2.3802e-06	295.72	81.025	63.668	18.599	2.3948e-06	26.436	101.962	-18.342	-7.533	-67.149	61.409	18.630	-67.215	-60.129	-51.367	101.640	-60.331	-54.266	-53.799	-46.573	3.494	-46.930	-8191	255	
7568.429	1	1	0	0	0.031391	0.10316	0.27921	0.20905	0.18595	0.10435	0.15717	0.16071	0.048198	0.21252	0.089289	0.42364	0.12108	0.13537	0.088785	0.014001	-2.425	-2.5667	-2.8125	-2.7771	-2.6021	-2.7875	-2.9313	-2.8917	-3.0042	-2.5375	-2.7167	-2.8417	-2.6729	-2.7458	-2.6708	-2.4667	85.441	24.187	-52.201	225.203	231.234	71.449	209.784	257.062	-70.004	230.854	262.730	-39.724	13.617	245.739	90.639	44.360	0.00010808	0.00027103	9.3999e-05	1185.9	1.9084e-06	2.1018e-06	1244.9	240.4	3.763e-06	2.4254e-06	300.69	80.935	63.823	18.446	1.1039e-06	26.272	0.00021249	0.0002106	5.8226e-05	1155.3	2.3388e-06	2.3188e-06	1216.5	237.29	2.3277e-06	2.3504e-06	295.51	80.97	63.668	18.565	2.3337e-06	26.403	123.647	-15.759	0.247	-67.178	98.636	80.721	-67.353	-60.033	56.980	90.156	-60.379	-54.154	-53.501	-46.438	112.959	-46.903	-8191	255	
7568.525	1	1	0	0	0.23338	0.047706	0.14043	0.34913	0.079824	0.20701	0.17096	0.17604	0.095208	0.14308	0.16599	0.09282	0.11512	0.045858	0.24421	0.16045	-2.2104	-2.5563	-2.4354	-2.8979	-2.5083	-2.9562	-2.6479	-2.6396	-2.7938	-2.5208	-2.8583	-2.8208	-2.5146	-2.8	-2.5938	-2.5979	201.400	92.941	150.254	193.929	92.622	226.249	118.584	247.473	232.794	14.233	261.140	256.154	186.572	209.423	11.003	-14.069	9.9167e-05	0.00033322	6.4655e-05	1189	2.4636e-06	2.9608e-06	1243.3	240.77	2.95e-06	4.5638e-06	300.83	81.425	63.841	18.559	1.9107e-06	26.394	0.00021365	0.00021217	5.9887e-05	1158.4	2.3976e-06	2.3825e-06	1219.3	238.13	2.4663e-06	2.4608e-06	296.82	81.353	63.844	18.698	2.4822e-06	26.535	107.045	15.580	3.787	-67.080	33.234	8.574	-67.311	-60.340	0.199	83.714	-60.412	-53.916	-53.493	-46.298	-15.770	-46.992	-8191	255	
7568.646	1	1	0	0	0.085895	0.099849	0.23291	0.28245	0.055373	0.093796	0.32568	0.31455	0.15294	0.13176	0.15343	0.25954	0.22095	0.42182	0.13869	0.2169	-2.3146	-2.6792	-2.4354	-2.8896	-2.5667	-2.6813	-2.9292	-2.7604	-2.7854	-2.8208	-2.7583	-2.95	-2.5896	-2.7042	-2.7	-2.5062	262.738	142.993	75.750	216.532	89.248	-45.896	178.764	249.560	-17.003	-38.243	255.092	260.252	271.648	179.897	190.390	-43.333	0.00012078	0.0007003	0.00016269	1185.1	2.0357e-06	5.5185e-06	1251	241.26	1.2103e-06	1.607e-06	299.38	81.499	63.928	18.457	2.153e-07	26.403	0.00022432	0.0002217	6.2718e-05	1160.2	2.4522e-06	2.463e-06	1221.8	237.99	2.4789e-06	2.4585e-06	296.45	81.505	63.821	18.614	2.448e-06	26.537	97.526	7.547	26.172	-67.066	141.705	60.560	-67.200	-59.888	44.829	72.037	-60.074	-54.263	-53.913	-46.416	-23.996	-46.884	-8191	255	
7568.742	1	1	0	0	0.23155	0.12142	0.12883	0.12592	0.083221	0.2681	0.11487	0.20122	0.22186	0.16178	0.36885	0.24321	0.25677	0.30198	0.13355	0.11434	-2.35	-2.775	-2.5	-2.9688	-2.4917	-2.7396	-2.8812	-2.5458	-2.7438	-2.6417	-2.5604	-2.8292	-2.5396	-2.6312	-2.8875	-2.5771	13.881	23.399	233.755	190.355	-41.668	-75.179	259.084	133.154	63.723	276.402	246.521	-29.524	-61.582	43.571	108.140	-27.310	0.00020365	0.00039017	0.00011084	1191.7	1.2568e-06	3.5692e-06	1243.6	241.42	2.3967e-06	8.8899e-07	299.61	81.668	64.032	18.57	2.6772e-06	26.292	0.0002239	0.00021985	6.151e-05	1160.3	2.4948e-06	2.4606e-06	1220.8	238.4	2.4448e-06	2.413e-06	296.45	81.459	63.797	18.681	2.4355e-06	26.517	138.853	-43.124	33.301	-67.250	14.049	35.993	-67.281	-59.838	27.831	277.983	-60.230	-53.928	-53.686	-46.491	103.446	-46.686	-8191	255	
7568.838	1	1	0	0	0.1067	0.18172	0.11413	0.045737	0.20685	0.043326	0.072595	0.1415	0.1052	0.32621	0.10782	0.34379	0.13468	0.1743	0.035098	0.029581	-2.3396	-2.6562	-2.7646	-3.0208	-2.3979	-2.6625	-3.0375	-2.6375	-2.8917	-2.7771	-2.5229	-2.8896	-2.6896	-2.7708	-2.7958	-2.4646	279.548	-73.356	254.060	218.250	240.663	210.235	147.904	193.251	-68.183	73.919	197.257	216.595	163.182	66.783	61.233	168.113	7.8489e-05	0.00036081	0.00013998	1191.6	2.7083e-06	3.0676e-06	1251	241.57	4.8489e-06	9.1154e-07	300.52	81.572	64.011	18.637	1.3028e-06	26.438	0.00021877	0.00022498	6.115e-05	1163.2	2.4518e-06	2.4407e-06	1222.9	238.51	2.4931e-06	2.4967e-06	297.03	81.585	64.005	18.732	2.5595e-06	26.609	115.135	-20.731	80.914	-67.143	122.153	76.435	-67.315	-60.252	61.734	-49.108	-60.131	-53.962	-53.503	-46.715	90.801	-46.821	-8191	255	
7568.934	1	1	0	0	0.14147	0.10595	0.26043	0.30874	0.093061	0.074221	0.2113	0.093184	0.073891	0.13253	0.12458	0.19592	0.22417	0.12107	0.24379	0.2706	-2.3417	-2.7792	-2.3354	-2.9042	-2.7896	-2.55	-2.8375	-2.6333	-2.6854	-2.8458	-2.5167	-2.7979	-2.5021	-2.4917	-2.8042	-2.5875	207.954	37.532	102.443	225.625	116.139	59.475	232.159	64.933	202.974	250.515	168.657	-57.535	-72.035	27.556	162.488	104.910	0.00017617	0.00033175	3.4107e-05	1194.1	3.4674e-06	2.4467e-06	1249.1	241.91	2.5478e-06	1.4289e-06	301.29	81.679	64.506	18.737	2.1599e-06	26.333	0.00023327	0.00023133	6.3936e-05	1166.3	2.5967e-06	2.5728e-06	1226.5	238.92	2.6544e-06	2.6046e-06	297.1	81.6	64.14	18.77	2.6257e-06	26.595	115.884	42.096	47.341	-67.223	55.676	-24.135	-67.177	-60.129	84.019	65.591	-60.362	-54.019	-53.597	-46.390	8.670	-46.854	-8191	255	
7569.030	1	1	0	0	0.11901	0.17702	0.10362	0.20691	0.071346	0.13127	0.20683	0.14139	0.14924	0.095515	0.054132	0.17025	0.16373	0.064141	0.1825	0.24393	-2.35	-2.6604	-2.3646	-2.875	-2.6521	-2.5167	-2.9437	-2.7604	-2.5396	-2.8063	-2.6083	-2.8354	-2.7792	-2.5396	-3	-2.6958	15.072	158.233	266.064	246.916	201.217	-12.615	184.434	6.585	115.272	158.599	-72.561	215.680	17.201	-42.020	200.571	131.297	0.00012171	0.00061174	0.00013839	1192.4	1.3089e-06	3.6233e-06	1245.5	241.62	1.8509e-06	2.969e-06	301.71	82.147	64.587	18.794	1.0971e-06	26.468	0.00024046	0.000237	6.7515e-05	1164.5	2.6646e-06	2.7094e-06	1222.2	239.03	2.7115e-06	2.718e-06	297.96	81.839	64.447	18.793	2.6716e-06	26.615	115.346	-9.342	40.002	-67.226	120.041	27.987	-67.089	-59.955	117.604	72.132	-60.333	-54.010	-53.628	-46.438	173.573	-46.687	-8191	255	
7569.127	1	1	0	0	0.39789	0.062773	0.15958	0.156	0.14306	0.14045	0.13805	0.10561	0.18791	0.21963	0.12868	0.14868	0.13986	0.08226	0.070964	0.3015	-2.2083	-2.7854	-2.575	-2.8833	-2.7896	-2.4583	-3.1063	-2.6167	-2.5771	-2.9229	-2.8125	-2.7479	-2.7271	-2.6625	-2.7875	-2.5625	147.845	148.252	125.129	-77.551	-32.655	221.446	130.475	91.069	-11.722	-19.141	208.545	168.881	-33.303	-17.116	-22.518	258.991	9.2249e-05	0.0004572	6.2662e-05	1193.7	1.9504e-06	8.8438e-07	1245.1	242.72	1.4207e-06	4.4252e-06	300.73	81.625	63.967	18.637	2.8206e-06	26.395	0.00024058	0.0002407	6.8268e-05	1163.2	2.6414e-06	2.6469e-06	1223.2	239.35	2.6974e-06	2.614e-06	297.27	81.496	64.032	18.692	2.661e-06	26.573	115.124	-16.753	-22.465	-67.155	109.321	-56.260	-67.234	-60.234	32.277	37.469	-60.519	-53.876	-53.437	-46.061	36.664	-46.940	-8191	255	
7569.245	1	1	0	0	0.10501	0.088507	0.14735	0.38959	0.27396	0.14126	0.043462	0.13347	0.16359	0.30374	0.047916	0.14624	0.10879	0.076048	0.23628	0.15731	-2.125	-2.7833	-2.4875	-2.7604	-2.6625	-2.3833	-2.925	-2.6833	-2.5833	-2.9542	-2.5771	-2.725	-2.9083	-2.4688	-2.8417	-2.7083	134.658	143.955	-25.671	250.008	141.096	183.421	189.032	181.045	15.144	257.722	228.614	-58.085	233.778	158.077	34.536	-0.550	8.9731e-05	0.00047868	0.00010445	1187.2	2.2533e-06	5.0099e-06	1246.6	240.87	1.7e-06	1.607e-06	301.72	81.362	63.673	18.48	1.0915e-06	26.334	0.00023902	0.00024722	6.7162e-05	1160.8	2.6711e-06	2.7037e-06	1221.2	238.28	2.7757e-06	2.7888e-06	297.18	81.468	64.127	18.73	2.8356e-06	26.539	116.344	25.726	-1.183	-67.054	70.160	82.542	-67.149	-60.021	200.020	46.389	-60.447	-54.179	-53.845	-46.781	131.484	-46.430	-8191	255	
7569.342	1	1	0	0	0.15166	0.10796	0.32891	0.094281	0.10749	0.29313	0.094705	0.094643	0.20803	0.036729	0.19772	0.12551	0.36707	0.20349	0.19369	0.11882	-1.9708	-2.775	-2.4792	-2.8604	-2.6979	-2.65	-3.0958	-2.7313	-2.4792	-2.8125	-2.7875	-2.8396	-2.8063	-2.6042	-2.7833	-2.8792	83.847	-42.849	0.965	251.781	-0.987	177.582	144.292	257.892	61.144	116.267	180.454	156.613	-14.966	45.345	218.719	-59.854	0.00015731	0.00062242	8.1278e-05	1181.4	1.6638e-07	1.4959e-06	1241.7	241.31	1.9676e-06	3.8237e-06	301.05	81.126	63.638	18.448	2.7616e-06	26.214	0.00025112	0.00025488	7.1431e-05	1155.5	2.7802e-06	2.7217e-06	1215.4	237.76	2.7413e-06	2.6763e-06	296.01	81.118	63.682	18.602	2.5735e-06	26.387	134.165	1.726	4.561	-67.147	249.118	155.795	-67.231	-60.151	51.873	104.677	-60.172	-53.947	-53.625	-46.324	39.577	-46.638	-8191	255	
7569.438	1	1	0	0	0.09133	0.31637	0.21774	0.17859	0.15353	0.076448	0.12761	0.081011	0.26964	0.15873	0.12384	0.097335	0.091232	0.077494	0.21988	0.19219	-1.9896	-2.6917	-2.3729	-2.8312	-2.7583	-2.5625	-2.7854	-2.9	-2.5167	-2.7125	-2.5438	-2.6583	-2.875	-2.55	-2.8375	-2.7333	18.693	236.986	45.682	266.514	171.806	40.772	-1.036	178.316	240.237	168.629	-9.777	-28.539	127.201	141.935	12.319	65.097	0.00014237	0.00016991	0.00015206	1180.7	2.2747e-06	3.5495e-06	1241.9	240.74	1.2465e-06	1.883e-06	298.86	81.051	64.416	18.383	2.3564e-06	26.208	0.00023451	0.00022882	6.2676e-05	1152.3	2.4607e-06	2.5092e-06	1213.8	236.95	2.5199e-06	2.4832e-06	295.15	80.932	63.75	18.574	2.4723e-06	26.39	108.223	-39.687	2.635	-67.280	21.677	66.096	-67.011	-60.148	-34.986	55.135	-60.259	-53.895	-53.459	-46.805	-7.534	-46.832	-8191	255	
7569.509	1	1	0	0	0.13514	0.1031	0.15489	0.29107	0.13136	0.071149	0.10308	0.093773	0.3207	0.20086	0.24291	0.07212	0.13442	0.10023	0.035894	0.41162	-2.1896	-2.8896	-2.5229	-2.8292	-2.8208	-2.65	-2.8917	-2.8708	-2.5604	-2.8396	-2.7354	-2.3312	-2.8479	-2.6333	-2.7521	-2.5896	64.474	253.532	67.633	279.571	89.653	-15.470	248.684	132.707	64.543	59.871	54.015	-67.091	245.590	266.987	258.255	205.058	0.00013994	0.00037489	7.6318e-05	1179	3.3826e-06	9.164e-07	1236.1	239.54	1.9672e-06	2.2745e-06	297.71	80.713	63.234	18.236	1.7002e-06	25.938	0.00022353	0.00022189	6.1322e-05	1153.1	2.4396e-06	2.3281e-06	1212.5	236.67	2.2942e-06	2.221e-06	293.66	80.584	62.909	18.382	2.1327e-06	26.105	123.925	-3.743	26.932	-66.998	79.474	20.576	-67.103	-59.993	29.298	71.579	-60.035	-53.744	-53.069	-46.611	33.036	-46.939	-8191	255	
7569.630	1	1	0	0	0.12211	0.26905	0.049751	0.2167	0.21945	0.14864	0.14333	0.065345	0.074276	0.028727	0.13409	0.11819	0.075499	0.062646	0.11444	0.060976	-2.0917	-2.7646	-2.4854	-2.5938	-2.8271	-2.5	-2.7188	-3.0083	-2.5104	-2.6854	-2.7479	-2.4375	-2.7833	-2.7125	-2.5646	-3.0062	-75.458	218.260	24.509	-67.983	279.973	-58.266	264.557	9.987	79.445	100.874	218.197	221.923	63.775	211.146	30.094	62.561	0.00011109	0.00017281	6.6745e-05	1176.4	2.2898e-06	5.85e-06	1230.3	238.25	8.8504e-07	3.2125e-06	298.36	80.655	63.645	18.354	1.4007e-06	26.045	0.0001956	0.00018786	5.4086e-05	1146.6	2.1641e-06	2.1489e-06	1206.9	235.42	2.328e-06	2.2661e-06	294.09	80.713	63.401	18.494	2.4942e-06	26.256	107.255	-21.773	-67.824	-67.120	51.128	78.365	-67.347	-60.040	-77.619	49.067	-60.556	-53.754	-53.449	-46.657	120.817	-46.856	-8191	255	
7569.726	1	1	0	0	0.18849	0.24707	0.19202	0.29221	0.18376	0.070832	0.15818	0.23927	0.17448	0.056922	0.15212	0.11041	0.063286	0.14559	0.16794	0.069809	-2.0104	-2.6583	-2.5875	-2.6083	-2.925	-2.6854	-2.8021	-2.925	-2.4833	-2.8063	-2.8104	-2.4917	-2.8417	-2.7375	-2.6792	-2.8333	70.341	272.798	251.908	256.491	22.325	97.399	269.906	162.678	-75.762	180.569	-16.347	26.813	145.476	162.758	242.276	60.429	0.00015864	0.00034178	0.00010754	1175.1	1.7383e-06	2.5713e-06	1233.6	239.58	1.411e-06	7.2413e-07	299.56	81.026	63.267	18.454	2.1226e-06	26.104	0.00021361	0.0002176	6.0286e-05	1148.2	2.3649e-06	2.2842e-06	1209.2	236.68	2.3312e-06	2.2768e-06	294.01	80.761	63.278	18.475	2.2198e-06	26.232	103.985	-16.822	-3.262	-67.179	29.167	35.667	-67.129	-60.205	22.538	263.798	-60.171	-53.662	-53.670	-46.595	59.394	-46.796	-8191	255	
7569.822	1	1	0	0	0.12636	0.34124	0.13097	0.37075	0.093343	0.11787	0.4375	0.21479	0.033531	0.082998	0.20219	0.25934	0.20854	0.078757	0.17269	0.16569	-2.1146	-2.8958	-2.7667	-2.4854	-2.5771	-2.6437	-2.8396	-2.9688	-2.5333	-2.6646	-2.9417	-2.4875	-2.7417	-2.6417	-2.6417	-2.8354	7.836	145.495	215.146	278.650	-48.749	108.097	233.643	276.672	-11.397	270.745	196.957	267.952	196.018	59.357	-6.146	250.869	0.00014578	0.00017342	0.00013088	1178.1	1.0863e-06	2.7301e-06	1241.6	238.73	3.159e-06	2.1198e-06	299.59	80.98	63.64	18.525	2.4819e-06	26.242	0.00019919	0.00019198	5.4095e-05	1150.7	2.1859e-06	2.1809e-06	1214.7	236.31	2.2214e-06	2.2158e-06	294.84	80.861	63.45	18.571	2.2674e-06	26.372	86.909	-51.704	-1.882	-67.097	165.777	71.803	-67.089	-60.083	8.704	111.721	-60.309	-53.894	-53.798	-46.501	112.847	-46.860	-8191	255	
7569.918	1	1	0	0	0.1669	0.26843	0.13783	0.44013	0.037486	0.36906	0.13552	0.15391	0.12988	0.083216	0.098524	0.068418	0.14587	0.20102	0.10658	0.29056	-2.1479	-2.7271	-2.8625	-2.7708	-2.6896	-2.5938	-2.6937	-2.9479	-2.5104	-2.6896	-2.975	-2.5771	-2.6646	-2.75	-2.35	-2.8458	-13.346	-74.006	222.914	234.955	101.427	-5.344	82.576	262.313	104.949	206.568	14.883	28.776	23.728	192.995	222.856	226.834	8.479e-05	0.00046377	4.3342e-05	1178	3.4427e-06	4.8609e-06	1241.5	239.62	3.425e-06	2.4804e-06	297.65	80.743	63.403	18.379	4.0666e-07	26.128	0.00020612	0.00020683	5.5632e-05	1152	2.2922e-06	2.1776e-06	1213.8	236.05	2.188e-06	2.1622e-06	294.06	80.73	63.102	18.487	2.1362e-06	26.239	107.296	40.158	-4.929	-67.245	78.905	8.279	-67.219	-60.199	109.546	79.653	-60.303	-53.878	-53.531	-46.464	207.326	-46.673	-8191	255	
7570.037	1	1	0	0	0.28538	0.09044	0.15686	0.34078	0.23864	0.087384	0.26544	0.25849	0.12282	0.38906	0.093152	0.21125	0.22245	0.18857	0.2634	0.3187	-2.2958	-2.4417	-2.7604	-2.5812	-2.5083	-2.6646	-2.6604	-2.7854	-2.5771	-2.4	-2.8667	-2.2687	-2.6229	-2.9208	-2.475	-2.7479	7.239	65.857	173.262	-66.522	203.803	31.192	161.531	205.307	-19.754	-69.104	-63.908	248.852	31.313	-18.302	-61.476	198.359	0.00011452	0.00029513	6.9802e-05	1176.5	2.8277e-06	2.0971e-06	1232.5	239.34	2.7973e-06	2.2165e-06	298.52	80.347	63.817	18.387	2.9179e-06	26.168	0.00019406	0.00018898	5.224e-05	1148.8	2.1456e-06	2.0919e-06	1209.9	235.79	2.193e-06	2.1651e-06	293.61	80.549	63.114	18.469	2.1543e-06	26.297	112.792	-29.822	21.116	-67.323	108.888	89.771	-67.135	-60.162	58.054	54.606	-60.051	-54.033	-53.464	-46.752	30.121	-46.581	-8191	255	
7570.111	1	1	0	0	0.076605	0.077378	0.082452	0.37083	0.21324	0.15161	0.49966	0.19934	0.20794	0.19509	0.15577	0.06515	0.23844	0.11784	0.096785	0.062593	-2.2729	-2.4854	-2.7625	-2.6208	-2.4979	-2.9313	-2.6021	-2.9458	-2.7354	-2.5083	-2.7313	-2.675	-2.8021	-2.8792	-2.5104	-2.6208	188.148	205.403	280.052	-75.817	245.221	277.140	244.770	244.551	216.634	79.908	227.074	28.876	18.085	32.787	92.453	168.416	0.00015089	0.00046498	3.5237e-05	1174.5	1.7036e-06	2.6497e-06	1231.8	238.54	2.6295e-06	2.2969e-06	298.26	80.867	63.923	18.495	1.8397e-06	26.112	0.00019889	0.00020153	5.4879e-05	1147	2.311e-06	2.2151e-06	1208.3	235.49	2.2839e-06	2.2763e-06	293.84	80.643	63.297	18.522	2.3279e-06	26.247	113.246	-3.750	90.352	-67.303	83.883	40.161	-67.116	-60.027	48.199	67.423	-60.265	-54.082	-53.394	-46.836	49.501	-46.685	-8191	255	
7570.207	1	1	0	0	0.078394	0.13004	0.081009	0.37833	0.040269	0.10519	0.20883	0.11764	0.08979	0.10342	0.14885	0.31124	0.23656	0.19875	0.18424	0.02584	-2.3479	-2.4104	-2.675	-2.6542	-2.5312	-2.9313	-2.5812	-2.8979	-2.7562	-2.4854	-2.8896	-2.6667	-2.55	-2.8875	-2.6937	-2.6729	33.249	-32.696	-27.215	243.939	266.576	273.064	249.929	-61.900	146.777	171.329	38.856	219.616	115.666	155.846	264.855	223.705	0.00014711	0.00037747	3.7362e-05	1174.4	1.7506e-06	2.9943e-06	1236	239.62	2.9515e-06	1.8798e-06	298.47	80.543	63.374	18.39	4.3564e-06	26.194	0.00020454	0.00020427	5.6866e-05	1147.9	2.277e-06	2.2634e-06	1210.1	236.16	2.2885e-06	2.2203e-06	294.02	80.603	63.108	18.492	2.1704e-06	26.277	120.376	-34.055	257.808	-66.993	42.626	99.483	-67.249	-59.950	125.547	101.912	-60.273	-54.002	-53.160	-46.836	36.344	-46.833	-8191	255	
7570.326	1	1	0	0	0.073533	0.35189	0.17957	0.32279	0.11348	0.16339	0.42396	0.23342	0.23281	0.25003	0.3945	0.099468	0.10586	0.088756	0.12654	0.092665	-2.3083	-2.5708	-2.6229	-2.7583	-2.4583	-2.6625	-2.8792	-2.5646	-2.9583	-2.425	-2.6813	-2.7458	-2.4104	-2.7604	-2.4104	-2.5833	199.299	193.705	65.215	236.035	-34.252	56.930	225.703	-63.651	0.745	263.141	265.788	140.768	182.398	156.531	82.159	240.951	0.00012104	0.00039526	4.6636e-05	1176.9	1.9006e-06	3.7823e-06	1235.5	239.55	1.6982e-06	3.4947e-06	298.11	80.648	62.903	18.268	3.158e-06	26.189	0.00019896	0.00019143	5.4301e-05	1146.4	2.1192e-06	2.1628e-06	1207.8	235.95	2.1699e-06	2.125e-06	293.7	80.508	62.84	18.403	2.0821e-06	26.216	128.108	12.611	38.945	-67.193	42.383	72.770	-67.352	-59.929	53.653	42.773	-60.367	-54.075	-53.681	-46.713	78.655	-46.603	-8191	255	
7570.422	1	1	0	0	0.084044	0.25987	0.15689	0.32624	0.13303	0.11234	0.22427	0.067423	0.020718	0.17074	0.17731	0.17961	0.16224	0.25961	0.13285	0.2024	-2.2083	-2.5896	-2.6396	-2.7938	-2.4437	-2.9	-2.8208	-2.6437	-2.7687	-2.475	-2.7125	-2.9	-2.4396	-2.8771	-2.6229	-2.5396	-69.153	280.211	28.855	263.879	156.445	267.258	205.619	220.726	164.901	122.349	153.335	243.878	272.870	253.043	131.148	180.583	0.00014464	0.00024403	0.00013033	1172.2	2.7281e-06	2.3325e-06	1232.6	238.5	1.4409e-06	2.7807e-06	297.68	80.131	63.459	18.493	2.6936e-06	25.868	0.00018896	0.00018448	5.0705e-05	1144.3	2.0898e-06	1.9879e-06	1203.3	234.75	2.0613e-06	2.0017e-06	292.36	80.226	62.869	18.43	1.9889e-06	26.092	130.150	8.270	28.061	-67.163	103.805	50.990	-67.156	-59.954	-20.984	48.484	-60.400	-53.730	-53.541	-46.800	52.465	-46.805	-8191	255	
7570.518	1	1	0	0	0.030637	0.145	0.14488	0.42656	0.19971	0.26851	0.099757	0.079443	0.26314	0.28982	0.13383	0.059492	0.046151	0.06239	0.12975	0.25882	-2.4354	-2.5646	-2.5958	-2.9729	-2.5604	-2.9	-2.9188	-2.6562	-2.7854	-2.6083	-2.7375	-2.8167	-2.55	-2.6854	-2.6833	-2.4146	122.746	280.080	-28.833	233.341	56.307	-31.644	198.754	9.169	-56.899	227.491	34.230	279.860	218.278	56.791	168.500	-14.546	8.4867e-05	0.00035102	0.00014739	1167.8	1.5264e-06	2.6359e-06	1228.6	237.65	3.7714e-06	3.8831e-06	296.95	80.447	63.289	18.424	3.6015e-06	26.016	0.00018349	0.00017692	4.87e-05	1140.5	2.0141e-06	1.8879e-06	1202.8	234.34	1.9497e-06	1.9774e-06	292.04	80.167	62.8	18.396	1.9334e-06	26.171	105.076	5.665	25.068	-67.077	78.056	89.742	-67.082	-60.070	25.771	42.801	-60.366	-53.884	-53.331	-46.401	24.266	-47.104	-8191	255	
7570.614	1	1	0	0	0.082968	0.10577	0.35717	0.14555	0.26798	0.15375	0.14017	0.28728	0.1198	0.14833	0.15543	0.078353	0.075528	0.27474	0.26372	0.076616	-2.2479	-2.5083	-2.5312	-3.175	-2.6083	-2.8542	-3.0312	-2.6937	-2.7812	-2.6333	-2.675	-2.6542	-2.5875	-2.8187	-2.6479	-2.4875	125.763	102.414	50.855	-58.680	65.829	275.180	222.914	214.939	245.814	280.396	-39.843	-54.232	39.485	227.918	-74.614	127.818	0.00013393	0.00024973	6.2593e-05	1170.8	9.3805e-07	1.3328e-06	1229.7	237.16	1.6042e-06	1.5018e-06	297.95	79.345	63.161	18.259	4.5787e-06	26.212	0.00017748	0.0001747	4.757e-05	1141.6	1.9333e-06	1.8486e-06	1202.5	233.97	1.934e-06	1.8782e-06	292.32	79.858	62.809	18.349	1.9563e-06	26.199	125.171	16.498	-8.860	-67.201	102.564	124.684	-67.147	-59.928	12.648	3.504	-60.136	-54.030	-53.826	-46.688	25.110	-47.008	-8191	255	
7570.735	1	1	0	0	0.14225	0.11045	0.26843	0.35907	0.07331	0.083827	0.20695	0.15623	0.17482	0.10235	0.30536	0.098457	0.076151	0.064058	0.088349	0.25292	-2.3083	-2.4188	-2.4583	-3.0646	-2.6604	-2.675	-2.8563	-2.7458	-2.9354	-2.6354	-2.6521	-2.9229	-2.5375	-2.675	-2.6792	-2.4688	-41.208	172.907	4.716	238.348	-21.183	-40.860	-58.716	136.904	19.171	232.372	276.406	169.820	219.930	140.863	27.590	262.053	0.00015282	0.00017765	5.5967e-05	1169.5	4.2916e-06	2.9127e-06	1229.7	237.67	2.2315e-06	3.6657e-06	296.19	80.143	63.324	18.347	2.2099e-06	26.057	0.00017906	0.0001749	4.8316e-05	1140.3	1.9824e-06	1.9436e-06	1202.2	234.37	1.9848e-06	1.9684e-06	292	80.222	62.78	18.388	1.9844e-06	26.129	126.562	-3.795	16.718	-67.103	80.795	41.904	-67.174	-60.341	110.046	52.151	-60.112	-53.859	-53.243	-46.540	94.962	-46.591	-8191	255	
7570.807	1	1	0	0	0.053477	0.14012	0.07871	0.21777	0.15484	0.2134	0.17963	0.12854	0.15043	0.052147	0.34812	0.18888	0.24974	0.2875	0.20451	0.064212	-2.5125	-2.5917	-2.4437	-3.0146	-2.3583	-2.6229	-3.0271	-2.4729	-2.6771	-2.6375	-2.6	-2.8375	-2.5708	-2.5917	-2.9	-2.6104	143.940	-22.980	167.408	-27.626	246.280	54.492	178.206	220.697	-69.904	-62.023	251.073	265.761	-42.677	-15.102	101.321	214.821	0.00013413	0.00017438	0.00011866	1168.4	2.3786e-06	2.7694e-06	1227.7	237.87	1.8256e-06	2.5634e-06	297.49	80.658	63.12	18.428	3.6712e-06	26.256	0.00018545	0.00017685	5.0257e-05	1139.7	2.0713e-06	1.9918e-06	1202.3	234.56	1.9964e-06	1.975e-06	292.55	80.143	62.668	18.393	2.033e-06	26.284	113.864	-25.864	42.249	-67.157	8.928	88.329	-67.262	-60.153	88.454	76.638	-60.041	-53.779	-53.799	-46.383	67.606	-46.784	-8191	255	
7570.927	1	1	0	0	0.26869	0.30628	0.21556	0.069476	0.12178	0.073093	0.02277	0.11076	0.18071	0.24495	0.12916	0.19969	0.17321	0.172	0.16091	0.138	-2.2562	-2.7062	-2.3625	-3.0375	-2.6646	-2.4771	-2.9729	-2.4938	-2.75	-2.5833	-2.4979	-2.8479	-2.4938	-2.5	-2.7708	-2.4208	103.192	127.155	193.975	-24.204	50.300	19.604	206.418	-50.424	115.656	230.302	135.052	234.774	68.825	251.193	22.434	172.901	0.00013712	0.00014783	6.0734e-05	1170.1	2.3136e-06	4.1153e-06	1227.1	238.53	2.2251e-06	1.5503e-06	298.59	80.413	63.264	18.326	2.041e-06	26.062	0.00018604	0.00018134	5.0012e-05	1140.4	2.0844e-06	2.0347e-06	1203.6	234.84	2.0893e-06	2.0908e-06	292.69	80.257	63.072	18.486	2.1933e-06	26.225	133.876	53.771	11.569	-67.233	-46.926	66.657	-67.152	-59.932	59.549	111.058	-60.376	-53.754	-53.426	-46.229	100.418	-46.926	-8191	255	
7571.023	1	1	0	0	0.14829	0.26229	0.21371	0.046115	0.1942	0.063775	0.3249	0.10433	0.16257	0.044025	0.30181	0.026274	0.11981	0.11984	0.20349	0.14669	-2.0833	-2.6312	-2.6375	-2.8	-2.6729	-2.4229	-2.9062	-2.6229	-2.5833	-2.6583	-2.6729	-2.775	-2.6375	-2.5521	-2.7771	-2.5771	202.193	66.420	87.043	237.502	52.375	174.801	227.943	37.278	-64.656	5.634	215.687	265.408	190.774	41.503	270.686	264.048	9.7935e-05	0.00038788	3.3507e-05	1172.8	4.2135e-06	2.8189e-06	1231.5	238.79	7.6764e-07	2.2614e-06	297.53	80.655	63.398	18.441	6.1073e-07	26.191	0.00019675	0.00019611	5.3953e-05	1144.3	2.1574e-06	2.1138e-06	1205	235.13	2.1332e-06	2.0961e-06	292.62	80.452	63.043	18.493	2.1139e-06	26.262	123.714	-15.035	44.054	-67.120	121.335	60.623	-67.189	-59.947	56.050	60.418	-60.138	-53.908	-53.618	-46.503	45.347	-46.917	-8191	255	
7571.118	1	1	0	0	0.067551	0.25642	0.17621	0.31152	0.15274	0.13109	0.24126	0.25215	0.26347	0.26903	0.35545	0.39147	0.062331	0.16318	0.28702	0.21927	-2.1	-3.0083	-2.6937	-2.8479	-2.8083	-2.5583	-3.2396	-2.8021	-2.6646	-2.8542	-2.6437	-2.8833	-2.7583	-2.5938	-2.7438	-2.6667	94.621	-66.017	81.820	224.508	23.931	147.334	260.483	-68.183	168.198	-14.388	232.551	224.951	169.617	-23.994	-65.060	-10.441	0.00012327	0.00023625	4.9925e-05	1173.8	1.6235e-06	3.7531e-06	1233.5	238.4	1.4635e-06	3.2576e-06	298.36	80.416	63.225	18.361	1.2599e-06	26.217	0.00018935	0.00019178	5.3457e-05	1143.6	2.088e-06	2.0285e-06	1207.2	235.06	2.1054e-06	2.0518e-06	293.75	80.435	62.993	18.455	2.0666e-06	26.33	111.503	-32.023	13.145	-67.136	48.694	71.623	-67.215	-60.042	27.206	46.353	-60.493	-53.948	-53.475	-46.730	112.804	-46.730	-8191	255	
7571.214	1	1	0	0	0.11297	0.20646	0.099447	0.1516	0.26739	0.070996	0.10674	0.094728	0.11841	0.041854	0.19365	0.16995	0.19757	0.25164	0.20865	0.26473	-2.3375	-2.6771	-2.5812	-2.8167	-2.75	-2.5729	-3	-2.6813	-2.6104	-2.9333	-2.6604	-2.7354	-2.9562	-2.5667	-2.8208	-2.4833	-28.578	253.278	35.057	181.537	244.992	125.656	226.032	-75.217	229.759	-50.202	-44.000	246.498	35.017	73.815	174.533	-76.036	0.00016456	0.00020664	2.7864e-05	1172	1.3987e-06	3.689e-06	1228.6	238.01	5.5128e-07	2.3184e-06	297.65	80.932	63.921	18.522	4.3369e-06	26.079	0.00018851	0.00018154	5.1594e-05	1144.3	2.0938e-06	2.0517e-06	1205.5	234.97	2.1223e-06	1.97e-06	292.83	80.558	62.993	18.526	2.0387e-06	26.246	121.913	-35.235	-46.978	-67.279	46.899	57.285	-67.226	-60.325	6.199	49.833	-60.199	-53.903	-53.950	-46.524	43.110	-46.839	-8191	255	
7571.335	1	1	0	0	0.17076	0.06199	0.28609	0.30517	0.13507	0.16964	0.31079	0.13004	0.098032	0.19854	0.10035	0.3362	0.22129	0.11342	0.14017	0.085707	-1.9229	-2.6854	-2.4521	-2.725	-2.825	-2.4646	-2.9521	-2.7917	-2.5083	-2.825	-2.7042	-2.6229	-2.7771	-2.5229	-2.9625	-2.8896	-22.259	74.927	-29.497	242.311	68.014	188.780	214.970	225.962	42.167	49.083	-64.888	168.150	60.494	209.139	244.814	191.374	9.2288e-05	0.00023222	5.5329e-05	1173.5	2.033e-06	3.4295e-06	1233.5	238.66	3.5004e-06	3.6246e-06	297.34	81.269	63.342	18.399	5.0079e-06	26.047	0.00018326	0.00018194	5.0508e-05	1143.3	2.0126e-06	2.0277e-06	1205.7	235.16	2.0842e-06	2.0455e-06	293.27	80.708	63.136	18.468	2.105e-06	26.275	125.570	-3.418	50.507	-67.106	38.479	82.120	-66.931	-60.062	15.520	91.342	-60.258	-53.936	-53.774	-46.511	79.645	-46.858	-8191	255	
7571.406	1	1	0	0	0.21389	0.10725	0.090648	0.21685	0.13424	0.090755	0.28817	0.12509	0.20093	0.30016	0.12131	0.16528	0.15593	0.1539	0.18432	0.16699	-2.2042	-2.8375	-2.5417	-2.7396	-2.8812	-2.4646	-2.9604	-2.8625	-2.4021	-2.7292	-2.6167	-2.6229	-2.9583	-2.4667	-2.8542	-2.875	234.902	60.358	143.915	-65.691	151.463	199.443	214.181	264.681	138.555	147.231	-25.332	-22.500	216.277	36.981	47.954	150.153	8.1024e-05	0.00031011	0.00014706	1174.3	2.8949e-06	2.2017e-06	1233.2	239.09	1.5206e-06	3.7925e-06	298.9	80.905	63.33	18.622	2.7195e-06	26.259	0.00019585	0.0001915	5.4103e-05	1146.9	2.1515e-06	2.0909e-06	1208.2	235.99	2.1951e-06	2.1382e-06	294.11	80.698	63.314	18.613	2.1487e-06	26.411	119.645	-33.319	19.734	-67.208	165.900	75.153	-67.194	-60.097	48.827	45.539	-60.468	-53.741	-53.778	-46.548	42.164	-47.029	-8191	255	
7571.502	1	1	0	0	0.16567	0.31392	0.084532	0.32303	0.25285	0.084374	0.1847	0.17474	0.03243	0.093733	0.19758	0.29632	0.2403	0.13728	0.19971	0.14923	-2.0729	-2.7625	-2.6333	-2.8167	-2.9333	-2.6958	-2.9604	-3.05	-2.6333	-2.9042	-2.7396	-2.4562	-2.8312	-2.5625	-2.4896	-2.9104	10.582	96.865	188.599	185.672	163.167	90.257	195.114	239.089	245.435	245.259	246.183	250.462	-62.117	269.730	183.721	125.165	0.00012259	0.00038372	0.00017577	1176.7	2.7216e-06	5.3535e-07	1236	238.43	3.853e-06	2.4468e-06	296.86	80.744	63.221	18.478	3.3081e-06	26.055	0.00019792	0.00019745	5.3391e-05	1149.6	2.1228e-06	2.0349e-06	1210.6	235.59	2.092e-06	1.9756e-06	293.21	80.65	62.997	18.476	1.9872e-06	26.242	97.610	-7.644	15.215	-67.181	67.366	206.458	-67.111	-60.191	89.155	85.863	-60.342	-53.850	-53.663	-46.417	76.874	-46.526	-8191	255	
7571.598	1	1	0	0	0.20228	0.36669	0.24334	0.34101	0.052996	0.18264	0.056493	0.17747	0.19779	0.21238	0.19656	0.29877	0.16983	0.19154	0.086834	0.31049	-2.2104	-2.8312	-2.5792	-2.7	-2.9958	-2.6104	-2.8187	-2.9646	-2.3333	-2.6375	-2.8708	-2.5542	-2.8521	-2.7104	-2.5708	-3.0208	270.303	-61.504	223.546	226.518	186.382	-75.780	214.694	261.323	-30.866	30.038	206.324	255.738	123.199	40.638	-63.295	256.535	0.00015485	0.00033306	9.4374e-05	1170.5	1.7897e-06	3.2906e-06	1228.7	237.35	2.2507e-07	3.2893e-06	298.67	80.345	63.254	18.387	1.5315e-06	25.998	0.00017961	0.00017624	5.0248e-05	1143.4	1.9843e-06	1.9626e-06	1203.6	234.98	2.0446e-06	2.0184e-06	293.26	80.403	62.983	18.398	2.0261e-06	26.233	116.536	-13.615	34.347	-67.139	40.176	47.492	-67.003	-60.113	171.543	56.727	-60.285	-53.807	-53.387	-46.540	82.909	-46.886	-8191	255	
7571.695	1	1	0	0	0.26491	0.22906	0.12314	0.13064	0.23702	0.2482	0.21609	0.034816	0.090776	0.3099	0.16996	0.33183	0.078324	0.30129	0.14829	0.1572	-2.1792	-2.675	-2.6813	-2.7938	-2.8646	-2.6146	-2.6875	-2.8958	-2.5854	-2.7354	-3.0062	-2.6958	-3.0542	-2.7333	-2.6188	-3.0167	194.417	31.741	156.574	149.277	207.576	-17.624	233.167	168.118	189.275	41.879	210.400	209.091	87.657	142.714	191.470	-6.082	0.0001428	0.00047004	7.6396e-05	1172.4	2.3267e-06	3.0903e-06	1229.3	238.63	1.1691e-06	2.2294e-06	297.95	80.416	62.857	18.336	1.5129e-06	26.095	0.00018632	0.00018461	5.0957e-05	1142.7	2.048e-06	1.9882e-06	1203.5	235.14	2.0765e-06	2.0082e-06	293	80.426	62.766	18.438	2.0278e-06	26.226	111.864	34.824	21.272	-67.163	133.922	54.793	-67.275	-60.264	74.127	73.792	-60.206	-53.775	-53.821	-46.451	63.193	-47.184	-8191	255	
7571.815	1	1	0	0	0.27181	0.13021	0.24796	0.42174	0.22454	0.064634	0.20973	0.17284	0.23415	0.047049	0.26421	0.31705	0.35368	0.098043	0.056786	0.044275	-2.1479	-2.6771	-2.7146	-2.7062	-2.6875	-2.7812	-2.725	-2.9208	-2.5812	-2.6583	-2.8896	-2.7146	-2.7104	-2.775	-2.5271	-2.6542	179.986	113.882	190.616	254.056	95.647	-25.376	13.791	206.201	136.527	209.389	147.594	232.266	241.688	147.159	186.835	81.892	0.00017508	0.00014431	9.7482e-05	1171.6	3.3842e-06	5.6711e-06	1234.2	238.92	4.5704e-07	3.6582e-06	297.55	80.568	63.154	18.298	4.0132e-06	26.15	0.00018418	0.00018476	5.0066e-05	1141.5	2.0631e-06	1.9648e-06	1203.8	235.58	2.0584e-06	1.9641e-06	293.31	80.39	62.838	18.414	1.9613e-06	26.211	132.089	-77.038	17.518	-67.229	105.246	51.032	-67.180	-60.119	271.552	122.695	-60.456	-54.041	-53.565	-46.770	50.737	-46.557	-8191	255	
7571.911	1	1	0	0	0.11897	0.21436	0.059283	0.26551	0.20953	0.21688	0.27424	0.31837	0.1349	0.10398	0.1815	0.046732	0.14484	0.11407	0.20752	0.12591	-2.2792	-2.6562	-2.7583	-2.5917	-2.8312	-2.7292	-2.7	-2.9771	-2.7896	-2.7917	-2.8875	-2.6437	-2.8271	-2.7687	-2.6917	-2.9708	235.215	46.674	-21.598	128.543	-47.856	131.166	206.696	164.604	113.187	222.873	34.590	104.185	-77.238	-31.957	-32.865	167.300	0.0001252	0.00041568	0.00010426	1176.1	3.6196e-06	1.1371e-06	1229.8	238.57	3.4058e-06	3.1457e-06	297.76	80.333	63.788	18.438	3.5569e-06	26.097	0.00018295	0.00018222	5.0117e-05	1143.7	2.0006e-06	1.9336e-06	1202.8	235.14	2.0437e-06	1.9707e-06	293.01	80.246	63.252	18.467	2.0646e-06	26.227	132.982	10.851	50.836	-67.173	55.007	113.936	-66.993	-60.142	54.419	90.439	-60.250	-54.006	-53.626	-46.631	85.862	-46.658	-8191	255	
7572.008	1	1	0	0	0.044211	0.20005	0.13585	0.2693	0.097693	0.31375	0.2788	0.17442	0.079352	0.10313	0.17231	0.10519	0.16047	0.062903	0.060954	0.32914	-2.3521	-2.5792	-2.7625	-2.8417	-2.7812	-2.7896	-2.6708	-2.9333	-2.6604	-2.6229	-2.9292	-2.4562	-2.7	-2.9167	-2.4667	-2.8438	51.369	111.378	-16.168	-47.072	19.295	-57.305	205.039	219.289	-35.319	253.534	-76.741	226.943	-31.311	25.177	-51.888	275.561	0.00012153	0.00022735	0.00011182	1170.8	4.2522e-06	4.2889e-06	1229.9	238.84	2.5328e-06	1.458e-06	296.88	80.538	63.169	18.34	2.1282e-06	26.192	0.00018389	0.00017948	5.0626e-05	1141.4	2.0683e-06	1.9685e-06	1203.3	235.05	2.0226e-06	2.0001e-06	292.45	80.092	62.801	18.384	1.957e-06	26.204	104.957	22.137	4.318	-67.026	68.221	67.479	-67.151	-60.066	125.020	156.027	-59.899	-54.123	-53.562	-46.617	82.475	-46.822	-8191	255	
7572.104	1	1	0	0	0.18838	0.35509	0.1684	0.24083	0.043776	0.1689	0.21404	0.22603	0.12728	0.17899	0.17571	0.072835	0.136	0.06344	0.24766	0.051627	-2.5354	-2.4208	-2.8542	-2.8646	-2.6833	-2.8542	-2.6021	-2.8167	-2.8063	-2.5083	-3.1896	-2.7396	-2.6937	-2.8125	-2.5625	-2.6542	68.969	63.940	52.514	239.811	225.636	106.903	257.023	262.366	188.382	247.723	13.107	40.955	54.971	-71.392	211.742	135.541	0.00011653	0.00023004	0.00011133	1165.3	4.539e-07	3.3625e-06	1225	239.51	1.676e-06	2.0906e-06	296.66	80.13	63.168	18.296	1.341e-06	26.065	0.00017804	0.0001737	4.8656e-05	1138.8	1.9508e-06	1.824e-06	1198.4	234.75	1.9274e-06	1.8912e-06	291.79	80.034	62.658	18.422	1.9259e-06	26.157	122.248	-19.443	23.280	-67.289	-23.856	62.086	-66.862	-60.087	48.027	74.053	-60.301	-53.476	-53.794	-46.681	137.148	-47.057	-8191	255	
7572.200	1	1	0	0	0.19999	0.20671	0.28457	0.33258	0.10833	0.15223	0.24925	0.049574	0.29496	0.34695	0.10018	0.091432	0.12797	0.11012	0.27122	0.17149	-2.2333	-2.4771	-2.7979	-2.7812	-2.5875	-2.9292	-2.7542	-2.6437	-2.6542	-2.5792	-2.8063	-2.7188	-2.7292	-2.7313	-2.4979	-2.7646	85.246	116.928	111.852	244.787	96.055	275.784	-75.808	-76.613	15.840	93.009	253.570	145.755	65.883	155.671	-46.501	70.179	0.00016049	0.00013713	8.7471e-05	1165.5	2.0014e-06	5.0295e-06	1220.6	237.1	2.2275e-07	3.2882e-06	297.3	79.943	62.895	18.357	2.4858e-06	25.941	0.00017774	0.00016834	4.6448e-05	1137.3	1.8921e-06	1.8643e-06	1197.2	234.05	1.9602e-06	1.948e-06	291.83	80.008	62.64	18.418	2.0034e-06	26.16	112.738	-37.920	19.557	-66.934	87.482	55.289	-67.169	-60.265	50.898	83.506	-60.204	-53.765	-53.534	-46.684	40.784	-46.796	-8191	255	
7572.296	1	1	0	0	0.22591	0.034429	0.076832	0.36942	0.14659	0.10014	0.27188	0.2524	0.19161	0.19813	0.24534	0.039695	0.2547	0.15789	0.1423	0.048757	-2.3667	-2.4104	-2.8542	-2.8563	-2.4396	-2.9292	-2.6917	-2.8271	-2.7583	-2.6063	-2.9333	-2.9083	-2.5438	-2.8708	-2.6354	-2.6521	129.553	135.324	139.809	272.528	-76.143	16.965	229.161	257.309	44.817	127.770	231.084	100.947	243.240	-11.420	6.290	63.985	7.8126e-05	0.00044389	7.5861e-05	1171.7	1.5212e-06	1.7995e-06	1227.8	237.79	7.746e-07	3.0502e-06	296.42	80.668	63.114	18.414	5.0918e-06	26.103	0.00018101	0.00017771	4.8436e-05	1140.3	1.9447e-06	1.9928e-06	1199.6	234.31	2.02e-06	1.9858e-06	291.77	80.183	62.736	18.427	2.0399e-06	26.207	97.069	10.403	44.293	-67.292	39.609	54.556	-67.276	-59.910	275.107	73.666	-60.466	-53.464	-53.355	-46.576	72.221	-46.771	-8191	255	
7572.415	1	1	0	0	0.1557	0.17221	0.10391	0.17192	0.19781	0.1755	0.2246	0.21125	0.063596	0.24812	0.17493	0.13786	0.16979	0.015671	0.1568	0.24655	-2.4333	-2.6042	-2.7146	-2.8667	-2.5938	-2.8292	-2.8354	-2.7604	-2.9896	-2.5729	-2.9896	-2.7771	-2.5125	-2.8146	-2.7104	-2.7125	153.773	155.938	137.558	-76.166	275.038	-49.236	261.561	202.503	30.649	51.500	-28.395	238.877	97.116	-51.060	238.012	-24.248	0.00010271	0.0003593	0.00011627	1162.4	7.1369e-07	2.8519e-06	1222.9	238.3	1.3493e-06	2.3562e-06	296.7	79.618	63.167	18.401	1.8163e-06	26.198	0.00018412	0.00017827	4.8862e-05	1136.3	2.0187e-06	1.9007e-06	1196.8	234.62	2.0258e-06	1.9363e-06	292.04	79.982	62.776	18.45	1.9816e-06	26.188	109.401	10.977	32.019	-67.177	-71.467	46.413	-67.116	-60.036	97.914	130.699	-60.526	-53.850	-53.656	-46.195	65.966	-46.901	-8191	255	
7572.511	1	1	0	0	0.046933	0.25005	0.23241	0.20472	0.27951	0.21053	0.33684	0.067446	0.25266	0.11763	0.24385	0.10791	0.14502	0.14814	0.082271	0.072793	-2.2646	-2.4396	-2.6083	-2.8833	-2.4667	-2.6104	-2.7979	-2.7583	-2.8667	-2.7021	-2.5875	-2.8854	-2.6479	-2.8312	-2.6667	-2.6604	150.154	-10.691	-17.837	153.081	270.865	160.540	248.775	198.702	97.191	-32.762	-37.270	247.330	150.576	-32.667	80.808	97.239	0.00012346	0.00043143	0.00013546	1168.3	1.1392e-06	2.1102e-06	1226	238.17	1.195e-06	1.0385e-06	295.5	80.325	63.226	18.413	4.1238e-06	26.092	0.00018199	0.0001782	4.8998e-05	1139	1.9816e-06	1.8813e-06	1199.7	234.63	1.9516e-06	1.9048e-06	291.49	80.182	62.767	18.402	1.9656e-06	26.153	114.161	-36.019	45.897	-67.133	80.618	43.468	-67.164	-60.259	207.234	-47.908	-60.481	-53.628	-53.717	-46.580	55.702	-46.879	-8191	255	
7572.607	1	1	0	0	0.15448	0.15814	0.096869	0.13567	0.11006	0.13759	0.10151	0.18826	0.12872	0.17646	0.2787	0.31375	0.18358	0.24123	0.054965	0.12485	-2.4104	-2.5667	-2.7708	-3.0021	-2.4708	-2.8542	-2.8875	-2.6437	-2.8812	-2.6646	-2.7854	-2.7062	-2.5375	-2.9125	-2.6708	-2.6479	-20.372	265.244	6.885	-37.489	122.484	36.252	174.080	-29.383	-42.733	66.122	96.216	224.274	42.213	268.179	111.458	97.283	0.00015038	0.00020821	0.00014358	1171.5	2.5676e-06	4.7068e-06	1229.2	237.95	2.8583e-06	1.874e-06	297.78	80.047	63.462	18.375	2.0504e-06	26.25	0.00018208	0.00017672	4.9089e-05	1139.6	2.0425e-06	1.9262e-06	1200.2	234.39	1.9495e-06	1.9342e-06	292.18	80.205	62.711	18.394	2.004e-06	26.216	114.294	-6.055	31.560	-67.181	52.717	67.281	-67.173	-60.021	5.726	102.944	-60.211	-53.716	-53.377	-46.633	54.441	-46.807	-8191	255	
7572.703	1	1	0	0	0.37756	0.060461	0.038904	0.09831	0.2334	0.14258	0.39114	0.18252	0.2503	0.085042	0.18393	0.10081	0.16257	0.36829	0.11967	0.18723	-2.3354	-2.7792	-2.6333	-2.9125	-2.7417	-2.8375	-3.0104	-2.6146	-2.7646	-2.6	-2.6229	-2.9062	-2.4667	-2.7792	-2.8292	-2.7875	242.103	4.878	-16.695	231.841	206.323	104.293	254.775	165.140	-55.968	160.542	119.766	245.846	136.985	135.366	70.023	191.338	7.9218e-05	0.00021954	0.00011725	1171.1	2.2742e-06	1.7205e-06	1224.7	238.14	6.9741e-07	2.2893e-06	298.22	79.925	63.387	18.419	4.16e-06	26.056	0.00017975	0.00017406	4.8505e-05	1140.1	1.952e-06	1.9367e-06	1202.3	234.49	1.9931e-06	1.967e-06	292.86	80.125	62.889	18.422	1.9737e-06	26.223	103.639	-32.984	37.802	-67.226	60.672	103.320	-67.107	-60.273	-12.378	69.248	-60.197	-53.641	-53.692	-46.732	39.645	-46.705	-8191	255	
#DATA ENDS
