BOXY.EXE: ISS Imagent and Oximeter Data Acquisition Program Version 0.80
Ascii Record File

#ACQ INFORMATION
2  Detector Channels 
16  External MUX Channels 
1  Auxiliary Channels 
5000  Waveform (CCF) Frequency (Hz)
1  Waveforms Skipped 
30  Waveforms Averaged 
1  Cycles Averaged 
16  Acquisitions per Waveform 
10.0806  Updata Rate (Hz) 

#FILE INFORMATION
TRUE -- External MUX Channel results are PARSED.
FALSE -- AC DC and Phase are NOT grouped.
TRUE -- Companion Program Settings File CREATED.
FALSE -- AC data not excluded
FALSE -- DC data not excluded
FALSE -- Phase data not excluded
FALSE -- Auxillary Chn. data not excluded
Tab delimiters

#CALIBRATION STATE
TRUE -- Waveform Calibration Values APPLIED.


#AUX CALIBRATION VALUES
Val Type	aux-1	

Term	1.0000e+00	
Factor	0.0000e+00	


#WF CALIBRATION VALUES
A = Detector Channel
Val Type	A-AC1	A-AC2	A-AC3	A-AC4	A-AC5	A-AC6	A-AC7	A-AC8	A-AC9	A-AC10	A-AC11	A-AC12	A-AC13	A-AC14	A-AC15	A-AC16	A-DC1	A-DC2	A-DC3	A-DC4	A-DC5	A-DC6	A-DC7	A-DC8	A-DC9	A-DC10	A-DC11	A-DC12	A-DC13	A-DC14	A-DC15	A-DC16	A-Ph1	A-Ph2	A-Ph3	A-Ph4	A-Ph5	A-Ph6	A-Ph7	A-Ph8	A-Ph9	A-Ph10	A-Ph11	A-Ph12	A-Ph13	A-Ph14	A-Ph15	A-Ph16	

Term	0.00000e+00	0.00000e+00	0.00000e+00	0.00000e+00	0.00000e+00	0.00000e+00	0.00000e+00	0.00000e+00	0.00000e+00	0.00000e+00	0.00000e+00	0.00000e+00	0.00000e+00	0.00000e+00	0.00000e+00	0.00000e+00	0.00000e+00	0.00000e+00	0.00000e+00	0.00000e+00	0.00000e+00	0.00000e+00	0.00000e+00	0.00000e+00	0.00000e+00	0.00000e+00	0.00000e+00	0.00000e+00	0.00000e+00	0.00000e+00	0.00000e+00	0.00000e+00	0.00000e+00	0.00000e+00	0.00000e+00	0.00000e+00	0.00000e+00	0.00000e+00	0.00000e+00	0.00000e+00	0.00000e+00	0.00000e+00	0.00000e+00	0.00000e+00	0.00000e+00	0.00000e+00	0.00000e+00	0.00000e+00	
Factor	1.00000e+00	1.00000e+00	1.00000e+00	1.00000e+00	1.00000e+00	1.00000e+00	1.00000e+00	1.00000e+00	1.00000e+00	1.00000e+00	1.00000e+00	1.00000e+00	1.00000e+00	1.00000e+00	1.00000e+00	1.00000e+00	1.00000e+00	1.00000e+00	1.00000e+00	1.00000e+00	1.00000e+00	1.00000e+00	1.00000e+00	1.00000e+00	1.00000e+00	1.00000e+00	1.00000e+00	1.00000e+00	1.00000e+00	1.00000e+00	1.00000e+00	1.00000e+00	X	X	X	X	X	X	X	X	X	X	X	X	X	X	X	X	

B = Detector Channel
Val Type	B-AC1	B-AC2	B-AC3	B-AC4	B-AC5	B-AC6	B-AC7	B-AC8	B-AC9	B-AC10	B-AC11	B-AC12	B-AC13	B-AC14	B-AC15	B-AC16	B-DC1	B-DC2	B-DC3	B-DC4	B-DC5	B-DC6	B-DC7	B-DC8	B-DC9	B-DC10	B-DC11	B-DC12	B-DC13	B-DC14	B-DC15	B-DC16	B-Ph1	B-Ph2	B-Ph3	B-Ph4	B-Ph5	B-Ph6	B-Ph7	B-Ph8	B-Ph9	B-Ph10	B-Ph11	B-Ph12	B-Ph13	B-Ph14	B-Ph15	B-Ph16	

Term	0.00000e+00	0.00000e+00	0.00000e+00	0.00000e+00	0.00000e+00	0.00000e+00	0.00000e+00	0.00000e+00	0.00000e+00	0.00000e+00	0.00000e+00	0.00000e+00	0.00000e+00	0.00000e+00	0.00000e+00	0.00000e+00	0.00000e+00	0.00000e+00	0.00000e+00	0.00000e+00	0.00000e+00	0.00000e+00	0.00000e+00	0.00000e+00	0.00000e+00	0.00000e+00	0.00000e+00	0.00000e+00	0.00000e+00	0.00000e+00	0.00000e+00	0.00000e+00	-1.80303e+02	-1.38097e+02	-1.19944e+02	-1.80819e+02	-7.90061e+01	-8.11867e+01	-1.57378e+02	-1.62015e+02	-8.94823e+01	-7.32125e+01	-1.71564e+02	-1.71541e+02	-1.83671e+02	-1.76147e+02	-9.09538e+01	-1.49257e+02	
Factor	2.87017e-05	1.45962e-04	4.30770e-05	1.57142e-01	1.46671e-06	1.61965e-06	1.59980e-01	4.53428e-02	1.43660e-06	1.32136e-06	7.50420e-02	2.82269e-02	3.42424e-02	8.08152e-03	1.41912e-06	1.17899e-02	2.86743e-06	3.12586e-06	8.73151e-07	7.88825e-02	3.38613e-08	3.44756e-08	7.56613e-02	2.28643e-02	3.41259e-08	3.46871e-08	3.65790e-02	1.37491e-02	1.70758e-02	4.08423e-03	3.47117e-08	5.78306e-03	X	X	X	X	X	X	X	X	X	X	X	X	X	X	X	X	



#DISTANCE SETTINGS
A = Detector Channel
A-1	A-2	A-3	A-4	A-5	A-6	A-7	A-8	A-9	A-10	A-11	A-12	A-13	A-14	A-15	A-16	

2.5000e+00	3.0000e+00	2.5000e+00	3.0000e+00	2.0000e+00	3.0000e+00	1.5000e+00	3.0000e+00	3.0000e+00	3.0000e+00	3.0000e+00	3.0000e+00	3.0000e+00	3.0000e+00	1.5000e+00	3.0000e+00	

B = Detector Channel
B-1	B-2	B-3	B-4	B-5	B-6	B-7	B-8	B-9	B-10	B-11	B-12	B-13	B-14	B-15	B-16	

1.0000e+01	1.0000e+01	1.0000e+01	1.4400e+00	1.0000e+01	1.0000e+01	1.5100e+00	1.9400e+00	1.0000e+01	1.0000e+01	1.9900e+00	2.4900e+00	2.4100e+00	2.9000e+00	1.0000e+01	2.9800e+00	




#DATA BEGINS
time	group	step	mark	flag	A-AC1	A-AC2	A-AC3	A-AC4	A-AC5	A-AC6	A-AC7	A-AC8	A-AC9	A-AC10	A-AC11	A-AC12	A-AC13	A-AC14	A-AC15	A-AC16	A-DC1	A-DC2	A-DC3	A-DC4	A-DC5	A-DC6	A-DC7	A-DC8	A-DC9	A-DC10	A-DC11	A-DC12	A-DC13	A-DC14	A-DC15	A-DC16	A-Ph1	A-Ph2	A-Ph3	A-Ph4	A-Ph5	A-Ph6	A-Ph7	A-Ph8	A-Ph9	A-Ph10	A-Ph11	A-Ph12	A-Ph13	A-Ph14	A-Ph15	A-Ph16	B-AC1	B-AC2	B-AC3	B-AC4	B-AC5	B-AC6	B-AC7	B-AC8	B-AC9	B-AC10	B-AC11	B-AC12	B-AC13	B-AC14	B-AC15	B-AC16	B-DC1	B-DC2	B-DC3	B-DC4	B-DC5	B-DC6	B-DC7	B-DC8	B-DC9	B-DC10	B-DC11	B-DC12	B-DC13	B-DC14	B-DC15	B-DC16	B-Ph1	B-Ph2	B-Ph3	B-Ph4	B-Ph5	B-Ph6	B-Ph7	B-Ph8	B-Ph9	B-Ph10	B-Ph11	B-Ph12	B-Ph13	B-Ph14	B-Ph15	B-Ph16	aux-1	digaux	

9142.387	1	1	0	512	0.067501	0.11702	0.038109	0.015896	0.13029	0.13038	0.16414	0.18226	0.23797	0.05036	0.14051	0.055902	0.11095	0.272	0.14801	0.16659	-1.9188	-2.3771	-2.6	-2.3812	-2.5208	-2.3312	-2.3125	-2.5979	-2.4208	-2.5604	-2.6333	-2.3167	-2.5958	-2.5854	-2.2979	-2.6417	-86.838	82.174	-128.561	152.458	-107.891	108.807	107.157	-129.168	-162.497	155.120	54.470	42.064	185.551	49.217	-142.686	8.860	0.00040363	0.00014722	5.3604e-05	202.05	1.8396e-06	2.2593e-06	285.1	60.397	1.458e-06	1.1563e-06	109.65	46.244	23.3	11.556	1.9753e-06	25.923	3.7044e-05	8.8436e-06	2.232e-06	195.38	1.0172e-07	8.1305e-08	275.96	58.838	1.1781e-07	7.6818e-08	106.18	44.86	22.407	11.216	1.2098e-07	25.291	147.549	-74.031	-60.426	-151.013	-37.107	-28.959	-151.896	-145.087	-53.923	-2.991	-146.999	-142.639	-140.807	-136.401	-54.114	-138.561	-8191	255	
9142.506	1	1	0	0	0.042581	0.14839	0.097641	0.074394	0.15833	0.20532	0.32184	0.14709	0.011189	0.13805	0.11745	0.3047	0.18533	0.038271	0.085028	0.088587	-2.2083	-2.4188	-2.5875	-2.4542	-2.5604	-2.5812	-2.2333	-2.5563	-2.6354	-2.4854	-2.6042	-2.4646	-2.5646	-2.4708	-2.2979	-2.5521	-86.250	-72.068	23.711	-4.702	8.123	-38.357	120.734	-15.479	3.241	143.515	30.688	-5.247	57.469	38.606	-56.285	177.312	0.00036378	9.4849e-05	4.5928e-05	202.26	1.3031e-06	1.7149e-06	282.63	60.454	1.7251e-06	1.0493e-06	110.3	47.626	24.218	12.137	2.0574e-06	27.596	3.5652e-05	8.9282e-06	1.7863e-06	194.6	1.2112e-07	7.6349e-08	273.65	58.891	1.1041e-07	8.9681e-08	107.28	46.165	23.312	11.833	1.1491e-07	26.88	148.931	-99.334	-72.496	-151.121	-20.382	-25.055	-151.702	-145.290	-57.644	-9.948	-146.756	-142.335	-141.207	-135.823	-50.729	-138.710	-8191	255	
9142.602	1	1	0	0	0.3856	0.094663	0.16083	0.24535	0.10234	0.14216	0.19261	0.23801	0.084463	0.11945	0.1596	0.14169	0.27935	0.12993	0.035572	0.24321	-1.9896	-2.4083	-2.6104	-2.3896	-2.3625	-2.7271	-2.4562	-2.5896	-2.5417	-2.4104	-2.65	-2.4938	-2.4521	-2.5312	-2.2604	-2.3	47.977	-110.867	112.082	-40.884	181.499	16.707	-94.003	-73.936	64.910	-51.059	9.348	15.349	-34.514	-145.110	7.731	-37.825	0.000397	0.00011708	6.1592e-05	203.6	1.7645e-06	1.7287e-06	288.08	61.741	1.3889e-06	1.113e-06	112.28	47.929	24.142	11.91	1.1441e-06	26.748	4.0031e-05	9.4232e-06	2.5576e-06	197.13	1.1033e-07	7.441e-08	278.35	60.086	1.0245e-07	1.0168e-07	108.42	46.3	23.273	11.619	1.2019e-07	26.072	148.629	-64.414	-65.442	-150.897	-38.738	-54.348	-151.700	-145.546	-35.958	-32.839	-146.961	-142.336	-140.769	-136.474	-37.224	-138.690	-8191	255	
9142.674	1	1	0	0	0.20059	0.19614	0.16777	0.14919	0.086868	0.27695	0.045588	0.12202	0.072036	0.15899	0.25496	0.18338	0.11107	0.20261	0.25931	0.31102	-2.0604	-2.1958	-2.5563	-2.3167	-2.4104	-2.6354	-2.1917	-2.4771	-2.4813	-2.2958	-2.8063	-2.5187	-2.3729	-2.5646	-2.35	-2.5646	44.840	109.833	99.372	-84.773	191.197	-106.959	164.525	-31.109	-102.371	-132.198	151.992	192.893	-43.516	72.758	101.407	165.621	0.00038495	0.00013608	4.62e-05	202.08	1.2683e-06	1.7726e-06	282.05	60.701	2.1648e-06	1.483e-06	109.22	46.514	23.542	11.571	1.476e-06	26.372	3.7211e-05	9.2473e-06	1.7881e-06	195.27	1.2324e-07	6.6868e-08	274.12	58.752	1.0565e-07	9.4956e-08	106.28	45.095	22.547	11.289	1.0696e-07	25.84	146.923	-97.286	-87.689	-151.303	-20.083	-39.158	-151.890	-145.482	-52.430	3.592	-146.597	-142.528	-141.359	-135.963	-49.107	-138.737	-8191	255	
9142.770	1	1	0	0	0.27231	0.047322	0.16201	0.30822	0.099875	0.053219	0.26301	0.084366	0.28379	0.091656	0.077697	0.049902	0.082751	0.16804	0.099817	0.073808	-2.1312	-2.2438	-2.6063	-2.3812	-2.4271	-2.5896	-2.3792	-2.3021	-2.5979	-2.35	-2.5771	-2.55	-2.3833	-2.7104	-2.3312	-2.5104	89.659	-61.263	-72.980	74.914	170.899	5.888	123.024	2.895	-131.510	135.352	22.834	134.172	22.828	3.944	80.021	145.620	0.00039135	0.00011567	4.3e-05	201.28	1.1953e-06	1.9805e-06	283.47	60.574	1.734e-06	1.5161e-06	110.32	47.157	23.686	11.858	1.2071e-06	26.81	3.6829e-05	9.1627e-06	2.503e-06	195.16	1.1534e-07	6.8448e-08	274.84	58.866	9.8823e-08	9.1343e-08	107.13	45.656	22.887	11.578	1.1795e-07	26.236	149.455	-99.397	-74.710	-151.273	-47.707	-33.847	-152.062	-145.527	-34.284	-29.980	-146.085	-142.061	-141.754	-136.131	-54.575	-138.578	-8191	255	
9142.891	1	1	0	0	0.1449	0.079064	0.12073	0.10093	0.16255	0.014562	0.10221	0.15819	0.15692	0.12727	0.1681	0.21145	0.070875	0.17871	0.20333	0.1791	-2.25	-2.3417	-2.4042	-2.5667	-2.4792	-2.8063	-2.3542	-2.4125	-2.4562	-2.4604	-2.5083	-2.4333	-2.2792	-2.5792	-2.1937	-2.3438	-76.348	104.658	3.499	-51.508	26.423	-86.326	115.581	-128.195	-92.951	94.579	193.198	-133.737	-120.641	51.225	55.487	-46.961	0.00039131	0.0001722	4.1162e-05	202.05	1.4079e-06	2.1165e-06	283.35	60.355	1.1024e-06	2.2463e-06	110.2	46.134	23.404	11.574	1.0955e-06	25.697	3.6739e-05	8.7654e-06	2.3666e-06	194.64	1.0723e-07	7.9868e-08	274.66	59.145	9.7046e-08	9.7052e-08	106.97	44.983	22.598	11.284	1.011e-07	25.312	148.180	-95.342	-66.879	-151.123	-7.798	-35.789	-151.969	-145.446	-35.610	-23.501	-146.894	-142.496	-141.977	-135.868	-64.822	-138.520	-8191	255	
9142.987	1	1	0	0	0.074966	0.1741	0.15591	0.2624	0.10651	0.15832	0.1174	0.21531	0.15381	0.081816	0.18281	0.090209	0.066896	0.040155	0.23972	0.12057	-2.1437	-2.2958	-2.5771	-2.5729	-2.5104	-2.4958	-2.4271	-2.3917	-2.6542	-2.3292	-2.4688	-2.5479	-2.2188	-2.775	-2.6042	-2.3937	-24.412	-32.341	34.188	77.914	171.057	184.667	-51.348	-116.361	-141.085	-0.809	-3.024	190.819	98.665	87.128	82.508	123.781	0.00037915	0.00018882	5.5732e-05	202.41	1.1221e-06	1.2384e-06	280.28	60.185	1.6554e-06	1.4339e-06	108.14	45.069	22.96	11.323	8.9624e-07	25.787	3.5484e-05	8.1207e-06	2.4394e-06	194.56	1.0892e-07	7.0316e-08	273.33	58.498	9.797e-08	9.6257e-08	105.61	43.852	22.03	11.055	1.1122e-07	25.195	149.450	-91.195	-70.067	-151.133	-20.792	-28.207	-152.029	-145.331	-35.100	-29.984	-146.332	-142.334	-141.091	-136.683	-36.887	-138.526	-8191	255	
9143.081	1	1	0	0	0.16029	0.071142	0.10045	0.33843	0.12122	0.059583	0.031103	0.083961	0.13432	0.063266	0.13192	0.28257	0.1186	0.24415	0.13851	0.07599	-2.2313	-2.3438	-2.5104	-2.6354	-2.5687	-2.6292	-2.3104	-2.4396	-2.6375	-2.4646	-2.3417	-2.6229	-2.4771	-2.4604	-2.5354	-2.3375	-125.989	9.807	2.594	161.127	186.703	-103.154	163.403	184.668	185.823	55.919	142.922	1.638	-109.738	-141.724	48.898	-128.620	0.00038508	0.00015135	5.8853e-05	201.5	8.9657e-07	2.4631e-06	284.8	61.281	1.9434e-06	1.232e-06	113.53	48.202	24.513	12.367	1.3763e-06	28.191	3.5711e-05	9.0455e-06	2.4121e-06	195.32	1.0271e-07	9.0858e-08	276.98	59.713	9.0292e-08	9.1415e-08	110	46.56	23.732	12.039	1.1404e-07	27.564	147.362	-73.989	-73.511	-151.658	-33.746	-41.997	-151.701	-145.691	-41.273	-11.899	-146.461	-142.643	-141.833	-136.408	-38.550	-139.206	-8191	255	
9143.179	1	1	0	0	0.20901	0.18165	0.14973	0.20567	0.19359	0.068969	0.37128	0.1361	0.25648	0.053535	0.22782	0.13976	0.069754	0.13545	0.07339	0.042563	-2.0938	-2.3646	-2.5583	-2.4771	-2.3292	-2.5312	-2.5208	-2.2812	-2.5333	-2.5563	-2.5604	-2.7396	-2.5333	-2.6042	-2.5021	-2.5	-29.795	13.493	-149.677	31.557	129.389	-140.965	116.287	-31.548	101.330	-135.504	158.634	152.170	44.394	-36.982	56.150	14.520	0.00042287	0.00015928	5.1734e-05	208.25	1.8982e-06	2.0509e-06	291.38	64.135	1.5194e-06	1.1168e-06	115.5	49.698	24.992	12.5	1.2159e-06	27.74	4.0622e-05	9.2148e-06	2.4794e-06	200.86	1.188e-07	1.1355e-07	282.28	62.394	1.1141e-07	9.4089e-08	112.51	48.307	24.292	12.151	9.242e-08	27.075	148.701	-98.437	-70.900	-151.216	-30.274	-57.128	-151.768	-145.276	-92.680	-23.532	-146.553	-142.794	-141.544	-136.556	-55.903	-138.850	-8191	255	
9143.298	1	1	0	0	0.20557	0.0085417	0.16934	0.13661	0.10194	0.061572	0.33764	0.22621	0.10901	0.23229	0.13073	0.086342	0.057391	0.19922	0.05285	0.078926	-2.2313	-2.4896	-2.3958	-2.7354	-2.4354	-2.6312	-2.6854	-2.5396	-2.7583	-2.6458	-2.3604	-2.6167	-2.2583	-2.4479	-2.6688	-2.6125	146.666	187.920	188.103	-78.022	-28.612	186.083	32.404	184.770	131.168	91.888	-144.545	-130.654	11.028	-155.444	40.638	-122.174	0.00042414	0.00018055	5.3264e-05	205.82	1.5324e-06	2.1694e-06	286.81	62.041	1.6686e-06	1.5805e-06	112.37	47.249	24.141	11.995	9.3941e-07	26.92	3.9875e-05	9.2278e-06	2.6504e-06	198.11	1.0927e-07	9.1576e-08	278.14	60.289	1.0977e-07	9.0837e-08	108.89	46.094	23.223	11.677	1.063e-07	26.206	147.284	-74.007	-73.364	-151.413	-31.650	-6.364	-152.013	-145.275	-46.143	-13.633	-146.415	-142.451	-141.832	-136.354	-49.902	-139.161	-8191	255	
9143.372	1	1	0	0	0.43358	0.37323	0.33287	0.16997	0.13209	0.10701	0.17509	0.12284	0.27964	0.18809	0.40826	0.068092	0.13222	0.23535	0.1547	0.084583	-2.2396	-2.45	-2.3521	-2.6146	-2.4062	-2.4146	-2.7583	-2.1646	-2.5375	-2.5792	-2.1229	-2.4792	-2.3583	-2.3021	-2.7604	-2.4896	-0.579	37.444	-133.978	191.266	-54.799	14.545	-34.202	137.464	54.541	60.270	29.292	-138.083	-15.133	97.111	185.708	134.118	0.00038204	0.0001424	4.4453e-05	201.36	1.7488e-06	1.8693e-06	282.98	60.702	1.7912e-06	1.0492e-06	109.17	45.538	22.897	11.203	2.2597e-06	25.281	3.797e-05	7.8016e-06	2.6722e-06	196.45	1.1174e-07	8.8918e-08	275.82	58.915	1.1432e-07	8.0864e-08	105.92	44.106	21.988	10.923	9.3794e-08	24.725	148.080	-70.134	-79.765	-151.353	-32.662	-43.805	-151.566	-145.156	-31.708	-0.411	-146.577	-142.613	-141.915	-135.952	-33.850	-138.345	-8191	255	
9143.490	1	1	0	0	0.15216	0.02882	0.1759	0.24245	0.21526	0.085193	0.17552	0.091509	0.15292	0.10105	0.20886	0.18949	0.18958	0.16137	0.18447	0.16704	-2.2458	-2.4	-2.3167	-2.7167	-2.4521	-2.5958	-2.7146	-2.2438	-2.5583	-2.6688	-2.3187	-2.55	-2.7792	-2.4833	-2.825	-2.3312	138.909	136.023	-52.854	167.324	-15.351	5.147	93.013	-41.067	6.612	183.896	-25.814	-113.282	-44.852	-31.960	-141.521	133.154	0.00036514	0.00016084	3.1502e-05	199.23	1.4959e-06	1.4741e-06	278.35	58.977	1.6192e-06	1.2156e-06	107.18	44.027	22.134	11.083	1.8297e-06	25.308	3.567e-05	7.743e-06	2.1138e-06	191.94	9.5235e-08	8.1305e-08	271.21	57.232	9.5979e-08	6.9736e-08	103.67	42.758	21.486	10.799	1.0659e-07	24.8	148.272	-104.549	-85.041	-151.386	-36.853	-33.243	-151.763	-145.465	-61.128	-51.208	-146.933	-142.290	-141.963	-135.733	-44.170	-138.434	-8191	255	
9143.587	1	1	0	0	0.22358	0.31669	0.20422	0.32394	0.096906	0.10343	0.072373	0.49012	0.16229	0.16601	0.11473	0.2024	0.27817	0.15005	0.092281	0.19062	-2.0979	-2.5896	-2.4375	-2.7354	-2.6167	-2.675	-2.6979	-2.3604	-2.4958	-2.9104	-2.4833	-2.5958	-2.7438	-2.3229	-2.7604	-2.4396	-95.378	152.162	29.238	165.505	-77.751	-142.114	-12.043	-161.839	68.617	179.847	-107.996	-35.124	157.480	-147.228	137.987	81.971	0.00038295	0.00017003	5.6333e-05	201.07	1.1294e-06	1.3774e-06	283.7	61.029	1.5801e-06	1.3806e-06	112.7	46.779	24.296	11.795	1.219e-06	26.671	3.7659e-05	7.3067e-06	2.6486e-06	194.18	1.0038e-07	8.7625e-08	276.17	59.585	1.2442e-07	8.0937e-08	109.08	45.857	23.173	11.562	1.0103e-07	25.992	148.852	-88.821	-71.524	-150.758	-30.762	-19.095	-151.744	-145.261	-54.312	-22.041	-146.688	-141.877	-141.340	-135.884	-61.840	-138.607	-8191	255	
9143.683	1	1	0	0	0.2599	0.10591	0.19923	0.069056	0.23323	0.14523	0.11597	0.25526	0.2131	0.10247	0.090235	0.025319	0.13818	0.18642	0.41221	0.055402	-1.9833	-2.6104	-2.2979	-2.5604	-2.5375	-2.3312	-2.7812	-2.3458	-2.5	-2.8125	-2.4208	-2.6604	-2.4188	-2.4375	-2.6583	-2.7521	-127.968	-48.243	-37.228	83.931	-28.508	-36.995	17.442	147.934	110.787	110.265	3.868	4.969	29.755	96.622	5.115	-42.687	0.00038706	0.00017452	4.9676e-05	203.44	1.2092e-06	2.1453e-06	286.03	62.466	1.1704e-06	1.7759e-06	112.88	47.356	23.738	11.775	1.3497e-06	26.726	3.7784e-05	6.1605e-06	2.4175e-06	196.23	9.2836e-08	1.0429e-07	277.01	60.45	1.1887e-07	7.7685e-08	109.4	45.944	23.178	11.533	1.0211e-07	26.034	147.646	-72.512	-69.665	-151.396	-40.780	-17.023	-151.889	-145.499	-50.053	-29.914	-146.652	-142.768	-141.920	-136.340	-63.873	-138.298	-8191	255	
9143.779	1	1	0	0	0.052391	0.20278	0.14182	0.32329	0.090079	0.31148	0.11356	0.13031	0.057693	0.022763	0.22484	0.23888	0.18811	0.44093	0.28047	0.14409	-2.0438	-2.5521	-2.1833	-2.6083	-2.6188	-2.3979	-2.7958	-2.4167	-2.4562	-2.6833	-2.2854	-2.2562	-2.7208	-2.3542	-2.4333	-2.625	-2.977	-61.763	-98.439	160.806	-39.767	161.751	176.597	-128.600	37.354	-112.829	166.601	179.956	19.540	-87.720	-88.448	9.843	0.00039623	0.00014838	4.5811e-05	202.6	1.8167e-06	1.9026e-06	287.76	63.289	1.4438e-06	1.0847e-06	115.71	49.355	25.272	12.486	1.062e-06	28.309	3.7922e-05	8.0751e-06	2.2629e-06	196.43	1.0165e-07	8.7913e-08	278.67	61.32	1.1674e-07	7.7323e-08	112.12	47.958	24.415	12.234	1.1636e-07	27.706	149.541	-97.925	-41.236	-150.737	-44.014	-28.090	-151.664	-145.024	-44.714	-46.273	-146.564	-142.724	-141.321	-136.341	-54.840	-138.490	-8191	255	
9143.900	1	1	0	0	0.18404	0.12823	0.10181	0.21333	0.27714	0.016221	0.083963	0.2709	0.081502	0.10488	0.06887	0.2152	0.22187	0.058411	0.16441	0.40929	-1.8292	-2.5458	-2.3583	-2.6	-2.5187	-2.4021	-2.4688	-2.4521	-2.3146	-2.6312	-2.3854	-2.4042	-2.6583	-2.2833	-2.5146	-2.55	110.582	-86.425	136.002	106.454	-157.268	-3.171	163.592	33.854	123.229	-89.320	-6.882	70.400	139.528	68.349	17.408	30.146	0.00042086	0.00013468	5.0281e-05	206.79	2.0489e-06	1.9122e-06	293.69	66.06	2.1579e-06	1.428e-06	119.62	52.143	26.521	13.145	1.5834e-06	29.288	4.0825e-05	8.7198e-06	2.9251e-06	200.57	1.1322e-07	1.0443e-07	285.19	63.928	1.3871e-07	9.7196e-08	116.26	50.578	25.473	12.857	1.2287e-07	28.695	147.288	-68.167	-58.352	-151.509	-37.551	-25.105	-151.589	-144.912	-55.648	-44.297	-146.870	-142.459	-141.951	-135.762	-53.233	-138.767	-8191	255	
9143.971	1	1	0	0	0.13859	0.16892	0.095502	0.018916	0.28812	0.039967	0.091699	0.15541	0.19751	0.13026	0.12189	0.16032	0.23812	0.29729	0.087028	0.2479	-1.6792	-2.6312	-2.3604	-2.4271	-2.7417	-2.4042	-2.6125	-2.4292	-2.25	-2.6604	-2.6354	-2.375	-2.4229	-2.4	-2.3625	-2.8187	-44.090	19.548	140.655	55.442	-99.674	130.952	31.833	-46.716	159.700	-29.326	-136.528	-127.969	-113.206	35.015	-91.229	126.949	0.00040257	0.00025444	5.6533e-05	208.4	1.6825e-06	1.495e-06	294.43	64.738	1.4602e-06	1.392e-06	115.85	49.717	25.095	12.392	1.904e-06	27.398	4.156e-05	1.1097e-05	2.9069e-06	201.03	1.0638e-07	1.1154e-07	284.8	62.733	1.3018e-07	9.922e-08	112.71	48.312	24.231	12.123	1.2872e-07	26.844	146.483	-81.248	-62.678	-151.113	-38.601	-44.026	-151.614	-145.397	-50.645	-14.465	-146.837	-142.247	-141.704	-136.210	-77.491	-138.534	-8191	255	
9144.067	1	1	0	0	0.15016	0.23672	0.1991	0.13476	0.15818	0.13963	0.13899	0.19595	0.22081	0.27269	0.19071	0.31161	0.38495	0.071188	0.10831	0.34668	-2.0396	-2.6604	-2.5021	-2.3	-2.6417	-2.2771	-2.5521	-2.55	-2.2792	-2.6021	-2.4688	-2.2604	-2.6125	-2.4813	-2.5771	-2.5938	-4.706	3.897	118.600	-112.750	-11.043	-51.327	115.707	-53.485	-63.360	-6.401	-68.645	159.615	-76.536	184.429	-15.945	31.394	0.00038116	0.00022218	5.7963e-05	205.85	1.2969e-06	1.9939e-06	292.08	63.471	1.4023e-06	1.2294e-06	114.91	48.537	24.574	12.11	1.6899e-06	27.197	3.8961e-05	8.2966e-06	2.4375e-06	199.41	9.3542e-08	1.0558e-07	282.69	61.846	1.1717e-07	8.0214e-08	111.57	46.978	23.837	11.808	1.3299e-07	26.523	148.696	-87.923	-62.336	-151.189	-25.820	-41.730	-152.171	-145.134	-47.579	-11.781	-146.353	-142.488	-141.391	-136.339	-70.460	-138.812	-8191	255	
9144.162	1	1	0	0	0.043446	0.21755	0.050458	0.12844	0.19307	0.14566	0.16682	0.093796	0.16294	0.13506	0.10261	0.14369	0.030797	0.18888	0.079417	0.32195	-1.8125	-2.4333	-2.5167	-2.3479	-2.6792	-2.3229	-2.4979	-2.675	-2.3771	-2.6667	-2.7333	-2.4	-2.7271	-2.5	-2.3271	-2.7188	128.230	49.959	4.379	65.496	30.426	26.389	47.090	23.799	-159.140	1.484	84.843	2.492	188.921	-160.932	-113.362	-125.296	0.00040026	0.00024059	3.8956e-05	205.94	1.9392e-06	1.8285e-06	291.92	64.139	1.6069e-06	1.9518e-06	115.91	48.618	24.996	12.128	2.1497e-06	27.025	3.9756e-05	1.0283e-05	2.5139e-06	199.86	1.0948e-07	1.0278e-07	282.85	62.38	1.2747e-07	9.1343e-08	112.42	47.445	23.914	11.854	1.1231e-07	26.428	148.797	-80.091	-95.482	-151.144	-12.391	-15.923	-151.920	-145.479	-55.966	3.571	-145.919	-142.631	-141.497	-136.429	-56.163	-138.933	-8191	255	
9144.282	1	1	0	0	0.12986	0.14908	0.045015	0.065905	0.16284	0.095219	0.27078	0.063152	0.19813	0.03807	0.096268	0.21929	0.041861	0.12904	0.27312	0.12458	-2.0125	-2.3312	-2.5542	-2.3563	-2.6937	-2.5187	-2.4708	-2.575	-2.4958	-2.4313	-2.5396	-2.3375	-2.4854	-2.6625	-2.3583	-2.6896	-76.620	85.247	-21.823	50.565	-163.463	141.802	103.363	150.324	4.985	-36.194	-37.033	-48.101	50.510	82.134	-22.971	-39.070	0.00039897	0.00016494	5.0062e-05	207.64	1.4679e-06	2.0528e-06	290.02	63.275	1.4941e-06	8.6259e-07	114.46	46.995	24.116	11.69	1.3345e-06	26.334	3.9768e-05	1.0322e-05	2.3702e-06	198.99	9.594e-08	8.4465e-08	281.2	61.403	1.2513e-07	1.0088e-07	110.62	45.832	23.159	11.381	1.186e-07	25.652	147.831	-59.284	-68.614	-151.008	-26.195	-13.572	-151.549	-145.584	-54.203	-14.399	-146.668	-142.558	-140.875	-136.123	-35.315	-138.698	-8191	255	
9144.379	1	1	0	0	0.12716	0.13901	0.094815	0.089165	0.046041	0.24699	0.046466	0.19521	0.069758	0.27081	0.40702	0.20279	0.12112	0.12335	0.29414	0.20033	-1.8438	-2.325	-2.4792	-2.2875	-2.4938	-2.4604	-2.4646	-2.6354	-2.4813	-2.5292	-2.7667	-2.3667	-2.5708	-2.4625	-2.3646	-2.6562	-110.260	188.615	-84.400	32.489	168.229	135.619	-140.622	116.918	-16.126	186.336	177.236	-40.203	25.717	-35.567	-24.298	34.645	0.0003779	0.00016418	4.4734e-05	205.87	1.0323e-06	2.2635e-06	288.43	63.067	1.1927e-06	1.5161e-06	113.78	47.471	24.359	11.808	2.4566e-06	26.756	3.7408e-05	8.9738e-06	2.1756e-06	198.79	1.1238e-07	9.962e-08	280.87	61.184	1.2157e-07	8.8524e-08	110.49	46.087	23.314	11.546	1.1925e-07	26.125	149.402	-102.720	-59.301	-151.078	-50.756	-42.516	-152.086	-145.626	-70.043	11.968	-146.850	-142.411	-141.071	-136.691	-36.692	-138.933	-8191	255	
9144.475	1	1	0	0	0.34587	0.11908	0.081701	0.11016	0.19221	0.20128	0.037439	0.37775	0.025682	0.28081	0.22997	0.058833	0.039915	0.2258	0.13214	0.15361	-1.8021	-2.2687	-2.4938	-2.3521	-2.4083	-2.5396	-2.35	-2.5146	-2.4208	-2.3646	-2.6458	-2.2729	-2.3604	-2.5833	-2.3896	-2.6521	-70.396	-115.143	-51.880	71.207	-162.649	-17.101	-125.660	108.313	81.101	33.501	-67.325	30.651	95.085	-101.056	90.602	151.823	0.00038697	0.00020304	2.6883e-05	207.79	1.498e-06	1.3734e-06	290.01	63.777	2.0819e-06	1.5167e-06	115.18	48.136	24.671	11.971	1.6235e-06	26.736	3.8346e-05	9.2864e-06	2.2447e-06	200.03	1.164e-07	8.4824e-08	282.01	61.853	1.1702e-07	8.7802e-08	111.44	46.848	23.749	11.718	1.2569e-07	26.165	146.403	-81.777	-73.046	-151.000	-42.806	-16.718	-152.186	-145.514	-59.172	-17.889	-146.906	-142.545	-141.907	-136.505	-69.761	-138.689	-8191	255	
9144.571	1	1	0	0	0.30086	0.099736	0.27738	0.14185	0.1664	0.10538	0.11283	0.067989	0.16441	0.063118	0.16876	0.091177	0.17397	0.014687	0.15337	0.090111	-2.1312	-2.4646	-2.6063	-2.5812	-2.2562	-2.4062	-2.3125	-2.3896	-2.4125	-2.3	-2.6312	-2.3333	-2.2854	-2.4208	-2.1229	-2.7458	138.742	-18.473	192.337	60.522	148.136	52.288	-127.574	106.470	52.278	63.338	-122.694	-29.293	94.545	100.909	-2.595	-132.474	0.00038735	0.00018287	5.8372e-05	204.93	1.7072e-06	9.9716e-07	291.45	64.149	2.2554e-06	1.9096e-06	115.12	47.618	24.614	11.857	1.3981e-06	26.722	3.8179e-05	9.6446e-06	2.2193e-06	199.55	1.1435e-07	8.1449e-08	282.51	62.124	1.1631e-07	8.7802e-08	111.43	46.258	23.675	11.625	1.1932e-07	26.113	149.550	-84.538	-47.915	-151.474	-26.843	-18.132	-151.944	-145.380	-46.572	-19.631	-146.700	-142.508	-141.130	-136.151	-47.094	-138.977	-8191	255	
9144.665	1	1	0	0	0.16464	0.44156	0.20432	0.099198	0.3055	0.21063	0.23965	0.10277	0.057054	0.05629	0.10679	0.13638	0.091909	0.10551	0.22816	0.26937	-2.0271	-2.2625	-2.6896	-2.2646	-2.3167	-2.7562	-2.3167	-2.5208	-2.3187	-2.2833	-2.5667	-2.4521	-2.3854	-2.6188	-2.3521	-2.4437	-70.415	-106.859	0.430	-90.100	173.561	146.594	18.618	100.261	21.956	-148.805	124.710	174.376	90.193	-121.585	176.999	-51.318	0.00038796	0.000124	3.7475e-05	207.14	1.0843e-06	2.1352e-06	291.14	63.813	1.4581e-06	1.6484e-06	115.51	48.635	24.901	12.211	1.5615e-06	27.24	3.837e-05	9.599e-06	2.4594e-06	200.58	9.7845e-08	9.2079e-08	283	62.145	1.0807e-07	9.6185e-08	112.11	47.235	23.907	11.902	1.3328e-07	26.767	147.194	-84.977	-61.784	-150.636	-56.998	-20.693	-151.817	-145.134	-50.685	-29.210	-146.696	-142.957	-141.694	-136.015	-50.170	-138.503	-8191	255	
9144.761	1	1	0	0	0.21363	0.13029	0.031741	0.20954	0.024253	0.1285	0.16559	0.07309	0.3145	0.29433	0.11255	0.097515	0.30302	0.24975	0.069813	0.11779	-2.0896	-2.3563	-2.5792	-2.3375	-2.4375	-2.5396	-2.1937	-2.4271	-2.3937	-2.4208	-2.5875	-2.5042	-2.4562	-2.5333	-2.4396	-2.4271	-30.721	155.424	98.528	120.227	64.289	-59.225	140.391	-72.817	-67.161	-78.098	47.495	-84.560	141.051	190.415	-61.707	106.510	0.00039579	0.00018004	6.2781e-05	208.58	1.3473e-06	2.1515e-06	291.53	64.407	1.7419e-06	9.652e-07	116.9	48.897	25.154	12.281	1.6246e-06	27.117	3.88e-05	1.0433e-05	2.6467e-06	201.13	1.2296e-07	1.0393e-07	283.81	62.474	1.0785e-07	1.0218e-07	113.3	47.743	24.186	11.988	1.1187e-07	26.591	150.583	-76.413	-71.908	-150.881	-39.668	-18.203	-151.580	-145.463	-38.239	-30.100	-146.737	-142.677	-141.686	-136.449	-37.053	-138.670	-8191	255	
9144.882	1	1	0	0	0.24322	0.069081	0.21524	0.22923	0.12381	0.1614	0.28404	0.41423	0.14772	0.26979	0.14941	0.18117	0.029604	0.050132	0.123	0.20017	-2.1688	-2.4521	-2.6792	-2.7021	-2.4771	-2.5833	-2.5271	-2.4688	-2.7104	-2.4104	-2.5833	-2.4437	-2.1188	-2.6688	-2.4958	-2.4896	83.629	-62.156	55.616	-85.542	92.436	-144.630	131.975	115.779	-94.665	-39.969	40.385	-84.645	176.334	-105.263	177.974	113.948	0.00038908	0.00017469	5.0967e-05	206.9	1.8322e-06	1.732e-06	290.23	63.739	2.1787e-06	1.0175e-06	113.15	47.081	24.046	11.638	8.7718e-07	25.904	3.7677e-05	1.1025e-05	2.523e-06	199.21	1.1224e-07	8.9206e-08	282.39	61.562	1.0231e-07	9.0548e-08	109.98	45.554	22.997	11.354	1.2272e-07	25.271	147.682	-109.663	-61.562	-151.223	-42.928	-32.471	-151.901	-145.625	-73.239	6.606	-146.455	-142.724	-141.426	-136.248	-31.598	-138.628	-8191	255	
9144.978	1	1	0	0	0.10164	0.096899	0.0973	0.10873	0.15232	0.18791	0.17016	0.18472	0.11173	0.16567	0.254	0.29941	0.10955	0.12093	0.19148	0.12964	-2.2	-2.4229	-2.4125	-2.5292	-2.4188	-2.6292	-2.5729	-2.3667	-2.7313	-2.4021	-2.5479	-2.6271	-2.2917	-2.7167	-2.3917	-2.4	-32.475	118.124	65.851	148.281	-142.617	-156.890	69.604	88.738	-134.680	-5.130	-29.769	-122.380	144.552	136.034	-137.700	104.837	0.00038782	0.0001882	6.3525e-05	205.48	1.5459e-06	1.139e-06	289.85	62.783	1.8135e-06	1.0825e-06	113.52	47.256	24.122	11.883	8.7767e-07	26.691	3.7563e-05	9.7813e-06	2.0355e-06	198.23	1.0504e-07	8.0874e-08	281.77	61.098	1.1439e-07	8.296e-08	110.57	46.005	23.426	11.646	1.1281e-07	26.086	150.127	-71.326	-64.602	-151.196	-21.897	-34.128	-152.260	-145.953	-38.620	-23.871	-146.911	-142.739	-141.771	-136.285	-40.128	-138.746	-8191	255	
9145.074	1	1	0	0	0.45166	0.1702	0.17503	0.11299	0.13025	0.076992	0.16637	0.18948	0.1656	0.12795	0.13071	0.22407	0.0052323	0.19316	0.15398	0.28003	-2.0958	-2.4125	-2.5292	-2.6771	-2.2687	-2.6083	-2.3292	-2.4562	-2.6042	-2.3917	-2.4333	-2.6458	-2.1604	-2.5229	-2.5292	-2.4188	27.705	46.152	162.551	-143.408	84.413	39.306	41.802	-65.415	61.579	-106.356	-124.095	-132.851	116.586	168.383	171.969	116.204	0.00039581	0.00022746	5.9955e-05	208.61	1.2957e-06	1.6979e-06	291.22	64.098	1.6231e-06	1.7308e-06	115.44	47.83	24.639	11.925	1.4919e-06	26.398	3.9134e-05	1.0153e-05	2.614e-06	200.75	1.092e-07	1.04e-07	283.89	62.312	1.1269e-07	1.0363e-07	111.9	46.578	23.735	11.646	1.118e-07	25.908	148.231	-82.372	-67.070	-151.291	-35.994	-18.424	-151.762	-145.527	-47.340	-21.336	-146.731	-142.259	-141.755	-136.871	-30.881	-138.833	-8191	255	
9145.170	1	1	0	0	0.16861	0.25955	0.083175	0.12315	0.30218	0.085405	0.11117	0.027851	0.11735	0.11077	0.23357	0.085607	0.32143	0.14367	0.26178	0.10996	-2.2083	-2.3375	-2.3229	-2.5938	-2.2687	-2.6417	-2.6229	-2.2917	-2.6688	-2.5021	-2.5	-2.5729	-2.3875	-2.4437	-2.4125	-2.2333	-163.245	-95.612	145.848	97.976	55.316	18.422	-67.920	-147.968	-61.143	182.570	-9.569	187.256	89.999	132.253	-13.665	-26.315	0.00038607	0.0001283	4.8781e-05	206.3	1.4607e-06	1.5147e-06	290.71	63.177	1.6197e-06	8.1067e-07	113.73	46.524	23.463	11.48	1.0798e-06	25.902	3.7324e-05	8.5636e-06	2.5467e-06	199.74	1.2522e-07	8.3316e-08	282.15	61.364	1.097e-07	9.9726e-08	109.75	45.306	22.776	11.211	1.058e-07	25.214	149.845	-82.997	-44.073	-151.102	-38.678	-46.514	-151.744	-145.716	-47.340	-35.746	-146.924	-142.484	-141.362	-136.028	-34.994	-138.979	-8191	255	
9145.267	1	1	0	0	0.030694	0.20421	0.13372	0.087599	0.17623	0.21647	0.088451	0.309	0.050598	0.047916	0.21775	0.30647	0.045627	0.16504	0.1288	0.23901	-2.2875	-2.3833	-2.4188	-2.8583	-2.3021	-2.45	-2.4875	-2.3229	-2.6479	-2.5521	-2.4	-2.7146	-2.2812	-2.5125	-2.7083	-2.3104	-120.174	71.984	154.062	-137.354	191.048	19.917	25.928	169.215	52.913	-122.779	-39.109	138.686	-39.864	161.518	-42.878	168.841	0.00037969	0.00017942	3.3098e-05	203.5	9.352e-07	1.5883e-06	289.13	62.936	1.4511e-06	1.8984e-06	111.93	46.216	23.733	11.454	2.275e-06	25.48	3.5132e-05	9.4622e-06	2.6104e-06	197.98	1.1668e-07	8.0156e-08	280.26	60.77	1.0238e-07	8.4189e-08	109.12	44.919	22.884	11.166	8.8081e-08	24.968	147.550	-78.490	-46.104	-151.340	-6.273	-30.063	-152.101	-145.306	-45.004	-2.925	-146.973	-142.288	-141.653	-135.734	-39.487	-138.529	-8191	255	
9145.363	1	1	0	0	0.11915	0.03665	0.12348	0.059169	0.13234	0.11296	0.088666	0.063378	0.22609	0.044918	0.21578	0.060965	0.35287	0.15806	0.083745	0.26132	-2.0833	-2.5708	-2.3271	-2.8229	-2.3979	-2.5354	-2.6521	-2.2687	-2.5187	-2.3604	-2.4333	-2.6854	-2.3312	-2.2313	-2.6958	-2.4167	183.810	152.724	-66.439	119.492	-116.206	173.956	117.233	141.228	-94.511	69.238	-22.925	30.396	-70.193	115.469	-162.878	-86.540	0.0003779	0.00018683	5.1717e-05	204.57	1.495e-06	1.4012e-06	286.83	63.033	1.9722e-06	1.1654e-06	112.88	46.414	23.969	11.583	1.3794e-06	26.035	3.601e-05	8.5701e-06	2.4885e-06	197.76	1.0525e-07	9.8543e-08	279.53	61.053	1.0871e-07	8.5128e-08	109.34	45.076	23.113	11.278	1.1021e-07	25.265	146.051	-83.283	-62.779	-151.259	-43.414	-40.119	-152.003	-145.463	-47.413	-13.550	-146.611	-142.397	-141.964	-136.153	-29.076	-138.575	-8191	255	
9145.459	1	1	0	0	0.097731	0.11084	0.26604	0.090324	0.090342	0.25313	0.063379	0.2325	0.21473	0.19281	0.26647	0.094722	0.21731	0.25317	0.2073	0.034018	-2.2396	-2.3771	-2.2875	-2.7125	-2.4771	-2.5438	-2.6479	-2.4854	-2.4062	-2.5479	-2.2812	-2.5667	-2.4833	-2.3438	-2.6792	-2.5021	-110.955	112.631	-84.255	-88.851	152.347	-87.701	-133.111	-86.066	35.376	-13.845	-83.806	-16.037	168.481	129.175	15.316	164.611	0.00037108	0.00020255	5.5261e-05	207.92	2.1459e-06	1.5879e-06	288.03	62.75	1.3863e-06	9.1811e-07	112.77	46.848	24.101	11.635	1.5801e-06	25.853	3.751e-05	8.798e-06	2.363e-06	199.43	1.0299e-07	8.8918e-08	281.25	61.291	1.1077e-07	8.2743e-08	109.47	45.688	23.131	11.363	1.0435e-07	25.349	148.698	-71.323	-64.712	-151.061	-32.220	-60.283	-151.652	-145.311	-72.652	-23.202	-146.616	-142.987	-141.870	-136.143	-62.098	-138.530	-8191	255	
9145.578	1	1	0	0	0.22184	0.092139	0.10515	0.21819	0.08157	0.1749	0.26744	0.23545	0.19645	0.17016	0.13562	0.030748	0.36744	0.21328	0.18643	0.028857	-1.8896	-2.4688	-2.325	-2.6417	-2.4938	-2.3563	-2.7583	-2.4375	-2.4104	-2.5604	-2.2188	-2.6583	-2.4667	-2.2917	-2.6146	-2.4688	-42.560	-29.237	-84.460	186.580	-27.467	-91.822	149.381	34.800	-11.274	-28.214	-69.297	-144.245	-160.035	-150.646	162.329	69.862	0.00037555	0.00020007	4.82e-05	205.59	1.9223e-06	1.0778e-06	288.74	62.08	2.2816e-06	1.7654e-06	111.46	46.346	23.636	11.479	1.7169e-06	25.748	3.7127e-05	8.0816e-06	2.5067e-06	198.23	1.0123e-07	8.6261e-08	279.94	60.564	1.2164e-07	8.7657e-08	108.63	45.123	22.803	11.21	9.5313e-08	25.187	148.762	-83.620	-79.469	-151.515	-13.437	-41.709	-151.671	-145.385	-58.457	-13.499	-146.900	-142.404	-141.763	-135.965	-37.877	-138.680	-8191	255	
9145.674	1	1	0	0	0.12121	0.11175	0.062239	0.098463	0.18018	0.22765	0.32953	0.23486	0.17614	0.12876	0.054401	0.1534	0.09861	0.11712	0.13522	0.076491	-1.8792	-2.5375	-2.1979	-2.5729	-2.4333	-2.3438	-2.6771	-2.4021	-2.4313	-2.5167	-2.2604	-2.6417	-2.6146	-2.3458	-2.8021	-2.4271	12.724	87.341	-71.809	21.528	80.855	130.136	14.511	95.509	23.377	35.662	-95.763	-141.209	-47.785	165.749	-4.174	111.069	0.00038902	0.00018718	5.0439e-05	204.88	1.653e-06	1.8199e-06	289.55	63.154	1.761e-06	1.528e-06	111.55	46.909	24.035	11.646	9.0674e-07	25.85	3.742e-05	6.7271e-06	2.2356e-06	199.37	1.0892e-07	9.3443e-08	281.88	61.336	1.1475e-07	9.9436e-08	109.54	45.46	23.102	11.356	1.0081e-07	25.295	145.498	-89.789	-65.512	-150.991	-30.654	-48.455	-152.209	-145.577	-46.208	-14.667	-146.530	-142.714	-141.320	-135.975	-59.216	-138.822	-8191	255	
9145.770	1	1	0	0	0.23022	0.20953	0.22194	0.18044	0.017942	0.19035	0.167	0.21693	0.094682	0.16546	0.11631	0.13726	0.16524	0.076561	0.18235	0.21435	-1.9729	-2.725	-2.4875	-2.5458	-2.5396	-2.2188	-2.7604	-2.4896	-2.3542	-2.7917	-2.4354	-2.5833	-2.5563	-2.2729	-2.5062	-2.3563	61.559	54.535	113.017	-85.280	-156.745	-154.145	98.869	160.522	54.963	167.865	127.448	-41.438	-120.477	-162.895	2.194	129.432	0.00039395	0.00014096	5.8304e-05	203.87	1.8896e-06	1.0298e-06	290.62	63.406	1.258e-06	1.8738e-06	112.97	47.013	23.957	11.517	1.2166e-06	25.858	3.8848e-05	8.6938e-06	2.5249e-06	198.62	1.0638e-07	9.7394e-08	281.24	61.224	1.1198e-07	9.1632e-08	109.59	45.429	23.06	11.29	1.1831e-07	25.237	150.462	-87.118	-56.035	-151.159	-38.515	-52.714	-152.166	-145.510	-58.686	-24.947	-146.732	-142.543	-141.485	-135.939	-63.142	-138.864	-8191	255	
9145.842	1	1	0	0	0.11322	0.16738	0.069561	0.14893	0.06209	0.16775	0.13118	0.1083	0.20225	0.37419	0.16976	0.17949	0.26883	0.065743	0.11189	0.040372	-1.9896	-2.5167	-2.45	-2.4396	-2.6146	-2.3771	-2.5917	-2.4604	-2.4333	-2.7188	-2.5792	-2.5167	-2.4958	-2.4958	-2.6104	-2.5521	97.173	-119.355	-132.826	64.404	134.453	39.116	13.938	62.316	195.692	113.791	70.286	102.646	7.657	-81.731	56.824	118.464	0.00038333	0.0001497	7.175e-05	204.95	1.5296e-06	1.8785e-06	289.41	63.261	2.3209e-06	1.557e-06	112.24	45.858	23.338	11.19	4.8125e-07	25.149	3.7629e-05	8.8175e-06	2.5267e-06	198.62	9.9044e-08	9.5957e-08	281.01	61.232	1.2747e-07	8.1659e-08	109	44.671	22.617	10.952	1.0667e-07	24.604	149.136	-93.747	-78.222	-151.692	-43.413	-37.624	-151.646	-145.519	-41.500	2.275	-146.758	-142.226	-141.920	-136.332	-47.092	-138.807	-8191	255	
9145.962	1	1	0	0	0.067422	0.18264	0.18141	0.17905	0.26633	0.11218	0.22861	0.060952	0.036065	0.058432	0.11999	0.10365	0.20202	0.12822	0.18018	0.24471	-1.9854	-2.5854	-2.4792	-2.5104	-2.6042	-2.3417	-2.4313	-2.5708	-2.4146	-2.7625	-2.5229	-2.3271	-2.6708	-2.2125	-2.4354	-2.7021	124.070	149.396	-10.957	-88.277	103.016	-41.559	59.549	182.533	-155.458	110.575	182.528	111.667	141.867	147.715	-81.441	-111.061	0.00037217	0.00011083	3.1108e-05	204.64	1.0791e-06	1.4185e-06	288.51	62.091	1.2495e-06	1.4197e-06	111.84	45.921	23.497	11.344	1.05e-06	25.38	3.6207e-05	9.4232e-06	2.3375e-06	197.64	7.8022e-08	8.7554e-08	279.5	60.352	1.2285e-07	6.7206e-08	108.88	44.48	22.618	11.029	1.1744e-07	24.837	148.153	-79.998	-76.847	-151.360	-41.632	-41.843	-151.881	-145.894	-89.990	-30.603	-146.911	-142.536	-141.778	-136.157	-70.396	-138.776	-8191	255	
9146.059	1	1	0	0	0.12068	0.22317	0.056759	0.21042	0.02151	0.048012	0.16537	0.1891	0.091412	0.094033	0.1918	0.1576	0.30186	0.27011	0.20698	0.16515	-1.8208	-2.4396	-2.3375	-2.4208	-2.6083	-2.425	-2.2604	-2.4854	-2.3042	-2.5958	-2.4896	-2.2521	-2.5667	-2.4875	-2.6083	-2.6417	40.800	56.113	91.259	14.403	124.500	110.063	35.090	129.294	79.518	31.849	120.615	-150.401	125.312	-43.385	-87.312	55.413	0.00036921	0.00012253	5.9249e-05	205.25	1.4451e-06	1.4215e-06	289.5	62.434	1.4561e-06	1.474e-06	113.21	46.477	23.664	11.398	1.1177e-06	25.549	3.6631e-05	8.3031e-06	2.3029e-06	198.14	9.6787e-08	9.4952e-08	281.57	60.771	1.3494e-07	8.8524e-08	109.39	45.032	22.776	11.108	1.0124e-07	24.834	148.324	-98.356	-82.206	-150.858	-25.938	-5.328	-152.224	-145.832	-45.258	-2.506	-146.507	-142.586	-141.380	-136.483	-35.611	-138.422	-8191	255	
9146.155	1	1	0	0	0.1808	0.20219	0.30447	0.28062	0.29368	0.23005	0.14478	0.093575	0.11652	0.19552	0.014468	0.15356	0.07716	0.20589	0.16021	0.06842	-1.8583	-2.6896	-2.4792	-2.3979	-2.6979	-2.4167	-2.5812	-2.4229	-2.1917	-2.5854	-2.6375	-2.3208	-2.5375	-2.1937	-2.5479	-2.7458	7.011	171.449	194.453	177.879	51.334	-134.386	-117.400	-142.620	67.748	-57.051	-124.257	-8.832	-143.024	-101.432	77.823	114.217	0.00035325	0.00014887	3.9795e-05	203.11	1.1335e-06	1.1792e-06	288.46	62.402	1.5037e-06	7.5341e-07	111.55	45.524	23.172	11.117	1.3984e-06	24.979	3.5275e-05	7.8342e-06	2.1847e-06	197.01	1.013e-07	8.4681e-08	280.11	60.591	1.1973e-07	7.5083e-08	108.41	44.077	22.474	10.843	1.0269e-07	24.383	148.501	-76.502	-44.006	-150.959	3.897	-27.020	-151.858	-145.096	-58.690	-48.675	-146.649	-142.410	-141.639	-136.474	-60.727	-138.847	-8191	255	
9146.251	1	1	0	0	0.50685	0.088831	0.12049	0.077605	0.23793	0.04658	0.12378	0.23761	0.040809	0.27894	0.23677	0.18328	0.23745	0.062617	0.17329	0.041233	-1.9479	-2.5917	-2.3	-2.2208	-2.5479	-2.4437	-2.3625	-2.4146	-2.2438	-2.375	-2.5542	-2.4125	-2.6604	-2.4958	-2.35	-2.6229	-152.285	-115.280	-8.554	-46.085	49.707	-149.758	165.794	53.539	9.957	64.254	42.158	174.915	-110.685	-79.317	-87.532	-133.806	0.00039133	0.00016615	4.6e-05	204.84	1.6196e-06	2.5204e-06	291.29	62.744	1.7924e-06	1.0281e-06	114.8	46.877	24.391	11.737	1.7475e-06	26.128	3.7695e-05	9.0715e-06	2.3248e-06	198.72	9.8692e-08	1.0278e-07	282.19	61.158	1.2108e-07	9.2788e-08	110.75	45.607	23.295	11.376	1.3827e-07	25.444	149.110	-89.664	-78.001	-151.576	-19.302	-44.044	-152.300	-145.789	-63.022	-49.012	-147.047	-142.373	-141.152	-136.057	-60.587	-139.101	-8191	255	
9146.370	1	1	0	0	0.1692	0.10014	0.089111	0.37595	0.028434	0.15065	0.34465	0.19406	0.12631	0.1269	0.27273	0.07113	0.11364	0.049212	0.22061	0.13512	-1.9562	-2.6792	-2.5458	-2.4896	-2.7458	-2.5104	-2.2938	-2.7	-2.3521	-2.7125	-2.5333	-2.5375	-2.6	-2.5292	-2.3042	-2.725	67.253	-74.195	6.731	141.740	11.506	-77.907	-160.286	44.368	67.446	-51.417	-155.583	162.600	31.928	81.322	98.409	95.351	0.00040846	0.00010501	3.5957e-05	207.7	2.1241e-06	1.2126e-06	292.17	63.426	1.4738e-06	1.5562e-06	114.84	47.487	24.046	11.689	1.6632e-06	26.276	3.7701e-05	8.3877e-06	2.5012e-06	200.45	1.0046e-07	9.7178e-08	283.55	61.714	1.257e-07	9.1993e-08	111.42	46.047	23.297	11.425	1.1947e-07	25.631	148.502	-106.002	-98.584	-151.298	-35.383	-48.823	-151.895	-145.883	-68.121	-44.926	-146.729	-142.449	-141.741	-136.624	-57.341	-138.839	-8191	255	
9146.466	1	1	0	0	0.4025	0.15758	0.35708	0.18975	0.11341	0.20736	0.19919	0.28213	0.053047	0.39584	0.085165	0.02842	0.056181	0.18006	0.11963	0.17926	-1.8729	-2.6104	-2.5917	-2.2646	-2.6396	-2.4896	-2.3	-2.6417	-2.525	-2.4458	-2.6208	-2.3208	-2.6875	-2.4458	-2.4146	-2.6292	92.692	-33.530	39.846	48.957	-57.205	-88.881	-98.088	73.693	-59.998	90.752	65.745	19.490	66.954	30.562	-3.095	111.114	0.00040151	0.00016709	4.9454e-05	207.62	1.4113e-06	2.5296e-06	293.34	64.207	1.1278e-06	1.3379e-06	116.18	47.69	24.693	11.884	1.6751e-06	26.314	3.8866e-05	9.8009e-06	2.192e-06	200.91	1.08e-07	9.33e-08	284.67	62.327	1.1318e-07	9.6112e-08	112.74	46.331	23.653	11.551	1.1816e-07	25.753	147.770	-93.977	-53.685	-151.097	-46.290	-26.367	-152.077	-145.530	-50.990	-18.196	-146.967	-142.360	-142.370	-136.700	-73.578	-139.079	-8191	255	
9146.564	1	1	0	0	0.11167	0.32266	0.28168	0.18498	0.23895	0.27545	0.14672	0.042887	0.040699	0.10384	0.22805	0.124	0.27342	0.13781	0.20258	0.23115	-1.9708	-2.3375	-2.5354	-2.2292	-2.5458	-2.5646	-2.4417	-2.6896	-2.5917	-2.4583	-2.775	-2.3042	-2.3479	-2.5833	-2.3729	-2.6354	175.819	-154.037	183.396	133.167	72.722	112.861	152.852	110.542	-159.498	-7.363	132.230	39.576	-114.148	-77.892	-119.745	-161.797	0.00040347	0.00017616	3.9249e-05	209.4	1.545e-06	1.7121e-06	296.38	65.605	1.7464e-06	9.1389e-07	116.02	47.765	24.503	11.754	1.5443e-06	26.206	3.9105e-05	9.1041e-06	2.3211e-06	203.42	1.0377e-07	8.7985e-08	287.84	63.41	1.1468e-07	1.0551e-07	112.74	46.397	23.73	11.492	1.3068e-07	25.622	149.635	-103.685	-76.675	-151.337	-42.175	-28.897	-151.707	-145.545	-71.299	-27.850	-146.797	-142.639	-141.051	-136.458	-40.565	-138.933	-8191	255	
9146.658	1	1	0	0	0.12604	0.13134	0.17528	0.14543	0.094315	0.1536	0.17077	0.050721	0.060029	0.26592	0.044023	0.37331	0.25616	0.30284	0.18313	0.35656	-2.1292	-2.2687	-2.5167	-2.2021	-2.4062	-2.6813	-2.425	-2.6229	-2.4313	-2.4333	-2.6896	-2.4208	-2.5354	-2.4896	-2.2521	-2.5896	80.739	67.420	-53.202	98.509	-71.263	62.755	44.416	-52.496	-32.082	57.675	30.549	-130.615	41.753	91.838	164.409	-155.505	0.00038229	0.00022669	5.099e-05	209.92	2.142e-06	1.4172e-06	296.38	65.057	1.9234e-06	1.0778e-06	116.21	48.444	24.669	11.974	1.7695e-06	26.677	3.69e-05	1.0328e-05	2.3702e-06	203.17	1.1915e-07	8.8416e-08	287.55	63.3	1.1517e-07	9.6835e-08	113.32	47.003	23.968	11.654	1.2453e-07	26.082	147.462	-98.525	-79.330	-151.174	-37.222	-42.962	-152.098	-145.662	-55.277	-29.748	-146.506	-142.527	-141.560	-136.334	-46.496	-138.798	-8191	255	
9146.754	1	1	0	0	0.11611	0.31388	0.27413	0.036497	0.27733	0.1098	0.15476	0.28872	0.078318	0.19571	0.14352	0.11509	0.085603	0.09928	0.092744	0.10544	-1.9688	-2.2417	-2.6042	-2.4188	-2.3708	-2.7188	-2.5583	-2.5292	-2.4667	-2.1896	-2.5583	-2.3708	-2.3688	-2.6354	-2.4062	-2.5792	1.107	82.143	-135.008	39.104	-14.537	103.803	70.208	-69.610	-65.878	147.990	-36.730	101.234	22.267	114.218	-113.756	196.052	0.00039126	0.00013992	5.3626e-05	209.31	1.5767e-06	2.7926e-06	296.1	65.461	1.6903e-06	1.1538e-06	117.37	49.28	25.003	12.181	1.1404e-06	26.958	3.9021e-05	9.6771e-06	2.4157e-06	202.07	1.0991e-07	8.7625e-08	287.36	63.467	1.2157e-07	1.1201e-07	113.7	47.503	24.06	11.871	1.2185e-07	26.477	147.709	-93.404	-67.337	-151.215	-27.461	-30.527	-151.585	-145.653	-62.124	-18.805	-147.045	-142.834	-141.697	-136.290	-37.111	-138.668	-8191	255	
9146.850	1	1	0	0	0.13291	0.1415	0.25854	0.1116	0.21978	0.33088	0.13184	0.26135	0.2008	0.20599	0.17387	0.17736	0.17299	0.13876	0.17411	0.29327	-2.0708	-2.2333	-2.7167	-2.3958	-2.3604	-2.8375	-2.3438	-2.425	-2.7729	-2.2521	-2.6896	-2.5521	-2.2229	-2.55	-2.3167	-2.4792	-58.759	-162.380	175.138	-112.212	-110.730	-162.464	-148.913	194.655	-35.135	40.923	-96.431	-81.172	62.427	-80.236	104.003	-122.416	0.00040846	0.00017492	5.0743e-05	209.86	1.2198e-06	1.5817e-06	296.9	65.462	2.1892e-06	1.4741e-06	118.1	48.497	24.692	11.934	1.1484e-06	26.485	3.8627e-05	1.1012e-05	2.3957e-06	203.52	1.1075e-07	9.4736e-08	288.35	63.749	1.1368e-07	1.0016e-07	114.26	47.17	23.972	11.64	1.2648e-07	25.879	148.360	-100.387	-66.579	-151.301	-46.454	-32.051	-152.048	-145.452	-80.538	-5.365	-146.831	-142.473	-141.267	-136.512	-48.111	-138.999	-8191	255	
9146.971	1	1	0	0	0.21425	0.091392	0.24326	0.025529	0.10019	0.21785	0.10275	0.070801	0.051023	0.029127	0.22651	0.29461	0.090848	0.3798	0.24896	0.16576	-2.2	-2.3771	-2.4313	-2.5771	-2.2854	-2.6479	-2.3292	-2.6292	-2.6229	-2.525	-2.4354	-2.3896	-2.3479	-2.6479	-2.3375	-2.475	-110.936	147.239	-17.166	-120.894	-28.935	-23.952	-126.065	146.603	-114.690	-52.182	148.199	170.153	138.696	-146.777	-48.566	110.153	0.00038175	0.00018172	6.7916e-05	209.03	1.3622e-06	2.3523e-06	293.1	64.748	8.0306e-07	9.1632e-07	115.87	48.42	24.86	12.094	1.5779e-06	26.861	3.6727e-05	1.014e-05	2.2011e-06	202.34	1.1111e-07	8.4896e-08	286.41	63.166	1.0622e-07	1.1107e-07	112.91	46.893	23.914	11.748	1.2489e-07	26.299	144.158	-87.138	-79.641	-151.759	-15.085	-25.256	-151.757	-145.468	-44.854	-0.690	-146.468	-142.879	-141.284	-136.321	-43.226	-138.944	-8191	255	
9147.067	1	1	0	0	0.018654	0.14709	0.065123	0.17279	0.20242	0.16681	0.32492	0.21793	0.059837	0.16546	0.28818	0.26832	0.11559	0.24813	0.12479	0.15927	-2.1146	-2.1625	-2.5417	-2.7229	-2.4583	-2.6813	-2.5167	-2.3896	-2.6937	-2.6021	-2.6188	-2.6979	-2.3458	-2.3979	-2.4833	-2.3917	-20.085	-25.227	-106.504	154.580	-63.473	118.090	130.805	169.694	-53.047	96.760	-125.442	138.670	100.922	-88.447	-42.756	52.794	0.00039279	0.0001709	3.9487e-05	209.61	1.3226e-06	1.2719e-06	297.64	66.523	1.8651e-06	1.2966e-06	118.98	49.464	25.527	12.401	1.5461e-06	27.142	3.7701e-05	1.025e-05	2.5285e-06	202.66	1.2578e-07	8.9421e-08	289.28	64.321	1.1994e-07	1.0421e-07	115.36	48.158	24.58	12.088	1.1845e-07	26.699	148.338	-86.766	-78.217	-151.141	-36.014	-7.994	-152.049	-145.596	-57.120	-13.316	-146.645	-142.631	-141.700	-136.380	-39.616	-139.055	-8191	255	
9147.139	1	1	0	0	0.4459	0.11063	0.20018	0.09572	0.10534	0.13588	0.16709	0.15426	0.1693	0.025667	0.088054	0.32645	0.2051	0.10146	0.075467	0.16413	-2.1437	-2.4854	-2.4437	-2.6	-2.3333	-2.6542	-2.6021	-2.4437	-2.8021	-2.4688	-2.4729	-2.6625	-2.3646	-2.5542	-2.4938	-2.5187	172.016	112.461	-108.821	-59.035	-85.325	-56.412	-129.275	182.774	33.060	-99.875	-31.848	-72.292	-106.975	160.288	128.691	-60.292	0.00039634	0.00021827	4.0135e-05	210.7	1.0977e-06	1.1388e-06	298.65	66.451	2.7947e-06	2.1841e-06	120.18	50.381	25.845	12.447	2.1691e-06	28.098	3.9798e-05	9.6316e-06	2.4466e-06	204.55	1.1654e-07	8.1161e-08	290.69	64.92	1.252e-07	1.1591e-07	116.79	48.982	25.005	12.216	1.2612e-07	27.293	149.397	-92.263	-62.877	-151.055	-44.573	-44.455	-151.684	-145.537	-51.524	-31.149	-146.640	-142.673	-141.545	-136.603	-45.472	-138.895	-8191	255	
9147.260	1	1	0	0	0.24309	0.10229	0.080799	0.068394	0.11226	0.050795	0.23649	0.23875	0.21506	0.1224	0.16152	0.15102	0.24716	0.12253	0.26274	0.086465	-2.3438	-2.4229	-2.4333	-2.7625	-2.2104	-2.425	-2.5646	-2.2188	-2.4604	-2.4	-2.375	-2.6979	-2.4896	-2.5792	-2.7646	-2.4729	191.440	-86.811	-32.013	196.080	-60.427	-112.463	127.556	178.625	-68.703	-72.701	111.452	132.465	37.785	-94.148	74.369	-93.810	0.0003946	0.00014255	6.2112e-05	212.32	1.653e-06	1.4176e-06	301.54	67.461	1.7795e-06	1.7996e-06	120.8	50.183	25.78	12.605	1.4431e-06	27.939	3.9146e-05	9.892e-06	2.9978e-06	205.37	1.2874e-07	9.8615e-08	291.86	65.115	1.2292e-07	1.0883e-07	117.16	49.165	25.01	12.29	1.2677e-07	27.36	145.970	-59.864	-64.304	-151.463	-11.408	-8.068	-152.013	-145.289	-47.676	-25.076	-146.580	-142.776	-140.981	-136.157	-76.168	-139.058	-8191	255	
9147.356	1	1	0	0	0.12901	0.065376	0.28935	0.074269	0.04659	0.26508	0.31614	0.16917	0.063828	0.29377	0.15738	0.096543	0.22353	0.12799	0.15709	0.1945	-2.2542	-2.4229	-2.3312	-2.5229	-2.5375	-2.4938	-2.5771	-2.3375	-2.6688	-2.4208	-2.4958	-2.6979	-2.5771	-2.5875	-2.6417	-2.4667	-80.067	130.501	-61.588	-159.713	-137.846	-16.524	17.259	-66.571	81.972	-44.820	-98.404	91.149	61.829	47.144	-14.633	190.826	0.00043503	0.00024563	5.8138e-05	215	2.5184e-06	1.572e-06	300.76	67.459	2.6928e-06	1.5212e-06	120.88	50.283	26.084	12.623	1.6632e-06	27.805	4.1703e-05	9.8986e-06	2.8778e-06	206.84	1.3396e-07	9.0858e-08	292.15	65.564	1.2236e-07	1.0767e-07	117.32	49.104	25.165	12.265	1.1708e-07	27.205	148.511	-101.313	-52.802	-151.110	-31.469	-45.334	-151.842	-145.244	-44.649	-26.776	-146.656	-142.637	-141.897	-136.051	-30.438	-138.926	-8191	255	
9147.450	1	1	0	0	0.19158	0.42069	0.086303	0.11751	0.15985	0.25925	0.26339	0.069543	0.28252	0.37688	0.2225	0.1441	0.041596	0.17414	0.20487	0.14369	-2.0625	-2.5687	-2.3083	-2.6042	-2.2208	-2.3563	-2.5542	-2.2979	-2.7354	-2.3354	-2.4458	-2.6896	-2.6229	-2.3729	-2.6542	-2.3021	159.667	-136.491	-80.153	-137.017	-115.059	108.824	91.043	-108.599	130.125	66.304	142.523	142.556	-38.189	-110.842	121.652	190.973	0.0003851	0.00016664	6.442e-05	211.18	1.3162e-06	2.0167e-06	300.1	67.613	1.7449e-06	1.4253e-06	120.86	51.067	26.48	12.617	2.0072e-06	27.92	3.8812e-05	7.984e-06	2.725e-06	205.2	1.1308e-07	1.0321e-07	290.9	65.693	1.2065e-07	1.0095e-07	117.49	49.378	25.355	12.341	1.2171e-07	27.317	150.324	-86.892	-82.054	-151.200	-37.567	-41.679	-152.153	-145.741	-82.699	-8.865	-146.720	-143.078	-141.433	-136.602	-40.098	-138.974	-8191	255	
9147.546	1	1	0	0	0.04142	0.18546	0.25972	0.11138	0.13908	0.16023	0.22426	0.0095408	0.39426	0.12188	0.27642	0.095106	0.11254	0.11324	0.15171	0.20997	-2	-2.5375	-2.2896	-2.4792	-2.4729	-2.4771	-2.6354	-2.3771	-2.5208	-2.5729	-2.3333	-2.6958	-2.5604	-2.1833	-2.5938	-2.4625	155.788	-137.610	9.957	172.363	40.042	31.272	71.563	-55.095	34.478	-78.679	-61.022	82.984	-154.344	86.573	-117.832	70.982	0.0004076	0.00015547	4.3073e-05	212.56	1.6608e-06	1.8017e-06	300.65	68.262	2.3094e-06	1.2886e-06	122.41	51.27	26.451	12.656	1.4246e-06	28.172	3.9995e-05	1.0901e-05	3.2307e-06	206.3	1.0836e-07	1.0522e-07	293.47	66.178	1.2726e-07	1.0247e-07	118.59	49.893	25.463	12.38	1.2098e-07	27.446	147.394	-70.199	-55.336	-151.327	-16.652	-42.554	-152.021	-145.819	-43.796	-7.519	-146.938	-142.423	-141.790	-136.458	-16.446	-138.698	-8191	255	
9147.667	1	1	0	0	0.3526	0.30954	0.17888	0.17653	0.174	0.084074	0.19999	0.082938	0.19549	0.14239	0.217	0.0056454	0.14563	0.18252	0.059414	0.098237	-1.9604	-2.6375	-2.1083	-2.5083	-2.3729	-2.3187	-2.6792	-2.3958	-2.5375	-2.5604	-2.3458	-2.6458	-2.3958	-2.4542	-2.6354	-2.5042	184.383	95.316	-140.531	-11.508	-71.206	126.315	-130.340	64.252	-112.948	-85.021	-63.788	117.497	-113.262	186.674	-129.195	28.797	0.00040846	0.00019723	6.8492e-05	213.33	1.9583e-06	1.7278e-06	300.7	67.08	1.915e-06	2.2686e-06	120.01	50.238	25.785	12.356	1.2275e-06	27.497	3.889e-05	9.7813e-06	3.2579e-06	206.24	1.2042e-07	1.1485e-07	292.23	65.432	1.3323e-07	1.0652e-07	116.59	48.855	24.796	12.102	1.1289e-07	26.908	147.395	-64.333	-65.872	-151.042	-44.858	-46.987	-151.722	-145.394	-64.843	-28.222	-146.286	-142.349	-141.594	-136.370	-71.682	-138.805	-8191	255	
9147.763	1	1	0	0	0.011793	0.272	0.16835	0.097693	0.24253	0.047104	0.07547	0.15373	0.13165	0.12981	0.017047	0.06888	0.059932	0.078163	0.26834	0.085156	-1.8354	-2.6479	-2.2292	-2.6813	-2.4667	-2.3729	-2.4854	-2.2521	-2.4375	-2.6708	-2.1937	-2.5479	-2.5396	-2.3083	-2.4646	-2.3479	96.840	-103.970	183.349	-0.300	-8.362	178.186	93.120	-77.699	-67.313	170.878	58.577	128.147	-147.497	-32.656	-132.252	93.558	0.0004229	0.00022293	4.2621e-05	211.33	1.882e-06	1.5614e-06	296.03	66.622	2.2126e-06	1.2139e-06	120.35	50.293	25.988	12.427	1.5789e-06	27.634	4.196e-05	9.1692e-06	2.4703e-06	204.12	1.1767e-07	1.0565e-07	289.7	64.807	1.2356e-07	8.5056e-08	116.49	48.902	25.036	12.18	1.2171e-07	27.015	147.165	-77.007	-38.627	-151.077	-36.705	-38.499	-151.724	-145.379	-45.942	-23.386	-146.785	-142.524	-141.445	-136.679	-69.500	-139.438	-8191	255	
9147.835	1	1	0	0	0.18139	0.31726	0.062712	0.21286	0.22758	0.20859	0.26151	0.021548	0.028265	0.133	0.10158	0.15434	0.2203	0.42272	0.091318	0.29677	-1.7042	-2.4938	-2.3979	-2.3521	-2.4042	-2.4729	-2.4688	-2.3812	-2.2812	-2.7083	-2.4708	-2.5542	-2.6542	-2.3312	-2.6583	-2.5333	-97.937	92.018	130.078	-61.000	190.550	-72.062	68.687	3.181	67.501	85.081	189.983	3.545	49.195	-107.880	115.789	-158.711	0.00041577	0.00020744	6.0842e-05	210.89	1.4447e-06	2.6099e-06	298.11	67.465	2.361e-06	1.7609e-06	120.82	51.253	26.165	12.679	1.6339e-06	27.843	4.1912e-05	1.0153e-05	2.5267e-06	204.77	1.0582e-07	1.1269e-07	289.85	65.462	1.3274e-07	9.8714e-08	117.06	49.515	25.242	12.347	1.2749e-07	27.321	145.928	-103.031	-60.462	-151.434	-30.521	-32.138	-152.153	-145.711	-52.824	-10.478	-146.707	-142.774	-141.871	-136.734	-56.804	-139.115	-8191	255	
9147.931	1	1	0	0	0.11855	0.087189	0.16165	0.084308	0.090624	0.25587	0.14562	0.26119	0.088143	0.20603	0.10943	0.15728	0.12001	0.42954	0.24071	0.065726	-1.8396	-2.575	-2.3833	-2.4708	-2.575	-2.3375	-2.6292	-2.3729	-2.3167	-2.4896	-2.4333	-2.3646	-2.4813	-2.4021	-2.5042	-2.5042	-133.442	-80.835	-16.810	-146.930	180.095	-80.655	-129.997	-134.748	55.682	-137.346	-21.966	-111.759	-16.393	187.548	-118.563	-35.378	0.00042791	0.00017169	6.4976e-05	211.29	1.7917e-06	2.3851e-06	301.58	67.031	2.1192e-06	1.8858e-06	121.15	51.222	26.645	12.98	2.0649e-06	29.112	4.1709e-05	9.612e-06	2.8359e-06	205.01	1.0758e-07	1.007e-07	291.23	65.311	1.2783e-07	1.0652e-07	117.55	49.881	25.613	12.708	1.2872e-07	28.475	149.677	-85.100	-75.204	-151.578	-34.522	-16.765	-152.136	-145.422	-57.688	-6.908	-146.941	-142.742	-141.330	-136.287	-63.413	-138.830	-8191	255	
9148.052	1	1	0	0	0.16379	0.073241	0.093221	0.19618	0.051202	0.12941	0.18701	0.061847	0.28538	0.14964	0.068441	0.22081	0.12556	0.15363	0.20372	0.15737	-1.7812	-2.5417	-2.4333	-2.4146	-2.5354	-2.3312	-2.6792	-2.5458	-2.2104	-2.4708	-2.4688	-2.2687	-2.6937	-2.1792	-2.3375	-2.3875	28.445	-149.156	172.991	180.201	-123.176	160.713	170.292	-76.794	113.079	95.114	-126.655	2.266	193.154	-117.202	-134.218	28.526	0.00041399	0.00012149	5.4884e-05	217.05	2.4562e-06	2.1723e-06	304.84	70.283	1.8399e-06	1.8965e-06	124.52	53.658	27.481	13.486	1.9559e-06	29.573	4.2611e-05	9.8139e-06	3.0451e-06	210.14	1.255e-07	1.1334e-07	296.82	67.862	1.4823e-07	1.1071e-07	121.62	52.039	26.484	13.13	1.3248e-07	28.887	146.951	-75.631	-60.652	-151.480	-40.749	-40.536	-151.554	-145.689	-52.251	4.973	-146.632	-143.062	-142.149	-136.674	-36.080	-138.871	-8191	255	
9148.148	1	1	0	0	0.19627	0.16618	0.19632	0.46341	0.12468	0.21142	0.31419	0.14299	0.027701	0.18787	0.17673	0.097218	0.25614	0.25611	0.20067	0.03212	-1.8167	-2.5146	-2.4979	-2.4688	-2.7042	-2.6437	-2.5604	-2.5375	-2.4437	-2.6125	-2.4104	-2.2667	-2.7188	-2.3521	-2.3146	-2.6958	-146.967	83.871	-145.728	110.714	-17.788	-43.132	-58.743	-84.749	-144.278	0.994	112.186	126.216	136.760	163.530	-130.041	196.308	0.00045229	0.00016631	6.6561e-05	216.97	1.3607e-06	1.696e-06	306.08	69.403	1.8713e-06	1.836e-06	123.03	52.235	26.883	12.946	1.7185e-06	28.177	4.3675e-05	9.4818e-06	2.6431e-06	209.83	1.2649e-07	1.0637e-07	296.38	67.365	1.4859e-07	1.0066e-07	119.9	50.763	25.84	12.597	1.3509e-07	27.569	147.761	-72.224	-65.920	-151.028	-18.059	-32.998	-152.008	-145.453	-59.073	-5.502	-146.570	-142.778	-141.806	-136.470	-70.675	-138.932	-8191	255	
9148.244	1	1	0	0	0.11497	0.15128	0.081482	0.076533	0.22775	0.11473	0.15053	0.12624	0.23379	0.24943	0.13225	0.026355	0.085428	0.22465	0.22242	0.13754	-1.9833	-2.6729	-2.3979	-2.3021	-2.5271	-2.4854	-2.5104	-2.3688	-2.375	-2.5917	-2.475	-2.1979	-2.5833	-2.4417	-2.2604	-2.6792	-26.131	-119.736	158.291	188.647	88.505	111.153	-28.960	-2.169	52.802	-29.226	23.119	43.623	-47.183	-155.451	174.491	92.419	0.00041389	0.0002204	4.7308e-05	214.09	1.2723e-06	1.8376e-06	299.2	66.243	1.5606e-06	1.2965e-06	118.35	49.633	25.422	12.342	1.8092e-06	27.27	4.1255e-05	9.7618e-06	2.7486e-06	205.78	1.0603e-07	9.5095e-08	289.38	64.763	1.1589e-07	9.5173e-08	115.39	48.244	24.587	12.041	1.2511e-07	26.721	150.394	-76.269	-69.371	-151.277	-54.044	-66.579	-151.815	-145.651	-52.365	-55.253	-146.691	-142.708	-141.436	-136.553	-58.836	-138.559	-8191	255	
9148.364	1	1	0	0	0.13399	0.39996	0.047829	0.091662	0.12788	0.16064	0.073176	0.091259	0.065981	0.11406	0.073823	0.099898	0.075483	0.050283	0.17123	0.19979	-1.9917	-2.4521	-2.5542	-2.4062	-2.4125	-2.5333	-2.1958	-2.4188	-2.5083	-2.5604	-2.4104	-2.4188	-2.6104	-2.3604	-2.4604	-2.6625	160.079	82.201	-111.363	153.407	151.418	178.918	192.793	-102.080	114.185	-119.050	60.448	-76.190	-106.886	2.924	101.677	36.955	0.00039793	0.00023873	4.5356e-05	209.39	1.2796e-06	1.5335e-06	298.3	66.974	1.1599e-06	1.7722e-06	120.06	50.504	26.088	12.481	1.8131e-06	27.626	3.9523e-05	9.2734e-06	2.6467e-06	203.56	1.0539e-07	9.7034e-08	288.56	65.036	1.1909e-07	9.6835e-08	116.75	49.153	25.085	12.152	1.3299e-07	26.868	148.026	-104.367	-54.360	-151.436	-44.650	-32.059	-151.686	-145.562	-58.738	-20.405	-146.849	-142.673	-141.544	-136.670	-87.091	-138.999	-8191	255	
9148.436	1	1	0	0	0.11364	0.24441	0.30703	0.062795	0.18251	0.16548	0.12616	0.093996	0.058619	0.10339	0.17703	0.37236	0.051431	0.11278	0.19217	0.10388	-1.9208	-2.3729	-2.4	-2.4354	-2.7333	-2.6188	-2.2917	-2.6562	-2.4646	-2.6083	-2.575	-2.3458	-2.5333	-2.4729	-2.1833	-2.8021	-161.056	-106.081	-80.662	-35.322	-76.296	-13.599	190.869	146.798	-35.648	2.928	184.356	166.101	98.134	46.730	-147.221	-4.616	0.00040934	0.00013278	4.4649e-05	211.2	1.4693e-06	2.0044e-06	297.88	66.926	2.2175e-06	1.2877e-06	120.07	50.363	25.775	12.45	2.1009e-06	27.638	4.0628e-05	1.0257e-05	2.3557e-06	203.57	1.0864e-07	9.488e-08	289.17	64.803	1.2349e-07	9.5606e-08	116.6	48.85	25.018	12.152	1.2916e-07	26.996	147.697	-93.113	-79.361	-151.027	-31.166	-20.400	-152.162	-145.660	-69.001	-34.783	-146.868	-142.385	-141.307	-136.487	-56.525	-138.918	-8191	255	
9148.532	1	1	0	0	0.037034	0.22278	0.10127	0.19048	0.07167	0.010514	0.15205	0.10586	0.097796	0.17098	0.26319	0.15629	0.19004	0.22952	0.25895	0.14609	-1.9813	-2.5896	-2.7708	-2.4229	-2.3896	-2.6042	-2.4625	-2.5896	-2.5104	-2.6	-2.675	-2.2729	-2.4688	-2.6271	-2.3542	-2.5563	-134.090	131.454	-84.428	-99.214	-158.231	9.514	-20.822	135.758	-108.261	74.176	117.562	155.447	-79.823	126.842	50.976	180.805	0.00041064	0.00015016	4.4839e-05	212.49	1.1955e-06	8.5858e-07	302.12	68.012	1.3653e-06	1.5846e-06	121.75	50.382	25.918	12.396	2.0599e-06	27.081	4.0514e-05	1.0914e-05	2.7322e-06	205.87	1.0532e-07	8.3316e-08	293	66.121	1.1788e-07	1.0652e-07	118.3	49.098	25.112	12.037	1.3718e-07	26.443	147.929	-85.697	-58.258	-150.800	-86.025	-50.207	-151.977	-145.554	-70.834	-8.035	-146.589	-142.326	-142.019	-136.464	-30.358	-138.766	-8191	255	
9148.651	1	1	0	0	0.25281	0.18754	0.23588	0.18276	0.084691	0.27449	0.19278	0.23456	0.20681	0.16322	0.052715	0.17301	0.13658	0.15196	0.227	0.086744	-2.1708	-2.3646	-2.6417	-2.3104	-2.4792	-2.4646	-2.3104	-2.5	-2.3812	-2.2625	-2.6271	-2.3375	-2.5021	-2.6875	-2.1375	-2.5812	-119.541	-47.451	65.300	-81.071	49.862	26.076	-147.071	169.375	62.925	5.935	-137.707	-34.969	-117.002	-34.674	76.628	89.123	0.00040046	0.00020645	6.8163e-05	212.59	1.4781e-06	1.2847e-06	296.45	67.228	1.619e-06	1.5626e-06	120.72	50.615	26.145	12.537	1.1826e-06	27.766	3.9158e-05	9.8399e-06	2.4739e-06	205.04	1.1372e-07	9.8974e-08	289.38	65.511	1.2108e-07	1.0536e-07	117	49.059	25.294	12.249	1.2062e-07	27.157	146.999	-95.822	-76.412	-151.231	-44.295	-12.456	-151.827	-145.412	-49.004	-39.239	-147.096	-142.528	-141.829	-135.993	-53.512	-139.189	-8191	255	
9148.747	1	1	0	0	0.14565	0.20962	0.056741	0.079537	0.20053	0.10424	0.11738	0.22076	0.18047	0.10604	0.10606	0.099833	0.32851	0.15398	0.050382	0.22576	-1.9583	-2.1562	-2.4729	-2.4083	-2.5979	-2.7375	-2.2646	-2.4875	-2.4292	-2.325	-2.7458	-2.4792	-2.3479	-2.5792	-2.2125	-2.4104	-134.866	-144.439	-89.134	-150.071	101.622	-3.068	-35.280	-125.808	-81.833	90.618	185.853	-128.120	-88.332	168.792	89.129	92.500	0.00041312	0.00014305	7.3267e-05	212.28	1.26e-06	1.5176e-06	300.99	68.907	1.5602e-06	1.5159e-06	123.42	51.707	26.812	12.637	1.4897e-06	27.843	3.9218e-05	1.152e-05	2.7813e-06	206.37	1.2275e-07	7.1465e-08	292.8	66.794	1.3117e-07	1.0681e-07	119.36	50.009	25.711	12.327	1.3588e-07	27.233	147.637	-88.629	-55.770	-150.983	-25.388	-13.895	-151.726	-145.802	-35.331	-25.583	-147.002	-142.616	-142.003	-136.156	-55.638	-138.464	-8191	255	
9148.843	1	1	0	0	0.21292	0.042867	0.11178	0.086082	0.14563	0.33329	0.25609	0.16625	0.056701	0.1874	0.20235	0.19217	0.13666	0.065397	0.26165	0.26752	-2.1771	-2.3	-2.5812	-2.4042	-2.4167	-2.6917	-2.2458	-2.4604	-2.5917	-2.1604	-2.5583	-2.6104	-2.4604	-2.6667	-2.5375	-2.3708	186.935	138.482	-53.552	59.384	-15.127	-66.479	55.439	186.436	8.203	-56.807	119.039	165.776	-88.255	-79.739	-23.330	186.031	0.00040683	0.00014353	4.2169e-05	214.83	1.7096e-06	1.691e-06	301.67	69.954	1.6321e-06	1.8486e-06	124.69	52.34	27.289	12.88	1.6447e-06	28.236	3.96e-05	1.137e-05	2.4303e-06	207.21	1.3107e-07	9.9836e-08	294.33	67.909	1.1731e-07	1.1859e-07	121.25	50.876	26.24	12.52	1.4275e-07	27.555	146.798	-81.792	-78.735	-151.307	-2.161	-71.220	-151.628	-145.305	-68.027	-45.472	-146.956	-142.813	-142.256	-136.688	-62.078	-138.980	-8191	255	
9148.964	1	1	0	0	0.25576	0.23603	0.11181	0.21716	0.28941	0.051112	0.2542	0.19575	0.23462	0.15094	0.14629	0.19369	0.3051	0.30175	0.15029	0.15339	-2.1146	-2.1354	-2.3646	-2.4396	-2.3708	-2.5104	-2.3771	-2.6354	-2.6479	-2.4458	-2.5938	-2.4437	-2.2292	-2.5625	-2.3479	-2.3979	173.829	76.750	43.174	-155.164	-42.288	-58.212	-152.447	142.795	-7.324	-92.667	-33.063	182.691	-106.431	171.087	148.700	121.792	0.00041671	0.00012688	6.7013e-05	217.33	1.3813e-06	2.0221e-06	302.8	69.446	2.0795e-06	9.5355e-07	123.92	51.576	26.669	12.435	1.3753e-06	27.112	3.975e-05	1.0608e-05	2.6467e-06	209.63	1.3848e-07	9.8758e-08	295.56	67.64	1.2961e-07	1.0608e-07	120.48	50.251	25.729	12.135	1.3776e-07	26.622	147.624	-97.621	-77.204	-151.351	-47.462	-28.244	-151.753	-145.807	-41.695	-0.836	-146.528	-142.590	-142.085	-136.571	-45.224	-139.081	-8191	255	
9149.036	1	1	0	0	0.23108	0.05281	0.29679	0.065184	0.27609	0.21249	0.17076	0.31363	0.14428	0.19079	0.32725	0.14921	0.22948	0.32921	0.25855	0.07686	-2.075	-2.1708	-2.3521	-2.6208	-2.2229	-2.4625	-2.3708	-2.4333	-2.6188	-2.2833	-2.7646	-2.4813	-2.0896	-2.6229	-2.4313	-2.3917	38.553	-100.304	87.725	140.230	-160.710	86.582	140.031	85.372	-116.614	-156.369	155.739	23.400	-87.146	-151.140	151.466	160.064	0.00040564	0.00019397	6.1224e-05	213.98	1.9542e-06	1.601e-06	300.61	67.206	2.207e-06	1.7244e-06	120.21	49.433	25.832	11.966	1.3513e-06	26.468	3.9152e-05	1.0472e-05	2.4139e-06	206.6	1.3079e-07	9.4952e-08	292.14	65.602	1.2044e-07	1.0095e-07	116.76	48.339	24.872	11.676	1.1961e-07	25.801	146.393	-78.527	-76.299	-151.224	-48.295	-26.260	-152.061	-145.872	-50.784	-39.138	-146.631	-143.119	-142.044	-136.681	-59.352	-139.221	-8191	255	
9149.132	1	1	0	0	0.077193	0.27636	0.11832	0.22162	0.099614	0.10216	0.13405	0.27907	0.080081	0.14977	0.3052	0.091154	0.098498	0.13693	0.17484	0.16023	-2.15	-2.3458	-2.6667	-2.5125	-2.3583	-2.5875	-2.3792	-2.4313	-2.7417	-2.2104	-2.2854	-2.6896	-2.2042	-2.5729	-2.2521	-2.2542	58.140	55.081	142.639	191.488	167.991	-33.420	-121.405	44.344	-21.484	-38.399	124.172	134.142	-128.246	69.877	-126.470	180.209	0.00037881	0.00017507	6.1141e-05	213.09	2.2187e-06	1.8215e-06	298.06	66.936	2.3498e-06	1.1041e-06	119.5	49.601	25.566	12.034	1.3771e-06	26.585	3.6888e-05	1.0185e-05	2.5394e-06	206.72	1.1816e-07	8.2239e-08	289.69	64.987	1.1262e-07	9.8569e-08	116.09	48.091	24.817	11.693	1.1665e-07	25.947	149.375	-69.079	-68.285	-151.221	-14.696	-34.898	-152.331	-145.636	-59.875	-8.844	-146.401	-142.931	-142.137	-136.613	-63.430	-138.988	-8191	255	
9149.228	1	1	0	0	0.20866	0.14002	0.34025	0.18274	0.10759	0.074414	0.2033	0.29123	0.063104	0.070909	0.16953	0.048154	0.10069	0.19497	0.096704	0.2798	-2.1333	-2.3771	-2.2938	-2.4688	-2.3021	-2.5146	-2.35	-2.1958	-2.4708	-2.45	-2.3521	-2.4729	-2.1292	-2.6521	-2.6896	-2.1937	191.956	-51.048	-97.133	26.981	-121.822	36.713	135.156	-50.046	102.188	-99.647	158.013	184.448	-30.895	-112.874	-58.452	110.598	0.0003911	0.00017476	6.2224e-05	216.4	1.703e-06	1.7165e-06	301.69	69.015	1.8551e-06	1.8027e-06	123.37	51.342	26.581	12.417	1.4828e-06	27.061	3.7587e-05	9.5925e-06	2.8541e-06	208.22	1.1597e-07	9.2294e-08	293.95	66.891	1.1148e-07	1.0218e-07	120.13	49.908	25.766	12.091	1.3198e-07	26.556	147.328	-66.008	-83.514	-151.358	-44.042	-48.835	-151.807	-145.408	-62.102	-12.956	-146.836	-142.844	-142.184	-136.667	-47.953	-139.066	-8191	255	
9149.349	1	1	0	0	0.090569	0.1474	0.14864	0.11714	0.1414	0.09684	0.075172	0.17369	0.20298	0.089949	0.029047	0.1074	0.17758	0.23408	0.050252	0.17903	-2.2167	-2.5187	-2.3	-2.5271	-2.3646	-2.5771	-2.5125	-2.15	-2.5187	-2.4854	-2.3479	-2.7354	-2.3125	-2.4396	-2.5125	-2.3021	43.393	23.291	43.722	75.370	-33.497	23.548	106.509	165.264	107.600	8.653	-82.941	96.700	93.974	84.351	90.434	110.330	0.00041267	0.00014194	3.9356e-05	215.98	1.578e-06	2.5568e-06	302.65	68.788	2.2119e-06	9.5165e-07	122.09	50.14	26.043	11.925	9.1224e-07	26.442	3.7671e-05	1.0758e-05	2.9669e-06	209.08	1.1703e-07	1.0867e-07	294.07	66.207	1.2108e-07	9.5823e-08	118.35	48.768	25.112	11.64	1.1759e-07	25.866	147.616	-81.599	-75.971	-150.899	-43.412	-27.008	-151.885	-146.008	-53.557	-11.662	-146.769	-142.672	-141.774	-136.744	-67.280	-138.904	-8191	255	
9149.443	1	1	0	0	0.27626	0.039696	0.13129	0.20837	0.16405	0.20337	0.0665	0.034488	0.26756	0.36263	0.27077	0.28956	0.19163	0.11342	0.13996	0.15751	-2.1146	-2.4354	-2.2521	-2.6604	-2.4583	-2.4729	-2.5438	-2.4896	-2.5917	-2.4625	-2.3417	-2.6396	-2.3979	-2.5062	-2.8146	-2.3646	34.518	76.877	180.165	112.593	-56.607	-116.844	60.799	67.400	21.217	154.501	-142.589	-47.461	58.135	-138.372	-33.794	44.980	0.00041598	0.00017637	2.5156e-05	214.92	2.1951e-06	1.2836e-06	301.92	68.49	1.7969e-06	1.9197e-06	123.34	50.545	26.384	11.879	1.5841e-06	26.366	3.926e-05	1.0309e-05	3.0779e-06	208.66	1.1209e-07	9.4664e-08	294.64	66.46	1.2129e-07	1.1093e-07	118.65	48.994	25.268	11.613	1.1223e-07	25.755	148.666	-95.732	-65.174	-151.254	-35.134	-44.618	-152.186	-145.911	-49.150	-23.130	-147.010	-142.466	-142.005	-136.519	-53.375	-138.562	-8191	255	
9149.539	1	1	0	0	0.15395	0.11575	0.14114	0.21929	0.14253	0.15189	0.095947	0.12284	0.12578	0.21124	0.085708	0.13117	0.0329	0.076789	0.16712	0.11864	-2.1729	-2.2958	-2.2771	-2.4646	-2.3458	-2.2708	-2.7458	-2.3958	-2.4396	-2.6292	-2.4646	-2.4958	-2.4146	-2.275	-2.725	-2.4958	-24.893	90.348	-18.805	-142.752	192.512	-53.231	155.543	-157.302	129.799	-65.803	158.802	28.040	-5.309	-8.328	18.573	-142.911	0.00038006	0.00018821	4.8102e-05	218.1	8.951e-07	2.2761e-06	304.24	68.487	1.4537e-06	1.2997e-06	122.42	50.297	25.979	11.823	1.783e-06	25.865	3.7856e-05	1.0459e-05	2.9396e-06	210.03	1.0716e-07	9.4664e-08	295.17	66.607	1.1916e-07	8.7079e-08	118.23	48.595	25.037	11.492	1.0225e-07	25.194	144.304	-98.514	-66.666	-151.601	-32.622	-38.037	-152.169	-145.325	-39.145	-26.986	-146.914	-143.055	-142.083	-136.401	-53.812	-138.949	-8191	255	
9149.635	1	1	0	0	0.097023	0.13923	0.15683	0.22576	0.15363	0.22749	0.34559	0.14147	0.14236	0.26163	0.3361	0.24676	0.034114	0.035466	0.089988	0.21215	-2.1937	-2.2833	-2.3438	-2.3021	-2.5104	-2.3958	-2.5	-2.25	-2.4354	-2.4958	-2.425	-2.7583	-2.4958	-2.2833	-2.5292	-2.5542	177.541	-125.359	97.470	23.942	155.397	7.687	100.677	128.384	-22.008	50.620	128.440	125.696	-10.391	-71.614	153.437	-105.171	0.00036495	0.00012145	4.0211e-05	212.35	1.0648e-06	2.423e-06	297.42	66.415	1.6767e-06	8.8129e-07	118.11	48.949	25.687	11.966	1.3974e-06	26.457	3.7085e-05	9.7032e-06	2.725e-06	205.65	1.0624e-07	1.0853e-07	288.62	64.145	1.156e-07	8.5851e-08	114.77	47.512	24.483	11.575	9.8061e-08	25.733	150.060	-74.161	-70.580	-151.468	-25.953	-23.935	-151.833	-145.667	-43.587	0.892	-146.749	-142.763	-141.760	-136.235	-57.080	-138.673	-8191	255	
9149.732	1	1	0	0	0.18549	0.13338	0.1349	0.13245	0.19975	0.12291	0.12497	0.057684	0.14795	0.17648	0.34827	0.10361	0.20061	0.15751	0.14443	0.15121	-2.0125	-2.5958	-2.1708	-2.6833	-2.3396	-2.4458	-2.6688	-2.2271	-2.3854	-2.5563	-2.275	-2.5021	-2.4604	-2.3521	-2.6562	-2.3354	-9.216	7.709	107.918	-29.605	-82.442	35.699	-65.794	74.043	-73.089	159.703	-67.893	76.024	2.380	-100.863	119.606	137.988	0.00038187	0.00018607	4.4501e-05	214.39	1.6921e-06	2.774e-06	298.75	67.194	1.7002e-06	1.9273e-06	120.34	49.651	25.585	11.67	1.38e-06	25.802	3.7934e-05	9.1431e-06	2.8505e-06	206.89	1.152e-07	1.1269e-07	291.19	65.213	1.1809e-07	8.6429e-08	116.54	48.284	24.682	11.492	1.2091e-07	25.317	147.982	-64.599	-34.139	-151.262	-52.026	-21.608	-152.061	-145.664	-50.463	-23.954	-146.662	-142.636	-142.223	-136.521	-57.689	-138.658	-8191	255	
9149.828	1	1	0	0	0.32133	0.11181	0.30065	0.21119	0.30547	0.24675	0.1787	0.16781	0.18274	0.17938	0.050432	0.15226	0.16396	0.13149	0.31451	0.19314	-1.9875	-2.4896	-2.1229	-2.4542	-2.5125	-2.3521	-2.5833	-2.4417	-2.4104	-2.7875	-2.4062	-2.5396	-2.5438	-2.2812	-2.6146	-2.3854	-7.993	133.641	-93.738	30.192	118.754	87.428	34.776	-74.617	105.126	14.127	113.884	106.701	70.531	-109.398	-76.227	3.940	0.0003738	0.00011255	5.2326e-05	212.64	1.562e-06	1.3563e-06	297.37	66.142	1.867e-06	1.8514e-06	118.32	48.163	24.725	11.492	9.7546e-07	25.475	3.7802e-05	8.9608e-06	2.7068e-06	205.93	1.1421e-07	9.8758e-08	289.57	63.765	1.2605e-07	9.1198e-08	114.15	46.814	23.983	11.182	1.1035e-07	24.96	145.436	-89.166	-64.609	-151.572	-25.274	-13.729	-152.303	-145.236	-65.578	4.220	-147.020	-142.712	-141.633	-136.300	-14.638	-138.819	-8191	255	
9149.924	1	1	0	0	0.097722	0.20173	0.16993	0.057954	0.21582	0.1108	0.17326	0.11449	0.15655	0.084767	0.075846	0.056618	0.19068	0.20319	0.23168	0.1087	-1.7313	-2.4583	-2.2146	-2.3021	-2.5125	-2.2917	-2.4354	-2.3958	-2.3167	-2.6271	-2.4104	-2.5125	-2.7146	-2.3583	-2.55	-2.5312	6.793	168.681	109.440	-143.903	75.684	189.263	141.650	174.443	121.393	167.285	74.369	-158.162	-75.960	60.027	12.674	119.355	0.00040707	0.00019196	5.591e-05	213.45	2.0972e-06	1.4451e-06	297	65.442	1.8872e-06	1.8311e-06	119.46	48.75	25.301	11.607	1.3946e-06	25.952	3.8513e-05	7.5281e-06	2.5085e-06	205.73	1.1033e-07	9.5382e-08	289.33	63.888	1.2463e-07	8.1732e-08	115.64	47.462	24.321	11.337	1.178e-07	25.327	147.086	-70.885	-75.649	-151.688	-50.328	-10.633	-152.201	-145.597	-40.230	-43.086	-146.630	-142.255	-141.838	-136.270	-39.095	-138.776	-8191	255	
9150.044	1	1	0	0	0.029394	0.12646	0.24333	0.18487	0.13534	0.039559	0.10352	0.15197	0.4526	0.27329	0.27359	0.12522	0.14185	0.24331	0.31617	0.27193	-1.8521	-2.4583	-2.1458	-2.4167	-2.5625	-2.075	-2.6562	-2.5062	-2.2833	-2.4062	-2.4729	-2.4896	-2.5833	-2.2729	-2.6083	-2.4167	1.150	68.455	-62.453	187.704	-20.400	52.276	-123.062	-77.027	-13.025	125.693	-144.117	-110.403	-139.673	-76.964	188.621	196.124	0.00037909	0.0002445	7.9708e-05	211.62	1.4809e-06	1.6787e-06	297.96	65.818	1.3013e-06	1.3371e-06	117.84	47.965	24.612	11.365	2.0114e-06	25.273	3.8639e-05	8.9413e-06	2.343e-06	206.27	1.0441e-07	1.0343e-07	290.47	63.936	1.1773e-07	9.0331e-08	114.55	46.752	23.846	11.086	1.353e-07	24.786	149.525	-76.232	-62.775	-151.089	-18.494	-12.107	-151.788	-145.749	-49.919	-21.221	-146.468	-142.754	-141.812	-136.163	-29.295	-138.898	-8191	255	
9150.141	1	1	0	0	0.13747	0.11424	0.061595	0.10057	0.10254	0.31822	0.11677	0.19362	0.067362	0.25869	0.26808	0.069898	0.18335	0.39786	0.11005	0.31662	-1.8125	-2.5104	-2.3	-2.3479	-2.7146	-2.2667	-2.4604	-2.4854	-2.2979	-2.5312	-2.425	-2.2833	-2.6937	-2.3479	-2.5687	-2.4771	165.413	-94.856	147.483	63.483	-140.228	-102.688	120.099	55.715	-54.551	162.398	-142.376	146.491	123.194	53.070	-103.481	175.268	0.00038296	0.000223	4.3373e-05	211.33	2.1329e-06	2.6865e-06	296.91	64.598	1.397e-06	1.3758e-06	116.67	47.323	24.14	11.096	1.5122e-06	24.872	3.7181e-05	8.4398e-06	2.5794e-06	204.37	1.0441e-07	1.0501e-07	288.63	62.876	1.1155e-07	7.6023e-08	113.27	45.895	23.366	10.796	1.178e-07	24.306	148.440	-78.386	-48.300	-151.001	-28.468	-46.599	-151.859	-145.789	-54.043	-15.010	-146.914	-142.695	-141.979	-136.492	-38.700	-138.773	-8191	255	
9150.237	1	1	0	0	0.10025	0.12477	0.095005	0.082034	0.30118	0.12488	0.20511	0.11859	0.10897	0.14212	0.25989	0.3515	0.33465	0.10367	0.10574	0.068707	-1.8292	-2.5479	-2.2042	-2.2854	-2.4604	-2.3229	-2.325	-2.6729	-2.3854	-2.4062	-2.4729	-2.3958	-2.7854	-2.3646	-2.3667	-2.5875	39.237	-14.020	96.976	-40.475	150.851	155.911	170.087	103.402	161.354	36.116	118.777	111.696	-163.017	106.490	-32.609	-44.242	0.00036099	0.00010923	5.6869e-05	210.94	1.2133e-06	2.3896e-06	296.36	63.749	2.0875e-06	1.2552e-06	116.04	47.186	24.267	11.14	2.063e-06	24.734	3.7378e-05	8.0491e-06	2.4557e-06	203.01	1.013e-07	9.646e-08	287.1	62.231	1.2598e-07	8.9175e-08	112.49	45.776	23.449	10.854	1.0992e-07	24.264	147.794	-75.661	-59.414	-151.531	-3.102	-35.386	-151.457	-145.880	-44.447	-17.187	-146.875	-142.654	-142.382	-136.511	-45.877	-138.790	-8191	255	
9150.333	1	1	0	0	0.17463	0.28416	0.09056	0.18875	0.25066	0.18182	0.24032	0.32792	0.33432	0.29142	0.20713	0.11148	0.11579	0.16973	0.21182	0.34833	-1.9271	-2.4146	-2.5167	-2.2687	-2.5792	-2.4333	-2.3125	-2.7271	-2.3167	-2.3854	-2.4979	-2.225	-2.5958	-2.4792	-2.4042	-2.6333	116.253	-130.822	35.034	74.926	-100.974	39.015	151.021	76.279	132.571	-69.106	-54.095	-136.603	178.492	-52.563	-105.418	68.061	0.00035233	0.00014218	4.5869e-05	212.13	1.4372e-06	1.6979e-06	295.21	64.42	1.9912e-06	1.7198e-06	117.25	47.562	24.293	11.207	2.0161e-06	25.229	3.6446e-05	8.7198e-06	2.6358e-06	205.06	1.018e-07	1.0027e-07	287.36	63.13	1.198e-07	8.9175e-08	113.8	46.193	23.547	10.956	1.1556e-07	24.584	148.892	-118.208	-63.240	-151.199	-53.211	-27.255	-151.662	-145.737	-49.179	-22.717	-146.802	-142.887	-142.120	-136.377	-51.013	-138.987	-8191	255	
9150.429	1	1	0	0	0.16578	0.17505	0.14285	0.16005	0.081621	0.059097	0.14236	0.27965	0.10506	0.23303	0.15302	0.12268	0.15631	0.161	0.2164	0.10683	-1.7979	-2.4604	-2.4	-2.3979	-2.6146	-2.4854	-2.3854	-2.6708	-2.3208	-2.3729	-2.4958	-2.2812	-2.5896	-2.4854	-2.2271	-2.5687	7.009	124.419	-155.115	30.401	32.431	-122.148	91.875	70.830	112.157	74.812	114.107	69.709	137.241	-153.282	167.922	3.923	0.00036214	0.00026766	6.3664e-05	210.07	1.0699e-06	1.4625e-06	297.03	64.659	1.7254e-06	9.2531e-07	117.67	48.137	24.622	11.59	1.4533e-06	25.744	3.6924e-05	8.9738e-06	2.3029e-06	203.51	1.056e-07	9.373e-08	287.78	62.99	1.2619e-07	9.2282e-08	114.35	46.886	23.856	11.261	1.2576e-07	25.166	150.156	-67.986	-82.430	-151.707	-18.374	-26.327	-151.615	-145.644	-53.080	-25.068	-147.043	-142.859	-141.840	-135.898	-19.911	-138.884	-8191	255	
9150.523	1	1	0	0	0.094559	0.13151	0.063618	0.39157	0.070803	0.017898	0.16672	0.069998	0.37697	0.11761	0.12307	0.14315	0.32763	0.14549	0.21529	0.077375	-1.8521	-2.3146	-2.4562	-2.3312	-2.675	-2.3708	-2.3021	-2.7167	-2.4083	-2.2521	-2.6833	-2.3438	-2.4771	-2.6896	-2.2458	-2.6063	7.033	59.610	13.879	13.846	42.268	90.717	-92.373	-122.277	96.945	139.094	129.932	-96.874	72.179	-148.541	30.794	-155.077	0.00037062	0.00015409	4.9784e-05	212.18	1.2237e-06	1.8288e-06	296.62	64.801	1.3785e-06	8.3728e-07	116.98	47.808	24.676	11.384	9.3157e-07	25.563	3.6739e-05	8.7329e-06	2.7049e-06	204.19	1.0017e-07	8.231e-08	288.72	63.046	1.2179e-07	9.5462e-08	113.62	46.593	23.724	11.158	1.1867e-07	25.063	147.668	-90.061	-61.737	-151.505	-22.187	-15.146	-151.743	-145.765	-39.592	-48.457	-146.954	-142.579	-141.913	-136.430	-48.331	-138.729	-8191	255	
9150.644	1	1	0	0	0.19612	0.056963	0.067786	0.21021	0.15827	0.31623	0.12263	0.30424	0.25274	0.093986	0.18792	0.075366	0.18306	0.067704	0.18331	0.20254	-1.9271	-2.25	-2.4562	-2.2917	-2.475	-2.3688	-2.3333	-2.6104	-2.4792	-2.3625	-2.6646	-2.5062	-2.5792	-2.6437	-2.3583	-2.6104	-28.954	7.607	44.773	165.908	-89.654	-55.047	82.479	-144.695	143.768	126.720	-38.984	-132.179	-24.713	-110.275	-162.233	130.657	0.00037686	0.00017729	6.243e-05	212.76	1.5254e-06	1.1144e-06	297.85	65.069	1.6988e-06	9.6216e-07	116.78	47.697	24.32	11.153	8.7353e-07	24.684	3.7838e-05	9.7944e-06	2.4012e-06	205.25	1.1372e-07	8.1808e-08	289.36	63.257	1.1226e-07	1.0739e-07	113.23	46.255	23.459	10.875	1.1144e-07	24.21	152.109	-90.313	-58.525	-151.310	-47.757	-33.908	-152.020	-145.376	-56.190	-31.658	-146.897	-143.434	-141.498	-136.039	-57.345	-138.875	-8191	255	
9150.740	1	1	0	0	0.22443	0.034469	0.14939	0.293	0.15307	0.30537	0.17719	0.10961	0.32598	0.13556	0.25587	0.14429	0.14598	0.064181	0.19732	0.16182	-1.9229	-2.5271	-2.45	-2.4417	-2.4896	-2.6854	-2.4292	-2.3563	-2.6292	-2.2938	-2.4771	-2.3625	-2.4083	-2.4979	-2.2854	-2.6063	14.262	61.786	-49.454	138.129	-110.732	75.946	-51.479	45.954	112.247	-59.954	152.398	-113.773	-82.431	-76.983	-8.272	-159.113	0.00037589	0.00014242	2.6515e-05	208.98	1.1394e-06	1.3013e-06	295.2	64.236	1.1333e-06	8.4416e-07	117.1	47.494	24.662	11.269	1.34e-06	25.213	3.7217e-05	8.1207e-06	2.2338e-06	203.08	1.1471e-07	9.0929e-08	287.28	62.645	1.3053e-07	9.0187e-08	113.08	46.037	23.637	10.948	9.6325e-08	24.681	149.288	-105.512	-105.295	-151.226	-52.582	-22.648	-151.605	-145.847	-40.603	-34.635	-146.988	-142.919	-142.739	-136.242	-72.991	-139.082	-8191	255	
9150.836	1	1	0	0	0.021302	0.066669	0.12819	0.13439	0.10467	0.093094	0.31597	0.09296	0.049759	0.063326	0.19622	0.24715	0.32079	0.32786	0.13422	0.33982	-2.0833	-2.2333	-2.6083	-2.5083	-2.5104	-2.7167	-2.2708	-2.6792	-2.5458	-2.3417	-2.6667	-2.3979	-2.3812	-2.6417	-2.2479	-2.5854	79.683	-69.403	-105.846	80.923	-52.711	5.717	29.537	143.138	-31.600	170.818	10.251	103.547	-5.564	-109.771	-112.392	153.183	0.00034331	0.00017811	5.683e-05	213.29	2.2108e-06	2.2638e-06	298.12	66.047	1.664e-06	2.1085e-06	116.53	47.269	24.324	11.08	1.0489e-06	24.679	3.5251e-05	9.4036e-06	2.383e-06	205.36	1.267e-07	8.9206e-08	289.53	63.822	1.1077e-07	1.0348e-07	113.9	46.206	23.519	10.776	1.1643e-07	24.052	144.464	-87.011	-55.085	-151.004	-52.259	-27.822	-151.716	-145.604	-61.707	-13.061	-147.215	-142.787	-141.782	-136.324	-35.650	-138.830	-8191	255	
9150.933	1	1	0	0	0.2463	0.082997	0.081983	0.11168	0.12753	0.1897	0.19462	0.12141	0.044776	0.15753	0.10558	0.32956	0.18955	0.067515	0.25344	0.065273	-2.2292	-2.3	-2.6958	-2.4917	-2.5479	-2.5979	-2.425	-2.4229	-2.4792	-2.3042	-2.5458	-2.4771	-2.3438	-2.6375	-2.4375	-2.4625	-126.602	-125.305	-126.128	123.826	121.925	179.287	111.767	-150.830	-151.977	-143.061	-119.332	132.653	3.076	-43.604	187.271	-134.183	0.00037286	0.00022116	4.4657e-05	208.28	1.6546e-06	9.3303e-07	297.58	65.341	1.5623e-06	1.4935e-06	117.61	48.485	24.799	11.334	1.6596e-06	25.471	3.4756e-05	9.3841e-06	2.5158e-06	202.65	1.1336e-07	6.8017e-08	288.19	63.343	1.033e-07	9.4306e-08	114.56	46.978	24.001	11.082	1.2655e-07	24.986	147.099	-86.564	-39.539	-151.519	-25.106	-27.131	-151.948	-145.538	-66.994	-19.777	-147.204	-142.767	-141.698	-136.245	-73.239	-138.888	-8191	255	
9151.004	1	1	0	0	0.32559	0.14698	0.24274	0.12392	0.18974	0.0075728	0.032404	0.11792	0.20329	0.047727	0.078825	0.13118	0.29799	0.10731	0.24013	0.13088	-2.1958	-2.2188	-2.6833	-2.5667	-2.3167	-2.7854	-2.3979	-2.5	-2.6771	-2.2979	-2.4771	-2.3958	-2.2979	-2.675	-2.3354	-2.2708	102.301	-39.849	-1.355	-48.371	51.091	-116.694	-95.697	-53.087	75.423	133.942	92.037	188.663	-8.919	184.228	180.790	91.733	0.00036344	0.000163	3.3977e-05	212.77	1.5242e-06	1.9123e-06	299.81	66.425	1.5055e-06	1.8755e-06	121.47	49.505	25.519	11.762	1.6218e-06	25.875	3.7068e-05	1.0022e-05	2.1338e-06	205.67	1.1308e-07	8.8487e-08	292.5	64.914	1.0373e-07	1.175e-07	117.77	48.192	24.617	11.453	1.1816e-07	25.274	149.648	-71.986	-51.291	-151.594	-44.183	-65.961	-152.203	-145.746	-30.533	-20.518	-146.560	-142.951	-141.958	-136.611	-20.939	-138.874	-8191	255	
9151.125	1	1	0	0	0.38795	0.32279	0.10023	0.14574	0.17168	0.23223	0.15358	0.082159	0.26502	0.35373	0.04969	0.19384	0.26812	0.17383	0.25723	0.18149	-2.1271	-2.3104	-2.3937	-2.6167	-1.9979	-2.5771	-2.4833	-2.3854	-2.525	-2.3604	-2.4	-2.5042	-2.3542	-2.5	-2.3354	-2.2812	-17.398	-0.158	-50.357	-145.760	-68.582	-129.741	-28.976	97.538	68.685	-121.208	102.881	-39.499	87.411	188.135	-41.318	-15.839	0.00037016	0.00010548	6.6658e-05	213	1.7171e-06	1.8138e-06	297.79	66.304	1.3751e-06	2.025e-06	119.47	48.137	24.683	11.254	2.5124e-06	24.467	3.7725e-05	8.2966e-06	2.6449e-06	205.17	1.1901e-07	9.7681e-08	289.88	64.229	1.1077e-07	1.0001e-07	115.58	46.847	23.916	10.935	1.1411e-07	24.024	148.737	-83.263	-75.434	-151.353	-20.643	-26.985	-151.897	-145.831	-35.267	-31.741	-147.235	-142.618	-141.752	-136.783	-45.329	-138.774	-8191	255	
9151.221	1	1	0	0	0.076809	0.17242	0.13283	0.035409	0.15004	0.17817	0.073747	0.085065	0.20639	0.10694	0.053014	0.11619	0.20126	0.19183	0.11461	0.07701	-2.1208	-2.1937	-2.3979	-2.5854	-2.3812	-2.5187	-2.4021	-2.4708	-2.6333	-2.4917	-2.5542	-2.7313	-2.3333	-2.4562	-2.3083	-2.4333	27.943	65.731	-12.350	173.875	-74.422	128.742	-51.895	183.246	-163.123	103.699	36.650	56.593	174.477	-58.087	93.321	-123.998	0.00034203	0.00022539	5.8125e-05	211.35	1.946e-06	1.5044e-06	297.05	64.901	2.0624e-06	1.4667e-06	120.15	48.275	25.417	11.349	1.5601e-06	25.558	3.423e-05	9.612e-06	2.3975e-06	203.11	9.3471e-08	7.6134e-08	288.15	63.403	1.1667e-07	9.6474e-08	115.24	47.02	24.312	11.103	1.1592e-07	24.953	147.849	-78.021	-75.748	-151.160	-40.993	-25.941	-152.247	-145.608	-57.543	-24.153	-147.249	-142.720	-141.987	-136.329	-44.760	-138.880	-8191	255	
9151.317	1	1	0	0	0.21326	0.084228	0.13655	0.099972	0.12709	0.071028	0.22536	0.1122	0.29984	0.086728	0.092101	0.18389	0.077419	0.25148	0.15394	0.32134	-2.2875	-2.275	-2.325	-2.5583	-2.0521	-2.5125	-2.3979	-2.2625	-2.5979	-2.5375	-2.2854	-2.6792	-2.4125	-2.5479	-2.4333	-2.1667	176.590	181.951	-81.670	163.117	-142.109	62.832	-141.201	181.394	-110.649	-46.075	173.857	-45.646	134.172	-1.580	8.739	65.442	0.00038157	0.00016918	5.1994e-05	214.41	1.0679e-06	8.9841e-07	300.07	68.035	2.0131e-06	1.7487e-06	121.99	50.45	26.23	11.851	1.4571e-06	26.244	3.6739e-05	9.2994e-06	2.4212e-06	206.83	1.2472e-07	9.3012e-08	292.98	65.929	1.1745e-07	9.7558e-08	118.59	49.055	25.153	11.543	1.1108e-07	25.601	147.848	-65.361	-74.188	-151.272	-11.752	-7.807	-151.648	-145.475	-38.706	-1.835	-146.420	-142.593	-141.995	-136.462	-33.993	-138.763	-8191	255	
9151.413	1	1	0	0	0.20413	0.081417	0.065119	0.31457	0.24114	0.04033	0.21083	0.12632	0.11154	0.1979	0.2326	0.10424	0.22146	0.25628	0.11657	0.17541	-2.3187	-2.2021	-2.3958	-2.5604	-2.2917	-2.5917	-2.4792	-2.35	-2.6521	-2.4604	-2.5542	-2.5812	-2.2271	-2.3917	-2.7479	-2.3875	-15.156	-144.384	4.110	140.789	104.041	-4.815	176.781	-100.088	12.153	187.668	-55.583	167.299	31.800	-126.609	86.782	115.636	0.00037904	0.00013341	4.3338e-05	215.33	1.8382e-06	1.7596e-06	299.84	67.435	1.6143e-06	1.4779e-06	121.51	50.051	25.499	11.753	9.7139e-07	25.92	3.7498e-05	8.4528e-06	2.4612e-06	207.38	1.279e-07	1.0113e-07	293.32	65.282	1.2044e-07	9.3872e-08	117.59	48.447	24.621	11.453	1.0291e-07	25.361	148.713	-52.693	-48.416	-151.053	-41.317	-59.013	-151.883	-145.457	-44.527	-24.108	-146.678	-143.072	-141.731	-136.455	-57.822	-138.845	-8191	255	
9151.532	1	1	0	0	0.27745	0.22504	0.13192	0.26252	0.1484	0.20529	0.10588	0.13307	0.079645	0.046602	0.065912	0.22745	0.059175	0.10739	0.073287	0.056658	-1.9708	-2.3937	-2.4792	-2.4333	-2.4979	-2.3646	-2.5604	-2.375	-2.6208	-2.6	-2.2771	-2.7021	-2.4104	-2.2771	-2.6271	-2.3333	83.045	-100.797	132.308	101.866	-115.277	-20.778	80.747	-44.009	96.569	-73.612	-65.215	128.675	-132.856	64.970	-115.856	143.476	0.00040175	0.00019735	4.0303e-05	213.15	1.9463e-06	2.5034e-06	302.37	67.189	2.4872e-06	1.1181e-06	120.76	49.894	25.904	11.733	1.8525e-06	25.937	3.8155e-05	9.4362e-06	2.6777e-06	206.69	1.1393e-07	1.0414e-07	293.48	65.491	1.3238e-07	9.1343e-08	117.63	48.593	24.966	11.461	9.3288e-08	25.275	149.095	-90.240	-74.763	-151.211	-26.516	-39.958	-151.943	-145.760	-69.896	-5.382	-146.972	-142.287	-141.689	-136.400	-26.074	-139.006	-8191	255	
9151.606	1	1	0	0	0.18172	0.20691	0.16774	0.18073	0.11192	0.40473	0.19032	0.25824	0.049423	0.1062	0.16624	0.16294	0.25054	0.11778	0.085502	0.052017	-1.8021	-2.5083	-2.3187	-2.3979	-2.4021	-2.3667	-2.7021	-2.2729	-2.4938	-2.3937	-2.25	-2.4979	-2.4854	-2.3333	-2.3292	-2.3563	-156.056	-143.657	-110.289	13.850	129.759	-1.799	12.827	106.798	125.483	74.153	114.720	-0.663	-42.151	141.546	-76.758	116.744	0.00038544	0.00022186	4.794e-05	214.89	2.33e-06	1.6456e-06	301.11	65.813	2.1169e-06	1.8766e-06	118.38	47.708	24.913	11.059	1.879e-06	24.458	3.7372e-05	8.3486e-06	3.016e-06	206.62	1.0814e-07	9.2797e-08	291.91	64.413	1.2875e-07	8.9608e-08	114.89	46.66	23.931	10.876	1.0182e-07	24.031	147.739	-85.003	-93.965	-151.274	-34.679	6.241	-151.763	-145.536	-43.786	-39.208	-146.354	-142.550	-142.293	-136.351	-27.532	-139.252	-8191	255	
9151.724	1	1	0	0	0.22473	0.28469	0.20581	0.07505	0.36603	0.083102	0.14029	0.19667	0.22772	0.29055	0.081066	0.05321	0.14646	0.027051	0.17184	0.065077	-1.8458	-2.4	-2.1354	-2.5167	-2.1688	-2.3667	-2.6417	-2.2125	-2.3542	-2.4021	-2.2208	-2.5604	-2.3458	-2.2729	-2.6917	-2.4625	-23.704	71.339	-29.499	153.024	72.538	-84.106	16.993	-140.372	173.021	-161.854	-105.613	108.116	-62.437	146.567	95.335	-53.925	0.00036076	7.8806e-05	5.3328e-05	209.19	2.4502e-06	1.3725e-06	292.46	63.476	1.779e-06	1.7917e-06	113.47	45.525	23.615	10.587	9.0918e-07	24.095	3.4397e-05	7.6714e-06	2.574e-06	202.01	9.9326e-08	8.8703e-08	283.56	61.704	9.5837e-08	7.4722e-08	110.1	44.372	22.675	10.404	9.2565e-08	23.517	149.562	-117.856	-78.258	-151.341	-21.374	-46.638	-151.621	-146.110	-71.945	-25.027	-146.487	-142.691	-141.909	-136.506	-36.542	-138.972	-8191	255	
9151.821	1	1	0	0	0.13603	0.29202	0.15596	0.063807	0.12885	0.14275	0.023633	0.14536	0.16893	0.041236	0.033229	0.057267	0.14682	0.16976	0.154	0.11972	-1.8729	-2.4833	-2.1271	-2.525	-2.4396	-2.2417	-2.5062	-2.6188	-2.4625	-2.6688	-2.4646	-2.5771	-2.6146	-2.1521	-2.7396	-2.5229	178.937	83.817	-128.794	119.167	-51.301	39.334	-37.935	-100.841	195.928	49.508	-14.321	-13.017	120.160	-4.650	3.863	107.962	0.000377	0.00018729	3.7745e-05	207.88	9.1393e-07	1.5063e-06	295.15	63.596	8.9676e-07	9.695e-07	115.33	46.522	23.95	10.946	1.5993e-06	24.258	3.5473e-05	7.2351e-06	2.5249e-06	201.24	9.7351e-08	9.3012e-08	285.4	61.934	1.0288e-07	8.1515e-08	112.07	45.33	23.093	10.682	1.0298e-07	23.719	147.200	-99.043	-74.681	-151.611	-25.056	-23.359	-152.444	-145.356	-47.656	-29.283	-146.457	-142.346	-141.713	-136.398	-22.771	-138.765	-8191	255	
9151.917	1	1	0	0	0.024674	0.3338	0.27308	0.37528	0.12243	0.10356	0.092036	0.020997	0.038882	0.13653	0.17863	0.26495	0.035191	0.099455	0.18232	0.11893	-1.9708	-2.7167	-2.2396	-2.5521	-2.6208	-2.2625	-2.6833	-2.5479	-2.6083	-2.5771	-2.6	-2.6	-2.4604	-2.3167	-2.7083	-2.5021	-119.244	-97.383	54.500	162.137	-30.871	62.130	58.056	49.808	16.233	86.934	48.438	-101.691	-117.261	-154.035	-135.612	-104.717	0.00035805	0.00021725	5.0416e-05	209.54	6.5676e-07	1.6882e-06	295.75	64.945	2.1853e-06	1.8323e-06	117.63	47.562	24.752	11.221	1.6681e-06	24.9	3.6327e-05	7.3718e-06	2.2957e-06	202.36	1.0314e-07	1.0142e-07	286.74	63.059	1.119e-07	7.1615e-08	113.92	46.266	23.805	10.871	1.1462e-07	24.236	147.126	-101.219	-62.242	-151.560	-49.254	-37.126	-152.341	-145.785	-56.015	-15.797	-147.207	-142.421	-141.703	-136.796	-70.659	-138.590	-8191	255	
9152.013	1	1	0	0	0.26645	0.1211	0.33305	0.12327	0.14852	0.25884	0.12949	0.083776	0.16611	0.049158	0.26478	0.31362	0.247	0.058223	0.16586	0.16513	-2.0417	-2.5542	-2.2021	-2.3771	-2.5042	-2.3729	-2.4938	-2.4833	-2.3333	-2.6562	-2.4479	-2.5396	-2.4021	-2.3354	-2.5354	-2.4521	149.812	82.095	14.099	136.050	112.970	-117.768	107.001	-109.961	-141.598	108.887	94.276	111.416	66.127	172.754	-131.055	-51.969	0.00037786	0.00020328	4.1792e-05	209.24	1.7025e-06	1.3419e-06	297.88	64.976	1.8925e-06	1.4115e-06	118.01	47.909	24.564	11.227	1.0509e-06	25.298	3.5293e-05	8.277e-06	2.6813e-06	202.77	8.945e-08	9.409e-08	288.43	63.191	1.1546e-07	7.8696e-08	113.89	46.437	23.667	10.985	1.1455e-07	24.588	147.075	-78.386	-49.848	-151.323	-38.889	-25.646	-152.009	-145.406	-53.150	-23.281	-146.901	-142.706	-142.229	-136.197	-19.445	-138.868	-8191	255	
9152.134	1	1	0	0	0.26621	0.14237	0.034342	0.20783	0.12673	0.089393	0.32276	0.16098	0.12522	0.23972	0.31258	0.14826	0.22158	0.3206	0.056532	0.13584	-1.7167	-2.5542	-2.2292	-2.2604	-2.6437	-2.3063	-2.4708	-2.5292	-2.3292	-2.85	-2.5396	-2.1396	-2.5625	-2.3521	-2.3833	-2.525	-3.076	-20.102	45.994	-91.760	-58.023	98.676	-113.536	-112.435	-160.197	26.194	118.388	-5.962	-121.147	168.365	145.029	151.861	0.00038275	0.00015139	3.9843e-05	210.87	1.4689e-06	1.8592e-06	294.59	65.283	2.1156e-06	1.145e-06	116.67	47.879	24.673	11.367	2.1418e-06	25.047	3.6793e-05	8.6026e-06	2.4757e-06	203.64	1.018e-07	8.0299e-08	287.26	63.314	1.2875e-07	8.2237e-08	113.49	46.687	23.725	11.035	1.3053e-07	24.567	150.713	-78.834	-74.968	-151.008	-35.480	-40.619	-152.158	-145.575	-30.285	35.572	-147.274	-143.008	-141.914	-136.418	-39.513	-138.754	-8191	255	
9152.205	1	1	0	0	0.16728	0.11501	0.19792	0.12072	0.077421	0.32581	0.17803	0.11759	0.13799	0.19009	0.20521	0.064505	0.064877	0.33714	0.11964	0.11278	-1.8979	-2.375	-2.2938	-2.25	-2.5729	-2.3521	-2.6437	-2.5896	-2.2708	-2.5354	-2.5542	-2.4688	-2.6521	-2.3271	-2.4542	-2.8625	-58.527	131.051	-82.398	76.389	113.697	36.539	26.498	-4.781	-12.493	80.673	91.846	177.147	-56.257	37.708	89.086	101.028	0.00038898	0.00018443	5.5171e-05	209.74	1.2511e-06	2.1284e-06	298.23	64.477	1.7267e-06	1.2491e-06	116.91	47.388	24.666	10.929	1.4593e-06	24.079	3.7384e-05	9.4297e-06	2.1847e-06	203.36	9.5094e-08	8.9565e-08	287.67	62.852	1.1638e-07	8.4911e-08	113.56	45.919	23.523	10.631	1.0565e-07	23.68	148.051	-74.520	-70.077	-151.514	-66.019	-33.867	-151.678	-146.052	-58.050	-21.117	-146.920	-142.709	-142.601	-136.106	-37.482	-139.004	-8191	255	
#DATA ENDS
