BOXY.EXE: ISS Imagent and Oximeter Data Acquisition Program Version 0.80
Ascii Record File

#ACQ INFORMATION
2  Detector Channels 
16  External MUX Channels 
1  Auxiliary Channels 
5000  Waveform (CCF) Frequency (Hz)
1  Waveforms Skipped 
30  Waveforms Averaged 
1  Cycles Averaged 
16  Acquisitions per Waveform 
10.0806  Updata Rate (Hz) 

#FILE INFORMATION
TRUE -- External MUX Channel results are PARSED.
FALSE -- AC DC and Phase are NOT grouped.
TRUE -- Companion Program Settings File CREATED.
FALSE -- AC data not excluded
FALSE -- DC data not excluded
FALSE -- Phase data not excluded
FALSE -- Auxillary Chn. data not excluded
Tab delimiters

#CALIBRATION STATE
TRUE -- Waveform Calibration Values APPLIED.


#AUX CALIBRATION VALUES
Val Type	aux-1	

Term	1.0000e+00	
Factor	0.0000e+00	


#WF CALIBRATION VALUES
A = Detector Channel
Val Type	A-AC1	A-AC2	A-AC3	A-AC4	A-AC5	A-AC6	A-AC7	A-AC8	A-AC9	A-AC10	A-AC11	A-AC12	A-AC13	A-AC14	A-AC15	A-AC16	A-DC1	A-DC2	A-DC3	A-DC4	A-DC5	A-DC6	A-DC7	A-DC8	A-DC9	A-DC10	A-DC11	A-DC12	A-DC13	A-DC14	A-DC15	A-DC16	A-Ph1	A-Ph2	A-Ph3	A-Ph4	A-Ph5	A-Ph6	A-Ph7	A-Ph8	A-Ph9	A-Ph10	A-Ph11	A-Ph12	A-Ph13	A-Ph14	A-Ph15	A-Ph16	

Term	0.00000e+00	0.00000e+00	0.00000e+00	0.00000e+00	0.00000e+00	0.00000e+00	0.00000e+00	0.00000e+00	0.00000e+00	0.00000e+00	0.00000e+00	0.00000e+00	0.00000e+00	0.00000e+00	0.00000e+00	0.00000e+00	0.00000e+00	0.00000e+00	0.00000e+00	0.00000e+00	0.00000e+00	0.00000e+00	0.00000e+00	0.00000e+00	0.00000e+00	0.00000e+00	0.00000e+00	0.00000e+00	0.00000e+00	0.00000e+00	0.00000e+00	0.00000e+00	0.00000e+00	0.00000e+00	0.00000e+00	0.00000e+00	0.00000e+00	0.00000e+00	0.00000e+00	0.00000e+00	0.00000e+00	0.00000e+00	0.00000e+00	0.00000e+00	0.00000e+00	0.00000e+00	0.00000e+00	0.00000e+00	
Factor	1.00000e+00	1.00000e+00	1.00000e+00	1.00000e+00	1.00000e+00	1.00000e+00	1.00000e+00	1.00000e+00	1.00000e+00	1.00000e+00	1.00000e+00	1.00000e+00	1.00000e+00	1.00000e+00	1.00000e+00	1.00000e+00	1.00000e+00	1.00000e+00	1.00000e+00	1.00000e+00	1.00000e+00	1.00000e+00	1.00000e+00	1.00000e+00	1.00000e+00	1.00000e+00	1.00000e+00	1.00000e+00	1.00000e+00	1.00000e+00	1.00000e+00	1.00000e+00	X	X	X	X	X	X	X	X	X	X	X	X	X	X	X	X	

B = Detector Channel
Val Type	B-AC1	B-AC2	B-AC3	B-AC4	B-AC5	B-AC6	B-AC7	B-AC8	B-AC9	B-AC10	B-AC11	B-AC12	B-AC13	B-AC14	B-AC15	B-AC16	B-DC1	B-DC2	B-DC3	B-DC4	B-DC5	B-DC6	B-DC7	B-DC8	B-DC9	B-DC10	B-DC11	B-DC12	B-DC13	B-DC14	B-DC15	B-DC16	B-Ph1	B-Ph2	B-Ph3	B-Ph4	B-Ph5	B-Ph6	B-Ph7	B-Ph8	B-Ph9	B-Ph10	B-Ph11	B-Ph12	B-Ph13	B-Ph14	B-Ph15	B-Ph16	

Term	0.00000e+00	0.00000e+00	0.00000e+00	0.00000e+00	0.00000e+00	0.00000e+00	0.00000e+00	0.00000e+00	0.00000e+00	0.00000e+00	0.00000e+00	0.00000e+00	0.00000e+00	0.00000e+00	0.00000e+00	0.00000e+00	0.00000e+00	0.00000e+00	0.00000e+00	0.00000e+00	0.00000e+00	0.00000e+00	0.00000e+00	0.00000e+00	0.00000e+00	0.00000e+00	0.00000e+00	0.00000e+00	0.00000e+00	0.00000e+00	0.00000e+00	0.00000e+00	-1.24800e+02	-1.16634e+02	-1.29995e+02	-1.80706e+02	-6.11392e+01	-6.94748e+01	-1.57159e+02	-1.62015e+02	-6.67130e+01	-5.72230e+01	-1.71511e+02	-1.71642e+02	-1.83814e+02	-1.76696e+02	-6.69023e+01	-1.49473e+02	
Factor	1.81256e-05	1.48595e-04	5.07064e-05	1.73345e-01	1.14927e-06	1.62709e-06	1.76141e-01	5.08507e-02	1.13298e-06	1.97013e-06	8.39836e-02	3.24818e-02	3.96211e-02	9.43235e-03	1.51920e-06	1.35113e-02	3.72604e-06	4.28391e-06	1.19661e-06	8.67944e-02	4.61597e-08	4.70531e-08	8.31920e-02	2.56237e-02	4.59152e-08	4.70652e-08	4.08834e-02	1.59073e-02	1.98859e-02	4.76056e-03	4.61465e-08	6.62021e-03	X	X	X	X	X	X	X	X	X	X	X	X	X	X	X	X	



#DISTANCE SETTINGS
A = Detector Channel
A-1	A-2	A-3	A-4	A-5	A-6	A-7	A-8	A-9	A-10	A-11	A-12	A-13	A-14	A-15	A-16	

2.5000e+00	3.0000e+00	2.5000e+00	3.0000e+00	2.0000e+00	3.0000e+00	1.5000e+00	3.0000e+00	3.0000e+00	3.0000e+00	3.0000e+00	3.0000e+00	3.0000e+00	3.0000e+00	1.5000e+00	3.0000e+00	

B = Detector Channel
B-1	B-2	B-3	B-4	B-5	B-6	B-7	B-8	B-9	B-10	B-11	B-12	B-13	B-14	B-15	B-16	

1.0000e+01	1.0000e+01	1.0000e+01	1.4400e+00	1.0000e+01	1.0000e+01	1.5100e+00	1.9400e+00	1.0000e+01	1.0000e+01	1.9900e+00	2.4900e+00	2.4100e+00	2.9000e+00	1.0000e+01	2.9800e+00	




#DATA BEGINS
time	group	step	mark	flag	A-AC1	A-AC2	A-AC3	A-AC4	A-AC5	A-AC6	A-AC7	A-AC8	A-AC9	A-AC10	A-AC11	A-AC12	A-AC13	A-AC14	A-AC15	A-AC16	A-DC1	A-DC2	A-DC3	A-DC4	A-DC5	A-DC6	A-DC7	A-DC8	A-DC9	A-DC10	A-DC11	A-DC12	A-DC13	A-DC14	A-DC15	A-DC16	A-Ph1	A-Ph2	A-Ph3	A-Ph4	A-Ph5	A-Ph6	A-Ph7	A-Ph8	A-Ph9	A-Ph10	A-Ph11	A-Ph12	A-Ph13	A-Ph14	A-Ph15	A-Ph16	B-AC1	B-AC2	B-AC3	B-AC4	B-AC5	B-AC6	B-AC7	B-AC8	B-AC9	B-AC10	B-AC11	B-AC12	B-AC13	B-AC14	B-AC15	B-AC16	B-DC1	B-DC2	B-DC3	B-DC4	B-DC5	B-DC6	B-DC7	B-DC8	B-DC9	B-DC10	B-DC11	B-DC12	B-DC13	B-DC14	B-DC15	B-DC16	B-Ph1	B-Ph2	B-Ph3	B-Ph4	B-Ph5	B-Ph6	B-Ph7	B-Ph8	B-Ph9	B-Ph10	B-Ph11	B-Ph12	B-Ph13	B-Ph14	B-Ph15	B-Ph16	aux-1	digaux	

7456.318	1	1	0	256	0.048539	0.089114	0.17973	0.2839	0.10146	0.12931	0.10656	0.21815	0.21157	0.18955	0.19979	0.060951	0.083881	0.1917	0.066719	0.25637	-2.4229	-2.8042	-2.8688	-2.9146	-2.8708	-2.875	-2.6396	-3.0042	-2.7167	-2.7292	-3.0687	-2.6458	-2.8229	-2.8667	-2.6854	-2.9729	253.508	38.782	198.182	191.645	-56.528	75.561	235.207	170.573	118.474	90.119	232.441	182.261	201.562	52.026	141.045	222.150	0.00010043	0.00017397	0.00020032	1326.8	5.4941e-07	4.5718e-06	1394.5	274.32	2.0444e-06	2.7182e-06	340.6	94.132	74.899	21.809	3.6835e-06	30.278	0.0003432	0.00036014	0.00010027	1295.8	4.0069e-06	3.8339e-06	1362.5	270.32	3.6725e-06	3.6234e-06	335.22	94.642	74.746	21.816	3.2999e-06	30.475	181.032	-51.286	30.780	-82.327	-36.949	90.702	-82.286	-75.449	61.858	54.727	-75.176	-69.425	-68.831	-62.356	17.953	-62.768	-8191	255	
7456.414	1	1	0	0	0.12079	0.28319	0.065362	0.20686	0.06914	0.099007	0.19107	0.10507	0.14547	0.1276	0.18095	0.13166	0.11126	0.075073	0.37385	0.08519	-2.3271	-2.6312	-3.0812	-2.7667	-2.65	-2.9292	-2.8396	-2.9	-2.7104	-2.8271	-3.1562	-2.7917	-2.6625	-3.0292	-2.5563	-2.8812	-14.629	203.981	140.558	208.376	226.659	178.071	168.307	207.400	49.628	-13.879	-30.025	64.117	-69.898	183.945	20.806	-43.424	0.00010762	0.00054268	0.00013392	1325.1	9.2038e-07	3.144e-06	1389.4	273.53	1.7087e-06	4.7579e-06	339.96	93.52	73.97	21.647	2.9824e-06	30.265	0.00028503	0.00029824	8.0579e-05	1289.2	3.1328e-06	2.9732e-06	1355.3	269.1	2.9658e-06	3.027e-06	333.62	94.169	74.08	21.698	3.1186e-06	30.306	185.124	45.301	7.539	-82.445	182.293	85.746	-82.214	-75.378	-7.350	68.607	-75.375	-69.473	-68.916	-62.218	35.440	-62.326	-8191	255	
7456.508	1	1	0	0	0.20112	0.19756	0.1217	0.29087	0.10111	0.067459	0.22733	0.12746	0.11898	0.34504	0.13429	0.22269	0.066537	0.18832	0.31212	0.072774	-2.3625	-2.7375	-2.9313	-2.9729	-2.7521	-3.0687	-2.7896	-2.8875	-2.9146	-2.525	-3.0021	-2.8792	-2.6729	-2.9938	-2.6854	-2.7896	248.123	95.191	-54.957	185.394	17.799	210.945	236.116	174.672	13.693	181.687	129.779	-4.539	132.130	-25.190	42.737	92.314	5.9343e-05	0.00038408	0.00019929	1319.3	2.0717e-06	1.5294e-06	1376.6	272.58	2.5002e-06	2.5574e-06	337.75	93.624	73.803	21.662	1.983e-06	30.123	0.000285	0.00030219	8.2783e-05	1283.2	3.5188e-06	3.4119e-06	1350.1	268.28	3.6065e-06	3.6356e-06	332.4	94.487	74.52	21.781	3.8554e-06	30.41	185.552	-10.705	3.968	-82.376	6.752	48.393	-82.235	-75.563	20.421	133.065	-75.467	-69.122	-68.810	-62.687	129.474	-62.135	-8191	255	
7456.629	1	1	0	0	0.10205	0.10807	0.27533	0.13876	0.38506	0.20534	0.26385	0.093141	0.2416	0.13599	0.18408	0.038398	0.040826	0.12242	0.14846	0.10625	-2.4896	-2.7188	-2.8771	-2.8271	-2.6229	-3.0125	-2.8354	-2.9	-2.9646	-2.5375	-2.9896	-2.7521	-2.7062	-3.175	-2.7792	-2.9938	227.593	126.981	75.727	247.366	181.257	198.930	174.875	-11.664	-31.605	-43.239	201.612	115.869	97.685	209.293	89.827	167.832	9.5395e-05	0.00011682	8.3072e-05	1327	2.0708e-06	8.439e-07	1393.7	275.8	1.3776e-06	3.0444e-06	342.99	94.527	74.434	21.731	3.0558e-06	30.363	0.00034221	0.00036161	0.00010198	1293	3.9845e-06	3.8716e-06	1364.3	271.32	3.6504e-06	3.6269e-06	335.9	95.033	74.917	21.805	3.2903e-06	30.447	199.355	10.528	-31.515	-82.306	65.423	93.484	-82.359	-75.357	173.328	102.911	-75.500	-69.529	-69.085	-62.270	61.344	-62.417	-8191	255	
7456.725	1	1	0	0	0.037374	0.077555	0.12077	0.13937	0.22603	0.10801	0.27066	0.19467	0.20124	0.086636	0.074797	0.058578	0.12167	0.25071	0.25967	0.13151	-2.6042	-2.5792	-2.8604	-3.0542	-2.5938	-2.8646	-2.9354	-2.8125	-3.0771	-2.6771	-3.0312	-2.9	-2.6271	-3	-2.9104	-2.6813	236.736	-30.841	51.070	186.550	109.976	55.342	221.964	224.355	-61.483	27.277	208.539	27.001	27.592	188.309	247.924	-48.753	9.5649e-05	0.00044829	0.00010851	1331.9	1.9607e-06	4.5245e-06	1400.9	277.31	3.9575e-06	5.6796e-06	343.1	95.95	76.032	22.142	4.2955e-06	30.708	0.000289	0.0003017	8.4207e-05	1298.9	3.3841e-06	3.3127e-06	1371.5	272.94	3.5305e-06	3.52e-06	338.32	95.971	75.942	22.129	3.783e-06	30.796	186.565	16.583	-17.002	-82.340	52.049	43.010	-82.363	-75.615	-15.564	75.981	-75.613	-69.602	-69.598	-62.247	44.631	-62.167	-8191	255	
7456.821	1	1	0	0	0.042206	0.19105	0.26785	0.34698	0.28312	0.2148	0.36589	0.022822	0.097548	0.0625	0.1049	0.19317	0.30022	0.16488	0.13904	0.18533	-2.6479	-2.5208	-2.7667	-3.0542	-2.7583	-2.9875	-2.9646	-2.7292	-2.9521	-2.7271	-3.0417	-3.0292	-2.6104	-2.8354	-2.7062	-2.5396	6.841	113.800	226.401	214.731	-78.324	10.715	227.264	1.910	62.630	95.028	207.597	237.408	215.283	240.802	179.982	120.755	8.1011e-05	7.3835e-05	1.9765e-05	1342.8	1.277e-06	2.5242e-06	1403.5	277.57	1.4752e-06	1.8176e-06	342.75	94.761	75.834	22.075	2.5523e-06	30.571	0.00033822	0.0003622	0.00010054	1308.3	4.0607e-06	3.9744e-06	1374.2	273.99	3.9041e-06	3.8765e-06	338.89	95.716	75.949	22.053	3.6645e-06	30.729	211.932	12.044	42.815	-82.447	-57.095	36.450	-82.357	-75.591	37.874	123.546	-75.849	-69.615	-69.332	-62.670	26.651	-62.307	-8191	255	
7456.917	1	1	0	0	0.43131	0.17793	0.058364	0.13986	0.094571	0.075081	0.12824	0.16804	0.031143	0.33233	0.14938	0.075542	0.25131	0.21434	0.12701	0.22013	-2.4688	-2.6854	-2.8958	-3.1542	-2.75	-2.9583	-2.9396	-2.6667	-2.9271	-2.6771	-2.8479	-2.9854	-2.6792	-3.0208	-3.0625	-2.6125	183.288	23.338	124.738	238.859	124.399	165.637	245.435	195.150	188.836	182.192	189.584	19.607	-32.887	-55.537	244.275	202.971	8.8339e-05	0.00027137	0.00016108	1342.8	1.7504e-06	1.3115e-06	1405.8	276.14	1.8906e-06	1.4708e-06	344.25	94.932	74.739	21.585	2.3431e-06	30.024	0.0003078	0.00032119	8.7318e-05	1307.5	3.3928e-06	3.2574e-06	1376.7	273.02	3.1462e-06	3.0489e-06	337.01	95.12	74.798	21.718	2.7665e-06	30.265	177.774	23.392	-7.371	-82.488	45.527	37.786	-82.230	-75.456	33.414	-1.557	-75.456	-69.484	-69.379	-62.432	21.334	-62.299	-8191	255	
7457.014	1	1	0	0	0.12901	0.21012	0.26614	0.1948	0.26763	0.2188	0.39301	0.11023	0.26198	0.07133	0.17045	0.2256	0.019197	0.16296	0.19933	0.078819	-2.5604	-2.7104	-2.7562	-3.0875	-2.5208	-2.8812	-3.1396	-2.7958	-2.8146	-2.9667	-2.8208	-3.1708	-2.6854	-2.7125	-2.8812	-2.6479	76.933	58.421	-70.049	-87.070	181.940	-81.760	236.539	171.927	157.623	66.336	-86.422	-42.551	129.326	178.679	251.166	-57.082	8.5786e-05	0.00014159	0.00013538	1325.3	2.7419e-06	3.5587e-06	1382	273.44	3.261e-06	2.9134e-06	339.85	93.772	73.416	21.436	3.9868e-06	30.013	0.00024726	0.00024974	7.0598e-05	1289.9	2.8401e-06	2.7871e-06	1354.9	269.13	2.882e-06	2.8397e-06	333.09	93.944	73.971	21.538	2.9439e-06	30.08	204.417	73.471	1.644	-82.273	16.620	49.984	-82.299	-75.196	28.457	50.381	-75.486	-69.152	-68.845	-62.516	67.001	-62.088	-8191	255	
7457.110	1	1	0	0	0.14512	0.11762	0.088399	0.11139	0.12589	0.20061	0.20255	0.32077	0.24819	0.095865	0.29982	0.32911	0.37395	0.12922	0.039942	0.28012	-2.4188	-2.8396	-2.6667	-3.1188	-2.825	-2.8604	-3.1604	-2.9854	-2.9708	-2.7479	-2.6042	-2.9771	-2.725	-2.7062	-2.9771	-2.6833	20.547	131.413	131.128	245.186	-92.617	265.758	240.891	185.722	229.327	-71.345	203.617	-75.909	-88.586	259.547	204.217	144.419	6.0972e-05	0.00026289	0.00010027	1322.6	2.535e-06	3.7802e-06	1382.7	272.15	1.7777e-06	8.5492e-07	339.13	93.418	74.183	21.585	2.8916e-06	30.16	0.00026173	0.00028055	7.7977e-05	1286.2	3.1511e-06	3.1219e-06	1354.4	268.97	3.0519e-06	3.1116e-06	333.38	94.12	74.266	21.627	3.1673e-06	30.246	184.589	46.612	62.155	-82.296	115.484	10.220	-82.420	-75.471	-18.106	54.469	-75.616	-69.434	-68.694	-62.320	28.686	-62.463	-8191	255	
7457.206	1	1	0	0	0.094325	0.12509	0.15484	0.1233	0.15174	0.1295	0.27167	0.28423	0.12028	0.12992	0.20149	0.03847	0.15526	0.10429	0.074189	0.038803	-2.4729	-2.7125	-2.5958	-2.9792	-2.8542	-2.8083	-3.2313	-2.6583	-2.775	-2.9854	-2.9313	-3.0438	-2.7562	-2.9417	-2.8792	-2.6521	154.579	-51.783	220.143	-66.066	-31.078	257.700	231.746	-93.278	-71.593	-42.575	208.464	21.442	-8.837	225.540	3.758	13.269	6.881e-05	0.00038929	9.72e-05	1330.6	1.5879e-06	4.0665e-06	1383.6	273.13	1.8047e-06	3.3444e-06	339.15	93.352	74.056	21.517	2.7747e-06	30.037	0.00028182	0.00030003	8.5074e-05	1291.8	3.3793e-06	3.3673e-06	1356.1	269.21	3.3385e-06	3.426e-06	333.62	93.954	74.137	21.622	3.3508e-06	30.233	212.511	-0.570	14.341	-82.390	33.293	38.776	-82.263	-75.399	103.573	126.606	-75.552	-69.627	-68.557	-62.556	44.639	-62.224	-8191	255	
7457.302	1	1	0	0	0.12248	0.40051	0.18457	0.23813	0.047852	0.27976	0.084805	0.16864	0.095726	0.18236	0.27935	0.020906	0.12695	0.28225	0.07811	0.21059	-2.3292	-2.8375	-2.5062	-3.0687	-2.825	-2.85	-3.2125	-2.9708	-3.075	-2.8063	-2.6958	-3.0146	-2.7562	-2.6875	-3.0812	-2.8208	174.697	-92.412	230.203	-79.495	-42.785	59.250	243.608	218.214	-86.808	37.149	225.611	247.499	151.487	234.263	199.052	237.233	0.00011888	0.00049334	6.2104e-05	1319.3	5.0497e-07	1.9954e-06	1391.4	272.95	1.1315e-06	3.6385e-06	338.37	93.658	74.095	21.39	1.022e-06	29.762	0.00029863	0.00031373	8.8425e-05	1287.4	3.5383e-06	3.4598e-06	1358.1	269.52	3.4164e-06	3.367e-06	333.62	94.014	74.239	21.554	3.3531e-06	30.134	196.775	-15.144	-24.985	-82.305	161.301	85.081	-82.296	-75.419	229.252	69.077	-75.486	-69.240	-69.604	-62.349	41.642	-62.343	-8191	255	
7457.421	1	1	0	0	0.14119	0.14485	0.22942	0.22335	0.32675	0.036867	0.23102	0.13239	0.064517	0.033736	0.26243	0.082972	0.291	0.29044	0.15815	0.30754	-2.3229	-2.9	-2.6396	-3.0979	-2.675	-2.65	-3.025	-3.0062	-2.6646	-3.1083	-2.7917	-3.1083	-2.8438	-2.8	-2.9417	-2.7479	210.624	80.159	66.838	22.375	60.070	242.491	85.142	169.066	73.786	234.361	132.403	3.972	-0.645	-39.124	-18.124	151.361	0.00010532	0.00041628	0.00016767	1326.3	2.9607e-06	4.3817e-06	1388.3	271.62	1.7195e-06	1.4834e-06	339.37	93.531	74.492	21.458	4.1004e-06	30.153	0.00030004	0.00030764	8.7797e-05	1290.1	3.4856e-06	3.5068e-06	1359.4	269.1	3.517e-06	3.5533e-06	334.26	94.25	74.563	21.641	3.6848e-06	30.249	197.572	1.560	-3.102	-82.205	-4.781	86.618	-82.341	-75.370	37.101	102.132	-75.482	-69.390	-68.858	-62.040	45.450	-62.240	-8191	255	
7457.517	1	1	0	0	0.2399	0.19148	0.15378	0.25668	0.097476	0.21595	0.17908	0.049507	0.13171	0.12416	0.26803	0.11838	0.23879	0.33835	0.16725	0.15622	-2.2875	-3.0167	-2.7458	-2.9542	-2.925	-2.7333	-3.2333	-3.0042	-2.8063	-3.0917	-2.6354	-2.9625	-2.9771	-2.7521	-3.0271	-3	160.236	45.579	-57.485	260.764	104.281	249.581	-92.617	16.727	-60.173	253.737	247.612	260.590	-41.243	235.471	-14.698	178.565	0.00010587	0.00029895	8.2437e-05	1329.3	3.087e-06	4.3982e-06	1387.6	273.85	1.7621e-06	3.277e-06	340.09	93.109	74.086	21.392	8.439e-07	29.969	0.00032001	0.00033229	9.3972e-05	1295.2	3.7719e-06	3.7725e-06	1362.5	270.05	3.7585e-06	3.7059e-06	335.52	94.027	74.248	21.589	3.6022e-06	30.17	190.045	3.855	70.075	-82.255	38.174	74.430	-82.406	-75.326	-49.903	90.803	-75.630	-69.283	-69.174	-62.754	-2.365	-62.337	-8191	255	
7457.613	1	1	0	0	0.042882	0.22823	0.15231	0.12331	0.17701	0.36951	0.15687	0.065018	0.44926	0.20526	0.2488	0.040387	0.3169	0.040929	0.059007	0.23037	-2.325	-2.9896	-2.7562	-2.8229	-3.0167	-2.6396	-3.0229	-2.8583	-2.7	-3.0417	-2.8396	-2.8625	-2.9	-2.8333	-2.8771	-2.8563	-43.624	124.453	193.748	102.914	21.322	-91.993	228.127	24.424	-20.466	-44.323	-74.792	214.110	250.205	189.235	208.288	58.468	5.5346e-05	6.7249e-05	9.9692e-05	1327	5.8794e-07	3.6055e-06	1386.5	273.14	4.7465e-07	4.2069e-06	338.14	93.709	73.991	21.383	2.9499e-06	29.862	0.00031761	0.00033059	9.3099e-05	1294.5	3.6954e-06	3.6294e-06	1359.6	269.85	3.7351e-06	3.6678e-06	333.58	94.152	74.393	21.551	3.6639e-06	30.107	188.059	119.221	30.027	-82.336	105.996	109.744	-82.189	-75.421	-58.387	23.114	-75.525	-69.361	-69.194	-62.335	60.751	-62.268	-8191	255	
7457.709	1	1	0	0	0.12072	0.17888	0.10616	0.35899	0.11193	0.37923	0.21642	0.18109	0.12057	0.11801	0.075711	0.17652	0.27541	0.24147	0.19813	0.011349	-2.3021	-3.0542	-2.9479	-2.9292	-2.8792	-2.5917	-2.8604	-2.8458	-2.5729	-3.0667	-2.8208	-2.6854	-2.9521	-2.6188	-2.6333	-2.9062	146.293	232.270	62.680	173.062	-41.769	87.088	251.993	241.721	62.421	-39.773	264.448	-56.947	262.843	232.921	85.289	172.215	7.9815e-05	0.00022509	6.4387e-05	1325.5	1.3999e-06	4.442e-06	1385.8	272.76	4.0407e-07	7.0225e-07	338.09	93.282	73.806	21.247	4.1748e-06	29.773	0.00032521	0.00033555	9.5263e-05	1292.3	3.6916e-06	3.6094e-06	1356.2	268.76	3.5856e-06	3.5438e-06	333.23	93.614	74.018	21.443	3.4731e-06	29.94	189.351	23.621	34.314	-82.440	41.335	81.161	-82.156	-75.475	88.630	179.488	-75.528	-69.402	-68.941	-61.931	59.906	-62.278	-8191	255	
7457.806	1	1	0	0	0.27524	0.24873	0.28074	0.13541	0.18556	0.13373	0.37867	0.14075	0.16014	0.036714	0.11947	0.37382	0.061011	0.078386	0.082438	0.283	-2.2	-2.8958	-2.7062	-2.8625	-3.0333	-2.3812	-2.9021	-2.8937	-2.6604	-2.9146	-2.8021	-2.9313	-2.925	-2.9437	-2.6896	-3.0083	126.710	37.951	53.830	248.041	8.937	65.422	236.660	214.445	201.389	-64.853	193.556	-70.127	164.593	-33.824	67.418	102.209	7.9181e-05	0.00034414	0.00011278	1323.9	1.9437e-06	3.5176e-06	1385.7	270.69	1.8724e-06	3.0019e-06	339.41	92.804	73.517	21.354	3.4262e-06	29.68	0.00031304	0.00032755	9.1489e-05	1288.3	3.6392e-06	3.6365e-06	1356	268.3	3.8443e-06	3.8537e-06	333.87	93.636	74.255	21.543	4.2496e-06	30.032	185.598	31.008	10.326	-82.253	19.754	43.470	-82.426	-75.498	35.826	38.584	-75.690	-69.258	-69.211	-62.083	62.645	-62.224	-8191	255	
7457.902	1	1	0	0	0.25372	0.08002	0.073296	0.28715	0.11323	0.12893	0.2101	0.22981	0.12859	0.2613	0.17753	0.14544	0.20631	0.18944	0.16469	0.18124	-2.1521	-2.8208	-2.6667	-2.7417	-2.9667	-2.6583	-3.0229	-2.9125	-2.7708	-2.9188	-2.9896	-2.5208	-2.8729	-2.9521	-2.5917	-3.1188	12.055	-36.653	145.263	192.880	142.749	-27.463	171.879	202.578	81.353	213.321	168.299	-37.932	-6.116	-77.126	-74.902	97.308	3.1324e-05	0.00034105	0.00014036	1331.6	3.9964e-06	3.5358e-06	1397.3	274.5	1.3187e-06	6.6885e-06	341.03	93.606	74.527	21.397	8.5831e-07	29.794	0.00037882	0.00041593	0.00011826	1298.2	4.9174e-06	4.8937e-06	1370.5	271.33	5.0807e-06	5.1053e-06	336.94	94.945	75.442	21.722	5.1871e-06	30.299	202.541	7.504	-2.373	-82.352	85.412	59.715	-82.346	-75.496	40.304	59.638	-75.510	-69.524	-69.538	-62.101	-12.120	-62.039	-8191	255	
7457.998	1	1	0	0	0.20122	0.054199	0.060364	0.12477	0.10461	0.2038	0.1456	0.14861	0.15029	0.088942	0.32283	0.3027	0.26134	0.24703	0.30139	0.11058	-2.2313	-2.8312	-2.8875	-2.7146	-2.9104	-2.675	-2.9583	-3.0271	-2.8146	-2.8667	-2.9896	-2.6625	-2.9375	-2.9083	-2.5312	-3.0604	22.118	51.445	149.635	195.444	-7.639	77.771	152.432	216.425	238.068	-50.855	-79.995	226.469	-88.319	98.817	-15.368	103.324	5.8703e-05	0.00025208	0.00016346	1339.8	1.6085e-06	9.5486e-06	1401.9	275.61	1.5373e-06	2.5044e-06	341.51	94.373	74.692	21.539	1.3317e-06	29.817	0.00044049	0.00048074	0.00013073	1308.5	5.1909e-06	5.2034e-06	1375.9	272.85	5.1396e-06	5.1558e-06	338.15	95.218	75.657	21.737	5.0671e-06	30.262	154.907	-29.212	17.966	-82.285	125.059	56.735	-82.241	-75.430	49.383	44.005	-75.590	-69.581	-69.279	-61.982	114.760	-62.270	-8191	255	
7458.118	1	1	0	0	0.19856	0.20194	0.39437	0.30499	0.040868	0.1012	0.39265	0.14058	0.16722	0.03544	0.22016	0.30697	0.17556	0.17557	0.15745	0.18846	-2.2604	-2.7729	-2.7812	-2.7604	-2.9833	-2.7354	-2.9188	-3.0708	-2.6063	-2.8979	-3.0771	-2.7104	-2.9562	-2.7646	-2.6958	-3.1	135.664	198.399	102.022	195.738	-11.812	189.651	198.000	157.628	-31.637	43.970	-46.558	-82.077	210.419	-13.802	-7.942	188.858	0.00014028	0.00020814	4.0782e-05	1343.9	8.8718e-07	3.0009e-06	1408.3	276.67	3.217e-06	6.1634e-06	342.41	93.555	74.945	21.341	2.6672e-06	29.893	0.00043037	0.00047022	0.00013103	1312.1	5.1866e-06	5.176e-06	1379	273.51	5.1878e-06	5.2044e-06	337.75	94.837	75.618	21.688	4.9782e-06	30.199	196.009	49.932	-48.720	-82.264	50.508	89.204	-82.346	-75.387	42.229	76.553	-75.705	-69.550	-69.179	-62.370	34.741	-62.377	-8191	255	
7458.215	1	1	0	0	0.19171	0.13746	0.098063	0.18573	0.091096	0.20324	0.39544	0.18834	0.16668	0.22505	0.11203	0.25069	0.13571	0.1304	0.10916	0.19499	-2.1896	-2.6813	-2.9229	-2.8729	-2.9313	-2.8979	-3.05	-3.1104	-2.9208	-2.7625	-3.0458	-2.7208	-2.8563	-2.8396	-2.5542	-2.9042	57.955	198.922	182.270	255.398	244.487	14.605	222.183	209.519	30.719	96.021	223.554	-3.246	264.649	206.244	202.584	173.654	8.3576e-05	0.00020623	0.00014941	1337.9	8.204e-07	2.3437e-06	1399.2	275.09	3.4261e-06	3.8423e-06	338.84	93.305	74.118	21.418	3.0952e-06	29.362	0.0004238	0.0004471	0.00012276	1305.2	4.8195e-06	4.7283e-06	1371.7	271.64	4.6544e-06	4.6254e-06	335.9	94.298	74.896	21.529	4.4007e-06	29.904	216.496	-4.046	0.095	-82.366	216.572	69.224	-82.127	-75.266	-25.417	32.265	-75.644	-69.519	-68.964	-62.242	121.562	-62.316	-8191	255	
7458.286	1	1	0	0	0.23999	0.16562	0.11063	0.097189	0.11688	0.1473	0.42906	0.10978	0.080782	0.11203	0.21259	0.20843	0.17609	0.10248	0.1336	0.059203	-2.4458	-2.6729	-2.8208	-2.9313	-2.6625	-2.8729	-2.5583	-2.9521	-2.7042	-2.6354	-2.9854	-2.8083	-2.7938	-2.9604	-2.4292	-2.8708	192.910	226.250	17.442	258.521	78.833	42.320	194.182	-87.423	-47.340	252.428	220.296	246.967	-6.466	115.411	161.776	164.245	8.7916e-05	0.00026835	0.00010377	1333.5	6.3434e-07	2.8614e-06	1390.2	272.24	2.5436e-06	7.1575e-06	338.01	93.135	73.403	21.136	3.3698e-06	29.399	0.00037677	0.00040181	0.00011125	1295.9	4.3349e-06	4.232e-06	1362	269.36	4.1906e-06	4.1484e-06	333.55	93.9	74.123	21.313	4.0244e-06	29.734	184.966	-13.200	109.914	-82.323	58.423	37.863	-82.301	-75.508	43.717	61.199	-75.535	-69.235	-69.366	-62.200	81.946	-62.325	-8191	255	
7458.407	1	1	0	0	0.32791	0.096423	0.13432	0.15178	0.063611	0.074827	0.40671	0.09326	0.15942	0.29773	0.13519	0.17418	0.096248	0.046586	0.13927	0.11328	-2.425	-2.6042	-2.8479	-2.7167	-2.8292	-3.0146	-2.8604	-2.9188	-2.9	-2.6875	-3.1375	-2.7646	-2.7271	-3.0354	-2.6167	-2.7687	217.370	-45.131	-83.334	191.778	-85.777	227.148	201.135	216.728	259.698	25.595	127.900	241.107	-63.952	80.581	39.406	-4.336	6.4207e-05	0.00015513	6.7056e-05	1321.1	1.8194e-06	4.1055e-06	1381.9	271.7	3.2511e-06	3.097e-06	337.86	92.397	72.903	21.02	1.8632e-06	29.361	0.000347	0.0003706	0.00010194	1289.5	4.007e-06	3.9566e-06	1355.3	268.03	3.8531e-06	3.8371e-06	332.45	93.179	73.488	21.14	3.7209e-06	29.605	231.400	77.748	-28.146	-82.287	134.276	62.516	-82.142	-75.409	15.393	99.506	-75.453	-69.352	-69.187	-62.182	-50.995	-62.349	-8191	255	
7458.501	1	1	0	0	0.15311	0.23792	0.19679	0.24178	0.11001	0.096363	0.16786	0.28044	0.22385	0.14898	0.21565	0.075844	0.18867	0.14961	0.28629	0.11265	-2.5625	-2.5646	-3.0167	-3.0104	-2.5583	-3.0458	-2.8646	-2.8812	-2.8771	-2.6854	-2.9	-2.7417	-2.7833	-3.0271	-2.6167	-2.8792	-36.525	-84.802	220.742	224.697	19.091	-50.454	200.369	174.474	219.426	72.718	244.613	-50.416	3.616	190.121	143.979	208.151	0.00010013	0.00031033	0.00012582	1316.4	1.1753e-06	2.7049e-06	1374.5	269.58	9.0197e-07	8.2379e-07	335.86	92.091	73.03	21.043	2.6631e-06	29.391	0.00032515	0.00033417	9.4408e-05	1283.2	3.7462e-06	3.6874e-06	1348.1	266.67	3.7486e-06	3.8052e-06	330.54	92.909	73.376	21.137	3.8037e-06	29.588	193.699	-9.100	-20.419	-82.459	15.739	44.609	-82.344	-75.338	50.139	-56.120	-75.406	-69.200	-68.965	-62.294	28.931	-62.179	-8191	255	
7458.597	1	1	0	0	0.16071	0.06584	0.17903	0.34896	0.15164	0.0029755	0.21102	0.21041	0.18138	0.21238	0.2129	0.049239	0.26279	0.14165	0.19606	0.18248	-2.55	-2.6562	-2.7854	-2.9792	-2.7625	-3.1021	-2.8625	-2.7396	-2.7438	-2.6854	-3.05	-2.7875	-2.5354	-2.9083	-2.7458	-2.8479	1.207	32.851	203.477	241.178	117.012	98.574	159.141	196.587	-22.089	152.831	181.291	-25.282	128.419	-17.770	56.654	147.944	7.1239e-05	0.00054241	8.3339e-05	1321.4	2.2276e-06	3.1902e-06	1376.4	270.14	2.3476e-06	3.8127e-06	335.77	92.224	73.082	20.977	2.4726e-06	29.265	0.00032393	0.0003473	9.6863e-05	1285	3.7516e-06	3.6637e-06	1349.1	266.67	3.6161e-06	3.5416e-06	330.57	92.664	72.952	21.02	3.2864e-06	29.366	191.010	4.020	15.537	-82.344	47.542	85.112	-82.553	-75.513	18.859	104.873	-75.432	-69.440	-69.025	-61.803	32.794	-62.016	-8191	255	
7458.718	1	1	0	0	0.17859	0.24614	0.11927	0.11341	0.092222	0.24131	0.1498	0.093938	0.14791	0.12987	0.18417	0.11936	0.15673	0.14817	0.30069	0.28034	-2.5812	-2.6833	-2.8479	-3.0396	-2.7479	-2.7917	-3.0167	-2.7438	-2.9521	-2.6667	-2.8583	-3.0521	-2.7771	-2.8	-2.6667	-2.5812	43.224	77.685	157.270	218.044	244.593	160.874	201.903	223.441	257.145	201.634	-80.986	52.905	42.507	-79.338	-36.845	-14.098	8.4912e-05	0.00027592	5.933e-05	1307.7	3.081e-06	5.3087e-06	1366.1	268.07	1.7859e-06	2.6203e-06	331.9	90.916	71.733	20.637	3.2277e-06	28.91	0.00028769	0.00029858	8.2753e-05	1272.3	3.2466e-06	3.1402e-06	1336.7	263.54	3.0511e-06	2.9675e-06	326.61	91.477	72.076	20.764	2.8441e-06	29.003	197.930	-20.021	23.600	-82.133	18.633	40.404	-82.213	-75.313	151.731	28.267	-75.470	-69.265	-68.786	-61.766	17.589	-62.005	-8191	255	
7458.814	1	1	0	0	0.078683	0.058341	0.018901	0.15417	0.039121	0.19243	0.14961	0.36105	0.18391	0.058013	0.22029	0.065457	0.12666	0.17025	0.35307	0.22127	-2.4188	-2.6583	-2.6333	-3.2375	-2.5438	-3.1167	-2.9667	-2.825	-2.9604	-2.7479	-2.7938	-2.9979	-2.5312	-2.8167	-2.9458	-2.7021	-77.145	246.759	243.852	-48.122	128.172	185.397	223.394	263.757	69.847	10.974	252.186	-63.063	-84.815	-69.006	149.341	243.673	0.00010803	0.00017792	4.4047e-05	1295.3	2.7081e-06	4.6076e-06	1349.1	265.12	1.8209e-06	4.8127e-06	328.93	90.487	71.7	20.495	3.2244e-06	28.633	0.00024531	0.00025107	6.9025e-05	1256.7	2.7473e-06	2.6356e-06	1321.1	260.97	2.6652e-06	2.552e-06	323.03	90.746	71.299	20.579	2.5664e-06	28.782	170.965	41.550	26.756	-82.315	65.996	59.120	-82.200	-75.193	-3.640	56.648	-75.415	-69.090	-69.077	-61.773	49.776	-62.222	-8191	255	
7458.886	1	1	0	0	0.16866	0.059587	0.18442	0.18206	0.087107	0.1412	0.19267	0.41542	0.16309	0.21302	0.094881	0.24486	0.36845	0.023105	0.25244	0.16704	-2.6042	-2.6937	-2.6375	-3.0792	-2.7292	-2.9042	-3.0104	-2.625	-2.9125	-2.7375	-2.7625	-2.9417	-2.7083	-2.8812	-2.7208	-2.5021	-65.996	202.964	29.911	215.301	51.416	264.005	249.868	210.587	212.778	199.539	-20.268	225.974	-89.445	204.654	44.212	208.551	0.00011811	0.00026127	0.00017155	1282.3	1.5132e-06	2.3353e-06	1342.8	262.61	4.709e-07	2.9114e-06	328.18	90.085	71.152	20.494	3.233e-06	28.783	0.00021908	0.00022766	6.4054e-05	1247.5	2.5824e-06	2.5273e-06	1313.6	259.06	2.5194e-06	2.5067e-06	321.98	90.476	71.064	20.474	2.3958e-06	28.757	191.144	-35.618	1.608	-82.221	61.233	-16.486	-82.069	-75.341	82.948	39.251	-75.282	-69.012	-68.963	-62.100	85.599	-62.250	-8191	255	
7458.982	1	1	0	0	0.1896	0.09406	0.033272	0.12425	0.12763	0.14869	0.2202	0.11463	0.14356	0.13724	0.15087	0.073634	0.12012	0.24722	0.041439	0.10653	-2.4354	-2.6167	-2.7687	-3.1875	-2.5687	-2.6688	-2.9146	-2.6437	-2.9562	-2.7708	-2.7229	-3.0292	-2.8604	-2.7938	-2.9146	-2.6583	-86.803	39.352	107.622	231.596	-54.901	113.431	188.356	186.384	110.118	-54.279	-81.874	9.610	-37.064	-5.655	201.551	258.594	9.4831e-05	0.00030167	5.8325e-05	1274	1.7396e-06	3.2777e-06	1342.3	263.08	2.2922e-06	1.4142e-06	327.77	90.643	71.172	20.453	3.3981e-06	28.551	0.00021531	0.00022101	6.2949e-05	1241.5	2.5452e-06	2.4771e-06	1310.6	258.77	2.4612e-06	2.4001e-06	321.32	90.389	70.842	20.438	2.3315e-06	28.71	189.209	18.258	-15.340	-82.157	105.312	80.355	-82.088	-75.317	70.859	59.314	-75.380	-68.955	-68.800	-61.914	61.879	-62.229	-8191	255	
7459.078	1	1	0	0	0.074804	0.068088	0.29701	0.1599	0.035419	0.1543	0.069847	0.19879	0.10059	0.14961	0.083311	0.12176	0.06813	0.12776	0.14956	0.13863	-2.3854	-3.0042	-2.6854	-3.025	-2.6792	-2.7313	-3.1562	-2.6	-3.0125	-2.85	-2.6583	-2.9458	-2.8396	-2.7771	-3.05	-2.5917	74.395	134.790	104.622	-92.654	240.412	211.338	-46.951	201.502	-59.880	168.707	153.479	207.270	80.080	265.673	155.311	205.347	8.4827e-05	0.0004631	0.00011415	1274.4	2.9394e-06	3.568e-06	1337.2	262.03	2.4136e-06	2.2229e-06	325.78	89.651	71.067	20.626	1.2989e-06	28.643	0.00021616	0.0002181	6.0519e-05	1240.3	2.517e-06	2.3713e-06	1306.3	257.7	2.4841e-06	2.4329e-06	320.53	89.978	70.732	20.474	2.3833e-06	28.706	178.677	15.180	3.682	-82.236	75.664	84.778	-82.111	-75.482	5.272	98.911	-75.434	-68.956	-69.163	-61.842	47.607	-61.984	-8191	255	
7459.199	1	1	0	0	0.22885	0.028047	0.27621	0.11751	0.12116	0.28333	0.26421	0.40308	0.21506	0.073029	0.16709	0.2408	0.33144	0.26129	0.19616	0.29187	-2.2792	-2.9104	-2.6688	-3.025	-2.7771	-2.6813	-3.1	-2.8479	-2.9354	-2.8333	-2.5625	-2.9479	-2.6771	-2.4771	-3.05	-2.7958	206.624	118.220	215.602	-13.750	7.337	-53.709	210.701	156.160	101.884	248.123	187.198	225.083	1.274	175.986	226.773	255.202	7.9093e-05	0.00017731	0.00014189	1272.4	7.4246e-07	6.9569e-06	1335.4	262.13	1.9102e-06	4.1259e-06	327.23	90.018	70.945	20.384	2.4195e-06	28.823	0.00021478	0.00021628	6.1882e-05	1237.9	2.492e-06	2.4422e-06	1305.1	257.78	2.4976e-06	2.4531e-06	320.86	90.229	70.881	20.466	2.5261e-06	28.764	190.402	89.351	7.573	-82.367	-10.892	49.638	-82.238	-75.262	228.560	84.481	-75.119	-69.280	-68.927	-62.137	28.271	-62.224	-8191	255	
7459.295	1	1	0	0	0.21879	0.046541	0.18284	0.22468	0.11853	0.10043	0.16213	0.37007	0.12313	0.16179	0.27052	0.14056	0.17675	0.048917	0.18817	0.1282	-2.2854	-2.9417	-2.5917	-2.8063	-2.8292	-2.7062	-3.0979	-2.8292	-2.7438	-2.9021	-2.8875	-2.9313	-2.8688	-2.6083	-2.9167	-2.6771	-25.142	73.041	98.869	234.371	8.359	44.428	252.901	247.570	239.313	27.114	177.321	231.949	39.779	110.938	-13.961	108.959	0.0001031	0.00045508	0.00012991	1276.5	1.0916e-06	1.7802e-06	1338.4	262.83	3.0649e-06	4.9351e-06	328.35	89.36	71.012	20.535	1.432e-06	28.548	0.00022902	0.00022989	6.4136e-05	1242.4	2.5845e-06	2.5354e-06	1309.5	258.18	2.6087e-06	2.5413e-06	321.85	90.161	70.925	20.535	2.5849e-06	28.819	190.378	14.206	-35.094	-82.254	-41.625	64.455	-82.184	-75.359	118.256	54.647	-75.625	-69.116	-68.948	-61.940	54.471	-61.884	-8191	255	
7459.391	1	1	0	0	0.076109	0.14026	0.082668	0.23487	0.22011	0.12627	0.079528	0.059608	0.12603	0.17915	0.094306	0.25704	0.10759	0.13356	0.19834	0.10558	-2.225	-2.7979	-2.6208	-3.0479	-2.9313	-2.7771	-3.0438	-2.9146	-2.7438	-2.9167	-2.7	-2.7021	-2.7812	-2.6083	-2.8354	-2.9458	-65.879	26.206	9.494	227.470	162.419	-21.556	226.661	159.903	-56.509	185.218	197.718	-44.919	252.422	214.738	122.957	175.155	8.6647e-05	0.00030998	0.00010115	1279.3	1.2594e-06	2.4451e-06	1337.3	261.74	2.9836e-06	3.2555e-06	325.44	90.442	70.982	20.468	2.301e-06	28.711	0.00022848	0.00022717	6.454e-05	1241.3	2.6267e-06	2.5344e-06	1310	258.22	2.5015e-06	2.4377e-06	320.99	90.363	70.931	20.531	2.5069e-06	28.848	194.092	34.190	-27.341	-81.900	-63.943	-91.047	-82.257	-75.017	32.752	101.277	-75.368	-69.419	-69.057	-62.015	56.613	-62.130	-8191	255	
7459.510	1	1	0	0	0.23676	0.2149	0.09338	0.30175	0.14938	0.23483	0.2933	0.069542	0.20337	0.19468	0.095068	0.15667	0.20869	0.31828	0.074232	0.032002	-2.1917	-2.8792	-2.6729	-2.8229	-3.0271	-2.6917	-2.9979	-2.8417	-2.7333	-2.8896	-2.6312	-2.7167	-3	-2.5812	-2.8167	-2.7188	-25.038	8.722	-52.666	213.977	75.667	6.275	155.095	25.251	153.730	19.296	265.526	-86.619	-43.536	263.972	257.918	97.363	7.5759e-05	0.00033168	0.0001044	1278.9	2.1114e-06	4.4433e-06	1341.7	262.59	2.7012e-06	4.002e-06	327.84	89.893	71.272	20.557	2.8967e-06	28.879	0.00022636	0.0002272	6.343e-05	1242	2.6154e-06	2.4999e-06	1310.4	258.27	2.6521e-06	2.5897e-06	322.18	90.177	70.995	20.619	2.6142e-06	28.869	186.010	19.438	54.720	-82.326	107.350	53.828	-82.108	-75.369	7.888	55.387	-75.325	-69.279	-68.796	-61.906	55.484	-61.803	-8191	255	
7459.582	1	1	0	0	0.13167	0.17447	0.30004	0.32161	0.21858	0.24358	0.080572	0.065723	0.13144	0.1466	0.14915	0.11744	0.15294	0.043925	0.30336	0.129	-2.2396	-2.975	-2.5771	-2.6604	-2.8688	-2.6771	-3.1	-3.0375	-2.5208	-3	-2.8896	-2.8021	-2.9833	-2.5875	-2.8187	-2.8271	151.258	75.279	-5.342	224.476	19.728	179.110	237.030	187.663	-15.384	10.693	175.228	-20.921	17.648	82.028	2.108	222.991	9.2869e-05	0.00050246	0.00011612	1279.9	2.3389e-06	2.8906e-06	1343.7	262.82	9.6466e-07	2.9742e-06	327.11	90.258	71.284	20.624	2.2233e-06	28.729	0.00023727	0.00023607	6.6838e-05	1243.9	2.6105e-06	2.641e-06	1311	258.53	2.6445e-06	2.6391e-06	321.42	90.352	71.057	20.649	2.6384e-06	28.887	207.591	36.002	-4.025	-82.141	123.736	50.438	-82.160	-75.302	28.244	61.313	-75.244	-69.330	-68.840	-62.329	10.660	-62.160	-8191	255	
7459.680	1	1	0	0	0.31298	0.14657	0.041174	0.046156	0.018683	0.17947	0.22695	0.10273	0.2172	0.0040929	0.13031	0.21362	0.055767	0.17666	0.086547	0.067698	-2.2188	-2.75	-2.5958	-2.65	-2.8729	-2.7771	-2.9375	-2.8792	-2.6	-2.8708	-2.9208	-2.6958	-2.9646	-2.6437	-2.8521	-2.9229	240.350	131.033	130.290	27.964	6.511	-16.372	143.093	152.033	-90.015	41.478	-11.271	70.772	-88.739	246.978	93.161	187.799	9.4183e-05	0.00012434	0.00016213	1274.9	1.0359e-06	3.867e-06	1339.4	262.71	1.1994e-06	2.6584e-06	327.64	90.18	71.268	20.46	3.1612e-06	28.925	0.00024068	0.00024143	6.8057e-05	1242.9	2.6894e-06	2.5684e-06	1310.4	258.8	2.6349e-06	2.5975e-06	322.17	90.348	71.088	20.6	2.6364e-06	28.869	204.802	-24.914	-31.106	-82.114	96.674	67.865	-82.234	-75.264	-56.141	27.976	-75.590	-68.875	-68.936	-61.913	69.241	-61.810	-8191	255	
7459.798	1	1	0	0	0.07756	0.11145	0.10342	0.37137	0.29331	0.21327	0.21839	0.16693	0.21341	0.17915	0.16126	0.21903	0.1911	0.17073	0.10589	0.033842	-2.2062	-2.7771	-2.9521	-2.6979	-3.0417	-2.7354	-2.7625	-3.1688	-2.5667	-2.8708	-2.7771	-2.8229	-3.0708	-2.7958	-2.6708	-3.0292	185.016	174.567	-14.505	179.599	186.150	136.991	158.953	210.968	73.015	194.426	139.995	-73.020	209.234	67.860	-87.928	124.218	5.7759e-05	0.00021152	0.00022805	1280.1	1.8838e-06	2.2911e-06	1340.3	263.55	1.607e-06	6.0358e-06	327.05	90.649	70.64	20.696	2.7501e-06	28.876	0.00023353	0.000237	6.4787e-05	1244	2.6669e-06	2.6102e-06	1310.3	258.88	2.5988e-06	2.5435e-06	322.23	90.448	70.924	20.62	2.5392e-06	28.902	207.913	52.821	11.411	-82.281	73.967	40.414	-82.363	-75.405	76.699	61.420	-75.330	-69.325	-69.085	-62.238	62.235	-61.922	-8191	255	
7459.895	1	1	0	0	0.30905	0.041083	0.056667	0.20477	0.077699	0.18628	0.47185	0.2719	0.061197	0.050018	0.007553	0.013939	0.13382	0.14433	0.093981	0.21603	-2.2833	-2.8937	-2.6625	-2.6208	-2.9979	-2.7687	-2.9667	-3.0021	-2.6667	-2.8312	-2.9813	-2.5854	-2.7979	-3.0042	-2.5458	-3.1021	11.886	-16.616	165.385	145.485	-28.138	206.581	237.446	207.974	-78.655	104.987	-4.053	92.408	24.831	84.311	177.976	233.403	8.0342e-05	0.0002614	9.0558e-05	1279.7	2.8579e-06	4.7608e-06	1337.7	262.14	7.0366e-07	3.4805e-06	327.54	90.593	70.921	20.499	3.4299e-06	28.875	0.00022927	0.00023528	6.6477e-05	1243.4	2.6648e-06	2.5881e-06	1310.2	258.77	2.6572e-06	2.5991e-06	321.24	90.589	70.94	20.582	2.609e-06	28.938	210.385	-37.514	-20.723	-82.245	44.982	78.058	-82.304	-75.424	114.497	69.057	-75.529	-69.023	-68.927	-61.919	66.922	-62.109	-8191	255	
7459.991	1	1	0	0	0.36481	0.14209	0.18517	0.39504	0.10745	0.22837	0.10576	0.2179	0.064314	0.17638	0.10376	0.29464	0.15167	0.17988	0.16295	0.08933	-2.2687	-2.7021	-2.9313	-2.6229	-2.8396	-2.8417	-2.8896	-3.1271	-2.6958	-2.7521	-2.8563	-2.7833	-2.925	-2.9562	-2.7271	-2.9083	233.534	140.036	-35.480	204.521	-54.548	-34.334	-25.465	211.173	60.481	-87.770	217.403	196.216	151.620	223.275	215.969	79.087	0.00012676	0.00038711	5.3694e-05	1277.2	7.6349e-07	4.4206e-06	1341.5	261.83	2.4557e-06	2.0612e-06	326.53	90.062	71.001	20.589	8.5669e-07	28.698	0.00023099	0.00023402	6.6365e-05	1242.6	2.6224e-06	2.5565e-06	1311.2	258.77	2.6231e-06	2.5405e-06	321.84	90.525	71.098	20.622	2.5701e-06	28.882	185.337	16.934	45.787	-82.204	50.623	66.490	-82.256	-75.167	43.418	107.313	-75.497	-69.000	-69.050	-61.861	48.044	-62.211	-8191	255	
7460.111	1	1	0	0	0.051715	0.20046	0.11068	0.25449	0.03549	0.12836	0.34416	0.25974	0.26635	0.26734	0.25042	0.20804	0.17371	0.18846	0.26185	0.025426	-2.3333	-2.6375	-2.9667	-2.6562	-2.8271	-2.8	-2.6979	-3.0312	-2.7167	-2.7729	-3.1021	-2.6771	-2.8333	-3.05	-2.7375	-2.9854	207.561	263.476	192.054	266.235	211.453	257.702	177.667	215.661	55.640	73.626	83.447	22.125	223.481	176.528	183.773	223.255	7.5992e-05	0.00026044	0.00015872	1276.7	3.0954e-06	7.5703e-07	1338.6	263.18	2.4834e-06	4.7456e-06	328.55	90.467	71.718	20.67	6.9545e-07	28.888	0.00022904	0.0002347	6.3874e-05	1244.5	2.7051e-06	2.5744e-06	1310.8	259.2	2.6742e-06	2.5861e-06	321.91	90.744	71.207	20.643	2.5208e-06	28.957	178.303	0.303	-24.408	-82.092	61.067	-3.263	-82.049	-75.233	77.909	51.261	-75.320	-69.407	-68.540	-62.082	31.833	-62.130	-8191	255	
7460.183	1	1	0	0	0.049589	0.10456	0.32892	0.25649	0.093523	0.22539	0.098025	0.10062	0.041748	0.19591	0.11408	0.15492	0.19222	0.28165	0.063103	0.14919	-2.2833	-2.4729	-2.9667	-2.7083	-2.6021	-2.9771	-2.7146	-3.1333	-2.8354	-2.7062	-2.9521	-2.7979	-2.6667	-2.8667	-2.5458	-2.8708	188.075	12.092	-1.512	209.693	-84.678	-49.136	220.389	221.259	208.847	-16.796	241.208	137.381	262.055	22.088	205.003	189.821	0.00010482	0.00028983	8.8973e-05	1281	2.1445e-06	4.9266e-06	1340.9	262.85	6.7636e-07	7.3223e-06	329.03	90.083	71.543	20.581	7.8902e-07	28.996	0.00023207	0.00023694	6.7068e-05	1244.7	2.6279e-06	2.6063e-06	1314.2	259.13	2.6299e-06	2.5955e-06	322.73	90.612	71.151	20.643	2.6124e-06	28.974	176.062	14.190	-48.986	-82.313	137.117	77.105	-82.042	-75.214	126.159	58.647	-75.291	-69.311	-68.610	-61.876	31.957	-62.367	-8191	255	
7460.279	1	1	0	0	0.070217	0.27974	0.17539	0.24131	0.038359	0.069599	0.29833	0.060508	0.1346	0.16439	0.10825	0.19905	0.14818	0.26349	0.23921	0.061217	-2.5646	-2.6667	-2.7875	-2.925	-2.5417	-2.9021	-2.8021	-2.9271	-2.8146	-2.6646	-3.0208	-2.8958	-2.6167	-2.9396	-2.5542	-2.8042	198.927	175.356	10.954	242.827	9.325	180.649	154.440	202.328	198.569	157.553	91.740	237.239	260.334	247.040	-19.771	81.667	9.9241e-05	0.00022597	0.00011471	1278.6	1.7245e-06	6.8806e-07	1339.5	262.51	1.3535e-06	5.521e-06	329.12	90.315	71.184	20.748	1.708e-06	28.918	0.00023263	0.0002363	6.725e-05	1244.7	2.7567e-06	2.6761e-06	1312.4	259.13	2.7226e-06	2.6746e-06	322.63	90.527	71.31	20.722	2.6605e-06	29.017	188.932	40.301	25.635	-82.399	53.552	-47.520	-82.070	-75.253	9.461	97.257	-75.473	-68.855	-68.919	-62.116	-65.125	-62.180	-8191	255	
7460.375	1	1	0	0	0.16862	0.12565	0.17354	0.3206	0.086355	0.1158	0.18207	0.28185	0.049231	0.3395	0.071574	0.23764	0.23743	0.24053	0.12109	0.2494	-2.4396	-2.6125	-2.9208	-2.8521	-2.6813	-3.0854	-2.8104	-2.8042	-2.7375	-2.4292	-3.0333	-2.9458	-2.8125	-3.0042	-2.6875	-2.7542	88.860	37.322	219.854	216.981	252.536	60.354	227.405	-92.056	62.436	19.596	154.249	73.107	255.119	-68.609	-79.601	164.043	9.7089e-05	0.00043453	7.8787e-05	1281.9	7.1508e-07	2.486e-06	1344.9	263.93	1.4388e-06	4.4459e-06	328.35	90.424	71.038	20.817	4.3688e-06	29.005	0.00023987	0.00025299	6.8314e-05	1248	2.7942e-06	2.7789e-06	1315.4	259.83	2.8466e-06	2.8215e-06	323.36	90.866	71.54	20.81	2.8992e-06	29.141	194.565	7.267	-23.766	-82.275	74.715	106.069	-82.446	-75.484	44.626	91.081	-75.326	-69.459	-68.604	-62.119	67.740	-61.886	-8191	255	
7460.494	1	1	0	0	0.07796	0.32155	0.054104	0.16651	0.28237	0.12973	0.15069	0.26229	0.16337	0.11984	0.18369	0.19718	0.085192	0.081678	0.30224	0.25425	-2.4896	-2.6875	-2.7979	-3.1354	-2.6333	-3.025	-3.0062	-2.7208	-2.9104	-2.6167	-2.9688	-2.975	-2.5854	-2.9458	-2.8625	-2.6979	101.219	101.192	-56.062	261.797	74.456	24.864	137.795	170.009	112.819	-36.511	239.738	193.262	196.106	-35.105	-10.775	184.848	6.6559e-05	0.00048495	8.8348e-05	1287.2	1.4931e-06	2.6825e-06	1350.1	264.3	3.4715e-06	7.4154e-06	330.96	90.791	71.614	20.711	4.1773e-06	29.155	0.00025893	0.00027394	7.6339e-05	1253.2	3.122e-06	3.0518e-06	1321.3	260.96	3.0856e-06	3.1113e-06	324.91	91.312	71.763	20.784	3.0029e-06	29.222	192.345	-6.545	16.560	-82.220	149.579	21.803	-82.212	-75.247	66.356	68.413	-75.440	-69.270	-69.060	-62.115	132.834	-62.118	-8191	255	
7460.590	1	1	0	0	0.22225	0.020247	0.067155	0.11716	0.17236	0.21899	0.15619	0.27094	0.23974	0.128	0.16358	0.10552	0.1283	0.15102	0.041695	0.084983	-2.5958	-2.5187	-2.8521	-3.0958	-2.6688	-2.9271	-2.8917	-2.7458	-2.8563	-2.6437	-2.7583	-2.9458	-2.6479	-2.8458	-2.8604	-2.6521	-66.217	175.962	-21.377	-88.264	212.149	-29.099	158.398	257.367	103.751	153.103	-61.382	-75.719	162.959	7.116	-68.440	-11.013	6.3805e-05	0.00019804	0.00016109	1291.3	2.3898e-06	2.5649e-06	1347.2	265.78	1.4998e-06	2.9015e-06	331.54	90.915	71.945	20.746	3.9383e-06	29.114	0.00026019	0.00027236	7.6683e-05	1255.4	3.0149e-06	2.9943e-06	1322.3	261.69	3.0568e-06	2.9975e-06	325.31	91.266	71.92	20.803	2.9639e-06	29.264	215.266	29.020	-1.814	-82.263	57.232	41.083	-82.187	-75.320	57.530	64.132	-75.516	-69.363	-68.902	-62.092	44.446	-62.121	-8191	255	
7460.687	1	1	0	0	0.11654	0.054399	0.30164	0.092914	0.19178	0.079633	0.11727	0.059551	0.24284	0.18266	0.067583	0.18832	0.10592	0.14965	0.12378	0.19336	-2.3583	-2.5208	-2.8125	-3.1729	-2.6604	-3.0417	-3.0687	-2.6583	-2.8812	-2.7167	-2.8812	-2.9313	-2.7667	-2.9479	-2.9062	-2.6458	225.883	182.690	-27.543	161.913	212.401	-60.437	216.073	184.718	-6.860	229.015	203.289	-85.526	-49.391	180.835	77.334	216.541	9.7548e-05	0.00019083	4.4934e-05	1287.8	3.2561e-06	5.5851e-06	1354.1	266.01	1.8491e-06	2.5694e-06	328.78	90.974	71.794	20.737	4.8787e-06	29.289	0.00026657	0.00027418	7.8179e-05	1254.9	3.1168e-06	3.0673e-06	1323.3	261.81	3.0377e-06	3.0177e-06	324.94	91.225	71.963	20.829	2.9767e-06	29.258	189.996	43.744	37.731	-82.429	110.252	62.507	-82.142	-75.441	20.679	79.599	-75.402	-68.914	-68.775	-61.870	32.944	-61.930	-8191	255	
7460.783	1	1	0	0	0.1702	0.21409	0.26416	0.16071	0.27878	0.11558	0.34206	0.17455	0.13436	0.17804	0.25953	0.13564	0.26692	0.06858	0.089781	0.14015	-2.5042	-2.7313	-2.8292	-2.8833	-2.75	-3.0083	-3.1854	-2.6771	-3.0146	-2.7917	-2.8854	-2.875	-2.5687	-2.9188	-2.9146	-2.6875	-45.227	14.670	92.166	171.882	169.410	66.216	204.207	-33.049	92.610	111.270	171.845	260.001	91.076	210.210	246.861	-11.880	9.0341e-05	0.00059649	7.6871e-05	1291.8	1.3302e-06	2.3558e-06	1357.6	265.31	2.4731e-06	3.0231e-06	329.38	91.235	72.05	20.781	5.3349e-07	29.277	0.00026132	0.00027527	7.5486e-05	1257.3	3.039e-06	3.0536e-06	1325.4	261.54	3.0118e-06	2.9846e-06	324.72	91.43	72.008	20.84	2.9527e-06	29.308	178.957	3.481	38.490	-82.218	23.730	32.518	-82.157	-75.220	1.620	17.341	-75.433	-69.065	-68.978	-62.073	-0.063	-62.036	-8191	255	
7460.879	1	1	0	0	0.1954	0.11394	0.096625	0.030182	0.01358	0.17459	0.21113	0.31002	0.17059	0.08029	0.28573	0.25307	0.071166	0.24804	0.1539	0.2857	-2.6208	-2.5958	-2.6542	-3.2042	-2.8063	-3.0021	-3.0708	-2.7042	-2.9208	-2.7792	-2.8438	-2.8917	-2.7125	-2.9708	-2.9354	-2.6417	240.762	-81.472	45.263	204.720	16.864	131.040	-89.035	218.826	94.245	-61.034	-39.935	203.350	-46.186	87.538	228.250	-7.541	4.8668e-05	0.00033235	0.00020272	1294.3	3.5228e-06	3.9393e-06	1353.1	265.25	2.494e-06	4.3833e-06	331.72	91.113	72.129	20.868	1.0262e-06	29.148	0.00026293	0.00027161	7.6312e-05	1257.8	3.1309e-06	3.0178e-06	1326.3	261.56	3.0053e-06	3.0282e-06	326.14	91.43	72.074	20.85	2.9805e-06	29.248	177.321	5.402	8.493	-82.100	60.220	32.538	-82.244	-75.295	-14.079	37.902	-75.705	-68.965	-69.127	-62.048	20.516	-62.141	-8191	255	
7460.975	1	1	0	0	0.07865	0.27563	0.29959	0.078208	0.25283	0.082969	0.12362	0.31228	0.13023	0.16456	0.20656	0.11694	0.086495	0.17493	0.21382	0.27608	-2.4813	-2.6625	-2.5604	-3.1042	-2.575	-2.8271	-3.1646	-2.6646	-2.8646	-2.8021	-2.8229	-2.9667	-2.8958	-2.9188	-3.1396	-2.6979	52.488	202.843	15.846	-63.808	112.319	7.239	227.399	229.181	38.967	105.758	142.389	100.220	59.392	190.776	9.423	265.465	9.7827e-05	0.00037991	0.00013328	1295.2	7.119e-07	2.8446e-06	1354.7	265.26	6.2702e-07	6.1488e-06	332.66	90.758	72.052	20.78	3.7816e-06	29.306	0.00025943	0.00026809	7.6182e-05	1259.7	3.0028e-06	2.9551e-06	1323.9	261.63	2.9612e-06	2.9335e-06	325.92	91.374	71.956	20.842	2.9223e-06	29.231	200.504	-0.552	32.083	-82.376	73.963	58.874	-82.269	-75.325	265.682	68.621	-75.460	-69.453	-68.708	-61.770	45.287	-62.292	-8191	255	
7461.071	1	1	0	0	0.25763	0.067946	0.10522	0.096176	0.20459	0.041046	0.10524	0.18575	0.12969	0.12149	0.044887	0.16718	0.10931	0.31487	0.040899	0.40774	-2.3021	-2.6792	-2.625	-3.2604	-2.675	-2.6521	-3.2354	-2.7062	-2.9667	-2.9521	-2.6979	-2.9437	-2.7771	-2.5625	-2.9208	-2.8125	-22.290	178.994	140.081	168.492	103.139	198.071	157.153	-33.222	75.547	40.415	-74.753	22.769	247.401	241.012	227.763	238.119	0.00013388	0.00034571	8.7428e-05	1297	1.319e-06	5.6049e-06	1347.8	265.98	1.3519e-06	4.2575e-06	330.78	91.001	71.65	20.932	1.3793e-06	29.223	0.00025747	0.00027405	7.7959e-05	1258.2	3.0514e-06	2.9512e-06	1323.1	261.88	3.0862e-06	3.0164e-06	324.75	91.511	71.874	20.912	3.0137e-06	29.243	191.076	-17.739	38.540	-82.249	73.678	81.362	-82.137	-75.454	33.087	78.663	-75.265	-69.241	-68.930	-61.944	65.392	-61.844	-8191	255	
7461.192	1	1	0	0	0.22997	0.099897	0.09386	0.25664	0.22884	0.19078	0.31314	0.12786	0.20929	0.19205	0.11213	0.054872	0.32046	0.16511	0.060011	0.18543	-2.3646	-2.8167	-2.5062	-3.0042	-2.875	-2.5938	-3.1813	-2.8771	-2.6833	-2.8	-2.6875	-3.0354	-2.9208	-2.7104	-2.9208	-2.7417	80.331	18.147	108.725	255.469	183.092	221.804	220.393	186.392	19.969	172.517	180.255	-59.192	238.285	266.045	-43.304	114.934	8.0146e-05	0.00047517	0.00013646	1293.1	1.5774e-06	3.1225e-06	1358.1	264.75	9.5042e-07	2.6575e-06	330.87	91.122	71.77	20.757	4.0812e-06	29.25	0.00027146	0.00027941	7.7224e-05	1259	3.0379e-06	3.0357e-06	1326.8	262.03	2.9724e-06	2.891e-06	325.32	91.581	71.775	20.836	2.9186e-06	29.222	179.680	63.435	25.820	-82.425	131.663	71.175	-82.488	-75.324	192.057	53.870	-75.649	-68.807	-68.600	-62.027	55.229	-61.573	-8191	255	
7461.288	1	1	0	0	0.16706	0.17456	0.16173	0.16816	0.10849	0.33354	0.23234	0.17493	0.068546	0.15311	0.027947	0.050819	0.11937	0.18488	0.23779	0.10918	-2.4792	-2.9688	-2.7083	-2.9833	-2.7292	-2.45	-3.2208	-2.7562	-2.6562	-3.0729	-2.7667	-2.7854	-2.9083	-2.675	-2.9854	-2.9562	32.885	214.100	247.428	250.099	53.153	50.283	117.211	228.501	106.211	83.365	232.099	209.020	46.964	189.121	-22.061	33.526	8.6302e-05	0.00011992	0.000208	1291.6	2.1681e-06	5.3654e-06	1353.1	264.63	1.7574e-06	4.7392e-06	330.44	90.477	71.097	20.688	2.0914e-06	28.983	0.00025556	0.00025985	7.3696e-05	1255.7	2.8608e-06	2.7685e-06	1322.3	260.96	2.7629e-06	2.6651e-06	323.97	91.007	71.277	20.717	2.5302e-06	28.998	202.952	-65.005	0.006	-82.360	133.987	64.085	-81.978	-75.324	189.617	50.204	-75.357	-69.270	-68.955	-62.257	99.998	-61.960	-8191	255	
7461.384	1	1	0	0	0.099128	0.34355	0.23705	0.31551	0.14621	0.28993	0.40432	0.36791	0.11299	0.12541	0.15345	0.15475	0.16901	0.15628	0.24198	0.11439	-2.2521	-2.8563	-2.6854	-2.9646	-3.0604	-2.5896	-3.1167	-2.8	-2.7375	-2.975	-2.8521	-2.7917	-2.9104	-2.7167	-2.9521	-2.8625	175.091	-36.797	-23.815	250.893	126.609	10.428	160.680	173.316	6.292	18.411	207.700	242.957	231.094	34.832	250.903	64.539	8.6925e-05	0.00024553	7.8104e-05	1282.6	6.5522e-07	1.266e-06	1341.5	262.29	3.7899e-07	4.5878e-06	328.43	90.619	71.21	20.511	8.5286e-07	28.706	0.00022442	0.0002259	6.3363e-05	1247.1	2.4473e-06	2.3938e-06	1312.4	259.01	2.4132e-06	2.3576e-06	322.16	90.48	70.855	20.568	2.1851e-06	28.806	179.248	5.763	74.762	-82.310	64.358	5.878	-82.257	-75.196	88.939	53.217	-75.516	-69.162	-68.789	-61.946	15.075	-62.075	-8191	255	
7461.480	1	1	0	0	0.11012	0.11012	0.060478	0.27042	0.21307	0.34653	0.23477	0.31931	0.11439	0.070157	0.16944	0.031418	0.1467	0.13334	0.15106	0.18143	-2.2667	-2.875	-2.7188	-2.9146	-2.8979	-2.6979	-3.2812	-2.8271	-2.775	-3.0667	-2.8292	-2.7875	-3.1396	-2.6833	-2.8646	-2.85	258.125	43.639	230.186	207.979	18.607	98.956	244.516	220.956	101.408	-48.654	248.581	18.153	-84.062	39.723	-76.293	65.643	0.00010964	0.00053818	0.00013124	1279	2.4067e-06	2.4325e-06	1328.2	260.72	7.7145e-07	3.7029e-06	324.97	89.647	70.782	20.392	6.505e-07	28.533	0.00020156	0.00020514	5.6251e-05	1238.6	2.1958e-06	2.1352e-06	1299.4	256.47	2.1053e-06	1.9887e-06	318.62	89.562	70.072	20.37	1.9883e-06	28.61	186.150	10.262	-18.432	-82.323	27.674	1.172	-82.458	-75.232	230.726	33.716	-75.688	-69.187	-69.059	-61.898	118.692	-62.185	-8191	255	
7461.576	1	1	0	0	0.22635	0.31456	0.20901	0.089181	0.097415	0.19871	0.27059	0.10037	0.20794	0.07573	0.07403	0.31883	0.10658	0.09347	0.077655	0.12873	-2.1208	-2.9562	-2.5979	-2.9771	-2.8229	-2.7542	-3.1104	-3.1021	-2.725	-2.9625	-2.9021	-2.5646	-2.9625	-2.6667	-2.8375	-2.9313	4.999	259.100	-34.712	138.202	112.260	141.751	224.735	-91.115	-19.463	60.491	240.430	-57.201	171.871	-33.470	46.299	-41.727	6.6858e-05	0.00033102	0.00010361	1260.1	1.2928e-06	9.4382e-07	1324	260.02	8.68e-07	1.009e-06	323.33	89.373	69.959	20.393	2.6695e-06	28.621	0.00017886	0.00017692	5.0487e-05	1224.5	2.0329e-06	1.971e-06	1293.5	255.19	2.0614e-06	1.966e-06	317.84	89.537	70.08	20.336	2.0048e-06	28.612	179.040	8.363	-20.447	-82.126	92.456	179.482	-82.126	-75.346	36.474	64.848	-75.622	-68.951	-68.439	-61.817	12.338	-61.795	-8191	255	
7461.671	1	1	0	0	0.2148	0.20351	0.14693	0.14188	0.15198	0.19481	0.1714	0.2429	0.48804	0.093131	0.1694	0.041847	0.24596	0.45363	0.061048	0.14498	-2.2771	-2.95	-2.7042	-2.6396	-2.9792	-2.6271	-2.8917	-2.8542	-2.7167	-2.9021	-2.7792	-2.8375	-2.8292	-2.8146	-2.6729	-3.0792	102.446	57.783	65.297	259.110	144.273	129.315	226.108	190.101	30.607	37.304	240.539	127.026	167.336	237.594	139.215	181.429	8.9265e-05	0.00041375	0.00011494	1252.1	1.2073e-06	3.6718e-06	1322.4	260.5	5.1938e-07	3.2273e-06	324.74	89.649	70.522	20.373	3.2687e-06	28.624	0.00018742	0.00018591	5.1524e-05	1220	2.0987e-06	2.0454e-06	1290.3	255.19	2.0934e-06	2.0296e-06	317.46	89.479	70.105	20.314	2.0352e-06	28.637	188.281	26.702	-16.487	-82.172	72.572	79.390	-81.905	-75.199	166.709	55.117	-75.288	-69.154	-68.709	-62.092	42.004	-61.776	-8191	255	
7461.791	1	1	0	0	0.30071	0.10133	0.1759	0.15141	0.16828	0.25782	0.12685	0.16535	0.04958	0.19331	0.19966	0.090628	0.14327	0.091648	0.15962	0.13743	-2.1854	-2.8937	-2.9104	-2.8167	-2.9083	-2.7313	-2.7521	-3.0042	-2.6479	-2.6979	-2.8875	-2.7938	-2.9417	-3.0833	-2.6583	-2.825	94.290	34.262	29.424	228.302	1.518	-41.632	173.116	99.225	253.951	151.503	10.910	-61.559	-46.532	146.913	53.186	113.432	9.2597e-05	0.00043799	0.00011028	1255.7	2.1752e-06	5.3181e-06	1319.6	259.97	1.3967e-06	1.6583e-06	323.92	88.98	69.622	20.455	2.3683e-06	28.528	0.00019143	0.00018585	5.129e-05	1220.2	2.0826e-06	1.995e-06	1288.4	255.18	2.111e-06	2.0597e-06	317.3	89.216	69.711	20.311	2.0451e-06	28.572	181.713	4.270	1.180	-81.962	84.999	78.408	-82.122	-75.033	-13.858	74.588	-75.663	-68.935	-68.494	-61.466	-23.319	-61.696	-8191	255	
7461.888	1	1	0	0	0.20981	0.27208	0.11295	0.12113	0.12642	0.11498	0.18029	0.22016	0.13967	0.030726	0.094061	0.16976	0.056263	0.23624	0.22333	0.20373	-2.0771	-2.7104	-2.8708	-2.6417	-2.8187	-2.8854	-2.7104	-3.0333	-2.5563	-2.8125	-3.0333	-2.5917	-2.9437	-2.9333	-2.6	-2.9958	254.901	-51.227	56.381	-51.642	53.071	11.899	258.535	175.902	-24.662	206.063	-9.453	-38.206	-78.185	117.808	31.664	-29.449	6.8718e-05	0.00017329	0.00020306	1255.6	7.8579e-07	3.8099e-06	1315.2	257.5	1.3159e-06	3.6519e-06	322.65	89.058	70.291	20.333	1.5513e-06	28.508	0.00019344	0.00019135	5.1297e-05	1220.7	2.1092e-06	1.9755e-06	1288.3	254.23	2.1406e-06	2.0562e-06	317.08	89.287	69.896	20.319	2.0394e-06	28.611	198.627	1.132	1.641	-82.149	122.664	60.362	-82.193	-75.173	1.478	101.046	-75.310	-69.117	-68.923	-61.957	19.436	-62.177	-8191	255	
7461.984	1	1	0	0	0.23718	0.064167	0.3436	0.38286	0.26066	0.34249	0.16589	0.21363	0.12472	0.19577	0.36816	0.03381	0.10972	0.16673	0.25115	0.081188	-2.3604	-2.7583	-2.9042	-2.8438	-2.7354	-2.7896	-2.625	-3.0458	-2.5771	-2.55	-3.0542	-2.6688	-3.0229	-2.8354	-2.6146	-2.9271	-28.637	-16.734	246.527	242.779	-73.452	143.090	207.172	-55.473	100.413	29.134	250.756	134.177	121.437	-88.929	34.270	19.650	6.7515e-05	0.00015443	4.1727e-05	1248	1.9114e-06	3.2029e-06	1313.5	258.18	6.2439e-07	2.8905e-06	322.96	89.144	69.918	20.227	2.1502e-06	28.579	0.0001866	0.00018458	5.2367e-05	1218.6	2.0761e-06	1.9885e-06	1284.7	254.47	2.0287e-06	2.0536e-06	317.16	89.214	69.793	20.303	1.9549e-06	28.593	203.864	-24.513	23.786	-82.114	66.029	25.026	-82.022	-75.233	-20.243	27.997	-75.550	-68.956	-68.884	-61.921	67.875	-62.088	-8191	255	
7462.055	1	1	0	0	0.22561	0.13365	0.19125	0.090273	0.078505	0.28208	0.080909	0.14739	0.25443	0.077127	0.20886	0.23387	0.20872	0.10093	0.077793	0.26899	-2.2958	-2.6167	-2.9729	-2.8	-2.7917	-2.8521	-2.6583	-2.75	-2.6417	-2.85	-3.0729	-2.575	-2.6479	-2.9396	-2.7	-2.9229	175.280	74.632	91.408	157.296	18.805	33.899	183.585	184.335	-69.894	170.479	190.957	-69.611	238.570	247.594	89.652	159.083	8.6251e-05	0.00020426	5.9434e-05	1250.9	1.2603e-06	2.1789e-06	1314.7	257.92	5.4041e-07	1.1665e-06	321.89	89.828	69.999	20.271	3.8233e-06	28.601	0.00018355	0.000187	4.8695e-05	1218.4	1.9984e-06	1.9553e-06	1283.7	254.09	2.0595e-06	2.0279e-06	315.55	89.457	69.711	20.288	1.98e-06	28.593	188.494	27.952	-25.939	-82.345	102.858	62.439	-81.907	-75.304	-42.436	77.194	-75.328	-68.950	-68.561	-61.954	76.604	-61.649	-8191	255	
7462.176	1	1	0	0	0.19386	0.14891	0.12205	0.12614	0.11753	0.080523	0.26476	0.066898	0.24685	0.13863	0.11127	0.15176	0.16405	0.11782	0.16637	0.049857	-2.3646	-2.6208	-2.925	-2.9125	-2.8604	-3.0312	-2.825	-3.1188	-2.8625	-2.7188	-3.125	-2.6271	-2.6896	-2.8292	-2.5938	-2.9042	109.152	241.996	-10.626	252.647	45.161	170.478	187.063	248.185	-16.701	-49.078	247.056	201.506	212.304	-62.331	83.483	182.553	9.0486e-05	0.00033028	0.00012423	1248.8	8.2474e-07	4.6625e-07	1307.8	257.16	1.8878e-06	4.2995e-06	323.63	89.218	69.882	20.445	1.8516e-06	28.41	0.00018146	0.00017663	4.948e-05	1214.9	2.0604e-06	1.9824e-06	1282.2	253.73	1.9753e-06	1.9601e-06	316.87	89.125	69.602	20.277	1.979e-06	28.527	190.400	25.434	15.653	-82.353	46.412	36.864	-81.897	-74.923	13.965	90.140	-75.493	-68.937	-68.747	-61.836	32.897	-62.082	-8191	255	
7462.272	1	1	0	0	0.057848	0.2859	0.17268	0.34625	0.19509	0.29316	0.20735	0.26631	0.027838	0.094103	0.169	0.21189	0.31886	0.13226	0.21374	0.32924	-2.3	-2.5354	-3.0687	-2.8167	-2.6458	-3.0667	-2.8646	-2.8042	-2.8125	-2.5938	-2.9229	-2.7417	-2.6396	-2.8521	-2.6917	-2.8542	-43.909	79.105	178.218	192.920	172.357	105.900	225.986	193.797	51.792	182.182	-78.930	163.830	237.677	-66.980	78.800	182.630	0.00010053	0.00016482	0.00010096	1249	1.4257e-06	3.6735e-06	1305.5	257.21	2.7769e-06	3.9052e-06	323.29	88.957	70.094	20.367	2.8218e-06	28.703	0.00017883	0.0001818	4.9812e-05	1213.4	2.0447e-06	1.9593e-06	1280.4	253.42	2.0199e-06	1.9535e-06	315.79	88.843	69.701	20.295	1.9924e-06	28.56	184.290	5.942	-1.478	-82.267	113.827	65.290	-82.087	-75.160	70.037	93.075	-75.180	-69.198	-69.082	-62.080	28.191	-62.273	-8191	255	
7462.368	1	1	0	0	0.052273	0.17893	0.10319	0.14326	0.26869	0.097631	0.37424	0.09634	0.076122	0.16718	0.12623	0.1327	0.099927	0.13039	0.13106	0.092452	-2.3604	-2.6375	-2.9042	-2.9042	-2.4875	-2.9458	-2.6896	-2.7896	-3.0021	-2.675	-2.8563	-2.9229	-2.7188	-3.0875	-2.6083	-2.8521	174.169	54.072	-52.225	181.734	75.215	5.894	157.959	97.464	207.754	94.171	190.117	55.569	260.466	-56.659	217.095	92.892	0.0001074	0.00049571	0.00016125	1250.5	1.5183e-06	2.6611e-06	1311.9	258.14	1.2824e-06	2.0871e-06	321.49	89.26	69.919	20.331	5.0001e-06	28.581	0.00018323	0.00018223	5.1385e-05	1212.2	2.0669e-06	2.0139e-06	1279.2	253.38	2.0135e-06	2.0339e-06	316.01	89.033	69.735	20.251	2.1155e-06	28.526	195.776	21.223	-11.300	-82.354	23.488	16.083	-82.174	-75.309	27.686	72.049	-75.324	-69.107	-68.702	-61.972	42.430	-62.059	-8191	255	
7462.464	1	1	0	0	0.13334	0.16331	0.15322	0.22309	0.013237	0.03253	0.20365	0.228	0.19735	0.13321	0.11586	0.21474	0.14695	0.064964	0.20781	0.23702	-2.6396	-2.5917	-2.8729	-2.9083	-2.6771	-3.0583	-2.8646	-2.7771	-3.0542	-2.6667	-2.8458	-2.9917	-2.5563	-2.7604	-2.65	-2.7188	104.913	127.471	238.723	252.712	9.587	97.536	176.850	192.852	-38.510	166.611	190.662	13.250	231.277	-41.829	46.935	68.719	9.2993e-05	8.682e-05	4.4344e-05	1242.8	2.8396e-06	4.2413e-06	1309.3	257.65	7.9099e-08	5.961e-06	320.71	88.939	70.225	20.281	4.2548e-06	28.464	0.00019215	0.00019647	5.4912e-05	1211.9	2.2672e-06	2.2515e-06	1280.9	253.1	2.2718e-06	2.253e-06	315.81	89.145	69.958	20.244	2.3696e-06	28.58	185.824	159.306	80.102	-82.336	47.797	28.749	-82.052	-75.134	47.055	103.143	-75.205	-69.404	-68.533	-61.846	83.032	-61.651	-8191	255	
7462.583	1	1	0	0	0.10512	0.20723	0.22541	0.2238	0.13976	0.017912	0.27519	0.44935	0.21209	0.043604	0.38738	0.083285	0.17159	0.24056	0.22682	0.28342	-2.5271	-2.5062	-2.7667	-3.1458	-2.7292	-3.0417	-2.9979	-2.7521	-3.0062	-2.7292	-2.9375	-2.8646	-2.4583	-2.9896	-2.6521	-2.6854	261.564	54.196	158.665	243.613	18.173	193.523	160.055	207.532	-53.212	132.981	250.007	31.885	172.420	-32.527	200.078	196.192	8.2599e-05	0.00026925	0.00012839	1254.9	2.493e-06	3.9735e-06	1317.5	258.08	1.4888e-06	2.308e-06	323.36	89.32	70.276	20.403	1.709e-06	28.743	0.00021551	0.00021545	5.9307e-05	1219.4	2.4718e-06	2.4026e-06	1286.4	254.35	2.4557e-06	2.3875e-06	317.6	89.468	70.056	20.374	2.3276e-06	28.671	186.416	-3.603	-18.134	-82.265	90.739	105.188	-82.194	-75.017	64.331	80.667	-75.331	-69.167	-68.867	-61.928	106.296	-61.945	-8191	255	
7462.679	1	1	0	0	0.14272	0.18389	0.13972	0.12533	0.12894	0.19688	0.29791	0.0039035	0.17461	0.18208	0.16711	0.47301	0.10982	0.12108	0.11194	0.25696	-2.4917	-2.6667	-2.6042	-2.9938	-2.5687	-2.9375	-3.0458	-2.7875	-2.9625	-2.8208	-2.8833	-2.8958	-2.7125	-2.7771	-2.9229	-2.6562	109.222	-40.506	41.396	220.636	147.294	6.105	183.384	189.535	-84.519	168.847	79.396	176.063	213.101	140.572	-35.229	179.816	8.3591e-05	0.00050883	0.00013369	1258.8	1.2491e-06	3.6279e-06	1321.5	258.8	2.1697e-06	4.1237e-06	324.3	89.431	69.677	20.441	2.9865e-06	28.797	0.00021032	0.00022265	6.0399e-05	1223.8	2.4304e-06	2.3454e-06	1289.9	255.18	2.3479e-06	2.3866e-06	318.43	89.433	69.932	20.403	2.3061e-06	28.701	188.437	-8.958	19.473	-82.185	109.033	36.500	-82.341	-75.403	35.688	31.554	-75.367	-69.139	-68.682	-61.958	74.060	-61.864	-8191	255	
7462.753	1	1	0	0	0.090009	0.19932	0.22524	0.28482	0.30775	0.20558	0.16053	0.13319	0.12075	0.21345	0.11952	0.088984	0.1215	0.13342	0.073701	0.076328	-2.5062	-2.6375	-2.6813	-2.9938	-2.8583	-2.8438	-3.0792	-2.9146	-2.7854	-2.7208	-2.7042	-3	-2.7396	-2.8063	-2.9562	-2.6813	-85.787	84.981	-55.271	208.109	226.293	161.332	214.234	-32.438	-69.511	94.014	214.703	-92.846	145.086	158.050	16.029	54.805	7.8134e-05	0.00033854	8.577e-05	1258	1.0122e-06	4.9721e-06	1316.7	259.73	2.6287e-06	3.1848e-06	323.64	89.436	70.727	20.363	1.4238e-06	28.505	0.00020634	0.00021013	5.7988e-05	1223.8	2.3326e-06	2.1487e-06	1287.7	254.98	2.2377e-06	2.215e-06	317.79	89.372	70.121	20.319	2.1072e-06	28.583	196.555	10.453	19.320	-82.094	134.995	47.997	-82.229	-75.173	-30.462	92.354	-75.356	-69.035	-69.060	-61.584	87.546	-61.567	-8191	255	
7462.872	1	1	0	0	0.17271	0.16224	0.14283	0.31245	0.30275	0.2347	0.2846	0.17979	0.11232	0.060466	0.47852	0.046063	0.18388	0.19621	0.19659	0.082033	-2.5062	-2.7792	-2.675	-3.0896	-2.9062	-2.7083	-3.0812	-2.6417	-2.7229	-3.0625	-2.5021	-2.8542	-2.6396	-2.8417	-3	-2.6042	-55.912	-58.337	25.867	-92.096	14.463	3.533	-88.647	197.720	-35.193	181.168	204.717	52.562	81.118	71.053	45.297	110.717	7.7675e-05	0.0003378	7.1205e-05	1258.5	1.9872e-06	1.7392e-06	1317.1	258.39	1.6344e-06	1.9929e-06	322.89	88.77	69.971	20.332	2.4898e-06	28.571	0.00019444	0.00019127	5.3735e-05	1220.8	2.1431e-06	2.0064e-06	1285.5	254.43	2.0763e-06	1.9702e-06	316.55	88.888	69.673	20.239	2.0209e-06	28.471	203.120	23.581	-22.239	-82.208	30.264	70.217	-82.172	-75.274	18.202	51.874	-75.341	-68.899	-69.189	-61.483	50.527	-62.098	-8191	255	
7462.968	1	1	0	0	0.098997	0.10482	0.21943	0.15508	0.28399	0.01959	0.16051	0.17941	0.3045	0.10621	0.2269	0.096669	0.20104	0.26945	0.14479	0.17473	-2.3417	-2.9417	-2.5771	-3.1521	-2.7979	-2.8396	-2.9854	-2.7396	-2.8979	-2.9354	-2.8	-3.0792	-3.0521	-2.7146	-2.8479	-2.6792	211.128	162.259	-84.725	238.653	136.260	101.146	228.116	213.204	-91.444	110.963	237.144	-58.861	173.365	-10.120	257.129	-70.550	6.9668e-05	9.5923e-05	7.4339e-05	1253.6	1.4763e-06	5.0164e-06	1314.1	257.28	9.8322e-07	2.1682e-06	321.79	88.45	69.75	20.216	2.2874e-06	28.563	0.00018675	0.00018486	5.0886e-05	1217.3	2.094e-06	2.0451e-06	1283.8	253.62	2.1055e-06	1.9885e-06	316.02	88.844	69.569	20.229	2.0449e-06	28.508	195.235	-55.783	19.971	-82.215	104.348	42.816	-82.149	-75.341	8.294	22.707	-75.317	-68.753	-68.767	-61.776	49.013	-62.044	-8191	255	
7463.064	1	1	0	0	0.25366	0.023054	0.11664	0.16692	0.33307	0.17873	0.12596	0.12195	0.12025	0.13667	0.055594	0.24374	0.060423	0.13222	0.45711	0.23646	-2.4604	-2.7708	-2.5458	-3	-2.8271	-2.7396	-3.0792	-2.6875	-2.7021	-3.0792	-2.7625	-2.8521	-2.8479	-2.7104	-2.7562	-2.6958	-14.713	-0.866	-19.557	232.046	-92.892	28.902	94.996	222.582	43.674	59.249	258.439	264.177	42.521	229.439	132.051	229.188	7.4295e-05	0.00048728	0.00011072	1247.9	9.4185e-07	3.7856e-06	1310.4	257.31	1.1833e-06	2.8618e-06	321.61	88.623	69.752	20.253	4.3069e-06	28.5	0.00019147	0.00019154	5.284e-05	1213.1	2.0355e-06	2.033e-06	1280.6	253.48	2.0871e-06	2.0316e-06	315.55	88.864	69.585	20.206	2.0278e-06	28.457	193.065	32.445	-25.417	-82.128	-13.749	64.782	-82.011	-75.076	26.142	85.318	-75.266	-69.328	-68.537	-61.460	43.402	-61.549	-8191	255	
7463.160	1	1	0	0	0.38136	0.12841	0.091105	0.16204	0.10591	0.12659	0.13263	0.089123	0.039819	0.12786	0.15379	0.016885	0.16705	0.28918	0.089615	0.25409	-2.3271	-2.8667	-2.6667	-2.9542	-2.8604	-2.5125	-2.8792	-2.7667	-2.6521	-3.1208	-2.7271	-2.8	-2.9458	-2.7938	-2.8375	-2.7271	-79.008	43.365	206.736	-53.187	193.907	111.178	121.692	-69.386	30.086	223.846	-67.887	22.338	-83.334	-82.997	69.988	-67.897	9.5494e-05	0.00036864	9.7308e-05	1247.8	2.175e-06	2.0847e-06	1310.3	256.88	5.8608e-07	4.824e-06	321.19	88.994	69.759	20.268	1.9773e-06	28.651	0.00018319	0.00018109	5.1497e-05	1212.6	2.1161e-06	2.0319e-06	1280.3	253.19	2.1142e-06	2.0376e-06	314.78	88.914	69.324	20.236	2.0725e-06	28.515	197.987	59.206	6.628	-82.347	80.957	52.892	-82.049	-75.252	-61.699	89.660	-75.310	-68.831	-68.887	-61.870	31.269	-62.116	-8191	255	
7463.281	1	1	0	0	0.16857	0.39877	0.21159	0.21954	0.44029	0.073045	0.031207	0.11549	0.060287	0.11528	0.32148	0.24186	0.15789	0.44291	0.16426	0.042515	-2.4688	-3.0333	-2.6396	-2.9042	-2.7396	-2.7292	-3.2208	-3.0312	-2.6771	-3.0271	-2.6146	-2.8979	-3.0771	-2.4688	-2.9542	-2.8333	178.757	77.530	133.601	231.492	185.211	53.861	205.616	126.440	-71.140	-73.689	187.533	220.157	167.503	239.632	28.901	182.420	6.818e-05	0.00022106	6.432e-05	1247.3	6.885e-07	6.4201e-07	1304.7	257.73	2.4594e-06	2.5948e-06	320.32	88.762	69.816	20.254	1.9596e-06	28.605	0.00019196	0.00018374	5.4356e-05	1213.2	2.0986e-06	2.0378e-06	1278.7	253.3	2.1595e-06	2.0689e-06	314.89	88.875	69.575	20.162	2.0574e-06	28.473	205.470	-4.460	-26.899	-82.204	24.054	28.907	-82.025	-75.017	38.328	32.061	-75.395	-68.945	-68.962	-62.059	84.660	-61.831	-8191	255	
7463.353	1	1	0	0	0.238	0.24389	0.096065	0.24922	0.026273	0.29924	0.24537	0.18002	0.11618	0.202	0.15324	0.22949	0.093121	0.1465	0.13307	0.035461	-2.1417	-2.8604	-2.7125	-2.8354	-2.9979	-2.7333	-3.0625	-2.8812	-2.5583	-3.0542	-2.7604	-2.7979	-3.0625	-2.7354	-2.9188	-2.9229	223.993	-26.834	121.351	211.694	56.395	134.989	232.935	131.801	167.159	184.047	-91.616	195.176	45.479	209.653	68.928	9.335	6.2693e-05	0.00013822	0.00010512	1244.3	2.5244e-07	1.1565e-06	1312.5	256.77	1.4556e-06	2.6001e-06	320.59	88.435	69.657	20.308	2.6584e-06	28.516	0.00019052	0.00018871	5.2683e-05	1211	2.1036e-06	2.1171e-06	1279.4	252.8	2.084e-06	2.0787e-06	314.77	88.633	69.255	20.176	2.0479e-06	28.416	197.545	-8.109	7.662	-82.024	52.011	101.581	-82.138	-75.417	35.362	77.191	-75.467	-68.869	-68.712	-61.447	38.722	-62.054	-8191	255	
7463.473	1	1	0	0	0.17635	0.12551	0.096473	0.26121	0.21072	0.088416	0.18614	0.22172	0.19896	0.15851	0.23817	0.18105	0.12537	0.088367	0.051389	0.071588	-2.0687	-2.9229	-2.6396	-2.8167	-3.0938	-2.5958	-2.7854	-2.8875	-2.65	-2.9771	-2.9021	-2.6188	-2.9688	-2.6562	-2.8958	-2.9625	172.927	-65.139	-75.609	-80.547	-58.155	-89.357	196.514	227.488	246.497	200.284	137.386	227.402	-65.190	217.781	220.732	238.887	7.9322e-05	0.00036048	0.00010342	1246.1	7.6477e-07	3.2069e-06	1306.7	256.3	1.1647e-06	9.5878e-07	320.74	88.318	70.119	20.229	1.3658e-06	28.583	0.00018922	0.00018839	5.1469e-05	1211.9	2.0726e-06	2.0194e-06	1277.6	252.61	2.0599e-06	2.0193e-06	315.07	88.548	69.567	20.176	2.0453e-06	28.431	178.010	6.214	10.983	-82.162	-74.590	24.524	-81.854	-75.323	34.603	78.641	-75.438	-69.336	-68.625	-62.269	102.899	-62.215	-8191	255	
7463.569	1	1	0	0	0.23642	0.11701	0.30709	0.064824	0.08624	0.050388	0.31449	0.095119	0.23914	0.11516	0.11541	0.25381	0.32601	0.044418	0.038855	0.15343	-2.0771	-2.9542	-2.775	-2.8125	-2.8292	-2.6229	-2.8396	-2.9729	-2.7292	-2.9521	-2.8667	-2.7271	-2.9042	-2.6021	-2.6437	-2.8854	-56.970	243.631	139.718	134.304	116.776	48.872	202.710	226.339	190.688	27.007	136.320	153.741	85.895	49.923	187.482	259.789	9.6601e-05	0.00022256	4.4186e-05	1243.4	9.9365e-07	4.5525e-06	1305.6	256.73	3.4404e-06	2.8587e-06	319.48	88.885	69.279	20.236	2.8342e-06	28.353	0.00019007	0.00018661	5.1696e-05	1210.7	2.074e-06	2.0251e-06	1276.5	252.2	2.1004e-06	2.0074e-06	314.64	88.856	69.401	20.161	2.0572e-06	28.415	174.913	12.056	-67.597	-82.235	112.555	22.114	-82.063	-75.456	38.735	79.831	-75.227	-69.535	-68.607	-61.945	112.973	-61.921	-8191	255	
7463.664	1	1	0	0	0.031771	0.31882	0.093229	0.15643	0.19542	0.29446	0.33615	0.13849	0.060109	0.17578	0.094247	0.16426	0.12968	0.1296	0.15396	0.02015	-2.2229	-2.7438	-2.8979	-2.7958	-2.9167	-2.6646	-2.8208	-3.0104	-2.3896	-2.9062	-2.8271	-2.675	-2.9271	-2.775	-2.7	-2.9583	-17.135	108.835	44.141	214.742	43.500	-66.813	182.011	174.660	11.286	25.374	242.444	-36.202	-41.583	156.129	165.221	164.003	7.2274e-05	0.00032183	6.6138e-05	1250	1.083e-06	2.0936e-06	1308.1	257.29	1.4888e-06	5.651e-06	320.63	88.543	69.639	20.226	1.3889e-06	28.403	0.00018926	0.00018372	5.0355e-05	1211.6	2.0572e-06	2.0074e-06	1279.6	252.93	2.0989e-06	2.0153e-06	314.31	88.637	69.41	20.208	2.0077e-06	28.411	191.556	37.502	-38.613	-82.129	68.942	67.846	-82.187	-75.290	66.930	89.365	-75.553	-69.338	-69.036	-61.478	79.854	-62.010	-8191	255	
7463.760	1	1	0	0	0.24806	0.064721	0.25963	0.38194	0.16766	0.27173	0.24654	0.19221	0.06479	0.043179	0.14036	0.16293	0.10057	0.1905	0.063295	0.094605	-2.2396	-2.8458	-2.8812	-2.7062	-2.8375	-2.7271	-2.7687	-2.9646	-2.7521	-2.7521	-3.075	-2.5896	-2.8583	-2.9083	-2.6813	-3.0229	26.767	-25.442	-6.407	-29.250	-54.665	-18.986	169.736	127.370	225.049	207.356	193.336	-90.599	250.768	202.234	61.881	51.864	8.3014e-05	0.00041074	0.00012482	1246.6	1.943e-06	3.0077e-06	1306.3	255.24	3.0822e-06	4.2352e-06	320.82	89.227	69.611	20.177	3.258e-06	28.563	0.00018633	0.00018506	5.3494e-05	1213.5	2.1002e-06	2.0434e-06	1278.6	252.44	2.0759e-06	2.0123e-06	315.14	88.996	69.231	20.16	2.0235e-06	28.485	180.553	-32.805	8.635	-82.315	73.797	37.157	-82.076	-75.061	45.147	100.469	-75.394	-68.981	-68.620	-61.872	96.838	-61.875	-8191	255	
7463.880	1	1	0	0	0.20519	0.15125	0.1698	0.16152	0.24235	0.16582	0.25919	0.28351	0.1044	0.23567	0.32703	0.25071	0.25911	0.20138	0.30915	0.17774	-2.2833	-2.5979	-2.9354	-2.7375	-2.9125	-2.8333	-2.5875	-3.0146	-2.7479	-2.6771	-3.1042	-2.6479	-2.8125	-2.9813	-2.5771	-2.875	136.498	25.176	-5.838	-56.719	-34.191	36.491	199.466	222.007	-12.012	27.556	179.017	170.138	-31.170	-24.845	235.148	162.501	8.803e-05	0.00017234	8.9736e-05	1246.5	1.5898e-06	2.5978e-06	1306.6	256.63	1.6838e-06	1.8127e-06	322.14	88.632	69.623	20.335	1.6783e-06	28.635	0.00018494	0.00018399	4.9405e-05	1212	2.0705e-06	1.9943e-06	1280.2	252.98	2.0657e-06	2.0244e-06	315.65	88.694	69.366	20.177	1.9877e-06	28.458	196.266	4.247	-5.889	-82.055	74.827	59.520	-81.942	-74.896	31.186	86.672	-75.242	-69.097	-68.556	-61.692	-28.432	-62.086	-8191	255	
7463.977	1	1	0	0	0.20083	0.092131	0.14687	0.13465	0.13376	0.17015	0.32692	0.13159	0.12674	0.1279	0.14638	0.31569	0.12419	0.30974	0.20285	0.16825	-2.3604	-2.5229	-2.9125	-2.7917	-2.7625	-2.875	-2.6854	-2.9354	-2.7646	-2.6833	-3.0896	-2.7354	-2.9146	-2.9208	-2.425	-3.0104	104.624	-15.252	116.823	235.790	1.824	-67.972	208.160	-69.055	191.182	226.642	257.674	204.171	238.298	6.908	13.451	146.685	7.9866e-05	0.0002529	0.00010388	1250.6	6.4318e-07	8.8305e-07	1315	256.84	1.0373e-06	4.1046e-06	319.83	88.717	69.397	20.223	1.2127e-06	28.589	0.00018113	0.00018117	5.1215e-05	1213.7	2.0164e-06	1.9453e-06	1280.9	252.74	2.0059e-06	1.9381e-06	314.27	88.704	69.217	20.167	2.0239e-06	28.484	184.980	11.735	12.376	-82.162	6.065	8.302	-82.050	-75.170	81.934	114.223	-75.313	-69.042	-68.503	-62.004	37.418	-61.774	-8191	255	
7464.048	1	1	0	0	0.11395	0.186	0.18062	0.19294	0.23903	0.15033	0.29669	0.063532	0.079746	0.11267	0.1835	0.16987	0.17257	0.16362	0.15414	0.12411	-2.3958	-2.6479	-2.6625	-2.7979	-2.5875	-2.9958	-2.7854	-2.9583	-2.8042	-2.5312	-2.95	-2.5938	-2.8563	-2.9458	-2.7875	-2.9542	230.570	144.916	0.865	255.500	91.442	-46.094	181.930	244.025	102.933	126.476	-30.296	-77.124	-46.881	-27.000	173.225	178.529	0.00010395	0.00024228	0.00010274	1244	3.0928e-07	3.1852e-06	1306	256.98	1.2822e-06	3.6697e-06	320.17	88.365	69.54	20.048	3.7456e-06	28.336	0.00018216	0.00017824	4.9188e-05	1210.9	2.0255e-06	1.9343e-06	1274.8	252.32	1.9659e-06	1.8753e-06	313.53	88.038	69.118	20.011	1.8585e-06	28.272	202.655	24.346	14.198	-82.204	13.636	63.218	-82.199	-74.967	14.903	101.141	-75.255	-68.763	-68.985	-62.082	10.845	-61.953	-8191	255	
7464.144	1	1	0	0	0.33505	0.2224	0.29397	0.23878	0.020853	0.32486	0.089469	0.077433	0.045553	0.18074	0.1406	0.13499	0.24442	0.054618	0.13193	0.11509	-2.3625	-2.6146	-3.0604	-2.7812	-2.8833	-2.8438	-2.8854	-2.9479	-2.7646	-2.5875	-2.8125	-2.7875	-2.6208	-2.9542	-2.8312	-2.75	79.353	9.673	195.816	231.805	7.021	19.430	249.056	205.887	139.542	-33.899	161.997	20.747	47.013	134.760	-75.561	-92.588	7.9771e-05	0.00015699	9.8475e-05	1234.6	1.0439e-06	1.4022e-06	1293.1	254.75	1.0898e-06	4.368e-06	319.68	88.109	68.738	19.996	2.0415e-06	28.181	0.00017351	0.00016936	4.665e-05	1200.8	1.8928e-06	1.8427e-06	1263.8	249.98	1.8477e-06	1.7852e-06	312.22	87.984	68.637	19.963	1.7956e-06	28.108	220.406	-4.792	-49.698	-82.083	78.800	-12.299	-82.129	-75.188	92.398	61.890	-75.194	-69.343	-68.575	-61.505	102.088	-61.924	-8191	255	
7464.241	1	1	0	0	0.073348	0.060885	0.078937	0.27689	0.18127	0.17684	0.20598	0.16248	0.25505	0.29927	0.39511	0.16854	0.2646	0.18986	0.27155	0.15921	-2.4625	-2.6958	-2.85	-2.9771	-2.625	-2.925	-2.8333	-2.9271	-2.85	-2.5396	-2.9437	-2.9146	-2.5812	-2.9646	-2.7833	-2.7188	83.110	-65.804	91.864	201.205	102.916	202.400	196.928	192.915	-37.048	81.974	258.636	-14.056	-55.755	-56.883	71.993	15.282	6.5338e-05	0.00044816	0.0001248	1228.8	1.1621e-06	4.8502e-06	1288.2	252.91	1.5399e-06	3.2757e-06	316.53	87.705	69.02	19.879	4.658e-06	28.255	0.00016891	0.00016805	4.6371e-05	1194.1	1.8607e-06	1.7559e-06	1261.1	249.08	1.8184e-06	1.8283e-06	310.68	87.849	68.38	19.821	1.7709e-06	28.09	185.124	28.027	-19.839	-82.072	89.758	54.515	-82.146	-75.094	35.936	43.171	-75.265	-69.130	-68.661	-61.406	52.050	-61.910	-8191	255	
7464.361	1	1	0	0	0.14749	0.017382	0.26662	0.25875	0.044733	0.056695	0.22197	0.099688	0.08968	0.30683	0.18549	0.13424	0.2107	0.25346	0.14926	0.31375	-2.7146	-2.6	-2.8583	-3.1042	-2.8021	-2.9354	-2.9062	-2.8479	-2.9354	-2.4917	-2.9021	-3.0125	-2.6021	-2.9313	-2.7833	-2.7313	28.466	196.348	-49.186	262.526	143.175	29.791	215.141	216.949	183.595	157.962	132.472	188.603	240.115	-24.582	35.898	119.609	9.1296e-05	0.00030931	9.0421e-05	1225.1	8.7997e-07	4.5494e-06	1287	253.54	6.2052e-07	1.3007e-07	317.02	87.483	68.748	19.883	2.6134e-06	28.031	0.00016351	0.00015601	4.592e-05	1190.9	1.8567e-06	1.7772e-06	1256.6	248.5	1.8046e-06	1.7735e-06	310.69	87.425	68.313	19.841	1.7643e-06	28.044	199.084	45.243	55.249	-81.833	74.765	12.961	-81.845	-74.996	75.779	253.097	-75.268	-69.117	-68.332	-61.570	49.321	-61.828	-8191	255	
7464.457	1	1	0	0	0.12729	0.28415	0.075279	0.23564	0.26007	0.21487	0.14149	0.21324	0.090438	0.10809	0.099122	0.13065	0.22099	0.16439	0.24907	0.090366	-2.4708	-2.6521	-2.7396	-3.1792	-2.6083	-2.7729	-3.0187	-2.4917	-2.9854	-2.7042	-2.9021	-2.9083	-2.6417	-2.9125	-2.7958	-2.6458	202.486	111.138	237.357	165.980	87.141	-71.225	222.715	194.201	-91.135	174.623	-59.560	26.058	-81.637	265.627	92.845	142.129	9.5825e-05	0.0003161	0.00011867	1224.6	2.5471e-06	2.6278e-06	1281.1	251.88	1.9358e-06	2.9428e-06	316.27	87.554	68.06	19.985	1.5972e-06	27.987	0.00016322	0.00015948	4.4828e-05	1189.7	1.8069e-06	1.7731e-06	1254.1	247.9	1.7798e-06	1.7175e-06	309.87	87.335	67.955	19.832	1.7337e-06	28.048	202.995	5.150	32.974	-81.985	56.227	43.590	-82.141	-75.235	39.152	73.021	-75.520	-68.954	-68.604	-61.652	55.415	-61.302	-8191	255	
7464.554	1	1	0	0	0.25698	0.14668	0.30917	0.25543	0.088817	0.11125	0.26578	0.1404	0.24354	0.15282	0.054982	0.091264	0.25656	0.11862	0.13898	0.38234	-2.3458	-2.8792	-2.8208	-3.0833	-2.6333	-2.8458	-3.0646	-2.7958	-3.0812	-2.6667	-2.6667	-3.1833	-2.6437	-2.8958	-2.9917	-2.7729	230.308	126.358	53.239	-63.163	54.299	201.775	168.759	235.779	94.605	82.766	111.478	233.111	48.982	150.061	98.148	245.919	8.1985e-05	0.00028565	0.00010046	1225.5	4.2029e-07	2.8298e-06	1281.8	251.77	9.4977e-07	4.9719e-06	317.26	87.171	68.203	19.938	2.3779e-06	27.845	0.00016157	0.00016016	4.3659e-05	1187.6	1.8235e-06	1.7383e-06	1252.2	247.27	1.7385e-06	1.7105e-06	309.74	87.154	68.107	19.848	1.7445e-06	27.927	184.460	-5.782	8.597	-81.916	-14.827	52.739	-82.030	-75.406	75.590	90.590	-75.481	-69.135	-68.680	-61.366	66.774	-61.592	-8191	255	
7464.650	1	1	0	0	0.16423	0.26181	0.037565	0.17189	0.097863	0.19784	0.033227	0.16454	0.16076	0.17598	0.16763	0.18926	0.23039	0.26297	0.1671	0.26075	-2.4646	-2.9104	-2.7583	-3.1021	-2.5687	-2.7062	-2.9375	-2.6396	-2.9042	-2.7188	-2.6312	-3.0042	-2.6896	-2.75	-2.9292	-2.5604	149.287	7.568	-78.942	101.960	-0.888	-67.714	248.101	89.992	-56.962	118.519	154.523	-71.475	256.736	77.627	167.606	213.566	8.862e-05	0.00022311	0.00011826	1220.6	1.7734e-06	3.6149e-06	1280.5	251.81	1.7556e-06	2.656e-06	314.87	87.355	68.651	19.941	4.5576e-06	28.005	0.00016443	0.0001629	4.3502e-05	1184.2	1.8268e-06	1.7501e-06	1252.5	247.52	1.8166e-06	1.7103e-06	308.9	87.271	68.03	19.796	1.7387e-06	27.994	176.164	27.621	-26.806	-81.962	46.590	42.265	-82.024	-74.962	41.120	112.404	-74.987	-69.116	-68.786	-61.236	101.533	-62.049	-8191	255	
7464.744	1	1	0	0	0.07331	0.09263	0.24822	0.14733	0.21059	0.033585	0.16502	0.036974	0.091339	0.23432	0.29806	0.024047	0.060356	0.18843	0.26004	0.20245	-2.6083	-2.8937	-2.675	-3.0583	-2.6813	-2.9667	-3.1167	-2.6729	-2.8271	-2.7896	-2.7729	-3.0833	-2.7625	-2.7417	-2.975	-2.6625	71.497	61.256	-55.712	27.395	66.760	126.767	-90.229	160.819	38.026	-64.841	181.121	154.531	131.554	191.018	90.335	239.456	9.2607e-05	0.00023951	0.00012298	1217.1	4.3153e-07	2.6711e-06	1275.2	251.11	1.1929e-06	5.138e-06	314.8	86.389	68.435	19.93	1.8855e-06	28.098	0.00016387	0.00016169	4.5389e-05	1183.7	1.861e-06	1.8034e-06	1249.2	247	1.8173e-06	1.7965e-06	308.18	86.839	68.113	19.776	1.757e-06	27.951	175.424	36.713	21.512	-82.105	113.930	92.112	-82.074	-74.928	-20.644	81.618	-75.592	-68.880	-68.540	-61.593	93.009	-61.657	-8191	255	
7464.840	1	1	0	0	0.26002	0.12493	0.29525	0.028936	0.28069	0.24769	0.21094	0.10282	0.10057	0.10541	0.098892	0.11536	0.10841	0.046375	0.24946	0.051374	-2.4167	-2.7792	-2.6958	-3.1917	-2.8958	-2.7167	-3.0396	-2.7708	-2.875	-2.9771	-2.7313	-2.9729	-2.7729	-2.8104	-2.9542	-2.7417	115.390	228.711	205.121	-53.594	-28.987	128.136	256.760	-0.058	-12.507	77.794	-63.591	-25.005	232.906	7.500	109.742	199.049	9.5523e-05	0.00042067	0.00012708	1217.7	1.3943e-06	1.9211e-06	1277.8	251.03	2.5311e-06	5.4701e-06	314.25	87.525	68.221	19.986	4.0838e-06	27.759	0.00016541	0.00016308	4.5065e-05	1183.8	1.8334e-06	1.7594e-06	1246.5	246.37	1.8526e-06	1.7664e-06	307.92	86.939	67.961	19.79	1.7863e-06	27.811	198.251	18.438	-21.559	-81.929	52.060	55.349	-81.852	-74.937	-6.784	23.636	-75.124	-68.910	-68.492	-61.597	82.590	-61.822	-8191	255	
7464.961	1	1	0	0	0.24873	0.18872	0.2739	0.38243	0.064155	0.22869	0.089728	0.059402	0.10883	0.14991	0.1233	0.025244	0.14863	0.17489	0.054809	0.11699	-2.4208	-3.0375	-2.7292	-2.9958	-2.9396	-2.7188	-3.0958	-2.7125	-2.8458	-2.9604	-2.6729	-3.0229	-2.95	-2.5187	-2.8563	-3.0042	133.777	13.186	-43.194	242.267	64.183	-23.342	124.181	67.023	169.564	45.267	194.883	53.827	263.500	57.673	-57.154	-16.803	0.00010982	0.00019701	0.00011935	1215.1	1.1705e-06	3.976e-06	1270.7	250.66	8.9566e-07	3.634e-06	313.33	86.882	68.402	19.865	1.0499e-06	27.808	0.00016372	0.00016431	4.428e-05	1180.6	1.7967e-06	1.7374e-06	1243.7	246.41	1.8121e-06	1.7172e-06	307.2	86.978	67.881	19.744	1.7721e-06	27.824	193.476	-24.723	13.266	-82.109	114.811	84.311	-81.960	-75.326	117.056	41.912	-75.361	-68.941	-68.611	-61.593	-47.625	-61.840	-8191	255	
7465.057	1	1	0	0	0.0049293	0.19986	0.22022	0.08142	0.1587	0.093222	0.33824	0.31105	0.093613	0.23426	0.15128	0.16577	0.069406	0.1834	0.21103	0.085062	-2.45	-2.9292	-2.5229	-3.0187	-2.5771	-2.7313	-2.8521	-2.8771	-2.8333	-3.0896	-2.6583	-2.9146	-2.9396	-2.4333	-2.9208	-2.6979	83.496	60.913	180.290	-48.747	112.712	153.975	199.088	227.043	129.213	219.437	256.086	117.450	171.128	97.086	-86.307	98.218	7.1308e-05	0.00039216	8.8602e-05	1214.3	1.4161e-06	2.6417e-06	1276.4	249.6	9.3889e-07	3.9232e-06	313.13	86.708	67.918	19.753	2.0574e-06	27.96	0.00015874	0.00015737	4.5598e-05	1179.6	1.7545e-06	1.7634e-06	1246	245.8	1.7348e-06	1.696e-06	307.14	86.734	67.562	19.694	1.7373e-06	27.838	194.621	-3.195	-17.681	-82.331	-8.841	25.891	-82.108	-75.242	-8.306	30.983	-75.278	-69.145	-68.197	-61.652	41.655	-62.114	-8191	255	
7465.153	1	1	0	0	0.10047	0.30423	0.18539	0.32245	0.085013	0.15026	0.2106	0.087637	0.18325	0.15178	0.2263	0.028042	0.095599	0.24905	0.14387	0.46755	-2.1521	-2.9396	-2.4646	-2.9271	-2.9062	-2.5479	-3.0104	-2.875	-2.6417	-2.825	-2.7667	-2.6958	-2.8563	-2.5583	-3.0187	-2.8292	54.242	239.405	-59.114	227.835	81.255	104.617	197.516	129.058	-2.782	-47.468	185.178	224.870	11.165	54.624	169.307	238.165	7.969e-05	0.00030929	6.8718e-05	1209.5	1.4182e-06	2.7909e-06	1273.7	249.81	1.4909e-06	2.5085e-06	313.53	86.234	68.552	19.767	3.3272e-06	27.754	0.00016405	0.00015519	4.424e-05	1177.9	1.7647e-06	1.7362e-06	1244.5	245.72	1.7467e-06	1.679e-06	307.19	86.706	67.81	19.696	1.641e-06	27.717	178.815	-14.918	-24.771	-82.001	70.019	68.809	-81.980	-74.953	24.380	81.120	-75.138	-69.006	-68.365	-61.642	30.241	-61.777	-8191	255	
7465.249	1	1	0	0	0.1187	0.10002	0.22227	0.1331	0.2065	0.094571	0.319	0.14788	0.31324	0.40086	0.25331	0.2691	0.081184	0.14514	0.094044	0.069658	-2.1125	-2.8354	-2.7083	-2.9375	-2.9646	-2.7396	-2.9917	-2.9208	-2.775	-3.0083	-2.8438	-2.6958	-2.9646	-2.7229	-2.7979	-3.0542	163.525	153.796	209.794	198.928	158.089	96.567	203.816	219.953	-65.708	-92.067	118.786	-77.055	-86.252	-65.376	-90.620	11.664	6.4827e-05	0.00017891	7.9851e-05	1209.3	9.8483e-07	3.9338e-06	1271.5	248.28	1.3586e-06	6.0581e-06	313.4	86.752	67.786	19.662	2.4798e-06	27.64	0.00015365	0.00015289	4.3078e-05	1176.6	1.6926e-06	1.6689e-06	1242.1	245.08	1.7153e-06	1.7147e-06	306.45	86.585	67.514	19.652	1.6798e-06	27.719	203.283	43.683	8.069	-82.041	37.848	28.301	-81.807	-75.350	28.268	55.352	-75.407	-68.626	-68.581	-61.570	119.473	-61.794	-8191	255	
7465.345	1	1	0	0	0.26908	0.18619	0.069745	0.072512	0.15881	0.10632	0.14788	0.28312	0.19327	0.085045	0.32059	0.2267	0.22264	0.012206	0.089838	0.082937	-2.1083	-2.8875	-2.8375	-2.8917	-2.8937	-2.6979	-2.7562	-3.1271	-2.7708	-2.9292	-2.9938	-2.6333	-2.9896	-2.8521	-2.8792	-3.0062	116.368	25.244	121.076	215.254	112.245	57.517	69.448	196.017	54.771	-61.596	197.755	-89.297	168.214	191.476	148.316	143.621	8.5168e-05	0.00033385	8.132e-05	1211.3	2.504e-06	2.9264e-06	1268.2	248.79	9.3601e-07	2.8736e-06	313.09	86.408	68.173	19.66	2.0141e-06	27.871	0.00015867	0.00014839	4.3292e-05	1175.2	1.7428e-06	1.6757e-06	1237.8	245.01	1.7713e-06	1.685e-06	306.09	86.518	67.598	19.669	1.7368e-06	27.863	174.318	17.625	-6.678	-82.013	82.705	36.466	-82.009	-74.945	-69.805	87.781	-75.329	-68.648	-68.571	-61.622	50.238	-61.783	-8191	255	
7465.442	1	1	0	0	0.16002	0.2574	0.291	0.30269	0.10417	0.062672	0.27942	0.1498	0.25555	0.15983	0.21046	0.26281	0.32337	0.034831	0.071131	0.19275	-2.1813	-2.8854	-2.7958	-2.8917	-2.9167	-2.7771	-3.0333	-3.1479	-2.7646	-2.8792	-2.9396	-2.6833	-2.7812	-2.5917	-2.7188	-2.975	138.372	103.391	16.680	235.104	171.939	66.017	236.123	178.765	51.800	72.644	211.532	240.344	262.154	36.071	51.907	210.336	8.0489e-05	0.00029135	0.00011853	1209.3	4.5297e-07	2.0765e-06	1270.8	249.48	5.649e-07	2.4044e-06	314.17	86.83	68.118	19.727	2.0034e-06	27.949	0.00016344	0.00015952	4.3422e-05	1176.1	1.7834e-06	1.7412e-06	1241.5	244.92	1.8138e-06	1.7701e-06	306.91	86.581	67.682	19.682	1.7551e-06	27.846	207.526	-0.623	-32.041	-82.054	61.861	75.652	-81.982	-75.123	15.490	32.700	-75.096	-69.301	-68.490	-61.413	53.232	-61.535	-8191	255	
7465.561	1	1	0	0	0.056889	0.09964	0.19749	0.24119	0.12775	0.16887	0.14799	0.2108	0.095319	0.096294	0.061449	0.24959	0.31348	0.24553	0.067696	0.27858	-2.3667	-2.875	-2.8604	-2.7125	-2.9333	-2.6813	-2.8875	-3.0167	-2.7146	-2.8375	-2.9437	-2.6562	-2.8812	-2.8417	-2.7875	-3.0187	98.491	222.848	199.815	221.374	125.722	-89.431	241.463	266.298	156.214	74.745	-89.931	-70.393	-45.077	-64.000	-39.652	-92.089	8.1172e-05	0.00038543	0.00015586	1218.8	1.5888e-06	2.1257e-06	1272.8	250.09	2.648e-06	3.8019e-06	314.88	87.046	67.42	19.777	2.8792e-06	27.914	0.00016595	0.00015859	4.5397e-05	1178.8	1.8659e-06	1.8037e-06	1243.2	245.8	1.8604e-06	1.8146e-06	307.39	86.925	67.596	19.706	1.7864e-06	27.866	179.425	-16.279	-24.678	-82.259	78.865	35.583	-82.206	-75.130	54.184	76.380	-75.260	-69.175	-68.987	-61.436	65.291	-61.595	-8191	255	
7465.657	1	1	0	0	0.12334	0.046503	0.13158	0.3104	0.25447	0.11378	0.081943	0.038446	0.095013	0.098692	0.25041	0.21902	0.20875	0.067639	0.10688	0.14105	-2.1708	-2.7792	-2.9646	-2.7021	-2.8042	-2.7562	-2.9146	-3.0896	-2.7313	-2.85	-2.9833	-2.6229	-2.8458	-2.9229	-2.6083	-3.0604	115.995	221.989	94.667	241.032	75.655	45.164	147.350	190.325	192.076	167.622	121.838	265.532	223.402	14.288	157.617	237.046	7.0878e-05	0.00022321	0.00013683	1210.5	6.6082e-07	2.9352e-06	1275.2	249.09	5.3066e-07	3.4703e-06	312.41	86.857	68.345	19.773	2.708e-06	27.933	0.00016711	0.00015871	4.3995e-05	1179	1.8475e-06	1.7428e-06	1246.8	245.48	1.8246e-06	1.8338e-06	306.68	86.792	67.951	19.714	1.8111e-06	27.899	196.024	72.071	5.160	-82.041	71.054	29.241	-81.837	-75.078	21.735	75.894	-75.627	-69.056	-68.458	-61.441	-7.261	-61.771	-8191	255	
7465.753	1	1	0	0	0.28876	0.13215	0.17056	0.13088	0.20704	0.10875	0.056136	0.10571	0.18038	0.078725	0.20658	0.1617	0.23512	0.22679	0.055628	0.084086	-2.1375	-2.6583	-2.9604	-2.7583	-2.9021	-2.8667	-2.8604	-2.9354	-2.7083	-2.8375	-3.0417	-2.6792	-2.8042	-2.8625	-2.5563	-3.0812	93.349	33.994	-77.510	42.816	253.915	121.946	223.158	254.435	-32.507	154.356	-28.111	200.938	182.124	181.467	-74.839	17.158	9.1616e-05	0.00026383	0.00013539	1216.9	2.5962e-06	3.2028e-06	1276.2	250.71	1.9917e-06	1.6562e-06	312.75	86.9	68.314	19.75	3.3001e-06	27.78	0.00016828	0.00016639	4.5536e-05	1181	1.8542e-06	1.7673e-06	1245.2	246.22	1.8425e-06	1.7539e-06	307.08	86.769	67.812	19.702	1.7344e-06	27.813	178.548	42.653	-22.142	-81.862	78.884	56.170	-82.008	-75.001	22.158	92.182	-75.189	-69.207	-68.661	-61.739	46.452	-61.592	-8191	255	
7465.849	1	1	0	0	0.11485	0.059457	0.15636	0.38837	0.068704	0.062024	0.19591	0.28039	0.26252	0.094564	0.061134	0.13982	0.17976	0.12726	0.15071	0.20109	-2.4042	-2.7542	-2.9292	-2.7542	-2.8979	-2.9104	-2.8583	-3.1167	-2.85	-2.8375	-3.0312	-2.7458	-2.8312	-2.9479	-2.5104	-3.0125	63.157	-92.514	130.182	207.212	6.068	49.714	139.028	213.319	-52.798	27.418	-67.937	0.191	17.045	169.329	69.321	189.360	7.6444e-05	0.00018573	0.00014586	1220	7.2825e-07	2.7252e-06	1273.4	249.56	1.2878e-06	5.0579e-06	311.8	86.971	68	19.748	2.7398e-06	27.911	0.00016752	0.00016283	4.6204e-05	1183	1.9049e-06	1.6879e-06	1246.9	245.88	1.8411e-06	1.726e-06	306.92	86.875	67.652	19.741	1.7468e-06	27.881	204.825	4.021	-5.544	-82.015	123.809	50.946	-82.083	-75.073	19.881	92.891	-75.172	-69.042	-68.426	-61.814	51.563	-61.690	-8191	255	
7465.921	1	1	0	0	0.24916	0.16763	0.19872	0.1703	0.29647	0.20399	0.22294	0.287	0.13544	0.080095	0.16972	0.18065	0.20595	0.19437	0.15711	0.11973	-2.4479	-2.6521	-3.0625	-2.9396	-2.7458	-3.0312	-2.6937	-2.9688	-2.9042	-2.7708	-3.175	-2.7604	-2.9479	-2.9583	-2.525	-2.8104	-26.310	54.689	49.798	225.741	264.428	131.559	201.255	220.754	135.651	143.831	137.475	225.611	173.729	231.771	87.123	47.383	6.9477e-05	0.00041333	0.00010853	1212.5	6.2292e-07	4.3985e-06	1278.2	250.06	2.0285e-06	1.1571e-06	316.23	87.088	67.975	19.703	1.878e-06	28.124	0.00016647	0.00016282	4.5559e-05	1181.9	1.8565e-06	1.7471e-06	1248.2	246.11	1.8559e-06	1.7715e-06	308.64	87.028	67.931	19.727	1.7407e-06	27.936	203.257	-6.089	-5.459	-82.126	87.332	84.575	-82.004	-75.121	16.906	-23.365	-75.174	-69.182	-68.834	-61.466	146.180	-61.874	-8191	255	
7466.041	1	1	0	0	0.12854	0.097854	0.10816	0.18257	0.20782	0.31047	0.19822	0.048252	0.22108	0.36211	0.19509	0.28065	0.11276	0.16609	0.2819	0.014568	-2.4667	-2.5812	-3.0833	-3.1771	-2.6354	-2.9583	-2.9167	-2.8667	-2.8708	-2.8729	-3.0687	-2.6667	-2.7167	-3.0938	-2.8167	-2.9667	-73.217	24.047	-0.894	221.590	159.407	186.038	262.305	255.000	13.238	111.803	-85.681	195.899	117.099	78.002	1.032	263.651	9.3714e-05	0.00024154	9.1215e-05	1220.2	2.0683e-06	4.0798e-06	1281.8	250.44	1.2006e-06	2.6744e-06	313.08	86.589	67.827	19.814	2.0658e-06	27.985	0.00016159	0.00015948	4.3392e-05	1184.8	1.8573e-06	1.6903e-06	1249	246.25	1.7933e-06	1.7301e-06	307.83	86.897	67.546	19.775	1.7886e-06	27.942	203.074	49.632	-2.555	-81.962	66.390	35.676	-81.988	-75.220	-7.925	90.029	-75.174	-69.185	-68.590	-62.087	26.063	-61.632	-8191	255	
7466.137	1	1	0	0	0.14819	0.27155	0.033826	0.31331	0.16634	0.076343	0.32971	0.12471	0.2816	0.11673	0.14591	0.15288	0.23114	0.083359	0.28823	0.22049	-2.6167	-2.6354	-2.9542	-3.0833	-2.8771	-2.9229	-2.8083	-2.7313	-3.0062	-2.6854	-3.0812	-2.8688	-2.7542	-2.8875	-2.8708	-2.9271	105.544	75.777	-63.645	216.569	171.122	229.040	166.881	-69.553	40.766	197.864	-14.342	-15.383	225.114	-32.992	15.989	76.673	0.00010366	0.0002987	7.5778e-05	1216.5	1.7794e-06	4.2137e-06	1276	250.7	1.2085e-06	2.6893e-06	313.67	87.12	68.193	19.828	1.9773e-06	27.968	0.00016369	0.00015974	4.4467e-05	1182.9	1.8271e-06	1.7272e-06	1248.4	246.47	1.8019e-06	1.7092e-06	306.92	86.906	67.795	19.755	1.7835e-06	27.826	200.793	31.871	7.349	-82.204	63.105	70.098	-82.197	-75.129	5.065	100.268	-75.216	-69.136	-68.563	-61.447	11.478	-61.346	-8191	255	
#DATA ENDS
