BOXY.EXE: ISS Imagent and Oximeter Data Acquisition Program Version 0.80
Ascii Record File

#ACQ INFORMATION
2  Detector Channels 
16  External MUX Channels 
1  Auxiliary Channels 
5000  Waveform (CCF) Frequency (Hz)
1  Waveforms Skipped 
30  Waveforms Averaged 
1  Cycles Averaged 
16  Acquisitions per Waveform 
10.0806  Updata Rate (Hz) 

#FILE INFORMATION
TRUE -- External MUX Channel results are PARSED.
FALSE -- AC DC and Phase are NOT grouped.
TRUE -- Companion Program Settings File CREATED.
FALSE -- AC data not excluded
FALSE -- DC data not excluded
FALSE -- Phase data not excluded
FALSE -- Auxillary Chn. data not excluded
Tab delimiters

#CALIBRATION STATE
TRUE -- Waveform Calibration Values APPLIED.


#AUX CALIBRATION VALUES
Val Type	aux-1	

Term	1.0000e+00	
Factor	0.0000e+00	


#WF CALIBRATION VALUES
A = Detector Channel
Val Type	A-AC1	A-AC2	A-AC3	A-AC4	A-AC5	A-AC6	A-AC7	A-AC8	A-AC9	A-AC10	A-AC11	A-AC12	A-AC13	A-AC14	A-AC15	A-AC16	A-DC1	A-DC2	A-DC3	A-DC4	A-DC5	A-DC6	A-DC7	A-DC8	A-DC9	A-DC10	A-DC11	A-DC12	A-DC13	A-DC14	A-DC15	A-DC16	A-Ph1	A-Ph2	A-Ph3	A-Ph4	A-Ph5	A-Ph6	A-Ph7	A-Ph8	A-Ph9	A-Ph10	A-Ph11	A-Ph12	A-Ph13	A-Ph14	A-Ph15	A-Ph16	

Term	0.00000e+00	0.00000e+00	0.00000e+00	0.00000e+00	0.00000e+00	0.00000e+00	0.00000e+00	0.00000e+00	0.00000e+00	0.00000e+00	0.00000e+00	0.00000e+00	0.00000e+00	0.00000e+00	0.00000e+00	0.00000e+00	0.00000e+00	0.00000e+00	0.00000e+00	0.00000e+00	0.00000e+00	0.00000e+00	0.00000e+00	0.00000e+00	0.00000e+00	0.00000e+00	0.00000e+00	0.00000e+00	0.00000e+00	0.00000e+00	0.00000e+00	0.00000e+00	0.00000e+00	0.00000e+00	0.00000e+00	0.00000e+00	0.00000e+00	0.00000e+00	0.00000e+00	0.00000e+00	0.00000e+00	0.00000e+00	0.00000e+00	0.00000e+00	0.00000e+00	0.00000e+00	0.00000e+00	0.00000e+00	
Factor	1.00000e+00	1.00000e+00	1.00000e+00	1.00000e+00	1.00000e+00	1.00000e+00	1.00000e+00	1.00000e+00	1.00000e+00	1.00000e+00	1.00000e+00	1.00000e+00	1.00000e+00	1.00000e+00	1.00000e+00	1.00000e+00	1.00000e+00	1.00000e+00	1.00000e+00	1.00000e+00	1.00000e+00	1.00000e+00	1.00000e+00	1.00000e+00	1.00000e+00	1.00000e+00	1.00000e+00	1.00000e+00	1.00000e+00	1.00000e+00	1.00000e+00	1.00000e+00	X	X	X	X	X	X	X	X	X	X	X	X	X	X	X	X	

B = Detector Channel
Val Type	B-AC1	B-AC2	B-AC3	B-AC4	B-AC5	B-AC6	B-AC7	B-AC8	B-AC9	B-AC10	B-AC11	B-AC12	B-AC13	B-AC14	B-AC15	B-AC16	B-DC1	B-DC2	B-DC3	B-DC4	B-DC5	B-DC6	B-DC7	B-DC8	B-DC9	B-DC10	B-DC11	B-DC12	B-DC13	B-DC14	B-DC15	B-DC16	B-Ph1	B-Ph2	B-Ph3	B-Ph4	B-Ph5	B-Ph6	B-Ph7	B-Ph8	B-Ph9	B-Ph10	B-Ph11	B-Ph12	B-Ph13	B-Ph14	B-Ph15	B-Ph16	

Term	0.00000e+00	0.00000e+00	0.00000e+00	0.00000e+00	0.00000e+00	0.00000e+00	0.00000e+00	0.00000e+00	0.00000e+00	0.00000e+00	0.00000e+00	0.00000e+00	0.00000e+00	0.00000e+00	0.00000e+00	0.00000e+00	0.00000e+00	0.00000e+00	0.00000e+00	0.00000e+00	0.00000e+00	0.00000e+00	0.00000e+00	0.00000e+00	0.00000e+00	0.00000e+00	0.00000e+00	0.00000e+00	0.00000e+00	0.00000e+00	0.00000e+00	0.00000e+00	-1.80303e+02	-1.38097e+02	-1.19944e+02	-1.80819e+02	-7.90061e+01	-8.11867e+01	-1.57378e+02	-1.62015e+02	-8.94823e+01	-7.32125e+01	-1.71564e+02	-1.71541e+02	-1.83671e+02	-1.76147e+02	-9.09538e+01	-1.49257e+02	
Factor	2.87017e-05	1.45962e-04	4.30770e-05	1.57142e-01	1.46671e-06	1.61965e-06	1.59980e-01	4.53428e-02	1.43660e-06	1.32136e-06	7.50420e-02	2.82269e-02	3.42424e-02	8.08152e-03	1.41912e-06	1.17899e-02	2.86743e-06	3.12586e-06	8.73151e-07	7.88825e-02	3.38613e-08	3.44756e-08	7.56613e-02	2.28643e-02	3.41259e-08	3.46871e-08	3.65790e-02	1.37491e-02	1.70758e-02	4.08423e-03	3.47117e-08	5.78306e-03	X	X	X	X	X	X	X	X	X	X	X	X	X	X	X	X	



#DISTANCE SETTINGS
A = Detector Channel
A-1	A-2	A-3	A-4	A-5	A-6	A-7	A-8	A-9	A-10	A-11	A-12	A-13	A-14	A-15	A-16	

2.5000e+00	3.0000e+00	2.5000e+00	3.0000e+00	2.0000e+00	3.0000e+00	1.5000e+00	3.0000e+00	3.0000e+00	3.0000e+00	3.0000e+00	3.0000e+00	3.0000e+00	3.0000e+00	1.5000e+00	3.0000e+00	

B = Detector Channel
B-1	B-2	B-3	B-4	B-5	B-6	B-7	B-8	B-9	B-10	B-11	B-12	B-13	B-14	B-15	B-16	

1.0000e+01	1.0000e+01	1.0000e+01	1.4400e+00	1.0000e+01	1.0000e+01	1.5100e+00	1.9400e+00	1.0000e+01	1.0000e+01	1.9900e+00	2.4900e+00	2.4100e+00	2.9000e+00	1.0000e+01	2.9800e+00	




#DATA BEGINS
time	group	step	mark	flag	A-AC1	A-AC2	A-AC3	A-AC4	A-AC5	A-AC6	A-AC7	A-AC8	A-AC9	A-AC10	A-AC11	A-AC12	A-AC13	A-AC14	A-AC15	A-AC16	A-DC1	A-DC2	A-DC3	A-DC4	A-DC5	A-DC6	A-DC7	A-DC8	A-DC9	A-DC10	A-DC11	A-DC12	A-DC13	A-DC14	A-DC15	A-DC16	A-Ph1	A-Ph2	A-Ph3	A-Ph4	A-Ph5	A-Ph6	A-Ph7	A-Ph8	A-Ph9	A-Ph10	A-Ph11	A-Ph12	A-Ph13	A-Ph14	A-Ph15	A-Ph16	B-AC1	B-AC2	B-AC3	B-AC4	B-AC5	B-AC6	B-AC7	B-AC8	B-AC9	B-AC10	B-AC11	B-AC12	B-AC13	B-AC14	B-AC15	B-AC16	B-DC1	B-DC2	B-DC3	B-DC4	B-DC5	B-DC6	B-DC7	B-DC8	B-DC9	B-DC10	B-DC11	B-DC12	B-DC13	B-DC14	B-DC15	B-DC16	B-Ph1	B-Ph2	B-Ph3	B-Ph4	B-Ph5	B-Ph6	B-Ph7	B-Ph8	B-Ph9	B-Ph10	B-Ph11	B-Ph12	B-Ph13	B-Ph14	B-Ph15	B-Ph16	aux-1	digaux	

9168.934	1	1	0	512	0.24427	0.18858	0.41853	0.2359	0.11481	0.072268	0.018139	0.065648	0.064545	0.027892	0.057432	0.22209	0.14113	0.078708	0.20639	0.41985	-2.125	-2.2917	-2.5312	-2.625	-2.4604	-2.7167	-2.6396	-2.4062	-2.5458	-2.4792	-2.7896	-2.7812	-2.3896	-2.7583	-2.6708	-2.4229	339.548	133.061	137.956	18.127	322.057	35.500	211.360	221.832	242.157	337.666	315.339	43.955	168.792	307.938	27.390	274.224	0.00044349	0.00038031	7.5652e-05	381.46	3.7786e-06	4.1901e-06	522.34	128.22	3.5406e-06	2.7831e-06	231.74	121.69	65.71	29.292	4.1253e-06	60.899	6.7026e-05	2.0624e-05	5.5809e-06	368.33	2.4204e-07	2.0865e-07	506.08	125.17	2.6092e-07	2.2258e-07	225.39	118.7	63.52	28.563	2.6598e-07	59.417	92.145	67.375	95.432	-1.250	120.757	119.735	-1.238	3.980	121.469	136.388	2.567	5.772	7.076	11.273	129.775	9.091	-8191	255	
9169.028	1	1	0	0	0.076205	0.15666	0.098179	0.48761	0.23083	0.18303	0.36733	0.095869	0.14072	0.16725	0.027348	0.16995	0.05913	0.080863	0.3863	0.091965	-2.1854	-2.3333	-2.5208	-2.7542	-2.4854	-2.6562	-2.5917	-2.4938	-2.7958	-2.4625	-2.3708	-2.7438	-2.45	-2.5292	-2.6729	-2.375	179.919	119.745	198.742	250.474	52.383	111.563	282.832	2.412	316.767	34.262	167.608	325.105	343.094	2.604	249.734	115.103	0.00044735	0.00034136	9.8226e-05	377.82	2.0409e-06	3.7213e-06	518.22	129.81	3.2286e-06	2.8052e-06	236.09	124.2	67.114	30.527	2.9928e-06	63.405	6.5043e-05	2.0539e-05	5.5427e-06	364.92	2.3195e-07	2.0994e-07	503.35	126.1	2.5957e-07	2.1159e-07	229.06	120.55	64.513	29.646	2.7502e-07	61.682	94.624	60.128	84.466	-1.432	132.986	126.133	-1.741	3.925	119.121	136.909	2.196	6.013	7.011	11.240	123.643	9.045	-8191	255	
9169.124	1	1	0	0	0.28973	0.15115	0.15484	0.16892	0.21952	0.12818	0.24339	0.24	0.21347	0.23764	0.23394	0.089126	0.19787	0.3682	0.12116	0.34002	-2.2167	-2.4708	-2.3354	-2.6021	-2.4042	-2.5917	-2.7729	-2.375	-2.6521	-2.7083	-2.4083	-2.7854	-2.4625	-2.6604	-2.7854	-2.4521	101.365	197.490	136.548	258.316	43.685	74.240	241.704	24.505	202.341	332.705	301.967	294.209	28.135	283.968	318.704	310.087	0.00044046	0.00035926	0.0001003	380.74	2.3532e-06	3.5298e-06	521.07	128.74	3.8065e-06	2.333e-06	231.73	120.83	64.288	29.796	3.2907e-06	61.705	6.7349e-05	2.1562e-05	5.7755e-06	369.01	2.3809e-07	2.1978e-07	506.2	125.4	2.509e-07	2.0697e-07	225.35	117.6	62.114	29.03	2.7328e-07	60.094	94.678	61.710	93.866	-1.287	118.188	129.694	-1.444	3.946	130.925	134.596	2.359	6.300	7.430	11.506	115.407	9.269	-8191	255	
9169.220	1	1	0	0	0.24637	0.073826	0.15236	0.28409	0.06706	0.12407	0.19666	0.15358	0.22101	0.25677	0.093489	0.033016	0.24101	0.072388	0.10233	0.24209	-2.1063	-2.5396	-2.2625	-2.65	-2.4521	-2.4771	-2.8229	-2.5208	-2.6479	-2.4104	-2.3521	-2.775	-2.4938	-2.4896	-2.6042	-2.6583	273.202	67.896	260.048	294.492	59.661	126.676	99.720	306.740	336.255	-5.823	328.958	163.442	2.915	283.344	30.994	331.720	0.00047336	0.00029754	0.00010783	374.51	2.6919e-06	3.9051e-06	511.96	124.28	3.1724e-06	3.1343e-06	223.49	115.49	62.106	28.837	3.2106e-06	60.127	6.852e-05	2.011e-05	5.9338e-06	362.36	2.3237e-07	2.1238e-07	494.9	120.98	2.4919e-07	1.9063e-07	216.58	112.69	59.856	28.166	2.6106e-07	58.536	92.135	58.741	89.229	-1.547	131.521	122.105	-1.461	3.961	114.217	122.719	2.594	6.256	7.452	11.396	121.563	9.156	-8191	255	
9169.341	1	1	0	0	0.20925	0.37508	0.24104	0.22066	0.15687	0.091521	0.076509	0.11324	0.2038	0.13396	0.25046	0.0068801	0.15182	0.20269	0.17828	0.15733	-2.3396	-2.6708	-2.3354	-2.6917	-2.4875	-2.4792	-2.7292	-2.4813	-2.5854	-2.4708	-2.4833	-2.6875	-2.6479	-2.4042	-2.7292	-2.6688	338.563	-6.624	4.334	0.220	9.683	189.607	69.939	285.915	71.697	212.938	319.141	76.069	6.251	3.239	115.292	321.447	0.00045379	0.00034452	9.4833e-05	371.08	3.6171e-06	3.6365e-06	509.11	124.5	3.4866e-06	2.6729e-06	225.04	117.81	63.096	29.336	3.8165e-06	61.365	6.3137e-05	2.0058e-05	4.9497e-06	358.74	2.1953e-07	2.0829e-07	494.07	121.38	2.4855e-07	1.9988e-07	219.03	114.49	61.081	28.661	2.5036e-07	59.88	94.574	52.621	75.985	-1.231	126.948	110.896	-1.620	3.836	109.359	130.132	2.193	6.127	7.241	11.302	115.056	9.261	-8191	255	
9169.413	1	1	0	0	0.11327	0.30475	0.071719	0.16033	0.033988	0.029052	0.12699	0.15011	0.089821	0.1532	0.12851	0.048379	0.12082	0.11752	0.026225	0.17982	-2.125	-2.6937	-2.4521	-2.75	-2.5229	-2.4354	-2.7292	-2.4792	-2.6562	-2.65	-2.325	-2.7604	-2.6188	-2.3375	-2.7479	-2.5542	60.093	246.353	189.416	330.016	75.560	-9.778	226.371	126.928	101.643	122.567	337.605	268.238	8.865	246.690	174.407	163.365	0.00046037	0.00039581	0.00013121	375.77	3.3842e-06	3.5003e-06	518.67	128.82	3.0657e-06	2.5828e-06	232.6	121.63	65.247	30.466	4.1485e-06	63.503	6.607e-05	2.0038e-05	6.0593e-06	363.82	2.3576e-07	2.1949e-07	501.58	124.66	2.5346e-07	2.0422e-07	225.64	118.2	63.03	29.723	2.7921e-07	61.825	92.948	50.133	84.380	-1.354	127.702	119.612	-1.392	3.712	134.033	129.556	2.274	6.117	7.503	11.485	122.712	9.066	-8191	255	
9169.509	1	1	0	0	0.080945	0.23613	0.1651	0.38038	0.15291	0.10459	0.074723	0.11683	0.23883	0.11093	0.044132	0.2526	0.19599	0.23915	0.10492	0.21104	-2.0062	-2.5833	-2.3729	-2.7792	-2.5333	-2.3583	-2.725	-2.6792	-2.4062	-2.8083	-2.5563	-2.7333	-2.7771	-2.4875	-2.6146	-2.7125	89.480	304.121	203.694	17.504	37.176	183.891	-5.563	306.879	318.473	119.288	77.554	15.709	37.405	276.094	156.685	279.308	0.00046793	0.00044886	9.8692e-05	382.35	2.8608e-06	4.2124e-06	523.04	129.67	3.8681e-06	3.6947e-06	235.18	122.23	65.281	30.317	3.5971e-06	62.75	7.0246e-05	2.1855e-05	5.8592e-06	369.81	2.4303e-07	2.1878e-07	507.86	126.05	2.6035e-07	2.1015e-07	227.5	118.7	63.156	29.541	2.6251e-07	61.178	88.357	73.341	85.094	-1.349	125.153	130.953	-1.286	4.163	111.954	144.714	2.300	6.047	7.676	11.159	129.735	9.140	-8191	255	
9169.629	1	1	0	0	0.18695	0.24744	0.24681	0.33772	0.24263	0.14323	0.20495	0.20766	0.050451	0.092356	0.1053	0.093214	0.17366	0.21143	0.048292	0.20919	-1.8917	-2.7542	-2.4729	-2.5167	-2.5563	-2.3542	-2.7625	-2.7583	-2.3458	-2.7542	-2.5583	-2.5187	-2.6896	-2.3667	-2.7208	-2.825	281.541	103.522	271.715	260.149	327.795	268.513	173.463	293.075	251.837	117.912	206.784	234.159	241.940	273.673	287.545	141.457	0.00047261	0.0003602	0.00011764	378.12	3.1677e-06	3.5337e-06	515.15	127.54	3.4695e-06	3.2267e-06	228.66	119.06	63.721	29.88	4.0895e-06	62.129	6.806e-05	2.0084e-05	5.932e-06	366.73	2.3788e-07	2.2028e-07	501.79	123.88	2.7329e-07	2.0205e-07	222.02	115.38	61.625	29.072	2.675e-07	60.332	93.530	65.617	92.050	-1.100	114.787	113.608	-1.247	3.895	126.429	136.240	2.403	6.359	7.176	11.154	117.488	8.938	-8191	255	
9169.726	1	1	0	0	0.26225	0.11725	0.27017	0.16058	0.070256	0.11113	0.031715	0.084858	0.26949	0.020351	0.21747	0.32921	0.16134	0.28563	0.055858	0.17413	-1.9792	-2.7458	-2.4479	-2.4833	-2.8583	-2.4562	-2.5792	-2.7417	-2.4042	-2.7833	-2.6875	-2.5375	-2.725	-2.4354	-2.5812	-2.8	317.467	22.441	1.520	342.355	220.511	187.851	130.479	288.875	47.995	6.899	306.776	296.882	260.732	342.513	46.490	80.529	0.00042411	0.00040059	0.00010788	378.4	3.5612e-06	3.6281e-06	520.05	128.63	3.7034e-06	3.0152e-06	234.25	121.94	65.962	30.34	3.7125e-06	62.592	6.6775e-05	2.0325e-05	5.2862e-06	365.24	2.2017e-07	2.2768e-07	503.65	124.98	2.8261e-07	2.1239e-07	226.49	118.9	63.743	29.58	2.8044e-07	61.015	89.708	68.851	87.480	-1.391	132.840	115.259	-1.594	4.043	128.222	126.986	1.986	5.874	7.294	11.128	122.807	9.161	-8191	255	
9169.822	1	1	0	0	0.095442	0.15007	0.081576	0.094692	0.076952	0.068962	0.11421	0.24993	0.04951	0.12029	0.31298	0.25722	0.20808	0.090476	0.0446	0.15642	-1.9625	-2.5	-2.3854	-2.4396	-2.8187	-2.35	-2.4771	-2.6604	-2.6167	-2.7542	-2.6333	-2.4833	-2.6958	-2.4354	-2.6063	-2.7625	135.943	62.863	226.631	269.319	111.241	12.058	137.150	339.029	-3.193	258.815	17.669	321.521	18.000	329.522	26.207	261.414	0.0004677	0.00038085	0.00011464	374.27	2.6516e-06	3.2938e-06	515.92	127.11	3.6296e-06	2.7645e-06	229.91	120.63	64.254	29.604	3.1843e-06	61.919	6.8765e-05	2.0748e-05	5.901e-06	363.42	2.2355e-07	2.228e-07	499.23	123.48	2.7237e-07	2.0509e-07	223.39	117.35	62.364	28.992	2.8174e-07	60.366	93.994	62.777	70.352	-1.180	136.845	125.309	-1.549	4.026	103.783	127.435	2.273	6.011	7.780	11.404	119.695	9.151	-8191	255	
9169.918	1	1	0	0	0.21368	0.10165	0.23199	0.16541	0.075366	0.28895	0.11902	0.14106	0.13791	0.13925	0.24979	0.21189	0.15003	0.38809	0.34044	0.25003	-2.0167	-2.5771	-2.55	-2.4813	-2.7333	-2.525	-2.4333	-2.6208	-2.475	-2.7521	-2.5542	-2.4542	-2.6583	-2.3917	-2.3979	-2.8042	112.954	101.215	263.252	230.557	29.605	24.727	301.588	16.445	345.114	304.664	253.136	222.714	185.809	285.395	165.510	311.563	0.00045146	0.00045364	0.00010787	376.73	3.8098e-06	3.8668e-06	515.36	126.5	3.4724e-06	2.9534e-06	229.62	118.98	63.817	29.311	3.3133e-06	60.798	6.6805e-05	2.1191e-05	6.1011e-06	363.22	2.3096e-07	2.3041e-07	498.82	123	2.7365e-07	1.9895e-07	222.6	115.72	61.442	28.56	2.8066e-07	59.302	95.536	64.386	88.813	-1.426	130.939	110.755	-1.721	3.708	107.302	114.401	2.305	6.211	7.549	11.240	103.684	8.900	-8191	255	
9170.014	1	1	0	0	0.37438	0.34633	0.058383	0.21559	0.24931	0.03939	0.09393	0.4126	0.19519	0.11498	0.16595	0.34664	0.18523	0.24551	0.25966	0.21334	-1.8708	-2.4562	-2.6292	-2.2667	-2.7521	-2.4979	-2.5979	-2.7812	-2.2167	-2.4313	-2.5875	-2.4521	-2.7667	-2.4938	-2.4542	-2.7104	0.527	170.515	71.598	319.205	175.237	140.483	217.959	37.077	66.275	193.062	236.650	321.998	323.750	282.913	333.746	317.616	0.00045872	0.00031669	9.8314e-05	369.26	3.7921e-06	3.0044e-06	504.38	121.18	2.5677e-06	3.7824e-06	218.47	111.9	59.575	27.147	3.8349e-06	57.309	6.4792e-05	2.1236e-05	5.6464e-06	356.96	2.3139e-07	2.0312e-07	487.8	117.43	2.563e-07	2.2828e-07	211.66	109.29	57.519	26.484	2.5065e-07	55.671	93.059	70.369	75.346	-1.103	125.443	122.336	-1.694	3.769	115.444	122.132	2.439	6.120	7.720	11.361	125.976	9.328	-8191	255	
9170.110	1	1	0	0	0.1736	0.036723	0.13865	0.14077	0.16828	0.17577	0.19951	0.21068	0.24747	0.053351	0.31807	0.012666	0.06153	0.38127	0.27473	0.27591	-1.9104	-2.7188	-2.5833	-2.325	-2.675	-2.5229	-2.5812	-2.6688	-2.35	-2.4667	-2.6417	-2.3479	-2.6625	-2.675	-2.2354	-2.7625	325.720	232.018	148.440	122.548	174.814	273.622	267.855	279.403	231.499	207.748	-2.050	82.609	96.276	-10.969	149.512	229.153	0.00042959	0.00029906	8.6356e-05	352.16	4.0072e-06	3.651e-06	485.5	114.47	2.9944e-06	2.5939e-06	213.71	111.02	58.839	26.901	3.0311e-06	57.647	6.3101e-05	1.9172e-05	5.4445e-06	340.04	2.0585e-07	1.8646e-07	470.08	111.36	2.3163e-07	2.0119e-07	206.72	107.52	56.775	26.26	2.6171e-07	55.929	89.550	67.152	75.138	-1.316	118.396	121.564	-1.622	3.831	120.848	130.934	2.264	6.231	7.488	11.597	131.601	9.095	-8191	255	
9170.229	1	1	0	0	0.11913	0.13834	0.212	0.17351	0.17706	0.35376	0.45816	0.3359	0.13517	0.072173	0.13266	0.16705	0.23746	0.11872	0.12493	0.24161	-1.9896	-2.4146	-2.7229	-2.2958	-2.3729	-2.5208	-2.4479	-2.7479	-2.2833	-2.3479	-2.6625	-2.5458	-2.5812	-2.6	-2.4917	-2.6458	212.216	50.446	179.984	319.544	95.206	208.414	213.692	259.440	239.279	36.790	209.921	331.244	333.124	326.520	140.628	242.994	0.00042397	0.00028905	0.0001104	356.04	3.8411e-06	3.7801e-06	488.04	116.15	3.459e-06	2.798e-06	212.58	109.15	57.039	26.059	2.6559e-06	55.715	6.2964e-05	2.0715e-05	5.1298e-06	343.56	2.2313e-07	1.8725e-07	474.84	112.9	2.3568e-07	2.0603e-07	205.79	106.16	55.395	25.452	2.424e-07	54.212	95.149	57.818	82.363	-1.336	126.945	121.746	-1.489	3.964	125.047	135.812	2.345	6.346	7.463	11.519	119.892	9.465	-8191	255	
9170.325	1	1	0	0	0.034883	0.21308	0.10093	0.24751	0.083586	0.095551	0.28871	0.17144	0.039779	0.18309	0.071501	0.17878	0.37135	0.0050767	0.061403	0.047873	-1.825	-2.3875	-2.5417	-2.4208	-2.4479	-2.6437	-2.375	-2.5896	-2.5667	-2.6	-2.8521	-2.6271	-2.6375	-2.7979	-2.2479	-2.7896	185.727	273.810	118.622	271.630	337.729	199.885	297.991	47.072	203.656	24.141	300.803	331.386	153.877	29.031	300.241	236.337	0.0004096	0.00040088	0.00010413	345.96	1.8235e-06	3.351e-06	479.51	112.15	2.8414e-06	1.9121e-06	207.83	106.78	55.767	25.589	3.2467e-06	55.024	6.0443e-05	1.9452e-05	4.9297e-06	333.99	2.0839e-07	1.9055e-07	466.26	109.06	2.2729e-07	1.8897e-07	201.64	103.91	54.139	24.9	2.5564e-07	53.48	95.859	71.613	84.290	-1.056	150.536	131.673	-1.521	4.125	108.859	126.261	2.420	6.087	8.035	11.583	101.768	9.422	-8191	255	
9170.421	1	1	0	0	0.27715	0.18756	0.23932	0.087334	0.243	0.072531	0.19313	0.05655	0.12527	0.074856	0.13578	0.11261	0.11056	0.46101	0.049557	0.18631	-2.1312	-2.4396	-2.5667	-2.3583	-2.6021	-2.6083	-2.4708	-2.7521	-2.6417	-2.3979	-2.7271	-2.6208	-2.6021	-2.7146	-2.1854	-2.8	307.555	20.123	300.761	240.073	199.655	153.073	119.327	86.370	21.568	124.818	0.585	266.960	25.063	284.337	233.209	243.251	0.00040814	0.00030288	8.0687e-05	345.78	2.3474e-06	2.886e-06	477.64	112.52	2.9864e-06	2.0673e-06	205.54	105.65	55.358	25.442	2.7639e-06	54.604	6.0527e-05	2.0142e-05	4.6423e-06	334.05	2.1643e-07	1.8365e-07	463.69	109.08	2.1869e-07	1.9743e-07	199.19	102.71	53.522	24.815	2.3922e-07	52.976	93.629	56.089	74.497	-1.346	138.473	110.986	-1.522	3.772	124.597	120.860	2.596	6.336	7.544	11.619	121.149	9.352	-8191	255	
9170.517	1	1	0	0	0.031851	0.06868	0.04853	0.15096	0.095831	0.13406	0.085397	0.16664	0.19008	0.070032	0.10644	0.56905	0.21611	0.10457	0.19534	0.10985	-2.1042	-2.2542	-2.6167	-2.3417	-2.3937	-2.5333	-2.3875	-2.6292	-2.6333	-2.2854	-2.6021	-2.5875	-2.5396	-2.8271	-2.3333	-2.8187	321.489	255.839	89.818	82.090	251.032	261.297	189.213	46.967	110.415	187.444	-11.146	332.215	127.501	15.318	245.467	29.903	0.00040572	0.00030831	9.492e-05	340.76	2.6202e-06	3.922e-06	469.87	108.88	3.4179e-06	2.8741e-06	196.23	100.81	52.481	23.559	2.7583e-06	50.457	5.8573e-05	1.7401e-05	5.0061e-06	329.65	2.2412e-07	1.9005e-07	453.54	105.71	2.3284e-07	1.9071e-07	190.95	97.935	50.68	23.031	2.1753e-07	49.081	92.806	69.791	69.141	-1.237	145.688	119.368	-1.785	4.299	110.924	123.142	2.446	6.312	7.153	11.880	122.897	9.581	-8191	255	
9170.638	1	1	0	0	0.18421	0.024056	0.27278	0.25232	0.14695	0.081773	0.098351	0.16346	0.071517	0.081793	0.021078	0.13614	0.13859	0.078456	0.035534	0.1555	-2.2896	-2.3958	-2.5542	-2.4875	-2.3	-2.7229	-2.4729	-2.5062	-2.6688	-2.1979	-2.5521	-2.6292	-2.3583	-2.5833	-2.2792	-2.4708	64.024	149.687	178.814	19.586	244.617	342.164	303.995	180.949	251.947	93.705	136.531	320.313	262.585	80.049	-8.334	324.263	0.00036112	0.00029364	6.4243e-05	324.89	2.3826e-06	3.2224e-06	446.19	101.75	2.7322e-06	2.6967e-06	187.8	95.907	49.418	22.214	2.2487e-06	48.302	5.564e-05	1.7029e-05	4.3967e-06	312.84	2.0338e-07	1.6247e-07	431.73	98.77	1.9231e-07	1.7871e-07	181.3	92.886	47.844	21.655	2.0104e-07	47.011	94.866	80.973	80.634	-1.777	118.325	129.278	-1.869	3.640	102.607	117.436	2.415	6.529	8.011	11.742	116.027	9.445	-8191	255	
9170.710	1	1	0	0	0.25616	0.10126	0.061498	0.30114	0.25711	0.099373	0.17139	0.08402	0.27826	0.19538	0.13934	0.031534	0.23129	0.083682	0.073694	0.09145	-2.2479	-2.4979	-2.6792	-2.6021	-2.3917	-2.8333	-2.4125	-2.6792	-2.9083	-2.4479	-2.625	-2.5	-2.3729	-2.6312	-2.4854	-2.5167	310.695	161.236	139.577	295.569	45.232	248.933	151.958	16.931	217.359	177.735	121.216	330.095	226.468	328.542	217.033	278.293	0.00036402	0.00035728	8.5227e-05	318.81	2.5296e-06	3.6036e-06	444.62	101.03	2.273e-06	2.3632e-06	188.69	96.532	49.965	22.548	2.4913e-06	49.462	5.2731e-05	1.6873e-05	4.8278e-06	307.39	1.9005e-07	1.6678e-07	429.98	98.435	1.9651e-07	1.6664e-07	183.19	93.792	48.272	22.004	2.1579e-07	48.003	90.035	76.188	81.874	-1.367	140.945	137.198	-1.624	3.975	115.741	126.580	2.568	6.256	7.498	11.703	134.420	9.580	-8191	255	
9170.806	1	1	0	0	0.12988	0.14418	0.06209	0.1671	0.082462	0.12589	0.068062	0.1583	0.20104	0.10958	0.22433	0.23137	0.053143	0.36988	0.12133	0.19477	-2.2375	-2.4125	-2.5146	-2.5	-2.4	-2.7083	-2.6312	-2.6646	-2.6021	-2.4479	-2.4542	-2.4396	-2.3771	-2.6937	-2.625	-2.5333	224.689	219.358	167.078	296.035	251.845	166.652	10.764	258.984	345.722	155.313	227.035	332.593	113.853	296.631	100.951	135.051	0.00036308	0.00026357	8.1896e-05	321.27	3.5833e-06	3.5562e-06	446.03	102.5	2.6407e-06	2.1468e-06	189.12	94.124	49.163	22.508	1.7564e-06	48.885	5.282e-05	1.6841e-05	4.4676e-06	310.94	2.0049e-07	1.583e-07	433.34	99.703	1.8954e-07	1.8146e-07	181.45	91.444	47.287	21.953	1.975e-07	47.553	92.386	54.002	93.770	-1.225	138.792	105.760	-1.645	3.981	108.063	117.694	2.597	6.664	7.853	11.643	114.630	9.521	-8191	255	
9170.902	1	1	0	0	0.16637	0.055321	0.19202	0.12116	0.12469	0.099806	0.080948	0.074549	0.08344	0.1347	0.049634	0.16794	0.18361	0.23482	0.20728	0.23998	-2.2896	-2.3667	-2.425	-2.5979	-2.5354	-2.775	-2.6792	-2.5396	-2.8042	-2.4396	-2.5146	-2.7729	-2.3354	-2.5333	-2.5354	-2.4646	35.522	117.618	153.996	21.428	126.693	145.341	210.754	192.605	21.626	310.029	261.708	226.453	59.852	297.481	337.344	247.856	0.00039787	0.00028346	7.2657e-05	318.01	3.2687e-06	3.2894e-06	439.06	99.723	2.6058e-06	2.235e-06	181.6	90.412	46.951	21.735	2.2251e-06	47.359	5.3824e-05	1.6658e-05	4.8023e-06	308.61	2.1706e-07	1.7446e-07	425.35	96.553	1.739e-07	1.7481e-07	175.65	87.695	45.349	21.172	1.878e-07	46.126	93.735	65.382	68.750	-1.399	123.608	115.206	-1.701	3.824	111.506	125.071	2.388	6.799	7.375	11.776	129.153	9.648	-8191	255	
9171.023	1	1	0	0	0.24021	0.030689	0.12343	0.14937	0.1231	0.21631	0.33061	0.26691	0.15	0.24218	0.077706	0.12815	0.23175	0.16604	0.07085	0.12528	-2.2417	-2.4979	-2.5167	-2.6646	-2.1771	-2.5812	-2.6792	-2.2687	-2.5583	-2.5333	-2.5146	-2.6979	-2.4167	-2.7458	-2.6375	-2.3937	201.056	137.263	277.590	323.999	290.333	310.279	225.808	233.415	100.747	60.939	70.104	243.597	135.410	141.763	211.184	260.322	0.00033335	0.00026828	6.2158e-05	317.31	3.621e-06	2.0143e-06	438	99.941	2.0863e-06	3.0958e-06	186.78	93.564	49.095	22.696	2.4585e-06	49.332	4.9439e-05	1.5629e-05	4.1093e-06	305.38	1.904e-07	1.5241e-07	423.9	96.928	1.6693e-07	1.644e-07	180.14	91.185	47.421	22.04	2.1854e-07	48.17	89.678	68.193	85.918	-0.946	127.832	112.199	-1.575	4.133	118.286	129.765	2.292	6.337	7.624	11.780	131.262	9.580	-8191	255	
9171.117	1	1	0	0	0.13265	0.17648	0.032987	0.18515	0.10792	0.13624	0.11734	0.1057	0.054039	0.027113	0.24136	0.052827	0.30437	0.25841	0.047691	0.17793	-2.2625	-2.5167	-2.5021	-2.5938	-2.3729	-2.4667	-2.6083	-2.5062	-2.5896	-2.4292	-2.4167	-2.6271	-2.5	-2.6958	-2.7646	-2.5187	69.147	253.717	273.684	238.666	134.863	284.538	41.531	299.721	155.177	101.018	333.312	-2.414	281.982	49.959	67.092	228.615	0.00036604	0.00030093	9.5616e-05	326.52	3.6018e-06	2.9657e-06	453.39	104.64	2.474e-06	2.6065e-06	194.26	98.509	51.525	23.618	2.802e-06	51.642	5.4511e-05	1.6841e-05	4.9078e-06	313.94	1.9858e-07	1.7827e-07	438.95	101.92	2.0234e-07	1.5472e-07	188.08	96.075	49.648	23.077	2.2143e-07	50.266	92.311	69.099	92.552	-1.358	117.618	121.129	-1.726	4.147	122.901	128.405	2.778	6.157	7.376	11.775	116.631	9.621	-8191	255	
9171.213	1	1	0	0	0.10782	0.073641	0.14643	0.27949	0.13339	0.074316	0.037377	0.17611	0.29705	0.48535	0.15936	0.29888	0.096529	0.31377	0.089886	0.067508	-2.1625	-2.6229	-2.3708	-2.6875	-2.4375	-2.5687	-2.7875	-2.5146	-2.6542	-2.5958	-2.4583	-2.9542	-2.5458	-2.5146	-2.7104	-2.4562	105.016	290.554	258.994	17.181	296.437	27.833	91.703	213.032	194.415	163.542	313.080	272.395	321.820	335.255	211.065	308.092	0.00037781	0.00025798	7.7854e-05	333.65	3.0107e-06	3.5519e-06	466.97	109.57	2.7298e-06	2.9344e-06	202.13	102.53	53.974	24.813	3.2447e-06	53.591	5.4212e-05	1.7642e-05	4.8642e-06	322.84	2.1812e-07	1.7288e-07	453.5	106.69	2.1677e-07	1.8428e-07	195.42	99.713	52.088	24.287	2.2671e-07	52.325	95.266	60.503	65.423	-1.597	134.023	118.389	-1.565	3.856	100.072	108.154	2.311	6.392	7.742	11.222	110.765	9.329	-8191	255	
9171.309	1	1	0	0	0.17595	0.083502	0.26723	0.22521	0.092176	0.13298	0.10649	0.12557	0.19804	0.027829	0.20606	0.15892	0.012732	0.17246	0.2253	0.16407	-2.1437	-2.6979	-2.2062	-2.8833	-2.4708	-2.45	-2.75	-2.4354	-2.5896	-2.4229	-2.3042	-2.675	-2.4583	-2.3604	-2.475	-2.4521	310.750	325.538	161.799	34.363	60.859	210.396	-3.091	304.388	206.482	111.874	252.639	314.211	258.250	217.996	141.932	245.922	0.00039625	0.00034118	0.0001069	346.24	3.7793e-06	3.1865e-06	478.52	114.93	2.2669e-06	2.3095e-06	209.4	107.54	57.647	26.461	3.1741e-06	56.907	5.8651e-05	1.8827e-05	5.0424e-06	334.12	2.1756e-07	1.8926e-07	464.87	111.29	2.2303e-07	1.9605e-07	203.3	104.83	55.297	25.923	2.2736e-07	55.422	92.131	71.052	93.334	-1.509	136.337	114.825	-1.677	4.031	122.070	112.052	2.492	6.035	7.848	11.279	115.583	9.239	-8191	255	
9171.406	1	1	0	0	0.070301	0.20437	0.33706	0.27107	0.18604	0.22604	0.13715	0.17274	0.045301	0.24157	0.012953	0.37741	0.14307	0.18178	0.094462	0.28275	-2.0687	-2.6625	-2.1729	-2.7229	-2.3625	-2.3896	-2.7458	-2.1875	-2.4396	-2.6125	-2.4833	-2.6083	-2.4667	-2.5458	-2.7417	-2.3896	18.173	259.637	327.150	279.962	247.027	190.586	154.616	312.964	147.879	59.339	226.983	267.246	278.089	21.189	202.078	305.230	0.0004325	0.00032411	0.0001205	356	2.1582e-06	4.2215e-06	490.86	118.2	2.6777e-06	3.2649e-06	214.74	110.33	57.941	26.713	2.888e-06	56.504	6.1273e-05	2.0188e-05	5.67e-06	344.99	2.1424e-07	2.0592e-07	476.77	114.99	2.4464e-07	2.0321e-07	208.24	107.42	56.169	26.037	2.4653e-07	54.972	96.560	50.468	86.210	-1.295	116.178	121.470	-1.633	3.891	137.558	138.743	2.368	6.201	7.532	11.628	118.436	9.397	-8191	255	
9171.502	1	1	0	0	0.16431	0.25343	0.28682	0.15637	0.014409	0.21421	0.13937	0.10945	0.10811	0.13741	0.18721	0.14792	0.20777	0.14503	0.23106	0.12825	-1.95	-2.5271	-2.2	-2.6437	-2.6437	-2.4667	-2.9021	-2.5625	-2.475	-2.6542	-2.4604	-2.6396	-2.5438	-2.3063	-2.8583	-2.5583	160.894	220.278	252.720	261.379	237.235	244.390	289.933	246.069	315.289	91.592	-0.010	16.974	310.509	37.135	336.096	297.926	0.00041726	0.00034048	9.2516e-05	351.76	3.8896e-06	3.5294e-06	482.8	113.78	3.1008e-06	2.194e-06	210.83	107.11	55.915	25.817	2.6622e-06	55.323	6.1656e-05	1.9712e-05	5.2935e-06	338.48	2.3068e-07	1.9019e-07	468.25	110.67	2.3419e-07	1.9331e-07	203.15	104.29	54.335	25.129	2.2931e-07	53.933	93.374	64.182	95.673	-1.337	132.281	99.602	-1.572	4.338	126.330	117.782	2.380	6.169	7.616	11.946	113.674	9.310	-8191	255	
9171.598	1	1	0	0	0.38781	0.27478	0.018011	0.024352	0.2822	0.18015	0.056423	0.36904	0.11198	0.10192	0.076737	0.04921	0.096829	0.20221	0.094927	0.35124	-1.8625	-2.5875	-2.3937	-2.6813	-2.5896	-2.2562	-2.8354	-2.625	-2.4104	-2.8042	-2.3521	-2.6396	-2.6	-2.3208	-2.5458	-2.5	137.075	327.348	168.923	23.393	148.691	287.825	15.072	-1.097	192.578	293.603	234.032	310.515	342.093	5.610	116.887	231.315	0.00041554	0.00029437	0.00011983	346.18	3.11e-06	4.2214e-06	485.22	114.76	3.8202e-06	2.4298e-06	209.93	107.44	56.13	26.03	2.8994e-06	55.569	5.9655e-05	1.757e-05	5.5227e-06	336.02	2.2539e-07	1.9551e-07	469.21	111.37	2.4037e-07	1.863e-07	203.9	104.54	54.26	25.428	2.33e-07	54.078	94.751	50.794	86.365	-1.215	131.575	123.516	-1.561	3.973	107.422	122.661	2.171	6.168	7.666	11.584	101.843	9.312	-8191	255	
9171.718	1	1	0	0	0.26936	0.11825	0.17222	0.11638	0.27347	0.086155	0.033396	0.12791	0.097464	0.15521	0.29463	0.23894	0.11999	0.18378	0.09125	0.17857	-1.9125	-2.5917	-2.3479	-2.6417	-2.7	-2.4646	-2.7687	-2.5458	-2.4313	-2.7208	-2.4125	-2.4604	-2.7021	-2.4521	-2.5542	-2.5812	121.741	266.274	49.985	52.604	157.350	122.474	1.403	314.556	26.478	171.901	250.223	299.683	270.478	21.585	190.452	92.913	0.00040141	0.00031678	8.6861e-05	348.37	2.6897e-06	4.0477e-06	483.46	113.86	3.065e-06	3.424e-06	208.62	106.11	55.647	25.93	2.907e-06	55.356	5.8938e-05	1.8169e-05	5.2098e-06	336.62	1.9675e-07	1.9823e-07	466.93	110.96	2.4905e-07	1.9454e-07	201.52	103.24	53.955	25.295	2.4219e-07	53.91	94.562	37.542	71.386	-1.343	134.768	125.493	-1.648	4.034	113.137	123.182	2.439	6.211	7.836	11.827	124.983	9.295	-8191	255	
9171.815	1	1	0	0	0.35911	0.031645	0.07387	0.022862	0.1763	0.075901	0.15478	0.24806	0.16339	0.17388	0.35696	0.25778	0.2304	0.23527	0.15818	0.20481	-1.7792	-2.6458	-2.2354	-2.5563	-2.5958	-2.2792	-2.5	-2.3021	-2.3167	-2.7458	-2.4396	-2.4813	-2.5917	-2.5125	-2.6188	-2.5729	189.903	178.818	77.322	62.407	64.515	301.216	158.896	280.330	94.844	330.581	293.138	328.873	301.288	327.539	252.755	-6.898	0.00042626	0.00031046	0.00011166	350.57	2.8244e-06	3.4331e-06	481.57	113.26	3.3158e-06	2.5859e-06	204.81	104.97	55.032	25.434	2.0692e-06	54.511	5.9105e-05	1.7974e-05	5.5882e-06	337.25	2.0959e-07	2.0391e-07	465.81	110.33	2.3817e-07	1.8529e-07	199.17	102.03	53.067	24.813	2.2657e-07	53.084	95.081	68.741	79.072	-1.207	146.111	123.043	-1.438	3.795	108.564	121.556	2.254	6.297	7.802	11.511	113.822	9.467	-8191	255	
9171.911	1	1	0	0	0.13318	0.19997	0.12896	0.074346	0.19516	0.13056	0.075424	0.12775	0.071679	0.084121	0.14239	0.31257	0.058425	0.14264	0.049487	0.18313	-1.8625	-2.5125	-2.5438	-2.4208	-2.675	-2.3125	-2.6896	-2.6146	-2.1708	-2.7833	-2.3271	-2.5396	-2.5521	-2.3292	-2.4854	-2.6437	144.101	306.066	163.283	214.424	247.109	208.809	263.044	163.683	246.225	229.747	245.867	147.361	133.691	29.249	239.041	267.637	0.00041078	0.00019817	9.3184e-05	346.03	3.2612e-06	3.6021e-06	478.44	111.54	2.4494e-06	2.8947e-06	204.16	103.39	53.843	25.075	3.0653e-06	54.065	6.0055e-05	1.7655e-05	4.8569e-06	334.88	2.1975e-07	1.9321e-07	462.32	108.37	2.2672e-07	1.9259e-07	197.88	100.91	52.315	24.499	2.2382e-07	52.642	93.802	65.142	79.764	-0.988	125.495	111.155	-1.804	3.763	111.990	127.526	2.488	5.970	7.849	11.754	112.854	9.371	-8191	255	
9172.007	1	1	0	0	0.069894	0.13196	0.15895	0.060335	0.08396	0.27537	0.09754	0.11484	0.1406	0.41053	0.19958	0.24217	0.039647	0.25624	0.06449	0.20982	-1.9625	-2.4146	-2.4042	-2.5312	-2.7417	-2.4625	-2.6083	-2.6833	-2.2979	-2.8229	-2.6896	-2.4583	-2.8583	-2.5354	-2.3854	-2.8729	13.874	297.977	161.323	189.409	198.880	209.322	258.968	313.845	75.232	318.113	311.315	220.491	225.429	13.279	245.031	323.191	0.00039886	0.00024591	8.508e-05	344.54	2.7166e-06	4.0728e-06	477.6	111.35	1.1484e-06	2.9558e-06	207.3	105.09	54.755	25.837	2.5858e-06	55.354	6.012e-05	1.8215e-05	5.1607e-06	332.65	1.9908e-07	1.95e-07	463.58	108.85	2.1997e-07	1.9591e-07	200.19	101.96	53.191	25.195	2.1572e-07	54.011	94.452	74.197	92.002	-0.889	122.346	129.940	-1.730	3.992	140.704	120.712	2.320	6.290	7.501	11.259	115.021	9.259	-8191	255	
9172.103	1	1	0	0	0.026196	0.077893	0.13361	0.16179	0.24968	0.29153	0.15323	0.039273	0.080722	0.14859	0.32421	0.1491	0.18669	0.29686	0.13348	0.11074	-1.9417	-2.3354	-2.3896	-2.3396	-2.6167	-2.4896	-2.7479	-2.6375	-2.2792	-2.7167	-2.6417	-2.3021	-2.5708	-2.5354	-2.5354	-2.5958	58.512	332.829	30.472	24.474	255.320	71.009	343.377	228.544	189.908	94.494	334.419	2.040	15.571	297.851	163.483	135.777	0.00040295	0.00043929	0.00010086	347.98	3.1978e-06	2.3882e-06	481.39	113.81	2.6775e-06	2.6498e-06	201.96	102.48	54.033	24.882	3.6784e-06	52.724	6.0019e-05	2.0064e-05	4.9169e-06	336.12	2.1403e-07	1.8035e-07	465.71	109.98	2.3056e-07	1.9866e-07	196.22	99.839	52.039	24.303	2.3134e-07	51.423	93.024	70.051	82.079	-1.583	131.956	133.819	-1.466	3.723	114.398	147.772	2.131	6.471	7.351	11.790	117.900	9.292	-8191	255	
9172.197	1	1	0	0	0.32659	0.19336	0.17542	0.13689	0.078357	0.27332	0.13384	0.13634	0.19731	0.05978	0.079399	0.12723	0.27715	0.36549	0.30077	0.071561	-1.8146	-2.6562	-2.4562	-2.1937	-2.7375	-2.4958	-2.5146	-2.6917	-2.2562	-2.4271	-2.6646	-2.5792	-2.65	-2.4979	-2.3604	-2.7083	145.003	53.592	39.126	172.923	267.494	328.276	167.683	155.600	154.014	341.900	327.223	279.054	338.414	6.165	37.227	-0.239	0.00039067	0.00035936	9.0953e-05	335.91	2.5338e-06	3.2248e-06	459.98	106.41	2.4485e-06	2.2611e-06	195.4	99.793	52.752	24.42	3.1434e-06	53.258	5.8985e-05	1.6476e-05	4.4112e-06	325.41	1.9414e-07	1.8215e-07	447.13	103.52	2.0952e-07	1.8637e-07	189.1	96.796	50.826	23.816	2.2432e-07	51.751	90.618	69.041	82.993	-1.583	133.639	117.413	-1.516	3.873	106.965	131.029	2.315	6.211	7.525	11.611	116.016	9.227	-8191	255	
9172.318	1	1	0	0	0.12356	0.17124	0.11914	0.047702	0.20661	0.18569	0.191	0.097938	0.339	0.33251	0.070898	0.23394	0.14554	0.15211	0.31121	0.26312	-1.9229	-2.5271	-2.5563	-2.3583	-2.5417	-2.5833	-2.4396	-2.7104	-2.4521	-2.4583	-2.7646	-2.3833	-2.6958	-2.4688	-2.3896	-2.725	169.931	249.923	237.754	190.736	36.359	102.151	255.337	322.268	212.946	164.067	247.406	234.019	16.025	76.382	298.416	279.727	0.00040087	0.00031984	9.4813e-05	341.94	3.4527e-06	3.4302e-06	469.4	110.98	3.0946e-06	3.0106e-06	201.33	102.6	54.115	24.602	3.4117e-06	52.642	5.8364e-05	1.8443e-05	4.8114e-06	329.88	2.0437e-07	1.8186e-07	456.23	108.03	2.3718e-07	1.8796e-07	195.69	99.824	52.302	23.866	2.4139e-07	51.349	90.867	69.910	84.668	-1.050	137.730	117.016	-1.789	3.925	110.791	118.406	2.518	6.112	7.562	11.546	121.130	9.409	-8191	255	
9172.414	1	1	0	0	0.23047	0.12584	0.41258	0.099369	0.083562	0.12981	0.10463	0.17466	0.092615	0.32154	0.10165	0.18269	0.096027	0.21977	0.17213	0.20408	-2.0667	-2.4167	-2.5583	-2.4458	-2.6833	-2.6458	-2.4479	-2.8812	-2.6188	-2.4521	-2.65	-2.3729	-2.7229	-2.5354	-2.5979	-2.6333	173.776	319.502	199.092	17.447	64.536	234.391	340.784	247.951	307.933	306.983	259.720	320.960	44.242	322.170	114.571	308.501	0.00038474	0.00026892	8.8042e-05	348.14	3.5668e-06	3.2974e-06	488.06	117.28	3.3624e-06	2.8231e-06	214.66	111.27	58.635	26.274	3.5453e-06	55.594	5.834e-05	1.7381e-05	4.8442e-06	335.47	2.2793e-07	1.7432e-07	473.15	114.36	2.2708e-07	1.9237e-07	208.69	107.95	56.707	25.596	2.7032e-07	54.11	88.386	50.360	83.218	-0.999	129.284	120.265	-1.558	3.842	111.446	133.603	2.261	5.925	7.530	11.399	122.601	9.232	-8191	255	
9172.510	1	1	0	0	0.083494	0.087019	0.25912	0.26544	0.16345	0.18612	0.099788	0.27192	0.35511	0.17576	0.22698	0.13084	0.19527	0.1698	0.12674	0.18227	-1.9896	-2.4333	-2.6813	-2.5146	-2.6083	-2.6875	-2.4729	-2.7104	-2.5917	-2.45	-2.6792	-2.5583	-2.5604	-2.825	-2.5187	-2.825	112.859	319.646	188.834	314.880	179.366	202.064	295.744	220.373	312.914	192.929	-14.207	261.592	18.676	3.183	151.787	255.632	0.00041569	0.0003617	9.0998e-05	352.33	3.347e-06	2.8248e-06	484.72	116.22	2.9211e-06	3.0901e-06	209.08	105.78	55.666	25.244	3.9116e-06	53.67	6.0234e-05	1.9608e-05	5.1116e-06	340.42	2.2934e-07	1.6893e-07	469.42	113.14	2.0433e-07	1.8717e-07	202.09	103.04	54.083	24.575	2.4117e-07	51.983	90.888	54.287	86.994	-1.385	122.448	119.259	-1.718	3.730	103.753	125.723	2.555	6.084	7.468	10.994	113.369	9.353	-8191	255	
9172.582	1	1	0	0	0.13838	0.084472	0.19064	0.15693	0.025784	0.11142	0.15438	0.13964	0.24577	0.1686	0.037089	0.24186	0.24736	0.22726	0.14266	0.18886	-2.1875	-2.2875	-2.8063	-2.6146	-2.6292	-2.8438	-2.3771	-2.6229	-2.4958	-2.3271	-2.6437	-2.5	-2.3458	-2.7083	-2.3521	-2.7104	188.453	155.082	209.516	105.719	304.615	105.430	341.783	263.996	212.484	190.524	229.466	249.526	-2.919	309.091	-0.226	125.781	0.00038138	0.00027889	9.7617e-05	346.53	3.4718e-06	2.8334e-06	477.74	114.79	3.0149e-06	2.0582e-06	208.41	106.84	56.529	25.247	2.0887e-06	53.468	5.7468e-05	1.7322e-05	4.5367e-06	333.7	2.0585e-07	1.6548e-07	463.12	111.58	2.1869e-07	1.9056e-07	201.6	103.58	54.415	24.602	2.2874e-07	51.921	92.000	60.308	91.792	-1.468	125.968	109.882	-1.416	3.787	116.758	125.609	2.496	6.249	7.573	11.182	96.285	9.434	-8191	255	
9172.678	1	1	0	0	0.080035	0.12301	0.077763	0.27281	0.23916	0.17606	0.3516	0.085322	0.14083	0.16815	0.14366	0.37899	0.15837	0.32699	0.10034	0.21698	-2.0375	-2.4104	-2.6167	-2.4229	-2.5458	-2.7021	-2.5875	-2.7375	-2.8458	-2.6083	-2.6813	-2.7188	-2.3063	-2.6292	-2.1979	-2.4917	120.054	66.810	285.911	171.638	171.549	79.840	203.098	316.911	141.060	236.874	271.339	305.465	278.392	288.887	192.163	259.966	0.00039366	0.00030695	0.00011522	339.47	3.473e-06	3.3081e-06	470.03	111.01	3.297e-06	2.0236e-06	200.68	101.64	53.303	23.824	2.7373e-06	51.131	5.7038e-05	1.9035e-05	5.0079e-06	329.29	2.2348e-07	1.7755e-07	455.17	108.03	2.0468e-07	1.9418e-07	194.29	98.961	51.649	23.302	2.3004e-07	49.827	93.253	71.565	72.387	-1.453	116.276	116.790	-1.504	3.886	115.445	126.939	2.359	6.223	7.670	11.385	100.465	9.264	-8191	255	
9172.799	1	1	0	0	0.40083	0.23165	0.097407	0.10368	0.2038	0.062308	0.12267	0.18345	0.1641	0.12704	0.22363	0.25377	0.083157	0.044277	0.42673	0.15084	-2.2562	-2.3604	-2.6875	-2.5167	-2.4646	-2.6542	-2.5479	-2.5062	-2.6417	-2.5521	-2.7812	-2.5646	-2.4333	-2.5333	-2.5521	-2.6229	93.111	339.739	12.440	49.565	168.661	36.854	-5.388	304.974	23.093	148.429	271.293	275.782	14.868	165.668	-6.521	302.345	0.00039199	0.00031878	8.0243e-05	333.15	2.9351e-06	3.1739e-06	466.87	109.49	3.2819e-06	3.4654e-06	202.1	102.1	53.631	24.118	2.6582e-06	52.22	5.5198e-05	1.7661e-05	4.7332e-06	322.2	2.1396e-07	1.7144e-07	449.97	106.64	2.0895e-07	1.8774e-07	194.97	99.445	51.882	23.523	2.1471e-07	50.721	90.174	45.598	95.850	-1.527	130.217	114.926	-1.460	3.782	125.460	116.733	2.281	6.356	7.305	11.556	124.345	9.352	-8191	255	
9172.895	1	1	0	0	0.0095408	0.29052	0.26194	0.090103	0.04549	0.22705	0.21726	0.079601	0.12821	0.2643	0.29566	0.21809	0.18253	0.16269	0.08924	0.20659	-2.1375	-2.3417	-2.475	-2.4479	-2.5021	-2.6583	-2.5917	-2.3667	-2.6833	-2.4729	-2.7188	-2.4833	-2.2479	-2.6271	-2.4729	-2.3979	92.277	92.085	182.277	37.481	261.957	15.260	256.839	49.375	62.666	122.059	277.148	3.673	296.772	214.394	209.137	265.145	0.0003998	0.00034322	9.5185e-05	338.91	2.7086e-06	2.6876e-06	471.67	113.09	3.4073e-06	3.5429e-06	205.53	103.71	55.085	25.01	3.9515e-06	52.957	5.6769e-05	1.811e-05	4.8041e-06	328.05	2.0789e-07	1.7877e-07	456.86	109.71	2.0724e-07	2.0061e-07	198.22	100.99	53.407	24.353	2.3199e-07	51.753	94.575	67.109	91.568	-1.282	130.725	116.630	-1.724	3.612	115.934	135.090	2.200	6.359	7.267	11.655	114.608	9.308	-8191	255	
9172.991	1	1	0	0	0.33287	0.099137	0.076013	0.069954	0.16089	0.31756	0.11174	0.20229	0.16798	0.12579	0.16577	0.25087	0.20316	0.095304	0.22744	0.10812	-2.1396	-2.3542	-2.6479	-2.6437	-2.3583	-2.725	-2.6292	-2.5167	-2.7354	-2.3958	-2.6458	-2.8167	-2.5146	-2.6125	-2.5625	-2.4208	110.957	184.119	213.677	273.320	74.838	326.343	314.528	296.036	299.454	151.216	51.332	64.621	205.516	160.826	118.959	147.046	0.00043135	0.00032775	9.1779e-05	347.1	3.9649e-06	4.4893e-06	477.27	114.68	3.8737e-06	2.3159e-06	208.38	106.96	56.602	25.287	2.861e-06	53.89	5.8968e-05	1.7075e-05	4.8223e-06	333.95	2.2236e-07	1.7259e-07	462.37	111.87	2.1037e-07	1.7958e-07	201.93	103.74	54.781	24.69	2.1087e-07	52.392	94.775	65.450	91.661	-1.492	112.697	126.764	-1.295	3.898	109.193	138.105	2.498	6.207	7.410	11.322	112.422	9.409	-8191	255	
9173.110	1	1	0	0	0.1021	0.16921	0.18644	0.060491	0.31792	0.063988	0.181	0.16509	0.073944	0.28965	0.14685	0.13538	0.12307	0.21414	0.2	0.092389	-2.3167	-2.4125	-2.3604	-2.7729	-2.5187	-2.6	-2.675	-2.4896	-2.9125	-2.4562	-2.7354	-2.8083	-2.4437	-2.8021	-2.6271	-2.6188	86.540	166.004	125.343	333.290	194.262	229.129	222.636	274.173	45.607	-7.824	79.284	335.398	26.701	264.884	330.633	236.312	0.00040459	0.00028841	0.0001122	346.78	3.0373e-06	3.203e-06	478.34	114.21	3.7916e-06	2.7953e-06	206.87	106.16	56.23	24.955	2.0919e-06	53.492	5.8209e-05	1.8553e-05	5.1716e-06	334.08	2.1318e-07	1.8021e-07	462.43	111.02	2.376e-07	1.8305e-07	200.67	103.43	54.397	24.35	2.1507e-07	51.984	94.890	73.287	80.809	-1.291	132.623	111.732	-1.510	3.675	131.372	130.493	2.269	6.199	7.586	11.513	115.256	9.200	-8191	255	
9173.183	1	1	0	0	0.19439	0.038347	0.32662	0.29922	0.23786	0.13657	0.1477	0.29074	0.23755	0.12638	0.034798	0.12941	0.12385	0.21785	0.18793	0.37903	-2.2812	-2.6875	-2.4354	-2.7917	-2.4	-2.7333	-2.45	-2.4938	-2.6667	-2.3563	-2.5917	-2.9604	-2.4271	-2.6396	-2.6188	-2.5375	146.025	19.882	306.406	50.472	283.303	207.029	343.463	280.406	325.991	279.847	107.394	-10.397	153.582	73.522	264.542	290.707	0.0003976	0.0003627	8.0545e-05	344.47	3.7395e-06	2.7994e-06	483.08	116.25	3.1627e-06	2.3823e-06	212.22	109.29	57.717	25.481	2.337e-06	54.122	5.9045e-05	1.8794e-05	4.7823e-06	332.56	2.2073e-07	1.9522e-07	465.36	113.21	2.2033e-07	1.8753e-07	206.17	106.41	55.743	24.869	2.1854e-07	52.775	92.567	60.356	98.099	-1.139	117.039	127.842	-1.551	3.866	117.371	114.545	2.459	6.035	7.610	11.323	104.877	9.239	-8191	255	
9173.280	1	1	0	0	0.20499	0.11815	0.20022	0.079251	0.21163	0.18609	0.25709	0.11015	0.068641	0.3365	0.11118	0.12266	0.19596	0.11832	0.12704	0.24794	-2.15	-2.4917	-2.3875	-2.6792	-2.5271	-2.5833	-2.6333	-2.4792	-2.5583	-2.5083	-2.4979	-2.7167	-2.5875	-2.5	-2.5896	-2.4813	199.774	55.193	141.156	195.713	275.903	56.489	-0.231	331.041	57.848	68.648	301.687	21.984	15.901	23.647	249.177	304.901	0.00039755	0.00034005	9.6157e-05	347.89	2.8404e-06	2.4372e-06	476.64	115.7	3.1244e-06	2.8188e-06	209.01	106.67	56.376	25.04	3.1795e-06	53.08	5.9159e-05	1.9348e-05	5.0115e-06	334.75	2.1791e-07	1.8997e-07	463.07	112.47	2.2303e-07	1.8326e-07	201.93	103.68	54.349	24.407	2.27e-07	51.72	89.559	77.228	75.266	-1.289	122.001	122.943	-1.781	3.752	108.885	139.412	2.279	5.788	7.378	11.443	111.173	9.218	-8191	255	
9173.398	1	1	0	0	0.23282	0.11467	0.064363	0.31958	0.17232	0.065052	0.085273	0.16351	0.035687	0.013312	0.17603	0.23359	0.15623	0.24804	0.14832	0.12231	-2.3854	-2.4917	-2.3542	-2.7646	-2.3229	-2.3646	-3.0146	-2.3771	-2.5625	-2.7125	-2.3917	-2.675	-2.4083	-2.4542	-2.5646	-2.4354	301.674	143.089	278.910	323.703	257.605	286.243	202.958	182.732	-3.398	207.853	301.075	261.653	303.321	334.666	342.616	316.845	0.00039014	0.00024498	9.2893e-05	343.9	3.1538e-06	4.2352e-06	474.99	114.72	2.674e-06	2.6898e-06	208.44	106.71	57.436	25.673	2.7778e-06	54.324	5.8269e-05	1.8749e-05	4.8314e-06	331.61	2.1318e-07	1.968e-07	459.96	111.56	2.4073e-07	1.7466e-07	202.65	104.19	55.25	24.942	2.3271e-07	52.818	91.348	63.083	94.297	-1.402	124.089	126.366	-1.691	4.037	127.255	123.850	2.732	6.167	7.568	11.317	125.966	9.309	-8191	255	
9173.495	1	1	0	0	0.2536	0.18547	0.16382	0.075871	0.096043	0.29235	0.12409	0.13006	0.15552	0.15021	0.25336	0.20208	0.096806	0.21805	0.2682	0.10659	-2.1229	-2.6958	-2.2646	-2.525	-2.6208	-2.45	-2.7417	-2.2708	-2.7375	-2.7146	-2.3375	-2.7271	-2.4417	-2.5417	-2.7062	-2.5417	99.586	19.609	16.904	144.289	225.631	86.716	90.544	108.159	288.660	166.207	287.033	297.819	246.482	308.910	208.877	54.792	0.00041793	0.00041255	8.7113e-05	347.65	3.5973e-06	2.7627e-06	478.38	117.11	1.8936e-06	2.5217e-06	211.3	108.33	57.668	25.723	3.654e-06	54.223	5.8615e-05	1.6593e-05	5.1862e-06	335.31	2.2165e-07	1.8128e-07	465.22	113.42	2.204e-07	1.8485e-07	205.28	105.46	55.504	24.957	2.3806e-07	52.932	90.068	69.790	83.902	-1.528	126.965	121.914	-1.667	3.836	136.491	131.562	2.312	6.194	7.351	11.321	129.651	9.373	-8191	255	
9173.591	1	1	0	0	0.27123	0.066484	0.22247	0.11877	0.043054	0.29857	0.06549	0.19396	0.16124	0.081203	0.10783	0.093161	0.21739	0.067742	0.24951	0.068542	-2.0229	-2.6042	-2.575	-2.6229	-2.4125	-2.5062	-2.8958	-2.4688	-2.6125	-2.5854	-2.4229	-2.6604	-2.3729	-2.3521	-2.5583	-2.4437	3.664	181.635	188.032	170.772	332.306	94.870	259.030	28.520	218.148	187.608	102.091	4.932	299.094	250.850	-2.935	336.936	0.00042423	0.00039241	6.1335e-05	350.34	2.488e-06	3.6947e-06	481.59	117.68	2.5225e-06	3.2296e-06	213.71	110.43	58.062	25.788	2.6261e-06	54.754	6.0993e-05	1.7049e-05	4.7332e-06	335.93	2.055e-07	1.9479e-07	467.44	114	2.2907e-07	1.9714e-07	206.96	107.41	56.268	25.122	2.2085e-07	53.348	91.653	67.026	81.197	-1.300	128.697	109.515	-1.860	4.038	124.461	127.728	2.528	5.808	7.355	11.401	112.215	8.994	-8191	255	
9173.711	1	1	0	0	0.18398	0.17654	0.2437	0.12983	0.2195	0.1651	0.20664	0.14875	0.15348	0.15795	0.072058	0.1058	0.14742	0.091716	0.14942	0.12516	-1.8583	-2.5875	-2.1479	-2.5917	-2.6229	-2.2958	-2.7562	-2.525	-2.35	-2.7604	-2.5229	-2.6042	-2.6646	-2.5354	-2.7958	-2.4708	201.422	237.548	202.362	150.966	6.499	227.968	280.899	227.433	189.904	157.263	156.951	247.655	297.279	208.896	112.537	-13.990	0.00039606	0.00028885	0.00010925	345.69	2.964e-06	3.0094e-06	480.42	116.76	3.0346e-06	2.6202e-06	212.23	109.09	58.116	25.868	2.8488e-06	54.253	5.8358e-05	1.8859e-05	5.3244e-06	335.34	2.1255e-07	2.0125e-07	466.25	113.71	2.2729e-07	1.8211e-07	205.39	105.88	55.855	25.143	2.4349e-07	53.028	92.818	60.174	84.614	-0.847	122.724	115.837	-1.674	3.987	113.916	128.541	2.121	6.129	6.988	11.502	126.377	9.151	-8191	255	
9173.808	1	1	0	0	0.10503	0.1041	0.17602	0.48505	0.070625	0.11556	0.10437	0.029518	0.25508	0.04504	0.18896	0.13975	0.16969	0.12794	0.041373	0.31012	-2.0083	-2.6875	-2.35	-2.6312	-2.4688	-2.3438	-2.5708	-2.55	-2.3021	-2.4688	-2.4604	-2.6917	-2.6625	-2.3688	-2.5583	-2.5958	106.636	145.791	20.287	8.550	288.329	291.608	282.690	304.343	335.477	240.530	111.497	261.921	165.506	281.765	52.085	234.638	0.00039809	0.00035364	8.0466e-05	348.44	2.9817e-06	4.3221e-06	480.64	117.21	3.4985e-06	2.9406e-06	211.95	109.28	58.458	25.957	2.2973e-06	54.64	5.9284e-05	1.839e-05	4.8041e-06	336.3	1.9731e-07	1.9407e-07	465.38	113.81	2.3127e-07	1.9483e-07	205.99	106.6	56.374	25.289	2.2382e-07	53.213	93.559	59.688	65.799	-1.359	119.352	134.246	-1.497	3.952	122.793	132.746	2.186	6.187	7.322	11.506	137.421	8.858	-8191	255	
9173.879	1	1	0	0	0.1797	0.016722	0.22806	0.24366	0.15946	0.26795	0.22572	0.19596	0.093471	0.20482	0.35448	0.32639	0.03283	0.12778	0.26521	0.081396	-2.075	-2.6833	-2.4271	-2.4813	-2.3792	-2.4229	-2.4688	-2.6188	-2.4979	-2.75	-2.4562	-2.4083	-2.6042	-2.4688	-2.5104	-2.6375	186.481	251.297	250.870	332.215	79.984	57.267	138.773	286.782	303.266	40.464	12.020	301.239	303.224	291.561	81.608	192.846	0.00039417	0.00030631	9.0586e-05	349.71	3.4944e-06	3.1619e-06	485.3	117.09	3.0389e-06	2.0569e-06	214.79	110.2	58.67	25.997	3.0547e-06	55.004	5.9547e-05	1.9322e-05	4.8132e-06	337	2.1431e-07	1.9931e-07	468.48	113.97	2.3263e-07	1.8991e-07	207.17	107.37	56.607	25.348	2.3279e-07	53.561	93.466	80.143	83.084	-1.619	129.933	129.834	-1.434	3.517	116.430	132.944	2.326	6.200	7.817	11.129	119.446	8.920	-8191	255	
9174.000	1	1	0	0	0.076529	0.21241	0.19831	0.28951	0.2412	0.10938	0.1702	0.20661	0.078807	0.036624	0.11893	0.085425	0.13949	0.17444	0.088245	0.096538	-1.8458	-2.5187	-2.4479	-2.3583	-2.6771	-2.2687	-2.4708	-2.5438	-2.3688	-2.6896	-2.6125	-2.4542	-2.5187	-2.3667	-2.7104	-2.6875	237.687	136.533	134.933	-12.222	27.776	253.338	270.922	39.923	296.837	43.286	60.253	181.014	98.838	343.179	250.531	314.808	0.00042171	0.00024193	0.00010096	350.77	2.0734e-06	3.8612e-06	485.26	117.88	2.885e-06	3.3896e-06	213.05	109.48	58.106	25.628	3.285e-06	54.217	6.196e-05	1.686e-05	5.3153e-06	338.45	2.0049e-07	2.0434e-07	469.56	114.36	2.3184e-07	1.9338e-07	206.24	106.4	56.112	24.98	2.3691e-07	52.92	91.975	65.804	83.276	-1.598	127.128	113.419	-1.795	3.892	108.773	137.008	2.108	6.167	7.629	11.463	106.292	9.324	-8191	255	
9174.094	1	1	0	0	0.22074	0.092648	0.23474	0.26333	0.12604	0.22533	0.11789	0.25469	0.17913	0.22197	0.051816	0.11816	0.2151	0.10481	0.067946	0.036628	-1.8062	-2.6396	-2.4208	-2.5521	-2.575	-2.3521	-2.6854	-2.6021	-2.3	-2.6833	-2.4542	-2.4062	-2.8083	-2.3479	-2.5042	-2.6729	155.907	109.212	156.564	320.345	233.364	336.300	59.569	82.027	308.418	88.382	25.573	31.192	256.499	76.305	170.271	151.002	0.0003989	0.00039872	8.4049e-05	348.06	2.9569e-06	3.8548e-06	483.83	117.79	2.2833e-06	3.0207e-06	214.72	110.08	58.626	26.373	2.9256e-06	56.004	5.935e-05	1.8781e-05	4.8496e-06	336.95	2.1234e-07	1.8818e-07	470.2	114.78	2.4855e-07	1.8464e-07	208.05	107.49	56.962	25.663	2.5679e-07	54.244	93.692	78.750	84.565	-1.460	129.222	125.873	-1.611	3.641	129.735	136.640	2.176	6.017	7.309	11.337	129.750	8.993	-8191	255	
9174.190	1	1	0	0	0.18054	0.17277	0.25586	0.26267	0.10274	0.30482	0.17007	0.15185	0.2386	0.10554	0.22671	0.12611	0.074327	0.12849	0.094	0.1676	-1.7313	-2.4125	-2.5458	-2.4625	-2.6813	-2.4146	-2.3375	-2.5958	-2.2938	-2.5708	-2.5563	-2.4979	-2.6188	-2.4396	-2.5104	-2.7375	-12.586	93.653	62.778	338.432	226.577	171.076	343.035	245.486	173.730	317.326	-7.324	332.780	142.236	324.250	150.310	222.171	0.00040131	0.0002455	0.00010708	357.45	3.922e-06	3.8177e-06	493.54	122.04	3.5275e-06	2.4504e-06	220.29	114.99	61.295	27.003	3.6789e-06	57.093	6.1829e-05	1.8097e-05	5.2807e-06	345.16	2.3371e-07	1.838e-07	479.89	118.65	2.4237e-07	1.9418e-07	213.51	111.49	59.305	26.395	2.5629e-07	55.473	93.571	75.072	95.095	-1.307	115.984	108.800	-1.765	3.765	116.369	121.255	2.150	6.072	7.353	11.230	118.094	9.085	-8191	255	
9174.287	1	1	0	0	0.39216	0.086678	0.085384	0.14067	0.24451	0.17682	0.29894	0.23145	0.095465	0.27882	0.122	0.087695	0.17497	0.24268	0.31021	0.27052	-1.9188	-2.5917	-2.3896	-2.2583	-2.6792	-2.3417	-2.5229	-2.6312	-2.2854	-2.3708	-2.4854	-2.4813	-2.6708	-2.6521	-2.4917	-2.7625	21.773	14.480	336.278	22.897	-3.028	15.669	313.144	71.216	7.241	144.070	158.059	237.326	315.918	193.315	202.653	265.490	0.00041929	0.00044771	0.00010064	361.04	3.2423e-06	3.2167e-06	494.68	123.24	2.532e-06	3.0876e-06	222.17	114.99	62.029	27.342	3.6715e-06	57.515	6.0873e-05	1.9641e-05	5.3317e-06	347.99	2.0394e-07	1.9199e-07	480.68	119.36	2.4443e-07	1.8521e-07	214.92	112.47	59.76	26.636	2.6403e-07	55.893	92.349	68.526	73.594	-1.397	117.533	131.307	-1.629	3.981	113.381	121.796	2.236	5.936	7.558	11.320	119.828	9.128	-8191	255	
9174.407	1	1	0	0	0.14588	0.038799	0.010051	0.12402	0.15766	0.12158	0.098867	0.15922	0.13125	0.2432	0.25147	0.10591	0.15962	0.32618	0.20028	0.25571	-2.1104	-2.3979	-2.6708	-2.3187	-2.6229	-2.5292	-2.3896	-2.6521	-2.525	-2.5542	-2.8375	-2.3854	-2.4813	-2.5854	-2.3875	-2.7042	178.855	23.899	29.663	27.459	239.218	-8.793	11.755	239.620	202.195	204.139	-4.429	282.427	104.242	262.019	312.920	286.439	0.00042416	0.00031332	0.00010036	358.96	3.2088e-06	4.1601e-06	502.59	124.77	2.4921e-06	2.836e-06	226.93	119.67	63.711	27.761	3.263e-06	58.106	6.3221e-05	2.039e-05	5.0424e-06	347.77	2.2878e-07	1.9443e-07	486.68	121.45	2.5687e-07	1.9967e-07	219.99	116.1	61.373	27.141	2.5614e-07	56.586	94.235	65.198	92.067	-1.850	130.856	123.527	-1.574	3.958	130.132	123.113	2.231	5.809	7.292	11.132	115.436	9.209	-8191	255	
9174.479	1	1	0	0	0.25695	0.17137	0.12794	0.33185	0.23957	0.17157	0.055771	0.15395	0.18252	0.23745	0.10186	0.31573	0.27934	0.17898	0.42922	0.29038	-1.8604	-2.3646	-2.4333	-2.4958	-2.6833	-2.4938	-2.4375	-2.5521	-2.3771	-2.3771	-2.675	-2.3271	-2.5271	-2.5729	-2.1917	-2.7583	65.434	229.979	203.012	309.151	194.645	114.796	160.292	263.624	20.916	31.724	285.687	8.482	277.333	-11.207	-6.011	270.482	0.00043343	0.00034158	0.00010899	359.67	2.9552e-06	4.4004e-06	499.3	124.68	3.5614e-06	2.813e-06	226.1	118.09	62.59	27.689	4.0826e-06	58.065	6.2486e-05	2.0787e-05	5.3881e-06	347.86	2.3364e-07	2.1835e-07	484.21	121.25	2.4748e-07	2.0335e-07	218.89	114.86	60.508	27.025	2.56e-07	56.312	94.073	57.839	84.371	-1.564	127.630	123.601	-1.752	4.068	127.709	116.788	2.298	5.695	7.036	11.412	115.612	9.129	-8191	255	
9174.575	1	1	0	0	0.19342	0.060635	0.21774	0.36709	0.086047	0.095596	0.10494	0.19211	0.22524	0.10468	0.11664	0.25906	0.37071	0.058106	0.23026	0.29362	-1.9354	-2.3771	-2.6562	-2.45	-2.4875	-2.6521	-2.4062	-2.6875	-2.6396	-2.4375	-2.5187	-2.4313	-2.4417	-2.5	-2.3583	-2.7083	130.564	147.490	94.116	57.198	28.427	294.299	-2.960	13.870	232.854	98.199	286.443	280.626	208.537	124.137	184.598	243.114	0.00042152	0.00037321	0.00010737	361.61	2.9118e-06	3.6701e-06	501.18	126.13	3.8001e-06	3.5727e-06	226.99	119.41	63.686	28.418	2.7878e-06	59.141	6.0939e-05	1.9862e-05	5.6173e-06	349.34	2.1431e-07	2.0405e-07	485.82	122.48	2.3895e-07	2.1564e-07	220.5	116.11	61.758	27.745	2.5651e-07	57.56	93.019	60.980	77.711	-1.033	131.346	123.404	-1.453	3.729	121.408	135.389	2.472	5.832	7.476	11.370	121.113	9.157	-8191	255	
9174.671	1	1	0	0	0.065712	0.21237	0.22614	0.15523	0.17699	0.17346	0.15055	0.15444	0.35563	0.12803	0.20384	0.17731	0.19023	0.17111	0.16911	0.26033	-2.1083	-2.2167	-2.6146	-2.6312	-2.4854	-2.75	-2.475	-2.5854	-2.4021	-2.6229	-2.6708	-2.5917	-2.4688	-2.6375	-2.3312	-2.6771	270.835	24.713	326.179	160.108	331.258	144.368	215.556	285.738	236.793	231.209	269.954	345.104	276.957	309.658	341.347	284.170	0.00043806	0.00037898	0.000101	365.62	2.38e-06	3.6389e-06	503.12	124.63	2.8465e-06	2.6285e-06	223.35	115.93	60.942	26.977	3.2345e-06	55.851	6.5395e-05	2.2018e-05	5.2844e-06	353.74	2.2426e-07	1.9112e-07	486.96	121.49	2.3845e-07	2.0444e-07	216.09	112.78	59.272	26.382	2.453e-07	54.431	92.433	61.079	84.709	-1.545	131.666	113.897	-1.660	3.683	132.093	123.599	2.063	5.785	7.533	11.172	111.979	9.379	-8191	255	
9174.792	1	1	0	0	0.23939	0.10384	0.10484	0.19491	0.23376	0.11458	0.20746	0.27604	0.072497	0.17727	0.23386	0.23657	0.14835	0.10993	0.23021	0.19743	-2.0708	-2.3479	-2.4938	-2.4229	-2.1813	-2.6146	-2.4042	-2.4688	-2.7271	-2.425	-2.7583	-2.3729	-2.3958	-2.75	-2.4083	-2.6667	288.097	306.621	60.542	172.363	55.306	238.711	321.292	294.214	259.119	16.225	269.311	215.372	192.134	114.151	272.767	-6.425	0.00041414	0.00033823	0.00011488	350.8	2.7707e-06	3.3296e-06	480	117.09	2.6709e-06	2.7372e-06	212.49	110.77	58.167	25.787	3.1485e-06	54.965	6.168e-05	1.7791e-05	5.2316e-06	337.67	2.026e-07	1.8725e-07	464.87	113.93	2.0731e-07	2.0075e-07	205.89	107.63	56.496	25.31	2.4168e-07	53.603	91.134	75.205	76.362	-1.094	128.937	130.094	-1.593	3.707	117.222	121.334	2.284	6.058	7.307	11.220	129.737	9.196	-8191	255	
9174.888	1	1	0	0	0.067194	0.20925	0.16223	0.14931	0.16504	0.12283	0.42013	0.18577	0.12971	0.19969	0.20436	0.26942	0.27173	0.15947	0.081783	0.13624	-2.2958	-2.125	-2.5583	-2.4458	-2.4437	-2.675	-2.3854	-2.4271	-2.5271	-2.3896	-2.5083	-2.4375	-2.4458	-2.725	-2.375	-2.4437	317.420	241.979	82.694	278.060	115.835	142.394	312.561	-9.706	65.522	129.317	178.770	294.029	267.812	197.658	196.946	331.775	0.00041908	0.00041835	8.4084e-05	349.72	2.5145e-06	3.8324e-06	486.94	119.09	3.6047e-06	2.3906e-06	217.96	112.59	59.525	26.795	2.9876e-06	55.933	6.0975e-05	2.0741e-05	4.886e-06	337.35	2.3421e-07	1.9515e-07	471.64	116.06	2.4457e-07	1.9793e-07	211.01	109.58	57.681	26.069	2.4645e-07	54.326	94.058	63.636	99.100	-0.863	140.197	118.986	-1.595	3.597	112.980	132.392	2.297	6.353	7.219	11.541	118.668	9.104	-8191	255	
9174.984	1	1	0	0	0.18653	0.10338	0.25315	0.13339	0.17425	0.1584	0.13677	0.20407	0.3988	0.18283	0.23099	0.29975	0.13369	0.08088	0.14978	0.18676	-2.1521	-2.3646	-2.6125	-2.5375	-2.225	-2.6271	-2.375	-2.5271	-2.6479	-2.25	-2.6146	-2.4646	-2.2875	-2.7104	-2.6208	-2.6063	128.879	151.199	134.118	138.304	211.919	164.925	123.810	281.961	199.449	344.776	209.281	275.039	181.301	68.276	65.156	157.451	0.00043064	0.00032479	0.00010963	351.4	2.9398e-06	2.8025e-06	482.8	119.06	3.427e-06	3.2637e-06	212.21	109.69	58.467	25.961	2.2613e-06	54.276	6.0079e-05	2.0481e-05	5.0588e-06	339.17	2.1276e-07	1.815e-07	467.88	115.05	2.3291e-07	2.1773e-07	206.3	107.06	56.274	25.398	2.3018e-07	53.021	93.961	71.428	73.909	-0.888	119.418	125.825	-1.398	3.548	117.402	138.700	2.369	5.990	7.642	11.233	110.660	9.412	-8191	255	
9175.080	1	1	0	0	0.12744	0.19059	0.25036	0.28435	0.14361	0.31749	0.18836	0.14749	0.22017	0.054535	0.12341	0.1177	0.27146	0.17778	0.099186	0.078116	-2.0354	-2.4708	-2.6937	-2.5833	-2.3563	-2.7854	-2.4333	-2.4854	-2.8771	-2.45	-2.4854	-2.5625	-2.3854	-2.6958	-2.3479	-2.4896	342.455	177.371	61.155	33.051	142.947	265.883	68.591	23.005	188.873	236.658	78.232	307.831	-12.050	182.327	80.120	-6.762	0.00041406	0.00035105	0.00011739	344.73	3.6594e-06	3.3833e-06	474.69	116.38	3.3933e-06	2.6659e-06	210.07	109.6	57.901	25.956	3.1016e-06	54.866	6.0413e-05	1.8749e-05	5.3826e-06	334.37	2.1368e-07	1.8595e-07	460.86	112.9	2.2552e-07	2.0054e-07	203.82	106.52	56.12	25.304	2.3177e-07	53.393	92.889	59.104	80.328	-1.233	130.483	118.521	-1.813	3.823	125.612	134.283	2.350	6.014	7.367	11.243	126.385	9.081	-8191	255	
9175.175	1	1	0	0	0.11824	0.095486	0.065837	0.07465	0.18662	0.24784	0.061718	0.15991	0.31578	0.14282	0.094252	0.17965	0.18236	0.32465	0.2107	0.19598	-2.0458	-2.1604	-2.5208	-2.5958	-2.3354	-2.7	-2.6521	-2.4813	-2.7646	-2.4729	-2.6604	-2.7833	-2.3438	-2.5146	-2.6	-2.5104	134.598	164.185	238.993	285.829	294.114	131.979	219.174	85.052	188.859	121.216	204.929	318.445	154.825	298.743	132.899	260.339	0.00042172	0.00034604	0.00010648	349.49	3.3695e-06	3.2169e-06	486.93	121.04	3.6495e-06	2.3599e-06	219.57	114.92	61.489	27.33	3.7601e-06	57.018	5.7474e-05	1.828e-05	5.288e-06	337.45	2.3287e-07	1.7906e-07	471.92	117.06	2.3263e-07	1.9533e-07	212.95	111.85	59.066	26.682	2.6207e-07	55.506	96.329	66.113	75.959	-1.183	139.287	124.852	-1.496	3.750	121.598	132.053	2.491	5.882	7.575	11.690	111.969	9.048	-8191	255	
9175.271	1	1	0	0	0.13608	0.1437	0.20335	0.18899	0.25544	0.081458	0.094633	0.23775	0.16023	0.17179	0.26114	0.32931	0.27982	0.02242	0.098211	0.1535	-2.1312	-2.4417	-2.3771	-2.6188	-2.3063	-2.5	-2.5938	-2.2333	-2.5521	-2.4938	-2.3854	-2.7708	-2.225	-2.6396	-2.6104	-2.2854	344.746	151.371	110.699	193.096	194.186	177.982	218.162	98.925	326.931	119.963	310.760	283.972	265.332	298.787	144.163	263.369	0.00040558	0.00025785	0.00014769	354.87	4.0034e-06	3.602e-06	490.44	120.92	4.1757e-06	2.8601e-06	219.5	112.42	59.46	26.528	3.5882e-06	55.029	6.0754e-05	1.867e-05	5.8192e-06	343.27	2.2631e-07	1.7712e-07	475.91	117.36	2.4244e-07	1.9605e-07	212.06	109.5	57.343	25.893	2.4002e-07	53.625	91.750	59.925	80.951	-1.159	113.541	130.871	-1.650	3.917	121.045	125.366	2.546	6.155	7.006	11.357	105.648	9.514	-8191	255	
9175.391	1	1	0	0	0.031459	0.24887	0.26445	0.13439	0.13505	0.015659	0.18776	0.159	0.18357	0.18915	0.061736	0.12081	0.18214	0.036453	0.2103	0.052776	-2.1854	-2.5229	-2.3792	-2.8292	-2.5542	-2.4792	-2.5979	-2.3958	-2.5958	-2.4979	-2.5625	-2.8167	-2.2167	-2.3458	-2.5979	-2.4854	134.793	9.022	64.866	-6.649	85.060	73.837	47.641	307.720	327.863	208.996	131.222	157.976	187.373	168.694	60.756	123.478	0.00043398	0.00031624	0.00011512	348.19	3.8544e-06	2.5846e-06	485.61	117.25	2.6418e-06	2.2901e-06	215.44	109.14	59.038	27.03	3.7892e-06	57.007	5.9876e-05	1.9302e-05	5.1916e-06	336.93	2.1756e-07	1.899e-07	470.06	114.36	2.2082e-07	1.7647e-07	207.86	106.41	56.974	26.432	2.5983e-07	55.459	94.366	74.997	78.038	-1.132	124.015	113.041	-1.348	3.921	124.378	131.927	2.277	5.642	7.041	11.336	110.995	9.309	-8191	255	
9175.488	1	1	0	0	0.14416	0.1592	0.088616	0.31869	0.32014	0.091735	0.18696	0.23293	0.21937	0.1576	0.19141	0.21536	0.27536	0.068063	0.25993	0.19553	-2.3417	-2.3875	-2.4042	-2.7979	-2.4458	-2.6417	-2.8458	-2.6792	-2.6771	-2.5812	-2.2667	-2.6104	-2.5438	-2.4896	-2.6688	-2.4688	118.856	74.813	300.546	22.960	244.918	166.903	316.214	260.107	138.589	150.472	9.252	310.851	224.905	305.670	186.591	6.214	0.00041973	0.00034627	8.5877e-05	363.73	2.8527e-06	2.6726e-06	505.12	124.52	3.6394e-06	2.8542e-06	225.25	116.03	62.334	28.281	4.2411e-06	58.734	6.0586e-05	2.0168e-05	5.3753e-06	352.41	2.2567e-07	1.7963e-07	489.17	121.54	2.3945e-07	1.8702e-07	218.13	112.91	59.958	27.547	2.7516e-07	57.039	93.647	68.886	64.153	-1.447	130.744	122.116	-1.739	3.733	114.258	137.342	2.217	6.442	7.008	11.121	123.573	8.957	-8191	255	
9175.584	1	1	0	0	0.16446	0.11095	0.036459	0.18671	0.32228	0.16423	0.091449	0.097376	0.15478	0.11064	0.164	0.10178	0.23419	0.11529	0.081072	0.097154	-2.2979	-2.5042	-2.3312	-2.5854	-2.4708	-2.5375	-2.8271	-2.4854	-2.7042	-2.5646	-2.4104	-2.7458	-2.525	-2.5271	-2.7458	-2.4479	284.909	304.152	97.074	214.006	138.524	246.867	306.264	106.377	116.069	260.584	312.360	254.526	126.006	209.654	-12.149	294.671	0.00044955	0.00031286	8.4657e-05	360.69	3.2069e-06	3.1861e-06	502.87	124.81	3.2216e-06	3.3094e-06	224.57	116.65	62.564	28.231	3.6104e-06	59.339	6.3394e-05	1.9478e-05	5.7901e-06	350.69	2.3012e-07	2.0535e-07	487.14	121.27	2.4436e-07	2.0552e-07	217.96	113.84	60.21	27.64	2.5376e-07	57.659	95.649	56.077	90.533	-1.375	143.466	126.035	-1.464	3.874	105.118	124.565	2.306	5.997	7.678	11.341	113.749	8.855	-8191	255	
9175.680	1	1	0	0	0.20192	0.17547	0.20883	0.29238	0.10374	0.06009	0.18559	0.14918	0.068155	0.17305	0.1403	0.1743	0.085869	0.083979	0.043048	0.10672	-2.1646	-2.4292	-2.3729	-2.6271	-2.4562	-2.3979	-2.8688	-2.5167	-2.6375	-2.7812	-2.5438	-2.7979	-2.6104	-2.5833	-2.7062	-2.5875	311.630	2.199	221.836	59.752	2.497	15.095	257.853	9.538	46.917	208.308	263.492	271.165	173.668	204.197	168.932	256.903	0.00044031	0.00038414	0.00011434	363.65	4.4091e-06	3.9744e-06	508.15	128.12	2.6384e-06	2.5471e-06	232.12	121.21	64.713	29.356	3.8032e-06	60.444	6.4601e-05	2.1347e-05	5.7846e-06	354.45	2.3266e-07	2.1605e-07	493.32	124.57	2.5211e-07	1.9172e-07	225.09	118.21	62.374	28.611	2.6865e-07	59.069	93.710	72.422	86.321	-1.223	120.335	112.683	-1.439	3.775	130.340	119.812	2.480	6.018	7.413	11.045	124.819	9.140	-8191	255	
9175.776	1	1	0	0	0.038476	0.085144	0.12663	0.15418	0.40553	0.042203	0.17717	0.28162	0.050918	0.056997	0.20724	0.25708	0.027977	0.088485	0.12604	0.18539	-2.1292	-2.5896	-2.4188	-2.675	-2.5292	-2.2375	-2.8354	-2.4042	-2.5187	-2.825	-2.3667	-2.5938	-2.4229	-2.3417	-2.6896	-2.4875	88.122	172.670	176.101	240.030	244.687	89.602	140.918	315.935	137.398	43.993	258.550	297.453	0.172	187.971	252.979	253.137	0.00045116	0.00027033	0.00010869	369.24	4.1895e-06	3.4102e-06	504.69	126.37	3.0899e-06	2.8261e-06	227.38	119.23	64.089	29.094	2.6936e-06	59.946	6.4989e-05	2.0559e-05	5.6209e-06	355.6	2.5452e-07	2.2043e-07	489.7	123.1	2.6853e-07	2.0697e-07	220.4	115.74	61.52	28.354	2.3828e-07	58.412	94.474	88.278	89.949	-1.340	119.641	128.479	-1.785	4.083	117.143	118.224	2.206	6.020	7.082	11.318	120.331	8.858	-8191	255	
9175.872	1	1	0	0	0.052112	0.05024	0.055327	0.021185	0.33914	0.32874	0.048614	0.16833	0.03157	0.16256	0.074908	0.24959	0.089446	0.27518	0.086511	0.098873	-1.9542	-2.6708	-2.4854	-2.6896	-2.5979	-2.4437	-2.6813	-2.4437	-2.5021	-2.5833	-2.4229	-2.7208	-2.65	-2.45	-2.7271	-2.6458	151.739	291.845	296.338	-8.932	249.701	128.889	105.125	272.741	217.375	95.548	145.298	301.722	245.205	169.197	105.697	303.308	0.00043121	0.00035534	8.9046e-05	367.66	3.3531e-06	2.7793e-06	505.09	126.1	3.9609e-06	3.5257e-06	227.58	120.72	64.189	29.399	3.5191e-06	60.986	6.3842e-05	2.0012e-05	5.8701e-06	355.93	2.2398e-07	2.1059e-07	489.73	122.91	2.6803e-07	2.0176e-07	222.14	117.33	62.288	28.743	2.5246e-07	59.376	94.075	72.054	87.801	-1.264	120.605	119.441	-1.221	3.715	117.020	120.037	2.044	5.822	7.465	11.098	108.208	8.880	-8191	255	
9175.968	1	1	0	0	0.12519	0.47934	0.060023	0.20115	0.28394	0.15928	0.45252	0.17151	0.099733	0.10241	0.043521	0.2193	0.16172	0.16893	0.23265	0.011122	-2.0042	-2.6312	-2.3	-2.5354	-2.6229	-2.4562	-2.6583	-2.65	-2.45	-2.7917	-2.5458	-2.525	-2.6583	-2.4771	-2.5625	-2.85	179.014	134.186	284.216	268.409	172.897	114.408	267.869	339.205	94.222	281.390	140.376	238.112	66.380	257.395	271.765	96.931	0.00041304	0.00042389	0.00010536	368.62	3.5496e-06	4.3285e-06	510	129.23	3.8228e-06	2.6345e-06	234.9	124.25	65.552	30.033	3.697e-06	62.2	6.4917e-05	2.0364e-05	5.8683e-06	356.86	2.3752e-07	2.21e-07	495.65	125.38	2.7834e-07	2.0061e-07	227.77	120.5	63.751	29.328	2.633e-07	60.573	94.736	60.762	89.249	-1.123	119.407	140.111	-1.524	3.696	130.706	113.422	2.506	6.068	6.958	11.356	117.903	8.971	-8191	255	
9176.064	1	1	0	0	0.14069	0.16915	0.071848	0.34015	0.25885	0.12051	0.098318	0.088321	0.059721	0.12393	0.24972	0.077481	0.17935	0.30369	0.28389	0.016658	-1.8125	-2.6292	-2.4583	-2.4958	-2.7229	-2.3896	-2.7125	-2.6875	-2.5146	-2.6146	-2.6063	-2.4896	-2.5542	-2.3563	-2.5687	-2.7562	39.264	82.652	324.863	257.321	72.819	297.964	187.271	269.111	71.828	296.334	310.519	335.453	237.148	-0.202	292.687	185.484	0.00045675	0.00033334	0.00010895	372.8	3.0205e-06	3.0087e-06	515.15	130.78	2.5768e-06	2.5135e-06	236.29	123.7	65.575	29.885	3.1558e-06	61.842	6.9105e-05	2.1275e-05	6.1539e-06	360.74	2.3844e-07	2.2661e-07	500.47	126.69	2.5602e-07	1.9988e-07	229.26	120.5	63.517	29.146	2.9208e-07	60.176	91.227	57.369	89.881	-1.228	132.272	120.345	-1.382	3.964	119.231	136.043	2.255	5.982	7.312	11.301	115.580	9.050	-8191	255	
9176.183	1	1	0	0	0.1146	0.18822	0.046944	0.060498	0.15471	0.17682	0.08921	0.26418	0.25874	0.21145	0.072188	0.049777	0.12368	0.23501	0.097772	0.23194	-1.9937	-2.8042	-2.5521	-2.4833	-2.8333	-2.5417	-2.6688	-2.6292	-2.3854	-2.8146	-2.5333	-2.4417	-2.6208	-2.3146	-2.6146	-2.6937	114.225	195.848	330.869	243.444	243.334	254.118	-8.497	174.481	166.098	13.268	21.444	326.229	205.855	343.700	14.326	28.589	0.00045437	0.0003992	0.00010783	371.77	3.914e-06	4.1458e-06	508.55	126.92	2.329e-06	2.458e-06	229.26	118.9	63.504	29.319	2.9655e-06	60.578	6.7122e-05	2.0579e-05	5.8374e-06	358.24	2.2497e-07	2.2567e-07	492.7	123.54	2.3845e-07	2.1311e-07	222.02	115.7	61.446	28.457	2.4544e-07	58.922	94.203	72.904	87.141	-1.210	128.932	126.835	-1.282	3.945	115.428	119.515	2.557	5.986	7.330	11.367	134.708	9.347	-8191	255	
9176.279	1	1	0	0	0.26216	0.020399	0.18789	0.19055	0.16571	0.13627	0.25961	0.35481	0.13001	0.17912	0.099998	0.16406	0.35613	0.12163	0.20284	0.31924	-1.7375	-2.5563	-2.5167	-2.4167	-2.7042	-2.4958	-2.6583	-2.7083	-2.4646	-2.6312	-2.6896	-2.4042	-2.7792	-2.5687	-2.4917	-2.7792	305.531	186.369	-5.316	240.090	246.336	319.514	263.307	11.423	246.161	121.715	258.741	308.656	176.141	268.939	-4.053	322.832	0.00044203	0.00043116	0.00010215	373.18	3.4843e-06	3.2705e-06	513.79	128.11	3.3164e-06	3.3396e-06	230.43	120.37	64.017	29.474	2.9896e-06	60.86	6.6172e-05	2.05e-05	5.6173e-06	359.69	2.3371e-07	2.177e-07	498.24	124.5	2.6014e-07	2.1022e-07	223.53	116.98	62.062	28.756	2.7892e-07	59.408	91.623	73.715	72.349	-1.162	118.771	121.477	-1.277	3.776	123.594	133.039	2.276	5.957	7.202	11.085	116.604	8.816	-8191	255	
9176.353	1	1	0	0	0.21672	0.16469	0.05727	0.23904	0.22376	0.22086	0.24158	0.2232	0.10229	0.14003	0.22641	0.22671	0.13634	0.089152	0.17919	0.12833	-1.8583	-2.5646	-2.3937	-2.2917	-2.5958	-2.5104	-2.4562	-2.6333	-2.3208	-2.6625	-2.5187	-2.4396	-2.6688	-2.4167	-2.3937	-2.7313	199.088	94.030	-12.045	84.448	290.061	190.781	233.034	-9.638	265.546	41.742	288.999	108.955	37.075	128.051	305.300	276.934	0.00046982	0.00027332	0.00013404	371.04	3.0678e-06	3.2e-06	512.17	127.58	4.0643e-06	3.4459e-06	232.94	121.32	64.804	29.67	3.3196e-06	61.562	6.7456e-05	2.0422e-05	5.7792e-06	358.93	2.3146e-07	2.1756e-07	497.08	124.8	2.5794e-07	2.2735e-07	225.79	118.48	62.771	28.94	2.714e-07	59.891	90.786	55.871	89.816	-1.024	123.261	108.277	-1.626	3.909	101.732	122.093	1.970	5.807	7.371	10.860	124.804	8.986	-8191	255	
9176.472	1	1	0	0	0.28349	0.027823	0.097852	0.22214	0.081872	0.067748	0.31352	0.2314	0.33033	0.22136	0.12203	0.024195	0.29953	0.2511	0.48944	0.37102	-2.0396	-2.5396	-2.7104	-2.3708	-2.8438	-2.6479	-2.3396	-2.5625	-2.3854	-2.5333	-2.6729	-2.5625	-2.6083	-2.6167	-2.4396	-2.8292	201.389	-10.781	52.920	221.533	288.695	331.602	260.190	2.446	233.827	38.635	209.123	-5.665	342.203	273.079	224.734	329.874	0.00045431	0.00036218	0.00012003	371.9	3.8322e-06	3.9945e-06	515.85	130.08	2.8795e-06	3.1756e-06	235.43	124.43	66.47	30.094	3.2198e-06	62.447	6.6722e-05	2.138e-05	5.4736e-06	360.89	2.4373e-07	2.2553e-07	500.61	126.16	2.7066e-07	2.2511e-07	228.72	120.71	64.022	29.271	2.8008e-07	60.837	93.628	57.663	82.717	-0.695	129.926	123.621	-1.412	3.832	118.502	133.674	2.150	5.797	7.240	11.112	116.603	9.045	-8191	255	
9176.568	1	1	0	0	0.028537	0.091495	0.039492	0.10446	0.26405	0.14635	0.22591	0.020803	0.21158	0.1399	0.17324	0.29739	0.20811	0.21585	0.14419	0.13765	-1.8708	-2.4042	-2.6562	-2.2875	-2.4646	-2.4646	-2.3208	-2.8042	-2.5687	-2.55	-2.7833	-2.4979	-2.5563	-2.5542	-2.4396	-2.6354	72.682	242.751	161.247	238.415	146.185	137.494	187.876	105.320	187.211	278.349	141.444	258.283	276.050	296.903	241.924	218.377	0.00047067	0.00032019	0.00010312	377.93	3.9821e-06	3.6325e-06	523.33	132.71	4.4517e-06	3.1436e-06	241.12	125.83	67.594	30.64	3.6972e-06	63.041	7.0718e-05	2.3255e-05	5.6646e-06	366.3	2.6757e-07	2.3206e-07	507.05	129.1	2.8794e-07	2.6059e-07	232.73	122.41	65.333	29.864	2.9266e-07	61.322	90.262	58.378	74.941	-1.082	115.558	117.001	-1.481	3.673	117.266	127.948	2.283	5.928	7.164	10.994	107.356	9.036	-8191	255	
9176.664	1	1	0	0	0.048424	0.13785	0.18365	0.14084	0.24466	0.26849	0.14201	0.1847	0.092675	0.11675	0.16727	0.26088	0.11423	0.11985	0.29294	0.15372	-1.9979	-2.3792	-2.6667	-2.4375	-2.6979	-2.625	-2.4604	-2.7104	-2.5917	-2.4813	-2.8083	-2.4271	-2.3812	-2.5687	-2.3438	-2.7292	237.695	20.250	138.327	158.563	8.566	332.933	332.727	171.639	107.030	236.858	334.054	15.766	124.508	191.152	38.224	146.391	0.00044863	0.00038611	0.00010078	380.63	4.0258e-06	4.0332e-06	528.14	136.13	3.7687e-06	3.9089e-06	245.25	128.94	70.058	31.336	3.7035e-06	64.184	6.8902e-05	2.3665e-05	5.7464e-06	370.82	2.6899e-07	2.3436e-07	513.29	131.73	2.836e-07	2.4368e-07	237.92	125.82	67.689	30.564	2.8702e-07	62.397	92.335	63.222	80.157	-1.328	136.030	132.048	-1.725	3.705	109.399	124.609	2.286	5.827	6.805	11.108	126.428	8.846	-8191	255	
9176.760	1	1	0	0	0.23818	0.062322	0.28394	0.2795	0.1203	0.055414	0.16548	0.40667	0.087986	0.17125	0.27294	0.17438	0.20455	0.14104	0.082962	0.018321	-2.1229	-2.3542	-2.6063	-2.4833	-2.4917	-2.7729	-2.5812	-2.5354	-2.5042	-2.3479	-2.6937	-2.4479	-2.5271	-2.6354	-2.2292	-2.55	264.436	291.908	196.274	159.222	300.134	117.918	-6.465	291.170	196.462	129.180	255.635	288.342	93.077	30.269	145.349	115.983	0.00048879	0.00034122	0.00010896	388.13	3.8849e-06	4.3348e-06	536.94	138.53	3.4431e-06	2.3625e-06	250.76	132.16	71.687	31.697	4.206e-06	64.935	7.1548e-05	2.405e-05	5.781e-06	376.12	2.6327e-07	2.2948e-07	521.14	134.64	2.6881e-07	2.5163e-07	242.71	128.44	69.199	30.947	3.0329e-07	63.109	93.508	60.930	83.662	-1.179	131.221	119.462	-1.610	3.866	121.857	110.552	2.486	5.697	7.282	10.898	136.825	8.691	-8191	255	
9176.881	1	1	0	0	0.090736	0.24285	0.11737	0.15291	0.089037	0.056779	0.17605	0.072201	0.18081	0.1132	0.084441	0.093335	0.072029	0.073476	0.028373	0.27832	-2.1167	-2.2625	-2.5396	-2.3875	-2.4354	-2.6021	-2.3583	-2.7708	-2.6125	-2.4271	-2.625	-2.6896	-2.4854	-2.7646	-2.5604	-2.6208	193.817	13.448	219.262	336.528	153.509	247.280	102.019	4.758	218.884	90.631	89.272	48.269	337.900	304.691	296.014	118.910	0.00047101	0.00043391	0.00012858	389.6	3.0231e-06	4.6489e-06	543.09	139.72	1.9965e-06	3.4015e-06	249.64	132.27	71.39	31.465	3.8343e-06	64.771	7.1375e-05	2.377e-05	6.243e-06	377.83	2.7272e-07	2.3328e-07	523.83	135.44	2.7933e-07	2.3638e-07	243.18	128.74	68.742	30.728	2.983e-07	63.03	92.011	65.357	70.976	-0.981	138.951	116.574	-1.405	4.043	107.301	132.803	2.452	5.938	7.088	11.051	124.550	9.175	-8191	255	
9176.977	1	1	0	0	0.096677	0.10727	0.20882	0.086503	0.17869	0.066497	0.12079	0.041087	0.13394	0.087171	0.10478	0.09846	0.12532	0.056528	0.15183	0.23274	-2.2313	-2.3292	-2.6125	-2.5938	-2.3083	-2.5396	-2.5062	-2.6396	-2.7313	-2.4792	-2.9104	-2.5292	-2.4646	-2.8021	-2.5563	-2.5729	86.213	102.012	112.168	210.397	32.040	80.084	281.854	152.003	255.427	70.354	284.893	115.047	197.509	129.401	0.364	17.538	0.00047688	0.00043175	9.7575e-05	389.85	4.1047e-06	3.6882e-06	539.36	139.99	3.6021e-06	2.4713e-06	251.72	132.25	70.998	31.898	4.2867e-06	64.874	6.8956e-05	2.4264e-05	6.4741e-06	376.86	2.7033e-07	2.3551e-07	524.31	135.93	2.7123e-07	2.3898e-07	243.01	128.19	68.887	31.055	3.119e-07	63.225	95.678	56.571	77.451	-1.086	130.683	125.247	-1.740	3.546	107.234	134.817	2.173	5.669	7.138	10.978	121.723	8.761	-8191	255	
9177.073	1	1	0	0	0.30619	0.29347	0.27802	0.26687	0.17087	0.21758	0.19022	0.43353	0.097174	0.12341	0.22356	0.25239	0.21829	0.16657	0.18597	0.10095	-2.2313	-2.0708	-2.3833	-2.5083	-2.2854	-2.675	-2.5979	-2.45	-2.6875	-2.2125	-2.6292	-2.5458	-2.3667	-2.7812	-2.4708	-2.5292	90.772	184.166	288.489	74.002	170.605	217.132	174.986	279.563	174.346	39.188	-3.630	332.170	224.715	273.206	250.064	325.804	0.00048316	0.00031349	0.00011846	393.92	2.8982e-06	3.7956e-06	544.7	141.09	4.0611e-06	2.9754e-06	252.57	132.71	71.753	32.037	3.0212e-06	64.971	7.1626e-05	2.4401e-05	6.6359e-06	380.59	2.6257e-07	2.3645e-07	527.21	137.35	2.7692e-07	2.431e-07	244.05	128.95	69.439	31.2	2.8963e-07	63.414	91.475	50.592	81.022	-1.017	128.273	121.139	-1.693	3.639	128.854	135.415	2.354	5.612	7.144	10.881	117.840	9.070	-8191	255	
9177.169	1	1	0	0	0.2324	0.21277	0.057413	0.083907	0.2486	0.043915	0.08258	0.072213	0.090848	0.13249	0.25987	0.12747	0.18376	0.14328	0.16476	0.23093	-2.1333	-2.3083	-2.4833	-2.6167	-2.3667	-2.7042	-2.4104	-2.3583	-2.7583	-2.3812	-2.6437	-2.6437	-2.3438	-2.7021	-2.2604	-2.4729	69.101	216.952	45.607	314.808	260.786	81.694	260.529	214.892	285.503	223.482	256.309	137.253	273.214	165.936	72.048	334.599	0.00048676	0.00035914	0.0001214	396.66	3.361e-06	3.6472e-06	544.34	142.42	4.0666e-06	3.7165e-06	253.69	132.95	72.091	31.989	3.4959e-06	64.774	7.2092e-05	2.2747e-05	6.5614e-06	382.18	2.6793e-07	2.516e-07	528.26	138.27	2.7457e-07	2.5372e-07	245.58	129.7	69.781	31.185	3.0199e-07	63.217	90.334	50.358	100.969	-1.254	134.977	106.980	-1.655	3.737	110.797	139.399	2.110	5.729	6.947	10.764	111.695	8.743	-8191	255	
9177.264	1	1	0	0	0.21367	0.27796	0.22029	0.11715	0.18629	0.072541	0.21364	0.22707	0.13836	0.1448	0.19362	0.28003	0.084343	0.19258	0.071093	0.22648	-2.1667	-2.3417	-2.3917	-2.5771	-2.3	-2.6042	-2.6542	-2.2729	-2.6396	-2.6208	-2.5417	-2.8354	-2.4813	-2.7062	-2.5896	-2.3125	31.407	172.094	268.488	324.798	144.280	244.518	49.918	322.718	127.005	180.017	182.371	304.759	340.649	244.366	263.923	286.385	0.00046733	0.00041789	9.936e-05	391.82	3.4661e-06	4.5428e-06	543.29	140.04	2.8708e-06	3.3441e-06	253.63	134.25	72.177	31.712	3.3692e-06	64.842	6.926e-05	2.4922e-05	6.4359e-06	378.45	2.7209e-07	2.5419e-07	524.8	136.55	2.6768e-07	2.6471e-07	244.7	130.4	69.613	31.028	3.046e-07	63.246	89.450	66.107	77.196	-1.260	139.119	110.619	-1.815	3.817	125.121	123.840	2.344	5.733	7.151	10.991	119.234	8.884	-8191	255	
9177.360	1	1	0	0	0.13403	0.048475	0.30482	0.25452	0.075203	0.3508	0.10733	0.32571	0.12315	0.14471	0.27824	0.053817	0.19017	0.14339	0.10917	0.055762	-2.075	-2.3875	-2.3312	-2.3937	-2.3771	-2.5229	-2.4208	-2.3292	-2.6167	-2.4917	-2.6104	-2.7229	-2.4521	-2.5792	-2.5646	-2.4646	324.266	148.324	-5.870	307.934	85.465	200.566	165.230	316.066	32.269	127.753	304.992	305.671	263.597	115.808	51.717	299.368	0.00048263	0.00040645	0.00011153	390.64	3.8092e-06	4.5087e-06	540.04	138.83	2.9117e-06	3.3067e-06	250.96	131.67	70.811	31.332	3.9331e-06	64.173	7.0079e-05	2.3366e-05	6.3867e-06	375.18	2.6948e-07	2.3838e-07	521.27	135.19	2.6746e-07	2.4071e-07	242.4	128.13	68.349	30.648	2.9136e-07	62.413	89.651	55.378	82.877	-1.070	131.132	120.928	-1.404	3.778	138.471	133.903	2.462	5.848	7.188	11.258	114.333	8.963	-8191	255	
9177.480	1	1	0	0	0.14721	0.12687	0.11357	0.12625	0.45819	0.036032	0.2969	0.24047	0.078806	0.2129	0.11219	0.15168	0.21401	0.05553	0.096414	0.21133	-2.2146	-2.4604	-2.3729	-2.7375	-2.4437	-2.6708	-2.6083	-2.3438	-2.6646	-2.3812	-2.4667	-2.6875	-2.4354	-2.4	-2.5229	-2.4354	221.132	60.172	141.427	19.359	175.378	56.370	241.192	319.592	293.202	310.138	219.299	339.005	28.364	213.408	327.887	328.339	0.00045637	0.00037825	9.8003e-05	388.2	3.4519e-06	4.2103e-06	532.65	137.23	4.5701e-06	4.0554e-06	245.25	130.6	70.298	31.356	3.5337e-06	64.023	6.883e-05	2.2923e-05	5.9229e-06	372.28	2.5833e-07	2.2366e-07	515.01	133.27	2.8268e-07	2.3045e-07	237.98	126.73	67.798	30.654	2.9671e-07	62.551	97.099	86.625	84.066	-1.271	127.420	126.672	-1.428	3.926	114.789	115.581	2.129	5.823	7.491	10.912	114.406	8.916	-8191	255	
9177.577	1	1	0	0	0.25209	0.035808	0.32085	0.24598	0.19916	0.10846	0.22886	0.14273	0.20939	0.15044	0.082041	0.15852	0.1358	0.073134	0.1233	0.21765	-2.0271	-2.4479	-2.4125	-2.5896	-2.4437	-2.5687	-2.7	-2.4333	-2.5083	-2.6583	-2.4125	-2.7083	-2.2896	-2.5458	-2.6896	-2.3937	183.493	335.530	157.639	234.888	10.360	70.649	272.451	289.159	241.761	268.365	57.094	320.392	231.501	232.417	52.185	260.906	0.00047049	0.00045501	0.0001262	387.83	3.7097e-06	3.2264e-06	538.68	140.37	3.3277e-06	3.7001e-06	249.03	131.94	70.659	31.579	4.2521e-06	64.38	7.067e-05	2.3223e-05	6.3504e-06	373.86	2.6412e-07	2.3422e-07	521.04	136.28	2.6974e-07	2.7685e-07	241.86	128.26	68.23	30.829	2.9845e-07	62.665	93.134	59.805	77.505	-1.127	117.124	119.294	-1.446	3.661	105.722	133.663	2.149	5.750	7.233	11.063	111.361	8.939	-8191	255	
9177.648	1	1	0	0	0.21107	0.31048	0.18072	0.088085	0.24137	0.080302	0.05911	0.15278	0.20231	0.16248	0.25949	0.12866	0.20729	0.17811	0.1349	0.18212	-1.9104	-2.5417	-2.5292	-2.6688	-2.45	-2.5167	-2.9	-2.3	-2.6354	-2.6083	-2.2979	-2.7542	-2.4875	-2.5646	-2.6688	-2.275	5.637	73.754	196.996	23.830	142.549	190.420	42.009	54.733	315.707	117.208	15.764	294.904	235.823	300.312	234.114	336.430	0.00046768	0.00030611	9.448e-05	381.54	4.0659e-06	4.222e-06	527	135.37	3.5864e-06	3.8112e-06	246	130.75	69.057	31.538	3.9855e-06	64.015	7.0342e-05	2.2337e-05	6.3867e-06	368.71	2.6546e-07	2.5045e-07	512.44	131.94	2.7358e-07	2.2684e-07	238.95	127.03	67.209	30.629	2.774e-07	62.343	91.002	67.617	79.079	-1.465	135.110	118.004	-1.574	3.562	115.301	119.417	2.463	6.099	7.272	11.156	110.795	9.082	-8191	255	
9177.744	1	1	0	0	0.091504	0.14066	0.043165	0.092401	0.1224	0.14577	0.26891	0.12036	0.094477	0.24622	0.07551	0.2267	0.05715	0.085014	0.062275	0.39459	-2.0229	-2.4771	-2.3438	-2.6021	-2.4083	-2.6063	-2.7729	-2.4021	-2.575	-2.5792	-2.5979	-2.9208	-2.475	-2.6542	-2.7354	-2.4271	207.401	135.063	44.937	247.203	24.263	306.905	334.215	270.416	281.701	147.283	-12.415	293.618	263.830	155.194	-7.219	328.124	0.00049138	0.00034343	8.2038e-05	380.25	2.3788e-06	4.7306e-06	529.66	136.98	3.3764e-06	3.3367e-06	248.18	131.4	70.675	31.648	4.0865e-06	65.102	7.0162e-05	2.2304e-05	5.6846e-06	367.92	2.5001e-07	2.3803e-07	512.71	132.79	2.7102e-07	2.074e-07	241.01	128.26	68.267	30.97	2.7169e-07	63.283	91.590	60.575	92.252	-1.319	133.430	125.292	-1.249	3.694	110.613	131.699	2.397	5.847	7.145	11.188	131.518	8.719	-8191	255	
9177.865	1	1	0	0	0.23839	0.0337	0.15345	0.21752	0.12081	0.17568	0.20019	0.16089	0.20455	0.22265	0.27478	0.31813	0.0083504	0.23005	0.09764	0.29146	-1.9896	-2.5125	-2.2188	-2.5917	-2.6729	-2.5563	-2.5896	-2.2687	-2.4521	-2.6292	-2.3937	-2.6646	-2.4833	-2.5104	-2.6125	-2.7438	-7.580	9.732	336.524	316.249	299.378	318.984	223.232	219.883	315.892	161.834	295.219	321.081	334.950	8.929	286.765	288.488	0.00050344	0.00047115	0.00013921	384.08	2.8244e-06	3.1429e-06	534.51	137.89	2.9744e-06	2.9179e-06	250.22	132.69	70.62	31.842	4.1637e-06	65.202	7.3167e-05	2.1979e-05	6.4777e-06	371.46	2.6553e-07	2.2639e-07	518.17	133.94	2.7521e-07	2.0863e-07	242.61	129.31	68.576	31.041	2.9389e-07	63.373	91.775	64.758	74.665	-1.228	117.626	122.528	-1.331	3.762	105.226	137.402	2.400	5.841	7.396	11.019	120.402	8.898	-8191	255	
9177.961	1	1	0	0	0.083113	0.35154	0.1734	0.15966	0.24482	0.086009	0.074926	0.17951	0.10848	0.27828	0.074279	0.1987	0.10599	0.16059	0.053387	0.1949	-1.8833	-2.6375	-2.2479	-2.6333	-2.5229	-2.3875	-2.6833	-2.5	-2.4625	-2.8354	-2.4938	-2.7313	-2.5729	-2.4583	-2.6042	-2.6437	-0.955	84.904	98.675	307.158	90.875	-2.636	298.889	330.286	121.929	92.745	62.161	331.647	32.103	215.742	306.712	299.508	0.00046772	0.00029195	0.00012109	383.5	3.1832e-06	4.3451e-06	533.57	136.92	3.5478e-06	3.0995e-06	251.37	132.83	70.434	31.664	3.8299e-06	65.053	7.1961e-05	2.0253e-05	6.6778e-06	370.42	2.5424e-07	2.2761e-07	517.98	133.29	2.7933e-07	2.1557e-07	242.78	129.31	68.415	30.924	2.9809e-07	63.371	94.162	52.260	89.522	-0.926	119.778	108.567	-1.394	3.918	126.852	130.252	2.405	5.830	6.867	11.080	133.103	9.082	-8191	255	
9178.057	1	1	0	0	0.24854	0.020802	0.18285	0.11022	0.17462	0.065921	0.14739	0.16867	0.24537	0.2096	0.12305	0.075408	0.1112	0.10718	0.20322	0.1662	-1.8771	-2.5708	-2.4104	-2.5375	-2.6125	-2.2104	-2.6146	-2.3958	-2.3021	-2.6417	-2.4646	-2.4062	-2.7021	-2.4083	-2.6042	-2.6063	84.462	230.523	68.840	320.049	325.303	294.765	138.984	190.772	58.726	68.065	222.772	150.221	324.033	-5.040	275.430	245.936	0.00046935	0.00039624	0.00011626	385.31	3.4345e-06	3.2721e-06	534.75	136.36	3.7555e-06	3.4819e-06	249.32	132.49	70.093	31.248	3.0948e-06	64.443	7.1769e-05	2.2858e-05	6.3849e-06	371.8	2.5142e-07	2.4061e-07	517.97	132.23	2.718e-07	2.3963e-07	241.46	128.67	67.65	30.53	2.8167e-07	62.827	89.951	62.667	85.298	-1.223	130.322	130.877	-1.611	3.853	125.908	128.035	2.309	5.607	7.341	11.126	106.866	9.074	-8191	255	
9178.154	1	1	0	0	0.22787	0.15654	0.19758	0.16804	0.11999	0.16168	0.083471	0.19274	0.25101	0.19754	0.13729	0.047321	0.072781	0.1002	0.16101	0.17198	-1.8396	-2.6708	-2.5312	-2.4021	-2.7188	-2.2562	-2.7833	-2.5042	-2.2771	-2.7125	-2.4813	-2.6229	-2.6583	-2.6021	-2.6479	-2.7687	274.607	202.384	186.508	250.184	270.220	327.797	120.056	285.761	207.719	45.948	327.228	333.610	304.798	91.965	117.966	229.965	0.00049068	0.00043164	0.00012138	382.42	3.4251e-06	3.6739e-06	529.46	135.8	4.1429e-06	2.8709e-06	248.85	131.99	69.454	31.315	3.6478e-06	63.767	6.9404e-05	2.2526e-05	6.0484e-06	367.92	2.5283e-07	2.2503e-07	515.91	131.76	2.6974e-07	2.139e-07	240.83	128.14	67.105	30.405	2.8688e-07	62.184	92.955	66.096	74.645	-1.111	112.229	132.567	-1.348	3.899	106.107	121.484	2.180	5.958	7.108	11.137	134.896	8.983	-8191	255	
9178.272	1	1	0	0	0.02777	0.22217	0.17606	0.12713	0.037676	0.067169	0.19033	0.1081	0.09871	0.35909	0.36945	0.1513	0.061415	0.07282	0.14745	0.2844	-1.8521	-2.6417	-2.4625	-2.3958	-2.5667	-2.2833	-2.6562	-2.6146	-2.4875	-2.7479	-2.4854	-2.5563	-2.6792	-2.4833	-2.7687	-2.8063	314.118	186.890	47.823	13.530	21.030	9.376	341.323	320.106	19.678	106.082	330.362	310.160	251.130	-13.372	335.175	344.005	0.00045319	0.00030364	0.00012657	378.52	3.4079e-06	4.4999e-06	522.23	133.97	3.3245e-06	3.5319e-06	243.95	128.78	68.776	30.939	2.4359e-06	63.33	6.9153e-05	2.192e-05	6.4158e-06	364.68	2.3604e-07	2.5232e-07	508.13	130.02	2.878e-07	2.3277e-07	235.7	125.29	66.261	30.206	2.8182e-07	61.665	93.260	68.957	83.182	-1.039	135.482	128.441	-1.612	3.912	112.750	135.946	2.464	5.558	7.275	11.047	127.750	8.735	-8191	255	
9178.344	1	1	0	0	0.11993	0.024886	0.051872	0.015932	0.033289	0.21868	0.15124	0.10633	0.19311	0.13692	0.18209	0.15384	0.21116	0.086966	0.25482	0.24758	-1.8271	-2.6937	-2.5375	-2.5229	-2.7021	-2.4396	-2.6	-2.6354	-2.2938	-2.6208	-2.6708	-2.5938	-2.525	-2.4521	-2.6792	-2.8312	159.362	106.776	47.371	6.171	71.725	163.482	247.203	163.436	131.855	5.429	307.083	41.867	14.520	333.488	128.498	324.783	0.000453	0.00031539	0.00010828	379.18	4.2374e-06	5.3409e-06	524.94	133.99	3.3723e-06	3.1594e-06	244.65	130.14	69.106	31.032	4.3754e-06	63.452	6.8502e-05	2.3366e-05	6.3977e-06	365.97	2.6609e-07	2.5311e-07	509.81	130.51	2.8516e-07	2.4129e-07	237.03	126.57	66.932	30.368	2.8992e-07	61.785	93.053	59.046	71.359	-1.343	138.225	111.619	-1.541	3.919	113.304	111.263	2.137	5.848	7.144	11.236	112.678	8.916	-8191	255	
9178.442	1	1	0	0	0.3444	0.14068	0.096897	0.33108	0.26067	0.27637	0.32741	0.17416	0.16292	0.2019	0.062258	0.13896	0.16	0.10056	0.29586	0.34299	-2.0333	-2.4333	-2.6729	-2.4208	-2.6479	-2.6542	-2.5208	-2.5458	-2.2062	-2.6458	-2.6417	-2.5146	-2.5521	-2.5458	-2.3542	-2.7583	246.709	139.532	170.754	198.751	105.304	157.366	1.537	254.289	73.837	-0.117	304.814	67.927	64.774	16.226	238.284	91.922	0.0004779	0.00043179	9.5676e-05	378.81	3.6903e-06	3.5407e-06	528.88	133.96	4.2117e-06	2.7158e-06	244.08	130.69	69.408	30.959	3.5894e-06	63.663	7.2409e-05	2.4681e-05	6.243e-06	366.05	2.7004e-07	2.4693e-07	510.45	130.41	3.0116e-07	2.5228e-07	237.38	127.08	67.071	30.239	3.1609e-07	61.885	90.094	62.187	104.098	-1.031	134.565	101.043	-1.430	3.830	108.167	111.010	2.283	5.939	7.281	11.068	112.343	8.810	-8191	255	
9178.561	1	1	0	0	0.17884	0.20927	0.25897	0.19237	0.36687	0.13281	0.23356	0.13791	0.19145	0.10849	0.18998	0.029746	0.05505	0.24293	0.14631	0.36122	-1.9146	-2.4833	-2.5708	-2.2562	-2.7167	-2.4062	-2.4813	-2.5833	-2.2958	-2.4333	-2.6625	-2.425	-2.7417	-2.5438	-2.3583	-2.6708	40.976	231.522	302.047	255.524	14.218	214.546	218.076	246.708	114.515	169.611	258.909	68.611	326.423	-4.960	49.831	281.151	0.0004914	0.00038858	0.0001132	378.12	2.9635e-06	3.2458e-06	529.45	134.2	3.5728e-06	3.0215e-06	247.06	130.52	69.662	31.074	2.929e-06	63.442	7.1967e-05	2.3861e-05	6.3376e-06	366.15	2.7195e-07	2.5196e-07	513.66	130.85	2.9725e-07	2.4209e-07	239.39	127.54	67.193	30.301	3.0279e-07	61.961	92.681	62.997	67.544	-1.276	138.750	102.904	-1.565	3.787	114.282	124.641	2.420	5.495	7.120	11.049	107.543	8.668	-8191	255	
9178.657	1	1	0	0	0.12983	0.060633	0.067319	0.14835	0.16031	0.2037	0.41912	0.13695	0.17439	0.20708	0.18489	0.2725	0.16283	0.27803	0.15526	0.10766	-1.9083	-2.4646	-2.5479	-2.325	-2.6646	-2.425	-2.3521	-2.7167	-2.3458	-2.4375	-2.9979	-2.4833	-2.5271	-2.5583	-2.3729	-2.7313	26.985	306.585	40.986	331.228	294.220	254.196	311.381	104.931	229.801	278.983	-13.628	-4.182	289.702	285.439	187.179	-7.918	0.00045579	0.00036332	0.00012483	381	3.6395e-06	4.35e-06	526.39	134.36	3.3164e-06	4.2191e-06	245.47	129.18	68.731	31.002	2.4078e-06	63.183	7.0378e-05	2.2649e-05	6.2321e-06	367.29	2.6962e-07	2.3688e-07	511.64	130.88	3.0287e-07	2.4216e-07	236.19	125.45	66.377	30.166	3.0322e-07	61.454	94.611	60.991	74.102	-1.075	116.597	117.611	-1.286	3.555	120.822	122.877	2.502	5.971	7.625	10.980	115.781	8.983	-8191	255	
9178.753	1	1	0	0	0.22933	0.022364	0.34618	0.11512	0.23398	0.25122	0.20931	0.29902	0.12745	0.044505	0.15296	0.18931	0.074323	0.16986	0.1536	0.30045	-1.9188	-2.4896	-2.5958	-2.4229	-2.5563	-2.6875	-2.4562	-2.7229	-2.5083	-2.4313	-2.7313	-2.3312	-2.5062	-2.7625	-2.2438	-2.8354	316.054	181.848	216.553	251.720	208.831	186.452	223.866	323.955	71.488	154.190	258.309	295.136	218.795	9.610	336.148	243.983	0.00046319	0.00035583	0.00011639	377.37	3.2288e-06	4.1636e-06	528.04	133.96	3.0877e-06	3.0247e-06	244.48	128.63	68.048	30.81	2.9325e-06	62.634	7.0891e-05	2.3463e-05	6.4577e-06	365.16	2.4662e-07	2.4779e-07	509.45	130.53	2.755e-07	2.5625e-07	236.21	125.01	66.161	29.966	3.1486e-07	60.957	91.703	59.782	76.711	-1.274	122.668	110.782	-1.667	4.206	117.169	103.657	2.353	5.790	7.254	11.033	130.940	8.922	-8191	255	
#DATA ENDS
