BOXY.EXE: ISS Imagent and Oximeter Data Acquisition Program Version 0.80
Ascii Record File

#ACQ INFORMATION
2  Detector Channels 
16  External MUX Channels 
1  Auxiliary Channels 
5000  Waveform (CCF) Frequency (Hz)
1  Waveforms Skipped 
30  Waveforms Averaged 
1  Cycles Averaged 
16  Acquisitions per Waveform 
10.0806  Updata Rate (Hz) 

#FILE INFORMATION
TRUE -- External MUX Channel results are PARSED.
FALSE -- AC DC and Phase are NOT grouped.
TRUE -- Companion Program Settings File CREATED.
FALSE -- AC data not excluded
FALSE -- DC data not excluded
FALSE -- Phase data not excluded
FALSE -- Auxillary Chn. data not excluded
Tab delimiters

#CALIBRATION STATE
TRUE -- Waveform Calibration Values APPLIED.


#AUX CALIBRATION VALUES
Val Type	aux-1	

Term	1.0000e+00	
Factor	0.0000e+00	


#WF CALIBRATION VALUES
A = Detector Channel
Val Type	A-AC1	A-AC2	A-AC3	A-AC4	A-AC5	A-AC6	A-AC7	A-AC8	A-AC9	A-AC10	A-AC11	A-AC12	A-AC13	A-AC14	A-AC15	A-AC16	A-DC1	A-DC2	A-DC3	A-DC4	A-DC5	A-DC6	A-DC7	A-DC8	A-DC9	A-DC10	A-DC11	A-DC12	A-DC13	A-DC14	A-DC15	A-DC16	A-Ph1	A-Ph2	A-Ph3	A-Ph4	A-Ph5	A-Ph6	A-Ph7	A-Ph8	A-Ph9	A-Ph10	A-Ph11	A-Ph12	A-Ph13	A-Ph14	A-Ph15	A-Ph16	

Term	0.00000e+00	0.00000e+00	0.00000e+00	0.00000e+00	0.00000e+00	0.00000e+00	0.00000e+00	0.00000e+00	0.00000e+00	0.00000e+00	0.00000e+00	0.00000e+00	0.00000e+00	0.00000e+00	0.00000e+00	0.00000e+00	0.00000e+00	0.00000e+00	0.00000e+00	0.00000e+00	0.00000e+00	0.00000e+00	0.00000e+00	0.00000e+00	0.00000e+00	0.00000e+00	0.00000e+00	0.00000e+00	0.00000e+00	0.00000e+00	0.00000e+00	0.00000e+00	0.00000e+00	0.00000e+00	0.00000e+00	0.00000e+00	0.00000e+00	0.00000e+00	0.00000e+00	0.00000e+00	0.00000e+00	0.00000e+00	0.00000e+00	0.00000e+00	0.00000e+00	0.00000e+00	0.00000e+00	0.00000e+00	
Factor	1.00000e+00	1.00000e+00	1.00000e+00	1.00000e+00	1.00000e+00	1.00000e+00	1.00000e+00	1.00000e+00	1.00000e+00	1.00000e+00	1.00000e+00	1.00000e+00	1.00000e+00	1.00000e+00	1.00000e+00	1.00000e+00	1.00000e+00	1.00000e+00	1.00000e+00	1.00000e+00	1.00000e+00	1.00000e+00	1.00000e+00	1.00000e+00	1.00000e+00	1.00000e+00	1.00000e+00	1.00000e+00	1.00000e+00	1.00000e+00	1.00000e+00	1.00000e+00	X	X	X	X	X	X	X	X	X	X	X	X	X	X	X	X	

B = Detector Channel
Val Type	B-AC1	B-AC2	B-AC3	B-AC4	B-AC5	B-AC6	B-AC7	B-AC8	B-AC9	B-AC10	B-AC11	B-AC12	B-AC13	B-AC14	B-AC15	B-AC16	B-DC1	B-DC2	B-DC3	B-DC4	B-DC5	B-DC6	B-DC7	B-DC8	B-DC9	B-DC10	B-DC11	B-DC12	B-DC13	B-DC14	B-DC15	B-DC16	B-Ph1	B-Ph2	B-Ph3	B-Ph4	B-Ph5	B-Ph6	B-Ph7	B-Ph8	B-Ph9	B-Ph10	B-Ph11	B-Ph12	B-Ph13	B-Ph14	B-Ph15	B-Ph16	

Term	0.00000e+00	0.00000e+00	0.00000e+00	0.00000e+00	0.00000e+00	0.00000e+00	0.00000e+00	0.00000e+00	0.00000e+00	0.00000e+00	0.00000e+00	0.00000e+00	0.00000e+00	0.00000e+00	0.00000e+00	0.00000e+00	0.00000e+00	0.00000e+00	0.00000e+00	0.00000e+00	0.00000e+00	0.00000e+00	0.00000e+00	0.00000e+00	0.00000e+00	0.00000e+00	0.00000e+00	0.00000e+00	0.00000e+00	0.00000e+00	0.00000e+00	0.00000e+00	-1.80303e+02	-1.38097e+02	-1.19944e+02	-1.80819e+02	-7.90061e+01	-8.11867e+01	-1.57378e+02	-1.62015e+02	-8.94823e+01	-7.32125e+01	-1.71564e+02	-1.71541e+02	-1.83671e+02	-1.76147e+02	-9.09538e+01	-1.49257e+02	
Factor	2.87017e-05	1.45962e-04	4.30770e-05	1.57142e-01	1.46671e-06	1.61965e-06	1.59980e-01	4.53428e-02	1.43660e-06	1.32136e-06	7.50420e-02	2.82269e-02	3.42424e-02	8.08152e-03	1.41912e-06	1.17899e-02	2.86743e-06	3.12586e-06	8.73151e-07	7.88825e-02	3.38613e-08	3.44756e-08	7.56613e-02	2.28643e-02	3.41259e-08	3.46871e-08	3.65790e-02	1.37491e-02	1.70758e-02	4.08423e-03	3.47117e-08	5.78306e-03	X	X	X	X	X	X	X	X	X	X	X	X	X	X	X	X	



#DISTANCE SETTINGS
A = Detector Channel
A-1	A-2	A-3	A-4	A-5	A-6	A-7	A-8	A-9	A-10	A-11	A-12	A-13	A-14	A-15	A-16	

2.5000e+00	3.0000e+00	2.5000e+00	3.0000e+00	2.0000e+00	3.0000e+00	1.5000e+00	3.0000e+00	3.0000e+00	3.0000e+00	3.0000e+00	3.0000e+00	3.0000e+00	3.0000e+00	1.5000e+00	3.0000e+00	

B = Detector Channel
B-1	B-2	B-3	B-4	B-5	B-6	B-7	B-8	B-9	B-10	B-11	B-12	B-13	B-14	B-15	B-16	

1.0000e+01	1.0000e+01	1.0000e+01	1.4400e+00	1.0000e+01	1.0000e+01	1.5100e+00	1.9400e+00	1.0000e+01	1.0000e+01	1.9900e+00	2.4900e+00	2.4100e+00	2.9000e+00	1.0000e+01	2.9800e+00	




#DATA BEGINS
time	group	step	mark	flag	A-AC1	A-AC2	A-AC3	A-AC4	A-AC5	A-AC6	A-AC7	A-AC8	A-AC9	A-AC10	A-AC11	A-AC12	A-AC13	A-AC14	A-AC15	A-AC16	A-DC1	A-DC2	A-DC3	A-DC4	A-DC5	A-DC6	A-DC7	A-DC8	A-DC9	A-DC10	A-DC11	A-DC12	A-DC13	A-DC14	A-DC15	A-DC16	A-Ph1	A-Ph2	A-Ph3	A-Ph4	A-Ph5	A-Ph6	A-Ph7	A-Ph8	A-Ph9	A-Ph10	A-Ph11	A-Ph12	A-Ph13	A-Ph14	A-Ph15	A-Ph16	B-AC1	B-AC2	B-AC3	B-AC4	B-AC5	B-AC6	B-AC7	B-AC8	B-AC9	B-AC10	B-AC11	B-AC12	B-AC13	B-AC14	B-AC15	B-AC16	B-DC1	B-DC2	B-DC3	B-DC4	B-DC5	B-DC6	B-DC7	B-DC8	B-DC9	B-DC10	B-DC11	B-DC12	B-DC13	B-DC14	B-DC15	B-DC16	B-Ph1	B-Ph2	B-Ph3	B-Ph4	B-Ph5	B-Ph6	B-Ph7	B-Ph8	B-Ph9	B-Ph10	B-Ph11	B-Ph12	B-Ph13	B-Ph14	B-Ph15	B-Ph16	aux-1	digaux	

7587.205	1	1	0	256	0.22346	0.42048	0.15137	0.10451	0.1897	0.091276	0.16954	0.31068	0.10815	0.1638	0.36425	0.19576	0.12877	0.24801	0.17781	0.1189	-2.175	-2.725	-2.4813	-2.8937	-2.6854	-2.6104	-2.9958	-2.9167	-2.625	-2.9958	-2.8729	-2.9667	-3.1333	-2.6667	-2.6312	-2.7917	187.085	180.875	-29.487	-63.433	223.143	-39.668	112.144	223.101	271.497	154.003	228.937	-53.667	190.722	252.502	183.971	185.893	0.00026311	0.00046943	7.6122e-05	1291.8	2.4681e-06	9.058e-06	1279.8	333.42	3.8733e-06	3.5473e-06	383.4	123.2	106.68	36.665	2.3639e-06	46.286	0.00048594	0.00049621	0.0001386	1303.9	5.3861e-06	5.4382e-06	1297	338.5	5.3795e-06	5.4261e-06	390.22	126.59	109.08	37.428	5.4638e-06	47.374	131.202	8.835	-13.738	-69.225	50.971	59.191	-69.202	-64.607	27.166	65.951	-64.947	-60.367	-59.955	-55.126	83.213	-55.686	-8191	255	
7587.276	1	1	0	0	0.322	0.061889	0.1453	0.064953	0.19426	0.068896	0.24938	0.13084	0.16675	0.22	0.14474	0.074989	0.1069	0.24754	0.049382	0.026347	-1.9458	-2.6063	-2.3646	-2.9604	-2.9208	-2.6354	-2.9208	-2.9104	-2.6125	-2.8708	-2.7938	-2.8604	-2.7562	-2.7917	-2.9042	-2.8604	1.973	65.733	171.459	-73.218	16.857	178.815	174.671	269.007	236.473	92.357	264.321	238.023	138.693	-67.642	117.852	19.667	0.00026655	0.00063687	8.8031e-05	1290.1	1.8831e-06	6.7174e-06	1280.2	333.32	4.5539e-07	3.5494e-06	386.03	124.17	106.74	36.78	2.0219e-06	46.352	0.00048372	0.00049152	0.00013728	1302	5.467e-06	5.4984e-06	1299	338.94	5.635e-06	5.5796e-06	391.33	127.02	109.34	37.59	5.6553e-06	47.511	124.330	19.833	-20.629	-69.107	31.689	40.344	-69.222	-64.444	-37.876	78.150	-64.926	-60.466	-60.069	-55.108	16.696	-55.910	-8191	255	
7587.372	1	1	0	0	0.025265	0.08515	0.20695	0.46702	0.10277	0.15174	0.17005	0.19982	0.12742	0.15004	0.14943	0.35048	0.12932	0.19885	0.078325	0.086004	-2.15	-2.8167	-2.6667	-2.8479	-2.8438	-2.5479	-2.7917	-2.7417	-2.55	-2.6896	-2.7667	-2.6583	-2.8063	-2.5542	-2.6146	-2.8646	-7.526	178.355	6.851	246.258	-53.850	122.423	240.888	271.422	164.107	72.792	-82.112	206.981	255.392	262.323	30.553	-55.466	0.00026823	0.00036067	0.00020849	1298.7	3.7717e-06	7.4865e-06	1283	334.64	1.1209e-06	3.3562e-06	384.91	123.84	106.34	36.459	4.1243e-06	46.234	0.00049973	0.0004997	0.00013825	1308.1	5.2709e-06	5.2312e-06	1299.1	338.92	5.1844e-06	5.0459e-06	389.79	126.45	108.57	37.333	4.6952e-06	47.122	122.506	-66.007	16.998	-69.042	90.707	54.811	-69.397	-64.236	8.095	62.439	-64.948	-60.768	-59.686	-55.119	60.503	-56.060	-8191	255	
7587.493	1	1	0	0	0.12678	0.14941	0.09556	0.18752	0.043395	0.19902	0.21236	0.31448	0.16498	0.099494	0.35628	0.17991	0.21118	0.36856	0.15475	0.33825	-1.9333	-2.7896	-2.5187	-2.775	-2.8187	-2.7562	-2.8875	-3.0417	-2.6396	-2.6896	-2.6917	-2.8167	-2.7917	-2.6125	-2.6396	-2.9813	73.051	-32.977	90.725	246.948	58.930	23.920	249.873	240.732	11.637	127.651	-39.928	181.890	195.001	-67.115	134.762	172.128	0.00020465	0.00056052	0.00020251	1275.3	1.3152e-06	6.442e-06	1268.7	330.1	3.6046e-06	4.2182e-06	382.36	122.43	105.2	36.244	4.2566e-06	45.845	0.00040974	0.00039876	0.00011015	1287.3	4.2961e-06	4.2631e-06	1279.7	334.35	4.2355e-06	4.1815e-06	385.74	124.9	107.29	36.95	4.2645e-06	46.763	123.191	29.911	-6.957	-69.136	19.119	36.320	-69.389	-64.376	73.519	66.707	-64.924	-60.723	-59.970	-54.878	53.949	-55.867	-8191	255	
7587.589	1	1	0	0	0.37168	0.15754	0.219	0.044554	0.1149	0.12932	0.33913	0.33508	0.078651	0.08471	0.27349	0.17144	0.1307	0.12772	0.21863	0.10054	-2.1042	-2.7479	-2.7542	-2.7229	-2.8563	-2.6896	-2.6917	-3.0854	-2.4208	-2.8167	-2.8875	-2.6521	-2.9333	-2.8125	-2.7083	-2.9083	135.629	-23.887	82.777	241.585	25.485	165.358	208.666	171.292	70.684	-23.347	199.004	232.586	219.151	212.620	-53.627	255.311	0.00029326	0.00036577	0.0001752	1268.8	2.3944e-06	3.8429e-06	1260.3	330.17	3.5776e-06	3.4604e-06	381.82	122.56	105.95	36.252	5.3619e-06	46.202	0.00038568	0.00038702	0.00010847	1280.4	4.3239e-06	4.2819e-06	1276.3	334.85	4.5231e-06	4.5317e-06	385.54	125.12	107.85	37.04	4.7057e-06	47.037	135.451	-12.334	86.503	-69.011	69.730	9.399	-69.168	-64.250	-40.589	71.197	-64.960	-60.673	-60.127	-54.900	36.202	-55.942	-8191	255	
7587.685	1	1	0	0	0.11615	0.19223	0.08427	0.28772	0.21948	0.10112	0.19434	0.078728	0.29286	0.22947	0.18018	0.16783	0.18799	0.18476	0.30323	0.33604	-2.275	-2.7562	-2.6833	-2.6937	-2.675	-2.6146	-2.6125	-2.9729	-2.6188	-2.8354	-2.8292	-2.6833	-2.9625	-2.7958	-2.6125	-3.0792	243.328	255.108	6.708	267.403	157.290	101.954	227.115	180.254	132.148	97.571	265.964	209.809	235.182	218.766	160.815	231.684	0.00027311	0.00046824	8.7408e-05	1272.4	3.7159e-06	3.476e-06	1268.9	330.73	3.0148e-06	5.2342e-06	383.26	122.81	105.6	36.354	4.6112e-06	45.954	0.00042489	0.00042599	0.00011848	1283.1	4.7311e-06	4.7378e-06	1281.4	335.71	4.7926e-06	4.8075e-06	387.74	125.66	107.95	37.236	4.9127e-06	47.055	132.009	-13.625	47.982	-69.094	68.338	12.900	-69.255	-64.333	2.853	36.725	-64.792	-60.418	-60.001	-55.088	78.727	-55.577	-8191	255	
7587.804	1	1	0	0	0.062288	0.20917	0.17012	0.37264	0.14105	0.072812	0.20253	0.26302	0.16234	0.049143	0.13635	0.15101	0.15125	0.1927	0.09986	0.070599	-2.2167	-2.7146	-2.7625	-2.8271	-2.8833	-2.7021	-2.7917	-2.9146	-2.6583	-2.5104	-2.8625	-2.6542	-2.6979	-2.8208	-2.5604	-2.9229	215.996	-41.137	-40.693	196.067	122.727	193.397	201.208	179.309	45.992	-21.978	235.277	271.751	203.089	52.999	63.325	226.856	0.00023638	0.00013136	0.00015822	1273.6	1.6844e-06	7.0931e-06	1266.4	331.5	3.0797e-06	3.4752e-06	382.92	123.04	105.14	36.24	3.5607e-06	45.97	0.00043195	0.00043631	0.00012232	1287.4	4.7757e-06	4.7544e-06	1281.4	336.31	4.7641e-06	4.731e-06	387.38	125.8	107.89	37.13	4.7216e-06	46.977	135.372	-68.023	31.865	-69.154	-5.717	65.426	-69.294	-64.259	53.312	73.956	-64.850	-60.498	-60.120	-54.847	36.488	-55.883	-8191	255	
7587.900	1	1	0	0	0.042121	0.11549	0.1019	0.10532	0.14966	0.17088	0.23054	0.0324	0.049781	0.18859	0.21383	0.2631	0.098124	0.00044976	0.38677	0.15762	-1.9688	-2.7729	-2.8979	-2.6646	-2.7875	-2.7979	-3.0792	-3.0354	-2.6104	-2.625	-3.0625	-2.7021	-2.75	-2.8396	-2.575	-2.8271	17.618	203.295	242.560	255.501	103.448	255.676	240.791	196.043	11.246	99.491	246.485	169.003	213.813	180.000	75.743	-43.534	0.00022001	0.00047022	0.00014364	1279.3	5.9169e-06	3.9041e-06	1275	331.49	3.2459e-06	1.6696e-06	382.76	122.86	105.98	36.312	2.5248e-06	46.166	0.00041563	0.00041716	0.00011501	1289.5	4.541e-06	4.5568e-06	1285.7	336.13	4.5995e-06	4.5937e-06	387.15	125.58	108.11	37.141	4.7244e-06	47.118	141.523	18.747	21.586	-69.013	31.599	5.971	-69.347	-64.249	-10.762	46.122	-65.055	-60.690	-60.093	-54.770	114.606	-55.719	-8191	255	
7587.972	1	1	0	0	0.022724	0.081269	0.10998	0.12096	0.2532	0.057709	0.34466	0.30618	0.082421	0.28057	0.25823	0.13888	0.090162	0.07769	0.034206	0.31521	-2.2521	-2.5792	-2.8271	-2.7875	-2.7292	-2.7729	-2.6437	-2.8958	-2.5312	-2.5021	-2.9729	-2.6083	-2.6063	-2.7229	-2.6688	-2.7812	132.051	-22.711	132.553	12.208	-57.501	177.965	267.003	183.113	31.097	-47.931	225.604	121.458	182.550	56.342	208.423	225.362	0.00018845	0.00063234	6.339e-05	1283	2.0739e-06	5.1684e-06	1272	332.01	2.6922e-06	2.7783e-06	384.08	123.1	106.31	36.486	4.9823e-06	46.163	0.00042295	0.0004322	0.00012029	1292.9	4.7256e-06	4.7429e-06	1287.4	336.42	4.7621e-06	4.7087e-06	388.42	125.79	108.27	37.215	4.7287e-06	47.128	117.916	2.491	7.282	-69.152	67.697	53.161	-69.077	-64.491	42.078	150.045	-64.942	-60.280	-59.982	-54.918	31.035	-55.790	-8191	255	
7588.093	1	1	0	0	0.14579	0.1307	0.14521	0.21317	0.32295	0.21484	0.25912	0.13564	0.13715	0.06331	0.053713	0.031706	0.19086	0.13254	0.19077	0.23512	-2.2375	-2.3833	-2.8229	-2.8229	-2.45	-2.8458	-2.5938	-2.9042	-2.6479	-2.7271	-3.0208	-2.7125	-2.675	-2.7896	-2.5438	-2.8146	0.179	38.675	266.775	134.023	267.186	110.563	145.458	248.544	18.494	187.827	224.307	53.589	-63.231	7.168	-6.604	203.510	0.00028177	0.00027025	7.2408e-05	1282.7	4.8951e-06	7.9577e-06	1278.6	333.8	1.8291e-06	4.2041e-06	383.57	123.45	106.61	36.494	1.588e-06	46.186	0.00042123	0.00042	0.00011827	1294.8	4.6331e-06	4.6045e-06	1291.6	337.44	4.6945e-06	4.6737e-06	388.76	126.16	108.52	37.261	4.8319e-06	47.164	116.532	8.283	-10.414	-69.059	80.446	68.206	-69.323	-64.399	78.911	45.146	-64.787	-60.671	-60.009	-55.050	119.370	-55.791	-8191	255	
7588.189	1	1	0	0	0.088281	0.34117	0.12713	0.14861	0.25457	0.15063	0.15774	0.22718	0.032225	0.252	0.21247	0.082079	0.21094	0.14458	0.10239	0.10557	-2.3604	-2.5146	-2.8688	-2.8563	-2.5833	-2.9813	-2.8021	-2.8667	-2.7458	-2.5646	-3.0354	-2.6958	-2.5917	-3.0542	-2.7896	-2.7812	59.043	145.931	115.851	-68.580	134.973	32.878	201.355	-61.179	250.320	131.399	226.014	182.150	191.859	-17.007	105.122	-28.193	0.00022847	0.00045775	0.00016858	1287.1	3.3492e-07	8.5262e-06	1282.5	333.91	3.6817e-06	4.653e-06	384.57	124.24	107.2	36.65	4.6381e-06	46.551	0.00043256	0.00043086	0.00012266	1299.9	4.8271e-06	4.8009e-06	1297.2	338.52	4.8618e-06	4.8753e-06	390.51	126.79	109.42	37.555	4.9569e-06	47.42	139.754	-1.269	0.733	-69.130	37.512	75.817	-69.478	-64.402	88.686	56.022	-64.977	-60.536	-59.768	-55.035	-4.280	-55.849	-8191	255	
7588.285	1	1	0	0	0.11445	0.20532	0.14749	0.14111	0.083124	0.20137	0.035289	0.18722	0.15323	0.08798	0.10973	0.20428	0.14364	0.24382	0.23821	0.17113	-2.4583	-2.6917	-2.7375	-2.95	-2.4271	-2.825	-2.8937	-2.7542	-2.7396	-2.5896	-2.975	-2.8375	-2.4167	-3.0104	-2.5729	-2.6792	-28.969	133.529	170.100	223.785	216.306	248.255	34.558	196.050	73.150	93.493	213.616	-64.024	-48.496	267.155	212.539	174.275	0.00027577	0.00024388	0.0001988	1300.1	2.8381e-06	3.8692e-06	1293.6	335.9	2.2228e-06	3.6704e-06	388.74	124.73	107.53	37.146	4.5303e-06	46.753	0.00044615	0.00045164	0.00012553	1311	4.9577e-06	5.0095e-06	1308.1	341.26	5.1598e-06	5.1627e-06	394.74	127.77	110.09	37.908	5.2232e-06	47.819	132.832	29.641	55.336	-69.202	28.816	86.923	-69.539	-64.369	56.955	46.642	-65.041	-60.865	-59.904	-54.837	30.523	-56.000	-8191	255	
7588.381	1	1	0	0	0.041201	0.26541	0.17468	0.12825	0.13871	0.13877	0.38241	0.20278	0.21621	0.20544	0.24456	0.19288	0.2076	0.11829	0.20415	0.14069	-2.4146	-2.5625	-2.8438	-2.9646	-2.6292	-2.9188	-2.7646	-2.875	-2.9688	-2.4042	-2.9125	-2.8958	-2.4917	-3.0167	-2.6437	-2.6771	60.661	165.974	109.663	136.522	191.638	255.538	182.345	243.981	137.882	142.799	-81.156	272.417	212.720	-41.036	253.296	227.560	0.0002779	0.00060869	2.1283e-05	1309.7	2.8183e-06	3.9509e-06	1302.3	337.99	4.1709e-06	3.1091e-06	390.59	125.5	108.03	37.357	2.9606e-06	47.08	0.00046927	0.00047546	0.00013054	1319.7	5.1654e-06	5.1234e-06	1316.2	342.97	5.2522e-06	5.168e-06	396.27	128.16	110.42	38.093	5.3685e-06	48.066	132.334	6.204	-17.160	-69.232	67.905	47.382	-69.423	-64.542	94.659	63.830	-64.829	-60.592	-59.998	-54.970	-34.784	-55.748	-8191	255	
7588.502	1	1	0	0	0.2023	0.11934	0.16519	0.14861	0.2129	0.29461	0.48571	0.08735	0.12756	0.053321	0.27806	0.20899	0.20357	0.27684	0.18797	0.082017	-2.2979	-2.4771	-2.6729	-2.85	-2.5896	-2.8708	-2.7625	-2.8125	-2.6896	-2.6396	-2.9667	-2.875	-2.7104	-2.7854	-2.8104	-2.6646	177.753	54.328	56.409	207.193	228.854	153.621	211.199	20.928	193.693	196.863	-70.154	222.998	-48.709	-76.815	-27.432	231.820	0.00021733	0.00045502	0.00017861	1310.8	3.1465e-06	5.2493e-06	1301.5	338.87	2.8396e-06	4.6518e-06	391.86	125.46	108.6	37.244	4.3376e-06	47.059	0.00048058	0.00048703	0.00013645	1324.2	5.5619e-06	5.6819e-06	1317.9	344.25	5.8567e-06	5.9006e-06	397.16	128.62	111.22	38.222	6.1035e-06	48.271	141.697	7.934	29.652	-69.054	130.836	46.017	-69.318	-64.444	59.213	42.230	-64.819	-60.501	-60.154	-55.029	14.699	-55.783	-8191	255	
7588.573	1	1	0	0	0.18205	0.33891	0.13865	0.10313	0.21898	0.13077	0.21523	0.3359	0.23153	0.064708	0.14305	0.18354	0.24358	0.034439	0.10242	0.22028	-2.3667	-2.6104	-2.5667	-3.1833	-2.55	-2.8479	-2.9833	-2.6583	-2.8354	-2.6458	-2.9875	-3.0479	-2.5917	-2.8333	-2.8917	-2.4771	84.895	57.561	39.710	-81.107	219.017	176.026	258.019	200.099	232.085	89.639	115.212	203.677	-42.100	127.242	150.444	225.034	0.00032747	0.00065786	6.0967e-05	1319.5	4.4965e-06	4.0209e-06	1309	340.2	4.2078e-06	4.8757e-06	391.87	126.45	108.28	37.303	3.6757e-06	47.022	0.00053315	0.00053821	0.00014872	1328.8	5.8078e-06	5.8162e-06	1324	345.78	5.8419e-06	5.8842e-06	399.25	129.26	111.38	38.249	6.2138e-06	48.314	130.688	-39.935	-7.445	-69.050	81.008	79.681	-69.538	-64.512	59.727	48.870	-65.118	-60.585	-59.933	-55.093	14.989	-55.944	-8191	255	
7588.670	1	1	0	0	0.2487	0.12668	0.1265	0.024948	0.017613	0.17286	0.052951	0.1318	0.21385	0.15501	0.17809	0.085712	0.036143	0.04913	0.27454	0.25284	-2.2792	-2.5187	-2.625	-3.05	-2.5396	-2.7167	-2.9646	-2.6667	-2.8417	-2.7062	-2.6771	-2.9458	-2.6875	-2.8563	-2.925	-2.5396	16.954	161.557	164.317	-38.562	94.508	134.213	78.529	-65.336	115.994	192.229	-43.195	189.899	-4.342	8.425	214.157	-59.072	0.00022968	0.00035229	0.00019184	1314	3.9457e-06	3.8192e-06	1311.5	342.13	4.1662e-06	1.8131e-06	394.64	127.02	109.41	37.729	5.5911e-06	47.632	0.00055387	0.00057866	0.000163	1330.5	6.4561e-06	6.4619e-06	1329.7	348.14	6.3016e-06	6.2058e-06	401.73	130.22	112.26	38.642	5.8717e-06	48.857	127.429	-0.173	25.829	-69.314	70.104	52.086	-69.436	-64.519	-23.801	100.940	-64.830	-60.543	-60.324	-54.932	15.461	-55.926	-8191	255	
7588.766	1	1	0	0	0.07815	0.15905	0.0096506	0.087883	0.29063	0.080906	0.20438	0.20239	0.1976	0.074386	0.14844	0.25231	0.043338	0.11756	0.15064	0.33075	-2.1021	-2.7146	-2.5958	-3.0667	-2.6521	-2.55	-3.0833	-2.6042	-2.7646	-2.4771	-2.6229	-2.9604	-2.4708	-2.7396	-2.9375	-2.4667	100.992	129.170	92.092	219.751	231.395	115.830	203.291	248.889	-72.431	97.649	224.720	187.225	44.975	115.999	245.000	272.037	0.00026529	0.0002986	0.00013893	1337	3.2155e-06	7.0696e-06	1332.6	347.64	3.6685e-06	4.2888e-06	401.25	128.82	111.7	38.246	2.6873e-06	48.202	0.00051495	0.0005177	0.00014431	1350.6	5.7508e-06	5.8131e-06	1350.7	352.92	5.955e-06	5.9832e-06	407.4	131.97	114.32	39.239	6.109e-06	49.501	134.101	6.609	15.775	-69.363	56.182	55.472	-69.430	-64.451	30.902	70.354	-65.211	-60.701	-60.107	-55.164	65.540	-56.004	-8191	255	
7588.885	1	1	0	0	0.04992	0.30048	0.13711	0.24692	0.081177	0.29313	0.23801	0.16378	0.13738	0.12293	0.2313	0.14131	0.20805	0.33937	0.21427	0.18222	-2.3458	-2.75	-2.7021	-3.2167	-2.7333	-2.7771	-3.0187	-2.6437	-2.7292	-2.7562	-2.6771	-2.9042	-2.7521	-2.5854	-2.7292	-2.5458	92.941	-8.973	-40.364	259.556	37.631	78.190	240.049	257.750	266.253	-19.881	230.148	-35.451	162.949	262.741	133.764	-82.012	0.00028167	0.00066203	8.2729e-05	1346.8	4.1168e-06	8.2825e-06	1335.8	349.66	5.2404e-07	4.1976e-06	401.9	128.97	111.55	38.303	8.584e-07	48.269	0.00053875	0.00053589	0.00014836	1357.5	5.7326e-06	5.6039e-06	1352.1	354.2	5.4133e-06	5.3563e-06	407.26	131.94	113.86	39.19	5.2429e-06	49.368	139.635	4.107	8.263	-69.212	74.528	8.906	-69.376	-64.525	108.112	52.739	-65.007	-60.880	-60.245	-55.007	42.795	-55.951	-8191	255	
7588.981	1	1	0	0	0.21907	0.072323	0.020014	0.27852	0.28855	0.1483	0.43842	0.10008	0.050394	0.1647	0.1552	0.17281	0.11819	0.20191	0.23115	0.061735	-2.0875	-2.7812	-2.4708	-3.0563	-2.7042	-2.7562	-3.2	-2.5792	-2.9646	-2.8417	-2.6583	-2.9	-2.6521	-2.6021	-2.9042	-2.7292	6.095	53.638	18.010	236.970	4.287	259.567	186.342	184.191	45.420	87.611	231.291	43.153	-22.299	243.549	116.034	231.563	0.00018137	0.00064321	0.00011976	1333.3	3.9531e-06	3.6644e-06	1330.6	346.62	1.5781e-06	2.4857e-06	399.94	129.34	111.63	38.711	1.0369e-06	48.642	0.00046942	0.0004684	0.00013012	1346.4	5.1859e-06	5.1094e-06	1343.5	351.78	5.2345e-06	5.1463e-06	405.92	131.82	113.99	39.42	5.3384e-06	49.563	131.410	19.178	50.226	-69.377	76.965	16.594	-69.340	-64.471	11.754	36.671	-65.231	-60.901	-60.146	-55.077	103.138	-56.233	-8191	255	
7589.077	1	1	0	0	0.13704	0.17632	0.28451	0.2279	0.28476	0.096582	0.11241	0.43535	0.13379	0.15976	0.31081	0.10954	0.065301	0.35919	0.05259	0.17182	-2.1771	-2.9146	-2.4771	-2.9042	-2.7729	-2.4437	-3.2271	-2.7917	-2.8021	-2.9021	-2.6437	-2.775	-2.7917	-2.6271	-2.7438	-2.7354	-64.082	151.802	24.345	-25.618	51.962	-53.274	-77.411	184.049	-36.002	46.957	204.823	113.683	109.929	237.207	-51.788	150.604	0.00029668	0.00058055	5.7942e-05	1337	5.6539e-06	5.6934e-06	1330.4	347.87	3.4776e-06	3.7362e-06	400.04	129.27	112.22	38.381	8.3979e-06	48.068	0.00046833	0.00047191	0.00013224	1348.5	5.1407e-06	5.0734e-06	1346.3	353.04	5.1559e-06	5.0252e-06	405.52	131.78	113.77	39.278	4.9785e-06	49.246	138.550	-7.772	63.442	-69.247	22.076	45.792	-69.430	-64.481	29.683	54.156	-64.943	-60.680	-60.394	-55.179	30.473	-55.948	-8191	255	
7589.173	1	1	0	0	0.14434	0.28052	0.099867	0.12894	0.14804	0.14684	0.24647	0.13942	0.048352	0.15236	0.12186	0.30453	0.15742	0.19633	0.021838	0.14497	-2.1063	-2.6958	-2.6146	-2.9854	-2.6667	-2.5896	-3.05	-2.8125	-2.4604	-2.7812	-2.7083	-2.7438	-2.6979	-2.4958	-2.7313	-2.8833	-51.874	0.700	-19.510	236.350	169.021	150.255	238.266	227.311	167.835	21.674	85.332	-52.392	-74.033	260.368	252.586	197.562	0.00023836	0.00060992	0.00013553	1335.8	6.9603e-06	4.7957e-06	1326.2	346.25	4.6662e-06	3.1499e-06	398.73	128.42	111.56	38.298	3.879e-06	48.278	0.00043758	0.00042646	0.00011999	1343.3	4.6647e-06	4.5985e-06	1338.9	350.52	4.5766e-06	4.5671e-06	403.79	131.21	113.41	39.204	4.5687e-06	49.29	115.495	-31.127	43.797	-69.073	52.468	75.170	-69.411	-64.536	9.902	65.840	-65.060	-60.645	-60.232	-55.277	49.342	-56.131	-8191	255	
7589.269	1	1	0	0	0.17093	0.23759	0.14516	0.31804	0.10489	0.13253	0.27783	0.11643	0.19007	0.28563	0.10151	0.088732	0.093381	0.24292	0.094111	0.28215	-2.0208	-2.675	-2.5292	-2.7687	-2.6854	-2.5333	-3.0104	-2.85	-2.4188	-2.625	-2.6729	-2.7833	-2.8146	-2.7938	-2.7854	-2.7375	83.779	197.390	272.549	258.633	221.232	91.443	185.209	264.251	133.583	28.914	189.770	-19.477	108.002	254.916	11.164	202.829	0.00025939	0.00044994	9.9907e-05	1335.5	3.9189e-06	3.49e-07	1334.3	348.07	1.4449e-06	3.3838e-06	402.23	129.2	111.56	38.325	1.5891e-06	48.163	0.00041351	0.00041285	0.00011387	1345.2	4.4971e-06	4.5276e-06	1346.3	352.71	4.5776e-06	4.5596e-06	405.53	131.85	113.75	39.281	4.6339e-06	49.242	129.930	40.088	-1.619	-69.247	91.849	54.194	-69.336	-64.543	74.154	70.900	-65.065	-60.668	-60.428	-55.176	44.769	-55.828	-8191	255	
7589.365	1	1	0	0	0.060051	0.19463	0.053738	0.11401	0.13412	0.13227	0.20629	0.10759	0.038535	0.084392	0.20285	0.23155	0.16757	0.17297	0.11008	0.024835	-1.9688	-2.9646	-2.5104	-2.8479	-2.7542	-2.6188	-2.9979	-2.7438	-2.5375	-2.6917	-2.7	-2.8438	-2.8542	-2.3896	-2.7938	-2.8875	62.722	202.076	270.921	170.198	186.542	247.291	220.865	219.004	272.819	123.109	178.504	202.330	97.915	-42.168	259.805	138.580	0.00023962	0.00056338	9.8043e-05	1334.9	3.655e-06	6.9392e-06	1327.2	346.49	1.6471e-06	4.9151e-06	398.26	128.06	110.59	38.301	3.7239e-06	47.89	0.00040442	0.00040533	0.00011202	1342.9	4.2321e-06	4.2517e-06	1337	350.48	4.0799e-06	3.9061e-06	402.44	130.44	112.37	38.91	3.6733e-06	48.716	126.951	20.223	30.116	-69.122	99.260	30.036	-69.543	-64.537	53.906	72.290	-65.031	-60.919	-60.079	-55.156	60.900	-56.064	-8191	255	
7589.486	1	1	0	0	0.17168	0.043644	0.048227	0.30199	0.11031	0.37122	0.17263	0.1326	0.059538	0.31334	0.047978	0.24385	0.1645	0.23632	0.062546	0.17433	-2.0208	-2.7958	-2.6729	-2.5812	-2.9062	-2.7875	-2.7667	-2.9292	-2.3979	-2.775	-2.6479	-2.5938	-2.8937	-2.6063	-2.8104	-2.8563	219.293	68.757	243.853	222.033	121.594	27.731	207.198	131.232	-60.950	4.774	39.867	239.181	206.337	184.038	-56.808	135.539	0.0002648	0.00051062	0.00026313	1327.2	1.9508e-06	5.5449e-06	1321	344.36	1.1268e-06	2.4337e-06	396.6	127.4	110.23	38.111	6.3307e-06	47.964	0.00032119	0.00030502	8.4554e-05	1334.1	3.2637e-06	3.2135e-06	1330	348	3.239e-06	3.1244e-06	400.18	129.64	111.71	38.727	3.1601e-06	48.624	127.332	-22.247	5.373	-69.105	81.038	46.131	-69.365	-64.558	-10.805	83.241	-64.990	-60.765	-59.734	-55.140	27.826	-55.886	-8191	255	
7589.582	1	1	0	0	0.31613	0.088227	0.12741	0.36834	0.07418	0.33178	0.13854	0.053473	0.20384	0.29431	0.16348	0.16975	0.12799	0.14007	0.27102	0.38366	-2.0854	-2.8563	-2.6604	-2.9333	-2.6354	-2.5354	-2.9854	-2.9938	-2.5521	-2.6646	-2.85	-2.625	-3.0208	-2.8167	-2.6771	-2.9854	-47.165	211.903	189.196	264.963	56.265	78.007	218.100	-43.401	222.368	234.906	55.826	139.225	222.264	90.921	178.189	224.377	0.00025238	0.00023524	0.00016359	1326.3	3.6058e-06	1.0456e-06	1325	345.78	2.9887e-06	3.1759e-06	398.11	128	111.3	38.395	5.1426e-06	48.151	0.00028723	0.00027389	7.6879e-05	1334.6	3.0769e-06	3.0463e-06	1334.2	349.35	3.159e-06	3.1047e-06	401.1	130.27	112.22	38.986	3.2439e-06	48.974	126.674	-23.286	-16.060	-69.103	63.397	23.829	-69.374	-64.628	40.962	77.520	-65.090	-60.870	-60.111	-55.217	48.187	-55.870	-8191	255	
7589.676	1	1	0	0	0.14658	0.087629	0.17874	0.26091	0.16944	0.10523	0.17634	0.048534	0.091879	0.038358	0.16194	0.14106	0.11592	0.21397	0.15288	0.088231	-2.0417	-2.6333	-2.6854	-2.7083	-2.7188	-2.7	-2.7438	-3.0104	-2.1521	-2.5646	-2.9458	-2.5021	-2.8208	-2.7917	-2.5333	-2.9604	179.641	204.649	204.274	205.964	28.910	-19.259	197.020	34.954	154.412	-14.258	176.869	235.029	240.143	-58.136	202.580	141.434	0.00029251	0.00061485	0.00013756	1333	1.7786e-06	4.3635e-06	1330.3	346.77	2.6965e-06	5.0745e-06	400.01	129.12	111.15	38.692	5.0366e-06	48.474	0.00030096	0.00029228	8.1107e-05	1340	3.2702e-06	3.2162e-06	1338.6	350.19	3.4177e-06	3.2905e-06	402.98	131.13	112.94	39.261	3.4532e-06	49.232	123.401	8.259	42.713	-69.152	20.249	57.502	-69.291	-64.604	60.802	89.429	-65.218	-60.768	-59.882	-55.189	15.569	-56.103	-8191	255	
7589.774	1	1	0	0	0.26202	0.18094	0.11367	0.19124	0.15818	0.27248	0.07727	0.29613	0.089964	0.30226	0.23422	0.2789	0.19936	0.32753	0.18439	0.1372	-2.0771	-2.5104	-2.5229	-2.7125	-2.7188	-2.825	-2.975	-3.075	-2.6875	-2.6521	-3.0333	-2.5771	-2.8021	-2.7875	-2.4604	-2.775	68.819	-78.763	140.456	272.374	258.107	-46.726	-77.272	237.671	-25.891	-7.339	275.224	256.773	67.611	-78.009	13.865	-78.494	0.00027504	0.00045922	9.5627e-05	1339.6	3.6056e-06	7.2483e-06	1332.7	349.03	3.9607e-06	4.5074e-06	401.13	129.2	111.49	38.764	4.1529e-06	48.61	0.00031575	0.0003085	8.6036e-05	1344.3	3.3986e-06	3.4127e-06	1342.5	352.62	3.5586e-06	3.4554e-06	404.71	131.84	113.47	39.385	3.5516e-06	49.484	129.216	12.386	46.682	-69.261	59.203	53.231	-69.286	-64.432	-1.637	76.440	-64.941	-60.878	-60.181	-55.140	65.072	-55.962	-8191	255	
7589.869	1	1	0	0	0.026847	0.02943	0.11724	0.19267	0.24335	0.031134	0.26283	0.35291	0.14798	0.12591	0.1775	0.029383	0.13252	0.39649	0.18139	0.15072	-2.2729	-2.8	-2.7896	-2.6125	-2.5729	-2.6646	-2.5375	-3.0271	-2.5708	-2.4646	-2.8625	-2.5438	-2.7625	-2.8563	-2.5417	-3.0104	85.209	-52.807	269.991	257.852	4.667	-3.814	239.692	218.608	92.247	-71.107	84.054	111.505	222.172	202.482	37.974	205.297	0.00027958	0.00062551	0.00019712	1337.5	5.4011e-06	4.5377e-06	1331.7	347.35	2.7796e-06	3.7779e-06	400.71	129.29	112.18	38.758	1.7779e-06	48.347	0.00033125	0.0003181	8.8477e-05	1345.4	3.5144e-06	3.5382e-06	1343.3	352.14	3.6578e-06	3.5288e-06	404.41	131.64	113.45	39.36	3.6056e-06	49.261	120.916	-2.045	28.762	-69.242	74.599	76.469	-69.282	-64.578	-4.799	76.155	-65.114	-60.541	-60.105	-55.188	62.095	-55.926	-8191	255	
7589.965	1	1	0	0	0.24423	0.34124	0.19176	0.03083	0.14508	0.055876	0.18256	0.33851	0.12185	0.18904	0.1691	0.20198	0.10072	0.068259	0.12313	0.13547	-2.4062	-2.5771	-2.8438	-2.6792	-2.8375	-2.95	-2.7646	-2.9521	-2.7208	-2.7396	-3.1625	-2.5542	-2.8271	-2.825	-2.6958	-2.9396	166.412	-60.978	56.115	-15.005	214.678	-46.531	246.899	203.751	122.642	-21.599	243.600	215.257	-27.975	-59.886	-6.754	204.436	0.00023468	0.00041641	0.00020905	1338.2	4.5589e-06	3.7583e-06	1330.6	347.95	2.3431e-06	4.9555e-06	401.51	129.39	111.85	38.607	4.018e-06	48.543	0.00033386	0.00033091	9.1537e-05	1345.2	3.6613e-06	3.6553e-06	1343.6	352.04	3.7536e-06	3.7338e-06	405.17	131.78	113.3	39.254	3.8315e-06	49.286	124.816	12.832	-2.791	-69.264	67.699	38.651	-69.447	-64.467	63.415	64.297	-65.074	-60.650	-60.341	-55.227	51.653	-55.875	-8191	255	
7590.061	1	1	0	0	0.10737	0.13347	0.13736	0.24613	0.051154	0.04487	0.24953	0.18366	0.10732	0.11854	0.12859	0.12683	0.11892	0.068064	0.18093	0.30667	-2.2958	-2.6458	-2.8271	-2.6688	-2.6104	-3.0458	-2.8	-2.8312	-2.7875	-2.6521	-3.1437	-2.6729	-2.7042	-2.9146	-2.5625	-2.8042	224.132	268.116	119.736	-59.956	224.421	41.360	256.345	239.771	250.052	209.606	4.305	-56.622	125.781	224.199	141.716	-37.632	0.00025874	0.00016906	0.00017375	1334.7	4.0951e-06	7.189e-06	1328.7	347.62	2.4414e-06	5.0312e-06	400.4	128.25	110.53	38.324	5.5608e-06	48.217	0.00034397	0.00034311	9.529e-05	1342.3	3.8344e-06	3.7202e-06	1337.8	351.72	3.8778e-06	3.8174e-06	403.83	130.83	112.68	38.994	3.8793e-06	48.973	135.900	20.407	25.101	-69.180	64.421	77.033	-69.562	-64.540	-16.583	63.132	-64.850	-60.787	-59.906	-55.157	28.184	-55.766	-8191	255	
7590.182	1	1	0	0	0.24771	0.099329	0.10554	0.23667	0.1292	0.3123	0.32268	0.030878	0.10396	0.28864	0.12467	0.21852	0.16635	0.15903	0.1844	0.12858	-2.2542	-2.6875	-2.7625	-3.0125	-2.6104	-2.9896	-2.7625	-2.9792	-2.8354	-2.575	-2.9604	-2.7542	-2.6333	-2.8812	-2.6771	-2.7521	-41.319	221.591	159.540	215.860	9.847	12.128	204.183	142.313	111.646	162.347	138.744	-14.787	260.997	209.668	133.117	216.321	0.00020337	0.00050443	0.0001317	1326.7	6.0274e-06	4.5522e-06	1323.1	345.16	2.2108e-06	5.3876e-06	397.51	127.61	109.83	37.921	1.706e-06	47.85	0.00035139	0.00034182	9.463e-05	1337.3	3.7393e-06	3.7018e-06	1335.3	349.54	3.7387e-06	3.6555e-06	401.2	129.96	111.65	38.628	3.6018e-06	48.635	128.309	-8.326	1.104	-69.188	59.559	83.442	-69.369	-64.423	31.852	44.989	-64.927	-60.612	-60.185	-55.249	57.155	-55.817	-8191	255	
7590.278	1	1	0	0	0.10723	0.080456	0.50317	0.24977	0.34622	0.097634	0.5308	0.3164	0.18822	0.20983	0.057936	0.2146	0.090888	0.13706	0.14171	0.091971	-2.4208	-2.5729	-2.7646	-2.9604	-2.7375	-2.8625	-2.7062	-2.9979	-2.9458	-2.6875	-2.9833	-2.5979	-2.7708	-2.9646	-2.6688	-2.6854	67.302	86.313	31.968	237.048	48.960	71.397	159.665	256.353	204.627	-26.879	194.817	225.665	94.086	265.521	183.173	209.583	0.00026583	0.00039559	0.00014638	1327.4	5.5013e-06	3.0772e-06	1315.3	342.35	4.1362e-06	3.9169e-06	393.94	127.02	109.45	37.787	2.5084e-06	47.425	0.00032847	0.00031514	8.6738e-05	1331.5	3.4103e-06	3.2676e-06	1325.6	346.41	3.321e-06	3.2288e-06	397.83	128.98	110.68	38.366	3.1734e-06	48.254	118.191	1.573	20.224	-69.320	73.798	57.548	-69.357	-64.316	25.585	58.046	-64.895	-60.867	-60.012	-54.965	79.078	-55.916	-8191	255	
7590.374	1	1	0	0	0.056825	0.051053	0.14631	0.35265	0.12124	0.1603	0.17224	0.28512	0.15256	0.10894	0.081173	0.23726	0.062934	0.15806	0.10303	0.35103	-2.4146	-2.5458	-2.6917	-2.95	-2.425	-2.9875	-2.8292	-2.8708	-2.8458	-2.6229	-2.9708	-2.7667	-2.675	-2.8812	-2.6792	-2.7208	183.570	125.670	107.334	228.513	134.935	232.491	272.160	246.714	173.439	180.616	239.798	272.141	-78.714	269.752	-61.114	202.012	0.00025606	0.00042716	0.00015193	1309.8	5.0209e-06	5.3288e-06	1302.4	340.49	4.1118e-06	4.7749e-06	390.71	126.1	108.57	37.272	3.5714e-06	47.145	0.00028903	0.0002761	7.6888e-05	1317.1	3.0095e-06	2.9388e-06	1312.9	343.79	2.9257e-06	2.8486e-06	394.3	127.62	109.61	37.977	2.8325e-06	47.86	116.376	-0.913	12.041	-69.245	42.104	73.421	-69.427	-64.488	-3.812	42.706	-64.777	-60.607	-60.127	-55.102	44.713	-55.948	-8191	255	
7590.446	1	1	0	0	0.16777	0.17643	0.22055	0.20014	0.20913	0.1141	0.16922	0.16308	0.076047	0.25879	0.16699	0.077126	0.058101	0.32247	0.055983	0.11665	-2.5083	-2.7208	-2.6063	-2.9479	-2.6813	-2.9896	-2.8583	-2.8812	-3.0229	-2.7271	-2.6188	-3.0438	-2.6042	-2.8958	-2.7021	-2.7708	123.033	-44.101	60.937	198.836	145.989	-58.875	162.629	226.844	209.931	97.083	-41.161	7.963	174.336	244.340	112.003	12.532	0.0002685	0.00044189	0.00021817	1300.5	2.8379e-06	6.7781e-06	1285.5	338.07	2.6657e-06	3.0485e-06	388.53	125.23	108.16	37.293	5.3093e-06	47.068	0.00026146	0.00024483	6.6347e-05	1306.5	2.6635e-06	2.6188e-06	1299.2	341.2	2.644e-06	2.5556e-06	391.82	127	109.07	37.81	2.5997e-06	47.709	130.449	-3.812	14.015	-69.143	-1.646	53.737	-69.430	-64.510	20.450	79.073	-64.929	-60.485	-60.027	-54.980	81.966	-55.882	-8191	255	
7590.566	1	1	0	0	0.15462	0.13666	0.15789	0.29578	0.14264	0.098421	0.10477	0.34598	0.069647	0.027289	0.069127	0.12922	0.26274	0.32862	0.12212	0.11104	-2.3896	-2.5979	-2.7792	-2.9938	-2.5333	-2.8792	-2.925	-2.7979	-2.8167	-2.6125	-2.8521	-3.1458	-2.4437	-2.8396	-2.7333	-2.7604	105.830	70.860	46.435	-67.811	69.649	263.622	228.709	233.441	-70.489	83.374	214.229	186.571	-34.937	225.949	-33.575	169.784	0.0002202	0.00044953	0.00012678	1292.2	2.3071e-06	6.3629e-06	1285.6	336.97	2.6679e-06	4.2383e-06	386.68	124.98	107.71	37.191	3.3948e-06	47.103	0.00024673	0.00023895	6.4766e-05	1298.8	2.6137e-06	2.5989e-06	1294.4	339.98	2.6219e-06	2.5776e-06	390.32	126.62	108.67	37.687	2.6351e-06	47.571	134.939	-1.421	-15.971	-69.074	75.121	53.998	-69.361	-64.412	94.738	40.216	-65.103	-60.567	-60.002	-54.836	59.079	-55.788	-8191	255	
7590.662	1	1	0	0	0.14614	0.1473	0.22983	0.19782	0.046466	0.14448	0.23933	0.36489	0.23494	0.30168	0.13591	0.23996	0.2216	0.14855	0.1568	0.17592	-2.5104	-2.4708	-2.4292	-2.8125	-2.5479	-2.8167	-3.0292	-2.7021	-2.8604	-2.6229	-2.8104	-2.8375	-2.5542	-2.7917	-2.7854	-2.6937	236.145	249.672	-38.938	246.185	-31.206	53.165	269.498	248.652	-74.280	119.424	182.504	271.698	179.250	174.017	58.800	229.788	0.00027487	0.00057691	0.00010042	1295.4	4.0421e-06	6.0977e-06	1286.6	335.43	1.2688e-06	6.9612e-06	387.24	124.49	107.14	37.086	3.7364e-06	46.814	0.00025155	0.00023904	6.5228e-05	1297.2	2.6331e-06	2.5783e-06	1293.7	338.6	2.7085e-06	2.628e-06	389.88	126.35	108.36	37.64	2.7524e-06	47.463	128.235	4.269	42.949	-69.322	34.289	60.309	-69.241	-64.508	-2.509	39.737	-64.847	-60.422	-59.732	-54.912	47.724	-55.637	-8191	255	
7590.757	1	1	0	0	0.18421	0.30334	0.19956	0.20957	0.31359	0.20852	0.31804	0.18872	0.18989	0.079721	0.094502	0.21504	0.091326	0.45634	0.076005	0.26564	-2.4333	-2.6875	-2.4958	-3.1458	-2.7208	-2.8104	-2.9083	-2.6146	-2.9083	-2.7667	-2.8479	-2.9771	-2.6875	-2.775	-2.7583	-2.6	241.125	-7.153	124.692	-73.021	245.330	183.053	207.021	253.026	52.569	108.558	206.800	-49.937	-73.537	-52.146	261.412	272.289	0.00025966	0.00062218	0.00010525	1293.3	2.917e-06	4.0028e-06	1285.9	335.83	2.767e-06	4.0602e-06	385.66	124.57	107.1	37.232	3.3073e-06	46.748	0.00025897	0.00024155	6.8109e-05	1298.4	2.7003e-06	2.6395e-06	1294.6	338.82	2.6821e-06	2.6695e-06	389.46	126.03	108.29	37.654	2.6343e-06	47.439	131.826	-12.604	23.263	-69.189	31.621	57.562	-69.379	-64.186	1.594	64.449	-64.919	-60.676	-59.847	-54.790	59.910	-55.856	-8191	255	
7590.855	1	1	0	0	0.22955	0.1717	0.10667	0.35804	0.19392	0.12185	0.18296	0.36711	0.078307	0.17947	0.061786	0.039652	0.13281	0.1733	0.080653	0.13162	-2.2375	-2.5792	-2.5187	-3.0687	-2.4292	-2.6312	-3.1312	-2.6021	-2.7729	-2.9021	-2.5521	-2.9479	-2.6646	-2.775	-2.8042	-2.6521	257.851	-62.723	90.929	-76.749	185.994	-34.669	215.593	243.886	-1.927	165.903	184.364	167.458	-79.359	261.311	57.331	268.403	0.00024437	0.00045809	8.3711e-05	1288.9	3.1106e-06	7.2863e-06	1283	334.7	1.0596e-06	4.4312e-06	385.69	124.6	107.14	36.993	4.2441e-06	46.745	0.00024796	0.00023183	6.4362e-05	1295.9	2.533e-06	2.5054e-06	1289.8	337.32	2.6035e-06	2.4535e-06	388.39	125.98	108.1	37.552	2.4597e-06	47.425	138.011	34.936	-8.631	-69.071	84.191	39.412	-69.290	-64.464	-4.593	41.408	-64.896	-60.703	-60.104	-54.898	51.862	-55.624	-8191	255	
7590.974	1	1	0	0	0.12009	0.093758	0.071176	0.19201	0.14479	0.31983	0.28375	0.088177	0.016053	0.14904	0.12065	0.1811	0.095866	0.045931	0.10284	0.29738	-2.5583	-2.7812	-2.7479	-3.0292	-2.8208	-2.5687	-3.1083	-2.9042	-2.7938	-2.85	-2.8063	-2.925	-2.7208	-2.8625	-2.9042	-2.7979	90.592	-1.788	140.134	246.064	-68.728	223.433	139.466	0.785	202.368	137.616	1.023	240.328	-69.902	39.875	138.025	266.900	0.00029287	0.00046668	7.2413e-05	1286.8	1.8938e-06	5.0082e-06	1279.5	334.43	3.5791e-06	3.0126e-06	385.26	124.29	107.94	37.213	3.326e-06	46.833	0.00023465	0.00021485	6.0298e-05	1293	2.4014e-06	2.3337e-06	1286.9	337.46	2.3757e-06	2.3055e-06	387.93	125.89	108.11	37.577	2.3318e-06	47.42	120.293	-27.662	-2.350	-69.171	17.060	67.264	-69.383	-64.557	55.524	31.270	-64.984	-60.638	-59.990	-54.977	39.972	-55.836	-8191	255	
7591.070	1	1	0	0	0.23897	0.27357	0.098549	0.17566	0.27518	0.23592	0.11022	0.27991	0.10792	0.13071	0.16098	0.20463	0.23581	0.25912	0.020883	0.21489	-2.325	-2.8958	-2.3917	-2.8542	-2.7938	-2.5167	-3.0208	-2.9271	-2.6521	-2.8354	-2.8458	-2.9917	-2.6729	-2.65	-2.9917	-2.7458	52.393	209.074	61.435	246.978	-2.160	10.515	259.256	239.828	-43.319	1.799	20.425	243.385	-29.750	-62.583	43.863	208.552	0.00029094	0.00040533	7.8588e-05	1278.7	4.4404e-06	4.6962e-06	1279.9	333.48	4.395e-06	2.9197e-06	386.31	124.06	107.03	37.266	1.8222e-06	46.852	0.0002265	0.00020842	5.7706e-05	1287.5	2.2936e-06	2.302e-06	1285.7	336.46	2.314e-06	2.3217e-06	388.11	125.79	107.79	37.671	2.3067e-06	47.347	130.138	3.894	9.545	-69.209	59.593	57.910	-69.272	-64.437	40.425	61.443	-64.854	-60.695	-60.085	-54.904	13.912	-55.689	-8191	255	
7591.166	1	1	0	0	0.37502	0.24526	0.12641	0.11601	0.22644	0.030335	0.26857	0.18303	0.070331	0.11538	0.19443	0.23103	0.090948	0.20828	0.12907	0.17609	-2.4021	-2.8563	-2.4813	-2.9771	-2.7958	-2.4771	-3.1146	-2.675	-2.6229	-2.9146	-2.8	-2.9021	-2.9583	-2.6646	-2.8208	-2.7812	-12.350	103.569	9.465	176.333	144.179	-0.137	197.845	193.701	78.701	181.143	242.382	236.174	47.008	160.914	215.580	142.294	0.00024644	0.00057742	0.00010874	1288	4.2018e-06	5.9185e-06	1279.8	333.73	3.2331e-06	4.0995e-06	385.99	124.21	107.34	37.155	3.294e-06	46.906	0.00022149	0.00020178	5.7008e-05	1289.8	2.2407e-06	2.173e-06	1285.8	337.17	2.2434e-06	2.2068e-06	387.92	126.06	108.02	37.69	2.1803e-06	47.587	119.549	-30.626	53.365	-69.134	5.419	60.559	-69.198	-64.554	-12.975	44.364	-64.994	-60.494	-60.108	-54.864	23.200	-55.727	-8191	255	
7591.262	1	1	0	0	0.13851	0.057035	0.12066	0.23592	0.14495	0.10261	0.050171	0.20383	0.098703	0.357	0.1414	0.31369	0.22375	0.10524	0.10442	0.079202	-2.2375	-2.8083	-2.4979	-2.9875	-2.9542	-2.6417	-3.0167	-3.0583	-2.7188	-2.8375	-2.6292	-2.8083	-2.9708	-2.5583	-2.7396	-2.7646	-70.342	-48.229	-70.842	246.655	203.132	137.581	165.024	224.347	-72.941	256.999	-34.461	236.506	217.741	-24.493	117.685	-56.160	0.00025429	0.00050774	0.0001623	1285.9	2.3772e-06	4.6954e-06	1278.1	335.02	2.9541e-06	4.5623e-06	387.02	125.27	107.67	37.413	6.5072e-06	47.172	0.00021406	0.00019209	5.4064e-05	1288.9	2.1205e-06	2.0741e-06	1286.3	337.33	2.1243e-06	2.0299e-06	388.59	126.43	108.39	37.902	2.1091e-06	47.691	129.561	-12.429	19.449	-69.158	84.205	74.243	-69.248	-64.315	-1.185	64.567	-64.809	-60.707	-60.066	-55.049	52.166	-55.822	-8191	255	
7591.358	1	1	0	0	0.32477	0.35803	0.44187	0.19636	0.19757	0.28589	0.36111	0.35057	0.24226	0.22676	0.11547	0.23906	0.21819	0.048532	0.24861	0.15604	-2.0083	-2.7229	-2.5458	-2.8646	-3.0042	-2.4583	-2.9688	-2.9188	-2.6458	-2.7583	-2.8	-2.9479	-2.8937	-2.55	-3.0771	-3.05	54.067	80.922	113.977	275.261	179.224	125.059	258.433	198.231	226.655	102.577	146.793	242.365	-80.655	42.340	91.920	173.329	0.00022237	0.00053486	0.00014729	1282.6	2.4849e-06	3.5423e-06	1278.9	333.76	1.2906e-06	3.6856e-06	387.66	125.4	107.43	37.386	2.2205e-06	47.067	0.00020608	0.00018361	5.1118e-05	1287.2	2.0447e-06	1.9806e-06	1284.6	336.8	2.0947e-06	2.0424e-06	388.82	126.63	108.31	37.844	2.1455e-06	47.665	127.215	23.268	10.827	-69.193	57.623	58.429	-69.262	-64.308	-60.542	59.463	-64.632	-60.469	-59.872	-55.130	-0.526	-55.817	-8191	255	
7591.454	1	1	0	0	0.23788	0.015049	0.13712	0.27558	0.10085	0.072135	0.32825	0.3227	0.19314	0.081218	0.18931	0.12016	0.18633	0.28807	0.17126	0.3135	-2.1333	-2.8312	-2.6125	-2.85	-2.8208	-2.3563	-3.15	-2.95	-2.4521	-3.0333	-2.7812	-2.55	-2.8604	-2.5104	-2.7646	-2.8937	-39.536	72.973	34.237	237.327	-46.990	110.152	208.463	249.822	201.291	44.209	190.895	26.488	246.046	7.998	168.324	187.509	0.0002301	0.00042841	0.00019801	1282.9	2.6279e-06	3.5306e-06	1278	333.9	1.0186e-06	3.9089e-06	385.5	124.87	107.34	37.284	4.6984e-06	47.193	0.00020694	0.00018852	5.2487e-05	1286	2.1161e-06	2.0442e-06	1284.3	336.99	2.1763e-06	2.1167e-06	388.53	126.49	108.19	37.794	2.1617e-06	47.738	127.266	-16.063	23.106	-68.919	20.906	45.773	-69.128	-64.534	29.519	74.375	-64.999	-60.654	-60.061	-55.026	35.794	-55.831	-8191	255	
7591.575	1	1	0	0	0.10762	0.13545	0.055919	0.12735	0.14403	0.10599	0.1634	0.33437	0.051365	0.17224	0.098655	0.05481	0.13415	0.13883	0.16191	0.20362	-2.1063	-2.8208	-2.8083	-2.7833	-3.0542	-2.6875	-3.0021	-3.0542	-2.5604	-2.9542	-2.8292	-2.4458	-2.9062	-2.8917	-2.9875	-3.1708	22.488	256.839	-36.687	253.489	8.504	73.461	258.036	238.838	-9.618	249.610	227.500	149.042	115.069	268.762	-10.872	172.529	0.00024609	0.00031091	0.00015184	1283.2	1.6097e-06	4.5408e-06	1281.7	335.32	2.3059e-06	4.2884e-06	388.12	125.9	107.38	37.626	3.3397e-06	47.183	0.00020997	0.00018671	5.2378e-05	1287.8	2.0617e-06	2.0806e-06	1287.2	337.88	2.1329e-06	2.1241e-06	389.54	126.91	108.45	37.933	2.1195e-06	47.82	128.969	-13.619	22.685	-69.131	52.396	50.153	-69.321	-64.446	28.333	58.962	-64.778	-60.318	-60.034	-55.026	19.103	-55.702	-8191	255	
7591.669	1	1	0	0	0.36391	0.16942	0.19504	0.080419	0.10245	0.1908	0.23498	0.18899	0.2026	0.11369	0.26666	0.017981	0.22973	0.10177	0.12232	0.14122	-2.1479	-2.7687	-2.7562	-2.675	-2.9333	-2.7729	-2.9458	-3.1063	-2.8125	-3.0646	-2.9188	-2.8854	-2.975	-2.65	-2.7042	-3.0729	68.581	51.010	6.135	193.941	252.904	276.339	243.385	186.217	105.679	78.690	233.181	220.491	221.881	236.768	7.633	-79.584	0.00023539	0.00068211	0.00011696	1284.4	2.5e-06	4.0265e-06	1276.9	334.42	2.5269e-06	5.5024e-06	387.1	125.25	107.45	37.257	2.8881e-06	47.075	0.00020906	0.00018624	5.2014e-05	1287.8	2.0956e-06	2.0586e-06	1286.8	337.59	2.1699e-06	2.0829e-06	389	126.58	108.39	37.832	2.1117e-06	47.638	120.260	-17.549	11.796	-69.323	36.270	59.577	-69.295	-64.395	35.800	97.943	-64.935	-60.562	-59.879	-54.957	40.772	-55.836	-8191	255	
7591.743	1	1	0	0	0.088829	0.16013	0.11737	0.35052	0.1603	0.20508	0.1514	0.12929	0.076007	0.091314	0.06551	0.21679	0.18172	0.059549	0.17	0.21704	-2.1854	-2.6083	-2.7812	-2.8187	-2.7354	-2.85	-2.9208	-3.15	-2.6417	-2.775	-2.7833	-2.6167	-2.9396	-2.6521	-2.5708	-2.8042	188.870	136.241	98.321	263.915	113.484	149.859	131.806	246.891	-51.730	235.677	9.830	230.438	232.080	275.955	36.223	203.209	0.00025908	0.00048009	0.00013282	1287.7	8.3631e-07	5.5639e-06	1274.5	333.85	2.7245e-06	5.419e-06	385.81	124.45	106.92	37.112	3.707e-06	46.902	0.00020879	0.00018997	5.1445e-05	1287.2	2.1673e-06	2.106e-06	1283	336.57	2.2089e-06	2.1266e-06	387.48	126.2	107.93	37.628	2.2323e-06	47.444	134.870	1.760	3.419	-69.114	58.139	61.367	-69.380	-64.531	42.477	66.336	-64.935	-60.639	-60.125	-55.102	52.754	-55.883	-8191	255	
7591.862	1	1	0	0	0.035002	0.1167	0.052039	0.40779	0.18007	0.18719	0.30853	0.12783	0.045875	0.17708	0.22924	0.063967	0.14785	0.14273	0.069409	0.26067	-2.1667	-2.6417	-2.8083	-2.5854	-2.6917	-2.7167	-2.7417	-3.0583	-2.8812	-2.6104	-3.0417	-2.6396	-2.9208	-2.8187	-2.6125	-3.1375	98.690	239.515	-62.626	224.689	-45.274	-35.160	267.664	233.645	150.919	207.986	135.973	223.771	230.157	-66.478	183.271	70.195	0.00026079	0.00046704	0.0001143	1278.4	3.8211e-06	5.2418e-06	1269.1	332.69	2.1088e-06	4.0632e-06	385.14	124.57	106.61	37.18	3.0184e-06	46.777	0.00021858	0.0001974	5.4414e-05	1282.7	2.231e-06	2.1733e-06	1280.2	336.07	2.3189e-06	2.2547e-06	386.91	126.06	107.74	37.57	2.3602e-06	47.422	122.838	4.932	23.811	-69.226	50.682	57.596	-69.163	-64.270	33.972	52.154	-65.020	-60.586	-60.100	-55.022	35.464	-55.862	-8191	255	
7591.958	1	1	0	0	0.16101	0.23318	0.11483	0.10901	0.08127	0.18146	0.30943	0.18345	0.21889	0.057586	0.12082	0.17083	0.17506	0.31018	0.18885	0.0090165	-2.1063	-2.6312	-2.8583	-2.8583	-2.6937	-2.7417	-2.6979	-3.05	-2.8	-2.7208	-3.0812	-2.5563	-2.9313	-2.9896	-2.5542	-3.0292	-2.986	-80.999	109.831	-48.181	-28.597	-10.810	229.558	241.536	157.508	-46.632	80.275	-75.357	-48.593	-75.384	-25.700	79.989	0.000208	0.00045164	0.00015242	1277.5	2.0789e-06	5.0915e-06	1274.7	332.37	3.4529e-06	4.9421e-06	383.65	124.04	107.03	36.943	5.0608e-06	46.711	0.0002212	0.00020743	5.7803e-05	1282.9	2.3066e-06	2.204e-06	1281	335.82	2.3501e-06	2.2985e-06	387.24	125.79	107.82	37.553	2.314e-06	47.388	127.809	30.496	-12.734	-69.208	122.587	36.093	-69.166	-64.492	52.768	50.732	-64.817	-60.345	-59.971	-54.764	83.671	-55.663	-8191	255	
7592.054	1	1	0	0	0.1211	0.10374	0.32498	0.30757	0.17873	0.19643	0.21478	0.22242	0.095638	0.22768	0.29368	0.26273	0.23377	0.097599	0.18328	0.11954	-2.2667	-2.6167	-2.7167	-2.8417	-2.7833	-2.9521	-2.8521	-3.0187	-2.7979	-2.5812	-3.0438	-2.5021	-2.6958	-2.9938	-2.6021	-2.9542	27.868	-25.680	88.400	267.940	-2.941	221.660	202.245	265.653	213.267	205.162	244.996	204.363	107.421	-58.321	246.501	194.194	0.0002496	0.00045251	0.00016263	1275	5.939e-06	5.2512e-06	1273	332.46	5.2688e-06	5.2514e-06	384.1	124.23	106.07	36.928	1.0383e-06	46.734	0.00021898	0.00020287	5.4556e-05	1280.9	2.2728e-06	2.1397e-06	1277.7	335.26	2.2335e-06	2.2265e-06	386.46	125.6	107.34	37.469	2.2574e-06	47.296	122.413	15.231	9.770	-69.150	74.033	70.722	-69.493	-64.422	50.239	67.973	-64.880	-60.596	-59.955	-55.121	24.720	-55.666	-8191	255	
7592.150	1	1	0	0	0.097087	0.36645	0.1115	0.16645	0.33062	0.18305	0.091338	0.29569	0.3069	0.063251	0.19037	0.033036	0.16784	0.084029	0.18224	0.0066493	-2.4125	-2.5125	-2.8292	-2.9604	-2.6521	-2.8812	-2.7771	-3.0062	-2.7396	-2.6	-3.0646	-2.8021	-2.6437	-2.9	-2.5729	-2.8833	202.694	190.941	131.575	256.575	-74.987	47.349	-17.937	218.833	103.511	52.753	-65.177	-74.259	202.394	57.150	-66.780	-61.401	0.00020824	0.00050543	0.00018013	1273.9	4.5759e-06	3.9122e-06	1266.7	332.45	3.1869e-06	3.0685e-06	383.11	124.68	106.96	36.943	3.427e-06	46.512	0.00021758	0.00019438	5.4665e-05	1277.8	2.2069e-06	2.1642e-06	1273.6	335.29	2.1895e-06	2.2187e-06	386.03	125.49	107.66	37.438	2.2377e-06	47.195	124.423	9.225	13.090	-69.214	50.459	47.907	-69.271	-64.420	40.343	46.698	-64.914	-60.585	-59.978	-54.852	68.953	-55.703	-8191	255	
7592.246	1	1	0	0	0.087259	0.050146	0.11325	0.36951	0.07272	0.056866	0.14353	0.22607	0.2045	0.17079	0.047986	0.15087	0.31936	0.12449	0.14112	0.16815	-2.2771	-2.4333	-2.9813	-2.8583	-2.6396	-2.8708	-2.825	-3.0583	-2.8833	-2.5208	-2.9	-2.825	-2.6208	-3.1104	-2.6104	-2.8021	53.058	33.198	-69.093	273.167	-42.989	-65.118	137.607	144.476	23.860	249.691	-31.120	270.116	-26.700	88.745	-9.522	168.226	0.00025404	0.00028663	0.00016463	1272.5	3.3173e-06	6.2034e-06	1264.8	331.98	2.4432e-06	3.1114e-06	384.69	123.21	106.44	36.971	2.6585e-06	46.685	0.0002126	0.00019408	5.3972e-05	1276.8	2.2144e-06	2.1319e-06	1271.9	334.67	2.2414e-06	2.1901e-06	385.67	125.05	107.27	37.4	2.2455e-06	47.265	128.349	-6.414	28.564	-69.109	93.318	22.964	-69.216	-64.342	16.855	80.250	-64.743	-60.747	-59.819	-55.132	20.121	-55.796	-8191	255	
7592.342	1	1	0	0	0.017292	0.11284	0.3448	0.19915	0.14018	0.18309	0.35567	0.037372	0.084391	0.26212	0.17446	0.17183	0.19255	0.14448	0.18603	0.30982	-2.4146	-2.575	-2.7354	-2.8604	-2.2646	-2.8354	-2.8792	-2.925	-2.8812	-2.675	-2.8917	-2.8542	-2.5125	-3.0417	-2.7958	-2.6896	-71.456	243.744	196.035	-48.725	76.709	-74.492	183.990	55.932	-57.811	29.242	144.393	-66.550	-73.374	242.909	6.225	190.589	0.00026587	0.0004132	9.8134e-05	1270.7	4.3898e-07	3.6915e-06	1262.9	332.19	1.3193e-06	4.1702e-06	383.23	123.48	106.22	36.909	4.2865e-06	46.641	0.00021821	0.00019679	5.4206e-05	1275.6	2.2485e-06	2.137e-06	1272.7	335.07	2.2325e-06	2.1706e-06	385.91	125.34	107.28	37.407	2.2617e-06	47.237	121.089	13.163	8.799	-69.035	200.671	78.040	-69.395	-64.263	262.948	60.100	-64.770	-60.796	-59.955	-54.873	41.413	-55.669	-8191	255	
7592.439	1	1	0	0	0.040557	0.094182	0.25548	0.19645	0.16892	0.17512	0.33821	0.37764	0.23687	0.3019	0.14966	0.15911	0.28881	0.25274	0.10962	0.18226	-2.6208	-2.5604	-2.7938	-2.9854	-2.4688	-2.8854	-2.9417	-2.8688	-3.1208	-2.6292	-2.9104	-2.7687	-2.6875	-2.9208	-2.8271	-2.6958	28.276	-11.310	-12.277	212.116	103.813	109.188	246.446	248.212	21.550	41.528	52.589	260.063	270.297	-79.750	139.950	151.836	0.00025024	0.00054688	0.00010562	1268.5	3.169e-06	3.448e-06	1265.4	331.23	1.8857e-06	2.6042e-06	383.31	123.54	106.61	36.988	4.0542e-06	46.535	0.00021756	0.0002009	5.5627e-05	1276.1	2.248e-06	2.1524e-06	1272.6	334.72	2.2391e-06	2.1805e-06	385.83	125.36	107.43	37.418	2.2646e-06	47.202	135.147	6.554	33.854	-69.127	61.236	39.359	-69.218	-64.333	70.129	48.397	-64.908	-60.777	-60.050	-54.944	58.127	-55.674	-8191	255	
7592.535	1	1	0	0	0.28516	0.20317	0.14808	0.24978	0.11959	0.099571	0.059407	0.19759	0.12794	0.16823	0.14114	0.29238	0.27426	0.18627	0.12794	0.24033	-2.4729	-2.55	-2.7313	-3.0625	-2.5583	-2.9125	-2.9188	-2.7021	-2.9062	-2.5458	-2.85	-2.8604	-2.6521	-2.775	-2.8063	-2.7292	11.180	267.274	78.012	159.860	-80.005	171.396	-44.478	210.914	4.563	207.896	153.262	130.489	184.264	52.825	-39.919	50.765	0.00026367	0.00060789	0.00010053	1275.3	3.1027e-06	6.9716e-06	1267	331.2	2.6885e-06	2.6274e-06	383.97	123.95	106.78	37.093	2.5451e-06	46.669	0.00021714	0.00019948	5.5145e-05	1277.9	2.2403e-06	2.1847e-06	1273.3	335	2.2418e-06	2.2045e-06	386.06	125.64	107.43	37.477	2.2709e-06	47.258	134.689	-1.488	16.854	-69.205	49.037	49.475	-69.362	-64.372	40.975	103.215	-65.107	-60.661	-60.004	-54.798	2.846	-55.867	-8191	255	
7592.655	1	1	0	0	0.22316	0.020199	0.094641	0.42021	0.27672	0.1979	0.2793	0.050178	0.18874	0.17532	0.13112	0.094465	0.17296	0.23462	0.45292	0.17192	-2.2396	-2.7354	-2.6021	-3.0354	-2.7375	-2.7833	-3.0958	-2.8833	-2.8146	-2.7354	-2.8167	-3.2146	-2.8458	-2.9354	-2.8896	-2.7479	225.393	80.814	-15.919	253.921	183.518	-17.978	229.973	165.296	72.011	-63.519	276.185	212.026	22.949	252.579	204.311	221.425	0.00026536	0.00039548	0.00013703	1273.6	3.6666e-06	4.617e-06	1267.4	331.85	3.6674e-06	3.4903e-06	383.79	123.86	106.63	37.071	3.2284e-06	46.587	0.00022096	0.00020719	5.6647e-05	1279.2	2.2789e-06	2.2048e-06	1276.5	335.18	2.3098e-06	2.2055e-06	386.36	125.24	107.52	37.461	2.3234e-06	47.241	125.457	9.096	-5.569	-69.182	67.923	29.645	-69.381	-64.544	37.174	46.568	-64.899	-60.549	-59.994	-55.078	48.978	-55.718	-8191	255	
7592.750	1	1	0	0	0.11392	0.18429	0.13732	0.297	0.12181	0.22955	0.15881	0.21179	0.040585	0.018005	0.094403	0.026539	0.14399	0.13792	0.26296	0.33768	-2.4437	-2.6583	-2.525	-3.1125	-2.6188	-2.8354	-3.0208	-2.6813	-2.75	-2.6771	-2.7729	-3	-2.55	-2.8167	-2.7313	-2.6625	12.794	158.752	211.546	242.046	251.749	94.892	232.930	180.030	116.543	185.167	7.360	-74.160	171.018	246.439	240.548	161.757	0.00028774	0.0003071	7.2856e-05	1273.6	1.5738e-06	2.2325e-06	1272.9	331.4	1.1351e-06	5.1153e-06	384.27	123.51	106.64	36.914	2.8482e-06	46.608	0.00022279	0.00020132	5.582e-05	1280	2.3298e-06	2.212e-06	1278.2	335.02	2.2967e-06	2.2207e-06	386.68	125.11	107.6	37.415	2.2329e-06	47.222	136.272	-26.901	26.462	-69.166	93.523	25.775	-69.204	-64.433	144.963	45.773	-64.909	-60.490	-59.821	-54.819	69.932	-55.679	-8191	255	
7592.848	1	1	0	0	0.17748	0.15912	0.025228	0.054092	0.23962	0.13785	0.2523	0.1772	0.22933	0.061787	0.17492	0.33849	0.21168	0.25129	0.15361	0.13731	-2.2812	-2.7375	-2.4813	-2.9938	-2.6042	-2.5917	-2.9917	-2.6729	-2.7229	-2.6	-2.5125	-3.0521	-2.6667	-2.8042	-2.7875	-2.7417	174.662	186.271	-70.878	225.174	193.278	-3.400	266.465	228.969	267.805	132.100	216.049	-78.218	-68.455	250.700	241.228	106.289	0.00025263	0.0004406	9.9653e-05	1274.5	5.0929e-06	3.8364e-06	1262.4	332.41	2.6056e-06	3.3937e-06	383.03	123.25	106.51	36.772	3.7229e-06	46.716	0.00021997	0.00020174	5.6e-05	1277.5	2.2644e-06	2.1737e-06	1273.2	334.97	2.259e-06	2.1984e-06	385.76	125.12	107.45	37.383	2.2658e-06	47.257	124.279	-4.202	2.947	-69.089	40.489	48.837	-69.331	-64.417	9.190	59.378	-64.948	-60.730	-59.773	-55.037	59.766	-55.879	-8191	255	
7592.967	1	1	0	0	0.15658	0.26239	0.062448	0.079114	0.16788	0.091135	0.21401	0.30435	0.058048	0.21741	0.16117	0.12281	0.11093	0.11583	0.11622	0.11074	-2.3542	-2.7583	-2.5396	-3.0542	-2.9479	-2.6208	-2.9188	-2.6396	-2.8854	-2.85	-2.7417	-2.9229	-2.6562	-2.6875	-2.8417	-2.85	121.580	270.839	54.214	-45.363	-57.998	-74.772	247.363	180.760	65.790	103.660	224.037	-38.747	241.811	245.849	259.006	267.910	0.00026078	0.0002971	0.00016764	1274.3	3.5008e-06	3.6348e-06	1263.8	332.48	2.5084e-06	3.9126e-06	384.99	123.78	106.74	36.952	2.5944e-06	46.523	0.00022208	0.00019911	5.7541e-05	1279.4	2.2178e-06	2.192e-06	1274.5	335.37	2.3044e-06	2.1885e-06	386.53	125.44	107.5	37.473	2.2756e-06	47.269	125.293	-15.479	20.283	-69.137	54.303	69.976	-69.261	-64.432	56.258	65.885	-64.901	-60.582	-59.825	-55.001	44.879	-55.764	-8191	255	
7593.038	1	1	0	0	0.18418	0.23224	0.22974	0.42043	0.01929	0.13608	0.17531	0.24336	0.14544	0.10662	0.22155	0.1437	0.091707	0.30467	0.093556	0.22221	-2.1437	-2.8479	-2.4542	-3.2458	-2.7396	-2.5271	-3.1292	-2.6333	-2.7875	-3.0396	-2.5979	-3.0042	-3.0375	-2.7833	-2.8396	-2.8833	-59.892	-80.381	141.754	250.038	23.607	204.135	258.174	244.848	122.453	260.948	256.752	263.718	1.179	-61.614	-29.514	-31.523	0.0002157	0.00047436	9.8513e-05	1282.1	1.9789e-06	1.9582e-06	1267.9	332.7	9.9891e-07	1.9469e-06	383.7	123.75	106.47	36.954	2.5863e-06	46.724	0.00021763	0.00020031	5.761e-05	1282.8	2.215e-06	2.1673e-06	1277.2	335.23	2.2827e-06	2.1912e-06	386.44	125.42	107.61	37.454	2.2886e-06	47.319	132.325	-4.419	50.841	-69.130	73.763	49.067	-69.393	-64.367	224.463	56.967	-65.148	-60.652	-60.278	-54.646	150.769	-55.778	-8191	255	
7593.134	1	1	0	0	0.029219	0.36272	0.24787	0.3697	0.17836	0.099194	0.42214	0.26574	0.13858	0.28443	0.2098	0.084368	0.20387	0.10846	0.15061	0.20403	-2.2896	-2.8396	-2.5458	-3.125	-2.7292	-2.5625	-3.0312	-2.8292	-2.5375	-2.9667	-2.8542	-2.9167	-2.8542	-2.5854	-2.9604	-2.875	223.428	61.941	41.765	212.690	99.198	-66.603	220.587	249.845	1.150	0.511	-59.694	229.757	-8.814	94.745	121.170	229.591	0.00020931	0.00035149	0.0001492	1275.5	1.4101e-06	4.6946e-06	1267.2	332.87	2.8503e-06	3.0435e-06	384.48	124.04	106.61	36.919	4.1131e-06	46.71	0.00021959	0.00020078	5.628e-05	1282.1	2.2513e-06	2.2087e-06	1275.9	335.46	2.3063e-06	2.2556e-06	387.02	125.32	107.46	37.459	2.3334e-06	47.301	119.082	-37.003	41.278	-69.055	130.642	58.375	-69.405	-64.293	32.449	59.535	-64.834	-60.497	-59.884	-54.865	39.671	-55.674	-8191	255	
7593.255	1	1	0	0	0.12399	0.22542	0.20205	0.34461	0.12781	0.11278	0.14742	0.27726	0.23569	0.24403	0.10319	0.23353	0.13816	0.34009	0.15018	0.15599	-2.2292	-2.9271	-2.6396	-3.1521	-3.0917	-2.6875	-3.0083	-2.8312	-2.6521	-3.0271	-2.8292	-2.8521	-2.8604	-2.7354	-2.9104	-2.675	-21.810	21.558	176.911	268.946	68.253	258.671	118.622	253.833	211.070	63.995	228.537	220.116	170.588	228.710	-29.206	189.653	0.00026036	0.00031809	0.0001006	1276.3	3.5235e-06	2.9132e-06	1271.8	332.49	2.9754e-06	5.1634e-06	385.3	123.8	106.75	36.999	4.2934e-06	46.638	0.00022214	0.00020161	5.7244e-05	1281.4	2.2824e-06	2.2513e-06	1277.8	335.22	2.3503e-06	2.2635e-06	386.72	125.54	107.63	37.418	2.3155e-06	47.298	122.811	6.713	7.225	-68.959	30.939	22.717	-69.097	-64.442	31.094	45.951	-64.838	-60.677	-59.984	-55.040	28.147	-55.910	-8191	255	
7593.351	1	1	0	0	0.11084	0.32014	0.12885	0.13473	0.23915	0.21378	0.24233	0.15191	0.10679	0.2141	0.15289	0.21583	0.028961	0.040792	0.090697	0.085281	-2.0958	-2.9854	-2.5312	-2.9917	-2.8896	-2.6937	-3.0104	-2.8292	-2.4833	-2.875	-2.8875	-2.625	-3.0563	-2.5271	-2.9125	-2.9542	46.568	-58.059	251.418	221.885	-36.939	190.859	220.878	233.823	159.500	207.258	155.569	-57.386	125.549	174.891	204.861	79.696	0.0002462	0.00021911	7.4366e-05	1274.6	3.6025e-06	3.9186e-06	1263.8	333.12	3.2202e-06	1.869e-06	383.97	123.42	106.5	36.89	4.3772e-06	46.72	0.0002256	0.00020681	5.8054e-05	1280.7	2.2724e-06	2.3044e-06	1275.3	335.75	2.3567e-06	2.2664e-06	386.67	125.42	107.51	37.462	2.3271e-06	47.261	131.550	-14.751	10.609	-69.082	47.177	37.253	-69.257	-64.240	45.385	53.958	-64.896	-60.388	-59.827	-54.816	49.710	-55.529	-8191	255	
7593.447	1	1	0	0	0.12303	0.05992	0.10571	0.33967	0.28423	0.1464	0.23306	0.31753	0.30216	0.053123	0.18788	0.27754	0.29238	0.11717	0.19587	0.19799	-2.1854	-2.7146	-2.6792	-2.7104	-3.0021	-2.6479	-3.0312	-2.8521	-2.5333	-2.7417	-2.7875	-2.7313	-2.9938	-2.7438	-2.8458	-2.8396	4.582	235.886	105.924	235.201	33.095	-67.999	195.069	204.548	77.555	-25.386	126.835	-40.803	-28.452	243.970	26.992	192.408	0.00027655	0.0005307	0.0001044	1276.2	4.0336e-06	4.5959e-06	1270.2	331.95	3.2638e-06	2.3051e-06	383.69	124.25	106.63	37.057	4.4045e-06	46.734	0.00022908	0.0002077	5.8601e-05	1282.8	2.2967e-06	2.3069e-06	1276.9	335.52	2.3629e-06	2.268e-06	386.41	125.78	107.57	37.465	2.2825e-06	47.286	123.976	-2.563	4.085	-69.037	71.856	61.287	-69.332	-64.322	10.266	40.355	-64.720	-60.501	-59.813	-54.917	61.400	-55.643	-8191	255	
7593.543	1	1	0	0	0.40887	0.18471	0.34276	0.33299	0.17394	0.080459	0.28124	0.21319	0.10921	0.064247	0.14061	0.20266	0.11331	0.13039	0.13239	0.30946	-2.0167	-2.9062	-2.6333	-2.8104	-3.0167	-2.6729	-2.925	-2.9771	-2.6521	-2.8125	-2.8208	-2.7667	-2.9354	-2.8083	-2.6813	-3.0771	-13.493	69.227	12.844	249.132	160.896	136.380	222.853	230.409	214.216	-81.649	191.326	60.474	265.870	258.448	246.133	-46.726	0.00022367	0.00040746	0.00014863	1275.3	1.91e-06	5.573e-06	1268.2	332.02	1.1254e-06	3.5039e-06	383.39	124.12	106.03	36.919	2.3851e-06	46.763	0.00022196	0.00020854	5.6999e-05	1280	2.3261e-06	2.2293e-06	1276	335.2	2.3201e-06	2.2275e-06	385.55	125.48	107.14	37.403	2.3022e-06	47.281	127.225	5.830	19.423	-69.206	7.327	23.985	-69.131	-64.294	237.923	49.796	-65.116	-60.537	-60.042	-55.038	-2.326	-55.948	-8191	255	
7593.640	1	1	0	0	0.089023	0.16425	0.10997	0.16482	0.2187	0.23734	0.36313	0.17286	0.11853	0.3062	0.33779	0.15202	0.026995	0.12798	0.18154	0.049407	-2.2354	-2.8208	-2.7583	-2.8	-3.025	-2.7917	-2.8187	-3.0542	-2.6604	-2.8354	-2.9688	-2.7625	-2.9562	-2.7646	-2.6333	-2.9958	-54.404	149.962	187.392	276.764	203.793	247.618	234.903	248.882	-10.591	123.617	223.667	43.452	142.007	-10.471	246.288	-71.948	0.00021838	0.00030804	0.00016931	1276.7	4.0332e-06	5.1885e-06	1265.8	331.86	3.1666e-06	4.526e-06	383.02	123.29	106.53	36.991	3.5733e-06	46.484	0.00022336	0.00019913	5.6646e-05	1279.4	2.2225e-06	2.215e-06	1273.2	334.85	2.2713e-06	2.1666e-06	385.55	125.3	107.21	37.4	2.2589e-06	47.179	124.776	-22.494	13.483	-69.065	55.402	51.093	-69.294	-64.429	61.731	62.677	-65.113	-60.434	-60.086	-54.946	52.300	-55.682	-8191	255	
7593.734	1	1	0	0	0.1135	0.26446	0.10418	0.18182	0.022591	0.12893	0.17817	0.2287	0.028167	0.055095	0.13908	0.20359	0.065382	0.18948	0.13437	0.057842	-2.0854	-2.6479	-2.875	-2.7667	-2.8167	-2.8	-2.8125	-3.0208	-2.6125	-2.8563	-2.8125	-2.5292	-3.0583	-2.7313	-2.5604	-2.9979	34.228	139.955	134.606	226.006	119.058	204.066	-47.359	225.564	123.646	192.454	255.056	-74.227	201.448	134.962	62.384	185.882	0.00024586	0.00044625	7.982e-05	1274.4	2.0279e-06	6.279e-06	1267.8	330.98	8.6999e-07	3.4475e-06	383.35	123.48	106.24	36.779	2.8675e-06	46.55	0.00021994	0.00019743	5.5518e-05	1276.9	2.211e-06	2.1747e-06	1273.6	334.53	2.2739e-06	2.1885e-06	385.33	125.22	107.28	37.343	2.2812e-06	47.148	128.787	-10.145	14.523	-69.164	109.029	41.040	-69.302	-64.393	-40.820	46.888	-64.844	-60.633	-60.199	-54.871	26.390	-55.838	-8191	255	
7593.830	1	1	0	0	0.28834	0.10346	0.27488	0.078976	0.12731	0.037577	0.11042	0.36245	0.2096	0.09338	0.18599	0.12667	0.18578	0.044579	0.16088	0.26765	-2.0479	-2.7604	-2.8125	-2.6729	-2.9396	-2.8167	-2.775	-2.9958	-2.7167	-2.6521	-2.9688	-2.6437	-2.7917	-2.8708	-2.7208	-2.9229	-15.575	59.487	124.348	49.568	147.732	-33.983	56.077	251.729	224.777	145.077	239.604	60.027	217.420	-12.198	196.443	188.674	0.00025479	0.00053209	9.9897e-05	1275.5	1.9441e-06	6.3029e-06	1263.7	331.91	6.071e-07	3.4335e-06	383.51	123.17	106.37	36.976	4.8119e-06	46.464	0.000221	0.00020097	5.6369e-05	1277.3	2.2588e-06	2.1745e-06	1271.3	334.73	2.2455e-06	2.1685e-06	385.24	125.08	107.26	37.381	2.2024e-06	47.18	128.908	-3.847	35.205	-69.140	100.888	64.380	-69.254	-64.432	59.747	54.345	-64.906	-60.763	-60.237	-54.864	32.352	-55.809	-8191	255	
7593.928	1	1	0	0	0.090293	0.13855	0.27751	0.17118	0.13019	0.31728	0.29267	0.20905	0.15341	0.12732	0.064658	0.051335	0.2102	0.21569	0.085379	0.20351	-2.2917	-2.5812	-2.7646	-2.7396	-2.8563	-2.9333	-2.775	-3.0604	-2.6708	-2.7021	-2.7771	-2.6167	-2.6708	-2.8021	-2.4688	-2.9083	38.644	-51.704	-13.763	219.449	237.886	112.073	257.834	189.616	-18.838	243.561	273.539	277.423	159.136	267.042	198.338	117.716	0.00024659	0.0005531	0.00017891	1271.2	3.6442e-06	3.3388e-06	1263	329.92	3.0421e-06	3.0901e-06	382.66	123.24	106.59	36.821	4.8432e-06	46.711	0.00021548	0.00019596	5.5119e-05	1273.8	2.1808e-06	2.1393e-06	1269.3	333.87	2.2485e-06	2.2159e-06	384.77	125	107.24	37.307	2.2636e-06	47.217	131.256	-37.389	28.117	-69.170	71.481	59.141	-69.228	-64.312	32.723	55.750	-65.093	-60.616	-59.935	-55.104	54.368	-55.804	-8191	255	
7594.047	1	1	0	0	0.12459	0.17674	0.39673	0.14158	0.24225	0.049142	0.31603	0.23179	0.11136	0.19303	0.13812	0.19152	0.12195	0.18138	0.15964	0.13503	-2.55	-2.5542	-3.0229	-2.6042	-2.4833	-2.9104	-2.7625	-2.875	-2.7625	-2.6354	-3.0104	-2.7271	-2.65	-2.9146	-2.4521	-2.8729	42.378	145.322	-17.698	266.071	-38.060	77.458	242.553	190.478	3.580	161.234	-69.033	199.136	198.497	243.504	75.707	180.318	0.0002635	0.00066303	9.5204e-05	1269.1	2.7516e-06	4.7078e-06	1259.4	330.96	3.3272e-06	1.8838e-06	383.73	123.78	106.38	36.773	4.0029e-06	46.651	0.0002163	0.00019837	5.4885e-05	1273.4	2.2181e-06	2.1258e-06	1269.2	333.91	2.2059e-06	2.1451e-06	385.44	125.01	107.14	37.322	2.2644e-06	47.175	131.179	10.935	47.229	-69.051	39.650	39.737	-69.179	-64.402	92.971	82.120	-64.936	-60.513	-59.940	-55.244	27.803	-55.557	-8191	255	
7594.143	1	1	0	0	0.14078	0.12986	0.1261	0.54059	0.097231	0.1157	0.15423	0.09167	0.098764	0.091608	0.30291	0.14498	0.30281	0.28047	0.18025	0.11458	-2.2646	-2.4813	-2.6604	-2.7667	-2.6354	-2.8708	-2.7542	-2.9062	-2.7896	-2.5687	-2.875	-2.9	-2.6042	-3.1	-2.4458	-2.9396	-22.779	133.603	141.418	254.290	-11.717	-58.862	248.920	-43.330	257.708	-41.028	186.070	-77.447	187.045	232.156	67.341	225.834	0.00022177	0.00037031	0.0001107	1270.1	4.8262e-06	2.5177e-06	1266.2	332.28	2.4055e-06	3.1803e-06	383.01	123.79	106.85	36.732	2.1402e-06	46.426	0.00021499	0.00019845	5.4446e-05	1275	2.2219e-06	2.1652e-06	1270	334.52	2.2539e-06	2.1751e-06	385.01	125	107.19	37.241	2.2363e-06	47.046	130.863	5.182	43.398	-68.918	58.312	60.289	-69.383	-64.319	4.272	62.796	-64.915	-60.482	-59.978	-54.799	54.815	-55.719	-8191	255	
7594.239	1	1	0	0	0.2173	0.090404	0.19069	0.13489	0.14591	0.070582	0.2632	0.15214	0.14049	0.060513	0.16309	0.22103	0.031492	0.27481	0.15836	0.18689	-2.4979	-2.4896	-2.8688	-3.0333	-2.6583	-2.9958	-2.8771	-2.8479	-2.6146	-2.5458	-2.7625	-2.7458	-2.7125	-2.8167	-2.7896	-2.8583	97.845	250.353	139.662	204.483	37.155	-13.999	223.624	-33.621	44.088	182.953	269.372	-9.104	149.932	233.383	12.415	199.937	0.00026968	0.00046864	0.00010379	1267.6	7.2801e-07	1.3244e-06	1263.1	332.18	1.8736e-06	4.6976e-06	381.12	123.26	106.3	36.8	3.2848e-06	46.37	0.00021787	0.00019899	5.5041e-05	1271.4	2.2309e-06	2.126e-06	1268.8	334.21	2.2607e-06	2.1436e-06	384.53	124.86	107	37.289	2.2411e-06	47.068	124.194	13.304	-14.774	-69.095	51.885	23.888	-69.253	-64.352	37.419	46.664	-64.974	-60.598	-60.178	-54.993	13.342	-55.735	-8191	255	
7594.335	1	1	0	0	0.11881	0.056087	0.12323	0.28163	0.032584	0.13635	0.24456	0.31736	0.087745	0.081031	0.064741	0.089359	0.16993	0.21663	0.115	0.20959	-2.45	-2.5958	-2.8042	-2.8875	-2.6979	-2.8771	-2.9083	-2.7417	-2.9167	-2.4792	-2.975	-2.8375	-2.6167	-3.0646	-2.75	-2.8375	81.063	134.643	-57.981	-79.216	99.029	248.058	235.347	206.244	-41.621	51.826	31.128	-12.822	212.791	178.310	54.209	231.737	0.0002393	0.00058493	0.00010833	1271.5	4.9487e-06	4.3006e-06	1258.4	329.97	9.9631e-07	3.3213e-06	382.7	122.46	106.15	36.819	3.9301e-06	46.587	0.00021789	0.0001985	5.5551e-05	1273.1	2.1968e-06	2.1657e-06	1268.1	333.44	2.2833e-06	2.2072e-06	384.78	124.5	107.06	37.242	2.2939e-06	47.102	124.508	-35.261	-2.731	-69.087	79.297	71.028	-69.105	-64.465	93.562	72.114	-64.911	-60.584	-59.889	-54.833	41.304	-55.767	-8191	255	
7594.432	1	1	0	0	0.12966	0.14264	0.078671	0.16713	0.069216	0.23255	0.15351	0.28544	0.21462	0.21427	0.13986	0.033931	0.023165	0.076475	0.12272	0.10381	-2.5292	-2.4396	-2.6792	-3.0583	-2.6104	-2.9396	-2.8833	-2.8979	-3.0542	-2.6021	-2.8979	-2.9146	-2.7313	-2.8333	-2.6229	-2.7583	156.065	170.089	9.739	241.881	197.670	231.497	186.877	244.663	-14.686	176.095	-34.082	65.731	-23.050	130.414	-66.028	-73.711	0.00022037	0.00047394	0.00012329	1268.2	5.2263e-06	3.4707e-06	1260.2	330.89	2.7699e-06	4.7782e-06	382.25	123.13	105.84	36.782	1.8099e-06	46.653	0.00022052	0.00020523	5.5738e-05	1272.3	2.2778e-06	2.2064e-06	1267.9	333.72	2.3159e-06	2.2365e-06	384.55	124.93	107.04	37.237	2.2734e-06	47.119	122.249	-16.669	-15.309	-69.196	13.309	52.933	-69.393	-64.337	30.752	61.795	-64.709	-60.757	-59.947	-55.020	34.618	-55.791	-8191	255	
7594.528	1	1	0	0	0.25895	0.084942	0.15972	0.070156	0.17351	0.13642	0.088766	0.11054	0.12531	0.090971	0.25052	0.22191	0.32679	0.22556	0.29501	0.20373	-2.4854	-2.5062	-2.9083	-3.0958	-2.4521	-2.8958	-3.0458	-2.7396	-2.7625	-2.7146	-2.8854	-2.9813	-2.5979	-2.9917	-2.8292	-2.7375	10.830	100.407	92.674	275.127	-75.628	236.430	149.175	265.362	226.171	188.645	239.360	207.106	195.710	211.521	107.845	237.284	0.00023415	0.00069154	0.00016038	1269.5	3.5307e-06	5.1175e-06	1259.9	331.61	7.731e-07	2.9073e-06	384.02	123.21	106.01	36.775	2.8254e-06	46.499	0.00021699	0.00019865	5.5756e-05	1273	2.2595e-06	2.1731e-06	1268.9	334.11	2.2707e-06	2.1419e-06	385.52	124.79	107.02	37.291	2.2187e-06	47.117	132.985	0.698	-9.563	-69.125	67.054	17.731	-69.297	-64.306	72.382	46.668	-64.889	-60.303	-59.776	-54.696	44.732	-55.771	-8191	255	
7594.648	1	1	0	0	0.061149	0.033313	0.13433	0.21674	0.14158	0.10571	0.25785	0.19535	0.17221	0.11095	0.13332	0.1923	0.31519	0.28764	0.20362	0.22988	-2.4042	-2.6813	-2.7208	-3.1875	-2.6771	-2.9521	-3.2229	-2.6667	-2.9458	-2.7958	-2.8458	-2.7438	-2.6167	-2.9667	-2.8854	-2.5875	219.707	-5.557	116.375	-26.309	-21.571	13.607	194.995	215.968	-67.275	74.144	-53.040	270.477	275.420	242.114	158.867	88.866	0.00028825	0.00054976	0.00013912	1268.1	3.156e-06	5.6175e-06	1259.8	330.91	2.2987e-06	3.3331e-06	382.69	122.84	106.46	36.796	2.2816e-06	46.523	0.00021707	0.00019967	5.5394e-05	1272	2.1925e-06	2.1577e-06	1269.6	333.95	2.2513e-06	2.1515e-06	384.84	124.83	107.1	37.291	2.2399e-06	47.049	122.839	-4.449	19.559	-69.209	40.847	68.821	-69.258	-64.558	73.125	85.493	-64.972	-60.594	-59.983	-54.935	21.649	-55.673	-8191	255	
7594.744	1	1	0	0	0.03176	0.30039	0.36159	0.30124	0.18373	0.11789	0.3411	0.16364	0.44186	0.16856	0.10719	0.108	0.099066	0.17582	0.28121	0.043489	-2.5167	-2.6604	-2.6646	-3.0646	-2.5479	-2.8229	-2.975	-2.7125	-2.825	-2.8438	-2.8854	-2.9542	-2.7229	-2.7188	-2.8312	-2.6521	192.076	259.322	117.683	247.567	-80.063	141.033	219.158	239.589	204.704	102.861	244.648	155.942	-46.507	258.166	17.179	-48.732	0.0002492	0.00050954	9.535e-05	1267.4	4.14e-06	1.8931e-06	1261.3	329.81	2.7091e-06	2.2009e-06	380.92	122.95	106.34	36.601	3.1788e-06	46.492	0.00021766	0.00019831	5.6558e-05	1271.2	2.242e-06	2.1868e-06	1267.5	333.51	2.2736e-06	2.1865e-06	384.04	124.87	107.03	37.183	2.2013e-06	47.007	134.089	24.708	34.991	-69.268	73.934	57.935	-69.225	-64.346	35.186	53.181	-64.895	-60.504	-59.913	-54.894	15.123	-55.757	-8191	255	
7594.839	1	1	0	0	0.18074	0.15243	0.30834	0.041113	0.099919	0.17017	0.2894	0.084584	0.14513	0.082478	0.21628	0.098717	0.11356	0.10783	0.088642	0.079534	-2.4146	-2.7854	-2.6583	-2.9854	-2.7271	-2.8688	-3.1208	-2.6958	-3.0187	-2.6937	-2.7667	-3.0021	-2.6375	-2.8542	-2.9667	-2.6583	174.059	165.884	12.442	218.425	7.649	132.356	181.749	249.858	195.992	56.255	224.903	41.760	229.871	-25.219	145.919	251.836	0.00021532	0.00054601	0.00011326	1269.6	2.7666e-06	3.8661e-06	1258.8	329.92	2.8687e-06	3.6556e-06	382.61	123.34	105.87	36.791	3.002e-06	46.634	0.00021641	0.00019279	5.4306e-05	1272.1	2.1582e-06	2.0965e-06	1264.7	333.44	2.1971e-06	2.0866e-06	384.16	124.74	106.76	37.246	2.1495e-06	47.048	119.781	0.020	2.588	-69.139	74.346	59.681	-69.181	-64.221	1.755	39.212	-64.807	-60.622	-60.085	-54.868	24.948	-55.561	-8191	255	
7594.935	1	1	0	0	0.35982	0.067072	0.21988	0.20742	0.26416	0.14626	0.22991	0.064402	0.23635	0.098984	0.27791	0.078322	0.13029	0.17316	0.017826	0.307	-2.3	-2.6521	-2.45	-3.0354	-2.7458	-2.7396	-3.1042	-2.775	-2.7687	-2.7167	-2.6458	-3.0375	-2.7896	-2.8812	-3.0667	-2.7417	-36.487	68.014	117.868	248.307	190.134	255.725	236.512	52.566	77.057	217.549	138.121	-30.349	20.428	251.139	273.700	230.214	0.00027201	0.00034361	0.00018093	1264.6	2.3752e-06	4.8588e-06	1255.1	329.97	3.0732e-06	3.6735e-06	381.56	123.52	106.12	36.859	1.9472e-06	46.497	0.00020723	0.00018715	5.349e-05	1269.3	2.0859e-06	2.0912e-06	1262.9	332.79	2.2152e-06	2.0786e-06	383.82	124.66	106.82	37.247	2.1412e-06	47.042	124.024	-14.842	3.937	-69.077	114.087	69.414	-69.157	-64.390	43.166	71.057	-64.855	-60.509	-59.928	-54.875	46.415	-56.000	-8191	255	
7595.031	1	1	0	0	0.16389	0.36167	0.23473	0.17106	0.21861	0.11217	0.39686	0.33963	0.20672	0.11676	0.26928	0.16343	0.16854	0.1812	0.10646	0.11313	-2.3729	-2.8771	-2.5146	-3.0187	-2.5854	-2.6396	-3.1583	-2.6708	-2.8417	-2.7875	-2.6292	-2.8604	-2.8438	-2.6708	-2.8833	-2.7812	154.817	271.813	272.432	-63.071	106.495	-43.497	271.884	243.651	-71.684	83.057	214.386	-31.231	212.326	224.268	-52.537	-73.826	0.00023335	0.00060405	0.00011736	1266.4	3.0446e-06	3.353e-06	1261.5	330.91	1.9171e-06	1.3698e-06	382.27	122.85	105.69	36.65	1.2668e-06	46.423	0.0002083	0.00018839	5.3841e-05	1269.6	2.085e-06	2.0759e-06	1266.3	333.33	2.1256e-06	2.0403e-06	384.33	124.71	106.77	37.215	2.1113e-06	47.005	130.268	1.314	37.840	-69.217	85.105	36.461	-69.198	-64.500	15.735	33.476	-64.770	-60.604	-59.998	-55.004	-5.221	-55.746	-8191	255	
7595.127	1	1	0	0	0.042172	0.11517	0.23698	0.34992	0.23641	0.20609	0.25093	0.28206	0.079051	0.13717	0.37547	0.26261	0.329	0.22078	0.17556	0.15272	-2.3104	-2.8771	-2.6104	-3.2271	-2.85	-2.5292	-3.1125	-3.0375	-2.5958	-2.8979	-2.7938	-2.8792	-2.8542	-2.6729	-2.9875	-2.875	185.998	58.108	158.256	216.708	122.481	217.333	270.499	207.578	32.111	-0.625	265.466	246.455	185.907	224.308	183.892	199.365	0.00019274	0.00030008	0.00013283	1264.6	3.2401e-06	5.6555e-06	1256.1	329.59	3.1111e-06	3.827e-06	382.81	123.13	105.91	36.879	2.0416e-06	46.429	0.00021069	0.0001838	5.2895e-05	1269.4	2.1027e-06	2.0247e-06	1264.6	332.46	2.1428e-06	2.0229e-06	384.52	124.71	106.79	37.263	2.1492e-06	47.066	132.603	12.901	10.237	-69.159	61.388	52.857	-69.329	-64.315	45.099	41.985	-65.061	-60.436	-60.030	-55.037	31.547	-55.626	-8191	255	
7595.223	1	1	0	0	0.13312	0.097056	0.11717	0.2673	0.24017	0.14982	0.022782	0.21948	0.10859	0.14137	0.21115	0.1755	0.13652	0.10232	0.33435	0.28011	-2.0958	-2.9625	-2.6521	-2.8792	-2.8438	-2.65	-2.9375	-2.9479	-2.6104	-2.8875	-2.7854	-2.9646	-2.9979	-2.6958	-2.9896	-2.8167	167.764	23.197	27.975	203.829	136.837	174.038	-46.225	205.872	76.600	272.324	222.962	254.035	56.982	146.612	32.370	255.581	0.00026755	0.00016426	0.00010438	1265.8	3.2473e-06	7.193e-06	1260.2	331.75	1.6825e-06	3.604e-06	381.56	122.65	105.62	36.767	4.3664e-06	46.372	0.00020791	0.0001893	5.2627e-05	1269.8	2.1354e-06	2.101e-06	1267.4	333.73	2.1976e-06	2.171e-06	384.35	124.67	106.78	37.261	2.1825e-06	47.008	129.919	-13.804	10.197	-69.144	75.163	38.950	-69.471	-64.302	-0.253	66.367	-64.929	-60.781	-59.681	-55.054	24.048	-55.729	-8191	255	
7595.344	1	1	0	0	0.18848	0.10595	0.10494	0.39804	0.13609	0.26679	0.36831	0.24902	0.18465	0.23502	0.15759	0.21382	0.091499	0.090856	0.13261	0.22622	-2.3167	-2.8208	-2.7333	-2.9521	-2.7979	-2.7	-3.0146	-2.9833	-2.6104	-2.9417	-2.7083	-2.8917	-2.7208	-2.5854	-2.9104	-2.7917	154.257	233.401	122.018	268.246	241.759	88.085	229.160	-36.468	21.842	264.000	241.357	193.997	181.115	-63.088	16.040	-48.844	0.00026419	0.00056407	0.00012516	1265.1	4.2467e-06	5.3598e-06	1257.4	329.56	2.5934e-06	3.7136e-06	381.69	123.25	106.3	36.806	4.2289e-06	46.44	0.00021233	0.00019411	5.4108e-05	1270	2.1699e-06	2.104e-06	1266.9	333.06	2.2041e-06	2.1145e-06	384.44	124.97	106.91	37.241	2.2231e-06	46.994	119.384	7.510	11.770	-69.176	72.838	40.208	-69.174	-64.383	30.055	63.778	-64.901	-60.684	-59.921	-54.920	25.825	-55.920	-8191	255	
7595.440	1	1	0	0	0.16626	0.16867	0.26054	0.21808	0.34355	0.0038443	0.18309	0.21941	0.20827	0.10522	0.1772	0.29795	0.092597	0.34336	0.04328	0.08358	-2.2458	-3.0417	-2.7021	-2.7854	-2.75	-2.5083	-2.8958	-3.0583	-2.4854	-2.9437	-2.8542	-2.6604	-3.0646	-2.7542	-2.7792	-3.0625	23.041	116.967	184.835	220.707	34.255	73.289	215.005	-62.780	-47.210	241.172	-77.988	9.177	123.713	-78.056	8.890	218.206	0.0002507	0.00043027	0.00014809	1267.3	1.6787e-06	5.4145e-06	1258.5	331.08	3.06e-06	3.8955e-06	383.61	123.16	105.72	36.634	3.5023e-06	46.456	0.00021446	0.00019165	5.4872e-05	1270.4	2.2193e-06	2.1849e-06	1268.5	333.88	2.2497e-06	2.22e-06	384.78	124.87	106.83	37.226	2.2507e-06	47.082	137.336	-33.295	-3.913	-69.120	33.544	78.076	-69.416	-64.381	43.624	80.068	-64.884	-60.601	-59.925	-54.751	111.752	-55.970	-8191	255	
7595.512	1	1	0	0	0.17998	0.20838	0.13197	0.32565	0.27187	0.18673	0.29946	0.19153	0.16986	0.12656	0.1779	0.33925	0.067581	0.14073	0.084369	0.17133	-2.2083	-2.7521	-2.7417	-2.8729	-2.9208	-2.7542	-3.0187	-2.9646	-2.5104	-2.8229	-2.9417	-2.6833	-2.8979	-2.675	-2.7271	-2.9708	216.855	-23.095	0.127	246.012	72.052	25.150	217.817	270.757	32.596	40.790	256.276	122.086	217.308	47.584	137.799	211.340	0.00031401	0.000552	0.00016694	1270.4	1.4304e-06	5.0289e-06	1264.1	331.34	1.8485e-06	2.0927e-06	383.1	123.37	105.66	36.863	2.9059e-06	46.729	0.00022144	0.00019848	5.5858e-05	1273.8	2.2755e-06	2.2501e-06	1269.4	334.19	2.3435e-06	2.3146e-06	385.06	125.05	107.17	37.33	2.4511e-06	47.217	130.398	19.854	9.931	-69.192	-0.583	64.619	-69.421	-64.325	32.505	71.253	-65.019	-60.544	-59.750	-54.960	-17.320	-55.667	-8191	255	
7595.608	1	1	0	0	0.14846	0.26749	0.35943	0.2668	0.10769	0.24282	0.13491	0.077398	0.20285	0.10712	0.25293	0.12968	0.15915	0.034906	0.27835	0.11115	-2.1958	-2.7896	-2.7313	-2.8438	-3.1354	-2.6875	-2.9167	-2.8479	-2.6625	-2.9042	-2.8875	-2.8271	-2.7938	-3.0312	-2.7062	-3.0542	-33.094	136.501	-7.664	241.585	203.082	-14.099	122.953	69.992	175.727	-60.523	186.029	189.511	-9.602	-0.388	114.425	77.292	0.0003015	0.00040017	0.00020825	1274.5	4.5707e-06	4.3444e-06	1271.8	332.78	2.5481e-06	4.0267e-06	386.62	123.83	107.56	37.228	3.1826e-06	46.98	0.00023893	0.0002186	6.1594e-05	1279.4	2.5624e-06	2.5416e-06	1280.9	336.15	2.7735e-06	2.7544e-06	388.46	125.99	108.69	37.715	2.953e-06	47.612	125.627	-8.902	21.543	-69.219	46.849	60.358	-69.244	-64.352	104.895	60.794	-64.931	-60.537	-60.111	-55.078	69.759	-55.767	-8191	255	
7595.727	1	1	0	0	0.32634	0.32516	0.20861	0.36907	0.22202	0.10986	0.45731	0.25313	0.095774	0.096012	0.25663	0.27127	0.35937	0.15559	0.37892	0.10728	-2.1167	-2.7708	-2.8187	-2.7833	-3.0458	-2.6729	-2.775	-2.9167	-2.5	-2.8354	-2.9938	-2.5667	-3	-2.8479	-2.5812	-2.9292	254.727	136.732	128.645	216.287	-31.504	218.854	236.745	-72.807	234.479	141.291	276.526	243.149	-48.165	-19.706	54.475	217.813	0.00021978	0.00057811	0.00016837	1287.3	4.3502e-06	6.3415e-06	1279.6	334.79	2.2256e-06	2.5671e-06	386.6	124.4	107.22	37.293	5.905e-06	47.19	0.00027656	0.00026048	7.3219e-05	1294.5	2.8963e-06	2.8514e-06	1292.9	338.74	2.897e-06	2.8306e-06	390.59	126.49	108.61	37.841	2.8341e-06	47.749	127.227	-9.570	33.248	-69.118	92.601	50.227	-69.322	-64.371	9.526	60.827	-64.943	-60.612	-59.953	-54.885	43.770	-56.089	-8191	255	
7595.823	1	1	0	0	0.085622	0.34766	0.14705	0.24752	0.20493	0.14028	0.047825	0.18559	0.21477	0.14358	0.30038	0.21885	0.15048	0.1437	0.13492	0.05712	-2.4021	-2.7396	-2.9229	-2.8979	-2.9667	-2.7104	-2.6063	-2.9813	-2.6271	-2.5875	-2.8	-2.7125	-2.7458	-2.8583	-2.7	-3.0979	95.364	214.792	104.519	266.101	-4.965	48.883	236.664	-56.405	-25.751	80.116	-31.080	-16.799	-19.576	-20.847	114.078	54.402	0.00023371	0.00052505	0.0001023	1288.6	4.3155e-06	6.6566e-06	1284.4	335.55	5.7477e-07	3.5732e-06	387.96	124.62	107.35	37.194	4.4825e-06	46.951	0.00026143	0.00024864	6.8628e-05	1295.2	2.7375e-06	2.7302e-06	1291.8	339.17	2.7751e-06	2.711e-06	390.28	126.7	108.53	37.749	2.7631e-06	47.676	131.626	5.969	5.776	-69.245	41.299	33.519	-69.355	-64.321	178.664	69.587	-65.082	-60.798	-60.282	-54.976	36.859	-55.794	-8191	255	
7595.919	1	1	0	0	0.24496	0.15784	0.082872	0.15502	0.11312	0.13044	0.086818	0.14725	0.17974	0.26522	0.26509	0.09701	0.081827	0.32318	0.17237	0.20024	-2.2062	-2.6417	-2.8729	-2.6396	-2.75	-2.8271	-2.8563	-2.8583	-2.7417	-2.5896	-3.0438	-2.6792	-2.7562	-2.9458	-2.3896	-2.825	39.988	99.383	43.739	236.450	15.573	63.974	188.854	246.921	89.627	-49.315	222.844	201.869	-28.264	187.053	-4.806	196.100	0.00023941	0.00060414	0.00014071	1291	3.9535e-06	1.8632e-06	1283.1	335.85	4.5939e-06	5.121e-06	387.55	124.6	107.1	37.171	3.2316e-06	46.771	0.00025598	0.00024442	6.7746e-05	1293.8	2.6811e-06	2.6441e-06	1291.8	338.76	2.7218e-06	2.7079e-06	390.16	126.52	108.52	37.722	2.7468e-06	47.673	120.692	-26.868	44.161	-69.109	53.548	15.147	-69.179	-64.460	22.139	66.755	-64.907	-60.596	-59.922	-55.233	47.374	-55.734	-8191	255	
7596.015	1	1	0	0	0.031421	0.058888	0.16388	0.24918	0.25446	0.23235	0.15361	0.36818	0.099572	0.19039	0.013048	0.048954	0.26245	0.27015	0.2957	0.059831	-2.1625	-2.4813	-2.9083	-2.7229	-2.7458	-2.7479	-2.775	-2.9646	-2.7438	-2.5458	-2.9521	-2.6542	-2.6042	-2.9771	-2.5646	-2.9458	-79.416	233.670	75.864	255.328	138.988	23.814	226.561	248.365	147.458	-30.790	9.934	131.972	105.339	169.778	226.343	217.318	0.00022052	0.00048958	0.00010557	1286.8	3.4335e-06	4.1755e-06	1279.4	335.96	1.6638e-06	3.2442e-06	388.88	124.5	107.13	37.268	4.5857e-06	47.019	0.00025874	0.000243	6.833e-05	1294.4	2.7467e-06	2.7292e-06	1290.3	338.87	2.7672e-06	2.6755e-06	390.58	126.53	108.53	37.858	2.7936e-06	47.679	133.793	-12.325	24.460	-69.241	79.349	48.944	-69.250	-64.330	56.684	50.958	-64.978	-60.660	-59.761	-54.924	51.911	-55.901	-8191	255	
7596.136	1	1	0	0	0.22431	0.15276	0.14399	0.51893	0.32139	0.15766	0.34522	0.30746	0.15068	0.064665	0.2358	0.20786	0.070843	0.078417	0.048855	0.18702	-2.3063	-2.7104	-2.9062	-2.8937	-2.65	-2.8875	-2.6958	-3.1208	-2.8375	-2.6521	-2.95	-2.7542	-2.6625	-2.9417	-2.6688	-2.9833	225.482	-60.542	65.272	243.475	258.544	51.100	149.477	234.228	25.889	72.700	-54.563	258.909	165.983	-66.862	101.091	227.143	0.00023188	0.00043387	0.00010008	1287	3.3762e-06	5.2214e-06	1282.1	335.74	2.3471e-06	3.6254e-06	387.13	124.65	107.2	37.223	1.4078e-06	46.92	0.00026156	0.0002442	6.8144e-05	1295.6	2.729e-06	2.6169e-06	1289.6	338.79	2.706e-06	2.6174e-06	389.49	126.6	108.44	37.79	2.6879e-06	47.607	136.531	-21.261	23.823	-69.177	39.709	49.981	-69.158	-64.401	28.657	76.800	-64.941	-60.437	-59.861	-55.184	2.533	-55.676	-8191	255	
7596.208	1	1	0	0	0.27256	0.22147	0.072467	0.44358	0.38337	0.091143	0.16732	0.17886	0.31011	0.033286	0.066747	0.041627	0.11046	0.029	0.20428	0.16876	-2.4646	-2.5021	-2.8479	-2.8312	-2.5292	-2.8083	-2.6437	-2.75	-2.7833	-2.6292	-3.0062	-2.7208	-2.7208	-2.925	-2.6854	-2.8271	-46.361	153.153	218.433	218.780	-19.879	111.948	196.348	-61.718	21.998	13.942	214.241	112.773	261.780	19.774	118.272	160.034	0.00025847	0.00042871	0.00016976	1288	2.8633e-06	3.8647e-06	1283.1	335.47	3.0584e-06	3.8283e-06	386.99	124.4	107.03	37.187	1.4459e-06	46.862	0.00024443	0.00023263	6.4997e-05	1294.7	2.5186e-06	2.4394e-06	1291.1	338.83	2.53e-06	2.4543e-06	389.4	126.07	108.33	37.718	2.5078e-06	47.573	129.843	7.223	29.939	-69.190	52.392	31.606	-69.368	-64.215	28.672	29.985	-64.794	-60.589	-59.953	-55.167	46.987	-55.818	-8191	255	
7596.328	1	1	0	0	0.16908	0.12428	0.20646	0.28862	0.053743	0.25369	0.29565	0.34884	0.09515	0.13144	0.17318	0.21001	0.24775	0.25734	0.30563	0.27912	-2.3667	-2.4333	-2.6667	-2.8104	-2.6417	-2.9229	-2.7458	-2.8187	-2.7354	-2.4458	-2.925	-2.8937	-2.7938	-2.9208	-2.7146	-2.8167	-12.409	105.809	207.991	268.789	73.567	-17.545	246.369	195.623	19.772	256.282	-65.404	204.724	18.921	-37.853	128.191	205.637	0.00021356	0.00042923	0.00012503	1289.4	3.7811e-06	2.1271e-06	1282.2	336.48	4.1084e-06	3.1983e-06	387.3	124.49	107.51	37.292	3.5497e-06	47.144	0.00024031	0.00022177	6.2019e-05	1293.2	2.5187e-06	2.4511e-06	1288.6	338.93	2.4465e-06	2.4585e-06	389.66	126.39	108.51	37.742	2.5363e-06	47.619	130.121	32.343	28.517	-69.150	78.536	50.166	-69.565	-64.301	16.565	68.635	-65.052	-60.787	-60.026	-54.896	64.677	-55.881	-8191	255	
7596.424	1	1	0	0	0.064025	0.17959	0.16466	0.25373	0.16944	0.20962	0.13589	0.08645	0.040477	0.12774	0.23635	0.14173	0.19543	0.077408	0.11281	0.12153	-2.4688	-2.4792	-2.7562	-2.8771	-2.4479	-2.9646	-2.8312	-2.7208	-2.9667	-2.4771	-2.9146	-2.9292	-2.6792	-2.7479	-2.8104	-2.6771	107.519	34.977	91.659	264.397	188.166	-70.940	213.557	176.203	-27.279	186.765	264.673	225.956	-15.347	-61.086	232.582	223.206	0.00021492	0.00050145	0.00010829	1287.4	2.5324e-06	4.7012e-06	1282.6	334.87	2.7633e-06	1.2632e-06	386.25	124.63	106.83	37.004	2.6915e-06	46.931	0.0002419	0.00022563	6.3829e-05	1290.5	2.541e-06	2.4537e-06	1287.6	338.3	2.5422e-06	2.4658e-06	388.85	126.38	108.3	37.643	2.4813e-06	47.572	130.132	15.577	18.340	-69.188	107.514	50.223	-69.229	-64.336	39.916	63.190	-64.823	-60.670	-60.005	-55.005	32.677	-55.824	-8191	255	
7596.521	1	1	0	0	0.29297	0.26908	0.09717	0.16329	0.02505	0.20442	0.24175	0.05526	0.2349	0.071379	0.22851	0.29424	0.048374	0.10592	0.18196	0.23692	-2.4854	-2.5979	-2.6688	-3.0938	-2.725	-2.8917	-2.8563	-2.8292	-2.9396	-2.4729	-3.0458	-2.9813	-2.7146	-2.7583	-2.7562	-2.7062	267.199	71.796	1.352	257.651	88.249	-68.664	240.217	127.685	-21.301	6.725	105.214	131.039	248.553	80.780	-71.287	115.616	0.00027145	0.00032332	0.00012807	1288.3	3.9437e-06	6.3721e-06	1277.2	335.37	2.2028e-06	5.6734e-06	385.88	124.28	107.23	37.181	3.3316e-06	46.723	0.00023558	0.00022057	6.281e-05	1292.4	2.4796e-06	2.403e-06	1286.2	338.47	2.5532e-06	2.4643e-06	389.55	126.29	108.4	37.695	2.5519e-06	47.472	126.847	-9.380	-4.395	-69.231	46.338	84.161	-69.385	-64.494	74.887	50.200	-64.802	-60.459	-60.056	-55.303	58.067	-55.688	-8191	255	
7596.617	1	1	0	0	0.14371	0.19384	0.077602	0.11533	0.20946	0.088519	0.18188	0.23101	0.13163	0.175	0.20024	0.29155	0.059962	0.12288	0.16813	0.14681	-2.3083	-2.6063	-2.625	-2.9708	-2.6312	-2.8208	-3.0875	-2.7417	-3.0646	-2.8958	-2.8917	-2.8375	-2.7125	-2.7833	-2.8979	-2.5917	119.739	212.720	274.992	-0.846	129.868	188.236	-80.212	196.758	273.091	227.519	148.501	-5.933	251.635	187.673	101.632	238.127	0.00021371	0.00066868	0.00010242	1287	3.7409e-06	4.6572e-06	1282.2	335.22	1.966e-06	3.6976e-06	387.8	124.59	107.36	37.128	2.0455e-06	46.837	0.0002434	0.0002267	6.2381e-05	1291.7	2.5402e-06	2.4789e-06	1288.4	338.52	2.5825e-06	2.4893e-06	390.01	126.41	108.41	37.702	2.5218e-06	47.521	119.004	2.939	26.714	-69.225	90.260	42.351	-69.384	-64.462	32.886	42.769	-64.910	-60.768	-60.210	-54.953	41.145	-55.706	-8191	255	
7596.736	1	1	0	0	0.24882	0.27889	0.1799	0.25761	0.29204	0.15716	0.26123	0.20261	0.15088	0.23811	0.28307	0.10166	0.25383	0.23914	0.28399	0.43515	-2.5667	-2.7125	-2.475	-3.2146	-2.6458	-2.9375	-2.9354	-2.6583	-2.8667	-2.7083	-2.6771	-2.9938	-2.4646	-2.8979	-2.8417	-2.6396	14.681	105.644	92.807	264.958	221.123	207.250	145.856	231.233	-13.867	240.961	265.500	150.395	-69.045	218.176	143.629	-28.306	0.00025095	0.00044443	0.00011255	1293.4	3.4129e-06	3.7889e-06	1285	335.27	1.1613e-06	4.6891e-06	387.65	124.15	107.35	37.191	3.0977e-06	46.923	0.00024249	0.00022583	6.3094e-05	1294.7	2.5194e-06	2.4563e-06	1290.4	338.51	2.5318e-06	2.5069e-06	389.71	126.37	108.37	37.726	2.5107e-06	47.503	137.777	-8.768	4.403	-69.139	17.965	45.427	-69.199	-64.385	106.381	95.458	-64.871	-60.554	-60.242	-54.955	71.036	-55.954	-8191	255	
7596.807	1	1	0	0	0.34574	0.29505	0.1778	0.072037	0.20719	0.3351	0.18894	0.040288	0.11345	0.1723	0.27434	0.10113	0.058303	0.12295	0.060617	0.15451	-2.4646	-2.65	-2.4313	-3.1229	-2.6937	-2.6521	-3.2083	-2.7896	-2.9729	-2.6562	-2.6146	-3.1083	-2.9125	-2.9375	-3.05	-2.7146	117.010	81.272	132.502	134.579	33.536	202.690	206.032	53.108	68.557	144.411	241.993	9.384	-55.736	70.029	-50.458	-3.133	0.00028144	0.00035343	0.00019506	1288.2	5.8609e-06	3.562e-06	1287.6	336.39	3.8067e-06	3.1067e-06	387.06	124.55	107.46	37.144	3.5868e-06	47.306	0.00024466	0.00022489	6.3091e-05	1293	2.5524e-06	2.4608e-06	1290.9	338.78	2.6232e-06	2.5009e-06	389.68	126.3	108.51	37.694	2.594e-06	47.682	115.609	31.566	28.737	-69.285	70.707	39.502	-69.340	-64.520	39.627	67.966	-64.959	-60.727	-60.072	-54.882	51.396	-55.807	-8191	255	
7596.903	1	1	0	0	0.31164	0.063583	0.095448	0.011086	0.24811	0.26869	0.079753	0.18406	0.18494	0.17207	0.033303	0.39561	0.081238	0.20711	0.18913	0.11595	-2.3792	-2.8896	-2.5458	-2.9562	-2.7625	-2.9083	-2.9625	-2.9021	-2.7729	-2.8167	-2.5417	-2.9	-2.7313	-2.7229	-2.9167	-2.7	163.009	276.627	11.224	77.949	8.575	34.211	257.616	203.508	-39.137	16.435	-47.747	270.933	255.711	-20.414	271.042	244.865	0.0002623	0.00060878	0.00011961	1287.9	3.1642e-06	3.4295e-06	1282.1	335.33	4.4427e-06	3.0791e-06	387.04	124.02	107.49	37.27	3.0648e-06	46.703	0.00024822	0.00022709	6.3407e-05	1291.6	2.5516e-06	2.4738e-06	1290.5	338.83	2.5072e-06	2.4582e-06	389.49	126.1	108.64	37.726	2.5346e-06	47.51	123.664	-3.470	20.808	-69.261	45.458	57.776	-69.343	-64.376	11.707	83.468	-65.015	-60.705	-60.323	-54.892	25.507	-55.712	-8191	255	
7597.000	1	1	0	0	0.14152	0.14665	0.26814	0.17531	0.060373	0.093303	0.11601	0.042887	0.084573	0.21045	0.21181	0.15962	0.11547	0.2447	0.060701	0.15057	-2.2833	-2.825	-2.3521	-3.0292	-2.7062	-2.6083	-2.9958	-2.7333	-2.8563	-2.7625	-2.6604	-2.9396	-2.8688	-2.6146	-2.8937	-2.8542	54.817	46.964	75.561	243.216	150.874	-63.078	211.340	-61.909	27.182	166.949	258.953	246.990	175.982	221.580	-10.498	119.296	0.00021639	0.00025893	0.00010168	1286.4	4.2463e-06	4.6752e-06	1282.1	335.69	3.1052e-07	2.9114e-06	387.6	124.39	107.12	37.129	1.5383e-06	47.004	0.00024185	0.00022221	6.2861e-05	1292.2	2.4923e-06	2.4101e-06	1288.9	338.67	2.5193e-06	2.463e-06	390	126.21	108.35	37.683	2.5314e-06	47.571	137.111	-9.597	9.751	-69.175	80.923	31.266	-69.095	-64.538	123.347	71.543	-64.805	-60.808	-60.013	-54.956	-31.614	-55.926	-8191	255	
#DATA ENDS
