BOXY.EXE: ISS Imagent and Oximeter Data Acquisition Program Version 0.80
Ascii Record File

#ACQ INFORMATION
2  Detector Channels 
16  External MUX Channels 
1  Auxiliary Channels 
5000  Waveform (CCF) Frequency (Hz)
1  Waveforms Skipped 
30  Waveforms Averaged 
1  Cycles Averaged 
16  Acquisitions per Waveform 
10.0806  Updata Rate (Hz) 

#FILE INFORMATION
TRUE -- External MUX Channel results are PARSED.
FALSE -- AC DC and Phase are NOT grouped.
TRUE -- Companion Program Settings File CREATED.
FALSE -- AC data not excluded
FALSE -- DC data not excluded
FALSE -- Phase data not excluded
FALSE -- Auxillary Chn. data not excluded
Tab delimiters

#CALIBRATION STATE
TRUE -- Waveform Calibration Values APPLIED.


#AUX CALIBRATION VALUES
Val Type	aux-1	

Term	1.0000e+00	
Factor	0.0000e+00	


#WF CALIBRATION VALUES
A = Detector Channel
Val Type	A-AC1	A-AC2	A-AC3	A-AC4	A-AC5	A-AC6	A-AC7	A-AC8	A-AC9	A-AC10	A-AC11	A-AC12	A-AC13	A-AC14	A-AC15	A-AC16	A-DC1	A-DC2	A-DC3	A-DC4	A-DC5	A-DC6	A-DC7	A-DC8	A-DC9	A-DC10	A-DC11	A-DC12	A-DC13	A-DC14	A-DC15	A-DC16	A-Ph1	A-Ph2	A-Ph3	A-Ph4	A-Ph5	A-Ph6	A-Ph7	A-Ph8	A-Ph9	A-Ph10	A-Ph11	A-Ph12	A-Ph13	A-Ph14	A-Ph15	A-Ph16	

Term	0.00000e+00	0.00000e+00	0.00000e+00	0.00000e+00	0.00000e+00	0.00000e+00	0.00000e+00	0.00000e+00	0.00000e+00	0.00000e+00	0.00000e+00	0.00000e+00	0.00000e+00	0.00000e+00	0.00000e+00	0.00000e+00	0.00000e+00	0.00000e+00	0.00000e+00	0.00000e+00	0.00000e+00	0.00000e+00	0.00000e+00	0.00000e+00	0.00000e+00	0.00000e+00	0.00000e+00	0.00000e+00	0.00000e+00	0.00000e+00	0.00000e+00	0.00000e+00	0.00000e+00	0.00000e+00	0.00000e+00	0.00000e+00	0.00000e+00	0.00000e+00	0.00000e+00	0.00000e+00	0.00000e+00	0.00000e+00	0.00000e+00	0.00000e+00	0.00000e+00	0.00000e+00	0.00000e+00	0.00000e+00	
Factor	1.00000e+00	1.00000e+00	1.00000e+00	1.00000e+00	1.00000e+00	1.00000e+00	1.00000e+00	1.00000e+00	1.00000e+00	1.00000e+00	1.00000e+00	1.00000e+00	1.00000e+00	1.00000e+00	1.00000e+00	1.00000e+00	1.00000e+00	1.00000e+00	1.00000e+00	1.00000e+00	1.00000e+00	1.00000e+00	1.00000e+00	1.00000e+00	1.00000e+00	1.00000e+00	1.00000e+00	1.00000e+00	1.00000e+00	1.00000e+00	1.00000e+00	1.00000e+00	X	X	X	X	X	X	X	X	X	X	X	X	X	X	X	X	

B = Detector Channel
Val Type	B-AC1	B-AC2	B-AC3	B-AC4	B-AC5	B-AC6	B-AC7	B-AC8	B-AC9	B-AC10	B-AC11	B-AC12	B-AC13	B-AC14	B-AC15	B-AC16	B-DC1	B-DC2	B-DC3	B-DC4	B-DC5	B-DC6	B-DC7	B-DC8	B-DC9	B-DC10	B-DC11	B-DC12	B-DC13	B-DC14	B-DC15	B-DC16	B-Ph1	B-Ph2	B-Ph3	B-Ph4	B-Ph5	B-Ph6	B-Ph7	B-Ph8	B-Ph9	B-Ph10	B-Ph11	B-Ph12	B-Ph13	B-Ph14	B-Ph15	B-Ph16	

Term	0.00000e+00	0.00000e+00	0.00000e+00	0.00000e+00	0.00000e+00	0.00000e+00	0.00000e+00	0.00000e+00	0.00000e+00	0.00000e+00	0.00000e+00	0.00000e+00	0.00000e+00	0.00000e+00	0.00000e+00	0.00000e+00	0.00000e+00	0.00000e+00	0.00000e+00	0.00000e+00	0.00000e+00	0.00000e+00	0.00000e+00	0.00000e+00	0.00000e+00	0.00000e+00	0.00000e+00	0.00000e+00	0.00000e+00	0.00000e+00	0.00000e+00	0.00000e+00	3.37194e+01	-1.68587e+02	-1.35414e+02	-1.80770e+02	-1.05564e+02	-1.05091e+02	-1.55686e+02	-1.62015e+02	-9.81900e+01	-8.14180e+01	-1.72633e+02	-1.70093e+02	-1.81385e+02	-1.76491e+02	-1.12733e+02	-1.49752e+02	
Factor	4.74211e-05	1.08441e-04	2.30837e-05	1.85097e-01	9.01655e-07	1.19884e-06	1.81138e-01	5.42658e-02	1.20113e-06	1.08790e-06	1.10167e-01	3.06233e-02	3.78414e-02	9.83169e-03	9.60378e-07	1.40816e-02	4.97090e-07	4.99476e-07	1.38873e-07	8.54261e-02	5.49520e-09	5.46460e-09	7.88256e-02	2.49800e-02	5.49752e-09	5.45879e-09	4.68186e-02	1.32798e-02	1.62271e-02	4.37497e-03	5.48598e-09	6.00434e-03	X	X	X	X	X	X	X	X	X	X	X	X	X	X	X	X	



#DISTANCE SETTINGS
A = Detector Channel
A-1	A-2	A-3	A-4	A-5	A-6	A-7	A-8	A-9	A-10	A-11	A-12	A-13	A-14	A-15	A-16	

2.5000e+00	3.0000e+00	2.5000e+00	3.0000e+00	2.0000e+00	3.0000e+00	1.5000e+00	3.0000e+00	3.0000e+00	3.0000e+00	3.0000e+00	3.0000e+00	3.0000e+00	3.0000e+00	1.5000e+00	3.0000e+00	

B = Detector Channel
B-1	B-2	B-3	B-4	B-5	B-6	B-7	B-8	B-9	B-10	B-11	B-12	B-13	B-14	B-15	B-16	

1.0000e+01	1.0000e+01	1.0000e+01	1.4400e+00	1.0000e+01	1.0000e+01	1.5100e+00	1.9400e+00	1.0000e+01	1.0000e+01	1.9900e+00	2.4900e+00	2.4100e+00	2.9000e+00	1.0000e+01	2.9800e+00	




#DATA BEGINS
time	group	step	mark	flag	A-AC1	A-AC2	A-AC3	A-AC4	A-AC5	A-AC6	A-AC7	A-AC8	A-AC9	A-AC10	A-AC11	A-AC12	A-AC13	A-AC14	A-AC15	A-AC16	A-DC1	A-DC2	A-DC3	A-DC4	A-DC5	A-DC6	A-DC7	A-DC8	A-DC9	A-DC10	A-DC11	A-DC12	A-DC13	A-DC14	A-DC15	A-DC16	A-Ph1	A-Ph2	A-Ph3	A-Ph4	A-Ph5	A-Ph6	A-Ph7	A-Ph8	A-Ph9	A-Ph10	A-Ph11	A-Ph12	A-Ph13	A-Ph14	A-Ph15	A-Ph16	B-AC1	B-AC2	B-AC3	B-AC4	B-AC5	B-AC6	B-AC7	B-AC8	B-AC9	B-AC10	B-AC11	B-AC12	B-AC13	B-AC14	B-AC15	B-AC16	B-DC1	B-DC2	B-DC3	B-DC4	B-DC5	B-DC6	B-DC7	B-DC8	B-DC9	B-DC10	B-DC11	B-DC12	B-DC13	B-DC14	B-DC15	B-DC16	B-Ph1	B-Ph2	B-Ph3	B-Ph4	B-Ph5	B-Ph6	B-Ph7	B-Ph8	B-Ph9	B-Ph10	B-Ph11	B-Ph12	B-Ph13	B-Ph14	B-Ph15	B-Ph16	aux-1	digaux	

6885.689	1	1	0	256	0.19769	0.063813	0.30623	0.25201	0.15497	0.05327	0.1109	0.20303	0.049483	0.20489	0.10355	0.37553	0.43	0.17535	0.23611	0.075668	-2.5625	-2.8292	-2.8958	-3.2167	-2.7417	-3.0687	-3.1813	-2.9021	-3.0396	-2.875	-2.9271	-3.1688	-2.8354	-2.8583	-2.8979	-2.8208	265.875	226.282	140.513	430.532	355.622	361.297	408.104	379.556	242.641	191.924	357.692	384.201	444.490	376.934	188.416	281.572	0.0013475	0.00090775	4.8367e-05	1343	4.1038e-06	7.679e-06	1348.2	365.05	1.0501e-05	5.1975e-06	414.32	138.93	121.58	40.933	2.4055e-06	50.833	0.00040717	0.00046097	0.00012324	1351.3	4.3801e-06	4.9573e-06	1355	366.54	4.3136e-06	4.9021e-06	413.67	137.9	118.2	41.556	4.5284e-06	50.765	334.281	134.728	256.291	99.585	180.975	196.523	99.356	104.221	172.033	219.316	103.655	108.355	108.937	113.257	125.451	112.370	-8191	255	
6885.808	1	1	0	0	0.15706	0.23178	0.025777	0.3052	0.23362	0.1107	0.41249	0.27168	0.074174	0.19509	0.26058	0.14103	0.16365	0.19866	0.26839	0.25056	-2.7062	-2.6208	-2.8958	-3.2646	-2.7333	-3.0438	-3.2271	-2.8146	-3.0354	-2.8604	-2.9938	-3.2917	-2.8042	-2.9813	-3.0938	-3.0125	218.520	414.803	300.797	373.527	152.316	281.261	409.961	438.926	125.479	261.259	369.348	318.013	362.070	215.623	280.931	88.834	0.0015183	0.00020525	4.5767e-05	1342.2	7.7018e-06	2.8457e-06	1348.1	364.63	1.062e-05	3.7792e-06	414.48	138.63	120.64	40.952	1.1647e-06	50.981	0.00040003	0.00044357	0.00011347	1341.9	4.4169e-06	4.8323e-06	1349.9	365.57	4.5213e-06	4.8556e-06	412.61	137.61	118.95	41.585	4.4555e-06	50.745	327.730	418.243	212.111	99.445	189.346	232.684	99.295	104.270	198.213	298.800	103.532	107.964	109.171	113.074	336.329	112.237	-8191	255	
6885.904	1	1	0	0	0.17346	0.22938	0.079516	0.10771	0.14903	0.18843	0.45805	0.28956	0.061985	0.18392	0.17354	0.19095	0.099068	0.041592	0.083543	0.13046	-2.5625	-2.8396	-2.7354	-2.9854	-2.7625	-2.8875	-3.05	-2.8063	-2.9958	-3.0292	-2.9375	-3.1917	-2.7833	-3.1125	-3.1125	-2.9229	176.136	397.502	174.149	354.327	328.179	433.666	395.002	395.145	110.821	94.349	335.946	314.032	375.181	395.884	442.703	125.502	0.0017204	0.00092651	9.0339e-05	1350.5	7.5153e-06	1.7052e-06	1357.5	367.73	1.0495e-05	1.3316e-06	417.38	140.07	121.37	41.287	4.74e-06	51.132	0.00042893	0.00043358	0.00011088	1351.7	4.6568e-06	4.6731e-06	1356.5	366.98	4.6637e-06	4.5779e-06	412.16	138.12	119.78	41.491	4.2373e-06	50.842	331.339	170.916	152.800	99.550	174.699	330.453	99.348	104.291	225.320	304.914	103.588	108.239	108.955	113.213	189.795	112.069	-8191	255	
6886.000	1	1	0	0	0.041248	0.16724	0.11461	0.11725	0.20977	0.24747	0.088875	0.2887	0.13997	0.031379	0.14995	0.24351	0.18582	0.20667	0.13902	0.33726	-2.5583	-2.8708	-2.9542	-3.0646	-2.8021	-2.8354	-3.2667	-2.9333	-2.9729	-3.0833	-3.0125	-3.1333	-2.8792	-2.9604	-3.1042	-2.6917	361.315	247.386	217.969	439.936	285.139	376.995	118.458	390.440	122.849	245.732	174.777	416.465	430.558	138.045	278.993	415.561	0.0014775	0.00063409	4.4049e-05	1358.4	5.4521e-06	2.9279e-06	1364.1	369.09	3.8063e-06	2.9654e-06	418.86	140.43	122.36	41.383	1.8419e-06	51.263	0.00043927	0.00041601	0.00010806	1359.2	4.9176e-06	4.597e-06	1366	369.97	5.0593e-06	4.7412e-06	416.41	140.18	122.23	41.961	4.6195e-06	51.848	328.785	234.400	235.336	99.485	209.868	321.944	99.295	104.273	212.754	320.920	103.596	108.207	108.826	113.309	326.115	112.128	-8191	255	
6886.121	1	1	0	0	0.19485	0.11308	0.24484	0.39424	0.22965	0.086336	0.29253	0.081719	0.22469	0.21472	0.20526	0.22994	0.24363	0.28333	0.019645	0.14845	-2.6104	-2.9208	-2.7979	-3.2062	-2.7542	-2.9833	-3.3312	-2.9375	-3.0854	-3.0292	-2.9771	-3.2188	-2.9437	-2.8125	-3.1937	-2.9125	408.487	154.842	264.675	418.509	226.067	293.474	393.518	365.156	137.620	223.829	107.413	352.264	442.973	414.801	114.668	398.129	0.0011635	4.1014e-05	0.00015765	1371.6	2.7954e-06	6.6308e-06	1378.6	370.93	1.9975e-06	6.9863e-06	421.02	140.81	123.05	41.745	5.6774e-06	51.395	0.0005124	0.00047914	0.00012817	1393.5	6.2232e-06	5.7365e-06	1392.5	379.74	6.6536e-06	6.1209e-06	429.61	145.19	127.77	43.3	5.9871e-06	54.202	325.551	233.921	219.500	99.403	210.506	139.309	99.338	104.176	182.965	290.276	103.605	108.376	109.083	113.059	232.115	112.174	-8191	255	
6886.217	1	1	0	0	0.087736	0.26362	0.05939	0.26714	0.17478	0.091013	0.24174	0.19974	0.076318	0.10612	0.18194	0.41554	0.11205	0.059013	0.18997	0.093574	-2.5396	-2.9938	-2.6792	-3.0521	-2.8646	-2.7958	-3.2229	-3.0292	-2.7562	-3.1667	-2.8146	-3.1396	-2.7646	-2.8833	-2.9688	-2.8521	281.430	288.286	130.775	391.273	125.483	153.371	369.152	102.939	252.443	197.928	120.594	416.939	95.183	218.074	213.162	107.337	0.00072922	0.00048093	0.00012852	1374.9	6.7959e-06	1.8873e-06	1372	370.59	4.0806e-06	6.8481e-06	420.76	141.17	122.14	41.482	5.7784e-06	51.349	0.00063746	0.00057154	0.00015083	1414.8	6.669e-06	5.9674e-06	1391.1	380.85	6.0425e-06	5.4384e-06	422.87	143.6	123.32	42.19	4.932e-06	52.841	354.881	203.332	208.604	99.501	207.098	251.537	99.342	104.280	276.528	266.220	103.612	108.272	108.805	113.232	241.234	112.353	-8191	255	
6886.289	1	1	0	0	0.077573	0.2366	0.17446	0.12352	0.1866	0.27342	0.069965	0.26591	0.10866	0.2306	0.046589	0.085704	0.18367	0.052997	0.094766	0.14275	-2.3688	-2.9479	-2.5438	-3.0229	-2.9062	-2.6562	-3.3125	-2.9167	-2.9521	-3.1792	-2.8563	-2.9021	-2.9	-2.775	-3.0729	-2.8375	144.350	286.057	178.148	399.146	380.330	320.496	395.604	336.930	402.973	218.735	312.178	223.717	428.935	382.484	223.996	292.870	0.0010155	0.00012252	8.7667e-05	1362.1	1.9157e-06	3.9768e-06	1369.6	370.61	6.4349e-06	3.3057e-06	420.28	140.21	122.01	41.707	5.6524e-06	51.242	0.00049397	0.00045133	0.0001256	1388.8	5.2948e-06	4.8958e-06	1376.2	376.56	5.2158e-06	4.7663e-06	421.36	142.36	121.48	41.869	4.9717e-06	52.604	346.839	403.306	158.221	99.567	322.657	127.846	99.305	104.238	281.578	218.584	103.568	108.299	108.997	113.330	92.372	112.029	-8191	255	
6886.409	1	1	0	0	0.094474	0.16354	0.037737	0.21984	0.073864	0.11817	0.20319	0.16975	0.045797	0.13355	0.27655	0.30899	0.16488	0.37959	0.10509	0.25472	-2.3958	-2.9667	-2.6437	-3.1271	-3.0896	-2.7875	-3.2771	-3.0479	-2.7875	-3.1104	-2.9	-2.9667	-3.0979	-2.7479	-3.0583	-2.9708	96.060	377.738	87.206	393.398	170.241	166.152	346.564	426.669	213.073	145.673	103.636	412.705	105.399	410.657	191.546	398.316	0.0010268	0.00052832	0.00029286	1362.8	3.7471e-06	5.4157e-06	1370.1	369.86	3.7853e-06	3.0546e-06	423.37	140.4	122.35	41.827	6.0778e-06	51.315	0.00045822	0.00041812	0.0001264	1382.2	4.8188e-06	4.4799e-06	1378.1	374.39	4.6676e-06	4.2857e-06	420.44	141	119.78	41.459	4.4933e-06	51.446	331.189	396.534	142.118	99.525	196.015	398.379	99.376	104.251	198.034	197.787	103.555	108.168	109.259	113.116	181.257	112.420	-8191	255	
6886.505	1	1	0	0	0.12294	0.31899	0.29673	0.25034	0.15644	0.10584	0.18564	0.11422	0.13024	0.10908	0.14668	0.056386	0.23615	0.32533	0.22477	0.074744	-2.3042	-2.9542	-2.7458	-3.1229	-3.0208	-2.7958	-3.2562	-3.0375	-2.9062	-3.15	-2.825	-3.1583	-2.8854	-2.6708	-2.8	-2.9562	321.112	180.519	210.194	424.932	257.780	337.416	418.941	91.786	383.542	184.284	409.851	205.768	442.224	328.656	381.844	315.891	0.0012171	0.00052096	5.854e-05	1368.4	4.2456e-06	6.8473e-06	1374.4	369.99	6.1721e-06	5.0281e-06	418.46	140.59	122.45	41.668	3.8935e-06	51.358	0.0003632	0.00032842	0.0001023	1362.7	3.4735e-06	3.2778e-06	1361.3	367.38	3.2359e-06	3.1094e-06	408.99	137.05	115.9	40.613	3.4139e-06	50.164	328.819	441.957	160.094	99.544	176.313	162.025	99.423	104.267	270.594	191.426	103.837	108.296	109.059	113.134	198.606	112.203	-8191	255	
6886.601	1	1	0	0	0.15174	0.14624	0.37539	0.17298	0.12288	0.12539	0.029582	0.24444	0.20588	0.060315	0.31936	0.23555	0.037803	0.32525	0.176	0.12421	-2.3042	-2.9542	-2.7896	-2.9646	-2.9938	-2.8167	-3.0438	-3.0438	-2.8187	-2.9229	-2.9417	-2.9354	-3.1813	-2.7646	-2.8354	-3.05	403.294	418.615	441.495	427.616	128.404	195.984	305.926	360.325	279.840	357.859	105.279	135.276	102.513	269.861	326.265	93.046	0.0013742	0.00035101	5.8056e-05	1364.2	1.2954e-06	7.2115e-06	1368.7	369.23	8.151e-06	6.8612e-06	418.15	140.34	122.75	41.472	3.2202e-06	51.317	0.00027009	0.00026069	8.2098e-05	1343.9	2.7242e-06	2.7653e-06	1349.5	362.85	2.7074e-06	2.8464e-06	404.38	135.87	114.66	40.403	3.1742e-06	49.781	345.842	442.011	167.047	99.576	208.750	216.374	99.351	104.185	206.694	237.347	103.753	108.309	108.790	113.281	99.151	111.918	-8191	255	
6886.722	1	1	0	0	0.092287	0.20423	0.15668	0.20421	0.26155	0.13762	0.14416	0.28762	0.071714	0.093084	0.10341	0.18351	0.17716	0.057471	0.18364	0.061128	-2.2625	-2.9167	-2.8563	-2.8063	-3.1042	-2.8542	-3.0438	-3.0771	-2.6292	-3.0146	-2.8937	-2.8604	-3.1708	-2.9062	-2.9313	-2.9479	112.918	279.362	194.351	107.782	422.659	437.469	374.356	411.669	266.115	383.475	302.753	444.046	404.544	232.631	370.466	300.866	0.0013762	0.00079678	0.00011785	1360.7	4.721e-06	4.4207e-06	1368	368.31	1.4274e-06	6.109e-07	419.08	140.16	122.24	41.578	4.3963e-06	51.44	0.00025674	0.00027474	8.079e-05	1341.1	2.7617e-06	3.0823e-06	1348.9	362.35	2.7582e-06	3.1072e-06	404.01	135.74	114.91	40.655	3.1493e-06	49.813	335.207	155.597	206.037	99.673	220.862	178.455	99.356	104.190	267.397	103.844	103.445	108.178	108.927	113.591	121.878	112.047	-8191	255	
6886.817	1	1	0	0	0.24019	0.17594	0.054793	0.23017	0.11999	0.31492	0.20059	0.13432	0.12881	0.090447	0.24704	0.20707	0.2879	0.066364	0.15577	0.32173	-2.1583	-2.9271	-2.8438	-3.0021	-3.1625	-2.7729	-3.1125	-3.0958	-2.6896	-2.8583	-2.925	-2.7125	-2.9458	-2.9688	-2.7542	-3.0479	297.354	420.409	107.330	404.204	434.699	421.663	352.927	358.060	244.415	333.159	319.525	442.115	110.731	147.095	181.462	187.319	0.0011412	0.00072424	0.00012319	1361.9	7.765e-06	8.0107e-06	1363.7	368.92	6.0704e-06	4.2634e-06	416.89	139.93	121.94	41.379	2.8058e-06	51.233	0.00026267	0.00029354	7.8934e-05	1341.4	2.8419e-06	3.2696e-06	1346.9	362.68	2.9186e-06	3.3261e-06	403.13	135.57	115.14	40.68	3.1799e-06	49.618	333.075	154.629	410.059	99.507	175.357	237.945	99.505	104.169	211.664	173.259	103.554	108.253	108.709	113.269	315.977	112.293	-8191	255	
6886.913	1	1	0	0	0.14289	0.098467	0.17709	0.50404	0.14608	0.043934	0.25897	0.24491	0.19772	0.12466	0.21691	0.16485	0.091874	0.15368	0.18018	0.11489	-2.275	-2.9688	-2.9646	-2.7	-2.9646	-2.8396	-2.9979	-2.9604	-2.8542	-3.2292	-2.9688	-2.8854	-3.0917	-3.0812	-2.9813	-3.1854	312.324	166.292	95.091	426.573	196.013	201.510	323.980	366.752	226.817	136.381	403.542	431.889	363.042	352.370	165.139	434.001	0.0012651	0.00024158	8.675e-05	1360.5	6.0876e-06	5.1272e-06	1366.3	368.87	6.4118e-06	5.7781e-06	417.2	139.69	121.87	41.522	1.5937e-06	50.952	0.00028654	0.00031259	7.9775e-05	1340.4	3.0929e-06	3.3919e-06	1346.1	362.07	3.1318e-06	3.3283e-06	402.79	135.19	115.58	40.646	3.0344e-06	49.44	334.035	161.991	385.505	99.478	200.291	250.418	99.348	104.329	236.253	305.441	103.946	108.378	109.004	113.434	214.805	112.013	-8191	255	
6886.984	1	1	0	0	0.10938	0.11396	0.1164	0.15521	0.15056	0.30435	0.14951	0.19895	0.17566	0.14907	0.26834	0.23629	0.049557	0.085075	0.20904	0.32188	-2.2354	-2.9479	-2.8083	-2.8438	-2.8229	-2.8812	-3.0208	-3.0708	-2.8729	-2.9792	-3.0729	-2.9333	-3.0854	-2.8792	-2.7125	-3.1896	183.703	408.241	423.955	423.054	204.295	178.806	169.344	415.646	354.716	143.353	107.719	445.680	125.260	181.150	299.886	348.255	0.0012969	0.00016002	4.5387e-05	1356.9	2.7325e-06	2.3696e-06	1360.6	368.55	9.202e-06	5.7388e-06	415.68	139.4	122.15	41.3	2.507e-06	50.992	0.00029859	0.0003014	7.6314e-05	1335.2	3.2285e-06	3.2353e-06	1339.3	360.64	3.2228e-06	3.1573e-06	399.94	134.51	115.49	40.324	2.8633e-06	49.258	331.229	161.657	222.957	99.465	174.031	304.435	99.360	104.428	222.064	423.376	103.493	108.460	108.949	113.101	288.250	112.229	-8191	255	
6887.105	1	1	0	0	0.19705	0.077296	0.11655	0.17939	0.10907	0.09298	0.20083	0.065239	0.05725	0.030917	0.15306	0.34079	0.14887	0.17969	0.38569	0.26907	-2.2104	-2.7583	-2.9854	-2.85	-2.8854	-2.9854	-2.9417	-3.1292	-2.8563	-2.9688	-2.9833	-2.6688	-2.8771	-3.0479	-2.7625	-3.0312	210.140	344.586	108.386	424.535	185.383	305.618	94.236	252.108	344.876	107.542	314.436	417.059	368.096	123.962	342.755	362.961	0.0012453	0.00037834	6.9055e-05	1349.8	6.244e-06	5.1647e-06	1347.2	365.96	3.4112e-06	5.5525e-07	414.87	139.22	120.82	41.056	1.9242e-06	50.894	0.00030136	0.00027797	7.1185e-05	1328.6	3.2206e-06	2.9886e-06	1328.7	359.07	3.1842e-06	2.9485e-06	397.23	134.35	114.91	40.06	2.7529e-06	49.329	326.130	202.813	178.896	99.535	201.389	206.673	99.505	104.304	159.571	403.612	103.654	108.112	108.859	113.334	199.307	112.176	-8191	255	
6887.201	1	1	0	0	0.14538	0.16163	0.28912	0.13171	0.17571	0.13807	0.43971	0.4342	0.15225	0.29637	0.38738	0.22046	0.21033	0.27211	0.20026	0.21915	-2.3917	-2.7375	-2.9437	-3.0333	-2.8896	-3.0417	-2.9604	-2.9667	-2.8604	-2.8937	-3.0312	-2.925	-3.2396	-3.0896	-2.7938	-3.1021	343.995	340.302	311.352	167.204	264.368	267.332	350.134	415.464	415.187	100.231	424.140	289.139	176.822	111.317	372.298	409.795	0.0014176	0.00038035	1.0615e-05	1346.6	8.2421e-06	3.032e-06	1353.6	364.76	1.976e-06	6.4386e-06	413.08	139.43	120.91	41.068	2.8242e-06	51.033	0.00030011	0.00026709	6.9302e-05	1328.3	3.2112e-06	2.9414e-06	1327.3	359.71	3.2498e-06	2.9598e-06	397.71	135.1	115.18	40.209	2.8945e-06	49.918	332.106	229.962	173.313	99.608	227.161	331.938	99.336	104.279	360.797	259.955	103.900	108.422	108.746	113.462	177.837	112.255	-8191	255	
6887.297	1	1	0	0	0.067797	0.068696	0.037114	0.16378	0.067248	0.10079	0.10895	0.17597	0.16164	0.16954	0.04052	0.18315	0.28869	0.24219	0.045524	0.12901	-2.6292	-2.7458	-3.0875	-2.8917	-2.7208	-3.1271	-2.8688	-3.1708	-2.8396	-2.7875	-3.1146	-2.8417	-2.8854	-3.2396	-2.7812	-3.2	385.242	441.666	223.803	421.106	263.120	172.167	95.696	434.415	100.952	257.052	396.122	327.262	321.521	324.808	287.150	395.522	0.0010833	0.00019753	0.00010472	1357.6	6.5017e-06	4.4261e-06	1374.3	370.02	3.5144e-06	1.4157e-06	420.62	141.53	123.38	42.049	6.0553e-06	51.763	0.0003163	0.00028658	7.5957e-05	1347.4	3.5196e-06	3.2625e-06	1352.6	367.97	3.6465e-06	3.3746e-06	407.98	139.29	118.62	41.279	3.352e-06	51.387	351.793	119.456	125.102	99.440	315.148	218.549	99.335	104.240	249.263	187.555	103.661	108.251	108.903	113.192	197.139	112.171	-8191	255	
6887.393	1	1	0	0	0.07588	0.14673	0.056128	0.32995	0.13532	0.14688	0.2963	0.16574	0.25043	0.049693	0.14763	0.25226	0.32219	0.13239	0.20084	0.10268	-2.4	-2.7917	-2.9771	-2.9354	-2.95	-2.9854	-2.8979	-3.0417	-2.9396	-2.6937	-3.3417	-2.9146	-2.925	-3.1917	-2.8875	-3.0312	336.352	365.870	114.507	415.597	210.550	180.238	394.679	339.082	389.655	163.031	269.296	300.943	395.931	390.768	231.483	414.075	0.0012429	0.00036347	9.1827e-05	1377.3	2.7935e-06	4.1297e-06	1383.8	373.46	7.305e-07	8.2312e-08	424.4	143.63	125.25	42.754	6.4128e-06	52.968	0.00034065	0.00031153	8.5806e-05	1374.3	3.6586e-06	3.3983e-06	1370.5	372.89	3.6136e-06	3.3423e-06	413	141.07	119.64	41.836	3.4343e-06	52.022	338.565	181.507	140.570	99.461	192.041	282.887	99.343	104.362	307.249	364.024	103.645	108.235	108.858	113.278	167.871	112.303	-8191	255	
6887.514	1	1	0	0	0.46013	0.052859	0.15773	0.04403	0.21317	0.17249	0.1546	0.2613	0.16633	0.14074	0.064497	0.059413	0.25073	0.22772	0.21836	0.1291	-2.3979	-2.6583	-3.05	-3.1042	-2.6937	-3.1396	-3.0458	-3.0229	-3.0021	-2.8333	-3.15	-2.9	-2.9229	-3.1521	-2.8604	-3.0396	111.484	194.781	391.064	383.239	329.159	108.485	155.349	341.763	262.614	345.518	244.465	141.309	354.988	394.125	230.146	98.149	0.0013549	0.00071297	0.00022552	1386.1	6.7696e-06	7.7809e-06	1394.1	377.38	3.1558e-06	1.6948e-06	428.28	145.9	126.92	43.518	5.3698e-06	53.927	0.00031587	0.00028384	8.3524e-05	1373.5	3.1545e-06	2.8841e-06	1372.5	372	2.9518e-06	2.6811e-06	411	140.79	118.61	41.999	2.882e-06	52.071	324.350	176.500	161.752	99.416	183.539	227.755	99.267	104.416	240.064	187.853	103.707	108.370	108.757	112.862	182.462	112.062	-8191	255	
6887.586	1	1	0	0	0.16279	0.26048	0.18302	0.28785	0.11186	0.11404	0.17262	0.10545	0.30584	0.3103	0.094863	0.05109	0.15776	0.14053	0.18487	0.28769	-2.7	-2.7354	-3.0104	-2.8812	-2.6646	-2.9208	-2.8771	-3.0729	-2.8604	-2.6354	-3.0917	-2.9521	-2.8771	-3.1521	-2.6771	-2.85	279.941	224.102	403.685	356.507	236.639	430.983	391.145	189.467	278.975	194.433	250.105	119.272	170.749	421.172	118.921	327.833	0.0014597	0.00067715	0.0001672	1389.2	1.7307e-06	5.2846e-06	1396.3	376.31	3.6534e-06	4.1096e-06	427.58	146.13	126.56	43.653	5.4297e-06	53.638	0.00024926	0.00022864	7.2735e-05	1364.1	2.6441e-06	2.5077e-06	1369.3	370.43	2.6219e-06	2.5646e-06	410.71	140.79	118.45	42.003	3.0577e-06	51.62	336.347	166.871	152.153	99.468	91.157	221.112	99.377	104.404	228.813	258.135	103.651	108.080	108.914	113.133	163.200	111.670	-8191	255	
6887.682	1	1	0	0	0.24506	0.11831	0.16866	0.21125	0.053557	0.093595	0.3044	0.37129	0.086161	0.070588	0.04266	0.28311	0.36136	0.18729	0.12933	0.27913	-2.6646	-2.7771	-3.0438	-2.9792	-2.7771	-2.9729	-3.1063	-2.8792	-3.1	-2.7583	-3.225	-3.0042	-2.7854	-3.1813	-2.8604	-2.9667	287.978	278.057	361.503	371.501	98.204	357.297	384.036	401.766	200.289	111.012	322.874	393.949	340.430	204.134	276.816	361.267	0.0013571	0.00065882	0.00010331	1381.2	2.9313e-06	5.8556e-06	1393.3	374.71	9.4395e-07	6.9202e-06	424.97	144.6	125.6	43.144	9.1724e-07	53	0.00025342	0.00024922	7.9615e-05	1362.7	2.7843e-06	2.8601e-06	1372.2	368.98	2.8573e-06	2.9935e-06	411.83	140.18	118.19	41.961	3.3974e-06	51.376	333.313	141.743	139.440	99.482	300.059	182.130	99.311	104.276	224.182	228.894	103.732	108.024	108.740	113.239	324.047	112.184	-8191	255	
6887.802	1	1	0	0	0.10933	0.032802	0.15062	0.037651	0.056846	0.26309	0.29819	0.25317	0.20459	0.29543	0.2625	0.12817	0.15676	0.15083	0.26364	0.21191	-2.4437	-2.7292	-2.925	-3.2354	-2.8417	-2.9938	-3.1792	-2.8396	-2.9833	-2.7938	-3.1625	-3.0354	-2.6979	-3.1292	-2.9979	-2.9062	417.515	317.577	429.992	241.421	264.011	287.750	343.264	439.229	345.896	357.545	386.324	372.150	354.710	425.421	102.325	342.172	0.0012809	0.00086226	0.00010225	1380.4	3.8882e-06	4.9496e-06	1389.7	373.79	7.9482e-06	4.3412e-06	425.18	144.19	125.32	42.925	5.9692e-07	52.934	0.00027321	0.0002927	8.5674e-05	1364.2	2.9382e-06	3.2308e-06	1372.5	368.77	2.918e-06	3.2678e-06	411.75	139.42	117.93	41.914	3.3245e-06	51.193	333.352	117.389	301.051	99.500	210.444	194.938	99.365	104.366	167.006	266.563	103.679	108.036	108.865	113.201	341.603	112.256	-8191	255	
6887.897	1	1	0	0	0.2761	0.27078	0.096833	0.22303	0.18849	0.24956	0.38629	0.10131	0.13158	0.21436	0.18166	0.38236	0.15914	0.14592	0.23399	0.066643	-2.5083	-2.6958	-2.8521	-3.2479	-2.6312	-3.1229	-3.0104	-2.8646	-3.1583	-2.8312	-3.1229	-3.0958	-2.7438	-3.1167	-2.7562	-2.725	132.019	201.383	349.115	435.173	263.114	384.889	369.443	369.562	235.740	317.328	424.877	410.922	387.165	440.225	433.364	397.489	0.0013144	0.00064056	4.5906e-05	1375.3	3.4924e-06	9.1059e-06	1387.3	373.94	9.2954e-06	4.1093e-06	423.9	143.9	125.59	42.808	2.5268e-06	52.896	0.00027631	0.00031103	8.4216e-05	1360.4	3.0174e-06	3.4589e-06	1369.8	368.44	3.083e-06	3.5403e-06	411.61	139.65	118.72	42.178	3.326e-06	51.343	337.445	141.784	129.717	99.607	202.940	159.637	99.345	104.395	198.870	243.420	103.760	108.287	108.791	113.080	165.858	112.248	-8191	255	
6887.993	1	1	0	0	0.29639	0.064517	0.24611	0.12632	0.11738	0.20967	0.21085	0.10736	0.087707	0.12982	0.17269	0.067562	0.19064	0.15249	0.065861	0.1835	-2.4729	-2.8417	-2.9271	-3.2458	-2.7042	-2.9542	-3.1854	-2.8146	-2.8979	-2.9021	-2.8271	-3.2708	-2.8792	-3.1	-3.0125	-2.725	395.653	365.886	379.805	96.605	300.670	342.533	403.412	302.091	306.578	161.125	325.510	211.555	133.316	134.750	445.455	374.365	0.0013686	0.00041885	8.4108e-05	1383.8	3.1441e-06	3.3535e-06	1391.1	375.24	9.8393e-06	9.9346e-07	425.66	144.91	126.26	42.971	4.8527e-06	52.918	0.00029616	0.00032613	8.3307e-05	1366.9	3.2467e-06	3.5938e-06	1374.3	370.17	3.3694e-06	3.6737e-06	412.84	140.51	120.43	42.47	3.5407e-06	51.601	336.438	179.154	268.006	99.566	190.106	257.706	99.282	104.149	206.789	414.187	103.297	108.103	108.715	112.968	221.213	112.013	-8191	255	
6888.089	1	1	0	0	0.26232	0.13821	0.17966	0.11577	0.26036	0.12877	0.21586	0.20235	0.22422	0.080389	0.17797	0.26887	0.090695	0.42997	0.16109	0.43034	-2.4833	-2.5708	-2.8021	-3.2188	-2.6854	-2.9729	-3.075	-2.8646	-2.9146	-2.9646	-2.9271	-3.2333	-2.8688	-2.8271	-3.2479	-2.8896	295.477	424.194	117.194	147.994	145.944	197.590	392.642	381.301	426.585	427.354	349.047	361.781	301.765	332.936	86.589	264.779	0.0015667	0.00055902	3.9593e-05	1387.4	8.105e-06	4.1953e-07	1401.7	376.65	3.7973e-06	3.5773e-06	428.17	145.28	127.49	43.255	4.2419e-06	53.077	0.00034846	0.00035704	9.2391e-05	1377.1	3.9109e-06	3.9796e-06	1387.7	373.47	4.0334e-06	3.9789e-06	417.55	141.83	122.44	42.756	3.6498e-06	51.946	331.569	192.945	231.128	99.477	184.338	250.445	99.373	104.356	261.384	279.594	103.547	108.199	108.955	113.085	282.241	112.226	-8191	255	
6888.185	1	1	0	0	0.24214	0.20716	0.13841	0.074626	0.10229	0.19109	0.2619	0.1718	0.16267	0.080758	0.19971	0.27792	0.30972	0.25028	0.22338	0.038782	-2.5771	-2.7771	-2.5375	-3.2917	-2.9479	-2.8729	-3.1521	-2.9208	-2.7958	-2.9521	-2.8354	-2.9229	-2.8646	-2.9313	-3.1229	-3.0229	433.565	197.015	402.380	411.539	137.405	100.936	437.862	392.943	221.322	400.163	343.397	354.952	382.626	345.503	422.265	386.934	0.0012334	0.0002012	8.0487e-05	1395	3.2448e-06	4.3056e-06	1395.4	378.03	1.1004e-05	1.2629e-06	426.86	145.4	126.4	43.24	2.4349e-06	53.26	0.0003691	0.00034577	8.9229e-05	1379.4	3.944e-06	3.6824e-06	1381.4	373.18	3.8816e-06	3.5644e-06	413.31	141.19	121.28	42.355	3.2201e-06	51.737	335.406	164.502	435.459	99.503	203.035	316.359	99.273	104.298	197.085	250.088	103.637	108.074	108.839	113.154	250.144	112.139	-8191	255	
6888.281	1	1	0	0	0.026996	0.17193	0.034881	0.18462	0.056111	0.022552	0.26409	0.34484	0.19108	0.11153	0.030544	0.17093	0.2356	0.22047	0.14971	0.21748	-2.4396	-2.9562	-2.6271	-3.1146	-2.7021	-2.7583	-3.2646	-2.9354	-2.9583	-2.8521	-2.8708	-3.1625	-2.8604	-3.0021	-3.125	-2.8042	120.670	184.424	103.830	295.350	338.747	112.174	359.032	440.054	93.394	278.734	360.511	115.324	408.913	327.522	144.253	317.916	0.0013438	0.0002288	8.1081e-05	1391	5.0953e-06	1.3153e-06	1394.4	376.37	2.7378e-06	4.7552e-06	425.71	143.91	125.82	42.865	2.1017e-06	53.041	0.00034296	0.00030725	8.0178e-05	1376.9	3.6743e-06	3.3223e-06	1374.6	372.17	3.6111e-06	3.2723e-06	410.53	140.59	120.43	42.011	3.0417e-06	51.704	329.816	192.119	373.625	99.452	147.616	153.531	99.379	104.345	188.555	181.485	103.659	108.279	108.956	113.157	178.934	112.268	-8191	255	
6888.402	1	1	0	0	0.12919	0.060282	0.17328	0.16968	0.19839	0.055659	0.22274	0.18435	0.1463	0.18328	0.068047	0.24353	0.11937	0.31036	0.20079	0.3987	-2.4292	-3.0042	-2.7042	-3.075	-2.8146	-2.7625	-3.1667	-2.9458	-2.8833	-2.9979	-2.7125	-3.1688	-2.9333	-2.6896	-3.0812	-3.0646	226.572	202.403	98.558	430.319	354.935	189.079	399.443	388.070	280.487	383.345	415.287	183.436	244.431	418.674	347.121	368.307	0.0011825	0.00028416	6.1816e-05	1390.4	2.7628e-06	4.6108e-06	1391.2	375.68	4.0382e-07	3.7335e-06	424.9	143.91	125.73	42.634	5.4185e-06	52.563	0.00032309	0.00028945	7.5775e-05	1373.7	3.3898e-06	3.1063e-06	1369	371	3.2903e-06	3.0219e-06	407.17	140.14	118.8	41.522	2.8878e-06	51.244	335.783	99.965	208.687	99.429	190.246	396.377	99.498	104.315	417.767	208.421	103.802	107.884	108.678	113.004	181.509	112.268	-8191	255	
6888.498	1	1	0	0	0.19773	0.14804	0.073271	0.092798	0.076003	0.22975	0.088742	0.18829	0.12996	0.20785	0.1696	0.23463	0.22529	0.11437	0.23741	0.12661	-2.4521	-2.9583	-2.7667	-3.0125	-2.9313	-2.8063	-3.1063	-2.8042	-2.9979	-3.1396	-2.8187	-3.0771	-2.8104	-2.8625	-3.0938	-2.8875	353.410	229.809	251.461	101.391	361.108	291.547	385.400	281.398	106.506	144.873	291.039	432.742	142.075	309.040	118.427	328.996	0.0012904	0.00067347	0.00012764	1382	3.2126e-06	1.0834e-06	1391	373.48	1.4323e-06	1.7973e-06	421.38	143.38	124.78	42.486	6.1702e-06	52.369	0.00029767	0.0002709	7.4692e-05	1368	3.2052e-06	2.9862e-06	1367.1	369.72	3.1992e-06	2.9727e-06	407.58	139.67	117.97	41.339	3.1147e-06	51.241	332.565	144.966	183.612	99.365	229.473	167.054	99.416	104.189	115.349	258.919	103.613	108.401	108.650	113.110	178.505	111.915	-8191	255	
6888.594	1	1	0	0	0.1251	0.23902	0.060373	0.036511	0.16041	0.21496	0.14282	0.17107	0.054494	0.2716	0.07929	0.13983	0.13332	0.14991	0.23322	0.11363	-2.4313	-2.9854	-2.6729	-3.1	-2.9229	-2.8042	-3.2833	-2.9042	-2.8187	-3.2542	-2.9021	-3.0979	-3.0438	-2.7458	-3.0563	-2.9917	388.191	427.846	213.488	89.102	303.105	256.683	87.464	437.813	361.597	255.755	185.117	396.516	146.979	379.428	253.814	409.797	0.0012754	0.00014872	0.00014245	1384.1	4.9055e-06	2.6222e-06	1384.7	371.91	5.4033e-06	3.4065e-06	421.19	141.69	124.32	42.132	5.3778e-06	51.959	0.00029325	0.00026613	7.9816e-05	1370.1	3.1195e-06	2.8794e-06	1365.7	368.06	3.1055e-06	2.8788e-06	408.02	138.48	117.12	40.922	3.2545e-06	50.749	335.534	399.032	151.178	99.440	157.743	157.317	99.549	104.242	173.421	247.866	103.764	108.366	109.007	113.201	188.166	112.123	-8191	255	
6888.691	1	1	0	0	0.081404	0.30275	0.18902	0.042285	0.10735	0.14083	0.23446	0.27922	0.10574	0.31655	0.10685	0.36332	0.2432	0.091636	0.093262	0.1148	-2.2708	-2.8833	-2.7188	-3.0062	-2.9833	-2.7521	-3.1146	-3.0396	-2.7771	-3.1	-2.9792	-3.0583	-3.1354	-2.8771	-2.9583	-2.9437	103.999	120.054	110.453	407.030	233.570	191.860	356.581	405.341	269.631	410.501	340.220	431.190	403.890	365.827	155.128	425.827	0.0013079	0.00056354	0.00012938	1373.5	2.8982e-06	4.1491e-06	1381.3	370.97	1.5804e-06	2.1892e-06	422.63	141.68	123.57	42.046	4.8785e-06	51.899	0.0002819	0.00025636	8.1628e-05	1357	2.9569e-06	2.8164e-06	1361.5	366.32	2.9164e-06	2.7795e-06	407.59	137.42	115.97	40.74	3.2224e-06	50.308	329.873	133.672	148.139	99.614	245.144	205.226	99.356	104.405	240.146	145.467	103.590	108.155	109.023	113.285	215.404	112.311	-8191	255	
6888.809	1	1	0	0	0.4273	0.12181	0.087492	0.2631	0.22157	0.16171	0.08159	0.2437	0.22415	0.088679	0.39002	0.064752	0.23651	0.19673	0.12994	0.16617	-2.2938	-2.9458	-2.7833	-3.0083	-2.8396	-2.6583	-3.2812	-3.075	-2.6	-3.1458	-2.9562	-2.9313	-3.1333	-2.9062	-3.0229	-2.9396	352.349	113.978	167.388	432.586	89.199	409.593	345.700	402.105	105.714	250.957	438.504	144.443	156.110	410.446	317.669	402.024	0.0012174	0.00025057	0.00014203	1375.3	5.0285e-06	7.0419e-06	1380.9	370.02	8.938e-06	2.0936e-06	418.76	141.06	123.03	41.876	2.0462e-06	51.871	0.00026798	0.00026071	8.413e-05	1358.1	2.9257e-06	2.9855e-06	1364.2	365.98	2.992e-06	3.107e-06	408.88	137.56	116.13	40.975	3.4376e-06	50.454	333.811	127.605	144.812	99.522	277.209	193.994	99.471	104.184	207.257	197.491	103.575	108.289	108.933	113.407	336.823	112.083	-8191	255	
6888.881	1	1	0	0	0.11547	0.13998	0.056159	0.030169	0.26173	0.14493	0.38535	0.072552	0.17865	0.12186	0.083841	0.10614	0.22748	0.19065	0.16769	0.39917	-2.2792	-3.0104	-2.7687	-2.9396	-3.0563	-2.8125	-3.1104	-3.3167	-2.6688	-3.0708	-2.9688	-2.7854	-3.0479	-3.0021	-2.8792	-2.9792	143.925	271.930	402.174	283.788	410.654	341.816	381.355	211.801	225.968	88.929	410.534	426.435	215.575	374.056	162.696	401.528	0.0012744	0.00074081	0.00010954	1378.8	3.841e-06	8.0765e-06	1377	371.04	7.77e-06	6.6514e-06	421.61	142.24	123.52	41.953	4.4069e-06	51.943	0.0002752	0.00028765	8.5424e-05	1359.3	2.8659e-06	3.1616e-06	1363.5	365.41	2.8402e-06	3.1495e-06	407.02	137.03	115.95	41.001	3.1274e-06	50.146	337.719	117.289	189.372	99.539	196.580	178.746	99.322	104.132	212.048	229.149	103.583	108.255	108.899	113.122	207.009	112.312	-8191	255	
6888.977	1	1	0	0	0.17102	0.06326	0.23632	0.11881	0.10128	0.11397	0.39212	0.031466	0.18625	0.18377	0.19437	0.31676	0.1528	0.046229	0.081652	0.18304	-2.2062	-2.9604	-2.9	-2.8708	-3.0187	-2.8979	-3.0667	-3.1521	-2.7729	-3.0542	-2.9896	-2.9104	-2.8771	-2.9938	-2.8458	-3.1729	220.778	368.312	315.734	400.756	137.040	277.584	428.867	408.529	209.618	273.487	347.165	439.107	109.531	330.430	163.003	271.577	0.0014283	0.00061813	5.1426e-05	1371.1	7.8231e-06	4.048e-06	1376.5	369.71	1.0797e-05	3.0262e-06	419.44	141.37	123.06	41.803	4.0498e-06	51.777	0.00026069	0.00028738	7.8887e-05	1353	2.7822e-06	3.1789e-06	1357.2	363.61	2.8253e-06	3.2147e-06	404.75	136.43	115.57	40.989	3.0293e-06	49.976	334.488	129.728	108.732	99.572	179.507	163.197	99.403	104.292	209.360	246.782	103.743	108.046	108.913	113.221	217.407	112.100	-8191	255	
6889.073	1	1	0	0	0.21062	0.308	0.33719	0.21742	0.1961	0.23633	0.18656	0.29482	0.12287	0.030425	0.15011	0.23084	0.18258	0.16507	0.16881	0.19591	-2.1854	-2.9354	-2.9854	-2.8354	-2.9896	-2.9313	-2.9667	-3.0625	-2.725	-3.0125	-3.025	-2.6542	-3.1562	-2.9646	-2.9	-3.1042	315.665	275.836	283.007	332.919	157.901	277.391	398.473	382.316	390.488	348.684	415.636	357.053	244.714	253.719	173.840	404.826	0.0013974	0.00081983	1.0863e-05	1370.7	4.7789e-06	2.5277e-06	1379.5	369.2	6.3275e-06	2.5931e-06	418.61	141.18	122.63	41.862	2.9364e-06	51.611	0.00027303	0.00029476	7.5845e-05	1349.1	2.8924e-06	3.19e-06	1355.5	362.55	2.8958e-06	3.1132e-06	402.47	135.84	115.64	40.854	2.816e-06	49.682	326.678	440.226	409.042	99.517	207.510	191.213	99.387	104.371	188.367	109.521	103.555	108.510	109.102	113.190	177.546	112.148	-8191	255	
6889.170	1	1	0	0	0.22819	0.12918	0.091599	0.13021	0.13939	0.066496	0.33947	0.14495	0.1281	0.048198	0.096041	0.091611	0.2553	0.056984	0.32329	0.15492	-2.2958	-2.9896	-2.8708	-2.7167	-2.9313	-2.8167	-2.9375	-3.2396	-2.8375	-2.9375	-3.0667	-2.8146	-3.025	-2.7896	-2.5333	-3.2333	192.285	190.933	396.605	422.445	379.908	107.910	365.357	300.039	296.675	400.251	207.038	359.268	367.678	438.794	302.175	375.803	0.0015001	0.00047217	5.9809e-05	1371.5	7.0979e-06	1.171e-06	1372.3	368.3	8.1357e-06	1.7126e-06	417.47	140.82	123.22	41.667	7.4114e-07	51.609	0.00027333	0.00027719	7.0374e-05	1343.6	2.9234e-06	2.953e-06	1348.7	361.2	2.9187e-06	2.8982e-06	399.54	135.42	115.67	40.527	2.6356e-06	49.483	337.822	124.243	189.492	99.534	198.984	304.841	99.247	104.277	216.206	268.087	103.879	108.479	108.754	113.207	121.889	112.286	-8191	255	
6889.290	1	1	0	0	0.20942	0.21365	0.0885	0.2006	0.24595	0.17985	0.43724	0.29648	0.18544	0.078358	0.24366	0.17251	0.05168	0.15145	0.17752	0.010526	-2.25	-2.7562	-2.9562	-2.875	-2.9688	-2.9938	-2.9292	-3.1	-2.8542	-2.8	-3.0438	-2.7042	-3.0396	-2.9042	-2.9167	-3.1063	184.209	262.956	112.845	121.337	400.457	105.621	401.942	88.551	261.445	157.778	373.810	376.074	325.622	95.498	167.443	354.378	0.0014231	0.00037147	0.00014865	1366.9	3.5249e-06	4.6207e-07	1369.2	368	4.7461e-06	1.2725e-06	416.61	140.48	122.47	41.315	1.782e-06	51.434	0.00027202	0.00025153	6.4707e-05	1338.7	2.8685e-06	2.6963e-06	1340.5	359.99	2.8769e-06	2.6634e-06	397.43	134.92	115.17	40.225	2.5073e-06	49.462	333.126	137.314	160.071	99.587	132.965	340.515	99.544	104.393	177.964	182.576	103.724	108.245	108.940	113.348	188.991	112.191	-8191	255	
6889.386	1	1	0	0	0.15565	0.13693	0.047342	0.18084	0.09794	0.097262	0.34891	0.16801	0.22923	0.2248	0.036625	0.10548	0.041471	0.20793	0.10606	0.057102	-2.3312	-2.7354	-2.9646	-3.0229	-2.9062	-2.9667	-2.8896	-3.0396	-2.825	-2.8438	-3.1667	-2.6562	-3.0187	-2.9958	-2.6479	-3.075	275.971	234.580	267.703	429.488	173.578	279.177	423.110	385.630	281.057	105.220	387.054	377.874	371.820	423.232	167.761	344.536	0.001275	0.00032342	6.0303e-05	1360.6	1.3611e-06	1.9536e-06	1370.1	366.96	7.7387e-06	3.542e-06	418.39	140.57	122.07	41.424	2.2774e-06	51.361	0.00027211	0.00024213	6.2732e-05	1337.1	2.8941e-06	2.6223e-06	1337.6	359.88	2.8788e-06	2.6044e-06	397.12	135.45	114.84	40.12	2.4181e-06	49.476	338.289	232.001	88.540	99.560	267.992	270.709	99.289	104.452	185.715	235.888	103.717	108.209	108.984	113.317	172.069	112.437	-8191	255	
6889.482	1	1	0	0	0.20037	0.22352	0.093147	0.11039	0.098326	0.046248	0.40666	0.25523	0.076585	0.11706	0.043583	0.16638	0.12817	0.29714	0.14418	0.069925	-2.3937	-2.8125	-3.2562	-3.0708	-2.925	-2.9688	-2.9188	-2.9708	-2.7958	-2.8958	-3.275	-2.8271	-2.7604	-2.9146	-2.8042	-2.9792	114.705	134.708	112.164	405.801	342.335	218.724	405.154	87.972	162.265	321.510	332.962	396.068	343.030	433.886	246.139	147.285	0.0011771	0.00031739	5.3547e-05	1363.1	2.4274e-06	4.8172e-06	1366	367.28	3.655e-06	3.0122e-06	414.19	140.09	122.11	41.556	5.1085e-06	51.488	0.00026067	0.00023038	6.0499e-05	1336.9	2.7249e-06	2.5009e-06	1334.4	360.19	2.7376e-06	2.5048e-06	394.59	135.23	114.28	40.085	2.442e-06	49.578	333.839	118.850	144.860	99.567	152.610	221.914	99.417	104.345	192.615	238.721	103.602	108.351	108.640	113.293	183.481	112.006	-8191	255	
6889.579	1	1	0	0	0.2571	0.060464	0.24548	0.15466	0.12399	0.18688	0.25116	0.08793	0.10664	0.095401	0.082954	0.11992	0.16918	0.18929	0.051355	0.19191	-2.3708	-2.5375	-2.8667	-3.0271	-2.9229	-2.9688	-2.8542	-3.1188	-2.9313	-2.7708	-3.2562	-2.8958	-2.9042	-3.1583	-2.775	-3.0938	136.084	186.905	323.871	375.208	91.415	229.828	396.212	152.941	388.753	258.786	214.521	342.764	95.027	387.151	324.717	386.007	0.0012239	0.00024043	7.5696e-05	1358.3	3.7488e-06	3.3128e-06	1365.8	365.9	4.5894e-06	2.3357e-06	415.42	140	121.76	41.485	6.4354e-06	51.514	0.00025093	0.00022713	6.1877e-05	1337.9	2.6614e-06	2.4317e-06	1334.8	360.08	2.5954e-06	2.4213e-06	395.7	135.06	113.94	39.902	2.4827e-06	49.553	338.224	131.641	125.164	99.697	165.101	235.739	99.330	104.213	209.557	374.183	103.729	108.382	109.170	113.247	206.138	112.359	-8191	255	
6889.675	1	1	0	0	0.12039	0.083776	0.055825	0.27898	0.2624	0.10516	0.15055	0.089862	0.17919	0.11009	0.24411	0.20428	0.12499	0.25872	0.37515	0.075449	-2.3271	-2.5729	-2.9708	-3.0271	-2.8271	-2.9396	-2.9292	-3.0271	-2.9396	-2.6479	-3.1542	-2.8396	-2.8479	-3.2021	-2.8312	-3.0062	269.627	168.021	441.305	439.555	130.090	288.259	365.719	154.593	357.027	185.531	113.923	382.416	91.065	327.193	295.692	365.355	0.0014106	0.00015596	0.0001541	1355.7	3.5914e-06	3.8033e-06	1361.4	365.91	6.2208e-06	6.578e-07	415.77	139.65	121.89	41.308	5.3697e-06	51.267	0.00023873	0.00021473	6.4052e-05	1335	2.5139e-06	2.3544e-06	1332.4	359.23	2.5112e-06	2.3236e-06	396.6	134.76	113.61	39.834	2.6341e-06	49.381	334.220	362.120	146.017	99.279	219.550	228.569	99.479	104.251	204.139	375.782	103.798	108.329	108.913	113.281	172.976	112.251	-8191	255	
6889.771	1	1	0	0	0.16089	0.14207	0.14107	0.11692	0.087933	0.046876	0.31206	0.31859	0.15151	0.17126	0.017173	0.29222	0.38824	0.048515	0.11264	0.082754	-2.4771	-2.6396	-2.9792	-3.0021	-2.65	-3	-2.8417	-3.0062	-2.8042	-2.6167	-2.9646	-2.975	-2.6833	-3.0396	-2.8396	-2.7938	253.478	436.693	139.313	114.549	156.608	167.730	308.124	402.798	238.389	144.484	415.490	348.079	180.210	92.529	364.489	89.734	0.0013625	0.00034047	0.00016254	1352.3	5.2095e-06	1.5488e-06	1359.2	365.44	8.0429e-06	3.9489e-06	415.65	139.65	121.76	41.481	4.3118e-06	51.244	0.00023173	0.00020987	6.6577e-05	1330.5	2.4283e-06	2.2663e-06	1333.8	359	2.3722e-06	2.2872e-06	397.15	134.53	113.06	39.852	2.6384e-06	49.196	334.314	135.953	161.648	99.504	193.584	204.101	99.422	104.324	202.183	233.185	103.541	108.523	108.942	112.999	193.902	112.220	-8191	255	
6889.890	1	1	0	0	0.048535	0.18121	0.18329	0.24359	0.27159	0.17019	0.16567	0.070091	0.27887	0.062198	0.10816	0.10782	0.27578	0.21113	0.072283	0.17131	-2.5354	-2.7667	-2.9458	-3.0708	-2.6854	-2.9833	-2.9437	-2.7958	-3.2313	-2.825	-3.1208	-3.0438	-2.6875	-3.0667	-2.75	-2.9792	242.283	236.012	369.436	413.086	147.282	144.604	374.829	407.849	219.289	221.310	151.678	390.891	333.524	321.115	370.672	433.108	0.0012303	0.00059748	9.3601e-05	1355.5	1.1262e-06	7.2351e-06	1358.2	365.64	1.8221e-06	3.6008e-06	412.81	140.09	122.23	41.43	3.8278e-06	51.158	0.00022048	0.00021155	6.6448e-05	1327.9	2.3257e-06	2.3256e-06	1333.3	358.03	2.3085e-06	2.3896e-06	396	134.17	113.07	39.891	2.6692e-06	49.023	330.795	119.372	155.119	99.657	220.903	166.785	99.149	104.198	183.421	164.617	103.585	108.385	108.812	113.110	208.403	112.274	-8191	255	
6889.986	1	1	0	0	0.10918	0.13431	0.055742	0.31828	0.082632	0.05928	0.18629	0.3799	0.10212	0.035111	0.11013	0.17658	0.089588	0.24487	0.27467	0.29596	-2.4667	-2.7833	-2.9208	-3.1854	-2.6896	-3.0667	-3.0146	-2.8083	-2.9354	-2.8708	-3.1354	-3.0646	-2.7375	-3.1021	-2.8583	-2.8688	427.091	347.267	123.794	422.081	376.715	412.365	438.081	391.820	401.197	305.022	419.556	393.038	94.993	332.622	352.938	341.452	0.0011985	0.00045619	9.2039e-05	1360.5	3.7101e-06	7.5442e-06	1360.9	366.53	6.4256e-06	6.6099e-06	415.63	140.14	122.27	41.482	2.0076e-06	51.308	0.00021695	0.0002288	6.7639e-05	1329.2	2.3263e-06	2.5314e-06	1335.2	358.12	2.2996e-06	2.5714e-06	397.07	134.41	113.16	40.118	2.6243e-06	49.069	332.300	119.679	155.995	99.435	158.703	186.519	99.204	104.216	210.109	202.593	103.576	108.433	108.832	113.224	408.234	112.323	-8191	255	
6890.082	1	1	0	0	0.1405	0.22301	0.14104	0.16058	0.12571	0.09785	0.18855	0.31827	0.37245	0.04767	0.042347	0.18914	0.1614	0.027184	0.31693	0.13068	-2.4417	-2.7604	-2.7667	-3.1813	-2.8458	-3.0812	-2.9583	-2.8292	-2.9625	-2.825	-2.9646	-3.1583	-2.7333	-3.0687	-2.8083	-2.8125	274.140	358.555	310.850	385.706	413.112	319.583	336.320	407.272	169.170	329.684	326.208	428.116	156.063	271.081	221.775	435.081	0.0014027	0.00045921	4.383e-05	1353.6	5.9036e-06	4.9145e-06	1359.4	365.71	8.6874e-06	6.6872e-06	415.88	139.76	122.2	41.564	1.6218e-06	51.48	0.0002169	0.00024035	6.5223e-05	1327	2.3252e-06	2.6233e-06	1332.7	357.48	2.2972e-06	2.626e-06	395.3	133.89	112.95	40.132	2.4492e-06	48.995	335.655	134.656	121.727	99.620	201.863	164.087	99.372	104.220	191.395	222.840	103.746	108.259	109.088	113.237	316.855	112.324	-8191	255	
6890.178	1	1	0	0	0.32529	0.22158	0.012932	0.2575	0.29569	0.073613	0.34317	0.30406	0.013949	0.13833	0.055589	0.037487	0.11658	0.17007	0.25719	0.17932	-2.6521	-2.7896	-2.7271	-3.2562	-2.7021	-2.8854	-3.2562	-2.7333	-2.9292	-3.0167	-2.8688	-3.0833	-2.8729	-3.0229	-2.9437	-2.8479	98.687	285.131	186.878	409.990	273.547	127.466	383.079	369.622	165.914	440.801	103.873	323.526	431.163	380.600	214.320	105.723	0.0013906	0.00018889	3.9019e-05	1358.9	4.8592e-06	1.5262e-06	1358.2	365.76	8.8421e-06	2.9414e-06	413.92	139.79	122.43	41.515	9.9362e-07	51.016	0.00021891	0.00023999	6.1302e-05	1326.2	2.3771e-06	2.6148e-06	1330.3	356.88	2.397e-06	2.5889e-06	394.28	133.72	113.41	40.083	2.3495e-06	48.813	334.092	444.285	186.152	99.509	214.350	304.923	99.353	104.376	197.106	242.249	103.685	108.292	108.963	113.254	112.032	112.147	-8191	255	
6890.274	1	1	0	0	0.13461	0.40118	0.30742	0.12293	0.14334	0.19883	0.24802	0.18827	0.20611	0.15138	0.13967	0.15134	0.10475	0.2379	0.19731	0.15447	-2.625	-2.7708	-2.7396	-3.175	-2.7354	-2.9375	-3.2792	-2.8396	-3.0771	-2.9042	-2.6771	-3.1146	-2.8896	-3.0875	-2.9104	-2.7521	446.042	445.842	413.143	98.014	360.618	214.435	416.001	366.794	244.273	384.301	385.160	169.297	439.535	395.623	203.818	332.222	0.0013773	0.00025237	2.3947e-05	1355.2	5.1829e-06	6.3777e-06	1356.9	363.95	4.0375e-06	2.9077e-06	414.14	139.91	121.39	41.392	5.2678e-07	51.156	0.00022956	0.00023338	5.9576e-05	1324.6	2.4951e-06	2.5241e-06	1326.8	356.33	2.4977e-06	2.475e-06	393.86	133.51	113.48	39.981	2.2899e-06	48.802	331.437	140.612	261.246	99.675	203.360	223.161	99.516	104.335	215.638	117.564	103.773	108.223	109.005	113.425	99.998	112.250	-8191	255	
6890.371	1	1	0	0	0.24232	0.17555	0.021548	0.29178	0.15193	0.16964	0.23668	0.035152	0.19051	0.2195	0.20523	0.29616	0.13892	0.11087	0.13422	0.21175	-2.3979	-2.8896	-2.6813	-3.2333	-2.8708	-2.8896	-3.0771	-2.7292	-2.9062	-2.9833	-2.7062	-3.3021	-2.8646	-2.9667	-2.9688	-2.8917	328.447	204.473	219.075	388.551	392.737	134.719	342.308	333.013	164.606	438.012	371.407	374.952	221.788	127.192	193.438	323.458	0.0012102	0.00017759	6.8741e-05	1351	2.6029e-06	1.8875e-06	1353.8	364.88	5.6632e-06	5.0871e-06	414.78	139.64	121.47	41.311	1.9841e-06	51.353	0.00023906	0.00022167	5.6981e-05	1321.5	2.5626e-06	2.4005e-06	1323.3	356.24	2.5582e-06	2.379e-06	392.61	133.71	113.58	39.886	2.2398e-06	48.972	334.260	253.579	166.619	99.620	162.726	137.857	99.367	104.247	178.300	262.208	103.653	108.258	108.957	113.146	166.196	112.411	-8191	255	
6890.467	1	1	0	0	0.077806	0.019129	0.097257	0.088247	0.046457	0.32009	0.14704	0.15398	0.14949	0.11799	0.091797	0.13707	0.09666	0.27615	0.1525	0.31012	-2.5771	-2.9604	-2.6521	-3.1604	-2.8667	-2.8458	-3.1896	-2.7708	-3.0292	-3	-2.6562	-3.1063	-2.9167	-2.9771	-3.0792	-3.0521	95.483	221.831	181.644	126.388	178.990	337.003	378.856	424.356	385.584	332.264	369.173	303.158	172.013	161.182	382.000	418.509	0.00133	0.00043073	1.8478e-05	1353.1	4.2722e-06	5.6733e-06	1355.4	364.84	1.9911e-06	3.8318e-06	414.15	139.82	122.06	41.363	2.3131e-06	51.308	0.00024221	0.00021548	5.6413e-05	1323.4	2.5613e-06	2.3496e-06	1323.3	356.64	2.5578e-06	2.3038e-06	391.96	133.97	113.62	39.818	2.1731e-06	49.047	333.543	437.815	259.595	99.508	200.891	201.463	99.386	104.274	239.413	267.435	103.746	108.237	108.906	113.511	195.757	112.367	-8191	255	
6890.587	1	1	0	0	0.38038	0.069184	0.22793	0.20897	0.18397	0.1748	0.22519	0.23269	0.046243	0.19879	0.1501	0.31556	0.21472	0.25966	0.18077	0.15427	-2.5854	-2.9083	-2.6688	-2.9313	-2.8479	-2.7917	-3.2646	-2.75	-2.9167	-3.0771	-2.8708	-3.0979	-2.95	-2.8021	-3.0771	-2.8042	351.344	187.138	150.852	385.820	211.866	155.050	366.698	440.257	179.317	290.061	382.957	93.867	101.478	403.448	413.583	297.643	0.0013084	0.00011277	3.7439e-05	1354.8	3.4628e-06	3.4166e-06	1354.9	364.37	4.7748e-06	5.343e-06	414.73	139.42	121.8	41.436	5.0528e-06	51.287	0.00023688	0.00020871	5.4816e-05	1326	2.5061e-06	2.2969e-06	1322.3	356.62	2.4866e-06	2.2606e-06	391.89	134.04	113.3	39.769	2.1674e-06	49.148	333.078	212.967	398.755	99.436	224.576	234.628	99.266	104.479	187.447	219.245	103.741	108.368	108.850	113.321	188.497	112.282	-8191	255	
6890.683	1	1	0	0	0.17138	0.27883	0.15646	0.18813	0.17792	0.12927	0.22581	0.17487	0.087939	0.26119	0.11255	0.073476	0.19425	0.30305	0.19209	0.18783	-2.3125	-2.9979	-2.7458	-3.0625	-2.6729	-2.6437	-3.1458	-2.7979	-2.8	-2.8667	-2.8604	-3.0812	-2.9437	-2.7646	-3.1833	-2.8917	273.765	288.070	239.554	429.720	144.445	161.022	334.797	389.790	229.007	279.961	109.490	387.614	261.524	369.216	219.995	421.444	0.0012012	0.0001584	7.282e-05	1353	4.8945e-06	4.4867e-06	1353.3	364.02	2.4687e-06	2.9005e-06	413.58	139.92	121.64	41.406	7.6303e-06	50.976	0.00022669	0.00020278	5.5144e-05	1325.6	2.3872e-06	2.1855e-06	1320.6	356.85	2.3375e-06	2.1552e-06	391.5	134.21	112.83	39.665	2.2433e-06	49.079	337.346	297.266	112.642	99.430	203.904	152.043	99.480	104.274	265.950	245.933	103.650	108.306	108.837	113.130	213.246	112.047	-8191	255	
6890.755	1	1	0	0	0.11073	0.050825	0.1654	0.28226	0.088017	0.12858	0.37525	0.21677	0.04523	0.16159	0.15252	0.4415	0.10568	0.040064	0.21409	0.3595	-2.4021	-3.0479	-2.7208	-3.075	-2.8875	-2.7583	-3.2062	-2.9625	-2.7062	-3.1646	-2.8875	-2.8125	-3.0354	-2.7125	-3	-2.9458	206.004	197.941	139.592	428.297	330.719	339.243	411.601	389.304	302.310	149.171	150.537	380.691	304.938	200.757	264.693	369.039	0.0011853	0.00013232	0.00013916	1351	3.3015e-06	3.0727e-06	1352	363.74	2.4642e-06	3.3743e-06	412.07	139.37	121.28	41.485	3.2236e-06	51.053	0.00021567	0.00019396	5.7726e-05	1324	2.2687e-06	2.0971e-06	1322.2	356.23	2.2387e-06	2.0885e-06	391.9	133.92	112.43	39.553	2.3621e-06	48.936	334.629	201.415	174.793	99.634	223.070	226.477	99.294	104.401	199.254	228.047	103.758	108.334	108.780	113.326	258.861	112.185	-8191	255	
6890.851	1	1	0	0	0.10219	0.14367	0.080785	0.15647	0.34646	0.10736	0.20837	0.20326	0.075035	0.045307	0.28682	0.23514	0.26274	0.032727	0.078812	0.18707	-2.2875	-2.9896	-2.6562	-3.0292	-2.9167	-2.7042	-3.0458	-2.8979	-2.6479	-3.0729	-2.8833	-3.1937	-2.9875	-2.5917	-3.0583	-2.9521	270.368	401.962	112.962	318.393	440.907	338.550	384.222	358.110	256.096	193.557	369.065	437.503	400.222	140.671	369.560	303.603	0.0013284	0.00013805	0.00014348	1347.9	4.5459e-06	4.7215e-06	1351	362.06	3.4704e-06	4.8165e-06	412.24	139.76	121.49	41.423	8.2035e-06	51.047	0.0002103	0.00018854	6.0675e-05	1319.3	2.2054e-06	2.0823e-06	1322.2	354.87	2.2149e-06	2.0835e-06	392.59	133.68	112.17	39.578	2.4546e-06	48.801	331.798	172.903	136.568	99.606	229.080	201.285	99.456	104.309	241.513	232.386	103.675	108.161	108.845	113.163	198.203	112.373	-8191	255	
6890.970	1	1	0	0	0.24848	0.22163	0.023485	0.078894	0.10367	0.33426	0.29549	0.27004	0.20112	0.22395	0.17308	0.31371	0.035779	0.041202	0.11827	0.32886	-2.2854	-2.9604	-2.8625	-2.9729	-3.0938	-2.7167	-3.2396	-3.0146	-2.6646	-3.1292	-2.9354	-2.8021	-3.025	-2.7313	-2.9688	-2.9917	125.862	391.410	135.975	312.632	378.114	188.031	385.019	421.389	136.287	201.398	252.267	397.158	96.883	317.295	250.722	405.827	0.0011858	0.00061142	8.4885e-05	1348.6	5.3516e-06	6.8815e-06	1353.1	363.92	5.4152e-06	3.8482e-06	412.12	139.01	121.4	41.239	2.2013e-06	50.997	0.00020574	0.00019487	6.1941e-05	1317.6	2.1513e-06	2.1898e-06	1322.8	354.49	2.1603e-06	2.1852e-06	392.45	133.15	111.94	39.598	2.4435e-06	48.675	334.436	137.095	428.772	99.552	160.046	204.206	99.496	104.242	210.606	200.512	103.488	108.400	108.940	113.164	196.494	112.327	-8191	255	
6891.066	1	1	0	0	0.06076	0.18767	0.19254	0.21609	0.18906	0.085949	0.32459	0.13557	0.10603	0.22687	0.30544	0.28765	0.0050605	0.14172	0.11573	0.14091	-2.2625	-2.8875	-2.8979	-2.8438	-3.0938	-2.7021	-3.4542	-3.075	-2.6646	-3.2313	-2.9021	-2.9458	-3.3375	-2.9583	-2.9917	-3.0646	139.772	348.812	441.185	341.862	259.611	95.101	360.738	208.768	363.944	260.966	403.541	430.860	88.177	91.454	263.023	335.513	0.0011092	0.00054309	5.9975e-05	1344.6	3.6768e-06	4.2025e-06	1350.9	363.33	4.0795e-06	4.6242e-06	412.21	139.13	121.39	41.272	3.3687e-06	51.091	0.00020095	0.00020586	6.1681e-05	1314.1	2.0911e-06	2.2973e-06	1321.4	354.24	2.0827e-06	2.3112e-06	391.7	132.96	111.76	39.64	2.3601e-06	48.644	339.009	442.527	217.442	99.520	241.630	184.396	99.281	104.292	239.366	244.123	103.596	108.231	109.192	113.138	253.183	112.207	-8191	255	
6891.162	1	1	0	0	0.18149	0.098873	0.15726	0.23368	0.13198	0.31312	0.18902	0.15703	0.099267	0.09919	0.18661	0.17363	0.21921	0.38712	0.07265	0.11833	-2.2479	-2.9708	-2.8375	-2.9521	-3.1979	-2.8187	-3.1312	-3.1875	-2.7375	-3.0354	-3.0542	-2.8583	-3.1312	-2.775	-2.8896	-3.0833	322.781	318.576	433.415	384.949	99.092	340.559	360.810	376.993	90.054	281.587	397.485	406.910	91.849	443.076	108.602	373.000	0.0011928	0.00031304	4.4169e-05	1342.4	4.5082e-06	5.7347e-06	1343.9	362.41	5.2406e-06	5.6837e-06	410.8	138.62	121.29	41.224	3.1641e-06	50.923	0.00019626	0.0002126	5.9006e-05	1311.9	2.0495e-06	2.3575e-06	1315.7	353.14	2.0885e-06	2.3651e-06	390.54	132.68	111.58	39.691	2.2561e-06	48.495	329.829	112.042	102.000	99.499	204.170	196.650	99.496	104.377	189.851	248.514	103.613	108.631	108.835	113.319	209.690	112.019	-8191	255	
6891.283	1	1	0	0	0.10099	0.12332	0.18143	0.22016	0.042942	0.028475	0.063114	0.16134	0.15736	0.17804	0.1245	0.074864	0.072451	0.19331	0.049834	0.15559	-2.3208	-3.0417	-2.9917	-2.8604	-2.9917	-2.8229	-3.0812	-3.3042	-2.7667	-3.0833	-3.1188	-2.8375	-3.075	-2.9562	-2.9021	-3.1125	147.156	87.904	296.947	391.564	370.540	109.456	281.092	415.637	408.245	92.978	407.884	403.653	417.556	284.700	333.992	319.630	0.00131	5.5317e-05	8.9448e-05	1341.6	6.7441e-06	1.5851e-06	1345.6	361.75	1.0024e-05	1.4097e-06	411.53	139.17	121.37	41.26	1.3144e-06	50.94	0.00020034	0.00021841	5.6005e-05	1309.6	2.1471e-06	2.3999e-06	1314.4	352.74	2.2042e-06	2.3907e-06	389.5	132.56	112.22	39.669	2.2047e-06	48.42	332.048	445.649	195.098	99.656	197.865	256.986	99.445	104.219	189.129	192.710	103.664	108.361	108.739	113.304	405.624	112.369	-8191	255	
6891.355	1	1	0	0	0.12384	0.29102	0.043035	0.39918	0.085206	0.25736	0.16094	0.33471	0.10746	0.24532	0.061008	0.14201	0.14785	0.09037	0.2588	0.12507	-2.4917	-2.8771	-2.975	-2.8438	-3.1667	-2.8375	-2.9625	-3.1417	-2.6854	-3.0375	-3.0979	-2.7375	-2.7708	-3.0167	-2.4917	-3.2542	378.920	351.797	87.744	394.094	125.198	381.916	399.743	435.260	357.312	229.735	399.748	321.263	302.934	89.448	310.591	324.223	0.0013462	0.00032977	9.7285e-05	1342.9	8.0182e-06	3.3654e-06	1342.2	361.77	7.4293e-06	5.4108e-06	410.53	139.28	120.97	41.118	4.5256e-06	51.076	0.00021389	0.00021609	5.502e-05	1309.3	2.2691e-06	2.3617e-06	1313.5	352.48	2.316e-06	2.3056e-06	388.83	132.29	112.18	39.572	2.1141e-06	48.363	334.421	136.868	172.293	99.550	183.392	302.469	99.542	104.314	184.552	229.239	103.736	108.276	108.882	113.281	177.516	112.228	-8191	255	
6891.451	1	1	0	0	0.1556	0.1947	0.17962	0.34911	0.13922	0.17666	0.13992	0.074936	0.10021	0.087818	0.11071	0.19051	0.15319	0.11712	0.14698	0.15308	-2.3063	-2.7854	-2.9396	-2.8604	-2.95	-2.9521	-2.8646	-3.1729	-2.9854	-2.8125	-3.1813	-2.875	-3.0792	-3.0354	-2.6979	-3.0604	298.530	406.273	359.923	362.761	110.248	132.962	369.799	150.252	346.409	247.928	377.684	395.567	423.951	369.911	266.375	367.066	0.0014185	0.00040258	3.2203e-05	1335	5.0729e-06	1.9814e-06	1340.3	361.21	2.9522e-06	5.1636e-06	411.42	138.56	121.51	41.188	8.8194e-07	50.941	0.00021952	0.00020511	5.2488e-05	1304.3	2.3327e-06	2.2182e-06	1308.7	351.65	2.3489e-06	2.1807e-06	387.46	132.09	112.25	39.359	2.0307e-06	48.315	333.064	155.017	163.329	99.530	171.942	260.705	99.357	104.339	256.130	221.925	103.333	108.378	108.831	113.157	271.322	112.196	-8191	255	
6891.572	1	1	0	0	0.15768	0.22012	0.021144	0.19863	0.057696	0.27768	0.39302	0.32488	0.095001	0.19285	0.051779	0.2037	0.12087	0.25386	0.18242	0.084787	-2.3667	-2.6542	-3.1229	-2.7646	-3.0292	-2.8104	-2.8479	-3.0958	-2.7396	-2.8125	-3.0667	-2.9458	-2.9417	-3.0792	-2.5979	-3.0687	277.780	218.919	285.836	348.189	108.704	273.479	321.487	395.638	265.124	356.692	333.286	163.935	108.547	386.982	195.854	365.114	0.0013147	0.00019241	5.9602e-05	1334.9	6.4772e-06	2.576e-06	1341.7	360.96	3.6304e-06	4.4255e-06	411.28	138.96	120.76	40.964	1.8662e-06	50.647	0.00021941	0.00019371	5.0041e-05	1302.9	2.293e-06	2.0728e-06	1304.4	351.59	2.2937e-06	2.0774e-06	386.03	132.24	111.8	39.229	1.9551e-06	48.285	334.260	165.830	165.224	99.529	186.991	195.320	99.474	104.282	245.038	207.988	103.767	108.275	108.823	113.217	261.496	112.136	-8191	255	
6891.668	1	1	0	0	0.21492	0.32096	0.097782	0.30732	0.24968	0.23044	0.21678	0.14462	0.25717	0.22352	0.12395	0.14254	0.21752	0.16897	0.11755	0.1347	-2.3458	-2.75	-3.2104	-2.925	-2.9583	-3.0521	-2.9646	-3.1292	-2.9813	-2.8917	-3.1375	-2.9854	-2.8333	-3.0979	-2.8	-3.05	388.720	310.967	241.181	419.068	173.870	277.921	104.119	435.294	380.473	357.959	240.034	399.435	320.272	391.656	436.098	388.814	0.0013053	0.00063175	6.2569e-05	1330.6	3.2796e-06	3.7345e-06	1337.2	360.55	7.0496e-06	8.0006e-08	409.1	138.67	119.84	40.83	6.0754e-06	50.803	0.00021516	0.00019038	4.9312e-05	1302.2	2.288e-06	2.0783e-06	1302.6	351.61	2.2526e-06	2.0744e-06	385.35	132.46	111.31	39.157	2.0157e-06	48.479	334.612	152.094	156.073	99.530	161.920	189.795	99.413	104.398	213.509	335.700	103.791	108.391	109.054	113.382	206.644	112.267	-8191	255	
6891.764	1	1	0	0	0.19134	0.19548	0.1639	0.31821	0.15179	0.24402	0.10557	0.083455	0.12434	0.34742	0.13918	0.37011	0.13652	0.049919	0.24132	0.12114	-2.4146	-2.7687	-2.9146	-3.0729	-2.9938	-3.0875	-2.9104	-3.1625	-3.0396	-2.7333	-3.3354	-2.9646	-2.9708	-3.0229	-2.7604	-3.125	412.695	392.263	355.236	347.611	231.024	171.597	359.370	265.264	291.220	206.687	129.179	376.218	364.338	340.054	330.114	398.013	0.0011801	0.00013569	9.7838e-05	1333.9	2.7035e-06	2.037e-06	1340.2	360.58	4.7224e-06	4.2643e-06	408.04	138.8	120.47	41.021	3.9322e-06	50.705	0.00021097	0.0001883	5.1378e-05	1304.1	2.221e-06	2.0471e-06	1305.9	352.41	2.2189e-06	2.0503e-06	387.03	132.92	111.47	39.229	2.1219e-06	48.636	330.120	117.167	149.070	99.619	213.020	115.225	99.596	104.260	253.293	207.981	103.845	108.242	108.853	113.192	185.518	112.309	-8191	255	
6891.883	1	1	0	0	0.050433	0.051005	0.28286	0.10881	0.13042	0.18184	0.31483	0.091141	0.14102	0.1184	0.070796	0.22614	0.16334	0.17154	0.11715	0.1027	-2.425	-2.8042	-3.1646	-3.0771	-2.9313	-3.225	-3.0458	-3.0875	-2.9875	-2.65	-3.1479	-2.9417	-2.7771	-3.1521	-2.825	-3.0521	440.870	113.168	227.824	94.235	326.242	395.372	386.111	400.037	380.692	376.326	296.457	415.926	337.867	90.612	205.545	416.161	0.0011775	0.00046172	0.00014847	1338.2	2.0673e-06	2.9825e-06	1343.5	361.41	7.0004e-06	1.8939e-06	409.52	138.75	120.55	41.151	2.9102e-06	50.85	0.00020222	0.00018365	5.3178e-05	1308.9	2.1246e-06	1.952e-06	1309.6	352.75	2.1085e-06	1.9876e-06	387.98	132.69	111.28	39.217	2.278e-06	48.586	332.068	119.896	147.490	99.642	165.572	168.133	99.516	104.410	211.791	186.599	103.611	108.219	109.011	113.103	185.615	112.274	-8191	255	
6891.979	1	1	0	0	0.12584	0.082318	0.13503	0.28579	0.27872	0.25947	0.015246	0.053805	0.073698	0.17722	0.16509	0.14239	0.10226	0.17652	0.029537	0.10189	-2.5604	-2.7208	-2.8646	-3.0771	-2.8854	-3.2083	-3.0271	-3.2313	-3.0208	-2.7354	-3.2208	-2.9688	-2.775	-3.1208	-2.7687	-2.7938	104.308	323.334	266.968	383.680	154.231	338.360	235.077	221.104	123.662	166.185	122.502	298.584	367.574	314.160	443.445	375.213	0.0012287	0.00055251	0.00014768	1337.7	5.9002e-06	1.52e-06	1343	361.13	4.4726e-06	4.552e-06	409.84	138.35	120.69	41.171	3.7717e-06	50.784	0.00020535	0.00018612	5.8892e-05	1308.9	2.202e-06	2.068e-06	1314.4	352.57	2.201e-06	2.1097e-06	390.8	132.63	111.53	39.276	2.5001e-06	48.575	332.945	105.881	137.139	99.635	242.195	177.506	99.391	104.413	169.653	211.371	103.686	108.451	108.774	113.230	156.471	112.364	-8191	255	
6892.051	1	1	0	0	0.23114	0.23961	0.12327	0.22439	0.18127	0.13955	0.17426	0.17409	0.083635	0.0342	0.20827	0.18015	0.16502	0.24309	0.067999	0.20022	-2.6458	-2.7875	-2.9313	-2.9375	-2.6021	-3.0417	-2.9729	-2.9188	-3.1354	-2.8042	-3.0396	-3.1146	-2.8292	-3.1792	-2.6937	-2.8937	392.115	147.481	410.648	445.700	401.466	338.961	401.633	276.887	101.775	193.539	382.556	432.275	309.757	431.340	314.179	342.009	0.0013184	0.00039264	7.9587e-05	1341.5	2.5354e-06	5.4419e-06	1341.8	361.35	7.6451e-06	4.68e-06	409.28	138.24	120.57	40.991	4.0647e-06	50.506	0.00021079	0.00020124	6.3885e-05	1312.5	2.2388e-06	2.2197e-06	1317.3	353.21	2.2179e-06	2.2614e-06	391.03	132.61	111.31	39.312	2.4977e-06	48.431	330.965	135.336	179.455	99.654	412.291	208.149	99.364	104.264	196.642	214.424	103.541	108.298	108.852	113.130	170.323	112.360	-8191	255	
6892.147	1	1	0	0	0.28036	0.17389	0.182	0.33438	0.105	0.2584	0.20011	0.22234	0.07508	0.03758	0.032681	0.091328	0.13276	0.19465	0.26531	0.24665	-2.7438	-2.7917	-2.9021	-3.0458	-2.8688	-3.0958	-3.0729	-2.7208	-2.9396	-2.7021	-2.9375	-3.0938	-2.6979	-2.975	-2.9021	-2.8563	335.330	412.346	280.360	408.175	278.290	127.613	353.887	88.772	408.911	254.886	265.369	427.039	435.576	398.620	330.828	295.178	0.0012719	0.00079727	5.0576e-05	1336.1	6.3496e-06	8.2932e-06	1344.2	362.09	1.1647e-05	3.2445e-06	410.54	138.27	120.35	40.884	3.3546e-06	50.699	0.00020149	0.0002088	6.2405e-05	1307.9	2.1192e-06	2.2787e-06	1314.1	352.48	2.0654e-06	2.3039e-06	389.98	132.09	110.85	39.41	2.3177e-06	48.299	329.426	131.576	187.890	99.541	207.661	213.012	99.392	104.184	237.966	239.780	103.724	108.577	108.967	113.310	204.679	112.177	-8191	255	
6892.267	1	1	0	0	0.078333	0.08281	0.14493	0.28714	0.23722	0.098453	0.18003	0.29658	0.19869	0.040413	0.095981	0.13794	0.13107	0.2115	0.14214	0.32154	-2.5896	-2.7062	-2.8187	-3.175	-2.8292	-3.175	-3.1729	-2.9333	-3.1292	-2.9125	-3.1083	-3.1167	-2.8021	-3.1854	-2.9958	-2.9188	412.933	308.133	335.255	108.460	95.696	226.929	365.016	349.681	171.688	259.360	309.722	179.111	446.408	351.275	309.997	337.942	0.0013748	0.00032465	2.9435e-05	1338.7	3.3483e-06	3.7994e-06	1344	360.87	4.5707e-06	5.5123e-06	408.95	137.72	120.56	40.979	2.9607e-06	50.635	0.00019077	0.00020905	5.754e-05	1305.9	2.0081e-06	2.2776e-06	1312.2	351.63	1.9888e-06	2.2894e-06	388.5	131.66	111	39.452	2.1435e-06	48.208	332.331	442.251	195.689	99.486	233.743	178.524	99.380	104.417	224.336	199.086	103.654	108.447	108.950	113.278	167.261	112.225	-8191	255	
6892.363	1	1	0	0	0.11436	0.19272	0.0082442	0.3884	0.10165	0.22912	0.14584	0.049384	0.18859	0.21569	0.068918	0.065087	0.26093	0.12727	0.13142	0.22741	-2.5979	-2.7229	-2.7042	-3.2042	-2.7521	-3.0542	-3.2875	-3.0458	-3.175	-2.9354	-2.9125	-3.2333	-2.6854	-3.0854	-3.075	-2.9229	221.766	247.972	296.171	374.750	97.059	335.000	341.945	414.544	213.453	173.988	383.448	371.458	403.858	295.453	400.182	397.568	0.0012505	0.00030184	6.9467e-05	1335.3	6.4618e-06	4.1265e-06	1344.4	360.57	5.8781e-06	3.0142e-06	408.17	138.55	121.03	41.206	4.3271e-06	51.126	0.00019138	0.00020822	5.3893e-05	1303	2.0516e-06	2.2654e-06	1310.2	350.98	2.0463e-06	2.2376e-06	387.06	131.84	111.19	39.519	2.0211e-06	48.242	331.981	154.260	214.407	99.604	197.078	211.848	99.313	104.361	223.888	155.690	103.636	108.332	108.773	113.266	285.701	112.097	-8191	255	
6892.460	1	1	0	0	0.33541	0.21252	0.10021	0.077316	0.099229	0.15716	0.33083	0.29792	0.05602	0.025342	0.18173	0.29297	0.17622	0.15639	0.052968	0.11736	-2.5312	-2.8792	-2.9062	-3.2646	-2.8521	-2.9458	-3.1542	-2.6813	-3.1771	-2.875	-2.9271	-3.3417	-2.9479	-3.1021	-2.9646	-2.7458	90.651	225.840	267.012	401.899	194.398	273.569	393.577	323.699	436.513	87.363	308.439	394.408	383.074	403.593	260.594	380.052	0.0014045	0.00058562	0.00010282	1334	6.6604e-06	4.9356e-06	1342.9	360.19	6.0816e-06	3.4074e-06	410.98	138.66	120.76	41.198	3.8524e-06	50.933	0.00019535	0.0001989	5.0023e-05	1300.6	2.0888e-06	2.1333e-06	1307	350.17	2.1001e-06	2.1062e-06	386.18	131.72	111.29	39.488	1.933e-06	48.118	330.024	138.960	129.486	99.570	200.242	211.844	99.320	104.291	163.105	264.060	103.745	108.637	109.012	113.352	208.342	112.184	-8191	255	
6892.556	1	1	0	0	0.039879	0.10644	0.24609	0.34018	0.21774	0.12751	0.45748	0.11532	0.081241	0.029616	0.27917	0.059007	0.1051	0.086425	0.21082	0.049417	-2.3937	-2.8354	-2.775	-3.1604	-2.8396	-2.7458	-3.1042	-2.7292	-2.9292	-3.0021	-2.9313	-3.1937	-2.8083	-2.9646	-3.0958	-2.8875	201.736	341.851	113.098	405.197	370.840	382.752	398.593	325.417	303.168	224.194	360.993	101.385	437.864	300.140	419.547	237.022	0.0014709	8.5817e-05	5.1797e-05	1334.8	5.573e-06	4.1386e-06	1340.2	360.79	8.7782e-06	1.3898e-06	407.78	138.14	120.13	40.928	2.6262e-06	50.815	0.00020193	0.00018962	4.9413e-05	1299.7	2.1899e-06	2.0785e-06	1303.6	350	2.2172e-06	2.0605e-06	384.65	131.37	111.4	39.312	1.95e-06	48.198	333.680	125.463	117.032	99.467	204.228	104.536	99.475	104.403	207.267	304.140	103.583	108.406	108.825	113.440	247.909	112.173	-8191	255	
6892.652	1	1	0	0	0.040306	0.099026	0.049002	0.28787	0.34966	0.22802	0.33837	0.37918	0.11972	0.10314	0.15227	0.1346	0.14026	0.12184	0.16766	0.30058	-2.5417	-2.8875	-2.6271	-3.1458	-2.8417	-2.8542	-3.1854	-3	-2.8146	-2.9688	-2.6854	-3.0271	-3.0521	-2.9979	-3.0958	-2.8438	122.616	313.004	135.251	379.719	443.456	249.682	417.424	349.809	233.083	192.899	341.318	138.652	141.247	171.917	339.572	325.060	0.0012523	0.00050744	0.00011902	1330.9	6.2103e-06	1.4528e-06	1342.8	360.56	6.518e-06	1.4473e-06	408.7	138.5	120.22	40.963	9.3844e-07	50.808	0.00021492	0.00018996	4.9526e-05	1302.1	2.2737e-06	2.0668e-06	1306	350.48	2.262e-06	2.0247e-06	384.76	132.01	111.31	39.272	1.887e-06	48.337	339.033	168.406	206.593	99.655	206.905	179.684	99.317	104.344	191.097	190.813	103.745	108.162	108.867	113.610	188.667	112.101	-8191	255	
6892.748	1	1	0	0	0.064298	0.090255	0.10576	0.26009	0.26097	0.16199	0.30466	0.16522	0.067949	0.073936	0.14524	0.10728	0.1729	0.13818	0.19794	0.32256	-2.4021	-2.9042	-2.6875	-3.05	-2.9125	-2.7188	-3.1375	-2.875	-3.0354	-2.9854	-2.9167	-2.9875	-2.8187	-2.7583	-3.0833	-2.8104	119.975	122.478	284.247	403.000	207.553	113.021	399.908	98.799	426.152	175.436	259.771	401.796	217.032	445.595	269.481	373.845	0.0011946	0.00023212	0.00011605	1333.3	4.1634e-06	5.9502e-06	1343.8	359.13	5.1979e-06	1.8035e-06	409.85	138.86	120.54	40.982	2.5789e-06	50.953	0.00021103	0.00018236	4.7858e-05	1303.1	2.202e-06	1.9971e-06	1303	350.48	2.1813e-06	1.9613e-06	384.55	132.18	111.09	39.197	1.8929e-06	48.369	332.529	239.331	187.857	99.565	211.958	87.745	99.376	104.281	203.643	210.060	103.756	108.187	109.130	113.359	272.299	112.159	-8191	255	
6892.844	1	1	0	0	0.10762	0.09411	0.11092	0.03399	0.22235	0.19163	0.19944	0.19954	0.19602	0.076091	0.33772	0.13083	0.20417	0.21585	0.23875	0.2245	-2.4625	-3.0396	-2.6042	-3.3083	-3.0146	-2.7917	-3.3542	-2.8125	-2.9396	-3.0917	-2.8625	-3.0938	-3.0021	-2.7417	-3.1208	-2.8625	114.803	117.732	190.629	127.833	217.389	393.547	407.096	410.639	299.374	262.073	86.812	123.857	442.900	88.204	95.910	352.560	0.0011236	0.00022471	0.00012555	1334.5	1.1747e-06	3.3514e-06	1342.4	359.11	9.8184e-07	3.4483e-06	407.24	138.66	120.08	41.036	7.6066e-06	50.641	0.0002013	0.00017773	4.8551e-05	1303.7	2.0975e-06	1.9247e-06	1301.5	350.38	2.0729e-06	1.876e-06	383.72	132.2	110.82	39.173	1.9389e-06	48.359	336.988	223.620	195.360	99.646	220.826	292.403	99.458	104.351	117.395	185.898	103.641	108.338	108.862	113.409	173.948	112.233	-8191	255	
6892.963	1	1	0	0	0.13313	0.32264	0.18021	0.073754	0.11691	0.22382	0.34152	0.3428	0.15091	0.22218	0.030002	0.19776	0.091496	0.040288	0.058643	0.053849	-2.4125	-3.175	-2.6458	-3.3208	-2.9479	-2.7417	-3.0042	-2.9958	-2.8729	-3.2292	-2.825	-3.0479	-3.0875	-2.7167	-3.1833	-3.0125	373.793	272.767	345.718	165.054	337.236	114.870	352.062	428.699	360.090	391.006	333.088	396.797	93.130	217.548	275.505	243.081	0.0012943	0.00023245	0.00012645	1330.8	2.4251e-06	1.7604e-06	1339.3	358.78	4.1784e-06	2.9792e-06	407.03	138.78	120.36	41.106	6.5637e-06	50.749	0.00019006	0.00016898	5.0042e-05	1302.2	1.9833e-06	1.8397e-06	1303.2	350.08	1.9798e-06	1.8126e-06	384.68	132.15	110.59	39.153	2.0663e-06	48.348	335.387	399.043	161.169	99.588	174.621	322.366	99.295	104.266	198.894	254.201	103.749	108.378	108.988	113.294	205.861	112.238	-8191	255	
6893.059	1	1	0	0	0.010418	0.22279	0.15336	0.28663	0.10722	0.13487	0.14425	0.22276	0.038905	0.12173	0.31653	0.27155	0.23552	0.082207	0.22835	0.30401	-2.3479	-3.2542	-2.8021	-3.1521	-2.9542	-2.7979	-3.2167	-2.9604	-2.9354	-3.2625	-2.9208	-2.8583	-3.0833	-2.9146	-2.9188	-3.15	170.162	260.441	268.923	94.181	236.970	216.525	118.144	398.368	368.933	197.805	422.509	425.849	395.514	237.868	297.533	382.094	0.0010804	0.00059613	8.9769e-05	1333	2.9839e-06	6.3469e-06	1337.1	359.73	6.7929e-06	6.271e-06	408.6	137.85	119.91	41.122	6.9698e-06	50.73	0.00018699	0.00016685	5.2851e-05	1300.2	1.9534e-06	1.8406e-06	1303.8	350.03	1.9549e-06	1.84e-06	386.25	131.7	110.35	39.127	2.1727e-06	48.162	327.216	113.594	170.658	99.532	176.462	227.011	99.387	104.277	191.635	171.953	103.840	108.260	108.958	113.141	175.204	112.280	-8191	255	
6893.155	1	1	0	0	0.16438	0.048661	0.23251	0.080344	0.098977	0.12845	0.39995	0.44354	0.085388	0.2695	0.1926	0.24895	0.18225	0.18053	0.056262	0.44869	-2.4646	-3.0729	-2.7354	-2.975	-2.9792	-2.9604	-3.2812	-3.0333	-2.6042	-3.1917	-3.0958	-2.8292	-3.0396	-2.8354	-2.9562	-3.1521	171.797	417.190	327.236	271.562	337.455	122.873	326.377	383.740	297.504	369.543	363.819	399.829	183.462	350.055	426.429	404.952	0.0010911	0.00057817	4.9889e-05	1328.9	6.0916e-07	4.2297e-06	1332.7	358.42	5.5373e-06	7.8893e-06	406.05	137.71	119.47	40.839	3.67e-06	50.577	0.00018492	0.00017221	5.5586e-05	1298.6	1.9258e-06	1.9275e-06	1303.2	348.82	1.9204e-06	1.9317e-06	384.91	131.26	109.97	39.079	2.1884e-06	47.973	337.805	115.792	121.038	99.691	107.863	225.630	99.303	104.292	199.250	228.075	103.698	108.203	108.911	113.340	198.821	112.252	-8191	255	
6893.252	1	1	0	0	0.32144	0.20404	0.33419	0.29528	0.10564	0.21217	0.28868	0.31154	0.15607	0.23758	0.079464	0.24237	0.3133	0.2766	0.11629	0.10624	-2.1604	-3.1333	-2.9604	-3.0083	-3.0812	-2.8583	-3.0333	-3.0875	-2.7292	-2.9667	-2.8063	-2.8396	-3.025	-2.825	-2.8312	-2.9625	246.702	420.692	194.100	422.685	233.724	142.970	442.726	92.737	435.910	97.154	269.605	96.199	420.893	379.288	140.781	359.951	0.0012628	0.00031617	3.5876e-05	1322.5	9.7485e-07	9.0707e-06	1328.6	357.41	1.409e-06	4.6648e-06	404.8	137.21	120.16	40.805	1.1524e-06	50.718	0.00017873	0.00018122	5.4527e-05	1291.5	1.8386e-06	2.0128e-06	1298.8	347.63	1.878e-06	2.0257e-06	384.1	130.86	109.93	39.175	2.128e-06	47.966	333.661	111.078	109.120	99.556	211.633	187.701	99.234	104.341	138.928	202.203	103.779	108.099	108.941	113.096	194.561	112.133	-8191	255	
6893.346	1	1	0	0	0.18735	0.044045	0.1095	0.27334	0.076967	0.16042	0.18563	0.097457	0.19207	0.26131	0.28243	0.030014	0.079672	0.22631	0.17616	0.18485	-2.4146	-3.0438	-2.8563	-3.05	-3.1292	-2.7479	-3.0563	-3.2542	-2.6708	-3.1063	-3.0021	-2.8833	-3.1063	-2.9542	-2.8146	-3.2208	332.762	307.602	303.240	416.438	190.153	212.585	364.777	433.496	223.013	346.401	296.672	373.585	132.197	373.414	258.977	420.402	0.0010987	0.00063538	7.0546e-05	1327.5	3.6351e-06	9.7707e-06	1336	357.68	6.8925e-06	2.4056e-06	406.05	137.44	120.2	41.021	3.7701e-06	50.608	0.00017684	0.00019247	5.3058e-05	1292.6	1.8572e-06	2.1249e-06	1300	347.61	1.889e-06	2.1402e-06	383.67	130.78	109.9	39.209	2.0854e-06	47.887	330.674	143.022	400.314	99.575	198.028	161.135	99.433	104.383	200.414	214.978	103.587	108.115	108.914	113.371	193.717	112.339	-8191	255	
6893.442	1	1	0	0	0.095933	0.22393	0.45434	0.076597	0.089006	0.34492	0.20784	0.24391	0.30335	0.22729	0.1845	0.27049	0.079917	0.3182	0.26834	0.22792	-2.3583	-2.9667	-3	-2.7438	-3.0146	-2.8688	-2.9479	-3.2042	-2.7917	-3.0646	-3.0938	-2.9792	-3.0667	-3.0271	-3.0146	-3.1792	326.220	337.017	116.721	360.728	89.746	262.403	403.258	152.738	318.563	443.670	418.658	417.649	413.479	130.079	154.675	94.399	0.001397	0.00036562	4.3435e-05	1325.9	2.8988e-06	1.8568e-06	1332.4	356.48	5.8138e-06	6.926e-06	407.87	137.61	119.57	40.79	2.503e-06	50.531	0.00018459	0.00020001	5.2325e-05	1292.2	1.9515e-06	2.1984e-06	1295.8	346.76	1.9878e-06	2.1799e-06	383.17	130.87	110.09	39.225	1.9835e-06	47.874	335.296	141.741	98.689	99.650	231.208	202.613	99.426	104.284	168.984	193.534	103.858	108.465	108.975	113.082	239.212	112.472	-8191	255	
6893.563	1	1	0	0	0.1375	0.28417	0.2503	0.44289	0.19344	0.22701	0.34875	0.091524	0.13372	0.03991	0.39073	0.053152	0.38199	0.22948	0.1833	0.14397	-2.4104	-2.7979	-3.0187	-2.775	-3.0125	-2.7229	-3.0396	-3.2333	-2.8	-2.8896	-3.0771	-2.7708	-3.0812	-2.9917	-2.75	-3.1771	353.876	256.518	381.918	369.446	278.120	393.546	423.323	111.383	264.378	280.536	387.883	343.298	87.934	348.429	116.086	160.371	0.0014039	0.00039397	0.00012586	1324.1	6.8305e-06	2.5503e-06	1333.2	357.79	8.2989e-06	3.4597e-06	406.57	137.35	119.35	40.771	3.7424e-06	50.498	0.0001923	0.00019736	4.945e-05	1290.3	2.0422e-06	2.13e-06	1294.9	347.29	2.0976e-06	2.1207e-06	382.36	130.36	110.31	39.087	1.9847e-06	47.786	338.917	152.929	158.079	99.610	202.015	220.898	99.476	104.448	211.942	188.961	103.651	108.284	109.085	113.415	202.826	112.391	-8191	255	
6893.659	1	1	0	0	0.19281	0.27297	0.15043	0.36605	0.044017	0.19972	0.17824	0.27346	0.17542	0.17457	0.21024	0.15824	0.12223	0.20362	0.11338	0.1087	-2.4396	-2.925	-3.1229	-3.1292	-3.0208	-2.7438	-3.1104	-3.2687	-3.0125	-3.1104	-3.1979	-3.0417	-3.0396	-3.0312	-2.7771	-3.1208	242.647	404.857	285.842	388.115	300.075	222.977	421.609	440.902	292.014	124.515	445.852	366.870	369.649	443.007	317.946	363.290	0.0013652	0.00025212	9.3247e-05	1325.2	4.9911e-06	3.0868e-06	1328.3	356.89	6.4107e-06	3.8915e-06	405.57	137.27	120.24	40.751	1.7797e-06	50.611	0.000206	0.00019468	4.9272e-05	1289.9	2.1797e-06	2.0809e-06	1292.9	346.18	2.1812e-06	2.0607e-06	381.46	130.56	110.65	39.016	1.8912e-06	47.835	325.122	387.207	223.132	99.639	217.283	145.266	99.619	104.459	212.007	299.016	103.629	108.364	109.229	113.498	352.490	112.370	-8191	255	
6893.755	1	1	0	0	0.19669	0.2018	0.24593	0.15993	0.23101	0.076846	0.44216	0.17004	0.15871	0.3029	0.39053	0.047132	0.23786	0.21586	0.27549	0.39546	-2.5104	-2.725	-3.0542	-3.0771	-3.1146	-3.1979	-2.9479	-3.3146	-2.8229	-2.9437	-3.1396	-2.9167	-3.0146	-2.9417	-2.8312	-3.0979	176.308	394.256	207.048	128.973	436.066	106.341	398.404	93.504	367.825	145.422	167.855	358.499	407.719	356.460	278.155	389.446	0.0012828	0.00044621	7.7785e-05	1324	2.9532e-06	3.2409e-06	1329.7	358.34	5.2413e-06	1.8307e-06	405.04	138.25	119.38	40.786	4.4476e-06	50.636	0.00020565	0.00018099	4.7304e-05	1290.7	2.1789e-06	1.9733e-06	1293	347.6	2.1897e-06	1.9876e-06	381.64	131.04	110.58	39.025	1.8811e-06	47.966	333.988	176.924	263.725	99.612	232.613	281.956	99.526	104.310	191.687	237.015	103.825	108.438	109.100	113.302	173.558	112.338	-8191	255	
6893.851	1	1	0	0	0.19467	0.18193	0.11309	0.11864	0.21838	0.2106	0.39077	0.27469	0.17648	0.10477	0.32764	0.026779	0.097754	0.24327	0.22933	0.19038	-2.4208	-2.7229	-3.0792	-2.8083	-2.9021	-3.0729	-2.9271	-3.2833	-2.9042	-2.7667	-3.2375	-2.9042	-3.0958	-3.125	-2.8042	-3.2271	444.557	101.549	404.295	301.189	248.621	428.823	348.781	378.886	164.065	363.438	291.518	274.963	327.628	405.540	110.341	382.547	0.0011707	0.00015117	0.00010756	1319.4	4.2898e-06	2.089e-06	1328.5	357.47	1.3891e-06	4.1731e-06	404.69	137.6	119.67	40.968	6.734e-06	50.689	0.0002063	0.0001808	4.6972e-05	1289.8	2.16e-06	1.9513e-06	1290.7	347.65	2.1347e-06	1.9506e-06	380.75	131.09	110.39	38.948	1.8579e-06	48.133	332.598	132.683	195.137	99.636	266.944	170.581	99.334	104.293	242.436	178.698	103.616	108.341	108.851	113.351	192.476	112.266	-8191	255	
6893.947	1	1	0	0	0.065593	0.0072922	0.23322	0.19619	0.2271	0.36109	0.26315	0.14275	0.028275	0.086056	0.32045	0.17966	0.24869	0.16286	0.1046	0.16752	-2.5979	-2.7667	-3.0938	-2.9917	-2.925	-3.0187	-3.0146	-3.0958	-2.8708	-2.725	-3.0479	-3.0396	-2.9062	-3.2062	-2.8042	-3.1312	331.232	112.504	323.179	398.149	124.380	233.990	411.093	107.025	318.186	268.957	410.429	208.140	384.629	405.059	265.234	288.887	0.0012861	0.000532	5.3004e-05	1322.4	1.5318e-06	2.6149e-06	1332.1	356.14	4.458e-06	5.6813e-06	405.84	137.16	119.13	40.731	4.7874e-06	50.365	0.0001979	0.00017603	4.7501e-05	1292.7	2.0714e-06	1.893e-06	1292.1	347.42	2.053e-06	1.9077e-06	380.98	131.19	109.98	38.834	1.971e-06	48.075	340.444	139.165	122.148	99.706	223.505	112.821	99.273	104.335	258.473	213.371	103.900	108.457	109.118	113.444	192.821	112.455	-8191	255	
6894.044	1	1	0	0	0.055236	0.052687	0.2072	0.26059	0.2776	0.30024	0.48627	0.27346	0.21173	0.23369	0.085443	0.23543	0.10236	0.013154	0.24857	0.17171	-2.6083	-2.6625	-3.0292	-2.8875	-2.7812	-3.2896	-3.2062	-3.1937	-2.8229	-2.5479	-3.0917	-2.8563	-2.975	-3.1	-2.6083	-2.9688	337.346	321.946	124.666	413.047	398.620	396.038	367.037	424.563	251.062	292.958	268.077	133.911	392.464	111.353	184.911	327.048	0.0012431	0.00013182	9.0747e-05	1321.5	2.9231e-06	2.4332e-06	1321	356.2	8.8499e-06	1.4562e-06	404.21	136.87	119.5	40.773	4.6956e-06	50.507	0.0001931	0.00017395	5.02e-05	1290.7	2.0222e-06	1.8542e-06	1290.4	347.43	2.005e-06	1.8762e-06	381.47	130.94	109.7	38.788	2.1053e-06	48.075	333.403	162.244	171.419	99.483	192.136	105.006	99.251	104.351	205.807	243.392	103.868	108.092	109.039	113.240	192.817	112.432	-8191	255	
6894.140	1	1	0	0	0.13422	0.21054	0.15409	0.32903	0.087942	0.086155	0.21765	0.15455	0.13154	0.04436	0.18806	0.54895	0.20735	0.32038	0.29624	0.22048	-2.4979	-2.6292	-3.0208	-3.0479	-2.7667	-3.1604	-2.9833	-3.0021	-3.0375	-2.8979	-3.1979	-3.0167	-2.8771	-3.1896	-2.9146	-3.0396	392.888	394.777	384.043	392.042	379.232	146.989	386.944	378.568	404.408	416.221	112.538	415.023	105.228	414.044	243.805	111.945	0.0011091	0.00034079	0.00013958	1318.8	2.2305e-07	5.7712e-06	1322.7	356.09	6.0851e-06	3.4969e-06	404.88	137.2	119.07	40.744	4.9901e-06	50.43	0.00018687	0.00017265	5.3806e-05	1289.6	1.9865e-06	1.8419e-06	1291.7	347.04	1.9368e-06	1.864e-06	382.92	130.78	109.87	38.917	2.1368e-06	48.025	336.203	439.866	178.028	99.576	130.590	203.573	99.460	104.426	202.080	215.017	103.707	108.258	109.145	113.409	208.444	112.296	-8191	255	
6894.236	1	1	0	0	0.079449	0.18856	0.12638	0.10035	0.36685	0.14533	0.27339	0.1822	0.12735	0.031656	0.23843	0.21227	0.011855	0.20463	0.13988	0.21766	-2.6083	-2.5687	-3.0292	-2.9875	-2.8771	-3.0854	-2.9104	-2.9208	-3.1042	-2.7687	-3.0083	-3.1	-2.8187	-3.2396	-2.8667	-2.8396	417.594	346.518	426.190	121.540	120.171	333.532	387.031	143.394	379.439	192.856	445.086	409.201	105.943	387.777	179.644	285.232	0.0011524	0.00055933	8.6842e-05	1320.1	4.0296e-06	4.9774e-06	1327.3	356.5	3.1948e-06	1.8194e-06	403.79	136.92	118.74	40.733	1.6853e-06	50.592	0.00017894	0.00016979	5.4592e-05	1290.4	1.8968e-06	1.8713e-06	1294.4	346.91	1.8846e-06	1.947e-06	383.12	130.56	109.38	38.883	2.2322e-06	47.931	326.883	144.605	153.981	99.587	252.131	166.360	99.116	104.382	205.410	188.540	103.810	108.395	108.982	113.434	203.962	112.373	-8191	255	
6894.355	1	1	0	0	0.21367	0.045755	0.18125	0.19017	0.16899	0.092776	0.1138	0.059283	0.20682	0.034318	0.17429	0.089573	0.19236	0.13558	0.43376	0.028302	-2.6375	-2.6646	-2.9562	-3.0208	-2.7062	-2.9854	-3.0917	-2.8729	-3.0958	-2.7208	-3.2042	-3.1083	-2.7271	-3.1813	-2.9062	-2.8729	227.147	259.438	417.284	291.485	163.388	132.003	413.134	410.986	163.158	125.246	385.714	106.849	421.580	272.835	374.129	176.567	0.0012341	0.00094049	4.3326e-05	1318.9	6.3543e-06	6.1183e-06	1326.3	355.81	4.3428e-06	6.9642e-06	404.97	137.1	119.18	40.871	5.3781e-06	50.552	0.00018315	0.00018781	5.7005e-05	1288.7	1.9446e-06	2.0829e-06	1295.8	346.64	1.9197e-06	2.1367e-06	383.98	130.66	109.67	39.079	2.257e-06	47.919	334.527	107.471	216.758	99.538	185.899	192.382	99.229	104.330	174.849	213.223	103.614	108.343	108.813	113.392	144.563	112.125	-8191	255	
6894.451	1	1	0	0	0.17132	0.3093	0.23493	0.14504	0.17828	0.023544	0.20321	0.053052	0.3893	0.31702	0.13839	0.10559	0.14522	0.1381	0.21073	0.12998	-2.5542	-2.7604	-2.9146	-3.2458	-2.7271	-3.0333	-3.1521	-2.8812	-3.0833	-2.775	-2.8229	-3.0417	-2.7313	-3.3083	-2.8521	-2.6917	389.335	397.287	198.494	314.523	280.688	220.668	361.806	426.051	445.928	331.501	198.411	375.488	195.809	125.983	90.434	94.150	0.0012124	0.0005592	5.6157e-05	1328.4	2.5269e-06	6.6536e-06	1330.3	357.2	5.5005e-06	4.21e-06	406.95	137.21	119.42	40.727	3.5347e-06	50.343	0.00018617	0.00020627	5.7786e-05	1294.7	2.0045e-06	2.2831e-06	1300.7	347.93	2.0119e-06	2.311e-06	385.32	130.95	110.12	39.221	2.2455e-06	47.952	340.741	100.349	137.635	99.593	190.586	196.598	99.333	104.081	168.624	207.552	103.934	108.382	109.164	113.121	171.716	112.135	-8191	255	
6894.524	1	1	0	0	0.2945	0.12306	0.1197	0.13497	0.29456	0.10222	0.10716	0.30752	0.14098	0.22691	0.11805	0.17258	0.059175	0.23495	0.03582	0.20837	-2.5917	-2.7083	-2.825	-3.0312	-2.7083	-3.1208	-3.0479	-2.9188	-3.1792	-2.8417	-2.8708	-3.3229	-3.0292	-2.9396	-2.9146	-2.9271	284.946	240.723	405.356	89.073	133.573	265.279	404.172	351.724	254.737	422.573	399.103	390.209	300.480	424.823	126.865	93.184	0.001379	0.00049291	3.4266e-05	1325.8	4.5558e-06	6.6147e-06	1335	357.58	7.1211e-06	1.9043e-06	406.02	137.05	119.98	40.706	2.0554e-06	50.581	0.00020024	0.00022086	5.7525e-05	1295.2	2.2075e-06	2.4513e-06	1304	348.55	2.23e-06	2.5011e-06	385.41	130.99	111.05	39.382	2.3175e-06	48.113	335.753	112.834	423.466	99.478	153.423	183.153	99.441	104.349	180.998	130.067	103.535	108.335	109.110	113.091	234.723	112.246	-8191	255	
6894.643	1	1	0	0	0.042721	0.19603	0.044499	0.18066	0.10221	0.29506	0.20642	0.093969	0.17624	0.11075	0.1156	0.20263	0.1512	0.13752	0.038671	0.13079	-2.6458	-2.9062	-2.8354	-3.2604	-2.8042	-2.9521	-3.0229	-2.9062	-3.0187	-3.1021	-2.9458	-3.3104	-2.7771	-2.975	-3.0563	-2.8604	300.391	362.538	246.257	109.833	173.322	184.358	320.399	412.551	402.153	100.985	362.755	368.543	311.164	235.079	418.125	395.891	0.0012961	0.00034448	3.9773e-05	1329.8	2.7685e-06	4.4548e-06	1330.9	357.14	6.6133e-06	1.9736e-06	406.75	137.25	119.64	40.86	1.7907e-06	50.683	0.00022202	0.00022858	5.8457e-05	1300.9	2.4008e-06	2.4923e-06	1305.8	348.7	2.4373e-06	2.4773e-06	386.03	131.26	111.79	39.446	2.2927e-06	48.236	330.585	117.580	307.250	99.549	182.360	223.543	99.623	104.391	227.716	345.435	103.839	108.392	108.849	113.120	393.275	112.048	-8191	255	
6894.739	1	1	0	0	0.25006	0.27524	0.14768	0.095055	0.057232	0.14212	0.29227	0.34451	0.25568	0.20982	0.17502	0.15911	0.16457	0.17703	0.16472	0.34003	-2.4646	-2.9708	-2.5583	-3.3083	-3.0104	-2.9729	-3.2062	-2.8729	-2.9021	-3.0479	-2.9958	-3.4	-2.8792	-2.9562	-2.9542	-2.7729	220.962	138.510	280.633	428.672	385.349	220.520	406.683	322.673	415.875	429.609	337.259	430.479	139.328	334.710	442.237	442.707	0.0012923	0.00011344	0.00011875	1337.7	3.9409e-06	4.0659e-07	1336	359.44	5.1419e-06	6.6182e-06	406.49	137.71	119.55	40.893	2.8755e-06	50.594	0.00024099	0.00022801	5.9481e-05	1305.6	2.6073e-06	2.4991e-06	1309.2	350.8	2.6401e-06	2.4669e-06	387.09	131.84	112.19	39.503	2.2644e-06	48.359	343.584	236.431	162.400	99.678	199.840	139.805	99.552	104.339	196.206	241.021	103.829	108.263	109.009	113.236	443.245	112.354	-8191	255	
6894.835	1	1	0	0	0.14941	0.090136	0.10042	0.35393	0.15001	0.065538	0.23035	0.20188	0.12477	0.1479	0.2078	0.15013	0.12897	0.16609	0.29106	0.11833	-2.4813	-2.9917	-2.6146	-3.1104	-2.8708	-2.8875	-3.1396	-2.675	-3.1521	-2.8104	-2.8563	-3.0854	-2.8292	-3.0458	-3.1333	-2.8167	422.010	346.640	232.831	92.916	102.335	146.465	372.424	412.357	232.465	234.197	251.575	443.970	440.499	409.109	125.928	211.415	0.0013144	4.013e-05	7.1556e-05	1336.4	3.9152e-06	1.827e-06	1339.6	358.5	4.8889e-06	2.981e-06	407.28	137.95	119.69	40.729	3.9654e-06	50.559	0.00024391	0.00021742	5.7082e-05	1307.7	2.6175e-06	2.3912e-06	1309.5	351.02	2.6566e-06	2.4098e-06	386.69	132.35	112.36	39.472	2.3013e-06	48.65	338.526	270.669	162.310	99.577	191.844	102.705	99.502	104.203	167.630	292.540	103.534	108.576	108.778	113.090	205.879	112.264	-8191	255	
6894.956	1	1	0	0	0.051672	0.24024	0.11758	0.089806	0.12646	0.19748	0.069371	0.39616	0.27686	0.081097	0.41518	0.17393	0.18764	0.071429	0.15011	0.27434	-2.4771	-2.8271	-2.8063	-3.2167	-2.8563	-2.7396	-3.2104	-2.8438	-2.8792	-3.0312	-2.8563	-3.0062	-2.9437	-2.9437	-3.0625	-2.8583	239.498	235.552	258.910	162.474	308.698	219.582	393.191	359.173	284.369	411.686	150.129	377.150	276.333	118.950	321.869	345.603	0.0011385	0.00017155	6.9941e-05	1338.4	6.8966e-07	3.3649e-06	1339.4	358.62	4.3016e-06	3.0835e-06	406.85	138.27	120.19	40.998	5.4162e-06	51.033	0.00025326	0.00022297	5.9257e-05	1313.3	2.6802e-06	2.4504e-06	1311.1	352.14	2.6267e-06	2.3836e-06	386.87	132.88	112.01	39.426	2.2453e-06	48.786	339.212	207.597	205.962	99.584	226.454	412.336	99.483	104.193	248.077	190.170	103.755	108.280	108.911	113.234	190.283	112.197	-8191	255	
6895.052	1	1	0	0	0.10759	0.024697	0.23201	0.11502	0.076942	0.21765	0.35626	0.34453	0.10284	0.15385	0.25646	0.10851	0.15847	0.16575	0.16438	0.094511	-2.4917	-2.9625	-2.7188	-3.2396	-2.9417	-2.8271	-3.1333	-3.0417	-3.0438	-2.9042	-2.7292	-2.9958	-3.0458	-2.7229	-2.9854	-2.9396	161.998	278.091	247.820	92.372	227.556	171.827	342.524	407.233	410.113	384.599	94.396	371.207	111.526	155.643	161.481	284.487	0.0012554	0.00022694	5.9956e-05	1335.3	5.3526e-06	7.616e-06	1340.9	358.7	5.2282e-06	1.2704e-06	409.62	137.62	119.98	41.139	5.996e-06	50.611	0.0002359	0.00020894	5.6775e-05	1313.3	2.4533e-06	2.2696e-06	1311.1	352.27	2.4353e-06	2.2679e-06	387.39	132.87	111.83	39.518	2.3727e-06	48.846	332.685	164.201	167.665	99.534	214.256	174.151	99.231	104.311	239.161	104.292	103.475	108.043	109.091	113.195	163.016	112.116	-8191	255	
6895.147	1	1	0	0	0.085431	0.14829	0.26695	0.15795	0.1991	0.15164	0.1279	0.21477	0.1752	0.13351	0.080214	0.10643	0.09535	0.044126	0.13928	0.36058	-2.3646	-2.9292	-2.6146	-3.0271	-2.8688	-2.6354	-3.2979	-3.0208	-2.6708	-3.0104	-2.7646	-3.025	-3.0187	-2.7458	-2.9833	-2.7729	216.271	433.556	314.668	407.433	241.144	211.075	376.171	322.067	145.613	155.174	387.639	156.616	394.401	132.056	367.096	108.707	0.0011215	0.0001675	0.00013657	1340.2	1.6052e-06	2.076e-06	1345.9	359.77	6.0898e-06	4.6332e-06	408.27	139.15	120.82	41.299	3.9055e-06	50.901	0.00023355	0.00021076	6.2964e-05	1316.2	2.5296e-06	2.3758e-06	1317.9	353.65	2.6106e-06	2.4181e-06	391.51	134.11	113.13	39.836	2.7959e-06	49.378	337.556	184.860	174.496	99.628	152.273	170.933	99.615	104.305	212.630	268.447	103.838	108.124	108.892	113.140	197.855	112.253	-8191	255	
6895.245	1	1	0	0	0.085088	0.019845	0.21938	0.13171	0.071526	0.27728	0.10737	0.23265	0.21582	0.25402	0.061452	0.28706	0.093375	0.1825	0.18106	0.37053	-2.4042	-3.0542	-2.8708	-2.9896	-3.0125	-2.5542	-3.1458	-3.0521	-2.5438	-2.9771	-2.7438	-3.0812	-3.0833	-2.8417	-3.075	-2.7792	214.346	355.385	381.957	147.886	309.715	88.428	335.636	140.449	213.557	216.574	324.686	384.130	362.124	385.565	89.605	436.409	0.0010841	0.00069622	0.00016057	1351.3	1.8546e-06	2.8182e-06	1361.4	363.22	4.598e-06	7.1824e-06	412.89	139.62	121.84	41.576	8.9472e-06	51.317	0.00025464	0.0002295	7.3098e-05	1332	2.713e-06	2.5723e-06	1336.8	358.04	2.7559e-06	2.6013e-06	398.29	135.51	114.46	40.305	3.1169e-06	49.714	336.067	140.927	190.382	99.455	190.130	242.861	99.472	104.410	213.366	222.750	103.628	108.361	109.205	113.242	191.707	112.182	-8191	255	
6895.339	1	1	0	0	0.21704	0.08233	0.1195	0.22819	0.18442	0.18888	0.18731	0.12936	0.083208	0.13544	0.12942	0.13805	0.13705	0.37954	0.15569	0.13542	-2.2958	-2.9333	-2.7438	-2.9583	-3.0292	-2.7687	-3.2021	-3.0563	-2.7167	-3.2313	-2.9042	-3.0521	-3.2708	-2.7333	-2.9021	-3.0812	374.818	392.148	151.660	405.479	90.608	402.952	134.981	388.780	387.926	150.546	291.667	443.607	346.145	401.254	234.078	314.104	0.0010918	0.00029247	0.00021727	1354.1	3.2129e-06	1.0605e-05	1361.1	363.92	6.7897e-06	5.0046e-06	413.14	140.01	121.49	41.224	2.1332e-06	50.9	0.00026457	0.00025361	8.2738e-05	1336.9	2.9176e-06	2.9445e-06	1344.5	359.25	2.985e-06	3.0178e-06	401.18	135.69	114.48	40.326	3.4177e-06	49.545	336.241	154.416	165.320	99.568	293.762	205.676	99.444	104.270	314.822	213.055	103.946	108.461	108.890	113.175	187.951	112.355	-8191	255	
6895.435	1	1	0	0	0.21175	0.019922	0.18484	0.42237	0.012499	0.074245	0.24505	0.35704	0.16832	0.26437	0.23915	0.049978	0.30689	0.069439	0.038715	0.16167	-2.3583	-3.0375	-2.7333	-2.875	-3.1125	-2.6417	-3.1	-2.9813	-2.675	-3.0125	-2.9521	-2.8083	-3.0542	-2.7917	-3.1021	-2.9771	336.524	255.810	257.515	399.041	238.099	297.066	359.955	329.325	141.736	360.473	242.978	125.988	398.775	408.839	154.562	346.236	0.0010899	0.00033768	2.4945e-05	1350.4	1.7833e-06	1.1386e-05	1362.3	363.88	4.8666e-06	1.7211e-06	413.77	138.78	121.17	41.225	2.6194e-06	50.919	0.00027926	0.00028685	8.6353e-05	1338.7	2.9298e-06	3.1864e-06	1346.8	359.35	2.9611e-06	3.2353e-06	401.31	135.24	114.22	40.513	3.4566e-06	49.758	330.235	143.505	165.948	99.580	193.447	216.614	99.249	104.409	229.451	338.130	103.527	108.243	108.662	113.385	282.091	112.024	-8191	255	
6895.531	1	1	0	0	0.18495	0.054044	0.14351	0.054646	0.072658	0.17473	0.41543	0.12548	0.18404	0.21642	0.033393	0.25128	0.30703	0.081193	0.17596	0.10723	-2.3208	-2.8021	-2.8542	-3.0625	-3.2313	-2.8646	-3.0563	-3.0375	-2.5792	-2.9042	-3.0021	-2.8542	-3.0917	-3.0271	-2.8896	-2.9708	180.419	319.483	88.320	414.330	232.283	442.549	345.330	95.943	418.004	355.668	111.057	408.694	407.555	298.196	330.646	316.484	0.0013637	0.00055812	2.7613e-05	1359.3	4.0535e-06	4.173e-06	1359.2	364.12	6.0166e-06	2.4784e-06	414.41	139.43	121.84	41.55	7.2595e-07	51.296	0.00028412	0.00031339	8.6937e-05	1343.2	3.0389e-06	3.4587e-06	1346.1	359.69	3.066e-06	3.4816e-06	401.77	135.64	115.08	40.836	3.3622e-06	49.775	341.085	122.480	142.434	99.564	185.582	216.049	99.323	104.363	198.679	153.372	103.531	108.090	108.860	113.243	197.472	112.304	-8191	255	
#DATA ENDS
