BOXY.EXE: ISS Imagent and Oximeter Data Acquisition Program Version 0.80
Ascii Record File

#ACQ INFORMATION
2  Detector Channels 
16  External MUX Channels 
1  Auxiliary Channels 
5000  Waveform (CCF) Frequency (Hz)
1  Waveforms Skipped 
30  Waveforms Averaged 
1  Cycles Averaged 
16  Acquisitions per Waveform 
10.0806  Updata Rate (Hz) 

#FILE INFORMATION
TRUE -- External MUX Channel results are PARSED.
FALSE -- AC DC and Phase are NOT grouped.
TRUE -- Companion Program Settings File CREATED.
FALSE -- AC data not excluded
FALSE -- DC data not excluded
FALSE -- Phase data not excluded
FALSE -- Auxillary Chn. data not excluded
Tab delimiters

#CALIBRATION STATE
TRUE -- Waveform Calibration Values APPLIED.


#AUX CALIBRATION VALUES
Val Type	aux-1	

Term	1.0000e+00	
Factor	0.0000e+00	


#WF CALIBRATION VALUES
A = Detector Channel
Val Type	A-AC1	A-AC2	A-AC3	A-AC4	A-AC5	A-AC6	A-AC7	A-AC8	A-AC9	A-AC10	A-AC11	A-AC12	A-AC13	A-AC14	A-AC15	A-AC16	A-DC1	A-DC2	A-DC3	A-DC4	A-DC5	A-DC6	A-DC7	A-DC8	A-DC9	A-DC10	A-DC11	A-DC12	A-DC13	A-DC14	A-DC15	A-DC16	A-Ph1	A-Ph2	A-Ph3	A-Ph4	A-Ph5	A-Ph6	A-Ph7	A-Ph8	A-Ph9	A-Ph10	A-Ph11	A-Ph12	A-Ph13	A-Ph14	A-Ph15	A-Ph16	

Term	0.00000e+00	0.00000e+00	0.00000e+00	0.00000e+00	0.00000e+00	0.00000e+00	0.00000e+00	0.00000e+00	0.00000e+00	0.00000e+00	0.00000e+00	0.00000e+00	0.00000e+00	0.00000e+00	0.00000e+00	0.00000e+00	0.00000e+00	0.00000e+00	0.00000e+00	0.00000e+00	0.00000e+00	0.00000e+00	0.00000e+00	0.00000e+00	0.00000e+00	0.00000e+00	0.00000e+00	0.00000e+00	0.00000e+00	0.00000e+00	0.00000e+00	0.00000e+00	0.00000e+00	0.00000e+00	0.00000e+00	0.00000e+00	0.00000e+00	0.00000e+00	0.00000e+00	0.00000e+00	0.00000e+00	0.00000e+00	0.00000e+00	0.00000e+00	0.00000e+00	0.00000e+00	0.00000e+00	0.00000e+00	
Factor	1.00000e+00	1.00000e+00	1.00000e+00	1.00000e+00	1.00000e+00	1.00000e+00	1.00000e+00	1.00000e+00	1.00000e+00	1.00000e+00	1.00000e+00	1.00000e+00	1.00000e+00	1.00000e+00	1.00000e+00	1.00000e+00	1.00000e+00	1.00000e+00	1.00000e+00	1.00000e+00	1.00000e+00	1.00000e+00	1.00000e+00	1.00000e+00	1.00000e+00	1.00000e+00	1.00000e+00	1.00000e+00	1.00000e+00	1.00000e+00	1.00000e+00	1.00000e+00	X	X	X	X	X	X	X	X	X	X	X	X	X	X	X	X	

B = Detector Channel
Val Type	B-AC1	B-AC2	B-AC3	B-AC4	B-AC5	B-AC6	B-AC7	B-AC8	B-AC9	B-AC10	B-AC11	B-AC12	B-AC13	B-AC14	B-AC15	B-AC16	B-DC1	B-DC2	B-DC3	B-DC4	B-DC5	B-DC6	B-DC7	B-DC8	B-DC9	B-DC10	B-DC11	B-DC12	B-DC13	B-DC14	B-DC15	B-DC16	B-Ph1	B-Ph2	B-Ph3	B-Ph4	B-Ph5	B-Ph6	B-Ph7	B-Ph8	B-Ph9	B-Ph10	B-Ph11	B-Ph12	B-Ph13	B-Ph14	B-Ph15	B-Ph16	

Term	0.00000e+00	0.00000e+00	0.00000e+00	0.00000e+00	0.00000e+00	0.00000e+00	0.00000e+00	0.00000e+00	0.00000e+00	0.00000e+00	0.00000e+00	0.00000e+00	0.00000e+00	0.00000e+00	0.00000e+00	0.00000e+00	0.00000e+00	0.00000e+00	0.00000e+00	0.00000e+00	0.00000e+00	0.00000e+00	0.00000e+00	0.00000e+00	0.00000e+00	0.00000e+00	0.00000e+00	0.00000e+00	0.00000e+00	0.00000e+00	0.00000e+00	0.00000e+00	3.37194e+01	-1.68587e+02	-1.35414e+02	-1.80770e+02	-1.05564e+02	-1.05091e+02	-1.55686e+02	-1.62015e+02	-9.81900e+01	-8.14180e+01	-1.72633e+02	-1.70093e+02	-1.81385e+02	-1.76491e+02	-1.12733e+02	-1.49752e+02	
Factor	4.74211e-05	1.08441e-04	2.30837e-05	1.85097e-01	9.01655e-07	1.19884e-06	1.81138e-01	5.42658e-02	1.20113e-06	1.08790e-06	1.10167e-01	3.06233e-02	3.78414e-02	9.83169e-03	9.60378e-07	1.40816e-02	4.97090e-07	4.99476e-07	1.38873e-07	8.54261e-02	5.49520e-09	5.46460e-09	7.88256e-02	2.49800e-02	5.49752e-09	5.45879e-09	4.68186e-02	1.32798e-02	1.62271e-02	4.37497e-03	5.48598e-09	6.00434e-03	X	X	X	X	X	X	X	X	X	X	X	X	X	X	X	X	



#DISTANCE SETTINGS
A = Detector Channel
A-1	A-2	A-3	A-4	A-5	A-6	A-7	A-8	A-9	A-10	A-11	A-12	A-13	A-14	A-15	A-16	

2.5000e+00	3.0000e+00	2.5000e+00	3.0000e+00	2.0000e+00	3.0000e+00	1.5000e+00	3.0000e+00	3.0000e+00	3.0000e+00	3.0000e+00	3.0000e+00	3.0000e+00	3.0000e+00	1.5000e+00	3.0000e+00	

B = Detector Channel
B-1	B-2	B-3	B-4	B-5	B-6	B-7	B-8	B-9	B-10	B-11	B-12	B-13	B-14	B-15	B-16	

1.0000e+01	1.0000e+01	1.0000e+01	1.4400e+00	1.0000e+01	1.0000e+01	1.5100e+00	1.9400e+00	1.0000e+01	1.0000e+01	1.9900e+00	2.4900e+00	2.4100e+00	2.9000e+00	1.0000e+01	2.9800e+00	




#DATA BEGINS
time	group	step	mark	flag	A-AC1	A-AC2	A-AC3	A-AC4	A-AC5	A-AC6	A-AC7	A-AC8	A-AC9	A-AC10	A-AC11	A-AC12	A-AC13	A-AC14	A-AC15	A-AC16	A-DC1	A-DC2	A-DC3	A-DC4	A-DC5	A-DC6	A-DC7	A-DC8	A-DC9	A-DC10	A-DC11	A-DC12	A-DC13	A-DC14	A-DC15	A-DC16	A-Ph1	A-Ph2	A-Ph3	A-Ph4	A-Ph5	A-Ph6	A-Ph7	A-Ph8	A-Ph9	A-Ph10	A-Ph11	A-Ph12	A-Ph13	A-Ph14	A-Ph15	A-Ph16	B-AC1	B-AC2	B-AC3	B-AC4	B-AC5	B-AC6	B-AC7	B-AC8	B-AC9	B-AC10	B-AC11	B-AC12	B-AC13	B-AC14	B-AC15	B-AC16	B-DC1	B-DC2	B-DC3	B-DC4	B-DC5	B-DC6	B-DC7	B-DC8	B-DC9	B-DC10	B-DC11	B-DC12	B-DC13	B-DC14	B-DC15	B-DC16	B-Ph1	B-Ph2	B-Ph3	B-Ph4	B-Ph5	B-Ph6	B-Ph7	B-Ph8	B-Ph9	B-Ph10	B-Ph11	B-Ph12	B-Ph13	B-Ph14	B-Ph15	B-Ph16	aux-1	digaux	

6934.738	1	1	0	256	0.13558	0.11008	0.15753	0.52913	0.23869	0.068351	0.28381	0.061121	0.3489	0.29867	0.34344	0.30494	0.17828	0.21451	0.18773	0.26636	-2.2792	-2.7583	-3.0396	-2.7708	-2.8042	-2.8854	-2.9	-3.1375	-2.6437	-2.95	-3.3438	-2.8229	-3.1104	-2.9333	-2.8083	-3.0583	435.359	442.897	262.214	432.179	388.247	147.260	430.874	94.886	357.760	352.999	341.615	111.495	372.547	313.401	263.113	441.542	0.0013252	0.00018593	8.5387e-05	1346.2	5.488e-06	1.2311e-06	1362.4	367.52	8.913e-06	3.6369e-06	416.8	140.94	122.09	41.778	4.2607e-06	51.921	0.00028193	0.0002787	7.1951e-05	1325.1	3.1252e-06	3.0942e-06	1339.1	361.01	3.2656e-06	3.1521e-06	402.19	136.33	116.4	40.785	2.9612e-06	50.103	321.814	99.455	396.843	99.631	180.464	234.184	99.329	104.246	212.992	270.760	103.677	108.493	108.991	113.180	199.554	112.278	-8191	255	
6934.834	1	1	0	0	0.08195	0.1031	0.22154	0.1532	0.11745	0.3304	0.295	0.29388	0.19001	0.20888	0.11576	0.074147	0.29622	0.14416	0.12023	0.07603	-2.2354	-2.95	-2.875	-2.8563	-2.9146	-3.0687	-2.875	-3.2854	-2.6083	-2.8354	-3.2833	-2.7812	-3.0271	-2.8937	-2.6854	-3.1354	111.406	226.283	97.954	369.254	400.603	222.596	362.463	104.430	101.902	262.149	389.146	395.997	356.067	98.261	334.609	384.859	0.0014625	0.00027521	8.8305e-05	1355.5	3.5696e-06	7.7005e-06	1364.2	368.84	3.0836e-06	2.6166e-06	418.7	141.11	122.56	41.759	2.4866e-06	51.913	0.00030822	0.00028257	7.2486e-05	1332.9	3.2274e-06	2.9485e-06	1337.6	361.8	3.1351e-06	2.8538e-06	400.49	136.18	115.7	40.468	2.6212e-06	49.955	332.380	376.408	121.520	99.633	212.691	98.890	99.378	104.249	239.065	225.763	103.645	108.157	108.757	113.166	200.115	112.332	-8191	255	
6934.930	1	1	0	0	0.1587	0.044945	0.18829	0.31752	0.22669	0.13001	0.15983	0.30331	0.052892	0.28447	0.21212	0.18419	0.1719	0.1946	0.32582	0.061421	-2.3812	-2.5083	-2.9667	-2.7417	-2.8646	-3.0083	-2.7833	-3.2104	-2.8521	-2.7458	-3.0896	-2.8854	-2.9708	-3.1271	-2.6167	-3.125	86.811	304.242	190.083	86.550	240.734	415.828	375.290	371.570	298.639	318.957	154.372	118.639	155.066	384.789	335.448	388.283	0.0014265	0.00021864	6.781e-05	1347.8	5.7932e-06	2.971e-06	1359.6	369.52	3.0078e-06	3.7495e-06	416.9	141.29	122.81	41.666	4.9186e-06	52.129	0.0002787	0.00025053	6.4149e-05	1328	2.9456e-06	2.6627e-06	1328	361.92	2.8986e-06	2.6628e-06	397.72	136.34	115.33	40.331	2.5361e-06	50.146	330.796	193.948	153.018	99.542	185.988	198.499	99.338	104.158	135.523	195.695	103.615	108.394	109.022	113.225	128.154	112.341	-8191	255	
6935.051	1	1	0	0	0.11113	0.09558	0.13296	0.1652	0.090721	0.023297	0.044886	0.28216	0.12868	0.23215	0.099097	0.15335	0.1847	0.22005	0.20571	0.29861	-2.3667	-2.7354	-2.9437	-3.0396	-3.0438	-3.0021	-2.9021	-3.0896	-2.7771	-2.6708	-3.025	-3.0187	-2.8354	-2.9979	-2.6958	-3.1458	341.808	415.090	157.182	394.428	311.086	213.408	329.567	119.825	187.548	218.989	102.529	337.222	417.476	134.068	397.108	414.694	0.0012175	0.00036041	0.00011606	1349.6	1.1834e-06	4.7851e-06	1363.8	369.2	5.3232e-06	5.0374e-06	419.63	141.74	123.33	42.173	4.607e-06	52.109	0.00026621	0.0002408	6.3196e-05	1331.6	2.8311e-06	2.6113e-06	1336.1	362.95	2.7903e-06	2.5914e-06	399.71	136.98	115.52	40.545	2.6269e-06	50.353	340.367	180.280	142.034	99.694	362.529	361.824	99.412	104.056	192.284	243.326	103.703	108.159	108.779	113.050	154.203	112.185	-8191	255	
6935.145	1	1	0	0	0.11893	0.29934	0.27462	0.26947	0.23469	0.18924	0.16478	0.21667	0.14068	0.092359	0.20876	0.15529	0.38509	0.12268	0.1168	0.075962	-2.4125	-2.7458	-2.8979	-2.9521	-2.7354	-2.9208	-2.9896	-3.0083	-2.9688	-2.5354	-2.9917	-2.9062	-2.8667	-3.275	-2.8875	-3.0563	207.686	444.365	192.937	392.313	240.917	409.498	430.143	365.864	212.118	129.227	341.813	386.674	129.817	444.065	294.196	108.302	0.0012136	0.00032756	0.0001698	1361.2	4.4278e-06	3.268e-06	1368.9	370.54	2.7553e-06	5.9127e-06	422.24	141.44	123.58	41.991	4.9659e-06	52.041	0.00026322	0.00024035	6.8187e-05	1344.5	2.879e-06	2.6703e-06	1345.9	365.15	2.8903e-06	2.6987e-06	404.31	137.58	115.96	40.601	2.9411e-06	50.509	335.552	109.181	194.745	99.632	255.109	172.462	99.358	104.281	230.566	176.605	103.671	108.336	108.964	113.143	177.750	112.016	-8191	255	
6935.219	1	1	0	0	0.0082736	0.098094	0.17665	0.19135	0.093535	0.14496	0.18072	0.24288	0.31753	0.25129	0.12118	0.041977	0.25905	0.18845	0.26372	0.073203	-2.4771	-2.7104	-2.8625	-2.7958	-2.8542	-2.8896	-2.9771	-3.0896	-2.8833	-2.6021	-3.3	-2.8937	-2.8042	-3.2687	-2.8063	-2.8667	292.638	378.975	254.155	442.722	369.936	242.214	131.274	337.469	313.504	344.093	367.810	381.239	432.864	93.145	443.485	261.133	0.0011499	0.00032504	0.00014993	1367.7	3.2078e-06	9.4917e-07	1379.1	371.81	7.5461e-06	5.7627e-06	424.79	142.34	123.75	42.109	6.2227e-06	52.344	0.0002675	0.00024364	7.4365e-05	1349.5	2.9037e-06	2.712e-06	1356.1	366.95	3.0113e-06	2.881e-06	409.49	138.71	117.25	41.048	3.5241e-06	51.113	330.690	133.930	139.520	99.273	215.843	388.928	99.311	104.343	243.365	260.414	103.537	108.065	108.846	113.228	183.803	111.990	-8191	255	
6935.315	1	1	0	0	0.15766	0.14332	0.12008	0.38923	0.29601	0.12238	0.22635	0.18328	0.18943	0.084983	0.39209	0.2529	0.36052	0.049599	0.03223	0.20766	-2.7167	-2.7917	-2.8	-2.9062	-2.8979	-3.0812	-2.9521	-3.0187	-3.05	-2.8	-2.9042	-2.9875	-2.7042	-3.1479	-2.7375	-2.9396	363.640	439.213	199.512	418.188	167.143	224.894	351.463	424.493	208.156	176.037	372.883	149.648	430.925	270.961	194.664	332.139	0.0012019	0.00028864	1.6653e-05	1374.8	6.6791e-06	7.8857e-06	1384.6	373.71	6.8168e-06	2.4574e-06	423.86	143.17	124.21	42.218	3.8438e-06	52.438	0.00030373	0.00029022	9.3236e-05	1365.8	3.3916e-06	3.3033e-06	1374	370.49	3.4169e-06	3.4059e-06	415.02	139.72	118.27	41.438	3.939e-06	51.419	333.190	99.242	117.707	99.557	191.259	198.619	99.285	104.347	208.209	204.977	103.587	108.277	109.255	112.965	182.665	112.311	-8191	255	
6935.434	1	1	0	0	0.071705	0.18688	0.056191	0.33921	0.15783	0.082097	0.19449	0.32767	0.054061	0.15188	0.20837	0.31857	0.15465	0.12575	0.26772	0.094905	-2.6167	-2.5458	-3.025	-3.0896	-2.5167	-2.9333	-3.1333	-2.7458	-3.1729	-2.8292	-3.0958	-2.9729	-2.875	-3.1833	-2.6875	-2.8229	96.031	261.638	435.345	420.125	137.078	251.457	329.953	382.238	110.003	122.945	437.193	374.491	220.693	386.845	218.465	427.199	0.0011554	0.00092125	9.2176e-05	1376.1	3.177e-06	6.1871e-06	1383.2	373.32	4.4644e-06	5.8814e-06	421.34	142.11	123.59	42.132	1.9845e-06	52.24	0.00031962	0.00032783	0.00010185	1367.4	3.5101e-06	3.6486e-06	1376.8	370.68	3.4274e-06	3.6837e-06	414.94	139.4	118.01	41.586	3.8572e-06	51.139	331.182	146.679	168.830	99.418	234.715	171.333	99.363	104.138	246.358	185.446	103.716	108.309	108.987	113.132	160.765	112.100	-8191	255	
6935.530	1	1	0	0	0.11051	0.033279	0.061232	0.13084	0.046522	0.083943	0.21436	0.35259	0.072571	0.18152	0.11544	0.34041	0.23693	0.085982	0.11237	0.20115	-2.5708	-2.6813	-2.9604	-3.1042	-2.6312	-2.9417	-3.0271	-3.0125	-2.8375	-2.5563	-2.9062	-3.2083	-2.6979	-3.125	-2.8375	-2.7708	156.295	371.809	109.920	401.253	370.361	129.602	364.551	408.382	341.122	339.079	427.898	422.417	153.340	354.243	198.118	111.144	0.0013546	0.00081067	0.0001575	1377.9	4.6171e-06	6.7288e-06	1384.7	373.34	2.5397e-06	4.1807e-06	423.96	141.94	124.44	42.158	1.9063e-06	52.075	0.00030674	0.0003361	9.5087e-05	1364.6	3.2507e-06	3.6136e-06	1372.5	369.04	3.1324e-06	3.5473e-06	412.5	138.27	117.11	41.416	3.2968e-06	50.566	337.007	119.252	248.085	99.423	212.603	246.579	99.219	104.317	227.790	188.901	103.622	108.113	108.846	113.120	270.790	112.244	-8191	255	
6935.626	1	1	0	0	0.261	0.032922	0.22326	0.18243	0.13241	0.06473	0.31361	0.18297	0.12595	0.13216	0.15405	0.12483	0.19561	0.33271	0.31265	0.19325	-2.5167	-2.7708	-2.9479	-3.1063	-2.7583	-2.9146	-3.1813	-2.6937	-2.9833	-2.6208	-2.8812	-3.1063	-2.6917	-2.9188	-2.9167	-2.6625	188.767	232.153	325.853	90.046	334.198	418.171	381.439	427.650	225.375	180.853	184.199	164.672	314.923	368.891	190.360	436.869	0.0013406	1.4312e-05	3.3352e-05	1380.2	5.1889e-06	8.3001e-06	1384.8	372.35	1.0471e-05	3.0058e-06	423.87	142.15	123.83	42.228	5.1487e-06	51.98	0.00027862	0.00030958	8.1508e-05	1357.7	2.9674e-06	3.34e-06	1362.6	366.18	2.9587e-06	3.3213e-06	407.9	137.63	116.77	41.289	3.0859e-06	50.341	325.141	432.753	420.716	99.387	176.164	205.374	99.314	104.020	184.661	312.884	103.438	108.195	108.668	113.134	257.485	112.283	-8191	255	
6935.722	1	1	0	0	0.15785	0.014845	0.13509	0.081465	0.067605	0.11852	0.22706	0.1243	0.30815	0.24263	0.056887	0.2323	0.14175	0.25074	0.051313	0.19348	-2.7646	-2.6667	-2.6333	-3.1667	-2.7333	-2.8896	-3.0083	-2.8063	-2.9813	-2.8708	-2.9042	-3.0521	-2.6854	-2.8583	-2.8396	-2.7354	220.555	385.596	192.390	422.596	238.063	431.107	333.845	334.884	419.009	407.537	436.245	398.210	104.223	444.278	218.103	399.776	0.0015941	0.00020392	6.5677e-05	1377.3	8.814e-06	4.4601e-06	1385.7	373.66	9.0539e-06	1.0236e-06	423.35	142.33	123.83	42.017	4.2276e-06	52.076	0.00028599	0.00030561	7.8208e-05	1356	3.0937e-06	3.2932e-06	1363.3	366.25	3.1114e-06	3.2594e-06	406.52	137.15	117.17	41.162	2.9887e-06	50.233	324.311	128.423	202.220	99.558	203.165	197.970	99.308	104.415	197.101	352.082	103.646	108.211	108.830	113.155	186.507	112.167	-8191	255	
6935.818	1	1	0	0	0.14154	0.15183	0.26252	0.19521	0.20258	0.26754	0.22123	0.25742	0.26125	0.10743	0.21899	0.11414	0.097819	0.082081	0.079255	0.14836	-2.2646	-2.7708	-2.6708	-3.1813	-2.9417	-2.7875	-2.9188	-2.8083	-2.8937	-2.8	-2.8312	-3.225	-2.7771	-2.9771	-2.9146	-2.725	251.358	285.867	415.748	428.012	346.901	399.323	351.154	422.679	202.466	98.213	132.086	386.650	380.688	122.861	378.942	302.737	0.0010962	0.00055041	3.5472e-05	1374.9	8.6684e-06	2.5523e-06	1380.4	372.75	7.8741e-06	2.685e-06	421.25	142.21	123.65	41.966	1.7326e-06	51.913	0.00029935	0.00029255	7.5916e-05	1352.7	3.2657e-06	3.1906e-06	1359	365.83	3.3078e-06	3.1975e-06	406.01	137.37	117.7	41.011	3.0039e-06	50.405	333.436	252.763	158.828	99.508	159.183	440.915	99.255	104.190	167.647	292.381	103.665	108.318	109.001	113.144	158.703	112.181	-8191	255	
6935.914	1	1	0	0	0.21311	0.10084	0.027749	0.10886	0.066339	0.10707	0.10928	0.052209	0.15231	0.19956	0.29511	0.32168	0.13149	0.21297	0.15211	0.02833	-2.5771	-2.675	-2.7021	-3.3333	-2.7646	-2.8937	-3.2188	-2.9771	-2.9188	-2.7729	-2.7125	-3.2625	-2.8583	-2.8458	-3.0396	-2.7208	288.278	257.592	339.276	407.370	127.397	162.003	96.935	336.403	149.298	128.043	419.891	375.921	144.890	421.452	387.789	341.536	0.0014515	0.00042772	7.894e-05	1372.8	4.0431e-06	1.6926e-06	1377.3	372.05	4.4389e-06	3.1262e-06	421.9	141.56	123.05	41.728	3.0344e-06	51.802	0.00032146	0.00029185	7.6143e-05	1354.3	3.4104e-06	3.135e-06	1355.4	365.85	3.3247e-06	3.0076e-06	403.94	136.93	116.81	40.627	2.683e-06	50.026	331.494	277.597	441.678	99.475	200.827	348.967	99.346	104.294	190.426	191.539	103.513	108.623	108.886	113.318	198.741	112.115	-8191	255	
6936.010	1	1	0	0	0.31145	0.23294	0.33434	0.16158	0.11572	0.10637	0.20611	0.023886	0.13715	0.023698	0.33432	0.13472	0.060914	0.1478	0.20119	0.13057	-2.4188	-2.8833	-2.4979	-3.2729	-2.5958	-2.8667	-3.3	-3.0187	-2.9562	-2.9646	-3.0208	-3.2625	-2.9521	-2.95	-2.9583	-2.9104	188.608	300.907	344.868	172.125	314.110	400.477	429.294	219.576	103.494	159.623	150.084	424.983	250.789	391.787	166.739	418.596	0.0011898	0.00013364	0.00011293	1368.6	1.8626e-06	3.34e-06	1372.4	371.09	2.0433e-06	4.0961e-06	420.22	141.54	123.08	41.712	3.8079e-06	51.883	0.00029337	0.00025814	6.7399e-05	1346.4	3.0652e-06	2.8134e-06	1346	364.45	3.0603e-06	2.7761e-06	401.26	136.74	115.99	40.458	2.6419e-06	50.22	337.213	142.650	136.799	99.430	327.572	158.066	99.107	104.339	259.019	357.301	103.694	108.352	108.934	113.231	146.643	112.204	-8191	255	
6936.131	1	1	0	0	0.13722	0.06897	0.1788	0.40144	0.02124	0.090276	0.4442	0.23348	0.33123	0.11275	0.16076	0.023976	0.1075	0.3185	0.11933	0.13761	-2.5229	-2.95	-2.8396	-3.1958	-2.9646	-2.8937	-3.0542	-3.0229	-3.0354	-2.9208	-2.9813	-2.9062	-3.0542	-2.9313	-3.1458	-2.9792	260.159	169.459	242.556	86.938	165.734	387.147	413.595	275.463	435.626	132.527	331.286	329.553	318.202	328.908	120.970	412.654	0.0013864	0.00043247	0.00011691	1368.6	3.0282e-06	1.9783e-06	1375.3	369.83	7.3384e-06	1.8008e-06	419.51	141.26	122.02	41.499	7.3081e-06	51.483	0.00028267	0.00025343	6.7953e-05	1349.8	2.9881e-06	2.7681e-06	1346.1	364.07	2.9687e-06	2.7143e-06	401.1	136.82	115.25	40.244	2.6632e-06	50.009	334.902	161.771	145.532	99.455	225.572	222.341	99.455	104.325	220.704	117.435	103.578	108.383	108.662	113.441	221.151	112.209	-8191	255	
6936.227	1	1	0	0	0.26044	0.1995	0.10313	0.090932	0.15077	0.036102	0.069355	0.16342	0.088829	0.1142	0.11035	0.28263	0.19144	0.28019	0.30023	0.14284	-2.3896	-3.0396	-2.7042	-3.1771	-2.8979	-2.8812	-3.375	-2.925	-2.8292	-3.125	-2.7292	-2.9542	-3.0917	-2.7625	-3.0417	-3.0729	240.568	290.677	106.690	213.765	422.097	183.321	319.566	355.395	433.214	170.047	389.792	106.748	369.026	339.224	213.898	102.321	0.0013255	0.00021849	6.4313e-05	1357	2.6243e-06	2.1392e-06	1367.6	368.73	7.8179e-06	4.7563e-06	415.55	140.7	122.18	41.352	4.8229e-06	51.612	0.00026385	0.00023619	6.7012e-05	1339.6	2.7135e-06	2.5275e-06	1338.6	362.09	2.6895e-06	2.4726e-06	398.57	135.86	114.12	40.01	2.6537e-06	49.695	331.156	174.337	180.566	99.341	161.912	273.695	99.348	104.155	209.234	232.458	103.575	108.040	108.789	113.118	181.442	112.049	-8191	255	
6936.323	1	1	0	0	0.26174	0.10365	0.27136	0.082419	0.11938	0.19167	0.14074	0.20106	0.099033	0.14458	0.047021	0.16949	0.30817	0.13846	0.21694	0.059902	-2.5	-3.075	-2.5917	-3.0542	-2.9583	-2.6604	-3.1625	-2.8604	-2.8063	-3.0021	-2.9083	-2.9167	-3.0563	-2.7687	-2.9458	-2.9229	153.554	438.863	435.786	111.026	325.848	437.078	351.281	401.077	330.470	227.650	219.812	99.990	376.416	91.367	133.787	177.242	0.0012432	0.00010766	0.00015424	1354.8	4.2172e-06	5.716e-06	1360.8	368.11	1.714e-07	8.6422e-07	416.3	140.05	122.58	41.495	2.017e-06	51.465	0.00024389	0.00021799	6.8449e-05	1333.1	2.5786e-06	2.4035e-06	1335.3	361.11	2.5747e-06	2.394e-06	398.92	135.26	113.82	39.902	2.7465e-06	49.529	342.286	279.073	126.976	99.485	227.609	264.823	99.409	104.467	189.646	303.678	103.634	108.189	109.096	113.151	188.144	112.118	-8191	255	
6936.442	1	1	0	0	0.217	0.0094039	0.10931	0.35202	0.17148	0.091409	0.060493	0.12719	0.18802	0.12007	0.045447	0.12143	0.099514	0.24179	0.27544	0.21038	-2.2833	-3.0083	-2.6813	-3.2021	-3.0125	-2.6188	-3.3042	-3.1229	-2.7292	-3.0396	-2.8812	-2.8646	-2.9479	-2.9479	-2.9875	-3.1542	230.685	119.789	388.583	386.503	148.096	180.460	382.118	432.368	375.362	361.662	414.746	121.834	388.371	121.073	350.399	351.521	0.0012048	0.0002174	0.00010246	1353.4	1.1955e-06	8.9907e-06	1360	365.86	3.7928e-06	6.0239e-06	414.58	140.04	121.49	41.284	2.6485e-06	51.438	0.00023456	0.00021552	6.9301e-05	1328.4	2.4413e-06	2.3824e-06	1333	358.62	2.408e-06	2.3566e-06	398.07	134.5	112.87	39.759	2.714e-06	49.087	334.782	445.548	196.825	99.604	227.950	204.039	99.408	104.244	193.616	197.766	103.784	108.150	108.921	113.348	198.369	112.230	-8191	255	
6936.514	1	1	0	0	0.20962	0.17317	0.072254	0.15026	0.13964	0.32028	0.18343	0.12959	0.11436	0.07526	0.23474	0.20214	0.10861	0.082788	0.24657	0.034484	-2.3104	-3.0292	-2.7458	-3.1521	-3.1833	-2.7625	-3.1312	-2.9	-2.7313	-2.9771	-2.9792	-3.1229	-3.1833	-2.8187	-3.1188	-3.2292	295.819	356.156	416.476	86.377	273.233	415.345	92.202	318.679	434.375	286.772	432.021	362.203	319.548	140.359	254.371	174.332	0.0010551	0.00061418	0.00010957	1343.5	2.4067e-06	6.7058e-06	1352.4	365.56	2.8209e-06	7.5104e-06	413.7	139.55	121.66	41.355	4.1382e-06	51.172	0.00022242	0.00021894	6.8168e-05	1320.3	2.3068e-06	2.4381e-06	1327.1	357.53	2.3095e-06	2.4709e-06	396.62	133.95	112.42	39.836	2.6474e-06	48.959	332.805	154.290	169.996	99.705	178.883	188.956	99.388	104.344	157.437	189.951	103.682	108.262	108.903	113.432	277.879	112.095	-8191	255	
6936.610	1	1	0	0	0.18132	0.14042	0.16197	0.38587	0.19477	0.20351	0.27683	0.22234	0.24017	0.22094	0.35662	0.1754	0.065948	0.12848	0.066146	0.36452	-2.2771	-3.0417	-2.9271	-2.9542	-3.1063	-2.9375	-3.1625	-3.1583	-2.7458	-2.9708	-2.9292	-3.0125	-3.2146	-2.8979	-2.9417	-2.9625	406.942	201.439	281.070	419.146	445.081	342.844	341.866	359.126	304.945	214.853	402.360	318.305	372.523	219.442	242.904	353.456	0.0013197	0.0003623	0.00011051	1341.2	2.4521e-06	5.0097e-06	1352.5	365.22	5.4895e-06	6.2445e-06	413.97	139.42	121.46	41.422	4.8766e-06	51.115	0.00021694	0.00023362	6.6531e-05	1315.2	2.266e-06	2.5682e-06	1323	356.36	2.2879e-06	2.563e-06	395.05	133.54	112.38	39.863	2.5145e-06	48.776	335.252	120.888	394.004	99.510	225.878	206.525	99.368	104.344	218.310	231.139	103.698	108.444	109.006	113.212	217.027	112.456	-8191	255	
6936.731	1	1	0	0	0.12894	0.12927	0.1455	0.092526	0.087246	0.059342	0.33472	0.24515	0.20512	0.26921	0.2158	0.1699	0.20303	0.34781	0.15763	0.26483	-2.2542	-2.975	-2.875	-2.9125	-3.1625	-2.9562	-3.0729	-3.1896	-2.9646	-2.9917	-3.0187	-2.9854	-3.2583	-2.9667	-2.9188	-3.1229	315.887	362.088	362.691	415.850	436.904	364.058	362.867	393.354	168.558	279.690	242.323	105.936	440.183	350.829	218.075	427.639	0.0014802	0.00049714	8.008e-05	1340.3	6.5096e-06	9.345e-06	1348	364.1	7.8399e-06	3.3436e-06	412.16	139.68	121	41.055	2.2114e-06	51.014	0.00021577	0.00023593	6.2541e-05	1310.8	2.2838e-06	2.6084e-06	1320.7	355.33	2.3157e-06	2.6184e-06	392.85	133.29	112.2	39.782	2.4364e-06	48.662	336.797	117.193	242.146	99.377	201.150	165.982	99.393	104.228	189.928	221.791	103.720	108.305	108.989	113.389	234.063	112.291	-8191	255	
6936.827	1	1	0	0	0.21306	0.26358	0.15363	0.21041	0.14633	0.28787	0.24953	0.078343	0.13328	0.38464	0.090479	0.021243	0.025685	0.17266	0.051041	0.086068	-2.2917	-2.9938	-2.7979	-2.8042	-3.0938	-2.9479	-3.0854	-3.2042	-2.7792	-3.1583	-2.9854	-3.025	-3.1646	-2.8979	-2.8375	-3.1	177.410	239.170	128.386	412.476	432.032	113.464	328.441	392.321	150.357	128.639	410.108	277.710	433.723	439.505	159.746	108.897	0.0013931	0.00051688	0.00012194	1336	9.1022e-06	1.8411e-06	1347.3	364.24	5.6055e-06	1.2458e-06	413.16	138.87	120.55	41.144	3.5497e-06	51.043	0.00022559	0.00023939	6.0617e-05	1308.1	2.4258e-06	2.5878e-06	1317.4	355.04	2.4799e-06	2.5751e-06	393.04	132.95	112.64	39.776	2.3911e-06	48.68	335.597	444.330	236.759	99.501	178.913	225.848	99.482	104.300	218.792	295.599	103.608	108.312	108.785	113.036	204.853	112.396	-8191	255	
6936.923	1	1	0	0	0.11436	0.082365	0.17981	0.3321	0.21822	0.31059	0.17443	0.30019	0.11874	0.086623	0.33431	0.089983	0.093535	0.4198	0.019569	0.40728	-2.2021	-2.9292	-2.9104	-2.8438	-3.0208	-2.975	-2.775	-3.1646	-2.6354	-2.8458	-3.05	-2.8896	-3.0312	-2.8688	-2.6542	-3.0146	219.037	403.416	161.632	393.464	325.799	346.885	437.505	417.505	140.270	192.329	379.657	360.014	289.782	379.901	400.031	357.589	0.0012709	0.0003635	0.00010963	1336.5	8.0807e-06	3.7105e-06	1342.9	364.69	9.0377e-06	2.3302e-06	415.38	139.82	120.6	41.194	4.2678e-06	51.506	0.0002393	0.00023346	5.8888e-05	1308	2.5351e-06	2.4968e-06	1315.2	354.98	2.5824e-06	2.4577e-06	393.03	133.21	112.89	39.641	2.308e-06	48.719	334.961	188.195	100.440	99.608	171.104	206.805	99.387	104.220	226.099	398.573	103.704	108.357	109.000	113.301	196.424	112.123	-8191	255	
6937.019	1	1	0	0	0.073801	0.13265	0.10486	0.14565	0.10281	0.14889	0.14546	0.10607	0.17594	0.046931	0.17988	0.12431	0.31621	0.24154	0.23643	0.14042	-2.3292	-3.1813	-2.9646	-2.8333	-2.9833	-2.9313	-2.8208	-3.2125	-2.7604	-2.7854	-3.1583	-2.7833	-2.8958	-2.9146	-2.7604	-3.0458	265.511	304.591	341.943	342.430	164.588	308.243	90.565	387.709	381.204	94.834	237.473	346.542	433.861	381.624	407.606	413.951	0.0013826	0.00059099	8.4498e-05	1335.7	4.6391e-06	2.3907e-06	1346.7	364.86	3.1742e-06	2.6526e-06	413.1	139.19	121.08	41.246	1.7938e-06	51.112	0.00024582	0.00022182	5.7214e-05	1308.4	2.6064e-06	2.3681e-06	1314.7	355.63	2.5738e-06	2.3416e-06	391.41	133.29	112.89	39.558	2.174e-06	48.72	340.777	194.349	87.711	99.582	165.011	267.722	99.363	104.461	268.740	258.695	103.822	108.235	109.066	113.315	135.163	112.454	-8191	255	
6937.091	1	1	0	0	0.34384	0.13042	0.15407	0.38534	0.1886	0.11429	0.10433	0.30104	0.17739	0.10639	0.15988	0.31904	0.24938	0.22309	0.14706	0.2623	-2.5187	-2.8167	-3.0667	-2.7958	-2.8187	-3.0812	-2.9479	-3.1312	-2.9292	-2.8083	-3.15	-2.8271	-3.0354	-2.9979	-2.75	-3.0083	337.045	406.750	403.062	352.912	212.968	285.108	348.089	129.611	229.961	179.434	237.866	371.239	236.455	88.108	312.347	379.221	0.0012035	0.00039197	9.3878e-05	1339.6	9.5242e-06	1.8462e-06	1345	363.79	4.5645e-06	2.563e-06	412.75	139.11	121.06	41.152	3.437e-06	51.049	0.00023452	0.0002098	5.388e-05	1308.7	2.4644e-06	2.2316e-06	1309.1	354.78	2.4287e-06	2.2155e-06	389.92	133.37	112.43	39.456	2.1132e-06	48.785	335.787	146.119	221.674	99.415	222.561	435.617	99.490	104.234	253.930	198.274	103.850	108.230	109.126	113.343	207.497	112.094	-8191	255	
6937.211	1	1	0	0	0.19963	0.043187	0.05214	0.33139	0.15753	0.16221	0.29506	0.2128	0.075761	0.23079	0.12602	0.067069	0.12686	0.24721	0.25635	0.12534	-2.4	-2.5583	-3.0854	-3.0458	-2.9375	-2.8729	-2.8438	-3.2708	-2.9333	-2.75	-3.1354	-2.8083	-3.025	-3.0792	-2.5708	-2.9771	266.915	384.166	263.690	387.503	363.605	444.928	316.435	387.767	139.049	289.931	150.048	161.470	374.703	114.238	382.714	263.409	0.0012365	0.00022331	7.2324e-05	1334.9	2.4618e-06	3.1254e-06	1347.6	363.64	9.3448e-06	3.3719e-06	413.88	139.25	120.78	41.213	3.3281e-06	50.997	0.00022576	0.00020234	5.3565e-05	1310	2.379e-06	2.1999e-06	1310.7	355.98	2.3763e-06	2.1841e-06	390.63	133.63	112.22	39.455	2.1636e-06	48.965	334.508	95.752	151.266	99.666	100.054	179.433	99.339	104.309	187.562	244.187	103.464	108.154	109.019	113.227	186.093	112.378	-8191	255	
6937.308	1	1	0	0	0.25827	0.064218	0.23747	0.26897	0.20871	0.34555	0.24064	0.16387	0.32999	0.031455	0.06503	0.15866	0.26132	0.074442	0.31213	0.15593	-2.6104	-2.6771	-2.8083	-2.9833	-2.6583	-3.15	-3.0521	-2.9271	-2.975	-2.7167	-2.8812	-2.8312	-2.7021	-3.0354	-2.6562	-2.875	138.786	389.531	250.729	410.267	192.905	175.264	384.760	384.887	384.787	203.857	147.632	390.745	440.238	256.865	297.928	372.031	0.0013343	0.00032951	0.00013148	1340	3.597e-06	2.347e-06	1345.8	363.17	4.2438e-06	3.3435e-06	414.4	139.76	121.15	41.033	4.4491e-06	51.071	0.00021635	0.00019449	5.5028e-05	1310.6	2.2748e-06	2.1026e-06	1312.1	355.56	2.2697e-06	2.1285e-06	392.04	133.76	112.18	39.372	2.3186e-06	48.915	336.767	433.343	144.964	99.481	182.625	399.707	99.443	104.204	166.612	248.050	103.736	108.217	109.039	113.286	188.742	112.094	-8191	255	
6937.404	1	1	0	0	0.14886	0.012781	0.069426	0.26595	0.17998	0.23144	0.29972	0.17386	0.039403	0.26838	0.25178	0.057327	0.051547	0.43228	0.29391	0.085779	-2.4396	-2.625	-2.8479	-2.9646	-2.8833	-2.9583	-3.0146	-2.8875	-2.9875	-2.6083	-2.9354	-2.9313	-2.8875	-3.0646	-2.725	-3.0167	126.170	162.736	277.527	411.190	250.934	156.048	398.873	425.834	166.911	273.619	402.540	93.046	150.003	400.290	291.575	152.939	0.0012638	0.00046537	0.00014577	1334.7	3.8543e-06	3.6896e-06	1344.1	364.09	4.3847e-06	4.1928e-06	412.31	139.63	120.12	41.249	2.5267e-06	51.141	0.00021484	0.00019456	5.9995e-05	1310.4	2.2856e-06	2.123e-06	1315.2	355.92	2.2738e-06	2.1463e-06	393.48	133.75	111.93	39.429	2.4553e-06	48.88	337.380	151.320	165.108	99.611	92.355	213.761	99.361	104.283	243.016	220.229	103.763	108.230	108.872	113.311	152.466	112.139	-8191	255	
6937.523	1	1	0	0	0.2034	0.23915	0.14892	0.22139	0.21137	0.094469	0.10783	0.29858	0.15421	0.24446	0.16648	0.20676	0.17474	0.06546	0.36203	0.039761	-2.4562	-2.4958	-2.8333	-2.8875	-2.7375	-2.9604	-2.8896	-2.8458	-3.0042	-2.525	-2.9188	-2.9125	-2.6333	-3.0687	-2.7479	-2.975	280.750	211.113	104.134	373.241	124.692	99.633	400.995	105.858	350.885	103.058	378.518	322.319	298.183	396.442	367.952	237.705	0.0012942	0.00049083	9.9968e-05	1335.7	1.6733e-06	8.4833e-06	1341.1	363.52	3.1039e-06	2.0766e-06	414.05	139.25	120.73	41.116	1.1498e-06	51.075	0.00020982	0.00019683	6.271e-05	1309.9	2.2323e-06	2.1546e-06	1315.4	355.14	2.216e-06	2.1853e-06	394.22	133.46	111.72	39.469	2.5466e-06	48.853	330.310	136.244	175.394	99.512	301.578	174.931	99.468	104.357	189.927	196.093	103.761	108.380	108.844	113.273	438.360	112.247	-8191	255	
6937.619	1	1	0	0	0.054833	0.35101	0.068247	0.23903	0.21988	0.081658	0.25627	0.039107	0.25455	0.24544	0.057676	0.17953	0.092035	0.10562	0.2886	0.18903	-2.6021	-2.6875	-2.85	-3.1229	-2.8771	-3.0042	-2.9708	-2.8396	-2.9792	-2.55	-2.9167	-3.0271	-2.8333	-3.1271	-2.7562	-2.9375	201.451	342.108	265.783	423.949	388.235	210.800	376.167	337.734	362.438	217.571	138.820	360.470	402.965	272.320	373.387	373.538	0.0012996	0.00032447	6.3275e-05	1338.2	6.481e-06	4.6925e-06	1342.6	363.28	8.8654e-07	5.8802e-06	414.59	139.55	120.95	41.084	3.7698e-06	51.05	0.00020748	0.00020689	6.4244e-05	1308.8	2.1934e-06	2.2761e-06	1316.9	354.9	2.161e-06	2.3231e-06	394.12	133.16	111.63	39.55	2.458e-06	48.673	328.513	110.052	202.535	99.569	169.381	176.163	99.338	104.492	176.195	216.176	103.614	108.386	108.970	113.270	205.760	112.146	-8191	255	
6937.715	1	1	0	0	0.36542	0.24228	0.24329	0.31256	0.22595	0.13844	0.28699	0.28655	0.055474	0.063447	0.17613	0.19304	0.19817	0.162	0.18725	0.14691	-2.7083	-2.5062	-2.6813	-3.0875	-2.5563	-2.95	-3.0583	-2.8438	-2.9958	-2.6792	-3.0396	-3.0271	-2.7271	-3.0354	-2.8542	-2.7396	337.141	321.485	118.790	394.526	99.239	284.243	361.263	434.428	271.771	368.516	355.822	398.326	409.400	441.695	173.046	353.863	0.0012326	0.00052625	5.0116e-05	1340.1	5.5411e-06	9.8331e-06	1346	363.27	6.9337e-06	5.7502e-06	413.63	139.26	121.38	41.308	2.8497e-06	51.136	0.00020174	0.00021698	6.1775e-05	1307.8	2.1454e-06	2.4039e-06	1316.5	354.54	2.1444e-06	2.4311e-06	393.48	133.01	111.88	39.7	2.383e-06	48.67	336.582	437.218	121.776	99.565	173.308	187.722	99.140	104.338	223.798	274.921	103.547	108.339	109.027	113.313	178.837	112.158	-8191	255	
6937.811	1	1	0	0	0.15734	0.18417	0.1639	0.22898	0.19689	0.18904	0.049354	0.27664	0.16166	0.10507	0.04524	0.26269	0.13993	0.09024	0.11421	0.13942	-2.5896	-2.7646	-2.6104	-2.925	-2.7854	-3.0646	-3.1688	-2.8917	-3.0125	-2.5833	-2.8063	-3.125	-2.8896	-3.075	-2.9167	-2.7313	176.820	417.319	143.749	406.746	113.265	240.037	261.316	444.125	172.348	220.092	327.799	355.336	362.307	412.522	436.540	410.326	0.0013765	0.00039948	7.9768e-05	1337.9	3.1104e-06	6.6102e-06	1347	363.86	6.5888e-06	1.9545e-06	411.89	139.13	121.54	41.235	2.0029e-06	51.209	0.00020365	0.00022434	5.9507e-05	1307.7	2.1924e-06	2.4624e-06	1315.3	354.63	2.1779e-06	2.4572e-06	391.82	132.73	112.03	39.708	2.2653e-06	48.535	332.771	164.469	237.315	99.476	209.834	167.182	99.363	104.347	196.655	203.740	103.692	108.377	108.991	113.395	238.161	112.222	-8191	255	
6937.907	1	1	0	0	0.12029	0.28946	0.041773	0.11645	0.19625	0.14936	0.22622	0.36026	0.11244	0.21292	0.046407	0.20088	0.22852	0.24871	0.30386	0.057753	-2.5833	-2.6937	-2.8125	-3.1771	-2.7229	-2.9854	-3.1729	-2.8521	-2.9875	-2.7542	-2.8229	-3.1125	-2.8792	-2.9021	-2.8646	-2.7146	239.181	197.854	382.810	286.240	385.026	351.604	433.459	406.993	360.841	125.893	261.096	399.782	417.956	395.013	339.680	130.625	0.0013345	0.00029004	5.2564e-05	1341.2	6.8647e-06	3.2365e-06	1345.9	363.41	7.1293e-06	3.5393e-06	411.94	139.16	121.23	41.047	6.3449e-06	50.884	0.00021375	0.00022534	5.7309e-05	1306.9	2.3121e-06	2.4545e-06	1313.6	353.99	2.3443e-06	2.4559e-06	391.29	132.82	112.37	39.612	2.2466e-06	48.523	335.997	166.309	155.356	99.544	166.615	187.962	99.210	104.444	217.248	307.869	103.558	108.317	108.961	113.190	224.550	112.258	-8191	255	
6938.003	1	1	0	0	0.057364	0.22283	0.13663	0.28825	0.049451	0.22523	0.11491	0.16009	0.037935	0.16079	0.18246	0.094686	0.21764	0.18535	0.28554	0.21833	-2.6667	-2.7604	-2.7167	-3.2208	-2.5729	-3.0292	-3.1125	-2.7854	-2.9583	-2.8375	-2.9188	-3.1333	-3	-2.925	-3.0292	-2.8792	161.965	247.522	352.654	368.571	95.882	327.315	375.617	408.580	120.486	261.722	388.038	408.234	140.424	342.481	440.053	350.437	0.0014526	0.0001377	7.5303e-05	1340.3	4.9713e-06	2.6028e-06	1342.2	363.4	3.9695e-06	1.7343e-06	414.2	139.32	120.6	40.955	1.5702e-06	51.268	0.00022596	0.00021875	5.6222e-05	1307.4	2.4222e-06	2.3462e-06	1311.9	353.93	2.4292e-06	2.3262e-06	391.3	132.87	112.43	39.5	2.1909e-06	48.605	332.636	202.197	159.039	99.493	208.120	370.522	99.333	104.298	254.867	400.778	103.781	108.132	108.731	113.080	208.921	112.142	-8191	255	
6938.124	1	1	0	0	0.094571	0.099417	0.23775	0.26412	0.13423	0.17281	0.28218	0.14938	0.1056	0.34212	0.14483	0.25598	0.30954	0.15224	0.10954	0.23339	-2.4125	-2.7354	-2.5187	-3.0771	-2.7958	-2.8396	-3.125	-2.7708	-2.9437	-2.9604	-2.8167	-2.9917	-2.8396	-2.775	-2.9688	-2.8812	434.612	208.591	189.455	112.445	268.394	165.836	365.734	98.823	160.087	123.587	239.860	115.955	367.329	92.134	151.860	358.917	0.0014653	0.00050037	0.00010115	1337.3	6.3626e-06	1.0658e-06	1343.6	362.63	4.2595e-06	2.0174e-06	413.72	139.42	120.95	41.086	2.3212e-06	51.12	0.00023309	0.00021036	5.5221e-05	1305.5	2.4716e-06	2.265e-06	1311.2	353.97	2.4468e-06	2.235e-06	390.11	132.93	112.48	39.488	2.1006e-06	48.619	338.296	156.029	155.109	99.534	236.703	329.598	99.458	104.267	221.895	193.422	103.650	108.426	108.886	113.529	264.605	112.044	-8191	255	
6938.220	1	1	0	0	0.080329	0.20971	0.0473	0.15576	0.17655	0.25861	0.084525	0.40783	0.14015	0.28841	0.12444	0.22757	0.19784	0.068241	0.15244	0.10718	-2.3937	-2.9229	-2.4688	-3.1375	-2.7021	-2.6188	-3.2146	-2.8396	-2.9521	-2.9854	-2.8417	-3.0667	-3.0438	-2.7375	-3.1021	-2.6688	171.241	290.073	122.303	422.685	222.683	88.367	105.868	383.793	431.885	115.238	424.750	113.166	322.394	177.308	134.657	141.972	0.001362	0.0001359	8.7745e-05	1338.2	3.3678e-06	1.0131e-05	1343.9	363.63	4.3539e-06	1.279e-06	412.57	139.34	121.1	41.248	4.4568e-06	50.888	0.00022658	0.00020107	5.2974e-05	1307.3	2.4003e-06	2.2021e-06	1309.7	354.94	2.3921e-06	2.182e-06	389.89	133.21	112.2	39.506	2.0688e-06	48.842	339.644	426.661	205.333	99.476	266.791	192.637	99.346	104.307	137.252	172.258	103.791	108.357	108.897	113.365	195.690	112.164	-8191	255	
6938.315	1	1	0	0	0.14957	0.19158	0.25678	0.15547	0.10957	0.3011	0.27292	0.12595	0.065561	0.26482	0.068466	0.087138	0.15152	0.34858	0.14386	0.21456	-2.4729	-2.925	-2.6333	-3.0354	-2.9396	-2.8146	-3.0979	-2.9896	-2.9229	-2.9708	-2.7542	-3.0417	-2.9792	-2.8583	-3.0833	-2.8521	253.080	132.133	427.700	420.507	426.921	306.668	376.923	417.994	300.047	158.634	287.481	357.706	432.514	110.010	353.469	397.090	0.0011356	0.00011062	7.0632e-05	1338.9	1.1657e-06	5.706e-06	1342.8	364.87	6.5255e-06	2.6571e-07	414.04	139.34	121.34	41.264	3.4015e-06	51.25	0.00022337	0.00019929	5.3122e-05	1311.2	2.3559e-06	2.1791e-06	1310.5	355.6	2.3064e-06	2.138e-06	390.5	133.52	112.17	39.431	2.1352e-06	48.967	334.745	97.985	196.317	99.768	236.963	225.985	99.438	104.344	216.698	116.677	103.795	108.351	108.837	113.240	191.065	112.041	-8191	255	
6938.412	1	1	0	0	0.18042	0.16719	0.16623	0.38759	0.15173	0.17906	0.2241	0.2022	0.21833	0.098659	0.41029	0.16091	0.10912	0.26301	0.23368	0.25849	-2.5333	-3.0042	-2.6958	-3.0458	-3.0292	-2.7083	-3.0812	-2.9042	-2.7854	-3.2854	-2.7313	-3.0583	-3.1292	-2.7292	-3.0146	-2.8812	309.914	283.437	391.320	405.543	294.692	422.804	394.312	384.156	416.025	285.660	393.461	358.568	343.087	411.726	407.021	400.680	0.0011453	2.9548e-05	2.9904e-05	1336.9	2.6564e-06	6.3495e-07	1346.7	362.22	4.2401e-06	2.9337e-06	414.15	139.02	120.48	41.102	8.2815e-06	50.944	0.00021414	0.00019143	5.4654e-05	1311.8	2.2407e-06	2.0877e-06	1312.1	355.04	2.2244e-06	2.051e-06	390.91	133.37	111.61	39.375	2.2252e-06	48.769	331.903	277.918	156.730	99.555	168.808	197.851	99.468	104.356	250.180	372.614	103.897	108.333	109.043	113.124	169.533	112.211	-8191	255	
6938.507	1	1	0	0	0.24652	0.19762	0.13731	0.21906	0.14276	0.2288	0.30057	0.03145	0.18734	0.097304	0.10469	0.1213	0.14177	0.093984	0.12987	0.17304	-2.1688	-2.9896	-2.7104	-3.1375	-3.0271	-2.7062	-3.2042	-2.8146	-2.7771	-2.9708	-2.8583	-2.9917	-3.0792	-2.8688	-3.0146	-3.0062	304.051	154.343	343.040	379.076	241.626	144.116	391.103	292.692	138.320	328.006	106.281	417.555	194.254	424.141	232.420	415.392	0.0012908	0.00052603	8.677e-05	1336.7	1.7727e-06	8.9051e-06	1340.4	363.48	1.5012e-06	1.3526e-06	413.2	139.29	120.76	41.146	4.9656e-06	51.143	0.00020643	0.00018482	5.6646e-05	1307.8	2.1505e-06	1.9933e-06	1309.7	354.68	2.1375e-06	1.9892e-06	391.61	133.08	111.47	39.217	2.2769e-06	48.658	337.031	165.063	163.201	99.543	261.439	197.360	99.404	104.402	330.798	194.295	103.651	108.432	108.948	113.270	202.383	112.393	-8191	255	
6938.603	1	1	0	0	0.082805	0.16377	0.24325	0.24751	0.17076	0.09613	0.25996	0.1259	0.11917	0.14463	0.25727	0.32475	0.19463	0.10233	0.15579	0.2888	-2.4562	-2.9792	-2.7354	-3.0542	-2.9792	-2.6229	-2.9958	-3.0833	-2.7604	-2.9708	-2.7646	-2.9333	-3.0104	-2.4792	-2.9229	-2.8688	394.952	435.377	109.373	420.290	165.121	187.352	410.432	185.847	208.087	416.000	127.881	404.540	97.795	399.122	418.675	397.201	0.0011985	0.00095578	0.00013437	1331	4.6794e-06	1.4068e-06	1342.6	362.62	4.2604e-06	4.9007e-06	412.74	139.16	120.87	41.241	3.9505e-06	51.219	0.00019816	0.00018115	5.8321e-05	1302.7	2.0628e-06	1.9957e-06	1310	353.41	2.0513e-06	2.0233e-06	391.69	132.74	111.31	39.316	2.319e-06	48.577	340.197	146.031	172.692	99.638	210.968	160.477	99.442	104.257	233.527	242.893	103.659	108.481	109.164	113.447	166.594	112.150	-8191	255	
6938.699	1	1	0	0	0.10055	0.27117	0.155	0.095738	0.023327	0.092506	0.30638	0.078034	0.077409	0.19354	0.27574	0.36919	0.2903	0.2346	0.20903	0.27307	-2.325	-3.0062	-2.8312	-3.0667	-3.0125	-2.7062	-3.0604	-3.0312	-2.5708	-3.0438	-2.825	-2.9	-3.0396	-2.8458	-3.0375	-2.9917	392.757	117.213	408.733	295.693	228.951	309.406	387.004	351.330	347.617	420.373	146.067	389.684	407.209	431.242	362.104	142.916	0.0011905	0.00048253	4.2094e-05	1332.9	8.0036e-06	4.7712e-06	1339.2	361.69	2.7383e-06	2.0204e-06	413.22	139.19	121.22	41.165	2.8827e-06	50.938	0.00019213	0.00018907	5.8663e-05	1300.8	2.0006e-06	2.1128e-06	1309.4	352.89	2.0018e-06	2.1367e-06	391.55	132.47	111.29	39.432	2.2827e-06	48.423	332.461	130.927	144.481	99.609	204.776	199.245	99.364	104.333	219.393	218.126	103.585	108.235	108.706	113.393	218.526	112.498	-8191	255	
6938.795	1	1	0	0	0.065654	0.20149	0.058217	0.29436	0.27802	0.044955	0.35574	0.28417	0.063774	0.11618	0.16791	0.25049	0.1091	0.18877	0.1284	0.28578	-2.2208	-3.1708	-2.7542	-2.8625	-3.075	-2.7521	-2.8854	-3.0062	-2.5833	-2.9917	-2.8375	-2.7396	-3.2229	-2.8292	-2.8604	-2.9833	282.725	210.849	187.675	391.478	331.938	397.809	348.288	368.473	412.490	322.375	390.217	183.706	429.160	414.428	162.317	429.702	0.001445	0.00043575	4.5871e-05	1337.1	3.5729e-06	5.9546e-06	1342.7	363.01	8.2408e-06	6.0971e-06	410.25	139.16	121.35	41.231	3.5015e-06	50.952	0.00018753	0.0002	5.6608e-05	1302.1	1.9776e-06	2.2246e-06	1310.4	352.88	2.0026e-06	2.2574e-06	390.53	132.54	111.37	39.572	2.2203e-06	48.439	335.231	129.259	383.417	99.544	185.025	189.775	99.473	104.420	211.231	218.292	103.778	108.221	108.845	113.456	175.324	112.120	-8191	255	
6938.916	1	1	0	0	0.069059	0.23054	0.12031	0.24182	0.030628	0.26093	0.055513	0.287	0.12908	0.11941	0.15495	0.11809	0.098588	0.15035	0.1699	0.19292	-2.3604	-2.9958	-2.9208	-2.9354	-3.2271	-2.7771	-3.025	-3.2354	-2.8458	-3.0896	-2.9938	-2.7771	-3.0646	-2.9104	-2.8583	-3.0729	274.522	307.457	194.740	124.592	335.887	400.308	280.741	422.462	128.114	188.305	92.513	413.210	401.293	145.270	176.404	401.906	0.0013021	0.00033661	0.00014027	1333.5	4.358e-06	7.8057e-06	1342.7	363.07	4.848e-06	2.2404e-06	411.75	138.78	120.6	41.004	1.9749e-06	51.098	0.00019143	0.00021018	5.5336e-05	1301.7	2.0401e-06	2.3461e-06	1309.8	353.22	2.0871e-06	2.3345e-06	390.37	132.28	111.44	39.55	2.1633e-06	48.361	336.591	131.198	174.736	99.657	164.792	217.085	99.318	104.162	218.418	301.608	103.669	108.394	108.914	113.142	198.903	112.134	-8191	255	
6938.988	1	1	0	0	0.22297	0.18407	0.071529	0.15642	0.13385	0.11607	0.3572	0.09171	0.19828	0.22628	0.24224	0.109	0.11951	0.20103	0.10594	0.16	-2.1667	-2.8271	-2.7625	-2.9125	-2.9188	-2.8396	-2.7938	-3.1688	-2.7229	-2.9771	-3.025	-2.7938	-3.0208	-2.8729	-2.7021	-3.1042	134.674	218.309	123.370	402.833	330.596	423.293	354.715	371.532	377.648	255.024	291.788	360.030	303.083	417.718	356.036	101.463	0.0012773	0.00014671	9.3588e-05	1330.1	5.8212e-06	5.131e-06	1336.5	363.44	1.0023e-05	2.3205e-06	412.46	139.18	120.79	41.131	4.1565e-06	51.105	0.00020425	0.00021495	5.4618e-05	1299.7	2.1832e-06	2.3503e-06	1308.4	352.84	2.2332e-06	2.3138e-06	390	132.24	111.97	39.549	2.13e-06	48.353	328.406	355.992	160.501	99.667	200.238	245.126	99.510	104.312	209.097	176.792	103.407	108.271	109.015	113.340	270.230	112.195	-8191	255	
6939.084	1	1	0	0	0.12349	0.23394	0.11127	0.27903	0.15088	0.088701	0.0059587	0.17247	0.086539	0.096313	0.28715	0.11576	0.17218	0.22682	0.13118	0.031455	-2.3271	-2.9	-2.9688	-2.8667	-2.8771	-2.6979	-2.8479	-3.1021	-2.7375	-2.7417	-3.0812	-2.6042	-3.0271	-2.9458	-2.6917	-3.0583	352.880	368.097	134.534	306.232	271.687	173.030	446.129	423.021	338.688	317.741	357.695	136.246	410.519	329.930	299.604	384.075	0.0011676	0.0001634	4.3256e-05	1332.4	3.0261e-06	2.6025e-06	1339.4	362.64	4.574e-06	4.6583e-07	412.98	139.16	121.32	41.227	2.3723e-06	51.018	0.00021343	0.00020731	5.2951e-05	1300	2.2838e-06	2.2241e-06	1306.6	352.58	2.2987e-06	2.1998e-06	389.18	132.33	112.25	39.397	2.0645e-06	48.363	331.932	351.162	175.938	99.519	218.313	119.070	99.371	104.392	240.296	226.048	103.763	108.356	108.878	113.175	188.918	112.237	-8191	255	
6939.204	1	1	0	0	0.11742	0.20979	0.18855	0.085318	0.10797	0.19286	0.21833	0.12447	0.31616	0.089739	0.12298	0.042097	0.27664	0.034711	0.23453	0.071625	-2.3604	-2.6063	-2.9167	-2.7708	-2.9167	-2.9437	-2.775	-3.0167	-2.7438	-2.8021	-2.9875	-2.6042	-2.9167	-2.9521	-2.6542	-3.2229	397.430	92.104	109.802	413.727	176.198	360.058	364.272	307.342	125.914	320.567	291.944	319.766	419.998	385.514	297.467	269.579	0.0012682	0.00026791	7.9978e-05	1333.8	5.2415e-06	2.0558e-06	1340.7	362.81	8.0819e-06	2.0679e-06	413.15	138.96	120.73	41.203	1.9963e-06	50.977	0.00022011	0.00019969	5.1576e-05	1299.6	2.3434e-06	2.1487e-06	1305.2	352.79	2.3357e-06	2.1394e-06	388.59	132.5	112.18	39.379	2.0276e-06	48.534	339.335	122.103	206.019	99.435	142.563	349.958	99.381	104.292	214.357	218.552	103.718	108.227	109.256	113.258	150.999	112.040	-8191	255	
6939.301	1	1	0	0	0.21644	0.085376	0.10029	0.058228	0.019941	0.14417	0.3021	0.2646	0.15272	0.095607	0.1466	0.1883	0.39177	0.30641	0.082624	0.25823	-2.5	-2.8875	-2.9542	-2.7417	-2.95	-3.0375	-2.8458	-3.1562	-2.7729	-2.6708	-3.1208	-2.7	-2.7729	-2.8979	-2.6521	-3.1688	363.383	363.147	159.194	204.990	250.135	389.676	362.594	360.559	147.626	375.337	228.458	382.708	126.752	433.697	299.630	93.104	0.0012825	0.00023751	7.9415e-05	1330.1	1.7612e-06	3.2199e-06	1340.1	362.19	6.6483e-06	1.7245e-06	410.71	138.58	120.39	41.148	7.2389e-06	51.05	0.00022165	0.0001964	5.0818e-05	1301.9	2.3438e-06	2.1247e-06	1303.9	353.37	2.3477e-06	2.1452e-06	388.29	132.81	111.89	39.334	2.0678e-06	48.7	325.993	269.177	150.672	99.366	242.000	244.678	99.329	104.190	192.185	234.793	103.534	108.380	109.136	113.408	187.634	112.231	-8191	255	
6939.395	1	1	0	0	0.23506	0.078671	0.16903	0.10295	0.14059	0.1247	0.23481	0.20828	0.26465	0.21775	0.11748	0.24432	0.24827	0.15771	0.027714	0.093485	-2.2458	-2.8333	-2.9313	-2.775	-2.8083	-3.0771	-2.8542	-3.0771	-2.6958	-2.7104	-2.9813	-2.9229	-2.7708	-2.9875	-2.6063	-3.0333	103.401	386.029	357.969	369.298	256.729	418.774	341.925	443.234	304.859	228.251	347.627	118.386	102.615	90.210	123.775	99.542	0.0012906	0.00032878	0.00014817	1329.3	3.7916e-06	2.9054e-06	1344.9	362.7	5.5591e-06	2.311e-06	412.68	139.68	120.52	41.217	6.7391e-06	51.281	0.0002223	0.0002001	5.258e-05	1305.4	2.3569e-06	2.1632e-06	1306.6	354.38	2.3257e-06	2.1173e-06	388.53	133.45	111.9	39.364	2.1073e-06	48.885	334.052	98.046	145.363	99.579	227.975	96.690	99.422	104.320	165.319	200.125	103.588	108.237	108.972	113.411	196.943	112.293	-8191	255	
6939.493	1	1	0	0	0.08381	0.23878	0.086176	0.26214	0.18166	0.24963	0.16911	0.25654	0.1899	0.11329	0.03381	0.11862	0.035012	0.20839	0.099662	0.26551	-2.5125	-2.4354	-2.9021	-2.9958	-2.85	-2.9437	-2.8229	-3.0229	-2.9354	-2.5292	-3.1875	-2.7125	-2.7625	-3.1125	-2.6708	-2.95	103.970	417.179	225.208	434.174	265.602	156.937	391.996	355.383	157.787	209.925	87.933	140.579	244.469	169.836	176.734	406.165	0.0012565	0.00032353	0.00016181	1335.2	3.9293e-06	3.0765e-06	1342.1	362.8	2.0255e-06	1.9806e-06	411.85	138.87	120.83	41.031	5.6938e-06	51.039	0.00021314	0.00019069	5.416e-05	1309.4	2.2468e-06	2.086e-06	1308.5	354.26	2.2462e-06	2.1015e-06	390.66	133.33	111.84	39.285	2.3037e-06	48.806	334.635	203.091	163.086	99.625	232.981	194.440	99.360	104.325	291.368	278.486	103.626	108.661	108.943	113.246	209.071	112.284	-8191	255	
6939.612	1	1	0	0	0.16374	0.29673	0.041068	0.32464	0.25762	0.10765	0.24603	0.42156	0.097583	0.32406	0.13459	0.05659	0.071254	0.094932	0.088258	0.17481	-2.4188	-2.6833	-2.9708	-2.9333	-2.6021	-3.1646	-2.9042	-3.1458	-2.9021	-2.8479	-3.2479	-2.9125	-2.7979	-3.1604	-2.7521	-3.0812	202.389	273.383	341.864	400.614	356.371	88.320	330.018	358.177	113.050	397.509	124.334	92.242	191.884	407.121	437.620	360.147	0.0012309	0.00042056	0.00012097	1333.3	4.1199e-06	7.5974e-06	1338.3	362.38	7.1474e-06	3.5512e-06	412.49	139.58	120.68	41.208	1.8941e-06	50.961	0.00021155	0.00019189	5.8453e-05	1304.8	2.2355e-06	2.0397e-06	1308.4	354.33	2.1838e-06	2.0224e-06	391.62	133.18	111.84	39.396	2.3229e-06	48.753	333.806	153.884	178.612	99.648	228.912	198.743	99.456	104.427	223.242	205.073	103.884	108.308	109.033	113.387	204.291	112.221	-8191	255	
6939.683	1	1	0	0	0.085852	0.26741	0.074332	0.59837	0.12794	0.39261	0.32728	0.27514	0.18082	0.17415	0.18404	0.12594	0.1496	0.4153	0.3302	0.18923	-2.4583	-2.5979	-2.9583	-2.9875	-2.7	-2.9646	-2.8937	-2.9792	-2.9562	-2.6125	-2.8708	-2.8854	-2.7292	-3.0542	-2.7375	-2.8396	90.818	397.309	394.039	377.223	205.796	422.038	392.492	342.151	174.053	238.432	404.576	353.925	353.373	425.376	322.743	293.328	0.0011533	0.00076071	6.3624e-05	1334.9	2.4692e-06	5.5963e-06	1336.8	362.85	4.6304e-06	6.6056e-06	412.06	139.04	121.15	41.209	6.0458e-06	51.098	0.00019815	0.00018476	5.825e-05	1306.5	2.0841e-06	1.9968e-06	1311.4	354.1	2.076e-06	2.0642e-06	391.88	133.24	111.72	39.457	2.4373e-06	48.744	333.965	126.002	132.169	99.477	205.264	189.185	99.440	104.344	203.337	168.265	103.980	108.232	108.855	113.386	212.315	112.306	-8191	255	
6939.804	1	1	0	0	0.091136	0.11532	0.30147	0.2445	0.25933	0.034471	0.26841	0.1793	0.064313	0.080314	0.15161	0.074588	0.032946	0.22806	0.20041	0.17901	-2.6437	-2.6521	-2.8625	-3.1604	-2.6792	-2.9979	-2.9354	-3	-3.0542	-2.7458	-2.8708	-3.2458	-2.6208	-3.1667	-2.9125	-2.8167	293.000	387.426	103.636	139.783	250.893	411.525	412.940	312.422	271.155	359.206	120.953	294.090	294.363	99.011	426.293	324.954	0.001178	0.00015432	0.00010457	1339.4	6.184e-06	6.3807e-06	1351.2	364.25	1.2966e-06	5.6721e-06	414.26	139.28	120.84	41.398	3.9178e-06	51.1	0.00020184	0.00020156	6.2019e-05	1311.2	2.1327e-06	2.2132e-06	1320.3	355.29	2.0975e-06	2.2446e-06	393.53	133.37	111.57	39.603	2.3774e-06	48.728	333.620	172.483	162.248	99.526	229.192	182.274	99.211	104.401	238.647	169.599	103.514	108.275	108.879	113.106	177.615	112.031	-8191	255	
6939.900	1	1	0	0	0.15807	0.14391	0.086259	0.28223	0.14307	0.13846	0.27513	0.27776	0.26309	0.28877	0.17416	0.065328	0.12614	0.1157	0.37305	0.18336	-2.6979	-2.7521	-2.7875	-3.1229	-2.5771	-2.9104	-2.9521	-2.8458	-2.8979	-2.6417	-3.0396	-2.9604	-2.6583	-3.0479	-2.9813	-2.8042	109.522	187.393	324.946	333.925	173.362	92.773	328.680	358.047	439.517	230.901	106.422	241.279	94.064	142.030	375.495	313.638	0.0011751	0.00043707	5.8488e-05	1338.6	5.8991e-06	5.2009e-06	1344.3	363.81	6.9544e-06	2.9272e-06	413.15	139.41	121.16	41.337	2.9239e-06	50.978	0.00019292	0.00020915	5.9263e-05	1308.3	2.0581e-06	2.3181e-06	1315.2	354.65	2.0694e-06	2.3677e-06	393.05	133.08	111.77	39.772	2.3668e-06	48.646	337.878	166.195	283.439	99.565	173.694	167.034	99.504	104.313	209.178	203.680	103.352	108.119	109.020	113.269	210.998	112.096	-8191	255	
6939.996	1	1	0	0	0.093006	0.17379	0.21937	0.52493	0.16178	0.12551	0.44799	0.31042	0.20932	0.081308	0.19913	0.053119	0.094747	0.2559	0.35701	0.3195	-2.3958	-2.8438	-2.8937	-3.0187	-2.6417	-2.925	-3.0229	-2.6708	-3.0771	-2.6292	-2.9271	-3.1271	-2.8	-3.0604	-3.0125	-2.6542	375.043	96.978	425.518	436.810	400.713	94.868	423.866	363.513	113.345	392.392	423.214	116.284	227.148	367.353	434.999	113.353	0.0011638	0.00059352	8.4631e-05	1341	6.3461e-06	1.2688e-05	1347.8	364.69	8.4589e-06	2.5024e-06	413.74	139.67	122.43	41.314	4.5999e-06	51.525	0.00020337	0.00022819	6.0837e-05	1312.3	2.2831e-06	2.5894e-06	1321.3	356.16	2.3832e-06	2.7041e-06	394.86	134.01	113.5	40.144	2.6038e-06	49.178	331.608	107.192	149.331	99.431	199.545	204.915	99.116	104.355	176.732	265.661	103.667	108.316	108.790	113.103	200.438	112.117	-8191	255	
6940.092	1	1	0	0	0.16727	0.14717	0.18938	0.28775	0.22931	0.072818	0.23478	0.10768	0.18224	0.23862	0.1692	0.19216	0.15548	0.1316	0.20526	0.19665	-2.575	-2.8521	-2.675	-3.1125	-2.7729	-3.0438	-3.1021	-2.8292	-2.9875	-2.9396	-2.8708	-2.9521	-2.7417	-3.0563	-2.9938	-2.7375	234.059	153.293	371.955	404.393	147.666	365.486	344.737	417.674	289.854	296.882	302.690	434.316	386.738	86.724	387.257	350.096	0.0013826	0.0003074	4.4465e-05	1356.7	5.2088e-06	3.7747e-06	1362.9	367	8.1917e-06	4.7636e-06	416.6	140.92	122.39	41.671	5.0797e-06	51.755	0.00024253	0.00025792	6.5424e-05	1324.5	2.6221e-06	2.7804e-06	1334.5	358.33	2.5571e-06	2.6527e-06	396.3	134.47	113.94	40.234	2.2807e-06	49.043	330.156	215.277	208.450	99.473	161.457	353.063	99.388	104.172	178.342	141.874	103.672	108.255	108.953	113.151	204.208	112.492	-8191	255	
6940.213	1	1	0	0	0.12447	0.30011	0.10582	0.15096	0.034746	0.092472	0.2537	0.33237	0.034103	0.19539	0.17576	0.17797	0.15518	0.14206	0.23965	0.052017	-2.3896	-2.875	-2.6271	-3.1917	-2.8854	-2.8771	-3.1708	-2.7625	-2.975	-2.7833	-2.7625	-3.0896	-2.8042	-2.9042	-2.9521	-2.8708	280.624	140.661	381.354	386.474	361.565	431.051	382.065	343.598	132.022	234.316	365.953	397.605	349.178	428.553	357.778	292.245	0.0012927	0.00021002	0.00013002	1348.5	2.8802e-06	5.3779e-06	1353.6	366.57	5.4627e-06	8.1555e-07	416	141.06	122.11	41.511	5.4302e-06	51.482	0.00022308	0.00021642	5.4549e-05	1316.3	2.3198e-06	2.2553e-06	1320.6	355.93	2.2902e-06	2.2033e-06	392.1	133.75	113.07	39.881	2.0101e-06	48.726	335.319	353.449	236.772	99.552	226.125	223.731	99.370	104.272	218.497	193.593	103.688	108.175	109.037	113.262	189.783	112.093	-8191	255	
6940.285	1	1	0	0	0.055031	0.23277	0.024487	0.13416	0.20561	0.13499	0.13382	0.22079	0.17697	0.22428	0.08379	0.18997	0.13096	0.1957	0.11821	0.16289	-2.5687	-2.8604	-2.5708	-3.1292	-2.8854	-2.7042	-3.2896	-2.8542	-2.9417	-2.9188	-2.7646	-3.1583	-2.7958	-2.9771	-3.1542	-2.875	334.118	433.920	421.379	400.290	323.196	351.742	99.954	116.222	243.590	272.019	420.519	444.434	446.246	87.683	263.270	111.893	0.0014227	0.00051846	6.1373e-05	1338	1.851e-06	4.5278e-06	1337.6	365.29	2.2892e-06	1.7316e-06	413.24	140.29	121.76	41.424	2.068e-06	51.787	0.00021297	0.00018971	4.8922e-05	1301.9	2.1973e-06	2.0241e-06	1304.8	354.49	2.2018e-06	2.0422e-06	389.32	133.32	112.83	39.72	1.9525e-06	48.916	334.680	142.878	96.502	99.630	253.227	254.308	99.365	104.246	249.411	440.989	103.504	108.442	108.865	113.377	222.785	112.321	-8191	255	
6940.381	1	1	0	0	0.13537	0.13897	0.19682	0.15258	0.068525	0.17092	0.26192	0.11443	0.17302	0.038808	0.27194	0.051249	0.032701	0.064338	0.079964	0.14627	-2.4583	-2.9958	-2.6542	-3.1729	-2.8021	-2.7562	-3.2896	-2.7687	-2.9646	-3.0062	-2.7729	-3.0958	-2.8958	-2.9021	-3.1646	-2.7854	212.914	330.108	152.780	224.871	381.295	440.597	92.325	355.914	433.476	370.949	371.347	215.496	380.351	361.474	268.159	152.738	0.0013205	0.00010651	5.4826e-05	1341.4	4.8326e-06	3.2596e-06	1343.9	363.47	6.0795e-06	6.0596e-06	414.07	140.34	121.34	41.47	6.5805e-06	51.249	0.0002171	0.00019277	5.0984e-05	1308.5	2.3541e-06	2.1778e-06	1309.3	355.25	2.4516e-06	2.2529e-06	392.02	134.37	113.31	39.855	2.2834e-06	49.276	341.571	124.689	152.214	99.485	203.096	226.648	99.349	104.285	219.230	211.448	103.476	108.363	108.911	113.069	215.605	112.194	-8191	255	
6940.475	1	1	0	0	0.11728	0.15639	0.14619	0.2669	0.12898	0.26074	0.072825	0.079038	0.14794	0.12413	0.062908	0.095597	0.39506	0.18367	0.14881	0.13947	-2.4292	-3.0021	-2.6875	-3.1792	-2.8979	-2.9188	-3.3146	-2.9938	-2.9583	-2.9729	-2.9042	-2.9417	-2.8417	-2.7583	-3.0729	-2.8479	158.891	184.252	382.014	424.634	272.493	269.557	216.067	172.165	189.352	310.580	160.633	107.981	346.314	356.802	195.801	425.394	0.0010934	0.00045461	2.9681e-05	1346.9	3.4734e-06	2.7597e-06	1355.6	367.18	2.5413e-06	4.6128e-06	416.13	141.13	122.09	41.406	3.9073e-06	51.73	0.00024702	0.00022541	6.0332e-05	1322.8	2.6974e-06	2.4993e-06	1324.8	359.83	2.7216e-06	2.5108e-06	395.94	135.69	114.54	40.084	2.5e-06	49.816	338.902	164.263	139.832	99.580	186.491	215.090	99.346	104.214	131.427	261.186	103.505	108.383	108.719	113.127	213.996	111.894	-8191	255	
6940.596	1	1	0	0	0.27179	0.094088	0.057414	0.093955	0.23147	0.069787	0.2224	0.21647	0.086618	0.060613	0.3576	0.032772	0.1195	0.16304	0.11917	0.077088	-2.2208	-2.7958	-2.5833	-2.9521	-2.7125	-2.6917	-3.0396	-2.9375	-2.7583	-2.9917	-2.8354	-2.9208	-2.7938	-2.8375	-3.0979	-2.8229	392.729	157.735	220.489	161.673	127.640	320.743	389.333	378.755	145.436	288.927	375.659	382.214	416.847	141.824	352.595	351.721	0.0012003	0.00067895	9.1765e-05	1350.1	4.478e-06	1.756e-06	1359.1	366.61	6.1149e-06	2.2427e-06	416.12	140.39	121.92	41.627	5.0153e-06	51.558	0.00024715	0.00022309	6.3263e-05	1330.2	2.6072e-06	2.4054e-06	1330.9	359.87	2.5544e-06	2.3837e-06	396.35	135.26	113.74	40.005	2.5813e-06	49.606	330.107	211.763	140.053	99.549	177.348	98.676	99.389	104.131	214.975	392.041	103.583	108.358	108.960	113.230	197.029	112.301	-8191	255	
6940.692	1	1	0	0	0.17495	0.20307	0.11523	0.09703	0.212	0.1723	0.14724	0.086002	0.18928	0.093295	0.13236	0.33151	0.12859	0.070424	0.15544	0.1888	-2.4229	-2.9542	-2.6896	-3.0854	-2.9146	-2.5729	-3.1146	-2.875	-2.7542	-3.0729	-2.825	-2.85	-2.9583	-2.8438	-2.8354	-2.7729	401.828	331.381	155.337	236.474	362.397	163.165	324.841	387.913	116.202	195.260	253.218	386.989	362.655	263.416	385.847	365.969	0.0012907	0.00043149	7.2531e-05	1351.4	2.6401e-06	3.1997e-06	1358.9	365.92	8.1347e-06	3.2809e-06	415.74	140.28	121.78	41.579	6.645e-06	51.606	0.0002398	0.00021678	6.7234e-05	1328.8	2.5427e-06	2.375e-06	1331.3	359.25	2.5262e-06	2.3667e-06	397.51	135.1	113.47	39.98	2.7675e-06	49.567	332.510	170.867	107.363	99.559	193.800	282.278	99.392	104.229	216.750	205.038	103.812	108.222	109.124	113.388	177.276	112.286	-8191	255	
6940.788	1	1	0	0	0.26853	0.13368	0.24941	0.17363	0.063056	0.087594	0.23727	0.37069	0.029751	0.1038	0.13601	0.19621	0.10673	0.12315	0.14884	0.33786	-2.1688	-2.9771	-2.5583	-3.0833	-3.0062	-2.8312	-3.1146	-2.9167	-2.7313	-3.0687	-2.9729	-2.8292	-2.8854	-2.775	-2.8417	-2.8208	175.236	400.220	229.274	398.161	391.719	383.273	393.084	411.534	362.641	271.815	374.525	278.625	334.689	388.186	328.878	358.123	0.0011911	0.00035975	0.00018823	1351	3.5635e-06	6.8906e-06	1351.7	366.36	4.4567e-06	5.6577e-06	414.16	139.26	121.86	41.496	1.7622e-06	51.336	0.00023931	0.00022118	7.0633e-05	1325.3	2.5051e-06	2.426e-06	1328.5	358.44	2.4855e-06	2.4255e-06	397.64	134.35	112.88	39.906	2.7776e-06	49.184	334.644	142.601	177.534	99.567	268.682	216.991	99.259	104.149	243.340	176.484	103.522	108.122	109.141	113.279	284.649	112.160	-8191	255	
6940.884	1	1	0	0	0.15264	0.16681	0.26165	0.24475	0.27233	0.32254	0.16516	0.2758	0.070149	0.141	0.087959	0.27225	0.044269	0.24028	0.099405	0.12234	-2.1625	-2.9313	-2.6562	-3.0292	-2.8187	-2.7042	-3.1729	-3.1312	-2.6521	-3.0167	-3.0167	-2.8542	-3.1833	-2.9333	-3	-3.0333	290.387	90.304	166.003	91.059	226.748	284.480	399.213	406.018	106.556	262.384	93.883	89.106	352.255	89.878	268.097	373.183	0.0010746	0.00032661	4.5994e-06	1338.5	3.4455e-06	4.276e-06	1349.1	364.71	3.4299e-06	5.4635e-06	413.95	139.55	121.02	41.406	1.8009e-06	51.208	0.0002286	0.00022555	6.9751e-05	1314.9	2.3878e-06	2.5214e-06	1323.6	356.9	2.3814e-06	2.5465e-06	396.71	134.23	112.52	39.925	2.7198e-06	49.095	331.825	154.295	127.811	99.486	199.049	167.796	99.295	104.217	235.972	221.959	103.698	108.096	109.024	113.226	90.529	112.071	-8191	255	
6940.981	1	1	0	0	0.11345	0.21691	0.11196	0.26678	0.14217	0.08089	0.10853	0.3211	0.10567	0.311	0.23147	0.32396	0.20047	0.31992	0.14382	0.34995	-2.3521	-2.9542	-2.7583	-2.9375	-2.9771	-2.5438	-3.0917	-3.0312	-2.675	-2.9979	-3.1229	-2.8979	-3.1312	-2.8438	-2.8542	-3.0958	408.694	282.196	414.140	412.043	296.569	380.193	265.674	418.477	396.713	212.439	90.740	395.225	290.363	425.837	103.328	394.776	0.0013605	0.00069203	2.5033e-05	1336.4	2.7437e-06	9.05e-06	1349.5	365.28	7.7527e-06	5.9541e-06	415.52	139	120.83	41.298	6.8802e-06	51.3	0.00022308	0.00023899	6.8105e-05	1312.6	2.3399e-06	2.6285e-06	1321.2	356.41	2.3238e-06	2.6173e-06	395.21	133.54	112.31	39.917	2.5414e-06	48.934	327.018	440.815	344.837	99.538	192.950	168.810	99.340	104.306	184.832	198.813	103.634	108.331	108.925	113.327	211.202	112.367	-8191	255	
6941.077	1	1	0	0	0.37868	0.34264	0.12218	0.058781	0.17109	0.074013	0.3085	0.18479	0.062045	0.12142	0.26318	0.19437	0.18511	0.073927	0.1723	0.30307	-2.4229	-2.9292	-2.9292	-2.8979	-3.0312	-2.7979	-2.9792	-3.2542	-2.7938	-3.0521	-2.9062	-2.925	-3.2229	-2.9083	-2.8229	-3.1917	350.472	287.786	335.200	252.747	370.240	106.141	399.677	369.075	384.185	422.058	385.388	349.224	418.770	439.628	207.131	387.445	0.0014367	0.00023586	7.1749e-05	1337.6	5.5986e-06	6.1734e-06	1343.1	363.9	7.9089e-06	4.8244e-06	412.77	138.74	121.56	41.318	6.2836e-06	51.127	0.00021881	0.00024079	6.3212e-05	1309.3	2.3244e-06	2.6407e-06	1316.3	355.67	2.4019e-06	2.6876e-06	394.26	133.43	112.62	40.031	2.5417e-06	48.932	336.843	109.938	188.272	99.714	186.646	225.690	99.549	104.366	188.285	279.158	103.706	108.202	109.076	113.260	160.153	112.137	-8191	255	
6941.173	1	1	0	0	0.30113	0.082668	0.25285	0.27124	0.12551	0.063711	0.17033	0.2091	0.11977	0.034128	0.15926	0.15659	0.17417	0.20379	0.14602	0.20248	-2.1375	-2.9646	-3.1125	-2.7167	-3.0542	-2.9729	-3.0125	-3.2042	-2.6562	-2.9313	-2.95	-2.7583	-3.1667	-2.8625	-2.8312	-3.2583	301.250	345.448	363.338	421.496	273.242	229.290	268.129	407.829	136.145	345.980	141.223	122.376	95.367	386.147	107.840	283.606	0.0013521	0.00011512	5.7311e-05	1337.5	4.8082e-06	3.9761e-06	1347.2	363.87	6.3833e-06	1.8227e-06	414.81	139.02	120.94	41.169	2.9917e-06	51.211	0.00024204	0.00025315	6.5138e-05	1311	2.63e-06	2.8058e-06	1319	356.13	2.7173e-06	2.8194e-06	395.42	133.53	113.59	40.046	2.6471e-06	48.999	331.795	235.264	194.659	99.644	179.937	386.259	99.258	104.066	171.371	183.164	103.688	108.288	108.797	113.007	332.444	112.121	-8191	255	
6941.293	1	1	0	0	0.4336	0.18763	0.22345	0.55531	0.22544	0.16029	0.21237	0.30163	0.21611	0.07731	0.20811	0.24308	0.21691	0.092143	0.30273	0.18661	-2.4583	-2.9208	-2.8667	-2.8917	-3.0146	-2.8833	-2.9271	-3.1667	-2.7396	-2.9437	-3.0438	-2.7479	-2.9	-2.9208	-2.5563	-3.1437	376.367	151.996	304.452	404.572	341.340	396.690	137.222	333.217	271.144	189.826	421.025	346.681	322.756	433.153	145.925	349.942	0.0013161	0.00052597	6.5452e-05	1340.1	5.8105e-06	4.2876e-06	1348	365.06	6.109e-06	4.4898e-06	415.85	139.84	121.76	41.284	6.0297e-06	51.405	0.00026422	0.00025822	6.6514e-05	1315.2	2.8773e-06	2.8167e-06	1323.8	357.11	2.9256e-06	2.7986e-06	396.88	134.16	114.62	40.154	2.6095e-06	49.221	330.475	443.937	437.627	99.510	186.404	205.803	99.463	104.230	210.582	96.747	103.596	108.415	108.876	113.136	201.806	112.265	-8191	255	
6941.388	1	1	0	0	0.48078	0.26879	0.097346	0.017015	0.099225	0.16113	0.35151	0.18833	0.05539	0.21988	0.19712	0.1084	0.18704	0.20928	0.18082	0.024235	-2.3	-2.7104	-2.9146	-2.8604	-2.9292	-2.85	-2.6688	-3.1854	-2.8	-2.8937	-3.1917	-2.7687	-3.0792	-3.05	-2.6833	-3.0771	103.498	418.463	386.117	392.666	443.458	355.518	397.847	391.784	427.409	288.001	150.328	126.554	322.459	92.486	114.554	301.189	0.0014463	0.00017122	3.7635e-05	1349.6	4.3173e-06	3.7936e-06	1349.9	365.07	2.0409e-06	2.5732e-06	413.59	139.26	121.6	41.206	2.7957e-06	51.14	0.00027807	0.00025505	6.567e-05	1323.4	2.975e-06	2.7275e-06	1323.8	357.7	2.9346e-06	2.6677e-06	394.96	134.28	114.44	39.922	2.5234e-06	49.281	333.334	332.069	399.292	99.647	156.177	398.194	99.371	104.325	176.601	266.521	103.721	108.407	108.689	113.134	216.039	112.515	-8191	255	
6941.486	1	1	0	0	0.16916	0.075119	0.10066	0.20163	0.20464	0.10944	0.12323	0.28583	0.086887	0.26112	0.11622	0.15041	0.18057	0.14554	0.086629	0.12923	-2.275	-2.8875	-2.9271	-3.0042	-2.8604	-3.0354	-2.8937	-3.2354	-2.9604	-2.8417	-3.1833	-2.8271	-2.9062	-2.8542	-2.8083	-3.1125	363.405	432.924	228.327	353.365	394.971	363.108	357.108	394.917	405.536	154.416	417.379	425.825	382.256	367.916	226.452	120.561	0.0013126	0.0004818	7.5664e-05	1343.7	9.7179e-07	4.4738e-06	1351.4	366.17	7.802e-06	5.7439e-07	414.56	139.4	121.08	41.194	2.6886e-06	51.129	0.00027323	0.00024408	6.3665e-05	1322.2	2.904e-06	2.6624e-06	1322.9	358.9	2.9105e-06	2.6729e-06	395.36	134.95	114.23	39.948	2.5247e-06	49.433	332.426	133.342	123.295	99.503	318.393	183.535	99.444	104.362	196.240	390.712	103.578	108.279	109.021	113.295	127.559	112.200	-8191	255	
6941.580	1	1	0	0	0.053294	0.13511	0.096306	0.10412	0.062187	0.2383	0.311	0.21123	0.12704	0.049947	0.059354	0.087811	0.091856	0.078289	0.30368	0.12145	-2.325	-2.6417	-2.8688	-2.9562	-2.7375	-2.9958	-2.9688	-3.2208	-2.8688	-2.8208	-3.1292	-2.9188	-2.8729	-3.1437	-2.7708	-2.9729	178.670	200.751	442.884	265.374	134.815	363.200	400.640	396.526	384.498	412.379	285.430	99.417	350.332	152.551	409.057	366.587	0.0010552	0.00027273	9.714e-05	1345.5	2.3553e-06	3.9399e-06	1353	365.55	9.3136e-06	2.8275e-06	414.84	140	121.33	41.098	6.9136e-06	51.063	0.00026866	0.00024137	6.4365e-05	1324.9	2.8664e-06	2.6283e-06	1323.9	359.52	2.8459e-06	2.6365e-06	396.05	135.28	113.97	39.837	2.6278e-06	49.571	331.995	111.137	154.222	99.420	163.943	176.725	99.281	104.432	247.967	202.423	103.456	108.193	109.032	113.376	191.483	112.637	-8191	255	
6941.676	1	1	0	0	0.032265	0.36849	0.11531	0.33398	0.17364	0.078709	0.26309	0.27413	0.37746	0.095817	0.067488	0.19395	0.14063	0.16439	0.12625	0.19399	-2.4021	-2.7104	-2.9	-2.8917	-2.8104	-2.8771	-2.7833	-2.9729	-2.9437	-2.7938	-3.1646	-2.7917	-2.6542	-3.0896	-2.6875	-2.9562	348.379	281.498	353.575	400.005	200.274	441.482	346.703	430.429	350.452	99.173	393.343	438.283	437.683	114.370	127.722	426.537	0.0013196	0.00015429	9.7695e-05	1347.1	3.7446e-06	6.449e-07	1352.5	364.56	3.4274e-06	3.328e-06	414.78	139.53	121.04	41.144	5.0852e-06	51.052	0.00025807	0.00023427	6.6796e-05	1326.9	2.7156e-06	2.5221e-06	1324.9	359.16	2.6712e-06	2.48e-06	396.63	134.63	113.21	39.668	2.6837e-06	49.382	329.217	420.515	113.803	99.508	175.903	139.099	99.588	104.178	203.615	188.584	103.482	108.257	108.918	113.123	168.928	111.753	-8191	255	
6941.772	1	1	0	0	0.071767	0.23847	0.202	0.27823	0.22089	0.12989	0.40703	0.28572	0.25678	0.10087	0.44726	0.1478	0.28956	0.10545	0.15448	0.11657	-2.4271	-2.5687	-2.9437	-2.7458	-2.5167	-2.9875	-2.7938	-2.9104	-3.075	-2.8	-3.0667	-2.9875	-2.5729	-3.0646	-2.6917	-2.9813	379.003	218.105	410.134	91.858	382.968	385.063	373.964	439.698	286.651	191.674	427.878	300.425	400.019	391.542	391.613	362.108	0.00122	0.00033402	0.00014895	1342.6	2.3028e-06	1.6193e-06	1355.3	366.57	8.1997e-07	4.0697e-06	415.55	139.95	121.6	41.18	5.4759e-06	51.203	0.0002444	0.00022135	6.878e-05	1321.8	2.6027e-06	2.4098e-06	1327.2	359.07	2.5745e-06	2.3992e-06	396.96	134.72	113.23	39.736	2.8445e-06	49.287	337.403	140.732	169.702	99.468	179.811	183.879	99.253	104.373	326.356	263.264	103.630	108.445	108.913	113.392	185.742	112.183	-8191	255	
6941.893	1	1	0	0	0.12565	0.036144	0.1804	0.28932	0.091182	0.15577	0.014964	0.3338	0.16817	0.077075	0.051914	0.24695	0.010251	0.26396	0.20273	0.13477	-2.5708	-2.7167	-2.8854	-2.9375	-2.6437	-2.9271	-3.0146	-3.0104	-3.1	-2.6917	-2.9354	-2.8854	-2.7667	-3.2188	-2.5958	-2.9292	336.786	177.970	383.566	441.330	321.526	196.932	192.131	405.408	89.982	384.936	104.907	418.181	380.314	155.287	242.706	434.354	0.0013095	9.4563e-05	5.7857e-05	1342	4.0067e-06	6.1049e-06	1346.6	364.38	5.038e-06	3.5983e-06	414.02	138.73	120.69	41.088	2.9161e-06	51.129	0.00024302	0.00022709	7.2745e-05	1319.8	2.5946e-06	2.5297e-06	1324.9	357.84	2.5804e-06	2.5686e-06	398.27	134.16	112.84	39.695	2.8997e-06	49.048	336.668	245.428	440.529	99.692	203.943	214.828	99.363	104.400	244.592	237.584	103.793	108.122	109.053	113.337	277.918	112.301	-8191	255	
6941.989	1	1	0	0	0.096381	0.24234	0.15287	0.17058	0.067302	0.11214	0.18669	0.20157	0.073718	0.21052	0.22799	0.13255	0.2165	0.046245	0.2185	0.15234	-2.5438	-2.6729	-2.875	-3.0104	-2.675	-3.0625	-2.9542	-2.8292	-3.0521	-2.7917	-2.95	-2.9375	-2.6125	-2.9854	-2.9167	-2.7729	235.992	154.184	272.273	367.196	257.205	389.800	101.683	94.998	421.112	240.420	160.772	324.689	380.677	285.804	145.816	90.094	0.0012295	0.00092265	6.3869e-05	1338.1	2.7134e-06	6.9161e-06	1343.5	364.79	5.8069e-06	4.5699e-06	411.81	138.88	121.17	41.129	3.496e-06	51.015	0.00023352	0.00023291	7.088e-05	1312	2.3891e-06	2.5131e-06	1319.2	356.19	2.3148e-06	2.5032e-06	394.82	133.39	112.15	39.723	2.6631e-06	48.839	341.815	135.749	188.840	99.450	231.598	196.056	99.430	104.335	270.712	219.510	103.737	108.215	109.056	113.333	190.623	112.270	-8191	255	
6942.085	1	1	0	0	0.053022	0.20003	0.18927	0.20223	0.20069	0.18094	0.23028	0.24417	0.20319	0.052332	0.19149	0.20165	0.11786	0.20882	0.12937	0.14784	-2.6083	-2.5667	-2.7354	-3.1021	-2.7812	-3.1146	-3.0167	-2.8729	-3.0792	-2.7	-3.0083	-3.0417	-2.55	-2.9542	-2.7229	-2.7438	175.705	270.931	312.076	420.609	288.199	368.590	437.015	366.190	180.282	129.791	411.762	344.496	444.998	115.184	293.634	114.272	0.0013109	0.00065491	2.6297e-05	1337.9	1.4183e-06	1.0903e-05	1339.8	364.81	5.0256e-06	1.5246e-06	412.99	138.72	121.04	40.868	1.3848e-06	50.95	0.00021957	0.00023896	6.7519e-05	1312.3	2.3786e-06	2.6887e-06	1318.8	356.29	2.4096e-06	2.7557e-06	396.11	133.56	112.58	39.882	2.705e-06	48.844	336.116	415.247	300.388	99.430	270.661	226.054	99.377	104.250	208.380	190.474	103.813	108.295	108.971	113.268	200.554	112.293	-8191	255	
6942.157	1	1	0	0	0.079544	0.092744	0.14455	0.1579	0.16759	0.11124	0.1311	0.24617	0.079819	0.22987	0.18934	0.20529	0.36018	0.19044	0.17161	0.1229	-2.4646	-2.7708	-2.6937	-3.0125	-2.8083	-2.9333	-3.1521	-2.6667	-3.0167	-2.9604	-2.8833	-3.0958	-2.7812	-2.9729	-2.7125	-2.7979	374.561	114.825	402.275	384.463	365.071	183.211	335.262	339.276	101.387	395.652	344.829	373.833	143.343	403.108	174.145	142.504	0.0013376	0.00065147	8.1689e-05	1339.5	5.4916e-06	3.8247e-06	1349.5	365.29	9.5093e-06	1.4745e-06	414	138.91	121.55	41.08	4.6155e-06	50.937	0.00023308	0.00026127	6.8525e-05	1314.3	2.5519e-06	2.8743e-06	1323.2	357.11	2.5957e-06	2.8648e-06	396.09	133.35	113.05	39.963	2.6538e-06	48.796	338.835	115.599	202.161	99.483	211.567	153.891	99.398	104.379	188.156	229.188	103.525	108.312	108.905	113.318	246.892	112.116	-8191	255	
6942.278	1	1	0	0	0.12452	0.26124	0.045703	0.19642	0.1993	0.22115	0.24474	0.18516	0.16199	0.039678	0.20488	0.11817	0.099376	0.3207	0.11826	0.056494	-2.6396	-2.6958	-2.8104	-3.2354	-2.4875	-2.8646	-3.0312	-2.8417	-2.9958	-2.9125	-2.7729	-3.0854	-2.5708	-2.8812	-2.8354	-2.6708	157.575	252.090	383.368	427.487	403.245	204.808	339.342	96.301	209.150	306.422	240.786	338.419	378.917	419.788	194.639	380.706	0.0014065	0.0002104	0.00013678	1337.2	7.5691e-06	5.364e-06	1347.5	364.63	1.039e-05	6.197e-06	415.18	138.73	121	41.093	3.0603e-06	51.153	0.00024995	0.00026309	6.7001e-05	1313.9	2.6946e-06	2.8151e-06	1319.8	356.4	2.7072e-06	2.7718e-06	395.01	133.3	113.09	39.836	2.5036e-06	48.745	332.337	297.416	192.724	99.477	206.711	238.648	99.358	104.289	184.755	320.449	103.628	108.249	108.938	113.263	266.933	112.251	-8191	255	
6942.372	1	1	0	0	0.20663	0.11648	0.17085	0.16713	0.10101	0.21789	0.27785	0.13866	0.32579	0.16858	0.044784	0.22827	0.19912	0.21756	0.24007	0.3555	-2.5542	-2.7458	-2.6396	-3.1771	-2.75	-2.9479	-3.3292	-3.0333	-3.0062	-2.8521	-2.6583	-3.2417	-2.8146	-2.8187	-2.9042	-2.6688	358.673	405.207	192.330	437.870	429.013	141.501	386.772	320.143	364.486	338.915	432.566	419.376	140.883	91.669	240.842	433.587	0.0013998	0.00031756	9.8258e-05	1333	4.0994e-06	2.4991e-06	1338.1	363.31	2.6654e-06	2.2726e-06	412.14	138.64	120.71	40.998	3.7138e-06	50.979	0.00024959	0.00023999	6.1165e-05	1307.1	2.6205e-06	2.5194e-06	1309.9	354.41	2.5569e-06	2.4494e-06	391.35	132.46	112.47	39.48	2.2384e-06	48.449	328.695	187.465	206.144	99.578	204.726	283.822	99.343	104.341	209.417	233.273	103.862	108.241	108.942	113.261	156.594	112.409	-8191	255	
6942.468	1	1	0	0	0.078444	0.24812	0.12991	0.18175	0.12058	0.084586	0.28086	0.33415	0.30977	0.33437	0.36512	0.09441	0.041815	0.087089	0.1825	0.29581	-2.4042	-2.7292	-2.55	-3.1771	-2.6937	-2.7229	-3.3	-2.9417	-2.9688	-2.6688	-2.7792	-3.0979	-2.8854	-2.8479	-3.1167	-2.7917	99.884	250.965	386.698	110.384	200.504	260.861	417.953	382.334	365.065	286.115	384.452	356.887	416.989	423.886	171.239	439.979	0.00118	0.00013829	0.0001484	1330.5	1.0802e-06	5.7217e-06	1342.6	363.43	1.978e-06	3.4587e-06	411.55	138.79	120.44	40.987	7.0488e-07	50.68	0.00023925	0.00021573	5.6471e-05	1301.3	2.5546e-06	2.3246e-06	1305.8	354.17	2.4986e-06	2.2653e-06	389.29	132.6	112.09	39.266	2.1184e-06	48.464	337.896	196.670	170.706	99.550	201.886	154.113	99.409	104.319	176.497	167.656	103.645	108.446	108.940	113.154	171.421	112.349	-8191	255	
6942.566	1	1	0	0	0.20284	0.12357	0.14776	0.15936	0.088365	0.077476	0.15058	0.21853	0.32114	0.20744	0.10267	0.22301	0.20758	0.17896	0.071797	0.24434	-2.375	-2.8167	-2.7812	-3.2021	-2.7958	-2.8479	-3.175	-2.9437	-2.9646	-3.0521	-2.8771	-3.1604	-2.8875	-2.8833	-3.0708	-2.7042	360.400	326.604	380.568	350.436	433.780	337.556	353.883	210.102	169.338	159.874	354.509	376.667	143.110	93.006	254.939	385.449	0.0012994	0.0001843	0.00010059	1331	1.5202e-06	2.834e-06	1332.4	362.76	7.3768e-06	1.6879e-06	412.26	138.86	120.25	40.87	5.0508e-06	50.746	0.00023087	0.00020566	5.3837e-05	1302.5	2.4663e-06	2.2303e-06	1302.5	354.45	2.4507e-06	2.2342e-06	388.97	132.88	111.95	39.262	2.127e-06	48.628	331.272	118.832	110.733	99.488	164.455	176.203	99.365	104.362	236.899	195.163	103.652	108.380	108.817	113.368	200.162	112.164	-8191	255	
6942.685	1	1	0	0	0.30146	0.22175	0.12012	0.33137	0.15279	0.14711	0.17055	0.3314	0.12191	0.13199	0.25555	0.095357	0.16579	0.28785	0.048638	0.23031	-2.4333	-3.0667	-2.7667	-3.3021	-2.9021	-2.9396	-3.1562	-2.9042	-2.9333	-2.8833	-2.9188	-3.0604	-2.9313	-2.7854	-3.1188	-3.0146	376.033	323.306	89.740	378.699	246.616	415.641	377.457	311.844	291.604	126.916	281.784	194.686	421.746	395.668	331.215	96.614	0.0012527	0.0003132	7.1321e-05	1326.4	1.9629e-06	1.8738e-06	1332.1	362.35	2.7761e-06	4.1318e-06	410.75	138.08	120.03	40.913	5.6161e-06	50.93	0.00022664	0.00020274	5.4149e-05	1301.2	2.3462e-06	2.1749e-06	1300.2	354.11	2.3054e-06	2.1193e-06	388.64	132.7	111.33	39.113	2.1235e-06	48.595	335.074	145.990	201.696	99.598	352.772	267.144	99.460	104.337	170.189	316.735	103.742	108.469	108.963	113.341	154.755	112.222	-8191	255	
6942.781	1	1	0	0	0.1723	0.1308	0.19357	0.23839	0.086035	0.15938	0.23992	0.24116	0.17372	0.15089	0.34798	0.25453	0.10995	0.118	0.12621	0.19532	-2.5104	-2.9875	-2.6125	-3.0438	-2.7396	-2.6042	-3.2687	-2.9292	-2.6583	-3.1562	-2.775	-3.0375	-2.9292	-2.6625	-2.8854	-2.9	316.744	399.872	123.087	104.971	133.189	177.005	397.037	412.272	206.354	137.031	416.404	425.888	242.219	102.726	304.103	407.630	0.001237	0.00070675	0.00013864	1324.5	1.479e-06	4.1842e-06	1332.3	361.76	5.4732e-06	1.2788e-06	411.45	138.52	120.6	40.711	3.1063e-06	50.96	0.00020916	0.00018874	5.4263e-05	1298.8	2.2077e-06	2.0406e-06	1298	353.67	2.1952e-06	2.0243e-06	389.05	132.71	111.07	39.055	2.2247e-06	48.538	341.746	144.282	170.054	99.559	188.651	180.536	99.410	104.246	187.906	367.115	103.649	108.220	108.865	113.219	175.685	112.131	-8191	255	
6942.853	1	1	0	0	0.21018	0.11977	0.13871	0.20413	0.11149	0.11393	0.15325	0.066844	0.21985	0.21124	0.10962	0.139	0.22636	0.215	0.036764	0.095392	-2.1521	-2.8854	-2.5292	-3.025	-2.8063	-2.6813	-2.9917	-2.8667	-2.7104	-3.1271	-2.9542	-3.0187	-3.1562	-2.725	-2.9417	-3.025	161.749	186.646	369.879	403.673	97.007	418.308	355.359	298.839	196.605	352.635	298.392	102.592	323.658	96.722	307.357	431.689	0.0012735	0.00054302	0.00015323	1325.6	2.6055e-06	1.6349e-06	1329.1	360.87	4.2062e-06	6.1118e-06	411.62	138.32	120.75	41.034	1.3076e-06	50.475	0.00020181	0.00018173	5.7042e-05	1295.8	2.1274e-06	1.9912e-06	1298.8	353.05	2.1111e-06	1.9798e-06	389.9	132.18	110.89	39.093	2.2795e-06	48.317	337.466	94.044	176.858	99.549	276.083	168.384	99.424	104.275	238.373	255.069	103.610	108.407	109.076	113.421	213.298	112.195	-8191	255	
6942.973	1	1	0	0	0.26071	0.19866	0.012937	0.14076	0.28371	0.25814	0.12881	0.20022	0.14716	0.14239	0.34934	0.15798	0.16438	0.079357	0.12517	0.29038	-2.2125	-2.9437	-2.7	-2.9458	-2.8583	-2.575	-3.2167	-3.0042	-2.5771	-3.1125	-2.9979	-2.875	-3.0042	-2.6521	-2.9375	-2.9458	152.606	358.224	297.244	360.321	183.968	384.158	377.177	438.241	300.337	191.606	371.645	411.609	141.845	382.001	394.249	112.335	0.0011854	0.00030807	0.00010553	1322	3.7563e-06	2.5472e-06	1329.7	360.94	3.7319e-06	3.8392e-06	412.24	138.19	120.55	40.889	4.1601e-06	50.616	0.00019458	0.00017974	5.7711e-05	1290.9	2.0484e-06	2.0098e-06	1298.1	352.25	2.0301e-06	2.0325e-06	390.11	131.98	110.61	39.11	2.2784e-06	48.158	337.989	129.224	154.240	99.596	187.787	222.311	99.308	104.263	205.861	246.429	103.656	108.088	109.074	113.333	214.421	112.117	-8191	255	
6943.070	1	1	0	0	0.18595	0.23148	0.014613	0.1769	0.102	0.2453	0.14725	0.32006	0.25966	0.15015	0.17902	0.050403	0.075543	0.10226	0.11462	0.20361	-2.2104	-3.0083	-2.9437	-2.9021	-3.15	-2.8771	-3.1271	-3.0458	-2.6521	-2.9688	-2.8896	-2.7917	-3.2854	-2.7667	-3.1146	-3.0021	106.033	311.601	432.818	101.640	144.329	261.852	377.678	443.871	373.381	115.848	372.959	236.382	228.724	343.104	106.590	366.651	0.0012216	0.00050971	5.3729e-05	1321.3	2.616e-06	2.2087e-06	1328	361.31	4.2292e-06	3.745e-06	409.18	137.92	120.17	40.767	3.4798e-06	50.905	0.00018825	0.00018993	5.7916e-05	1289.8	1.9884e-06	2.1112e-06	1296.7	351.72	1.9674e-06	2.1569e-06	389.43	131.77	110.4	39.152	2.2594e-06	48.267	339.470	121.871	245.364	99.627	224.626	173.147	99.442	104.464	243.811	217.861	103.827	108.356	108.967	113.416	297.484	112.285	-8191	255	
6943.166	1	1	0	0	0.21057	0.17283	0.1811	0.21508	0.17077	0.14138	0.037998	0.1142	0.21718	0.19521	0.027586	0.096934	0.20303	0.19167	0.15362	0.13832	-2.1354	-2.9104	-2.8896	-2.7646	-3.0938	-2.6979	-3.075	-3.1937	-2.6833	-3.0208	-2.8458	-2.8708	-2.9896	-2.8125	-2.8	-3.1562	391.316	202.483	194.826	411.889	349.733	185.537	345.642	412.402	133.127	220.318	340.824	97.421	143.937	373.707	341.264	427.669	0.0011771	6.8793e-05	8.9215e-05	1319	3.929e-06	6.865e-06	1327.4	360.82	5.5015e-06	6.0172e-06	412.35	138.35	119.77	40.922	2.2293e-06	50.686	0.0001877	0.00020132	5.6706e-05	1288.3	1.9673e-06	2.2338e-06	1295.6	351.25	1.9807e-06	2.2318e-06	389.01	131.56	110.41	39.299	2.2021e-06	48.169	339.379	433.040	292.809	99.576	201.809	179.160	99.372	104.365	211.663	188.190	103.661	108.353	109.104	113.394	211.826	112.407	-8191	255	
6943.286	1	1	0	0	0.1933	0.26695	0.13937	0.17908	0.10375	0.097632	0.28206	0.12836	0.29	0.21481	0.25094	0.13279	0.22613	0.19782	0.13167	0.31901	-2.3	-2.9583	-2.6833	-2.8479	-3.1813	-2.7333	-2.7333	-3.0646	-2.6417	-2.9167	-2.9188	-2.7271	-3.1396	-2.8229	-2.725	-3.0542	366.287	437.469	314.939	407.371	171.048	123.056	416.126	123.714	96.936	194.498	370.632	421.000	275.853	349.195	385.710	190.245	0.0013548	0.00069788	0.0001008	1318.2	6.8145e-06	1.429e-06	1330	360.02	2.62e-06	2.698e-06	410.42	138.45	119.8	40.842	2.7542e-06	50.516	0.00019222	0.00020973	5.585e-05	1288.3	2.0701e-06	2.3492e-06	1295.4	351.1	2.1071e-06	2.3302e-06	388.46	131.62	110.79	39.284	2.1722e-06	48.068	334.558	117.362	202.802	99.513	181.861	337.797	99.358	104.415	215.837	171.521	103.814	108.463	108.974	113.380	263.496	112.007	-8191	255	
6943.383	1	1	0	0	0.20574	0.28966	0.11648	0.20715	0.20185	0.071981	0.23713	0.30325	0.050239	0.18581	0.10737	0.11402	0.2837	0.24566	0.14225	0.03964	-2.0792	-2.7146	-2.9313	-2.6083	-2.8271	-2.7146	-2.7812	-3.1	-2.725	-2.8979	-2.8333	-2.7375	-2.8604	-2.8208	-2.6604	-3.1146	351.484	134.105	338.479	407.850	341.120	87.421	409.961	427.752	319.282	373.698	116.146	348.320	440.809	431.691	308.599	377.805	0.0012536	0.00017574	9.0604e-06	1323.9	4.1773e-06	2.3011e-06	1327.9	361.22	1.0159e-05	1.5162e-06	408.75	137.92	119.98	40.803	1.2337e-06	50.715	0.0002068	0.00021316	5.4727e-05	1288.8	2.23e-06	2.3355e-06	1294.9	351.39	2.2663e-06	2.2928e-06	388.04	131.51	111.34	39.275	2.1426e-06	48.066	334.456	142.314	221.165	99.531	147.856	182.932	99.520	104.278	249.458	306.176	103.773	108.342	109.098	113.288	352.527	112.333	-8191	255	
6943.454	1	1	0	0	0.13767	0.2598	0.084779	0.25648	0.12488	0.14592	0.27922	0.10949	0.20431	0.38841	0.22719	0.14884	0.24709	0.14897	0.13872	0.028001	-2.1354	-2.6917	-2.9667	-2.6896	-3.0187	-2.7729	-3.0333	-3.1208	-2.7104	-2.8958	-2.9667	-2.5417	-2.9938	-2.825	-2.6437	-3.0333	290.094	152.889	203.180	90.670	295.243	379.108	410.545	366.410	433.943	154.896	229.720	330.508	413.743	283.748	163.879	248.548	0.0012976	0.000179	9.835e-05	1314	8.733e-06	3.3291e-06	1327.8	360.95	7.3497e-06	3.3702e-06	408.64	137.98	120.08	40.762	4.6043e-06	50.806	0.00021783	0.00020595	5.3691e-05	1284.9	2.3183e-06	2.2444e-06	1292.3	351.02	2.3461e-06	2.2125e-06	386.92	131.54	111.35	39.182	2.0576e-06	48.194	338.687	137.999	129.103	99.636	191.922	264.751	99.379	104.398	193.594	193.822	103.706	108.454	109.039	113.122	187.677	112.198	-8191	255	
6943.573	1	1	0	0	0.05588	0.26062	0.22125	0.35915	0.20367	0.065234	0.51065	0.087487	0.094726	0.14048	0.10544	0.23651	0.37662	0.14356	0.19174	0.058172	-2.3271	-2.725	-2.9146	-2.7438	-2.8563	-2.9813	-2.7125	-3.1229	-2.8542	-2.6167	-3.0187	-2.6917	-2.7625	-2.9542	-2.7833	-3.0521	105.453	244.637	393.156	419.354	88.821	374.044	419.429	315.725	354.307	366.461	363.093	394.972	89.563	115.229	317.159	145.184	0.0012643	0.00039382	2.6033e-05	1317.3	1.0943e-06	8.1406e-07	1325.1	360.81	1.6453e-06	2.0765e-06	409.47	137.98	119.62	40.77	1.4852e-06	50.794	0.00021955	0.00019682	5.1277e-05	1286.8	2.3141e-06	2.1282e-06	1290.4	351.19	2.3161e-06	2.0931e-06	386.26	131.64	111.29	39.043	1.9577e-06	48.208	326.115	111.846	442.695	99.579	229.332	187.878	99.462	104.511	240.765	212.746	103.756	108.501	109.179	113.169	187.662	112.466	-8191	255	
6943.669	1	1	0	0	0.30901	0.26738	0.0517	0.2047	0.16449	0.14293	0.24396	0.35221	0.1391	0.15624	0.30693	0.23443	0.30301	0.27695	0.048232	0.12517	-2.275	-2.6708	-2.85	-2.7687	-2.8563	-2.7812	-2.8625	-3.1417	-2.8729	-2.7958	-3.1521	-2.8	-2.875	-2.8438	-2.5875	-3.0687	394.075	149.560	378.108	384.791	392.544	266.080	424.036	94.899	347.229	418.941	345.833	413.927	384.406	419.521	378.304	302.013	0.0010895	0.00053651	0.00014185	1316.6	2.8622e-06	6.5632e-07	1323.9	360.12	6.1779e-06	1.2671e-06	409.77	137.38	119.83	40.87	1.8353e-06	50.6	0.00021519	0.00018925	4.9246e-05	1286.4	2.2517e-06	2.0471e-06	1288.7	351.37	2.2132e-06	2.033e-06	385.84	131.77	110.86	38.988	1.946e-06	48.279	333.252	166.110	197.260	99.400	197.698	362.121	99.505	104.343	257.507	116.197	103.729	108.460	108.877	113.102	141.678	112.423	-8191	255	
6943.765	1	1	0	0	0.042727	0.10623	0.39617	0.35351	0.20654	0.20504	0.18237	0.32133	0.096624	0.13575	0.25417	0.27577	0.085081	0.07355	0.12048	0.24036	-2.3375	-2.6937	-2.9813	-2.9437	-2.8125	-2.8937	-2.8229	-3.0271	-2.8583	-2.5854	-3.0042	-2.8167	-2.8396	-3.175	-2.6188	-2.7625	87.401	290.151	436.081	380.320	232.880	142.474	294.890	421.360	203.374	119.546	116.286	390.295	288.381	426.655	322.158	341.341	0.0012966	0.0004428	9.8778e-05	1319.9	4.0893e-06	6.8724e-06	1318.5	361.41	6.8377e-06	2.9082e-06	410.15	138.55	119.72	40.809	3.1358e-06	50.645	0.00020692	0.00018258	4.9353e-05	1288.3	2.1498e-06	1.9904e-06	1286.9	352.02	2.1373e-06	1.979e-06	386.09	131.96	110.72	38.967	2.0217e-06	48.335	329.989	138.024	152.693	99.621	249.676	183.250	99.402	104.394	203.569	280.682	103.535	108.316	109.000	113.354	180.733	111.989	-8191	255	
6943.862	1	1	0	0	0.15478	0.061767	0.21193	0.3922	0.079524	0.20126	0.16798	0.24718	0.19492	0.34428	0.10331	0.217	0.18965	0.1817	0.23965	0.08953	-2.475	-2.6063	-2.9042	-3.0208	-2.7875	-3.0458	-2.8083	-3.075	-3.0458	-2.7292	-3.0229	-2.8042	-2.7146	-3.2771	-2.7875	-2.9146	363.412	307.215	284.422	418.701	125.840	226.915	379.895	367.921	99.889	204.676	168.977	365.351	317.202	312.788	356.084	312.006	0.0011787	9.7229e-05	9.4283e-05	1317.1	2.1078e-06	2.8048e-06	1322.5	359.54	6.2741e-06	2.5051e-06	410.62	138.29	119.82	40.761	7.3437e-06	50.649	0.00020043	0.00017755	5.1573e-05	1288.1	2.1008e-06	1.9466e-06	1289.3	351.58	2.0854e-06	1.9138e-06	387.69	132.09	110.52	38.961	2.1159e-06	48.291	334.893	429.756	156.641	99.568	247.618	245.778	99.459	104.139	206.134	298.050	103.682	108.297	108.866	113.225	191.705	112.313	-8191	255	
6943.958	1	1	0	0	0.015869	0.089479	0.12366	0.20077	0.32187	0.16372	0.31028	0.23475	0.27645	0.072495	0.095771	0.37175	0.068149	0.057495	0.11161	0.081064	-2.4292	-2.6125	-3.0917	-2.9313	-2.6312	-2.9583	-2.7583	-2.9354	-2.9688	-2.8312	-2.9562	-2.8979	-2.7812	-3.1708	-2.7729	-2.8937	355.938	397.756	304.187	103.767	90.522	313.107	389.297	335.238	362.486	97.865	155.780	351.686	438.960	390.721	130.895	293.067	0.0012157	0.00024416	0.00016694	1316.3	4.2763e-06	3.9842e-06	1322.6	360.54	2.9176e-06	2.4358e-06	408.7	137.82	119.76	40.828	4.2212e-06	50.505	0.00019176	0.00017379	5.3994e-05	1286.7	2.0292e-06	1.8763e-06	1291	351.32	2.0064e-06	1.9124e-06	387.52	131.78	110.21	38.929	2.2187e-06	48.2	335.801	151.824	164.126	99.579	176.975	130.308	99.499	104.416	196.666	222.096	103.691	108.157	108.844	113.217	185.988	112.162	-8191	255	
6944.078	1	1	0	0	0.33388	0.27358	0.10344	0.29872	0.10643	0.21146	0.16309	0.15299	0.24808	0.092483	0.14568	0.18031	0.31085	0.11031	0.13313	0.1462	-2.3146	-2.7104	-2.9458	-2.9208	-2.7333	-3.0375	-3.0667	-3.0021	-2.9062	-2.6875	-3.1958	-3.0771	-2.6688	-3.1042	-2.7062	-2.7896	409.077	97.229	182.275	422.732	142.803	113.353	241.097	409.423	133.318	304.311	424.652	200.114	440.780	273.447	189.508	392.457	0.0011987	0.00034971	4.988e-05	1313.1	2.605e-06	5.2357e-06	1317.6	360.16	4.4037e-06	5.1373e-06	410.18	138.19	119.71	40.588	2.569e-06	50.846	0.00018812	0.00017511	5.6025e-05	1283.4	1.9588e-06	1.9164e-06	1289.6	350.49	1.9332e-06	1.9507e-06	387.82	131.6	110.17	38.926	2.2122e-06	48.114	330.265	142.263	138.408	99.619	178.556	172.085	99.400	104.283	237.289	230.440	103.502	108.404	108.758	113.311	206.559	112.407	-8191	255	
6944.150	1	1	0	0	0.16729	0.18814	0.064459	0.28816	0.19051	0.23462	0.24539	0.25069	0.27754	0.061425	0.08744	0.079245	0.074193	0.062178	0.061334	0.22415	-2.5229	-2.7375	-2.8979	-3.1729	-2.6375	-3.1729	-3.0125	-2.9146	-2.9708	-2.7021	-2.8646	-2.9958	-2.7396	-2.9292	-2.7271	-2.8021	234.787	425.086	163.931	384.541	246.357	121.463	368.236	373.351	365.603	184.878	159.235	407.474	341.899	282.230	242.568	379.640	0.0012229	0.00060397	5.4173e-05	1316.8	3.7718e-06	2.4755e-06	1323.3	360.98	4.0985e-06	3.3422e-06	408.87	137.78	119.32	40.923	5.3173e-06	50.729	0.00018211	0.00018368	5.5419e-05	1282.9	1.8897e-06	2.009e-06	1292.3	350.81	1.8583e-06	2.0375e-06	386.94	131.31	109.74	39.093	2.1225e-06	48.057	332.424	127.781	211.917	99.651	163.094	224.699	99.326	104.447	155.050	196.496	103.648	108.300	109.027	113.241	234.593	112.271	-8191	255	
6944.246	1	1	0	0	0.07476	0.22662	0.19457	0.19865	0.32827	0.15003	0.28685	0.076801	0.084989	0.24277	0.35782	0.27682	0.087119	0.13898	0.27764	0.074497	-2.6437	-2.5896	-2.7667	-3.1375	-2.6229	-2.8208	-2.8917	-3.0021	-3.0479	-2.7771	-2.9833	-2.8708	-2.6042	-2.9646	-2.7771	-2.8625	266.051	227.508	350.143	283.150	419.999	244.905	406.607	439.955	253.032	176.433	409.436	394.124	431.110	180.915	417.247	384.271	0.0012173	0.00019238	5.2195e-05	1314.3	7.3541e-06	3.3617e-06	1322.2	360.72	8.9749e-06	5.8779e-06	409.21	137.93	119.7	40.734	1.3798e-06	50.799	0.00017698	0.00019046	5.2619e-05	1282.8	1.8583e-06	2.0973e-06	1289.2	349.95	1.8604e-06	2.1182e-06	386.22	131.26	109.87	39.152	2.0426e-06	47.995	338.722	102.767	130.187	99.608	192.009	186.749	99.367	104.461	185.957	226.439	103.661	108.310	109.017	113.345	166.016	112.244	-8191	255	
6944.367	1	1	0	0	0.12998	0.12731	0.18429	0.18277	0.046321	0.018804	0.39389	0.25333	0.36228	0.19166	0.17887	0.041573	0.23101	0.10638	0.026881	0.10959	-2.5021	-2.6708	-2.7167	-3.1771	-2.7396	-2.9167	-3.1021	-2.7687	-3.0062	-2.8896	-2.9958	-2.9792	-2.6729	-3.0375	-2.8917	-2.8688	441.787	217.250	400.612	419.189	312.821	220.887	349.101	387.717	367.640	424.739	169.346	418.009	153.902	96.509	163.787	436.721	0.00128	0.00042205	2.9227e-05	1312.6	5.7396e-06	2.7672e-06	1317.5	361.38	7.4548e-06	4.3672e-06	408.53	138.06	120.62	40.86	3.2779e-06	50.723	0.00018033	0.0001971	5.1e-05	1280.1	1.9125e-06	2.1516e-06	1286.2	350.21	1.9518e-06	2.1476e-06	385.59	131.17	110.39	39.201	2.0037e-06	47.926	327.548	158.109	229.980	99.576	198.604	165.913	99.411	104.392	212.863	203.349	103.542	108.321	109.071	113.453	156.939	112.215	-8191	255	
6944.461	1	1	0	0	0.12406	0.077107	0.30872	0.38189	0.038375	0.072761	0.077815	0.20096	0.15546	0.18198	0.11113	0.081424	0.38341	0.04933	0.15737	0.099522	-2.6312	-2.7708	-2.7188	-3.3187	-2.5979	-2.9062	-3.0604	-2.7708	-3.0833	-2.7646	-2.8625	-3.1583	-2.8042	-2.9396	-3.1333	-2.8312	306.673	349.075	256.734	393.908	329.740	245.444	367.988	350.660	438.913	439.052	439.960	372.491	329.705	201.514	404.821	161.466	0.0011866	0.0004089	6.3691e-05	1317.2	5.0017e-06	2.5795e-06	1325.7	360.26	8.8753e-06	1.8559e-06	407.89	138.38	119.93	40.897	3.4476e-06	50.81	0.00019194	0.00019621	4.9962e-05	1281.2	2.0518e-06	2.1417e-06	1287.3	349.44	2.0625e-06	2.1096e-06	385.46	131.18	110.6	39.079	1.9277e-06	47.91	330.881	158.080	261.397	99.619	190.527	181.349	99.559	104.357	188.207	268.376	103.458	108.436	109.136	113.483	188.727	112.037	-8191	255	
6944.557	1	1	0	0	0.12659	0.26596	0.16021	0.32947	0.11495	0.25993	0.23914	0.16962	0.41841	0.048359	0.17942	0.089418	0.088532	0.17839	0.1132	0.13579	-2.5771	-2.6979	-2.7604	-3.1917	-2.7333	-2.75	-3.0708	-2.8063	-3.0167	-2.8688	-2.6333	-3.05	-2.9917	-3.0604	-2.9083	-2.8833	438.659	440.698	438.897	415.617	406.120	326.404	405.139	348.058	339.458	101.208	223.355	396.955	354.861	393.828	234.841	397.461	0.0013339	0.00051818	5.5529e-05	1315.6	5.0517e-06	6.8183e-06	1321.5	360.3	3.799e-06	2.44e-06	410.24	138.03	120.45	40.988	1.183e-06	50.82	0.00019877	0.00018728	4.8284e-05	1279.9	2.1236e-06	2.0281e-06	1285.6	349.44	2.1249e-06	2.0007e-06	384.59	131.11	110.97	39.067	1.8638e-06	47.959	328.838	134.173	234.949	99.732	192.411	219.637	99.356	104.306	241.014	181.670	103.932	108.396	108.769	113.163	137.960	112.092	-8191	255	
#DATA ENDS
