BOXY.EXE: ISS Imagent and Oximeter Data Acquisition Program Version 0.80
Ascii Record File

#ACQ INFORMATION
2  Detector Channels 
16  External MUX Channels 
1  Auxiliary Channels 
5000  Waveform (CCF) Frequency (Hz)
1  Waveforms Skipped 
30  Waveforms Averaged 
1  Cycles Averaged 
16  Acquisitions per Waveform 
10.0806  Updata Rate (Hz) 

#FILE INFORMATION
TRUE -- External MUX Channel results are PARSED.
FALSE -- AC DC and Phase are NOT grouped.
TRUE -- Companion Program Settings File CREATED.
FALSE -- AC data not excluded
FALSE -- DC data not excluded
FALSE -- Phase data not excluded
FALSE -- Auxillary Chn. data not excluded
Tab delimiters

#CALIBRATION STATE
TRUE -- Waveform Calibration Values APPLIED.


#AUX CALIBRATION VALUES
Val Type	aux-1	

Term	1.0000e+00	
Factor	0.0000e+00	


#WF CALIBRATION VALUES
A = Detector Channel
Val Type	A-AC1	A-AC2	A-AC3	A-AC4	A-AC5	A-AC6	A-AC7	A-AC8	A-AC9	A-AC10	A-AC11	A-AC12	A-AC13	A-AC14	A-AC15	A-AC16	A-DC1	A-DC2	A-DC3	A-DC4	A-DC5	A-DC6	A-DC7	A-DC8	A-DC9	A-DC10	A-DC11	A-DC12	A-DC13	A-DC14	A-DC15	A-DC16	A-Ph1	A-Ph2	A-Ph3	A-Ph4	A-Ph5	A-Ph6	A-Ph7	A-Ph8	A-Ph9	A-Ph10	A-Ph11	A-Ph12	A-Ph13	A-Ph14	A-Ph15	A-Ph16	

Term	0.00000e+00	0.00000e+00	0.00000e+00	0.00000e+00	0.00000e+00	0.00000e+00	0.00000e+00	0.00000e+00	0.00000e+00	0.00000e+00	0.00000e+00	0.00000e+00	0.00000e+00	0.00000e+00	0.00000e+00	0.00000e+00	0.00000e+00	0.00000e+00	0.00000e+00	0.00000e+00	0.00000e+00	0.00000e+00	0.00000e+00	0.00000e+00	0.00000e+00	0.00000e+00	0.00000e+00	0.00000e+00	0.00000e+00	0.00000e+00	0.00000e+00	0.00000e+00	0.00000e+00	0.00000e+00	0.00000e+00	0.00000e+00	0.00000e+00	0.00000e+00	0.00000e+00	0.00000e+00	0.00000e+00	0.00000e+00	0.00000e+00	0.00000e+00	0.00000e+00	0.00000e+00	0.00000e+00	0.00000e+00	
Factor	1.00000e+00	1.00000e+00	1.00000e+00	1.00000e+00	1.00000e+00	1.00000e+00	1.00000e+00	1.00000e+00	1.00000e+00	1.00000e+00	1.00000e+00	1.00000e+00	1.00000e+00	1.00000e+00	1.00000e+00	1.00000e+00	1.00000e+00	1.00000e+00	1.00000e+00	1.00000e+00	1.00000e+00	1.00000e+00	1.00000e+00	1.00000e+00	1.00000e+00	1.00000e+00	1.00000e+00	1.00000e+00	1.00000e+00	1.00000e+00	1.00000e+00	1.00000e+00	X	X	X	X	X	X	X	X	X	X	X	X	X	X	X	X	

B = Detector Channel
Val Type	B-AC1	B-AC2	B-AC3	B-AC4	B-AC5	B-AC6	B-AC7	B-AC8	B-AC9	B-AC10	B-AC11	B-AC12	B-AC13	B-AC14	B-AC15	B-AC16	B-DC1	B-DC2	B-DC3	B-DC4	B-DC5	B-DC6	B-DC7	B-DC8	B-DC9	B-DC10	B-DC11	B-DC12	B-DC13	B-DC14	B-DC15	B-DC16	B-Ph1	B-Ph2	B-Ph3	B-Ph4	B-Ph5	B-Ph6	B-Ph7	B-Ph8	B-Ph9	B-Ph10	B-Ph11	B-Ph12	B-Ph13	B-Ph14	B-Ph15	B-Ph16	

Term	0.00000e+00	0.00000e+00	0.00000e+00	0.00000e+00	0.00000e+00	0.00000e+00	0.00000e+00	0.00000e+00	0.00000e+00	0.00000e+00	0.00000e+00	0.00000e+00	0.00000e+00	0.00000e+00	0.00000e+00	0.00000e+00	0.00000e+00	0.00000e+00	0.00000e+00	0.00000e+00	0.00000e+00	0.00000e+00	0.00000e+00	0.00000e+00	0.00000e+00	0.00000e+00	0.00000e+00	0.00000e+00	0.00000e+00	0.00000e+00	0.00000e+00	0.00000e+00	-5.24022e+01	-1.64169e+02	-9.76990e+01	-1.80969e+02	-5.66720e+01	-9.77327e+01	-1.56073e+02	-1.62015e+02	-2.91745e+01	-6.44927e+01	-1.73276e+02	-1.70265e+02	-1.82009e+02	-1.76771e+02	-6.96488e+01	-1.50163e+02	
Factor	1.86859e-05	9.78118e-05	2.79070e-05	1.67683e-01	9.76611e-07	1.10387e-06	1.73110e-01	5.09591e-02	1.07639e-06	1.05178e-06	1.04153e-01	2.91335e-02	3.50756e-02	9.31146e-03	9.58455e-07	1.36155e-02	6.11716e-07	6.27859e-07	1.75053e-07	7.79073e-02	6.84918e-09	6.89061e-09	7.55109e-02	2.36384e-02	6.84905e-09	6.88618e-09	4.50172e-02	1.28399e-02	1.55609e-02	4.22386e-03	6.88738e-09	5.88561e-03	X	X	X	X	X	X	X	X	X	X	X	X	X	X	X	X	



#DISTANCE SETTINGS
A = Detector Channel
A-1	A-2	A-3	A-4	A-5	A-6	A-7	A-8	A-9	A-10	A-11	A-12	A-13	A-14	A-15	A-16	

2.5000e+00	3.0000e+00	2.5000e+00	3.0000e+00	2.0000e+00	3.0000e+00	1.5000e+00	3.0000e+00	3.0000e+00	3.0000e+00	3.0000e+00	3.0000e+00	3.0000e+00	3.0000e+00	1.5000e+00	3.0000e+00	

B = Detector Channel
B-1	B-2	B-3	B-4	B-5	B-6	B-7	B-8	B-9	B-10	B-11	B-12	B-13	B-14	B-15	B-16	

1.0000e+01	1.0000e+01	1.0000e+01	1.4400e+00	1.0000e+01	1.0000e+01	1.5100e+00	1.9400e+00	1.0000e+01	1.0000e+01	1.9900e+00	2.4900e+00	2.4100e+00	2.9000e+00	1.0000e+01	2.9800e+00	




#DATA BEGINS
time	group	step	mark	flag	A-AC1	A-AC2	A-AC3	A-AC4	A-AC5	A-AC6	A-AC7	A-AC8	A-AC9	A-AC10	A-AC11	A-AC12	A-AC13	A-AC14	A-AC15	A-AC16	A-DC1	A-DC2	A-DC3	A-DC4	A-DC5	A-DC6	A-DC7	A-DC8	A-DC9	A-DC10	A-DC11	A-DC12	A-DC13	A-DC14	A-DC15	A-DC16	A-Ph1	A-Ph2	A-Ph3	A-Ph4	A-Ph5	A-Ph6	A-Ph7	A-Ph8	A-Ph9	A-Ph10	A-Ph11	A-Ph12	A-Ph13	A-Ph14	A-Ph15	A-Ph16	B-AC1	B-AC2	B-AC3	B-AC4	B-AC5	B-AC6	B-AC7	B-AC8	B-AC9	B-AC10	B-AC11	B-AC12	B-AC13	B-AC14	B-AC15	B-AC16	B-DC1	B-DC2	B-DC3	B-DC4	B-DC5	B-DC6	B-DC7	B-DC8	B-DC9	B-DC10	B-DC11	B-DC12	B-DC13	B-DC14	B-DC15	B-DC16	B-Ph1	B-Ph2	B-Ph3	B-Ph4	B-Ph5	B-Ph6	B-Ph7	B-Ph8	B-Ph9	B-Ph10	B-Ph11	B-Ph12	B-Ph13	B-Ph14	B-Ph15	B-Ph16	aux-1	digaux	

2402.085	1	1	0	256	0.33065	0.23513	0.25068	0.28446	0.10263	0.13604	0.18906	0.078293	0.13778	0.13792	0.099368	0.18698	0.047989	0.094464	0.14509	0.028736	-2.2958	-2.9167	-2.9688	-2.6354	-3.0542	-2.7917	-2.6229	-3.2479	-2.5938	-2.9146	-3.1312	-2.5833	-2.9938	-3.1375	-2.725	-2.9167	-41.807	-47.187	23.537	-87.745	100.720	-54.278	118.220	47.885	-9.058	138.810	84.169	-103.704	165.936	74.065	-128.656	-86.120	0.00048499	0.00039118	0.00012492	406.99	6.964e-07	4.7576e-06	722.88	147.03	2.9411e-06	7.314e-06	286.27	126.07	70.448	38.317	5.4428e-06	65.607	0.000184	0.00020408	5.0661e-05	394.69	1.9479e-06	2.2362e-06	685.42	141.34	2.0049e-06	2.2125e-06	266.54	116.74	66.863	36.183	1.9402e-06	59.88	-94.206	-114.397	-45.357	-133.922	-143.347	-36.583	-135.503	-128.397	-137.267	27.058	-131.480	-127.375	-124.456	-118.864	-22.637	-122.948	-8191	255	
2402.203	1	1	0	0	0.30492	0.064178	0.20436	0.12518	0.14168	0.21006	0.23142	0.22778	0.14635	0.009466	0.26211	0.064846	0.16094	0.11627	0.083539	0.26412	-2.2208	-2.7271	-2.9479	-2.775	-2.9542	-2.7146	-2.7875	-3.2313	-2.7188	-2.7771	-3.0854	-2.4833	-2.9333	-2.8208	-2.6937	-3.0771	96.435	149.533	54.631	168.416	-92.483	88.332	133.423	179.302	-57.629	-4.981	105.138	5.538	133.055	127.711	-20.477	158.278	0.00051158	0.00056924	0.00012201	402.69	3.4988e-06	7.8449e-06	711.94	143.79	5.1299e-06	7.022e-06	282.39	123.64	70.383	38.277	1.8434e-06	65.274	0.00019873	0.0001978	4.8932e-05	389.74	2.1261e-06	2.1339e-06	675.91	138.76	2.1397e-06	2.0785e-06	262.64	115.17	66.839	36.138	1.8547e-06	59.68	-94.121	-100.653	6.792	-134.116	-73.056	-0.466	-135.257	-128.203	-11.161	13.341	-131.417	-127.353	-124.763	-118.830	-1.391	-122.824	-8191	255	
2402.300	1	1	0	0	0.19512	0.061988	0.042563	0.17659	0.12742	0.11787	0.34255	0.075354	0.31931	0.24944	0.17776	0.17589	0.22375	0.19583	0.23978	0.29067	-2.4	-2.5458	-2.975	-2.7021	-2.8542	-2.9208	-2.5875	-2.9292	-2.9042	-2.5271	-3.3271	-2.5583	-2.8063	-2.9125	-2.5312	-3.3146	-90.842	-101.545	173.740	166.049	207.874	-12.653	197.054	-5.608	24.083	25.905	84.090	-115.127	-81.088	-134.864	192.717	111.548	0.00058431	0.00062616	6.2417e-05	403.09	2.8028e-06	7.2046e-06	715.95	145.67	5.4793e-06	1.8802e-06	289.08	125.66	71.894	39.29	1.4972e-06	67.081	0.00020811	0.00018469	4.6688e-05	391.21	2.2038e-06	2.014e-06	680.16	140.82	2.2139e-06	1.9919e-06	267.01	117.6	68.295	36.952	1.8043e-06	61.301	-93.117	-110.818	54.354	-133.908	-4.933	-51.586	-135.447	-128.313	-28.653	-7.599	-131.351	-127.152	-124.552	-118.852	-30.407	-122.926	-8191	255	
2402.371	1	1	0	0	0.23143	0.097094	0.21569	0.18488	0.11513	0.098329	0.16503	0.076931	0.071098	0.11306	0.1186	0.39105	0.19878	0.13127	0.070103	0.11719	-2.45	-2.45	-3.1833	-2.4833	-2.7458	-3.0438	-2.4854	-3.1583	-2.8729	-2.3792	-3.1979	-2.8	-2.8167	-3.0062	-2.6375	-3.0229	172.709	12.281	81.263	104.841	64.851	-38.918	149.362	101.583	-33.236	-73.027	136.944	160.588	-62.052	48.242	170.050	147.593	0.00045744	0.00051712	0.00010806	409.64	6.1831e-06	1.6649e-06	727.04	149.15	4.0781e-06	3.2284e-06	293.54	127.52	72.648	39.887	3.2793e-06	67.729	0.00021017	0.00017683	4.5157e-05	399.7	2.1722e-06	1.9165e-06	690.18	144.38	2.1595e-06	1.9027e-06	270.82	119.57	68.961	37.437	1.7864e-06	62.03	-81.161	-92.568	-23.098	-133.989	43.146	-2.679	-135.441	-128.429	116.040	23.905	-131.341	-127.324	-124.769	-118.835	-70.533	-123.021	-8191	255	
2402.492	1	1	0	0	0.14585	0.11348	0.22191	0.079026	0.1646	0.12646	0.16377	0.17976	0.13664	0.25139	0.21016	0.2582	0.2168	0.060296	0.22357	0.020245	-2.3312	-2.7417	-2.9271	-2.6771	-2.8604	-3.2417	-2.5312	-2.8917	-3.0146	-2.6979	-3.2958	-3.0625	-2.7917	-3.0271	-2.6417	-3.0042	137.315	99.138	-114.746	177.627	169.566	163.274	-141.101	-81.774	166.195	63.574	18.633	145.318	-124.820	11.977	-41.092	43.081	0.00045175	0.00049623	0.00011753	412.4	3.5081e-06	1.6537e-06	726.24	147.69	4.8547e-06	2.8596e-06	292.01	128.15	72.499	39.508	1.9048e-06	67.229	0.00020202	0.00017066	4.5857e-05	403.12	2.0787e-06	1.8623e-06	689.61	144.42	2.0461e-06	1.862e-06	270.4	119.78	68.344	37.095	1.8965e-06	61.83	-87.234	-110.309	1.315	-134.063	20.326	-112.816	-135.384	-128.242	48.447	-8.871	-131.337	-127.486	-124.520	-118.846	33.705	-122.920	-8191	255	
2402.588	1	1	0	0	0.11458	0.099962	0.20216	0.22039	0.17363	0.052231	0.29758	0.12808	0.22761	0.21369	0.11349	0.13004	0.038866	0.14286	0.3213	0.075523	-2.7062	-2.5771	-2.9604	-2.9229	-2.5604	-3.1229	-2.7792	-3.0042	-3.0958	-2.5604	-3.0917	-2.9083	-2.6813	-3.3458	-2.7583	-3.0583	49.037	-95.815	-117.342	-127.229	7.822	-60.490	102.069	161.157	34.442	-144.380	-128.089	155.249	159.790	-134.191	2.144	162.625	0.00053978	0.0005597	6.2727e-05	410.04	4.8888e-06	6.951e-07	723.61	146.06	4.9201e-06	2.0262e-06	289.18	125.54	70.762	38.663	1.6901e-06	66.168	0.00019118	0.00016538	4.8972e-05	402.95	1.9613e-06	1.8075e-06	688.67	142.66	1.9339e-06	1.7726e-06	267.82	117.66	66.797	36.285	2.0315e-06	60.614	-77.057	-61.079	-140.923	-133.937	53.535	-24.650	-135.450	-128.385	-16.125	68.468	-131.305	-127.373	-124.967	-118.899	-90.565	-122.868	-8191	255	
2402.684	1	1	0	0	0.2213	0.31871	0.15218	0.22062	0.24971	0.076278	0.2725	0.31248	0.06533	0.16675	0.18731	0.22983	0.1515	0.33557	0.10474	0.068377	-2.7167	-2.625	-2.9021	-2.7708	-2.7562	-3.2521	-2.7854	-2.8833	-3.1646	-2.6229	-3.2396	-3.1542	-2.6604	-3.3187	-2.6729	-2.9375	58.620	-54.761	174.632	-83.207	-75.131	202.598	199.101	92.814	176.295	181.021	183.237	199.678	184.349	207.503	79.277	-43.515	0.00052018	0.00068049	0.00010649	405.06	1.0427e-06	2.8475e-06	718.43	145.53	3.8765e-06	1.7442e-06	287.92	125.67	71.605	39.131	3.582e-06	66.464	0.00018151	0.00015982	5.2548e-05	395.81	1.8913e-06	1.7634e-06	685.61	141.17	1.859e-06	1.7669e-06	268.87	117.59	67.164	36.686	2.1671e-06	60.896	-88.702	-135.527	200.413	-133.934	83.308	-16.922	-135.816	-128.041	42.161	-107.105	-131.530	-127.370	-124.411	-118.919	-61.686	-123.098	-8191	255	
2402.780	1	1	0	0	0.032207	0.23792	0.18565	0.10569	0.092998	0.10942	0.040875	0.23889	0.24987	0.24419	0.13235	0.14836	0.14191	0.064862	0.25357	0.13194	-2.8854	-2.4	-2.8146	-3.1792	-2.5229	-3.1021	-2.9313	-2.6646	-3.2333	-2.525	-2.9521	-3.0479	-2.4688	-3.2083	-2.9813	-2.825	-141.238	-1.980	-35.175	-96.762	63.271	-133.782	-15.092	-139.267	-131.566	15.132	138.847	125.168	169.136	16.167	48.725	173.761	0.00053841	0.00026239	9.992e-06	406.71	2.8428e-06	4.4847e-06	730.02	150.69	2.2508e-06	4.181e-06	294.67	129.09	73.956	40.142	2.8263e-06	67.83	0.00017682	0.00016539	5.5686e-05	398.96	1.8153e-06	1.8396e-06	694.32	145.04	1.789e-06	1.8793e-06	276.15	120.52	69.289	37.752	2.2005e-06	62.072	-83.425	-81.297	123.111	-134.180	-30.898	68.128	-135.538	-127.948	-36.398	11.125	-131.588	-127.270	-124.164	-119.063	-49.388	-122.728	-8191	255	
2402.877	1	1	0	0	0.098752	0.18357	0.05096	0.12349	0.050957	0.050601	0.30713	0.15444	0.1073	0.13986	0.21032	0.042444	0.22896	0.2839	0.17989	0.13687	-2.8229	-2.5563	-2.5792	-3.0604	-2.7083	-2.975	-2.9458	-2.7875	-3.2062	-2.6958	-2.9896	-3.0729	-2.6208	-3.1042	-2.8792	-2.9396	-132.676	35.135	13.664	-132.962	-20.580	-106.873	127.951	130.131	-55.421	-19.857	53.236	-33.692	95.749	151.654	115.570	185.716	0.00050079	0.0001287	2.459e-05	410.58	3.6021e-06	8.6847e-07	730.66	151.33	2.0221e-06	3.0643e-06	296.94	129.38	74.089	39.82	6.6401e-06	67.081	0.00016954	0.00017871	5.5156e-05	399.17	1.7496e-06	2.012e-06	696.1	146.02	1.7114e-06	2.0462e-06	276.13	120.2	69.021	37.568	2.0832e-06	61.4	-91.593	190.072	-27.621	-133.850	83.995	98.896	-135.507	-128.484	49.509	172.227	-131.415	-127.416	-124.477	-118.821	-40.143	-122.658	-8191	255	
2402.973	1	1	0	0	0.1051	0.1101	0.1227	0.074976	0.25958	0.08086	0.039843	0.11431	0.04032	0.22232	0.077129	0.16725	0.3226	0.27873	0.19086	0.41914	-2.7417	-2.6729	-2.8708	-2.8854	-2.6917	-3.1417	-3.0771	-2.8646	-3.2	-2.9396	-3.0875	-3.0458	-2.6333	-3.0146	-2.9896	-2.6937	-63.577	138.549	116.058	148.694	-62.098	68.223	118.748	189.804	-113.519	-80.647	-72.077	183.297	170.174	-126.894	178.961	151.425	0.00048255	0.00020013	0.00011522	410.36	2.06e-06	2.4247e-07	731.98	151.69	7.0047e-07	4.9745e-07	297.83	130.81	74.348	39.737	5.4655e-06	67.487	0.00016795	0.00019344	5.2115e-05	397.97	1.7431e-06	2.1597e-06	694.11	146.01	1.7808e-06	2.1609e-06	276.7	121.34	69.473	37.503	1.9689e-06	61.555	-79.725	171.398	-40.824	-134.256	24.624	62.680	-135.138	-128.293	5.322	-41.422	-131.426	-127.455	-124.646	-119.019	-1.582	-122.916	-8191	255	
2403.067	1	1	0	0	0.15656	0.19857	0.29704	0.25694	0.1787	0.10954	0.31572	0.16262	0.2421	0.076146	0.36957	0.15473	0.17323	0.37235	0.27932	0.11553	-2.6208	-2.7104	-2.6958	-3.0938	-2.7125	-2.9125	-3.2687	-2.5333	-3.0354	-2.9875	-2.6021	-3.1229	-2.8438	-2.7687	-3.1958	-2.8	0.531	-70.220	-143.964	157.959	-17.176	-142.041	162.796	161.509	-140.753	-56.262	142.186	79.056	108.350	191.055	135.831	133.924	0.00055669	7.8887e-05	0.00012143	410.44	1.6858e-06	5.6004e-06	730.42	150.14	9.9552e-07	3.4146e-06	293.54	128.32	72.266	38.341	4.0283e-06	65.808	0.0001782	0.00020037	4.8735e-05	396.93	1.8747e-06	2.1627e-06	691.66	144.2	1.9318e-06	2.1597e-06	272.25	119.31	68.41	36.337	1.9046e-06	60.035	-86.478	88.661	-33.477	-133.899	-54.074	-30.448	-135.652	-128.267	21.216	93.388	-131.430	-127.516	-124.757	-118.720	31.876	-122.349	-8191	255	
2403.165	1	1	0	0	0.20242	0.11966	0.076758	0.18801	0.23973	0.19541	0.33399	0.28636	0.13513	0.29549	0.371	0.21248	0.052517	0.072895	0.2203	0.17813	-2.6021	-2.9104	-2.5333	-3.1167	-2.8812	-2.7958	-3.0542	-2.7625	-3.1083	-2.7604	-2.65	-3.1521	-2.6458	-2.8958	-3.1083	-2.8854	-49.563	-111.475	203.467	171.386	-0.865	66.425	162.147	125.356	-99.661	176.625	197.283	184.913	-90.118	-70.886	127.513	-133.984	0.00053179	0.00012486	0.00012984	409.5	2.1639e-06	3.8845e-06	727.33	149.46	2.0606e-06	2.626e-06	296.23	130.15	73.708	39.345	3.6137e-06	66.998	0.00019262	0.00019223	4.7638e-05	395.77	2.0472e-06	2.096e-06	692.45	144.34	2.1097e-06	2.0838e-06	273.85	120.9	69.854	37.108	1.8376e-06	61.351	-84.166	10.339	31.517	-134.035	-76.517	-13.766	-135.570	-128.267	-82.822	4.157	-131.526	-127.421	-124.962	-118.594	93.911	-122.730	-8191	255	
2403.284	1	1	0	0	0.077913	0.12323	0.073416	0.14597	0.22905	0.2773	0.1885	0.31203	0.11609	0.029711	0.095954	0.16511	0.20292	0.036948	0.071705	0.11873	-2.4875	-2.7438	-2.6021	-3.0521	-2.8625	-2.9375	-3.0958	-2.7104	-3.0542	-2.9021	-2.6375	-3.0292	-2.8063	-2.9688	-3.1854	-2.7604	-33.871	48.485	-64.371	11.393	84.725	209.651	111.617	195.784	115.491	66.853	-40.570	60.273	200.364	16.759	88.434	-81.610	0.00056926	0.0005408	0.00010853	414.97	1.5437e-06	5.4055e-06	736.4	153.15	1.9128e-06	5.6769e-06	299.05	130.37	73.873	39.503	1.9382e-06	66.615	0.0002069	0.00018484	4.7066e-05	402.29	2.194e-06	2.009e-06	698.6	147.58	2.2174e-06	1.9705e-06	276.03	121.64	70.32	37.209	1.7939e-06	61.268	-85.189	-55.597	-40.519	-134.154	84.296	4.691	-135.376	-128.079	103.948	4.094	-131.538	-127.442	-124.671	-118.584	-82.214	-122.556	-8191	255	
2403.380	1	1	0	0	0.17039	0.10008	0.11242	0.10348	0.118	0.21609	0.26225	0.12159	0.20761	0.14093	0.045355	0.12233	0.17741	0.28281	0.27683	0.23246	-2.4958	-2.9062	-2.5979	-3.1021	-2.6708	-2.7625	-3.1937	-2.775	-2.7958	-2.9417	-2.6208	-3.1521	-2.9042	-2.725	-3.3854	-2.8417	106.148	-53.100	39.630	58.023	154.253	171.832	157.604	166.273	-43.211	17.170	168.063	39.759	-115.468	-104.233	20.433	11.242	0.0005202	0.00027351	8.1508e-05	410.04	6.8297e-06	3.7546e-06	731.68	150.26	2.7935e-06	4.3795e-06	296.29	129.21	73.25	39.253	1.2287e-06	66.96	0.0002074	0.00017825	4.485e-05	401.02	2.1662e-06	1.9134e-06	693.64	145.38	2.1303e-06	1.878e-06	273.02	120.87	69.412	36.845	1.76e-06	61.542	-79.121	-116.426	-17.576	-134.248	41.126	-44.323	-135.513	-128.125	-5.836	20.143	-131.642	-127.313	-124.722	-118.845	29.012	-122.941	-8191	255	
2403.476	1	1	0	0	0.053331	0.061518	0.15861	0.37034	0.16614	0.21284	0.16241	0.21532	0.29967	0.11484	0.23619	0.023878	0.27622	0.29023	0.011772	0.19745	-2.5646	-2.9229	-2.6479	-3.1125	-2.9125	-2.725	-3.2271	-2.6271	-2.8167	-3.1833	-2.9667	-2.9437	-2.7521	-2.7938	-3.1104	-2.975	172.219	133.011	-136.218	176.373	84.731	191.558	129.069	-122.247	49.078	54.797	105.199	205.586	63.102	185.137	33.321	137.299	0.00044822	0.00038902	3.4288e-05	412.94	1.4102e-06	2.318e-06	736.8	151.88	4.5135e-06	4.3204e-06	299.32	131.36	73.865	39.467	5.0197e-06	66.924	0.00019838	0.00016945	4.4804e-05	403.8	2.0806e-06	1.8795e-06	698.09	147.88	2.0726e-06	1.8638e-06	276.4	122.59	69.664	36.952	1.8782e-06	61.455	-89.907	-116.352	-68.930	-134.109	61.332	4.641	-135.150	-128.320	48.405	-16.440	-131.682	-127.370	-124.868	-118.765	-63.794	-122.839	-8191	255	
2403.572	1	1	0	0	0.15798	0.16723	0.07021	0.11747	0.053253	0.14843	0.051467	0.19982	0.13681	0.067893	0.11808	0.031942	0.17654	0.21809	0.18538	0.071205	-2.3021	-3.2292	-2.55	-2.9583	-2.95	-2.6292	-3.0312	-2.9437	-2.6937	-3.1354	-2.8833	-2.8083	-3.1229	-2.7604	-2.8812	-2.8396	203.438	213.752	-4.975	132.862	-120.451	204.440	145.621	11.914	133.281	-124.900	41.183	-71.340	-122.732	113.838	-81.916	-117.764	0.00051158	0.00035738	7.2179e-05	409.96	1.733e-06	2.7673e-06	728.51	148.81	1.0998e-06	2.7687e-06	293.95	127.52	72.492	38.813	1.5423e-06	66.076	0.00018862	0.00016701	4.8351e-05	401.87	1.9709e-06	1.7842e-06	691.13	145.16	1.9563e-06	1.7734e-06	272.6	119.75	68.148	36.36	2.025e-06	60.759	-73.554	-117.854	-70.659	-134.219	3.187	-32.356	-135.308	-128.108	5.259	51.915	-131.426	-127.327	-124.833	-118.838	-73.867	-122.694	-8191	255	
2403.668	1	1	0	0	0.39664	0.12604	0.12567	0.051896	0.16736	0.14429	0.25441	0.17852	0.057535	0.12584	0.064355	0.35323	0.13652	0.10632	0.14703	0.065543	-2.1063	-2.9771	-2.4938	-2.8271	-2.875	-2.6958	-3.1792	-2.8896	-2.8458	-2.9875	-2.8167	-2.9708	-2.95	-2.9146	-2.9479	-2.9104	145.329	163.316	-24.180	-5.942	-44.754	117.240	197.312	78.575	175.464	98.350	-37.296	-105.012	-102.779	-88.453	121.885	204.800	0.00050119	0.00043372	8.4652e-05	410.06	3.1567e-06	3.2e-06	733.14	151.37	3.364e-06	8.9264e-07	297.56	130.49	74.264	39.432	1.9993e-06	67.43	0.00018173	0.00016003	5.1884e-05	401.24	1.8852e-06	1.7588e-06	697.44	147.29	1.8602e-06	1.7612e-06	278.24	122.17	69.772	37.04	2.1749e-06	61.815	-85.213	-107.254	-88.350	-133.694	47.786	-63.510	-135.481	-128.145	-21.739	17.871	-131.194	-127.126	-124.829	-118.535	-18.739	-122.310	-8191	255	
2403.765	1	1	0	0	0.14173	0.096946	0.11917	0.18209	0.20973	0.16384	0.1522	0.15455	0.053765	0.031381	0.061169	0.18237	0.25551	0.097215	0.17666	0.12621	-2.3688	-2.9458	-2.8063	-2.9271	-3.1042	-2.6958	-3.225	-3.0667	-2.7687	-3.2083	-2.9208	-2.7417	-3.0604	-2.8125	-2.875	-3.1646	-133.776	128.710	-14.222	58.775	-136.601	-87.168	-145.782	124.955	97.956	29.038	-1.027	-103.439	203.521	-38.715	188.775	161.392	0.00046135	0.00058222	0.00020504	415.46	2.9356e-06	6.8737e-06	740.73	153.39	2.7904e-06	3.0079e-06	302.08	131.7	74.676	39.701	3.7209e-06	67.465	0.0001769	0.00016565	5.5774e-05	405.2	1.8322e-06	1.8252e-06	704.02	148.18	1.8349e-06	1.868e-06	280.75	122.62	69.874	37.223	2.2214e-06	61.723	-87.207	-95.658	-71.485	-133.790	-18.102	-101.658	-135.542	-128.221	-38.838	-20.490	-131.500	-127.255	-124.676	-118.801	30.988	-122.877	-8191	255	
2403.885	1	1	0	0	0.32442	0.090169	0.27052	0.2006	0.10808	0.069834	0.29698	0.064303	0.076921	0.18079	0.092884	0.096186	0.10168	0.16729	0.14787	0.10611	-1.9167	-3.0187	-2.8625	-2.7021	-3.1854	-2.8646	-2.9271	-3.0542	-2.5521	-3.0875	-3.0979	-2.8396	-2.9833	-2.8958	-2.6646	-3.1354	-104.141	-6.173	168.208	136.019	99.618	68.565	151.047	111.241	193.117	6.552	138.000	43.922	103.631	102.804	-96.721	163.291	0.00052839	0.00058247	0.00020652	414.18	3.7951e-06	1.4367e-06	737.36	151.81	2.1487e-06	3.5016e-07	298.87	130.31	74.054	39.152	4.8387e-06	67.271	0.0001711	0.00017952	5.6692e-05	402.26	1.7939e-06	2.0028e-06	702.61	146.5	1.785e-06	2.0538e-06	278.57	121.81	69.306	36.996	2.1316e-06	61.398	-89.387	-104.951	-10.722	-134.028	16.037	211.964	-135.488	-128.223	210.952	185.524	-130.957	-127.371	-124.647	-118.777	51.077	-122.792	-8191	255	
2403.981	1	1	0	0	0.14737	0.049837	0.070851	0.1641	0.07775	0.12307	0.34239	0.10351	0.013328	0.23883	0.14204	0.10799	0.11983	0.26729	0.18163	0.13985	-2.3667	-2.9521	-2.9417	-2.8604	-3.2458	-2.8896	-2.8312	-3.2313	-2.6625	-3.0708	-3.1937	-2.6813	-3.1188	-3.0708	-2.9521	-3.0542	-54.901	15.199	17.128	-140.432	-88.206	115.642	131.885	19.714	-54.959	-39.992	126.443	197.705	199.052	201.508	135.433	186.403	0.00050772	0.00036456	0.00022434	412.23	1.4081e-06	4.2848e-06	733.15	148.59	2.3188e-06	1.5403e-06	293.56	128.12	72.088	38.219	4.8305e-06	65.492	0.00017038	0.00019467	5.4233e-05	399.73	1.7674e-06	2.1699e-06	697.76	143.9	1.8076e-06	2.1991e-06	273.56	119.3	67.704	36.064	2.0223e-06	59.92	-81.083	-136.624	-11.491	-133.589	-107.268	-71.978	-135.493	-128.052	111.084	-104.853	-131.442	-127.218	-124.758	-118.663	41.586	-122.709	-8191	255	
2404.076	1	1	0	0	0.14599	0.19401	0.27988	0.062903	0.19607	0.18066	0.081646	0.086701	0.21963	0.12743	0.10918	0.099507	0.14409	0.16472	0.021973	0.10173	-2.2833	-3.1292	-2.9188	-2.7646	-3.4292	-3.1312	-3.2083	-3.3833	-3.0187	-3.2812	-3.4313	-2.8187	-3.4917	-3.05	-3.2583	-3.4625	107.529	169.864	101.809	22.978	66.019	27.705	-87.792	55.571	-129.675	179.267	29.407	178.292	68.819	49.209	199.649	160.660	0.00053104	0.0003757	0.00016533	406.53	1.9209e-06	1.604e-06	726.03	146.85	1.7668e-06	4.5782e-06	291.51	126.39	71.769	37.698	4.5773e-06	65.557	0.00017937	0.00020193	5.0064e-05	393.31	1.906e-06	2.237e-06	688.58	141.93	1.9582e-06	2.2193e-06	270.5	117.86	67.736	35.753	1.9502e-06	59.847	-86.413	-87.372	-31.611	-134.295	-105.129	-44.143	-135.561	-127.854	43.684	-2.901	-131.269	-127.526	-124.469	-118.393	-66.178	-122.617	-8191	255	
2404.172	1	1	0	0	0.25053	0.090706	0.22168	0.10212	0.060754	0.052108	0.076083	0.15474	0.026392	0.12645	0.10758	0.068438	0.10879	0.31588	0.065641	0.15877	-2.8021	-3.0854	-3.375	-2.8563	-3.1354	-3.2583	-3.0083	-3.5312	-3.2229	-2.9458	-3.2792	-2.9208	-3.3063	-3.2979	-2.8896	-3.3771	-117.338	-45.266	83.987	147.686	104.428	-79.345	-139.653	156.375	-118.166	54.089	-20.916	58.492	206.426	179.634	38.641	89.020	0.00056551	0.00041033	9.4753e-05	410.53	2.0649e-06	4.347e-06	728.95	148.94	2.9672e-07	4.3558e-06	295.53	128.21	72.127	38.499	2.6231e-06	66.329	0.00019971	0.00020237	5.0045e-05	396.96	2.1387e-06	2.2208e-06	693.99	143.33	2.2013e-06	2.2e-06	272.97	119.11	68.658	36.239	1.9402e-06	60.552	-87.196	-94.810	-46.397	-134.258	45.820	-60.710	-135.445	-128.023	116.799	-38.883	-131.233	-127.354	-124.568	-118.533	-57.774	-122.681	-8191	255	
2404.268	1	1	0	0	0.14948	0.052536	0.080047	0.1617	0.086587	0.15841	0.015187	0.24449	0.2316	0.081584	0.029003	0.086738	0.21461	0.25725	0.11742	0.065834	-2.6125	-3.1146	-3.4875	-2.9938	-3.3	-3.3875	-3.0708	-3.3417	-3.2396	-2.9354	-3.4021	-3.0167	-3.2396	-3.2938	-2.8854	-3.4771	-142.504	141.417	208.183	-133.303	-63.887	80.309	86.375	194.848	165.620	-63.019	-94.238	-26.351	76.221	-137.094	-31.479	-105.285	0.0004678	0.00037087	7.7951e-05	407.01	1.8145e-06	1.2853e-06	723.2	145.92	2.46e-06	4.1591e-06	291.99	125.2	70.652	36.852	2.6224e-06	64.451	0.00021548	0.00019374	4.9374e-05	395.15	2.3005e-06	2.1103e-06	688.84	141.79	2.3177e-06	2.0824e-06	268.67	117.23	67.384	34.88	1.8623e-06	59.025	-88.191	-100.098	16.178	-134.177	128.455	-1.794	-135.006	-128.198	-59.723	13.550	-131.032	-127.164	-124.439	-118.471	-18.180	-122.895	-8191	255	
2404.364	1	1	0	0	0.10173	0.23814	0.13485	0.23309	0.1905	0.14723	0.25858	0.13485	0.096901	0.063387	0.10899	0.13668	0.13005	0.10594	0.20098	0.21086	-2.5396	-3.1396	-3.1979	-3.1688	-3.0312	-3.3417	-3.0187	-3.175	-3.0083	-3.0042	-3.5229	-2.8396	-3.2104	-3.1896	-2.9146	-3.4646	42.177	-32.183	163.184	-142.457	-34.957	-31.904	195.146	135.499	63.248	30.051	174.092	98.016	-24.102	188.532	159.879	157.668	0.00045877	0.0005794	0.00012745	402.13	2.3513e-06	5.6748e-06	723.88	145.78	2.3238e-06	5.6342e-06	288.36	126.01	69.554	36.237	6.2696e-06	63.82	0.00021656	0.00018569	4.7521e-05	394.18	2.2895e-06	2.0266e-06	686.3	141.48	2.2824e-06	2.0142e-06	266.78	117.7	66.887	34.298	1.8902e-06	58.864	-80.500	-78.665	-57.012	-134.141	-83.643	20.043	-135.575	-127.868	11.982	4.940	-131.375	-127.353	-124.975	-118.399	-13.157	-122.377	-8191	255	
2404.460	1	1	0	0	0.24092	0.1314	0.24578	0.22347	0.19643	0.29369	0.14313	0.19493	0.11846	0.047799	0.22447	0.016635	0.20177	0.12434	0.12673	0.24404	-2.7687	-3.0854	-3.2938	-3.175	-3.0771	-3.3187	-2.9208	-3.1917	-3.3688	-2.9875	-3.2604	-3.2854	-2.9646	-3.2958	-2.8792	-3.2292	203.370	-21.931	-50.592	-125.999	21.346	-5.941	167.041	199.029	-65.274	-23.141	203.115	31.223	120.450	164.830	-11.884	189.459	0.00044886	0.00015317	0.00010657	398.59	3.9526e-06	4.9227e-06	716.19	142.01	3.6572e-06	6.7385e-06	282.9	123.83	69.557	35.643	9.7129e-07	63.13	0.00021243	0.00018306	4.8044e-05	393.56	2.188e-06	1.9621e-06	678.34	139.12	2.1713e-06	1.9491e-06	263.61	116.21	65.86	33.675	1.9121e-06	58.293	-81.175	-55.747	-84.102	-134.226	55.597	-39.146	-135.591	-128.052	33.591	4.324	-131.121	-127.285	-124.443	-118.529	-28.564	-122.648	-8191	255	
2404.557	1	1	0	0	0.17744	0.20279	0.11893	0.18175	0.20533	0.23991	0.074501	0.12103	0.30493	0.049136	0.30117	0.12474	0.068505	0.10876	0.10999	0.35831	-2.8063	-2.5708	-3.3	-3.1104	-3.1104	-3.4583	-3.1104	-3.2458	-3.2687	-3.0271	-3.275	-3.1583	-2.9146	-3.3458	-2.9938	-3.2604	111.041	-76.781	-103.730	134.687	19.872	35.204	109.710	-118.940	-112.956	-51.688	25.821	70.170	-137.169	-101.772	-12.399	184.937	0.00048798	0.00044802	9.5473e-05	394.6	2.7639e-07	4.073e-06	712.35	143.12	5.1068e-06	2.9219e-06	287.26	124.18	69.89	36.197	5.3176e-07	63.927	0.00019809	0.00017219	4.9678e-05	389.8	2.0565e-06	1.8705e-06	676.43	140	2.0415e-06	1.8761e-06	266.86	116.81	66.382	34.076	2.1346e-06	58.897	-86.453	-124.103	120.016	-134.351	31.710	-0.528	-135.552	-128.076	9.122	22.209	-131.566	-127.017	-124.488	-118.435	-14.250	-122.765	-8191	255	
2404.677	1	1	0	0	0.24357	0.1423	0.14351	0.30139	0.19419	0.023958	0.075027	0.17184	0.16425	0.076829	0.10504	0.16631	0.10629	0.048325	0.15614	0.19693	-2.9417	-2.8563	-3.0417	-3.0875	-2.9083	-3.4646	-3.1167	-3.1979	-3.3896	-3.0667	-3.2146	-3.3063	-2.9792	-3.3083	-2.9938	-3.3	-74.170	-90.948	15.515	197.640	14.867	22.412	128.999	157.993	-121.800	-119.206	150.398	177.241	164.444	166.671	135.941	167.652	0.00052398	0.00066242	5.3577e-05	398.42	4.3447e-06	2.302e-06	716.56	144.74	2.1767e-06	5.4939e-06	289.52	125.53	71.171	35.976	2.2805e-06	63.791	0.0001911	0.00016932	5.4822e-05	391.94	1.9714e-06	1.8391e-06	684.15	141.14	1.9798e-06	1.8472e-06	270.55	117.69	66.911	33.817	2.2821e-06	58.779	-76.874	-80.179	-116.571	-134.271	18.542	-60.953	-135.387	-128.023	15.944	1.768	-131.081	-126.977	-124.463	-118.528	-125.274	-122.643	-8191	255	
2404.773	1	1	0	0	0.088704	0.27599	0.21346	0.035401	0.16432	0.17469	0.16239	0.32668	0.27828	0.31037	0.17039	0.30562	0.10159	0.054352	0.20805	0.10437	-2.9896	-2.7313	-3.2042	-3.2583	-2.8688	-3.4208	-3.0875	-2.8312	-3.4	-3.0979	-3.2583	-3.35	-3.1271	-3.2938	-3.0375	-3.1625	-28.839	-129.744	200.594	91.989	105.144	204.849	-117.897	-48.237	-93.839	181.816	158.548	193.350	-71.602	107.622	123.070	183.401	0.00049465	0.00045379	0.00010686	399.08	5.9883e-06	2.3819e-06	720.41	143.46	3.1251e-06	4.7153e-06	287.51	125.71	70.214	35.38	1.5514e-06	63.821	0.00018505	0.00017354	5.9036e-05	392.46	1.9224e-06	1.9382e-06	687.11	139.97	1.9201e-06	1.959e-06	269.75	117.53	66.107	33.561	2.3363e-06	58.583	-80.319	208.531	16.680	-134.035	0.846	-142.455	-135.650	-128.161	67.773	-21.859	-131.103	-127.302	-124.240	-118.461	-28.491	-122.488	-8191	255	
2404.845	1	1	0	0	0.10257	0.2336	0.1118	0.23471	0.013802	0.28978	0.3952	0.062022	0.23666	0.070462	0.23928	0.34123	0.21558	0.33092	0.15974	0.3555	-3.1083	-3.0354	-3.0292	-3.3375	-2.9708	-3.4417	-3.2938	-2.8917	-3.5229	-3.0042	-3.1875	-3.3271	-3.0479	-3.3417	-3.0917	-3.0146	135.837	-25.440	24.528	152.704	-89.522	176.459	124.905	34.781	-92.503	-115.969	130.444	173.539	-111.138	-138.371	-6.094	156.048	0.00049942	0.00015755	0.00010614	400.45	2.0864e-06	2.0183e-06	722.43	142.78	6.4845e-06	3.9545e-06	286.01	125.23	69.332	35.234	3.0328e-06	63.092	0.00017901	0.00018731	5.8765e-05	393.25	1.8427e-06	2.1126e-06	691.2	139.04	1.8732e-06	2.1685e-06	267.67	116.71	65.303	33.487	2.2482e-06	57.953	-75.900	96.476	-55.184	-134.101	-23.956	134.712	-135.623	-127.821	43.599	-38.606	-131.093	-127.227	-124.365	-118.240	42.379	-122.571	-8191	255	
2404.966	1	1	0	0	0.11878	0.09703	0.24812	0.13416	0.15318	0.17434	0.17683	0.29137	0.025963	0.1614	0.098841	0.067575	0.25095	0.19026	0.20388	0.043184	-2.9292	-2.9396	-2.8604	-3.4437	-2.7271	-3.2792	-3.3021	-2.8042	-3.2188	-3.0146	-3.0271	-3.3667	-2.9979	-3.3833	-3.1375	-2.7687	113.018	-97.724	96.532	-103.061	-110.482	-65.939	131.769	135.613	125.362	-104.718	145.876	192.674	-11.063	56.274	-125.911	60.777	0.00044554	0.00051976	4.9406e-05	402.42	2.5365e-06	8.2696e-07	720.61	141.84	2.0699e-06	4.2986e-06	283.21	123.47	68.484	34.995	3.5373e-06	63.068	0.00017788	0.0002048	5.6208e-05	391.94	1.8463e-06	2.2697e-06	685.76	137.16	1.8747e-06	2.2982e-06	264.82	115.42	65.17	33.433	2.1427e-06	57.802	-83.013	148.005	13.790	-134.256	25.626	172.209	-135.494	-127.988	-8.375	35.998	-131.460	-127.165	-124.761	-118.314	6.430	-122.690	-8191	255	
2405.062	1	1	0	0	0.21064	0.15689	0.066712	0.1328	0.057279	0.22671	0.16617	0.13485	0.099076	0.14301	0.1372	0.18091	0.20725	0.11929	0.13781	0.23326	-2.8646	-3.2083	-2.7271	-3.2333	-2.8979	-3.1854	-3.2667	-2.8583	-3.3958	-3.1167	-2.9188	-3.5604	-2.8729	-3.0646	-3.2438	-2.8312	104.640	-22.901	25.482	-136.938	5.008	139.398	-28.053	-74.681	150.338	121.895	-74.607	151.328	25.552	89.471	-1.397	121.819	0.00050695	0.00040676	0.00011853	404.97	9.1705e-07	3.2069e-06	727.81	143.52	2.8728e-06	1.5186e-06	288.6	125.57	69.937	36.235	3.3067e-06	64.335	0.00018648	0.00021458	5.3148e-05	394.83	1.9781e-06	2.3257e-06	692.32	139.14	2.0189e-06	2.3186e-06	268.18	117.46	66.669	34.413	2.0391e-06	58.893	-82.906	178.537	6.259	-133.925	126.437	20.688	-135.467	-127.876	-66.848	99.290	-131.358	-127.250	-124.725	-118.510	-24.909	-122.683	-8191	255	
2405.156	1	1	0	0	0.054647	0.12249	0.13669	0.10066	0.20493	0.3147	0.079443	0.062275	0.26433	0.22099	0.28477	0.16181	0.13332	0.34445	0.14751	0.28414	-2.7896	-3.0958	-2.8396	-3.2438	-3.0687	-3.2958	-3.3667	-3.0229	-3.1937	-3.0792	-2.9688	-3.4292	-3.0083	-3.1521	-3.4479	-3.0542	60.304	-37.039	203.160	10.887	105.329	-0.933	58.381	127.148	-60.595	-117.252	-73.232	112.013	-142.256	-115.975	75.983	-145.795	0.00048789	0.00051986	4.9016e-05	406.7	2.441e-06	4.1603e-06	730.84	144.1	7.3827e-06	7.6168e-06	287.59	125.84	69.721	36.418	5.6122e-06	64.47	0.00020143	0.00020575	5.1533e-05	395.35	2.1497e-06	2.2468e-06	693.34	139.23	2.1996e-06	2.2236e-06	267.56	117.36	66.658	34.468	1.9758e-06	58.91	-84.759	-116.376	59.476	-133.653	25.002	-43.830	-135.378	-128.105	17.233	-12.422	-131.124	-127.141	-124.775	-118.464	-30.351	-122.629	-8191	255	
2405.252	1	1	0	0	0.25184	0.27859	0.25597	0.091299	0.092972	0.1648	0.19861	0.20969	0.16229	0.17182	0.13675	0.23205	0.32833	0.13733	0.11388	0.15017	-2.7687	-3.1896	-2.6396	-3.3542	-3.0625	-3.1667	-3.4375	-2.9875	-3.2125	-3.3688	-2.8771	-3.3583	-3.0812	-3.1375	-3.35	-2.8646	29.257	76.387	13.485	141.729	-51.804	14.023	174.525	105.267	192.792	177.636	184.257	-115.341	-133.691	121.993	159.003	27.405	0.00052288	0.00015077	8.7436e-05	405.27	1.4037e-06	4.3933e-06	726.39	143.58	2.5691e-06	5.6041e-06	290.07	126.08	69.831	36.673	3.4718e-06	64.457	0.00021497	0.00019563	4.9381e-05	393.52	2.2771e-06	2.1062e-06	689.87	139	2.2779e-06	2.0585e-06	266.99	117.65	66.872	34.537	1.8649e-06	59.246	-84.544	-55.946	-127.853	-134.176	-91.964	-3.020	-135.515	-127.958	159.291	29.516	-131.367	-127.086	-124.524	-118.555	-41.090	-122.541	-8191	255	
2405.373	1	1	0	0	0.13766	0.24662	0.034875	0.16172	0.10222	0.23528	0.1197	0.10215	0.23164	0.19954	0.062523	0.11485	0.1265	0.045582	0.23837	0.33613	-2.6875	-3.2708	-2.7604	-3.3708	-3.0125	-2.9833	-3.3563	-3.0833	-3.2833	-3.2167	-2.8979	-3.2854	-3.0833	-3.0833	-3.4208	-3.1875	143.875	-103.113	57.306	-132.654	112.480	26.765	43.967	98.637	-130.005	-81.738	35.990	117.155	171.151	-112.881	196.429	147.474	0.00040413	0.00038357	7.599e-05	401.42	1.0468e-06	6.4367e-06	723.07	141.89	5.7536e-06	3.9521e-06	285.31	124.51	69.876	36.161	5.2927e-06	63.837	0.00021498	0.00018476	4.6872e-05	392.04	2.2734e-06	2.0042e-06	684.01	137.89	2.221e-06	1.948e-06	264.03	116.48	66.059	34.108	1.7987e-06	58.662	-78.852	-63.287	35.020	-134.238	39.135	-24.025	-135.577	-128.187	66.115	-11.497	-131.113	-127.158	-124.395	-118.559	11.125	-122.575	-8191	255	
2405.469	1	1	0	0	0.22409	0.072437	0.15927	0.20503	0.050205	0.28965	0.12479	0.30538	0.16151	0.12097	0.081535	0.25293	0.096065	0.2576	0.25675	0.067574	-2.5563	-3.0667	-2.7	-3.4688	-3.0229	-2.9021	-3.4396	-2.9875	-2.8521	-3.275	-2.8667	-3.1417	-3.3104	-3.0167	-3.2417	-3.1417	50.178	75.829	164.840	109.526	67.826	73.822	39.814	157.970	154.519	9.650	117.321	192.829	91.787	207.933	136.148	111.431	0.00041834	0.00041205	4.4795e-05	402.19	3.9347e-06	5.0046e-06	721.73	142.91	5.2441e-06	5.9349e-06	286.78	125.21	70.382	36.001	2.4065e-06	64.361	0.00020593	0.00017641	4.6106e-05	394.22	2.1555e-06	1.9359e-06	686.9	139.27	2.1171e-06	1.9068e-06	265.76	117.94	66.549	34.128	1.9225e-06	59.319	-79.381	-59.711	-100.680	-134.236	77.120	19.815	-135.697	-127.897	39.330	89.285	-131.240	-127.245	-124.258	-118.267	-80.943	-122.669	-8191	255	
2405.565	1	1	0	0	0.14857	0.061435	0.21598	0.22538	0.14063	0.040446	0.16025	0.074555	0.19399	0.1907	0.07971	0.21554	0.078913	0.22153	0.21617	0.065365	-2.5479	-3.1875	-2.7354	-3.0042	-3.3542	-2.8729	-3.3375	-3.0729	-3.0021	-3.2083	-3.0187	-3.0521	-3.0687	-2.9833	-3.3083	-3.1354	-22.168	158.702	-71.157	-108.163	-21.389	-135.330	159.482	106.407	-4.100	40.557	-69.035	179.463	-71.012	154.727	206.817	89.889	0.00042559	0.00030219	3.3028e-05	408.37	3.1207e-06	3.846e-06	733.79	145	1.3826e-06	1.6492e-06	290.8	126.15	70.755	36.04	5.1819e-07	64.196	0.00019902	0.00017292	4.9641e-05	402.12	2.0475e-06	1.8576e-06	698.66	141.97	2.0209e-06	1.8219e-06	270.38	118.56	66.849	33.977	2.097e-06	59.146	-78.703	199.294	108.663	-134.301	45.785	26.563	-135.427	-127.874	162.738	-19.759	-131.317	-127.285	-124.876	-118.398	195.586	-122.624	-8191	255	
2405.661	1	1	0	0	0.26173	0.21859	0.19122	0.076003	0.058208	0.20917	0.07342	0.083625	0.25456	0.12517	0.12141	0.22028	0.19844	0.42444	0.053787	0.31589	-2.6229	-3.2938	-2.7854	-3.1896	-3.3104	-2.65	-3.3	-3.0729	-2.7917	-3.4021	-3.0083	-3.1646	-3.2438	-3.0833	-3.0667	-3.3458	-133.290	-124.192	97.484	70.066	118.549	190.630	9.690	115.598	207.076	78.929	185.401	178.440	116.073	134.922	64.499	159.381	0.00046848	0.00048631	5.6136e-05	412.89	6.1238e-07	3.0773e-06	736.49	143.81	2.8567e-07	1.7987e-06	287.91	126.12	70.155	36.062	1.5167e-06	64.42	0.00019002	0.00016557	5.4569e-05	403.21	1.9787e-06	1.811e-06	700.73	140.57	1.9442e-06	1.8258e-06	269.73	118.08	66.305	33.948	2.2284e-06	59.151	-87.682	-77.961	-26.868	-133.782	79.680	-30.368	-135.698	-128.090	45.708	48.063	-131.503	-126.975	-124.611	-118.459	-107.426	-122.718	-8191	255	
2405.758	1	1	0	0	0.058547	0.066583	0.14932	0.08286	0.084626	0.069877	0.031233	0.14656	0.19101	0.17046	0.10923	0.10341	0.045892	0.25258	0.059406	0.10722	-2.4188	-3.3583	-3.1479	-3.0687	-3.4167	-2.8875	-3.4437	-3.2354	-2.7729	-3.3583	-3.0458	-2.9458	-3.4042	-2.9208	-3.1021	-3.2792	28.600	86.616	138.395	162.884	30.938	60.587	-114.259	209.749	162.816	-84.074	112.055	-123.882	152.933	179.816	-108.737	185.849	0.00047119	0.00021744	0.00012689	414.14	3.6107e-06	2.6672e-06	737.24	143.65	4.1319e-06	4.4815e-06	286.89	125.52	69.259	35.681	2.4567e-06	63.663	0.00018255	0.00016835	5.7384e-05	402.56	1.8912e-06	1.8979e-06	703.58	139.78	1.8967e-06	1.9156e-06	269.22	117.16	65.391	33.754	2.2794e-06	58.503	-94.049	187.442	30.610	-134.290	19.340	209.521	-135.265	-128.185	23.044	24.299	-131.557	-126.890	-124.208	-118.447	-0.202	-122.570	-8191	255	
2405.854	1	1	0	0	0.14102	0.098497	0.048936	0.10579	0.15058	0.031066	0.21003	0.22173	0.19399	0.11719	0.27067	0.13141	0.1642	0.22871	0.16512	0.19253	-2.4896	-3.3646	-3.3479	-2.8375	-3.3292	-2.8417	-3.2542	-3.0958	-2.6521	-3.4688	-3.1896	-3.1167	-3.4583	-3.1813	-3.1042	-3.3167	-57.009	92.475	-70.609	140.325	-36.863	-140.304	145.785	125.622	-61.174	76.718	111.071	171.288	107.146	-132.255	51.466	104.191	0.00045417	4.471e-05	9.0803e-05	407.31	2.7412e-06	7.9865e-07	732.13	143.49	2.6238e-06	3.1515e-06	287.89	125.92	70.392	36.431	3.098e-06	64.774	0.00017603	0.00018106	5.7584e-05	396.95	1.8233e-06	2.0269e-06	697.45	138.9	1.8087e-06	2.0586e-06	269.16	117.68	66.044	34.521	2.2206e-06	59.361	-87.425	-111.719	-60.683	-133.705	7.419	182.971	-135.597	-128.269	3.882	-76.080	-131.353	-127.119	-124.319	-118.456	112.411	-122.490	-8191	255	
2405.974	1	1	0	0	0.2233	0.17496	0.25256	0.11624	0.16939	0.070598	0.21927	0.19338	0.046217	0.083757	0.079779	0.26867	0.25428	0.1384	0.26102	0.18041	-2.6521	-3.2708	-3.0396	-2.8688	-3.3792	-2.9562	-3.1396	-3.2875	-2.8458	-3.2917	-3.1375	-3.0979	-3.2854	-3.2479	-2.9458	-3.5042	204.470	-128.425	135.754	-51.185	-117.416	98.879	103.981	145.505	-11.130	-47.744	-76.218	171.439	-141.386	72.463	164.975	-137.087	0.00043992	0.00016743	0.00010457	413.55	4.3006e-06	2.9489e-06	741.92	146.84	1.7788e-06	9.4177e-07	292.61	128.36	71.366	37.14	5.6496e-06	65.397	0.00017511	0.0001994	5.5652e-05	401.32	1.8474e-06	2.2438e-06	707.76	141.67	1.8595e-06	2.2672e-06	272.85	119.71	67.402	35.25	2.1092e-06	59.891	-88.142	-75.764	-7.543	-134.168	-19.399	-35.280	-135.412	-127.979	-41.936	38.012	-131.334	-127.118	-124.831	-118.457	-49.307	-122.417	-8191	255	
2406.069	1	1	0	0	0.17749	0.13434	0.13605	0.31866	0.10809	0.1465	0.11144	0.13089	0.10458	0.16607	0.13916	0.20857	0.13445	0.097788	0.22145	0.08866	-2.3958	-3.2479	-3.1271	-2.8333	-3.2125	-3.2188	-2.8875	-3.3375	-2.8917	-3.1937	-3.3854	-2.775	-3.5187	-3.2979	-2.7833	-3.5021	151.549	-97.240	-145.353	75.623	212.722	-70.180	142.194	108.056	165.586	15.955	57.515	137.297	157.577	-48.306	100.218	43.884	0.00048316	0.00065507	8.4747e-05	412.69	3.2329e-06	2.6256e-06	737.22	144.31	3.6841e-06	1.6483e-06	289.74	126.76	69.967	36.38	2.6526e-06	64.551	0.00018256	0.00021066	5.2817e-05	400.47	1.9478e-06	2.3154e-06	702.25	139.99	2.016e-06	2.3088e-06	269.42	117.73	66.52	34.531	1.9953e-06	59.031	-84.266	-62.683	-11.068	-134.147	11.071	-43.423	-135.580	-127.999	-28.339	11.434	-131.270	-127.017	-124.470	-118.305	-10.569	-122.531	-8191	255	
2406.140	1	1	0	0	0.21168	0.22384	0.12921	0.23602	0.15698	0.22443	0.10034	0.17788	0.25407	0.17378	0.13484	0.041701	0.062919	0.20402	0.032779	0.10134	-2.3854	-3.0792	-3.15	-2.7229	-3.425	-3.125	-3.0354	-3.4333	-2.8896	-3.0729	-3.4292	-2.975	-3.4437	-3.0729	-2.6562	-3.5812	-67.391	2.239	184.893	-145.516	-100.567	65.930	34.100	-60.198	140.031	158.832	-93.211	-100.819	149.282	162.836	-16.184	-0.929	0.00050929	5.8103e-05	0.00011835	409.55	1.9319e-06	2.7671e-06	737.28	144.34	3.0964e-06	4.0277e-06	290.05	126.2	70.485	36.045	1.6268e-06	63.724	0.0001997	0.00020576	4.9737e-05	396.99	2.1078e-06	2.2141e-06	699.77	139.28	2.1617e-06	2.1912e-06	268.55	117.51	66.967	34.07	1.9522e-06	58.497	-82.606	204.358	-3.970	-134.267	18.422	-30.848	-135.294	-127.776	-34.737	-11.689	-131.449	-127.071	-124.870	-118.136	9.581	-122.542	-8191	255	
2406.237	1	1	0	0	0.28953	0.22949	0.11522	0.10192	0.20618	0.22396	0.17933	0.15539	0.026206	0.23343	0.18972	0.099504	0.14699	0.18825	0.15975	0.30374	-2.5875	-3.0542	-3.2979	-2.7854	-3.2479	-3.0208	-2.9625	-3.3771	-3.0583	-2.9375	-3.2521	-3.0646	-3.3	-3.2188	-2.8688	-3.3104	85.832	129.348	122.994	208.853	-97.427	166.948	-59.951	-96.919	6.108	152.605	104.842	17.385	179.883	17.048	133.912	156.768	0.00047016	0.0001284	9.9905e-05	404.37	2.9964e-06	2.31e-06	727.45	142.08	9.0537e-07	3.9393e-06	284.83	124.44	69.182	35.431	4.0909e-06	63.397	0.00021013	0.0001952	4.7985e-05	393.9	2.2662e-06	2.107e-06	692.76	137.77	2.2756e-06	2.0685e-06	264.64	116.24	66.127	33.495	1.8539e-06	58.161	-88.699	-112.959	-25.536	-133.987	-16.196	-37.239	-135.569	-127.981	148.112	-29.685	-131.100	-127.173	-124.575	-118.608	-8.101	-122.350	-8191	255	
2406.357	1	1	0	0	0.12802	0.2019	0.15635	0.29416	0.063775	0.16634	0.0934	0.18802	0.066294	0.25205	0.10279	0.23469	0.2256	0.087543	0.077534	0.024213	-2.7292	-2.9125	-3.2979	-2.7229	-3.1937	-3.3271	-2.9604	-3.2938	-3.3083	-3.0187	-3.4521	-2.9813	-3.225	-3.3229	-2.7125	-3.4542	34.965	16.946	35.659	175.296	46.991	-29.941	132.284	-132.745	34.605	86.084	155.267	179.492	-114.794	-133.082	3.474	-141.560	0.00044075	0.00036568	5.6059e-05	411.43	7.2706e-06	2.2649e-06	732.69	144.17	4.1259e-06	6.1122e-06	290.58	126.16	71.096	36.19	2.9945e-06	64.437	0.00021546	0.00018342	4.6494e-05	398.42	2.28e-06	1.9935e-06	696.27	140.17	2.2652e-06	1.9843e-06	268.36	118.29	67.508	34.142	1.8364e-06	59.399	-87.625	-28.048	47.383	-134.152	-12.498	-42.771	-135.404	-128.137	31.848	7.521	-131.369	-127.227	-124.442	-118.351	40.941	-122.434	-8191	255	
2406.453	1	1	0	0	0.054834	0.20089	0.13149	0.26148	0.18337	0.10107	0.17986	0.22311	0.13663	0.16365	0.28464	0.3204	0.15014	0.1039	0.13714	0.2545	-2.5833	-2.9813	-3.3063	-3.1854	-3.0542	-3.1521	-3.1167	-3.2604	-3.2958	-2.9417	-3.5563	-3.1021	-3.0062	-3.4521	-2.8125	-3.3083	-15.945	152.643	56.409	-97.104	119.418	110.451	101.398	121.784	146.223	-123.505	-53.383	209.672	129.731	8.557	-85.384	122.500	0.00043841	0.00052995	1.3392e-05	408.05	5.9402e-06	2.5282e-06	738.29	144.97	7.1599e-06	4.6085e-06	289.32	125.87	70.171	35.777	4.2736e-06	63.68	0.0002077	0.00017974	4.6196e-05	400.69	2.1526e-06	1.9445e-06	698.2	141.58	2.1173e-06	1.9357e-06	268.33	117.97	66.628	33.702	1.9046e-06	58.62	-75.950	-38.989	-120.650	-134.109	72.741	184.883	-135.558	-127.994	30.527	15.545	-130.959	-127.327	-124.558	-118.182	-92.702	-122.396	-8191	255	
2406.549	1	1	0	0	0.15625	0.085211	0.049667	0.14823	0.10633	0.096951	0.21699	0.12829	0.12845	0.088239	0.3272	0.17259	0.18892	0.29175	0.089962	0.26382	-2.6667	-2.8292	-3.1646	-2.9021	-2.9708	-3.3083	-3.1083	-3.2542	-3.0083	-2.9667	-3.1958	-3.2792	-2.9229	-3.4167	-2.8625	-3.3479	67.095	-1.276	85.750	90.950	139.048	105.815	157.090	-77.211	194.027	-29.977	-114.919	124.548	-27.278	174.475	163.980	138.561	0.00044666	0.00017326	4.782e-05	408.53	4.9331e-06	5.0836e-06	733.81	142.93	4.0473e-06	4.1599e-06	288.01	125.02	69.124	35.23	1.2418e-06	63.666	0.00019666	0.00017265	4.9128e-05	401.5	2.0512e-06	1.8582e-06	697.02	139.81	1.9914e-06	1.8473e-06	267.34	117.48	65.852	33.265	2.0674e-06	58.645	-79.945	207.190	-122.935	-134.001	69.652	-48.708	-135.544	-128.015	-22.686	46.974	-131.372	-126.925	-124.672	-118.022	170.665	-122.420	-8191	255	
2406.646	1	1	0	0	0.11948	0.19978	0.040833	0.059108	0.13601	0.22535	0.1817	0.15694	0.22597	0.22266	0.30888	0.10923	0.16272	0.073984	0.22478	0.23525	-3.0563	-2.8208	-3.2812	-3.0812	-2.8958	-3.3771	-3.2208	-2.9417	-3.2729	-2.9354	-3.2396	-3.3042	-2.7354	-3.4583	-3.0104	-3.125	122.404	126.015	175.945	-29.264	77.058	121.057	108.392	85.607	-26.498	89.999	-144.736	-108.125	109.783	117.065	103.289	117.518	0.00045042	0.00010201	6.3034e-05	411.06	3.1998e-06	2.6671e-06	735.55	142.61	4.651e-06	3.5246e-06	286.36	124.96	69.652	34.768	3.0469e-06	62.505	0.00018673	0.00016566	5.3079e-05	402.09	1.9492e-06	1.8141e-06	701.42	139.37	1.9486e-06	1.8293e-06	267.83	116.77	65.243	32.75	2.2128e-06	57.678	-78.430	-64.517	188.546	-134.083	117.202	28.380	-135.508	-128.163	-21.693	15.171	-131.642	-126.989	-124.544	-118.435	-27.664	-122.253	-8191	255	
2406.742	1	1	0	0	0.22963	0.12618	0.26016	0.10114	0.08546	0.18018	0.22755	0.22128	0.12272	0.21098	0.089429	0.14169	0.084824	0.14159	0.21392	0.14481	-2.9375	-2.6042	-3.1833	-3.0438	-2.7125	-3.1937	-2.9354	-3.0938	-3.1958	-2.8021	-3.1542	-3.4271	-2.8937	-3.2542	-3.1958	-3.0417	-19.865	64.503	-109.185	109.887	211.352	103.346	-133.527	82.370	139.908	-130.997	-51.178	188.621	-66.056	-131.227	-7.429	-114.422	0.00049845	0.00016129	6.1116e-05	407.55	5.2069e-06	1.8455e-06	736.42	142.96	7.3276e-06	2.5969e-06	288.49	125.62	70.028	35.367	2.2936e-06	63.628	0.00017834	0.00016634	5.6257e-05	399.02	1.8867e-06	1.8453e-06	702.12	138.96	1.8515e-06	1.8862e-06	269.52	117.41	65.876	33.377	2.2841e-06	58.5	-83.027	62.323	125.918	-134.563	56.514	-32.740	-135.440	-127.812	35.094	-87.227	-131.354	-127.201	-124.406	-118.163	0.976	-122.582	-8191	255	
2406.838	1	1	0	0	0.14431	0.081653	0.055824	0.21196	0.2845	0.077886	0.14271	0.15266	0.046905	0.36513	0.059513	0.10329	0.061897	0.18869	0.13075	0.13072	-3.0083	-2.6479	-3.0333	-3.2583	-2.9188	-3.4542	-3.2104	-3.0271	-3.3354	-2.9542	-2.9854	-3.3979	-2.8563	-3.3583	-3.125	-2.9104	-91.141	101.929	-98.721	44.540	-33.400	-15.822	189.570	209.818	-71.065	183.425	142.110	-70.184	-93.688	190.969	-58.710	95.854	0.00045904	0.00020321	6.7889e-05	415.75	2.8595e-06	3.0269e-06	741.36	145.54	5.0729e-06	1.5725e-06	293.4	126.21	70.647	35.887	5.7212e-06	64.27	0.00017496	0.00018109	5.7498e-05	403.72	1.8216e-06	2.0213e-06	709.4	141.19	1.8272e-06	2.0675e-06	272.96	118.17	66.341	34.043	2.2216e-06	58.758	-80.637	118.274	16.864	-133.948	46.464	-83.303	-135.635	-128.044	16.059	42.922	-131.221	-126.945	-124.714	-118.818	27.225	-122.426	-8191	255	
2406.934	1	1	0	0	0.1842	0.30904	0.12695	0.15191	0.24942	0.26425	0.17708	0.039547	0.22691	0.41407	0.061303	0.20356	0.056064	0.19492	0.032921	0.25238	-2.8979	-3.0208	-2.8937	-3.3125	-2.7396	-3.1396	-3.2333	-3.1792	-3.2229	-3.0646	-2.9938	-3.3292	-2.725	-3.2438	-3.1771	-3.0229	-25.625	-40.416	46.941	-118.346	213.163	147.687	120.870	-103.282	131.087	11.595	134.827	101.430	67.933	152.848	131.925	147.791	0.00049487	0.00027309	0.00012227	411.88	2.4351e-06	1.9524e-06	742.45	143.58	1.1923e-06	1.135e-06	288.96	125.28	69.759	35.577	2.3742e-06	63.761	0.00017417	0.00019732	5.5062e-05	400.66	1.8129e-06	2.1731e-06	704.91	139.2	1.7887e-06	2.2114e-06	268.7	116.87	65.579	33.679	2.0477e-06	58.435	-80.888	185.722	-19.320	-134.105	-50.276	64.284	-135.432	-127.937	-52.097	213.782	-131.039	-127.226	-124.508	-118.427	-51.682	-122.303	-8191	255	
2407.055	1	1	0	0	0.19132	0.14073	0.24521	0.13208	0.26566	0.11864	0.21324	0.079279	0.18975	0.048348	0.099462	0.19432	0.0238	0.17428	0.12777	0.094478	-2.7812	-3.0583	-3.0563	-3.2979	-3.0667	-3.2021	-3.4625	-2.9604	-3.35	-3.2896	-3.1125	-3.2938	-3.1917	-3.0979	-3.2896	-2.8292	-32.448	-118.992	-120.154	-113.247	-130.225	-76.465	208.080	191.072	-69.945	8.542	210.661	158.938	98.275	166.918	66.676	82.115	0.00055291	0.00047329	0.00018622	415.68	2.5005e-06	3.8633e-06	742.21	144.35	2.944e-06	2.7086e-06	293.02	126.22	70.167	35.388	3.5132e-06	63.638	0.00017833	0.00020681	5.1899e-05	402.32	1.9093e-06	2.2644e-06	707.32	140.06	1.9423e-06	2.2564e-06	270.94	117.56	66.318	33.536	1.9589e-06	58.219	-87.475	-76.221	-35.895	-134.347	-46.003	9.124	-135.483	-128.194	-14.863	88.098	-130.859	-127.272	-124.256	-118.045	-31.686	-122.635	-8191	255	
2407.149	1	1	0	0	0.066899	0.058365	0.13947	0.018857	0.24363	0.054386	0.18263	0.30175	0.0041111	0.097179	0.1897	0.15115	0.27664	0.27619	0.18186	0.06525	-2.925	-3.0083	-2.9229	-3.5583	-3.075	-3.1146	-3.2979	-2.7875	-3.2646	-2.9792	-3.1104	-3.2917	-2.9292	-3.0333	-3.4271	-3.0583	4.853	-6.155	-31.307	171.786	-117.545	-98.028	88.223	-141.910	152.182	189.468	92.172	175.875	173.329	-128.800	-90.379	120.620	0.00048661	0.00032093	0.00016987	415.44	2.532e-06	3.0614e-06	743.09	142.66	4.973e-06	6.1094e-06	288.02	125.24	69.093	35.026	5.6665e-06	63.328	0.00019279	0.00020152	4.9722e-05	401.93	2.0642e-06	2.1723e-06	705.63	137.99	2.1015e-06	2.1503e-06	267.21	116.39	66.13	33.153	1.9036e-06	58.022	-84.860	-131.475	-12.528	-134.014	212.521	-3.032	-135.652	-128.073	-24.912	18.069	-131.278	-127.398	-124.753	-118.205	-67.255	-122.340	-8191	255	
2407.245	1	1	0	0	0.13906	0.12885	0.039594	0.10452	0.12635	0.061415	0.078125	0.39559	0.064604	0.19749	0.16849	0.17436	0.010647	0.10857	0.21981	0.18445	-2.5792	-3.2021	-2.7646	-3.2188	-2.9979	-3.1083	-3.2396	-2.9354	-3.0625	-3.15	-3.1854	-3.3438	-3.2375	-3.1479	-3.3979	-2.9604	-73.014	140.929	173.824	174.282	153.316	-41.608	170.918	-117.631	57.244	42.880	120.792	165.921	153.493	204.639	184.316	137.044	0.00047947	0.00028781	0.00012675	420.04	4.1989e-06	4.0948e-06	751.08	145.73	4.842e-06	2.5397e-07	294.54	127.72	71.398	35.872	5.5174e-06	64.362	0.00020809	0.00019248	4.794e-05	406.02	2.2191e-06	2.0633e-06	710.6	141.19	2.212e-06	2.0302e-06	271.74	118.76	67.853	33.913	1.8228e-06	59.164	-84.961	202.141	-7.526	-134.034	-26.904	20.567	-135.565	-128.094	31.547	-60.369	-131.337	-127.499	-124.120	-118.122	38.817	-122.567	-8191	255	
2407.366	1	1	0	0	0.2904	0.11092	0.2256	0.12539	0.051482	0.12129	0.18152	0.071263	0.11125	0.093026	0.12371	0.15662	0.17902	0.11365	0.018679	0.089084	-2.8	-3.0938	-2.8375	-3.2854	-3.0312	-2.7729	-3.475	-2.9208	-3.1146	-3.3104	-2.9708	-3.4229	-3.2375	-3.0333	-3.3979	-3.0312	52.069	160.154	196.553	-8.012	39.080	149.189	-64.099	-82.825	-122.944	205.508	-85.496	185.303	-64.103	157.169	-40.801	-75.071	0.00051923	0.0003674	9.5962e-05	422.94	3.5586e-06	3.1447e-06	751.31	146.12	3.4547e-06	7.3142e-07	292.64	126.79	70.28	35.417	5.0352e-06	63.506	0.00021189	0.00018194	4.6616e-05	410.92	2.2528e-06	1.9956e-06	712.3	142.01	2.2235e-06	1.9542e-06	270.33	118.37	66.897	33.394	1.7797e-06	58.478	-79.990	-99.470	-42.505	-134.257	74.137	-54.944	-135.566	-128.194	45.754	140.785	-131.316	-127.202	-124.036	-118.171	6.514	-122.640	-8191	255	
2407.438	1	1	0	0	0.1754	0.10149	0.30883	0.20849	0.32669	0.042895	0.17639	0.22914	0.14555	0.24263	0.12718	0.12822	0.1182	0.023889	0.12494	0.19511	-2.6771	-3.1917	-3.0208	-3.1146	-3.3688	-2.9458	-3.4042	-3.0396	-2.9771	-3.3104	-3.1792	-3.3604	-3.3021	-2.9188	-3.2188	-3.2188	22.232	160.129	-29.885	-35.203	205.953	38.175	-26.646	193.570	0.617	167.750	-104.902	-141.900	-71.023	111.526	-104.279	178.940	0.0005086	0.00028113	4.6304e-05	417.96	9.4116e-07	1.9411e-06	747.02	145.25	3.3898e-06	5.4312e-06	293.17	126.73	69.968	35.408	1.6472e-06	64.263	0.00020659	0.00017552	4.5437e-05	408.54	2.1198e-06	1.935e-06	707.74	141.63	2.131e-06	1.8951e-06	270.96	118.75	66.631	33.448	1.8742e-06	59.108	-84.078	-140.300	-119.219	-134.361	46.304	186.426	-135.392	-128.045	75.065	37.620	-131.290	-127.004	-124.181	-117.999	94.174	-122.210	-8191	255	
2407.534	1	1	0	0	0.18198	0.087851	0.19316	0.049383	0.16796	0.34585	0.36597	0.24473	0.17905	0.053889	0.1129	0.17044	0.023893	0.10351	0.10279	0.29695	-2.6833	-3.3958	-2.9875	-3.0604	-3.3229	-2.9854	-3.3854	-3.1708	-3.0187	-3.4375	-2.9479	-3.1813	-3.1312	-2.7083	-3.4167	-3.2146	130.372	-110.617	-141.993	85.756	40.822	-143.466	164.587	194.082	16.540	-95.222	-136.535	81.457	-142.342	-106.674	202.003	205.789	0.0004828	0.00029854	0.00012742	420.99	4.3422e-06	6.3445e-06	747.21	143.41	1.6257e-06	4.1197e-06	289.61	124.72	68.864	34.879	1.9839e-06	63.173	0.00019722	0.00017026	4.854e-05	411.9	2.0345e-06	1.8898e-06	707.97	140.64	2.005e-06	1.8502e-06	268.51	116.85	65.194	32.735	2.0332e-06	58.068	-79.794	-127.338	-26.477	-134.410	-19.407	-30.887	-135.610	-128.124	93.315	21.287	-131.158	-127.084	-124.728	-118.158	11.559	-122.662	-8191	255	
2407.654	1	1	0	0	0.12863	0.22347	0.15758	0.10332	0.31931	0.26962	0.1533	0.19054	0.24905	0.15219	0.18005	0.28686	0.082523	0.18935	0.1332	0.053462	-2.4271	-3.4062	-2.9146	-3.1333	-3.375	-2.9188	-3.2125	-3.2083	-3.1021	-3.3438	-2.8979	-3.1667	-3.4333	-2.8375	-3.4542	-3.1167	74.636	93.959	-136.588	130.264	-94.039	-53.416	177.497	-134.718	3.350	129.368	187.940	207.353	150.781	-38.412	46.632	50.221	0.00047221	0.00036403	3.1999e-05	419.99	2.4604e-06	2.4124e-06	746.88	144.17	2.1582e-06	1.6283e-06	293.08	126.46	69.867	35.593	4.1449e-06	64.382	0.00019097	0.00016616	5.2767e-05	410.62	1.9478e-06	1.8364e-06	711.86	141.02	1.9625e-06	1.7856e-06	272.15	118.24	65.973	33.501	2.2087e-06	59.145	-89.849	-138.819	68.015	-133.992	35.092	-89.240	-135.637	-127.864	98.229	-41.138	-131.153	-126.904	-124.297	-118.354	-51.076	-122.363	-8191	255	
2407.750	1	1	0	0	0.18858	0.13779	0.22469	0.13843	0.039273	0.044355	0.25991	0.14553	0.12737	0.13793	0.1011	0.27804	0.13161	0.22077	0.10584	0.16111	-2.4167	-3.3937	-2.9083	-3.0729	-3.4375	-2.925	-3.2979	-3.2708	-2.7562	-3.2271	-3.1875	-3.2583	-3.2188	-2.9333	-3.2083	-3.3563	-60.608	-123.864	107.153	157.673	48.887	-111.403	115.814	122.973	164.960	54.953	-116.378	86.183	158.047	54.385	16.701	140.286	0.00041563	0.00032901	4.1727e-05	425.14	1.5086e-06	1.64e-06	753.76	146.34	3.354e-06	3.0922e-06	293	127.45	70.14	35.692	1.8369e-06	64.254	0.00018381	0.00016692	5.7074e-05	412.87	1.8906e-06	1.8773e-06	717.86	142.49	1.8837e-06	1.8804e-06	274.39	118.72	66.128	33.684	2.2797e-06	58.891	-89.303	208.952	211.869	-134.043	118.483	21.166	-135.544	-127.991	47.363	-8.789	-131.195	-127.199	-124.343	-118.471	16.582	-122.498	-8191	255	
2407.847	1	1	0	0	0.24253	0.15619	0.070348	0.099804	0.17205	0.21985	0.17761	0.086068	0.049302	0.27175	0.095255	0.14131	0.32491	0.26639	0.3167	0.23393	-2.5208	-3.2188	-3	-3.0938	-3.425	-2.9292	-3.2042	-3.2812	-2.7354	-3.3604	-3.2896	-2.9896	-3.3229	-3.2	-3.1083	-3.3688	-70.518	-87.885	114.347	151.541	114.231	148.663	27.266	144.593	128.065	148.887	-117.088	-144.340	106.733	77.438	-22.749	138.582	0.00042068	0.00024269	6.8185e-05	422.84	1.0686e-06	3.5577e-06	747.22	144.01	2.4791e-06	2.9656e-06	292.49	126.23	69.887	34.972	2.0174e-06	64.172	0.00017592	0.00017912	5.7274e-05	410.53	1.8138e-06	2.0095e-06	714.72	139.93	1.7866e-06	2.0565e-06	272.29	117.76	65.646	33.277	2.2166e-06	58.777	-81.255	141.000	-2.275	-133.954	23.258	-80.120	-135.443	-127.923	29.345	-53.252	-130.931	-127.087	-124.179	-118.079	25.212	-122.507	-8191	255	
2407.943	1	1	0	0	0.031047	0.28002	0.095606	0.22071	0.17828	0.30054	0.21145	0.37517	0.065977	0.063117	0.25448	0.21979	0.18713	0.081776	0.17369	0.10592	-2.5458	-3.2583	-3.0687	-2.6146	-3.4562	-3.1208	-2.9917	-3.2917	-2.9958	-3.2167	-3.3208	-2.8167	-3.4188	-3.0396	-3.125	-3.425	-53.592	-85.550	25.356	147.324	2.266	135.221	39.076	156.868	208.732	-81.820	-13.408	125.864	118.553	79.315	-61.420	150.580	0.00054262	0.00026969	0.00012842	423.48	3.3647e-06	1.4254e-06	751.28	145.19	2.9344e-06	2.8284e-06	291.53	125.95	68.861	34.785	2.9783e-06	63.165	0.00017254	0.00019405	5.5945e-05	411.11	1.8031e-06	2.2094e-06	716.1	140.27	1.8169e-06	2.2185e-06	271.8	117.27	65.093	33.109	2.0959e-06	57.969	-83.909	75.097	-2.870	-134.000	-11.506	-9.869	-135.519	-127.807	-138.446	-46.738	-131.337	-127.081	-124.657	-118.187	30.952	-122.244	-8191	255	
2408.037	1	1	0	0	0.21286	0.074042	0.091429	0.089818	0.10617	0.13346	0.14515	0.13364	0.11838	0.03928	0.14137	0.25797	0.10973	0.13938	0.12106	0.25274	-2.2333	-3.2083	-3.2938	-2.7271	-3.3271	-3.0375	-3.1646	-3.3604	-2.9417	-3.0583	-3.3479	-2.9813	-3.1125	-3.2146	-2.9771	-3.3917	165.204	-10.426	-1.082	-142.347	-4.223	40.065	-126.415	65.529	163.436	-82.277	-100.278	134.716	160.260	99.780	167.363	155.221	0.00049695	0.00051152	0.00011139	422.5	3.1723e-06	1.9655e-06	748.19	143.12	1.6569e-06	7.6341e-07	288.51	125.21	68.913	34.814	4.9028e-06	63.756	0.00018074	0.00020764	5.2674e-05	408.98	1.9197e-06	2.2716e-06	710.8	138.29	1.9393e-06	2.2656e-06	268.93	116.62	65.204	33.096	1.9782e-06	58.268	-83.380	-77.314	-61.167	-134.091	-53.407	-121.233	-135.298	-127.872	45.509	-44.823	-131.286	-127.174	-124.453	-118.215	5.783	-122.430	-8191	255	
2408.133	1	1	0	0	0.058507	0.25632	0.14466	0.027624	0.20838	0.18281	0.25508	0.050502	0.16225	0.12217	0.14728	0.17647	0.21972	0.24015	0.13984	0.20385	-2.2562	-3.1792	-3.3979	-2.8979	-3.4333	-3.2292	-2.9833	-3.3083	-2.8958	-3.3667	-3.3958	-2.8354	-3.2792	-3.4042	-2.9	-3.5042	-126.234	166.514	-42.729	116.979	68.782	199.211	-144.281	62.367	-31.178	171.094	-59.287	176.617	104.954	134.680	-92.269	178.705	0.00045986	0.0007354	6.3406e-05	422.82	2.8631e-06	1.0258e-06	756.39	145.21	3.2457e-06	2.4305e-06	293.19	126.92	69.799	35.737	2.8889e-06	64.472	0.00019399	0.00020559	5.0481e-05	410.85	2.0807e-06	2.2147e-06	715.21	140.31	2.1153e-06	2.1721e-06	271.64	118.11	66.482	33.785	1.9373e-06	58.868	-83.886	-127.308	-29.587	-134.231	-111.790	-8.262	-135.740	-128.049	-21.468	-0.466	-131.482	-126.917	-124.593	-118.408	-6.858	-122.486	-8191	255	
2408.229	1	1	0	0	0.11649	0.13665	0.21499	0.071658	0.10962	0.23242	0.021903	0.16105	0.17621	0.12743	0.24322	0.17112	0.10833	0.14646	0.12446	0.069257	-2.7958	-2.9729	-3.3063	-2.8854	-3.2104	-3.0771	-3.025	-3.2646	-2.9583	-3.1562	-3.4146	-2.9958	-3.4	-3.1542	-2.8333	-3.4938	160.015	15.953	-32.788	212.284	-131.220	-27.543	38.343	61.631	-29.204	-82.206	-100.042	-140.768	-134.437	174.255	-125.881	-27.715	0.0004884	0.00042315	8.2832e-05	424.37	3.2356e-06	6.6304e-06	751.18	145.62	3.2873e-06	3.2796e-06	291.86	126.12	69.637	35.023	2.5793e-06	63.821	0.00020982	0.00019242	4.8494e-05	409.92	2.1949e-06	2.0846e-06	711.66	140.7	2.2357e-06	2.0511e-06	269.88	117.81	66.332	33.213	1.8458e-06	58.523	-84.924	-104.997	-20.932	-134.330	28.722	-34.496	-135.497	-128.018	142.172	51.530	-131.541	-127.169	-124.739	-118.169	32.134	-122.583	-8191	255	
2408.326	1	1	0	0	0.10552	0.17156	0.10761	0.34852	0.11083	0.1754	0.041829	0.24458	0.080937	0.027688	0.28802	0.088826	0.15916	0.23655	0.072391	0.24776	-2.8208	-2.8708	-3.1542	-2.9229	-3.2687	-3.1875	-3.0271	-3.1188	-3.1146	-2.9729	-3.3958	-3.1188	-3.2062	-3.1417	-2.9688	-3.4313	207.542	86.887	171.395	148.356	-95.862	72.048	80.346	173.617	15.572	-20.059	200.930	194.935	197.155	212.883	206.181	136.489	0.00044108	0.00048364	0.00012093	415.94	5.2047e-06	6.9197e-06	745.58	144.16	4.4845e-06	7.1743e-06	290.52	126.09	69.367	35.038	1.3967e-06	63.804	0.00021288	0.00018373	4.6653e-05	407.31	2.2525e-06	1.9866e-06	704.9	140.02	2.2454e-06	1.9567e-06	269	117.77	66.052	33.09	1.786e-06	58.583	-86.532	-86.971	-15.232	-134.146	-29.856	9.696	-135.479	-127.862	42.737	-32.537	-131.101	-127.018	-124.737	-118.022	19.858	-122.663	-8191	255	
2408.446	1	1	0	0	0.14342	0.15009	0.17264	0.27836	0.079616	0.1301	0.25116	0.20083	0.11773	0.11703	0.15747	0.37445	0.2169	0.30905	0.31401	0.23736	-2.5833	-3.0708	-3.0917	-2.8063	-3.1708	-3.4	-2.9958	-3.425	-3.2042	-2.7562	-3.3937	-3.0917	-3	-3.0896	-2.8104	-3.4667	-15.568	200.532	173.536	181.553	83.593	-92.634	138.580	75.823	2.011	185.348	171.882	153.294	170.486	151.098	64.044	-131.853	0.00045034	0.00046438	0.00015303	415.62	5.1764e-06	3.8607e-06	738.25	141.27	3.8315e-06	4.582e-06	285.86	123.65	67.694	35.291	3.6291e-06	63.549	0.00020601	0.00017628	4.5406e-05	405.63	2.111e-06	1.8787e-06	697.59	138.3	2.057e-06	1.8318e-06	265.1	115.94	64.373	33.279	1.8011e-06	58.462	-88.761	-64.778	-55.609	-134.353	27.864	-40.402	-135.677	-127.912	-25.144	47.032	-131.491	-127.011	-124.296	-118.702	-92.773	-122.458	-8191	255	
2408.542	1	1	0	0	0.29178	0.19199	0.19605	0.26053	0.081653	0.091508	0.16886	0.25192	0.08199	0.20637	0.14026	0.29672	0.24067	0.15715	0.11194	0.11321	-2.7729	-2.7313	-3.2646	-2.9104	-2.9375	-3.4896	-2.9479	-3.1063	-3.1771	-2.8271	-3.5271	-3.1417	-2.9417	-3.4146	-2.95	-3.2417	-62.119	199.662	72.233	136.781	-83.178	175.191	174.439	115.231	114.813	59.233	97.402	123.104	-141.572	94.485	-109.395	168.029	0.00043447	0.00022572	0.00010233	413.56	5.2303e-06	5.5102e-06	737.5	142.28	6.7239e-06	3.6209e-06	289.71	125.04	68.906	35.328	3.3865e-07	64.075	0.0001895	0.00016567	4.5796e-05	403.91	1.9708e-06	1.769e-06	700.43	139.3	1.9256e-06	1.7538e-06	267.82	117.33	65.063	33.245	1.9456e-06	58.838	-82.780	-120.147	-20.256	-134.268	14.946	-53.534	-135.500	-128.167	-6.108	90.684	-131.105	-127.053	-124.019	-118.344	176.200	-122.444	-8191	255	
2408.639	1	1	0	0	0.1939	0.052538	0.20254	0.46607	0.12691	0.34469	0.070394	0.1138	0.019379	0.11816	0.41123	0.14874	0.21873	0.24274	0.083957	0.2683	-2.975	-2.8812	-3.2854	-3.0354	-2.8312	-3.7375	-3.0563	-3.0729	-3.2562	-2.9313	-3.4646	-3.0021	-2.85	-3.5729	-3.0979	-3.3417	119.119	115.187	160.680	145.719	-10.688	104.930	-15.167	167.535	26.923	-133.654	157.212	199.625	145.881	69.193	99.586	152.935	0.00050382	0.00022848	5.7137e-05	418.87	1.7377e-06	2.2537e-06	744.58	143.9	1.7661e-06	4.9693e-06	292.28	125.69	69.161	35.108	5.2406e-07	63.917	0.00017983	0.00015814	5.0365e-05	409.14	1.88e-06	1.7162e-06	709.34	140.73	1.8654e-06	1.7127e-06	271.3	117.7	65.23	32.933	2.096e-06	58.614	-83.591	168.190	103.292	-134.170	-9.452	-38.431	-135.680	-128.203	136.929	6.009	-131.141	-127.006	-124.215	-118.326	191.621	-122.516	-8191	255	
2408.735	1	1	0	0	0.19387	0.10271	0.13479	0.039579	0.097835	0.26057	0.095763	0.052891	0.14215	0.066865	0.073644	0.13375	0.12777	0.07007	0.033927	0.059123	-2.8729	-3.0167	-3.2583	-3.2021	-3.0604	-3.3833	-2.9833	-3.0167	-3.5479	-3.0708	-3.3271	-3.2958	-3.2313	-3.4521	-2.8771	-3.0021	158.269	150.513	131.598	-39.570	58.753	-24.632	5.768	155.395	45.694	-10.575	127.814	50.796	161.006	-114.142	184.501	44.063	0.00044294	0.00033521	4.4878e-05	417.52	4.2711e-06	4.9968e-06	747.54	143.45	3.7969e-06	3.6524e-06	287.57	125.09	68.533	35.144	1.2568e-06	64.463	0.00017469	0.00015996	5.4271e-05	407.67	1.8368e-06	1.7613e-06	711.22	139.25	1.7965e-06	1.7873e-06	269.37	116.96	64.455	33.16	2.1459e-06	58.74	-85.328	-42.959	-23.866	-134.143	-6.158	-32.792	-135.640	-128.014	47.376	-30.202	-131.271	-127.172	-124.427	-118.459	92.369	-122.125	-8191	255	
2408.831	1	1	0	0	0.26381	0.38665	0.29126	0.46437	0.17608	0.17178	0.060308	0.13564	0.15369	0.14018	0.073133	0.2121	0.26646	0.26868	0.13403	0.17699	-3.0521	-3.1063	-3.1604	-3.1229	-2.8438	-3.3646	-3.4354	-3.1729	-3.3208	-2.8875	-3.05	-3.2333	-2.7562	-3.2979	-3.3396	-2.9125	71.753	-22.702	-8.082	108.438	-17.391	27.242	142.790	165.772	153.728	80.010	-125.849	-24.825	-139.030	163.224	-21.628	119.122	0.00049294	0.00027189	3.8473e-05	412.56	4.5191e-06	2.1282e-06	740.04	139.82	2.1106e-06	3.9841e-06	284.51	122.87	66.585	34.986	6.5816e-06	63.412	0.00016794	0.00016897	5.5162e-05	400.03	1.7514e-06	1.9124e-06	703.34	135.98	1.7398e-06	1.9567e-06	265.54	114.58	62.989	33.235	2.1136e-06	58.208	-81.263	173.404	-54.581	-134.235	-144.316	-118.089	-135.541	-127.759	66.993	16.617	-131.230	-126.972	-124.718	-118.343	-4.185	-122.384	-8191	255	
2408.927	1	1	0	0	0.10594	0.092333	0.17277	0.14843	0.14971	0.11975	0.26293	0.098621	0.10796	0.18574	0.19991	0.056178	0.19709	0.1676	0.16869	0.16432	-2.7896	-2.9604	-3	-3.3021	-2.9479	-3.1292	-3.2812	-3.1042	-3.1292	-2.9771	-3.2208	-3.3396	-2.9083	-3.3292	-3.1875	-2.85	-86.829	48.352	15.446	25.781	-115.872	-94.350	168.059	41.507	172.531	206.381	26.887	33.356	-32.813	-127.288	113.497	28.245	0.000515	0.00026532	0.00019693	408.72	2.5238e-06	1.9928e-06	729.24	139.11	2.5162e-06	2.0601e-06	284.81	122.71	67.264	35.439	5.1043e-06	63.985	0.00016518	0.00018834	5.406e-05	394.45	1.7464e-06	2.0966e-06	694.35	134.49	1.7791e-06	2.1304e-06	264.47	114.3	63.33	33.5	2.0332e-06	58.447	-85.826	90.126	6.855	-134.194	25.220	208.088	-135.169	-127.812	-24.912	-36.647	-131.441	-127.027	-124.236	-118.536	31.682	-122.361	-8191	255	
2409.046	1	1	0	0	0.13368	0.12094	0.078041	0.26802	0.38246	0.073801	0.057631	0.20708	0.11067	0.066307	0.21636	0.28155	0.12336	0.065588	0.19631	0.35898	-3.0417	-3.2083	-3.1229	-3.2854	-2.8729	-3.0812	-3.3917	-2.7521	-3.2667	-3.2458	-2.8604	-3.4938	-3.0187	-3.2375	-3.1167	-2.9562	-55.635	180.665	194.983	191.211	40.486	-43.918	-20.888	189.673	141.033	-48.507	-1.622	-41.373	-91.206	-112.005	-131.161	-145.160	0.00049872	0.00032289	0.00010181	406.33	9.7334e-07	2.6994e-06	730.27	139.79	2.7677e-06	3.8537e-06	286.1	123.89	67.337	35.655	1.2032e-06	63.975	0.00017355	0.00020127	5.1367e-05	392.95	1.8574e-06	2.2274e-06	694.55	134.99	1.9251e-06	2.2175e-06	265.1	115.35	64.048	33.835	1.978e-06	58.586	-83.901	-103.879	31.040	-133.871	-122.537	85.609	-135.658	-128.169	30.900	27.275	-131.185	-127.036	-124.382	-118.111	-10.756	-122.527	-8191	255	
2409.142	1	1	0	0	0.15113	0.048481	0.25261	0.154	0.31702	0.089949	0.3076	0.15806	0.26552	0.16654	0.092486	0.2148	0.30786	0.26604	0.10119	0.217	-2.8479	-3.0271	-2.9708	-3.3417	-2.8896	-3.1312	-3.3688	-2.8937	-3.2687	-2.9896	-2.9688	-3.5	-2.9938	-3.4979	-3.35	-3.1625	82.573	-69.218	145.191	206.978	71.033	-18.714	137.188	114.664	-3.707	136.861	164.645	-120.181	55.381	-4.405	209.163	90.417	0.00050432	0.00037631	3.7932e-05	403.35	2.7943e-06	1.4034e-06	728.52	137.57	3.2883e-06	3.9015e-06	282.02	121.7	66.749	34.976	5.2984e-06	63.22	0.00019185	0.00020266	4.9678e-05	390.27	2.0515e-06	2.1856e-06	690.22	132.81	2.1077e-06	2.1653e-06	261.66	113.61	63.636	33.252	1.9082e-06	57.952	-79.326	-67.587	2.174	-134.211	-38.645	64.295	-135.535	-128.015	43.605	3.158	-131.200	-127.092	-124.301	-118.232	-5.631	-122.430	-8191	255	
2409.238	1	1	0	0	0.20542	0.17507	0.11051	0.14112	0.084113	0.10043	0.13403	0.18707	0.22831	0.19497	0.17229	0.30068	0.061367	0.09235	0.0793	0.15949	-2.9313	-3.0021	-3.0979	-3.2292	-3.0396	-3.0271	-3.3854	-3.0542	-3.0896	-3.2167	-2.8438	-3.5771	-3.0646	-2.8521	-3.3104	-3.0917	-25.344	-8.273	-73.272	-139.833	142.647	-25.720	160.532	198.442	-118.474	178.397	-126.305	103.004	187.733	112.945	121.279	162.871	0.00046401	0.00093743	9.5664e-05	403.7	4.3268e-06	7.9887e-06	727.08	137.63	3.0992e-07	4.4955e-06	280.62	121.82	66.113	34.655	1.9733e-06	62.915	0.00020591	0.00019152	4.8295e-05	391.33	2.1964e-06	2.0848e-06	689.25	132.99	2.2348e-06	2.0404e-06	260.71	113.54	63.573	32.821	1.8596e-06	57.625	-81.266	-56.361	6.006	-134.402	159.941	-7.087	-135.374	-127.744	47.712	51.639	-131.390	-127.066	-124.445	-118.325	182.728	-122.458	-8191	255	
2409.334	1	1	0	0	0.26254	0.080027	0.083222	0.087523	0.16588	0.23677	0.16796	0.13514	0.1136	0.10368	0.20174	0.31434	0.10132	0.15101	0.09608	0.17891	-2.7208	-3.1958	-2.9375	-3.3333	-3.0271	-3.1083	-3.5042	-3.0187	-3.2146	-3.1562	-2.7854	-3.1833	-3.1208	-3.2042	-3.3375	-3.0333	29.972	-67.502	184.904	186.774	-19.791	37.577	186.716	-86.879	161.011	12.678	182.852	150.981	-74.804	147.656	198.469	178.587	0.00041863	0.00058177	5.9363e-05	399.76	4.6826e-06	5.9401e-06	723.24	135.5	2.4476e-06	2.9035e-06	277.77	119.61	65.071	33.992	2.3159e-06	62.481	0.00021178	0.00018304	4.6666e-05	390.11	2.2466e-06	1.981e-06	684.35	131.84	2.2151e-06	1.9611e-06	256.9	112.22	62.789	32.231	1.7955e-06	57.199	-83.194	-61.371	-23.608	-134.090	25.074	-58.775	-135.761	-127.681	-39.391	31.531	-130.916	-127.162	-124.257	-118.171	-29.067	-122.331	-8191	255	
2409.430	1	1	0	0	0.12915	0.22938	0.090563	0.12178	0.078867	0.056838	0.1087	0.089939	0.22631	0.018764	0.11296	0.16467	0.064398	0.11919	0.16473	0.18693	-2.7354	-3.1646	-2.7646	-3.4167	-3.0062	-2.9271	-3.4646	-2.8521	-2.9896	-3.3937	-2.8563	-3.1542	-3.2667	-2.8812	-3.2583	-3.325	180.848	165.102	-61.739	69.598	-98.271	141.474	74.036	206.776	94.398	8.365	132.597	159.033	81.829	193.305	91.428	158.274	0.00051235	0.00034232	0.00011582	404.46	3.995e-06	2.9683e-06	730.6	136.84	5.4726e-06	1.9987e-06	282.06	121.19	66.708	34.833	2.3128e-06	63.124	0.0002058	0.00017784	4.5933e-05	395.93	2.1502e-06	1.9464e-06	692.02	133.35	2.14e-06	1.9099e-06	260.36	113.89	63.366	32.808	1.8566e-06	57.933	-83.910	-96.392	7.151	-134.403	45.718	5.586	-135.607	-127.895	12.327	-9.605	-131.036	-127.014	-123.856	-117.927	-9.270	-122.566	-8191	255	
2409.527	1	1	0	0	0.09246	0.16429	0.28909	0.32221	0.17068	0.079223	0.21545	0.21115	0.083345	0.026935	0.056386	0.20331	0.18273	0.087314	0.21021	0.23504	-2.5833	-3.2833	-2.8125	-3.3354	-3.1083	-2.7646	-3.4604	-2.9646	-2.8354	-3.3187	-2.975	-3.1312	-3.2229	-2.9646	-3.225	-3.2542	-112.900	193.702	28.903	151.273	-77.315	10.968	136.057	73.906	1.697	28.371	-88.008	-132.004	-84.218	197.658	64.314	136.497	0.00051549	0.00039089	7.6464e-05	400.21	2.9765e-06	2.7815e-06	723.7	135.56	4.6152e-07	5.1745e-06	278.02	119.79	65.802	35.434	1.8297e-06	62.927	0.00019778	0.00017021	4.799e-05	394.4	2.0359e-06	1.8728e-06	684.82	133	2.0435e-06	1.864e-06	259.06	112.9	62.576	33.273	2.042e-06	58.04	-81.662	-32.692	-63.355	-134.051	47.778	44.788	-135.835	-127.913	-2.015	23.146	-131.144	-126.913	-123.928	-118.404	-74.468	-122.414	-8191	255	
2409.623	1	1	0	0	0.071014	0.29564	0.13352	0.19594	0.29161	0.16766	0.19764	0.10317	0.28528	0.24246	0.036401	0.13165	0.18484	0.11098	0.40248	0.1998	-2.7896	-3.3667	-2.7875	-3.0333	-3.4021	-2.8146	-3.3354	-2.9792	-2.9979	-3.4417	-3.0812	-3.2396	-3.3833	-2.9854	-3.2271	-3.1188	173.584	94.318	-130.072	197.222	-136.516	-123.216	113.621	-134.081	-115.863	30.715	-123.378	135.118	-77.319	126.624	-31.163	-129.625	0.00045567	0.00038351	0.00010903	396.73	3.0276e-06	4.6485e-06	717.82	135.71	6.18e-06	5.4665e-06	279.58	120.57	65.767	35.035	2.054e-06	62.308	0.00019236	0.00016797	5.2993e-05	390.45	1.9811e-06	1.8263e-06	684.1	132.97	1.9717e-06	1.8424e-06	261.18	112.98	62.607	32.998	2.2342e-06	57.428	-87.390	-89.074	-93.720	-134.019	43.579	34.188	-135.424	-127.690	83.205	-11.502	-131.515	-126.827	-124.415	-118.312	12.968	-122.374	-8191	255	
2409.743	1	1	0	0	0.32574	0.035927	0.060452	0.17936	0.16056	0.19609	0.29291	0.31398	0.10461	0.22424	0.20878	0.17224	0.088919	0.15066	0.22859	0.054872	-2.6562	-3.4646	-2.8854	-3.0729	-3.4167	-2.8521	-3.1063	-3.3229	-2.8063	-3.3646	-3	-3.0938	-3.3667	-2.8521	-3.1937	-3.4417	141.870	183.348	109.901	103.454	187.612	116.508	160.275	-115.331	11.401	-57.762	180.388	143.471	-42.650	-139.596	43.044	99.174	0.0003963	7.4171e-05	2.6241e-05	396.8	4.4842e-06	2.6808e-06	719.71	134.09	2.3043e-06	4.1952e-06	275.25	118.44	65.224	34.058	2.5304e-06	61.138	0.00018493	0.00016815	5.7295e-05	389.84	1.9239e-06	1.866e-06	688.71	130.87	1.9e-06	1.8896e-06	258.26	110.81	61.376	32.126	2.2806e-06	56.179	-83.767	-61.144	-80.462	-134.202	18.545	-61.400	-135.754	-128.007	55.731	-48.052	-130.710	-126.776	-124.125	-118.317	-30.379	-122.604	-8191	255	
2409.840	1	1	0	0	0.076724	0.40732	0.039046	0.054622	0.11076	0.12182	0.11573	0.10069	0.038535	0.27116	0.18871	0.47589	0.16478	0.29653	0.19589	0.36454	-2.4521	-3.2958	-3.1417	-3.0292	-3.4833	-3.0625	-3.2938	-3.0854	-2.8625	-3.2083	-3.1542	-3.1271	-3.2542	-3.0042	-3.1396	-3.2354	209.523	-103.432	-61.819	106.715	156.386	133.756	26.264	142.761	147.849	142.423	159.494	166.203	-132.417	-130.077	23.165	49.606	0.00046364	3.8905e-05	0.00012665	401.54	5.2666e-06	2.9707e-06	724.36	134.32	3.9751e-06	4.0833e-07	277.08	118.71	64.946	34.578	4.6133e-06	62.267	0.00017717	0.00017868	5.7762e-05	392.79	1.8345e-06	1.9904e-06	693.84	130.69	1.8275e-06	2.0637e-06	259.29	111.23	61.781	32.768	2.2345e-06	57.051	-81.780	56.877	54.989	-134.148	14.409	-67.187	-135.266	-127.875	6.011	-140.675	-131.339	-127.036	-124.300	-118.217	-50.641	-122.368	-8191	255	
2409.911	1	1	0	0	0.19682	0.1357	0.065102	0.19081	0.026262	0.055435	0.045587	0.1076	0.11459	0.19295	0.042604	0.36085	0.15491	0.29644	0.13216	0.044626	-2.3875	-3.0875	-3.0625	-3.0312	-3.275	-3.0042	-3.2854	-3.3042	-3.0125	-3.1792	-3.1854	-2.9104	-3.0625	-3.1042	-3.1625	-3.35	25.738	-66.564	69.065	83.647	-50.199	116.261	-143.688	-98.798	-10.430	170.620	-0.445	142.472	115.959	204.745	-61.540	36.952	0.00046654	0.00017872	3.4642e-05	408.81	5.7272e-06	3.8343e-06	747.86	137.9	2.0371e-06	2.1847e-06	283.72	121.47	66.862	34.508	1.5838e-06	62.164	0.00017549	0.00019623	5.6397e-05	399.78	1.7979e-06	2.1869e-06	709.94	134.16	1.8154e-06	2.2244e-06	264.87	113.55	63.084	32.797	2.1018e-06	57.234	-89.958	153.362	131.471	-134.192	19.425	-86.055	-135.473	-128.127	-95.036	-45.444	-131.332	-126.906	-124.216	-117.999	-1.393	-122.310	-8191	255	
2410.007	1	1	0	0	0.31203	0.1787	0.19727	0.18256	0.046466	0.21299	0.060742	0.34594	0.35335	0.27804	0.099052	0.29272	0.32279	0.19733	0.14311	0.057781	-2.6833	-3.1792	-3.1792	-2.9062	-3.2042	-3.0229	-3.2292	-3.2271	-3.0042	-3.2917	-3.4042	-3.0458	-3.2812	-3.3771	-2.8146	-3.4479	23.451	-131.407	86.903	132.566	62.310	101.034	136.280	167.949	144.176	93.429	65.067	-131.827	209.028	186.444	105.312	147.071	0.00050417	0.00035949	9.3616e-05	415.87	2.1808e-06	2.7249e-06	744.75	138.57	2.0176e-06	3.7589e-06	284.09	121.79	66.628	34.004	1.3775e-06	62.203	0.0001792	0.00020595	5.2851e-05	404.72	1.9215e-06	2.2788e-06	710.84	134.26	1.9651e-06	2.2804e-06	264.09	113.5	63.373	32.379	2.0279e-06	57.081	-86.016	-64.694	13.805	-134.051	107.270	-130.012	-135.680	-127.848	-71.266	0.591	-131.473	-127.117	-124.450	-117.958	-7.241	-122.561	-8191	255	
2410.126	1	1	0	0	0.041608	0.095664	0.28807	0.26842	0.10943	0.11471	0.2432	0.26324	0.15482	0.25568	0.31524	0.049532	0.21067	0.083935	0.077825	0.10993	-2.4792	-3.0354	-3.1333	-2.7271	-3.1417	-3.3312	-2.8604	-3.4604	-2.9792	-3.1063	-3.3229	-2.9917	-3.3333	-3.2438	-3.0458	-3.4688	-89.762	169.257	-61.052	137.976	7.463	-27.220	160.260	-141.501	67.190	-35.638	206.924	194.510	-25.248	77.173	203.564	-125.335	0.00049124	0.00029316	0.00017393	416.49	1.0294e-06	5.5479e-06	748.04	139.65	3.4281e-06	3.6215e-06	285.86	122.18	66.17	33.805	2.8529e-06	62.254	0.00019368	0.00020485	5.0765e-05	403.4	2.0782e-06	2.2296e-06	711.87	135.38	2.1365e-06	2.2117e-06	265.12	114.03	63.696	32.08	1.9647e-06	56.821	-86.220	-74.324	1.383	-134.372	136.220	7.988	-135.454	-127.670	-75.468	7.348	-131.140	-126.983	-124.418	-117.791	-7.109	-122.381	-8191	255	
2410.222	1	1	0	0	0.17978	0.18254	0.13646	0.1264	0.054939	0.21261	0.15061	0.14128	0.27127	0.11864	0.28199	0.18432	0.13558	0.32011	0.089445	0.20831	-2.7333	-2.9854	-3.3292	-2.7771	-3.3042	-3.2667	-3.1271	-3.3479	-3.0583	-2.9833	-3.3063	-3.2375	-3.2729	-3.3354	-2.6854	-3.5187	-16.723	24.095	-11.899	-113.185	-54.356	192.481	124.001	204.742	114.189	-51.793	-144.312	154.683	-66.665	32.775	176.020	176.621	0.00047537	0.00047693	7.8191e-05	415.23	1.906e-06	5.3311e-06	742.31	136.79	1.2432e-06	2.2731e-06	279.31	119.59	65.843	33.878	5.1583e-06	61.67	0.00021032	0.00019833	4.9668e-05	401.74	2.2319e-06	2.1378e-06	704.99	132.56	2.2683e-06	2.1093e-06	259.82	111.85	63.097	31.994	1.9068e-06	56.607	-86.254	-86.011	52.698	-134.133	-74.747	-25.904	-135.568	-127.981	-45.344	62.593	-131.141	-127.127	-124.209	-118.137	-51.809	-122.495	-8191	255	
2410.319	1	1	0	0	0.019643	0.20243	0.12438	0.34973	0.40048	0.10699	0.27092	0.12897	0.10974	0.13873	0.16495	0.17746	0.12575	0.12715	0.043015	0.20156	-2.6104	-2.925	-3.2667	-2.8833	-3.3271	-3.0333	-3	-3.2396	-2.9729	-2.8292	-3.3937	-2.8542	-3.1354	-3.1792	-3.0583	-3.4875	89.284	-103.922	176.719	-42.482	-115.151	127.141	42.858	161.168	145.774	-17.141	-45.215	96.932	77.235	-15.475	17.016	152.250	0.00046337	0.00045427	8.1981e-05	414.87	2.5621e-06	5.2748e-06	745.02	138.72	5.2057e-06	4.52e-06	286.1	121.56	67.431	34.9	6.6787e-06	62.598	0.00021705	0.00018522	4.7632e-05	404.1	2.2708e-06	2.0348e-06	706.29	135.33	2.2798e-06	2.0334e-06	263.68	114.24	64.289	32.898	1.879e-06	57.77	-85.828	-58.741	28.762	-134.106	-33.712	-3.685	-135.554	-128.300	21.983	6.108	-131.131	-127.073	-124.278	-117.745	-55.293	-122.320	-8191	255	
2410.415	1	1	0	0	0.20982	0.10328	0.010206	0.098049	0.25135	0.26283	0.27564	0.19306	0.22894	0.071551	0.033151	0.25386	0.07189	0.18038	0.1566	0.14501	-2.6562	-2.8063	-3.1521	-2.8396	-2.8979	-3.3021	-2.9958	-3.4437	-3.1042	-3.0146	-3.2313	-2.9333	-3.0875	-3.1562	-3.0687	-3.2833	89.088	32.009	212.033	207.156	133.202	-32.528	-141.147	30.735	71.151	67.661	-121.890	170.948	119.726	122.560	183.339	138.372	0.00046361	0.00049616	7.3892e-05	412.79	2.7015e-06	2.4798e-06	742.49	136.75	5.1015e-06	7.8512e-07	279.22	118.73	65.352	34.222	2.3751e-06	61.224	0.00021288	0.0001828	4.6849e-05	405.42	2.2098e-06	1.9936e-06	702.84	134.08	2.1737e-06	1.9792e-06	259.07	111.93	62.348	32.25	1.9087e-06	56.543	-85.714	-51.076	21.289	-134.320	10.225	40.733	-135.653	-127.722	27.487	-54.827	-131.202	-126.966	-124.463	-118.019	84.928	-122.508	-8191	255	
2410.535	1	1	0	0	0.10256	0.23426	0.18329	0.010716	0.14304	0.22591	0.0065737	0.21746	0.16478	0.17508	0.25268	0.16501	0.10745	0.053911	0.19315	0.23369	-2.9521	-2.9229	-3.2042	-3.225	-2.9875	-3.3792	-2.9021	-3.1417	-3.3312	-2.8125	-3.2	-3.0292	-3.1417	-3.4083	-2.8271	-3.4292	43.166	-38.671	171.476	-128.539	112.180	92.939	189.948	140.440	33.884	-129.430	168.608	118.028	-95.790	-45.707	151.850	182.973	0.00049387	0.00013423	4.1032e-05	412.06	2.8738e-06	4.1219e-06	735.32	135.03	3.162e-06	5.1036e-07	276.89	118.71	64.885	33.757	6.2454e-06	60.849	0.00020031	0.00017736	4.8829e-05	402.11	2.1253e-06	1.933e-06	696.72	132.68	2.0764e-06	1.8999e-06	258.42	111.54	61.737	31.818	2.0694e-06	56.24	-85.709	-132.366	-8.344	-134.162	59.464	-53.407	-135.661	-127.614	-24.001	58.008	-131.232	-126.884	-124.302	-117.959	-58.103	-122.220	-8191	255	
2410.607	1	1	0	0	0.20842	0.18625	0.18913	0.25955	0.15772	0.17081	0.089103	0.073254	0.19037	0.081111	0.21796	0.12061	0.054856	0.19807	0.069795	0.3676	-2.7083	-2.9	-3.3667	-3.1208	-2.8375	-3.1708	-3.2292	-2.9729	-3.3771	-2.9917	-3.2521	-3.4229	-2.85	-3.5292	-2.9625	-3.2188	-1.254	15.697	193.147	208.749	-29.207	-117.505	-20.407	44.133	146.323	178.715	-144.173	119.339	192.259	-138.959	148.329	160.736	0.00044912	0.00025422	7.2808e-05	408.26	5.3725e-06	1.6201e-06	732.88	132.74	3.3398e-06	1.0065e-06	274.2	115.91	63.068	32.749	2.5814e-06	59.675	0.00019477	0.00017222	5.4032e-05	400.75	2.0249e-06	1.8692e-06	699.04	130.4	2.0222e-06	1.8469e-06	255.65	109.09	60.121	30.926	2.2324e-06	54.943	-92.769	-134.199	-114.821	-134.512	15.853	13.450	-135.586	-127.653	-47.238	-34.559	-131.184	-127.181	-123.963	-117.793	-97.323	-122.230	-8191	255	
2410.728	1	1	0	0	0.036828	0.031897	0.25462	0.27808	0.32484	0.088835	0.26914	0.21385	0.23119	0.11812	0.10129	0.02961	0.13362	0.16199	0.14476	0.13053	-2.775	-2.9646	-3.2646	-3.1583	-2.85	-3.2104	-2.9646	-3.1271	-3.2188	-3.1188	-3.15	-3.2271	-3.0187	-3.2479	-3.0896	-2.9708	-72.557	190.066	-54.333	2.433	-57.124	55.957	131.475	111.973	190.071	95.980	132.003	-93.299	3.816	-49.054	44.736	-56.438	0.00042524	0.0003743	4.9001e-05	409.03	1.2848e-06	4.9724e-06	731.43	133.2	6.1693e-06	1.3638e-06	272.61	117.78	63.938	32.968	4.3885e-06	60.57	0.00018699	0.00016927	5.7115e-05	399.24	1.9533e-06	1.887e-06	698.57	130.15	1.9433e-06	1.9411e-06	257.8	110.2	61.047	31.343	2.3571e-06	55.859	-83.113	-97.271	7.021	-134.347	-11.128	-43.610	-135.609	-127.657	21.914	138.967	-131.267	-127.126	-124.227	-117.771	7.527	-122.444	-8191	255	
2410.824	1	1	0	0	0.084116	0.030507	0.14941	0.33477	0.24933	0.12963	0.11363	0.2685	0.23608	0.28259	0.073786	0.33592	0.116	0.3479	0.058598	0.24563	-2.7917	-2.8937	-3.0396	-3.2313	-2.8396	-3.2875	-3.1667	-2.9188	-3.2333	-3.0854	-3.1729	-3.3875	-2.7875	-2.9958	-3.1875	-2.7333	-141.577	104.534	167.770	183.938	119.872	105.587	126.439	-111.830	-110.141	128.695	-51.639	200.440	-135.664	-120.163	-142.214	-113.613	0.0004365	0.00026815	0.00011379	416.57	4.4965e-06	1.1521e-06	743.95	137	2.3766e-06	5.2144e-07	280.16	120.23	65.86	33.856	4.0778e-06	61.456	0.00018387	0.00018749	6.0274e-05	405.02	1.9269e-06	2.1051e-06	710.44	133.84	1.9154e-06	2.1462e-06	263.53	112.47	62.348	32.078	2.3221e-06	56.526	-92.956	70.873	-27.871	-134.080	-25.893	-136.209	-135.541	-127.632	11.013	-143.256	-130.921	-126.989	-124.107	-117.889	21.034	-122.371	-8191	255	
2410.920	1	1	0	0	0.19761	0.067138	0.0081499	0.074733	0.13733	0.10887	0.14144	0.24847	0.10098	0.1021	0.22105	0.18041	0.23166	0.1617	0.12871	0.27713	-2.9479	-2.7771	-2.925	-3.2167	-2.9042	-3.0438	-3.2583	-2.8646	-3.3646	-3.2146	-2.9646	-3.2917	-2.9083	-3.2417	-3.1979	-2.7729	-70.977	56.708	-54.304	143.611	153.621	55.577	164.163	113.558	141.628	-38.897	190.254	142.837	-89.570	-127.565	-133.943	116.561	0.00048214	0.00014414	0.00010887	415.21	2.5477e-06	2.5176e-06	740.5	136.64	4.4561e-06	4.6381e-06	279.25	118.59	65.003	33.584	3.6719e-06	60.981	0.00018046	0.00020372	5.808e-05	404.08	1.9279e-06	2.2901e-06	706.57	132.76	1.9295e-06	2.3339e-06	261.18	111.29	61.777	32.053	2.2591e-06	56.184	-84.428	-116.747	-23.332	-134.189	-21.920	-88.934	-135.553	-127.999	-20.243	36.740	-131.245	-126.670	-124.180	-117.901	-26.441	-122.244	-8191	255	
2411.014	1	1	0	0	0.27672	0.46469	0.16801	0.075003	0.21692	0.090978	0.15871	0.072387	0.17955	0.1803	0.25621	0.10098	0.11227	0.2002	0.13065	0.05652	-2.8042	-3.0021	-3.0042	-3.3021	-3.025	-3.2146	-3.0708	-2.7208	-3.0646	-3.0938	-2.775	-3.4375	-2.7396	-3.2354	-3.1333	-3.0604	74.433	117.243	-54.837	41.176	-98.181	-125.994	134.656	121.967	59.317	204.152	-3.128	141.470	202.215	188.183	175.752	-14.754	0.00047167	0.00044227	2.515e-05	411.05	1.9479e-06	2.5441e-06	740.44	134.84	4.7337e-06	3.2202e-06	278.1	117.36	63.589	32.974	3.1303e-06	60.374	0.00018876	0.0002174	5.6649e-05	400.75	2.0209e-06	2.4283e-06	703.78	131.7	2.0757e-06	2.4208e-06	259.33	110.25	61.244	31.541	2.1289e-06	55.372	-78.692	-111.496	7.325	-134.389	33.857	-23.790	-135.624	-127.514	-39.798	53.784	-130.888	-127.155	-124.416	-117.872	33.596	-122.206	-8191	255	
2411.135	1	1	0	0	0.16292	0.10439	0.12986	0.10993	0.11828	0.2154	0.43021	0.2488	0.086014	0.12848	0.20406	0.26045	0.13568	0.2625	0.2607	0.2848	-2.7354	-3.025	-2.675	-3.1646	-2.925	-2.9458	-3.1958	-2.6396	-3.1813	-2.8208	-2.7396	-3.1708	-2.8042	-2.9437	-3.1625	-2.8438	144.605	-138.498	38.861	209.653	-122.609	-13.830	113.230	-126.426	-91.188	103.700	-84.631	-143.430	-108.420	165.666	102.697	72.971	0.00049634	0.00050216	0.00011639	408.16	9.7611e-07	4.1887e-06	734.42	132.37	3.5344e-06	6.4306e-06	274.81	116.95	63.647	32.848	1.9616e-06	60.481	0.00020476	0.00021699	5.3845e-05	398.89	2.206e-06	2.3684e-06	699.11	129.33	2.2583e-06	2.3249e-06	256.14	109.33	61.387	31.345	2.067e-06	55.51	-90.267	-62.949	-27.452	-134.112	64.908	19.559	-135.605	-128.011	-99.536	29.014	-131.188	-126.887	-124.255	-117.819	-50.230	-122.392	-8191	255	
2411.207	1	1	0	0	0.074036	0.27142	0.1666	0.16099	0.18334	0.25786	0.33851	0.15387	0.054469	0.14987	0.066086	0.094914	0.10305	0.022849	0.077051	0.27537	-2.6396	-3.0938	-2.7271	-3.2417	-2.9688	-2.7375	-3.4083	-2.6583	-3.0042	-3.2521	-2.7354	-3.1063	-3.2	-3.1167	-3.5229	-3.0104	107.242	116.663	-132.203	182.435	142.635	86.863	133.736	93.622	39.831	106.000	107.104	175.909	-126.634	-83.336	-17.732	114.810	0.00050309	0.0002762	9.6554e-05	414.16	4.1762e-06	3.235e-06	743.81	136.89	3.7199e-06	4.6625e-06	280.18	120.62	65.567	33.862	6.2187e-06	61.925	0.00021835	0.00020681	5.2201e-05	402.72	2.3603e-06	2.2417e-06	705.53	133.02	2.3967e-06	2.2306e-06	261.21	112.47	63.327	32.219	2.0137e-06	56.921	-81.311	-72.468	-37.604	-134.349	32.382	-40.717	-135.599	-127.576	134.063	13.349	-131.168	-126.983	-124.021	-117.865	-25.801	-122.503	-8191	255	
2411.303	1	1	0	0	0.20152	0.27941	0.19143	0.3575	0.058335	0.14634	0.22547	0.060484	0.10566	0.14351	0.12821	0.17463	0.18883	0.037059	0.35902	0.25726	-2.5646	-3.1312	-2.6188	-3.4604	-3.0792	-2.8542	-3.3729	-2.7583	-3.125	-3.1167	-2.8396	-3.2771	-3.1667	-2.8583	-3.3563	-2.8438	-64.294	-52.736	28.440	122.186	-30.736	65.210	77.280	107.019	-46.229	-68.549	188.170	98.648	-141.275	149.664	105.858	-116.104	0.00045725	0.00051663	0.00022298	416.7	2.2645e-06	4.9655e-06	749.02	137.5	5.1242e-06	5.8337e-06	282.86	119.93	65.185	33.51	1.5919e-06	61.336	0.00022833	0.00020008	5.0795e-05	407.21	2.4069e-06	2.1746e-06	710.36	134.44	2.4254e-06	2.1597e-06	261.48	112.45	62.96	31.814	1.9799e-06	56.569	-73.603	-89.623	-59.466	-134.244	-1.216	36.107	-135.459	-128.164	10.556	30.744	-131.239	-127.106	-123.882	-117.649	-32.820	-122.209	-8191	255	
2411.399	1	1	0	0	0.18521	0.22969	0.19978	0.20865	0.014583	0.166	0.17253	0.10278	0.10364	0.20872	0.13882	0.21339	0.17657	0.23668	0.12586	0.4178	-2.5604	-3	-2.7625	-3.2458	-3.1292	-2.8417	-3.625	-2.9458	-2.8229	-3.2438	-3.05	-3.1479	-3.0604	-2.8708	-3.2208	-3.2021	109.483	78.067	-2.714	181.510	160.775	160.588	-143.441	181.638	-35.517	199.256	12.669	151.535	70.318	2.533	109.570	124.333	0.00042615	0.00026133	3.8202e-05	418.92	5.5683e-07	3.2395e-06	749.04	136.93	3.0834e-06	8.2352e-07	282.55	119.92	65.569	34.09	1.5639e-06	62.11	0.00022466	0.00019478	5.005e-05	410.68	2.3596e-06	2.1265e-06	711.56	135.02	2.3573e-06	2.1115e-06	262.73	113.14	62.998	32.301	2.046e-06	57.327	-77.935	-132.960	-111.670	-134.129	73.819	-47.415	-135.714	-128.017	-14.530	-87.537	-131.169	-126.994	-124.307	-117.834	-92.908	-122.485	-8191	255	
2411.520	1	1	0	0	0.21101	0.060604	0.06078	0.12476	0.026044	0.16758	0.21402	0.19923	0.17017	0.23601	0.061638	0.32106	0.20338	0.13799	0.17106	0.2222	-2.7479	-3.35	-2.5354	-3.275	-3.3937	-2.8271	-3.3688	-3.0229	-2.8542	-3.1562	-2.7396	-3.0479	-3.1333	-2.9333	-3.2104	-3.1896	89.408	183.920	-143.144	177.690	-24.652	142.266	202.210	129.410	32.596	194.242	-86.415	210.586	99.821	156.684	-112.196	-103.087	0.00048072	0.00020576	8.5032e-05	419.41	4.5479e-06	4.601e-06	751.93	137.8	3.5211e-06	1.6062e-06	278.53	119.24	65.141	34.261	1.2255e-06	61.716	0.00021175	0.0001887	5.2274e-05	413.25	2.2302e-06	2.0621e-06	714.06	135.51	2.2053e-06	2.0116e-06	261.79	112.51	62.259	32.457	2.1698e-06	57.018	-80.157	-45.067	-101.445	-134.210	37.452	-42.762	-135.697	-127.779	90.702	0.792	-131.386	-126.574	-123.880	-118.049	-37.003	-122.135	-8191	255	
2411.616	1	1	0	0	0.1679	0.1186	0.22322	0.068733	0.063226	0.0402	0.1001	0.087534	0.098417	0.092243	0.20119	0.12219	0.29593	0.18653	0.042549	0.07285	-2.5458	-3.0771	-2.8563	-2.9813	-3.0812	-2.9125	-3.2729	-2.9208	-3.0604	-3.3229	-2.8354	-3.0667	-3.1917	-2.8729	-3.025	-3.0438	-140.002	204.987	-90.522	206.059	-58.363	151.664	124.114	174.944	111.524	44.750	79.351	-121.169	213.123	206.682	144.281	-61.372	0.00049835	0.00044365	6.8244e-05	412.67	5.8815e-06	4.8722e-06	751.98	136.56	2.1049e-06	4.2493e-06	281.33	119.82	65.739	35.262	2.5368e-06	62.383	0.00020351	0.00017834	5.6226e-05	408.16	2.1022e-06	1.9257e-06	712.94	134.35	2.0936e-06	1.9362e-06	262.63	112.78	62.898	33.274	2.3242e-06	57.669	-75.789	-50.578	-116.009	-134.163	-0.835	4.150	-135.650	-127.825	74.074	-57.930	-131.311	-127.006	-124.344	-117.807	-56.717	-122.420	-8191	255	
2411.712	1	1	0	0	0.17954	0.11009	0.28687	0.18336	0.32866	0.2136	0.06973	0.021311	0.15685	0.185	0.28301	0.31575	0.17869	0.1521	0.18768	0.16756	-2.5938	-3.1042	-2.9021	-3.0375	-3.2167	-2.975	-3.3208	-3.0417	-2.825	-3.1917	-2.8708	-2.8979	-3.1958	-2.925	-3.1208	-3.0458	173.923	199.351	185.365	-133.839	28.993	-109.686	-48.302	8.058	45.436	-125.094	178.943	-89.794	106.236	128.148	113.535	131.352	0.00038872	0.00021109	8.6519e-05	422.92	3.5867e-06	8.5908e-07	763.97	141.16	6.2252e-06	4.1835e-06	287.38	123.01	67.691	35.716	2.1065e-06	63.206	0.00019382	0.00017872	5.9613e-05	413.44	2.0567e-06	1.9773e-06	727.94	137.55	2.0232e-06	1.9932e-06	269.98	115.15	64.223	33.766	2.4279e-06	58.321	-78.377	-64.315	-97.524	-134.146	61.878	26.514	-135.713	-127.788	84.242	-20.915	-130.992	-126.660	-124.353	-117.860	-26.545	-122.219	-8191	255	
2411.808	1	1	0	0	0.17476	0.17829	0.20115	0.20763	0.17138	0.24647	0.056842	0.36248	0.1316	0.0641	0.20797	0.060101	0.22018	0.013696	0.033794	0.24259	-2.2771	-3.1458	-2.9771	-2.8417	-3.3979	-2.7417	-3.1417	-3.3292	-2.6958	-3.1146	-3.0229	-2.7604	-3.3417	-2.7708	-3.1771	-3.1958	54.535	34.115	-72.897	41.375	126.282	74.723	-54.931	130.275	-132.478	146.521	118.542	205.075	198.507	123.426	207.922	144.462	0.00042734	0.00014278	0.00018078	427.63	2.5305e-06	1.8011e-06	767.56	142.01	1.0739e-06	4.0857e-06	288.14	121.51	66.577	35.151	4.4507e-06	62.506	0.00018872	0.00018741	6.1104e-05	416.01	1.9396e-06	2.1295e-06	732.52	137.91	1.9355e-06	2.1604e-06	269.49	113.87	63.099	33.326	2.3507e-06	57.481	-82.612	161.908	-7.493	-134.076	-25.486	-95.720	-135.539	-128.132	-116.947	-64.882	-131.151	-127.156	-124.218	-118.309	8.651	-122.034	-8191	255	
2411.902	1	1	0	0	0.14442	0.23344	0.2116	0.37333	0.10641	0.06127	0.24569	0.15477	0.16294	0.088271	0.27195	0.13048	0.15605	0.14777	0.10969	0.21071	-2.2458	-3.2083	-2.8479	-2.6188	-3.3646	-2.9	-3.1333	-3.2646	-2.7438	-3.2938	-3.1063	-2.7146	-3.35	-3.0146	-2.9583	-3.4604	-41.747	106.066	-83.947	139.020	173.223	-93.444	105.708	166.249	155.399	183.167	198.963	134.820	-129.399	-102.524	-110.481	90.009	0.0004534	0.00010284	0.00013177	427.17	2.4953e-06	1.5385e-06	770.93	140.76	3.2088e-06	1.0252e-06	285.17	120.93	65.992	35.018	2.233e-06	62.369	0.00018247	0.00020319	5.8718e-05	416.4	1.9075e-06	2.2961e-06	733.11	137.05	1.8932e-06	2.3203e-06	267.14	113.34	62.667	33.3	2.2113e-06	57.211	-85.535	171.570	-52.277	-134.326	14.765	-25.861	-135.592	-128.120	64.994	-99.291	-130.992	-126.781	-124.221	-118.029	121.483	-122.287	-8191	255	
#DATA ENDS
