BOXY.EXE: ISS Imagent and Oximeter Data Acquisition Program Version 0.80
Ascii Record File

#ACQ INFORMATION
2  Detector Channels 
16  External MUX Channels 
1  Auxiliary Channels 
5000  Waveform (CCF) Frequency (Hz)
1  Waveforms Skipped 
30  Waveforms Averaged 
1  Cycles Averaged 
16  Acquisitions per Waveform 
10.0806  Updata Rate (Hz) 

#FILE INFORMATION
TRUE -- External MUX Channel results are PARSED.
FALSE -- AC DC and Phase are NOT grouped.
TRUE -- Companion Program Settings File CREATED.
FALSE -- AC data not excluded
FALSE -- DC data not excluded
FALSE -- Phase data not excluded
FALSE -- Auxillary Chn. data not excluded
Tab delimiters

#CALIBRATION STATE
TRUE -- Waveform Calibration Values APPLIED.


#AUX CALIBRATION VALUES
Val Type	aux-1	

Term	1.0000e+00	
Factor	0.0000e+00	


#WF CALIBRATION VALUES
A = Detector Channel
Val Type	A-AC1	A-AC2	A-AC3	A-AC4	A-AC5	A-AC6	A-AC7	A-AC8	A-AC9	A-AC10	A-AC11	A-AC12	A-AC13	A-AC14	A-AC15	A-AC16	A-DC1	A-DC2	A-DC3	A-DC4	A-DC5	A-DC6	A-DC7	A-DC8	A-DC9	A-DC10	A-DC11	A-DC12	A-DC13	A-DC14	A-DC15	A-DC16	A-Ph1	A-Ph2	A-Ph3	A-Ph4	A-Ph5	A-Ph6	A-Ph7	A-Ph8	A-Ph9	A-Ph10	A-Ph11	A-Ph12	A-Ph13	A-Ph14	A-Ph15	A-Ph16	

Term	0.00000e+00	0.00000e+00	0.00000e+00	0.00000e+00	0.00000e+00	0.00000e+00	0.00000e+00	0.00000e+00	0.00000e+00	0.00000e+00	0.00000e+00	0.00000e+00	0.00000e+00	0.00000e+00	0.00000e+00	0.00000e+00	0.00000e+00	0.00000e+00	0.00000e+00	0.00000e+00	0.00000e+00	0.00000e+00	0.00000e+00	0.00000e+00	0.00000e+00	0.00000e+00	0.00000e+00	0.00000e+00	0.00000e+00	0.00000e+00	0.00000e+00	0.00000e+00	0.00000e+00	0.00000e+00	0.00000e+00	0.00000e+00	0.00000e+00	0.00000e+00	0.00000e+00	0.00000e+00	0.00000e+00	0.00000e+00	0.00000e+00	0.00000e+00	0.00000e+00	0.00000e+00	0.00000e+00	0.00000e+00	
Factor	1.00000e+00	1.00000e+00	1.00000e+00	1.00000e+00	1.00000e+00	1.00000e+00	1.00000e+00	1.00000e+00	1.00000e+00	1.00000e+00	1.00000e+00	1.00000e+00	1.00000e+00	1.00000e+00	1.00000e+00	1.00000e+00	1.00000e+00	1.00000e+00	1.00000e+00	1.00000e+00	1.00000e+00	1.00000e+00	1.00000e+00	1.00000e+00	1.00000e+00	1.00000e+00	1.00000e+00	1.00000e+00	1.00000e+00	1.00000e+00	1.00000e+00	1.00000e+00	X	X	X	X	X	X	X	X	X	X	X	X	X	X	X	X	

B = Detector Channel
Val Type	B-AC1	B-AC2	B-AC3	B-AC4	B-AC5	B-AC6	B-AC7	B-AC8	B-AC9	B-AC10	B-AC11	B-AC12	B-AC13	B-AC14	B-AC15	B-AC16	B-DC1	B-DC2	B-DC3	B-DC4	B-DC5	B-DC6	B-DC7	B-DC8	B-DC9	B-DC10	B-DC11	B-DC12	B-DC13	B-DC14	B-DC15	B-DC16	B-Ph1	B-Ph2	B-Ph3	B-Ph4	B-Ph5	B-Ph6	B-Ph7	B-Ph8	B-Ph9	B-Ph10	B-Ph11	B-Ph12	B-Ph13	B-Ph14	B-Ph15	B-Ph16	

Term	0.00000e+00	0.00000e+00	0.00000e+00	0.00000e+00	0.00000e+00	0.00000e+00	0.00000e+00	0.00000e+00	0.00000e+00	0.00000e+00	0.00000e+00	0.00000e+00	0.00000e+00	0.00000e+00	0.00000e+00	0.00000e+00	0.00000e+00	0.00000e+00	0.00000e+00	0.00000e+00	0.00000e+00	0.00000e+00	0.00000e+00	0.00000e+00	0.00000e+00	0.00000e+00	0.00000e+00	0.00000e+00	0.00000e+00	0.00000e+00	0.00000e+00	0.00000e+00	-1.80303e+02	-1.38097e+02	-1.19944e+02	-1.80819e+02	-7.90061e+01	-8.11867e+01	-1.57378e+02	-1.62015e+02	-8.94823e+01	-7.32125e+01	-1.71564e+02	-1.71541e+02	-1.83671e+02	-1.76147e+02	-9.09538e+01	-1.49257e+02	
Factor	2.87017e-05	1.45962e-04	4.30770e-05	1.57142e-01	1.46671e-06	1.61965e-06	1.59980e-01	4.53428e-02	1.43660e-06	1.32136e-06	7.50420e-02	2.82269e-02	3.42424e-02	8.08152e-03	1.41912e-06	1.17899e-02	2.86743e-06	3.12586e-06	8.73151e-07	7.88825e-02	3.38613e-08	3.44756e-08	7.56613e-02	2.28643e-02	3.41259e-08	3.46871e-08	3.65790e-02	1.37491e-02	1.70758e-02	4.08423e-03	3.47117e-08	5.78306e-03	X	X	X	X	X	X	X	X	X	X	X	X	X	X	X	X	



#DISTANCE SETTINGS
A = Detector Channel
A-1	A-2	A-3	A-4	A-5	A-6	A-7	A-8	A-9	A-10	A-11	A-12	A-13	A-14	A-15	A-16	

2.5000e+00	3.0000e+00	2.5000e+00	3.0000e+00	2.0000e+00	3.0000e+00	1.5000e+00	3.0000e+00	3.0000e+00	3.0000e+00	3.0000e+00	3.0000e+00	3.0000e+00	3.0000e+00	1.5000e+00	3.0000e+00	

B = Detector Channel
B-1	B-2	B-3	B-4	B-5	B-6	B-7	B-8	B-9	B-10	B-11	B-12	B-13	B-14	B-15	B-16	

1.0000e+01	1.0000e+01	1.0000e+01	1.4400e+00	1.0000e+01	1.0000e+01	1.5100e+00	1.9400e+00	1.0000e+01	1.0000e+01	1.9900e+00	2.4900e+00	2.4100e+00	2.9000e+00	1.0000e+01	2.9800e+00	




#DATA BEGINS
time	group	step	mark	flag	A-AC1	A-AC2	A-AC3	A-AC4	A-AC5	A-AC6	A-AC7	A-AC8	A-AC9	A-AC10	A-AC11	A-AC12	A-AC13	A-AC14	A-AC15	A-AC16	A-DC1	A-DC2	A-DC3	A-DC4	A-DC5	A-DC6	A-DC7	A-DC8	A-DC9	A-DC10	A-DC11	A-DC12	A-DC13	A-DC14	A-DC15	A-DC16	A-Ph1	A-Ph2	A-Ph3	A-Ph4	A-Ph5	A-Ph6	A-Ph7	A-Ph8	A-Ph9	A-Ph10	A-Ph11	A-Ph12	A-Ph13	A-Ph14	A-Ph15	A-Ph16	B-AC1	B-AC2	B-AC3	B-AC4	B-AC5	B-AC6	B-AC7	B-AC8	B-AC9	B-AC10	B-AC11	B-AC12	B-AC13	B-AC14	B-AC15	B-AC16	B-DC1	B-DC2	B-DC3	B-DC4	B-DC5	B-DC6	B-DC7	B-DC8	B-DC9	B-DC10	B-DC11	B-DC12	B-DC13	B-DC14	B-DC15	B-DC16	B-Ph1	B-Ph2	B-Ph3	B-Ph4	B-Ph5	B-Ph6	B-Ph7	B-Ph8	B-Ph9	B-Ph10	B-Ph11	B-Ph12	B-Ph13	B-Ph14	B-Ph15	B-Ph16	aux-1	digaux	

7657.237	1	1	0	256	0.33126	0.06593	0.16155	0.13073	0.051186	0.052949	0.19511	0.37618	0.11882	0.35547	0.28193	0.26389	0.088655	0.25352	0.25143	0.32468	-2.1208	-2.9938	-2.5021	-2.6708	-2.8563	-2.5583	-2.7562	-2.7958	-2.4771	-2.5729	-2.6437	-2.6958	-2.7521	-2.4896	-2.8333	-2.8042	120.945	54.985	-12.700	-29.924	34.564	191.638	-40.962	229.457	-32.174	43.056	154.567	215.001	12.450	5.245	-32.796	160.666	0.000134	0.00052238	0.00010294	1199.5	2.8714e-06	3.8452e-06	1258	244.69	1.3383e-06	3.2343e-06	305.88	83.242	65.382	18.917	3.5995e-07	26.887	0.00020066	0.00019955	5.6566e-05	1164.8	2.253e-06	2.2029e-06	1230.7	241.23	2.3472e-06	2.3326e-06	301.6	83.059	65.182	18.996	2.3697e-06	27.022	105.916	-10.577	33.554	-67.171	48.125	97.888	-67.203	-60.537	129.640	78.452	-60.419	-54.044	-53.639	-46.899	48.657	-46.873	-8191	255	
7657.333	1	1	0	0	0.10156	0.28594	0.14445	0.24544	0.14999	0.11291	0.15218	0.28568	0.21389	0.31927	0.18004	0.19125	0.28016	0.38043	0.21679	0.37905	-2.1958	-2.8438	-2.6813	-2.5396	-2.7438	-2.6813	-2.9167	-2.9188	-2.5438	-2.9646	-2.6562	-2.5812	-2.9479	-2.6354	-2.6208	-2.9167	-55.198	166.121	66.126	205.920	249.668	23.463	180.729	257.942	213.048	118.285	200.434	214.278	217.091	264.465	226.616	26.914	0.00016615	0.00017411	0.00014222	1211.6	1.7291e-06	3.1253e-06	1275.2	247.35	2.3806e-06	2.2429e-06	306.86	83.465	65.738	19.038	4.5712e-06	27.058	0.00021591	0.00021345	5.9784e-05	1182.7	2.4401e-06	2.4381e-06	1245.9	244.08	2.5143e-06	2.4937e-06	303.11	83.481	65.683	19.151	2.5313e-06	27.139	123.606	28.626	4.664	-67.187	179.556	46.073	-67.389	-60.568	49.688	138.201	-60.381	-54.116	-53.622	-46.736	46.746	-46.805	-8191	255	
7657.454	1	1	0	0	0.06504	0.080086	0.25527	0.44735	0.043346	0.062891	0.29481	0.32464	0.21983	0.11212	0.35415	0.059549	0.088801	0.32569	0.20184	0.28614	-2.0646	-2.7604	-2.6125	-2.6229	-2.7458	-2.75	-2.75	-2.9396	-2.3646	-2.7021	-2.725	-2.7208	-3.0208	-2.5042	-2.7313	-2.9708	180.597	107.269	121.761	-72.961	152.326	-40.266	161.012	204.475	-48.164	51.201	-75.257	-67.728	69.894	-40.897	-8.166	189.909	0.00012867	0.0002337	6.819e-05	1213.1	2.3209e-06	2.5502e-06	1272.8	247.92	3.0995e-06	3.0427e-06	310.16	84.163	66.019	19.089	2.9609e-06	26.915	0.00022991	0.00023015	6.4249e-05	1186.1	2.5737e-06	2.5709e-06	1248.9	244.85	2.6248e-06	2.4821e-06	304.32	83.676	65.741	19.192	2.4517e-06	27.14	154.256	22.631	57.834	-67.239	48.635	-11.867	-67.373	-60.337	8.703	86.002	-60.777	-54.118	-54.084	-47.351	6.276	-47.544	-8191	255	
7657.550	1	1	0	0	0.01699	0.25554	0.14566	0.15822	0.031633	0.082406	0.026678	0.1615	0.18696	0.084039	0.14503	0.27032	0.29842	0.24831	0.17206	0.088989	-2.2229	-2.875	-2.7292	-2.7521	-2.8812	-3.0042	-2.6396	-3.0896	-2.7708	-2.7188	-2.8187	-2.675	-2.9583	-2.7708	-2.5604	-2.8271	-31.092	60.246	30.519	241.991	189.996	25.368	241.856	200.821	203.136	209.579	240.725	262.591	217.680	244.445	6.262	55.659	0.00012885	0.00036476	0.0001094	1218	1.5225e-06	1.9198e-06	1276.3	247.9	1.2585e-06	4.921e-06	309.94	83.45	65.632	18.901	1.8562e-06	26.856	0.00021875	0.00021236	5.7595e-05	1187.3	2.3143e-06	2.2357e-06	1249.4	244.51	2.3354e-06	2.2414e-06	304.03	83.359	65.445	19.043	2.1821e-06	26.969	93.928	1.608	5.100	-67.236	28.779	43.696	-67.206	-60.512	76.055	81.847	-60.698	-54.204	-54.003	-47.056	88.209	-47.141	-8191	255	
7657.646	1	1	0	0	0.21992	0.090449	0.23635	0.25464	0.13044	0.10246	0.086167	0.1127	0.036206	0.31876	0.13502	0.10841	0.26589	0.21681	0.13382	0.1989	-2.0375	-2.3979	-2.7812	-2.7313	-2.8812	-2.7479	-2.6604	-2.6646	-2.7521	-2.7083	-2.8396	-2.5583	-2.7687	-2.9625	-2.65	-2.925	154.269	24.261	187.554	238.227	-14.685	264.476	0.728	257.246	-39.116	-39.417	194.327	195.709	201.947	163.579	223.457	263.440	0.00013378	0.00042698	0.00011752	1210.1	2.3479e-06	4.856e-06	1268	246.44	1.1542e-06	4.0034e-08	307.93	83.277	65.322	18.787	4.0725e-06	26.858	0.00020149	0.00019268	5.5134e-05	1179.3	2.2059e-06	2.1578e-06	1239.7	242.49	2.2803e-06	2.2013e-06	301.99	83.01	65.065	18.921	2.2777e-06	26.915	118.228	-4.557	-26.639	-67.244	83.253	44.475	-67.380	-60.227	-55.031	46.570	-60.465	-54.279	-54.163	-47.024	16.335	-47.096	-8191	255	
7657.767	1	1	0	0	0.17395	0.20526	0.16242	0.22242	0.35211	0.098639	0.096583	0.082377	0.13973	0.23832	0.22784	0.15966	0.22758	0.04882	0.13391	0.16618	-2.0271	-2.5021	-2.7188	-2.7083	-2.9708	-2.8604	-2.6208	-2.8688	-2.6875	-2.6896	-2.9833	-2.6479	-2.8229	-2.8333	-2.5875	-2.9354	-40.760	200.226	-33.655	219.435	130.986	67.591	281.649	181.182	95.754	141.009	265.815	131.881	54.326	152.250	20.149	246.237	0.00013629	0.0003778	3.9879e-05	1200	4.0943e-06	4.1633e-06	1262.9	245.15	2.9129e-06	3.9969e-06	307.62	82.623	65.493	19.076	4.8124e-06	26.909	0.00020375	0.00020104	5.6475e-05	1174.1	2.2135e-06	2.158e-06	1235.9	241.83	2.1913e-06	2.1386e-06	301.34	82.726	65.097	19.045	2.106e-06	27.001	121.821	24.325	-5.489	-67.204	72.884	39.773	-67.193	-60.130	78.406	50.158	-60.531	-54.056	-53.655	-46.839	52.648	-47.082	-8191	255	
7657.836	1	1	0	0	0.34458	0.034134	0.21109	0.082769	0.29683	0.25865	0.24305	0.10222	0.36994	0.21915	0.087823	0.22176	0.13581	0.098763	0.11429	0.12845	-2.1562	-2.5333	-2.7833	-2.6792	-2.7229	-2.8688	-2.8729	-2.8708	-2.7042	-2.7792	-2.9979	-2.5208	-2.7	-2.9375	-2.6854	-2.9354	66.639	250.353	-61.263	214.530	96.891	113.812	224.501	187.936	-49.298	-67.125	-44.754	204.904	-6.008	203.808	218.963	241.577	0.00011358	0.00024263	0.00010275	1202.3	1.6104e-06	1.8093e-06	1262.2	246.8	1.4947e-06	2.923e-06	306.29	83.274	65.867	19.02	2.488e-06	26.852	0.00019484	0.00018773	5.1019e-05	1175.3	2.0524e-06	1.9548e-06	1239.5	242.92	2.038e-06	1.997e-06	302.37	82.963	65.207	19.058	2.205e-06	26.959	85.421	6.972	37.323	-67.541	52.911	20.028	-67.263	-60.417	112.209	27.772	-60.403	-54.102	-53.859	-47.171	76.626	-47.226	-8191	255	
7657.934	1	1	0	0	0.15468	0.20235	0.21441	0.099735	0.1513	0.092508	0.093821	0.19904	0.12127	0.15179	0.1369	0.12331	0.23108	0.28041	0.14243	0.24327	-2.2938	-2.5979	-2.6729	-2.6708	-2.4417	-2.9229	-2.7812	-2.8396	-2.6792	-2.6042	-2.975	-2.6854	-2.5917	-2.8375	-2.625	-2.7938	44.549	54.005	-52.163	191.577	-27.415	107.553	174.080	241.863	-70.822	209.237	153.543	273.830	280.971	-50.836	-51.999	281.102	0.00013587	0.00033676	0.00013475	1204.5	2.8163e-06	2.5551e-06	1260.9	245.8	2.7084e-06	4.666e-06	307.09	83.136	65.373	18.932	3.978e-07	26.759	0.00020074	0.00019875	5.5918e-05	1174.4	2.2722e-06	2.1646e-06	1236.9	242.38	2.2842e-06	2.2306e-06	301.29	82.798	64.988	19	2.2111e-06	26.918	102.072	50.123	-12.499	-67.338	43.101	58.908	-67.452	-60.153	57.917	78.606	-60.396	-54.032	-53.562	-46.904	119.213	-47.176	-8191	255	
7658.053	1	1	0	0	0.14339	0.11433	0.059157	0.28364	0.17503	0.17929	0.17722	0.18562	0.21527	0.12365	0.11944	0.26395	0.066139	0.26931	0.15631	0.16275	-2.3333	-2.2854	-2.6021	-2.6375	-2.5896	-2.8146	-2.6396	-2.7687	-2.7771	-2.55	-2.9083	-2.7188	-2.4917	-2.8083	-2.7146	-2.6167	64.613	199.117	0.895	239.568	271.655	247.111	-12.005	205.441	231.374	192.951	232.174	208.242	278.811	-31.904	-69.908	-4.640	6.4824e-05	0.00028221	3.6706e-05	1203	2.0601e-06	4.6559e-06	1258	245.28	8.6106e-07	2.5728e-06	306.41	82.477	65.908	18.888	1.6454e-06	26.528	0.00019652	0.00019748	5.3966e-05	1174.1	2.1292e-06	2.0813e-06	1236.6	242.11	2.058e-06	2.0306e-06	301.01	82.57	64.943	18.894	2.0335e-06	26.743	121.033	34.964	40.855	-67.314	74.466	67.498	-67.380	-60.071	273.561	52.604	-60.274	-54.084	-53.862	-46.097	-7.104	-46.933	-8191	255	
7658.149	1	1	0	0	0.004638	0.070842	0.20254	0.26069	0.18644	0.27532	0.24544	0.21359	0.21664	0.17837	0.14142	0.213	0.18736	0.042331	0.13755	0.39341	-2.4542	-2.4542	-2.6854	-2.6688	-2.3729	-2.8271	-2.7375	-2.9083	-2.7021	-2.4958	-2.9042	-2.8	-2.2667	-2.9604	-2.4896	-2.7333	161.760	219.794	177.352	206.719	-24.535	165.389	201.782	256.557	44.333	34.663	-28.699	-64.271	29.772	77.316	21.208	228.716	0.00016891	0.00034386	0.00012361	1200.5	2.2784e-06	3.7042e-06	1258.6	244.14	2.6372e-06	3.0332e-06	304.78	82.474	64.884	18.715	3.9815e-06	26.714	0.00018099	0.00017517	4.8946e-05	1170.1	1.9997e-06	1.9461e-06	1231.4	240.77	1.9985e-06	1.985e-06	299.14	82.156	64.488	18.731	2.0481e-06	26.676	114.772	-5.792	18.437	-67.455	121.153	81.093	-67.322	-60.357	0.414	92.108	-60.210	-54.158	-53.489	-46.270	37.584	-47.031	-8191	255	
7658.246	1	1	0	0	0.1124	0.18977	0.23604	0.050332	0.40278	0.11052	0.22936	0.19622	0.28354	0.11711	0.11907	0.02124	0.16882	0.13773	0.24054	0.10395	-2.4792	-2.4292	-2.7833	-2.9688	-2.3542	-2.8646	-2.8688	-2.675	-2.8	-2.6958	-2.9688	-2.9354	-2.4333	-2.8542	-2.75	-2.5542	181.057	254.935	51.653	250.621	165.257	7.628	220.021	176.632	266.346	125.673	-41.527	-27.644	144.153	26.323	111.868	-10.518	8.5114e-05	0.00014772	5.2804e-05	1192.5	2.3283e-06	5.751e-06	1253.3	243.14	6.4782e-07	1.8111e-06	303.17	82.179	64.991	18.542	2.6179e-06	26.429	0.00019462	0.00019307	5.2582e-05	1163.9	2.1273e-06	2.1052e-06	1227.5	239.68	2.1529e-06	2.078e-06	299.47	81.911	64.287	18.629	2.2054e-06	26.546	127.593	43.388	36.659	-67.369	29.315	63.525	-67.236	-60.320	256.407	16.914	-60.448	-53.899	-53.669	-46.307	35.014	-46.736	-8191	255	
7658.342	1	1	0	0	0.037226	0.24186	0.20339	0.29322	0.086899	0.30178	0.21546	0.27761	0.23864	0.37029	0.087552	0.1933	0.32891	0.16559	0.11237	0.13541	-2.2458	-2.6396	-2.5542	-2.9271	-2.6771	-2.9771	-2.8208	-2.8187	-2.7792	-2.3979	-2.9458	-2.7812	-2.4229	-2.9167	-2.4896	-2.6063	114.540	250.872	144.681	219.740	239.205	9.039	167.321	189.835	95.111	123.185	214.376	243.505	-59.898	275.965	96.047	136.783	0.00011257	0.00037301	0.0001089	1196.3	1.7396e-06	3.4923e-06	1255.9	242.24	3.5833e-06	2.3467e-06	303	81.584	64.317	18.544	4.0527e-06	26.269	0.00020436	0.0002015	5.522e-05	1168	2.2712e-06	2.2204e-06	1225.2	239.17	2.2698e-06	2.2111e-06	297.66	81.458	63.966	18.569	2.2861e-06	26.41	130.493	46.412	-0.600	-67.163	8.327	58.038	-67.280	-60.123	69.665	66.979	-60.669	-53.888	-53.824	-46.312	61.111	-46.638	-8191	255	
7658.438	1	1	0	0	0.2936	0.19731	0.13389	0.16009	0.1897	0.15699	0.36283	0.091871	0.13498	0.30748	0.094839	0.024927	0.06606	0.14283	0.28944	0.17103	-2.2292	-2.325	-2.5708	-3.0521	-2.5854	-2.8125	-2.8271	-2.6729	-2.7729	-2.7771	-2.7604	-2.7542	-2.5333	-2.6021	-2.8458	-2.5042	253.463	1.027	184.210	271.900	82.304	180.939	233.986	-39.586	18.820	269.561	228.637	139.711	114.230	244.781	71.653	248.764	0.00010212	0.00069819	7.7118e-05	1185.6	2.483e-06	4.3707e-06	1244.7	241.43	3.6737e-06	1.0302e-06	300.84	81.651	63.475	18.312	2.9069e-06	26.069	0.00020688	0.00019899	5.4888e-05	1158.5	2.1973e-06	2.1462e-06	1219	237.89	2.0988e-06	2.1395e-06	296.12	81.115	63.424	18.415	2.0837e-06	26.258	130.239	-16.273	-17.087	-67.320	109.726	42.256	-67.456	-60.373	77.893	43.311	-60.428	-53.915	-53.919	-46.824	59.287	-46.836	-8191	255	
7658.534	1	1	0	0	0.2132	0.16195	0.037785	0.23377	0.1795	0.061334	0.10553	0.26978	0.15668	0.096464	0.083141	0.29342	0.13265	0.11521	0.12793	0.097269	-2.2792	-2.5271	-2.5563	-3.0229	-2.6667	-2.5938	-3.0292	-2.6146	-2.7104	-2.6333	-2.7458	-2.9229	-2.5792	-2.7667	-2.7313	-2.6562	36.534	168.860	206.566	271.795	85.801	125.581	244.026	214.882	266.346	167.353	186.628	181.982	250.267	129.966	168.817	216.759	0.00011646	0.00024021	5.1356e-05	1183.1	2.0554e-06	2.4511e-06	1241.8	240.9	1.9518e-06	3.8504e-06	300.21	80.839	64.035	18.33	3.988e-06	26.126	0.00019401	0.00018861	5.2418e-05	1154.1	2.1354e-06	2.069e-06	1216.2	237.36	2.1675e-06	2.0573e-06	296.39	81.007	63.498	18.45	2.186e-06	26.312	86.909	8.620	5.595	-67.170	98.469	34.805	-67.238	-60.201	54.591	51.342	-60.485	-54.092	-53.630	-46.509	26.796	-47.124	-8191	255	
7658.655	1	1	0	0	0.095201	0.20506	0.24302	0.35874	0.27483	0.14029	0.2441	0.16519	0.13405	0.14227	0.16028	0.27453	0.047405	0.32325	0.09628	0.057837	-2.4437	-2.5375	-2.575	-2.9229	-2.5875	-2.6396	-2.9708	-2.5	-2.6937	-2.65	-2.6604	-2.9896	-2.6167	-2.7146	-2.5458	-2.525	225.779	-65.353	51.333	244.401	209.953	183.997	165.804	213.390	32.955	269.484	191.413	199.150	121.353	189.039	215.155	274.451	0.00016902	0.00044177	9.4043e-05	1188.6	3.4612e-06	1.2687e-06	1244.6	241.34	4.0025e-06	3.9048e-06	301.28	81.121	64.086	18.427	2.3025e-06	26.295	0.00019607	0.00019528	5.2997e-05	1158.3	2.1709e-06	2.1426e-06	1219.4	238	2.2589e-06	2.2215e-06	296.72	81.183	63.643	18.46	2.2448e-06	26.359	131.527	11.664	13.970	-67.057	53.984	122.399	-67.428	-60.400	16.939	53.370	-60.496	-53.797	-53.790	-46.761	91.374	-46.830	-8191	255	
7658.751	1	1	0	0	0.09668	0.11221	0.092842	0.12731	0.084817	0.18179	0.14498	0.26665	0.10096	0.1085	0.33533	0.26195	0.26448	0.17094	0.22678	0.1542	-2.3854	-2.6396	-2.3688	-2.9688	-2.7792	-2.6625	-2.9646	-2.7583	-2.6604	-2.8042	-2.7854	-2.9208	-2.6708	-2.6896	-2.7458	-2.5958	2.786	219.726	-29.110	21.575	186.566	139.016	181.120	190.023	170.004	40.641	203.553	-69.194	-39.996	178.645	54.085	-64.764	8.9626e-05	0.00041124	0.00013317	1188.9	3.3843e-06	2.8944e-06	1244.1	241.43	3.3758e-06	3.1908e-06	301.62	81.738	63.813	18.275	4.2395e-06	26.141	0.00020452	0.00020174	5.4956e-05	1159.3	2.2903e-06	2.2384e-06	1221.9	238.36	2.2764e-06	2.2638e-06	297.29	81.314	63.506	18.478	2.2988e-06	26.318	96.498	49.125	-19.415	-67.251	96.932	66.121	-67.176	-60.071	72.431	78.279	-60.584	-53.996	-53.914	-46.547	10.744	-46.995	-8191	255	
7658.845	1	1	0	0	0.093478	0.11824	0.16344	0.1555	0.029074	0.21077	0.14785	0.063733	0.1846	0.23427	0.1205	0.24201	0.043998	0.16701	0.41689	0.13303	-2.2625	-2.5479	-2.4208	-2.9646	-2.7396	-2.5896	-3.1063	-2.6688	-2.85	-2.7979	-2.725	-2.8229	-2.825	-2.5917	-2.8479	-2.6312	-36.308	33.062	145.572	-41.125	-26.365	227.872	251.366	127.809	-56.352	126.377	270.099	-3.276	137.608	184.502	136.465	127.318	0.00016652	0.00013766	9.6061e-05	1188.9	5.7578e-07	3.568e-06	1248.1	241.21	3.8276e-07	2.3199e-06	302.03	81.078	64.372	18.513	1.2181e-06	26.312	0.00020417	0.00020213	5.6296e-05	1159.7	2.2645e-06	2.2316e-06	1221	238.43	2.2582e-06	2.1957e-06	296.99	81.143	63.757	18.544	2.2299e-06	26.433	137.988	29.109	52.353	-67.232	124.530	82.163	-67.271	-60.281	105.388	30.044	-60.487	-53.865	-53.534	-46.804	7.295	-46.795	-8191	255	
7658.941	1	1	0	0	0.049271	0.25914	0.02433	0.51697	0.076882	0.21976	0.20265	0.13562	0.267	0.026933	0.19916	0.2572	0.049888	0.13675	0.11899	0.13531	-2.2229	-2.7438	-2.4896	-3.1083	-2.6292	-2.4917	-2.95	-2.7375	-2.5479	-2.8896	-2.5083	-2.8354	-2.8479	-2.7125	-2.875	-2.6771	-26.052	117.839	135.783	209.889	262.706	-22.258	211.441	195.251	247.535	-63.204	268.000	217.099	198.208	34.866	-59.904	138.650	0.00013379	0.00026178	6.5129e-05	1190.9	2.8789e-06	1.5414e-06	1250.4	241.57	5.264e-07	2.8308e-06	300.57	81.782	64.226	18.456	5.226e-06	26.389	0.00020531	0.00019907	5.6709e-05	1161.8	2.2894e-06	2.1966e-06	1225.2	238.55	2.2989e-06	2.2172e-06	297.14	81.475	63.802	18.544	2.2987e-06	26.494	111.396	-27.305	31.440	-67.415	166.448	33.493	-67.256	-60.275	42.817	46.803	-60.378	-54.020	-53.521	-46.747	47.022	-46.627	-8191	255	
7659.015	1	1	0	0	0.16394	0.076033	0.22195	0.34191	0.19986	0.059421	0.10703	0.17775	0.22878	0.11618	0.02147	0.18898	0.3461	0.19931	0.16454	0.12566	-2.1188	-2.9396	-2.5667	-2.5812	-2.8292	-2.4604	-3.0542	-2.8333	-2.6646	-2.8708	-2.6833	-2.7479	-2.8167	-2.6875	-2.8833	-2.8167	216.079	186.816	103.480	-37.525	43.665	129.942	227.274	260.924	222.816	235.606	167.632	-20.087	-39.616	220.806	172.446	269.077	0.00013201	0.0003775	0.00011242	1190.2	1.8314e-06	3.6931e-06	1250.1	241.41	3.1872e-07	2.3826e-06	300.98	81.983	64.223	18.531	2.5092e-06	26.237	0.00019862	0.0001958	5.5043e-05	1162.4	2.1896e-06	2.1016e-06	1223.9	238.44	2.1086e-06	2.1398e-06	297.06	81.426	63.766	18.585	2.1265e-06	26.419	105.533	28.249	-3.889	-67.251	98.400	79.906	-67.440	-60.283	170.069	67.548	-60.332	-54.019	-53.866	-46.779	37.609	-47.101	-8191	255	
7659.134	1	1	0	0	0.328	0.29734	0.11577	0.54236	0.10468	0.32433	0.25514	0.21164	0.16409	0.14373	0.051408	0.14414	0.08987	0.20536	0.29264	0.28778	-2.0104	-2.8333	-2.5938	-2.775	-2.7958	-2.5271	-2.9479	-2.7438	-2.4542	-2.7854	-2.7167	-2.8042	-2.8583	-2.5604	-2.7	-2.7729	119.835	78.916	-37.724	235.033	117.671	109.706	220.542	229.163	54.974	64.458	-62.867	203.778	162.293	222.912	223.630	201.833	0.00011669	0.00030368	9.3248e-05	1190.2	3.4376e-06	1.898e-06	1249.8	241.2	1.0349e-06	1.9032e-06	301.56	82.023	64.406	18.666	1.5458e-06	26.383	0.00019328	0.00019408	5.4374e-05	1160.1	2.1744e-06	2.1707e-06	1223.3	238.58	2.1879e-06	2.1984e-06	297.21	81.496	63.974	18.655	2.3138e-06	26.524	114.049	19.904	-1.530	-67.339	99.472	58.383	-67.188	-60.320	82.696	58.603	-60.480	-54.167	-53.647	-46.442	-18.787	-46.834	-8191	255	
7659.230	1	1	0	0	0.082617	0.20202	0.19421	0.3823	0.11774	0.21991	0.30504	0.18785	0.12205	0.11426	0.10849	0.21147	0.22291	0.036063	0.39797	0.12103	-2.0167	-2.7021	-2.5333	-2.725	-2.725	-2.6813	-2.9375	-2.8083	-2.4771	-2.8563	-2.675	-2.5396	-2.8229	-2.6333	-2.7104	-2.6854	257.572	99.702	1.046	262.592	273.184	-7.698	170.002	217.781	181.173	230.636	-55.333	189.596	-64.086	-32.363	-0.644	-66.354	7.8239e-05	0.00023761	0.00011854	1189.7	1.0875e-06	2.7144e-06	1251.1	241.5	2.7868e-06	1.144e-06	301	81.751	64.814	18.651	3.3446e-06	26.405	0.00020295	0.0002031	5.674e-05	1161.2	2.2801e-06	2.2938e-06	1224.9	238.66	2.3619e-06	2.3421e-06	297.6	81.612	64.315	18.713	2.3563e-06	26.607	91.868	15.533	17.355	-67.211	35.766	45.560	-67.473	-60.188	21.898	125.645	-60.394	-54.022	-53.825	-46.831	45.028	-46.688	-8191	255	
7659.326	1	1	0	0	0.15899	0.039596	0.11978	0.20179	0.14984	0.11241	0.21368	0.22012	0.17921	0.029868	0.041689	0.10125	0.21073	0.087381	0.19671	0.40536	-2.0979	-2.8438	-2.4458	-2.6521	-2.8479	-2.6458	-2.8375	-2.9583	-2.6667	-2.8979	-2.7	-2.5875	-2.9437	-2.8167	-2.6729	-2.9708	275.041	-34.708	65.284	154.247	124.441	5.735	225.800	-26.408	-40.345	-60.540	272.925	257.349	-41.793	226.845	34.593	220.874	9.1408e-05	0.00025896	0.00011693	1190.7	1.0517e-06	1.3518e-06	1250.2	242.93	1.8436e-06	3.2671e-06	302.51	81.605	64.339	18.603	1.8695e-06	26.334	0.00021084	0.00020888	5.8379e-05	1162.9	2.3368e-06	2.3023e-06	1224.5	239.18	2.3905e-06	2.313e-06	298.46	81.708	64.095	18.684	2.2845e-06	26.575	124.370	11.336	25.728	-67.097	0.496	32.501	-67.206	-59.927	127.669	98.758	-60.526	-53.905	-53.695	-46.955	26.308	-47.096	-8191	255	
7659.422	1	1	0	0	0.16791	0.2096	0.2291	0.15766	0.12257	0.16057	0.066561	0.44884	0.17674	0.3084	0.082719	0.24646	0.066229	0.15567	0.092639	0.24079	-2.0042	-2.725	-2.6104	-2.7104	-2.9104	-2.825	-2.6125	-2.8958	-2.5958	-2.6854	-2.7167	-2.5646	-2.9333	-2.5042	-2.5229	-3.0083	101.118	90.692	259.909	-54.657	19.518	183.606	176.477	241.774	147.083	63.694	117.101	208.507	250.431	166.881	128.058	270.872	0.00013459	0.00015992	0.00011593	1189.8	7.1523e-07	4.1809e-06	1244	242.41	1.1403e-06	1.843e-06	303.47	81.771	64.448	18.584	3.2496e-06	26.389	0.00021124	0.000208	5.8696e-05	1161.9	2.3855e-06	2.3206e-06	1224.1	238.9	2.3253e-06	2.3137e-06	297.89	81.606	64.214	18.707	2.3344e-06	26.602	116.556	2.534	1.930	-67.332	103.782	45.963	-67.376	-60.408	35.769	98.014	-60.211	-53.901	-53.719	-46.496	47.666	-46.772	-8191	255	
7659.543	1	1	0	0	0.1509	0.1371	0.13622	0.25268	0.085407	0.34236	0.21377	0.26596	0.053562	0.10939	0.2922	0.10688	0.047626	0.16372	0.15931	0.105	-1.9688	-2.8229	-2.7458	-2.4854	-2.7438	-2.4813	-2.6979	-3.0354	-2.4938	-2.6646	-2.8583	-2.4917	-2.8958	-2.7146	-2.6604	-2.8792	132.676	33.911	114.049	152.354	68.464	-59.930	241.730	240.398	220.764	-77.449	264.931	-56.311	1.034	146.538	180.473	245.810	0.00010794	0.0002961	0.00013179	1191	2.9665e-06	3.9558e-06	1250.6	242.47	1.7751e-06	1.6617e-06	303.11	82.377	64.425	18.576	5.4873e-06	26.29	0.00021301	0.00021278	5.7995e-05	1163.6	2.3814e-06	2.3576e-06	1227.3	239.32	2.4205e-06	2.3346e-06	298.42	81.785	64.191	18.694	2.3428e-06	26.529	118.644	-35.027	27.526	-67.344	124.109	124.389	-67.482	-60.252	103.410	73.550	-60.528	-53.854	-53.702	-46.542	66.686	-46.735	-8191	255	
7659.639	1	1	0	0	0.19048	0.027169	0.016167	0.24879	0.11232	0.15175	0.066224	0.19471	0.13862	0.03177	0.0575	0.0047423	0.083489	0.040721	0.080973	0.37042	-2.0854	-2.575	-2.775	-2.5458	-2.8396	-2.7542	-2.6729	-2.925	-2.4208	-2.7375	-2.8896	-2.6104	-2.6521	-2.6958	-2.35	-3.0042	61.024	133.102	116.711	193.758	-31.471	81.720	204.525	214.421	137.774	37.570	112.522	201.628	187.211	-39.204	0.637	205.981	0.00012806	0.00034519	0.00011519	1193.8	1.8792e-06	3.3792e-06	1249.3	242.39	1.3918e-06	4.4149e-06	303.51	82.141	64.538	18.622	2.339e-06	26.189	0.00020964	0.00020691	5.8197e-05	1165.4	2.3224e-06	2.2404e-06	1225.5	239.13	2.3014e-06	2.2407e-06	297.95	81.752	64.136	18.637	2.2369e-06	26.463	131.247	-10.626	7.874	-67.275	-4.873	29.652	-67.243	-60.225	167.667	51.958	-60.349	-54.210	-53.805	-46.703	59.709	-46.987	-8191	255	
7659.735	1	1	0	0	0.18146	0.26321	0.089704	0.18755	0.18611	0.061104	0.085953	0.17265	0.36547	0.21455	0.067582	0.098845	0.07157	0.27606	0.27131	0.071875	-2.2083	-2.6417	-2.8333	-2.5896	-2.7687	-2.9417	-2.6958	-3.1458	-2.5771	-2.6833	-2.9354	-2.7458	-2.7333	-2.7646	-2.4583	-2.9667	230.045	-59.669	15.073	259.285	85.643	-25.711	222.959	243.965	144.632	66.628	9.256	238.293	210.342	273.865	140.778	56.405	0.00011803	0.00049831	8.0255e-05	1193.2	1.368e-06	3.3822e-06	1247.8	241.62	2.9508e-06	2.1203e-06	301.82	81.319	64.385	18.6	2.5862e-06	26.208	0.00020062	0.00019605	5.5816e-05	1163	2.2365e-06	2.1245e-06	1224	238.39	2.1487e-06	2.0955e-06	296.92	81.3	63.929	18.586	2.157e-06	26.45	112.175	-29.942	6.610	-67.374	-57.432	36.846	-67.232	-60.167	41.068	57.548	-60.659	-53.825	-53.777	-46.706	32.874	-46.629	-8191	255	
7659.831	1	1	0	0	0.25174	0.26542	0.20233	0.22301	0.11823	0.12596	0.17889	0.069255	0.2953	0.038875	0.19088	0.098249	0.28912	0.056946	0.057077	0.13541	-2.2479	-2.5479	-2.95	-2.7083	-2.6896	-2.8208	-2.8292	-2.8563	-2.6729	-2.6688	-2.9437	-2.5229	-2.5917	-2.9479	-2.4604	-3.0271	187.852	14.208	11.590	-63.413	280.766	67.660	156.458	207.378	69.470	-24.685	-56.434	229.640	268.716	-60.629	251.046	249.903	0.00011987	0.00057379	7.2271e-05	1192.7	5.3034e-07	3.4688e-06	1248.8	242.1	1.8422e-06	1.8653e-06	301.59	81.582	64.28	18.457	2.2859e-06	26.188	0.0001928	0.00018761	5.3344e-05	1162.1	2.132e-06	2.092e-06	1222.7	238.48	2.1514e-06	2.0936e-06	297.03	81.268	63.845	18.531	2.1245e-06	26.415	132.961	-25.943	34.165	-67.225	135.888	55.997	-67.423	-59.905	241.884	55.365	-60.488	-53.844	-53.415	-46.748	29.049	-47.115	-8191	255	
7659.926	1	1	0	0	0.24608	0.080925	0.15824	0.2543	0.14488	0.31242	0.25303	0.12714	0.32729	0.059583	0.14135	0.31004	0.2041	0.17976	0.10178	0.084124	-2.3521	-2.5917	-2.8187	-2.6708	-2.8438	-2.9021	-2.9042	-2.8396	-2.7521	-2.4813	-2.75	-2.8104	-2.6979	-3.0417	-2.6021	-2.9437	14.626	157.926	14.763	-68.188	9.350	112.738	258.530	178.762	7.097	180.746	-61.983	-9.142	190.962	252.506	-23.247	182.767	9.9156e-05	0.00010291	9.262e-05	1188.6	3.3776e-06	1.9528e-06	1244.7	241.34	1.449e-06	4.593e-06	301.14	81.633	63.977	18.625	1.47e-06	26.379	0.00019214	0.00018943	5.1963e-05	1159.7	2.145e-06	2.0466e-06	1220.5	238.11	2.0935e-06	2.0226e-06	296.06	81.303	63.862	18.56	2.1249e-06	26.41	133.309	11.767	10.754	-67.232	78.093	78.673	-67.341	-60.335	53.321	104.618	-60.206	-54.168	-53.650	-46.557	26.574	-46.743	-8191	255	
7660.023	1	1	0	0	0.25154	0.108	0.14889	0.14712	0.24949	0.036624	0.10286	0.090952	0.14116	0.067699	0.11039	0.071097	0.24473	0.15746	0.028051	0.089126	-2.4396	-2.3771	-2.8833	-2.7521	-2.6708	-2.9875	-2.9667	-2.9437	-2.9833	-2.6792	-3.0438	-2.7458	-2.7625	-2.8833	-2.6104	-2.6854	-74.041	11.146	211.816	187.533	277.844	43.899	54.245	-51.092	54.637	229.392	-25.301	26.892	-58.834	-60.260	267.539	-74.195	0.00015214	0.00039096	8.8327e-05	1187.5	3.9383e-06	2.1653e-06	1243.5	241.67	3.1541e-06	1.8483e-06	301	81.474	63.871	18.418	3.7819e-06	26.432	0.00019298	0.00019298	5.3286e-05	1158.2	2.1757e-06	2.072e-06	1219.6	238.11	2.1329e-06	2.0588e-06	296.26	81.363	63.761	18.581	2.0683e-06	26.434	113.695	32.670	-30.710	-67.494	42.490	13.010	-67.436	-59.978	69.798	-23.964	-60.489	-54.185	-53.725	-46.771	35.174	-46.726	-8191	255	
7660.142	1	1	0	0	0.12516	0.081881	0.029951	0.36257	0.17012	0.097092	0.18016	0.13544	0.22951	0.19301	0.14723	0.0085018	0.068197	0.32505	0.24934	0.031308	-2.2375	-2.6229	-2.7354	-2.8792	-2.5375	-2.9188	-2.7708	-2.8396	-2.9167	-2.55	-3.0667	-2.7479	-2.6312	-3.0292	-2.775	-2.5875	264.353	120.369	131.282	270.258	171.335	77.189	203.109	140.274	-9.730	270.982	178.277	274.799	248.418	270.218	194.245	95.645	0.00010448	0.00016202	9.3039e-05	1183.8	2.2604e-07	2.366e-06	1240.6	240.92	1.7126e-06	3.8382e-06	302.85	81.459	64.588	18.472	3.3655e-06	26.232	0.00019444	0.00018971	5.2969e-05	1157.5	2.1577e-06	2.0531e-06	1216.5	237.66	2.1556e-06	2.105e-06	296.61	81.189	63.723	18.557	2.1009e-06	26.39	124.869	-24.800	28.822	-66.982	-2.059	134.516	-67.277	-60.128	50.080	69.685	-60.327	-53.971	-54.010	-46.659	42.451	-46.983	-8191	255	
7660.239	1	1	0	0	0.068273	0.20508	0.11145	0.04633	0.2103	0.22372	0.23531	0.38999	0.20563	0.17301	0.21673	0.10492	0.21748	0.10229	0.2131	0.20515	-2.3292	-2.5583	-2.8417	-3.0521	-2.5958	-2.8542	-2.8458	-2.85	-2.7438	-2.5938	-2.7979	-2.8167	-2.5646	-2.8896	-2.7083	-2.6667	7.227	-58.925	219.131	243.729	154.129	17.424	213.904	-78.068	33.935	116.217	233.417	-64.676	5.324	87.237	73.755	268.538	0.00016919	0.00036533	0.00014231	1189.2	3.1775e-06	2.8086e-06	1242.3	241.01	2.7367e-06	1.6041e-06	302.32	81.219	63.916	18.58	3.8809e-06	26.487	0.000192	0.00019275	5.2395e-05	1155.8	2.1479e-06	2.0934e-06	1218.2	237.69	2.158e-06	2.1188e-06	296.4	81.301	63.59	18.619	2.1273e-06	26.429	114.998	9.273	3.630	-67.199	74.837	101.596	-67.130	-60.390	64.159	62.981	-60.456	-53.808	-53.774	-46.876	30.835	-46.893	-8191	255	
7660.310	1	1	0	0	0.18788	0.12577	0.22528	0.085522	0.11981	0.14065	0.18834	0.2286	0.20167	0.055339	0.19733	0.27309	0.24616	0.0050021	0.21109	0.17923	-2.4813	-2.5979	-2.7083	-3.0271	-2.7417	-2.9146	-3.0938	-2.8771	-2.8312	-2.7021	-3.0187	-3.0646	-2.5938	-2.7292	-2.8854	-2.6208	167.348	50.473	-30.780	19.176	-28.652	128.177	139.411	248.671	-66.186	126.147	241.575	252.347	248.590	-6.712	86.868	213.416	0.00010316	0.00036197	8.6419e-05	1187.5	2.6471e-06	1.4611e-06	1238.6	240.95	1.5323e-06	1.0009e-06	301	81.678	64.214	18.58	2.4138e-06	26.282	0.00019446	0.00019371	5.3724e-05	1156.3	2.1764e-06	2.066e-06	1216.8	238.07	2.1735e-06	2.1106e-06	296.68	81.495	63.622	18.603	2.1077e-06	26.348	113.377	-23.357	29.200	-67.126	-7.106	-0.530	-67.230	-60.228	193.744	5.871	-60.533	-54.058	-53.936	-46.649	67.014	-46.628	-8191	255	
7660.431	1	1	0	0	0.27241	0.17424	0.22437	0.13855	0.22787	0.27451	0.27302	0.14534	0.085248	0.081599	0.25562	0.18894	0.07815	0.21629	0.085525	0.10223	-2.375	-2.6813	-2.6063	-3	-2.5854	-2.9188	-2.9292	-2.5292	-2.9083	-2.5333	-2.7125	-3.1312	-2.6417	-2.8021	-2.9688	-2.5896	-69.949	111.171	64.166	132.565	28.956	-39.618	169.652	268.687	30.675	196.579	-64.331	180.407	28.678	255.298	170.941	23.290	0.00014171	0.0003895	4.6702e-05	1179.4	2.8652e-06	2.9457e-06	1243.8	241.32	4.1518e-06	2.5518e-06	300.29	81.017	63.698	18.364	2.3164e-06	26.135	0.00019288	0.00018627	5.2049e-05	1152.9	2.0314e-06	2.0165e-06	1214.7	237.32	2.071e-06	2.0391e-06	295.65	80.97	63.507	18.494	2.0421e-06	26.35	133.994	12.497	-57.657	-67.287	100.092	49.002	-67.022	-60.369	26.858	89.300	-60.376	-53.831	-53.274	-46.515	91.026	-46.683	-8191	255	
7660.527	1	1	0	0	0.076378	0.14856	0.2915	0.35376	0.24788	0.13998	0.25773	0.095389	0.095677	0.055968	0.18224	0.19179	0.22765	0.21515	0.16284	0.10978	-2.5667	-2.7646	-2.5708	-3.0187	-2.4479	-2.7354	-2.8396	-2.6437	-2.8417	-2.8625	-2.7	-2.9667	-2.6792	-2.7875	-2.8	-2.6333	28.097	221.040	90.991	231.045	70.285	71.701	213.673	-71.277	222.139	-59.416	176.902	197.104	-31.416	-6.862	172.658	-13.205	0.00012421	0.0003529	0.0001157	1180.5	1.5036e-06	4.099e-06	1236.1	240	1.5157e-06	3.6091e-06	300.25	81.314	64.069	18.458	3.7247e-06	26.327	0.00018754	0.00018352	5.1676e-05	1151	2.0461e-06	2.0071e-06	1212.5	236.91	2.1025e-06	2.0364e-06	295.5	81.105	63.446	18.527	2.111e-06	26.363	91.027	-2.906	10.612	-67.110	41.073	17.222	-67.295	-60.047	44.859	29.208	-60.277	-53.903	-53.549	-46.659	62.731	-47.132	-8191	255	
7660.623	1	1	0	0	0.10599	0.115	0.27915	0.050424	0.16415	0.20897	0.26741	0.19953	0.32059	0.11993	0.26957	0.18224	0.16165	0.19733	0.097951	0.12757	-2.2625	-2.725	-2.6271	-3.0687	-2.5333	-2.6625	-2.9417	-2.5417	-2.75	-2.6854	-2.7354	-2.975	-2.65	-2.5	-2.8458	-2.7125	90.450	31.648	130.858	136.858	-73.188	-56.781	186.384	269.613	104.066	96.990	105.568	146.755	234.225	-27.593	273.628	64.428	0.00010947	0.0003432	7.6419e-05	1180.4	1.0854e-06	3.0622e-06	1239	240.36	4.4956e-07	4.9755e-06	299.19	81.379	63.535	18.457	3.0309e-06	26.352	0.00019082	0.00018768	5.3486e-05	1150.3	2.1587e-06	2.096e-06	1212.9	236.79	2.1209e-06	2.0756e-06	295.01	81.176	63.383	18.535	2.0884e-06	26.354	105.542	4.772	18.010	-67.283	130.341	72.180	-67.158	-60.109	40.014	69.642	-60.446	-53.857	-53.822	-46.653	69.607	-46.846	-8191	255	
7660.719	1	1	0	0	0.058106	0.17851	0.16487	0.16277	0.23217	0.14593	0.066071	0.17656	0.19952	0.29051	0.15704	0.065895	0.10817	0.21546	0.028824	0.066686	-2.5771	-2.7604	-2.5563	-2.9354	-2.6	-2.7417	-2.9833	-2.6333	-2.7083	-2.7687	-2.6125	-2.7854	-2.7833	-2.7833	-3.025	-2.5021	160.892	84.468	163.517	27.339	-73.576	222.457	215.041	266.899	146.831	70.964	86.121	-25.507	156.315	238.994	249.321	110.620	0.00014176	0.00013817	8.5898e-05	1178.8	2.8436e-06	3.8697e-06	1238.6	239.35	1.573e-06	3.2454e-06	299.6	81.108	64.429	18.516	3.801e-06	26.224	0.00019309	0.00018586	5.3228e-05	1148.6	2.1417e-06	2.0951e-06	1212.4	236.96	2.0985e-06	2.0534e-06	295.65	81.132	63.672	18.543	2.1317e-06	26.382	122.272	-24.382	12.754	-67.200	73.679	36.033	-67.350	-60.005	31.950	76.841	-60.520	-53.866	-53.457	-46.854	-4.852	-47.015	-8191	255	
7660.838	1	1	0	0	0.095319	0.080315	0.22936	0.26976	0.027345	0.12975	0.11353	0.16591	0.14705	0.20244	0.31175	0.16317	0.20102	0.27686	0.1317	0.11593	-2.2208	-2.7958	-2.4625	-2.85	-2.7042	-2.6875	-3.1604	-2.7729	-2.7562	-3.0687	-2.7188	-2.7938	-2.6896	-2.8208	-2.7646	-2.7729	173.017	246.236	15.334	226.024	227.332	103.402	-72.712	201.573	-29.998	254.939	165.918	-13.756	151.145	199.867	144.088	171.708	6.866e-05	0.0004611	0.00010238	1180.9	3.2642e-06	4.7668e-06	1242.9	240.14	9.2519e-07	2.313e-06	297.79	81.05	63.862	18.632	4.0155e-06	26.391	0.00019683	0.00019359	5.3537e-05	1151.2	2.183e-06	2.1383e-06	1213.7	236.91	2.1695e-06	2.1473e-06	294.82	81.053	63.538	18.561	2.1784e-06	26.378	107.320	-0.658	41.106	-67.198	122.391	47.279	-67.189	-60.102	45.213	115.356	-60.587	-53.863	-53.376	-46.466	56.900	-46.833	-8191	255	
7660.934	1	1	0	0	0.22704	0.25082	0.066947	0.27558	0.067798	0.18752	0.28202	0.23023	0.34011	0.07367	0.067472	0.11755	0.035341	0.067526	0.2801	0.20193	-2.2958	-2.6	-2.4854	-3.0354	-2.9583	-2.5229	-3.2521	-2.5563	-2.5646	-3	-2.7083	-2.9354	-2.7938	-2.5542	-2.9854	-2.7354	212.152	17.020	-0.020	258.344	3.786	88.010	236.511	175.449	175.519	60.298	92.833	236.115	57.441	265.887	76.677	121.565	0.00012163	0.00041037	3.3623e-05	1185.1	3.7712e-06	2.0818e-06	1236.9	241.45	1.5916e-06	3.7999e-06	300.21	81.637	63.979	18.505	3.3553e-06	26.236	0.00019617	0.00019007	5.2758e-05	1153.2	2.1618e-06	2.0801e-06	1213.4	237.26	2.1509e-06	2.1119e-06	295.97	81.213	63.624	18.556	2.1452e-06	26.37	110.340	27.365	-60.886	-66.988	49.424	81.914	-67.326	-60.117	81.604	23.730	-60.253	-54.055	-53.550	-46.800	44.803	-46.949	-8191	255	
7661.006	1	1	0	0	0.25755	0.016265	0.1852	0.10704	0.030481	0.085649	0.17202	0.20627	0.18082	0.24694	0.28883	0.14748	0.063914	0.2512	0.14319	0.20254	-2.25	-2.95	-2.7	-2.7917	-2.6979	-2.5521	-3.0479	-2.8521	-2.8042	-2.8688	-2.5375	-2.8104	-2.9062	-2.5875	-2.9	-2.8167	73.774	254.645	163.437	259.073	67.475	73.705	229.384	166.003	239.963	214.038	259.040	78.819	212.927	-41.052	206.321	258.277	0.00013652	7.8571e-05	5.4414e-05	1184.5	1.2724e-06	4.118e-06	1237.2	240.49	6.119e-07	4.9043e-06	300.46	81.257	64.44	18.447	3.0948e-06	26.283	0.00019734	0.00019178	5.2864e-05	1152.6	2.1512e-06	2.1081e-06	1215	237.31	2.1627e-06	2.1263e-06	296.2	81.234	63.605	18.557	2.1197e-06	26.386	123.615	178.312	14.855	-67.170	55.270	84.082	-67.195	-60.147	-1.946	81.893	-60.432	-53.681	-53.770	-46.499	9.822	-46.801	-8191	255	
7661.104	1	1	0	0	0.19963	0.16558	0.16809	0.31808	0.066978	0.1135	0.21728	0.21768	0.23088	0.036234	0.23042	0.048557	0.047465	0.12346	0.13404	0.16293	-1.875	-2.7771	-2.7	-2.8396	-2.9083	-2.6083	-2.8875	-2.8312	-2.5396	-3.0667	-2.9354	-2.7958	-2.8833	-2.6312	-2.85	-2.7729	67.059	74.709	251.892	221.418	59.729	107.154	169.829	-77.699	230.907	252.012	164.057	-70.349	49.541	211.807	-70.418	270.129	0.00012025	0.00017418	6.0408e-05	1179.6	2.6834e-06	2.3611e-06	1242	240.6	2.2596e-06	3.6168e-06	301.08	81.777	64.03	18.525	1.1983e-06	26.421	0.00019445	0.00019403	5.4137e-05	1153	2.1622e-06	2.1555e-06	1216.7	237.32	2.2181e-06	2.1596e-06	295.68	81.407	63.69	18.576	2.1682e-06	26.451	116.620	44.329	20.222	-67.444	51.916	87.486	-67.203	-60.235	201.975	61.638	-60.360	-53.787	-53.507	-47.008	80.327	-46.779	-8191	255	
7661.223	1	1	0	0	0.11041	0.071504	0.026785	0.21317	0.29973	0.055872	0.099149	0.054756	0.1021	0.17152	0.17212	0.065558	0.15259	0.11777	0.14954	0.13805	-2.0396	-2.7104	-2.4854	-2.6521	-2.8667	-2.5938	-2.9708	-2.9	-2.3125	-2.875	-2.7708	-2.5979	-2.8937	-2.6625	-2.9729	-2.95	57.089	-58.041	2.120	179.943	31.201	254.249	235.467	240.079	111.676	-76.882	217.870	-41.436	218.988	-66.461	147.011	-29.394	0.00010848	0.00045475	0.00013882	1182.8	5.2905e-07	5.4016e-06	1243.6	241.02	1.0561e-06	3.5531e-06	301.6	81.382	64.085	18.613	2.6715e-06	26.439	0.00019829	0.00019152	5.4248e-05	1153.8	2.1383e-06	2.1608e-06	1217.5	237.88	2.2261e-06	2.169e-06	296.59	81.408	63.735	18.615	2.2226e-06	26.442	111.519	3.944	-37.579	-67.346	223.237	50.257	-67.174	-60.172	-46.905	87.262	-60.257	-53.819	-53.704	-46.862	36.580	-46.973	-8191	255	
7661.319	1	1	0	0	0.16041	0.094997	0.23714	0.26797	0.17928	0.16778	0.12336	0.0095606	0.15778	0.10897	0.068021	0.089841	0.17955	0.13918	0.099383	0.21148	-2.0479	-2.6333	-2.6854	-2.7062	-2.7542	-2.5312	-2.7708	-3.1146	-2.5292	-2.7792	-2.8979	-2.4688	-2.8875	-2.6813	-2.7313	-2.7667	94.990	73.453	123.587	222.122	163.694	229.556	220.025	-57.851	-29.538	197.328	182.633	187.667	277.306	278.339	205.523	109.657	0.00016761	0.00046511	0.0001453	1182.6	3.803e-07	6.8413e-06	1247.9	240.55	2.8545e-06	4.7803e-06	301.31	81.549	64.119	18.48	3.1542e-06	26.279	0.00020137	0.00019888	5.3586e-05	1155.9	2.1821e-06	2.1216e-06	1218.9	237.36	2.1594e-06	2.1519e-06	296.83	81.298	63.704	18.582	2.1881e-06	26.401	121.430	1.291	19.693	-67.222	171.462	58.808	-67.376	-60.110	132.531	104.967	-60.423	-53.795	-53.728	-46.691	40.382	-47.024	-8191	255	
7661.415	1	1	0	0	0.10749	0.1227	0.22657	0.1216	0.088732	0.19356	0.24047	0.088967	0.24893	0.21262	0.07554	0.0034416	0.14177	0.068479	0.15205	0.10837	-2.15	-2.6792	-2.6646	-2.7208	-2.9729	-2.6625	-2.975	-2.9437	-2.4396	-2.7625	-2.7687	-2.6458	-2.9458	-2.6979	-2.6208	-2.9771	20.830	142.579	136.768	-67.112	3.601	47.254	252.262	268.426	273.452	-75.750	160.746	40.964	-57.741	246.947	-54.205	248.074	8.5452e-05	0.0004073	5.7194e-05	1185	2.8675e-06	1.2504e-06	1242.1	240.84	2.9022e-06	2.6347e-06	300.78	81.211	64.199	18.616	2.8298e-06	26.159	0.00019788	0.00019096	5.4472e-05	1156.4	2.2019e-06	2.1939e-06	1216.2	238.05	2.1857e-06	2.1646e-06	296.01	81.184	63.727	18.565	2.2118e-06	26.341	110.878	-17.376	55.930	-67.401	35.593	71.337	-67.202	-60.186	109.602	75.307	-60.370	-53.852	-53.556	-46.892	44.180	-46.714	-8191	255	
7661.536	1	1	0	0	0.24095	0.16668	0.232	0.38124	0.09598	0.10056	0.13545	0.21576	0.12593	0.052013	0.21712	0.30879	0.17937	0.14489	0.10837	0.058829	-2.0125	-2.7	-2.725	-2.8604	-2.8229	-2.7458	-2.65	-2.9292	-2.6437	-2.8271	-3.0312	-2.7167	-2.8167	-2.7146	-2.5958	-2.9667	70.926	-42.761	54.067	229.437	67.103	48.459	170.711	279.934	261.638	251.370	225.831	186.686	-28.249	-55.820	223.954	276.856	9.9998e-05	0.00015776	0.00014162	1187.1	9.1251e-07	5.9453e-06	1242.8	241.14	6.18e-07	2.335e-06	300.3	81.701	63.629	18.418	2.3367e-06	26.139	0.00020122	0.00019565	5.5134e-05	1153.9	2.1763e-06	2.1523e-06	1214.6	237.42	2.1733e-06	2.1604e-06	295.82	81.273	63.563	18.537	2.254e-06	26.336	119.976	-26.044	-9.997	-67.308	-19.853	70.467	-67.369	-60.349	95.308	28.630	-60.213	-54.199	-53.919	-46.788	38.382	-46.922	-8191	255	
7661.607	1	1	0	0	0.26709	0.11577	0.037206	0.042227	0.2354	0.26193	0.23747	0.24411	0.099833	0.26311	0.18632	0.10368	0.17146	0.14069	0.14841	0.058893	-2.2354	-2.6104	-2.9062	-2.9	-2.8833	-2.8208	-2.7729	-2.9562	-2.7792	-2.6417	-2.9354	-2.5604	-2.6708	-2.7875	-2.4813	-3.0396	100.138	3.197	-31.288	131.830	73.221	40.108	140.328	263.599	263.433	43.723	217.454	-5.519	-8.480	159.053	-13.528	228.962	0.00013612	0.00029547	1.8756e-05	1182.7	6.619e-07	1.9778e-06	1237.1	240.82	2.8059e-06	3.0851e-06	299.82	82.125	63.94	18.502	3.4791e-06	26.245	0.00019873	0.00019961	5.5274e-05	1152.8	2.2264e-06	2.0942e-06	1214.6	237.55	2.2355e-06	2.1805e-06	295.91	81.269	63.475	18.546	2.1991e-06	26.369	142.307	-28.736	61.425	-67.217	-7.540	90.143	-67.094	-60.267	-27.688	58.369	-60.386	-54.211	-53.810	-46.708	55.876	-46.636	-8191	255	
7661.703	1	1	0	0	0.22555	0.091664	0.018973	0.10674	0.16718	0.13709	0.18183	0.13381	0.17645	0.13056	0.16053	0.14412	0.23015	0.22356	0.15513	0.097354	-2.1	-2.4604	-2.8875	-2.7104	-2.7542	-2.8417	-2.7396	-3.0104	-2.6604	-2.6167	-3.0458	-2.8063	-2.6875	-2.9375	-2.4437	-2.8979	261.455	146.681	97.517	203.818	259.078	222.460	229.596	214.737	1.121	199.923	177.987	-63.197	82.553	131.187	29.090	251.826	0.00012808	0.00041598	9.8843e-05	1183.2	8.4296e-07	4.0539e-06	1244.6	239.2	1.9804e-06	1.4782e-06	301.63	81.189	63.514	18.432	2.7773e-06	26.154	0.00019657	0.00019369	5.479e-05	1153.7	2.1421e-06	2.128e-06	1216.5	237.19	2.216e-06	2.1169e-06	296.08	80.934	63.495	18.538	2.1963e-06	26.31	91.472	12.231	2.538	-67.234	60.895	37.810	-67.314	-60.329	61.904	54.607	-60.260	-53.925	-53.862	-46.830	77.877	-46.930	-8191	255	
7661.824	1	1	0	0	0.07182	0.28268	0.30727	0.22282	0.19236	0.22264	0.42943	0.28681	0.19973	0.21074	0.097359	0.32587	0.29442	0.13466	0.11324	0.17116	-2.0062	-2.5146	-2.8146	-2.7042	-2.7479	-2.9021	-2.625	-2.9167	-2.7562	-2.5896	-2.9708	-2.7771	-2.6625	-2.8042	-2.7104	-2.9354	258.660	-65.129	10.067	236.739	170.056	-1.119	277.274	-64.133	278.438	112.727	214.607	-30.715	-25.999	168.316	-27.118	217.095	0.00013885	0.00036095	0.00014527	1185.9	2.7693e-06	3.0002e-06	1243.1	241.09	3.2855e-06	2.8649e-06	301.23	80.87	63.953	18.396	1.6151e-06	26.023	0.0001973	0.00019882	5.5347e-05	1154.2	2.1812e-06	2.1462e-06	1215	237.32	2.2007e-06	2.1506e-06	295.67	80.938	63.521	18.444	2.1421e-06	26.238	118.979	67.494	34.977	-67.222	118.491	60.622	-67.258	-60.188	66.579	56.155	-60.677	-53.936	-53.675	-46.667	92.629	-46.675	-8191	255	
7661.919	1	1	0	0	0.078105	0.272	0.16591	0.37987	0.19919	0.17868	0.18039	0.052071	0.17194	0.29242	0.229	0.14976	0.073894	0.1771	0.19472	0.095105	-2.2729	-2.7146	-2.9854	-2.6063	-2.5146	-2.9479	-2.7417	-3.0479	-2.8	-2.6958	-2.9583	-2.6271	-2.6437	-2.85	-2.6625	-2.9146	226.641	46.697	-40.267	238.491	-5.890	-11.300	222.427	85.220	-30.104	247.806	236.570	74.435	262.961	215.533	47.579	-6.297	9.166e-05	0.00043883	3.2317e-05	1179.3	3.0845e-06	4.6229e-06	1236.1	239.2	3.3664e-07	3.2832e-06	298.78	80.869	63.248	18.226	4.9878e-06	26.019	0.00018813	0.00017965	5.1203e-05	1150.3	2.0402e-06	2.005e-06	1209.4	236.05	2.0925e-06	2.0335e-06	294.03	80.514	62.956	18.339	2.0694e-06	26.178	116.751	3.673	14.659	-67.423	86.013	81.199	-67.379	-60.122	244.607	78.557	-60.001	-54.150	-53.672	-46.317	34.059	-46.943	-8191	255	
7662.015	1	1	0	0	0.18849	0.27758	0.41401	0.12186	0.10893	0.13357	0.21164	0.48705	0.21696	0.13857	0.21159	0.26239	0.17402	0.10525	0.15724	0.17201	-2.55	-2.5521	-2.7458	-2.9229	-2.6	-2.8333	-2.7083	-2.8896	-2.7667	-2.6271	-2.875	-2.9188	-2.7542	-2.8375	-2.5687	-2.5521	241.237	196.402	27.050	109.846	-47.975	136.786	217.515	194.532	160.686	225.817	248.769	226.375	13.130	161.816	133.943	76.075	0.00011044	0.00040882	5.2689e-05	1175.7	2.1045e-06	2.3812e-06	1232.3	238.86	2.4645e-06	3.3617e-06	299.51	80.839	63.216	18.335	3.1155e-06	26.054	0.0001815	0.00018237	5.1227e-05	1146.1	2.0498e-06	1.9227e-06	1207.4	235.57	2.0479e-06	1.9535e-06	293.49	80.548	63.02	18.361	1.9401e-06	26.127	126.766	-11.812	34.818	-67.357	266.062	28.901	-67.224	-60.067	-14.171	54.555	-60.508	-53.842	-53.705	-46.806	14.218	-46.909	-8191	255	
7662.135	1	1	0	0	0.12948	0.13524	0.23799	0.096042	0.16475	0.058021	0.18568	0.17099	0.03865	0.15402	0.27813	0.10462	0.31163	0.068744	0.16658	0.29603	-2.3229	-2.3729	-2.7021	-2.6937	-2.6792	-3.0896	-2.8167	-2.7979	-2.7375	-2.5542	-2.9542	-2.6521	-2.6625	-2.9188	-2.5792	-2.65	269.133	59.533	156.469	246.257	48.065	278.482	149.774	178.474	15.141	73.169	-47.687	184.519	124.841	220.926	36.561	242.345	0.00012189	0.00018562	8.3812e-05	1170	1.6575e-06	4.6772e-06	1232.1	238.71	2.9725e-06	2.6547e-06	298.35	80.484	63.623	18.319	1.7741e-06	26.004	0.00018239	0.00017811	4.8826e-05	1142.1	1.9957e-06	1.9653e-06	1205.1	235.25	1.992e-06	1.9324e-06	293.2	80.328	63.047	18.306	1.9898e-06	26.098	128.029	12.640	-2.162	-67.331	-26.940	73.156	-67.266	-60.291	58.285	60.133	-60.300	-53.727	-53.511	-46.373	64.124	-46.783	-8191	255	
7662.207	1	1	0	0	0.043676	0.05854	0.14056	0.057608	0.17161	0.32509	0.062177	0.2274	0.25261	0.22524	0.11373	0.25175	0.063427	0.059884	0.16306	0.20212	-2.3625	-2.5187	-2.7125	-2.9271	-2.6208	-2.975	-2.8292	-2.7271	-2.9396	-2.5958	-2.6688	-2.7479	-2.6333	-2.6312	-2.4646	-2.5042	55.554	-28.961	112.701	-68.255	25.284	11.094	-50.767	232.325	-66.918	137.274	20.109	166.288	182.338	-72.832	226.884	-19.018	0.00011969	0.00026181	6.491e-05	1170.2	1.8846e-06	2.331e-06	1228.6	238.35	4.881e-07	2.188e-06	296.47	80.559	63.21	18.305	3.2893e-06	25.905	0.00017841	0.00017688	4.9213e-05	1142.4	1.9554e-06	1.9516e-06	1203.7	234.79	2.0376e-06	1.9853e-06	292.98	80.304	62.859	18.283	2.0468e-06	26.095	105.854	17.932	21.014	-67.383	61.077	40.795	-67.070	-60.155	149.894	45.130	-60.179	-53.916	-53.558	-46.590	35.311	-46.985	-8191	255	
7662.303	1	1	0	0	0.16814	0.038492	0.045376	0.44927	0.060422	0.21436	0.049866	0.04858	0.050865	0.28879	0.18709	0.20721	0.12675	0.14773	0.12552	0.16124	-2.5896	-2.4729	-2.6958	-2.9625	-2.5292	-2.8104	-2.7875	-2.65	-2.9354	-2.5563	-2.7854	-2.8812	-2.7188	-3.0125	-2.6375	-2.4042	163.925	202.022	77.863	222.054	33.526	10.628	277.594	-23.371	-14.770	256.877	164.990	204.593	46.067	148.557	246.720	262.046	0.0001204	0.00027864	5.7613e-05	1163.3	2.9098e-06	2.1841e-06	1225.9	238.69	1.651e-06	3.6669e-06	297.15	80.842	63.015	18.18	3.0112e-06	25.987	0.00018128	0.00017585	4.9811e-05	1138.2	1.9949e-06	1.9253e-06	1199.8	234.67	1.9682e-06	1.9931e-06	292.72	80.376	62.803	18.238	1.9454e-06	26.051	111.947	-17.858	-8.091	-67.211	109.022	29.293	-67.024	-60.337	-10.803	95.862	-60.364	-53.656	-53.639	-46.479	85.465	-46.966	-8191	255	
7662.399	1	1	0	0	0.059636	0.032885	0.044985	0.34679	0.023197	0.10766	0.097418	0.36886	0.16433	0.2464	0.23538	0.41531	0.10715	0.20794	0.071416	0.33171	-2.3646	-2.5875	-2.6917	-2.9875	-2.5375	-2.8708	-2.8646	-2.5146	-2.8729	-2.7458	-2.7229	-2.6604	-2.4313	-2.8375	-2.8021	-2.7208	-36.519	216.888	-17.822	229.164	208.996	114.173	281.003	260.861	79.035	16.218	178.760	211.099	-13.876	184.402	-33.797	240.573	9.3272e-05	0.00040821	8.5214e-05	1167.8	2.2011e-06	5.2374e-06	1222.5	237.25	2.769e-06	1.707e-06	297.21	80.535	63.246	18.179	3.9159e-06	25.938	0.00018134	0.00017054	4.7898e-05	1138.2	1.9219e-06	1.9158e-06	1199	234.29	1.8766e-06	1.9065e-06	292.53	80.112	62.746	18.253	1.9164e-06	26.052	124.345	-3.641	-4.435	-67.180	91.504	58.629	-67.340	-59.904	54.391	151.006	-60.198	-53.951	-53.742	-46.351	38.781	-46.722	-8191	255	
7662.520	1	1	0	0	0.096914	0.24342	0.15277	0.25412	0.12418	0.072803	0.42127	0.064873	0.10407	0.16802	0.05782	0.13087	0.050713	0.18245	0.24177	0.47143	-2.425	-2.6771	-2.6729	-3.0438	-2.6854	-2.8187	-2.8896	-2.7042	-2.7854	-2.7958	-2.6937	-2.9	-2.7062	-2.7062	-2.8438	-2.7021	276.779	42.578	173.741	243.855	228.401	280.197	240.824	232.769	96.752	64.419	82.607	252.521	253.899	272.120	240.805	225.644	0.00011719	0.00024462	9.6664e-05	1162.7	2.5171e-06	2.007e-06	1224	237.12	3.5508e-06	3.311e-06	297.2	80.323	62.921	18.227	1.9188e-06	25.965	0.00017392	0.00017356	4.9422e-05	1135.4	1.9445e-06	1.9046e-06	1197.2	234.06	1.9348e-06	1.9059e-06	291.85	80.142	62.455	18.23	1.9122e-06	26.068	111.279	8.275	47.478	-67.079	61.054	92.612	-67.274	-60.079	71.048	62.564	-60.142	-53.815	-53.459	-46.663	108.725	-46.810	-8191	255	
7662.616	1	1	0	0	0.020927	0.074306	0.075192	0.32229	0.021919	0.12145	0.33064	0.12842	0.13285	0.069419	0.076689	0.24392	0.15858	0.1034	0.14472	0.16191	-2.5312	-2.7062	-2.5854	-3.0521	-2.7208	-2.8438	-3.0042	-2.625	-2.6708	-2.6583	-2.5167	-2.9896	-2.7833	-2.6292	-2.6708	-2.7542	99.060	88.711	136.254	-73.052	160.160	228.930	244.081	101.624	219.684	5.215	173.837	261.103	169.569	155.474	-76.650	195.368	0.00014524	0.00032166	9.5791e-05	1162	1.9436e-06	1.0697e-06	1222.3	237.59	7.6365e-07	1.2408e-06	296.4	80.23	62.603	18.219	1.6603e-06	26.005	0.00017739	0.00016869	4.8147e-05	1134.4	1.9413e-06	1.8992e-06	1195.1	233.72	1.9651e-06	1.8922e-06	291.77	80.008	62.447	18.22	1.9132e-06	26.055	134.671	6.377	9.076	-67.217	50.695	27.287	-67.407	-59.862	266.118	69.659	-60.293	-53.777	-53.326	-46.773	75.163	-46.733	-8191	255	
7662.712	1	1	0	0	0.038423	0.089385	0.033258	0.19012	0.11654	0.20932	0.26941	0.18905	0.3149	0.051753	0.17885	0.18484	0.030787	0.18108	0.057902	0.19275	-2.3146	-2.6292	-2.6	-3.0104	-2.5604	-2.7917	-3.0979	-2.5958	-2.8125	-2.8354	-2.6646	-2.8625	-2.4833	-2.6021	-2.8021	-2.6833	89.769	41.990	128.721	246.556	-41.375	-52.883	156.215	-69.935	128.971	254.662	194.031	-41.693	208.882	0.543	-9.700	-61.747	3.2197e-05	0.00041544	0.00011157	1159.3	2.7792e-06	3.8452e-06	1220.1	237.78	1.4979e-06	1.1011e-06	296.7	80.283	63.254	18.208	7.9249e-07	25.828	0.00017779	0.00017169	4.8234e-05	1131.7	1.9269e-06	1.8855e-06	1194.2	234.13	1.955e-06	1.8813e-06	291.44	79.983	62.769	18.22	1.9364e-06	25.943	104.735	-21.050	-5.027	-67.173	25.226	48.071	-67.393	-60.173	68.089	73.675	-60.427	-53.925	-53.577	-46.318	101.643	-46.530	-8191	255	
7662.807	1	1	0	0	0.16177	0.17632	0.077699	0.29307	0.12637	0.30374	0.45055	0.14185	0.25383	0.2179	0.44478	0.22488	0.21874	0.029409	0.12748	0.20297	-2.2542	-2.7354	-2.4125	-2.9771	-2.6917	-2.4646	-3.0979	-2.8167	-2.7167	-2.8854	-2.6542	-2.8646	-2.5875	-2.5667	-2.8688	-2.7521	269.119	183.549	181.860	224.931	12.399	-64.725	243.664	219.253	79.862	34.379	241.335	-46.853	113.456	-62.079	-56.634	235.132	0.00010681	0.00018536	6.2524e-05	1163.1	1.5108e-06	4.1351e-06	1220.5	237.41	1.312e-06	9.3834e-07	297.3	80.165	63.132	18.216	3.4398e-06	26.039	0.00017564	0.00016839	4.7589e-05	1135.9	1.912e-06	1.8678e-06	1198.7	234.28	1.9412e-06	1.8789e-06	292.6	80.238	62.875	18.264	1.9131e-06	26.075	125.616	-7.370	53.126	-67.267	201.858	45.969	-67.081	-60.015	48.895	61.371	-60.263	-53.893	-53.866	-46.397	12.035	-46.805	-8191	255	
7662.904	1	1	0	0	0.17573	0.23857	0.20952	0.18303	0.09908	0.22019	0.34707	0.51816	0.23392	0.13217	0.12046	0.27668	0.25241	0.093407	0.14253	0.22547	-2.1562	-2.5938	-2.5354	-2.8438	-2.7396	-2.6937	-2.8042	-2.6708	-2.5938	-2.8667	-2.7396	-2.7583	-2.6937	-2.5604	-2.9646	-2.7812	172.975	39.212	81.047	115.137	-50.762	177.136	152.683	209.166	-63.600	199.064	227.210	255.011	-73.216	-26.582	5.305	6.310	0.00010302	0.00035018	5.5957e-05	1162.8	3.6713e-06	1.9214e-06	1223.3	237.07	4.8361e-07	2.6292e-06	296.48	81.066	63.462	18.285	3.5431e-06	25.998	0.00017677	0.00017072	4.7494e-05	1135.7	1.9498e-06	1.9096e-06	1199	234.27	1.9425e-06	1.8726e-06	292.38	80.493	62.664	18.304	1.9423e-06	26.067	139.161	7.719	-24.104	-67.059	60.719	98.205	-67.114	-60.105	55.088	78.268	-60.669	-53.771	-53.716	-46.381	40.130	-47.221	-8191	255	
7662.999	1	1	0	0	0.26166	0.23209	0.1142	0.047643	0.15053	0.14868	0.03443	0.17528	0.20058	0.095901	0.12317	0.10992	0.12244	0.024421	0.08564	0.27432	-2.1604	-2.9646	-2.5354	-2.9375	-2.6646	-2.5187	-2.925	-2.7292	-2.55	-2.9125	-2.5833	-2.925	-2.9042	-2.4708	-2.8771	-2.7083	276.625	-74.360	226.522	174.232	182.681	-69.062	194.345	187.771	147.284	113.136	232.959	242.441	160.926	60.829	138.977	-32.489	0.00012028	0.00012935	8.0011e-05	1167.9	2.6072e-06	2.0156e-06	1226.2	237.73	2.1738e-06	4.0868e-06	298.74	80.422	63.4	18.239	2.2953e-07	25.926	0.00017678	0.00017112	4.84e-05	1139.4	1.9302e-06	1.9367e-06	1201.6	234.7	2.0462e-06	1.9842e-06	293.04	80.336	62.92	18.254	2.0042e-06	26.049	130.869	11.413	38.603	-67.397	49.677	116.649	-67.285	-60.189	57.737	73.140	-60.428	-53.922	-53.487	-46.886	111.130	-46.725	-8191	255	
7663.095	1	1	0	0	0.12575	0.24327	0.091456	0.29272	0.2433	0.029978	0.19589	0.22255	0.23172	0.24267	0.14388	0.14845	0.17951	0.19459	0.19234	0.19574	-1.9542	-2.9625	-2.6354	-2.8604	-2.6333	-2.5958	-2.8458	-2.8458	-2.4042	-2.9938	-2.7729	-2.6604	-2.8417	-2.4979	-2.7875	-2.9458	241.034	28.449	268.155	226.605	256.485	-35.178	198.510	198.249	48.604	161.988	-54.247	242.323	208.846	185.034	89.907	66.237	0.00012274	0.00028273	2.1407e-05	1170.6	1.7467e-06	1.6169e-06	1222.9	237.98	1.3339e-06	1.4131e-06	298.26	80.548	63.671	18.257	2.2212e-06	25.924	0.00018864	0.0001825	5.1469e-05	1141	2.0365e-06	2.0481e-06	1201.8	234.62	2.0596e-06	1.9975e-06	292.92	80.44	62.98	18.296	2.0143e-06	26.015	107.175	0.320	27.532	-67.087	72.034	91.793	-67.172	-60.303	80.560	33.326	-60.219	-53.651	-53.659	-46.456	29.825	-46.896	-8191	255	
7663.216	1	1	0	0	0.11532	0.097919	0.23909	0.11843	0.13528	0.17173	0.21906	0.1784	0.19596	0.14765	0.25699	0.17743	0.21287	0.32834	0.19067	0.20062	-2.1875	-2.7729	-2.5917	-2.8146	-2.8979	-2.5667	-2.7938	-2.7188	-2.3729	-2.8667	-2.8146	-2.6042	-2.8979	-2.5958	-2.7417	-2.7583	-59.320	58.132	18.269	245.869	-1.828	80.521	173.630	210.085	90.149	94.385	253.494	159.783	250.225	253.972	195.990	-6.382	0.00015546	0.00020023	0.00013709	1168.4	2.6005e-06	6.4848e-06	1228.5	238.65	2.0612e-06	2.6326e-06	298.75	80.602	63.084	18.316	1.1626e-06	25.898	0.0001823	0.00017853	5.0505e-05	1140.6	1.9775e-06	1.9527e-06	1204.6	235.15	2.016e-06	1.9988e-06	293.25	80.463	62.79	18.361	1.9929e-06	26.103	129.130	11.042	11.655	-67.077	50.931	44.223	-67.100	-60.063	38.530	52.469	-60.270	-53.972	-53.705	-46.730	-18.959	-46.903	-8191	255	
7663.312	1	1	0	0	0.22805	0.024207	0.094599	0.31817	0.16866	0.15356	0.3074	0.15555	0.12461	0.2178	0.18204	0.28898	0.20486	0.24894	0.35091	0.091651	-1.9688	-2.7979	-2.8125	-2.7083	-2.8625	-2.6417	-3.0271	-2.9437	-2.4208	-2.7854	-2.7687	-2.6646	-2.8438	-2.4688	-2.6708	-2.7604	253.368	6.665	5.066	-72.268	-27.261	13.289	267.030	23.549	229.762	147.224	-33.440	281.068	226.054	-22.864	240.030	137.969	0.00014543	0.00030679	8.32e-05	1173.2	2.5405e-06	7.5948e-07	1232.7	239.13	1.8266e-06	4.6762e-06	296.82	80.531	63.441	18.122	2.3304e-06	25.852	0.00018654	0.00017846	4.9557e-05	1144.4	2.0128e-06	1.9655e-06	1204.7	235.33	2.039e-06	1.9839e-06	293.27	80.363	62.932	18.231	1.9789e-06	26.023	104.339	-19.270	-20.773	-67.105	67.358	40.475	-67.290	-60.228	47.683	67.924	-60.541	-54.082	-53.324	-46.468	60.606	-46.813	-8191	255	
7663.408	1	1	0	0	0.23687	0.13729	0.088775	0.14557	0.11694	0.35854	0.20798	0.20289	0.090611	0.057444	0.21044	0.25365	0.11307	0.28468	0.11058	0.039129	-2.1396	-2.7021	-2.725	-2.6146	-2.9208	-2.5417	-2.9917	-2.9542	-2.5021	-2.7833	-2.6229	-2.4792	-3.0187	-2.5542	-2.6458	-3.1021	238.837	33.266	219.018	268.117	33.106	102.709	275.442	149.350	12.975	247.925	-55.286	226.645	261.842	173.730	-42.732	72.032	0.00012198	0.00028036	7.6103e-05	1168.3	2.5112e-06	1.836e-06	1227.1	238.7	1.3702e-06	2.2271e-06	298.17	80.841	63.623	18.356	2.6281e-06	25.994	0.0001804	0.00018243	4.9406e-05	1140.7	1.969e-06	1.9257e-06	1203.2	234.97	1.9975e-06	1.9383e-06	293.45	80.439	62.936	18.37	2.0149e-06	26.084	128.269	-36.659	29.717	-67.215	-20.789	105.789	-67.243	-60.348	17.377	21.920	-60.380	-53.932	-53.588	-46.289	88.473	-46.635	-8191	255	
7663.504	1	1	0	0	0.26481	0.16867	0.045323	0.18277	0.15957	0.2245	0.3505	0.19368	0.24722	0.35841	0.11364	0.035397	0.25838	0.17926	0.16808	0.18392	-2.0458	-2.7083	-2.6917	-2.5833	-2.8063	-2.7083	-2.6417	-2.9354	-2.4292	-2.8187	-2.9521	-2.6417	-2.8583	-2.6396	-2.6063	-2.9042	124.728	-64.075	47.794	192.424	246.632	-14.081	211.343	241.553	269.934	209.677	-75.138	199.818	242.563	234.480	-77.746	170.525	0.00014276	0.00030432	2.7277e-05	1168.1	1.5355e-06	4.0093e-06	1227.4	238.66	2.1647e-06	2.0514e-06	298.38	80.709	63.339	18.147	1.9756e-06	26.039	0.00018156	0.00017608	4.9415e-05	1140.5	1.9412e-06	1.8967e-06	1203.5	234.95	2.0011e-06	1.9287e-06	292.96	80.419	62.866	18.238	1.9637e-06	26.086	119.535	13.443	63.696	-67.233	51.154	54.084	-67.338	-60.130	12.163	50.632	-60.728	-54.073	-53.608	-46.279	28.483	-46.881	-8191	255	
7663.600	1	1	0	0	0.17924	0.1975	0.15146	0.22047	0.060401	0.095121	0.14021	0.055152	0.23877	0.29483	0.14587	0.23753	0.1022	0.23188	0.12131	0.17141	-1.9958	-2.5604	-2.7958	-2.8167	-2.8646	-2.7458	-2.7	-2.9521	-2.6167	-2.6521	-2.625	-2.5979	-2.6458	-2.6625	-2.2812	-2.95	34.788	253.194	224.899	241.003	22.312	73.438	212.962	50.849	266.507	223.046	73.884	278.834	43.748	-38.147	215.143	225.250	0.00011983	0.00048196	0.00010619	1170.5	2.4212e-06	4.1455e-06	1226.7	237.28	1.5774e-06	2.1253e-06	298.38	80.438	63.662	18.196	1.0001e-06	26.089	0.0001797	0.00017182	4.8562e-05	1139.8	1.9532e-06	1.8393e-06	1202	234.26	1.9199e-06	1.9277e-06	293.01	80.132	62.972	18.23	1.9341e-06	26.105	112.999	-2.812	44.734	-67.284	18.270	74.921	-67.246	-60.093	28.005	45.288	-60.453	-53.954	-53.710	-46.650	74.475	-46.883	-8191	255	
7663.696	1	1	0	0	0.018006	0.12341	0.19277	0.24925	0.14595	0.1597	0.41989	0.14791	0.22975	0.1342	0.11115	0.074143	0.21755	0.19767	0.078032	0.11025	-2.2771	-2.5354	-2.7479	-2.5833	-2.7979	-2.7	-2.6333	-2.9	-2.5729	-2.6229	-2.8292	-2.7646	-2.8917	-2.6479	-2.3146	-3.0021	54.292	-20.047	-23.069	253.271	2.218	249.163	187.099	209.362	63.036	218.555	202.797	-10.790	87.529	154.450	199.237	270.271	0.00011997	0.00038671	0.00014126	1169	2.0081e-06	1.9314e-06	1224.5	236.93	2.9272e-06	3.3289e-06	295.91	80.503	63.409	18.213	2.4838e-06	26.103	0.00017674	0.00017298	4.6674e-05	1138.3	1.9153e-06	1.8505e-06	1199.3	234.17	1.9244e-06	1.875e-06	292.02	80.005	62.742	18.264	1.8719e-06	26.045	106.498	-18.398	33.520	-67.119	48.063	75.378	-67.065	-60.019	66.818	80.037	-60.296	-54.014	-53.350	-46.498	61.378	-46.919	-8191	255	
7663.817	1	1	0	0	0.19102	0.072697	0.31639	0.17527	0.17147	0.088905	0.30652	0.22659	0.033276	0.033417	0.22354	0.3696	0.13371	0.15859	0.20748	0.13776	-2.2229	-2.6208	-2.7146	-2.5917	-2.7417	-2.8042	-2.5875	-2.8438	-2.4917	-2.5354	-2.9479	-2.5646	-2.6625	-2.7229	-2.4833	-2.7354	16.800	246.281	123.696	257.055	-62.799	262.834	171.009	269.589	184.161	88.324	223.183	264.634	240.902	-34.262	196.670	181.886	0.00013183	0.0002557	0.00012672	1163.3	2.1117e-06	3.4144e-06	1223.3	237.37	1.9103e-06	4.0936e-06	298.09	80.099	62.643	18.347	4.3616e-06	26.044	0.00017534	0.00016802	4.5577e-05	1135.7	1.8872e-06	1.8484e-06	1197.9	233.99	1.9031e-06	1.8584e-06	292.35	80.106	62.638	18.285	1.8723e-06	26.057	123.010	-38.593	31.622	-67.312	-1.556	48.614	-67.298	-59.926	84.025	62.608	-60.284	-54.087	-53.807	-46.400	39.871	-46.575	-8191	255	
7663.911	1	1	0	0	0.12597	0.034699	0.099015	0.33171	0.028841	0.10531	0.22432	0.15458	0.20213	0.12683	0.34101	0.25773	0.20828	0.41929	0.30519	0.057779	-2.3937	-2.5271	-2.8937	-2.8292	-2.7208	-3.0646	-2.5771	-2.8479	-2.75	-2.4875	-2.9083	-2.6813	-2.6896	-2.8271	-2.4729	-2.7646	-34.387	272.964	228.871	212.963	82.357	184.089	269.850	249.389	-41.697	212.575	242.594	116.675	71.935	230.323	178.379	47.760	0.00011956	0.0005855	0.00010477	1166.2	1.9185e-06	2.4728e-06	1222.1	237.5	2.1475e-06	4.2383e-06	296.7	80.627	62.92	18.238	1.022e-06	25.909	0.00017574	0.00016839	4.7812e-05	1135.8	1.8557e-06	1.8381e-06	1197.6	234.4	1.8643e-06	1.8576e-06	292.17	80.366	62.609	18.267	1.8285e-06	26.035	82.029	7.311	-8.916	-67.082	122.385	70.845	-67.012	-60.299	1.349	50.251	-60.245	-53.775	-53.646	-46.332	87.826	-46.890	-8191	255	
7664.008	1	1	0	0	0.059548	0.088466	0.12884	0.15623	0.17703	0.0090855	0.28595	0.15846	0.23463	0.069779	0.11381	0.32261	0.07404	0.080045	0.092483	0.068136	-2.2542	-2.6896	-2.8104	-2.7479	-2.5021	-2.825	-2.7188	-2.9542	-2.6875	-2.5187	-2.8729	-2.7229	-2.6708	-2.9938	-2.6083	-2.8625	-5.457	107.308	227.101	212.190	278.572	114.854	168.362	221.408	53.626	-76.751	159.802	-65.596	221.761	-73.331	38.663	238.967	0.00012401	0.00023782	7.9266e-05	1156.2	2.5076e-06	5.2382e-06	1223.3	236.17	3.5361e-06	3.0861e-06	295.85	80.016	63.312	18.277	2.995e-06	26.033	0.00016669	0.00016029	4.5062e-05	1131.6	1.816e-06	1.7392e-06	1197.8	233.37	1.8149e-06	1.7652e-06	291.49	79.901	62.585	18.296	1.7478e-06	26.017	117.057	-15.248	4.649	-67.155	91.601	43.926	-67.354	-60.335	54.856	90.327	-60.233	-54.157	-53.722	-46.367	36.561	-47.029	-8191	255	
7664.104	1	1	0	0	0.15359	0.082092	0.3449	0.25297	0.069216	0.19774	0.26409	0.17221	0.2405	0.20911	0.24187	0.23918	0.28772	0.18889	0.073534	0.11435	-2.4208	-2.5396	-2.7292	-2.75	-2.4	-3	-2.7292	-2.7271	-2.7792	-2.5958	-2.9042	-2.6729	-2.5479	-2.8333	-2.6458	-2.5438	234.282	99.153	254.918	249.570	145.832	211.741	240.720	162.041	-34.032	126.442	14.035	127.919	257.769	159.372	-70.682	117.867	0.00015064	0.0001128	0.00013331	1160.4	1.0796e-06	1.6999e-06	1224.5	237.43	1.7606e-06	2.423e-06	296.14	80.153	63.254	18.379	2.5235e-06	25.876	0.00016231	0.00016169	4.4924e-05	1132.5	1.8114e-06	1.7419e-06	1195.2	233.53	1.8073e-06	1.7984e-06	291.27	80.006	62.728	18.268	1.777e-06	25.989	119.584	-53.664	43.192	-67.124	32.448	35.052	-67.251	-60.045	39.299	63.754	-60.288	-53.801	-53.701	-46.534	24.475	-46.773	-8191	255	
7664.177	1	1	0	0	0.095695	0.038004	0.11889	0.29725	0.0515	0.13289	0.18159	0.17073	0.065731	0.079666	0.12538	0.18836	0.047705	0.16559	0.28781	0.17258	-2.3396	-2.4271	-2.5604	-2.9375	-2.6813	-2.8021	-2.875	-2.5542	-2.8417	-2.7542	-2.775	-2.7188	-2.575	-2.6688	-2.6708	-2.5896	117.949	-42.945	28.023	229.586	105.412	47.873	250.583	214.651	233.183	243.586	140.673	-50.156	-15.650	-32.163	204.432	155.296	0.00013133	0.00027967	9.9234e-05	1164	1.4596e-06	6.174e-07	1223.5	237.47	2.3909e-06	1.8441e-06	295.75	80.134	63.315	18.356	4.6275e-06	26.09	0.00016635	0.00016019	4.4594e-05	1132.8	1.8048e-06	1.7409e-06	1196.1	233.82	1.8076e-06	1.7665e-06	290.78	79.994	62.602	18.293	1.7927e-06	26.017	122.123	15.661	17.727	-67.304	162.845	-28.096	-67.250	-60.035	111.674	84.666	-60.416	-53.970	-53.695	-46.629	15.142	-46.635	-8191	255	
7664.296	1	1	0	0	0.15391	0.27266	0.13971	0.22662	0.174	0.10235	0.1867	0.21561	0.031627	0.18415	0.21615	0.20671	0.33579	0.082781	0.2999	0.31401	-2.3896	-2.4313	-2.7062	-2.8667	-2.4833	-2.925	-2.9062	-2.7271	-2.75	-2.5458	-2.7083	-2.8958	-2.6813	-2.7875	-2.7271	-2.5708	48.203	91.866	-28.737	263.873	-67.812	-15.912	-65.885	-44.852	23.431	229.167	204.079	-51.857	199.735	-0.535	37.850	139.552	0.00012169	0.00044003	2.4698e-05	1162.4	2.3022e-06	4.9521e-06	1216.7	237.08	2.4836e-06	2.7012e-06	297.94	80.751	63.375	18.27	1.6911e-06	25.956	0.00016051	0.00015556	4.3368e-05	1130.8	1.768e-06	1.7562e-06	1195.3	233.5	1.7563e-06	1.7465e-06	291.67	80.132	62.565	18.282	1.7441e-06	26	101.774	27.044	53.927	-67.059	127.861	83.937	-67.208	-60.074	85.592	82.629	-60.284	-53.796	-53.514	-46.469	42.346	-46.880	-8191	255	
7664.392	1	1	0	0	0.090182	0.21493	0.23095	0.19865	0.14932	0.0043137	0.13116	0.34156	0.14999	0.25323	0.15145	0.04473	0.156	0.31147	0.11727	0.34495	-2.4604	-2.6271	-2.5625	-3.0604	-2.6354	-2.9021	-2.7125	-2.6937	-2.9104	-2.7208	-2.8375	-2.9021	-2.5687	-2.7479	-2.8	-2.7542	210.630	280.370	144.215	229.786	263.457	-75.464	251.122	-52.633	-71.520	-64.453	167.898	86.903	68.356	21.613	17.389	26.432	0.0001297	0.00025938	0.00011275	1162.6	1.881e-06	4e-06	1217.7	237.38	6.8498e-07	2.5639e-06	297.23	80.149	63.176	18.276	2.2724e-06	26.069	0.00016001	0.00015971	4.3135e-05	1133.4	1.7407e-06	1.679e-06	1194.7	233.86	1.8068e-06	1.6945e-06	291.68	80.081	62.656	18.298	1.7478e-06	26.072	109.478	34.270	43.476	-67.313	70.508	66.762	-67.222	-60.110	-57.468	53.943	-60.332	-54.005	-53.483	-46.480	70.100	-46.701	-8191	255	
7664.488	1	1	0	0	0.10323	0.092519	0.091962	0.073963	0.23542	0.097607	0.37144	0.34658	0.20649	0.066859	0.086002	0.086425	0.31533	0.21309	0.029958	0.20225	-2.2646	-2.6333	-2.4667	-2.9292	-2.7625	-2.5625	-2.9083	-2.4896	-2.7479	-2.7146	-2.8292	-2.7333	-2.6583	-2.725	-2.8646	-2.6	197.953	236.040	168.895	227.263	104.049	200.760	198.754	275.449	77.672	124.167	193.548	120.165	258.341	-38.176	91.360	199.193	7.3301e-05	0.00039793	7.8545e-05	1161.4	1.3808e-06	5.048e-06	1222.9	236.68	2.3416e-06	4.0785e-06	297.72	80.257	62.984	18.286	2.8615e-06	26.031	0.00016049	0.00015498	4.4623e-05	1131.6	1.7411e-06	1.7395e-06	1194.9	233.25	1.7499e-06	1.7737e-06	292.27	80.035	62.611	18.309	1.7592e-06	26.047	102.697	21.892	37.611	-67.279	92.351	68.735	-67.233	-60.175	56.314	104.805	-60.356	-53.974	-53.672	-46.835	97.175	-47.059	-8191	255	
7664.584	1	1	0	0	0.24448	0.13905	0.15228	0.28364	0.29246	0.18473	0.23445	0.10038	0.14568	0.13638	0.099429	0.18988	0.015872	0.13339	0.2267	0.036736	-2.45	-2.5917	-2.4062	-2.9062	-2.6437	-2.6958	-3.0917	-2.5854	-2.6458	-2.6625	-2.5333	-2.7167	-2.5229	-2.5563	-2.7042	-2.3979	-47.213	250.625	112.790	235.441	34.552	88.388	232.044	241.514	28.237	92.593	90.526	258.315	-46.588	50.998	-28.850	180.197	0.00011223	0.0001127	5.0834e-05	1158.1	1.5421e-06	3.6267e-06	1218.9	237.57	1.3928e-06	2.5666e-06	296.2	80.938	62.964	18.218	4.094e-06	26.105	0.00016207	0.00015577	4.3332e-05	1129.9	1.7592e-06	1.7095e-06	1195	233.83	1.7908e-06	1.6845e-06	291.32	80.248	62.566	18.257	1.737e-06	26.09	117.713	0.544	36.079	-66.981	37.175	66.264	-67.318	-60.038	44.600	19.847	-60.286	-54.216	-53.591	-46.496	5.262	-47.022	-8191	255	
7664.705	1	1	0	0	0.31984	0.28099	0.16379	0.11496	0.1837	0.024499	0.10854	0.052225	0.077677	0.089665	0.17333	0.23726	0.21208	0.22423	0.18298	0.24796	-2.1146	-2.5917	-2.5333	-3.0729	-2.5542	-2.5604	-3.0208	-2.6729	-2.6604	-2.7958	-2.4167	-2.8563	-2.5208	-2.6271	-2.7458	-2.7021	185.279	274.055	-25.457	168.776	-33.923	146.694	229.410	100.086	170.039	185.034	159.707	-45.284	10.616	271.314	55.797	191.259	0.0001348	0.00024196	0.00012219	1159.8	1.1878e-06	3.7434e-06	1219	237.96	2.1182e-06	2.0448e-06	296.6	80.011	63.184	18.252	2.934e-06	25.966	0.00016582	0.00015409	4.3705e-05	1131.3	1.8037e-06	1.7123e-06	1193.5	233.66	1.7714e-06	1.7302e-06	291.17	79.946	62.524	18.266	1.76e-06	26.084	112.420	-46.522	36.776	-67.240	54.172	61.479	-67.271	-60.271	0.811	46.914	-60.315	-53.832	-53.089	-46.795	57.964	-46.844	-8191	255	
7664.777	1	1	0	0	0.431	0.073203	0.32317	0.27238	0.10866	0.13678	0.03634	0.32065	0.097249	0.19123	0.24423	0.14808	0.025648	0.33909	0.17596	0.045455	-2.1771	-2.6708	-2.275	-2.8771	-2.5125	-2.4875	-2.9458	-2.4688	-2.625	-2.6292	-2.6354	-2.925	-2.7313	-2.5708	-3.0104	-2.5833	138.546	32.610	80.379	208.831	234.498	-12.548	-44.948	204.300	-30.492	39.626	205.453	189.842	149.474	11.505	-40.076	19.636	0.00010386	0.00056123	0.00010014	1160.1	1.1607e-06	1.7137e-06	1222.3	237.39	1.7576e-06	3.1708e-06	296.96	80.493	63.07	18.353	3.1303e-06	25.894	0.00016322	0.00015974	4.4187e-05	1131	1.7771e-06	1.7068e-06	1192.7	233.07	1.7539e-06	1.6566e-06	291.33	80.149	62.54	18.296	1.7468e-06	25.996	112.927	33.480	0.743	-67.110	114.100	-4.817	-67.170	-60.193	35.362	75.462	-60.378	-54.029	-53.802	-46.219	47.336	-46.575	-8191	255	
7664.897	1	1	0	0	0.17856	0.23825	0.065768	0.40668	0.21666	0.066874	0.31184	0.34085	0.25311	0.16347	0.23516	0.029102	0.089305	0.15653	0.16787	0.31758	-2.1208	-2.7396	-2.4104	-2.8312	-2.7625	-2.4938	-2.9479	-2.5542	-2.625	-2.8187	-2.7375	-2.7167	-2.5354	-2.5625	-2.7375	-2.7229	272.656	-10.176	103.671	257.752	120.569	83.494	164.112	-63.400	71.121	242.235	177.531	120.059	23.520	-17.249	151.595	177.346	0.00012556	0.00046407	7.8861e-05	1155.5	3.036e-06	2.1948e-06	1218.1	236.81	1.7426e-06	2.9969e-06	295.21	80.358	63.2	18.265	3.9782e-06	25.981	0.00016228	0.00015293	4.2384e-05	1127.6	1.757e-06	1.6993e-06	1192.5	232.97	1.7364e-06	1.7038e-06	290.93	80.057	62.579	18.275	1.7603e-06	26.078	128.939	-13.873	51.047	-67.172	40.823	62.907	-67.294	-60.134	44.124	52.357	-60.281	-53.990	-53.968	-46.486	39.761	-46.654	-8191	255	
7664.992	1	1	0	0	0.40448	0.28433	0.24205	0.12884	0.17272	0.14464	0.31938	0.2217	0.16951	0.14131	0.16548	0.20315	0.26965	0.19747	0.062274	0.0074759	-2.0646	-2.7354	-2.5292	-2.9313	-2.6854	-2.3896	-2.8104	-2.5958	-2.3667	-2.775	-2.5083	-2.6771	-2.7812	-2.4208	-2.7333	-2.7375	179.584	-6.515	91.370	263.141	-30.991	156.218	203.093	164.687	196.378	-12.475	270.921	-71.688	-6.708	115.763	168.620	203.503	0.00012295	0.00031743	7.099e-05	1162.7	1.5592e-06	4.7449e-06	1218.1	236.79	3.0984e-06	2.2386e-06	295	80.418	62.82	18.1	1.7729e-06	25.97	0.00016395	0.00015324	4.3221e-05	1130.6	1.7542e-06	1.6961e-06	1191.7	233.13	1.7763e-06	1.7482e-06	291.33	79.985	62.516	18.245	1.6966e-06	26.048	127.191	46.137	12.309	-67.238	57.721	61.128	-67.214	-60.023	69.772	58.844	-60.410	-54.166	-53.762	-46.681	86.697	-46.956	-8191	255	
7665.088	1	1	0	0	0.20312	0.25695	0.056777	0.29512	0.37108	0.18574	0.046736	0.24372	0.19331	0.22347	0.15777	0.18933	0.17324	0.098351	0.5384	0.17736	-2.0229	-2.6896	-2.4125	-2.7542	-2.8375	-2.5125	-2.8396	-2.65	-2.5521	-2.7625	-2.5479	-2.6292	-2.7021	-2.4688	-2.6688	-2.6146	269.791	-48.078	100.774	278.624	38.882	-10.233	232.823	167.129	233.229	200.255	-75.196	219.408	261.446	205.380	-24.391	153.408	8.7016e-05	0.00027924	0.00010008	1161	1.4043e-06	3.8381e-06	1213.5	236.38	3.4732e-07	1.3791e-06	296.1	80.818	63.682	18.423	5.4229e-06	26.09	0.00015914	0.00015327	4.2874e-05	1131.6	1.7531e-06	1.6645e-06	1192.5	233.25	1.768e-06	1.7011e-06	291.25	80.344	62.714	18.364	1.7446e-06	26.09	115.534	51.376	24.256	-67.304	104.895	45.140	-67.236	-60.257	-39.455	45.996	-60.335	-53.923	-53.639	-46.666	48.500	-46.588	-8191	255	
7665.184	1	1	0	0	0.13867	0.15854	0.036777	0.19124	0.2476	0.10507	0.15625	0.19353	0.17631	0.29348	0.12887	0.15721	0.32847	0.12015	0.18334	0.16252	-2.0458	-2.7125	-2.3229	-2.7875	-2.7188	-2.5812	-2.8021	-2.7188	-2.4458	-2.7979	-2.7667	-2.5271	-2.6958	-2.5521	-2.9167	-2.8521	-6.620	99.893	-44.468	169.122	225.414	218.826	176.954	219.343	221.482	156.384	189.476	180.360	246.061	198.308	217.917	17.778	0.00012794	0.0002383	0.00010804	1160.3	2.0772e-06	2.254e-06	1219.6	236.42	9.1265e-07	3.3574e-06	296.48	80.72	63.191	18.267	4.2145e-06	25.867	0.00016131	0.00015406	4.2979e-05	1130.8	1.7412e-06	1.7038e-06	1192.6	233.23	1.7321e-06	1.7408e-06	291.41	80.165	62.585	18.316	1.7458e-06	25.984	122.873	7.671	29.447	-67.260	-33.914	75.257	-67.250	-60.449	25.372	64.712	-60.603	-53.831	-53.634	-46.555	44.790	-46.901	-8191	255	
7665.305	1	1	0	0	0.13389	0.19645	0.44298	0.1313	0.15914	0.13581	0.33657	0.22327	0.026164	0.016464	0.28474	0.098899	0.18194	0.099842	0.086502	0.061635	-2.0146	-2.8292	-2.7583	-2.5333	-2.6771	-2.575	-2.6771	-2.8875	-2.4	-2.7896	-2.6771	-2.3521	-2.7	-2.4875	-2.5146	-2.6958	174.809	269.616	179.708	263.800	72.317	185.737	194.610	179.615	149.707	88.407	-71.735	39.173	263.786	219.829	108.787	105.199	0.00013074	0.00031735	9.093e-05	1162.2	2.4443e-06	2.7596e-06	1221.1	237.28	3.7156e-06	1.6818e-06	296.22	80.611	62.733	18.233	1.842e-06	25.987	0.00016322	0.00015683	4.3477e-05	1132.4	1.8078e-06	1.7934e-06	1194.8	233.32	1.8129e-06	1.7349e-06	291.63	80.08	62.573	18.276	1.805e-06	26.016	116.563	-54.091	10.143	-67.067	71.667	77.324	-67.060	-59.843	18.682	103.268	-60.496	-53.755	-53.615	-46.538	75.024	-46.994	-8191	255	
7665.376	1	1	0	0	0.16705	0.30519	0.208	0.13877	0.10952	0.22038	0.23555	0.11729	0.19901	0.12608	0.098862	0.24757	0.15449	0.099758	0.076813	0.18534	-1.9542	-2.575	-2.6937	-2.5312	-2.8063	-2.6021	-2.8375	-3.0583	-2.5563	-2.7771	-2.8292	-2.6271	-2.7958	-2.6417	-2.6146	-3.0604	277.088	94.545	70.833	228.031	75.203	207.893	-48.445	148.625	170.338	126.841	-73.801	-75.811	176.424	268.683	-66.885	45.562	0.00011134	0.00039812	7.4394e-05	1161.8	1.0722e-06	4.3206e-06	1222.2	236.85	2.279e-06	1.6073e-06	297.93	80.388	63.304	18.215	1.7475e-06	26.025	0.00016661	0.00015782	4.3929e-05	1132.2	1.8026e-06	1.7341e-06	1195.7	233.63	1.8538e-06	1.804e-06	291.72	80.145	62.719	18.32	1.8214e-06	26.056	106.676	9.808	38.578	-67.205	53.073	68.872	-67.084	-59.881	119.345	60.384	-60.574	-54.095	-53.700	-46.564	95.538	-46.709	-8191	255	
7665.473	1	1	0	0	0.035477	0.15906	0.25496	0.35279	0.20724	0.13566	0.14998	0.31064	0.26575	0.17387	0.15969	0.45295	0.093845	0.2752	0.21568	0.11836	-1.9979	-2.7167	-2.7625	-2.7854	-2.9792	-2.7479	-2.7583	-2.9813	-2.55	-2.7562	-2.8167	-2.6021	-2.8375	-2.6083	-2.4938	-3.0187	205.821	250.248	117.217	241.107	247.424	-2.267	238.417	212.544	168.821	235.017	226.875	-50.560	269.978	183.596	-9.126	95.756	9.8337e-05	0.00023847	0.00010625	1159.9	1.0834e-06	4.0693e-06	1219.4	236.91	1.0158e-06	7.4457e-07	297.9	80.318	63.377	18.219	8.664e-07	25.962	0.00016371	0.0001639	4.5024e-05	1131.6	1.8333e-06	1.7825e-06	1196	233.36	1.7988e-06	1.7482e-06	291.93	80.231	62.559	18.302	1.8143e-06	26.092	127.620	31.287	-16.076	-67.168	53.108	84.655	-67.124	-60.200	39.907	128.445	-60.042	-53.985	-53.766	-46.409	23.077	-46.845	-8191	255	
7665.593	1	1	0	0	0.21068	0.15253	0.1972	0.054627	0.21719	0.24337	0.10672	0.052622	0.21745	0.017795	0.14939	0.2575	0.20784	0.034433	0.20958	0.43078	-2.1896	-2.6833	-2.7979	-2.6542	-3.0146	-2.9417	-2.7958	-2.9958	-2.6521	-2.5687	-2.725	-2.5521	-2.9375	-2.8688	-2.4479	-2.9333	-71.714	216.396	12.307	65.925	268.713	10.245	233.536	177.532	-52.880	-8.494	80.777	-49.527	23.007	233.351	-65.441	189.913	0.0001772	0.00037538	0.00011105	1163.5	2.7719e-06	3.0606e-06	1225	236.49	1.2196e-06	1.9135e-06	298.55	80.988	63.241	18.283	2.7928e-06	26.101	0.00017314	0.00016669	4.464e-05	1135.3	1.8392e-06	1.7338e-06	1198.8	233.67	1.8348e-06	1.783e-06	292.24	80.31	62.692	18.312	1.7885e-06	26.074	113.681	-16.967	6.888	-67.017	89.914	29.261	-67.284	-60.060	17.200	52.150	-60.300	-53.911	-53.719	-46.405	93.538	-47.069	-8191	255	
7665.689	1	1	0	0	0.22773	0.078004	0.19376	0.086127	0.2507	0.039667	0.21361	0.28672	0.11603	0.20093	0.27829	0.16183	0.16066	0.27215	0.22764	0.011657	-2.3688	-2.5062	-2.8667	-2.8625	-2.7958	-2.8063	-2.8	-3.0875	-2.7417	-2.5563	-3.0687	-2.5292	-2.8875	-2.7917	-2.6833	-2.9396	4.887	248.426	6.566	29.281	40.885	238.859	234.950	275.323	224.485	224.762	260.610	60.570	-52.146	-75.069	180.704	9.047	0.00012588	0.00028353	4.7549e-05	1159.5	1.5316e-06	2.4314e-06	1221.7	237.37	1.7267e-06	2.5785e-06	297.02	80.697	63.207	18.238	6.1773e-07	25.954	0.00016366	0.00016307	4.5211e-05	1133.5	1.8131e-06	1.718e-06	1196.6	233.68	1.8254e-06	1.7552e-06	291.47	80.264	62.763	18.26	1.7909e-06	26.01	119.202	-23.988	58.592	-67.202	-42.902	59.613	-67.118	-60.116	100.060	27.699	-60.391	-53.782	-53.422	-46.435	76.268	-46.868	-8191	255	
7665.784	1	1	0	0	0.02227	0.049779	0.076614	0.13791	0.02643	0.084268	0.054765	0.28097	0.024925	0.060538	0.17334	0.16302	0.15917	0.11916	0.091019	0.047304	-2.0979	-2.6354	-3.0062	-2.7771	-2.8542	-2.8563	-2.8563	-2.9854	-2.7917	-2.6688	-2.975	-2.6958	-2.7917	-2.9917	-2.6396	-2.8604	40.883	-13.926	-7.825	246.647	37.321	-49.014	78.594	170.584	135.324	236.973	246.343	102.582	225.787	155.331	-15.703	-37.002	0.00011604	0.0002661	8.9303e-05	1161.5	1.5653e-06	2.5142e-06	1220.7	236.15	3.2246e-06	2.2187e-06	297.68	80.628	62.898	18.209	1.6901e-06	25.986	0.00016784	0.0001555	4.3887e-05	1133	1.7763e-06	1.7274e-06	1196.1	233.74	1.7539e-06	1.6982e-06	292.13	80.229	62.578	18.291	1.735e-06	26.041	110.576	-1.874	30.628	-67.336	95.807	77.603	-67.225	-60.243	-13.857	72.183	-60.189	-53.832	-53.617	-46.474	60.496	-47.045	-8191	255	
7665.904	1	1	0	0	0.085689	0.15854	0.21202	0.18368	0.15037	0.10915	0.38857	0.23331	0.11989	0.053202	0.2909	0.11701	0.11771	0.13963	0.13927	0.018899	-2.4104	-2.7375	-2.7854	-2.8771	-2.7104	-2.8583	-2.7417	-3.0062	-2.8292	-2.675	-2.9667	-2.7125	-2.6375	-2.8917	-2.7375	-2.9437	-32.661	245.035	244.935	161.800	227.400	-26.730	205.400	215.446	254.659	28.682	-56.274	186.182	52.158	264.734	-40.485	32.211	0.00010459	0.00031506	0.00017289	1166.8	1.4303e-06	5.4381e-06	1223.3	237.76	3.4273e-07	1.4202e-06	296.74	80.754	63.517	18.346	2.5515e-06	26.024	0.00016261	0.00015387	4.3705e-05	1133.9	1.7441e-06	1.6598e-06	1196.2	233.87	1.7408e-06	1.6531e-06	291.64	80.283	62.774	18.273	1.6964e-06	26	145.979	23.351	53.219	-67.251	62.732	77.550	-67.269	-60.072	57.005	53.942	-60.316	-53.966	-53.547	-46.873	76.211	-46.952	-8191	255	
7666.001	1	1	0	0	0.0434	0.19391	0.33452	0.33598	0.084594	0.22248	0.13945	0.095994	0.15507	0.1446	0.10025	0.18807	0.30767	0.10533	0.059286	0.26338	-2.3021	-2.6292	-2.9188	-2.7729	-2.6792	-2.8292	-2.7125	-2.8083	-2.95	-2.6146	-2.8229	-2.825	-2.6437	-2.8021	-2.5146	-2.7604	91.797	133.793	68.747	-62.366	231.529	220.636	276.173	141.464	271.217	59.452	131.878	-50.048	-20.002	168.309	163.916	276.467	9.3779e-05	0.00035171	7.2878e-05	1161	1.5886e-06	3.3554e-06	1221.1	237.24	1.301e-06	2.8392e-06	295.76	80.817	62.876	18.248	2.4966e-06	25.872	0.00016008	0.00014975	4.3434e-05	1134.3	1.7388e-06	1.6757e-06	1195.6	233.51	1.7832e-06	1.7032e-06	291.22	80.197	62.517	18.25	1.766e-06	25.978	114.052	-31.864	21.518	-67.120	52.615	90.333	-67.166	-60.196	-28.909	85.842	-60.422	-53.923	-53.153	-46.383	19.356	-46.882	-8191	255	
7666.072	1	1	0	0	0.22673	0.075397	0.17784	0.11052	0.15267	0.14551	0.27652	0.16903	0.12374	0.23248	0.2117	0.17845	0.25137	0.13405	0.15241	0.080161	-2.4313	-2.55	-2.8688	-2.8104	-2.5146	-2.7792	-2.7854	-2.8646	-2.8229	-2.6458	-2.9021	-2.6229	-2.5083	-2.9208	-2.6771	-2.6292	-32.229	216.007	124.617	199.726	208.809	264.274	207.510	124.379	206.427	247.079	214.516	190.653	-0.077	-61.388	148.074	216.981	0.00014983	0.00021378	3.9826e-05	1159.3	6.1e-07	3.5477e-07	1220.3	237.06	3.0327e-06	1.5087e-06	295.35	80.181	62.517	18.321	2.9285e-06	25.765	0.00016323	0.00015737	4.3618e-05	1132.9	1.7654e-06	1.714e-06	1195.5	233.71	1.7707e-06	1.7651e-06	291.44	80.144	62.242	18.274	1.783e-06	25.968	131.936	27.869	20.950	-67.090	139.937	60.581	-67.247	-60.125	-32.580	123.541	-60.082	-53.913	-54.108	-46.617	26.599	-46.496	-8191	255	
7666.168	1	1	0	0	0.26399	0.073889	0.24056	0.37781	0.21335	0.14943	0.25763	0.30653	0.26442	0.11509	0.093595	0.1713	0.30987	0.11145	0.34965	0.10407	-2.3167	-2.4437	-2.85	-2.95	-2.4938	-3.0417	-2.6458	-2.7562	-2.8292	-2.5687	-2.8542	-2.9042	-2.6333	-2.8958	-2.65	-2.7438	96.711	57.349	185.462	271.598	-52.686	-18.319	211.736	199.339	60.613	33.398	188.178	-58.655	113.274	77.701	137.355	31.654	9.7605e-05	0.00029663	9.1169e-05	1163.5	4.2477e-07	4.5378e-06	1219.2	237.29	2.8124e-06	1.844e-06	297.9	79.865	63.483	18.224	1.6369e-06	25.93	0.00016083	0.00015768	4.4436e-05	1132.7	1.8205e-06	1.7625e-06	1194.8	233.27	1.7999e-06	1.7531e-06	292.09	79.718	62.684	18.201	1.802e-06	25.992	119.524	33.025	19.318	-67.076	20.754	46.173	-67.221	-59.914	42.182	66.554	-60.464	-54.040	-54.072	-46.345	185.304	-47.374	-8191	255	
7666.265	1	1	0	0	0.18026	0.13047	0.23395	0.11304	0.20422	0.1603	0.058327	0.25148	0.27083	0.13198	0.21236	0.20957	0.16817	0.10965	0.087353	0.15342	-2.4479	-2.5833	-2.9188	-3.0208	-2.5542	-2.9083	-3.0229	-2.8333	-2.9646	-2.45	-2.6646	-3.0021	-2.6958	-2.7833	-2.8583	-2.625	67.873	102.377	267.457	251.432	118.682	169.823	156.990	-69.298	106.611	-45.836	272.557	-14.769	228.380	133.553	231.915	242.357	0.00012586	0.00046638	8.2439e-05	1159.8	3.411e-06	2.2358e-06	1220.2	236.04	1.1439e-06	2.2468e-06	295.7	79.818	62.496	18.209	3.5432e-06	25.975	0.00016286	0.0001605	4.4731e-05	1130.7	1.7645e-06	1.7651e-06	1193.2	233	1.8127e-06	1.7102e-06	291.2	79.925	62.418	18.215	1.7916e-06	25.936	119.019	-6.885	19.756	-67.167	74.362	25.888	-67.301	-60.204	8.130	49.498	-60.442	-53.931	-53.867	-46.592	64.118	-46.725	-8191	255	
7666.385	1	1	0	0	0.064398	0.079403	0.12222	0.28022	0.15445	0.12459	0.02695	0.22035	0.18725	0.13878	0.19835	0.1489	0.057657	0.083437	0.15934	0.060054	-2.3812	-2.6229	-2.6958	-3.0563	-2.7042	-2.9917	-2.9958	-2.6958	-3	-2.6688	-2.7313	-2.85	-2.5938	-2.8958	-2.7292	-2.6	47.200	-1.086	158.729	277.302	121.533	-31.285	13.517	267.946	-47.324	209.161	192.789	-6.761	246.734	166.425	261.854	-8.123	0.00011578	0.00043878	7.7573e-05	1158.5	1.7179e-06	3.9619e-06	1219.7	236.84	2.5677e-06	3.0347e-06	296.17	80.124	62.899	18.147	2.2968e-06	25.778	0.00016436	0.00015905	4.3556e-05	1129	1.8199e-06	1.764e-06	1192.2	233.06	1.7863e-06	1.7148e-06	291.03	79.88	62.323	18.198	1.7612e-06	25.898	106.206	35.978	-26.672	-67.374	122.619	41.926	-67.197	-60.198	43.717	21.404	-60.235	-53.969	-53.629	-46.579	30.820	-46.373	-8191	255	
7666.481	1	1	0	0	0.14227	0.30813	0.19778	0.09469	0.031559	0.18544	0.40843	0.28761	0.17829	0.03991	0.17753	0.12251	0.16779	0.31236	0.048397	0.26167	-2.4562	-2.5542	-2.4729	-3.1063	-2.4583	-2.6604	-3.0146	-2.6312	-2.7854	-2.8833	-2.5917	-3.2375	-2.5312	-2.7208	-2.8833	-2.6958	189.783	102.535	-28.386	-61.550	191.833	84.134	235.656	195.632	49.189	212.620	-45.705	279.224	93.396	140.993	107.337	218.242	0.00013485	0.00042036	9.8585e-05	1156.9	1.1565e-06	4.8465e-06	1217.8	235.99	9.7206e-07	3.28e-06	295.21	80.34	62.698	18.146	1.6553e-06	25.955	0.00016623	0.00015932	4.3532e-05	1128.5	1.8052e-06	1.7526e-06	1190.6	232.73	1.7814e-06	1.7852e-06	290.54	79.828	62.24	18.176	1.7631e-06	25.924	120.565	-8.593	14.078	-67.109	265.824	80.763	-67.072	-60.155	76.165	118.548	-60.471	-54.033	-53.487	-46.570	41.384	-46.662	-8191	255	
7666.577	1	1	0	0	0.092091	0.15212	0.14186	0.2691	0.29441	0.14647	0.18986	0.04529	0.10381	0.047921	0.11123	0.14339	0.14115	0.045036	0.2979	0.13148	-2.5979	-2.8083	-2.4917	-3.0812	-2.675	-2.6813	-3.0062	-2.5542	-2.8312	-2.9625	-2.7583	-3.0375	-2.7625	-2.775	-2.8354	-2.7583	192.866	-73.700	-3.127	180.960	39.723	-49.468	186.177	239.128	120.901	17.306	99.890	141.844	-76.595	53.531	-34.657	-71.205	6.09e-05	0.00031744	3.1906e-05	1154.8	1.1787e-06	2.335e-06	1216.5	235.57	7.6574e-07	2.3602e-06	295.5	80.385	62.882	18.099	1.6658e-06	25.879	0.00016441	0.00015723	4.3387e-05	1127.2	1.7967e-06	1.7646e-06	1191	232.29	1.7708e-06	1.7667e-06	290.42	79.946	62.267	18.167	1.769e-06	25.901	108.181	4.359	62.211	-67.116	33.950	20.606	-67.331	-60.093	24.906	57.903	-60.421	-53.907	-53.562	-46.769	126.994	-46.865	-8191	255	
7666.674	1	1	0	0	0.33489	0.054674	0.065973	0.24833	0.27203	0.074692	0.38979	0.024874	0.23226	0.3283	0.24	0.17352	0.16779	0.058888	0.12073	0.30906	-2.4813	-2.6729	-2.6437	-2.8542	-2.7521	-2.7229	-3.0687	-2.7271	-2.8375	-3.0125	-2.6708	-2.9396	-2.6312	-2.6646	-3.0167	-2.7771	138.387	162.635	10.128	265.925	243.265	0.733	191.408	233.594	114.836	-70.520	203.886	207.961	-20.557	261.236	208.219	279.167	0.00016519	0.00046567	0.00013292	1157.9	4.5466e-06	4.4673e-06	1212.6	235.9	2.4154e-06	3.5712e-06	295.11	80.705	62.552	18.258	6.0564e-07	25.854	0.00016596	0.00015746	4.4318e-05	1127.4	1.7581e-06	1.6902e-06	1187.2	232.36	1.7922e-06	1.7543e-06	290.3	79.899	62.226	18.214	1.6905e-06	25.937	121.001	-26.815	37.680	-67.091	36.505	57.826	-67.282	-60.134	74.584	71.567	-60.322	-54.036	-53.549	-46.213	82.101	-46.861	-8191	255	
7666.770	1	1	0	0	0.077665	0.1946	0.10576	0.18573	0.16478	0.13113	0.1901	0.12207	0.12013	0.098643	0.16318	0.25541	0.22148	0.16644	0.23664	0.10758	-2.2667	-2.7417	-2.4688	-2.8417	-2.7938	-2.7812	-3.2	-2.7542	-2.7396	-2.8646	-2.6979	-2.9062	-2.6813	-2.7208	-2.9083	-2.7896	222.037	-6.643	88.875	181.451	207.754	-32.664	241.311	209.997	63.905	102.908	235.328	240.519	244.265	243.283	267.951	131.225	0.00010453	0.00047722	5.7562e-05	1154.4	1.7961e-06	4.0809e-06	1216.8	236.18	1.7809e-06	1.5185e-06	295.75	79.745	62.716	18.157	7.8434e-07	25.841	0.00015977	0.00015597	4.4454e-05	1126	1.7918e-06	1.7109e-06	1188.9	232.42	1.8208e-06	1.7484e-06	290.59	79.7	62.358	18.175	1.7967e-06	25.919	133.908	17.009	-4.650	-67.228	267.948	44.675	-66.968	-60.070	44.134	43.133	-60.118	-53.598	-53.824	-46.514	20.066	-46.695	-8191	255	
7666.866	1	1	0	0	0.091396	0.11498	0.28906	0.11219	0.10126	0.18338	0.19962	0.20021	0.14907	0.20921	0.4387	0.18549	0.11265	0.17183	0.23055	0.20149	-2.3563	-2.9271	-2.5229	-2.9271	-2.6708	-2.7417	-2.9958	-2.6625	-2.725	-2.9208	-2.6188	-2.7417	-2.8937	-2.5229	-2.9917	-2.8417	36.945	200.287	-72.872	-36.533	198.969	255.054	-24.043	259.994	-49.891	90.526	265.061	-75.226	-72.602	-46.332	145.007	-31.257	9.8343e-05	9.1047e-05	4.2907e-05	1152.3	4.9695e-06	4.0841e-06	1215.4	235.36	1.0905e-06	2.6452e-06	295.83	79.837	63.076	18.21	2.9952e-06	25.8	0.00016303	0.00015388	4.353e-05	1124.4	1.7659e-06	1.6764e-06	1187.9	232.45	1.7415e-06	1.6994e-06	290.46	79.622	62.208	18.231	1.7305e-06	25.878	123.462	-59.416	42.908	-67.088	32.784	54.503	-67.171	-60.136	54.579	58.098	-60.568	-54.085	-53.619	-46.515	73.347	-46.828	-8191	255	
7666.985	1	1	0	0	0.2208	0.20773	0.18198	0.38186	0.32378	0.088007	0.17854	0.079847	0.17471	0.14967	0.1549	0.10766	0.10153	0.049144	0.14436	0.23596	-2.3063	-2.8	-2.6021	-3.0083	-2.8688	-2.7354	-3.1521	-2.7271	-2.6083	-2.8458	-2.6125	-2.7729	-2.8958	-2.5917	-3	-2.7896	-74.290	-4.690	108.698	219.114	133.623	-10.784	210.530	273.931	238.477	160.730	-56.829	171.993	279.638	211.263	246.856	196.603	7.6894e-05	0.00042815	9.9221e-05	1152.9	2.8071e-06	2.4605e-06	1213.4	235.9	1.9566e-07	2.3501e-06	294.8	79.842	62.331	18.225	2.7163e-06	25.864	0.00016269	0.0001524	4.2764e-05	1123.6	1.7191e-06	1.6627e-06	1186.1	232.23	1.7348e-06	1.6546e-06	289.76	79.644	62.167	18.181	1.6862e-06	25.881	93.641	23.753	3.344	-67.225	92.516	10.066	-67.147	-59.881	-47.531	1.558	-60.361	-53.871	-53.489	-46.511	52.549	-46.464	-8191	255	
7667.081	1	1	0	0	0.14884	0.16273	0.26926	0.23921	0.16392	0.05169	0.32094	0.14249	0.069261	0.051988	0.027618	0.20481	0.13031	0.22033	0.12136	0.077592	-2.0917	-3.0083	-2.4583	-2.8604	-2.9646	-2.9188	-3.0187	-2.9062	-2.5271	-2.9292	-2.7208	-2.7333	-2.8854	-2.5875	-2.8708	-2.8312	257.640	170.111	209.023	263.784	230.984	129.193	273.111	222.447	29.946	-4.242	-17.242	-67.157	27.834	250.593	34.367	219.393	6.9443e-05	0.00021422	0.00010916	1150.5	3.4317e-06	3.8446e-06	1214	235.43	1.3645e-06	1.2796e-06	295.05	80.19	62.655	18.058	2.4907e-06	25.73	0.00015363	0.00014869	4.2673e-05	1122	1.7135e-06	1.6818e-06	1185.7	232	1.7108e-06	1.6599e-06	289.65	79.766	62.194	18.163	1.7293e-06	25.929	111.441	-30.664	16.491	-67.135	105.725	40.380	-67.201	-59.932	75.205	56.994	-60.382	-53.818	-53.754	-46.634	82.497	-46.820	-8191	255	
#DATA ENDS
