BOXY.EXE: ISS Imagent and Oximeter Data Acquisition Program Version 0.80
Ascii Record File

#ACQ INFORMATION
2  Detector Channels 
16  External MUX Channels 
1  Auxiliary Channels 
5000  Waveform (CCF) Frequency (Hz)
1  Waveforms Skipped 
30  Waveforms Averaged 
1  Cycles Averaged 
16  Acquisitions per Waveform 
10.0806  Updata Rate (Hz) 

#FILE INFORMATION
TRUE -- External MUX Channel results are PARSED.
FALSE -- AC DC and Phase are NOT grouped.
TRUE -- Companion Program Settings File CREATED.
FALSE -- AC data not excluded
FALSE -- DC data not excluded
FALSE -- Phase data not excluded
FALSE -- Auxillary Chn. data not excluded
Tab delimiters

#CALIBRATION STATE
TRUE -- Waveform Calibration Values APPLIED.


#AUX CALIBRATION VALUES
Val Type	aux-1	

Term	1.0000e+00	
Factor	0.0000e+00	


#WF CALIBRATION VALUES
A = Detector Channel
Val Type	A-AC1	A-AC2	A-AC3	A-AC4	A-AC5	A-AC6	A-AC7	A-AC8	A-AC9	A-AC10	A-AC11	A-AC12	A-AC13	A-AC14	A-AC15	A-AC16	A-DC1	A-DC2	A-DC3	A-DC4	A-DC5	A-DC6	A-DC7	A-DC8	A-DC9	A-DC10	A-DC11	A-DC12	A-DC13	A-DC14	A-DC15	A-DC16	A-Ph1	A-Ph2	A-Ph3	A-Ph4	A-Ph5	A-Ph6	A-Ph7	A-Ph8	A-Ph9	A-Ph10	A-Ph11	A-Ph12	A-Ph13	A-Ph14	A-Ph15	A-Ph16	

Term	0.00000e+00	0.00000e+00	0.00000e+00	0.00000e+00	0.00000e+00	0.00000e+00	0.00000e+00	0.00000e+00	0.00000e+00	0.00000e+00	0.00000e+00	0.00000e+00	0.00000e+00	0.00000e+00	0.00000e+00	0.00000e+00	0.00000e+00	0.00000e+00	0.00000e+00	0.00000e+00	0.00000e+00	0.00000e+00	0.00000e+00	0.00000e+00	0.00000e+00	0.00000e+00	0.00000e+00	0.00000e+00	0.00000e+00	0.00000e+00	0.00000e+00	0.00000e+00	0.00000e+00	0.00000e+00	0.00000e+00	0.00000e+00	0.00000e+00	0.00000e+00	0.00000e+00	0.00000e+00	0.00000e+00	0.00000e+00	0.00000e+00	0.00000e+00	0.00000e+00	0.00000e+00	0.00000e+00	0.00000e+00	
Factor	1.00000e+00	1.00000e+00	1.00000e+00	1.00000e+00	1.00000e+00	1.00000e+00	1.00000e+00	1.00000e+00	1.00000e+00	1.00000e+00	1.00000e+00	1.00000e+00	1.00000e+00	1.00000e+00	1.00000e+00	1.00000e+00	1.00000e+00	1.00000e+00	1.00000e+00	1.00000e+00	1.00000e+00	1.00000e+00	1.00000e+00	1.00000e+00	1.00000e+00	1.00000e+00	1.00000e+00	1.00000e+00	1.00000e+00	1.00000e+00	1.00000e+00	1.00000e+00	X	X	X	X	X	X	X	X	X	X	X	X	X	X	X	X	

B = Detector Channel
Val Type	B-AC1	B-AC2	B-AC3	B-AC4	B-AC5	B-AC6	B-AC7	B-AC8	B-AC9	B-AC10	B-AC11	B-AC12	B-AC13	B-AC14	B-AC15	B-AC16	B-DC1	B-DC2	B-DC3	B-DC4	B-DC5	B-DC6	B-DC7	B-DC8	B-DC9	B-DC10	B-DC11	B-DC12	B-DC13	B-DC14	B-DC15	B-DC16	B-Ph1	B-Ph2	B-Ph3	B-Ph4	B-Ph5	B-Ph6	B-Ph7	B-Ph8	B-Ph9	B-Ph10	B-Ph11	B-Ph12	B-Ph13	B-Ph14	B-Ph15	B-Ph16	

Term	0.00000e+00	0.00000e+00	0.00000e+00	0.00000e+00	0.00000e+00	0.00000e+00	0.00000e+00	0.00000e+00	0.00000e+00	0.00000e+00	0.00000e+00	0.00000e+00	0.00000e+00	0.00000e+00	0.00000e+00	0.00000e+00	0.00000e+00	0.00000e+00	0.00000e+00	0.00000e+00	0.00000e+00	0.00000e+00	0.00000e+00	0.00000e+00	0.00000e+00	0.00000e+00	0.00000e+00	0.00000e+00	0.00000e+00	0.00000e+00	0.00000e+00	0.00000e+00	-9.99014e+01	-1.28059e+02	-1.24292e+02	-1.80815e+02	-5.64162e+01	-6.70400e+01	-1.57141e+02	-1.62015e+02	-5.78422e+01	-6.46554e+01	-1.71605e+02	-1.71581e+02	-1.83471e+02	-1.76929e+02	-6.31455e+01	-1.49760e+02	
Factor	1.57090e-05	1.56009e-04	4.31416e-05	1.49598e-01	1.26044e-06	1.72627e-06	1.55617e-01	4.50887e-02	1.02207e-06	1.73542e-06	7.47621e-02	2.92882e-02	3.47003e-02	8.87559e-03	1.34979e-06	1.27559e-02	1.64394e-05	5.02448e-05	1.40396e-05	7.54145e-02	4.32544e-07	5.76823e-07	7.39352e-02	2.29014e-02	4.22910e-07	5.74600e-07	3.67841e-02	1.45451e-02	1.77443e-02	4.53651e-03	4.81585e-07	6.33307e-03	X	X	X	X	X	X	X	X	X	X	X	X	X	X	X	X	



#DISTANCE SETTINGS
A = Detector Channel
A-1	A-2	A-3	A-4	A-5	A-6	A-7	A-8	A-9	A-10	A-11	A-12	A-13	A-14	A-15	A-16	

2.5000e+00	3.0000e+00	2.5000e+00	3.0000e+00	2.0000e+00	3.0000e+00	1.5000e+00	3.0000e+00	3.0000e+00	3.0000e+00	3.0000e+00	3.0000e+00	3.0000e+00	3.0000e+00	1.5000e+00	3.0000e+00	

B = Detector Channel
B-1	B-2	B-3	B-4	B-5	B-6	B-7	B-8	B-9	B-10	B-11	B-12	B-13	B-14	B-15	B-16	

1.0000e+01	1.0000e+01	1.0000e+01	1.4400e+00	1.0000e+01	1.0000e+01	1.5100e+00	1.9400e+00	1.0000e+01	1.0000e+01	1.9900e+00	2.4900e+00	2.4100e+00	2.9000e+00	1.0000e+01	2.9800e+00	




#DATA BEGINS
time	group	step	mark	flag	A-AC1	A-AC2	A-AC3	A-AC4	A-AC5	A-AC6	A-AC7	A-AC8	A-AC9	A-AC10	A-AC11	A-AC12	A-AC13	A-AC14	A-AC15	A-AC16	A-DC1	A-DC2	A-DC3	A-DC4	A-DC5	A-DC6	A-DC7	A-DC8	A-DC9	A-DC10	A-DC11	A-DC12	A-DC13	A-DC14	A-DC15	A-DC16	A-Ph1	A-Ph2	A-Ph3	A-Ph4	A-Ph5	A-Ph6	A-Ph7	A-Ph8	A-Ph9	A-Ph10	A-Ph11	A-Ph12	A-Ph13	A-Ph14	A-Ph15	A-Ph16	B-AC1	B-AC2	B-AC3	B-AC4	B-AC5	B-AC6	B-AC7	B-AC8	B-AC9	B-AC10	B-AC11	B-AC12	B-AC13	B-AC14	B-AC15	B-AC16	B-DC1	B-DC2	B-DC3	B-DC4	B-DC5	B-DC6	B-DC7	B-DC8	B-DC9	B-DC10	B-DC11	B-DC12	B-DC13	B-DC14	B-DC15	B-DC16	B-Ph1	B-Ph2	B-Ph3	B-Ph4	B-Ph5	B-Ph6	B-Ph7	B-Ph8	B-Ph9	B-Ph10	B-Ph11	B-Ph12	B-Ph13	B-Ph14	B-Ph15	B-Ph16	aux-1	digaux	

15863.282	1	1	0	768	0.33073	0.41145	0.081146	0.10115	0.24978	0.095243	0.070154	0.04669	0.097369	0.47909	0.31214	0.11245	0.13826	0.12609	0.20616	0.17606	-2.5854	-2.5438	-2.8937	-2.7917	-2.6229	-2.9646	-2.7396	-2.8417	-2.9208	-2.5708	-3.1208	-2.95	-2.7583	-2.8875	-2.7208	-2.7083	161.340	239.361	391.124	413.125	399.429	296.230	167.099	378.483	474.371	170.252	183.702	384.096	205.100	260.599	293.233	472.258	0.00037403	0.00067945	0.00012074	150.1	5.3461e-06	6.5917e-06	288.9	58.143	2.539e-06	6.0928e-07	149.12	72.748	26.672	12.419	3.5761e-06	39.134	0.0082942	0.02469	0.0068751	191.44	0.00021198	0.00028476	333.55	71.493	0.00020529	0.00028012	172.42	82.869	35.927	15.201	0.00022897	43.973	211.921	398.281	256.703	132.816	312.312	287.929	132.284	136.985	202.960	200.767	135.707	139.242	140.204	144.002	263.954	142.380	-8191	255	
15863.378	1	1	0	0	0.14243	0.1688	0.081823	0.0396	0.055696	0.21171	0.19411	0.1654	0.21211	0.084613	0.033221	0.13714	0.1273	0.18902	0.06059	0.074661	-2.3708	-2.4833	-2.7833	-2.9083	-2.6396	-2.9313	-2.7333	-2.65	-2.8604	-2.6688	-2.8896	-2.9813	-2.6437	-2.825	-2.6458	-2.6583	345.982	215.860	445.140	385.948	184.360	235.554	437.606	337.876	178.648	148.143	141.895	358.139	438.310	140.063	422.630	346.924	0.00042095	0.0002551	0.00015294	151.74	9.9447e-07	2.2959e-06	290.15	58.533	2.9535e-06	1.8819e-06	148.58	72.09	26.581	12.3	4.4543e-06	38.593	0.0080799	0.023846	0.0066367	191.49	0.00020436	0.0002751	334.19	71.724	0.00020157	0.00027265	172.1	82.399	35.701	15.048	0.00022911	43.524	210.961	276.652	267.471	132.279	418.231	274.178	132.200	137.159	287.574	326.787	136.096	139.290	139.969	144.227	162.634	142.320	-8191	255	
15863.472	1	1	0	0	0.35999	0.37849	0.17119	0.25553	0.10766	0.081436	0.0094032	0.11859	0.15205	0.22869	0.18842	0.042914	0.10739	0.043152	0.16031	0.41763	-2.575	-2.7583	-2.8792	-2.9375	-2.5271	-2.7438	-2.8542	-2.7167	-2.7979	-2.625	-2.8875	-2.9625	-2.5125	-2.7667	-2.8958	-2.7292	201.801	236.053	137.003	445.052	274.220	477.996	384.876	178.822	239.361	153.191	301.548	386.070	119.431	195.716	178.703	460.704	0.00037893	0.0006373	0.00026337	151.46	3.6535e-06	1.484e-06	289.31	59.163	2.1766e-06	1.6837e-06	150.08	73.182	26.778	12.581	5.1323e-06	39.352	0.0080502	0.02359	0.0065117	190.33	0.00019968	0.00026159	332.13	71.463	0.00019254	0.0002594	172.13	82.975	35.675	15.159	0.00021941	44.082	211.612	155.579	228.620	133.144	236.988	380.441	132.503	136.911	408.666	261.036	135.704	139.200	139.653	144.009	219.396	142.303	-8191	255	
15863.570	1	1	0	0	0.080289	0.22727	0.085606	0.19167	0.106	0.21846	0.13928	0.18359	0.076785	0.26147	0.12385	0.17522	0.096576	0.14377	0.29549	0.25355	-2.525	-2.6854	-2.4979	-2.8854	-2.6729	-2.9	-2.95	-2.5458	-2.8625	-2.6896	-2.7792	-2.9062	-2.6813	-2.875	-2.9479	-2.7646	169.502	320.384	425.269	428.903	314.551	393.770	381.372	461.339	303.647	461.397	192.337	396.810	266.740	212.635	435.434	127.675	0.00035228	0.00082161	9.0175e-05	151.89	1.4308e-06	5.5338e-06	292.34	59.726	2.5686e-06	5.6257e-06	151.82	74.289	27.383	12.628	2.459e-06	39.781	0.0077683	0.022821	0.0063748	190.79	0.00019824	0.00026101	334.16	71.722	0.00018974	0.0002541	173.51	83.747	35.786	15.269	0.00021099	44.468	206.670	323.753	165.414	132.504	219.754	327.482	132.577	137.258	183.889	232.352	135.965	139.205	140.001	144.215	335.141	142.466	-8191	255	
15863.665	1	1	0	0	0.1212	0.13159	0.40055	0.12523	0.24732	0.067749	0.09569	0.18394	0.076604	0.15571	0.11014	0.19292	0.024578	0.096303	0.040735	0.048052	-2.4875	-2.9375	-2.6458	-2.9292	-2.4625	-2.6958	-2.8812	-2.3937	-2.8354	-2.9062	-2.6083	-3.0833	-2.5875	-2.8187	-2.75	-2.8083	355.069	294.030	221.850	466.531	257.284	286.511	473.215	218.917	390.717	134.613	452.213	433.030	359.390	195.070	334.252	137.765	0.00044241	0.00042057	7.2323e-05	154.04	4.2643e-06	8.1553e-06	294.29	60.273	2.9257e-06	2.323e-06	152.22	74.534	27.242	12.695	4.8059e-06	39.988	0.0076121	0.022416	0.0062281	191.63	0.00019461	0.00025838	336.02	72.454	0.0001922	0.00026008	174.6	84.224	36.006	15.356	0.00021659	44.576	210.534	238.933	471.555	132.493	227.254	271.076	132.376	137.119	272.452	273.217	135.737	139.145	139.705	144.258	275.285	142.024	-8191	255	
15863.761	1	1	0	0	0.19939	0.10665	0.043568	0.048512	0.034322	0.25441	0.15768	0.089034	0.24226	0.04431	0.15359	0.099739	0.28834	0.10473	0.2125	0.28048	-2.3875	-2.8333	-2.5979	-2.8854	-2.7604	-2.7354	-2.9229	-2.6521	-2.9208	-2.8229	-2.525	-2.8771	-2.5667	-2.6854	-2.8646	-2.6521	190.966	319.168	355.666	160.346	287.554	185.551	361.590	288.747	154.058	220.142	367.484	386.498	211.979	371.870	389.756	399.759	0.00038213	0.00031391	9.3903e-05	152.91	2.9402e-06	4.5295e-06	293.28	59.719	4.6032e-06	3.0411e-06	150.6	73.439	27.391	12.607	2.4174e-06	39.612	0.007753	0.0228	0.0063837	192.18	0.000197	0.00026056	334.12	71.91	0.0001917	0.00025934	172.76	83.355	35.882	15.24	0.0002183	44.371	218.334	196.354	178.779	132.348	324.384	148.913	132.231	137.099	232.124	450.596	136.064	139.068	139.586	144.669	264.663	142.487	-8191	255	
15863.881	1	1	0	0	0.20943	0.072099	0.16125	0.13574	0.17475	0.4221	0.13719	0.32877	0.038865	0.32847	0.22705	0.16555	0.055319	0.24431	0.12871	0.053865	-2.4667	-2.9104	-2.6896	-2.9042	-2.6979	-2.6792	-3.0375	-2.6979	-2.7229	-2.9646	-2.6896	-2.7958	-2.7146	-2.6667	-2.9958	-2.7938	227.207	315.083	229.040	390.253	306.988	426.315	282.441	455.239	321.009	218.250	461.540	383.457	472.584	465.793	358.640	417.218	0.0004021	0.00068588	0.00019196	151.53	2.0839e-06	2.1631e-06	292.97	59.728	1.0923e-06	4.712e-06	150.93	73.582	26.921	12.598	5.1898e-06	39.769	0.0077287	0.022819	0.0063548	191.64	0.00019722	0.00025978	335.83	72.249	0.00019229	0.00025873	173.19	83.346	35.781	15.213	0.00021522	44.333	207.606	183.684	273.901	132.003	356.241	321.770	132.433	137.293	464.745	205.706	135.812	138.927	139.667	144.173	279.761	142.173	-8191	255	
15863.978	1	1	0	0	0.081289	0.18819	0.044801	0.085623	0.39206	0.16255	0.080446	0.2137	0.26335	0.083238	0.19949	0.1193	0.23597	0.1031	0.075841	0.09322	-2.4083	-2.9938	-2.55	-2.8583	-2.8646	-2.5417	-2.9813	-2.7167	-2.7479	-2.8812	-2.8187	-2.9979	-2.9375	-2.7188	-2.9229	-2.7167	320.684	362.523	286.319	441.363	301.662	253.346	373.607	339.107	452.443	349.658	265.575	123.083	388.264	178.521	390.841	319.604	0.00039765	0.00051063	6.6463e-05	153.19	2.6741e-06	3.1009e-06	294.28	59.761	1.6554e-06	1.5205e-06	150.45	73.771	26.859	12.664	5.0843e-06	39.485	0.0076089	0.022562	0.0063135	192.17	0.00019428	0.00025899	336.1	72.226	0.00019393	0.00026445	173.69	83.861	36.006	15.339	0.00022582	44.387	210.728	181.935	262.671	132.189	215.676	315.676	132.289	136.962	177.570	146.864	135.821	138.938	140.279	143.975	232.453	142.208	-8191	255	
15864.074	1	1	0	0	0.024301	0.20876	0.31536	0.14202	0.11768	0.2568	0.18414	0.20434	0.06719	0.24757	0.15414	0.24698	0.25241	0.20965	0.2975	0.01192	-2.4167	-2.9896	-2.6688	-2.7542	-3.0146	-2.6312	-3.0604	-2.7146	-2.5729	-2.9104	-2.6396	-2.95	-2.85	-2.625	-3.0271	-2.725	149.086	266.971	467.493	368.126	238.609	421.799	234.625	433.858	381.311	135.122	367.173	469.090	430.646	299.896	299.730	183.696	0.00040604	0.000512	0.00011355	151.97	1.2247e-06	5.5724e-06	294.09	59.45	3.1023e-07	7.0508e-07	150.28	73.299	26.935	12.446	3.7379e-06	38.92	0.0080067	0.02375	0.0066479	192.77	0.00020325	0.00027365	337.27	72.177	0.00019869	0.00027125	173.4	83.422	36.031	15.209	0.00023011	43.979	210.318	231.768	358.752	132.897	213.522	320.149	132.368	137.062	126.015	282.774	135.945	139.363	140.143	144.117	292.528	142.425	-8191	255	
15864.170	1	1	0	0	0.12534	0.096226	0.10207	0.228	0.28331	0.2576	0.20373	0.25117	0.15843	0.20878	0.19118	0.1452	0.058789	0.093018	0.077826	0.25619	-2.1896	-2.9229	-2.5167	-2.8	-2.9917	-2.7	-2.8854	-2.8312	-2.5938	-3.0458	-2.7687	-2.8063	-2.9208	-2.6417	-2.9708	-2.7979	230.559	365.291	146.920	246.417	330.272	213.258	136.890	234.879	431.705	457.282	133.279	435.857	196.848	378.473	378.596	468.324	0.00037799	0.00028746	0.0002397	151.78	2.4862e-06	8.9283e-06	290.28	59.79	2.3914e-06	5.9393e-06	150.75	73.384	27.012	12.606	1.0868e-06	39.277	0.0080934	0.024026	0.0066919	192.58	0.00020475	0.00027375	334.95	72.183	0.00019574	0.00027083	173.45	83.789	36.207	15.369	0.00023018	44.206	214.986	155.578	158.357	132.597	207.614	301.749	132.260	136.921	372.047	236.054	135.695	139.389	139.787	144.221	282.101	142.333	-8191	255	
15864.266	1	1	0	0	0.20498	0.15427	0.059357	0.069984	0.22245	0.22233	0.099826	0.17581	0.055727	0.085311	0.046347	0.12337	0.33088	0.068719	0.15487	0.23064	-2.2	-2.9375	-2.6271	-2.6333	-3.0229	-2.6813	-2.8333	-2.9125	-2.7521	-2.9479	-2.8312	-2.9208	-2.8792	-2.5542	-2.8604	-2.7521	446.596	262.219	328.504	247.905	282.395	292.224	272.947	305.784	247.386	137.139	292.786	395.209	226.915	376.217	143.053	129.970	0.00032748	0.0001713	5.4618e-05	150.82	3.9119e-06	7.4494e-07	290.68	58.925	3.63e-06	5.9358e-06	149.3	72.516	26.727	12.384	1.2426e-06	39.209	0.0081977	0.024282	0.0068189	192.61	0.00020953	0.00028054	335.83	71.79	0.00020382	0.00027727	172.53	82.998	35.972	15.225	0.00023408	44.091	202.107	324.924	203.307	132.579	336.947	311.785	132.499	137.302	250.482	130.389	135.875	139.300	139.791	144.342	273.178	142.321	-8191	255	
15864.362	1	1	0	0	0.17008	0.071858	0.1244	0.054845	0.20938	0.19396	0.26396	0.14302	0.26904	0.22903	0.27405	0.08183	0.13669	0.35061	0.15752	0.26285	-2.2792	-2.8271	-2.6917	-2.5708	-2.7938	-2.6937	-2.6417	-2.9437	-2.6437	-3.0208	-2.6917	-2.5875	-3.0417	-2.7104	-2.7875	-2.9521	269.192	206.203	127.555	407.132	221.360	326.403	473.042	416.185	228.925	229.409	249.647	292.034	374.998	381.824	427.613	350.050	0.00035937	0.00062603	0.00011903	152.01	3.1129e-06	4.4126e-06	292.42	58.733	2.3736e-06	9.1085e-06	150.1	73.343	26.972	12.601	4.4376e-06	39.505	0.0083511	0.024818	0.0069457	193.53	0.00021487	0.00028727	337.98	72.189	0.00020993	0.00028432	173.57	83.755	36.417	15.401	0.00023704	44.391	212.509	291.277	206.645	132.530	183.234	377.420	132.166	137.586	201.026	298.504	135.823	139.257	140.341	144.519	336.028	142.427	-8191	255	
15864.483	1	1	0	0	0.18947	0.13232	0.26378	0.087714	0.12573	0.19561	0.18971	0.086512	0.09329	0.1191	0.38606	0.1253	0.14936	0.0079343	0.03927	0.23122	-2.1396	-2.6562	-2.8208	-2.5729	-2.8875	-2.6917	-2.8146	-2.85	-2.6979	-2.9688	-2.9062	-2.7542	-2.8958	-2.4938	-2.6583	-2.9896	320.628	448.215	369.363	134.277	188.768	417.189	226.723	293.490	357.080	124.991	166.189	419.242	339.992	135.289	185.152	271.013	0.00034144	0.00034719	0.00021897	151.94	1.0467e-06	2.6832e-06	288.96	59.115	2.6796e-06	8.3094e-06	148.8	72.375	26.343	12.432	1.4133e-06	39.122	0.0085276	0.025333	0.0070223	194.39	0.00021994	0.00029217	336.85	72.573	0.0002155	0.00029345	172.96	83.038	36.4	15.34	0.00024113	44.038	215.859	213.004	169.185	132.127	214.573	174.751	132.123	137.329	263.618	231.103	135.530	139.216	140.380	144.249	349.779	142.303	-8191	255	
15864.577	1	1	0	0	0.045156	0.16071	0.15079	0.21406	0.052491	0.35438	0.18695	0.06279	0.29729	0.15889	0.03333	0.16962	0.07648	0.079098	0.10337	0.22	-2.2687	-2.7687	-2.8	-2.7396	-3.0146	-2.7167	-2.8312	-3.1	-2.7167	-3.0104	-2.8833	-2.6917	-2.8646	-2.6646	-2.5729	-2.9708	333.116	303.315	423.545	194.700	141.294	421.296	193.109	350.579	139.459	219.017	447.144	442.422	469.875	393.815	320.073	475.740	0.00042465	0.00033995	9.5289e-05	151.5	4.5019e-06	8.7695e-06	290.79	58.819	4.0554e-06	4.5719e-06	149.58	72.989	26.649	12.403	3.051e-06	39.13	0.0085898	0.025322	0.0069796	193.48	0.00021634	0.00028708	336.01	72.377	0.00021419	0.00029293	173.7	83.52	36.634	15.358	0.00024923	44.261	215.775	179.681	250.773	132.480	382.923	303.618	132.519	137.052	262.227	333.932	135.747	139.311	140.224	144.240	478.875	142.351	-8191	255	
15864.673	1	1	0	0	0.24643	0.25557	0.16465	0.25819	0.093378	0.21893	0.026404	0.23378	0.05492	0.15196	0.052255	0.23008	0.265	0.12336	0.11635	0.34471	-2.1792	-2.7708	-2.8312	-2.5542	-2.8063	-2.7938	-2.8375	-2.9333	-2.7542	-2.9167	-2.9125	-2.8146	-2.9167	-2.9104	-2.75	-2.9583	137.450	449.710	400.683	333.809	132.057	359.920	445.744	270.651	217.150	215.299	124.775	468.302	426.757	155.821	324.525	455.296	0.00037843	0.00063041	4.8748e-05	152.74	2.3759e-06	4.8307e-06	292.75	58.883	4.6693e-06	2.975e-06	150.59	73.633	26.775	12.525	5.1503e-06	39.437	0.0088965	0.02597	0.0072766	196.06	0.00022299	0.00029632	339.66	73.26	0.00022192	0.00030114	175.48	84.316	37.128	15.5	0.00025604	44.563	207.092	215.464	239.352	132.200	172.231	391.352	132.244	137.011	273.195	283.313	135.964	139.297	140.095	144.351	268.109	142.483	-8191	255	
15864.770	1	1	0	0	0.15606	0.085943	0.18864	0.27297	0.12774	0.26723	0.29615	0.12285	0.39471	0.18119	0.050588	0.17218	0.10444	0.10412	0.19424	0.21393	-2.1479	-2.7333	-2.8354	-2.5354	-2.8771	-2.9104	-2.6437	-2.8292	-2.5833	-2.7	-3.0146	-2.6292	-2.7854	-2.9813	-2.6083	-2.9917	152.628	386.574	401.517	449.739	240.870	309.791	154.369	192.124	239.536	466.079	353.769	339.918	194.797	450.767	460.745	470.210	0.0004039	0.00020172	0.00016645	152.53	3.5508e-06	4.7051e-06	292.85	58.842	3.8642e-06	5.9838e-06	150.55	73.122	26.836	12.36	1.5053e-06	38.845	0.0090302	0.026628	0.0074193	196.7	0.00023069	0.00030304	340.9	72.97	0.00022216	0.00029922	174.65	83.819	36.775	15.356	0.00025167	44.045	205.689	279.872	275.901	132.532	280.092	234.365	132.216	137.245	244.862	231.756	135.637	139.530	139.874	144.369	154.928	142.200	-8191	255	
15864.843	1	1	0	0	0.19917	0.2201	0.20813	0.096649	0.12817	0.094988	0.34353	0.13634	0.20639	0.13076	0.15248	0.14494	0.098583	0.21739	0.18929	0.2	-2.1792	-2.6479	-2.9062	-2.6896	-2.8604	-2.9229	-2.5917	-3.0021	-2.8354	-2.6583	-2.9	-2.7896	-2.8333	-2.7708	-2.5625	-3.0604	441.226	366.348	386.861	401.034	353.275	309.800	334.480	348.358	133.589	360.947	173.500	170.886	184.144	305.241	119.422	414.785	0.00035692	0.00015284	0.00029658	151.98	3.1521e-06	5.5064e-06	288.96	59.713	1.6505e-06	6.9712e-07	150.25	73.334	26.793	12.578	3.6194e-06	39.004	0.0088214	0.025999	0.0072897	195.32	0.00022142	0.00029344	337.71	73.083	0.00021403	0.0002893	174.48	83.977	36.64	15.431	0.00024678	44.226	210.015	264.773	172.541	133.061	257.317	210.015	132.452	136.818	250.320	341.020	135.738	139.346	140.065	144.356	324.898	142.374	-8191	255	
15864.962	1	1	0	0	0.21174	0.1285	0.43493	0.11037	0.033667	0.045913	0.077216	0.089522	0.30627	0.090404	0.20842	0.058871	0.23258	0.16517	0.059196	0.075643	-2.2812	-2.625	-3.0021	-2.6771	-2.7625	-2.9	-2.7042	-2.8563	-2.8208	-2.6208	-2.8771	-2.7625	-2.9875	-2.9417	-2.7062	-2.7333	432.568	231.074	124.850	261.442	205.099	456.872	360.444	429.358	418.326	463.774	389.609	203.391	182.315	402.153	125.467	238.371	0.00036004	0.00032197	0.00013748	152.92	4.4936e-06	2.1425e-06	291.15	58.606	5.111e-06	2.633e-06	149.13	72.228	26.205	12.261	3.405e-06	38.724	0.0086986	0.025695	0.0072419	195.66	0.0002204	0.00029327	337.95	72.467	0.00021372	0.00028948	173.44	82.706	36.032	15.119	0.0002429	43.706	208.544	175.169	322.711	132.524	373.000	332.252	132.427	137.220	251.436	284.863	135.549	139.287	140.458	143.995	269.635	142.483	-8191	255	
15865.058	1	1	0	0	0.20857	0.20191	0.25882	0.11847	0.32354	0.23675	0.086238	0.20674	0.099548	0.061072	0.14344	0.17852	0.17881	0.1689	0.19777	0.12049	-2.2479	-2.4958	-2.7646	-2.7396	-2.8542	-2.9729	-2.7417	-2.9396	-3.0646	-2.7125	-2.8979	-2.6437	-2.6208	-3.1479	-2.5958	-2.6896	290.468	164.425	277.304	209.072	320.696	266.568	454.872	359.937	306.516	196.999	330.175	142.566	276.485	161.061	157.301	433.333	0.0003392	0.00098027	0.00020823	150.89	1.0881e-06	2.3008e-06	291.38	57.948	2.6123e-06	6.5867e-06	146.94	71.413	25.959	12.033	3.553e-06	37.962	0.0084726	0.02519	0.007033	193.26	0.00021601	0.00028816	336.53	71.471	0.00021332	0.00029356	171.6	81.769	35.913	15.007	0.00025572	43.166	209.673	231.552	139.158	132.582	244.176	241.911	132.083	136.918	326.902	233.151	136.056	139.266	140.157	144.513	242.485	142.494	-8191	255	
15865.154	1	1	0	0	0.092901	0.10487	0.20899	0.19573	0.25145	0.25861	0.21085	0.2696	0.2365	0.32826	0.089413	0.19782	0.13797	0.28552	0.30377	0.31137	-2.3771	-2.6583	-3.0229	-2.7208	-2.7917	-3.0354	-2.6042	-2.7667	-2.7708	-2.4958	-2.9833	-2.6896	-2.6229	-2.8708	-2.6437	-2.7771	205.250	435.650	341.462	436.917	199.707	177.744	326.648	430.510	238.002	444.785	310.016	155.775	356.605	263.598	315.375	261.060	0.00037764	0.00058685	5.8979e-05	150.69	3.4179e-06	6.5684e-06	287.38	57.107	1.138e-06	2.4677e-06	143.32	69.899	25.297	11.8	4.471e-06	37.59	0.0089953	0.027084	0.0075589	194.97	0.00023035	0.00031198	335.64	71.365	0.00022894	0.00031351	169.3	80.757	35.651	14.866	0.00025563	42.733	221.270	267.347	161.549	132.358	255.524	203.912	132.568	137.340	146.836	195.946	135.667	139.358	140.537	144.178	265.663	142.495	-8191	255	
15865.250	1	1	0	0	0.1407	0.16039	0.26315	0.14464	0.025105	0.21377	0.12324	0.044722	0.11268	0.088728	0.12752	0.16118	0.068358	0.2406	0.20763	0.25845	-2.5479	-2.6292	-2.8729	-2.7646	-2.5271	-2.7792	-2.6958	-2.725	-2.8688	-2.8521	-2.7792	-2.8208	-2.4292	-2.8521	-2.5146	-2.7021	164.139	438.964	285.302	351.129	292.885	458.841	395.156	299.623	447.300	379.803	438.594	357.108	338.118	383.469	207.475	442.157	0.00036893	0.00029483	0.00015934	147.99	6.2421e-06	6.084e-06	286.84	56.945	2.6712e-06	4.3929e-06	145.36	69.9	25.565	11.856	2.5037e-06	37.408	0.0087866	0.02631	0.007371	192.17	0.00022362	0.0002986	332.98	70.814	0.00021778	0.00029858	169.53	80.615	35.385	14.758	0.00024941	42.513	212.821	242.343	247.262	132.470	279.845	376.315	132.419	137.237	224.394	124.762	135.984	139.541	140.460	144.225	304.963	142.431	-8191	255	
15865.369	1	1	0	0	0.088236	0.11884	0.30199	0.20882	0.13638	0.084788	0.16469	0.12773	0.14635	0.1848	0.22805	0.29853	0.23543	0.1885	0.20866	0.20392	-2.5625	-2.4729	-2.6625	-2.7729	-2.6021	-2.9313	-2.4896	-2.8167	-3.0146	-2.6083	-2.8042	-2.7542	-2.5458	-2.7292	-2.7188	-2.6813	299.739	146.680	229.770	347.580	327.248	465.831	471.217	182.783	405.448	379.729	391.027	476.360	185.878	187.909	377.408	411.384	0.00038309	0.00023941	0.00019212	149.9	1.5497e-06	4.0309e-06	285.13	57.168	5.7738e-06	2.8362e-06	146.16	69.957	25.39	11.881	4.1381e-06	37.755	0.0087438	0.026026	0.0071726	192.49	0.00022554	0.00029761	333.07	70.869	0.00022144	0.00030013	169.8	80.799	35.551	14.828	0.00025035	42.815	209.410	421.299	236.972	132.452	277.735	298.059	132.401	137.189	335.366	253.309	135.852	139.424	140.168	144.378	359.581	142.436	-8191	255	
15865.443	1	1	0	0	0.056145	0.18306	0.24409	0.34997	0.069528	0.062327	0.16966	0.094018	0.20759	0.17218	0.18204	0.11512	0.17755	0.056644	0.038985	0.047229	-2.6083	-2.5729	-2.7938	-2.7812	-2.4562	-2.9188	-2.7792	-2.5187	-2.8854	-2.6625	-2.8063	-2.9188	-2.6417	-2.8854	-2.7375	-2.6667	343.137	342.632	429.085	141.149	438.744	159.753	183.542	288.205	239.576	360.905	478.871	413.605	131.895	415.335	235.594	447.839	0.0003724	0.00026495	8.753e-05	148.79	3.0663e-06	2.3196e-06	289.1	57.463	1.5422e-06	2.8895e-06	147.52	71.672	26.05	12.233	5.1723e-06	38.363	0.0088116	0.025945	0.0071411	191.93	0.00022134	0.00029344	334.82	71.384	0.00021735	0.00029369	171.67	82.246	36.041	15.11	0.00024548	43.301	218.141	337.357	206.181	132.710	168.046	300.351	132.422	137.176	444.135	304.423	135.825	139.165	140.531	144.197	253.971	142.360	-8191	255	
15865.563	1	1	0	0	0.20604	0.20113	0.13228	0.17288	0.21921	0.14085	0.25509	0.25469	0.018004	0.13712	0.059739	0.13174	0.23192	0.29466	0.17256	0.10585	-2.4333	-2.4813	-2.6792	-2.9625	-2.5479	-2.8917	-2.8667	-2.5792	-2.7354	-2.5438	-2.625	-2.8229	-2.6208	-2.5792	-2.8604	-2.6021	397.173	402.359	227.936	202.501	320.788	183.862	411.960	158.976	346.032	380.880	432.710	263.672	304.367	457.006	366.965	166.457	0.00034885	0.00032196	9.1766e-05	150.76	3.9936e-06	8.7531e-06	286.26	58.307	5.6768e-06	8.3923e-06	148.51	71.987	26.729	12.294	2.359e-06	38.871	0.0087651	0.02559	0.0070813	192.46	0.00021905	0.00029061	332.38	71.648	0.00021315	0.00028566	171.88	82.638	36.343	15.189	0.00024318	43.762	204.608	391.895	386.306	132.807	224.121	250.149	132.266	137.543	277.611	279.305	135.795	139.169	140.278	144.173	342.882	142.318	-8191	255	
15865.658	1	1	0	0	0.16359	0.15892	0.11627	0.18641	0.23445	0.0914	0.19536	0.2282	0.092731	0.55233	0.12752	0.21575	0.31585	0.25205	0.067058	0.16367	-2.3333	-2.6333	-2.5354	-2.8167	-2.6896	-2.9146	-2.7625	-2.7333	-2.7125	-2.7875	-2.6979	-2.9917	-2.6	-2.6292	-2.8396	-2.6813	397.713	167.538	340.149	234.054	245.539	268.319	436.775	122.800	346.937	159.818	172.977	457.825	174.200	440.090	240.144	465.926	0.00032177	0.00056547	2.0715e-05	150.13	4.7603e-06	5.9096e-06	289.78	58.609	2.4374e-06	6.5026e-06	149.16	72.561	26.643	12.31	1.1189e-06	38.879	0.0087173	0.025419	0.0071137	193.22	0.00022097	0.00029189	335.19	72.255	0.00021724	0.00029317	173.34	83.232	36.356	15.258	0.00024171	43.978	204.206	234.942	354.788	132.926	147.662	188.456	132.107	137.295	340.792	284.706	135.517	139.472	140.324	144.244	238.144	142.486	-8191	255	
15865.754	1	1	0	0	0.069872	0.051159	0.11583	0.098293	0.089854	0.056726	0.32398	0.074309	0.1094	0.13208	0.13368	0.036033	0.27842	0.073621	0.1371	0.14378	-2.4042	-2.6583	-2.8375	-2.8	-2.7	-2.6375	-3.0417	-2.5458	-2.7	-2.8479	-2.6375	-2.9708	-2.6688	-2.6479	-2.8312	-2.5542	358.037	171.359	391.575	428.907	427.506	270.758	430.177	349.477	227.979	122.468	469.324	230.602	263.522	194.452	447.187	325.683	0.00039766	0.00032673	0.00020215	149.29	5.1279e-06	5.1077e-06	290.88	59.197	4.6323e-06	6.9269e-06	150.06	73.386	26.851	12.558	6.2251e-06	39.384	0.0084967	0.0248	0.007002	193.13	0.00021783	0.0002898	337.29	72.78	0.00021663	0.00029456	174.76	84.225	36.798	15.457	0.00024668	44.441	224.759	425.987	184.270	132.406	175.274	282.406	132.312	137.209	331.054	205.171	135.948	139.466	140.357	144.064	241.022	142.359	-8191	255	
15865.850	1	1	0	0	0.14123	0.25008	0.25577	0.13146	0.24037	0.15577	0.11503	0.0682	0.28206	0.2561	0.10348	0.19397	0.23165	0.18983	0.17594	0.082074	-2.3708	-2.7896	-2.4667	-2.8875	-2.725	-2.825	-3.0792	-2.4021	-2.7667	-2.9813	-2.7042	-2.9646	-2.7375	-2.6458	-2.7333	-2.6083	364.613	199.972	245.221	227.001	211.804	405.328	248.984	376.166	290.621	375.183	405.481	309.274	217.539	410.265	172.783	273.178	0.0003181	0.00039837	0.00012512	150.08	3.9232e-06	4.0221e-06	291.54	59.25	4.0104e-06	4.3333e-06	149.91	73.329	26.751	12.652	8.1652e-06	39.061	0.008748	0.025517	0.0072017	194.43	0.00022083	0.00029536	338.75	73.053	0.00021652	0.00029489	174.63	83.992	36.729	15.476	0.0002509	44.297	215.851	210.060	223.700	132.171	321.378	432.811	132.136	137.473	318.418	424.156	135.684	139.171	139.972	144.415	254.658	142.330	-8191	255	
15865.971	1	1	0	0	0.21448	0.1024	0.087809	0.23742	0.18293	0.18634	0.071406	0.19946	0.21641	0.1591	0.22777	0.11659	0.31207	0.19977	0.19098	0.06982	-2.3458	-2.8479	-2.8479	-2.9875	-2.8521	-2.7062	-2.8875	-2.5333	-2.7083	-2.8896	-2.7292	-3.0042	-2.6771	-2.7021	-2.9208	-2.7229	278.356	193.708	389.771	475.406	173.813	386.357	238.664	433.142	187.653	238.355	465.793	354.414	306.499	180.787	432.744	368.961	0.00040106	0.00033332	0.00022011	150.09	3.2046e-06	2.6087e-06	291.1	59.232	3.7618e-06	3.3991e-07	150.44	73.697	26.873	12.669	9.9939e-06	39.604	0.0086804	0.025805	0.0072361	193.94	0.00021899	0.00029137	337.9	73.211	0.00021339	0.00029076	175.29	84.516	36.861	15.509	0.00024102	44.581	207.766	273.675	237.445	132.342	442.424	178.967	132.563	137.320	392.205	167.636	135.933	139.395	139.955	144.119	294.443	142.331	-8191	255	
15866.067	1	1	0	0	0.12942	0.23968	0.061168	0.12904	0.11082	0.19258	0.2353	0.10437	0.13237	0.12652	0.12482	0.13394	0.31512	0.24723	0.18485	0.07418	-2.4208	-2.6354	-2.6167	-2.9437	-2.9021	-2.5521	-2.9667	-2.7604	-2.8542	-2.9437	-2.7896	-2.8104	-2.825	-2.6958	-2.9854	-2.9208	209.185	390.551	209.021	153.311	127.130	369.152	397.164	351.541	266.166	345.770	463.112	266.162	325.898	158.995	327.220	338.613	0.00035587	0.00070893	4.7444e-05	152.05	2.4895e-06	4.3701e-06	291.77	59.665	3.768e-06	3.5166e-06	151.82	74.411	27.23	12.8	7.6016e-06	39.99	0.008448	0.025134	0.0070863	193.75	0.00021636	0.00029065	338.49	73.214	0.00021231	0.00028848	176.12	85.021	36.938	15.71	0.00024261	44.987	209.567	292.700	225.171	132.515	238.462	421.710	132.371	136.991	274.025	279.208	135.651	138.927	139.787	144.046	342.710	142.438	-8191	255	
15866.138	1	1	0	0	0.13519	0.081427	0.19301	0.27006	0.13051	0.10107	0.077566	0.12055	0.10922	0.069174	0.17177	0.25592	0.24571	0.13444	0.1272	0.11164	-2.325	-2.7792	-2.4104	-2.8708	-2.9562	-2.5333	-3.0229	-2.625	-2.7958	-2.9458	-2.6125	-2.8458	-2.8333	-2.4833	-2.9062	-2.7062	365.934	200.713	229.447	366.894	474.679	325.379	371.127	197.262	382.506	219.215	392.383	409.276	142.786	173.875	125.698	204.322	0.00038812	0.00041879	0.00018521	152.15	2.6399e-06	2.7215e-06	292.15	59.576	3.5617e-06	4.305e-06	152.48	74.493	27.196	12.794	5.7533e-07	39.917	0.0085299	0.025267	0.0070656	194.07	0.00021721	0.00029125	339.76	73.249	0.0002131	0.00029013	176.76	85.168	37.115	15.721	0.00024694	44.903	208.563	263.381	165.461	132.885	416.827	155.767	132.343	137.388	234.344	272.431	135.364	139.458	140.205	144.333	278.757	142.352	-8191	255	
15866.259	1	1	0	0	0.039845	0.034011	0.32267	0.21684	0.036986	0.12182	0.070311	0.2123	0.32301	0.15963	0.12763	0.50621	0.10864	0.12754	0.010725	0.14506	-2.0938	-2.8479	-2.6583	-2.7188	-2.9083	-2.5208	-2.9167	-2.9271	-2.5979	-3.0854	-2.7104	-2.6479	-2.8271	-2.6688	-3.0833	-2.8375	458.479	252.649	165.641	314.416	474.066	396.480	395.563	381.012	251.483	162.908	287.325	470.906	384.969	338.699	443.904	467.222	0.00041183	0.00016428	7.7359e-05	151.4	4.8674e-06	6.3276e-06	292.22	60.227	1.1346e-06	1.0755e-05	152.34	74.374	27.334	12.858	5.9785e-06	39.697	0.0086896	0.02564	0.0070578	193.79	0.0002164	0.00028784	338.49	73.419	0.00020895	0.00028543	176.1	84.818	36.98	15.661	0.00024192	44.899	214.109	190.648	370.315	132.849	276.706	306.973	132.590	137.146	199.548	236.376	135.579	139.397	139.592	144.127	189.168	142.364	-8191	255	
15866.355	1	1	0	0	0.22152	0.36864	0.16733	0.048958	0.17659	0.14759	0.24689	0.10254	0.22542	0.41226	0.2551	0.095042	0.27083	0.10876	0.092747	0.17428	-2.6	-2.8354	-2.6604	-2.7083	-3.0104	-2.6792	-2.7542	-2.8104	-2.6479	-2.8771	-2.8979	-2.7167	-2.7104	-2.6292	-2.8458	-2.875	134.290	399.305	454.660	209.089	338.525	176.191	456.929	132.676	129.355	266.298	415.284	353.847	387.990	450.963	405.875	368.869	0.00036737	0.00039429	5.9737e-05	152.07	3.3602e-06	9.1241e-06	294.67	60.719	2.6493e-06	3.7165e-06	154.12	75.239	27.397	12.834	2.4652e-06	40.137	0.0085606	0.025604	0.0070593	194.79	0.00021981	0.00029341	339.73	73.923	0.0002122	0.00028921	178.02	85.663	37.283	15.752	0.00024021	45.172	211.574	190.491	264.628	132.910	209.764	284.933	132.459	137.247	251.861	369.536	135.442	139.320	139.896	144.237	374.006	142.173	-8191	255	
15866.450	1	1	0	0	0.13498	0.12448	0.18286	0.090718	0.14846	0.24652	0.077951	0.095053	0.077302	0.18125	0.2758	0.28279	0.23006	0.085764	0.33016	0.13103	-2.0729	-2.8771	-2.8042	-2.6875	-2.8333	-2.5312	-2.9354	-2.7833	-2.5875	-2.7958	-2.7167	-2.6458	-2.8292	-2.7396	-2.7271	-3.0187	235.606	179.624	268.627	415.419	393.886	321.907	435.120	404.023	258.118	337.565	437.505	410.671	277.107	379.542	424.515	215.158	0.00044163	0.00022727	0.00027693	153.6	6.7997e-07	1.7674e-06	298.74	60.772	1.8223e-06	5.9715e-06	154.47	75.355	27.656	12.992	7.512e-07	40.429	0.008519	0.025035	0.0069023	195.39	0.00021462	0.00028494	342.48	74.348	0.00021139	0.00028895	179.06	86.156	37.57	15.872	0.00024307	45.593	207.359	274.618	217.540	132.053	217.700	369.527	132.255	136.797	379.160	400.031	135.465	139.125	139.986	144.483	244.723	142.377	-8191	255	
15866.546	1	1	0	0	0.24806	0.18289	0.061628	0.05641	0.05234	0.1408	0.10551	0.10322	0.12821	0.19849	0.19117	0.45051	0.10208	0.357	0.31896	0.10946	-2.1458	-2.8292	-2.6542	-2.7313	-3.0187	-2.7625	-2.7667	-3	-2.6375	-2.875	-2.6979	-2.5	-2.7938	-2.6854	-2.8021	-3.0021	421.843	264.113	314.885	122.476	472.357	462.048	465.666	418.765	145.932	182.387	214.826	442.423	375.472	432.501	172.849	349.321	0.0004002	0.00022401	7.1633e-05	153.04	2.9419e-06	1.8206e-06	295.47	60.72	2.6269e-06	5.6017e-06	153.77	74.665	27.66	12.894	1.9221e-06	40.102	0.0086299	0.025468	0.0070516	196.61	0.00022029	0.00029205	342.38	74.548	0.00021656	0.00029165	178.01	85.578	37.609	15.835	0.00024712	45.229	211.399	342.855	274.157	132.597	386.357	169.097	132.371	137.165	234.236	269.460	135.696	139.542	139.538	144.180	191.221	142.262	-8191	255	
15866.666	1	1	0	0	0.26749	0.1334	0.09053	0.12976	0.28389	0.32245	0.1612	0.25293	0.15349	0.17815	0.24823	0.1394	0.16268	0.25733	0.12027	0.11291	-2.025	-2.7979	-2.6708	-2.4708	-2.8854	-2.7667	-2.6396	-3.0021	-2.7229	-2.7188	-2.7167	-2.5938	-2.7833	-2.7021	-2.5396	-2.8063	238.675	391.032	420.111	253.630	453.790	240.677	440.395	427.037	167.707	278.952	440.657	349.775	140.515	152.413	304.480	476.960	0.0003849	0.00022551	0.00024887	153.87	4.6349e-06	2.6937e-06	293.31	60.898	2.6178e-06	4.8228e-06	154.93	75.812	27.988	13.009	5.6557e-06	40.624	0.0087218	0.025361	0.0070254	196.14	0.00021588	0.00028739	340.92	74.444	0.00021124	0.00028454	178.43	86.179	37.404	15.83	0.00023656	45.565	218.310	339.913	223.425	132.632	216.607	286.803	132.220	136.903	276.295	284.460	135.574	139.427	139.642	144.306	254.831	142.442	-8191	255	
15866.738	1	1	0	0	0.18024	0.21839	0.2342	0.15655	0.046544	0.051348	0.30615	0.22749	0.36254	0.13133	0.24495	0.34682	0.086916	0.15651	0.18145	0.22083	-2.2229	-2.8604	-2.6229	-2.4375	-2.6542	-2.9	-2.8063	-3.0979	-2.6625	-2.8583	-2.9396	-2.5833	-2.85	-2.8063	-2.5896	-2.9625	271.407	312.273	121.524	171.781	333.548	251.024	232.536	326.613	310.746	233.915	138.479	412.251	296.045	430.928	349.866	120.826	0.00036974	0.00025493	7.6228e-05	154.59	5.955e-06	9.9238e-06	297.13	61.423	9.8214e-07	2.3322e-06	155.38	75.588	27.874	13.125	7.3028e-06	40.784	0.0084101	0.024546	0.0069149	196.74	0.0002141	0.00028534	343.14	74.907	0.00021174	0.00028641	179.82	86.758	37.745	15.988	0.00024074	45.949	208.965	352.444	133.950	132.608	281.725	235.679	132.431	137.226	270.930	306.043	135.710	139.314	139.793	144.252	257.515	142.445	-8191	255	
15866.834	1	1	0	0	0.20357	0.24691	0.27824	0.060801	0.10058	0.11042	0.13335	0.11534	0.20073	0.061862	0.16517	0.25639	0.082534	0.25718	0.12092	0.095107	-2.1667	-2.7042	-2.7604	-2.4938	-2.7625	-2.6896	-2.5708	-2.7771	-2.6292	-2.6312	-2.9062	-2.7562	-2.6813	-2.7354	-2.6604	-2.7833	140.365	466.750	135.361	259.969	255.937	262.463	210.696	266.166	422.305	410.063	470.049	127.345	403.397	146.438	370.662	328.939	0.00043128	0.00044201	6.4068e-05	154.37	1.9387e-06	4.2611e-06	296.77	61.469	2.0866e-06	3.7272e-06	156.24	76.079	28.374	13.03	2.6544e-06	40.713	0.0084937	0.02504	0.0070189	197.18	0.00021459	0.00028659	344.29	75.101	0.00021077	0.00028689	180.23	86.822	37.742	16.01	0.00024329	45.911	214.874	206.620	203.666	132.463	222.223	324.278	132.010	137.210	243.384	265.786	135.491	139.455	140.411	144.502	274.764	142.282	-8191	255	
15866.930	1	1	0	0	0.063831	0.14656	0.020728	0.13559	0.21862	0.15213	0.16595	0.32624	0.14232	0.08047	0.23416	0.34745	0.31581	0.27398	0.052675	0.23092	-2.4083	-2.6771	-2.8021	-2.5	-2.8688	-2.7729	-2.5438	-2.95	-2.8937	-2.6479	-2.8625	-2.4292	-2.7583	-2.775	-2.6021	-3.0687	121.442	445.301	463.086	166.705	472.929	259.472	227.776	173.648	179.015	410.103	428.219	378.597	259.991	171.762	442.307	469.596	0.00036208	0.00051851	6.459e-05	154.88	1.8716e-06	4.4316e-06	298.7	61.06	5.7519e-06	3.6075e-06	154.4	75.409	27.865	13.04	4.2602e-06	40.577	0.0084944	0.025136	0.0070407	196.76	0.00021426	0.00028811	343.26	74.712	0.00021017	0.00028803	178.51	85.993	37.528	15.908	0.00024473	45.649	221.700	209.160	386.350	132.252	356.181	123.547	132.769	137.298	286.590	289.082	135.627	139.347	139.892	144.202	321.736	142.526	-8191	255	
15867.051	1	1	0	0	0.30188	0.12744	0.493	0.11403	0.092342	0.095772	0.048255	0.040206	0.068214	0.2558	0.2569	0.080729	0.41338	0.19591	0.13121	0.015164	-2.2604	-2.5646	-2.8	-2.6271	-2.7979	-2.7583	-2.475	-2.7875	-2.7729	-2.5646	-2.95	-2.725	-2.8875	-2.5729	-2.3625	-2.9146	119.643	162.717	210.184	140.572	272.320	272.023	338.839	144.559	152.178	465.515	304.580	361.500	462.424	319.121	333.224	121.725	0.0003633	0.00057305	0.00013275	154.86	2.0143e-06	3.1487e-06	299.62	61.431	5.1115e-06	1.0669e-06	156.24	76.137	28.153	13.113	5.55e-06	40.843	0.0085218	0.025026	0.0070234	196.06	0.00021543	0.00028813	343.76	74.945	0.00021123	0.00028943	180.21	86.713	37.673	15.987	0.00024067	45.834	210.992	208.895	137.122	132.507	377.675	234.433	132.610	136.833	279.818	250.007	135.949	139.093	140.584	143.909	225.390	142.365	-8191	255	
15867.147	1	1	0	0	0.22136	0.19912	0.16951	0.089995	0.23847	0.10098	0.10039	0.10736	0.14446	0.26486	0.1007	0.10905	0.074154	0.15842	0.037708	0.30018	-2.2917	-2.4708	-2.825	-2.6042	-2.6646	-2.8167	-2.5583	-2.8667	-2.7917	-2.4688	-2.8312	-2.7229	-2.4396	-3.0292	-2.6646	-2.7292	355.756	433.875	380.907	382.899	328.508	268.621	223.279	454.083	179.127	431.872	123.253	289.344	397.529	269.662	276.957	397.650	0.00037916	0.00011149	7.7936e-05	155.04	9.0084e-07	4.4882e-06	300	62.416	2.8599e-06	8.4917e-06	157.83	77.387	28.21	13.245	5.7624e-06	41.159	0.0084595	0.02488	0.0069364	196.16	0.00021272	0.00028286	345.76	75.559	0.00020933	0.00028448	181.9	87.873	38.08	16.149	0.00023943	46.296	203.058	121.608	232.460	132.751	211.424	134.862	132.281	137.030	154.185	298.905	135.939	139.194	140.089	144.227	276.725	142.795	-8191	255	
15867.243	1	1	0	0	0.18645	0.052726	0.12643	0.068084	0.032564	0.14228	0.059595	0.10432	0.1687	0.2063	0.10243	0.20068	0.1881	0.12973	0.028674	0.17693	-2.4042	-2.5125	-2.8417	-2.8333	-2.6521	-2.6542	-2.6208	-2.9188	-2.7292	-2.5875	-2.875	-2.7854	-2.575	-2.9313	-2.6292	-2.8125	363.721	414.015	344.696	456.048	470.823	386.979	202.512	276.751	405.946	326.617	362.175	401.674	122.255	130.502	413.455	366.185	0.00040837	0.000537	0.00011311	154.9	7.6287e-06	4.4904e-06	300.98	62.261	2.8706e-06	6.958e-06	157.47	76.805	28.359	13.203	5.8072e-06	40.924	0.0084236	0.024945	0.0069469	197.9	0.00021459	0.00028669	346.64	75.783	0.00021129	0.00028798	181.58	87.558	38.054	16.113	0.00024029	46.027	222.175	434.322	235.956	132.351	198.120	443.312	132.618	137.275	267.221	461.161	135.835	139.445	139.959	144.079	227.299	142.467	-8191	255	
15867.339	1	1	0	0	0.22313	0.06597	0.074955	0.095429	0.16761	0.30642	0.21142	0.093393	0.17981	0.067799	0.053257	0.36631	0.084153	0.14798	0.032433	0.10693	-2.3167	-2.4979	-2.75	-2.6437	-2.5021	-2.9021	-2.7167	-2.75	-2.925	-2.6125	-2.9938	-2.6771	-2.3563	-2.8875	-2.6479	-2.8	244.793	395.785	330.428	254.625	283.454	300.450	461.192	415.489	177.110	153.353	124.017	242.370	297.163	233.225	250.273	334.887	0.00036055	0.00047335	0.00017661	155.48	5.0211e-06	7.1994e-06	300.3	62.207	4.9839e-06	6.8333e-06	157.51	77.095	28.339	13.188	1.8494e-06	41.261	0.0085395	0.025094	0.0069785	197.2	0.00021508	0.0002875	345.01	75.605	0.00021152	0.00028663	181.34	87.638	38.018	16.141	0.00023499	46.412	214.133	390.743	182.637	132.471	233.577	151.752	132.435	136.892	183.258	304.730	135.623	139.397	139.818	144.007	351.161	142.282	-8191	255	
15867.435	1	1	0	0	0.10554	0.29443	0.20243	0.22148	0.23146	0.013583	0.21422	0.067758	0.045948	0.19481	0.31833	0.27512	0.15465	0.20821	0.07106	0.24752	-2.5729	-2.4292	-2.7667	-2.8375	-2.7458	-2.9792	-2.7375	-2.5896	-2.7021	-2.6167	-2.8854	-2.8792	-2.6771	-2.925	-2.6854	-2.65	270.062	132.828	284.411	380.477	207.587	459.899	167.698	320.319	382.643	136.692	383.011	470.976	463.132	128.565	228.079	454.759	0.00038207	0.00092094	0.00015348	156.26	4.9024e-06	2.8215e-06	300.37	62.687	5.3928e-06	8.7369e-06	158.2	77.515	28.768	13.285	5.0714e-06	41.794	0.0082879	0.024458	0.0067946	196.94	0.00021153	0.00027965	345.82	75.791	0.00020906	0.00027886	181.85	87.937	38.074	16.193	0.00023029	46.684	207.688	193.689	211.112	132.721	244.689	165.420	132.279	137.148	250.214	301.718	135.530	139.449	139.942	143.971	317.471	142.559	-8191	255	
15867.532	1	1	0	0	0.11687	0.045936	0.15162	0.039765	0.18252	0.078242	0.094155	0.11531	0.2059	0.23888	0.16435	0.15485	0.13931	0.01098	0.32285	0.12412	-2.4854	-2.6042	-2.6875	-2.9	-2.6542	-2.7958	-2.825	-2.6792	-3.0167	-2.6333	-2.7708	-2.9958	-2.5062	-2.8208	-2.5875	-2.6396	308.285	421.207	304.340	293.041	393.212	127.182	197.468	389.800	367.691	211.767	450.351	185.938	277.914	417.741	329.198	458.047	0.00037162	0.00043435	7.0576e-05	155.98	3.5919e-06	4.8455e-06	304.16	62.952	2.3408e-06	4.9713e-06	159.45	78.054	28.784	13.377	6.2362e-06	41.779	0.0081837	0.024009	0.0067314	197.48	0.00020778	0.00027483	347.86	76.019	0.00020282	0.00027264	183.31	88.369	38.14	16.164	0.00022953	46.768	199.181	206.608	228.797	132.789	190.037	201.458	132.197	137.376	407.341	157.835	136.004	139.111	139.925	144.247	318.337	142.589	-8191	255	
15867.651	1	1	0	0	0.38767	0.1112	0.18675	0.089989	0.28418	0.1508	0.18678	0.084187	0.093965	0.13746	0.31423	0.11023	0.1028	0.040783	0.28421	0.14127	-2.5333	-2.6312	-2.5625	-2.8542	-2.7667	-2.725	-2.7375	-2.5771	-2.8396	-2.6833	-2.7542	-2.95	-2.3917	-2.6292	-2.6188	-2.5208	271.945	198.830	472.564	279.970	243.141	168.255	275.172	464.500	130.469	297.532	260.750	447.262	214.509	468.361	410.712	446.096	0.00038093	0.00014266	5.1675e-05	156.92	5.5676e-06	3.4623e-06	301.35	62.935	3.5286e-06	4.4314e-06	158.8	77.634	28.644	13.454	4.3627e-06	41.337	0.0081527	0.02394	0.0067024	197.74	0.00020945	0.00028048	347.03	76.029	0.00020865	0.00028249	182.31	88.074	38.297	16.26	0.00024131	46.562	214.271	262.892	319.124	132.608	343.186	120.506	132.227	137.193	293.560	203.933	135.719	139.216	140.275	144.078	192.014	142.573	-8191	255	
15867.747	1	1	0	0	0.13132	0.09613	0.20853	0.36906	0.025855	0.031742	0.083827	0.35247	0.3352	0.12799	0.36143	0.22913	0.0040292	0.32919	0.053667	0.3126	-2.4896	-2.7521	-2.5646	-2.7313	-2.7625	-2.6896	-2.8729	-2.5417	-2.9188	-2.8354	-2.4271	-2.9625	-2.4583	-2.7021	-2.95	-2.5354	124.905	381.582	388.243	327.640	257.800	443.047	121.100	399.819	467.605	427.980	463.274	309.958	455.235	336.141	167.443	421.478	0.00035411	0.00013511	8.4701e-05	157.75	1.5327e-06	5.0405e-06	302.25	62.477	6.06e-06	3.9498e-06	157.92	77.8	28.742	13.384	9.4795e-07	41.529	0.0084555	0.024837	0.0069937	199.3	0.00021516	0.0002846	347.66	76.193	0.00020701	0.0002816	182.39	88.243	38.337	16.219	0.00023706	46.524	196.370	363.239	287.622	132.145	146.335	337.061	132.322	137.173	247.676	277.633	135.919	139.483	139.886	144.537	252.467	142.648	-8191	255	
15867.843	1	1	0	0	0.32615	0.1264	0.11575	0.073323	0.091607	0.13946	0.32685	0.046822	0.17051	0.13922	0.12708	0.061416	0.20832	0.12778	0.082993	0.10573	-2.4417	-2.7458	-2.5271	-2.8896	-2.5729	-2.5625	-2.65	-2.65	-2.8125	-2.7812	-2.4479	-2.7792	-2.5375	-2.7354	-2.7188	-2.5125	273.162	422.768	224.840	251.191	193.936	183.795	381.880	214.466	355.241	431.198	441.811	452.227	151.058	319.635	262.534	474.685	0.00039593	0.00036683	4.5489e-05	156.43	3.679e-06	1.0371e-05	303.46	63.086	4.5236e-06	5.1505e-06	159.74	77.99	28.706	13.401	2.7129e-06	41.809	0.0082631	0.024367	0.0068499	198.66	0.00021152	0.00028187	349.36	76.614	0.00020748	0.00028108	183.65	88.792	38.369	16.295	0.0002395	46.889	207.254	447.204	297.041	132.016	125.621	229.635	132.285	137.193	268.826	286.562	135.746	139.364	139.594	144.742	198.350	142.337	-8191	255	
15867.963	1	1	0	0	0.19126	0.066735	0.15596	0.12018	0.072752	0.12504	0.37382	0.13026	0.18954	0.10294	0.16013	0.10129	0.14277	0.047341	0.145	0.033229	-2.3229	-2.7229	-2.5646	-2.7771	-2.5563	-2.6271	-2.7583	-2.5812	-2.7521	-2.7938	-2.4646	-2.8271	-2.7313	-2.6042	-2.9333	-2.65	131.681	423.556	243.174	321.584	446.386	249.567	150.035	342.180	370.653	469.102	201.768	461.617	197.509	438.919	457.435	283.983	0.00035651	0.00028731	0.00011601	156.36	2.6188e-06	1.0403e-05	303.64	62.668	1.8852e-06	2.322e-06	157.91	77.157	28.092	13.097	6.6003e-06	40.92	0.008386	0.025057	0.0070092	198.69	0.00021556	0.00028782	349.31	76.021	0.0002132	0.00028885	182.17	87.659	37.921	16.036	0.00024507	45.981	215.870	229.627	133.962	132.710	391.578	234.127	132.649	137.076	300.322	174.566	135.860	139.325	139.967	144.197	308.234	142.315	-8191	255	
15868.035	1	1	0	0	0.088568	0.14023	0.14702	0.3858	0.15981	0.097964	0.0469	0.10208	0.1063	0.12696	0.15746	0.13571	0.10413	0.12564	0.13766	0.1184	-2.3833	-2.7833	-2.4292	-2.7083	-2.7083	-2.4479	-2.9333	-2.4979	-2.8458	-2.8604	-2.6	-3.0396	-2.7062	-2.5875	-3.0229	-2.7104	380.774	292.786	210.136	186.656	265.700	366.313	372.047	471.154	252.268	346.280	175.945	132.198	128.667	425.890	465.490	217.118	0.00039284	0.00035408	0.00011783	155.91	1.6752e-06	5.5226e-06	299.44	61.544	4.3942e-06	5.8712e-06	156.26	76.347	28.213	13.044	3.1926e-06	40.663	0.0086735	0.025616	0.0072692	198.89	0.00022389	0.00030169	346.99	75.746	0.00022014	0.00029737	181.15	87.169	37.954	15.957	0.00024717	45.74	211.626	337.651	280.075	132.640	421.085	469.774	132.055	137.480	290.134	295.215	135.852	139.276	140.130	143.716	162.747	142.562	-8191	255	
15868.131	1	1	0	0	0.13301	0.19608	0.13125	0.064833	0.11883	0.21447	0.16406	0.063839	0.11594	0.17732	0.19042	0.089701	0.29931	0.15797	0.23979	0.093171	-2.2708	-2.7229	-2.4	-2.8354	-2.8187	-2.4437	-2.875	-2.8042	-2.7667	-2.8625	-2.6542	-2.8896	-2.9083	-2.5563	-2.8208	-2.7917	285.695	241.821	327.928	437.608	307.728	398.789	467.254	257.197	220.597	415.091	207.857	351.554	228.843	417.654	203.144	449.352	0.00036376	0.00013098	0.00018464	154.37	1.7083e-06	3.7109e-06	297.08	61.165	4.8899e-06	5.7195e-06	154.19	74.999	27.542	12.785	2.7279e-06	39.944	0.0087168	0.026003	0.0073097	198.93	0.00022391	0.0003004	346.1	75.2	0.00022128	0.00030023	179.33	85.697	37.544	15.736	0.00025552	45.141	205.076	301.225	147.756	132.499	288.638	153.795	132.748	137.264	276.332	356.167	135.529	139.252	139.880	144.065	302.842	142.539	-8191	255	
15868.227	1	1	0	0	0.11807	0.010065	0.20693	0.16251	0.14478	0.15527	0.045793	0.074332	0.052576	0.21142	0.16216	0.26587	0.042707	0.24683	0.084228	0.15087	-2.25	-2.8042	-2.6083	-2.8563	-2.9417	-2.5646	-2.9792	-2.8396	-2.5938	-3.0438	-2.5854	-2.8521	-2.7938	-2.5458	-2.7875	-2.7458	175.200	246.211	435.727	245.366	275.967	346.571	249.341	471.213	272.924	416.045	157.874	445.001	126.398	417.344	290.901	245.229	0.00039307	0.0005458	3.2232e-05	154.52	3.1018e-06	7.8683e-06	297.06	60.813	4.978e-06	6.8471e-06	153.7	74.482	27.379	12.541	7.8858e-06	39.582	0.0090444	0.026998	0.0075131	199.4	0.00023376	0.00031031	346.93	75.054	0.0002269	0.00030684	179	85.603	37.565	15.647	0.00025811	44.844	197.253	289.987	175.162	132.918	212.663	367.003	132.454	137.300	347.024	323.932	135.538	139.117	140.667	144.373	254.522	142.417	-8191	255	
15868.348	1	1	0	0	0.021949	0.20045	0.16004	0.071106	0.24327	0.086336	0.29749	0.11456	0.040833	0.094424	0.16111	0.18124	0.37203	0.26349	0.03736	0.11563	-2.1625	-2.6708	-2.7396	-2.7708	-2.8958	-2.6729	-2.7271	-2.8	-2.6167	-3.0312	-2.7104	-2.6896	-2.8771	-2.6146	-2.7354	-2.8812	324.307	440.151	338.393	285.715	154.825	211.380	433.691	285.618	393.371	461.064	431.238	368.952	350.557	211.871	152.448	430.366	0.00033493	0.00053267	0.00013913	153.52	6.004e-06	6.8162e-06	295.05	59.968	3.9257e-06	2.9719e-06	150.38	73.05	26.761	12.258	8.4351e-06	38.646	0.0091852	0.027285	0.0076375	199.28	0.00023608	0.00031303	344.1	74.23	0.00022959	0.00030995	175.88	84.09	37.063	15.333	0.00025997	43.915	203.707	447.627	171.996	132.631	269.554	326.164	132.379	137.198	219.713	255.277	135.727	139.338	140.533	144.377	245.532	142.439	-8191	255	
15868.442	1	1	0	0	0.18083	0.2699	0.15179	0.27754	0.076194	0.11872	0.14591	0.062961	0.32478	0.092991	0.24456	0.31298	0.2912	0.088225	0.11457	0.20693	-2.3146	-2.8854	-2.6833	-2.6521	-2.9104	-2.5729	-2.9083	-2.7771	-2.4562	-2.8	-2.6437	-2.7083	-2.8833	-2.5292	-2.7229	-2.85	281.832	477.029	330.250	206.547	446.731	474.080	404.844	408.327	213.449	274.319	361.825	381.081	426.593	207.121	218.477	465.745	0.00038174	0.00029428	8.3026e-05	151.98	1.4259e-06	2.9377e-06	292.62	59.306	2.3539e-06	9.1362e-06	151.44	73.624	27.009	12.521	7.418e-06	39.309	0.0092823	0.02758	0.0077814	197.9	0.00024073	0.00032051	342.77	73.834	0.00023285	0.00031147	176.64	84.59	37.237	15.539	0.00025659	44.535	203.652	200.456	201.982	132.496	425.658	447.430	132.336	136.907	373.204	172.114	135.628	139.041	140.209	144.475	324.754	142.391	-8191	255	
15868.539	1	1	0	0	0.20639	0.067948	0.073066	0.065483	0.15519	0.1042	0.18211	0.05091	0.10717	0.36093	0.087408	0.17502	0.15248	0.1883	0.038776	0.14156	-2.0812	-2.8042	-2.6312	-2.6375	-2.9542	-2.4875	-2.7917	-2.8771	-2.6667	-2.9167	-2.8333	-2.5375	-3.0417	-2.5792	-2.6104	-2.9875	293.662	236.779	126.616	126.750	354.243	274.485	342.366	370.302	466.738	475.527	173.863	459.744	398.496	448.350	172.046	440.944	0.00041722	0.00052698	0.00016477	152.77	1.477e-06	5.6769e-06	295.36	59.482	3.0134e-06	2.3782e-06	151.34	73.859	26.641	12.463	2.722e-06	39.388	0.0089955	0.026383	0.0074141	197.18	0.00023275	0.00031106	343.45	74.03	0.0002297	0.00031137	176.74	84.715	37.075	15.462	0.00025673	44.565	200.384	339.080	335.850	132.578	386.637	348.399	132.509	137.414	150.893	335.939	135.625	139.368	140.390	144.223	367.507	142.823	-8191	255	
15868.612	1	1	0	0	0.39871	0.098224	0.065519	0.1257	0.21952	0.074996	0.17219	0.063783	0.11787	0.21632	0.12585	0.18688	0.080219	0.22457	0.17929	0.26193	-2.3042	-2.8021	-2.6792	-2.6875	-2.8063	-2.7708	-2.7896	-2.8125	-2.5729	-2.8417	-2.6958	-2.7021	-2.6896	-2.5979	-2.6	-3.0354	349.352	230.790	261.122	271.648	346.290	449.030	293.032	252.013	280.757	148.806	268.921	168.006	286.287	376.909	374.287	457.957	0.00042349	7.1785e-05	0.00010494	152.69	1.0699e-06	5.3441e-06	293.78	59.681	4.2713e-06	1.3438e-05	150.75	72.992	26.629	12.396	3.2079e-06	38.895	0.0091261	0.027052	0.0075912	198.03	0.00023517	0.00031536	343.49	74.078	0.0002318	0.00031637	176.79	84.399	37.234	15.426	0.00026558	44.263	213.939	305.237	467.927	132.615	126.035	298.237	132.496	137.316	349.109	366.250	135.868	139.350	139.897	144.447	395.474	142.189	-8191	255	
15868.731	1	1	0	0	0.15184	0.34618	0.43215	0.28538	0.073755	0.11714	0.11939	0.11209	0.07848	0.075139	0.1667	0.014997	0.072387	0.23874	0.23642	0.20154	-2.1	-2.7042	-2.725	-2.5917	-2.8417	-2.6688	-2.6521	-3.0604	-2.7125	-2.8708	-2.875	-2.7375	-2.9313	-2.7458	-2.5854	-3.025	214.801	275.517	236.602	438.744	448.685	180.798	181.795	353.217	408.257	269.939	137.898	443.624	194.905	407.924	355.113	456.673	0.00036538	0.00022841	0.00012229	153.04	3.3906e-06	4.4589e-06	291.85	59.474	3.0009e-06	5.3968e-06	150.27	73.353	26.682	12.351	3.7266e-06	39.145	0.0093051	0.027582	0.007735	198.28	0.00023898	0.00031629	341.84	73.894	0.00023146	0.00031203	175.98	84.32	37.098	15.426	0.00026075	44.336	205.574	474.128	407.194	132.587	326.307	412.029	132.160	136.959	264.939	416.401	136.190	139.052	139.944	144.327	276.873	142.333	-8191	255	
15868.827	1	1	0	0	0.090431	0.079259	0.20308	0.34588	0.27731	0.039421	0.19226	0.11846	0.23484	0.12837	0.29904	0.23103	0.15506	0.30399	0.10411	0.23416	-2.25	-2.7833	-2.7896	-2.5354	-2.7167	-2.7104	-2.6312	-2.6792	-2.5771	-2.5792	-2.9125	-2.6875	-2.8438	-2.7042	-2.5125	-3.0938	278.583	124.666	172.235	472.870	285.933	352.107	467.534	182.317	448.885	252.378	359.297	285.315	394.659	402.979	325.611	428.169	0.00035983	0.00047391	6.3278e-05	151.86	4.2299e-06	2.891e-06	292.09	59.387	3.141e-06	5.0483e-06	150.26	73.014	26.824	12.389	4.9917e-06	39.142	0.0091769	0.027255	0.0076898	197.75	0.00023743	0.00031541	342.53	74.098	0.00023616	0.00032154	176.74	84.624	37.466	15.499	0.00027356	44.649	209.468	290.675	195.064	132.518	325.380	226.274	132.349	137.016	329.436	367.481	135.561	139.201	140.248	144.048	188.518	142.595	-8191	255	
15868.923	1	1	0	0	0.10921	0.024444	0.11012	0.15139	0.13636	0.12984	0.34684	0.16499	0.021091	0.12503	0.20689	0.11791	0.13629	0.21915	0.062337	0.057723	-2.2271	-2.6	-2.8438	-2.5938	-2.7708	-2.9083	-2.7396	-2.8542	-2.6833	-2.7208	-2.7583	-2.6146	-2.8125	-2.6104	-2.6458	-2.8771	270.949	142.686	124.237	239.184	400.582	259.696	371.103	423.459	398.520	389.003	398.670	414.958	274.618	264.029	303.201	377.647	0.00036222	0.000242	0.00010076	152.37	2.1091e-06	6.0756e-06	295.11	59.173	7.8062e-06	3.8322e-06	151.03	73.406	26.641	12.389	1.245e-06	39.02	0.0095387	0.028346	0.0078536	198.58	0.00024187	0.00032394	344.85	74.229	0.0002368	0.00032147	177.28	84.852	37.414	15.512	0.00027107	44.44	217.931	186.234	193.750	132.344	257.968	196.372	132.188	136.811	280.195	281.358	135.764	139.395	140.285	144.580	463.181	142.554	-8191	255	
15869.044	1	1	0	0	0.41116	0.19373	0.094207	0.18966	0.1061	0.22731	0.16844	0.13619	0.17015	0.22527	0.12971	0.18755	0.090328	0.23169	0.29121	0.095835	-2.1896	-2.6562	-2.7896	-2.5417	-2.7479	-2.8083	-2.5542	-2.7562	-2.7021	-2.6813	-2.925	-2.4583	-2.6542	-2.7687	-2.5292	-2.8187	273.484	428.050	330.856	137.412	468.483	463.333	405.645	150.849	346.014	259.699	432.726	431.012	135.414	388.304	219.326	291.486	0.00038026	0.00015269	6.3907e-05	151.74	4.4187e-06	2.2525e-06	293.15	58.679	3.3422e-06	3.5072e-06	149.23	72.108	26.125	12.189	7.3253e-06	38.479	0.0095901	0.028735	0.0080556	199.9	0.00025332	0.00033875	345.87	74.373	0.00025117	0.00034105	176.53	84.164	37.626	15.459	0.00029178	44.14	208.549	337.978	355.651	132.527	282.522	253.733	132.287	137.483	255.999	173.583	135.984	139.274	140.098	144.124	288.692	142.456	-8191	255	
15869.140	1	1	0	0	0.28475	0.081096	0.071647	0.12601	0.24778	0.25315	0.01262	0.097862	0.10295	0.42524	0.34788	0.14227	0.12032	0.14989	0.24818	0.07305	-2.225	-2.6021	-2.875	-2.6083	-2.75	-2.8333	-2.65	-2.8417	-2.7083	-2.6271	-2.9167	-2.8604	-2.625	-2.8854	-2.575	-2.9188	225.570	303.370	259.041	235.741	453.687	383.985	302.085	187.980	237.823	316.815	342.338	404.128	269.307	269.530	195.018	216.083	0.00044052	0.0005943	0.00011225	151.27	2.8591e-06	6.1223e-06	290.56	59.32	3.0106e-06	3.7615e-06	150.13	73.041	26.514	12.315	7.2035e-06	38.931	0.010266	0.030972	0.0086779	202.5	0.00026862	0.00035952	346.44	75.456	0.00026696	0.00036136	178.89	85.383	38.494	15.733	0.00029913	44.675	213.788	183.620	393.277	132.548	245.940	379.742	132.331	137.351	279.064	332.862	135.694	139.164	140.085	144.349	366.374	142.558	-8191	255	
15869.236	1	1	0	0	0.16642	0.19765	0.28971	0.078695	0.1632	0.13037	0.16631	0.16323	0.33147	0.12991	0.013333	0.064734	0.15058	0.15744	0.34218	0.010145	-2.2771	-2.4396	-2.7562	-2.7625	-2.4458	-3.0125	-2.6146	-2.7833	-2.6896	-2.5208	-2.8979	-2.725	-2.5646	-3.0146	-2.3625	-2.8417	454.300	272.953	362.253	373.803	388.558	347.374	248.873	429.111	438.534	469.480	429.304	368.791	252.865	151.421	315.174	279.868	0.00031607	0.00054783	8.0749e-05	151.41	3.0155e-06	7.8249e-06	292.73	59.119	3.3896e-06	3.8843e-06	150.15	73.224	26.684	12.375	4.6083e-06	39.071	0.010537	0.031131	0.0087702	203.06	0.00027113	0.00036109	348.51	75.525	0.000265	0.00036057	179.28	85.539	38.481	15.736	0.0002972	44.762	202.235	207.700	196.399	132.630	342.569	306.011	132.442	137.024	331.793	204.097	135.512	139.270	140.096	144.250	257.450	142.320	-8191	255	
15869.332	1	1	0	0	0.25592	0.36281	0.20341	0.09151	0.10688	0.051225	0.1999	0.23333	0.18433	0.10984	0.07867	0.27664	0.24604	0.038989	0.16935	0.34682	-2.4292	-2.4958	-2.7979	-2.6875	-2.5771	-2.9625	-2.6437	-2.5021	-2.7729	-2.6917	-2.7896	-2.7833	-2.4729	-2.7729	-2.6521	-2.7313	171.644	325.903	128.191	268.601	351.806	316.739	393.294	325.681	267.466	251.291	198.267	402.654	291.700	357.626	378.257	271.583	0.00037726	0.00063818	7.8442e-05	150.5	4.7967e-06	1.1151e-05	295.57	59.411	5.3757e-06	4.7106e-06	150.2	73.197	26.393	12.234	1.2409e-06	38.729	0.010425	0.030971	0.0086864	202.59	0.00026692	0.00035909	349.81	75.597	0.00026306	0.00035821	178.76	85.269	38.344	15.624	0.00029945	44.556	206.601	226.231	268.625	132.508	230.352	415.392	132.191	137.060	399.577	475.824	135.693	139.157	140.375	144.406	326.852	142.343	-8191	255	
15869.428	1	1	0	0	0.1952	0.0082901	0.28779	0.089785	0.12095	0.26244	0.095874	0.27313	0.27881	0.064077	0.012399	0.095836	0.18449	0.064037	0.22119	0.041302	-2.175	-2.5875	-2.8604	-2.7625	-2.5062	-3.0417	-2.575	-2.7833	-2.8417	-2.6792	-2.9458	-2.8208	-2.5479	-2.9271	-2.8354	-3.0833	172.338	221.351	145.583	241.760	309.186	330.098	237.482	318.333	397.625	172.207	395.440	172.448	384.353	286.240	353.631	361.437	0.0003844	0.00064298	0.00011819	150.93	3.1582e-06	1.537e-06	291.46	59.057	2.4055e-06	1.0643e-05	148.73	72.555	26.491	12.195	3.0081e-06	38.699	0.010562	0.031512	0.0088866	203.78	0.00027786	0.00037262	347.96	75.394	0.00027299	0.00037265	178.29	85.021	38.332	15.674	0.00030231	44.414	213.907	223.107	272.414	132.433	403.222	461.897	132.487	137.066	225.434	285.200	135.816	139.368	139.871	144.267	340.551	142.360	-8191	255	
15869.523	1	1	0	0	0.048651	0.25362	0.10467	0.15067	0.17915	0.1393	0.13584	0.11099	0.22465	0.048091	0.14288	0.25964	0.14442	0.14534	0.18926	0.22561	-2.5167	-2.5333	-2.7646	-2.8146	-2.5625	-3.0187	-2.7271	-2.7729	-2.85	-2.6542	-2.7979	-2.7958	-2.4979	-2.8896	-2.8396	-2.7146	368.793	144.278	177.612	387.640	328.712	425.395	413.972	290.557	416.027	322.441	467.853	147.968	243.244	161.204	374.741	326.343	0.00033994	0.00057717	0.00015003	152.16	1.2659e-06	2.6719e-06	290.69	58.429	4.2098e-06	5.6007e-06	149.42	72.717	26.328	12.226	2.9449e-06	38.99	0.010609	0.031562	0.0087878	203.6	0.00027283	0.00036616	348.16	75.376	0.00026927	0.00037081	178.78	85.254	38.569	15.686	0.00030729	44.657	208.440	172.005	383.990	132.374	362.301	189.872	132.304	137.447	241.840	441.170	135.790	139.339	140.295	144.179	284.497	142.782	-8191	255	
15869.643	1	1	0	0	0.1246	0.042196	0.13115	0.17938	0.19184	0.15141	0.34403	0.3117	0.13416	0.073664	0.094631	0.030189	0.14785	0.20953	0.27194	0.074208	-2.4271	-2.5979	-2.7625	-2.9	-2.4083	-3.0208	-2.6437	-2.7062	-3	-2.7271	-2.6521	-3.0062	-2.5271	-2.8958	-2.7583	-2.7604	138.693	314.096	291.776	318.757	245.347	433.762	197.770	212.470	283.900	286.024	341.471	337.652	423.966	199.098	349.818	216.659	0.00041091	0.000801	0.00014628	152.1	4.1929e-06	1.1879e-05	294.41	59.458	1.9999e-06	3.5069e-06	150.4	72.507	26.437	12.267	6.4408e-06	38.485	0.010666	0.031937	0.0088924	204.27	0.00027752	0.00037518	350.25	76.138	0.00027409	0.00037221	179.59	85.149	38.691	15.691	0.00031161	44.423	206.700	243.313	148.308	132.699	280.382	226.613	132.222	137.214	285.320	124.239	136.259	139.437	140.233	144.394	253.930	142.498	-8191	255	
15869.740	1	1	0	0	0.12334	0.082509	0.057002	0.14745	0.23195	0.18265	0.15748	0.10505	0.07825	0.047399	0.17488	0.13536	0.11069	0.20045	0.10399	0.2167	-2.5146	-2.7438	-2.625	-2.9625	-2.6667	-2.8979	-2.6979	-2.6188	-2.7833	-2.6292	-2.6354	-2.8375	-2.4375	-2.8771	-2.9083	-2.5271	390.360	185.878	386.490	133.467	287.777	375.329	395.200	337.668	127.203	342.703	473.211	177.502	460.771	216.444	319.867	466.472	0.00045851	0.00056384	6.626e-05	149.9	2.7818e-06	2.8855e-06	294.77	58.566	3.2444e-06	7.246e-06	148.34	71.376	25.616	11.852	2.0991e-06	37.79	0.011065	0.032738	0.0092371	204.93	0.0002868	0.0003836	351.77	75.961	0.00028468	0.00038966	178.91	84.625	38.819	15.581	0.00033048	43.927	212.772	192.161	215.693	133.113	194.709	320.537	132.578	137.199	401.296	337.634	135.890	139.479	140.349	144.170	316.677	142.362	-8191	255	
15869.836	1	1	0	0	0.25431	0.063107	0.18305	0.037261	0.064653	0.3603	0.14454	0.14463	0.082141	0.15236	0.16995	0.1679	0.29811	0.2376	0.28081	0.19791	-2.3833	-2.7625	-2.6625	-2.8563	-2.7583	-2.85	-2.8604	-2.6042	-2.8833	-2.7396	-2.5875	-2.8583	-2.7875	-2.7375	-2.7	-2.6688	136.849	409.362	223.596	178.372	259.332	411.346	477.330	454.330	344.768	138.579	368.069	467.744	426.669	445.477	281.893	146.690	0.00037003	0.00026404	3.2403e-05	150.17	1.4522e-06	1.211e-05	288.86	58.126	3.7897e-06	1.0771e-05	148.51	71.837	26.106	11.992	5.5631e-06	38.139	0.01175	0.03499	0.0097461	207.34	0.0003015	0.0004019	349.81	76.149	0.00029246	0.00039795	179.08	85.048	39.031	15.664	0.00033106	44.173	203.409	154.975	384.030	132.777	351.835	296.835	132.286	137.220	303.317	275.058	135.578	139.544	140.092	144.624	420.249	142.724	-8191	255	
15869.907	1	1	0	0	0.28201	0.14751	0.1975	0.064249	0.16538	0.092601	0.061912	0.1588	0.24822	0.17145	0.31317	0.050607	0.082175	0.14669	0.31688	0.10352	-2.4229	-2.9021	-2.6333	-2.9958	-2.6333	-2.8375	-2.9396	-2.4292	-2.9646	-2.7979	-2.5563	-2.8896	-2.7042	-2.9	-3.0125	-2.8625	455.240	164.122	362.358	313.198	267.323	393.879	416.389	416.853	340.483	391.823	192.132	419.429	336.470	352.074	362.033	457.298	0.00026233	0.00053004	0.00012217	149.86	3.8225e-06	4.8367e-06	288.55	57.907	4.8469e-06	4.3291e-06	148.67	72.16	26.099	12.211	4.6893e-06	38.392	0.011624	0.034386	0.0096753	206.69	0.00029585	0.00039239	349.06	75.564	0.00028288	0.00038036	178.72	84.92	38.714	15.727	0.00031793	44.438	208.846	425.421	319.064	131.952	149.048	238.569	132.415	137.129	182.457	365.280	135.911	139.326	140.024	144.232	165.652	142.627	-8191	255	
15870.028	1	1	0	0	0.18449	0.26751	0.11909	0.14277	0.20095	0.12203	0.081174	0.070074	0.12085	0.13682	0.15022	0.098746	0.12007	0.20611	0.14128	0.066045	-2.2479	-2.7687	-2.5333	-2.9604	-2.5021	-2.6437	-2.9396	-2.4167	-2.9021	-2.8354	-2.6958	-2.9896	-2.8125	-2.7208	-2.9833	-2.4771	242.337	280.066	384.879	143.531	350.185	407.425	413.546	423.447	147.297	351.605	222.388	362.724	151.355	247.365	455.233	364.983	0.00042088	0.00083227	0.00021321	151.22	1.4231e-06	9.3118e-06	292.22	58.298	2.3487e-06	1.0158e-05	149.64	72.548	26.131	12.107	3.3739e-06	38.736	0.011265	0.033826	0.0094956	206.7	0.00029621	0.00039408	352.09	76.278	0.00028908	0.00039016	180.79	85.917	39.051	15.793	0.00032251	44.84	199.695	208.565	148.028	132.711	250.789	322.338	132.982	137.222	424.450	345.814	135.751	139.475	140.356	144.401	295.979	142.492	-8191	255	
15870.124	1	1	0	0	0.29087	0.17081	0.13487	0.19364	0.18706	0.06588	0.24887	0.062904	0.16974	0.18347	0.30162	0.12715	0.15536	0.15655	0.14725	0.29382	-2.2521	-2.7271	-2.5208	-2.875	-2.6813	-2.6271	-2.8667	-2.6104	-2.7771	-2.8333	-2.6021	-2.9146	-2.5062	-2.4646	-2.8563	-2.7646	263.278	212.241	473.402	204.752	259.069	199.537	271.435	470.093	200.063	459.403	473.834	446.275	232.791	144.475	305.326	186.502	0.00036865	0.00095009	0.00025089	151.79	4.8869e-06	2.2343e-06	292.77	58.847	6.8424e-06	2.8658e-06	149.59	72.002	26.485	12.116	8.9274e-06	38.784	0.011278	0.033541	0.0094847	207.99	0.00029641	0.00039836	352.95	76.914	0.0002987	0.00040424	180.96	85.751	39.564	15.876	0.00033444	44.887	210.650	152.237	411.840	132.688	293.065	200.565	132.593	137.423	234.470	161.732	135.610	139.442	140.368	144.436	445.070	142.497	-8191	255	
15870.220	1	1	0	0	0.17264	0.095748	0.18153	0.20874	0.03369	0.21432	0.11953	0.1758	0.24697	0.19601	0.20652	0.077363	0.15793	0.26336	0.11377	0.19293	-2.1604	-2.8229	-2.6063	-2.7896	-2.6271	-2.4729	-2.8563	-2.4417	-2.675	-2.8333	-2.7771	-2.9333	-2.6083	-2.5625	-2.8854	-2.7125	215.143	232.838	448.010	221.074	479.024	347.045	122.861	386.979	477.236	173.386	362.349	395.707	233.114	423.521	241.352	473.011	0.0003964	0.00045814	0.00018909	153.15	6.0798e-06	4.5584e-06	293.57	59.309	3.7931e-06	1.1343e-05	150.05	72.642	26.337	12.107	8.8776e-06	38.617	0.011465	0.033892	0.0094672	207.68	0.000291	0.00038529	352.29	76.841	0.00028795	0.00039285	180.92	85.769	39.347	15.814	0.0003346	44.799	211.346	459.097	289.626	132.674	421.357	246.433	132.334	137.201	276.367	308.645	135.797	139.701	140.278	144.403	237.423	142.478	-8191	255	
15870.316	1	1	0	0	0.25088	0.21065	0.18791	0.27177	0.096489	0.24513	0.25439	0.18461	0.070936	0.13371	0.19936	0.034508	0.10158	0.11349	0.10026	0.1298	-2.1583	-2.8833	-2.5979	-2.8979	-2.8542	-2.5458	-2.7833	-2.7354	-2.6125	-2.8896	-2.7271	-2.9417	-2.7417	-2.5833	-2.75	-2.6167	439.807	137.844	433.046	159.502	422.682	445.048	138.848	441.542	441.496	301.125	135.133	467.540	291.849	355.828	273.692	446.532	0.00032255	0.00022601	0.00011779	150.97	8.06e-07	1.0053e-05	290.86	59.424	3.7987e-06	5.6695e-06	151.22	72.537	26.464	12.313	3.6999e-06	38.501	0.011595	0.034735	0.0096567	207.3	0.00029464	0.0003938	351.84	76.492	0.00028516	0.00038771	180.93	85.809	38.965	15.811	0.00032186	44.761	211.257	211.239	394.826	132.383	163.078	211.932	132.204	137.646	129.249	279.282	135.550	139.450	139.773	144.757	227.255	142.624	-8191	255	
15870.437	1	1	0	0	0.38694	0.088408	0.3505	0.287	0.0666	0.40925	0.071238	0.23427	0.14003	0.22721	0.087379	0.12089	0.2035	0.065147	0.2133	0.16606	-2.1333	-2.7542	-2.4396	-2.7104	-2.8312	-2.6146	-2.7604	-2.625	-2.5292	-2.9667	-2.4688	-2.7917	-2.7979	-2.5146	-2.8229	-2.8875	428.451	182.585	232.971	271.762	217.451	202.346	255.477	128.315	368.759	187.330	293.873	206.371	322.911	417.750	409.116	197.482	0.000346	0.00027101	1.0541e-05	152.45	2.9404e-06	1.0301e-05	293.55	59.415	7.5213e-06	4.1981e-06	150.86	72.969	26.643	12.218	5.3395e-06	38.624	0.011213	0.033642	0.0094518	207.57	0.00029023	0.00038962	353.54	76.887	0.00028801	0.00039486	182.03	86.428	39.617	15.986	0.00033527	44.882	201.783	401.308	279.562	132.226	227.290	273.367	132.350	137.420	268.074	152.678	135.754	139.486	140.158	144.485	236.722	142.561	-8191	255	
15870.509	1	1	0	0	0.034213	0.030377	0.055086	0.21436	0.10162	0.11197	0.204	0.16318	0.21678	0.14654	0.16219	0.21815	0.026602	0.18739	0.088027	0.063959	-2.2354	-2.8375	-2.5979	-2.55	-2.7625	-2.4833	-2.9042	-2.7979	-2.45	-2.9813	-2.7146	-2.7354	-2.6771	-2.5208	-2.7354	-2.8083	423.907	412.659	396.041	225.204	250.255	219.626	395.355	140.400	277.831	471.370	359.874	418.049	449.464	344.210	322.396	337.929	0.0002837	0.00066985	5.4306e-05	152.75	2.6508e-06	6.6162e-06	293.97	59.203	2.8202e-06	4.8296e-06	150.36	72.663	26.538	12.252	4.6967e-06	38.514	0.011832	0.035583	0.0099705	210.25	0.00030894	0.00041486	354.24	77.351	0.00030221	0.00041281	181.88	86.33	39.759	15.983	0.00033636	44.926	201.716	199.886	171.533	132.622	207.785	250.403	132.179	137.189	392.969	263.543	135.853	139.497	140.107	144.344	298.437	142.629	-8191	255	
15870.605	1	1	0	0	0.087682	0.14268	0.12552	0.10615	0.16247	0.14124	0.17166	0.092608	0.038765	0.13587	0.083428	0.017436	0.19585	0.15297	0.080589	0.17956	-2.0812	-2.8688	-2.6771	-2.4958	-3.1104	-2.6292	-2.6417	-2.8063	-2.3604	-2.8292	-2.7833	-2.5708	-2.9729	-2.4104	-2.675	-2.8688	368.475	400.749	178.726	268.889	464.379	197.374	376.221	420.879	162.754	199.387	239.398	259.432	467.785	439.276	166.171	378.795	0.00040389	9.2472e-05	9.0132e-05	152.02	1.1494e-05	5.6095e-06	294.43	58.818	3.0906e-06	4.904e-06	149.84	72.382	26.689	12.125	6.0511e-06	38.691	0.011806	0.035426	0.00986	208.95	0.00030466	0.00040841	353.95	76.953	0.00029777	0.00040647	181.56	85.976	39.569	15.871	0.00033386	44.931	199.843	217.863	424.418	132.865	260.934	299.898	132.434	137.234	288.209	190.431	135.762	139.634	140.199	144.536	311.856	142.367	-8191	255	
15870.724	1	1	0	0	0.04577	0.15853	0.061892	0.31452	0.26432	0.2091	0.22253	0.26298	0.10186	0.16131	0.23627	0.13175	0.21119	0.048161	0.26935	0.2817	-2.3479	-2.8688	-2.7917	-2.6	-2.9208	-2.5833	-2.7896	-2.8	-2.4583	-2.8646	-2.6125	-2.7083	-2.7021	-2.8458	-2.7583	-2.9333	289.227	235.101	386.594	154.441	378.579	216.495	427.170	359.099	458.671	371.571	400.595	450.677	425.312	238.018	357.308	359.663	0.00037437	0.00033883	9.0913e-06	151.5	1.9707e-06	4.0863e-06	294.72	59.117	4.1906e-06	2.4688e-06	150.63	72.811	26.147	12.105	5.4617e-06	38.643	0.011656	0.035006	0.0096998	208.64	0.00030072	0.00040217	354.27	77.197	0.00029719	0.00040005	181.66	86.149	39.491	15.876	0.00033368	44.903	203.219	286.401	206.741	132.792	266.586	439.803	132.734	136.882	286.759	271.195	135.623	139.406	139.907	144.019	259.910	142.650	-8191	255	
15870.820	1	1	0	0	0.017574	0.26482	0.22952	0.1445	0.11229	0.033548	0.077107	0.13631	0.041052	0.17314	0.064548	0.1038	0.18367	0.16695	0.22369	0.1806	-2.2771	-2.8917	-2.8208	-2.6146	-2.9062	-2.5958	-2.5812	-2.6437	-2.4833	-2.7917	-2.7708	-2.7375	-3.0438	-2.7521	-2.7167	-2.9896	266.320	254.477	269.531	122.350	168.378	373.763	231.342	272.047	345.500	121.276	122.160	202.415	417.482	159.303	344.045	462.103	0.00037351	6.8027e-05	0.00013127	152.91	4.0355e-06	9.5576e-06	293.71	59.472	3.9468e-06	7.2668e-06	149.41	72.316	26.199	11.974	2.2413e-06	38.131	0.011943	0.035358	0.0099191	210.08	0.00030864	0.00040944	355.2	77.941	0.00030843	0.0004168	181.88	86.061	40.033	15.911	0.00035233	44.595	202.122	422.948	193.124	132.644	427.740	318.201	132.554	137.069	245.250	237.319	135.760	139.476	140.019	144.386	462.050	142.323	-8191	255	
15870.916	1	1	0	0	0.12599	0.14153	0.19678	0.15481	0.30972	0.22016	0.2981	0.085832	0.070228	0.1064	0.26469	0.13814	0.11086	0.050386	0.28162	0.08857	-2.075	-2.8667	-2.8979	-2.4958	-2.8021	-2.7812	-2.65	-2.8937	-2.5625	-2.8771	-2.9521	-2.4875	-2.9313	-2.7458	-2.6604	-2.7708	313.617	398.497	460.693	351.843	469.654	442.126	168.554	217.281	136.960	191.231	425.004	375.836	421.994	432.713	292.488	321.805	0.0003302	0.00046278	0.00010626	153	5.571e-06	6.5434e-06	295.05	59.603	2.9703e-06	3.4447e-06	150.36	72.798	26.246	11.986	2.529e-06	38.149	0.012419	0.036594	0.010215	211.26	0.00031383	0.00041409	355.9	77.759	0.00029854	0.00040042	181.69	86.182	39.491	15.822	0.00034178	44.572	211.337	240.908	221.456	132.655	235.930	149.011	132.439	137.176	224.114	173.282	135.637	139.213	140.192	144.834	195.869	142.513	-8191	255	
15871.012	1	1	0	0	0.15311	0.20302	0.056392	0.1653	0.086111	0.24804	0.096699	0.020836	0.15904	0.11864	0.32662	0.22351	0.065903	0.16955	0.11781	0.075224	-2.3375	-2.6	-2.7896	-2.4708	-2.6917	-2.6958	-2.7417	-2.8875	-2.5667	-2.8104	-2.8458	-2.5875	-2.7104	-2.9229	-2.6146	-2.9833	170.902	314.194	419.222	390.320	210.943	363.816	159.199	361.989	145.444	262.466	471.745	247.685	358.234	411.793	393.850	369.449	0.00043743	0.00025263	0.00022114	151.97	1.4197e-06	8.8779e-06	292.37	58.661	2.0551e-06	1.129e-06	149.53	72.357	26.08	12.007	2.2027e-06	38.064	0.012177	0.036305	0.010254	211.95	0.00032205	0.00043128	356.82	78.043	0.0003184	0.00042891	182.82	86.263	40.251	15.931	0.00035977	44.743	200.553	165.176	159.049	132.706	269.144	228.187	132.469	137.295	287.557	262.885	135.855	139.280	140.520	144.099	318.561	142.329	-8191	255	
15871.133	1	1	0	0	0.28357	0.15038	0.2181	0.23739	0.27388	0.11303	0.038546	0.010204	0.091095	0.1895	0.088973	0.08943	0.14288	0.15465	0.14324	0.046039	-2.2146	-2.7396	-2.9354	-2.6854	-2.7687	-2.8146	-2.6021	-2.8833	-2.8979	-2.8063	-3.0375	-2.6792	-2.8729	-2.9354	-2.6917	-2.8521	381.075	457.110	283.127	375.242	380.737	377.303	247.757	449.891	191.066	381.732	179.808	351.221	258.081	204.775	426.275	334.247	0.00038523	0.0005081	0.00023048	152.5	6.3813e-06	8.3388e-06	293.94	58.786	1.1775e-06	7.4898e-06	148.06	70.928	25.458	11.638	6.4879e-06	37.353	0.012555	0.037586	0.010623	214.3	0.0003322	0.0004435	360.08	78.639	0.00033493	0.00045462	182.88	85.675	40.358	15.789	0.00037714	44.114	205.243	252.033	296.802	132.599	348.365	376.751	132.510	137.344	264.176	456.979	135.577	139.542	140.091	144.773	246.174	142.831	-8191	255	
15871.205	1	1	0	0	0.11447	0.16031	0.15308	0.13064	0.061841	0.19986	0.18246	0.25017	0.1473	0.081336	0.087986	0.34089	0.062403	0.11486	0.18451	0.10808	-2.4229	-2.7583	-2.8958	-2.5854	-2.7	-2.8917	-2.4583	-2.8146	-2.7771	-2.8021	-2.8583	-2.8042	-2.7042	-2.9146	-2.5938	-2.8917	142.389	224.897	451.704	435.662	311.757	162.116	474.541	264.900	466.797	417.704	433.786	391.222	182.395	268.955	140.850	399.426	0.00030988	0.00051117	0.00022982	149.68	6.5626e-06	1.8127e-06	289.35	57.543	4.0623e-06	4.3169e-06	145.55	69.915	25.522	11.513	7.2533e-07	36.879	0.012962	0.038682	0.010912	213.37	0.00033258	0.00044254	355.4	77.511	0.00032786	0.00044425	179.93	84.292	39.92	15.605	0.00037655	43.599	205.098	200.630	236.206	132.761	150.698	452.146	132.351	137.208	134.068	239.802	135.942	139.327	140.032	144.583	463.276	142.394	-8191	255	
15871.301	1	1	0	0	0.20155	0.27052	0.28005	0.16221	0.18097	0.27711	0.11955	0.050256	0.18445	0.37953	0.28519	0.14002	0.12883	0.1902	0.13973	0.15134	-2.3875	-2.5625	-2.9167	-2.7208	-2.6271	-2.7854	-2.6063	-2.6604	-2.7083	-2.7583	-2.8417	-2.7604	-2.7729	-2.9188	-2.5458	-2.9062	358.139	288.297	258.829	393.274	378.926	397.801	231.742	344.133	372.569	304.808	429.975	468.109	476.625	219.979	217.820	195.481	0.00038133	0.00025036	0.00025228	150.53	8.3376e-07	5.011e-06	288.75	57.356	3.2833e-06	5.8866e-06	144.87	68.959	24.992	11.365	1.2075e-05	36.467	0.012965	0.039182	0.011036	213.76	0.00034051	0.00045463	356.38	77.325	0.00033484	0.00045697	179.32	83.792	39.693	15.514	0.0003841	43.342	210.531	176.138	214.854	132.768	304.253	137.421	132.175	137.191	280.277	348.396	135.745	139.255	140.739	144.392	326.324	142.746	-8191	255	
15871.421	1	1	0	0	0.12185	0.033723	0.14157	0.073086	0.04292	0.1763	0.18164	0.2195	0.13206	0.25164	0.018493	0.13343	0.10961	0.28995	0.18826	0.22933	-2.3521	-2.7271	-2.7354	-2.7646	-2.6208	-3.0104	-2.7021	-2.7542	-2.8646	-2.8937	-2.975	-2.8229	-2.6292	-2.9667	-2.6688	-2.9396	440.969	143.573	254.157	386.181	382.435	254.040	343.689	464.815	474.288	419.691	390.808	438.372	310.300	331.596	303.035	276.763	0.00035123	0.00063629	0.00015353	149.2	6.5223e-06	1.2362e-05	285.97	56.854	1.8845e-06	1.4472e-05	144.5	69.039	25.1	11.312	3.1642e-06	36.387	0.01327	0.040044	0.011245	214.05	0.00034505	0.00046693	356.47	77.392	0.00033815	0.00046662	179.72	83.871	40.169	15.621	0.00039576	43.377	217.870	137.801	240.809	132.210	251.435	262.105	132.328	137.273	196.681	309.643	136.086	139.581	140.356	144.607	304.707	142.870	-8191	255	
15871.516	1	1	0	0	0.17705	0.10566	0.17265	0.3107	0.084102	0.11506	0.31899	0.13036	0.18302	0.17461	0.088198	0.10817	0.18922	0.21129	0.23817	0.23945	-2.4938	-2.4938	-2.8208	-2.775	-2.6437	-3.0292	-2.8083	-2.8417	-2.8688	-2.6688	-2.9896	-2.6979	-2.6771	-3.0875	-2.7729	-2.8396	317.854	368.756	463.367	458.455	226.292	332.329	342.625	191.195	140.342	169.602	350.164	119.273	128.125	169.088	432.832	381.284	0.00031859	9.4789e-05	0.00038963	149.08	7.1328e-06	1.709e-06	288.37	57.125	4.3486e-06	4.4149e-06	145.85	70.168	25.357	11.52	2.4886e-06	36.845	0.013807	0.041917	0.01168	216.38	0.00036125	0.00048322	359.73	78.274	0.00034816	0.00047395	181.4	84.651	40.533	15.775	0.00039614	43.673	212.132	382.947	141.000	131.972	402.475	155.693	132.453	137.131	257.477	219.800	135.815	139.412	140.206	144.440	328.291	142.823	-8191	255	
15871.612	1	1	0	0	0.075268	0.14867	0.11819	0.08772	0.082907	0.05196	0.064244	0.10323	0.26086	0.1188	0.24606	0.17857	0.2391	0.067306	0.051852	0.2101	-2.4979	-2.7125	-2.9062	-2.825	-2.7062	-3.0875	-2.7625	-2.6292	-2.8271	-2.6729	-2.7333	-2.8771	-2.4021	-2.7104	-2.6562	-2.7354	232.243	252.446	478.867	160.105	313.501	278.795	226.423	235.880	370.579	311.546	223.852	421.861	239.813	151.538	342.473	407.359	0.00035729	0.00049801	5.6307e-06	150.27	3.5279e-06	8.6019e-06	286.49	57.043	9.359e-06	2.9554e-06	144.99	69.526	24.97	11.444	2.1344e-06	36.608	0.013827	0.041804	0.01163	216.11	0.00036035	0.000482	357.06	78.226	0.00035323	0.00047869	181.42	84.681	40.779	15.78	0.00040322	43.563	213.793	255.996	394.214	132.916	476.943	296.233	132.259	137.347	212.330	310.538	135.860	139.413	139.698	144.716	143.490	142.526	-8191	255	
15871.708	1	1	0	0	0.20506	0.27741	0.17703	0.015121	0.10853	0.045371	0.28645	0.22191	0.21467	0.12512	0.16908	0.10401	0.042517	0.11041	0.08556	0.11765	-2.2958	-2.5083	-2.8042	-2.7333	-2.5729	-2.9	-2.8792	-2.9354	-3.0208	-2.5729	-2.8042	-2.9271	-2.6	-2.7229	-2.8042	-2.8583	428.680	314.999	396.615	190.270	222.272	324.905	441.560	235.139	207.606	154.797	437.797	194.708	225.782	123.973	187.304	400.111	0.00035028	7.994e-05	0.0001321	149.58	2.5361e-06	5.4973e-06	288.02	57.879	5.4714e-06	5.5064e-06	146.97	70.172	25.35	11.608	2.471e-06	37.109	0.014285	0.042931	0.012001	218.31	0.00037306	0.0004976	360.23	79.165	0.00036491	0.00049483	183.45	85.803	41.406	16.013	0.00040364	44.225	209.342	437.269	211.933	131.974	248.575	223.587	132.291	137.422	287.845	335.607	136.099	139.553	139.674	143.721	262.647	142.773	-8191	255	
15871.804	1	1	0	0	0.14604	0.30457	0.34489	0.086366	0.07846	0.15289	0.23228	0.23671	0.15713	0.34534	0.091613	0.06392	0.13623	0.12892	0.02963	0.10291	-2.5104	-2.5812	-2.6896	-2.8521	-2.625	-2.8708	-2.9708	-2.5708	-2.8396	-2.7521	-2.6667	-2.7792	-2.575	-2.6688	-2.6875	-2.5875	237.534	189.150	434.830	477.149	408.526	261.463	331.383	171.123	120.369	222.486	467.323	421.445	125.232	265.550	177.155	120.299	0.00033732	0.00024325	0.00019156	150	2.5261e-06	1.585e-06	290.36	57.536	1.3339e-06	7.3805e-06	146.47	70.459	25.288	11.511	3.7499e-06	36.907	0.014059	0.041875	0.011576	217.46	0.0003588	0.00047494	361.04	79.162	0.00035519	0.00048016	183.45	85.8	41.115	15.894	0.00040727	44.031	211.093	181.483	121.913	132.829	254.251	231.556	132.249	137.365	354.787	309.125	135.673	139.665	139.929	144.086	239.539	142.279	-8191	255	
15871.900	1	1	0	0	0.065968	0.058168	0.24678	0.08077	0.25244	0.38406	0.049484	0.1569	0.087944	0.25091	0.07805	0.29835	0.29027	0.34574	0.22659	0.15402	-2.4396	-2.6979	-2.6146	-2.85	-2.5771	-2.8333	-2.9	-2.75	-2.9437	-2.7938	-2.4437	-2.7625	-2.7396	-2.8312	-2.7896	-2.7042	195.247	440.457	330.941	392.547	246.023	314.325	417.797	350.380	363.574	258.564	364.178	252.255	425.770	416.422	438.839	123.026	0.00028923	0.00028365	0.00011476	150.4	2.7907e-06	2.9304e-06	287.97	57.735	3.1878e-06	6.4789e-06	144.86	69.618	24.899	11.348	9.943e-06	36.479	0.014372	0.043155	0.011947	219.2	0.00037088	0.00049415	360.38	79.351	0.00036511	0.00049583	182.91	85.416	41.501	15.906	0.00042399	43.885	226.816	241.317	359.398	133.085	255.437	143.825	132.747	137.538	290.288	200.845	135.952	139.591	140.185	144.295	251.941	142.490	-8191	255	
15871.997	1	1	0	0	0.064833	0.15726	0.063963	0.075846	0.20889	0.067296	0.081936	0.097981	0.32944	0.20507	0.31048	0.4127	0.1611	0.12101	0.25205	0.29909	-2.3688	-2.6417	-2.4854	-2.8417	-2.6708	-2.7146	-2.775	-2.475	-2.6813	-2.7896	-2.7229	-2.8979	-2.6979	-2.8104	-2.7979	-2.6833	161.363	375.150	295.477	365.353	281.332	293.260	307.166	405.740	377.835	382.361	314.672	120.982	228.871	299.764	302.650	318.313	0.00031567	0.00033477	0.00015035	148.16	5.834e-06	2.6977e-06	287.81	57.846	3.4599e-06	7.5096e-06	146.46	69.67	25.52	11.487	6.5111e-06	36.678	0.014754	0.043995	0.012306	219.33	0.00037323	0.00048075	357.77	78.277	0.00034283	0.00046052	181.63	84.921	40.455	15.744	0.00039396	43.622	208.681	139.418	158.171	132.832	317.349	194.828	132.186	137.266	173.577	288.285	135.775	139.469	140.608	144.182	371.075	142.540	-8191	255	
15872.093	1	1	0	0	0.19136	0.033649	0.073352	0.053442	0.076626	0.14782	0.10967	0.027043	0.3562	0.016027	0.22081	0.2579	0.11178	0.16831	0.084877	0.1524	-2.5646	-2.8604	-2.525	-3.0521	-2.7396	-2.7292	-2.9313	-2.5542	-2.6708	-2.8292	-2.5625	-2.9688	-2.7083	-2.6833	-3.0146	-2.6625	400.712	325.441	465.418	389.634	176.991	438.253	321.777	178.358	281.370	320.901	471.543	124.092	174.768	209.179	401.519	459.782	0.00033338	0.0005264	0.00015257	149.55	4.1327e-06	1.0057e-05	289.94	57.346	1.982e-06	4.1612e-06	146.05	69.756	25.181	11.37	4.3955e-06	36.277	0.013671	0.040906	0.011496	215.18	0.00034976	0.00046224	357.96	78.025	0.00033977	0.00046127	181.19	84.75	40.31	15.655	0.00040816	43.437	202.917	233.094	371.501	132.741	378.082	208.034	132.313	137.463	347.763	349.125	136.045	139.279	140.210	144.567	199.982	143.119	-8191	255	
15872.213	1	1	0	0	0.15947	0.076511	0.080181	0.13814	0.15437	0.21344	0.16605	0.31301	0.15439	0.1022	0.20246	0.26999	0.12039	0.12638	0.37228	0.077337	-2.5042	-2.7958	-2.6083	-2.9896	-2.6458	-2.7458	-2.925	-2.5792	-2.7479	-2.6562	-2.8187	-2.7687	-2.7188	-2.7729	-2.9792	-2.7104	206.904	123.985	364.017	279.029	380.968	246.618	209.708	298.507	284.602	286.873	410.043	180.788	217.241	267.209	472.878	173.515	0.00030821	0.0010237	0.00010841	147.07	2.1358e-06	7.0574e-06	288.59	56.356	6.3041e-06	3.6675e-06	144.57	68.475	24.367	11.126	8.1504e-06	35.721	0.014184	0.04293	0.012136	217.67	0.00037612	0.00050075	362.34	78.555	0.00037053	0.00050821	181.92	84.463	41.063	15.705	0.00043848	43.189	209.839	227.035	240.653	132.237	247.975	262.099	132.322	137.024	421.797	264.231	135.680	139.509	139.860	144.697	370.216	142.787	-8191	255	
15872.309	1	1	0	0	0.20299	0.19385	0.071426	0.047266	0.1475	0.18956	0.2018	0.22626	0.13955	0.23319	0.10736	0.099514	0.096068	0.24504	0.11979	0.17831	-2.3729	-2.9146	-2.45	-2.7271	-2.7917	-2.7125	-2.8458	-2.8146	-2.8187	-2.9021	-2.7	-2.8354	-2.7062	-2.5771	-2.8583	-2.5396	226.918	272.101	447.224	452.674	411.812	374.041	123.656	474.863	407.897	385.722	441.196	463.128	309.970	319.799	123.408	441.465	0.00029381	0.00049933	0.00027132	146.85	1.2195e-06	3.7417e-06	284.34	55.936	2.8818e-06	1.2156e-05	141.93	68.074	24.357	11.113	5.6058e-06	35.896	0.015131	0.046101	0.012927	220.77	0.00039608	0.00053283	361.74	78.89	0.00038963	0.00052893	181.45	84.326	41.071	15.77	0.00043062	43.205	217.782	166.374	145.018	132.832	145.204	287.646	132.569	137.457	242.599	271.611	135.769	139.186	140.071	144.759	342.048	142.710	-8191	255	
15872.406	1	1	0	0	0.098896	0.16695	0.23501	0.13186	0.25585	0.1246	0.15111	0.013746	0.18611	0.12857	0.15221	0.077041	0.2159	0.22118	0.27333	0.074762	-2.3625	-2.85	-2.4667	-2.8354	-2.8521	-2.5292	-2.6625	-2.5417	-2.5292	-2.8521	-2.8271	-2.7625	-2.8083	-2.5396	-2.8167	-2.7271	182.766	367.553	200.062	134.110	344.510	286.476	470.060	265.682	203.981	363.764	445.625	329.831	120.967	295.745	316.666	218.324	0.00035348	0.0011352	0.00018694	148.03	7.1628e-06	6.7612e-06	284.32	56.31	7.2888e-06	3.6878e-06	142.41	68.064	24.356	11.117	7.5965e-06	35.815	0.014632	0.04436	0.012392	217.19	0.00037695	0.00050928	359.21	77.965	0.00036971	0.00050926	180.61	83.872	40.746	15.677	0.00042699	43.176	214.489	150.655	320.906	132.814	257.181	278.440	132.417	137.410	300.518	448.349	135.897	139.570	139.896	143.949	214.591	142.743	-8191	255	
15872.502	1	1	0	0	0.13916	0.069963	0.16758	0.05116	0.18711	0.11399	0.089314	0.22386	0.26567	0.29229	0.24584	0.19796	0.101	0.097969	0.041102	0.25114	-2.05	-2.9021	-2.6271	-2.8021	-2.9167	-2.725	-2.9625	-2.7354	-2.6375	-2.9021	-2.6333	-2.6021	-2.9188	-2.5042	-2.6458	-2.9021	259.368	264.032	289.469	476.565	424.358	241.730	322.893	141.891	353.261	326.043	448.099	422.786	273.077	425.210	402.867	387.988	0.00036069	0.00054017	8.3944e-05	147.09	6.1244e-06	2.4403e-06	286.1	56.525	1.5736e-06	2.5516e-06	144.38	68.839	24.322	11.209	9.671e-06	36.071	0.014815	0.044648	0.012464	217.38	0.0003816	0.0005131	360.46	78.169	0.00036804	0.00050344	181.43	84.39	40.747	15.7	0.0004235	43.302	206.961	238.042	277.494	133.133	319.917	249.957	132.424	136.956	196.552	322.682	135.730	139.469	140.008	144.657	310.640	142.703	-8191	255	
15872.596	1	1	0	0	0.12221	0.1854	0.10719	0.12205	0.046744	0.26667	0.22138	0.10592	0.23962	0.13799	0.08416	0.088627	0.11982	0.19673	0.26346	0.13529	-2.0917	-2.6813	-2.6292	-2.7208	-2.8396	-2.6896	-2.8042	-2.7146	-2.5958	-2.9917	-2.5646	-2.7292	-2.7229	-2.5875	-2.5979	-2.7958	191.602	431.545	288.415	361.360	403.303	395.709	401.477	159.603	377.571	169.885	434.720	183.769	445.482	379.986	388.865	316.194	0.0002834	0.00047049	0.00021488	147.52	3.3545e-06	1.1041e-05	284.62	56.789	2.1887e-06	5.7029e-06	143.56	68.093	24.475	11.039	7.0407e-06	35.823	0.014651	0.043978	0.012259	218.18	0.00038323	0.00051201	360.42	78.77	0.00037814	0.00051815	181.58	84.322	41.445	15.788	0.00043297	43.227	216.210	247.316	472.713	132.746	377.180	297.824	132.291	137.060	195.258	267.650	136.044	139.322	139.969	145.019	327.209	142.871	-8191	255	
15872.694	1	1	0	0	0.40637	0.11661	0.060857	0.13712	0.12929	0.090942	0.1604	0.27734	0.12667	0.10891	0.22207	0.19346	0.14503	0.20612	0.059179	0.12148	-1.9562	-3.0458	-2.7104	-2.6375	-2.9083	-2.6875	-2.7458	-2.8458	-2.6125	-2.8	-2.7833	-2.6104	-2.8333	-2.6437	-2.8354	-3.0938	250.912	298.108	230.404	203.263	124.641	387.069	225.521	146.219	163.785	276.516	247.307	153.462	383.839	256.257	194.121	445.324	0.00038183	0.00059177	0.00012051	148.86	4.3713e-06	5.3816e-06	286.46	56.221	1.1113e-06	8.3895e-06	143.78	68.496	24.764	11.18	4.4578e-06	35.873	0.015032	0.045254	0.0125	219.22	0.00038828	0.00051749	361.14	78.999	0.00038246	0.00051729	181.85	84.621	41.294	15.726	0.00042413	43.197	218.258	132.265	126.677	132.684	256.833	224.143	132.383	137.338	178.221	197.338	135.636	139.501	140.358	144.915	296.271	142.712	-8191	255	
15872.813	1	1	0	0	0.02713	0.14043	0.27019	0.132	0.096984	0.22199	0.19645	0.19269	0.1544	0.10806	0.082998	0.14502	0.074156	0.066438	0.10964	0.053889	-2.2354	-2.7812	-2.7938	-2.4833	-2.7958	-2.7708	-2.5708	-2.8792	-2.6	-2.9708	-2.6604	-2.6	-2.85	-2.5	-2.6917	-2.8979	359.010	148.943	439.023	231.771	126.314	430.281	363.727	369.375	136.740	233.086	159.575	163.694	472.704	400.172	460.125	213.098	0.00028812	0.0006553	8.4275e-05	147.21	4.5827e-06	1.1481e-05	283.76	55.585	2.0103e-06	9.0206e-06	142.5	67.033	24.039	10.772	8.3419e-06	35.105	0.015017	0.045403	0.012747	222.44	0.00041075	0.00055355	366.25	80.412	0.0004241	0.00057651	184.28	84.75	43.004	15.981	0.00049712	43.305	221.836	273.289	147.519	133.499	290.319	305.492	132.484	137.098	338.382	391.714	135.888	139.837	140.818	144.723	249.250	142.881	-8191	255	
15872.909	1	1	0	0	0.29628	0.25436	0.32629	0.07631	0.19496	0.12234	0.063532	0.039182	0.027077	0.05313	0.13905	0.18579	0.25458	0.22359	0.36317	0.18892	-2.0458	-2.8479	-2.8979	-2.6333	-2.8854	-2.9292	-2.7104	-2.7875	-2.7438	-2.8208	-2.7667	-2.4125	-2.6875	-2.7438	-2.7792	-2.925	133.422	254.456	326.366	322.293	173.371	413.989	266.248	159.749	458.498	446.298	420.638	253.762	308.464	470.879	381.759	417.632	0.00041295	0.0003191	0.00017465	148.09	2.5664e-06	9.9566e-06	285.3	55.574	2.0623e-06	5.9858e-06	140.91	66.726	24.326	10.833	4.2474e-06	34.866	0.017649	0.053201	0.014983	234.18	0.0004756	0.00063575	376.94	83.341	0.00047527	0.00064206	187.82	86.244	44.791	16.374	0.00053686	43.746	211.702	312.781	181.223	133.084	339.539	272.723	132.702	137.048	333.711	257.348	136.105	139.756	139.969	144.974	304.785	142.844	-8191	255	
15873.005	1	1	0	0	0.091372	0.26394	0.10793	0.20881	0.15689	0.1621	0.13399	0.12429	0.21095	0.15839	0.21031	0.15112	0.036993	0.28488	0.080782	0.11277	-2.0958	-2.6354	-2.8917	-2.4208	-2.875	-2.6479	-2.7521	-2.85	-2.7021	-2.8812	-2.9604	-2.6875	-2.8354	-2.6021	-2.5458	-2.9813	223.185	275.882	268.151	392.648	440.278	425.067	314.194	417.527	327.376	452.044	453.155	414.636	416.651	456.421	286.410	344.375	0.00038829	0.0009758	0.00013287	147.98	2.7719e-06	3.9697e-06	284	56.162	6.2131e-06	4.5751e-06	140.73	66.979	24.326	10.961	6.444e-06	35.106	0.018751	0.056345	0.015893	238.89	0.00049448	0.00065678	379.54	84.469	0.00048406	0.00064883	188.67	86.535	44.946	16.466	0.00053699	43.943	207.338	190.374	245.578	133.023	138.341	240.691	132.126	137.513	124.946	465.770	136.155	139.738	140.105	144.911	232.516	142.929	-8191	255	
15873.101	1	1	0	0	0.16327	0.11159	0.17852	0.16225	0.087179	0.39879	0.17273	0.023815	0.28121	0.08489	0.064715	0.18598	0.10388	0.23778	0.21962	0.12646	-2.1146	-2.6083	-2.7146	-2.4667	-2.8812	-2.6688	-2.7542	-2.8625	-2.7479	-2.6937	-3.1688	-2.6375	-2.6333	-2.9938	-2.3896	-2.9062	347.819	422.855	407.698	147.698	263.443	340.681	284.849	456.844	299.794	360.017	434.330	291.379	442.909	204.435	257.866	356.910	0.00036249	0.0012033	0.00014436	151.24	6.9363e-06	5.6449e-06	286.62	56.631	4.7738e-06	2.4651e-06	143.74	67.676	24.795	11.02	4.4318e-06	35.181	0.018521	0.056186	0.015752	240.24	0.00048483	0.00064477	381.41	85.03	0.00048011	0.00065885	191.52	87.683	45.991	16.829	0.00057558	44.477	204.808	154.279	206.900	132.394	264.692	221.033	132.763	137.373	169.319	286.446	135.916	139.907	139.774	144.701	187.558	142.998	-8191	255	
#DATA ENDS
