BOXY.EXE: ISS Imagent and Oximeter Data Acquisition Program Version 0.80
Ascii Record File

#ACQ INFORMATION
2  Detector Channels 
16  External MUX Channels 
1  Auxiliary Channels 
5000  Waveform (CCF) Frequency (Hz)
1  Waveforms Skipped 
30  Waveforms Averaged 
1  Cycles Averaged 
16  Acquisitions per Waveform 
10.0806  Updata Rate (Hz) 

#FILE INFORMATION
TRUE -- External MUX Channel results are PARSED.
FALSE -- AC DC and Phase are NOT grouped.
TRUE -- Companion Program Settings File CREATED.
FALSE -- AC data not excluded
FALSE -- DC data not excluded
FALSE -- Phase data not excluded
FALSE -- Auxillary Chn. data not excluded
Tab delimiters

#CALIBRATION STATE
TRUE -- Waveform Calibration Values APPLIED.


#AUX CALIBRATION VALUES
Val Type	aux-1	

Term	1.0000e+00	
Factor	0.0000e+00	


#WF CALIBRATION VALUES
A = Detector Channel
Val Type	A-AC1	A-AC2	A-AC3	A-AC4	A-AC5	A-AC6	A-AC7	A-AC8	A-AC9	A-AC10	A-AC11	A-AC12	A-AC13	A-AC14	A-AC15	A-AC16	A-DC1	A-DC2	A-DC3	A-DC4	A-DC5	A-DC6	A-DC7	A-DC8	A-DC9	A-DC10	A-DC11	A-DC12	A-DC13	A-DC14	A-DC15	A-DC16	A-Ph1	A-Ph2	A-Ph3	A-Ph4	A-Ph5	A-Ph6	A-Ph7	A-Ph8	A-Ph9	A-Ph10	A-Ph11	A-Ph12	A-Ph13	A-Ph14	A-Ph15	A-Ph16	

Term	0.00000e+00	0.00000e+00	0.00000e+00	0.00000e+00	0.00000e+00	0.00000e+00	0.00000e+00	0.00000e+00	0.00000e+00	0.00000e+00	0.00000e+00	0.00000e+00	0.00000e+00	0.00000e+00	0.00000e+00	0.00000e+00	0.00000e+00	0.00000e+00	0.00000e+00	0.00000e+00	0.00000e+00	0.00000e+00	0.00000e+00	0.00000e+00	0.00000e+00	0.00000e+00	0.00000e+00	0.00000e+00	0.00000e+00	0.00000e+00	0.00000e+00	0.00000e+00	0.00000e+00	0.00000e+00	0.00000e+00	0.00000e+00	0.00000e+00	0.00000e+00	0.00000e+00	0.00000e+00	0.00000e+00	0.00000e+00	0.00000e+00	0.00000e+00	0.00000e+00	0.00000e+00	0.00000e+00	0.00000e+00	
Factor	1.00000e+00	1.00000e+00	1.00000e+00	1.00000e+00	1.00000e+00	1.00000e+00	1.00000e+00	1.00000e+00	1.00000e+00	1.00000e+00	1.00000e+00	1.00000e+00	1.00000e+00	1.00000e+00	1.00000e+00	1.00000e+00	1.00000e+00	1.00000e+00	1.00000e+00	1.00000e+00	1.00000e+00	1.00000e+00	1.00000e+00	1.00000e+00	1.00000e+00	1.00000e+00	1.00000e+00	1.00000e+00	1.00000e+00	1.00000e+00	1.00000e+00	1.00000e+00	X	X	X	X	X	X	X	X	X	X	X	X	X	X	X	X	

B = Detector Channel
Val Type	B-AC1	B-AC2	B-AC3	B-AC4	B-AC5	B-AC6	B-AC7	B-AC8	B-AC9	B-AC10	B-AC11	B-AC12	B-AC13	B-AC14	B-AC15	B-AC16	B-DC1	B-DC2	B-DC3	B-DC4	B-DC5	B-DC6	B-DC7	B-DC8	B-DC9	B-DC10	B-DC11	B-DC12	B-DC13	B-DC14	B-DC15	B-DC16	B-Ph1	B-Ph2	B-Ph3	B-Ph4	B-Ph5	B-Ph6	B-Ph7	B-Ph8	B-Ph9	B-Ph10	B-Ph11	B-Ph12	B-Ph13	B-Ph14	B-Ph15	B-Ph16	

Term	0.00000e+00	0.00000e+00	0.00000e+00	0.00000e+00	0.00000e+00	0.00000e+00	0.00000e+00	0.00000e+00	0.00000e+00	0.00000e+00	0.00000e+00	0.00000e+00	0.00000e+00	0.00000e+00	0.00000e+00	0.00000e+00	0.00000e+00	0.00000e+00	0.00000e+00	0.00000e+00	0.00000e+00	0.00000e+00	0.00000e+00	0.00000e+00	0.00000e+00	0.00000e+00	0.00000e+00	0.00000e+00	0.00000e+00	0.00000e+00	0.00000e+00	0.00000e+00	-9.99014e+01	-1.28059e+02	-1.24292e+02	-1.80815e+02	-5.64162e+01	-6.70400e+01	-1.57141e+02	-1.62015e+02	-5.78422e+01	-6.46554e+01	-1.71605e+02	-1.71581e+02	-1.83471e+02	-1.76929e+02	-6.31455e+01	-1.49760e+02	
Factor	1.57090e-05	1.56009e-04	4.31416e-05	1.49598e-01	1.26044e-06	1.72627e-06	1.55617e-01	4.50887e-02	1.02207e-06	1.73542e-06	7.47621e-02	2.92882e-02	3.47003e-02	8.87559e-03	1.34979e-06	1.27559e-02	1.64394e-05	5.02448e-05	1.40396e-05	7.54145e-02	4.32544e-07	5.76823e-07	7.39352e-02	2.29014e-02	4.22910e-07	5.74600e-07	3.67841e-02	1.45451e-02	1.77443e-02	4.53651e-03	4.81585e-07	6.33307e-03	X	X	X	X	X	X	X	X	X	X	X	X	X	X	X	X	



#DISTANCE SETTINGS
A = Detector Channel
A-1	A-2	A-3	A-4	A-5	A-6	A-7	A-8	A-9	A-10	A-11	A-12	A-13	A-14	A-15	A-16	

2.5000e+00	3.0000e+00	2.5000e+00	3.0000e+00	2.0000e+00	3.0000e+00	1.5000e+00	3.0000e+00	3.0000e+00	3.0000e+00	3.0000e+00	3.0000e+00	3.0000e+00	3.0000e+00	1.5000e+00	3.0000e+00	

B = Detector Channel
B-1	B-2	B-3	B-4	B-5	B-6	B-7	B-8	B-9	B-10	B-11	B-12	B-13	B-14	B-15	B-16	

1.0000e+01	1.0000e+01	1.0000e+01	1.4400e+00	1.0000e+01	1.0000e+01	1.5100e+00	1.9400e+00	1.0000e+01	1.0000e+01	1.9900e+00	2.4900e+00	2.4100e+00	2.9000e+00	1.0000e+01	2.9800e+00	




#DATA BEGINS
time	group	step	mark	flag	A-AC1	A-AC2	A-AC3	A-AC4	A-AC5	A-AC6	A-AC7	A-AC8	A-AC9	A-AC10	A-AC11	A-AC12	A-AC13	A-AC14	A-AC15	A-AC16	A-DC1	A-DC2	A-DC3	A-DC4	A-DC5	A-DC6	A-DC7	A-DC8	A-DC9	A-DC10	A-DC11	A-DC12	A-DC13	A-DC14	A-DC15	A-DC16	A-Ph1	A-Ph2	A-Ph3	A-Ph4	A-Ph5	A-Ph6	A-Ph7	A-Ph8	A-Ph9	A-Ph10	A-Ph11	A-Ph12	A-Ph13	A-Ph14	A-Ph15	A-Ph16	B-AC1	B-AC2	B-AC3	B-AC4	B-AC5	B-AC6	B-AC7	B-AC8	B-AC9	B-AC10	B-AC11	B-AC12	B-AC13	B-AC14	B-AC15	B-AC16	B-DC1	B-DC2	B-DC3	B-DC4	B-DC5	B-DC6	B-DC7	B-DC8	B-DC9	B-DC10	B-DC11	B-DC12	B-DC13	B-DC14	B-DC15	B-DC16	B-Ph1	B-Ph2	B-Ph3	B-Ph4	B-Ph5	B-Ph6	B-Ph7	B-Ph8	B-Ph9	B-Ph10	B-Ph11	B-Ph12	B-Ph13	B-Ph14	B-Ph15	B-Ph16	aux-1	digaux	

14435.994	1	1	0	256	0.02528	0.26521	0.10321	0.20229	0.12095	0.18055	0.19032	0.18694	0.40656	0.10369	0.38515	0.09129	0.14517	0.10769	0.099362	0.1098	-2.6896	-3.0542	-2.9229	-3.2062	-3.0708	-2.7875	-3.4938	-3.1458	-3.1792	-3.4417	-3.1125	-3.3583	-3.1375	-2.8833	-3.3958	-3.0812	419.413	323.930	371.495	504.826	322.397	201.498	500.162	445.739	432.209	182.135	512.950	373.749	523.579	228.636	394.643	233.643	0.00031428	0.00032374	8.5589e-05	1333.2	3.6984e-06	3.8761e-06	1400.4	290.27	3.4308e-06	2.566e-06	355.19	102.26	81.716	24.701	3.3284e-06	33.716	0.00037269	0.00041776	0.00011583	1311.4	4.8445e-06	4.6975e-06	1381.8	287.26	4.6617e-06	4.4508e-06	352.93	102.06	81.842	24.926	4.1918e-06	33.989	226.111	253.697	271.751	177.048	312.497	309.580	176.865	183.751	294.731	320.450	183.651	189.498	189.680	196.172	310.408	196.134	-8191	255	
14436.091	1	1	0	0	0.15296	0.25342	0.021012	0.12775	0.099426	0.17449	0.14582	0.19164	0.075748	0.26999	0.10075	0.22451	0.038493	0.16496	0.20917	0.08979	-2.5854	-3.3354	-2.8438	-3.2417	-3.3	-2.9208	-3.3729	-3.1917	-2.825	-3.4062	-3.1458	-3.2458	-3.1958	-2.8979	-3.2313	-3.2167	278.961	405.303	461.873	462.390	178.482	414.542	430.452	487.531	523.903	440.679	449.703	472.403	452.749	421.020	443.710	299.588	0.00030724	0.00034243	0.00011914	1338.2	2.2159e-06	4.1876e-06	1398.6	289.94	3.2311e-06	3.6023e-06	357.51	102.14	81.406	24.82	3.4869e-06	33.61	0.00035786	0.00039453	0.00012042	1313.6	4.8066e-06	4.3478e-06	1378.8	287.7	5.0547e-06	4.4555e-06	353.37	102.14	81.778	24.925	4.2078e-06	33.959	225.918	249.153	267.732	177.071	308.609	301.510	176.848	183.677	306.854	324.429	183.668	189.274	189.791	196.295	309.462	196.599	-8191	255	
14436.187	1	1	0	0	0.1163	0.11572	0.15615	0.061204	0.22007	0.13359	0.31047	0.29307	0.099243	0.079185	0.13646	0.14026	0.17421	0.27797	0.10498	0.17434	-2.6208	-3.2083	-2.8854	-3.3542	-3.2625	-2.8729	-3.2583	-3.2146	-3.0687	-3.1396	-3.1646	-3.0125	-3.4208	-3.0104	-3.1813	-3.1375	406.929	346.468	421.034	448.584	455.679	505.940	422.577	477.512	252.145	279.213	414.826	361.757	183.916	393.718	223.185	415.198	0.00029437	0.00041155	7.4622e-05	1336.4	3.796e-06	4.0171e-06	1404.7	289.15	3.2997e-06	2.9938e-06	355.35	101.99	81.419	24.766	2.7605e-06	33.524	0.00035756	0.00041347	0.00011346	1312.1	4.8571e-06	4.6663e-06	1381.4	286.69	4.6643e-06	4.4579e-06	353.03	102.22	81.864	24.924	4.3965e-06	33.955	225.623	265.682	267.726	177.069	303.644	334.841	177.084	183.818	306.740	321.314	183.578	189.404	189.944	196.389	315.175	195.963	-8191	255	
14436.283	1	1	0	0	0.083776	0.082321	0.26433	0.28638	0.12274	0.21559	0.29749	0.097032	0.20087	0.11148	0.025234	0.19838	0.15904	0.078285	0.054885	0.1942	-2.7125	-3.3083	-3.1479	-3.2458	-3.2833	-3.0542	-3.3708	-3.2562	-2.8208	-3.3333	-3.2687	-2.9813	-3.5104	-2.8771	-3.1083	-3.2771	399.059	330.846	267.347	170.523	317.690	342.433	432.402	491.164	487.458	375.738	216.892	414.466	515.172	466.769	355.274	198.229	0.00032153	0.00033071	9.274e-05	1335.7	3.1388e-06	4.5994e-06	1402.3	290.02	2.8973e-06	5.0641e-06	354.94	101.45	81.965	24.702	3.6575e-06	33.617	0.00036834	0.000394	0.00011235	1312.2	4.6832e-06	4.4403e-06	1381.6	287.08	4.7604e-06	4.4328e-06	352.76	101.94	81.978	24.934	4.4336e-06	33.953	225.754	257.971	274.837	177.187	305.161	311.361	177.063	183.716	299.162	340.728	183.419	189.499	189.819	196.197	312.115	196.216	-8191	255	
14436.379	1	1	0	0	0.30152	0.27261	0.2464	0.19843	0.03247	0.13939	0.23781	0.2147	0.21338	0.058563	0.11594	0.19448	0.25972	0.13052	0.052027	0.20264	-2.5229	-3.2917	-3.2125	-3.0854	-3.3854	-2.9896	-3.2583	-3.3917	-2.9521	-3.2792	-3.05	-3.0646	-3.1604	-3.0646	-3.1583	-3.3563	415.608	313.216	281.928	484.419	356.487	341.377	481.894	437.225	202.433	444.074	468.882	206.909	510.240	419.106	249.548	468.503	0.00031529	0.00039385	8.511e-05	1331.6	3.6785e-06	4.317e-06	1401.1	290.37	3.3944e-06	3.3363e-06	356.28	101.65	81.626	24.692	3.0855e-06	33.577	0.00037355	0.00040123	0.00010603	1312.1	4.9166e-06	4.5413e-06	1381.1	287.18	4.6547e-06	4.7249e-06	353.27	102.04	81.999	24.852	4.2721e-06	33.863	226.280	268.329	253.091	177.111	310.048	321.831	177.006	183.697	298.685	311.354	183.767	189.662	189.820	196.266	318.010	196.593	-8191	255	
14436.475	1	1	0	0	0.1407	0.19236	0.11334	0.19506	0.25142	0.1198	0.50909	0.34403	0.20606	0.050876	0.072208	0.17506	0.14815	0.15607	0.27063	0.13673	-2.4604	-3.3146	-3.1813	-3.15	-3.2375	-3.1958	-3.2917	-3.3979	-2.9271	-3.1937	-3.3125	-2.9	-3.2458	-2.9667	-3.0812	-3.4938	372.675	413.196	245.444	461.243	399.452	443.969	483.083	458.627	476.188	474.059	383.732	497.328	275.887	303.509	234.315	225.151	0.00029843	0.00033479	9.1493e-05	1334.4	3.752e-06	3.9035e-06	1402.6	289.02	3.6554e-06	2.4385e-06	356.52	101.46	81.098	24.739	3.0721e-06	33.566	0.00036016	0.00042572	0.00011793	1310.8	4.84e-06	4.367e-06	1379	286.98	4.6635e-06	4.4615e-06	352.89	101.91	81.651	24.888	4.5128e-06	33.948	226.444	250.134	260.970	177.115	317.034	317.167	177.111	183.560	310.868	314.960	183.669	189.240	190.063	196.459	311.985	196.437	-8191	255	
14436.596	1	1	0	0	0.020033	0.21027	0.21423	0.27212	0.0257	0.27018	0.27142	0.46047	0.094647	0.12032	0.13576	0.26422	0.22122	0.38381	0.22954	0.27391	-2.6729	-3.1063	-3.1229	-3.1813	-3.2729	-3.1167	-3.2771	-3.4313	-2.9958	-3.2062	-3.3438	-3.0771	-3.1562	-3.1792	-3.0083	-3.3396	242.809	374.436	268.140	476.348	457.427	482.726	452.618	446.235	173.115	264.498	423.679	169.925	351.790	463.203	313.639	485.051	0.00030438	0.00046313	0.00010721	1335.1	3.7179e-06	3.9777e-06	1397.5	290.72	3.47e-06	3.7192e-06	353.56	101.63	81.408	24.513	2.36e-06	33.475	0.00035807	0.00042174	0.00011486	1310.3	4.6778e-06	4.73e-06	1378.9	287.23	4.8564e-06	4.3023e-06	351.26	101.77	81.577	24.759	4.3302e-06	33.833	224.167	264.986	268.924	176.996	311.095	329.394	177.080	183.651	314.300	315.741	183.605	189.419	189.714	195.991	316.290	196.389	-8191	255	
14436.692	1	1	0	0	0.1923	0.05586	0.12934	0.20058	0.073276	0.057621	0.13529	0.17984	0.19092	0.18485	0.17863	0.41229	0.22451	0.23778	0.06762	0.33399	-2.5104	-3.0708	-3.1625	-3.0708	-3.2896	-3.1542	-3.2938	-3.4125	-3.0104	-3.1083	-3.5167	-3.0708	-3.2938	-3.1854	-2.9688	-3.4188	433.310	412.757	389.490	447.728	322.946	428.220	401.520	217.558	166.723	495.168	518.914	168.336	518.915	502.567	400.671	481.340	0.00030228	0.00032718	0.0001228	1328.9	3.6623e-06	3.1134e-06	1393.9	288.26	2.7779e-06	3.6104e-06	353.56	101.38	81.33	24.651	2.9978e-06	33.403	0.00036102	0.00042446	0.00011591	1307.3	4.7679e-06	4.8826e-06	1374.9	285.53	4.637e-06	4.4579e-06	351.46	101.34	81.356	24.739	4.261e-06	33.741	225.799	253.082	252.997	176.996	304.387	312.656	177.030	184.014	299.958	326.063	183.650	189.572	189.844	196.223	309.885	196.426	-8191	255	
14436.788	1	1	0	0	0.3401	0.049434	0.16368	0.077905	0.22079	0.12815	0.18772	0.10586	0.19214	0.13724	0.11967	0.205	0.26207	0.24099	0.057422	0.069883	-2.7271	-2.9583	-3.1063	-3.1854	-3.0771	-3.2083	-3.2583	-3.5312	-3.0292	-3.0958	-3.4354	-3.0104	-3.1875	-3.3625	-2.8063	-3.2083	471.953	221.573	175.160	271.826	208.580	460.802	476.897	277.637	194.272	450.730	198.646	198.875	507.510	226.740	228.610	184.423	0.00029499	0.0004156	0.00010666	1330	2.8694e-06	3.5174e-06	1397.4	288.49	3.4787e-06	4.1742e-06	353.17	100.73	81.418	24.47	2.9576e-06	33.32	0.00035403	0.00041421	0.00010974	1307.3	4.7102e-06	4.5281e-06	1376.3	285.68	4.8406e-06	4.5585e-06	351.32	101.15	81.131	24.667	4.263e-06	33.681	227.323	265.551	263.125	177.076	314.782	335.433	177.039	183.768	295.932	319.751	183.559	189.334	189.725	196.420	323.999	196.172	-8191	255	
14436.884	1	1	0	0	0.23748	0.10251	0.114	0.34144	0.098736	0.061904	0.15756	0.16781	0.06879	0.095041	0.20968	0.065172	0.084273	0.20363	0.27205	0.31975	-2.5833	-2.9896	-3.1104	-3.1125	-3.1229	-3.2125	-3.075	-3.3417	-2.9688	-3.1021	-3.5625	-3.0667	-3.0333	-3.3375	-3.0125	-3.375	258.987	365.519	446.569	468.050	239.136	176.948	442.098	443.017	416.931	423.554	440.302	356.729	320.423	463.825	270.418	318.011	0.00028939	0.00038851	9.6029e-05	1325.1	4.186e-06	3.3438e-06	1397	287.39	2.9488e-06	4.3747e-06	353.39	100.75	80.733	24.461	3.3919e-06	33.004	0.00036091	0.00042499	0.00011194	1304.1	4.7012e-06	4.2156e-06	1373.3	285.28	4.5022e-06	4.4831e-06	350.51	101.01	80.822	24.564	4.4807e-06	33.548	228.333	264.609	254.448	177.188	306.068	328.014	177.089	183.866	307.982	330.193	183.681	189.323	189.976	196.204	326.615	196.097	-8191	255	
14436.979	1	1	0	0	0.10344	0.2171	0.061221	0.40524	0.14763	0.27757	0.19571	0.13113	0.14712	0.3105	0.25524	0.03529	0.21236	0.25765	0.12281	0.26255	-2.6583	-2.7896	-3.1771	-3.1542	-3.0479	-3.2021	-3.1708	-3.0979	-3.0125	-2.9437	-3.3583	-3.0812	-3.1604	-3.1729	-3.0458	-3.2938	403.421	185.888	296.307	444.060	181.040	166.918	168.997	453.762	471.143	271.892	493.831	378.060	516.997	207.926	392.863	487.872	0.00029423	0.00033857	0.00010064	1329.3	3.4637e-06	4.8485e-06	1392.1	287.32	3.1656e-06	3.554e-06	351.9	100.27	80.782	24.284	4.0208e-06	33.181	0.00036619	0.00042331	0.00010831	1304.4	4.7886e-06	4.6615e-06	1370.7	284.44	4.5093e-06	4.5956e-06	349.34	100.59	80.829	24.496	4.6894e-06	33.505	227.182	248.214	252.721	176.961	307.705	299.461	177.208	183.824	301.260	325.537	183.708	189.182	190.171	196.218	322.049	196.257	-8191	255	
14437.077	1	1	0	0	0.10858	0.05819	0.1457	0.24833	0.10281	0.014289	0.17768	0.14667	0.24251	0.164	0.13432	0.28194	0.078494	0.21167	0.096086	0.084409	-2.9083	-3.0812	-3.2021	-3.1479	-2.9938	-3.3583	-3.2229	-3.3479	-3.3312	-2.9979	-3.3771	-3.1792	-3.1167	-3.3125	-3.0021	-3.2375	421.859	173.831	277.297	471.940	170.403	291.310	465.827	169.725	390.207	179.981	184.952	476.971	506.269	323.780	439.558	385.649	0.00029547	0.00036421	8.4889e-05	1324.3	2.9933e-06	3.7383e-06	1389.6	286.49	3.2843e-06	3.9691e-06	350.45	99.91	80.554	24.234	2.9437e-06	33.189	0.00036273	0.00043451	0.00011273	1301.3	4.6571e-06	4.4632e-06	1370	283.76	4.3974e-06	4.4436e-06	348.58	100.33	80.588	24.422	4.5941e-06	33.464	227.853	251.311	269.893	176.970	310.418	325.553	176.896	183.715	306.341	316.564	183.524	189.546	190.209	196.301	309.418	196.384	-8191	255	
14437.195	1	1	0	0	0.10991	0.28324	0.035681	0.44114	0.099398	0.092934	0.29929	0.23789	0.1617	0.35725	0.10975	0.26272	0.36945	0.12802	0.1548	0.13399	-2.6875	-2.8521	-3.2729	-3.3396	-2.9896	-3.4521	-3.2583	-3.2562	-3.3042	-3.0375	-3.3958	-3.1771	-3.1833	-3.4417	-3.0833	-3.2708	171.240	499.582	424.275	496.557	303.314	363.283	504.449	168.812	189.799	210.627	292.844	249.343	474.279	486.317	300.698	464.981	0.00029783	0.00031252	0.00011353	1322.8	4.0933e-06	2.8093e-06	1393	286.21	2.9596e-06	3.7686e-06	351.62	100.13	81.073	24.406	2.9424e-06	33.221	0.00035119	0.00040845	0.00011416	1300.6	4.9499e-06	4.0582e-06	1368.8	283.59	4.3727e-06	4.5453e-06	348.86	100.42	80.71	24.44	4.5249e-06	33.504	225.425	251.657	262.090	177.332	295.863	333.135	177.021	183.668	306.758	311.531	183.657	189.392	189.712	196.710	316.096	196.404	-8191	255	
14437.292	1	1	0	0	0.022271	0.21923	0.16319	0.31651	0.12537	0.098225	0.20797	0.22759	0.11271	0.20079	0.26	0.24387	0.16125	0.042905	0.29564	0.14381	-2.8479	-2.8958	-3.1979	-3.2479	-3.1	-3.175	-3.225	-3.2021	-3.0896	-3.1083	-3.3708	-3.2792	-3	-3.2458	-3.2646	-3.2083	515.632	522.447	459.665	494.781	304.513	315.896	468.694	463.794	456.623	394.862	495.354	408.438	304.872	322.932	494.352	442.530	0.00029756	0.00027724	0.00011017	1326.8	3.1243e-06	3.3253e-06	1391.2	286.22	3.3736e-06	4.4117e-06	352.3	100.43	80.224	24.275	3.033e-06	33.207	0.00035488	0.00039924	0.00010761	1302.6	4.9697e-06	4.2577e-06	1367.7	283.75	4.3965e-06	4.8973e-06	349.52	100.66	80.481	24.481	4.1667e-06	33.466	226.376	243.188	257.822	177.170	307.083	321.881	176.883	183.781	305.215	315.929	183.588	189.585	189.800	196.580	310.541	196.406	-8191	255	
14437.388	1	1	0	0	0.23341	0.073743	0.35685	0.45269	0.035198	0.14882	0.049438	0.14298	0.097907	0.13517	0.11385	0.097369	0.19063	0.28491	0.25847	0.32633	-2.9729	-3.0146	-3.1479	-3.3854	-3.0292	-3.4167	-3.2812	-3.1354	-3.325	-3.0417	-3.2792	-3.3917	-2.9188	-3.3333	-2.925	-3.0375	274.847	404.052	177.415	504.376	469.944	352.359	506.962	488.346	472.603	469.843	192.992	200.171	479.873	168.605	241.246	503.431	0.00029556	0.00027525	0.00011607	1321.1	3.7531e-06	3.3344e-06	1389.5	286.78	3.7558e-06	3.0766e-06	350.56	100.53	80.68	24.26	3.1555e-06	33.226	0.00035064	0.00041619	0.00011893	1299.2	4.8886e-06	4.343e-06	1368.3	283.88	4.4555e-06	4.8793e-06	348.73	100.49	80.685	24.447	4.2851e-06	33.518	227.319	259.634	250.084	177.070	304.017	303.256	177.163	183.980	295.988	331.684	183.858	189.374	189.981	196.558	310.838	196.315	-8191	255	
14437.484	1	1	0	0	0.28836	0.17942	0.10628	0.030562	0.082167	0.16656	0.19966	0.35589	0.0018016	0.10492	0.12374	0.2483	0.11937	0.067044	0.1431	0.15791	-2.8208	-3.0083	-3.0229	-3.3542	-2.8542	-3.2542	-3.3167	-3.0708	-3.3125	-3.0125	-3.2042	-3.3688	-3.0833	-3.2146	-3.1667	-3.0792	222.880	170.999	294.004	221.616	355.719	448.006	491.577	498.779	180.000	408.099	242.507	487.716	453.825	331.452	339.016	449.196	0.00030265	0.00041599	0.0001149	1332.4	3.502e-06	4.4733e-06	1397	288.21	3.7646e-06	3.2607e-06	351.95	100.23	81.03	24.22	2.4112e-06	33.062	0.00035441	0.00040123	0.00011787	1304.7	4.8679e-06	4.5785e-06	1373.4	284.97	4.6511e-06	4.7464e-06	349.92	100.5	80.859	24.425	4.4266e-06	33.44	224.159	251.153	270.074	177.128	309.931	315.700	177.055	183.875	300.362	332.782	183.630	189.524	189.529	196.407	312.675	196.407	-8191	255	
14437.580	1	1	0	0	0.20875	0.02238	0.046626	0.17057	0.16018	0.065603	0.36013	0.096877	0.059981	0.11795	0.21309	0.11901	0.12154	0.069148	0.15767	0.17022	-2.9083	-3.0125	-3.1604	-3.45	-3.1146	-3.2396	-3.225	-3.1271	-3.1708	-3.1771	-3.3708	-3.4146	-3.2667	-3.2188	-3.2438	-2.9688	357.228	271.394	336.889	484.345	491.759	409.794	460.652	357.049	377.176	187.010	522.887	224.369	435.109	225.989	362.158	390.043	0.00030985	0.00031131	6.4734e-05	1330.2	4.0051e-06	3.6234e-06	1388.4	287.1	2.8491e-06	2.2176e-06	352.49	99.514	80.496	23.969	2.9964e-06	32.869	0.00037033	0.00042059	0.00012258	1307	5.1383e-06	4.6158e-06	1373.2	284.48	4.7956e-06	4.853e-06	349.62	100.01	80.612	24.334	4.4687e-06	33.375	225.411	249.151	263.243	176.895	326.800	331.327	177.196	183.986	302.459	325.693	183.818	189.490	189.599	196.685	306.773	196.427	-8191	255	
14437.676	1	1	0	0	0.14394	0.30131	0.12438	0.16083	0.072384	0.071599	0.21818	0.065298	0.067287	0.087329	0.0464	0.28147	0.17401	0.041584	0.20865	0.086993	-2.7313	-2.9583	-2.9125	-3.5438	-2.8271	-3.2479	-3.3729	-3.0021	-3.2521	-3.0167	-3.1	-3.2979	-2.9729	-3.075	-2.9854	-3.0687	431.959	506.512	515.988	521.234	489.052	385.201	471.672	355.608	323.314	213.133	383.621	475.324	217.991	194.910	270.553	371.396	0.00030665	0.00043453	7.8813e-05	1329.1	3.4238e-06	5.0694e-06	1394.3	288.69	3.6194e-06	3.992e-06	351.92	100.48	80.749	24.324	3.9421e-06	33.269	0.0003765	0.00045377	0.00013162	1304.7	5.2581e-06	5.064e-06	1373.9	285.16	5.0485e-06	5.0397e-06	350.05	100.94	80.908	24.504	4.6222e-06	33.507	226.565	272.398	283.830	177.147	308.138	312.144	177.086	183.941	306.648	316.973	183.664	189.776	189.842	196.310	305.750	196.597	-8191	255	
14437.772	1	1	0	0	0.15135	0.041228	0.12861	0.084025	0.057086	0.25743	0.49987	0.11641	0.087661	0.24829	0.19538	0.08647	0.13571	0.31418	0.17124	0.10348	-2.9479	-3.1437	-3.1354	-3.6021	-3.075	-3.2062	-3.4708	-3.0687	-3.2792	-3.1771	-3.1354	-3.3917	-2.9833	-3.2125	-3.4042	-3.0875	501.448	398.146	256.410	476.612	170.601	436.269	465.940	484.536	396.333	355.727	379.574	187.658	240.338	367.872	233.705	430.413	0.00029267	0.00028971	0.00010855	1336.6	3.901e-06	1.9347e-06	1403.7	288.6	3.3081e-06	3.7825e-06	355.66	100.76	81.082	24.373	3.9578e-06	33.315	0.00036865	0.0004432	0.00012478	1314	5.2329e-06	4.8886e-06	1381.4	286.1	4.9789e-06	4.9368e-06	352.5	101.23	81.354	24.583	4.3212e-06	33.682	226.072	264.810	253.129	177.168	302.892	321.147	177.006	183.689	308.749	337.462	183.832	189.730	189.934	196.853	305.053	196.375	-8191	255	
14437.893	1	1	0	0	0.20128	0.12281	0.12459	0.36194	0.11438	0.381	0.083794	0.20615	0.19284	0.26005	0.061954	0.067756	0.25063	0.15302	0.12111	0.18942	-2.8187	-3.1396	-2.7417	-3.5417	-3.0146	-2.8958	-3.5375	-3.0896	-3.1208	-3.125	-3.1396	-3.3917	-3.2354	-3.0854	-3.25	-3.1542	508.144	179.244	485.648	477.402	439.710	463.158	467.757	432.363	416.118	248.551	377.342	475.002	464.038	412.398	515.181	275.275	0.00028893	0.00033196	9.619e-05	1347.2	2.9927e-06	3.4938e-06	1409.7	291.48	3.9004e-06	4.2607e-06	357.72	101.94	82.045	24.656	3.1051e-06	33.447	0.00035156	0.0004119	0.0001251	1321.5	4.8859e-06	4.7324e-06	1390.6	288.59	5.0115e-06	4.9894e-06	354.95	102	81.929	24.734	4.5098e-06	33.779	227.441	261.483	265.918	176.941	310.328	329.195	177.103	183.688	305.500	323.450	183.370	189.550	189.729	196.527	312.106	196.268	-8191	255	
14437.987	1	1	0	0	0.38513	0.23575	0.19815	0.33177	0.18685	0.11703	0.24172	0.29026	0.17281	0.2973	0.0050562	0.30779	0.091894	0.058187	0.15352	0.047793	-2.7542	-3.1229	-3.0375	-3.4271	-3.0646	-3.0812	-3.6146	-3.1958	-3.2021	-3.2	-3.0563	-3.2583	-2.975	-3.0083	-3.3312	-3.1792	438.584	363.402	413.750	479.068	224.905	428.636	484.661	417.590	202.030	444.296	218.686	475.605	407.448	244.556	171.268	371.608	0.00032538	0.0003923	0.00011296	1342.6	4.1163e-06	2.5897e-06	1408.7	290.79	3.8501e-06	5.0514e-06	357.02	100.86	81.614	24.466	3.1225e-06	33.34	0.00038722	0.00044697	0.00012791	1321.5	5.4491e-06	5.2443e-06	1388.1	288.13	5.2106e-06	5.0553e-06	353.9	101.46	81.427	24.597	4.7717e-06	33.709	226.061	252.233	259.712	177.118	312.607	313.613	176.859	183.522	308.475	334.433	183.446	189.429	189.705	196.437	328.940	196.699	-8191	255	
14438.059	1	1	0	0	0.16721	0.17949	0.073896	0.38683	0.18148	0.027112	0.24616	0.47277	0.059831	0.26136	0.11737	0.26663	0.24495	0.0877	0.19021	0.24175	-2.7354	-3.2896	-3.0958	-3.425	-3.275	-3.1021	-3.2708	-3.2333	-3.0812	-3.4417	-3.0958	-3.3479	-3.1854	-3.0625	-3.2417	-3.1729	449.384	339.274	339.742	486.186	461.630	233.298	461.912	422.143	171.295	489.003	483.734	178.200	207.976	369.962	521.509	261.953	0.00029174	0.00036875	0.00010558	1337.3	3.6041e-06	3.2417e-06	1405	290.04	3.6946e-06	3.3877e-06	356.49	101.32	81.294	24.333	3.5548e-06	33.39	0.0003717	0.00045231	0.00013548	1316.7	5.0968e-06	5.3909e-06	1385.2	287.07	5.1586e-06	4.6028e-06	352.77	101.39	81.242	24.586	4.6202e-06	33.623	226.781	266.338	266.500	177.240	293.251	335.989	176.869	183.705	302.300	331.093	183.342	189.628	189.686	196.522	303.672	196.389	-8191	255	
14438.157	1	1	0	0	0.057544	0.23064	0.18177	0.11112	0.2152	0.14803	0.079389	0.11177	0.030576	0.19187	0.18926	0.26453	0.12411	0.12501	0.44139	0.10933	-2.4833	-3.25	-2.9813	-3.3521	-3.0875	-2.9667	-3.5687	-3.2854	-3.1104	-3.2708	-3.1604	-3.1542	-3.2938	-2.9542	-3.2438	-3.25	311.622	404.194	247.304	458.880	284.715	222.545	479.543	487.483	364.142	402.882	297.044	518.423	230.796	385.451	252.354	474.789	0.00029579	0.00034522	0.00010138	1336.4	2.722e-06	3.4828e-06	1408.9	290.85	3.8248e-06	2.3432e-06	356.88	101.68	81.564	24.6	3.6377e-06	33.442	0.00037499	0.00045859	0.00012598	1314.5	5.0842e-06	5.3044e-06	1384.8	287.77	5.3163e-06	4.7249e-06	353.83	101.7	81.675	24.705	4.6312e-06	33.891	226.772	237.672	266.390	177.019	324.905	314.907	177.084	183.628	298.529	341.593	183.764	189.535	189.851	196.084	307.548	196.079	-8191	255	
14438.276	1	1	0	0	0.20082	0.16063	0.21541	0.14852	0.30084	0.048981	0.34721	0.13779	0.10096	0.046314	0.20833	0.085774	0.18478	0.29191	0.19693	0.13049	-2.5875	-3.4104	-2.9667	-3.2167	-3.3042	-2.9125	-3.3833	-3.1604	-2.9958	-3.2771	-3.2625	-3.3	-3.1937	-2.9062	-3.1437	-3.2729	498.188	295.437	370.190	445.956	443.089	306.360	483.021	499.814	290.795	172.913	508.481	225.041	183.132	290.971	385.710	439.754	0.00030741	0.00037974	9.7798e-05	1340	3.0435e-06	4.3858e-06	1408.2	290.94	3.8197e-06	1.9831e-06	357.02	101.54	82.199	24.521	2.8413e-06	33.371	0.00036828	0.00044121	0.00012703	1316.1	5.0193e-06	5.2263e-06	1385.1	288.21	5.1895e-06	4.8733e-06	354.19	102.06	81.899	24.733	4.6834e-06	33.805	222.693	277.908	263.316	176.999	312.505	307.956	176.718	183.723	300.680	321.173	183.487	189.292	189.779	196.539	314.768	196.654	-8191	255	
14438.372	1	1	0	0	0.31701	0.07836	0.33022	0.20367	0.18246	0.086639	0.13379	0.29877	0.11006	0.064137	0.17311	0.2066	0.16215	0.16896	0.042906	0.22733	-2.7188	-3.2146	-3.0938	-3.3021	-3.2333	-2.9979	-3.3083	-3.3375	-2.9354	-3.225	-3.1604	-3.1604	-3.4292	-3.0479	-3.3167	-3.1646	523.352	404.948	197.447	179.718	288.755	490.520	401.296	473.013	260.730	299.953	494.016	223.171	268.155	224.532	416.362	459.275	0.00029184	0.00041503	8.6427e-05	1341	4.2152e-06	3.9865e-06	1405.2	290.36	3.2834e-06	4.6186e-06	357.17	102	81.65	24.673	3.4318e-06	33.519	0.00036629	0.00046843	0.00012413	1318.9	5.0463e-06	4.8465e-06	1385.8	288.19	5.0873e-06	5.1211e-06	354.75	102.12	81.715	24.79	4.7276e-06	33.919	226.311	260.908	253.489	176.969	308.119	303.166	176.946	183.593	315.053	323.485	183.346	189.426	190.154	196.736	314.935	196.358	-8191	255	
14438.468	1	1	0	0	0.20158	0.1232	0.22636	0.22611	0.11414	0.14807	0.24245	0.15954	0.030684	0.21905	0.03572	0.12611	0.034276	0.073064	0.15718	0.17175	-2.6354	-3.2375	-3.2292	-3.3604	-3.4458	-3.0125	-3.3896	-3.2812	-2.85	-3.2562	-3.3458	-3.3354	-3.3937	-3.1417	-3.2812	-3.5271	445.397	355.583	327.319	431.393	447.871	464.512	473.849	482.287	470.094	481.212	406.106	271.815	419.469	265.706	370.506	380.315	0.00030729	0.0003015	0.00010701	1338.5	3.5837e-06	3.1584e-06	1405.2	291.53	3.2301e-06	3.5902e-06	356.39	101.93	82.091	24.822	2.7752e-06	33.518	0.0003879	0.00043231	0.0001201	1317.8	5.0977e-06	5.0953e-06	1386.8	288.84	4.8494e-06	4.6339e-06	354.79	102.38	82.112	24.947	4.4557e-06	34.002	227.536	266.758	248.548	176.906	311.578	326.152	177.056	183.637	302.754	314.461	183.592	189.492	189.854	196.452	315.533	196.514	-8191	255	
14438.564	1	1	0	0	0.10588	0.13567	0.20025	0.29093	0.11078	0.13289	0.30044	0.091377	0.17444	0.031206	0.22786	0.041154	0.24626	0.053179	0.24252	0.12115	-2.5417	-3.2333	-3.0104	-3.1688	-3.2354	-3.175	-3.3958	-3.2521	-3.1312	-3.2687	-3.1396	-3.0083	-3.35	-3.0083	-3.0917	-3.4104	336.529	414.115	341.030	457.165	371.580	445.938	447.958	431.141	199.301	287.930	170.647	479.708	220.485	487.356	496.574	404.423	0.00030957	0.00043515	0.00010495	1342	4.451e-06	4.2965e-06	1398.6	290.94	3.3668e-06	3.8381e-06	356.15	101.43	81.981	24.567	3.6967e-06	33.613	0.00037708	0.00045838	0.00012258	1316.9	5.0211e-06	5.1157e-06	1382.5	288.46	4.8767e-06	5.0254e-06	354.8	102.04	81.803	24.757	4.6031e-06	33.867	225.498	248.287	242.128	177.116	314.381	313.345	176.932	183.788	302.006	315.495	183.287	189.571	189.711	196.621	324.010	196.453	-8191	255	
14438.685	1	1	0	0	0.087596	0.1035	0.16848	0.30998	0.026292	0.18977	0.14094	0.23955	0.086985	0.1781	0.14053	0.29644	0.14703	0.10007	0.016055	0.11873	-2.6833	-3.1229	-3.2792	-3.3667	-3.3042	-3.2333	-3.1333	-3.4813	-3.0312	-3.1	-3.2646	-3.1437	-3.2771	-3.175	-3.0333	-3.3458	275.840	520.059	291.777	430.089	495.563	366.581	435.959	396.591	221.116	313.765	496.632	256.587	472.736	492.121	249.248	290.025	0.00030832	0.00043707	8.7795e-05	1339.9	3.0891e-06	3.1346e-06	1406.7	290.88	3.1211e-06	3.7872e-06	357.1	101.97	82.145	24.683	3.1529e-06	33.592	0.00037314	0.00043378	0.00012141	1314.4	4.9112e-06	4.8177e-06	1382.5	288.28	4.8644e-06	4.7967e-06	354.14	101.99	81.957	24.821	4.5389e-06	33.92	227.604	251.923	223.944	177.163	296.106	307.320	176.903	183.515	306.583	311.134	183.653	189.251	189.934	196.179	320.452	196.101	-8191	255	
14438.757	1	1	0	0	0.14743	0.16464	0.054046	0.13931	0.040726	0.32249	0.2922	0.24902	0.29797	0.22789	0.12649	0.2761	0.18875	0.41059	0.23001	0.14957	-2.7146	-3.1646	-3.3208	-3.1479	-3.2313	-3.0271	-3.2104	-3.6437	-3.0979	-3.2354	-3.4062	-2.9375	-3.3479	-3.1437	-2.9917	-3.3792	230.062	360.327	358.484	471.067	190.550	368.587	470.100	504.527	516.071	245.353	193.284	474.960	460.513	409.587	266.236	192.860	0.00031532	0.00035524	0.00010117	1334.9	2.9037e-06	3.9268e-06	1402.8	290.88	2.9242e-06	4.3284e-06	356.23	101.66	81.219	24.486	3.207e-06	33.287	0.00038126	0.00044038	0.00011937	1312.7	5.013e-06	4.8093e-06	1381.7	287.84	5.1436e-06	4.7225e-06	353.27	101.62	81.665	24.696	4.7386e-06	33.758	228.453	261.190	267.858	177.012	305.925	322.375	177.127	183.632	297.989	321.963	183.792	189.178	189.773	195.962	301.358	196.480	-8191	255	
14438.877	1	1	0	0	0.1261	0.066207	0.23711	0.44814	0.10578	0.070351	0.24883	0.33325	0.25114	0.23561	0.049176	0.045067	0.07093	0.12207	0.25162	0.16776	-2.4625	-2.9042	-3.2479	-3.3438	-3.2667	-3.1042	-3.2708	-3.4708	-2.9021	-3.0479	-3.4042	-3.0479	-3.3937	-3.2125	-3.0292	-3.2604	176.844	401.378	279.271	492.224	223.384	418.411	481.772	435.339	301.203	227.404	350.388	468.221	198.930	441.574	465.502	502.400	0.00030616	0.00051653	8.8753e-05	1328.7	3.3586e-06	4.7408e-06	1396.7	288.41	4.0415e-06	3.7328e-06	354.3	101.12	81.104	24.457	3.7095e-06	33.245	0.00036554	0.00046068	0.00012048	1308	5.2103e-06	5.1217e-06	1374.7	286.07	4.9666e-06	4.9775e-06	351.61	101.18	81.328	24.599	4.7526e-06	33.616	226.931	268.654	258.368	177.079	299.386	322.620	176.932	183.859	307.599	313.827	183.536	189.645	189.897	196.129	309.634	196.236	-8191	255	
14438.973	1	1	0	0	0.19901	0.12934	0.16713	0.24124	0.22285	0.13616	0.26178	0.46221	0.24274	0.080373	0.095602	0.092582	0.15054	0.081012	0.061035	0.19353	-2.5521	-3.1042	-3.3438	-3.2396	-3.1208	-3.3021	-3.2333	-3.3146	-3.0375	-3.1396	-3.4813	-3.2458	-3.2042	-3.3375	-3.0375	-3.2583	354.568	213.347	227.738	469.886	361.315	483.085	472.014	478.417	225.115	362.272	223.122	481.795	222.778	324.529	508.929	448.958	0.00030833	0.00035461	0.00011526	1330.8	3.3112e-06	4.9809e-06	1397.5	289.01	3.1186e-06	4.2858e-06	354.32	100.64	81.09	24.336	3.3024e-06	33.272	0.00037037	0.00044938	0.0001208	1306.1	4.9752e-06	4.7251e-06	1373.2	285.83	4.756e-06	4.8637e-06	350.88	101.25	80.968	24.592	4.6914e-06	33.575	227.702	261.152	252.960	176.906	310.066	324.811	176.854	183.907	300.857	335.350	183.483	189.561	189.658	196.459	304.120	196.308	-8191	255	
14439.068	1	1	0	0	0.022367	0.15022	0.15845	0.29528	0.10945	0.20572	0.2843	0.1152	0.36474	0.14856	0.11507	0.27126	0.17224	0.1595	0.36033	0.24778	-2.7229	-2.8896	-3.1479	-3.1125	-3.2438	-3.1792	-3.1813	-3.5833	-3.1937	-3.1979	-3.2854	-3.1542	-3.2062	-3.2167	-2.8771	-3.3292	169.910	341.441	247.995	487.746	343.062	409.920	464.237	168.681	228.536	249.119	504.807	203.303	521.093	224.047	373.889	180.187	0.00030419	0.00044692	0.00010173	1329.7	4.194e-06	3.3509e-06	1392.2	288.84	3.2753e-06	3.7512e-06	354.89	101.08	81.559	24.425	2.7923e-06	33.047	0.0003655	0.00042781	0.00011717	1305.3	5.3807e-06	4.7684e-06	1374.4	286.03	4.9313e-06	4.9272e-06	350.85	101.07	81.411	24.616	4.6975e-06	33.588	226.752	245.348	254.072	177.067	299.355	314.569	177.081	183.482	304.340	311.100	183.556	189.427	189.835	196.312	320.550	196.193	-8191	255	
14439.164	1	1	0	0	0.21357	0.042134	0.15145	0.38867	0.19737	0.1977	0.46651	0.36496	0.069508	0.12452	0.075503	0.094137	0.15908	0.16574	0.33681	0.12804	-2.7875	-3.0458	-3.2375	-3.1083	-3.0292	-3.3833	-3.1854	-3.3312	-3.2417	-3.0208	-3.2417	-3.15	-2.9792	-3.3646	-3.0208	-3.4458	217.554	298.262	253.917	496.136	230.659	467.127	474.212	445.229	230.610	354.380	224.209	502.604	507.725	517.791	460.247	215.263	0.00029349	0.00037196	0.00010479	1327.2	2.9955e-06	4.2901e-06	1394.9	288.42	3.898e-06	3.4426e-06	354.42	101.23	81.155	24.422	3.9634e-06	33.321	0.00035992	0.00043483	0.00011697	1306.5	4.9932e-06	4.474e-06	1374.5	285.99	4.593e-06	4.8123e-06	351.71	101.49	81.211	24.626	4.6142e-06	33.617	226.573	245.602	258.105	177.173	296.876	309.084	176.883	183.688	302.482	328.947	183.779	189.404	189.759	196.397	301.138	196.369	-8191	255	
14439.285	1	1	0	0	0.087237	0.045008	0.17187	0.076169	0.2263	0.02101	0.1993	0.18822	0.34946	0.16845	0.086992	0.17226	0.1284	0.17296	0.21235	0.29261	-2.7479	-3.0292	-3.1604	-3.3792	-3.0646	-3.2771	-3.3021	-3.3104	-3.2583	-2.975	-3.4354	-3.3021	-3.0792	-3.4167	-2.9917	-3.2896	512.383	404.411	415.680	440.866	483.015	494.585	187.179	439.681	235.608	167.788	456.696	227.791	493.633	186.469	240.396	505.146	0.00029476	0.00050687	9.1166e-05	1330.1	3.3143e-06	3.3249e-06	1395	289.04	3.7689e-06	4.1109e-06	355.09	100.61	80.782	24.307	3.1948e-06	33.117	0.00035941	0.00044174	0.00011793	1306	4.9409e-06	4.4656e-06	1373.5	285.74	4.5454e-06	4.7452e-06	351.58	101.08	81.077	24.574	4.5781e-06	33.614	225.658	251.655	264.590	176.961	305.051	322.951	177.056	183.640	305.327	328.647	183.533	189.085	189.793	196.230	308.624	196.347	-8191	255	
14439.356	1	1	0	0	0.099725	0.10771	0.26157	0.31353	0.22309	0.038788	0.43136	0.064711	0.274	0.050271	0.13055	0.21477	0.18178	0.14986	0.20974	0.16547	-2.9188	-3.1125	-3.2792	-3.1521	-2.8979	-3.2667	-3.3312	-3.3125	-3.2313	-2.8896	-3.4667	-3.1458	-3.1583	-3.3312	-3.1188	-3.1104	183.047	429.884	451.985	473.691	260.687	463.931	501.515	213.416	173.476	474.706	400.920	209.040	470.901	439.591	253.227	242.923	0.00029749	0.00024771	0.00013347	1331.1	4.092e-06	4.4339e-06	1393.3	287.71	3.4598e-06	4.1376e-06	353.49	100.59	81.082	24.357	3.6448e-06	33.103	0.00036533	0.00041881	0.00011308	1307.4	5.0013e-06	4.492e-06	1373.4	285.5	4.6106e-06	5.0457e-06	350.46	100.79	80.963	24.546	4.3995e-06	33.572	226.256	260.753	270.648	177.054	300.576	321.812	176.912	183.725	306.636	322.795	183.627	189.217	189.786	196.631	326.099	196.222	-8191	255	
14439.452	1	1	0	0	0.3315	0.054316	0.20016	0.28917	0.27695	0.18842	0.13147	0.11127	0.1314	0.22389	0.19682	0.22288	0.1946	0.14548	0.11718	0.033382	-2.9188	-2.8854	-3.2042	-3.4125	-3.0438	-3.2333	-3.3396	-3.1458	-3.4125	-3.0667	-3.3792	-3.2083	-3.0333	-3.1333	-2.9875	-3.2042	468.034	397.417	409.332	488.703	370.383	474.832	505.500	519.630	185.957	245.926	495.115	496.839	296.171	500.615	491.662	388.573	0.00031075	0.00042428	0.00010138	1326.4	3.7322e-06	3.1354e-06	1391.5	287.6	3.5636e-06	3.8144e-06	354.07	100.76	80.521	24.459	3.0168e-06	33.202	0.00036752	0.00045398	0.00012062	1302.7	4.9797e-06	4.3418e-06	1372.6	285.16	4.6194e-06	4.501e-06	350.56	100.91	80.839	24.561	4.3433e-06	33.561	227.370	258.705	264.136	176.930	305.752	317.741	176.988	183.751	303.164	308.989	183.617	189.635	189.967	196.495	311.036	196.458	-8191	255	
14439.573	1	1	0	0	0.084126	0.079489	0.10822	0.23951	0.12593	0.1157	0.13043	0.18597	0.14712	0.12676	0.076417	0.09102	0.15844	0.21174	0.046203	0.13502	-2.9083	-2.9583	-3.2646	-3.425	-3.0438	-3.4104	-3.3187	-3.0229	-3.3396	-2.9896	-3.4583	-3.2375	-3.1396	-3.2833	-3.1312	-3.0271	401.690	484.490	512.326	480.625	396.066	171.497	472.225	448.223	357.660	373.034	449.025	369.377	478.843	172.640	189.202	390.618	0.00029426	0.00033355	8.2523e-05	1325.1	4.0538e-06	2.3268e-06	1390.1	286.76	3.3315e-06	3.6876e-06	354.43	100.67	80.776	24.408	3.358e-06	33.298	0.00035971	0.00042028	0.00011711	1303.9	5.1545e-06	4.6398e-06	1370.8	284.91	4.5331e-06	4.5884e-06	351.26	100.9	81.002	24.585	4.4095e-06	33.614	224.325	277.349	259.739	177.057	303.588	310.790	176.949	183.806	300.864	311.827	183.734	189.289	190.012	196.569	295.531	196.574	-8191	255	
14439.669	1	1	0	0	0.22435	0.066668	0.19335	0.40185	0.031526	0.082404	0.14866	0.061807	0.10141	0.26525	0.032583	0.22015	0.1696	0.22717	0.20809	0.090061	-2.7583	-3.0104	-2.9667	-3.5417	-2.9125	-3.1875	-3.4292	-3.1604	-3.3458	-3.0229	-3.225	-3.3396	-3.0333	-3.2833	-3.0896	-3.0583	211.728	372.275	399.036	483.862	173.032	418.688	480.059	473.893	343.552	434.659	274.514	470.637	404.709	505.401	435.471	485.769	0.00031475	0.0002541	9.8338e-05	1325.7	2.712e-06	3.7076e-06	1394.3	289.53	3.2687e-06	3.5186e-06	353.33	100.35	80.851	24.454	2.5321e-06	33.3	0.00036475	0.0004074	0.00011735	1303.5	4.9382e-06	4.7888e-06	1373	285.85	4.8062e-06	4.7967e-06	351.23	101.1	81.037	24.677	4.7165e-06	33.656	226.517	264.762	246.153	177.017	301.009	293.601	176.889	183.725	289.443	328.044	183.403	189.342	189.781	196.293	314.694	196.362	-8191	255	
14439.765	1	1	0	0	0.18095	0.035978	0.22477	0.36218	0.16444	0.098166	0.27987	0.15403	0.11521	0.11985	0.1712	0.14484	0.28996	0.1547	0.10607	0.32955	-2.725	-2.9083	-3.1	-3.5792	-2.9583	-3.2396	-3.3146	-3.05	-3.3542	-3.1667	-3.2333	-3.2583	-3.0104	-3.0375	-3.1312	-3.0792	171.156	431.593	440.138	396.971	452.140	264.998	459.451	482.202	365.603	298.971	457.242	186.490	509.641	294.548	438.905	498.894	0.00029941	0.00030092	0.00010253	1326.8	3.4128e-06	3.0382e-06	1394.4	287.74	3.8719e-06	3.4183e-06	354.21	101.52	80.816	24.39	3.7534e-06	33.369	0.00037126	0.00042823	0.00011884	1304.2	5.0427e-06	4.4403e-06	1373.5	285.46	4.5463e-06	4.8099e-06	350.96	101.44	81.142	24.631	4.4557e-06	33.659	226.365	242.308	255.076	177.096	304.642	309.627	177.070	183.653	303.648	321.835	183.645	189.167	189.664	196.560	313.730	196.393	-8191	255	
14439.861	1	1	0	0	0.23445	0.17317	0.18721	0.20291	0.27174	0.05449	0.21383	0.11615	0.14241	0.13313	0.066747	0.19272	0.17482	0.27703	0.095502	0.17097	-2.8375	-2.8688	-2.9979	-3.3292	-3.0771	-3.1521	-3.4792	-3.0104	-3.1271	-3.1646	-3.0583	-3.3521	-3.1146	-3.0354	-3.1771	-3.0812	387.036	392.819	215.862	472.606	329.818	217.927	469.906	481.833	180.135	185.645	427.330	166.894	464.690	481.762	466.865	430.186	0.00029488	0.00029295	0.00010826	1328.6	3.5688e-06	4.4825e-06	1387.4	288.31	4.0592e-06	2.925e-06	353.3	100.7	80.687	24.382	2.6355e-06	33.268	0.00035937	0.00041222	0.0001225	1305.1	5.1256e-06	4.3274e-06	1371.5	285.36	4.7392e-06	4.6411e-06	351.24	101.02	80.917	24.63	4.0594e-06	33.642	226.339	265.434	257.547	177.090	305.484	321.540	176.854	183.711	298.413	316.085	183.546	189.398	189.855	196.450	305.210	196.421	-8191	255	
14439.958	1	1	0	0	0.31895	0.26524	0.17264	0.11678	0.051483	0.14573	0.47731	0.10522	0.34377	0.17775	0.41259	0.098769	0.084035	0.10593	0.32307	0.20717	-2.8688	-3.1333	-2.9437	-3.4021	-2.8563	-3.0021	-3.4188	-2.9854	-3.2583	-3.3125	-3.0521	-3.3688	-3.1375	-3.1604	-3.2958	-3.125	520.233	395.839	229.135	203.553	484.849	333.972	479.590	262.231	188.498	442.522	500.261	494.201	305.580	487.491	403.325	485.149	0.00028296	0.00037061	0.00011339	1327.1	4.6197e-06	3.5593e-06	1393.2	287.45	3.6339e-06	3.3826e-06	353.25	101.33	80.708	24.396	4.177e-06	33.233	0.00035495	0.00046225	0.00011624	1304	5.0364e-06	4.9571e-06	1372.9	285.31	4.7921e-06	4.5441e-06	350.93	101.15	81.041	24.625	4.259e-06	33.728	226.733	258.300	271.292	176.994	302.141	316.789	177.124	183.613	310.614	323.124	183.631	189.250	189.811	196.192	315.574	196.454	-8191	255	
14440.052	1	1	0	0	0.18622	0.26662	0.12267	0.26948	0.068843	0.31193	0.32163	0.050916	0.19994	0.16088	0.035373	0.23641	0.29705	0.24268	0.14675	0.1097	-2.6958	-3.075	-2.925	-3.4917	-3.1208	-3.0333	-3.5854	-3.2729	-3.2438	-3.1229	-3.175	-3.4313	-3.1437	-3.2208	-3.3521	-3.1917	212.534	367.897	193.057	448.641	302.716	492.825	436.731	360.136	324.315	439.166	269.663	481.992	345.015	338.903	492.505	191.052	0.00029551	0.00039045	0.00011189	1328.7	3.2826e-06	4.4023e-06	1394.2	288.16	3.111e-06	4.6156e-06	354.85	101.35	80.932	24.379	2.4822e-06	33.334	0.00036112	0.00042677	0.00012255	1304.5	5.0004e-06	4.9895e-06	1372.1	285.39	4.7348e-06	4.6686e-06	350.84	101.32	81.263	24.638	4.2359e-06	33.713	225.845	248.211	256.796	177.094	316.736	322.185	176.932	183.571	313.730	329.253	183.372	189.332	189.759	196.372	307.834	196.639	-8191	255	
14440.148	1	1	0	0	0.18215	0.034401	0.15529	0.24574	0.12289	0.25856	0.15089	0.10423	0.16777	0.16207	0.17081	0.21786	0.17762	0.074959	0.066863	0.11467	-2.5833	-3.0979	-3.0729	-3.3208	-3.1542	-3.1312	-3.3937	-3.2	-3.2188	-3.1646	-3.2188	-3.275	-3.25	-3.0167	-2.9771	-2.925	436.057	507.759	265.681	469.083	230.753	412.107	523.861	480.774	243.507	288.997	445.979	339.681	175.701	278.888	254.210	465.533	0.000289	0.00030981	8.9973e-05	1324.4	4.0467e-06	3.9143e-06	1391.5	288.83	3.5516e-06	3.0913e-06	352.51	101.27	81.052	24.466	3.5102e-06	33.45	0.00036187	0.00043022	0.0001227	1302.7	4.9761e-06	4.7288e-06	1371.8	285.82	4.8388e-06	4.6255e-06	351.19	101.44	81.342	24.733	4.6082e-06	33.76	224.924	269.087	257.279	177.125	305.114	332.541	176.902	183.654	303.314	316.629	183.249	189.428	189.729	196.196	319.637	196.241	-8191	255	
14440.244	1	1	0	0	0.069667	0.097653	0.1524	0.3285	0.099445	0.23407	0.24218	0.159	0.13643	0.31936	0.19197	0.41273	0.24692	0.22588	0.060819	0.044205	-2.6583	-3.2458	-2.9208	-3.4833	-3.1937	-3.0687	-3.4729	-3.0187	-3.1688	-3.1521	-3.2625	-3.2375	-3.0917	-2.9958	-3.3854	-3.1958	493.674	234.441	269.681	498.703	346.830	454.154	413.970	469.878	245.099	368.086	447.037	476.837	468.710	397.854	479.929	322.552	0.00029633	0.00034309	7.8338e-05	1331.2	3.6497e-06	2.9923e-06	1393	288.67	3.5109e-06	4.573e-06	354.25	101.83	81.299	24.582	3.4793e-06	33.286	0.00036691	0.00040363	0.00011975	1305.5	4.7913e-06	4.5593e-06	1374.6	286.43	4.8458e-06	4.8183e-06	352.07	101.83	81.689	24.819	4.4286e-06	33.803	225.071	262.331	263.518	177.143	310.173	317.829	176.949	183.794	311.263	312.673	183.488	189.478	189.828	196.055	302.263	196.095	-8191	255	
14440.365	1	1	0	0	0.16855	0.15769	0.056432	0.30532	0.12065	0.055863	0.36595	0.13015	0.11356	0.10595	0.17544	0.10936	0.1052	0.19813	0.18581	0.29124	-2.5625	-3.125	-3.0083	-3.4417	-3.3563	-3.1083	-3.4604	-3.2687	-3.1229	-3.4417	-3.175	-3.2896	-3.2438	-3.1521	-3.2313	-3.1625	342.528	324.175	518.616	524.821	294.276	436.260	453.533	426.902	170.465	519.044	421.670	246.288	396.882	440.837	434.124	449.931	0.00032484	0.00035162	8.6528e-05	1328.1	3.0302e-06	4.0459e-06	1396.9	290.77	2.4232e-06	3.7108e-06	355.07	101.51	81.348	24.74	2.5836e-06	33.469	0.00037187	0.00041389	0.00012633	1304.7	4.9598e-06	5.0989e-06	1376.9	287.29	4.7375e-06	4.5848e-06	352.44	101.8	81.68	24.853	4.3614e-06	33.886	224.917	266.561	248.110	177.186	318.745	318.094	177.071	183.646	300.017	307.410	183.314	189.516	189.894	196.040	330.005	196.537	-8191	255	
14440.459	1	1	0	0	0.15473	0.14507	0.11765	0.16919	0.13135	0.29046	0.17591	0.10207	0.07692	0.13825	0.10044	0.23162	0.091081	0.22651	0.10544	0.20395	-2.5979	-3.4375	-2.9625	-3.1979	-3.2188	-2.8833	-3.5229	-3.2604	-2.9771	-3.3438	-3.2062	-3.1896	-3.1458	-2.8688	-3.2375	-3.1667	284.331	199.766	223.059	453.568	465.562	447.509	401.623	457.022	305.951	342.555	435.477	479.270	219.529	397.842	177.212	341.651	0.00030109	0.00031165	0.00012634	1335.1	2.6971e-06	2.868e-06	1398.4	290.04	3.5045e-06	3.8313e-06	357.28	101.52	81.779	24.678	4.3721e-06	33.445	0.00037478	0.00041776	0.00012466	1309.3	4.8202e-06	5.022e-06	1379	287.16	4.8467e-06	4.5489e-06	353.41	101.61	81.983	24.883	4.4898e-06	33.91	226.976	251.780	250.795	177.000	310.213	306.526	177.076	183.846	311.239	326.194	183.683	189.147	189.949	196.267	307.942	196.056	-8191	255	
14440.556	1	1	0	0	0.25227	0.39335	0.11305	0.29656	0.025644	0.19171	0.034219	0.20998	0.27173	0.069405	0.21158	0.12826	0.18346	0.21601	0.14208	0.092842	-2.5104	-3.3187	-2.9417	-3.2771	-3.1104	-2.9979	-3.2062	-3.3604	-2.9729	-3.3208	-3.2167	-3.0792	-3.1479	-3.0604	-2.9521	-3.2354	439.511	202.925	406.514	195.738	272.536	397.767	186.603	475.411	509.697	505.627	387.637	371.694	180.497	179.851	494.682	502.426	0.0002947	0.00037164	0.00010094	1334	3.9457e-06	3.9208e-06	1397.3	290.27	3.8881e-06	2.4684e-06	353.91	101.29	81.367	24.555	2.3005e-06	33.402	0.00036629	0.00042656	0.00012542	1310.4	4.9445e-06	5.0268e-06	1377	287.02	4.956e-06	4.6578e-06	351.61	101.56	81.536	24.73	4.3102e-06	33.754	227.946	259.636	262.894	176.920	309.218	317.421	177.047	183.776	310.324	317.660	183.592	189.512	189.657	196.465	310.360	196.361	-8191	255	
14440.652	1	1	0	0	0.058155	0.082649	0.26559	0.30214	0.18227	0.17274	0.28826	0.3635	0.27457	0.066795	0.22521	0.17523	0.23911	0.038945	0.1898	0.08067	-2.6312	-3.175	-3.0979	-3.25	-3.1688	-3.0521	-3.3688	-3.2438	-2.9979	-3.3896	-3.1583	-3.0958	-3.2125	-3.0604	-3.2146	-3.3354	221.881	323.028	305.722	481.453	448.192	446.281	486.383	475.073	443.010	279.781	500.205	340.974	501.404	306.983	379.030	510.530	0.00031253	0.00035257	7.5731e-05	1323.6	3.4748e-06	3.4904e-06	1395.1	288.83	3.7532e-06	3.8623e-06	356.13	101.15	80.944	24.343	4.0674e-06	33.392	0.00037321	0.00041504	0.00011834	1304.4	4.9022e-06	4.8357e-06	1373.6	285.81	4.7304e-06	4.768e-06	351.57	101.3	81.01	24.569	4.4607e-06	33.717	227.725	261.604	245.735	177.213	304.849	313.313	176.950	183.744	304.686	318.711	183.562	189.414	189.671	196.363	321.345	196.520	-8191	255	
14440.748	1	1	0	0	0.14549	0.21135	0.17879	0.31359	0.094209	0.09349	0.16452	0.41214	0.20071	0.2308	0.045732	0.16845	0.057527	0.15925	0.2562	0.078726	-2.5021	-3.0854	-3.1833	-3.2896	-2.9813	-3.1146	-3.2875	-3.3521	-2.9083	-3.2438	-3.2313	-3.0312	-3.4417	-3.0229	-2.8583	-3.2208	298.556	392.998	309.336	462.994	178.186	344.167	169.792	475.201	356.102	362.191	317.712	473.655	464.501	253.216	202.091	309.431	0.00029992	0.00041181	9.8891e-05	1327.8	2.6541e-06	3.7723e-06	1390.3	287.13	3.8742e-06	3.0979e-06	352.91	99.775	80.69	24.211	3.3463e-06	32.915	0.00036468	0.00041138	0.00013291	1301.9	4.9319e-06	4.9679e-06	1370.9	284.67	4.8441e-06	4.4723e-06	349.56	100.52	80.54	24.404	4.5399e-06	33.38	223.657	269.343	272.175	177.052	319.780	322.097	176.921	183.848	303.975	303.182	183.393	189.414	190.068	196.232	316.190	196.480	-8191	255	
14440.844	1	1	0	0	0.18897	0.19907	0.099962	0.26979	0.27809	0.13527	0.41664	0.23675	0.14887	0.22062	0.26105	0.18622	0.32099	0.17575	0.16154	0.20008	-2.3604	-3.175	-3.1937	-3.125	-3.1521	-3.1083	-3.3542	-3.4146	-3.1042	-3.2	-3.1771	-3.0396	-3.4583	-3.2208	-3.0312	-3.2979	337.259	342.307	353.264	485.616	252.130	497.021	451.002	189.514	184.018	259.710	433.547	475.821	422.561	192.417	388.670	499.447	0.00030051	0.00034655	9.9848e-05	1322.9	3.6563e-06	4.5652e-06	1387	285.54	3.4254e-06	3.5691e-06	350.5	99.516	80.579	24.026	3.2348e-06	33.145	0.00036471	0.00045178	0.00012165	1299	4.803e-06	4.8081e-06	1366.5	283.04	4.9666e-06	4.6578e-06	348.37	100.06	80.231	24.256	4.4817e-06	33.284	225.818	264.592	262.184	176.928	307.321	330.113	177.052	183.786	319.618	318.624	183.642	189.827	189.795	196.635	338.399	196.500	-8191	255	
14440.965	1	1	0	0	0.21775	0.1173	0.1136	0.1505	0.26305	0.046796	0.080087	0.19308	0.1424	0.092903	0.20208	0.22269	0.27994	0.33023	0.22831	0.081292	-2.5625	-3.2604	-3.1542	-3.1625	-3.2479	-3.075	-3.2687	-3.3729	-2.9833	-3.0354	-3.2938	-2.9875	-3.175	-3.2125	-3.0792	-3.2083	305.521	352.915	337.015	461.822	501.497	476.168	186.753	182.138	237.332	398.875	476.542	428.720	300.864	216.040	486.138	495.185	0.00029987	0.00028102	8.0934e-05	1323.5	2.5065e-06	3.5669e-06	1377.3	283.64	3.2534e-06	3.9651e-06	350.3	99.419	79.423	23.942	2.9219e-06	32.807	0.00036187	0.00040929	0.00011589	1298.8	4.8679e-06	4.5629e-06	1361.8	281.76	4.8705e-06	4.6962e-06	347.18	99.642	79.723	24.066	4.5078e-06	33.142	226.367	258.827	239.583	177.028	317.482	322.761	176.911	183.728	289.523	323.214	183.513	189.614	189.795	196.520	318.981	196.299	-8191	255	
14441.061	1	1	0	0	0.21416	0.023314	0.1767	0.33613	0.065773	0.067202	0.2594	0.19957	0.41564	0.40701	0.19728	0.19005	0.029964	0.17393	0.060427	0.049931	-2.5229	-3.1458	-3.2167	-3.0812	-3.2458	-3.0396	-3.1917	-3.4354	-3.0396	-3.1729	-3.4	-3.0917	-3.1354	-3.0229	-2.975	-3.2812	460.174	516.281	474.614	467.072	264.169	451.940	426.111	287.486	489.929	206.063	457.633	469.372	474.179	354.541	349.118	435.061	0.00029704	0.00031807	9.0475e-05	1316.5	2.157e-06	3.9531e-06	1380.8	283.15	3.2173e-06	4.0503e-06	349.36	99.139	79.673	23.895	3.1246e-06	32.733	0.00035838	0.00041745	0.00011273	1294.7	4.6814e-06	4.7203e-06	1360.4	281.09	4.4811e-06	4.8398e-06	345.81	99.234	79.474	24.039	4.7205e-06	33.078	226.066	243.105	260.359	177.090	300.364	323.021	176.967	183.790	298.796	311.418	183.254	189.550	190.066	197.037	310.329	196.562	-8191	255	
14441.157	1	1	0	0	0.1364	0.35372	0.18972	0.25922	0.036929	0.11912	0.11475	0.29633	0.079478	0.10906	0.099528	0.078246	0.39081	0.16722	0.17374	0.39863	-2.7979	-3.0167	-3.2667	-3.0938	-3.3	-3.1312	-3.0667	-3.3896	-3.0771	-3.0979	-3.2021	-2.9375	-2.9562	-3.2792	-3.0958	-3.2854	359.998	371.246	514.153	475.066	315.490	287.754	510.186	431.784	177.241	264.565	379.857	312.552	472.001	368.753	212.970	179.459	0.00030083	0.00034044	9.962e-05	1315.6	3.2138e-06	3.0897e-06	1378.4	284.02	3.5796e-06	3.1264e-06	348.48	98.428	79.337	23.874	3.5348e-06	32.798	0.00035358	0.00044048	0.00011802	1290.3	4.7958e-06	4.5341e-06	1359	280.93	4.9022e-06	4.774e-06	345.1	99.121	79.251	24.052	4.5149e-06	33.055	228.248	228.016	263.199	176.862	297.818	316.889	176.921	183.790	307.861	338.704	183.564	189.496	189.937	196.739	296.455	196.663	-8191	255	
14441.229	1	1	0	0	0.17198	0.16942	0.18743	0.28406	0.23613	0.075243	0.32415	0.19138	0.33819	0.066623	0.069552	0.15485	0.38123	0.20363	0.29339	0.11083	-2.6875	-2.9604	-3.2687	-3.2375	-3.0479	-3.2	-3.2792	-3.4417	-3.1521	-2.7313	-3.3583	-3.0646	-3.1792	-3.1792	-2.875	-3.2771	482.688	383.866	218.419	206.396	516.773	270.394	471.044	491.825	365.621	370.095	196.828	343.120	253.924	461.481	188.122	233.123	0.00028228	0.00029279	9.0891e-05	1313	2.9026e-06	4.0172e-06	1379.8	281.99	3.2552e-06	4.914e-06	347.82	98.487	79.166	23.831	3.4742e-06	32.757	0.00035399	0.00043525	0.0001172	1291.4	4.8859e-06	4.5461e-06	1358.4	279.53	4.6784e-06	4.6854e-06	344.52	98.9	79.254	23.885	4.6142e-06	32.998	227.834	272.944	273.963	177.033	315.737	323.185	176.957	183.710	304.952	315.977	183.483	189.582	190.140	196.740	302.794	196.581	-8191	255	
14441.349	1	1	0	0	0.34797	0.15333	0.18838	0.12048	0.19817	0.095132	0.19301	0.16985	0.075737	0.089816	0.27597	0.094544	0.26554	0.075091	0.10578	0.02029	-2.7313	-2.8312	-3.1104	-3.1042	-3.1188	-3.1896	-3.1646	-3.2896	-3.0583	-3.0333	-3.3125	-3.0271	-3.1958	-3.35	-2.9625	-3.3125	394.600	451.441	220.598	396.241	249.207	267.692	447.182	487.141	270.748	524.377	500.050	214.864	467.943	429.935	513.826	519.725	0.00030129	0.00037123	0.0001076	1312.6	3.258e-06	2.8689e-06	1379.4	281.61	3.1913e-06	3.3011e-06	345.98	98.173	78.933	23.657	3.2978e-06	32.69	0.00036156	0.00042373	0.00011837	1288.4	5.0923e-06	4.2925e-06	1355	278.92	4.4873e-06	4.7776e-06	343.16	98.57	78.851	23.818	4.2369e-06	32.94	227.322	250.395	262.593	177.057	305.910	306.371	177.081	183.952	292.104	316.145	183.697	189.370	190.024	196.945	315.311	196.734	-8191	255	
14441.444	1	1	0	0	0.082988	0.095044	0.13397	0.19811	0.177	0.18524	0.17788	0.22793	0.031621	0.14056	0.29197	0.098065	0.25557	0.035363	0.061866	0.042155	-2.7979	-2.6771	-3.1458	-2.9625	-2.9667	-3.2687	-3.025	-3.1125	-3.0667	-2.8667	-3.1271	-3.1292	-2.9333	-3.2354	-2.9958	-3.125	219.696	397.181	383.839	495.677	212.192	518.226	368.601	352.100	209.732	437.365	469.687	289.486	251.970	335.331	184.310	373.022	0.00030102	0.00033418	0.00010018	1309	3.2646e-06	3.4601e-06	1371	281.46	3.7522e-06	4.3015e-06	344.68	98.313	78.297	23.649	3.9815e-06	32.582	0.00036605	0.00041138	0.00011393	1283.1	4.8039e-06	4.3418e-06	1351.6	278.43	4.7022e-06	4.6567e-06	343.08	98.598	78.966	23.883	4.5971e-06	32.949	225.540	260.266	251.637	177.065	312.365	321.972	176.881	183.731	303.043	329.945	183.378	189.496	189.904	196.568	318.134	196.474	-8191	255	
14441.540	1	1	0	0	0.23272	0.082341	0.11548	0.23974	0.069774	0.089556	0.28135	0.14364	0.2234	0.060117	0.23994	0.12201	0.17234	0.15005	0.090713	0.076276	-2.8417	-2.9437	-3.0896	-3.2479	-2.9625	-3.15	-3.0167	-3.2146	-3.3063	-2.9458	-3.2771	-3.275	-2.8771	-3.1958	-3.0687	-3.0521	209.856	403.029	190.495	454.084	432.328	483.014	450.665	472.764	498.319	380.516	184.315	454.615	240.037	237.478	511.846	217.540	0.0002981	0.00039698	0.00011884	1307.4	3.1371e-06	2.6762e-06	1370.2	280.49	3.4324e-06	3.3713e-06	347.31	98.505	79.339	23.672	3.6968e-06	32.385	0.00036088	0.00042394	0.00011562	1282.3	5.0202e-06	4.4019e-06	1351.3	278.27	4.437e-06	4.6052e-06	343.26	98.776	79.065	23.884	4.5389e-06	32.888	226.376	257.925	266.654	177.160	310.117	314.681	177.019	183.789	305.952	319.408	183.738	189.892	189.888	196.459	318.861	196.868	-8191	255	
14441.638	1	1	0	0	0.15385	0.24231	0.12853	0.40897	0.077887	0.072626	0.16965	0.12067	0.049934	0.20429	0.054968	0.13993	0.036281	0.13742	0.13993	0.065789	-2.7687	-2.7354	-3.2146	-3.2167	-2.8812	-3.1104	-3.2438	-3.2604	-3.2625	-2.7875	-3.1792	-3.3542	-2.95	-3.1646	-3.0667	-2.9625	521.949	394.226	404.484	452.430	330.380	269.037	456.642	490.487	199.327	428.770	424.270	356.153	463.914	169.485	428.397	245.381	0.00029765	0.00035809	9.9058e-05	1310	3.0661e-06	4.6622e-06	1371.2	282.08	3.2017e-06	4.4543e-06	347.59	98.446	78.875	23.706	3.0206e-06	32.539	0.00034581	0.00041452	0.00011197	1285.9	4.7174e-06	4.4451e-06	1352	279.09	4.5833e-06	4.9009e-06	344.29	98.753	79.034	23.947	4.2951e-06	32.89	227.247	268.888	255.097	177.023	305.080	316.077	177.059	183.970	309.603	308.346	183.596	189.621	189.885	197.166	310.538	196.782	-8191	255	
14441.757	1	1	0	0	0.10859	0.15258	0.26602	0.1537	0.15384	0.1553	0.25727	0.11966	0.049806	0.11182	0.082593	0.048482	0.14542	0.28979	0.22664	0.23887	-2.8333	-2.9083	-3.1354	-3.3667	-2.9437	-3.3125	-3.3667	-3.1688	-3.5833	-3.0375	-3.2271	-3.5396	-3.0208	-3.0396	-3.2042	-3.0187	268.543	241.501	357.004	513.050	201.831	344.754	492.524	433.355	283.126	245.120	192.313	231.958	463.451	396.932	516.818	372.610	0.00030288	0.00026791	0.00010042	1309	3.3499e-06	3.1954e-06	1373	281.28	2.8911e-06	3.7086e-06	346.41	98.928	79.041	23.728	2.6987e-06	32.564	0.0003541	0.00041881	0.0001215	1284.5	4.9535e-06	4.2529e-06	1351.7	278.99	4.3859e-06	4.5429e-06	343.62	98.916	79.095	23.929	4.5038e-06	32.97	227.854	251.048	251.242	177.244	311.785	318.082	176.961	183.683	307.941	327.792	183.596	189.571	189.974	196.774	327.472	196.880	-8191	255	
14441.853	1	1	0	0	0.10209	0.13441	0.02332	0.26285	0.23612	0.1478	0.27917	0.23333	0.19697	0.096338	0.24785	0.32966	0.16093	0.17352	0.18132	0.041263	-2.7396	-3.0062	-3.0104	-3.6396	-2.9938	-3.2854	-3.2021	-3.2896	-3.1583	-2.9688	-3.0812	-3.2771	-2.9208	-3.0542	-3.1188	-2.9146	285.952	262.794	485.497	479.668	476.335	278.334	481.790	421.561	298.600	197.044	446.157	196.948	420.387	298.545	223.473	312.162	0.00029701	0.00039008	0.00010589	1309.1	3.1869e-06	3.3485e-06	1370.4	281.18	3.3195e-06	4.087e-06	347.28	98.361	78.971	23.91	3.2901e-06	32.826	0.00035687	0.00040426	0.00011223	1283.7	4.958e-06	4.5401e-06	1350.5	279.04	4.6802e-06	4.4555e-06	343.42	98.853	79.205	24.05	4.3834e-06	33.147	224.566	252.687	262.209	177.167	316.302	307.798	176.888	183.890	293.605	314.696	183.521	189.414	189.783	196.713	321.651	196.567	-8191	255	
14441.924	1	1	0	0	0.039006	0.18896	0.15681	0.15283	0.20058	0.16638	0.32393	0.14038	0.028827	0.087412	0.093813	0.17031	0.1845	0.17524	0.079211	0.14219	-2.8521	-2.9375	-3.025	-3.4646	-3.025	-3.0167	-3.4313	-3.1875	-3.35	-2.9708	-3.0458	-3.4708	-3.0375	-3.1292	-3.1437	-3.175	487.313	463.784	519.336	402.354	196.287	307.566	453.190	459.064	440.306	391.165	457.569	372.908	520.195	388.225	397.213	521.772	0.00027314	0.00045843	0.00011226	1309.5	3.5565e-06	3.9166e-06	1375.4	284.37	2.9657e-06	4.0255e-06	348.76	99.62	79.82	24.032	3.319e-06	32.718	0.00034533	0.00041996	0.00011934	1287	4.9463e-06	4.8946e-06	1354.2	280.86	4.5947e-06	4.8877e-06	345.82	99.595	79.866	24.24	4.4005e-06	33.189	225.103	260.838	252.976	177.012	302.812	315.335	176.967	183.918	310.812	320.948	183.407	189.455	189.808	196.533	321.356	196.524	-8191	255	
14442.045	1	1	0	0	0.096909	0.36261	0.10947	0.1631	0.082481	0.17418	0.24811	0.32733	0.21568	0.067677	0.16807	0.1095	0.049915	0.15489	0.029989	0.18388	-2.9021	-3.0479	-2.9938	-3.5104	-3.1208	-3.2188	-3.4979	-3.2188	-3.1625	-3.1917	-2.8187	-3.3125	-3.0187	-3.175	-3.3187	-3.0958	341.744	238.025	240.963	418.044	380.383	493.429	470.414	478.802	393.476	508.129	186.046	492.924	315.150	413.105	448.230	484.497	0.00028883	0.0003464	8.1055e-05	1320.9	3.2101e-06	3.177e-06	1376.9	284.46	3.8732e-06	3.3917e-06	348.44	99.591	80.003	24.137	2.7315e-06	32.811	0.00035605	0.00038678	0.00011504	1293.6	4.8427e-06	4.4295e-06	1359.9	282.02	4.6547e-06	4.6878e-06	347.03	100.08	80.149	24.323	3.965e-06	33.309	227.301	243.139	273.480	177.076	306.462	330.635	177.068	183.802	302.665	308.217	183.311	189.565	189.743	196.616	338.019	196.508	-8191	255	
14442.141	1	1	0	0	0.15292	0.17017	0.50747	0.16799	0.1459	0.15343	0.29005	0.071913	0.21839	0.10845	0.11909	0.30411	0.22803	0.30368	0.18713	0.1531	-2.8583	-3.1	-2.9688	-3.5875	-3.125	-2.9667	-3.5021	-3.1854	-3.3104	-3.3	-3.0812	-3.4354	-3.1979	-3.0896	-3.2833	-2.975	372.663	371.530	334.396	525.158	494.924	518.820	214.795	478.124	445.372	234.084	329.142	329.350	252.249	469.176	192.032	197.739	0.00029771	0.00037937	0.000138	1319	4.4431e-06	3.2098e-06	1381.7	284.5	3.5465e-06	2.5981e-06	348.09	100.27	79.965	24.303	2.9108e-06	33.069	0.00035266	0.00043933	0.00011659	1294.9	5.004e-06	4.5221e-06	1360.4	282.17	4.6811e-06	4.1539e-06	346.52	100.05	80.244	24.412	4.1848e-06	33.398	223.638	261.372	256.673	176.864	312.631	314.867	177.022	183.644	309.886	332.535	183.711	189.928	189.965	196.173	307.744	196.253	-8191	255	
14442.237	1	1	0	0	0.19253	0.20802	0.11947	0.21145	0.053451	0.08254	0.20844	0.21828	0.07634	0.16899	0.25805	0.16097	0.28456	0.096521	0.17398	0.33584	-2.7042	-3.2833	-2.9458	-3.3396	-3.2354	-3.1063	-3.375	-3.1896	-3.2146	-3.3042	-3.2771	-3.4042	-3.0208	-3.1292	-3.2167	-3.225	207.373	369.470	352.224	511.556	460.850	178.981	446.187	468.315	180.976	199.062	449.966	460.814	180.137	519.310	352.639	405.736	0.00028512	0.00052768	8.5312e-05	1316.1	2.7684e-06	3.2203e-06	1386.2	286.15	3.4866e-06	3.524e-06	349.76	99.575	80.123	24.083	3.6042e-06	33.118	0.000343	0.00040332	0.00011188	1292.4	4.8075e-06	4.6987e-06	1361.2	282.62	4.5075e-06	4.3275e-06	347.9	100.07	80.191	24.314	4.1697e-06	33.348	225.159	261.382	270.691	176.858	314.730	308.348	177.133	183.697	291.660	339.237	183.517	189.500	189.836	196.198	327.638	196.213	-8191	255	
14442.358	1	1	0	0	0.079463	0.26819	0.2405	0.12477	0.090984	0.10617	0.33298	0.25458	0.21135	0.038569	0.23627	0.14387	0.11368	0.18029	0.32915	0.10205	-2.6271	-3.2042	-3.0833	-3.5542	-3.0417	-2.9875	-3.4521	-2.9854	-3.0458	-3.0854	-3.0312	-3.0938	-3.0187	-3.0458	-3.3979	-3.2021	281.985	522.591	255.206	200.002	348.148	257.088	450.867	502.592	520.309	260.898	417.957	513.706	481.854	296.828	497.400	233.782	0.00029608	0.00042921	0.00011693	1317.8	2.0763e-06	4.3796e-06	1383.3	284.52	3.1218e-06	4.1951e-06	350.2	99.384	80.48	24.136	3.1517e-06	32.748	0.00035434	0.00041442	0.00011703	1294.9	4.3885e-06	4.6002e-06	1361.7	282.05	4.5983e-06	4.7788e-06	346.9	99.913	80.248	24.345	4.5028e-06	33.276	227.690	266.917	262.188	177.169	289.201	317.144	177.135	183.954	294.848	320.015	183.487	189.474	190.191	196.154	328.032	196.422	-8191	255	
14442.452	1	1	0	0	0.17541	0.18476	0.15886	0.49576	0.32502	0.12351	0.26735	0.1947	0.16404	0.10935	0.055578	0.095297	0.10234	0.16734	0.12078	0.26427	-2.525	-3.1854	-2.9083	-3.4646	-3.2146	-2.9667	-3.5271	-3.3646	-3.0583	-3.2375	-3.1125	-3.2313	-3.075	-3.0146	-3.2021	-3.1958	216.667	513.279	177.140	482.729	248.812	279.829	513.012	284.734	201.320	525.411	493.232	323.960	456.141	328.628	432.485	444.556	0.00029137	0.00039501	0.00012819	1311.2	3.1491e-06	3.1396e-06	1378.3	284.47	3.6438e-06	3.9532e-06	350.26	99.74	79.92	24.024	2.6716e-06	32.915	0.00035447	0.00040897	0.0001225	1289.2	4.812e-06	4.3899e-06	1358.6	282.08	4.5542e-06	4.5286e-06	346.77	100.07	80.12	24.36	4.3854e-06	33.351	227.188	257.428	268.998	176.888	291.459	322.304	177.075	183.887	302.573	317.313	183.767	189.294	189.860	196.586	317.684	196.170	-8191	255	
14442.526	1	1	0	0	0.14967	0.094835	0.21541	0.25117	0.16015	0.019712	0.364	0.0599	0.20072	0.1095	0.17037	0.2293	0.076432	0.10364	0.062855	0.067995	-2.6354	-3.3667	-3.0312	-3.2958	-3.275	-3.1146	-3.6354	-3.2333	-3.3063	-3.3792	-3.1813	-3.2271	-3.3604	-2.825	-3.2896	-3.1813	428.925	279.224	249.787	436.802	206.714	397.413	465.795	261.713	507.639	363.917	498.844	469.303	437.156	294.413	446.743	205.559	0.00029889	0.00039181	9.9771e-05	1316.1	3.0873e-06	2.647e-06	1377.4	285.32	3.1243e-06	4.6e-06	348.52	99.674	80.269	24.3	4.1104e-06	32.909	0.0003603	0.00041379	0.00011957	1292.5	4.6237e-06	4.3033e-06	1359	282.2	4.6018e-06	4.3921e-06	346.85	100.18	80.379	24.418	4.2721e-06	33.396	226.940	253.590	270.062	177.020	312.408	307.876	177.112	183.690	306.954	329.167	183.577	189.385	189.817	196.964	322.428	196.227	-8191	255	
14442.645	1	1	0	0	0.24454	0.050661	0.18656	0.064653	0.16087	0.19418	0.39608	0.20275	0.12858	0.096001	0.19933	0.23938	0.051347	0.29102	0.10974	0.14938	-2.6208	-3.0417	-3.0062	-3.3229	-3.3833	-3.0979	-3.3812	-3.3312	-3.0062	-3.0896	-3.1354	-3.2188	-3.4208	-3.0563	-3.0896	-3.3021	498.856	512.625	231.361	169.218	457.569	201.254	475.377	196.755	473.697	198.001	460.041	495.180	308.189	171.776	335.779	420.881	0.00030379	0.00037025	0.00010171	1320.7	2.7305e-06	4.2784e-06	1383	285.31	3.2094e-06	2.7329e-06	350.73	100.24	80.505	24.367	1.984e-06	32.996	0.0003543	0.00040091	0.0001141	1294.5	4.7481e-06	4.6627e-06	1362.7	282.64	4.6899e-06	4.434e-06	347.71	100.48	80.654	24.483	4.3804e-06	33.464	226.176	261.016	289.221	177.204	305.665	320.884	176.996	183.787	307.382	338.853	183.332	189.431	190.000	196.152	307.033	196.055	-8191	255	
14442.741	1	1	0	0	0.1333	0.05322	0.15315	0.39879	0.12012	0.16128	0.18769	0.1123	0.041706	0.13895	0.25675	0.31883	0.025114	0.19972	0.29405	0.12435	-2.5604	-3.225	-3.1125	-3.1271	-3.2667	-2.9854	-3.3854	-3.2354	-2.7583	-3.3312	-3.1688	-3.0875	-3.3792	-3.0375	-3.2083	-3.1437	268.245	258.212	461.660	466.945	235.716	245.419	442.744	472.838	232.994	186.579	517.887	471.402	422.619	442.088	211.819	395.623	0.00030842	0.00036488	8.7642e-05	1312.7	2.9503e-06	2.372e-06	1382	285.69	3.3503e-06	3.345e-06	350.86	100.12	80.737	24.445	3.4645e-06	33.139	0.00036266	0.00041326	0.00012115	1293.7	4.6778e-06	4.4451e-06	1362	283.02	4.6582e-06	4.349e-06	348.29	100.49	80.785	24.53	4.253e-06	33.49	226.858	271.465	256.251	177.222	301.075	307.576	177.143	183.780	299.379	328.192	183.562	189.413	189.782	196.319	312.077	196.309	-8191	255	
14442.837	1	1	0	0	0.12362	0.14626	0.018088	0.23491	0.095124	0.23372	0.29129	0.234	0.30724	0.15928	0.23311	0.18864	0.15647	0.12971	0.12217	0.15183	-2.5208	-3.1479	-3.05	-3.1771	-3.3312	-3.15	-3.3563	-3.2917	-3.0542	-3.3396	-3.1	-3.0312	-3.2812	-3.2271	-3.1542	-3.4104	293.264	415.964	243.129	461.307	376.212	215.806	471.573	482.114	403.789	478.485	394.058	403.068	179.848	479.234	219.719	197.090	0.00030494	0.00029255	9.2068e-05	1319.7	3.6188e-06	3.9207e-06	1380.3	287.02	3.0816e-06	3.8403e-06	351.47	100.51	80.745	24.353	2.8997e-06	33.098	0.00036581	0.00039285	0.00011673	1294	4.6156e-06	4.9366e-06	1362.3	283.64	4.7031e-06	4.4316e-06	348.19	100.76	80.708	24.542	4.1597e-06	33.563	224.539	279.267	267.885	176.993	313.359	313.984	176.971	183.818	305.428	319.883	183.503	189.385	189.814	196.005	303.416	196.316	-8191	255	
14442.933	1	1	0	0	0.14271	0.16369	0.20844	0.18757	0.19621	0.088341	0.2063	0.1431	0.12872	0.074772	0.15542	0.12724	0.11047	0.13552	0.26976	0.36154	-2.6	-3.3	-3.1458	-3.0396	-3.1146	-3.1146	-3.1688	-3.2292	-3.0146	-3.1437	-3.3729	-2.9292	-3.3292	-3.1375	-3.0687	-3.3396	407.560	401.982	485.644	408.414	305.442	477.757	407.137	464.164	297.048	317.557	342.233	494.213	249.772	346.547	186.324	426.701	0.00031245	0.00038803	9.9248e-05	1320.1	2.9844e-06	5.8503e-06	1380.8	285.24	3.1537e-06	3.9763e-06	349.9	100.46	80.505	24.441	3.8783e-06	33.318	0.00036043	0.00044299	0.00010892	1295.4	4.8084e-06	4.9186e-06	1362.4	283.13	4.5401e-06	4.4663e-06	348.52	100.78	80.834	24.565	4.566e-06	33.537	228.159	257.792	261.403	176.981	300.700	322.629	176.955	183.746	315.495	307.533	183.556	189.337	190.006	196.424	317.142	196.394	-8191	255	
14443.054	1	1	0	0	0.12054	0.067871	0.25366	0.39089	0.039747	0.12311	0.12126	0.23145	0.12841	0.075797	0.31645	0.086513	0.31133	0.16709	0.19614	0.28333	-2.5042	-3.1896	-3.1146	-3.1771	-3.2417	-3.1167	-3.1271	-3.3375	-2.775	-3.15	-3.25	-2.9708	-3.1729	-3.2667	-2.9417	-3.2333	221.914	302.054	243.102	479.420	324.156	323.173	462.757	172.107	434.334	475.735	488.313	383.340	444.571	366.981	203.540	448.506	0.00030423	0.00046766	0.00011509	1315.4	3.5788e-06	4.7896e-06	1388.7	286.2	3.5868e-06	4.2971e-06	352.09	100.63	80.99	24.352	2.5979e-06	33.25	0.00036167	0.00041609	0.00011717	1294.3	4.658e-06	4.4548e-06	1364.1	283.82	4.7692e-06	4.1275e-06	348.98	100.67	80.933	24.629	4.1436e-06	33.586	227.742	256.644	258.229	177.257	312.260	312.761	177.083	183.838	303.436	311.092	183.544	189.421	189.863	196.150	327.715	196.513	-8191	255	
14443.150	1	1	0	0	0.087995	0.22102	0.14041	0.23466	0.16543	0.1655	0.11706	0.13263	0.13868	0.34238	0.034973	0.24683	0.13597	0.20587	0.21214	0.33059	-2.3812	-3.1188	-3.275	-3.2271	-3.2896	-3.2833	-3.1813	-3.3729	-2.9167	-2.9979	-3.45	-2.9417	-3.1229	-3.2917	-2.825	-3.3458	423.126	414.397	445.939	525.640	502.250	350.566	389.143	336.443	347.355	238.925	464.114	371.382	469.833	414.540	501.123	417.446	0.00029598	0.00031617	9.5355e-05	1316.8	2.4715e-06	4.0986e-06	1386.2	286.52	3.9428e-06	4.1354e-06	353.15	100.51	80.987	24.37	3.0337e-06	33.183	0.0003642	0.00041452	0.00010916	1295.1	4.6219e-06	4.4463e-06	1364	283.3	4.637e-06	4.5106e-06	349.21	100.9	80.97	24.613	4.3373e-06	33.625	226.246	251.148	258.387	176.977	314.763	335.799	177.043	183.814	305.383	313.967	183.608	189.104	189.796	196.199	326.531	196.080	-8191	255	
14443.221	1	1	0	0	0.38432	0.16232	0.06278	0.24349	0.32292	0.18931	0.20934	0.16652	0.11965	0.25685	0.16747	0.16728	0.067612	0.10623	0.13274	0.10109	-2.5812	-2.9625	-3.3187	-3.2729	-3.1458	-3.125	-3.1354	-3.3792	-3.1521	-3.0667	-3.4833	-3.1167	-3.1521	-3.2333	-2.8667	-3.1333	352.578	234.303	190.880	488.863	503.198	297.152	490.110	512.030	458.363	369.936	486.119	445.137	449.388	180.760	222.578	466.407	0.00029608	0.00032056	9.4551e-05	1317.3	2.693e-06	4.7449e-06	1387.3	285.85	3.5445e-06	4.4078e-06	351.7	100.18	81.032	24.317	3.4894e-06	33.019	0.00035838	0.00041682	0.00010898	1294	4.6661e-06	4.504e-06	1362.7	283.67	4.9384e-06	4.5154e-06	349.12	100.8	80.91	24.601	4.5751e-06	33.624	225.694	242.453	270.094	177.052	310.521	299.147	177.117	183.522	310.618	323.472	183.572	189.721	189.812	196.132	326.671	196.096	-8191	255	
14443.318	1	1	0	0	0.1591	0.26839	0.10464	0.1985	0.1896	0.13922	0.35627	0.13849	0.11193	0.19156	0.15515	0.19481	0.13903	0.13934	0.38375	0.16994	-2.7438	-2.8937	-3.1583	-3.1917	-3.2625	-3.1917	-3.2375	-3.3479	-3.1188	-3.0354	-3.4146	-3.0479	-3.1833	-3.4583	-3.0292	-3.2396	265.937	248.520	177.465	180.389	293.650	388.973	469.343	192.971	496.822	409.289	500.131	413.759	299.369	267.040	377.822	184.743	0.00030032	0.00034821	8.4514e-05	1318.5	3.5653e-06	4.2987e-06	1382	285.87	3.3883e-06	3.9139e-06	352.23	100.66	81.123	24.477	2.7253e-06	33.095	0.00035475	0.00041996	0.00011077	1294.5	4.7967e-06	4.6891e-06	1362.2	283.71	4.8749e-06	4.6291e-06	349.46	100.88	80.927	24.574	4.4547e-06	33.602	225.232	264.854	246.764	177.126	307.389	326.953	177.038	183.715	306.311	322.347	183.605	189.165	189.957	196.192	312.359	196.464	-8191	255	
14443.437	1	1	0	0	0.31583	0.15593	0.1256	0.20183	0.26967	0.069953	0.32972	0.16059	0.042282	0.33374	0.19557	0.097401	0.17198	0.085372	0.094916	0.13095	-2.6771	-2.8021	-3.3083	-3.1042	-3.0854	-3.0604	-3.1854	-3.4	-3.1063	-3.0146	-3.3625	-2.9958	-3.1562	-3.2125	-2.8438	-3.1	479.361	426.146	408.850	462.372	503.199	190.837	503.006	185.417	503.503	206.732	166.935	412.151	241.588	389.178	264.873	486.792	0.00031001	0.00050147	9.7434e-05	1312.5	2.4722e-06	3.9624e-06	1380.9	286.87	3.2656e-06	3.7598e-06	351.2	100.09	80.333	24.492	3.8699e-06	33.098	0.00036848	0.00043483	0.00011381	1293.6	4.5399e-06	4.3815e-06	1361.4	283.56	4.6555e-06	4.6064e-06	348.07	100.59	80.856	24.575	4.5239e-06	33.57	224.476	256.736	253.589	176.945	306.632	318.538	176.860	183.698	303.229	322.622	183.460	189.370	189.860	196.490	311.859	196.507	-8191	255	
14443.533	1	1	0	0	0.014405	0.05965	0.067999	0.27549	0.069277	0.26039	0.30229	0.26759	0.14117	0.22289	0.2388	0.17112	0.41801	0.14028	0.074714	0.13636	-2.6896	-2.9437	-3.1625	-3.2479	-3.0938	-3.2021	-3.2188	-3.0542	-3.1542	-2.9521	-3.2521	-3.1146	-2.8979	-3.2521	-2.8688	-3.0958	509.888	345.682	212.683	495.806	400.388	402.502	488.269	525.081	368.914	281.929	510.293	495.587	188.913	515.206	457.165	489.401	0.00029456	0.00031224	6.9752e-05	1315.2	3.6643e-06	4.3977e-06	1379.9	285.86	2.4962e-06	2.8442e-06	350.47	100.95	80.696	24.199	3.167e-06	33.147	0.00035793	0.0004297	0.00010851	1291.9	4.949e-06	4.3081e-06	1362.1	283.5	4.341e-06	4.5549e-06	347.85	100.87	80.723	24.528	4.1025e-06	33.567	227.900	252.091	258.860	177.191	309.815	324.361	176.895	183.850	317.711	337.270	183.482	189.447	189.481	196.655	300.724	196.442	-8191	255	
14443.629	1	1	0	0	0.036798	0.15584	0.19633	0.077053	0.093351	0.27762	0.26959	0.13179	0.019049	0.10129	0.11455	0.21177	0.11919	0.14665	0.040338	0.17881	-2.6208	-2.9208	-3.2396	-3.2917	-3.1042	-3.2812	-3.0771	-3.2771	-3.1042	-3.0625	-3.1688	-3.1083	-3.0479	-3.3292	-2.9938	-3.175	353.279	486.833	350.053	478.022	249.914	379.526	435.448	485.190	366.002	175.740	181.472	326.267	220.123	438.793	244.669	242.379	0.00029632	0.00050347	0.00012373	1316.2	3.164e-06	3.2684e-06	1382.7	286.17	3.2583e-06	3.6912e-06	351.38	99.942	80.736	24.357	2.7689e-06	33.13	0.00035519	0.00040887	0.00011501	1294.2	4.9355e-06	4.3658e-06	1361.8	283.24	4.311e-06	4.944e-06	348.5	100.54	80.705	24.565	4.3192e-06	33.537	225.741	254.450	249.533	177.206	303.462	319.008	176.991	183.908	299.728	331.417	183.543	189.411	189.873	196.172	332.334	196.236	-8191	255	
14443.725	1	1	0	0	0.20424	0.11584	0.26201	0.28468	0.072046	0.22248	0.18732	0.23691	0.040395	0.14788	0.12337	0.019216	0.21073	0.21195	0.14937	0.12402	-2.8042	-2.7938	-3.1562	-3.3854	-3.1521	-3.2812	-3.35	-3.1688	-3.2917	-2.9437	-3.2979	-3.3542	-2.9396	-3.2583	-3.0438	-3.2271	242.473	264.845	408.068	512.361	431.448	321.135	475.652	446.019	479.512	448.607	439.742	498.075	457.013	457.425	191.814	441.557	0.00030337	0.00047503	0.00011103	1315.7	3.7833e-06	2.5476e-06	1384.8	286.55	2.8882e-06	4.4669e-06	350.87	100.17	80.648	24.4	3.65e-06	33.203	0.00036608	0.00043744	0.00011782	1294.2	4.84e-06	4.2252e-06	1362.8	283.45	4.6291e-06	4.7776e-06	349.26	100.66	80.793	24.638	4.1226e-06	33.527	227.554	255.331	262.432	177.210	318.432	314.744	176.974	183.603	291.449	325.264	183.378	189.324	189.642	196.625	315.119	196.297	-8191	255	
14443.821	1	1	0	0	0.15536	0.14737	0.018257	0.32294	0.13011	0.2097	0.27167	0.44036	0.16316	0.18807	0.26055	0.072983	0.077847	0.14896	0.092993	0.19978	-2.9583	-3.0896	-3.1167	-3.3458	-2.9229	-3.2083	-3.3958	-3.225	-3.3667	-2.9417	-3.2375	-3.1688	-2.8312	-3.2604	-3.2354	-3.0458	291.020	249.206	194.604	524.044	166.642	270.051	467.508	509.125	269.144	448.844	401.769	284.362	496.915	513.432	486.423	339.530	0.00030823	0.00026007	9.5949e-05	1313.3	3.0483e-06	4.0249e-06	1383.4	286.18	3.7875e-06	3.3053e-06	350.44	100.58	79.976	24.248	3.2795e-06	33.134	0.00035728	0.0004074	0.0001115	1292.3	4.7075e-06	4.7131e-06	1363.3	283.19	4.3877e-06	4.3346e-06	348.26	100.46	80.54	24.508	4.1487e-06	33.486	225.697	266.859	273.717	177.149	309.401	324.557	176.962	183.630	298.250	315.860	183.452	189.623	189.822	196.304	307.314	196.204	-8191	255	
14443.917	1	1	0	0	0.014411	0.17892	0.011495	0.20786	0.037544	0.40156	0.27553	0.023609	0.078141	0.18561	0.034016	0.29589	0.068092	0.065537	0.10212	0.20571	-2.8063	-2.9854	-2.9042	-3.2583	-2.9062	-3.0146	-3.1396	-3.1229	-3.2021	-3.0604	-3.1396	-3.0792	-2.9125	-3.3083	-3.0479	-3.1354	363.015	358.238	220.850	517.275	384.007	490.637	441.973	256.644	439.742	379.371	363.831	516.053	286.969	454.451	426.723	236.124	0.00029888	0.00031157	9.1712e-05	1315.8	3.1653e-06	3.1041e-06	1387.2	284.89	4.1512e-06	2.6736e-06	349.64	100.18	80.464	24.224	3.6168e-06	32.938	0.00035399	0.00041693	0.00011091	1291.9	4.8337e-06	4.4247e-06	1361.1	282.39	4.4062e-06	4.671e-06	347.36	100.25	80.451	24.425	4.5359e-06	33.387	226.146	255.711	264.732	177.051	309.292	336.038	177.087	183.748	300.335	312.768	183.549	189.536	189.907	196.583	314.904	195.856	-8191	255	
14444.038	1	1	0	0	0.066992	0.057936	0.12408	0.23808	0.18579	0.08965	0.18848	0.29787	0.2219	0.19345	0.20877	0.22776	0.1876	0.17107	0.027221	0.20169	-2.9396	-2.8729	-2.9896	-3.325	-2.9083	-3.1312	-3.3375	-3.0896	-3.3229	-3.0896	-3.1583	-3.3667	-3.0646	-3.0062	-3.0104	-2.8396	263.841	505.469	463.135	525.207	398.053	426.651	406.883	421.663	522.816	395.679	441.907	188.614	245.471	498.807	403.474	476.656	0.00029983	0.00036345	7.8942e-05	1315.6	3.5103e-06	2.4723e-06	1370.1	284.02	3.8997e-06	3.8732e-06	349.62	99.076	79.433	24.15	2.7782e-06	32.621	0.00034735	0.00042195	0.0001134	1291	4.8418e-06	4.7324e-06	1355.5	280.8	4.3762e-06	4.4376e-06	345.84	99.668	79.813	24.275	4.2721e-06	33.146	224.735	254.018	264.929	177.222	307.281	307.726	177.018	183.963	299.866	322.532	183.615	189.739	190.035	196.206	325.094	196.583	-8191	255	
14444.134	1	1	0	0	0.24423	0.044656	0.22888	0.20853	0.28193	0.047433	0.30882	0.24127	0.1082	0.18921	0.046178	0.052158	0.26303	0.34945	0.17819	0.26352	-2.7417	-2.9521	-2.9229	-3.5563	-2.8271	-2.9854	-3.3104	-3.1542	-3.1688	-3.025	-3.1312	-3.5083	-3.0646	-3.0875	-3.1604	-3.0271	308.215	173.428	305.831	170.055	318.953	326.439	168.246	177.416	297.736	471.629	207.083	242.127	492.080	432.443	300.944	457.172	0.0002742	0.00039513	0.00011474	1305.6	2.904e-06	3.9109e-06	1370.6	282.71	3.1628e-06	2.8228e-06	347.59	99.208	79.378	24.015	2.4709e-06	32.822	0.00034417	0.0004231	0.00011211	1286.5	4.8968e-06	4.5305e-06	1353.3	280.05	4.7533e-06	4.3466e-06	344.99	99.29	79.587	24.154	3.9771e-06	33.144	224.987	261.683	265.137	177.077	295.062	330.991	177.049	183.923	304.492	320.143	183.576	189.558	189.964	196.495	318.625	196.479	-8191	255	
14444.230	1	1	0	0	0.18851	0.19729	0.078508	0.14449	0.12594	0.13394	0.040428	0.09306	0.036982	0.1791	0.18419	0.21835	0.18241	0.047908	0.082556	0.39468	-2.925	-3.1312	-2.9583	-3.3729	-2.9146	-3.0333	-3.4854	-3.0625	-3.15	-3.0875	-2.9708	-3.2083	-2.9229	-2.9125	-3.1208	-2.9875	456.589	487.372	273.993	509.836	303.729	271.185	362.590	437.775	523.332	270.744	475.098	501.327	495.397	183.892	348.621	431.501	0.00029851	0.00037398	8.3591e-05	1302.3	3.4632e-06	3.4883e-06	1378.5	282.4	3.7447e-06	3.2082e-06	346.39	98.919	79.583	24.039	2.7035e-06	32.853	0.00036112	0.00041232	0.00011194	1284.9	4.6832e-06	4.4872e-06	1353.3	279.58	4.6124e-06	4.7991e-06	344.82	99.458	79.509	24.167	4.6332e-06	33.21	226.620	275.151	261.345	177.198	295.137	319.214	177.041	183.894	300.936	304.178	183.718	189.636	189.760	196.606	304.848	196.488	-8191	255	
14444.326	1	1	0	0	0.077018	0.21729	0.22838	0.1139	0.31665	0.34219	0.2342	0.40194	0.14285	0.11318	0.088178	0.075485	0.34647	0.13972	0.20315	0.19083	-2.9229	-3.1688	-2.925	-3.425	-3.0812	-3.1063	-3.4562	-3.0792	-3.3042	-3.2083	-3.1417	-3.3917	-3.2375	-2.9792	-3.0687	-3.1188	263.984	273.690	462.469	446.417	371.520	200.323	439.876	509.873	386.969	303.713	426.636	219.197	473.703	482.559	184.201	235.501	0.00028678	0.00031054	9.3413e-05	1308.1	3.1527e-06	3.1157e-06	1375.6	283.04	3.742e-06	5.0177e-06	347.66	99.024	80.03	24.021	3.2931e-06	32.943	0.0003555	0.00038804	0.00012033	1286	4.6841e-06	4.5317e-06	1353.8	280.44	4.6837e-06	4.5298e-06	345	99.545	80.007	24.311	4.1918e-06	33.313	227.267	245.429	256.073	177.036	313.194	304.222	176.914	183.820	305.362	326.932	183.674	189.773	190.045	196.696	312.361	196.525	-8191	255	
14444.423	1	1	0	0	0.20486	0.13484	0.18308	0.34188	0.12268	0.13875	0.16866	0.47327	0.040031	0.10371	0.2273	0.26212	0.084647	0.20531	0.1839	0.16374	-2.8396	-3.0375	-3.0854	-3.1771	-3.0187	-2.9437	-3.4271	-3.1188	-3.1417	-3.0521	-2.9917	-3.4021	-3.2417	-2.9167	-3.2438	-2.9333	321.501	281.827	343.446	490.920	333.499	312.420	489.773	458.780	222.219	225.015	466.973	500.465	175.177	460.755	393.956	430.577	0.00029156	0.00031404	0.00010339	1309.8	2.7344e-06	3.4222e-06	1374.8	282.39	3.2685e-06	3.4519e-06	347.46	99.744	79.904	24.032	3.6892e-06	33.014	0.00035869	0.00041682	0.0001158	1288.4	4.7264e-06	4.6458e-06	1356.3	280.83	4.652e-06	4.416e-06	345.48	99.787	79.909	24.282	4.1978e-06	33.286	226.257	261.353	258.945	177.048	307.189	319.266	177.035	183.709	296.836	324.547	183.728	189.456	190.105	196.453	305.112	196.436	-8191	255	
14444.517	1	1	0	0	0.065339	0.038727	0.092776	0.066522	0.23394	0.16774	0.23306	0.22951	0.18466	0.22092	0.16093	0.11153	0.09115	0.19448	0.24546	0.10356	-2.5479	-3.2313	-3.0375	-3.4792	-3.0417	-3.0354	-3.2479	-3.1937	-2.9938	-3.2979	-3.1167	-3.0458	-3.2708	-2.9021	-3.2833	-3.0625	290.751	448.973	262.076	385.036	468.230	399.422	422.021	424.824	352.913	404.541	489.813	204.049	381.120	521.464	168.636	373.092	0.00029603	0.00038828	7.2597e-05	1314.6	3.0541e-06	3.219e-06	1375.6	284	3.3878e-06	4.2005e-06	349.68	100.01	79.857	24.116	3.2888e-06	33.02	0.00035704	0.00039976	0.00011197	1290.4	4.7967e-06	4.6855e-06	1358.1	281.35	4.941e-06	4.3562e-06	346.04	99.939	80.208	24.342	4.1818e-06	33.399	225.156	245.965	265.628	177.227	312.311	299.515	177.172	183.643	302.174	325.367	183.438	189.507	189.773	196.332	306.101	196.624	-8191	255	
14444.613	1	1	0	0	0.17158	0.061221	0.13151	0.22024	0.16355	0.15474	0.1672	0.22121	0.1861	0.12096	0.31128	0.073226	0.09443	0.2402	0.063126	0.11065	-2.6708	-3.3604	-3	-3.2854	-3.1979	-2.9146	-3.3771	-3.275	-3.0417	-3.2417	-2.9667	-3.3646	-3.2375	-3.0208	-3.3563	-3.0458	304.695	182.717	330.244	470.788	288.357	204.601	484.926	403.383	275.178	501.071	481.201	451.081	366.982	463.909	389.284	303.833	0.00030693	0.00036117	0.0001079	1318.7	3.42e-06	4.1479e-06	1380.9	283.52	3.3815e-06	3.7384e-06	349.44	100.25	79.977	24.103	3.7868e-06	33.011	0.00036122	0.00040719	0.00011723	1294.7	4.6778e-06	4.7528e-06	1361.5	281.71	4.9207e-06	4.4208e-06	347.07	100.41	80.412	24.404	4.2329e-06	33.431	227.624	257.316	250.373	177.090	308.827	325.971	177.064	183.595	314.356	326.329	183.658	189.493	189.905	196.225	312.988	196.480	-8191	255	
14444.734	1	1	0	0	0.17002	0.15875	0.26258	0.1335	0.10559	0.1479	0.22197	0.21761	0.14313	0.3445	0.22796	0.18956	0.27972	0.097965	0.093673	0.029603	-2.4875	-3.2208	-3.0708	-3.3812	-3.1937	-2.9229	-3.5896	-3.1146	-2.9854	-3.35	-3.1188	-3.1042	-3.2646	-2.9167	-3.0667	-3.2125	231.380	496.413	452.825	380.469	282.274	491.405	461.103	446.564	195.325	286.832	481.311	175.773	194.914	495.176	364.381	326.555	0.00028475	0.00035237	0.00010095	1317.8	4.2435e-06	4.7803e-06	1381.7	284.63	2.6375e-06	4.9419e-06	350	100.26	80.32	24.196	3.2368e-06	33.019	0.00036235	0.0003985	0.00011194	1294.7	4.6652e-06	4.5617e-06	1361.4	282.21	4.6247e-06	4.4244e-06	347.71	100.48	80.417	24.468	4.4928e-06	33.422	225.837	270.497	256.076	177.086	317.076	304.143	177.130	183.847	299.663	322.948	183.365	189.557	189.938	196.600	304.301	196.419	-8191	255	
14444.830	1	1	0	0	0.087258	0.11798	0.16039	0.14811	0.14878	0.067957	0.34878	0.26048	0.1172	0.098366	0.4272	0.12474	0.36074	0.11089	0.12683	0.34845	-2.5187	-3.1792	-2.9229	-3.2146	-3.2167	-3.1396	-3.2708	-3.2208	-2.9479	-3.2417	-3.1271	-3.2042	-3.3396	-3.0667	-3.3229	-3.2313	454.643	480.414	412.800	460.068	326.760	455.909	422.101	437.355	461.974	419.615	494.341	421.829	408.612	514.255	295.912	479.785	0.0002999	0.00033109	7.8246e-05	1319.1	4.0039e-06	3.8656e-06	1379.1	285.63	3.2606e-06	3.5418e-06	349.91	100.04	80.451	24.403	3.4228e-06	33.175	0.00034444	0.00038971	0.00011197	1295.7	4.895e-06	4.8561e-06	1362.2	282.95	4.6485e-06	4.3705e-06	347.42	100.25	80.617	24.555	4.1246e-06	33.509	226.701	255.051	267.305	176.922	321.075	323.885	176.926	183.643	297.416	317.311	183.443	189.565	190.108	196.478	310.107	196.272	-8191	255	
14444.926	1	1	0	0	0.25505	0.055978	0.1094	0.43603	0.19825	0.23517	0.24069	0.15475	0.29926	0.060143	0.19697	0.18778	0.026595	0.082464	0.20866	0.070195	-2.4917	-3.3063	-3.0062	-3.2083	-3.3063	-3.0875	-3.2021	-3.3229	-2.9688	-3.1417	-3.3167	-3.1188	-3.3458	-3.1188	-3.1375	-3.1729	256.679	251.659	490.161	488.696	391.303	206.631	495.209	239.530	458.785	324.249	213.193	173.149	418.044	275.584	448.203	175.365	0.00028169	0.0004053	7.1462e-05	1318.9	2.9334e-06	4.1609e-06	1384	286.72	3.576e-06	3.4122e-06	349.05	100.17	80.074	24.289	3.8605e-06	33.149	0.00034523	0.00039086	0.000111	1296.3	4.7273e-06	4.623e-06	1364.2	282.77	4.6388e-06	4.3095e-06	347.67	100.39	80.346	24.476	4.4938e-06	33.436	226.705	246.528	283.815	177.006	313.550	305.729	176.950	183.505	302.039	329.251	183.491	189.333	189.955	196.412	312.189	196.511	-8191	255	
14445.022	1	1	0	0	0.14679	0.30712	0.046011	0.082871	0.3802	0.13381	0.2661	0.33329	0.23344	0.21736	0.11274	0.15644	0.051287	0.2512	0.16679	0.032074	-2.5938	-3.3375	-3.1188	-3.3042	-3.3021	-3.1292	-3.2458	-3.3937	-2.8896	-3.1542	-3.2708	-3.0354	-3.4167	-3.1979	-2.9854	-3.375	507.874	508.774	204.753	321.916	375.102	408.415	420.315	390.923	452.303	248.451	265.964	401.728	455.005	443.803	380.009	270.536	0.00030524	0.00042065	0.00010034	1319.3	4.5002e-06	3.5048e-06	1384.7	285.87	3.3057e-06	4.4982e-06	351	100	80.468	24.225	3.1484e-06	32.941	0.00036824	0.0004029	0.00011773	1294.5	4.8355e-06	4.2012e-06	1363.2	282.91	4.8159e-06	4.349e-06	347.84	100.05	80.409	24.44	4.552e-06	33.36	227.456	258.340	253.728	176.972	296.081	304.897	177.170	183.907	299.776	322.852	183.516	189.595	189.872	196.575	305.331	196.200	-8191	255	
14445.118	1	1	0	0	0.18707	0.099405	0.075262	0.13225	0.10958	0.12563	0.3307	0.13391	0.14983	0.2226	0.13147	0.19799	0.16304	0.15245	0.068131	0.31285	-2.5021	-3.2542	-3.05	-3.0271	-3.3771	-3.0708	-3.4104	-3.4042	-2.9688	-3.175	-3.1104	-2.9021	-3.3708	-3.1271	-2.8187	-3.0229	308.024	405.733	182.082	469.197	364.958	405.213	471.801	439.306	497.070	354.341	463.621	195.719	511.666	327.697	294.055	499.867	0.0002792	0.00031763	0.00011438	1320.5	3.1055e-06	3.0022e-06	1380.8	285.76	2.9071e-06	3.7879e-06	349.29	99.36	80.451	24.173	3.3893e-06	32.998	0.00035934	0.00038856	0.00011328	1295.6	4.5219e-06	4.4932e-06	1361.6	282.88	4.6855e-06	4.3789e-06	347.53	100.05	80.421	24.413	4.3353e-06	33.356	226.833	265.978	264.797	177.143	298.064	319.077	177.073	183.833	301.249	327.308	183.517	189.344	189.662	196.441	319.756	196.542	-8191	255	
14445.214	1	1	0	0	0.16067	0.16277	0.07231	0.30755	0.072328	0.16389	0.34334	0.12956	0.14754	0.095833	0.20013	0.17837	0.28057	0.2719	0.11855	0.18864	-2.7771	-3.1437	-3.2271	-3.1708	-3.1875	-3.0458	-3.4458	-3.5167	-3.1458	-3.0479	-3.1375	-3.0208	-3.1854	-3.1854	-3.0604	-3.3292	210.152	278.895	261.182	464.678	366.544	440.829	486.185	418.536	419.599	366.094	323.984	445.588	199.644	483.902	404.885	287.953	0.00029951	0.00033402	0.00011617	1314.9	3.3657e-06	2.7383e-06	1380.9	285.15	4.3034e-06	2.7786e-06	348.93	99.779	80.853	24.175	3.5864e-06	33.039	0.00036889	0.0003738	0.00011495	1293.3	4.7769e-06	4.3815e-06	1359.8	282.41	4.7789e-06	4.3921e-06	346.99	100.07	80.469	24.342	4.5139e-06	33.413	227.148	273.885	252.971	177.005	302.317	314.195	176.996	183.758	310.805	304.787	183.744	189.658	189.790	196.492	315.066	196.133	-8191	255	
14445.311	1	1	0	0	0.17987	0.30937	0.15589	0.030144	0.115	0.30694	0.11224	0.4249	0.086071	0.077038	0.10034	0.19432	0.32701	0.14065	0.25807	0.10308	-2.725	-3.1	-3.2042	-3.2021	-3.2479	-3.1458	-3.2542	-3.3937	-3.0583	-3.0396	-3.2833	-3.0875	-3.2687	-3.2625	-2.9104	-3.1521	363.777	386.386	466.271	317.737	353.877	450.657	434.122	511.775	259.631	469.514	456.529	495.511	479.609	249.144	353.852	504.131	0.00030425	0.00045679	7.8022e-05	1313.6	2.8105e-06	5.4821e-06	1379.5	283.75	3.4516e-06	4.434e-06	349.93	99.654	80.321	24.074	3.5972e-06	32.833	0.00035855	0.00045681	0.00010887	1292.3	4.5805e-06	4.7203e-06	1359.8	281.49	4.8203e-06	4.7476e-06	346.74	99.8	80.171	24.3	4.7938e-06	33.333	228.520	256.704	255.546	177.054	319.748	311.104	177.074	183.717	299.596	311.974	183.878	189.594	190.020	196.234	318.424	196.690	-8191	255	
14445.407	1	1	0	0	0.22663	0.092027	0.28274	0.12763	0.053416	0.10299	0.3214	0.088286	0.16808	0.051979	0.18467	0.2054	0.17514	0.066221	0.14919	0.10574	-2.675	-3.0187	-3.0958	-2.9958	-3.0979	-3.1625	-3.2125	-3.225	-3.1521	-3.0062	-3.3958	-3.1729	-3.2083	-3.1813	-2.9667	-3.1688	515.253	523.214	188.372	503.300	310.018	407.062	515.818	394.558	453.855	222.830	458.313	508.712	423.884	190.013	277.778	327.831	0.0002879	0.00031142	0.00013633	1313	3.4105e-06	4.0826e-06	1380.2	283.71	3.7885e-06	3.3575e-06	349.43	99.634	80.099	24.18	2.9933e-06	32.89	0.00035273	0.00041913	0.00011322	1291.8	4.9517e-06	4.3033e-06	1358.9	281.69	4.6097e-06	4.7476e-06	346.55	99.946	80.191	24.383	4.3313e-06	33.33	226.777	254.269	257.643	176.902	309.579	321.892	177.146	183.756	292.130	307.936	183.761	189.441	189.830	196.376	318.057	196.210	-8191	255	
14445.526	1	1	0	0	0.12849	0.10123	0.19681	0.10912	0.24381	0.094565	0.19754	0.32347	0.051961	0.16627	0.19091	0.11428	0.18849	0.12668	0.15384	0.4413	-2.7771	-2.9437	-3.2792	-3.1688	-3.0792	-3.4229	-3.1396	-3.3021	-3.0417	-3.0917	-3.4146	-3.1312	-3.2417	-3.2812	-2.8979	-3.2146	345.722	509.111	379.721	483.561	478.817	512.803	489.401	475.347	243.213	287.983	455.740	455.087	276.504	300.223	429.163	484.731	0.00031086	0.0003151	9.3747e-05	1316.3	3.0867e-06	2.952e-06	1383.3	285.28	3.1237e-06	3.6515e-06	349.67	99.376	79.956	24.242	2.9663e-06	32.979	0.00036345	0.00040227	0.00011641	1293.4	4.6571e-06	4.4163e-06	1360.7	282.08	4.5983e-06	4.6578e-06	346.53	100.09	80.115	24.329	4.3383e-06	33.337	226.470	255.910	265.289	177.088	299.283	321.471	176.778	183.728	299.146	296.437	183.593	189.707	189.770	196.546	294.993	196.344	-8191	255	
14445.622	1	1	0	0	0.32227	0.079978	0.27445	0.10569	0.15407	0.090732	0.15803	0.074892	0.13968	0.10051	0.25092	0.073713	0.12464	0.080596	0.22083	0.052441	-2.6667	-3.1417	-3.2958	-3.2292	-3.1333	-3.3	-3.3292	-3.2479	-3.1375	-3.1021	-3.3896	-3.0187	-2.9792	-3.1917	-2.9	-3.2896	501.180	233.303	242.979	444.487	241.912	354.078	507.597	478.190	489.780	520.187	501.719	213.427	208.177	264.868	288.016	418.760	0.00030427	0.00040194	0.00011223	1310.9	2.8276e-06	3.367e-06	1379.3	283.87	3.1737e-06	3.7023e-06	348.89	99.217	79.837	24.245	3.4005e-06	32.869	0.00035584	0.00042876	0.00011746	1290.4	4.9508e-06	4.2433e-06	1359.5	281.32	4.5498e-06	4.6866e-06	346.15	99.881	80.136	24.363	4.5771e-06	33.297	226.865	261.616	287.486	177.110	315.359	300.421	176.929	183.862	304.721	310.910	183.794	189.534	189.854	196.588	315.090	196.466	-8191	255	
14445.718	1	1	0	0	0.06439	0.066168	0.1086	0.31235	0.11138	0.17467	0.03433	0.15403	0.092564	0.12344	0.087133	0.10807	0.10283	0.23006	0.094396	0.11401	-2.6708	-2.9229	-3.1375	-3.2083	-3.0354	-3.2396	-3.1708	-3.2604	-3.2271	-2.9396	-3.3917	-3.2542	-3.0583	-3.3	-2.9354	-3.0417	290.481	280.155	396.088	505.197	272.701	380.097	299.891	467.998	188.136	366.273	251.711	521.330	254.231	479.783	433.011	390.813	0.00029937	0.00029147	0.00012942	1316.6	3.6864e-06	3.9149e-06	1383.8	284.05	4.0039e-06	3.2552e-06	349.63	99.674	80.08	24.274	3.0952e-06	32.835	0.00034923	0.00042844	0.00011591	1292.1	4.8643e-06	4.2673e-06	1359.8	281.91	4.7754e-06	4.5561e-06	346.21	99.987	80.268	24.385	4.5339e-06	33.333	228.872	271.068	276.794	177.203	305.550	302.143	176.908	183.968	302.610	303.053	183.649	189.346	189.767	196.386	315.415	196.202	-8191	255	
14445.814	1	1	0	0	0.1191	0.13274	0.10348	0.29137	0.23131	0.13162	0.23024	0.32201	0.10472	0.23415	0.1563	0.18247	0.16763	0.080873	0.15946	0.13856	-2.6917	-2.7625	-3.1063	-3.3812	-2.8458	-3.2917	-3.1667	-3.0917	-3.4208	-2.9562	-3.1354	-3.2375	-3	-3.4688	-3.1042	-3.2042	300.368	293.419	193.922	480.106	515.804	262.122	512.786	450.960	256.866	524.930	496.605	215.431	490.395	446.793	214.554	274.812	0.00029414	0.00029655	0.00010855	1311.8	3.1015e-06	3.3333e-06	1376.7	286.08	3.6894e-06	3.0771e-06	347.92	99.7	80.217	24.204	3.8815e-06	32.922	0.0003479	0.00041169	0.00011577	1289.7	5.2464e-06	4.4031e-06	1357.9	282.16	4.5903e-06	4.5465e-06	346.39	99.901	80.15	24.324	4.3172e-06	33.288	224.857	251.431	272.110	177.025	305.083	309.110	176.956	183.878	299.449	326.866	183.651	189.484	189.917	196.507	307.829	196.196	-8191	255	
#DATA ENDS
