BOXY.EXE: ISS Imagent and Oximeter Data Acquisition Program Version 0.80
Ascii Record File

#ACQ INFORMATION
2  Detector Channels 
16  External MUX Channels 
1  Auxiliary Channels 
5000  Waveform (CCF) Frequency (Hz)
1  Waveforms Skipped 
30  Waveforms Averaged 
1  Cycles Averaged 
16  Acquisitions per Waveform 
10.0806  Updata Rate (Hz) 

#FILE INFORMATION
TRUE -- External MUX Channel results are PARSED.
FALSE -- AC DC and Phase are NOT grouped.
TRUE -- Companion Program Settings File CREATED.
FALSE -- AC data not excluded
FALSE -- DC data not excluded
FALSE -- Phase data not excluded
FALSE -- Auxillary Chn. data not excluded
Tab delimiters

#CALIBRATION STATE
TRUE -- Waveform Calibration Values APPLIED.


#AUX CALIBRATION VALUES
Val Type	aux-1	

Term	1.0000e+00	
Factor	0.0000e+00	


#WF CALIBRATION VALUES
A = Detector Channel
Val Type	A-AC1	A-AC2	A-AC3	A-AC4	A-AC5	A-AC6	A-AC7	A-AC8	A-AC9	A-AC10	A-AC11	A-AC12	A-AC13	A-AC14	A-AC15	A-AC16	A-DC1	A-DC2	A-DC3	A-DC4	A-DC5	A-DC6	A-DC7	A-DC8	A-DC9	A-DC10	A-DC11	A-DC12	A-DC13	A-DC14	A-DC15	A-DC16	A-Ph1	A-Ph2	A-Ph3	A-Ph4	A-Ph5	A-Ph6	A-Ph7	A-Ph8	A-Ph9	A-Ph10	A-Ph11	A-Ph12	A-Ph13	A-Ph14	A-Ph15	A-Ph16	

Term	0.00000e+00	0.00000e+00	0.00000e+00	0.00000e+00	0.00000e+00	0.00000e+00	0.00000e+00	0.00000e+00	0.00000e+00	0.00000e+00	0.00000e+00	0.00000e+00	0.00000e+00	0.00000e+00	0.00000e+00	0.00000e+00	0.00000e+00	0.00000e+00	0.00000e+00	0.00000e+00	0.00000e+00	0.00000e+00	0.00000e+00	0.00000e+00	0.00000e+00	0.00000e+00	0.00000e+00	0.00000e+00	0.00000e+00	0.00000e+00	0.00000e+00	0.00000e+00	0.00000e+00	0.00000e+00	0.00000e+00	0.00000e+00	0.00000e+00	0.00000e+00	0.00000e+00	0.00000e+00	0.00000e+00	0.00000e+00	0.00000e+00	0.00000e+00	0.00000e+00	0.00000e+00	0.00000e+00	0.00000e+00	
Factor	1.00000e+00	1.00000e+00	1.00000e+00	1.00000e+00	1.00000e+00	1.00000e+00	1.00000e+00	1.00000e+00	1.00000e+00	1.00000e+00	1.00000e+00	1.00000e+00	1.00000e+00	1.00000e+00	1.00000e+00	1.00000e+00	1.00000e+00	1.00000e+00	1.00000e+00	1.00000e+00	1.00000e+00	1.00000e+00	1.00000e+00	1.00000e+00	1.00000e+00	1.00000e+00	1.00000e+00	1.00000e+00	1.00000e+00	1.00000e+00	1.00000e+00	1.00000e+00	X	X	X	X	X	X	X	X	X	X	X	X	X	X	X	X	

B = Detector Channel
Val Type	B-AC1	B-AC2	B-AC3	B-AC4	B-AC5	B-AC6	B-AC7	B-AC8	B-AC9	B-AC10	B-AC11	B-AC12	B-AC13	B-AC14	B-AC15	B-AC16	B-DC1	B-DC2	B-DC3	B-DC4	B-DC5	B-DC6	B-DC7	B-DC8	B-DC9	B-DC10	B-DC11	B-DC12	B-DC13	B-DC14	B-DC15	B-DC16	B-Ph1	B-Ph2	B-Ph3	B-Ph4	B-Ph5	B-Ph6	B-Ph7	B-Ph8	B-Ph9	B-Ph10	B-Ph11	B-Ph12	B-Ph13	B-Ph14	B-Ph15	B-Ph16	

Term	0.00000e+00	0.00000e+00	0.00000e+00	0.00000e+00	0.00000e+00	0.00000e+00	0.00000e+00	0.00000e+00	0.00000e+00	0.00000e+00	0.00000e+00	0.00000e+00	0.00000e+00	0.00000e+00	0.00000e+00	0.00000e+00	0.00000e+00	0.00000e+00	0.00000e+00	0.00000e+00	0.00000e+00	0.00000e+00	0.00000e+00	0.00000e+00	0.00000e+00	0.00000e+00	0.00000e+00	0.00000e+00	0.00000e+00	0.00000e+00	0.00000e+00	0.00000e+00	-5.24022e+01	-1.64169e+02	-9.76990e+01	-1.80969e+02	-5.66720e+01	-9.77327e+01	-1.56073e+02	-1.62015e+02	-2.91745e+01	-6.44927e+01	-1.73276e+02	-1.70265e+02	-1.82009e+02	-1.76771e+02	-6.96488e+01	-1.50163e+02	
Factor	1.86859e-05	9.78118e-05	2.79070e-05	1.67683e-01	9.76611e-07	1.10387e-06	1.73110e-01	5.09591e-02	1.07639e-06	1.05178e-06	1.04153e-01	2.91335e-02	3.50756e-02	9.31146e-03	9.58455e-07	1.36155e-02	6.11716e-07	6.27859e-07	1.75053e-07	7.79073e-02	6.84918e-09	6.89061e-09	7.55109e-02	2.36384e-02	6.84905e-09	6.88618e-09	4.50172e-02	1.28399e-02	1.55609e-02	4.22386e-03	6.88738e-09	5.88561e-03	X	X	X	X	X	X	X	X	X	X	X	X	X	X	X	X	



#DISTANCE SETTINGS
A = Detector Channel
A-1	A-2	A-3	A-4	A-5	A-6	A-7	A-8	A-9	A-10	A-11	A-12	A-13	A-14	A-15	A-16	

2.5000e+00	3.0000e+00	2.5000e+00	3.0000e+00	2.0000e+00	3.0000e+00	1.5000e+00	3.0000e+00	3.0000e+00	3.0000e+00	3.0000e+00	3.0000e+00	3.0000e+00	3.0000e+00	1.5000e+00	3.0000e+00	

B = Detector Channel
B-1	B-2	B-3	B-4	B-5	B-6	B-7	B-8	B-9	B-10	B-11	B-12	B-13	B-14	B-15	B-16	

1.0000e+01	1.0000e+01	1.0000e+01	1.4400e+00	1.0000e+01	1.0000e+01	1.5100e+00	1.9400e+00	1.0000e+01	1.0000e+01	1.9900e+00	2.4900e+00	2.4100e+00	2.9000e+00	1.0000e+01	2.9800e+00	




#DATA BEGINS
time	group	step	mark	flag	A-AC1	A-AC2	A-AC3	A-AC4	A-AC5	A-AC6	A-AC7	A-AC8	A-AC9	A-AC10	A-AC11	A-AC12	A-AC13	A-AC14	A-AC15	A-AC16	A-DC1	A-DC2	A-DC3	A-DC4	A-DC5	A-DC6	A-DC7	A-DC8	A-DC9	A-DC10	A-DC11	A-DC12	A-DC13	A-DC14	A-DC15	A-DC16	A-Ph1	A-Ph2	A-Ph3	A-Ph4	A-Ph5	A-Ph6	A-Ph7	A-Ph8	A-Ph9	A-Ph10	A-Ph11	A-Ph12	A-Ph13	A-Ph14	A-Ph15	A-Ph16	B-AC1	B-AC2	B-AC3	B-AC4	B-AC5	B-AC6	B-AC7	B-AC8	B-AC9	B-AC10	B-AC11	B-AC12	B-AC13	B-AC14	B-AC15	B-AC16	B-DC1	B-DC2	B-DC3	B-DC4	B-DC5	B-DC6	B-DC7	B-DC8	B-DC9	B-DC10	B-DC11	B-DC12	B-DC13	B-DC14	B-DC15	B-DC16	B-Ph1	B-Ph2	B-Ph3	B-Ph4	B-Ph5	B-Ph6	B-Ph7	B-Ph8	B-Ph9	B-Ph10	B-Ph11	B-Ph12	B-Ph13	B-Ph14	B-Ph15	B-Ph16	aux-1	digaux	

1153.700	1	1	0	256	0.11796	0.16766	0.22885	0.27946	0.17485	0.042032	0.094266	0.24388	0.1673	0.11383	0.10755	0.047567	0.2704	0.23174	0.37147	0.26226	-2.6562	-2.8917	-3.0833	-2.9521	-3.0062	-3.2687	-3.0708	-3.275	-3.1854	-2.9	-3.3063	-3.0375	-3.1833	-3.2604	-2.8729	-3.2458	7.626	42.312	87.199	81.536	25.406	-49.046	161.650	120.047	94.069	-65.330	185.430	159.123	171.401	-132.474	-35.528	130.375	0.00049178	0.00047163	0.00014527	1323.2	7.4212e-06	3.4863e-06	1328.2	361.12	7.3638e-06	5.8673e-06	410.11	138.1	119.2	40.961	2.1303e-06	51.072	0.00045128	0.00041373	0.0001065	1323.6	4.7907e-06	4.3358e-06	1320.9	361.72	4.5986e-06	4.3061e-06	405.13	138.04	118.58	40.761	4.155e-06	51.125	-93.360	-71.219	-51.626	-157.136	10.803	3.364	-157.458	-152.733	0.203	-4.290	-153.101	-148.887	-147.958	-143.525	-55.411	-144.405	-8191	255	
1153.796	1	1	0	0	0.076292	0.13403	0.018246	0.38428	0.26394	0.19718	0.48272	0.31049	0.041307	0.2897	0.031505	0.088394	0.30112	0.24409	0.23993	0.3066	-2.7875	-2.8146	-3.1625	-3.1188	-3.1417	-3.2104	-3.0354	-3.1125	-3.05	-2.7396	-3.3812	-3.0042	-3.15	-3.3187	-2.8958	-3.225	67.441	-132.166	-145.030	104.788	79.826	174.159	150.090	174.972	-25.271	157.443	-62.464	-153.744	-152.093	175.708	1.551	111.980	0.00044797	0.00062219	0.00011158	1325.6	2.0097e-06	1.9693e-06	1329.2	360.33	4.6937e-06	7.5175e-06	412.15	137.68	119.77	41.109	6.6384e-07	51.177	0.00041185	0.00038551	0.00010465	1325.7	4.509e-06	4.1575e-06	1324.1	362.49	4.4922e-06	4.272e-06	408.87	138.94	119.17	41.071	4.7005e-06	51.744	-82.857	-112.268	184.236	-157.150	-35.434	-11.011	-157.461	-152.668	-0.666	5.088	-153.292	-148.821	-148.003	-143.567	179.032	-144.423	-8191	255	
1153.892	1	1	0	0	0.12954	0.16099	0.25402	0.1782	0.13081	0.16106	0.30565	0.19339	0.20167	0.07863	0.022304	0.26935	0.14037	0.3205	0.065169	0.034588	-2.7104	-2.8771	-3.1125	-3.1604	-2.7104	-3.35	-3.0438	-3.375	-3.0812	-2.8	-3.2729	-3.1625	-3.1333	-3.3396	-2.9625	-3.1604	36.034	178.387	26.689	165.882	111.334	34.018	136.281	79.733	72.810	-13.973	-90.819	-154.453	133.438	171.052	-126.475	-33.546	0.00048004	0.00090947	7.0598e-05	1336.8	2.7979e-06	4.4149e-06	1346.1	364.74	6.6509e-06	1.7258e-06	417.11	139.47	120.68	41.393	4.7402e-06	51.588	0.00043913	0.0004196	0.00012599	1346.2	5.0061e-06	4.6719e-06	1352	368.2	5.0139e-06	4.7609e-06	418.71	141.13	121.3	41.588	5.4885e-06	52.221	-83.361	-116.518	-109.807	-157.256	21.810	-77.727	-157.485	-152.482	31.459	59.012	-153.451	-148.559	-148.201	-143.519	-79.085	-144.328	-8191	255	
1153.988	1	1	0	0	0.17299	0.15669	0.095089	0.059129	0.15199	0.085856	0.062818	0.30408	0.21071	0.19845	0.20539	0.044831	0.12783	0.066751	0.16791	0.18181	-2.675	-2.8375	-3.1458	-3.1458	-3.0187	-3.4604	-3.1063	-3.2313	-3.1958	-2.7854	-3.2979	-3.0979	-3.0375	-3.3438	-2.9979	-3.1813	155.384	-102.213	-97.061	-127.119	142.360	-158.388	160.565	151.103	81.415	-152.850	128.918	169.110	183.736	65.827	55.055	-169.807	0.00048984	0.0005371	7.6986e-05	1345.5	2.0541e-06	5.1687e-06	1349	366.05	1.0086e-05	3.4306e-06	417.57	139.43	121.04	41.471	1.4503e-06	51.477	0.00045855	0.00044449	0.00014244	1353.3	5.1828e-06	4.9464e-06	1363.3	369.44	5.1911e-06	5.1965e-06	423.88	141.87	122.19	42.003	6.0715e-06	52.519	-82.940	-160.783	-164.737	-157.251	-103.015	-101.705	-157.536	-152.638	-28.176	-81.530	-153.310	-148.595	-148.102	-143.821	32.641	-144.340	-8191	255	
1154.107	1	1	0	0	0.13779	0.050851	0.02968	0.11352	0.23083	0.11144	0.20702	0.17194	0.2063	0.26844	0.088682	0.15073	0.16904	0.079655	0.10655	0.071411	-2.6604	-2.9104	-3.0625	-3.1667	-2.9688	-3.3125	-3.2042	-3.2687	-3.2667	-2.8229	-3.1604	-2.9333	-3	-3.2438	-2.9104	-3.0667	-157.937	-15.181	-27.558	99.775	-0.011	163.497	120.496	148.519	-108.509	-7.480	-109.355	165.716	182.155	153.321	2.711	139.066	0.00055036	0.00058823	8.9245e-05	1344.8	4.844e-06	4.7115e-06	1353.6	366.05	7.2263e-06	6.6349e-06	419.24	140.11	121.45	41.53	7.0896e-06	51.429	0.00047074	0.00048948	0.00015466	1357.2	5.2664e-06	5.4572e-06	1368.3	370.22	5.2501e-06	5.6605e-06	426.4	142.07	122.15	42.355	6.1873e-06	52.618	-87.444	169.228	-108.997	-157.314	-39.981	-114.182	-157.491	-152.585	-27.243	-76.946	-153.056	-148.688	-148.175	-143.914	-9.571	-144.543	-8191	255	
1154.180	1	1	0	0	0.025869	0.16845	0.10168	0.39123	0.2236	0.03584	0.099946	0.12483	0.17395	0.25888	0.1487	0.18669	0.16131	0.20807	0.15043	0.25665	-2.7833	-2.9437	-3.1312	-3.2979	-2.9396	-3.2062	-3.2396	-3.0375	-3.2875	-3.1646	-3.2833	-3.1917	-2.9313	-3.2687	-3.2125	-3.2354	77.329	-138.260	-39.272	-167.870	118.375	76.658	72.084	-149.791	158.120	-139.353	137.246	113.600	-140.084	-144.382	184.158	86.390	0.0004256	0.00015821	0.00015933	1350.4	5.0012e-06	3.8046e-06	1360.4	367.41	7.9824e-06	3.7392e-06	418.59	139.85	121.65	41.578	5.4263e-06	51.808	0.00048156	0.00054469	0.00015773	1361.7	5.3873e-06	6.0457e-06	1376.4	371.24	5.3665e-06	6.2297e-06	426.93	142.27	122.96	42.811	6.1334e-06	52.586	-85.524	170.061	-72.519	-157.315	-85.586	155.823	-157.294	-152.631	-46.160	-31.574	-153.205	-148.697	-148.236	-143.839	1.128	-144.507	-8191	255	
1154.299	1	1	0	0	0.061615	0.14537	0.11119	0.21402	0.11301	0.10009	0.10734	0.18964	0.27997	0.2281	0.20742	0.18472	0.2309	0.27277	0.11482	0.22606	-2.9437	-2.8771	-2.9771	-3.3063	-2.7854	-3.1	-3.3354	-3.1271	-3.2021	-2.8771	-3.0771	-3.325	-3.0333	-3.1188	-3.0312	-2.9375	-90.626	131.056	180.536	171.165	-48.455	143.616	123.505	132.040	-118.831	-104.946	125.948	133.012	183.003	144.310	140.164	74.020	0.00046188	0.00031747	0.00020693	1355	5.9989e-06	4.5115e-06	1359	366.5	5.7453e-06	1.961e-06	418.38	139.73	121.32	41.448	1.406e-06	51.569	0.00049421	0.0005758	0.00015244	1361.1	5.3933e-06	6.1657e-06	1368.2	369.51	5.1424e-06	5.9172e-06	420.9	140.48	121.42	42.202	5.0913e-06	51.673	-80.970	-70.802	12.264	-157.254	-93.141	-116.713	-157.459	-152.576	-60.426	85.795	-153.207	-148.653	-148.551	-143.693	35.206	-144.564	-8191	255	
1154.395	1	1	0	0	0.097676	0.17461	0.33047	0.08026	0.14102	0.32212	0.23727	0.25416	0.25977	0.20346	0.056604	0.13043	0.16357	0.26442	0.065182	0.22011	-2.9771	-2.8646	-2.9604	-3.3396	-2.8292	-3.2313	-3.3646	-3.0938	-3.2771	-2.8917	-2.9062	-3.4167	-3.0396	-3.0938	-3.2375	-3.1312	-62.294	-95.570	-17.430	178.319	-17.679	-65.301	41.597	-83.237	-26.199	-161.325	82.294	156.862	71.493	127.070	-82.309	156.199	0.00056367	0.00027167	0.00013261	1342.7	6.92e-06	1.5724e-06	1347.4	365.3	9.6116e-06	5.8845e-06	417.45	139.03	120.06	41.374	1.8454e-06	51.278	0.00045017	0.00049844	0.00012676	1341.1	4.9452e-06	5.3501e-06	1347.8	365.68	4.9605e-06	5.3078e-06	416.23	138.92	121.07	41.904	4.8518e-06	51.452	-92.178	-101.450	-86.729	-157.267	-55.254	-31.116	-157.318	-152.511	-66.980	-13.656	-153.202	-148.887	-148.182	-143.770	12.285	-144.547	-8191	255	
1154.492	1	1	0	0	0.14341	0.1331	0.19994	0.21462	0.34462	0.16213	0.31006	0.22254	0.28817	0.0030418	0.0056557	0.26965	0.21093	0.2905	0.10957	0.1869	-2.7687	-3.0979	-2.9104	-3.5187	-2.8604	-3.125	-3.3458	-2.95	-3.2542	-3.0938	-3.0521	-3.4313	-3.15	-3.1312	-3.175	-3.0625	63.668	154.175	-78.984	-124.474	-114.917	-55.542	123.615	138.336	-26.095	-103.647	117.857	101.956	152.421	173.863	169.351	86.234	0.00053798	0.00047515	9.5743e-05	1342.4	1.6309e-06	3.3012e-06	1343.8	365.79	3.6038e-06	3.4414e-06	418.26	139.35	120.77	41.358	4.0917e-06	51.363	0.00048101	0.00048824	0.0001269	1342.5	5.4762e-06	5.4586e-06	1350.4	367.27	5.5643e-06	5.4073e-06	417.31	139.87	122.42	42.012	4.9937e-06	51.891	-86.236	-108.661	8.063	-157.239	-147.868	-21.438	-157.590	-152.565	-93.065	3.330	-153.205	-148.929	-148.186	-143.737	-113.640	-144.360	-8191	255	
1154.588	1	1	0	0	0.056602	0.098637	0.072861	0.21049	0.099796	0.20079	0.36221	0.31192	0.21876	0.21064	0.17358	0.14438	0.057421	0.098141	0.23747	0.18308	-2.7896	-2.9875	-2.9354	-3.3812	-3.0812	-2.8521	-3.3625	-2.9229	-3.2271	-3.1646	-3.0792	-3.1125	-2.9562	-3.0187	-3.1875	-2.9458	-39.259	-74.339	17.597	-156.894	-116.984	-19.725	147.209	144.382	11.848	-53.028	179.528	164.367	-125.230	5.748	98.664	123.243	0.00051625	0.00037736	0.00013626	1346.9	2.6018e-06	6.3838e-06	1350.5	366.93	7.9483e-06	2.4181e-06	417.96	139.26	120.61	41.324	4.9483e-06	51.58	0.00052926	0.00049647	0.00013126	1350.5	5.9406e-06	5.5445e-06	1354.7	369.36	5.9698e-06	5.4423e-06	419.36	141.1	123.32	42.079	5.1265e-06	52.516	-93.702	-54.049	-19.007	-157.357	-51.327	-11.185	-157.376	-152.663	-46.646	7.072	-153.376	-148.885	-148.245	-143.647	-96.715	-144.620	-8191	255	
1154.708	1	1	0	0	0.24793	0.2438	0.106	0.095862	0.14209	0.28058	0.19188	0.1403	0.19219	0.038982	0.21146	0.26421	0.2502	0.25651	0.07744	0.42109	-2.7292	-3.1271	-2.7354	-3.375	-2.9458	-2.9479	-3.3604	-3.0417	-3.2792	-3.0458	-2.9813	-3.35	-3.0479	-2.9542	-3.2125	-3.0104	141.556	19.055	-33.955	106.634	151.830	-145.898	141.932	-167.063	-12.380	27.187	-143.773	-165.049	-131.397	-82.225	-31.178	153.774	0.00045413	9.2229e-05	0.00010122	1354	3.0977e-06	5.5317e-06	1357.7	368.21	8.7771e-06	7.04e-06	419.96	140.31	122.44	41.708	2.1528e-06	51.941	0.00055195	0.00050324	0.00013562	1364.1	6.2342e-06	5.8239e-06	1365.5	374.36	6.4377e-06	5.9025e-06	424.4	144.02	125.58	42.714	5.7394e-06	53.714	-78.544	-124.883	-50.706	-157.246	24.212	-26.145	-157.218	-152.711	42.477	-20.237	-153.082	-148.797	-148.329	-143.936	-109.532	-144.469	-8191	255	
1154.780	1	1	0	0	0.11873	0.20152	0.12253	0.29715	0.088083	0.20956	0.32063	0.21135	0.089913	0.12519	0.099563	0.1104	0.12265	0.36278	0.22166	0.091281	-2.5583	-2.9729	-2.825	-3.2771	-3.0583	-2.7792	-3.4729	-3.1813	-3.0687	-3.2875	-3.0563	-3.3167	-3.0521	-2.9292	-3.2958	-2.9917	-92.621	66.597	10.646	186.109	168.932	-25.096	127.035	146.726	9.423	-30.140	145.948	134.157	65.892	119.564	-86.508	79.380	0.00041194	0.00076105	6.1653e-05	1362.1	8.0916e-06	3.9766e-06	1365.2	369.54	1.0653e-05	5.4561e-06	420.41	140.85	122.54	41.71	3.3964e-06	51.895	0.00059297	0.00054479	0.0001495	1386.7	6.3417e-06	5.9468e-06	1378.9	377.47	6.2838e-06	5.7564e-06	426.7	144.75	124.79	42.542	5.7363e-06	53.527	-75.572	-115.291	-111.445	-157.209	15.978	26.993	-157.588	-152.755	1.035	-11.269	-153.464	-148.639	-148.014	-143.973	-134.229	-144.467	-8191	255	
1154.876	1	1	0	0	0.23301	0.17578	0.1385	0.15047	0.095824	0.046099	0.17765	0.075723	0.17355	0.097336	0.30256	0.20145	0.052562	0.22235	0.13611	0.24839	-2.4667	-3.2062	-2.8083	-3.3417	-3.0687	-2.8125	-3.5479	-3.375	-2.925	-3.2208	-3.0542	-3.0458	-3.1646	-3.1083	-3.15	-3.1604	25.753	-32.381	-26.230	102.436	-126.602	97.638	146.464	178.302	-138.954	42.307	172.849	101.117	-17.179	120.617	89.650	135.043	0.00042737	0.000399	8.5896e-05	1365.5	5.454e-06	3.6853e-06	1367.7	368.03	5.2583e-06	4.629e-06	419.97	140.41	122.23	41.706	5.1765e-06	51.944	0.00053289	0.00048945	0.00014381	1381.3	5.4751e-06	5.1498e-06	1374.9	373.53	5.3467e-06	4.9326e-06	423.14	142.99	122.81	42.037	5.6309e-06	52.974	-84.568	-126.189	-162.760	-157.281	18.632	-7.887	-157.430	-152.565	-45.092	-112.532	-153.492	-148.875	-148.243	-143.722	134.715	-144.577	-8191	255	
1154.997	1	1	0	0	0.26614	0.066133	0.12625	0.089357	0.3734	0.052889	0.35436	0.21545	0.13162	0.076824	0.12926	0.23246	0.061403	0.12137	0.19558	0.095295	-2.625	-3.3521	-2.9792	-3.2458	-3.0938	-2.9813	-3.5354	-3.1771	-2.9958	-3.3208	-3.0875	-3.1063	-3.4146	-2.9458	-3.1521	-3.1479	179.993	177.166	-99.337	143.469	69.203	-91.875	119.907	181.232	188.882	-9.773	33.238	100.559	141.206	36.503	-1.302	38.046	0.00046268	0.00012361	0.00032723	1371.8	3.2162e-06	7.7307e-06	1374.4	369.86	7.647e-06	4.1299e-06	421.72	140.67	123.14	41.743	5.9243e-06	52.019	0.00049061	0.00045992	0.00014841	1383.3	5.366e-06	5.2435e-06	1387.1	374.33	5.4923e-06	5.2557e-06	428.21	143.49	123.61	42.318	6.1734e-06	52.906	-83.930	-62.702	-163.774	-157.332	-8.638	-139.516	-157.293	-152.537	30.068	-125.039	-153.071	-148.697	-148.313	-143.808	-121.491	-145.048	-8191	255	
1155.091	1	1	0	0	0.20098	0.1799	0.17141	0.19153	0.22311	0.038073	0.29902	0.18798	0.12443	0.063972	0.065543	0.17679	0.42294	0.34087	0.17813	0.11497	-2.5854	-3.1104	-2.8896	-3.3521	-3.1937	-2.9271	-3.3021	-3.2042	-2.9062	-3.2938	-3.2167	-3.1312	-3.175	-3.0833	-3.2792	-3.4	17.442	44.424	144.544	137.695	138.596	-77.704	159.670	145.354	183.145	-141.060	-18.163	145.094	122.020	146.743	16.637	43.986	0.00047505	0.00027575	1.7574e-05	1361.9	4.7572e-06	8.1099e-06	1369.6	369.29	7.2326e-06	7.4373e-06	420.93	141.14	122.5	41.699	3.8998e-06	51.875	0.00048993	0.00047933	0.00015481	1375.1	5.0781e-06	5.2629e-06	1383.5	371.86	5.105e-06	5.2634e-06	426.11	142.53	122.31	42.252	5.9701e-06	52.509	-82.000	161.653	34.034	-157.231	-54.454	-111.490	-157.342	-152.586	-10.248	-115.232	-153.145	-148.673	-148.360	-143.805	24.661	-144.536	-8191	255	
1155.187	1	1	0	0	0.097866	0.24813	0.22668	0.14492	0.17094	0.091736	0.004951	0.19507	0.032294	0.07087	0.25483	0.28482	0.16956	0.1587	0.18613	0.19541	-2.5104	-3.2458	-2.7583	-3.1833	-3.2562	-3.0333	-3.3521	-3.4708	-2.8187	-3.3083	-3.2146	-3.2479	-3.2167	-3.1083	-3.2208	-3.4396	118.122	-58.703	166.982	161.657	-63.167	79.515	-121.026	104.417	-82.876	62.633	-155.942	-132.022	136.077	143.150	-10.439	4.250	0.00048473	0.00016027	0.00011072	1364.5	4.5701e-06	6.8243e-06	1366.4	368.38	4.8739e-06	2.6088e-06	420.08	140.68	121.78	41.629	6.7782e-06	51.762	0.00046589	0.00049847	0.00014963	1370	4.9134e-06	5.558e-06	1378.2	370.86	4.8905e-06	5.4904e-06	422.75	141.7	121.35	42.297	5.4081e-06	51.951	-76.463	59.596	-47.400	-157.112	22.619	-96.423	-157.557	-152.685	-53.959	-12.936	-153.191	-148.792	-148.356	-143.760	-34.238	-144.597	-8191	255	
1155.284	1	1	0	0	0.11875	0.12837	0.081408	0.2242	0.08364	0.13597	0.21788	0.24066	0.035727	0.1772	0.079993	0.26568	0.16025	0.24474	0.061272	0.11206	-2.5167	-3	-3.0146	-3.1813	-3.4521	-2.8375	-3.3458	-3.4146	-2.9083	-3.2146	-3.0708	-3.0271	-3.2042	-3.0229	-3.0729	-3.3229	172.989	73.783	5.437	187.616	46.910	81.411	84.031	85.222	78.879	89.405	157.225	94.291	-158.642	-150.899	-71.946	81.954	0.0004598	0.00027409	0.00021361	1360.9	5.5849e-06	1.3164e-06	1360.2	367.78	3.2403e-06	5.5933e-06	419.69	140.27	122.08	41.571	9.7091e-06	51.785	0.0004278	0.00049073	0.0001319	1360.6	4.5331e-06	5.3433e-06	1365.3	368.2	4.6428e-06	5.348e-06	418.59	140.39	121	42.168	4.9493e-06	51.666	-87.124	-140.887	-31.616	-157.238	-144.824	-5.641	-157.262	-152.581	-62.235	-48.894	-153.074	-148.812	-148.263	-143.720	-17.617	-144.633	-8191	255	
1155.404	1	1	0	0	0.11	0.24009	0.062918	0.2935	0.4148	0.098954	0.11674	0.31513	0.10153	0.09077	0.27724	0.20109	0.08447	0.075034	0.081666	0.10094	-2.5708	-3.2354	-3.0375	-3.0771	-3.2979	-3.0042	-3.3042	-3.4292	-2.9604	-3.1979	-3.2542	-3.1562	-3.2438	-3.2521	-2.9542	-3.4167	-68.692	102.937	-134.871	167.137	181.153	36.846	49.600	115.530	-50.859	186.322	132.502	135.391	58.150	166.832	12.774	99.948	0.00049903	0.00023787	0.0001429	1356.9	4.0703e-06	6.1603e-06	1358.5	367.08	7.1222e-06	2.6486e-06	418.83	140.31	121.28	41.294	4.8812e-06	51.542	0.000433	0.00048672	0.00012368	1354.8	4.745e-06	5.3352e-06	1360.7	367.48	4.8635e-06	5.232e-06	416.18	139.81	121.31	41.959	4.6768e-06	51.413	-93.741	-112.595	-28.950	-157.232	-130.923	-16.534	-157.403	-152.555	-134.772	28.600	-153.307	-148.861	-148.538	-143.491	-28.122	-144.583	-8191	255	
1155.476	1	1	0	0	0.21652	0.097562	0.1761	0.044496	0.26561	0.01968	0.30561	0.048812	0.092359	0.082794	0.45144	0.15405	0.24059	0.15618	0.083432	0.13671	-2.6813	-3.1813	-3.0104	-2.9125	-3.3	-3.0396	-3.0938	-3.5271	-2.9271	-3.2979	-3.2562	-3.0104	-3.2208	-3.0833	-2.8729	-3.2917	95.242	-99.192	85.531	-101.719	67.171	157.262	133.366	109.300	76.145	-168.681	84.576	168.675	131.808	98.465	-133.019	103.957	0.00046945	0.00051152	9.5867e-05	1354	8.1928e-06	4.1456e-06	1359.4	366.76	6.1451e-06	7.8336e-06	417.7	140.03	121.74	41.566	2.9219e-06	51.434	0.00045126	0.00046468	0.00011715	1351	4.979e-06	5.0127e-06	1358.4	366.71	5.0503e-06	4.9834e-06	414.77	139.67	121.81	41.822	4.5391e-06	51.335	-101.441	-93.262	-66.392	-157.327	-135.472	-4.618	-157.363	-152.512	-40.575	32.693	-153.319	-148.731	-148.108	-143.804	-19.034	-144.747	-8191	255	
1155.572	1	1	0	0	0.16691	0.2177	0.26727	0.15022	0.12932	0.18857	0.10266	0.22193	0.15424	0.15115	0.094284	0.17803	0.18918	0.25455	0.14285	0.26436	-2.6437	-2.8833	-3.3146	-3.2417	-3.2229	-3.3063	-2.9313	-3.4083	-3.1146	-3.2625	-3.425	-3.0854	-3.0875	-3.275	-2.8542	-3.2896	23.406	72.255	-26.362	173.311	-134.325	180.108	64.775	68.845	-128.213	-71.418	180.529	156.080	163.057	147.819	59.338	152.832	0.00047162	0.0004729	0.00011416	1359.7	1.8103e-06	3.3294e-06	1361	367.81	7.4404e-06	2.6054e-06	419.01	140.11	121.12	41.595	5.5645e-06	51.733	0.0004672	0.00044049	0.0001119	1351.7	5.0775e-06	4.7013e-06	1353.8	367.06	5.0781e-06	4.6741e-06	413.47	139.93	121.73	41.613	4.3122e-06	51.513	-87.252	-92.054	-75.652	-157.198	-87.745	-132.612	-157.357	-152.558	-56.711	166.152	-153.236	-148.619	-148.223	-143.583	-4.480	-144.590	-8191	255	
1155.668	1	1	0	0	0.18755	0.1875	0.073436	0.28971	0.038617	0.10515	0.14436	0.12325	0.068191	0.1781	0.19522	0.13354	0.14786	0.2726	0.16512	0.17897	-2.5854	-2.9542	-3.2708	-3.1437	-3.1771	-3.2229	-3.0917	-3.3771	-3.0812	-3.0208	-3.5667	-3.0563	-3.3375	-3.2979	-2.9688	-3.3667	-98.001	-26.430	164.053	-165.229	-126.561	-44.865	134.135	78.818	-46.427	57.932	-37.269	-167.932	-162.642	125.830	-134.824	-147.774	0.00051394	0.00066243	0.0001252	1349.2	4.7529e-06	3.6766e-06	1355.9	367.42	6.9136e-06	4.8181e-06	418.79	139.56	121.6	41.606	4.1093e-06	51.618	0.00045787	0.00041562	0.00010688	1348.3	4.9928e-06	4.4852e-06	1351.2	367.9	4.9303e-06	4.5473e-06	412.95	140.39	121.44	41.503	4.3104e-06	51.877	-86.949	-124.911	10.483	-157.353	56.302	40.452	-157.318	-152.528	-4.100	45.008	-153.050	-148.930	-148.271	-143.737	-69.216	-144.402	-8191	255	
1155.789	1	1	0	0	0.10915	0.13308	0.073355	0.12119	0.15416	0.21318	0.1624	0.21018	0.046868	0.02943	0.3505	0.019229	0.14081	0.14312	0.17404	0.095476	-2.6813	-3.0187	-3.2896	-3.175	-3.075	-3.4437	-3.1729	-3.3563	-3.0479	-2.9542	-3.2896	-3.1875	-3.1437	-3.5021	-2.8958	-3.4396	-6.157	-101.396	61.269	34.882	16.080	185.908	115.804	123.567	126.500	-157.480	131.734	-26.550	-148.093	-111.657	-23.263	169.807	0.00043509	0.00047284	0.00012559	1355.6	4.6465e-06	2.9144e-06	1355.3	368	5.6132e-06	4.8168e-06	418.31	140.09	121.25	41.434	5.0497e-06	51.492	0.00044831	0.00041638	0.00010987	1356.1	4.927e-06	4.4954e-06	1352.7	369.36	4.8962e-06	4.5929e-06	414.47	141.14	121.36	41.498	4.5477e-06	52.096	-67.161	-62.922	-64.942	-157.405	-32.721	21.949	-157.333	-152.634	45.335	-20.671	-153.141	-148.746	-148.080	-143.665	-73.899	-144.487	-8191	255	
1155.885	1	1	0	0	0.2137	0.1467	0.1238	0.19711	0.10645	0.19608	0.15744	0.15212	0.0929	0.049417	0.25209	0.17697	0.06016	0.15209	0.084749	0.095312	-2.5333	-3.1521	-3.3417	-3.1729	-3.1396	-3.2292	-3.1646	-3.4875	-3.2833	-2.9771	-3.3833	-3.1937	-3.1083	-3.2812	-2.8479	-3.2771	158.774	141.574	-39.983	176.275	-4.279	169.627	102.585	162.573	-35.509	172.025	172.053	69.828	32.285	167.317	-69.775	-34.118	0.00042689	0.00054105	4.6315e-05	1354.6	2.7211e-06	2.7498e-06	1357.2	367.2	3.4799e-06	2.6236e-06	418.22	139.63	121.5	41.418	6.7042e-06	51.558	0.00043645	0.00041097	0.00011711	1358.9	4.7636e-06	4.4254e-06	1357.2	370.01	4.726e-06	4.4914e-06	416.71	141.15	120.96	41.468	4.9054e-06	52.052	-74.558	-138.582	-42.984	-157.310	-52.777	159.038	-157.362	-152.408	23.993	-14.628	-153.394	-148.741	-148.339	-143.827	-89.760	-144.412	-8191	255	
1155.981	1	1	0	0	0.28493	0.11429	0.10394	0.081541	0.16123	0.15961	0.02277	0.11129	0.24327	0.12915	0.28978	0.10182	0.14043	0.14186	0.1491	0.25353	-2.7229	-2.875	-3.1042	-3.2229	-2.8604	-3.2625	-3.1688	-3.3333	-3.2125	-2.8896	-3.2771	-3.0667	-3.3063	-3.2396	-2.975	-3.1792	-131.443	-50.277	31.762	165.489	-137.685	-138.557	151.498	103.360	165.179	101.006	161.945	146.739	-152.165	-75.376	40.444	122.577	0.00038216	0.00021294	0.00010762	1354.4	4.0499e-06	2.8253e-06	1355.6	367.25	5.0314e-06	5.5574e-06	420.4	140.03	121.49	41.293	5.3715e-06	51.615	0.00042362	0.00040251	0.00012505	1356.5	4.6107e-06	4.3316e-06	1359.9	369.04	4.4927e-06	4.3489e-06	417.97	140.21	120.16	41.298	4.9899e-06	51.667	-88.779	-78.751	66.850	-157.130	-84.150	-100.584	-157.307	-152.549	-29.426	4.395	-153.276	-148.466	-148.199	-143.692	-80.762	-144.804	-8191	255	
1156.077	1	1	0	0	0.14811	0.11481	0.078816	0.18797	0.13611	0.059385	0.28071	0.050577	0.23452	0.13342	0.15328	0.32262	0.14458	0.015963	0.095139	0.25153	-2.7917	-2.8583	-3.2021	-3.3896	-2.925	-3.2854	-3.225	-3.1771	-3.2646	-2.9271	-3.3208	-3.1042	-2.9833	-3.2292	-3.0563	-3.1021	75.154	-13.111	-130.879	115.989	-116.281	-12.795	67.175	168.730	-5.789	-64.529	127.401	-139.537	1.309	-129.186	132.748	-136.208	0.00041964	0.00027715	4.6394e-05	1353.4	3.7373e-06	3.7525e-06	1351.5	366.53	4.6282e-06	5.4282e-06	418.74	139.44	121.1	41.279	1.9182e-06	51.592	0.00039925	0.00039516	0.00012645	1350.7	4.3481e-06	4.2748e-06	1357.3	366.98	4.2158e-06	4.347e-06	417.36	139.51	119.44	41.272	4.8913e-06	51.33	-86.002	-169.629	-80.570	-157.217	-24.063	181.829	-157.399	-152.611	-39.060	-6.380	-153.216	-148.622	-148.262	-143.718	-84.647	-144.297	-8191	255	
1156.172	1	1	0	0	0.34226	0.16146	0.055433	0.29038	0.26488	0.099832	0.21069	0.27665	0.1418	0.14476	0.51725	0.19472	0.16223	0.14955	0.16554	0.12902	-2.85	-2.9688	-2.9917	-3.2833	-2.775	-3.3771	-3.1646	-3.1458	-3.2271	-2.8458	-3.1958	-3.3292	-2.9667	-3.2333	-3.0542	-2.9958	-91.100	-54.287	37.319	156.108	-48.261	-61.318	126.834	119.813	-38.211	106.009	170.211	176.192	-155.780	-112.266	67.268	170.280	0.00041575	0.00053272	6.9728e-05	1347.2	3.0636e-06	2.8164e-06	1351.1	366.53	6.2988e-06	4.2732e-06	419.23	139.35	121.52	41.536	6.5623e-06	51.518	0.0003786	0.00040611	0.00012464	1343.5	4.1895e-06	4.5039e-06	1353.1	366.42	4.0691e-06	4.6429e-06	416.53	139.05	119.29	41.499	4.7118e-06	51.12	-80.634	183.235	-15.055	-157.221	-69.121	176.292	-157.301	-152.614	-44.677	152.083	-153.237	-148.772	-148.146	-143.681	-17.908	-144.279	-8191	255	
1156.270	1	1	0	0	0.19251	0.21006	0.051098	0.34312	0.1947	0.13254	0.11674	0.063509	0.28086	0.21341	0.20188	0.10016	0.18078	0.10017	0.10896	0.32261	-2.9729	-2.9437	-3.0396	-3.2229	-3.0083	-3.2458	-3.2167	-3.0875	-3.1562	-3.0187	-3.2146	-3.3167	-2.85	-3.1667	-3.0396	-2.8979	116.335	127.442	108.393	127.260	-130.548	26.784	117.622	-81.054	95.796	-77.280	66.407	69.350	-169.857	-37.181	147.084	-143.939	0.0005826	0.00022856	0.00016267	1348.3	2.1994e-06	8.2592e-06	1352.7	366.99	5.4896e-06	5.0974e-06	419.37	139.36	121.03	41.411	8.3817e-06	51.352	0.00036736	0.0004287	0.00011914	1342.2	4.11e-06	4.7596e-06	1351.4	365.6	4.0983e-06	4.88e-06	415.29	138.86	119.52	41.727	4.5649e-06	51.096	-88.533	184.152	26.984	-157.175	-127.396	-106.321	-157.363	-152.396	-14.018	-83.013	-153.143	-148.648	-148.235	-143.975	-2.340	-144.334	-8191	255	
1156.388	1	1	0	0	0.2966	0.274	0.25661	0.16654	0.17909	0.12072	0.21989	0.22788	0.21837	0.16479	0.24673	0.15685	0.233	0.23796	0.32606	0.39055	-2.8104	-2.8792	-2.9562	-3.3917	-2.9979	-3.225	-3.2229	-3.0125	-3.2562	-2.9083	-3.1917	-3.3354	-3.1	-3.2583	-3.1854	-3.0187	-21.026	-115.561	16.300	151.872	-110.177	183.380	120.756	-143.784	-8.005	49.682	151.904	170.120	-165.804	158.116	182.673	109.192	0.00055084	9.4612e-05	0.00011629	1348.2	4.6748e-06	7.2682e-06	1348.7	365.21	6.2781e-06	4.7044e-06	417.03	139.4	121.31	41.476	5.1837e-06	51.293	0.00038715	0.0004457	0.00011428	1340.7	4.2787e-06	4.8068e-06	1347.9	364.57	4.25e-06	4.7467e-06	412.31	138.27	119.56	41.515	4.2136e-06	50.839	-86.369	-126.760	24.352	-157.222	-103.691	-43.087	-157.307	-152.349	-19.066	23.468	-153.147	-148.643	-148.321	-143.676	13.688	-144.525	-8191	255	
1156.485	1	1	0	0	0.12683	0.3	0.13613	0.15887	0.17791	0.099126	0.21992	0.13163	0.23164	0.14546	0.26021	0.11809	0.13738	0.15116	0.25865	0.1423	-2.8146	-2.9354	-2.9771	-3.2396	-2.8979	-3.1188	-3.175	-2.9458	-3.2938	-3.1958	-3.1833	-3.2917	-2.8396	-3.1583	-3.1437	-3.0208	-54.285	57.635	-131.972	-169.605	163.552	-124.602	89.911	-67.980	29.541	73.584	-147.881	-148.268	146.250	64.834	38.901	-20.733	0.00056175	0.00025882	0.00033235	1339.7	4.1475e-06	4.994e-06	1347	365.96	5.4169e-06	4.4262e-06	417.1	139.63	121.08	41.117	2.6476e-06	51.56	0.00039844	0.00042213	0.00010726	1332.9	4.4518e-06	4.589e-06	1342.7	363.97	4.5108e-06	4.5415e-06	410.84	138.28	119.98	41.356	4.1234e-06	50.865	-89.609	-92.777	-23.442	-157.175	-83.859	-46.408	-157.408	-152.530	-47.708	9.763	-153.192	-148.837	-148.144	-143.765	2.771	-144.525	-8191	255	
1156.581	1	1	0	0	0.12519	0.22107	0.16965	0.16313	0.16682	0.12255	0.15894	0.3754	0.1471	0.005778	0.097359	0.2486	0.030273	0.29437	0.183	0.36198	-2.7167	-2.9813	-2.8063	-3.4292	-3.0458	-3.0229	-3.5771	-3.1	-3.0625	-3.2583	-2.9917	-3.2375	-3.0375	-3.1875	-3.2208	-2.9396	130.273	37.403	29.187	55.359	-29.566	-94.005	137.769	124.268	-112.060	138.299	59.094	111.034	-48.578	-143.526	79.459	168.408	0.00052751	0.00024517	4.9159e-05	1341.6	3.0516e-06	6.5398e-06	1350.3	366.24	3.2436e-06	2.9528e-06	416.31	139.31	120.81	41.309	3.4666e-06	51.468	0.00042352	0.00040741	0.00010572	1334	4.7067e-06	4.4809e-06	1340.9	364.54	4.7242e-06	4.3931e-06	410.71	138.68	120.59	41.268	4.0473e-06	51.141	-97.602	-57.933	-85.752	-157.322	-19.592	-32.782	-157.384	-152.654	-27.422	76.431	-153.326	-148.592	-148.137	-143.595	1.031	-144.461	-8191	255	
1156.677	1	1	0	0	0.059291	0.12872	0.36218	0.19646	0.19524	0.26131	0.3425	0.20629	0.17203	0.20538	0.064042	0.17963	0.15128	0.08413	0.11255	0.11215	-2.8042	-2.9229	-2.8063	-3.3583	-2.8917	-2.975	-3.2792	-2.9813	-3.3	-3.1875	-3.1333	-3.5021	-3.1771	-3.2521	-3.2646	-3.0708	-87.501	177.970	-62.847	188.315	97.950	3.086	144.790	86.507	-134.703	114.839	139.816	104.453	97.583	83.781	137.187	106.204	0.00055686	0.00016503	0.00013906	1344.9	8.3076e-06	2.2025e-06	1348.1	365.35	4.9592e-06	3.4582e-06	416.45	139.05	121.03	41.418	4.1293e-06	51.229	0.00043644	0.0003941	0.00010366	1340.4	4.7091e-06	4.3124e-06	1338.8	365.54	4.6836e-06	4.2294e-06	409.92	139.08	120.35	41.212	3.9404e-06	51.237	-89.701	128.126	-21.455	-157.262	-25.113	54.125	-157.264	-152.630	-50.461	9.087	-153.221	-148.732	-148.247	-143.644	-21.124	-144.431	-8191	255	
1156.773	1	1	0	0	0.16917	0.036749	0.23421	0.23871	0.046158	0.17662	0.081645	0.23397	0.19093	0.15903	0.19027	0.043681	0.07547	0.036895	0.12753	0.11128	-2.6437	-3.1542	-2.9333	-3.6063	-3.1167	-2.8042	-3.3854	-3.0187	-2.9896	-3.1312	-2.9437	-3.2625	-3.0146	-2.8979	-3.1896	-2.8625	-99.180	-43.473	-169.894	115.682	168.835	-50.594	68.418	-91.700	144.767	189.135	135.629	58.425	126.943	166.780	-85.772	142.832	0.000381	0.00043777	0.00013736	1342.4	4.0083e-06	4.0282e-06	1345.6	364.04	7.9061e-06	8.2949e-06	417.71	139.15	120.37	41.249	8.3012e-06	51.183	0.00042188	0.00038084	0.000102	1340.6	4.5119e-06	4.2e-06	1337	365.67	4.5012e-06	4.0978e-06	410.25	139.45	119.45	41.106	4.0305e-06	51.397	-83.487	-102.007	-10.783	-157.231	22.101	-32.706	-157.312	-152.529	25.786	11.733	-153.404	-148.706	-148.084	-143.633	-59.035	-144.665	-8191	255	
1156.869	1	1	0	0	0.2008	0.054733	0.21404	0.41114	0.12117	0.12327	0.37182	0.22384	0.099647	0.1918	0.083428	0.2424	0.2422	0.22957	0.10975	0.15537	-2.6292	-3.1521	-2.8312	-3.2229	-3.1813	-2.7917	-3.4521	-2.9188	-3.0625	-3.4062	-2.9896	-3.1708	-3.175	-2.9062	-3.3	-3.1167	119.038	10.543	-157.563	135.574	-162.536	164.237	142.770	96.596	-52.328	174.417	161.980	-148.102	124.834	125.761	-36.783	-88.298	0.0004525	0.0003455	3.0716e-05	1345.8	4.1891e-06	3.6709e-06	1349	366.31	5.3106e-06	1.7194e-06	416.7	139.07	120.32	41.314	2.284e-06	51.118	0.00040153	0.00036905	0.00010446	1341.8	4.2683e-06	4.0329e-06	1340	366.32	4.2514e-06	3.9201e-06	410.69	139.33	118.66	41.007	4.2035e-06	51.174	-78.672	-87.486	40.446	-157.191	-33.248	-17.865	-157.292	-152.342	11.677	136.499	-153.313	-148.684	-148.064	-143.706	-45.594	-144.601	-8191	255	
1156.965	1	1	0	0	0.11635	0.24335	0.20257	0.18103	0.061963	0.084832	0.20028	0.2405	0.27483	0.10609	0.17315	0.19733	0.32541	0.10542	0.21511	0.0346	-2.7271	-3.3458	-2.7792	-3.2979	-3.3146	-2.8812	-3.4021	-3.1417	-3.0417	-3.2896	-3.0812	-3.0521	-3.1042	-2.9688	-3.1583	-3.2146	20.387	165.248	146.201	160.147	22.232	-140.478	99.647	131.024	136.356	-27.342	-105.566	-111.697	133.609	-139.370	12.865	-158.369	0.0004429	0.00032143	0.00013024	1338.6	2.1373e-06	1.459e-06	1344.2	365.26	4.0188e-06	6.093e-06	417.23	138.98	120.64	41.333	5.5107e-06	51.072	0.00038009	0.00035256	0.00010999	1336.4	4.0741e-06	3.9118e-06	1339	365.3	4.1082e-06	3.8342e-06	412.83	138.94	118.6	40.96	4.4143e-06	50.965	-83.585	-56.330	-101.842	-157.137	-54.531	-136.483	-157.422	-152.607	-25.620	-9.620	-153.377	-148.569	-148.316	-143.654	-112.652	-144.460	-8191	255	
1157.061	1	1	0	0	0.14136	0.34365	0.24628	0.060917	0.26846	0.019151	0.22897	0.057746	0.056933	0.17067	0.2435	0.20282	0.19472	0.33076	0.17194	0.17297	-2.5083	-3.2562	-2.9	-3.3125	-3.075	-2.85	-3.3312	-3.3187	-2.7854	-3.4313	-3.0875	-3.2333	-3.4188	-2.9208	-3.1458	-3.1813	-169.734	-130.132	-105.230	17.270	-162.187	163.800	74.284	-47.937	-107.876	132.217	73.630	176.669	59.078	-134.449	93.712	-114.656	0.00052446	0.00028782	3.9794e-05	1339.8	3.7312e-06	3.7646e-06	1342.4	365.54	5.2405e-06	6.3418e-06	416.17	139.28	120.41	41.113	1.965e-06	50.97	0.00037119	0.00034912	0.00011432	1336.6	3.9098e-06	3.8761e-06	1341.7	364.14	3.929e-06	3.8584e-06	412.52	138.34	118.03	40.915	4.4812e-06	50.757	-89.430	186.770	-60.430	-156.959	-4.816	-72.062	-157.293	-152.683	10.675	-116.516	-153.458	-148.913	-148.458	-143.605	-68.702	-144.722	-8191	255	
1157.180	1	1	0	0	0.2026	0.13058	0.099428	0.30619	0.038304	0.12181	0.22907	0.079538	0.23932	0.087722	0.31756	0.15527	0.16691	0.099496	0.12548	0.10219	-2.5333	-3.2167	-3.0104	-3.2958	-3.25	-3.1292	-3.4021	-3.3187	-2.8979	-3.3479	-3.0625	-3.1	-3.4333	-3	-3.2146	-3.2062	-136.605	61.040	20.702	173.481	65.099	10.929	148.158	177.267	94.356	-144.388	156.651	-126.461	-66.494	102.852	-114.168	124.784	0.00047897	0.00018392	0.00011848	1336.2	3.2223e-06	6.1122e-06	1342	364.22	4.6745e-06	3.5697e-06	415.81	139.24	120.79	41.057	5.082e-06	51.19	0.00035302	0.00036094	0.0001135	1330.8	3.7537e-06	4.0655e-06	1339.6	362.84	3.8104e-06	4.1049e-06	411.59	137.91	117.88	41.043	4.3642e-06	50.506	-93.400	3.670	-21.196	-157.216	9.645	-71.103	-157.303	-152.411	10.849	-118.440	-153.176	-148.734	-148.139	-143.648	-2.786	-144.659	-8191	255	
1157.276	1	1	0	0	0.077316	0.1162	0.2154	0.20225	0.18448	0.072094	0.10767	0.11239	0.11304	0.25919	0.2152	0.21671	0.27419	0.081497	0.30161	0.095342	-2.5521	-3.2417	-2.9729	-3.2062	-3.3229	-3.0042	-3.2521	-3.2687	-2.8479	-3.2104	-3.2146	-2.8542	-3.3667	-2.9625	-3.0354	-3.2292	146.729	-137.927	-40.905	141.335	23.829	-22.971	98.848	95.893	-153.368	-54.792	165.583	175.351	-68.667	-39.088	-83.826	170.320	0.00042329	0.00041176	9.5242e-05	1337.7	6.555e-07	8.3505e-06	1337.2	364.53	3.5134e-06	5.8244e-06	416.52	138.19	120.52	41.212	8.5583e-06	51.236	0.00034558	0.00038558	0.00011001	1327.5	3.7248e-06	4.355e-06	1336.4	362.51	3.8441e-06	4.43e-06	411.46	137.82	118.02	41.305	4.3832e-06	50.636	-84.069	154.120	0.035	-157.137	33.808	-75.494	-157.287	-152.786	-18.217	-106.180	-153.172	-148.730	-148.092	-143.678	4.717	-144.379	-8191	255	
1157.350	1	1	0	0	0.20057	0.23955	0.073492	0.21514	0.017025	0.18854	0.317	0.22237	0.11845	0.16644	0.15829	0.15819	0.27386	0.14779	0.36949	0.095416	-2.3812	-3.025	-2.8417	-3.0167	-3.1229	-3.0292	-3.2229	-3.4542	-2.95	-3.1396	-3.3521	-2.9	-3.2562	-3.1833	-2.9854	-3.2583	76.746	-140.745	-38.687	-164.048	55.953	-117.888	79.665	133.789	-20.978	38.752	159.695	-106.378	112.198	-102.912	165.515	21.799	0.0005601	0.00041636	0.00011743	1338.7	3.7708e-06	3.161e-06	1340.9	364.21	6.4926e-06	1.9516e-06	416.04	138.34	120.62	41.128	2.5099e-06	51.056	0.00036998	0.00042519	0.00011044	1330.8	4.0511e-06	4.7041e-06	1338.5	362.77	4.0992e-06	4.6142e-06	409.8	137.52	118.18	41.146	3.9769e-06	50.224	-93.296	152.213	-64.865	-157.419	-49.137	-59.726	-157.251	-152.595	-53.417	119.858	-152.840	-148.732	-148.194	-143.572	11.338	-144.501	-8191	255	
1157.469	1	1	0	0	0.10108	0.11053	0.056343	0.19479	0.098933	0.059032	0.1833	0.22687	0.10131	0.055374	0.18999	0.10227	0.35343	0.10921	0.31924	0.23767	-2.7396	-3.1896	-2.8937	-3.0292	-3.2188	-2.9938	-3.1688	-3.4396	-2.8542	-3.3417	-3.3917	-2.7938	-3.3833	-2.9938	-3.0312	-3.1917	47.742	-85.578	-130.755	116.765	159.376	-4.554	118.621	141.302	81.419	-165.262	152.944	-120.704	-128.441	176.884	96.830	86.318	0.00048519	0.00085397	9.8026e-05	1336.9	1.7247e-06	5.615e-07	1335.2	363.09	4.4946e-06	5.1187e-06	414.9	138.19	120.35	41.117	2.0145e-06	50.966	0.00036348	0.00038984	9.8168e-05	1320.6	3.9614e-06	4.2402e-06	1326	359.94	4.133e-06	4.2945e-06	406.24	136.89	118.66	41.089	4.0652e-06	50.347	-96.080	-84.491	-46.617	-157.253	-31.882	-5.724	-157.210	-152.402	-5.978	51.785	-153.240	-148.675	-148.409	-143.740	-41.423	-144.493	-8191	255	
1157.565	1	1	0	0	0.16787	0.11519	0.086558	0.15437	0.094507	0.25247	0.28985	0.32202	0.092826	0.15077	0.2293	0.11555	0.19357	0.17391	0.12054	0.2067	-2.5083	-2.9792	-3.075	-2.9458	-3.2458	-3.0625	-3.1083	-3.2375	-2.9417	-3.1521	-3.1708	-2.9667	-3.2208	-3.1375	-2.8708	-3.2083	-105.973	-73.265	-115.168	143.715	151.828	-100.456	118.322	104.812	-136.017	188.976	90.082	188.207	-141.574	79.930	117.500	21.838	0.00055288	0.00064846	0.00013066	1330.8	4.2763e-06	8.5269e-06	1338.2	364.62	3.9674e-06	5.2185e-07	416.21	138.48	120.26	41.141	9.2072e-06	51.181	0.00040951	0.00040421	0.00010238	1324.4	4.4673e-06	4.2977e-06	1328.7	361.83	4.403e-06	4.1326e-06	407.09	137.18	118.96	40.876	3.7472e-06	50.37	-83.983	-108.467	-34.903	-157.116	-52.010	-41.849	-157.510	-152.500	-2.308	-95.145	-153.116	-148.704	-148.074	-143.715	-22.804	-144.694	-8191	255	
1157.661	1	1	0	0	0.034536	0.17454	0.077601	0.22002	0.12435	0.1612	0.16858	0.25685	0.14257	0.21868	0.32007	0.20098	0.16233	0.06161	0.046298	0.090183	-2.4437	-3.0021	-3.0938	-2.8979	-3.1688	-3.0729	-2.9646	-3.5438	-2.95	-3.1167	-3.3375	-3.0292	-3.1792	-3.2417	-2.8063	-3.2833	-50.306	102.147	-117.830	-64.731	184.952	113.780	131.525	94.414	-37.256	-116.615	154.457	98.225	86.568	149.557	-76.317	81.018	0.00045871	0.00031575	7.4632e-05	1333.6	1.9447e-06	7.3677e-06	1338	364.56	4.5217e-06	2.9473e-06	414.63	139.23	120.63	41.058	2.286e-07	51.229	0.00039612	0.00036455	9.379e-05	1322.8	4.3309e-06	3.9667e-06	1328.4	362.55	4.4094e-06	4.0465e-06	406.02	138.18	119.57	40.98	3.836e-06	50.908	-105.391	-143.238	82.416	-157.151	-47.330	-1.849	-157.368	-152.829	53.084	-16.946	-152.906	-148.487	-148.169	-143.660	120.452	-144.413	-8191	255	
1157.782	1	1	0	0	0.14268	0.14924	0.17728	0.27355	0.15678	0.16615	0.055184	0.21085	0.016191	0.1832	0.13322	0.1933	0.11461	0.1378	0.21436	0.17649	-2.6813	-2.9354	-3.1667	-3.25	-3.1354	-3.2229	-3.0104	-3.3063	-3.1813	-2.9458	-3.4354	-3.0938	-3.2854	-3.4062	-3.0396	-3.5312	178.277	80.120	151.143	143.104	91.872	109.396	-150.753	179.490	-99.795	-148.914	-85.329	53.679	56.426	-31.651	-119.967	101.018	0.00052849	0.00053943	9.5823e-05	1339.2	2.3432e-06	3.2515e-06	1338.5	364.16	3.3361e-06	1.559e-06	416.38	139.34	121.45	41.209	3.1612e-07	51.24	0.00041072	0.00037598	9.8293e-05	1335.5	4.516e-06	4.112e-06	1334.3	364.77	4.5125e-06	4.1868e-06	408.18	139.45	120.2	41.102	4.0377e-06	51.32	-80.176	-95.402	-30.951	-157.135	-17.397	44.121	-157.394	-152.564	17.498	-83.428	-152.992	-148.824	-148.126	-143.750	-146.468	-144.572	-8191	255	
1157.878	1	1	0	0	0.11784	0.21002	0.12662	0.16021	0.12899	0.13332	0.27387	0.030975	0.05037	0.02563	0.14069	0.22239	0.07712	0.012654	0.20647	0.40065	-2.9083	-3.0333	-3.3146	-3.2021	-3.0687	-3.3937	-3.1271	-3.3417	-2.9813	-2.9375	-3.3312	-3.0938	-3.0542	-3.4458	-2.9354	-3.3146	72.965	75.623	174.735	69.052	189.069	166.566	64.114	46.586	72.425	-42.064	176.503	-149.453	-125.131	-25.705	164.876	155.786	0.00039192	0.00023966	4.776e-05	1343.4	2.8801e-06	7.5566e-06	1347.8	364.86	3.5934e-06	2.5299e-06	415.59	139.81	121.09	41.302	7.1569e-06	51.295	0.00040395	0.00037773	0.000102	1342.5	4.4038e-06	4.0188e-06	1341.9	365.49	4.3482e-06	4.1377e-06	409.68	140.02	119.92	41.172	4.3874e-06	51.583	-80.140	-95.721	-3.438	-157.196	-5.279	22.639	-157.373	-152.675	75.388	25.722	-153.366	-148.621	-147.968	-143.603	-114.354	-144.512	-8191	255	
1157.950	1	1	0	0	0.20879	0.066884	0.28155	0.18276	0.099878	0.18137	0.25165	0.052215	0.12952	0.17822	0.18608	0.14089	0.15257	0.114	0.14028	0.062585	-2.5604	-2.9333	-3.0208	-3.0958	-3.0958	-3.225	-3.1979	-3.2708	-3.0875	-2.8458	-3.2938	-3.2271	-2.9479	-3.475	-2.925	-3.1854	42.701	-84.968	-107.933	-168.834	-64.253	111.335	118.167	-4.647	171.392	-130.873	157.335	134.920	74.783	139.088	-129.252	-127.463	0.00042377	0.00053228	8.9173e-05	1349.6	3.4369e-06	2.8585e-06	1356.1	366.68	6.9667e-06	2.9131e-06	416.91	141.06	122.4	41.745	4.6477e-06	51.578	0.00040629	0.00038753	0.00011563	1353.6	4.5817e-06	4.2851e-06	1357.7	368.85	4.6358e-06	4.4312e-06	417.05	141.6	121.57	41.695	5.1134e-06	52.073	-83.485	-97.612	-56.101	-157.309	65.705	-11.813	-157.421	-152.595	-10.074	-43.573	-153.208	-148.638	-148.072	-143.810	-51.328	-144.524	-8191	255	
1158.070	1	1	0	0	0.12374	0.29767	0.11608	0.23431	0.1056	0.26845	0.1487	0.30585	0.06475	0.064695	0.41588	0.12307	0.12326	0.30483	0.12259	0.14274	-2.6729	-2.7208	-3.2875	-3.2458	-3.0625	-3.2562	-3.1979	-3.1604	-3.1437	-2.9896	-3.4042	-3.1125	-3.0021	-3.3688	-2.9458	-3.2708	87.255	74.294	-55.031	143.804	146.825	176.688	150.572	188.323	184.139	96.740	173.347	92.257	114.959	183.773	-132.897	-97.648	0.00047547	0.00054686	0.00014594	1358.8	5.5723e-06	6.0897e-07	1362	368.49	2.5068e-06	5.9805e-07	419.35	141.12	123	41.726	2.5992e-06	51.771	0.00042807	0.00041557	0.00013204	1362.3	4.7238e-06	4.5072e-06	1367.8	370.22	4.601e-06	4.5961e-06	420.22	141.71	121.74	41.834	5.201e-06	51.87	-75.277	-101.610	-71.719	-157.246	9.783	-139.448	-157.478	-152.734	52.806	150.254	-153.151	-148.697	-148.467	-143.798	-75.942	-144.594	-8191	255	
1158.165	1	1	0	0	0.265	0.20631	0.19215	0.11524	0.24194	0.13069	0.41063	0.32075	0.095569	0.057083	0.30341	0.15001	0.21596	0.10822	0.069968	0.29941	-2.8083	-2.8792	-3.0812	-3.2396	-2.85	-3.2583	-3.2458	-3.3354	-3.2875	-3.0271	-3.25	-3.2	-3.0062	-3.225	-3.1	-2.9625	-123.891	-20.087	-79.425	-61.398	9.268	-68.730	-163.773	88.790	1.760	-48.763	84.705	136.887	-108.475	-144.680	-131.507	104.088	0.00049015	0.00039921	0.000159	1364.2	3.7158e-06	5.3689e-06	1365.5	369.16	7.1213e-06	2.2073e-06	419.33	140.79	122.45	41.848	5.0112e-06	51.543	0.00040411	0.00041647	0.000131	1362.2	4.4592e-06	4.6063e-06	1370.4	369.46	4.3952e-06	4.7838e-06	420	141.09	121.18	42.116	5.2161e-06	51.744	-83.805	-157.867	-37.485	-157.384	25.443	-159.320	-157.489	-152.720	11.209	-111.650	-153.181	-148.787	-148.282	-143.689	-12.067	-144.401	-8191	255	
1158.261	1	1	0	0	0.041385	0.041075	0.10736	0.14718	0.2329	0.065021	0.23877	0.3003	0.043329	0.25295	0.20198	0.32317	0.19022	0.20766	0.12186	0.11249	-2.7833	-3.0208	-3.0938	-3.175	-2.9938	-3.1667	-3.1729	-3.2292	-3.2167	-3.0125	-3.0917	-3.1833	-2.9208	-3.075	-3.0167	-3.0729	76.714	-37.854	-121.025	187.218	129.151	-58.178	73.369	106.644	133.635	146.507	130.758	105.310	-117.126	132.774	-98.889	133.936	0.00039701	0.00078817	0.0002655	1362.1	3.0218e-06	5.895e-06	1363.5	368.08	6.4281e-06	7.0006e-06	419.86	141.14	122.82	41.842	3.459e-06	51.716	0.00040496	0.00045464	0.00013191	1360.2	4.4757e-06	5.0458e-06	1369.1	369.53	4.5226e-06	5.2798e-06	420.76	141.45	122.18	42.517	5.3567e-06	52.083	-91.124	177.037	-30.956	-157.230	-127.426	-98.948	-157.451	-152.673	-36.174	-153.972	-153.236	-148.615	-148.382	-143.772	20.533	-144.667	-8191	255	
1158.359	1	1	0	0	0.054195	0.22138	0.1081	0.31608	0.23948	0.21139	0.31942	0.25771	0.18857	0.28271	0.0046853	0.3887	0.13098	0.19464	0.21097	0.17266	-2.8479	-2.7667	-3.1271	-3.1958	-3.1104	-3.0771	-3.1771	-2.9396	-3.3688	-2.8896	-3.2	-3.1896	-2.8896	-3.3417	-3.1917	-3.0792	44.992	67.997	-35.846	116.996	111.208	-6.828	-144.658	126.244	89.266	-63.790	181.372	154.332	174.258	128.075	107.855	151.588	0.00060765	0.00060821	9.3609e-05	1365.8	5.8595e-06	7.0581e-06	1369.4	369.23	7.0772e-06	2.1282e-06	422.24	141.56	123.13	41.796	7.6426e-06	51.967	0.00044438	0.00051959	0.00013996	1367.8	5.0612e-06	5.9082e-06	1378	372.42	5.2144e-06	6.0661e-06	425.07	142.67	124.17	43.049	5.6563e-06	52.532	-84.545	-149.171	-79.651	-157.373	-168.804	-32.309	-157.523	-152.647	-64.753	90.986	-153.229	-148.780	-148.444	-143.783	-22.051	-144.514	-8191	255	
1158.477	1	1	0	0	0.39155	0.011786	0.10251	0.13774	0.18642	0.10849	0.20389	0.22383	0.17017	0.18935	0.075756	0.27323	0.19723	0.079905	0.24058	0.13008	-2.9542	-2.8896	-2.75	-3.4562	-2.9125	-3.2667	-3.3042	-2.8792	-3.3563	-3.1229	-2.9625	-3.3125	-2.9562	-3.3771	-3.0854	-3.0062	177.350	78.442	-45.532	147.966	166.351	-49.931	83.519	153.085	164.090	-43.684	-125.335	156.633	143.160	74.451	127.467	146.821	0.00066809	0.00062627	0.0001139	1372	2.764e-06	6.4795e-06	1373.9	370	1.5644e-05	6.2898e-06	420.42	141.08	123.68	42.212	4.1207e-06	52.011	0.00050811	0.00057168	0.00014723	1375.8	5.8302e-06	6.3611e-06	1385.8	373.88	6.0121e-06	6.4426e-06	427.5	143.61	126.72	43.583	6.0465e-06	53.101	-91.430	-123.703	-46.843	-157.279	-99.598	-56.070	-157.377	-152.650	-68.732	-19.722	-153.184	-148.710	-148.318	-143.479	22.975	-144.466	-8191	255	
1158.574	1	1	0	0	0.34359	0.11253	0.11974	0.22534	0.19024	0.13665	0.21392	0.15026	0.20327	0.13425	0.21475	0.037973	0.10446	0.22909	0.12269	0.38815	-2.7542	-3.1604	-3.0687	-3.5687	-3.1083	-3.1458	-3.5979	-3.1729	-3.3271	-3.2771	-3.1562	-3.3333	-3.1792	-3.1854	-3.3271	-2.9333	64.352	-100.783	-37.099	-164.449	-122.067	73.033	165.796	48.460	-26.940	8.943	-85.583	149.711	72.691	125.927	-166.707	179.902	0.00051248	0.00048135	0.0001774	1372.9	2.4877e-06	8.2531e-06	1374.7	371.93	3.0377e-06	7.613e-06	420.15	141.84	124.01	42.378	3.1413e-06	52.114	0.00059594	0.00060995	0.00015757	1382.8	6.7546e-06	6.6569e-06	1389.7	376.49	6.7233e-06	6.459e-06	427.91	144.25	127.56	43.52	5.7172e-06	53.089	-91.039	-118.759	-19.081	-157.316	97.524	9.125	-157.383	-152.792	-82.709	28.305	-153.253	-148.668	-148.420	-143.823	-11.406	-144.600	-8191	255	
1158.645	1	1	0	0	0.25945	0.066145	0.1659	0.18119	0.25665	0.11699	0.22207	0.2075	0.32966	0.16398	0.052608	0.050077	0.02685	0.061586	0.24693	0.22739	-2.9021	-3.1625	-2.9979	-3.5021	-2.9583	-3.0479	-3.3646	-3.0625	-3.0917	-3.2604	-3.1208	-3.3708	-3.0208	-3.2146	-3.2583	-2.9833	-59.068	-119.980	-51.405	-161.764	0.838	-79.172	81.522	95.129	-163.402	121.653	151.117	62.656	43.437	89.984	45.783	-166.343	0.00050745	0.00059982	0.00010328	1372.2	6.7247e-06	5.8493e-06	1367.4	370.36	7.1761e-06	3.2468e-06	421.12	141.94	123.52	42.24	5.1756e-06	52.074	0.00058852	0.00054574	0.00014249	1378.2	6.2995e-06	5.8473e-06	1377.7	374.87	6.2239e-06	5.702e-06	423.7	144.16	126.66	43.083	5.3851e-06	53.177	-84.754	-84.438	-46.353	-157.502	19.553	0.014	-157.451	-152.740	-5.749	6.910	-153.241	-148.969	-148.346	-143.723	-36.114	-145.032	-8191	255	
1158.741	1	1	0	0	0.16865	0.14487	0.10823	0.060539	0.063396	0.1214	0.26076	0.18833	0.036146	0.11626	0.10822	0.21871	0.13197	0.15268	0.12692	0.26284	-2.6479	-3.2188	-2.8958	-3.5708	-3.2375	-2.975	-3.5958	-3.2208	-3.3063	-3.2896	-3.0021	-3.3417	-3.2687	-3.1083	-3.2042	-3.1833	84.798	-83.645	-17.534	-164.159	0.831	-21.252	154.956	143.210	155.962	-3.661	-31.706	-161.364	142.100	175.594	77.866	94.689	0.00048638	0.00083752	8.5637e-05	1370.6	3.2233e-06	7.8924e-06	1375.7	370.7	3.2836e-06	6.6886e-06	422.84	142.29	123.86	42.164	1.3556e-06	52.146	0.00057416	0.00052647	0.00013939	1384.3	6.2786e-06	5.8233e-06	1380.9	376.76	6.2216e-06	5.6584e-06	423.69	145.14	126.17	42.981	5.3324e-06	53.434	-86.712	-100.612	5.204	-157.157	50.121	-33.487	-157.531	-152.633	44.319	-6.380	-153.279	-148.961	-148.178	-143.796	-121.406	-144.856	-8191	255	
1158.862	1	1	0	0	0.18139	0.14633	0.19396	0.23366	0.070453	0.29119	0.37284	0.18923	0.31465	0.34343	0.01579	0.30858	0.035172	0.31806	0.17883	0.047797	-2.65	-3.1312	-2.8021	-3.5208	-3.0167	-2.9229	-3.4188	-3.15	-3.2646	-3.1604	-3.2021	-3.1604	-3.325	-2.9771	-3.3792	-3.1792	-47.335	172.053	156.140	0.688	-67.987	-94.182	132.754	-61.932	0.052	3.318	-13.265	158.986	127.645	-158.213	185.022	123.157	0.00047006	0.00037993	5.2951e-05	1371.1	2.6297e-06	7.0783e-06	1369.3	370.6	4.545e-06	7.7944e-06	420.3	142.03	124.01	42.209	5.8751e-06	51.909	0.00054497	0.00050352	0.00013673	1388.3	5.8576e-06	5.5267e-06	1379.1	376.71	5.7695e-06	5.315e-06	423.71	145.03	125.13	42.718	5.3944e-06	53.266	-76.988	-70.253	-114.962	-157.312	52.898	-22.617	-157.400	-152.742	-25.611	5.015	-153.323	-148.840	-148.391	-143.920	-56.984	-144.741	-8191	255	
1158.958	1	1	0	0	0.17569	0.20513	0.09595	0.1274	0.089043	0.11836	0.21144	0.10502	0.2107	0.11899	0.098034	0.24863	0.021414	0.4868	0.30232	0.13058	-2.7458	-3.0938	-3.0521	-3.3396	-3.2854	-2.8812	-3.55	-3.2562	-3.0812	-3.2687	-3.1646	-3.4437	-3.3833	-2.9833	-3.5021	-3.2458	-10.890	182.668	-42.625	164.390	4.486	104.467	-164.269	176.833	108.661	88.059	84.754	-151.361	166.494	179.985	-109.493	123.302	0.00047293	9.4861e-05	0.00015833	1371	5.4384e-06	9.2046e-06	1374.8	373	5.462e-06	2.2089e-06	423.23	141.58	124.08	42.141	2.5799e-06	51.889	0.00050888	0.0004708	0.0001396	1386.9	5.4514e-06	5.1767e-06	1385.3	376.41	5.4591e-06	5.0357e-06	425.51	144.54	124.64	42.604	5.7365e-06	53.137	-81.902	-65.003	171.579	-157.273	-38.281	-37.006	-157.448	-152.640	-32.338	11.822	-153.290	-148.951	-148.292	-143.818	-94.130	-144.555	-8191	255	
1159.054	1	1	0	0	0.031172	0.20908	0.1573	0.40534	0.16021	0.13694	0.24546	0.23281	0.079704	0.16756	0.1972	0.3191	0.073828	0.28434	0.13962	0.18554	-2.6063	-3.375	-2.9417	-3.1979	-3.2771	-3.0187	-3.4333	-3.1354	-2.9292	-3.2833	-3.2062	-3.3625	-3.1583	-3.225	-3.3396	-3.1917	-138.228	156.424	-147.950	137.397	-7.511	154.555	87.184	131.415	180.771	105.306	173.363	48.289	100.806	186.362	-162.747	-139.226	0.00048986	9.2555e-05	7.9245e-05	1372.8	1.5286e-06	4.1662e-06	1382.6	370.18	7.9389e-06	5.734e-06	421.8	142.24	123.42	42.107	1.9319e-06	52.009	0.00049523	0.00046328	0.00014978	1385.5	5.3415e-06	5.1953e-06	1391.8	375.5	5.4125e-06	5.12e-06	427.98	144.16	124.01	42.629	5.9698e-06	52.85	-93.361	79.838	139.373	-157.144	49.823	160.772	-157.513	-152.645	-11.100	-55.051	-153.430	-149.044	-147.994	-143.857	128.298	-144.634	-8191	255	
1159.151	1	1	0	0	0.21274	0.079941	0.11761	0.42417	0.085388	0.18512	0.093047	0.21115	0.059674	0.1512	0.060535	0.10752	0.15838	0.10467	0.36194	0.23728	-2.4708	-3.2896	-2.9521	-3.2354	-3.3542	-3	-3.3896	-3.3812	-3.0646	-3.4208	-3.2812	-3.2938	-3.375	-2.9375	-3.2438	-3.2646	-92.652	155.968	71.602	159.307	-11.473	-60.319	135.350	44.353	-140.941	76.066	-115.861	58.704	71.237	139.905	68.347	173.603	0.00051433	0.00032289	0.00012406	1377.8	9.2129e-06	5.3216e-06	1377	372.04	4.7674e-06	8.0489e-06	421.41	141.94	123.31	42.097	7.6835e-06	51.87	0.00047772	0.00047297	0.00015246	1383.7	5.1526e-06	5.3368e-06	1391.7	374.63	5.1934e-06	5.387e-06	427.36	143.6	123.31	42.799	6.0477e-06	52.645	-72.596	146.546	-154.709	-157.084	17.181	-141.626	-157.557	-152.774	-24.131	-58.764	-153.187	-149.076	-148.355	-143.702	-23.517	-144.298	-8191	255	
1159.245	1	1	0	0	0.206	0.24102	0.20548	0.069692	0.12178	0.14818	0.32143	0.23957	0.28785	0.020775	0.20188	0.1749	0.3244	0.21051	0.2348	0.095321	-2.5667	-3.2812	-3.0292	-3.0125	-3.3521	-3.1271	-3.4021	-3.5271	-3.1229	-3.3521	-3.2833	-3.2708	-3.3937	-3.3521	-3.0896	-3.4292	-113.797	-147.022	-15.618	119.320	67.198	-161.590	130.688	187.033	-163.904	147.709	112.005	149.366	168.775	141.239	162.259	-137.849	0.00052532	0.00040849	0.00020896	1370.5	3.6577e-06	1.9095e-06	1377.7	370.4	5.0477e-06	2.3479e-06	420.91	141.66	123.34	42.044	5.1959e-06	51.972	0.00047452	0.00051374	0.00015431	1381	5.1344e-06	5.8447e-06	1391.3	374.1	5.2694e-06	5.8568e-06	426.08	143.46	123.45	42.975	5.8671e-06	52.514	-84.242	154.027	-7.608	-157.149	-45.989	-53.244	-157.232	-152.603	-47.129	-83.596	-153.309	-148.735	-148.240	-143.670	15.111	-144.604	-8191	255	
1159.343	1	1	0	0	0.056042	0.15914	0.17425	0.32677	0.11	0.24318	0.36816	0.10366	0.035563	0.17118	0.16236	0.1894	0.35265	0.15291	0.043449	0.10531	-2.55	-3.1937	-3.1625	-3.0375	-3.5812	-3.0479	-3.3187	-3.3438	-3.1708	-3.2958	-3.3854	-3.1188	-3.4896	-3.0687	-3.1562	-3.4271	30.312	108.055	170.255	159.425	-12.216	-99.781	136.253	171.798	-89.517	-169.058	-52.989	-160.081	133.878	167.852	-7.317	88.137	0.00047444	0.00056421	9.5095e-05	1369.9	5.4481e-06	6.5767e-06	1372.2	370.44	7.6395e-06	2.1156e-06	420.87	141.38	123.32	42.002	6.1292e-06	52.018	0.00047403	0.00054163	0.00014696	1376.9	5.1112e-06	6.0257e-06	1384.8	372.69	5.2669e-06	6.0441e-06	423.86	142.75	123.9	43.114	5.6755e-06	52.427	-81.690	-149.440	-1.994	-157.369	-92.831	147.712	-157.285	-152.667	-53.854	59.456	-153.187	-148.894	-148.441	-143.766	-15.255	-144.644	-8191	255	
1159.462	1	1	0	0	0.19679	0.082741	0.32982	0.17239	0.25494	0.29065	0.20902	0.11963	0.06781	0.13101	0.17431	0.24296	0.13195	0.059466	0.21022	0.098746	-2.6	-3.1312	-3.1229	-3.1208	-3.6271	-3.1146	-3.325	-3.4625	-2.9938	-3.2458	-3.2875	-3.2229	-3.4917	-3.2292	-3.0812	-3.4542	-151.033	-62.010	-99.497	76.178	62.309	-140.952	124.351	82.150	166.854	-107.790	128.394	176.579	-143.575	-110.348	83.484	80.314	0.00051027	0.00032879	8.1319e-05	1374.5	1.0573e-05	4.3925e-06	1372.5	369.29	5.8684e-06	2.4847e-06	420.32	141.84	123.3	41.948	6.9371e-06	51.618	0.00049836	0.0005637	0.00014303	1378.9	5.5047e-06	6.1412e-06	1384.3	372.13	5.6318e-06	6.0457e-06	423.34	142.92	124.7	42.911	5.4852e-06	52.223	-82.404	-55.913	-90.187	-157.285	-96.546	-57.930	-157.360	-152.605	-65.788	27.843	-153.370	-149.005	-148.298	-143.894	-55.084	-144.620	-8191	255	
1159.558	1	1	0	0	0.072611	0.1047	0.25421	0.38665	0.14784	0.38649	0.19677	0.15956	0.18498	0.15614	0.12715	0.2596	0.27628	0.21969	0.15516	0.294	-2.5187	-3.2667	-3.3229	-3.2292	-3.3542	-3.1292	-2.9958	-3.6125	-3.1042	-3.2938	-3.5771	-3.1917	-3.3646	-3.4375	-3.0583	-3.5062	175.454	135.049	164.210	136.479	-154.157	18.046	64.560	142.342	-159.143	-41.635	-97.287	114.286	-139.798	99.576	179.315	153.565	0.00051486	0.00033833	0.00018201	1372.7	6.0599e-06	6.7531e-06	1373.5	369.98	5.4306e-06	3.1945e-06	418.53	142.37	122.73	42.128	6.3312e-06	52.123	0.00052354	0.00053918	0.00013635	1375.4	5.7771e-06	5.8141e-06	1381.3	372.28	5.8519e-06	5.7385e-06	420.31	142.61	125.02	42.761	5.2704e-06	52.289	-91.370	-61.621	-42.304	-157.157	179.556	2.761	-157.504	-152.751	-30.562	5.926	-153.187	-148.936	-148.318	-143.893	-33.209	-144.792	-8191	255	
1159.654	1	1	0	0	0.27258	0.091666	0.12704	0.073955	0.094379	0.16795	0.13495	0.34142	0.1715	0.12887	0.11205	0.15682	0.17689	0.1527	0.31617	0.17564	-2.7521	-3.1562	-3.1729	-3.2125	-3.2854	-3.2354	-3.1354	-3.5917	-3.1792	-3.2646	-3.4833	-3.225	-3.4833	-3.2646	-2.9333	-3.4062	7.511	90.624	179.587	24.076	48.364	-128.012	155.091	144.029	-112.555	177.164	-111.279	1.493	-79.667	-107.833	41.816	170.512	0.00055609	0.00071286	0.00012983	1375.3	2.2115e-06	4.122e-06	1374.1	369.58	1.0245e-05	4.7635e-06	420.34	141.27	123.43	41.931	4.681e-06	51.765	0.00054025	0.00051223	0.0001306	1378.3	5.9063e-06	5.5132e-06	1380.7	372.81	5.867e-06	5.4658e-06	419.64	142.86	125.14	42.504	5.0133e-06	52.436	-88.525	-71.459	-61.538	-157.419	-0.002	-12.732	-157.462	-152.663	-4.993	-3.080	-153.134	-148.758	-148.393	-143.818	-40.599	-144.685	-8191	255	
1159.750	1	1	0	0	0.03597	0.19408	0.10521	0.10358	0.14032	0.098352	0.28396	0.33267	0.039249	0.21786	0.15486	0.22188	0.23026	0.19662	0.31564	0.079884	-2.7896	-3.1083	-3.4229	-3.2	-3.35	-3.4125	-3.2167	-3.55	-3.2292	-3.0062	-3.5896	-3.0292	-3.3438	-3.4896	-3.0187	-3.5396	-123.552	87.973	125.755	45.219	75.091	-87.668	125.517	102.025	70.827	-77.485	16.820	129.713	-108.428	156.453	-146.896	-165.364	0.00042651	0.0007939	0.00013017	1375.9	5.9316e-06	3.8661e-06	1373.8	370.54	3.4098e-06	4.1643e-06	419.2	141.28	123.28	41.976	3.8996e-06	51.976	0.00053055	0.00048874	0.00012597	1381	5.8321e-06	5.3361e-06	1378.4	374.31	5.8232e-06	5.43e-06	419.54	143.64	125.17	42.547	5.2193e-06	52.96	-80.483	-89.188	-99.876	-157.265	9.793	27.426	-157.342	-152.711	-23.091	-30.516	-153.394	-148.902	-148.202	-143.865	-39.560	-144.402	-8191	255	
1159.846	1	1	0	0	0.1608	0.17397	0.27126	0.22127	0.25585	0.16885	0.28484	0.33074	0.11175	0.027563	0.19974	0.060119	0.13099	0.13497	0.18192	0.13964	-2.8021	-3.0625	-3.5062	-3.2833	-3.2646	-3.3	-3.2104	-3.5167	-3.3979	-3.0958	-3.5292	-3.1146	-3.3854	-3.3958	-3.0083	-3.3771	-24.577	105.480	131.313	118.392	98.970	-144.175	138.470	145.386	-117.533	-2.116	77.908	-80.735	104.578	-135.740	55.862	-101.724	0.00040801	0.00032236	2.9444e-05	1377.7	6.8158e-06	6.1234e-06	1375.7	370.95	2.9074e-06	8.2043e-06	420.04	141.51	123.14	41.79	2.6491e-06	51.694	0.00052938	0.00049058	0.00013003	1387.2	5.7405e-06	5.2797e-06	1381.1	375.36	5.6617e-06	5.3202e-06	420.85	144.34	124.97	42.405	5.38e-06	53.061	-87.627	-169.998	-52.630	-157.359	-44.509	-18.302	-157.432	-152.660	39.660	-19.825	-153.366	-148.897	-148.188	-143.866	-58.526	-144.714	-8191	255	
1159.942	1	1	0	0	0.16192	0.12072	0.21287	0.32201	0.15236	0.14511	0.32121	0.29949	0.15045	0.070908	0.039751	0.15973	0.022127	0.23205	0.2653	0.092135	-2.6833	-2.9	-3.3208	-3.3229	-3.0312	-3.3396	-3.2667	-3.4458	-3.4104	-2.8208	-3.5271	-3.0125	-3.2292	-3.4979	-3.0021	-3.3375	6.083	-38.919	-139.780	168.284	106.598	96.937	124.020	157.841	-169.282	-38.350	142.718	140.306	119.865	-161.194	-63.347	16.362	0.00036231	0.00080238	0.00012717	1379.1	9.6355e-06	3.3286e-06	1373.5	369.92	7.918e-06	1.0108e-06	420.03	141	123.13	42	6.9788e-06	51.817	0.00050741	0.00048238	0.00013777	1389.2	5.5953e-06	5.208e-06	1384.9	375.67	5.4921e-06	5.2632e-06	423.23	144.06	124.31	42.386	5.7733e-06	53.036	-79.479	-83.142	-153.754	-157.321	-27.478	4.552	-157.487	-152.715	-21.928	10.125	-153.459	-148.864	-148.213	-143.754	-113.700	-144.443	-8191	255	
1160.039	1	1	0	0	0.17122	0.042633	0.3127	0.13365	0.11694	0.036462	0.22287	0.20273	0.11043	0.1585	0.092887	0.071917	0.10073	0.26021	0.10475	0.22971	-2.9	-3.1896	-3.0521	-3.4062	-3.1792	-3.3625	-3.2771	-3.2687	-3.3625	-3.1437	-3.5333	-3.2042	-3.1396	-3.3104	-3.0938	-3.2042	38.009	-68.403	-81.503	-69.310	-54.181	-107.147	159.763	175.056	-54.511	-169.134	128.503	-109.717	-147.274	177.283	160.857	73.460	0.00049638	0.00018482	5.4028e-05	1373.9	1.292e-06	8.1205e-06	1376.9	369.64	2.7447e-06	5.0233e-06	419.87	141.77	123.12	41.823	4.8621e-06	51.609	0.00049792	0.00047512	0.00014836	1387.7	5.4848e-06	5.1204e-06	1389.1	374.95	5.3297e-06	5.189e-06	425.63	143.65	123.92	42.342	5.9999e-06	52.627	-84.051	-123.484	0.621	-157.230	149.222	-84.100	-157.471	-152.606	45.789	-79.467	-153.471	-148.735	-148.236	-143.951	-149.090	-144.652	-8191	255	
1160.157	1	1	0	0	0.13686	0.090671	0.087562	0.16444	0.052872	0.23008	0.10487	0.32769	0.15393	0.3356	0.12553	0.1839	0.26543	0.34272	0.30027	0.098436	-2.9604	-3.0521	-3.1521	-3.325	-3.0729	-3.2896	-3.3354	-3.3812	-3.4188	-3.1188	-3.2708	-3.4083	-3.1354	-3.4437	-2.8667	-3.2396	-29.302	123.334	98.814	-148.287	-72.510	-65.575	156.114	120.360	-163.386	46.379	-132.850	164.412	141.692	-155.682	58.346	-70.716	0.00048277	0.00070276	7.8817e-05	1374.2	4.6705e-06	4.306e-06	1375.8	370.41	4.8048e-06	3.8848e-06	421.77	141.42	123.17	41.724	5.2092e-06	51.813	0.00047777	0.00047762	0.00015293	1383.4	5.2603e-06	5.201e-06	1391.1	373.77	5.0886e-06	5.2758e-06	426.01	142.8	123.23	42.377	5.8562e-06	52.362	-86.153	-170.105	-75.829	-157.359	45.388	-74.357	-157.390	-152.706	37.102	181.608	-153.077	-148.755	-148.410	-143.748	-54.794	-144.693	-8191	255	
1160.254	1	1	0	0	0.017664	0.17056	0.33958	0.42119	0.081034	0.082226	0.27248	0.07538	0.052757	0.34515	0.22701	0.075801	0.10074	0.23476	0.040198	0.17055	-3.1104	-3.0563	-3.2042	-3.2708	-3.0208	-3.4854	-3.4083	-3.2875	-3.4521	-2.9917	-3.3896	-3.3458	-3.325	-3.3854	-3.0208	-3.1458	127.144	123.967	43.034	-163.839	68.830	81.344	139.395	-159.855	187.978	126.850	-112.485	76.270	96.909	148.284	117.878	-100.564	0.000541	0.00036118	0.00021072	1370.8	4.6691e-06	3.4025e-06	1375.2	369.97	6.109e-06	3.6367e-06	418.91	141.45	122.7	41.891	3.3886e-06	51.562	0.00044969	0.00048722	0.00014673	1375.2	4.9099e-06	5.3477e-06	1386.7	372.03	4.7668e-06	5.4097e-06	423.03	142.01	122.4	42.468	5.3795e-06	51.936	-91.097	112.639	-47.717	-157.144	7.593	-110.843	-157.342	-152.654	-5.900	-85.638	-153.175	-148.778	-148.275	-143.899	-4.555	-144.594	-8191	255	
1160.350	1	1	0	0	0.16153	0.15507	0.095401	0.30769	0.24236	0.1633	0.25671	0.32992	0.23073	0.059971	0.22463	0.13801	0.17174	0.13024	0.066891	0.17024	-3.0812	-2.9583	-3.1417	-3.4271	-3.0563	-3.3604	-3.4208	-3.2042	-3.3187	-3.0167	-3.1813	-3.4375	-3.2188	-3.3521	-3.0417	-3.1083	-62.139	155.437	96.982	160.559	-39.055	-21.267	120.682	141.948	-132.125	185.198	-142.482	-89.658	60.237	-116.911	30.827	160.223	0.00052808	9.1561e-05	0.00019643	1370.6	2.0398e-06	1.1854e-06	1371.2	369.25	8.1143e-06	2.6975e-06	420.14	141.08	122.63	41.824	7.6846e-06	51.58	0.00042078	0.00048683	0.00013372	1370.6	4.6239e-06	5.2861e-06	1376.6	369.79	4.5592e-06	5.3564e-06	419.37	140.96	122.08	42.368	5.0221e-06	51.723	-81.730	-40.115	-26.613	-157.436	21.072	7.602	-157.409	-152.835	-101.460	14.367	-153.230	-148.942	-148.378	-143.613	16.699	-144.614	-8191	255	
1160.446	1	1	0	0	0.028643	0.14498	0.089225	0.042009	0.14969	0.086456	0.058888	0.13562	0.13859	0.10188	0.17769	0.35991	0.20084	0.25084	0.18285	0.18219	-2.8875	-3.1083	-3.1604	-3.3833	-2.8771	-3.2583	-3.1479	-3.0667	-3.4396	-2.9833	-3.1521	-3.2792	-3.0792	-3.3833	-3.1271	-3.1146	43.558	-33.842	-11.035	-135.387	162.903	-16.516	77.257	-97.809	-134.012	-121.675	157.165	138.102	154.250	161.401	72.670	104.761	0.00050036	0.00034302	0.00017525	1372.3	1.6293e-06	4.3686e-06	1376.5	368.88	9.8183e-06	9.2221e-06	417.41	140.79	122.59	41.795	4.6868e-06	51.591	0.00043277	0.00049655	0.00012741	1368.9	4.8545e-06	5.429e-06	1375.7	369.65	4.8644e-06	5.401e-06	418.41	140.71	122.66	42.413	4.8714e-06	51.614	-89.795	-169.389	-70.707	-157.266	-95.168	88.754	-157.446	-152.493	-91.357	-26.204	-153.207	-148.630	-148.350	-143.766	19.477	-144.766	-8191	255	
1160.542	1	1	0	0	0.16258	0.18942	0.058553	0.14797	0.24619	0.04435	0.085458	0.30189	0.12519	0.10471	0.18021	0.046959	0.20051	0.20814	0.12773	0.21026	-2.9958	-3.025	-3.1583	-3.5833	-3.0708	-3.0667	-3.5187	-3.0271	-3.4	-3.2708	-3.1688	-3.4917	-2.9875	-3.2687	-3.2687	-3.0875	-35.707	105.069	-123.527	125.252	-115.454	-100.622	38.058	189.256	136.084	3.283	154.083	-33.896	-147.672	-79.913	98.935	103.394	0.00053829	0.00055067	0.00017829	1370.9	5.1569e-06	8.288e-06	1375.7	369.48	8.6563e-06	7.2372e-06	417.59	141.15	122.69	41.763	4.9694e-06	51.46	0.00046608	0.00048675	0.00012539	1367.9	5.2058e-06	5.3516e-06	1375.2	369.27	5.2797e-06	5.2538e-06	417.74	140.88	123.59	42.334	4.8014e-06	51.616	-94.436	-70.005	-34.869	-157.400	-119.252	-14.447	-157.414	-152.704	-73.548	43.498	-153.256	-148.627	-148.189	-143.635	-27.910	-144.550	-8191	255	
1160.638	1	1	0	0	0.17939	0.10472	0.23513	0.23799	0.41115	0.06693	0.21636	0.14723	0.22228	0.15601	0.26333	0.10574	0.27057	0.40722	0.041909	0.1009	-2.9313	-3.3187	-2.95	-3.5438	-2.9542	-3.1021	-3.5396	-3.1521	-3.2812	-3.1917	-3.05	-3.3917	-3.1271	-3.2708	-3.2292	-3.1667	41.307	47.822	-138.802	164.781	-130.131	-153.293	146.093	139.483	31.939	-110.030	166.463	3.534	127.609	139.812	-9.044	-117.837	0.00045958	0.00027278	0.00018554	1373.2	1.9501e-06	8.7383e-06	1373.8	368.75	3.2451e-06	9.1759e-06	418.4	141.06	122.84	41.727	4.0699e-06	51.589	0.00049156	0.00047143	0.00012306	1370.6	5.4308e-06	5.1443e-06	1374.4	369.97	5.4363e-06	5.0257e-06	417.26	141.53	123.83	42.122	4.6199e-06	51.904	-91.266	-122.688	20.831	-157.310	42.942	-5.085	-157.405	-152.773	-17.878	51.508	-153.308	-149.046	-148.224	-143.775	15.298	-145.061	-8191	255	
1160.734	1	1	0	0	0.11074	0.046361	0.099675	0.28979	0.18184	0.17985	0.20211	0.28037	0.047231	0.14045	0.17105	0.035237	0.078313	0.16881	0.041271	0.048458	-3.0396	-3.225	-2.8771	-3.5042	-3.1188	-3.1958	-3.5604	-3.1625	-3.2604	-3.2167	-3.0458	-3.4437	-3.2146	-3.2542	-3.425	-3.1375	-157.762	74.887	-133.708	181.648	-33.769	178.358	165.337	151.482	130.417	112.527	160.545	116.473	100.128	-168.068	-75.122	146.610	0.00051625	0.00058957	0.00016226	1378.7	6.7229e-06	4.7855e-06	1375.9	369.82	5.3006e-06	4.5102e-06	419.93	141.18	122.5	41.703	6.9646e-06	51.394	0.00049764	0.00045081	0.00011904	1379.2	5.3807e-06	4.9493e-06	1374.6	371.18	5.373e-06	4.9044e-06	416.86	142.06	123.55	42.094	4.6463e-06	52.163	-91.701	-88.354	-14.034	-157.268	-12.117	-124.118	-157.329	-152.594	-15.177	-76.178	-153.463	-148.939	-148.280	-143.939	-65.912	-144.671	-8191	255	
1160.831	1	1	0	0	0.18061	0.15201	0.089176	0.080233	0.10731	0.20073	0.21706	0.34663	0.11699	0.15974	0.24005	0.10908	0.1142	0.17934	0.25631	0.15647	-2.9688	-3.2188	-3.0438	-3.4313	-3.1417	-3.0583	-3.5625	-3.2188	-3.0938	-3.4042	-2.95	-3.2938	-3.2542	-3.0354	-3.3771	-3.0375	56.897	-25.005	96.067	-105.343	175.281	51.094	115.381	-170.578	157.268	144.230	113.022	-163.906	182.717	113.818	-169.235	127.227	0.00044014	0.0005072	5.4433e-05	1374.6	5.4542e-06	4.4255e-06	1375.7	369.52	4.6152e-06	3.7563e-06	419.24	140.46	122.31	41.639	2.2154e-06	51.417	0.00049328	0.00045001	0.00012106	1381.5	5.3305e-06	4.9706e-06	1375.7	372.61	5.3008e-06	4.8866e-06	417.45	142.62	123.15	42.008	4.8066e-06	52.393	-81.369	-62.632	135.747	-157.266	-22.964	-46.069	-157.382	-152.823	-41.824	28.769	-153.446	-149.066	-148.331	-143.678	-138.035	-144.592	-8191	255	
1160.951	1	1	0	0	0.14422	0.087592	0.22988	0.27521	0.17863	0.0051698	0.17778	0.19152	0.16777	0.16496	0.16711	0.16721	0.069002	0.10241	0.072223	0.14001	-2.5938	-3.3146	-2.8458	-3.5146	-3.1292	-3.0187	-3.6521	-3.3042	-3.1688	-3.4021	-3.0042	-3.3458	-3.1896	-3.0208	-3.2458	-3.1771	-130.864	173.883	161.429	123.529	153.708	72.027	-160.222	-161.114	125.934	180.088	-43.498	126.722	29.323	173.724	6.121	93.070	0.00048878	0.00038609	0.00015767	1374.9	3.3644e-06	6.6007e-06	1375.6	369.05	6.4998e-06	2.7545e-06	419.68	141.25	123.22	41.763	8.7982e-06	51.359	0.00047276	0.00043404	0.0001246	1384.8	5.0306e-06	4.7594e-06	1377.6	372.41	4.9551e-06	4.5823e-06	418.9	142.3	122.4	41.822	4.8836e-06	52.072	-79.052	-94.405	-134.315	-157.231	-27.431	-99.178	-157.410	-152.687	-5.104	-72.048	-153.499	-148.733	-148.248	-143.707	-104.729	-144.535	-8191	255	
1161.047	1	1	0	0	0.16686	0.20106	0.071885	0.023555	0.25181	0.24861	0.24142	0.31756	0.035934	0.38315	0.13305	0.029623	0.041624	0.12033	0.02279	0.28273	-2.6771	-3.3771	-3.0708	-3.2208	-3.2521	-2.9833	-3.5292	-3.4229	-3.0625	-3.5042	-3.0083	-3.1729	-3.2229	-2.9188	-3.2083	-3.1458	-121.454	94.228	98.140	-102.190	160.253	-158.540	182.477	168.750	11.656	124.764	-123.417	185.439	-152.518	164.414	-6.518	-167.763	0.00048024	0.00036036	0.00012631	1375.2	2.8708e-06	3.6103e-06	1372.4	368.88	6.949e-06	6.5629e-06	419.56	140.43	122.64	41.78	2.6457e-06	51.554	0.00043579	0.00040115	0.00012546	1377.4	4.6321e-06	4.457e-06	1377.5	370.5	4.6399e-06	4.3751e-06	418.91	141.67	121.55	41.755	5.133e-06	51.884	-79.274	-119.498	-120.106	-157.272	-32.425	-58.783	-157.336	-152.719	-0.222	-27.716	-153.293	-148.780	-148.363	-143.771	-105.073	-144.647	-8191	255	
1161.143	1	1	0	0	0.15159	0.080136	0.17787	0.30151	0.13168	0.19739	0.27754	0.30975	0.25447	0.08662	0.15508	0.090317	0.061786	0.095288	0.16525	0.10161	-2.5396	-3.3292	-2.9771	-3.3563	-3.2083	-2.925	-3.4083	-3.4521	-3.0021	-3.3917	-3.1646	-3.2146	-3.2896	-3.2333	-3.2542	-3.2396	85.227	-45.317	160.068	137.579	-148.380	155.609	122.528	99.964	-162.276	56.244	129.416	-144.098	125.776	-119.038	43.329	-142.004	0.00043573	1.7426e-05	9.4363e-05	1372.1	3.2731e-06	3.5878e-06	1375.6	369.17	2.9695e-06	3.9097e-06	419.64	140.43	122.92	41.627	5.5185e-06	51.451	0.00042761	0.00040948	0.00013396	1375.4	4.6105e-06	4.634e-06	1379.3	370.22	4.6806e-06	4.6723e-06	421.15	141.48	121.73	41.935	5.5111e-06	51.874	-86.402	149.971	26.630	-157.209	18.761	130.124	-157.351	-152.652	-70.109	-86.489	-153.431	-148.946	-148.383	-143.941	-35.962	-144.569	-8191	255	
1161.238	1	1	0	0	0.17528	0.14757	0.15414	0.20304	0.20723	0.025196	0.18258	0.22398	0.11405	0.26949	0.15979	0.16359	0.15038	0.23838	0.055443	0.087663	-2.5604	-3.3042	-3.0687	-3.2542	-3.3896	-3.0708	-3.4062	-3.5521	-3.0812	-3.4437	-3.1708	-3.1708	-3.5167	-3.0917	-3.1312	-3.4229	-6.522	40.465	-42.413	124.317	-168.039	173.840	-165.894	167.203	77.917	123.107	150.508	115.097	168.001	99.941	172.199	184.078	0.00043091	0.00034354	6.1675e-05	1373.1	4.2072e-06	7.8677e-06	1375.7	368.49	6.7529e-06	6.6642e-07	420.17	140.73	122.53	41.688	9.3118e-06	51.828	0.00043718	0.00045591	0.00014264	1376	4.7588e-06	5.2102e-06	1385.2	370.87	4.8389e-06	5.2783e-06	422.63	141.87	122	42.324	5.5035e-06	51.962	-70.107	154.110	13.551	-157.094	-87.607	-134.248	-157.436	-152.700	-17.530	-114.900	-153.337	-148.968	-148.217	-143.726	26.626	-144.612	-8191	255	
1161.334	1	1	0	0	0.14391	0.37947	0.28937	0.15581	0.13353	0.12657	0.15688	0.26046	0.31263	0.20452	0.12803	0.066552	0.14363	0.055176	0.10498	0.062559	-2.4854	-3.1854	-3.15	-3.1	-3.3417	-3.0667	-3.3771	-3.275	-2.8479	-3.3833	-3.3021	-2.9146	-3.5812	-3.1688	-3.1604	-3.475	-17.586	-25.144	154.443	88.469	40.479	-156.721	87.968	134.940	-13.617	-8.558	-84.013	67.197	93.770	-28.330	46.621	109.009	0.00055095	0.00059376	0.00021391	1378.1	6.0933e-06	1.7339e-07	1377.5	368.64	4.2711e-06	2.893e-06	419.88	140.46	122.91	41.71	3.0029e-06	51.564	0.00043524	0.00048857	0.00013696	1376.5	4.6526e-06	5.4355e-06	1383.2	370.22	4.7377e-06	5.4333e-06	420.4	141.37	122.09	42.453	5.2323e-06	51.696	-84.709	-57.482	52.474	-157.240	-42.848	162.452	-157.391	-152.695	-39.939	45.019	-153.337	-148.724	-148.496	-143.942	-10.782	-144.368	-8191	255	
1161.430	1	1	0	0	0.17108	0.10656	0.29777	0.28198	0.074303	0.20493	0.30154	0.17905	0.2317	0.25051	0.18042	0.4309	0.44438	0.023529	0.080232	0.3032	-2.6021	-3.4125	-3.1354	-3.1875	-3.4188	-3.1792	-3.2917	-3.4771	-2.925	-3.3438	-3.2417	-3.1521	-3.3812	-3.2708	-3.0917	-3.4729	-149.005	52.444	70.737	182.099	-130.033	-23.336	135.995	12.593	77.711	-135.161	148.187	145.089	152.647	42.913	-15.998	-107.422	0.00050035	0.00025086	0.0001744	1373.9	5.8341e-06	1.6542e-06	1379.2	369.27	6.2863e-06	8.9665e-06	418.98	140.72	122.41	41.681	7.9424e-06	51.46	0.00043928	0.00050163	0.00012987	1373.7	4.7995e-06	5.4934e-06	1380.6	369.49	4.9127e-06	5.4513e-06	417.96	140.97	122.33	42.345	4.9861e-06	51.499	-91.204	60.626	-2.626	-157.356	-142.539	-109.490	-157.417	-152.664	-73.134	-16.468	-153.294	-148.822	-148.204	-143.736	-47.879	-144.321	-8191	255	
1161.551	1	1	0	0	0.31404	0.11339	0.095143	0.26653	0.30247	0.20827	0.54776	0.21064	0.19901	0.068729	0.36028	0.26734	0.087075	0.19798	0.3848	0.10115	-2.4146	-3.1813	-3.1542	-3.0979	-3.3854	-3.0125	-3.3125	-3.675	-3.0854	-3.1021	-3.3438	-3.1417	-3.4458	-3.1667	-2.95	-3.3187	55.186	-146.671	100.706	184.950	164.984	9.735	133.401	124.431	-50.826	33.411	163.966	126.634	-139.377	68.340	93.951	-144.350	0.00050172	0.00042218	4.1252e-05	1377.2	3.1775e-06	3.5895e-06	1374	369.74	5.5691e-06	7.8077e-06	419.49	140.58	121.98	41.669	7.0762e-06	51.601	0.00046029	0.00049428	0.00012375	1372.4	5.0714e-06	5.2944e-06	1376	368.93	5.1404e-06	5.2545e-06	417.01	140.5	122.87	42.133	4.7761e-06	51.371	-89.347	-18.505	-24.433	-157.253	36.483	-48.208	-157.371	-152.868	-32.459	6.079	-153.263	-148.918	-148.237	-143.902	-51.541	-144.450	-8191	255	
1161.647	1	1	0	0	0.047406	0.13746	0.10491	0.073893	0.25491	0.14711	0.12453	0.2279	0.4387	0.093699	0.18113	0.13026	0.12353	0.27203	0.060206	0.32938	-2.6792	-2.9729	-3.2562	-3.1417	-3.2271	-3.1583	-3.0375	-3.5062	-3.0979	-2.9437	-3.3021	-3.0792	-3.1188	-3.1271	-2.9688	-3.6042	152.176	98.274	17.453	-150.054	147.876	-46.028	124.136	134.637	42.931	-66.240	129.233	-128.368	-101.995	162.670	22.186	127.228	0.00063036	0.00068564	0.00027192	1372.7	1.426e-06	7.8279e-06	1373.8	368.18	3.2057e-06	6.4641e-06	418.08	139.83	122.64	41.649	1.3675e-06	51.234	0.00047615	0.00046076	0.00011678	1369.5	5.1564e-06	4.9181e-06	1371.7	368.21	5.1836e-06	4.8475e-06	414.37	140.27	122.72	41.793	4.4473e-06	51.37	-84.492	-108.326	39.526	-157.334	-108.391	-14.527	-157.361	-152.733	-7.832	19.117	-153.176	-148.733	-148.356	-143.685	-17.809	-144.678	-8191	255	
1161.743	1	1	0	0	0.066311	0.31885	0.14273	0.34759	0.12381	0.047088	0.22681	0.21366	0.20597	0.1506	0.036005	0.18621	0.20266	0.16601	0.18928	0.29361	-2.6854	-3.0208	-3.2854	-3.1521	-3.1042	-3.2188	-3.0208	-3.55	-2.95	-3.2042	-3.4854	-3.1271	-3.2854	-3.3354	-2.9146	-3.4188	45.916	1.152	26.208	81.050	-30.942	76.650	72.114	125.719	-93.415	5.534	-36.998	-159.705	163.438	156.196	-74.798	110.338	0.00050217	0.00052392	5.2949e-05	1366.6	3.2502e-06	5.8008e-06	1371.8	366.86	2.6479e-06	5.6628e-06	416.55	140.58	122.43	41.531	5.8207e-06	51.385	0.0004654	0.00042959	0.00010961	1366.9	5.0604e-06	4.6193e-06	1367.9	367.86	5.0248e-06	4.6021e-06	411.56	140.89	122.2	41.656	4.286e-06	51.636	-83.272	188.415	-83.230	-157.294	-5.768	-71.854	-157.405	-152.736	24.028	5.328	-153.230	-148.732	-148.459	-143.920	-19.643	-144.544	-8191	255	
1161.839	1	1	0	0	0.11995	0.12175	0.090336	0.22611	0.1923	0.1308	0.13726	0.03142	0.026424	0.23369	0.24653	0.20361	0.15131	0.19008	0.21655	0.15992	-2.5354	-3.0687	-3.4146	-3.1104	-3.1417	-3.3583	-3.2479	-3.3917	-3.2625	-3.0875	-3.4292	-3.0229	-3.1021	-3.4833	-2.8917	-3.4396	89.138	27.980	2.909	-120.630	-149.987	-164.936	130.006	103.473	18.863	120.872	66.926	112.783	136.669	-151.204	113.155	163.506	0.00042668	0.00044021	0.00012226	1369	4.5401e-06	7.6764e-06	1368.2	367.88	6.3955e-06	3.4302e-06	416.64	140.32	122	41.646	8.2748e-06	51.284	0.00045028	0.00041392	0.00010824	1369.1	4.9085e-06	4.4726e-06	1364.9	369.09	4.8555e-06	4.5888e-06	412.8	141.37	122.03	41.664	4.4694e-06	51.847	-80.052	-70.120	-26.603	-157.342	-35.382	1.864	-157.458	-152.712	-10.719	57.004	-153.381	-148.901	-148.294	-143.829	-61.677	-144.572	-8191	255	
1161.935	1	1	0	0	0.053612	0.17982	0.16815	0.081698	0.05977	0.17401	0.088133	0.34489	0.13207	0.039852	0.054568	0.085505	0.16254	0.25692	0.2213	0.17088	-2.7083	-3.0042	-3.2562	-3.2938	-3.1458	-3.4313	-2.9333	-3.3021	-3.2792	-2.9354	-3.3729	-3.1937	-3.0938	-3.4604	-3.0292	-3.2479	-122.649	166.036	134.308	-168.112	77.585	59.151	128.731	141.547	-54.737	32.619	57.935	170.296	-79.864	-141.978	28.935	99.929	0.00050458	0.00054383	9.339e-05	1367.3	2.3526e-06	6.5234e-06	1368.5	369.11	4.1024e-06	2.872e-06	417.52	139.97	122.4	41.463	4.9996e-06	51.37	0.00044077	0.00041339	0.00011357	1372.2	4.7553e-06	4.413e-06	1368.5	370.41	4.7016e-06	4.4741e-06	414.78	141.38	121.56	41.499	4.7113e-06	51.831	-80.842	-93.522	-5.168	-157.326	-61.506	11.494	-157.473	-152.646	-8.952	37.289	-153.186	-148.906	-148.277	-143.613	-116.781	-144.672	-8191	255	
1162.032	1	1	0	0	0.24217	0.19564	0.15339	0.24201	0.1353	0.17879	0.20283	0.23077	0.108	0.16725	0.23694	0.18436	0.10374	0.20506	0.16768	0.080089	-2.8812	-2.975	-3.1083	-3.1271	-2.9083	-3.3312	-3.2042	-3.3833	-3.2875	-3.1	-3.5417	-3.0854	-3.1646	-3.5458	-3.0312	-3.4646	8.038	128.418	-141.963	135.874	-137.616	28.978	127.003	131.649	-98.794	17.580	-120.646	-72.391	148.112	-34.948	59.290	133.322	0.00042997	0.00066421	9.7345e-05	1368.4	3.5708e-06	5.6181e-06	1368.4	367.73	1.121e-05	2.0533e-06	416.67	140.26	122.36	41.612	6.5949e-06	51.333	0.00042103	0.00040104	0.00012029	1372.5	4.6012e-06	4.2817e-06	1371.1	369.29	4.5354e-06	4.3555e-06	415.92	140.88	121.11	41.509	5.0022e-06	51.747	-86.993	-97.693	-168.086	-157.293	144.403	6.563	-157.552	-152.558	-38.533	-75.879	-153.313	-148.807	-148.353	-143.573	-91.477	-144.690	-8191	255	
1162.128	1	1	0	0	0.21357	0.079764	0.063619	0.12936	0.050965	0.10886	0.39165	0.22078	0.068213	0.11049	0.36739	0.22465	0.078284	0.19127	0.10674	0.18463	-2.8042	-2.8375	-3.2604	-3.2396	-3.0208	-3.4042	-3.3396	-3.2542	-3.2604	-3.0167	-3.3667	-3.2708	-3.2583	-3.5521	-3.2812	-3.2188	22.766	18.319	55.555	175.615	33.007	70.146	148.554	184.973	-1.980	-39.054	135.335	-111.688	-94.997	134.615	77.436	-93.879	0.00049059	0.00085293	0.00013948	1369.6	3.8226e-06	5.4918e-06	1366.9	367.54	1.4425e-06	5.105e-06	415.91	140.44	122.33	41.418	2.767e-06	51.223	0.00041265	0.00040178	0.00012873	1369.3	4.5329e-06	4.3995e-06	1372.9	368.71	4.4757e-06	4.4978e-06	417.51	140.66	121.12	41.594	5.1677e-06	51.507	-76.496	-73.512	126.001	-157.281	-38.788	-150.731	-157.423	-152.554	-67.921	-56.941	-153.146	-148.777	-148.319	-143.827	-27.709	-144.482	-8191	255	
1162.247	1	1	0	0	0.077203	0.15072	0.19559	0.11302	0.16122	0.16608	0.095404	0.36889	0.2283	0.039752	0.11359	0.26971	0.099737	0.082647	0.095063	0.010604	-2.8771	-2.9313	-3.1625	-3.2229	-2.9646	-3.2646	-3.2875	-3.3042	-3.3792	-2.9979	-3.4104	-3.2687	-3.0375	-3.4396	-3.2021	-3.1417	58.266	123.379	-45.284	167.697	52.197	-35.893	177.846	120.808	178.060	-155.767	4.336	-164.323	-170.422	-77.979	24.007	-135.381	0.00053008	0.00031514	0.000225	1366.1	3.8583e-06	7.0509e-07	1367.7	368.05	6.3403e-06	2.9269e-06	417.28	140.14	122.14	41.58	2.8309e-06	51.293	0.00040566	0.00042289	0.00013237	1365	4.4536e-06	4.6718e-06	1373.6	368.56	4.3459e-06	4.8058e-06	417.59	140.3	120.85	41.844	5.0678e-06	51.372	-82.334	111.917	-53.911	-157.229	11.083	114.819	-157.481	-152.520	14.807	-6.284	-153.202	-148.867	-148.296	-143.685	-43.561	-144.626	-8191	255	
1162.343	1	1	0	0	0.097173	0.087441	0.2058	0.021738	0.22538	0.21577	0.098212	0.16331	0.18739	0.11539	0.11735	0.13566	0.09308	0.10067	0.076829	0.21031	-3.0396	-3.0708	-3.1958	-3.4292	-2.8167	-3.3729	-3.4062	-3.4146	-3.4521	-3.0979	-3.3708	-3.3208	-3.1854	-3.2188	-3.325	-3.0896	116.105	18.271	-44.919	72.505	94.801	87.429	65.775	96.641	-141.224	90.089	167.574	53.611	106.078	91.219	93.168	-63.838	0.00045009	0.00039363	0.00021572	1364	5.3627e-06	5.5153e-06	1366.4	366.6	4.3694e-06	6.7564e-06	417.45	140.07	121.55	41.403	3.7795e-06	51.211	0.00039447	0.00044749	0.00012834	1361.9	4.3665e-06	4.9375e-06	1369.3	367.46	4.3037e-06	5.0084e-06	416.66	139.96	120.65	41.977	4.8728e-06	51.225	-91.044	-48.837	11.835	-157.134	18.878	-127.546	-157.403	-152.708	-10.294	-79.251	-153.276	-148.837	-148.158	-143.625	43.430	-144.374	-8191	255	
1162.414	1	1	0	0	0.17048	0.16596	0.14942	0.19117	0.073246	0.18557	0.37421	0.35212	0.14395	0.18753	0.14453	0.1721	0.041338	0.52685	0.08688	0.081117	-2.9813	-3.1083	-3.0958	-3.5521	-3.0854	-3.2604	-3.4333	-3.2958	-3.5208	-3.0375	-3.2479	-3.3688	-2.8542	-3.2167	-3.2292	-2.9729	116.535	-25.051	-117.534	175.747	-25.549	59.915	131.177	131.426	-166.847	104.046	103.443	177.272	-21.422	174.675	57.616	5.216	0.0004356	9.8013e-05	0.00024338	1363.9	9.8797e-07	5.8227e-06	1362.1	367.92	3.0752e-06	4.0005e-06	417.37	140.31	121.71	41.561	3.012e-06	51.25	0.00040275	0.00046565	0.00012324	1360.5	4.488e-06	5.1502e-06	1366.1	367.02	4.5431e-06	5.2232e-06	415.41	139.93	121.49	42.138	4.7368e-06	51.217	-85.243	-66.710	-2.966	-157.370	175.601	-112.017	-157.588	-152.551	29.065	-37.993	-153.402	-148.906	-148.391	-143.785	-44.491	-144.652	-8191	255	
1162.511	1	1	0	0	0.25099	0.13696	0.058705	0.43814	0.41463	0.19598	0.15225	0.26478	0.23893	0.2145	0.26361	0.17825	0.11953	0.34828	0.17303	0.093171	-2.8625	-3.0854	-2.9458	-3.5917	-3.0646	-3.1813	-3.4646	-3.1792	-3.3812	-3.2062	-3.2062	-3.5438	-3.0938	-3.1979	-3.2646	-2.9375	-46.126	-12.876	-84.054	158.670	96.531	-31.678	156.822	178.143	180.034	-127.142	-165.338	-40.251	-77.903	-152.655	138.378	182.148	0.00061422	0.0004313	8.8331e-05	1364.1	4.3379e-06	8.8371e-06	1366.6	366.71	6.7474e-06	8.3136e-06	416.89	140.27	122.06	41.491	5.0945e-06	51.227	0.00043211	0.0004724	0.00011996	1360	4.8322e-06	5.0997e-06	1365.7	366.63	4.801e-06	5.0393e-06	414.16	139.65	121.71	41.905	4.4863e-06	51.093	-86.617	-124.245	-56.586	-157.203	-86.157	-43.228	-157.358	-152.561	-64.041	-21.080	-153.194	-148.609	-148.205	-143.621	-38.811	-144.635	-8191	255	
1162.631	1	1	0	0	0.18442	0.089614	0.26392	0.32144	0.12831	0.11188	0.10346	0.10799	0.068927	0.13728	0.16003	0.083691	0.26239	0.32651	0.27593	0.08491	-2.8521	-2.8688	-2.9813	-3.5521	-3.0854	-3.1333	-3.4458	-3.0938	-3.3646	-3.1646	-2.9354	-3.3792	-3.1354	-3.2625	-3.3	-2.9167	-94.071	-139.718	-19.167	178.536	22.469	-115.217	102.709	-97.319	71.323	-41.394	145.579	25.096	102.764	-128.479	170.660	128.852	0.00048123	0.00048136	0.00014948	1364	2.6595e-06	3.6812e-06	1361.1	367.09	3.1068e-06	6.02e-06	416.62	139.91	121.97	41.45	5.5535e-06	51.155	0.00044623	0.00044201	0.00011488	1358.1	4.9334e-06	4.8032e-06	1360.5	366.7	4.9858e-06	4.7773e-06	413.68	139.77	122.47	41.838	4.4003e-06	51.313	-82.770	-108.020	-20.633	-157.324	-103.425	-3.855	-157.370	-152.586	-44.705	9.038	-153.297	-148.820	-148.378	-143.784	-37.132	-144.618	-8191	255	
1162.727	1	1	0	0	0.22084	0.24704	0.14204	0.20717	0.0809	0.15733	0.1862	0.20503	0.28186	0.023262	0.30515	0.24437	0.2368	0.16431	0.10778	0.2221	-2.9521	-3.1312	-2.8979	-3.6958	-3.0104	-3.1542	-3.4437	-3.2042	-3.1833	-3.1667	-3.2292	-3.7042	-3.1104	-3.1792	-3.3	-3.0812	-141.846	-100.922	24.505	98.812	-17.010	137.496	109.444	112.786	125.879	-124.530	-115.991	91.275	183.144	64.652	10.084	166.434	0.00053807	0.00051907	6.296e-05	1361.8	5.7042e-06	3.4381e-06	1360.5	367.01	1.7871e-06	2.3877e-06	418.74	139.38	122.3	41.423	6.0828e-06	51.216	0.00047083	0.00042907	0.00011378	1362.3	5.0857e-06	4.7068e-06	1360.8	367.53	5.063e-06	4.6253e-06	412.99	140.3	122.24	41.675	4.3175e-06	51.492	-90.793	-72.854	-49.617	-157.206	-9.582	29.297	-157.291	-152.611	-15.724	86.967	-153.224	-148.883	-148.326	-143.758	-48.621	-144.620	-8191	255	
1162.823	1	1	0	0	0.11233	0.24801	0.25624	0.13387	0.21586	0.11533	0.18587	0.10555	0.12368	0.18901	0.13638	0.1538	0.22206	0.039766	0.11099	0.12173	-2.8417	-3.0625	-2.8104	-3.4646	-3.1833	-3.0083	-3.4958	-3.2042	-3.3	-3.3937	-2.9854	-3.4583	-3.2	-3.2687	-3.4708	-3.2062	123.037	-80.724	132.223	132.702	-20.000	134.877	-155.775	127.410	38.366	-19.361	-132.645	-169.862	128.331	-117.943	-66.741	-46.479	0.00041062	0.00052135	0.00010516	1362.8	2.2704e-06	5.121e-06	1361.2	367.06	5.5962e-06	4.1978e-06	416.61	139.94	121.81	41.416	1.3742e-06	51.333	0.00046328	0.00042067	0.00011114	1364.2	4.9778e-06	4.6387e-06	1358.9	368.83	4.9608e-06	4.5428e-06	412.73	140.87	121.78	41.681	4.3686e-06	51.826	-82.491	-126.653	-15.020	-157.195	64.821	-38.724	-157.292	-152.825	35.292	3.523	-153.264	-148.730	-148.216	-143.654	-126.990	-144.675	-8191	255	
1162.944	1	1	0	0	0.063609	0.1699	0.13993	0.30112	0.14165	0.16835	0.26869	0.17905	0.3081	0.094562	0.30997	0.18696	0.20692	0.062214	0.10463	0.10133	-2.7687	-3.4042	-2.9292	-3.4938	-3.2021	-2.9604	-3.5354	-3.3333	-3.0958	-3.4062	-2.9479	-3.4021	-3.1729	-3.0938	-3.3646	-3.1833	-6.030	-52.095	105.115	145.365	-152.549	69.984	176.395	81.234	-113.552	35.057	-151.563	-152.492	-157.612	-120.730	-9.853	-105.853	0.00044702	0.00029755	0.00013362	1364.5	5.1916e-06	3.5307e-06	1362.4	366.27	4.9667e-06	7.2071e-06	416.62	139.88	121.78	41.551	8.6085e-06	51.495	0.00044742	0.00040907	0.00011403	1366.9	4.7926e-06	4.5537e-06	1360.7	369.05	4.8066e-06	4.4529e-06	413.63	141.24	121.21	41.616	4.6488e-06	51.935	-77.892	175.484	-116.427	-157.316	-23.416	-4.531	-157.291	-152.661	8.822	-66.042	-153.137	-148.863	-148.389	-143.712	-60.478	-144.768	-8191	255	
1163.016	1	1	0	0	0.25187	0.03375	0.18128	0.11243	0.10084	0.16199	0.32139	0.17672	0.31428	0.081779	0.18446	0.22141	0.14903	0.12182	0.078141	0.078271	-2.6	-3.2021	-2.8375	-3.3917	-3.1063	-2.9188	-3.3833	-3.2229	-3	-3.3792	-3.2292	-3.2313	-3.3312	-3.0021	-3.2229	-3.175	-116.620	-46.495	166.297	101.064	185.041	99.896	109.628	64.751	-122.095	-130.437	153.142	-156.207	-55.005	47.100	-24.312	87.364	0.00046794	0.00065769	0.0001016	1365.5	1.8315e-06	6.9306e-06	1365.1	367.61	9.9004e-06	5.39e-06	418.04	140.08	122.12	41.365	2.3007e-06	51.217	0.00043768	0.00040449	0.00012197	1370.6	4.7045e-06	4.5033e-06	1367.7	369.77	4.7748e-06	4.4066e-06	416.84	141.12	121.26	41.612	5.0659e-06	51.837	-83.746	-43.557	-56.857	-157.438	51.110	-88.567	-157.587	-152.660	-21.058	-28.189	-153.449	-148.948	-148.073	-143.829	-58.876	-144.373	-8191	255	
1163.112	1	1	0	0	0.19422	0.043331	0.12892	0.21101	0.23971	0.24079	0.15637	0.24454	0.1455	0.10345	0.062534	0.043857	0.33098	0.2621	0.21229	0.35891	-2.6688	-3.5021	-3.0375	-3.4208	-3.1979	-2.9688	-3.6146	-3.4583	-2.9729	-3.5104	-3.2875	-3.1937	-3.4979	-3.0146	-3.3167	-3.3312	-43.818	157.308	-161.826	175.472	135.787	-169.044	143.708	100.215	-109.845	78.194	-160.994	105.831	146.804	169.653	-108.790	155.954	0.00050966	0.00049162	5.2095e-05	1362.9	2.9628e-06	3.1124e-06	1363	367.07	1.7469e-06	2.642e-07	416.07	140.39	122.14	41.344	5.8207e-06	51.189	0.00043276	0.00040688	0.00013186	1369	4.6558e-06	4.5661e-06	1371.4	369.35	4.661e-06	4.5373e-06	418.47	141.01	121.11	41.59	5.2885e-06	51.618	-79.379	-136.603	-167.346	-157.205	-68.787	184.535	-157.433	-152.591	36.666	108.162	-153.388	-148.778	-148.312	-143.893	-74.710	-144.482	-8191	255	
1163.233	1	1	0	0	0.31564	0.18397	0.049096	0.22034	0.21983	0.04497	0.23899	0.16655	0.010819	0.14326	0.26936	0.060505	0.090034	0.36255	0.10199	0.26557	-2.6521	-3.3146	-3.0083	-3.4104	-3.3271	-3.0062	-3.5646	-3.3333	-2.8729	-3.2667	-3.0667	-3.0563	-3.5146	-3.0771	-3.4583	-3.2687	57.947	141.672	15.245	156.059	185.867	139.729	80.810	55.050	-77.302	4.816	139.548	-0.735	114.682	-110.343	-92.346	97.232	0.00049402	0.00039311	0.00016754	1360.3	7.1958e-06	3.3077e-06	1363.5	366.54	8.5245e-06	4.1298e-06	416.17	140.17	121.9	41.403	4.0313e-06	51.169	0.00042451	0.00042211	0.00013431	1364.3	4.5054e-06	4.7362e-06	1372.2	368.16	4.5242e-06	4.7619e-06	417.79	140.32	120.53	41.814	5.1804e-06	51.339	-83.294	-151.860	-43.875	-157.327	-31.192	-154.556	-157.475	-152.542	-20.245	-52.232	-153.373	-148.787	-148.382	-143.632	46.026	-144.834	-8191	255	
1163.327	1	1	0	0	0.10162	0.050458	0.10026	0.19809	0.27744	0.16134	0.03458	0.15715	0.20642	0.24793	0.3323	0.15482	0.17351	0.29671	0.17636	0.18849	-2.675	-3.3812	-2.9021	-3.4354	-3.4062	-2.9708	-3.3667	-3.3896	-3.0604	-3.3604	-3.3063	-3.0792	-3.3646	-3.1562	-3.1771	-3.3375	155.643	-45.265	-14.491	139.881	133.335	-115.953	-12.467	146.433	109.092	20.082	122.677	-74.443	186.117	-8.983	150.564	61.321	0.00050355	5.9242e-05	8.607e-05	1358.1	4.1847e-06	6.8684e-06	1366.1	366.68	4.4724e-06	4.7407e-06	416.68	140.15	122.04	41.516	3.1059e-07	51.163	0.00040712	0.00044411	0.00013018	1360.6	4.3608e-06	4.9536e-06	1368.9	367.13	4.3701e-06	4.9777e-06	416.72	140.02	120.15	41.884	4.9083e-06	51.176	-85.049	-133.461	15.020	-157.375	-68.092	-162.850	-157.300	-152.597	-36.152	-103.037	-153.426	-148.822	-148.184	-143.887	-146.015	-144.527	-8191	255	
1163.423	1	1	0	0	0.18045	0.19392	0.065266	0.1291	0.18037	0.12262	0.21071	0.32672	0.047448	0.16975	0.17096	0.15754	0.11014	0.062098	0.018808	0.21964	-2.7104	-3.2292	-3.0625	-3.2438	-3.4979	-3.1063	-3.5208	-3.5292	-3.1021	-3.3042	-3.4208	-3.0687	-3.4917	-3.1813	-3.2542	-3.4813	-49.749	-1.386	-30.034	-162.495	-37.416	166.038	125.160	175.735	178.814	-6.651	131.786	-93.547	-1.184	132.911	111.345	-26.326	0.00042644	0.00065562	0.00013481	1361.2	2.6374e-06	2.0439e-06	1364.7	366.51	6.0954e-06	2.923e-06	416.54	139.42	121.56	41.331	2.09e-06	51.099	0.00040345	0.00045918	0.00012266	1358.8	4.3494e-06	5.0963e-06	1365.3	366.48	4.4835e-06	5.0857e-06	414.14	139.69	120.7	41.899	4.6956e-06	51.035	-100.755	-169.648	-34.514	-157.137	-71.281	-31.666	-157.390	-152.749	-31.727	0.845	-153.506	-149.025	-148.353	-143.784	-45.520	-144.761	-8191	255	
1163.544	1	1	0	0	0.090425	0.22117	0.21155	0.12902	0.14637	0.14012	0.31709	0.27895	0.11904	0.1764	0.1671	0.22525	0.058541	0.082434	0.14405	0.029403	-2.7729	-3.3312	-3.3125	-3.1792	-3.1729	-3.1479	-3.2625	-3.775	-2.9938	-3.2292	-3.2417	-3.0708	-3.3542	-3.3063	-3.1042	-3.5312	150.562	-108.882	16.671	188.291	66.792	-164.688	137.663	164.131	-131.981	-60.842	60.391	173.854	160.784	146.732	171.498	-167.842	0.00051505	0.00021924	8.913e-05	1360	4.1567e-06	7.4686e-06	1364	367.64	9.4145e-06	3.6977e-06	415.53	139.81	121.78	41.548	2.2011e-06	51.207	0.00042084	0.00046529	0.00011743	1357.9	4.6351e-06	5.0585e-06	1362.7	366.06	4.7411e-06	5.0124e-06	413.56	139.48	121.39	41.845	4.6006e-06	50.954	-95.980	-83.538	-26.188	-157.203	-106.789	-61.935	-157.361	-152.478	-32.377	99.287	-153.165	-148.860	-148.337	-143.668	-10.565	-144.540	-8191	255	
#DATA ENDS
