BOXY.EXE: ISS Imagent and Oximeter Data Acquisition Program Version 0.80
Ascii Record File

#ACQ INFORMATION
2  Detector Channels 
16  External MUX Channels 
1  Auxiliary Channels 
5000  Waveform (CCF) Frequency (Hz)
1  Waveforms Skipped 
30  Waveforms Averaged 
1  Cycles Averaged 
16  Acquisitions per Waveform 
10.0806  Updata Rate (Hz) 

#FILE INFORMATION
TRUE -- External MUX Channel results are PARSED.
FALSE -- AC DC and Phase are NOT grouped.
TRUE -- Companion Program Settings File CREATED.
FALSE -- AC data not excluded
FALSE -- DC data not excluded
FALSE -- Phase data not excluded
FALSE -- Auxillary Chn. data not excluded
Tab delimiters

#CALIBRATION STATE
TRUE -- Waveform Calibration Values APPLIED.


#AUX CALIBRATION VALUES
Val Type	aux-1	

Term	1.0000e+00	
Factor	0.0000e+00	


#WF CALIBRATION VALUES
A = Detector Channel
Val Type	A-AC1	A-AC2	A-AC3	A-AC4	A-AC5	A-AC6	A-AC7	A-AC8	A-AC9	A-AC10	A-AC11	A-AC12	A-AC13	A-AC14	A-AC15	A-AC16	A-DC1	A-DC2	A-DC3	A-DC4	A-DC5	A-DC6	A-DC7	A-DC8	A-DC9	A-DC10	A-DC11	A-DC12	A-DC13	A-DC14	A-DC15	A-DC16	A-Ph1	A-Ph2	A-Ph3	A-Ph4	A-Ph5	A-Ph6	A-Ph7	A-Ph8	A-Ph9	A-Ph10	A-Ph11	A-Ph12	A-Ph13	A-Ph14	A-Ph15	A-Ph16	

Term	0.00000e+00	0.00000e+00	0.00000e+00	0.00000e+00	0.00000e+00	0.00000e+00	0.00000e+00	0.00000e+00	0.00000e+00	0.00000e+00	0.00000e+00	0.00000e+00	0.00000e+00	0.00000e+00	0.00000e+00	0.00000e+00	0.00000e+00	0.00000e+00	0.00000e+00	0.00000e+00	0.00000e+00	0.00000e+00	0.00000e+00	0.00000e+00	0.00000e+00	0.00000e+00	0.00000e+00	0.00000e+00	0.00000e+00	0.00000e+00	0.00000e+00	0.00000e+00	0.00000e+00	0.00000e+00	0.00000e+00	0.00000e+00	0.00000e+00	0.00000e+00	0.00000e+00	0.00000e+00	0.00000e+00	0.00000e+00	0.00000e+00	0.00000e+00	0.00000e+00	0.00000e+00	0.00000e+00	0.00000e+00	
Factor	1.00000e+00	1.00000e+00	1.00000e+00	1.00000e+00	1.00000e+00	1.00000e+00	1.00000e+00	1.00000e+00	1.00000e+00	1.00000e+00	1.00000e+00	1.00000e+00	1.00000e+00	1.00000e+00	1.00000e+00	1.00000e+00	1.00000e+00	1.00000e+00	1.00000e+00	1.00000e+00	1.00000e+00	1.00000e+00	1.00000e+00	1.00000e+00	1.00000e+00	1.00000e+00	1.00000e+00	1.00000e+00	1.00000e+00	1.00000e+00	1.00000e+00	1.00000e+00	X	X	X	X	X	X	X	X	X	X	X	X	X	X	X	X	

B = Detector Channel
Val Type	B-AC1	B-AC2	B-AC3	B-AC4	B-AC5	B-AC6	B-AC7	B-AC8	B-AC9	B-AC10	B-AC11	B-AC12	B-AC13	B-AC14	B-AC15	B-AC16	B-DC1	B-DC2	B-DC3	B-DC4	B-DC5	B-DC6	B-DC7	B-DC8	B-DC9	B-DC10	B-DC11	B-DC12	B-DC13	B-DC14	B-DC15	B-DC16	B-Ph1	B-Ph2	B-Ph3	B-Ph4	B-Ph5	B-Ph6	B-Ph7	B-Ph8	B-Ph9	B-Ph10	B-Ph11	B-Ph12	B-Ph13	B-Ph14	B-Ph15	B-Ph16	

Term	0.00000e+00	0.00000e+00	0.00000e+00	0.00000e+00	0.00000e+00	0.00000e+00	0.00000e+00	0.00000e+00	0.00000e+00	0.00000e+00	0.00000e+00	0.00000e+00	0.00000e+00	0.00000e+00	0.00000e+00	0.00000e+00	0.00000e+00	0.00000e+00	0.00000e+00	0.00000e+00	0.00000e+00	0.00000e+00	0.00000e+00	0.00000e+00	0.00000e+00	0.00000e+00	0.00000e+00	0.00000e+00	0.00000e+00	0.00000e+00	0.00000e+00	0.00000e+00	-1.80303e+02	-1.38097e+02	-1.19944e+02	-1.80819e+02	-7.90061e+01	-8.11867e+01	-1.57378e+02	-1.62015e+02	-8.94823e+01	-7.32125e+01	-1.71564e+02	-1.71541e+02	-1.83671e+02	-1.76147e+02	-9.09538e+01	-1.49257e+02	
Factor	2.87017e-05	1.45962e-04	4.30770e-05	1.57142e-01	1.46671e-06	1.61965e-06	1.59980e-01	4.53428e-02	1.43660e-06	1.32136e-06	7.50420e-02	2.82269e-02	3.42424e-02	8.08152e-03	1.41912e-06	1.17899e-02	2.86743e-06	3.12586e-06	8.73151e-07	7.88825e-02	3.38613e-08	3.44756e-08	7.56613e-02	2.28643e-02	3.41259e-08	3.46871e-08	3.65790e-02	1.37491e-02	1.70758e-02	4.08423e-03	3.47117e-08	5.78306e-03	X	X	X	X	X	X	X	X	X	X	X	X	X	X	X	X	



#DISTANCE SETTINGS
A = Detector Channel
A-1	A-2	A-3	A-4	A-5	A-6	A-7	A-8	A-9	A-10	A-11	A-12	A-13	A-14	A-15	A-16	

2.5000e+00	3.0000e+00	2.5000e+00	3.0000e+00	2.0000e+00	3.0000e+00	1.5000e+00	3.0000e+00	3.0000e+00	3.0000e+00	3.0000e+00	3.0000e+00	3.0000e+00	3.0000e+00	1.5000e+00	3.0000e+00	

B = Detector Channel
B-1	B-2	B-3	B-4	B-5	B-6	B-7	B-8	B-9	B-10	B-11	B-12	B-13	B-14	B-15	B-16	

1.0000e+01	1.0000e+01	1.0000e+01	1.4400e+00	1.0000e+01	1.0000e+01	1.5100e+00	1.9400e+00	1.0000e+01	1.0000e+01	1.9900e+00	2.4900e+00	2.4100e+00	2.9000e+00	1.0000e+01	2.9800e+00	




#DATA BEGINS
time	group	step	mark	flag	A-AC1	A-AC2	A-AC3	A-AC4	A-AC5	A-AC6	A-AC7	A-AC8	A-AC9	A-AC10	A-AC11	A-AC12	A-AC13	A-AC14	A-AC15	A-AC16	A-DC1	A-DC2	A-DC3	A-DC4	A-DC5	A-DC6	A-DC7	A-DC8	A-DC9	A-DC10	A-DC11	A-DC12	A-DC13	A-DC14	A-DC15	A-DC16	A-Ph1	A-Ph2	A-Ph3	A-Ph4	A-Ph5	A-Ph6	A-Ph7	A-Ph8	A-Ph9	A-Ph10	A-Ph11	A-Ph12	A-Ph13	A-Ph14	A-Ph15	A-Ph16	B-AC1	B-AC2	B-AC3	B-AC4	B-AC5	B-AC6	B-AC7	B-AC8	B-AC9	B-AC10	B-AC11	B-AC12	B-AC13	B-AC14	B-AC15	B-AC16	B-DC1	B-DC2	B-DC3	B-DC4	B-DC5	B-DC6	B-DC7	B-DC8	B-DC9	B-DC10	B-DC11	B-DC12	B-DC13	B-DC14	B-DC15	B-DC16	B-Ph1	B-Ph2	B-Ph3	B-Ph4	B-Ph5	B-Ph6	B-Ph7	B-Ph8	B-Ph9	B-Ph10	B-Ph11	B-Ph12	B-Ph13	B-Ph14	B-Ph15	B-Ph16	aux-1	digaux	

9558.485	1	1	0	256	0.1479	0.12775	0.37852	0.17654	0.19469	0.24251	0.22861	0.13992	0.37351	0.088617	0.13612	0.36619	0.14688	0.39049	0.30034	0.13604	-2.3458	-2.2875	-2.2583	-2.5667	-2.2708	-2.45	-2.6479	-2.3604	-2.3812	-2.4917	-2.4229	-2.6042	-2.4229	-2.4833	-2.4292	-2.2021	214.623	-27.120	-78.321	-102.666	108.103	-11.233	144.511	195.943	206.968	137.495	186.488	-93.445	94.477	-22.149	3.507	189.073	0.00015151	8.2558e-05	4.6807e-05	167.25	1.169e-06	9.2755e-07	239.5	46.739	3.2445e-07	1.7792e-06	89.611	33.192	14.504	6.8263	1.4555e-06	16.945	2.5753e-05	1.2855e-05	3.398e-06	162.31	1.4222e-07	1.2713e-07	233.66	45.649	1.4034e-07	1.3658e-07	86.205	32.471	14.161	6.6822	1.3364e-07	16.356	145.232	-81.275	-21.075	-98.779	-5.538	37.395	-99.426	-93.603	-46.483	31.299	-95.371	-91.224	-90.063	-86.429	2.125	-88.227	-8191	255	
9558.582	1	1	0	0	0.27557	0.16916	0.25494	0.2888	0.13	0.15332	0.029381	0.26004	0.13393	0.1134	0.18124	0.123	0.10577	0.075419	0.23285	0.1401	-1.9833	-2.4333	-2.3312	-2.6729	-2.3667	-2.5521	-2.6604	-2.1958	-2.5187	-2.4	-2.4	-2.5375	-2.2958	-2.4729	-2.5875	-2.2417	236.725	-52.870	-59.268	237.167	119.465	196.234	117.063	175.616	23.421	141.662	199.402	-88.211	124.896	214.618	11.158	129.712	0.00016375	0.00012841	4.1504e-05	168.5	1.1872e-06	1.26e-06	243.85	47.204	1.0716e-06	1.1095e-06	89.293	33.879	14.55	6.9036	1.2202e-06	16.859	2.5263e-05	1.1807e-05	3.3234e-06	162.64	1.3248e-07	1.2519e-07	235.4	45.822	1.4575e-07	1.3123e-07	86.808	32.908	14.163	6.7224	1.3321e-07	16.429	142.432	-34.221	-12.273	-99.016	17.112	19.647	-99.047	-93.969	-9.919	-17.014	-94.447	-91.108	-91.237	-86.574	13.808	-88.088	-8191	255	
9558.702	1	1	0	0	0.11894	0.19207	0.17315	0.020979	0.30615	0.044328	0.15977	0.045418	0.32007	0.18763	0.083415	0.11727	0.18951	0.080995	0.14782	0.13566	-2.025	-2.2625	-2.2417	-2.6	-2.3812	-2.4208	-2.5604	-2.2333	-2.5312	-2.6437	-2.1833	-2.6125	-2.2583	-2.2479	-2.4146	-2.2812	143.048	-11.474	107.485	118.598	-92.042	123.208	163.172	30.802	-3.610	138.792	133.753	244.838	71.042	181.850	245.966	102.793	0.00015241	7.1237e-05	2.8606e-05	170.18	1.1549e-06	1.0276e-06	244.92	47.767	1.2936e-06	1.0114e-06	90.398	34.04	14.704	6.9496	1.503e-06	17.005	2.4953e-05	1.1155e-05	3.2725e-06	163.76	1.461e-07	1.3137e-07	237.43	46.329	1.2364e-07	1.2256e-07	87.443	33.038	14.229	6.7603	1.2518e-07	16.569	143.440	-49.804	-56.339	-99.402	7.372	40.774	-99.214	-93.688	-8.638	29.353	-94.455	-91.343	-91.328	-86.271	-3.185	-88.084	-8191	255	
9558.798	1	1	0	0	0.10897	0.15128	0.25916	0.24361	0.19479	0.15571	0.069841	0.23073	0.2326	0.15548	0.21076	0.083709	0.13163	0.21941	0.16409	0.084941	-2.0708	-2.3729	-2.2333	-2.4854	-2.3333	-2.5125	-2.6104	-2.1188	-2.3396	-2.5687	-2.2271	-2.5146	-2.2938	-2.3604	-2.4688	-2.2146	48.639	-102.222	0.774	13.012	-101.688	-8.320	-33.129	11.032	132.512	88.057	107.800	127.130	-101.488	78.455	3.162	217.458	0.00012668	5.6249e-05	3.7327e-05	170.85	1.253e-06	1.5385e-06	245.52	47.517	1.0227e-06	1.0028e-06	91.306	33.995	14.687	6.9253	8.4583e-07	16.916	2.5466e-05	1.0328e-05	3.3125e-06	164.12	1.4102e-07	1.1894e-07	237.82	46.12	1.4397e-07	1.1317e-07	87.836	33.04	14.27	6.7476	1.4181e-07	16.487	152.234	-19.879	-23.204	-98.979	30.722	54.383	-98.942	-93.896	19.434	30.010	-94.931	-91.406	-90.927	-86.318	-10.250	-87.879	-8191	255	
9558.894	1	1	0	0	0.18641	0.4163	0.54288	0.2485	0.29608	0.029508	0.078655	0.031569	0.20971	0.14303	0.034418	0.16662	0.10424	0.12395	0.11201	0.20673	-2.1729	-2.4375	-2.0563	-2.5083	-2.3458	-2.3083	-2.5	-2.3479	-2.3688	-2.5438	-2.275	-2.6292	-2.4208	-2.1333	-2.6917	-2.3646	-38.954	67.067	224.557	194.481	215.746	163.033	178.797	118.135	-63.321	34.809	39.182	115.817	-110.067	178.165	-18.197	84.346	0.0001489	0.0001447	3.9426e-05	169.07	8.2138e-07	5.3749e-07	243.32	47.629	7.702e-07	1.0554e-06	89.808	33.861	14.683	6.8934	9.4811e-07	16.838	2.5257e-05	9.7032e-06	3.7036e-06	162.76	1.2042e-07	1.1944e-07	235.83	46.062	1.4454e-07	1.0833e-07	86.595	32.722	14.197	6.6995	1.246e-07	16.424	139.591	11.124	-24.141	-98.849	52.761	-1.322	-99.527	-93.631	-3.485	18.369	-94.718	-91.289	-90.632	-86.301	-25.454	-88.243	-8191	255	
9558.991	1	1	0	0	0.13634	0.29957	0.085584	0.18983	0.13502	0.15944	0.18265	0.21739	0.0085257	0.23409	0.085911	0.072407	0.21636	0.097215	0.1414	0.31309	-1.925	-2.4313	-2.2146	-2.5333	-2.3417	-2.3021	-2.45	-2.4271	-2.2417	-2.5833	-2.2562	-2.5896	-2.4354	-2.1063	-2.5125	-2.4958	234.067	-22.741	44.121	-72.208	171.161	180.909	26.627	-45.515	-48.484	138.826	-3.484	-108.008	223.542	239.925	16.664	118.106	0.00015188	0.0001558	4.2331e-05	169.4	1.1091e-06	1.6933e-06	243.55	48.041	1.7824e-06	7.1831e-07	89.07	33.44	14.34	6.8844	9.7046e-07	16.714	2.4833e-05	1.1527e-05	3.1161e-06	163.18	1.389e-07	1.3948e-07	236.28	46.132	1.4084e-07	9.8063e-08	86.256	32.563	14.021	6.6833	1.3198e-07	16.271	145.703	-34.196	-47.483	-98.873	-13.585	19.984	-99.040	-93.393	-7.039	43.995	-94.291	-91.238	-89.916	-85.963	-26.572	-88.133	-8191	255	
9559.087	1	1	0	0	0.39616	0.12325	0.068731	0.31882	0.10406	0.057778	0.050948	0.16806	0.14725	0.013622	0.24231	0.15696	0.12829	0.16453	0.17364	0.30441	-1.8667	-2.6771	-2.1688	-2.45	-2.6104	-2.2188	-2.5042	-2.3229	-2.2687	-2.6292	-2.1792	-2.3104	-2.3375	-2.3854	-2.5458	-2.3688	52.744	204.208	82.076	97.265	110.179	-105.860	-0.080	-90.028	27.572	22.107	227.544	149.819	73.663	204.475	95.321	143.354	0.00011874	6.4049e-05	2.2467e-05	167.9	8.0278e-07	1.8878e-06	244.25	47.306	1.0555e-06	8.6432e-07	89.747	33.989	14.793	6.9143	1.3588e-06	16.782	2.4421e-05	1.195e-05	3.4053e-06	162.96	1.3015e-07	1.3108e-07	235.57	45.993	1.5214e-07	1.0739e-07	86.739	32.816	14.221	6.7071	1.2424e-07	16.406	150.435	-46.152	43.997	-99.016	-3.624	3.588	-98.856	-93.339	-2.056	43.576	-94.527	-91.161	-90.560	-86.235	-8.309	-88.437	-8191	255	
9559.181	1	1	0	0	0.25799	0.21091	0.19009	0.081251	0.060743	0.15061	0.10109	0.067561	0.2492	0.15404	0.015734	0.19357	0.053815	0.10772	0.159	0.19694	-1.6729	-2.4854	-2.2396	-2.3333	-2.5271	-2.2104	-2.45	-2.4688	-2.1979	-2.4521	-2.3604	-2.2687	-2.3458	-2.1208	-2.4896	-2.4021	196.149	-93.259	-74.729	74.088	84.671	214.797	192.572	129.422	5.694	-93.152	210.182	193.578	-12.964	38.925	-35.982	230.968	0.00016136	9.8836e-05	1.5046e-05	169.5	2.4763e-07	1.5192e-06	242.29	47.272	1.7624e-07	1.1159e-06	89.636	33.84	14.494	6.8325	6.066e-07	16.736	2.6685e-05	1.2289e-05	3.056e-06	162.58	1.255e-07	1.3582e-07	235.28	45.927	1.2911e-07	1.2675e-07	86.701	32.746	14.09	6.6571	1.2735e-07	16.288	145.020	-27.764	-28.621	-98.601	25.949	50.052	-99.313	-94.015	34.951	21.277	-94.176	-90.824	-89.776	-85.298	-3.315	-88.527	-8191	255	
9559.279	1	1	0	0	0.093105	0.24758	0.15077	0.25158	0.17928	0.21107	0.052849	0.41011	0.023839	0.27154	0.23698	0.02087	0.10679	0.26962	0.084721	0.17575	-1.7062	-2.6396	-2.2208	-2.2354	-2.4896	-2.3542	-2.3958	-2.5938	-2.4167	-2.7104	-2.3833	-2.1667	-2.5125	-2.3479	-2.3917	-2.425	184.369	76.460	64.320	244.980	-96.860	159.163	207.788	182.273	109.778	32.711	178.805	121.791	191.883	215.696	244.277	228.550	0.00014514	0.00018131	2.9393e-05	168.39	1.2371e-06	1.5209e-06	243.62	46.996	1.1358e-06	7.8789e-07	88.498	33.192	14.436	6.7923	1.307e-06	16.674	2.7205e-05	1.0986e-05	3.0851e-06	162.35	1.2388e-07	1.3395e-07	233.93	45.476	1.4283e-07	1.1049e-07	85.642	32.293	14.023	6.615	1.2735e-07	16.205	149.112	-36.832	35.888	-98.472	44.832	26.320	-98.996	-93.440	28.594	53.829	-94.592	-91.054	-90.550	-86.238	12.111	-88.234	-8191	255	
9559.398	1	1	0	0	0.22434	0.13844	0.058572	0.23709	0.037274	0.042834	0.19638	0.034283	0.10915	0.15977	0.19945	0.061628	0.0976	0.1052	0.16963	0.21815	-1.8125	-2.4583	-2.3312	-2.2792	-2.7562	-2.4	-2.3854	-2.4813	-2.2417	-2.5	-2.3979	-2.2229	-2.6375	-2.3083	-2.3812	-2.6583	199.933	-51.711	155.628	-49.456	127.229	137.926	217.317	68.923	225.193	103.024	183.520	119.580	-39.413	182.325	-27.783	55.337	0.00015974	0.00014305	2.3679e-05	169.08	8.6939e-07	1.7635e-06	241.15	46.645	1.0774e-06	8.2844e-07	88.744	32.943	14.418	6.8557	9.1009e-07	16.823	2.6345e-05	1.1234e-05	2.7468e-06	162.44	1.2183e-07	1.3223e-07	232.92	45.281	1.5271e-07	1.1743e-07	85.246	32.224	13.962	6.6636	1.306e-07	16.261	145.404	-42.382	-44.105	-99.273	18.582	17.789	-98.755	-93.620	15.907	40.038	-94.843	-91.468	-90.044	-86.251	-11.037	-87.913	-8191	255	
9559.494	1	1	0	0	0.1893	0.19248	0.15929	0.12077	0.10374	0.15683	0.17201	0.1127	0.14112	0.12229	0.012701	0.18385	0.17437	0.12369	0.20026	0.23623	-1.9042	-2.4646	-2.3042	-2.2208	-2.5563	-2.3	-2.2833	-2.5729	-2.25	-2.4979	-2.3125	-2.2417	-2.4396	-2.2604	-2.275	-2.5708	111.826	240.306	185.486	137.178	240.568	-89.895	131.723	179.376	3.978	240.689	-73.261	199.006	-85.384	67.969	228.625	142.924	0.00012965	8.0303e-05	2.9087e-05	166.34	4.605e-07	1.3923e-06	241.12	46.215	8.2273e-07	1.1458e-06	87.857	33.008	14.057	6.7851	1.59e-06	16.683	2.5652e-05	1.1123e-05	3.247e-06	161.34	1.3058e-07	1.2354e-07	233.33	45.186	1.397e-07	1.1187e-07	85.123	32.167	13.838	6.6116	1.3559e-07	16.183	141.030	-27.522	16.003	-98.969	-75.618	-10.952	-99.122	-93.609	41.769	36.371	-95.357	-91.173	-90.187	-85.830	1.644	-88.037	-8191	255	
9559.590	1	1	0	0	0.18142	0.041544	0.15063	0.27029	0.38975	0.20176	0.052882	0.18449	0.052515	0.095587	0.088676	0.23497	0.20325	0.21891	0.20661	0.30369	-1.725	-2.3312	-2.4938	-2.1625	-2.6333	-2.4583	-2.4542	-2.4583	-2.4771	-2.6417	-2.7083	-2.2979	-2.5812	-2.2896	-2.325	-2.6583	-91.907	180.846	95.226	208.188	35.850	27.144	54.269	247.035	194.451	100.683	40.795	-93.567	-37.573	-96.691	218.858	211.946	0.00015051	9.783e-05	2.8563e-05	168.06	1.0195e-06	1.3965e-06	242.14	46.522	8.4793e-07	8.18e-07	88.037	33.135	14.258	6.7871	1.0389e-06	16.497	2.5741e-05	1.0543e-05	2.7777e-06	161.93	1.298e-07	1.0242e-07	233.39	45.066	1.2833e-07	1.2408e-07	84.828	32.096	13.757	6.539	1.2916e-07	16.074	141.736	-25.827	-25.500	-98.948	10.310	-25.412	-99.279	-93.864	-3.998	21.296	-94.952	-91.531	-89.704	-86.233	39.780	-88.402	-8191	255	
9559.662	1	1	0	0	0.30511	0.10809	0.15746	0.11847	0.087067	0.08023	0.15204	0.19465	0.16908	0.19789	0.22462	0.10142	0.20102	0.16919	0.12963	0.029338	-2.0354	-2.4688	-2.5667	-2.1083	-2.5667	-2.3708	-2.3979	-2.5896	-2.4813	-2.3417	-2.5646	-2.2646	-2.4146	-2.5062	-2.2479	-2.7146	118.521	-57.079	93.143	121.663	-53.810	134.080	-70.194	164.219	230.123	189.773	-77.839	106.999	182.900	167.995	207.302	-58.320	0.00012457	5.3514e-05	1.3646e-05	166.58	1.0301e-06	1.7053e-06	239.02	46.063	1.1647e-06	5.5622e-07	87.191	32.528	14.136	6.7353	4.7663e-07	16.471	2.515e-05	1.0941e-05	2.9523e-06	160.98	1.2352e-07	1.0379e-07	230.8	44.739	1.274e-07	1.0833e-07	84.171	31.792	13.817	6.5645	1.2959e-07	16.066	149.840	-85.359	-25.084	-98.475	13.293	16.704	-99.040	-93.747	27.656	50.159	-94.598	-91.220	-89.925	-86.338	24.823	-87.627	-8191	255	
9559.783	1	1	0	0	0.093832	0.16516	0.16777	0.091455	0.12081	0.2621	0.16287	0.38356	0.11297	0.24392	0.18204	0.21004	0.39368	0.01867	0.20321	0.17408	-2.0104	-2.4437	-2.5792	-2.35	-2.5896	-2.4729	-2.2021	-2.6146	-2.4854	-2.3542	-2.5583	-2.2583	-2.4396	-2.5125	-2.2479	-2.4854	29.193	34.823	64.046	100.939	-110.434	92.382	130.777	205.090	50.351	105.329	-100.266	15.914	82.925	154.246	191.759	89.981	0.00013517	0.00012323	2.8556e-05	166.8	6.8591e-07	1.4834e-06	240.9	46.936	8.2877e-07	1.0194e-06	88.408	33.124	14.42	6.8122	8.345e-07	16.698	2.4397e-05	1.1071e-05	2.9614e-06	161.08	1.1492e-07	1.1176e-07	233.32	45.354	1.2335e-07	1.1252e-07	85.267	32.373	14.031	6.6461	1.4362e-07	16.287	147.387	-34.853	0.416	-98.729	41.985	32.735	-98.895	-93.556	-69.036	32.885	-94.758	-91.077	-90.637	-85.717	19.102	-88.101	-8191	255	
9559.879	1	1	0	0	0.2558	0.012212	0.22873	0.24464	0.068308	0.089657	0.17846	0.17133	0.17808	0.25703	0.020085	0.025237	0.12517	0.16013	0.10213	0.22434	-1.9688	-2.25	-2.6958	-2.2729	-2.5292	-2.5792	-2.4313	-2.5021	-2.4708	-2.25	-2.7333	-2.4354	-2.5417	-2.6542	-2.1937	-2.4958	136.615	170.115	19.374	204.331	235.773	177.741	89.048	160.858	62.759	120.529	-56.839	123.102	220.455	-24.238	-44.070	144.194	0.00013158	0.00012931	1.8654e-05	168.6	1.2357e-06	1.6388e-06	241.46	47.013	1.4512e-06	1.1634e-06	89.178	33.273	14.415	6.8132	1.0008e-06	16.873	2.3465e-05	1.083e-05	2.5085e-06	162.66	1.2084e-07	1.0544e-07	234.07	45.462	1.3018e-07	1.2379e-07	85.655	32.465	14.017	6.6485	1.4087e-07	16.332	150.085	-72.608	-32.503	-98.671	0.103	24.192	-99.014	-93.774	-8.759	65.085	-94.443	-90.732	-89.790	-86.388	-8.608	-87.836	-8191	255	
9559.975	1	1	0	0	0.23005	0.060872	0.14778	0.2709	0.061373	0.047522	0.17343	0.15401	0.070764	0.31144	0.11819	0.10526	0.20177	0.31507	0.0809	0.13375	-2.1083	-2.3187	-2.5771	-2.3187	-2.4146	-2.6667	-2.3688	-2.4917	-2.4375	-2.3146	-2.5854	-2.4062	-2.3271	-2.4771	-2.2562	-2.5438	-75.660	66.368	59.441	234.226	177.663	38.895	-73.407	181.623	241.970	20.798	226.441	-89.655	238.278	16.567	74.124	-9.559	0.00015101	0.00017234	2.0153e-05	167.2	7.4334e-07	8.9909e-07	242.07	46.819	7.2387e-07	1.14e-06	87.702	33.302	14.217	6.8314	8.5319e-07	16.53	2.4039e-05	1.1318e-05	3.0942e-06	162	1.31e-07	1.2354e-07	234.91	45.322	1.2214e-07	1.3774e-07	85.265	32.287	13.91	6.5856	1.335e-07	16.108	145.923	-81.015	7.105	-98.963	-12.977	54.017	-98.933	-93.733	-16.221	46.903	-95.050	-90.694	-89.706	-85.994	2.161	-88.103	-8191	255	
9560.071	1	1	0	0	0.064528	0.30138	0.18402	0.14288	0.18377	0.14955	0.010653	0.27864	0.10679	0.1111	0.15014	0.041565	0.14658	0.032229	0.30507	0.077041	-2.075	-2.1417	-2.4583	-2.3875	-2.3146	-2.6188	-2.2375	-2.425	-2.5646	-2.375	-2.5812	-2.2146	-2.2167	-2.6146	-2.2229	-2.3812	219.608	20.922	2.491	236.686	160.702	-111.799	223.060	-103.445	169.245	225.761	-78.814	195.542	107.236	101.877	99.895	-72.554	0.00015003	9.9525e-05	4.2337e-05	168.92	9.0591e-07	1.6865e-06	240.79	46.548	1.7251e-06	9.7013e-07	88.18	32.906	14.227	6.7555	5.2979e-07	16.509	2.463e-05	1.1559e-05	2.9141e-06	161.66	1.1929e-07	1.1197e-07	232.5	45.109	1.2655e-07	1.1006e-07	84.872	32.043	13.936	6.5713	1.2417e-07	16.08	150.579	-26.130	-3.987	-98.898	42.376	1.280	-98.588	-93.884	-22.763	48.731	-95.116	-91.165	-90.682	-86.000	36.451	-87.915	-8191	255	
9560.190	1	1	0	0	0.24453	0.16363	0.25336	0.069258	0.22518	0.18112	0.092846	0.19918	0.096218	0.14121	0.16414	0.11052	0.065635	0.20477	0.26659	0.12425	-1.9688	-2.2917	-2.4208	-2.2542	-2.25	-2.4271	-2.4	-2.5354	-2.5021	-2.3208	-2.5646	-2.3583	-2.3042	-2.6437	-2.2708	-2.5771	-79.913	-108.319	-42.982	125.452	195.034	-98.445	-83.345	193.186	191.979	68.761	120.154	146.354	147.162	-43.028	-62.410	195.744	0.00013175	0.00013732	2.6851e-05	168.23	1.5732e-06	1.7261e-06	240.77	47.057	5.3097e-07	6.9552e-07	88.33	33.304	14.137	6.7303	1.6658e-06	16.477	2.3256e-05	1.1045e-05	2.8814e-06	161.88	1.3185e-07	9.0283e-08	233.98	45.55	1.3501e-07	1.222e-07	85.777	32.306	13.898	6.5593	1.306e-07	16.03	153.101	-42.348	12.047	-99.054	7.611	35.569	-99.231	-93.821	-42.307	43.180	-94.475	-90.658	-90.671	-85.961	15.290	-87.981	-8191	255	
9560.263	1	1	0	0	0.26065	0.23214	0.22998	0.096643	0.28171	0.10816	0.1148	0.23235	0.093016	0.16974	0.12289	0.36187	0.099939	0.15544	0.089917	0.16152	-1.8667	-2.1604	-2.2875	-2.2188	-2.2812	-2.6	-2.5229	-2.3396	-2.5229	-2.3542	-2.4229	-2.4938	-2.3167	-2.5312	-2.3042	-2.1792	78.346	54.422	111.230	184.950	-63.673	179.572	-100.455	158.859	131.637	5.900	37.729	166.557	206.767	171.083	64.522	179.966	0.00013295	7.8387e-05	3.4251e-05	168.4	8.8608e-07	3.4904e-07	240.81	46.59	6.3459e-07	1.1294e-06	88.761	33.357	14.468	6.8107	7.1559e-07	16.565	2.3083e-05	1.126e-05	2.7504e-06	161.9	1.2691e-07	9.373e-08	233.75	45.231	1.2051e-07	1.123e-07	85.984	32.436	13.947	6.5578	1.2561e-07	16.181	151.482	-26.239	-7.114	-98.820	-0.788	6.304	-99.076	-93.252	-22.823	15.271	-94.457	-90.910	-90.378	-85.967	-64.037	-88.332	-8191	255	
9560.382	1	1	0	0	0.16775	0.10678	0.12022	0.17617	0.17407	0.22672	0.3245	0.2684	0.11979	0.27689	0.26517	0.27055	0.12823	0.2286	0.066893	0.099684	-2.2	-2.25	-2.2062	-2.4562	-2.3333	-2.5521	-2.4958	-2.2646	-2.5083	-2.2833	-2.4875	-2.6208	-2.1458	-2.5062	-2.3063	-2.2792	-76.027	160.241	55.010	229.233	92.294	-11.674	111.466	235.185	10.215	-110.977	-33.762	192.632	-87.832	-102.327	12.791	171.955	0.00013321	0.00017074	1.9078e-05	170.08	7.1624e-07	1.0693e-06	241.83	46.757	1.3062e-06	1.3633e-06	88.499	33.384	14.454	6.6588	7.4067e-07	16.372	2.3859e-05	1.0927e-05	2.7486e-06	162.68	1.279e-07	1.0055e-07	234.74	45.31	1.1482e-07	1.0384e-07	85.367	32.245	13.904	6.4822	1.1101e-07	15.922	148.793	-30.335	-21.949	-99.299	23.492	9.581	-99.219	-93.615	-2.699	44.346	-95.306	-90.751	-89.964	-86.296	26.042	-88.414	-8191	255	
9560.478	1	1	0	0	0.14445	0.13215	0.15994	0.25494	0.28752	0.20037	0.24868	0.11378	0.2191	0.20315	0.1808	0.63587	0.12724	0.19019	0.25125	0.14236	-2.1312	-2.3125	-2.4458	-2.5583	-2.4437	-2.6562	-2.5896	-2.2208	-2.6542	-2.4938	-2.5146	-2.6083	-2.2479	-2.5604	-2.3812	-2.0812	-27.129	127.398	127.222	-103.800	-44.294	121.202	-67.401	-9.462	212.719	244.473	-89.264	3.022	-63.801	-52.113	145.375	228.959	0.00013307	9.0492e-05	3.7203e-05	166.68	5.7759e-07	1.5651e-06	239.26	46.195	7.0209e-07	1.069e-06	87.242	33.042	14.096	6.6761	1.2555e-06	16.319	2.3059e-05	9.0715e-06	2.6376e-06	160.77	1.2289e-07	1.045e-07	232.1	44.735	1.1532e-07	9.669e-08	84.547	31.882	13.685	6.4718	1.1252e-07	15.907	148.085	-35.674	-37.215	-99.039	82.925	11.969	-98.870	-93.671	57.419	32.139	-94.394	-91.392	-89.892	-86.020	-14.782	-87.755	-8191	255	
9560.574	1	1	0	0	0.16029	0.068735	0.041451	0.12186	0.19504	0.20244	0.12868	0.16034	0.20099	0.054623	0.18426	0.1601	0.15453	0.15145	0.11755	0.11114	-2.1146	-2.2125	-2.2667	-2.6271	-2.3604	-2.6813	-2.5542	-2.2333	-2.5312	-2.2979	-2.2625	-2.5229	-2.2104	-2.4188	-2.475	-2.2583	116.285	1.930	168.896	-83.009	-18.062	152.722	156.795	-101.309	-5.274	47.913	58.720	157.418	76.907	155.649	105.627	109.140	0.00012651	6.8689e-05	2.5103e-05	167.08	7.1267e-07	2.0601e-06	239.91	46.02	9.5373e-07	1.4073e-06	88.128	32.832	14.053	6.6729	1.4792e-06	16.37	2.371e-05	9.6706e-06	2.5867e-06	161.21	1.1703e-07	1.0522e-07	232.51	44.784	1.215e-07	9.7991e-08	84.769	31.899	13.709	6.4792	1.2619e-07	15.964	145.714	-60.432	-40.874	-98.696	17.624	10.731	-99.063	-93.868	18.963	45.663	-94.927	-91.087	-90.383	-86.028	11.699	-87.865	-8191	255	
9560.671	1	1	0	0	0.088443	0.26424	0.28091	0.14942	0.056659	0.12501	0.040388	0.054978	0.12321	0.265	0.27815	0.27926	0.055655	0.38522	0.17999	0.13508	-2.1125	-2.3979	-2.2958	-2.5542	-2.3521	-2.4188	-2.6833	-2.1396	-2.4958	-2.5083	-2.2146	-2.7979	-2.3312	-2.3208	-2.4813	-2.3438	-49.162	-26.138	-81.682	-30.161	61.695	-58.497	175.613	236.493	-1.097	187.549	226.525	-46.169	220.694	-92.089	76.105	133.989	0.00015188	0.00011545	2.0696e-05	167.16	1.119e-06	9.6679e-07	241.13	46.338	5.116e-07	6.513e-07	88.783	33.145	14.435	6.7228	1.324e-06	16.435	2.2689e-05	1.0739e-05	3.2561e-06	161.44	1.1929e-07	9.215e-08	232.73	45.083	1.1695e-07	1.076e-07	85.649	32.161	13.981	6.527	1.2337e-07	16.026	154.313	-25.445	2.507	-98.817	13.512	49.220	-98.958	-93.359	-27.950	51.190	-94.896	-91.442	-90.051	-86.090	-1.641	-88.238	-8191	255	
9560.791	1	1	0	0	0.21821	0.19652	0.18111	0.082228	0.22562	0.15901	0.16915	0.17191	0.15936	0.27104	0.083498	0.092412	0.17609	0.19155	0.043298	0.19617	-1.9146	-2.4	-2.1479	-2.75	-2.4229	-2.2625	-2.7896	-2.2208	-2.4479	-2.4417	-2.175	-2.5396	-2.35	-2.0667	-2.6896	-2.2083	-37.477	102.522	-31.809	133.387	-15.653	65.370	203.743	-70.977	146.682	142.401	197.737	-7.278	128.369	68.883	234.474	203.940	0.00013722	9.9664e-05	2.2307e-05	168.36	1.0705e-06	1.3033e-06	243.55	46.807	1.6315e-06	1.6344e-06	88.482	33.284	14.444	6.7276	3.4347e-07	16.371	2.3782e-05	1.0882e-05	3.147e-06	162.32	1.1682e-07	9.4377e-08	235.45	45.404	1.0999e-07	1.0724e-07	85.959	32.286	13.967	6.509	1.0985e-07	15.921	146.282	-21.638	-4.903	-99.107	32.759	12.621	-98.860	-93.875	-29.577	25.552	-94.589	-90.938	-90.594	-85.520	97.017	-88.101	-8191	255	
9560.863	1	1	0	0	0.10962	0.18748	0.12229	0.095528	0.2455	0.11779	0.15418	0.2257	0.19043	0.29695	0.068436	0.18774	0.15591	0.073414	0.13559	0.1864	-2.0146	-2.5667	-2.125	-2.7229	-2.3563	-2.2104	-2.5729	-2.3354	-2.4542	-2.5271	-2.3208	-2.6813	-2.2562	-2.3688	-2.5812	-2.2542	83.409	217.971	88.168	-2.984	21.206	179.711	1.201	40.750	229.237	184.811	101.819	45.661	112.090	-110.109	156.174	31.766	0.00013941	0.00011502	3.1105e-05	167.34	7.4892e-07	1.3968e-06	241.42	46.627	1.0987e-06	1.0655e-06	88.747	33.448	14.459	6.6813	3.069e-07	16.474	2.2617e-05	9.7357e-06	3.1524e-06	161.4	1.1379e-07	1.2332e-07	232.95	45.195	1.3942e-07	9.4739e-08	85.958	32.397	13.97	6.5204	1.2467e-07	16.089	143.824	-26.702	-53.390	-98.899	28.215	9.709	-99.115	-93.639	-9.727	39.367	-94.847	-90.789	-90.539	-85.785	27.115	-88.067	-8191	255	
9560.984	1	1	0	0	0.064938	0.041954	0.23896	0.094912	0.28614	0.1134	0.14191	0.13562	0.31538	0.16653	0.2066	0.14498	0.14986	0.24939	0.20731	0.23819	-1.9646	-2.3937	-2.1437	-2.4688	-2.1917	-2.1583	-2.625	-2.3792	-2.2583	-2.5312	-2.3208	-2.3271	-2.4833	-2.3083	-2.5729	-2.4104	-18.787	157.998	141.129	203.712	28.404	246.018	67.014	-30.547	198.364	83.615	236.276	124.007	11.140	-106.685	86.702	150.139	0.00013903	0.00012788	4.313e-05	168.21	8.9269e-07	8.1635e-07	240.29	47.342	1.2521e-06	9.3907e-07	89.284	33.632	14.456	6.7298	3.6369e-07	16.508	2.3662e-05	1.1116e-05	3.0069e-06	162.58	1.195e-07	1.1363e-07	234.27	45.607	1.3281e-07	9.5896e-08	86.723	32.679	14.051	6.5687	1.2279e-07	16.14	146.178	-37.104	-34.935	-98.839	-2.322	14.383	-98.980	-93.412	-6.158	29.847	-94.629	-91.064	-90.264	-86.080	14.196	-87.856	-8191	255	
9561.080	1	1	0	0	0.16498	0.066465	0.1792	0.08003	0.055281	0.14499	0.16027	0.36422	0.24464	0.21285	0.18522	0.22071	0.24167	0.16955	0.13591	0.2957	-1.8479	-2.4938	-2.2687	-2.4833	-2.4792	-2.1708	-2.6854	-2.35	-2.4562	-2.6583	-2.2792	-2.3729	-2.2313	-2.3729	-2.4292	-2.1583	89.147	38.950	122.744	21.445	26.936	-70.999	235.451	114.576	135.393	-0.676	-32.846	227.648	10.776	-40.688	-13.171	142.203	0.00014554	0.00019238	2.8965e-05	167.55	1.1777e-06	1.1621e-06	242.23	47.189	4.2186e-07	1.1396e-06	88.913	33.661	14.343	6.7817	3.7728e-07	16.529	2.3818e-05	9.1171e-06	2.8559e-06	162.23	1.1887e-07	1.3151e-07	234.06	45.452	1.3345e-07	9.3655e-08	86.138	32.507	13.978	6.5518	1.1672e-07	16.133	145.891	-1.769	0.559	-99.324	15.533	26.640	-98.831	-93.973	21.178	2.454	-94.748	-90.995	-90.765	-86.277	77.983	-88.224	-8191	255	
9561.174	1	1	0	0	0.094482	0.092668	0.12308	0.10136	0.2312	0.17653	0.28804	0.036486	0.042462	0.059311	0.12856	0.15344	0.11626	0.39153	0.3548	0.13693	-1.7771	-2.5354	-2.2479	-2.5229	-2.4188	-2.2792	-2.5167	-2.3479	-2.3417	-2.5	-2.2667	-2.3417	-2.3625	-2.1188	-2.4688	-2.5167	13.873	-53.414	219.434	17.531	203.274	121.458	166.405	212.189	-3.455	0.817	162.207	48.265	15.671	173.688	166.834	155.339	0.00014518	0.00012681	3.6079e-05	168.65	1.4099e-06	1.0277e-06	241.45	46.711	1.1898e-06	9.7192e-07	88.052	33.288	14.17	6.7014	4.0487e-07	16.504	2.546e-05	9.9311e-06	2.9778e-06	162.43	1.2162e-07	1.0903e-07	233.38	45.3	1.3729e-07	1.0948e-07	84.938	32.202	13.825	6.5062	1.1874e-07	15.989	146.987	-69.995	-41.294	-98.673	-4.473	10.197	-99.234	-93.794	-18.506	55.196	-94.526	-91.020	-91.331	-86.112	65.163	-87.820	-8191	255	
9561.270	1	1	0	0	0.048017	0.077223	0.12873	0.11556	0.058569	0.098844	0.067035	0.089965	0.10225	0.057703	0.12474	0.23043	0.12658	0.064392	0.10025	0.21156	-1.7271	-2.5146	-2.2792	-2.4083	-2.5667	-2.2708	-2.6729	-2.5396	-2.2458	-2.6167	-2.4333	-2.425	-2.6188	-2.3312	-2.4521	-2.4333	157.181	32.395	1.710	60.507	-107.100	151.937	-68.164	-44.193	-108.379	166.100	-109.650	150.620	-48.179	60.290	38.640	86.078	0.0001358	9.2332e-05	2.2963e-05	168.11	4.9985e-07	1.0962e-06	238.93	46.68	7.0701e-07	1.7369e-06	87.095	33.221	14.285	6.7408	1.0822e-06	16.556	2.4236e-05	9.586e-06	2.745e-06	161.98	1.1252e-07	1.0982e-07	231.25	44.917	1.1745e-07	9.9364e-08	84.489	32.137	13.828	6.5266	1.2634e-07	16.06	147.042	-60.698	-19.279	-98.456	23.882	0.515	-99.316	-93.692	-24.014	59.122	-94.681	-90.566	-89.117	-86.166	22.270	-87.907	-8191	255	
9561.366	1	1	0	0	0.14593	0.081702	0.13285	0.1573	0.099417	0.29334	0.16763	0.38728	0.20809	0.14446	0.35489	0.37147	0.27237	0.23151	0.20701	0.20309	-1.575	-2.5667	-2.3042	-2.2167	-2.5708	-2.2938	-2.4583	-2.4521	-2.3	-2.6063	-2.3958	-2.2271	-2.7042	-2.1937	-2.4083	-2.525	193.642	-75.723	113.807	4.585	139.284	-67.631	137.247	-66.950	28.932	34.071	223.542	211.438	32.431	133.564	166.720	135.038	0.00011587	0.00012712	2.1538e-05	169.98	3.6424e-07	9.8607e-07	239.27	46.625	8.8765e-07	1.6219e-06	89.009	33.43	14.376	6.7637	1.8445e-06	16.704	2.4439e-05	8.2119e-06	2.534e-06	162.63	1.207e-07	9.9979e-08	232.33	45.263	1.3252e-07	1.1179e-07	85.784	32.464	14.032	6.6008	1.2287e-07	16.255	147.761	-54.418	-1.652	-99.092	43.587	76.261	-98.759	-94.136	12.714	27.993	-94.399	-91.089	-90.677	-85.793	1.567	-88.016	-8191	255	
9561.487	1	1	0	0	0.26242	0.17025	0.032167	0.16149	0.13438	0.16186	0.16889	0.03243	0.30714	0.18945	0.15806	0.16172	0.10949	0.20514	0.25839	0.30678	-1.7521	-2.4875	-2.4375	-2.2083	-2.5979	-2.4021	-2.5208	-2.4521	-2.1542	-2.7083	-2.5396	-2.3083	-2.5042	-2.5167	-2.2979	-2.5417	127.575	141.349	53.653	9.625	-43.450	142.421	233.666	44.349	-49.840	-10.105	138.885	136.028	-26.401	33.529	3.236	95.476	0.00015866	0.00014898	4.6621e-05	167.45	1.2491e-06	8.4066e-07	243.9	47.316	6.4065e-07	8.1903e-07	89.637	33.719	14.505	6.8147	1.3773e-06	16.846	2.5687e-05	9.4232e-06	2.9687e-06	162.25	1.0723e-07	1.0989e-07	235.22	45.672	1.2228e-07	9.8208e-08	86.714	32.866	14.077	6.6264	1.2323e-07	16.33	151.842	-27.678	-38.183	-98.650	33.802	-2.073	-99.007	-93.881	2.680	51.293	-94.526	-90.748	-89.349	-86.003	-17.039	-87.617	-8191	255	
9561.559	1	1	0	0	0.33889	0.20591	0.13989	0.16827	0.23212	0.29134	0.23146	0.12808	0.075811	0.10541	0.072667	0.029021	0.11176	0.094601	0.093401	0.20558	-1.8813	-2.4271	-2.4375	-2.2438	-2.4958	-2.2687	-2.3063	-2.3812	-2.2979	-2.4313	-2.4792	-2.1479	-2.675	-2.3667	-2.4104	-2.7521	-34.704	85.777	148.806	94.894	73.070	-89.561	27.824	170.157	40.280	233.996	197.945	-98.086	133.596	78.123	155.754	133.660	0.00013832	9.6786e-05	3.1425e-05	169.32	6.4234e-07	1.5324e-06	243.51	46.937	8.0049e-07	1.1415e-06	88.213	33.615	14.458	6.7974	9.8156e-07	16.707	2.4965e-05	1.0836e-05	2.6122e-06	162.45	1.1061e-07	1.0587e-07	235.11	45.678	1.2591e-07	9.8931e-08	85.74	32.561	13.959	6.5634	1.246e-07	16.126	148.186	-20.797	24.119	-99.323	22.391	19.798	-98.824	-93.879	14.036	11.976	-94.989	-90.858	-90.841	-86.008	-8.954	-88.226	-8191	255	
9561.655	1	1	0	0	0.1431	0.19725	0.35141	0.25051	0.36576	0.3146	0.20374	0.26027	0.24625	0.31174	0.25991	0.30264	0.37431	0.11042	0.026476	0.044299	-1.9646	-2.4771	-2.3688	-2.2896	-2.5563	-2.3875	-2.2625	-2.4958	-2.3438	-2.4667	-2.5146	-2.1771	-2.6229	-2.4375	-2.3792	-2.5146	-96.291	76.179	60.470	225.599	239.367	-63.232	180.718	153.055	113.971	213.148	173.803	175.652	-110.317	172.539	-10.696	144.431	0.00015152	0.00014762	4.5491e-05	169.34	7.9126e-07	1.5259e-06	239.57	46.875	8.9367e-07	1.398e-06	88.482	33.285	14.156	6.7088	9.0175e-07	16.622	2.4343e-05	1.025e-05	2.6049e-06	162.24	1.092e-07	9.804e-08	232.8	45.373	1.1866e-07	1.1757e-07	85.429	32.285	13.913	6.5601	1.3046e-07	16.202	149.037	-11.557	-10.753	-98.695	-43.166	13.153	-98.638	-93.837	34.746	49.779	-94.699	-90.538	-90.568	-86.043	10.600	-87.708	-8191	255	
9561.751	1	1	0	0	0.26345	0.14888	0.11622	0.089499	0.14823	0.078536	0.031413	0.188	0.11758	0.29113	0.1839	0.26745	0.32375	0.37908	0.26541	0.039402	-1.8604	-2.3187	-2.4083	-2.3625	-2.3521	-2.4688	-2.4979	-2.5875	-2.3979	-2.3917	-2.6521	-2.0812	-2.5583	-2.4854	-2.3604	-2.6896	164.080	-67.587	-88.696	109.873	-71.409	171.794	152.250	181.943	226.083	25.936	214.796	200.912	196.392	-78.024	234.291	69.196	0.00013949	0.0001143	3.7505e-05	167.61	1.257e-06	1.0215e-06	241.58	47.368	6.6481e-07	8.5988e-07	88.505	33.772	14.423	6.8704	1.5129e-06	16.887	2.5072e-05	1.0589e-05	2.7741e-06	161.98	1.0956e-07	9.8543e-08	233.23	45.586	1.2086e-07	1.1382e-07	86.303	32.852	14.027	6.6609	1.2836e-07	16.383	144.841	-56.682	-24.477	-98.507	48.646	22.798	-98.641	-93.993	-12.603	13.398	-94.560	-90.682	-89.837	-85.914	25.224	-88.199	-8191	255	
9561.872	1	1	0	0	0.35052	0.16129	0.055469	0.091066	0.17403	0.18201	0.13688	0.012377	0.11218	0.1151	0.099283	0.16644	0.23115	0.14943	0.064769	0.064017	-1.9	-2.2854	-2.4958	-2.1292	-2.5042	-2.4729	-2.2208	-2.4792	-2.5646	-2.2562	-2.5375	-2.1792	-2.2917	-2.5521	-2.2854	-2.5646	247.233	245.342	157.548	179.479	216.070	-19.452	164.852	84.936	193.221	99.915	160.678	-108.125	37.052	61.997	166.638	89.064	0.00014559	8.9456e-05	2.2991e-05	170.19	1.2244e-06	1.4384e-06	242.87	47.21	7.9072e-07	1.04e-06	90.98	33.986	14.69	6.8476	1.2051e-06	17.102	2.4284e-05	1.1461e-05	2.6795e-06	163.17	1.1167e-07	1.0774e-07	236.54	45.795	1.2648e-07	1.1179e-07	87.524	33.072	14.217	6.6891	1.319e-07	16.549	143.346	-42.324	-15.696	-99.094	7.958	21.808	-98.984	-93.799	27.321	4.319	-94.634	-91.091	-90.861	-86.169	15.327	-88.030	-8191	255	
9561.968	1	1	0	0	0.060255	0.15266	0.23399	0.16994	0.16873	0.10459	0.20416	0.24605	0.18143	0.21731	0.33031	0.15299	0.15183	0.23453	0.078417	0.16725	-2.0646	-2.2792	-2.6479	-2.2229	-2.3083	-2.4083	-2.3458	-2.65	-2.4437	-2.2958	-2.4917	-2.3167	-2.2208	-2.7375	-2.3458	-2.4875	0.144	195.041	240.779	-57.966	-23.284	70.207	168.443	-22.244	244.035	83.775	226.716	-16.617	-19.922	-59.040	18.617	-36.273	0.00015214	7.7037e-05	4.5651e-05	169.6	1.8438e-06	2.2296e-06	245	47.869	9.6585e-07	9.6729e-07	90.851	34.428	14.593	6.9082	1.4721e-06	16.904	2.2886e-05	1.1448e-05	2.7741e-06	163.79	1.3389e-07	9.4952e-08	237.4	46.192	1.1965e-07	1.1613e-07	87.665	33.249	14.254	6.7029	1.2742e-07	16.469	144.621	-50.776	-3.347	-98.897	18.846	44.750	-99.042	-93.900	-25.901	32.473	-94.218	-90.810	-90.833	-86.143	30.337	-88.202	-8191	255	
9562.064	1	1	0	0	0.096672	0.079381	0.17801	0.13949	0.27489	0.22437	0.20527	0.19537	0.20459	0.31765	0.071293	0.14149	0.24942	0.053622	0.018783	0.25693	-2.0583	-2.4479	-2.5125	-2.2792	-2.5583	-2.5812	-2.3354	-2.4917	-2.5771	-2.35	-2.6167	-2.6813	-2.3083	-2.6229	-2.3625	-2.6042	161.745	108.539	93.982	41.921	141.574	59.450	44.456	239.246	148.783	160.436	232.240	-41.158	-103.694	57.380	-60.859	-13.740	0.00016376	7.9927e-05	2.1041e-05	169.24	9.9881e-07	1.7028e-06	241.54	47.482	1.3855e-06	1.4686e-06	90.645	34.565	14.593	6.9598	1.3753e-06	17.121	2.5036e-05	1.1475e-05	2.4994e-06	163.2	1.3375e-07	1.1707e-07	235.3	46.244	1.156e-07	1.1122e-07	87.751	33.407	14.32	6.7571	1.0753e-07	16.629	148.931	2.103	-4.755	-99.143	34.302	-5.084	-98.521	-93.621	10.292	60.873	-94.501	-90.913	-89.691	-86.008	12.926	-88.278	-8191	255	
9562.160	1	1	0	0	0.17139	0.19347	0.30482	0.29744	0.087915	0.059011	0.27042	0.14399	0.17117	0.13761	0.036143	0.14766	0.34487	0.13387	0.031495	0.40783	-2.0625	-2.1312	-2.5604	-2.3583	-2.3667	-2.5979	-2.425	-2.3771	-2.6979	-2.2917	-2.6104	-2.2875	-2.1437	-2.3104	-2.4271	-2.3583	132.718	67.707	38.968	85.743	92.639	28.587	161.419	166.690	155.196	9.281	246.724	-50.937	129.270	152.809	-33.793	-77.406	0.00015555	6.514e-05	3.3583e-05	170.27	9.1736e-07	2.2441e-06	245.38	47.99	8.0821e-07	1.0499e-06	91.042	34.494	14.627	6.8752	7.3225e-07	17.191	2.4905e-05	1.1963e-05	2.6686e-06	164.04	1.2888e-07	1.0716e-07	237.22	46.421	1.1603e-07	1.2762e-07	88.052	33.416	14.292	6.7264	1.2431e-07	16.628	147.104	-15.143	-18.432	-99.085	38.312	17.951	-98.769	-93.476	-13.770	54.689	-94.797	-91.105	-90.237	-85.998	19.080	-88.096	-8191	255	
9562.254	1	1	0	0	0.046526	0.20997	0.18646	0.051918	0.1228	0.025134	0.15431	0.1152	0.12566	0.16817	0.14131	0.19738	0.043945	0.12286	0.20765	0.18835	-2.1813	-2.1875	-2.3479	-2.35	-2.3812	-2.5833	-2.4396	-2.3417	-2.475	-2.3333	-2.625	-2.5479	-2.2729	-2.6333	-2.3896	-2.5042	113.922	15.979	60.501	-45.634	3.053	50.496	137.183	-36.228	-42.275	107.436	158.794	185.827	81.346	193.821	-29.305	227.637	0.00014114	0.0001123	4.031e-05	170.55	1.2494e-06	1.7435e-06	244.8	47.724	8.6356e-07	1.0369e-06	91.446	34.176	14.879	6.9866	5.7972e-07	17.059	2.4893e-05	1.137e-05	2.9487e-06	163.8	1.365e-07	1.0407e-07	237.64	46.331	1.1581e-07	1.2126e-07	87.993	33.346	14.37	6.7762	1.2612e-07	16.683	148.965	-0.730	-20.743	-98.779	19.950	17.792	-98.611	-94.273	34.462	29.459	-94.775	-91.283	-91.361	-86.441	-28.219	-87.812	-8191	255	
9562.352	1	1	0	0	0.14867	0.08668	0.14324	0.10371	0.12323	0.24804	0.23835	0.095978	0.065751	0.098134	0.23872	0.086881	0.19972	0.10816	0.066716	0.26273	-2.0375	-2.2792	-2.4813	-2.4854	-2.3917	-2.5417	-2.5	-2.3312	-2.5938	-2.4729	-2.6042	-2.5104	-2.3521	-2.5	-2.2583	-2.4062	24.490	121.403	164.962	123.637	77.034	-95.648	-32.830	88.824	-31.771	98.357	205.989	150.893	-72.237	110.092	-107.369	143.951	0.00013677	9.7173e-05	2.4474e-05	170.35	7.688e-07	1.0959e-06	244.09	47.142	1.2283e-06	1.171e-06	89.69	33.782	14.681	6.8901	9.739e-07	16.805	2.4935e-05	1.2262e-05	3.036e-06	163.63	1.4243e-07	1.1765e-07	235.79	45.948	1.1965e-07	1.2054e-07	86.187	32.799	14.131	6.679	1.2829e-07	16.33	146.883	-48.013	-49.857	-99.017	-26.445	2.827	-99.191	-93.759	30.641	29.714	-94.403	-91.313	-90.359	-85.929	1.704	-87.996	-8191	255	
9562.471	1	1	0	0	0.20116	0.024537	0.39863	0.049241	0.014647	0.13672	0.23761	0.16983	0.038374	0.20483	0.21289	0.14288	0.053114	0.30736	0.20206	0.38274	-2.0896	-2.3458	-2.3542	-2.4583	-2.1813	-2.7313	-2.4396	-2.3625	-2.5875	-2.3146	-2.4604	-2.4896	-2.1292	-2.4542	-2.7125	-2.1125	219.187	-95.594	165.183	223.663	-2.812	180.971	152.572	-41.016	139.955	-74.185	236.769	213.887	3.536	163.434	38.034	220.688	0.00013501	0.00015355	3.9327e-05	168.02	5.4387e-07	7.6514e-07	240.95	47.074	5.2668e-07	8.4786e-07	89.057	33.586	14.54	6.7502	8.8159e-07	16.752	2.2951e-05	1.1553e-05	2.8814e-06	162.12	1.2359e-07	1.1154e-07	233.1	45.468	1.2172e-07	1.1244e-07	86.052	32.746	14.09	6.6089	1.1932e-07	16.389	142.201	-10.324	-50.460	-99.383	4.107	35.249	-98.496	-93.850	20.264	13.176	-95.132	-90.792	-90.266	-86.123	44.951	-88.353	-8191	255	
9562.567	1	1	0	0	0.27729	0.26318	0.075757	0.2262	0.19665	0.16789	0.15212	0.36073	0.33538	0.20614	0.15541	0.12673	0.10393	0.22296	0.13563	0.2717	-2.1417	-2.2917	-2.2292	-2.3583	-2.2625	-2.4792	-2.3854	-2.3312	-2.4667	-2.4021	-2.3854	-2.5354	-2.0708	-2.7042	-2.4708	-2.1854	-84.876	153.382	-105.758	124.534	-6.700	238.254	227.130	96.140	-95.320	-38.529	-83.959	69.729	-51.374	74.925	60.648	207.494	0.00014167	0.00010658	4.0849e-05	168.23	7.8502e-07	1.9324e-06	243	47.46	5.7203e-07	9.1843e-07	90.492	34.225	14.622	6.9739	1.0856e-06	17.19	2.3465e-05	1.0433e-05	3.5053e-06	162.81	1.1858e-07	1.0687e-07	234.9	45.924	1.1006e-07	1.0594e-07	87.599	33.243	14.212	6.7158	1.1527e-07	16.638	145.977	-56.030	-18.430	-98.578	-10.574	35.861	-98.759	-93.631	-21.698	31.283	-94.321	-91.203	-90.083	-86.362	10.510	-88.049	-8191	255	
9562.664	1	1	0	0	0.019509	0.074262	0.15834	0.046297	0.23503	0.23981	0.1208	0.17801	0.27041	0.077381	0.10864	0.18157	0.36439	0.10997	0.15851	0.14984	-1.9896	-2.4625	-2.2229	-2.6479	-2.1479	-2.6146	-2.5187	-2.2625	-2.6896	-2.3271	-2.4437	-2.6312	-2.2417	-2.3521	-2.5229	-2.2812	133.445	115.805	-80.875	129.886	129.005	197.593	155.512	184.413	220.158	177.901	149.976	102.275	13.388	141.831	45.677	60.469	0.00013646	1.811e-05	4.1385e-05	171.09	1.5401e-06	1.251e-06	245.17	48.213	1.1972e-06	4.2421e-07	91.695	34.491	14.712	6.9826	1.1253e-06	17.197	2.3991e-05	1.0836e-05	2.9523e-06	163.92	1.334e-07	1.0292e-07	238.42	46.823	1.3729e-07	1.1389e-07	89.244	33.657	14.366	6.7905	1.2077e-07	16.762	143.339	-40.506	-3.496	-99.145	31.160	11.928	-99.177	-93.479	30.437	15.828	-94.983	-91.108	-90.485	-85.683	8.881	-87.868	-8191	255	
9562.784	1	1	0	0	0.15249	0.17966	0.23349	0.045837	0.14334	0.074873	0.10564	0.34443	0.12337	0.23392	0.22928	0.12968	0.29846	0.10634	0.080855	0.20714	-2.1542	-2.3021	-2.2917	-2.525	-2.4042	-2.4188	-2.5396	-2.2583	-2.45	-2.4646	-2.2354	-2.3937	-2.2958	-2.3792	-2.4813	-2.1583	129.555	-50.364	-11.172	111.219	160.080	125.576	88.854	228.815	98.928	89.624	152.113	109.170	66.453	219.613	83.310	223.479	0.00013949	7.6822e-05	2.2789e-05	170.74	9.0946e-07	1.0032e-06	244.36	47.898	5.0092e-07	1.4123e-06	91.187	34.54	14.736	6.9071	1.1382e-06	17.068	2.4039e-05	1.0224e-05	3.0215e-06	164.01	1.2409e-07	1.1147e-07	237.75	46.524	1.1809e-07	1.1165e-07	88.134	33.422	14.321	6.7375	1.2106e-07	16.479	148.697	14.032	-1.003	-98.982	-42.885	8.128	-99.024	-93.834	11.331	42.693	-94.566	-91.297	-90.102	-86.171	14.419	-87.848	-8191	255	
9562.856	1	1	0	0	0.22337	0.081098	0.27066	0.11496	0.068225	0.093934	0.14635	0.20984	0.22265	0.061816	0.20293	0.12344	0.23505	0.2915	0.044596	0.27215	-1.9625	-2.3833	-2.1021	-2.5771	-2.3917	-2.4917	-2.5854	-2.3708	-2.4083	-2.3896	-2.1292	-2.4958	-2.4271	-2.1646	-2.6396	-2.3021	55.928	247.298	224.432	208.629	209.921	50.409	201.840	-101.876	67.790	63.122	216.991	114.409	11.920	210.597	-22.658	-101.084	0.00014322	0.00013043	4.8846e-05	169.02	4.4429e-07	1.3358e-06	243.37	47.367	8.1897e-07	1.0144e-06	90.882	34.071	14.899	6.878	8.9352e-07	16.901	2.549e-05	1.07e-05	3.2525e-06	162.47	1.2536e-07	1.1808e-07	235.33	46.132	1.252e-07	1.0861e-07	87.873	33.162	14.325	6.7006	1.1477e-07	16.522	152.682	-23.831	-17.473	-98.961	12.164	18.356	-99.193	-94.305	17.719	15.451	-94.773	-91.088	-90.667	-86.133	-18.867	-87.997	-8191	255	
9562.952	1	1	0	0	0.27889	0.15234	0.15996	0.16342	0.30975	0.098281	0.091729	0.063966	0.30605	0.15695	0.21125	0.10792	0.40042	0.17066	0.10602	0.10773	-1.95	-2.6396	-2.3	-2.4021	-2.4604	-2.3854	-2.3875	-2.2687	-2.3958	-2.6521	-2.1688	-2.4708	-2.4646	-2.1792	-2.5646	-2.2104	197.652	102.573	-4.413	159.309	-88.651	5.221	37.841	-30.652	60.918	21.844	33.527	-107.374	-27.687	14.800	157.555	-97.380	0.00013778	0.00011954	4.2193e-05	169.08	1.1001e-06	1.1228e-06	241.94	47.513	1.1419e-06	5.7155e-07	90.199	34.203	14.49	6.9423	1.2028e-06	17.046	2.4594e-05	9.6316e-06	2.8214e-06	162.26	1.3657e-07	1.188e-07	235.08	46.067	1.4653e-07	1.2206e-07	87.644	33.176	14.181	6.7242	1.1252e-07	16.528	144.228	-65.844	-41.332	-98.892	-3.688	53.725	-98.622	-93.610	0.958	78.605	-94.887	-90.958	-90.501	-86.248	19.631	-88.278	-8191	255	
9563.048	1	1	0	0	0.095143	0.019988	0.31594	0.053501	0.24335	0.058619	0.19253	0.081852	0.16738	0.32342	0.085276	0.018191	0.30147	0.15236	0.17315	0.050328	-1.7604	-2.6063	-2.0896	-2.5042	-2.4833	-2.3375	-2.5667	-2.3458	-2.2479	-2.6729	-2.2604	-2.475	-2.5062	-2.0854	-2.5312	-2.4521	-110.223	112.898	153.305	-65.953	-22.424	244.317	-78.591	129.646	-44.780	39.261	112.972	138.243	162.764	187.981	-7.633	-11.192	0.00014003	0.00012653	4.3057e-05	167.56	1.9988e-06	1.2849e-06	243.31	47.605	1.754e-06	6.2226e-07	88.726	33.712	14.475	6.7323	1.1804e-06	16.74	2.5317e-05	1.1175e-05	3.0196e-06	161.91	1.37e-07	1.1686e-07	234.9	45.879	1.3593e-07	9.5679e-08	86.325	32.823	14.046	6.5977	1.2236e-07	16.296	144.385	-54.561	-38.826	-98.949	-2.556	5.408	-99.178	-93.697	-18.648	8.492	-94.760	-90.881	-90.095	-86.195	-27.438	-87.708	-8191	255	
9563.167	1	1	0	0	0.24501	0.24118	0.2105	0.25332	0.06043	0.1652	0.12594	0.086922	0.12314	0.23124	0.10363	0.081199	0.035076	0.12778	0.28302	0.22674	-1.7708	-2.4938	-2.3021	-2.4167	-2.6063	-2.2958	-2.3125	-2.4125	-2.1937	-2.6188	-2.2188	-2.3583	-2.3708	-2.4062	-2.5479	-2.5917	-86.670	245.884	50.454	235.777	-29.253	-25.439	218.729	-47.501	165.092	231.935	11.086	-75.875	141.123	183.348	-30.513	18.731	0.00013411	9.8078e-05	3.5794e-05	167.47	6.0538e-07	1.0726e-06	240.48	46.581	8.5491e-07	1.7041e-06	87.816	33.277	14.43	6.7487	4.5463e-07	16.541	2.4176e-05	1.0146e-05	2.8723e-06	161.02	1.2508e-07	1.1614e-07	231.39	45.223	1.2712e-07	1.1006e-07	85.013	32.106	13.862	6.507	1.259e-07	15.977	148.614	-19.976	0.628	-98.806	50.239	9.599	-99.316	-93.808	59.112	14.733	-94.732	-91.261	-90.540	-86.293	-27.434	-87.972	-8191	255	
9563.263	1	1	0	0	0.11422	0.18022	0.27094	0.056957	0.16457	0.10791	0.11425	0.10621	0.2771	0.20409	0.078745	0.013922	0.22936	0.084099	0.16085	0.1132	-1.6896	-2.5438	-2.2313	-2.3563	-2.3396	-2.3646	-2.5771	-2.4313	-2.3063	-2.6771	-2.3333	-2.3104	-2.3958	-2.2396	-2.5125	-2.5083	67.592	236.436	-61.604	210.420	204.802	178.215	45.765	-25.862	225.594	-108.299	-81.629	52.267	41.762	58.589	126.808	-38.164	0.0001574	0.00015465	3.5152e-05	164.5	7.994e-07	8.9978e-07	236	46.122	1.0669e-06	1.193e-06	88.378	33.596	14.291	6.7034	1.5697e-06	16.419	2.4953e-05	9.7357e-06	2.8723e-06	159.57	1.2084e-07	1.1398e-07	229.83	44.886	1.2989e-07	9.6618e-08	85.315	32.292	13.867	6.4975	1.1867e-07	15.93	148.073	-11.301	-27.526	-98.922	27.998	37.137	-99.164	-93.980	-0.067	35.786	-94.527	-90.999	-89.745	-86.198	39.907	-87.706	-8191	255	
9563.359	1	1	0	0	0.11567	0.28486	0.15627	0.19631	0.032981	0.23167	0.081025	0.15419	0.079829	0.18924	0.094641	0.26962	0.051757	0.26511	0.20961	0.19195	-1.6479	-2.2375	-2.3583	-2.175	-2.5583	-2.3417	-2.5604	-2.4188	-2.1896	-2.525	-2.225	-2.3146	-2.6083	-2.3292	-2.5271	-2.575	46.224	-73.566	-16.607	52.533	95.270	90.420	152.734	-91.905	31.375	157.642	230.770	162.928	-32.694	200.880	145.198	169.458	0.00012437	7.4648e-05	4.8033e-05	166.02	1.1483e-06	1.8257e-06	238.78	46.088	9.0089e-07	1.4222e-06	87.729	32.456	13.919	6.5366	6.7687e-07	16.123	2.3674e-05	1.0393e-05	3.0051e-06	160.14	1.171e-07	1.124e-07	230.58	44.61	1.2797e-07	1.1729e-07	84.19	31.657	13.556	6.3474	1.1932e-07	15.615	141.248	-45.084	-27.269	-98.810	-19.427	18.634	-98.888	-93.799	-10.502	28.727	-94.525	-91.027	-89.985	-86.127	-25.485	-87.925	-8191	255	
9563.433	1	1	0	0	0.1166	0.20828	0.089738	0.091764	0.2205	0.039405	0.089219	0.20787	0.028054	0.18856	0.28341	0.29657	0.23021	0.027627	0.10554	0.41083	-1.8271	-2.5896	-2.45	-2.2292	-2.5958	-2.3833	-2.4417	-2.4958	-2.2729	-2.5542	-2.3375	-2.2146	-2.5938	-2.3187	-2.5563	-2.6063	35.904	-78.187	93.878	-100.993	-86.586	118.930	72.869	82.441	35.849	158.087	-107.205	121.942	8.755	27.804	203.926	189.884	0.00014797	0.00010212	4.0631e-05	164.42	5.0559e-07	1.1094e-06	234.53	45.439	1.6836e-06	7.9897e-07	85.899	32.307	13.945	6.4185	1.1895e-06	16.091	2.3907e-05	9.866e-06	2.9705e-06	158.31	1.1104e-07	1.0529e-07	227.55	44.154	1.3608e-07	1.0818e-07	83.327	31.434	13.491	6.3016	1.3248e-07	15.598	150.552	-62.975	-5.537	-98.979	-12.733	22.789	-98.802	-93.489	-6.101	32.129	-94.781	-91.058	-90.049	-86.211	10.445	-87.583	-8191	255	
9563.552	1	1	0	0	0.048887	0.090685	0.060069	0.15849	0.16263	0.13984	0.13794	0.1293	0.18411	0.2381	0.15286	0.13281	0.10404	0.1312	0.039403	0.17532	-1.9125	-2.3375	-2.3438	-2.1542	-2.5521	-2.3688	-2.3667	-2.6063	-2.3146	-2.4896	-2.4604	-2.0458	-2.3937	-2.375	-2.4854	-2.6458	79.426	107.677	146.364	7.881	117.272	-54.851	213.166	-76.895	-28.577	156.680	-0.128	37.599	-92.927	-60.310	-76.735	180.004	0.00011843	0.00012755	2.6293e-06	163.95	1.3779e-06	1.7405e-06	234.94	45.303	1.3953e-06	8.4715e-07	85.683	31.964	13.802	6.5244	4.9534e-07	15.889	2.3752e-05	9.9441e-06	2.6376e-06	158.73	1.1492e-07	1.1355e-07	227.14	44.097	1.3593e-07	1.1548e-07	82.715	31.127	13.402	6.3098	1.2033e-07	15.481	142.875	-63.990	23.935	-99.024	40.152	15.273	-99.312	-93.328	-12.186	40.010	-94.522	-91.394	-90.472	-86.043	-19.414	-87.779	-8191	255	
9563.648	1	1	0	0	0.094017	0.27492	0.24686	0.23214	0.010692	0.19516	0.37193	0.158	0.096239	0.12857	0.15917	0.12709	0.14377	0.062526	0.38964	0.086035	-1.7021	-2.2979	-2.55	-2.1375	-2.4583	-2.4125	-2.3271	-2.4188	-2.4083	-2.2083	-2.6354	-2.3146	-2.6271	-2.4667	-2.075	-2.6	70.814	40.305	122.125	108.461	-86.495	86.221	175.516	25.998	-43.886	56.196	84.843	44.945	-56.020	-36.852	56.933	-14.866	0.0001377	6.6412e-05	4.0627e-05	165.97	1.0385e-06	9.6818e-07	236.02	46.186	1.0901e-06	7.3978e-07	86.246	32.595	14.179	6.5616	7.9557e-07	16.146	2.3119e-05	1.1136e-05	2.4976e-06	159.36	1.1217e-07	1.0903e-07	229.35	44.524	1.3615e-07	1.2451e-07	83.97	31.711	13.692	6.4071	1.3776e-07	15.77	151.177	-25.994	-45.234	-99.024	23.871	18.311	-99.333	-94.344	-13.903	19.147	-94.559	-91.460	-90.829	-85.919	68.141	-87.773	-8191	255	
9563.744	1	1	0	0	0.16264	0.11545	0.13942	0.16836	0.14749	0.024925	0.15286	0.074557	0.32451	0.083252	0.084549	0.11394	0.23547	0.10463	0.26426	0.12029	-1.7833	-2.4958	-2.4062	-2.4271	-2.3708	-2.5625	-2.2208	-2.4562	-2.3125	-2.2667	-2.5187	-2.075	-2.5917	-2.3187	-2.1771	-2.4417	72.013	-81.906	54.698	64.700	115.424	110.541	232.262	119.728	189.083	203.574	80.755	175.895	113.010	58.849	18.202	48.356	0.00012835	0.00011636	1.3295e-05	166.39	1.2161e-06	1.4305e-06	237.51	46.441	7.5241e-07	4.274e-07	89.46	33.087	14.239	6.6768	1.7417e-06	16.5	2.4027e-05	1.137e-05	2.8523e-06	159.71	1.1985e-07	1.0343e-07	230.75	44.775	1.338e-07	1.1324e-07	85.465	32.278	13.805	6.483	1.3321e-07	16.027	147.802	-57.716	-5.764	-99.222	19.970	31.289	-98.613	-93.705	-28.318	2.523	-94.742	-91.095	-89.430	-85.857	15.958	-88.035	-8191	255	
9563.865	1	1	0	0	0.12531	0.088395	0.12116	0.1199	0.31655	0.16262	0.24892	0.22614	0.091844	0.17721	0.16462	0.070731	0.080182	0.21786	0.13673	0.02182	-1.9104	-2.3063	-2.5417	-2.4146	-2.4729	-2.4729	-2.2313	-2.5354	-2.4625	-2.2083	-2.5521	-2.325	-2.425	-2.4354	-2.3542	-2.6042	0.117	185.403	-85.609	-48.606	120.028	91.949	120.460	127.277	221.568	176.957	9.985	179.946	11.653	157.332	-111.633	154.851	0.00013384	0.00014049	1.2554e-05	166.85	7.3627e-07	1.8129e-06	242.03	46.687	7.5642e-07	5.5152e-07	89.982	33.379	14.562	6.6438	6.73e-07	16.579	2.5902e-05	1.1221e-05	2.594e-06	160.76	1.2691e-07	1.1068e-07	233.95	45.361	1.306e-07	1.2155e-07	86.757	32.512	13.947	6.5244	1.2612e-07	16.031	146.056	-70.976	48.389	-99.246	-3.235	33.795	-98.988	-94.189	20.868	60.429	-94.749	-91.026	-89.836	-86.119	-28.993	-87.867	-8191	255	
9563.961	1	1	0	0	0.013884	0.21247	0.13776	0.14877	0.21368	0.11432	0.37293	0.094436	0.091861	0.14605	0.25102	0.1651	0.14432	0.17688	0.13471	0.21043	-2.0375	-2.2812	-2.5979	-2.1854	-2.4375	-2.4229	-2.35	-2.4667	-2.4625	-2.3208	-2.5833	-2.4354	-2.3417	-2.5229	-2.4417	-2.4938	4.475	96.250	-66.593	-100.524	-98.978	80.948	203.532	127.820	-111.086	-61.498	-37.791	143.193	57.706	89.240	-22.732	47.286	0.00014242	0.00016254	3.1443e-05	166.93	7.8285e-07	1.7149e-07	238.36	46.187	1.0328e-06	1.2235e-06	87.456	33.089	14.169	6.6796	1.2519e-06	16.375	2.4039e-05	1.1435e-05	2.5649e-06	160.55	1.1619e-07	1.0472e-07	230.88	44.894	1.284e-07	1.3456e-07	84.653	32.087	13.768	6.4517	1.2409e-07	15.833	148.036	-26.732	-11.240	-98.797	8.768	19.993	-98.888	-93.763	-48.141	38.835	-94.603	-91.005	-90.163	-86.391	-15.463	-88.201	-8191	255	
9564.032	1	1	0	0	0.25806	0.11431	0.16809	0.24149	0.13711	0.1803	0.076565	0.082951	0.12016	0.29936	0.16218	0.25546	0.1856	0.1633	0.26107	0.18004	-1.9375	-2.3438	-2.5833	-2.3229	-2.3688	-2.6229	-2.4646	-2.3896	-2.4833	-2.1292	-2.4854	-2.4979	-2.3583	-2.6063	-2.3375	-2.6042	211.667	157.120	-87.737	48.182	21.439	45.713	-7.244	15.269	141.728	118.732	-80.410	99.292	-86.288	64.091	237.012	-9.506	0.00013635	0.00012307	2.4047e-05	166.84	9.9469e-07	9.1872e-07	237.48	46.459	8.3058e-07	7.8134e-07	88	33.057	14.136	6.6381	1.2326e-06	16.436	2.319e-05	1.0713e-05	2.5085e-06	160.15	1.1739e-07	9.3012e-08	230.74	44.992	1.2463e-07	1.2972e-07	85.318	32.135	13.865	6.4933	1.2807e-07	15.97	138.662	-88.584	-16.463	-98.708	27.345	31.358	-98.887	-93.836	-13.541	45.327	-94.983	-90.911	-89.633	-87.210	14.585	-88.311	-8191	255	
9564.153	1	1	0	0	0.13106	0.056909	0.224	0.3232	0.1248	0.11171	0.35582	0.013759	0.29742	0.11754	0.18459	0.16572	0.13426	0.091075	0.21074	0.20652	-2.3396	-2.1542	-2.3625	-2.4104	-2.45	-2.6042	-2.4292	-2.5042	-2.4437	-2.3312	-2.5417	-2.3292	-2.3208	-2.5792	-2.3583	-2.5	210.893	91.124	69.988	112.479	14.752	80.574	98.097	141.001	-14.494	-25.361	-78.994	-67.391	-76.444	-16.457	108.363	146.776	0.00012775	9.2098e-05	4.4677e-05	166.76	8.6109e-07	6.814e-07	240.95	46.605	1.6293e-06	1.1446e-06	88.31	33.248	14.375	6.6732	9.5834e-07	16.455	2.4445e-05	1.1833e-05	2.6049e-06	160.27	1.4758e-07	9.9907e-08	232.65	45.159	1.2819e-07	1.2849e-07	85.191	32.335	13.963	6.4814	1.4217e-07	15.982	148.212	-40.392	-14.320	-98.660	39.155	-30.750	-98.821	-94.151	10.669	34.057	-94.562	-91.120	-90.148	-86.735	-5.197	-87.795	-8191	255	
9564.247	1	1	0	0	0.047826	0.11522	0.1075	0.18256	0.45781	0.19614	0.22518	0.20379	0.15181	0.13583	0.10794	0.20709	0.056339	0.13783	0.16083	0.12828	-2.0292	-2.2875	-2.4125	-2.5125	-2.2042	-2.4479	-2.4292	-2.425	-2.6354	-2.2729	-2.5896	-2.6625	-2.1958	-2.5417	-2.5187	-2.3896	-64.759	216.896	58.196	118.923	-40.126	241.137	207.691	202.810	199.021	223.233	76.121	92.393	-3.850	-8.196	49.859	237.773	0.00014481	0.00016767	1.7968e-05	167.18	1.0086e-06	1.9643e-06	239.71	46.258	8.9235e-07	7.7363e-07	88.755	33.219	14.388	6.7545	1.5637e-06	16.517	2.3453e-05	1.1989e-05	3.0669e-06	160.67	1.346e-07	1.0443e-07	232.2	45.008	1.156e-07	1.2119e-07	85.636	32.349	13.882	6.5196	1.3089e-07	16.026	150.833	-42.848	-6.087	-98.720	66.914	22.841	-98.865	-94.069	31.805	77.543	-94.771	-90.832	-90.932	-86.114	23.432	-88.250	-8191	255	
9564.344	1	1	0	0	0.11369	0.048611	0.099832	0.12486	0.066772	0.26444	0.30796	0.082174	0.049115	0.038339	0.22993	0.042999	0.070555	0.11992	0.10779	0.14497	-2.2917	-2.3812	-2.45	-2.5542	-2.3396	-2.65	-2.5333	-2.3312	-2.7313	-2.4167	-2.4562	-2.5042	-2.1333	-2.4771	-2.4813	-2.4667	30.825	8.064	-49.571	122.701	-89.597	-51.941	111.127	-73.468	230.962	220.861	204.179	1.784	184.688	165.484	152.298	-35.262	0.0001383	0.00012854	2.6918e-05	165.58	1.6323e-06	1.3495e-06	238.05	46.48	6.989e-07	1.4973e-06	87.656	32.814	14.037	6.6068	1.595e-06	16.251	2.4361e-05	1.0752e-05	2.9305e-06	159.86	1.382e-07	1.1736e-07	230.15	44.8	1.193e-07	1.175e-07	84.431	31.883	13.735	6.4259	1.3639e-07	15.808	148.034	-32.061	-17.034	-99.202	18.215	46.713	-99.125	-93.923	-28.847	41.224	-94.890	-90.949	-90.279	-86.424	4.731	-88.021	-8191	255	
9564.464	1	1	0	0	0.015483	0.14576	0.022459	0.089473	0.083535	0.15847	0.086043	0.14449	0.27956	0.14918	0.20748	0.28583	0.25089	0.085085	0.067579	0.021223	-2.1292	-2.2458	-2.3708	-2.5854	-2.1271	-2.5187	-2.4208	-2.3042	-2.575	-2.2438	-2.5458	-2.5854	-2.3979	-2.2479	-2.475	-2.2146	-15.549	226.558	155.263	122.370	-64.656	70.053	186.217	-43.894	238.011	49.344	242.674	128.082	-86.915	190.942	200.211	171.748	0.00013024	0.00012046	5.2812e-05	165.2	1.5061e-06	1.7646e-06	238.46	46.55	8.9028e-07	9.8115e-07	86.81	33.133	14.131	6.6294	5.4092e-07	16.291	2.4797e-05	1.154e-05	3.2052e-06	159.24	1.3502e-07	1.1406e-07	230.66	44.93	1.1802e-07	1.1512e-07	84.606	32.139	13.799	6.4557	1.2171e-07	15.893	153.228	-49.097	-24.102	-99.239	35.294	36.831	-99.229	-94.157	16.163	89.749	-94.660	-91.191	-89.990	-86.469	20.008	-88.245	-8191	255	
9564.560	1	1	0	0	0.4638	0.24094	0.15635	0.32382	0.03627	0.14239	0.25398	0.19752	0.22668	0.066604	0.10725	0.12502	0.34034	0.059744	0.15723	0.2611	-2.1312	-2.3	-2.3333	-2.6792	-2.3021	-2.4938	-2.5208	-2.2646	-2.6208	-2.3542	-2.4771	-2.5729	-2.1917	-2.5542	-2.4042	-2.2354	17.040	-36.250	-51.430	235.038	-13.308	-20.338	152.304	10.521	74.127	152.711	108.978	-6.684	125.502	64.305	55.617	149.462	0.00014454	4.3437e-05	7.8383e-05	165.84	8.6154e-07	9.6548e-07	240.4	46.538	1.4802e-06	9.4828e-07	88.278	33.177	14.317	6.6506	1.2068e-06	16.39	2.42e-05	1.1077e-05	3.6199e-06	159.87	1.267e-07	1.1276e-07	231.83	45.13	1.2079e-07	1.1982e-07	85.112	32.275	13.808	6.478	1.3263e-07	15.985	143.982	-45.955	-28.905	-98.902	32.156	6.284	-98.982	-93.864	0.282	-28.711	-94.722	-90.391	-90.228	-85.684	3.848	-88.266	-8191	255	
9564.656	1	1	0	0	0.11641	0.070051	0.3379	0.047255	0.16465	0.031132	0.19399	0.27824	0.16215	0.18976	0.099254	0.052722	0.083819	0.153	0.2407	0.19246	-2.1604	-2.325	-2.2729	-2.5042	-1.9979	-2.6104	-2.4833	-2.1813	-2.5563	-2.2396	-2.1708	-2.3958	-2.3229	-2.4042	-2.7188	-2.3438	232.920	-90.496	-48.674	-34.503	97.754	-97.185	10.981	-96.608	-102.729	-104.510	199.235	129.450	-6.079	148.047	-95.139	73.821	0.00013347	0.00012795	5.6655e-05	166.06	1.063e-06	7.1238e-07	238.32	46.316	9.0196e-07	1.3694e-06	87.685	33.319	14.367	6.5936	1.3671e-06	16.332	2.3806e-05	1.083e-05	3.1815e-06	159.72	1.2846e-07	1.3e-07	231.19	44.945	1.1973e-07	1.1721e-07	85.098	32.257	13.865	6.4424	1.3212e-07	15.878	150.671	-18.548	-23.861	-99.158	22.041	-32.835	-98.566	-93.638	-36.388	24.795	-94.492	-91.240	-91.017	-86.062	0.804	-88.287	-8191	255	
9564.728	1	1	0	0	0.14132	0.2513	0.065657	0.22035	0.32197	0.14883	0.27472	0.072689	0.19592	0.34355	0.1278	0.11337	0.044399	0.079464	0.23377	0.21728	-1.9792	-2.1896	-2.3042	-2.5708	-2.4229	-2.3875	-2.6771	-2.2625	-2.5771	-2.5438	-2.1688	-2.6458	-2.3542	-2.1875	-2.8542	-2.2604	188.153	201.623	-28.633	119.486	93.833	239.819	157.885	-44.273	98.237	236.732	-72.610	-24.712	210.577	-37.086	215.231	-13.111	0.00012824	0.00011384	3.4383e-05	165.5	8.6867e-07	1.8074e-06	236.2	45.938	1.2826e-06	1.2047e-06	86.856	32.616	14.306	6.5953	1.3209e-06	16.245	2.3734e-05	1.1488e-05	3.0706e-06	158.93	1.3425e-07	1.2138e-07	228.54	44.668	1.3558e-07	1.2191e-07	84.325	31.883	13.786	6.3943	1.2272e-07	15.711	144.609	-27.183	-47.807	-98.955	22.451	36.871	-98.883	-93.818	28.546	21.250	-94.573	-90.546	-90.865	-86.333	4.361	-88.014	-8191	255	
9564.849	1	1	0	0	0.12817	0.21743	0.22984	0.16967	0.16635	0.14478	0.15594	0.12095	0.25797	0.17543	0.070146	0.11563	0.087865	0.10049	0.15548	0.20366	-2.0875	-2.5125	-2.2396	-2.6333	-2.3583	-2.3167	-2.55	-2.1625	-2.4292	-2.5625	-2.0812	-2.4333	-2.3958	-2.4146	-2.5312	-2.2687	247.264	129.086	198.439	241.168	106.618	-75.234	-44.731	56.615	4.606	46.609	234.988	94.225	178.489	-86.123	227.730	222.719	0.00016493	0.00011432	4.4213e-05	166.89	1.2616e-06	1.0947e-06	238.4	46.42	1.4215e-06	7.9359e-07	88.248	33.12	14.303	6.698	1.3052e-06	16.304	2.4487e-05	1.0791e-05	3.2325e-06	159.71	1.2613e-07	1.1312e-07	231.32	45.073	1.353e-07	1.0103e-07	85.6	32.16	13.855	6.4674	1.2525e-07	15.909	150.405	-49.707	-32.762	-98.732	14.377	21.049	-99.151	-94.385	-18.570	26.166	-95.041	-91.161	-90.693	-85.946	-5.222	-88.271	-8191	255	
9564.945	1	1	0	0	0.4171	0.23088	0.19234	0.21622	0.16456	0.06778	0.061569	0.15594	0.11482	0.3236	0.059675	0.15023	0.070385	0.072064	0.13072	0.15118	-2.05	-2.4458	-2.2542	-2.7021	-2.425	-2.3937	-2.6354	-2.3792	-2.5021	-2.7062	-2.2958	-2.6063	-2.5146	-2.4062	-2.6667	-2.3229	26.239	122.275	52.003	216.374	98.901	-91.427	-76.573	180.553	-1.896	-99.306	67.508	149.914	168.838	-58.108	219.023	-45.489	0.00013449	6.3441e-05	2.3946e-05	168.22	1.2831e-06	4.9527e-07	239.63	46.878	1.079e-06	1.4221e-06	88.785	33.22	14.136	6.6609	5.8285e-07	16.466	2.4481e-05	1.1077e-05	3.4744e-06	160.67	1.2825e-07	1.3122e-07	232.75	45.259	1.2968e-07	1.1035e-07	85.72	32.214	13.831	6.4538	1.1585e-07	15.975	149.041	-55.198	-37.668	-99.287	35.445	24.688	-98.922	-93.348	-52.108	0.288	-95.211	-91.196	-90.680	-86.244	-4.105	-88.139	-8191	255	
9565.041	1	1	0	0	0.10255	0.14691	0.063451	0.1083	0.1604	0.04976	0.04333	0.32525	0.12478	0.093351	0.18879	0.17725	0.22362	0.069027	0.15625	0.189	-2.0917	-2.5417	-2.2062	-2.4354	-2.4729	-2.3604	-2.675	-2.1937	-2.4542	-2.6104	-2.4083	-2.4	-2.5104	-2.1333	-2.5396	-2.3271	-54.454	-12.458	-53.582	146.264	212.418	102.225	-73.827	-3.069	-35.489	-92.844	86.111	247.362	-29.438	106.808	152.738	245.454	0.0001236	7.5723e-05	2.0385e-05	167.34	1.5457e-06	1.1798e-06	241.43	46.948	7.9069e-07	8.2303e-07	89.169	33.221	14.23	6.6206	1.1282e-06	16.294	2.5437e-05	9.853e-06	3.1179e-06	160.93	1.3502e-07	1.221e-07	234.33	45.264	1.2989e-07	1.1136e-07	86.108	32.418	13.889	6.4364	1.3718e-07	15.887	144.517	-34.769	-2.312	-99.038	14.704	15.091	-99.399	-94.363	13.965	33.018	-94.712	-90.503	-90.651	-86.654	-25.658	-87.686	-8191	255	
9565.137	1	1	0	0	0.19699	0.10799	0.045402	0.058948	0.152	0.082237	0.2553	0.13622	0.44141	0.059753	0.017751	0.13758	0.044222	0.21557	0.18071	0.20281	-1.8854	-2.4938	-2.3083	-2.4188	-2.5438	-2.2896	-2.6188	-2.45	-2.4375	-2.8167	-2.3042	-2.4396	-2.5854	-2.2646	-2.5458	-2.4062	169.065	143.283	-9.772	100.335	-44.143	5.567	143.992	242.712	155.544	13.419	146.708	-80.065	242.795	6.603	-71.925	77.711	0.00013366	0.00014411	3.9665e-05	165.6	1.3504e-06	6.8387e-07	237.25	46.068	9.9039e-07	7.9114e-07	87.521	32.826	14.081	6.5913	8.9908e-07	16.204	2.4242e-05	9.7292e-06	3.3325e-06	159.83	1.2141e-07	1.1657e-07	230.84	44.773	1.4034e-07	1.0182e-07	84.702	31.969	13.695	6.3909	1.353e-07	15.788	152.817	-37.832	-8.014	-98.802	6.602	97.824	-98.665	-93.938	14.390	41.873	-94.643	-91.600	-90.270	-86.640	23.941	-88.180	-8191	255	
9565.233	1	1	0	0	0.22052	0.15706	0.14709	0.20676	0.31989	0.083614	0.27119	0.20544	0.11846	0.13306	0.091301	0.10115	0.11726	0.25101	0.15813	0.12776	-1.9833	-2.7021	-2.4188	-2.5667	-2.5	-2.4354	-2.7333	-2.5021	-2.3417	-2.6167	-2.3729	-2.25	-2.6875	-2.4417	-2.5333	-2.4542	16.825	73.561	208.613	55.776	171.707	-86.853	-20.397	118.870	242.335	91.671	120.413	215.815	-27.200	100.955	-86.968	-66.518	0.00013993	0.00011699	2.7438e-05	166.17	1.157e-06	1.3344e-06	238.68	46.653	1.3542e-06	1.0544e-06	87.828	33.038	14.256	6.6743	5.306e-07	16.371	2.5508e-05	1.014e-05	2.7341e-06	159.91	1.2585e-07	1.2943e-07	231.22	45	1.3473e-07	1.1468e-07	84.817	32.008	13.739	6.43	1.2706e-07	15.888	149.653	-26.155	-47.284	-99.329	1.744	25.131	-98.918	-93.628	10.839	47.135	-94.904	-91.371	-89.882	-86.053	-10.440	-88.209	-8191	255	
9565.328	1	1	0	0	0.24698	0.17836	0.19554	0.1409	0.19751	0.18476	0.11883	0.25129	0.19608	0.13372	0.18025	0.067097	0.23943	0.078267	0.152	0.20054	-2.0083	-2.4479	-2.4813	-2.4938	-2.4437	-2.4229	-2.6042	-2.4854	-2.3167	-2.65	-2.2458	-2.55	-2.6229	-2.4229	-2.4521	-2.4458	186.492	97.893	-20.469	163.310	-50.354	166.844	210.520	-19.874	91.551	188.562	-107.176	101.389	-27.857	110.843	100.958	-71.868	0.00012344	9.2309e-05	1.5666e-05	166.84	6.8911e-07	2.0169e-06	238.88	46.711	6.8183e-07	1.3428e-06	88.319	33.189	14.138	6.6561	1.3585e-06	16.467	2.5478e-05	1.1149e-05	3.0342e-06	160.64	1.1943e-07	1.2979e-07	232.12	45.127	1.2669e-07	1.0132e-07	85.384	32.257	13.752	6.4422	1.2634e-07	15.953	143.509	-35.501	50.995	-98.846	23.313	33.856	-98.929	-93.793	-26.117	27.261	-94.946	-91.373	-90.990	-86.015	31.205	-87.862	-8191	255	
9565.426	1	1	0	0	0.10521	0.21121	0.24972	0.096528	0.17985	0.23428	0.067099	0.28664	0.25486	0.19413	0.36075	0.06775	0.054134	0.019806	0.10252	0.23409	-1.6521	-2.5104	-2.2792	-2.2833	-2.6688	-2.4979	-2.5062	-2.3583	-2.2792	-2.6083	-2.3958	-2.2771	-2.5917	-2.1792	-2.5167	-2.525	237.467	225.490	-89.614	-41.824	121.155	178.421	-12.389	113.397	193.602	222.857	-21.686	73.253	98.635	20.119	103.775	-44.308	0.00015504	0.00013594	3.9791e-05	165.85	1.1383e-06	1.0534e-06	238.31	46.481	1.2996e-06	1.4104e-06	88.154	32.758	14.209	6.6119	1.7423e-06	16.254	2.5747e-05	1.0836e-05	2.7995e-06	160.14	1.1569e-07	1.29e-07	232.55	44.898	1.4767e-07	1.196e-07	85.137	32.022	13.734	6.3883	1.3943e-07	15.739	148.735	-26.324	-20.473	-98.828	-8.336	0.694	-99.029	-93.910	5.474	15.628	-94.505	-91.306	-89.938	-86.525	34.955	-87.857	-8191	255	
9565.545	1	1	0	0	0.12709	0.25626	0.15555	0.18358	0.14789	0.17554	0.25331	0.14038	0.016219	0.26755	0.23718	0.15307	0.10991	0.047185	0.28216	0.073567	-1.8792	-2.3187	-2.4792	-2.2604	-2.7062	-2.4958	-2.4417	-2.5521	-2.2062	-2.5604	-2.5854	-2.2812	-2.5938	-2.3583	-2.5438	-2.8438	122.568	-89.382	224.622	-23.439	-17.219	-39.022	195.702	62.619	154.734	-32.526	180.294	-51.792	90.606	42.434	123.916	123.963	0.00013762	0.00021229	4.5731e-05	165.16	1.0104e-06	4.6071e-07	235.91	45.794	9.9723e-07	1.1387e-06	86.727	32.673	13.983	6.5392	9.3467e-07	16.197	2.4947e-05	1.1683e-05	2.7868e-06	159.32	1.0984e-07	1.2023e-07	229.05	44.496	1.3096e-07	1.0175e-07	84.208	31.771	13.674	6.3728	1.2894e-07	15.738	149.662	-25.808	-13.350	-98.850	-1.348	-15.850	-98.989	-93.829	-1.786	33.079	-94.492	-90.640	-90.690	-86.346	24.173	-87.822	-8191	255	
9565.641	1	1	0	0	0.13333	0.16032	0.22633	0.1614	0.17795	0.11752	0.3211	0.12179	0.093403	0.082339	0.080244	0.14978	0.35215	0.087774	0.052666	0.14554	-1.975	-2.4958	-2.6063	-2.1604	-2.6458	-2.4875	-2.2896	-2.6979	-2.3438	-2.4688	-2.5771	-2.2458	-2.3854	-2.4917	-2.3146	-2.5563	-14.471	-90.883	33.880	71.823	-94.525	191.813	-2.715	12.341	-28.778	226.995	-100.059	-5.966	-7.673	22.838	177.185	77.920	0.00013093	9.0798e-05	2.5214e-05	167.18	5.807e-07	1.3542e-06	240.28	47.045	9.2524e-07	5.7154e-07	88.951	33.141	14.285	6.6553	9.5409e-07	16.485	2.5873e-05	1.0804e-05	3.1524e-06	160.69	1.2409e-07	1.2217e-07	233.16	45.283	1.3522e-07	1.1707e-07	85.469	32.251	13.826	6.4434	1.2822e-07	15.948	144.625	-14.747	-4.721	-99.457	17.885	20.239	-98.874	-93.798	-4.608	-0.615	-94.857	-90.788	-90.716	-85.856	-32.182	-88.100	-8191	255	
9565.737	1	1	0	0	0.12251	0.068885	0.17072	0.40499	0.20091	0.23497	0.071589	0.085962	0.17079	0.10302	0.26965	0.090095	0.19178	0.23629	0.11769	0.063013	-1.8312	-2.6042	-2.4521	-2.2583	-2.5583	-2.4167	-2.1646	-2.5521	-2.3229	-2.4083	-2.6896	-2.2854	-2.3958	-2.4146	-2.3292	-2.6312	99.181	166.541	201.111	-104.916	-81.072	28.442	-81.827	219.549	236.141	120.448	31.367	37.199	-27.780	-106.036	-91.387	-105.889	0.00013261	0.00011643	3.645e-05	168.05	1.3125e-06	6.8274e-07	241.87	47.043	1.0161e-06	6.9703e-07	88.633	33.157	14.23	6.5974	1.0561e-06	16.431	2.5902e-05	1.0719e-05	3.1961e-06	161.29	1.3305e-07	1.1952e-07	233.89	45.224	1.5257e-07	1.1895e-07	85.837	32.19	13.811	6.4243	1.3776e-07	15.961	141.192	-64.074	12.027	-98.745	5.207	10.476	-98.938	-93.800	-41.974	7.315	-94.333	-91.066	-89.766	-86.201	-21.017	-87.663	-8191	255	
9565.833	1	1	0	0	0.13029	0.30326	0.078482	0.016427	0.19113	0.11135	0.26734	0.15433	0.089478	0.093854	0.12035	0.20217	0.11417	0.097757	0.13236	0.040759	-1.9729	-2.2833	-2.5854	-2.2042	-2.5083	-2.6146	-2.3292	-2.675	-2.4354	-2.475	-2.7479	-2.2917	-2.3937	-2.4979	-2.2792	-2.7083	108.574	-87.188	22.703	145.436	-50.637	-1.287	-32.565	-76.881	58.232	24.807	119.963	179.326	118.774	52.099	118.308	204.130	0.00013711	4.0225e-05	3.1917e-05	166.67	8.1347e-07	5.1807e-07	240.42	46.363	1.4656e-06	1.4605e-06	89.122	32.985	14.129	6.6112	1.6335e-06	16.179	2.4803e-05	1.0426e-05	2.7104e-06	160.76	1.2282e-07	1.0903e-07	233.78	45.095	1.4013e-07	1.2589e-07	85.714	32.064	13.671	6.3732	1.5331e-07	15.708	145.333	-63.402	1.346	-98.606	0.868	-15.147	-99.032	-93.440	8.637	41.370	-94.887	-91.000	-90.916	-86.375	7.455	-87.694	-8191	255	
9565.954	1	1	0	0	0.1494	0.23723	0.15365	0.15774	0.1408	0.086869	0.14769	0.21602	0.1871	0.2063	0.098124	0.0061803	0.21169	0.1765	0.24297	0.2853	-1.7083	-2.2	-2.4375	-2.3479	-2.4813	-2.4062	-2.4458	-2.5104	-2.4146	-2.2938	-2.6792	-2.4167	-2.4646	-2.5833	-2.3125	-2.6375	41.595	23.015	-43.018	145.515	56.202	156.488	114.637	-78.841	206.527	29.693	64.410	-4.830	13.409	55.882	135.803	182.966	0.00015673	9.0959e-05	3.2579e-05	165.39	1.4758e-06	1.0844e-06	239.04	45.701	8.4277e-07	1.0502e-06	85.611	32.462	14.002	6.4808	1.3082e-06	16.041	2.521e-05	1.2035e-05	2.6595e-06	159.6	1.3157e-07	1.1284e-07	229.99	44.509	1.23e-07	1.433e-07	83.467	31.584	13.546	6.2985	1.3219e-07	15.579	149.099	-47.706	23.648	-99.103	0.463	9.144	-98.831	-93.878	38.896	13.198	-94.470	-91.650	-90.335	-85.694	-2.743	-87.857	-8191	255	
9566.025	1	1	0	0	0.011473	0.16458	0.28883	0.12799	0.43098	0.059871	0.18937	0.20857	0.24022	0.045388	0.23021	0.022529	0.11027	0.10281	0.32359	0.22309	-1.9875	-2.2562	-2.6125	-2.4437	-2.5312	-2.4646	-2.325	-2.2938	-2.4062	-2.1958	-2.5438	-2.3187	-2.1604	-2.4062	-2.1083	-2.5208	-84.603	22.339	7.362	229.249	171.767	68.094	8.666	-90.070	44.832	158.578	-84.050	10.326	-111.072	71.889	190.861	157.556	0.0001374	0.00016058	4.9581e-05	166.17	6.2307e-07	6.28e-07	239.26	45.631	9.4112e-07	9.8236e-08	86.957	32.987	14.1	6.5564	1.147e-06	16.218	2.5012e-05	1.1605e-05	2.9687e-06	160.2	1.3185e-07	1.1133e-07	231.43	44.588	1.4653e-07	1.394e-07	84.141	31.843	13.662	6.3591	1.4246e-07	15.662	149.672	-25.141	-6.304	-98.693	1.914	63.882	-98.795	-93.360	7.944	24.992	-94.882	-90.962	-90.616	-86.351	47.964	-87.914	-8191	255	
9566.121	1	1	0	0	0.52255	0.25475	0.025542	0.24087	0.28421	0.056309	0.032872	0.19997	0.13705	0.19348	0.041634	0.088662	0.055156	0.34995	0.12487	0.13928	-1.8417	-2.1375	-2.6437	-2.2146	-2.3354	-2.5854	-2.3771	-2.2833	-2.4292	-2.2354	-2.4104	-2.3208	-2.1479	-2.5146	-2.4167	-2.3312	153.358	-12.407	112.563	-84.304	-32.457	51.167	210.492	234.467	-107.275	-17.578	-99.598	186.328	151.995	177.926	-0.712	-10.533	0.00014356	0.00010617	3.253e-05	164.78	9.3213e-07	1.4616e-06	236.8	45.796	7.6305e-07	8.7158e-07	86.691	32.912	13.969	6.5368	3.6519e-07	16.214	2.4152e-05	1.2197e-05	3.1288e-06	158.96	1.2881e-07	9.7178e-08	230.33	44.535	1.2413e-07	1.2386e-07	84.055	31.854	13.56	6.3489	1.301e-07	15.735	142.318	-48.485	-38.979	-99.168	26.444	40.233	-98.922	-93.953	64.697	40.258	-94.555	-90.957	-89.926	-86.119	56.065	-87.966	-8191	255	
9566.242	1	1	0	0	0.33007	0.03512	0.41339	0.095962	0.14311	0.080821	0.051951	0.26533	0.1997	0.11461	0.17676	0.068473	0.134	0.21356	0.12159	0.281	-1.9771	-2.1521	-2.4792	-2.3729	-2.1958	-2.3354	-2.325	-2.35	-2.5417	-2.3146	-2.3187	-2.5354	-2.1854	-2.5062	-2.2	-2.3583	140.514	-20.709	-72.910	-32.933	-16.907	-74.650	151.305	247.196	124.548	96.562	112.568	-79.262	-13.332	228.937	-44.833	115.871	0.00015274	0.000117	1.6149e-05	164.97	1.0422e-06	1.2386e-06	237.2	45.517	1.84e-06	1.2219e-06	85.244	31.706	13.694	6.4514	1.4922e-06	15.887	2.3609e-05	1.0185e-05	3.0215e-06	159.13	1.2486e-07	1.1363e-07	229.48	44.088	1.2641e-07	1.3398e-07	82.606	31.059	13.373	6.2726	1.2409e-07	15.414	143.410	-47.888	27.714	-98.870	15.994	9.786	-99.249	-93.584	12.614	38.414	-94.452	-91.377	-91.969	-85.662	-13.748	-88.007	-8191	255	
9566.336	1	1	0	0	0.05845	0.18194	0.056658	0.090431	0.060463	0.13988	0.11974	0.21553	0.099486	0.13552	0.24936	0.36895	0.1234	0.21225	0.17805	0.30172	-1.8312	-2.0875	-2.5812	-2.4292	-2.3354	-2.675	-2.2687	-2.4042	-2.7188	-2.1562	-2.5042	-2.5062	-2.2396	-2.4917	-2.4562	-2.4938	87.582	237.486	188.572	230.704	-70.869	236.722	33.288	173.666	187.431	83.927	170.487	95.646	-65.695	-56.543	-29.780	164.610	0.00011559	9.9468e-05	3.5607e-05	162.34	7.5228e-07	9.6838e-07	234.06	44.223	8.3428e-07	1.1905e-06	83.403	31.493	13.422	6.3948	1.4023e-06	15.61	2.3758e-05	1.1077e-05	2.996e-06	156.83	1.2705e-07	1.0537e-07	224.99	43.135	1.1397e-07	1.2343e-07	80.536	30.652	13.117	6.191	1.2691e-07	15.24	143.253	-78.090	-49.884	-99.145	-8.066	0.902	-98.894	-93.904	-4.744	72.774	-95.010	-91.063	-90.757	-86.211	4.589	-87.812	-8191	255	
9566.433	1	1	0	0	0.17815	0.20301	0.061178	0.042379	0.055603	0.06526	0.12888	0.2469	0.15385	0.10111	0.060667	0.36524	0.24202	0.073783	0.13395	0.074377	-2.2104	-2.3688	-2.2667	-2.5229	-2.2229	-2.5875	-2.2438	-2.3583	-2.5938	-2.1375	-2.4979	-2.4583	-2.3833	-2.4188	-2.3083	-2.325	40.079	70.216	62.671	101.389	-21.412	-86.543	126.338	125.772	55.148	-31.814	110.396	-31.876	-62.331	31.604	23.323	-64.948	0.00014414	0.00012194	3.8457e-05	163.96	1.0846e-06	1.4691e-06	234.56	44.52	7.3636e-07	1.434e-06	84.091	32.1	13.941	6.4903	1.0292e-06	15.764	2.3704e-05	1.195e-05	2.9742e-06	157.51	1.3608e-07	9.8615e-08	225.55	43.419	1.2534e-07	1.2451e-07	81.545	31.08	13.331	6.2649	1.2836e-07	15.384	152.122	-3.627	-24.964	-98.906	51.419	16.333	-98.886	-93.985	-5.500	35.848	-95.224	-91.285	-90.861	-86.430	2.338	-88.170	-8191	255	
9566.529	1	1	0	0	0.1113	0.18098	0.16187	0.18912	0.38359	0.1974	0.17795	0.1861	0.066592	0.12088	0.056282	0.21367	0.11228	0.12104	0.3215	0.24262	-2.1042	-2.1271	-2.3917	-2.65	-2.3396	-2.4729	-2.4375	-2.2812	-2.5667	-2.4542	-2.4146	-2.6667	-2.2271	-2.5812	-2.65	-2.0583	73.585	247.489	98.598	112.369	145.507	68.256	138.462	-67.499	52.832	-108.738	106.557	-33.324	13.399	198.209	112.534	226.565	0.00012495	0.00015395	3.7597e-05	162.34	6.9098e-07	1.1479e-06	234.87	45.142	1.1095e-06	1.2478e-06	85.249	32.229	13.763	6.3493	1.2531e-06	15.92	2.337e-05	1.01e-05	2.6758e-06	156.63	1.3368e-07	9.883e-08	227.26	43.726	1.2186e-07	1.1367e-07	82.529	31.263	13.351	6.238	1.3429e-07	15.492	145.928	-20.446	22.415	-99.167	63.846	28.394	-99.092	-93.811	5.342	33.230	-95.096	-90.698	-90.371	-86.167	53.807	-87.944	-8191	255	
9566.625	1	1	0	0	0.19364	0.022372	0.23052	0.16559	0.15418	0.11892	0.40373	0.022142	0.016785	0.098689	0.18638	0.13009	0.062158	0.13264	0.14913	0.10969	-2.1083	-2.3375	-2.3688	-2.55	-2.2229	-2.4792	-2.3521	-2.3	-2.6333	-2.3604	-2.5187	-2.65	-2.325	-2.5187	-2.5771	-2.3625	-17.194	57.364	-86.489	132.993	-73.024	-83.769	22.343	13.002	13.593	230.257	222.771	-36.380	63.845	173.682	228.156	-88.881	0.00013572	0.00014188	4.0441e-05	162.72	7.2476e-07	1.4648e-06	235.95	44.704	1.1055e-06	1.5968e-06	85.173	32.042	13.884	6.3615	1.038e-06	15.744	2.3471e-05	1.0517e-05	2.9232e-06	157.27	1.2627e-07	1.0515e-07	227.73	43.467	1.2954e-07	1.0298e-07	82.173	31.137	13.348	6.2209	1.1477e-07	15.307	148.364	-73.155	9.802	-98.745	30.632	67.191	-99.325	-93.651	24.260	27.255	-94.458	-90.985	-90.524	-85.989	-25.213	-88.190	-8191	255	
9566.721	1	1	0	0	0.37005	0.14924	0.14413	0.1569	0.16988	0.060763	0.14268	0.13086	0.22369	0.11686	0.14925	0.19442	0.15139	0.11164	0.13224	0.23145	-2.2479	-2.2521	-2.3167	-2.4875	-2.2104	-2.3438	-2.4938	-2.4583	-2.4271	-2.5458	-2.1437	-2.7271	-2.2438	-2.2458	-2.7687	-2.2833	3.750	170.186	152.032	-14.656	-67.982	111.081	151.377	-13.660	-86.172	11.402	-62.465	202.345	179.516	-38.089	39.254	133.475	0.00011162	0.00010132	3.1133e-05	163.55	6.7294e-07	1.9376e-06	232.09	44.787	1.1507e-06	2.856e-07	83.544	31.886	13.748	6.3876	8.6098e-07	15.779	2.2456e-05	1.0856e-05	2.6504e-06	157.78	1.3552e-07	1.081e-07	225.12	43.383	1.289e-07	1.1006e-07	80.983	30.837	13.253	6.1997	1.1043e-07	15.269	147.862	-51.473	-20.481	-99.108	-14.298	-2.441	-99.171	-94.174	10.262	64.170	-94.128	-90.988	-90.681	-86.160	41.130	-88.326	-8191	255	
9566.817	1	1	0	0	0.36098	0.27074	0.24095	0.11787	0.19508	0.23981	0.17563	0.28739	0.11524	0.16224	0.17067	0.25367	0.037227	0.022676	0.25884	0.063905	-1.9771	-2.55	-2.2354	-2.4708	-2.3396	-2.3292	-2.5646	-2.2833	-2.3646	-2.5833	-2.3083	-2.6646	-2.3438	-2.3104	-2.6208	-2.4125	57.775	201.289	226.167	-58.652	112.050	89.106	163.991	202.054	158.942	-33.347	-99.715	60.790	49.691	56.216	237.770	91.529	0.00014693	0.00014227	2.5731e-05	164.2	1.2512e-06	1.2705e-06	231.98	44.399	6.4783e-07	1.1659e-06	83.614	31.785	13.706	6.4476	6.0258e-07	15.744	2.3387e-05	9.7683e-06	2.9942e-06	157.65	1.3255e-07	1.119e-07	225.36	43.273	1.3665e-07	1.1085e-07	81.404	30.883	13.304	6.2485	1.1932e-07	15.315	147.855	-34.848	43.958	-99.029	13.028	15.383	-98.799	-93.974	-35.225	25.448	-94.853	-90.906	-90.539	-85.939	16.852	-88.111	-8191	255	
9566.913	1	1	0	0	0.054768	0.074181	0.16239	0.15882	0.16757	0.20612	0.17097	0.14384	0.25692	0.16254	0.10814	0.21584	0.24817	0.12966	0.29858	0.10551	-1.9	-2.475	-2.1917	-2.6958	-2.4062	-2.3563	-2.5812	-2.3083	-2.3167	-2.5833	-2.2979	-2.625	-2.4333	-2.3333	-2.4042	-2.2875	-92.882	76.653	111.931	-14.652	182.126	72.078	-109.294	80.859	204.886	144.194	75.649	156.662	-81.794	119.354	110.693	47.750	0.00012806	0.00014972	5.6155e-05	162.43	1.0079e-06	6.0474e-07	232.91	44.42	4.0778e-07	1.2904e-06	84.489	32.054	13.742	6.3256	9.7289e-07	15.875	2.3519e-05	9.9637e-06	3.2325e-06	156.41	1.1668e-07	1.16e-07	225.54	43.088	1.3011e-07	1.1143e-07	81.478	30.903	13.225	6.1773	1.152e-07	15.368	146.031	-77.189	-11.671	-98.686	32.547	27.979	-99.044	-93.597	35.678	39.383	-95.509	-91.250	-90.838	-85.658	-36.453	-88.285	-8191	255	
9567.034	1	1	0	0	0.14311	0.1437	0.30774	0.090207	0.16908	0.12722	0.23622	0.17006	0.094811	0.3295	0.15706	0.12135	0.19002	0.174	0.34107	0.20524	-2.125	-2.5958	-2.1562	-2.6562	-2.425	-2.2875	-2.6396	-2.3083	-2.4396	-2.525	-2.375	-2.3917	-2.35	-2.25	-2.6333	-2.3896	103.354	-83.320	77.894	224.161	63.463	106.355	-9.034	-79.435	103.303	153.072	-42.560	188.501	198.393	47.478	23.912	186.928	0.00012681	0.00015336	4.1819e-05	161.94	7.2597e-07	6.9761e-07	231.25	44.631	1.0917e-06	8.7002e-07	83.737	31.256	13.688	6.3351	1.3645e-06	15.56	2.5729e-05	1.0029e-05	3.1033e-06	156.17	1.2712e-07	1.1636e-07	225.89	43.233	1.4944e-07	1.0319e-07	81.074	30.51	13.147	6.137	1.2807e-07	15.121	150.904	-18.499	-55.406	-98.736	55.055	-9.912	-99.072	-93.106	51.678	79.810	-94.998	-91.499	-91.075	-85.947	25.611	-87.743	-8191	255	
9567.128	1	1	0	0	0.23732	0.18899	0.17623	0.22019	0.12671	0.14563	0.17388	0.29087	0.27218	0.27146	0.20224	0.2531	0.17005	0.15197	0.14853	0.095987	-1.8833	-2.65	-2.1562	-2.575	-2.6625	-2.2042	-2.5312	-2.1875	-2.2938	-2.4875	-2.2833	-2.5979	-2.4938	-2.3146	-2.4708	-2.5354	209.957	103.504	76.598	-108.200	-90.659	222.377	215.771	65.877	191.387	239.991	92.283	-27.563	40.118	-52.161	92.527	89.457	0.00012679	8.8291e-05	2.9119e-05	160.82	8.4087e-07	4.5377e-07	230.64	44.707	8.8528e-07	1.0646e-06	84.225	31.62	13.531	6.3654	6.3904e-07	15.767	2.337e-05	1.07e-05	3.3143e-06	155.72	1.2705e-07	1.1916e-07	223.97	43.152	1.5314e-07	1.1772e-07	80.793	30.738	13.116	6.1607	1.2084e-07	15.255	150.296	-28.165	-6.020	-99.011	40.508	51.149	-99.168	-93.771	-6.659	32.136	-94.299	-90.566	-90.949	-86.194	88.576	-88.549	-8191	255	
9567.226	1	1	0	0	0.063269	0.16675	0.05331	0.29535	0.064175	0.042138	0.23432	0.15146	0.098699	0.23951	0.040748	0.17427	0.18335	0.28861	0.16076	0.17387	-1.8417	-2.4521	-2.1979	-2.4854	-2.5167	-2.375	-2.4333	-2.2375	-2.3812	-2.4833	-2.2396	-2.3833	-2.4396	-2.1917	-2.6229	-2.4437	35.607	47.772	196.200	131.743	-54.677	-54.813	-9.653	187.771	241.440	134.910	169.912	51.120	-109.077	240.111	31.648	248.032	0.00013385	8.5527e-05	3.0709e-05	162.73	4.5138e-07	1.6745e-06	230.39	44.426	1.1341e-06	1.1134e-06	83.306	31.616	13.705	6.3437	1.2279e-06	15.562	2.4511e-05	9.6576e-06	3.2161e-06	156.13	1.1668e-07	1.2778e-07	223.16	43.099	1.3615e-07	1.0818e-07	80.944	30.683	13.163	6.1651	1.2691e-07	15.219	148.901	-53.607	7.268	-98.973	4.147	24.740	-98.992	-93.398	-45.264	3.817	-94.814	-91.292	-89.562	-86.335	24.659	-88.114	-8191	255	
9567.322	1	1	0	0	0.17293	0.039095	0.1699	0.18737	0.25824	0.1772	0.024484	0.051935	0.14731	0.22263	0.15336	0.14491	0.066028	0.2446	0.15947	0.22859	-1.9771	-2.4792	-2.3	-2.2271	-2.5979	-2.3292	-2.5125	-2.4208	-2.2792	-2.5896	-2.3271	-2.3167	-2.4813	-2.1583	-2.3646	-2.3854	167.824	208.759	-93.561	-98.274	55.289	-89.287	137.795	-15.526	178.027	65.506	-53.051	-62.191	169.461	198.486	236.098	189.657	0.00014271	9.7708e-05	3.4395e-05	162.47	4.4661e-07	1.8912e-06	231.81	44.729	7.1913e-07	1.6032e-06	84.899	31.983	13.468	6.3754	3.0105e-07	15.761	2.5592e-05	1.0185e-05	3.2634e-06	156.42	1.1315e-07	1.2059e-07	224.3	43.179	1.488e-07	1.2104e-07	81.71	30.815	13.174	6.1697	1.3205e-07	15.243	147.427	-47.923	-53.796	-99.005	45.538	19.473	-99.190	-94.651	24.808	15.807	-94.488	-90.701	-89.843	-85.812	17.932	-88.065	-8191	255	
9567.417	1	1	0	0	0.17624	0.19231	0.055428	0.060173	0.067064	0.22536	0.24184	0.13983	0.20207	0.22216	0.15505	0.082051	0.14978	0.22967	0.12871	0.20214	-1.7917	-2.4375	-2.1188	-2.1854	-2.4562	-2.2958	-2.3896	-2.5625	-2.1562	-2.5062	-2.25	-2.2729	-2.375	-2.2521	-2.3917	-2.5812	-81.344	67.075	-73.771	247.256	109.926	201.500	-87.567	-78.762	-11.276	105.928	116.651	148.079	-54.282	176.529	231.412	211.256	0.00012081	6.6017e-05	3.5473e-05	162.18	1.4827e-06	4.4078e-07	229.49	44.081	4.0283e-07	1.0582e-06	82.524	31.295	13.389	6.3409	8.3692e-07	15.568	2.3752e-05	1.1969e-05	3.4508e-06	156.55	1.1901e-07	1.1528e-07	224.34	42.908	1.4141e-07	1.1288e-07	80.22	30.432	13.036	6.1181	1.3198e-07	15.038	143.580	-23.029	-0.175	-99.114	31.183	-23.105	-98.789	-93.253	-72.320	44.919	-94.483	-91.005	-90.286	-85.738	-5.183	-88.133	-8191	255	
9567.513	1	1	0	0	0.23045	0.023541	0.21312	0.1451	0.14993	0.24669	0.11806	0.11466	0.35907	0.076885	0.23972	0.094471	0.19323	0.17518	0.0937	0.14747	-1.825	-2.3896	-2.2083	-2.3	-2.6437	-2.2083	-2.3812	-2.3896	-2.3271	-2.4938	-2.425	-2.2875	-2.5542	-2.2229	-2.4333	-2.4625	-79.700	19.945	199.466	226.959	-56.244	-38.792	181.929	156.942	-24.770	247.422	126.509	-81.894	-47.699	200.928	68.535	155.575	0.0001328	0.00013157	2.0755e-05	160.22	8.9948e-07	1.1657e-06	229.48	44.305	8.1228e-07	1.5258e-06	82.829	31.209	13.499	6.2679	5.9994e-07	15.517	2.4839e-05	1.0022e-05	3.0142e-06	155.23	1.3439e-07	1.2138e-07	222.46	42.971	1.5207e-07	1.1143e-07	80.3	30.261	13.012	6.0867	1.3964e-07	15.037	136.058	-63.809	-20.708	-98.844	34.331	24.420	-98.976	-94.109	54.422	15.784	-94.847	-90.800	-90.863	-86.695	26.927	-88.468	-8191	255	
9567.634	1	1	0	0	0.037103	0.096833	0.29369	0.22316	0.23876	0.13346	0.1501	0.23631	0.087867	0.3418	0.14321	0.14371	0.19238	0.096226	0.14851	0.1444	-1.725	-2.3812	-2.425	-2.1958	-2.6458	-2.4562	-2.2333	-2.3937	-2.2292	-2.2667	-2.4104	-2.3979	-2.3875	-2.2083	-2.3458	-2.5375	101.404	220.443	-95.070	-91.399	-60.887	14.192	22.476	-84.929	216.730	0.017	203.552	160.690	125.690	222.210	109.453	207.071	0.00013175	0.00014785	6.2836e-05	160.77	1.487e-06	6.5359e-07	231.09	44.266	2.2942e-06	8.6376e-07	83.588	31.27	13.577	6.305	1.6586e-06	15.642	2.4493e-05	1.2178e-05	2.9087e-06	155.2	1.1844e-07	1.2857e-07	223.72	42.88	1.5435e-07	1.2061e-07	80.575	30.609	13.131	6.1701	1.2945e-07	15.161	149.264	-39.538	-38.904	-98.961	-1.806	29.571	-98.661	-94.241	33.537	50.837	-95.071	-91.085	-90.021	-86.335	13.471	-87.774	-8191	255	
9567.730	1	1	0	0	0.16314	0.25669	0.075534	0.25313	0.019045	0.05607	0.18336	0.10891	0.24857	0.14246	0.21004	0.051218	0.079358	0.037888	0.11623	0.10844	-1.8979	-2.4104	-2.3	-2.4521	-2.6604	-2.4604	-2.2896	-2.5458	-2.3083	-2.3583	-2.5083	-2.2562	-2.3667	-2.4062	-2.0917	-2.5062	224.417	101.561	-30.983	-110.640	10.986	-49.457	150.776	-31.119	167.942	133.060	107.728	200.284	120.221	-109.574	-104.286	213.098	0.00012446	0.00012611	1.2296e-05	162.54	7.9909e-07	8.139e-07	232.57	44.574	6.2603e-07	1.3054e-06	84.657	31.493	13.614	6.382	9.5812e-07	15.64	2.4057e-05	1.1755e-05	3.0087e-06	156.2	1.3869e-07	1.221e-07	225.8	43.186	1.3266e-07	1.1577e-07	81.327	30.802	13.145	6.1838	1.2597e-07	15.257	148.473	-49.272	18.798	-99.235	51.729	15.737	-98.852	-93.898	-31.168	16.557	-94.515	-90.694	-90.713	-86.175	46.220	-87.691	-8191	255	
9567.826	1	1	0	0	0.22374	0.04494	0.067109	0.41857	0.30175	0.15831	0.13059	0.15359	0.26448	0.11784	0.097078	0.082546	0.12282	0.19825	0.039169	0.093591	-1.8458	-2.1417	-2.375	-2.1188	-2.5479	-2.2979	-2.3063	-2.5896	-2.35	-2.3146	-2.4708	-2.0958	-2.4125	-2.4458	-2.1917	-2.5479	35.364	129.483	149.215	-51.661	-57.672	57.618	-69.001	146.105	131.079	-71.040	66.355	33.822	-11.203	69.511	23.918	11.470	0.00015667	0.00015463	3.7244e-05	161.77	8.8459e-07	1.6558e-06	232.14	44.292	6.6821e-07	9.5294e-07	83.455	31.438	13.464	6.2866	1.3022e-06	15.59	2.4224e-05	1.1755e-05	2.9269e-06	156.55	1.3509e-07	1.0766e-07	225.29	43.081	1.3003e-07	1.3918e-07	80.712	30.582	13.037	6.1291	1.301e-07	15.094	150.300	-47.712	3.905	-99.043	26.267	33.208	-98.951	-93.266	-16.930	18.408	-94.702	-91.152	-90.283	-86.444	33.128	-87.823	-8191	255	
9567.922	1	1	0	0	0.30881	0.18477	0.080222	0.11305	0.0562	0.17779	0.017484	0.042135	0.030049	0.056703	0.079106	0.15247	0.27306	0.29302	0.25622	0.02122	-1.975	-2.2417	-2.5104	-2.3042	-2.5771	-2.5125	-2.2188	-2.3937	-2.6083	-2.3563	-2.4729	-2.2562	-2.2438	-2.4958	-2.3396	-2.5896	14.455	228.149	181.324	-52.330	23.686	111.241	-73.565	211.291	123.114	-75.482	-97.681	-10.140	-67.577	-100.385	139.542	232.362	0.00013119	0.00012679	4.9414e-05	160.56	1.6735e-06	1.2954e-06	230.34	44.158	8.2015e-07	1.0625e-06	83.044	31.2	13.242	6.2909	7.8374e-07	15.536	2.4481e-05	1.2582e-05	2.9232e-06	155.5	1.3904e-07	1.1262e-07	223.16	42.889	1.4255e-07	1.1996e-07	80.362	30.408	13.043	6.1368	1.4181e-07	15.102	147.819	-43.540	-21.582	-99.093	25.609	30.944	-99.100	-94.353	-42.272	20.579	-95.022	-91.300	-90.159	-86.107	-48.980	-88.187	-8191	255	
9568.018	1	1	0	0	0.10504	0.13514	0.17854	0.19026	0.10417	0.11474	0.11732	0.16534	0.13392	0.20737	0.20601	0.15545	0.1526	0.24629	0.22467	0.13785	-1.9562	-2.1208	-2.525	-2.2833	-2.3187	-2.6104	-2.1958	-2.5271	-2.2125	-2.0438	-2.6604	-2.2021	-2.3333	-2.5375	-2.1979	-2.4208	111.591	62.806	73.784	214.307	168.529	172.928	105.843	188.841	35.931	-105.637	74.017	143.883	71.703	30.447	233.263	181.792	0.00015356	8.9265e-05	3.403e-05	161.87	5.8544e-07	1.0352e-06	231.53	43.993	1.0849e-06	1.0757e-06	83.252	30.994	13.489	6.3302	1.416e-06	15.715	2.411e-05	1.1266e-05	2.8614e-06	155.51	1.2127e-07	1.1952e-07	223.64	42.715	1.3579e-07	1.2993e-07	80.482	30.367	13.105	6.1315	1.4326e-07	15.133	148.259	6.882	3.011	-99.300	56.277	66.353	-99.001	-94.127	-23.332	39.697	-94.198	-91.144	-90.588	-86.076	30.084	-88.420	-8191	255	
9568.114	1	1	0	0	0.2452	0.02979	0.076026	0.11156	0.10887	0.090979	0.19715	0.040398	0.24132	0.027128	0.31253	0.22952	0.16767	0.34488	0.098555	0.080507	-1.8042	-2.3187	-2.6437	-2.3708	-2.3021	-2.6042	-2.1771	-2.5333	-2.4125	-2.2438	-2.7167	-2.3833	-2.3417	-2.6271	-2.1708	-2.3396	-104.191	156.059	235.050	-36.481	-5.592	23.227	-76.509	-111.039	-44.923	199.912	180.832	-7.836	23.938	-108.502	30.268	234.283	0.00011831	6.6265e-05	2.861e-05	160.75	4.0969e-07	1.2818e-06	230.5	43.814	1.457e-06	7.0715e-07	82.767	31.338	13.411	6.3028	6.9423e-07	15.568	2.3716e-05	1.3142e-05	3.2798e-06	155.33	1.4201e-07	1.1442e-07	223.51	42.644	1.3935e-07	1.355e-07	80.199	30.409	13.03	6.1196	1.5049e-07	15.147	145.824	-53.200	-46.321	-98.923	-8.978	4.304	-98.995	-93.898	-4.931	44.357	-95.205	-91.268	-90.388	-86.005	65.936	-88.133	-8191	255	
9568.209	1	1	0	0	0.16407	0.29692	0.24653	0.2798	0.20501	0.20404	0.081307	0.11458	0.21305	0.12388	0.079132	0.16502	0.20781	0.02871	0.16209	0.15388	-1.9479	-2.1813	-2.4333	-2.3375	-2.4271	-2.5146	-2.1771	-2.3396	-2.5729	-2.2812	-2.5625	-2.2667	-2.2812	-2.675	-2.2083	-2.3729	45.897	-53.977	111.864	-72.987	187.725	43.652	28.345	-36.224	130.972	82.874	-103.719	-84.632	245.110	50.266	134.626	174.744	0.00011909	0.00014045	3.0337e-05	161.16	9.8425e-07	1.584e-06	228.41	44.168	1.0278e-06	7.4033e-07	81.76	31.074	13.272	6.2587	1.0648e-06	15.362	2.328e-05	1.3786e-05	2.9469e-06	155.95	1.4582e-07	1.2382e-07	222.52	42.643	1.4176e-07	1.3535e-07	79.599	30.21	12.955	6.0964	1.3863e-07	14.943	147.888	-61.594	-42.478	-98.660	28.688	48.143	-98.664	-93.693	48.804	80.637	-94.921	-91.118	-90.741	-85.961	31.704	-88.319	-8191	255	
9568.329	1	1	0	0	0.067812	0.28432	0.10407	0.10491	0.1904	0.081045	0.13235	0.055124	0.13183	0.13956	0.14574	0.13609	0.10275	0.074709	0.10702	0.067402	-1.8542	-2.1833	-2.4375	-2.5271	-2.3792	-2.7125	-2.3375	-2.3312	-2.5625	-2.2833	-2.5854	-2.2938	-2.325	-2.6458	-2.5625	-2.3	-43.164	105.930	105.690	146.064	54.303	-32.806	167.239	185.965	29.833	168.643	178.276	94.192	-2.028	-59.670	20.853	28.266	0.00013424	8.4876e-05	3.6393e-05	160.21	1.6558e-06	5.5379e-07	228.79	44.347	1.3035e-06	1.1161e-06	83.565	31.26	13.38	6.2582	2.4793e-07	15.463	2.3985e-05	1.1351e-05	3.0069e-06	155.08	1.4716e-07	1.2031e-07	222.27	42.774	1.279e-07	1.3102e-07	80.285	30.445	13.028	6.1173	1.3154e-07	15.1	147.246	-28.475	-10.271	-98.655	4.948	43.319	-98.908	-94.204	-13.500	42.297	-94.990	-90.776	-90.570	-85.263	3.792	-87.711	-8191	255	
#DATA ENDS
