BOXY.EXE: ISS Imagent and Oximeter Data Acquisition Program Version 0.80
Ascii Record File

#ACQ INFORMATION
2  Detector Channels 
16  External MUX Channels 
1  Auxiliary Channels 
5000  Waveform (CCF) Frequency (Hz)
1  Waveforms Skipped 
30  Waveforms Averaged 
1  Cycles Averaged 
16  Acquisitions per Waveform 
10.0806  Updata Rate (Hz) 

#FILE INFORMATION
TRUE -- External MUX Channel results are PARSED.
FALSE -- AC DC and Phase are NOT grouped.
TRUE -- Companion Program Settings File CREATED.
FALSE -- AC data not excluded
FALSE -- DC data not excluded
FALSE -- Phase data not excluded
FALSE -- Auxillary Chn. data not excluded
Tab delimiters

#CALIBRATION STATE
TRUE -- Waveform Calibration Values APPLIED.


#AUX CALIBRATION VALUES
Val Type	aux-1	

Term	1.0000e+00	
Factor	0.0000e+00	


#WF CALIBRATION VALUES
A = Detector Channel
Val Type	A-AC1	A-AC2	A-AC3	A-AC4	A-AC5	A-AC6	A-AC7	A-AC8	A-AC9	A-AC10	A-AC11	A-AC12	A-AC13	A-AC14	A-AC15	A-AC16	A-DC1	A-DC2	A-DC3	A-DC4	A-DC5	A-DC6	A-DC7	A-DC8	A-DC9	A-DC10	A-DC11	A-DC12	A-DC13	A-DC14	A-DC15	A-DC16	A-Ph1	A-Ph2	A-Ph3	A-Ph4	A-Ph5	A-Ph6	A-Ph7	A-Ph8	A-Ph9	A-Ph10	A-Ph11	A-Ph12	A-Ph13	A-Ph14	A-Ph15	A-Ph16	

Term	0.00000e+00	0.00000e+00	0.00000e+00	0.00000e+00	0.00000e+00	0.00000e+00	0.00000e+00	0.00000e+00	0.00000e+00	0.00000e+00	0.00000e+00	0.00000e+00	0.00000e+00	0.00000e+00	0.00000e+00	0.00000e+00	0.00000e+00	0.00000e+00	0.00000e+00	0.00000e+00	0.00000e+00	0.00000e+00	0.00000e+00	0.00000e+00	0.00000e+00	0.00000e+00	0.00000e+00	0.00000e+00	0.00000e+00	0.00000e+00	0.00000e+00	0.00000e+00	0.00000e+00	0.00000e+00	0.00000e+00	0.00000e+00	0.00000e+00	0.00000e+00	0.00000e+00	0.00000e+00	0.00000e+00	0.00000e+00	0.00000e+00	0.00000e+00	0.00000e+00	0.00000e+00	0.00000e+00	0.00000e+00	
Factor	1.00000e+00	1.00000e+00	1.00000e+00	1.00000e+00	1.00000e+00	1.00000e+00	1.00000e+00	1.00000e+00	1.00000e+00	1.00000e+00	1.00000e+00	1.00000e+00	1.00000e+00	1.00000e+00	1.00000e+00	1.00000e+00	1.00000e+00	1.00000e+00	1.00000e+00	1.00000e+00	1.00000e+00	1.00000e+00	1.00000e+00	1.00000e+00	1.00000e+00	1.00000e+00	1.00000e+00	1.00000e+00	1.00000e+00	1.00000e+00	1.00000e+00	1.00000e+00	X	X	X	X	X	X	X	X	X	X	X	X	X	X	X	X	

B = Detector Channel
Val Type	B-AC1	B-AC2	B-AC3	B-AC4	B-AC5	B-AC6	B-AC7	B-AC8	B-AC9	B-AC10	B-AC11	B-AC12	B-AC13	B-AC14	B-AC15	B-AC16	B-DC1	B-DC2	B-DC3	B-DC4	B-DC5	B-DC6	B-DC7	B-DC8	B-DC9	B-DC10	B-DC11	B-DC12	B-DC13	B-DC14	B-DC15	B-DC16	B-Ph1	B-Ph2	B-Ph3	B-Ph4	B-Ph5	B-Ph6	B-Ph7	B-Ph8	B-Ph9	B-Ph10	B-Ph11	B-Ph12	B-Ph13	B-Ph14	B-Ph15	B-Ph16	

Term	0.00000e+00	0.00000e+00	0.00000e+00	0.00000e+00	0.00000e+00	0.00000e+00	0.00000e+00	0.00000e+00	0.00000e+00	0.00000e+00	0.00000e+00	0.00000e+00	0.00000e+00	0.00000e+00	0.00000e+00	0.00000e+00	0.00000e+00	0.00000e+00	0.00000e+00	0.00000e+00	0.00000e+00	0.00000e+00	0.00000e+00	0.00000e+00	0.00000e+00	0.00000e+00	0.00000e+00	0.00000e+00	0.00000e+00	0.00000e+00	0.00000e+00	0.00000e+00	-2.20805e+02	-1.58432e+02	-1.28317e+02	-1.80753e+02	-8.50155e+01	-7.84763e+01	-1.56145e+02	-1.62015e+02	-7.78609e+01	-6.83434e+01	-1.73171e+02	-1.70418e+02	-1.82244e+02	-1.76319e+02	-8.62627e+01	-1.49801e+02	
Factor	5.90432e-05	8.44555e-05	2.04788e-05	1.88739e-01	9.62247e-07	7.11511e-07	1.94870e-01	5.68308e-02	7.56720e-07	7.26385e-07	1.16512e-01	3.27289e-02	3.90568e-02	1.04309e-02	9.03606e-07	1.53230e-02	3.69747e-07	3.71787e-07	1.03631e-07	8.24618e-02	4.08036e-09	4.07079e-09	8.00826e-02	2.46659e-02	4.08189e-09	4.07076e-09	4.57802e-02	1.31950e-02	1.54833e-02	4.31566e-03	4.09643e-09	6.01000e-03	X	X	X	X	X	X	X	X	X	X	X	X	X	X	X	X	



#DISTANCE SETTINGS
A = Detector Channel
A-1	A-2	A-3	A-4	A-5	A-6	A-7	A-8	A-9	A-10	A-11	A-12	A-13	A-14	A-15	A-16	

2.5000e+00	3.0000e+00	2.5000e+00	3.0000e+00	2.0000e+00	3.0000e+00	1.5000e+00	3.0000e+00	3.0000e+00	3.0000e+00	3.0000e+00	3.0000e+00	3.0000e+00	3.0000e+00	1.5000e+00	3.0000e+00	

B = Detector Channel
B-1	B-2	B-3	B-4	B-5	B-6	B-7	B-8	B-9	B-10	B-11	B-12	B-13	B-14	B-15	B-16	

1.0000e+01	1.0000e+01	1.0000e+01	1.4400e+00	1.0000e+01	1.0000e+01	1.5100e+00	1.9400e+00	1.0000e+01	1.0000e+01	1.9900e+00	2.4900e+00	2.4100e+00	2.9000e+00	1.0000e+01	2.9800e+00	




#DATA BEGINS
time	group	step	mark	flag	A-AC1	A-AC2	A-AC3	A-AC4	A-AC5	A-AC6	A-AC7	A-AC8	A-AC9	A-AC10	A-AC11	A-AC12	A-AC13	A-AC14	A-AC15	A-AC16	A-DC1	A-DC2	A-DC3	A-DC4	A-DC5	A-DC6	A-DC7	A-DC8	A-DC9	A-DC10	A-DC11	A-DC12	A-DC13	A-DC14	A-DC15	A-DC16	A-Ph1	A-Ph2	A-Ph3	A-Ph4	A-Ph5	A-Ph6	A-Ph7	A-Ph8	A-Ph9	A-Ph10	A-Ph11	A-Ph12	A-Ph13	A-Ph14	A-Ph15	A-Ph16	B-AC1	B-AC2	B-AC3	B-AC4	B-AC5	B-AC6	B-AC7	B-AC8	B-AC9	B-AC10	B-AC11	B-AC12	B-AC13	B-AC14	B-AC15	B-AC16	B-DC1	B-DC2	B-DC3	B-DC4	B-DC5	B-DC6	B-DC7	B-DC8	B-DC9	B-DC10	B-DC11	B-DC12	B-DC13	B-DC14	B-DC15	B-DC16	B-Ph1	B-Ph2	B-Ph3	B-Ph4	B-Ph5	B-Ph6	B-Ph7	B-Ph8	B-Ph9	B-Ph10	B-Ph11	B-Ph12	B-Ph13	B-Ph14	B-Ph15	B-Ph16	aux-1	digaux	

1045.230	1	1	0	256	0.038576	0.13075	0.15139	0.09224	0.075878	0.20756	0.39797	0.12567	0.13609	0.14961	0.32712	0.051443	0.076909	0.25894	0.089778	0.16626	-2.6271	-3.0083	-3.2292	-3.1937	-3.125	-3.3229	-3.3271	-3.1167	-3.1708	-3.0417	-3.4417	-3.1354	-3.0979	-3.3604	-2.7083	-3.2542	70.172	63.077	59.902	193.005	113.189	-24.740	-121.825	151.392	-165.267	45.140	184.085	151.268	99.063	15.456	-3.196	120.214	0.00057645	0.00035606	3.0154e-05	1257.2	1.4646e-06	1.2005e-06	1323.5	263.12	2.3084e-06	1.256e-06	326.99	90.594	71.612	20.727	9.9823e-07	29.188	8.9663e-05	8.3334e-05	2.6055e-05	1144.9	9.6852e-07	9.0991e-07	1209.4	239.87	9.4277e-07	9.2036e-07	283.83	81.115	61.508	18.767	1.0662e-06	25.934	108.504	-105.038	96.291	-154.623	3.011	-128.148	-154.960	-147.746	-81.050	-48.132	-148.122	-141.914	-141.499	-134.388	7.067	-134.781	-8191	255	
1045.326	1	1	0	0	0.15588	0.12412	0.10933	0.17805	0.20886	0.19312	0.36632	0.17503	0.097264	0.30143	0.29217	0.031349	0.16212	0.072056	0.11517	0.1938	-2.6833	-2.9	-3.125	-3.2417	-3.0417	-3.3417	-3.3458	-3.1104	-3.3688	-2.9146	-3.2146	-3.3	-3.0583	-3.4479	-2.975	-3.0312	-114.715	68.785	121.686	-134.457	45.417	190.531	98.054	188.235	-14.153	69.599	134.103	-77.392	-141.344	-83.288	180.315	-163.036	0.00059108	9.9872e-05	7.9589e-05	1262.3	3.6061e-06	8.8203e-07	1330.4	264.17	8.7358e-07	1.1844e-06	326.07	91.078	71.836	20.848	1.5734e-06	28.892	8.8829e-05	8.8634e-05	2.7555e-05	1150.6	9.7618e-07	9.9722e-07	1215	240.92	9.5981e-07	1.0462e-06	284.98	81.371	61.626	18.914	1.1212e-06	25.91	122.860	-63.479	-15.022	-154.621	-59.455	120.562	-154.734	-147.684	44.826	5.127	-148.136	-142.103	-141.785	-134.341	-74.320	-134.478	-8191	255	
1045.445	1	1	0	0	0.049576	0.25893	0.20745	0.068322	0.079656	0.20596	0.19629	0.21857	0.05724	0.24297	0.064637	0.12343	0.1077	0.017305	0.11047	0.1531	-2.9437	-2.9208	-2.9458	-3.2917	-2.9	-3.2979	-3.3479	-3.1792	-3.3208	-3.0104	-3.3333	-3.3604	-3.0187	-3.2458	-3.1583	-2.9833	-29.696	-49.963	53.535	-81.372	-27.917	133.966	100.034	106.165	181.583	-9.522	-135.593	-128.463	-121.515	-50.579	178.738	106.909	0.0008203	0.00012852	7.3901e-05	1260.1	2.5943e-06	1.9189e-06	1323.1	263.59	4.0153e-06	2.1872e-06	326.37	90.902	71.518	20.862	2.5422e-06	29.043	9.1313e-05	9.9663e-05	2.8508e-05	1149.2	1.0047e-06	1.1152e-06	1213.4	240.98	1.015e-06	1.145e-06	284.95	81.716	61.902	19.108	1.1467e-06	26.027	111.726	-16.076	-109.655	-154.569	-69.899	-94.548	-154.934	-148.058	-30.096	-64.024	-148.253	-142.066	-141.686	-134.421	-65.575	-135.207	-8191	255	
1045.518	1	1	0	0	0.044597	0.11641	0.17445	0.20505	0.073709	0.13808	0.12873	0.086652	0.034	0.25949	0.069929	0.098782	0.25984	0.040867	0.098934	0.19696	-2.9979	-2.9208	-3.1708	-3.4917	-3.0771	-3.2896	-3.3937	-3.075	-3.3812	-3.1708	-3.1375	-3.3187	-3.0479	-3.1625	-3.3	-2.9833	-87.123	-118.500	-49.046	153.552	-31.677	167.184	185.512	175.847	165.439	2.061	-163.479	-124.475	-31.303	-96.922	148.132	57.314	0.00064858	0.00048748	5.7864e-05	1269.4	1.4593e-06	1.6898e-06	1336	263.97	2.996e-06	5.1342e-07	328.56	91.329	72.033	21.199	4.6651e-06	29.163	9.7035e-05	0.00010794	2.8692e-05	1154.2	1.076e-06	1.2018e-06	1221.6	242.29	1.112e-06	1.2565e-06	287.15	82.25	62.893	19.406	1.251e-06	26.386	100.317	-107.548	-63.285	-154.597	-103.803	-119.613	-154.895	-147.873	-143.479	42.655	-148.139	-141.878	-142.006	-134.229	-110.066	-134.911	-8191	255	
1045.615	1	1	0	0	0.15217	0.15008	0.10968	0.097167	0.090127	0.11575	0.28044	0.36492	0.089935	0.21995	0.14214	0.06081	0.26485	0.3018	0.15594	0.22961	-2.8604	-3.0625	-2.9	-3.4729	-3.0438	-3.2521	-3.3479	-2.9729	-3.3292	-3.0312	-3.1312	-3.4354	-2.9896	-3.1167	-3.1854	-2.9833	25.703	35.825	-5.652	-78.702	156.809	-68.509	127.839	123.445	80.831	166.994	18.088	-132.653	-143.156	-96.918	68.303	-155.705	0.00060516	0.00032616	4.6025e-05	1276.3	3.2202e-06	6.8121e-07	1342.7	266.35	1.9043e-06	3.4094e-06	331.02	91.814	72.654	21.104	1.3777e-06	29.295	0.00011654	0.0001253	3.2963e-05	1165.6	1.3312e-06	1.3983e-06	1233.2	244.67	1.3427e-06	1.3605e-06	289.63	82.741	63.752	19.453	1.2373e-06	26.434	101.875	-125.553	1.491	-154.647	-140.260	41.039	-154.983	-147.784	-124.214	-70.186	-147.852	-141.901	-141.893	-134.216	50.121	-134.954	-8191	255	
1045.733	1	1	0	0	0.10519	0.060374	0.23183	0.16136	0.076274	0.10051	0.2135	0.30404	0.18263	0.068614	0.17571	0.16234	0.17736	0.024285	0.15931	0.21709	-2.925	-3.1375	-3.0396	-3.4292	-2.9729	-3.0896	-3.3021	-3.0417	-3.3583	-3.0271	-2.9646	-3.3875	-3.0333	-3.0958	-3.2062	-2.9375	-56.084	-10.307	128.056	174.728	177.210	22.519	128.954	-124.797	-98.051	178.501	185.976	-90.627	190.449	100.978	5.747	167.625	0.00087227	0.0002539	3.4095e-05	1277.4	1.4125e-06	2.3395e-06	1339.1	267.12	3.2552e-06	1.1237e-06	330.31	91.525	72.069	21.023	3.415e-06	29.446	0.00012227	0.00011789	3.1171e-05	1165.5	1.3242e-06	1.2727e-06	1229.1	244.48	1.2902e-06	1.2375e-06	288.42	82.59	63.58	19.336	1.1724e-06	26.452	106.205	-70.973	-63.842	-154.819	-101.975	68.719	-154.872	-148.025	-79.062	-143.141	-148.105	-141.890	-141.846	-134.476	-81.532	-134.970	-8191	255	
1045.830	1	1	0	0	0.26891	0.065751	0.2831	0.19501	0.13618	0.053948	0.29981	0.19891	0.19935	0.080234	0.16457	0.10944	0.21961	0.17105	0.15081	0.15858	-2.8083	-3.1813	-2.9021	-3.4771	-3.0938	-3.2	-3.5979	-3.0167	-3.2333	-3.1167	-3.2208	-3.3021	-3.2083	-3.0521	-3.3625	-3.1042	-61.863	100.276	-97.992	97.288	168.159	-65.569	120.810	173.521	180.532	144.187	103.610	-105.270	117.249	-3.348	34.103	147.098	0.00079084	0.00029799	5.1619e-05	1275.7	2.2329e-06	4.0067e-06	1337	266.34	9.5462e-07	1.0763e-06	328.19	92.223	72.763	21.236	1.4963e-06	29.284	0.00012461	0.00011507	3.0574e-05	1163.4	1.3618e-06	1.2873e-06	1226.2	244.55	1.3715e-06	1.2566e-06	287.67	83.148	63.852	19.443	1.1664e-06	26.604	105.210	-102.074	-88.593	-154.842	-21.014	10.714	-154.830	-147.844	83.628	161.364	-148.109	-142.005	-141.973	-134.498	-156.966	-135.182	-8191	255	
1045.926	1	1	0	0	0.19605	0.23294	0.16915	0.24376	0.12856	0.16731	0.19764	0.10789	0.2535	0.10062	0.090016	0.093701	0.13172	0.24719	0.08407	0.12396	-2.8604	-3.2729	-2.9	-3.45	-3.0271	-3.1333	-3.4458	-3.2021	-3.0458	-3.2833	-2.9833	-3.2625	-3.1625	-3.1562	-3.3771	-2.9854	-131.158	-143.776	-124.541	155.203	73.084	64.582	98.635	80.931	-90.680	-68.173	173.235	138.695	-115.838	170.864	-125.265	37.552	0.00064847	0.00037448	7.2465e-05	1278	1.2957e-06	3.9762e-06	1338.8	267.7	1.744e-06	4.3597e-06	331.31	92.202	72.54	21.217	2.037e-06	29.166	0.00012332	0.00011075	2.8986e-05	1168.7	1.2892e-06	1.2009e-06	1228.5	245.65	1.2695e-06	1.176e-06	288.29	83.139	63.328	19.34	1.0822e-06	26.513	112.369	-53.070	-61.391	-154.639	-51.082	-28.807	-154.968	-147.974	20.745	-7.417	-147.800	-142.010	-141.337	-134.486	192.686	-134.773	-8191	255	
1046.046	1	1	0	0	0.22502	0.18964	0.039187	0.22925	0.040629	0.14368	0.16434	0.14874	0.22222	0.1262	0.19418	0.20822	0.042521	0.24183	0.2958	0.19548	-2.6458	-3.2354	-3.1063	-3.4354	-3.2	-3.0458	-3.7292	-3.2542	-2.975	-3.4458	-3.0271	-3.3458	-3.2917	-3.0875	-3.35	-3.2479	59.778	-106.088	-77.854	128.830	33.333	30.470	127.923	77.363	46.090	-122.241	-150.712	101.624	-93.681	-108.056	-73.386	49.384	0.00075587	0.00051183	6.4113e-05	1275.9	1.7939e-06	1.075e-06	1339.7	265.27	2.2852e-06	2.2604e-06	330.99	91.572	72.494	21.088	1.4835e-06	29.531	0.00011037	9.8998e-05	2.7052e-05	1164.6	1.1312e-06	1.0526e-06	1224.7	243.77	1.1016e-06	1.0194e-06	286.39	82.417	62.714	19.095	1.0615e-06	26.433	116.996	-81.781	-141.893	-154.608	23.931	19.112	-154.974	-147.837	0.007	1.621	-147.977	-141.861	-141.636	-134.304	-107.417	-134.944	-8191	255	
1046.143	1	1	0	0	0.15559	0.0618	0.079961	0.1221	0.12567	0.20233	0.40571	0.30693	0.15242	0.10276	0.12517	0.15149	0.14676	0.10014	0.1469	0.16957	-2.7313	-3.3354	-2.8458	-3.2479	-3.0938	-3.0021	-3.5146	-3.2687	-3.0062	-3.4167	-2.9458	-3.2	-3.2896	-2.8854	-3.2604	-3.1562	94.345	-63.744	52.276	157.482	28.094	160.988	94.522	127.887	-111.052	18.477	-116.553	7.925	-29.381	-153.397	33.904	24.475	0.00070341	7.4179e-05	2.9923e-05	1272	1.0956e-06	2.8879e-06	1338.8	266.1	2.6785e-06	1.1566e-06	328.41	91.691	72.336	21.159	2.9169e-06	29.311	0.00010245	9.2653e-05	2.8088e-05	1162.7	1.1042e-06	1.0385e-06	1225.7	244.09	1.1424e-06	1.0434e-06	288.15	82.762	62.99	19.254	1.2229e-06	26.539	113.367	100.021	-91.482	-154.610	132.070	-61.782	-154.676	-147.911	-75.722	89.351	-148.092	-141.884	-141.899	-134.377	188.485	-134.523	-8191	255	
1046.214	1	1	0	0	0.28077	0.16134	0.23474	0.21886	0.16834	0.087078	0.21715	0.22661	0.12429	0.17403	0.29562	0.32019	0.23834	0.18071	0.17204	0.087604	-2.5104	-3.1854	-2.8583	-3.2687	-3.2687	-2.9875	-3.4854	-3.2167	-2.9938	-3.275	-3.0875	-3.0917	-3.3479	-2.925	-3.3021	-3.2042	46.766	-60.443	72.678	159.299	45.240	126.371	168.318	127.125	-128.929	-128.961	148.380	186.560	176.360	178.943	175.654	116.634	0.00070577	0.00013961	3.3174e-05	1275.5	1.1924e-06	1.0567e-06	1341.2	265.17	2.1004e-06	1.8308e-06	330.23	91.632	72.341	21.081	1.32e-06	29.314	0.00011048	0.00010058	3.2321e-05	1166.5	1.1796e-06	1.1092e-06	1229.5	244.03	1.1629e-06	1.1037e-06	289.09	82.839	62.914	19.227	1.2589e-06	26.421	104.802	-136.267	-157.992	-154.566	111.678	-39.764	-154.906	-148.012	-48.280	-100.031	-148.185	-141.922	-141.759	-134.545	124.959	-134.825	-8191	255	
1046.335	1	1	0	0	0.20084	0.044287	0.21553	0.15098	0.33072	0.1543	0.16053	0.19167	0.30649	0.17684	0.17155	0.24175	0.053897	0.21508	0.16813	0.31796	-2.575	-3.3521	-2.9542	-3.2083	-3.1896	-2.9271	-3.3438	-3.4292	-2.85	-3.4729	-3.1958	-3.0812	-3.0833	-2.9646	-3.1	-3.4125	90.382	193.793	48.681	-26.457	58.732	-64.992	143.871	90.125	131.811	89.809	117.719	-162.166	53.723	191.676	-101.433	-46.559	0.00080113	0.00017226	7.6309e-05	1272.1	1.9949e-06	1.0393e-06	1338.3	265.03	5.9924e-07	1.7183e-06	328.15	91.331	71.783	20.979	2.3295e-06	29.143	0.00010495	0.00010142	3.1557e-05	1160.6	1.0798e-06	1.1123e-06	1224.9	242.77	1.0589e-06	1.0988e-06	286.77	82.098	62.095	19.106	1.1685e-06	26.118	109.058	-15.338	-45.713	-154.386	-3.108	-99.704	-154.890	-147.928	-38.766	-50.151	-147.915	-141.810	-141.619	-134.037	-27.614	-134.532	-8191	255	
1046.431	1	1	0	0	0.13578	0.35779	0.024364	0.23637	0.20363	0.043964	0.14978	0.1878	0.059791	0.24577	0.05267	0.11731	0.13426	0.20192	0.1677	0.22999	-2.7104	-3.2438	-3.1771	-3.2375	-3.4333	-2.8833	-3.2958	-3.4313	-2.7354	-3.2083	-3.25	-2.9104	-3.4104	-3.2438	-3.0208	-3.3896	-58.786	-53.385	-161.550	110.461	62.944	74.572	-17.229	167.094	178.282	-49.932	161.172	37.197	-24.524	-54.547	-158.393	109.198	0.00099469	0.00018051	0.00010141	1260.3	3.2442e-06	2.2803e-06	1324.6	263.1	1.2603e-06	1.3783e-06	325.56	90.401	70.545	20.636	4.9795e-07	28.813	9.3558e-05	9.8021e-05	2.8203e-05	1148.9	9.4486e-07	1.0628e-06	1209.8	239.42	9.1304e-07	1.0083e-06	281.83	80.57	60.541	18.728	9.6668e-07	25.514	104.106	8.674	-29.300	-154.626	-42.454	-107.803	-154.724	-147.735	-81.532	-52.607	-147.881	-141.882	-141.914	-134.100	158.455	-134.709	-8191	255	
1046.525	1	1	0	0	0.090574	0.056353	0.11495	0.19441	0.10373	0.20816	0.17041	0.15978	0.1548	0.13531	0.2436	0.19119	0.19106	0.05531	0.04179	0.080763	-2.5354	-3.0938	-3.1	-3.1958	-3.3292	-3.0521	-3.2188	-3.3042	-2.9167	-3.325	-3.2687	-2.9188	-3.45	-2.9604	-3.1292	-3.2562	4.533	145.235	52.521	177.706	-24.224	175.826	147.934	177.501	80.371	-12.550	161.468	-101.674	-86.690	-116.381	188.889	-160.066	0.00069284	0.00015231	5.6586e-05	1241.3	2.3737e-06	2.0525e-06	1299.7	257.79	3.8872e-06	2.7086e-06	319.33	88.681	70.134	20.308	1.9879e-06	28.459	8.064e-05	8.8054e-05	2.3547e-05	1127.6	8.4712e-07	9.5198e-07	1188.6	234.71	8.4666e-07	9.1668e-07	276.13	78.967	59.6	18.335	8.3874e-07	25.08	110.659	-115.552	-137.132	-154.481	-132.161	-1.248	-154.784	-147.819	-99.872	10.559	-147.877	-141.553	-141.457	-133.980	-54.444	-134.429	-8191	255	
1046.622	1	1	0	0	0.15893	0.21806	0.31305	0.13126	0.081605	0.063219	0.10657	0.17105	0.15909	0.060459	0.11457	0.11837	0.06888	0.19416	0.10799	0.052735	-2.5125	-3.0771	-3.1	-2.9688	-3.35	-3.0875	-3.0938	-3.425	-2.9646	-3.2521	-3.1375	-2.9313	-3.3604	-3.0583	-3.1458	-3.3479	136.518	-43.371	30.561	113.972	59.276	-11.055	118.128	87.634	-132.012	37.126	47.753	139.781	-70.461	126.759	79.197	0.168	0.00088488	0.00012558	7.8488e-05	1215.6	1.8029e-06	2.2272e-06	1281.9	253.49	1.4614e-06	6.2094e-07	315.44	87.533	68.851	20.143	2.9396e-06	28.179	7.5517e-05	7.8035e-05	1.9738e-05	1106.3	7.7176e-07	8.1669e-07	1167.1	230.03	7.8678e-07	8.1435e-07	270.83	77.766	58.748	18.014	7.5285e-07	24.749	89.549	-15.049	-127.148	-154.508	-90.625	11.349	-154.890	-147.713	-78.659	-14.876	-147.903	-141.635	-141.791	-133.856	-26.214	-134.585	-8191	255	
1046.742	1	1	0	0	0.2217	0.12663	0.048767	0.08773	0.10117	0.24213	0.12852	0.20206	0.16004	0.13786	0.13959	0.15721	0.13685	0.19729	0.13854	0.20622	-2.5521	-2.9938	-3.1146	-3.0896	-3.3688	-3.2771	-3.1646	-3.3771	-3.1104	-3.1583	-3.1521	-2.9333	-3.4604	-3.1354	-3.0875	-3.4583	167.359	-21.139	-110.074	9.106	-42.971	53.400	168.916	-161.870	48.639	-98.593	-111.318	26.457	183.128	-6.840	-144.770	138.313	0.00072388	0.00011421	9.6956e-05	1210.7	1.4957e-06	1.8261e-06	1275.2	251.23	1.6524e-06	2.2359e-06	313.55	87.419	68.271	19.931	2.0144e-06	27.919	7.3835e-05	7.0891e-05	1.8288e-05	1097.6	7.7554e-07	7.4757e-07	1158.2	227.64	7.7119e-07	7.2452e-07	267.83	77.028	58.057	17.769	6.6391e-07	24.432	98.473	-83.126	-37.382	-154.373	-76.634	3.955	-154.621	-147.473	-46.985	27.637	-147.883	-142.361	-141.327	-133.556	-9.032	-134.548	-8191	255	
1046.814	1	1	0	0	0.10089	0.26449	0.16506	0.042297	0.092569	0.23445	0.22137	0.071318	0.18666	0.033556	0.10398	0.1711	0.093252	0.15095	0.098541	0.16343	-2.4333	-2.9583	-3.4	-3.0208	-3.2313	-3.1063	-3.1646	-3.1667	-2.8979	-3.0292	-3.4042	-3.1271	-3.2646	-3.2792	-2.8542	-3.3125	-77.817	-3.749	79.088	-18.997	91.583	-59.798	88.227	-19.498	22.791	-163.101	-104.892	184.577	184.666	42.895	-125.030	76.631	0.00072148	9.8373e-05	5.7418e-06	1199.8	9.1833e-07	7.6441e-07	1258.1	247.67	2.4521e-06	8.6327e-07	308.17	85.96	67.242	19.679	1.6078e-06	27.56	6.9267e-05	6.2316e-05	1.6027e-05	1085.6	7.117e-07	6.4403e-07	1144.4	224.36	6.7963e-07	6.2613e-07	262.89	75.969	56.921	17.394	5.595e-07	24.079	105.208	-46.805	153.524	-154.479	63.690	-42.856	-154.774	-147.699	-52.350	35.874	-147.720	-141.738	-141.326	-133.878	-23.940	-134.420	-8191	255	
1046.910	1	1	0	0	0.218	0.23028	0.12187	0.071174	0.16736	0.30325	0.10125	0.14532	0.21754	0.13213	0.31712	0.2167	0.094971	0.12655	0.056346	0.29757	-2.5396	-3.2396	-3.3479	-3.1708	-3.1375	-3.2646	-3.1521	-3.3854	-3.275	-3.0438	-3.4125	-3.1021	-3.2417	-3.3354	-3.0687	-3.2625	48.093	-131.186	135.001	-92.856	28.167	168.661	125.546	137.560	155.988	-102.370	175.145	166.020	14.748	-158.631	117.788	1.058	0.00067537	0.00011556	1.8307e-05	1174.1	3.3575e-06	1.3061e-06	1235.9	242.37	1.5833e-06	1.8502e-06	300.98	84.682	66.273	19.322	1.2368e-06	27.113	5.891e-05	5.2128e-05	1.308e-05	1063.4	5.8937e-07	5.3389e-07	1122.3	219.11	5.7385e-07	5.2538e-07	257.14	74.651	55.719	17.054	5.0821e-07	23.743	116.366	-37.944	-70.231	-154.502	-61.662	-35.143	-154.731	-147.556	-52.819	-41.143	-147.611	-141.447	-141.428	-133.646	-55.414	-134.488	-8191	255	
1047.006	1	1	0	0	0.14447	0.21185	0.23998	0.13272	0.10732	0.14328	0.16443	0.14514	0.068097	0.16718	0.021377	0.051331	0.25251	0.17038	0.23849	0.056274	-2.7021	-2.9521	-3.2667	-3.1188	-3.2042	-3.5292	-3.1729	-3.2667	-3.2375	-2.9938	-3.3063	-3.15	-3.0667	-3.4667	-2.8458	-3.3083	-58.510	-13.508	-163.967	164.332	138.536	152.269	155.895	188.810	132.801	-117.936	-23.610	39.809	-161.906	85.844	46.881	-121.434	0.00065051	0.00022118	6.2397e-05	1166.2	9.7911e-07	1.5569e-06	1233.6	241.25	1.3565e-06	9.6134e-07	300.51	84.699	66.052	19.257	2.3899e-06	26.998	5.3596e-05	4.7696e-05	1.2766e-05	1055.2	5.5439e-07	4.9905e-07	1117.4	218.23	5.4557e-07	5.0689e-07	256.37	74.497	55.57	16.976	5.1915e-07	23.62	108.188	-50.352	-42.533	-154.532	-25.980	-5.725	-154.701	-147.421	-53.632	37.236	-148.035	-141.287	-141.428	-133.804	-109.556	-134.274	-8191	255	
1047.127	1	1	0	0	0.14824	0.19284	0.1402	0.15497	0.29671	0.13609	0.13727	0.29028	0.12164	0.15694	0.20179	0.18554	0.10395	0.12801	0.26255	0.19208	-2.5833	-2.7729	-3.2938	-3.1708	-2.95	-3.3292	-3.2062	-3.2938	-3.2458	-3.0146	-3.3646	-3.2083	-3.0604	-3.5271	-2.9938	-3.1417	150.476	-90.404	139.195	161.731	177.503	-126.804	-148.046	108.007	149.286	157.832	27.713	180.983	-91.943	61.816	168.148	111.605	0.00060634	3.5499e-05	3.8893e-05	1167.5	1.0522e-06	2.8518e-06	1228.8	240.59	2.2699e-06	8.3639e-07	301.73	84.462	65.972	19.23	2.4661e-06	27.123	5.0367e-05	4.4719e-05	1.2909e-05	1054.1	5.1946e-07	4.7346e-07	1116.3	217.39	5.0797e-07	4.6794e-07	257.01	74.172	55.287	16.893	5.2728e-07	23.571	119.120	-120.255	-103.978	-154.579	-159.393	-15.362	-154.716	-147.718	-68.455	-14.318	-147.729	-141.416	-141.371	-133.523	29.805	-134.151	-8191	255	
1047.223	1	1	0	0	0.28228	0.23578	0.085954	0.20866	0.13884	0.092719	0.25446	0.21117	0.26426	0.12095	0.21842	0.13409	0.084419	0.22262	0.038902	0.062247	-2.7146	-2.8958	-3.1875	-3.1292	-2.9562	-3.2833	-3.0958	-3.0521	-3.4646	-3.025	-3.3521	-3.2021	-3.0917	-3.3833	-2.9938	-3.1979	94.302	-123.845	2.306	118.135	-11.111	-96.517	131.469	179.819	-54.643	31.394	10.149	-11.524	184.188	-79.376	-1.350	-107.584	0.00077357	6.623e-05	1.3759e-05	1166.4	1.2371e-06	1.6783e-06	1228.9	240.78	9.2873e-07	1.4647e-06	300.01	84.631	66.069	19.205	1.377e-06	27.117	4.7937e-05	4.2347e-05	1.3261e-05	1054.5	4.9592e-07	4.5285e-07	1116.9	217.32	4.9086e-07	4.7448e-07	256.54	74.436	55.128	16.953	5.6155e-07	23.574	103.981	193.095	182.599	-154.415	12.997	-24.512	-154.653	-147.233	-35.311	64.085	-147.734	-141.580	-141.381	-133.567	-73.449	-134.159	-8191	255	
1047.319	1	1	0	0	0.13524	0.14331	0.16192	0.11536	0.11429	0.27197	0.38447	0.24573	0.044769	0.16112	0.31041	0.24116	0.24145	0.24801	0.15436	0.2144	-2.8896	-2.9792	-3.2708	-3.2167	-2.8208	-3.3958	-3.3208	-3.0938	-3.2313	-3.0875	-3.1208	-3.275	-2.8229	-3.3542	-3.0125	-3.15	-122.074	26.190	-97.117	-145.701	-82.232	58.132	90.228	157.668	-36.118	-87.751	121.294	43.139	12.057	135.192	158.010	-136.120	0.00065762	0.00031321	4.029e-05	1171.6	2.3329e-06	6.2966e-07	1230.9	241.01	2.2799e-06	1.3855e-06	300.77	84.227	66.447	19.195	1.0687e-06	27.092	4.7784e-05	4.581e-05	1.4263e-05	1056.2	5.1319e-07	5.0395e-07	1119.8	217.75	4.9657e-07	5.1888e-07	257.21	74.31	55.382	17.001	5.5973e-07	23.563	119.220	-118.693	-55.432	-154.387	-48.089	24.403	-154.814	-147.488	-39.269	49.666	-147.800	-141.644	-141.093	-133.692	8.812	-133.930	-8191	255	
1047.415	1	1	0	0	0.12094	0.098724	0.24157	0.21694	0.049452	0.075905	0.14486	0.3995	0.13049	0.21464	0.042448	0.27875	0.15836	0.055074	0.1412	0.13301	-3.0042	-2.9167	-3.0708	-3.1354	-2.7875	-3.2687	-3.2417	-3.0125	-3.3021	-3.0625	-3.1917	-3.2417	-3.0812	-3.1583	-3.1542	-3.1354	-19.184	-87.794	173.423	-103.532	-47.859	32.011	138.723	63.643	-94.733	48.693	-97.589	-128.725	171.075	56.454	-98.333	-115.894	0.00069391	0.000192	7.3156e-05	1166.7	2.1467e-06	1.4614e-06	1228.9	240.12	4.642e-07	1.5263e-06	300.17	84.106	65.833	19.274	1.0611e-06	27.011	4.5849e-05	4.7328e-05	1.3824e-05	1053.7	4.9009e-07	5.2626e-07	1117.8	217.24	4.7936e-07	5.3457e-07	257.44	74.014	55.185	17.037	5.3056e-07	23.51	115.875	-83.091	-61.667	-154.561	-77.157	-76.401	-154.765	-147.635	-135.755	-18.795	-147.817	-141.797	-141.259	-133.809	-82.691	-134.228	-8191	255	
1047.510	1	1	0	0	0.14703	0.088811	0.19189	0.35499	0.48458	0.058737	0.24898	0.070878	0.11408	0.18594	0.21241	0.093002	0.23058	0.10436	0.2038	0.24557	-2.9771	-3.0563	-3.0875	-3.4125	-3.0583	-3.1813	-3.2438	-3.0625	-3.3	-2.8542	-3.1333	-3.3167	-3.0083	-3.2646	-3.1521	-3.0229	-34.021	168.832	89.419	143.202	106.852	-62.375	137.567	-85.884	36.772	-44.382	-150.064	154.783	174.220	180.662	193.527	51.624	0.00072582	0.00016502	4.271e-05	1159.6	9.3137e-07	1.9339e-06	1225.8	239.77	1.978e-06	1.5846e-06	301.08	84.027	66.266	19.187	1.755e-06	26.846	4.5016e-05	4.9255e-05	1.2854e-05	1049.8	4.7361e-07	5.1944e-07	1113.1	216.3	4.7252e-07	5.3388e-07	255.77	74.014	55.068	16.995	5.0466e-07	23.437	110.487	174.968	-61.021	-154.608	-57.562	-104.228	-154.684	-147.589	-78.517	27.781	-147.566	-141.496	-141.572	-133.469	-27.937	-134.651	-8191	255	
1047.606	1	1	0	0	0.10886	0.18026	0.014796	0.28027	0.091836	0.12019	0.11215	0.25411	0.19403	0.15938	0.20682	0.11942	0.054666	0.34832	0.28817	0.084391	-3.0354	-2.9104	-3.2146	-3.6083	-2.9583	-3.275	-3.35	-3.0229	-3.2687	-3.1854	-3.2333	-3.3875	-2.9917	-3.1063	-3.2292	-2.9417	108.404	65.471	111.167	171.416	85.056	70.549	116.938	167.436	64.823	67.171	68.148	99.973	-113.187	137.445	-2.802	-53.984	0.00065246	7.0148e-05	1.5156e-05	1161.6	2.359e-06	1.2712e-06	1229.7	239.88	2.3401e-06	1.8567e-06	299.99	84.378	65.9	19.158	9.7279e-07	26.934	4.6906e-05	4.9431e-05	1.2854e-05	1048.3	5.1342e-07	5.4324e-07	1113.7	216.24	5.0937e-07	5.4319e-07	255.66	74.03	55.05	16.959	5.046e-07	23.434	99.490	-86.738	-158.198	-154.297	-134.472	-62.082	-154.663	-147.595	-61.780	-9.246	-147.816	-141.607	-141.746	-133.912	14.386	-134.605	-8191	255	
1047.726	1	1	0	0	0.34097	0.22672	0.072868	0.35583	0.35705	0.035918	0.27756	0.052274	0.22846	0.28096	0.27714	0.12376	0.098348	0.20417	0.13364	0.22957	-2.8563	-3.0625	-2.9708	-3.5687	-3.1354	-3.2417	-3.4	-3.1271	-3.2	-3.0292	-2.9458	-3.4396	-3.0687	-3.1375	-3.2354	-2.9917	-89.978	121.659	93.605	153.560	-98.393	172.227	136.431	101.848	-129.673	-148.233	31.580	119.443	192.856	-0.259	9.829	150.866	0.00070378	8.7744e-05	4.046e-05	1162.8	1.7171e-06	2.1943e-06	1228.2	239.54	1.2538e-06	2.7237e-06	298.65	84.103	65.754	19.224	4.4205e-06	26.879	5.0908e-05	4.8101e-05	1.2628e-05	1048.9	5.3179e-07	5.2228e-07	1114	216.52	5.2584e-07	5.0751e-07	255.38	73.906	55.324	16.954	4.691e-07	23.409	97.877	-21.954	-56.772	-154.266	-142.668	-0.295	-154.777	-147.339	-83.977	-12.416	-147.812	-141.466	-141.262	-133.440	-79.733	-134.361	-8191	255	
1047.823	1	1	0	0	0.068539	0.27094	0.10097	0.11415	0.095504	0.13874	0.12974	0.15993	0.13382	0.19324	0.086899	0.1287	0.11327	0.13623	0.33172	0.14307	-2.7896	-3.0604	-2.8833	-3.3729	-3.1125	-3.1146	-3.4938	-3.1021	-3.3083	-3.2562	-3.0292	-3.5146	-3.25	-3.0687	-3.3708	-2.9188	8.851	-152.270	190.463	-146.070	-129.561	84.519	116.944	49.330	23.194	175.649	75.272	-163.208	37.222	193.811	140.257	187.288	0.00075078	0.0001629	3.5938e-05	1160.6	2.2472e-06	1.0296e-06	1229.4	239.28	1.7712e-06	1.5821e-06	300.42	84.509	66.108	19.234	3.8614e-06	26.98	5.0302e-05	4.4801e-05	1.1939e-05	1049.2	5.2615e-07	4.8462e-07	1114.4	216.24	5.1907e-07	4.6161e-07	255.47	74.006	55.275	16.939	4.272e-07	23.425	118.023	-66.345	-155.453	-154.275	-36.652	-44.572	-154.785	-147.640	-77.049	-33.033	-147.678	-141.776	-141.419	-133.911	-38.470	-134.263	-8191	255	
1047.917	1	1	0	0	0.035995	0.056938	0.15209	0.25233	0.12212	0.23647	0.31015	0.1254	0.16035	0.27262	0.041774	0.33792	0.063808	0.33395	0.27206	0.116	-2.9562	-3.3833	-2.9917	-3.4562	-3.0917	-3.1375	-3.3063	-2.9208	-3.1667	-3.2354	-2.9542	-3.3563	-3.2687	-3.0458	-3.4437	-3.2313	168.094	112.599	-64.135	131.352	-153.935	157.125	54.271	85.547	40.042	-146.663	-46.880	170.762	101.896	166.915	-102.474	71.278	0.00065638	0.00025745	4.7734e-05	1160.9	3.1661e-06	1.8128e-06	1222.7	239.3	2.3092e-06	2.7412e-07	301.12	84.645	65.661	19.125	2.4783e-06	27.045	4.7539e-05	4.1358e-05	1.0834e-05	1048.6	4.9337e-07	4.5377e-07	1110.9	216.24	4.9802e-07	4.5372e-07	255.49	73.902	55.162	16.935	4.4549e-07	23.569	104.369	-76.004	-54.230	-154.341	-8.437	-12.115	-154.928	-147.365	13.798	144.011	-147.667	-141.523	-141.199	-134.176	-34.988	-134.461	-8191	255	
1048.015	1	1	0	0	0.31797	0.24779	0.17297	0.17291	0.12037	0.15828	0.1927	0.18903	0.034451	0.14413	0.26446	0.32914	0.18705	0.1188	0.069766	0.10667	-2.7542	-3.1813	-2.8063	-3.3146	-3.3438	-2.9917	-3.4542	-3.2104	-3.2042	-3.2708	-3.0458	-3.4146	-3.2083	-2.9	-3.0438	-3.0875	81.406	46.318	-32.158	177.381	6.169	14.363	-144.875	52.873	167.907	-42.861	145.312	181.092	192.900	139.692	11.889	188.831	0.00053983	0.00010412	2.1231e-05	1164.8	1.7717e-06	2.3279e-06	1231.2	240.99	1.8168e-06	8.7803e-07	301.03	84.398	65.766	19.224	1.7101e-06	27.168	4.9587e-05	4.2848e-05	1.152e-05	1052.5	5.1294e-07	4.7677e-07	1116.2	218.07	5.0551e-07	4.6016e-07	256.24	74.446	55.454	16.948	4.7941e-07	23.633	107.795	-100.804	-151.084	-154.272	-50.880	-3.699	-154.649	-147.612	-12.104	31.223	-147.471	-141.453	-141.346	-133.641	55.626	-134.347	-8191	255	
1048.109	1	1	0	0	0.086317	0.21248	0.26335	0.12501	0.138	0.067393	0.21095	0.10121	0.17041	0.10756	0.20217	0.21804	0.18615	0.024769	0.25046	0.27174	-2.5875	-3.3604	-3.0229	-3.2104	-3.1792	-2.9667	-3.3271	-3.0604	-2.9229	-3.2875	-3.0021	-3.0083	-3.1104	-3.0646	-3.2833	-2.9167	-124.935	-6.108	141.392	175.082	71.806	-43.101	106.566	39.296	-36.990	-156.581	-71.386	-156.494	-51.015	-48.560	-107.187	175.822	0.00068173	0.00013804	2.8418e-05	1167.8	9.695e-07	5.2596e-07	1231.9	240.81	1.5279e-06	1.2532e-06	301.57	84.411	66.204	19.246	8.1429e-07	27.226	4.872e-05	4.2062e-05	1.2369e-05	1054.6	4.9828e-07	4.6153e-07	1117.1	217.94	5.1145e-07	4.5941e-07	257.05	74.368	55.379	16.944	5.136e-07	23.599	114.012	-118.903	147.177	-154.393	5.578	-94.034	-154.729	-147.392	-92.178	16.290	-147.920	-141.397	-140.898	-133.613	-119.882	-134.350	-8191	255	
1048.205	1	1	0	0	0.22207	0.37905	0.11742	0.2942	0.17806	0.14242	0.21981	0.21906	0.07544	0.15814	0.22727	0.19618	0.063629	0.15921	0.088168	0.18417	-2.5458	-3.2771	-2.8271	-3.3354	-3.1729	-2.9458	-3.3104	-3.1125	-3.1188	-3.3646	-3.1063	-3.2	-3.3417	-2.9104	-3.3708	-3.1125	65.018	169.600	-140.176	131.978	168.577	32.466	150.503	-151.894	62.048	14.405	187.382	68.924	23.329	112.139	-124.044	-42.393	0.00067956	0.00013479	4.0089e-05	1163.5	1.0757e-06	8.6505e-07	1229.5	241.54	2.5591e-06	1.505e-06	300.78	84.827	66.157	19.25	2.9905e-06	27.067	4.8345e-05	4.1941e-05	1.3383e-05	1053.8	4.9528e-07	4.7221e-07	1117.8	218.48	5.0543e-07	4.7023e-07	257.3	74.564	55.316	17.01	5.5077e-07	23.622	102.351	-89.072	194.293	-154.560	-84.931	21.436	-154.841	-147.432	-40.956	-63.068	-147.617	-141.669	-141.210	-133.697	-63.157	-134.310	-8191	255	
1048.302	1	1	0	0	0.25664	0.23813	0.049098	0.10738	0.028246	0.33216	0.16311	0.076827	0.13896	0.028834	0.020204	0.14075	0.067995	0.10796	0.14446	0.11246	-2.4146	-3.3125	-3.0625	-3.225	-3.3333	-3.0125	-3.3563	-3.1625	-2.925	-3.1875	-3.1688	-3.2354	-3.2938	-2.8354	-3.1437	-3.1521	57.942	183.201	-91.290	141.249	49.173	126.202	183.874	-75.404	177.706	36.584	-151.337	141.760	84.041	90.356	180.165	167.885	0.00074368	0.00011879	1.4652e-05	1169.3	2.1796e-06	1.2041e-06	1234.3	240.6	1.4891e-06	9.1788e-07	300.9	84.602	65.856	19.247	2.1917e-06	27.059	4.8374e-05	4.3731e-05	1.3995e-05	1057.2	4.9909e-07	4.9362e-07	1120.9	218.24	5.0543e-07	5.0124e-07	258.03	74.388	55.375	17.029	5.6452e-07	23.644	110.602	-43.462	-132.502	-154.497	-76.298	-89.070	-154.836	-147.510	-44.929	48.235	-147.831	-141.357	-140.709	-134.176	-49.275	-134.230	-8191	255	
1048.422	1	1	0	0	0.10829	0.25985	0.14111	0.18884	0.167	0.29728	0.15937	0.081262	0.16269	0.10388	0.076435	0.10673	0.10728	0.24932	0.15077	0.11502	-2.5917	-3.2812	-2.9917	-3.1771	-3.2104	-3.0521	-3.35	-3.2354	-2.9062	-3.5375	-3.1292	-3.1688	-3.2812	-3.275	-3.1625	-3.2812	152.102	-106.831	109.636	166.690	-77.789	-88.642	147.908	-9.703	-41.787	-48.769	-50.288	-75.134	-138.836	-147.041	104.234	51.130	0.00067115	7.4152e-05	6.765e-05	1170.4	4.3283e-06	1.1462e-06	1234.1	240.7	1.5014e-06	1.9539e-06	302.38	84.81	66.156	19.258	1.2449e-06	27.146	4.7845e-05	4.8174e-05	1.4189e-05	1059.2	4.9812e-07	5.383e-07	1122.6	218.44	4.9417e-07	5.3583e-07	258.64	74.622	55.531	17.093	5.6369e-07	23.668	103.628	111.875	-49.524	-154.408	-49.737	-78.923	-154.694	-147.423	-127.055	-2.629	-147.571	-141.517	-141.511	-133.918	-79.922	-134.473	-8191	255	
1048.518	1	1	0	0	0.051689	0.18081	0.10939	0.11773	0.23872	0.20634	0.051878	0.14423	0.2788	0.06376	0.14189	0.19921	0.11898	0.037846	0.1053	0.16489	-2.6417	-3.1792	-3.1146	-3.0104	-3.2583	-2.9875	-3.2083	-3.1979	-2.9958	-3.2833	-3.1625	-2.9562	-3.375	-3.1729	-3.1917	-3.3354	-113.325	79.702	163.415	-158.564	28.967	-105.466	54.841	47.307	-136.891	133.701	148.286	186.699	-91.409	-85.679	41.667	124.910	0.00080575	1.5386e-05	5.8016e-05	1175.9	8.4221e-07	5.4688e-07	1241.8	241.82	1.6016e-06	2.1481e-06	303.66	84.652	66.656	19.431	5.3933e-07	27.229	4.8444e-05	5.1465e-05	1.4314e-05	1063.4	5.1428e-07	5.8049e-07	1127.9	218.99	5.2622e-07	5.8581e-07	259.3	74.754	55.889	17.181	5.7028e-07	23.724	108.785	-97.162	-64.045	-154.320	-32.561	-83.078	-154.715	-147.422	-70.904	-45.444	-147.769	-141.587	-141.245	-133.954	-53.816	-134.239	-8191	255	
1048.614	1	1	0	0	0.22964	0.050985	0.13177	0.22183	0.17293	0.084913	0.098953	0.06979	0.21164	0.24082	0.028084	0.22182	0.0094632	0.15788	0.074394	0.33419	-2.4604	-3.1396	-2.9479	-3.1542	-3.3167	-3.0312	-3.2	-3.2812	-2.9646	-3.1125	-3.425	-2.9688	-3.1979	-3.0792	-3.0083	-3.2646	59.424	-136.466	40.169	142.927	75.483	122.011	-155.096	105.652	-18.613	-164.227	132.213	-82.573	-149.115	117.048	104.271	101.204	0.0007264	0.00016681	3.8965e-05	1180.1	1.9173e-06	1.8806e-06	1239.3	243.82	6.9606e-07	7.2643e-07	302.18	84.709	66.21	19.459	2.8953e-06	27.179	5.2154e-05	5.4768e-05	1.4117e-05	1066.6	5.4762e-07	5.9238e-07	1129	220.06	5.5907e-07	5.9024e-07	258.82	74.839	55.985	17.191	5.6685e-07	23.73	102.652	-36.196	-12.817	-154.491	-112.473	37.854	-154.758	-147.521	-123.231	-72.007	-147.521	-141.669	-140.953	-134.558	-24.822	-134.180	-8191	255	
1048.686	1	1	0	0	0.094552	0.042089	0.13005	0.02785	0.13728	0.14124	0.13704	0.10582	0.14603	0.17939	0.12865	0.061567	0.074121	0.11186	0.1671	0.11485	-2.525	-3.1896	-3.2167	-3.1792	-3.2146	-2.8917	-3.2875	-3.4458	-3.0062	-2.9333	-3.2771	-3.0125	-3.2313	-3.2375	-3.0458	-3.3771	-97.835	-90.483	-108.943	67.878	26.044	-25.903	34.404	169.373	180.524	97.437	-104.260	165.202	-143.530	48.099	135.513	-156.444	0.00062301	0.00012094	1.3665e-05	1181.9	2.1901e-06	2.3212e-06	1243	243.11	1.6758e-06	1.1291e-06	303.79	84.872	66.584	19.34	2.1102e-06	27.163	5.6652e-05	5.4978e-05	1.4182e-05	1070	5.9915e-07	6.0269e-07	1131.9	220.32	6.1807e-07	6.0188e-07	260.02	74.962	56.386	17.244	5.8e-07	23.832	103.519	-109.978	-52.468	-154.432	19.248	24.596	-154.771	-147.734	-52.503	-73.477	-147.660	-141.727	-141.423	-134.026	-63.311	-134.295	-8191	255	
1048.807	1	1	0	0	0.25735	0.14632	0.14096	0.39876	0.15444	0.031043	0.25491	0.069855	0.090716	0.14603	0.14308	0.25482	0.21053	0.20865	0.29431	0.49282	-2.7375	-3.0438	-3.1542	-2.9792	-3.2354	-3.0979	-3.0854	-3.4396	-3.15	-3.0646	-3.3812	-3.0417	-3.1813	-3.1708	-3.0146	-3.2958	120.247	22.928	-146.997	153.554	-140.753	132.919	144.771	167.467	87.532	-96.832	-8.712	145.247	63.850	185.798	-81.461	186.901	0.00069016	0.00014842	4.7169e-05	1187.1	3.6039e-06	6.628e-07	1247.1	244.3	2.4016e-06	1.0381e-06	303.13	84.937	66.741	19.407	3.1351e-06	27.161	6.1934e-05	5.6453e-05	1.4418e-05	1074.4	6.4466e-07	6.067e-07	1135.2	221.3	6.5472e-07	6.0248e-07	260.23	75.227	56.489	17.202	5.7087e-07	23.864	102.930	-47.181	-63.764	-154.564	16.452	-30.448	-154.639	-147.642	-34.504	-4.757	-147.833	-141.658	-141.517	-133.770	-64.623	-134.086	-8191	255	
1048.903	1	1	0	0	0.23152	0.10712	0.06334	0.32915	0.18799	0.19756	0.19956	0.08631	0.26407	0.07921	0.10159	0.28358	0.14352	0.050464	0.06862	0.25277	-2.5563	-3.1229	-3.3187	-3.0708	-3.1771	-3.2479	-3.1479	-3.45	-3.1667	-3.1125	-3.4437	-3.1521	-3.1042	-3.2104	-3	-3.3167	-98.924	-140.812	-6.820	188.387	-18.606	25.178	121.358	105.498	-30.817	160.888	-153.901	188.184	-113.679	59.844	-74.020	103.408	0.00065952	0.00019504	1.9139e-05	1189.6	2.1208e-06	1.267e-06	1249.4	243.45	1.1068e-06	2.8005e-06	304.36	85.4	66.832	19.387	2.1949e-06	27.215	6.0384e-05	5.4025e-05	1.3974e-05	1076.4	6.5235e-07	5.9193e-07	1138.6	221.79	6.5487e-07	6.0854e-07	261.33	75.562	56.539	17.267	5.926e-07	24.018	99.506	189.163	-38.112	-154.486	-31.954	146.938	-154.742	-147.534	-46.289	20.242	-147.964	-141.907	-141.334	-134.205	7.255	-134.475	-8191	255	
1048.999	1	1	0	0	0.071863	0.15114	0.10019	0.3832	0.086229	0.058396	0.31348	0.22623	0.094999	0.13696	0.20223	0.061153	0.089637	0.17772	0.17047	0.23103	-2.7687	-2.9354	-3.225	-3.1542	-3.0271	-3.3187	-3.0875	-3.2958	-3.1625	-2.8521	-3.3	-3.0021	-3.2021	-3.2729	-2.975	-3.1542	-113.068	-134.547	43.488	129.738	171.899	45.387	170.472	162.249	-94.699	50.271	158.375	123.206	128.817	63.084	-68.267	54.129	0.00068844	0.00016835	1.5435e-05	1188.8	1.1311e-06	5.0835e-07	1257.8	245.26	2.069e-06	1.3539e-06	306.44	85.533	67.179	19.385	2.3581e-06	27.363	6.3804e-05	5.7615e-05	1.5306e-05	1081.9	6.8797e-07	6.2695e-07	1144.4	223.22	6.7582e-07	6.3355e-07	262.68	75.97	56.972	17.322	6.659e-07	24.282	111.295	-103.771	-114.151	-154.581	16.754	-70.184	-154.859	-147.490	-69.431	80.578	-148.070	-141.544	-141.170	-134.022	-136.391	-134.447	-8191	255	
1049.095	1	1	0	0	0.29698	0.12127	0.022657	0.22423	0.10661	0.2803	0.0436	0.28379	0.23546	0.27978	0.10682	0.14374	0.053433	0.060009	0.19592	0.16629	-2.6854	-2.8625	-3.2604	-3.3438	-3.0542	-3.425	-3.1	-3.1771	-3.2146	-2.9521	-3.5021	-3.1125	-3.1188	-3.4437	-2.9813	-3.1021	52.771	-157.175	188.215	176.132	151.329	3.927	-103.410	167.238	-44.488	-97.273	-52.471	-144.722	-121.616	30.887	18.994	124.747	0.00064527	0.00038712	3.6876e-05	1196.2	1.1127e-06	1.152e-06	1264.6	246.43	1.806e-06	1.3554e-06	306.95	85.912	67.215	19.669	1.6102e-06	27.464	6.631e-05	6.0697e-05	1.7338e-05	1089.3	7.2221e-07	6.686e-07	1154.2	225	7.4097e-07	6.9279e-07	265.23	76.587	57.604	17.498	7.7979e-07	24.4	108.006	-73.843	-127.540	-154.562	68.667	-32.977	-154.962	-147.676	-85.514	-4.443	-148.151	-141.740	-141.422	-133.901	-28.910	-134.449	-8191	255	
1049.214	1	1	0	0	0.011037	0.33353	0.056652	0.13675	0.084459	0.13749	0.074493	0.28107	0.13806	0.077058	0.38258	0.21646	0.1594	0.16931	0.21405	0.16479	-2.9437	-2.7917	-3.2979	-3.2083	-3.0104	-3.3688	-3.1292	-3.1396	-3.3583	-2.8937	-3.3812	-3.3187	-3.1437	-3.0792	-2.8833	-3.2562	133.612	77.095	-10.262	-93.680	-110.096	-146.673	178.806	124.380	98.138	131.033	18.717	86.417	190.248	-20.251	-7.802	-114.387	0.00072599	0.00013385	3.7938e-05	1209.3	2.8652e-06	7.9849e-07	1272.2	249.84	2.6378e-06	1.2415e-06	309.15	86.569	68.225	19.682	3.2955e-06	27.789	7.1387e-05	6.5281e-05	2.0472e-05	1098.6	7.8592e-07	7.234e-07	1161.7	227.06	7.8722e-07	7.5867e-07	267.77	77.148	57.994	17.652	8.7839e-07	24.618	106.153	-137.922	-43.918	-154.631	-33.513	177.843	-154.886	-147.610	-40.937	-73.610	-147.803	-141.623	-141.677	-133.986	22.101	-134.654	-8191	255	
1049.310	1	1	0	0	0.095476	0.13637	0.2199	0.18779	0.12067	0.29371	0.11943	0.18078	0.15369	0.17904	0.13268	0.17408	0.17022	0.10372	0.12565	0.21115	-2.8979	-3.1896	-3.3229	-3.2062	-2.9708	-3.3042	-3.275	-3.1583	-3.4688	-3.1354	-3.2292	-3.3667	-2.9375	-3.3333	-2.9375	-3.3458	-22.512	-160.722	-160.962	120.981	56.881	192.102	81.841	66.722	154.556	150.022	-66.030	116.374	-27.126	-13.038	110.226	48.201	0.00066244	0.00014431	5.3827e-05	1218.2	2.7184e-07	1.0333e-06	1273.5	250.94	3.8461e-07	1.6595e-06	311.7	86.875	67.981	19.727	3.0381e-06	27.734	7.5083e-05	7.1243e-05	2.247e-05	1104.7	8.144e-07	7.8588e-07	1166.8	228.26	7.9881e-07	8.1079e-07	269.69	77.351	57.991	17.7	8.6501e-07	24.511	113.242	54.007	-140.725	-154.612	-77.498	6.260	-154.783	-147.743	-114.172	-67.308	-147.629	-141.679	-141.638	-133.611	-68.387	-134.237	-8191	255	
1049.406	1	1	0	0	0.088013	0.099464	0.040051	0.17434	0.11585	0.27478	0.29682	0.028046	0.030274	0.15042	0.12114	0.13544	0.42506	0.24918	0.20165	0.14424	-2.9896	-2.8604	-3.4104	-3.2604	-2.8729	-3.1604	-3.1542	-2.9333	-3.3479	-3.0312	-3.0687	-3.4125	-2.8396	-3.1229	-3.0625	-2.9813	5.057	152.683	-19.934	97.125	74.761	3.035	183.501	-140.852	72.281	109.200	-117.502	-14.057	-42.631	114.839	50.972	-16.532	0.00074568	0.00039988	8.1669e-05	1213.4	2.3062e-06	8.33e-07	1279.4	250.13	4.8556e-07	1.5869e-06	310.05	86.8	68.286	19.631	5.6601e-07	27.678	7.0076e-05	7.2556e-05	2.1394e-05	1102.2	7.379e-07	7.8427e-07	1165.7	227.42	7.1107e-07	7.8495e-07	267.98	76.879	57.711	17.598	7.8122e-07	24.361	110.959	-115.551	-84.284	-154.634	-87.264	60.444	-154.646	-147.537	15.873	25.780	-147.912	-141.884	-141.416	-134.080	-2.951	-134.405	-8191	255	
1049.503	1	1	0	0	0.018861	0.23947	0.040326	0.37011	0.063381	0.23072	0.12522	0.21743	0.15195	0.10349	0.1599	0.12561	0.072923	0.076297	0.085815	0.17578	-2.9792	-3.025	-3.1104	-3.2708	-3.1208	-3.1604	-3.3854	-3.0396	-3.1479	-2.9146	-3.2229	-3.2562	-2.9333	-3.2833	-3.0812	-3.0146	72.078	85.634	-134.502	-128.356	28.214	154.749	33.563	-129.561	108.645	132.664	144.983	-146.300	168.551	111.083	-160.563	-161.981	0.00071774	0.00012585	5.05e-05	1208.7	3.8521e-06	1.1542e-06	1273.3	249.06	2.3887e-06	3.2504e-06	309.93	86.671	68.019	19.516	2.9401e-07	27.406	6.4627e-05	7.041e-05	1.9155e-05	1097.5	6.797e-07	7.6096e-07	1160.2	226.26	6.8011e-07	7.7961e-07	267.17	76.582	57.571	17.603	7.3953e-07	24.258	117.386	-78.352	-48.414	-154.579	-88.225	26.674	-154.729	-147.527	-93.037	5.537	-147.845	-141.959	-141.726	-134.196	157.617	-134.397	-8191	255	
1049.599	1	1	0	0	0.11698	0.17737	0.17241	0.2581	0.10938	0.033351	0.21169	0.15259	0.16355	0.098458	0.2242	0.17678	0.094407	0.21086	0.040318	0.19827	-2.7604	-3.0854	-3.1188	-3.3771	-2.975	-3.3542	-3.2521	-2.9021	-3.3229	-3.1771	-3.0396	-3.3667	-2.9708	-3.3229	-3.1833	-3.0229	-25.757	92.806	38.336	110.797	-142.469	175.589	181.558	-144.290	-11.235	-31.059	120.122	-165.309	178.720	126.970	-22.992	40.787	0.00069632	0.00028923	4.7939e-05	1208.9	2.5398e-06	2.2399e-07	1279.2	249.98	2.4892e-06	1.704e-06	311.42	86.754	68.503	19.679	2.5934e-06	27.688	6.6919e-05	7.1908e-05	1.8838e-05	1097.9	7.4574e-07	8.1036e-07	1163.9	226.94	7.6328e-07	8.2519e-07	268.12	76.902	58.255	17.719	7.6117e-07	24.412	96.936	-90.539	-112.542	-154.593	106.378	-156.819	-154.966	-147.740	-71.659	-11.876	-148.048	-141.798	-141.214	-133.932	-44.352	-134.447	-8191	255	
1049.695	1	1	0	0	0.15347	0.02695	0.17928	0.25112	0.084077	0.1197	0.39802	0.23298	0.1644	0.076386	0.27982	0.097575	0.28667	0.091884	0.098053	0.14632	-2.8021	-2.9958	-3.0312	-3.5938	-3.1188	-3.1979	-3.3792	-3.05	-3.3146	-3.1417	-3.1458	-3.3521	-3.1896	-3.1333	-3.1813	-2.9104	-13.887	150.716	66.473	98.755	29.582	186.195	83.865	127.338	-138.805	-15.770	128.231	-158.014	114.175	-157.292	-101.876	-10.880	0.0006402	0.00033624	4.8785e-05	1213.2	3.4743e-06	3.2e-06	1274.2	249.56	3.0844e-06	2.5829e-06	312.05	86.847	67.855	19.622	3.5885e-06	27.789	7.4695e-05	7.4035e-05	1.9548e-05	1101.6	8.0989e-07	8.1187e-07	1163.4	226.84	8.0441e-07	7.9354e-07	267.99	76.883	58.239	17.678	7.4252e-07	24.447	101.218	-89.564	-96.402	-154.532	-93.011	35.999	-154.884	-147.647	-61.302	-52.486	-147.821	-141.780	-141.693	-134.054	-113.636	-134.615	-8191	255	
1049.815	1	1	0	0	0.11519	0.12731	0.12874	0.25673	0.029994	0.16152	0.099417	0.1199	0.11496	0.14059	0.052106	0.11469	0.14407	0.10993	0.076861	0.20513	-2.9458	-3.3	-2.9333	-3.5333	-3.1792	-3.0896	-3.3896	-3.075	-3.2167	-3.0917	-3.0833	-3.3979	-2.9875	-2.9062	-3.1667	-3.0458	-94.795	14.387	-117.580	100.725	-81.579	101.553	113.696	64.303	140.307	-9.418	108.664	-146.450	169.539	185.336	133.627	-69.511	0.00077224	0.00016862	2.3332e-05	1215.7	1.6573e-06	1.6142e-06	1276.6	249.91	1.8139e-06	2.2394e-06	312.51	86.887	68.178	19.687	1.8486e-06	27.732	7.8645e-05	7.2723e-05	1.9221e-05	1103.6	8.5918e-07	8.0742e-07	1165.9	227.32	8.6335e-07	8.0963e-07	268.35	77.085	58.522	17.717	7.6608e-07	24.548	109.742	-58.662	10.581	-154.606	-20.801	-65.384	-154.850	-147.614	186.937	15.101	-147.815	-141.872	-141.448	-133.681	-42.448	-134.401	-8191	255	
1049.910	1	1	0	0	0.10017	0.15204	0.077104	0.19729	0.097527	0.25293	0.13188	0.047693	0.098528	0.064034	0.061798	0.11951	0.1561	0.010824	0.18982	0.071302	-2.7646	-3.0833	-2.9708	-3.3979	-3.0292	-3.1396	-3.3396	-3.0187	-3.2396	-3.2083	-2.9167	-3.3958	-2.9917	-2.9854	-3.2542	-2.8708	-113.692	68.329	91.814	-149.907	37.330	-134.681	148.331	141.519	-17.282	68.345	141.999	-50.658	119.649	-159.454	49.899	164.254	0.00073189	0.00026479	6.9348e-05	1218.5	3.1857e-06	6.6793e-07	1277.7	251.41	2.2875e-06	2.0012e-06	312.45	86.951	68.034	19.76	2.0652e-07	27.924	8.3644e-05	7.5864e-05	1.9972e-05	1105.7	9.1039e-07	8.3105e-07	1166.4	228.78	8.8866e-07	8.2391e-07	269.13	77.484	58.623	17.755	7.6495e-07	24.711	112.654	-67.749	-78.626	-154.541	-44.022	185.962	-154.741	-147.806	-42.337	-32.213	-147.737	-141.626	-141.547	-134.287	35.738	-134.607	-8191	255	
1049.983	1	1	0	0	0.035643	0.1185	0.07142	0.35343	0.14867	0.14602	0.22305	0.16348	0.24555	0.01786	0.14398	0.096655	0.11607	0.053586	0.067477	0.082507	-2.7667	-3.2021	-2.9688	-3.3333	-3.1667	-2.9708	-3.4562	-3.0833	-3.1542	-3.3729	-2.9938	-3.3667	-3.1021	-3.0333	-3.45	-3.05	-8.765	13.156	84.753	111.521	-97.643	107.465	52.496	177.870	150.566	121.557	171.815	57.138	97.224	-53.874	36.496	127.987	0.00055207	0.00019261	1.8024e-05	1217.2	2.0706e-06	5.9148e-07	1282.1	251.51	2.6411e-06	2.7452e-07	310.46	87.068	68.066	19.664	2.0367e-06	27.756	8.1341e-05	7.2931e-05	1.9465e-05	1107	8.5245e-07	7.9313e-07	1166.6	228.75	8.4984e-07	7.6992e-07	269.18	77.615	58.398	17.677	7.7168e-07	24.643	115.916	-108.375	115.539	-154.548	-11.723	-11.515	-154.832	-147.555	-15.819	52.560	-147.731	-141.554	-141.589	-133.964	-62.011	-134.389	-8191	255	
1050.102	1	1	0	0	0.23153	0.14525	0.089404	0.16559	0.13534	0.12324	0.19663	0.25394	0.078268	0.26948	0.30866	0.11084	0.17648	0.14729	0.1774	0.19412	-2.8479	-3.2583	-2.9938	-3.2042	-3.1896	-2.7125	-3.4479	-2.9437	-2.9771	-3.4417	-3.0083	-3.2104	-3.3187	-2.8354	-3.3479	-3.1896	186.327	7.807	157.365	185.353	51.665	89.882	74.703	110.725	-56.681	59.889	174.956	5.950	158.795	114.032	-33.164	54.298	0.00060571	0.00016902	1.8207e-05	1216.7	3.2665e-06	1.7458e-06	1282.6	249.86	2.1351e-06	1.6154e-06	311.92	86.46	68.598	19.667	2.1228e-06	27.697	7.9523e-05	6.9742e-05	1.9962e-05	1107.7	8.3518e-07	7.821e-07	1168.8	228.62	8.423e-07	7.6361e-07	269.56	77.469	58.43	17.673	8.2924e-07	24.641	102.843	-131.616	-60.525	-154.649	-36.591	-16.604	-154.983	-147.689	-117.220	25.758	-147.776	-141.616	-141.349	-134.299	-112.536	-134.024	-8191	255	
1050.198	1	1	0	0	0.042025	0.12711	0.087856	0.1585	0.17246	0.12469	0.20947	0.15806	0.088498	0.18031	0.24727	0.21404	0.40783	0.18767	0.22735	0.15577	-2.6167	-3.3688	-2.9542	-3.3458	-3.1917	-2.7896	-3.4437	-3.1958	-3.0396	-3.3646	-3.0958	-3.1646	-3.2	-2.8583	-3.4875	-3.2229	-60.544	116.231	-144.043	157.601	-41.594	-85.234	-157.671	85.432	-106.262	-31.491	102.459	107.928	126.927	-160.020	-92.481	-44.902	0.00072686	0.00011298	2.7705e-05	1217	7.4328e-07	1.553e-06	1281.1	251.37	1.8949e-06	1.5295e-06	311.33	86.343	68.427	19.698	8.9176e-07	27.724	7.7383e-05	6.807e-05	2.1175e-05	1108.5	8.0157e-07	7.4429e-07	1167.8	228.49	7.981e-07	7.2767e-07	269.29	77.338	58.254	17.627	8.6516e-07	24.621	109.404	-100.077	180.693	-154.628	-113.325	-115.556	-154.830	-147.614	-23.473	-51.207	-147.634	-141.697	-141.284	-133.705	-134.383	-134.120	-8191	255	
1050.294	1	1	0	0	0.057534	0.1569	0.078062	0.15585	0.2524	0.22889	0.096059	0.18377	0.1306	0.15696	0.11307	0.35632	0.13913	0.28548	0.07858	0.29272	-2.4625	-3.2896	-3.0896	-3.1979	-3.3167	-2.8958	-3.3542	-3.3187	-2.9458	-3.3125	-3.075	-3.0687	-3.2479	-3.0312	-3.2417	-3.2771	57.293	-74.747	139.688	-162.265	175.256	-74.199	111.714	117.141	116.812	-130.082	-108.798	-101.216	7.235	170.083	-95.331	62.157	0.00069342	0.00033892	6.1778e-05	1217.4	1.5681e-06	1.919e-06	1280	251.28	1.5102e-06	1.1162e-06	312.69	87.057	68.119	19.764	1.9493e-06	27.472	7.472e-05	6.8438e-05	2.1849e-05	1106.2	7.8965e-07	7.7073e-07	1169.6	228.57	7.8814e-07	7.7908e-07	270.07	77.371	58.17	17.704	8.7359e-07	24.503	104.880	-151.412	-70.722	-154.621	-127.752	-22.776	-154.866	-147.745	-87.122	-43.397	-147.703	-141.489	-141.415	-133.901	-54.567	-134.487	-8191	255	
1050.391	1	1	0	0	0.11512	0.12792	0.21434	0.15316	0.15768	0.21829	0.21538	0.079981	0.26695	0.2154	0.19011	0.051272	0.15235	0.23187	0.23996	0.31071	-2.575	-3.4042	-3.0083	-3.1167	-3.4	-2.9854	-3.1083	-3.2896	-2.9646	-3.3104	-3.3021	-3.0958	-3.35	-2.9396	-3.1521	-3.3021	124.413	-5.316	143.588	109.019	140.220	-147.042	162.314	30.258	-95.594	11.020	113.266	110.834	119.646	90.424	-136.812	55.111	0.00067886	0.0001483	4.3597e-05	1218.6	1.3312e-06	2.1915e-06	1279.7	250.26	2.2092e-06	3.6563e-07	311.82	86.586	67.94	19.656	1.4984e-06	27.565	7.2943e-05	7.3646e-05	2.1965e-05	1106.2	7.6328e-07	8.0638e-07	1169.5	228.24	7.7213e-07	8.2997e-07	269.91	77.26	58.01	17.72	8.753e-07	24.575	102.528	-86.729	-83.260	-154.324	-120.538	-143.468	-154.636	-147.506	-68.266	26.930	-147.746	-141.414	-141.322	-133.731	-13.158	-134.332	-8191	255	
1050.487	1	1	0	0	0.21258	0.2509	0.11898	0.27465	0.092493	0.19651	0.15263	0.26645	0.15796	0.3021	0.049767	0.073842	0.040464	0.29971	0.19872	0.072762	-2.5125	-3.4104	-3.0312	-3.025	-3.5125	-2.975	-3.2229	-3.5083	-2.9708	-3.2583	-3.2125	-3.0354	-3.2812	-2.9396	-3.0354	-3.3375	180.492	87.719	-38.645	165.426	7.659	106.238	159.650	135.096	19.493	-5.621	95.257	33.564	29.291	178.618	-134.566	185.301	0.00062853	0.00010782	5.3504e-05	1220.5	2.9776e-06	1.3358e-06	1280.6	250.31	3.0204e-06	1.5927e-06	311.26	87.095	68.16	19.565	1.9679e-06	27.734	7.3292e-05	7.8094e-05	2.1791e-05	1106.6	7.733e-07	8.694e-07	1168.9	228.15	7.8766e-07	8.6569e-07	269.24	77.326	58.16	17.736	8.5064e-07	24.489	103.970	-103.575	-37.752	-154.527	-42.222	-63.180	-154.773	-147.675	-84.921	93.153	-147.850	-141.694	-141.633	-133.840	-49.693	-134.017	-8191	255	
1050.607	1	1	0	0	0.093929	0.3693	0.11944	0.038797	0.15442	0.20505	0.19588	0.098881	0.072793	0.16457	0.20133	0.011306	0.036364	0.16988	0.18857	0.1494	-2.5667	-3.3333	-3.0833	-3.1146	-3.2583	-3.3771	-3.2313	-3.4083	-2.9813	-3.1479	-3.2167	-3.0583	-3.3417	-3.0479	-2.925	-3.4458	93.760	-70.783	55.132	192.867	106.172	-127.359	113.292	146.071	-46.364	44.760	43.291	-34.803	-94.724	-123.780	108.845	44.057	0.00075319	0.00014224	4.2846e-05	1216.4	6.2215e-07	1.8267e-06	1274.8	250.52	1.9559e-06	3.1482e-06	311.09	87.114	68.715	19.602	1.1223e-06	27.743	7.4513e-05	8.0463e-05	2.0923e-05	1105.9	7.9674e-07	8.8672e-07	1166.7	228.09	8.3466e-07	8.9055e-07	269.15	77.279	58.365	17.752	8.5058e-07	24.514	100.187	-102.442	-109.095	-154.301	-58.977	26.679	-154.710	-147.539	-129.297	-26.977	-147.592	-141.918	-141.606	-134.309	54.651	-134.471	-8191	255	
1050.679	1	1	0	0	0.043507	0.24143	0.093963	0.21665	0.2268	0.083135	0.15349	0.16363	0.091813	0.18524	0.15774	0.07884	0.033971	0.16781	0.19395	0.058738	-2.6646	-3.2104	-3.2083	-2.9938	-3.2646	-3.0979	-3.2521	-3.4271	-2.9792	-3.4313	-3.325	-3.0104	-3.2271	-3.1917	-3.0771	-3.2646	-125.418	-6.713	27.557	181.164	29.449	135.058	89.626	156.949	47.981	54.282	87.516	-23.312	147.252	-64.119	-9.628	166.827	0.00080053	0.00020175	7.8131e-05	1218	1.2815e-06	1.8514e-06	1278.6	250.39	1.3331e-06	2.4212e-07	310.25	86.893	68.068	19.645	2.1686e-06	27.885	8.1371e-05	8.3282e-05	2.143e-05	1105.6	8.971e-07	9.1056e-07	1167.9	228.29	9.1545e-07	9.1435e-07	269.57	77.429	58.735	17.821	8.8321e-07	24.626	102.833	174.446	-107.136	-154.690	-82.977	-2.925	-154.773	-147.604	-61.014	-27.085	-147.731	-141.833	-141.586	-133.732	36.450	-134.424	-8191	255	
1050.775	1	1	0	0	0.12195	0.12254	0.2299	0.13903	0.21774	0.18905	0.13558	0.24716	0.10157	0.12787	0.093661	0.10527	0.22717	0.07974	0.17783	0.1989	-2.65	-3.0625	-3.3833	-3.1208	-3.1875	-3.1479	-3.2375	-3.3771	-2.9917	-3.0708	-3.3667	-2.9875	-3.2458	-3.2375	-2.9188	-3.1271	43.314	45.400	-114.366	71.322	-1.984	-135.558	92.505	129.310	136.193	170.627	-86.656	112.994	-110.802	-155.924	-114.703	144.876	0.00067652	0.0003778	4.5267e-05	1220.7	2.7626e-06	1.1938e-06	1280.1	250.71	5.8483e-07	3.0928e-06	312.01	86.949	68.284	19.86	2.545e-06	27.829	9.0009e-05	8.4723e-05	2.2272e-05	1108.7	9.7714e-07	9.3222e-07	1169.7	229.09	1.0068e-06	9.3661e-07	269.67	77.605	59.099	17.872	9.1552e-07	24.756	119.107	-104.547	-64.001	-154.654	-41.903	-62.456	-154.831	-147.544	-54.522	19.491	-147.987	-141.699	-141.884	-133.769	-39.918	-134.824	-8191	255	
1050.896	1	1	0	0	0.058008	0.21838	0.30515	0.18453	0.094002	0.28591	0.37965	0.30503	0.099223	0.11288	0.14413	0.1431	0.051604	0.28545	0.069902	0.118	-2.6854	-3.1813	-3.3417	-3.0979	-3.3458	-3.1937	-3.0271	-3.25	-2.9333	-3.0438	-3.4875	-3.0833	-3.2229	-3.0917	-2.8958	-3.175	188.407	86.567	-141.332	118.282	-28.417	-133.727	182.595	111.694	150.528	88.536	91.192	186.908	165.891	120.563	106.648	81.697	0.00066342	0.00014613	9.3011e-05	1221.6	2.7095e-06	7.4544e-07	1284.5	251.18	2.3287e-06	2.8027e-06	313.46	87.101	68.351	19.611	1.4313e-06	27.854	9.512e-05	8.556e-05	2.241e-05	1113	1.0121e-06	9.3379e-07	1173.9	229.75	1.0036e-06	9.3055e-07	270.28	77.92	59.155	17.829	8.6563e-07	24.886	111.411	-6.030	-39.188	-154.659	-12.191	-42.716	-155.054	-147.859	-59.290	-27.928	-147.809	-141.700	-141.788	-134.302	-65.713	-134.291	-8191	255	
1050.990	1	1	0	0	0.17153	0.099706	0.25161	0.14788	0.22797	0.10382	0.21545	0.085732	0.092765	0.21142	0.07709	0.13716	0.10857	0.17149	0.12995	0.15922	-2.7083	-2.8438	-3.2542	-3.0729	-3.0021	-3.1813	-2.9562	-3.3167	-3.0812	-3.0625	-3.3312	-2.9562	-3.1562	-3.3688	-3.0167	-3.1917	-138.871	152.190	-127.991	187.948	-17.699	119.807	180.401	82.081	102.613	184.800	53.939	-161.765	-104.960	85.061	-20.238	35.294	0.0006397	0.0003094	1.7153e-05	1219.4	1.439e-06	1.0443e-06	1284	251.99	2.4128e-06	2.7181e-06	311.93	87.071	68.454	19.681	2.0126e-06	27.645	9.0619e-05	8.3985e-05	2.1581e-05	1112	9.7416e-07	8.9307e-07	1173.3	229.95	9.4974e-07	9.006e-07	270.39	77.957	58.877	17.776	8.7425e-07	24.82	118.797	-146.508	-28.296	-154.574	-45.541	-110.202	-154.801	-147.645	-39.685	13.479	-147.892	-141.548	-141.424	-134.232	-114.094	-134.600	-8191	255	
1051.088	1	1	0	0	0.058916	0.064894	0.077276	0.077746	0.20804	0.15154	0.33351	0.19768	0.064675	0.10205	0.22789	0.15275	0.060772	0.12887	0.10638	0.10565	-2.7896	-2.8396	-3.3042	-2.9188	-3.125	-3.2667	-3.1583	-3.2854	-3.1833	-2.8604	-3.3083	-3.0896	-3.1396	-3.2271	-3.0438	-3.3125	98.960	-86.243	-126.656	144.196	-151.582	-158.966	124.172	107.226	-89.608	-36.029	-160.363	54.022	-144.770	-150.071	171.282	-137.089	0.00057689	0.00018121	2.0958e-05	1218.8	2.264e-06	1.9643e-06	1277.7	251.14	3.6333e-06	2.6292e-06	312.1	86.608	68.127	19.507	6.4628e-07	27.78	8.6552e-05	7.766e-05	2.1561e-05	1110.2	8.9918e-07	8.394e-07	1168.8	229.67	8.8575e-07	8.3304e-07	269.73	77.715	58.484	17.652	8.9159e-07	24.764	125.026	113.496	128.741	-154.638	-56.582	-5.442	-154.888	-147.641	-88.223	-52.471	-147.720	-141.670	-141.510	-133.872	-2.303	-134.510	-8191	255	
1051.207	1	1	0	0	0.15257	0.17592	0.17279	0.25654	0.17309	0.26766	0.16503	0.30756	0.11089	0.036941	0.26961	0.071206	0.058289	0.15689	0.22148	0.090432	-2.8167	-2.9521	-3.1708	-3.25	-3.1083	-3.3708	-3.1375	-3.2271	-3.1979	-2.7521	-3.3958	-3.3458	-2.8896	-3.4729	-3.0125	-3.2	-102.590	153.688	149.996	159.271	185.014	-160.183	150.622	-42.005	172.123	-28.826	-141.175	42.806	-102.987	-89.071	41.853	-142.306	0.00088804	0.00025035	2.3794e-05	1211.8	3.6053e-06	2.1454e-06	1276.3	250.52	1.2106e-06	1.6876e-06	311.13	86.79	68.105	19.593	5.7072e-07	27.694	8.2235e-05	7.5027e-05	2.2699e-05	1107.3	8.887e-07	8.1969e-07	1168.7	229	8.8266e-07	8.3825e-07	270.56	77.691	58.382	17.684	9.4144e-07	24.753	111.400	-98.540	-156.672	-154.629	-57.154	-5.624	-154.925	-147.701	-11.505	-4.814	-147.755	-141.329	-141.559	-134.240	-92.722	-134.519	-8191	255	
1051.279	1	1	0	0	0.12277	0.10386	0.12914	0.2196	0.14943	0.31562	0.15821	0.29683	0.10049	0.14877	0.29628	0.13713	0.17205	0.25811	0.09317	0.1226	-2.8604	-2.8187	-3.2792	-3.2938	-2.9833	-3.3646	-3.1937	-3.225	-3.5083	-2.8479	-3.3937	-3.1042	-3.1167	-3.3979	-3.0792	-2.9771	-154.682	125.882	55.902	146.501	34.165	188.203	155.012	-145.301	-124.426	-42.257	148.283	41.485	140.000	-153.360	-93.135	94.544	0.00082725	0.0001199	7.7376e-05	1214.8	2.8316e-06	2.6603e-06	1275.8	250.76	2.3731e-06	1.7298e-06	310.41	86.897	67.907	19.683	3.3912e-06	27.745	8.104e-05	7.4982e-05	2.3509e-05	1106.9	8.6527e-07	8.1387e-07	1170	228.79	8.4403e-07	8.4552e-07	270.23	77.6	58.289	17.702	9.5035e-07	24.735	106.035	-48.873	-142.529	-154.376	-38.817	-36.762	-154.800	-147.655	-113.726	-40.327	-147.948	-141.855	-141.377	-134.007	-49.421	-134.711	-8191	255	
1051.375	1	1	0	0	0.052031	0.069456	0.1184	0.2494	0.12897	0.089782	0.20074	0.10825	0.22499	0.23101	0.041012	0.26139	0.11316	0.17769	0.084455	0.044585	-2.9167	-2.8146	-3.2021	-3.3625	-3.025	-3.35	-3.2667	-3.1354	-3.4167	-3.0458	-3.1479	-3.1729	-3.0187	-3.3604	-3.0521	-3.1208	-10.191	0.241	-135.500	157.089	-49.572	182.313	141.143	-143.041	-115.400	97.910	-101.572	142.706	-5.737	141.341	-123.853	102.357	0.00077481	0.00010879	5.727e-05	1220.2	7.6037e-07	1.8705e-06	1280.3	251.29	3.1997e-06	1.082e-07	311.38	86.938	68.536	19.555	1.725e-06	27.753	7.8218e-05	7.9659e-05	2.4048e-05	1107	8.3673e-07	8.7335e-07	1170.7	229.11	8.159e-07	8.8145e-07	270.28	77.451	58.444	17.716	9.1849e-07	24.63	111.866	135.233	13.881	-154.484	-57.275	-14.104	-154.974	-147.648	-73.200	-73.530	-147.681	-141.675	-141.535	-133.926	-55.944	-134.299	-8191	255	
1051.495	1	1	0	0	0.024176	0.15805	0.19961	0.31644	0.13418	0.14419	0.13312	0.05886	0.22132	0.16089	0.12667	0.0712	0.1509	0.065402	0.15546	0.24168	-2.9729	-3.0208	-3.0792	-3.4083	-2.8396	-3.2938	-3.2458	-3.0521	-3.3521	-2.9188	-3.2458	-3.2583	-2.9979	-3.2417	-3.2208	-3.1271	69.388	86.119	129.480	-161.050	94.073	-87.836	129.033	54.978	-98.201	-62.039	163.677	145.377	179.638	-95.215	-13.633	190.478	0.00069171	5.1523e-05	0.00011922	1213.9	2.2408e-06	2.0523e-06	1277.8	251.56	2.0079e-06	1.8732e-06	311.43	86.823	68.507	19.773	2.9216e-06	27.826	7.5738e-05	8.2954e-05	2.3369e-05	1105.6	8.2849e-07	9.1985e-07	1171.2	228.87	8.4075e-07	9.456e-07	270.15	77.508	58.604	17.888	9.2137e-07	24.714	114.247	-2.427	-56.020	-154.526	169.915	-57.115	-154.928	-147.655	-101.931	68.072	-147.777	-141.770	-140.989	-133.932	-20.594	-134.813	-8191	255	
1051.592	1	1	0	0	0.21728	0.13371	0.10805	0.14507	0.084053	0.18172	0.27987	0.17172	0.15795	0.079315	0.20055	0.17898	0.23376	0.19485	0.13411	0.42866	-2.8375	-2.9271	-3.0312	-3.525	-2.9792	-3.3438	-3.3292	-3.025	-3.1958	-2.9542	-3.0792	-3.4938	-2.8937	-3.0333	-3.3312	-3.0917	-43.234	163.459	63.164	163.382	71.464	43.712	89.161	123.888	63.459	89.320	193.470	133.563	-46.097	74.450	24.880	105.608	0.00085182	0.00015526	2.7836e-05	1214.3	1.2728e-06	1.1137e-06	1281	250.92	1.0069e-06	1.3995e-06	312.12	86.218	68.145	19.707	3.1537e-06	27.774	8.0621e-05	8.7733e-05	2.3245e-05	1106.2	8.872e-07	9.6568e-07	1168.9	228.91	8.9375e-07	9.7188e-07	270.54	77.177	58.746	17.845	9.1034e-07	24.687	104.306	-130.553	8.911	-154.559	-116.452	25.102	-154.933	-147.745	-117.561	43.635	-148.032	-141.886	-141.731	-133.975	-18.069	-134.640	-8191	255	
1051.688	1	1	0	0	0.21372	0.090449	0.044588	0.26643	0.052876	0.14832	0.31278	0.16773	0.27828	0.19075	0.17118	0.18144	0.033773	0.1351	0.19038	0.15208	-2.8854	-2.9188	-2.975	-3.4229	-2.9896	-3.3604	-3.3104	-3.2	-3.1729	-3.1937	-3.0771	-3.3708	-3.1229	-3.0438	-3.3104	-2.9521	-48.573	48.272	144.237	103.027	-51.952	193.052	115.093	148.372	-132.833	162.728	88.659	189.696	149.731	-149.928	188.931	134.752	0.00064794	2.9559e-05	5.2378e-05	1218.6	3.4833e-06	2.5208e-06	1277	249.73	3.0582e-06	1.8165e-06	311.89	86.791	68.041	19.74	1.5842e-06	27.707	8.6289e-05	8.843e-05	2.2936e-05	1107.9	9.3469e-07	9.6008e-07	1168.8	229	9.493e-07	9.5029e-07	270.41	77.399	58.862	17.831	8.9493e-07	24.616	113.144	14.013	14.882	-154.557	-61.492	18.242	-154.828	-147.531	-94.720	12.300	-148.041	-141.926	-141.468	-133.974	-41.351	-134.475	-8191	255	
1051.784	1	1	0	0	0.15784	0.1565	0.11765	0.073777	0.087693	0.28323	0.050786	0.21338	0.074219	0.098755	0.18189	0.24234	0.12033	0.35173	0.087375	0.20097	-2.8229	-3.2104	-2.875	-3.3396	-2.9375	-3.1833	-3.4229	-2.8187	-3.0187	-3.1146	-2.9458	-3.4021	-2.9917	-3.1188	-3.3167	-3.025	-101.183	177.766	147.477	-156.679	-92.088	-15.470	-101.052	107.046	112.034	-160.455	-87.174	144.525	187.378	-110.364	-71.779	-157.467	0.00078052	0.00014256	7.4722e-05	1215.6	2.3913e-06	2.4526e-06	1275.6	250.83	3.077e-07	2.5706e-06	310.87	86.697	68.179	19.675	3.858e-06	27.695	9.0026e-05	8.5752e-05	2.2735e-05	1107.5	9.8246e-07	9.332e-07	1170.4	228.8	9.8946e-07	9.2761e-07	270.05	77.407	58.917	17.79	8.6092e-07	24.672	113.392	-108.230	-64.190	-154.585	-106.408	-10.185	-154.764	-147.738	53.636	-43.625	-147.874	-141.740	-141.640	-133.798	-30.902	-134.321	-8191	255	
1051.880	1	1	0	0	0.13474	0.096176	0.075362	0.17481	0.1237	0.097529	0.22568	0.20228	0.16012	0.029354	0.1573	0.271	0.12005	0.12058	0.085442	0.19838	-2.8438	-3.1688	-2.8792	-3.3896	-3.1188	-2.9604	-3.5375	-3.0458	-3.1562	-3.2833	-2.9729	-3.3479	-3.2417	-3.1708	-3.4667	-2.9104	-38.144	57.066	145.163	-104.440	-64.409	-55.847	167.398	189.570	-68.611	117.418	100.889	107.334	190.949	43.703	-18.081	-13.726	0.00053571	0.00018521	9.3789e-05	1215.7	2.905e-06	1.8664e-06	1277.8	250.48	6.3627e-07	5.8081e-07	310.31	86.718	68.55	19.692	6.6674e-07	27.72	9.0944e-05	8.3245e-05	2.1757e-05	1108	9.7199e-07	8.8866e-07	1167.7	228.71	9.5141e-07	8.7485e-07	268.96	77.581	58.749	17.729	8.2078e-07	24.734	112.345	-119.071	-75.532	-154.650	-79.291	10.482	-154.772	-147.668	-24.472	-140.799	-147.907	-141.849	-140.974	-133.995	-127.127	-134.541	-8191	255	
1051.976	1	1	0	0	0.18977	0.034628	0.18037	0.072483	0.12213	0.04691	0.32939	0.22293	0.10171	0.040197	0.23874	0.063528	0.26411	0.098121	0.06243	0.20822	-2.8083	-3.3	-2.8833	-3.3875	-3.0833	-3.2062	-3.6188	-3.1854	-3.2354	-3.4771	-3.0833	-3.3292	-3.2167	-3.0583	-3.3875	-2.9771	39.131	172.189	-37.155	13.868	151.372	-140.588	96.389	185.399	-47.409	-45.574	177.017	85.560	125.143	-113.299	-10.959	-15.709	0.00049283	0.00013035	7.3751e-05	1217.5	1.8725e-06	2.2166e-06	1280.6	250.79	2.1932e-06	1.4763e-06	310.44	86.344	68.414	19.522	5.3486e-07	27.764	8.7511e-05	7.8308e-05	2.0871e-05	1108.6	9.3274e-07	8.7277e-07	1167.4	229.32	9.3719e-07	8.603e-07	269.09	77.655	58.748	17.693	8.4737e-07	24.861	126.751	-156.797	-28.417	-154.480	-104.293	19.629	-154.951	-147.519	-16.294	29.131	-147.660	-142.010	-141.413	-133.751	-18.973	-134.402	-8191	255	
1052.072	1	1	0	0	0.19686	0.17626	0.2508	0.45319	0.26556	0.31812	0.18487	0.048235	0.065524	0.20572	0.084814	0.088657	0.088778	0.15528	0.036741	0.078299	-2.6188	-3.2896	-2.975	-3.4271	-3.2792	-3.075	-3.3937	-3.1188	-3.0729	-3.3042	-3.0979	-3.3896	-3.3	-3.1292	-3.3125	-3.1688	92.645	51.454	179.500	184.810	-4.278	32.326	14.187	-17.750	-66.928	65.395	138.614	-71.963	-129.060	-82.326	193.651	93.407	0.0008226	5.4081e-05	4.3876e-05	1218.2	1.5411e-06	1.4819e-06	1272.4	251.02	3.3347e-06	1.6026e-06	310.23	86.727	68.296	19.569	2.8602e-06	27.76	8.6802e-05	7.8206e-05	2.1575e-05	1107.9	9.039e-07	8.4987e-07	1166.4	229.54	9.0627e-07	8.2945e-07	269.71	77.831	58.689	17.687	8.8456e-07	24.758	91.886	-4.137	-86.286	-154.508	70.715	-44.324	-154.812	-147.500	14.048	-55.438	-147.730	-141.880	-141.335	-133.977	-119.326	-134.170	-8191	255	
1052.169	1	1	0	0	0.070872	0.21238	0.1563	0.16921	0.19105	0.113	0.10795	0.083597	0.22445	0.036674	0.10811	0.19636	0.264	0.096258	0.049443	0.099939	-2.675	-3.3312	-2.9708	-3.4708	-3.2292	-3.0271	-3.6208	-3.1958	-3.0792	-3.5208	-3.0104	-3.3583	-3.3729	-3.1271	-3.2313	-3.1375	-92.899	42.948	-157.767	190.220	-84.464	50.876	73.395	-134.420	-50.212	82.483	172.267	99.194	44.815	60.111	98.683	31.821	0.00060557	0.00017405	0.00011295	1219	2.9276e-06	5.4048e-07	1272.8	250.21	2.4923e-06	1.7937e-06	309.75	86.717	68.16	19.689	4.1803e-07	27.758	8.4862e-05	7.5664e-05	2.2989e-05	1108.4	8.819e-07	8.3611e-07	1167.3	229.12	8.8959e-07	8.1571e-07	269.97	77.602	58.548	17.661	9.3973e-07	24.78	102.945	-100.570	-165.360	-154.494	-69.427	169.927	-154.943	-147.961	-63.122	28.832	-147.892	-141.727	-141.561	-133.644	161.823	-134.683	-8191	255	
1052.287	1	1	0	0	0.076224	0.17641	0.099539	0.25496	0.27391	0.30671	0.20306	0.21994	0.25041	0.17288	0.058253	0.38242	0.11487	0.31349	0.080281	0.1254	-2.6479	-3.4771	-2.9896	-3.3083	-3.2812	-2.9688	-3.3125	-3.225	-3.0917	-3.4313	-2.9542	-3.1396	-3.4396	-3.0271	-3.4771	-3.3063	76.010	48.555	85.668	162.980	-88.719	-34.838	160.661	154.774	41.213	2.084	154.151	-123.294	-99.386	147.458	157.852	38.144	0.00076027	4.2177e-05	2.6723e-05	1215	2.5273e-06	1.7877e-06	1275	250.22	3.1071e-06	1.0129e-06	310.56	86.198	67.978	19.602	2.0582e-06	27.854	8.241e-05	7.5031e-05	2.393e-05	1106.7	8.5438e-07	8.2354e-07	1168	228.82	8.5455e-07	8.2409e-07	270.72	77.361	58.185	17.664	9.3807e-07	24.695	109.657	81.776	-36.014	-154.223	-65.163	-110.897	-154.903	-147.424	-71.831	-90.418	-148.034	-141.813	-141.500	-133.784	-120.265	-134.643	-8191	255	
1052.384	1	1	0	0	0.024904	0.050731	0.3109	0.17805	0.19314	0.046083	0.17938	0.13011	0.24903	0.23541	0.18739	0.34471	0.011359	0.25562	0.20196	0.18349	-2.5729	-3.2396	-3.0187	-3.2313	-3.3917	-3.0792	-3.4542	-3.2229	-2.8312	-3.4271	-3.4062	-3.1083	-3.5479	-3.0542	-3.0292	-3.2833	147.647	89.924	-24.108	101.082	119.036	0.957	146.833	107.788	-42.936	2.551	1.760	-126.080	44.279	153.637	164.639	157.819	0.00068423	0.00011388	3.6332e-05	1213.6	2.9413e-06	1.9705e-06	1273.8	250.81	2.1537e-06	2.2769e-06	312.48	86.793	67.983	19.61	1.2926e-06	27.501	7.96e-05	7.748e-05	2.3864e-05	1105.3	8.2523e-07	8.6993e-07	1167	228.64	8.2905e-07	8.7569e-07	270.44	77.497	58.123	17.722	9.4046e-07	24.583	106.599	-84.539	-108.122	-154.631	22.666	-27.908	-154.600	-147.953	-83.009	-30.322	-147.813	-141.477	-141.195	-133.936	-41.161	-134.659	-8191	255	
1052.480	1	1	0	0	0.17852	0.15128	0.039867	0.19163	0.11338	0.1127	0.22714	0.14888	0.32624	0.23552	0.24825	0.53676	0.37844	0.23283	0.16792	0.29111	-2.7604	-3.3854	-3.1479	-3.1604	-3.4583	-3.1833	-3.175	-3.3958	-3.0271	-3.3937	-3.1146	-3.1562	-3.5646	-3.0812	-3.1521	-3.4146	173.147	173.644	-67.042	111.385	106.383	29.608	114.782	149.329	110.369	17.899	171.223	148.755	176.219	163.007	5.588	-160.231	0.00056339	0.00038159	3.3936e-05	1215	2.9879e-06	3.2902e-06	1273.7	250	6.4626e-07	1.6903e-06	310.99	86.602	68.037	19.642	2.4044e-06	27.832	7.7112e-05	8.2224e-05	2.3794e-05	1105.3	8.2532e-07	9.3447e-07	1166.9	228.49	8.4162e-07	9.3913e-07	270.05	77.43	58.324	17.808	9.2921e-07	24.696	116.645	-113.308	-59.592	-154.684	-88.306	-40.509	-154.847	-147.565	63.510	13.115	-147.672	-141.962	-141.205	-133.958	-26.968	-134.112	-8191	255	
1052.576	1	1	0	0	0.043881	0.22963	0.05819	0.10878	0.16278	0.21249	0.13571	0.21869	0.11607	0.095782	0.10053	0.15274	0.13805	0.18355	0.18668	0.12732	-2.5042	-3.3083	-3.1188	-3.1479	-3.4	-3.1354	-3.2667	-3.7	-2.9521	-3.2521	-3.1833	-2.9021	-3.4479	-3.0708	-3.1375	-3.4229	-103.329	-76.940	80.459	189.329	163.000	147.432	147.557	104.605	188.071	79.675	-13.349	-137.314	53.888	92.760	29.849	-93.161	0.00081661	0.00013688	2.5076e-05	1214	1.0081e-06	6.8802e-08	1274.8	250.64	1.6537e-06	1.7584e-06	310.1	86.596	67.875	19.581	1.0611e-06	27.632	8.0398e-05	8.6904e-05	2.317e-05	1104.2	8.5886e-07	9.5811e-07	1167.1	228.46	8.8182e-07	9.757e-07	270.18	77.378	58.493	17.811	9.1552e-07	24.558	105.299	144.065	-142.499	-154.432	113.697	-134.377	-154.838	-147.707	-113.003	45.456	-147.871	-141.855	-141.492	-134.004	-65.266	-134.423	-8191	255	
1052.672	1	1	0	0	0.20145	0.066525	0.12997	0.26214	0.062361	0.090232	0.33572	0.20739	0.093632	0.31602	0.23515	0.22443	0.20618	0.021044	0.077296	0.23552	-2.5187	-3.0687	-3.275	-3.0062	-3.4437	-3.1937	-3.3417	-3.5354	-3.1479	-3.4271	-3.3646	-2.8646	-3.1813	-3.1125	-3.175	-3.5062	112.261	96.074	25.760	175.437	97.576	-72.843	112.392	-144.335	35.180	29.437	96.184	144.101	160.553	147.638	103.255	132.015	0.00073422	0.00023281	3.6693e-05	1213.2	5.399e-06	8.1999e-07	1275.6	249.51	8.3475e-07	2.4172e-06	312.5	86.092	67.984	19.603	9.5187e-07	27.633	8.5258e-05	8.6657e-05	2.2398e-05	1102.4	9.0899e-07	9.402e-07	1165.2	228.19	9.1467e-07	9.2682e-07	269.67	77.103	58.619	17.748	8.6325e-07	24.518	99.616	-99.864	-25.982	-154.643	-90.971	75.524	-154.829	-147.460	-142.223	17.091	-148.104	-141.801	-141.328	-134.064	-74.603	-134.707	-8191	255	
1052.768	1	1	0	0	0.061812	0.17066	0.20939	0.13165	0.18401	0.27289	0.24853	0.14258	0.0979	0.017753	0.25365	0.1112	0.20297	0.10241	0.046452	0.083266	-2.7104	-3.2	-3.2125	-3.2229	-3.3521	-3.3271	-3.2083	-3.575	-3.1583	-3.3417	-3.4979	-3.0125	-3.3688	-3.1917	-2.9896	-3.45	-107.679	-16.326	-40.210	-131.099	-109.794	-164.207	145.477	68.095	-15.084	22.138	102.026	-29.816	-159.783	-23.182	-74.004	175.466	0.00078099	0.00024913	6.6813e-05	1214.3	2.0102e-06	8.4445e-07	1273.3	250.12	9.7046e-07	2.8845e-06	310.73	86.335	67.76	19.547	2.9617e-06	27.417	8.6531e-05	8.3376e-05	2.1383e-05	1103.3	9.2922e-07	8.9043e-07	1162.9	228.2	9.279e-07	8.8838e-07	268.57	77.163	58.563	17.7	8.4702e-07	24.503	116.487	-107.117	-19.305	-154.693	-101.026	-22.232	-154.646	-147.682	-72.842	16.517	-147.767	-141.505	-141.401	-134.058	-90.720	-134.600	-8191	255	
1052.889	1	1	0	0	0.18243	0.2108	0.22324	0.0822	0.084784	0.20206	0.15203	0.10495	0.21635	0.11478	0.17027	0.19177	0.10597	0.10761	0.16381	0.11029	-2.6479	-3.1271	-3.3333	-3.0667	-3.3063	-3.2188	-3.2104	-3.5438	-3.2396	-3.0354	-3.5917	-3.2104	-3.2208	-3.375	-2.8896	-3.3083	176.609	-31.955	148.797	-144.631	52.324	-158.493	54.059	-81.087	157.258	168.601	164.065	119.515	-149.937	21.777	121.364	72.160	0.00057849	0.00025378	6.2088e-05	1213.2	2.3766e-07	9.2743e-07	1273	249.72	7.7298e-07	1.7717e-06	311.06	86.845	68.001	19.583	1.287e-06	27.6	8.9085e-05	8.1155e-05	2.1161e-05	1103.4	9.6526e-07	8.8891e-07	1164.9	228.47	9.5044e-07	8.7403e-07	268.52	77.604	58.746	17.687	8.3733e-07	24.71	103.745	-113.523	-127.937	-154.535	51.738	-11.495	-154.803	-147.601	-98.268	25.964	-147.679	-141.874	-141.325	-133.871	-85.193	-134.141	-8191	255	
1052.983	1	1	0	0	0.13524	0.19893	0.1839	0.3173	0.11785	0.23968	0.23371	0.17587	0.23129	0.27891	0.10269	0.16835	0.18594	0.21384	0.24492	0.024858	-2.6458	-3.0021	-3.4896	-3.1063	-3.3104	-3.1042	-3.1437	-3.3479	-3.1229	-2.9854	-3.4125	-3.2292	-3.1729	-3.4188	-3.0521	-3.2625	158.367	-154.987	120.007	148.614	81.620	135.573	144.552	144.818	-11.819	-154.425	-107.532	188.936	-33.497	176.132	160.320	126.583	0.00077897	0.00030923	3.3723e-05	1211.1	4.4864e-06	1.8303e-06	1276	250.54	6.8772e-07	1.4343e-06	310.57	86.581	67.804	19.532	2.493e-06	27.728	8.7977e-05	8.0054e-05	2.0785e-05	1105.5	9.416e-07	8.5141e-07	1166.4	229.03	9.1894e-07	8.4758e-07	268.59	77.643	58.542	17.672	8.3659e-07	24.733	97.435	-138.705	107.974	-154.406	-31.067	-42.527	-154.754	-147.555	-27.645	-76.087	-147.762	-141.735	-141.335	-133.941	-74.921	-134.635	-8191	255	
1053.079	1	1	0	0	0.20814	0.18645	0.087798	0.2937	0.27912	0.12862	0.19459	0.22191	0.13168	0.060752	0.16717	0.21034	0.21176	0.21287	0.20168	0.15133	-2.7146	-2.9271	-3.3979	-3.0958	-3.2417	-3.5479	-3.1146	-3.2562	-3.2438	-2.9542	-3.425	-3.2667	-3.1813	-3.4062	-2.85	-3.2208	14.340	-123.250	1.658	177.159	148.999	-27.952	144.429	69.701	111.139	29.604	143.122	-160.015	131.249	186.119	48.729	55.572	0.00075422	0.00015134	4.8421e-05	1215.6	1.1005e-06	2.9679e-06	1276.4	250.56	3.3518e-06	3.4566e-06	311.77	86.726	67.801	19.629	1.5648e-06	27.687	8.4884e-05	7.7476e-05	2.1084e-05	1106.5	8.9442e-07	8.2752e-07	1166.4	228.92	8.8881e-07	8.2556e-07	269.25	77.693	58.356	17.674	8.6853e-07	24.711	105.085	-80.530	-99.159	-154.598	7.729	19.345	-154.925	-147.723	-66.411	46.266	-147.872	-141.627	-141.381	-133.790	-97.714	-134.281	-8191	255	
1053.175	1	1	0	0	0.17324	0.13177	0.21634	0.20107	0.36539	0.13543	0.14075	0.15284	0.14577	0.19693	0.040081	0.15912	0.071984	0.098378	0.19826	0.057366	-2.7	-2.8208	-3.3083	-3.2729	-3.0729	-3.2313	-3.1604	-3.3396	-3.2	-3.075	-3.425	-3.3438	-3.0187	-3.3667	-2.9896	-3.2	154.995	-159.561	106.727	110.703	-108.455	27.547	132.540	99.070	91.606	10.256	5.728	99.780	59.147	170.668	44.764	123.530	0.00073095	0.00023803	6.2413e-05	1211	2.4777e-06	1.7794e-06	1275.5	250.78	9.8798e-07	2.0174e-06	311.75	86.966	68.191	19.612	2.0803e-06	27.779	8.2228e-05	7.5429e-05	2.2245e-05	1104.8	8.9094e-07	8.0004e-07	1166.4	228.72	8.6272e-07	8.0721e-07	270.07	77.62	58.372	17.611	9.0667e-07	24.7	107.188	-86.222	-138.779	-154.509	-59.653	-34.456	-154.597	-147.647	-43.750	-12.174	-148.033	-141.617	-141.480	-133.976	-138.896	-134.266	-8191	255	
1053.272	1	1	0	0	0.14849	0.087752	0.13346	0.18608	0.23947	0.035125	0.35001	0.11299	0.045501	0.10544	0.059068	0.12893	0.18218	0.22931	0.097596	0.11026	-2.9167	-3.0187	-3.2833	-3.1354	-3.175	-3.3771	-3.1167	-3.275	-3.35	-2.9479	-3.2646	-3.2083	-2.8563	-3.3083	-3.1104	-3.2021	-150.188	-142.405	-151.573	192.722	131.273	134.434	98.100	-86.409	14.243	141.057	11.449	81.734	-153.016	33.791	106.524	-98.692	0.00082642	9.8657e-05	1.6301e-05	1210.4	1.593e-06	1.648e-06	1275.5	250.44	2.9715e-06	1.5184e-06	310.58	86.863	68.322	19.548	1.823e-06	27.774	8.065e-05	7.3453e-05	2.299e-05	1104.1	8.6118e-07	8.0372e-07	1166	228.61	8.3024e-07	8.1465e-07	269.85	77.391	58.375	17.591	9.2584e-07	24.617	119.680	-130.012	179.037	-154.540	-152.262	112.825	-154.809	-147.719	-67.263	3.334	-147.720	-141.698	-141.010	-133.930	-87.656	-134.462	-8191	255	
1053.368	1	1	0	0	0.14892	0.30197	0.16906	0.20824	0.10359	0.044741	0.12737	0.18273	0.11015	0.2094	0.18022	0.20259	0.23049	0.12769	0.1395	0.2458	-3.0062	-2.9333	-3.1854	-3.2229	-3.0583	-3.2812	-3.3563	-2.9854	-3.3812	-3.0021	-3.2479	-3.2687	-2.9542	-3.3833	-3.2562	-3.1396	-68.180	-131.863	160.892	109.373	93.388	-151.330	150.839	124.374	30.734	139.183	142.077	34.314	113.232	-108.961	77.941	147.863	0.00053898	7.5706e-05	3.5806e-05	1208.8	2.4927e-06	8.8172e-07	1278.4	249.26	1.0369e-06	1.5265e-06	311.15	86.813	67.966	19.743	1.4755e-06	27.616	7.6769e-05	7.5458e-05	2.3419e-05	1102.2	8.2156e-07	8.3065e-07	1166.5	227.95	8.0677e-07	8.5366e-07	270.26	77.358	58.095	17.733	9.2742e-07	24.608	102.832	-40.679	-146.000	-154.434	10.872	-133.203	-154.709	-147.815	-15.141	15.555	-147.883	-141.455	-141.569	-133.952	-48.161	-134.285	-8191	255	
1053.464	1	1	0	0	0.15827	0.09646	0.12129	0.20623	0.12107	0.052165	0.32951	0.13882	0.078901	0.24376	0.029173	0.12545	0.13459	0.31062	0.027183	0.10222	-2.8937	-2.8312	-3.0667	-3.5646	-2.9188	-3.3458	-3.2188	-3.1604	-3.3417	-3.0625	-3.3708	-3.2396	-2.9208	-3.5146	-3.0938	-2.8083	-77.383	-75.827	-31.415	156.212	142.129	23.805	177.866	-79.579	-30.177	90.091	77.666	-132.166	-151.460	167.869	-131.763	151.621	0.00081731	0.00010069	6.9667e-05	1208.4	2.4971e-06	1.0958e-06	1273	249.25	2.5031e-06	1.7432e-06	310.8	86.751	68.146	19.625	6.8471e-07	27.518	7.6495e-05	8.1926e-05	2.3216e-05	1101.9	8.2827e-07	8.9644e-07	1163.9	227.7	8.2032e-07	9.2248e-07	269.54	77.221	58.349	17.776	9.1162e-07	24.587	103.129	153.827	-110.287	-154.528	-26.035	-88.125	-154.524	-147.760	-31.620	-157.953	-148.043	-141.666	-141.589	-134.063	-135.675	-134.234	-8191	255	
1053.585	1	1	0	0	0.23461	0.14207	0.1256	0.20556	0.08127	0.30645	0.23364	0.27396	0.12304	0.088693	0.17212	0.09236	0.14312	0.17372	0.15019	0.16877	-2.9062	-3.0938	-3.0354	-3.4104	-2.8479	-3.0687	-3.2313	-2.9604	-3.2958	-3.1688	-3.125	-3.2833	-2.8604	-3.2667	-3.1417	-2.9958	144.724	-9.366	188.205	-165.277	96.017	-120.198	131.226	147.218	161.199	34.857	-159.133	168.303	127.356	188.356	54.843	75.124	0.00079462	0.00025519	6.2138e-05	1207.8	1.4631e-06	1.5541e-06	1274.1	250.63	1.4591e-06	2.1113e-06	310.58	86.812	67.617	19.648	3.9433e-07	27.781	7.8607e-05	8.5839e-05	2.3054e-05	1101.6	8.6583e-07	9.5363e-07	1166.3	228.54	8.6935e-07	9.7087e-07	269.8	77.35	58.471	17.847	8.9892e-07	24.65	106.369	-162.441	-61.464	-154.421	36.031	36.347	-154.796	-147.764	-148.396	-136.809	-148.085	-141.568	-141.438	-134.087	-92.209	-134.337	-8191	255	
1053.681	1	1	0	0	0.11264	0.026726	0.25341	0.068294	0.074347	0.10591	0.3058	0.093267	0.20482	0.33948	0.10419	0.20757	0.15987	0.43285	0.33059	0.16067	-2.9875	-2.9875	-3.0458	-3.5896	-2.8729	-3.1312	-3.4	-3.0333	-3.3979	-3.1625	-3.0854	-3.5229	-2.8917	-3.0604	-3.1688	-3.0583	-106.173	46.709	33.799	130.536	17.741	161.283	110.500	76.183	84.554	109.815	128.333	161.275	68.999	189.723	49.876	13.070	0.00080454	0.00026252	1.4739e-05	1212.5	2.8459e-06	6.841e-07	1271.1	250.62	2.2145e-06	2.0832e-06	311.2	86.471	67.724	19.534	3.8629e-06	27.731	8.2766e-05	8.7049e-05	2.2679e-05	1101.1	9.0839e-07	9.4688e-07	1163.6	228.15	9.1147e-07	9.3583e-07	269.69	77.123	58.618	17.738	8.6502e-07	24.573	105.037	-23.215	134.218	-154.490	-67.632	5.323	-154.711	-147.595	-100.674	-37.752	-147.735	-141.670	-141.540	-133.931	-0.083	-134.436	-8191	255	
1053.777	1	1	0	0	0.14213	0.13287	0.075328	0.07128	0.20009	0.2694	0.35487	0.21157	0.14845	0.19585	0.14987	0.049963	0.090511	0.11343	0.052662	0.22385	-2.8063	-3.1813	-3.0021	-3.4188	-3	-3.0021	-3.4667	-2.8771	-3.3271	-2.975	-3.0958	-3.4583	-2.9938	-3.025	-3.3458	-2.8729	-163.313	68.016	-95.303	136.210	89.621	62.165	168.313	147.127	162.020	177.030	113.145	39.735	137.778	151.859	158.557	93.126	0.00067988	0.00013597	7.3916e-05	1210.4	3.5609e-06	1.3301e-06	1273.6	248.78	2.2227e-06	7.75e-07	309.49	86.776	68.109	19.64	1.9503e-06	27.428	8.5991e-05	8.2813e-05	2.1639e-05	1100.4	9.235e-07	8.9437e-07	1163.3	227.74	9.2361e-07	8.8314e-07	268.75	77.177	58.56	17.71	8.2797e-07	24.556	109.602	188.728	-33.537	-154.504	-18.524	-20.245	-154.821	-147.797	-76.765	88.640	-148.013	-141.747	-141.529	-134.074	-40.965	-134.755	-8191	255	
1053.849	1	1	0	0	0.036387	0.19231	0.060158	0.15654	0.33488	0.21579	0.051079	0.23838	0.12637	0.046492	0.11757	0.22623	0.048518	0.13822	0.27771	0.20116	-2.9188	-3.0208	-3.1208	-3.4396	-3.2479	-3.1958	-3.3354	-2.9833	-3.1688	-3.3208	-2.8271	-3.25	-3.1083	-3.1271	-3.5	-3.0229	-109.627	-98.376	-155.839	187.938	87.361	41.005	66.791	88.552	-110.661	42.599	191.472	188.745	125.787	-118.507	-136.564	-131.558	0.00071022	0.00027493	4.2288e-05	1208.5	4.3908e-06	5.2904e-07	1272.1	250.14	3.5278e-06	8.2669e-07	308.65	86.919	67.886	19.616	2.0047e-06	27.599	8.7548e-05	7.925e-05	2.1e-05	1100	9.2261e-07	8.6414e-07	1162.6	227.99	9.2542e-07	8.5231e-07	267.88	77.19	58.514	17.662	8.0513e-07	24.624	105.562	-71.415	-36.914	-154.641	-52.516	-40.383	-154.794	-147.828	-48.114	-31.971	-147.881	-141.817	-141.201	-134.139	12.816	-134.740	-8191	255	
1053.969	1	1	0	0	0.072516	0.13766	0.14228	0.18274	0.010798	0.14492	0.13349	0.11994	0.25492	0.21163	0.20756	0.21919	0.038735	0.31035	0.15125	0.063398	-2.7167	-3.0604	-2.975	-3.4917	-2.9021	-2.9479	-3.4042	-3.0625	-3.1208	-3.1979	-3.0479	-3.3854	-3.0896	-3.1542	-3.2417	-3.0958	140.365	97.336	-38.980	164.404	-122.256	44.701	-116.042	109.341	-115.697	13.307	-10.221	134.889	80.331	-44.367	14.979	68.136	0.00055155	0.00033282	4.2786e-05	1209	1.3104e-06	2.8121e-06	1270.7	249.06	2.8724e-07	1.1344e-06	310.8	85.998	68.059	19.646	3.4035e-06	27.416	8.5374e-05	7.7852e-05	2.0504e-05	1101.6	9.3023e-07	8.6517e-07	1161.9	228.28	9.3522e-07	8.5935e-07	268.39	77.397	58.579	17.675	8.2808e-07	24.699	94.016	-98.458	-80.862	-154.629	-47.342	-49.382	-154.709	-147.829	-19.550	40.338	-148.154	-141.677	-141.542	-133.952	-31.282	-134.278	-8191	255	
1054.065	1	1	0	0	0.033155	0.1401	0.25284	0.092299	0.093997	0.074936	0.099987	0.37419	0.11195	0.12967	0.18404	0.21834	0.081139	0.068177	0.18232	0.16331	-2.625	-3.4	-2.8792	-3.4854	-3.3646	-3.0687	-3.3187	-3.1229	-3.2271	-3.3229	-2.9021	-3.2792	-3.4229	-2.9875	-3.4875	-3.1521	-2.919	-0.706	-99.871	-156.961	-122.287	181.955	115.657	185.795	-100.992	-142.095	114.767	56.577	116.278	-163.143	14.672	135.037	0.00076325	0.00032554	2.5536e-05	1207.4	1.7167e-06	2.027e-06	1271	249.38	4.4483e-07	1.7965e-06	312.08	86.356	67.682	19.625	1.855e-06	27.424	8.7221e-05	7.8544e-05	2.1484e-05	1102.4	9.2284e-07	8.4979e-07	1161.5	228.65	9.1399e-07	8.4633e-07	269.19	77.368	58.399	17.692	8.7783e-07	24.725	116.794	-33.177	-136.047	-154.615	-65.259	21.323	-154.836	-147.832	8.584	-0.939	-147.728	-141.687	-141.544	-133.829	-61.554	-134.357	-8191	255	
1054.160	1	1	0	0	0.05792	0.15717	0.13046	0.19832	0.081566	0.28528	0.056909	0.24788	0.21749	0.37206	0.34937	0.37128	0.15338	0.056498	0.22601	0.073199	-2.6854	-3.3125	-2.9042	-3.325	-3.2146	-2.7979	-3.5479	-3.05	-3.0438	-3.4875	-2.9958	-3.1021	-3.2062	-2.9042	-3.2833	-3.1354	-2.538	-75.088	-140.897	163.438	-124.850	24.236	153.994	84.461	-131.205	-10.940	-165.233	165.327	178.271	-126.314	-150.771	-4.061	0.00066134	0.00017687	2.8859e-05	1209.6	3.9594e-06	1.4475e-06	1271.9	249.78	1.6523e-06	2.0044e-06	311.37	86.275	67.834	19.491	2.9629e-06	27.842	8.524e-05	7.7603e-05	2.2995e-05	1102.6	9.2519e-07	8.631e-07	1164	229.09	9.4608e-07	8.6433e-07	270.52	77.594	58.638	17.726	9.903e-07	24.885	100.564	-124.250	92.177	-154.619	-63.103	-20.362	-154.856	-147.780	-71.148	-14.464	-147.647	-141.646	-141.530	-134.049	-84.810	-134.615	-8191	255	
1054.256	1	1	0	0	0.1986	0.05943	0.21818	0.16815	0.084851	0.32658	0.11811	0.17288	0.25064	0.097681	0.23339	0.10977	0.31077	0.078062	0.13829	0.010392	-2.5875	-3.2042	-3.1229	-3.1271	-3.1667	-3	-3.2917	-3.2542	-3.1729	-3.4625	-3.2542	-3.3708	-3.3479	-3.075	-3.3583	-3.1937	-42.699	158.255	192.776	192.754	-116.844	-112.432	-61.207	-152.258	-95.329	145.614	142.546	189.639	-164.677	-48.604	-95.819	131.068	0.00060807	0.0001604	4.8125e-05	1210.2	4.6227e-06	2.688e-06	1271.2	250.44	3.4499e-06	5.8363e-07	310.31	86.917	68.053	19.623	1.6918e-06	27.702	9.0795e-05	8.1568e-05	2.6052e-05	1105.4	9.5995e-07	9.1947e-07	1169.5	229.23	9.7885e-07	9.2086e-07	271.38	78.065	58.736	17.783	1.0739e-06	24.912	107.926	-142.427	67.800	-154.427	-61.420	-22.271	-154.788	-147.518	-6.856	-115.287	-148.029	-141.895	-141.436	-133.902	-103.187	-134.762	-8191	255	
1054.376	1	1	0	0	0.23075	0.090903	0.1437	0.35184	0.14428	0.17281	0.11219	0.23698	0.15535	0.04484	0.13405	0.28747	0.19187	0.23846	0.083304	0.34653	-2.5021	-3.3646	-3.15	-3.2521	-3.2417	-2.6937	-3.4958	-3.1771	-2.8125	-3.3771	-3.0479	-3.0417	-3.3896	-2.9875	-3.3833	-3.2979	-131.519	67.296	166.397	115.930	-111.753	163.233	-44.689	177.235	-113.585	-112.031	-81.985	131.256	-45.526	174.274	98.428	120.732	0.00070457	0.00026985	8.3661e-06	1211.5	1.9291e-06	9.8313e-07	1269.9	251.73	1.568e-06	3.3625e-06	309.96	85.994	67.722	19.67	8.673e-07	27.74	9.2036e-05	8.8845e-05	2.7937e-05	1107.6	9.7513e-07	1.0072e-06	1170.2	229.97	9.8896e-07	1.0153e-06	272.53	77.931	58.745	17.923	1.1223e-06	24.937	111.406	-137.627	155.198	-154.573	1.624	-50.982	-154.676	-147.911	-48.193	-90.856	-147.845	-141.747	-141.489	-134.162	-67.609	-134.755	-8191	255	
1054.448	1	1	0	0	0.073503	0.10139	0.18606	0.31793	0.10955	0.10603	0.15934	0.10554	0.16681	0.07043	0.23393	0.092801	0.11484	0.21121	0.24164	0.26972	-2.4146	-3.2917	-2.9208	-3.2958	-3.3646	-2.8458	-3.075	-3.4	-2.975	-3.3292	-3.1396	-2.9042	-3.1958	-2.8979	-3.0229	-3.325	56.074	47.830	-136.924	130.275	79.508	-129.151	182.760	139.103	176.212	81.456	46.062	-48.835	-89.204	142.920	171.768	99.887	0.00066764	0.00015206	5.1752e-05	1214.3	2.5289e-06	1.1682e-06	1271.8	250.73	1.7906e-06	2.2395e-06	311.24	86.369	67.947	19.547	3.4722e-06	27.793	9.2766e-05	9.6762e-05	2.8323e-05	1108.1	9.8037e-07	1.0971e-06	1171.6	230.23	1.0064e-06	1.1132e-06	272.75	78.113	59.088	18.045	1.1522e-06	25.05	97.282	-151.405	-10.502	-154.453	-58.499	-14.786	-154.836	-147.725	-81.613	-33.343	-147.837	-141.667	-141.408	-133.670	-91.324	-134.289	-8191	255	
1054.569	1	1	0	0	0.26221	0.18922	0.24192	0.26093	0.16093	0.050227	0.33337	0.10935	0.056065	0.17402	0.31095	0.11105	0.13962	0.032718	0.1762	0.13405	-2.3563	-3.3729	-3.3458	-3.2292	-3.3083	-2.9958	-3.3125	-3.3021	-2.9	-3.3271	-3.3104	-3.0812	-3.0812	-3.0583	-3.0812	-3.3688	-65.848	-67.781	22.692	151.655	157.463	59.766	69.319	161.984	102.823	72.281	-108.934	135.195	12.772	14.366	190.442	-153.899	0.00069893	0.00030663	6.6559e-05	1217.9	3.9776e-06	1.8431e-06	1279.8	251.72	2.1539e-06	1.5796e-06	312.77	86.945	68.095	19.617	7.0824e-08	27.931	9.7783e-05	0.00010706	2.908e-05	1113.7	1.0559e-06	1.178e-06	1174.6	230.88	1.0908e-06	1.1831e-06	273.06	78.345	59.361	18.079	1.1174e-06	24.983	106.227	-96.927	7.159	-154.410	-82.484	-104.700	-154.843	-147.643	-65.206	-29.139	-147.723	-141.999	-141.844	-134.111	-137.584	-134.314	-8191	255	
1054.665	1	1	0	0	0.15577	0.057887	0.16571	0.047681	0.11209	0.040969	0.25214	0.23809	0.15175	0.19819	0.30247	0.059671	0.1206	0.20569	0.20197	0.21148	-2.5812	-3.0563	-3.1354	-3.1646	-3.3771	-2.9688	-3.3271	-3.5187	-3.1229	-3.1479	-3.2542	-3.1437	-3.3167	-3.0354	-2.9667	-3.2896	153.778	72.775	190.881	95.188	-14.078	171.072	122.327	-16.302	-135.937	159.362	123.671	38.576	19.407	150.580	-78.114	62.383	0.00069921	0.00015841	6.1734e-05	1218.9	3.3053e-06	1.7721e-06	1283.4	250.88	1.5048e-06	4.7674e-07	311.69	87.232	68.355	19.604	3.5099e-06	27.806	0.00010089	0.00010656	2.7714e-05	1111.1	1.0836e-06	1.1449e-06	1172.9	229.98	1.0973e-06	1.1346e-06	272.33	78.08	59.347	17.969	1.0547e-06	24.783	108.085	-10.045	14.607	-154.487	-39.861	-30.477	-154.870	-147.821	-117.620	-164.469	-147.855	-141.514	-141.410	-133.967	-77.720	-134.459	-8191	255	
1054.761	1	1	0	0	0.24211	0.1678	0.083557	0.28976	0.038623	0.12969	0.15283	0.17838	0.087931	0.14429	0.094061	0.10798	0.11374	0.097308	0.091517	0.24918	-2.6208	-3.1208	-3.1937	-3.1833	-3.2562	-3.0604	-3.0792	-3.3521	-2.9875	-3.1333	-3.2083	-3.0625	-3.3042	-3.2042	-3.05	-3.4792	81.144	-163.766	15.680	136.313	116.127	156.500	147.047	178.969	160.419	134.317	-53.400	-111.889	-159.142	-143.428	-144.123	95.071	0.00081024	0.0002326	6.1909e-05	1213.8	2.5649e-06	2.2636e-06	1275.5	251.61	1.5101e-06	2.111e-06	310.43	86.826	68.514	19.703	3.8492e-06	27.748	0.00010221	9.8623e-05	2.5564e-05	1106.7	1.0804e-06	1.0563e-06	1167.8	229.4	1.0892e-06	1.0367e-06	270.66	77.834	59.414	17.865	9.6951e-07	24.761	98.781	4.866	-82.462	-154.593	-43.630	-68.961	-154.900	-147.753	-137.901	29.440	-147.819	-141.754	-141.375	-133.886	6.569	-134.322	-8191	255	
1054.857	1	1	0	0	0.043928	0.0091778	0.15174	0.31725	0.26144	0.24556	0.22168	0.23409	0.23012	0.11338	0.19073	0.075615	0.19334	0.18068	0.083546	0.17128	-2.6021	-3.1208	-3.2625	-2.9875	-3.225	-3.1042	-3.2375	-3.3396	-3.0417	-3.1083	-3.3917	-3.1229	-3.175	-3.3458	-2.9917	-3.3583	-57.570	-136.634	146.928	135.610	33.009	120.809	140.259	145.402	-129.715	-37.914	150.482	151.633	188.426	-55.408	-92.516	137.132	0.00071062	8.154e-05	4.8275e-05	1209.5	2.5556e-06	2.6489e-06	1271.6	249.69	9.125e-07	1.6738e-07	311.38	86.813	67.739	19.662	2.0821e-06	27.791	9.9149e-05	9.1539e-05	2.3911e-05	1102.2	1.0671e-06	9.8604e-07	1163.9	228.88	1.0842e-06	1.0057e-06	270.19	77.671	59.016	17.833	9.3943e-07	24.891	101.248	-69.024	-85.678	-154.417	-46.620	-25.008	-154.833	-147.565	-9.187	-53.047	-147.775	-141.388	-141.458	-134.106	32.772	-134.412	-8191	255	
1054.978	1	1	0	0	0.298	0.046458	0.25782	0.21337	0.16613	0.20751	0.094462	0.30855	0.23092	0.16324	0.07782	0.41067	0.14993	0.15758	0.35635	0.11284	-2.7938	-2.8396	-3.4458	-3.1771	-3.0583	-3.1229	-3.1021	-3.3229	-3.0375	-3.1667	-3.3583	-3.1417	-3.0917	-3.4229	-2.925	-3.3146	154.271	15.276	17.393	162.485	194.095	-86.653	95.928	90.077	-130.285	22.626	73.351	143.224	-85.762	-67.804	102.038	-110.182	0.00078436	9.0038e-05	0.00012151	1213.1	2.7998e-07	2.1403e-06	1273.1	251.45	2.3834e-06	7.4186e-07	312.27	87.03	67.953	19.658	4.2964e-06	27.618	0.00010074	9.0571e-05	2.3731e-05	1104.7	1.0645e-06	9.8294e-07	1163.2	229.63	1.0619e-06	9.9266e-07	270.12	78.069	59.148	17.836	9.4536e-07	24.891	116.465	-69.587	-80.675	-154.325	50.490	-25.395	-154.732	-147.291	-90.502	-8.797	-147.520	-141.506	-141.812	-133.898	-108.948	-134.345	-8191	255	
1055.050	1	1	0	0	0.1281	0.13036	0.085414	0.16897	0.22407	0.050337	0.12736	0.14343	0.20949	0.054438	0.13873	0.054264	0.12577	0.22744	0.18606	0.22981	-2.7396	-2.8771	-3.2854	-3.1625	-3.2625	-3.2729	-3.125	-3.3646	-3.1958	-2.8937	-3.4958	-2.9167	-3.1333	-3.35	-2.9833	-3.4062	-84.759	22.112	131.124	120.498	105.077	14.044	-147.058	-150.689	-42.218	-123.689	143.277	126.129	-131.176	-0.336	-80.465	-111.262	0.00077186	0.00018178	5.422e-05	1206.1	1.2506e-07	1.1853e-06	1273.1	250.92	1.7319e-07	1.6978e-06	310.38	86.43	68.255	19.744	1.402e-06	27.85	9.7203e-05	8.94e-05	2.3643e-05	1102.9	1.0237e-06	9.46e-07	1163.6	229.72	1.0015e-06	9.4091e-07	269.74	77.846	58.779	17.766	9.4069e-07	24.855	108.681	-32.049	-90.770	-154.523	-57.865	-30.855	-154.666	-147.477	167.314	-90.018	-148.068	-141.564	-141.351	-133.817	-85.171	-134.185	-8191	255	
#DATA ENDS
