BOXY.EXE: ISS Imagent and Oximeter Data Acquisition Program Version 0.80
Ascii Record File

#ACQ INFORMATION
2  Detector Channels 
16  External MUX Channels 
1  Auxiliary Channels 
5000  Waveform (CCF) Frequency (Hz)
1  Waveforms Skipped 
30  Waveforms Averaged 
1  Cycles Averaged 
16  Acquisitions per Waveform 
10.0806  Updata Rate (Hz) 

#FILE INFORMATION
TRUE -- External MUX Channel results are PARSED.
FALSE -- AC DC and Phase are NOT grouped.
TRUE -- Companion Program Settings File CREATED.
FALSE -- AC data not excluded
FALSE -- DC data not excluded
FALSE -- Phase data not excluded
FALSE -- Auxillary Chn. data not excluded
Tab delimiters

#CALIBRATION STATE
TRUE -- Waveform Calibration Values APPLIED.


#AUX CALIBRATION VALUES
Val Type	aux-1	

Term	1.0000e+00	
Factor	0.0000e+00	


#WF CALIBRATION VALUES
A = Detector Channel
Val Type	A-AC1	A-AC2	A-AC3	A-AC4	A-AC5	A-AC6	A-AC7	A-AC8	A-AC9	A-AC10	A-AC11	A-AC12	A-AC13	A-AC14	A-AC15	A-AC16	A-DC1	A-DC2	A-DC3	A-DC4	A-DC5	A-DC6	A-DC7	A-DC8	A-DC9	A-DC10	A-DC11	A-DC12	A-DC13	A-DC14	A-DC15	A-DC16	A-Ph1	A-Ph2	A-Ph3	A-Ph4	A-Ph5	A-Ph6	A-Ph7	A-Ph8	A-Ph9	A-Ph10	A-Ph11	A-Ph12	A-Ph13	A-Ph14	A-Ph15	A-Ph16	

Term	0.00000e+00	0.00000e+00	0.00000e+00	0.00000e+00	0.00000e+00	0.00000e+00	0.00000e+00	0.00000e+00	0.00000e+00	0.00000e+00	0.00000e+00	0.00000e+00	0.00000e+00	0.00000e+00	0.00000e+00	0.00000e+00	0.00000e+00	0.00000e+00	0.00000e+00	0.00000e+00	0.00000e+00	0.00000e+00	0.00000e+00	0.00000e+00	0.00000e+00	0.00000e+00	0.00000e+00	0.00000e+00	0.00000e+00	0.00000e+00	0.00000e+00	0.00000e+00	0.00000e+00	0.00000e+00	0.00000e+00	0.00000e+00	0.00000e+00	0.00000e+00	0.00000e+00	0.00000e+00	0.00000e+00	0.00000e+00	0.00000e+00	0.00000e+00	0.00000e+00	0.00000e+00	0.00000e+00	0.00000e+00	
Factor	1.00000e+00	1.00000e+00	1.00000e+00	1.00000e+00	1.00000e+00	1.00000e+00	1.00000e+00	1.00000e+00	1.00000e+00	1.00000e+00	1.00000e+00	1.00000e+00	1.00000e+00	1.00000e+00	1.00000e+00	1.00000e+00	1.00000e+00	1.00000e+00	1.00000e+00	1.00000e+00	1.00000e+00	1.00000e+00	1.00000e+00	1.00000e+00	1.00000e+00	1.00000e+00	1.00000e+00	1.00000e+00	1.00000e+00	1.00000e+00	1.00000e+00	1.00000e+00	X	X	X	X	X	X	X	X	X	X	X	X	X	X	X	X	

B = Detector Channel
Val Type	B-AC1	B-AC2	B-AC3	B-AC4	B-AC5	B-AC6	B-AC7	B-AC8	B-AC9	B-AC10	B-AC11	B-AC12	B-AC13	B-AC14	B-AC15	B-AC16	B-DC1	B-DC2	B-DC3	B-DC4	B-DC5	B-DC6	B-DC7	B-DC8	B-DC9	B-DC10	B-DC11	B-DC12	B-DC13	B-DC14	B-DC15	B-DC16	B-Ph1	B-Ph2	B-Ph3	B-Ph4	B-Ph5	B-Ph6	B-Ph7	B-Ph8	B-Ph9	B-Ph10	B-Ph11	B-Ph12	B-Ph13	B-Ph14	B-Ph15	B-Ph16	

Term	0.00000e+00	0.00000e+00	0.00000e+00	0.00000e+00	0.00000e+00	0.00000e+00	0.00000e+00	0.00000e+00	0.00000e+00	0.00000e+00	0.00000e+00	0.00000e+00	0.00000e+00	0.00000e+00	0.00000e+00	0.00000e+00	0.00000e+00	0.00000e+00	0.00000e+00	0.00000e+00	0.00000e+00	0.00000e+00	0.00000e+00	0.00000e+00	0.00000e+00	0.00000e+00	0.00000e+00	0.00000e+00	0.00000e+00	0.00000e+00	0.00000e+00	0.00000e+00	-2.01985e+02	-1.29378e+02	-1.28570e+02	-1.80487e+02	-8.05482e+01	-6.35979e+01	-1.57016e+02	-1.62015e+02	-9.10596e+01	-6.42508e+01	-1.71443e+02	-1.71615e+02	-1.83224e+02	-1.76661e+02	-7.99887e+01	-1.49508e+02	
Factor	5.02138e-05	2.16187e-04	5.75228e-05	2.02782e-01	2.24451e-06	2.39498e-06	2.11821e-01	6.23708e-02	2.36109e-06	2.12806e-06	1.02550e-01	4.02935e-02	4.67635e-02	1.15781e-02	2.14567e-06	1.65216e-02	1.48403e-05	2.08106e-05	5.80611e-06	1.01095e-01	2.10257e-07	2.31288e-07	9.93696e-02	3.12328e-02	2.09323e-07	2.30627e-07	4.98278e-02	1.95568e-02	2.33408e-02	5.84236e-03	2.17295e-07	8.10984e-03	X	X	X	X	X	X	X	X	X	X	X	X	X	X	X	X	



#DISTANCE SETTINGS
A = Detector Channel
A-1	A-2	A-3	A-4	A-5	A-6	A-7	A-8	A-9	A-10	A-11	A-12	A-13	A-14	A-15	A-16	

2.5000e+00	3.0000e+00	2.5000e+00	3.0000e+00	2.0000e+00	3.0000e+00	1.5000e+00	3.0000e+00	3.0000e+00	3.0000e+00	3.0000e+00	3.0000e+00	3.0000e+00	3.0000e+00	1.5000e+00	3.0000e+00	

B = Detector Channel
B-1	B-2	B-3	B-4	B-5	B-6	B-7	B-8	B-9	B-10	B-11	B-12	B-13	B-14	B-15	B-16	

1.0000e+01	1.0000e+01	1.0000e+01	1.4400e+00	1.0000e+01	1.0000e+01	1.5100e+00	1.9400e+00	1.0000e+01	1.0000e+01	1.9900e+00	2.4900e+00	2.4100e+00	2.9000e+00	1.0000e+01	2.9800e+00	




#DATA BEGINS
time	group	step	mark	flag	A-AC1	A-AC2	A-AC3	A-AC4	A-AC5	A-AC6	A-AC7	A-AC8	A-AC9	A-AC10	A-AC11	A-AC12	A-AC13	A-AC14	A-AC15	A-AC16	A-DC1	A-DC2	A-DC3	A-DC4	A-DC5	A-DC6	A-DC7	A-DC8	A-DC9	A-DC10	A-DC11	A-DC12	A-DC13	A-DC14	A-DC15	A-DC16	A-Ph1	A-Ph2	A-Ph3	A-Ph4	A-Ph5	A-Ph6	A-Ph7	A-Ph8	A-Ph9	A-Ph10	A-Ph11	A-Ph12	A-Ph13	A-Ph14	A-Ph15	A-Ph16	B-AC1	B-AC2	B-AC3	B-AC4	B-AC5	B-AC6	B-AC7	B-AC8	B-AC9	B-AC10	B-AC11	B-AC12	B-AC13	B-AC14	B-AC15	B-AC16	B-DC1	B-DC2	B-DC3	B-DC4	B-DC5	B-DC6	B-DC7	B-DC8	B-DC9	B-DC10	B-DC11	B-DC12	B-DC13	B-DC14	B-DC15	B-DC16	B-Ph1	B-Ph2	B-Ph3	B-Ph4	B-Ph5	B-Ph6	B-Ph7	B-Ph8	B-Ph9	B-Ph10	B-Ph11	B-Ph12	B-Ph13	B-Ph14	B-Ph15	B-Ph16	aux-1	digaux	

22881.014	1	1	0	256	0.15233	0.17058	0.076808	0.087498	0.14556	0.07847	0.11318	0.17163	0.19944	0.083385	0.11629	0.27591	0.2992	0.18598	0.17944	0.24231	-2.625	-2.7271	-2.8	-3.0438	-2.6417	-2.9979	-3.025	-2.7458	-3.0812	-2.8271	-3.0312	-3.0417	-2.6708	-3.1396	-2.8479	-2.8625	135.873	326.039	155.990	226.208	24.422	28.219	316.350	314.307	197.879	-11.747	317.286	265.768	284.006	184.403	107.318	274.562	0.00069369	0.00036866	0.00015471	330.36	7.159e-06	7.378e-06	649.53	121.06	5.8488e-06	5.595e-06	327.92	156.47	58.137	23.069	4.1229e-06	84.315	0.00086145	0.00090392	0.00025396	320.3	9.2408e-06	9.9825e-06	629.56	117.68	9.1736e-06	9.9919e-06	318.53	151.88	57.078	22.692	9.5442e-06	82.399	72.935	70.067	43.088	-13.921	125.107	130.361	-13.668	-9.535	68.903	112.273	-10.073	-6.481	-5.495	-1.209	108.610	-2.914	-8191	255	
22881.109	1	1	0	0	0.16309	0.14528	0.21259	0.24012	0.12958	0.10922	0.25436	0.16477	0.10964	0.18314	0.12122	0.1839	0.10879	0.23334	0.17511	0.081519	-2.8125	-2.7104	-2.6979	-3.05	-2.8083	-2.8854	-2.9188	-2.6458	-2.975	-2.775	-2.5875	-3	-2.7812	-3.0292	-2.9062	-2.6375	263.864	99.848	164.282	223.696	42.642	-1.822	209.774	326.372	84.801	15.123	196.700	287.810	230.047	-18.871	87.954	-8.169	0.00069795	0.00041573	0.00011579	331.54	1.8507e-06	5.6575e-06	655.18	120.22	4.478e-06	2.7732e-06	329.9	157.19	57.993	23.126	5.9627e-06	83.889	0.00088566	0.0009141	0.00025299	321.67	9.4296e-06	1.0129e-05	632.46	117.91	9.1513e-06	1.0126e-05	320.19	152.45	57.113	22.664	9.6162e-06	82.244	71.180	66.966	28.609	-13.928	62.519	106.796	-13.993	-9.614	113.408	116.242	-10.166	-6.543	-5.273	-1.194	115.010	-2.849	-8191	255	
22881.230	1	1	0	0	0.14288	0.08381	0.27306	0.33368	0.19529	0.19035	0.12089	0.32975	0.31736	0.10966	0.087116	0.1208	0.022359	0.20925	0.22302	0.12032	-2.5354	-2.8417	-2.8146	-2.9333	-2.7167	-2.925	-3.0292	-2.5771	-2.9938	-2.8063	-2.8625	-3.1854	-2.9021	-2.9896	-2.9917	-2.7313	290.233	-2.455	127.630	225.781	45.639	20.527	252.659	245.401	297.690	250.693	275.863	60.512	61.143	133.329	180.936	-24.258	0.00067494	0.0005817	0.00015038	330.1	3.7294e-06	7.1892e-06	649.11	120.61	4.5678e-06	5.0138e-06	327.27	155.17	57.494	23.021	4.6754e-06	83.91	0.00089849	0.00089884	0.00025157	320.48	9.232e-06	1.0009e-05	628.65	117.47	9.3537e-06	9.8237e-06	317.72	151.51	57.002	22.634	9.6982e-06	81.946	75.724	41.441	55.249	-13.599	80.756	123.501	-13.949	-9.423	116.488	175.892	-10.453	-6.599	-6.049	-1.773	78.256	-3.049	-8191	255	
22881.326	1	1	0	0	0.24004	0.18688	0.11914	0.02164	0.17388	0.14992	0.29423	0.14561	0.25936	0.083445	0.17765	0.045609	0.063934	0.13938	0.085612	0.045293	-2.5146	-3.0146	-2.5417	-3.0667	-2.6979	-2.8333	-3.0125	-2.9583	-2.8854	-2.8937	-2.8271	-2.9958	-2.8312	-2.875	-3.1125	-2.8125	151.460	175.323	79.826	173.988	289.898	69.452	281.713	293.147	256.814	105.871	74.345	298.374	32.099	245.331	98.203	205.947	0.00066081	0.00036797	6.1681e-05	327.07	4.6849e-06	6.8781e-06	650.4	120.48	4.0391e-06	9.9571e-06	328.9	156.04	57.632	23.075	2.0498e-06	83.859	0.00089945	0.00090387	0.00025612	318.52	9.2942e-06	9.8755e-06	627.6	117.49	8.9704e-06	1.0009e-05	318.54	151.98	56.853	22.599	9.6556e-06	82.087	68.817	86.286	31.136	-14.190	115.348	133.961	-13.514	-9.201	54.208	137.839	-10.465	-6.339	-5.950	-1.873	105.786	-3.193	-8191	255	
22881.422	1	1	0	0	0.36506	0.16688	0.15773	0.079814	0.20607	0.22811	0.052247	0.20389	0.24277	0.15597	0.28778	0.24039	0.10375	0.29649	0.16021	0.19778	-2.4729	-2.9292	-2.6979	-2.975	-2.7521	-2.9125	-3.2562	-2.7729	-2.9437	-3.1771	-2.8333	-3.0958	-2.8729	-2.8021	-3.0521	-2.8521	237.317	329.009	290.876	165.239	267.175	65.303	193.316	142.679	63.683	286.304	308.498	324.496	249.987	254.590	59.938	138.409	0.0006965	0.00044127	0.00014154	328.48	6.0974e-06	5.6617e-06	650.86	120.4	3.163e-06	5.5366e-06	329.36	156.41	57.917	23.015	2.0387e-06	84.176	0.00087212	0.00092477	0.00025864	320.15	9.2609e-06	1.024e-05	630.25	117.77	9.324e-06	1.0272e-05	320.09	152.04	57.042	22.594	9.5248e-06	82.395	72.241	72.880	72.113	-13.856	118.928	148.908	-13.496	-9.034	135.081	154.952	-10.113	-6.439	-5.812	-1.226	77.524	-2.955	-8191	255	
22881.518	1	1	0	0	0.033888	0.22102	0.16877	0.038284	0.12372	0.29388	0.016683	0.15511	0.17703	0.10755	0.046821	0.28963	0.27242	0.21536	0.28557	0.16664	-2.2854	-2.8271	-2.4833	-3.05	-2.9979	-2.9604	-3.0354	-2.725	-2.9417	-2.9104	-2.8167	-2.8187	-2.8792	-2.8896	-2.9625	-3.0167	207.518	114.295	62.402	324.586	180.670	116.978	302.093	-16.206	155.653	207.018	138.198	302.583	240.838	80.938	231.004	54.155	0.00075194	0.00044744	0.0001179	332.28	9.8269e-06	4.7737e-06	652.56	121.11	3.8595e-06	5.21e-06	332.47	156.91	57.768	22.974	1.6384e-06	84.283	0.00089568	0.00090986	0.00025628	321.64	9.1278e-06	1.0109e-05	632.61	118.19	9.5757e-06	9.9165e-06	321.62	152.74	57.037	22.616	9.5669e-06	82.365	73.661	44.781	70.337	-13.555	115.540	158.091	-13.857	-8.990	89.397	151.293	-10.008	-6.396	-5.925	-1.353	170.559	-3.041	-8191	255	
22881.590	1	1	0	0	0.13569	0.091272	0.13063	0.1571	0.13518	0.084814	0.16108	0.067443	0.096447	0.17259	0.11583	0.16889	0.089386	0.15133	0.18598	0.18342	-2.4167	-3.0396	-2.7333	-2.8104	-2.8896	-2.7062	-2.9771	-2.6292	-2.8667	-2.8875	-2.7292	-3.0938	-2.8937	-2.75	-3.2021	-2.8542	5.019	255.357	160.338	206.810	282.489	-3.036	229.834	211.311	260.075	286.669	3.557	309.641	177.962	-1.595	135.589	242.430	0.00070451	0.00060067	6.4712e-05	330.12	3.2871e-06	6.1875e-06	650.86	121.67	4.3113e-06	3.8508e-06	328.11	155.65	58.069	22.887	2.6728e-06	83.486	0.00088637	0.00091974	0.00025786	321	9.3231e-06	1.0077e-05	628.95	118.01	9.2961e-06	1.0091e-05	318.2	151.59	56.977	22.515	9.3641e-06	81.883	74.645	64.664	40.437	-13.819	105.118	142.103	-13.917	-9.083	130.882	133.847	-10.530	-6.448	-5.691	-1.641	148.515	-2.910	-8191	255	
22881.711	1	1	0	0	0.19952	0.28378	0.19252	0.27325	0.064397	0.13233	0.26293	0.1861	0.12401	0.19738	0.27445	0.42894	0.20716	0.26368	0.18604	0.34476	-2.4021	-2.9479	-2.5687	-2.9729	-2.8646	-2.775	-3.0604	-2.9354	-2.6792	-2.9542	-2.6958	-3.0625	-2.9333	-2.85	-2.9646	-3.0375	123.725	142.182	77.491	65.248	303.346	81.478	332.229	201.497	173.949	9.762	-26.303	271.099	302.534	242.108	287.638	310.087	0.00064789	0.00033739	0.00011181	332.81	6.1028e-06	5.1664e-06	650.49	121.55	5.6194e-06	5.8288e-06	328.03	156.02	57.648	22.913	6.1288e-06	83.652	0.00090263	0.00089464	0.00025388	320.67	9.0954e-06	9.9059e-06	629.88	117.97	9.372e-06	9.9933e-06	318.75	151.59	56.986	22.496	9.7018e-06	81.78	76.451	51.837	47.767	-13.734	93.257	155.561	-13.829	-9.688	82.950	94.914	-10.111	-6.397	-5.872	-1.493	118.650	-3.238	-8191	255	
22881.807	1	1	0	0	0.32999	0.091533	0.31866	0.029075	0.19267	0.035713	0.24893	0.32181	0.24289	0.062919	0.14937	0.2221	0.057061	0.13835	0.22531	0.17678	-2.3375	-2.975	-2.7062	-2.8708	-3.0062	-2.8375	-2.9833	-2.8646	-2.75	-3.0042	-2.7354	-2.9729	-3.0083	-2.6896	-3.0708	-2.9667	134.279	201.879	-3.327	5.634	144.143	9.354	268.015	287.214	14.852	-26.815	321.041	259.001	97.599	247.289	163.299	25.024	0.00067639	0.00041019	7.7175e-05	331.96	6.1821e-06	5.1513e-06	651.27	121.43	3.503e-06	6.0308e-06	329.88	156.49	58.172	23.059	3.5722e-06	84.102	0.00088173	0.00092069	0.00025405	321.77	9.3069e-06	9.9488e-06	630.81	118.08	9.4858e-06	1.0095e-05	321.12	152.55	57.276	22.652	9.5922e-06	82.442	65.701	33.385	74.583	-13.743	109.784	127.503	-14.186	-9.029	131.709	127.793	-10.313	-6.339	-5.761	-1.581	117.015	-3.052	-8191	255	
22881.902	1	1	0	0	0.067999	0.16841	0.13789	0.34694	0.21632	0.081807	0.12661	0.08023	0.095422	0.10692	0.31577	0.21272	0.22959	0.12164	0.31196	0.21809	-2.3083	-3.0521	-2.7438	-2.5917	-3.0625	-2.7458	-2.9521	-2.9083	-2.6354	-3.0167	-2.875	-2.7604	-2.9042	-2.7687	-2.9604	-3.1833	131.223	290.117	30.482	233.623	169.253	41.338	205.373	61.100	1.888	204.745	324.140	233.615	220.923	197.236	280.666	329.580	0.00076165	0.00042872	0.00014146	331.69	4.6205e-06	6.9116e-06	653.46	122.23	7.3252e-06	4.28e-06	332.58	157.18	58.053	23.038	5.3363e-06	84.682	0.00089435	0.00091311	0.00026186	322.6	9.2513e-06	1.0222e-05	633.57	118.47	9.4038e-06	9.9155e-06	321.94	153.09	57.382	22.71	9.7656e-06	82.764	68.059	53.240	35.176	-13.955	97.864	115.020	-13.548	-9.085	78.892	134.966	-10.348	-6.453	-5.490	-1.422	127.024	-2.997	-8191	255	
22881.998	1	1	0	0	0.12474	0.23897	0.18478	0.10398	0.10294	0.1732	0.085569	0.1803	0.23069	0.16568	0.13054	0.16366	0.077529	0.35847	0.21617	0.21521	-2.2208	-2.9542	-2.75	-2.9021	-2.9021	-2.9437	-2.9688	-2.9813	-2.6708	-3.1208	-2.8896	-2.7812	-2.9354	-2.6	-2.9375	-3.1	112.321	-10.783	-22.908	318.771	58.406	30.415	1.248	289.996	225.542	156.529	152.409	319.279	-0.718	12.398	269.412	204.496	0.00074372	0.0004413	0.00013737	330.78	5.2527e-06	1.2158e-06	650.43	121.17	3.5329e-06	6.5573e-06	328.61	157.05	58.052	23.215	5.2681e-06	84.105	0.00091092	0.00091354	0.00025524	321.06	9.4278e-06	1.0077e-05	629.39	118.43	9.4091e-06	1.012e-05	319.76	152.64	57.166	22.717	9.7756e-06	82.336	69.812	77.898	94.647	-13.663	111.943	215.446	-13.837	-9.702	112.875	133.752	-9.922	-6.430	-5.874	-1.343	129.704	-2.732	-8191	255	
22882.117	1	1	0	0	0.14952	0.062287	0.34489	0.23008	0.25222	0.33971	0.15251	0.22308	0.11556	0.12696	0.16991	0.34254	0.16559	0.2045	0.42747	0.11796	-2.1229	-2.9354	-2.85	-2.8979	-2.9021	-2.7917	-2.8771	-3.1375	-2.7854	-2.9771	-3.0146	-2.8063	-3.1646	-2.675	-2.6583	-2.9104	150.892	108.832	2.382	50.983	-24.768	309.723	243.947	-21.545	219.118	283.876	297.540	237.391	230.475	14.743	248.073	298.172	0.00067746	0.00034718	0.00011978	331.6	8.0634e-06	2.9014e-06	651.79	120.88	5.7481e-06	7.0265e-06	330.71	156.85	58.62	22.947	8.9587e-07	84.265	0.00088959	0.00090816	0.00026022	320.94	9.0283e-06	9.9054e-06	629.2	118.32	9.1989e-06	1.0174e-05	320.33	152.44	57.241	22.683	9.7126e-06	82.636	68.309	86.613	35.520	-13.796	116.573	68.150	-13.530	-9.009	85.856	130.032	-10.219	-6.426	-5.669	-1.552	202.259	-2.795	-8191	255	
22882.215	1	1	0	0	0.16256	0.095187	0.11527	0.083232	0.35597	0.13919	0.19181	0.34211	0.060975	0.15015	0.10986	0.082009	0.096648	0.089263	0.20465	0.21147	-2.4396	-2.8146	-2.9354	-2.7687	-2.8688	-2.6271	-2.7896	-3.05	-2.6125	-3.0542	-2.9833	-2.8438	-2.9354	-2.825	-2.6021	-3.1917	51.065	198.978	10.245	111.939	190.567	249.932	216.403	267.920	238.937	230.546	273.313	127.853	-4.189	97.631	54.041	-20.947	0.00073399	0.0006945	0.00017359	331.96	6.1233e-06	5.5166e-06	655.03	121.76	5.5191e-06	6.4348e-06	329.66	156.99	57.978	22.966	3.6095e-06	84.32	0.00090096	0.00091142	0.00025409	321.22	9.5224e-06	1.0035e-05	631.17	118.83	9.5377e-06	1.0325e-05	320.82	153.05	57.342	22.785	9.8398e-06	82.65	74.583	57.931	70.106	-14.181	92.586	133.133	-14.078	-9.243	107.462	139.361	-10.428	-6.345	-5.578	-1.498	164.958	-3.148	-8191	255	
22882.311	1	1	0	0	0.17221	0.19814	0.16195	0.32799	0.14104	0.26689	0.10374	0.21728	0.11657	0.10235	0.15906	0.15579	0.16146	0.14845	0.23266	0.052024	-2.2396	-2.7562	-2.8187	-2.6937	-2.9771	-3.0417	-2.7188	-3.0396	-2.8271	-2.8812	-3.1229	-2.7479	-2.9562	-3.0812	-2.6333	-3.1292	182.638	92.529	134.500	-26.134	290.326	-16.541	218.855	90.673	130.705	142.086	175.452	17.704	115.837	229.112	102.021	150.748	0.00073766	0.00072061	0.00014314	330.63	7.6205e-06	8.5545e-06	657.66	121.48	6.198e-06	3.2618e-06	333.09	157.88	58.736	23.169	2.2414e-06	84.844	0.00090127	0.00093374	0.00025067	321.59	9.476e-06	1.016e-05	634.55	118.88	9.4845e-06	1.0182e-05	322.75	153.6	57.445	22.792	9.685e-06	83.001	67.825	23.488	4.649	-13.624	135.484	110.892	-13.780	-9.329	86.371	104.572	-10.334	-6.212	-5.560	-1.544	147.670	-2.957	-8191	255	
22882.406	1	1	0	0	0.22851	0.21485	0.1306	0.10786	0.16018	0.14086	0.048902	0.08006	0.10671	0.10083	0.1374	0.28483	0.067683	0.19663	0.13874	0.21167	-2.4396	-2.8104	-3.0875	-2.7917	-2.9917	-2.9021	-2.8125	-2.9458	-2.8604	-2.8292	-3.2083	-2.8937	-3.1146	-3.0375	-2.7146	-3.2458	16.648	245.038	38.791	329.152	21.633	216.244	301.795	186.776	177.060	122.910	253.441	296.557	168.232	241.832	21.651	260.697	0.00075699	0.00070289	0.00013788	330.03	6.9967e-06	9.1124e-07	653.24	122.12	6.7583e-06	3.9555e-06	330.42	157.81	58.483	23.279	5.0771e-06	84.526	0.0008992	0.00090951	0.00025807	320.62	9.4467e-06	1.0301e-05	630.8	118.95	9.5761e-06	1.0034e-05	321.36	153.41	57.567	22.854	9.7887e-06	82.803	69.920	77.716	98.848	-13.625	120.600	141.111	-13.715	-8.998	123.866	118.671	-10.061	-6.345	-5.928	-1.460	111.294	-2.880	-8191	255	
22882.502	1	1	0	0	0.10265	0.15822	0.16125	0.11961	0.26201	0.0616	0.1592	0.11063	0.17975	0.2441	0.13841	0.40951	0.19724	0.079961	0.14663	0.10798	-2.0875	-2.6292	-3.1083	-2.8312	-3.0667	-2.8833	-2.8354	-3.0542	-2.6646	-2.7625	-3.0854	-2.7646	-2.9583	-3.0146	-2.875	-3.1208	-25.938	143.037	98.690	253.354	178.410	77.450	332.663	158.936	121.100	111.238	245.722	239.941	97.468	134.835	267.619	27.849	0.00073172	0.00042912	0.00016572	331.17	9.016e-06	2.7341e-06	651.55	122.94	4.4336e-06	5.0425e-06	332.91	156.42	58.097	22.957	2.7152e-06	84.439	0.00087907	0.0009301	0.00025253	320.77	9.158e-06	9.9223e-06	630.66	119.38	9.256e-06	1.0145e-05	321.68	153.18	57.347	22.669	9.8312e-06	82.522	73.085	22.116	72.633	-14.111	116.231	159.428	-13.645	-9.175	108.476	131.787	-10.246	-6.437	-5.873	-1.307	105.312	-2.960	-8191	255	
22882.600	1	1	0	0	0.29834	0.13609	0.13193	0.11485	0.137	0.0401	0.060418	0.20281	0.37598	0.048379	0.21149	0.082817	0.06876	0.11064	0.16643	0.040152	-2.425	-2.7979	-3.0375	-2.5958	-2.8292	-2.9521	-2.8563	-3.0687	-2.9271	-2.7229	-3.2	-2.9313	-2.9437	-2.9958	-2.6479	-3.2167	142.106	331.078	238.263	14.439	116.820	285.028	268.658	159.325	257.098	150.281	296.199	329.959	-2.876	288.419	-12.520	200.671	0.00075533	0.00064792	0.0001685	333.51	3.4157e-06	6.1544e-06	651.7	123	3.2944e-06	5.0566e-06	332.04	158.27	58.4	23.043	6.5955e-06	84.425	0.00087512	0.00087855	0.00025009	321.88	9.4068e-06	9.7989e-06	632.04	119.44	8.9241e-06	9.8992e-06	322.2	153.75	57.54	22.664	9.4818e-06	82.523	74.241	33.588	43.877	-14.180	133.597	129.226	-13.673	-9.302	135.857	156.240	-10.210	-6.285	-6.197	-1.144	116.238	-2.886	-8191	255	
22882.719	1	1	0	0	0.056097	0.26315	0.31864	0.40865	0.29654	0.051897	0.23959	0.12782	0.29569	0.031755	0.1707	0.032425	0.12791	0.21139	0.091769	0.23322	-2.4479	-2.6854	-2.9437	-2.7479	-2.7875	-3.0896	-2.7792	-2.8896	-3.0479	-2.7104	-3.1354	-2.9062	-2.7875	-3.1292	-2.8208	-2.9896	153.606	67.234	200.007	247.247	64.830	298.355	-14.229	188.477	57.869	45.002	261.431	206.039	315.283	195.430	110.083	262.647	0.00073222	0.00044252	0.00019795	332.11	4.4017e-06	2.7931e-06	663.46	123.41	2.384e-06	4.5177e-06	331.94	157	58.827	22.873	2.437e-06	83.851	0.00087082	0.00088584	0.00024508	322.64	8.7624e-06	9.6741e-06	638.34	119.56	8.9695e-06	1.0006e-05	322.02	153	57.522	22.539	9.3337e-06	82.141	76.134	37.158	33.052	-13.582	147.984	98.493	-13.893	-9.107	128.252	108.687	-9.954	-6.633	-5.715	-0.991	127.933	-3.080	-8191	255	
22882.814	1	1	0	0	0.16695	0.16647	0.24193	0.18019	0.077229	0.39515	0.19705	0.11143	0.046218	0.19582	0.29719	0.22506	0.24396	0.21611	0.060388	0.39548	-2.4208	-2.6688	-2.9875	-2.6937	-2.725	-2.9167	-2.7313	-2.9667	-3.0208	-2.9667	-3.1271	-2.9792	-2.6813	-3	-2.7771	-2.7188	121.609	102.441	161.087	82.582	140.322	172.220	296.016	60.888	176.404	-13.134	79.905	267.632	-5.472	58.751	295.434	303.317	0.00071787	0.00065923	0.00012376	331.71	4.7058e-06	4.6118e-06	654.35	122.98	6.5781e-06	5.2359e-06	330.02	156.17	58.037	22.977	4.1611e-06	83.541	0.00087607	0.0008874	0.00024853	322.4	8.9933e-06	9.8273e-06	632.45	119.27	9.0772e-06	9.5921e-06	319.88	152.06	57.22	22.543	9.3324e-06	81.731	71.803	62.896	55.912	-13.955	129.405	116.097	-13.659	-9.054	106.552	159.800	-9.949	-6.436	-5.873	-1.344	133.724	-3.006	-8191	255	
22882.887	1	1	0	0	0.074645	0.017373	0.25529	0.12643	0.11698	0.11299	0.019078	0.11812	0.15028	0.060888	0.076554	0.27487	0.091719	0.20604	0.10053	0.479	-2.5271	-2.7125	-2.8354	-2.9521	-2.9062	-3.0667	-2.9313	-2.8604	-3.1125	-2.7979	-3.0687	-2.9021	-2.6813	-3.1917	-2.7875	-2.9604	-25.774	189.626	52.735	17.517	302.352	116.722	217.553	49.596	36.378	330.503	269.437	307.594	253.294	289.612	-22.971	328.718	0.00068824	0.00072279	0.00017495	330.72	3.0181e-06	4.5977e-06	656.35	122.3	3.8468e-06	3.3225e-06	329.74	156.84	57.934	22.996	3.4092e-06	83.614	0.0008582	0.0008812	0.00024389	321.68	8.8124e-06	9.651e-06	632.53	118.71	8.7977e-06	9.8016e-06	319.83	152.29	57.171	22.576	9.5189e-06	81.787	66.665	44.060	54.970	-14.052	146.400	128.962	-13.732	-9.244	94.798	133.811	-10.294	-6.484	-5.917	-0.830	64.539	-2.840	-8191	255	
22883.006	1	1	0	0	0.27949	0.12589	0.11531	0.13382	0.1536	0.23454	0.20235	0.13161	0.1071	0.059035	0.20119	0.13846	0.13717	0.10775	0.14599	0.27761	-2.5938	-2.6646	-2.8812	-2.8542	-2.6708	-3.1	-2.9271	-2.8229	-2.9271	-2.8729	-3.0375	-3.0187	-2.7542	-3.0583	-2.9917	-3.0083	158.915	240.139	91.193	231.662	267.780	33.471	234.790	-17.598	16.660	192.186	282.731	0.225	184.637	79.953	2.380	242.031	0.00064149	0.00051148	0.00013517	331.58	3.7446e-06	5.626e-06	654.05	121.66	5.7227e-06	5.3619e-06	329.94	155.57	58.119	22.924	2.8233e-06	83.434	0.00086361	0.00087704	0.0002428	321.32	8.9495e-06	9.7503e-06	632.66	118.82	8.9743e-06	9.5316e-06	319.78	151.84	56.925	22.519	9.2264e-06	81.63	69.673	45.307	87.113	-13.689	98.931	112.941	-13.959	-9.249	89.065	149.438	-10.296	-6.414	-6.022	-1.491	110.251	-2.835	-8191	255	
22883.102	1	1	0	0	0.16516	0.15089	0.069339	0.10325	0.088343	0.3505	0.21358	0.22833	0.066731	0.20883	0.11557	0.10293	0.098453	0.11596	0.12768	0.26996	-2.4958	-2.7479	-2.8167	-3.0021	-2.6729	-2.9292	-2.9583	-2.7083	-3.0833	-2.8979	-2.8312	-3.1333	-2.875	-3.1354	-2.8729	-2.7979	320.928	166.830	9.979	252.097	187.532	100.378	285.821	283.498	285.451	327.526	236.222	184.068	193.887	237.237	191.401	279.412	0.0007593	0.00027218	8.8958e-05	329.46	4.0215e-06	8.7768e-06	658.92	122.01	7.2984e-06	3.7128e-06	330.35	156.2	57.483	22.835	6.0184e-06	82.805	0.00086964	0.00088558	0.00024222	320.6	8.8308e-06	9.7941e-06	635.86	118.72	8.8356e-06	9.7541e-06	320.15	151.85	56.845	22.34	9.2187e-06	81.396	74.400	108.957	55.178	-13.857	179.157	112.615	-13.919	-9.188	99.852	162.900	-10.227	-6.407	-5.589	-1.253	115.732	-2.990	-8191	255	
22883.197	1	1	0	0	0.17778	0.039684	0.081931	0.20158	0.088242	0.11221	0.071937	0.030951	0.089205	0.2086	0.33021	0.1072	0.25156	0.09984	0.082248	0.23241	-2.6688	-2.8187	-2.7354	-2.9479	-2.4521	-2.9917	-2.9771	-2.7396	-2.9396	-2.6917	-2.7479	-3.2375	-2.6688	-2.8958	-2.9938	-2.775	1.388	228.252	301.930	32.707	311.850	2.475	244.254	226.557	148.357	131.278	-17.145	43.438	8.409	176.454	191.988	220.557	0.00074457	0.0006752	6.1171e-05	332.57	6.8765e-06	5.2797e-06	655.82	121.06	3.7379e-06	7.8782e-06	325.27	154.73	57.473	22.581	4.6025e-06	82.479	0.00086933	0.00089455	0.00023891	320.5	8.8146e-06	9.57e-06	630.97	118	8.7401e-06	9.8972e-06	316.65	150.74	56.555	22.168	9.3088e-06	80.43	70.670	49.297	69.212	-13.843	115.356	128.817	-13.737	-9.118	93.259	119.836	-10.101	-6.408	-5.788	-1.746	102.857	-2.752	-8191	255	
22883.295	1	1	0	0	0.20022	0.01038	0.23599	0.16863	0.15427	0.17815	0.15441	0.3929	0.27497	0.18374	0.19244	0.0095903	0.18601	0.29409	0.044679	0.29335	-2.5104	-2.75	-2.6271	-3.0896	-2.9313	-2.8146	-2.8771	-2.6354	-2.9917	-2.7979	-2.7896	-3.0563	-2.7313	-2.8875	-3.0146	-2.7458	268.177	93.177	121.790	71.671	240.206	168.810	137.652	293.337	123.691	181.658	280.934	177.977	169.131	276.129	24.697	226.908	0.00071276	0.0003769	8.8562e-05	327.36	6.3506e-06	5.857e-06	650.19	120.52	4.7036e-06	3.3297e-06	325.91	154.4	57.107	22.423	3.1347e-06	81.899	0.00085474	0.00086034	0.00024606	319.19	8.7094e-06	9.6563e-06	630.42	117.53	8.8387e-06	9.5359e-06	316.25	150.15	56.281	22.04	9.3265e-06	80.212	67.688	56.883	78.333	-13.758	109.986	124.987	-13.636	-9.303	79.447	120.189	-10.601	-6.221	-5.728	-1.482	108.095	-3.074	-8191	255	
22883.414	1	1	0	0	0.26216	0.13885	0.28841	0.093928	0.24159	0.062332	0.070654	0.13623	0.23557	0.25263	0.081144	0.3662	0.018707	0.21568	0.29994	0.17853	-2.4729	-2.8146	-2.9313	-3	-2.8583	-2.9021	-2.9354	-2.7229	-2.6562	-2.9917	-2.7354	-3.0479	-2.7062	-2.8208	-2.9688	-2.7417	13.634	168.686	232.672	68.127	68.283	143.847	240.742	263.655	89.040	145.165	286.291	45.621	46.737	286.013	311.467	257.338	0.00069603	0.00029369	9.1223e-05	331.16	5.5266e-06	1.2894e-06	655.05	120.29	5.4302e-06	8.4247e-06	324.31	154.75	57.243	22.503	5.5073e-06	82.248	0.00084253	0.00085514	0.00024445	320.66	8.932e-06	9.6047e-06	632.42	117.54	9.0968e-06	9.6512e-06	316.58	151.07	56.304	22.058	9.1613e-06	80.432	71.818	85.156	88.232	-13.855	103.163	118.828	-13.898	-9.754	83.710	133.836	-10.386	-6.226	-5.676	-1.201	124.422	-2.768	-8191	255	
22883.512	1	1	0	0	0.073054	0.065789	0.24432	0.14662	0.10329	0.092599	0.37165	0.11639	0.23362	0.2963	0.20573	0.20331	0.14654	0.20719	0.25374	0.077644	-2.6604	-2.8937	-2.6562	-3.0667	-2.875	-2.6396	-3.2313	-2.7687	-2.9104	-2.9417	-2.7687	-3.1437	-2.7979	-2.7771	-2.9479	-2.8688	156.417	251.216	321.417	89.222	52.702	297.687	93.718	8.530	130.207	112.832	218.371	245.673	30.838	158.168	-5.729	270.329	0.00072103	0.00071196	7.4549e-05	330.57	4.1461e-06	6.4503e-06	658.38	121.72	4.7994e-06	2.267e-06	327.37	155.44	57.376	22.499	6.3612e-06	82.233	0.00085329	0.00088233	0.00024636	321.1	8.6814e-06	9.505e-06	636.68	118.14	8.7327e-06	9.3937e-06	317.95	151.31	56.467	22.037	9.0983e-06	80.539	66.253	59.274	97.586	-13.975	73.336	106.396	-13.999	-9.010	162.068	147.677	-9.948	-6.356	-5.880	-1.540	116.877	-3.221	-8191	255	
22883.582	1	1	0	0	0.13814	0.0048325	0.17188	0.2306	0.18977	0.074614	0.068736	0.14961	0.21348	0.1427	0.026408	0.19947	0.19218	0.10032	0.13009	0.1496	-2.3688	-2.8167	-2.6021	-2.9625	-2.8167	-2.7354	-2.9625	-2.7625	-2.6896	-3.0292	-2.6813	-3.0292	-2.9417	-2.6542	-2.8646	-2.8854	311.077	287.730	260.922	127.460	263.770	139.193	250.610	290.374	41.986	194.310	9.904	193.598	314.750	97.018	-22.424	-8.952	0.00074504	0.00075453	0.00013899	329.28	3.0847e-07	5.2057e-06	656.89	120.88	3.5344e-06	2.8243e-06	325.92	154.26	57.203	22.454	4.2908e-06	82.124	0.00085174	0.00087266	0.00024449	320.03	8.9447e-06	9.8861e-06	634.3	117.7	8.7301e-06	9.5033e-06	316.19	150.23	56.221	22.048	9.3541e-06	80.267	75.444	71.986	53.887	-13.861	271.860	108.968	-13.510	-9.180	117.787	83.142	-10.179	-6.285	-6.332	-1.259	156.873	-3.188	-8191	255	
22883.680	1	1	0	0	0.30556	0.24859	0.11969	0.22843	0.11158	0.20457	0.075642	0.12676	0.11425	0.16934	0.061184	0.042385	0.13914	0.17343	0.16991	0.0077108	-2.3604	-3.075	-2.625	-2.8917	-2.9208	-2.6479	-3.1396	-2.8208	-2.7292	-3.05	-2.6375	-3.1229	-2.9521	-2.5625	-3.1354	-2.9417	213.958	304.453	151.429	290.689	218.372	26.708	316.800	82.249	235.970	165.424	254.732	229.811	321.749	301.209	164.702	304.308	0.00071313	0.00064077	0.00017651	332.97	4.2703e-06	4.2434e-06	651.99	121.27	4.2081e-06	6.2194e-06	328.61	154.08	57.309	22.406	4.7081e-06	82.445	0.0008566	0.00086559	0.00024285	320.33	8.8833e-06	9.6775e-06	633.72	117.87	8.8587e-06	9.6878e-06	317.03	150.75	56.468	22.115	9.4623e-06	80.629	77.552	27.850	11.920	-14.011	126.651	142.599	-14.114	-9.374	102.369	153.381	-10.539	-6.303	-5.991	-1.498	140.309	-2.933	-8191	255	
22883.801	1	1	0	0	0.099691	0.14346	0.11935	0.15706	0.12006	0.17104	0.10009	0.071853	0.30861	0.28132	0.069026	0.19727	0.11599	0.21129	0.20438	0.071624	-2.3771	-3.0271	-2.7021	-2.8917	-3.1021	-2.8667	-3.2708	-2.6917	-2.8708	-3.1312	-2.8083	-2.9729	-3.0062	-2.7812	-3.0646	-3.1	3.009	318.325	83.029	266.618	34.051	80.075	295.720	331.718	78.981	175.854	329.440	262.951	247.208	154.930	191.445	32.975	0.00062488	0.00049326	7.4173e-05	329.86	4.4964e-06	2.8917e-06	657.33	121.14	5.6121e-06	4.9173e-06	327.82	156.11	57.614	22.541	5.6286e-07	82.555	0.00084559	0.00087534	0.00024225	320.78	8.9219e-06	9.2766e-06	635.81	118.17	8.9795e-06	9.6412e-06	318.1	151.38	56.556	22.133	9.2685e-06	80.59	72.998	44.702	35.454	-13.696	118.441	124.374	-13.649	-9.122	124.372	131.252	-9.891	-6.386	-5.908	-1.364	34.707	-3.002	-8191	255	
22883.896	1	1	0	0	0.33131	0.031065	0.21603	0.069842	0.34779	0.1718	0.33345	0.061952	0.029499	0.40922	0.14376	0.28556	0.040279	0.11161	0.12495	0.23201	-2.45	-3.1479	-2.65	-2.8458	-3.1354	-2.7479	-3.1021	-2.7583	-2.7125	-3.0917	-2.7604	-2.8604	-3.0604	-2.6958	-3.0229	-3.0292	92.041	84.391	172.260	91.062	247.112	143.961	137.393	104.544	100.767	226.281	285.185	-19.604	183.478	87.232	154.046	204.416	0.00070699	0.00047887	0.00012913	331.96	5.9828e-06	5.0731e-06	659.14	121.02	7.0369e-06	5.0466e-06	329.67	156.12	57.201	22.389	5.7257e-06	82.822	0.00087258	0.00087578	0.00024664	321.72	8.8785e-06	9.7025e-06	637.68	118.37	9.0292e-06	9.7478e-06	318.99	151.8	56.529	22.129	9.4637e-06	80.839	74.527	61.108	49.387	-13.662	143.992	132.923	-13.922	-9.299	117.672	99.473	-10.322	-6.273	-5.856	-1.063	133.440	-2.828	-8191	255	
22883.992	1	1	0	0	0.2168	0.27491	0.26906	0.1006	0.086128	0.22153	0.14805	0.1428	0.29442	0.15847	0.41656	0.11584	0.33054	0.07342	0.19068	0.05025	-2.2396	-2.8	-2.7458	-2.8667	-3.0979	-2.8083	-2.9604	-3.0104	-2.6667	-3.1188	-2.9562	-2.9521	-2.9125	-2.7812	-2.95	-2.8958	130.647	131.889	197.364	169.130	2.846	-9.136	-8.426	129.470	275.952	275.186	263.039	201.222	273.792	66.452	77.919	269.380	0.00074312	0.00068108	0.00012099	331.31	5.381e-06	5.1251e-06	656.57	121.59	5.0865e-06	5.7993e-06	327.54	155.2	56.799	22.371	4.0157e-06	82.502	0.00086717	0.0008985	0.00024988	321.95	8.8514e-06	9.9984e-06	635.2	118.06	8.9608e-06	9.7344e-06	316.56	150.6	56.208	22.044	9.102e-06	80.445	70.054	56.705	53.389	-13.811	98.966	142.862	-13.754	-9.420	109.763	94.451	-10.325	-6.335	-6.127	-1.304	97.913	-3.049	-8191	255	
22884.111	1	1	0	0	0.077314	0.13069	0.12442	0.096348	0.25783	0.34971	0.068284	0.046896	0.45169	0.097216	0.22774	0.28914	0.14401	0.17687	0.14481	0.24051	-2.2396	-2.8521	-2.9146	-2.9333	-3.0833	-2.8187	-2.9208	-2.9333	-2.6771	-3.0229	-2.8646	-2.8104	-2.9	-2.8583	-3.0104	-3.025	295.255	138.291	74.212	-11.905	263.175	93.823	184.964	178.393	324.354	-23.282	268.322	319.864	314.811	306.693	227.466	205.148	0.00067815	0.00016269	0.00019706	332.99	2.7774e-06	6.2395e-06	656.02	121.16	2.723e-06	1.9315e-06	328.14	154.9	57.361	22.705	4.5861e-06	82.897	0.00086664	0.00087374	0.0002497	320.81	8.9337e-06	9.6264e-06	634.11	118.06	8.9843e-06	9.5801e-06	317.58	150.97	56.476	22.203	9.413e-06	80.837	70.800	93.624	67.440	-13.455	129.374	134.924	-13.798	-9.559	128.259	157.908	-10.350	-6.481	-5.737	-1.542	96.778	-3.148	-8191	255	
22884.182	1	1	0	0	0.18112	0.14117	0.031669	0.11629	0.19365	0.29645	0.21336	0.20476	0.095748	0.14799	0.34734	0.27848	0.053212	0.19838	0.048904	0.097933	-2.4021	-2.8979	-2.9292	-2.8458	-3.0354	-2.9875	-3.0208	-3.0042	-2.7875	-3.0458	-2.875	-2.8375	-3.1458	-2.6958	-2.7104	-3.1437	146.124	121.031	30.942	330.894	232.550	238.344	185.224	270.333	48.637	191.723	237.819	208.233	100.701	94.935	294.574	261.177	0.0007392	0.00068683	0.00014455	328.78	4.7796e-06	4.2378e-06	656.98	121.15	6.4016e-06	3.8392e-06	326.4	155.82	57.854	22.678	1.5906e-06	82.839	0.0008749	0.00088709	0.00024936	320.33	9.1501e-06	9.9652e-06	634.99	118.12	9.2054e-06	9.8204e-06	317.46	151.5	56.812	22.23	9.5085e-06	81.158	69.793	29.812	43.196	-13.876	110.222	136.064	-13.711	-9.471	104.473	112.974	-10.327	-6.060	-5.746	-1.292	128.191	-2.888	-8191	255	
22884.279	1	1	0	0	0.21886	0.2103	0.15914	0.22087	0.14993	0.18062	0.17809	0.049604	0.062033	0.048477	0.097656	0.042932	0.28183	0.10671	0.10097	0.43046	-2.5042	-2.9375	-2.8125	-2.7792	-3.1208	-2.9104	-2.8646	-3.3396	-2.7604	-2.9062	-3.0292	-2.8396	-2.9354	-2.85	-2.9521	-3.3083	150.049	268.919	271.743	2.796	331.417	98.708	-18.679	41.562	144.112	114.727	304.238	116.159	250.336	132.254	64.896	219.232	0.00070367	0.00010137	0.00015734	332.14	3.6697e-06	1.8455e-06	660.52	121.59	6.0412e-06	5.4663e-06	328.01	155.89	57.464	22.731	4.1759e-06	82.968	0.0008693	0.00090079	0.00024568	321.76	9.0656e-06	9.7618e-06	637.61	118.43	9.1413e-06	9.804e-06	318.82	151.86	56.679	22.268	9.2676e-06	81.334	74.589	46.127	29.755	-13.677	101.205	160.201	-13.907	-9.443	98.975	122.699	-10.122	-6.242	-5.616	-1.413	111.113	-2.836	-8191	255	
22884.398	1	1	0	0	0.25208	0.1816	0.12902	0.060958	0.23908	0.13386	0.22118	0.15461	0.17396	0.26464	0.15613	0.09057	0.037949	0.078184	0.20122	0.11978	-2.2792	-2.7896	-2.975	-2.5042	-3.0875	-2.9854	-2.8708	-3.0438	-2.8812	-2.9042	-3.2562	-2.8667	-3.025	-2.7375	-2.8458	-3.175	171.058	221.088	196.500	210.983	307.849	220.831	290.348	177.727	221.790	94.374	157.585	291.468	75.911	-11.825	223.893	111.935	0.00078312	0.00037	4.976e-06	331.82	4.0611e-06	3.841e-06	658.97	121.88	4.4042e-06	4.7025e-06	327.99	156.86	57.584	22.83	5.6428e-06	83.423	0.0008693	0.00087751	0.00024884	321.33	8.9324e-06	9.7228e-06	636.15	118.42	9.3855e-06	9.8574e-06	318.05	152	56.78	22.336	9.2762e-06	81.48	67.333	55.124	72.894	-13.774	104.842	133.786	-13.713	-9.338	38.505	111.040	-10.250	-6.516	-5.679	-1.596	123.024	-3.146	-8191	255	
22884.494	1	1	0	0	0.11305	0.074956	0.16349	0.30559	0.070064	0.19493	0.1366	0.091691	0.076561	0.18531	0.037854	0.18049	0.0914	0.14735	0.23227	0.13439	-2.3229	-3.0271	-3.0042	-2.7667	-3.1229	-3.0167	-2.8812	-3.1188	-2.8375	-2.8708	-3.0792	-2.7562	-2.9625	-3.1604	-2.825	-3.1583	266.419	57.985	14.549	2.873	308.309	75.327	-19.101	108.750	-23.739	280.056	16.772	163.795	328.509	126.481	316.347	309.516	0.00074	0.00036373	0.00017104	329.65	1.468e-06	5.1564e-06	655.33	121.43	5.9769e-06	5.9401e-06	328.19	157.07	57.266	22.806	6.0583e-06	83.782	0.00086609	0.0008988	0.00025463	319.65	9.2425e-06	9.6669e-06	632.14	118.23	9.4348e-06	9.8679e-06	318.33	152.2	56.725	22.463	9.5605e-06	81.895	76.382	97.758	90.364	-13.507	193.904	136.196	-13.537	-9.183	107.096	132.390	-10.221	-6.560	-5.874	-1.172	158.934	-3.052	-8191	255	
22884.592	1	1	0	0	0.04291	0.15516	0.20088	0.077333	0.040365	0.25164	0.37357	0.23994	0.16392	0.17676	0.13987	0.13559	0.19039	0.15024	0.15846	0.3021	-2.5604	-2.675	-3.1063	-2.7771	-3.0292	-3.1021	-2.6646	-2.8812	-2.8917	-3.0354	-3.0312	-2.9396	-3.0146	-3.1604	-2.9271	-3.175	48.756	205.866	99.180	284.139	268.381	159.317	243.179	228.375	313.718	263.377	30.637	4.848	219.203	310.145	255.832	276.061	0.00069826	0.00061618	7.4396e-05	330.38	3.8973e-06	2.2151e-06	660.13	121.73	6.7987e-06	2.7175e-06	330.43	156.36	57.609	22.763	3.9915e-06	83.741	0.00088328	0.00092373	0.00025913	319.38	9.0134e-06	9.9444e-06	636.21	118.77	9.2172e-06	9.9232e-06	319.87	152.11	56.954	22.474	9.6398e-06	82.165	73.264	65.215	53.677	-13.719	88.335	86.638	-13.689	-8.889	83.356	113.579	-10.266	-6.219	-5.707	-1.581	123.887	-3.115	-8191	255	
22884.713	1	1	0	0	0.17486	0.22175	0.071636	0.11916	0.24016	0.0311	0.15676	0.29367	0.31021	0.10702	0.1053	0.27099	0.20447	0.055639	0.28008	0.11982	-2.4792	-2.9083	-2.8833	-2.7417	-2.7271	-2.9583	-2.8604	-2.9375	-3.0812	-2.8	-3.1229	-2.9792	-2.8542	-2.9854	-2.6813	-2.9625	111.281	107.906	114.578	271.359	139.600	285.076	300.915	292.259	27.121	168.505	173.383	321.510	280.745	157.064	117.294	238.007	0.00069151	0.00048982	0.00018785	328.77	3.2079e-06	2.0511e-06	660	121.91	5.272e-06	2.3196e-06	332.2	157.54	58.276	23.004	4.3779e-06	84.511	0.00089599	0.0009004	0.00025303	320.16	8.9631e-06	1.0163e-05	637.39	118.92	9.0755e-06	9.8146e-06	321.38	153.09	57.301	22.613	9.6506e-06	82.638	71.439	64.378	88.835	-13.879	121.003	84.252	-13.861	-8.858	85.012	115.171	-10.496	-6.217	-5.967	-1.290	63.029	-3.115	-8191	255	
22884.783	1	1	0	0	0.22176	0.15984	0.25413	0.13928	0.16459	0.16852	0.13468	0.38555	0.096395	0.20058	0.41488	0.16684	0.26218	0.084333	0.24971	0.1196	-2.6083	-2.6771	-3.1958	-2.7292	-2.675	-3.2083	-2.7042	-2.8271	-2.9104	-2.7542	-3.1208	-2.8979	-2.7979	-2.9813	-2.8458	-3.1063	85.202	71.774	-23.132	-24.375	125.050	32.586	247.046	227.303	194.742	154.091	291.060	10.494	311.393	303.470	211.832	-8.450	0.00068947	0.00021719	0.00027424	328.23	2.6051e-06	5.3411e-06	658.13	121.79	4.7913e-06	5.5053e-06	329.53	156.9	57.818	23.018	7.0107e-06	83.94	0.00089135	0.0009112	0.00025844	319.58	9.4335e-06	1.0415e-05	635.52	119.01	9.1963e-06	1.0328e-05	320	152.46	57.133	22.57	9.7891e-06	82.051	66.535	57.160	61.245	-13.649	112.294	135.702	-13.881	-9.310	70.844	140.897	-10.100	-6.476	-5.797	-1.710	114.034	-3.093	-8191	255	
22884.881	1	1	0	0	0.1919	0.16673	0.080315	0.10846	0.12021	0.14919	0.20955	0.07701	0.07739	0.10373	0.21352	0.27036	0.19071	0.16737	0.098224	0.1741	-2.6813	-2.6354	-3.1188	-2.9292	-2.9	-3.1708	-2.9875	-3.0417	-2.9896	-2.85	-3.0979	-3.0208	-2.8021	-3.0854	-2.7042	-3.1604	124.814	323.678	249.644	-0.879	273.500	281.161	79.037	265.517	50.638	280.102	-2.575	310.284	159.621	306.434	135.894	-13.328	0.00064217	0.00046835	0.00015302	328.23	2.3308e-06	5.6007e-06	655.1	122.07	4.4728e-06	4.8272e-06	329.53	157.17	58.066	22.957	6.5207e-06	84.127	0.00089231	0.00091432	0.00024763	319.55	9.0607e-06	1.0104e-05	632.77	118.69	9.1025e-06	1.0057e-05	319.65	152.59	57.058	22.552	9.5596e-06	82.049	74.502	72.423	94.462	-13.833	110.865	144.017	-13.964	-9.191	127.689	86.743	-10.380	-6.059	-5.937	-1.352	126.877	-3.070	-8191	255	
22884.977	1	1	0	0	0.19421	0.13932	0.23273	0.15498	0.13406	0.17853	0.16187	0.24821	0.14547	0.1516	0.23079	0.31266	0.11054	0.03529	0.20828	0.24166	-2.5896	-2.8479	-3.0667	-2.8375	-2.6708	-3.0042	-2.8771	-2.7771	-3.0125	-2.7417	-2.9062	-3.1729	-2.6354	-2.925	-2.5125	-3.0812	321.714	30.887	327.027	306.813	197.399	263.619	204.508	329.140	92.831	19.067	227.088	40.490	181.002	146.080	305.726	213.642	0.00064889	0.00069897	0.00015025	329.69	9.0306e-06	5.1699e-06	654.58	121.69	4.9482e-06	3.4563e-06	329.58	157.56	57.805	22.837	7.1326e-06	84.013	0.00087082	0.00090032	0.00024765	318.87	9.1326e-06	1.0041e-05	633.2	118.7	9.2595e-06	9.965e-06	320.09	152.98	56.964	22.574	9.7457e-06	82.421	71.445	67.954	16.981	-13.707	97.766	138.265	-14.080	-9.479	93.275	147.040	-10.129	-6.575	-5.738	-1.388	66.090	-2.987	-8191	255	
22885.096	1	1	0	0	0.10109	0.17784	0.15546	0.25424	0.15276	0.36632	0.14883	0.15176	0.30839	0.1028	0.15784	0.069623	0.11367	0.26643	0.20361	0.29239	-2.6479	-2.5521	-2.8458	-3.0875	-2.8583	-3.15	-3.025	-2.6833	-3.0792	-2.8125	-2.9083	-3.1521	-2.8396	-3.0542	-2.9271	-2.9604	-0.407	107.574	298.301	-11.481	151.795	196.128	297.637	239.374	34.289	159.469	274.572	320.109	296.458	246.238	293.127	265.467	0.00076766	0.00033607	9.907e-05	330.44	4.6466e-06	2.5044e-06	656.88	122.13	5.117e-06	4.483e-06	331.33	157.06	58.384	23.026	5.7434e-06	84.524	0.00090368	0.00093895	0.00025835	320.64	9.4712e-06	1.0313e-05	635.89	118.95	9.2691e-06	1.0126e-05	321.9	153.31	57.216	22.628	9.7914e-06	82.51	73.051	35.060	105.521	-13.738	110.462	104.121	-13.918	-9.224	80.047	122.591	-10.509	-6.394	-5.942	-1.555	116.074	-3.044	-8191	255	
22885.191	1	1	0	0	0.24877	0.099183	0.26065	0.013123	0.31159	0.1501	0.11203	0.27917	0.30749	0.087857	0.11696	0.049726	0.18141	0.15798	0.10046	0.098572	-2.6312	-2.8688	-2.9917	-2.9688	-2.8937	-3.1542	-3.2021	-2.8729	-3.1104	-2.8708	-2.9854	-3.2687	-2.7917	-3.0604	-2.8958	-2.8646	295.618	181.842	26.337	320.437	31.766	229.737	126.499	241.028	193.107	326.263	290.340	23.230	71.616	224.648	162.881	228.046	0.00072458	0.00043691	0.00012289	327.69	3.7575e-06	6.3319e-06	658.68	121.65	5.8264e-06	3.6964e-06	332.24	157.67	57.899	23.071	6.1503e-06	84.103	0.0008967	0.00092464	0.00025361	319.17	9.5465e-06	1.0105e-05	633.81	118.57	9.3083e-06	1.0277e-05	320.39	153.11	56.911	22.664	9.5067e-06	82.395	74.565	51.718	88.814	-13.808	102.366	112.742	-14.098	-9.336	107.525	153.612	-10.200	-6.441	-5.361	-1.384	125.201	-3.079	-8191	255	
22885.287	1	1	0	0	0.26137	0.1258	0.1559	0.076804	0.088941	0.30383	0.059971	0.16331	0.11176	0.1098	0.1381	0.079445	0.10861	0.10264	0.1648	0.19249	-2.6646	-2.8563	-2.8417	-3.0187	-2.7104	-2.8896	-2.9146	-2.6958	-3.0938	-2.7479	-2.85	-3.1979	-2.6458	-2.8292	-2.9875	-2.8187	164.158	256.794	296.735	318.952	160.179	188.078	241.237	-13.015	67.487	18.611	212.834	213.000	216.197	208.953	232.428	269.646	0.00074819	0.00052546	7.9581e-05	327.87	6.1313e-06	4.5543e-06	653.13	121.28	6.9209e-06	3.4853e-06	330.36	157.73	57.428	23.032	2.8031e-06	84.209	0.00089852	0.00092364	0.00025196	318.57	9.4497e-06	9.9146e-06	631.97	118.41	9.341e-06	1.0135e-05	320.7	152.9	57.021	22.611	9.5207e-06	82.421	68.739	69.936	53.570	-13.739	108.073	126.857	-14.024	-9.161	128.807	109.561	-10.228	-6.456	-5.848	-1.403	157.314	-3.195	-8191	255	
22885.383	1	1	0	0	0.26099	0.14953	0.024808	0.03674	0.14871	0.23517	0.112	0.15986	0.10005	0.21301	0.09149	0.16878	0.20976	0.16187	0.18818	0.21089	-2.8208	-2.8312	-2.675	-3.0563	-2.8521	-2.9896	-3.1354	-2.9062	-3.0271	-2.7667	-2.9292	-3.0667	-2.7896	-2.9188	-3.0458	-2.7188	307.388	158.589	85.158	183.045	146.512	234.216	227.318	-15.937	23.391	142.787	291.453	322.145	299.245	168.357	2.948	284.702	0.00068416	0.00017757	7.7498e-05	328.4	7.9709e-06	7.7762e-06	655.29	122.43	2.6997e-06	4.2462e-06	332.01	157.19	58.532	22.992	4.0948e-06	84.819	0.00090504	0.00092954	0.00025652	318.88	9.3004e-06	9.7474e-06	634.36	119.05	9.2412e-06	1.0025e-05	321.69	153.08	57.282	22.709	9.5098e-06	83.003	71.786	81.978	57.598	-14.206	95.184	130.261	-13.739	-8.975	161.538	160.102	-10.306	-6.038	-5.747	-1.586	92.177	-3.081	-8191	255	
22885.479	1	1	0	0	0.14569	0.25174	0.033623	0.051429	0.42337	0.15122	0.12402	0.21995	0.24673	0.07251	0.15228	0.12199	0.10684	0.10511	0.049402	0.37921	-2.6958	-2.8771	-2.6562	-3.1312	-2.8292	-2.7646	-3.1854	-2.8187	-3.1	-3.0229	-2.8458	-3.0104	-2.8979	-2.8229	-3.1667	-2.9375	270.448	58.907	0.817	289.276	305.514	203.818	17.280	138.247	-10.735	301.604	202.213	232.394	88.999	277.576	204.155	317.178	0.0006884	0.00022785	0.00013875	329.5	6.8649e-06	2.0397e-06	657.06	123.58	3.8133e-06	4.1823e-06	330.2	157.64	58.488	23.107	2.7595e-06	84.808	0.00089583	0.00094138	0.00025858	319.57	9.5492e-06	1.0176e-05	636.42	119.95	9.3663e-06	1.0002e-05	322.72	153.9	57.393	22.689	9.5759e-06	82.895	75.261	61.609	54.474	-13.573	134.711	185.158	-13.920	-9.646	172.121	124.271	-10.131	-6.226	-5.988	-1.752	137.352	-2.794	-8191	255	
22885.574	1	1	0	0	0.17116	0.17359	0.22577	0.048949	0.19159	0.11341	0.14293	0.20561	0.070064	0.23218	0.14478	0.30586	0.11501	0.056316	0.16622	0.2564	-2.3854	-2.9313	-2.8187	-3.0687	-2.8521	-2.7167	-3.1667	-2.7396	-2.8479	-3.1042	-2.8042	-2.9375	-2.9562	-2.8812	-2.9354	-2.7708	312.775	300.484	32.291	221.066	79.816	-7.264	331.796	49.588	169.466	235.066	291.704	-3.663	231.486	117.252	-3.621	264.472	0.00068376	0.00053534	0.00011352	331.1	4.1893e-06	5.7496e-06	662.68	123.03	3.3861e-06	3.7117e-06	332.13	157.83	58.006	23.042	4.0889e-06	84.292	0.00088683	0.00091397	0.00025488	320.37	9.176e-06	1.0269e-05	636.43	119.9	9.3703e-06	9.842e-06	322.13	153.1	57.066	22.657	9.5945e-06	82.232	65.990	25.646	78.047	-13.668	106.335	128.030	-13.870	-9.197	102.482	101.024	-10.238	-6.667	-5.616	-1.364	104.919	-3.062	-8191	255	
22885.670	1	1	0	0	0.19323	0.055531	0.18147	0.093129	0.068314	0.039077	0.13534	0.03592	0.17108	0.11623	0.039353	0.17122	0.14602	0.13427	0.22533	0.11192	-2.5062	-2.7396	-2.725	-2.9562	-2.8812	-2.7188	-3.0438	-2.6188	-2.9271	-2.9562	-2.8667	-3.1042	-2.9604	-2.7188	-3.05	-3.0354	11.311	265.736	297.841	97.082	274.874	-6.282	180.204	155.881	269.233	130.144	255.403	317.381	90.393	278.173	111.967	-26.928	0.0007181	0.00041528	0.00013598	328.3	4.3743e-06	6.9217e-06	654.36	123.58	5.1833e-06	6.2142e-06	331.99	157.39	58.022	22.959	6.0901e-06	83.81	0.00088223	0.00089091	0.0002554	318.66	8.7751e-06	1.0042e-05	635.5	119.89	9.0323e-06	9.7762e-06	321.74	153	57.085	22.637	9.6434e-06	81.956	68.352	35.852	54.787	-13.875	75.955	129.052	-13.801	-9.663	94.667	132.254	-10.375	-6.263	-6.019	-1.270	114.983	-3.021	-8191	255	
22885.791	1	1	0	0	0.22511	0.068106	0.19418	0.13077	0.093152	0.07407	0.17624	0.061649	0.10488	0.15897	0.22757	0.17029	0.12603	0.1201	0.13001	0.278	-2.4167	-3.0104	-2.6792	-3.0271	-2.9958	-2.6542	-3.1646	-3.0187	-2.7979	-2.9104	-2.7812	-2.8896	-2.9542	-2.7604	-2.9104	-2.8646	325.724	244.175	7.256	-0.013	56.819	239.439	174.166	267.910	111.382	213.983	275.373	301.208	321.945	88.776	117.204	258.033	0.00066185	7.3351e-05	0.00018043	330.91	4.6915e-06	8.0111e-06	659.09	122.54	4.749e-06	2.7358e-06	332.25	157.88	58.207	22.744	7.6235e-07	83.075	0.00087338	0.00091254	0.0002548	320.71	9.1006e-06	9.9936e-06	636.53	119.32	9.1998e-06	9.9876e-06	321.33	152.87	57.027	22.477	9.6004e-06	81.622	72.450	79.840	66.435	-13.847	135.647	132.651	-13.824	-9.357	132.591	128.832	-9.900	-6.292	-5.755	-1.588	72.145	-3.116	-8191	255	
22885.887	1	1	0	0	0.32769	0.20706	0.16448	0.12096	0.28877	0.18375	0.096562	0.11234	0.10345	0.12585	0.054583	0.2138	0.30064	0.063591	0.21656	0.1004	-2.2438	-2.9083	-2.6833	-2.9271	-2.8396	-2.7062	-3.1542	-2.7396	-2.6063	-3.2042	-2.7458	-3.0208	-3.0187	-2.7146	-2.8667	-3.0104	325.162	13.829	194.041	149.070	262.712	147.539	110.306	240.299	0.076	43.566	155.146	245.123	119.898	91.505	65.845	203.705	0.00071117	0.00018102	0.00017316	331.67	5.3609e-06	4.4443e-06	664.81	122.06	4.3221e-06	6.533e-06	328.89	156.17	57.741	22.832	5.4532e-06	83.435	0.00085901	0.00089208	0.00025219	320.46	8.9933e-06	9.7098e-06	638.86	118.8	8.8587e-06	9.8189e-06	320.08	152.28	56.631	22.373	9.1232e-06	81.454	74.078	15.118	56.681	-14.115	100.389	152.683	-13.841	-9.394	102.550	122.460	-10.389	-6.547	-5.878	-1.272	132.521	-2.955	-8191	255	
22885.982	1	1	0	0	0.12995	0.36862	0.18005	0.2003	0.071333	0.087262	0.095143	0.097318	0.11679	0.32758	0.27208	0.14314	0.14211	0.20642	0.13366	0.25288	-2.3875	-3.0625	-2.6375	-2.9437	-3.0979	-2.7979	-3.0438	-3.0521	-2.8167	-3.0042	-2.9646	-2.8042	-3.0604	-2.8396	-3.1021	-3.1375	137.081	72.296	233.081	125.455	163.286	256.722	14.472	52.288	319.937	-9.583	72.690	304.944	155.719	242.985	90.034	249.720	0.00070719	0.00064389	0.00013954	333.11	5.8111e-06	2.0554e-06	653	122.09	4.7778e-06	2.5148e-06	328.17	154.95	57.139	22.567	3.899e-06	82.617	0.00086018	0.00088367	0.00024758	320.6	9.0244e-06	9.7796e-06	633.08	118.39	8.888e-06	9.5624e-06	317.95	150.73	56.257	22.255	9.1481e-06	80.696	67.789	76.861	78.989	-13.879	92.963	156.604	-13.841	-9.414	132.769	124.486	-10.025	-6.537	-5.891	-1.330	119.798	-3.004	-8191	255	
22886.078	1	1	0	0	0.094871	0.051166	0.076339	0.20985	0.27588	0.19467	0.10954	0.23115	0.1056	0.1105	0.10102	0.078369	0.34088	0.22243	0.18663	0.22308	-2.2833	-3.1021	-2.7083	-2.7583	-2.9479	-2.7333	-3.1979	-2.9146	-2.8396	-3.2188	-3.0542	-2.7604	-2.9938	-2.6312	-2.9458	-2.9208	63.080	211.230	0.409	25.790	240.198	84.643	229.950	-24.362	-21.830	157.365	236.116	326.098	13.009	-10.706	290.538	-26.204	0.00072957	0.00059001	0.00013797	327.39	8.1377e-06	6.4608e-06	651.8	121.19	7.7002e-06	3.7623e-06	328	155.45	57.286	22.851	3.8192e-06	82.97	0.00086695	0.00087222	0.00024994	317.53	9.0152e-06	9.61e-06	629.62	118.07	8.9451e-06	9.8627e-06	317.04	150.87	56.193	22.309	9.154e-06	81.136	68.371	28.089	83.103	-13.748	106.502	107.550	-13.681	-9.598	115.354	164.191	-9.776	-6.486	-5.506	-1.622	133.755	-3.096	-8191	255	
22886.176	1	1	0	0	0.072976	0.084652	0.085119	0.090207	0.049827	0.3393	0.013615	0.21876	0.37052	0.09034	0.10444	0.34034	0.12432	0.17265	0.14377	0.18203	-2.2979	-3.0604	-2.8896	-2.7292	-3.0292	-2.8583	-2.9292	-3.0396	-2.6917	-3.1729	-2.9583	-2.8438	-2.9396	-2.6146	-2.75	-2.9146	-22.231	109.213	36.597	36.119	66.226	234.674	131.871	268.390	126.220	13.587	51.784	253.604	281.902	236.014	-9.670	202.676	0.00069024	0.00044479	4.2014e-05	326.9	3.3601e-06	6.3142e-06	654.28	121.61	1.366e-06	4.2748e-06	328.62	156.14	57.06	22.708	2.685e-06	83.319	0.00087193	0.000876	0.00024124	316.81	9.2088e-06	9.5961e-06	632.64	118.19	9.2242e-06	9.5614e-06	318.41	151.39	56.41	22.343	9.1269e-06	81.291	72.131	56.547	52.164	-14.315	146.988	125.265	-13.677	-9.402	77.947	140.858	-10.193	-6.411	-5.960	-1.279	117.903	-2.973	-8191	255	
22886.271	1	1	0	0	0.035752	0.17093	0.27427	0.033416	0.3234	0.24643	0.11536	0.085565	0.19165	0.108	0.17633	0.17482	0.24836	0.081926	0.05273	0.34664	-2.3896	-2.9229	-2.5458	-2.6021	-2.8771	-2.8479	-2.8646	-2.8771	-2.8688	-3.0271	-2.9604	-2.7208	-3.0604	-2.8354	-2.7896	-3.2167	161.217	162.069	201.145	127.440	170.594	82.911	222.023	200.733	292.754	-3.123	240.622	5.467	200.195	98.352	-9.838	245.749	0.0006733	0.00031709	9.5353e-05	329.5	8.5135e-06	4.7839e-06	657	120.81	5.1707e-06	2.5206e-06	328.92	155.27	57.266	22.553	2.5643e-06	82.959	0.00087184	0.00089936	0.00024797	318.04	8.9285e-06	9.7305e-06	635.76	118.04	9.0131e-06	9.5994e-06	319.37	151.44	56.317	22.147	9.2808e-06	81.132	73.593	73.912	49.477	-14.042	100.769	136.975	-13.668	-9.179	75.288	112.432	-10.059	-6.409	-5.769	-1.099	77.310	-2.973	-8191	255	
22886.391	1	1	0	0	0.045386	0.11973	0.15021	0.19378	0.24846	0.12695	0.19514	0.049719	0.064301	0.25072	0.15862	0.28999	0.12382	0.41029	0.080082	0.20428	-2.4396	-2.9125	-2.9146	-2.8125	-3.0312	-2.8208	-2.6479	-3.1188	-2.7208	-2.8479	-3.0333	-2.8792	-2.9854	-2.7229	-2.8	-3.1188	165.790	-0.638	125.631	298.090	82.282	325.685	108.758	155.768	25.205	23.407	56.916	-24.172	169.060	218.687	139.291	273.229	0.0006529	0.00026637	0.00013969	327.43	4.6116e-06	4.6037e-06	656.12	121.67	4.3975e-06	1.2867e-06	328.56	154.81	56.8	22.636	4.0929e-06	82.642	0.00086272	0.00089104	0.00024486	317.36	9.2517e-06	9.4698e-06	633.25	118.08	8.8997e-06	9.7027e-06	317.43	150.64	55.995	22.165	9.3066e-06	80.665	73.169	36.316	61.652	-13.876	137.680	94.140	-13.513	-9.399	106.841	59.351	-10.191	-6.315	-5.574	-1.351	117.003	-2.990	-8191	255	
22886.486	1	1	0	0	0.11964	0.25193	0.11341	0.095638	0.15403	0.41304	0.14567	0.12793	0.19404	0.12749	0.12134	0.27192	0.21522	0.089866	0.20948	0.24878	-2.3417	-2.7833	-2.9417	-2.7438	-2.8271	-2.9396	-2.7333	-2.9604	-2.7896	-2.9479	-3.2542	-2.7104	-2.9562	-2.8708	-2.6667	-3.1437	177.619	-12.246	206.485	269.940	0.019	204.441	288.809	37.617	287.221	256.622	188.827	310.317	26.982	270.975	37.740	-22.890	0.00069748	0.0004621	0.00017488	327.7	3.7573e-06	2.8569e-06	651.57	121.24	1.8402e-06	4.907e-06	330	155.64	57.065	22.584	2.8886e-06	82.966	0.00087113	0.00089637	0.00025202	316.79	9.5001e-06	9.9531e-06	631.1	118.19	9.0947e-06	9.7896e-06	319.07	151.63	56.245	22.237	9.374e-06	81.14	68.540	56.745	93.088	-13.924	129.233	107.961	-13.748	-9.190	155.534	112.829	-10.070	-6.546	-5.894	-1.406	67.931	-2.893	-8191	255	
22886.582	1	1	0	0	0.16137	0.17299	0.28399	0.11143	0.18124	0.087435	0.12055	0.16476	0.19402	0.33322	0.21393	0.16305	0.048084	0.30106	0.20706	0.054285	-2.3125	-2.875	-2.9688	-2.7208	-2.7417	-3	-2.7396	-3.0875	-2.8917	-2.9688	-2.9083	-2.8958	-3.025	-2.8479	-2.6937	-3.25	-25.978	325.416	227.360	315.640	57.103	240.539	52.118	221.324	121.944	54.362	242.897	224.441	73.741	264.631	270.881	320.226	0.00069972	0.00043506	0.0001494	326.87	3.0681e-06	4.307e-06	655.99	121.95	2.6366e-06	7.18e-06	328.97	155.63	56.537	22.626	4.0178e-06	82.895	0.00086865	0.00089152	0.00025266	318.78	9.0967e-06	9.5161e-06	633.55	118.3	8.9241e-06	9.8357e-06	319	151.45	56.072	22.212	9.1961e-06	80.962	70.684	66.990	61.794	-13.697	96.207	97.872	-13.634	-9.332	93.595	132.485	-10.218	-6.571	-6.344	-1.234	162.309	-2.799	-8191	255	
22886.680	1	1	0	0	0.10731	0.27149	0.076464	0.20292	0.38084	0.14387	0.15066	0.099465	0.062617	0.1905	0.11718	0.10241	0.26838	0.11908	0.20358	0.063873	-2.5604	-2.8354	-2.9813	-2.825	-2.8625	-3.025	-2.7958	-3.0667	-2.9313	-2.7542	-3.05	-2.8542	-2.8667	-3.0708	-2.6625	-3.1917	148.996	84.624	26.012	-24.120	26.494	219.754	307.444	128.919	20.875	139.211	249.542	245.013	-20.666	294.533	53.676	299.407	0.00074987	0.00066637	0.00018324	327.49	2.6374e-06	6.2314e-06	659.77	121.99	3.0384e-06	4.1993e-06	328.44	155.56	57.461	22.58	6.6839e-06	83.811	0.0008617	0.00088202	0.0002485	318.86	9.0275e-06	9.5647e-06	636.08	118.58	9.1989e-06	9.9299e-06	319.81	152.02	56.579	22.328	9.5809e-06	81.783	69.284	54.518	56.258	-13.937	94.893	155.012	-13.775	-9.377	68.594	134.475	-10.131	-6.419	-5.654	-1.615	106.492	-2.990	-8191	255	
22886.775	1	1	0	0	0.10701	0.018473	0.16513	0.097743	0.29339	0.017605	0.19117	0.13898	0.064437	0.16251	0.062863	0.13985	0.16982	0.29229	0.29035	0.181	-2.4875	-2.7042	-3.0563	-2.7542	-2.8292	-2.9771	-2.7	-3.1063	-3.0146	-2.5312	-3.2	-2.8104	-2.7104	-2.9208	-2.6437	-3.1875	326.204	151.334	95.849	-26.009	51.146	281.934	231.171	165.100	297.745	21.164	-0.226	317.506	308.749	232.131	328.321	238.466	0.00072644	0.00070478	9.4735e-05	326.4	3.9033e-06	7.1822e-06	656.56	120.64	3.8297e-06	3.4051e-06	328.72	155.83	57.01	22.632	3.7192e-06	83.28	0.00088748	0.00091441	0.00025122	318.61	9.303e-06	9.9974e-06	633.87	118.41	9.1234e-06	1.0024e-05	319.25	151.64	56.234	22.304	9.3668e-06	81.326	67.318	60.060	44.085	-13.647	108.915	121.625	-13.967	-9.252	64.410	134.246	-10.137	-6.637	-5.351	-1.182	126.990	-2.974	-8191	255	
22886.871	1	1	0	0	0.0674	0.11916	0.034203	0.19951	0.098794	0.052412	0.39608	0.10667	0.1717	0.35999	0.15756	0.26942	0.41155	0.12958	0.080928	0.24385	-2.5062	-2.4771	-3.025	-2.925	-2.8708	-3.1375	-2.7354	-2.9646	-3.1917	-2.6667	-2.9083	-3.0271	-2.7208	-3.025	-2.7021	-2.9021	74.501	74.125	7.959	283.503	29.078	171.254	218.989	330.536	184.091	2.919	268.446	247.559	282.466	297.910	73.587	295.771	0.00072297	0.00032151	0.00012184	327.6	5.3013e-06	4.241e-06	653.69	121.58	3.816e-06	1.9864e-06	328.14	155.02	57.312	22.554	6.6063e-06	83.261	0.00088003	0.00092356	0.00024899	317.29	9.1873e-06	1.0035e-05	632.26	118.23	8.9316e-06	1.0162e-05	319.26	151.42	56.419	22.253	9.4279e-06	81.401	76.217	80.597	88.293	-13.726	64.262	133.184	-14.057	-9.121	97.764	80.736	-10.269	-6.320	-6.033	-1.255	109.786	-2.766	-8191	255	
22886.967	1	1	0	0	0.20115	0.17557	0.21943	0.13629	0.21006	0.26479	0.035248	0.039079	0.25626	0.093162	0.20708	0.22902	0.092173	0.18429	0.083449	0.080183	-2.3937	-2.7062	-2.9375	-2.8688	-2.9292	-3.1688	-2.8667	-2.8292	-2.8812	-2.8583	-3.0792	-2.8958	-2.9021	-3.0938	-2.7646	-3.0208	226.015	183.541	169.934	158.273	138.521	82.759	69.083	-4.576	170.109	84.900	207.055	298.172	82.536	126.268	320.800	90.866	0.00069633	0.00033383	0.00012669	327.78	5.9498e-06	5.4234e-06	652.88	121.37	3.1301e-06	3.4063e-06	330.95	156.37	57.361	22.819	3.5735e-06	83.168	0.00089614	0.00091168	0.00024449	318.11	9.2754e-06	9.8192e-06	633.97	118.56	9.2713e-06	9.9126e-06	320.4	152.29	56.62	22.408	9.5633e-06	81.638	70.157	54.966	21.107	-14.198	105.070	125.527	-13.883	-9.252	84.127	168.666	-10.161	-6.378	-5.685	-1.330	124.931	-3.200	-8191	255	
22887.062	1	1	0	0	0.12693	0.17519	0.055894	0.24205	0.28612	0.093993	0.040742	0.10858	0.10208	0.22433	0.16554	0.2425	0.19597	0.067098	0.18147	0.38932	-2.6458	-2.6208	-2.9521	-2.8792	-2.4688	-3.0521	-2.8833	-2.7958	-2.925	-2.7687	-3.1646	-2.9625	-2.6229	-2.9229	-2.7854	-2.9354	125.012	-11.331	267.878	263.919	100.358	59.408	223.469	278.215	24.744	235.389	319.251	238.437	288.567	326.833	178.241	246.872	0.00064761	0.00037445	8.643e-05	330.02	3.0124e-06	3.7364e-06	656.59	121.83	6.2543e-06	3.031e-06	331.81	156.86	57.786	22.84	4.8111e-06	83.486	0.00087864	0.00091241	0.00025651	318.87	9.2079e-06	9.771e-06	635.33	118.67	9.1627e-06	9.8271e-06	321.22	152.51	56.747	22.357	9.5347e-06	81.76	69.978	60.106	53.719	-14.116	82.638	124.573	-13.770	-9.294	121.543	119.419	-10.132	-6.369	-5.308	-1.194	83.555	-2.935	-8191	255	
22887.184	1	1	0	0	0.11955	0.074651	0.31879	0.23772	0.12299	0.19208	0.16044	0.14531	0.086493	0.031064	0.21675	0.10181	0.17303	0.17409	0.073607	0.10915	-2.6042	-2.7542	-2.7917	-2.9208	-2.6604	-3.0521	-2.9083	-2.6792	-3.0958	-2.7479	-3.0604	-3.05	-2.7083	-3.0312	-2.8542	-2.8229	-10.333	-17.817	89.332	296.626	29.193	205.563	276.718	183.766	106.914	284.583	72.602	297.834	326.178	166.258	298.511	284.776	0.00071517	0.00051239	0.00016065	328.03	2.1138e-06	4.8059e-06	655.16	120.69	4.0383e-06	5.5509e-06	330	155.57	57.668	22.8	5.1537e-06	83.634	0.00090266	0.00092585	0.00025176	318.38	9.5189e-06	9.9623e-06	633.88	118.51	9.311e-06	1.0314e-05	319.85	151.87	56.708	22.483	9.7439e-06	81.76	64.831	14.937	63.240	-13.594	109.815	117.970	-13.890	-9.273	76.569	116.962	-10.457	-6.542	-5.894	-1.442	83.166	-2.992	-8191	255	
22887.277	1	1	0	0	0.088386	0.1003	0.13408	0.20403	0.25178	0.24565	0.27196	0.38161	0.10885	0.070994	0.025082	0.082392	0.46697	0.20921	0.1767	0.031526	-2.6312	-2.6333	-2.7125	-2.9792	-2.7313	-3.0708	-2.8583	-2.825	-3.0625	-2.7938	-2.8688	-2.9562	-2.7167	-2.8833	-2.85	-2.9375	100.119	107.684	30.155	268.251	311.044	-11.563	267.344	255.175	104.261	65.489	85.489	33.547	295.504	192.346	116.402	288.981	0.00067613	0.00065532	0.00013119	327.48	5.8341e-06	5.3224e-06	656.14	121.24	5.1606e-06	3.6845e-06	331.75	156.31	57.382	22.799	2.9089e-06	84.035	0.00089119	0.00094272	0.00025696	316.89	9.5522e-06	1.0242e-05	633.22	118.39	9.307e-06	1.0184e-05	320.36	152.44	56.606	22.37	9.8878e-06	81.932	69.478	91.971	44.698	-13.873	98.536	142.191	-14.001	-9.181	84.992	113.634	-9.999	-6.429	-5.792	-1.239	111.328	-3.020	-8191	255	
22887.352	1	1	0	0	0.17492	0.17584	0.13164	0.13945	0.12296	0.19655	0.066298	0.19442	0.1142	0.031578	0.16885	0.20592	0.20542	0.10248	0.20394	0.122	-2.6625	-2.7479	-2.6958	-2.7979	-2.6833	-2.9396	-2.8917	-2.9208	-3.0854	-2.8312	-2.9167	-3.0438	-2.8063	-2.9437	-3.1125	-2.8417	-3.575	65.876	-15.091	294.674	326.101	70.429	-3.122	-14.998	219.056	59.620	173.915	230.882	269.618	79.181	214.329	151.284	0.00066903	0.00050609	0.00012504	326.49	2.4788e-06	3.5435e-06	656.5	121.89	6.1901e-06	4.297e-06	332.01	156.95	57.436	22.941	6.2381e-06	84.346	0.00090109	0.0009311	0.00025536	317	9.5338e-06	1.0255e-05	633.95	118.57	9.3227e-06	1.013e-05	321.07	152.58	56.633	22.503	9.7787e-06	82.455	67.230	92.385	51.520	-13.743	140.426	123.361	-13.777	-9.397	104.593	163.428	-10.264	-6.591	-5.627	-1.315	105.915	-2.960	-8191	255	
22887.473	1	1	0	0	0.056356	0.18296	0.29762	0.11824	0.15063	0.18191	0.13757	0.241	0.28103	0.32948	0.1339	0.043774	0.19671	0.024768	0.26466	0.24585	-2.6375	-2.8229	-2.8833	-2.9437	-2.7542	-2.8438	-3.0938	-2.6604	-2.9771	-2.9062	-2.8583	-3.1333	-2.6604	-3.0167	-2.9854	-2.6458	227.074	0.760	17.223	0.505	167.101	41.301	-4.632	324.829	168.166	262.213	192.502	268.112	7.371	-25.478	63.723	308.543	0.00069918	0.0003456	0.000168	328.12	5.9204e-06	4.1902e-06	662.16	122.46	5.7313e-06	5.1176e-06	331.82	157.5	57.832	22.962	3.0329e-06	84.442	0.00089701	0.00092126	0.00025944	318.83	9.639e-06	1.027e-05	636.93	119.11	9.4025e-06	1.0162e-05	322.28	153.57	56.921	22.588	9.7959e-06	82.673	67.627	34.845	33.953	-13.772	94.824	113.136	-13.799	-9.423	133.808	116.076	-10.052	-6.467	-5.609	-1.449	85.150	-2.899	-8191	255	
22887.566	1	1	0	0	0.11745	0.063815	0.069144	0.10965	0.058488	0.16951	0.13443	0.30732	0.32491	0.21913	0.24614	0.15611	0.1973	0.28464	0.24461	0.31756	-2.3625	-2.825	-2.6646	-3.1375	-2.8542	-2.9521	-2.9062	-2.7396	-2.7583	-2.7687	-2.9354	-3.1604	-2.7667	-2.8604	-2.85	-2.7687	254.323	3.381	-15.282	132.086	267.025	106.751	284.116	240.192	280.493	36.455	246.622	210.550	310.191	28.151	-8.827	265.882	0.00070529	0.00058213	0.00017792	327.94	5.5654e-06	5.2969e-06	655.73	121.66	5.126e-06	5.9212e-06	331	157.05	57.311	22.994	4.458e-06	83.999	0.00090362	0.00093487	0.00026281	317.6	9.6166e-06	1.0217e-05	632.5	118.61	9.4304e-06	9.8785e-06	320.77	152.76	56.712	22.616	1.0008e-05	82.29	67.375	59.603	36.758	-13.826	122.482	115.963	-13.694	-8.896	87.977	119.962	-10.390	-6.421	-5.993	-1.243	98.264	-2.920	-8191	255	
22887.662	1	1	0	0	0.039731	0.037248	0.2012	0.19173	0.10286	0.093082	0.25175	0.096527	0.015001	0.17944	0.10193	0.12598	0.24552	0.040344	0.2899	0.077783	-2.4938	-2.9042	-2.7125	-3.0312	-2.8063	-2.8187	-2.9875	-2.6542	-2.9708	-2.975	-2.9125	-2.8729	-2.6875	-2.6979	-2.7021	-2.6667	211.629	122.163	-10.908	286.348	248.201	243.164	321.286	137.064	-22.322	47.566	42.408	37.935	253.325	276.318	195.931	313.252	0.00064511	0.00056399	4.2678e-05	326.74	7.5016e-06	5.6735e-06	651.84	121.73	6.5186e-06	5.9159e-06	328.97	157.07	57.712	23.066	7.152e-06	84.346	0.0009065	0.00094181	0.00025667	317.11	9.5496e-06	1.025e-05	630.99	118.92	9.3118e-06	1.0438e-05	320.05	152.68	56.734	22.609	9.8992e-06	82.311	70.924	53.939	93.470	-13.738	92.658	129.431	-13.683	-9.054	77.872	140.525	-10.563	-6.403	-5.510	-1.395	118.743	-2.985	-8191	255	
22887.783	1	1	0	0	0.17836	0.23726	0.043656	0.12364	0.266	0.18273	0.10731	0.26466	0.26153	0.17618	0.10527	0.099684	0.21859	0.23679	0.34194	0.20781	-2.3958	-3.0104	-2.6521	-2.8271	-2.8229	-2.6333	-3.1792	-2.7917	-2.9083	-2.8771	-2.7521	-3.0979	-2.8833	-2.7354	-3.0646	-3.0292	150.960	205.769	67.716	257.329	314.343	296.304	245.766	1.694	92.603	173.665	321.816	185.669	287.858	6.056	35.164	240.825	0.00076677	0.00064715	0.00013972	326.5	7.1349e-06	5.119e-06	656.06	122.47	3.8716e-06	6.6206e-06	330.79	157.41	57.956	22.94	3.9346e-06	84.019	0.00088903	0.00093067	0.00025728	317.28	9.646e-06	1.0228e-05	633.42	119.32	9.3258e-06	1.0072e-05	320.96	153.28	56.83	22.602	9.647e-06	82.32	70.660	74.981	72.034	-13.484	136.586	111.834	-13.543	-9.333	97.105	113.342	-9.921	-6.369	-6.059	-1.647	117.517	-3.052	-8191	255	
22887.881	1	1	0	0	0.12273	0.2226	0.24312	0.43145	0.39267	0.23206	0.15686	0.27385	0.14278	0.1589	0.25071	0.22606	0.19099	0.07413	0.068638	0.30289	-2.4375	-2.85	-2.6167	-3.0333	-2.8667	-2.8	-3.2521	-2.8	-3.0062	-3.2854	-2.9292	-2.9042	-2.8354	-2.6792	-2.9104	-2.8688	296.718	175.856	8.308	0.111	149.071	8.653	233.573	48.812	305.220	138.515	325.477	13.524	-15.807	288.635	165.495	263.732	0.00071964	0.00032616	0.00010472	328.32	6.7863e-06	2.8407e-06	658.19	121.93	2.7752e-06	2.8019e-06	332.59	157.78	57.769	23.02	5.5992e-06	84.473	0.00088476	0.00090773	0.00026166	318.22	9.2005e-06	1.0301e-05	635.76	118.8	9.4261e-06	1.0279e-05	321.71	153.63	56.968	22.585	9.9367e-06	82.585	74.035	94.745	57.326	-13.996	103.313	105.791	-13.885	-9.084	77.521	160.431	-10.411	-6.259	-6.248	-1.298	98.821	-3.097	-8191	255	
22887.951	1	1	0	0	0.16217	0.16795	0.33059	0.17875	0.12672	0.11103	0.19338	0.20471	0.22014	0.085755	0.13767	0.18754	0.14804	0.29992	0.162	0.23899	-2.4938	-2.9479	-2.6458	-3.0729	-2.85	-2.7208	-3.1312	-2.9917	-2.825	-2.925	-2.8417	-2.9646	-2.95	-2.8333	-3.2542	-2.9208	292.261	51.695	272.726	28.560	39.045	234.431	235.945	204.223	202.761	52.295	161.737	278.870	193.291	316.232	71.048	225.985	0.00068349	0.00074309	0.00011469	327.81	3.3636e-06	6.0493e-06	656.54	121.04	3.8252e-06	5.1304e-06	330.93	157.24	57.526	23.126	6.1797e-06	84.501	0.00090845	0.00093552	0.00025744	317.58	9.6617e-06	1.0397e-05	634.25	118.53	9.6023e-06	1.0078e-05	321.17	153.18	56.782	22.744	9.9019e-06	82.633	68.530	73.545	40.873	-14.016	83.906	128.180	-13.775	-9.612	94.592	130.100	-10.210	-6.672	-5.944	-1.660	117.333	-3.243	-8191	255	
22888.072	1	1	0	0	0.11568	0.15394	0.20601	0.30343	0.35073	0.12052	0.1242	0.13663	0.14171	0.20121	0.17567	0.078041	0.32869	0.41306	0.17674	0.41778	-2.2833	-3.1104	-2.7021	-2.9208	-3.0792	-2.8229	-3.0333	-3.0583	-2.7104	-3.1333	-2.9354	-2.95	-2.9021	-2.7208	-2.8438	-3.1	132.761	103.926	277.996	28.284	203.455	295.253	47.496	-7.120	-15.113	180.196	-15.492	298.967	278.770	-8.253	277.434	273.992	0.00074779	0.00070786	0.00017974	326.05	3.0497e-06	6.3856e-06	654.55	121.34	4.2942e-06	3.0822e-06	332.34	156.29	58.141	22.971	9.5952e-07	84.603	0.00091806	0.00095508	0.00026509	316.06	9.7953e-06	1.0507e-05	630.49	118.51	9.1945e-06	1.0519e-05	321.16	152.81	56.859	22.652	9.8571e-06	82.743	76.548	86.809	69.684	-14.010	92.930	124.871	-13.551	-9.177	118.177	146.647	-10.084	-6.354	-6.236	-1.378	110.529	-2.946	-8191	255	
22888.168	1	1	0	0	0.12528	0.18033	0.11715	0.053219	0.079977	0.11759	0.2032	0.36306	0.2217	0.12495	0.15308	0.2008	0.067987	0.19807	0.32655	0.21772	-2.2604	-2.8875	-2.6875	-2.8354	-2.9792	-2.775	-2.9146	-2.9188	-2.7479	-3.0396	-2.8438	-2.8438	-3.0625	-2.8792	-2.95	-3.1312	73.993	146.706	78.210	206.040	62.169	325.117	195.017	316.205	-15.957	58.642	275.764	-26.519	317.866	318.371	136.211	204.640	0.00072348	0.00071088	0.00016059	325.3	5.3195e-07	4.8411e-06	651.26	121.52	6.4032e-06	5.1224e-06	333.08	158.15	58.186	23.237	3.4395e-06	85.319	0.00090384	0.00095958	0.00025715	316.56	9.4642e-06	1.0319e-05	633.03	118.75	9.4884e-06	1.0271e-05	322.67	153.84	57.372	22.793	9.7946e-06	83.225	77.078	81.841	80.578	-14.014	57.616	101.168	-13.580	-9.297	91.733	185.131	-9.844	-6.466	-5.318	-1.529	98.934	-3.033	-8191	255	
22888.264	1	1	0	0	0.25511	0.082664	0.17656	0.25603	0.03366	0.17886	0.078039	0.12375	0.22806	0.15954	0.20336	0.22228	0.25645	0.096492	0.091739	0.31925	-2.4083	-2.9771	-2.8292	-2.7167	-3.1854	-2.6417	-3.0125	-2.9167	-2.8021	-3.1167	-2.9167	-2.7604	-3.0125	-2.6667	-2.8271	-3.1437	210.467	-0.861	246.266	326.797	185.436	179.612	58.113	52.015	264.498	243.158	-18.783	-24.980	304.311	251.179	289.450	304.992	0.00069272	0.00061918	0.00010299	325.27	6.859e-06	5.2171e-06	657.23	121.88	4.5773e-06	4.8158e-06	335.36	158.47	57.99	23.16	4.3528e-06	84.941	0.00092802	0.00092542	0.00026598	317	9.713e-06	1.037e-05	633.88	119.04	9.6363e-06	1.0332e-05	323.75	154.31	57.152	22.749	9.7783e-06	83.127	68.081	69.780	63.845	-13.906	98.952	136.931	-13.956	-8.764	109.526	85.606	-10.347	-6.529	-6.019	-1.312	146.583	-3.248	-8191	255	
22888.361	1	1	0	0	0.12858	0.015818	0.15855	0.098662	0.069842	0.24336	0.39232	0.071266	0.12236	0.22037	0.10426	0.19538	0.051783	0.090654	0.14696	0.2188	-2.1063	-3.0375	-2.7875	-2.8646	-2.9917	-2.7729	-2.8896	-3.1375	-2.775	-2.975	-2.9625	-2.8708	-3.0208	-2.7646	-2.8125	-3.1583	37.495	130.471	137.604	-13.091	45.862	307.200	270.001	277.737	-2.265	300.393	201.856	86.611	284.110	82.771	133.496	254.044	0.00069356	0.00040645	8.8728e-05	327.91	6.1439e-06	7.0072e-06	654.52	121.72	3.5573e-06	4.4187e-06	331.43	157.73	58.094	23.155	4.8947e-06	84.323	0.00088628	0.00094398	0.00025929	317.13	9.4659e-06	1.0215e-05	633.53	119.21	9.413e-06	1.0219e-05	322.06	153.38	57.005	22.711	9.9403e-06	82.837	78.038	70.083	90.774	-14.259	129.502	114.462	-13.740	-9.387	94.969	126.251	-10.311	-6.513	-5.431	-1.320	108.089	-2.928	-8191	255	
22888.479	1	1	0	0	0.13418	0.086763	0.12023	0.29829	0.11838	0.18532	0.11512	0.081852	0.18841	0.013434	0.069081	0.1421	0.086373	0.24019	0.28544	0.089642	-2.1458	-3.0542	-2.925	-2.8187	-2.8854	-2.8458	-2.8625	-3.1271	-2.8292	-2.875	-3.0958	-3.0083	-3.0104	-2.8812	-2.7313	-2.9167	298.031	194.867	27.300	299.007	22.914	255.525	10.529	165.033	295.559	77.388	313.616	294.556	31.883	315.293	86.830	224.779	0.00063063	0.00061528	0.00014252	326.51	5.5636e-06	6.7403e-06	653.96	122.78	8.2167e-06	2.5058e-06	331.61	157.61	57.804	22.985	5.0024e-06	84.531	0.00089676	0.00094675	0.00026685	317.01	9.3871e-06	1.0531e-05	630.69	119.38	9.4113e-06	1.0446e-05	321.27	153.17	57.084	22.673	9.8765e-06	82.8	69.658	83.322	81.927	-13.528	106.615	124.396	-14.048	-8.962	131.994	114.769	-10.056	-6.628	-5.912	-1.398	112.265	-3.067	-8191	255	
22888.576	1	1	0	0	0.057078	0.17204	0.23209	0.09324	0.078646	0.046986	0.33978	0.035949	0.18666	0.13715	0.2421	0.14542	0.16774	0.29595	0.13821	0.23713	-2.3833	-2.9979	-2.8792	-2.7521	-3.1396	-2.7896	-2.8125	-3.1271	-2.6292	-2.8438	-3.1479	-2.9146	-2.9979	-2.8979	-2.9479	-3.1	93.716	-3.998	143.789	34.576	99.095	26.041	196.179	229.951	274.882	-0.112	-3.345	300.454	229.443	105.457	230.966	-26.764	0.00072176	0.00053495	0.00010786	326.35	7.9218e-06	4.8053e-06	652.63	123.37	3.7167e-06	5.5869e-06	333.44	157.36	58.459	23.02	5.1992e-06	84.815	0.00089753	0.00091341	0.00025199	317.34	9.1137e-06	9.9497e-06	632.94	119.29	9.2163e-06	1.0112e-05	322.55	153.47	57.082	22.692	9.8023e-06	82.742	76.842	45.750	91.607	-13.800	111.926	120.747	-13.762	-9.238	137.932	133.506	-10.561	-6.591	-5.523	-1.337	141.141	-3.046	-8191	255	
22888.646	1	1	0	0	0.16428	0.18368	0.078477	0.091497	0.24556	0.064341	0.14567	0.22748	0.25717	0.119	0.073237	0.16691	0.21612	0.12492	0.12428	0.25531	-2.25	-2.7833	-2.9562	-2.7313	-2.8458	-2.9542	-2.7646	-2.9396	-2.8812	-2.7917	-3.1771	-2.6937	-3.0771	-2.9688	-2.7313	-3.1271	291.927	8.549	117.324	115.274	270.957	4.248	10.561	196.849	43.728	85.347	77.195	301.074	283.613	235.370	16.561	237.334	0.00069154	0.00063045	0.00013516	328.14	3.6671e-06	2.5442e-06	658.61	121.83	6.0308e-06	4.9561e-06	333.11	157.52	57.57	23.088	5.9947e-06	84.902	0.00090662	0.00094003	0.00025731	318.36	9.2452e-06	1.0195e-05	635.57	118.9	9.4069e-06	1.0246e-05	322.05	153.48	57.052	22.707	9.6017e-06	82.885	70.842	26.042	57.224	-13.645	118.588	202.297	-13.623	-9.133	104.109	137.234	-10.203	-6.414	-5.675	-1.122	132.099	-3.099	-8191	255	
22888.742	1	1	0	0	0.25755	0.055005	0.14583	0.10705	0.056991	0.22029	0.15166	0.22194	0.10516	0.12108	0.1189	0.19185	0.10293	0.16758	0.25727	0.082698	-2.3729	-2.6875	-2.9792	-2.7375	-2.9646	-2.9188	-2.7417	-3.0354	-2.8521	-2.9854	-3.2458	-2.9208	-2.9521	-2.8312	-2.7104	-2.95	314.139	137.696	20.678	90.449	275.712	128.765	4.137	325.069	116.101	-20.180	324.454	259.012	175.843	-11.520	282.081	-21.007	0.00066869	0.00039163	0.00017184	330.44	7.1717e-06	6.4177e-06	651.28	121.77	5.9367e-06	4.4691e-06	331.24	156.73	57.204	22.921	4.7549e-06	83.818	0.0009099	0.00093483	0.00025005	319.08	9.4905e-06	1.0106e-05	631.48	118.49	9.5194e-06	1.0233e-05	319.31	152.4	56.476	22.517	9.9277e-06	81.906	74.146	53.240	43.946	-13.835	116.257	90.953	-13.595	-8.934	104.845	115.548	-10.397	-6.479	-6.048	-1.604	86.322	-2.815	-8191	255	
22888.863	1	1	0	0	0.094216	0.13926	0.071245	0.073664	0.10361	0.32407	0.29183	0.21052	0.087963	0.26596	0.14319	0.16958	0.29199	0.095056	0.19663	0.17362	-2.3292	-2.7396	-2.9792	-2.6167	-2.9125	-3.1125	-2.7333	-2.7938	-2.8354	-2.8438	-3.1333	-2.9021	-2.8271	-3.0667	-2.6625	-3.0583	105.359	294.015	63.871	195.794	135.271	114.577	174.529	323.361	111.601	75.764	292.130	47.204	263.666	321.402	317.194	322.086	0.00076277	0.00059742	0.0001046	326.6	4.6122e-06	5.3085e-06	649.53	121.26	3.4271e-06	4.0275e-06	328.79	155.53	56.888	23.054	4.0526e-06	83.28	0.00087824	0.00092503	0.00025203	316.87	9.4962e-06	9.9724e-06	629.86	118.19	9.3293e-06	1.0263e-05	318.62	151.3	56.182	22.458	9.7004e-06	81.562	68.229	53.855	60.218	-13.662	145.006	164.989	-13.951	-9.037	135.091	110.191	-10.185	-6.583	-5.753	-1.375	102.812	-3.062	-8191	255	
22888.961	1	1	0	0	0.25913	0.23331	0.13549	0.29216	0.10473	0.14378	0.33936	0.15201	0.17128	0.074033	0.15573	0.18443	0.11473	0.13802	0.12824	0.13485	-2.4729	-2.7188	-2.825	-2.8104	-2.9042	-3.1521	-2.7729	-2.9083	-2.85	-2.8021	-3.0771	-2.8146	-2.8708	-2.9021	-2.7	-3.0458	318.489	107.798	270.737	311.729	180.725	212.712	288.130	202.251	103.771	18.070	203.447	262.566	64.336	321.312	60.335	148.187	0.00072738	0.00071324	5.2123e-05	327.71	3.819e-06	5.6263e-06	654.59	121.09	5.0821e-06	3.9125e-06	327.65	156.89	57.534	22.868	5.6501e-06	83.638	0.0009014	0.00090843	0.00024811	316.73	9.2745e-06	1.0181e-05	629.89	118.01	9.3227e-06	1.0154e-05	319.05	152.39	56.587	22.509	9.9322e-06	81.987	74.476	36.413	56.141	-13.853	107.931	136.160	-13.904	-9.202	119.623	114.571	-10.135	-6.568	-5.667	-1.549	122.722	-2.915	-8191	255	
22889.057	1	1	0	0	0.14648	0.20018	0.11452	0.088025	0.34412	0.21938	0.067819	0.37619	0.1227	0.18291	0.17752	0.054095	0.2343	0.063299	0.11299	0.073077	-2.7167	-2.5771	-2.9854	-2.9042	-2.7479	-2.9042	-2.7313	-2.7812	-2.8229	-2.6771	-3.0208	-2.9375	-2.5979	-3.075	-2.7729	-2.8354	297.060	85.169	205.732	292.252	241.469	327.372	69.271	319.478	100.659	63.234	293.301	330.699	-6.249	5.670	165.932	144.568	0.00068104	0.0010096	0.00020341	324.59	1.5025e-06	5.5752e-06	648.14	121.21	2.0401e-06	4.6031e-06	328.24	157.82	57.58	22.862	4.6636e-06	84.101	0.00089144	0.00091471	0.00025423	315.52	9.0993e-06	1.0103e-05	629.28	118	9.4156e-06	1.0085e-05	319.97	152.78	56.492	22.51	9.9693e-06	82.342	68.194	38.762	79.007	-13.758	122.033	119.697	-13.944	-8.736	69.186	136.776	-10.405	-6.384	-5.908	-1.631	83.388	-3.182	-8191	255	
22889.152	1	1	0	0	0.13349	0.17979	0.32949	0.12903	0.24385	0.069114	0.27926	0.069506	0.18987	0.13384	0.1491	0.11169	0.28771	0.041323	0.29044	0.12712	-2.4333	-2.5062	-2.8521	-3.1229	-2.7917	-2.9958	-2.9375	-2.6646	-3.1229	-2.7333	-2.9917	-2.9646	-2.7438	-2.8021	-2.7208	-2.8833	227.258	59.637	322.066	6.563	181.550	200.276	180.226	252.539	158.319	-6.685	151.531	28.581	171.137	59.761	46.143	-10.409	0.00068073	0.00033366	0.00017346	325.11	6.0506e-06	3.6707e-06	651.52	120.94	4.5331e-06	4.2222e-06	329.91	155.82	57.412	22.987	5.1439e-06	84.067	0.00091092	0.00091874	0.00025425	315.42	9.6175e-06	1.0241e-05	630.7	118	9.2669e-06	1.0331e-05	319.27	152.24	56.588	22.584	9.9064e-06	82.285	71.735	80.131	63.153	-13.567	111.733	156.054	-13.714	-9.381	102.889	104.144	-10.302	-6.965	-5.684	-1.421	104.128	-2.972	-8191	255	
22889.248	1	1	0	0	0.22791	0.23881	0.19226	0.13442	0.048456	0.12104	0.19603	0.13858	0.25237	0.10939	0.12309	0.091559	0.14698	0.049841	0.14856	0.24646	-2.6271	-2.8187	-2.8	-2.9792	-2.5625	-2.8146	-2.8896	-2.9021	-2.9708	-2.8396	-3.0687	-2.9042	-2.4896	-3.0896	-2.8375	-2.7188	74.699	70.831	17.621	-25.950	179.449	131.551	272.726	287.451	321.879	52.874	280.239	332.601	177.928	72.126	67.208	314.235	0.0007068	0.00033935	0.00018221	320.48	4.037e-06	6.5639e-06	647.59	120.58	6.165e-06	2.6985e-06	329.03	156.77	57.323	23.115	3.352e-06	84.3	0.00090879	0.00093188	0.00026726	313.71	9.6022e-06	1.0274e-05	625.67	117.91	9.3973e-06	1.0197e-05	318.57	152.27	56.445	22.635	9.8679e-06	82.288	75.184	49.168	43.288	-13.576	138.138	115.510	-14.114	-9.101	114.617	149.022	-10.125	-6.482	-5.915	-1.359	122.719	-3.215	-8191	255	
22889.346	1	1	0	0	0.1902	0.063857	0.2808	0.10559	0.27247	0.111	0.26774	0.1111	0.16102	0.12912	0.18525	0.037301	0.18627	0.22532	0.3355	0.29461	-2.5146	-2.7062	-2.7625	-3.0146	-2.5583	-3.0438	-2.8583	-2.7646	-2.925	-2.8979	-3.1292	-3.0854	-2.7292	-2.9833	-2.9646	-2.8063	177.184	236.928	67.142	330.020	200.968	21.837	166.918	277.863	75.231	155.299	17.062	134.693	65.772	160.196	225.934	259.211	0.00066337	0.00051744	9.9246e-05	324.22	4.9883e-06	6.3499e-06	650.42	121.21	1.2516e-06	6.0939e-06	328.81	156.92	57.115	22.895	3.6889e-06	84.071	0.0008864	0.00091788	0.00025673	314.84	9.3503e-06	1.0249e-05	628.53	117.86	9.0746e-06	1.0272e-05	318.97	152.3	56.382	22.506	9.633e-06	82.178	70.352	55.732	75.353	-13.534	109.713	121.416	-14.076	-9.520	96.870	135.012	-10.283	-6.603	-5.626	-1.696	118.499	-3.267	-8191	255	
22889.465	1	1	0	0	0.17966	0.016573	0.044012	0.28664	0.051062	0.15642	0.059841	0.085229	0.062815	0.046922	0.22089	0.16727	0.18541	0.11269	0.24118	0.28817	-2.5083	-2.7125	-2.6188	-3.0167	-2.7583	-3.075	-3.0354	-2.7083	-3.0458	-2.8625	-2.875	-3.0896	-2.7313	-2.8792	-2.9146	-2.8688	259.278	97.698	283.176	251.445	198.736	4.306	232.509	118.484	12.864	57.046	316.220	215.365	68.070	251.494	155.071	309.569	0.00061365	0.00056029	0.00018574	325.22	5.1171e-06	4.0062e-06	651.47	121.17	6.2512e-06	5.8745e-06	330.08	156.17	57.461	22.9	6.4187e-06	84.471	0.00086664	0.00092885	0.00025969	315.97	9.4651e-06	1.0117e-05	628.98	118.29	9.396e-06	9.9251e-06	320.18	152.15	56.478	22.492	9.9308e-06	82.59	72.773	90.371	58.048	-13.706	157.277	130.072	-13.775	-9.192	137.007	133.417	-10.676	-6.264	-5.546	-1.976	98.242	-3.108	-8191	255	
22889.561	1	1	0	0	0.088603	0.055713	0.22497	0.1135	0.081751	0.1883	0.14973	0.17989	0.12542	0.20027	0.027688	0.32037	0.20635	0.11296	0.090885	0.16573	-2.5938	-2.8438	-2.5729	-3.0458	-2.6292	-2.875	-3.1437	-2.675	-2.9688	-2.8417	-2.7833	-3.2438	-2.6813	-2.8646	-3.0667	-2.8896	22.532	17.665	94.040	153.623	109.623	276.817	272.630	7.781	174.381	181.882	-9.824	298.263	10.496	160.827	135.882	271.993	0.00071504	0.00069965	6.7059e-05	325.26	3.7477e-06	6.6039e-06	650.12	122.36	1.4833e-06	2.5275e-06	327.78	156.07	57.201	22.889	5.276e-06	83.765	0.00090665	0.00090461	0.00025358	315.32	9.5338e-06	1.0238e-05	629.31	118.44	9.4924e-06	1.0103e-05	319.19	151.98	56.455	22.485	9.5528e-06	81.831	75.619	74.875	128.200	-13.742	80.795	134.415	-13.911	-8.982	165.934	152.246	-10.274	-6.602	-5.921	-1.379	109.286	-3.086	-8191	255	
22889.656	1	1	0	0	0.30624	0.11569	0.19113	0.085231	0.15806	0.21349	0.11934	0.27199	0.074783	0.0026051	0.17125	0.19927	0.071354	0.084381	0.18813	0.11447	-2.4854	-2.7896	-2.7792	-3.0417	-2.8563	-2.8521	-3.0208	-2.4854	-2.9854	-2.8646	-2.8771	-3.125	-2.8146	-2.7521	-2.9938	-2.8417	293.258	237.061	197.292	-20.395	187.743	270.806	-12.926	257.706	235.648	180.000	20.905	233.893	216.134	180.221	55.408	256.681	0.00068547	0.00045907	0.00014111	322	6.8234e-06	6.3318e-06	649.04	121.53	3.1124e-06	8.12e-07	330.21	156.2	56.941	22.866	6.272e-06	83.736	0.00089345	0.00092434	0.00025197	313.27	9.0091e-06	9.9122e-06	627.82	118.01	9.481e-06	1.002e-05	319.22	151.7	56.263	22.491	9.4908e-06	82.151	70.914	65.200	38.696	-14.080	105.209	94.863	-13.688	-8.901	116.534	87.952	-10.216	-6.416	-5.396	-1.137	119.706	-3.209	-8191	255	
22889.752	1	1	0	0	0.12644	0.11194	0.19207	0.06095	0.26134	0.16048	0.086323	0.33065	0.14651	0.12361	0.37562	0.24436	0.23735	0.31026	0.12991	0.22958	-2.5833	-2.7833	-2.6396	-2.9104	-2.9917	-2.6021	-3.1063	-2.6937	-2.7854	-2.9729	-2.8396	-3.1292	-2.8292	-2.8	-3.0208	-2.6042	290.810	0.012	202.043	30.247	130.107	108.774	165.803	123.995	-20.974	212.773	261.399	303.869	201.831	251.045	-21.390	280.227	0.00074167	0.00066116	0.00019358	324.12	2.2677e-06	3.5529e-06	652.7	121.18	4.9562e-06	4.0762e-06	330.04	156.17	56.466	22.894	4.4986e-06	84.158	0.00089546	0.00093713	0.00025707	315.94	9.3954e-06	1.0258e-05	629.17	118.15	9.5046e-06	1.0235e-05	320.34	152.58	56.358	22.553	9.5021e-06	82.333	66.499	54.874	49.960	-14.070	87.050	99.959	-13.951	-9.132	110.302	106.547	-10.063	-6.468	-5.756	-1.357	114.176	-3.051	-8191	255	
22889.873	1	1	0	0	0.079767	0.32837	0.28446	0.054387	0.07782	0.19393	0.20178	0.097682	0.035738	0.2125	0.15107	0.20453	0.2206	0.15303	0.098377	0.18799	-2.4375	-2.7562	-2.7313	-2.9896	-2.9562	-2.8375	-3.0125	-2.8458	-2.8792	-3.0792	-2.8146	-3.0312	-2.7292	-2.7042	-2.8708	-2.7792	214.300	111.024	221.652	95.786	305.901	223.216	206.674	273.288	138.915	126.944	303.407	300.251	319.766	168.028	24.844	268.615	0.00074179	0.00051084	7.2517e-05	324.83	2.5487e-06	7.6989e-06	651.91	121.41	4.2308e-06	3.8125e-06	332.07	157.73	57.344	22.824	4.4476e-06	84.088	0.00090016	0.00092243	0.00026189	315.45	9.1387e-06	1.0208e-05	629.83	118.42	9.3057e-06	9.5537e-06	321.67	153.1	56.541	22.513	9.5583e-06	82.355	70.501	53.610	61.547	-13.407	98.098	120.729	-13.382	-9.554	122.205	102.484	-9.828	-6.263	-5.884	-1.377	48.644	-2.984	-8191	255	
22889.943	1	1	0	0	0.1075	0.30725	0.36729	0.21668	0.1125	0.12569	0.0043657	0.14267	0.080815	0.11852	0.033958	0.32159	0.30663	0.11611	0.042306	0.22375	-2.3187	-2.8229	-2.725	-2.7854	-2.7854	-2.9437	-3.0187	-2.7146	-2.7479	-3.0396	-3.0271	-2.9625	-3.0375	-2.7021	-2.9813	-2.8417	224.520	155.425	190.376	319.456	112.788	217.730	164.545	311.111	298.576	-2.657	248.763	-15.312	271.379	306.009	288.964	316.177	0.00075167	0.00063431	0.00014986	321.98	2.175e-06	3.8664e-06	654.13	121.47	5.3892e-06	1.7193e-06	332.38	156.77	57.449	22.838	2.9058e-06	83.929	0.00088263	0.00089893	0.00025465	315.55	9.289e-06	1.0193e-05	631.85	118.48	9.1483e-06	1.0148e-05	320.93	152.82	56.673	22.555	9.7561e-06	82.084	74.961	15.343	37.490	-13.863	95.811	138.330	-14.290	-9.138	103.983	93.562	-10.401	-6.456	-5.928	-1.464	119.980	-3.100	-8191	255	
22890.041	1	1	0	0	0.12599	0.18555	0.22269	0.18199	0.26473	0.23508	0.028996	0.061058	0.18022	0.14813	0.062261	0.36088	0.24667	0.086226	0.079298	0.078813	-2.3771	-2.9625	-2.5458	-2.6937	-2.8521	-2.7521	-3.1375	-2.7313	-2.7125	-2.9771	-2.8375	-3	-2.8688	-2.6396	-2.9375	-3.0458	152.076	275.634	0.394	110.615	246.023	-26.281	190.593	233.018	1.000	110.425	263.636	250.028	274.942	8.149	332.024	152.603	0.00064725	0.00057002	0.00014033	324.04	7.6231e-06	5.8503e-06	647.69	120.86	5.9364e-06	5.5456e-06	330.33	156.47	57.208	23.141	5.2949e-06	84.16	0.00085743	0.00090838	0.00025653	314.47	9.4874e-06	1.0082e-05	627.01	118.1	9.1989e-06	1.0121e-05	319.97	152.55	56.467	22.618	9.8874e-06	82.472	72.888	64.388	54.390	-13.744	115.984	110.889	-13.374	-9.048	111.004	120.332	-10.102	-6.656	-5.511	-1.512	111.594	-3.107	-8191	255	
22890.137	1	1	0	0	0.095408	0.19086	0.299	0.10238	0.085366	0.38114	0.21102	0.11221	0.22438	0.37687	0.25229	0.15752	0.2014	0.17268	0.1966	0.21105	-2.3167	-2.8292	-2.8563	-2.9458	-2.9083	-2.7625	-2.9771	-2.8271	-2.7646	-3.0979	-2.8063	-2.8854	-3.0875	-2.6958	-2.9979	-2.8792	103.081	196.916	108.674	219.448	179.857	206.206	-12.433	142.459	64.897	181.663	55.222	81.600	222.714	227.960	219.512	282.840	0.00070562	0.00098435	6.1968e-05	323.22	5.993e-06	4.3932e-06	653.03	121.13	5.1884e-06	4.0688e-06	332.35	157.43	57.415	23.107	4.0561e-06	84.638	0.00088096	0.00092477	0.00025277	315.36	9.2307e-06	1.003e-05	630.6	118.28	9.2089e-06	9.7853e-06	321.5	153.1	56.599	22.671	9.9621e-06	83.032	66.627	48.415	35.402	-13.578	72.257	74.628	-13.643	-9.279	106.431	131.483	-10.188	-6.229	-6.067	-1.482	152.562	-2.865	-8191	255	
22890.256	1	1	0	0	0.13634	0.034555	0.10409	0.13829	0.12611	0.15147	0.045876	0.18998	0.046683	0.27042	0.44932	0.15499	0.060369	0.11422	0.05673	0.22507	-2.2208	-3.05	-2.6646	-2.6896	-2.9167	-2.6917	-2.9938	-2.8771	-2.7083	-3.0396	-2.8667	-2.8604	-2.9792	-2.6625	-2.9896	-2.9188	231.679	112.218	173.597	123.892	248.207	134.146	47.606	240.435	155.677	80.602	300.552	313.909	142.591	329.656	327.914	107.037	0.00076528	0.00028704	0.0001606	324.86	8.0627e-06	3.1282e-06	655.12	121.78	4.2201e-06	4.7491e-06	332.85	158.29	57.594	22.888	3.9824e-06	84.493	0.00090767	0.00089672	0.00026178	316.07	9.3363e-06	1.0219e-05	633.04	118.88	9.379e-06	1.032e-05	322.4	153.66	56.738	22.576	9.5714e-06	82.62	73.112	116.336	48.896	-13.976	126.776	154.373	-13.830	-9.041	94.756	98.491	-10.164	-6.583	-5.889	-1.385	116.839	-3.064	-8191	255	
22890.352	1	1	0	0	0.29552	0.25168	0.19255	0.17292	0.26381	0.18197	0.10108	0.071331	0.15656	0.11085	0.20463	0.29354	0.0084689	0.031437	0.096235	0.1654	-2.35	-3.05	-2.8333	-2.7646	-2.9	-2.7417	-3.0396	-3.1917	-2.5438	-2.8625	-2.8688	-2.7729	-2.9979	-2.7625	-2.9292	-3.1708	22.332	272.893	192.676	8.416	232.327	68.912	182.066	156.317	219.543	-15.792	294.561	295.308	84.005	316.111	130.009	312.419	0.00072964	0.00046688	5.3093e-05	326.9	5.8414e-06	4.5116e-06	652.97	121.78	3.7802e-06	6.5986e-06	331.05	157.27	57.1	22.821	5.1733e-06	84.402	0.00089017	0.00091757	0.00025079	316.8	9.154e-06	9.8693e-06	633	118.58	9.1165e-06	1.0206e-05	321.04	152.63	56.406	22.483	9.4605e-06	82.342	69.973	49.867	45.419	-13.829	167.545	133.124	-13.789	-9.348	43.390	98.554	-10.061	-6.385	-6.015	-1.449	123.476	-3.002	-8191	255	
22890.447	1	1	0	0	0.21473	0.11553	0.22178	0.13281	0.091542	0.19039	0.29021	0.17486	0.16833	0.15254	0.026697	0.034943	0.092313	0.035487	0.097316	0.30986	-2.2875	-3.0438	-2.8979	-2.7542	-3.0042	-2.9208	-3.0271	-2.95	-2.7583	-2.8542	-3.075	-2.7812	-2.95	-2.7021	-2.5917	-3.0833	35.908	-9.051	320.395	260.778	217.975	102.462	192.752	298.530	0.079	298.114	50.222	249.429	233.319	175.810	152.078	310.999	0.000659	0.00065024	0.00013046	326.54	6.9588e-06	4.7132e-06	652.14	121.25	7.953e-06	3.9917e-06	329.39	156.82	57.521	22.995	5.8831e-06	84.844	0.00086349	0.00092252	0.00026175	316.03	9.5544e-06	1.0111e-05	629.37	118.66	9.6511e-06	1.0312e-05	320.69	152.6	56.613	22.593	9.6642e-06	82.781	75.516	59.012	53.424	-13.626	55.712	108.293	-13.992	-9.114	117.389	149.996	-10.152	-6.508	-5.422	-1.589	119.508	-3.011	-8191	255	
22890.545	1	1	0	0	0.21583	0.29233	0.13108	0.025177	0.22748	0.20629	0.20945	0.065496	0.28718	0.21177	0.19884	0.083205	0.20857	0.1855	0.08556	0.11772	-2.325	-2.8958	-2.8187	-2.8333	-3.0625	-2.7062	-2.9271	-2.9729	-2.7938	-2.9854	-2.9542	-2.9396	-3.0708	-2.8646	-2.8292	-3.2417	171.275	288.413	237.501	84.213	306.730	63.371	210.513	101.778	67.766	238.992	272.892	174.651	141.866	172.271	48.147	304.125	0.00067391	0.00026941	0.00017774	324.71	4.2642e-06	5.1603e-06	652.22	122.06	5.821e-06	1.6457e-06	331.46	157.94	57.364	23.008	3.7744e-06	84.57	0.00088792	0.00091406	0.00024967	315.53	9.218e-06	9.8355e-06	631.51	119.03	9.3149e-06	9.854e-06	321.75	153.48	56.519	22.618	9.5655e-06	82.646	72.538	100.075	76.552	-13.639	133.128	124.920	-13.481	-9.504	120.012	126.325	-9.920	-6.362	-6.318	-1.399	146.950	-2.971	-8191	255	
22890.641	1	1	0	0	0.075678	0.21372	0.19227	0.16068	0.082491	0.15511	0.17301	0.16152	0.20674	0.10152	0.16805	0.12897	0.25189	0.28883	0.042031	0.17983	-2.2042	-2.8729	-3.0917	-2.7062	-3.0083	-2.9646	-2.7188	-2.9604	-2.8667	-2.8063	-3.0333	-2.6312	-2.9354	-2.8583	-2.525	-3.1875	68.134	119.950	134.406	36.864	270.440	216.891	273.590	275.641	144.742	19.046	167.295	265.100	238.620	203.637	143.361	300.681	0.00075139	0.00027728	5.3729e-05	327.51	3.7956e-06	6.7321e-06	655.26	121.71	4.4562e-06	5.5051e-06	332.36	159.06	57.846	23.22	7.3895e-06	85.597	0.00089462	0.00091211	0.00024486	317.83	9.3297e-06	1.0311e-05	634.16	119.07	9.3114e-06	9.8655e-06	322.87	154.27	56.963	22.762	9.8417e-06	83.667	72.236	18.687	323.956	-13.615	93.126	130.382	-13.574	-9.326	173.306	140.295	-10.476	-6.575	-5.461	-1.448	117.317	-2.960	-8191	255	
22890.736	1	1	0	0	0.075375	0.23914	0.13126	0.31214	0.19067	0.2451	0.29132	0.14266	0.087925	0.18144	0.2958	0.071474	0.131	0.020311	0.14174	0.33614	-2.2417	-2.8854	-3.0521	-2.6479	-2.85	-2.8708	-2.8667	-3.0396	-2.9104	-2.8271	-3.0812	-2.6458	-2.975	-2.8771	-2.6292	-3.1396	23.547	28.031	99.717	187.078	239.259	109.227	69.978	219.488	-16.195	65.609	27.025	100.485	273.027	324.090	146.077	245.732	0.00074351	0.00059564	0.00015654	328.33	2.6498e-06	4.419e-06	656.36	121.53	6.0679e-06	5.02e-06	332.08	157.68	57.546	23.053	5.3806e-06	85.072	0.0009188	0.00093986	0.00025251	317.15	9.4935e-06	1.0091e-05	632.94	119.1	9.212e-06	1.0146e-05	322.67	153.52	56.913	22.752	9.427e-06	83.344	66.224	50.172	56.794	-13.809	137.404	156.293	-13.524	-8.995	140.899	146.909	-10.167	-6.356	-5.729	-1.524	151.824	-3.194	-8191	255	
22890.832	1	1	0	0	0.023415	0.20201	0.12916	0.22695	0.26994	0.17715	0.17547	0.097368	0.056066	0.041781	0.21497	0.15971	0.16537	0.13065	0.16314	0.50056	-2.4104	-2.5771	-2.8479	-2.7833	-3.0646	-3.0417	-2.7271	-3.0396	-2.6979	-2.6937	-3.0854	-2.6729	-3.0854	-3.0875	-2.7229	-2.9479	41.476	88.877	12.208	241.304	-14.619	28.597	103.097	199.083	65.206	27.863	26.112	267.739	316.080	209.917	117.149	263.427	0.00072087	0.00065231	7.8488e-05	325.03	6.9306e-06	5.6618e-06	650.93	122.25	4.9421e-06	4.7687e-06	331.71	157.78	57.53	23.161	5.5768e-06	85.781	0.00089651	0.00092468	0.00025425	314.5	9.3932e-06	9.9878e-06	628.79	118.99	9.3938e-06	1.0246e-05	322.13	153.95	56.786	22.83	9.8466e-06	83.781	73.555	47.244	84.670	-13.437	119.722	171.912	-13.587	-9.113	97.550	139.667	-9.992	-6.412	-5.619	-1.323	124.101	-3.106	-8191	255	
#DATA ENDS
