BOXY.EXE: ISS Imagent and Oximeter Data Acquisition Program Version 0.80
Ascii Record File

#ACQ INFORMATION
2  Detector Channels 
16  External MUX Channels 
1  Auxiliary Channels 
5000  Waveform (CCF) Frequency (Hz)
1  Waveforms Skipped 
30  Waveforms Averaged 
1  Cycles Averaged 
16  Acquisitions per Waveform 
10.0806  Updata Rate (Hz) 

#FILE INFORMATION
TRUE -- External MUX Channel results are PARSED.
FALSE -- AC DC and Phase are NOT grouped.
TRUE -- Companion Program Settings File CREATED.
FALSE -- AC data not excluded
FALSE -- DC data not excluded
FALSE -- Phase data not excluded
FALSE -- Auxillary Chn. data not excluded
Tab delimiters

#CALIBRATION STATE
TRUE -- Waveform Calibration Values APPLIED.


#AUX CALIBRATION VALUES
Val Type	aux-1	

Term	1.0000e+00	
Factor	0.0000e+00	


#WF CALIBRATION VALUES
A = Detector Channel
Val Type	A-AC1	A-AC2	A-AC3	A-AC4	A-AC5	A-AC6	A-AC7	A-AC8	A-AC9	A-AC10	A-AC11	A-AC12	A-AC13	A-AC14	A-AC15	A-AC16	A-DC1	A-DC2	A-DC3	A-DC4	A-DC5	A-DC6	A-DC7	A-DC8	A-DC9	A-DC10	A-DC11	A-DC12	A-DC13	A-DC14	A-DC15	A-DC16	A-Ph1	A-Ph2	A-Ph3	A-Ph4	A-Ph5	A-Ph6	A-Ph7	A-Ph8	A-Ph9	A-Ph10	A-Ph11	A-Ph12	A-Ph13	A-Ph14	A-Ph15	A-Ph16	

Term	0.00000e+00	0.00000e+00	0.00000e+00	0.00000e+00	0.00000e+00	0.00000e+00	0.00000e+00	0.00000e+00	0.00000e+00	0.00000e+00	0.00000e+00	0.00000e+00	0.00000e+00	0.00000e+00	0.00000e+00	0.00000e+00	0.00000e+00	0.00000e+00	0.00000e+00	0.00000e+00	0.00000e+00	0.00000e+00	0.00000e+00	0.00000e+00	0.00000e+00	0.00000e+00	0.00000e+00	0.00000e+00	0.00000e+00	0.00000e+00	0.00000e+00	0.00000e+00	0.00000e+00	0.00000e+00	0.00000e+00	0.00000e+00	0.00000e+00	0.00000e+00	0.00000e+00	0.00000e+00	0.00000e+00	0.00000e+00	0.00000e+00	0.00000e+00	0.00000e+00	0.00000e+00	0.00000e+00	0.00000e+00	
Factor	1.00000e+00	1.00000e+00	1.00000e+00	1.00000e+00	1.00000e+00	1.00000e+00	1.00000e+00	1.00000e+00	1.00000e+00	1.00000e+00	1.00000e+00	1.00000e+00	1.00000e+00	1.00000e+00	1.00000e+00	1.00000e+00	1.00000e+00	1.00000e+00	1.00000e+00	1.00000e+00	1.00000e+00	1.00000e+00	1.00000e+00	1.00000e+00	1.00000e+00	1.00000e+00	1.00000e+00	1.00000e+00	1.00000e+00	1.00000e+00	1.00000e+00	1.00000e+00	X	X	X	X	X	X	X	X	X	X	X	X	X	X	X	X	

B = Detector Channel
Val Type	B-AC1	B-AC2	B-AC3	B-AC4	B-AC5	B-AC6	B-AC7	B-AC8	B-AC9	B-AC10	B-AC11	B-AC12	B-AC13	B-AC14	B-AC15	B-AC16	B-DC1	B-DC2	B-DC3	B-DC4	B-DC5	B-DC6	B-DC7	B-DC8	B-DC9	B-DC10	B-DC11	B-DC12	B-DC13	B-DC14	B-DC15	B-DC16	B-Ph1	B-Ph2	B-Ph3	B-Ph4	B-Ph5	B-Ph6	B-Ph7	B-Ph8	B-Ph9	B-Ph10	B-Ph11	B-Ph12	B-Ph13	B-Ph14	B-Ph15	B-Ph16	

Term	0.00000e+00	0.00000e+00	0.00000e+00	0.00000e+00	0.00000e+00	0.00000e+00	0.00000e+00	0.00000e+00	0.00000e+00	0.00000e+00	0.00000e+00	0.00000e+00	0.00000e+00	0.00000e+00	0.00000e+00	0.00000e+00	0.00000e+00	0.00000e+00	0.00000e+00	0.00000e+00	0.00000e+00	0.00000e+00	0.00000e+00	0.00000e+00	0.00000e+00	0.00000e+00	0.00000e+00	0.00000e+00	0.00000e+00	0.00000e+00	0.00000e+00	0.00000e+00	-1.80303e+02	-1.38097e+02	-1.19944e+02	-1.80819e+02	-7.90061e+01	-8.11867e+01	-1.57378e+02	-1.62015e+02	-8.94823e+01	-7.32125e+01	-1.71564e+02	-1.71541e+02	-1.83671e+02	-1.76147e+02	-9.09538e+01	-1.49257e+02	
Factor	2.87017e-05	1.45962e-04	4.30770e-05	1.57142e-01	1.46671e-06	1.61965e-06	1.59980e-01	4.53428e-02	1.43660e-06	1.32136e-06	7.50420e-02	2.82269e-02	3.42424e-02	8.08152e-03	1.41912e-06	1.17899e-02	2.86743e-06	3.12586e-06	8.73151e-07	7.88825e-02	3.38613e-08	3.44756e-08	7.56613e-02	2.28643e-02	3.41259e-08	3.46871e-08	3.65790e-02	1.37491e-02	1.70758e-02	4.08423e-03	3.47117e-08	5.78306e-03	X	X	X	X	X	X	X	X	X	X	X	X	X	X	X	X	



#DISTANCE SETTINGS
A = Detector Channel
A-1	A-2	A-3	A-4	A-5	A-6	A-7	A-8	A-9	A-10	A-11	A-12	A-13	A-14	A-15	A-16	

2.5000e+00	3.0000e+00	2.5000e+00	3.0000e+00	2.0000e+00	3.0000e+00	1.5000e+00	3.0000e+00	3.0000e+00	3.0000e+00	3.0000e+00	3.0000e+00	3.0000e+00	3.0000e+00	1.5000e+00	3.0000e+00	

B = Detector Channel
B-1	B-2	B-3	B-4	B-5	B-6	B-7	B-8	B-9	B-10	B-11	B-12	B-13	B-14	B-15	B-16	

1.0000e+01	1.0000e+01	1.0000e+01	1.4400e+00	1.0000e+01	1.0000e+01	1.5100e+00	1.9400e+00	1.0000e+01	1.0000e+01	1.9900e+00	2.4900e+00	2.4100e+00	2.9000e+00	1.0000e+01	2.9800e+00	




#DATA BEGINS
time	group	step	mark	flag	A-AC1	A-AC2	A-AC3	A-AC4	A-AC5	A-AC6	A-AC7	A-AC8	A-AC9	A-AC10	A-AC11	A-AC12	A-AC13	A-AC14	A-AC15	A-AC16	A-DC1	A-DC2	A-DC3	A-DC4	A-DC5	A-DC6	A-DC7	A-DC8	A-DC9	A-DC10	A-DC11	A-DC12	A-DC13	A-DC14	A-DC15	A-DC16	A-Ph1	A-Ph2	A-Ph3	A-Ph4	A-Ph5	A-Ph6	A-Ph7	A-Ph8	A-Ph9	A-Ph10	A-Ph11	A-Ph12	A-Ph13	A-Ph14	A-Ph15	A-Ph16	B-AC1	B-AC2	B-AC3	B-AC4	B-AC5	B-AC6	B-AC7	B-AC8	B-AC9	B-AC10	B-AC11	B-AC12	B-AC13	B-AC14	B-AC15	B-AC16	B-DC1	B-DC2	B-DC3	B-DC4	B-DC5	B-DC6	B-DC7	B-DC8	B-DC9	B-DC10	B-DC11	B-DC12	B-DC13	B-DC14	B-DC15	B-DC16	B-Ph1	B-Ph2	B-Ph3	B-Ph4	B-Ph5	B-Ph6	B-Ph7	B-Ph8	B-Ph9	B-Ph10	B-Ph11	B-Ph12	B-Ph13	B-Ph14	B-Ph15	B-Ph16	aux-1	digaux	

9409.946	1	1	0	512	0.14954	0.19191	0.20731	0.048111	0.20057	0.37195	0.14296	0.33954	0.37748	0.14559	0.062946	0.10801	0.27063	0.07481	0.11194	0.38273	-2.0521	-2.275	-2.5021	-2.4813	-2.4062	-2.725	-2.1708	-2.6042	-2.5	-2.5042	-2.7729	-2.4708	-2.4188	-2.7625	-2.4979	-2.7479	242.278	149.443	-86.475	120.472	129.343	-4.876	204.351	207.914	104.412	-14.219	147.847	151.513	-77.635	145.393	-0.770	181.272	0.00050806	0.0005691	0.00010529	462.13	3.9625e-06	4.304e-06	679.2	156.08	2.0589e-06	3.6768e-06	325.61	157.57	65.354	30.841	3.9105e-06	77.415	7.8687e-05	2.4668e-05	5.9593e-06	430.63	2.7505e-07	2.3889e-07	634.11	146.32	2.8452e-07	2.6261e-07	305.55	148.62	61.661	29.081	2.7632e-07	73.244	139.565	-18.893	3.905	-81.259	56.964	41.961	-81.885	-76.143	21.492	45.645	-77.192	-73.092	-72.210	-66.451	19.461	-68.686	-8191	255	
9410.042	1	1	0	0	0.11808	0.22763	0.080859	0.032731	0.25517	0.055989	0.39404	0.20803	0.041958	0.10174	0.21852	0.27226	0.041897	0.2362	0.15965	0.21223	-1.9354	-2.3375	-2.5896	-2.5083	-2.3771	-2.7729	-2.4562	-2.6104	-2.85	-2.2687	-2.6542	-2.5625	-2.3375	-2.5333	-2.4229	-2.6042	-79.865	210.072	34.990	-76.014	181.030	104.229	228.923	197.865	151.326	-40.594	192.951	-89.333	49.583	-8.099	263.046	259.823	0.00049824	0.00045438	0.00011938	448.46	4.5226e-06	4.0393e-06	663.02	154.37	3.2274e-06	4.4957e-06	324.69	159.14	65.629	30.966	2.7404e-06	78.118	7.7008e-05	2.2369e-05	6.3667e-06	421.49	2.7195e-07	2.2445e-07	617.24	144.67	2.8282e-07	2.4686e-07	304.27	149.13	61.801	29.24	2.8948e-07	73.826	141.597	1.337	1.741	-81.222	42.948	44.452	-82.077	-75.781	21.449	50.308	-77.103	-73.081	-72.161	-66.402	45.665	-68.711	-8191	255	
9410.140	1	1	0	0	0.036629	0.053495	0.084076	0.12153	0.030296	0.084184	0.17368	0.24411	0.11484	0.05818	0.39902	0.28276	0.1142	0.30196	0.17832	0.23657	-2.1479	-2.2833	-2.4729	-2.4771	-2.1917	-2.7479	-2.3354	-2.5187	-2.5125	-2.4021	-2.7	-2.6604	-2.3312	-2.6625	-2.4458	-2.4667	44.849	110.652	213.553	-82.377	208.658	219.880	190.813	193.929	-8.023	243.163	241.135	162.415	220.752	239.911	178.786	229.126	0.00048958	0.00051915	0.00016071	457.8	3.7047e-06	5.1675e-06	663.23	155.18	3.8469e-06	4.7774e-06	328.14	159.33	66.425	31.101	3.5256e-06	78.501	7.7104e-05	2.4349e-05	6.5177e-06	423.58	2.5805e-07	2.3479e-07	623.37	145.6	2.8303e-07	2.4642e-07	307.64	149.96	62.159	29.323	3.0322e-07	74.157	139.078	-15.790	3.706	-81.356	45.876	36.540	-81.703	-76.150	31.327	44.890	-77.184	-73.140	-72.396	-66.564	11.087	-68.775	-8191	255	
9410.234	1	1	0	0	0.10899	0.10706	0.036532	0.13947	0.14219	0.071904	0.14432	0.32276	0.10922	0.23706	0.14779	0.16947	0.23635	0.21173	0.097162	0.27741	-2.1292	-2.3146	-2.5354	-2.5312	-2.3542	-2.5312	-2.5625	-2.2604	-2.7979	-2.4208	-2.6583	-2.6792	-2.2083	-2.6896	-2.4958	-2.4979	13.885	-26.953	82.879	175.567	91.802	170.704	-33.715	-93.275	-64.747	121.446	-91.779	-74.521	120.327	210.542	69.205	150.515	0.00050203	0.00041836	0.00012541	453.94	3.8655e-06	3.9923e-06	671.78	156.12	3.984e-06	4.4743e-06	332.35	160.24	66.175	31.128	2.9013e-06	79.031	7.6405e-05	2.3444e-05	6.0593e-06	425.66	2.6877e-07	2.4449e-07	631.21	146.49	2.9007e-07	2.6572e-07	310.08	151.04	62.232	29.36	2.9888e-07	74.778	139.044	-8.661	13.399	-81.326	47.675	44.623	-81.758	-75.911	24.571	54.644	-77.276	-73.197	-72.238	-66.695	12.999	-68.752	-8191	255	
9410.330	1	1	0	0	0.21038	0.08911	0.2161	0.032594	0.17187	0.3375	0.10927	0.044048	0.26818	0.15872	0.28637	0.037155	0.34105	0.2224	0.066788	0.16253	-2.2833	-2.1375	-2.5417	-2.4688	-2.1937	-2.625	-2.4771	-2.3187	-2.6396	-2.3042	-2.5604	-2.5479	-2.4146	-2.4792	-2.5396	-2.6375	39.616	32.568	31.140	136.659	99.155	-51.731	140.120	-41.357	204.500	-46.526	198.604	-60.962	194.868	243.718	134.292	-85.435	0.00048187	0.00040892	0.00014484	460.18	3.9601e-06	4.5747e-06	672.95	155.74	4.2764e-06	4.011e-06	326.41	157.48	64.995	30.929	3.2276e-06	77.318	7.7068e-05	2.3483e-05	7.0016e-06	428.99	2.6856e-07	2.4722e-07	631.45	145.85	2.8438e-07	2.4454e-07	305.66	148.36	61.453	29.054	2.8507e-07	73.06	138.601	-20.016	3.141	-81.511	39.184	45.047	-81.955	-76.381	24.868	48.814	-77.293	-73.253	-72.724	-66.382	23.667	-68.698	-8191	255	
9410.451	1	1	0	0	0.093093	0.14255	0.062581	0.29534	0.31579	0.18073	0.091258	0.13987	0.066383	0.1641	0.27246	0.159	0.22294	0.081899	0.22181	0.35231	-2.0604	-2.2396	-2.4958	-2.6	-2.3438	-2.6667	-2.6479	-2.5333	-2.6979	-2.3667	-2.6542	-2.6771	-2.3583	-2.6042	-2.4792	-2.5479	-78.056	232.975	15.750	171.048	146.046	223.434	190.670	254.467	51.288	9.740	232.182	135.012	-57.359	136.077	212.646	162.930	0.00046995	0.00051083	0.00014733	452.92	3.8199e-06	3.6202e-06	657.16	154.45	3.4378e-06	2.73e-06	325.3	157.03	66.058	30.999	3.4122e-06	78.183	7.6674e-05	2.4499e-05	6.8688e-06	419.79	2.7816e-07	2.1856e-07	615.3	144.65	2.7592e-07	2.2272e-07	304.87	148.46	62.004	29.182	2.9042e-07	73.891	140.597	-27.526	-2.218	-81.365	55.534	48.011	-81.812	-76.019	29.186	68.349	-77.371	-73.184	-72.232	-66.756	12.003	-68.632	-8191	255	
9410.547	1	1	0	0	0.17592	0.35325	0.14915	0.051201	0.10677	0.055448	0.19182	0.23193	0.091282	0.24546	0.22762	0.29464	0.14012	0.21532	0.11541	0.18038	-2.0396	-2.3896	-2.4229	-2.7083	-2.3063	-2.6312	-2.6271	-2.6042	-2.6208	-2.5875	-2.4771	-2.5979	-2.3542	-2.6917	-2.7271	-2.5229	59.133	150.851	29.076	29.585	80.171	129.086	199.885	263.435	-82.805	9.193	253.567	170.935	112.782	-67.986	-71.535	159.763	0.00047302	0.00042397	0.00015241	456.41	4.6678e-06	3.4247e-06	675.31	156.43	3.8498e-06	3.104e-06	334.13	161.01	66.659	31.423	4.1742e-06	79.838	7.8012e-05	2.444e-05	6.1903e-06	425.94	2.9346e-07	2.3005e-07	631.72	146.68	2.9426e-07	2.1636e-07	311.89	152.05	62.652	29.626	3.0011e-07	75.237	137.721	-18.921	-0.804	-81.234	38.757	42.561	-81.838	-75.933	32.313	39.917	-77.078	-73.305	-72.324	-66.285	36.585	-68.602	-8191	255	
9410.643	1	1	0	0	0.18538	0.072337	0.24552	0.07188	0.032979	0.22117	0.0097788	0.069071	0.21792	0.29585	0.13641	0.15326	0.25653	0.18299	0.32424	0.19045	-2.2354	-2.3021	-2.3812	-2.7708	-2.3583	-2.4292	-2.6708	-2.375	-2.5979	-2.5812	-2.3979	-2.725	-2.4104	-2.475	-2.4792	-2.5938	242.645	-64.766	162.726	-73.514	164.999	132.187	78.230	76.711	234.746	36.451	213.938	242.960	-22.167	188.851	67.476	240.964	0.00047084	0.00058786	0.00015302	459.53	3.1677e-06	4.0594e-06	683.9	156.86	3.6329e-06	3.426e-06	335	162.47	66.489	31.461	3.561e-06	79.964	7.8191e-05	2.556e-05	6.6541e-06	428.78	2.6461e-07	2.6711e-07	639.23	147.38	2.9249e-07	2.4165e-07	314.77	153.23	62.904	29.643	2.9136e-07	75.747	134.159	-26.706	-2.183	-81.269	31.445	37.851	-81.652	-75.748	23.667	47.036	-77.378	-73.213	-72.266	-66.517	17.461	-68.854	-8191	255	
9410.715	1	1	0	0	0.19522	0.17593	0.11911	0.17805	0.22672	0.033925	0.20185	0.24833	0.069926	0.15258	0.1828	0.20231	0.097369	0.22048	0.13	0.091648	-2.0125	-2.5542	-2.3125	-2.6375	-2.3479	-2.5062	-2.5021	-2.2479	-2.5938	-2.6083	-2.2646	-2.7208	-2.3792	-2.4062	-2.3292	-2.3187	187.107	96.648	250.049	181.805	252.822	172.804	194.350	172.218	123.711	69.754	245.649	-81.938	80.044	254.859	17.039	172.405	0.00046199	0.00042743	0.00012095	461.33	4.0379e-06	5.0342e-06	686.51	157.74	4.3928e-06	3.794e-06	333.24	160.56	65.956	31.024	4.6677e-06	78.491	7.849e-05	2.2122e-05	6.6523e-06	429.86	2.8789e-07	2.5612e-07	643.51	147.77	3.0514e-07	2.3645e-07	311.71	151.04	62.354	29.251	3.0098e-07	73.817	140.014	-9.685	1.422	-81.563	51.203	45.886	-81.880	-75.707	23.926	47.576	-77.206	-73.161	-72.171	-66.271	26.636	-68.758	-8191	255	
9410.835	1	1	0	0	0.20464	0.28433	0.20557	0.16907	0.13349	0.16218	0.14019	0.20166	0.081718	0.13428	0.014844	0.074348	0.1152	0.15874	0.14231	0.27332	-2.1646	-2.5563	-2.3833	-2.4917	-2.3625	-2.35	-2.6042	-2.5333	-2.4437	-2.7396	-2.3708	-2.6958	-2.4104	-2.5563	-2.6917	-2.6833	5.614	184.334	-37.717	232.172	111.132	100.477	112.583	154.083	-62.900	160.574	169.533	-35.330	70.491	243.347	110.321	206.087	0.00049293	0.00041098	0.00014738	450.98	3.4118e-06	4.2397e-06	657.45	155.37	3.4783e-06	3.9391e-06	328.17	158.73	66.566	30.869	2.7859e-06	78.583	7.6865e-05	2.3027e-05	6.7415e-06	421.35	2.8288e-07	2.4636e-07	618.34	145.47	3.0329e-07	2.3392e-07	307.4	149.67	62.442	29.216	2.735e-07	74.146	136.877	-7.596	2.950	-81.349	47.014	45.957	-81.952	-75.830	30.071	45.818	-77.316	-73.320	-72.081	-66.591	23.903	-68.518	-8191	255	
9410.931	1	1	0	0	0.20365	0.26155	0.065471	0.15796	0.19085	0.015295	0.2643	0.19783	0.10973	0.11548	0.1917	0.15227	0.18191	0.11054	0.21686	0.21683	-2.025	-2.7104	-2.4646	-2.6292	-2.45	-2.3104	-2.8396	-2.5042	-2.4938	-2.6167	-2.6	-2.8187	-2.4604	-2.4458	-2.8333	-2.4437	165.813	135.032	91.321	227.995	-50.154	-32.090	-86.251	180.875	239.117	-63.781	211.269	-85.723	-11.086	-30.581	197.316	184.495	0.00047707	0.00045157	0.00011993	455.58	3.8889e-06	4.9966e-06	669.07	156.3	3.106e-06	4.2556e-06	333.1	160.89	66.648	31.227	4.4965e-06	79.303	7.8603e-05	2.446e-05	6.4777e-06	425.46	2.6546e-07	2.4794e-07	628.98	146.75	3.0415e-07	2.3154e-07	311.3	151.67	62.689	29.462	2.8782e-07	74.806	139.999	-21.624	19.943	-81.422	43.990	49.930	-81.848	-76.110	32.946	56.753	-77.192	-73.182	-72.374	-66.533	33.492	-68.559	-8191	255	
9411.026	1	1	0	0	0.21151	0.069034	0.13365	0.12088	0.1305	0.19857	0.20571	0.14899	0.066775	0.3705	0.28373	0.047614	0.027721	0.2418	0.22641	0.083212	-1.9375	-2.6125	-2.4167	-2.6146	-2.5771	-2.3792	-2.7208	-2.6188	-2.4792	-2.725	-2.525	-2.825	-2.6688	-2.2417	-2.6146	-2.4562	184.119	44.993	213.676	-86.599	-4.083	-45.835	198.289	59.836	29.492	-74.362	130.824	42.121	258.017	156.862	45.037	219.420	0.00047204	0.00044628	0.00015775	457.8	3.8835e-06	4.9536e-06	681.59	157.21	3.8843e-06	3.8409e-06	336.58	162.66	66.862	31.33	3.5453e-06	79.777	7.8466e-05	2.4037e-05	6.5977e-06	428.24	2.7033e-07	2.4686e-07	639.19	147.57	3.0841e-07	2.3226e-07	314.18	152.86	62.869	29.601	2.8529e-07	75.609	140.967	-23.716	2.875	-81.359	40.025	37.137	-82.017	-76.028	13.420	38.757	-77.174	-73.004	-72.418	-66.336	30.395	-68.328	-8191	255	
9411.122	1	1	0	0	0.18768	0.33588	0.28432	0.19705	0.21883	0.078741	0.19752	0.12442	0.16696	0.14525	0.073472	0.20688	0.097588	0.23369	0.11524	0.056546	-1.8583	-2.6813	-2.3396	-2.8208	-2.6396	-2.425	-2.7271	-2.7	-2.5	-2.7	-2.7271	-2.6646	-2.7125	-2.5417	-2.45	-2.7292	67.163	90.373	21.782	260.291	229.734	116.475	234.776	37.484	-84.558	29.550	3.986	172.958	236.758	-48.777	217.130	259.922	0.00051566	0.00049819	0.00013245	462.24	4.2549e-06	5.2047e-06	686.99	157.68	3.0239e-06	4.3806e-06	336.62	160.35	66.816	31.219	4.3029e-06	78.564	8.0742e-05	2.3268e-05	6.4941e-06	431.06	2.644e-07	2.5153e-07	644.3	147.74	2.9384e-07	2.4086e-07	313.81	152.01	62.776	29.468	2.9013e-07	74.439	137.095	-6.850	11.109	-81.595	42.871	44.032	-82.087	-76.035	8.127	51.265	-77.549	-72.988	-72.621	-66.443	22.692	-68.866	-8191	255	
9411.243	1	1	0	0	0.10476	0.28895	0.13309	0.10434	0.18956	0.080612	0.23659	0.15688	0.032446	0.33666	0.10497	0.24168	0.026128	0.23728	0.10979	0.12354	-1.9958	-2.5875	-2.3146	-2.5729	-2.7021	-2.3063	-2.7896	-2.525	-2.3312	-2.8292	-2.4625	-2.5604	-2.5979	-2.5146	-2.6729	-2.7479	204.775	-9.524	79.312	233.952	67.744	132.870	164.465	3.879	67.809	-73.123	252.594	152.501	102.236	-86.126	51.953	-81.882	0.00048787	0.00054178	0.00015313	453.09	3.8565e-06	5.3058e-06	660.89	155.16	3.7533e-06	3.3518e-06	328.53	158.41	66.222	30.95	4.3124e-06	78.576	7.7672e-05	2.3874e-05	6.4468e-06	422.29	2.6137e-07	2.4162e-07	620.53	145.48	2.9064e-07	2.1145e-07	306.82	149.32	62.176	29.261	2.9114e-07	74.126	138.071	-4.379	2.174	-81.235	50.627	45.420	-81.761	-75.726	23.755	52.165	-76.971	-73.266	-72.447	-66.223	13.782	-68.779	-8191	255	
9411.339	1	1	0	0	0.06981	0.21676	0.18114	0.26288	0.10799	0.12608	0.17873	0.1267	0.14535	0.3608	0.12057	0.14554	0.016708	0.098612	0.14091	0.11597	-1.9354	-2.625	-2.4854	-2.5375	-2.6125	-2.4396	-2.6958	-2.7979	-2.4167	-2.5542	-2.6188	-2.5771	-2.6042	-2.6125	-2.6229	-2.8646	135.031	67.622	110.976	123.311	263.615	55.497	201.334	-5.936	95.476	33.408	112.488	252.556	216.613	-93.499	116.797	236.841	0.00046168	0.00043838	0.00014095	453.9	4.0321e-06	3.7632e-06	669.14	154.26	3.5218e-06	4.4551e-06	330.53	160.74	66.564	31.3	4.4036e-06	79.521	7.7182e-05	2.319e-05	6.4395e-06	424.19	2.6863e-07	2.3824e-07	629.09	145.67	3.0095e-07	2.3681e-07	310.09	151.2	62.581	29.476	2.9917e-07	75.002	139.542	-24.745	5.920	-81.239	36.394	30.773	-81.672	-75.785	21.219	46.270	-77.355	-73.003	-72.286	-66.590	35.176	-68.842	-8191	255	
9411.410	1	1	0	0	0.24467	0.17122	0.28597	0.15319	0.21257	0.18286	0.23783	0.13257	0.21711	0.31358	0.23266	0.20861	0.13117	0.15085	0.14207	0.26006	-2.1188	-2.5979	-2.4188	-2.6229	-2.7792	-2.25	-2.7167	-2.6979	-2.4562	-2.725	-2.7375	-2.6437	-2.675	-2.6937	-2.5333	-2.9104	8.532	157.026	231.256	-30.009	66.387	2.582	256.452	148.443	27.425	149.640	171.557	206.707	239.580	-14.770	225.502	154.963	0.00050475	0.0004568	0.0001566	458.7	2.8995e-06	4.8152e-06	679.22	156.52	2.5894e-06	2.7276e-06	336.08	161.59	67.216	31.383	3.1615e-06	80.046	8.0443e-05	2.2089e-05	6.5777e-06	428.11	2.6546e-07	2.5347e-07	637.7	147.19	2.8111e-07	2.3211e-07	314.51	152.5	62.863	29.593	2.8167e-07	75.646	135.326	-15.522	-2.560	-81.409	50.158	38.542	-81.799	-75.839	10.891	53.949	-76.805	-73.194	-72.333	-66.346	13.901	-68.774	-8191	255	
9411.531	1	1	0	0	0.19904	0.13305	0.19342	0.23235	0.051618	0.14728	0.34164	0.14932	0.15574	0.093446	0.37523	0.20304	0.08468	0.11607	0.074271	0.32965	-1.8771	-2.4562	-2.4083	-2.3937	-2.7229	-2.3083	-2.6354	-2.7479	-2.5187	-2.7104	-2.6375	-2.3875	-2.6479	-2.7021	-2.5083	-2.8854	192.031	181.546	-63.334	258.421	-4.073	175.994	257.660	254.712	212.282	-2.544	-79.338	255.787	100.645	-62.711	142.195	225.656	0.00053157	0.00037126	0.00015244	462.79	3.9963e-06	4.7762e-06	687.62	157.6	3.8615e-06	3.9579e-06	333.28	160.12	66.615	30.967	3.3632e-06	78.203	8.0641e-05	2.4584e-05	6.6541e-06	431.69	2.6715e-07	2.4248e-07	645.46	147.65	2.9498e-07	2.5314e-07	312.59	151.47	62.548	29.262	2.7531e-07	73.934	139.246	-19.999	7.739	-81.353	43.824	38.791	-81.705	-76.166	36.292	47.544	-77.031	-72.993	-72.363	-66.465	45.811	-68.957	-8191	255	
9411.627	1	1	0	0	0.10252	0.16319	0.18172	0.036374	0.186	0.1402	0.46887	0.20833	0.1914	0.13372	0.065801	0.028986	0.18797	0.1344	0.10886	0.32727	-2.0396	-2.5833	-2.4729	-2.5438	-2.6729	-2.5521	-2.6708	-2.7583	-2.3292	-2.525	-2.6854	-2.3146	-2.5292	-2.4771	-2.3563	-2.9313	-34.781	-77.185	58.965	89.120	196.737	109.666	204.917	221.250	203.077	177.990	34.359	215.953	186.396	226.030	26.865	253.190	0.00048866	0.0005616	0.00015968	449.89	3.7569e-06	4.3499e-06	659.26	152.9	3.703e-06	2.7806e-06	323.28	156	65.151	30.692	4.4008e-06	77.632	7.9452e-05	2.4694e-05	6.4922e-06	420.61	2.6962e-07	2.1669e-07	617.09	144.08	2.9853e-07	2.3573e-07	303.03	147.66	61.716	28.976	2.9939e-07	73.222	137.333	-17.316	4.439	-81.479	52.003	42.425	-81.769	-75.901	10.415	56.485	-77.154	-73.340	-72.321	-66.547	25.834	-68.714	-8191	255	
9411.723	1	1	0	0	0.076774	0.16338	0.13224	0.36189	0.27191	0.14728	0.13504	0.17508	0.24854	0.094609	0.070638	0.28176	0.21174	0.13373	0.2907	0.18487	-1.8792	-2.6	-2.5646	-2.1813	-2.6167	-2.7125	-2.4708	-2.7812	-2.5062	-2.4042	-2.8	-2.55	-2.6437	-2.7562	-2.5542	-2.7479	-38.883	-26.145	193.411	174.651	54.324	197.639	-81.418	240.684	75.583	-87.536	198.773	196.293	247.997	206.270	104.778	225.801	0.0004769	0.00042589	0.00016428	454.74	3.6517e-06	4.5466e-06	664.53	155.53	3.2278e-06	3.3899e-06	326.24	157.98	65.978	30.822	3.2829e-06	77.901	7.7301e-05	2.25e-05	6.2503e-06	422.66	2.7301e-07	2.312e-07	623.77	145.38	2.9448e-07	2.5661e-07	305.8	148.62	61.658	29.059	3.0864e-07	73.609	139.174	-10.768	12.040	-81.365	23.813	49.457	-81.813	-75.788	9.095	52.823	-76.805	-73.144	-72.732	-66.397	41.875	-68.494	-8191	255	
9411.820	1	1	0	0	0.080819	0.075355	0.013681	0.038811	0.11207	0.20329	0.13208	0.14506	0.19258	0.03467	0.30281	0.17059	0.38178	0.27773	0.33495	0.25274	-1.8104	-2.4917	-2.8354	-2.525	-2.7271	-2.5729	-2.4042	-2.675	-2.3354	-2.4437	-2.9188	-2.4729	-2.5812	-2.7125	-2.3167	-2.7687	-48.240	131.467	183.993	72.674	195.726	-32.774	242.643	107.126	33.922	-8.593	236.931	179.236	-88.709	233.086	-36.248	-82.832	0.00052505	0.0003859	0.0001543	458.54	3.4348e-06	5.6395e-06	670.74	155.23	3.3253e-06	3.7074e-06	328.17	158.4	65.459	30.738	3.3389e-06	78.023	7.6805e-05	2.3294e-05	6.3176e-06	428.07	2.6045e-07	2.46e-07	629.62	145.72	3.0749e-07	2.2857e-07	307.9	149.43	61.823	29.072	3.1754e-07	74.016	141.666	-12.441	11.812	-81.516	41.903	50.631	-81.735	-75.686	30.152	51.861	-77.280	-73.207	-72.152	-66.481	20.896	-68.705	-8191	255	
9411.940	1	1	0	0	0.23231	0.013208	0.18765	0.121	0.11484	0.10853	0.20363	0.38032	0.009832	0.32426	0.27668	0.31451	0.11381	0.3608	0.11441	0.30859	-2.0792	-2.3167	-2.6854	-2.3792	-2.4625	-2.525	-2.2854	-2.7667	-2.475	-2.4854	-2.6312	-2.6437	-2.5062	-2.6479	-2.3104	-2.6271	-77.708	-53.206	80.862	91.332	16.601	196.779	135.104	258.154	127.356	223.134	-18.645	170.107	-55.325	239.519	-91.991	238.176	0.00047296	0.00052205	0.00011645	457.48	3.3492e-06	4.902e-06	681.84	156.86	3.6512e-06	4.8873e-06	332.05	159.3	65.455	30.706	2.5922e-06	77.421	7.8836e-05	2.461e-05	5.6718e-06	428.88	2.6454e-07	2.3149e-07	637.17	146.71	2.8061e-07	2.4519e-07	310.39	150.3	61.793	29.071	2.8796e-07	73.188	137.766	-21.188	-3.456	-81.510	39.313	43.948	-81.973	-76.050	34.421	45.050	-76.874	-73.048	-72.038	-66.120	14.641	-68.654	-8191	255	
9412.012	1	1	0	0	0.1075	0.13189	0.017163	0.095911	0.40179	0.2992	0.15218	0.26129	0.078931	0.26324	0.24366	0.25934	0.24313	0.064666	0.061884	0.26322	-2.1708	-2.3583	-2.7271	-2.3167	-2.5583	-2.6583	-2.5312	-2.6667	-2.6417	-2.3354	-2.8271	-2.3292	-2.4646	-2.7625	-2.4	-2.7875	192.394	-65.814	77.835	89.158	166.217	231.676	240.508	219.474	-57.720	179.123	263.173	-34.761	205.848	5.738	-35.587	188.545	0.00049135	0.00040851	0.00013613	452.31	3.849e-06	4.5455e-06	655.68	153.23	3.2777e-06	3.8521e-06	322.09	154.29	64.647	30.281	3.2942e-06	75.895	7.5933e-05	2.3522e-05	6.4686e-06	420.91	2.668e-07	2.3946e-07	613.85	143.75	2.8083e-07	2.4823e-07	299.51	145.37	60.785	28.628	3.0532e-07	71.892	140.688	-22.142	12.727	-81.420	50.148	37.543	-82.144	-75.989	10.997	52.748	-77.287	-73.087	-72.323	-66.329	31.768	-68.643	-8191	255	
9412.131	1	1	0	0	0.080639	0.098427	0.2103	0.19117	0.10175	0.15168	0.15284	0.21943	0.076486	0.12698	0.46957	0.28172	0.18103	0.25982	0.083008	0.46545	-2.1792	-2.3792	-2.4646	-2.6479	-2.3854	-2.8312	-2.3854	-2.5792	-2.7833	-2.5042	-2.7625	-2.7146	-2.4042	-2.6271	-2.4104	-2.8167	-21.026	244.858	54.249	233.107	7.823	92.209	199.197	137.244	-76.080	187.254	225.085	237.618	213.074	-28.829	40.896	220.860	0.00045714	0.00040308	9.0642e-05	450.28	3.8365e-06	3.0762e-06	657.03	152.87	4.0129e-06	3.9938e-06	323.18	155.97	64.888	30.745	3.7288e-06	77.446	7.8161e-05	2.5202e-05	5.5591e-06	421.37	2.7096e-07	2.2129e-07	615.94	143.84	3.0329e-07	2.5827e-07	302.65	147.01	61.124	28.951	2.9924e-07	73.184	140.791	-17.717	10.823	-81.668	64.617	32.562	-82.017	-75.951	33.166	49.635	-77.177	-73.206	-72.205	-66.569	21.013	-68.737	-8191	255	
9412.227	1	1	0	0	0.036234	0.29277	0.15388	0.07443	0.28518	0.1184	0.31599	0.15553	0.19825	0.17082	0.040566	0.034864	0.24391	0.044325	0.14285	0.038918	-2.2292	-2.3083	-2.5792	-2.6167	-2.5104	-2.6063	-2.5021	-2.5812	-2.5292	-2.4458	-2.6708	-2.7188	-2.3958	-2.8167	-2.5521	-2.5979	263.527	16.445	-5.398	153.038	-36.220	175.669	147.508	193.557	-70.254	133.567	215.144	-81.085	-58.709	165.874	163.953	224.120	0.00048897	0.00052362	0.00012957	452.45	3.6777e-06	5.7074e-06	669.5	154.6	3.6708e-06	3.9201e-06	327.96	159.16	66.038	31.032	3.8986e-06	79.065	7.7014e-05	2.4382e-05	6.2321e-06	424.26	2.735e-07	2.3961e-07	627.99	145.36	2.9604e-07	2.3436e-07	307.89	149.98	62.034	29.225	2.9208e-07	74.642	140.927	-23.331	17.679	-81.273	38.614	41.859	-81.964	-75.790	27.998	51.042	-76.903	-73.038	-72.264	-66.232	22.507	-68.577	-8191	255	
9412.323	1	1	0	0	0.18214	0.17396	0.082987	0.1865	0.17751	0.14094	0.11955	0.18264	0.092166	0.27395	0.33295	0.097826	0.12718	0.19858	0.19601	0.20147	-2.3146	-2.5979	-2.5125	-2.5938	-2.4	-2.8	-2.6896	-2.6375	-2.6708	-2.6521	-2.6458	-2.7188	-2.2646	-2.6375	-2.6646	-2.575	241.875	45.671	240.837	-60.014	200.932	-87.061	162.872	-44.876	-60.648	32.467	202.794	253.807	134.978	240.578	231.537	138.473	0.00048991	0.00038379	0.00014358	457.81	4.5542e-06	4.543e-06	683.48	155.86	3.001e-06	3.7551e-06	332.87	160.11	65.782	30.779	2.6833e-06	78.139	8.0676e-05	2.3652e-05	6.454e-06	428.74	2.7406e-07	2.2538e-07	638.2	146.41	2.8851e-07	2.3941e-07	311.27	150.78	62.002	29.135	2.8615e-07	73.818	137.018	-23.637	1.268	-81.308	39.124	51.960	-81.753	-75.626	45.019	51.662	-77.376	-73.066	-72.119	-66.286	24.159	-68.438	-8191	255	
9412.419	1	1	0	0	0.11159	0.23004	0.10189	0.15072	0.087105	0.13133	0.19633	0.31128	0.1135	0.13578	0.26151	0.17418	0.22413	0.04696	0.27153	0.32608	-2.4917	-2.4437	-2.5708	-2.7625	-2.5458	-2.6771	-2.7604	-2.6979	-2.7521	-2.5854	-2.7562	-2.9167	-2.475	-2.7854	-2.5875	-2.5729	-59.613	68.746	116.164	70.322	184.757	-93.320	259.935	194.196	121.859	-59.979	-59.282	163.891	157.747	118.726	-62.880	76.755	0.00049458	0.00050957	0.00012255	453.56	3.7849e-06	4.1934e-06	654.89	153.33	2.7038e-06	3.217e-06	321.8	155.47	65.015	30.414	3.3219e-06	76.519	7.7391e-05	2.4753e-05	6.7651e-06	422.2	2.7928e-07	2.2438e-07	614.21	143.64	2.8175e-07	2.4043e-07	300.67	146.59	61.19	28.792	2.7632e-07	72.325	141.800	-11.932	0.886	-81.320	50.495	29.140	-81.909	-76.069	21.455	49.755	-76.928	-73.315	-72.241	-66.380	34.324	-68.616	-8191	255	
9412.540	1	1	0	0	0.042322	0.24665	0.18133	0.19285	0.21631	0.20769	0.14062	0.29229	0.26039	0.23187	0.10696	0.26756	0.18872	0.072927	0.22192	0.33585	-2.4667	-2.3667	-2.475	-2.6604	-2.4854	-2.5521	-2.8042	-2.4562	-2.625	-2.6104	-2.5479	-2.7792	-2.3271	-2.6396	-2.5167	-2.3167	85.148	18.335	2.119	175.288	246.477	-92.628	-74.266	148.898	-28.502	262.565	154.213	185.315	-15.837	83.302	10.035	233.062	0.00048843	0.00057108	0.00010389	452.11	4.2442e-06	4.9705e-06	660.23	153.87	3.7076e-06	3.6261e-06	326.54	157.52	65.531	30.924	2.6465e-06	77.565	7.4428e-05	2.4662e-05	6.1248e-06	420.25	2.8443e-07	2.2682e-07	618.63	144.21	2.8509e-07	2.3161e-07	305.05	148.49	61.697	29.073	2.6345e-07	73.558	142.668	-13.539	11.677	-81.290	50.397	28.891	-81.853	-75.913	28.375	51.952	-77.108	-73.493	-72.132	-66.534	26.396	-68.774	-8191	255	
9412.611	1	1	0	0	0.14441	0.16352	0.12622	0.18319	0.20878	0.12186	0.16845	0.23753	0.06417	0.13891	0.2749	0.073301	0.054258	0.14076	0.30921	0.33094	-2.3604	-2.2333	-2.5271	-2.6333	-2.1688	-2.5125	-2.7229	-2.4042	-2.6437	-2.7062	-2.5854	-2.8292	-2.4521	-2.6771	-2.7208	-2.4792	155.691	109.179	-14.622	262.168	189.780	-5.406	43.622	223.649	59.354	19.054	196.257	220.939	212.282	-87.961	251.998	-80.282	0.00048742	0.00049512	0.00013926	454.31	4.3764e-06	4.68e-06	669.02	156.01	3.8718e-06	3.7706e-06	330.48	159.41	65.741	31.064	3.5858e-06	78.65	7.8795e-05	2.3086e-05	6.2394e-06	423.54	2.783e-07	2.4305e-07	627.96	145.74	2.8467e-07	2.3681e-07	308.55	150.11	61.976	29.229	2.8912e-07	74.413	141.245	-21.122	-0.977	-81.307	53.540	38.669	-81.928	-76.004	35.185	54.427	-77.371	-73.101	-71.969	-66.612	47.934	-68.592	-8191	255	
9412.708	1	1	0	0	0.13145	0.24085	0.15743	0.095777	0.18656	0.10444	0.059563	0.1924	0.17174	0.1335	0.030408	0.15329	0.10289	0.13946	0.26142	0.16322	-2.1854	-2.6125	-2.3375	-2.6063	-2.3604	-2.4583	-2.6375	-2.2417	-2.7417	-2.5417	-2.5646	-2.8958	-2.5	-2.5438	-2.7333	-2.4833	44.046	36.563	100.221	136.684	173.837	116.526	204.795	183.242	17.478	189.300	219.213	241.802	232.096	-10.062	51.377	215.665	0.00049094	0.0005103	0.00013121	458.1	4.6138e-06	5.5833e-06	676.61	155.5	3.219e-06	2.9949e-06	333.22	161.17	66.271	30.962	2.5022e-06	78.592	7.6614e-05	2.4369e-05	6.605e-06	426.38	2.7611e-07	2.34e-07	635.83	145.99	3.0998e-07	2.2922e-07	311.63	151.5	62.06	29.216	2.6844e-07	74.354	139.816	-14.894	-7.072	-81.367	53.582	41.001	-81.899	-76.177	27.913	33.025	-77.181	-73.345	-72.444	-66.386	31.545	-68.763	-8191	255	
9412.804	1	1	0	0	0.29781	0.042765	0.23964	0.10488	0.05294	0.073146	0.21607	0.13209	0.26951	0.11454	0.18066	0.11901	0.11629	0.29526	0.22248	0.14742	-2.2125	-2.4667	-2.2729	-2.7687	-2.3271	-2.4437	-2.7562	-2.4521	-2.575	-2.575	-2.4521	-2.6333	-2.25	-2.4667	-2.7042	-2.4771	103.242	135.969	150.555	173.852	90.171	89.571	-70.049	220.979	198.431	-14.335	262.376	46.663	153.980	-80.663	7.614	214.497	0.00051397	0.00044256	0.00010681	450.63	3.9135e-06	3.5056e-06	655.35	152.44	3.614e-06	3.5863e-06	320.21	155.46	65.012	30.39	3.3969e-06	76.341	7.9583e-05	2.1809e-05	6.5141e-06	421.42	2.584e-07	2.4133e-07	614.59	143.51	2.7535e-07	2.1535e-07	300.67	146.77	61.033	28.725	2.9433e-07	72.234	139.499	-16.980	0.697	-81.164	49.913	43.415	-81.818	-75.946	29.059	41.917	-77.595	-73.059	-72.354	-66.614	39.383	-68.870	-8191	255	
9412.923	1	1	0	0	0.20206	0.24496	0.1601	0.12915	0.086219	0.20373	0.36894	0.1947	0.35576	0.10554	0.30492	0.14153	0.10695	0.10833	0.04718	0.25186	-2.2458	-2.5792	-2.2625	-2.6437	-2.3396	-2.5563	-2.6646	-2.4437	-2.3417	-2.5583	-2.4	-2.7208	-2.5521	-2.375	-2.6521	-2.4333	183.983	30.394	111.514	178.551	191.495	44.314	190.845	160.424	20.993	95.891	216.745	-63.318	258.501	-59.670	148.160	209.805	0.00049913	0.00044422	0.0001281	447.39	3.3193e-06	5.6507e-06	653.46	152.18	3.6662e-06	2.9735e-06	324.79	156.82	65.264	30.558	2.9687e-06	77.186	7.8938e-05	2.2988e-05	6.3285e-06	416.94	2.62e-07	2.1993e-07	613.86	143.41	2.8687e-07	2.1745e-07	303.57	147.74	61.394	28.814	2.8709e-07	73.03	135.415	-1.972	-9.231	-81.452	41.398	51.970	-81.927	-76.043	13.315	61.222	-77.140	-73.146	-72.264	-66.464	31.722	-68.700	-8191	255	
9413.019	1	1	0	0	0.072651	0.15845	0.073303	0.13137	0.29601	0.092467	0.23203	0.24886	0.13332	0.13769	0.1247	0.40614	0.11103	0.48798	0.07291	0.23399	-1.9854	-2.675	-2.3125	-2.7125	-2.2938	-2.4917	-2.5292	-2.4062	-2.6021	-2.8146	-2.5875	-2.7479	-2.5312	-2.2854	-2.4833	-2.6833	-32.794	255.843	255.309	-11.687	94.924	-86.958	171.455	127.516	-44.526	-60.483	-82.520	215.893	3.714	189.508	-16.568	215.279	0.00046586	0.00044833	0.00013219	454.66	3.8293e-06	4.7973e-06	669.21	153.64	3.8255e-06	3.8353e-06	327.65	159.1	65.559	30.818	4.5972e-06	78.442	7.6728e-05	2.2897e-05	6.6778e-06	422.14	2.6165e-07	2.4226e-07	624.84	144.52	2.9348e-07	2.2669e-07	307.36	150.02	61.862	29.1	2.8775e-07	74.207	140.377	-21.890	4.628	-81.232	35.332	60.608	-81.863	-75.919	16.015	59.033	-76.937	-73.207	-72.490	-66.727	22.576	-68.547	-8191	255	
9413.115	1	1	0	0	0.16129	0.24399	0.15567	0.1431	0.11152	0.090648	0.19896	0.29121	0.15916	0.21533	0.24693	0.16709	0.29546	0.31764	0.18898	0.083248	-1.85	-2.8271	-2.3396	-2.6542	-2.6521	-2.3042	-2.8146	-2.6063	-2.6708	-2.5917	-2.5333	-2.6417	-2.5604	-2.2208	-2.4625	-2.5	172.318	-87.101	193.902	202.439	264.041	184.169	142.641	192.983	146.404	-26.851	-74.987	-30.791	191.901	-90.877	168.449	205.066	0.0004872	0.00051038	0.00011929	457.1	3.1433e-06	4.3729e-06	679.09	156.58	2.823e-06	3.6559e-06	335.26	161.26	65.868	30.956	4.8862e-06	79.243	7.8699e-05	2.5443e-05	6.1503e-06	425.84	2.4994e-07	2.3975e-07	635.92	146.2	2.8204e-07	2.337e-07	312.47	151.73	62.185	29.247	3.0742e-07	74.948	139.184	-8.263	-16.618	-81.390	41.736	40.354	-81.956	-76.117	40.667	54.959	-77.330	-73.212	-72.445	-66.805	18.931	-68.616	-8191	255	
9413.211	1	1	0	0	0.13703	0.015471	0.28161	0.28568	0.3384	0.2356	0.087363	0.023783	0.16879	0.18528	0.16349	0.16179	0.050979	0.094013	0.2185	0.18678	-1.85	-2.525	-2.4625	-2.6604	-2.6896	-2.2271	-2.5229	-2.6667	-2.3063	-2.6417	-2.5917	-2.5438	-2.6063	-2.2771	-2.5854	-2.7208	110.131	104.198	170.760	221.547	133.538	121.349	180.258	244.338	-9.485	102.030	195.124	194.883	96.751	-28.950	-11.963	215.328	0.00048967	0.00046928	0.00012553	452.37	3.8264e-06	4.7941e-06	661.25	153.08	3.7079e-06	4.1632e-06	321.37	156.01	65.359	30.457	3.8895e-06	77.014	7.6602e-05	2.2128e-05	6.4886e-06	422.79	2.6306e-07	2.3063e-07	620.96	143.78	2.9469e-07	2.379e-07	301.87	147.09	61.267	28.728	2.7762e-07	72.479	140.032	-12.973	-0.404	-81.579	30.009	45.949	-81.612	-75.743	35.793	59.272	-77.184	-73.073	-72.247	-66.702	35.368	-68.573	-8191	255	
9413.307	1	1	0	0	0.23217	0.15783	0.19341	0.23636	0.3909	0.18913	0.16415	0.16616	0.081055	0.3154	0.066032	0.28149	0.2914	0.34538	0.27717	0.28131	-1.8729	-2.5792	-2.2125	-2.4875	-2.6167	-2.3	-2.3583	-2.5438	-2.5812	-2.575	-2.5062	-2.3979	-2.6104	-2.3833	-2.5	-2.5958	247.498	151.677	220.366	-65.893	195.244	218.075	259.674	121.133	135.634	-48.317	-61.607	263.086	257.763	-36.412	-61.488	157.903	0.00047748	0.00036176	0.00016045	448.93	3.9701e-06	4.0468e-06	656.09	153.51	3.3876e-06	4.2077e-06	324.51	157.98	65.408	30.739	3.7361e-06	78.241	7.8203e-05	2.0943e-05	6.1575e-06	416.85	2.5502e-07	2.1468e-07	614.39	143.53	2.9405e-07	2.3956e-07	303.79	148.37	61.432	28.932	2.7097e-07	73.59	141.227	-35.916	-3.028	-81.541	46.120	54.684	-81.789	-76.122	21.763	51.725	-77.028	-73.363	-72.223	-66.663	25.487	-68.820	-8191	255	
9413.403	1	1	0	0	0.34261	0.21357	0.10673	0.11296	0.073703	0.35783	0.14148	0.13158	0.067229	0.073569	0.15612	0.29094	0.12738	0.15221	0.16395	0.30896	-1.8	-2.3729	-2.3333	-2.4083	-2.6437	-2.4625	-2.5958	-2.7438	-2.2729	-2.7812	-2.6063	-2.5292	-2.8458	-2.5354	-2.6417	-2.525	257.442	158.410	43.936	-65.979	187.557	36.119	157.043	196.813	20.865	-27.567	190.508	230.512	215.812	186.237	130.239	183.930	0.00049267	0.00046256	0.00013471	454.55	3.7767e-06	4.5595e-06	667.82	154.48	3.3696e-06	3.8929e-06	329.51	159.14	66.276	30.745	4.8466e-06	78.561	7.9488e-05	2.1464e-05	6.1976e-06	422.31	2.4387e-07	2.4391e-07	628.41	144.98	2.9469e-07	2.3826e-07	309.42	150.3	61.982	29.018	3.1609e-07	74.456	140.415	-25.610	8.999	-81.509	45.308	31.308	-81.772	-76.222	12.904	47.359	-77.404	-73.079	-72.061	-66.586	48.541	-68.592	-8191	255	
9413.500	1	1	0	0	0.18445	0.34967	0.27636	0.19574	0.02165	0.16718	0.1054	0.073014	0.16714	0.14222	0.08418	0.11219	0.29985	0.29885	0.1798	0.28358	-1.95	-2.5792	-2.4958	-2.3312	-2.7271	-2.3563	-2.6083	-2.6604	-2.4583	-2.4583	-2.5271	-2.5125	-2.5854	-2.4833	-2.3229	-2.9604	-44.237	68.213	145.266	225.926	-74.610	109.714	14.684	119.971	225.339	144.331	47.862	43.380	124.267	-20.620	93.267	150.613	0.00046705	0.00037877	0.00014157	457.34	3.2709e-06	4.957e-06	681.64	156.69	2.6208e-06	3.7675e-06	335.08	161.63	65.785	30.912	3.9386e-06	80.011	8.0909e-05	2.2838e-05	6.5395e-06	427.27	2.6673e-07	2.4866e-07	640.18	146.61	2.9796e-07	2.2944e-07	314.36	152.69	62.39	29.309	2.9382e-07	75.667	139.171	-30.106	12.953	-81.333	44.449	36.842	-81.968	-75.938	36.477	45.618	-77.367	-72.904	-72.106	-66.691	17.508	-68.606	-8191	255	
9413.618	1	1	0	0	0.10387	0.25849	0.19414	0.087894	0.036126	0.12624	0.1987	0.18295	0.071232	0.040126	0.2774	0.084484	0.37728	0.25174	0.26551	0.27999	-2.0521	-2.5667	-2.4688	-2.45	-2.7333	-2.525	-2.6042	-2.6646	-2.375	-2.7167	-2.725	-2.5187	-2.7229	-2.5646	-2.4604	-2.85	219.558	223.536	-3.223	243.312	78.776	199.691	159.141	178.315	182.075	42.596	256.400	220.580	215.812	186.240	-30.035	198.545	0.00048438	0.00049965	0.000137	455.79	4.3503e-06	5.5698e-06	676.15	155.31	3.264e-06	3.1535e-06	327.19	157.23	64.817	30.564	4.0297e-06	76.566	8.0802e-05	2.349e-05	6.4722e-06	428.09	2.5784e-07	2.5735e-07	634.22	145.19	2.9149e-07	2.3053e-07	305.38	148.3	61.218	28.81	2.7986e-07	72.595	140.045	-6.028	9.092	-81.514	32.592	49.413	-81.906	-76.114	25.185	28.673	-77.164	-72.926	-72.360	-66.332	44.839	-68.778	-8191	255	
9413.715	1	1	0	0	0.18852	0.14297	0.099632	0.17546	0.12031	0.1472	0.22177	0.13314	0.13137	0.12506	0.26541	0.21528	0.21643	0.073601	0.052363	0.24246	-2.0958	-2.55	-2.5854	-2.3354	-2.6083	-2.4375	-2.5854	-2.6604	-2.3771	-2.4667	-2.6833	-2.4188	-2.6521	-2.4979	-2.4167	-2.7854	154.259	-44.290	100.462	162.650	140.618	62.396	239.643	197.941	6.281	75.102	151.013	184.440	-71.771	-56.006	37.431	255.716	0.00047377	0.00046165	0.00013672	448.69	4.0816e-06	5.1648e-06	658.05	152.97	3.3918e-06	3.311e-06	324.61	157.26	65.028	30.326	3.926e-06	77.617	7.7928e-05	2.2545e-05	6.0102e-06	418.18	2.5685e-07	2.1835e-07	616.41	143.65	2.8609e-07	2.2156e-07	304.04	147.84	61.211	28.85	2.944e-07	73.266	136.381	-8.899	-5.594	-81.328	47.862	40.277	-81.563	-75.574	12.489	47.134	-77.005	-73.493	-72.327	-66.278	26.548	-68.822	-8191	255	
9413.811	1	1	0	0	0.14328	0.15883	0.068901	0.27198	0.21775	0.076943	0.2143	0.11081	0.32897	0.034251	0.20322	0.16109	0.32164	0.064274	0.24512	0.047834	-1.7833	-2.2333	-2.4979	-2.1896	-2.5396	-2.3458	-2.3812	-2.6125	-2.4604	-2.3458	-2.7396	-2.5208	-2.5938	-2.6	-2.3896	-2.7896	-69.047	-38.735	32.042	32.063	-38.853	130.359	14.079	140.007	225.375	76.420	77.935	225.733	31.568	-77.075	-19.840	60.098	0.0004572	0.00044361	0.00011021	451.38	4.4132e-06	4.7145e-06	670.96	153.58	3.3054e-06	3.9246e-06	329.69	159.55	65.624	30.828	3.6234e-06	78.343	7.6781e-05	2.3118e-05	5.9902e-06	422.18	2.7117e-07	2.4542e-07	627.99	144.92	2.7109e-07	2.5134e-07	308.78	150.19	61.998	29.13	2.9686e-07	74.08	141.219	-21.020	3.953	-81.638	42.485	46.699	-81.862	-75.966	24.462	40.546	-77.120	-73.072	-72.417	-66.477	29.710	-68.515	-8191	255	
9413.907	1	1	0	0	0.10251	0.17444	0.21826	0.18913	0.17525	0.22667	0.068122	0.17055	0.24034	0.30849	0.030607	0.27188	0.14641	0.10696	0.092587	0.20662	-2.0354	-2.3563	-2.6312	-2.2854	-2.5729	-2.8083	-2.3667	-2.5104	-2.2812	-2.3625	-2.6833	-2.5917	-2.5667	-2.7542	-2.2521	-2.7938	168.007	188.937	239.577	189.246	255.077	122.962	176.581	138.188	67.996	178.059	97.305	238.030	106.737	92.741	-74.882	195.843	0.00049965	0.00044015	0.00013217	456.21	3.2727e-06	4.7404e-06	679.48	155.28	2.1173e-06	4.1606e-06	332.56	160.49	66.382	30.874	3.9058e-06	78.967	7.855e-05	2.1327e-05	5.8774e-06	425.63	2.7844e-07	2.3321e-07	636.68	146.08	2.6881e-07	2.4707e-07	311.22	151.34	62.239	29.15	3.0973e-07	74.514	137.019	-16.289	-7.678	-81.187	29.653	38.821	-81.861	-76.142	19.958	49.433	-77.465	-73.234	-72.316	-66.461	19.164	-68.829	-8191	255	
9414.003	1	1	0	0	0.16422	0.32821	0.1125	0.14832	0.10821	0.2593	0.30247	0.1602	0.12838	0.12452	0.090119	0.16006	0.2254	0.12053	0.17906	0.23963	-2.0729	-2.2896	-2.5208	-2.4813	-2.6729	-2.6312	-2.6083	-2.7021	-2.4875	-2.3042	-2.8438	-2.4646	-2.2542	-2.6354	-2.35	-2.8542	-20.298	-18.472	-93.275	41.936	69.793	210.628	247.770	21.211	57.802	222.564	137.690	-81.364	97.774	221.362	126.709	200.834	0.00048472	0.00044612	0.00013232	458.72	3.733e-06	4.5169e-06	679.47	154.55	3.7579e-06	4.204e-06	325.42	157.21	64.661	30.297	3.7102e-06	76.717	7.8167e-05	2.3874e-05	6.4995e-06	427.48	2.4796e-07	2.2546e-07	634.37	144.72	2.7358e-07	2.5791e-07	304.71	148.03	61.057	28.668	2.9245e-07	72.392	139.098	-17.930	15.686	-81.556	49.912	40.688	-81.955	-75.695	28.045	66.824	-77.162	-73.085	-71.917	-66.256	46.495	-68.655	-8191	255	
9414.099	1	1	0	0	0.16261	0.11528	0.19435	0.076403	0.024815	0.10613	0.10619	0.17618	0.13557	0.21345	0.30796	0.25624	0.17225	0.33674	0.026917	0.076248	-1.9979	-2.3688	-2.6333	-2.4125	-2.5833	-2.7021	-2.3229	-2.6833	-2.5792	-2.3688	-2.6729	-2.5354	-2.3958	-2.6958	-2.4875	-2.7354	115.972	117.646	-67.872	77.182	219.971	149.797	198.241	117.671	114.730	214.501	202.058	243.097	-46.310	-86.058	42.521	137.752	0.00047227	0.00044574	0.00014018	447.52	4.7805e-06	5.583e-06	650.64	151.4	2.9368e-06	4.6744e-06	321.51	155.41	65.016	30.335	2.1789e-06	76.952	7.5903e-05	2.3099e-05	6.3958e-06	417.11	2.8091e-07	2.3767e-07	612.2	142.49	2.9256e-07	2.478e-07	301.3	146.78	61.101	28.628	2.8399e-07	72.696	141.318	-15.033	-7.018	-81.371	44.673	39.782	-81.863	-75.933	27.153	41.483	-77.176	-73.052	-71.814	-66.478	33.774	-68.693	-8191	255	
9414.220	1	1	0	0	0.028598	0.20132	0.24679	0.18037	0.13104	0.072938	0.37377	0.23083	0.17128	0.11594	0.28324	0.19134	0.22712	0.26463	0.18296	0.34159	-2.1958	-2.2583	-2.6958	-2.4437	-2.4521	-2.7896	-2.4792	-2.5708	-2.75	-2.3021	-2.725	-2.6083	-2.1937	-2.7875	-2.4688	-2.6271	-76.918	216.624	164.026	237.905	-37.618	152.958	201.094	191.032	223.141	168.607	237.475	-66.420	-57.209	23.960	-53.200	184.431	0.00046349	0.0003825	0.00014309	452.14	4.6899e-06	3.7898e-06	662.99	154.01	2.796e-06	4.212e-06	325.81	157.56	65.669	30.548	3.7776e-06	78.348	7.6614e-05	2.4961e-05	6.6378e-06	421.6	2.7823e-07	2.1066e-07	622.19	144.13	2.9135e-07	2.3797e-07	305.78	148.48	61.468	28.848	2.8095e-07	73.705	139.950	-14.175	-0.304	-81.686	33.177	44.210	-81.965	-75.555	37.739	52.027	-77.163	-73.459	-72.428	-66.535	39.038	-68.594	-8191	255	
9414.316	1	1	0	0	0.22385	0.088717	0.38366	0.16272	0.22919	0.11943	0.33827	0.15909	0.062017	0.12578	0.14221	0.24649	0.13508	0.16329	0.2577	0.12953	-2.2167	-2.2562	-2.6625	-2.5771	-2.4313	-2.6771	-2.4958	-2.5375	-2.65	-2.3563	-2.5938	-2.6375	-2.425	-2.6667	-2.3271	-2.6021	-35.357	168.118	-65.233	256.170	130.535	-9.699	235.811	-82.479	199.079	233.771	219.063	220.267	158.061	214.361	204.947	176.757	0.00048791	0.00038433	0.00010285	454.29	4.1308e-06	5.4618e-06	670.92	154.56	3.4876e-06	3.7844e-06	330.29	159.22	65.698	30.828	2.7672e-06	78.68	7.567e-05	2.3763e-05	5.5518e-06	423.95	2.6729e-07	2.4241e-07	630.98	144.95	2.7635e-07	2.3269e-07	309.17	149.86	61.781	29.042	2.8399e-07	74.097	136.987	-7.058	3.517	-81.420	39.007	42.520	-82.201	-75.729	25.836	49.791	-76.920	-73.108	-72.336	-66.608	25.758	-68.558	-8191	255	
9414.410	1	1	0	0	0.093351	0.42535	0.070397	0.419	0.14645	0.23413	0.23353	0.14014	0.17108	0.23177	0.090715	0.23729	0.13648	0.25535	0.24927	0.27783	-2.2479	-2.3646	-2.5375	-2.6437	-2.2375	-2.7271	-2.2812	-2.2708	-2.7458	-2.3625	-2.5208	-2.8333	-2.2542	-2.7542	-2.7646	-2.6667	155.491	139.237	172.297	151.436	146.817	130.687	170.660	251.485	258.596	127.643	-33.876	-85.448	166.487	159.716	53.384	239.046	0.00051045	0.00044488	0.00013995	459.16	3.1872e-06	4.8447e-06	669.6	154.32	2.7356e-06	3.8332e-06	325.2	157.17	65.38	30.365	3.8365e-06	76.702	7.72e-05	2.3281e-05	6.5923e-06	425.76	2.6659e-07	2.1734e-07	631.35	144.68	2.7386e-07	2.2424e-07	304.61	147.99	61.23	28.698	3.046e-07	72.469	140.398	-8.090	-6.145	-81.576	52.608	31.009	-82.092	-75.916	14.372	59.480	-77.287	-73.018	-72.076	-65.991	26.045	-68.561	-8191	255	
9414.507	1	1	0	0	0.20025	0.21202	0.30447	0.25916	0.16459	0.19522	0.30724	0.065048	0.19805	0.076807	0.19987	0.09251	0.078588	0.12585	0.28616	0.14636	-2.3042	-2.2375	-2.4521	-2.6333	-2.4813	-2.6271	-2.5479	-2.4104	-2.6583	-2.3667	-2.5354	-2.6542	-2.4104	-2.6104	-2.4854	-2.6	49.488	-12.671	-57.879	228.245	-64.651	-66.505	161.889	226.456	-74.936	121.808	221.256	169.677	80.590	172.384	175.410	-76.128	0.00048955	0.00060611	0.00014845	446.29	4.5566e-06	4.0604e-06	649.11	151	3.8367e-06	3.868e-06	321.79	156.65	65.181	30.513	3.3179e-06	77.515	7.5975e-05	2.3783e-05	6.0211e-06	416.5	2.6645e-07	2.3278e-07	610.36	142.43	2.7777e-07	2.2171e-07	301.3	147.39	61.23	28.785	2.7545e-07	73.019	139.400	-11.957	6.604	-81.392	42.228	33.701	-82.124	-76.168	26.985	47.612	-77.001	-73.445	-72.320	-66.262	32.018	-68.631	-8191	255	
9414.603	1	1	0	0	0.17886	0.066757	0.27832	0.21012	0.26272	0.25972	0.14081	0.19498	0.22277	0.088037	0.31702	0.18533	0.19452	0.12803	0.15024	0.12182	-2.2792	-2.575	-2.4771	-2.6333	-2.2104	-2.5083	-2.6813	-2.6021	-2.5229	-2.3417	-2.6167	-2.8354	-2.4062	-2.5083	-2.5563	-2.4125	174.585	-17.749	218.580	219.677	83.661	-4.280	214.612	177.737	154.991	148.902	131.734	-62.070	196.549	178.694	190.659	217.050	0.00049333	0.00050835	0.00012989	449.48	4.705e-06	5.3233e-06	667.85	153.44	3.4608e-06	3.7789e-06	326.11	158.34	65.026	30.573	3.4575e-06	78.172	7.668e-05	2.3333e-05	6.6032e-06	419.41	2.7971e-07	2.5174e-07	623.7	143.9	2.8367e-07	2.3775e-07	306.36	149.02	61.445	28.95	2.7176e-07	73.759	138.963	-21.993	-7.608	-80.987	33.295	39.506	-81.896	-75.970	7.891	42.235	-77.310	-72.903	-72.187	-66.386	39.138	-68.621	-8191	255	
9414.699	1	1	0	0	0.0079015	0.1354	0.34726	0.15251	0.13126	0.099423	0.14153	0.031365	0.20953	0.24242	0.18486	0.22873	0.16728	0.15603	0.054538	0.46748	-2.0854	-2.2354	-2.2646	-2.6083	-2.375	-2.4437	-2.7583	-2.3563	-2.6146	-2.5	-2.3708	-2.6813	-2.3979	-2.5833	-2.5208	-2.35	214.876	131.803	-64.856	-71.250	239.837	60.494	22.048	228.339	210.389	236.548	242.691	225.531	-48.863	143.300	-15.583	198.428	0.00051355	0.00039223	0.00014153	452.21	3.6904e-06	5.5225e-06	673.08	154.12	3.4696e-06	3.9605e-06	330.07	160.01	65.813	30.792	3.3245e-06	78.945	7.8436e-05	2.2597e-05	6.4213e-06	423.26	2.8091e-07	2.5138e-07	631.86	145.14	2.8737e-07	2.4483e-07	309.74	150.71	61.852	29.059	2.7061e-07	74.536	137.108	-20.578	4.763	-81.277	54.257	51.901	-82.022	-75.657	10.285	49.785	-77.187	-73.079	-72.549	-66.315	22.889	-68.646	-8191	255	
9414.795	1	1	0	0	0.2528	0.18349	0.073999	0.098654	0.30123	0.25941	0.067473	0.18332	0.27374	0.14883	0.37908	0.25577	0.026891	0.17555	0.066837	0.25961	-2.1333	-2.475	-2.4292	-2.6292	-2.3604	-2.4875	-2.8104	-2.5375	-2.5687	-2.5271	-2.4271	-2.9271	-2.3917	-2.2771	-2.6125	-2.4375	245.736	233.056	151.090	-9.404	223.455	170.973	201.954	229.345	-82.996	-13.747	238.269	232.468	253.138	80.067	21.472	188.649	0.00049845	0.00058122	0.00012332	452.79	3.4944e-06	4.5472e-06	679.21	154.83	3.7361e-06	4.7946e-06	327.49	158.95	65.744	30.479	3.5898e-06	77.195	7.8693e-05	2.4727e-05	6.716e-06	425.48	2.5897e-07	2.381e-07	638.21	145.72	2.9092e-07	2.3977e-07	308.04	149.82	61.658	28.824	2.7589e-07	72.991	136.304	-19.765	6.280	-81.475	40.673	46.562	-81.743	-75.915	15.944	55.675	-77.398	-73.285	-72.257	-66.524	27.294	-68.464	-8191	255	
9414.891	1	1	0	0	0.14053	0.078243	0.10448	0.18264	0.28048	0.12855	0.30954	0.16741	0.095171	0.28209	0.21988	0.36642	0.16469	0.083761	0.11926	0.087324	-2.1813	-2.5229	-2.2625	-2.5792	-2.4562	-2.4292	-2.6417	-2.3708	-2.5021	-2.6958	-2.4	-2.6042	-2.2938	-2.4021	-2.7604	-2.6396	106.131	229.738	-76.252	239.384	159.713	151.768	2.228	77.154	110.734	-26.974	249.504	203.745	103.040	-21.381	226.211	48.701	0.00048972	0.00042948	0.00012163	446.92	3.3412e-06	3.5347e-06	655.86	151.79	2.8624e-06	4.4674e-06	321.2	155.17	65.175	30.45	3.254e-06	77.092	7.9087e-05	2.1419e-05	6.5868e-06	417.35	2.6553e-07	2.3494e-07	613.23	142.59	3.0728e-07	2.3226e-07	300.88	146.72	61.113	28.734	3.0496e-07	72.848	138.199	-16.675	2.899	-81.174	59.062	41.819	-81.706	-75.951	32.604	53.183	-77.031	-73.216	-72.534	-66.524	34.745	-68.815	-8191	255	
9415.012	1	1	0	0	0.13999	0.18814	0.054131	0.032424	0.061563	0.21016	0.1667	0.090257	0.069092	0.21492	0.15153	0.16371	0.11763	0.29813	0.14483	0.31102	-2.05	-2.5708	-2.2958	-2.4875	-2.3729	-2.3792	-2.8063	-2.4188	-2.4833	-2.6354	-2.5708	-2.6729	-2.5208	-2.4458	-2.5875	-2.3646	48.413	185.582	250.761	-84.264	-32.129	-89.854	-72.833	-32.414	203.083	139.107	231.035	175.465	73.927	209.444	-5.545	160.217	0.00048213	0.00051119	0.00013041	451.5	4.308e-06	5.758e-06	664.89	153.08	4.2506e-06	3.6162e-06	329.95	158.91	65.282	30.56	3.522e-06	78.512	7.7457e-05	2.4916e-05	6.8488e-06	420.46	2.7858e-07	2.4363e-07	621.78	144.29	3.05e-07	2.4223e-07	306.93	149.48	61.72	28.957	2.9642e-07	74.095	138.900	-27.944	8.135	-81.347	38.118	48.305	-81.987	-76.085	32.353	43.490	-77.467	-73.031	-71.820	-66.494	36.784	-68.682	-8191	255	
9415.108	1	1	0	0	0.15854	0.26554	0.14498	0.089871	0.10143	0.24727	0.20826	0.11604	0.18192	0.16798	0.39522	0.15438	0.26397	0.33983	0.12338	0.24382	-2.0542	-2.6167	-2.3688	-2.6958	-2.5	-2.3792	-2.675	-2.4792	-2.5187	-2.6875	-2.4625	-2.6188	-2.6063	-2.4896	-2.5521	-2.6562	190.815	8.267	28.734	142.750	167.686	-20.025	207.125	-47.590	-44.370	95.099	207.092	128.203	-71.772	225.551	213.168	114.093	0.00050177	0.0004739	0.0001518	454.35	3.9292e-06	3.8248e-06	673.94	154.83	4.1291e-06	3.7983e-06	331.13	160.54	65.953	30.91	3.458e-06	79.109	7.7893e-05	2.4798e-05	7.0307e-06	422.8	2.7667e-07	2.7667e-07	634.24	145.15	3.0351e-07	2.4917e-07	310.16	151.3	62.046	29.215	3.03e-07	74.93	140.191	-10.122	7.684	-81.333	36.980	53.615	-81.802	-75.866	28.185	55.055	-77.280	-73.136	-72.352	-66.604	34.054	-68.678	-8191	255	
9415.180	1	1	0	0	0.18446	0.12646	0.22431	0.40161	0.038457	0.15111	0.16537	0.26531	0.22405	0.20434	0.074294	0.19369	0.10778	0.24323	0.21259	0.057302	-1.9854	-2.5875	-2.2687	-2.4958	-2.55	-2.4167	-2.8312	-2.4292	-2.3396	-2.6583	-2.7188	-2.6417	-2.625	-2.3333	-2.5563	-2.7604	104.779	9.008	117.416	-54.322	-51.812	249.035	14.724	-61.957	113.486	133.615	-43.182	-75.962	205.587	243.348	184.340	180.815	0.00051177	0.00041152	0.00011027	456.09	4.0467e-06	5.1669e-06	683.28	155.78	3.3527e-06	3.8248e-06	333.75	161.28	65.919	30.961	3.0447e-06	78.073	8.0975e-05	2.3646e-05	6.2903e-06	424.94	2.8479e-07	2.562e-07	642.13	146.11	3.0664e-07	2.3479e-07	313.01	151.64	62.056	29.209	2.8623e-07	73.853	138.919	-18.117	7.382	-81.584	30.971	40.933	-82.172	-75.852	35.650	53.008	-76.970	-73.268	-72.122	-66.320	39.613	-68.728	-8191	255	
9415.300	1	1	0	0	0.16745	0.28106	0.10534	0.12955	0.038661	0.082319	0.075846	0.21452	0.16125	0.20503	0.19589	0.12108	0.16763	0.18035	0.40342	0.10664	-1.9979	-2.6833	-2.3479	-2.6396	-2.5854	-2.375	-2.6688	-2.6	-2.2292	-2.6521	-2.3646	-2.5812	-2.625	-2.4146	-2.7771	-2.7979	-80.114	129.482	51.646	67.055	-96.164	-59.016	68.972	221.477	40.416	150.079	-16.414	204.328	208.017	136.523	101.943	132.016	0.00047151	0.00043523	0.00012876	445.46	3.0913e-06	4.4983e-06	642.37	167.05	2.0576e-06	4.3189e-06	370.03	180.55	74.59	35.064	3.4078e-06	88.822	7.8926e-05	2.2272e-05	6.1575e-06	416.46	2.6257e-07	2.1274e-07	590.87	153.25	3.328e-07	2.6969e-07	341.15	167.32	69.091	32.561	3.132e-07	82.795	138.524	-20.036	12.781	-81.330	47.449	41.571	-91.500	-82.642	22.808	49.636	-78.711	-74.451	-73.776	-67.598	25.304	-70.035	-8191	255	
9415.396	1	1	0	0	0.1649	0.31285	0.18805	0.23503	0.17379	0.12425	0.21864	0.29846	0.27143	0.25981	0.14841	0.089814	0.10605	0.17686	0.10239	0.30272	-2.0417	-2.7521	-2.5375	-2.7458	-2.6792	-2.4917	-2.8271	-2.5563	-2.4229	-2.8396	-2.5396	-2.6667	-2.5604	-2.5104	-2.6375	-2.6437	27.749	181.728	133.122	-32.486	9.128	14.663	256.488	213.977	244.029	233.503	191.665	231.200	117.557	186.982	-31.575	205.791	0.00055327	0.00055588	0.00020823	516.05	4.2335e-06	5.7915e-06	766.03	175.06	4.0096e-06	4.4926e-06	378.17	183.49	75.747	35.411	3.9648e-06	90.622	8.6537e-05	2.5378e-05	7.6219e-06	472.19	3.2577e-07	2.9462e-07	705.15	162.65	3.3877e-07	2.8176e-07	348.58	169.98	70.056	32.959	3.3996e-07	84.365	137.598	-4.687	17.730	-82.863	44.594	48.896	-83.200	-77.571	14.923	32.379	-78.455	-74.633	-73.927	-67.995	33.236	-70.052	-8191	255	
9415.493	1	1	0	0	0.078677	0.14523	0.034729	0.13568	0.22339	0.21414	0.24552	0.20488	0.14066	0.23487	0.26792	0.20945	0.31096	0.32764	0.17041	0.31299	-2.1104	-2.7229	-2.5875	-2.4875	-2.7271	-2.4167	-2.6729	-2.6854	-2.2562	-2.625	-2.7854	-2.5938	-2.7542	-2.5	-2.5333	-2.8625	207.687	163.977	-41.729	-76.214	263.514	175.824	168.143	155.804	-93.491	116.657	217.649	217.494	-53.040	-92.445	179.295	211.900	0.00057311	0.00053779	0.00013888	519.36	3.5599e-06	5.5268e-06	776.28	178.33	3.968e-06	5.8288e-06	437.07	213.15	86.599	40.839	5.318e-06	104.8	8.9147e-05	2.6544e-05	6.9088e-06	477.53	2.8415e-07	3.0288e-07	716.2	164.18	5.9514e-07	3.4528e-07	396.62	194.06	79.045	37.33	4.1401e-07	95.99	134.296	-30.158	-8.197	-82.752	33.879	35.995	-83.195	-77.334	0.347	42.279	-80.528	-76.131	-75.538	-69.278	22.181	-71.760	-8191	255	
9415.611	1	1	0	0	0.20877	0.047745	0.25108	0.17512	0.14633	0.087008	0.14099	0.27648	0.12827	0.21424	0.23631	0.060327	0.25237	0.35951	0.20479	0.33754	-2.0104	-2.5646	-2.4854	-2.6125	-2.7896	-2.6229	-2.5042	-2.8354	-2.4083	-2.8771	-2.875	-2.6292	-2.7521	-2.5875	-2.3812	-2.7583	-90.462	-79.646	99.532	-48.055	118.212	-71.032	198.668	215.261	184.071	156.569	202.309	253.590	95.393	199.963	8.418	182.897	0.00062358	0.00061691	0.00022647	599.21	5.5632e-06	6.8162e-06	897.58	204.84	5.1675e-06	5.7473e-06	439.31	213.03	86.596	40.741	4.4348e-06	103.31	0.00010442	3.2203e-05	9.1644e-06	540.15	3.3854e-07	3.1588e-07	817.78	186.03	3.9159e-07	3.0662e-07	399.44	194.39	79.151	37.16	3.9289e-07	94.783	140.118	-11.843	10.085	-84.214	40.197	47.004	-85.037	-78.861	15.421	46.009	-80.009	-75.901	-75.210	-69.256	30.774	-71.469	-8191	255	
9415.708	1	1	0	0	0.2841	0.080801	0.059724	0.20428	0.15219	0.12204	0.054679	0.11351	0.14158	0.18346	0.04111	0.26074	0.20499	0.30206	0.2652	0.42078	-2.2042	-2.5729	-2.5375	-2.3479	-2.7	-2.5208	-2.575	-2.875	-2.5563	-2.5167	-2.6396	-2.6042	-2.7917	-2.7167	-2.4562	-2.7646	87.012	-71.910	-38.121	243.751	-39.082	-47.967	165.170	-81.391	225.480	134.861	161.112	201.246	132.303	-85.122	157.561	201.140	0.00064399	0.00052587	0.00023541	589.96	6.4288e-06	6.3827e-06	866.6	200.36	5.1555e-06	6.4174e-06	425.73	205.96	85.202	40.06	4.8698e-06	101.81	0.00010355	3.0132e-05	8.4168e-06	531.18	3.3389e-07	3.1674e-07	784.05	181.44	3.9735e-07	3.3943e-07	384.72	187.99	77.621	36.648	3.8624e-07	93.177	140.143	-12.515	-11.905	-84.081	43.816	47.406	-84.705	-78.783	23.854	38.118	-79.916	-76.011	-75.075	-69.353	26.465	-71.578	-8191	255	
9415.779	1	1	0	0	0.12216	0.18951	0.28601	0.14805	0.14012	0.030437	0.29234	0.25647	0.016469	0.1382	0.12862	0.41446	0.13913	0.34099	0.1684	0.40794	-1.8979	-2.575	-2.7292	-2.4813	-2.6292	-2.7417	-2.4667	-2.8146	-2.5417	-2.4229	-2.7396	-2.35	-2.625	-2.5604	-2.5708	-2.8667	-60.679	143.804	97.787	256.069	-10.049	180.745	153.277	220.878	93.318	-72.364	120.036	203.834	-21.677	-92.374	-93.490	196.204	0.00061529	0.00076585	0.00017207	583.39	4.5505e-06	6.6822e-06	866.22	200.23	4.9352e-06	5.757e-06	429.16	207.06	85.33	40.28	4.8317e-06	102.6	9.7493e-05	3.1102e-05	8.0512e-06	529.22	3.4553e-07	3.2723e-07	786.82	181.85	3.6586e-07	3.1327e-07	388.15	189.03	77.802	36.826	4.0439e-07	93.767	139.718	-10.302	-6.953	-84.065	34.358	33.561	-84.796	-78.710	38.660	52.428	-79.903	-76.287	-75.303	-69.432	24.249	-71.472	-8191	255	
9415.900	1	1	0	0	0.19419	0.019928	0.19529	0.044091	0.20328	0.07701	0.09181	0.087916	0.023737	0.30104	0.22759	0.23324	0.23463	0.32839	0.15508	0.19371	-1.9021	-2.4813	-2.6875	-2.6771	-2.6188	-2.6312	-2.5771	-2.6	-2.5187	-2.4083	-2.8104	-2.4062	-2.5396	-2.6417	-2.4062	-2.7562	96.232	138.654	24.675	236.324	95.687	241.398	230.466	-55.472	236.373	234.088	-78.436	-86.333	198.273	-94.121	34.711	187.797	0.00060278	0.00068543	0.00015625	589.83	4.7211e-06	6.5186e-06	875.01	201.25	4.1126e-06	5.2134e-06	430	208.16	85.451	40.234	4.4999e-06	103.41	9.9106e-05	3.2131e-05	8.0785e-06	532.69	3.5286e-07	3.2888e-07	795.79	182.86	3.8079e-07	3.3271e-07	390.57	190.66	77.881	36.854	4.2211e-07	94.438	140.116	-19.196	-12.320	-84.124	44.752	36.925	-84.524	-78.933	14.390	51.118	-79.827	-76.055	-75.411	-69.268	39.148	-71.462	-8191	255	
9415.996	1	1	0	0	0.13062	0.24147	0.19419	0.37899	0.25662	0.070549	0.26342	0.17007	0.11899	0.05077	0.1678	0.1478	0.23443	0.11789	0.086091	0.1732	-1.8937	-2.4604	-2.575	-2.4833	-2.6354	-2.6083	-2.4458	-2.4688	-2.6	-2.4479	-2.7354	-2.4708	-2.5229	-2.6292	-2.3292	-2.9979	-92.654	-55.114	108.253	179.187	235.621	-21.744	141.642	262.482	22.684	-68.464	224.155	141.795	-45.257	212.813	-21.878	158.183	0.00064077	0.0006208	0.00017652	594.4	6.2411e-06	6.4987e-06	883.42	201.82	5.3766e-06	6.4247e-06	432.77	210.44	85.612	40.256	4.5815e-06	102.34	0.00010019	2.9129e-05	8.204e-06	536.28	3.724e-07	2.9649e-07	804	183.48	3.8754e-07	3.3488e-07	393.65	191.99	77.919	36.722	4.0743e-07	93.574	140.230	-13.489	0.565	-83.739	44.293	25.580	-85.084	-78.803	31.645	57.617	-80.426	-76.152	-75.101	-69.403	35.427	-71.549	-8191	255	
9416.092	1	1	0	0	0.1572	0.058373	0.044805	0.077482	0.056384	0.20028	0.20156	0.14716	0.13809	0.15459	0.28214	0.39983	0.14054	0.20938	0.04311	0.1816	-2.0312	-2.3646	-2.7479	-2.5938	-2.325	-2.6771	-2.4562	-2.7687	-2.5875	-2.5292	-2.7667	-2.6208	-2.6521	-2.9104	-2.45	-2.8021	114.543	195.922	187.678	39.342	102.710	101.686	163.188	-88.196	25.266	-93.631	262.426	209.739	241.430	-30.043	248.166	123.970	0.00061308	0.00054458	0.00016147	582.64	5.0514e-06	6.9812e-06	852.27	197.07	5.7531e-06	5.3295e-06	420.33	203.75	84.81	39.728	5.0776e-06	100.94	9.8676e-05	3.0953e-05	8.2331e-06	526.76	3.7614e-07	3.1114e-07	775.13	179.86	3.7297e-07	3.1414e-07	380.61	186.51	77.431	36.441	3.9289e-07	92.356	140.741	-15.168	-11.532	-83.884	53.092	23.323	-84.530	-78.638	18.622	49.877	-79.783	-75.984	-75.133	-69.502	39.453	-71.561	-8191	255	
9416.188	1	1	0	0	0.34196	0.2086	0.095306	0.17017	0.061302	0.13679	0.095969	0.25046	0.16328	0.053377	0.34683	0.38425	0.062013	0.31654	0.19093	0.053161	-2.1979	-2.4146	-2.7271	-2.4667	-2.4604	-2.6188	-2.4562	-2.675	-2.55	-2.4	-3	-2.7042	-2.4458	-2.8542	-2.3375	-2.6667	90.387	208.483	99.941	39.531	-83.477	116.249	157.204	251.837	-28.482	-25.157	238.172	204.837	-65.394	227.397	41.864	-21.058	0.0006054	0.00065801	0.0001865	577.22	4.1353e-06	5.758e-06	854.37	198.44	6.0541e-06	5.8957e-06	423.79	207.11	85.605	40.382	3.6921e-06	102.56	9.6286e-05	2.9741e-05	7.5891e-06	522.83	3.3212e-07	3.0396e-07	775.84	180.71	3.8008e-07	3.5157e-07	385.38	188.52	77.555	36.759	3.7387e-07	93.756	141.487	-26.000	-7.676	-83.964	37.589	34.590	-84.567	-78.623	17.623	56.637	-79.827	-76.004	-75.140	-69.441	5.942	-71.483	-8191	255	
9416.309	1	1	0	0	0.2289	0.059406	0.23515	0.061367	0.30706	0.13556	0.31325	0.05902	0.16637	0.12806	0.39244	0.29134	0.22488	0.27806	0.095803	0.18857	-2	-2.325	-2.5104	-2.6104	-2.3583	-2.6146	-2.6063	-2.5125	-2.6125	-2.3854	-2.6562	-2.7896	-2.5083	-2.8042	-2.4917	-2.6562	-45.165	-38.883	-3.814	142.058	235.353	95.209	217.725	145.480	51.079	-50.603	228.710	234.232	219.444	244.028	235.345	203.501	0.00063605	0.00051111	0.00016133	584.26	5.6632e-06	5.737e-06	869.72	200.51	3.5359e-06	4.9981e-06	432.72	210.4	86.293	40.523	4.7166e-06	104.36	9.904e-05	3.0555e-05	8.2786e-06	528.74	3.5258e-07	3.0468e-07	791.19	182.31	3.6799e-07	3.2143e-07	391.69	191.8	78.321	37.094	3.7959e-07	95.464	140.130	-12.477	-2.975	-84.299	44.412	31.493	-84.860	-78.917	11.830	43.575	-79.826	-76.232	-75.194	-69.441	24.185	-71.579	-8191	255	
9416.403	1	1	0	0	0.23901	0.31129	0.36267	0.27858	0.16069	0.15546	0.16016	0.13075	0.059561	0.1383	0.12651	0.19773	0.18809	0.088455	0.10288	0.15222	-2.225	-2.3312	-2.7333	-2.7479	-2.45	-2.5979	-2.6333	-2.7417	-2.6708	-2.4771	-2.7479	-2.55	-2.3979	-2.8125	-2.3833	-2.6854	29.380	74.951	83.492	230.918	193.422	135.177	125.687	-39.784	55.295	191.805	172.590	234.914	255.941	197.222	37.562	236.169	0.00064817	0.00060756	0.00014639	588.62	4.6069e-06	5.5196e-06	888.66	200.37	3.6443e-06	4.3965e-06	436.07	211.34	86.729	40.518	4.7309e-06	104.27	9.9619e-05	3.0738e-05	8.9989e-06	531.47	3.6457e-07	3.0827e-07	803.94	182.88	3.6671e-07	3.1963e-07	395.73	193.08	78.844	37.105	3.6512e-07	95.216	138.100	-7.252	3.160	-84.031	41.956	36.478	-84.856	-78.705	33.116	56.455	-80.229	-76.157	-75.364	-69.489	10.424	-71.670	-8191	255	
9416.477	1	1	0	0	0.20534	0.099526	0.19851	0.336	0.33161	0.2034	0.34984	0.23715	0.19857	0.15048	0.090553	0.16212	0.092307	0.032544	0.17465	0.39998	-2.4479	-2.5687	-2.5625	-2.7458	-2.5125	-2.6792	-2.5875	-2.6521	-2.6542	-2.5979	-2.8521	-2.7646	-2.4437	-2.8187	-2.55	-2.5938	140.487	190.900	186.093	186.328	-25.980	-26.847	205.760	242.328	42.045	110.431	243.235	224.233	-61.306	212.439	120.246	-94.787	0.0006532	0.00057688	0.00014627	583.1	5.3459e-06	6.2315e-06	854.99	198.58	3.1015e-06	4.9954e-06	421.6	205.97	85.52	40.313	5.4664e-06	102.44	9.9584e-05	3.0405e-05	7.5382e-06	528.4	3.5956e-07	2.9592e-07	778.03	180.35	3.4481e-07	3.2815e-07	382.46	188.39	78.154	36.933	3.9311e-07	93.395	140.093	-21.712	3.317	-84.263	36.016	36.911	-84.891	-78.954	20.558	48.177	-80.385	-76.162	-75.692	-69.436	34.289	-71.423	-8191	255	
9416.573	1	1	0	0	0.20157	0.15479	0.23727	0.25449	0.056966	0.048103	0.15802	0.27431	0.11204	0.17578	0.21112	0.15606	0.17918	0.13005	0.24535	0.14125	-2.1646	-2.4375	-2.5146	-2.6396	-2.3104	-2.9062	-2.7458	-2.425	-2.6458	-2.3896	-2.75	-2.7854	-2.4333	-2.7896	-2.675	-2.6771	138.330	247.512	41.938	-47.876	-20.052	-22.418	-27.185	117.415	210.589	259.110	206.286	188.161	202.842	-79.948	-73.287	157.189	0.00065173	0.00062686	0.00018867	573.2	5.313e-06	6.8857e-06	849.15	198.32	4.826e-06	5.9948e-06	427.18	210.46	87.419	41.239	2.7465e-06	104.36	9.944e-05	3.0125e-05	8.6824e-06	516.27	3.4433e-07	3.2105e-07	769.58	180.42	3.6792e-07	3.3914e-07	387.86	192.67	79.441	37.61	3.6288e-07	95.623	139.322	-9.303	-14.947	-84.090	37.862	35.446	-84.638	-79.044	24.908	35.618	-79.961	-76.299	-75.355	-69.683	41.817	-71.824	-8191	255	
9416.692	1	1	0	0	0.16351	0.16374	0.17044	0.037098	0.2411	0.19179	0.1643	0.1396	0.16798	0.20758	0.15323	0.26793	0.24994	0.21076	0.10406	0.2848	-2.1688	-2.4062	-2.7104	-2.6979	-2.3312	-2.6729	-2.5375	-2.4896	-2.8333	-2.5062	-2.5729	-2.8604	-2.3542	-2.7458	-2.6167	-2.4708	62.566	199.832	204.891	143.282	-6.355	224.615	110.162	192.185	-34.434	231.248	-72.232	170.785	244.149	252.285	31.137	155.457	0.00065301	0.00061212	0.00019511	574.8	5.4338e-06	6.5822e-06	862.9	199.92	5.5022e-06	5.9875e-06	433.87	212.31	87.212	41.029	4.1526e-06	104.92	0.00010331	2.8921e-05	8.8752e-06	521.07	3.384e-07	3.1452e-07	782.77	181.88	3.7297e-07	3.382e-07	391.29	193.6	79.383	37.614	3.8284e-07	95.885	140.964	-19.132	-9.730	-84.336	40.238	33.213	-84.363	-79.218	27.562	43.468	-80.161	-76.192	-75.197	-69.427	29.375	-71.758	-8191	255	
9416.788	1	1	0	0	0.046348	0.1693	0.19681	0.23977	0.13605	0.14781	0.38196	0.28179	0.12558	0.16454	0.069807	0.34006	0.12884	0.12489	0.26373	0.065552	-2.1833	-2.5125	-2.3458	-2.7458	-2.3479	-2.5771	-2.7375	-2.4771	-2.6063	-2.3958	-2.7542	-2.9104	-2.4771	-2.6917	-2.6333	-2.6688	48.746	260.273	-55.798	248.783	179.100	21.084	201.132	212.971	-5.007	7.495	39.494	203.476	126.196	-59.402	-4.787	157.972	0.00064182	0.000613	0.00017224	577.59	3.9385e-06	5.8307e-06	865.12	199.09	4.2829e-06	5.5359e-06	434.95	212.01	86.687	41.292	4.5302e-06	105	0.00010151	3.1402e-05	8.8825e-06	521.88	3.511e-07	3.403e-07	782.95	181.43	3.6778e-07	3.2859e-07	390.83	193.32	79.066	37.677	4.0381e-07	96.018	141.819	-17.438	2.754	-84.224	57.112	37.149	-84.810	-78.653	22.673	58.379	-80.262	-76.125	-75.775	-69.624	17.954	-71.473	-8191	255	
9416.884	1	1	0	0	0.061256	0.16784	0.12805	0.42996	0.071299	0.10813	0.13213	0.098225	0.18291	0.20533	0.18258	0.092017	0.086198	0.1812	0.11541	0.23951	-2.2417	-2.5042	-2.3729	-2.675	-2.5417	-2.425	-2.7896	-2.4646	-2.4979	-2.6042	-2.5354	-2.7625	-2.2625	-2.5354	-2.6042	-2.5542	-17.119	76.664	1.536	-82.163	238.176	119.397	171.186	-95.728	169.725	181.108	259.995	-30.937	259.563	197.050	15.111	218.273	0.00065046	0.00056767	0.00018428	573.39	6.8556e-06	5.7213e-06	842.9	197.31	4.8934e-06	4.6876e-06	422.58	208.59	86.489	40.471	5.118e-06	102.41	9.7732e-05	3.0288e-05	8.7442e-06	517.46	3.7861e-07	3.2601e-07	767.79	179.07	3.7887e-07	3.2274e-07	382.67	190.18	78.714	37.188	3.772e-07	93.486	141.201	-10.971	-10.810	-84.249	43.865	47.139	-84.518	-78.979	15.707	33.802	-80.089	-76.145	-75.421	-69.590	28.679	-71.684	-8191	255	
9416.980	1	1	0	0	0.16842	0.23715	0.071302	0.22327	0.10686	0.013993	0.28978	0.074042	0.062328	0.050592	0.20437	0.18231	0.15878	0.18607	0.016317	0.31799	-2.2062	-2.3396	-2.4146	-2.6958	-2.5271	-2.5229	-2.8375	-2.35	-2.6604	-2.6125	-2.6646	-2.9104	-2.4188	-2.5771	-2.8	-2.6146	-13.301	1.149	-39.255	152.834	-36.724	136.246	174.506	201.297	165.817	-75.871	257.785	250.791	258.331	-95.778	18.911	233.016	0.0006318	0.0005937	0.00015333	565.11	4.3891e-06	4.9717e-06	826.67	196.47	4.7253e-06	4.6906e-06	421.38	209.01	87.058	41.169	5.5255e-06	102.98	0.00010153	3.2209e-05	8.435e-06	510.13	3.4228e-07	2.985e-07	753.95	178.57	3.7197e-07	2.8248e-07	381.39	190.3	79.068	37.491	3.6245e-07	94.248	141.216	-20.770	-3.300	-84.073	34.966	53.002	-84.587	-78.991	24.642	44.236	-80.082	-76.326	-75.755	-69.330	28.578	-71.862	-8191	255	
9417.076	1	1	0	0	0.11892	0.18917	0.2783	0.16759	0.17887	0.21459	0.27684	0.13095	0.094345	0.24432	0.23099	0.27095	0.20311	0.13319	0.050934	0.20623	-2.125	-2.4938	-2.3604	-2.7938	-2.5271	-2.4667	-2.8521	-2.5229	-2.5375	-2.6833	-2.5938	-2.8458	-2.5792	-2.6146	-2.8833	-2.8479	135.944	158.891	228.616	91.365	184.095	215.438	-61.785	153.666	59.601	104.803	159.342	-38.881	246.626	243.004	127.838	144.211	0.00064178	0.00056461	0.00014549	566.31	4.228e-06	4.6211e-06	837.93	196.14	5.2936e-06	4.1837e-06	423.83	209.71	87.021	41.06	4.2435e-06	103.87	0.00010258	3.1897e-05	8.5114e-06	510.97	3.6556e-07	3.2306e-07	760.37	178.44	3.8193e-07	2.8769e-07	383.53	191.46	79.14	37.441	3.5739e-07	94.796	142.242	-15.239	9.461	-84.180	35.112	28.911	-84.840	-78.922	17.139	28.737	-79.940	-76.299	-75.290	-69.772	25.090	-71.708	-8191	255	
9417.173	1	1	0	0	0.36314	0.22659	0.073757	0.15857	0.25386	0.23657	0.072739	0.21854	0.38242	0.086118	0.17022	0.18257	0.1785	0.10433	0.21012	0.15525	-2.1958	-2.7125	-2.35	-2.5646	-2.5479	-2.4562	-2.8104	-2.5521	-2.3688	-2.5917	-2.3312	-2.7938	-2.7104	-2.4521	-2.9292	-2.7354	-82.976	141.028	28.698	209.591	-4.053	109.285	-37.178	-93.093	227.721	82.766	220.571	212.813	82.245	10.197	95.988	202.114	0.0006678	0.0006565	0.00018073	565.66	5.9529e-06	7.1952e-06	843.29	196.14	5.3883e-06	6.0424e-06	425.44	211.2	87.256	41.023	4.9422e-06	104.73	0.00010021	3.1226e-05	8.4477e-06	510.39	3.5406e-07	3.3039e-07	764.69	178.33	3.9174e-07	3.171e-07	386.29	192.8	79.188	37.635	3.8096e-07	95.792	138.836	-23.500	5.042	-84.319	45.326	40.132	-84.894	-79.149	36.295	61.672	-80.103	-76.036	-75.376	-69.613	37.517	-71.824	-8191	255	
9417.293	1	1	0	0	0.175	0.17684	0.26345	0.28538	0.081569	0.12883	0.14957	0.18906	0.20393	0.28279	0.22219	0.29959	0.099501	0.11085	0.11606	0.18714	-1.9208	-2.6646	-2.4062	-2.7313	-2.8479	-2.3438	-2.85	-2.6604	-2.2896	-2.7271	-2.7396	-2.5417	-2.4437	-2.4229	-2.7396	-2.6479	-40.626	219.418	8.861	241.384	210.309	259.350	110.646	141.013	256.047	84.374	198.011	-56.368	-15.195	201.939	-1.300	249.896	0.00066634	0.00057679	0.00018343	565.07	5.6587e-06	6.2987e-06	833.63	195.17	4.406e-06	4.5465e-06	419.32	208.27	86.531	41.054	4.6602e-06	103.15	0.00010206	2.9819e-05	8.4314e-06	510.02	3.3283e-07	3.365e-07	758.27	177.39	3.7809e-07	2.9058e-07	380.29	190.04	78.632	37.54	3.6317e-07	94.226	142.288	-15.559	0.253	-83.592	41.685	31.333	-84.676	-78.659	38.665	33.912	-80.128	-76.289	-75.438	-69.711	28.279	-71.826	-8191	255	
9417.389	1	1	0	0	0.35328	0.088156	0.1832	0.13706	0.19839	0.14832	0.25594	0.18985	0.068782	0.20899	0.081594	0.10345	0.14761	0.15371	0.040882	0.078609	-1.8687	-2.6	-2.4396	-2.5354	-2.4646	-2.2938	-2.7938	-2.7583	-2.2104	-2.75	-2.6771	-2.5771	-2.6688	-2.4542	-2.5625	-2.7042	108.631	198.554	201.325	38.223	141.786	175.817	193.338	228.388	232.864	219.475	-27.688	-96.687	230.686	154.903	96.954	199.274	0.00062408	0.00057483	0.00017863	560.23	4.2408e-06	5.2779e-06	825.39	195.48	4.8765e-06	5.5375e-06	418.87	208.87	86.95	41.026	3.1357e-06	104.05	0.00010015	3.0021e-05	9.2427e-06	505.37	3.4574e-07	3.1753e-07	750.13	177.47	4.1022e-07	3.2035e-07	381.22	190.81	79.176	37.549	3.8465e-07	94.85	140.632	-19.268	5.659	-84.093	40.871	39.495	-84.587	-78.791	15.179	37.296	-80.042	-76.220	-75.606	-69.304	22.526	-71.932	-8191	255	
9417.484	1	1	0	0	0.22628	0.20787	0.17143	0.105	0.15034	0.081758	0.16623	0.12104	0.13795	0.096749	0.25869	0.36713	0.19056	0.40832	0.081179	0.094165	-1.9438	-2.6729	-2.4375	-2.675	-2.775	-2.5292	-2.6292	-2.6167	-2.4	-2.6271	-2.6146	-2.4917	-2.7917	-2.3688	-2.5271	-2.7125	85.625	2.414	143.877	220.373	-88.455	-2.277	223.948	199.966	224.674	-34.752	188.696	242.623	258.936	241.502	154.147	170.900	0.00064779	0.0004679	0.00018563	566.03	5.3679e-06	6.0922e-06	840.92	198.25	5.2658e-06	4.8217e-06	427.75	211.47	87.532	41.289	4.914e-06	105.04	0.00010115	2.8979e-05	8.4914e-06	510.32	3.3523e-07	3.2005e-07	765.23	179.8	4.0169e-07	3.1522e-07	388.18	193.19	79.698	37.748	3.6187e-07	95.82	141.528	-26.987	4.167	-84.173	38.038	40.111	-84.786	-78.580	32.002	54.660	-79.774	-76.106	-75.856	-69.614	27.015	-71.584	-8191	255	
9417.582	1	1	0	0	0.29978	0.080106	0.30381	0.19881	0.20237	0.33044	0.2166	0.26127	0.18532	0.065602	0.19454	0.34121	0.20232	0.074416	0.27213	0.32731	-1.9	-2.6208	-2.3958	-2.4583	-2.7833	-2.5104	-2.7687	-2.5938	-2.4542	-2.4625	-2.6	-2.4813	-2.5812	-2.5271	-2.4896	-2.7646	-69.015	137.947	78.270	250.084	47.881	-23.942	193.629	167.159	136.791	-11.419	200.389	200.724	232.457	212.775	240.701	205.184	0.00064548	0.00067373	0.00020815	568.29	5.9415e-06	7.7267e-06	851.74	198.05	4.8839e-06	4.0574e-06	425.51	211.71	86.891	41.084	4.3704e-06	104.64	9.9607e-05	3.1109e-05	8.6733e-06	514.99	3.4792e-07	3.5057e-07	773.73	180.22	3.9287e-07	2.9116e-07	387.46	192.56	79.272	37.526	3.9868e-07	95.511	141.168	-4.616	-5.133	-84.463	37.350	40.100	-84.631	-78.627	21.877	50.470	-80.119	-76.338	-75.902	-69.536	27.630	-71.808	-8191	255	
9417.700	1	1	0	0	0.42422	0.1195	0.17313	0.022676	0.20042	0.094831	0.1541	0.060728	0.10812	0.15102	0.21516	0.21442	0.073506	0.16207	0.15326	0.27876	-1.9771	-2.6688	-2.6	-2.3729	-2.7896	-2.5271	-2.6521	-2.7646	-2.4708	-2.6896	-2.6667	-2.7	-2.7188	-2.5583	-2.5042	-2.9417	215.998	122.261	-48.612	106.068	239.883	-14.821	166.131	167.493	-21.308	-19.726	178.081	-44.680	-40.106	233.093	39.255	196.469	0.00064888	0.00042132	0.00017891	570.96	6.1338e-06	4.2787e-06	839.53	197.48	5.4114e-06	3.9742e-06	422.29	210.32	87.021	41.482	6.1984e-06	103.92	0.00010396	3.1024e-05	8.9389e-06	515.18	3.5808e-07	3.1387e-07	766.39	179.64	4.0937e-07	3.1674e-07	383.57	192.36	79.423	37.814	3.9781e-07	95.238	140.527	-21.930	4.962	-84.113	45.274	37.388	-84.780	-78.826	18.430	58.350	-80.185	-76.165	-75.693	-69.686	38.468	-71.859	-8191	255	
9417.772	1	1	0	0	0.30798	0.10955	0.44338	0.10264	0.29696	0.14114	0.30812	0.089063	0.22625	0.13313	0.10713	0.39186	0.16143	0.070688	0.1372	0.50337	-2.0438	-2.5208	-2.5542	-2.4521	-2.775	-2.4583	-2.5271	-2.725	-2.3375	-2.4917	-2.7708	-2.625	-2.7125	-2.6854	-2.5146	-2.8146	71.267	91.716	223.802	256.543	-28.434	145.276	193.853	188.185	-5.688	45.435	-96.842	240.154	59.323	-8.789	231.739	188.834	0.00067493	0.00070842	0.00017283	557.75	5.993e-06	5.9175e-06	821.42	194.73	4.9063e-06	4.252e-06	417.81	209.82	87.026	41.15	4.4812e-06	103.08	0.00010208	3.021e-05	7.9839e-06	503.61	3.6457e-07	3.3025e-07	748.07	177.37	3.8015e-07	3.1977e-07	380.43	190.74	79.013	37.566	3.8436e-07	94.234	140.597	-14.454	-4.187	-83.905	51.295	29.905	-84.640	-78.912	25.246	38.613	-79.873	-76.107	-75.359	-69.566	28.386	-71.695	-8191	255	
9417.868	1	1	0	0	0.1165	0.1399	0.20906	0.12499	0.17146	0.020807	0.15749	0.28032	0.19582	0.08276	0.26031	0.16441	0.17393	0.28831	0.16012	0.17608	-2.0208	-2.6854	-2.5312	-2.3458	-2.525	-2.5687	-2.5938	-2.9396	-2.4167	-2.5396	-2.7875	-2.5542	-2.8292	-2.7208	-2.4646	-2.8667	97.945	-6.212	88.716	180.641	248.463	236.236	4.194	255.665	41.496	180.858	217.876	167.905	-80.783	262.156	230.855	128.477	0.0006007	0.00066383	0.00016659	565.94	5.2472e-06	6.0106e-06	828.36	194.73	4.5769e-06	6.1586e-06	412.74	204.21	85.327	40.293	5.5531e-06	102.18	0.00010078	3.443e-05	8.1421e-06	511.43	3.5216e-07	3.115e-07	751.61	176.75	3.7958e-07	3.4037e-07	374.72	186.07	77.446	36.851	4.0121e-07	93.005	141.128	-13.765	9.016	-83.764	43.443	36.628	-84.667	-78.703	18.426	48.253	-80.021	-76.237	-75.815	-69.737	15.159	-71.586	-8191	255	
9417.964	1	1	0	0	0.17679	0.25852	0.21147	0.055538	0.1028	0.098529	0.29406	0.043262	0.11978	0.086488	0.22806	0.14798	0.19938	0.1634	0.08415	0.33289	-1.9521	-2.5521	-2.6937	-2.4375	-2.7792	-2.5042	-2.5187	-2.7146	-2.5958	-2.4646	-2.8646	-2.575	-2.4458	-2.6708	-2.3187	-2.8333	111.185	142.022	164.971	249.540	150.639	-3.350	170.553	-39.722	201.338	230.368	220.952	259.681	-8.020	213.548	70.910	201.224	0.00064417	0.00058916	0.00018389	560.14	6.4722e-06	4.7147e-06	829.68	194.46	4.6634e-06	5.5734e-06	415.5	206.13	85.204	40.316	3.987e-06	102.74	9.9793e-05	3.2222e-05	7.8802e-06	509.07	3.5879e-07	3.1085e-07	751.4	176.55	3.6102e-07	3.5265e-07	376.98	188.06	77.668	36.931	3.934e-07	93.858	141.745	-19.980	-11.242	-84.183	34.105	31.591	-84.860	-78.778	27.161	59.409	-80.025	-76.384	-75.783	-69.558	19.390	-72.059	-8191	255	
9418.085	1	1	0	0	0.055843	0.30616	0.12005	0.16088	0.091954	0.061197	0.14858	0.38402	0.037489	0.17118	0.12752	0.13703	0.21249	0.19918	0.1724	0.22814	-2.025	-2.5146	-2.6458	-2.3063	-2.5208	-2.65	-2.325	-2.8729	-2.5646	-2.4667	-2.7458	-2.4958	-2.5604	-2.95	-2.3146	-2.8479	228.015	60.008	218.665	186.457	246.263	90.057	166.918	-68.575	119.825	175.496	32.096	116.378	-19.677	151.258	66.439	145.936	0.00063014	0.00067874	0.00019645	563.19	5.1321e-06	6.6471e-06	833.33	195.09	5.1545e-06	5.6994e-06	415.46	206.46	85.429	40.433	4.116e-06	101.78	9.8801e-05	3.1141e-05	8.3313e-06	509.75	3.4997e-07	3.0252e-07	756.72	177.37	3.8747e-07	3.2555e-07	377.27	188.17	77.708	37.003	3.8443e-07	93.153	139.683	-8.663	3.083	-84.040	43.887	42.110	-84.342	-78.910	17.532	41.972	-79.649	-76.130	-75.660	-69.688	22.597	-71.883	-8191	255	
9418.181	1	1	0	0	0.097278	0.27355	0.24701	0.12666	0.11613	0.14222	0.3628	0.1965	0.14718	0.15484	0.27945	0.47147	0.2653	0.17139	0.044053	0.25598	-2.2083	-2.3146	-2.6396	-2.4313	-2.7917	-2.7125	-2.5563	-2.6604	-2.6333	-2.4667	-2.7313	-2.5438	-2.4313	-2.7604	-2.4646	-2.9396	9.029	153.598	185.766	188.918	223.488	-7.569	249.783	262.843	-34.897	-42.784	197.295	-94.632	246.628	45.507	195.253	-57.320	0.00060739	0.00056022	0.00016305	558.89	5.4369e-06	5.4248e-06	818.8	194.22	4.519e-06	4.36e-06	415.17	206.46	85.912	40.673	4.4506e-06	102.63	9.8371e-05	3.1408e-05	7.9148e-06	503.67	3.5216e-07	3.0123e-07	740.78	176.27	3.4616e-07	3.0041e-07	375.59	188.01	78.37	37.235	3.8819e-07	93.791	138.935	-11.777	3.370	-84.163	38.965	42.875	-84.311	-78.443	33.930	35.172	-79.957	-76.188	-75.723	-69.766	16.356	-71.695	-8191	255	
9418.277	1	1	0	0	0.07041	0.21625	0.10217	0.2589	0.10037	0.058435	0.13063	0.22665	0.33112	0.21393	0.18391	0.16992	0.21795	0.09781	0.22161	0.27556	-2.0417	-2.1896	-2.5417	-2.4083	-2.6354	-2.6333	-2.3958	-2.5563	-2.5938	-2.3208	-2.6854	-2.7854	-2.4104	-2.7	-2.4313	-2.7021	206.294	106.064	135.361	126.030	106.668	241.362	-6.641	36.221	-47.685	190.214	194.707	-84.191	38.560	218.920	122.219	217.851	0.00065634	0.00061862	0.0001728	561.57	6.1381e-06	7.6209e-06	826.03	196.5	5.272e-06	4.355e-06	416.82	207.41	86.977	40.925	3.3258e-06	103.02	0.00010101	3.0301e-05	8.1494e-06	506	3.4355e-07	3.1789e-07	749.52	178.09	3.6152e-07	3.4138e-07	379.35	189.49	78.755	37.326	3.7626e-07	94.316	142.000	-16.397	4.192	-84.052	32.346	47.836	-84.606	-78.753	3.352	47.122	-80.165	-76.127	-75.599	-69.827	25.441	-71.651	-8191	255	
9418.374	1	1	0	0	0.14418	0.03864	0.18249	0.056431	0.27761	0.20229	0.085345	0.16001	0.29509	0.11491	0.14057	0.09394	0.21225	0.37278	0.10497	0.13028	-2.2729	-2.2625	-2.5875	-2.55	-2.2667	-2.7313	-2.375	-2.6354	-2.6708	-2.3646	-2.6833	-2.775	-2.4396	-2.6562	-2.5312	-2.65	140.995	114.542	-71.945	203.217	211.905	191.496	61.337	-70.944	58.377	101.036	-85.164	-49.423	-59.940	-95.455	-48.218	263.137	0.00063569	0.00064686	0.00014888	563.34	5.253e-06	5.5969e-06	834.71	196.33	5.175e-06	4.9361e-06	419.59	208.42	85.947	40.777	5.0439e-06	103.78	9.8198e-05	3.0412e-05	8.304e-06	508.68	3.6359e-07	2.9915e-07	755.24	177.8	3.6948e-07	2.973e-07	380.99	190.14	78.488	37.272	3.704e-07	94.83	141.042	-30.918	7.264	-84.225	23.843	16.902	-84.828	-78.680	9.315	51.834	-79.820	-76.314	-75.149	-69.555	21.740	-71.889	-8191	255	
9418.470	1	1	0	0	0.23567	0.15094	0.32572	0.051853	0.15345	0.29556	0.021282	0.15974	0.14268	0.18808	0.067535	0.15795	0.29489	0.19969	0.14766	0.18206	-2.2604	-2.3417	-2.4833	-2.5458	-2.2667	-2.5979	-2.6188	-2.3958	-2.6604	-2.4021	-2.8271	-2.4458	-2.2896	-2.8271	-2.4188	-2.5396	77.154	91.428	72.655	149.928	176.170	51.927	205.083	230.661	242.096	253.346	147.369	240.274	-76.554	-49.142	-13.552	197.638	0.00064155	0.00052306	0.0002012	567.21	5.2937e-06	6.1324e-06	842.15	195.5	4.339e-06	4.4993e-06	420.1	207.61	85.707	40.274	5.7078e-06	102.43	9.7493e-05	3.1109e-05	8.2658e-06	509.59	3.2606e-07	2.9311e-07	761.74	178.18	3.7005e-07	3.0554e-07	380.73	189.36	78.208	36.992	3.861e-07	93.534	141.869	-13.923	-7.957	-84.119	39.048	37.895	-84.554	-78.756	33.394	45.749	-79.998	-76.030	-75.784	-69.695	25.899	-71.844	-8191	255	
9418.564	1	1	0	0	0.15244	0.11522	0.045497	0.077714	0.31171	0.27333	0.2675	0.14766	0.075885	0.1451	0.41173	0.29032	0.21721	0.23816	0.14014	0.1993	-2.2687	-2.2708	-2.5208	-2.6875	-2.3833	-2.5812	-2.5854	-2.6083	-2.6146	-2.4792	-2.6604	-2.7896	-2.2875	-2.5979	-2.5167	-2.5646	-32.890	248.365	48.176	233.898	-22.057	214.375	216.246	175.766	-34.190	234.534	-87.501	-84.118	258.665	223.910	-91.199	-72.201	0.0006234	0.00061544	0.00020302	556.23	6.2765e-06	5.178e-06	807.81	192.34	3.6667e-06	3.9146e-06	404.98	201.32	85.034	39.909	5.5025e-06	100.13	9.5485e-05	2.9064e-05	7.9238e-06	502.49	3.3339e-07	2.8148e-07	733.83	174.63	3.5192e-07	2.8545e-07	368.34	184.04	76.994	36.52	3.6093e-07	91.366	142.611	-22.187	-1.074	-84.240	44.745	22.644	-84.810	-78.677	21.403	47.257	-79.949	-76.230	-75.618	-69.581	15.789	-72.073	-8191	255	
9418.662	1	1	0	0	0.12195	0.27526	0.078117	0.13265	0.20445	0.36312	0.40799	0.16576	0.13143	0.19456	0.11038	0.1329	0.20899	0.20711	0.10488	0.10371	-2.3292	-2.3396	-2.4042	-2.675	-2.2917	-2.6333	-2.6396	-2.3417	-2.5917	-2.3583	-2.7729	-2.8417	-2.4792	-2.6125	-2.4417	-2.6667	-93.468	-59.638	45.054	145.311	208.381	85.098	185.635	235.380	147.143	152.008	248.776	239.494	-92.394	261.079	34.918	-18.322	0.00060416	0.00055617	0.00014978	557.82	3.914e-06	7.3601e-06	804.04	191.82	5.0386e-06	4.9176e-06	408.12	201.69	84.074	39.787	4.2025e-06	99.804	9.754e-05	2.879e-05	7.862e-06	502.62	3.0666e-07	2.9584e-07	734.81	174.37	3.3856e-07	2.8494e-07	368.55	183.58	76.522	36.404	3.516e-07	91.516	140.274	-22.680	-8.157	-84.139	38.174	34.317	-84.501	-78.885	19.239	44.645	-80.120	-76.239	-75.292	-69.588	6.179	-71.672	-8191	255	
9418.781	1	1	0	0	0.19129	0.22454	0.013846	0.087039	0.15845	0.09763	0.17921	0.32763	0.011864	0.38763	0.28426	0.14471	0.34633	0.074888	0.051031	0.2393	-2.3521	-2.3	-2.4562	-2.6646	-2.5542	-2.6229	-2.5479	-2.4333	-2.9271	-2.3167	-2.5146	-2.6667	-2.3292	-2.6562	-2.5708	-2.375	15.158	-50.574	188.006	84.931	141.402	-35.858	209.851	191.859	-77.120	38.112	-71.316	196.327	-36.284	161.795	29.427	200.346	0.00059004	0.0005126	0.00018006	560.57	5.8749e-06	7.6458e-06	806.88	190.38	4.8086e-06	4.9382e-06	404.8	200.01	82.842	39.477	4.5859e-06	99.295	9.6937e-05	2.713e-05	7.6364e-06	504.58	3.3325e-07	2.9326e-07	736.67	173.7	3.3323e-07	2.9137e-07	366.59	182.62	75.866	36.096	3.6925e-07	90.828	139.539	-26.476	3.986	-84.006	45.169	41.732	-84.956	-78.618	29.695	43.277	-79.936	-76.007	-75.523	-69.258	37.995	-71.477	-8191	255	
9418.877	1	1	0	0	0.096381	0.19439	0.038627	0.2382	0.077388	0.070243	0.30382	0.51114	0.19729	0.27819	0.22705	0.24013	0.21273	0.14501	0.38839	0.44518	-2.2271	-2.5021	-2.4104	-2.8125	-2.4813	-2.6542	-2.6562	-2.5438	-2.3979	-2.4854	-2.6813	-2.6583	-2.3479	-2.5292	-2.6104	-2.5604	9.181	75.011	210.406	122.916	211.633	-73.776	198.187	169.902	-88.295	92.646	199.851	-80.247	162.090	190.450	45.762	229.820	0.00061195	0.00064904	0.00018798	561.85	3.3877e-06	9.9229e-06	814.74	189.61	4.0359e-06	4.2127e-06	404.61	197.77	82.126	38.862	3.766e-06	97.652	9.7278e-05	2.7195e-05	7.7565e-06	505.47	3.092e-07	3.1753e-07	737	172.51	3.4339e-07	2.8689e-07	364.78	180.32	74.938	35.591	3.2824e-07	89.342	141.215	-11.702	7.823	-84.112	34.034	41.812	-84.853	-78.668	21.104	48.161	-80.344	-76.265	-75.325	-69.772	23.716	-71.659	-8191	255	
9418.973	1	1	0	0	0.27713	0.16967	0.18912	0.064773	0.17114	0.18881	0.16428	0.10312	0.28373	0.18292	0.16608	0.34962	0.18932	0.31624	0.15594	0.23877	-2.175	-2.425	-2.2812	-2.725	-2.4083	-2.5187	-2.5438	-2.4396	-2.6042	-2.45	-2.4229	-2.8271	-2.4354	-2.6417	-2.5542	-2.5896	-78.072	57.581	158.111	249.530	134.793	41.389	123.486	121.068	160.499	134.404	-87.613	223.300	-26.563	210.009	207.995	260.810	0.00061029	0.0005409	0.00021444	548.86	3.9745e-06	6.1189e-06	782.24	184.77	4.8194e-06	4.3306e-06	384.56	190.24	79.274	38.136	3.842e-06	95.009	9.4876e-05	2.6622e-05	8.0294e-06	496.7	3.0567e-07	2.9038e-07	710.06	167.94	3.3244e-07	2.8443e-07	349.28	173.44	72.456	34.766	3.0626e-07	86.49	141.532	-29.333	-8.771	-83.904	26.525	33.052	-84.550	-78.806	18.976	35.186	-80.190	-75.902	-75.438	-69.485	21.002	-71.725	-8191	255	
9419.069	1	1	0	0	0.098145	0.049066	0.047636	0.14536	0.1461	0.2257	0.10339	0.079167	0.095863	0.14749	0.13757	0.03116	0.13635	0.33137	0.12849	0.20176	-2.0646	-2.3604	-2.1437	-2.6583	-2.4021	-2.3688	-2.6875	-2.2167	-2.6771	-2.7604	-2.5312	-2.6958	-2.3688	-2.575	-2.5625	-2.5271	-95.020	255.828	76.653	66.610	204.104	251.253	1.187	-78.193	81.771	77.048	255.907	21.728	-58.687	252.578	231.809	112.918	0.00057219	0.00051048	0.00016276	541.3	4.6738e-06	7.0058e-06	774.39	183.44	2.5645e-06	5.809e-06	385.22	189.35	79.425	37.863	3.7707e-06	94.562	9.0736e-05	2.7749e-05	7.0525e-06	491.25	3.0729e-07	2.7545e-07	702.23	166.48	3.1339e-07	2.8292e-07	347.57	172.51	72.181	34.64	3.1985e-07	86.624	141.334	-28.765	-10.923	-84.280	32.087	49.637	-84.642	-78.974	36.859	52.927	-79.898	-76.157	-75.400	-69.560	19.612	-71.933	-8191	255	
9419.165	1	1	0	0	0.10265	0.22226	0.1999	0.22592	0.27658	0.2867	0.14274	0.13297	0.3029	0.075716	0.27284	0.17414	0.21802	0.14387	0.30206	0.19809	-2.2292	-2.5917	-2.2438	-2.7562	-2.2771	-2.4625	-2.7792	-2.4854	-2.5292	-2.5625	-2.3896	-2.5438	-2.5229	-2.2583	-2.5271	-2.5729	226.131	262.494	3.168	159.002	59.033	28.248	65.362	140.024	136.960	108.599	184.321	262.217	238.493	260.983	-68.611	211.007	0.00053794	0.00055334	0.00013825	546.18	4.6678e-06	6.2846e-06	775.06	182.59	4.3647e-06	4.1052e-06	382.41	188.14	78.318	37.513	5.0757e-06	94.404	9.1573e-05	2.4408e-05	7.1871e-06	492.14	3.068e-07	2.9017e-07	704.48	165.87	3.4318e-07	2.5351e-07	346.48	171.9	71.596	34.363	3.414e-07	86.283	142.088	-24.003	6.048	-83.820	31.752	42.735	-84.722	-78.963	21.657	37.583	-80.326	-75.920	-75.131	-69.652	23.562	-71.714	-8191	255	
9419.262	1	1	0	0	0.072285	0.21096	0.077783	0.15089	0.20733	0.020323	0.23205	0.014425	0.030288	0.1175	0.14818	0.26596	0.15507	0.34442	0.092144	0.24368	-1.9833	-2.5646	-2.3187	-2.5812	-2.4313	-2.2854	-2.7812	-2.5021	-2.3854	-2.6833	-2.4	-2.7125	-2.4292	-2.4188	-2.75	-2.5604	-57.287	230.977	-51.485	217.159	50.158	122.402	209.085	140.769	210.993	46.596	178.474	-83.524	45.874	212.713	205.530	139.021	0.00060185	0.00060992	0.00014808	545.51	4.9763e-06	4.1045e-06	781.6	181.58	4.4771e-06	3.8389e-06	382.15	186.94	78.389	37.547	3.5442e-06	93.189	9.1656e-05	2.6166e-05	7.4272e-06	494.58	3.032e-07	2.5569e-07	707.81	165.42	3.3564e-07	2.6492e-07	345.67	170.6	71.167	34.142	3.3005e-07	85.576	141.310	-26.833	2.891	-84.020	31.761	34.369	-84.640	-78.841	17.809	44.440	-80.289	-76.157	-75.064	-69.752	11.770	-71.621	-8191	255	
9419.382	1	1	0	0	0.21705	0.20993	0.07538	0.043168	0.098938	0.11365	0.30683	0.098374	0.28066	0.06516	0.18262	0.32555	0.20254	0.025454	0.051053	0.32046	-1.925	-2.7125	-2.4208	-2.6604	-2.425	-2.125	-2.7458	-2.5187	-2.1458	-2.5708	-2.4729	-2.575	-2.6271	-2.3958	-2.6021	-2.3708	184.121	87.783	202.395	159.301	8.625	-0.136	199.461	-89.634	109.884	251.374	213.223	157.593	194.063	115.579	89.730	214.876	0.00057005	0.00057641	0.00015688	539.37	5.9126e-06	6.3346e-06	766.62	180.77	3.8392e-06	4.5442e-06	376.63	186.53	78.797	37.504	4.5708e-06	94.191	8.9219e-05	2.6381e-05	7.9802e-06	490.84	3.0017e-07	2.9922e-07	697.63	164.66	3.3159e-07	2.6536e-07	342.22	170.46	71.629	34.298	3.3649e-07	85.982	140.067	-13.379	0.185	-84.230	38.661	34.942	-84.647	-78.769	31.116	50.862	-80.029	-75.989	-75.037	-69.610	30.495	-71.601	-8191	255	
9419.477	1	1	0	0	0.2314	0.1778	0.13506	0.19106	0.13006	0.36198	0.19206	0.10679	0.27739	0.19689	0.52115	0.20897	0.338	0.12687	0.12024	0.22567	-1.9167	-2.7021	-2.2979	-2.6125	-2.6604	-2.3542	-2.7875	-2.5583	-2.4292	-2.7708	-2.3833	-2.5396	-2.7417	-2.4458	-2.6229	-2.5083	231.510	-8.065	260.332	-59.748	195.428	247.981	179.641	232.561	59.359	178.895	245.081	154.988	231.388	88.416	91.586	217.196	0.00056953	0.00054057	0.00017208	541.51	4.9455e-06	4.6561e-06	780.31	184.52	4.255e-06	4.6586e-06	392.85	193.74	81.444	38.579	3.5569e-06	96.849	9.2654e-05	2.7273e-05	7.7128e-06	490.93	3.0045e-07	2.7853e-07	706.78	167.83	3.291e-07	2.6702e-07	354.42	176.89	74.089	35.288	3.2954e-07	88.684	143.393	-12.388	-10.201	-84.287	47.512	25.910	-84.876	-78.545	14.077	57.290	-80.307	-76.218	-75.533	-69.708	23.392	-71.708	-8191	255	
9419.573	1	1	0	0	0.028127	0.27977	0.29352	0.073598	0.16181	0.40084	0.26075	0.11067	0.073921	0.17382	0.10701	0.27121	0.23249	0.17374	0.11653	0.28003	-1.8312	-2.5125	-2.4042	-2.5792	-2.5833	-2.2875	-2.6604	-2.5187	-2.2	-2.5479	-2.5417	-2.5667	-2.6375	-2.3438	-2.5312	-2.6417	209.769	-3.067	107.458	-43.047	141.159	102.400	184.515	158.874	24.273	-74.606	143.321	251.741	245.116	199.907	180.714	137.428	0.00060036	0.00072023	0.00014751	546.86	4.9771e-06	5.4038e-06	799.07	188.17	4.3148e-06	4.4138e-06	396.42	196.11	81.791	38.918	3.8359e-06	97.625	9.4344e-05	2.7631e-05	7.0325e-06	495.16	2.9805e-07	2.8385e-07	722.99	170.49	3.4076e-07	2.8089e-07	360.72	179.05	74.25	35.507	3.2564e-07	89.298	139.955	-24.563	-5.510	-84.237	49.524	37.360	-84.526	-78.822	25.910	43.642	-79.911	-76.192	-75.566	-69.830	24.741	-71.653	-8191	255	
9419.644	1	1	0	0	0.058285	0.12168	0.1774	0.10351	0.27973	0.16832	0.070891	0.14526	0.051574	0.093397	0.44348	0.25754	0.17038	0.19845	0.059628	0.37061	-1.875	-2.6229	-2.4521	-2.5208	-2.6	-2.4125	-2.5	-2.8021	-2.3521	-2.5542	-2.3896	-2.5	-2.6125	-2.5042	-2.3979	-2.7792	-86.950	59.751	221.490	215.152	144.171	124.364	7.317	183.286	124.690	78.395	252.583	234.904	-46.272	194.221	-24.523	218.101	0.00060441	0.00058323	0.0002177	557.28	4.7016e-06	6.3572e-06	805.54	187.55	4.7964e-06	5.8535e-06	400.98	197.46	81.728	38.93	5.2952e-06	98.968	9.1513e-05	2.7586e-05	8.4568e-06	499.37	3.3191e-07	2.8751e-07	732.41	171.03	3.5697e-07	2.801e-07	364.01	180.33	74.658	35.554	3.3598e-07	90.412	141.849	-20.361	4.220	-83.669	40.017	39.877	-84.479	-78.877	15.748	50.931	-80.044	-76.174	-75.169	-69.241	24.887	-71.454	-8191	255	
9419.765	1	1	0	0	0.30197	0.12377	0.098713	0.2605	0.22856	0.071283	0.32525	0.20373	0.018055	0.114	0.27233	0.34518	0.041201	0.2107	0.27906	0.43367	-1.8417	-2.45	-2.3917	-2.4146	-2.5521	-2.3479	-2.5625	-2.725	-2.2729	-2.6688	-2.6167	-2.2958	-2.4917	-2.3125	-2.4313	-2.8937	29.138	192.864	-13.563	180.262	26.579	179.896	250.199	164.095	128.926	16.544	240.737	236.510	254.157	120.654	-13.426	198.508	0.00061639	0.00051068	0.0001456	554.95	5.31e-06	6.7555e-06	794.93	188.57	3.2086e-06	5.555e-06	391.81	194.55	82.231	38.457	4.1124e-06	97.02	9.4996e-05	2.8576e-05	7.5091e-06	499.56	3.1075e-07	2.8593e-07	723.08	170.63	3.4737e-07	2.8097e-07	357.58	177.91	74.33	35.231	3.1226e-07	88.684	140.115	-23.568	-1.866	-84.035	47.623	36.711	-84.860	-78.230	13.591	42.663	-80.155	-76.039	-75.334	-69.401	18.969	-71.753	-8191	255	
#DATA ENDS
