BOXY.EXE: ISS Imagent and Oximeter Data Acquisition Program Version 0.80
Ascii Record File

#ACQ INFORMATION
2  Detector Channels 
16  External MUX Channels 
1  Auxiliary Channels 
5000  Waveform (CCF) Frequency (Hz)
1  Waveforms Skipped 
30  Waveforms Averaged 
1  Cycles Averaged 
16  Acquisitions per Waveform 
10.0806  Updata Rate (Hz) 

#FILE INFORMATION
TRUE -- External MUX Channel results are PARSED.
FALSE -- AC DC and Phase are NOT grouped.
TRUE -- Companion Program Settings File CREATED.
FALSE -- AC data not excluded
FALSE -- DC data not excluded
FALSE -- Phase data not excluded
FALSE -- Auxillary Chn. data not excluded
Tab delimiters

#CALIBRATION STATE
TRUE -- Waveform Calibration Values APPLIED.


#AUX CALIBRATION VALUES
Val Type	aux-1	

Term	1.0000e+00	
Factor	0.0000e+00	


#WF CALIBRATION VALUES
A = Detector Channel
Val Type	A-AC1	A-AC2	A-AC3	A-AC4	A-AC5	A-AC6	A-AC7	A-AC8	A-AC9	A-AC10	A-AC11	A-AC12	A-AC13	A-AC14	A-AC15	A-AC16	A-DC1	A-DC2	A-DC3	A-DC4	A-DC5	A-DC6	A-DC7	A-DC8	A-DC9	A-DC10	A-DC11	A-DC12	A-DC13	A-DC14	A-DC15	A-DC16	A-Ph1	A-Ph2	A-Ph3	A-Ph4	A-Ph5	A-Ph6	A-Ph7	A-Ph8	A-Ph9	A-Ph10	A-Ph11	A-Ph12	A-Ph13	A-Ph14	A-Ph15	A-Ph16	

Term	0.00000e+00	0.00000e+00	0.00000e+00	0.00000e+00	0.00000e+00	0.00000e+00	0.00000e+00	0.00000e+00	0.00000e+00	0.00000e+00	0.00000e+00	0.00000e+00	0.00000e+00	0.00000e+00	0.00000e+00	0.00000e+00	0.00000e+00	0.00000e+00	0.00000e+00	0.00000e+00	0.00000e+00	0.00000e+00	0.00000e+00	0.00000e+00	0.00000e+00	0.00000e+00	0.00000e+00	0.00000e+00	0.00000e+00	0.00000e+00	0.00000e+00	0.00000e+00	0.00000e+00	0.00000e+00	0.00000e+00	0.00000e+00	0.00000e+00	0.00000e+00	0.00000e+00	0.00000e+00	0.00000e+00	0.00000e+00	0.00000e+00	0.00000e+00	0.00000e+00	0.00000e+00	0.00000e+00	0.00000e+00	
Factor	1.00000e+00	1.00000e+00	1.00000e+00	1.00000e+00	1.00000e+00	1.00000e+00	1.00000e+00	1.00000e+00	1.00000e+00	1.00000e+00	1.00000e+00	1.00000e+00	1.00000e+00	1.00000e+00	1.00000e+00	1.00000e+00	1.00000e+00	1.00000e+00	1.00000e+00	1.00000e+00	1.00000e+00	1.00000e+00	1.00000e+00	1.00000e+00	1.00000e+00	1.00000e+00	1.00000e+00	1.00000e+00	1.00000e+00	1.00000e+00	1.00000e+00	1.00000e+00	X	X	X	X	X	X	X	X	X	X	X	X	X	X	X	X	

B = Detector Channel
Val Type	B-AC1	B-AC2	B-AC3	B-AC4	B-AC5	B-AC6	B-AC7	B-AC8	B-AC9	B-AC10	B-AC11	B-AC12	B-AC13	B-AC14	B-AC15	B-AC16	B-DC1	B-DC2	B-DC3	B-DC4	B-DC5	B-DC6	B-DC7	B-DC8	B-DC9	B-DC10	B-DC11	B-DC12	B-DC13	B-DC14	B-DC15	B-DC16	B-Ph1	B-Ph2	B-Ph3	B-Ph4	B-Ph5	B-Ph6	B-Ph7	B-Ph8	B-Ph9	B-Ph10	B-Ph11	B-Ph12	B-Ph13	B-Ph14	B-Ph15	B-Ph16	

Term	0.00000e+00	0.00000e+00	0.00000e+00	0.00000e+00	0.00000e+00	0.00000e+00	0.00000e+00	0.00000e+00	0.00000e+00	0.00000e+00	0.00000e+00	0.00000e+00	0.00000e+00	0.00000e+00	0.00000e+00	0.00000e+00	0.00000e+00	0.00000e+00	0.00000e+00	0.00000e+00	0.00000e+00	0.00000e+00	0.00000e+00	0.00000e+00	0.00000e+00	0.00000e+00	0.00000e+00	0.00000e+00	0.00000e+00	0.00000e+00	0.00000e+00	0.00000e+00	-9.99014e+01	-1.28059e+02	-1.24292e+02	-1.80815e+02	-5.64162e+01	-6.70400e+01	-1.57141e+02	-1.62015e+02	-5.78422e+01	-6.46554e+01	-1.71605e+02	-1.71581e+02	-1.83471e+02	-1.76929e+02	-6.31455e+01	-1.49760e+02	
Factor	1.57090e-05	1.56009e-04	4.31416e-05	1.49598e-01	1.26044e-06	1.72627e-06	1.55617e-01	4.50887e-02	1.02207e-06	1.73542e-06	7.47621e-02	2.92882e-02	3.47003e-02	8.87559e-03	1.34979e-06	1.27559e-02	1.64394e-05	5.02448e-05	1.40396e-05	7.54145e-02	4.32544e-07	5.76823e-07	7.39352e-02	2.29014e-02	4.22910e-07	5.74600e-07	3.67841e-02	1.45451e-02	1.77443e-02	4.53651e-03	4.81585e-07	6.33307e-03	X	X	X	X	X	X	X	X	X	X	X	X	X	X	X	X	



#DISTANCE SETTINGS
A = Detector Channel
A-1	A-2	A-3	A-4	A-5	A-6	A-7	A-8	A-9	A-10	A-11	A-12	A-13	A-14	A-15	A-16	

2.5000e+00	3.0000e+00	2.5000e+00	3.0000e+00	2.0000e+00	3.0000e+00	1.5000e+00	3.0000e+00	3.0000e+00	3.0000e+00	3.0000e+00	3.0000e+00	3.0000e+00	3.0000e+00	1.5000e+00	3.0000e+00	

B = Detector Channel
B-1	B-2	B-3	B-4	B-5	B-6	B-7	B-8	B-9	B-10	B-11	B-12	B-13	B-14	B-15	B-16	

1.0000e+01	1.0000e+01	1.0000e+01	1.4400e+00	1.0000e+01	1.0000e+01	1.5100e+00	1.9400e+00	1.0000e+01	1.0000e+01	1.9900e+00	2.4900e+00	2.4100e+00	2.9000e+00	1.0000e+01	2.9800e+00	




#DATA BEGINS
time	group	step	mark	flag	A-AC1	A-AC2	A-AC3	A-AC4	A-AC5	A-AC6	A-AC7	A-AC8	A-AC9	A-AC10	A-AC11	A-AC12	A-AC13	A-AC14	A-AC15	A-AC16	A-DC1	A-DC2	A-DC3	A-DC4	A-DC5	A-DC6	A-DC7	A-DC8	A-DC9	A-DC10	A-DC11	A-DC12	A-DC13	A-DC14	A-DC15	A-DC16	A-Ph1	A-Ph2	A-Ph3	A-Ph4	A-Ph5	A-Ph6	A-Ph7	A-Ph8	A-Ph9	A-Ph10	A-Ph11	A-Ph12	A-Ph13	A-Ph14	A-Ph15	A-Ph16	B-AC1	B-AC2	B-AC3	B-AC4	B-AC5	B-AC6	B-AC7	B-AC8	B-AC9	B-AC10	B-AC11	B-AC12	B-AC13	B-AC14	B-AC15	B-AC16	B-DC1	B-DC2	B-DC3	B-DC4	B-DC5	B-DC6	B-DC7	B-DC8	B-DC9	B-DC10	B-DC11	B-DC12	B-DC13	B-DC14	B-DC15	B-DC16	B-Ph1	B-Ph2	B-Ph3	B-Ph4	B-Ph5	B-Ph6	B-Ph7	B-Ph8	B-Ph9	B-Ph10	B-Ph11	B-Ph12	B-Ph13	B-Ph14	B-Ph15	B-Ph16	aux-1	digaux	

14613.418	1	1	0	256	0.057734	0.11591	0.19219	0.35126	0.05002	0.14904	0.29586	0.03276	0.11515	0.19045	0.084877	0.16699	0.15023	0.2059	0.2276	0.070305	-2.2562	-2.5292	-2.8187	-2.7917	-2.8479	-2.9104	-2.9771	-2.9729	-2.8042	-2.6063	-2.9646	-2.6208	-2.8583	-2.9708	-2.6312	-2.9229	377.704	427.468	510.218	473.860	201.525	197.913	467.157	239.518	341.037	311.413	419.101	343.999	218.521	458.007	500.058	358.775	0.00020785	0.00026469	7.9506e-05	963.64	2.6001e-06	2.5055e-06	1001.8	203.25	2.2062e-06	3.0638e-06	247.98	70.289	57.575	17.238	3.1659e-06	23.497	0.00026824	0.00032984	8.8566e-05	981.31	3.8722e-06	3.6388e-06	1021.6	207.95	3.7331e-06	4.1024e-06	254.43	73.077	59.063	17.98	3.8948e-06	24.632	225.380	270.471	277.894	179.428	326.081	332.702	179.549	186.331	307.918	338.158	186.182	191.701	192.156	198.526	319.293	198.560	-8191	255	
14613.514	1	1	0	0	0.17698	0.098741	0.16232	0.17624	0.15458	0.096228	0.030649	0.1985	0.13731	0.12539	0.25755	0.1705	0.15951	0.13082	0.12494	0.25726	-2.3708	-2.7375	-2.8167	-2.8312	-2.6125	-2.7833	-2.7792	-2.8583	-2.7271	-2.6542	-2.8958	-2.5917	-2.5625	-2.9688	-2.5646	-2.7229	459.136	392.239	169.277	526.105	275.173	419.728	257.743	480.836	274.843	375.515	415.713	385.600	430.560	359.781	235.348	519.969	0.00021359	0.00022969	4.6053e-05	969.87	3.2975e-06	2.519e-06	1002.4	203.07	2.0339e-06	1.5924e-06	246.37	70.6	56.443	17.292	1.8613e-06	23.438	0.00027231	0.00033538	8.6753e-05	983.13	4.0803e-06	3.5511e-06	1021.4	207.95	3.6978e-06	3.7014e-06	254.02	73.262	58.83	17.999	3.632e-06	24.571	227.011	238.001	269.049	179.266	315.823	324.530	179.358	186.245	307.913	313.112	186.021	192.055	191.728	198.570	322.186	198.688	-8191	255	
14613.610	1	1	0	0	0.033501	0.1935	0.20946	0.27231	0.3391	0.028911	0.25078	0.24303	0.12625	0.084189	0.22926	0.052894	0.23899	0.31077	0.25565	0.065757	-2.4271	-2.5333	-2.6771	-2.6958	-2.6188	-2.9021	-2.6813	-2.9	-2.7	-2.3833	-2.8333	-2.7125	-2.5375	-3.0187	-2.5333	-2.7375	404.510	229.167	331.166	460.391	333.334	296.215	455.216	176.981	464.836	415.577	322.181	376.871	377.385	525.631	310.891	287.836	0.000208	0.0002456	3.3274e-05	966.14	2.1229e-06	2.5813e-06	999.34	203.27	2.1206e-06	2.833e-06	247.1	70.423	56.536	17.265	2.3025e-06	23.497	0.00026594	0.00033905	8.646e-05	982.84	3.8154e-06	3.6196e-06	1020.3	208.16	3.4925e-06	4.009e-06	254.24	73.203	58.856	17.987	3.5376e-06	24.634	227.132	270.859	266.256	179.347	322.636	324.901	179.166	186.409	319.596	337.537	186.091	191.637	192.317	198.594	305.297	198.565	-8191	255	
14613.706	1	1	0	0	0.23493	0.019568	0.22348	0.24213	0.11987	0.13118	0.32423	0.17342	0.24461	0.23957	0.19532	0.28779	0.31488	0.060277	0.17775	0.1447	-2.4125	-2.5521	-2.6917	-3.0292	-2.5958	-2.9458	-2.8333	-2.9188	-2.9021	-2.7208	-2.6667	-2.9146	-2.6625	-2.875	-2.7021	-2.5563	252.733	211.606	365.063	471.894	354.929	341.049	491.204	399.976	322.125	440.925	224.962	443.755	183.524	435.072	388.163	465.169	0.00022228	0.00028911	8.7244e-05	966.98	2.6557e-06	2.1018e-06	1002.3	202.44	2.3665e-06	2.0585e-06	248.79	70.488	56.863	17.273	1.898e-06	23.464	0.00027717	0.00036291	9.5323e-05	982.04	4.0893e-06	3.7217e-06	1022	208.02	3.7569e-06	3.7289e-06	254.64	73.212	58.958	17.98	3.4875e-06	24.586	227.308	260.537	267.416	179.364	326.913	301.252	179.442	186.518	305.698	316.074	186.176	192.035	192.320	198.589	333.792	198.731	-8191	255	
14613.827	1	1	0	0	0.31159	0.1041	0.19994	0.28574	0.10169	0.24384	0.17534	0.26085	0.23139	0.20298	0.11782	0.062323	0.12086	0.21158	0.20037	0.11929	-2.5896	-2.5812	-2.7896	-3.0187	-2.6125	-2.8917	-2.7896	-2.6083	-3.0312	-2.7042	-2.8167	-2.8375	-2.5687	-2.9875	-2.6729	-2.7979	385.801	282.242	294.039	467.232	259.548	426.191	389.846	505.434	231.427	243.388	202.115	189.942	410.248	348.239	366.515	516.031	0.00020151	0.00032473	6.6366e-05	968.64	2.55e-06	2.3887e-06	1002	203.32	2.1866e-06	2.9112e-06	247.03	70.576	56.655	17.288	2.4174e-06	23.545	0.00026409	0.00034742	9.3071e-05	982.43	4.0308e-06	3.7157e-06	1020.5	208.05	3.5754e-06	4.0605e-06	254.35	73.323	58.936	18.019	3.5587e-06	24.616	224.292	251.929	264.826	179.326	304.470	323.970	179.347	186.130	302.038	311.485	185.963	191.906	192.340	198.298	322.001	198.432	-8191	255	
14613.923	1	1	0	0	0.14347	0.13903	0.24282	0.3423	0.24976	0.0452	0.20901	0.12423	0.2463	0.20164	0.14618	0.11934	0.059982	0.13317	0.27515	0.24283	-2.5646	-2.5604	-2.5125	-2.9688	-2.625	-2.8375	-2.9479	-2.6146	-2.9188	-2.5625	-2.6958	-2.8771	-2.6458	-2.7458	-2.7479	-2.6125	457.900	410.562	449.800	192.054	328.046	310.413	406.749	508.802	296.491	204.435	184.704	419.616	227.848	264.166	332.760	447.126	0.00022122	0.00017111	6.5995e-05	968.82	2.7978e-06	1.4554e-06	999.56	202.59	2.6813e-06	3.3858e-06	248.3	70.876	57.015	17.364	1.4465e-06	23.512	0.00026954	0.00033999	9.6902e-05	984.12	4.0272e-06	3.5595e-06	1020.2	208.2	3.5216e-06	3.839e-06	254.48	73.478	58.884	18.014	3.4243e-06	24.632	224.837	260.465	273.603	179.329	320.358	325.127	179.387	186.404	295.247	330.640	185.889	192.219	192.463	198.714	331.185	198.526	-8191	255	
14614.019	1	1	0	0	0.15852	0.23738	0.17455	0.17388	0.17202	0.21084	0.14919	0.090042	0.20644	0.055879	0.2381	0.13628	0.16923	0.068935	0.21302	0.057282	-2.45	-2.6688	-2.5771	-3.0062	-2.7313	-2.8104	-2.9167	-2.7062	-2.8958	-2.8104	-2.7562	-2.8354	-2.4583	-2.7146	-2.6458	-2.7479	402.147	487.762	350.055	423.426	209.551	278.624	504.491	259.346	485.528	517.680	355.848	272.883	464.336	490.042	331.210	207.903	0.00021376	0.00017632	6.741e-05	967.19	2.8825e-06	3.0019e-06	999.88	203.03	2.3279e-06	3.3126e-06	247.36	70.687	57.041	17.294	1.9464e-06	23.471	0.0002631	0.00032377	9.5557e-05	983.72	4.1641e-06	3.5138e-06	1020.3	207.97	3.6106e-06	3.9647e-06	254.65	73.391	59.036	17.992	3.5085e-06	24.655	228.653	268.929	252.533	179.346	317.684	322.342	179.239	186.113	302.079	317.378	185.843	192.084	192.375	198.617	313.897	198.444	-8191	255	
14614.115	1	1	0	0	0.056866	0.10717	0.12956	0.35965	0.18338	0.11973	0.10546	0.063649	0.17921	0.24468	0.068224	0.12338	0.15423	0.17306	0.063229	0.21548	-2.1292	-2.7375	-2.5979	-2.9542	-2.6125	-2.7812	-3.0563	-2.7146	-2.9396	-2.7292	-2.5875	-2.8583	-2.7812	-2.8688	-2.9542	-2.7	440.983	461.244	203.170	498.310	337.581	272.268	168.597	417.849	404.221	453.534	211.910	500.879	186.749	465.186	191.021	401.755	0.00021604	0.00032781	8.9723e-05	969.2	1.9829e-06	2.517e-06	999.81	203.98	2.6812e-06	2.8242e-06	247.87	70.759	56.967	17.35	3.3787e-06	23.581	0.00027265	0.00035349	9.2544e-05	983.67	3.7893e-06	3.515e-06	1022.1	208.4	3.7304e-06	3.5984e-06	254.53	73.488	58.924	18.028	3.5206e-06	24.641	224.579	255.819	281.872	179.575	292.255	342.256	179.381	186.394	307.248	335.282	185.919	191.737	192.446	198.703	308.678	198.533	-8191	255	
14614.210	1	1	0	0	0.35878	0.073453	0.25253	0.35189	0.10521	0.13424	0.090086	0.088002	0.064237	0.056604	0.16997	0.16483	0.19786	0.13284	0.12182	0.16093	-2.4646	-2.7271	-2.5958	-2.925	-2.5417	-2.7896	-2.9875	-2.8229	-2.7875	-2.7479	-2.7229	-3.0938	-2.6167	-2.6292	-2.875	-2.5667	459.079	447.351	493.727	516.835	346.697	215.804	473.093	505.425	483.877	246.488	503.748	379.057	474.684	424.038	322.247	482.278	0.00020986	0.00031827	7.9503e-05	966.58	2.111e-06	2.5033e-06	1000.1	203.12	2.8031e-06	2.9272e-06	248.41	70.75	57.308	17.259	2.5594e-06	23.527	0.00026526	0.00033832	9.5469e-05	982.32	3.8181e-06	3.7542e-06	1020.4	208.03	3.7031e-06	3.6954e-06	254.31	73.319	58.934	17.996	3.4664e-06	24.668	223.863	256.697	275.294	179.343	301.230	316.941	179.314	186.246	298.093	323.702	185.889	191.650	192.051	198.526	315.145	198.796	-8191	255	
14614.308	1	1	0	0	0.20411	0.13172	0.26499	0.16092	0.075623	0.32594	0.30906	0.1447	0.05271	0.043999	0.024698	0.11713	0.12869	0.11213	0.19018	0.3445	-2.3438	-2.6813	-2.5062	-3.1312	-2.7167	-2.625	-3.0479	-2.6333	-2.7958	-2.8646	-2.6479	-2.9813	-2.6042	-2.5917	-3.0312	-2.6521	244.816	394.473	375.334	379.210	350.519	481.085	495.366	236.742	254.110	410.987	439.813	520.917	407.042	297.256	391.743	502.585	0.00021079	0.00031027	7.7248e-05	967.78	2.8831e-06	2.1357e-06	997.07	203.62	2.294e-06	2.3819e-06	248.23	70.626	56.897	17.219	2.2428e-06	23.435	0.0002645	0.00032743	9.4007e-05	982.61	3.8641e-06	3.6592e-06	1019.9	208.11	3.7921e-06	3.4656e-06	254.93	73.315	59.067	18.001	3.4463e-06	24.62	226.417	235.299	262.558	179.417	319.677	319.759	179.382	186.489	314.411	311.418	186.123	191.948	192.686	198.423	299.981	198.542	-8191	255	
14614.427	1	1	0	0	0.24241	0.13734	0.3877	0.20178	0.30052	0.17152	0.093441	0.12828	0.19548	0.11971	0.045967	0.22436	0.068559	0.14675	0.37021	0.14249	-2.4396	-2.9396	-2.5292	-2.8875	-2.7917	-2.7896	-3.1708	-2.7479	-2.8042	-2.8521	-2.8208	-2.9	-2.85	-2.6125	-3.1333	-2.7438	220.617	457.171	412.394	421.274	211.650	274.611	442.905	364.718	308.786	307.680	340.846	459.102	455.598	441.116	356.532	204.599	0.00020716	0.00026375	7.8951e-05	966.39	1.9046e-06	3.514e-06	1001	201.98	1.9085e-06	2.3044e-06	247.79	70.253	56.723	17.238	1.4142e-06	23.567	0.00027063	0.0003403	8.6958e-05	981.25	4.0109e-06	3.8647e-06	1020	207.45	3.6106e-06	3.6607e-06	253.69	73.101	58.766	17.986	3.3269e-06	24.576	226.965	272.740	264.613	179.437	295.746	339.880	179.283	186.216	310.159	315.482	186.166	191.914	192.019	198.892	332.234	198.429	-8191	255	
14614.523	1	1	0	0	0.2433	0.095695	0.10981	0.24318	0.16261	0.23732	0.26087	0.16506	0.1063	0.12875	0.15234	0.076332	0.15729	0.079954	0.038433	0.17306	-2.3417	-2.6875	-2.675	-2.8354	-2.8563	-2.525	-3.1479	-2.7479	-2.75	-3.0521	-2.6979	-2.9208	-2.7729	-2.5125	-3.0812	-2.8083	338.980	505.565	501.041	424.553	252.005	214.229	497.495	369.127	225.734	433.254	229.082	350.282	359.933	423.022	449.466	526.858	0.00021972	0.0002418	7.6282e-05	961.78	2.6408e-06	3.6399e-06	1000.5	202.85	2.431e-06	1.7358e-06	246.72	70.314	56.494	17.176	1.8595e-06	23.479	0.00027176	0.00032921	8.9912e-05	979.85	3.7289e-06	3.9248e-06	1018.4	207.83	3.6203e-06	3.5697e-06	253.62	73.106	58.692	17.939	3.4082e-06	24.558	228.109	248.471	256.086	179.409	298.879	318.889	179.394	186.479	292.565	311.987	185.955	192.118	192.313	198.871	290.270	198.482	-8191	255	
14614.619	1	1	0	0	0.053784	0.12359	0.087117	0.22209	0.14754	0.08286	0.27614	0.30977	0.13084	0.026917	0.16216	0.11047	0.013196	0.082224	0.17818	0.14825	-2.3312	-2.9354	-2.7812	-2.9188	-2.7938	-2.5458	-2.8792	-2.8312	-2.7208	-2.8146	-2.7083	-2.6792	-2.8438	-2.6667	-2.9688	-2.7396	242.876	334.319	359.255	464.946	418.245	192.201	180.066	465.148	299.154	470.594	501.310	272.782	428.943	346.641	385.177	404.324	0.00021861	0.00026168	8.4212e-05	964.3	2.1525e-06	2.6332e-06	1001.7	202.77	1.9525e-06	2.7405e-06	247.04	70.212	56.741	17.201	2.0914e-06	23.486	0.00027697	0.00031811	9.5615e-05	979.46	3.682e-06	3.7217e-06	1017.5	207.27	3.6009e-06	3.7517e-06	253.82	72.977	58.752	17.923	3.2507e-06	24.565	225.667	273.973	253.620	179.247	300.476	316.515	179.344	186.050	302.285	329.346	186.018	191.760	192.322	198.471	327.508	198.906	-8191	255	
14614.715	1	1	0	0	0.15407	0.25306	0.21382	0.28583	0.073772	0.33824	0.43907	0.083664	0.20507	0.056493	0.054014	0.23401	0.10994	0.10907	0.078016	0.12347	-2.1396	-2.6771	-2.4437	-2.8542	-2.8125	-2.7604	-2.8896	-2.8563	-2.5458	-2.925	-2.5604	-2.6292	-2.8708	-2.6396	-2.9167	-2.8563	299.928	481.183	289.809	459.506	392.435	176.288	451.001	239.143	433.036	186.531	355.260	506.353	374.869	254.832	395.264	196.304	0.00023004	0.00023024	7.5317e-05	963.49	2.7823e-06	2.2158e-06	994.69	202.34	2.596e-06	3.1472e-06	246.17	70.119	56.297	17.206	2.3805e-06	23.502	0.0002731	0.00030827	9.5294e-05	979.62	3.7046e-06	3.8383e-06	1015.6	207.42	3.6961e-06	3.5721e-06	253.12	73.007	58.54	17.903	3.3159e-06	24.527	227.732	258.578	252.650	179.238	291.078	305.539	179.533	186.308	309.172	327.781	185.972	191.959	191.967	198.888	314.439	198.722	-8191	255	
14614.811	1	1	0	0	0.047702	0.23021	0.1469	0.1495	0.20835	0.045226	0.34924	0.11067	0.19066	0.12093	0.20974	0.28928	0.27836	0.16428	0.26737	0.06075	-2.0375	-2.7958	-2.8187	-2.9542	-2.8292	-2.6646	-3.0271	-2.9979	-2.6542	-2.8792	-2.7521	-2.75	-2.875	-2.5292	-2.775	-2.8667	241.169	267.070	231.258	479.844	480.881	423.889	463.191	326.409	280.279	498.021	211.785	384.992	439.400	304.996	509.423	432.037	0.00020399	0.00018586	7.2483e-05	963.09	2.4219e-06	2.6968e-06	999.08	201.49	2.4735e-06	2.4855e-06	246.73	70.192	56.521	17.142	2.012e-06	23.445	0.00026827	0.00031079	9.7312e-05	977.45	3.546e-06	3.6412e-06	1016.3	206.72	3.7507e-06	3.6822e-06	253.25	72.785	58.596	17.869	3.4504e-06	24.475	224.074	264.016	256.772	179.446	321.876	317.518	179.468	186.454	300.331	330.583	185.955	191.886	192.788	198.603	297.636	198.326	-8191	255	
14614.906	1	1	0	0	0.18256	0.13271	0.28524	0.28749	0.25758	0.21257	0.41196	0.13281	0.27731	0.17025	0.21795	0.22184	0.18379	0.37733	0.24542	0.13687	-2.2479	-2.6958	-2.6625	-2.6479	-3.0479	-2.7562	-2.8958	-2.6667	-2.5187	-2.9313	-2.7979	-2.5896	-2.9917	-2.7083	-2.7729	-2.9729	241.519	318.908	276.189	491.621	372.778	239.655	476.052	397.605	371.438	340.677	519.615	389.626	462.585	457.842	186.225	470.270	0.00021097	0.00021085	8.3575e-05	959.94	2.9081e-06	3.5136e-06	992.97	202.79	2.5297e-06	3.0028e-06	245.92	70.022	56.802	17.056	1.6896e-06	23.464	0.00027019	0.00032439	9.076e-05	977.23	3.9677e-06	3.5667e-06	1014.3	207	3.7991e-06	3.5122e-06	253.12	72.798	58.441	17.901	3.3711e-06	24.524	224.152	267.367	282.633	179.092	308.822	324.911	179.386	186.294	304.988	322.554	186.162	192.225	192.203	198.546	311.388	198.577	-8191	255	
14615.002	1	1	0	0	0.13098	0.091881	0.22444	0.20407	0.27987	0.14698	0.21735	0.096337	0.11203	0.41761	0.31389	0.075037	0.077878	0.096815	0.10269	0.14063	-2.075	-2.8354	-2.9208	-2.6542	-2.7938	-2.85	-2.7604	-2.9646	-2.6021	-2.9271	-2.9771	-2.6188	-2.8604	-2.7896	-2.6417	-2.9062	336.628	270.689	393.824	394.976	284.438	358.158	485.414	278.792	305.802	375.546	450.098	469.505	223.893	404.514	335.058	227.812	0.00022425	0.00023407	7.0249e-05	960.79	2.2286e-06	2.803e-06	996.17	202.18	3.0158e-06	2.8064e-06	246.38	70.542	56.574	17.044	2.4982e-06	23.286	0.00028577	0.00033528	9.0877e-05	976.73	3.7271e-06	3.4261e-06	1014.4	206.41	3.7234e-06	3.6355e-06	252.93	72.937	58.467	17.838	3.2848e-06	24.475	225.762	270.963	274.732	179.331	337.054	312.706	179.358	186.109	311.578	322.706	185.855	192.135	192.385	198.766	314.513	198.630	-8191	255	
14615.122	1	1	0	0	0.25343	0.18295	0.15764	0.29355	0.15804	0.066435	0.15973	0.20833	0.095854	0.30752	0.1128	0.027217	0.20512	0.16656	0.057857	0.046012	-2.25	-2.6729	-2.7938	-2.7479	-2.7979	-2.7521	-2.7229	-3.0042	-2.5958	-2.7625	-2.8937	-2.6937	-3.0771	-2.7021	-2.7188	-2.8708	262.657	469.799	371.917	523.548	498.873	342.628	177.242	268.924	212.268	214.702	362.608	398.646	442.707	241.326	516.926	177.961	0.00021715	0.00023794	8.7554e-05	961.12	1.7734e-06	2.8409e-06	995.01	202.12	2.9546e-06	2.7401e-06	245.22	70.474	56.338	17.093	2.4447e-06	23.372	0.00027135	0.00033811	9.3276e-05	977.5	3.6397e-06	3.765e-06	1013.5	206.87	3.8018e-06	3.608e-06	252.98	72.904	58.494	17.873	3.7463e-06	24.478	226.836	256.755	267.058	179.427	311.859	329.397	179.332	186.425	305.255	317.320	185.685	192.160	192.266	198.815	326.993	198.587	-8191	255	
14615.219	1	1	0	0	0.033289	0.04245	0.19883	0.21689	0.040394	0.15097	0.13339	0.18682	0.09597	0.046789	0.32424	0.1383	0.091651	0.10942	0.16939	0.12625	-2.1437	-2.6708	-2.775	-2.5833	-2.8271	-2.6562	-2.5896	-2.9792	-2.7917	-2.6125	-3.0604	-2.6042	-2.8458	-2.8167	-2.6792	-2.9042	171.997	476.012	380.930	494.734	528.237	289.696	180.407	524.737	462.240	269.408	312.957	517.208	472.915	504.542	186.870	507.200	0.00021282	0.00023817	5.6546e-05	961.02	2.2117e-06	2.9471e-06	997.33	202.37	2.8293e-06	2.971e-06	246.93	70.07	56.716	17.221	2.0767e-06	23.543	0.00026806	0.00031895	8.6373e-05	976.71	3.8559e-06	3.7049e-06	1016.1	207.01	3.6502e-06	3.9013e-06	252.8	72.824	58.709	17.942	3.5587e-06	24.534	227.711	253.769	267.123	179.173	308.304	334.712	179.317	186.391	307.659	325.025	185.900	191.971	192.511	198.642	307.127	198.541	-8191	255	
14615.290	1	1	0	0	0.10346	0.26995	0.20221	0.40928	0.28511	0.1673	0.094697	0.18241	0.057341	0.23102	0.20216	0.11092	0.09232	0.073135	0.087868	0.12359	-2.1229	-2.4708	-2.7792	-2.7479	-2.7917	-3.0438	-2.5938	-3.0729	-2.8	-2.7125	-3.0687	-2.5896	-2.8646	-2.9583	-2.7667	-2.9708	450.032	336.533	191.087	462.303	465.015	522.570	465.593	417.922	372.554	283.427	395.692	219.587	204.695	418.368	456.772	405.711	0.0002223	0.00022408	7.3229e-05	962.82	2.2436e-06	2.3961e-06	996.27	202.14	2.5103e-06	2.5129e-06	246.76	70.322	56.6	17.113	2.9904e-06	23.467	0.00027485	0.00035088	8.1868e-05	977.82	3.7703e-06	3.5835e-06	1014.7	207.15	3.5093e-06	3.7588e-06	253	73.009	58.813	17.901	3.5547e-06	24.537	226.972	263.571	253.673	179.399	305.541	307.638	179.412	186.452	305.939	309.989	185.801	192.113	192.408	198.832	315.925	198.553	-8191	255	
14615.386	1	1	0	0	0.058327	0.32976	0.29859	0.39387	0.14247	0.15226	0.13665	0.085595	0.0082632	0.13973	0.16614	0.20833	0.11336	0.11859	0.16467	0.088932	-2.4875	-2.6417	-2.8563	-2.9292	-2.7792	-2.7812	-2.8854	-2.9521	-2.7292	-2.7625	-2.975	-2.7062	-2.7708	-2.8583	-2.6771	-2.8729	436.456	462.898	274.212	482.271	211.931	176.022	221.933	438.986	226.161	211.539	484.107	424.060	379.714	494.092	337.835	264.733	0.00021906	0.00028703	8.6574e-05	961.39	1.8499e-06	2.7996e-06	996.84	201.94	2.6936e-06	2.2047e-06	246.67	70.271	56.681	17.189	1.7308e-06	23.463	0.00027043	0.00035883	9.2544e-05	976.17	3.6397e-06	3.3924e-06	1016.6	207.06	3.6379e-06	3.5027e-06	253.29	73.02	58.759	17.926	3.4002e-06	24.534	226.323	250.531	252.026	179.521	304.833	301.862	179.641	186.392	304.960	327.905	185.912	192.066	192.336	198.718	316.757	198.529	-8191	255	
14615.507	1	1	0	0	0.20334	0.34726	0.17699	0.1329	0.038615	0.071948	0.37815	0.16081	0.27136	0.26992	0.051067	0.32279	0.18492	0.28081	0.51056	0.2123	-2.2396	-2.4375	-2.8833	-2.9271	-2.6875	-3.0708	-2.8187	-2.8458	-2.8187	-2.7104	-3.0521	-2.7	-2.5312	-2.8708	-2.4875	-2.575	275.391	402.963	211.254	477.313	339.546	228.329	461.886	193.629	438.167	240.280	223.163	478.614	472.354	255.711	255.454	332.748	0.00020536	0.00026967	6.5029e-05	960.31	2.6692e-06	3.2264e-06	992.9	201.91	2.4454e-06	3.0084e-06	246.15	70.201	56.497	17.285	2.6677e-06	23.432	0.00026755	0.00033894	8.5115e-05	978.11	3.792e-06	3.5559e-06	1015.1	207.14	3.5181e-06	3.6846e-06	253.2	72.971	58.596	17.935	3.4825e-06	24.55	222.600	266.926	254.884	179.302	316.107	326.820	179.207	186.161	302.751	326.155	186.194	191.842	192.402	198.717	314.530	198.582	-8191	255	
14615.603	1	1	0	0	0.09571	0.27011	0.07462	0.19636	0.30438	0.12781	0.24392	0.22254	0.06947	0.23331	0.092369	0.25506	0.058787	0.095085	0.057444	0.13729	-2.4833	-2.4979	-2.8458	-2.7354	-2.55	-2.8146	-2.6562	-2.7	-2.8771	-2.5667	-2.8521	-2.475	-2.7417	-2.7417	-2.6437	-2.6271	365.556	220.017	288.030	389.915	220.258	450.845	364.554	450.983	251.721	375.450	173.622	210.684	206.235	501.653	215.786	435.969	0.00021745	0.00028488	6.0483e-05	962.2	1.9547e-06	2.8051e-06	994.71	202.34	2.1307e-06	2.1034e-06	247.43	69.868	56.468	17.243	2.6756e-06	23.45	0.00026731	0.00034428	8.6987e-05	978.66	3.8929e-06	3.3756e-06	1015.3	207.12	3.5084e-06	3.5661e-06	253.41	72.75	58.522	17.929	3.5798e-06	24.542	226.188	269.724	273.703	179.384	303.194	328.660	179.219	185.941	303.096	308.740	185.830	192.247	192.410	198.886	305.539	198.626	-8191	255	
14615.699	1	1	0	0	0.13957	0.099084	0.36696	0.11253	0.19152	0.13505	0.12045	0.097319	0.13145	0.010284	0.27965	0.12795	0.075993	0.079499	0.17384	0.058146	-2.3917	-2.4813	-2.6917	-2.6937	-2.5896	-3.0604	-2.85	-2.8396	-2.7229	-2.5542	-2.8646	-2.8542	-2.6167	-2.9021	-2.4542	-2.6458	370.690	279.305	304.161	494.638	375.350	482.247	408.003	486.341	244.942	325.595	175.642	522.474	510.638	379.478	213.944	281.296	0.00021893	0.00020511	5.1986e-05	960.86	2.8106e-06	2.5319e-06	997.59	202.38	2.3838e-06	2.5936e-06	247.15	71.003	56.842	17.239	1.5676e-06	23.283	0.00026255	0.00033779	8.5554e-05	977.61	3.8577e-06	3.2987e-06	1016.4	207.08	3.437e-06	3.8522e-06	253.7	73.232	58.808	17.941	3.4694e-06	24.482	225.284	246.421	273.803	179.470	298.774	319.297	179.386	186.259	311.849	325.904	185.915	192.056	191.910	198.782	336.437	198.741	-8191	255	
14615.818	1	1	0	0	0.1106	0.24089	0.24705	0.061315	0.19584	0.079779	0.1256	0.19703	0.2981	0.071976	0.19322	0.22767	0.38401	0.045993	0.18671	0.25384	-2.6417	-2.6979	-2.9021	-2.9458	-2.6813	-3.0563	-2.8208	-2.7375	-2.9854	-2.8708	-2.9021	-2.6604	-2.4917	-2.8104	-2.5646	-2.4854	455.944	458.340	329.743	421.892	358.589	353.323	526.601	435.721	353.529	189.931	387.108	182.033	518.949	369.098	284.573	433.303	0.00020273	0.00024888	7.2475e-05	963.53	2.0625e-06	2.4542e-06	995.23	203.02	2.824e-06	2.365e-06	246.77	70.473	56.756	17.214	2.0711e-06	23.482	0.00025957	0.00033612	9.0351e-05	979.11	3.7262e-06	3.473e-06	1016.6	207.37	3.2626e-06	3.6607e-06	253.42	73.123	58.952	17.973	3.4564e-06	24.647	223.621	253.043	260.938	179.256	320.104	304.321	179.419	186.347	310.602	320.596	186.023	192.084	192.192	198.789	303.936	198.499	-8191	255	
14615.890	1	1	0	0	0.095921	0.097698	0.01185	0.16383	0.11733	0.031653	0.23269	0.099425	0.37102	0.062156	0.15043	0.28953	0.22091	0.064365	0.062536	0.0374	-2.4479	-2.5208	-2.5375	-2.9875	-2.5375	-2.8625	-2.9583	-2.6333	-2.8667	-2.6417	-2.7708	-2.9729	-2.65	-2.9021	-2.7917	-2.5583	321.865	185.289	349.381	241.305	515.252	200.422	176.190	503.684	240.224	218.406	175.260	474.038	230.806	523.823	523.744	394.495	0.0002132	0.00029286	0.00010053	966.96	2.343e-06	3.4038e-06	999.2	203.21	2.8696e-06	2.7468e-06	247.61	70.4	56.845	17.416	2.337e-06	23.494	0.0002643	0.0003313	9.3363e-05	982.75	3.9875e-06	3.497e-06	1018.8	208.12	3.6599e-06	3.9492e-06	254.36	73.248	59.051	18.061	3.4845e-06	24.613	225.472	245.030	268.609	179.280	316.910	308.264	179.307	186.375	307.044	312.619	186.128	192.210	192.073	198.609	312.316	198.852	-8191	255	
14615.986	1	1	0	0	0.2255	0.096289	0.064075	0.15085	0.23255	0.093397	0.12688	0.17092	0.1901	0.094488	0.045048	0.088698	0.11839	0.13471	0.20635	0.21351	-2.5104	-2.6271	-2.8292	-2.9958	-2.5583	-2.8417	-2.8396	-2.5979	-2.9354	-2.9125	-2.8458	-2.7646	-2.6479	-2.6813	-2.8146	-2.8312	380.280	218.009	411.471	191.136	439.098	423.336	450.655	488.841	270.550	304.494	386.489	299.699	364.004	292.311	362.567	265.751	0.00021449	0.00028139	8.5777e-05	970.87	2.5621e-06	2.4718e-06	1003.6	202.97	2.4087e-06	2.7096e-06	248.19	70.884	57.472	17.402	2.5339e-06	23.648	0.00026762	0.0003357	9.5411e-05	983.14	3.81e-06	3.6532e-06	1020.9	208.32	3.4229e-06	3.8402e-06	254.68	73.78	59.235	18.135	3.2617e-06	24.771	226.085	249.647	267.472	179.234	338.615	311.219	179.472	186.382	305.952	326.465	185.941	191.957	191.980	198.494	314.603	198.365	-8191	255	
14616.107	1	1	0	0	0.24745	0.19093	0.19974	0.24999	0.1282	0.10134	0.12345	0.0822	0.11669	0.27067	0.046027	0.14351	0.062448	0.19987	0.36264	0.08993	-2.4917	-2.5146	-2.5979	-3.0812	-2.4938	-2.7896	-2.875	-2.6104	-2.6667	-2.5854	-2.7479	-2.8625	-2.6562	-2.7854	-2.8646	-2.5979	325.289	454.172	220.696	446.995	214.123	426.024	441.962	483.793	357.625	413.757	374.430	245.793	336.563	375.521	346.272	475.063	0.00021046	0.00030496	5.8999e-05	968.52	2.3987e-06	3.3808e-06	1002.8	203.94	2.3428e-06	3.2146e-06	248.76	70.824	57.442	17.433	2.5535e-06	23.579	0.00027217	0.00032104	9.4592e-05	984.43	3.9055e-06	3.8335e-06	1022.3	208.56	3.682e-06	3.4955e-06	255.4	73.594	59.304	18.146	3.343e-06	24.762	226.950	272.568	265.150	179.406	315.069	317.834	179.318	186.405	305.484	338.247	185.649	192.000	192.194	198.116	324.075	198.351	-8191	255	
14616.203	1	1	0	0	0.13273	0.26692	0.13869	0.40798	0.11647	0.12989	0.22144	0.17404	0.19126	0.062985	0.13445	0.18161	0.38879	0.071333	0.13608	0.12881	-2.4021	-2.7438	-2.6562	-2.9896	-2.6021	-2.8375	-2.9792	-2.5563	-2.6813	-2.8104	-2.6292	-3.0604	-2.6625	-2.7083	-3.0083	-2.7083	447.167	271.590	515.519	458.234	509.246	289.957	480.019	190.659	253.382	300.266	521.604	478.430	452.656	344.543	479.470	179.661	0.00020937	0.00024339	6.6494e-05	968.87	2.6686e-06	2.6287e-06	1003.7	203.9	2.1226e-06	3.0309e-06	247.43	71.083	57.273	17.3	2.5577e-06	23.56	0.00026793	0.00032104	9.3539e-05	985.41	3.7902e-06	3.4982e-06	1023.4	208.74	3.6529e-06	3.4763e-06	254.57	73.67	59.287	18.086	3.2918e-06	24.711	226.536	256.655	256.792	179.183	295.147	314.997	179.177	186.197	321.979	307.759	186.068	192.052	192.015	198.422	324.688	198.552	-8191	255	
14616.299	1	1	0	0	0.094027	0.23183	0.23162	0.36502	0.30848	0.1412	0.16403	0.04687	0.068247	0.3193	0.13057	0.33569	0.22194	0.070263	0.13455	0.22316	-2.3563	-2.7729	-2.5729	-3.2313	-2.6271	-2.7417	-3.1896	-2.8167	-2.7938	-2.8187	-2.6271	-3.0396	-2.7687	-2.7896	-2.8146	-2.7062	287.937	396.524	290.083	410.325	247.757	441.363	505.075	455.134	461.328	328.587	191.495	181.375	431.301	456.223	288.376	482.307	0.00022301	0.00018363	8.9463e-05	967.21	2.998e-06	2.4449e-06	1000.7	202.87	1.8815e-06	3.0087e-06	247.74	70.734	57.15	17.318	1.9738e-06	23.449	0.00028033	0.00031445	9.7195e-05	983.34	3.937e-06	3.6772e-06	1018.4	208.01	3.5234e-06	3.8043e-06	254.15	73.635	58.979	18.1	3.5296e-06	24.669	226.842	256.930	256.247	179.433	321.586	338.621	179.346	186.101	305.376	322.447	186.031	191.906	192.036	198.503	323.357	198.262	-8191	255	
14616.420	1	1	0	0	0.3725	0.057977	0.19745	0.13968	0.11127	0.12501	0.20894	0.27901	0.15382	0.10948	0.12587	0.1457	0.15749	0.041312	0.26718	0.16756	-2.3375	-2.6479	-2.4792	-2.9021	-2.5958	-2.4667	-3.0521	-2.6562	-2.7896	-2.8229	-2.8063	-2.9	-2.7438	-2.6104	-3.0729	-2.7479	468.722	404.466	421.712	175.640	467.752	276.517	448.642	490.706	266.481	227.204	195.426	482.280	195.222	288.667	361.116	391.655	0.00021614	0.00023615	6.1758e-05	966.16	1.6935e-06	2.9311e-06	1000.5	203.43	2.2624e-06	3.0304e-06	247.61	70.708	57.462	17.35	2.3048e-06	23.655	0.0002632	0.00031602	9.6756e-05	981.75	3.7154e-06	3.8347e-06	1019.7	208.13	3.6124e-06	3.4644e-06	254.54	73.449	59.224	18.093	3.2938e-06	24.727	225.970	283.724	260.074	179.418	303.918	305.343	179.174	186.213	293.305	329.843	185.937	192.027	192.124	198.453	316.294	198.096	-8191	255	
14616.514	1	1	0	0	0.098878	0.21431	0.061474	0.44245	0.24733	0.26735	0.35567	0.21466	0.11698	0.040418	0.030946	0.14468	0.14528	0.050596	0.20374	0.10851	-2.1312	-2.9604	-2.5958	-3.0042	-2.6813	-2.5292	-3.0646	-2.8187	-2.4333	-2.8167	-2.6	-2.6479	-2.7333	-2.5208	-3.1208	-2.9125	298.525	173.834	315.854	499.523	500.991	384.821	497.228	502.618	258.296	366.612	431.141	454.211	505.355	285.130	283.268	390.818	0.00021046	0.0003518	7.8744e-05	966.37	2.3845e-06	2.315e-06	1004.3	204.18	2.4224e-06	2.718e-06	248.75	70.899	56.916	17.371	2.3451e-06	23.748	0.00026183	0.00032167	8.6109e-05	984.29	3.7379e-06	3.6772e-06	1023.3	208.82	3.7472e-06	3.6703e-06	255.32	73.707	59.327	18.176	3.4774e-06	24.828	226.288	260.368	266.486	179.443	317.424	317.303	179.435	186.288	308.838	296.193	185.861	191.710	192.300	198.432	303.402	198.402	-8191	255	
14616.587	1	1	0	0	0.062883	0.14366	0.14542	0.50307	0.26644	0.024639	0.27683	0.2195	0.19262	0.081273	0.17585	0.26697	0.082566	0.072893	0.16564	0.17162	-2.3021	-2.8208	-2.5167	-2.8646	-2.9604	-2.5375	-3.1083	-2.7938	-2.7792	-2.9083	-2.6063	-2.9479	-2.7271	-2.6083	-2.9708	-2.9062	208.536	456.507	444.466	520.241	490.107	393.233	448.698	504.971	360.187	309.915	447.093	275.844	516.839	445.629	241.347	441.028	0.00020525	0.00028792	6.6631e-05	975.01	3.0931e-06	2.596e-06	1003.8	203.9	2.2406e-06	2.0023e-06	247.82	71.184	56.924	17.377	2.1427e-06	23.736	0.00026748	0.00033559	9.0936e-05	987.1	3.7001e-06	3.521e-06	1024	209.04	3.6247e-06	3.3446e-06	254.99	73.816	59.083	18.144	3.356e-06	24.789	225.869	245.548	272.518	179.311	330.950	330.883	179.405	186.205	309.468	301.291	185.931	191.743	191.870	198.786	326.861	198.441	-8191	255	
14616.684	1	1	0	0	0.14714	0.047443	0.37111	0.13926	0.24501	0.25652	0.17275	0.30288	0.018188	0.10455	0.28447	0.14237	0.34903	0.15129	0.16939	0.17449	-2.1479	-2.7646	-2.6437	-3.0146	-3.0896	-2.8604	-3.0292	-2.8208	-2.5687	-3.0104	-2.8625	-2.9396	-2.8729	-2.7167	-2.8917	-2.8833	408.108	202.345	347.760	420.787	487.889	347.481	454.823	467.669	494.852	453.079	465.143	472.895	484.456	436.561	196.551	334.184	0.00021312	0.00026958	7.1548e-05	969.52	1.9735e-06	2.2613e-06	1004.5	204.12	2.1833e-06	2.013e-06	248.61	71.156	57.136	17.37	2.2248e-06	23.604	0.00026642	0.00030754	8.8917e-05	986.34	3.6586e-06	3.8034e-06	1023.5	208.79	3.6379e-06	3.6056e-06	254.89	73.661	59.287	18.116	3.4193e-06	24.725	227.409	249.031	270.476	179.225	338.044	320.524	179.349	186.230	313.108	324.759	185.868	191.737	192.366	198.558	297.485	198.356	-8191	255	
14616.802	1	1	0	0	0.2493	0.24125	0.20698	0.036995	0.01799	0.16063	0.16529	0.18981	0.22823	0.20808	0.20639	0.17889	0.25149	0.14757	0.091562	0.074973	-2.1833	-2.9229	-2.5625	-2.7625	-2.8688	-2.6146	-3.15	-2.7542	-2.6	-2.8937	-2.6729	-2.8667	-2.8688	-2.6375	-2.95	-2.8479	269.725	285.311	420.396	423.373	228.341	477.400	195.291	471.408	457.138	206.567	442.968	215.337	429.154	418.495	175.704	193.768	0.00021546	0.00021984	5.9488e-05	969.49	2.8682e-06	2.4376e-06	1002.2	203.55	2.8297e-06	2.2719e-06	249.09	70.819	57.546	17.351	2.74e-06	23.792	0.00027478	0.00032251	9.3451e-05	986.1	3.7875e-06	3.5811e-06	1022.9	208.78	3.7401e-06	3.529e-06	255.17	73.687	59.327	18.137	3.2346e-06	24.76	224.729	268.846	269.443	179.266	306.377	322.568	179.142	186.084	301.490	330.979	185.911	191.811	192.143	198.714	307.115	198.183	-8191	255	
14616.899	1	1	0	0	0.22582	0.19342	0.11764	0.083098	0.2438	0.19043	0.26044	0.11226	0.31647	0.13043	0.063983	0.24707	0.32832	0.2626	0.27323	0.21106	-2.0875	-2.9813	-2.7396	-2.5792	-2.975	-2.6229	-2.8354	-3.0667	-2.4958	-2.7208	-2.9646	-2.6042	-2.8208	-2.8771	-2.8708	-2.9667	457.499	367.020	210.229	425.189	389.955	236.727	385.873	501.125	472.847	296.538	425.750	507.370	200.703	488.675	418.314	395.880	0.00021191	0.00017805	4.7552e-05	970.19	2.7325e-06	3.2154e-06	1006.2	203.59	2.9207e-06	2.1898e-06	247.9	70.786	57.053	17.436	2.3681e-06	23.59	0.00027252	0.00031089	8.7367e-05	985.93	3.7965e-06	3.6712e-06	1023.7	208.6	3.5269e-06	3.2716e-06	254.8	73.671	59.177	18.11	3.4514e-06	24.743	225.287	264.211	264.910	179.405	316.569	321.217	179.426	186.312	302.734	307.651	186.089	192.098	191.992	198.892	309.986	198.703	-8191	255	
14616.995	1	1	0	0	0.26694	0.12771	0.10904	0.30906	0.22656	0.36335	0.17065	0.11641	0.1195	0.14772	0.2569	0.39098	0.067844	0.21644	0.13572	0.081894	-2.2208	-2.7562	-2.7208	-2.6417	-2.9229	-2.7521	-2.9458	-2.9146	-2.7167	-2.9083	-2.8917	-2.65	-3.0563	-2.8521	-2.5625	-2.7729	189.288	361.778	467.496	191.716	313.240	208.901	435.500	402.426	340.718	501.732	477.831	376.282	483.348	351.747	337.201	259.807	0.00021945	0.00025839	8.2269e-05	969.14	2.415e-06	2.6564e-06	1005.3	203.72	3.1009e-06	3.0137e-06	248.81	70.834	57.223	17.38	2.7873e-06	23.603	0.00028015	0.00031989	9.7955e-05	986.25	3.6523e-06	3.5739e-06	1023.3	208.98	3.5806e-06	3.6068e-06	255.16	73.604	59.173	18.134	3.4483e-06	24.705	227.653	259.709	262.789	179.310	309.949	309.574	179.289	186.243	301.388	313.921	185.905	191.502	191.773	198.405	310.220	198.682	-8191	255	
14617.091	1	1	0	0	0.073921	0.25947	0.11152	0.065457	0.082942	0.24364	0.28584	0.28546	0.072187	0.05498	0.094186	0.096571	0.26477	0.11574	0.14634	0.19687	-2.2208	-2.8542	-2.9458	-2.7833	-2.7979	-2.6604	-2.7271	-2.8875	-2.6708	-2.8833	-2.8229	-2.5354	-2.9917	-2.5833	-2.5375	-2.8438	505.708	248.200	456.259	317.858	269.794	189.304	475.833	224.632	250.634	393.656	417.226	349.886	524.050	224.877	350.726	489.427	0.00020605	0.00023089	9.219e-05	974.04	2.4461e-06	2.793e-06	1005.6	204.21	2.3786e-06	3.0492e-06	248.96	70.939	57.145	17.368	2.0144e-06	23.655	0.00026519	0.00031351	8.7572e-05	987.27	3.6162e-06	3.6015e-06	1022.5	209.19	3.7304e-06	3.4201e-06	255.09	73.759	59.249	18.168	3.3771e-06	24.76	229.543	263.289	267.893	179.367	299.879	318.400	179.240	186.359	312.168	310.511	185.803	191.724	192.159	198.677	313.616	198.401	-8191	255	
14617.187	1	1	0	0	0.13987	0.044375	0.098429	0.22349	0.39039	0.1446	0.23675	0.17082	0.018924	0.11487	0.18604	0.30653	0.18536	0.080019	0.29147	0.077626	-2.2479	-2.7333	-2.8563	-2.6021	-2.8625	-2.6146	-2.9104	-2.9313	-2.6937	-2.975	-2.975	-2.5646	-2.8958	-2.6875	-2.6021	-2.8438	202.089	336.268	308.020	519.922	365.664	210.435	416.159	464.629	428.362	456.918	248.068	445.430	459.431	528.240	290.776	386.202	0.00021313	0.00020671	5.1125e-05	973.51	2.2465e-06	2.7932e-06	1003.4	203.85	2.6997e-06	2.5933e-06	248.6	70.727	57.482	17.411	2.0029e-06	23.642	0.00027269	0.00031571	8.1927e-05	986.96	3.728e-06	3.39e-06	1024	208.67	3.6564e-06	3.4943e-06	255.49	73.606	59.244	18.138	3.4313e-06	24.74	226.698	262.736	287.411	179.371	301.867	318.909	179.385	186.374	303.642	336.264	186.126	191.534	192.317	198.651	305.821	198.414	-8191	255	
14617.283	1	1	0	0	0.24602	0.19513	0.15497	0.23082	0.26391	0.40624	0.21788	0.15331	0.12207	0.19453	0.20545	0.070804	0.27317	0.1029	0.065589	0.15049	-2.3812	-2.825	-2.9146	-2.625	-2.9292	-2.8063	-2.7208	-3.0167	-2.6292	-2.7583	-2.8708	-2.6813	-2.5917	-2.9792	-2.5521	-2.8625	338.823	243.559	344.597	453.845	522.959	198.141	451.753	172.616	491.914	313.283	525.732	398.469	499.826	171.748	320.553	505.480	0.00021619	0.00031709	5.9985e-05	969.72	3.1099e-06	2.8424e-06	1001.6	204.68	2.9102e-06	2.0266e-06	247.86	70.834	56.925	17.268	2.3123e-06	23.64	0.00027416	0.00033141	8.3331e-05	985.49	3.7028e-06	3.4069e-06	1023.4	209.15	3.7075e-06	3.9157e-06	254.73	73.519	59.178	18.06	3.4393e-06	24.724	227.411	254.547	258.912	179.286	299.078	327.144	179.421	186.608	299.479	311.886	185.964	191.960	192.123	198.221	291.907	198.471	-8191	255	
14617.379	1	1	0	0	0.16779	0.14201	0.069092	0.14926	0.17625	0.20955	0.13252	0.15788	0.098245	0.17722	0.30214	0.10914	0.185	0.18291	0.2675	0.11144	-2.4542	-2.6083	-2.8979	-2.8104	-2.7292	-3.0542	-2.7812	-2.8729	-2.7792	-2.5021	-2.8563	-2.6625	-2.5854	-2.8896	-2.4479	-2.8208	482.168	311.065	207.028	527.858	301.306	205.305	448.545	184.323	364.405	476.601	230.661	455.853	368.912	196.254	463.571	438.487	0.00021313	0.00030059	5.3115e-05	969.1	2.7096e-06	2.1812e-06	999.92	203.75	2.1318e-06	2.0455e-06	248.47	70.491	56.918	17.275	2.7985e-06	23.547	0.00026844	0.00032764	8.3243e-05	985.52	3.8632e-06	3.5619e-06	1022.7	208.6	3.5736e-06	3.4548e-06	254.72	73.415	59.002	18.056	3.4724e-06	24.691	226.701	251.140	272.210	179.335	310.273	338.555	179.250	186.142	313.298	315.635	185.831	191.951	192.200	198.388	331.128	198.342	-8191	255	
14617.500	1	1	0	0	0.12715	0.21656	0.30832	0.062389	0.11132	0.086083	0.18625	0.27907	0.071415	0.099253	0.16638	0.16205	0.40737	0.14338	0.079617	0.28439	-2.3604	-2.5396	-2.8583	-2.7104	-2.525	-2.9688	-2.8021	-3.1229	-2.5312	-2.4188	-3.0375	-2.6708	-2.8354	-2.9396	-2.5542	-2.9146	404.552	428.502	288.701	198.326	257.237	440.888	428.793	519.098	190.760	521.871	281.218	397.833	390.145	445.468	444.789	228.198	0.00022413	0.00025816	8.3514e-05	971.7	1.8709e-06	1.9213e-06	1004.6	203.68	2.4568e-06	3.4311e-06	248.52	70.904	56.887	17.314	2.2967e-06	23.557	0.00027128	0.00033664	8.3828e-05	987.17	3.7532e-06	3.1617e-06	1024.1	208.68	3.6071e-06	3.6487e-06	254.93	73.469	59.061	18.06	3.4915e-06	24.675	226.587	249.153	261.618	179.361	307.760	316.815	179.333	186.190	308.591	313.398	186.157	191.941	192.138	198.433	317.419	198.643	-8191	255	
14617.594	1	1	0	0	0.1091	0.11856	0.11939	0.23431	0.20474	0.048283	0.058566	0.1279	0.33746	0.22035	0.098866	0.13435	0.05099	0.22732	0.091646	0.31516	-2.2625	-2.5375	-2.7729	-2.7104	-2.6896	-2.9229	-2.6208	-2.8625	-2.7854	-2.4	-2.8396	-2.6854	-2.6646	-2.7417	-2.5458	-2.7417	459.888	289.683	512.355	468.152	520.411	243.363	171.084	411.567	359.549	375.566	392.171	467.640	327.971	173.339	398.484	504.848	0.00021325	0.00021365	7.7343e-05	967.97	2.7621e-06	2.6841e-06	1001.2	203.96	2.6948e-06	2.69e-06	248.46	70.334	56.429	17.309	2.0782e-06	23.634	0.00026159	0.00036867	9.155e-05	984.98	3.8091e-06	3.6039e-06	1021.6	208.64	3.6406e-06	3.784e-06	254.62	73.265	58.954	18.014	3.3169e-06	24.68	227.095	267.469	251.398	179.255	310.621	337.553	179.111	186.113	317.739	327.900	185.943	191.896	192.278	199.064	318.274	198.512	-8191	255	
14617.690	1	1	0	0	0.14509	0.093377	0.26557	0.086569	0.080152	0.34959	0.043582	0.28335	0.1505	0.24681	0.33814	0.16004	0.16696	0.25759	0.033226	0.058638	-2.1667	-2.4792	-2.9125	-2.8438	-2.4979	-2.7854	-2.7104	-2.7771	-2.8271	-2.575	-2.8104	-2.7729	-2.4958	-2.8979	-2.5521	-2.7375	464.334	218.460	418.422	380.071	239.622	450.348	236.505	438.709	230.624	273.325	438.596	255.845	430.382	185.614	409.028	513.765	0.00021198	0.00025358	7.5791e-05	964.97	2.182e-06	2.7279e-06	1001.9	202.33	2.7785e-06	2.7652e-06	248.03	70.555	57.29	17.192	2.6281e-06	23.421	0.00026889	0.00031801	9.1491e-05	982.36	4.0019e-06	3.4465e-06	1020.4	207.87	3.4353e-06	3.7636e-06	254.36	73.201	58.999	18	3.5597e-06	24.622	225.974	266.508	250.712	179.355	332.715	298.774	179.366	186.455	307.821	316.000	185.847	191.705	192.338	198.427	292.588	198.445	-8191	255	
14617.788	1	1	0	0	0.21771	0.20616	0.1756	0.2295	0.10349	0.14152	0.30028	0.36906	0.19195	0.095658	0.10461	0.24318	0.055122	0.41088	0.13979	0.17543	-2.4188	-2.5938	-2.8646	-2.9208	-2.5167	-2.8812	-2.8292	-2.8896	-2.825	-2.7021	-2.8396	-2.6833	-2.6354	-2.6437	-2.5271	-2.8187	190.898	376.539	430.433	513.858	173.108	313.839	180.651	512.504	495.211	408.316	428.572	520.542	252.951	525.267	229.638	335.531	0.00021732	0.00024191	8.5065e-05	967.02	2.7042e-06	2.753e-06	998.25	202.63	2.2303e-06	3.4069e-06	247.94	70.572	56.976	17.246	2.512e-06	23.389	0.00026998	0.00033067	8.7104e-05	982.01	3.9542e-06	3.4585e-06	1019	207.67	3.4723e-06	3.8331e-06	253.81	73.196	58.837	17.975	3.4182e-06	24.57	226.982	253.531	263.035	179.461	315.713	316.000	179.408	186.292	308.558	328.312	185.874	192.341	192.080	198.477	329.725	198.544	-8191	255	
14617.883	1	1	0	0	0.28347	0.1368	0.18858	0.1801	0.15521	0.09548	0.10934	0.48299	0.22183	0.10881	0.051455	0.35749	0.15285	0.13179	0.043796	0.19215	-2.4333	-2.5333	-2.775	-2.7062	-2.6146	-2.9813	-2.8208	-2.6188	-2.8792	-2.425	-2.9729	-2.7542	-2.5687	-2.8	-2.7208	-2.5833	468.141	182.960	279.241	183.939	456.836	332.261	441.615	488.804	440.121	525.108	383.278	178.814	445.560	421.085	283.194	480.105	0.00021378	0.00024527	4.3011e-05	965.26	2.5035e-06	2.7437e-06	997.16	202.93	2.3017e-06	2.7784e-06	247.33	70.377	56.828	17.205	2.649e-06	23.41	0.00026467	0.00033203	8.491e-05	980.1	3.8623e-06	3.6063e-06	1016.6	207.38	3.5463e-06	3.8019e-06	253.89	73.076	58.865	17.974	3.5166e-06	24.591	225.470	261.627	246.091	179.372	308.979	322.757	179.481	186.324	302.824	341.152	185.612	191.914	192.316	198.594	317.471	198.518	-8191	255	
14617.979	1	1	0	0	0.22164	0.1491	0.1683	0.11171	0.20289	0.050752	0.27795	0.097148	0.075839	0.13462	0.13722	0.16803	0.20689	0.072097	0.45817	0.10962	-2.5312	-2.4417	-2.6437	-2.9813	-2.4875	-2.8104	-2.9083	-2.7708	-2.9104	-2.6729	-2.8792	-2.8812	-2.5104	-2.9333	-2.7938	-2.5458	185.152	420.112	254.226	496.001	400.851	393.418	462.309	173.445	333.147	420.709	372.181	380.275	474.602	478.738	229.404	484.549	0.00020306	0.00028065	8.5924e-05	964.21	2.2294e-06	1.8325e-06	994.5	202.55	2.2584e-06	2.3838e-06	247.52	70.426	57.157	17.169	2.619e-06	23.455	0.00026532	0.00035161	9.0468e-05	981.04	3.8785e-06	3.5487e-06	1017.9	207.57	3.6714e-06	3.5242e-06	254.24	73.193	58.821	17.967	3.2938e-06	24.538	225.438	266.577	257.646	179.244	305.068	310.175	179.438	186.299	303.993	320.437	185.947	191.876	192.136	198.788	307.999	198.878	-8191	255	
14618.100	1	1	0	0	0.3094	0.25191	0.10869	0.22729	0.22663	0.043507	0.27118	0.11829	0.21905	0.13532	0.23029	0.048945	0.21196	0.078203	0.028825	0.095854	-2.3729	-2.5687	-2.5812	-2.9396	-2.5042	-2.8688	-2.8896	-2.6375	-2.7542	-2.8021	-2.6583	-2.8521	-2.5208	-2.9	-2.8729	-2.65	418.825	248.036	501.195	519.417	316.199	234.573	431.450	201.047	435.966	404.710	509.046	341.769	391.363	217.167	371.164	173.315	0.00021117	0.00028377	0.00010177	964.07	2.5155e-06	2.4187e-06	999.45	203.04	1.8674e-06	2.1611e-06	247.93	69.799	56.678	17.181	2.4581e-06	23.4	0.00026485	0.00032157	9.4328e-05	980.77	4.0136e-06	3.5475e-06	1017.9	207.72	3.7013e-06	3.6894e-06	253.77	73.008	58.683	17.945	3.4333e-06	24.535	227.100	255.254	273.225	179.626	313.858	318.772	179.326	186.475	302.165	316.235	185.668	191.879	192.064	198.988	306.934	198.458	-8191	255	
14618.196	1	1	0	0	0.25628	0.054732	0.073418	0.0076125	0.41322	0.18389	0.25064	0.11565	0.13576	0.10501	0.20633	0.092716	0.19617	0.086406	0.2201	0.32832	-2.3937	-2.6333	-2.6208	-2.9396	-2.5396	-2.6917	-3.0125	-2.6646	-2.8563	-2.6396	-2.6688	-2.9354	-2.8083	-2.7125	-2.9729	-2.4854	235.178	346.826	481.040	435.103	455.156	470.043	518.900	198.702	481.658	253.563	433.327	177.145	494.708	496.285	315.318	280.833	0.00021308	0.00028746	7.7675e-05	964.71	3.3157e-06	2.1364e-06	1002.4	201.91	2.7935e-06	2.7549e-06	245.96	70.141	56.583	17.133	2.0892e-06	23.413	0.00026032	0.0003088	9.8687e-05	980.4	3.8001e-06	3.6436e-06	1017.4	207.24	3.7031e-06	3.5278e-06	252.87	72.865	58.6	17.856	3.2828e-06	24.491	223.811	271.245	263.442	179.175	330.728	319.868	179.343	186.233	297.769	330.456	186.109	192.133	192.268	198.902	308.956	198.608	-8191	255	
14618.292	1	1	0	0	0.089962	0.29988	0.12865	0.055217	0.04885	0.032547	0.093499	0.21566	0.18003	0.21497	0.37832	0.1728	0.18877	0.24632	0.12263	0.13406	-2.3625	-2.7729	-2.5229	-3.0458	-2.7583	-2.6146	-2.9813	-2.6562	-2.7667	-2.8708	-2.6625	-3.0812	-2.5958	-2.6896	-2.8833	-2.6	521.380	267.446	527.621	194.544	504.456	404.791	228.845	464.175	307.321	456.235	492.534	253.318	420.157	526.403	442.067	186.700	0.00021317	0.0002377	4.604e-05	958.37	1.9587e-06	2.258e-06	992.42	201.62	2.3515e-06	2.8975e-06	244.94	69.386	56.617	17.075	2.7806e-06	23.326	0.00026731	0.00033402	9.2398e-05	975.52	3.81e-06	3.6003e-06	1013.1	206.22	3.7947e-06	3.5721e-06	252.04	72.444	58.184	17.816	3.4393e-06	24.384	226.972	240.910	291.313	179.275	311.132	325.785	179.492	186.296	310.443	334.686	186.195	192.165	192.435	198.663	297.680	198.717	-8191	255	
14618.388	1	1	0	0	0.054428	0.17629	0.1371	0.2988	0.28446	0.05429	0.2807	0.11335	0.096059	0.080078	0.19975	0.19101	0.26014	0.11728	0.16337	0.22755	-2.4146	-2.8167	-2.5542	-2.8292	-2.5229	-2.5958	-3.0854	-2.5896	-2.8625	-2.9417	-2.6792	-2.8521	-2.8208	-2.5708	-3.0687	-2.6104	215.804	409.457	440.760	490.825	188.604	528.120	478.984	370.953	313.268	518.363	239.841	527.415	471.985	523.086	477.801	197.977	0.00022255	0.00019869	8.4526e-05	960.4	2.724e-06	2.7566e-06	994.41	200.95	2.3943e-06	2.9935e-06	244.99	69.767	56.452	17.106	2.0001e-06	23.456	0.00027419	0.00030848	9.3217e-05	976.12	3.7622e-06	3.8383e-06	1012.2	205.69	3.6238e-06	3.7816e-06	251.8	72.484	58.341	17.842	3.3209e-06	24.463	228.804	255.924	263.138	179.290	310.665	316.693	179.370	186.402	311.637	319.226	185.833	192.061	192.388	198.569	310.363	198.565	-8191	255	
14618.484	1	1	0	0	0.12228	0.18724	0.14093	0.16673	0.13409	0.36266	0.32748	0.1371	0.047232	0.091446	0.064163	0.074104	0.081037	0.24819	0.087703	0.1615	-2.4833	-2.8833	-2.4938	-3.0021	-2.7625	-2.4625	-3.1125	-2.8646	-2.7104	-2.9146	-2.6937	-2.7708	-2.6646	-2.7042	-2.9104	-2.6083	299.697	471.293	253.232	522.822	436.493	266.658	468.130	377.661	441.124	254.452	505.650	465.753	338.659	393.820	362.736	272.941	0.00022571	0.00028689	5.4232e-05	962.04	2.3492e-06	2.6295e-06	997.8	201.51	2.3406e-06	2.173e-06	245.49	70.358	56.433	17.095	2.2309e-06	23.505	0.00026776	0.00033078	9.9184e-05	977.45	3.7118e-06	3.4585e-06	1015	206.52	3.6599e-06	3.4284e-06	252.59	72.955	58.766	17.91	3.4213e-06	24.581	226.917	261.675	250.127	179.268	321.163	334.229	179.246	186.598	289.069	320.920	185.923	192.016	192.281	198.692	316.517	198.849	-8191	255	
14618.580	1	1	0	0	0.18665	0.0048286	0.14114	0.17324	0.10969	0.19741	0.2092	0.13802	0.09056	0.18049	0.14511	0.091967	0.16618	0.23087	0.22138	0.28613	-2.1979	-2.7208	-2.6958	-2.8583	-2.7146	-2.6229	-2.8896	-2.8271	-2.5938	-2.8021	-2.6354	-2.6958	-2.6458	-2.5521	-2.7917	-2.8333	192.843	475.164	457.242	403.530	448.841	241.987	370.183	344.740	418.440	260.421	436.201	215.121	386.912	448.902	497.037	472.790	0.00020519	0.00038619	7.5928e-05	962.81	2.9347e-06	2.1588e-06	996.15	202.18	2.0924e-06	3.2499e-06	246.24	70.523	56.732	17.165	2.4915e-06	23.321	0.00025769	0.00031539	9.6113e-05	978.91	3.9136e-06	3.8287e-06	1016.8	206.86	3.7022e-06	3.4129e-06	252.99	72.986	58.63	17.882	3.2938e-06	24.448	224.800	266.904	274.903	179.287	300.378	309.841	179.390	186.516	292.893	325.575	186.088	192.106	192.191	198.571	323.424	198.538	-8191	255	
14618.676	1	1	0	0	0.063442	0.084556	0.098181	0.23145	0.077446	0.12343	0.20292	0.097559	0.10887	0.13297	0.20986	0.21085	0.18347	0.2348	0.24935	0.090808	-2.0479	-2.7104	-2.5875	-2.8667	-2.6167	-2.4479	-2.9292	-2.5583	-2.5917	-2.8563	-2.6917	-2.5396	-2.6729	-2.5687	-2.6646	-2.6583	412.563	229.100	239.490	198.152	425.254	278.302	345.374	496.039	510.549	297.614	427.576	184.375	305.139	204.840	268.760	427.934	0.00021314	0.00021597	8.376e-05	962.17	2.5784e-06	2.8002e-06	994.05	199.95	2.6263e-06	3.1936e-06	245.05	69.594	56.091	17.04	1.4083e-06	23.35	0.00027495	0.00031843	9.7721e-05	976.93	3.5811e-06	3.6628e-06	1014	205.85	3.7489e-06	3.5206e-06	251.91	72.477	58.102	17.811	3.357e-06	24.363	225.059	249.324	245.049	179.308	322.449	319.517	179.527	186.261	305.649	301.312	185.894	192.289	192.627	198.575	314.645	198.922	-8191	255	
14618.771	1	1	0	0	0.11924	0.23994	0.1593	0.14738	0.2453	0.073735	0.40082	0.1336	0.30015	0.12158	0.11639	0.08665	0.12139	0.03156	0.14367	0.152	-2.0854	-2.7938	-2.5625	-2.8167	-2.7375	-2.4875	-2.9021	-2.5479	-2.5292	-2.7521	-2.7167	-2.5854	-2.9271	-2.6271	-2.8187	-2.6542	270.785	334.795	186.204	512.699	482.225	274.901	506.020	374.048	520.162	480.608	443.607	498.276	278.774	489.944	491.397	250.267	0.00021111	0.00028363	8.6779e-05	959.98	2.0722e-06	2.6963e-06	994.5	200.49	2.3879e-06	2.518e-06	245.39	69.397	56.485	17.003	2.4979e-06	23.219	0.00026539	0.0003155	9.6873e-05	975.92	3.7181e-06	3.801e-06	1012.7	205.65	3.674e-06	3.5158e-06	251.61	72.26	58.175	17.749	3.5326e-06	24.289	224.865	252.969	252.884	179.391	331.562	316.900	179.308	186.411	294.013	317.806	186.102	191.948	192.174	198.929	316.138	198.762	-8191	255	
14618.891	1	1	0	0	0.12726	0.079939	0.19061	0.11126	0.085334	0.081664	0.33564	0.37955	0.38493	0.27495	0.21335	0.093166	0.058558	0.12638	0.20328	0.035394	-2.0875	-2.6729	-2.5625	-2.8625	-2.7875	-2.5771	-2.7188	-2.7521	-2.4625	-2.8542	-2.8292	-2.6042	-2.9229	-2.7167	-2.6292	-2.8167	359.169	515.509	252.572	492.584	516.360	172.229	468.009	195.834	203.946	502.993	509.958	430.475	354.500	281.866	477.250	176.026	0.00021365	0.00027916	5.9239e-05	960.89	2.6492e-06	2.7146e-06	990.01	200.21	2.1767e-06	1.8638e-06	243.88	69.573	55.791	16.87	2.4684e-06	23.084	0.00027529	0.00032586	9.3714e-05	975.08	3.6748e-06	3.5811e-06	1010.4	204.81	3.7842e-06	3.6296e-06	250.74	72.179	57.796	17.686	3.5075e-06	24.246	226.094	249.261	266.913	179.334	306.800	328.190	179.371	186.388	298.577	319.839	186.047	191.838	192.124	198.721	307.193	198.894	-8191	255	
14618.988	1	1	0	0	0.13768	0.20038	0.092426	0.016859	0.22837	0.048323	0.159	0.30027	0.033469	0.10067	0.085892	0.08518	0.33305	0.011455	0.030855	0.035832	-1.9917	-2.8396	-2.7771	-2.5979	-2.7667	-2.675	-2.7042	-2.9104	-2.5062	-2.825	-2.8271	-2.5812	-2.7	-2.5875	-2.55	-2.9667	235.001	256.528	201.870	293.512	313.875	244.809	453.948	471.799	169.032	330.884	467.934	400.759	482.173	294.347	466.161	244.100	0.00021104	0.00023534	9.9488e-05	958.08	2.4829e-06	2.6854e-06	995.31	200.84	2.2927e-06	2.4685e-06	243.8	69.568	56.171	17.001	1.1077e-06	23.225	0.00027396	0.00031748	8.9795e-05	973.08	3.8163e-06	3.6953e-06	1012.4	205.16	3.5524e-06	3.6703e-06	250.82	72.339	58.022	17.694	3.5567e-06	24.344	224.287	262.526	262.991	179.335	305.670	311.560	179.362	186.296	296.624	317.212	185.957	191.944	192.329	198.869	325.506	199.048	-8191	255	
14619.059	1	1	0	0	0.074829	0.19917	0.09865	0.15119	0.10603	0.17556	0.32436	0.15111	0.3223	0.14788	0.27367	0.1644	0.28171	0.14131	0.14749	0.20453	-2.0521	-2.7125	-2.6604	-2.5583	-2.7625	-2.7479	-2.8625	-2.9625	-2.6417	-2.8563	-2.7125	-2.525	-2.8688	-2.5875	-2.4917	-2.9437	293.781	470.491	521.919	232.978	431.878	303.274	386.538	495.006	213.288	272.903	204.551	506.487	481.280	355.056	352.057	410.936	0.00019072	0.00015593	6.9154e-05	961.25	2.2669e-06	2.276e-06	989.75	200.37	2.2035e-06	2.2028e-06	245.88	69.999	56.684	17.139	1.586e-06	23.52	0.00025913	0.00031267	8.6811e-05	974.84	3.8145e-06	3.6088e-06	1012.1	205.67	3.5701e-06	3.4751e-06	251.78	72.758	58.707	17.944	3.4363e-06	24.608	228.531	246.655	275.878	179.461	307.521	304.477	179.435	186.183	302.907	310.600	185.819	192.045	192.249	198.878	315.272	198.507	-8191	255	
14619.180	1	1	0	0	0.068899	0.22386	0.09365	0.25691	0.12631	0.1085	0.34269	0.11659	0.16835	0.15086	0.12338	0.1315	0.12793	0.080884	0.19221	0.11993	-2.2146	-2.6771	-2.7146	-2.6979	-2.7354	-2.5812	-2.7708	-2.9188	-2.3729	-2.75	-2.7583	-2.5438	-2.6688	-2.6	-2.6708	-2.9437	491.928	280.204	434.025	484.972	255.373	174.752	432.609	370.281	281.951	376.591	289.129	466.932	495.708	452.452	339.990	464.194	0.00022156	0.00020355	7.6397e-05	965.55	2.8618e-06	2.5886e-06	1001	203.64	2.224e-06	2.5178e-06	249.62	71.889	58.297	17.741	3.1851e-06	24.229	0.00027577	0.00034282	9.0292e-05	981.85	3.7145e-06	3.902e-06	1021.1	208.82	3.7577e-06	3.7086e-06	256.14	74.517	60.188	18.533	3.6671e-06	25.245	228.192	244.290	265.840	179.257	319.144	321.141	179.137	186.390	298.410	332.571	186.087	191.713	191.982	198.524	318.745	198.002	-8191	255	
14619.276	1	1	0	0	0.41957	0.3754	0.18626	0.20049	0.21165	0.26972	0.013673	0.2261	0.077962	0.26762	0.094759	0.078522	0.2801	0.22486	0.072592	0.072622	-2.0687	-2.5312	-2.7	-2.625	-2.8271	-2.7438	-2.6937	-3.0208	-2.5	-2.6583	-2.7375	-2.4188	-2.8146	-2.8354	-2.4917	-2.8625	413.938	250.029	277.904	511.661	180.855	434.151	303.288	239.721	455.196	236.204	343.078	219.900	405.917	497.152	507.736	195.822	0.00021785	0.00020894	8.8489e-05	978.86	1.782e-06	2.5439e-06	1015.8	209.59	2.8918e-06	2.7064e-06	254.5	74.152	59.796	18.465	1.9505e-06	24.922	0.00028238	0.00033005	0.00010009	993.14	3.8334e-06	3.8623e-06	1034	214.43	3.9331e-06	4.2065e-06	262.11	76.826	62.14	19.267	3.8246e-06	26.123	225.116	266.474	262.562	179.331	308.800	330.178	179.257	186.063	312.786	311.367	186.019	191.487	191.711	197.807	314.713	197.868	-8191	255	
14619.372	1	1	0	0	0.20416	0.064571	0.10798	0.3554	0.086045	0.053338	0.3369	0.24957	0.088208	0.22518	0.21575	0.12582	0.12414	0.21843	0.2218	0.13232	-2.0875	-2.6437	-2.7604	-2.5833	-2.7	-2.8021	-2.7	-2.9021	-2.6479	-2.5708	-2.8729	-2.6292	-2.7667	-2.7792	-2.4854	-2.7958	458.750	478.250	371.533	507.432	411.411	488.574	470.356	417.914	383.451	471.374	426.643	358.923	488.147	487.064	511.237	437.345	0.00021797	0.00026661	6.3247e-05	996.17	1.5412e-06	2.5437e-06	1032	217.9	2.5089e-06	2.4518e-06	265.19	77.209	62.515	19.287	2.5631e-06	25.97	0.00029396	0.00037192	9.582e-05	1012.7	4.0866e-06	4.0017e-06	1054.9	222.49	4.1454e-06	4.1539e-06	272.82	80.222	65.067	20.179	4.0102e-06	27.103	227.091	259.553	262.367	179.356	305.989	321.105	179.252	186.049	302.773	320.190	185.522	191.207	191.221	197.279	317.620	197.710	-8191	255	
14619.468	1	1	0	0	0.12598	0.1761	0.094503	0.10532	0.12388	0.11184	0.19502	0.2053	0.12168	0.30353	0.1222	0.04736	0.21553	0.10675	0.18696	0.13306	-2.2583	-2.575	-2.7792	-2.9167	-2.75	-2.7958	-2.7646	-2.9667	-2.5458	-2.5708	-2.925	-2.7417	-2.7	-2.7188	-2.5812	-2.8937	422.822	375.219	325.806	502.893	380.763	456.840	387.388	461.019	516.450	240.303	456.538	436.015	219.569	474.334	263.743	184.754	0.00024996	0.00025515	8.2287e-05	1017.1	3.0234e-06	2.7874e-06	1055.7	224.46	2.5118e-06	2.224e-06	273.39	79.486	65.537	19.942	2.3886e-06	26.535	0.00030413	0.0003827	0.00010968	1035.1	4.4011e-06	4.2877e-06	1077.9	229.95	4.1895e-06	4.598e-06	280.12	82.414	67.374	20.852	4.1808e-06	27.837	227.107	282.936	255.100	179.358	300.550	318.627	179.291	185.761	291.530	303.903	185.782	190.940	191.110	196.788	311.363	197.544	-8191	255	
14619.589	1	1	0	0	0.21038	0.20541	0.13597	0.26321	0.14097	0.047169	0.26799	0.21174	0.08323	0.29123	0.18704	0.038193	0.19551	0.21971	0.092259	0.064119	-2.3875	-2.5229	-2.9833	-2.5396	-2.775	-2.975	-2.5708	-2.8708	-2.7375	-2.35	-2.9625	-2.6562	-2.5271	-2.9583	-2.6354	-2.8542	497.210	315.348	252.810	509.811	474.283	372.379	451.668	272.614	209.701	276.118	510.794	263.445	284.642	250.828	347.633	504.875	0.00023702	0.00022333	7.0391e-05	1037.6	3.0284e-06	2.7248e-06	1072.7	228.13	2.7259e-06	2.9655e-06	276.85	80.298	65.509	20.073	2.8796e-06	26.536	0.00030413	0.00040426	0.00011141	1055.3	4.457e-06	4.0774e-06	1095.8	234.55	4.3022e-06	4.4005e-06	284.56	83.693	68.031	20.975	4.2861e-06	27.782	225.423	248.742	252.296	179.051	309.906	326.302	179.099	185.608	316.402	325.930	185.313	190.817	190.850	196.718	313.189	197.217	-8191	255	
14619.683	1	1	0	0	0.13389	0.16611	0.18312	0.22853	0.053974	0.14828	0.094139	0.087797	0.18727	0.17521	0.19028	0.041383	0.19539	0.030701	0.14466	0.14477	-2.3208	-2.5667	-2.8438	-3.0125	-2.7313	-3.0167	-2.6917	-2.8604	-2.8521	-2.5563	-2.9479	-2.7771	-2.7604	-2.8708	-2.5917	-2.6792	258.889	237.157	323.551	523.090	199.309	419.966	503.449	448.826	482.083	228.754	337.255	249.346	233.532	175.574	422.153	440.987	0.00024098	0.00031146	7.3331e-05	1042.8	2.5074e-06	3.4282e-06	1080.3	228.93	2.8147e-06	3.3863e-06	275.58	79.154	64.416	19.447	2.8962e-06	26.059	0.00030447	0.00042185	0.0001096	1060.1	4.3588e-06	4.1195e-06	1101.1	233.79	4.1295e-06	4.349e-06	282.1	82.285	66.771	20.409	4.0784e-06	27.278	226.931	254.519	252.593	179.023	308.986	337.160	179.190	185.601	299.025	331.169	185.525	191.112	191.125	197.439	325.307	197.169	-8191	255	
14619.780	1	1	0	0	0.19029	0.024282	0.37522	0.12038	0.18865	0.21655	0.43462	0.30163	0.24503	0.23118	0.21654	0.24232	0.14892	0.12406	0.10216	0.12853	-2.4875	-2.2958	-2.8604	-2.9771	-2.4813	-2.9458	-2.8958	-2.7979	-2.9813	-2.5458	-2.9813	-2.8229	-2.7104	-2.6729	-2.7479	-2.7667	283.319	423.728	229.313	176.465	493.142	296.897	496.245	346.385	379.640	352.796	429.764	444.348	389.348	296.434	190.786	211.979	0.0002367	0.00028671	9.0889e-05	1037.8	3.1792e-06	3.5654e-06	1073.2	224.85	2.7606e-06	2.5115e-06	273.17	78.761	63.781	19.236	2.6294e-06	25.952	0.00029111	0.00037558	0.00011267	1055.6	4.4597e-06	4.1988e-06	1092.7	230.93	4.1472e-06	4.3753e-06	280.07	81.548	66.098	20.213	3.8356e-06	27.105	226.548	251.316	264.597	179.054	319.011	314.360	179.210	185.678	310.306	327.606	185.411	191.376	191.536	197.401	312.328	197.560	-8191	255	
14619.876	1	1	0	0	0.32274	0.16535	0.1752	0.24353	0.062167	0.27673	0.29173	0.033341	0.23183	0.15028	0.2062	0.14338	0.15468	0.12896	0.24775	0.25885	-2.4854	-2.5167	-2.7188	-2.9208	-2.4437	-2.9021	-2.8854	-2.6813	-2.9625	-2.7458	-2.8375	-2.9125	-2.5333	-2.8833	-2.6979	-2.7854	274.182	248.955	408.852	489.648	435.072	214.584	524.973	263.827	481.917	276.877	416.625	516.349	315.562	427.059	346.458	450.602	0.00022704	0.00020548	9.0258e-05	1028.7	2.0157e-06	2.2375e-06	1064	224.07	2.4761e-06	3.0066e-06	271.23	77.995	63.77	19.175	2.3452e-06	25.803	0.00030718	0.0004007	0.00010863	1048.2	4.43e-06	4.0029e-06	1084.8	229.49	4.0159e-06	4.5669e-06	278.2	80.81	65.776	20.079	3.7594e-06	26.973	225.801	256.257	252.364	179.336	302.396	322.017	179.148	185.891	310.286	336.556	185.850	191.227	191.651	197.506	319.814	197.824	-8191	255	
14619.972	1	1	0	0	0.45099	0.3055	0.11308	0.14407	0.083978	0.079629	0.32858	0.31587	0.21901	0.27694	0.067159	0.10155	0.27901	0.37097	0.12909	0.055069	-2.6042	-2.6937	-2.8979	-2.9917	-2.6396	-2.8333	-2.9896	-2.7646	-2.9542	-2.7938	-2.8812	-2.9688	-2.4854	-2.8937	-2.8	-2.7062	368.856	188.020	451.830	523.746	275.055	193.925	475.502	205.627	322.441	269.566	250.170	527.185	429.097	503.268	482.497	391.911	0.00023518	0.0001719	6.171e-05	1027.5	2.769e-06	3.0115e-06	1063.2	222.52	2.7154e-06	2.6003e-06	270.55	77.562	63.502	19.183	2.2995e-06	25.614	0.00030649	0.00038929	9.5177e-05	1044.2	4.375e-06	4.3851e-06	1082.4	228.43	4.1287e-06	4.2915e-06	277.23	80.501	65.572	19.99	3.9189e-06	26.891	226.810	273.377	238.550	179.281	308.684	318.767	179.131	185.918	286.768	321.941	185.569	191.130	191.247	197.439	302.169	197.693	-8191	255	
14620.068	1	1	0	0	0.031312	0.20704	0.09138	0.38278	0.11595	0.13659	0.31644	0.043095	0.11066	0.38218	0.32599	0.037725	0.21199	0.11175	0.029635	0.085111	-2.5271	-2.7604	-2.6396	-3.1562	-2.6208	-2.8146	-2.8208	-2.5563	-2.8146	-2.6521	-2.8	-3.0667	-2.6479	-3.0625	-2.7938	-2.7479	316.037	491.083	367.420	524.774	295.007	259.299	413.012	411.401	234.225	430.242	426.411	351.844	287.747	380.483	205.875	216.027	0.00022844	0.00025453	5.8273e-05	1023.3	3.0404e-06	1.2359e-06	1058.7	222.72	2.4343e-06	1.1437e-06	268.73	77.626	63.166	19.221	1.7863e-06	25.727	0.00029516	0.0003984	0.00010925	1040.6	4.2984e-06	4.206e-06	1080.9	228.12	4.0599e-06	4.3203e-06	276.82	80.542	65.376	20.051	3.965e-06	26.916	225.749	257.579	254.977	179.246	318.436	334.895	179.113	185.832	296.153	341.786	185.400	191.653	191.595	197.517	294.328	197.957	-8191	255	
14620.164	1	1	0	0	0.13797	0.12354	0.080733	0.23739	0.035697	0.16894	0.17168	0.18959	0.12331	0.14533	0.3297	0.28124	0.066344	0.19216	0.15064	0.096334	-2.4667	-2.7938	-2.6292	-2.9729	-2.6479	-2.8271	-2.9	-3.025	-2.9167	-2.7521	-2.6896	-3.2125	-2.8104	-2.8229	-2.9562	-2.5479	502.389	376.430	199.424	474.740	338.763	445.665	297.809	394.967	188.975	181.324	216.450	317.095	468.209	372.097	290.470	496.544	0.00023641	0.00032213	8.9428e-05	1021.4	2.1634e-06	3.0633e-06	1053.4	221.38	2.2568e-06	3.3785e-06	268.85	77.524	62.708	19.091	2.3087e-06	25.525	0.00029981	0.00037317	0.0001108	1037.9	4.3966e-06	4.5197e-06	1075.9	226.92	4.1472e-06	4.1204e-06	275.64	80.247	64.988	19.989	3.8667e-06	26.815	226.997	265.780	254.156	179.237	307.057	300.748	179.278	185.850	295.704	318.887	185.730	191.531	191.516	197.824	300.567	197.909	-8191	255	
14620.285	1	1	0	0	0.076084	0.23928	0.10433	0.33621	0.12749	0.17846	0.20445	0.3198	0.031249	0.16096	0.059236	0.18916	0.15685	0.25873	0.056206	0.14966	-2.5563	-2.7458	-2.5604	-3.1292	-2.5187	-2.6063	-2.9958	-2.575	-2.7604	-2.7271	-2.6229	-3.0417	-2.75	-2.6688	-3.2208	-2.6104	473.121	358.387	415.182	493.601	350.222	447.920	460.745	503.625	196.937	472.812	329.023	486.760	394.269	367.982	516.677	383.804	0.00022508	0.00026287	7.682e-05	1019.1	2.8149e-06	2.5715e-06	1052.4	220.71	2.2033e-06	3.3999e-06	267.9	77.302	62.481	19.159	2.397e-06	25.631	0.00029632	0.00036689	0.00010284	1034.3	4.3741e-06	4.2673e-06	1073.8	226.6	4.0564e-06	4.2365e-06	275	80.313	65.225	20.04	3.9319e-06	26.894	225.753	282.604	259.472	179.382	319.187	331.388	179.194	185.918	315.661	319.821	185.684	191.107	191.675	197.397	310.066	197.865	-8191	255	
14620.356	1	1	0	0	0.10174	0.44373	0.004518	0.29276	0.27923	0.34446	0.11481	0.24488	0.21956	0.2063	0.18556	0.18334	0.29545	0.31196	0.13248	0.22209	-2.3917	-2.8604	-2.5583	-2.9062	-2.5854	-2.7583	-3.0292	-2.6167	-2.9083	-2.6063	-2.6771	-2.8937	-2.8375	-2.5875	-2.8875	-2.675	259.688	278.156	497.133	445.551	322.913	376.043	259.220	501.950	309.837	510.560	418.079	173.284	472.936	435.821	285.791	526.160	0.00023022	0.00028771	5.372e-05	1019.1	3.1382e-06	3.0478e-06	1054.5	220.75	2.9688e-06	3.0246e-06	268.72	77.326	63.345	19.281	1.903e-06	25.769	0.000303	0.00038689	9.9301e-05	1034.1	4.4417e-06	4.1495e-06	1073.8	226.31	4.163e-06	4.1718e-06	275.64	80.417	65.403	20.094	3.8236e-06	26.964	228.773	253.683	254.094	179.291	309.801	306.658	179.309	185.862	305.887	333.096	185.883	191.555	191.505	197.507	303.875	197.709	-8191	255	
14620.453	1	1	0	0	0.017528	0.26816	0.22717	0.14264	0.069202	0.12177	0.064741	0.24742	0.18031	0.32748	0.20328	0.16446	0.17485	0.2716	0.13902	0.23111	-2.2646	-2.8146	-2.6083	-3.0042	-2.825	-2.4792	-3.1708	-2.8812	-2.7292	-3.0125	-2.6792	-2.95	-2.7542	-2.6979	-2.7458	-2.7938	199.121	445.170	403.729	467.976	517.257	180.459	520.795	402.848	337.286	179.865	184.579	177.048	350.184	394.284	428.722	386.377	0.00023639	0.00035364	7.0094e-05	1017	2.5974e-06	2.8038e-06	1051.3	221.2	2.4084e-06	3.3945e-06	268.32	77.624	63.121	19.294	3.2969e-06	25.938	0.00030772	0.00037652	0.0001034	1033.9	4.1722e-06	4.1567e-06	1073.2	226.8	4.1577e-06	4.0461e-06	275.53	80.384	65.262	20.132	3.8597e-06	27.038	225.367	261.834	266.340	179.388	312.947	311.924	179.194	185.751	296.193	331.251	185.376	191.339	191.498	197.466	296.800	197.837	-8191	255	
14620.549	1	1	0	0	0.11561	0.25142	0.19694	0.24748	0.16807	0.2336	0.18684	0.19133	0.16833	0.26255	0.073405	0.23336	0.082758	0.09456	0.23174	0.20832	-2.2167	-2.9146	-2.5521	-2.9854	-2.8125	-2.6896	-3.0687	-2.8271	-2.7083	-2.7979	-2.5958	-2.8271	-2.9208	-2.5167	-2.8104	-2.825	520.171	215.121	194.044	454.610	242.871	367.702	461.973	183.187	197.172	248.426	504.613	464.787	365.994	287.753	374.390	223.172	0.00024735	0.00030996	8.3206e-05	1018	1.9422e-06	2.3851e-06	1054.7	221.47	2.4102e-06	3.2687e-06	268.36	77.721	63.062	19.413	2.5301e-06	25.756	0.00030522	0.00036543	0.00010503	1033.1	4.1425e-06	4.3791e-06	1073.4	226.81	4.0071e-06	3.9887e-06	275.41	80.47	65.365	20.205	3.7935e-06	27.097	225.556	265.039	250.759	179.371	308.654	316.338	179.119	185.860	303.600	313.869	185.583	191.148	191.635	197.830	302.795	197.571	-8191	255	
14620.668	1	1	0	0	0.12128	0.018091	0.21468	0.23453	0.26798	0.12192	0.28656	0.1535	0.093811	0.35253	0.21834	0.20219	0.19119	0.13264	0.13044	0.025783	-2.3104	-3.0104	-2.5125	-2.8875	-2.8208	-2.5062	-3.0667	-2.7042	-2.7708	-2.8458	-2.7625	-2.8625	-2.7875	-2.5187	-2.6104	-2.8646	222.016	319.839	322.573	467.012	355.656	329.259	466.802	242.004	275.890	182.098	320.850	502.123	512.470	396.413	515.581	230.887	0.00024086	0.00013216	7.5842e-05	1019.1	2.4236e-06	2.2754e-06	1053.1	221.82	1.9461e-06	2.5417e-06	268.03	77.434	62.818	19.426	2.5606e-06	25.724	0.0003069	0.00033423	0.00010027	1034.2	4.0389e-06	4.331e-06	1074.1	227	4.1903e-06	4.0138e-06	275.72	80.701	65.353	20.247	3.6199e-06	27.024	227.254	256.882	260.965	179.350	303.824	308.514	179.464	185.823	314.249	318.742	185.636	191.396	191.416	197.650	322.866	197.923	-8191	255	
14620.764	1	1	0	0	0.16454	0.13662	0.17884	0.03071	0.090185	0.087537	0.34332	0.30128	0.16308	0.17436	0.12434	0.18708	0.062233	0.13758	0.31175	0.086889	-2.05	-2.85	-2.5958	-2.6604	-2.7917	-2.5479	-2.7333	-2.9917	-2.6854	-2.7625	-2.6437	-2.7583	-2.9125	-2.7583	-3.0563	-3.0271	364.667	315.792	176.858	369.993	305.810	364.217	478.179	493.512	188.176	489.316	508.751	506.723	256.472	237.097	192.912	452.119	0.00023493	0.00028167	6.9149e-05	1013.6	2.5381e-06	2.9056e-06	1050.4	219.79	1.9706e-06	3.5032e-06	265.91	76.996	62.551	19.215	2.4535e-06	25.687	0.00029423	0.00035956	0.00010149	1031.1	3.9776e-06	4.3466e-06	1069.5	225.47	3.9604e-06	4.1096e-06	274.06	80.028	64.982	20	3.7634e-06	26.847	227.916	264.589	271.090	179.123	301.765	307.883	179.236	186.106	290.016	315.367	185.643	191.180	191.755	197.471	317.786	198.009	-8191	255	
14620.860	1	1	0	0	0.23974	0.29929	0.27054	0.035718	0.16251	0.3025	0.28261	0.046298	0.21574	0.23228	0.19817	0.34073	0.1237	0.046681	0.34032	0.06563	-2.2146	-2.9208	-2.7188	-2.7854	-2.9375	-2.625	-3.0521	-3.0312	-2.4729	-3.0812	-2.6521	-2.8542	-2.9333	-2.6021	-2.7875	-2.8563	464.539	308.940	218.486	174.819	492.979	219.421	170.411	224.408	401.209	352.408	191.244	498.603	508.470	507.951	270.712	498.892	0.00022595	0.00033592	0.00010704	1016.7	3.0099e-06	3.1355e-06	1051.2	220.83	2.2987e-06	3.3537e-06	266.15	77.025	62.507	19.239	1.8947e-06	25.745	0.0003017	0.00036291	9.9301e-05	1032.2	3.9875e-06	4.1099e-06	1070.3	225.92	4.1339e-06	3.9707e-06	273.95	80.035	64.856	20.062	3.8226e-06	26.924	225.623	254.496	271.579	179.287	311.657	312.731	179.140	185.715	312.027	321.474	185.732	191.257	191.674	197.858	310.144	197.689	-8191	255	
14620.981	1	1	0	0	0.034919	0.27764	0.30507	0.2076	0.19985	0.13353	0.5085	0.31198	0.16425	0.17501	0.25114	0.16302	0.070248	0.037483	0.31028	0.29537	-2.0438	-2.9542	-2.7062	-2.7792	-3.0771	-2.5687	-2.8167	-2.9979	-2.6521	-3.0563	-2.7333	-2.6458	-2.8688	-2.6771	-2.6937	-3.0438	453.781	184.228	392.242	518.630	270.177	231.267	511.115	173.077	253.029	499.608	458.580	381.905	392.978	344.007	184.972	523.845	0.00023858	0.0003332	6.2857e-05	1012.1	2.5793e-06	3.121e-06	1050.9	220.12	2.6832e-06	2.8379e-06	267.38	77.206	62.742	19.183	2.8447e-06	25.632	0.00030724	0.00034868	9.5264e-05	1030.2	4.1227e-06	4.1147e-06	1069.4	225.76	4.0714e-06	4.0545e-06	273.94	80.011	64.919	20.04	3.8848e-06	26.9	226.707	246.903	257.148	179.168	307.354	343.049	179.125	185.831	310.608	338.601	185.716	191.339	191.194	197.588	310.700	197.916	-8191	255	
14621.052	1	1	0	0	0.098307	0.28619	0.13609	0.066988	0.19593	0.036974	0.26401	0.079525	0.12586	0.24403	0.37845	0.10537	0.10955	0.098978	0.25742	0.31458	-2.1542	-2.8146	-2.7625	-2.6437	-2.8583	-2.5583	-2.7812	-2.9583	-2.7313	-3.0729	-2.8812	-2.4813	-2.9938	-2.6979	-2.7	-2.9729	435.463	318.891	458.191	518.821	450.792	290.290	422.473	205.747	482.085	430.251	477.112	274.412	359.856	439.790	231.046	523.970	0.00023169	0.00029968	8.3927e-05	1016.4	2.9752e-06	2.3776e-06	1051.3	219.63	2.3622e-06	3.0506e-06	266.81	76.483	62.708	19.224	2.653e-06	25.704	0.00030115	0.00039599	0.00010439	1031.7	4.0236e-06	4.1039e-06	1070.6	225.44	4.0344e-06	4.0689e-06	273.94	79.894	64.839	20.061	3.7152e-06	26.959	226.345	274.777	266.748	179.196	314.851	334.580	179.314	185.906	305.725	333.114	185.751	191.136	191.682	197.655	313.781	197.799	-8191	255	
14621.148	1	1	0	0	0.091407	0.087715	0.15915	0.35124	0.11745	0.12018	0.33427	0.079408	0.21444	0.050089	0.17033	0.077757	0.13618	0.2288	0.13251	0.16981	-2.15	-2.8833	-2.925	-2.6292	-2.9917	-2.7687	-2.9375	-2.9021	-2.6896	-2.7354	-2.8875	-2.7167	-3.0479	-2.7896	-2.5792	-3.0187	494.155	426.253	294.555	453.979	497.018	280.038	468.562	393.260	328.403	213.563	506.047	282.023	237.941	447.324	470.480	302.725	0.00024655	0.00022632	7.1157e-05	1015.3	2.7022e-06	2.2986e-06	1049.5	219.35	2.5982e-06	3.0245e-06	267.52	77.161	62.462	19.264	1.6758e-06	25.808	0.00030557	0.00037391	9.7107e-05	1031.4	4.2542e-06	3.9344e-06	1070.1	225.08	4.0828e-06	3.8307e-06	274.47	80.206	65.03	20.094	3.8978e-06	26.97	229.522	257.499	277.211	179.226	300.645	309.021	179.458	185.782	309.256	330.977	185.401	191.432	191.776	197.131	343.305	197.585	-8191	255	
14621.269	1	1	0	0	0.088941	0.1519	0.18687	0.31363	0.08998	0.06095	0.13501	0.25501	0.078887	0.17337	0.12503	0.21365	0.1068	0.19926	0.21144	0.10654	-1.9875	-2.7687	-2.7375	-2.8083	-2.7979	-2.6542	-2.8396	-2.9646	-2.6396	-2.9125	-3.1937	-2.7	-2.6833	-2.7958	-2.5917	-2.9646	494.877	348.216	205.477	195.220	464.275	256.477	467.013	483.838	324.307	385.539	476.632	210.969	224.490	380.000	454.736	392.468	0.00024104	0.00025862	0.0001041	1014.7	2.9704e-06	2.85e-06	1051.8	220.26	2.6433e-06	2.3678e-06	266.71	77.64	62.543	19.326	2.7031e-06	25.887	0.00029567	0.00035653	0.00010225	1031.8	3.9145e-06	3.7998e-06	1071.6	225.89	3.9762e-06	4.252e-06	274.01	80.173	64.951	20.121	3.9279e-06	27.082	226.996	260.618	255.741	179.251	301.005	321.444	179.237	185.910	298.316	325.799	185.518	191.345	191.769	197.714	320.605	197.885	-8191	255	
14621.365	1	1	0	0	0.20239	0.25673	0.18951	0.091554	0.084355	0.10364	0.10139	0.14871	0.10937	0.16396	0.19237	0.24303	0.17626	0.19805	0.020356	0.1671	-2.25	-2.6646	-2.9604	-2.7729	-2.9729	-2.875	-2.6396	-2.8333	-2.7729	-2.7125	-3.0646	-2.6708	-2.7917	-3.0292	-2.2958	-2.725	297.121	354.804	291.021	505.900	328.074	284.224	484.449	477.904	190.690	340.456	431.232	516.286	259.850	178.584	441.942	264.456	0.00023612	0.00034799	6.3777e-05	1010.3	3.1613e-06	1.9795e-06	1050.6	219.77	2.9957e-06	2.6984e-06	266.28	77.28	62.583	19.212	2.2916e-06	25.794	0.00029714	0.0003716	9.1257e-05	1030.6	4.0614e-06	3.9356e-06	1071.5	225.89	3.9322e-06	4.2401e-06	273.95	80.239	64.982	20.056	3.949e-06	26.999	224.709	252.402	255.760	179.315	308.202	330.428	179.223	185.893	307.035	323.600	185.636	191.312	191.538	197.546	319.978	197.562	-8191	255	
14621.461	1	1	0	0	0.20134	0.20368	0.055041	0.29667	0.32974	0.079249	0.31192	0.36328	0.22297	0.13055	0.1002	0.10574	0.28054	0.26652	0.098505	0.11491	-2.1521	-2.5417	-2.8354	-2.65	-2.7708	-2.9625	-2.5938	-2.8521	-2.8583	-2.7125	-3.0125	-2.825	-2.8458	-2.8688	-2.5729	-2.8354	197.112	354.091	491.676	456.314	241.407	519.214	463.680	461.895	301.847	320.749	501.551	371.779	306.073	410.339	258.227	421.896	0.00023383	0.00027963	6.204e-05	1014.3	2.9519e-06	1.8164e-06	1053.3	220.44	2.7471e-06	2.9603e-06	267.64	77.485	62.671	19.292	2.9253e-06	25.635	0.00029933	0.00038469	9.5966e-05	1032.3	4.1182e-06	3.8215e-06	1072	225.68	4.193e-06	4.1994e-06	274.68	80.253	65.189	20.139	3.8908e-06	27.007	227.000	248.365	269.654	179.224	302.666	316.921	179.188	186.057	303.731	312.873	185.611	191.367	191.479	197.679	301.561	197.483	-8191	255	
14621.582	1	1	0	0	0.12947	0.21348	0.058529	0.1447	0.19292	0.26956	0.089174	0.10437	0.075703	0.18384	0.18093	0.23498	0.067246	0.22425	0.19681	0.062951	-2.25	-2.6958	-2.9104	-2.9542	-2.8354	-3.1375	-2.9354	-2.7438	-2.7542	-2.5417	-3.0229	-2.7812	-2.6354	-2.9688	-2.725	-2.9188	324.763	295.762	465.052	486.204	375.966	185.312	477.056	453.348	352.072	288.948	170.405	191.957	477.909	379.125	354.615	486.112	0.0002255	0.00026636	7.7505e-05	1017.1	2.2671e-06	2.7998e-06	1047.1	220.06	3.0537e-06	2.0139e-06	267.05	77.247	62.534	19.238	2.136e-06	25.808	0.00029444	0.00036595	9.2486e-05	1032.1	4.0497e-06	4.0282e-06	1069.8	225.48	3.8485e-06	3.9599e-06	274.7	80.248	65.068	20.076	3.8055e-06	26.98	226.616	254.329	265.323	179.245	301.211	302.476	179.060	185.823	294.073	295.001	185.653	191.013	191.314	197.545	328.813	197.927	-8191	255	
14621.654	1	1	0	0	0.2307	0.068494	0.10337	0.21297	0.17248	0.078209	0.13031	0.26531	0.13797	0.16251	0.29242	0.091981	0.12529	0.095576	0.07991	0.27542	-2.45	-2.7313	-2.7875	-3.025	-2.6	-2.8875	-2.7521	-2.8917	-2.8271	-2.6896	-2.9104	-2.7854	-2.6917	-3.0104	-2.5833	-2.7333	483.304	223.888	301.453	175.637	443.966	290.849	374.680	413.331	502.264	317.157	395.662	408.782	457.986	456.121	464.861	311.248	0.00023994	0.00031444	6.8836e-05	1013.3	2.457e-06	2.3527e-06	1048	220.3	2.0992e-06	2.7457e-06	267.69	77.172	62.551	19.301	3.2452e-06	25.827	0.00029039	0.0003738	9.9827e-05	1030.9	4.0587e-06	3.8166e-06	1069.6	225.26	3.6767e-06	4.1467e-06	274.3	80.058	65.016	20.071	3.6691e-06	26.954	227.248	252.558	257.545	179.220	311.422	323.373	179.114	185.924	306.459	326.370	185.738	191.683	191.676	197.573	314.625	197.972	-8191	255	
14621.748	1	1	0	0	0.054402	0.13719	0.13772	0.13956	0.012282	0.33767	0.079524	0.26182	0.052383	0.047716	0.16739	0.18391	0.15111	0.26614	0.031037	0.085417	-2.425	-2.6312	-2.8333	-2.8708	-2.5083	-2.9146	-2.8625	-2.8958	-3.0917	-2.6437	-2.9042	-2.7188	-2.8083	-3.0187	-2.6333	-2.8458	348.564	434.099	496.013	461.285	481.838	405.896	505.925	454.257	447.588	200.814	491.501	317.363	489.778	504.151	347.133	388.706	0.00024165	0.00026919	6.4102e-05	1014.3	2.1406e-06	2.0947e-06	1048.1	219.43	2.4277e-06	1.4477e-06	267.75	77.363	62.252	19.219	3.1444e-06	25.853	0.00029632	0.00037181	9.1696e-05	1029.9	4.3002e-06	3.5282e-06	1069.7	225.4	3.7701e-06	3.942e-06	274.4	80.258	65.012	20.111	3.8075e-06	26.998	227.170	266.738	270.622	179.273	318.190	307.997	179.183	185.960	293.272	335.936	185.773	190.922	191.292	197.590	328.664	197.717	-8191	255	
14621.844	1	1	0	0	0.15648	0.080644	0.28691	0.31857	0.020908	0.12717	0.31399	0.15321	0.075098	0.11985	0.22298	0.217	0.26276	0.17178	0.27868	0.094163	-2.3333	-2.6208	-2.8646	-2.9188	-2.5292	-2.9729	-2.8375	-2.7146	-2.9125	-2.6458	-2.9562	-2.6771	-2.5979	-2.9958	-2.6854	-2.8	401.416	374.321	251.404	463.326	354.534	518.063	469.261	204.962	438.442	485.804	182.894	196.799	210.583	174.932	487.952	395.839	0.00023105	0.00026639	7.8387e-05	1017.2	2.1636e-06	2.728e-06	1051.4	220.38	2.318e-06	2.4084e-06	267.48	77.473	62.394	19.284	2.173e-06	25.875	0.00029187	0.00037254	9.8131e-05	1032.4	4.0506e-06	4.0414e-06	1069.3	225.49	3.8027e-06	4.0318e-06	274.08	80.168	64.906	20.085	3.9299e-06	27.059	227.828	265.407	258.060	179.247	313.499	332.360	179.112	185.895	295.575	291.114	185.826	191.401	191.473	197.583	312.989	197.763	-8191	255	
14621.965	1	1	0	0	0.10552	0.12791	0.25396	0.20406	0.048194	0.22106	0.20974	0.23215	0.11468	0.072547	0.12611	0.11592	0.12234	0.34289	0.20524	0.25264	-2.6521	-2.6104	-2.8729	-3.0792	-2.6104	-2.9646	-2.7792	-2.75	-2.8812	-2.6542	-2.9021	-2.925	-2.8375	-3.0542	-2.9333	-2.6354	431.944	459.730	507.478	481.139	322.505	370.401	327.262	399.013	445.858	450.499	414.567	405.704	504.814	448.370	522.846	461.253	0.00023805	0.00026595	9.0826e-05	1008.6	2.5038e-06	3.7354e-06	1048.8	219.97	2.5605e-06	3.4236e-06	267.67	77.295	62.349	19.109	1.8805e-06	25.802	0.00029365	0.00035663	9.8482e-05	1028.5	4.2299e-06	4.0257e-06	1068.2	225.13	3.7886e-06	3.9959e-06	273.92	80.136	64.745	20.002	3.661e-06	26.917	222.409	269.895	256.532	179.105	298.625	313.207	179.177	185.814	312.911	321.394	185.780	191.568	191.302	197.744	302.138	197.613	-8191	255	
14622.061	1	1	0	0	0.080006	0.1295	0.055023	0.16712	0.10562	0.22334	0.19456	0.14295	0.11079	0.14181	0.32187	0.11664	0.16188	0.24085	0.089172	0.093167	-2.6	-2.7438	-2.65	-2.9729	-2.6542	-2.8104	-2.9813	-2.7896	-2.8354	-2.7	-2.8146	-2.8937	-2.6771	-2.8667	-2.7979	-2.475	470.045	251.306	465.466	437.840	337.034	223.182	457.489	194.131	190.435	518.279	437.283	249.733	495.124	465.529	305.172	527.556	0.00022607	0.00025555	6.1826e-05	1010.9	2.6948e-06	2.7349e-06	1047.7	218.99	1.8939e-06	3.058e-06	267.14	76.903	62.679	19.179	2.4114e-06	25.669	0.000292	0.00037171	0.00010088	1027.2	4.165e-06	3.8575e-06	1067.1	224.81	3.7243e-06	3.9887e-06	273.9	79.978	64.776	20.012	3.8115e-06	26.909	223.290	256.535	275.126	179.266	314.008	331.365	179.162	185.715	304.743	326.206	185.899	191.053	191.308	197.485	307.526	197.807	-8191	255	
14622.157	1	1	0	0	0.13487	0.19105	0.22274	0.28575	0.15189	0.010841	0.28517	0.063486	0.13188	0.070892	0.18108	0.21578	0.046515	0.07404	0.16811	0.26847	-2.4813	-2.7188	-2.6854	-3.0396	-2.6604	-2.7625	-3.0875	-2.6875	-2.8604	-2.8125	-2.8583	-3.0729	-2.9208	-2.7167	-2.8354	-2.7042	262.009	507.536	286.730	430.576	191.965	253.005	441.404	180.422	179.628	214.118	360.789	457.585	385.316	413.359	370.376	323.597	0.00021448	0.00019936	9.9762e-05	1010.5	2.3898e-06	3.1181e-06	1046.4	219.69	2.2293e-06	2.4097e-06	267.02	76.901	62.38	19.13	2.0271e-06	25.654	0.00028752	0.00035527	9.4913e-05	1026.5	3.974e-06	3.8743e-06	1067	224.57	3.8406e-06	3.7852e-06	273.49	80.001	64.577	19.948	3.5988e-06	26.859	226.756	255.811	267.855	179.341	308.414	318.424	179.210	186.128	314.072	328.154	185.864	191.507	191.468	197.704	296.551	197.561	-8191	255	
14622.229	1	1	0	0	0.33313	0.11642	0.33544	0.20247	0.084366	0.26216	0.2956	0.15887	0.037486	0.19076	0.12915	0.071939	0.30414	0.14877	0.13904	0.26032	-2.2729	-2.8333	-2.5958	-3.0917	-2.5333	-2.8125	-2.8792	-2.7	-2.9729	-2.8833	-2.7625	-2.8417	-2.8625	-2.6	-2.8083	-2.6188	215.258	319.757	300.513	239.031	389.079	249.035	445.287	424.670	195.543	304.336	384.139	288.618	484.301	418.332	343.607	497.921	0.00024239	0.00021926	8.6512e-05	1010.6	2.6322e-06	3.4376e-06	1045.7	217.97	2.8318e-06	3.2714e-06	265.75	76.906	62.223	19.044	2.3558e-06	25.552	0.00029149	0.00034271	0.00010661	1025.9	4.1281e-06	4.0342e-06	1065	223.79	3.8767e-06	3.9767e-06	272.92	79.768	64.548	19.912	3.7303e-06	26.836	224.720	271.207	267.465	179.270	315.578	321.283	178.981	186.060	303.158	318.528	185.799	191.373	191.453	197.740	317.313	198.116	-8191	255	
14622.349	1	1	0	0	0.22958	0.13594	0.23909	0.15255	0.094503	0.1768	0.18093	0.14763	0.31309	0.12214	0.18842	0.2759	0.067666	0.43618	0.098297	0.056926	-2.3375	-2.7083	-2.5417	-3.1375	-2.6333	-2.8812	-3.0417	-2.6125	-2.7542	-2.7562	-2.6771	-2.8792	-2.775	-2.7958	-2.8042	-2.5354	526.369	198.191	383.911	497.882	185.228	525.502	400.493	421.828	200.149	281.213	430.325	510.999	375.129	514.407	342.352	527.710	0.00023016	0.00035275	7.1466e-05	1006.7	2.6154e-06	2.3814e-06	1047.6	218.83	2.6951e-06	2.8949e-06	265.88	76.903	62.803	19.161	3.053e-06	25.639	0.00028676	0.00034941	9.9769e-05	1024.7	4.01e-06	4.2613e-06	1064.4	224.38	3.9965e-06	3.6655e-06	272.78	79.588	64.731	19.982	3.4072e-06	26.875	227.831	254.173	267.738	179.099	297.255	332.861	179.189	185.876	306.836	328.040	185.720	191.448	191.365	197.741	309.053	197.601	-8191	255	
14622.446	1	1	0	0	0.24617	0.098866	0.37705	0.18545	0.19267	0.2145	0.12813	0.23811	0.22099	0.2146	0.15241	0.24689	0.090014	0.32055	0.23898	0.093067	-2.4167	-2.8917	-2.5375	-2.7438	-2.7	-2.6479	-3.2104	-2.775	-2.7896	-2.8479	-2.7271	-2.7771	-2.8604	-2.7854	-2.9833	-2.7229	342.598	511.733	426.417	466.364	282.020	456.705	432.524	459.705	385.920	367.834	190.223	440.732	216.104	175.724	511.168	217.265	0.00023314	0.00026165	7.4639e-05	1009.1	3.2756e-06	2.5602e-06	1039	218.26	2.4349e-06	3.2651e-06	264.16	76.368	61.767	19.132	1.7661e-06	25.524	0.00029098	0.0003403	9.6434e-05	1025.2	4.1335e-06	3.9861e-06	1063	223.78	4.0247e-06	3.7804e-06	271.61	79.564	64.275	19.921	3.7022e-06	26.861	226.889	239.822	264.664	179.297	305.709	331.023	179.421	185.824	316.527	338.940	185.749	191.279	191.453	197.874	319.882	197.743	-8191	255	
14622.542	1	1	0	0	0.19624	0.10247	0.21592	0.21581	0.37497	0.16159	0.10652	0.20478	0.013545	0.032969	0.059324	0.1882	0.16124	0.083131	0.4786	0.09814	-2.4146	-2.7167	-2.6292	-2.8479	-2.7042	-2.4167	-3.1792	-2.7083	-2.8521	-3.0896	-2.6604	-2.9	-2.6646	-2.4833	-2.8792	-2.9125	407.561	252.907	465.319	186.166	244.685	440.013	179.726	377.688	237.186	174.818	443.167	517.736	406.249	412.464	209.570	479.740	0.0002294	0.00024242	8.4271e-05	1006.2	2.2815e-06	2.8358e-06	1047.5	218.41	2.6424e-06	3.287e-06	264.93	76.488	62.249	19.167	3.2509e-06	25.499	0.00029759	0.00034135	9.974e-05	1022.1	4.1128e-06	4.0942e-06	1063.6	223.6	3.8802e-06	3.541e-06	272.21	79.605	64.425	19.945	3.8958e-06	26.778	224.539	266.302	263.717	179.437	303.649	299.592	179.336	185.872	296.704	296.576	185.781	191.405	191.487	197.966	320.366	197.536	-8191	255	
14622.662	1	1	0	0	0.088801	0.13265	0.29031	0.37265	0.032764	0.38867	0.10231	0.25077	0.27093	0.15326	0.10624	0.11971	0.058213	0.16712	0.10702	0.037741	-2.2396	-3.0625	-2.4938	-2.9708	-2.8396	-2.6792	-3.0292	-2.7854	-2.55	-3.0187	-2.6729	-2.9104	-2.9271	-2.65	-3.0771	-2.9521	399.432	217.968	219.518	425.582	454.603	382.771	249.841	220.822	178.696	349.796	385.913	495.303	343.385	169.060	309.221	523.281	0.00023473	0.0002772	7.5856e-05	1005.5	3.0535e-06	2.5337e-06	1039.7	217.35	2.4032e-06	2.5e-06	263.79	76.18	62.082	19.14	2.9288e-06	25.608	0.00028423	0.00033811	0.00010041	1023.1	4.0902e-06	3.9837e-06	1060.3	222.96	4.0555e-06	3.6571e-06	271.51	79.157	64.177	19.904	3.7945e-06	26.743	225.816	256.831	266.594	179.408	307.345	318.259	179.231	186.003	304.347	311.953	185.602	191.541	191.624	197.707	319.531	197.961	-8191	255	
14622.757	1	1	0	0	0.32341	0.16556	0.17254	0.22618	0.20261	0.023567	0.16363	0.051815	0.13242	0.15533	0.22301	0.051339	0.14778	0.16882	0.030733	0.2754	-2.2875	-2.9229	-2.6937	-2.9938	-2.9688	-2.6771	-3.1146	-2.9104	-2.6833	-3.0062	-2.6813	-2.8042	-2.8333	-2.5375	-2.7458	-2.6562	391.670	299.208	427.720	527.177	193.155	377.616	463.963	366.662	413.537	395.866	439.716	457.100	390.517	449.721	440.876	434.227	0.0002282	0.00030944	4.8378e-05	1004.3	2.7879e-06	2.3538e-06	1039.9	217.54	2.5822e-06	2.9683e-06	264.87	76.445	61.818	19.018	2.0535e-06	25.596	0.00028416	0.0003224	9.9886e-05	1021.2	4.1245e-06	3.8179e-06	1060.2	222.93	3.7754e-06	3.7552e-06	271.8	79.407	64.208	19.868	3.6239e-06	26.781	225.816	266.005	267.283	179.292	307.154	348.873	179.276	186.000	313.982	317.881	185.693	191.912	191.568	197.723	314.440	197.746	-8191	255	
14622.853	1	1	0	0	0.1122	0.20034	0.068764	0.29039	0.27743	0.053255	0.2543	0.15575	0.044135	0.11038	0.078693	0.071892	0.06721	0.071107	0.092913	0.087148	-2.0146	-2.8146	-2.6021	-2.7479	-3.0125	-2.4896	-3.0062	-2.8792	-2.6937	-2.9354	-2.7938	-2.9062	-2.9688	-2.8333	-2.6896	-2.8937	437.429	317.376	229.083	486.959	453.487	210.206	479.577	445.684	346.095	307.420	466.756	184.475	327.279	466.149	505.074	495.192	0.00022962	0.00027834	8.048e-05	1007.8	3.1379e-06	2.7844e-06	1042	217.91	2.1985e-06	2.1963e-06	264.81	76.455	61.509	19.047	2.504e-06	25.463	0.00029351	0.00036909	9.8687e-05	1023.1	3.9434e-06	3.8215e-06	1061.3	223.14	3.9833e-06	3.8079e-06	271.73	79.442	64.157	19.856	3.4574e-06	26.752	226.795	272.950	269.428	179.474	290.476	341.170	179.120	185.877	305.148	319.791	185.731	191.294	191.868	197.980	321.713	197.744	-8191	255	
14622.949	1	1	0	0	0.21634	0.13028	0.24122	0.31439	0.090014	0.1879	0.18884	0.2071	0.24522	0.26562	0.12397	0.045778	0.27392	0.35175	0.098075	0.19	-2.0667	-2.7458	-2.6521	-2.5438	-3.0542	-2.5521	-2.8854	-2.9646	-2.6958	-2.8875	-2.8542	-2.575	-2.9188	-2.7188	-2.7812	-2.9396	346.120	423.291	398.274	462.613	461.902	410.000	371.867	456.678	474.529	388.040	169.093	434.771	522.373	171.450	377.099	469.559	0.0002436	0.00029905	5.5404e-05	1008.2	2.7796e-06	2.3583e-06	1041.7	218.52	3.0441e-06	2.8001e-06	264.36	76.225	61.591	18.965	2.3789e-06	25.636	0.00029978	0.00033329	9.5381e-05	1021.7	4.0191e-06	3.7361e-06	1060.9	223.26	3.9921e-06	3.7086e-06	271.61	79.239	64.159	19.836	3.6189e-06	26.738	227.223	247.816	262.882	179.008	327.262	300.886	179.314	185.963	306.167	295.395	185.696	191.401	191.806	197.709	315.491	197.968	-8191	255	
14623.045	1	1	0	0	0.24996	0.11115	0.1197	0.11838	0.20938	0.20671	0.22521	0.23581	0.16696	0.21408	0.20712	0.14645	0.22257	0.1142	0.018328	0.038313	-2.1458	-2.6208	-2.6479	-2.7938	-2.775	-2.6021	-2.85	-3.0979	-2.5958	-2.7583	-2.9062	-2.5729	-3.0125	-2.8708	-2.7125	-3.1354	269.621	506.917	264.099	527.269	331.596	267.999	177.310	472.534	290.713	514.568	453.368	227.491	258.497	387.277	250.024	170.488	0.00023544	0.00033166	9.1403e-05	1005	1.9e-06	2.9432e-06	1038.8	218.07	2.417e-06	3.0737e-06	264.31	76.677	62.151	18.952	1.8879e-06	25.531	0.000298	0.00035412	9.737e-05	1019.7	3.983e-06	3.9729e-06	1059.5	222.99	3.9146e-06	4.033e-06	271.53	79.413	64.182	19.807	3.8396e-06	26.715	224.731	235.752	251.232	179.180	319.312	317.114	179.181	185.922	311.491	331.570	185.693	191.270	191.700	197.727	305.008	197.648	-8191	255	
14623.141	1	1	0	0	0.20122	0.084878	0.2515	0.38848	0.15937	0.16378	0.23011	0.15609	0.17515	0.034982	0.15597	0.1825	0.15429	0.098142	0.15175	0.24713	-2.0792	-2.7646	-2.75	-2.7479	-3.0458	-2.5604	-2.875	-3.0042	-2.575	-3.0146	-2.8333	-2.6708	-3.0292	-2.4979	-2.4646	-3.05	299.438	226.986	478.346	472.982	456.758	325.098	488.163	504.311	305.355	195.794	168.373	506.690	478.304	314.191	253.224	189.259	0.00024165	0.00033163	7.413e-05	1005.3	2.7039e-06	3.154e-06	1037.7	217.32	2.9519e-06	3.1956e-06	263.21	76.308	62.035	19.01	2.1424e-06	25.543	0.00029577	0.00035213	9.7341e-05	1020.4	3.9497e-06	3.8515e-06	1058.7	222.78	4.0203e-06	3.5505e-06	270.82	79.25	64.214	19.8	3.7554e-06	26.68	225.348	264.254	273.031	179.157	309.520	304.824	179.236	186.116	298.577	302.513	185.546	191.514	191.570	197.743	320.723	198.027	-8191	255	
14623.262	1	1	0	0	0.17874	0.15056	0.13118	0.17516	0.28299	0.17747	0.086295	0.20114	0.12758	0.1555	0.18555	0.20252	0.12831	0.12413	0.19554	0.2073	-2.3292	-2.725	-2.9167	-2.6875	-2.7812	-2.7771	-2.825	-2.9562	-2.8833	-2.5146	-2.95	-2.6792	-2.7604	-2.8833	-2.6146	-2.8771	443.215	335.780	272.462	169.063	394.340	211.000	469.593	505.683	335.776	485.707	216.559	254.689	403.611	177.074	199.551	514.167	0.00022115	8.8309e-05	8.0961e-05	1005.3	2.693e-06	3.3662e-06	1036.1	216.75	2.8559e-06	3.4786e-06	265.58	76.169	61.624	18.937	2.8047e-06	25.636	0.00029252	0.00035182	9.8482e-05	1020.3	3.9425e-06	4.0534e-06	1058.6	222.63	4.1401e-06	3.6882e-06	271.41	79.083	64.016	19.793	3.8075e-06	26.705	227.181	268.441	265.159	179.380	305.533	336.703	179.119	186.055	309.866	321.039	185.663	191.228	191.704	197.649	311.860	197.966	-8191	255	
#DATA ENDS
