BOXY.EXE: ISS Imagent and Oximeter Data Acquisition Program Version 0.80
Ascii Record File

#ACQ INFORMATION
2  Detector Channels 
16  External MUX Channels 
1  Auxiliary Channels 
5000  Waveform (CCF) Frequency (Hz)
1  Waveforms Skipped 
30  Waveforms Averaged 
1  Cycles Averaged 
16  Acquisitions per Waveform 
10.0806  Updata Rate (Hz) 

#FILE INFORMATION
TRUE -- External MUX Channel results are PARSED.
FALSE -- AC DC and Phase are NOT grouped.
TRUE -- Companion Program Settings File CREATED.
FALSE -- AC data not excluded
FALSE -- DC data not excluded
FALSE -- Phase data not excluded
FALSE -- Auxillary Chn. data not excluded
Tab delimiters

#CALIBRATION STATE
TRUE -- Waveform Calibration Values APPLIED.


#AUX CALIBRATION VALUES
Val Type	aux-1	

Term	1.0000e+00	
Factor	0.0000e+00	


#WF CALIBRATION VALUES
A = Detector Channel
Val Type	A-AC1	A-AC2	A-AC3	A-AC4	A-AC5	A-AC6	A-AC7	A-AC8	A-AC9	A-AC10	A-AC11	A-AC12	A-AC13	A-AC14	A-AC15	A-AC16	A-DC1	A-DC2	A-DC3	A-DC4	A-DC5	A-DC6	A-DC7	A-DC8	A-DC9	A-DC10	A-DC11	A-DC12	A-DC13	A-DC14	A-DC15	A-DC16	A-Ph1	A-Ph2	A-Ph3	A-Ph4	A-Ph5	A-Ph6	A-Ph7	A-Ph8	A-Ph9	A-Ph10	A-Ph11	A-Ph12	A-Ph13	A-Ph14	A-Ph15	A-Ph16	

Term	0.00000e+00	0.00000e+00	0.00000e+00	0.00000e+00	0.00000e+00	0.00000e+00	0.00000e+00	0.00000e+00	0.00000e+00	0.00000e+00	0.00000e+00	0.00000e+00	0.00000e+00	0.00000e+00	0.00000e+00	0.00000e+00	0.00000e+00	0.00000e+00	0.00000e+00	0.00000e+00	0.00000e+00	0.00000e+00	0.00000e+00	0.00000e+00	0.00000e+00	0.00000e+00	0.00000e+00	0.00000e+00	0.00000e+00	0.00000e+00	0.00000e+00	0.00000e+00	0.00000e+00	0.00000e+00	0.00000e+00	0.00000e+00	0.00000e+00	0.00000e+00	0.00000e+00	0.00000e+00	0.00000e+00	0.00000e+00	0.00000e+00	0.00000e+00	0.00000e+00	0.00000e+00	0.00000e+00	0.00000e+00	
Factor	1.00000e+00	1.00000e+00	1.00000e+00	1.00000e+00	1.00000e+00	1.00000e+00	1.00000e+00	1.00000e+00	1.00000e+00	1.00000e+00	1.00000e+00	1.00000e+00	1.00000e+00	1.00000e+00	1.00000e+00	1.00000e+00	1.00000e+00	1.00000e+00	1.00000e+00	1.00000e+00	1.00000e+00	1.00000e+00	1.00000e+00	1.00000e+00	1.00000e+00	1.00000e+00	1.00000e+00	1.00000e+00	1.00000e+00	1.00000e+00	1.00000e+00	1.00000e+00	X	X	X	X	X	X	X	X	X	X	X	X	X	X	X	X	

B = Detector Channel
Val Type	B-AC1	B-AC2	B-AC3	B-AC4	B-AC5	B-AC6	B-AC7	B-AC8	B-AC9	B-AC10	B-AC11	B-AC12	B-AC13	B-AC14	B-AC15	B-AC16	B-DC1	B-DC2	B-DC3	B-DC4	B-DC5	B-DC6	B-DC7	B-DC8	B-DC9	B-DC10	B-DC11	B-DC12	B-DC13	B-DC14	B-DC15	B-DC16	B-Ph1	B-Ph2	B-Ph3	B-Ph4	B-Ph5	B-Ph6	B-Ph7	B-Ph8	B-Ph9	B-Ph10	B-Ph11	B-Ph12	B-Ph13	B-Ph14	B-Ph15	B-Ph16	

Term	0.00000e+00	0.00000e+00	0.00000e+00	0.00000e+00	0.00000e+00	0.00000e+00	0.00000e+00	0.00000e+00	0.00000e+00	0.00000e+00	0.00000e+00	0.00000e+00	0.00000e+00	0.00000e+00	0.00000e+00	0.00000e+00	0.00000e+00	0.00000e+00	0.00000e+00	0.00000e+00	0.00000e+00	0.00000e+00	0.00000e+00	0.00000e+00	0.00000e+00	0.00000e+00	0.00000e+00	0.00000e+00	0.00000e+00	0.00000e+00	0.00000e+00	0.00000e+00	-9.50698e+01	-1.34209e+02	-1.30506e+02	-1.80748e+02	-5.50128e+01	-6.60304e+01	-1.57031e+02	-1.62015e+02	-5.45825e+01	-5.31485e+01	-1.71629e+02	-1.71410e+02	-1.83807e+02	-1.76817e+02	-5.88180e+01	-1.49577e+02	
Factor	1.70242e-05	1.65196e-04	5.02263e-05	1.72618e-01	1.54288e-06	1.59518e-06	1.73682e-01	5.09113e-02	1.15026e-06	1.72375e-06	8.36987e-02	3.22256e-02	4.11735e-02	9.43077e-03	1.40902e-06	1.35806e-02	3.22070e-06	3.66523e-06	1.02384e-06	8.63279e-02	3.97030e-08	4.03732e-08	8.18899e-02	2.56352e-02	3.97281e-08	4.04783e-08	4.06540e-02	1.57543e-02	2.06171e-02	4.74922e-03	4.00296e-08	6.62632e-03	X	X	X	X	X	X	X	X	X	X	X	X	X	X	X	X	



#DISTANCE SETTINGS
A = Detector Channel
A-1	A-2	A-3	A-4	A-5	A-6	A-7	A-8	A-9	A-10	A-11	A-12	A-13	A-14	A-15	A-16	

2.5000e+00	3.0000e+00	2.5000e+00	3.0000e+00	2.0000e+00	3.0000e+00	1.5000e+00	3.0000e+00	3.0000e+00	3.0000e+00	3.0000e+00	3.0000e+00	3.0000e+00	3.0000e+00	1.5000e+00	3.0000e+00	

B = Detector Channel
B-1	B-2	B-3	B-4	B-5	B-6	B-7	B-8	B-9	B-10	B-11	B-12	B-13	B-14	B-15	B-16	

1.0000e+01	1.0000e+01	1.0000e+01	1.4400e+00	1.0000e+01	1.0000e+01	1.5100e+00	1.9400e+00	1.0000e+01	1.0000e+01	1.9900e+00	2.4900e+00	2.4100e+00	2.9000e+00	1.0000e+01	2.9800e+00	




#DATA BEGINS
time	group	step	mark	flag	A-AC1	A-AC2	A-AC3	A-AC4	A-AC5	A-AC6	A-AC7	A-AC8	A-AC9	A-AC10	A-AC11	A-AC12	A-AC13	A-AC14	A-AC15	A-AC16	A-DC1	A-DC2	A-DC3	A-DC4	A-DC5	A-DC6	A-DC7	A-DC8	A-DC9	A-DC10	A-DC11	A-DC12	A-DC13	A-DC14	A-DC15	A-DC16	A-Ph1	A-Ph2	A-Ph3	A-Ph4	A-Ph5	A-Ph6	A-Ph7	A-Ph8	A-Ph9	A-Ph10	A-Ph11	A-Ph12	A-Ph13	A-Ph14	A-Ph15	A-Ph16	B-AC1	B-AC2	B-AC3	B-AC4	B-AC5	B-AC6	B-AC7	B-AC8	B-AC9	B-AC10	B-AC11	B-AC12	B-AC13	B-AC14	B-AC15	B-AC16	B-DC1	B-DC2	B-DC3	B-DC4	B-DC5	B-DC6	B-DC7	B-DC8	B-DC9	B-DC10	B-DC11	B-DC12	B-DC13	B-DC14	B-DC15	B-DC16	B-Ph1	B-Ph2	B-Ph3	B-Ph4	B-Ph5	B-Ph6	B-Ph7	B-Ph8	B-Ph9	B-Ph10	B-Ph11	B-Ph12	B-Ph13	B-Ph14	B-Ph15	B-Ph16	aux-1	digaux	

2587.466	1	1	0	512	0.21917	0.17742	0.22323	0.16179	0.23329	0.30449	0.29655	0.094584	0.17044	0.26955	0.23605	0.28626	0.1353	0.083399	0.067526	0.065252	-2.3604	-2.775	-2.9458	-2.6188	-2.9188	-2.675	-2.5542	-2.8125	-2.7917	-2.7479	-3.0083	-2.6729	-2.6854	-2.9292	-2.6896	-2.9958	151.202	49.420	194.146	19.327	145.001	54.633	317.083	71.984	353.540	192.462	137.064	71.477	125.369	370.437	106.476	272.429	9.9685e-05	0.00015911	5.1097e-05	254.74	8.9097e-07	5.1772e-07	406.06	47.529	5.1723e-07	1.0087e-06	113.84	40.997	11.92	4.021	1.3545e-06	19.163	2.9147e-05	1.1515e-05	2.967e-06	245.62	1.3681e-07	1.0741e-07	391.57	46.385	1.3433e-07	1.2649e-07	109.25	39.913	11.535	3.9105	1.4019e-07	18.496	177.903	102.858	120.113	26.248	208.570	192.949	26.928	30.747	173.510	180.647	30.991	36.939	37.724	40.275	207.584	40.101	-8191	255	
2587.586	1	1	0	0	0.094498	0.22212	0.22766	0.14193	0.1132	0.17094	0.16458	0.14668	0.1923	0.02477	0.18379	0.17372	0.14663	0.30285	0.076944	0.064182	-2.0229	-2.7417	-2.7042	-2.4375	-2.8208	-2.95	-2.7271	-2.85	-2.7854	-2.725	-3.0146	-2.8042	-2.7542	-2.8292	-2.6604	-2.8396	92.040	328.277	270.863	25.362	159.114	363.205	309.009	24.505	241.174	135.236	48.175	48.363	319.869	258.167	35.651	172.986	0.00011014	9.3423e-05	5.0346e-05	253.54	1.8511e-06	1.1036e-06	404.97	48.531	1.3215e-06	1.873e-06	114.62	41.682	12.277	4.0564	1.3122e-06	19.242	2.9141e-05	1.3065e-05	3.1312e-06	243.49	1.5219e-07	1.1414e-07	389.32	46.775	1.4261e-07	1.2759e-07	110.31	40.458	11.808	3.914	1.2876e-07	18.549	177.261	87.483	98.380	26.731	192.679	173.428	27.152	31.667	174.180	171.119	31.311	36.927	37.076	39.735	176.878	40.253	-8191	255	
2587.681	1	1	0	0	0.23696	0.14628	0.18562	0.041	0.076355	0.29154	0.16951	0.22497	0.23377	0.06319	0.085983	0.292	0.26862	0.19179	0.3885	0.16095	-2.3583	-2.5875	-2.825	-2.7146	-2.7062	-2.7729	-2.5854	-2.8833	-2.8354	-2.7687	-2.8583	-2.6896	-2.6583	-2.9688	-2.5792	-2.9104	246.390	136.254	314.114	152.115	327.193	142.391	229.577	42.948	103.093	310.404	165.464	14.236	43.709	93.050	44.440	113.613	9.4675e-05	0.00012359	3.7127e-05	253.02	1.2155e-06	7.2408e-07	406.41	48.033	9.5576e-07	1.104e-06	114.97	41.572	12.284	4.0021	6.8008e-07	19.107	2.8644e-05	1.3256e-05	2.8881e-06	242.83	1.3449e-07	1.1431e-07	391.78	46.58	1.3557e-07	1.2143e-07	110.84	40.249	11.728	3.8725	1.3076e-07	18.474	174.353	76.851	106.529	26.433	152.384	196.461	26.975	31.462	183.096	198.331	31.020	36.988	37.429	40.730	143.283	40.119	-8191	255	
2587.777	1	1	0	0	0.14201	0.14615	0.15742	0.068182	0.13515	0.2504	0.15081	0.1454	0.23831	0.21479	0.15567	0.04326	0.19943	0.095442	0.03394	0.044831	-2.2875	-2.4188	-3.0062	-2.5771	-2.6688	-2.8604	-2.7313	-2.8708	-2.7667	-2.6333	-2.8667	-2.6312	-2.475	-2.9458	-2.6333	-2.8229	341.065	104.383	277.181	23.501	273.132	48.271	307.512	190.153	258.839	131.382	281.106	90.468	219.162	120.306	259.679	63.143	0.00010209	0.00018225	3.6918e-05	254.2	1.2371e-06	1.0131e-06	406.23	49.282	1.3627e-06	1.4095e-06	115.06	41.565	12.11	4.0501	1.39e-06	19.112	2.8611e-05	1.3531e-05	3.1334e-06	243.64	1.4748e-07	1.1321e-07	392.16	47.054	1.3193e-07	1.4952e-07	111.34	40.464	11.767	3.9051	1.301e-07	18.333	174.694	99.786	121.684	26.164	179.891	157.813	27.222	31.275	176.431	188.035	30.602	37.027	37.348	39.905	160.013	40.161	-8191	255	
2587.873	1	1	0	0	0.14921	0.0097544	0.14949	0.26436	0.077881	0.3541	0.10084	0.30709	0.20265	0.3057	0.044379	0.022913	0.12928	0.32376	0.21002	0.08673	-2.5479	-2.4979	-3.0312	-2.7812	-2.5312	-2.9729	-2.6646	-2.5208	-2.9229	-2.6479	-3.0396	-2.7958	-2.6437	-2.9562	-2.725	-2.7229	35.709	110.990	219.915	31.508	226.205	203.643	63.479	338.371	220.651	165.684	22.069	318.567	20.536	76.549	50.147	326.385	0.00010035	0.00014418	6.3481e-05	251.84	1.7668e-06	1.277e-06	400.43	48.074	9.4722e-07	2.0163e-06	112.69	40.49	11.93	3.9244	1.6575e-06	18.351	2.6913e-05	1.2622e-05	3.2123e-06	242.59	1.4831e-07	1.2053e-07	385.35	46.808	1.3441e-07	1.2666e-07	109.19	39.399	11.667	3.8215	1.2242e-07	17.855	185.610	83.761	102.181	26.698	171.175	146.027	27.237	32.087	210.782	170.081	30.941	36.737	36.537	39.911	166.584	40.523	-8191	255	
2587.969	1	1	0	0	0.22704	0.20237	0.20063	0.046947	0.13556	0.22397	0.047817	0.20948	0.16796	0.27007	0.20383	0.18801	0.27173	0.22216	0.2221	0.074511	-2.3271	-2.5812	-2.7875	-2.7729	-2.5521	-3.0875	-2.8083	-2.4938	-3.0854	-2.6479	-2.9792	-2.8688	-2.575	-2.7896	-2.7229	-2.7292	326.341	322.593	214.962	126.722	139.617	279.435	314.241	244.210	348.661	347.499	265.707	363.945	77.229	357.013	335.214	202.614	0.00010566	5.9639e-05	3.1316e-05	254.87	5.24e-07	1.3187e-06	404.23	48.835	8.8287e-07	9.2319e-07	114.5	40.624	12.075	3.9605	8.3284e-07	18.732	2.796e-05	1.1874e-05	2.999e-06	243.91	1.5674e-07	1.2945e-07	389.74	47.306	1.4501e-07	1.3948e-07	110.08	39.487	11.686	3.806	1.1909e-07	18.017	174.111	178.661	129.365	26.410	165.448	182.059	27.318	31.675	171.093	192.025	30.851	36.719	37.350	40.151	156.495	39.915	-8191	255	
2588.065	1	1	0	0	0.082526	0.24746	0.19471	0.16817	0.23851	0.30378	0.037127	0.092901	0.22714	0.23715	0.093293	0.25386	0.37173	0.19299	0.11111	0.11586	-2.6	-2.4	-2.7792	-2.85	-2.5458	-2.9813	-2.9146	-2.6458	-3.0417	-2.8229	-2.7854	-2.875	-2.675	-2.9458	-2.8354	-2.5896	232.891	55.055	212.631	40.212	105.418	211.538	25.736	267.743	105.758	191.195	111.628	357.304	215.899	319.703	347.043	257.654	9.4302e-05	6.6331e-05	1.5083e-05	256.1	1.3535e-06	9.4761e-07	404.65	48.703	1.6106e-06	1.1358e-06	116.28	41.408	11.957	4.0033	5.7867e-07	18.712	2.7363e-05	1.1759e-05	2.7836e-06	244.7	1.5542e-07	1.4299e-07	390.21	47.265	1.2986e-07	1.1705e-07	111.7	40.226	11.83	3.8713	1.4027e-07	18.153	181.447	132.526	123.692	26.419	184.753	155.101	27.312	30.926	172.025	133.456	31.170	37.073	36.621	40.090	154.239	40.214	-8191	255	
2588.186	1	1	0	0	0.18936	0.29999	0.10521	0.17545	0.099045	0.14458	0.084127	0.071552	0.24327	0.12953	0.20778	0.071149	0.083764	0.17883	0.15428	0.10735	-2.5979	-2.5458	-2.8042	-2.8167	-2.5896	-2.5792	-2.8417	-2.5271	-3.0792	-2.7479	-2.6625	-2.9437	-2.5021	-2.8396	-2.8542	-2.5479	133.639	161.656	17.950	288.873	19.546	16.449	56.863	359.610	239.342	256.475	20.638	369.550	55.286	321.577	77.275	216.704	0.00010245	9.3864e-05	3.5414e-05	257.18	1.3918e-06	1.1454e-06	408.3	49.157	8.3494e-07	9.5045e-07	114.68	40.32	12.163	3.9144	1.3567e-06	18.034	2.7074e-05	1.2256e-05	3.7008e-06	246.78	1.732e-07	1.1876e-07	392.22	47.594	1.3541e-07	1.1924e-07	110.52	39.204	11.711	3.7728	1.1884e-07	17.521	182.868	114.207	76.649	25.852	159.277	176.215	26.899	30.717	177.764	131.446	30.759	36.726	36.679	40.486	226.091	40.482	-8191	255	
2588.282	1	1	0	0	0.091817	0.1021	0.22962	0.2325	0.19042	0.21382	0.23922	0.15356	0.20144	0.086015	0.15861	0.19274	0.027456	0.43252	0.30099	0.10539	-2.4771	-2.4896	-2.4417	-2.8583	-2.4646	-2.825	-2.7042	-2.6479	-2.7854	-2.8333	-2.6188	-2.775	-2.5812	-2.5563	-2.7479	-2.5667	47.822	57.633	13.548	153.449	81.400	285.231	167.466	273.020	115.052	161.105	276.934	329.475	70.911	23.506	355.009	301.709	9.7592e-05	0.00015	3.6323e-05	252.44	6.613e-07	1.3118e-06	395.91	48.823	1.087e-06	1.1893e-06	112.45	40.723	12.527	4.0285	1.4472e-06	18.718	2.7544e-05	1.337e-05	3.0779e-06	243.32	1.6171e-07	1.1944e-07	382.99	47.105	1.4095e-07	1.0541e-07	108.82	39.659	11.926	3.8913	1.4786e-07	18.137	179.024	98.264	102.119	26.480	204.480	196.153	26.749	31.495	146.951	182.230	31.354	36.463	36.744	40.348	162.407	40.255	-8191	255	
2588.378	1	1	0	0	0.29893	0.058206	0.13145	0.13535	0.095715	0.075259	0.19192	0.06154	0.1743	0.12242	0.057467	0.03206	0.19171	0.11011	0.097269	0.13705	-2.4292	-2.6958	-2.7104	-3.0042	-2.6479	-2.9646	-2.8833	-2.6562	-2.9021	-2.7854	-2.6604	-2.9646	-2.5646	-2.6083	-2.7271	-2.6292	258.502	113.169	165.545	359.857	81.576	323.831	292.195	78.019	332.530	83.615	300.603	46.158	59.488	90.288	352.870	157.598	9.1484e-05	0.0001127	3.5053e-05	251.47	9.1561e-07	1.6968e-06	396.1	48.672	1.0225e-06	9.4453e-07	113.15	40.654	12.226	3.957	1.7043e-06	18.525	2.7108e-05	1.0652e-05	3.6496e-06	240.98	1.5575e-07	1.1994e-07	382.94	47.084	1.4103e-07	1.2919e-07	109.41	39.726	11.974	3.8568	1.2126e-07	17.98	181.489	109.914	76.593	26.418	211.203	192.930	26.956	31.415	233.302	182.623	31.458	37.011	37.352	40.522	167.252	40.116	-8191	255	
2588.473	1	1	0	0	0.023902	0.15797	0.1565	0.016849	0.15281	0.17292	0.1041	0.2723	0.16532	0.085468	0.069913	0.079185	0.13809	0.11004	0.070286	0.099247	-2.4583	-2.775	-2.4771	-2.8521	-2.7188	-2.7875	-3.0625	-2.5729	-2.8396	-2.8625	-2.7396	-2.7646	-2.6146	-2.5938	-3.0646	-2.6729	273.341	231.182	180.493	101.215	325.002	165.295	109.528	53.006	223.948	240.165	65.994	297.838	92.818	296.278	297.223	28.105	8.926e-05	0.00017876	3.798e-05	254.06	1.217e-06	3.7429e-07	403.47	49.114	7.5974e-07	1.2243e-06	114.54	40.85	12.582	4.0231	7.5848e-07	18.562	2.5974e-05	1.1836e-05	3.1504e-06	244.02	1.4566e-07	1.1397e-07	388.17	47.527	1.2274e-07	1.2337e-07	110.28	39.671	12.048	3.8412	1.2818e-07	17.917	181.478	76.835	91.428	26.486	187.190	337.058	26.854	31.227	180.322	186.648	30.680	37.021	36.915	40.831	201.908	39.951	-8191	255	
2588.569	1	1	0	0	0.11768	0.15397	0.22537	0.054915	0.096529	0.029116	0.080774	0.075999	0.17115	0.17469	0.40362	0.070687	0.058146	0.12185	0.27209	0.14974	-2.4292	-2.8458	-2.5333	-2.9521	-2.5917	-2.7917	-2.9562	-2.6083	-2.6021	-2.9354	-2.6354	-2.75	-2.7229	-2.775	-2.8833	-2.6854	130.769	93.141	310.026	173.779	187.358	235.355	358.667	258.065	318.478	254.462	312.659	90.582	33.361	242.952	235.167	43.179	0.00010031	0.00016693	4.4091e-05	254.21	1.1541e-06	1.2804e-06	405.03	49.241	1.2371e-06	6.7319e-07	114.99	41.103	12.349	3.9478	1.372e-06	18.196	2.7919e-05	1.1782e-05	3.496e-06	244.45	1.2424e-07	1.2617e-07	389.37	47.688	1.4675e-07	1.2321e-07	110.96	39.94	11.953	3.8233	1.2584e-07	17.678	184.943	131.116	101.252	25.963	171.727	211.230	26.743	31.108	227.381	151.516	30.885	36.670	36.669	40.861	198.252	40.555	-8191	255	
2588.665	1	1	0	0	0.084084	0.21265	0.16212	0.047387	0.16979	0.13866	0.18458	0.2271	0.15757	0.2	0.24239	0.34737	0.10227	0.12285	0.35809	0.22151	-2.2833	-2.8833	-2.5396	-2.9104	-2.7062	-2.7375	-2.8729	-2.6729	-2.7417	-2.8417	-2.5854	-2.8667	-2.7146	-2.5896	-2.9688	-2.6708	159.322	303.470	13.526	193.261	370.672	151.245	69.627	351.487	139.477	343.304	239.973	225.419	142.777	87.650	310.980	315.273	9.8282e-05	7.1622e-05	6.1132e-05	252.49	1.2823e-06	1.921e-06	395.04	48.905	3.662e-07	1.3423e-06	112.49	39.724	12.225	3.8473	9.3747e-07	18.01	2.8228e-05	1.1225e-05	3.1846e-06	241.96	1.3549e-07	1.4324e-07	380.84	47.143	1.3425e-07	1.0609e-07	108.1	38.695	11.859	3.7548	9.0567e-08	17.352	182.286	118.632	99.304	26.561	180.869	166.131	26.652	30.780	184.670	227.450	31.471	36.351	36.893	40.977	139.371	40.372	-8191	255	
2588.761	1	1	0	0	0.15245	0.051716	0.14451	0.30556	0.25166	0.094817	0.1019	0.19845	0.065188	0.28053	0.099279	0.22296	0.24345	0.04373	0.24598	0.19897	-2.3833	-2.8104	-2.5312	-2.8417	-2.8937	-2.5563	-2.8042	-2.7271	-2.6667	-2.9667	-2.7604	-2.825	-2.9688	-2.5125	-3.0354	-2.6958	89.018	259.561	255.960	124.613	90.124	185.982	190.180	92.147	252.469	56.858	183.006	109.366	40.849	164.415	132.350	144.393	9.8818e-05	0.00014061	4.6343e-05	252.59	1.0677e-06	1.1099e-06	394.29	48.943	1.0748e-06	1.2279e-06	112.32	40.029	12.18	3.8558	1.6555e-06	17.858	2.6088e-05	9.9267e-06	2.8774e-06	242.3	1e-07	1.2011e-07	380.3	47.288	1.2787e-07	9.3016e-08	108.44	38.847	11.849	3.7604	8.6898e-08	17.345	178.186	75.691	96.179	26.819	216.147	160.582	27.019	31.739	195.895	180.799	31.375	36.660	36.892	40.052	208.195	40.433	-8191	255	
2588.857	1	1	0	0	0.26444	0.21477	0.053595	0.17541	0.37417	0.22253	0.088207	0.19667	0.17665	0.13589	0.16979	0.029872	0.24244	0.18041	0.17782	0.071526	-2.3521	-2.8438	-2.4979	-2.6792	-2.8187	-2.6958	-2.7958	-2.7833	-2.7229	-2.9208	-2.6417	-2.8479	-2.975	-2.625	-2.8167	-2.7708	151.500	243.767	353.772	304.878	72.569	47.377	135.937	360.808	292.258	322.725	173.929	46.574	49.430	74.036	332.878	296.039	0.00010247	0.00014505	4.9116e-05	252.27	1.3474e-06	1.1381e-06	395.53	48.991	2.1258e-07	1.5838e-06	113.68	40.532	12.246	3.8999	6.6199e-07	18.087	2.6349e-05	8.6515e-06	2.9435e-06	242.2	1.0141e-07	1.122e-07	381.27	47.523	1.3847e-07	1.0229e-07	109.43	39.291	11.911	3.7734	1.0333e-07	17.463	177.856	110.766	104.236	26.547	187.309	186.642	26.539	31.282	173.786	182.071	30.686	37.171	36.661	40.458	178.396	40.374	-8191	255	
2588.978	1	1	0	0	0.075563	0.12242	0.21003	0.31315	0.39817	0.23506	0.038533	0.13041	0.21271	0.13197	0.068415	0.057546	0.13504	0.035782	0.16992	0.13327	-2.175	-2.8542	-2.6021	-2.7354	-3.0583	-2.5729	-2.7625	-2.7542	-2.6771	-3.0062	-2.5854	-2.7188	-2.9167	-2.625	-2.8354	-2.9813	43.338	284.447	55.183	249.860	262.476	191.688	324.873	154.388	103.057	282.860	27.952	230.563	286.370	156.815	270.834	236.152	9.987e-05	0.00011447	1.8802e-05	253.87	9.979e-07	3.7048e-07	399.64	49.779	7.5946e-07	1.489e-06	113.03	40.059	12.267	3.8392	9.6796e-07	17.641	2.649e-05	1.1034e-05	2.9947e-06	243.19	1.297e-07	1.2154e-07	383.75	47.892	1.3226e-07	1.2751e-07	109.01	38.926	11.959	3.749	1.07e-07	17.105	183.697	105.288	80.037	26.805	166.404	201.586	27.182	31.228	153.825	152.132	30.798	36.559	36.534	40.716	179.582	40.213	-8191	255	
2589.074	1	1	0	0	0.15467	0.22316	0.087762	0.16923	0.13763	0.099135	0.067418	0.16656	0.27258	0.11447	0.070785	0.15025	0.30245	0.04423	0.095204	0.11061	-2.2479	-2.9708	-2.5625	-2.6688	-3.0625	-2.7792	-2.8292	-2.8979	-2.6458	-2.9208	-2.8292	-2.8542	-3.0583	-2.6708	-2.9375	-2.9542	364.315	17.284	135.281	74.419	93.521	294.892	257.336	316.364	13.106	22.333	273.665	366.454	114.593	65.854	113.295	189.934	9.2601e-05	2.895e-05	4.7057e-05	251.22	1.247e-06	1.0628e-06	388.88	48.543	5.7757e-07	1.0604e-06	110.53	39.312	12.301	3.8775	1.661e-06	17.634	2.7302e-05	1.0759e-05	2.9862e-06	241.01	1.1224e-07	1.2162e-07	375.43	47.295	1.3756e-07	1.1241e-07	106.82	38.267	11.823	3.7314	1.2935e-07	17.073	184.690	262.645	97.574	26.393	172.148	173.553	26.896	30.991	172.682	164.452	31.138	36.823	37.269	40.665	177.696	39.650	-8191	255	
2589.146	1	1	0	0	0.10591	0.19736	0.07866	0.33465	0.099542	0.18581	0.26448	0.14649	0.35462	0.16534	0.16386	0.14524	0.12698	0.2468	0.025885	0.10564	-2.1688	-2.9167	-2.8146	-2.4896	-2.7938	-2.5917	-2.8438	-2.7125	-2.7354	-2.7979	-2.8937	-2.6271	-3.0542	-2.6167	-2.7896	-2.8667	219.091	55.133	321.623	347.703	175.809	271.294	279.274	155.935	309.462	161.447	269.947	343.196	284.817	132.806	59.987	140.537	9.191e-05	0.00016342	3.4271e-05	248.55	1.2756e-06	1.7131e-06	392.66	49.108	1.3941e-06	2.2323e-06	111.67	39.74	12.439	3.8879	1.402e-06	17.65	2.6953e-05	1.137e-05	3.528e-06	240.6	1.0695e-07	1.0564e-07	377.82	47.522	1.2208e-07	1.0567e-07	107.57	38.526	11.969	3.7835	1.3735e-07	17.172	185.781	71.703	99.608	26.555	195.403	173.358	27.024	31.472	180.946	191.621	30.848	36.437	36.920	40.761	190.811	40.449	-8191	255	
2589.266	1	1	0	0	0.21787	0.098513	0.084019	0.23526	0.067195	0.089786	0.15812	0.039589	0.13261	0.13365	0.12903	0.23027	0.052874	0.31437	0.15002	0.27176	-2.1167	-2.8917	-2.7667	-2.5208	-3.0083	-2.7771	-2.6875	-2.9188	-2.5229	-2.7771	-2.9104	-2.5021	-2.9417	-2.6458	-2.5771	-2.9938	39.196	235.203	178.895	182.757	282.082	16.225	191.926	247.950	172.188	217.263	34.501	273.046	315.348	21.586	175.615	227.283	9.361e-05	8.6006e-05	4.0027e-05	250.62	1.9467e-06	9.5115e-07	391.52	49.094	1.345e-06	1.5577e-06	111.64	39.513	12.387	3.8661	1.0911e-06	17.745	2.6577e-05	1.0881e-05	2.8859e-06	240.83	1.3565e-07	1.2331e-07	378.21	47.671	1.5494e-07	1.1899e-07	108.32	38.634	11.983	3.7562	1.4311e-07	17.141	177.095	111.356	101.155	26.542	201.068	143.227	26.662	31.306	189.462	148.150	30.958	36.201	37.138	40.633	156.322	40.546	-8191	255	
2589.363	1	1	0	0	0.030927	0.01227	0.1762	0.15859	0.067359	0.33672	0.26895	0.28617	0.2724	0.057428	0.11213	0.1657	0.17203	0.17906	0.11714	0.22518	-2.1042	-2.675	-2.7875	-2.6542	-2.825	-2.8104	-2.7146	-2.775	-2.5583	-2.7208	-2.8	-2.6063	-2.95	-2.6229	-2.6104	-2.9333	62.461	332.906	71.771	343.150	109.073	93.076	340.396	180.638	28.925	93.512	17.632	306.050	361.923	166.277	211.893	110.771	9.3189e-05	0.00013181	3.9245e-05	251.14	1.8914e-06	1.3485e-06	391.7	49.675	1.7489e-06	1.2382e-06	111.03	39.239	12.363	3.8259	9.4511e-07	17.29	2.802e-05	1.1355e-05	2.9201e-06	242.56	1.335e-07	1.1691e-07	379.79	48.001	1.5734e-07	1.4412e-07	107.48	38.196	11.942	3.7062	1.3251e-07	16.722	179.170	113.797	90.006	26.562	183.791	181.609	26.883	31.437	201.733	177.554	31.086	37.125	36.553	40.460	186.792	40.190	-8191	255	
2589.459	1	1	0	0	0.30238	0.26528	0.11297	0.067192	0.10065	0.17288	0.15023	0.29943	0.18093	0.24568	0.16284	0.28153	0.11953	0.065291	0.085591	0.29455	-2.0854	-2.4896	-2.9979	-2.6646	-2.9771	-2.7396	-2.5354	-2.9354	-2.6583	-2.7938	-2.9458	-2.4146	-2.9146	-2.8042	-2.575	-2.9813	240.286	271.673	175.540	286.113	219.928	15.032	225.508	72.946	220.755	276.810	115.304	14.341	311.062	165.671	44.401	125.010	8.6338e-05	0.00014596	4.4305e-05	249.32	1.1503e-06	1.1746e-06	384.58	49.014	6.7825e-07	1.0189e-06	109.58	38.587	12.247	3.7621	1.0619e-06	17.277	2.5537e-05	1.0324e-05	2.9457e-06	239.32	1.2076e-07	1.0354e-07	372.02	47.304	1.4923e-07	1.1772e-07	105.68	37.585	11.722	3.6618	1.3869e-07	16.654	174.926	89.184	110.557	26.818	143.058	131.763	27.278	31.570	159.888	204.057	31.251	36.655	36.906	40.547	171.453	39.860	-8191	255	
2589.555	1	1	0	0	0.088598	0.19103	0.088492	0.14284	0.12418	0.031347	0.24898	0.11406	0.16913	0.2171	0.087247	0.205	0.20168	0.047194	0.33633	0.084387	-2.4188	-2.6042	-2.9813	-2.5833	-2.8583	-2.8187	-2.5083	-3.0292	-2.5729	-2.7417	-3.0875	-2.7146	-2.9458	-2.8125	-2.4479	-2.8542	290.504	123.849	168.067	356.532	110.415	252.302	277.990	84.972	308.359	121.423	272.859	352.768	93.091	139.757	293.578	88.133	8.1511e-05	0.00010127	5.1827e-05	252.68	1.7228e-06	1.2817e-06	386.6	49.002	4.2101e-07	1.0717e-06	110.9	38.678	12.294	3.7917	1.2615e-06	17.432	2.5303e-05	1.1019e-05	2.9969e-06	241.3	1.2746e-07	1.1279e-07	373.43	47.471	1.4046e-07	1.2692e-07	106.55	37.928	11.815	3.6811	1.2092e-07	16.89	180.765	99.993	87.936	26.349	192.439	148.374	27.037	31.355	221.050	139.962	30.849	36.713	37.275	40.825	158.044	40.243	-8191	255	
2589.675	1	1	0	0	0.24613	0.12739	0.095728	0.16365	0.10135	0.18841	0.36126	0.052307	0.17737	0.10678	0.14746	0.17978	0.05977	0.11622	0.27045	0.059842	-2.3458	-2.6479	-3.0458	-2.5917	-2.7333	-2.7938	-2.3604	-2.9625	-2.7562	-2.6208	-2.9146	-2.7062	-2.6917	-2.8167	-2.5333	-2.8271	135.442	17.191	172.275	284.847	54.374	78.737	324.298	35.940	157.667	50.742	271.374	284.258	213.226	246.752	215.433	137.763	0.00010265	0.00015789	2.2869e-05	248.27	1.2262e-06	7.0472e-07	389.82	49.767	9.431e-07	9.2533e-07	111.61	39.772	12.343	3.8904	7.9056e-07	17.713	2.5256e-05	1.1859e-05	2.743e-06	240.5	1.3913e-07	1.149e-07	375.68	47.937	1.2208e-07	1.4285e-07	107.84	38.641	11.935	3.7682	1.3643e-07	17.107	181.380	100.841	87.647	26.382	188.237	113.086	27.026	31.144	161.299	238.862	31.038	36.564	36.611	40.566	159.553	39.812	-8191	255	
2589.770	1	1	0	0	0.13522	0.12815	0.17243	0.25367	0.11894	0.29612	0.10141	0.12785	0.087716	0.02162	0.17691	0.12447	0.27763	0.1471	0.050324	0.13378	-2.3438	-2.6146	-2.9479	-2.775	-2.7	-3.0333	-2.6417	-2.925	-2.7646	-2.5563	-2.8979	-2.7708	-2.7271	-2.9604	-2.4854	-2.9104	84.737	275.272	102.753	214.014	138.486	88.695	62.301	109.192	224.649	179.551	339.867	22.484	79.329	334.743	240.023	18.923	9.4083e-05	0.00024162	4.0787e-05	250.22	1.248e-06	1.1602e-06	393.57	49.399	1.4131e-06	1.8335e-06	110.65	39.251	12.42	3.801	1.5064e-06	17.285	2.6577e-05	1.3477e-05	2.8113e-06	241.39	1.402e-07	9.7232e-08	378.39	47.804	1.3408e-07	1.3619e-07	106.94	38.216	11.927	3.685	1.3385e-07	16.698	178.426	108.693	125.719	26.183	222.690	175.318	26.946	31.234	164.372	149.487	31.001	36.967	36.968	40.277	173.243	40.137	-8191	255	
2589.866	1	1	0	0	0.16713	0.25927	0.15695	0.26166	0.24887	0.18433	0.32873	0.088834	0.11905	0.22889	0.14562	0.18813	0.028385	0.068732	0.13177	0.18893	-2.3833	-2.6542	-2.9021	-2.6875	-2.6917	-2.9938	-2.5896	-2.7917	-2.8812	-2.6333	-2.9688	-2.7	-2.5812	-2.8625	-2.5604	-2.8771	351.866	266.145	69.414	288.567	317.849	16.708	266.404	229.916	152.633	301.645	222.980	18.074	177.010	127.790	52.873	180.523	7.9816e-05	0.00017808	2.8242e-05	249.06	1.1026e-06	1.2607e-06	381.53	49.112	1.1748e-06	8.9365e-07	110.36	38.883	12.236	3.8178	4.7799e-07	17.242	2.4397e-05	1.2317e-05	2.8667e-06	238.4	1.2986e-07	9.6812e-08	368.89	47.286	1.2423e-07	1.2801e-07	105.6	37.58	11.812	3.6704	1.19e-07	16.615	182.339	110.827	106.131	26.396	176.943	213.855	26.896	31.233	210.115	141.138	30.797	36.944	36.299	40.850	216.513	40.042	-8191	255	
2589.962	1	1	0	0	0.19253	0.064	0.11616	0.061601	0.16122	0.090583	0.41629	0.14184	0.13233	0.14726	0.097692	0.051176	0.24263	0.082376	0.073172	0.12284	-2.4979	-2.6188	-2.8063	-2.75	-2.6833	-2.8354	-2.6125	-2.7583	-3.0396	-2.7	-3.0729	-2.7271	-2.6437	-2.8563	-2.6813	-2.7729	60.753	180.648	47.207	244.924	27.691	124.894	34.528	359.624	140.100	191.023	351.209	353.839	227.633	339.895	242.683	34.288	9.39e-05	0.00010322	4.8346e-05	249.15	9.8454e-07	1.5859e-06	388.77	49.059	1.2084e-06	1.6793e-06	109.82	38.721	12.336	3.7904	1.4649e-06	17.319	2.6014e-05	1.0583e-05	2.9371e-06	239.03	1.4434e-07	1.027e-07	373.4	47.701	1.2398e-07	1.2321e-07	106.06	37.745	11.907	3.6755	1.1125e-07	16.748	171.844	105.929	106.795	26.663	174.441	129.280	27.166	30.606	176.462	189.324	31.160	36.890	35.907	40.979	181.667	39.858	-8191	255	
2590.058	1	1	0	0	0.10415	0.20842	0.24866	0.043069	0.15445	0.083922	0.31038	0.078051	0.22791	0.20763	0.0832	0.2511	0.16447	0.12942	0.14073	0.086526	-2.5438	-2.4854	-2.8833	-2.775	-2.8042	-2.9313	-2.6771	-2.6771	-2.8563	-2.7958	-2.825	-2.7396	-2.5792	-2.9542	-2.7354	-2.6104	245.910	56.831	231.668	245.769	141.765	193.302	140.881	186.286	359.017	102.732	119.002	362.049	287.216	329.755	320.329	325.002	9.8097e-05	0.00017909	1.5339e-05	248.93	1.1486e-06	1.7709e-06	387.65	49.422	5.553e-07	1.1464e-06	111.15	39.265	12.368	3.8977	1.4305e-06	17.49	2.5021e-05	1.0721e-05	2.6769e-06	239.53	1.4574e-07	8.9073e-08	373.49	47.623	1.1198e-07	1.2388e-07	107.54	38.285	11.924	3.7561	1.065e-07	16.925	176.525	115.245	133.600	26.349	195.820	162.798	26.942	31.336	186.804	148.239	31.365	36.713	36.545	40.287	158.273	40.131	-8191	255	
2590.154	1	1	0	0	0.071336	0.28391	0.18436	0.27709	0.16863	0.069121	0.22506	0.10143	0.080772	0.13564	0.18248	0.064687	0.078084	0.19174	0.23697	0.12683	-2.4708	-2.7396	-2.7146	-2.6375	-2.5042	-2.8438	-2.8292	-2.6312	-2.9625	-2.7208	-2.8812	-2.8917	-2.3833	-2.7333	-2.6604	-2.6646	272.683	165.846	93.140	317.201	308.611	123.868	352.354	340.199	86.099	353.783	345.953	355.659	174.527	85.189	135.765	20.443	8.8978e-05	0.00016694	4.4629e-05	249.03	1.1228e-06	1.288e-06	386.05	49.241	1.2535e-06	9.9125e-07	110.75	39.431	12.383	3.8335	1.1597e-06	17.166	2.4189e-05	1.1049e-05	3.1355e-06	239.41	1.3433e-07	1.0304e-07	373.43	47.692	1.1496e-07	1.0255e-07	106.6	38.042	11.907	3.6797	9.3569e-08	16.53	183.136	99.427	113.740	26.767	176.448	162.698	27.408	31.456	155.862	180.038	31.034	36.567	36.771	40.708	200.779	40.065	-8191	255	
2590.275	1	1	0	0	0.31367	0.069489	0.30788	0.28545	0.12989	0.11802	0.092103	0.12668	0.049612	0.1238	0.35241	0.14189	0.12124	0.10251	0.22673	0.1691	-2.4	-2.575	-2.7021	-2.9333	-2.5292	-2.9583	-2.8375	-2.6854	-2.9792	-2.6583	-2.7979	-3.0229	-2.5729	-2.9729	-2.5812	-2.6333	245.086	17.640	297.376	32.531	340.776	15.423	331.306	290.324	105.028	315.517	335.588	118.088	99.885	196.851	144.663	312.848	9.2809e-05	0.00012718	5.3546e-05	245.79	1.1534e-06	1.5038e-06	378.79	48.575	1.2414e-06	5.1384e-07	109.87	38.54	12.283	3.7484	1.2111e-06	16.944	2.2411e-05	8.8958e-06	2.6748e-06	235.69	1.3069e-07	7.9569e-08	364.84	46.923	8.8892e-08	8.8293e-08	105.29	37.3	11.774	3.6481	9.3486e-08	16.457	183.167	95.006	130.114	26.587	188.598	182.105	27.111	31.299	171.114	203.283	30.643	36.459	36.104	40.502	182.143	40.008	-8191	255	
2590.371	1	1	0	0	0.048559	0.031748	0.24631	0.18495	0.13769	0.029538	0.26708	0.18133	0.30953	0.068654	0.21317	0.32092	0.064751	0.27634	0.088043	0.13135	-2.4771	-2.7188	-2.9062	-2.8854	-2.4229	-3.1146	-2.8979	-2.6958	-3.0375	-2.9146	-2.6896	-3.1292	-2.5646	-2.7687	-2.7229	-2.6688	295.801	138.114	371.147	155.082	37.741	287.334	118.811	150.910	317.188	289.303	356.731	280.393	161.070	365.382	110.481	99.954	9.3108e-05	0.00016933	4.7356e-05	245.52	1.0915e-06	7.2793e-07	380.23	49.519	9.7439e-07	4.44e-07	109.58	38.673	12.333	3.7602	1.1737e-06	17.109	2.3511e-05	1.0637e-05	2.1309e-06	236.22	1.1406e-07	8.1924e-08	367.38	47.542	1.0619e-07	8.8715e-08	105.66	37.574	11.883	3.6631	7.4555e-08	16.569	188.628	121.743	120.619	26.573	163.932	169.268	27.135	31.351	223.387	273.150	30.901	36.733	37.022	40.490	197.060	40.056	-8191	255	
2590.443	1	1	0	0	0.19297	0.23768	0.20006	0.18938	0.33756	0.16395	0.097533	0.12072	0.11119	0.081292	0.039364	0.11643	0.31699	0.154	0.19186	0.26149	-2.6354	-2.75	-2.7	-2.9979	-2.6917	-2.9542	-2.8438	-2.7042	-2.8208	-2.8875	-2.7417	-2.8375	-2.7188	-2.6646	-2.9979	-2.6688	99.422	57.568	212.774	258.537	214.302	192.215	345.407	126.250	29.582	253.202	347.812	234.416	185.985	184.704	192.510	329.292	9.1379e-05	0.00017102	3.4329e-05	246.83	1.5819e-06	1.2234e-06	381.88	49.266	5.434e-07	1.3475e-06	110.49	39.239	12.239	3.8366	1.2562e-06	17.313	2.3766e-05	9.0943e-06	2.4124e-06	236.68	1.2573e-07	1.0522e-07	369.34	47.361	1.1215e-07	9.1582e-08	106.56	38.15	11.964	3.7204	9.874e-08	16.838	179.998	101.844	124.139	26.478	201.112	188.314	27.244	30.851	208.040	164.161	31.043	36.523	36.964	40.330	157.432	40.462	-8191	255	
2590.539	1	1	0	0	0.059762	0.22925	0.21424	0.042891	0.26746	0.096222	0.16754	0.11479	0.14331	0.077194	0.059737	0.16532	0.28667	0.14869	0.26213	0.27853	-2.6042	-2.8229	-2.6813	-2.9417	-2.6958	-2.8625	-2.9667	-2.6188	-2.7854	-2.7771	-2.6167	-2.9167	-2.85	-2.5354	-2.9708	-2.6625	180.486	139.948	184.829	190.996	151.866	276.724	264.618	281.778	349.058	244.341	347.435	370.408	36.614	61.690	241.013	278.970	8.7469e-05	0.00023473	4.1629e-05	246.02	1.2445e-06	8.9582e-07	382.8	48.582	5.5919e-07	1.0133e-06	109.6	38.948	12.439	3.8552	9.0253e-07	17.12	2.3853e-05	8.3002e-06	2.6343e-06	236.57	1.1224e-07	9.0672e-08	369.79	47.271	1.0031e-07	8.7366e-08	105.63	37.84	11.917	3.6782	8.8399e-08	16.48	180.331	103.562	91.750	26.094	205.609	137.573	27.079	31.164	167.956	201.860	30.806	36.968	36.407	40.743	144.768	40.004	-8191	255	
2590.658	1	1	0	0	0.1547	0.086613	0.092675	0.27354	0.24615	0.062642	0.18824	0.079937	0.15252	0.24145	0.11654	0.088369	0.032022	0.077793	0.27399	0.27712	-2.2292	-2.7812	-2.4271	-2.9021	-2.9188	-2.6854	-2.9333	-2.8438	-2.825	-2.7542	-2.625	-2.9938	-2.6271	-2.6167	-2.8646	-2.65	193.254	306.954	96.324	339.303	67.533	149.280	370.772	155.625	322.219	66.465	237.512	241.503	265.605	212.462	140.021	265.584	8.8142e-05	0.00015657	5.3774e-05	243.2	1.5292e-06	1.0917e-06	375.13	48.336	7.7641e-07	1.0879e-06	107.49	38.084	12.38	3.7304	1.0852e-06	16.904	2.392e-05	9.7281e-06	2.4018e-06	234.28	1.12e-07	1.0396e-07	363.15	46.991	1.1066e-07	8.9305e-08	104.28	37.229	11.902	3.6269	8.8983e-08	16.335	181.314	87.182	109.285	26.351	196.919	162.181	27.542	31.677	179.938	187.368	30.522	36.918	36.594	40.406	199.748	39.870	-8191	255	
2590.754	1	1	0	0	0.19291	0.18829	0.11849	0.062732	0.086994	0.30522	0.30904	0.062113	0.18428	0.15298	0.27851	0.054575	0.12945	0.074455	0.16519	0.10901	-2.4667	-2.7854	-2.6083	-3.0667	-2.8333	-2.7521	-2.8521	-2.7979	-2.7125	-2.7875	-2.7208	-3.0271	-2.6917	-2.8292	-2.8667	-2.5771	133.836	269.653	263.289	365.753	178.236	342.445	316.922	242.047	362.087	50.164	335.752	296.670	307.958	368.481	299.880	52.226	9.1038e-05	5.9144e-05	1.3686e-05	246.28	1.5807e-06	8.9886e-07	377.96	48.75	1.4449e-06	1.7227e-06	109.39	38.757	12.583	3.8315	6.6834e-07	16.898	2.4363e-05	7.7886e-06	2.4188e-06	236.41	1.1894e-07	8.5877e-08	364.84	47.197	1.1157e-07	8.5173e-08	105.24	37.624	12.039	3.685	1.0241e-07	16.473	175.750	71.369	118.478	26.229	164.468	203.642	27.210	30.825	145.294	206.966	31.116	36.903	36.949	40.463	204.735	39.966	-8191	255	
2590.850	1	1	0	0	0.32241	0.010643	0.28128	0.20814	0.10885	0.12026	0.090663	0.032181	0.19892	0.063382	0.19198	0.14614	0.1452	0.061047	0.10765	0.15871	-2.3688	-2.9479	-2.6042	-2.7667	-2.9938	-2.6562	-3.0917	-2.7313	-2.6271	-2.9938	-2.575	-2.9625	-2.8438	-2.5458	-2.875	-2.6104	268.251	348.337	48.629	65.694	293.257	350.896	18.385	23.533	107.420	289.068	36.711	255.689	92.642	22.944	372.500	358.845	9.112e-05	0.00020006	1.7329e-05	246.08	1.3271e-06	1.0398e-06	383	48.918	9.889e-07	1.6386e-06	110.16	38.773	12.509	3.8547	1.0128e-06	17.201	2.541e-05	6.6585e-06	2.647e-06	235.98	1.0662e-07	9.8998e-08	367.97	47.534	1.162e-07	8.3402e-08	105.95	37.894	11.977	3.7183	1.0124e-07	16.681	178.740	104.039	124.121	26.208	182.394	142.803	27.054	30.677	224.390	149.548	31.192	36.632	36.894	40.840	173.535	39.646	-8191	255	
2590.946	1	1	0	0	0.22159	0.046112	0.14646	0.23054	0.081458	0.11692	0.16647	0.090684	0.014859	0.24994	0.27573	0.25305	0.23586	0.075309	0.28693	0.1485	-2.1583	-2.8542	-2.6063	-2.8104	-2.9	-2.7042	-3.0062	-2.7438	-2.8354	-3.0542	-2.5896	-2.7146	-2.9021	-2.5187	-2.8167	-2.7833	59.469	309.971	130.879	174.554	149.863	154.593	268.451	311.605	28.103	73.502	334.476	248.133	35.559	268.827	348.775	156.900	9.057e-05	0.00015842	5.4014e-05	248.42	5.9366e-07	1.4952e-06	382.89	48.71	9.427e-07	8.8406e-07	108.91	37.915	12.255	3.7567	7.3385e-07	16.518	2.4269e-05	8.598e-06	2.6428e-06	237.71	1.0008e-07	9.698e-08	368.35	47.558	1.1736e-07	9.3775e-08	104.92	37.151	11.849	3.6437	7.4305e-08	16.029	182.254	92.799	92.734	27.063	205.010	132.726	27.247	31.022	163.291	205.446	30.866	36.801	36.187	40.972	165.753	40.373	-8191	255	
2591.067	1	1	0	0	0.29228	0.07226	0.11522	0.091019	0.02167	0.18169	0.22526	0.085973	0.30539	0.037055	0.13489	0.14105	0.11522	0.037891	0.062147	0.14542	-2.2542	-2.9104	-2.5917	-2.8354	-2.8646	-2.7729	-3.1229	-2.6937	-2.5938	-2.9854	-2.6937	-2.7208	-2.9396	-2.5625	-2.7271	-2.6396	369.654	259.255	176.316	14.999	145.190	71.321	35.231	156.464	13.174	332.959	258.887	29.885	128.640	30.464	115.909	16.223	0.00010126	0.00015084	5.1669e-05	246.59	6.4714e-07	7.6234e-07	373.9	49.449	1.3684e-06	1.4323e-06	107.37	37.91	12.388	3.7246	4.2139e-07	16.645	2.4075e-05	7.7886e-06	2.4764e-06	234.89	9.8678e-08	1.0564e-07	360.96	47.508	1.1331e-07	8.0113e-08	103.51	36.788	11.886	3.6364	8.4729e-08	16.129	175.433	119.659	110.808	26.117	155.406	124.527	27.078	31.042	198.117	152.511	30.812	37.231	36.312	41.008	155.197	40.022	-8191	255	
2591.139	1	1	0	0	0.16881	0.069929	0.10256	0.232	0.15122	0.22135	0.17057	0.079742	0.067554	0.040782	0.087499	0.22375	0.072991	0.19509	0.23195	0.14948	-2.3125	-2.875	-2.6917	-2.5812	-2.8417	-2.475	-3.0396	-2.7396	-2.5458	-3.0354	-2.6583	-2.6958	-2.8771	-2.5917	-2.7083	-2.7229	95.224	33.790	243.113	318.455	324.292	119.187	363.050	122.747	23.477	204.594	187.915	111.960	180.966	22.849	289.609	333.347	9.4865e-05	4.2017e-05	2.4792e-05	245.65	1.0141e-06	6.6533e-07	377.44	49.047	1.5622e-06	8.6543e-07	107.57	38.15	12.389	3.7686	8.3514e-07	16.748	2.5041e-05	6.6661e-06	2.133e-06	235.09	1.1522e-07	9.9924e-08	363.28	47.39	1.2647e-07	8.2812e-08	104.06	37.061	11.89	3.6464	9.874e-08	16.203	183.763	57.096	79.857	26.493	175.112	180.832	27.526	31.360	177.915	141.475	31.017	36.607	36.877	39.589	168.830	40.425	-8191	255	
2591.235	1	1	0	0	0.037231	0.20735	0.12417	0.14984	0.20611	0.17328	0.052162	0.050184	0.12195	0.19401	0.24615	0.17164	0.11282	0.17969	0.13059	0.083479	-2.0979	-2.9646	-2.7208	-2.5958	-2.9917	-2.6229	-2.9146	-2.9458	-2.4167	-2.7938	-2.7021	-2.5687	-2.975	-2.6646	-2.6562	-2.9958	83.654	81.979	96.443	54.022	282.214	207.435	231.901	134.948	186.581	210.720	234.072	203.500	143.019	199.450	117.876	76.947	9.1934e-05	0.00021841	2.0589e-05	247.44	8.4164e-07	1.8948e-06	379.66	49.214	1.1382e-06	1.1757e-06	109.61	38.402	12.453	3.8149	1.4616e-06	17.084	2.3672e-05	7.6741e-06	2.6385e-06	236.55	9.3054e-08	9.4204e-08	365.79	47.749	1.1231e-07	7.868e-08	105.18	37.405	12.03	3.6801	1.0299e-07	16.428	185.431	78.360	107.169	26.737	176.078	144.525	27.219	31.162	168.501	159.754	31.679	37.011	35.873	41.254	181.953	40.213	-8191	255	
2591.355	1	1	0	0	0.04631	0.15683	0.057736	0.065116	0.047376	0.077753	0.24397	0.079966	0.24124	0.15162	0.1999	0.14659	0.12104	0.035749	0.092185	0.13776	-2.2042	-2.8271	-2.6437	-2.6979	-3.0687	-2.5792	-2.7708	-2.8063	-2.4729	-2.7521	-2.9229	-2.625	-2.8	-2.725	-2.9083	-3.0042	340.939	287.959	139.548	154.706	245.641	349.351	287.968	153.684	308.628	106.997	306.334	29.120	111.197	93.712	152.415	348.375	9.7877e-05	0.00015509	3.3279e-05	248.19	1.0247e-06	2.9966e-07	378.32	48.972	8.5729e-07	1.2078e-06	107.47	37.926	12.28	3.7775	4.6266e-07	16.49	2.5182e-05	6.8494e-06	2.1287e-06	237.19	9.8678e-08	8.7896e-08	365.52	47.68	1.1604e-07	9.1245e-08	103.88	36.874	11.952	3.6341	1.0291e-07	15.994	178.690	113.306	68.112	26.759	154.202	55.423	27.167	31.746	212.409	192.072	30.758	37.235	35.832	40.804	247.295	40.042	-8191	255	
2591.452	1	1	0	0	0.35312	0.19313	0.16948	0.020278	0.13538	0.12609	0.21515	0.14303	0.03756	0.15164	0.19502	0.21792	0.15938	0.14992	0.17335	0.25752	-2.0875	-2.8375	-2.7729	-2.5417	-2.9021	-2.7313	-2.7313	-2.9437	-2.5979	-2.5708	-2.6729	-2.6396	-2.8875	-2.6146	-2.6729	-2.8208	276.826	243.125	148.095	316.835	269.971	86.846	264.009	171.523	228.607	227.071	121.047	345.929	315.092	276.668	36.282	235.936	7.409e-05	0.00014217	3.4335e-05	243.31	1.0433e-06	8.2459e-07	373.98	48.872	9.5309e-07	1.7341e-06	107.48	38.108	12.315	3.7961	6.2967e-07	16.612	2.431e-05	9.0638e-06	2.0263e-06	234.21	8.9663e-08	8.8232e-08	359.75	47.358	1.1058e-07	8.7366e-08	103.26	36.78	11.822	3.6592	1.0241e-07	16	177.107	92.796	85.071	26.613	190.209	229.296	27.039	31.186	189.580	175.057	30.938	36.654	36.597	40.727	156.375	39.788	-8191	255	
2591.548	1	1	0	0	0.085898	0.091468	0.18325	0.082324	0.18736	0.11128	0.13233	0.13983	0.14561	0.12658	0.1466	0.21954	0.23286	0.30822	0.12218	0.17498	-2.0729	-2.7604	-2.7979	-2.5938	-2.7875	-2.7313	-2.5979	-2.7875	-2.4875	-2.7146	-2.8021	-2.6604	-2.8146	-2.5771	-2.7354	-2.9917	214.474	17.885	128.555	362.709	272.802	245.172	307.836	333.795	301.949	311.477	277.818	48.084	209.835	248.793	44.385	263.753	7.9292e-05	0.00014404	2.8852e-05	246.53	1.0704e-06	1.2336e-06	375.95	49.512	7.9192e-07	2.3542e-06	107.87	38.024	12.628	3.703	5.8643e-07	16.474	2.378e-05	8.2926e-06	2.3228e-06	236.64	1.0736e-07	7.9737e-08	362.23	47.683	1.0991e-07	9.504e-08	103.81	36.883	11.945	3.629	1.185e-07	15.967	178.850	85.953	92.516	26.507	208.336	128.839	27.175	31.414	153.376	158.721	31.151	35.846	36.599	40.422	168.918	40.149	-8191	255	
2591.667	1	1	0	0	0.03832	0.31951	0.036166	0.12809	0.13735	0.14147	0.15258	0.047288	0.047299	0.1474	0.32419	0.27465	0.36903	0.11431	0.075285	0.11675	-2.2833	-2.6646	-2.7542	-2.5333	-2.8667	-2.5792	-2.5521	-2.7792	-2.6667	-2.7292	-2.8354	-2.5333	-2.9062	-2.7708	-2.575	-2.8563	210.318	200.649	58.977	245.221	198.372	247.936	274.061	52.924	173.048	238.113	323.906	14.213	186.736	281.553	22.398	100.050	8.0739e-05	0.00017339	4.0009e-05	247.5	1.4657e-06	1.3474e-06	377.38	49.866	1.1131e-06	1.2276e-06	109.23	37.826	12.547	3.789	1.3409e-06	16.696	2.3243e-05	9.4685e-06	2.0434e-06	236.94	1.0695e-07	9.37e-08	363.07	48.078	1.2059e-07	9.2088e-08	104.44	36.883	12.045	3.6663	9.6571e-08	16.089	173.965	99.382	125.501	26.485	186.059	208.691	27.013	30.841	199.631	159.975	31.112	36.551	36.491	40.933	205.682	40.086	-8191	255	
2591.738	1	1	0	0	0.088899	0.26199	0.21575	0.11925	0.01466	0.29964	0.1516	0.31024	0.1648	0.17347	0.30317	0.21536	0.09908	0.27918	0.06948	0.11732	-2.2875	-2.7167	-2.9583	-2.5687	-2.6833	-2.8438	-2.8042	-2.8187	-2.7667	-2.7333	-3.0042	-2.4604	-2.7375	-2.8042	-2.4833	-3.0187	325.100	191.787	144.834	238.060	185.171	70.315	268.358	315.508	246.505	243.575	92.511	240.598	337.769	361.099	252.984	316.031	9.2707e-05	0.00012483	2.9027e-05	247.91	1.366e-06	1.5201e-06	378.41	49.09	9.6261e-07	1.5399e-06	107.44	37.597	12.354	3.7915	1.0296e-06	16.257	2.3223e-05	8.9951e-06	1.8301e-06	237.8	1.153e-07	7.9821e-08	363.34	47.95	1.0958e-07	9.563e-08	103.22	36.513	11.926	3.6323	1.09e-07	15.787	176.931	78.723	72.000	26.476	178.735	121.994	26.917	31.256	168.189	172.755	30.845	36.716	36.931	41.055	198.953	40.106	-8191	255	
2591.834	1	1	0	0	0.22771	0.10361	0.15836	0.068788	0.10458	0.23529	0.30935	0.074368	0.11496	0.29729	0.04901	0.16048	0.18049	0.12082	0.11248	0.10827	-2.3958	-2.6437	-3.0417	-2.6063	-2.6688	-2.9062	-2.7292	-2.6708	-2.8333	-2.5479	-2.7521	-2.6813	-2.8417	-2.8542	-2.475	-2.7458	75.383	224.136	232.978	221.470	214.955	151.635	312.989	367.764	137.736	235.304	191.919	213.279	220.339	100.940	84.998	116.565	8.4993e-05	0.00011622	2.6628e-05	243.96	7.1036e-07	1.4994e-06	372.03	49.357	1.3389e-06	1.5656e-06	106.25	37.381	12.242	3.7102	5.3762e-07	16.323	2.3082e-05	1.0194e-05	2.1415e-06	235.32	1.1299e-07	7.6541e-08	357.06	47.853	1.2051e-07	1.0246e-07	102.75	36.314	11.833	3.6005	1.0625e-07	15.815	174.351	86.948	98.728	26.242	158.618	213.362	26.791	31.269	169.474	156.325	30.254	36.876	36.150	41.173	203.059	40.171	-8191	255	
2591.955	1	1	0	0	0.13541	0.10574	0.2193	0.20268	0.23754	0.085319	0.076409	0.09297	0.18885	0.19244	0.20136	0.10587	0.10429	0.089198	0.20225	0.17308	-2.4271	-2.6625	-2.8063	-2.4437	-2.6271	-2.9917	-2.7333	-2.8375	-2.7979	-2.6167	-2.7854	-2.6146	-2.6042	-2.8583	-2.625	-2.7521	373.275	236.095	238.266	247.349	198.640	161.195	133.368	259.929	63.208	196.521	299.978	124.763	365.173	246.893	331.600	183.995	8.6613e-05	7.3599e-05	4.5744e-05	245.27	1.8833e-06	1.5453e-06	370.82	49.486	1.1196e-06	1.0657e-06	106.97	37.867	12.498	3.7782	1.7694e-06	16.529	2.3236e-05	9.4838e-06	2.7366e-06	235.17	1.1373e-07	8.5036e-08	358.3	47.649	9.8079e-08	1.1815e-07	102.96	36.634	12.012	3.6568	1.19e-07	15.984	179.259	39.800	101.333	26.442	188.212	136.763	26.723	31.668	183.620	161.678	31.274	36.853	37.163	41.182	156.632	40.212	-8191	255	
2592.051	1	1	0	0	0.19762	0.13963	0.093478	0.19194	0.19659	0.13577	0.20535	0.10791	0.21957	0.23502	0.16569	0.11	0.24363	0.20283	0.1579	0.17091	-2.3521	-2.6083	-2.8604	-2.6562	-2.6354	-2.9854	-2.5812	-2.6312	-2.6729	-2.6333	-2.6875	-2.4833	-2.5604	-2.95	-2.675	-2.7	334.572	31.400	39.961	177.343	31.032	280.070	301.740	290.725	309.379	34.240	91.240	202.247	341.870	111.590	56.911	319.731	8.5628e-05	5.0713e-05	9.3057e-06	244.16	1.2072e-06	9.9949e-07	374.03	49.547	5.8241e-07	1.4506e-06	107.75	37.952	12.611	3.8079	1.1802e-06	16.616	2.227e-05	9.9954e-06	2.4551e-06	234.63	1.2473e-07	7.8475e-08	360.15	48.038	1.0164e-07	1.114e-07	103.86	36.795	12.115	3.6797	1.1559e-07	16.079	178.185	100.846	108.067	26.802	201.521	198.758	26.767	31.371	189.852	205.613	30.635	36.517	37.072	41.339	166.883	40.015	-8191	255	
2592.147	1	1	0	0	0.072117	0.14304	0.22594	0.065396	0.078634	0.0863	0.39177	0.11282	0.077951	0.32492	0.18026	0.25097	0.085955	0.059105	0.16904	0.2024	-2.4417	-2.3792	-2.85	-2.6625	-2.6875	-2.8896	-2.6604	-2.675	-2.8375	-2.5875	-2.8187	-2.6437	-2.6354	-2.775	-2.4875	-2.4917	282.864	225.708	46.186	257.735	341.624	158.544	345.954	218.488	18.496	203.467	361.426	95.937	342.252	261.975	321.443	26.085	9.9143e-05	8.3783e-05	1.6849e-05	246.84	1.32e-06	1.3451e-06	373.75	49.619	7.4659e-07	2.1572e-06	106.17	37.352	12.778	3.7065	1.2145e-06	16.223	2.4873e-05	9.6976e-06	2.5148e-06	236.09	1.206e-07	9.5298e-08	359.19	48.155	1.1579e-07	9.3775e-08	102.74	36.419	12.104	3.6283	9.0901e-08	15.721	180.928	106.807	108.130	26.806	174.024	202.605	27.200	31.542	216.785	203.685	30.718	36.694	36.321	39.624	134.232	40.503	-8191	255	
2592.244	1	1	0	0	0.17743	0.17455	0.12171	0.1801	0.30742	0.16983	0.14343	0.1418	0.21897	0.093189	0.13669	0.20572	0.23082	0.12722	0.11799	0.096722	-2.3354	-2.7042	-2.7271	-2.8604	-2.7271	-2.8896	-2.6104	-2.6167	-2.7562	-2.4583	-2.7917	-2.8021	-2.3604	-2.7438	-2.5958	-2.5917	172.272	120.309	25.141	300.584	303.571	324.357	111.987	118.204	15.427	227.808	308.883	29.618	95.153	95.401	46.344	19.487	9.2464e-05	0.00013544	3.952e-05	244.89	4.9856e-07	1.2072e-06	369.68	49.442	7.3258e-07	1.3173e-06	106.5	37.175	12.462	3.7958	8.8367e-07	16.261	2.2921e-05	9.9037e-06	2.2418e-06	234.03	1.0993e-07	8.8989e-08	352.93	47.809	9.6092e-08	1.0583e-07	102.26	36.219	11.924	3.6521	1.0216e-07	15.741	180.737	78.745	99.236	26.349	149.218	175.404	27.288	31.440	150.344	193.170	31.307	36.461	37.343	40.697	167.879	39.959	-8191	255	
2592.315	1	1	0	0	0.1442	0.11784	0.082448	0.039768	0.16579	0.22073	0.08589	0.065134	0.13603	0.39442	0.13927	0.30035	0.16424	0.34119	0.19321	0.082232	-2.4667	-2.525	-2.6417	-2.8833	-2.6	-2.8208	-2.825	-2.6083	-2.8917	-2.5771	-2.875	-2.8375	-2.4542	-2.5312	-2.9062	-2.45	250.118	80.096	328.318	333.436	286.994	155.047	73.761	350.370	222.566	250.451	275.458	20.189	207.264	256.983	316.723	145.668	8.3631e-05	0.00015084	4.8215e-05	244.29	1.4511e-06	1.2003e-06	368.43	49.613	5.7536e-07	6.9502e-07	106.2	37.713	12.636	3.7828	7.031e-07	16.454	2.2458e-05	9.2623e-06	2.3847e-06	234.77	1.1464e-07	7.2167e-08	354.76	48.19	1.0304e-07	8.3824e-08	102.61	36.424	12.054	3.6558	9.3319e-08	15.807	178.962	83.381	103.388	26.664	202.957	172.764	26.849	31.830	163.569	175.711	30.900	37.053	36.706	40.571	200.877	40.414	-8191	255	
2592.436	1	1	0	0	0.23994	0.13896	0.042119	0.14655	0.24651	0.12264	0.11425	0.15724	0.10564	0.26114	0.050052	0.11044	0.27454	0.24883	0.13567	0.11335	-2.475	-2.5417	-2.6833	-2.6271	-2.5271	-2.9521	-2.6875	-2.5354	-2.925	-2.6917	-2.6104	-2.825	-2.5812	-2.7167	-2.7062	-2.5729	147.149	320.201	285.456	274.739	167.255	128.602	252.448	166.873	19.924	24.265	174.082	309.897	104.495	100.252	199.820	39.529	8.8876e-05	0.0001208	2.6164e-05	248.14	8.4458e-07	6.9464e-07	375.88	50.73	1.3435e-06	1.1247e-06	107.59	37.166	12.599	3.7128	2.3596e-07	16.254	2.339e-05	8.3002e-06	2.5041e-06	237.35	1.1324e-07	9.37e-08	359.9	48.644	9.5348e-08	9.6052e-08	103.5	36.409	12.016	3.6073	9.6738e-08	15.649	176.071	112.399	118.585	26.529	242.958	209.017	27.047	31.441	210.640	153.414	30.762	36.917	36.961	40.181	152.817	40.395	-8191	255	
2592.532	1	1	0	0	0.030965	0.1756	0.37737	0.10739	0.058601	0.057044	0.17265	0.16014	0.12627	0.06194	0.14488	0.16213	0.21598	0.066887	0.29363	0.20546	-2.3771	-2.3979	-2.6667	-2.7771	-2.6667	-2.7812	-2.9083	-2.55	-2.8896	-2.525	-2.6312	-2.8542	-2.4813	-2.8521	-2.8208	-2.6583	105.524	34.330	45.537	236.043	84.690	116.373	237.301	202.308	323.880	81.284	67.306	219.369	75.732	256.804	351.226	293.660	8.8643e-05	0.00016575	3.4045e-05	246.2	8.4567e-07	1.2133e-06	370.03	50.371	3.3308e-07	9.5949e-07	105.76	36.732	12.076	3.6702	7.6118e-07	15.701	2.2162e-05	8.4606e-06	2.2205e-06	237.24	1.2341e-07	8.2681e-08	357.25	48.675	1.0958e-07	8.1884e-08	101.88	35.774	11.883	3.5595	9.4153e-08	15.262	181.118	102.669	119.866	26.805	208.111	134.959	27.310	31.236	196.982	207.879	31.276	36.758	36.565	41.082	203.064	39.840	-8191	255	
2592.628	1	1	0	0	0.21509	0.30708	0.28377	0.15842	0.17135	0.051296	0.23154	0.14	0.25602	0.12942	0.12138	0.13569	0.16081	0.19132	0.14668	0.1443	-2.4396	-2.5938	-2.5312	-2.9646	-2.3271	-2.5479	-2.7583	-2.4604	-2.7875	-2.8	-2.5875	-2.9813	-2.6583	-2.8375	-2.7729	-2.4875	299.057	265.790	247.060	347.634	125.263	73.317	314.725	343.104	364.436	278.985	267.818	370.329	340.283	73.055	352.710	290.258	9.1518e-05	0.00010295	1.4667e-05	242.1	8.3848e-07	1.382e-06	365.55	49.534	6.0253e-07	1.9532e-06	105.44	37.068	12.322	3.6868	1.1629e-06	15.876	2.4122e-05	9.2242e-06	2.374e-06	232.84	1.2225e-07	8.2933e-08	353.01	48.11	1.0089e-07	9.8582e-08	101.94	35.923	11.946	3.5843	9.6405e-08	15.476	176.676	85.791	115.156	26.796	177.619	158.290	27.044	31.295	166.503	158.255	30.858	36.998	36.767	40.784	160.908	40.019	-8191	255	
2592.747	1	1	0	0	0.074865	0.066871	0.17142	0.07145	0.066064	0.034815	0.036884	0.23422	0.25401	0.27235	0.079409	0.36037	0.16405	0.22389	0.16651	0.13486	-2.5708	-2.6708	-2.5625	-2.7333	-2.5583	-2.7354	-2.9188	-2.6354	-2.8417	-2.775	-2.5521	-2.7521	-2.6875	-2.6667	-2.9833	-2.5396	154.613	144.435	18.073	298.850	289.285	143.134	75.496	51.881	33.946	24.824	230.555	48.221	123.270	240.963	75.174	167.470	8.3967e-05	0.00014295	4.2045e-05	246.2	8.7389e-07	8.1418e-07	367.74	50.017	8.2947e-07	1.2457e-06	107.04	37.455	12.469	3.7632	1.5589e-06	16.332	2.1444e-05	8.2239e-06	2.6385e-06	235.24	1.0753e-07	9.269e-08	355.67	48.324	1.0056e-07	7.1765e-08	103.15	36.446	11.984	3.6322	7.7974e-08	15.788	183.019	97.722	118.042	26.092	208.110	164.419	26.855	31.392	171.590	169.398	30.827	36.861	37.029	41.010	149.670	40.499	-8191	255	
2592.843	1	1	0	0	0.25172	0.16665	0.28161	0.11715	0.23352	0.10592	0.27565	0.10252	0.080337	0.17368	0.193	0.13052	0.17627	0.20536	0.22228	0.05479	-2.3583	-2.7375	-2.475	-3.0271	-2.7646	-2.7687	-2.8917	-2.5646	-2.8708	-2.7687	-2.6958	-2.8083	-2.4479	-2.6562	-2.9104	-2.5708	213.537	321.031	187.945	229.598	57.613	15.268	262.838	350.636	327.194	66.728	261.475	260.388	139.313	38.102	166.079	351.038	8.3284e-05	4.8905e-05	5.6791e-05	245.31	1.3565e-06	1.1634e-06	373.87	50.414	1.0459e-06	1.0811e-06	109.47	38.215	12.698	3.7753	5.2591e-07	16.72	2.2169e-05	7.5748e-06	2.4508e-06	236.46	1.0224e-07	8.0999e-08	360.61	48.976	1.1347e-07	9.7907e-08	105.03	37.255	12.219	3.6736	7.5222e-08	16.115	181.251	96.523	125.360	26.899	181.845	147.104	27.295	31.253	139.553	175.790	30.779	36.207	36.597	40.374	149.517	40.246	-8191	255	
2592.939	1	1	0	0	0.23621	0.10688	0.077322	0.19705	0.12831	0.10309	0.22857	0.10911	0.098383	0.18749	0.050332	0.12236	0.16116	0.43763	0.24689	0.16893	-2.3167	-2.7479	-2.5875	-2.8875	-2.7771	-2.6708	-2.9333	-2.6437	-2.5979	-2.9208	-2.7708	-2.9021	-2.8542	-2.7333	-3.0146	-2.7562	346.789	337.066	112.795	261.623	29.032	205.263	39.501	290.127	225.655	170.457	327.211	339.986	301.339	219.473	196.501	57.405	8.6434e-05	6.2334e-05	3.1607e-05	245.26	1.5032e-06	1.933e-06	372.61	50.229	1.2827e-06	1.3513e-06	107.38	37.592	12.46	3.764	3.9113e-07	16.272	2.2458e-05	8.0788e-06	2.1501e-06	236.71	1.2531e-07	9.227e-08	358.66	48.594	1.0842e-07	7.3957e-08	102.89	36.572	12.032	3.6335	9.9324e-08	15.725	181.081	94.393	78.119	26.400	164.629	189.200	27.051	31.414	154.726	173.606	30.957	37.095	36.362	40.272	122.093	40.197	-8191	255	
2593.035	1	1	0	0	0.20202	0.19827	0.21129	0.21035	0.1256	0.095152	0.29144	0.13139	0.15832	0.11394	0.22658	0.054181	0.044261	0.15877	0.1214	0.19587	-2.2021	-2.8646	-2.5917	-2.7354	-2.7958	-2.5646	-3.0312	-2.6417	-2.6083	-2.825	-2.5771	-2.8167	-2.6896	-2.3542	-2.9583	-2.6792	206.011	244.626	60.674	63.051	357.638	352.074	368.656	30.125	41.094	38.866	309.358	93.495	348.233	196.575	343.279	13.256	9.3245e-05	0.00015278	2.8472e-05	241.45	1.0348e-06	4.5485e-07	365.7	50.165	9.3149e-07	1.0769e-06	107.17	37.691	12.296	3.7759	9.9638e-07	16.343	2.3605e-05	6.9257e-06	2.7132e-06	232.95	9.3302e-08	9.9587e-08	353.76	48.168	1.0304e-07	5.8188e-08	102.6	36.493	12.018	3.6749	7.5806e-08	15.783	178.714	84.951	110.036	26.835	183.580	130.453	27.118	30.757	198.034	148.464	30.985	36.393	36.950	41.071	146.401	40.621	-8191	255	
2593.132	1	1	0	0	0.20401	0.16809	0.17241	0.079059	0.15436	0.34656	0.18994	0.28438	0.19707	0.10039	0.2066	0.29241	0.062804	0.036559	0.1151	0.13476	-2.3458	-2.875	-2.4146	-2.6437	-2.9646	-2.5917	-2.8688	-2.5938	-2.5729	-2.9417	-2.6292	-2.8083	-2.7625	-2.5792	-2.9479	-2.8688	76.575	17.194	65.823	46.615	306.307	339.911	34.090	111.949	80.232	322.837	371.795	190.321	321.584	165.177	293.689	31.637	8.5256e-05	0.00015344	3.659e-05	246.16	1.6603e-06	1.3088e-06	367.89	50.182	9.091e-07	1.6317e-06	107.41	37.755	12.524	3.799	9.4017e-07	16.336	2.2491e-05	8.3995e-06	2.4423e-06	234.65	1.0364e-07	7.898e-08	356.5	48.487	1.2432e-07	6.9572e-08	103.38	36.658	12.064	3.6766	1.0433e-07	15.81	174.478	100.059	120.493	26.104	188.222	201.977	26.874	31.575	174.431	195.991	30.980	36.533	36.786	40.282	157.586	40.239	-8191	255	
2593.228	1	1	0	0	0.20612	0.2296	0.13707	0.031762	0.11333	0.34026	0.21807	0.24149	0.13943	0.25211	0.19616	0.12234	0.16394	0.15544	0.03269	0.13787	-2.0167	-2.8937	-2.6917	-2.7729	-2.7687	-2.7271	-2.8042	-2.7583	-2.5354	-2.9875	-2.7646	-2.6063	-2.9146	-2.4917	-2.7354	-2.5917	82.701	229.704	49.087	52.218	24.413	201.303	115.204	50.031	365.152	202.656	136.254	333.345	160.318	50.621	273.157	340.615	9.2127e-05	0.00016266	4.2658e-05	244.63	1.2476e-06	6.5885e-07	371.12	50.078	4.599e-07	1.0576e-06	107.5	38.043	12.662	3.792	1.4948e-06	16.296	2.2411e-05	6.4371e-06	2.3356e-06	235.73	1.115e-07	9.0251e-08	358.08	48.488	1.0602e-07	7.733e-08	103.55	36.899	12.118	3.6638	9.2652e-08	15.849	178.578	80.633	114.707	26.324	196.011	159.476	27.193	31.130	152.633	140.652	31.332	36.857	35.952	40.013	187.828	40.432	-8191	255	
2593.348	1	1	0	0	0.32937	0.05481	0.11743	0.15111	0.19463	0.084211	0.21142	0.087063	0.248	0.29595	0.28776	0.099602	0.18035	0.065944	0.045657	0.12927	-2.175	-2.65	-2.6292	-2.5833	-2.7146	-2.5167	-2.7792	-2.5854	-2.4583	-2.6583	-2.6813	-2.6625	-2.8021	-2.7333	-2.5708	-2.875	86.646	139.538	135.232	253.158	114.573	124.342	319.492	137.772	94.927	350.610	249.519	296.674	56.333	109.558	219.740	105.552	8.8239e-05	0.00014512	6.1557e-05	242.86	1.2605e-06	1.3869e-06	370.24	49.757	7.827e-07	1.169e-06	104.9	36.635	12.301	3.6996	2.0024e-06	15.882	2.3397e-05	9.7663e-06	2.4188e-06	233.73	9.4377e-08	8.0831e-08	354.56	48.154	1.1993e-07	6.2235e-08	101.5	35.897	11.969	3.59	9.5321e-08	15.311	176.601	102.643	106.473	26.886	199.177	183.030	27.243	31.425	219.774	197.716	31.243	36.898	36.336	40.849	155.820	39.342	-8191	255	
2593.445	1	1	0	0	0.33704	0.15273	0.10689	0.097681	0.15037	0.33321	0.012415	0.27933	0.13622	0.19476	0.19411	0.24462	0.086866	0.18193	0.27278	0.15135	-2.2125	-2.7667	-2.4896	-2.4896	-2.7833	-2.5104	-2.5917	-2.7313	-2.4604	-2.7771	-2.8583	-2.6333	-2.7938	-2.4104	-2.7062	-2.8146	297.854	352.747	157.237	313.369	335.916	356.339	60.202	338.642	347.291	252.494	368.880	25.735	364.191	362.504	282.432	206.784	7.9296e-05	0.0001258	2.8312e-05	241.94	7.4231e-07	9.6714e-07	363.54	49.487	1.058e-06	6.8313e-07	105.25	36.728	12.536	3.7443	1.2334e-06	15.767	2.2471e-05	8.2849e-06	2.4316e-06	232.79	1.0993e-07	8.8821e-08	350.84	47.898	1.004e-07	8.9305e-08	100.77	35.685	11.927	3.5892	8.9316e-08	15.27	179.353	64.510	73.462	27.175	184.496	167.171	27.273	31.463	137.933	189.975	30.604	36.811	36.793	40.901	198.790	40.195	-8191	255	
2593.539	1	1	0	0	0.12054	0.10581	0.093301	0.16752	0.157	0.091259	0.17347	0.13728	0.10853	0.088686	0.092716	0.095983	0.19709	0.051455	0.14764	0.11438	-2.075	-2.675	-2.7188	-2.3625	-2.8542	-2.6437	-2.5542	-2.8354	-2.5125	-2.825	-2.8875	-2.3812	-2.7875	-2.5812	-2.5646	-2.8021	81.901	363.350	231.204	132.254	196.927	79.367	217.131	274.816	163.363	102.539	369.312	197.034	258.074	206.719	294.992	50.229	8.4189e-05	0.00011908	3.777e-05	244.14	8.0013e-07	1.4054e-06	366.55	49.494	7.7902e-07	1.4478e-06	103.89	36.868	12.333	3.7222	7.1951e-07	15.775	2.2511e-05	7.361e-06	1.924e-06	234.1	9.2061e-08	8.4279e-08	351.86	48.15	1.2887e-07	7.4379e-08	100.63	35.538	11.905	3.5611	8.99e-08	15.215	181.998	74.400	104.668	27.230	163.997	138.777	26.862	31.405	179.012	183.125	30.699	36.725	36.365	40.912	165.336	40.151	-8191	255	
2593.612	1	1	0	0	0.065747	0.18615	0.15839	0.077103	0.20523	0.15526	0.39636	0.099048	0.070491	0.28613	0.17825	0.034156	0.11046	0.20641	0.10716	0.29279	-2.0396	-2.7708	-2.6292	-2.4875	-2.875	-2.5583	-2.6375	-2.7042	-2.5958	-2.7646	-2.7042	-2.3646	-2.8021	-2.5208	-2.8	-2.9313	103.328	56.825	242.917	352.437	235.936	19.197	285.348	257.410	128.390	76.297	367.341	48.167	222.499	144.128	125.789	168.649	9.101e-05	0.00010216	2.9905e-05	244.18	1.9093e-06	1.6329e-06	365.82	50.344	1.0842e-06	4.2533e-07	104.33	35.965	12.587	3.6814	1.025e-06	15.707	2.3189e-05	9.2089e-06	2.1693e-06	235.12	1.0166e-07	8.3774e-08	352.28	48.482	1.0751e-07	8.7197e-08	100.71	35.314	11.974	3.571	1.0524e-07	15.19	182.168	102.082	109.716	26.630	190.899	136.877	27.138	30.833	195.332	240.177	30.812	36.803	37.534	39.628	170.547	40.450	-8191	255	
2593.731	1	1	0	0	0.23588	0.21038	0.10269	0.098283	0.13155	0.012601	0.14752	0.16893	0.12253	0.1578	0.066456	0.047143	0.26836	0.089598	0.16708	0.05334	-1.9417	-2.5271	-2.5458	-2.45	-2.7854	-2.7	-2.5354	-2.7229	-2.5	-2.6333	-2.7146	-2.6042	-2.7417	-2.6375	-2.3708	-2.8771	318.137	65.361	83.784	360.249	368.724	342.324	242.351	365.685	308.970	258.782	311.787	276.258	22.955	315.695	217.532	348.779	7.8185e-05	0.00010101	4.3055e-05	244.66	1.0393e-06	1.0357e-06	365.37	50.215	6.0177e-07	1.1094e-06	104.88	36.15	12.162	3.648	7.9433e-07	15.349	2.0982e-05	7.697e-06	1.9474e-06	234.92	1.0397e-07	7.7803e-08	350.48	48.339	9.3858e-08	7.7836e-08	99.873	35.005	11.828	3.5182	8.2644e-08	14.939	181.162	119.207	95.603	26.522	172.641	157.610	26.862	31.259	198.954	136.239	31.236	36.353	36.300	40.205	164.896	40.551	-8191	255	
2593.827	1	1	0	0	0.083361	0.014476	0.3348	0.10763	0.1594	0.1075	0.079224	0.16447	0.10198	0.38564	0.066765	0.18118	0.12215	0.22768	0.1719	0.15136	-2.3083	-2.5021	-2.8667	-2.5625	-2.7542	-2.8375	-2.6854	-2.7542	-2.5229	-2.5146	-2.8937	-2.5792	-2.7313	-2.8167	-2.5729	-2.9625	17.675	233.118	18.216	341.359	50.137	212.835	311.703	55.826	76.622	285.451	264.067	112.625	225.229	117.221	155.730	282.568	7.5477e-05	9.9607e-05	1.9817e-05	242.41	1.1728e-06	3.4184e-07	359.34	49.874	6.1698e-07	1.2764e-06	103.4	36.43	12.074	3.6787	1.5852e-06	15.593	2.2766e-05	8.5751e-06	1.8386e-06	232.84	1.0687e-07	7.4775e-08	347.08	48.121	1.0669e-07	9.1498e-08	99.615	35.248	11.892	3.5311	9.8573e-08	15.024	183.678	109.308	110.611	26.109	147.635	117.029	27.090	31.538	157.085	195.551	30.549	36.950	36.884	40.169	180.196	40.743	-8191	255	
2593.924	1	1	0	0	0.15175	0.113	0.16957	0.28639	0.32667	0.07426	0.28561	0.088176	0.087366	0.12499	0.37272	0.13424	0.14959	0.31857	0.13544	0.14931	-2.2396	-2.5771	-2.7687	-2.425	-2.7771	-2.775	-2.55	-2.9083	-2.5312	-2.6417	-2.8229	-2.4896	-2.7646	-2.9188	-2.6042	-2.8229	302.834	281.608	369.552	48.562	184.766	364.229	29.428	184.704	365.983	203.640	244.515	307.516	229.168	137.500	13.884	210.447	8.2421e-05	8.1047e-05	2.9847e-05	243.25	8.8135e-07	1.3189e-06	362.61	49.739	5.7984e-07	1.6953e-06	104.53	35.989	12.451	3.6195	1.2359e-06	15.39	2.1961e-05	7.6588e-06	1.9389e-06	233.38	1.0993e-07	7.6709e-08	348.85	48.227	9.2947e-08	1.0027e-07	99.92	35.02	11.933	3.5156	1.0758e-07	14.911	179.988	107.897	62.582	26.880	156.330	165.629	27.093	31.010	179.540	202.296	30.825	37.050	36.761	40.264	170.883	39.731	-8191	255	
2594.020	1	1	0	0	0.13335	0.086799	0.29425	0.20095	0.099492	0.17786	0.12317	0.26403	0.10512	0.13639	0.082033	0.041873	0.11339	0.14576	0.24015	0.12222	-2.175	-2.5146	-2.8896	-2.5938	-2.5187	-2.9521	-2.6646	-2.8063	-2.5708	-2.6583	-2.7438	-2.6167	-2.6604	-2.7167	-2.4542	-2.7854	24.120	26.429	238.990	289.659	78.147	86.672	286.668	292.370	126.614	229.215	276.096	39.964	34.280	193.570	105.291	62.275	8.7843e-05	7.8171e-05	2.058e-05	242.34	1.8183e-06	1.6573e-06	361.29	49.887	2.5683e-07	1.1928e-06	103.76	36.055	12.347	3.6073	8.3421e-07	15.348	2.2706e-05	9.9496e-06	1.8664e-06	233.66	1.0505e-07	8.7728e-08	349.34	48.331	8.4257e-08	1.0111e-07	99.753	34.987	11.969	3.5062	1.0107e-07	14.889	169.517	83.746	91.659	26.630	184.627	192.618	27.123	31.539	234.645	155.207	30.771	36.794	36.455	40.388	176.903	40.362	-8191	255	
2594.140	1	1	0	0	0.10985	0.066961	0.27933	0.012872	0.16599	0.19981	0.084316	0.021363	0.12152	0.082365	0.19991	0.15043	0.25116	0.093776	0.33264	0.23484	-2.35	-2.5396	-2.8042	-2.6125	-2.6375	-2.8354	-2.6917	-2.6688	-2.7979	-2.5146	-3.0604	-2.7479	-2.5979	-2.7167	-2.5479	-2.8583	256.563	25.695	61.466	256.670	48.118	271.223	363.991	300.914	223.613	308.108	155.209	371.855	260.863	167.212	226.726	261.936	8.4683e-05	0.00015341	2.9773e-05	245.97	7.596e-07	1.0031e-06	359.94	50.244	5.3101e-07	9.0288e-07	103	35.384	12.494	3.5451	4.8497e-07	15.067	2.1371e-05	9.018e-06	2.1415e-06	235	1.158e-07	7.7887e-08	349	48.59	9.5265e-08	1.0651e-07	98.865	34.338	11.901	3.4504	1.0441e-07	14.553	174.210	114.305	99.729	26.653	188.522	161.039	27.267	31.150	135.286	171.037	30.823	37.064	36.967	40.489	184.125	40.446	-8191	255	
2594.236	1	1	0	0	0.11697	0.18049	0.037496	0.16205	0.096066	0.066201	0.17874	0.15447	0.058121	0.049858	0.30719	0.12662	0.18358	0.057914	0.035929	0.13066	-2.4292	-2.425	-2.9896	-2.6854	-2.6958	-2.9437	-2.6021	-2.6042	-3.0062	-2.7417	-2.8667	-2.775	-2.5667	-2.8438	-2.7667	-2.7833	197.681	54.111	116.617	163.182	250.927	248.282	81.404	238.908	321.172	255.780	328.033	317.059	341.071	290.581	142.045	262.457	7.2594e-05	0.00012973	2.9492e-05	246.14	1.6508e-06	1.2791e-06	361.13	50.113	1.0919e-06	5.3012e-07	102.2	35.515	12.309	3.6051	1.1242e-06	15.077	2.1156e-05	9.499e-06	2.2098e-06	235.33	1.1894e-07	8.5961e-08	347.79	48.589	8.8312e-08	1.0077e-07	98.635	34.413	11.826	3.4672	1.0132e-07	14.629	174.965	107.750	94.511	26.275	208.216	166.859	27.367	30.707	210.407	182.650	30.568	36.433	36.835	40.139	201.704	40.433	-8191	255	
2594.308	1	1	0	0	0.073364	0.11863	0.13437	0.04918	0.057607	0.065977	0.1715	0.22003	0.10543	0.2157	0.16301	0.1887	0.058418	0.089343	0.18485	0.070456	-2.4167	-2.4771	-2.8542	-2.6979	-2.4625	-3.1146	-2.5187	-2.675	-2.8646	-2.5646	-2.775	-2.8292	-2.6104	-2.8625	-2.5958	-2.4938	31.026	122.545	189.161	268.311	340.087	125.715	13.389	346.860	33.486	327.094	154.470	130.548	315.682	149.754	199.970	234.094	8.4891e-05	0.00019417	3.751e-05	243.62	1.0254e-06	1.1028e-06	361.98	50.456	3.7536e-07	1.3302e-06	102.65	35.278	12.313	3.5808	7.9558e-07	15.057	2.2424e-05	1.0576e-05	1.9304e-06	235.02	1.1572e-07	7.284e-08	348.66	48.546	9.2368e-08	9.4196e-08	99.208	34.459	11.892	3.4741	8.6981e-08	14.603	182.152	125.690	87.517	26.359	180.452	192.042	26.839	31.148	159.191	178.393	31.362	36.361	36.191	40.969	235.793	40.113	-8191	255	
2594.429	1	1	0	0	0.4478	0.17321	0.071018	0.28486	0.10883	0.10766	0.082341	0.28457	0.078609	0.14597	0.19018	0.17366	0.088943	0.077846	0.19161	0.10404	-2.3271	-2.5146	-2.7313	-2.925	-2.5333	-2.9437	-2.6917	-2.8271	-2.8583	-2.5042	-2.8771	-2.7729	-2.5458	-2.7562	-2.825	-2.4729	336.097	137.668	339.737	89.956	172.385	305.112	284.951	236.211	190.065	371.638	283.233	113.790	353.831	63.024	200.991	167.489	7.355e-05	9.771e-05	2.4312e-05	247.12	1.4766e-06	1.1024e-06	364.56	50.839	9.0272e-07	1.4896e-06	102.95	35.145	12.353	3.5831	1.5729e-06	15.024	2.1518e-05	9.3692e-06	1.9453e-06	237.09	1.0728e-07	7.9905e-08	351.44	49.143	1.0503e-07	8.8968e-08	99.465	34.178	11.964	3.4518	9.3319e-08	14.514	171.943	83.392	76.779	26.364	215.861	189.709	26.826	31.061	253.721	163.929	30.522	36.919	37.074	40.557	164.059	40.488	-8191	255	
2594.525	1	1	0	0	0.10576	0.16155	0.11435	0.14208	0.06242	0.21388	0.10347	0.21705	0.14339	0.16677	0.1702	0.061738	0.22045	0.17093	0.30603	0.32869	-2.4062	-2.5062	-2.6312	-2.9604	-2.5062	-2.9625	-2.7708	-2.5021	-2.8667	-2.5583	-2.6646	-2.9229	-2.5563	-2.5479	-2.6	-2.5333	114.565	249.953	114.060	136.061	344.100	134.136	333.377	305.418	102.101	362.582	187.592	228.110	172.237	178.552	245.410	288.790	7.6906e-05	0.00012547	1.7343e-05	248.56	9.9929e-07	1.0684e-06	363.86	50.913	4.9617e-07	8.2512e-07	102.32	35.005	12.29	3.5791	7.5087e-07	14.986	2.0049e-05	7.6741e-06	2.3335e-06	238.24	1.2267e-07	7.4438e-08	350.78	49.186	1.0106e-07	9.4281e-08	98.742	34.132	11.927	3.4578	9.8239e-08	14.476	176.400	92.217	43.102	26.756	153.203	115.946	27.113	31.351	161.335	208.273	31.240	36.825	36.234	41.393	202.678	40.312	-8191	255	
2594.619	1	1	0	0	0.041907	0.076189	0.13043	0.35702	0.10803	0.13934	0.19063	0.084938	0.13934	0.22005	0.36074	0.26586	0.14181	0.095065	0.26397	0.19923	-2.5958	-2.7229	-2.6375	-2.7979	-2.6333	-2.7188	-2.8625	-2.5417	-2.8208	-2.6667	-2.6625	-2.8688	-2.3854	-2.8396	-2.6979	-2.5938	179.806	78.552	219.135	357.661	180.057	187.983	312.317	24.820	38.786	145.363	337.164	208.514	266.114	137.464	277.791	372.601	8.3328e-05	0.00014445	4.7758e-05	245.49	7.7073e-07	9.3837e-07	362.84	50.816	6.5804e-07	8.0813e-07	103.32	35.513	12.486	3.6144	1.1786e-06	15.049	2.2203e-05	9.5525e-06	2.5361e-06	236.5	1.1018e-07	1.0085e-07	348.86	49.181	9.3278e-08	8.1969e-08	99.439	34.499	12.01	3.4809	9.1985e-08	14.566	178.999	99.947	82.262	26.626	134.982	156.838	27.006	31.545	160.626	162.659	30.665	36.939	36.707	40.371	208.792	40.606	-8191	255	
2594.717	1	1	0	0	0.097757	0.14546	0.12744	0.036891	0.012493	0.11923	0.13511	0.12686	0.11183	0.23082	0.11936	0.33601	0.1214	0.080303	0.27351	0.14513	-2.3042	-2.6354	-2.525	-2.9375	-2.7708	-2.6813	-2.8271	-2.4938	-2.8292	-2.6104	-2.6333	-2.7542	-2.5812	-2.5875	-2.7812	-2.4729	259.911	180.782	358.016	330.966	153.839	294.809	142.671	31.333	54.755	121.829	323.711	198.823	326.882	293.448	340.891	329.190	8.648e-05	0.00011748	3.4345e-05	245.92	1.7759e-06	1.3694e-06	365.8	51.073	9.7926e-07	1.2298e-06	103.87	35.393	12.514	3.5851	8.7071e-07	15.084	2.0465e-05	7.9871e-06	2.2759e-06	236.58	1.1092e-07	9.6896e-08	351.32	49.374	1.0859e-07	8.9558e-08	99.875	34.458	12.086	3.4788	9.1318e-08	14.62	177.756	122.614	125.478	26.214	150.940	151.202	26.482	31.088	187.817	161.137	30.804	36.583	37.232	40.286	184.926	40.567	-8191	255	
2594.836	1	1	0	0	0.2226	0.17921	0.10681	0.131	0.075906	0.22186	0.15197	0.29813	0.16675	0.10093	0.10385	0.22267	0.29594	0.1973	0.13264	0.077033	-2.4417	-2.5375	-2.5125	-2.9708	-2.6542	-2.7583	-2.8854	-2.7292	-2.6479	-2.7854	-2.5	-2.9354	-2.6937	-2.7125	-2.975	-2.4437	41.127	78.382	325.934	338.406	62.999	143.839	98.149	328.983	213.218	46.751	33.262	368.542	297.909	75.451	58.168	214.951	7.446e-05	5.3574e-05	3.0954e-05	249.33	2.0952e-06	8.0384e-07	367.53	51.48	9.5337e-07	1.3966e-06	104.72	36.099	12.592	3.5995	7.5514e-07	15.343	2.1954e-05	6.5745e-06	2.5767e-06	238.21	1.1324e-07	8.3859e-08	354.15	49.658	9.2533e-08	8.3655e-08	100.51	35.013	12.105	3.504	7.3388e-08	14.867	179.260	151.585	138.478	26.610	171.357	158.313	27.281	31.084	202.905	180.428	30.644	36.510	35.963	40.317	185.612	40.584	-8191	255	
2594.908	1	1	0	0	0.34146	0.11653	0.061747	0.050757	0.10662	0.10317	0.076118	0.17433	0.16005	0.086067	0.126	0.1364	0.26115	0.16622	0.21117	0.34454	-2.3958	-2.7062	-2.5979	-2.7438	-2.6521	-2.6833	-3.1229	-2.5729	-2.7917	-2.7771	-2.5333	-3.0042	-2.6688	-2.6896	-3	-2.6229	143.377	51.498	42.550	102.774	241.158	57.864	363.093	346.823	274.214	22.595	253.788	205.984	201.041	237.792	224.788	282.266	8.1446e-05	7.1439e-05	4.5348e-05	246.75	1.337e-06	1.0381e-06	365.66	50.961	9.3568e-07	4.011e-07	104.32	35.562	12.675	3.6597	1.0849e-06	15.312	2.2317e-05	7.3228e-06	2.4252e-06	237.08	1.1506e-07	8.0242e-08	351.67	49.4	1.0346e-07	6.603e-08	99.819	34.765	12.104	3.5399	7.9142e-08	14.827	175.884	73.042	91.029	26.793	185.074	147.336	26.854	30.998	178.526	264.393	30.511	36.391	35.943	39.723	194.453	40.393	-8191	255	
2595.028	1	1	0	0	0.14157	0.34899	0.17739	0.15538	0.1366	0.25316	0.16451	0.047088	0.10327	0.026022	0.17242	0.19175	0.077244	0.17167	0.087049	0.16007	-2.2979	-2.8104	-2.3667	-3.0062	-2.7667	-2.6333	-2.9229	-2.4875	-2.8208	-2.825	-2.6208	-2.9354	-2.7021	-2.4437	-2.8937	-2.6271	111.211	32.869	274.175	141.213	150.471	259.331	34.126	125.605	194.435	175.646	333.512	208.729	320.579	83.390	162.870	274.801	8.453e-05	0.0001287	4.3569e-05	245.09	1.4044e-06	1.8107e-06	365.08	51.319	3.3294e-07	8.6829e-07	104.2	35.602	12.466	3.6306	7.8421e-07	15.435	2.3048e-05	7.8573e-06	2.5233e-06	235.89	1.0885e-07	8.7644e-08	350.9	49.344	1.1058e-07	6.9909e-08	100.26	34.809	12.096	3.5108	7.222e-08	14.824	179.950	95.785	121.277	26.538	179.428	164.872	26.969	31.383	178.186	209.093	30.841	36.387	36.243	40.410	190.013	40.174	-8191	255	
2595.125	1	1	0	0	0.14475	0.26142	0.26525	0.25404	0.095311	0.093153	0.17747	0.2591	0.14471	0.16443	0.080139	0.089207	0.2104	0.12787	0.21977	0.095459	-2.1625	-2.8937	-2.3729	-2.775	-2.7083	-2.7042	-2.9333	-2.5021	-2.7396	-2.8667	-2.6042	-2.8875	-2.7146	-2.6208	-2.85	-2.5646	305.181	319.113	309.575	28.131	278.397	284.489	74.241	119.232	62.223	303.712	147.747	164.530	315.483	314.468	248.916	69.357	7.9594e-05	0.00013615	3.0413e-05	248.62	8.1287e-07	1.1165e-06	365.41	51.088	7.2454e-07	7.9246e-07	105.25	35.576	12.662	3.6339	8.6179e-07	15.394	2.0196e-05	8.766e-06	2.2951e-06	238.17	8.9084e-08	9.4877e-08	353.01	49.331	1.2175e-07	7.6993e-08	100.78	34.962	12.116	3.5407	7.1219e-08	14.832	176.175	98.122	94.647	27.039	227.536	139.590	27.090	31.324	180.674	208.019	31.250	36.851	37.327	40.553	216.994	40.109	-8191	255	
2595.221	1	1	0	0	0.24761	0.11589	0.37082	0.03656	0.38383	0.15246	0.28002	0.10991	0.27751	0.03057	0.079432	0.25375	0.11294	0.14391	0.10386	0.24931	-2.2104	-2.7896	-2.3812	-2.9229	-2.85	-2.5708	-2.8563	-2.7479	-2.7042	-2.7479	-2.6146	-2.6083	-2.8708	-2.3729	-2.9437	-2.6937	99.902	278.303	279.154	317.923	91.223	21.959	336.740	180.898	48.234	59.243	17.582	252.383	304.634	312.250	48.402	98.636	8.067e-05	2.1249e-05	2.5242e-05	248.09	1.7587e-06	1.822e-06	367.68	51.544	1.0779e-06	2.2057e-07	106.23	36.619	12.75	3.6854	7.8407e-07	15.386	2.3686e-05	7.1548e-06	2.3484e-06	238.07	9.9257e-08	8.8905e-08	355.42	49.86	1.1281e-07	7.2271e-08	101.66	35.391	12.219	3.5629	7.0052e-08	14.928	184.051	35.059	120.352	26.348	161.561	130.370	26.820	31.447	178.397	130.579	30.755	36.489	36.350	40.892	193.846	40.173	-8191	255	
2595.317	1	1	0	0	0.17428	0.17819	0.018298	0.21077	0.24104	0.088558	0.1272	0.14998	0.13432	0.25469	0.27831	0.2349	0.1213	0.15165	0.33524	0.11253	-2.1417	-2.6792	-2.6104	-2.8063	-2.8729	-2.5271	-2.8521	-2.7229	-2.4688	-2.9167	-2.5917	-2.9667	-2.7	-2.525	-2.6188	-2.6417	308.201	107.850	331.694	195.174	358.928	47.589	311.523	341.056	207.849	193.204	345.561	288.138	329.747	310.900	344.523	322.399	7.7401e-05	0.00015358	4.2619e-05	247.29	1.1902e-06	1.0424e-06	365.38	50.458	9.4083e-07	1.247e-06	104.47	35.767	12.467	3.6726	6.2382e-07	15.406	2.1619e-05	7.0174e-06	2.679e-06	237.13	9.6611e-08	9.0335e-08	352.47	49.348	1.076e-07	7.2692e-08	100.42	34.93	12.061	3.5516	9.6488e-08	14.838	177.081	108.715	92.926	26.577	156.654	180.650	27.143	31.578	239.936	185.008	30.633	36.770	36.606	40.572	155.444	39.999	-8191	255	
2595.437	1	1	0	0	0.10446	0.33343	0.12619	0.067204	0.11714	0.07249	0.31709	0.17495	0.095373	0.029364	0.057685	0.13671	0.10276	0.10925	0.25482	0.12737	-2.1375	-2.7771	-2.5667	-2.6437	-2.9979	-2.3771	-2.7146	-2.7917	-2.6104	-2.7208	-2.7438	-2.5854	-2.8479	-2.6083	-2.6354	-2.825	291.675	244.882	176.388	87.078	182.392	192.818	204.361	83.641	89.035	89.619	173.431	333.892	135.912	19.210	229.208	284.376	7.977e-05	0.00012578	4.1878e-05	247.33	1.9104e-06	1.1455e-06	364.81	50.726	1.1365e-06	4.9273e-07	104.25	36.014	12.752	3.6835	1.4394e-06	15.445	2.2042e-05	9.1478e-06	2.2823e-06	236.93	1.201e-07	9.1429e-08	352.23	49.316	1.1149e-07	8.2643e-08	100.36	35.185	12.194	3.577	1.0082e-07	14.941	190.310	79.616	89.269	26.451	207.391	189.538	27.210	31.475	198.976	183.715	30.457	36.266	35.868	40.986	171.889	40.061	-8191	255	
2595.509	1	1	0	0	0.28083	0.20981	0.15779	0.11078	0.10661	0.21039	0.29552	0.024647	0.056807	0.052216	0.23936	0.38459	0.20896	0.18422	0.1534	0.24211	-2.0604	-2.675	-2.7208	-2.5854	-2.9625	-2.6271	-2.8812	-2.8396	-2.4792	-2.925	-2.6875	-2.6167	-2.8979	-2.6583	-2.8104	-2.9271	203.505	181.857	234.092	236.196	183.803	323.146	213.368	175.090	49.231	78.961	79.242	31.723	125.954	239.362	31.713	187.469	8.3407e-05	0.00014606	3.463e-05	248.52	1.2646e-06	1.3877e-06	368.71	51.473	8.1949e-07	1.8888e-06	105.6	36.294	12.76	3.6709	1.4454e-06	15.396	2.1538e-05	6.2614e-06	2.3015e-06	239.16	8.8339e-08	9.0672e-08	355.8	49.924	1.1256e-07	7.6571e-08	101.43	35.279	12.238	3.5786	8.7898e-08	14.979	183.259	86.893	88.263	26.673	194.483	159.782	27.016	31.247	181.004	170.546	31.113	36.288	35.994	40.686	143.325	39.967	-8191	255	
2595.605	1	1	0	0	0.14691	0.29128	0.19951	0.27966	0.28171	0.24323	0.22446	0.30524	0.22574	0.17614	0.15633	0.15127	0.10142	0.29375	0.12305	0.067525	-2.0229	-2.8167	-2.6625	-2.4958	-2.8396	-2.7146	-2.7146	-3.0729	-2.6292	-2.7396	-2.8854	-2.7792	-2.9833	-2.4854	-2.5896	-2.7854	354.670	309.630	213.629	43.382	224.582	348.323	241.590	277.644	53.035	182.344	152.731	231.147	260.704	159.044	271.752	248.408	7.9306e-05	6.9635e-05	4.2994e-05	249.58	1.1262e-06	9.2424e-07	370.56	52.386	6.6722e-07	6.9291e-07	106.37	36.614	12.932	3.765	8.8549e-07	15.52	2.2028e-05	6.8494e-06	2.4401e-06	239.72	9.1896e-08	8.5373e-08	357.74	50.282	1.1273e-07	8.4077e-08	102.05	35.635	12.324	3.6055	9.1318e-08	15.06	180.133	94.559	137.258	26.416	181.121	173.945	26.891	31.401	177.388	182.783	30.768	36.610	36.718	40.237	174.528	39.964	-8191	255	
2595.701	1	1	0	0	0.32212	0.097982	0.094019	0.11044	0.18281	0.10626	0.11063	0.065766	0.24426	0.39281	0.10349	0.28148	0.24849	0.2413	0.094869	0.22049	-2.1167	-2.8417	-2.6708	-2.4875	-2.8292	-2.5729	-2.6167	-2.9	-2.5271	-2.8771	-2.7917	-2.5479	-2.6854	-2.6	-2.4271	-2.7854	152.625	138.310	118.121	245.357	135.330	101.022	276.119	304.149	333.804	199.541	44.318	234.545	73.075	365.136	96.314	25.324	7.8146e-05	0.00012817	5.043e-05	249.73	8.9735e-07	3.4726e-07	367.22	51.698	5.6773e-07	1.4875e-06	104.06	35.867	12.728	3.6373	8.3687e-07	15.346	2.2431e-05	8.682e-06	1.9026e-06	239.19	9.8017e-08	8.798e-08	353.34	49.808	1.1149e-07	8.7281e-08	100.19	34.862	12.169	3.5498	8.7982e-08	14.815	176.501	70.581	122.379	26.385	199.656	114.023	27.103	31.488	240.076	176.532	30.877	36.732	36.446	40.546	188.308	40.331	-8191	255	
2595.820	1	1	0	0	0.14616	0.20311	0.1544	0.36973	0.046699	0.079727	0.19006	0.065726	0.15971	0.092802	0.18561	0.10598	0.060793	0.092177	0.31971	0.01109	-2.2854	-2.7917	-2.8208	-2.3583	-3.0667	-2.7188	-2.8396	-2.9208	-2.5458	-2.8312	-2.7521	-2.3167	-2.7479	-2.6833	-2.4667	-3.0812	152.564	56.808	348.213	311.616	133.044	351.118	54.843	156.505	275.340	156.819	342.022	165.796	310.304	116.695	87.005	161.071	7.8407e-05	0.00013896	2.8314e-05	247.63	1.1689e-06	6.175e-07	368.12	51.75	6.8164e-07	1.9735e-06	104.45	35.794	12.577	3.6744	8.6041e-07	15.297	2.2753e-05	8.6515e-06	2.0754e-06	238.57	1.1125e-07	9.4457e-08	354.43	49.811	1.1124e-07	8.3065e-08	100.41	34.978	12.191	3.5598	1.0224e-07	14.821	180.991	54.549	53.611	26.522	162.437	190.927	27.007	31.234	165.705	146.234	31.225	36.622	36.446	40.376	196.261	39.861	-8191	255	
2595.916	1	1	0	0	0.15828	0.15391	0.074869	0.21173	0.1238	0.24092	0.17536	0.16565	0.2749	0.12253	0.09672	0.13799	0.052709	0.10816	0.16269	0.17687	-2.1667	-2.7208	-2.7479	-2.6937	-2.8292	-2.7188	-2.5271	-2.8396	-2.6083	-2.6333	-3.0604	-2.5563	-2.7875	-2.6667	-2.55	-2.6688	90.487	47.235	316.524	213.309	268.080	103.157	65.788	281.964	323.641	76.265	79.168	324.413	168.725	315.348	198.034	313.572	8.5839e-05	0.00010216	4.96e-05	250.73	1.7554e-06	6.9797e-07	370.05	51.9	1.2883e-06	7.557e-07	105.14	35.766	12.878	3.7005	1.1174e-06	15.455	2.1921e-05	8.4682e-06	2.1202e-06	240.27	8.8918e-08	7.6625e-08	356.34	50.297	1.1629e-07	9.5293e-08	100.84	35.019	12.289	3.5676	9.5404e-08	14.871	175.403	157.443	94.940	26.280	182.967	179.600	26.939	31.171	172.054	145.324	31.316	36.439	35.898	40.397	209.031	39.770	-8191	255	
2596.013	1	1	0	0	0.2383	0.20186	0.17293	0.16932	0.19894	0.17434	0.15365	0.16114	0.092754	0.10937	0.32018	0.22791	0.075188	0.12725	0.30985	0.1527	-2.0229	-2.6937	-2.7812	-2.5687	-2.7833	-2.7729	-2.5542	-2.6979	-2.5729	-2.4417	-3.0312	-2.6083	-2.8688	-2.9625	-2.5479	-2.9062	132.984	250.128	372.013	368.197	288.201	66.460	145.753	169.322	39.243	13.484	57.907	55.087	121.488	37.615	102.779	109.980	8.5321e-05	8.8364e-05	4.1685e-05	252.48	1.0601e-06	1.7631e-06	369.7	51.966	1.2273e-06	1.4093e-06	104.99	36.187	12.601	3.6993	2.1595e-07	15.32	2.1619e-05	8.6438e-06	2.0669e-06	241.73	1.0496e-07	9.1092e-08	357.54	50.474	1.2407e-07	8.7619e-08	101.42	35.067	12.279	3.5521	8.6564e-08	14.762	182.292	96.374	88.085	27.103	168.791	148.490	27.001	30.816	185.774	168.753	31.126	36.726	36.065	40.496	221.448	40.618	-8191	255	
2596.109	1	1	0	0	0.12682	0.20045	0.20374	0.22202	0.20324	0.12422	0.044946	0.040811	0.10151	0.14398	0.27363	0.21086	0.19084	0.11243	0.094132	0.24833	-2.175	-2.5396	-2.7729	-2.7646	-2.525	-2.875	-2.7	-2.7812	-2.8083	-2.5646	-2.9958	-2.4917	-2.5312	-2.7917	-2.4354	-2.9521	151.742	340.921	291.109	308.704	166.606	83.799	278.601	363.880	29.083	147.802	265.240	87.671	193.650	161.903	29.367	341.570	8.6688e-05	0.00011217	4.203e-05	250.28	1.352e-06	6.0515e-07	367.27	52.242	6.3683e-07	1.5826e-06	104.12	35.497	12.678	3.6497	1.2994e-06	15.015	2.0445e-05	8.3155e-06	1.587e-06	240.68	1.0174e-07	7.8728e-08	353.84	50.067	1.0362e-07	9.6389e-08	100.03	34.489	12.166	3.514	1.1167e-07	14.608	181.749	117.857	69.031	27.008	178.363	153.855	27.115	31.534	194.721	151.743	30.712	36.634	36.320	40.524	166.857	40.336	-8191	255	
2596.203	1	1	0	0	0.1532	0.073792	0.15213	0.03455	0.27454	0.025585	0.32364	0.23882	0.077329	0.1781	0.13686	0.14496	0.13681	0.22495	0.07696	0.25734	-2.2396	-2.575	-2.8417	-2.6021	-2.7771	-2.9	-2.5854	-2.8667	-2.7625	-2.6125	-2.8458	-2.8333	-2.5563	-3.0208	-2.6396	-2.7646	229.491	94.995	49.780	223.575	43.571	249.112	13.997	18.926	316.368	314.074	301.479	43.302	332.155	108.943	264.582	301.798	8.6352e-05	0.00017908	3.5357e-05	246.83	8.6811e-07	1.3821e-06	367.51	51.976	9.9101e-07	7.034e-07	103.7	35.524	12.59	3.6837	4.8331e-07	15.118	2.021e-05	7.8726e-06	1.604e-06	238.48	9.3798e-08	6.6952e-08	353.28	50.197	1.0826e-07	9.7317e-08	99.839	34.517	12.14	3.5342	8.523e-08	14.69	184.401	115.577	104.464	26.812	195.990	171.726	26.998	31.265	160.703	149.189	30.645	36.598	35.885	41.407	202.658	40.485	-8191	255	
2596.299	1	1	0	0	0.11662	0.31334	0.069885	0.10961	0.078909	0.29451	0.2681	0.24036	0.20145	0.17843	0.054986	0.09018	0.1694	0.041314	0.15667	0.30483	-2.2625	-2.6229	-2.7687	-2.6729	-2.7104	-2.925	-2.7229	-2.7604	-2.8458	-2.5396	-2.8042	-2.7167	-2.6167	-2.7875	-2.6417	-2.7354	231.006	305.292	30.701	202.193	370.645	107.749	305.912	336.889	248.778	311.597	165.344	141.298	230.280	339.020	113.535	174.397	7.7039e-05	0.00010742	4.2196e-05	247.71	9.9363e-07	1.5782e-06	368.46	51.959	1.0046e-06	1.1565e-06	103.51	35.539	12.422	3.6618	1.1491e-06	15.295	2.1894e-05	8.6438e-06	2.4935e-06	238.46	1.1299e-07	7.0653e-08	354.68	50.026	1.0693e-07	9.9678e-08	100.19	34.671	12.091	3.5491	9.6488e-08	14.754	181.907	98.029	63.390	26.691	164.858	170.214	26.701	31.242	143.575	182.344	30.844	36.588	36.519	40.667	209.997	40.577	-8191	255	
2596.395	1	1	0	0	0.0042344	0.044535	0.10468	0.03372	0.06837	0.11546	0.086393	0.016273	0.15649	0.13123	0.11073	0.14014	0.15196	0.29747	0.1279	0.12008	-2.3812	-2.4625	-2.7812	-2.8646	-2.5271	-2.8375	-2.7583	-2.4562	-2.6833	-2.5812	-2.6833	-2.6354	-2.5229	-2.7792	-2.65	-2.5938	240.196	50.872	161.980	271.854	274.314	105.824	25.042	144.161	176.924	48.815	171.291	38.721	231.817	315.755	281.093	97.054	8.0048e-05	0.00011477	7.6658e-05	248.72	3.1896e-07	1.5714e-06	368.01	51.876	5.4184e-07	9.9385e-07	105.25	35.79	12.322	3.7012	8.7555e-07	15.143	2.1753e-05	9.438e-06	2.5959e-06	239.45	1.0819e-07	6.2494e-08	354.89	50.261	9.0878e-08	8.2728e-08	100.92	34.778	12.101	3.5511	9.1318e-08	14.662	178.821	90.118	87.558	26.514	273.398	161.464	26.944	30.804	162.002	172.920	31.180	36.693	36.962	39.906	172.896	40.224	-8191	255	
2596.516	1	1	0	0	0.19956	0.12815	0.2817	0.15045	0.078084	0.02701	0.16025	0.076265	0.057465	0.021306	0.040427	0.12835	0.076386	0.1391	0.17339	0.33179	-2.4146	-2.5833	-2.9	-2.7292	-2.6083	-2.9979	-2.6729	-2.5917	-2.9229	-2.6208	-2.7583	-2.725	-2.5583	-2.9979	-2.6375	-2.5771	317.849	44.706	235.463	152.252	226.876	282.999	39.053	238.827	321.147	242.835	373.195	323.416	52.039	187.762	65.006	70.693	8.7218e-05	0.00014846	3.87e-05	246.76	1.6609e-06	6.2553e-07	364.52	51.441	4.6094e-07	1.0539e-06	103.25	35.229	12.737	3.6601	6.5656e-07	15.03	2.2478e-05	1.0224e-05	2.1778e-06	238.86	1.0712e-07	8.184e-08	351.26	49.967	9.5016e-08	9.9593e-08	99.22	34.148	12.137	3.4996	9.6571e-08	14.539	169.347	72.870	95.266	26.540	183.086	164.111	26.655	31.358	205.482	188.612	30.776	36.791	37.063	40.163	149.963	40.396	-8191	255	
2596.612	1	1	0	0	0.12093	0.28151	0.30741	0.098114	0.1766	0.039162	0.07199	0.11798	0.18697	0.26212	0.14847	0.061084	0.12616	0.074133	0.30908	0.17942	-2.4688	-2.5625	-2.7625	-2.6104	-2.4583	-3.025	-2.6896	-2.6958	-2.7979	-2.6146	-2.5396	-3.0667	-2.5167	-2.7062	-2.8	-2.7354	30.479	148.835	78.615	232.137	162.420	337.554	145.725	362.176	292.940	253.719	65.457	125.295	321.633	197.011	303.014	35.060	8.3061e-05	0.00014315	2.1581e-05	246.56	1.0071e-06	7.3679e-07	364.5	51.344	9.0978e-07	1.1757e-06	102.56	35.238	12.755	3.6553	1.1019e-06	14.98	2.1585e-05	7.2541e-06	2.3164e-06	238.17	1.1224e-07	7.9064e-08	351.22	49.816	8.765e-08	7.8174e-08	99.199	34.349	12.184	3.5276	9.8239e-08	14.64	181.642	98.527	124.551	26.600	221.508	210.415	26.986	30.913	183.435	163.048	30.687	37.123	35.664	40.831	202.780	39.998	-8191	255	
2596.708	1	1	0	0	0.28719	0.13974	0.15751	0.10245	0.12738	0.0815	0.20064	0.15024	0.11123	0.041701	0.049709	0.035504	0.23375	0.25458	0.19824	0.17737	-2.4917	-2.5396	-2.6458	-2.6667	-2.4813	-2.8208	-2.6604	-2.5375	-2.6917	-2.5812	-2.5979	-2.9333	-2.5062	-2.8167	-2.6479	-2.3187	224.739	247.823	219.473	222.302	41.814	202.007	315.105	291.469	269.008	174.349	163.055	247.920	25.966	263.953	43.217	54.325	8.7368e-05	0.00016143	5.1395e-05	248.7	7.7041e-07	1.4638e-06	367.3	52.19	6.2457e-07	1.7563e-06	103.27	35.316	12.482	3.6518	2.2007e-07	15.06	2.1954e-05	7.2388e-06	2.5596e-06	238.86	1.1133e-07	7.469e-08	353.13	50.048	1.1364e-07	9.2425e-08	99.604	34.439	12.115	3.5166	7.6223e-08	14.608	180.219	116.988	93.477	26.014	133.221	171.713	26.731	31.512	176.426	155.858	30.910	36.632	37.387	40.804	193.436	40.096	-8191	255	
2596.805	1	1	0	0	0.12747	0.29986	0.076985	0.16163	0.062799	0.048433	0.037493	0.15359	0.060544	0.12353	0.087585	0.28049	0.31528	0.11103	0.11301	0.40214	-2.2125	-2.3708	-2.4583	-2.8229	-2.5125	-2.8104	-2.8563	-2.5292	-2.7854	-2.7083	-2.6937	-2.6875	-2.5667	-2.8417	-2.8146	-2.4938	304.493	176.473	143.631	212.375	302.780	330.815	130.914	288.013	18.612	244.816	126.876	316.464	310.270	219.080	287.230	325.208	7.9972e-05	7.4233e-05	3.4454e-05	251.04	2.0357e-06	7.0803e-07	366.42	51.664	7.1657e-07	1.3035e-06	103.93	34.687	12.62	3.5719	6.1364e-07	14.808	2.18e-05	9.667e-06	2.374e-06	239.74	1.2424e-07	8.7391e-08	353.84	50.191	9.3196e-08	8.0619e-08	99.858	34.019	12.173	3.4759	7.9809e-08	14.366	182.185	113.034	75.393	26.513	170.603	143.425	27.039	31.414	215.248	184.115	30.698	36.930	35.975	40.914	185.036	40.366	-8191	255	
2596.901	1	1	0	0	0.21365	0.28475	0.27269	0.30227	0.26131	0.044736	0.24195	0.10197	0.31098	0.0068944	0.23887	0.091945	0.075123	0.19929	0.26376	0.06502	-2.3333	-2.625	-2.4562	-2.7021	-2.7521	-2.6604	-2.8646	-2.6833	-2.7208	-2.8375	-2.5354	-2.9354	-2.625	-2.5771	-2.9688	-2.5958	18.643	188.800	325.471	369.412	71.741	362.428	255.207	269.520	364.871	225.286	253.217	219.229	100.085	133.879	334.939	216.212	8.1254e-05	4.4828e-05	3.5973e-05	250.1	1.574e-06	2.7815e-07	363.11	51.905	3.7616e-07	1.4124e-06	103.94	34.587	12.615	3.655	8.957e-07	14.995	2.1666e-05	8.7431e-06	2.7345e-06	240.24	9.5453e-08	9.0419e-08	350.91	50.285	1.0958e-07	8.1294e-08	99.292	33.94	12.099	3.4962	7.1636e-08	14.436	182.097	90.877	97.908	26.638	204.607	258.250	27.068	31.818	168.243	179.064	30.751	36.508	35.816	40.885	172.454	40.318	-8191	255	
2596.997	1	1	0	0	0.17172	0.26474	0.14263	0.18872	0.16144	0.12258	0.20665	0.14426	0.19636	0.26314	0.33846	0.18692	0.13525	0.079768	0.08316	0.21356	-2.475	-2.6437	-2.6604	-2.9583	-2.6292	-2.8104	-2.8875	-2.525	-2.8542	-2.8833	-2.6312	-3.0542	-2.7042	-2.5771	-2.95	-2.6958	304.823	53.550	203.862	238.333	62.354	355.952	318.456	265.634	209.062	274.326	312.372	346.092	180.626	43.610	117.226	192.913	7.7667e-05	0.00011681	5.3007e-05	249.17	1.002e-06	1.2812e-06	364.77	51.719	6.9487e-07	1.1603e-06	103.49	34.863	12.445	3.6025	6.5654e-07	14.863	2.2391e-05	7.6435e-06	2.2503e-06	238.58	1.1464e-07	8.4279e-08	352.01	50.274	1.114e-07	9.0739e-08	99.202	34.12	12.064	3.4997	7.7307e-08	14.447	181.158	115.137	90.281	26.874	209.217	142.038	26.958	31.328	155.519	171.681	30.752	36.493	36.083	40.597	185.163	40.068	-8191	255	
2597.117	1	1	0	0	0.036343	0.19523	0.084541	0.16826	0.032726	0.10192	0.2258	0.11835	0.094221	0.15324	0.05011	0.20154	0.22249	0.15709	0.11422	0.29116	-2.5583	-2.8646	-2.5625	-2.875	-2.7854	-2.6292	-2.9437	-2.4479	-2.8271	-2.8625	-2.5521	-2.8958	-2.7562	-2.7062	-2.9167	-2.7417	17.488	269.767	283.841	145.433	270.098	369.925	359.962	164.459	245.791	92.616	215.532	234.721	208.672	351.131	247.517	264.604	8.2861e-05	5.4224e-05	4.3005e-05	250.05	1.3652e-06	6.7619e-07	367.44	51.907	1.2841e-06	1.5306e-06	103.53	35.243	12.786	3.6342	1.1725e-06	14.953	2.1471e-05	6.376e-06	2.4508e-06	239.56	1.1018e-07	9.1513e-08	352.89	50.397	1.1629e-07	8.2728e-08	99.782	34.239	12.232	3.5248	7.6306e-08	14.525	185.449	88.641	131.328	26.987	192.941	147.579	26.925	31.190	191.882	187.113	31.044	36.285	35.861	40.473	153.862	39.855	-8191	255	
2597.212	1	1	0	0	0.204	0.029547	0.19123	0.13713	0.20579	0.1532	0.13531	0.12825	0.11487	0.049085	0.24304	0.19925	0.15282	0.17901	0.1227	0.15764	-2.2729	-2.7667	-2.5854	-2.7542	-2.8125	-2.7354	-2.8833	-2.5604	-2.7604	-3.0604	-2.6125	-2.8042	-2.8375	-2.5583	-2.9729	-2.7479	124.017	73.284	240.612	269.843	186.666	189.570	292.588	254.109	273.554	66.353	218.948	360.489	213.200	71.757	336.123	66.324	8.0481e-05	0.00011487	3.4386e-05	251.25	1.0772e-06	1.2763e-06	365.29	52.207	1.2245e-06	1.3992e-06	104.59	35.451	12.596	3.6596	7.6943e-07	15.09	2.1585e-05	6.4218e-06	2.2247e-06	240.19	1.0993e-07	8.8316e-08	352.61	50.635	1.0238e-07	8.2475e-08	100.33	34.501	12.303	3.5216	7.7891e-08	14.502	184.902	135.393	90.406	26.747	192.944	194.440	27.039	31.442	220.425	189.605	30.643	36.675	37.386	40.807	173.639	40.278	-8191	255	
2597.308	1	1	0	0	0.17075	0.017633	0.30769	0.33533	0.17823	0.071144	0.11589	0.094254	0.034124	0.23512	0.34802	0.20478	0.31876	0.070452	0.10657	0.085688	-2.3875	-2.875	-2.4562	-2.7375	-2.8792	-2.6562	-3.1	-2.7938	-2.7771	-2.9646	-2.5542	-2.9583	-2.9625	-2.4979	-2.8833	-2.8146	283.804	189.219	20.481	262.214	307.549	161.597	296.376	212.048	289.576	298.023	223.496	291.967	34.562	186.788	288.404	131.695	7.4828e-05	0.00012559	3.83e-05	250.43	1.1996e-06	8.267e-07	366.36	51.753	6.2631e-07	1.1906e-06	103.64	35.208	12.636	3.6215	1.1072e-06	14.856	2.1867e-05	8.4224e-06	2.1629e-06	240.26	8.8835e-08	8.6466e-08	351.4	50.379	1.042e-07	6.8307e-08	99.324	34.151	12.204	3.5041	8.2978e-08	14.461	181.317	88.741	90.529	26.875	201.788	204.409	27.248	30.948	205.040	163.314	30.785	37.072	36.232	40.136	181.322	40.549	-8191	255	
#DATA ENDS
