BOXY.EXE: ISS Imagent and Oximeter Data Acquisition Program Version 0.80
Ascii Record File

#ACQ INFORMATION
2  Detector Channels 
16  External MUX Channels 
1  Auxiliary Channels 
5000  Waveform (CCF) Frequency (Hz)
1  Waveforms Skipped 
30  Waveforms Averaged 
1  Cycles Averaged 
16  Acquisitions per Waveform 
10.0806  Updata Rate (Hz) 

#FILE INFORMATION
TRUE -- External MUX Channel results are PARSED.
FALSE -- AC DC and Phase are NOT grouped.
TRUE -- Companion Program Settings File CREATED.
FALSE -- AC data not excluded
FALSE -- DC data not excluded
FALSE -- Phase data not excluded
FALSE -- Auxillary Chn. data not excluded
Tab delimiters

#CALIBRATION STATE
TRUE -- Waveform Calibration Values APPLIED.


#AUX CALIBRATION VALUES
Val Type	aux-1	

Term	1.0000e+00	
Factor	0.0000e+00	


#WF CALIBRATION VALUES
A = Detector Channel
Val Type	A-AC1	A-AC2	A-AC3	A-AC4	A-AC5	A-AC6	A-AC7	A-AC8	A-AC9	A-AC10	A-AC11	A-AC12	A-AC13	A-AC14	A-AC15	A-AC16	A-DC1	A-DC2	A-DC3	A-DC4	A-DC5	A-DC6	A-DC7	A-DC8	A-DC9	A-DC10	A-DC11	A-DC12	A-DC13	A-DC14	A-DC15	A-DC16	A-Ph1	A-Ph2	A-Ph3	A-Ph4	A-Ph5	A-Ph6	A-Ph7	A-Ph8	A-Ph9	A-Ph10	A-Ph11	A-Ph12	A-Ph13	A-Ph14	A-Ph15	A-Ph16	

Term	0.00000e+00	0.00000e+00	0.00000e+00	0.00000e+00	0.00000e+00	0.00000e+00	0.00000e+00	0.00000e+00	0.00000e+00	0.00000e+00	0.00000e+00	0.00000e+00	0.00000e+00	0.00000e+00	0.00000e+00	0.00000e+00	0.00000e+00	0.00000e+00	0.00000e+00	0.00000e+00	0.00000e+00	0.00000e+00	0.00000e+00	0.00000e+00	0.00000e+00	0.00000e+00	0.00000e+00	0.00000e+00	0.00000e+00	0.00000e+00	0.00000e+00	0.00000e+00	0.00000e+00	0.00000e+00	0.00000e+00	0.00000e+00	0.00000e+00	0.00000e+00	0.00000e+00	0.00000e+00	0.00000e+00	0.00000e+00	0.00000e+00	0.00000e+00	0.00000e+00	0.00000e+00	0.00000e+00	0.00000e+00	
Factor	1.00000e+00	1.00000e+00	1.00000e+00	1.00000e+00	1.00000e+00	1.00000e+00	1.00000e+00	1.00000e+00	1.00000e+00	1.00000e+00	1.00000e+00	1.00000e+00	1.00000e+00	1.00000e+00	1.00000e+00	1.00000e+00	1.00000e+00	1.00000e+00	1.00000e+00	1.00000e+00	1.00000e+00	1.00000e+00	1.00000e+00	1.00000e+00	1.00000e+00	1.00000e+00	1.00000e+00	1.00000e+00	1.00000e+00	1.00000e+00	1.00000e+00	1.00000e+00	X	X	X	X	X	X	X	X	X	X	X	X	X	X	X	X	

B = Detector Channel
Val Type	B-AC1	B-AC2	B-AC3	B-AC4	B-AC5	B-AC6	B-AC7	B-AC8	B-AC9	B-AC10	B-AC11	B-AC12	B-AC13	B-AC14	B-AC15	B-AC16	B-DC1	B-DC2	B-DC3	B-DC4	B-DC5	B-DC6	B-DC7	B-DC8	B-DC9	B-DC10	B-DC11	B-DC12	B-DC13	B-DC14	B-DC15	B-DC16	B-Ph1	B-Ph2	B-Ph3	B-Ph4	B-Ph5	B-Ph6	B-Ph7	B-Ph8	B-Ph9	B-Ph10	B-Ph11	B-Ph12	B-Ph13	B-Ph14	B-Ph15	B-Ph16	

Term	0.00000e+00	0.00000e+00	0.00000e+00	0.00000e+00	0.00000e+00	0.00000e+00	0.00000e+00	0.00000e+00	0.00000e+00	0.00000e+00	0.00000e+00	0.00000e+00	0.00000e+00	0.00000e+00	0.00000e+00	0.00000e+00	0.00000e+00	0.00000e+00	0.00000e+00	0.00000e+00	0.00000e+00	0.00000e+00	0.00000e+00	0.00000e+00	0.00000e+00	0.00000e+00	0.00000e+00	0.00000e+00	0.00000e+00	0.00000e+00	0.00000e+00	0.00000e+00	-9.99014e+01	-1.28059e+02	-1.24292e+02	-1.80815e+02	-5.64162e+01	-6.70400e+01	-1.57141e+02	-1.62015e+02	-5.78422e+01	-6.46554e+01	-1.71605e+02	-1.71581e+02	-1.83471e+02	-1.76929e+02	-6.31455e+01	-1.49760e+02	
Factor	1.57090e-05	1.56009e-04	4.31416e-05	1.49598e-01	1.26044e-06	1.72627e-06	1.55617e-01	4.50887e-02	1.02207e-06	1.73542e-06	7.47621e-02	2.92882e-02	3.47003e-02	8.87559e-03	1.34979e-06	1.27559e-02	1.64394e-05	5.02448e-05	1.40396e-05	7.54145e-02	4.32544e-07	5.76823e-07	7.39352e-02	2.29014e-02	4.22910e-07	5.74600e-07	3.67841e-02	1.45451e-02	1.77443e-02	4.53651e-03	4.81585e-07	6.33307e-03	X	X	X	X	X	X	X	X	X	X	X	X	X	X	X	X	



#DISTANCE SETTINGS
A = Detector Channel
A-1	A-2	A-3	A-4	A-5	A-6	A-7	A-8	A-9	A-10	A-11	A-12	A-13	A-14	A-15	A-16	

2.5000e+00	3.0000e+00	2.5000e+00	3.0000e+00	2.0000e+00	3.0000e+00	1.5000e+00	3.0000e+00	3.0000e+00	3.0000e+00	3.0000e+00	3.0000e+00	3.0000e+00	3.0000e+00	1.5000e+00	3.0000e+00	

B = Detector Channel
B-1	B-2	B-3	B-4	B-5	B-6	B-7	B-8	B-9	B-10	B-11	B-12	B-13	B-14	B-15	B-16	

1.0000e+01	1.0000e+01	1.0000e+01	1.4400e+00	1.0000e+01	1.0000e+01	1.5100e+00	1.9400e+00	1.0000e+01	1.0000e+01	1.9900e+00	2.4900e+00	2.4100e+00	2.9000e+00	1.0000e+01	2.9800e+00	




#DATA BEGINS
time	group	step	mark	flag	A-AC1	A-AC2	A-AC3	A-AC4	A-AC5	A-AC6	A-AC7	A-AC8	A-AC9	A-AC10	A-AC11	A-AC12	A-AC13	A-AC14	A-AC15	A-AC16	A-DC1	A-DC2	A-DC3	A-DC4	A-DC5	A-DC6	A-DC7	A-DC8	A-DC9	A-DC10	A-DC11	A-DC12	A-DC13	A-DC14	A-DC15	A-DC16	A-Ph1	A-Ph2	A-Ph3	A-Ph4	A-Ph5	A-Ph6	A-Ph7	A-Ph8	A-Ph9	A-Ph10	A-Ph11	A-Ph12	A-Ph13	A-Ph14	A-Ph15	A-Ph16	B-AC1	B-AC2	B-AC3	B-AC4	B-AC5	B-AC6	B-AC7	B-AC8	B-AC9	B-AC10	B-AC11	B-AC12	B-AC13	B-AC14	B-AC15	B-AC16	B-DC1	B-DC2	B-DC3	B-DC4	B-DC5	B-DC6	B-DC7	B-DC8	B-DC9	B-DC10	B-DC11	B-DC12	B-DC13	B-DC14	B-DC15	B-DC16	B-Ph1	B-Ph2	B-Ph3	B-Ph4	B-Ph5	B-Ph6	B-Ph7	B-Ph8	B-Ph9	B-Ph10	B-Ph11	B-Ph12	B-Ph13	B-Ph14	B-Ph15	B-Ph16	aux-1	digaux	

14589.985	1	1	0	256	0.0295	0.073206	0.23393	0.50075	0.10888	0.019454	0.41221	0.40231	0.1452	0.1176	0.089493	0.22924	0.14564	0.46316	0.10258	0.20381	-2.4083	-2.9958	-2.8875	-3.0375	-3.1208	-2.9417	-3.3646	-3.2521	-2.9354	-3.2354	-3.175	-2.9688	-3.1417	-3.0812	-2.9875	-3.1542	385.070	513.072	307.435	489.738	404.408	410.515	475.992	471.206	470.266	415.193	460.398	516.254	258.790	505.276	366.216	352.122	0.00053104	0.0005493	0.00015651	1409	3.6786e-06	4.2746e-06	1385.7	370.31	3.5295e-06	3.1723e-06	421.14	141.94	124.37	44.822	4.7151e-06	54.495	0.0012449	0.0026798	0.00075928	1427.3	2.4164e-05	3.0543e-05	1407.1	377.9	2.426e-05	3.1024e-05	430.09	146.15	128.17	46.103	2.6939e-05	56.226	222.632	240.202	252.512	175.355	299.044	320.969	175.233	179.987	313.301	338.068	179.556	183.553	183.907	188.512	293.382	187.821	-8191	255	
14590.106	1	1	0	0	0.034848	0.18003	0.096433	0.20139	0.19823	0.18703	0.23555	0.32228	0.19362	0.18387	0.25984	0.10134	0.1893	0.2208	0.21888	0.12822	-2.375	-3.0333	-2.875	-3.0896	-3.0583	-2.8583	-3.2833	-3.3812	-2.975	-3.125	-2.9229	-3.0771	-3.1396	-3.0917	-3.025	-3.2562	168.304	402.668	190.923	468.274	307.423	300.987	434.699	447.571	298.792	221.287	177.676	377.703	507.819	485.849	254.004	419.623	0.00049994	0.00055264	0.00016081	1409	3.0795e-06	6.1629e-06	1380.8	370.72	4.2436e-06	2.8567e-06	421.28	141.73	124.13	44.752	6.5092e-06	54.613	0.0012489	0.0027097	0.00074945	1429.4	2.4421e-05	3.0707e-05	1406.4	378.09	2.4249e-05	3.0529e-05	429.62	145.76	127.84	46.003	2.6813e-05	56.227	221.594	224.129	289.389	175.151	311.477	314.255	175.294	180.062	300.365	348.436	179.628	183.515	184.024	188.444	294.718	188.066	-8191	255	
14590.202	1	1	0	0	0.14127	0.049523	0.206	0.27483	0.24503	0.087953	0.26905	0.27254	0.058406	0.3952	0.26094	0.08524	0.15626	0.099371	0.095719	0.07725	-2.3479	-3.1875	-3.0333	-3.0812	-3.175	-2.9167	-3.2313	-3.3604	-2.7562	-3.0875	-3.2958	-2.9708	-3.3667	-3.0375	-2.9042	-3.3583	378.454	165.940	393.207	465.265	302.926	257.877	417.282	463.291	172.162	407.788	187.698	381.547	194.239	397.287	323.673	392.710	0.00050401	0.00059055	0.00016004	1411.1	5.5654e-06	3.3971e-06	1384.6	370.55	4.8532e-06	4.7513e-06	421.02	141.19	124.73	44.609	6.3802e-06	54.41	0.0012387	0.0027136	0.00072626	1427.5	2.4061e-05	3.0335e-05	1407.5	377.37	2.4148e-05	3.08e-05	428.97	145.57	127.88	45.94	2.6099e-05	56.145	224.560	230.568	261.682	175.286	310.491	309.370	175.055	179.974	302.839	321.432	179.598	183.638	184.199	188.834	301.334	188.089	-8191	255	
14590.298	1	1	0	0	0.20378	0.22098	0.071967	0.36931	0.057259	0.21854	0.16396	0.34028	0.17982	0.30584	0.18317	0.15901	0.2916	0.23164	0.090634	0.069485	-2.4604	-3.1104	-2.9271	-3.1479	-3.2438	-2.7583	-3.0708	-3.3396	-2.8792	-3.2188	-3.3125	-3.1458	-3.3354	-3.1167	-2.9271	-3.0958	401.988	376.235	341.342	508.391	277.878	297.828	477.266	465.320	470.644	355.411	496.213	377.804	431.648	455.637	486.980	430.090	0.00053654	0.00040562	0.0001256	1404	4.8769e-06	5.1421e-06	1382	369.6	4.5829e-06	5.3992e-06	418.92	141.56	124.19	44.644	2.1434e-06	54.273	0.0012557	0.0026229	0.00072906	1423.6	2.3888e-05	3.0157e-05	1403.7	377.14	2.3992e-05	3.0746e-05	428.5	145.21	127.44	45.805	2.6416e-05	56.121	223.740	259.874	271.578	175.391	294.291	326.628	175.131	179.984	309.022	308.715	179.551	183.745	184.110	188.386	332.490	188.152	-8191	255	
14590.419	1	1	0	0	0.23953	0.028334	0.094496	0.086516	0.15364	0.22726	0.08585	0.19363	0.39791	0.25968	0.29731	0.30867	0.18062	0.072978	0.23942	0.042558	-2.4	-2.9396	-3.1229	-3.0521	-3.0875	-3.0542	-3.0687	-3.2125	-2.9729	-3.2313	-3.2604	-2.8063	-3.0396	-2.9813	-2.8667	-3.3125	276.549	472.590	245.129	406.436	166.426	369.754	356.729	182.987	443.346	420.076	504.330	506.115	397.200	470.455	457.889	450.259	0.00052726	0.00074277	0.00010735	1400.4	3.9998e-06	6.9567e-06	1380.8	369.68	4.5563e-06	4.7063e-06	419.88	141.89	123.84	44.571	6.2506e-06	54.261	0.0012537	0.0026482	0.00073921	1421.2	2.4112e-05	2.9674e-05	1402.2	376.76	2.4267e-05	3.0272e-05	427.8	145.33	127.51	45.806	2.6468e-05	56.01	225.039	253.170	230.191	175.118	321.351	314.019	175.228	179.950	284.218	307.852	179.546	183.558	184.002	188.623	291.646	188.062	-8191	255	
14590.490	1	1	0	0	0.18017	0.21232	0.17082	0.2307	0.1416	0.21232	0.3781	0.12975	0.11497	0.05239	0.23786	0.20677	0.17844	0.18427	0.15193	0.054399	-2.4813	-3.0208	-3.2292	-3.0938	-3.0146	-3.0271	-2.9062	-3.2625	-3.0875	-2.9625	-3.3312	-2.8021	-3.0812	-3.2313	-2.8063	-3.2333	397.141	224.111	196.389	475.318	477.470	338.404	439.600	423.822	302.820	473.757	392.383	451.035	256.945	404.039	356.657	177.045	0.00049297	0.00051368	0.00011375	1401.7	5.4142e-06	5.503e-06	1374.7	368.97	4.5184e-06	6.8761e-06	419.11	140.35	123.88	44.275	3.5301e-06	54.384	0.0012265	0.0026573	0.00073328	1420.5	2.3928e-05	3.0216e-05	1398.1	375.92	2.365e-05	3.0286e-05	427.46	144.74	127.02	45.658	2.6577e-05	55.934	221.712	279.588	261.279	175.201	306.929	302.863	175.172	179.926	282.983	317.360	179.562	183.687	184.109	188.844	306.465	188.049	-8191	255	
14590.587	1	1	0	0	0.13435	0.2557	0.036537	0.24978	0.37081	0.20242	0.25932	0.23835	0.16216	0.019972	0.11456	0.095754	0.19794	0.18549	0.22133	0.27701	-2.4292	-2.8187	-3.1125	-2.9333	-3.0271	-3.1458	-2.8812	-3.2396	-3.0896	-2.9146	-3.25	-3.0042	-3.1021	-3.1188	-2.8125	-3.1771	373.805	515.011	321.793	471.243	257.532	429.951	434.570	171.217	294.931	314.612	516.614	253.070	230.713	442.189	424.474	465.918	0.00049834	0.0004418	0.00016617	1398.9	7.0779e-06	7.3592e-06	1376.2	367.23	5.1126e-06	4.0885e-06	418.81	140.69	123.38	44.223	3.8238e-06	54.005	0.001243	0.0026308	0.00073187	1419	2.4659e-05	2.9979e-05	1398.2	374.72	2.3633e-05	3.0307e-05	426.81	144.7	126.97	45.598	2.6342e-05	55.816	223.571	240.571	246.420	175.434	297.115	320.354	175.140	179.959	301.081	276.712	179.570	183.694	184.251	188.986	313.058	187.903	-8191	255	
14590.707	1	1	0	0	0.09057	0.13793	0.17648	0.23074	0.064377	0.093035	0.23078	0.21138	0.2542	0.10647	0.2015	0.022248	0.30221	0.13483	0.20437	0.31994	-2.5604	-2.9042	-3.1729	-3.2417	-3.1854	-3.0687	-3.1917	-3.3146	-2.9583	-2.9125	-3.3708	-3.0938	-2.9958	-3.3187	-2.7313	-3.1937	257.623	395.762	325.438	476.798	373.249	375.183	394.320	463.644	308.927	508.741	398.643	481.488	484.234	219.376	250.115	469.643	0.0004902	0.00048643	0.00017276	1400.3	4.9193e-06	6.3848e-06	1376	368.1	4.4337e-06	5.3216e-06	416.89	140.15	123.33	44.146	4.5862e-06	54.161	0.0012475	0.0026702	0.00073445	1416.5	2.4067e-05	2.9888e-05	1395.9	374.81	2.379e-05	3.1158e-05	426.59	144.36	126.8	45.512	2.6547e-05	55.762	222.693	270.904	257.542	175.316	308.273	320.173	174.994	180.052	305.028	322.392	179.458	183.649	184.122	188.742	306.739	187.923	-8191	255	
14590.802	1	1	0	0	0.082881	0.078742	0.21414	0.21698	0.18314	0.11444	0.22859	0.18893	0.1526	0.069218	0.21887	0.22258	0.18196	0.10497	0.16597	0.17735	-2.5875	-2.7708	-3.1583	-3.2271	-3.0896	-3.1875	-3.1521	-3.3125	-3.0125	-2.8375	-3.4667	-3.0021	-2.9292	-3.2979	-3.0333	-3.3688	289.478	423.333	469.960	186.135	472.487	172.107	470.546	462.235	489.541	234.874	445.444	170.708	379.138	480.486	335.049	468.897	0.00050344	0.00028322	0.00013038	1391.4	6.7228e-06	4.0086e-06	1370.7	367.31	4.6684e-06	4.0887e-06	416.83	139.45	122.94	44.254	5.4459e-06	54.082	0.0012389	0.0026783	0.00075293	1411.6	2.4505e-05	2.9925e-05	1391.4	374.02	2.392e-05	3.0789e-05	425.59	143.81	126.37	45.437	2.6784e-05	55.615	225.805	213.866	257.429	175.311	291.789	332.908	175.000	180.004	306.289	327.756	179.651	183.678	183.856	188.652	296.952	188.009	-8191	255	
14590.898	1	1	0	0	0.12088	0.18639	0.22833	0.19152	0.20794	0.14907	0.35811	0.093693	0.18051	0.082965	0.26295	0.078171	0.28279	0.17593	0.26159	0.33598	-2.5542	-2.8375	-2.9354	-3.1813	-2.8458	-3.1125	-3.0563	-3.0292	-3.2438	-2.8104	-3.2313	-3.0458	-2.9708	-3.2375	-2.8563	-3.1125	441.299	504.644	468.243	203.088	386.149	190.328	415.158	472.817	371.267	449.514	396.549	421.190	487.623	226.754	181.041	268.778	0.00047869	0.00068439	0.00013585	1386.2	5.1381e-06	6.3026e-06	1362.5	366.29	2.1404e-06	5.0042e-06	414.13	139.46	122.38	44.173	5.7252e-06	53.996	0.0012357	0.0027034	0.0007515	1406.3	2.4486e-05	3.0512e-05	1384.4	373.16	2.4654e-05	3.1361e-05	424.08	143.61	125.91	45.356	2.6934e-05	55.515	225.594	256.133	254.006	175.399	299.028	304.949	175.100	180.051	296.798	305.289	179.598	183.518	184.105	188.660	289.213	188.020	-8191	255	
14590.994	1	1	0	0	0.059997	0.16828	0.10086	0.22416	0.1667	0.13817	0.13583	0.13337	0.14411	0.14309	0.20711	0.20873	0.18908	0.056511	0.12303	0.11908	-2.8375	-2.8812	-3.075	-3.3167	-2.9667	-3.1771	-3.1667	-3.2396	-3.3667	-2.9417	-3.2042	-3.2333	-3.1521	-3.1312	-3.05	-3.1688	479.398	311.120	292.994	438.568	178.834	431.561	415.662	404.964	337.821	340.710	466.112	448.598	400.777	198.255	408.192	300.165	0.00049793	0.00054479	0.00012532	1377.4	4.0073e-06	5.8705e-06	1357.9	366.66	4.5263e-06	3.7318e-06	415.25	139.46	122.5	44.058	5.2558e-06	53.882	0.0012603	0.0027588	0.00076615	1399.1	2.5419e-05	3.1806e-05	1380.2	373.15	2.4821e-05	3.1659e-05	425.03	143.48	126.18	45.375	2.7647e-05	55.51	225.225	236.543	242.222	175.448	278.421	317.733	175.125	180.020	296.442	338.050	179.435	183.714	183.955	188.937	298.897	188.034	-8191	255	
14591.115	1	1	0	0	0.2852	0.1053	0.26915	0.23774	0.28716	0.02745	0.22167	0.27478	0.17054	0.18468	0.13986	0.13485	0.041381	0.10185	0.18537	0.076142	-2.75	-2.9188	-3.125	-3.3104	-2.8563	-3.0979	-3.2542	-3.0771	-3.2292	-3.0396	-3.1146	-3.325	-2.7521	-3.3167	-3.0917	-3.0708	480.093	263.293	274.664	476.177	381.688	474.969	495.193	500.598	304.547	277.274	458.348	457.875	190.010	295.040	245.983	401.398	0.00053535	0.00045035	0.00012658	1379.4	4.915e-06	3.6016e-06	1357.4	365.2	5.5147e-06	4.5731e-06	414.53	139.32	121.85	43.991	4.0617e-06	53.745	0.001288	0.0028703	0.00077586	1399.7	2.5535e-05	3.2254e-05	1378.7	372.45	2.5148e-05	3.2808e-05	424.05	143.47	125.88	45.29	2.7616e-05	55.498	219.816	254.076	247.913	175.376	305.349	304.956	175.221	180.026	289.849	284.311	179.603	183.636	184.096	188.792	311.661	188.007	-8191	255	
14591.186	1	1	0	0	0.19798	0.12342	0.077195	0.45785	0.19591	0.2664	0.24079	0.25055	0.070298	0.18064	0.23334	0.087907	0.0477	0.35606	0.20038	0.0506	-2.8896	-2.8354	-3.0625	-3.1958	-2.7958	-3.2313	-3.2083	-2.9542	-3.1521	-3.0979	-3.0187	-3.3187	-2.8354	-3.2062	-3.0938	-3.0312	172.058	480.408	521.182	487.728	443.648	184.861	485.401	436.309	373.167	260.506	487.548	472.221	316.837	501.873	433.081	181.297	0.00049962	0.00047793	0.00012402	1375.5	4.6561e-06	5.2622e-06	1359.5	365.05	5.9801e-06	6.3288e-06	417.46	139.37	122.32	43.882	4.5545e-06	53.614	0.0012869	0.0028339	0.00079482	1396.9	2.5787e-05	3.2288e-05	1378.3	372.34	2.5812e-05	3.1967e-05	424.52	143.25	125.76	45.208	2.859e-05	55.365	223.713	219.515	257.244	175.360	282.324	327.548	175.193	180.085	305.079	295.777	179.433	183.625	184.085	188.793	313.686	188.092	-8191	255	
14591.282	1	1	0	0	0.25799	0.031002	0.12698	0.1899	0.082745	0.066502	0.10116	0.2271	0.15607	0.19694	0.19476	0.059872	0.034219	0.2019	0.10619	0.14194	-2.7479	-2.8625	-2.9833	-3.575	-2.8354	-3.0771	-3.2875	-2.8979	-3.175	-3.0708	-3.1354	-3.2792	-2.8875	-3.2188	-3.0687	-3.1437	494.589	504.218	190.596	504.011	217.142	512.272	185.013	409.074	305.680	341.249	215.621	378.629	256.462	164.091	197.261	364.252	0.00052827	0.00041444	7.4506e-05	1380.9	5.2218e-06	4.0531e-06	1359.6	365.41	3.3895e-06	4.5761e-06	415.81	139.18	121.81	43.854	5.6462e-06	53.71	0.0013049	0.0028899	0.00079166	1399.9	2.5935e-05	3.2212e-05	1380.1	372.45	2.5614e-05	3.2625e-05	423.92	143.06	125.53	45.155	2.865e-05	55.38	222.400	279.613	252.515	175.326	298.212	328.139	175.203	179.994	288.215	326.142	179.481	183.551	184.233	188.858	311.755	188.038	-8191	255	
14591.379	1	1	0	0	0.012745	0.15919	0.075965	0.21044	0.16993	0.076197	0.153	0.11851	0.16663	0.091967	0.068875	0.3139	0.28492	0.1521	0.11929	0.14205	-2.8104	-2.95	-2.8	-3.475	-2.9396	-2.9833	-3.3187	-3.1646	-3.0542	-2.9938	-3.1854	-3.2687	-2.9396	-3.2812	-3.1333	-3.0521	510.373	310.836	358.547	435.073	496.988	332.966	477.386	465.451	394.485	288.175	235.963	486.046	171.050	205.221	335.290	448.927	0.00050032	0.0005524	0.00011573	1382.9	4.772e-06	4.7247e-06	1360.7	363.59	4.7643e-06	2.923e-06	413.94	139.45	120.96	43.613	6.422e-06	53.336	0.0013488	0.0029861	0.00082445	1400.8	2.6515e-05	3.3845e-05	1380.2	371.63	2.6538e-05	3.4155e-05	423.37	143.01	125	45.028	2.9361e-05	55.118	223.933	259.679	255.103	175.350	311.586	309.521	175.202	179.963	299.087	319.372	179.404	183.659	184.014	188.905	302.168	188.009	-8191	255	
14591.499	1	1	0	0	0.2381	0.10606	0.15121	0.1123	0.18733	0.1165	0.13885	0.08263	0.18665	0.051181	0.19831	0.30191	0.12303	0.074305	0.18887	0.12964	-2.725	-2.8417	-2.8958	-3.3208	-2.9688	-2.9292	-3.4625	-3.1604	-3.1979	-3.0187	-3.0563	-3.2917	-2.8729	-3.1479	-3.1333	-3.0354	269.332	267.340	494.837	518.332	412.781	257.081	172.471	431.581	188.043	223.941	440.281	442.133	447.908	209.079	235.776	246.356	0.00048513	0.00052048	0.00016649	1376.7	3.3817e-06	4.3552e-06	1358.9	363.51	5.6863e-06	6.1756e-06	413.27	138.2	120.71	43.424	5.4234e-06	53.34	0.001329	0.0029694	0.00083878	1397.3	2.7453e-05	3.4083e-05	1378.6	371.31	2.6844e-05	3.466e-05	421.84	142.32	124.61	44.808	2.9227e-05	55.006	222.698	253.096	263.128	175.379	303.502	322.607	175.262	180.158	308.936	301.525	179.459	183.741	184.094	188.758	315.129	188.292	-8191	255	
14591.594	1	1	0	0	0.23444	0.2624	0.20768	0.34035	0.055715	0.1703	0.34725	0.22681	0.10928	0.12206	0.11747	0.143	0.24339	0.1105	0.11141	0.14229	-2.7146	-2.9375	-2.8979	-3.4271	-3.0333	-2.9958	-3.4958	-3.05	-2.9979	-3.0229	-2.9271	-3.125	-3.05	-3.0104	-3.1458	-3.0917	369.624	505.914	268.635	460.358	342.771	447.010	493.080	453.863	483.662	500.092	391.289	507.875	460.061	474.226	299.064	352.347	0.00048354	0.00048039	0.00013929	1374.5	4.893e-06	5.9999e-06	1348.4	362.77	4.4048e-06	2.6369e-06	413.3	137.44	121.2	43.469	4.2532e-06	53.151	0.0013642	0.002996	0.00084828	1393.8	2.77e-05	3.4625e-05	1372.7	369.72	2.7112e-05	3.5119e-05	421.34	142.04	124.47	44.733	3.0069e-05	54.96	224.741	255.672	243.016	175.381	318.225	342.973	175.227	179.954	296.788	326.350	179.609	183.816	184.070	188.899	318.306	188.184	-8191	255	
14591.690	1	1	0	0	0.041756	0.18044	0.14774	0.23933	0.099306	0.25965	0.22603	0.13699	0.17695	0.31774	0.31945	0.19822	0.1787	0.24233	0.16382	0.096051	-2.5375	-3.025	-2.8667	-3.2417	-2.9979	-2.9938	-3.1312	-3.0438	-2.8875	-3.1604	-2.9833	-3.2188	-3.1417	-2.8792	-3.2125	-3.0104	237.276	322.265	421.304	410.189	356.143	474.396	405.882	398.991	351.082	388.878	509.953	481.837	209.095	513.655	182.269	452.774	0.00048169	0.00041192	0.00013853	1370.7	1.9748e-06	3.1074e-06	1350.1	362.6	5.5284e-06	3.7713e-06	411.36	138	120.65	43.411	5.9034e-06	53.282	0.0013649	0.0030874	0.00085744	1390.8	2.7749e-05	3.4734e-05	1371.2	369.55	2.7797e-05	3.5594e-05	420.2	141.76	124.33	44.653	3.0135e-05	54.916	223.723	257.232	293.183	175.212	298.601	319.409	175.148	180.043	304.661	329.549	179.487	183.955	183.959	188.885	304.202	187.938	-8191	255	
14591.788	1	1	0	0	0.04919	0.24464	0.14588	0.12349	0.20917	0.11289	0.27659	0.44955	0.1084	0.23563	0.35728	0.085916	0.17111	0.10553	0.10615	0.2017	-2.4833	-3.1813	-2.8896	-3.2792	-3.0604	-2.7479	-3.4083	-3.1813	-3.0271	-3.0854	-3.0625	-3.0333	-3.0292	-3.1333	-3.2625	-3.1312	184.697	284.259	489.963	471.228	168.470	368.070	423.583	468.821	346.840	273.799	492.322	397.486	399.885	179.926	311.871	312.339	0.00050383	0.00067902	0.00017921	1371	3.801e-06	7.7034e-06	1350.4	361.16	3.9332e-06	4.2869e-06	412.39	137.96	120.59	43.472	4.236e-06	53.159	0.0014001	0.0030986	0.0008692	1391.7	2.7908e-05	3.5774e-05	1371.6	369.52	2.7827e-05	3.5634e-05	420.91	141.98	124.49	44.792	3.0475e-05	54.939	225.644	248.588	270.021	175.357	304.769	340.038	175.246	179.999	315.794	311.720	179.263	183.855	184.123	188.701	316.168	187.958	-8191	255	
14591.882	1	1	0	0	0.056462	0.19913	0.19396	0.068617	0.10558	0.21241	0.17521	0.23317	0.22654	0.31656	0.11718	0.11786	0.18157	0.26086	0.034334	0.23257	-2.375	-3.2458	-2.6646	-3.1771	-2.9729	-2.8479	-3.1854	-3.225	-3.1	-3.0104	-3.1	-3.0375	-3.15	-2.9646	-3.125	-3.1104	355.724	367.943	501.464	516.968	485.435	221.437	491.200	478.966	192.078	230.734	251.255	484.473	504.452	490.616	222.209	479.592	0.00049198	0.00043859	0.00020515	1368.7	5.4839e-06	3.9235e-06	1346.5	361.82	4.9482e-06	4.9056e-06	411.86	137.22	120.21	43.321	4.5124e-06	53.159	0.0013745	0.0031041	0.0008606	1388.9	2.7881e-05	3.5453e-05	1368.4	368.95	2.7824e-05	3.5167e-05	419.61	141.47	124	44.628	3.0129e-05	54.819	225.287	249.293	257.136	175.387	293.150	302.697	175.357	179.961	302.106	321.706	179.492	183.644	183.945	188.816	304.875	187.795	-8191	255	
14591.978	1	1	0	0	0.16708	0.11897	0.092708	0.10336	0.34128	0.15579	0.29239	0.21324	0.15601	0.24095	0.27605	0.12729	0.11415	0.17204	0.25619	0.066274	-2.5229	-3.0479	-2.7812	-3.1896	-3.1729	-2.9188	-3.3833	-3.0896	-2.8625	-3.1375	-3.0875	-3.1167	-3.3625	-2.9292	-2.9688	-3.2208	489.970	487.611	513.201	465.405	424.094	300.696	487.616	455.229	498.336	520.449	471.986	192.833	478.675	466.887	264.877	485.816	0.00049885	0.00029197	0.00016023	1360.8	4.2191e-06	2.8504e-06	1346.1	361.47	3.3109e-06	3.8548e-06	411.5	137.3	120.88	43.444	3.6891e-06	53.216	0.0013846	0.0030849	0.00086487	1383	2.7376e-05	3.5518e-05	1367.1	368.8	2.8496e-05	3.5404e-05	420.03	141.6	124.33	44.692	3.1131e-05	54.894	225.738	241.988	250.470	175.315	319.351	330.651	175.330	180.016	287.365	320.104	179.472	183.799	184.289	188.816	288.655	188.388	-8191	255	
14592.099	1	1	0	0	0.21679	0.16304	0.22577	0.13027	0.13928	0.19997	0.1149	0.2499	0.17878	0.12902	0.39636	0.25528	0.19651	0.2667	0.17072	0.11255	-2.4396	-3.0542	-2.9979	-3.1271	-3.1958	-2.9021	-3.1063	-3.2833	-3.0417	-3.0812	-3.1625	-3.0625	-3.2375	-3.0979	-3.3667	-3.3667	251.479	258.990	304.690	461.855	307.971	195.033	487.298	449.469	497.487	440.708	503.055	220.673	445.365	512.051	451.989	321.998	0.00049685	0.00077037	0.00016425	1365.1	3.9286e-06	6.204e-06	1347.2	361.73	4.1936e-06	4.7246e-06	410.93	137.59	120.25	43.51	4.3974e-06	53.037	0.0014039	0.0031415	0.00086399	1385.6	2.8287e-05	3.5404e-05	1366.6	368.69	2.8039e-05	3.5534e-05	420.14	141.63	124.12	44.689	3.0737e-05	54.875	222.948	255.674	231.856	175.350	305.445	301.005	175.278	180.044	290.866	335.577	179.370	183.681	184.355	188.846	295.869	188.181	-8191	255	
14592.195	1	1	0	0	0.13866	0.11144	0.22252	0.41657	0.098394	0.075211	0.36426	0.25662	0.2666	0.1852	0.19228	0.11304	0.10674	0.10434	0.20578	0.26178	-2.3479	-3.2396	-2.9833	-3.0917	-3.1188	-3.0792	-3.3042	-3.3563	-2.9958	-3.1292	-3.2438	-2.9375	-3.3333	-2.9083	-3.0458	-3.2875	218.308	520.663	426.747	503.983	183.051	454.099	435.047	425.476	424.171	401.845	184.502	431.915	519.189	446.059	513.958	208.693	0.00049228	0.00048955	0.00011196	1367.1	4.7029e-06	6.1842e-06	1346.9	361.01	5.3816e-06	4.0557e-06	412.4	138.16	120.91	43.392	4.2922e-06	53.065	0.0014056	0.0031371	0.00088482	1387.3	2.8725e-05	3.543e-05	1367.1	369.32	2.8087e-05	3.6493e-05	420.56	141.97	124.25	44.777	3.1138e-05	54.889	226.425	284.085	243.188	175.333	284.605	298.603	175.358	180.006	295.058	290.820	179.435	183.584	184.049	188.748	301.805	188.062	-8191	255	
14592.291	1	1	0	0	0.02864	0.20143	0.15597	0.15254	0.062917	0.28357	0.16471	0.39321	0.21051	0.079959	0.10728	0.101	0.13279	0.015459	0.078859	0.14151	-2.4208	-3.1708	-2.9938	-3.2021	-3.1292	-2.8896	-3.1771	-3.3292	-2.8063	-3.175	-3.1958	-2.9292	-3.2458	-3.0271	-3.0542	-3.2375	397.783	167.925	408.119	186.765	410.432	420.111	481.291	490.055	514.885	511.771	417.273	460.697	357.317	381.220	441.053	449.331	0.0004723	0.00048125	0.00013707	1366.3	5.4117e-06	4.7976e-06	1348.9	362.32	4.5358e-06	5.6044e-06	412.25	138.19	120.74	43.296	6.067e-06	53.168	0.0014137	0.0032215	0.00089684	1387	2.823e-05	3.5554e-05	1368.2	369.87	2.8602e-05	3.619e-05	420.9	142.12	124.32	44.629	3.0807e-05	54.884	223.126	259.639	274.462	175.374	310.575	290.464	175.201	179.903	308.281	290.719	179.662	183.609	183.955	188.602	310.909	187.960	-8191	255	
14592.387	1	1	0	0	0.10961	0.15697	0.32276	0.30378	0.099997	0.27828	0.35657	0.26159	0.27267	0.10524	0.36286	0.053157	0.29674	0.16743	0.13484	0.036408	-2.4833	-3.1646	-3.0917	-3.1729	-3.1229	-2.9958	-3.0875	-3.425	-2.9208	-2.9708	-3.0542	-2.975	-3.1208	-3.0396	-2.8417	-3.25	211.294	502.949	209.089	483.142	293.948	190.569	438.012	486.464	468.933	489.018	423.181	461.350	482.130	495.628	399.770	347.392	0.00046361	0.00049165	9.2456e-05	1366.7	4.1851e-06	4.8915e-06	1342.5	361.28	4.4851e-06	5.0031e-06	411.55	137.68	120.37	43.359	4.3586e-06	53.258	0.0014075	0.0031852	0.00087601	1387.8	2.8205e-05	3.5354e-05	1368.3	369.55	2.8327e-05	3.5533e-05	421.38	141.79	124.16	44.704	3.1193e-05	54.968	221.933	259.260	265.641	175.295	287.605	304.961	175.294	180.133	301.792	331.452	179.502	183.753	184.175	188.791	318.358	188.133	-8191	255	
14592.483	1	1	0	0	0.13917	0.11846	0.31831	0.091132	0.1474	0.12347	0.33226	0.24495	0.02477	0.15745	0.20221	0.35843	0.0515	0.059115	0.12034	0.10151	-2.1958	-2.9667	-3.0396	-3.0396	-3.0521	-2.9958	-3.1688	-3.3146	-3.0333	-3.1375	-3.2771	-3.0312	-3.1479	-3.0208	-2.7375	-3.1312	441.451	270.366	196.721	514.485	497.789	419.457	458.935	482.278	390.718	193.491	502.104	423.363	223.876	414.226	518.239	210.722	0.00048176	0.00048359	0.00016904	1367.7	3.8572e-06	3.2208e-06	1343.4	362.14	5.5728e-06	1.8869e-06	411.02	137.57	120.56	43.222	5.9728e-06	53.083	0.0013771	0.0031206	0.00087078	1388.8	2.84e-05	3.5999e-05	1367.9	369.64	2.8501e-05	3.5873e-05	420.6	141.73	124.25	44.6	3.0449e-05	54.822	226.153	227.525	263.243	175.307	305.395	329.930	175.194	179.977	311.978	290.024	179.553	183.671	184.117	188.695	297.800	187.939	-8191	255	
14592.578	1	1	0	0	0.25979	0.031966	0.20968	0.20923	0.18665	0.21894	0.37215	0.18895	0.04517	0.0875	0.22214	0.2078	0.071295	0.14255	0.10542	0.16381	-2.4813	-2.9062	-3.1813	-2.9646	-3.1646	-3.1521	-3.0062	-3.5229	-3.0104	-3.0292	-3.35	-2.9146	-3.1396	-3.1188	-2.9	-3.1375	399.157	381.984	214.546	476.942	202.108	516.324	469.286	458.441	228.583	211.091	492.175	504.482	501.356	465.801	512.191	370.972	0.00048197	0.00037495	0.00013617	1367.7	3.8895e-06	5.2021e-06	1349.2	362.01	4.3205e-06	5.4347e-06	411.04	137.52	121	43.142	3.0718e-06	52.951	0.0014031	0.0030907	0.00086575	1388.1	2.8135e-05	3.4894e-05	1369.7	369.08	2.7633e-05	3.5613e-05	420.19	141.68	124.27	44.597	3.0342e-05	54.787	222.433	234.344	226.221	175.538	308.228	312.131	175.316	180.107	295.669	330.795	179.656	183.549	184.094	188.676	314.474	188.204	-8191	255	
14592.674	1	1	0	0	0.31969	0.17352	0.27294	0.17913	0.15469	0.18681	0.2598	0.098182	0.086299	0.14593	0.024651	0.075857	0.1388	0.31566	0.23971	0.22591	-2.4083	-2.9646	-3.1167	-3.2375	-3.0229	-3.0458	-2.9021	-3.2188	-2.9833	-2.8333	-3.3375	-3.025	-3.0042	-3.2833	-2.9292	-3.1312	384.745	342.538	371.851	410.001	478.793	221.426	426.522	220.666	374.278	212.845	341.520	273.071	459.475	188.048	183.806	413.002	0.00048	0.00059643	8.5372e-05	1370.4	4.6203e-06	5.7521e-06	1353.2	361.47	3.714e-06	6.597e-06	412.63	138.23	120.75	43.313	2.4544e-06	53.287	0.0013578	0.0030984	0.00087002	1389.1	2.8233e-05	3.5561e-05	1369.5	369.42	2.7722e-05	3.5896e-05	420.95	141.75	124.24	44.653	3.084e-05	54.819	223.253	244.244	253.507	175.401	303.190	301.086	175.200	179.865	302.847	332.355	179.544	183.825	184.279	188.824	296.668	188.042	-8191	255	
14592.770	1	1	0	0	0.087069	0.14761	0.17866	0.38865	0.20452	0.36835	0.14406	0.41648	0.042162	0.13216	0.40944	0.22621	0.16125	0.23791	0.35752	0.27843	-2.5771	-2.8271	-3.2042	-3.1958	-2.8104	-3.2	-3.0521	-3.2562	-3.0062	-3.0417	-3.1833	-2.9938	-3.1583	-3.1417	-2.9354	-3.0208	295.735	513.724	287.062	513.898	478.036	510.813	505.116	493.641	357.754	276.158	482.868	499.999	491.913	449.561	291.160	497.132	0.00049077	0.00065199	0.00015911	1370.2	3.7876e-06	5.0065e-06	1349.6	362.11	4.4443e-06	5.0025e-06	409.81	137.44	120.51	43.134	5.2605e-06	53.239	0.0013821	0.0030738	0.00086779	1388.3	2.7627e-05	3.5136e-05	1370.4	369.39	2.7553e-05	3.4635e-05	420.59	141.62	124.27	44.614	3.0312e-05	54.868	224.286	246.461	254.800	175.400	324.007	333.161	175.349	179.768	310.044	317.036	179.801	183.554	184.294	188.754	303.023	188.099	-8191	255	
14592.891	1	1	0	0	0.23187	0.024959	0.057027	0.33222	0.24266	0.12591	0.41847	0.06426	0.24627	0.20653	0.086181	0.12437	0.21624	0.1284	0.31256	0.14564	-2.6583	-2.7833	-3.2625	-3.2812	-3.0187	-3.1729	-2.9625	-3.2958	-3.15	-2.8583	-3.075	-3.0938	-3.0833	-3.0792	-2.8375	-3.0021	519.236	379.533	262.655	515.698	494.531	318.176	451.860	239.769	241.865	474.901	169.327	399.427	463.390	463.084	197.320	440.516	0.00047381	0.00050781	0.00014145	1371.3	5.1124e-06	4.6148e-06	1345.1	361.97	5.9198e-06	3.16e-06	411.37	138.13	120.09	43.36	4.5245e-06	53.085	0.0013525	0.0030738	0.00085212	1389.5	2.7489e-05	3.4569e-05	1368.5	369.71	2.7072e-05	3.5502e-05	420.13	141.57	123.88	44.616	2.9617e-05	54.742	221.148	268.134	248.196	175.454	312.464	279.948	175.059	179.924	301.836	328.973	179.410	183.658	184.138	188.897	307.905	187.997	-8191	255	
14592.987	1	1	0	0	0.15935	0.13306	0.16066	0.463	0.19375	0.28697	0.14123	0.20681	0.086632	0.17169	0.13353	0.15646	0.39485	0.35932	0.075756	0.066938	-2.7667	-2.7083	-3.0521	-3.1063	-2.9167	-3.0625	-3.1646	-3.0729	-3.0021	-2.9188	-3.1167	-3.1229	-2.9771	-3.1708	-2.8229	-3.1063	285.727	300.964	457.007	165.370	286.752	469.658	511.098	492.653	459.867	405.618	176.077	470.006	437.757	485.947	258.656	445.895	0.00049473	0.00060968	0.00010945	1374.1	5.8961e-06	5.9184e-06	1346.3	363.09	4.1482e-06	4.5409e-06	411.66	137.47	120.46	43.46	3.4207e-06	53.249	0.0013502	0.0030214	0.00086218	1391.4	2.7605e-05	3.4197e-05	1370.6	370.09	2.6761e-05	3.4911e-05	420.99	141.85	124.2	44.738	2.9483e-05	54.868	224.237	260.828	248.798	175.391	299.456	306.470	175.231	180.112	281.688	307.309	179.480	183.466	184.024	188.874	333.734	187.954	-8191	255	
14593.059	1	1	0	0	0.27676	0.047095	0.18867	0.14448	0.12246	0.15621	0.36004	0.20309	0.11067	0.16731	0.045317	0.22729	0.20944	0.3043	0.1147	0.36447	-2.5646	-2.8208	-2.9521	-3.2687	-2.8417	-2.9542	-3.1458	-3.1312	-3.1479	-2.9729	-3.1479	-3.0583	-2.9729	-3.1312	-2.9354	-3.0708	279.504	267.987	462.618	462.242	188.313	298.504	489.903	450.782	243.518	515.305	215.437	493.693	164.015	517.712	278.552	485.905	0.00048018	0.00043345	0.00014525	1369.3	4.8476e-06	6.0835e-06	1347.9	363.15	3.0134e-06	4.8577e-06	412.29	137.43	120.4	43.351	3.9182e-06	53.163	0.0013472	0.0029997	0.00084243	1390.7	2.7736e-05	3.4595e-05	1369.9	370.18	2.705e-05	3.5054e-05	420.93	141.51	124.18	44.651	3.0401e-05	54.843	225.031	251.437	256.283	175.414	305.360	301.301	175.303	180.041	304.004	316.511	179.721	183.515	184.184	188.716	296.534	187.864	-8191	255	
14593.179	1	1	0	0	0.15232	0.094819	0.17916	0.33498	0.15131	0.051469	0.33384	0.11925	0.087266	0.26722	0.044709	0.354	0.30785	0.20215	0.265	0.37706	-2.6667	-2.7875	-2.9292	-3.2792	-2.9104	-3.0458	-3.1521	-3.0604	-3.2396	-2.8146	-3.0542	-3.3125	-2.975	-3.3125	-2.9688	-3.0208	487.695	208.658	492.850	495.274	486.188	508.129	480.226	470.213	358.543	165.767	520.253	462.474	498.543	469.745	467.775	410.071	0.00048442	0.00056609	0.00016662	1374.5	3.4897e-06	6.7366e-06	1347.7	362.13	4.3728e-06	3.883e-06	411.88	138.06	120.22	43.46	5.1627e-06	53.072	0.0013583	0.003014	0.00084518	1391.7	2.7054e-05	3.4102e-05	1369	369.44	2.6914e-05	3.4909e-05	420.47	141.73	124.09	44.634	2.9601e-05	54.868	223.165	241.394	244.878	175.290	289.457	312.733	175.282	180.020	294.976	290.248	179.562	183.853	184.036	188.718	282.637	188.073	-8191	255	
14593.275	1	1	0	0	0.27065	0.071372	0.10146	0.22799	0.12648	0.17608	0.32359	0.1699	0.15405	0.29266	0.11056	0.25805	0.30845	0.028489	0.25227	0.11393	-2.6708	-2.7021	-2.8896	-3.2292	-2.9917	-3.0833	-3.2292	-3.0354	-3.1042	-2.775	-3.0187	-3.1396	-2.7854	-3.1979	-3.1229	-3.0021	436.855	165.661	187.098	404.044	324.877	259.964	474.888	480.900	513.789	257.374	428.652	196.859	415.343	319.809	374.379	444.260	0.00050209	0.0005712	0.00014699	1366.6	2.9564e-06	5.6788e-06	1346.8	362.51	5.5754e-06	4.9261e-06	411.48	136.96	120.59	43.365	4.6115e-06	53.128	0.0013486	0.0030256	0.00084129	1388.8	2.6871e-05	3.3835e-05	1369.7	369.51	2.6822e-05	3.4756e-05	421.17	141.45	124.3	44.66	2.9413e-05	54.785	224.975	253.527	249.249	175.500	306.322	281.471	175.201	180.028	300.687	308.354	179.517	183.672	183.965	188.878	314.231	187.891	-8191	255	
14593.371	1	1	0	0	0.16281	0.10241	0.295	0.050513	0.063161	0.03806	0.33248	0.09414	0.20395	0.060798	0.24822	0.04976	0.25805	0.066972	0.18386	0.081953	-2.7417	-2.9208	-2.9729	-3.3167	-2.8667	-2.8417	-3.3542	-2.9083	-3.2417	-2.8896	-3.1188	-3.3063	-2.8958	-3.0958	-3.0125	-2.725	221.291	315.334	285.561	235.458	311.509	269.961	478.164	503.186	174.552	339.049	510.374	242.629	227.591	307.006	428.684	275.865	0.00051668	0.00032739	0.00012452	1375.3	4.3162e-06	3.164e-06	1347.1	362.06	4.7775e-06	4.5688e-06	413.87	137.25	120.34	43.477	4.7226e-06	53.255	0.001336	0.003045	0.0008448	1392.3	2.6719e-05	3.3141e-05	1371.6	370.29	2.651e-05	3.4793e-05	421.63	141.69	124.26	44.733	2.9543e-05	54.968	223.718	270.357	236.694	175.445	303.078	334.319	175.243	180.058	292.545	277.684	179.435	183.649	184.078	188.899	296.954	188.237	-8191	255	
14593.468	1	1	0	0	0.30781	0.25886	0.055813	0.077455	0.05222	0.089102	0.38733	0.024571	0.096639	0.070935	0.12886	0.25909	0.16473	0.054493	0.17698	0.035286	-2.5167	-3.0354	-2.6958	-3.3521	-2.7458	-2.9146	-3.1646	-2.9771	-3.2146	-2.95	-2.9375	-3.1583	-2.975	-3.1146	-3.1063	-2.8521	308.708	292.204	346.412	485.672	490.896	450.617	493.030	498.112	340.929	428.979	225.460	475.726	327.964	424.522	236.308	240.382	0.00049752	0.0002095	0.00013229	1369	4.3007e-06	5.9676e-06	1349.7	362.74	5.083e-06	4.8743e-06	411.65	138.06	121	43.423	4.767e-06	53.043	0.0013526	0.0029631	0.00082237	1391	2.6445e-05	3.3553e-05	1372.1	370.3	2.6266e-05	3.3752e-05	421.21	141.83	124.46	44.755	2.9409e-05	54.711	222.494	266.120	236.023	175.334	292.242	284.627	175.181	180.132	292.538	318.934	179.440	183.789	184.051	188.986	296.726	188.019	-8191	255	
14593.588	1	1	0	0	0.273	0.14417	0.15671	0.30922	0.03868	0.025636	0.14506	0.18355	0.30938	0.26801	0.17621	0.17082	0.35443	0.3069	0.25245	0.279	-2.5917	-3.0208	-2.8417	-3.2771	-2.9062	-2.9896	-3.5604	-3.0312	-3.0396	-3.0771	-3.0771	-3.2979	-3.0062	-2.9938	-3.0917	-2.7479	201.496	315.736	226.958	515.852	416.510	478.311	477.344	411.261	273.603	212.483	510.814	165.244	402.628	474.141	463.073	508.284	0.00049695	0.0004494	0.0001356	1369.7	5.639e-06	4.075e-06	1351	362.52	5.187e-06	4.7652e-06	411.6	137.54	120.64	43.168	3.5111e-06	52.984	0.0013525	0.0029792	0.00081971	1390.7	2.6619e-05	3.3829e-05	1371.4	369.94	2.6852e-05	3.383e-05	421.1	141.67	124.11	44.613	2.896e-05	54.705	223.133	225.354	261.745	175.334	316.867	285.527	175.103	179.993	294.005	293.169	179.500	183.509	184.229	188.498	304.947	187.975	-8191	255	
14593.660	1	1	0	0	0.2097	0.23634	0.054777	0.31625	0.20473	0.085229	0.13876	0.46524	0.14257	0.036173	0.072876	0.26929	0.1262	0.18048	0.20726	0.16573	-2.6396	-2.9813	-2.8667	-3.4437	-3.0208	-2.7938	-3.425	-3.0396	-3.2396	-3.175	-3.0625	-3.1958	-2.9833	-2.9083	-3.1979	-3.0229	291.478	468.865	482.932	166.076	519.090	246.958	467.128	208.129	270.037	342.725	163.735	504.957	385.569	177.931	419.590	429.442	0.00049664	0.00062961	0.00019559	1370.8	2.9114e-06	3.9582e-06	1347.9	361.95	3.6144e-06	2.7454e-06	412.43	137.62	120.06	43.307	5.2013e-06	52.989	0.0013557	0.003005	0.00082784	1389.7	2.6587e-05	3.4382e-05	1370.4	369.07	2.6774e-05	3.3911e-05	420.3	141.4	123.94	44.56	2.924e-05	54.773	226.155	254.557	263.443	175.506	315.239	313.461	175.179	180.003	298.589	303.932	179.356	183.722	184.045	188.665	291.193	188.101	-8191	255	
14593.779	1	1	0	0	0.43628	0.1123	0.43086	0.15885	0.22283	0.25736	0.24084	0.10365	0.074579	0.055483	0.034037	0.19413	0.39319	0.12107	0.10705	0.12045	-2.5104	-2.9854	-2.9146	-3.2979	-2.825	-3.0875	-3.3875	-3.1229	-2.9271	-3.1396	-3.0354	-3.1625	-3.1521	-2.8021	-3.1104	-3.0792	487.186	190.086	204.189	186.918	279.357	290.643	406.960	190.196	428.252	352.610	513.331	187.287	410.242	278.072	167.459	480.882	0.00048329	0.00048685	8.7525e-05	1368	3.7744e-06	3.7817e-06	1349.1	361.77	4.0366e-06	5.5667e-06	411.79	137.3	120.07	43.16	5.2485e-06	53.015	0.0013359	0.0029485	0.00082117	1390.7	2.6792e-05	3.3862e-05	1369.1	369.07	2.6856e-05	3.4118e-05	420.1	141.4	123.7	44.515	2.9051e-05	54.662	223.929	269.080	231.396	175.278	318.532	333.759	175.252	180.128	295.551	322.927	179.537	183.691	184.323	188.862	326.330	187.919	-8191	255	
14593.875	1	1	0	0	0.15638	0.1171	0.18022	0.035483	0.15514	0.12862	0.28038	0.24486	0.14386	0.030339	0.22289	0.17273	0.093535	0.10201	0.14543	0.1975	-2.6188	-3.1917	-2.7875	-3.4625	-3.1125	-2.875	-3.3625	-2.9833	-3.1125	-3.1604	-3.0917	-3.0771	-2.9979	-3.0417	-2.9833	-2.9625	276.303	205.250	210.308	480.233	434.741	190.715	466.317	448.029	511.973	202.269	467.725	451.630	481.875	389.300	342.432	510.851	0.00050929	0.00051908	0.00018295	1370.1	4.2378e-06	5.3422e-06	1347.1	361.59	5.6198e-06	7.6172e-06	411.5	137.6	120.75	43.244	4.0397e-06	52.968	0.0013495	0.0029645	0.00083819	1389.8	2.6972e-05	3.3993e-05	1368.4	369.24	2.7328e-05	3.3998e-05	420.17	141.28	124.01	44.51	2.9284e-05	54.759	225.080	254.949	245.982	175.285	310.699	316.185	175.097	180.050	303.057	311.393	179.632	183.678	184.056	188.631	314.406	188.012	-8191	255	
14593.971	1	1	0	0	0.36315	0.17859	0.1505	0.023009	0.12694	0.13916	0.15028	0.37432	0.094783	0.19715	0.16466	0.1845	0.14997	0.1168	0.29439	0.28373	-2.55	-3.2229	-2.8875	-3.0958	-3.0333	-2.9437	-3.1875	-3.1813	-2.9458	-3.2771	-3.1167	-3.3563	-3.0938	-2.8375	-3.2229	-3.1813	499.533	325.930	401.559	489.556	403.742	243.122	391.999	448.742	288.638	298.952	187.611	511.779	406.211	200.214	177.888	518.540	0.00051254	0.00045447	0.00012861	1372.7	3.4859e-06	2.9573e-06	1347.5	362.32	4.7311e-06	6.9614e-06	412.12	137.37	119.93	43.372	5.7498e-06	52.941	0.0013557	0.0030047	0.00084744	1392	2.7257e-05	3.4271e-05	1369.3	369.55	2.6916e-05	3.3358e-05	420.28	141.35	123.92	44.595	2.9251e-05	54.782	222.747	263.926	251.948	175.322	313.075	316.142	175.213	179.936	305.350	314.908	179.573	183.558	184.102	188.742	296.002	188.102	-8191	255	
14594.067	1	1	0	0	0.11884	0.090268	0.077855	0.32486	0.12886	0.07364	0.28822	0.10245	0.20832	0.23751	0.1715	0.35061	0.20064	0.19801	0.19836	0.12948	-2.5583	-3.0729	-2.9396	-3.225	-3.1833	-2.9354	-3.2687	-3.0187	-2.9083	-3.0958	-2.9458	-2.9354	-2.9896	-2.9083	-2.9188	-3.1188	276.903	313.891	413.726	467.660	209.904	276.502	460.114	510.334	168.090	428.556	181.432	474.704	483.163	505.390	205.762	454.829	0.00050102	0.00043949	0.00012974	1368	5.1422e-06	2.2248e-06	1348.2	362.08	5.9849e-06	3.1272e-06	411.34	137.91	119.81	43.157	4.6387e-06	53.199	0.0013647	0.0029958	0.00083878	1388.1	2.6961e-05	3.4347e-05	1368.8	369.13	2.7126e-05	3.3904e-05	420.13	141.51	123.65	44.519	2.9676e-05	54.74	222.748	295.391	264.831	175.443	288.981	293.861	175.274	179.978	281.637	317.683	179.442	183.615	184.184	188.939	320.571	188.115	-8191	255	
14594.188	1	1	0	0	0.084105	0.12803	0.083008	0.31022	0.13866	0.091722	0.05865	0.10168	0.15173	0.20284	0.12668	0.097924	0.22421	0.13616	0.21173	0.075936	-2.3375	-3.2354	-3.0708	-3.2646	-3.1896	-3.0104	-3.2062	-3.1854	-2.7875	-3.2354	-3.1771	-3.2	-3.2333	-2.9792	-3.0812	-3.2417	357.263	407.717	509.131	462.044	478.437	500.635	319.217	472.521	283.200	228.597	415.534	471.746	490.695	383.346	341.742	466.766	0.0004799	0.00044121	0.00010391	1367.5	4.4166e-06	3.279e-06	1345.5	361.77	4.9428e-06	7.8368e-06	412.02	136.73	120.34	43.234	4.4434e-06	52.893	0.0013517	0.00296	0.00084746	1387.1	2.6739e-05	3.4409e-05	1367.8	369.17	2.6808e-05	3.3634e-05	420.39	141.17	123.96	44.604	2.9844e-05	54.647	223.735	244.467	249.465	175.366	315.417	302.811	175.205	179.965	296.424	334.867	179.596	183.688	184.167	188.444	306.714	187.916	-8191	255	
14594.284	1	1	0	0	0.30349	0.29542	0.10276	0.17326	0.092402	0.083805	0.24103	0.27873	0.37518	0.044336	0.16411	0.22815	0.050804	0.30267	0.14844	0.27128	-2.375	-3.0625	-3.0417	-3.2646	-3.175	-3.0083	-3.1937	-3.1188	-2.85	-3.2167	-3.0875	-2.9042	-3.2542	-3.1104	-2.9229	-3.2396	379.609	309.942	180.090	177.401	410.221	258.037	482.148	409.380	508.514	433.724	191.584	410.662	397.405	181.372	309.192	484.471	0.00048775	0.00041037	0.00014679	1364.4	4.1018e-06	7.1569e-06	1345.1	361.28	3.4999e-06	6.0032e-06	411.91	137.18	120.31	43.39	4.8638e-06	53.094	0.0013325	0.0030133	0.00084039	1385.8	2.6637e-05	3.4144e-05	1367.3	368.81	2.7235e-05	3.4563e-05	420.16	141.27	123.86	44.609	2.9829e-05	54.712	222.313	282.897	259.359	175.341	273.837	308.434	175.342	180.068	276.582	328.943	179.366	183.745	184.057	188.793	300.520	188.127	-8191	255	
14594.356	1	1	0	0	0.087384	0.10966	0.18424	0.24253	0.10475	0.14786	0.40779	0.14453	0.34552	0.3984	0.23205	0.35096	0.089486	0.086123	0.10553	0.089236	-2.4208	-3.0771	-2.9	-3.0125	-3.2104	-3.0625	-3.2042	-3.3375	-2.7854	-3	-3.2458	-3.1354	-3.2313	-3.1	-2.9938	-3.3187	316.048	340.056	436.139	473.556	295.516	453.514	460.192	443.403	292.340	242.538	511.268	499.673	191.325	178.263	426.323	244.790	0.00049954	0.0003841	0.00019368	1368.7	3.4701e-06	6.0878e-06	1345	361.57	4.3704e-06	4.6089e-06	411.53	136.84	120.03	43.264	4.1738e-06	52.968	0.0013413	0.0030079	0.00084372	1388.1	2.692e-05	3.4686e-05	1366.4	368.86	2.6994e-05	3.4213e-05	419.71	141.4	123.86	44.547	3.0117e-05	54.621	224.300	260.332	252.002	175.575	294.706	317.109	175.239	180.108	285.432	309.255	179.544	183.830	184.020	188.837	293.871	188.098	-8191	255	
14594.452	1	1	0	0	0.16513	0.13911	0.098469	0.13615	0.18005	0.24387	0.21322	0.17433	0.097419	0.12592	0.091656	0.16528	0.24844	0.21415	0.062224	0.24358	-2.4458	-3.0625	-3.0438	-3.1021	-3.1437	-3.0021	-3.1937	-3.2229	-2.8063	-3.0083	-3.0771	-2.975	-3.2625	-3.1354	-2.875	-3.2208	446.902	420.795	313.617	516.072	494.571	357.137	166.019	498.903	337.410	514.724	520.021	362.746	464.352	251.111	174.101	423.608	0.00047637	0.00049315	9.2752e-05	1366	4.3288e-06	5.508e-06	1344.9	360.84	4.9487e-06	4.4174e-06	410.43	137.3	119.91	43.226	4.8067e-06	52.75	0.0013759	0.0030231	0.00085662	1385.3	2.6911e-05	3.5056e-05	1365.5	368.64	2.7143e-05	3.4253e-05	419.34	141.25	123.58	44.518	2.9569e-05	54.613	224.028	247.510	227.799	175.366	297.135	314.529	175.263	179.811	286.887	338.942	179.474	183.554	184.105	188.772	298.243	187.989	-8191	255	
14594.572	1	1	0	0	0.18076	0.22616	0.16665	0.090238	0.036225	0.19019	0.05748	0.30024	0.09967	0.22228	0.089895	0.28937	0.15046	0.19934	0.11954	0.18932	-2.4646	-2.9188	-2.9833	-3.1208	-3.1292	-3.1792	-3.1771	-3.2313	-2.7812	-3.1354	-3.2812	-2.8792	-3.1688	-3.4083	-2.9	-3.3604	208.454	374.163	477.817	448.726	243.546	194.411	207.962	486.664	238.480	320.942	476.551	458.007	496.832	461.655	391.499	418.719	0.00048905	0.00048094	0.00012931	1367.6	5.1375e-06	2.6267e-06	1347.1	360.73	4.3393e-06	5.7031e-06	411.04	137	119.76	43.159	4.3478e-06	53.016	0.0013599	0.0030505	0.00086039	1386.1	2.7084e-05	3.4846e-05	1366.7	369.07	2.7173e-05	3.5754e-05	420.03	141.23	123.7	44.549	3.0066e-05	54.71	223.924	237.545	241.278	175.401	303.286	308.420	175.313	180.037	306.250	301.313	179.699	183.752	184.065	188.727	290.131	188.151	-8191	255	
14594.667	1	1	0	0	0.01821	0.094143	0.13734	0.23785	0.10977	0.25047	0.28746	0.38309	0.12898	0.099626	0.37319	0.13632	0.3609	0.1369	0.038958	0.2464	-2.5417	-3.0167	-3.0417	-3.0104	-3.1083	-2.9833	-2.975	-3.2458	-2.8875	-2.9792	-3.3	-2.8583	-3.1271	-3.3063	-2.8958	-3.2667	384.784	357.784	268.409	451.968	346.134	348.073	503.683	450.800	326.542	462.468	470.603	447.517	470.897	167.391	222.158	433.849	0.00048069	0.00066554	0.00012036	1366.5	3.7706e-06	4.0642e-06	1339	360.51	4.9301e-06	3.6913e-06	411.25	136.96	119.88	43.221	4.2168e-06	52.976	0.0013666	0.0030837	0.00084088	1385.1	2.6878e-05	3.4981e-05	1363.8	368.56	2.7776e-05	3.5434e-05	419.05	141.11	123.73	44.503	3.0832e-05	54.661	221.187	238.794	272.310	175.449	306.588	313.316	175.282	180.174	299.694	329.863	179.657	183.473	184.168	188.625	332.152	188.119	-8191	255	
14594.763	1	1	0	0	0.17822	0.17228	0.37904	0.48823	0.050875	0.088884	0.34152	0.14523	0.18499	0.056312	0.13988	0.25156	0.20319	0.023264	0.27474	0.15699	-2.475	-2.8625	-3.0729	-3.0896	-2.8896	-3.0187	-3	-3.2229	-2.9562	-2.8833	-3.3333	-2.9313	-3.0042	-3.2938	-2.9042	-3.3208	405.772	334.526	203.706	493.917	228.671	464.053	404.240	167.698	399.138	416.613	461.812	519.609	276.894	480.956	242.320	215.991	0.0004906	0.00047344	0.00017572	1366.8	5.1912e-06	6.9437e-06	1343.6	360.76	3.2999e-06	4.36e-06	410.37	136.96	120.54	43.051	3.7233e-06	53.042	0.0013605	0.0030913	0.00086276	1386.5	2.8073e-05	3.5298e-05	1364.5	368.66	2.7358e-05	3.5091e-05	419.88	141.02	123.71	44.417	3.0617e-05	54.728	225.280	262.587	269.297	175.271	314.927	310.609	175.273	180.076	303.589	307.895	179.403	183.379	184.165	188.762	302.694	188.069	-8191	255	
14594.859	1	1	0	0	0.33897	0.03675	0.27982	0.41948	0.17447	0.09491	0.2182	0.21604	0.3151	0.16026	0.2059	0.12288	0.11389	0.21054	0.24738	0.29563	-2.5979	-2.9021	-3.2062	-3.0479	-2.9854	-3.2167	-3.1562	-3.2479	-3.0917	-2.8917	-3.3521	-2.8458	-3.0542	-3.1375	-2.7667	-3.2021	478.200	259.219	393.342	449.003	181.561	212.837	436.294	494.536	214.167	289.653	487.739	400.430	349.781	458.489	244.841	428.842	0.00049123	0.00046235	0.00016195	1362.5	4.8612e-06	3.224e-06	1342.7	362.14	5.142e-06	4.1314e-06	410.08	136.85	120.03	43.161	3.5007e-06	53.079	0.0013662	0.0031487	0.00085984	1383.5	2.7942e-05	3.561e-05	1363.4	368.97	2.779e-05	3.5294e-05	419.57	141.06	123.62	44.517	3.0772e-05	54.7	223.850	291.500	253.394	175.360	300.603	330.371	175.246	180.089	291.523	295.295	179.830	183.705	184.264	188.671	278.188	187.976	-8191	255	
14594.955	1	1	0	0	0.24988	0.072549	0.088047	0.14048	0.063003	0.11685	0.5152	0.10817	0.02194	0.24516	0.25471	0.25835	0.11982	0.1852	0.055053	0.1595	-2.5833	-2.7333	-3.0229	-3.2583	-2.9583	-3.1979	-3.0583	-3.3125	-3.0917	-2.8125	-3.375	-3.1146	-3.1146	-3.2812	-2.8812	-3.3479	406.732	344.473	356.018	453.789	414.255	247.275	459.909	188.358	338.374	246.069	441.618	432.151	460.153	372.134	413.291	222.369	0.00050368	0.00043413	0.00013425	1359.2	2.3922e-06	5.3218e-06	1335.9	360.65	3.8358e-06	3.1925e-06	409.94	137.03	120.49	43.186	3.1283e-06	52.977	0.0013986	0.0031026	0.00086847	1381.5	2.8311e-05	3.5969e-05	1362.2	368.42	2.7982e-05	3.5689e-05	418.8	140.95	123.81	44.439	3.1078e-05	54.691	223.870	262.362	281.347	175.458	316.781	359.773	175.264	180.039	289.774	295.299	179.591	183.722	184.238	188.685	299.608	188.026	-8191	255	
14595.051	1	1	0	0	0.14832	0.049087	0.093558	0.27484	0.11436	0.21486	0.23077	0.13427	0.11801	0.093464	0.26115	0.058804	0.12931	0.33296	0.1763	0.33663	-2.8333	-2.9292	-2.9562	-3.1688	-3.0958	-3.0521	-2.9896	-3.2	-3.1271	-2.8833	-3.3125	-3.2062	-2.8458	-3.1437	-2.9604	-3.175	259.842	179.265	506.063	497.068	170.627	385.220	505.824	475.583	207.260	462.506	505.695	363.526	508.110	474.835	181.471	426.439	0.00048148	0.00057662	0.00010345	1364	4.6147e-06	5.4969e-06	1341.1	362.05	3.9702e-06	5.3416e-06	410.35	136.88	120.38	43.185	4.5632e-06	53.132	0.0013894	0.0031176	0.00087885	1383.7	2.8319e-05	3.6112e-05	1362	369.09	2.8055e-05	3.6401e-05	419.64	141.02	123.74	44.477	3.1018e-05	54.762	222.543	258.827	258.502	175.407	303.092	309.617	175.196	180.169	310.062	311.702	179.546	183.568	184.302	188.920	329.632	188.133	-8191	255	
14595.148	1	1	0	0	0.16212	0.10936	0.18774	0.10141	0.15871	0.20513	0.16805	0.47523	0.044125	0.11113	0.20546	0.14512	0.11037	0.18664	0.072746	0.15273	-2.7458	-2.8688	-3.0271	-3.1917	-2.9208	-3.2375	-3.2812	-3.1229	-3.1562	-2.9437	-3.2604	-3.2354	-3.0375	-3.3604	-2.9917	-3.1042	413.387	272.913	162.776	499.195	396.603	192.868	421.287	454.047	362.574	517.002	171.563	465.399	266.116	165.030	421.167	448.537	0.00046962	0.00057243	0.00015132	1363.1	4.8978e-06	6.2868e-06	1338.8	360.27	3.6931e-06	4.2121e-06	411.74	136.93	120.37	43.181	5.458e-06	52.875	0.0013881	0.0031621	0.00087528	1384.1	2.8595e-05	3.6643e-05	1362.9	368.5	2.8108e-05	3.6073e-05	420.03	141.2	123.79	44.478	3.1478e-05	54.583	222.667	243.797	270.470	175.285	301.229	313.300	175.166	180.037	298.186	301.387	179.545	183.638	184.119	188.797	297.708	188.282	-8191	255	
14595.268	1	1	0	0	0.20972	0.27564	0.021236	0.31699	0.12318	0.25212	0.12224	0.23743	0.071476	0.22088	0.25867	0.33023	0.17293	0.12544	0.27236	0.27852	-2.8229	-2.9	-3.3146	-3.3563	-2.7729	-3.0771	-3	-3.1437	-3.1646	-2.6896	-3.025	-3.075	-2.8563	-3.1063	-2.9417	-2.9125	419.543	283.204	323.176	485.961	229.475	307.196	442.215	452.519	412.580	238.316	471.049	168.567	501.213	216.429	174.779	453.724	0.00050198	0.00052437	0.0001369	1359.1	4.6683e-06	2.9754e-06	1340.1	360.48	3.3885e-06	2.4165e-06	410.06	136.86	120.16	43.036	4.9713e-06	52.797	0.001404	0.0031903	0.00089807	1382.2	2.8644e-05	3.6065e-05	1362.2	368.42	2.8182e-05	3.5905e-05	419.08	141.04	123.53	44.412	3.1693e-05	54.613	226.053	261.272	239.483	175.340	302.524	325.021	175.194	179.901	312.620	268.808	179.501	183.743	184.249	188.943	306.150	188.151	-8191	255	
14595.364	1	1	0	0	0.1332	0.060443	0.070683	0.065972	0.12218	0.22882	0.21705	0.18405	0.088996	0.16616	0.12097	0.092958	0.18571	0.29147	0.26797	0.24025	-2.8729	-2.7271	-2.9042	-3.0979	-2.9271	-3.1396	-3.0312	-2.8333	-3.0479	-2.9625	-3.1229	-3.1562	-2.9229	-3.1729	-3.0938	-2.9333	251.982	223.889	168.186	459.471	368.754	495.948	456.913	439.105	310.772	257.295	310.513	216.720	196.997	471.819	399.265	410.576	0.0004996	0.00058271	9.1007e-05	1360.2	3.7849e-06	7.1286e-06	1342.4	360.93	4.9945e-06	8.924e-06	412.62	137.3	119.74	43.099	3.5434e-06	52.778	0.0014073	0.0032595	0.00089944	1381.7	2.8469e-05	3.6425e-05	1363.8	369.02	2.8094e-05	3.6729e-05	420.6	141.02	123.64	44.446	3.1422e-05	54.612	221.603	283.026	269.444	175.322	318.239	319.933	175.104	179.823	290.674	324.656	179.239	183.565	184.176	188.890	325.879	188.223	-8191	255	
14595.461	1	1	0	0	0.25602	0.20843	0.105	0.13527	0.13866	0.11741	0.28346	0.42922	0.223	0.2674	0.23103	0.19692	0.3129	0.27669	0.060967	0.31826	-2.7896	-2.7542	-2.8604	-3.2292	-2.7687	-2.9646	-3.2729	-3.0708	-3.1458	-2.9833	-3.1458	-3.2146	-2.8375	-3.0979	-3.1875	-2.8812	191.885	335.988	267.351	512.317	256.355	351.753	444.330	509.087	366.671	164.276	459.434	406.920	482.388	489.742	286.662	384.408	0.00046582	0.00062016	0.00014123	1360.4	5.2255e-06	4.8289e-06	1339	361.26	5.5259e-06	4.1898e-06	410.89	136.89	119.34	43.161	6.0035e-06	53.049	0.0014131	0.0032059	0.00089072	1381.5	2.8509e-05	3.6517e-05	1362.1	368.31	2.862e-05	3.6545e-05	419.43	140.89	123.43	44.443	3.1546e-05	54.579	223.305	256.735	243.215	175.439	293.991	328.379	175.265	180.108	290.710	352.190	179.472	183.723	184.219	188.987	277.287	188.018	-8191	255	
14595.581	1	1	0	0	0.14236	0.22913	0.22712	0.40295	0.15014	0.14089	0.39038	0.44939	0.2433	0.13769	0.10961	0.21926	0.23588	0.26143	0.15513	0.1333	-2.6708	-2.9229	-2.875	-3.3667	-3.0375	-3.1104	-3.2958	-2.9896	-3.0125	-3.2521	-3.0438	-3.2229	-2.8792	-3.0354	-3.075	-3.0062	172.138	426.419	270.909	496.259	248.103	317.103	462.250	478.329	514.620	335.898	491.862	461.241	316.520	441.675	185.994	219.895	0.00050184	0.00018488	0.00013533	1360.2	4.4342e-06	3.2263e-06	1341.2	360.6	4.2747e-06	2.632e-06	410.96	136.76	119.63	43.146	6.7172e-06	52.773	0.0014078	0.0032692	0.0008744	1382	2.8676e-05	3.6047e-05	1361.9	368.27	2.8784e-05	3.6059e-05	419.35	140.99	123.37	44.417	3.1223e-05	54.54	222.199	260.428	266.339	175.331	289.653	308.460	175.205	180.124	304.046	323.680	179.432	183.685	184.129	188.724	273.604	188.009	-8191	255	
14595.653	1	1	0	0	0.13067	0.079774	0.22715	0.15293	0.19469	0.1877	0.32515	0.20076	0.10408	0.13746	0.20106	0.18528	0.31091	0.20451	0.062018	0.13384	-2.6583	-3.0458	-2.9333	-3.4104	-2.9604	-3.1771	-3.2375	-3.1063	-3	-3.3333	-3.0333	-3.3	-3.0208	-3.2229	-3.2646	-2.9708	315.960	469.027	310.375	177.881	379.086	423.502	434.671	430.644	465.655	162.432	438.587	186.297	498.589	483.722	460.827	389.663	0.00049757	0.00061619	0.00010751	1358.4	3.6743e-06	5.8698e-06	1336.2	359.61	4.4103e-06	5.796e-06	410.03	136.67	120.05	42.9	3.1076e-06	52.661	0.001392	0.0031402	0.00088332	1379.6	2.8692e-05	3.6106e-05	1359.8	367.88	2.8104e-05	3.5866e-05	419.04	140.85	123.45	44.299	3.0345e-05	54.568	222.478	281.985	285.574	175.348	310.552	317.528	175.288	180.063	301.863	337.711	179.629	183.648	184.209	188.750	320.016	188.162	-8191	255	
14595.749	1	1	0	0	0.26911	0.14234	0.11531	0.27303	0.23998	0.1219	0.18261	0.17612	0.16455	0.27004	0.19359	0.08791	0.1771	0.31303	0.1021	0.06575	-2.8438	-3.1208	-3.0812	-3.3708	-2.9667	-2.9604	-3.2958	-3.0229	-2.9813	-3.0833	-2.8167	-2.9771	-2.9813	-2.9979	-3.2021	-2.9625	253.193	511.281	265.584	162.885	518.253	352.648	486.488	463.530	509.671	239.484	423.665	217.745	251.263	448.384	401.072	466.024	0.00046547	0.00057182	0.00015441	1363	3.1482e-06	1.8641e-06	1340.5	361.4	6.3484e-06	6.7615e-06	410.39	136.91	119.56	43.032	4.2011e-06	52.864	0.0013882	0.0031128	0.00086001	1382.4	2.7699e-05	3.6448e-05	1362.4	368.59	2.7884e-05	3.5708e-05	419.14	140.91	123.52	44.404	3.0368e-05	54.589	224.600	239.576	254.156	175.413	305.748	287.785	175.282	180.099	296.087	329.650	179.599	183.729	184.199	188.858	316.207	188.172	-8191	255	
14595.868	1	1	0	0	0.19591	0.25653	0.20297	0.34276	0.13072	0.10046	0.42279	0.17214	0.038244	0.16718	0.18585	0.23219	0.13641	0.11211	0.12415	0.25402	-2.5354	-3.1896	-2.7208	-3.3667	-2.9896	-2.9188	-3.3146	-3.0646	-3.1312	-3.1208	-3.1667	-3.3438	-3.2208	-2.9833	-3.2104	-3.0271	228.433	331.540	183.695	473.322	177.922	381.434	476.230	407.923	431.141	514.772	517.616	429.047	278.202	213.886	393.653	414.885	0.00050453	0.0006023	9.1266e-05	1358.3	5.9511e-06	7.3924e-06	1340.4	360.19	3.7332e-06	5.425e-06	410.64	137.05	119.97	43.163	3.4631e-06	52.839	0.0013927	0.0031083	0.00086642	1380.5	2.8014e-05	3.5686e-05	1361.7	368.25	2.7593e-05	3.5058e-05	419.34	141.03	123.79	44.428	3.1066e-05	54.568	222.889	265.172	233.972	175.237	322.952	306.571	175.160	180.184	303.603	309.414	179.540	183.854	184.313	188.753	312.733	188.055	-8191	255	
14595.964	1	1	0	0	0.015261	0.14573	0.29236	0.16507	0.20038	0.18932	0.29051	0.23083	0.11273	0.3335	0.072397	0.092005	0.32974	0.23237	0.037817	0.36635	-2.4771	-3.1583	-2.85	-3.3021	-3.1312	-2.9021	-3.2875	-3.0333	-2.825	-3.1188	-3.05	-3.1688	-3.2354	-3	-3.2083	-3.1021	164.188	265.972	328.837	461.266	293.220	204.061	426.108	451.733	328.048	204.276	174.784	447.428	181.182	511.149	350.237	447.225	0.00050961	0.00054933	0.00016817	1355	2.7761e-06	4.4059e-06	1333.9	360.95	4.3022e-06	5.1664e-06	410.15	137.44	119.6	43.17	5.2853e-06	52.904	0.001388	0.0031446	0.00088973	1377.6	2.8351e-05	3.5685e-05	1355.8	368.64	2.8316e-05	3.6412e-05	419.19	140.97	123.41	44.494	3.1402e-05	54.634	224.594	244.741	281.064	175.190	303.502	281.574	175.162	180.035	293.700	289.229	179.572	183.519	184.020	188.856	308.680	188.094	-8191	255	
14596.060	1	1	0	0	0.08852	0.094243	0.098497	0.25376	0.11709	0.22524	0.23122	0.41888	0.20926	0.15408	0.092498	0.34763	0.1564	0.16975	0.021524	0.37165	-2.5125	-3.0917	-2.8979	-3.4062	-3.1917	-2.8896	-3.3292	-3.0438	-2.8854	-3.2417	-3.0646	-3.1375	-3.0354	-3.1417	-3.1896	-3.025	188.859	350.195	368.031	448.429	361.828	272.935	471.461	479.945	314.361	248.102	404.118	433.803	390.753	426.646	249.167	235.453	0.00052422	0.0004661	0.00010812	1338.5	5.4162e-06	6.9316e-06	1316.2	362.55	5.4189e-06	1.3598e-06	413.17	137.64	120.96	43.592	2.4465e-06	53.497	0.0014233	0.0031565	0.00089084	1357.9	2.8778e-05	3.7445e-05	1337.5	369.56	2.8766e-05	3.6656e-05	421.95	141.89	124.71	44.994	3.1378e-05	55.227	224.001	256.791	232.195	175.401	309.535	294.251	175.277	180.106	310.363	314.119	179.537	183.602	184.400	188.628	272.310	188.200	-8191	255	
14596.156	1	1	0	0	0.26305	0.18545	0.10707	0.25787	0.015972	0.0065613	0.27422	0.23024	0.15167	0.14332	0.16644	0.11255	0.20273	0.28457	0.23464	0.060486	-2.4292	-3.2458	-2.8875	-3.2083	-3.2188	-2.8792	-3.3479	-3.1813	-2.8979	-3.2458	-3.1125	-3.1333	-3.0979	-2.9375	-3.0646	-3.1979	451.474	207.001	175.732	475.526	308.260	301.280	501.748	494.041	221.715	286.824	281.504	428.432	411.711	512.146	330.313	408.203	0.00048563	0.0004673	0.00015402	1342.3	5.6646e-06	3.6193e-06	1325.5	364.62	5.0002e-06	4.9502e-06	413.08	138.13	121.15	43.665	3.4864e-06	53.607	0.0014027	0.003086	0.00086463	1362.2	2.7362e-05	3.426e-05	1344.8	371.91	2.7336e-05	3.4427e-05	423.1	142.26	124.85	45.039	2.9008e-05	55.238	223.893	231.626	273.076	175.474	302.616	307.482	175.244	180.123	294.612	322.752	179.355	183.779	184.074	188.670	310.792	188.012	-8191	255	
14596.252	1	1	0	0	0.11735	0.21323	0.25254	0.15816	0.027215	0.18957	0.16685	0.2351	0.16278	0.02182	0.34203	0.20626	0.3407	0.33016	0.1638	0.18795	-2.4271	-2.9854	-3.0396	-3.15	-3.0354	-2.9604	-3.2625	-3.0687	-3.1021	-3.0542	-3.0979	-2.9917	-3.1792	-2.8875	-3.1104	-3.3417	405.293	378.440	273.277	204.452	382.835	229.849	407.706	483.018	225.293	396.238	507.813	434.173	461.717	190.868	328.849	162.495	0.0004828	0.00040268	0.00012269	1340.8	4.4596e-06	7.1945e-06	1322	364.39	3.3277e-06	5.446e-06	415.11	138.52	121.76	43.705	2.8443e-06	53.384	0.0013341	0.0028967	0.00080742	1361.3	2.583e-05	3.2434e-05	1342.8	371.55	2.4925e-05	3.2163e-05	422.98	142.12	124.89	44.939	2.7459e-05	55.07	224.091	261.881	270.075	175.561	308.079	309.681	175.264	179.991	287.537	319.527	179.466	183.808	184.096	188.937	313.639	188.010	-8191	255	
14596.349	1	1	0	0	0.15356	0.056091	0.039182	0.2356	0.15213	0.10358	0.13547	0.19405	0.20961	0.16449	0.27612	0.050102	0.16677	0.1786	0.11763	0.094582	-2.3104	-3.0792	-2.9208	-2.9979	-3.175	-2.8958	-3.0812	-3.0812	-2.6979	-3.1437	-3.0062	-2.8583	-3.0042	-2.8917	-3.0938	-3.3521	501.728	409.375	413.430	453.845	265.877	172.413	419.554	432.968	180.996	279.246	438.866	472.529	519.499	172.517	200.544	242.743	0.000515	0.00034338	0.00012638	1340	4.5834e-06	8.3518e-06	1320.4	363.86	4.6513e-06	3.9091e-06	414.24	138.38	120.92	43.579	5.0139e-06	53.327	0.0012643	0.0027783	0.00077177	1359.6	2.4329e-05	3.093e-05	1342.6	371.22	2.4316e-05	3.1464e-05	422.66	141.95	124.53	44.882	2.6037e-05	55.035	222.673	251.607	266.995	175.378	285.587	305.104	175.304	180.133	293.527	320.227	179.301	183.751	184.307	188.798	328.346	187.881	-8191	255	
14596.445	1	1	0	0	0.088114	0.15653	0.16894	0.36408	0.10951	0.27038	0.27103	0.16387	0.05825	0.1894	0.049285	0.085498	0.16406	0.2457	0.21925	0.27047	-2.2167	-3.1562	-2.8458	-3.1354	-3	-2.8625	-3.2917	-3.2521	-3.0208	-3.1	-3.2417	-3.0354	-3.35	-2.9313	-2.9271	-3.3229	444.373	515.803	287.704	486.766	275.652	227.766	448.695	393.644	369.797	303.412	349.584	482.669	349.731	497.177	355.942	434.354	0.00049105	0.00048595	0.00014174	1351.4	6.7908e-06	5.4331e-06	1331.4	363.65	6.2235e-06	4.2478e-06	413.31	138.58	120.92	43.651	3.8917e-06	53.449	0.0012302	0.0027132	0.00073939	1367.3	2.3685e-05	2.9672e-05	1351.2	371.5	2.3589e-05	2.952e-05	423.16	142.27	124.84	44.998	2.5437e-05	55.008	222.714	241.197	258.034	175.394	296.541	307.407	175.218	179.918	314.714	313.398	179.424	183.466	184.092	188.737	294.382	188.194	-8191	255	
14596.541	1	1	0	0	0.2694	0.020487	0.074574	0.24246	0.33981	0.13642	0.24505	0.11171	0.21304	0.065969	0.11739	0.30089	0.017017	0.070697	0.16983	0.2327	-2.3292	-3.0104	-2.9958	-2.9958	-3.0625	-3.0708	-3.0104	-3.4125	-2.975	-3.125	-3.2625	-2.9	-3.2333	-3.1021	-2.8542	-3.2521	314.851	478.956	321.571	416.298	215.477	170.889	475.910	467.135	465.698	387.307	230.995	479.071	328.966	219.501	284.924	493.652	0.00049206	0.0005417	0.00011498	1356	5.0027e-06	4.5426e-06	1336.9	365.04	3.9795e-06	4.3962e-06	413.25	138.29	120.62	43.578	6.4545e-06	53.284	0.0012032	0.0025638	0.00070923	1375.3	2.3384e-05	2.9854e-05	1358.9	371.86	2.345e-05	2.9384e-05	422.28	142.08	124.43	44.888	2.537e-05	54.98	223.594	234.318	266.239	175.406	311.507	318.964	175.053	180.147	318.350	283.387	179.622	183.525	184.009	188.860	299.951	187.997	-8191	255	
14596.660	1	1	0	0	0.24134	0.16455	0.072949	0.32425	0.16417	0.29873	0.27632	0.42698	0.27627	0.10093	0.094511	0.18668	0.12422	0.21243	0.16257	0.21344	-2.3896	-3.1083	-3.0958	-2.8625	-2.9854	-3.0375	-3.1479	-3.4896	-3.0062	-2.8292	-3.2062	-2.9875	-3.2042	-3.1	-2.8521	-3.2958	343.541	328.817	483.017	426.163	400.446	401.294	452.380	456.806	247.734	474.446	423.867	311.021	517.082	410.052	262.012	419.777	0.00050933	0.00055033	0.0001568	1364	4.3123e-06	5.621e-06	1340.7	363.95	4.3618e-06	3.6581e-06	415.09	138.4	121.36	43.558	4.4929e-06	53.167	0.0012097	0.0025779	0.00071365	1379.9	2.2924e-05	2.915e-05	1359.8	371.58	2.3114e-05	2.9436e-05	422.67	142.11	124.73	44.837	2.4842e-05	54.993	223.130	262.665	244.282	175.419	302.285	332.206	175.135	179.930	284.232	328.634	179.472	183.729	184.189	188.611	304.165	188.339	-8191	255	
14596.756	1	1	0	0	0.066062	0.1481	0.09062	0.10719	0.3125	0.2152	0.32049	0.44754	0.18585	0.034553	0.20396	0.12053	0.30942	0.074684	0.22504	0.33573	-2.5042	-2.9229	-3.2833	-3.0458	-3.1708	-3.0375	-2.9313	-3.2792	-2.9583	-3.0521	-3.2687	-2.9813	-3.0625	-3.0125	-2.7854	-3.3417	416.575	172.022	246.574	452.919	521.585	450.384	420.075	485.796	387.526	293.748	408.670	385.014	507.973	171.752	205.459	494.805	0.00050718	0.00052861	0.00014318	1365.7	3.9964e-06	5.4168e-06	1342.4	364.14	4.5099e-06	1.9274e-06	413.48	138.03	121.38	43.73	4.4802e-06	53.255	0.0011937	0.002484	0.00070874	1385.5	2.331e-05	2.8537e-05	1365.7	371.52	2.3059e-05	2.9212e-05	423.05	142.18	124.73	44.989	2.5858e-05	55.103	224.896	267.287	276.990	175.212	303.872	318.159	175.253	179.898	307.043	285.527	179.592	183.595	184.025	188.954	301.146	188.202	-8191	255	
14596.829	1	1	0	0	0.13531	0.40021	0.17987	0.34468	0.2853	0.20597	0.13655	0.11611	0.36506	0.21888	0.11413	0.2776	0.31064	0.27859	0.16529	0.29171	-2.6521	-2.8542	-3.1375	-3.1417	-2.975	-3.0479	-3.1562	-3.3854	-2.9146	-3.025	-3.2979	-2.9521	-3.1396	-3.0083	-2.9292	-3.2062	419.252	171.534	339.650	469.958	518.594	500.415	467.022	469.237	450.899	182.762	468.699	447.962	519.325	515.464	290.239	444.556	0.00050148	0.00040467	0.00017381	1369.7	5.5884e-06	4.8496e-06	1348.2	365.83	3.9635e-06	3.8046e-06	415	138.77	120.85	43.666	4.2015e-06	53.168	0.0012158	0.0026704	0.00072573	1390.2	2.3632e-05	2.8955e-05	1369.7	372.46	2.3497e-05	3.0193e-05	423.34	142.49	124.69	44.937	2.6221e-05	54.973	225.855	244.600	248.058	175.378	308.985	305.522	175.226	179.923	298.415	301.683	179.476	183.589	183.970	188.847	284.367	188.141	-8191	255	
14596.948	1	1	0	0	0.16698	0.03968	0.099385	0.22087	0.17699	0.15615	0.20608	0.3166	0.035827	0.082143	0.56654	0.076251	0.15834	0.18261	0.062127	0.14772	-2.3771	-2.6937	-3.1708	-3.0938	-2.8563	-3.1042	-2.9396	-3.1833	-3.1208	-2.9688	-3.1542	-2.9604	-3.0125	-3.2875	-2.8333	-3.0833	382.062	510.070	185.799	177.227	285.072	395.175	497.151	430.396	454.847	469.815	462.855	488.108	415.340	460.919	290.546	455.983	0.00050835	0.00046682	0.0001263	1366.3	4.0093e-06	4.0312e-06	1338.9	364.39	3.9838e-06	4.5884e-06	413.51	137.94	121.24	43.454	3.6931e-06	53.396	0.001233	0.0026048	0.00073547	1384.5	2.4293e-05	3.0282e-05	1362.9	371.31	2.3843e-05	3.0784e-05	421.92	142.03	124.7	44.845	2.6334e-05	55.045	224.141	271.283	260.669	175.250	293.619	327.400	175.206	179.956	302.085	327.260	179.570	183.522	183.773	188.725	293.229	187.901	-8191	255	
14597.044	1	1	0	0	0.1736	0.17303	0.23106	0.14667	0.21183	0.12131	0.41451	0.077873	0.21668	0.14498	0.16581	0.086534	0.087845	0.24313	0.082702	0.14459	-2.5771	-2.9688	-3.0687	-3.0312	-3.1167	-3.3792	-3.0667	-3.2396	-3.0062	-2.8937	-3.3354	-3.0854	-2.9333	-3.1292	-2.9437	-3.1688	472.723	295.136	416.749	163.756	429.277	471.206	405.522	452.354	303.419	223.411	470.394	344.824	365.880	383.271	349.405	437.111	0.00048526	0.00048503	0.00017659	1364.8	4.718e-06	4.536e-06	1339.3	364.22	4.4764e-06	7.1066e-06	413.22	138.02	121.16	43.436	4.7448e-06	53.183	0.0012539	0.002739	0.00077001	1384.6	2.4672e-05	3.1242e-05	1363.1	371.38	2.4847e-05	3.1774e-05	422.09	142.03	124.72	44.787	2.7553e-05	54.969	222.284	231.963	229.088	175.373	293.602	264.271	175.320	180.015	295.761	331.011	179.355	183.565	184.226	188.539	296.381	187.980	-8191	255	
14597.141	1	1	0	0	0.28239	0.12382	0.13338	0.23221	0.1278	0.015632	0.050913	0.071984	0.10807	0.19533	0.28698	0.19563	0.34066	0.2493	0.15169	0.36934	-2.6771	-2.8042	-3.1562	-3.4354	-3.0812	-3.2083	-3.1375	-3.2958	-3.1667	-2.9562	-3.2833	-3.1854	-2.8854	-3.1021	-2.8646	-3.1312	232.174	200.564	459.346	496.868	510.923	186.400	449.095	265.209	221.397	236.603	430.165	509.641	357.410	508.788	253.915	345.020	0.0004884	0.00059843	0.00012662	1363.5	5.6163e-06	7.1235e-06	1339.5	363.37	4.8559e-06	1.5435e-06	413.89	137.41	120.68	43.616	4.1933e-06	53.259	0.0012581	0.002811	0.00076448	1382.4	2.4921e-05	3.2611e-05	1362.6	370.85	2.5294e-05	3.278e-05	421.88	141.72	124.46	44.799	2.8169e-05	54.893	226.582	258.224	254.132	175.300	303.957	328.678	175.212	180.064	306.305	326.095	179.654	183.694	184.240	188.614	283.599	188.032	-8191	255	
14597.261	1	1	0	0	0.13723	0.2204	0.20957	0.28921	0.047826	0.2333	0.23748	0.41752	0.2713	0.14625	0.094085	0.28592	0.1554	0.20424	0.066642	0.082375	-2.8375	-2.7792	-3.0542	-3.2479	-2.7729	-3.1833	-3.0729	-3.0167	-3.1083	-2.9562	-3.1813	-3.2417	-2.875	-3.1562	-2.9708	-3.1396	515.326	344.013	240.409	195.580	506.484	308.933	442.297	433.433	223.813	240.926	430.458	518.766	406.659	485.478	453.582	405.368	0.0004849	0.00058233	0.0001342	1361.5	3.8176e-06	4.9254e-06	1340.2	363.34	4.5765e-06	6.0969e-06	412.68	137.6	120.65	43.3	4.0587e-06	52.993	0.0013179	0.0029792	0.00082807	1381.3	2.6776e-05	3.3804e-05	1361.9	370.72	2.6543e-05	3.4646e-05	421.8	141.82	124.36	44.706	2.9573e-05	54.882	221.793	253.431	261.338	175.398	305.209	302.442	175.207	180.063	308.123	314.863	179.612	183.671	184.294	188.911	287.308	187.981	-8191	255	
14597.357	1	1	0	0	0.22484	0.02685	0.14603	0.23441	0.20494	0.22014	0.13521	0.267	0.12298	0.027197	0.15273	0.046591	0.11439	0.18521	0.13991	0.25488	-2.8604	-2.7438	-2.8208	-3.1833	-2.9604	-3.15	-3.2958	-3.0479	-3.1833	-2.8896	-3.1479	-3.1729	-2.8021	-3.2042	-3.0625	-2.9	426.572	490.152	442.358	470.913	382.758	455.582	445.993	489.860	271.239	455.744	461.308	315.902	480.701	173.786	440.359	413.112	0.0005153	0.00051073	0.00014597	1358	5.0474e-06	1.5619e-06	1336.8	363.09	4.8518e-06	5.1767e-06	412.5	137.89	120.56	43.489	4.4452e-06	53.068	0.0013716	0.0031199	0.00087013	1379.6	2.7839e-05	3.5851e-05	1361.4	370.68	2.8189e-05	3.6184e-05	422.04	141.8	124.4	44.761	3.1323e-05	54.964	223.138	234.136	235.666	175.419	286.298	309.392	175.259	180.197	285.359	292.306	179.435	183.375	184.271	188.818	309.994	188.039	-8191	255	
14597.452	1	1	0	0	0.085966	0.11425	0.29561	0.20993	0.16451	0.14961	0.22536	0.12466	0.06555	0.059843	0.14127	0.29286	0.20273	0.15402	0.20246	0.24004	-2.7125	-2.8187	-2.9813	-3.3771	-2.9896	-3.0187	-3.1521	-2.7854	-3.0812	-3.0354	-2.9854	-3.4354	-3.0354	-3.1271	-3.1708	-3.0042	319.373	316.612	517.956	449.215	223.177	273.969	186.416	450.887	509.643	445.935	427.234	467.125	231.374	197.990	334.010	384.542	0.0004707	0.00031648	0.00011599	1360	4.3882e-06	3.8938e-06	1344	362.43	4.5519e-06	5.5798e-06	411.48	137.59	120.14	43.335	5.6177e-06	53.079	0.0014155	0.0032027	0.00090055	1381.3	2.86e-05	3.6376e-05	1363.6	370.18	2.9012e-05	3.7293e-05	420.62	141.67	123.83	44.628	3.2291e-05	54.749	222.912	280.925	238.264	175.394	287.387	321.372	175.324	180.101	303.545	295.203	179.566	183.589	184.241	188.688	296.498	188.106	-8191	255	
14597.548	1	1	0	0	0.14898	0.1266	0.14701	0.34248	0.19464	0.15157	0.08179	0.24753	0.058386	0.30723	0.16679	0.32376	0.0919	0.3755	0.11331	0.17764	-2.7104	-2.8937	-2.9938	-3.325	-2.8604	-3.0146	-3.2854	-2.8708	-3.2	-2.8771	-2.9729	-3.2229	-2.9875	-3.1	-3	-3.0187	468.567	198.260	200.538	460.696	280.126	301.939	437.539	435.280	313.668	490.363	404.780	195.370	348.222	514.753	181.336	177.751	0.00046238	0.00057512	0.00010825	1356.6	3.8734e-06	4.337e-06	1334.2	360.54	3.9305e-06	5.3125e-06	410.02	137.05	120.46	43.182	3.3966e-06	52.757	0.0014527	0.0033346	0.00094589	1377	2.9834e-05	3.7862e-05	1355.9	368.55	3.004e-05	3.8604e-05	418.44	140.89	123.47	44.419	3.3622e-05	54.553	224.313	250.323	256.398	175.487	285.405	283.793	175.290	180.107	303.839	313.981	179.513	183.528	183.970	188.743	331.670	187.986	-8191	255	
14597.644	1	1	0	0	0.19353	0.07302	0.17258	0.41198	0.076522	0.061286	0.30146	0.15093	0.13285	0.011954	0.12465	0.1671	0.093519	0.13883	0.17001	0.31779	-2.7958	-3.1104	-2.8708	-3.2375	-2.8896	-3.0667	-3.4437	-3.1896	-3.1333	-3.025	-3.0979	-3.2438	-2.9583	-3.1542	-3.1813	-3.0458	509.300	183.273	212.522	480.031	438.038	381.781	475.151	471.519	232.169	316.170	490.616	482.046	379.858	181.096	364.303	162.095	0.00051636	0.0005071	0.00015727	1357.8	5.042e-06	4.763e-06	1332.5	361.33	5.0845e-06	6.6947e-06	410.52	136.66	119.6	43.07	4.918e-06	52.958	0.001504	0.0034554	0.00095744	1376.3	3.0896e-05	3.9838e-05	1355.4	368.64	3.0983e-05	3.9777e-05	419.43	140.85	123.41	44.383	3.3543e-05	54.523	221.981	269.353	233.775	175.325	274.469	310.707	175.241	179.922	321.923	294.844	179.521	183.752	183.849	188.638	303.504	188.087	-8191	255	
14597.740	1	1	0	0	0.10587	0.24891	0.10548	0.19978	0.06852	0.13127	0.35029	0.18914	0.20188	0.17497	0.10507	0.32588	0.15849	0.15187	0.2174	0.21882	-2.5563	-2.8083	-2.8771	-3.2646	-2.8937	-2.9792	-3.4146	-3.1042	-2.9813	-3.0729	-2.9083	-3.3104	-2.9354	-3.1333	-3.1771	-2.9125	171.098	463.278	468.118	455.803	258.345	457.290	488.025	442.480	338.587	259.028	448.936	497.101	319.772	279.359	423.351	316.974	0.00049773	0.0006936	0.00015304	1355.1	5.6005e-06	5.6079e-06	1331.3	360.13	3.5599e-06	4.3934e-06	408.34	136.82	119.21	42.98	3.9068e-06	52.685	0.0015103	0.0034132	0.00095885	1373.8	3.0544e-05	3.9551e-05	1352.7	367.52	3.0545e-05	3.9425e-05	418.34	140.62	123.34	44.41	3.298e-05	54.502	225.319	236.384	251.507	175.571	311.709	337.665	175.108	180.074	323.167	316.450	179.482	183.811	183.971	188.779	305.967	187.979	-8191	255	
14597.836	1	1	0	0	0.085198	0.32313	0.22816	0.46303	0.12686	0.052628	0.27313	0.12089	0.13674	0.162	0.066787	0.22458	0.28015	0.10763	0.42971	0.23698	-2.5792	-3.0542	-2.6813	-3.4313	-2.9396	-2.8792	-3.2896	-3.0167	-3.025	-3.2083	-3.0604	-3.2313	-3.0771	-3.0333	-3.2812	-2.9313	356.699	416.732	379.352	487.588	247.492	207.584	440.670	485.611	443.391	275.209	519.505	184.145	503.828	473.813	217.301	404.224	0.00046641	0.00045212	0.00016678	1350.3	4.4819e-06	4.7602e-06	1323.6	358.84	4.7527e-06	2.2746e-06	407.61	135.67	118.78	42.768	3.3023e-06	52.513	0.0014743	0.0033591	0.00095185	1369.3	2.9957e-05	3.801e-05	1346.1	366.5	2.9106e-05	3.8061e-05	417.02	139.9	122.49	44.13	3.2688e-05	54.253	223.277	248.610	243.574	175.519	295.389	331.059	175.300	179.970	293.917	277.261	179.610	183.597	184.197	188.969	306.744	187.987	-8191	255	
14597.955	1	1	0	0	0.15576	0.2037	0.12988	0.17938	0.10365	0.17897	0.29227	0.48594	0.13682	0.057298	0.26501	0.13251	0.21142	0.10587	0.15976	0.40815	-2.5812	-3.1271	-2.7958	-3.1063	-2.9792	-2.9625	-3.4313	-3.0438	-3.0333	-3.0771	-2.9896	-3.225	-3.1625	-3.0042	-3.0771	-3.1104	262.384	463.864	389.944	510.801	367.193	520.474	502.938	425.657	221.433	395.067	408.918	332.779	446.494	218.817	211.741	448.802	0.00048259	0.00055547	0.00011268	1344.4	3.3815e-06	5.3819e-06	1322.4	359.06	3.5926e-06	5.8945e-06	408.61	135.68	118.39	43.009	4.0446e-06	52.647	0.0014629	0.00333	0.00093185	1365.1	2.9231e-05	3.8451e-05	1346.2	366.49	2.9077e-05	3.7406e-05	417.24	139.97	122.82	44.306	3.27e-05	54.377	222.357	248.821	238.651	175.383	295.207	301.215	175.289	179.911	309.735	340.018	179.391	183.573	184.241	188.701	297.008	188.106	-8191	255	
14598.051	1	1	0	0	0.27181	0.064007	0.11766	0.36177	0.044025	0.20655	0.26476	0.31653	0.27824	0.15975	0.15024	0.39797	0.21968	0.27849	0.070477	0.12524	-2.6354	-3.0333	-2.8458	-3.1854	-3.0479	-2.7562	-3.3042	-3.0479	-2.8312	-3.0604	-3.0479	-3.0146	-3.1	-2.9062	-3.1937	-3.0875	233.460	424.068	310.727	505.799	345.421	490.067	433.932	464.378	393.895	468.238	349.117	497.133	487.373	459.430	262.190	188.374	0.00050441	0.00035463	0.0001137	1347.9	3.7043e-06	4.7112e-06	1324.5	360.07	4.8836e-06	2.6715e-06	409.92	135.69	119.22	42.954	3.4495e-06	52.766	0.0014408	0.0032721	0.00090356	1368.4	2.9061e-05	3.7063e-05	1348.6	367.15	2.894e-05	3.6264e-05	417.68	139.98	122.82	44.303	3.1643e-05	54.407	222.488	260.151	258.534	175.453	308.765	296.395	175.304	180.179	306.841	322.770	179.392	183.843	184.387	188.815	286.268	188.109	-8191	255	
14598.125	1	1	0	0	0.14638	0.18479	0.084028	0.33201	0.14939	0.24274	0.19772	0.29135	0.18021	0.23386	0.078301	0.1349	0.10278	0.12862	0.087393	0.12673	-2.5354	-3.1208	-2.7917	-3.075	-3.1958	-2.6271	-3.3083	-3.1146	-2.9208	-3.0792	-3.1	-3.1167	-3.1125	-2.925	-2.9562	-2.95	480.130	162.606	326.823	435.314	410.128	348.448	419.317	448.609	347.207	237.980	434.313	190.712	328.269	509.648	184.055	329.077	0.00051568	0.00057986	0.00019974	1352.3	6.421e-06	5.7797e-06	1331.1	360.67	6.1942e-06	3.4161e-06	410.46	137.39	120.35	43.059	5.271e-06	52.853	0.001444	0.003287	0.00090997	1372.5	2.8843e-05	3.765e-05	1354.7	368.28	2.9116e-05	3.8158e-05	419.65	141.1	123.6	44.534	3.3129e-05	54.643	224.861	267.607	237.239	175.246	323.023	310.457	175.282	179.957	303.738	287.931	179.527	183.752	184.052	188.697	286.831	188.047	-8191	255	
14598.221	1	1	0	0	0.039924	0.23962	0.13319	0.19784	0.04844	0.083767	0.26205	0.11109	0.067229	0.13627	0.22396	0.12076	0.042716	0.17746	0.08938	0.11824	-2.35	-2.9583	-2.8708	-3.0187	-3.2188	-2.8042	-3.4042	-3.2458	-2.8937	-3.1667	-2.9854	-3.0812	-3.2562	-2.8125	-3.0396	-3.1875	223.712	294.113	391.664	459.260	470.515	264.623	461.085	431.614	442.241	193.922	448.707	349.425	516.293	469.081	518.608	387.495	0.00047163	0.00053147	0.00018365	1351.3	3.7077e-06	6.028e-06	1335	362.44	4.6502e-06	3.7989e-06	410.47	136.54	119.93	43.176	2.7411e-06	52.828	0.0014507	0.0033532	0.00093773	1373.9	3.0533e-05	3.8313e-05	1354.9	369.31	3.0168e-05	3.9628e-05	419.3	141	123.68	44.577	3.4534e-05	54.642	220.956	254.900	245.759	175.474	300.173	302.829	175.380	180.093	295.452	331.327	179.599	183.693	184.281	188.933	315.755	188.012	-8191	255	
14598.340	1	1	0	0	0.054076	0.11397	0.10371	0.31573	0.069251	0.17443	0.16175	0.34438	0.099103	0.031948	0.18843	0.14532	0.047752	0.17147	0.10866	0.027431	-2.3333	-3.0646	-2.8979	-3.1188	-3.1417	-2.8542	-3.2708	-3.1417	-2.9646	-3.0812	-3.0854	-3.1354	-3.1646	-3.0396	-3.0208	-3.3	201.382	170.854	453.698	519.904	468.079	418.460	448.108	484.026	233.928	344.757	451.262	233.728	503.747	433.423	241.173	219.068	0.00050486	0.00065998	9.4532e-05	1353.5	4.3053e-06	1.8208e-06	1335.6	361.09	4.5316e-06	3.2774e-06	411.8	137.43	119.82	43.227	5.2517e-06	52.836	0.0015209	0.0035707	0.00098491	1373.7	3.1729e-05	4.0995e-05	1355.7	368.97	3.2169e-05	4.081e-05	420.41	141.31	123.66	44.581	3.534e-05	54.697	222.360	248.283	266.952	175.467	274.009	276.543	175.067	180.079	294.777	304.628	179.641	183.632	184.146	188.946	310.443	187.997	-8191	255	
14598.436	1	1	0	0	0.19713	0.17117	0.13477	0.14088	0.12871	0.091724	0.24375	0.22427	0.23864	0.26554	0.30468	0.086978	0.24437	0.061181	0.11497	0.32036	-2.4708	-3.0208	-3.0667	-3.1125	-3.0917	-2.9208	-3.1479	-3.1667	-2.7875	-3.2021	-3.125	-2.8771	-3.1271	-2.9667	-2.9354	-3.225	424.310	434.885	450.844	175.039	465.179	396.292	425.844	520.614	172.548	422.317	515.165	464.623	463.177	356.475	384.869	451.228	0.00051068	0.00054712	0.00012022	1353.4	4.2439e-06	5.1378e-06	1333.1	361.23	5.7678e-06	1.7418e-06	411.66	136.48	119.77	43.074	3.4384e-06	52.951	0.0015341	0.0036387	0.00099661	1375.5	3.2091e-05	4.0702e-05	1356.4	368.72	3.1998e-05	4.097e-05	420.78	141.04	123.94	44.537	3.5405e-05	54.717	223.940	234.381	260.276	175.300	307.305	293.169	175.366	179.975	305.669	261.801	179.639	183.582	184.175	188.613	302.514	188.166	-8191	255	
14598.532	1	1	0	0	0.19677	0.13631	0.03126	0.36559	0.19896	0.10612	0.032856	0.2907	0.12778	0.070648	0.26222	0.3431	0.079966	0.35611	0.14758	0.25958	-2.55	-3.0687	-2.9917	-3.1396	-3.1937	-2.8937	-3.2167	-3.2458	-3.0208	-2.9333	-3.1813	-2.7812	-3.2625	-3.0417	-2.9083	-3.4646	330.357	351.291	266.384	497.798	275.777	501.830	489.212	471.501	488.470	228.904	439.114	466.484	220.071	491.699	352.572	426.457	0.00044062	0.0004864	0.00011275	1357.5	4.3576e-06	3.1148e-06	1331.9	363.01	5.6092e-06	6.1319e-06	411.62	136.95	120.17	43.414	6.8236e-06	52.933	0.0015313	0.0036022	0.0010013	1376.9	3.2575e-05	4.1452e-05	1355.4	369.87	3.2603e-05	4.1869e-05	420.44	141.1	123.98	44.717	3.6744e-05	54.736	220.945	263.126	263.081	175.317	299.230	310.843	175.312	180.208	300.145	334.014	179.384	183.758	184.068	188.792	302.192	187.857	-8191	255	
14598.653	1	1	0	0	0.069453	0.24323	0.12493	0.29125	0.17362	0.10185	0.082205	0.14396	0.24138	0.19664	0.14159	0.094017	0.2344	0.078818	0.043627	0.093128	-2.5521	-3.0167	-2.975	-3.1	-3.1917	-2.95	-3.1604	-3.4104	-2.825	-2.9313	-3.2687	-3.1063	-3.1667	-2.9792	-2.8604	-3.0875	295.885	162.737	307.601	162.549	427.764	238.181	418.279	164.276	507.245	267.782	167.450	463.868	521.142	458.062	182.906	475.792	0.00052398	0.00060629	0.00016954	1354.1	3.7559e-06	6.2491e-06	1334.4	362.25	4.8135e-06	5.5677e-06	411.58	137.68	120.01	43.158	3.1298e-06	52.855	0.001582	0.0038	0.0010481	1376.6	3.4174e-05	4.3122e-05	1356.5	369.53	3.3599e-05	4.2988e-05	420.43	141.35	124.3	44.662	3.794e-05	54.702	225.481	239.775	250.534	175.409	297.163	307.561	175.194	179.888	299.419	299.760	179.533	183.546	184.297	188.715	332.760	188.015	-8191	255	
14598.749	1	1	0	0	0.081972	0.17449	0.09481	0.09412	0.041325	0.047567	0.17486	0.053108	0.27029	0.11866	0.10651	0.20652	0.3473	0.082757	0.20666	0.27078	-2.6312	-3.0062	-2.9813	-3.1792	-2.9458	-3.0917	-3.0687	-3.2375	-3.0167	-3.1021	-3.2875	-2.9208	-3.2313	-3.0375	-2.8187	-3.3333	169.050	354.666	464.629	495.786	483.663	319.527	427.368	413.286	298.431	512.630	167.377	181.264	491.140	354.644	194.317	385.165	0.00049749	0.0004028	0.00012721	1354.3	5.1422e-06	4.3005e-06	1328.4	361.85	6.2223e-06	7.2244e-06	412.03	136.77	120.15	43.341	4.749e-06	53.075	0.0016158	0.0037992	0.0010331	1373.4	3.3598e-05	4.3192e-05	1354.5	369.56	3.3472e-05	4.2326e-05	421.01	141.14	124.03	44.626	3.6983e-05	54.781	224.049	225.918	263.273	175.388	331.135	286.456	175.283	180.082	298.809	287.445	179.740	183.593	184.164	188.843	266.732	187.933	-8191	255	
14598.821	1	1	0	0	0.0072423	0.16864	0.11056	0.12075	0.073605	0.070381	0.41351	0.2519	0.072068	0.18446	0.23215	0.19851	0.15071	0.10861	0.069605	0.081171	-2.6042	-2.8396	-3.1146	-2.7958	-3.0583	-3.0687	-3.0938	-3.2875	-2.9208	-3.0146	-3.2542	-2.8625	-3.0729	-3.2458	-2.9021	-3.2458	424.916	367.485	490.919	473.372	427.744	172.004	458.049	424.528	398.106	522.063	449.615	496.675	426.952	317.791	511.589	238.610	0.00048935	0.00069103	0.00014942	1354.8	5.631e-06	6.12e-06	1337.1	362.16	4.2202e-06	3.6629e-06	411.4	137.38	120.21	43.324	3.7048e-06	53.104	0.0016212	0.0037343	0.0010338	1375.8	3.351e-05	4.3185e-05	1357.1	370.14	3.3194e-05	4.2809e-05	420.95	141.35	124	44.639	3.805e-05	54.877	222.196	209.664	251.158	175.350	297.638	343.118	175.225	180.085	296.944	276.819	179.609	183.636	184.130	188.832	299.411	188.049	-8191	255	
14598.941	1	1	0	0	0.10895	0.13336	0.065201	0.064726	0.13785	0.16185	0.35828	0.34971	0.16801	0.1142	0.11218	0.23838	0.064541	0.18931	0.15151	0.072238	-2.4979	-2.8625	-3.3083	-3.1271	-2.9708	-3.15	-2.9292	-3.4042	-2.7021	-2.9042	-3.2146	-2.9208	-3.125	-3.1	-2.8271	-3.3	228.887	286.062	406.416	371.270	190.382	324.846	444.057	467.267	300.974	349.712	491.334	454.628	183.625	402.170	184.397	482.782	0.00049555	0.0004095	0.00014447	1353.7	5.3212e-06	5.8423e-06	1333.9	361.92	5.4688e-06	7.0889e-06	410.81	136.88	120.19	43.29	1.7933e-06	52.831	0.001601	0.0037907	0.0010458	1375.2	3.3317e-05	4.2583e-05	1355.8	369.98	3.2914e-05	4.236e-05	420.74	141.39	123.97	44.673	3.609e-05	54.655	219.837	227.918	265.645	175.314	314.863	339.437	175.386	180.101	294.658	298.965	179.601	183.621	184.140	188.642	248.148	187.995	-8191	255	
14599.036	1	1	0	0	0.24794	0.22506	0.047092	0.54808	0.10106	0.19738	0.21413	0.24567	0.20313	0.23468	0.17686	0.056283	0.17537	0.25222	0.10113	0.16012	-2.5667	-2.7896	-3.0896	-3.1396	-2.9646	-3.0229	-3.05	-3.1271	-2.9208	-2.7958	-3.2687	-2.8937	-2.9521	-3.0958	-2.8646	-3.2854	320.734	457.417	439.599	493.905	464.961	220.280	464.057	477.232	459.780	392.700	519.386	224.170	395.477	481.770	352.386	429.635	0.00052517	0.00067792	0.00014191	1354.6	5.5823e-06	5.0637e-06	1329.1	361.64	3.5157e-06	6.0226e-06	412.55	136.94	120.02	43.329	4.4615e-06	53.123	0.001582	0.0037395	0.0010117	1374.6	3.2941e-05	4.2083e-05	1354.2	369.1	3.2066e-05	4.1078e-05	421.53	141.11	123.88	44.604	3.5837e-05	54.769	224.056	239.566	252.128	175.225	275.976	309.788	175.248	179.982	293.450	357.137	179.572	183.632	184.217	188.716	295.563	188.005	-8191	255	
14599.132	1	1	0	0	0.22395	0.041731	0.049134	0.147	0.24096	0.19536	0.35204	0.26049	0.17785	0.085085	0.23098	0.305	0.31501	0.1006	0.10883	0.27192	-2.6063	-2.7479	-3.2083	-3.2833	-3.1167	-3.2792	-3.0687	-3.0833	-3.0917	-2.8333	-3.4167	-3.0812	-3.1125	-3.2625	-2.8417	-3.2979	164.026	455.035	293.960	516.332	375.387	447.826	478.020	477.853	267.984	417.768	493.158	177.415	169.393	218.470	506.057	327.260	0.00048378	0.00039921	0.00013529	1355.2	5.7539e-06	4.4914e-06	1332.3	361.97	4.2675e-06	3.8006e-06	411.8	137.27	120.08	43.137	4.1925e-06	52.9	0.0015802	0.0036423	0.00099792	1374.2	3.2612e-05	4.0255e-05	1355.3	369.46	3.1872e-05	4.1043e-05	420.89	141.27	123.91	44.572	3.4769e-05	54.691	226.936	242.654	247.518	175.321	312.534	294.491	175.139	180.114	303.071	321.786	179.569	183.571	184.299	188.846	325.045	188.137	-8191	255	
14599.252	1	1	0	0	0.25702	0.18023	0.11501	0.29023	0.079716	0.19896	0.26085	0.19044	0.1568	0.12935	0.038928	0.20885	0.39457	0.18626	0.069574	0.15687	-2.7917	-2.8792	-3.0563	-3.2167	-2.8625	-3.0625	-3.2354	-3.2667	-3.1562	-3.0417	-3.175	-3.2	-2.8688	-3.0312	-2.9229	-3.0875	283.608	460.568	285.224	164.121	486.402	396.923	494.773	432.435	339.300	356.112	376.608	464.385	506.501	429.650	208.411	225.012	0.00047695	0.0005474	0.00016719	1350.4	4.7439e-06	4.5712e-06	1331.7	361.57	1.8642e-06	1.8008e-06	410.92	136.81	119.33	43.173	5.4061e-06	52.52	0.0015451	0.0036291	0.00098988	1372.7	3.2042e-05	4.0892e-05	1352.6	368.87	3.2134e-05	4.1493e-05	420.17	140.96	123.59	44.529	3.6217e-05	54.499	223.718	226.887	253.970	175.239	303.557	298.782	175.199	179.982	292.811	276.544	179.636	183.519	184.037	188.742	293.149	188.234	-8191	255	
14599.348	1	1	0	0	0.075297	0.31176	0.21511	0.21082	0.18123	0.24422	0.17355	0.21912	0.24483	0.082156	0.33367	0.32675	0.32145	0.02201	0.093729	0.26723	-2.7188	-2.8771	-3.0938	-3.2792	-2.8667	-3.2167	-3.3208	-2.9521	-3.1312	-2.8896	-3.1521	-3.1958	-2.9958	-3.1292	-3.0229	-3.0354	232.190	242.122	167.433	514.211	344.100	263.784	496.405	512.316	482.787	340.257	511.322	494.641	480.262	418.101	309.086	398.363	0.00049426	0.00053728	0.00012155	1347.1	6.9023e-06	6.9655e-06	1327.2	361.45	5.5566e-06	8.54e-06	408.84	136.52	119.24	43.078	2.3516e-06	52.867	0.0015594	0.0036399	0.0010188	1371.5	3.2628e-05	4.1291e-05	1351.7	368.69	3.2156e-05	4.1237e-05	418.49	140.66	123.29	44.443	3.5333e-05	54.544	221.400	276.043	266.757	175.367	305.117	298.681	175.308	180.029	299.556	322.637	179.720	183.626	184.343	188.644	290.013	188.021	-8191	255	
14599.420	1	1	0	0	0.22007	0.13969	0.11313	0.39763	0.2725	0.032369	0.35373	0.27107	0.12301	0.071969	0.20338	0.18729	0.19376	0.11998	0.19056	0.18587	-2.6271	-3.0104	-2.9896	-3.2979	-2.8812	-3.2896	-3.2687	-3.0979	-3.1937	-3.0958	-3.2375	-3.2458	-2.8208	-3.2313	-2.8625	-2.8979	296.778	410.993	505.603	501.249	422.169	407.828	484.534	451.708	239.297	174.682	413.578	393.972	505.015	403.396	241.641	490.641	0.00048212	0.00046695	0.00010972	1353.8	4.6648e-06	5.0799e-06	1329.7	359.59	3.9241e-06	4.3311e-06	410.57	136.85	119.77	43.05	4.7355e-06	52.684	0.001522	0.0035609	0.00099421	1372.9	3.1632e-05	4.0428e-05	1352.9	368.01	3.0788e-05	3.9628e-05	419.23	140.7	123.5	44.394	3.4506e-05	54.481	223.656	230.082	241.871	175.481	314.407	305.343	175.177	179.984	289.184	283.155	179.587	183.813	184.190	188.853	288.845	188.066	-8191	255	
14599.516	1	1	0	0	0.077142	0.15739	0.070981	0.37599	0.21311	0.14337	0.13693	0.10664	0.10037	0.41657	0.096696	0.081745	0.095303	0.26158	0.13214	0.14467	-2.6625	-2.9042	-2.9146	-3.2917	-2.9333	-3.2812	-3.1396	-3.1042	-3.1188	-2.8854	-3.0521	-3.1542	-2.7208	-3.0396	-2.9104	-3.0104	466.861	245.165	349.525	458.831	341.418	360.661	175.718	373.482	382.343	297.703	508.758	265.876	165.374	471.052	482.267	436.465	0.00048064	0.00047991	8.7341e-05	1353.5	2.1202e-06	6.9592e-06	1331.8	360.89	5.344e-06	5.95e-06	408.07	136.53	118.91	43.094	3.7378e-06	52.536	0.0014974	0.0035145	0.00096926	1372.8	3.123e-05	3.9843e-05	1353	368.13	3.0205e-05	4.0082e-05	418.23	140.51	123.07	44.357	3.3847e-05	54.378	224.306	241.028	279.091	175.385	294.241	309.403	175.386	180.012	310.490	333.250	179.723	183.740	184.085	188.761	284.000	188.210	-8191	255	
14599.612	1	1	0	0	0.17786	0.26579	0.27124	0.21541	0.09697	0.1368	0.32412	0.3136	0.25738	0.040221	0.16522	0.21246	0.3794	0.16085	0.22262	0.26401	-2.7854	-2.9354	-2.8208	-3.4208	-2.8396	-3.1667	-3.1958	-3.0417	-3.2833	-2.9333	-3.0521	-3.2771	-3.1271	-3.3896	-3.0479	-3.1167	263.260	441.951	408.493	484.919	240.581	489.480	445.473	464.329	414.421	210.446	485.927	164.340	447.801	207.199	356.207	487.983	0.00049165	0.00039575	0.00016873	1352.1	5.5534e-06	6.0473e-06	1329	360.63	3.9107e-06	3.9907e-06	409.48	136.2	119.06	42.992	3.6472e-06	52.792	0.0014854	0.0034696	0.00096408	1372.7	3.0934e-05	3.9878e-05	1353	368.04	3.0331e-05	3.928e-05	418.99	140.52	123.06	44.351	3.3795e-05	54.503	222.574	271.257	269.549	175.163	300.788	307.708	175.294	180.076	298.113	287.242	179.570	183.398	184.084	188.861	289.816	187.962	-8191	255	
14599.733	1	1	0	0	0.2409	0.10527	0.096875	0.04514	0.21976	0.28677	0.2565	0.23952	0.15137	0.063229	0.1113	0.23341	0.22845	0.23846	0.10263	0.16629	-2.7917	-2.9854	-2.8104	-3.2792	-2.8688	-2.9917	-3.1896	-3.1229	-3.0167	-3.0292	-3.0687	-3.3	-3.0333	-2.8854	-3.0646	-3.1083	293.833	314.365	307.132	178.566	473.817	403.225	461.958	465.855	285.705	332.665	520.115	438.304	462.123	186.145	434.804	380.796	0.00049901	0.00067282	0.00013294	1352.5	3.3371e-06	4.4794e-06	1330.5	359.57	6.0859e-06	5.5304e-06	409.11	135.83	120.04	42.946	6.2744e-06	52.675	0.0015096	0.0034908	0.00096665	1371.5	3.0812e-05	3.9345e-05	1351.3	367.48	3.0259e-05	3.9983e-05	418.59	140.22	123.33	44.36	3.4203e-05	54.443	224.607	248.274	244.067	175.319	318.409	290.325	175.425	179.976	299.514	335.154	179.415	183.792	184.265	188.543	297.038	187.998	-8191	255	
14599.829	1	1	0	0	0.08795	0.32676	0.36372	0.41479	0.21781	0.16552	0.20458	0.30246	0.21509	0.17699	0.070276	0.18711	0.26521	0.17808	0.10576	0.055073	-2.6833	-2.9479	-2.9354	-3.2583	-2.9104	-3.0396	-3.3875	-3.125	-3.0208	-3.0938	-2.9458	-3.3104	-2.875	-2.9688	-3.1125	-3.1	389.672	192.090	242.002	433.357	299.322	491.416	401.656	490.020	336.326	443.577	439.968	182.569	448.815	259.184	311.337	211.696	0.00047229	0.00056074	0.0001173	1348.7	4.1004e-06	6.4183e-06	1331.3	360.97	4.648e-06	3.1079e-06	408.71	135.64	118.96	43.033	3.6391e-06	52.48	0.0014789	0.0034956	0.00096309	1370	3.0784e-05	3.9411e-05	1350.7	368.09	3.0227e-05	3.9104e-05	418.03	140.25	123.11	44.417	3.3147e-05	54.369	223.507	249.087	255.332	175.257	309.927	342.228	175.396	180.041	319.716	319.839	179.607	183.546	184.182	188.750	309.497	188.240	-8191	255	
#DATA ENDS
