BOXY.EXE: ISS Imagent and Oximeter Data Acquisition Program Version 0.80
Ascii Record File

#ACQ INFORMATION
2  Detector Channels 
16  External MUX Channels 
1  Auxiliary Channels 
5000  Waveform (CCF) Frequency (Hz)
1  Waveforms Skipped 
30  Waveforms Averaged 
1  Cycles Averaged 
16  Acquisitions per Waveform 
10.0806  Updata Rate (Hz) 

#FILE INFORMATION
TRUE -- External MUX Channel results are PARSED.
FALSE -- AC DC and Phase are NOT grouped.
TRUE -- Companion Program Settings File CREATED.
FALSE -- AC data not excluded
FALSE -- DC data not excluded
FALSE -- Phase data not excluded
FALSE -- Auxillary Chn. data not excluded
Tab delimiters

#CALIBRATION STATE
TRUE -- Waveform Calibration Values APPLIED.


#AUX CALIBRATION VALUES
Val Type	aux-1	

Term	1.0000e+00	
Factor	0.0000e+00	


#WF CALIBRATION VALUES
A = Detector Channel
Val Type	A-AC1	A-AC2	A-AC3	A-AC4	A-AC5	A-AC6	A-AC7	A-AC8	A-AC9	A-AC10	A-AC11	A-AC12	A-AC13	A-AC14	A-AC15	A-AC16	A-DC1	A-DC2	A-DC3	A-DC4	A-DC5	A-DC6	A-DC7	A-DC8	A-DC9	A-DC10	A-DC11	A-DC12	A-DC13	A-DC14	A-DC15	A-DC16	A-Ph1	A-Ph2	A-Ph3	A-Ph4	A-Ph5	A-Ph6	A-Ph7	A-Ph8	A-Ph9	A-Ph10	A-Ph11	A-Ph12	A-Ph13	A-Ph14	A-Ph15	A-Ph16	

Term	0.00000e+00	0.00000e+00	0.00000e+00	0.00000e+00	0.00000e+00	0.00000e+00	0.00000e+00	0.00000e+00	0.00000e+00	0.00000e+00	0.00000e+00	0.00000e+00	0.00000e+00	0.00000e+00	0.00000e+00	0.00000e+00	0.00000e+00	0.00000e+00	0.00000e+00	0.00000e+00	0.00000e+00	0.00000e+00	0.00000e+00	0.00000e+00	0.00000e+00	0.00000e+00	0.00000e+00	0.00000e+00	0.00000e+00	0.00000e+00	0.00000e+00	0.00000e+00	0.00000e+00	0.00000e+00	0.00000e+00	0.00000e+00	0.00000e+00	0.00000e+00	0.00000e+00	0.00000e+00	0.00000e+00	0.00000e+00	0.00000e+00	0.00000e+00	0.00000e+00	0.00000e+00	0.00000e+00	0.00000e+00	
Factor	1.00000e+00	1.00000e+00	1.00000e+00	1.00000e+00	1.00000e+00	1.00000e+00	1.00000e+00	1.00000e+00	1.00000e+00	1.00000e+00	1.00000e+00	1.00000e+00	1.00000e+00	1.00000e+00	1.00000e+00	1.00000e+00	1.00000e+00	1.00000e+00	1.00000e+00	1.00000e+00	1.00000e+00	1.00000e+00	1.00000e+00	1.00000e+00	1.00000e+00	1.00000e+00	1.00000e+00	1.00000e+00	1.00000e+00	1.00000e+00	1.00000e+00	1.00000e+00	X	X	X	X	X	X	X	X	X	X	X	X	X	X	X	X	

B = Detector Channel
Val Type	B-AC1	B-AC2	B-AC3	B-AC4	B-AC5	B-AC6	B-AC7	B-AC8	B-AC9	B-AC10	B-AC11	B-AC12	B-AC13	B-AC14	B-AC15	B-AC16	B-DC1	B-DC2	B-DC3	B-DC4	B-DC5	B-DC6	B-DC7	B-DC8	B-DC9	B-DC10	B-DC11	B-DC12	B-DC13	B-DC14	B-DC15	B-DC16	B-Ph1	B-Ph2	B-Ph3	B-Ph4	B-Ph5	B-Ph6	B-Ph7	B-Ph8	B-Ph9	B-Ph10	B-Ph11	B-Ph12	B-Ph13	B-Ph14	B-Ph15	B-Ph16	

Term	0.00000e+00	0.00000e+00	0.00000e+00	0.00000e+00	0.00000e+00	0.00000e+00	0.00000e+00	0.00000e+00	0.00000e+00	0.00000e+00	0.00000e+00	0.00000e+00	0.00000e+00	0.00000e+00	0.00000e+00	0.00000e+00	0.00000e+00	0.00000e+00	0.00000e+00	0.00000e+00	0.00000e+00	0.00000e+00	0.00000e+00	0.00000e+00	0.00000e+00	0.00000e+00	0.00000e+00	0.00000e+00	0.00000e+00	0.00000e+00	0.00000e+00	0.00000e+00	-5.24022e+01	-1.64169e+02	-9.76990e+01	-1.80969e+02	-5.66720e+01	-9.77327e+01	-1.56073e+02	-1.62015e+02	-2.91745e+01	-6.44927e+01	-1.73276e+02	-1.70265e+02	-1.82009e+02	-1.76771e+02	-6.96488e+01	-1.50163e+02	
Factor	1.86859e-05	9.78118e-05	2.79070e-05	1.67683e-01	9.76611e-07	1.10387e-06	1.73110e-01	5.09591e-02	1.07639e-06	1.05178e-06	1.04153e-01	2.91335e-02	3.50756e-02	9.31146e-03	9.58455e-07	1.36155e-02	6.11716e-07	6.27859e-07	1.75053e-07	7.79073e-02	6.84918e-09	6.89061e-09	7.55109e-02	2.36384e-02	6.84905e-09	6.88618e-09	4.50172e-02	1.28399e-02	1.55609e-02	4.22386e-03	6.88738e-09	5.88561e-03	X	X	X	X	X	X	X	X	X	X	X	X	X	X	X	X	



#DISTANCE SETTINGS
A = Detector Channel
A-1	A-2	A-3	A-4	A-5	A-6	A-7	A-8	A-9	A-10	A-11	A-12	A-13	A-14	A-15	A-16	

2.5000e+00	3.0000e+00	2.5000e+00	3.0000e+00	2.0000e+00	3.0000e+00	1.5000e+00	3.0000e+00	3.0000e+00	3.0000e+00	3.0000e+00	3.0000e+00	3.0000e+00	3.0000e+00	1.5000e+00	3.0000e+00	

B = Detector Channel
B-1	B-2	B-3	B-4	B-5	B-6	B-7	B-8	B-9	B-10	B-11	B-12	B-13	B-14	B-15	B-16	

1.0000e+01	1.0000e+01	1.0000e+01	1.4400e+00	1.0000e+01	1.0000e+01	1.5100e+00	1.9400e+00	1.0000e+01	1.0000e+01	1.9900e+00	2.4900e+00	2.4100e+00	2.9000e+00	1.0000e+01	2.9800e+00	




#DATA BEGINS
time	group	step	mark	flag	A-AC1	A-AC2	A-AC3	A-AC4	A-AC5	A-AC6	A-AC7	A-AC8	A-AC9	A-AC10	A-AC11	A-AC12	A-AC13	A-AC14	A-AC15	A-AC16	A-DC1	A-DC2	A-DC3	A-DC4	A-DC5	A-DC6	A-DC7	A-DC8	A-DC9	A-DC10	A-DC11	A-DC12	A-DC13	A-DC14	A-DC15	A-DC16	A-Ph1	A-Ph2	A-Ph3	A-Ph4	A-Ph5	A-Ph6	A-Ph7	A-Ph8	A-Ph9	A-Ph10	A-Ph11	A-Ph12	A-Ph13	A-Ph14	A-Ph15	A-Ph16	B-AC1	B-AC2	B-AC3	B-AC4	B-AC5	B-AC6	B-AC7	B-AC8	B-AC9	B-AC10	B-AC11	B-AC12	B-AC13	B-AC14	B-AC15	B-AC16	B-DC1	B-DC2	B-DC3	B-DC4	B-DC5	B-DC6	B-DC7	B-DC8	B-DC9	B-DC10	B-DC11	B-DC12	B-DC13	B-DC14	B-DC15	B-DC16	B-Ph1	B-Ph2	B-Ph3	B-Ph4	B-Ph5	B-Ph6	B-Ph7	B-Ph8	B-Ph9	B-Ph10	B-Ph11	B-Ph12	B-Ph13	B-Ph14	B-Ph15	B-Ph16	aux-1	digaux	

2385.302	1	1	0	512	0.20946	0.10372	0.22869	0.144	0.22184	0.10093	0.13347	0.3118	0.11316	0.35332	0.16002	0.11894	0.07317	0.21367	0.20682	0.2318	-2.475	-2.9229	-2.6562	-3.0417	-2.8729	-2.6292	-3.2104	-2.5917	-2.7979	-2.9667	-2.525	-3.0687	-3.0208	-2.6333	-3.1104	-2.7313	-58.820	132.911	195.519	41.245	210.095	103.436	167.920	-131.487	-114.475	118.356	-133.408	101.828	-34.400	203.872	155.008	171.165	0.00049237	0.00049158	0.00014336	382.45	4.5084e-06	2.7952e-06	688.33	171.31	4.3154e-06	4.5147e-06	327.53	136.83	76.791	41.17	1.5166e-06	67.97	0.00015017	0.00012235	3.1519e-05	367.62	1.4987e-06	1.3298e-06	648.37	163.23	1.487e-06	1.3293e-06	295.58	126.46	71.084	38.335	1.2392e-06	61.848	-86.945	-55.549	-12.102	-134.309	0.035	-67.911	-135.591	-128.891	50.378	-8.959	-131.662	-127.465	-124.379	-119.147	-36.083	-123.036	-8191	255	
2385.421	1	1	0	0	0.19523	0.21114	0.19153	0.091176	0.13622	0.38577	0.19417	0.081769	0.16086	0.16043	0.17107	0.061791	0.051037	0.29544	0.10888	0.031731	-2.3208	-3	-2.4875	-2.7979	-2.9646	-2.6833	-3.2625	-2.8354	-2.6354	-3.1229	-2.7021	-3.0521	-2.9354	-2.7646	-2.9167	-2.8917	-103.606	-143.920	121.785	19.928	-100.307	70.979	81.654	-130.283	-11.132	198.077	27.873	-18.006	100.945	199.875	144.545	139.870	0.00052474	0.0004081	1.9749e-05	381.53	3.5064e-06	3.6738e-06	684.18	169.23	3.0559e-06	3.2048e-06	321.32	134.65	76.065	40.54	8.7855e-07	67.344	0.00014258	0.0001181	3.2027e-05	366.09	1.4162e-06	1.2855e-06	644.3	161.28	1.4012e-06	1.2654e-06	292.35	124.69	69.936	37.71	1.3338e-06	61.133	-78.027	-56.455	-48.269	-134.468	43.461	-43.910	-135.542	-129.090	23.347	50.530	-131.726	-127.582	-124.486	-119.330	-5.397	-123.221	-8191	255	
2385.517	1	1	0	0	0.091716	0.067042	0.11391	0.098114	0.22766	0.18687	0.16057	0.18053	0.12023	0.20601	0.052104	0.29777	0.23868	0.1061	0.19688	0.083626	-2.125	-3.1042	-2.5938	-2.8333	-2.8979	-2.6417	-3.1479	-2.6083	-2.65	-3.2229	-2.8167	-2.8625	-2.8146	-2.7396	-2.8812	-3.0687	196.123	-86.603	1.010	-48.755	8.651	91.642	115.818	-1.504	179.352	-69.583	184.116	168.914	97.076	200.846	-65.539	-111.413	0.0004662	0.00055593	1.6966e-05	378.42	6.2044e-06	4.7581e-06	686.7	169.6	5.0631e-07	6.9388e-06	324.08	135.49	77.04	41.053	6.1235e-06	67.943	0.00013571	0.00011473	3.473e-05	366.02	1.3654e-06	1.2392e-06	647.5	162.03	1.3517e-06	1.2527e-06	294.79	125.11	70.956	38.246	1.498e-06	61.89	-88.121	-88.018	180.127	-134.126	38.332	-0.052	-135.609	-128.746	114.347	40.520	-131.749	-127.544	-124.266	-119.253	-43.933	-122.869	-8191	255	
2385.613	1	1	0	0	0.16773	0.087987	0.15806	0.17895	0.29091	0.33606	0.20977	0.24322	0.1131	0.224	0.26059	0.25852	0.091989	0.099184	0.18612	0.026398	-2.0938	-3.0729	-2.4896	-2.7896	-2.9854	-2.7104	-2.9479	-2.9792	-2.7646	-3.1292	-2.6917	-2.7146	-2.9917	-2.5938	-2.9771	-2.7896	193.896	165.652	143.356	70.129	-142.151	153.864	204.310	143.843	-120.566	0.464	113.196	208.001	-30.672	111.340	-21.129	31.976	0.00052384	0.00032776	0.00011309	384.21	5.2696e-06	4.2238e-06	695.79	173.16	2.3518e-06	2.6454e-06	327.39	137.05	77.823	41.774	3.1243e-06	68.686	0.00013355	0.00011426	3.8348e-05	370.35	1.3423e-06	1.2631e-06	657.72	165.05	1.3332e-06	1.2812e-06	299.91	126.77	71.842	38.775	1.5662e-06	62.277	-79.893	-82.628	-27.083	-134.233	-10.573	-18.892	-135.430	-129.067	55.959	73.617	-132.027	-127.298	-124.225	-119.282	-32.193	-123.082	-8191	255	
2385.734	1	1	0	0	0.10246	0.16093	0.3022	0.12831	0.17198	0.10472	0.16889	0.11842	0.054383	0.01309	0.39915	0.26851	0.17278	0.15434	0.1193	0.028581	-2.2812	-2.8646	-2.6562	-2.5979	-2.9437	-2.6688	-2.9188	-3.1021	-2.5375	-3.0312	-2.8792	-2.6021	-3.0938	-2.6521	-2.9875	-2.8812	-116.986	83.569	-39.507	-54.505	-78.436	83.052	155.578	15.154	-106.143	73.504	166.799	204.257	92.641	-83.237	-62.456	53.835	0.0005514	0.0003173	2.9703e-05	385.64	4.1723e-06	2.4493e-06	694.87	172.99	1.7981e-06	6.3931e-07	327.64	136.44	77.397	41.435	4.0056e-06	68.502	0.00013019	0.00012003	4.0014e-05	370.12	1.2923e-06	1.3311e-06	655.79	164.29	1.2549e-06	1.3388e-06	298.85	125.77	70.928	38.426	1.5377e-06	62.086	-81.117	-29.872	-37.732	-134.083	-13.290	-36.406	-135.757	-128.957	-39.456	62.814	-132.005	-127.523	-124.670	-119.390	16.252	-122.859	-8191	255	
2385.805	1	1	0	0	0.16377	0.24833	0.086327	0.30383	0.11578	0.11296	0.074791	0.11507	0.18505	0.13268	0.3484	0.070265	0.14637	0.27982	0.12452	0.16279	-2.1333	-2.9396	-2.8479	-2.4958	-3.0187	-2.8167	-2.8958	-3.0625	-2.5187	-3.1688	-2.9021	-2.5687	-2.9813	-2.8333	-3.0208	-3.2833	28.669	39.706	197.232	-143.379	89.501	-27.970	130.722	9.390	123.030	-84.719	171.245	168.340	186.579	197.720	45.076	-145.701	0.00049467	0.0001871	0.00013405	385.03	5.2509e-06	3.7115e-06	695.76	172.99	5.0354e-06	3.5294e-06	328.74	136.61	77.114	41.183	3.355e-06	68.381	0.00012294	0.00012933	3.8709e-05	368.8	1.2173e-06	1.4576e-06	656.42	164.76	1.2401e-06	1.4665e-06	300.48	125.92	70.925	38.369	1.4676e-06	61.935	-83.798	-82.367	-6.977	-134.196	10.618	-108.668	-135.716	-128.899	-0.306	6.688	-131.634	-127.459	-124.465	-119.329	-4.433	-123.027	-8191	255	
2385.902	1	1	0	0	0.022074	0.26011	0.041725	0.069531	0.02052	0.069107	0.14517	0.026681	0.18659	0.087512	0.080988	0.16515	0.1263	0.15649	0.11132	0.046763	-2.0833	-3.05	-2.9083	-2.7229	-3	-2.8854	-2.9104	-2.9167	-2.7438	-2.9979	-3.0771	-2.5687	-3.0833	-2.9	-2.8521	-3.2	-122.143	144.199	-40.586	54.925	-116.277	14.687	9.412	164.509	-55.103	81.126	170.151	207.796	-114.582	167.202	-30.046	-134.181	0.00048842	3.6083e-05	0.00019613	380.23	1.9892e-06	4.4537e-06	688.36	170.74	2.6055e-06	4.7808e-06	323.44	134.01	75.625	40.666	1.3156e-06	67.312	0.00012393	0.00013736	3.638e-05	364.55	1.2434e-06	1.5001e-06	651.15	161.93	1.2599e-06	1.512e-06	294.82	123.15	69.7	37.753	1.3724e-06	61.014	-88.575	110.315	-49.489	-134.392	-63.429	-44.932	-135.564	-129.017	26.652	32.602	-131.715	-127.424	-124.689	-119.395	-6.991	-123.095	-8191	255	
2385.998	1	1	0	0	0.17318	0.16868	0.18563	0.20987	0.10521	0.14992	0.19266	0.1639	0.20087	0.30087	0.15286	0.11484	0.12081	0.18427	0.12412	0.21358	-2.2542	-2.8021	-2.9708	-2.6354	-2.9708	-2.7062	-3.0542	-3.2354	-2.6479	-2.675	-3.2458	-2.8792	-3.0292	-3.0563	-2.7188	-3.1188	-117.845	-12.844	85.826	-62.511	-126.000	-45.943	101.225	132.589	39.627	170.354	123.658	153.028	49.117	123.811	153.483	176.195	0.00051851	0.00039688	0.00012127	381.95	3.4282e-06	2.8709e-06	692.24	172.1	3.9012e-06	2.3662e-06	325.81	134.34	76.217	40.84	9.133e-07	67.731	0.00013111	0.00014003	3.4299e-05	365.3	1.3409e-06	1.5199e-06	652.02	163.04	1.3932e-06	1.5016e-06	296.57	123.68	70.479	38.086	1.3351e-06	61.493	-85.175	-96.233	-26.625	-134.625	-2.001	-38.362	-135.598	-128.812	-65.370	52.742	-131.564	-127.406	-124.357	-119.255	-103.581	-123.073	-8191	255	
2386.118	1	1	0	0	0.19438	0.051749	0.22822	0.21858	0.070659	0.18191	0.22108	0.075691	0.20133	0.083027	0.30284	0.33415	0.13873	0.27063	0.16906	0.29952	-2.2667	-2.5792	-3.0271	-2.4771	-3.0958	-2.8688	-2.8208	-3.0938	-2.6771	-2.8104	-3.0687	-2.7833	-3.0354	-3.025	-2.7104	-3.2667	120.253	166.556	157.450	162.802	-64.947	140.380	110.845	30.284	171.934	34.523	112.041	178.844	43.730	182.337	166.109	71.229	0.00049984	0.00038566	7.8434e-05	384.35	2.8939e-06	5.1136e-06	692.57	172.88	3.1368e-06	2.0934e-06	325.4	133.93	75.591	40.521	7.6582e-07	67.496	0.00014231	0.0001348	3.3392e-05	366.77	1.4668e-06	1.4559e-06	650.85	163.19	1.4984e-06	1.4286e-06	296.02	123.36	69.938	37.765	1.2912e-06	61.277	-90.982	-92.526	-80.742	-134.350	-44.902	-18.398	-135.606	-128.929	13.850	4.821	-131.730	-127.157	-123.845	-119.080	3.317	-122.896	-8191	255	
2386.215	1	1	0	0	0.09992	0.15485	0.14116	0.061961	0.15955	0.2992	0.13208	0.33453	0.19002	0.23776	0.17415	0.098113	0.16676	0.10378	0.16194	0.22606	-2.4146	-2.7313	-3.0292	-2.7104	-2.7896	-2.9229	-2.7583	-3.1583	-2.8417	-2.7792	-3.1708	-2.8312	-2.9083	-3.3063	-2.4938	-3.2646	59.241	1.146	87.760	208.103	-106.757	-137.167	-101.199	127.229	125.763	-122.427	190.368	109.411	-24.630	125.685	-63.612	164.458	0.00055196	0.00044917	5.6435e-05	380.96	4.117e-06	6.1409e-06	690.93	170.6	4.3053e-06	5.3266e-06	325.27	133.84	74.966	40.541	1.945e-06	68.017	0.0001492	0.00012804	3.1696e-05	364.71	1.5264e-06	1.3622e-06	647.34	162.47	1.5065e-06	1.3391e-06	295.59	123.59	69.487	37.77	1.221e-06	61.755	-90.339	-83.693	-47.641	-134.435	5.000	-29.062	-135.786	-129.075	49.104	15.679	-131.573	-127.167	-124.221	-119.009	1.181	-122.939	-8191	255	
2386.311	1	1	0	0	0.082481	0.069145	0.14402	0.17823	0.12715	0.072051	0.21464	0.19812	0.23723	0.17604	0.27088	0.23323	0.069486	0.040344	0.034907	0.31242	-2.3083	-2.6229	-3.1146	-2.7042	-2.7188	-3.1708	-2.475	-3.0521	-2.8375	-2.7292	-3.3479	-2.7521	-2.925	-3.1479	-2.8438	-3.1125	26.248	71.432	-94.394	-55.748	-118.808	11.116	143.093	-0.578	72.104	-43.284	160.349	196.977	-81.587	68.814	93.892	152.927	0.00051892	0.00010233	3.8216e-05	383.98	3.6416e-06	4.4301e-06	692.45	171.42	3.5786e-06	7.0228e-06	324.27	132.89	74.43	40.33	7.4103e-07	67.723	0.00014806	0.00011958	3.0774e-05	367.9	1.4682e-06	1.315e-06	647.25	163.2	1.4634e-06	1.2856e-06	294.65	123.39	68.61	37.444	1.2111e-06	61.386	-85.329	-56.084	-14.445	-134.348	5.650	-22.903	-135.492	-128.974	-10.184	4.642	-131.804	-127.211	-124.307	-119.313	30.558	-122.905	-8191	255	
2386.407	1	1	0	0	0.28335	0.22339	0.12538	0.20954	0.10345	0.1843	0.17475	0.095901	0.11044	0.2686	0.10367	0.049915	0.16658	0.25438	0.1296	0.33407	-2.4333	-2.5292	-3.075	-2.8708	-2.9333	-3.0125	-2.8708	-3.0229	-2.9437	-2.6167	-3.2333	-2.9375	-2.7729	-3.1792	-2.7417	-3.0667	76.976	14.478	-56.300	144.010	-65.706	98.534	200.322	168.535	182.715	200.636	-70.151	12.790	60.244	131.897	23.978	162.770	0.00050991	0.00033467	0.00010957	380.06	3.0501e-06	2.7448e-06	682.94	170.57	6.8814e-06	2.4429e-06	322.8	132.46	74.047	40.134	1.2662e-06	67.074	0.00013738	0.00011407	3.0256e-05	366.43	1.3573e-06	1.2112e-06	641.77	162.17	1.3547e-06	1.2202e-06	293.08	122.53	68.326	37.191	1.2762e-06	60.999	-80.220	-94.431	-49.183	-134.406	-22.831	-44.481	-135.359	-128.649	68.425	21.312	-131.616	-127.310	-124.176	-119.344	-53.876	-123.148	-8191	255	
2386.501	1	1	0	0	0.24538	0.16206	0.24925	0.037848	0.18215	0.2415	0.14407	0.3206	0.091238	0.060186	0.29116	0.17332	0.36924	0.18474	0.053659	0.16726	-2.5708	-2.6729	-2.9479	-2.8229	-2.7812	-3.1813	-2.6312	-3.0229	-2.925	-2.5187	-3.0167	-3.1229	-2.6583	-3.2188	-2.8208	-3.2125	32.361	-17.793	30.250	-18.382	61.747	-38.663	181.657	122.275	160.131	-5.623	29.083	104.628	-89.537	-91.565	193.268	-79.048	0.000508	0.00033159	9.745e-05	380.32	4.6872e-06	2.243e-06	685.66	170.65	5.1973e-06	3.3064e-06	321.82	132.8	74.057	40.448	2.5183e-06	67.294	0.00013154	0.00011083	3.2809e-05	366.41	1.326e-06	1.1896e-06	644.29	161.93	1.3025e-06	1.2024e-06	293.75	123.02	68.476	37.439	1.4146e-06	61.153	-81.365	-60.693	-55.688	-134.318	16.408	-19.053	-135.486	-128.627	5.100	-25.941	-131.691	-127.212	-124.594	-119.018	-31.391	-122.914	-8191	255	
2386.597	1	1	0	0	0.25973	0.059127	0.043909	0.14936	0.28077	0.24041	0.36289	0.20178	0.16313	0.021262	0.3435	0.22612	0.18904	0.13608	0.16914	0.2208	-2.6021	-2.5958	-2.8792	-2.8917	-2.6625	-3.1146	-2.7062	-2.85	-3	-2.7542	-3.0896	-2.9396	-2.8708	-3.0667	-2.8458	-2.8104	195.923	-39.486	107.556	-72.465	139.640	36.286	160.185	167.133	-60.863	-63.386	-133.567	-132.203	10.576	-122.164	-51.219	21.368	0.00050784	0.00024402	0.00011154	378.53	1.6983e-06	3.2918e-06	680.58	169.16	6.1614e-06	4.4315e-06	320.25	133.05	73.44	40.075	1.619e-06	67.106	0.00012896	0.00010901	3.6335e-05	364.01	1.2851e-06	1.1954e-06	643.94	160.7	1.2735e-06	1.196e-06	293.59	122.89	67.659	37.263	1.493e-06	61.009	-81.065	-59.419	-59.945	-134.306	-11.149	-49.169	-135.513	-128.633	61.112	33.291	-131.713	-127.317	-123.929	-119.062	-28.725	-122.995	-8191	255	
2386.718	1	1	0	0	0.17306	0.22052	0.099824	0.14471	0.32372	0.12539	0.093668	0.024584	0.13111	0.38065	0.056775	0.21138	0.12485	0.19041	0.17593	0.018957	-2.6958	-2.5	-3.0375	-2.8521	-2.6542	-3.1562	-2.7875	-2.7062	-3.2271	-2.625	-3.1875	-2.9479	-2.7188	-2.975	-2.8375	-2.75	65.853	18.271	-86.409	141.012	-10.874	168.730	166.469	58.850	-113.585	163.459	-104.482	132.284	-134.414	155.880	34.989	78.067	0.00048747	0.00014799	5.3167e-05	379.97	5.187e-06	4.1294e-07	680.42	167.37	3.6456e-06	1.268e-06	320.18	132.33	73.125	40.016	3.2354e-06	67.17	0.00012318	0.00011353	3.7914e-05	362.88	1.2491e-06	1.2643e-06	641.62	159.23	1.2255e-06	1.3038e-06	293.18	122.24	67.208	37.178	1.488e-06	60.813	-80.450	-116.290	-12.389	-134.372	18.149	-145.878	-135.403	-128.907	-2.034	148.791	-131.753	-127.091	-124.389	-119.046	-66.794	-122.901	-8191	255	
2386.814	1	1	0	0	0.20441	0.18906	0.044064	0.22824	0.19098	0.093643	0.11227	0.032956	0.12881	0.097972	0.20288	0.087079	0.077346	0.086841	0.19956	0.074584	-2.6188	-2.5687	-2.7708	-2.9854	-2.6521	-3.0312	-2.8896	-2.6542	-3.2167	-2.6521	-2.8312	-3.2292	-2.8	-3.1354	-2.7562	-2.7313	21.201	-141.544	-91.305	78.907	-122.658	-2.737	80.471	181.643	40.097	14.621	-70.491	152.061	-138.500	-49.083	5.716	-86.170	0.00052327	0.00020559	8.3644e-05	378.44	3.8018e-06	5.4146e-07	680.39	167.53	5.5296e-06	3.0165e-06	316.88	131.16	72.321	39.483	4.084e-06	65.975	0.00011834	0.00012253	3.7673e-05	362.16	1.1959e-06	1.3802e-06	641.42	158.67	1.1859e-06	1.416e-06	289.67	120.59	66.586	36.743	1.4411e-06	59.89	-86.794	200.084	-61.124	-134.342	64.932	48.459	-135.334	-128.736	18.086	-13.520	-131.582	-127.312	-123.781	-119.166	-39.208	-122.757	-8191	255	
2386.910	1	1	0	0	0.10634	0.11696	0.029544	0.21908	0.082423	0.18268	0.29147	0.094527	0.17428	0.23066	0.23942	0.30514	0.25566	0.13075	0.14439	0.1132	-2.8208	-2.7292	-2.8021	-2.9333	-2.7458	-2.9771	-3.0917	-2.5687	-2.9146	-2.9729	-2.6542	-3.1479	-2.7812	-2.9771	-3.05	-2.6312	-90.544	-37.483	141.331	156.516	-105.904	23.534	178.500	92.195	117.295	21.748	123.093	191.085	125.312	-123.617	78.544	170.495	0.00048368	0.00046666	9.8285e-05	376.52	2.9537e-06	4.8691e-06	676.76	165.47	2.0315e-06	1.7645e-06	316.97	130.9	72.725	39.793	3.1745e-06	66.28	0.00012058	0.00013604	3.6474e-05	360.78	1.2149e-06	1.4935e-06	638.94	157.44	1.2506e-06	1.5095e-06	289.3	120.56	67.056	37.048	1.3761e-06	60.067	-88.608	-78.129	-7.497	-134.230	-60.918	1.212	-135.251	-128.780	-67.723	5.514	-131.901	-127.308	-124.104	-119.156	38.292	-123.017	-8191	255	
2387.006	1	1	0	0	0.16904	0.17634	0.20265	0.20418	0.098887	0.13653	0.13347	0.11848	0.10419	0.039653	0.10535	0.21889	0.23618	0.21569	0.12825	0.24047	-2.5667	-2.6229	-2.8292	-2.9917	-2.8688	-2.8896	-3.1396	-2.7271	-3.0667	-2.8833	-2.9083	-3.0979	-2.5833	-2.9958	-2.85	-2.7188	-44.748	78.503	137.617	170.092	70.272	-144.114	-116.035	-72.992	-99.846	89.755	75.473	-139.310	-137.853	-124.978	-14.845	160.877	0.0004858	0.00015358	0.00016751	379.5	1.2887e-06	1.7487e-06	679.92	166.85	3.1868e-06	9.393e-07	318.42	130.73	72.601	39.715	2.6535e-06	66.516	0.00012782	0.00014076	3.4611e-05	362.59	1.3444e-06	1.5189e-06	641.01	158.42	1.3731e-06	1.5005e-06	289.63	120.64	67.195	37.02	1.3358e-06	60.143	-84.380	-59.723	4.332	-134.416	-143.716	-59.010	-135.686	-128.887	-4.834	-25.145	-131.739	-127.260	-124.236	-118.957	22.657	-123.053	-8191	255	
2387.103	1	1	0	0	0.16273	0.11368	0.13514	0.29017	0.20079	0.13285	0.21002	0.18374	0.20483	0.10152	0.11107	0.17733	0.13667	0.23529	0.19503	0.15418	-2.6771	-2.7188	-2.6292	-3.05	-2.8417	-3.0875	-3.1479	-2.5104	-3.0417	-3.0312	-2.7146	-3.0438	-2.6667	-2.7812	-3.1229	-2.7125	132.379	-16.214	-79.113	176.405	162.277	-61.069	-72.146	166.175	60.936	5.672	-71.155	191.742	23.404	179.696	-38.500	-134.513	0.00055773	0.00023054	4.7549e-05	381.06	1.4489e-06	2.4841e-06	677.57	167.92	3.589e-06	6.3718e-06	319.47	131.93	72.936	39.804	4.9453e-06	66.421	0.0001402	0.00013422	3.3089e-05	362.41	1.4292e-06	1.4422e-06	640.5	158.52	1.46e-06	1.4319e-06	290.27	121.39	67.527	37.066	1.261e-06	60.239	-82.214	-86.634	-85.951	-134.159	86.003	7.697	-135.814	-128.652	-18.427	25.499	-131.700	-127.395	-124.511	-118.964	14.271	-122.995	-8191	255	
2387.199	1	1	0	0	0.12334	0.059741	0.024497	0.16569	0.084158	0.14063	0.12655	0.25336	0.052636	0.18073	0.058178	0.10739	0.086369	0.22288	0.16292	0.07183	-2.6333	-2.75	-2.6042	-3.0208	-2.775	-2.8312	-3.2208	-2.8812	-2.8958	-3.1146	-2.6813	-2.9958	-2.7521	-2.8875	-3.1833	-2.8146	-23.023	-57.453	144.151	117.233	-134.099	40.541	-91.124	145.418	121.548	-30.131	154.934	-127.094	168.028	-112.377	23.180	139.244	0.00048865	0.00055243	8.4497e-05	382.23	2.6921e-06	5.1791e-06	685.03	168.41	2.7547e-06	4.6947e-06	320.1	131.17	72.587	39.223	4.3441e-06	65.953	0.00014518	0.00012653	3.1838e-05	364.41	1.4888e-06	1.3603e-06	642.22	159.2	1.5102e-06	1.3522e-06	290.13	121.15	67.006	36.599	1.2275e-06	59.736	-85.600	-63.855	49.102	-134.270	97.202	-37.058	-135.743	-128.743	-26.523	23.867	-131.164	-127.431	-124.496	-118.952	-13.841	-123.115	-8191	255	
2387.295	1	1	0	0	0.20553	0.16823	0.041993	0.17189	0.16139	0.10556	0.17408	0.13528	0.3175	0.10701	0.14	0.059265	0.14716	0.24521	0.13962	0.16176	-2.3917	-2.9417	-2.6917	-3.0938	-2.8375	-2.7771	-3.2	-2.7313	-2.7958	-3.1729	-2.7146	-3.0792	-2.8667	-2.7667	-3.0187	-2.9583	-121.319	138.043	-78.231	132.142	-28.339	-10.095	148.407	-108.768	63.317	-64.368	129.134	-129.545	118.733	187.629	174.312	154.355	0.00046842	0.00010334	0.00012391	377.16	3.147e-06	3.7447e-06	675.62	165.24	6.3201e-06	4.6057e-06	314.38	129.93	72.263	39.169	3.3742e-06	65.686	0.00014593	0.00011937	3.0449e-05	362.34	1.4666e-06	1.2998e-06	636.74	157.03	1.4661e-06	1.2909e-06	285.91	120.06	66.925	36.416	1.2251e-06	59.547	-78.659	-97.632	-36.117	-134.539	-16.660	1.515	-135.515	-129.026	4.288	60.511	-131.851	-127.008	-124.119	-119.088	-11.686	-122.950	-8191	255	
2387.391	1	1	0	0	0.14265	0.18521	0.17797	0.12889	0.15669	0.097543	0.21837	0.089114	0.18321	0.071209	0.33747	0.33741	0.049299	0.1902	0.097367	0.37315	-2.4104	-2.9792	-2.6063	-2.9792	-2.8708	-2.7354	-3.1583	-2.8979	-2.8208	-3.1583	-2.7146	-2.9042	-2.7875	-2.65	-3.1125	-2.9562	124.293	9.516	103.672	197.274	-27.978	2.672	-103.866	148.430	31.626	-74.389	183.697	153.280	97.083	183.569	-114.498	-124.517	0.00051325	0.00025729	0.00010349	380.27	4.2716e-06	1.6272e-06	681.62	166.55	2.6802e-06	4.4685e-06	317.71	131.77	73.096	39.674	2.4745e-06	66.328	0.00013994	0.00011798	3.1332e-05	366.89	1.4107e-06	1.2697e-06	642.79	159.2	1.3989e-06	1.2768e-06	289.36	121.63	67.391	36.885	1.294e-06	60.2	-83.496	-73.095	-4.600	-134.070	31.976	42.479	-135.496	-128.923	88.410	10.566	-131.689	-127.234	-124.390	-119.286	-96.531	-123.065	-8191	255	
2387.510	1	1	0	0	0.15443	0.15609	0.10341	0.2729	0.13514	0.083373	0.028354	0.19496	0.1504	0.072511	0.071545	0.26516	0.13688	0.12133	0.06527	0.18703	-2.275	-3.0021	-2.4688	-2.9042	-2.7833	-2.7375	-3.1042	-2.9021	-2.7562	-3.0958	-2.775	-2.9708	-3.1625	-2.8333	-3.1896	-3.0208	26.734	107.380	107.067	212.022	-118.436	57.331	16.195	212.074	119.259	30.928	110.419	76.769	209.226	-96.237	-35.914	108.140	0.00049202	0.00027447	8.6295e-05	384.07	5.3949e-06	2.8472e-06	685.43	168.08	2.9861e-06	3.8339e-06	319.06	131.19	73.125	39.556	2.0866e-06	66.029	0.00013391	0.00011314	3.3659e-05	369.23	1.3538e-06	1.2309e-06	645.02	160.08	1.3195e-06	1.2228e-06	290.56	121.48	66.858	36.734	1.4047e-06	60.139	-80.730	-111.329	-16.432	-134.205	-6.423	6.814	-135.328	-128.960	18.165	-1.239	-131.862	-127.130	-124.112	-119.081	-38.010	-122.918	-8191	255	
2387.606	1	1	0	0	0.11789	0.22414	0.12769	0.14807	0.072744	0.068318	0.16244	0.056821	0.14955	0.042729	0.35116	0.078907	0.15988	0.34965	0.20485	0.3312	-2.3292	-3.1375	-3.1312	-2.7896	-3.1042	-2.6896	-3.0083	-2.9562	-2.5792	-3.2375	-2.6667	-3.1875	-3.0625	-2.8042	-3.1	-2.8958	46.808	-29.713	203.132	-78.817	-62.857	206.628	-103.613	-42.614	-19.307	46.491	78.331	-141.577	72.943	-11.182	184.382	143.557	0.00053131	0.00033879	4.6098e-05	381.01	3.0659e-06	9.4981e-07	685.5	168.08	3.1739e-06	1.9561e-06	319.12	131.9	72.912	39.472	3.0662e-06	66.175	0.00013032	0.00010912	3.6102e-05	367.74	1.2805e-06	1.2295e-06	646.6	159.85	1.2846e-06	1.2288e-06	292.09	121.7	66.941	36.764	1.5113e-06	60.203	-87.371	-84.059	-95.042	-134.271	42.088	-14.298	-135.617	-129.003	38.629	121.109	-131.803	-127.171	-124.086	-119.018	31.944	-122.947	-8191	255	
2387.680	1	1	0	0	0.091712	0.1882	0.20743	0.10755	0.094948	0.083499	0.11728	0.14499	0.12598	0.23131	0.28745	0.20759	0.14321	0.13023	0.36176	0.19141	-2.2188	-3.1437	-2.7542	-2.9979	-3.0563	-2.7083	-3.0167	-3.15	-2.6667	-3.1937	-2.8646	-2.9292	-3.1292	-2.975	-2.9896	-3.2729	-53.268	-126.937	145.380	212.485	81.369	37.975	184.449	176.882	-114.805	179.027	211.502	175.459	-71.286	106.407	-91.554	129.451	0.00053394	0.00032695	4.9239e-05	381.1	3.8809e-06	3.4502e-06	678.73	166.94	3.1574e-06	9.6877e-07	315.41	130.11	71.255	39.144	4.9969e-06	65.497	0.00012532	0.00011335	3.8273e-05	365.89	1.2291e-06	1.2597e-06	642.31	158.29	1.2341e-06	1.2881e-06	289.36	120.15	65.792	36.446	1.5198e-06	59.541	-79.772	-63.695	-14.247	-134.470	27.689	-76.727	-135.514	-128.777	-1.374	-118.438	-131.691	-127.147	-124.107	-119.155	18.391	-123.124	-8191	255	
2387.798	1	1	0	0	0.10927	0.079241	0.19523	0.24725	0.26159	0.18709	0.26911	0.11993	0.062987	0.31825	0.10561	0.076722	0.19675	0.32198	0.21681	0.046798	-2.2583	-2.9458	-2.7438	-2.6604	-3.2375	-2.7875	-2.8875	-3.0792	-2.6083	-3.0375	-3.0125	-2.8458	-2.8646	-2.8542	-2.8708	-3.2812	-49.342	191.650	9.082	-111.979	136.511	190.855	201.334	-80.213	143.387	153.205	122.195	122.745	-62.430	174.031	210.381	207.215	0.00054937	0.00028486	0.00017537	379.69	1.9181e-06	2.1958e-06	681.05	167.15	1.0594e-06	1.5347e-06	318.76	131.33	72.091	39.506	2.9761e-06	65.996	0.00012204	0.00012331	3.8038e-05	365.03	1.2099e-06	1.3953e-06	644.09	158.61	1.2242e-06	1.4353e-06	290.96	121.17	66.375	36.862	1.4623e-06	59.78	-80.147	-47.949	-65.392	-134.369	5.155	-145.295	-135.706	-128.986	84.573	117.958	-131.800	-127.173	-124.285	-118.956	2.541	-123.019	-8191	255	
2387.895	1	1	0	0	0.2664	0.079488	0.14571	0.21481	0.28991	0.27561	0.082669	0.20646	0.10182	0.18103	0.13131	0.088946	0.092383	0.12186	0.12591	0.17352	-2.3563	-2.9667	-2.9854	-2.6729	-3.0042	-2.7104	-2.8312	-2.9792	-2.6729	-2.8917	-3.0979	-2.7812	-3.2438	-2.9854	-2.6917	-3.1437	97.183	66.439	66.660	-18.522	37.550	-17.241	-141.827	170.628	31.812	-66.253	-25.391	204.511	-91.562	145.610	-59.901	139.817	0.00049791	0.00031623	8.0815e-05	383.46	3.8155e-06	2.6718e-06	685.75	168.68	5.8692e-06	3.8165e-06	321.19	132.41	72.773	39.768	2.2427e-06	66.106	0.00012247	0.00013328	3.6901e-05	366.84	1.2279e-06	1.5117e-06	646.34	159.96	1.2592e-06	1.5147e-06	293.05	122.04	66.956	37.104	1.3845e-06	59.956	-87.260	-108.471	-55.580	-134.148	-6.159	-14.248	-135.499	-128.733	16.645	36.288	-131.700	-127.287	-124.074	-119.095	33.723	-122.703	-8191	255	
2387.991	1	1	0	0	0.16164	0.19218	0.18657	0.2104	0.11088	0.10622	0.23254	0.20112	0.24272	0.10008	0.2115	0.32295	0.47059	0.30491	0.037608	0.12516	-2.1792	-2.8417	-3.1521	-2.5458	-3.1479	-2.9688	-2.7917	-3.2458	-2.5646	-3.0646	-3.175	-2.7417	-3.0333	-3.1646	-2.7167	-3.2458	-50.292	177.052	49.625	177.146	-64.814	-113.579	-105.305	-128.728	-93.216	93.642	141.158	-121.504	-115.409	-146.350	170.039	166.749	0.00057957	9.6317e-05	0.00011873	380.19	1.066e-06	6.5267e-06	683.78	167.81	4.4159e-06	2.7875e-06	318.26	131.91	72.821	39.623	3.7647e-06	66.174	0.00012756	0.00013859	3.4783e-05	365.22	1.3126e-06	1.5219e-06	644.48	159.02	1.3467e-06	1.5048e-06	290.46	121.23	67.09	36.909	1.3354e-06	59.923	-88.007	-56.944	7.901	-134.179	-96.178	-39.418	-135.425	-128.756	-41.738	15.006	-131.754	-127.193	-124.433	-119.125	23.179	-123.111	-8191	255	
2388.087	1	1	0	0	0.23503	0.16323	0.18086	0.1337	0.11781	0.10794	0.064147	0.23694	0.20285	0.073962	0.11769	0.26892	0.18174	0.030257	0.11304	0.26	-2.2104	-2.8833	-2.8729	-2.6208	-3.0604	-3.125	-2.6208	-3.3	-2.6875	-2.8354	-3.0812	-2.8083	-3.0292	-2.7687	-2.6833	-3.0312	-4.379	83.239	-25.291	139.299	180.448	130.643	103.653	158.929	-4.468	-18.749	88.804	158.936	-72.789	-131.670	127.646	161.753	0.00052004	0.00024761	0.0001103	382.26	9.8936e-07	6.176e-06	683.48	167.95	4.2985e-06	5.1904e-06	319.79	130.39	71.934	39.104	6.415e-06	65.255	0.00013869	0.00013579	3.3236e-05	365.91	1.4345e-06	1.4609e-06	644.09	158.8	1.4611e-06	1.433e-06	289.28	120.23	66.75	36.528	1.2815e-06	59.077	-85.751	-126.501	-19.456	-134.270	-129.105	17.900	-135.732	-128.696	31.437	8.020	-131.583	-127.330	-124.447	-119.373	0.072	-122.924	-8191	255	
2388.208	1	1	0	0	0.19269	0.16103	0.21579	0.16506	0.13209	0.22537	0.21725	0.0072948	0.099807	0.074474	0.16812	0.32408	0.011492	0.1355	0.17731	0.16334	-2.3958	-2.725	-3.0667	-2.8333	-2.9521	-2.7938	-2.7562	-3.1083	-2.7646	-2.9708	-3.025	-2.7833	-2.9167	-3.125	-2.5104	-3.4813	-74.573	47.676	-64.523	194.651	83.877	42.381	-131.453	86.400	-139.324	-72.826	201.803	-108.807	154.717	17.985	45.374	154.832	0.00054918	0.00026568	0.00011549	380.64	2.6297e-06	2.7171e-06	683.16	167.02	2.0508e-06	3.8818e-06	315.32	129.82	72.644	39.091	3.0205e-06	65.069	0.00014631	0.00012605	3.1667e-05	363.86	1.5037e-06	1.3646e-06	641.32	157.68	1.5097e-06	1.3692e-06	286.85	119.72	67.304	36.353	1.2492e-06	59.16	-85.600	-121.867	-40.078	-134.111	-3.073	-29.832	-135.880	-129.110	8.203	64.980	-131.971	-127.492	-124.344	-119.025	0.571	-122.863	-8191	255	
2388.304	1	1	0	0	0.13221	0.13578	0.038449	0.1362	0.093257	0.27777	0.092668	0.12031	0.22891	0.15363	0.091462	0.23137	0.17088	0.085703	0.229	0.28645	-2.4396	-2.6229	-3.1083	-2.675	-2.7062	-2.9021	-2.7479	-3.1417	-2.9271	-2.6042	-3.2562	-2.4979	-2.8729	-3.1375	-2.6833	-3.1604	-49.279	-12.224	87.132	116.146	-76.021	94.132	63.357	55.733	102.112	123.150	20.744	175.833	164.676	-80.763	124.957	-136.411	0.00047771	0.00049346	0.0001682	381.73	4.539e-06	5.2696e-06	683.46	168.78	1.7416e-06	4.5024e-06	318.92	131.23	72.949	39.639	3.3308e-06	65.988	0.00014711	0.00012246	3.1287e-05	366.4	1.5104e-06	1.3293e-06	644.09	160.01	1.4941e-06	1.3144e-06	289.88	121.43	67.57	36.966	1.2342e-06	59.967	-76.638	-117.092	-59.545	-134.494	21.138	13.952	-135.568	-129.102	61.052	6.621	-131.693	-127.360	-124.281	-119.075	-3.671	-122.674	-8191	255	
2388.400	1	1	0	0	0.26499	0.037129	0.13903	0.21812	0.14639	0.25015	0.067139	0.20581	0.19429	0.25838	0.17458	0.26929	0.10995	0.069486	0.23165	0.18079	-2.4625	-2.5771	-2.9167	-2.675	-2.9625	-2.8958	-2.6646	-3.0354	-3.0146	-2.6271	-3.1125	-2.8083	-2.7833	-3.1667	-2.7542	-3.0354	56.855	71.493	-26.250	150.934	159.224	-37.234	60.339	102.204	-60.717	77.609	206.128	174.687	-14.952	73.398	149.851	-110.863	0.00048652	0.00052319	7.9129e-05	383.39	4.5916e-06	3.1869e-06	689.38	167.41	5.6467e-06	4.3522e-06	318.83	130.24	72.916	39.601	2.5942e-06	65.678	0.00014266	0.00011876	3.1281e-05	368.99	1.4314e-06	1.2767e-06	646.75	160.04	1.4127e-06	1.2825e-06	289.33	121.07	67.159	36.693	1.2967e-06	59.76	-84.454	-77.911	-77.483	-134.353	17.018	61.070	-135.710	-128.948	18.489	0.786	-131.720	-127.323	-124.360	-119.136	-69.992	-122.934	-8191	255	
2388.496	1	1	0	0	0.17589	0.21996	0.097893	0.35512	0.24013	0.13637	0.31106	0.15815	0.015823	0.21245	0.20664	0.23312	0.0825	0.20266	0.26673	0.16679	-2.6375	-2.3917	-3.0333	-2.9271	-2.7771	-3.0146	-2.8417	-2.7083	-3.1458	-2.8	-3.1792	-2.9354	-2.8708	-3.3875	-2.7104	-3.1229	-26.051	-95.575	-17.694	191.906	18.509	-117.884	109.383	110.832	180.417	-13.232	205.279	154.937	65.547	-126.488	44.335	-127.615	0.000473	7.7316e-05	5.7455e-05	384.15	2.2181e-06	4.8018e-06	685.84	167.56	3.8276e-06	5.1505e-06	319.54	130.55	73.089	39.433	4.0539e-06	65.81	0.00013469	0.00011277	3.3345e-05	369.74	1.3618e-06	1.2474e-06	646.77	159.98	1.3328e-06	1.2301e-06	290.36	120.92	67.311	36.595	1.4263e-06	59.669	-83.322	-71.813	-99.274	-134.343	36.467	-0.496	-135.967	-129.017	56.134	-13.450	-131.873	-127.354	-124.286	-119.077	-111.135	-122.942	-8191	255	
2388.590	1	1	0	0	0.04318	0.15756	0.036496	0.10061	0.37731	0.11182	0.15003	0.099415	0.15875	0.086001	0.12983	0.26862	0.10116	0.18215	0.03126	0.18726	-2.7	-2.6125	-3.0042	-3.0563	-2.7188	-3.275	-2.6208	-2.975	-2.9333	-2.575	-3.1083	-2.8958	-2.7313	-3.1667	-2.75	-2.7417	193.873	-93.855	-85.123	-115.003	52.641	14.817	114.091	26.137	-88.361	-144.057	-134.478	189.631	-28.030	-138.948	-110.633	151.745	0.00045387	0.00013318	5.7987e-05	378.35	1.2004e-06	3.2909e-06	681.41	164.6	5.8824e-06	3.3676e-06	314.14	128.97	72.205	38.816	4.0085e-06	64.878	0.000131	0.00011185	3.6863e-05	365.18	1.3066e-06	1.2085e-06	642.39	156.76	1.3044e-06	1.2464e-06	286.58	119.24	66.311	36.036	1.5316e-06	58.979	-80.579	-122.393	-28.476	-134.399	33.245	-77.947	-135.699	-128.812	37.017	45.657	-131.661	-127.298	-124.408	-119.014	-7.880	-122.868	-8191	255	
2388.687	1	1	0	0	0.03842	0.13061	0.14803	0.10554	0.2009	0.25824	0.13088	0.089452	0.037148	0.058291	0.19449	0.18869	0.13085	0.27144	0.067717	0.2566	-2.7292	-2.7979	-2.9562	-2.9125	-2.7938	-3.2146	-3.0938	-2.8	-3.0458	-2.6562	-3.0187	-2.8625	-2.6437	-3.0833	-2.7792	-2.7833	76.593	64.365	-71.804	-88.174	55.088	-58.859	82.113	54.111	28.258	-91.176	83.643	163.422	21.921	-88.826	-99.712	197.610	0.00044616	0.00021842	0.00012427	381.99	3.8384e-06	9.8855e-07	683.11	167.16	1.8563e-06	4.314e-06	317.6	130.37	73.208	39.408	2.2025e-06	65.745	0.00012764	0.00011511	3.8882e-05	365.71	1.2947e-06	1.2935e-06	646.38	158.56	1.2817e-06	1.3276e-06	290.23	120.35	67.267	36.742	1.5656e-06	59.661	-83.493	-87.343	-33.359	-134.343	-15.660	-115.998	-135.552	-128.889	-8.717	-72.052	-131.791	-127.407	-124.127	-119.217	2.514	-122.928	-8191	255	
2388.807	1	1	0	0	0.2317	0.1166	0.16312	0.18184	0.16724	0.17901	0.19082	0.080768	0.26426	0.1852	0.223	0.097655	0.064704	0.14165	0.070602	0.17878	-2.5667	-2.6771	-2.9354	-2.9917	-2.5792	-2.9625	-2.9271	-2.6437	-2.9979	-2.8937	-2.8875	-3.0792	-2.6229	-3.1188	-2.9792	-2.5875	-141.228	194.151	104.186	-48.613	121.002	-108.216	142.187	151.601	77.601	18.641	187.121	-25.094	162.436	-68.653	149.704	180.178	0.00057208	0.00019562	0.00010203	382.42	1.2781e-06	2.7673e-06	688.66	168.28	3.0508e-06	8.9865e-07	318.98	131.06	73.989	39.62	4.782e-06	65.844	0.00012415	0.00012675	3.9176e-05	367.67	1.2592e-06	1.4285e-06	650.52	159.89	1.2433e-06	1.4348e-06	291.53	120.92	67.981	36.97	1.5014e-06	59.711	-83.049	184.408	35.295	-134.102	5.743	59.555	-135.639	-128.948	-8.782	207.263	-131.648	-127.289	-124.247	-119.316	-5.959	-122.886	-8191	255	
2388.903	1	1	0	0	0.32738	0.21707	0.034811	0.046869	0.16503	0.18157	0.18109	0.14755	0.19449	0.11751	0.23265	0.10685	0.3851	0.073065	0.21807	0.39557	-2.5042	-2.7	-2.7062	-2.8146	-2.5875	-3.0583	-2.9396	-2.5604	-3.1292	-2.6896	-2.5958	-3.1854	-2.5479	-2.8	-2.8896	-2.6583	-14.638	30.452	-88.734	195.960	-33.867	107.893	62.930	-103.302	-93.455	27.762	83.279	185.734	-81.489	191.940	138.955	167.067	0.00050418	0.00015365	0.00012793	381.97	2.6189e-06	2.4521e-06	687.82	168.31	2.7155e-06	3.1162e-06	320.72	130.57	74.619	39.777	3.7353e-06	65.93	0.0001232	0.00013806	3.7382e-05	367.28	1.2513e-06	1.5257e-06	649.41	159.46	1.2631e-06	1.5475e-06	291.46	120.85	68.226	37.133	1.4377e-06	59.817	-81.301	4.379	-24.776	-134.223	-14.069	-73.337	-135.795	-128.949	72.414	36.610	-131.720	-127.481	-124.486	-119.089	-2.680	-122.928	-8191	255	
2388.975	1	1	0	0	0.068898	0.10443	0.19017	0.043902	0.15109	0.1951	0.19671	0.17806	0.14326	0.063985	0.099337	0.39122	0.10957	0.1694	0.28109	0.068342	-2.4562	-2.5646	-2.7729	-3.1917	-2.5187	-2.8354	-3.0979	-2.6104	-3.1063	-2.8	-2.8042	-3.2167	-2.5854	-2.7958	-2.8646	-2.5187	114.313	-91.305	-39.130	-90.243	187.457	134.402	177.532	-84.772	15.167	-86.052	204.082	110.401	-118.797	-118.962	38.349	164.667	0.000517	0.00024179	6.2654e-05	384.61	1.1387e-06	1.8411e-06	688.39	167.51	2.4721e-06	5.6808e-06	316.69	129.72	73.078	39.318	2.5776e-06	64.905	0.00013035	0.00014139	3.5606e-05	366.9	1.3317e-06	1.5565e-06	648.52	158.68	1.3512e-06	1.5361e-06	288.85	119.74	67.633	36.606	1.3753e-06	58.887	-87.317	-99.662	21.055	-134.159	196.671	-62.486	-135.600	-129.148	8.214	16.196	-132.074	-127.300	-124.402	-119.307	-76.451	-123.149	-8191	255	
2389.071	1	1	0	0	0.25857	0.24551	0.15332	0.19576	0.0086914	0.25677	0.069976	0.16788	0.27537	0.14628	0.12066	0.21684	0.081245	0.11506	0.070168	0.16195	-2.4938	-2.8896	-2.4188	-3.1521	-2.5604	-2.8292	-3.1854	-2.7667	-2.9375	-2.7812	-2.7083	-3.1312	-2.7354	-3.05	-3.1167	-2.7979	-116.653	-96.693	-72.793	-143.345	78.198	110.044	116.578	98.515	73.581	89.478	-134.019	128.901	142.435	172.113	-62.822	151.868	0.00051755	0.00060685	9.0885e-05	382.16	2.153e-06	4.6159e-06	686.22	167.08	1.6225e-06	4.5738e-06	316.47	130.15	73.837	39.574	2.0985e-06	65.226	0.00013878	0.00013831	3.4436e-05	364.76	1.47e-06	1.4978e-06	647.36	158.43	1.4955e-06	1.4843e-06	289.1	120.05	68.53	36.906	1.3347e-06	59.181	-90.102	-70.909	17.086	-134.427	-36.647	-17.140	-135.518	-128.815	68.879	0.910	-131.630	-127.383	-124.397	-119.276	17.917	-123.192	-8191	255	
2389.192	1	1	0	0	0.20368	0.039815	0.18916	0.050997	0.21737	0.14848	0.1193	0.19277	0.060557	0.19353	0.26029	0.12355	0.13732	0.023451	0.078692	0.04836	-2.3937	-2.7458	-2.6583	-2.9208	-2.6562	-2.85	-3.2646	-2.6292	-2.8583	-3.0708	-2.4708	-3.0646	-2.9083	-2.8083	-3.0292	-2.7896	-85.460	11.694	43.256	47.822	58.617	95.802	69.253	-29.060	189.908	-90.472	205.744	-132.259	-27.811	43.977	-88.207	110.876	0.00042661	0.00050945	0.00015666	385.21	1.8769e-06	6.5893e-06	692.78	167.98	5.1211e-06	3.5172e-06	318.59	131.42	74.973	39.992	1.4298e-06	66.11	0.00014969	0.00013263	3.3535e-05	368.29	1.5758e-06	1.44e-06	652.09	160.12	1.5808e-06	1.4217e-06	290.7	121.07	69.651	37.266	1.2933e-06	59.92	-89.754	-76.061	-24.839	-134.391	-41.521	-2.161	-135.852	-129.077	11.750	1.788	-131.570	-127.291	-124.344	-119.114	-28.385	-122.953	-8191	255	
2389.288	1	1	0	0	0.13838	0.10622	0.36748	0.17271	0.094674	0.10213	0.083391	0.11232	0.21454	0.11945	0.12273	0.093915	0.078732	0.13213	0.35709	0.12616	-2.4229	-2.9792	-2.5396	-3.1208	-2.7292	-2.6646	-3.1396	-2.875	-2.8521	-3.2562	-2.7875	-3.0229	-2.7479	-2.7917	-3.0208	-2.8229	-82.666	-18.854	54.439	146.849	-85.686	6.041	131.497	182.211	-143.077	157.855	-138.956	-88.369	180.388	149.475	-29.027	189.405	0.00045073	0.00029662	4.0839e-05	384.88	3.433e-06	5.121e-06	692.02	169.24	1.346e-06	2.4639e-06	320.06	130.68	74.702	39.762	1.1887e-06	65.956	0.00015408	0.0001277	3.2665e-05	369.86	1.5756e-06	1.4006e-06	651.72	160.63	1.5784e-06	1.3777e-06	290.06	120.91	69.192	36.991	1.2789e-06	59.901	-82.840	-88.787	-82.540	-134.560	8.548	-29.037	-135.495	-129.194	60.077	15.297	-131.770	-127.286	-124.122	-119.262	-78.659	-123.029	-8191	255	
2389.384	1	1	0	0	0.26655	0.14751	0.22393	0.24508	0.073905	0.058984	0.068579	0.067001	0.21613	0.12176	0.30639	0.30399	0.11072	0.1944	0.094861	0.36098	-2.4521	-2.9958	-2.4354	-3.0729	-3.0187	-2.5833	-3.2083	-2.9146	-2.7313	-2.9354	-2.6396	-3.1333	-2.9021	-2.7625	-2.9729	-2.9458	19.342	170.467	-37.801	51.148	68.812	148.430	74.031	120.505	172.642	36.477	121.611	161.013	208.047	98.407	18.824	183.176	0.00048605	0.00043647	6.3477e-05	383.32	1.8244e-06	4.4723e-06	692.23	168.5	4.4011e-06	3.2767e-06	317.39	130.26	73.702	39.496	2.4625e-06	65.09	0.00015081	0.00012483	3.2268e-05	370.76	1.5184e-06	1.3766e-06	653.15	160.46	1.5138e-06	1.3529e-06	289.09	120.78	68.48	36.643	1.3598e-06	59.36	-82.734	-85.673	-85.094	-134.461	51.997	-6.064	-135.696	-128.880	7.911	78.353	-131.686	-127.238	-124.214	-119.152	1.105	-122.977	-8191	255	
2389.480	1	1	0	0	0.10554	0.13461	0.037042	0.10781	0.23859	0.23924	0.21154	0.074075	0.19512	0.17306	0.24161	0.071589	0.26266	0.15281	0.079094	0.13984	-2.1437	-2.9	-2.6333	-2.9521	-2.8125	-2.4458	-3.0708	-2.7646	-2.7417	-3.1562	-2.7271	-3.0812	-3.0167	-2.4229	-3.0938	-3.0458	3.460	176.200	-60.061	131.650	11.198	-135.762	46.433	-63.163	-112.168	-137.666	187.170	87.664	-136.220	147.029	2.889	192.005	0.00049799	0.00036465	0.00010291	380.68	3.77e-06	8.4679e-07	688.7	165.45	4.7182e-06	1.6209e-06	314.86	128.54	74.068	39.249	4.2927e-06	65.119	0.00014519	0.00012234	3.4988e-05	367.88	1.4378e-06	1.3251e-06	648.72	157.8	1.4318e-06	1.2991e-06	286.97	119.42	68.185	36.518	1.4712e-06	59.181	-80.604	-33.514	23.931	-134.775	38.495	-108.784	-135.674	-129.057	27.319	-11.475	-131.875	-127.248	-124.237	-119.081	-36.617	-122.628	-8191	255	
2389.599	1	1	0	0	0.32834	0.087824	0.13256	0.11423	0.12688	0.17523	0.070735	0.1531	0.24892	0.23068	0.097018	0.29602	0.21336	0.14421	0.2419	0.039393	-2.4271	-3.0125	-2.6937	-2.7792	-3.0646	-2.5917	-3.1083	-2.8896	-2.5667	-3.0104	-2.5708	-3.0021	-3.0333	-2.6542	-2.95	-3.0812	-129.336	83.335	208.371	-136.903	60.262	-61.527	141.065	88.707	176.252	36.598	69.604	211.770	100.171	178.255	15.337	129.827	0.00048169	0.00039322	9.0679e-05	383.02	1.955e-06	2.8538e-06	691.91	168.04	3.6515e-06	2.3916e-06	317.85	131.17	75.289	39.729	4.1076e-06	65.771	0.00013752	0.00011723	3.8038e-05	369.89	1.3877e-06	1.2984e-06	654.93	160	1.4042e-06	1.2831e-06	291.53	121.3	69.384	37.107	1.5898e-06	59.968	-88.878	-50.802	-65.021	-134.576	-18.294	-34.837	-135.439	-128.950	22.479	41.713	-131.858	-127.367	-124.573	-119.175	-73.283	-123.081	-8191	255	
2389.671	1	1	0	0	0.19016	0.20275	0.17001	0.20544	0.082278	0.21236	0.13305	0.11074	0.26622	0.038484	0.099775	0.16121	0.21715	0.12287	0.19393	0.23413	-2.3	-2.9771	-2.7833	-2.7958	-2.8312	-2.7771	-2.975	-3.0563	-2.425	-3.0771	-2.825	-2.8375	-3.0958	-2.6229	-2.8354	-3.0729	39.985	158.290	28.425	94.512	133.307	132.314	-127.152	-131.074	29.989	153.170	39.865	20.975	-26.026	100.408	57.968	84.898	0.00046379	0.00033243	7.6506e-05	386.25	1.3364e-06	1.5294e-06	696.83	167.74	3.4042e-06	3.6044e-06	317.51	130	74.946	39.583	4.0406e-06	65.777	0.00013341	0.00012153	4.0893e-05	371.43	1.3621e-06	1.3613e-06	659.68	160	1.3384e-06	1.362e-06	291.43	120.82	68.942	36.956	1.6229e-06	59.698	-82.526	199.236	165.211	-134.311	12.989	-133.486	-135.557	-128.981	53.905	7.774	-131.580	-127.288	-124.423	-119.244	-14.926	-123.074	-8191	255	
2389.769	1	1	0	0	0.14493	0.094032	0.25444	0.12818	0.26165	0.20292	0.30752	0.14035	0.20342	0.12769	0.20746	0.097284	0.22882	0.12728	0.12975	0.21088	-2.1729	-2.9083	-2.7687	-2.6042	-3.225	-2.7562	-2.9625	-3.1479	-2.5708	-3.0521	-2.9437	-2.825	-2.9375	-3.0167	-2.7625	-3.1083	28.082	57.704	181.244	-56.314	-95.990	-16.067	132.520	82.340	-27.374	-106.215	179.997	75.377	129.885	-138.378	65.295	122.548	0.00049416	0.00018512	8.7935e-05	383.57	2.8819e-06	2.8034e-06	694.85	167.82	3.059e-06	4.2102e-06	318.29	130.6	75.321	39.733	2.2377e-06	65.485	0.00012847	0.00013004	4.1122e-05	369.81	1.3005e-06	1.4616e-06	657.87	159.45	1.301e-06	1.4917e-06	291.76	120.67	68.853	37.045	1.5833e-06	59.504	-82.548	-64.609	90.578	-134.146	36.381	-47.698	-135.670	-128.683	58.096	-11.493	-131.683	-127.257	-124.227	-119.219	-28.673	-122.933	-8191	255	
2389.888	1	1	0	0	0.046862	0.029291	0.076139	0.12838	0.26301	0.1019	0.1379	0.089944	0.11951	0.10259	0.16025	0.22182	0.077568	0.084093	0.31642	0.34315	-2.1021	-3.0271	-2.9917	-2.4604	-2.9354	-2.6604	-2.8479	-2.9375	-2.7042	-2.9375	-3.0354	-2.7792	-2.9083	-2.9083	-2.6792	-2.9688	-118.412	60.919	0.305	-84.501	55.560	-116.421	112.732	-94.276	60.520	183.098	190.540	163.403	97.415	-88.721	-37.275	102.419	0.00043995	0.00043065	8.3248e-05	381.7	1.7844e-06	5.0691e-06	692.06	164.54	2.6503e-06	1.4454e-06	313.75	128.94	73.503	39.18	3.2525e-06	64.404	0.00012943	0.00014215	3.9569e-05	367.05	1.3134e-06	1.5978e-06	654.57	157	1.3214e-06	1.5961e-06	286.92	119.16	67.775	36.557	1.4866e-06	58.606	-83.719	195.501	-62.121	-134.207	32.444	-7.875	-135.508	-129.079	13.282	-22.303	-131.808	-127.219	-124.712	-119.436	-3.580	-123.098	-8191	255	
2389.984	1	1	0	0	0.15551	0.040032	0.14202	0.08021	0.19158	0.089308	0.069304	0.16161	0.10689	0.27773	0.15772	0.21474	0.2089	0.046624	0.15712	0.11142	-2.175	-2.8833	-2.7438	-2.5521	-3.1292	-2.9042	-2.8979	-3.0604	-2.4708	-2.8896	-2.9333	-2.6729	-2.9354	-2.8792	-2.6375	-3.0187	42.884	193.320	58.953	-15.377	-34.218	60.373	-120.782	-60.552	-95.294	143.726	33.232	171.419	-0.527	-82.506	-52.537	156.589	0.00048216	0.00031273	0.00014809	380.23	2.3874e-06	4.3008e-06	693.92	165.46	2.6631e-06	1.4958e-07	317.82	130.38	74.802	39.871	5.5772e-06	65.733	0.00013337	0.00014785	3.7893e-05	365.15	1.3897e-06	1.6518e-06	653.37	157.44	1.4428e-06	1.6275e-06	289.74	120.33	69.24	37.261	1.4536e-06	59.58	-82.243	-114.111	7.643	-133.988	-73.643	-54.270	-135.801	-128.999	130.672	0.186	-131.612	-127.494	-124.278	-119.151	-8.602	-123.101	-8191	255	
2390.080	1	1	0	0	0.060273	0.11547	0.10731	0.15274	0.13778	0.047265	0.30372	0.22595	0.20678	0.27034	0.12499	0.034405	0.07131	0.32769	0.17972	0.13148	-2.2521	-2.8042	-2.8979	-2.5792	-2.9479	-2.8	-2.6875	-2.9708	-2.675	-2.95	-3.0563	-2.7625	-2.8667	-2.8979	-2.6562	-3.1917	8.578	-59.855	196.446	43.562	1.947	-10.992	-125.985	148.219	69.025	182.558	103.517	-54.664	-89.082	175.675	20.312	176.373	0.00055419	0.00022288	0.0002103	387.49	1.7712e-06	3.5185e-06	700.16	167.43	3.1332e-06	1.6527e-06	320.32	131.51	75.725	40.055	2.8322e-06	65.967	0.00014662	0.00014752	3.6511e-05	369.49	1.5336e-06	1.6068e-06	660.4	159.71	1.5727e-06	1.594e-06	291.53	121.75	70.49	37.523	1.4155e-06	59.856	-89.644	-142.769	9.579	-134.075	116.256	-12.240	-135.697	-128.989	-58.972	-73.537	-131.647	-127.405	-124.086	-119.314	-74.900	-123.069	-8191	255	
2390.200	1	1	0	0	0.14185	0.07486	0.038401	0.095751	0.17214	0.2359	0.20581	0.32275	0.077474	0.20213	0.095913	0.088087	0.20798	0.12457	0.097533	0.17891	-2.1688	-2.7313	-3.0792	-2.6083	-2.9771	-2.6833	-2.6396	-2.9917	-2.9083	-2.7333	-3.1312	-2.7604	-2.7417	-2.9958	-2.7	-3.0354	170.452	36.415	-136.883	157.850	67.784	170.583	-79.807	-129.666	-4.659	177.304	85.687	114.173	52.303	79.477	-53.992	-92.513	0.00048152	0.00057077	0.00019451	384.35	3.9333e-06	7.2001e-06	697.99	166.82	1.2092e-06	3.2431e-06	319.14	131.32	75.538	39.84	3.3788e-06	65.645	0.00015834	0.00014183	3.5211e-05	369.25	1.6517e-06	1.521e-06	659.05	159.11	1.6517e-06	1.5067e-06	290.14	121.21	70.098	37.134	1.3673e-06	59.598	-89.654	-66.061	-16.593	-134.465	1.525	10.173	-135.633	-128.814	-6.317	-23.989	-132.209	-127.415	-124.142	-119.153	-24.574	-123.191	-8191	255	
2390.272	1	1	0	0	0.15553	0.063835	0.23264	0.22158	0.10544	0.07264	0.25977	0.12626	0.064555	0.17844	0.094114	0.1833	0.20493	0.145	0.078886	0.1767	-2.3833	-2.6542	-3.2479	-2.6354	-3.025	-3.0521	-2.6875	-3.1542	-2.7938	-2.7562	-3.2167	-2.8646	-2.9521	-3.0396	-2.7646	-3.0729	-3.687	121.697	100.838	151.254	-140.309	-1.031	146.227	110.034	-120.370	-96.260	109.318	192.842	205.433	-97.122	151.129	119.479	0.0005155	0.0005059	0.00010134	384.71	1.3048e-06	5.4327e-06	698.93	166.75	4.9394e-06	5.4756e-06	314.59	129.8	74.444	39.204	3.4133e-06	64.57	0.00016257	0.00013456	3.433e-05	370.24	1.6506e-06	1.4721e-06	657.46	158.55	1.6261e-06	1.4357e-06	286.68	120.17	69.049	36.523	1.3334e-06	58.779	-91.877	-84.477	-33.366	-134.404	1.232	-1.872	-136.001	-129.039	6.977	-16.508	-131.915	-127.581	-124.015	-119.282	-1.848	-123.100	-8191	255	
2390.368	1	1	0	0	0.058315	0.29699	0.11609	0.16855	0.11983	0.053612	0.29539	0.073912	0.10819	0.14221	0.17425	0.10109	0.15007	0.21658	0.14647	0.20223	-2.4958	-2.7354	-3.1333	-2.8375	-2.9521	-3.3271	-2.7333	-3.125	-2.7146	-2.8396	-3.2042	-2.9021	-2.7438	-3.3146	-2.5854	-3.1417	141.766	105.753	62.238	95.788	46.344	-84.149	134.080	115.611	9.678	-56.698	-121.207	127.840	-139.691	108.262	-74.984	-127.388	0.00044303	0.00048865	0.00011078	380.49	4.8741e-06	3.6569e-06	688.21	163.51	1.1636e-06	2.709e-06	312.02	128.81	73.437	39.048	3.3383e-06	64.643	0.00015596	0.00013191	3.4287e-05	367.5	1.5787e-06	1.4218e-06	651.91	156.63	1.5801e-06	1.4054e-06	284.39	119.39	68.258	36.484	1.3736e-06	59.012	-87.230	-79.651	-58.408	-134.671	29.316	-43.589	-135.738	-129.010	83.239	78.238	-131.971	-127.339	-124.374	-119.207	-18.958	-123.062	-8191	255	
2390.489	1	1	0	0	0.31456	0.17799	0.084146	0.2039	0.25728	0.1313	0.25645	0.18803	0.16557	0.15116	0.052996	0.18134	0.1112	0.14079	0.088047	0.24806	-2.6792	-2.7708	-3.0833	-2.9	-2.7292	-3.2812	-2.7625	-3.0187	-3.0958	-2.6167	-3.1188	-2.9521	-2.8208	-3.1625	-2.7562	-3.1146	-92.365	-122.631	-145.534	131.774	-113.508	177.409	207.125	-54.977	12.079	163.579	135.006	117.832	-137.572	192.383	-135.523	96.560	0.00047203	0.00035813	7.8771e-05	383.76	4.8685e-06	5.1654e-06	699.32	167.32	4.1263e-06	3.7418e-06	315.94	130.49	74.701	39.841	8.2601e-07	65.095	0.0001474	0.00012527	3.6138e-05	371.6	1.494e-06	1.3748e-06	657.76	160.1	1.5008e-06	1.3635e-06	289.65	121.17	69.165	37.043	1.512e-06	59.526	-85.400	-108.706	-3.823	-134.318	62.882	-70.198	-135.852	-128.680	14.255	59.305	-131.674	-127.397	-124.124	-119.201	-34.283	-122.951	-8191	255	
2390.583	1	1	0	0	0.2236	0.13441	0.24669	0.20865	0.11064	0.21494	0.17061	0.2618	0.020455	0.18823	0.090669	0.29635	0.20342	0.23082	0.23123	0.18656	-2.5896	-2.5438	-3.0687	-2.8479	-2.7354	-3.1167	-2.8438	-2.9792	-2.9375	-2.7333	-3.0729	-3.025	-2.6958	-3.3479	-2.8333	-3.0187	-112.610	89.495	-23.744	-95.207	-121.578	-111.070	-53.451	87.659	-16.613	58.685	135.760	165.150	-61.418	162.030	-113.496	203.802	0.00043997	0.00048811	9.233e-05	382.68	3.9674e-06	1.3209e-06	691.5	166.09	3.1968e-06	1.1654e-06	314	129.05	73.028	39.253	1.5449e-06	64.093	0.00014446	0.00012146	3.9416e-05	370.98	1.4524e-06	1.3224e-06	655.84	158.89	1.4562e-06	1.3473e-06	287.58	119.85	67.795	36.418	1.6109e-06	58.502	-82.359	-86.263	200.761	-134.761	7.442	-20.027	-135.716	-128.859	35.739	2.239	-131.932	-127.364	-124.453	-119.435	-19.849	-122.910	-8191	255	
2390.679	1	1	0	0	0.074725	0.18935	0.074827	0.43932	0.2639	0.21395	0.1676	0.13425	0.30199	0.13225	0.24099	0.18732	0.12213	0.22735	0.25211	0.25897	-2.775	-2.5438	-2.9875	-2.9042	-2.6625	-3.1063	-3.0792	-2.8458	-3.1083	-2.6562	-2.8937	-3.0354	-2.6229	-3.0729	-3.0833	-2.8958	-53.724	179.238	108.480	200.420	-16.191	24.560	-91.991	-44.105	178.386	-71.120	170.809	189.389	-146.620	-136.550	-111.070	139.262	0.0004539	0.00010685	3.6826e-05	381.05	1.149e-06	2.2866e-06	688.24	164	8.1011e-07	2.2924e-06	310.39	128.69	73.164	38.668	2.7487e-06	63.934	0.00013744	0.00012235	4.1237e-05	367	1.3807e-06	1.3488e-06	652.77	156.73	1.374e-06	1.3664e-06	285.46	118.91	67.426	36.031	1.6704e-06	58.03	-87.799	-68.238	-141.098	-134.432	108.039	63.001	-135.893	-128.966	-48.234	43.086	-131.888	-127.415	-124.126	-119.468	-75.610	-122.791	-8191	255	
2390.776	1	1	0	0	0.072909	0.12005	0.11806	0.058964	0.087745	0.085531	0.26459	0.096231	0.27077	0.12886	0.11133	0.43601	0.17053	0.28067	0.21168	0.12754	-2.4979	-2.7479	-2.7646	-2.9188	-2.5687	-3.1417	-3.0375	-2.7771	-3.2521	-2.7417	-2.9396	-3.0771	-2.7042	-3.2062	-2.6625	-2.8208	15.702	170.944	15.457	158.297	-95.595	-32.390	180.208	-10.370	-79.228	12.387	108.590	158.591	-110.655	-105.384	-47.978	180.108	0.00045923	0.00024351	0.00011797	379.19	3.7788e-06	3.6155e-06	686.74	161.81	4.3287e-06	3.1059e-07	307.74	126.87	71.828	38.186	2.5685e-06	62.975	0.00013307	0.00013034	4.1768e-05	363.52	1.3309e-06	1.4618e-06	648.31	154.42	1.2996e-06	1.4698e-06	282.28	117.01	66.3	35.623	1.5851e-06	57.154	-79.377	-5.946	1.470	-134.404	27.164	-39.759	-136.007	-128.954	69.144	-13.071	-131.985	-127.271	-124.235	-119.187	-72.061	-123.194	-8191	255	
2390.847	1	1	0	0	0.017026	0.0069458	0.27542	0.29464	0.41538	0.21092	0.20636	0.30288	0.11495	0.076843	0.17258	0.22712	0.16887	0.13951	0.13371	0.24883	-2.7542	-2.5625	-2.7979	-3.0146	-2.6542	-3.0604	-2.9979	-2.6104	-3.0625	-2.7875	-2.8771	-3.2958	-2.7125	-2.9979	-3.15	-2.8021	22.611	55.741	-139.294	174.584	-122.545	-106.470	176.495	191.456	14.237	107.628	-103.720	155.380	-82.886	136.083	127.577	108.432	0.00054179	4.927e-05	7.3533e-05	378.86	1.4155e-06	4.0577e-06	685.64	163.49	4.8677e-06	1.6979e-06	313.17	128.94	73.479	39.035	2.3705e-06	64.371	0.00012891	0.00013935	3.9489e-05	364.02	1.2961e-06	1.5668e-06	648.41	155.66	1.3134e-06	1.5836e-06	285.12	119.09	67.966	36.542	1.5018e-06	58.418	-86.882	-87.546	26.177	-134.877	-28.731	-75.362	-135.843	-129.067	-16.893	-86.734	-131.716	-127.658	-124.292	-119.293	-38.965	-122.810	-8191	255	
2390.968	1	1	0	0	0.03713	0.092878	0.1674	0.060676	0.22101	0.050512	0.16581	0.33715	0.2488	0.20818	0.20969	0.19268	0.20528	0.15166	0.12751	0.2434	-2.7396	-2.7396	-2.8438	-3.075	-2.7479	-3.0646	-2.9771	-2.6792	-3.325	-2.7604	-2.8583	-3.3292	-2.6708	-2.8396	-3.025	-2.5875	122.914	136.545	-71.257	26.919	-94.780	-54.691	125.251	106.960	-89.239	74.591	86.920	181.940	-84.972	-102.786	-10.791	128.197	0.00053287	0.00010722	0.00010631	384.36	2.2972e-06	3.1857e-06	693.57	167.24	3.6244e-06	2.456e-06	314.97	129.73	74.398	39.484	2.0893e-06	64.502	0.0001325	0.00014789	3.7797e-05	368.2	1.3752e-06	1.6466e-06	654.9	158.27	1.4e-06	1.6418e-06	287.59	120.02	68.94	36.895	1.4404e-06	58.549	-87.793	-84.086	-29.549	-134.353	-117.336	50.663	-135.712	-128.810	4.030	45.978	-131.717	-127.411	-124.556	-119.308	-83.102	-122.964	-8191	255	
2391.064	1	1	0	0	0.060501	0.22818	0.26463	0.037702	0.067448	0.072382	0.26674	0.076921	0.06941	0.13652	0.084546	0.16345	0.34153	0.12437	0.17295	0.086548	-2.6813	-2.7083	-2.7458	-3.1312	-2.8542	-2.7625	-3.3146	-2.5333	-3.0229	-2.9938	-2.7125	-3.2646	-2.925	-3.1021	-3.0312	-2.6792	-49.881	149.154	126.691	64.897	110.424	1.607	108.840	-90.661	-29.161	-136.827	80.893	199.501	196.782	206.837	173.515	-84.854	0.00050024	0.00042023	3.9561e-05	383.62	1.5849e-06	4.5988e-06	693.56	164.85	3.3251e-06	5.7451e-06	310.89	129.27	73.137	38.977	4.1317e-06	63.925	0.00014412	0.00014823	3.6218e-05	367.82	1.4912e-06	1.609e-06	654.2	156.43	1.5201e-06	1.5729e-06	283.98	119.02	68.222	36.349	1.3904e-06	58.17	-88.868	-93.245	44.806	-134.477	211.286	-6.650	-135.746	-128.684	-20.933	50.974	-131.754	-127.458	-124.383	-119.056	-14.626	-123.266	-8191	255	
2391.160	1	1	0	0	0.14876	0.16031	0.1106	0.017055	0.12853	0.17241	0.062641	0.18367	0.15109	0.26628	0.053336	0.15691	0.23382	0.16384	0.13834	0.18754	-2.4667	-3.0833	-2.6854	-3.2229	-2.8937	-2.6771	-3.2479	-2.8042	-3.0417	-3.0292	-2.8104	-3.1479	-2.6958	-2.6333	-3.1	-2.7646	171.857	163.564	-29.675	-71.296	156.925	-45.459	-61.120	159.933	-125.608	156.264	-116.516	-65.635	147.467	189.567	96.002	160.818	0.0005147	0.00033378	1.3768e-05	382.72	2.6343e-06	4.8729e-06	696.14	163.49	3.8391e-06	3.0174e-06	310.48	127.91	73.385	38.606	4.0033e-06	63.236	0.00015434	0.00013973	3.4815e-05	366.55	1.5959e-06	1.5178e-06	654.88	155.95	1.6215e-06	1.4948e-06	282.89	118.35	68.233	35.956	1.337e-06	57.49	-87.904	-92.283	-111.462	-134.186	198.659	-55.002	-135.593	-129.262	20.214	-27.197	-132.063	-127.601	-124.249	-119.432	-63.412	-123.220	-8191	255	
2391.281	1	1	0	0	0.15994	0.30157	0.12216	0.13103	0.077486	0.029652	0.14463	0.056066	0.31642	0.060069	0.26736	0.13922	0.14087	0.16421	0.072419	0.36191	-2.4792	-3.0521	-2.575	-3.0812	-3	-2.7792	-3.2146	-2.8271	-2.8979	-2.8333	-2.6146	-3.0104	-2.7729	-2.8458	-3.2812	-2.8875	74.796	-64.453	130.273	117.922	133.041	66.650	113.945	135.693	165.228	209.443	148.011	138.204	150.474	127.480	151.692	84.339	0.00041419	0.00054185	0.00016235	382.09	2.0578e-06	4.2946e-06	687.75	162.46	5.3885e-06	4.8955e-06	309.26	127.8	73.541	38.802	3.3113e-06	63.735	0.0001551	0.00013263	3.3439e-05	365.96	1.6096e-06	1.4164e-06	649.56	154.81	1.6052e-06	1.3987e-06	281.63	118.27	68.205	36.065	1.2986e-06	58.032	-83.912	-70.146	-16.592	-134.611	12.105	-42.039	-135.798	-129.135	78.729	33.599	-131.801	-127.369	-124.204	-118.989	7.711	-123.122	-8191	255	
2391.377	1	1	0	0	0.15397	0.1308	0.28575	0.077397	0.17562	0.028816	0.088454	0.15118	0.021971	0.23382	0.08123	0.13143	0.20403	0.12857	0.13953	0.11299	-2.4042	-3.0312	-2.6417	-2.8792	-2.8812	-2.5938	-3.0917	-2.8146	-2.8667	-3.2396	-2.7	-3.1979	-2.7854	-2.8479	-3.2979	-2.8479	121.825	123.048	-93.327	37.998	142.628	-83.347	37.254	-68.670	38.983	44.160	42.489	-95.688	-90.332	-130.211	125.357	47.173	0.00047835	0.00036482	9.7722e-05	382.26	2.5394e-06	3.7729e-06	695.22	164.48	4.3139e-06	3.5171e-06	315.32	129.22	75.01	39.421	1.2105e-06	64.34	0.00015433	0.00012873	3.3103e-05	370.33	1.5603e-06	1.4079e-06	656.34	157.83	1.5497e-06	1.3976e-06	286.4	120.17	69.316	36.616	1.348e-06	58.687	-81.430	-62.687	-51.715	-134.524	53.225	49.686	-135.770	-128.786	31.171	-36.901	-131.828	-127.625	-124.062	-119.191	-109.990	-123.094	-8191	255	
2391.471	1	1	0	0	0.16175	0.074213	0.31275	0.16427	0.23348	0.22079	0.15908	0.24122	0.092203	0.2228	0.2208	0.13643	0.092603	0.24749	0.065366	0.28951	-2.4708	-2.9479	-2.6292	-3.0792	-2.9042	-2.575	-3.0271	-2.8104	-2.6729	-3.3	-2.7479	-2.8312	-3.0396	-2.7229	-3.0646	-3.2333	164.301	-36.622	109.169	-122.178	10.957	163.030	-109.565	125.412	69.481	131.475	38.940	168.291	-36.710	-79.820	20.753	202.100	0.00053614	0.00026864	5.6261e-05	382.91	4.5045e-06	1.1424e-06	693.39	163.22	1.9589e-06	4.208e-06	310.74	128.58	72.965	38.775	1.5387e-06	63.74	0.00014794	0.00012688	3.458e-05	371.27	1.4942e-06	1.3473e-06	652.75	156.63	1.4741e-06	1.3303e-06	282.85	118.98	67.833	36.098	1.4437e-06	58.146	-83.877	-105.672	-5.476	-134.427	0.128	-80.913	-136.016	-129.170	-24.872	-31.875	-131.999	-127.458	-124.308	-118.876	-70.187	-123.086	-8191	255	
2391.569	1	1	0	0	0.17303	0.19577	0.1404	0.25956	0.15604	0.1671	0.092725	0.22944	0.12037	0.31198	0.11619	0.15945	0.30877	0.090671	0.17522	0.14895	-2.2583	-3.025	-2.6083	-3.0396	-3.2188	-2.7979	-3.1292	-2.9271	-2.7583	-3.2354	-2.9271	-3.0458	-3.0417	-2.8187	-3.0875	-3.0687	195.361	-28.208	63.826	38.715	202.639	-109.387	103.790	142.635	-115.614	71.556	187.808	135.147	-65.522	202.952	139.916	14.649	0.00052181	6.4918e-05	8.9346e-05	381.06	4.3706e-06	2.9477e-06	694.9	164.39	5.0954e-07	2.8982e-06	310.06	129.08	74.093	39.064	2.7358e-06	63.825	0.00014028	0.00011925	3.7743e-05	369.67	1.4249e-06	1.3166e-06	654.65	156.84	1.4261e-06	1.2991e-06	284.89	119.38	68.08	36.242	1.5701e-06	58.193	-85.611	205.026	-47.706	-134.286	31.466	-38.119	-135.730	-129.031	-42.904	-69.925	-131.608	-127.366	-124.105	-119.204	-40.280	-123.173	-8191	255	
2391.664	1	1	0	0	0.31073	0.35339	0.0525	0.31852	0.043349	0.23709	0.13799	0.055772	0.054691	0.23344	0.20593	0.26672	0.22502	0.28987	0.3071	0.22687	-2.2979	-3.1167	-2.8646	-2.8333	-3.0542	-2.7625	-3.0875	-3.1208	-2.5458	-3.15	-2.7562	-2.8063	-3.2208	-2.8625	-2.9979	-3.1813	-50.961	-116.937	141.600	125.458	167.926	-80.678	142.699	92.236	78.988	-128.574	61.562	-106.777	187.625	194.866	22.639	146.213	0.00045083	0.0002989	9.3889e-05	380.54	4.0954e-06	2.0742e-06	691.22	161.9	2.1254e-06	1.9048e-06	306.29	126.51	72.284	38.121	1.7707e-06	62.656	0.00013524	0.0001195	3.9987e-05	366.96	1.3557e-06	1.3051e-06	652.19	154.13	1.3636e-06	1.3276e-06	281.19	117.35	66.884	35.542	1.6159e-06	57.095	-84.980	-98.159	29.870	-134.290	36.186	-1.623	-136.063	-129.275	64.109	-51.447	-132.057	-127.532	-124.064	-119.348	22.911	-123.340	-8191	255	
2391.760	1	1	0	0	0.177	0.16979	0.10948	0.18612	0.093611	0.034202	0.18395	0.1914	0.28334	0.11773	0.17298	0.27934	0.22211	0.076751	0.24664	0.070937	-2.1625	-2.9167	-2.9125	-2.875	-3.2354	-2.6979	-3.0083	-2.9062	-2.7708	-3.1729	-2.9688	-2.7125	-3.2604	-2.675	-3.0375	-3.1979	195.171	-134.280	-18.591	139.147	-18.910	-124.653	120.051	-128.671	116.341	134.182	-55.452	-103.703	156.535	138.855	182.697	88.557	0.00050005	0.00025208	2.7253e-05	381.98	2.5508e-06	3.4704e-06	688.95	162.14	9.747e-07	1.6996e-06	308.56	127.45	74.165	38.658	4.3218e-06	63.592	0.00012897	0.00012735	4.1417e-05	365.4	1.295e-06	1.4102e-06	652.57	154.49	1.2933e-06	1.435e-06	281.92	117.74	67.771	36.139	1.5857e-06	57.784	-77.753	-38.209	-110.837	-134.261	-15.594	-22.427	-135.742	-129.153	119.002	135.478	-131.888	-127.571	-124.092	-119.213	10.390	-123.064	-8191	255	
2391.880	1	1	0	0	0.227	0.2045	0.25734	0.31974	0.07487	0.25124	0.17978	0.021344	0.201	0.12829	0.13493	0.28699	0.29069	0.13003	0.082997	0.20277	-2.4042	-2.9667	-2.8104	-2.7438	-3.2104	-2.8333	-2.8125	-3.2354	-2.6521	-3.2062	-2.9188	-2.5833	-3.1354	-2.925	-2.7979	-3.2354	65.468	190.588	66.386	-118.088	156.658	20.229	66.048	-72.505	-145.396	98.816	120.295	171.329	110.447	-124.472	175.730	167.285	0.00052026	0.00019597	4.6867e-05	384.08	1.3873e-06	1.8613e-06	699.43	166.46	3.8887e-06	1.2609e-06	311.83	129.19	74.696	39.223	2.7474e-06	64.023	0.00012734	0.00013848	4.0046e-05	370.82	1.303e-06	1.556e-06	661.58	157.61	1.3122e-06	1.5727e-06	285.89	119.54	68.924	36.762	1.5272e-06	58.248	-88.801	-115.154	-21.276	-134.332	-0.914	-5.894	-135.736	-128.748	-0.137	105.929	-131.960	-127.528	-124.111	-118.989	-13.773	-122.951	-8191	255	
2391.977	1	1	0	0	0.12866	0.26501	0.1435	0.22063	0.061006	0.077201	0.31343	0.17683	0.089358	0.39449	0.143	0.17817	0.09229	0.066928	0.31936	0.3322	-2.1292	-2.9833	-2.8479	-2.6562	-3.125	-2.8	-2.7938	-3.1333	-2.7	-2.9375	-3.0292	-2.7771	-2.8812	-2.875	-2.7458	-3.1875	97.610	-139.550	158.381	28.277	149.772	151.756	114.603	96.945	80.143	-144.537	5.577	-127.240	-89.078	-141.747	9.833	164.100	0.0004525	0.00032323	6.3942e-05	385	3.2296e-07	4.31e-06	695.55	162.63	4.4046e-06	2.6055e-06	308.96	127.54	73.211	38.837	1.3426e-06	63.523	0.00013123	0.00014818	3.8471e-05	369.1	1.366e-06	1.6256e-06	656.53	155.25	1.3734e-06	1.6279e-06	282.72	118.19	67.946	36.199	1.4633e-06	57.627	-79.785	-75.202	-7.406	-134.232	-142.299	13.191	-135.790	-129.186	-42.958	-3.150	-131.908	-127.540	-124.480	-119.209	-40.621	-123.084	-8191	255	
2392.073	1	1	0	0	0.18631	0.16645	0.084822	0.29615	0.024706	0.17623	0.21597	0.28116	0.23022	0.2008	0.1196	0.21294	0.18069	0.24293	0.21947	0.2031	-2.2042	-2.8667	-3.0687	-2.6708	-3	-2.725	-2.8042	-3.3063	-2.7521	-2.7625	-3.2146	-2.7562	-3.1771	-2.8063	-2.6521	-3.05	7.160	-98.388	-50.578	-119.732	-46.667	82.891	175.277	146.823	39.210	-142.772	14.387	210.741	-111.041	196.317	177.778	175.231	0.00047664	0.0002274	9.5421e-05	383.32	2.638e-06	1.6569e-06	692.76	164.18	3.1744e-06	4.2841e-06	308.96	127.54	72.952	38.335	1.8163e-06	62.318	0.00014038	0.00014793	3.6469e-05	366.51	1.4662e-06	1.5858e-06	653.43	155.09	1.4992e-06	1.5781e-06	281.46	117.63	67.654	35.741	1.3854e-06	56.914	-84.701	-109.862	-10.573	-134.545	-21.352	-23.495	-135.730	-128.868	5.969	31.457	-131.999	-127.346	-124.416	-119.090	36.007	-123.199	-8191	255	
2392.144	1	1	0	0	0.237	0.14131	0.04856	0.039457	0.1876	0.23568	0.055494	0.33237	0.020717	0.12141	0.26288	0.16299	0.15586	0.17851	0.27603	0.18818	-2.1854	-2.7938	-2.9188	-2.5312	-2.9813	-2.9792	-2.6208	-3.3063	-2.8208	-2.9146	-3.0958	-2.7438	-3.0563	-3.1729	-2.5812	-3.1229	9.486	89.938	180.487	-76.428	0.081	130.985	-22.895	121.771	-133.208	199.041	179.428	164.427	180.005	129.618	-131.897	91.187	0.00049142	0.00030781	6.9725e-05	377.38	2.2403e-06	3.4189e-06	687.28	161.18	4.7396e-06	5.6385e-06	308.32	126.96	73.175	38.272	1.8683e-06	62.827	0.00014999	0.00013864	3.4796e-05	363.09	1.5585e-06	1.5213e-06	647.9	153.28	1.5855e-06	1.4572e-06	279.77	117.22	67.954	35.774	1.3279e-06	57.309	-87.357	-104.380	-14.493	-134.472	-47.088	-4.634	-135.701	-128.717	53.806	28.410	-131.803	-127.529	-124.212	-119.223	45.864	-123.096	-8191	255	
2392.265	1	1	0	0	0.13655	0.34105	0.16395	0.25297	0.40395	0.15239	0.049	0.11851	0.14036	0.034744	0.065017	0.10621	0.19822	0.14183	0.23379	0.086314	-2.4375	-2.6917	-3.1479	-2.7438	-2.9917	-3.0729	-2.7292	-3.2375	-2.7917	-2.8104	-3.0917	-2.6813	-2.9583	-3.0333	-2.6083	-3.2229	162.641	23.558	-53.397	-82.140	-93.519	178.159	100.369	53.687	202.423	-47.371	141.842	-54.791	-56.718	132.496	138.618	128.475	0.00045752	0.00045623	8.3538e-05	384.59	4.1815e-07	2.2534e-06	697.68	164.82	1.4649e-06	4.545e-06	313.63	129.84	74.829	39.319	1.2006e-06	64.499	0.00015532	0.00013272	3.3774e-05	369.56	1.617e-06	1.4262e-06	656.89	157.18	1.6073e-06	1.4361e-06	285.29	120.02	69.787	36.772	1.3153e-06	58.759	-87.393	-78.186	-15.435	-134.298	40.702	-29.942	-135.808	-129.030	81.966	8.608	-131.447	-127.406	-124.530	-119.182	-88.310	-123.257	-8191	255	
2392.361	1	1	0	0	0.20216	0.14795	0.051728	0.16163	0.19662	0.069799	0.28951	0.022184	0.24578	0.043306	0.069547	0.22362	0.42064	0.11989	0.055503	0.22158	-2.7208	-2.7687	-2.9917	-2.7958	-3.0187	-3.1458	-2.8042	-3.2208	-2.8146	-2.7938	-3.3396	-2.8688	-3.0146	-3.1667	-2.6229	-3.2354	-128.438	47.067	167.487	194.454	-84.195	-13.790	136.571	-145.787	-126.564	168.180	188.453	93.800	88.617	173.354	-43.360	-145.025	0.00047949	0.00026934	9.651e-05	389.09	2.1611e-06	3.6999e-06	699.02	165.31	4.2998e-06	5.4396e-06	312.95	128.74	74.451	39.068	2.0843e-06	63.8	0.00015614	0.00012833	3.3153e-05	374.22	1.5718e-06	1.4041e-06	659.02	158.66	1.5664e-06	1.3817e-06	284.36	119.56	68.957	36.496	1.3305e-06	58.275	-86.216	-85.989	-62.847	-134.138	57.763	26.244	-136.076	-128.900	18.082	5.683	-131.673	-127.418	-124.436	-119.110	26.135	-123.030	-8191	255	
2392.457	1	1	0	0	0.076575	0.19946	0.1124	0.073523	0.31921	0.16035	0.22391	0.087827	0.22726	0.12551	0.24908	0.078879	0.078665	0.1352	0.28657	0.20117	-2.3729	-2.6604	-3.0312	-2.7292	-2.7625	-3.0083	-2.6542	-3.05	-3.0625	-2.7229	-3.0625	-2.8417	-2.9271	-3.2208	-2.7771	-2.9938	-89.599	210.344	148.748	120.160	-106.367	69.214	144.940	165.777	-112.234	198.883	129.341	210.566	-40.909	209.730	-15.875	205.531	0.00044011	0.00020965	9.7372e-05	384.3	3.2497e-06	3.9644e-06	697.86	165.44	3.248e-06	5.2783e-06	313.16	129.31	74.442	39.387	2.612e-06	64.412	0.00014688	0.0001254	3.3959e-05	372.29	1.4868e-06	1.3681e-06	656.6	157.84	1.491e-06	1.3573e-06	285.72	120.23	68.932	36.631	1.4245e-06	58.745	-77.585	-73.424	-36.884	-134.546	-16.849	19.943	-135.597	-128.703	36.759	40.773	-131.734	-127.359	-123.853	-119.234	28.853	-123.009	-8191	255	
2392.552	1	1	0	0	0.056388	0.052955	0.14678	0.26062	0.23831	0.20549	0.14787	0.22533	0.1531	0.095954	0.099758	0.31761	0.042462	0.23113	0.15972	0.21738	-2.5771	-2.6354	-3.1208	-2.9667	-2.6771	-2.8729	-2.8396	-2.9083	-3.1333	-2.6375	-3.1312	-3.0687	-2.7375	-3.2208	-2.8438	-3.1229	123.325	157.915	49.488	146.276	-106.060	10.210	114.886	178.282	97.781	-88.618	69.698	189.185	-64.934	201.961	-115.156	62.336	0.00048692	0.00024058	0.00014515	383.72	2.8284e-06	1.7751e-06	693.22	163.06	4.0928e-06	4.3453e-06	310.73	128.06	73.191	38.745	1.4802e-06	63.684	0.00014245	0.00012203	3.7131e-05	370.77	1.4179e-06	1.3097e-06	653.84	155.93	1.4191e-06	1.2961e-06	282.84	118.73	67.739	36.031	1.563e-06	57.891	-87.028	-105.443	-36.599	-134.402	9.794	24.180	-135.896	-128.964	58.568	76.591	-131.790	-127.577	-124.014	-118.733	-35.593	-123.366	-8191	255	
2392.672	1	1	0	0	0.34748	0.066605	0.11862	0.25031	0.11271	0.3209	0.23281	0.13845	0.043732	0.18178	0.28715	0.062899	0.073116	0.12823	0.16206	0.20608	-2.8333	-2.7104	-3.0542	-3.1271	-2.8104	-3.2833	-3.0083	-3.0208	-3.2458	-2.7438	-3.1583	-3.0604	-2.7771	-3.2583	-2.9313	-2.7979	152.482	1.812	-100.772	136.622	84.818	-130.775	184.740	124.339	-35.214	83.169	94.388	-55.583	111.233	178.753	159.969	-89.202	0.00046989	0.00045541	8.4969e-05	382.23	1.75e-06	3.159e-06	695.02	163.84	4.2262e-06	1.4206e-06	310.05	128.58	74.56	39.136	2.3616e-06	63.737	0.00013514	0.00011785	3.981e-05	369.87	1.383e-06	1.3055e-06	656.55	156.6	1.3731e-06	1.3422e-06	285.04	118.93	68.485	36.506	1.648e-06	58.314	-88.371	182.929	-79.994	-134.227	-0.505	-127.658	-135.702	-128.672	14.773	-130.276	-131.935	-127.229	-124.077	-119.231	-130.559	-123.012	-8191	255	
2392.769	1	1	0	0	0.14093	0.2309	0.38342	0.23068	0.19182	0.18407	0.2169	0.11636	0.16986	0.067243	0.31997	0.11462	0.092902	0.1509	0.10345	0.26724	-2.8438	-2.7625	-3.0312	-3.0354	-2.7354	-3.1208	-3.0146	-2.6167	-3.1937	-2.5729	-2.9667	-3.1396	-2.7479	-3.1167	-2.8937	-2.8958	-137.852	-60.969	-69.640	152.554	-31.415	147.230	128.921	151.611	90.476	47.941	18.364	-38.654	160.294	65.243	191.032	170.091	0.00042	0.00015676	9.1179e-05	386.61	2.0162e-06	1.8104e-06	708.07	165.75	2.7069e-06	3.6416e-06	313.11	129.79	75.325	39.559	3.0186e-06	64.483	0.00013373	0.00012807	4.2005e-05	372.96	1.3513e-06	1.436e-06	666.83	158.17	1.3371e-06	1.4662e-06	287.13	120.25	69.498	36.978	1.6403e-06	58.634	-79.633	-68.864	-57.214	-134.516	14.458	148.628	-135.622	-128.843	73.902	-3.861	-131.492	-127.202	-124.598	-119.038	8.096	-122.795	-8191	255	
2392.840	1	1	0	0	0.077467	0.11154	0.045198	0.12866	0.030867	0.079055	0.067792	0.15747	0.083548	0.16821	0.084545	0.37304	0.12068	0.21737	0.13439	0.14949	-2.6125	-2.8	-2.8146	-2.9979	-2.6896	-3.1021	-3.1896	-2.8688	-3.2188	-3.0042	-3.0625	-3.1562	-2.6646	-3.0896	-2.9896	-2.7875	-50.923	-117.350	211.260	212.991	-75.650	164.859	-38.901	-5.420	-9.669	-114.751	26.402	175.258	125.289	-27.164	22.636	208.776	0.00052007	0.00028968	0.00015098	384.68	2.207e-06	4.2227e-06	703.58	164.4	4.4097e-06	3.1282e-06	308.99	128.94	74.583	39.147	2.5764e-06	63.966	0.00013113	0.00013861	4.1416e-05	372.07	1.3146e-06	1.5643e-06	664.5	156.19	1.3296e-06	1.5992e-06	283.99	119	68.709	36.624	1.5703e-06	58.075	-79.927	208.657	0.107	-134.030	37.871	83.857	-135.604	-128.781	48.517	-15.096	-131.777	-127.441	-124.642	-119.002	14.030	-122.870	-8191	255	
2392.961	1	1	0	0	0.059836	0.29229	0.09307	0.29389	0.10655	0.1273	0.28214	0.21045	0.067128	0.043468	0.072059	0.041511	0.048769	0.11474	0.1324	0.21384	-2.7646	-2.775	-2.8292	-3.1354	-2.6458	-3.0292	-3.1333	-2.6667	-3.0896	-2.8771	-2.9146	-3.2562	-2.6188	-3.1437	-3.1625	-2.65	-17.133	202.372	73.385	-58.886	-98.060	-40.148	38.646	209.667	161.645	-91.245	133.495	33.631	133.101	144.776	-57.573	189.488	0.00049151	0.00032566	0.00010177	389.24	2.4319e-06	4.1194e-06	706.1	164.47	3.6281e-06	3.0023e-06	312.14	128.92	74.643	39.042	1.6775e-06	63.919	0.00013438	0.00014844	3.8935e-05	372.56	1.372e-06	1.6666e-06	666.71	156.86	1.3903e-06	1.6657e-06	285.26	119.29	69.101	36.593	1.4708e-06	58.042	-82.259	-46.279	12.543	-134.376	20.117	7.568	-135.797	-129.104	-3.527	-14.160	-131.674	-127.410	-124.137	-119.159	-29.043	-123.244	-8191	255	
2393.057	1	1	0	0	0.35765	0.20412	0.29138	0.28376	0.1298	0.16734	0.26853	0.28163	0.12073	0.20591	0.11766	0.33109	0.11603	0.16782	0.20088	0.22373	-2.6125	-3.0021	-2.55	-2.875	-2.7146	-2.9729	-3.2687	-2.4688	-3.1188	-3.0229	-2.7333	-3.2708	-2.8354	-2.9229	-2.8604	-2.8833	136.627	139.287	-80.920	118.562	123.254	-123.800	204.695	-0.428	-43.639	-47.095	-5.715	127.637	-125.848	-60.878	-14.473	193.368	0.00048311	0.00015139	7.2846e-05	385.49	2.8456e-06	2.1675e-06	700.09	162.19	1.8323e-06	4.5137e-06	308.32	127.71	74.211	38.942	3.3509e-06	63.775	0.00014099	0.00015153	3.6869e-05	370.09	1.4638e-06	1.6456e-06	661.57	154.34	1.5159e-06	1.6347e-06	281.59	118.06	69.004	36.39	1.4403e-06	57.643	-83.386	175.667	-13.287	-134.399	-72.814	-1.036	-135.680	-128.929	73.479	-22.856	-131.794	-127.443	-124.490	-118.984	-41.306	-123.215	-8191	255	
2393.153	1	1	0	0	0.071682	0.14953	0.18122	0.10112	0.075598	0.13219	0.29896	0.36356	0.14397	0.096564	0.24121	0.11239	0.14709	0.11285	0.37053	0.23816	-2.7917	-2.8792	-2.6708	-3.1521	-2.8563	-3.0146	-3.1146	-2.5854	-3.3021	-2.9167	-2.7771	-3.2271	-2.6792	-3.0312	-3.1021	-2.6542	168.784	198.070	95.472	210.158	-138.182	-69.426	67.375	168.267	204.489	106.063	-121.225	166.502	-139.857	193.905	40.161	119.328	0.00051513	0.00020694	0.00010918	387.33	1.9216e-06	3.2113e-06	705.55	164.85	3.2971e-06	6.5575e-06	314.61	129.63	75.361	39.537	4.7096e-06	64.313	0.00015339	0.0001453	3.631e-05	370.68	1.6155e-06	1.5927e-06	663.62	156.81	1.6511e-06	1.591e-06	285.67	119.66	70.196	37.012	1.4255e-06	58.483	-83.749	-85.956	0.081	-134.431	-24.388	-46.579	-135.573	-128.778	30.868	19.360	-131.722	-127.404	-124.415	-119.147	-18.333	-122.815	-8191	255	
2393.249	1	1	0	0	0.24996	0.0298	0.079353	0.10435	0.2027	0.21972	0.053469	0.31557	0.22991	0.051825	0.19941	0.11145	0.16917	0.17579	0.17962	0.19493	-2.4896	-2.8646	-2.5708	-3.0667	-2.9313	-2.8896	-2.9792	-2.7792	-3.0062	-2.9437	-2.7812	-3.1271	-3.0021	-2.6021	-3.0042	-2.9208	-8.979	-10.574	-35.533	188.684	67.568	-136.608	42.061	124.563	89.223	-7.559	207.384	-140.446	166.206	201.860	87.823	-99.756	0.00051615	0.00033747	6.8316e-05	390.65	1.9242e-06	3.5431e-06	707.62	164.4	3.7117e-06	3.3391e-06	310.37	128.58	74.783	39.121	3.0499e-06	63.407	0.00016229	0.00013992	3.5374e-05	374.79	1.7099e-06	1.5197e-06	666.6	157.07	1.712e-06	1.5267e-06	283.27	119.02	69.507	36.523	1.3722e-06	57.822	-80.764	-129.219	-56.178	-134.475	10.884	-36.365	-135.599	-128.903	31.682	9.642	-131.753	-127.449	-124.270	-119.086	-35.934	-122.904	-8191	255	
2393.370	1	1	0	0	0.15801	0.10295	0.23748	0.061738	0.10721	0.15715	0.10428	0.32018	0.096402	0.14255	0.12515	0.12689	0.35571	0.10309	0.23809	0.15574	-2.35	-3.1521	-2.6958	-2.925	-2.9771	-2.725	-3.2062	-2.9125	-2.7167	-3.2271	-2.7792	-3.1979	-2.9854	-2.6875	-3.1167	-2.9896	98.586	56.700	25.046	146.459	-79.651	-13.712	37.174	103.596	1.302	-122.997	137.782	165.567	-58.069	-145.672	-123.453	164.553	0.0005034	0.00023278	0.00011094	385.18	1.2415e-06	6.057e-06	703.1	163.23	5.0032e-06	4.224e-06	309.96	127.94	73.978	39.137	2.9388e-06	63.623	0.00016008	0.00013405	3.4228e-05	372.38	1.6384e-06	1.4701e-06	661.54	156.35	1.6439e-06	1.4449e-06	282.8	119.13	69.168	36.493	1.397e-06	58.073	-86.139	-89.866	-31.915	-134.261	-45.528	-48.309	-136.033	-129.110	21.374	-16.589	-132.108	-127.115	-124.064	-119.088	-25.772	-123.058	-8191	255	
2393.442	1	1	0	0	0.28534	0.18216	0.13888	0.10703	0.14358	0.15897	0.27324	0.1237	0.17498	0.18524	0.10475	0.32676	0.12231	0.20034	0.21013	0.23483	-2.3896	-2.9875	-2.5667	-2.9375	-3.0375	-2.6937	-3.2062	-2.9729	-2.7583	-3.3063	-2.8021	-3.1479	-2.8979	-2.6896	-2.9208	-2.95	-131.464	137.322	122.443	-130.614	-50.049	196.278	178.170	105.252	-86.165	111.612	208.928	155.514	-76.698	181.692	-120.163	135.058	0.00056642	0.00031218	8.6519e-05	383.58	2.2943e-06	5.2439e-06	697.28	162.68	1.6239e-06	4.2038e-06	305.1	127.08	73.566	38.523	9.1696e-07	62.524	0.00015419	0.0001317	3.5305e-05	373.05	1.5759e-06	1.4071e-06	658.32	155.83	1.5454e-06	1.3988e-06	279.5	118.06	68.207	35.842	1.4675e-06	57.126	-85.950	-130.320	-10.796	-134.613	43.205	-28.973	-135.849	-129.197	-5.907	7.136	-131.887	-127.371	-124.613	-119.149	-34.778	-123.069	-8191	255	
2393.562	1	1	0	0	0.13265	0.18974	0.30501	0.083721	0.052661	0.24763	0.097015	0.31444	0.13184	0.12216	0.12974	0.18327	0.23961	0.15065	0.18963	0.16629	-2.3604	-2.9833	-2.65	-2.8604	-3.1833	-2.6771	-3.2354	-3.0333	-2.7646	-3.4208	-2.8229	-3.0479	-3.0708	-2.65	-3.1542	-2.8104	169.692	129.785	55.237	-103.001	-119.429	-85.452	193.271	195.603	22.023	110.749	-115.641	172.028	108.676	-84.060	-140.246	111.099	0.00049463	0.00024724	2.5127e-05	386.13	3.4275e-06	5.1468e-06	701.59	162.29	2.0051e-06	4.7845e-06	307.55	127.97	74.991	39.136	3.2967e-06	63.517	0.00014514	0.00012518	3.7578e-05	371.7	1.4856e-06	1.3536e-06	660.4	155.55	1.472e-06	1.3653e-06	282.96	119.04	69.286	36.42	1.5991e-06	58.001	-76.001	-76.348	-80.283	-134.312	9.621	-59.318	-135.998	-128.943	8.757	-16.375	-131.862	-127.366	-123.994	-119.058	-31.700	-122.968	-8191	255	
2393.657	1	1	0	0	0.080514	0.18332	0.14739	0.0091989	0.073794	0.2087	0.13304	0.086304	0.13822	0.13753	0.21927	0.31784	0.19583	0.21267	0.1829	0.11529	-2.2833	-3.0458	-2.8021	-2.95	-3.0021	-2.7438	-3.1083	-3.2875	-2.7167	-3.325	-2.9083	-2.8937	-3.2729	-2.9854	-2.7812	-3.1125	2.403	-34.398	29.089	160.644	-138.338	88.578	-63.744	-92.050	-107.946	115.441	194.197	187.458	108.680	167.619	-124.528	197.555	0.00051149	0.00021746	7.4133e-05	387.4	1.7241e-06	4.7591e-06	710.25	166.86	3.964e-06	1.0128e-06	315.6	132.15	77.561	40.312	1.216e-06	65.02	0.00014262	0.00012495	4.158e-05	375.07	1.4648e-06	1.3647e-06	672.48	159.56	1.4524e-06	1.3959e-06	290.13	122.16	71.273	37.477	1.6943e-06	59.346	-84.941	-146.606	-57.816	-134.771	61.092	-96.367	-135.930	-128.931	-11.126	-5.656	-132.032	-127.388	-124.209	-119.144	-68.641	-123.063	-8191	255	
2393.753	1	1	0	0	0.37213	0.090909	0.15013	0.29363	0.23414	0.11618	0.11456	0.10671	0.04382	0.19175	0.2666	0.11432	0.19539	0.24197	0.10438	0.063691	-2.2896	-3.1146	-2.7771	-2.7375	-2.8604	-2.85	-3.0625	-2.7646	-2.7438	-3.0708	-2.7083	-2.9146	-3.15	-2.6562	-2.9229	-3.1729	-138.420	-8.302	21.134	144.650	159.682	155.840	47.423	117.044	-21.633	198.813	95.252	-62.012	-91.661	-142.406	-106.096	-144.851	0.00048376	0.00030177	0.00013384	391.7	2.3534e-06	4.8329e-07	708.78	167.34	6.0398e-06	5.2833e-06	316.43	131.21	76.335	39.813	5.1136e-06	65.025	0.00014025	0.00013242	4.3621e-05	377.01	1.4258e-06	1.4818e-06	672.76	159.61	1.3783e-06	1.4936e-06	289.62	121.53	70.583	37.263	1.7135e-06	58.972	-81.866	-116.954	-38.167	-134.455	-16.073	-80.889	-135.806	-128.973	11.107	-20.870	-131.886	-127.355	-124.181	-119.265	17.795	-123.056	-8191	255	
2393.849	1	1	0	0	0.06163	0.11553	0.17874	0.23859	0.045903	0.14117	0.25032	0.034015	0.062042	0.24898	0.072119	0.094069	0.21068	0.16203	0.1084	0.14621	-2.1396	-3.1292	-2.8708	-2.8458	-3.1833	-2.7562	-2.8542	-3.0917	-2.5042	-2.9417	-3.1312	-2.7646	-3.2021	-2.8083	-2.8438	-3.1063	-8.912	8.475	-30.681	169.178	137.411	175.611	165.922	-122.796	182.280	-20.217	2.350	179.314	85.446	187.317	136.563	187.432	0.0004919	0.00010975	8.2973e-05	388.2	2.7105e-06	2.0258e-06	710.75	164.83	1.2559e-06	9.9389e-07	312.76	130.45	75.973	39.292	5.0354e-06	63.74	0.00013496	0.00014505	4.3396e-05	374.14	1.4039e-06	1.609e-06	672.7	157.85	1.3835e-06	1.6763e-06	287.52	120.67	70	36.917	1.6524e-06	58.091	-84.767	153.103	-13.840	-134.604	-43.249	-122.660	-135.611	-128.717	32.575	64.887	-131.727	-127.354	-124.455	-119.228	11.055	-123.003	-8191	255	
2393.970	1	1	0	0	0.15817	0.18295	0.057336	0.16521	0.055073	0.065871	0.075839	0.10984	0.19524	0.18579	0.29092	0.068698	0.28847	0.10534	0.15681	0.21383	-2.1604	-2.9333	-2.9479	-2.6708	-3.2167	-3.0646	-3.0354	-3.1562	-2.5625	-3.1354	-2.9813	-2.6188	-3.0667	-3.0354	-2.6604	-3.0271	100.980	162.178	-35.910	130.846	-126.112	-13.187	149.685	-133.894	202.992	-19.305	8.376	-37.821	-74.627	-27.708	167.965	76.376	0.00050131	0.00021517	0.00014715	383.33	2.2857e-06	2.5832e-06	697.74	161.9	5.3625e-06	2.3223e-06	307.37	127.75	74.396	38.883	5.1505e-06	63.318	0.00013733	0.00015469	4.1261e-05	368.38	1.4313e-06	1.738e-06	660.51	154.21	1.4518e-06	1.7401e-06	281.36	118.04	68.881	36.467	1.5668e-06	57.448	-84.321	-108.077	-63.557	-134.235	-41.883	71.216	-136.009	-129.058	52.464	130.325	-131.739	-127.032	-124.345	-119.126	-30.587	-122.961	-8191	255	
2394.041	1	1	0	0	0.25573	0.17001	0.10863	0.34049	0.032545	0.073047	0.16951	0.13483	0.25253	0.13244	0.030847	0.204	0.30736	0.099787	0.12034	0.22527	-2.3125	-2.9604	-2.9938	-2.5104	-3.1771	-3.1521	-2.6896	-3.0646	-2.8312	-2.8333	-3.2146	-2.5792	-3.0104	-3.0104	-2.9896	-3.2958	207.419	197.036	-146.360	152.235	155.515	137.684	-94.603	-76.608	-17.637	21.083	182.907	209.896	-87.849	162.732	-137.922	155.788	0.00045693	0.00049993	8.3738e-05	379.8	3.2501e-06	4.6531e-06	701.46	163.58	4.6202e-06	4.4812e-06	311.06	130.51	76.226	39.986	2.5253e-06	64.45	0.00014808	0.00015887	3.9566e-05	365.72	1.5491e-06	1.7307e-06	662.17	155.82	1.5814e-06	1.7248e-06	284.78	120.17	70.984	37.333	1.533e-06	58.588	-87.627	-102.034	-15.217	-134.517	-131.123	-19.798	-135.502	-129.092	0.362	31.902	-131.734	-127.390	-124.169	-118.806	-15.596	-123.142	-8191	255	
2394.137	1	1	0	0	0.14205	0.28686	0.20389	0.14867	0.074686	0.27937	0.1642	0.17464	0.11232	0.071188	0.15889	0.34949	0.17336	0.022788	0.090501	0.43631	-2.2083	-2.8312	-3.2021	-2.5	-3.1021	-3.0333	-2.6354	-3.1708	-2.8958	-2.8417	-2.9208	-2.6792	-3.0563	-3.0187	-2.6937	-3.0438	94.176	-127.335	128.399	-137.511	166.428	8.784	172.073	27.464	-118.119	155.831	205.386	-104.757	-39.968	25.330	76.276	156.027	0.00051217	0.00033875	0.00018138	386.65	3.753e-06	1.7155e-06	701.97	164.38	2.6448e-06	3.9119e-06	310.95	129.23	75.851	39.382	4.7831e-06	63.636	0.00016089	0.00015467	3.8691e-05	370.93	1.6863e-06	1.6708e-06	665.21	157.32	1.701e-06	1.6549e-06	284.67	119.77	70.636	36.931	1.4656e-06	57.908	-82.970	-79.764	-11.398	-134.274	-30.022	-56.843	-135.633	-128.814	63.978	49.452	-131.626	-127.181	-124.580	-118.828	13.027	-122.834	-8191	255	
2394.233	1	1	0	0	0.081771	0.15445	0.14392	0.091282	0.13587	0.29544	0.29483	0.18107	0.0626	0.30719	0.074317	0.34711	0.095729	0.12872	0.1416	0.1647	-2.4229	-2.8104	-3.0104	-2.8167	-3.0396	-3.0146	-2.5479	-3.0312	-2.9833	-2.6542	-3.5062	-2.9062	-2.9313	-3.2521	-2.7062	-3.2125	-121.322	142.302	111.193	-88.751	-128.479	-121.423	206.115	138.766	129.671	127.964	-120.672	-143.423	-52.994	43.051	-108.306	153.630	0.00049787	0.00026404	5.9501e-05	379.35	2.0951e-06	2.9313e-06	697.72	162.31	3.9096e-06	7.0263e-06	308.64	128.12	75.164	39.01	2.7548e-06	63.343	0.00016685	0.00014498	3.6957e-05	365.79	1.7386e-06	1.576e-06	657.98	154.99	1.734e-06	1.5479e-06	281	118.55	69.954	36.448	1.4206e-06	57.782	-84.678	-54.490	-43.184	-134.476	32.065	-0.143	-135.946	-128.779	4.057	31.894	-132.007	-127.322	-124.524	-119.116	45.430	-123.078	-8191	255	
2394.352	1	1	0	0	0.15371	0.15793	0.090807	0.18965	0.068183	0.13633	0.25478	0.29524	0.28383	0.26228	0.31805	0.26645	0.12166	0.10696	0.12069	0.19443	-2.4917	-2.725	-3.0333	-2.9208	-2.8104	-2.8625	-2.7188	-2.9771	-2.7625	-2.7771	-3.2562	-2.9042	-2.9375	-2.8521	-2.6271	-3.1854	169.104	157.284	-110.650	92.576	-60.073	75.574	207.617	75.687	51.765	-95.431	152.362	149.952	116.837	48.823	132.465	154.302	0.00047198	0.00062759	7.8064e-05	378.66	2.4061e-06	4.161e-06	690.26	161.94	3.0909e-06	4.7138e-06	306	127.04	74.398	38.502	3.1471e-06	62.478	0.00016404	0.0001384	3.5828e-05	366.84	1.6979e-06	1.5047e-06	653.96	154.79	1.6799e-06	1.5058e-06	279.26	117.92	69.008	35.946	1.3972e-06	57.133	-74.257	-105.772	-40.726	-134.490	73.569	-58.954	-135.897	-129.019	56.866	27.497	-131.835	-127.290	-123.784	-119.014	-24.779	-123.296	-8191	255	
2394.449	1	1	0	0	0.010609	0.11718	0.17399	0.23479	0.058727	0.22341	0.16248	0.16157	0.10483	0.032659	0.19022	0.079038	0.23734	0.21246	0.097586	0.087785	-2.5083	-2.6354	-3.0438	-2.8854	-2.9188	-3.1562	-2.8333	-2.9646	-2.9729	-2.6208	-3.1208	-3.05	-2.7354	-3.2417	-2.7562	-2.8146	32.396	-60.289	19.564	-113.954	208.099	204.124	179.767	93.272	-133.998	-82.945	74.540	165.133	85.467	67.459	181.449	-121.610	0.00050164	0.00031924	4.3489e-05	378.99	2.3429e-06	8.7245e-07	697.24	161.37	3.6368e-06	3.04e-06	307.16	128.43	75.56	39.084	1.9069e-06	63.782	0.00015735	0.0001328	3.5837e-05	368.46	1.6155e-06	1.4528e-06	657.94	155.01	1.6077e-06	1.4582e-06	280.65	119.07	69.831	36.56	1.5111e-06	58.125	-90.287	-55.717	31.978	-134.720	43.419	-67.020	-135.992	-128.864	1.981	63.184	-131.886	-127.492	-124.595	-118.885	-76.830	-123.094	-8191	255	
2394.545	1	1	0	0	0.032968	0.080791	0.19114	0.33873	0.12441	0.15915	0.25864	0.18141	0.084629	0.03888	0.15618	0.13597	0.014938	0.31552	0.28084	0.29635	-2.5354	-2.7438	-3.0083	-2.7146	-2.9354	-3.1042	-2.7583	-3.0542	-3.0354	-2.7583	-3.0771	-3.0125	-2.5792	-3.3208	-2.6188	-2.9979	-54.742	128.768	-5.608	197.993	120.656	211.680	-81.626	86.112	17.651	159.170	171.970	-141.385	200.112	-146.235	212.805	86.803	0.00050259	0.00068391	2.5097e-05	386	2.1883e-06	2.7384e-06	708.91	164.12	6.4564e-06	9.6659e-07	312.05	130.02	75.677	39.592	3.8214e-06	63.835	0.00015514	0.00013057	3.9412e-05	374.83	1.5783e-06	1.4677e-06	671	158.06	1.5842e-06	1.4483e-06	286.28	120.67	70.455	36.928	1.6799e-06	58.365	-87.622	-136.368	121.304	-134.374	13.181	32.868	-136.031	-128.734	11.968	61.828	-132.012	-127.422	-123.717	-118.916	-91.628	-123.205	-8191	255	
2394.641	1	1	0	0	0.16733	0.10596	0.12831	0.081818	0.31834	0.27046	0.3625	0.16068	0.14949	0.10855	0.083172	0.15081	0.19822	0.23514	0.017974	0.137	-2.5875	-2.55	-2.9813	-2.8646	-2.7333	-3.325	-2.7125	-2.8563	-3.1562	-2.6	-2.9771	-3.0062	-2.6583	-2.9625	-2.9896	-2.8208	94.367	-58.242	-16.450	-8.231	200.151	54.355	130.963	18.680	38.932	126.782	-59.922	190.424	158.462	159.315	-46.127	30.143	0.00046968	0.00041519	3.5795e-05	382.59	1.2153e-06	3.0958e-06	701.61	160.71	2.7925e-06	1.4926e-06	304.95	127.25	74.279	38.698	2.7241e-06	63.001	0.00015144	0.0001303	4.3672e-05	372.11	1.5333e-06	1.4494e-06	666.09	154.59	1.5243e-06	1.4527e-06	281.48	118.13	68.97	36.184	1.7723e-06	57.397	-90.567	207.384	-112.590	-134.369	-41.449	-36.586	-136.030	-128.551	3.693	16.311	-132.094	-127.115	-124.229	-119.140	-81.312	-123.075	-8191	255	
2394.737	1	1	0	0	0.16355	0.096156	0.15486	0.28331	0.027489	0.27833	0.13508	0.25452	0.057969	0.10307	0.21272	0.24217	0.11728	0.21461	0.26805	0.11682	-2.5854	-2.6417	-2.7812	-3.1562	-2.7104	-3.0062	-2.9646	-2.7562	-3.1396	-2.7792	-2.8958	-2.9688	-2.725	-3.1562	-2.7833	-2.6167	191.885	42.853	13.802	132.018	182.857	49.371	207.507	168.095	-94.614	33.287	209.124	-139.689	-47.082	-39.495	-90.255	159.623	0.0004863	0.00024005	4.3044e-05	381.2	3.3228e-06	2.1855e-06	700.34	161.11	4.2776e-06	2.8178e-06	305.62	126.7	73.972	38.531	2.448e-06	62.551	0.00014463	0.00013478	4.5144e-05	369.46	1.4622e-06	1.5066e-06	664.42	154.42	1.4606e-06	1.5346e-06	281.33	117.66	68.571	36.05	1.7611e-06	56.923	-82.611	-62.448	-2.488	-134.555	59.647	188.120	-136.094	-128.770	1.226	-1.650	-131.915	-127.590	-124.392	-118.807	9.615	-123.130	-8191	255	
2394.833	1	1	0	0	0.13315	0.036128	0.1991	0.11209	0.085867	0.22255	0.21526	0.29136	0.17049	0.11354	0.054762	0.34367	0.15311	0.062426	0.2701	0.12909	-2.6958	-2.6792	-2.9354	-2.9188	-2.6937	-3.1833	-2.8854	-2.8146	-3.3042	-2.6771	-2.8646	-3.275	-2.725	-2.9229	-2.7833	-2.9083	99.120	-130.189	175.839	194.011	71.708	39.805	-131.262	121.841	116.187	29.451	14.495	-138.606	-121.415	-7.930	133.781	140.487	0.00044213	0.00033466	0.00013185	376.96	1.9216e-06	3.6979e-06	693.21	159.09	3.8449e-06	1.965e-06	300.6	124.45	72.818	37.792	1.2402e-06	61.655	0.00013947	0.00014597	4.4381e-05	364.55	1.4047e-06	1.6352e-06	657.59	151.85	1.4195e-06	1.6679e-06	276.02	115.31	67.297	35.492	1.6825e-06	56.184	-88.423	-120.275	-31.795	-134.523	6.774	-51.700	-135.890	-129.120	-52.013	192.036	-131.852	-127.327	-124.287	-118.980	29.998	-123.082	-8191	255	
2394.929	1	1	0	0	0.12946	0.33374	0.37698	0.2553	0.081257	0.18795	0.31526	0.069881	0.15485	0.14595	0.12029	0.21451	0.29103	0.12973	0.23562	0.29105	-2.8396	-2.5958	-2.8812	-2.9583	-2.6625	-3.0542	-2.9729	-2.8521	-3.1979	-2.8083	-2.9562	-3.0979	-2.7687	-2.9542	-2.8979	-2.7646	134.328	-135.206	-52.636	135.892	-132.510	56.415	148.605	-77.731	-64.505	140.158	83.047	-116.928	187.483	106.911	67.863	207.912	0.00047821	8.1111e-05	4.8002e-05	378.47	3.8604e-06	2.6137e-06	695.25	160.64	5.3748e-06	8.9678e-08	305.3	126.94	74.273	38.851	2.1499e-06	62.516	0.000139	0.00015526	4.1945e-05	364.08	1.4326e-06	1.7374e-06	658.36	153.27	1.4632e-06	1.7597e-06	279.87	117.25	68.888	36.371	1.6175e-06	57.049	-84.858	-62.325	20.698	-134.467	-34.677	-17.750	-135.804	-129.175	-15.200	179.834	-131.877	-127.190	-124.070	-119.054	-39.517	-122.683	-8191	255	
2395.048	1	1	0	0	0.10561	0.10634	0.064242	0.072513	0.31906	0.093148	0.26621	0.26183	0.10429	0.032492	0.059032	0.18478	0.059749	0.24496	0.36177	0.099014	-2.6458	-2.7625	-2.8896	-3.0896	-2.6979	-3.0083	-3.1875	-2.5083	-3.2188	-2.8292	-2.8042	-3.1896	-2.7771	-2.9938	-3.1021	-2.675	203.460	53.059	-35.985	88.083	139.799	20.723	185.961	121.411	65.199	-45.811	95.614	100.420	142.191	153.652	14.987	102.809	0.00046093	0.00045081	0.00016739	384.14	9.2701e-07	1.6032e-06	703.08	162.23	3.7683e-06	4.8634e-06	305.68	127.27	74.757	38.778	1.7076e-06	62.889	0.00014863	0.00016422	4.036e-05	369.25	1.5527e-06	1.7977e-06	667.16	155.15	1.6044e-06	1.7838e-06	281.72	117.85	69.671	36.433	1.563e-06	57.087	-87.090	-41.604	26.038	-134.512	164.722	73.140	-135.813	-128.772	29.684	57.611	-131.660	-127.351	-124.141	-118.683	15.006	-123.018	-8191	255	
2395.144	1	1	0	0	0.10051	0.20758	0.18717	0.079287	0.049358	0.045141	0.13643	0.073741	0.14782	0.22608	0.29543	0.080454	0.13367	0.11167	0.099162	0.099385	-2.5417	-2.9542	-2.6729	-3.1667	-2.7729	-2.8083	-3.25	-2.5229	-3.0729	-2.825	-2.8292	-3.0604	-2.8917	-2.8125	-3.1479	-2.5354	-121.730	-24.475	-28.105	-33.243	94.558	-44.605	139.325	-90.448	52.216	15.335	147.303	62.273	157.831	-120.836	25.755	-101.864	0.00055828	0.00030326	5.3412e-05	383.32	2.1524e-06	5.1854e-06	702.59	161.41	3.0439e-06	2.4193e-06	303.03	125.8	73.638	38.237	4.8746e-06	62.375	0.00016048	0.00015804	3.8775e-05	367.91	1.6824e-06	1.708e-06	663.59	153.7	1.7154e-06	1.6746e-06	278.3	116.51	68.821	35.817	1.5038e-06	56.687	-82.989	-59.162	-36.274	-134.523	-82.133	-29.163	-135.997	-128.671	-9.718	65.887	-132.052	-127.113	-124.198	-118.918	0.451	-123.311	-8191	255	
#DATA ENDS
