BOXY.EXE: ISS Imagent and Oximeter Data Acquisition Program Version 0.80
Ascii Record File

#ACQ INFORMATION
2  Detector Channels 
16  External MUX Channels 
1  Auxiliary Channels 
5000  Waveform (CCF) Frequency (Hz)
1  Waveforms Skipped 
30  Waveforms Averaged 
1  Cycles Averaged 
16  Acquisitions per Waveform 
10.0806  Updata Rate (Hz) 

#FILE INFORMATION
TRUE -- External MUX Channel results are PARSED.
FALSE -- AC DC and Phase are NOT grouped.
TRUE -- Companion Program Settings File CREATED.
FALSE -- AC data not excluded
FALSE -- DC data not excluded
FALSE -- Phase data not excluded
FALSE -- Auxillary Chn. data not excluded
Tab delimiters

#CALIBRATION STATE
TRUE -- Waveform Calibration Values APPLIED.


#AUX CALIBRATION VALUES
Val Type	aux-1	

Term	1.0000e+00	
Factor	0.0000e+00	


#WF CALIBRATION VALUES
A = Detector Channel
Val Type	A-AC1	A-AC2	A-AC3	A-AC4	A-AC5	A-AC6	A-AC7	A-AC8	A-AC9	A-AC10	A-AC11	A-AC12	A-AC13	A-AC14	A-AC15	A-AC16	A-DC1	A-DC2	A-DC3	A-DC4	A-DC5	A-DC6	A-DC7	A-DC8	A-DC9	A-DC10	A-DC11	A-DC12	A-DC13	A-DC14	A-DC15	A-DC16	A-Ph1	A-Ph2	A-Ph3	A-Ph4	A-Ph5	A-Ph6	A-Ph7	A-Ph8	A-Ph9	A-Ph10	A-Ph11	A-Ph12	A-Ph13	A-Ph14	A-Ph15	A-Ph16	

Term	0.00000e+00	0.00000e+00	0.00000e+00	0.00000e+00	0.00000e+00	0.00000e+00	0.00000e+00	0.00000e+00	0.00000e+00	0.00000e+00	0.00000e+00	0.00000e+00	0.00000e+00	0.00000e+00	0.00000e+00	0.00000e+00	0.00000e+00	0.00000e+00	0.00000e+00	0.00000e+00	0.00000e+00	0.00000e+00	0.00000e+00	0.00000e+00	0.00000e+00	0.00000e+00	0.00000e+00	0.00000e+00	0.00000e+00	0.00000e+00	0.00000e+00	0.00000e+00	0.00000e+00	0.00000e+00	0.00000e+00	0.00000e+00	0.00000e+00	0.00000e+00	0.00000e+00	0.00000e+00	0.00000e+00	0.00000e+00	0.00000e+00	0.00000e+00	0.00000e+00	0.00000e+00	0.00000e+00	0.00000e+00	
Factor	1.00000e+00	1.00000e+00	1.00000e+00	1.00000e+00	1.00000e+00	1.00000e+00	1.00000e+00	1.00000e+00	1.00000e+00	1.00000e+00	1.00000e+00	1.00000e+00	1.00000e+00	1.00000e+00	1.00000e+00	1.00000e+00	1.00000e+00	1.00000e+00	1.00000e+00	1.00000e+00	1.00000e+00	1.00000e+00	1.00000e+00	1.00000e+00	1.00000e+00	1.00000e+00	1.00000e+00	1.00000e+00	1.00000e+00	1.00000e+00	1.00000e+00	1.00000e+00	X	X	X	X	X	X	X	X	X	X	X	X	X	X	X	X	

B = Detector Channel
Val Type	B-AC1	B-AC2	B-AC3	B-AC4	B-AC5	B-AC6	B-AC7	B-AC8	B-AC9	B-AC10	B-AC11	B-AC12	B-AC13	B-AC14	B-AC15	B-AC16	B-DC1	B-DC2	B-DC3	B-DC4	B-DC5	B-DC6	B-DC7	B-DC8	B-DC9	B-DC10	B-DC11	B-DC12	B-DC13	B-DC14	B-DC15	B-DC16	B-Ph1	B-Ph2	B-Ph3	B-Ph4	B-Ph5	B-Ph6	B-Ph7	B-Ph8	B-Ph9	B-Ph10	B-Ph11	B-Ph12	B-Ph13	B-Ph14	B-Ph15	B-Ph16	

Term	0.00000e+00	0.00000e+00	0.00000e+00	0.00000e+00	0.00000e+00	0.00000e+00	0.00000e+00	0.00000e+00	0.00000e+00	0.00000e+00	0.00000e+00	0.00000e+00	0.00000e+00	0.00000e+00	0.00000e+00	0.00000e+00	0.00000e+00	0.00000e+00	0.00000e+00	0.00000e+00	0.00000e+00	0.00000e+00	0.00000e+00	0.00000e+00	0.00000e+00	0.00000e+00	0.00000e+00	0.00000e+00	0.00000e+00	0.00000e+00	0.00000e+00	0.00000e+00	-2.01985e+02	-1.29378e+02	-1.28570e+02	-1.80487e+02	-8.05482e+01	-6.35979e+01	-1.57016e+02	-1.62015e+02	-9.10596e+01	-6.42508e+01	-1.71443e+02	-1.71615e+02	-1.83224e+02	-1.76661e+02	-7.99887e+01	-1.49508e+02	
Factor	5.02138e-05	2.16187e-04	5.75228e-05	2.02782e-01	2.24451e-06	2.39498e-06	2.11821e-01	6.23708e-02	2.36109e-06	2.12806e-06	1.02550e-01	4.02935e-02	4.67635e-02	1.15781e-02	2.14567e-06	1.65216e-02	1.48403e-05	2.08106e-05	5.80611e-06	1.01095e-01	2.10257e-07	2.31288e-07	9.93696e-02	3.12328e-02	2.09323e-07	2.30627e-07	4.98278e-02	1.95568e-02	2.33408e-02	5.84236e-03	2.17295e-07	8.10984e-03	X	X	X	X	X	X	X	X	X	X	X	X	X	X	X	X	



#DISTANCE SETTINGS
A = Detector Channel
A-1	A-2	A-3	A-4	A-5	A-6	A-7	A-8	A-9	A-10	A-11	A-12	A-13	A-14	A-15	A-16	

2.5000e+00	3.0000e+00	2.5000e+00	3.0000e+00	2.0000e+00	3.0000e+00	1.5000e+00	3.0000e+00	3.0000e+00	3.0000e+00	3.0000e+00	3.0000e+00	3.0000e+00	3.0000e+00	1.5000e+00	3.0000e+00	

B = Detector Channel
B-1	B-2	B-3	B-4	B-5	B-6	B-7	B-8	B-9	B-10	B-11	B-12	B-13	B-14	B-15	B-16	

1.0000e+01	1.0000e+01	1.0000e+01	1.4400e+00	1.0000e+01	1.0000e+01	1.5100e+00	1.9400e+00	1.0000e+01	1.0000e+01	1.9900e+00	2.4900e+00	2.4100e+00	2.9000e+00	1.0000e+01	2.9800e+00	




#DATA BEGINS
time	group	step	mark	flag	A-AC1	A-AC2	A-AC3	A-AC4	A-AC5	A-AC6	A-AC7	A-AC8	A-AC9	A-AC10	A-AC11	A-AC12	A-AC13	A-AC14	A-AC15	A-AC16	A-DC1	A-DC2	A-DC3	A-DC4	A-DC5	A-DC6	A-DC7	A-DC8	A-DC9	A-DC10	A-DC11	A-DC12	A-DC13	A-DC14	A-DC15	A-DC16	A-Ph1	A-Ph2	A-Ph3	A-Ph4	A-Ph5	A-Ph6	A-Ph7	A-Ph8	A-Ph9	A-Ph10	A-Ph11	A-Ph12	A-Ph13	A-Ph14	A-Ph15	A-Ph16	B-AC1	B-AC2	B-AC3	B-AC4	B-AC5	B-AC6	B-AC7	B-AC8	B-AC9	B-AC10	B-AC11	B-AC12	B-AC13	B-AC14	B-AC15	B-AC16	B-DC1	B-DC2	B-DC3	B-DC4	B-DC5	B-DC6	B-DC7	B-DC8	B-DC9	B-DC10	B-DC11	B-DC12	B-DC13	B-DC14	B-DC15	B-DC16	B-Ph1	B-Ph2	B-Ph3	B-Ph4	B-Ph5	B-Ph6	B-Ph7	B-Ph8	B-Ph9	B-Ph10	B-Ph11	B-Ph12	B-Ph13	B-Ph14	B-Ph15	B-Ph16	aux-1	digaux	

21350.924	1	1	0	768	0.09149	0.027925	0.17125	0.20934	0.081555	0.27038	0.22196	0.053491	0.29396	0.27563	0.28556	0.20382	0.059783	0.2072	0.086906	0.10793	-2.4688	-2.8146	-3.075	-3.2792	-2.9875	-2.9708	-2.9625	-3.3292	-3.175	-2.8771	-3.2687	-2.8604	-2.8542	-3.075	-2.7646	-3.1458	376.019	366.624	335.015	191.853	245.308	239.028	454.199	369.216	236.935	266.122	482.061	396.198	194.847	410.539	494.783	335.263	0.0011635	0.00053992	0.00011594	1327.3	6.837e-06	4.92e-06	1325.6	357.45	7.3382e-06	5.3285e-06	408.47	137.65	119.57	40.926	4.7957e-06	50.546	0.00066593	0.00061344	0.00016689	1351.2	6.4439e-06	6.3628e-06	1352.4	365.65	6.4192e-06	6.5858e-06	418.92	140.32	121.91	42.166	6.3767e-06	52.254	477.749	246.290	255.615	168.075	273.096	303.941	167.720	172.687	249.356	304.933	172.250	175.994	176.702	181.785	294.765	180.591	-8191	255	
21351.020	1	1	0	0	0.16921	0.044268	0.15499	0.17358	0.18777	0.27453	0.12961	0.13285	0.28772	0.11784	0.14826	0.16994	0.077468	0.16781	0.15233	0.21292	-2.6708	-2.8042	-3.2021	-2.9292	-2.9125	-3.0563	-3.0583	-3.1854	-2.8688	-2.8396	-3.1646	-3.1354	-2.9167	-3.1125	-2.7062	-3.1792	453.531	380.303	421.700	514.082	364.149	178.393	389.820	491.110	197.641	331.124	171.668	452.852	226.093	511.146	244.808	460.040	0.0011837	0.00041969	0.00014566	1326.1	4.987e-06	4.3925e-06	1324.8	358.1	7.2422e-06	3.8117e-06	406.53	137.69	119.16	40.815	1.8931e-06	50.58	0.00067063	0.00060416	0.00016657	1350.5	6.4882e-06	6.5325e-06	1351.7	366.02	6.4323e-06	6.4974e-06	418.7	140.47	121.79	42.206	6.5999e-06	52.264	479.108	251.503	232.571	168.147	274.224	302.397	167.850	172.697	251.919	322.063	172.105	175.980	176.910	181.873	264.822	180.782	-8191	255	
21351.115	1	1	0	0	0.10954	0.13488	0.090596	0.49152	0.078544	0.29452	0.31857	0.22286	0.15782	0.21354	0.3156	0.30194	0.041662	0.1375	0.10769	0.08226	-2.5333	-2.8937	-3.1958	-3.0812	-2.8146	-3.1646	-2.9417	-2.9813	-3.1625	-2.9417	-3.1833	-3.0125	-2.9604	-3.1979	-2.8604	-2.9271	468.466	336.956	346.824	183.405	465.447	312.970	465.442	413.663	463.924	363.151	177.148	466.487	356.834	463.430	347.908	177.276	0.0011641	0.0004453	8.8363e-05	1327	6.9964e-06	4.4719e-06	1325	358.8	7.0326e-06	3.8629e-06	409.99	137.78	119.41	40.803	6.0015e-06	50.426	0.00067344	0.00059839	0.00016302	1353.8	6.4877e-06	6.3831e-06	1353.2	366.46	6.4267e-06	6.495e-06	419.75	140.57	122.06	42.137	6.5415e-06	52.169	482.379	252.592	248.350	167.991	275.607	295.466	167.902	172.591	265.430	311.341	172.315	176.061	176.467	181.749	259.552	180.884	-8191	255	
21351.213	1	1	0	0	0.15593	0.24826	0.25005	0.26729	0.071186	0.080973	0.21221	0.21591	0.14815	0.26573	0.26453	0.33911	0.15818	0.14894	0.13747	0.13882	-2.5396	-2.6125	-3.0646	-3.1833	-2.8937	-3.0521	-3.1125	-2.9146	-3.125	-2.7521	-3.2146	-2.8792	-2.8646	-3.1375	-2.8	-2.9958	269.726	419.870	500.065	440.820	179.152	238.728	154.734	430.789	275.366	371.744	495.314	444.317	243.434	346.534	430.504	407.534	0.0012097	0.0005142	0.0001293	1326.6	9.3476e-06	6.8149e-06	1325.5	358.1	8.9331e-06	3.8227e-06	409.23	138.03	119.21	40.821	5.6574e-06	50.461	0.00066819	0.00059748	0.00016318	1351.9	6.4693e-06	6.598e-06	1350.9	365.9	6.4663e-06	6.4451e-06	418.8	140.42	121.81	42.08	6.5958e-06	52.278	479.461	272.706	252.891	168.177	279.439	312.076	167.793	172.666	256.887	311.389	172.188	175.921	176.883	181.493	271.284	180.875	-8191	255	
21351.309	1	1	0	0	0.13056	0.075901	0.25944	0.22456	0.2979	0.17483	0.097907	0.078255	0.2729	0.061883	0.2498	0.21687	0.050367	0.28443	0.11366	0.19204	-2.5542	-2.7271	-2.9375	-3.1875	-2.7229	-3.0583	-2.9271	-2.9458	-2.9396	-2.8063	-3.1125	-3.1583	-2.7729	-3.1625	-2.7875	-2.9	160.367	391.319	439.239	480.574	316.375	410.331	166.767	469.770	235.341	227.583	455.904	436.816	336.875	157.005	449.824	427.252	0.0011222	0.00048185	0.0001045	1326.9	7.3337e-06	7.4208e-06	1327	358.08	9.0806e-06	3.8385e-06	408.9	137.91	119.36	40.823	7.417e-06	50.575	0.00066596	0.00058816	0.00016383	1352.7	6.5955e-06	6.5016e-06	1351.9	365.83	6.462e-06	6.5166e-06	419.5	140.25	122.02	42.193	6.3197e-06	52.318	479.715	249.002	262.105	168.075	289.794	340.965	167.794	172.507	263.555	307.191	172.239	176.103	176.771	181.580	284.408	180.655	-8191	255	
21351.404	1	1	0	0	0.046818	0.046486	0.063011	0.08097	0.17947	0.13206	0.36661	0.17226	0.13374	0.10687	0.071564	0.137	0.12674	0.32448	0.12098	0.13457	-2.6833	-2.7	-2.7729	-3.1333	-2.925	-3.2313	-3.0354	-2.9562	-3.2604	-2.7313	-3.2083	-3.2313	-2.9042	-3.1354	-3.0521	-2.9229	385.815	260.329	156.402	237.024	474.373	269.339	442.216	173.503	346.408	501.850	449.818	156.596	219.295	189.819	238.827	467.464	0.0011348	0.00053316	9.8866e-05	1328.2	4.7354e-06	4.4033e-06	1322.2	358.55	8.2864e-06	5.0234e-06	410.97	137.31	119.19	40.702	4.7305e-06	50.291	0.00066763	0.00059445	0.00016517	1352.6	6.5166e-06	6.5435e-06	1349.9	365.92	6.4698e-06	6.5858e-06	419.64	140.18	121.82	42.144	6.3763e-06	52.199	480.608	233.716	249.260	168.061	275.471	320.014	167.844	172.654	274.617	310.094	172.260	176.172	176.613	181.959	289.929	180.690	-8191	255	
21351.523	1	1	0	0	0.076984	0.098357	0.08016	0.28382	0.13254	0.21884	0.30842	0.27188	0.13369	0.17157	0.13246	0.17977	0.084666	0.16019	0.13523	0.31586	-2.7271	-2.6396	-2.8958	-3.2062	-2.8083	-3.1375	-3.0167	-2.9688	-3.2854	-2.9646	-2.9896	-3.0708	-2.8292	-3.0479	-3.0479	-2.8792	330.668	454.520	436.149	177.542	163.278	162.874	173.099	466.467	256.396	172.398	158.682	483.048	496.297	508.399	340.822	467.823	0.0011195	0.00055491	0.0001392	1323.2	5.5674e-06	2.3345e-06	1325	357.44	8.0984e-06	4.1351e-06	408.41	137.24	119.24	40.884	5.1494e-06	50.438	0.00065925	0.00060446	0.00016851	1350.5	6.5806e-06	6.5363e-06	1349.7	365.58	6.4581e-06	6.4796e-06	418.73	140.26	121.93	42.152	6.4301e-06	52.257	480.084	249.127	261.533	168.018	269.063	323.914	167.708	172.629	278.164	333.799	172.162	176.089	176.779	181.947	276.781	180.814	-8191	255	
21351.619	1	1	0	0	0.30021	0.25219	0.13423	0.18467	0.2526	0.16205	0.19367	0.10962	0.049545	0.026925	0.14733	0.12766	0.22267	0.11504	0.26622	0.34506	-2.7771	-3.0583	-2.9792	-3.3	-2.6792	-3.0979	-3.1229	-2.9021	-3.2438	-2.875	-2.9729	-3.2646	-2.7708	-3.0479	-3.1063	-2.8521	240.308	467.488	411.874	420.348	230.814	163.904	472.994	452.775	301.589	360.946	236.900	341.844	172.615	355.867	509.849	498.219	0.0011274	0.00037095	0.00014951	1323.6	7.266e-06	6.052e-06	1326.7	358.76	6.9197e-06	4.6385e-06	409.27	138.19	118.87	40.841	4.5446e-06	50.527	0.00066509	0.0005784	0.00016772	1351.2	6.592e-06	6.6341e-06	1352.5	365.97	6.4598e-06	6.5287e-06	418.73	140.62	121.61	42.203	6.5252e-06	52.247	480.261	259.692	241.782	168.276	268.915	298.271	167.767	172.515	264.546	289.107	172.242	176.179	176.608	181.594	277.080	180.968	-8191	255	
21351.717	1	1	0	0	0.058285	0.088042	0.064792	0.060231	0.095439	0.1749	0.14619	0.23141	0.084422	0.066268	0.063221	0.13346	0.051879	0.16167	0.047229	0.11393	-2.4979	-2.9083	-2.8229	-3.1771	-2.7167	-2.9896	-3.1646	-2.8333	-2.9625	-2.8708	-2.8771	-3.3104	-2.875	-3.0125	-3.1146	-2.8271	468.883	254.707	336.228	441.163	471.415	374.693	438.261	346.345	426.497	200.938	207.696	462.168	183.675	493.134	303.901	474.987	0.0011607	0.0005321	0.00012598	1322.2	6.5671e-06	3.9598e-06	1320.2	356.74	8.716e-06	6.1191e-06	408.46	137.49	118.86	40.697	4.1106e-06	50.221	0.00066525	0.00060507	0.00017017	1350.4	6.6353e-06	6.6134e-06	1348.4	365.36	6.5409e-06	6.6853e-06	418.71	140.38	121.59	42.126	6.6556e-06	52.211	481.329	264.517	237.245	168.158	277.530	317.651	167.661	172.625	258.114	303.742	172.201	176.131	176.505	182.112	282.388	180.997	-8191	255	
21351.812	1	1	0	0	0.26927	0.084623	0.069545	0.18	0.11652	0.17225	0.21665	0.062695	0.072956	0.24813	0.26289	0.16831	0.18197	0.13034	0.019247	0.24562	-2.5625	-2.8542	-2.7062	-3.0333	-2.8375	-2.8833	-3.225	-2.9542	-2.8875	-2.9396	-2.8208	-3.1771	-2.9771	-2.9042	-3.2125	-2.9	172.739	213.179	346.940	467.987	200.032	226.511	432.775	448.325	412.903	356.156	491.254	329.202	413.202	390.083	234.387	500.879	0.0012255	0.00053347	0.00010547	1317.8	7.4034e-06	4.2306e-06	1320.9	356.26	7.2033e-06	4.4634e-06	410.18	137.17	118.56	40.73	5.7252e-06	50.405	0.00068164	0.00059679	0.0001659	1347.8	6.5416e-06	6.6134e-06	1346.2	364.41	6.5152e-06	6.5527e-06	418.64	139.82	121.29	42.04	6.6198e-06	52.093	479.343	240.416	206.809	168.357	247.765	308.280	167.652	172.647	280.822	298.105	172.002	175.935	176.665	181.791	297.606	180.751	-8191	255	
21351.908	1	1	0	0	0.050186	0.13619	0.051795	0.079934	0.22113	0.19044	0.22208	0.27277	0.10358	0.20496	0.25798	0.016219	0.11143	0.15701	0.2595	0.13811	-2.4938	-2.8896	-2.775	-3.2167	-2.8979	-2.7562	-3.2604	-2.8479	-3.0396	-2.925	-2.9562	-3.0979	-2.9813	-2.6833	-3.3021	-2.9271	334.409	415.441	495.843	425.882	365.981	495.929	159.921	416.149	191.915	454.969	470.265	403.315	467.529	164.170	437.468	464.720	0.001139	0.00058763	0.00015223	1320.4	8.1052e-06	6.1995e-06	1316.5	356.7	6.6069e-06	3.4817e-06	407.03	136.57	118.6	40.552	7.023e-06	50.068	0.0006817	0.000599	0.00017065	1345.6	6.6323e-06	6.8153e-06	1342.8	363.59	6.8e-06	6.6949e-06	416.92	139.51	120.85	41.884	6.647e-06	51.94	479.547	251.606	258.959	168.105	288.586	324.771	167.758	172.509	272.616	312.759	172.377	176.157	176.713	181.596	282.966	180.797	-8191	255	
21352.004	1	1	0	0	0.32494	0.026155	0.15492	0.14677	0.19585	0.096582	0.049131	0.16973	0.30417	0.064539	0.1323	0.34861	0.2325	0.15294	0.30518	0.17172	-2.5792	-2.875	-2.9	-3.1208	-2.9708	-2.8312	-3.3583	-3.0375	-2.9708	-3.2208	-2.9229	-3.0958	-3.1	-2.8667	-3.1542	-2.8312	273.409	429.115	363.114	191.363	269.221	368.317	366.219	444.915	351.785	242.741	475.726	466.020	509.251	355.468	363.744	430.565	0.0012191	0.00045881	0.00011108	1314.2	6.3902e-06	2.4012e-06	1317.9	354.45	9.1685e-06	5.3806e-06	406.06	136.46	117.87	40.45	6.4172e-06	49.906	0.00068946	0.00062475	0.0001738	1341.3	6.6993e-06	7.0177e-06	1340.2	362.75	6.7424e-06	6.8573e-06	415.63	139.07	120.52	41.778	6.8027e-06	51.821	478.674	226.225	214.611	168.106	271.134	308.407	167.735	172.613	267.463	321.578	172.207	176.122	176.764	181.741	308.689	180.730	-8191	255	
21352.100	1	1	0	0	0.13412	0.047709	0.21665	0.32112	0.090539	0.097724	0.38441	0.31433	0.10232	0.18538	0.41953	0.15351	0.21065	0.10755	0.2556	0.16395	-2.4833	-3.2708	-2.7438	-3.1604	-3.0208	-2.8688	-3.4104	-3.0187	-2.9521	-3.2104	-2.7729	-3.1271	-3.2208	-2.8479	-3.2042	-2.9667	465.219	197.127	174.751	512.360	342.994	345.790	423.027	439.966	184.201	402.698	420.599	370.161	209.602	331.260	508.532	397.381	0.0011721	0.00050688	0.00014948	1318.4	5.6739e-06	4.1724e-06	1316.6	355.72	8.8116e-06	5.2977e-06	405.56	136.7	118.13	40.283	4.5793e-06	50.2	0.00069329	0.00062358	0.00017847	1342.3	6.7519e-06	7.0712e-06	1341.8	362.13	6.7821e-06	6.7626e-06	415.53	139.16	120.6	41.704	6.7099e-06	51.857	479.413	234.542	256.624	168.188	257.250	324.691	167.641	172.737	253.033	304.698	172.145	176.107	176.705	181.706	295.521	180.871	-8191	255	
21352.221	1	1	0	0	0.20942	0.1762	0.19371	0.055348	0.097057	0.12127	0.24251	0.17189	0.38014	0.11401	0.047946	0.16758	0.15458	0.14016	0.4033	0.20781	-2.5	-2.9792	-2.9313	-2.9125	-3.1958	-2.8729	-3.1312	-3.1333	-2.8208	-3.05	-3.0271	-2.9479	-3.2	-2.8396	-3.0375	-3.1271	323.919	205.336	277.449	388.397	505.103	203.810	495.220	485.785	212.577	298.792	350.381	250.639	425.325	188.998	363.506	421.359	0.001158	0.0005316	0.00012622	1314	7.3592e-06	4.8489e-06	1309	354.66	7.0777e-06	5.1605e-06	404.67	136.31	118.22	40.417	7.2036e-06	50.148	0.00070133	0.00061924	0.00016837	1340.6	6.7028e-06	6.8071e-06	1338.1	362.85	6.5017e-06	6.7703e-06	415.65	139.26	120.74	41.827	6.6782e-06	51.906	481.429	248.522	253.287	167.963	269.545	315.430	167.705	172.590	237.351	304.559	172.110	176.047	176.499	181.764	282.502	180.952	-8191	255	
21352.314	1	1	0	0	0.33297	0.069565	0.14626	0.30615	0.23308	0.080631	0.16181	0.2842	0.20645	0.22083	0.12616	0.041645	0.25567	0.15272	0.1733	0.28163	-2.5875	-3.2854	-2.9417	-2.9313	-3.0917	-2.6562	-3.2625	-3.0167	-2.7292	-3.0729	-2.8917	-3.0354	-3.125	-2.8187	-2.9042	-3.0896	358.862	513.299	358.627	491.576	368.650	247.877	443.806	265.443	373.959	487.351	393.708	501.712	463.864	454.002	213.249	411.677	0.0011822	0.0005915	9.9023e-05	1315.8	4.2468e-06	5.5115e-06	1313	355.62	9.2355e-06	6.1063e-06	406.44	136.79	118.56	40.525	5.4346e-06	50.15	0.00067598	0.00061994	0.00016827	1342.3	6.3971e-06	6.6635e-06	1339.4	362.74	6.5414e-06	6.4013e-06	415.32	139.27	120.56	41.85	6.5333e-06	51.84	478.727	239.904	234.297	168.401	288.014	314.956	167.699	172.491	266.088	307.148	172.356	176.094	176.742	181.579	273.094	180.711	-8191	255	
21352.410	1	1	0	0	0.024601	0.13475	0.15728	0.15976	0.20125	0.2116	0.21951	0.24211	0.03106	0.11116	0.29531	0.11997	0.054645	0.2986	0.018358	0.12971	-2.4417	-3.1146	-2.7812	-2.9625	-3.1208	-2.8	-3.1667	-3.1125	-2.8354	-3.0833	-3.1458	-3.0667	-3.2604	-2.8812	-2.9875	-3.0438	169.177	429.098	341.364	509.395	385.052	501.079	474.615	467.631	398.939	462.737	423.784	455.846	331.131	440.634	270.015	425.225	0.0011825	0.00045693	7.019e-05	1308.2	7.3374e-06	4.4755e-06	1307.1	355.54	6.9516e-06	5.4236e-06	405.07	137.26	118.33	40.493	4.4791e-06	50.29	0.00065007	0.0005915	0.00016402	1335.8	6.3712e-06	6.3402e-06	1336	362.68	6.3612e-06	6.2586e-06	415.63	139.39	120.82	41.889	6.293e-06	51.921	478.361	233.021	205.673	168.310	292.183	330.391	167.908	172.714	245.448	313.105	172.264	176.079	176.391	181.899	272.506	180.750	-8191	255	
21352.484	1	1	0	0	0.26562	0.026249	0.13434	0.077791	0.097181	0.20564	0.13881	0.1721	0.12095	0.17388	0.18635	0.28413	0.11395	0.19981	0.086616	0.19478	-2.3396	-2.9417	-2.7979	-2.9604	-3.0812	-2.8729	-3.1271	-3.1667	-2.7333	-3.0062	-3.0417	-2.825	-3.1042	-2.9771	-2.8396	-3.0792	512.332	182.083	329.426	438.295	460.906	325.208	483.704	499.549	242.139	341.007	253.161	395.092	348.996	412.712	406.644	160.395	0.0011568	0.00049286	0.00016485	1310.8	5.0227e-06	4.5073e-06	1308.2	354.33	6.453e-06	5.1227e-06	406.28	136.44	118.12	40.744	4.4941e-06	50.01	0.00066479	0.00058612	0.0001627	1336.9	6.2328e-06	6.3224e-06	1336.1	362.24	6.486e-06	6.4998e-06	415.87	139.28	120.66	41.955	6.5243e-06	51.821	479.706	223.221	218.280	168.296	294.259	277.556	167.825	172.668	257.989	338.058	172.040	176.133	176.692	181.963	276.797	181.086	-8191	255	
21352.604	1	1	0	0	0.10328	0.1146	0.11727	0.24064	0.12749	0.05154	0.41192	0.27452	0.083172	0.043853	0.17432	0.38684	0.037994	0.32292	0.24803	0.0090095	-2.4229	-2.9875	-3.0062	-2.825	-3.1354	-2.875	-3.0583	-3.3063	-2.6979	-2.9833	-3.0646	-2.925	-3.1208	-2.9292	-3.0542	-2.9125	277.057	163.057	297.955	437.152	383.693	189.905	510.836	495.089	506.534	195.845	483.831	467.766	200.986	494.034	294.104	384.285	0.0011953	0.00051998	0.00017456	1310.8	5.9541e-06	4.6991e-06	1308.1	354.03	9.0225e-06	2.7655e-06	405.5	136.1	118.31	40.514	3.9686e-06	50.096	0.00067459	0.00059852	0.00016608	1337.5	6.3384e-06	6.5117e-06	1336.4	361.85	6.3892e-06	6.398e-06	415.56	139.29	120.72	41.918	6.4061e-06	51.895	481.121	258.629	236.794	168.049	260.990	282.795	167.743	172.818	252.923	297.329	172.256	176.148	176.645	181.752	292.235	180.994	-8191	255	
21352.699	1	1	0	0	0.048154	0.14181	0.1309	0.4133	0.046016	0.1841	0.05474	0.19547	0.059616	0.26131	0.072517	0.19241	0.18411	0.28977	0.24081	0.21379	-2.575	-2.825	-2.9271	-2.9562	-3.0646	-2.9292	-2.9375	-3.075	-2.8187	-2.8792	-3.0958	-2.8604	-3.0438	-2.8771	-2.7458	-2.9479	289.971	446.543	204.498	437.967	170.590	414.872	497.089	464.115	340.793	324.885	444.369	431.770	448.542	510.764	393.623	495.961	0.0011759	0.0004959	0.00013111	1313.7	6.0302e-06	4.4707e-06	1311.1	354.04	7.8748e-06	6.2616e-06	405.31	136.97	118.42	40.749	5.3843e-06	50.051	0.00066349	0.00060346	0.00016631	1338.5	6.4067e-06	6.5614e-06	1337.7	362.17	6.4916e-06	6.5114e-06	415.29	139.45	120.79	41.954	6.5623e-06	51.88	479.110	229.947	270.075	168.125	280.341	293.942	167.785	172.717	281.086	320.086	172.035	176.203	176.796	181.656	262.420	180.925	-8191	255	
21352.797	1	1	0	0	0.21698	0.11856	0.1422	0.13047	0.15784	0.19069	0.19436	0.020428	0.18079	0.078054	0.31984	0.36695	0.11472	0.45395	0.1161	0.1369	-2.4292	-2.7896	-2.9833	-2.8083	-2.8917	-2.8375	-3.0062	-3.2313	-3.0042	-2.775	-3.2146	-2.8688	-3.0854	-3.05	-2.7458	-2.9458	368.893	179.039	262.252	480.854	201.424	221.587	489.833	347.285	188.628	375.803	482.752	418.237	175.200	423.508	364.809	307.919	0.0011879	0.00051837	0.00013818	1309.3	5.4033e-06	4.7299e-06	1311.8	354.91	8.7837e-06	2.6094e-06	405.83	135.71	118.73	40.599	4.6832e-06	50.018	0.00066642	0.00061044	0.00016391	1335.9	6.2963e-06	6.4486e-06	1336	362.33	6.4838e-06	6.472e-06	415.48	138.93	120.85	41.896	6.5714e-06	51.926	480.618	258.646	259.909	168.229	275.729	310.702	167.639	172.736	258.754	314.476	172.251	176.356	176.781	181.884	261.324	180.795	-8191	255	
21352.918	1	1	0	0	0.22901	0.16787	0.13285	0.22037	0.15267	0.14979	0.070122	0.29004	0.09723	0.11052	0.047874	0.14619	0.19776	0.22066	0.15442	0.084914	-2.4354	-2.9437	-3.1125	-2.8917	-2.9938	-2.925	-2.9083	-3.1813	-2.7771	-2.6813	-2.9854	-3.0042	-3.0896	-2.9167	-2.8229	-3.1292	428.413	426.553	296.874	500.352	305.513	212.263	205.779	460.888	190.645	343.864	292.584	216.966	488.803	483.893	428.099	498.230	0.0011925	0.00048007	0.00018242	1314.1	5.6105e-06	5.5248e-06	1310.2	354.75	6.0552e-06	2.9958e-06	405.3	137.07	118.48	40.61	4.8573e-06	50.019	0.00067406	0.00058408	0.00016429	1338.8	6.6121e-06	6.5768e-06	1338	362.66	6.4838e-06	6.6161e-06	416.26	139.6	120.71	41.948	6.4215e-06	51.965	481.728	245.866	236.776	168.156	282.336	311.481	167.569	172.782	256.197	301.007	172.045	175.962	176.915	181.620	289.678	180.598	-8191	255	
21353.014	1	1	0	0	0.22285	0.13933	0.10363	0.4433	0.067071	0.11965	0.18308	0.14605	0.16836	0.28832	0.045594	0.10821	0.1133	0.082312	0.20617	0.060454	-2.4917	-2.7896	-3.1417	-2.9229	-3.1021	-2.9167	-2.7042	-3.1688	-2.8187	-2.7729	-3.0438	-2.8167	-2.7292	-3.0271	-2.6792	-3.0583	412.984	170.029	328.717	514.345	443.808	267.879	360.290	468.471	383.351	445.031	387.175	331.794	335.533	159.026	366.153	409.092	0.0011813	0.00054597	0.00013469	1310.7	6.6409e-06	6.0082e-06	1309.8	355.43	8.431e-06	5.2007e-06	405.24	136.51	118.44	40.426	5.7588e-06	49.891	0.00066791	0.00059453	0.00015979	1338.4	6.2858e-06	6.7156e-06	1337.4	362.43	6.3992e-06	6.6392e-06	415.61	139.19	120.53	41.843	6.436e-06	51.902	479.873	240.675	251.454	168.012	255.121	322.327	167.783	172.829	269.222	314.078	172.235	175.998	176.689	181.666	283.367	180.817	-8191	255	
21353.084	1	1	0	0	0.33679	0.010384	0.28415	0.12433	0.11347	0.17771	0.1642	0.23916	0.14784	0.11139	0.14287	0.25322	0.19039	0.19919	0.32659	0.27027	-2.4625	-2.85	-3.0396	-2.9833	-2.8625	-3	-2.9229	-3.0625	-2.9458	-2.8417	-3.0479	-3.0354	-2.8958	-3.0583	-2.7792	-3.0792	203.236	410.267	387.433	483.012	431.081	293.112	227.768	441.762	322.283	476.009	170.886	177.546	299.997	499.722	296.702	486.390	0.0011879	0.00061425	0.00011776	1311	6.6137e-06	6.0621e-06	1312	354.39	6.9208e-06	2.3874e-06	406.28	136.78	118.14	40.436	5.5953e-06	49.876	0.00066194	0.00058751	0.00016449	1337.9	6.5342e-06	6.5826e-06	1339.4	362.34	6.5505e-06	6.679e-06	415.58	139.36	120.8	41.883	6.5017e-06	51.89	476.959	237.813	241.978	168.096	268.165	309.572	167.886	172.641	266.514	311.877	172.390	176.113	176.612	181.640	266.337	180.838	-8191	255	
21353.205	1	1	0	0	0.13429	0.38291	0.25471	0.19009	0.19554	0.14742	0.082437	0.33953	0.51378	0.051831	0.30107	0.19343	0.27622	0.18444	0.26229	0.30692	-2.5979	-2.7417	-2.9917	-3.0062	-2.8937	-3.0333	-3.0542	-3.325	-3.0146	-2.8708	-3.1396	-2.8125	-2.6937	-3.0646	-2.5771	-3.1646	178.488	502.519	364.189	282.022	357.035	427.294	211.906	442.300	444.111	350.096	471.857	237.996	239.180	314.993	384.815	397.090	0.0011918	0.00056049	0.00011516	1311.7	5.7295e-06	4.5088e-06	1312.6	354.84	9.1164e-06	5.4311e-06	404.78	136.84	118.19	40.682	6.1793e-06	49.913	0.00068364	0.0006241	0.00016521	1339.5	6.5447e-06	6.6201e-06	1339.8	362.33	6.5802e-06	6.5642e-06	415.13	139.24	120.76	41.922	6.3885e-06	51.9	478.532	278.779	249.887	168.109	284.074	292.432	167.757	172.865	279.541	308.524	172.123	175.994	176.769	181.948	276.716	180.858	-8191	255	
21353.301	1	1	0	0	0.20566	0.14801	0.073229	0.09619	0.059475	0.34386	0.072225	0.23693	0.054378	0.33695	0.18621	0.051426	0.12925	0.096264	0.2078	0.0020363	-2.5917	-2.6542	-3.0667	-3.0979	-2.8792	-3.0917	-3.1521	-3.1458	-2.9708	-2.725	-3.1417	-3.075	-2.8833	-3.1729	-2.7167	-3.1312	385.485	345.946	344.280	451.940	267.673	399.106	193.148	455.280	252.046	486.794	413.464	477.255	395.960	424.371	419.659	180.000	0.0012004	0.00063281	0.00014077	1311.9	4.7927e-06	5.8363e-06	1310.5	353.91	8.5239e-06	4.4261e-06	405.47	136.43	118.16	40.563	5.5036e-06	50.024	0.00066676	0.0006052	0.00016661	1339.1	6.6358e-06	6.5618e-06	1337.7	362.18	6.5523e-06	6.7338e-06	415.81	139.38	120.64	41.869	6.5107e-06	51.911	477.988	241.769	228.955	168.355	282.842	300.065	167.658	172.578	254.502	308.702	172.179	175.890	176.464	181.678	271.263	180.756	-8191	255	
21353.396	1	1	0	0	0.088961	0.041848	0.12843	0.27874	0.25395	0.16768	0.1763	0.26233	0.27617	0.16526	0.070848	0.17835	0.015596	0.095834	0.23505	0.023474	-2.8458	-2.6688	-3.0812	-2.9917	-2.7271	-3.1437	-2.8958	-2.9562	-3.1188	-2.7917	-3.2479	-3.0479	-2.8042	-3.1375	-2.7292	-2.8458	443.993	201.654	287.806	492.514	318.068	166.080	493.333	508.219	272.227	257.993	385.024	437.353	242.333	347.665	213.392	210.342	0.0012262	0.00040655	0.00015279	1311.4	6.3192e-06	3.6304e-06	1314.9	354.54	9.0652e-06	2.6743e-06	405.59	136.86	118.22	40.423	5.2785e-06	50.112	0.0006765	0.00059939	0.00016986	1338.4	6.489e-06	6.6683e-06	1339.7	362.24	6.4615e-06	6.6358e-06	415.33	139.3	120.6	41.818	6.5845e-06	51.872	480.402	250.059	248.877	168.111	291.751	301.170	167.602	172.884	257.392	293.228	172.217	176.104	176.563	181.714	297.266	180.868	-8191	255	
21353.516	1	1	0	0	0.073244	0.19341	0.28727	0.21445	0.085497	0.15685	0.26304	0.12796	0.14975	0.20581	0.035852	0.28326	0.12667	0.084667	0.18981	0.21707	-2.5229	-2.6625	-2.7792	-2.9583	-2.8438	-3.1688	-3.0646	-3.0792	-3.0187	-2.9167	-3.0708	-3.05	-2.8104	-3.0146	-2.8375	-2.9062	459.187	157.901	329.235	174.598	223.513	342.000	442.030	407.802	217.370	386.421	468.846	504.680	401.268	257.911	219.619	449.358	0.0011852	0.00043563	0.00014196	1310.8	4.699e-06	4.2063e-06	1312.5	354.63	8.0679e-06	2.5203e-06	407.22	136.43	118.05	40.646	5.9383e-06	50.263	0.0006706	0.00060403	0.00016435	1337.6	6.6629e-06	6.676e-06	1338	362.14	6.4524e-06	6.7112e-06	416.32	139.41	120.85	41.96	6.4944e-06	51.945	481.512	263.877	225.803	168.198	259.970	286.965	167.711	172.812	257.514	309.562	172.278	176.026	176.912	181.667	288.161	180.931	-8191	255	
21353.611	1	1	0	0	0.16597	0.15517	0.13521	0.094738	0.30397	0.17721	0.058039	0.134	0.1111	0.11114	0.20494	0.08492	0.098441	0.24211	0.11785	0.12677	-2.6083	-2.825	-3.1896	-3.175	-2.8458	-3.1	-3.0708	-3.0667	-3.0625	-2.9667	-2.9875	-3.15	-2.8583	-2.9229	-3.0583	-2.7792	264.482	199.653	303.126	455.385	236.508	194.009	186.418	386.308	163.860	167.866	431.062	436.061	487.662	501.274	226.171	471.094	0.0011907	0.0004288	0.00012002	1315.7	7.1334e-06	5.7637e-06	1314	355.77	7.501e-06	3.6747e-06	406.24	136.73	118.01	40.602	4.6233e-06	50.088	0.00067214	0.00059141	0.00016521	1342	6.627e-06	6.6042e-06	1339.5	363.04	6.3974e-06	6.6579e-06	416.05	139.44	120.69	41.881	6.4274e-06	51.953	478.473	217.452	236.379	168.267	275.067	328.195	167.791	172.679	260.549	297.329	172.181	175.838	176.268	181.595	265.455	181.107	-8191	255	
21353.707	1	1	0	0	0.068565	0.09384	0.16082	0.31706	0.099606	0.12085	0.33642	0.21619	0.062293	0.052124	0.14181	0.097183	0.10193	0.20985	0.15264	0.14195	-2.8125	-2.8063	-2.8229	-3.1937	-2.7229	-3.2438	-3.1292	-2.8354	-3.05	-2.9042	-2.8542	-3.2354	-2.7708	-2.9521	-2.8042	-2.8646	185.044	166.526	478.774	372.174	281.829	494.242	488.525	446.114	445.113	290.491	355.686	488.156	478.947	392.854	403.074	499.967	0.0011218	0.00031101	0.00010855	1313.6	6.62e-06	4.3714e-06	1312.3	354.01	7.633e-06	3.7561e-06	404.38	137.01	117.69	40.633	6.7472e-06	50.047	0.00065863	0.0006003	0.00016847	1338.7	6.4807e-06	6.4544e-06	1337.8	361.97	6.5008e-06	6.6051e-06	414.76	139.49	120.44	41.947	6.431e-06	51.945	480.484	275.476	230.888	168.149	253.173	310.250	167.617	172.668	255.883	314.970	171.940	176.072	176.728	181.790	275.439	180.817	-8191	255	
21353.779	1	1	0	0	0.031773	0.046207	0.19186	0.19872	0.084076	0.14321	0.16935	0.20113	0.14398	0.099629	0.075571	0.20349	0.12159	0.07984	0.20649	0.20302	-2.6229	-2.8292	-2.8604	-3.1958	-2.9	-2.9917	-3.0687	-2.8167	-2.9604	-2.8167	-2.8875	-3.0667	-2.7687	-3.1604	-3.0625	-2.8896	414.307	459.664	456.194	364.221	318.746	300.336	426.382	171.197	374.722	224.438	170.271	511.828	282.826	497.732	312.965	173.053	0.0011572	0.00047417	0.00015684	1312.6	5.2857e-06	5.6212e-06	1310.3	354.68	6.918e-06	5.9922e-06	405.75	136.74	117.85	40.669	6.8322e-06	50.432	0.00067307	0.00059991	0.00016664	1339.3	6.3042e-06	6.4896e-06	1337.8	362.35	6.5038e-06	6.4782e-06	415.77	139.25	120.49	41.901	6.3871e-06	51.982	478.671	237.823	243.804	168.162	280.337	301.190	167.623	172.684	265.628	306.155	172.056	176.017	176.602	181.862	272.328	180.783	-8191	255	
21353.900	1	1	0	0	0.24107	0.12854	0.13387	0.24997	0.10736	0.10081	0.15368	0.22	0.14316	0.17436	0.30987	0.20259	0.28335	0.21167	0.13505	0.15056	-2.6688	-2.9479	-2.7146	-3.1562	-2.7917	-2.7562	-3.325	-2.8083	-3.25	-3.0271	-3.0771	-3.2188	-2.9667	-2.9375	-3.075	-2.9854	216.912	353.924	449.258	498.615	433.852	367.180	164.777	349.704	503.455	337.546	466.334	474.050	178.331	186.316	340.625	304.077	0.0012191	0.00051519	0.00012658	1310.4	4.3263e-06	5.3343e-06	1314.9	353.82	7.1364e-06	5.579e-06	404.3	136.43	117.65	40.444	6.5671e-06	50.181	0.00067261	0.00058582	0.00016383	1336.1	6.4601e-06	6.6158e-06	1337.4	361.77	6.3298e-06	6.4614e-06	414.84	139.31	120.48	41.848	6.3129e-06	51.826	478.214	234.098	240.596	168.250	255.028	302.259	167.565	172.667	261.339	335.661	172.140	176.283	176.922	181.743	283.816	180.758	-8191	255	
21353.996	1	1	0	0	0.321	0.15938	0.25234	0.16313	0.11038	0.17819	0.24493	0.32832	0.16847	0.068946	0.12556	0.10719	0.18723	0.082227	0.14288	0.16702	-2.6208	-3.0083	-2.7708	-3.1437	-2.9333	-2.9167	-3.3563	-2.9354	-3.0125	-2.9208	-2.9083	-3.1063	-2.9646	-2.9	-3.0542	-2.925	223.150	281.242	334.843	492.367	430.865	201.269	450.016	480.092	181.622	369.354	171.891	274.501	209.032	349.828	392.049	409.553	0.0011747	0.00075511	0.0001434	1307.7	4.293e-06	3.6155e-06	1310.4	354.26	7.5303e-06	4.9893e-06	402.93	136.38	118.12	40.445	4.9744e-06	49.97	0.00066961	0.00058035	0.00016718	1333.7	6.3576e-06	6.6057e-06	1335.1	361.98	6.3564e-06	6.3499e-06	414.27	139	120.3	41.795	6.4319e-06	51.766	480.490	230.180	230.695	168.114	268.172	315.249	167.740	172.735	270.354	293.335	172.493	176.095	176.411	181.755	282.742	180.941	-8191	255	
21354.094	1	1	0	0	0.24928	0.026257	0.14488	0.1425	0.11577	0.18179	0.25148	0.21674	0.043628	0.22605	0.15289	0.1123	0.32299	0.11072	0.176	0.18788	-2.2687	-3.0312	-2.5146	-3.2479	-2.9083	-2.7854	-3.25	-2.9771	-3.0104	-3.0187	-2.8604	-3.0729	-3.0417	-2.7979	-3.0854	-2.8021	218.488	338.691	176.265	478.653	219.724	211.728	421.755	410.186	456.218	488.126	158.642	491.799	480.562	385.891	279.496	356.487	0.0011877	0.00054042	0.00010235	1307.6	4.6266e-06	4.611e-06	1307.5	353.22	7.9735e-06	5.9708e-06	404.11	136.51	118.42	40.415	5.5698e-06	50.043	0.00067456	0.00059748	0.00016527	1333.4	6.5061e-06	6.5763e-06	1333.7	361.28	6.6159e-06	6.5464e-06	414.53	139.24	120.53	41.814	6.4197e-06	51.88	480.716	240.237	207.345	168.168	259.726	301.641	167.780	172.578	259.987	320.090	172.268	176.182	176.417	181.640	288.800	180.901	-8191	255	
21354.189	1	1	0	0	0.24831	0.076308	0.38975	0.082386	0.16026	0.18964	0.21178	0.3802	0.29588	0.22336	0.37612	0.25429	0.19033	0.2667	0.25781	0.24249	-2.3125	-3.1583	-2.6771	-3.3458	-2.9646	-2.8688	-3.3458	-2.8229	-2.9	-2.9833	-2.9854	-3.1958	-2.8792	-2.6667	-3.1354	-2.8875	227.735	488.449	421.426	334.394	412.982	198.580	421.576	483.246	218.304	248.641	468.297	514.588	416.420	446.609	229.763	367.032	0.0011757	0.00034989	9.2046e-05	1304.5	4.4741e-06	7.174e-06	1312.3	354.96	7.665e-06	5.4089e-06	403.67	136.55	117.52	40.511	4.7803e-06	49.861	0.00067833	0.00059033	0.00016861	1333.9	6.5096e-06	6.6611e-06	1334.8	361.84	6.6887e-06	6.532e-06	414.32	139.06	120.29	41.751	6.4627e-06	51.749	480.545	269.664	228.916	168.209	301.716	307.883	167.761	172.644	262.997	288.788	172.102	176.152	176.857	181.502	270.630	180.735	-8191	255	
21354.309	1	1	0	0	0.070495	0.20552	0.014706	0.22557	0.23161	0.065333	0.15516	0.12068	0.027344	0.26651	0.30769	0.10777	0.18311	0.10721	0.066519	0.16054	-2.2542	-3.1271	-2.7562	-3.2479	-3.2104	-2.7896	-3.0604	-3.0104	-2.8896	-3.1604	-2.8021	-3.0021	-3.125	-2.7625	-2.9708	-3.05	463.479	216.886	449.732	190.903	469.590	287.580	166.460	225.526	189.791	278.704	214.963	249.728	191.512	210.666	453.814	417.604	0.0011506	0.00033613	0.0001122	1305.4	1.0208e-05	4.6132e-06	1312.3	353.39	6.9383e-06	3.4437e-06	403.2	136.22	117.85	40.471	5.1239e-06	49.883	0.00066543	0.00059297	0.00017116	1334	6.5495e-06	6.5917e-06	1335.4	361.31	6.4729e-06	6.41e-06	414.36	138.89	120.26	41.768	6.4333e-06	51.72	480.647	274.262	254.964	168.128	279.424	294.077	167.967	172.535	272.112	302.042	172.208	176.258	176.664	181.658	280.741	180.697	-8191	255	
21354.381	1	1	0	0	0.1342	0.029504	0.26579	0.24181	0.15813	0.22297	0.33343	0.25709	0.11996	0.18	0.1166	0.20618	0.23952	0.17891	0.32918	0.15386	-2.2917	-3.0604	-2.8917	-2.9625	-3.0771	-2.8333	-3.3187	-3.025	-2.9854	-3.1583	-3.0875	-3.0292	-2.9792	-2.9917	-3.1146	-3.0104	271.913	443.367	502.748	510.025	390.148	386.315	460.514	411.749	470.690	234.060	303.994	354.826	402.077	443.166	321.964	235.472	0.0012095	0.00058262	6.1288e-05	1313.8	5.1609e-06	6.233e-06	1306.6	353.3	9.1762e-06	4.8929e-06	405.66	136.31	117.41	40.423	6.0557e-06	50.076	0.00068009	0.00059145	0.00016374	1335.5	6.4724e-06	6.6842e-06	1333.3	361.28	6.295e-06	6.6675e-06	414.23	139.06	120.13	41.733	6.541e-06	51.772	480.065	250.158	260.465	168.200	290.177	315.828	167.700	172.727	267.594	300.750	172.036	176.036	176.822	181.923	311.518	180.618	-8191	255	
21354.479	1	1	0	0	0.42039	0.078543	0.25593	0.31755	0.1596	0.13836	0.19157	0.21329	0.18456	0.12141	0.16083	0.11973	0.40526	0.39686	0.11179	0.075626	-2.3563	-2.9229	-2.7125	-3	-3.1396	-2.7583	-3.2146	-3.1521	-2.8167	-3.1083	-2.8625	-2.85	-3.0292	-2.8187	-2.8729	-2.9625	439.413	203.009	386.352	503.664	286.345	234.701	322.689	431.688	336.528	357.499	154.901	474.865	510.589	439.477	360.025	365.396	0.0011435	0.00072539	0.00014474	1307.3	3.2126e-06	1.6246e-06	1311.8	353.22	7.6645e-06	5.2099e-06	404.73	135.92	118.5	40.443	3.8669e-06	50.108	0.00066568	0.00060368	0.00016373	1334.7	6.3208e-06	6.6438e-06	1334.5	361.18	6.5387e-06	6.4989e-06	414.95	138.94	120.3	41.834	6.517e-06	51.785	477.739	244.043	251.300	168.190	284.566	286.822	167.996	172.815	264.421	315.359	171.960	176.079	176.361	181.729	275.627	180.735	-8191	255	
21354.598	1	1	0	0	0.15718	0.11765	0.27604	0.069022	0.1344	0.23961	0.19793	0.18171	0.21868	0.091039	0.083503	0.066467	0.34335	0.12484	0.30697	0.1133	-2.5021	-3.1771	-2.7792	-3.1437	-3.0187	-2.9	-3.0375	-3.0146	-2.8479	-3.1063	-3.0438	-2.7958	-3.1354	-2.8542	-2.9833	-3.0667	240.705	312.560	333.499	289.346	199.641	168.147	436.344	189.151	305.296	239.484	453.288	384.742	194.829	351.901	212.345	290.951	0.0011318	0.00033194	0.0001068	1314	4.8373e-06	4.8662e-06	1313.7	353.15	8.5932e-06	7.196e-06	405.54	136.42	118.42	40.601	6.0896e-06	50.16	0.0006676	0.00059579	0.0001641	1337.1	6.4847e-06	6.5932e-06	1336.4	361.68	6.5025e-06	6.5152e-06	415.26	139.23	120.68	41.886	6.4496e-06	51.875	476.632	215.441	228.002	168.226	272.674	307.894	167.836	172.562	268.285	307.174	172.131	175.942	176.783	181.602	281.954	180.657	-8191	255	
21354.693	1	1	0	0	0.23784	0.18143	0.18684	0.26014	0.17958	0.10314	0.23203	0.055761	0.22031	0.15282	0.07677	0.11217	0.14344	0.32494	0.22492	0.25719	-2.2854	-3.0521	-3.0125	-2.975	-3.0062	-2.8146	-3.175	-3.1125	-2.7229	-3.1354	-2.9458	-2.7396	-3.0708	-3.0708	-2.8	-3.0375	473.548	273.301	458.821	323.487	261.445	281.478	428.867	349.702	321.659	411.449	300.989	462.959	416.379	225.461	387.702	465.565	0.0012025	0.00043558	9.4274e-05	1312.5	6.8172e-06	5.257e-06	1308.7	354.27	8.8548e-06	3.2789e-06	406.06	135.85	118.29	40.686	6.4554e-06	50.102	0.00066083	0.00057706	0.00016879	1338.6	6.4277e-06	6.491e-06	1337.2	362.51	6.3817e-06	6.5325e-06	415.86	139.05	120.53	41.898	6.4845e-06	51.874	480.207	266.842	255.830	167.983	277.887	311.531	167.750	172.813	262.144	300.292	172.064	175.998	176.401	181.537	282.603	180.929	-8191	255	
21354.789	1	1	0	0	0.14234	0.085386	0.19118	0.21878	0.38507	0.097267	0.20135	0.14031	0.076321	0.24749	0.36502	0.1941	0.14761	0.1752	0.19176	0.22327	-2.2708	-3.0958	-2.8042	-2.9542	-2.9375	-2.8646	-2.9708	-3.1479	-2.7812	-2.95	-3.1271	-2.9667	-3.1333	-3.0854	-2.7562	-3.2021	361.189	512.811	503.743	430.404	489.128	167.263	428.141	156.068	496.162	388.571	465.951	491.282	335.548	477.741	315.232	506.235	0.0011923	0.00051929	0.00013716	1314.3	5.1026e-06	5.8863e-06	1316.7	355.36	6.4269e-06	3.24e-06	405.47	136.97	119	40.451	6.7464e-06	50.262	0.00066228	0.00059072	0.00016589	1339.5	6.5118e-06	6.4751e-06	1341.3	362.53	6.5012e-06	6.5061e-06	415.57	139.44	120.99	41.841	6.4989e-06	51.893	479.469	247.499	225.857	168.132	289.480	317.856	167.691	172.585	270.353	321.697	172.161	175.817	176.557	181.456	279.287	180.709	-8191	255	
21354.885	1	1	0	0	0.13432	0.062451	0.025692	0.37852	0.17852	0.072133	0.15194	0.26744	0.1051	0.060621	0.23091	0.2837	0.25452	0.26974	0.11984	0.18127	-2.3688	-3.1729	-3.0479	-2.9729	-2.9542	-2.8042	-2.8438	-3.0375	-2.9083	-3.0646	-3.1375	-2.9625	-2.95	-2.8292	-2.8479	-3.0875	217.147	368.626	244.582	486.915	264.205	238.406	325.066	470.716	425.563	443.829	500.618	426.172	182.123	507.814	384.857	174.696	0.0012233	0.00051184	0.00010668	1310.9	5.476e-06	6.3295e-06	1312.1	354.65	7.6086e-06	6.5666e-06	406.21	136.36	118.11	40.544	5.166e-06	50.028	0.000674	0.00060637	0.00016537	1338.6	6.3844e-06	6.5276e-06	1338.9	362.14	6.5043e-06	6.5411e-06	415.92	138.97	120.55	41.839	6.6261e-06	51.837	477.117	236.631	218.967	168.185	282.617	303.278	167.673	172.660	260.630	309.136	172.114	176.118	176.728	181.758	281.687	180.852	-8191	255	
21354.980	1	1	0	0	0.32429	0.30419	0.19145	0.084889	0.08634	0.19096	0.12216	0.30765	0.14461	0.25492	0.22307	0.22231	0.23408	0.12897	0.095755	0.16125	-2.425	-2.9562	-3.0167	-2.7667	-3.0167	-3.0125	-3.025	-3.1604	-2.7208	-2.8438	-3.0604	-2.8	-3.0812	-3.1083	-2.8083	-2.9542	508.461	214.841	405.429	441.166	159.384	413.443	404.539	473.837	166.311	243.886	498.750	274.947	160.038	286.952	394.829	374.276	0.0011563	0.00057532	0.00010803	1315.1	5.9188e-06	2.4642e-06	1316.4	354.8	8.2786e-06	4.1634e-06	404.98	136.03	117.91	40.62	3.6817e-06	50.008	0.00067428	0.00060316	0.00016239	1339.2	6.5451e-06	6.5411e-06	1338.3	362.08	6.479e-06	6.4816e-06	414.65	139.09	120.36	41.819	6.5098e-06	51.836	480.599	233.043	240.700	168.135	283.460	303.197	167.797	172.722	256.948	310.642	172.163	176.248	176.894	181.660	281.735	180.707	-8191	255	
21355.076	1	1	0	0	0.18099	0.13002	0.08322	0.1613	0.21614	0.051342	0.1774	0.20106	0.18912	0.11635	0.08396	0.16446	0.065419	0.15986	0.20426	0.090145	-2.4188	-2.8521	-2.8917	-2.9458	-2.8604	-2.9708	-2.9229	-3.25	-2.6875	-2.9167	-3.2438	-2.8458	-3.0312	-3.0104	-2.7438	-3.1083	442.163	462.303	162.858	483.060	425.045	370.314	468.715	409.795	239.573	416.088	370.701	502.377	514.251	410.100	235.142	302.417	0.0011714	0.0003854	0.00015494	1313.4	5.8136e-06	5.8897e-06	1311.9	353.86	7.9569e-06	5.876e-06	405.03	135.86	118.19	40.394	7.4219e-06	49.87	0.00066349	0.0006094	0.00016742	1338	6.4711e-06	6.3893e-06	1336.8	361.63	6.5287e-06	6.5777e-06	415.14	138.75	120.28	41.726	6.4908e-06	51.828	480.768	231.828	235.616	168.183	274.880	301.652	167.679	172.503	263.219	318.510	172.205	175.922	176.716	181.635	281.004	180.746	-8191	255	
21355.197	1	1	0	0	0.0058301	0.29101	0.20162	0.22752	0.21724	0.28969	0.10779	0.11554	0.070116	0.1534	0.22101	0.17092	0.19875	0.15095	0.36917	0.057344	-2.6667	-2.8312	-3.1542	-2.9167	-2.6958	-2.8354	-3.0062	-3.1417	-2.8792	-2.5875	-3.2333	-2.8792	-2.9938	-3.0521	-2.9479	-3.0542	285.460	335.229	200.063	163.737	189.550	386.087	333.683	407.941	436.407	157.979	269.016	462.336	512.647	454.679	326.476	452.311	0.0011868	0.00050866	0.00016066	1310	4.463e-06	5.9002e-06	1311.7	353.28	6.2885e-06	3.1904e-06	404.97	136.04	117.7	40.438	3.8644e-06	50.005	0.00067542	0.00059861	0.00016059	1335.5	6.6397e-06	6.3961e-06	1335.3	361.45	6.3817e-06	6.5536e-06	414.39	138.89	120.26	41.704	6.3708e-06	51.754	479.914	232.979	246.314	168.291	305.986	319.195	167.772	172.498	262.116	342.096	172.316	175.875	176.631	181.663	289.555	180.837	-8191	255	
21355.295	1	1	0	0	0.19453	0.13221	0.077788	0.082038	0.20797	0.064259	0.18192	0.26179	0.14127	0.16695	0.24137	0.19562	0.066721	0.17291	0.14759	0.17864	-2.6437	-2.7562	-3.0146	-3.0542	-2.7667	-3.1125	-2.9104	-3.1083	-3.0583	-2.7875	-3.0312	-2.8292	-2.9396	-3.0625	-2.6292	-3.05	444.451	321.903	508.282	513.623	164.396	229.300	374.521	429.277	482.049	358.616	451.657	467.741	509.832	222.750	239.520	493.072	0.0011322	0.0004757	0.00020482	1311.3	4.9024e-06	5.2254e-06	1307.3	354.97	9.8394e-06	6.149e-06	403.43	135.8	118.02	40.222	5.7636e-06	49.922	0.00066448	0.00060125	0.00016956	1336.9	6.5854e-06	6.5565e-06	1334.8	361.91	6.4341e-06	6.7261e-06	414.4	138.73	120.16	41.716	6.5596e-06	51.736	481.320	255.381	264.957	168.145	285.329	292.949	167.696	172.724	265.841	314.712	172.302	175.918	176.755	181.760	279.460	180.889	-8191	255	
21355.389	1	1	0	0	0.28187	0.27931	0.023587	0.17731	0.11238	0.11567	0.086961	0.20439	0.06199	0.064734	0.17665	0.27299	0.2096	0.23413	0.14428	0.2641	-2.3104	-2.7542	-2.9188	-3.1958	-2.7104	-3.1042	-2.9833	-3.1604	-3.0021	-2.8542	-3.2812	-2.9896	-2.9292	-3.0646	-2.8	-2.9521	332.283	175.366	414.544	478.476	223.340	448.543	493.849	431.077	311.235	444.550	427.234	473.904	275.568	408.845	348.706	426.095	0.0011442	0.00042738	0.00013551	1307.2	5.8047e-06	3.5288e-06	1307.9	352.82	6.6179e-06	2.8443e-06	403.88	135.53	117.24	40.435	5.0396e-06	49.834	0.00066182	0.00060793	0.00016391	1334.4	6.6761e-06	6.7768e-06	1332.9	360.94	6.5252e-06	6.5777e-06	414.35	138.65	120.12	41.725	6.4378e-06	51.749	478.614	257.947	232.744	168.184	270.731	322.430	167.707	172.902	271.156	283.800	172.402	176.238	176.640	181.842	265.616	180.780	-8191	255	
21355.484	1	1	0	0	0.14463	0.20263	0.26511	0.20406	0.082057	0.19255	0.076194	0.33557	0.042049	0.065672	0.12325	0.24438	0.045245	0.096712	0.040789	0.18514	-2.4792	-2.6104	-3.0375	-2.9688	-2.8667	-3.05	-2.9833	-3.1312	-3.1771	-2.8875	-3.2375	-2.9958	-2.9292	-3.15	-2.9458	-2.8854	205.424	343.938	398.153	494.014	334.203	191.366	432.587	424.504	219.301	191.727	334.740	170.614	405.515	284.814	167.036	418.606	0.0011851	0.00048518	0.00017759	1308.1	5.3467e-06	2.9211e-06	1314.1	353.9	8.7439e-06	2.1656e-06	405.16	136.06	117.17	40.444	5.5711e-06	49.863	0.00066312	0.00061261	0.00016932	1335.1	6.5197e-06	6.4669e-06	1337	361.82	6.4258e-06	6.6046e-06	414.32	138.96	120.25	41.707	6.6687e-06	51.682	479.876	244.213	266.081	168.141	276.984	348.788	167.662	172.585	265.951	307.877	172.293	176.077	176.743	181.658	269.090	180.778	-8191	255	
21355.605	1	1	0	0	0.16726	0.25048	0.1492	0.3044	0.085386	0.19221	0.28572	0.21751	0.22468	0.20104	0.19953	0.0098829	0.11449	0.18916	0.16467	0.20948	-2.6229	-2.725	-2.9042	-2.9979	-2.7625	-3.025	-2.85	-3.0812	-3.0458	-2.8146	-3.0062	-3.0604	-2.8438	-3.1729	-2.9792	-2.9375	428.331	429.060	211.439	160.835	356.346	325.573	440.748	456.621	253.982	404.887	483.231	407.255	424.594	311.860	410.029	499.114	0.0012061	0.0006446	0.00011801	1315	6.1143e-06	4.452e-06	1309.4	352.99	6.699e-06	6.2057e-06	405.47	135.68	117.4	40.208	3.5253e-06	50.019	0.00066862	0.00059067	0.00016593	1337.2	6.5705e-06	6.7599e-06	1335.2	361.31	6.438e-06	6.6243e-06	414.37	138.73	119.84	41.671	6.4591e-06	51.751	480.384	242.658	266.423	168.097	294.457	304.105	167.630	172.662	267.471	313.114	172.387	176.350	176.725	181.859	302.513	180.948	-8191	255	
21355.678	1	1	0	0	0.095786	0.14676	0.17479	0.088709	0.23246	0.21426	0.18292	0.19247	0.050094	0.14476	0.23963	0.079199	0.16093	0.16991	0.22537	0.2759	-2.7438	-2.7792	-2.7083	-3.1042	-2.8604	-3.1813	-3.0917	-2.9646	-3.0354	-2.9958	-2.9792	-3.075	-2.8542	-3.1208	-2.7583	-2.9125	379.942	456.728	339.418	317.188	506.204	315.008	508.627	463.714	501.383	313.885	472.927	387.714	423.228	468.344	381.363	426.809	0.001232	0.00060719	0.00013129	1306.5	5.6624e-06	5.0827e-06	1308.1	354.34	6.5026e-06	3.964e-06	404.46	135.56	117.88	40.385	5.8083e-06	49.913	0.00068343	0.000597	0.00016535	1334.1	6.5399e-06	6.4982e-06	1335.2	361.23	6.4192e-06	6.4681e-06	414.78	138.77	120.12	41.722	6.4749e-06	51.733	480.248	254.313	242.942	168.088	282.270	328.071	167.733	172.670	264.902	313.391	172.133	176.180	176.721	181.944	280.972	180.796	-8191	255	
21355.773	1	1	0	0	0.237	0.19751	0.095413	0.099372	0.35923	0.12912	0.27935	0.29422	0.1508	0.1084	0.28989	0.17864	0.076401	0.27423	0.079835	0.11494	-2.6604	-2.7396	-3.0396	-3.2292	-2.8646	-2.9875	-3.1021	-2.8146	-3.0771	-2.7417	-2.9229	-3.1958	-2.7	-3.15	-3.1042	-2.7417	447.501	502.511	289.213	481.564	339.075	172.428	415.056	458.839	413.653	493.562	473.801	224.254	219.703	211.381	509.913	365.931	0.001116	0.00062494	0.00014201	1313.3	5.3548e-06	7.5265e-06	1309.2	352.88	8.6176e-06	4.6415e-06	404.64	135.83	117.68	40.511	4.5869e-06	50.089	0.00065702	0.0006156	0.00016895	1336.3	6.4466e-06	6.5643e-06	1334.4	361.35	6.4437e-06	6.3288e-06	414.01	138.68	119.95	41.72	6.4464e-06	51.79	479.892	224.657	254.683	168.230	260.094	307.698	167.735	172.582	273.965	307.182	172.126	175.913	176.678	181.914	295.855	180.832	-8191	255	
21355.869	1	1	0	0	0.070831	0.1928	0.092736	0.12023	0.073712	0.22718	0.27639	0.07447	0.25022	0.23572	0.21136	0.019018	0.29018	0.24798	0.13641	0.12269	-2.4958	-2.8729	-2.8208	-3.225	-2.7917	-3.0125	-3.0687	-2.9104	-3.1312	-2.9167	-2.7833	-3.1542	-2.875	-2.9292	-2.9625	-2.8375	198.723	290.264	466.262	169.048	425.210	205.995	395.330	453.508	461.749	173.584	424.646	199.148	467.048	472.964	326.170	317.667	0.0011067	0.00037851	0.0001012	1311.6	5.4811e-06	6.6162e-06	1305.7	353.32	8.7568e-06	3.0508e-06	403.74	136.09	118.06	40.414	6.9522e-06	49.806	0.00066253	0.00059683	0.00016406	1335.3	6.4387e-06	6.4539e-06	1333.5	361.46	6.4681e-06	6.4201e-06	414.16	138.76	120.12	41.701	6.513e-06	51.677	478.868	259.520	252.673	168.175	262.635	296.532	167.643	172.675	247.476	279.611	172.073	176.166	176.716	181.833	275.993	180.713	-8191	255	
21355.990	1	1	0	0	0.091907	0.19723	0.25665	0.26083	0.1363	0.29488	0.085138	0.33626	0.16586	0.039276	0.232	0.19418	0.31413	0.12954	0.078871	0.1583	-2.4979	-2.9062	-2.8563	-3.2562	-2.8479	-3.0146	-3.2708	-2.9208	-3.0375	-3.0312	-2.9021	-3.1771	-2.8854	-3.0042	-3.0354	-2.7812	255.908	166.084	351.216	168.580	157.739	354.577	214.829	434.004	262.539	443.008	497.381	421.607	428.566	441.392	200.818	277.888	0.0011995	0.00043062	0.00020206	1306.4	6.6673e-06	6.3097e-06	1310.3	352.89	8.5072e-06	5.7762e-06	405.05	136.3	117.7	40.551	5.1251e-06	49.976	0.00067638	0.00059358	0.00016845	1334.1	6.5096e-06	6.5546e-06	1335.1	361.09	6.4035e-06	6.5311e-06	414.59	138.92	120.09	41.802	6.5261e-06	51.769	479.297	242.646	236.607	168.191	264.158	307.540	167.709	172.835	270.473	295.272	172.193	176.231	176.870	181.882	282.949	180.581	-8191	255	
21356.086	1	1	0	0	0.18432	0.051815	0.12255	0.17507	0.15731	0.2068	0.14868	0.072251	0.37033	0.25776	0.092635	0.056534	0.22932	0.25491	0.12521	0.15116	-2.775	-2.9271	-2.8	-3.2333	-2.9042	-2.9083	-3.2521	-2.8417	-3.05	-2.8917	-2.8063	-3.1125	-3.0771	-2.9437	-2.9938	-2.9167	409.751	500.234	397.453	168.817	472.078	156.368	506.940	252.675	247.231	357.015	340.635	397.189	480.904	234.039	191.229	224.045	0.0011679	0.00048819	0.00010726	1314	5.9296e-06	7.6132e-06	1307	352.85	8.3495e-06	5.3546e-06	405.24	136.07	117.88	40.336	4.6486e-06	49.872	0.00067465	0.00059891	0.00016682	1338.2	6.4921e-06	6.531e-06	1334.6	361.5	6.4764e-06	6.5152e-06	414.84	138.82	120.35	41.742	6.2839e-06	51.745	479.537	258.103	263.794	167.976	262.744	310.102	167.683	172.650	273.528	295.879	172.287	176.066	176.679	181.672	286.340	180.669	-8191	255	
21356.182	1	1	0	0	0.22101	0.047101	0.23223	0.24526	0.1993	0.15644	0.24535	0.25367	0.080955	0.11112	0.26351	0.036298	0.16697	0.1293	0.17655	0.25891	-2.4792	-2.9854	-2.8375	-3.2812	-2.8729	-2.7771	-3.1542	-2.8854	-3.0667	-3.1312	-2.7208	-2.9271	-2.8042	-2.6917	-3.0292	-2.7958	385.322	194.667	426.497	266.387	180.744	156.692	438.081	505.994	401.923	467.435	467.982	393.610	404.109	438.723	194.057	439.870	0.001212	0.00050952	0.00018242	1308.7	5.2962e-06	5.5736e-06	1310.9	353.32	8.5366e-06	4.1058e-06	404.48	136.91	117.27	40.465	6.1323e-06	49.905	0.00068479	0.00059314	0.00016633	1334.7	6.4733e-06	6.5917e-06	1334.7	361.5	6.6826e-06	6.458e-06	414.63	139.09	120.08	41.692	6.451e-06	51.718	481.562	248.052	246.298	168.195	266.835	318.428	167.863	172.674	263.172	334.237	172.112	176.224	176.333	181.743	291.658	180.751	-8191	255	
21356.277	1	1	0	0	0.15506	0.036303	0.14234	0.18969	0.07021	0.04485	0.25361	0.3639	0.22505	0.1601	0.21856	0.17007	0.21308	0.15633	0.084599	0.085425	-2.6229	-2.8792	-2.7188	-3.2271	-2.8438	-2.7792	-3.225	-2.7938	-2.9062	-3.0187	-2.7562	-3.0729	-2.8875	-2.8833	-2.9292	-2.6833	293.751	190.577	497.627	363.177	268.222	316.261	435.695	468.663	420.109	208.256	272.277	389.924	178.884	273.443	294.348	378.547	0.0011647	0.00037358	0.00016178	1312.2	6.5637e-06	5.3244e-06	1309.7	353.88	7.9912e-06	4.1738e-06	405.36	135.75	118.14	40.176	5.7197e-06	50.002	0.00066463	0.00060641	0.00016925	1336.9	6.4273e-06	6.4872e-06	1336.4	361.11	6.5906e-06	6.5522e-06	415.32	138.74	120.37	41.675	6.4849e-06	51.778	482.513	227.902	261.590	168.155	287.741	332.563	167.941	172.676	278.481	304.182	172.225	176.102	176.713	181.870	281.531	180.546	-8191	255	
21356.373	1	1	0	0	0.026588	0.13742	0.18863	0.16599	0.10129	0.20974	0.25702	0.44806	0.22698	0.12921	0.32483	0.20711	0.1085	0.10997	0.29627	0.097275	-2.3187	-2.9271	-2.4729	-3.0938	-2.8125	-2.8312	-3.1667	-2.9729	-2.7854	-3.0979	-2.8042	-3.0354	-3.1229	-2.8479	-3.0979	-2.9146	463.108	337.315	479.460	181.551	509.442	357.602	426.615	479.073	191.968	243.524	482.070	157.316	320.657	362.495	305.488	399.999	0.0011236	0.00043493	0.00010455	1310.7	5.7224e-06	6.9433e-06	1306	353.25	5.5196e-06	6.5722e-06	404.85	136.12	117.01	40.296	4.5932e-06	49.872	0.00067462	0.00060147	0.00016861	1336.3	6.3721e-06	6.5541e-06	1334.7	361.18	6.5121e-06	6.386e-06	414.12	138.73	119.97	41.71	6.5243e-06	51.672	478.024	241.579	243.128	168.167	269.200	316.896	167.833	172.599	273.161	305.321	172.285	176.076	176.678	181.698	290.640	180.891	-8191	255	
21356.469	1	1	0	0	0.1608	0.11524	0.1383	0.18054	0.15189	0.041037	0.27956	0.050859	0.18066	0.068703	0.075052	0.09561	0.34697	0.2001	0.13652	0.097439	-2.3063	-2.9917	-2.7938	-3.0708	-3.0062	-2.9	-3.1125	-2.8563	-2.7396	-2.975	-2.8896	-3.0312	-2.8833	-2.7958	-2.9375	-3.0375	456.779	479.979	306.456	462.123	176.840	383.960	454.323	450.547	243.300	271.070	159.164	389.174	484.904	481.273	270.115	468.416	0.0012163	0.00049418	9.8548e-05	1305.9	5.4853e-06	3.7525e-06	1311	353.93	7.5559e-06	4.8283e-06	404.15	136.41	117.09	40.482	4.3415e-06	50.067	0.0006787	0.00059098	0.00016758	1334.9	6.3979e-06	6.3296e-06	1335.3	361.59	6.6691e-06	6.47e-06	414.23	138.8	119.9	41.665	6.4709e-06	51.753	478.766	240.076	222.691	168.033	270.456	291.764	167.609	172.769	266.554	293.445	172.066	175.944	176.638	181.536	279.818	180.830	-8191	255	
21356.566	1	1	0	0	0.034648	0.18197	0.23391	0.0096514	0.048242	0.018245	0.072419	0.26425	0.06821	0.074745	0.087065	0.15444	0.16532	0.098832	0.15674	0.11278	-2.3229	-3.0042	-2.8583	-2.9667	-3.2125	-2.7646	-3.2292	-3.2062	-2.8187	-3.0625	-2.9396	-2.8896	-3.0729	-2.8667	-2.9417	-3.1083	276.277	253.368	227.805	471.853	299.576	438.738	462.319	513.442	514.389	379.421	170.407	390.054	473.649	461.317	435.336	163.794	0.0011196	0.0005517	9.7545e-05	1307.3	6.7624e-06	3.004e-06	1310.2	353.05	6.9002e-06	4.4931e-06	404.01	136.31	117.89	40.303	5.4677e-06	50.056	0.00066853	0.00059852	0.00016742	1335.6	6.4089e-06	6.6818e-06	1336.1	361.15	6.4772e-06	6.4254e-06	414.18	138.77	120.29	41.632	6.4546e-06	51.713	478.996	224.339	239.054	168.028	268.495	263.635	167.820	172.811	261.845	300.337	172.183	176.087	176.892	181.830	279.254	180.853	-8191	255	
21356.686	1	1	0	0	0.19784	0.16103	0.27005	0.36259	0.08668	0.17832	0.13783	0.063613	0.059517	0.07481	0.15052	0.12944	0.11521	0.12569	0.032197	0.10735	-2.3229	-2.975	-2.8396	-2.975	-2.95	-2.95	-3.1146	-2.9792	-2.75	-3.0625	-2.9146	-2.7417	-2.9146	-2.8271	-2.7938	-3.0667	409.920	502.726	213.237	473.983	289.916	268.433	364.948	392.357	455.218	378.673	447.186	360.396	164.226	485.965	403.477	259.343	0.0011784	0.00061141	0.00018318	1313.4	5.4902e-06	5.353e-06	1311.5	354.83	8.0324e-06	4.6427e-06	404.89	136.09	117.25	40.447	4.3505e-06	49.778	0.00066491	0.00059752	0.00016752	1337	6.5942e-06	6.4158e-06	1337	361.67	6.5479e-06	6.4777e-06	414.43	138.98	120.18	41.74	6.3301e-06	51.733	480.513	241.608	225.924	168.162	276.518	303.791	167.783	172.701	253.056	297.257	172.070	176.070	176.819	181.713	292.171	180.630	-8191	255	
21356.781	1	1	0	0	0.034517	0.14645	0.24054	0.22205	0.088466	0.089046	0.22861	0.12016	0.18749	0.14397	0.2054	0.039886	0.083805	0.12016	0.20608	0.21404	-2.25	-2.9167	-2.7917	-2.9417	-3.1063	-2.6458	-2.9938	-3.0312	-2.7271	-2.975	-2.9792	-2.8083	-2.9667	-3.0646	-2.9125	-3.0646	344.935	227.312	314.457	484.246	164.311	258.642	378.816	424.241	240.217	412.816	383.173	399.929	207.002	488.731	230.011	412.179	0.0012158	0.0005264	0.0001323	1312.6	4.8608e-06	4.4043e-06	1307	354.52	8.7707e-06	3.5515e-06	404.09	136.14	118.43	40.358	5.8098e-06	50.114	0.00068201	0.00058924	0.00016373	1337.6	6.4076e-06	6.4472e-06	1334.6	361.82	6.6312e-06	6.361e-06	414.52	138.78	120.43	41.764	6.4994e-06	51.786	479.677	239.529	249.324	168.103	289.232	309.910	167.776	172.644	266.346	325.391	172.282	176.072	176.563	181.785	280.306	180.553	-8191	255	
21356.879	1	1	0	0	0.36204	0.19618	0.10231	0.42115	0.058302	0.28246	0.11942	0.096095	0.22825	0.063954	0.2819	0.1708	0.16111	0.13149	0.094087	0.30612	-2.2396	-3.1146	-2.8292	-2.8021	-2.9646	-2.9229	-3.0083	-3.175	-2.6396	-3.0812	-2.9125	-2.7271	-2.9646	-2.8063	-2.8667	-3.1937	478.403	273.403	320.548	154.897	452.667	207.682	428.928	213.778	490.205	334.550	511.894	462.671	274.197	378.903	406.890	478.983	0.0011366	0.00034545	9.8488e-05	1309.8	5.4597e-06	6.731e-06	1309.1	354.06	7.6e-06	5.402e-06	402.66	136.25	117.74	40.531	5.5738e-06	49.927	0.00066482	0.00059852	0.00016229	1336.8	6.3274e-06	6.7247e-06	1336.5	361.72	6.5091e-06	6.4254e-06	414.34	138.97	120.23	41.732	6.3885e-06	51.741	478.846	254.091	241.379	168.127	299.420	311.416	167.740	172.708	257.519	308.620	172.282	176.054	176.454	181.751	292.415	181.002	-8191	255	
21356.975	1	1	0	0	0.26198	0.076339	0.23986	0.17595	0.11878	0.23887	0.31929	0.2055	0.21244	0.090553	0.065156	0.10426	0.097848	0.27451	0.21046	0.15392	-2.3625	-3	-2.9333	-2.9417	-3.2229	-2.7375	-2.9792	-3.1521	-2.7104	-2.9521	-3.1479	-2.7438	-3.2687	-2.8688	-2.7687	-3.2167	357.360	376.760	233.657	446.131	278.098	245.914	402.073	449.978	235.775	250.059	432.838	300.383	360.869	185.140	491.483	177.628	0.0011334	0.00055258	0.00010397	1310.6	5.3812e-06	3.4189e-06	1311.5	355.25	8.4802e-06	5.7013e-06	404.74	136.49	117.82	40.555	5.0713e-06	50.054	0.00067044	0.00059249	0.00016191	1337.4	6.2823e-06	6.3185e-06	1336.8	361.8	6.3848e-06	6.4181e-06	414.57	139.03	120.3	41.752	6.4514e-06	51.776	479.117	242.529	272.332	168.135	279.762	315.865	167.765	172.656	247.699	315.872	172.163	176.269	176.683	181.775	272.658	180.979	-8191	255	
21357.070	1	1	0	0	0.17646	0.089281	0.10947	0.40988	0.149	0.10877	0.46881	0.15974	0.076476	0.22093	0.27283	0.15154	0.30653	0.18061	0.1639	0.24026	-2.3708	-2.9938	-2.8333	-2.8021	-3.0125	-3.0333	-2.7792	-3.1042	-2.8521	-2.9958	-3.1104	-2.8542	-3.0604	-2.9792	-2.7042	-3.0917	218.243	219.702	176.054	465.998	273.203	233.431	413.084	180.702	377.841	365.204	420.422	448.053	489.718	387.546	378.499	491.074	0.0011177	0.00037595	0.00012716	1308.5	5.9552e-06	4.0929e-06	1306.6	354.76	6.2347e-06	5.6527e-06	404	136.6	117.75	40.412	5.606e-06	49.728	0.00067786	0.0005889	0.0001632	1335.5	6.4163e-06	6.5638e-06	1335.6	361.64	6.3216e-06	6.4441e-06	414.2	139.03	120.15	41.732	6.513e-06	51.661	480.722	260.547	267.079	168.124	286.902	297.022	167.695	172.623	255.124	328.997	172.031	176.042	176.711	181.710	266.549	180.887	-8191	255	
21357.166	1	1	0	0	0.31207	0.080958	0.27886	0.17768	0.28216	0.12511	0.35797	0.24151	0.15996	0.27533	0.15527	0.10821	0.16494	0.42053	0.18829	0.22068	-2.2562	-2.7396	-3.0229	-2.7417	-2.8833	-2.8958	-2.8208	-3.0375	-2.8583	-2.7708	-3.0604	-2.9188	-2.9313	-3.0042	-2.7583	-3.1521	485.802	303.529	259.263	195.136	378.188	252.638	452.169	155.081	445.217	280.012	338.645	173.587	263.964	500.177	416.343	305.339	0.0012034	0.00041965	0.00012965	1306	6.4641e-06	5.6233e-06	1312.8	353.69	8.4931e-06	3.3629e-06	402.88	136.28	118.1	40.239	3.0403e-06	50.077	0.00066683	0.00058556	0.00016131	1336.2	6.2779e-06	6.5594e-06	1335.9	361.09	6.465e-06	6.5128e-06	414.24	138.93	120.33	41.639	6.6393e-06	51.757	478.411	233.724	240.480	168.057	278.148	308.127	167.740	172.625	260.756	315.264	171.952	176.028	176.998	181.607	279.790	181.137	-8191	255	
21357.287	1	1	0	0	0.059702	0.071498	0.25136	0.19369	0.11445	0.13357	0.47998	0.23596	0.074967	0.15933	0.063547	0.35573	0.17254	0.10682	0.12197	0.17573	-2.6292	-2.6958	-3.2062	-2.9521	-2.7896	-2.8854	-2.9833	-3.1271	-2.9938	-2.7729	-3.1167	-2.9583	-2.95	-2.9979	-2.9917	-2.95	511.995	186.880	280.781	422.299	491.909	471.528	442.365	314.842	191.704	382.881	180.886	203.170	171.249	503.070	197.742	407.370	0.0011655	0.00059237	0.00019016	1307.8	6.5836e-06	4.1284e-06	1308.8	355.29	6.9177e-06	3.9021e-06	404.62	136.39	117.87	40.519	4.8468e-06	49.978	0.00067078	0.00059197	0.00016315	1336.5	6.571e-06	6.5903e-06	1336.9	362.16	6.3974e-06	6.6444e-06	414.8	138.95	120.32	41.741	6.3876e-06	51.766	479.029	240.071	247.504	167.995	300.054	330.387	167.731	172.740	286.900	314.514	172.246	175.990	176.982	181.659	271.214	180.951	-8191	255	
21357.381	1	1	0	0	0.06742	0.25722	0.062372	0.2532	0.037056	0.13088	0.18734	0.1706	0.23655	0.087277	0.1182	0.11169	0.11658	0.072114	0.018199	0.10048	-2.4896	-2.8979	-3.2	-2.9083	-2.8458	-2.9583	-2.7271	-3.3125	-2.825	-2.8187	-3.1104	-2.8646	-2.925	-3.1667	-2.6479	-3.0896	229.308	350.052	471.245	173.426	371.492	337.535	448.202	392.626	244.775	233.398	351.732	357.927	476.548	157.257	457.768	246.490	0.0011279	0.00034981	0.00010407	1308.4	4.9534e-06	6.4564e-06	1312.6	354.46	6.3703e-06	6.8358e-06	403.94	136.77	117.87	40.416	6.5764e-06	50.142	0.00065529	0.00059427	0.00016732	1336.4	6.3795e-06	6.4289e-06	1337	361.89	6.441e-06	6.409e-06	414.77	139.01	120.16	41.737	6.2821e-06	51.755	478.402	247.464	238.249	168.246	277.620	311.185	167.690	172.600	255.693	305.530	172.313	175.749	176.744	181.793	274.492	180.545	-8191	255	
21357.479	1	1	0	0	0.20776	0.20141	0.38955	0.15087	0.11426	0.12981	0.1357	0.15016	0.14336	0.15705	0.17128	0.32807	0.047566	0.085477	0.15093	0.067199	-2.375	-2.5271	-3.025	-2.9646	-2.7562	-3.0417	-3.0396	-2.9792	-2.9583	-2.7979	-3.2521	-2.8646	-2.8125	-3.0708	-2.7812	-2.9292	276.465	180.771	289.864	457.551	467.860	356.592	451.849	412.563	193.558	347.965	260.252	454.943	461.415	403.853	189.366	398.632	0.0012164	0.00058084	0.0001651	1312.9	5.2838e-06	5.4751e-06	1307.4	354.23	6.8995e-06	3.9325e-06	404.9	136.33	118.23	40.347	4.5394e-06	49.757	0.00068145	0.00061057	0.00016262	1337.7	6.4593e-06	6.4607e-06	1334.3	361.77	6.346e-06	6.4893e-06	414.8	138.93	120.29	41.729	6.5112e-06	51.724	482.469	252.108	231.026	167.979	278.993	310.186	167.634	172.566	255.363	318.681	172.232	176.306	176.592	181.911	284.946	180.799	-8191	255	
21357.549	1	1	0	0	0.057674	0.072914	0.18251	0.25494	0.13918	0.083717	0.19735	0.20628	0.23394	0.23897	0.20523	0.35045	0.23131	0.011676	0.14316	0.13537	-2.5667	-2.7479	-2.8	-3.0333	-2.7917	-3.0104	-2.8104	-2.9021	-3.2667	-2.7333	-3.025	-2.8625	-2.8	-3.1167	-2.8083	-3.1625	362.318	167.550	455.717	484.388	192.636	489.024	444.023	475.346	260.887	183.602	203.602	478.199	247.582	204.049	462.518	200.249	0.001204	0.00077285	0.00015243	1314.6	4.8982e-06	5.8281e-06	1313	353.92	6.7105e-06	4.6992e-06	402.89	136.95	117.8	40.468	4.0812e-06	49.957	0.00068021	0.00061135	0.0001652	1337.6	6.5854e-06	6.4568e-06	1337.5	361.9	6.3442e-06	6.5575e-06	414.57	139.03	120.22	41.728	6.4378e-06	51.758	480.138	259.075	240.378	168.164	295.238	295.396	167.624	172.658	264.386	299.640	172.062	176.061	176.229	181.702	251.959	180.856	-8191	255	
21357.670	1	1	0	0	0.19989	0.36256	0.096077	0.15809	0.29992	0.15153	0.12964	0.19922	0.13303	0.28802	0.086902	0.12978	0.11228	0.0511	0.10072	0.20099	-2.6937	-2.65	-2.8896	-3.1188	-2.7375	-3.1042	-2.9021	-2.9229	-2.9479	-2.8	-3.0979	-2.9417	-2.7896	-3.0396	-2.7104	-2.8104	446.028	301.889	258.381	419.923	409.575	322.760	467.570	224.301	382.785	275.589	459.260	163.257	368.298	350.537	156.781	255.845	0.0011821	0.00042496	5.5905e-05	1312.7	4.8452e-06	6.1888e-06	1307	354.54	8.4336e-06	3.463e-06	404.17	136.76	117.52	40.306	4.5246e-06	49.992	0.00065953	0.00057741	0.00016514	1338.1	6.6226e-06	6.479e-06	1334.6	361.87	6.4938e-06	6.3831e-06	414.93	139.02	120.23	41.712	6.4034e-06	51.705	479.536	235.558	230.500	168.003	273.564	296.993	167.736	172.788	268.028	298.405	172.255	176.238	176.672	181.898	283.566	180.786	-8191	255	
21357.766	1	1	0	0	0.42066	0.087324	0.090302	0.15157	0.047794	0.12012	0.14361	0.25763	0.10838	0.085092	0.1621	0.21733	0.11723	0.15261	0.15195	0.1787	-2.5896	-2.7562	-2.7292	-3.1375	-2.8896	-2.8812	-2.9813	-2.7917	-3.0958	-2.8917	-2.8333	-2.9417	-2.7208	-3.0458	-2.8083	-2.8583	267.831	335.152	487.221	194.182	378.210	396.132	437.892	370.418	373.958	371.643	168.253	173.083	209.810	378.609	165.876	373.202	0.0011766	0.00052514	0.00015055	1311.2	6.2557e-06	6.3405e-06	1310.7	355.49	8.7783e-06	6.2133e-06	404.99	135.88	117.65	40.42	5.9666e-06	50.057	0.00067595	0.00059488	0.00016347	1336.5	6.4474e-06	6.4953e-06	1335.7	362.1	6.3743e-06	6.5061e-06	415.68	138.96	120.12	41.781	6.4428e-06	51.822	480.524	239.273	231.955	168.107	282.055	304.868	167.767	172.702	252.893	320.196	172.142	176.109	176.887	181.593	266.259	180.874	-8191	255	
21357.861	1	1	0	0	0.083652	0.079289	0.30349	0.24285	0.15777	0.20997	0.22134	0.1252	0.11882	0.077196	0.086228	0.17645	0.15916	0.17659	0.19302	0.20964	-2.5646	-2.7479	-2.8646	-3.2021	-2.8458	-2.8646	-2.875	-2.85	-3.2354	-2.9458	-2.8667	-2.8833	-2.7167	-2.9708	-2.9271	-3.0396	345.507	451.538	496.255	485.413	459.577	397.901	460.142	447.143	261.875	453.111	241.074	386.905	211.666	409.650	379.133	449.711	0.0011673	0.00025987	0.00013856	1313.9	6.1091e-06	3.3454e-06	1309.9	355.55	8.5258e-06	3.7741e-06	404.42	136.03	118.07	40.53	4.5716e-06	49.752	0.00065217	0.00059488	0.00016812	1336.3	6.3804e-06	6.3826e-06	1336.4	361.73	6.4445e-06	6.3384e-06	414.46	138.98	120.29	41.767	6.3124e-06	51.685	480.319	209.012	249.865	168.109	265.629	310.563	167.782	172.576	263.814	294.448	172.238	176.357	176.431	181.653	288.947	180.686	-8191	255	
21357.957	1	1	0	0	0.053484	0.082454	0.069225	0.22205	0.22815	0.17771	0.14413	0.12055	0.23086	0.20165	0.25928	0.053581	0.29872	0.2242	0.18289	0.16266	-2.6646	-2.9521	-2.9625	-2.9958	-2.7562	-2.9979	-3.0521	-2.7396	-3.1458	-2.7417	-2.8521	-3.2396	-2.675	-2.9854	-2.9167	-2.9042	233.009	167.431	442.549	491.051	206.546	339.940	493.168	498.309	440.868	435.907	242.072	497.686	156.745	164.795	362.733	486.074	0.0012325	0.00046615	0.00016984	1309.1	7.5407e-06	3.1691e-06	1308.5	353.73	4.5157e-06	4.5985e-06	404.49	136.52	117.53	40.477	3.6399e-06	50.089	0.0006688	0.00060008	0.00016429	1335.8	6.3905e-06	6.3604e-06	1335.5	361.43	6.3473e-06	6.6012e-06	414.45	139.01	120.21	41.712	6.1753e-06	51.758	480.525	254.677	237.665	168.103	283.681	327.012	167.596	172.551	254.447	303.648	172.009	176.216	176.713	181.622	266.742	180.996	-8191	255	
21358.078	1	1	0	0	0.27352	0.18647	0.095151	0.18415	0.17406	0.070628	0.24081	0.38023	0.13921	0.12059	0.15968	0.076329	0.11436	0.09505	0.014265	0.096712	-2.8104	-2.9854	-2.8271	-3.1562	-2.8187	-2.8583	-3.0896	-2.9562	-2.875	-2.8812	-2.85	-3.0146	-2.8063	-3.0208	-3.1667	-2.7375	226.294	469.433	456.929	493.035	511.673	472.001	485.772	456.732	468.590	336.014	376.504	272.631	311.710	299.584	210.708	286.462	0.0011978	0.00047538	0.00012609	1310.1	5.3169e-06	3.9879e-06	1307.1	353.81	1.0885e-05	6.0007e-06	404.76	136.24	117.78	40.473	5.6074e-06	49.955	0.00066172	0.00058196	0.00016391	1337.9	6.4579e-06	6.3122e-06	1335	362.13	6.4354e-06	6.3936e-06	414.33	138.98	120.1	41.732	6.1716e-06	51.752	479.393	250.966	259.659	168.083	272.100	315.829	167.784	172.743	276.228	308.536	171.995	176.100	176.947	181.759	261.764	180.820	-8191	255	
21358.150	1	1	0	0	0.24109	0.080732	0.14066	0.31921	0.18638	0.12627	0.21905	0.13709	0.14399	0.056912	0.1564	0.08246	0.25029	0.12387	0.015615	0.1788	-2.4021	-2.7146	-2.6792	-3.0729	-2.7479	-2.8792	-3.1813	-3.0042	-2.9333	-2.9125	-2.925	-3.2687	-2.8583	-2.95	-3.075	-2.7979	300.152	289.732	374.706	454.291	266.092	453.542	372.232	207.866	326.091	191.874	462.015	332.720	463.361	319.401	412.249	159.700	0.0011492	0.00056227	0.00014894	1309.5	6.5183e-06	5.5548e-06	1312.9	353.84	9.2253e-06	2.5957e-06	403.83	136.22	116.82	40.446	6.1453e-06	49.949	0.00067183	0.00061088	0.00015989	1335.9	6.3077e-06	6.4505e-06	1337.2	361.17	6.5649e-06	6.4537e-06	414.62	138.75	120.02	41.662	6.2287e-06	51.769	479.100	247.500	250.923	168.197	279.174	339.341	167.920	172.777	252.167	296.719	172.159	176.191	176.803	181.875	303.486	181.053	-8191	255	
21358.246	1	1	0	0	0.1104	0.13583	0.2364	0.33103	0.35533	0.23825	0.18247	0.28455	0.32101	0.098682	0.1895	0.2469	0.18869	0.1101	0.14401	0.15741	-2.7354	-3.0083	-2.6354	-3	-2.8646	-2.875	-3.0979	-2.8688	-3.0375	-3.0438	-2.9625	-3.2208	-3.0125	-2.9938	-3.0125	-2.9375	412.822	244.992	446.487	456.169	414.424	443.196	445.947	165.885	400.568	184.502	407.448	493.376	472.941	499.959	189.245	448.417	0.0011922	0.00056695	0.00015428	1310	4.7863e-06	3.9233e-06	1310	353.11	9.4024e-06	3.7666e-06	404.68	135.77	117.69	40.368	4.5076e-06	49.969	0.0006736	0.00058694	0.00015976	1336.7	6.3703e-06	6.2949e-06	1335.7	361.46	6.4049e-06	6.286e-06	414.37	138.74	120.27	41.697	6.4079e-06	51.705	478.138	265.845	249.308	168.194	271.593	312.546	167.725	172.558	264.605	291.058	172.107	176.253	176.838	181.835	282.208	181.023	-8191	255	
21358.367	1	1	0	0	0.2644	0.22446	0.25561	0.26134	0.077429	0.18802	0.42969	0.2573	0.055262	0.10231	0.16396	0.17855	0.20419	0.29375	0.15555	0.16756	-2.425	-2.9083	-2.7479	-3.225	-2.8396	-2.7896	-3.2375	-2.9979	-2.9792	-2.9396	-2.85	-2.9562	-3.0979	-2.8583	-3.2104	-2.8187	452.111	206.332	492.459	162.616	296.641	445.427	456.752	441.478	188.970	503.464	457.028	458.607	385.230	391.778	367.554	305.150	0.0011255	0.0005079	9.7554e-05	1308.6	7.8559e-06	4.1461e-06	1306.7	353.67	6.9731e-06	5.1634e-06	405.98	136.1	117.65	40.613	4.6335e-06	49.889	0.00066061	0.0005853	0.00016645	1337.4	6.3331e-06	6.3518e-06	1334.8	361.64	6.4498e-06	6.4186e-06	415.36	138.97	120.32	41.801	6.4043e-06	51.784	478.955	238.704	241.541	168.180	275.463	306.648	167.590	172.624	257.464	299.602	172.104	176.045	176.583	181.834	281.721	180.861	-8191	255	
21358.463	1	1	0	0	0.19748	0.19402	0.20462	0.18327	0.20047	0.14895	0.1037	0.093226	0.073135	0.12717	0.1389	0.18729	0.096766	0.2502	0.29089	0.10979	-2.4021	-3.0667	-2.5563	-2.9958	-3.0479	-2.6292	-3.2167	-3.025	-2.8563	-3.2083	-2.8688	-2.9375	-2.9521	-2.9167	-3.0271	-2.9875	401.847	307.954	409.867	454.301	320.635	420.737	472.563	373.910	297.705	430.710	477.115	313.978	295.992	456.060	296.679	465.588	0.0011637	0.00066014	0.00011899	1305.6	5.0884e-06	4.7321e-06	1312.9	354.43	6.3575e-06	5.2712e-06	405.07	135.87	117.16	40.413	4.1347e-06	49.738	0.00066067	0.00057849	0.00016215	1335.7	6.2459e-06	6.359e-06	1337.4	361.42	6.4424e-06	6.3663e-06	414.48	138.92	119.97	41.746	6.2165e-06	51.695	478.732	247.223	240.525	168.266	277.511	311.408	167.702	172.702	253.829	311.976	172.000	176.221	176.647	181.654	276.162	180.622	-8191	255	
21358.561	1	1	0	0	0.19005	0.29931	0.20433	0.080086	0.23036	0.03353	0.081189	0.13688	0.092561	0.10311	0.2261	0.1466	0.13249	0.14862	0.12069	0.19473	-2.3292	-3.0979	-2.7313	-3.0646	-2.8271	-2.95	-3.0896	-2.8833	-2.8333	-3.0563	-3.1104	-3.2417	-3.0521	-3	-2.9938	-2.95	489.208	209.642	179.524	200.331	409.055	171.552	239.794	493.269	467.939	178.850	472.822	303.762	287.780	175.538	342.129	445.376	0.0010602	0.00029488	0.00017104	1310	4.0224e-06	6.14e-06	1309.2	353.46	7.5944e-06	5.1049e-06	403.67	136.24	117.65	40.358	4.4051e-06	49.791	0.00066349	0.00059197	0.00016089	1336.7	6.3112e-06	6.5932e-06	1334.9	361.35	6.568e-06	6.3917e-06	413.96	138.81	120.18	41.702	6.1825e-06	51.733	480.353	273.824	217.632	168.138	249.838	307.337	167.816	172.595	280.702	294.395	172.105	175.960	176.795	181.558	269.533	180.726	-8191	255	
21358.680	1	1	0	0	0.10681	0.20105	0.27113	0.2569	0.13716	0.1553	0.16938	0.27095	0.052606	0.054685	0.12289	0.054838	0.32635	0.029727	0.080283	0.10705	-2.4208	-3.0229	-2.8458	-3.1333	-3.2083	-2.7646	-3.325	-3.0458	-2.775	-3.1917	-3.0104	-2.9521	-2.9458	-2.8083	-3.0125	-2.9583	459.321	282.988	168.295	484.258	353.196	364.128	509.073	381.654	361.109	163.230	464.716	469.057	461.976	298.694	208.651	157.503	0.0011978	0.00055223	5.5905e-05	1307.1	5.7173e-06	6.1694e-06	1308.4	352.64	8.8453e-06	2.4118e-06	403.76	135.58	117.26	40.413	6.2898e-06	50.012	0.00066995	0.00058569	0.00016653	1335	6.2652e-06	6.4038e-06	1334.4	361.08	6.5134e-06	6.4143e-06	413.74	138.55	119.9	41.69	6.3428e-06	51.7	479.501	243.284	231.178	168.140	283.211	291.701	167.775	172.567	265.865	278.130	172.110	176.181	176.363	181.771	285.994	180.752	-8191	255	
21358.775	1	1	0	0	0.17261	0.12114	0.06785	0.41293	0.21617	0.21834	0.059533	0.31493	0.23074	0.060227	0.16554	0.33966	0.15467	0.062302	0.1773	0.05838	-2.15	-3.0854	-2.6437	-3	-3.125	-2.75	-3.2708	-3.0729	-2.7917	-3.0062	-2.9396	-3.0021	-3.0292	-2.8292	-2.9479	-3.1292	228.079	333.543	442.827	427.056	293.069	373.871	189.906	461.597	251.623	378.743	468.490	417.819	497.780	399.963	427.498	258.022	0.0011525	0.00049441	0.00016464	1310.2	5.8438e-06	4.8963e-06	1307.8	352.92	8.012e-06	5.2645e-06	403.98	135.84	117.66	40.37	4.7783e-06	49.687	0.00066664	0.0005951	0.00016527	1336.2	6.3883e-06	6.2636e-06	1334.8	361.48	6.523e-06	6.4556e-06	414.36	138.81	120.1	41.617	6.5352e-06	51.588	478.951	229.860	237.051	168.239	278.075	322.637	167.701	172.634	254.309	301.886	172.189	176.228	176.532	181.877	286.659	180.755	-8191	255	
21358.846	1	1	0	0	0.1693	0.019548	0.18876	0.24198	0.089678	0.2648	0.25709	0.074662	0.16921	0.054257	0.23487	0.063883	0.30198	0.019217	0.097757	0.028525	-2.3542	-2.95	-2.7812	-2.975	-3.0042	-2.9917	-3.075	-3	-2.5896	-2.9458	-3.0687	-2.9292	-2.9208	-3.0583	-2.9313	-2.9104	481.131	185.851	189.874	451.956	373.493	259.395	436.362	204.426	187.997	288.714	370.639	473.577	483.676	428.791	170.453	240.538	0.001121	0.00031663	0.00019355	1307.7	6.6234e-06	5.893e-06	1307	354.24	8.1941e-06	5.7532e-06	405.13	136.13	117.17	40.315	4.5967e-06	49.799	0.00066639	0.00059648	0.0001652	1336	6.4098e-06	6.5146e-06	1333.8	361.35	6.3438e-06	6.4316e-06	413.86	138.8	119.78	41.638	6.3939e-06	51.697	478.561	256.966	252.197	168.274	264.336	292.793	167.631	172.579	272.260	296.868	172.177	176.127	176.491	181.752	308.370	180.679	-8191	255	
21358.967	1	1	0	0	0.2081	0.099399	0.048089	0.028032	0.22757	0.2518	0.21104	0.25228	0.062491	0.090778	0.10801	0.1705	0.038476	0.15585	0.18526	0.056903	-2.3479	-2.8792	-2.9021	-3.1208	-3.0021	-2.9208	-3.0271	-3.2458	-2.7521	-3.0521	-2.8667	-2.8208	-3.125	-3.0458	-2.7917	-3	275.030	457.245	312.922	174.997	198.189	276.937	488.122	509.412	410.045	489.036	256.161	418.055	409.823	504.007	327.330	420.744	0.0012203	0.00037227	0.00016765	1309.1	6.0411e-06	6.9866e-06	1309.5	354.56	7.1242e-06	4.9139e-06	404.09	136.09	118.17	40.208	7.0499e-06	49.813	0.00067527	0.00058625	0.00016751	1336.5	6.3068e-06	6.5272e-06	1336	361.86	6.5544e-06	6.6007e-06	414.69	138.97	120.19	41.663	6.5438e-06	51.691	480.807	255.933	244.757	168.165	280.855	310.562	167.869	172.658	255.401	306.254	172.172	176.218	176.410	181.836	295.517	180.702	-8191	255	
21359.062	1	1	0	0	0.29631	0.1224	0.070727	0.44153	0.14391	0.30085	0.31919	0.21357	0.16519	0.062799	0.02532	0.168	0.16852	0.10039	0.17589	0.027239	-2.2458	-2.9938	-3.0687	-2.7542	-3.1458	-2.975	-3.0396	-3.4083	-2.8708	-3.1083	-3.1396	-2.9625	-3.1104	-2.8708	-2.7417	-3.1583	352.120	363.055	501.892	450.928	428.748	155.290	458.143	438.067	287.703	354.336	324.029	245.955	458.790	161.096	247.735	214.370	0.0011759	0.00039172	0.00014356	1315.6	4.92e-06	7.5175e-06	1313.1	353.64	7.7233e-06	2.9087e-06	403.46	135.81	117.27	40.26	6.4155e-06	49.724	0.00065693	0.00059874	0.00016737	1337.6	6.3651e-06	6.571e-06	1335.6	361.32	6.3508e-06	6.6022e-06	413.58	138.63	119.84	41.626	6.3391e-06	51.668	481.569	221.126	240.839	168.142	274.718	312.522	167.648	172.557	269.959	327.627	172.375	176.143	176.743	181.691	287.330	180.845	-8191	255	
21359.158	1	1	0	0	0.055287	0.22279	0.17466	0.04384	0.12575	0.084511	0.16177	0.45822	0.28184	0.19797	0.070591	0.21058	0.36507	0.11362	0.11346	0.28005	-2.3292	-2.9333	-3.0833	-2.8354	-2.925	-2.9771	-2.925	-3.0979	-2.8167	-2.8563	-3.0833	-2.9437	-3.0771	-3.0771	-2.7167	-3.2646	415.633	311.459	476.590	167.849	212.396	216.018	198.459	441.982	512.914	329.579	342.349	249.898	454.710	432.302	338.072	408.529	0.0011825	0.00046948	0.00010691	1309.7	5.3415e-06	4.9496e-06	1303.8	353.54	8.6027e-06	6.3056e-06	403.36	135.48	117.54	40.33	5.8014e-06	49.994	0.00067446	0.00060199	0.00016832	1334.8	6.4317e-06	6.6153e-06	1333.4	361.04	6.4306e-06	6.4921e-06	413.94	138.33	119.73	41.663	6.474e-06	51.747	479.567	249.051	221.318	168.065	266.499	323.184	167.761	172.664	267.439	315.573	172.144	176.153	176.669	181.794	280.459	180.991	-8191	255	
21359.256	1	1	0	0	0.10171	0.14066	0.21833	0.14454	0.097782	0.19387	0.11552	0.41918	0.12565	0.22285	0.20062	0.18614	0.31637	0.22156	0.11648	0.074673	-2.3604	-2.8833	-2.9292	-2.8521	-2.9646	-2.7271	-3.1021	-3.1542	-2.8104	-2.9625	-3.1771	-2.8354	-3.1375	-2.9292	-2.7438	-3.1	325.238	205.712	215.932	160.569	388.861	221.260	491.240	476.886	273.133	241.502	489.895	194.404	473.329	160.252	401.941	274.331	0.001136	0.00032003	0.00010378	1311.5	5.5591e-06	4.9236e-06	1306	353.83	7.8578e-06	4.4387e-06	403.6	136.1	117.48	40.386	3.7586e-06	49.701	0.00066407	0.00059427	0.00016275	1336.8	6.3195e-06	6.6438e-06	1333.5	361.17	6.5579e-06	6.5608e-06	413.98	138.69	119.93	41.635	6.3885e-06	51.674	479.655	239.089	281.551	168.153	283.685	292.707	167.752	172.795	257.919	322.534	172.183	176.055	176.669	181.676	270.482	180.836	-8191	255	
21359.352	1	1	0	0	0.23124	0.24596	0.12668	0.16407	0.08524	0.1354	0.18846	0.25981	0.37565	0.14313	0.14866	0.16856	0.042373	0.20127	0.3231	0.073777	-2.4583	-2.7167	-3.2167	-3.0812	-3.1	-3.1375	-2.925	-3.1104	-2.9646	-2.9854	-3.1437	-2.7958	-2.8646	-3.0229	-2.8583	-3.0396	358.879	268.030	244.650	245.827	456.702	310.364	422.270	497.246	453.231	458.398	348.752	402.505	289.493	499.296	296.589	247.610	0.0011769	0.00044562	0.00013715	1308	6.2959e-06	5.6738e-06	1305.4	353.04	1.0704e-05	5.501e-06	402.88	135.5	117.41	40.416	4.7589e-06	49.689	0.00066806	0.00061807	0.00016754	1335.1	6.4956e-06	6.3074e-06	1333.2	360.89	6.2893e-06	6.5671e-06	413.6	138.51	119.79	41.637	6.599e-06	51.556	477.884	226.049	269.038	168.130	284.522	321.960	167.771	172.795	268.976	306.295	172.006	175.964	176.555	181.750	264.240	180.843	-8191	255	
21359.447	1	1	0	0	0.12766	0.24885	0.051827	0.39349	0.08618	0.022679	0.13179	0.24663	0.17709	0.28924	0.034895	0.17114	0.27845	0.18357	0.10078	0.064966	-2.45	-2.9	-2.9729	-3.0167	-2.9938	-2.9208	-2.8292	-3.1479	-2.9292	-2.775	-3.2062	-2.9604	-2.9125	-3.2104	-2.8521	-3.2	198.526	496.133	384.668	462.808	178.256	441.901	160.567	171.936	289.442	311.346	337.528	472.747	436.709	505.735	280.282	470.787	0.0011802	0.00055627	0.00010866	1308.4	7.3812e-06	4.6046e-06	1310.5	353.59	6.5477e-06	4.1975e-06	404.71	135.62	117.62	40.202	3.6847e-06	49.795	0.00067629	0.0006006	0.00016474	1334.6	6.6542e-06	6.346e-06	1334.7	361.07	6.5876e-06	6.4835e-06	414.33	138.63	119.98	41.618	6.2468e-06	51.628	478.274	239.139	261.641	168.108	278.571	328.044	167.661	172.653	257.112	338.181	171.887	176.018	176.294	181.699	308.522	180.905	-8191	255	
21359.543	1	1	0	0	0.25595	0.33691	0.087063	0.33431	0.073682	0.19104	0.10462	0.16326	0.26201	0.23992	0.18672	0.30668	0.11836	0.30911	0.17502	0.2064	-2.3458	-2.7	-2.9938	-3.0708	-2.8667	-3.2438	-3	-3.1542	-2.7667	-2.6958	-3.2542	-2.8667	-3.1063	-2.9708	-2.8896	-2.9104	508.646	311.338	282.421	436.810	485.473	231.216	513.104	408.722	222.549	444.139	188.854	474.571	347.354	451.495	259.608	179.258	0.0011533	0.00050137	0.0001505	1311.7	5.3704e-06	4.7678e-06	1312.1	352.81	8.8025e-06	2.3808e-06	404.89	135.77	117.21	40.193	2.9903e-06	49.751	0.00067214	0.00059843	0.00016485	1335.7	6.5517e-06	6.3599e-06	1335.4	361.08	6.3883e-06	6.6108e-06	413.97	138.54	119.75	41.577	6.4555e-06	51.615	478.651	245.978	231.682	168.327	279.463	309.856	167.751	172.597	269.834	330.203	172.307	175.851	176.829	181.720	298.503	180.836	-8191	255	
21359.641	1	1	0	0	0.13505	0.12548	0.45378	0.22663	0.20038	0.17881	0.13706	0.19732	0.10321	0.18517	0.11323	0.075629	0.16836	0.17549	0.29729	0.032565	-2.5687	-2.7375	-3.1167	-3.0458	-2.6854	-3.0104	-2.8563	-3.125	-3.0563	-2.8417	-3.0729	-2.8958	-2.7833	-3.0104	-2.8458	-3.1042	155.830	189.808	363.221	494.966	378.795	304.524	488.794	166.936	270.518	284.070	455.074	175.438	463.195	394.525	462.545	324.400	0.0011877	0.00034018	0.0001234	1309	5.8668e-06	6.0302e-06	1309.9	352.62	7.4755e-06	5.8975e-06	404.72	135.41	118.17	40.206	6.2967e-06	49.884	0.00066701	0.00060013	0.0001653	1334.8	6.4001e-06	6.3469e-06	1334.2	360.77	6.5457e-06	6.3787e-06	414.01	138.5	120.17	41.583	6.45e-06	51.696	479.828	243.726	236.300	168.212	281.790	295.794	167.714	172.600	266.407	323.333	172.093	176.049	176.734	181.588	287.251	180.630	-8191	255	
21359.760	1	1	0	0	0.20772	0.24284	0.21819	0.10319	0.15051	0.12467	0.22093	0.0941	0.081695	0.14116	0.12673	0.035832	0.24026	0.17133	0.22901	0.12476	-2.5875	-2.7104	-3.0646	-2.8896	-2.8563	-3.0958	-3.1375	-2.9813	-2.975	-2.7083	-3.1604	-2.9167	-2.975	-3.2146	-2.9188	-2.9896	353.189	364.210	406.759	174.221	481.362	487.487	493.645	250.557	331.202	271.493	360.634	184.780	508.459	405.407	233.229	247.160	0.0011553	0.00036666	0.00012578	1310.7	6.0398e-06	3.6439e-06	1306.5	353.2	6.5833e-06	4.4942e-06	405.13	135.62	117.92	40.158	5.0824e-06	49.706	0.00066346	0.00059713	0.00016064	1335.9	6.3686e-06	6.238e-06	1333.4	361.38	6.2561e-06	6.4018e-06	414.32	138.65	120.1	41.61	6.4428e-06	51.682	479.362	218.971	236.229	168.180	277.287	298.149	167.752	172.557	252.112	300.415	172.264	175.900	176.945	181.823	292.423	181.006	-8191	255	
21359.855	1	1	0	0	0.089222	0.18997	0.16901	0.28562	0.053007	0.068754	0.36713	0.26947	0.14409	0.34256	0.22784	0.17003	0.080429	0.068743	0.10566	0.30054	-2.5229	-2.9208	-2.9354	-3.2625	-2.7625	-3.1917	-3.0146	-3.0125	-3.0958	-2.9333	-3.1333	-3.0563	-2.9021	-3.0583	-2.8917	-2.9083	415.153	319.427	484.094	432.962	423.496	396.524	469.321	444.825	191.419	172.155	479.201	441.326	258.337	365.356	291.859	467.413	0.00116	0.00041332	0.00015306	1310.3	5.4351e-06	5.2449e-06	1311.4	352.58	7.6759e-06	6.7056e-06	403.77	136.21	117.26	40.352	5.1077e-06	49.817	0.00065226	0.00058972	0.00015969	1335.3	6.3747e-06	6.4833e-06	1334.3	360.89	6.3394e-06	6.5498e-06	413.8	138.77	119.92	41.664	6.4292e-06	51.658	480.261	248.200	248.559	168.185	288.831	300.292	167.908	172.742	250.303	296.057	172.038	176.148	176.843	181.753	280.327	180.913	-8191	255	
21359.951	1	1	0	0	0.029343	0.11416	0.1099	0.30288	0.12432	0.19593	0.1907	0.40665	0.26738	0.26615	0.29662	0.13754	0.036721	0.11269	0.068004	0.18052	-2.5583	-2.775	-3.0354	-3.0375	-2.6792	-3.0042	-3.0896	-2.8417	-3.1854	-2.8979	-2.9875	-3.0938	-2.7292	-3.1833	-2.8583	-2.7979	161.874	161.610	178.094	469.416	509.132	464.372	420.922	465.962	361.984	155.955	477.917	393.359	249.294	510.251	376.162	252.091	0.0011978	0.00045689	0.00014252	1308.5	5.4742e-06	6.2241e-06	1308.1	354.08	6.6614e-06	5.9959e-06	405.39	135.47	117.42	40.525	5.8513e-06	49.903	0.00065999	0.00059761	0.00016587	1335.9	6.2823e-06	6.3638e-06	1334.4	361.09	6.3155e-06	6.4931e-06	414.23	138.51	119.93	41.709	6.3699e-06	51.68	479.058	232.532	274.677	168.082	273.455	277.260	167.635	172.776	270.624	319.191	172.279	175.998	176.553	181.887	287.389	180.642	-8191	255	
21360.047	1	1	0	0	0.069795	0.089074	0.34437	0.13061	0.14995	0.19615	0.21401	0.12837	0.11795	0.062617	0.057986	0.24322	0.22063	0.055694	0.27313	0.072622	-2.6229	-2.6562	-2.8333	-3.0708	-2.7583	-2.9792	-3.1896	-2.8958	-3.0417	-2.7042	-2.9188	-3.0438	-2.8125	-3.0479	-2.8729	-2.7417	452.582	299.606	259.378	281.465	197.429	259.926	404.354	384.831	408.207	366.857	373.047	351.743	474.406	446.813	185.496	252.764	0.0011589	0.00061124	0.00020927	1311.2	6.0004e-06	5.9068e-06	1310.1	353.99	9.2173e-06	3.6864e-06	404.26	135.66	118.29	40.632	5.5778e-06	49.752	0.00064729	0.00060242	0.00016408	1336.6	6.4763e-06	6.4149e-06	1336.1	361.54	6.3072e-06	6.484e-06	414.63	138.77	120.32	41.769	6.2051e-06	51.644	479.752	243.680	233.197	168.284	285.545	303.076	167.828	172.623	264.746	321.541	172.428	176.130	176.522	181.799	286.526	180.755	-8191	255	
21360.145	1	1	0	0	0.11409	0.12081	0.047135	0.33445	0.15086	0.18504	0.24651	0.31797	0.06192	0.076181	0.27871	0.12558	0.073335	0.1319	0.045213	0.2713	-2.6063	-2.8688	-2.8208	-3.2833	-2.725	-2.9854	-3.2313	-2.7708	-3.0354	-2.9979	-2.8542	-3.075	-2.8187	-3.0917	-3.05	-2.9062	349.935	352.879	384.975	457.114	483.861	435.170	425.775	509.787	361.153	326.655	431.035	350.413	488.145	360.767	448.766	450.122	0.0011845	0.00023353	0.00011449	1308.3	3.5508e-06	4.906e-06	1308.1	352.5	7.201e-06	3.3839e-06	403.11	136.14	117.23	40.356	6.2192e-06	49.934	0.00065832	0.00058183	0.00015894	1337	6.3169e-06	6.5069e-06	1335	361.06	6.312e-06	6.4278e-06	413.84	138.86	120.05	41.685	6.3097e-06	51.735	480.433	219.549	267.478	168.337	259.121	283.314	167.792	172.532	262.234	308.761	172.079	176.303	176.855	181.841	270.552	180.731	-8191	255	
21360.240	1	1	0	0	0.24258	0.23375	0.32566	0.20891	0.1411	0.14769	0.17246	0.037554	0.32477	0.1362	0.10763	0.34745	0.076877	0.017616	0.087757	0.2532	-2.6188	-3.0417	-2.5083	-3.2083	-2.8333	-2.8042	-3.1958	-2.8604	-2.9875	-2.7646	-2.7771	-3.2438	-3	-2.9208	-2.975	-2.8396	200.039	435.598	298.539	399.926	363.028	460.281	477.249	474.998	200.866	422.799	441.809	416.311	435.707	439.817	391.111	500.807	0.0012085	0.00034793	0.00010733	1312.6	7.415e-06	5.7059e-06	1306.2	352.73	8.2301e-06	2.9895e-06	403.35	136.05	117.03	40.581	6.2657e-06	50.087	0.0006685	0.00060502	0.0001657	1336.9	6.3717e-06	6.3797e-06	1334.3	361.42	6.3198e-06	6.3946e-06	414.39	138.73	120.12	41.767	6.2459e-06	51.723	477.629	233.751	243.672	167.995	280.827	299.475	167.783	172.683	265.027	312.393	172.278	175.801	176.846	181.608	270.361	180.796	-8191	255	
21360.359	1	1	0	0	0.15499	0.14877	0.20118	0.15651	0.32045	0.24044	0.20026	0.13885	0.12167	0.14584	0.096128	0.16825	0.22629	0.31044	0.098356	0.082775	-2.6583	-3.0646	-2.8333	-3.1771	-2.8083	-2.9646	-3.2896	-2.8021	-3.0812	-2.9208	-2.8937	-3.0917	-2.8521	-2.9479	-3.2188	-2.8312	386.773	493.165	385.284	208.569	388.769	260.350	433.268	481.292	256.955	247.468	415.475	397.851	498.043	484.319	224.070	433.842	0.0011933	0.00062366	0.00012776	1315.1	6.4125e-06	5.0409e-06	1308.8	353.29	8.2879e-06	4.5133e-06	405	136.18	117.51	40.393	2.7694e-06	49.829	0.00067038	0.00057368	0.00016097	1338.4	6.284e-06	6.4727e-06	1335.7	361.38	6.3626e-06	6.4489e-06	414.17	138.73	120.27	41.682	6.0852e-06	51.727	479.570	241.029	257.929	168.163	285.223	315.660	167.684	172.600	244.985	303.271	172.057	176.024	176.730	181.511	239.572	180.688	-8191	255	
21360.455	1	1	0	0	0.21519	0.092657	0.0034121	0.098536	0.21548	0.18074	0.32043	0.2314	0.3413	0.31078	0.18427	0.20243	0.15733	0.15978	0.042142	0.066587	-2.6167	-3.0708	-2.7667	-3.3688	-2.8375	-2.8625	-3.25	-2.8083	-2.9958	-3.0458	-2.8417	-3.1625	-2.9729	-2.8667	-3.1	-2.7333	503.686	259.038	168.221	454.005	169.645	204.803	404.352	446.423	244.280	192.610	365.664	239.232	467.109	498.373	401.662	462.645	0.0011863	0.00048675	0.0001139	1312.5	4.1246e-06	4.5278e-06	1308.1	352.37	6.5871e-06	5.4527e-06	404.24	136.14	117.78	40.42	5.7487e-06	49.804	0.00064521	0.00056991	0.00016308	1336.3	6.1916e-06	6.4486e-06	1336.9	361.11	6.4663e-06	6.396e-06	414.39	138.88	120.17	41.719	6.4125e-06	51.704	479.802	236.047	255.703	168.148	296.854	322.086	167.702	172.713	273.474	300.427	172.211	176.081	176.911	181.560	296.517	180.922	-8191	255	
21360.551	1	1	0	0	0.15792	0.28297	0.34002	0.26918	0.10757	0.34947	0.3227	0.10167	0.10676	0.19992	0.17369	0.011336	0.058311	0.31473	0.1135	0.16374	-2.5104	-3.0729	-2.7125	-3.1562	-3.0312	-2.8458	-3.2313	-2.9771	-2.7417	-3.1229	-2.925	-3.175	-2.95	-2.8708	-3.1312	-3.0208	239.834	221.152	245.113	509.308	204.950	214.109	510.252	212.130	209.492	461.850	508.998	285.162	478.979	405.922	202.045	403.890	0.0012132	0.00047628	0.0001344	1307.3	8.2741e-06	4.0931e-06	1309.3	353.56	7.0402e-06	5.0846e-06	405.53	136.01	117.82	40.412	4.4543e-06	50.062	0.0006688	0.00057337	0.00016143	1336.7	6.2867e-06	6.305e-06	1335.7	361.33	6.3543e-06	6.3432e-06	414.28	138.76	120.25	41.749	6.3667e-06	51.776	481.223	246.030	247.382	168.063	285.214	303.752	167.758	172.696	251.606	310.414	172.182	176.103	176.731	181.752	271.772	180.853	-8191	255	
21360.646	1	1	0	0	0.067381	0.036525	0.092134	0.22304	0.18817	0.23628	0.10213	0.22923	0.059476	0.029399	0.021063	0.24466	0.038717	0.11093	0.24097	0.096923	-2.5938	-3.1312	-2.7979	-3.1979	-3.0417	-3.0396	-3.0646	-2.9062	-2.7271	-3.1521	-2.9292	-3.0208	-2.8875	-2.9771	-2.9021	-2.8479	424.878	271.376	497.285	496.763	460.286	249.849	257.153	455.789	353.444	219.429	303.045	174.139	422.938	461.780	200.940	192.329	0.0011689	0.00043904	0.0001704	1308.2	5.1045e-06	3.2605e-06	1308.8	354.44	6.0189e-06	4.8945e-06	404.98	136.17	117.63	40.484	4.2117e-06	50.092	0.00065656	0.00057303	0.00016766	1335.6	6.2709e-06	6.5546e-06	1334.9	361.98	6.3233e-06	6.3062e-06	414.68	138.85	120.01	41.768	6.2685e-06	51.768	480.528	250.271	225.048	168.077	271.607	309.679	167.847	172.704	252.628	321.168	172.140	176.271	176.696	181.840	280.804	180.917	-8191	255	
21360.742	1	1	0	0	0.097331	0.16974	0.251	0.14195	0.083902	0.073437	0.25646	0.16734	0.13321	0.15401	0.24344	0.27595	0.081168	0.26146	0.059051	0.23811	-2.4313	-3.0625	-2.8771	-3.0229	-2.9583	-2.8271	-3.2521	-2.9521	-2.7667	-3.1917	-2.9042	-3.0833	-3.0021	-2.6688	-3.0083	-2.9542	407.332	348.981	315.270	491.062	497.327	449.778	479.900	435.052	276.071	204.156	407.680	511.906	193.658	391.189	451.801	368.567	0.0011895	0.00055962	0.00013188	1310.7	7.2041e-06	4.5042e-06	1310.4	352.58	6.3653e-06	4.2963e-06	404.07	136.1	117.58	40.543	4.8716e-06	49.99	0.00066509	0.00058868	0.00016703	1335.7	6.295e-06	6.3079e-06	1334.3	361.09	6.4624e-06	6.3091e-06	414.67	138.8	119.84	41.754	6.159e-06	51.735	477.313	256.450	260.237	168.239	275.020	315.565	167.812	172.593	270.089	307.672	172.293	176.031	176.703	181.658	280.044	180.729	-8191	255	
#DATA ENDS
