BOXY.EXE: ISS Imagent and Oximeter Data Acquisition Program Version 0.80
Ascii Record File

#ACQ INFORMATION
2  Detector Channels 
16  External MUX Channels 
1  Auxiliary Channels 
5000  Waveform (CCF) Frequency (Hz)
1  Waveforms Skipped 
30  Waveforms Averaged 
1  Cycles Averaged 
16  Acquisitions per Waveform 
10.0806  Updata Rate (Hz) 

#FILE INFORMATION
TRUE -- External MUX Channel results are PARSED.
FALSE -- AC DC and Phase are NOT grouped.
TRUE -- Companion Program Settings File CREATED.
FALSE -- AC data not excluded
FALSE -- DC data not excluded
FALSE -- Phase data not excluded
FALSE -- Auxillary Chn. data not excluded
Tab delimiters

#CALIBRATION STATE
TRUE -- Waveform Calibration Values APPLIED.


#AUX CALIBRATION VALUES
Val Type	aux-1	

Term	1.0000e+00	
Factor	0.0000e+00	


#WF CALIBRATION VALUES
A = Detector Channel
Val Type	A-AC1	A-AC2	A-AC3	A-AC4	A-AC5	A-AC6	A-AC7	A-AC8	A-AC9	A-AC10	A-AC11	A-AC12	A-AC13	A-AC14	A-AC15	A-AC16	A-DC1	A-DC2	A-DC3	A-DC4	A-DC5	A-DC6	A-DC7	A-DC8	A-DC9	A-DC10	A-DC11	A-DC12	A-DC13	A-DC14	A-DC15	A-DC16	A-Ph1	A-Ph2	A-Ph3	A-Ph4	A-Ph5	A-Ph6	A-Ph7	A-Ph8	A-Ph9	A-Ph10	A-Ph11	A-Ph12	A-Ph13	A-Ph14	A-Ph15	A-Ph16	

Term	0.00000e+00	0.00000e+00	0.00000e+00	0.00000e+00	0.00000e+00	0.00000e+00	0.00000e+00	0.00000e+00	0.00000e+00	0.00000e+00	0.00000e+00	0.00000e+00	0.00000e+00	0.00000e+00	0.00000e+00	0.00000e+00	0.00000e+00	0.00000e+00	0.00000e+00	0.00000e+00	0.00000e+00	0.00000e+00	0.00000e+00	0.00000e+00	0.00000e+00	0.00000e+00	0.00000e+00	0.00000e+00	0.00000e+00	0.00000e+00	0.00000e+00	0.00000e+00	0.00000e+00	0.00000e+00	0.00000e+00	0.00000e+00	0.00000e+00	0.00000e+00	0.00000e+00	0.00000e+00	0.00000e+00	0.00000e+00	0.00000e+00	0.00000e+00	0.00000e+00	0.00000e+00	0.00000e+00	0.00000e+00	
Factor	1.00000e+00	1.00000e+00	1.00000e+00	1.00000e+00	1.00000e+00	1.00000e+00	1.00000e+00	1.00000e+00	1.00000e+00	1.00000e+00	1.00000e+00	1.00000e+00	1.00000e+00	1.00000e+00	1.00000e+00	1.00000e+00	1.00000e+00	1.00000e+00	1.00000e+00	1.00000e+00	1.00000e+00	1.00000e+00	1.00000e+00	1.00000e+00	1.00000e+00	1.00000e+00	1.00000e+00	1.00000e+00	1.00000e+00	1.00000e+00	1.00000e+00	1.00000e+00	X	X	X	X	X	X	X	X	X	X	X	X	X	X	X	X	

B = Detector Channel
Val Type	B-AC1	B-AC2	B-AC3	B-AC4	B-AC5	B-AC6	B-AC7	B-AC8	B-AC9	B-AC10	B-AC11	B-AC12	B-AC13	B-AC14	B-AC15	B-AC16	B-DC1	B-DC2	B-DC3	B-DC4	B-DC5	B-DC6	B-DC7	B-DC8	B-DC9	B-DC10	B-DC11	B-DC12	B-DC13	B-DC14	B-DC15	B-DC16	B-Ph1	B-Ph2	B-Ph3	B-Ph4	B-Ph5	B-Ph6	B-Ph7	B-Ph8	B-Ph9	B-Ph10	B-Ph11	B-Ph12	B-Ph13	B-Ph14	B-Ph15	B-Ph16	

Term	0.00000e+00	0.00000e+00	0.00000e+00	0.00000e+00	0.00000e+00	0.00000e+00	0.00000e+00	0.00000e+00	0.00000e+00	0.00000e+00	0.00000e+00	0.00000e+00	0.00000e+00	0.00000e+00	0.00000e+00	0.00000e+00	0.00000e+00	0.00000e+00	0.00000e+00	0.00000e+00	0.00000e+00	0.00000e+00	0.00000e+00	0.00000e+00	0.00000e+00	0.00000e+00	0.00000e+00	0.00000e+00	0.00000e+00	0.00000e+00	0.00000e+00	0.00000e+00	-5.24022e+01	-1.64169e+02	-9.76990e+01	-1.80969e+02	-5.66720e+01	-9.77327e+01	-1.56073e+02	-1.62015e+02	-2.91745e+01	-6.44927e+01	-1.73276e+02	-1.70265e+02	-1.82009e+02	-1.76771e+02	-6.96488e+01	-1.50163e+02	
Factor	1.86859e-05	9.78118e-05	2.79070e-05	1.67683e-01	9.76611e-07	1.10387e-06	1.73110e-01	5.09591e-02	1.07639e-06	1.05178e-06	1.04153e-01	2.91335e-02	3.50756e-02	9.31146e-03	9.58455e-07	1.36155e-02	6.11716e-07	6.27859e-07	1.75053e-07	7.79073e-02	6.84918e-09	6.89061e-09	7.55109e-02	2.36384e-02	6.84905e-09	6.88618e-09	4.50172e-02	1.28399e-02	1.55609e-02	4.22386e-03	6.88738e-09	5.88561e-03	X	X	X	X	X	X	X	X	X	X	X	X	X	X	X	X	



#DISTANCE SETTINGS
A = Detector Channel
A-1	A-2	A-3	A-4	A-5	A-6	A-7	A-8	A-9	A-10	A-11	A-12	A-13	A-14	A-15	A-16	

2.5000e+00	3.0000e+00	2.5000e+00	3.0000e+00	2.0000e+00	3.0000e+00	1.5000e+00	3.0000e+00	3.0000e+00	3.0000e+00	3.0000e+00	3.0000e+00	3.0000e+00	3.0000e+00	1.5000e+00	3.0000e+00	

B = Detector Channel
B-1	B-2	B-3	B-4	B-5	B-6	B-7	B-8	B-9	B-10	B-11	B-12	B-13	B-14	B-15	B-16	

1.0000e+01	1.0000e+01	1.0000e+01	1.4400e+00	1.0000e+01	1.0000e+01	1.5100e+00	1.9400e+00	1.0000e+01	1.0000e+01	1.9900e+00	2.4900e+00	2.4100e+00	2.9000e+00	1.0000e+01	2.9800e+00	




#DATA BEGINS
time	group	step	mark	flag	A-AC1	A-AC2	A-AC3	A-AC4	A-AC5	A-AC6	A-AC7	A-AC8	A-AC9	A-AC10	A-AC11	A-AC12	A-AC13	A-AC14	A-AC15	A-AC16	A-DC1	A-DC2	A-DC3	A-DC4	A-DC5	A-DC6	A-DC7	A-DC8	A-DC9	A-DC10	A-DC11	A-DC12	A-DC13	A-DC14	A-DC15	A-DC16	A-Ph1	A-Ph2	A-Ph3	A-Ph4	A-Ph5	A-Ph6	A-Ph7	A-Ph8	A-Ph9	A-Ph10	A-Ph11	A-Ph12	A-Ph13	A-Ph14	A-Ph15	A-Ph16	B-AC1	B-AC2	B-AC3	B-AC4	B-AC5	B-AC6	B-AC7	B-AC8	B-AC9	B-AC10	B-AC11	B-AC12	B-AC13	B-AC14	B-AC15	B-AC16	B-DC1	B-DC2	B-DC3	B-DC4	B-DC5	B-DC6	B-DC7	B-DC8	B-DC9	B-DC10	B-DC11	B-DC12	B-DC13	B-DC14	B-DC15	B-DC16	B-Ph1	B-Ph2	B-Ph3	B-Ph4	B-Ph5	B-Ph6	B-Ph7	B-Ph8	B-Ph9	B-Ph10	B-Ph11	B-Ph12	B-Ph13	B-Ph14	B-Ph15	B-Ph16	aux-1	digaux	

3843.043	1	1	0	256	0.035569	0.18678	0.043164	0.18087	0.32584	0.10263	0.13242	0.25704	0.16005	0.049943	0.12199	0.089123	0.1168	0.28187	0.13339	0.078609	-1.9688	-2.6417	-2.6292	-2.4479	-2.6083	-2.6375	-2.6479	-2.9042	-2.4417	-2.5938	-2.8083	-2.4333	-2.8208	-2.5646	-2.3354	-2.9875	265.660	116.330	16.417	195.234	101.264	-19.461	-85.582	-80.779	-18.825	-17.129	265.373	247.710	-83.759	230.290	-7.788	24.332	0.00026609	0.00015216	8.6747e-05	493.25	2.2662e-06	2.5571e-06	691.59	202.66	1.8577e-06	4.4704e-06	308.34	136.07	87.871	50.036	9.5531e-07	72.024	0.00023731	0.00025854	6.8289e-05	508.77	2.5803e-06	2.8488e-06	702.17	205.04	2.602e-06	2.794e-06	303.72	134.61	87.636	49.381	2.5693e-06	69.264	265.013	-12.917	30.559	-75.110	121.092	-72.887	-76.360	-69.224	-1.330	22.436	-71.962	-67.072	-64.210	-59.962	61.643	-63.509	-8191	255	
3843.163	1	1	0	0	0.19253	0.099159	0.50074	0.22156	0.21085	0.097433	0.16033	0.16254	0.14421	0.13552	0.036749	0.35507	0.58734	0.14251	0.068137	0.2118	-1.8667	-2.7458	-2.65	-2.2667	-2.6729	-2.7104	-2.4813	-2.9458	-2.4917	-2.5042	-2.7562	-2.4708	-2.5458	-2.7146	-2.3271	-2.8667	135.576	-75.372	158.662	257.522	39.743	49.738	260.833	259.859	32.638	99.959	-52.338	199.812	208.143	166.802	268.312	150.630	0.00029776	0.00065666	0.00011148	495.64	4.584e-06	3.1233e-06	694.01	202.36	5.1221e-07	5.0494e-06	308.4	135.57	87.255	49.644	2.2055e-06	71.183	0.00024528	0.00025088	6.5012e-05	507.72	2.6758e-06	2.7638e-06	701.56	204.92	2.7358e-06	2.7685e-06	303.5	134.37	87.789	49.112	2.5659e-06	68.916	241.308	-23.176	37.395	-75.136	97.846	44.424	-76.217	-68.990	-12.594	79.116	-71.954	-66.914	-64.021	-59.882	54.420	-63.377	-8191	255	
3843.259	1	1	0	0	0.14248	0.26844	0.20421	0.088188	0.23302	0.08325	0.17156	0.13112	0.096282	0.19435	0.1291	0.33211	0.10293	0.23974	0.12761	0.22888	-1.9229	-2.4458	-2.7104	-2.3458	-2.6583	-2.5563	-2.2438	-2.8375	-2.5312	-2.5479	-2.7271	-2.4542	-2.6979	-2.7	-2.1521	-2.7729	237.313	169.657	50.467	268.176	232.880	135.508	-80.673	262.544	144.583	14.072	162.768	-6.487	-39.344	197.684	-29.269	239.610	0.00037426	0.00030523	9.9377e-05	495.78	4.3599e-07	1.0475e-05	694.34	201.04	2.0955e-06	4.7451e-06	306.84	136.3	87.5	49.55	2.3812e-06	71.465	0.0002594	0.00024732	6.4596e-05	508.31	2.7721e-06	2.6485e-06	698.36	204.53	2.7477e-06	2.6054e-06	302.06	134.48	87.828	48.951	2.4604e-06	68.872	258.369	-75.424	43.560	-75.003	192.798	41.439	-76.318	-69.236	74.755	119.455	-71.900	-67.108	-64.254	-59.832	27.500	-63.169	-8191	255	
3843.356	1	1	0	0	0.219	0.081608	0.042219	0.2074	0.25992	0.22813	0.15053	0.17661	0.16707	0.12993	0.057025	0.10067	0.031782	0.092853	0.19458	0.15097	-2.15	-2.2313	-2.7062	-2.3604	-2.5833	-2.6167	-2.4042	-2.75	-2.4813	-2.3	-2.7458	-2.4208	-2.325	-2.7917	-2.2792	-2.8104	156.779	91.602	-49.610	228.956	156.597	222.612	208.617	271.971	217.815	129.997	-0.412	144.868	18.338	98.771	224.267	136.328	0.00029465	0.0005392	0.0001075	492.88	2.4683e-06	3.74e-06	689.94	201.04	3.3349e-06	4.2837e-06	305.28	135.72	86.867	49.24	2.8959e-06	70.975	0.00026156	0.00023714	6.3388e-05	508.39	2.8015e-06	2.5891e-06	696.84	204.48	2.7619e-06	2.5706e-06	300.11	134.37	87.513	48.748	2.4672e-06	68.662	257.267	-34.939	54.880	-75.099	50.887	-16.247	-76.403	-69.276	131.347	20.779	-71.922	-67.264	-64.153	-59.753	62.681	-63.438	-8191	255	
3843.452	1	1	0	0	0.21158	0.0251	0.13415	0.062244	0.096431	0.14931	0.40108	0.13122	0.16427	0.17345	0.15639	0.19738	0.039495	0.079947	0.15181	0.029481	-2.0771	-2.1146	-2.725	-2.3187	-2.5354	-2.6771	-2.2292	-2.6896	-2.4167	-2.3667	-2.7396	-2.4646	-2.6083	-2.8312	-2.1479	-2.7625	266.295	12.984	260.010	194.292	193.951	34.091	209.858	69.399	-35.027	105.506	208.528	-25.185	-56.830	260.740	218.960	201.100	0.000251	0.00027794	8.839e-05	491.93	4.1252e-06	6.3854e-06	690.36	198.88	1.9218e-06	2.6732e-06	304.8	135.65	87.075	49.226	1.7082e-06	70.567	0.00025693	0.00023587	6.3366e-05	508.47	2.7536e-06	2.5779e-06	694.75	203.36	2.7404e-06	2.5704e-06	300.21	134.27	87.426	48.612	2.5439e-06	68.559	270.364	8.963	-20.258	-74.873	90.585	13.656	-76.371	-69.175	124.511	128.015	-72.086	-67.026	-64.093	-59.655	147.877	-63.208	-8191	255	
3843.572	1	1	0	0	0.34832	0.2292	0.073133	0.13949	0.1075	0.016321	0.19596	0.37715	0.10957	0.16792	0.090931	0.087138	0.082418	0.11827	0.17171	0.20857	-2.2104	-2.2438	-2.7625	-2.5083	-2.4396	-2.7938	-2.3083	-2.5375	-2.7792	-2.3937	-2.7625	-2.4104	-2.5	-2.725	-2.2958	-2.5604	259.982	251.765	40.113	-32.032	87.354	2.622	131.179	196.120	-31.503	219.008	191.593	-51.870	215.583	154.595	146.511	222.340	0.00022161	0.0001042	3.4333e-05	491.98	2.7073e-06	6.1585e-06	687.36	198.96	1.8545e-06	2.1322e-06	301.73	134.64	86.599	48.969	2.2536e-06	70.476	0.00025122	0.0002315	6.532e-05	507.9	2.6948e-06	2.555e-06	693.82	203.29	2.7105e-06	2.5798e-06	299.54	133.86	87.078	48.46	2.7524e-06	68.374	252.840	74.189	104.607	-75.046	45.981	-30.664	-76.187	-69.054	15.085	49.432	-71.744	-67.171	-64.014	-59.741	132.925	-63.239	-8191	255	
3843.644	1	1	0	0	0.046442	0.14853	0.062874	0.20556	0.10867	0.054883	0.1688	0.033887	0.064486	0.16173	0.07205	0.15956	0.028374	0.14668	0.33977	0.33049	-2.1875	-2.1229	-2.6396	-2.6042	-2.2062	-2.7	-2.5229	-2.6708	-2.7188	-2.1917	-2.7583	-2.5396	-2.2792	-2.775	-2.2708	-2.6375	270.604	249.196	49.389	113.294	176.651	121.774	-79.676	108.942	165.347	-20.670	72.386	253.191	-83.235	215.814	26.290	185.665	0.00026438	0.00011728	7.5259e-05	490.84	1.7283e-06	5.2862e-06	684.43	198.6	1.5627e-06	3.901e-06	303.73	134.47	86.299	48.997	3.3179e-06	70.555	0.00025218	0.00023601	7.0861e-05	508.06	2.6921e-06	2.5633e-06	694.84	203.09	2.6985e-06	2.5874e-06	300.71	133.79	86.9	48.505	2.9379e-06	68.318	248.876	17.293	70.325	-75.179	-77.403	32.046	-76.259	-69.016	53.737	75.690	-71.827	-67.000	-64.062	-59.779	94.855	-63.214	-8191	255	
3843.740	1	1	0	0	0.26666	0.038978	0.097262	0.14178	0.22515	0.29343	0.11948	0.23957	0.20371	0.12327	0.25166	0.0024149	0.34684	0.30513	0.15756	0.30056	-2.3417	-2.1042	-2.375	-2.6083	-2.1854	-2.6792	-2.3771	-2.5167	-2.675	-2.3583	-2.7167	-2.8438	-2.2771	-2.6646	-2.5958	-2.5396	-80.769	75.194	-44.895	15.503	140.049	93.480	-53.354	216.775	91.476	11.307	155.943	180.000	63.524	247.580	-32.968	184.010	0.00025202	0.00024009	3.7497e-05	491.38	1.1329e-06	1.3856e-06	682.85	198.64	4.1972e-06	2.4074e-06	304.65	135.68	87.063	49.466	2.7519e-06	71.03	0.00025026	0.00023842	7.4729e-05	506.82	2.6569e-06	2.6094e-06	695.65	202.71	2.5971e-06	2.5836e-06	302.03	134.43	87.012	48.88	2.8464e-06	68.631	250.312	256.150	159.085	-75.021	32.075	-19.258	-76.332	-68.922	114.405	114.307	-71.784	-67.099	-64.086	-59.724	57.162	-63.165	-8191	255	
3843.835	1	1	0	0	0.022231	0.33784	0.26657	0.11682	0.30908	0.13098	0.029432	0.094056	0.10976	0.17032	0.05176	0.16241	0.080254	0.14675	0.13031	0.055516	-2.3083	-2.1354	-2.4313	-2.7313	-2.1396	-2.75	-2.6146	-2.475	-2.6833	-2.1729	-2.7	-2.8688	-2.4792	-2.8583	-2.6146	-2.6188	263.882	-66.470	51.780	-7.543	134.453	-67.637	-26.093	83.954	-58.345	109.080	173.850	100.894	155.236	204.990	222.923	-10.541	0.0002694	0.00022836	0.00018324	490.51	3.216e-06	7.4598e-08	692.68	198.98	3.4487e-06	3.3508e-06	305.66	136.63	87.912	49.903	2.5806e-06	72.046	0.00023217	0.00023327	7.0978e-05	505.02	2.4371e-06	2.5485e-06	698.79	202.7	2.3613e-06	2.5504e-06	302.42	135.01	87.25	49.307	2.6425e-06	69.27	260.585	245.853	41.905	-75.177	43.607	12.787	-76.328	-69.130	103.009	8.998	-71.730	-67.036	-64.242	-59.850	62.167	-63.285	-8191	255	
3843.955	1	1	0	0	0.26051	0.27045	0.17675	0.090491	0.17784	0.18088	0.24098	0.17708	0.17544	0.061934	0.18963	0.13563	0.12445	0.2533	0.062839	0.19019	-2.3583	-2.3021	-2.6188	-2.7146	-2.1625	-2.625	-2.6979	-2.2208	-2.8771	-2.3917	-2.5979	-2.5792	-2.3979	-2.6229	-2.5271	-2.425	-84.676	56.676	146.808	183.637	149.889	48.548	257.313	-7.234	-35.556	157.707	234.009	3.954	266.601	230.409	201.245	262.862	0.00036056	0.00023697	9.2176e-05	494.04	2.0837e-06	3.287e-06	688.9	200.04	3.3363e-06	2.5493e-06	307.24	137.26	88.254	49.967	2.6566e-06	71.988	0.00021613	0.0002335	6.5881e-05	503.66	2.2709e-06	2.523e-06	696.54	202.73	2.264e-06	2.5427e-06	302.49	135.28	87.253	49.417	2.4884e-06	69.214	261.235	40.123	-5.805	-74.869	82.434	39.413	-76.203	-69.317	93.306	40.482	-71.832	-67.146	-64.300	-59.792	-13.388	-63.263	-8191	255	
3844.051	1	1	0	0	0.13167	0.075823	0.18858	0.11468	0.16912	0.15844	0.052462	0.31172	0.09829	0.27463	0.20833	0.47269	0.14357	0.14205	0.14206	0.13003	-2.3479	-2.2896	-2.3833	-2.6146	-2.3125	-2.6708	-2.6208	-2.4021	-2.8167	-2.4854	-2.6354	-2.8708	-2.1875	-2.5396	-2.575	-2.4125	133.622	226.638	45.372	-66.399	257.490	76.565	-30.109	257.936	226.129	-45.754	245.244	267.162	-61.988	-49.790	110.430	228.153	0.00026802	0.00044483	0.0001622	491.18	2.8565e-06	3.975e-06	687.8	199.19	4.0199e-06	3.8205e-06	307.21	137.34	88.281	50.132	4.2007e-06	71.894	0.00021719	0.00023625	6.2778e-05	502.27	2.3289e-06	2.5992e-06	693.24	201.77	2.3447e-06	2.6029e-06	301.43	135.25	87.741	49.5	2.4257e-06	69.091	261.929	-10.511	24.883	-75.123	102.187	28.817	-76.134	-69.264	73.505	46.811	-71.912	-67.054	-64.267	-59.971	27.676	-63.299	-8191	255	
3844.148	1	1	0	0	0.065223	0.14649	0.10275	0.11218	0.19743	0.30658	0.17184	0.083126	0.16155	0.14612	0.1814	0.37739	0.15562	0.10996	0.1899	0.31465	-2.325	-2.5708	-2.2	-2.8417	-2.3312	-2.3625	-2.7896	-2.2792	-2.5667	-2.6729	-2.2292	-2.8563	-2.3917	-2.5687	-2.6063	-2.5896	174.701	270.266	-56.284	-37.597	126.587	121.854	146.388	198.354	156.097	18.739	231.830	211.947	74.431	233.729	-48.393	181.380	0.00030918	0.00030632	7.5217e-05	492.36	1.046e-06	4.5151e-06	690.65	199.74	2.7722e-07	3.1244e-06	307.26	137.85	88.476	50.281	5.5262e-06	72.149	0.00022716	0.00023835	6.121e-05	501.23	2.4851e-06	2.6387e-06	694.33	202.19	2.5519e-06	2.6327e-06	301.62	135.81	88.344	49.687	2.472e-06	69.423	250.153	-47.965	-11.802	-75.031	168.443	35.747	-76.287	-68.888	215.389	39.881	-71.789	-67.187	-64.318	-59.926	16.169	-63.324	-8191	255	
3844.244	1	1	0	0	0.04102	0.14224	0.19085	0.11601	0.09294	0.17472	0.18266	0.1046	0.15564	0.15634	0.026505	0.13013	0.18167	0.1271	0.16877	0.2052	-2.1354	-2.6625	-2.2542	-2.7583	-2.4042	-2.4562	-2.7146	-2.325	-2.65	-2.5708	-2.3812	-2.8146	-2.575	-2.5292	-2.5875	-2.6146	21.782	-57.506	-45.055	161.701	185.281	-48.353	198.039	161.901	164.049	52.992	213.332	157.737	270.484	-19.943	-63.179	149.116	0.0002887	0.00059203	2.8188e-05	493.03	1.7132e-06	5.0221e-06	689.17	199.41	3.7431e-06	4.9903e-06	309.01	137.95	88.717	50.235	1.8156e-06	72.014	0.00024577	0.00024061	6.2316e-05	503.37	2.6696e-06	2.6123e-06	693.37	202.29	2.7113e-06	2.5949e-06	301.66	135.94	88.78	49.638	2.43e-06	69.431	254.690	-47.067	41.412	-74.924	110.150	27.562	-76.090	-69.148	87.758	77.814	-71.779	-67.131	-64.346	-59.779	63.410	-63.360	-8191	255	
3844.338	1	1	0	0	0.23224	0.20787	0.2254	0.24655	0.25327	0.049129	0.19331	0.21103	0.11532	0.18742	0.17903	0.14272	0.12665	0.084715	0.10559	0.28753	-2.2729	-2.5708	-2.2792	-2.7208	-2.4542	-2.4583	-2.7083	-2.2438	-2.4125	-2.6708	-2.5229	-2.8146	-2.4417	-2.5208	-2.7479	-2.4979	239.607	-38.354	204.019	194.676	-29.854	208.573	239.309	215.810	29.047	78.649	-73.205	206.129	187.338	212.155	206.420	-32.933	0.00030055	0.00032856	0.00017446	489.27	2.8665e-06	5.011e-06	688.55	199.52	2.9909e-06	1.2306e-06	307.54	137.86	88.096	50.21	2.0422e-06	72.022	0.00025117	0.00023066	6.1092e-05	502.6	2.6984e-06	2.5269e-06	693.23	202.5	2.7019e-06	2.5027e-06	301.42	136.21	88.547	49.562	2.4032e-06	69.503	265.618	-12.887	17.232	-75.030	41.515	16.947	-76.210	-69.137	72.133	176.674	-71.906	-67.053	-64.246	-59.748	30.684	-63.299	-8191	255	
3844.434	1	1	0	0	0.21571	0.13422	0.14848	0.052498	0.20301	0.12814	0.066785	0.29006	0.041706	0.094533	0.2433	0.050607	0.18105	0.039474	0.14225	0.31826	-2.0563	-2.6583	-2.1813	-2.6458	-2.6729	-2.2188	-2.8688	-2.5042	-2.6854	-2.6729	-2.5521	-2.8896	-2.6896	-2.4042	-2.775	-2.6188	268.413	-73.102	97.113	176.289	210.611	165.569	264.231	151.435	-1.577	12.332	261.737	-42.782	204.313	169.746	165.259	221.610	0.00028306	0.00026619	5.1154e-05	489.69	4.0765e-06	4.2694e-06	685.86	198.98	3.2247e-06	4.563e-06	305.31	137.9	88.27	50.158	4.6453e-06	71.629	0.00025044	0.00022722	6.0453e-05	504.08	2.6749e-06	2.4864e-06	691.5	202.61	2.6436e-06	2.4628e-06	300.64	136.33	88.375	49.46	2.4206e-06	69.278	265.479	-55.623	55.703	-74.768	89.740	26.099	-75.901	-69.359	115.623	65.477	-71.776	-67.105	-64.201	-59.834	98.580	-63.558	-8191	255	
3844.555	1	1	0	0	0.059406	0.14915	0.11642	0.1768	0.24877	0.17328	0.20814	0.10131	0.17953	0.07716	0.069268	0.071343	0.32876	0.27327	0.1221	0.23778	-2.025	-2.7167	-2.3771	-2.5958	-2.7208	-2.1646	-2.8458	-2.5708	-2.2021	-2.8146	-2.4313	-2.6708	-2.7208	-2.5875	-2.5812	-2.5771	50.654	236.056	73.773	-23.028	29.647	264.345	189.960	-26.158	195.117	41.909	241.452	39.456	207.240	219.731	178.011	104.676	0.00028621	0.00051022	9.6135e-05	489.07	1.8062e-06	4.2529e-06	684.55	199.18	3.0956e-06	2.6944e-06	305.79	137.49	88.204	50.216	2.6449e-06	71.922	0.00024228	0.00022302	6.196e-05	505.36	2.5771e-06	2.4348e-06	691.14	202.77	2.5484e-06	2.406e-06	300.71	136.28	88.062	49.484	2.4969e-06	69.446	-86.832	-46.411	35.998	-74.722	102.010	62.608	-76.173	-69.212	66.538	95.396	-71.922	-67.041	-64.213	-59.848	97.844	-63.226	-8191	255	
3844.651	1	1	0	0	0.1068	0.1643	0.33284	0.072452	0.28356	0.1348	0.045128	0.20044	0.012976	0.14217	0.12125	0.11672	0.13999	0.2683	0.23529	0.15386	-1.8771	-2.7208	-2.3104	-2.5583	-2.5833	-2.1729	-2.7396	-2.3208	-2.3854	-2.7438	-2.3792	-2.6917	-2.5542	-2.3063	-2.5917	-2.7188	33.303	4.341	193.951	14.891	250.883	168.123	143.067	185.936	-54.614	262.265	196.160	227.811	-2.378	240.177	210.772	-34.073	0.00028512	0.0004668	2.2928e-05	492.24	2.8595e-06	2.4367e-06	686.8	198.37	1.7337e-06	1.5238e-06	308.43	138.15	88.447	50.478	2.1323e-06	72.185	0.00023055	0.0002139	6.3404e-05	504.8	2.4246e-06	2.304e-06	692.78	202.36	2.3818e-06	2.277e-06	302.39	136.48	88.025	49.594	2.532e-06	69.647	258.228	-3.308	-6.200	-74.729	95.073	8.698	-76.296	-69.076	139.393	211.206	-71.908	-67.213	-64.135	-59.912	47.952	-63.319	-8191	255	
3844.747	1	1	0	0	0.14979	0.057665	0.072833	0.089411	0.15107	0.040562	0.19118	0.1045	0.1599	0.070991	0.25581	0.14879	0.10755	0.10919	0.14336	0.26136	-1.8	-2.6521	-2.4583	-2.4083	-2.7292	-2.2188	-2.7604	-2.7271	-2.3375	-2.7146	-2.5521	-2.6021	-2.8083	-2.4333	-2.65	-2.7104	47.285	-8.353	213.607	264.095	246.332	-61.012	213.734	188.582	77.867	125.169	243.081	-33.637	-71.505	-65.108	234.832	229.810	0.00024142	0.00012368	0.00010663	491.88	6.4243e-06	2.9238e-06	692.61	198.98	4.7127e-06	5.429e-06	309.1	138.52	88.351	50.364	2.2229e-06	72.117	0.00022346	0.00021079	6.5702e-05	505.34	2.3931e-06	2.3644e-06	696.96	202.87	2.4175e-06	2.3738e-06	304.42	136.76	88.105	49.618	2.6992e-06	69.627	265.457	-52.367	86.973	-74.743	48.929	-27.045	-76.151	-69.243	124.907	107.634	-71.804	-67.042	-64.270	-59.874	127.692	-63.397	-8191	255	
3844.843	1	1	0	0	0.16247	0.010425	0.18314	0.26379	0.00092376	0.16163	0.072337	0.24802	0.042833	0.17169	0.1528	0.17071	0.18653	0.22149	0.1313	0.19672	-1.7792	-2.5792	-2.4271	-2.5292	-2.5021	-2.4417	-2.4729	-2.7292	-2.225	-2.8292	-2.5604	-2.4708	-2.8292	-2.5917	-2.3583	-2.6333	205.621	83.012	95.245	231.995	180.000	170.075	67.907	-10.498	237.104	-40.439	265.659	-68.085	-15.930	27.301	68.499	149.445	0.00025595	0.00017494	0.00010464	491.28	1.9711e-06	1.8149e-06	686.89	198.87	6.936e-06	3.0025e-06	306.87	137.72	87.92	49.948	1.6437e-06	71.702	0.0002262	0.000225	6.9694e-05	504.73	2.4161e-06	2.5213e-06	697.07	202.42	2.426e-06	2.5385e-06	303.2	136.01	87.514	49.425	2.7598e-06	69.122	268.529	-21.591	21.620	-75.000	32.785	206.518	-76.153	-69.004	83.703	66.338	-71.689	-66.941	-64.205	-59.795	-9.111	-63.299	-8191	255	
3844.939	1	1	0	0	0.14254	0.101	0.041029	0.31352	0.24067	0.075251	0.18057	0.099669	0.029507	0.26453	0.22949	0.038006	0.42087	0.27285	0.039119	0.049468	-1.8083	-2.6083	-2.4729	-2.2354	-2.5625	-2.325	-2.5854	-2.6583	-2.2938	-2.6854	-2.5771	-2.3375	-2.6146	-2.5354	-2.5062	-2.8542	-79.188	192.158	56.091	218.240	52.321	-1.666	80.190	221.466	84.872	-21.210	197.636	136.264	-52.145	271.999	41.862	4.199	0.00025538	9.099e-05	0.00018382	489.97	5.4002e-06	3.0352e-06	687.68	198.79	1.7309e-06	1.8443e-06	306.76	137.37	87.977	50.186	3.0285e-06	71.77	0.00022558	0.00023648	6.8681e-05	503.05	2.3652e-06	2.6165e-06	694.67	201.6	2.3648e-06	2.6178e-06	301.75	135.59	87.515	49.503	2.5932e-06	68.99	264.891	-37.453	70.574	-74.978	58.329	-66.885	-76.198	-69.139	113.142	84.716	-71.806	-67.061	-64.447	-60.007	45.699	-63.516	-8191	255	
3845.034	1	1	0	0	0.051312	0.09514	0.028715	0.11647	0.22136	0.076542	0.20172	0.1691	0.23384	0.073763	0.089889	0.3277	0.036764	0.063919	0.064665	0.23842	-1.9208	-2.6625	-2.5312	-2.3167	-2.55	-2.4188	-2.5479	-2.6646	-2.3979	-2.4604	-2.6625	-2.2396	-2.825	-2.725	-2.5167	-2.9396	203.776	270.154	262.573	149.262	-62.013	58.740	241.560	-76.175	98.782	-52.659	194.538	194.662	158.052	-56.208	207.273	151.100	0.00026691	0.00025808	4.684e-05	489.94	2.412e-07	9.0033e-07	687.41	198.07	4.7412e-07	1.7022e-06	306.95	137.46	88.083	50.035	1.8903e-06	71.636	0.00022121	0.0002409	6.5117e-05	502.34	2.3771e-06	2.7146e-06	693.22	201.59	2.4291e-06	2.7057e-06	301.9	135.79	87.848	49.624	2.5036e-06	69.051	254.226	250.205	-19.048	-74.986	-4.643	87.555	-76.213	-69.244	-61.463	-57.644	-71.929	-67.171	-64.023	-59.663	5.978	-63.373	-8191	255	
3845.132	1	1	0	0	0.22737	0.15699	0.29456	0.23229	0.13811	0.057193	0.12583	0.24439	0.14942	0.14361	0.092879	0.15713	0.10524	0.17745	0.28172	0.076842	-1.8771	-2.4979	-2.45	-2.3479	-2.5938	-2.5271	-2.5583	-2.7854	-2.2313	-2.6021	-2.8354	-2.4458	-2.5229	-2.3958	-2.4813	-2.8187	234.799	-46.044	197.714	188.051	-44.222	-75.927	-46.025	-61.765	263.663	90.564	-4.219	271.394	-4.308	200.435	-80.350	174.915	0.00031661	0.00013879	0.00021767	488.97	1.4546e-06	4.9788e-06	687.95	198.89	3.4e-06	2.7965e-06	306.6	137.72	88.279	50.099	2.129e-06	72.082	0.00023059	0.00024345	6.243e-05	500.87	2.4731e-06	2.6535e-06	693.1	201.49	2.5114e-06	2.6323e-06	301.33	135.81	88.042	49.659	2.3877e-06	69.383	264.389	-12.164	29.870	-74.996	212.330	-25.311	-75.973	-69.435	227.837	56.211	-72.036	-67.155	-64.209	-59.771	39.138	-63.279	-8191	255	
3845.251	1	1	0	0	0.024726	0.27096	0.098841	0.22879	0.27169	0.1315	0.25061	0.23737	0.16629	0.13424	0.13972	0.21943	0.12236	0.22676	0.091045	0.37847	-1.9813	-2.4021	-2.5979	-2.3625	-2.7167	-2.7792	-2.475	-2.8396	-2.5583	-2.2708	-2.7146	-2.3812	-2.6542	-2.6708	-2.325	-2.7687	-29.003	35.797	14.020	-50.074	-37.629	226.976	240.113	213.251	40.700	174.477	231.860	-67.333	270.140	211.105	205.982	190.228	0.00026816	0.00042012	0.00010539	490.33	1.2349e-06	1.222e-06	688.85	199.18	2.5509e-07	3.2603e-06	307.1	137.84	88.289	50.152	2.8091e-06	71.862	0.00023559	0.00023394	6.0123e-05	500.89	2.5324e-06	2.5233e-06	692.73	201.43	2.5848e-06	2.5346e-06	301.6	135.96	88.362	49.56	2.399e-06	69.132	261.381	239.477	56.822	-74.689	4.785	64.450	-76.183	-69.159	150.003	98.337	-72.002	-67.191	-64.306	-59.703	100.587	-63.376	-8191	255	
3845.347	1	1	0	0	0.25533	0.071161	0.14397	0.061992	0.32122	0.072303	0.21788	0.029369	0.33965	0.12013	0.03004	0.19312	0.14274	0.28604	0.017046	0.18917	-2.125	-2.4646	-2.7479	-2.3625	-2.4708	-2.6083	-2.1833	-2.7521	-2.4875	-2.3333	-2.8396	-2.5021	-2.8208	-2.7917	-2.3438	-2.9021	26.305	174.252	159.795	65.821	128.663	-72.865	210.626	236.524	79.250	268.942	29.096	147.391	252.635	245.753	4.409	211.254	0.00028117	0.000456	0.00014217	490.85	2.8315e-06	1.697e-06	687.14	197.87	1.7571e-06	5.9759e-06	306.51	137.67	88.443	50.044	4.3505e-06	71.621	0.00025099	0.00023	6.0898e-05	502.75	2.7108e-06	2.5391e-06	692.57	201.52	2.7178e-06	2.5227e-06	300.85	135.87	88.408	49.385	2.3904e-06	69.085	266.421	6.971	-7.654	-74.934	36.267	-6.265	-76.035	-69.177	74.378	62.874	-71.721	-67.203	-64.074	-59.942	95.867	-63.422	-8191	255	
3845.443	1	1	0	0	0.043619	0.12662	0.13543	0.22006	0.13166	0.081503	0.096222	0.071085	0.11072	0.15199	0.043637	0.16071	0.09921	0.28871	0.032011	0.10188	-1.7812	-2.2021	-2.65	-2.4771	-2.525	-2.65	-2.5312	-2.6875	-2.5104	-2.425	-2.7104	-2.4688	-2.4646	-2.8646	-2.3271	-2.6208	-65.930	-50.503	65.025	253.679	20.383	131.752	249.386	-51.803	76.857	239.481	90.110	155.242	231.357	-82.012	-8.731	186.489	0.00029744	0.0004625	5.9047e-05	488.58	4.8442e-06	6.1495e-06	684.59	199.17	5.1002e-06	7.7493e-06	306.88	137.29	88.376	50.041	1.3554e-06	71.598	0.00024958	0.00022635	6.0473e-05	503.17	2.6759e-06	2.4786e-06	689.98	202.43	2.6585e-06	2.4749e-06	300.43	136.13	88.308	49.392	2.397e-06	69.137	258.837	-64.992	13.692	-75.260	75.543	45.574	-76.172	-69.132	126.679	58.859	-71.774	-67.114	-64.164	-59.876	123.708	-63.342	-8191	255	
3845.515	1	1	0	0	0.056678	0.15671	0.13991	0.12855	0.12026	0.18003	0.015902	0.26255	0.023738	0.21169	0.26876	0.35614	0.35996	0.098808	0.060276	0.27219	-1.9583	-2.2021	-2.6208	-2.375	-2.4437	-2.95	-2.3125	-2.6271	-2.5604	-2.3896	-2.7875	-2.5812	-2.3521	-2.8125	-2.2792	-2.7562	66.757	-74.595	15.541	3.339	87.584	-15.990	83.292	-22.743	16.240	-20.799	262.980	204.212	-45.072	51.420	209.876	198.522	0.00031386	0.0004574	3.803e-05	490.1	4.747e-06	2.9972e-06	685.05	197.91	2.5533e-07	2.1815e-06	304.97	136.96	87.927	49.866	1.5715e-06	71.294	0.00024366	0.00022389	6.1017e-05	504.46	2.5948e-06	2.4428e-06	690.35	202.31	2.5934e-06	2.4704e-06	299.91	135.88	87.96	49.145	2.566e-06	69.03	267.187	-21.078	-81.927	-74.855	68.595	38.763	-76.343	-69.208	58.154	95.828	-71.738	-67.091	-64.104	-59.941	161.780	-63.230	-8191	255	
3845.635	1	1	0	0	0.049692	0.13463	0.11208	0.20389	0.16398	0.20802	0.10586	0.088835	0.10441	0.11571	0.056997	0.11533	0.17409	0.2307	0.19198	0.12744	-2.125	-2.1979	-2.625	-2.5917	-2.3771	-2.6542	-2.3896	-2.4104	-2.475	-2.2292	-2.7833	-2.5271	-2.2208	-2.9021	-2.1188	-2.6333	-29.851	37.850	-24.838	231.365	122.751	-18.687	222.744	222.316	-42.340	120.136	54.721	-80.946	-51.224	193.088	165.727	-48.545	0.00027444	0.00049877	8.4023e-06	487.18	3.5993e-06	2.4017e-06	684.58	197.68	3.2534e-06	2.5699e-06	303.49	136.84	87.572	49.614	2.4375e-06	71.145	0.00024529	0.00022925	6.6345e-05	505.24	2.6591e-06	2.5285e-06	693.01	202.25	2.6255e-06	2.5085e-06	300.8	135.83	87.701	49.02	2.7416e-06	68.948	265.194	-16.496	51.700	-75.060	72.164	-74.974	-76.393	-69.083	96.319	50.472	-71.946	-67.049	-63.990	-59.812	271.032	-63.326	-8191	255	
3845.731	1	1	0	0	0.16795	0.16555	0.15859	0.16458	0.26374	0.12019	0.21075	0.12392	0.17929	0.058728	0.049119	0.17048	0.2228	0.093877	0.099299	0.18356	-2.1854	-2.1167	-2.5708	-2.5375	-2.1646	-2.5083	-2.425	-2.6562	-2.6562	-2.3771	-2.8208	-2.5208	-2.2375	-2.7875	-2.3125	-2.5021	59.268	176.164	224.365	107.729	-1.282	194.916	184.491	-86.953	-47.558	-85.536	119.606	197.778	199.414	223.934	-14.741	199.367	0.00026536	0.00054571	7.6229e-05	489.3	2.0376e-06	2.2021e-06	682.77	197.83	3.5579e-06	1.883e-06	303.47	136.42	87.466	49.548	1.2692e-06	70.922	0.0002442	0.00022773	7.0564e-05	505.12	2.5806e-06	2.4884e-06	693.58	202.1	2.571e-06	2.4757e-06	300.91	135	87.384	48.86	2.8119e-06	68.578	270.872	-14.275	34.396	-75.042	90.181	53.402	-76.188	-69.044	108.273	36.924	-71.949	-67.133	-64.321	-59.727	24.043	-63.167	-8191	255	
3845.828	1	1	0	0	0.044776	0.27095	0.17126	0.066639	0.14309	0.1536	0.11105	0.25063	0.19423	0.12938	0.12947	0.15123	0.14186	0.15564	0.17656	0.11432	-2.2917	-2.1208	-2.5396	-2.6333	-2.2979	-2.8146	-2.4375	-2.3708	-2.775	-2.1625	-2.4896	-2.5417	-2.2625	-2.9229	-2.4104	-2.3667	142.521	113.231	46.071	57.236	4.038	195.205	164.158	258.866	-80.787	136.600	134.129	115.452	32.938	-86.273	197.618	233.364	0.00023836	5.1913e-05	2.9017e-05	489.35	4.3898e-06	1.8343e-06	684.19	197.58	3.2799e-06	2.5138e-06	304.12	136.21	88.018	49.812	2.2357e-06	71.33	0.00023681	0.00022945	7.1484e-05	502.68	2.49e-06	2.5011e-06	692.72	201.39	2.4545e-06	2.5302e-06	301.83	135.02	87.478	49.108	2.7741e-06	68.803	271.894	-47.267	72.755	-75.156	58.350	-70.167	-76.000	-69.172	58.073	112.580	-71.640	-67.108	-64.102	-59.929	-35.112	-63.078	-8191	255	
3845.924	1	1	0	0	0.17917	0.10877	0.045039	0.22635	0.24109	0.11695	0.20584	0.19908	0.02409	0.27839	0.32252	0.11483	0.22286	0.33243	0.15696	0.40457	-2.0854	-2.2875	-2.35	-2.5875	-2.0812	-2.5396	-2.4896	-2.2438	-2.8063	-2.2854	-2.7062	-2.7146	-2.3396	-2.75	-2.5021	-2.2875	225.814	41.158	173.632	148.163	81.119	61.021	222.542	226.924	144.034	145.498	-50.304	-39.859	200.475	-69.341	-62.732	225.543	0.00026948	0.00025563	0.00013908	488.78	2.1308e-06	3.3272e-06	685.96	198.41	3.3308e-06	2.6628e-06	304.97	137.31	87.974	49.549	2.7863e-06	71.331	0.00022592	0.00023408	6.9408e-05	502.54	2.4102e-06	2.5965e-06	693.75	201.62	2.3727e-06	2.6289e-06	301.9	135.23	87.296	49.15	2.6789e-06	68.7	261.909	259.487	0.036	-74.891	21.675	116.499	-76.197	-69.052	135.822	77.331	-71.585	-66.891	-64.023	-59.587	-0.342	-63.325	-8191	255	
3846.043	1	1	0	0	0.014709	0.13305	0.29021	0.21461	0.29338	0.13926	0.26965	0.094445	0.20149	0.12467	0.03217	0.033228	0.26834	0.042962	0.23151	0.14422	-2.1375	-2.4604	-2.3646	-2.6562	-2.0958	-2.6542	-2.5458	-2.3438	-2.5979	-2.4604	-2.4437	-2.6979	-2.1729	-2.6604	-2.6396	-2.3812	205.378	135.178	143.923	157.244	233.850	254.297	217.208	-77.418	269.077	-1.426	75.691	56.903	163.037	-52.485	71.555	206.609	0.00026664	0.0003251	0.00014479	488.75	1.8644e-06	5.7135e-06	686.5	198.14	3.2445e-06	1.6786e-06	306.5	136.85	87.593	49.48	4.8556e-06	71.197	0.00022631	0.00024716	6.7492e-05	501.93	2.4282e-06	2.7571e-06	693.19	201.55	2.4698e-06	2.8007e-06	301.28	135.16	87.504	49.189	2.653e-06	68.631	261.814	-78.402	32.734	-74.999	45.550	47.775	-76.261	-69.134	40.889	126.716	-71.725	-66.986	-64.144	-59.665	71.979	-63.180	-8191	255	
3846.139	1	1	0	0	0.20271	0.091355	0.25845	0.23702	0.19054	0.22349	0.26248	0.30051	0.099919	0.13528	0.21213	0.45266	0.059845	0.15707	0.18318	0.11625	-2.2667	-2.2458	-2.3771	-2.6583	-2.3292	-2.4292	-2.7021	-2.2812	-2.7083	-2.5187	-2.5146	-2.8604	-2.325	-2.5396	-2.5979	-2.2042	65.053	82.464	114.650	256.679	183.911	-24.964	183.656	43.730	20.059	204.983	261.523	254.313	253.592	264.248	119.546	223.591	0.00035214	0.00027118	0.00011259	490.05	1.2885e-06	3.2774e-06	683.99	197.46	7.222e-07	3.6241e-06	303.2	135.87	87.506	49.258	2.8422e-06	70.989	0.00023486	0.00025622	6.6552e-05	501.17	2.5553e-06	2.7921e-06	692.15	200.9	2.6046e-06	2.8243e-06	300.02	134.62	87.681	48.91	2.6253e-06	68.396	256.707	42.458	-3.128	-74.766	142.198	2.957	-76.047	-69.047	118.595	44.100	-71.780	-67.141	-64.365	-59.602	-5.995	-63.155	-8191	255	
3846.235	1	1	0	0	0.23763	0.13516	0.18037	0.10105	0.12639	0.16187	0.13373	0.099616	0.2186	0.17008	0.17578	0.11395	0.14243	0.14055	0.056378	0.2084	-2.1271	-2.425	-2.1708	-2.8563	-2.4708	-2.4	-2.5708	-2.3542	-2.7417	-2.6125	-2.4146	-2.6562	-2.5979	-2.5729	-2.6667	-2.3438	133.922	90.121	213.641	2.270	95.910	124.355	206.619	0.833	-34.460	40.096	39.142	218.557	-25.791	-83.229	125.748	262.270	0.00036015	0.00022204	4.5579e-05	487.14	2.8117e-06	2.6634e-06	680.97	197.2	4.0069e-06	2.43e-06	305.41	136.53	87.789	49.484	2.7281e-06	71.381	0.00025316	0.00025695	6.619e-05	500.44	2.7593e-06	2.7849e-06	690.07	201.11	2.7562e-06	2.7324e-06	300.75	134.86	87.978	49.025	2.5163e-06	68.679	257.476	-67.429	71.459	-74.987	66.700	75.164	-76.156	-69.222	-52.341	109.813	-71.676	-66.875	-64.073	-59.682	56.847	-63.214	-8191	255	
3846.331	1	1	0	0	0.31259	0.27104	0.2456	0.071817	0.071664	0.087111	0.20047	0.15462	0.20441	0.22313	0.20701	0.14064	0.31116	0.16319	0.053565	0.18481	-2.0104	-2.3896	-2.3604	-2.7562	-2.575	-2.4375	-2.7458	-2.225	-2.4354	-2.5021	-2.3479	-2.9313	-2.4417	-2.575	-2.8521	-2.4458	147.910	103.591	50.648	229.154	-36.507	226.161	170.772	-31.025	112.171	154.969	80.313	2.685	40.792	254.460	223.683	129.632	0.0002924	0.00047663	0.00010776	486.86	1.2901e-06	3.4201e-06	685.45	198.71	2.6311e-06	3.1703e-06	305.41	137.47	87.997	49.728	3.9324e-06	71.502	0.00025718	0.00024284	6.3758e-05	501.69	2.7831e-06	2.6553e-06	690.97	201.97	2.782e-06	2.5751e-06	300.4	135.62	88.258	49.113	2.3722e-06	69.04	255.935	-64.437	40.778	-74.985	143.870	-7.585	-76.190	-68.881	136.717	54.696	-71.786	-66.935	-64.309	-59.761	83.654	-63.248	-8191	255	
3846.427	1	1	0	0	0.050423	0.16359	0.3443	0.12238	0.1155	0.23998	0.24415	0.23	0.11048	0.14957	0.17586	0.31233	0.09629	0.26375	0.15363	0.18891	-2.0875	-2.4938	-2.1896	-2.7979	-2.3917	-2.2771	-2.9208	-2.3021	-2.45	-2.6229	-2.4625	-2.7396	-2.5646	-2.5521	-2.6375	-2.4688	54.290	43.728	242.869	135.117	-82.003	68.707	232.648	198.811	-74.159	133.887	231.772	232.809	200.913	210.723	22.155	240.172	0.00025474	0.00017343	4.7016e-05	491.21	3.6142e-06	2.1334e-06	688.04	198.94	4.2367e-06	2.8294e-06	308.26	137.8	88.781	50.057	2.3107e-06	72.092	0.00024671	0.00022396	5.9079e-05	503.78	2.6311e-06	2.4317e-06	692.05	202.68	2.6325e-06	2.441e-06	301.5	136.42	88.458	49.357	2.3404e-06	69.541	255.000	-40.616	-4.935	-75.161	44.621	21.724	-76.280	-69.017	106.461	40.417	-71.680	-66.753	-64.369	-59.773	81.768	-63.301	-8191	255	
3846.523	1	1	0	0	0.2019	0.10166	0.10749	0.16703	0.29876	0.086222	0.13948	0.091182	0.24678	0.1625	0.31452	0.1798	0.33925	0.10631	0.10884	0.14235	-2.0917	-2.5	-2.0083	-2.4917	-2.3979	-2.3583	-2.8021	-2.3646	-2.2979	-2.6188	-2.3229	-2.5229	-2.4104	-2.3688	-2.6813	-2.5375	192.985	259.912	-48.207	242.659	257.790	-44.439	65.707	40.565	267.928	13.403	240.115	64.642	-80.741	-56.558	3.522	179.365	0.00027089	0.00035741	4.9852e-05	490.82	2.6262e-06	4.1258e-06	690.9	199.52	2.6939e-06	5.9586e-06	308.37	137.96	88.318	50.183	7.8625e-07	72.307	0.00023843	0.00021669	5.852e-05	504.63	2.4905e-06	2.3755e-06	694.03	203.47	2.4943e-06	2.3525e-06	301.76	136.74	88.219	49.342	2.3641e-06	69.639	265.168	-61.169	41.612	-74.969	78.795	3.378	-76.134	-69.129	37.241	67.969	-71.998	-67.143	-63.999	-59.775	95.806	-63.357	-8191	255	
3846.644	1	1	0	0	0.15886	0.17801	0.039223	0.040446	0.24248	0.27973	0.08499	0.039438	0.14247	0.073497	0.22314	0.10806	0.14324	0.24324	0.14947	0.32951	-1.8271	-2.8438	-2.3104	-2.4542	-2.6833	-2.1854	-2.7958	-2.6979	-2.4708	-2.6771	-2.2667	-2.5979	-2.7042	-2.3375	-2.8312	-2.6979	125.247	40.524	34.682	209.249	-7.643	34.484	169.528	80.821	68.460	-28.267	195.220	239.962	105.219	234.552	265.308	232.851	0.00026151	0.00027693	4.9654e-05	493.97	6.4513e-06	1.4839e-06	691.61	200.14	2.9856e-06	6.1103e-07	309.5	138.24	88.435	50.064	2.2519e-06	72.285	0.00023167	0.00021354	6.0244e-05	506.56	2.4224e-06	2.3167e-06	695.29	203.65	2.3942e-06	2.2725e-06	303.08	136.79	87.996	49.345	2.4385e-06	69.587	257.348	-2.036	33.088	-74.686	69.832	50.779	-76.066	-69.336	-5.177	249.795	-71.881	-66.846	-64.323	-59.721	103.140	-63.349	-8191	255	
3846.740	1	1	0	0	0.21936	0.10082	0.042678	0.052744	0.27036	0.083582	0.11053	0.16072	0.27148	0.083486	0.17714	0.24842	0.16566	0.057216	0.1023	0.042347	-1.7917	-2.7625	-2.1667	-2.6688	-2.6458	-2.3125	-2.7979	-2.5521	-2.3438	-2.6167	-2.2396	-2.4667	-2.7542	-2.5458	-2.6271	-2.7812	244.918	270.092	-11.400	219.508	-29.490	228.506	221.664	234.188	-29.095	193.725	171.942	265.579	17.030	-39.143	-68.506	269.499	0.00024805	0.0006189	3.6252e-05	492.62	2.9516e-06	5.013e-06	690.17	199.98	7.5931e-07	6.2404e-06	308.16	138.38	88.425	50.24	2.3333e-06	72.363	0.00022053	0.00020792	6.2881e-05	505.7	2.3657e-06	2.2459e-06	696.59	203.39	2.3371e-06	2.2558e-06	304.26	136.81	87.848	49.418	2.5372e-06	69.774	265.561	-36.492	270.669	-74.896	105.131	39.913	-76.229	-69.216	181.694	68.680	-71.898	-67.095	-64.367	-59.803	132.474	-63.384	-8191	255	
3846.812	1	1	0	0	0.062925	0.17669	0.16332	0.11037	0.20871	0.1257	0.12402	0.21486	0.039971	0.21582	0.20586	0.018656	0.19893	0.11487	0.21802	0.2867	-1.8563	-2.6896	-2.5229	-2.3063	-2.5917	-2.4979	-2.7	-2.6083	-2.2021	-2.8229	-2.4938	-2.4938	-2.6583	-2.5042	-2.5208	-2.7146	264.419	266.050	-33.531	-80.069	42.375	-2.988	-13.099	251.688	-27.839	243.881	-22.609	102.004	-32.035	-75.493	175.444	196.124	0.0003128	0.00016208	4.7871e-05	491.55	4.3931e-06	1.6418e-06	692.44	200.06	2.9375e-06	1.0009e-06	309.36	138.74	88.736	50.261	1.0992e-06	72.516	0.00021679	0.00020567	6.4482e-05	504.25	2.284e-06	2.2793e-06	698.25	202.97	2.2921e-06	2.293e-06	304.76	136.81	87.721	49.577	2.5571e-06	69.763	-86.403	-45.166	110.327	-74.854	100.131	8.815	-76.107	-69.283	43.997	39.430	-71.799	-66.972	-64.251	-59.774	43.031	-63.247	-8191	255	
3846.932	1	1	0	0	0.13423	0.11876	0.10294	0.27664	0.12737	0.19385	0.30534	0.16592	0.19472	0.1012	0.12194	0.081141	0.087086	0.21182	0.16805	0.21699	-1.8312	-2.5833	-2.5042	-2.4292	-2.65	-2.3604	-2.5854	-2.8625	-2.375	-2.7521	-2.5771	-2.4125	-2.8125	-2.5271	-2.4938	-2.9354	26.890	0.726	128.522	92.967	57.270	110.415	125.127	-41.934	42.003	24.831	-25.824	262.929	243.055	233.909	25.563	236.667	0.00029173	0.0003892	0.00010745	490.93	3.9599e-06	3.6833e-06	691.12	200.09	2.4338e-06	5.3641e-06	310.12	139.64	88.966	50.324	3.6791e-06	72.601	0.00021181	0.00021215	6.454e-05	503.04	2.2084e-06	2.3713e-06	697.58	202.77	2.1944e-06	2.3744e-06	304.35	136.95	87.596	49.614	2.4545e-06	69.743	266.523	3.638	38.634	-74.921	106.565	194.295	-76.171	-69.146	137.768	122.068	-71.967	-67.075	-64.216	-59.882	64.837	-63.236	-8191	255	
3847.029	1	1	0	0	0.44756	0.13558	0.11539	0.12657	0.25216	0.11286	0.09611	0.23268	0.1705	0.1184	0.1652	0.26922	0.1398	0.31351	0.20798	0.28876	-1.7896	-2.6188	-2.3458	-2.6146	-2.7438	-2.3896	-2.6813	-2.6979	-2.3333	-2.5	-2.5	-2.3625	-2.6875	-2.4792	-2.3812	-2.7875	8.689	164.240	247.354	-46.760	-24.995	32.369	254.681	162.708	262.305	126.617	220.050	217.345	246.817	253.731	101.915	173.406	0.00029478	0.00034976	0.00016339	491.8	1.8146e-06	4.2002e-06	692.42	199.71	1.529e-06	1.153e-07	308.78	138.63	88.926	50.417	2.7514e-06	72.251	0.00020525	0.00022025	6.1643e-05	502.14	2.1887e-06	2.4621e-06	696.98	202.32	2.2297e-06	2.4952e-06	303.46	136.61	87.906	49.711	2.4069e-06	69.487	269.553	-2.637	15.026	-74.815	128.554	21.372	-76.099	-68.896	107.592	-82.415	-71.880	-67.020	-64.308	-59.979	87.521	-63.298	-8191	255	
3847.123	1	1	0	0	0.07681	0.21271	0.10347	0.090072	0.33979	0.15084	0.060398	0.17386	0.2764	0.14096	0.19702	0.14408	0.094324	0.17805	0.22766	0.1945	-1.6854	-2.6729	-2.5771	-2.2542	-2.7333	-2.5396	-2.4604	-2.6292	-2.3	-2.6021	-2.5896	-2.2313	-2.5646	-2.475	-2.5375	-2.8292	200.300	252.478	-76.778	-54.473	54.408	3.086	190.932	-36.041	202.388	269.337	182.489	262.352	66.252	205.651	102.669	54.900	0.00034923	0.00045322	0.00019196	491.74	2.3854e-06	5.0819e-06	690.26	200.07	1.6612e-06	1.0042e-06	307.77	138.42	88.498	50.053	3.7282e-06	72.131	0.00021347	0.00022967	6.0481e-05	501.67	2.2714e-06	2.5335e-06	695.12	202.19	2.3207e-06	2.5407e-06	302.83	136.65	88.104	49.59	2.3905e-06	69.369	257.526	-0.929	-2.907	-75.012	188.921	63.288	-76.105	-69.191	-22.041	-37.182	-71.863	-66.996	-64.466	-59.733	99.569	-63.231	-8191	255	
3847.219	1	1	0	0	0.15198	0.17186	0.51986	0.32621	0.21461	0.1239	0.16121	0.14984	0.04494	0.14947	0.35739	0.059466	0.096236	0.22673	0.24366	0.2399	-1.9375	-2.4521	-2.55	-2.175	-2.7625	-2.5396	-2.5167	-2.7958	-2.4333	-2.4167	-2.7896	-2.2417	-2.6021	-2.6521	-2.3083	-2.7604	-26.440	-11.032	-29.796	162.655	89.418	204.980	-30.039	172.472	92.684	251.582	192.491	-49.579	-44.306	232.150	-37.464	194.253	0.00034242	0.00040796	0.00014876	491.44	2.4155e-07	2.5536e-06	691.89	199.53	4.8972e-07	3.9387e-06	308.61	138.96	88.848	50.365	1.6155e-06	72.497	0.00022829	0.00023739	6.1001e-05	502.16	2.4851e-06	2.5762e-06	696.04	201.89	2.4973e-06	2.5106e-06	302.48	136.63	88.484	49.629	2.3435e-06	69.561	257.933	-45.610	-9.131	-74.990	227.490	97.025	-76.050	-69.172	170.471	73.572	-71.804	-67.214	-64.176	-59.620	75.236	-63.212	-8191	255	
3847.340	1	1	0	0	0.19778	0.22098	0.3476	0.088402	0.093718	0.1912	0.16156	0.065734	0.097056	0.10721	0.25863	0.14619	0.25824	0.12704	0.1993	0.17979	-1.8458	-2.3583	-2.8083	-2.4271	-2.8167	-2.7292	-2.4792	-2.6813	-2.4625	-2.5438	-2.825	-2.4083	-2.725	-2.7604	-2.3583	-2.7625	115.341	14.611	6.730	242.852	51.869	227.113	162.113	251.518	46.320	153.502	164.110	245.738	-25.944	-60.164	139.352	-30.648	0.00035862	0.00028739	4.7948e-05	493.64	7.9147e-07	4.4756e-06	691.06	199.46	2.9869e-06	5.4926e-06	308.89	138.9	88.562	50.186	2.1187e-06	72.397	0.00023387	0.00022581	5.9252e-05	502.38	2.5326e-06	2.4511e-06	694.75	202.05	2.5707e-06	2.4311e-06	302.26	136.76	88.519	49.475	2.3213e-06	69.667	253.515	-69.720	23.172	-74.996	246.580	26.035	-76.075	-69.292	98.795	42.424	-71.819	-67.063	-64.215	-59.643	37.365	-63.241	-8191	255	
3847.436	1	1	0	0	0.23581	0.074245	0.3102	0.25373	0.096385	0.30565	0.21289	0.14953	0.11171	0.078788	0.3565	0.076714	0.44919	0.31523	0.12858	0.054484	-1.9854	-2.3854	-2.6688	-2.5167	-2.775	-2.5812	-2.2625	-2.8292	-2.5167	-2.5042	-2.8042	-2.5958	-2.6708	-2.8271	-2.2938	-2.725	226.576	114.940	71.789	224.324	230.570	184.060	233.814	90.455	118.367	255.070	261.426	-65.669	190.208	244.896	-48.861	76.645	0.00026425	9.2629e-05	0.00011476	492.44	4.3369e-06	3.4549e-06	689.36	199.08	2.5934e-06	5.2426e-06	307.75	138.57	89.023	49.84	1.2301e-06	71.841	0.00024201	0.00021886	5.7861e-05	503	2.5881e-06	2.3997e-06	694.3	202.24	2.5682e-06	2.3841e-06	302.06	136.75	88.345	49.222	2.3369e-06	69.339	259.120	-52.191	39.232	-74.776	46.205	70.895	-76.193	-69.292	66.013	61.603	-71.667	-67.072	-63.878	-59.818	50.291	-63.167	-8191	255	
3847.508	1	1	0	0	0.14081	0.15124	0.044231	0.17281	0.21247	0.23953	0.057403	0.099003	0.24473	0.051548	0.12075	0.34408	0.14573	0.14811	0.18852	0.30238	-2.1813	-2.3896	-2.7646	-2.5104	-2.5208	-2.5917	-2.3417	-2.7625	-2.5958	-2.4792	-2.8292	-2.5062	-2.4271	-2.8187	-2.275	-2.7625	-62.602	200.599	177.860	209.520	-43.600	2.713	126.892	148.924	0.608	162.841	-8.843	266.505	-67.472	189.361	190.444	240.991	0.00028646	0.00059071	0.00010179	489.94	3.573e-06	5.3004e-06	690.4	198.76	5.4666e-06	6.6967e-06	306.62	138.01	88.395	49.819	3.5655e-07	71.921	0.00024364	0.00022121	5.9321e-05	504.3	2.5835e-06	2.4186e-06	693.11	202.27	2.5542e-06	2.3823e-06	301.1	136.68	88.07	49.086	2.3428e-06	69.389	268.985	-21.461	4.182	-74.830	80.039	-4.620	-76.085	-69.056	148.988	31.772	-72.128	-67.048	-64.239	-59.812	-73.888	-63.125	-8191	255	
3847.604	1	1	0	0	0.26696	0.15994	0.16297	0.034603	0.12858	0.098915	0.26391	0.1744	0.082625	0.13309	0.19379	0.1851	0.18859	0.080705	0.057761	0.16107	-2.0125	-2.2354	-2.4771	-2.5396	-2.3021	-2.6729	-2.3167	-2.6688	-2.5042	-2.4458	-2.8292	-2.6792	-2.3604	-2.8729	-2.4208	-2.6	-64.415	-10.825	-73.002	141.755	5.617	175.071	161.083	178.835	-45.600	227.174	193.397	246.700	6.371	229.360	208.154	216.542	0.00023412	0.00033181	7.7479e-05	492.14	4.6183e-06	1.8243e-06	686.98	199.01	4.1319e-06	4.4275e-06	307.2	137.77	88.381	49.812	1.8709e-06	71.646	0.00023402	0.00021492	6.0144e-05	505.77	2.5181e-06	2.3641e-06	694.01	202.57	2.5228e-06	2.3905e-06	301.75	136.41	87.719	49.061	2.5196e-06	69.318	265.329	-53.496	-4.200	-74.819	35.047	31.101	-76.343	-69.177	104.530	25.528	-72.061	-66.804	-64.030	-59.766	207.594	-62.867	-8191	255	
3847.724	1	1	0	0	0.039176	0.054439	0.12481	0.025853	0.11515	0.09805	0.1273	0.17643	0.12787	0.067944	0.13608	0.22197	0.085234	0.14162	0.092098	0.20598	-2.1792	-2.0792	-2.5333	-2.4604	-2.2083	-2.6375	-2.3771	-2.6917	-2.6333	-2.2687	-2.4854	-2.5062	-2.2771	-2.8063	-2.3958	-2.6292	240.254	-27.203	181.892	89.933	24.469	104.986	-31.804	224.467	73.890	259.254	24.868	150.063	-73.223	-59.217	149.904	235.768	0.0002688	0.00039981	6.2157e-05	490.51	4.0966e-06	1.8726e-06	688.56	199.35	4.1346e-06	2.2776e-06	307.44	138.38	88.618	49.711	2.2095e-06	71.839	0.00023308	0.00021744	6.4601e-05	504.7	2.4599e-06	2.3425e-06	694.85	202.59	2.4403e-06	2.3214e-06	302.88	136.48	87.808	48.987	2.6246e-06	69.305	256.057	-41.076	37.221	-75.023	23.615	78.032	-76.105	-68.919	99.279	100.762	-71.662	-67.076	-64.097	-59.809	213.360	-63.032	-8191	255	
3847.821	1	1	0	0	0.16966	0.21822	0.35437	0.2458	0.22316	0.17228	0.14019	0.036814	0.10384	0.10067	0.18534	0.28266	0.028625	0.40435	0.22691	0.24902	-2.0875	-2.1458	-2.6146	-2.5979	-2.4021	-2.7708	-2.4708	-2.5417	-2.6937	-2.4104	-2.8208	-2.55	-2.1667	-2.7542	-2.5333	-2.6063	229.786	4.109	97.743	231.210	-82.126	177.002	-69.380	97.753	84.909	227.129	241.957	186.690	138.773	230.557	-5.120	267.996	0.00031823	0.00034005	7.2627e-05	490.09	1.8984e-06	3.8908e-06	690.9	199.35	2.2404e-06	2.6202e-06	308.05	137.62	88.039	49.586	3.0106e-06	71.781	0.00022867	0.00021651	6.74e-05	504.34	2.4376e-06	2.3625e-06	696.97	202.09	2.3977e-06	2.3923e-06	303.43	136.12	87.414	48.928	2.6605e-06	69.212	263.158	-28.628	55.557	-75.005	25.012	67.656	-76.130	-69.127	78.087	21.582	-71.643	-67.044	-64.124	-59.730	-24.441	-63.270	-8191	255	
3847.917	1	1	0	0	0.19845	0.17657	0.21008	0.022712	0.28667	0.11419	0.22717	0.27517	0.18783	0.033743	0.16267	0.36534	0.12592	0.2295	0.083705	0.18793	-2.1437	-2.2875	-2.5875	-2.7542	-2.4479	-2.9021	-2.4688	-2.4167	-2.5917	-2.3667	-2.8125	-2.6167	-2.2667	-2.7896	-2.575	-2.6104	132.675	235.548	-5.916	-53.808	-65.470	165.703	206.393	207.741	210.284	43.953	155.254	250.984	132.351	155.031	-30.932	267.020	0.00025448	0.00012241	5.1984e-05	489.2	5.3146e-06	2.8243e-06	687.8	197.63	6.1174e-06	2.4198e-06	306.76	137.01	87.97	49.4	4.6594e-06	71.126	0.00022164	0.00022173	6.8318e-05	502.34	2.3437e-06	2.4507e-06	694.99	200.99	2.4004e-06	2.5469e-06	302.26	135.41	87.173	48.786	2.6919e-06	68.681	260.706	-82.002	43.069	-74.991	72.381	74.965	-76.198	-69.004	53.024	-27.182	-71.903	-66.999	-64.230	-59.697	51.851	-63.207	-8191	255	
3848.037	1	1	0	0	0.082571	0.30772	0.16654	0.068119	0.22203	0.092637	0.42788	0.18711	0.06127	0.12866	0.048828	0.26191	0.22911	0.22623	0.15977	0.22868	-2.2979	-2.3917	-2.55	-2.625	-2.1583	-2.6479	-2.4667	-2.1417	-2.6625	-2.4521	-2.4521	-2.9458	-2.3083	-2.7042	-2.5563	-2.2917	226.233	-31.527	-20.470	158.036	230.430	43.064	197.417	155.008	181.014	246.540	-67.294	213.585	218.105	246.138	-51.034	128.650	0.00033039	0.00035715	7.1496e-05	490.09	3.0654e-06	5.2457e-06	685.49	197.28	2.7446e-06	3.6056e-06	304.15	136.6	87.744	49.357	2.9433e-06	71.154	0.00022343	0.00023726	6.8288e-05	501.34	2.3738e-06	2.6381e-06	693.56	200.73	2.3784e-06	2.6775e-06	301.42	135.18	87.093	48.781	2.6653e-06	68.661	267.543	-19.492	12.153	-75.104	45.806	51.750	-76.153	-69.065	132.679	142.237	-71.811	-66.894	-64.223	-59.762	91.143	-63.158	-8191	255	
3848.109	1	1	0	0	0.18435	0.28977	0.14766	0.10283	0.15774	0.14746	0.12136	0.31669	0.0062849	0.071511	0.11302	0.062781	0.16032	0.12249	0.18265	0.19485	-2.1083	-2.25	-2.3729	-2.6458	-2.4021	-2.5312	-2.7625	-2.2354	-2.6729	-2.3146	-2.5292	-2.7458	-2.5021	-2.6104	-2.7542	-2.3875	11.679	117.510	-46.702	253.838	132.246	115.613	27.008	-18.618	-78.088	-39.575	-63.731	232.605	159.585	-72.566	51.802	268.490	0.00030793	0.00022398	0.00013912	487.7	1.0021e-06	1.3866e-06	685.16	197.82	2.4755e-06	2.46e-06	306.42	137.03	87.747	49.489	3.7275e-06	71.882	0.00022695	0.00024951	6.6438e-05	499.46	2.4259e-06	2.716e-06	692.45	200.39	2.4276e-06	2.6961e-06	301.68	135.35	87.446	49.032	2.4748e-06	69.012	261.174	-19.971	39.558	-75.202	135.757	-19.271	-76.164	-69.339	-59.039	65.917	-71.887	-66.923	-64.061	-59.744	31.722	-62.875	-8191	255	
3848.205	1	1	0	0	0.19876	0.2449	0.34194	0.062046	0.19868	0.18832	0.22305	0.30741	0.15515	0.068738	0.10114	0.02909	0.067748	0.26392	0.090822	0.24806	-2.1604	-2.3937	-2.3646	-2.9021	-2.2521	-2.5417	-2.7938	-2.1583	-2.5354	-2.4396	-2.4208	-2.8438	-2.5667	-2.6437	-2.6375	-2.6417	213.743	-48.814	271.105	-24.100	218.844	129.040	228.884	-25.085	7.849	85.709	-40.124	56.725	-75.034	234.401	-21.061	243.105	0.00033029	0.00033372	9.2436e-05	488.74	2.5924e-06	4.7081e-06	689.38	197.75	1.2998e-06	1.1241e-06	306.81	137.62	87.723	49.644	1.3459e-06	71.782	0.00022595	0.00023981	6.1539e-05	498.68	2.4443e-06	2.5929e-06	693.12	200.59	2.4972e-06	2.6239e-06	301.93	135.99	87.822	49.147	2.4704e-06	69.063	261.267	-12.741	78.130	-74.940	120.584	10.756	-76.325	-69.050	-53.804	84.920	-71.829	-66.915	-64.227	-59.828	163.311	-63.033	-8191	255	
3848.324	1	1	0	0	0.36654	0.20935	0.090535	0.077046	0.2117	0.07604	0.21147	0.11685	0.22508	0.20866	0.18886	0.23268	0.065841	0.18044	0.054817	0.21878	-2.3063	-2.4667	-2.2458	-2.7375	-2.2479	-2.45	-2.7562	-2.5417	-2.4938	-2.6833	-2.2938	-2.9229	-2.5563	-2.6333	-2.7729	-2.425	99.421	145.920	69.138	46.989	178.544	190.547	159.598	246.814	73.887	159.672	219.401	231.953	-85.912	-19.946	162.323	192.348	0.00025355	0.0004714	0.00013755	488.46	2.8976e-06	6.0895e-06	684.98	197.63	6.1271e-06	2.4453e-06	307.71	137.85	87.823	49.443	2.6155e-06	71.452	0.00024465	0.00023992	6.2438e-05	499.06	2.6277e-06	2.5751e-06	691.01	200.38	2.6321e-06	2.5598e-06	301.18	135.84	87.997	48.883	2.4538e-06	68.859	252.306	-56.264	53.288	-74.979	197.959	8.269	-76.130	-69.258	134.997	18.729	-71.733	-67.091	-64.010	-59.760	247.423	-63.234	-8191	255	
3848.420	1	1	0	0	0.25377	0.15354	0.1117	0.21445	0.27811	0.29409	0.37597	0.27504	0.038206	0.20102	0.031578	0.31839	0.2205	0.417	0.088301	0.2094	-2.1333	-2.6958	-2.1937	-2.6625	-2.5979	-2.3812	-2.7021	-2.4	-2.6479	-2.6104	-2.3396	-2.7083	-2.4229	-2.5208	-2.7208	-2.3833	186.530	232.984	78.861	195.913	91.053	144.644	211.974	17.442	-84.768	-60.568	79.172	-69.714	201.513	256.156	-9.464	266.886	0.0002977	0.00032401	0.00014583	487.08	2.3344e-06	3.2937e-06	683.74	197.63	5.6849e-06	5.2119e-06	305.48	137.24	87.728	49.453	8.0103e-07	71.44	0.00025292	0.00023405	6.181e-05	500.01	2.7257e-06	2.5587e-06	690.27	200.55	2.7198e-06	2.5245e-06	300.29	135.62	87.92	48.824	2.3716e-06	68.921	261.546	270.336	17.850	-74.814	36.840	4.706	-76.357	-69.325	80.339	82.148	-71.624	-66.875	-64.079	-59.645	149.923	-63.065	-8191	255	
3848.516	1	1	0	0	0.087092	0.097796	0.080132	0.15217	0.28692	0.16153	0.28098	0.016853	0.26372	0.11918	0.11386	0.1051	0.16876	0.40027	0.15417	0.18715	-2.075	-2.475	-2.3229	-2.6604	-2.5479	-2.3958	-2.85	-2.4854	-2.3875	-2.8396	-2.3438	-2.825	-2.6333	-2.5333	-2.7354	-2.5104	117.790	7.984	181.420	269.074	114.452	100.076	211.304	123.236	98.449	142.300	153.977	108.758	230.351	249.043	154.699	197.503	0.00026857	0.00044837	0.0001391	487.02	2.7279e-06	5.1225e-06	685.14	197.28	4.373e-06	4.6395e-06	306.11	137.48	87.443	49.636	2.376e-06	71.671	0.00025044	0.00022703	6.0365e-05	501.02	2.6619e-06	2.4811e-06	689.69	200.73	2.647e-06	2.4655e-06	300.06	136.11	87.748	48.851	2.3858e-06	69.225	256.782	-15.384	33.978	-74.889	88.876	6.206	-76.125	-69.153	62.212	60.318	-71.923	-66.815	-64.164	-59.698	103.924	-63.204	-8191	255	
3848.637	1	1	0	0	0.20383	0.077612	0.087541	0.20903	0.20757	0.35316	0.23053	0.19257	0.047786	0.037706	0.14305	0.21528	0.24691	0.13502	0.091474	0.19497	-2.0979	-2.8458	-2.1792	-2.7167	-2.6646	-2.2875	-2.7646	-2.5583	-2.5292	-2.6042	-2.3146	-2.5521	-2.5396	-2.5104	-2.6813	-2.6562	34.296	84.202	-0.435	61.312	154.679	89.602	232.064	178.959	40.782	42.257	-40.808	243.407	-59.439	231.743	259.638	147.673	0.00025969	0.00044345	8.1755e-05	487.95	1.6858e-06	4.1588e-06	683.55	197.59	2.792e-06	3.557e-06	304.36	137.26	88.17	49.615	1.9472e-06	71.797	0.00024191	0.00021989	6.0128e-05	502.16	2.5446e-06	2.3904e-06	690.32	201.44	2.5534e-06	2.4016e-06	301.06	136.3	87.648	48.855	2.4703e-06	69.433	260.852	-25.710	53.397	-74.782	74.626	-18.325	-76.085	-68.898	60.345	25.663	-71.889	-66.992	-64.234	-59.614	77.395	-63.148	-8191	255	
3848.709	1	1	0	0	0.28231	0.12266	0.15967	0.1694	0.21213	0.37603	0.1293	0.26369	0.18468	0.20784	0.1495	0.20793	0.26628	0.22969	0.13383	0.061035	-1.85	-2.7521	-2.1521	-2.7021	-2.4833	-2.3896	-2.7833	-2.5979	-2.3208	-2.9104	-2.4396	-2.6083	-2.7417	-2.3812	-2.6833	-2.7958	-50.480	156.224	235.445	-79.701	-34.675	-6.206	99.580	146.363	142.570	91.513	232.565	247.625	267.815	242.603	70.735	-14.440	0.00025438	0.00033097	6.0116e-05	487.18	1.5178e-07	3.1608e-06	687.99	197.83	3.4908e-06	3.6043e-06	306.73	137.89	87.693	49.473	7.1918e-07	71.807	0.00023625	0.00021902	6.3623e-05	502.76	2.4837e-06	2.3669e-06	692.68	201.62	2.4924e-06	2.3476e-06	302.38	136.36	87.397	48.814	2.5939e-06	69.316	266.960	-47.081	121.732	-75.024	194.501	84.801	-76.089	-68.992	126.862	88.767	-71.867	-67.079	-64.100	-59.547	139.973	-63.149	-8191	255	
3848.805	1	1	0	0	0.08123	0.072596	0.12398	0.15705	0.047913	0.1957	0.08432	0.20874	0.15164	0.11072	0.13833	0.17306	0.21503	0.21582	0.081451	0.14444	-2.025	-2.7625	-2.4208	-2.6021	-2.5792	-2.2146	-2.7062	-2.7792	-2.3604	-2.6104	-2.4021	-2.5021	-2.6958	-2.2687	-2.5583	-2.7208	101.448	118.841	-83.733	115.034	69.609	82.055	197.302	234.654	-26.122	46.089	224.901	-49.777	-80.739	161.391	119.980	257.782	0.00023621	0.00032053	6.4674e-05	486.09	4.6553e-07	3.3033e-06	683	197.19	4.7418e-06	3.944e-06	304.85	136.57	87.592	49.303	1.5804e-06	71.534	0.00023008	0.0002162	6.6856e-05	501.14	2.4478e-06	2.3914e-06	692.16	200.84	2.5004e-06	2.4292e-06	301.73	135.7	87.249	48.646	2.8105e-06	68.907	257.646	-48.477	58.216	-74.781	210.959	14.489	-76.020	-68.943	120.797	40.072	-71.776	-66.990	-64.229	-59.674	85.373	-63.171	-8191	255	
3848.901	1	1	0	0	0.25063	0.037344	0.11421	0.062835	0.19028	0.11457	0.10401	0.18448	0.077345	0.18614	0.10772	0.22171	0.022982	0.16065	0.056281	0.17859	-2.0229	-2.7375	-2.5062	-2.6312	-2.8458	-2.4167	-2.6646	-2.5125	-2.0812	-2.8104	-2.5583	-2.4708	-2.9458	-2.3708	-2.4583	-2.8625	125.851	140.447	20.770	130.111	222.890	207.220	185.042	193.231	237.009	-39.038	232.096	180.345	160.686	-4.852	187.031	184.792	0.00024198	0.00018584	0.00014056	486.3	1.7064e-06	1.6955e-06	684.88	196.58	1.5145e-06	2.9767e-06	307.54	137.52	87.901	49.292	3.8957e-06	71.646	0.00023583	0.00023064	7.2031e-05	500.42	2.5224e-06	2.5705e-06	693.54	200.82	2.5111e-06	2.5814e-06	303.32	135.87	87.392	48.799	2.8415e-06	69.237	254.701	174.363	-19.018	-74.914	57.956	-2.260	-76.357	-69.106	173.693	100.338	-71.860	-66.987	-64.040	-59.617	108.162	-63.192	-8191	255	
3849.020	1	1	0	0	0.10754	0.21541	0.085416	0.14794	0.29575	0.29437	0.23563	0.084266	0.17185	0.017859	0.10643	0.2888	0.028278	0.12002	0.099563	0.062728	-1.75	-2.6708	-2.5333	-2.3812	-2.6417	-2.3396	-2.7687	-2.7125	-2.1292	-2.525	-2.4938	-2.525	-2.75	-2.4042	-2.4125	-2.6937	-76.232	82.108	-85.391	133.798	163.473	125.224	98.744	238.181	-80.329	-46.750	149.075	219.503	-21.936	75.404	-41.219	200.055	0.00024428	0.00042668	0.00010216	483.96	4.7562e-06	4.3294e-06	682.74	197.18	1.2665e-06	5.023e-06	306.07	137.11	87.643	49.361	3.3852e-06	71.507	0.00023533	0.00024719	7.3381e-05	500.04	2.5348e-06	2.7775e-06	693.92	200.71	2.554e-06	2.8147e-06	303.63	135.95	87.47	48.909	2.8395e-06	69.152	256.751	-64.724	-1.609	-74.880	66.020	153.156	-76.062	-69.264	-21.437	113.291	-72.023	-66.938	-63.970	-59.634	43.653	-63.148	-8191	255	
3849.116	1	1	0	0	0.088713	0.051834	0.095698	0.22813	0.060131	0.24136	0.15018	0.14315	0.013333	0.11017	0.080646	0.15288	0.23082	0.24736	0.184	0.27019	-1.7687	-2.7375	-2.5417	-2.3458	-2.7313	-2.4375	-2.5104	-2.8021	-2.3646	-2.6375	-2.6771	-2.3229	-2.675	-2.4708	-2.6208	-2.9188	40.210	-53.294	218.635	77.391	207.247	-60.163	23.041	18.303	65.853	130.273	120.526	173.584	-14.976	233.046	104.401	-55.295	0.00029543	0.00024419	3.9862e-05	486.13	2.1215e-06	7.5037e-06	685.08	196.87	1.1878e-06	2.4041e-06	308.13	137.36	87.345	49.217	3.9165e-06	71.739	0.00023795	0.00026008	7.089e-05	499.58	2.5686e-06	2.8692e-06	693.14	200.34	2.6141e-06	2.8909e-06	303.17	135.86	87.436	48.893	2.7194e-06	69.158	264.194	-38.418	118.614	-74.959	55.970	26.469	-76.258	-68.908	37.852	13.992	-72.005	-66.948	-64.013	-59.703	22.619	-63.053	-8191	255	
3849.212	1	1	0	0	0.028214	0.29197	0.17146	0.17961	0.15225	0.25912	0.14485	0.13869	0.30493	0.13074	0.13182	0.14519	0.18776	0.3753	0.29028	0.31277	-1.8062	-2.5167	-2.6708	-2.3208	-2.7208	-2.4938	-2.4375	-2.7604	-2.1437	-2.6667	-2.7313	-2.4542	-2.5875	-2.5229	-2.5021	-2.8063	225.965	182.629	-41.699	145.652	250.810	1.520	31.554	103.701	144.324	4.475	115.059	-31.555	20.694	252.585	42.327	196.352	0.00032471	0.00023383	0.0001199	484.87	3.4475e-06	4.6138e-06	687.09	197.53	2.0934e-06	1.6051e-06	306.01	137.18	87.686	49.253	9.827e-07	71.448	0.00024349	0.00025968	6.7571e-05	500.46	2.6108e-06	2.8499e-06	693.11	200.76	2.658e-06	2.8308e-06	302.26	135.81	87.893	48.89	2.6542e-06	68.945	262.201	-63.454	6.168	-74.936	86.561	28.141	-76.270	-68.988	35.524	53.963	-71.759	-67.117	-64.173	-59.812	58.435	-63.251	-8191	255	
3849.308	1	1	0	0	0.08075	0.2192	0.038104	0.33774	0.24307	0.24273	0.20993	0.17026	0.050819	0.25193	0.17337	0.47144	0.16219	0.43283	0.28291	0.10519	-1.7042	-2.5521	-2.5396	-2.3542	-2.6417	-2.6875	-2.3396	-2.7646	-2.4313	-2.4542	-2.7188	-2.2771	-2.5542	-2.6854	-2.1542	-2.9375	159.802	121.809	229.346	-67.342	93.552	256.478	241.381	94.113	107.932	73.740	-2.581	216.104	168.494	263.344	248.542	165.110	0.00029241	0.00025826	0.00015206	485.62	2.3717e-06	3.1753e-06	686.89	196.92	2.6702e-06	2.4657e-06	305.53	137.66	87.571	49.406	3.4861e-06	71.309	0.00025612	0.00025883	6.7349e-05	499.11	2.8069e-06	2.8558e-06	692.64	200.58	2.8355e-06	2.8074e-06	302.24	136	87.991	48.889	2.588e-06	69.077	262.674	-62.215	63.239	-74.986	127.820	171.091	-75.888	-69.147	130.857	85.522	-71.510	-66.942	-64.140	-59.680	76.612	-63.287	-8191	255	
3849.404	1	1	0	0	0.12673	0.057263	0.10963	0.25482	0.069482	0.17212	0.18702	0.11342	0.033886	0.090557	0.29311	0.34208	0.060994	0.16825	0.10706	0.27765	-2.0708	-2.2458	-2.6708	-2.4625	-2.6104	-2.7104	-2.4021	-2.8875	-2.2792	-2.5104	-2.8229	-2.3708	-2.5812	-2.5458	-2.2042	-2.8875	-10.107	174.940	209.710	203.371	106.569	254.272	110.768	223.030	255.362	75.375	170.798	257.854	190.081	271.838	-23.693	216.058	0.00032824	0.00039544	9.2093e-05	487.29	2.9377e-06	3.9713e-06	688	198.4	1.2432e-06	2.4955e-06	308.11	137.63	88.046	49.59	1.1196e-06	71.947	0.00026123	0.00024841	6.4923e-05	501.17	2.8136e-06	2.6911e-06	693.75	201.61	2.8413e-06	2.6818e-06	302.86	136.49	88.332	49.038	2.557e-06	69.472	261.338	-47.780	28.868	-75.031	100.529	-5.470	-76.200	-69.099	113.011	85.788	-71.703	-66.839	-64.265	-59.799	67.230	-63.149	-8191	255	
3849.501	1	1	0	0	0.11394	0.085516	0.17616	0.23436	0.062913	0.05	0.19894	0.15341	0.070412	0.13656	0.065122	0.10744	0.20005	0.21238	0.24567	0.21207	-2.0625	-2.4958	-2.6729	-2.4479	-2.6375	-2.6354	-2.3563	-2.6833	-2.4604	-2.4313	-2.9188	-2.4188	-2.5792	-2.7313	-2.2292	-2.7854	-85.764	25.068	-83.856	127.629	-15.684	140.726	13.390	254.722	187.615	-48.128	42.766	251.356	240.134	245.443	189.669	187.243	0.00030491	0.00012775	0.00015993	488.98	4.8072e-06	3.8984e-07	690.05	198.74	1.4442e-06	5.6141e-06	308.68	138.27	88.09	49.75	3.0639e-06	72.341	0.00026346	0.00023828	6.3413e-05	503.2	2.7684e-06	2.6013e-06	694.83	202.44	2.7394e-06	2.5622e-06	303.51	137.21	88.394	49.117	2.4347e-06	69.919	-84.235	24.853	21.544	-75.015	69.706	42.365	-76.170	-69.129	-84.815	63.870	-71.743	-66.992	-63.905	-59.729	-3.582	-63.176	-8191	255	
3849.597	1	1	0	0	0.17886	0.06009	0.17535	0.017219	0.090931	0.235	0.12785	0.0086733	0.15712	0.04456	0.043897	0.2127	0.077869	0.24245	0.053066	0.091135	-2.0896	-2.3187	-2.8021	-2.4458	-2.4896	-2.7792	-2.4708	-2.825	-2.8042	-2.2458	-2.7458	-2.6042	-2.4437	-2.7375	-2.425	-2.6833	148.162	133.208	-9.051	-65.483	-74.149	161.096	145.929	18.899	-9.124	-46.553	179.302	226.893	244.931	263.116	228.468	-31.869	0.00031278	0.00042685	0.00013379	491.03	1.2681e-06	3.7224e-06	689.55	198.39	4.8378e-06	1.9494e-06	309.44	138.71	87.846	49.66	1.3295e-06	72.271	0.00024779	0.00022877	6.2217e-05	505.15	2.6435e-06	2.4949e-06	694.82	202.53	2.6373e-06	2.4855e-06	303.3	137.37	87.975	49.077	2.4981e-06	69.938	260.064	-44.525	60.459	-74.891	19.118	57.454	-76.191	-69.227	81.107	59.314	-71.767	-67.017	-64.135	-59.747	-69.046	-63.199	-8191	255	
3849.717	1	1	0	0	0.19396	0.20777	0.11599	0.13299	0.1384	0.10686	0.36072	0.2057	0.15325	0.16703	0.17628	0.065442	0.13582	0.090145	0.070603	0.18188	-2.2771	-2.4458	-2.8771	-2.3625	-2.3396	-2.8104	-2.4104	-2.7646	-2.6167	-2.3542	-2.7646	-2.7542	-2.4562	-2.9	-2.4021	-2.525	74.959	44.512	249.870	231.504	87.768	-70.453	178.065	178.737	94.185	124.894	126.588	241.829	-43.187	-84.503	179.344	181.511	0.00022254	0.00035883	5.4801e-05	488.87	3.0097e-06	3.0383e-06	689.59	198.74	3.2981e-06	2.3204e-06	310.42	139.13	88.378	49.988	2.6796e-06	72.583	0.00023951	0.00022507	6.3397e-05	504.84	2.536e-06	2.4123e-06	695.78	202.99	2.5211e-06	2.3985e-06	304.79	137.68	88.251	49.218	2.5865e-06	70.127	267.391	-23.368	54.332	-74.934	5.730	4.153	-76.170	-69.129	65.350	36.920	-71.735	-67.116	-64.180	-59.949	71.346	-63.261	-8191	255	
3849.813	1	1	0	0	0.20744	0.2671	0.11593	0.082569	0.058871	0.25176	0.12964	0.25028	0.26309	0.17035	0.21263	0.077423	0.1866	0.31386	0.11287	0.14283	-2.175	-2.1667	-2.7292	-2.6771	-2.3208	-2.7771	-2.3333	-2.5229	-2.7396	-2.3771	-2.6	-2.5479	-2.3646	-2.7583	-2.3667	-2.4271	260.079	32.152	73.885	210.503	63.822	75.662	-20.005	140.696	267.676	217.522	-55.164	28.287	-80.430	-66.151	226.834	141.190	0.00024829	0.00019379	5.4471e-05	488.41	2.4776e-06	2.4112e-06	689.19	200.08	6.3766e-06	1.99e-06	309.58	139.83	88.614	50.144	3.2887e-06	72.906	0.00023355	0.00021938	6.6137e-05	504.93	2.4907e-06	2.3884e-06	697.79	202.98	2.4844e-06	2.3987e-06	306.03	138.04	88.303	49.357	2.6635e-06	70.283	259.348	-81.616	29.666	-74.909	135.094	-37.937	-76.111	-69.156	77.352	-5.534	-71.847	-66.959	-64.200	-59.705	155.340	-63.216	-8191	255	
3849.910	1	1	0	0	0.054538	0.12136	0.29452	0.071375	0.17955	0.15747	0.062606	0.17902	0.18498	0.028551	0.29719	0.17134	0.2123	0.23525	0.19395	0.20664	-2.5104	-2.2125	-2.5208	-2.6917	-2.1208	-2.8292	-2.625	-2.4646	-2.6646	-2.4042	-2.5729	-2.5792	-2.15	-2.6896	-2.4417	-2.3104	187.111	25.507	62.336	264.733	156.260	173.827	158.044	196.192	147.556	155.626	209.521	238.680	111.005	179.670	76.032	-24.369	0.00027408	2.3151e-05	5.3689e-05	491.54	2.6799e-07	3.0251e-06	691.18	198.65	1.8251e-06	2.4421e-06	311.54	139.67	88.495	50.107	1.8453e-06	73.005	0.00022796	0.00021807	6.7356e-05	504.21	2.431e-06	2.4343e-06	699.56	202.53	2.4291e-06	2.4716e-06	306.64	138.13	88.207	49.409	2.6986e-06	70.269	256.499	254.464	18.936	-74.827	145.046	20.856	-76.070	-69.036	100.046	58.097	-71.915	-67.097	-64.251	-59.697	74.810	-63.138	-8191	255	
3850.006	1	1	0	0	0.19391	0.10191	0.13391	0.17393	0.33467	0.36837	0.11053	0.1813	0.23075	0.09256	0.17799	0.27159	0.13351	0.054111	0.10861	0.040143	-2.1833	-2.2521	-2.4354	-2.5333	-2.1667	-2.8708	-2.6604	-2.2271	-2.725	-2.4229	-2.5354	-2.775	-2.3875	-2.7167	-2.7042	-2.5604	109.737	14.626	241.958	174.749	260.632	185.074	15.931	-4.494	54.584	22.574	171.585	229.714	210.217	82.200	87.904	159.178	0.00031354	0.0002735	8.4391e-05	488.88	4.1128e-06	2.822e-06	690.3	199.73	2.7518e-06	4.6895e-06	311.02	139.43	88.409	49.863	3.0508e-06	72.664	0.00022313	0.00022848	6.8467e-05	501.88	2.3729e-06	2.5183e-06	699.62	202.34	2.3729e-06	2.5791e-06	306.57	137.96	88.081	49.425	2.6974e-06	70.044	260.482	5.577	57.359	-74.806	69.997	47.915	-76.144	-69.088	111.608	52.244	-71.792	-67.105	-64.293	-59.698	66.420	-63.270	-8191	255	
3850.102	1	1	0	0	0.080852	0.23045	0.079491	0.19771	0.10192	0.35472	0.2701	0.23082	0.23879	0.21217	0.64091	0.25235	0.31067	0.2275	0.18475	0.26978	-2.3521	-2.3937	-2.3937	-2.5521	-2.4021	-2.4062	-2.5062	-2.3937	-2.6104	-2.225	-2.4813	-2.5563	-2.3146	-2.7458	-2.4958	-2.4021	135.512	205.148	191.069	6.908	210.949	186.496	196.883	265.935	129.309	-48.649	228.646	239.568	-74.339	264.206	62.467	164.566	0.00023523	8.6529e-05	0.00019752	488.63	1.4092e-06	2.9276e-06	690.08	198.41	5.2993e-06	1.8653e-06	309.81	139.07	88.232	49.749	6.4377e-06	72.408	0.00022605	0.0002447	6.8309e-05	501.67	2.4512e-06	2.7074e-06	697.26	201.61	2.4328e-06	2.7374e-06	305.44	137.34	88.069	49.316	2.6671e-06	69.753	257.929	24.199	13.260	-75.249	104.236	134.495	-76.119	-68.951	166.558	84.386	-71.847	-66.875	-64.071	-59.780	29.153	-62.927	-8191	255	
3850.196	1	1	0	0	0.085851	0.16288	0.11343	0.29431	0.12092	0.1822	0.094322	0.073716	0.038694	0.15651	0.21026	0.22769	0.25315	0.29566	0.18613	0.11642	-2.0521	-2.3542	-2.35	-2.6625	-2.35	-2.6792	-2.5979	-2.1479	-2.6896	-2.3688	-2.3812	-2.7604	-2.2833	-2.6958	-2.4979	-2.4688	168.687	127.062	40.177	242.321	65.131	272.145	67.586	115.324	12.764	-83.572	78.968	198.156	-9.768	-74.043	-22.147	-67.218	0.00032028	0.00046838	0.00010849	487.33	1.9629e-06	8.7798e-07	689.74	198.18	6.0204e-07	2.8311e-06	310.81	139.41	88.574	49.781	3.9822e-06	72.744	0.00023552	0.00025606	6.7253e-05	500.56	2.5321e-06	2.7819e-06	696.55	201.42	2.5396e-06	2.7673e-06	305.03	137.41	88.402	49.372	2.5687e-06	69.923	261.340	-45.274	40.654	-74.791	63.234	-49.559	-76.114	-69.246	171.789	40.189	-71.779	-67.048	-63.977	-59.765	75.731	-63.135	-8191	255	
3850.317	1	1	0	0	0.32074	0.14313	0.13461	0.26462	0.19952	0.2361	0.27528	0.31475	0.0097656	0.15773	0.24091	0.10131	0.10606	0.22141	0.092174	0.25103	-2.3146	-2.4917	-2.3229	-2.9062	-2.4354	-2.4562	-2.8208	-2.3187	-2.7021	-2.5604	-2.2896	-2.8083	-2.3063	-2.6208	-2.7062	-2.3729	230.138	237.828	-32.334	171.181	-83.415	89.488	-2.677	248.348	130.701	200.090	193.458	178.818	259.142	25.184	174.239	245.004	0.00030703	0.00025142	6.2707e-05	485.91	2.3824e-06	1.5523e-06	689.51	198.08	3.4986e-06	5.0426e-06	309.22	139.44	87.887	49.73	3.9536e-06	72.615	0.00024283	0.00025104	6.5032e-05	498.36	2.6429e-06	2.7448e-06	695.37	200.87	2.6644e-06	2.708e-06	304.01	137.33	88.419	49.272	2.5082e-06	69.917	260.030	-80.823	2.025	-74.848	158.158	55.919	-76.246	-69.105	-55.134	86.482	-71.631	-66.832	-64.222	-59.653	48.633	-63.013	-8191	255	
3850.413	1	1	0	0	0.21214	0.11542	0.084123	0.19925	0.10675	0.26612	0.14729	0.11738	0.046294	0.2251	0.31002	0.28863	0.076012	0.21278	0.15545	0.1881	-2.3	-2.4542	-2.3375	-2.7333	-2.4583	-2.4667	-2.8333	-2.475	-2.6146	-2.6854	-2.4021	-2.8229	-2.4938	-2.4	-2.6729	-2.5812	202.750	231.006	122.457	189.249	99.763	270.221	-28.873	-55.735	87.851	24.475	234.188	212.023	175.943	166.088	67.654	146.773	0.0003631	0.00049262	6.5715e-05	485.15	5.8462e-07	4.3411e-06	688.84	197.75	1.0191e-07	4.942e-06	308.73	138.99	88.053	49.649	4.3135e-06	72.613	0.00025264	0.00024376	6.4248e-05	499.53	2.7399e-06	2.6636e-06	694.66	201.15	2.7724e-06	2.6497e-06	303.81	137.21	88.424	49.139	2.4915e-06	69.89	256.702	-51.203	20.104	-74.746	189.943	-14.000	-76.140	-69.053	200.419	107.675	-71.669	-67.133	-63.927	-59.524	49.527	-63.184	-8191	255	
3850.509	1	1	0	0	0.14268	0.010715	0.34361	0.072914	0.20804	0.072004	0.20171	0.09125	0.1783	0.29376	0.24998	0.28843	0.12733	0.25678	0.23195	0.22004	-2.0979	-2.4604	-2.2208	-2.8771	-2.5021	-2.2917	-2.7417	-2.3667	-2.4938	-2.7646	-2.3167	-2.7604	-2.3021	-2.4	-2.7083	-2.3917	-35.067	196.134	138.633	253.733	-23.688	132.852	246.426	270.361	-61.161	-55.060	216.065	-81.929	78.151	210.996	78.930	271.888	0.00031759	0.00039696	0.00016312	486.17	7.1361e-07	3.7591e-06	683.71	197.05	4.6243e-06	5.703e-06	307.81	137.28	87.104	49.471	3.6227e-06	72.366	0.00026065	0.00024021	6.3599e-05	499.68	2.8266e-06	2.6628e-06	690.79	200.68	2.8551e-06	2.6409e-06	302.63	136.58	88.025	48.841	2.4871e-06	69.811	268.424	-70.172	17.342	-74.874	76.512	3.477	-76.128	-68.867	118.134	66.588	-71.954	-66.913	-64.242	-59.687	-84.043	-63.069	-8191	255	
3850.605	1	1	0	0	0.44184	0.20964	0.10248	0.071292	0.18897	0.15072	0.26924	0.12476	0.17128	0.092533	0.17082	0.25936	0.4654	0.11721	0.093819	0.076796	-2.0375	-2.6292	-2.0354	-2.5354	-2.7396	-2.4062	-2.7729	-2.6083	-2.4562	-2.6417	-2.1792	-2.8042	-2.5812	-2.3688	-2.6771	-2.4542	168.457	31.175	49.812	135.814	263.962	119.340	54.793	236.534	193.309	80.934	236.951	14.085	-77.761	-15.518	208.363	180.629	0.0002998	0.00042114	8.3893e-05	486.4	1.8546e-06	4.3948e-06	686.02	197.26	4.7835e-06	4.9319e-06	308.01	138.83	88.109	49.562	1.5752e-06	72.445	0.00025607	0.00023368	6.2543e-05	500.51	2.6985e-06	2.5473e-06	692.07	201.58	2.6968e-06	2.549e-06	303.33	137.47	88.387	48.984	2.5164e-06	70.02	271.771	12.271	-4.990	-74.832	63.204	-15.995	-76.147	-69.017	33.484	82.805	-71.848	-67.084	-64.197	-59.625	202.170	-63.193	-8191	255	
3850.702	1	1	0	0	0.14301	0.30545	0.11315	0.35808	0.077032	0.14397	0.30282	0.14676	0.25442	0.13775	0.19027	0.36121	0.30118	0.12478	0.23596	0.1121	-1.8042	-2.5938	-2.3688	-2.5917	-2.3771	-2.2479	-2.7771	-2.2292	-2.2958	-2.8312	-2.3646	-2.6646	-2.6521	-2.2438	-2.8042	-2.6708	139.640	207.884	-26.835	198.773	178.290	85.612	230.798	202.028	-20.550	-2.402	152.418	247.566	258.902	9.286	150.886	207.805	0.00021663	0.00021872	0.00011923	484.61	2.9867e-06	3.6071e-06	685.19	198.22	2.9794e-06	2.108e-06	308.25	138.94	87.931	49.81	8.6846e-07	72.469	0.00024599	0.00022969	6.4125e-05	501.6	2.648e-06	2.489e-06	693.02	201.94	2.6262e-06	2.5014e-06	303.7	137.48	88.02	49.046	2.5965e-06	70.141	-85.814	-39.378	-0.655	-74.989	108.622	18.924	-75.972	-68.980	91.298	111.161	-71.660	-66.961	-64.120	-59.553	60.925	-63.033	-8191	255	
3850.798	1	1	0	0	0.43316	0.050134	0.14429	0.039031	0.033729	0.051653	0.3585	0.15654	0.24931	0.1862	0.10873	0.18183	0.085072	0.13153	0.17019	0.19189	-1.8729	-2.7438	-2.3979	-2.5542	-2.5854	-2.1417	-2.8292	-2.5583	-2.275	-2.7896	-2.4396	-2.5396	-2.7562	-2.3937	-2.7875	-2.675	32.649	84.672	117.749	239.887	225.417	10.263	222.755	-76.031	224.675	183.267	257.232	-30.794	-61.124	226.802	186.088	234.345	0.00031011	0.00031257	9.3152e-05	483.88	4.8525e-06	4.941e-06	687.38	197.85	3.8948e-06	1.5666e-06	309.26	139.49	88.153	49.79	1.9064e-06	72.668	0.00023995	0.00022318	6.6532e-05	500.5	2.546e-06	2.4525e-06	695.07	202.26	2.5357e-06	2.4308e-06	305.44	137.96	88.045	49.054	2.6926e-06	70.191	259.000	259.380	136.921	-74.867	43.136	2.811	-76.132	-68.934	95.416	224.736	-71.697	-67.000	-64.112	-59.606	110.191	-62.941	-8191	255	
3850.894	1	1	0	0	0.3088	0.11631	0.13801	0.11603	0.28126	0.21245	0.10266	0.14463	0.13851	0.11598	0.24819	0.25679	0.19298	0.24563	0.30553	0.23593	-1.8375	-2.6688	-2.4562	-2.6396	-2.7458	-2.2646	-2.6958	-2.5479	-2.3937	-2.65	-2.4958	-2.475	-2.6021	-2.5042	-2.5708	-2.6	-75.921	119.109	-52.951	144.077	264.644	107.744	215.606	137.471	-17.867	229.880	166.415	259.434	-67.581	-86.966	144.933	216.497	0.00029555	0.00039047	7.9264e-05	484.87	4.7531e-06	3.3876e-06	689.48	198.71	1.9561e-06	1.7806e-06	306.93	138.73	87.611	49.471	3.1663e-06	72.062	0.00023569	0.00022132	6.8502e-05	499.34	2.4708e-06	2.4274e-06	697.36	201.58	2.4608e-06	2.4394e-06	305.11	137.3	87.52	48.905	2.7888e-06	69.63	263.361	-9.320	-14.555	-74.569	96.616	44.895	-76.061	-69.080	69.341	142.352	-71.674	-66.929	-64.120	-59.636	74.465	-62.951	-8191	255	
3850.990	1	1	0	0	0.047282	0.12906	0.25908	0.06206	0.045532	0.077787	0.23582	0.24209	0.081383	0.089644	0.33651	0.11708	0.33873	0.23729	0.1749	0.087224	-1.8875	-2.6979	-2.5125	-2.2958	-2.7438	-2.2021	-2.6271	-2.7292	-2.3896	-2.6	-2.6063	-2.3646	-2.6771	-2.225	-2.5938	-2.8625	29.444	66.338	267.946	231.270	162.570	146.789	169.823	266.058	190.667	82.565	-11.478	61.433	236.472	79.161	-78.027	195.028	0.00030405	0.00034289	9.2067e-05	484.78	1.7159e-06	1.0065e-06	687.9	197.66	2.444e-06	1.0778e-06	307.9	138.56	87.984	49.449	4.7929e-06	72.316	0.00023245	0.00023079	7.1698e-05	497.42	2.4739e-06	2.5777e-06	694.74	200.93	2.4469e-06	2.6006e-06	304.87	136.92	87.639	48.976	2.7951e-06	69.743	258.978	-13.298	75.666	-74.822	55.943	145.413	-76.325	-69.064	123.083	114.996	-71.629	-66.931	-64.193	-59.680	-0.428	-63.181	-8191	255	
3851.086	1	1	0	0	0.14757	0.31454	0.36115	0.1185	0.01108	0.19946	0.06879	0.22402	0.26341	0.36978	0.27817	0.178	0.10395	0.22196	0.052843	0.13982	-1.7208	-2.5771	-2.5958	-2.3271	-2.6688	-2.4604	-2.6229	-2.7354	-2.2875	-2.7021	-2.5542	-2.3875	-2.8312	-2.4146	-2.4813	-2.8688	35.355	44.795	-17.385	252.266	147.591	103.404	101.189	253.797	100.379	137.392	228.418	-77.467	171.962	-50.087	-43.437	-75.162	0.00030885	7.8453e-05	0.00016122	482.86	2.8253e-06	2.0395e-06	682.91	196.97	3.8261e-06	2.2218e-06	308.48	138.64	87.999	49.508	5.778e-06	72.246	0.00023146	0.00024523	7.0873e-05	495.3	2.4772e-06	2.7485e-06	692.97	200.42	2.5094e-06	2.7869e-06	304.47	136.97	87.642	49.091	2.7155e-06	69.846	255.777	60.391	19.974	-74.844	68.581	122.626	-76.142	-69.138	135.902	124.122	-71.639	-66.920	-64.041	-59.590	38.511	-63.059	-8191	255	
3851.205	1	1	0	0	0.15901	0.067355	0.15855	0.031787	0.093374	0.039922	0.34057	0.11442	0.076257	0.30465	0.078394	0.078508	0.054263	0.30395	0.2631	0.11349	-1.7938	-2.6104	-2.4833	-2.2667	-2.7188	-2.4333	-2.5563	-2.7687	-2.2833	-2.6688	-2.7208	-2.5021	-2.6104	-2.7229	-2.3438	-2.8646	12.041	-70.213	102.841	175.145	-60.596	162.292	218.421	218.741	26.661	117.908	-18.762	172.527	115.226	201.770	208.610	247.083	0.00035588	0.00046028	0.0001261	481.83	1.036e-06	2.8253e-06	686.4	197.68	1.322e-06	1.4375e-06	309.33	139.4	88.192	49.724	3.6205e-06	72.84	0.00023137	0.00025195	6.6827e-05	495.71	2.4389e-06	2.7259e-06	693.97	200.8	2.4643e-06	2.7295e-06	304.79	137.44	88.032	49.309	2.5781e-06	70.137	256.674	-8.243	48.415	-74.730	85.573	20.159	-76.253	-69.008	84.769	86.528	-71.876	-66.968	-64.320	-59.574	45.626	-63.114	-8191	255	
3851.278	1	1	0	0	0.084602	0.089654	0.22086	0.29638	0.087605	0.20673	0.099209	0.27659	0.07399	0.068901	0.21873	0.30231	0.17809	0.26659	0.26665	0.055061	-1.9917	-2.5354	-2.6083	-2.3354	-2.5187	-2.7542	-2.4125	-2.7479	-2.3125	-2.4521	-2.7542	-2.3063	-2.6	-2.6333	-2.2792	-2.8271	-52.282	-51.320	87.476	223.561	11.486	254.277	155.494	270.344	-42.742	179.040	222.362	-85.780	45.469	177.563	112.209	180.481	0.00030382	0.00018741	9.9586e-05	482.2	2.0094e-06	2.5884e-06	687.97	197.03	3.9858e-06	6.1077e-06	310.44	139.18	87.849	49.586	1.4481e-06	72.497	0.00023771	0.00025185	6.5384e-05	495.84	2.5864e-06	2.7561e-06	693.56	200.27	2.6111e-06	2.7133e-06	304.74	137.11	88.17	49.162	2.5289e-06	69.749	268.370	-82.854	65.193	-74.796	184.042	84.376	-76.268	-69.057	120.259	77.905	-71.820	-66.864	-64.062	-59.812	25.488	-63.182	-8191	255	
3851.397	1	1	0	0	0.16558	0.17711	0.092495	0.15836	0.13837	0.08065	0.2797	0.25387	0.035464	0.029481	0.20874	0.056339	0.089771	0.20919	0.26802	0.043027	-1.7958	-2.4938	-2.5812	-2.2271	-2.7333	-2.5583	-2.4917	-2.8479	-2.4813	-2.3896	-2.7917	-2.5583	-2.5792	-2.6729	-2.2687	-2.8625	-32.543	-77.495	57.486	196.131	-23.445	262.306	-74.536	229.825	111.497	113.265	150.520	-31.819	-21.537	-84.014	212.267	271.256	0.00028987	0.0003376	0.00013894	482.34	1.8973e-06	3.5471e-06	683.26	196.45	2.5063e-06	6.1141e-06	309.07	138.83	87.845	49.476	3.6803e-06	72.299	0.00024914	0.00024569	6.4093e-05	494.57	2.7163e-06	2.6999e-06	690.48	199.72	2.7676e-06	2.6598e-06	303.42	137.08	88.378	48.928	2.5365e-06	69.774	261.361	-36.359	57.578	-75.195	29.671	26.239	-76.319	-68.872	121.986	102.651	-71.501	-66.866	-64.105	-59.745	61.766	-63.038	-8191	255	
3851.493	1	1	0	0	0.05194	0.25737	0.21756	0.097574	0.17269	0.089426	0.20264	0.18637	0.273	0.24289	0.22606	0.29491	0.30792	0.029398	0.19369	0.10785	-1.7563	-2.2958	-2.6583	-2.4021	-2.8	-2.4104	-2.4437	-2.825	-2.4875	-2.3479	-2.8646	-2.4	-2.3375	-2.7646	-2.2896	-2.8042	255.118	58.209	9.642	-76.613	271.321	-74.277	-50.461	239.906	-32.854	242.005	228.400	202.484	-62.847	132.018	0.664	25.480	0.00031465	0.00042757	6.7291e-05	479.4	4.2916e-06	3.627e-06	685.07	196.24	2.2898e-06	5.0654e-06	306.8	138.56	87.939	49.649	2.2067e-06	72.481	0.00025927	0.00024251	6.4014e-05	494.71	2.7909e-06	2.6263e-06	690.17	200.05	2.788e-06	2.6021e-06	302.21	137.24	88.447	48.993	2.4874e-06	69.965	257.220	-16.498	54.797	-74.729	58.721	9.062	-76.013	-69.022	79.570	31.749	-71.830	-66.791	-64.226	-59.679	55.046	-62.964	-8191	255	
3851.590	1	1	0	0	0.046123	0.097743	0.25793	0.12178	0.13078	0.14573	0.078183	0.26488	0.47595	0.19389	0.048039	0.0038195	0.25322	0.10318	0.099801	0.13598	-1.9646	-2.3688	-2.55	-2.4417	-2.4417	-2.5458	-2.4583	-2.6458	-2.5854	-2.3312	-2.8771	-2.475	-2.3958	-2.7958	-2.3292	-2.7542	203.591	115.377	2.988	-70.195	16.947	236.630	-79.901	221.091	97.866	-29.408	182.703	-52.868	-66.177	271.285	160.484	111.342	0.00029758	0.00034095	9.9204e-05	479.75	1.1692e-06	1.9502e-06	683.49	197.02	4.5703e-06	6.0403e-07	308.84	139.49	87.906	49.535	2.9115e-06	72.67	0.0002587	0.00023791	6.3175e-05	495.69	2.754e-06	2.5496e-06	689.32	201.01	2.7188e-06	2.5288e-06	303.96	138.05	88.256	49.007	2.4714e-06	70.345	253.097	-59.968	55.779	-74.693	14.907	19.917	-76.173	-68.989	84.380	126.582	-71.656	-66.864	-64.259	-59.886	49.537	-63.074	-8191	255	
3851.686	1	1	0	0	0.095826	0.10533	0.12092	0.1856	0.22636	0.2077	0.16127	0.096196	0.29616	0.14769	0.15119	0.27319	0.18863	0.32479	0.14436	0.091062	-1.9479	-2.2375	-2.7208	-2.5229	-2.4417	-2.5771	-2.4104	-2.7167	-2.5479	-2.3604	-2.6792	-2.5604	-2.3271	-2.7375	-2.2896	-2.7208	140.454	22.351	112.617	197.491	-49.351	-8.461	-77.043	-33.955	86.115	207.100	175.462	-35.567	253.614	-63.131	223.713	266.167	0.00028398	0.00022529	4.2337e-05	479.93	4.2843e-06	4.1127e-06	684.03	197.62	3.1727e-06	4.136e-06	309.48	139.21	88.331	49.69	4.1979e-07	72.607	0.0002507	0.00022949	6.2604e-05	496.95	2.6665e-06	2.5081e-06	689.93	201.38	2.6492e-06	2.4979e-06	303.88	138.13	88.04	48.951	2.5755e-06	70.309	270.077	-55.136	-1.933	-74.662	57.923	76.662	-76.113	-68.971	70.618	60.723	-71.764	-66.968	-64.111	-59.989	47.871	-63.081	-8191	255	
3851.806	1	1	0	0	0.10261	0.20798	0.13865	0.081061	0.22563	0.080862	0.096427	0.17687	0.30829	0.055188	0.040766	0.067825	0.21617	0.15173	0.13505	0.23897	-2.3458	-2.3958	-2.65	-2.6375	-2.4083	-2.9167	-2.3979	-2.7146	-2.5187	-2.2146	-2.8104	-2.5979	-2.3708	-2.8792	-2.3125	-2.5917	135.459	223.829	86.762	251.129	68.921	225.843	-50.631	114.560	-38.003	-82.080	91.570	53.582	142.282	266.817	194.932	-61.145	0.00030636	0.00032248	0.00012678	480.18	6.939e-06	1.666e-06	679.63	196.52	4.0647e-06	6.2067e-06	306.81	138.51	87.435	49.414	4.425e-06	72.258	0.00024371	0.00022713	6.5194e-05	497.72	2.5726e-06	2.4828e-06	690.81	200.86	2.5951e-06	2.4895e-06	303.65	137.24	87.692	48.726	2.754e-06	69.905	263.708	-44.308	116.238	-74.850	48.270	15.342	-76.209	-69.045	32.751	70.517	-71.610	-66.854	-64.073	-59.506	100.278	-63.088	-8191	255	
3851.878	1	1	0	0	0.36292	0.09638	0.39993	0.17359	0.12281	0.097475	0.44576	0.058439	0.12935	0.10227	0.27117	0.082621	0.21814	0.29771	0.1825	0.074438	-1.9375	-2.3021	-2.6792	-2.5312	-2.2438	-2.8146	-2.3771	-2.5479	-2.6063	-2.4042	-2.6208	-2.7354	-2.4313	-3.0083	-2.5687	-2.375	211.309	102.075	170.750	-65.995	46.780	146.859	165.435	269.805	-7.050	152.381	177.118	6.830	-45.384	-82.194	209.278	134.705	0.00023122	0.00036423	9.5758e-05	480.98	4.2074e-06	4.2962e-06	683.58	196.25	4.2836e-06	5.7935e-07	307.7	138.46	87.987	49.333	1.7284e-06	72.094	0.00024424	0.00023023	7.0488e-05	496	2.6118e-06	2.5213e-06	691.49	200.52	2.568e-06	2.5438e-06	304.51	137.17	87.677	48.698	2.852e-06	69.678	265.193	-67.202	-16.289	-75.221	50.833	33.078	-76.223	-68.973	51.993	54.083	-71.473	-66.774	-63.865	-59.687	152.821	-63.097	-8191	255	
3851.974	1	1	0	0	0.1079	0.15837	0.08761	0.075115	0.057714	0.12828	0.30227	0.36678	0.22084	0.41671	0.12947	0.2765	0.18154	0.21376	0.04179	0.20659	-2.1937	-2.3583	-2.5667	-2.7188	-2.3271	-2.7896	-2.4062	-2.3458	-2.55	-2.2938	-2.7438	-2.7562	-2.3917	-2.5687	-2.4125	-2.4542	-84.916	57.873	164.424	252.748	248.055	32.819	216.286	234.754	46.408	20.017	188.602	199.906	58.456	-82.998	2.528	223.448	0.00026994	0.00020966	7.3448e-05	475.55	4.7168e-06	3.872e-06	678.73	196.07	3.9399e-06	1.6281e-06	306.65	138.53	88.225	49.225	1.3619e-06	72.4	0.00023877	0.00023486	7.2871e-05	492.41	2.5582e-06	2.5766e-06	689.82	199.69	2.4986e-06	2.6018e-06	304.54	136.93	87.575	48.727	2.8118e-06	69.802	258.663	-31.279	24.274	-75.088	88.297	60.836	-76.086	-68.942	47.910	47.117	-71.633	-66.990	-63.899	-59.515	160.991	-63.044	-8191	255	
3852.095	1	1	0	0	0.23599	0.114	0.13015	0.16208	0.29623	0.12719	0.16273	0.1368	0.15274	0.2734	0.32894	0.12866	0.15245	0.11441	0.1999	0.27406	-2.25	-2.3729	-2.5104	-2.6813	-2.4542	-2.5563	-2.5354	-2.325	-2.6708	-2.3208	-2.5521	-2.825	-2.3708	-2.6729	-2.5521	-2.2167	66.529	23.337	130.385	151.165	172.998	-50.692	153.279	105.567	-10.834	-16.438	241.118	218.632	50.580	183.056	-33.358	238.486	0.00032323	0.00019486	3.8542e-05	475.72	4.0739e-06	1.301e-06	680.18	195.76	1.3745e-06	2.8188e-06	309.42	137.68	87.38	49.113	1.4307e-06	72.008	0.00023089	0.00023921	7.0253e-05	490.75	2.4329e-06	2.6295e-06	688.31	199.02	2.431e-06	2.689e-06	304.25	136.2	87.084	48.691	2.6998e-06	69.576	260.916	166.712	-34.110	-75.027	72.979	138.783	-75.954	-68.930	94.455	119.299	-71.720	-66.932	-64.145	-59.637	89.763	-62.829	-8191	255	
3852.189	1	1	0	0	0.21128	0.2956	0.1389	0.14521	0.28311	0.25287	0.22476	0.12746	0.22659	0.21857	0.31544	0.069725	0.30665	0.24565	0.19492	0.1972	-2.3042	-2.3354	-2.3625	-2.5979	-2.3021	-2.3438	-2.5708	-2.3771	-2.7208	-2.3875	-2.4646	-2.7708	-2.3104	-2.6188	-2.7646	-2.3979	-65.027	130.552	1.148	219.364	-5.851	180.884	130.332	259.137	171.049	-3.910	-33.108	217.678	31.852	261.637	66.115	246.151	0.00023344	0.00026613	0.00013666	477.38	1.1316e-06	2.9397e-06	676.17	194.9	1.2639e-06	2.5752e-06	304.81	137.15	86.707	48.698	3.0894e-06	71.546	0.00022743	0.00025075	6.8204e-05	489.31	2.4711e-06	2.7768e-06	685.27	198.46	2.5083e-06	2.8458e-06	301.75	135.42	86.897	48.41	2.7271e-06	69.021	272.284	61.111	42.851	-74.810	60.830	32.126	-76.035	-68.854	-35.634	10.254	-71.808	-67.108	-64.335	-59.528	33.017	-63.132	-8191	255	
3852.285	1	1	0	0	0.31114	0.29098	0.10322	0.23172	0.079868	0.43635	0.099336	0.33089	0.2084	0.13816	0.14257	0.22832	0.33157	0.23637	0.21579	0.095031	-2.1229	-2.35	-2.3063	-2.6937	-2.35	-2.5583	-2.7854	-2.3	-2.5438	-2.4854	-2.4271	-2.725	-2.4208	-2.5062	-2.5396	-2.3875	131.368	118.595	-17.496	9.238	-40.593	-44.350	220.564	271.190	86.374	66.503	252.355	181.031	200.595	182.437	240.609	40.711	0.00029009	0.0002875	7.5513e-05	472.82	9.3504e-07	4.9426e-06	673.25	193.51	2.1909e-06	3.5277e-06	304.71	136.25	86.794	48.683	2.1643e-06	71.541	0.00024421	0.00026564	6.868e-05	487.37	2.6934e-06	2.9453e-06	681.96	197.56	2.7468e-06	2.9382e-06	300.66	134.98	87.236	48.359	2.6957e-06	68.996	259.117	8.535	28.709	-74.762	209.695	44.269	-76.051	-68.862	197.436	55.864	-71.435	-66.739	-64.037	-59.508	56.239	-62.991	-8191	255	
3852.382	1	1	0	0	0.25617	0.14952	0.12043	0.19613	0.062896	0.39996	0.26171	0.16066	0.099929	0.2381	0.10484	0.14332	0.059915	0.46551	0.2973	0.33727	-2.3021	-2.55	-2.3021	-2.8042	-2.3604	-2.4104	-2.8583	-2.3292	-2.6083	-2.6479	-2.3375	-2.8208	-2.5625	-2.6188	-2.7604	-2.5458	-49.337	206.357	-25.883	243.509	-56.467	3.194	241.554	-78.861	116.273	251.602	-35.063	91.321	-39.027	271.951	161.308	212.507	0.00028646	0.00028547	9.1464e-05	474.03	1.8527e-06	6.3567e-06	671.79	194.37	3.0072e-06	2.0582e-06	304.36	136.69	86.786	48.801	2.9428e-06	71.419	0.00025756	0.00026047	6.7632e-05	487.49	2.8026e-06	2.833e-06	682.88	197.86	2.8152e-06	2.8141e-06	300.64	135.25	87.502	48.361	2.6122e-06	69.059	247.884	260.847	11.614	-74.922	77.523	-11.621	-76.212	-68.877	15.444	111.278	-71.650	-66.775	-63.863	-59.651	-6.231	-62.831	-8191	255	
3852.502	1	1	0	0	0.25782	0.11528	0.19346	0.13316	0.11297	0.040952	0.2458	0.25944	0.15244	0.12256	0.21733	0.44616	0.26422	0.29286	0.27044	0.23439	-2.1312	-2.3083	-2.2	-2.85	-2.4271	-2.2938	-2.6375	-2.3708	-2.6146	-2.4917	-2.2604	-2.7854	-2.5729	-2.4354	-2.7438	-2.5417	40.820	207.080	92.634	119.252	209.695	-21.255	130.124	-34.752	35.403	126.984	-22.570	238.353	236.801	-77.492	-41.791	211.532	0.00033362	0.00068065	0.00012649	475.5	3.5322e-06	3.9759e-06	675.16	194.76	4.8498e-06	1.8636e-06	306.53	137.51	86.74	49.166	2.9174e-06	71.781	0.00026488	0.00024823	6.5226e-05	488.77	2.8262e-06	2.6725e-06	682.93	198.72	2.8014e-06	2.6037e-06	301.63	136.11	87.424	48.418	2.4621e-06	69.491	257.035	-72.626	40.877	-74.837	63.481	60.931	-76.197	-69.007	112.372	183.376	-71.796	-66.663	-64.145	-59.595	18.320	-62.996	-8191	255	
3852.574	1	1	0	0	0.065524	0.34116	0.48454	0.091275	0.40697	0.19437	0.15401	0.034685	0.089371	0.29011	0.21871	0.29291	0.29058	0.14485	0.1622	0.18709	-2.1208	-2.6396	-2.2125	-2.7167	-2.2521	-2.3896	-2.8917	-2.4042	-2.6125	-2.5104	-2.4083	-2.7125	-2.5104	-2.6479	-2.5521	-2.5917	213.474	66.753	90.356	-83.860	-78.628	93.129	209.136	-38.462	-37.715	94.681	115.367	-69.498	226.290	-56.511	40.751	182.249	0.0002397	0.00021899	8.8113e-05	473.27	1.7799e-06	3.3315e-06	678.15	194.7	3.6594e-06	5.4795e-06	305.6	137.24	86.708	48.756	2.1652e-07	71.59	0.00026114	0.00023584	6.3165e-05	490.13	2.8046e-06	2.5914e-06	683.08	198.7	2.772e-06	2.5783e-06	300.43	135.98	87.292	48.227	2.4724e-06	69.372	258.737	-42.977	22.101	-75.085	57.652	5.079	-76.079	-68.978	30.414	99.906	-71.738	-66.980	-64.038	-59.671	-17.647	-63.101	-8191	255	
3852.670	1	1	0	0	0.062032	0.12871	0.28433	0.21788	0.14911	0.28413	0.082236	0.054318	0.070755	0.22133	0.16267	0.048985	0.14866	0.11288	0.19629	0.25358	-2.1083	-2.6521	-2.1354	-2.6396	-2.375	-2.2812	-2.7438	-2.5458	-2.5438	-2.825	-2.2417	-2.5062	-2.6896	-2.3708	-2.5833	-2.6521	172.839	7.563	50.063	238.058	117.081	154.033	174.639	30.781	80.517	149.367	-83.077	261.540	180.283	194.195	196.847	180.577	0.00025757	0.00017528	9.9549e-05	474.42	3.3548e-06	3.3287e-06	677.58	194.25	2.3704e-06	4.4257e-06	305.79	137.55	87.183	48.698	2.8175e-06	71.639	0.00025688	0.00023608	6.3542e-05	492.34	2.7457e-06	2.5831e-06	683.35	199.32	2.75e-06	2.5741e-06	300.91	136.14	87.215	48.185	2.583e-06	69.47	262.476	-49.621	-6.113	-74.791	88.051	8.967	-76.006	-68.956	105.913	9.570	-71.711	-66.890	-64.157	-59.652	-9.449	-63.141	-8191	255	
3852.766	1	1	0	0	0.26615	0.16314	0.041169	0.16708	0.1315	0.18845	0.15326	0.2336	0.19087	0.37052	0.19076	0.0095125	0.079049	0.23494	0.23901	0.38623	-1.8479	-2.5854	-2.2812	-2.5917	-2.5479	-2.1688	-2.7917	-2.5896	-2.4583	-2.7854	-2.4396	-2.6521	-2.7458	-2.2188	-2.7708	-2.6625	-61.563	62.310	215.335	46.658	65.123	-62.019	220.278	233.933	194.893	146.448	104.188	-17.946	-76.905	182.046	216.966	236.275	0.00027253	0.00015173	2.2262e-05	474.91	4.0529e-06	2.3416e-06	679.3	195.75	5.4892e-06	3.7165e-06	307.89	138.21	87.382	49.242	1.3096e-06	72.425	0.00025105	0.00022921	6.6283e-05	493.23	2.635e-06	2.5018e-06	687.15	200.12	2.6248e-06	2.498e-06	303.21	137.19	87.375	48.554	2.6407e-06	70.008	266.462	-23.699	267.521	-74.711	95.490	16.749	-76.099	-69.274	108.547	116.876	-71.954	-66.886	-63.999	-59.750	241.773	-62.955	-8191	255	
3852.887	1	1	0	0	0.18245	0.025555	0.28077	0.11484	0.090744	0.19575	0.12411	0.06142	0.18754	0.058574	0.099828	0.2456	0.29781	0.20495	0.14535	0.07341	-1.8292	-2.6646	-2.3125	-2.575	-2.6771	-2.3063	-2.7958	-2.4479	-2.2625	-2.6958	-2.425	-2.6625	-2.8187	-2.1271	-2.6229	-2.6771	132.013	169.971	63.201	185.693	177.493	-45.001	27.125	-61.412	169.596	58.673	76.319	220.980	233.640	238.684	-36.939	196.491	0.00021813	0.00017242	0.00011422	477.06	1.0529e-06	4.3517e-06	679.68	195.89	4.1683e-06	3.3913e-06	308.29	139.32	88.207	49.478	2.0532e-06	72.969	0.00024022	0.00022347	6.8262e-05	495.15	2.5381e-06	2.4499e-06	690	200.23	2.5046e-06	2.4077e-06	304.3	137.66	87.503	48.824	2.6499e-06	70.263	267.356	69.898	-11.972	-74.805	98.901	6.589	-76.086	-69.062	29.960	117.581	-71.622	-66.955	-64.221	-59.795	72.917	-62.973	-8191	255	
#DATA ENDS
