BOXY.EXE: ISS Imagent and Oximeter Data Acquisition Program Version 0.80
Ascii Record File

#ACQ INFORMATION
2  Detector Channels 
16  External MUX Channels 
1  Auxiliary Channels 
5000  Waveform (CCF) Frequency (Hz)
1  Waveforms Skipped 
30  Waveforms Averaged 
1  Cycles Averaged 
16  Acquisitions per Waveform 
10.0806  Updata Rate (Hz) 

#FILE INFORMATION
TRUE -- External MUX Channel results are PARSED.
FALSE -- AC DC and Phase are NOT grouped.
TRUE -- Companion Program Settings File CREATED.
FALSE -- AC data not excluded
FALSE -- DC data not excluded
FALSE -- Phase data not excluded
FALSE -- Auxillary Chn. data not excluded
Tab delimiters

#CALIBRATION STATE
TRUE -- Waveform Calibration Values APPLIED.


#AUX CALIBRATION VALUES
Val Type	aux-1	

Term	1.0000e+00	
Factor	0.0000e+00	


#WF CALIBRATION VALUES
A = Detector Channel
Val Type	A-AC1	A-AC2	A-AC3	A-AC4	A-AC5	A-AC6	A-AC7	A-AC8	A-AC9	A-AC10	A-AC11	A-AC12	A-AC13	A-AC14	A-AC15	A-AC16	A-DC1	A-DC2	A-DC3	A-DC4	A-DC5	A-DC6	A-DC7	A-DC8	A-DC9	A-DC10	A-DC11	A-DC12	A-DC13	A-DC14	A-DC15	A-DC16	A-Ph1	A-Ph2	A-Ph3	A-Ph4	A-Ph5	A-Ph6	A-Ph7	A-Ph8	A-Ph9	A-Ph10	A-Ph11	A-Ph12	A-Ph13	A-Ph14	A-Ph15	A-Ph16	

Term	0.00000e+00	0.00000e+00	0.00000e+00	0.00000e+00	0.00000e+00	0.00000e+00	0.00000e+00	0.00000e+00	0.00000e+00	0.00000e+00	0.00000e+00	0.00000e+00	0.00000e+00	0.00000e+00	0.00000e+00	0.00000e+00	0.00000e+00	0.00000e+00	0.00000e+00	0.00000e+00	0.00000e+00	0.00000e+00	0.00000e+00	0.00000e+00	0.00000e+00	0.00000e+00	0.00000e+00	0.00000e+00	0.00000e+00	0.00000e+00	0.00000e+00	0.00000e+00	0.00000e+00	0.00000e+00	0.00000e+00	0.00000e+00	0.00000e+00	0.00000e+00	0.00000e+00	0.00000e+00	0.00000e+00	0.00000e+00	0.00000e+00	0.00000e+00	0.00000e+00	0.00000e+00	0.00000e+00	0.00000e+00	
Factor	1.00000e+00	1.00000e+00	1.00000e+00	1.00000e+00	1.00000e+00	1.00000e+00	1.00000e+00	1.00000e+00	1.00000e+00	1.00000e+00	1.00000e+00	1.00000e+00	1.00000e+00	1.00000e+00	1.00000e+00	1.00000e+00	1.00000e+00	1.00000e+00	1.00000e+00	1.00000e+00	1.00000e+00	1.00000e+00	1.00000e+00	1.00000e+00	1.00000e+00	1.00000e+00	1.00000e+00	1.00000e+00	1.00000e+00	1.00000e+00	1.00000e+00	1.00000e+00	X	X	X	X	X	X	X	X	X	X	X	X	X	X	X	X	

B = Detector Channel
Val Type	B-AC1	B-AC2	B-AC3	B-AC4	B-AC5	B-AC6	B-AC7	B-AC8	B-AC9	B-AC10	B-AC11	B-AC12	B-AC13	B-AC14	B-AC15	B-AC16	B-DC1	B-DC2	B-DC3	B-DC4	B-DC5	B-DC6	B-DC7	B-DC8	B-DC9	B-DC10	B-DC11	B-DC12	B-DC13	B-DC14	B-DC15	B-DC16	B-Ph1	B-Ph2	B-Ph3	B-Ph4	B-Ph5	B-Ph6	B-Ph7	B-Ph8	B-Ph9	B-Ph10	B-Ph11	B-Ph12	B-Ph13	B-Ph14	B-Ph15	B-Ph16	

Term	0.00000e+00	0.00000e+00	0.00000e+00	0.00000e+00	0.00000e+00	0.00000e+00	0.00000e+00	0.00000e+00	0.00000e+00	0.00000e+00	0.00000e+00	0.00000e+00	0.00000e+00	0.00000e+00	0.00000e+00	0.00000e+00	0.00000e+00	0.00000e+00	0.00000e+00	0.00000e+00	0.00000e+00	0.00000e+00	0.00000e+00	0.00000e+00	0.00000e+00	0.00000e+00	0.00000e+00	0.00000e+00	0.00000e+00	0.00000e+00	0.00000e+00	0.00000e+00	-5.24022e+01	-1.64169e+02	-9.76990e+01	-1.80969e+02	-5.66720e+01	-9.77327e+01	-1.56073e+02	-1.62015e+02	-2.91745e+01	-6.44927e+01	-1.73276e+02	-1.70265e+02	-1.82009e+02	-1.76771e+02	-6.96488e+01	-1.50163e+02	
Factor	1.86859e-05	9.78118e-05	2.79070e-05	1.67683e-01	9.76611e-07	1.10387e-06	1.73110e-01	5.09591e-02	1.07639e-06	1.05178e-06	1.04153e-01	2.91335e-02	3.50756e-02	9.31146e-03	9.58455e-07	1.36155e-02	6.11716e-07	6.27859e-07	1.75053e-07	7.79073e-02	6.84918e-09	6.89061e-09	7.55109e-02	2.36384e-02	6.84905e-09	6.88618e-09	4.50172e-02	1.28399e-02	1.55609e-02	4.22386e-03	6.88738e-09	5.88561e-03	X	X	X	X	X	X	X	X	X	X	X	X	X	X	X	X	



#DISTANCE SETTINGS
A = Detector Channel
A-1	A-2	A-3	A-4	A-5	A-6	A-7	A-8	A-9	A-10	A-11	A-12	A-13	A-14	A-15	A-16	

2.5000e+00	3.0000e+00	2.5000e+00	3.0000e+00	2.0000e+00	3.0000e+00	1.5000e+00	3.0000e+00	3.0000e+00	3.0000e+00	3.0000e+00	3.0000e+00	3.0000e+00	3.0000e+00	1.5000e+00	3.0000e+00	

B = Detector Channel
B-1	B-2	B-3	B-4	B-5	B-6	B-7	B-8	B-9	B-10	B-11	B-12	B-13	B-14	B-15	B-16	

1.0000e+01	1.0000e+01	1.0000e+01	1.4400e+00	1.0000e+01	1.0000e+01	1.5100e+00	1.9400e+00	1.0000e+01	1.0000e+01	1.9900e+00	2.4900e+00	2.4100e+00	2.9000e+00	1.0000e+01	2.9800e+00	




#DATA BEGINS
time	group	step	mark	flag	A-AC1	A-AC2	A-AC3	A-AC4	A-AC5	A-AC6	A-AC7	A-AC8	A-AC9	A-AC10	A-AC11	A-AC12	A-AC13	A-AC14	A-AC15	A-AC16	A-DC1	A-DC2	A-DC3	A-DC4	A-DC5	A-DC6	A-DC7	A-DC8	A-DC9	A-DC10	A-DC11	A-DC12	A-DC13	A-DC14	A-DC15	A-DC16	A-Ph1	A-Ph2	A-Ph3	A-Ph4	A-Ph5	A-Ph6	A-Ph7	A-Ph8	A-Ph9	A-Ph10	A-Ph11	A-Ph12	A-Ph13	A-Ph14	A-Ph15	A-Ph16	B-AC1	B-AC2	B-AC3	B-AC4	B-AC5	B-AC6	B-AC7	B-AC8	B-AC9	B-AC10	B-AC11	B-AC12	B-AC13	B-AC14	B-AC15	B-AC16	B-DC1	B-DC2	B-DC3	B-DC4	B-DC5	B-DC6	B-DC7	B-DC8	B-DC9	B-DC10	B-DC11	B-DC12	B-DC13	B-DC14	B-DC15	B-DC16	B-Ph1	B-Ph2	B-Ph3	B-Ph4	B-Ph5	B-Ph6	B-Ph7	B-Ph8	B-Ph9	B-Ph10	B-Ph11	B-Ph12	B-Ph13	B-Ph14	B-Ph15	B-Ph16	aux-1	digaux	

1099.417	1	1	0	256	0.071371	0.10703	0.26472	0.12759	0.13415	0.031876	0.081098	0.13263	0.23197	0.15097	0.23392	0.12035	0.046755	0.046203	0.14066	0.21817	-2.7125	-3.2042	-2.8896	-3.2292	-3.225	-2.9813	-3.4688	-3.2646	-2.8979	-3.3792	-3.1042	-3.1104	-3.1896	-3.0104	-3.2917	-3.1958	125.079	-155.908	-45.964	150.735	6.688	-19.145	171.842	75.063	-143.346	-163.876	138.554	42.644	-165.710	88.253	166.766	150.897	0.00050164	0.0005322	2.04e-05	1371.1	6.0318e-06	3.5264e-06	1372.5	369.8	2.3774e-06	8.4156e-07	421.51	141.63	122.8	42.243	2.27e-06	52.174	0.00053588	0.00050492	0.00016232	1392.7	5.8171e-06	5.6187e-06	1392.4	377.01	5.7942e-06	5.5922e-06	432.57	144.63	124.56	42.955	6.5168e-06	53.485	-83.745	125.478	60.351	-157.382	-30.368	-9.488	-157.620	-152.897	-46.916	-24.863	-153.370	-149.199	-148.606	-143.977	36.066	-144.852	-8191	255	
1099.513	1	1	0	0	0.18413	0.13677	0.10583	0.44753	0.2619	0.22318	0.21067	0.084937	0.12764	0.1135	0.33858	0.10917	0.28909	0.17672	0.12469	0.013818	-2.5958	-3.3833	-2.9938	-3.225	-3.3583	-2.875	-3.6521	-3.1688	-2.9062	-3.3417	-3.0125	-3.2062	-3.5125	-2.6875	-3.1417	-3.3271	-160.589	0.203	171.539	144.295	10.165	-25.503	91.504	88.332	179.239	154.524	92.293	164.056	15.670	-152.866	8.164	-142.518	0.00043023	0.00085274	8.9672e-05	1367.9	3.901e-06	8.0516e-06	1368	370.73	2.2485e-06	1.5224e-06	423.14	141.46	122.1	42.084	7.3138e-06	52.246	0.00052233	0.00052139	0.00016748	1387.8	5.635e-06	5.8421e-06	1391.7	376.13	5.6166e-06	5.8351e-06	432.62	143.83	123.69	43.099	6.336e-06	53.197	-77.135	147.988	-59.589	-157.431	-64.636	-145.150	-157.639	-153.026	26.790	-77.974	-153.355	-149.068	-148.343	-144.175	-10.710	-144.879	-8191	255	
1099.609	1	1	0	0	0.20703	0.12491	0.14709	0.33632	0.16846	0.10669	0.10312	0.2783	0.056655	0.018358	0.081698	0.091516	0.12999	0.088138	0.10203	0.11822	-2.6354	-3.3375	-3.0146	-3.375	-3.325	-2.9521	-3.4729	-3.2417	-2.9958	-3.3375	-3.2167	-3.0792	-3.3583	-3.0458	-3.0583	-3.4062	-165.859	8.334	-156.459	110.680	-149.203	-122.938	111.614	171.745	135.535	-89.885	-83.244	-117.909	-156.850	-125.605	50.462	142.312	0.00048554	0.0005225	5.906e-05	1375	3.9515e-06	1.3545e-06	1371.6	370.26	5.6625e-06	2.5346e-06	423.69	141.54	123.02	42.139	2.7226e-06	52.121	0.00049088	0.00053113	0.00015667	1383.2	5.1386e-06	5.7827e-06	1386.5	374.21	5.0366e-06	5.6633e-06	427.63	142.59	122.78	43.06	5.5988e-06	52.606	-75.038	147.491	160.595	-157.511	-66.586	-126.085	-157.831	-152.921	-8.838	-94.525	-153.577	-149.035	-148.586	-144.024	-55.703	-144.987	-8191	255	
1099.705	1	1	0	0	0.037041	0.039547	0.072793	0.29331	0.37552	0.26983	0.15815	0.11313	0.38257	0.22226	0.22638	0.17872	0.062323	0.084118	0.12249	0.31235	-2.5479	-3.3083	-2.9042	-3.0875	-3.2958	-2.8583	-3.2542	-3.3458	-3.0396	-3.1771	-3.2979	-3.0667	-3.5438	-3.1042	-3.1188	-3.3479	-47.086	-131.398	135.060	161.641	129.536	133.371	181.497	-132.246	134.274	187.471	178.236	99.274	136.190	180.554	48.322	119.894	0.00054853	0.00045042	0.00013874	1374.5	2.5044e-06	3.4868e-06	1366.7	370.56	8.2012e-06	4.3456e-06	421.76	141.52	122.88	42.346	2.9378e-06	52.234	0.0004538	0.00052091	0.00014088	1379.5	4.944e-06	5.77e-06	1381.8	373.12	5.0244e-06	5.7991e-06	425.27	142.37	123.21	43.181	5.3771e-06	52.5	-85.671	119.347	-85.041	-157.513	13.396	-86.270	-157.550	-152.882	-93.401	-65.936	-153.382	-148.869	-148.624	-144.212	31.977	-144.775	-8191	255	
1099.826	1	1	0	0	0.29019	0.12997	0.11446	0.28975	0.13975	0.21431	0.35676	0.15497	0.22684	0.11313	0.11183	0.08272	0.098748	0.075274	0.26116	0.16145	-2.4604	-3.1833	-3.3271	-3.1854	-3.4417	-2.975	-3.0187	-3.3958	-2.9146	-3.125	-3.2521	-2.9604	-3.1125	-3.125	-3.0021	-3.3792	-134.736	11.357	181.390	-170.851	63.589	-118.856	69.033	132.736	-50.501	-154.208	47.913	-159.264	-120.221	187.662	11.437	100.104	0.00052383	0.00052996	0.00030949	1373.8	6.7411e-06	7.0522e-06	1374.7	371.35	6.8016e-06	8.6785e-06	423.83	141.86	123.12	42.349	5.5036e-06	52.29	0.00047331	0.00052942	0.00013508	1377.8	5.2276e-06	5.8667e-06	1382.4	373.91	5.5361e-06	6.0693e-06	427.44	143.07	125.17	43.452	5.6944e-06	52.969	-90.128	-90.475	-11.920	-157.463	-108.264	-19.149	-157.503	-152.943	-81.599	29.819	-153.406	-149.107	-148.671	-143.994	-22.035	-144.740	-8191	255	
1099.920	1	1	0	0	0.11695	0.18551	0.047004	0.19608	0.3002	0.17523	0.22222	0.12062	0.036205	0.17474	0.20149	0.11929	0.10502	0.11602	0.16325	0.2019	-2.7042	-3.2021	-3.1583	-2.9688	-3.2687	-3.1646	-3.2979	-3.3604	-2.8833	-3.2167	-3.3583	-3.0708	-3.3646	-3.2729	-2.9875	-3.3521	13.663	-94.221	-111.363	159.367	-153.889	167.568	124.888	163.285	-115.820	59.867	-155.281	64.608	99.595	-161.599	-53.369	-33.598	0.0005987	0.00084844	0.00012868	1377.7	6.4832e-06	5.6914e-06	1372.5	371.21	4.0774e-06	2.8457e-06	424.21	141.63	123.67	42.404	5.638e-06	52.388	0.00054951	0.00056826	0.00014391	1384.2	6.0246e-06	6.0638e-06	1385.4	374.47	5.9535e-06	5.852e-06	425.62	142.78	125.14	43.062	5.0814e-06	52.55	-95.742	-79.181	-37.266	-157.523	-92.187	-17.176	-157.693	-152.918	-72.356	-23.074	-153.416	-149.110	-148.645	-144.091	26.938	-144.905	-8191	255	
1100.016	1	1	0	0	0.040713	0.22529	0.25458	0.49909	0.20711	0.067794	0.14968	0.10143	0.2049	0.17561	0.23689	0.072994	0.055902	0.029533	0.33785	0.2243	-2.6229	-2.9	-3.2354	-3.0625	-3.2167	-3.2229	-3.1229	-3.3646	-3.0354	-3.0292	-3.3354	-3.0583	-3.3833	-3.1625	-2.9375	-3.3937	-73.561	111.242	-5.021	159.625	67.014	44.178	122.215	118.565	-25.581	59.545	-129.303	185.091	-57.316	-149.649	136.629	175.268	0.00056393	0.00067471	7.6571e-05	1375.7	1.9716e-06	7.2814e-06	1372.8	369.88	2.9664e-06	4.5081e-06	422.85	141.08	123.03	42.185	4.2045e-06	52.011	0.00050449	0.0004695	0.00011856	1372.9	5.1801e-06	4.7529e-06	1368	370.84	4.894e-06	4.4691e-06	416.64	140.67	122.23	42.142	4.008e-06	51.821	-87.676	-106.721	-14.463	-157.552	140.231	-80.456	-157.694	-152.920	104.530	40.804	-153.224	-149.202	-148.633	-143.982	25.931	-144.860	-8191	255	
1100.113	1	1	0	0	0.15788	0.30281	0.12769	0.34696	0.1285	0.24858	0.42389	0.19816	0.08855	0.12573	0.21982	0.19757	0.23324	0.20715	0.17836	0.20694	-2.7687	-2.9854	-3.275	-3.1479	-3.0979	-3.2375	-3.0229	-3.5229	-3.0271	-2.9958	-3.2917	-3.0521	-3.2042	-3.2479	-2.9375	-3.2583	173.628	176.882	-58.853	137.081	-56.391	-67.449	141.499	142.914	139.558	188.151	-141.667	57.221	-170.599	-166.805	-132.651	59.995	0.00040194	0.00076217	6.4022e-05	1367.4	9.9024e-07	4.7617e-06	1361.6	370.84	3.0934e-06	6.5635e-06	421.05	140.94	122.8	42.178	4.0663e-06	52.284	0.00042185	0.00038577	0.00010042	1362.4	4.6521e-06	4.1992e-06	1356.1	370.13	4.6225e-06	4.2405e-06	414.55	141.31	122.02	42.103	4.0739e-06	52.321	-77.712	-125.660	52.738	-157.546	119.958	14.169	-157.704	-152.820	-50.881	33.139	-153.222	-149.327	-148.484	-144.015	-45.420	-144.660	-8191	255	
1100.209	1	1	0	0	0.095948	0.19977	0.24723	0.45438	0.18517	0.16785	0.13653	0.098548	0.14396	0.20233	0.064299	0.22643	0.13048	0.091382	0.087992	0.26999	-2.7771	-2.9313	-3.325	-3.1646	-3.1937	-3.2333	-3.1833	-3.5771	-3.0771	-2.9062	-3.6229	-3.2188	-3.2062	-3.3458	-3.0271	-3.3021	12.399	-111.788	75.193	143.232	-130.588	-21.676	-166.012	141.320	-47.880	132.064	115.175	128.111	-168.871	-128.667	98.507	176.147	0.00048583	0.0003632	0.00011066	1368.7	5.6453e-06	4.1552e-06	1367.1	371.13	6.8805e-06	2.5088e-06	422.62	141.68	123.15	42.577	2.0276e-06	52.579	0.00042555	0.00039572	0.00010489	1371.4	4.6712e-06	4.3115e-06	1362.5	372.72	4.6695e-06	4.3691e-06	417.92	142.3	122.46	42.331	4.3653e-06	52.747	-83.759	-52.722	-139.237	-157.649	-7.259	-74.340	-157.756	-152.973	32.413	-13.692	-153.701	-149.056	-148.477	-144.122	-86.385	-144.838	-8191	255	
1100.305	1	1	0	0	0.19995	0.21554	0.13969	0.12206	0.039807	0.19815	0.21888	0.23248	0.19785	0.27314	0.12075	0.20212	0.17696	0.25081	0.29473	0.14397	-2.7708	-2.825	-3.2146	-3.1875	-2.9854	-3.3271	-3.2583	-3.2646	-3.225	-3.125	-3.4688	-3.2042	-3.1979	-3.4458	-2.8854	-3.2625	155.577	95.965	96.619	-43.572	57.673	127.786	108.487	137.490	-30.852	-24.997	153.997	-138.785	149.881	-168.058	-63.710	-168.223	0.0004769	0.0003811	0.00019842	1372.6	3.6858e-06	5.2667e-06	1368.6	370.08	3.2073e-06	2.4344e-06	422.84	141.48	123.3	42.288	4.3887e-06	52.38	0.00041527	0.00039058	0.00010919	1374.3	4.427e-06	4.082e-06	1366.3	372.08	4.3171e-06	4.091e-06	419.23	142.13	121.77	42.108	4.4813e-06	52.516	-77.850	-132.848	-162.640	-157.633	-61.557	-167.966	-157.736	-152.921	13.938	52.218	-153.362	-149.210	-148.751	-143.965	-107.743	-144.733	-8191	255	
1100.401	1	1	0	0	0.084148	0.2293	0.1846	0.36584	0.16855	0.090497	0.11378	0.36723	0.1075	0.079475	0.33443	0.34423	0.19942	0.31495	0.23948	0.076004	-2.8167	-2.75	-3.2271	-3.1562	-2.9062	-3.35	-3.1333	-3.3854	-3.2604	-3.1437	-3.0812	-3.1208	-3.0125	-3.5187	-2.8979	-3.2812	53.347	-63.972	26.160	129.421	92.797	87.759	-156.824	138.973	-62.356	120.498	179.440	169.626	129.481	184.011	174.455	-169.906	0.00039827	0.00027132	6.908e-05	1374	3.2988e-06	4.159e-06	1372.1	371.11	1.0042e-05	6.6742e-06	423.4	142.23	123.49	42.345	3.9101e-06	52.367	0.00039246	0.00036968	0.00011452	1373	4.2963e-06	4.015e-06	1372.2	372.4	4.2351e-06	4.1254e-06	421.67	142.14	121.96	42.261	4.8865e-06	52.564	-87.614	23.894	-158.861	-157.598	-96.158	-100.020	-157.588	-153.101	20.770	-44.159	-153.482	-148.962	-148.591	-144.021	-149.143	-144.732	-8191	255	
1100.497	1	1	0	0	0.14983	0.1469	0.35448	0.24827	0.16963	0.31832	0.31194	0.15287	0.15832	0.11877	0.21773	0.1465	0.1098	0.04305	0.10232	0.12644	-2.9292	-2.9562	-3.3688	-3.1917	-2.9333	-3.3542	-3.4292	-3.1875	-3.3812	-3.225	-3.3458	-3.3604	-2.9542	-3.3812	-3.0917	-3.0938	155.499	125.877	5.885	-155.280	-33.005	182.909	142.335	142.403	59.027	85.010	117.644	144.115	148.122	-30.412	117.335	-90.764	0.00050496	4.3458e-05	4.0077e-05	1373.1	5.8119e-07	3.7465e-06	1381.3	372.32	4.5621e-06	2.077e-06	424.18	142.53	124.05	42.591	2.147e-06	52.668	0.00040018	0.00039598	0.00012813	1375.8	4.4883e-06	4.4375e-06	1384.4	373.85	4.4799e-06	4.6204e-06	425.7	142.97	122.92	42.762	5.3733e-06	52.857	-72.045	58.304	-48.964	-157.510	-138.376	-150.571	-157.697	-152.902	67.216	-82.586	-153.684	-149.167	-148.513	-144.115	-33.701	-144.765	-8191	255	
1100.616	1	1	0	0	0.23762	0.12956	0.14113	0.19567	0.073472	0.10839	0.26786	0.57308	0.027922	0.093443	0.22411	0.31304	0.16915	0.2041	0.19818	0.18498	-3.0187	-2.8458	-3.2833	-3.1292	-3.0333	-3.3292	-3.35	-3.1896	-3.2604	-3.1396	-3.2292	-3.1875	-3.0646	-3.3771	-3.0521	-3.2083	-164.462	62.096	184.462	111.647	181.727	-5.709	162.546	147.062	-6.501	-91.461	-135.596	155.600	88.807	-111.520	42.534	111.784	0.0004607	0.00083811	0.00012416	1380.6	5.6675e-06	3.6729e-06	1376.7	373.6	2.4053e-06	1.2975e-06	424.9	142.73	124.28	42.687	4.7264e-06	52.64	0.00041683	0.00044764	0.00013749	1381.5	4.62e-06	4.9731e-06	1387.8	375.12	4.5793e-06	5.1352e-06	427.38	143.39	123.23	43.139	5.4037e-06	52.923	-90.005	143.203	-6.215	-157.370	8.826	-118.431	-157.705	-152.988	14.096	79.656	-153.406	-148.948	-148.524	-144.022	-0.080	-144.687	-8191	255	
1100.712	1	1	0	0	0.19417	0.17481	0.15794	0.24906	0.13722	0.13513	0.20012	0.35863	0.12302	0.12376	0.16167	0.063621	0.16998	0.32332	0.065196	0.089327	-2.925	-2.9625	-3.2812	-3.4646	-3.0563	-3.3979	-3.375	-3.0958	-3.2812	-3.0875	-3.2479	-3.4208	-2.9562	-3.4917	-3.2313	-3.0625	148.036	-23.791	160.964	136.608	-60.901	56.896	153.720	154.320	114.436	1.852	-12.013	175.602	13.863	-156.980	-135.558	166.718	0.00047599	0.00045517	0.00020161	1385.1	1.286e-06	4.0124e-06	1378.5	373.49	5.626e-06	1.0559e-06	426.45	142.93	124.49	42.673	6.261e-06	52.814	0.00042444	0.00048923	0.00013714	1383.5	4.7548e-06	5.4592e-06	1387	374.8	4.7434e-06	5.5687e-06	427.76	143.41	123.95	43.43	5.2834e-06	52.973	-85.512	179.646	6.241	-157.758	-43.060	108.182	-157.819	-152.931	-66.820	-135.994	-153.329	-149.103	-148.560	-144.216	-41.017	-145.022	-8191	255	
1100.808	1	1	0	0	0.17814	0.25426	0.16914	0.0010508	0.14079	0.24904	0.28315	0.20534	0.26642	0.16177	0.13018	0.13269	0.33484	0.31026	0.1901	0.27853	-2.9104	-3.0104	-3.0292	-3.4333	-2.85	-3.1771	-3.4896	-3.3	-3.3438	-2.975	-3.1917	-3.5417	-3.0687	-3.3063	-3.0938	-3.2271	-5.154	24.558	141.200	180.000	-14.561	-54.648	115.627	102.189	102.521	171.812	-168.503	113.251	-141.890	-169.073	-43.190	88.224	0.00045324	0.00028333	0.00016189	1379	5.8461e-06	6.1882e-06	1378.6	372.58	3.0593e-06	4.4668e-06	424.38	143.12	124.59	42.671	3.1191e-06	52.818	0.00044444	0.00051411	0.00013314	1381	4.9357e-06	5.64e-06	1386.6	374.53	4.9328e-06	5.5671e-06	425.05	143.16	124.48	43.335	4.8756e-06	52.75	-89.650	-166.117	32.090	-157.690	-84.490	-45.715	-157.673	-152.993	-113.309	-36.884	-153.540	-149.107	-148.701	-144.141	2.724	-144.850	-8191	255	
1100.904	1	1	0	0	0.087092	0.11348	0.087828	0.46332	0.078931	0.33709	0.17472	0.29284	0.20529	0.072205	0.103	0.13689	0.13644	0.17339	0.12618	0.16701	-3.1542	-3.0938	-3.1833	-3.5521	-3.0542	-3.1208	-3.4125	-3.2979	-3.4146	-3.1958	-3.0458	-3.4104	-3.0833	-3.2146	-3.3604	-3.1229	33.143	66.780	148.311	156.664	-107.567	160.255	120.057	167.719	-128.629	-7.081	76.511	147.376	185.584	117.008	-37.971	143.450	0.00056471	0.00092767	7.5514e-05	1385.5	5.7637e-06	4.714e-06	1379.4	373.02	2.6778e-06	3.1868e-06	424.83	142.58	124.32	42.732	1.3456e-06	52.758	0.00045101	0.0004823	0.00012178	1379.7	4.9467e-06	5.1704e-06	1382.1	373.06	4.8975e-06	5.0206e-06	422.07	142.15	124.29	42.988	4.4726e-06	52.459	-88.047	-68.610	-39.666	-157.581	-92.836	-28.600	-157.715	-152.761	-26.233	-18.077	-153.484	-149.219	-148.722	-144.057	162.859	-144.977	-8191	255	
1101.001	1	1	0	0	0.2237	0.38409	0.089762	0.1754	0.076598	0.055962	0.20437	0.38861	0.12639	0.26254	0.2395	0.19232	0.13464	0.06971	0.23714	0.10076	-2.85	-3.0479	-3.0771	-3.6083	-3.0458	-3.2125	-3.5479	-2.9875	-3.2417	-3.0583	-3.15	-3.4	-3.1083	-3.2479	-3.2917	-2.8917	-14.717	-10.885	-19.004	112.162	-139.480	-109.160	127.657	104.072	55.932	160.948	72.033	160.539	-104.727	120.418	37.461	-22.190	0.00052655	0.00069038	0.00015615	1383.4	6.4834e-07	2.896e-06	1375.8	372.84	6.826e-06	4.6614e-06	425.63	142.39	124.16	42.496	2.592e-06	52.661	0.00044935	0.00043507	0.00011222	1377.7	4.873e-06	4.6873e-06	1375.9	372.67	4.8687e-06	4.5655e-06	419.98	141.98	123.95	42.742	4.1815e-06	52.396	-88.897	-117.517	-118.357	-157.606	144.741	-24.560	-157.762	-152.961	-71.572	-10.027	-153.412	-149.058	-148.678	-144.201	24.470	-144.980	-8191	255	
1101.097	1	1	0	0	0.034876	0.12615	0.063262	0.34268	0.28622	0.2079	0.41137	0.13234	0.26353	0.30259	0.11994	0.25185	0.18529	0.10243	0.13517	0.35083	-2.8917	-3.2167	-2.7521	-3.4521	-2.8354	-3.0958	-3.3958	-3.2146	-3.2208	-3.2979	-2.9437	-3.3458	-3.0917	-3.2208	-3.3083	-3.1521	-128.195	-150.790	-70.779	161.454	125.579	-33.253	144.207	-112.107	125.174	64.317	-145.620	144.133	148.964	168.748	147.385	125.427	0.00050929	0.00073722	0.00010333	1382.8	7.0675e-06	6.7087e-06	1380.7	373.75	4.2761e-06	5.8129e-06	423.2	142.85	123.47	42.517	6.1267e-06	52.56	0.00044254	0.00040215	0.000106	1376.4	4.7938e-06	4.3957e-06	1372.7	372.67	4.7553e-06	4.3416e-06	417.8	142.22	123.4	42.52	3.9957e-06	52.514	-70.625	-100.342	-34.752	-157.533	-10.483	-1.787	-157.831	-152.906	-34.292	57.177	-153.535	-149.267	-148.635	-143.850	-68.194	-144.824	-8191	255	
1101.217	1	1	0	0	0.13352	0.10896	0.1412	0.062719	0.14391	0.027363	0.13809	0.28062	0.17252	0.074131	0.10851	0.1367	0.18158	0.11345	0.072047	0.22956	-2.6875	-3.3	-2.8854	-3.5167	-3.0958	-2.9479	-3.5333	-3.1188	-3.1646	-3.3021	-3.0875	-3.3167	-3.3583	-3.1937	-3.3979	-3.3354	-83.032	69.279	61.709	175.340	-57.155	-11.103	86.476	141.987	-124.257	117.595	-134.582	188.399	-75.629	53.998	175.338	148.078	0.00043239	0.00065572	6.1396e-05	1380.1	3.256e-06	5.6646e-06	1376.1	371.76	4.9378e-06	2.6793e-06	424.98	141.74	123.56	42.353	4.1058e-06	52.419	0.00042582	0.00038384	0.00010252	1376.3	4.5304e-06	4.2009e-06	1367.2	372.29	4.4682e-06	4.0507e-06	416.59	142.09	122.25	42.236	3.8813e-06	52.395	-89.907	-122.393	-18.069	-157.605	15.739	-66.752	-157.724	-152.934	24.145	-114.842	-153.613	-149.128	-148.804	-144.019	-129.771	-144.930	-8191	255	
1101.314	1	1	0	0	0.23715	0.12298	0.26629	0.21201	0.14433	0.17339	0.30405	0.16917	0.13951	0.077717	0.12285	0.18939	0.21354	0.2199	0.15102	0.14527	-2.825	-3.2604	-2.9271	-3.4813	-3.3104	-3.1937	-3.6083	-3.2667	-3.2104	-3.4583	-3.0438	-3.3354	-3.1208	-3.0417	-3.275	-3.0292	-100.412	-167.010	135.521	125.069	-62.563	-14.641	118.532	126.945	98.144	-70.828	-152.848	111.100	107.443	144.334	-77.788	27.620	0.00052842	0.00038175	8.6968e-05	1371.5	1.1263e-06	6.7786e-06	1372	370.61	4.7626e-06	4.4996e-06	421.11	141.98	123.25	42.16	3.9168e-06	52.378	0.00038995	0.00035687	0.0001	1370.2	4.1338e-06	3.8904e-06	1363.7	371.19	4.1009e-06	3.7996e-06	416.12	141.78	121.29	41.99	4.0622e-06	52.344	-77.730	-98.215	-134.764	-157.534	-24.952	-68.975	-157.858	-153.044	2.010	-1.718	-153.374	-149.074	-148.506	-143.907	-53.331	-144.720	-8191	255	
1101.410	1	1	0	0	0.14536	0.14549	0.032184	0.24856	0.20869	0.12561	0.09917	0.22705	0.034174	0.098235	0.1057	0.12746	0.20349	0.18517	0.099857	0.13574	-2.6792	-3.3063	-2.8896	-3.4313	-3.2771	-3.0667	-3.4417	-3.2896	-3.0062	-3.3375	-2.9833	-3.3542	-3.2438	-3.0125	-3.3812	-3.2313	15.792	-145.512	-159.917	175.836	12.922	-121.538	-48.945	151.850	129.914	12.778	181.848	102.366	-170.309	-21.510	31.775	-126.064	0.00053276	0.0006058	7.5863e-05	1371	6.6276e-06	3.415e-06	1366.4	369.05	4.8126e-06	2.604e-06	422.18	141.43	123.41	42.441	8.212e-06	52.294	0.00037742	0.00034774	0.00010714	1369.8	4.0539e-06	3.8568e-06	1367.3	370.33	4.1119e-06	3.8169e-06	417.79	141.45	121.17	42.036	4.3951e-06	52.139	-80.582	-76.215	-107.749	-157.545	-55.324	-67.793	-157.615	-152.911	-34.688	29.523	-153.542	-149.250	-148.544	-144.149	-103.636	-144.780	-8191	255	
1101.506	1	1	0	0	0.26799	0.21137	0.038656	0.14122	0.21769	0.19325	0.30325	0.27149	0.08993	0.12021	0.27754	0.13207	0.19121	0.13415	0.062195	0.22639	-2.8354	-3.3875	-3.125	-3.2792	-3.3021	-2.9042	-3.45	-3.2354	-3.1896	-3.2708	-3.15	-3.2229	-3.3729	-2.9979	-3.2042	-3.0812	39.550	46.052	-75.195	129.639	78.844	-18.141	124.646	115.879	134.956	3.341	37.718	168.747	186.183	149.116	1.477	142.465	0.0004456	0.00068102	1.982e-05	1368.5	2.4869e-06	6.0494e-06	1371.7	369.13	1.8234e-06	4.7481e-06	421.73	141.49	123	42.208	1.6188e-06	52.109	0.00037003	0.00034669	0.00011296	1365.6	3.9259e-06	3.8208e-06	1369.1	369.13	3.8821e-06	3.7921e-06	418.06	140.7	120.36	41.974	4.4088e-06	51.87	-91.103	-142.204	-159.321	-157.630	23.993	-87.832	-157.586	-153.043	-0.651	-23.840	-153.682	-149.102	-148.544	-143.927	-82.993	-144.872	-8191	255	
1101.600	1	1	0	0	0.15549	0.057322	0.049772	0.28078	0.10248	0.11886	0.21151	0.23107	0.2481	0.20675	0.21038	0.073833	0.039656	0.15865	0.17649	0.17986	-2.6521	-3.1833	-3.05	-3.1063	-3.2875	-3.0875	-3.5667	-3.3042	-2.6854	-3.4188	-3.2167	-3.1292	-3.3417	-3.0563	-3.3417	-3.3896	-37.871	5.539	-5.957	-134.286	154.530	11.093	166.256	160.981	39.438	89.049	74.545	55.958	-161.095	176.694	134.077	61.298	0.00042046	0.00030236	1.6869e-05	1368.7	4.189e-06	3.3201e-06	1368.6	369.79	5.1761e-06	2.1157e-06	422.54	141.2	122.79	42.302	2.4164e-06	52.232	0.00035556	0.00035685	0.00011347	1363.2	3.7782e-06	4.0153e-06	1366.1	368.72	3.7995e-06	4.0422e-06	418.3	140.73	120.05	42.145	4.4217e-06	51.698	-77.899	119.908	-160.122	-157.480	-17.854	-49.978	-157.503	-153.013	-33.479	-14.736	-153.378	-149.208	-148.563	-144.166	-58.847	-144.778	-8191	255	
1101.696	1	1	0	0	0.18132	0.10988	0.26949	0.23758	0.13046	0.086951	0.12526	0.207	0.15222	0.11147	0.35223	0.07976	0.42432	0.12706	0.036421	0.29276	-2.4604	-3.3354	-3.1083	-3.3021	-3.3208	-3.0542	-3.2354	-3.3396	-2.9958	-3.2271	-3.2396	-3.1188	-3.3875	-3.1312	-3.0604	-3.4	33.598	-51.684	-130.299	186.890	-155.669	-89.371	102.832	135.823	-143.033	96.799	98.677	170.014	122.172	156.384	140.054	154.364	0.00050866	0.0001146	0.00020791	1368.8	5.5112e-06	2.515e-06	1366	370.9	2.8789e-06	5.584e-06	422	141.28	122.76	42.163	5.9247e-07	52.279	0.00034591	0.00038078	0.00011133	1360.7	3.7078e-06	4.2346e-06	1363.2	368.29	3.7219e-06	4.2821e-06	416.58	140.18	120.13	42.221	4.1803e-06	51.583	-84.316	96.335	-16.544	-157.462	-32.643	-70.535	-157.787	-152.886	-61.858	-43.157	-153.646	-149.062	-148.619	-144.036	-92.775	-144.886	-8191	255	
1101.793	1	1	0	0	0.14136	0.14836	0.29992	0.31765	0.18474	0.26977	0.35101	0.15689	0.058399	0.26469	0.16496	0.1742	0.13354	0.16765	0.059743	0.091263	-2.4938	-3.2604	-3.1604	-3.0062	-3.1521	-3.0312	-3.3604	-3.2979	-2.7	-3.275	-3.1833	-2.9729	-3.2125	-3.0708	-3.0625	-3.3063	133.180	-81.061	-31.899	-160.020	143.983	-70.239	147.887	22.124	4.278	-120.429	125.291	105.761	-83.561	81.624	-87.107	-81.939	0.0004187	0.00024459	0.00013944	1367.2	1.123e-06	6.2744e-06	1368.1	369.47	9.5834e-06	2.9822e-06	421.12	141.59	123.02	42.181	5.2703e-06	52.314	0.00034466	0.00039555	0.00010488	1357.2	3.7375e-06	4.3509e-06	1360.4	367.19	3.8032e-06	4.3523e-06	414.77	140.05	120.52	42.217	3.9859e-06	51.416	-84.328	121.922	-40.760	-157.469	-68.255	-86.902	-157.779	-152.915	-41.264	-2.777	-153.455	-149.026	-148.463	-143.972	27.420	-144.919	-8191	255	
1101.913	1	1	0	0	0.043261	0.26242	0.041919	0.22683	0.15416	0.17474	0.21154	0.035782	0.064932	0.11032	0.17167	0.10067	0.1074	0.045606	0.13089	0.08529	-2.5354	-3.2375	-3.1562	-3.1208	-3.4083	-2.9833	-3.4208	-3.5312	-2.925	-3.4229	-3.3167	-3.0333	-3.4062	-2.9958	-3.2146	-3.3542	-114.065	136.189	2.575	150.954	-123.837	74.945	-169.026	133.781	165.757	136.616	-97.394	108.643	125.882	-90.052	159.502	125.619	0.0004646	0.00010781	0.0001346	1366.3	3.6081e-06	4.218e-06	1364.2	369.65	8.7944e-06	2.7957e-06	419.76	141.25	122.67	42.213	2.2718e-06	52.08	0.00035772	0.00039303	9.9129e-05	1356.8	3.8988e-06	4.2906e-06	1358.3	366.84	4.0513e-06	4.2966e-06	412.88	139.69	120.77	42.204	3.898e-06	51.454	-89.464	149.494	1.392	-157.519	-37.227	49.933	-157.565	-153.016	-30.432	30.435	-153.443	-149.081	-148.597	-144.176	-32.156	-144.966	-8191	255	
1102.009	1	1	0	0	0.16591	0.057214	0.18894	0.18821	0.033541	0.078744	0.44262	0.2528	0.10257	0.071739	0.090427	0.16405	0.081003	0.31859	0.096028	0.20874	-2.55	-3.3292	-3.15	-3.1646	-3.1604	-3.1688	-3.2104	-3.3833	-2.9917	-3.2104	-3.4708	-3.0687	-3.3375	-3.0771	-2.7333	-3.3833	118.608	168.682	27.877	116.546	-115.386	-89.391	132.581	128.342	184.095	32.727	74.520	-170.168	-168.352	133.261	133.496	171.799	0.00053343	0.00058021	0.00018248	1364.6	5.2881e-06	8.2281e-06	1367.6	370.04	1.4567e-06	2.6509e-06	421.77	140.89	122.83	42.167	2.1899e-06	52.057	0.00038472	0.0003902	9.8462e-05	1356.8	4.2496e-06	4.1729e-06	1359	367.05	4.2971e-06	4.1694e-06	413.83	139.81	121.42	42.07	3.8177e-06	51.521	-95.832	-91.403	-56.670	-157.632	-54.948	-6.599	-157.582	-152.940	-79.477	21.708	-153.709	-149.072	-148.722	-144.129	38.847	-144.838	-8191	255	
1102.081	1	1	0	0	0.22106	0.42239	0.13459	0.448	0.11068	0.22637	0.22805	0.33149	0.23457	0.13711	0.26897	0.11544	0.10584	0.042148	0.086905	0.24142	-2.4792	-2.95	-3.3375	-3.1708	-3.1417	-3.2354	-3.2396	-3.4688	-3.1063	-3.0021	-3.3917	-3.1	-3.4708	-3.3292	-2.9313	-3.4062	-86.789	-97.859	-28.308	161.669	133.470	-132.100	135.797	148.945	142.665	-76.666	125.918	75.984	-77.289	77.162	163.150	111.768	0.00043508	0.00075125	9.1908e-05	1367.9	5.3101e-06	3.8302e-06	1363.4	369.95	4.5267e-06	7.5316e-06	419.51	140.64	122.89	42.315	5.522e-06	52.044	0.00039956	0.0003701	9.5663e-05	1359	4.3551e-06	4.0164e-06	1358.5	367.94	4.3878e-06	4.0015e-06	412.57	140.48	121.65	42.04	3.7466e-06	51.655	-92.205	-84.255	-23.046	-157.458	-1.990	-6.272	-157.661	-153.001	-68.580	-24.296	-153.385	-148.990	-148.620	-144.229	32.647	-145.015	-8191	255	
1102.177	1	1	0	0	0.1999	0.13475	0.08217	0.19555	0.074264	0.043654	0.14814	0.19581	0.142	0.039044	0.18087	0.23015	0.065752	0.12498	0.20766	0.25113	-2.7042	-3.1333	-3.3125	-3.2479	-3.2146	-3.2458	-3.0833	-3.2833	-3.0312	-2.8312	-3.2583	-3.025	-3.1792	-3.4271	-2.8688	-3.3708	-95.462	-88.611	-129.700	-141.440	-105.064	-115.740	155.178	119.832	121.690	-73.229	139.921	171.549	53.750	-49.085	123.978	120.494	0.00047975	0.00049739	6.1027e-05	1365.6	7.0016e-06	1.921e-06	1362.9	368.79	2.9786e-06	4.9462e-06	420.34	141.25	123.46	42.31	7.764e-06	52.076	0.00039972	0.00036086	9.3427e-05	1360	4.3321e-06	3.9284e-06	1355.8	368.39	4.2908e-06	3.9624e-06	412.71	141.01	121.53	41.98	3.8307e-06	52	-82.469	-145.323	-31.344	-157.581	1.831	-72.483	-157.680	-153.047	-21.109	-7.919	-153.610	-149.156	-148.676	-144.185	-40.565	-145.222	-8191	255	
1102.298	1	1	0	0	0.027794	0.063618	0.15416	0.25809	0.064441	0.18567	0.094858	0.16702	0.29236	0.072553	0.19965	0.20969	0.10748	0.10563	0.10185	0.078054	-2.6542	-2.9583	-3.2479	-3.1917	-3.2417	-3.2708	-3.0917	-3.3875	-3.0583	-2.7854	-3.275	-3.1271	-3.0292	-3.3812	-2.7854	-3.4354	-54.850	-45.792	-153.245	151.389	17.641	120.160	-146.387	-123.611	40.903	-169.104	72.576	-59.142	161.183	156.666	39.945	139.312	0.0004403	0.0004096	7.974e-05	1368.8	6.1708e-06	6.0589e-06	1367.6	369.98	3.4767e-06	1.1626e-06	420.86	141.02	123.03	42.057	6.7708e-07	52.085	0.00039486	0.00036552	9.7309e-05	1365.6	4.2943e-06	3.9053e-06	1357.7	369.6	4.1897e-06	3.9316e-06	413.01	141.15	121.05	41.799	4.0047e-06	51.994	-81.243	-114.104	-58.575	-157.649	30.381	-27.929	-157.805	-153.008	5.262	136.018	-153.382	-149.185	-148.488	-144.021	-58.663	-145.032	-8191	255	
1102.394	1	1	0	0	0.12003	0.38856	0.21693	0.070481	0.13241	0.19471	0.31272	0.21227	0.21707	0.038595	0.23467	0.21802	0.32297	0.065353	0.040533	0.10835	-2.7604	-2.8229	-3.3375	-3.2521	-2.95	-3.1792	-3.1708	-3.2146	-3.2958	-2.8729	-3.2979	-3.075	-3.0375	-3.4083	-3.0271	-3.3667	12.607	-153.246	-97.235	164.730	-122.118	69.210	185.954	176.465	146.031	-157.103	-160.776	145.867	-132.254	-62.550	-134.311	-9.129	0.00041621	0.0004217	0.00024048	1364	3.352e-06	1.5632e-06	1362.9	369.8	2.8953e-06	4.6452e-06	420.99	140.41	122.39	41.981	3.1618e-06	52.019	0.00037506	0.00035222	0.00010084	1361.4	4.0372e-06	3.7701e-06	1356.6	368.91	3.9687e-06	3.7691e-06	414.13	140.72	120.22	41.628	4.1622e-06	51.812	-81.855	-87.249	-111.950	-157.520	6.945	69.685	-157.546	-152.928	-59.436	-47.254	-153.410	-148.954	-148.740	-143.942	-97.447	-144.819	-8191	255	
1102.490	1	1	0	0	0.12717	0.19021	0.21224	0.09219	0.23994	0.10168	0.15826	0.13308	0.0311	0.036731	0.14727	0.26624	0.019804	0.31957	0.1734	0.15316	-2.7812	-2.825	-3.2687	-3.1479	-2.9562	-3.2812	-3.0646	-3.3417	-3.075	-2.9333	-3.3542	-3.2562	-3.0187	-3.5396	-3.0854	-3.275	-40.270	134.859	81.672	95.036	183.994	-45.963	149.272	122.342	-7.653	-72.017	95.368	179.467	8.657	165.339	-38.006	163.744	0.00047616	0.00042903	0.00010972	1360.5	1.5751e-06	1.6038e-06	1366.2	368.54	3.7454e-06	3.2842e-06	418.86	140.08	122.72	41.759	5.5687e-06	52.015	0.00035735	0.00034104	0.00010694	1359.1	3.943e-06	3.6998e-06	1360.7	368.27	3.9113e-06	3.8236e-06	416.03	140.12	120.24	41.631	4.5439e-06	51.727	-83.336	180.639	16.751	-157.494	33.731	-43.014	-157.594	-152.799	-14.510	-29.198	-153.444	-148.965	-148.370	-143.942	-111.889	-144.935	-8191	255	
1102.609	1	1	0	0	0.065315	0.12904	0.14571	0.19722	0.051259	0.14846	0.22112	0.20185	0.088228	0.051513	0.27946	0.16768	0.12717	0.25733	0.17881	0.36936	-2.6646	-2.9646	-3.3	-3.2	-2.9896	-3.3729	-3.2	-3.3396	-3.2271	-2.8688	-3.4125	-3.4125	-2.7833	-3.3187	-3.0521	-3.1729	12.047	-30.873	-94.988	178.609	-121.096	40.921	126.927	62.086	-151.236	-122.250	-86.576	172.009	97.049	-130.364	90.979	134.506	0.00049347	0.00056175	0.00012828	1361.3	5.0824e-06	4.1065e-06	1363.3	368.37	4.8504e-06	5.9387e-06	419.07	140.99	122.41	41.928	4.7425e-06	51.896	0.00036712	0.00036609	0.0001173	1359.7	4.0447e-06	4.0848e-06	1365.6	367.82	4.0063e-06	4.1928e-06	418.35	140.38	120.18	41.916	4.6786e-06	51.693	-78.051	162.912	-41.654	-157.576	36.528	-154.453	-157.554	-152.926	59.754	-101.500	-153.358	-148.997	-148.473	-144.026	-15.298	-144.767	-8191	255	
1102.681	1	1	0	0	0.19541	0.084015	0.10695	0.055493	0.20741	0.16781	0.1926	0.29193	0.23159	0.13225	0.34954	0.19762	0.11957	0.065121	0.05608	0.13913	-3.1333	-2.9375	-3.2479	-3.4396	-2.9042	-3.2375	-3.3229	-3.2771	-3.3292	-2.8937	-3.1646	-3.2396	-2.8875	-3.3771	-3.125	-3.0458	-71.362	49.647	-43.810	-61.213	126.625	52.022	104.976	188.544	-94.167	181.257	155.571	-152.158	161.374	53.398	-157.857	93.557	0.00050927	0.00016831	0.00015638	1360.9	3.9087e-06	7.3036e-06	1365.5	367.54	4.6463e-06	3.4231e-06	420.39	140.86	122.16	42.117	3.0862e-06	51.934	0.0003599	0.00038758	0.00011642	1357.2	3.8802e-06	4.2231e-06	1361.2	367.28	3.7602e-06	4.2825e-06	416.31	139.61	119.72	41.981	4.3379e-06	51.383	-87.727	148.259	8.884	-157.608	16.229	-155.276	-157.678	-152.933	-60.257	-35.336	-153.429	-148.972	-148.500	-144.141	-13.814	-144.863	-8191	255	
1102.779	1	1	0	0	0.11881	0.16509	0.034041	0.12885	0.17173	0.15824	0.06304	0.096999	0.11657	0.14526	0.37994	0.12184	0.16421	0.07808	0.24091	0.19023	-2.9896	-3.0792	-3.1417	-3.4417	-2.8896	-3.35	-3.2667	-3.2729	-3.25	-3.0354	-3.1	-3.2938	-2.9813	-3.4333	-3.3083	-3.2208	-129.272	-64.787	117.247	-138.752	-110.256	139.782	-146.070	167.717	156.487	14.581	-162.207	89.702	97.803	10.439	-9.318	83.596	0.00053333	0.00017476	0.00014407	1358.2	2.756e-06	2.6501e-06	1361.7	368.79	2.4382e-06	5.9962e-06	421.05	141.03	122.43	42.036	5.495e-06	51.799	0.00034651	0.00039566	0.00010903	1351.9	3.7929e-06	4.3576e-06	1357.9	366.35	3.7456e-06	4.4079e-06	414.7	139.47	119.67	42	4.0848e-06	51.241	-90.460	109.189	-52.450	-157.615	6.092	-132.757	-157.753	-152.988	-49.144	-162.044	-153.453	-149.020	-148.416	-144.090	3.287	-144.750	-8191	255	
1102.897	1	1	0	0	0.21218	0.079732	0.21683	0.33459	0.1238	0.30556	0.11107	0.2753	0.1419	0.10295	0.14515	0.21484	0.092265	0.28898	0.073349	0.10582	-2.8438	-2.9208	-3.1646	-3.5979	-3.0646	-3.1604	-3.4917	-3.1771	-3.2562	-3.0646	-3.0271	-3.3479	-2.8875	-3.2604	-3.3271	-3.0167	-92.474	102.689	-62.074	134.701	-49.197	-166.122	168.608	164.149	74.730	134.452	-79.825	147.908	89.532	148.503	82.841	-30.950	0.00051638	0.00042155	0.00011583	1359.5	8.9498e-06	3.1506e-06	1363.1	367.17	4.5445e-06	5.995e-06	418.04	140.15	121.79	41.983	2.7817e-06	51.93	0.00035282	0.00040137	0.00010262	1350.2	3.9114e-06	4.4035e-06	1355.3	365.38	3.9284e-06	4.3396e-06	412.7	138.77	119.91	41.961	3.8881e-06	51.179	-81.277	-147.571	-16.775	-157.566	-79.945	-53.709	-157.681	-152.806	-66.314	17.991	-153.443	-148.984	-148.656	-143.924	-26.851	-144.857	-8191	255	
1102.994	1	1	0	0	0.39712	0.068515	0.13282	0.14201	0.21406	0.14347	0.2781	0.28095	0.11498	0.36212	0.15139	0.24906	0.14208	0.31184	0.22255	0.37935	-2.8396	-3.0312	-3.0354	-3.6292	-3.0708	-3.2	-3.3042	-3.1167	-3.2562	-3.0812	-3.0417	-3.3521	-3.0625	-3.2646	-3.1646	-2.9208	-92.729	85.781	73.909	172.045	112.004	-9.660	144.641	124.483	66.012	-21.154	-138.319	141.456	70.381	161.145	186.298	101.707	0.00053056	0.00043753	0.00010458	1362.4	3.4884e-06	5.201e-06	1360.7	367.5	5.6071e-06	3.4127e-06	417.02	140.56	122.16	41.986	3.206e-06	51.928	0.0003708	0.00038773	9.8437e-05	1349.1	4.1196e-06	4.2333e-06	1352.2	365.1	4.1626e-06	4.1884e-06	411.37	138.92	120.62	41.873	3.787e-06	51.187	-87.033	-134.520	-14.770	-157.666	-36.404	-33.328	-157.626	-152.946	-28.147	9.799	-153.451	-149.143	-148.343	-144.015	-36.544	-145.028	-8191	255	
1103.090	1	1	0	0	0.044177	0.10477	0.19409	0.34866	0.07284	0.12793	0.23661	0.072096	0.29233	0.12903	0.19103	0.24957	0.21985	0.28687	0.084679	0.22517	-2.7979	-3.1125	-2.8563	-3.4667	-2.875	-3.0771	-3.3104	-3.1188	-3.275	-3.2333	-3.0792	-3.3646	-3.025	-2.9938	-3.2812	-3.0333	120.749	-99.083	15.068	137.738	28.697	8.142	70.362	128.270	181.441	124.465	170.642	134.751	142.376	167.021	96.456	86.572	0.00049434	0.00031354	0.00012439	1362.1	4.7263e-06	1.4187e-06	1359.7	368.09	8.842e-06	3.4122e-06	419.66	139.9	121.97	41.973	7.1849e-06	51.822	0.00039272	0.00037451	9.7265e-05	1349.7	4.3521e-06	4.0924e-06	1351.9	365.5	4.3482e-06	4.0243e-06	411.85	139.09	120.66	41.757	3.7131e-06	51.237	-80.704	-155.327	-12.574	-157.431	-94.322	-61.706	-157.494	-152.838	-17.047	-26.257	-153.650	-148.909	-148.610	-144.029	-0.965	-144.949	-8191	255	
1103.210	1	1	0	0	0.19265	0.13167	0.28171	0.28144	0.085815	0.29901	0.10971	0.18809	0.23316	0.21212	0.18015	0.21147	0.28963	0.25553	0.13939	0.38251	-2.8771	-3.0812	-2.9	-3.5167	-3.0687	-3.0583	-3.3958	-3.0104	-3.3229	-3.3229	-3.1437	-3.4771	-3.0938	-3.0896	-3.1688	-3	-143.454	176.677	-8.176	139.972	-62.929	-22.177	60.668	124.500	117.427	-54.030	-127.266	63.073	-145.800	-166.698	64.631	88.930	0.00048824	0.00065297	0.00022573	1361.2	3.3042e-06	4.7574e-06	1358.2	367.42	8.007e-06	3.3704e-06	419.45	140.23	122.39	41.864	1.8209e-06	51.847	0.00039726	0.00036154	9.4557e-05	1351.3	4.2871e-06	3.914e-06	1347.1	366.33	4.2487e-06	3.8393e-06	409.97	139.62	120.51	41.605	3.6209e-06	51.563	-84.281	-111.428	-66.504	-157.570	-50.797	-91.037	-157.528	-153.045	-3.423	-7.713	-153.608	-149.143	-148.533	-144.120	-5.407	-144.773	-8191	255	
1103.306	1	1	0	0	0.2328	0.099837	0.22683	0.38827	0.23285	0.063206	0.11762	0.20157	0.14252	0.12717	0.11744	0.15127	0.10185	0.3347	0.089323	0.15508	-2.7562	-3.0563	-2.9396	-3.4208	-3.1542	-3.0312	-3.3896	-3.0208	-3.1229	-3.175	-2.9021	-3.3667	-3.2812	-3.0229	-3.1667	-2.9646	-144.853	-126.654	-14.565	111.832	150.324	-127.754	120.951	-163.667	163.341	63.123	-80.109	177.672	-151.312	158.496	-18.927	124.470	0.00057645	0.0003508	8.3479e-05	1358.4	6.292e-06	2.0797e-06	1358.5	367.39	4.713e-06	6.2131e-06	418.79	140.57	121.68	42.009	3.2349e-06	51.697	0.00038477	0.00034999	9.3248e-05	1353.8	4.1329e-06	3.8291e-06	1348.8	366.96	4.1247e-06	3.7424e-06	409.72	139.92	120.1	41.553	3.7246e-06	51.607	-82.863	-138.232	-23.506	-157.617	9.219	-114.698	-157.833	-152.884	-4.694	-11.222	-153.581	-149.351	-148.640	-144.107	-158.858	-144.761	-8191	255	
1103.378	1	1	0	0	0.41283	0.24014	0.019607	0.32905	0.14017	0.19185	0.19675	0.13864	0.052834	0.10128	0.2364	0.14378	0.058371	0.2279	0.18147	0.1453	-2.7875	-3.3208	-2.8292	-3.2729	-2.9583	-2.7771	-3.4479	-3.0479	-3.0104	-3.3167	-2.925	-3.0708	-3.1521	-3.0021	-3.1479	-3.0438	143.136	16.743	-97.139	140.567	108.729	76.482	85.003	177.217	141.079	70.426	-145.192	164.212	-97.198	103.088	97.974	130.055	0.00051596	0.00026446	0.00018024	1360	6.5136e-06	4.5619e-06	1357.8	366.19	7.8536e-06	4.1003e-06	420.15	140.59	121.92	41.775	2.2779e-06	51.853	0.00036845	0.00033571	9.584e-05	1355.2	3.9323e-06	3.7157e-06	1351	366.63	3.924e-06	3.6566e-06	412.08	139.98	119.56	41.455	3.9571e-06	51.686	-82.162	-95.888	-115.015	-157.515	5.276	-51.556	-157.507	-152.837	33.967	-16.835	-153.699	-149.020	-148.510	-143.943	-32.672	-145.046	-8191	255	
1103.474	1	1	0	0	0.18806	0.25046	0.23061	0.28365	0.093002	0.12406	0.041981	0.094235	0.094602	0.11897	0.14749	0.11528	0.21944	0.17005	0.017498	0.25504	-2.6271	-3.1667	-2.9	-3.3792	-3.1979	-2.8563	-3.3812	-3.0667	-3.0563	-3.2333	-3.0146	-3.1792	-3.3417	-2.9	-3.2354	-3.1042	-106.317	74.934	145.581	181.398	-1.004	98.933	9.457	83.338	169.159	-72.097	48.596	176.515	83.064	-118.709	-145.704	113.669	0.00052751	0.00086172	6.3988e-05	1361.8	7.2059e-06	2.9494e-06	1354.5	365.89	5.7717e-06	3.3612e-06	417.91	139.92	121.08	41.972	3.2598e-06	51.965	0.00036262	0.00033447	0.00010421	1356.6	3.8825e-06	3.6971e-06	1352.7	366.69	3.9229e-06	3.6725e-06	413.51	139.8	119.43	41.546	4.2767e-06	51.583	-81.616	-84.548	156.169	-157.593	-2.004	-18.653	-157.658	-152.887	20.986	-30.474	-153.510	-148.973	-148.524	-143.980	177.139	-144.790	-8191	255	
1103.593	1	1	0	0	0.11088	0.22741	0.097545	0.14771	0.27116	0.15242	0.35448	0.18274	0.033391	0.1918	0.19244	0.086014	0.12213	0.19062	0.12124	0.16223	-2.4583	-3.2021	-2.9	-3	-3.2896	-2.9958	-3.3688	-3.15	-2.8521	-3.3646	-2.9813	-3.2083	-3.2521	-3.025	-3.1792	-3.2687	37.535	184.850	-147.478	176.694	136.776	141.118	149.065	141.007	11.524	183.753	-164.994	-29.742	171.154	96.754	-42.932	54.194	0.00048321	0.00022692	0.00012905	1358.4	4.9214e-06	4.4248e-06	1357.3	366.51	5.3137e-06	4.1656e-06	418.77	139.93	121.18	41.849	7.9333e-06	51.704	0.00035871	0.00034122	0.00011033	1353.9	3.839e-06	3.8223e-06	1357.1	366.1	3.8945e-06	3.8013e-06	415.48	139.48	119.19	41.602	4.4862e-06	51.414	-77.611	-166.623	142.674	-157.349	-6.549	-72.955	-157.630	-152.994	47.248	-65.700	-153.620	-148.786	-148.488	-143.800	-45.071	-144.958	-8191	255	
1103.689	1	1	0	0	0.076935	0.16117	0.20939	0.4065	0.17953	0.22568	0.38485	0.24658	0.12143	0.24706	0.21346	0.26734	0.39801	0.18672	0.045772	0.30705	-2.3646	-3.0958	-3.1646	-3.1729	-3.2479	-2.8354	-3.3917	-3.2354	-3.0292	-3.1354	-3.1521	-2.9292	-3.2812	-3.2021	-3.0375	-3.2229	127.946	156.173	134.295	172.792	97.885	-146.045	153.122	146.179	68.671	-73.414	-135.185	107.184	-163.838	130.295	119.038	42.740	0.00049433	0.00041158	9.4409e-05	1356	5.3641e-06	2.7911e-06	1358.6	366.01	2.8894e-06	6.5604e-06	419.03	140.55	121.43	41.636	2.9116e-06	51.83	0.00035545	0.00036179	0.00011451	1351.4	3.7882e-06	4.061e-06	1357.3	365.38	3.829e-06	4.142e-06	415.32	139.4	119.1	41.783	4.5116e-06	51.375	-91.492	128.527	-69.250	-157.503	5.118	-107.919	-157.661	-152.902	-31.318	-57.199	-153.399	-148.954	-148.667	-144.175	21.658	-144.766	-8191	255	
1103.785	1	1	0	0	0.24376	0.1901	0.095392	0.43163	0.070853	0.087471	0.082722	0.34915	0.081671	0.21751	0.34756	0.13665	0.18968	0.11965	0.17147	0.24899	-2.4417	-3.2062	-3.0646	-3.0729	-3.4479	-2.7979	-3.2271	-3.2438	-2.9854	-3.2646	-3.3542	-3.0833	-3.2958	-3.1583	-3.0062	-3.3458	-90.497	-9.234	-117.519	116.409	-62.782	-114.790	57.544	169.341	104.062	-110.131	91.261	-87.376	182.616	108.716	-146.446	83.502	0.00047634	0.0002142	0.00011305	1361.8	3.969e-06	6.8731e-06	1355.5	365.86	3.8596e-06	4.8729e-06	418.09	139.6	121.46	41.717	7.056e-06	51.67	0.00035748	0.00039711	0.00011427	1353.3	3.888e-06	4.5027e-06	1358.4	365.48	3.9956e-06	4.6144e-06	415.05	139.35	119.63	42.027	4.5213e-06	51.32	-87.923	-127.237	6.707	-157.655	85.946	-150.451	-157.529	-152.889	-91.075	-36.905	-153.510	-148.973	-148.405	-144.115	16.762	-144.728	-8191	255	
1103.882	1	1	0	0	0.12202	0.042528	0.31574	0.11173	0.15043	0.028191	0.23901	0.33347	0.19722	0.14751	0.29144	0.20379	0.19017	0.065986	0.50899	0.050741	-2.5604	-3.1104	-3.1667	-3.1063	-3.2979	-3.1104	-3.3417	-3.3604	-3.0396	-3.2833	-3.2625	-3.0625	-3.3375	-3.0792	-3.1375	-3.2479	-159.254	-130.856	178.111	-141.472	90.289	-19.201	126.496	159.079	180.611	26.468	119.380	152.905	-122.100	-125.539	61.041	29.223	0.00054635	0.00027429	0.00025069	1359.1	3.3614e-06	5.1885e-06	1358.5	366.27	6.7596e-06	5.5085e-06	417.65	139.8	121.18	41.786	9.6323e-07	51.833	0.00037861	0.00043469	0.0001147	1354.2	4.201e-06	4.9125e-06	1358.3	366.05	4.3659e-06	4.9901e-06	415.75	139.72	120.51	42.219	4.5957e-06	51.51	-88.491	-116.130	-18.330	-157.427	-96.097	-61.176	-157.566	-152.986	-56.551	0.964	-153.499	-148.883	-148.793	-144.084	-111.380	-144.676	-8191	255	
1103.978	1	1	0	0	0.20666	0.04597	0.1529	0.35639	0.09321	0.14897	0.39146	0.24196	0.087696	0.050688	0.22297	0.33164	0.30604	0.16772	0.12354	0.35218	-2.4375	-3.1813	-3.1813	-2.8917	-3.175	-3.0667	-3.2667	-3.4562	-2.9583	-3.1729	-3.2625	-2.9042	-3.3646	-3.2458	-2.9375	-3.4458	25.878	118.394	77.612	146.882	-23.862	-65.693	152.604	148.451	-123.226	-128.113	19.511	159.627	-112.108	181.919	-106.716	144.281	0.00054598	0.0011516	6.9468e-05	1362.7	5.8027e-06	5.596e-06	1363.7	366.82	6.3316e-06	5.6133e-06	418.08	140.44	122.29	41.85	3.6585e-06	51.718	0.00042465	0.00046163	0.00011661	1359.3	4.7061e-06	5.0514e-06	1362.8	367.16	4.8759e-06	5.0826e-06	417.16	140.18	122.26	42.365	4.8008e-06	51.75	-90.741	-112.353	-58.471	-157.548	-109.138	-79.378	-157.616	-152.828	-67.125	-3.157	-153.586	-148.951	-148.660	-144.135	-18.275	-145.108	-8191	255	
1104.074	1	1	0	0	0.12655	0.14196	0.33297	0.25838	0.14271	0.17704	0.28619	0.34828	0.30973	0.21111	0.17452	0.16992	0.16068	0.19001	0.046138	0.13512	-2.4875	-3.0375	-3.3104	-3.25	-3.3604	-3.0729	-3.4375	-3.4667	-2.9979	-3.3292	-3.5062	-2.9521	-3.4167	-3.3208	-2.8479	-3.3438	-29.898	17.092	125.825	163.992	182.275	127.980	113.008	171.487	5.049	-150.692	-150.762	134.957	-112.546	98.606	-111.060	-152.656	0.00049945	0.00018523	0.00024169	1367	4.9974e-06	8.5531e-06	1365.3	368.37	9.5073e-06	3.9176e-06	420.08	140.46	121.89	42.002	5.0791e-06	51.873	0.00047817	0.00048001	0.00012165	1366.4	5.3815e-06	5.2864e-06	1369.8	369.84	5.6122e-06	5.3925e-06	420.07	141.51	124.3	42.707	5.1642e-06	52.428	-81.283	-54.175	-39.967	-157.515	-42.836	-26.754	-157.712	-152.985	-35.057	33.497	-153.558	-149.128	-148.448	-144.175	-7.028	-145.098	-8191	255	
1104.170	1	1	0	0	0.20909	0.16757	0.066931	0.12714	0.083624	0.079994	0.060037	0.31115	0.25047	0.15458	0.37045	0.11511	0.20425	0.23475	0.30984	0.10243	-2.5417	-3.0792	-3.2708	-3.0292	-3.2667	-3.2438	-3.2458	-3.3792	-3.0958	-3.1125	-3.35	-2.9625	-3.2667	-3.1729	-2.8104	-3.4042	-21.269	62.768	-42.635	-110.045	57.284	7.713	70.238	75.555	-11.580	163.732	147.589	-147.651	56.759	102.471	65.482	-70.205	0.00041646	0.00054283	0.00018033	1371.2	1.3079e-06	4.4598e-06	1369.9	369.94	4.5547e-06	1.8364e-06	419.79	140.7	122.58	41.941	4.6292e-06	52.043	0.00054322	0.00050821	0.00013128	1379.7	6.0521e-06	5.5536e-06	1378.7	373.78	6.0833e-06	5.573e-06	421.61	142.8	125.08	42.715	5.1575e-06	52.868	-76.334	-79.389	-20.099	-157.604	23.911	55.335	-157.578	-153.022	-2.732	114.711	-153.500	-149.164	-148.474	-144.198	-62.702	-145.096	-8191	255	
1104.291	1	1	0	0	0.086427	0.13868	0.15736	0.2266	0.095294	0.39508	0.33529	0.12871	0.0979	0.11035	0.30841	0.087751	0.14054	0.016144	0.16262	0.16111	-2.7167	-2.8979	-3.3979	-3.2188	-3.3792	-3.1688	-3.1688	-3.2875	-3.1188	-3	-3.4437	-2.9604	-3.1521	-3.3958	-2.7771	-3.2396	183.493	186.170	111.233	120.514	180.464	79.181	138.121	-126.819	-147.005	84.263	152.612	93.417	172.181	-149.461	-78.474	56.434	0.00042106	0.00079916	6.0695e-05	1374.4	1.115e-05	7.3053e-06	1369.9	369.3	3.6494e-06	4.339e-06	420.9	140.62	121.87	41.987	4.1117e-06	51.981	0.00053781	0.00049332	0.00012747	1386.1	5.8198e-06	5.2677e-06	1375.5	373.9	5.611e-06	5.1757e-06	420.21	142.91	123.68	42.35	4.8643e-06	52.768	-75.479	-133.553	44.810	-157.679	-16.307	13.162	-157.773	-153.091	5.792	51.230	-153.553	-149.058	-148.480	-144.037	-59.414	-145.050	-8191	255	
1104.387	1	1	0	0	0.1638	0.16565	0.1158	0.42264	0.038331	0.3329	0.3036	0.1404	0.20855	0.10118	0.05211	0.16165	0.089588	0.34907	0.10881	0.10299	-2.5458	-2.7562	-3.1854	-3.1562	-3.15	-3.0917	-2.975	-3.4208	-3.0021	-2.9	-3.5062	-3.1375	-3.0542	-3.3688	-2.9104	-3.3375	57.236	-133.611	-47.789	181.021	6.457	-34.954	161.064	95.966	22.071	-50.796	-21.194	188.257	155.495	107.145	-53.162	-103.671	0.00049694	0.00021562	9.4864e-06	1372.6	5.4377e-06	7.1756e-06	1368.6	369.16	7.919e-06	6.5403e-06	420.13	140.62	122.1	41.925	1.9813e-06	51.967	0.00048179	0.00044656	0.00012053	1381.3	5.1359e-06	4.7038e-06	1369.6	372.29	4.9664e-06	4.6359e-06	418.5	142.35	122.16	42.082	4.7836e-06	52.495	-79.527	-110.403	-111.663	-157.616	52.959	-1.026	-157.767	-152.782	32.435	-25.436	-153.648	-149.268	-148.568	-144.013	166.382	-144.575	-8191	255	
1104.483	1	1	0	0	0.13571	0.12732	0.068306	0.36155	0.19935	0.16226	0.13611	0.059662	0.048225	0.12667	0.17251	0.13785	0.18071	0.25761	0.090748	0.038046	-2.6437	-2.9	-3.3208	-3.2062	-3.0125	-3.3958	-3.1125	-3.175	-2.9542	-2.8458	-3.3271	-3.2167	-3.0021	-3.325	-2.9813	-3.2375	-64.511	-111.148	-131.270	142.236	62.280	-26.096	117.151	-120.613	54.357	187.484	-141.081	169.941	-145.180	183.008	152.848	160.894	0.00045955	0.00039514	0.00011043	1368.3	5.2057e-06	1.6301e-06	1367.9	368.79	3.3231e-06	4.4287e-06	421.34	140.36	122.18	41.719	3.02e-06	51.753	0.00043909	0.00041098	0.00012186	1375	4.7316e-06	4.404e-06	1369	371.5	4.5788e-06	4.3421e-06	418.88	141.19	121.01	41.687	4.8403e-06	52.009	-74.537	-126.527	-96.566	-157.680	-42.067	0.786	-157.646	-152.965	-18.530	23.520	-153.361	-149.052	-148.478	-144.096	-113.932	-144.901	-8191	255	
1104.579	1	1	0	0	0.15855	0.090534	0.13667	0.25199	0.042018	0.12879	0.2254	0.14859	0.083646	0.024412	0.026643	0.24204	0.21363	0.15291	0.022903	0.082778	-2.6354	-2.8438	-3.3229	-3.2167	-2.9021	-3.3271	-3.2146	-3.4062	-3.1833	-2.9083	-3.2125	-3.2833	-3.2167	-3.4854	-3.2188	-3.1792	27.524	-85.956	-157.164	167.349	-11.640	82.304	108.664	3.675	176.902	-79.359	1.285	177.489	-103.964	71.942	-6.563	82.690	0.00046852	0.00032431	0.00017586	1362.6	2.895e-06	1.9346e-06	1358.4	367.27	3.9187e-06	3.1185e-06	418.99	140.38	121.54	41.79	2.3247e-06	51.592	0.00040743	0.00038781	0.00012304	1366.9	4.3912e-06	4.1772e-06	1366.1	368.86	4.3017e-06	4.2064e-06	418.31	140.33	120.26	41.7	4.8843e-06	51.678	-83.127	57.685	-137.464	-157.564	-39.614	9.736	-157.706	-152.841	10.796	-155.169	-153.427	-148.995	-148.427	-143.864	-26.431	-144.870	-8191	255	
1104.674	1	1	0	0	0.19981	0.11497	0.099766	0.24755	0.38162	0.15644	0.059436	0.34899	0.14342	0.056485	0.023677	0.26012	0.045892	0.24839	0.1327	0.17962	-3.1562	-2.925	-3.2042	-3.2979	-3.0604	-3.3583	-3.2042	-3.1271	-3.2125	-2.9771	-3.1854	-3.1917	-3.0438	-3.475	-3.125	-3.0542	121.068	139.443	-80.934	66.227	47.749	186.019	14.212	127.310	123.762	45.112	176.689	-169.630	135.431	122.735	125.494	67.626	0.00048837	0.00096028	3.757e-05	1363.9	3.5669e-06	1.9316e-06	1363.9	366.96	7.1838e-06	7.6119e-06	417.13	140.28	121.55	41.735	7.4729e-06	51.692	0.00038795	0.00039501	0.00012488	1362.4	4.2869e-06	4.324e-06	1367.9	368.49	4.2102e-06	4.4779e-06	419.03	140.19	120.22	41.885	4.9877e-06	51.713	-78.031	144.887	111.756	-157.526	-40.767	-64.474	-157.605	-152.762	-0.713	-52.610	-153.583	-148.983	-148.478	-143.967	-51.393	-144.754	-8191	255	
1104.770	1	1	0	0	0.11956	0.21837	0.14194	0.11887	0.17612	0.084729	0.16108	0.18012	0.37426	0.19364	0.074316	0.065828	0.16962	0.094987	0.17048	0.10639	-2.7792	-2.9646	-3.0667	-3.3792	-2.8125	-3.4125	-3.2021	-3.0917	-3.3771	-3.0187	-3.2062	-3.2917	-2.9333	-3.3812	-3.2979	-2.95	-16.584	108.422	-90.045	-119.420	171.951	107.553	75.662	187.881	-60.017	51.483	-55.613	-167.785	55.773	46.035	73.714	73.153	0.0005393	0.00012221	4.301e-05	1365.5	6.8843e-06	6.7484e-06	1361.9	366.96	5.7355e-06	2.2608e-06	419.12	140.13	121.85	41.661	6.0293e-06	51.657	0.00038407	0.00042607	0.00012601	1362.5	4.2695e-06	4.7387e-06	1367.4	368.1	4.2249e-06	4.8691e-06	418.72	140.18	120.43	42.136	4.9038e-06	51.671	-83.345	-33.328	62.591	-157.499	-46.311	168.474	-157.602	-152.835	-64.042	8.096	-153.390	-148.849	-148.640	-144.198	-36.436	-144.832	-8191	255	
1104.890	1	1	0	0	0.085525	0.18716	0.20762	0.22495	0.36547	0.11477	0.3299	0.41007	0.22817	0.29717	0.12949	0.19305	0.29934	0.19235	0.17515	0.072491	-2.825	-3.0604	-3.0583	-3.1937	-3.075	-3.2583	-3.3625	-3.1104	-3.3396	-3.1188	-3.2	-3.375	-2.9604	-3.0958	-3.1083	-2.9229	-38.227	143.511	-43.355	162.610	-164.899	77.070	128.861	97.223	-91.758	-159.148	-63.219	-163.241	156.741	123.388	-70.686	182.051	0.00044157	0.00031563	0.00013298	1363.8	8.6964e-07	6.4417e-06	1360.1	367.63	4.4532e-06	2.4517e-06	419.64	140.12	121.67	41.785	2.7827e-06	51.455	0.00039626	0.00045868	0.00012406	1361.9	4.358e-06	5.0456e-06	1366.2	367.91	4.3155e-06	5.0357e-06	417.32	139.76	120.56	42.162	4.5717e-06	51.477	-81.900	156.958	-55.196	-157.520	-82.228	-51.746	-157.755	-152.735	-58.601	26.160	-153.547	-149.078	-148.375	-144.001	-27.574	-145.012	-8191	255	
1104.986	1	1	0	0	0.16452	0.17641	0.15324	0.23595	0.18312	0.15297	0.15873	0.43619	0.34854	0.10728	0.26812	0.23812	0.022673	0.21649	0.032174	0.015799	-3.025	-2.9021	-3.0104	-3.475	-3.0062	-3.325	-3.4667	-3.1	-3.2771	-3.0479	-3.2167	-3.3604	-2.9813	-3.1813	-3.2521	-3.1771	-0.999	-148.592	106.681	165.539	22.845	-18.082	124.439	118.508	171.419	-7.344	174.554	111.761	182.398	152.023	37.557	-79.795	0.00054474	0.00024343	0.0001986	1359.8	2.8017e-06	2.6861e-06	1355	367.84	8.3796e-06	2.4649e-06	419.04	139.62	121.72	41.824	7.7934e-06	51.606	0.0004026	0.00044941	0.00011482	1356.5	4.439e-06	4.8871e-06	1357.6	366.71	4.4318e-06	4.8511e-06	415.12	139.08	120.98	42.049	4.2936e-06	51.234	-93.687	-55.523	-61.831	-157.308	-54.506	-95.777	-157.693	-152.796	-69.983	-37.881	-153.564	-148.992	-148.567	-143.792	-53.335	-144.755	-8191	255	
1105.083	1	1	0	0	0.10284	0.23886	0.29039	0.159	0.071901	0.1467	0.12073	0.12166	0.10636	0.28137	0.097515	0.06707	0.13869	0.15023	0.086088	0.12213	-2.8	-3.2042	-3.0187	-3.3646	-3.05	-3.3063	-3.4417	-3.1562	-3.3	-3.1104	-3.1604	-3.3375	-3.0333	-3.2125	-3.4271	-3.05	-47.092	-28.710	-0.152	131.924	162.287	-8.358	184.510	155.601	81.922	154.515	88.871	-96.606	92.783	117.418	-166.010	181.009	0.00058391	0.00019716	0.00013365	1361.7	2.5915e-06	3.4394e-06	1361.1	367.52	3.8554e-06	6.4003e-06	418.68	140.21	121.35	41.674	2.5856e-06	51.559	0.00041683	0.00042926	0.00010885	1353.9	4.6331e-06	4.6304e-06	1356.3	366.33	4.6333e-06	4.5558e-06	413.33	139.25	121.15	41.853	4.1574e-06	51.241	-92.002	-12.945	19.086	-157.598	152.891	-25.296	-157.713	-152.875	-14.730	-8.090	-153.483	-149.005	-148.444	-144.061	47.844	-144.641	-8191	255	
1105.179	1	1	0	0	0.03938	0.037063	0.051102	0.12697	0.20443	0.3284	0.27204	0.26394	0.12873	0.17742	0.089073	0.15277	0.20493	0.076153	0.10891	0.12879	-2.9875	-3.1813	-2.8104	-3.3542	-3.0625	-3.25	-3.5729	-3.1333	-3.3771	-3.2687	-2.975	-3.4667	-3.3021	-3.2104	-3.2833	-3.1542	129.378	184.893	-68.580	178.045	116.151	-58.195	132.738	155.812	-111.220	86.058	50.504	139.929	-165.848	61.484	-89.799	172.767	0.00049018	0.00037944	0.00011867	1362.2	3.1429e-06	7.8987e-06	1359.7	367.92	6.0996e-06	3.0337e-06	417.59	140.25	122.34	41.614	2.336e-06	51.67	0.00043127	0.00040432	0.00010609	1356.8	4.7405e-06	4.4388e-06	1355.3	366.64	4.7938e-06	4.397e-06	412.83	139.77	121.79	41.788	4.1043e-06	51.553	-83.841	-60.572	-66.758	-157.510	-17.750	-27.920	-157.607	-152.933	-38.749	51.606	-153.497	-149.252	-148.241	-143.991	-16.964	-144.885	-8191	255	
1105.250	1	1	0	0	0.11518	0.063481	0.04325	0.1625	0.038378	0.073896	0.18902	0.30101	0.18217	0.17412	0.098499	0.079267	0.11042	0.16285	0.1106	0.2512	-2.7792	-3.0604	-2.7917	-3.3875	-3.2771	-2.9	-3.4333	-3.1833	-3.3167	-3.1896	-3.1896	-3.3625	-3.1396	-3.2875	-3.3104	-3.1729	161.598	53.264	-149.860	169.622	63.699	16.565	113.477	183.234	-21.626	-29.034	-12.899	98.324	-3.823	138.077	73.060	150.841	0.00049329	0.00044486	0.00020299	1365.3	4.7666e-06	5.195e-06	1358.7	366.7	9.8743e-06	2.6429e-06	417.41	140.46	121.39	41.859	3.1145e-06	51.683	0.00043671	0.0003962	0.00010434	1361.4	4.7526e-06	4.3365e-06	1355	367.57	4.7153e-06	4.2795e-06	412.54	140.43	121.1	41.776	4.0295e-06	51.77	-83.169	-33.024	-35.032	-157.544	-10.580	-13.104	-157.709	-152.860	-18.721	48.311	-153.420	-149.161	-148.482	-144.052	29.441	-144.934	-8191	255	
1105.371	1	1	0	0	0.26615	0.13379	0.073671	0.26094	0.10256	0.17796	0.087033	0.37098	0.14576	0.086158	0.1276	0.10419	0.099258	0.22705	0.056087	0.29585	-2.5354	-3.1021	-2.9479	-3.2812	-3.1	-3.1	-3.5125	-3.0958	-3.1208	-3.3083	-3.3042	-3.3667	-3.2729	-3.2104	-3.3854	-3.1417	65.699	3.615	70.647	114.552	-38.917	-28.381	129.309	141.375	91.061	188.061	80.794	147.278	182.510	139.512	-71.738	-167.613	0.00041327	0.00031288	5.4698e-05	1365.1	5.1556e-06	7.0483e-06	1362.3	365.99	3.6651e-06	6.1708e-06	418.72	139.44	121.31	41.575	4.7754e-06	51.479	0.00042356	0.00038812	0.00010434	1364.3	4.5661e-06	4.292e-06	1356.1	368.59	4.5611e-06	4.2129e-06	413.54	140.64	120.76	41.68	4.2378e-06	51.934	-89.202	-105.321	-71.922	-157.497	-29.207	-79.542	-157.767	-153.014	-29.528	19.789	-153.277	-149.234	-148.483	-144.118	-98.603	-144.809	-8191	255	
1105.467	1	1	0	0	0.22954	0.029893	0.13527	0.16286	0.065222	0.20117	0.34757	0.31625	0.11612	0.080377	0.39264	0.1641	0.25094	0.15256	0.20147	0.14448	-2.6312	-3.275	-2.8312	-3.2208	-3.2062	-2.8958	-3.6458	-3.0771	-3.0333	-3.3375	-2.8479	-3.3396	-3.2479	-3.0021	-3.5958	-3.1104	27.898	102.095	-144.969	-146.584	166.341	-85.195	150.008	171.742	-89.263	124.629	151.436	141.711	136.758	29.495	-140.886	-117.468	0.00042584	0.00050123	9.173e-05	1359.7	3.6304e-06	3.3711e-06	1363.3	367.35	3.9689e-06	4.7677e-06	419.04	140.48	121.79	41.757	7.1669e-06	51.72	0.00041481	0.00038271	0.00011005	1366.1	4.4287e-06	4.21e-06	1359.7	369.46	4.4476e-06	4.1337e-06	416.07	141.12	120.8	41.714	4.5929e-06	51.954	-80.388	-109.006	-110.869	-157.523	14.873	30.371	-157.634	-152.808	-58.707	-35.017	-153.610	-149.135	-148.687	-144.211	-121.418	-145.015	-8191	255	
1105.563	1	1	0	0	0.15972	0.19332	0.1989	0.18723	0.25388	0.14121	0.27557	0.17745	0.14592	0.037642	0.2366	0.16152	0.11547	0.11194	0.0665	0.093118	-2.6063	-3.2271	-3.0396	-3.3167	-3.3542	-3.0979	-3.5375	-3.3979	-2.9729	-3.3312	-3.1188	-3.425	-3.425	-3.0958	-3.3458	-3.3333	92.574	93.890	-130.484	171.867	-143.382	-43.002	130.952	96.511	-26.369	22.261	152.027	143.503	-33.389	183.832	-19.413	117.149	0.00039447	0.00059708	0.00015936	1367.6	3.0492e-06	3.0275e-06	1365.6	368.02	3.5958e-06	3.5697e-06	418.35	140.43	121.73	41.859	4.3993e-06	51.763	0.00040754	0.00037576	0.0001189	1368.4	4.3736e-06	4.1751e-06	1366.1	369.26	4.3631e-06	4.127e-06	417.95	140.71	120.41	41.694	4.8273e-06	51.807	-84.682	-65.510	-136.145	-157.353	17.254	-18.761	-157.622	-152.966	-48.918	37.841	-153.717	-148.904	-148.759	-144.122	-135.966	-144.931	-8191	255	
1105.660	1	1	0	0	0.21839	0.17719	0.12856	0.18828	0.1291	0.17407	0.22747	0.1272	0.098436	0.098964	0.19845	0.30526	0.19673	0.32801	0.13663	0.17884	-2.6562	-3.1917	-2.8792	-3.3271	-3.4271	-2.9458	-3.4583	-3.5312	-3.0354	-3.3937	-3.1771	-3.2292	-3.4542	-3.1208	-3.2958	-3.3333	-167.419	-96.314	5.752	154.517	134.462	-144.379	133.407	58.708	-50.692	125.538	99.069	121.128	18.077	157.943	82.856	109.216	0.00045269	0.00052591	0.0001307	1365.2	1.8455e-06	1.9624e-07	1363.6	368.35	4.1216e-06	5.4707e-06	418.54	140.3	121.89	41.833	7.2767e-06	51.62	0.00039647	0.00037981	0.00012367	1364.9	4.2048e-06	4.2371e-06	1367.2	368.54	4.1904e-06	4.2167e-06	418.14	140.21	120.12	41.82	4.8672e-06	51.547	-90.723	-128.608	-41.841	-157.633	-53.664	-105.022	-157.635	-152.983	63.077	-92.873	-153.309	-148.909	-148.629	-144.016	-72.023	-144.808	-8191	255	
1105.778	1	1	0	0	0.099514	0.17326	0.3017	0.21767	0.29575	0.12785	0.1329	0.21759	0.23086	0.14981	0.041126	0.10729	0.10035	0.22461	0.38182	0.37172	-2.45	-3.4625	-3.0708	-3.1875	-3.2396	-2.6646	-3.3854	-3.4188	-2.8312	-3.2104	-3.2021	-3.1479	-3.3729	-2.9521	-3.1708	-3.1729	-45.870	-22.401	-164.703	154.860	19.248	78.086	110.101	-165.865	-142.530	133.973	49.139	124.877	156.781	124.245	6.113	140.923	0.00051267	0.00046172	0.0001502	1364.2	5.6739e-06	4.6999e-06	1361.3	367.86	6.79e-06	6.3591e-06	419.87	140.33	121.36	41.66	8.8548e-06	51.528	0.000381	0.00039664	0.000123	1361.9	4.0709e-06	4.4806e-06	1367.7	367.51	4.0789e-06	4.5167e-06	418.11	140.14	119.71	41.902	4.6994e-06	51.414	-85.970	-104.116	-17.415	-157.543	13.260	-110.419	-157.560	-152.794	-8.973	-89.833	-153.595	-148.977	-148.737	-144.142	-42.721	-144.669	-8191	255	
1105.852	1	1	0	0	0.14685	0.12233	0.16231	0.15775	0.17942	0.1457	0.14304	0.23372	0.21215	0.084882	0.16732	0.09321	0.27695	0.3381	0.12037	0.11271	-2.5958	-3.2042	-2.9437	-3.0729	-3.2979	-2.9875	-3.45	-3.3354	-3.0604	-3.2562	-3.1604	-3.1354	-3.3646	-3.1542	-3.2375	-3.3937	-140.215	29.092	79.030	169.207	155.106	-155.701	52.742	136.413	91.487	6.238	148.007	109.857	155.230	139.879	-24.607	143.340	0.00047703	0.00032926	0.00020989	1364.6	2.4945e-06	1.7716e-06	1362.4	367.28	5.623e-06	3.0843e-06	418.1	139.69	121.74	41.707	3.947e-06	51.519	0.00037193	0.00041772	0.00011692	1359	3.9972e-06	4.6715e-06	1362.8	366.52	4.0591e-06	4.6768e-06	415.52	139.58	119.87	42.047	4.5182e-06	51.349	-85.612	111.601	-17.342	-157.415	172.972	-94.696	-157.781	-152.940	-79.655	-89.997	-153.436	-148.943	-148.565	-144.182	-42.255	-144.713	-8191	255	
1105.971	1	1	0	0	0.064506	0.12103	0.16802	0.20255	0.03804	0.043998	0.15455	0.16817	0.11023	0.035974	0.18724	0.1116	0.24899	0.081299	0.088082	0.36334	-2.5875	-3.3104	-3.075	-3.0687	-3.3771	-3.1937	-3.3688	-3.3125	-2.9667	-3.1813	-3.2854	-3.1271	-3.5687	-3.0604	-2.9167	-3.4042	8.807	91.123	0.124	161.699	8.587	136.872	60.237	151.465	-132.807	186.287	-151.586	53.615	145.197	-39.991	106.866	119.171	0.00054673	0.00023219	0.00013359	1366.9	5.2582e-06	4.7788e-06	1359.2	366.02	1.0563e-05	6.0701e-06	417.7	140.59	121.86	41.846	4.6361e-06	51.428	0.00038609	0.00043603	0.00011294	1360.9	4.2189e-06	4.8262e-06	1361.9	366.56	4.3292e-06	4.8471e-06	415.1	139.67	120.7	42.192	4.4099e-06	51.272	-85.362	111.294	2.597	-157.438	-31.926	-6.771	-157.558	-152.952	-50.105	-39.876	-153.411	-148.969	-148.240	-144.020	-67.572	-145.007	-8191	255	
1106.067	1	1	0	0	0.17693	0.21159	0.29291	0.40214	0.085007	0.079337	0.23112	0.14129	0.23094	0.17539	0.1058	0.0094699	0.14198	0.19856	0.29054	0.1317	-2.6021	-3.2938	-3.1312	-3.2396	-3.3646	-3.2625	-3.4167	-3.5146	-2.9958	-3.375	-3.2833	-2.9417	-3.3042	-3.3167	-3.0042	-3.5042	68.832	112.308	-86.375	159.547	-102.284	-21.976	110.641	89.402	44.824	91.052	-98.191	-18.007	106.686	129.722	69.845	126.652	0.00055852	0.00035615	7.1251e-05	1364.6	5.7655e-07	5.7786e-06	1363.7	367.12	5.4141e-06	2.8925e-06	419.93	140.34	122.1	41.75	5.4345e-06	51.747	0.00041591	0.00044143	0.00011083	1359.9	4.5622e-06	4.7583e-06	1363.7	366.43	4.6279e-06	4.6929e-06	415.12	139.65	121.35	41.997	4.2425e-06	51.31	-93.829	165.720	-14.402	-157.636	-52.214	-27.164	-157.478	-152.767	-52.382	23.935	-153.468	-148.988	-148.493	-144.097	-71.329	-145.048	-8191	255	
1106.163	1	1	0	0	0.17346	0.096979	0.13545	0.23205	0.10774	0.10899	0.091368	0.077578	0.039798	0.12916	0.18092	0.18814	0.25837	0.12398	0.22865	0.018882	-2.5938	-3.1521	-3.2833	-3.0896	-3.3146	-3.2667	-3.275	-3.4396	-3.0354	-3.1312	-3.5229	-3.1708	-3.2854	-3.3479	-2.8771	-3.3708	-165.105	71.727	-14.985	148.126	-100.036	-107.713	175.626	101.106	59.183	188.093	180.385	124.476	162.037	184.643	-82.072	134.774	0.00051793	0.00090697	4.8546e-05	1363.5	3.4279e-06	9.1891e-07	1366.4	367.74	7.7572e-07	4.9613e-06	419.85	140.43	121.64	41.913	5.8952e-06	51.758	0.0004263	0.00041292	0.00010605	1358.7	4.648e-06	4.441e-06	1362.5	366.49	4.6803e-06	4.447e-06	413.13	139.61	121.36	41.822	4.079e-06	51.446	-89.193	-113.328	-110.989	-157.497	-34.142	6.363	-157.575	-152.814	106.680	20.666	-153.401	-148.986	-148.532	-144.032	-41.304	-144.800	-8191	255	
1106.259	1	1	0	0	0.092824	0.079061	0.036944	0.26036	0.11511	0.14961	0.25847	0.24088	0.17931	0.24708	0.24601	0.18877	0.17106	0.09564	0.14836	0.17809	-2.4875	-2.8604	-3.2792	-3.1729	-3.1521	-3.0125	-3.1833	-3.4062	-3.1625	-3.0708	-3.3021	-3.0458	-3.1937	-3.3604	-3.0917	-3.4479	-74.464	89.921	50.688	87.094	-136.488	155.731	116.479	154.315	-30.209	160.891	51.197	109.724	131.782	171.964	163.580	157.140	0.00046112	0.00030622	5.8857e-05	1363.6	6.6812e-06	5.9415e-06	1355.8	367.91	5.5052e-06	1.7798e-06	418.65	139.68	122.26	41.753	2.0297e-06	51.512	0.0004364	0.00039582	0.00010196	1360	4.7063e-06	4.2986e-06	1357.7	367.55	4.7303e-06	4.3446e-06	412.52	140.19	121.66	41.785	4.1081e-06	51.757	-87.218	-106.112	-121.743	-157.568	-57.930	-2.386	-157.705	-152.985	31.757	-27.702	-153.221	-149.225	-148.412	-144.202	-33.419	-145.055	-8191	255	
1106.380	1	1	0	0	0.17051	0.18347	0.35413	0.16945	0.091878	0.13523	0.17495	0.23008	0.23018	0.20115	0.20397	0.31792	0.1298	0.3165	0.27314	0.083548	-2.5687	-2.7354	-3.1854	-3.2687	-3.1562	-3.0896	-3.0229	-3.5167	-3.2	-2.8333	-3.3708	-2.9708	-3.2188	-3.3375	-2.8646	-3.3125	157.133	-67.794	-65.644	8.592	64.171	106.570	156.381	95.369	96.592	181.081	181.967	-136.966	-98.617	133.770	66.347	-92.789	0.0004227	8.1873e-05	0.00015399	1364.7	4.7738e-06	3.1887e-06	1363.8	367.61	4.1294e-06	2.7052e-06	418.66	139.62	121.93	41.691	4.7946e-06	51.786	0.00043495	0.00039674	0.00010318	1365.9	4.7222e-06	4.2973e-06	1358.6	369.05	4.6357e-06	4.3144e-06	413.61	140.81	121.17	41.723	4.1647e-06	51.871	-83.562	-27.133	-59.214	-157.652	-29.519	-27.874	-157.785	-152.831	-14.439	1.268	-153.575	-149.029	-148.408	-144.027	-89.504	-145.089	-8191	255	
1106.474	1	1	0	0	0.2171	0.15547	0.056227	0.079544	0.1215	0.073099	0.28887	0.13677	0.11776	0.21032	0.095213	0.45177	0.12372	0.11218	0.18909	0.33439	-2.7708	-2.8063	-3.3	-3.1479	-2.9188	-3.1437	-3.1854	-3.3125	-3.1188	-2.7958	-3.3812	-3.0229	-3.0708	-3.4917	-2.7938	-3.3792	-71.836	-31.794	-93.637	-133.232	42.922	-62.523	142.103	144.296	-128.008	-164.151	106.687	91.524	-144.468	140.280	36.300	27.565	0.00054642	0.00013526	4.6501e-05	1366.7	1.7421e-06	6.3507e-06	1358.9	367.73	3.4864e-06	4.7528e-06	419.18	140.11	121.92	41.857	1.566e-06	51.608	0.00041247	0.00038656	0.00010641	1368.4	4.4793e-06	4.1626e-06	1360.3	369.4	4.42e-06	4.1792e-06	414.76	140.93	120.79	41.649	4.4627e-06	51.915	-78.853	188.722	80.146	-157.570	-50.694	-69.587	-157.687	-152.814	-7.856	20.051	-153.452	-149.220	-148.535	-144.116	80.227	-145.057	-8191	255	
1106.572	1	1	0	0	0.24045	0.065446	0.09192	0.19878	0.14854	0.19435	0.16665	0.03497	0.15779	0.14907	0.061348	0.02034	0.11339	0.23099	0.17152	0.24877	-2.7604	-2.8521	-3.2208	-3.4083	-2.9875	-3.2542	-3.0729	-3.325	-3.1208	-2.9375	-3.3583	-3.0167	-3.0667	-3.3917	-2.9458	-3.0896	-49.185	-119.024	-163.793	154.014	11.266	43.216	90.801	-27.188	-74.325	-18.621	39.108	171.188	146.641	155.231	-91.556	42.244	0.00055372	0.00015836	0.00010251	1365.8	7.6931e-06	3.6583e-06	1364	368.06	4.258e-06	3.2578e-06	420.23	139.89	121.97	41.73	2.8132e-06	51.666	0.00040432	0.00038216	0.00011491	1368.3	4.4291e-06	4.1323e-06	1364.2	369.3	4.3727e-06	4.1613e-06	417.81	140.59	120.53	41.673	4.7601e-06	51.831	-82.746	-9.855	-99.239	-157.448	-29.047	-41.180	-157.789	-152.865	0.202	-33.367	-153.659	-149.069	-148.613	-143.928	-92.089	-144.856	-8191	255	
1106.668	1	1	0	0	0.035544	0.34177	0.18214	0.12246	0.060641	0.073247	0.082479	0.28234	0.2131	0.05883	0.01509	0.10794	0.12962	0.082405	0.16077	0.061171	-2.8625	-2.9083	-3.1208	-3.2333	-2.8771	-3.1292	-2.9979	-3.2812	-3.2771	-2.8708	-3.3937	-3.3625	-3.0521	-3.4542	-3.2188	-3.3063	179.628	151.188	28.412	175.900	-51.468	95.968	157.696	146.179	-80.042	28.286	43.162	164.127	44.638	-126.703	-131.408	-74.186	0.00049439	0.00071038	0.00014506	1364.5	4.6408e-06	3.1662e-06	1361.2	368.8	5.4329e-06	3.6136e-06	417.62	140.18	122.42	41.822	4.0182e-06	51.77	0.00039714	0.00038289	0.00012282	1365.5	4.354e-06	4.1827e-06	1366.9	368.78	4.284e-06	4.2359e-06	418.28	140.57	120.68	41.776	4.9406e-06	51.819	-79.797	-126.536	-62.707	-157.494	5.511	-67.673	-157.803	-152.837	20.846	-53.294	-153.673	-149.064	-148.512	-144.048	-100.958	-144.621	-8191	255	
1106.763	1	1	0	0	0.038483	0.21421	0.25437	0.35029	0.33772	0.20742	0.17738	0.35648	0.1014	0.13794	0.10489	0.23697	0.016354	0.072499	0.17637	0.16743	-2.8333	-2.9896	-3.0708	-3.3354	-3.0292	-3.3625	-3.1521	-3.2646	-3.3167	-2.9146	-3.3792	-3.3229	-2.9813	-3.3104	-3.1063	-3.0917	-120.876	55.844	-131.437	141.776	168.327	-8.248	73.236	141.073	164.288	86.753	-51.613	157.828	-86.250	79.132	140.479	188.852	0.00050315	0.00018275	0.0002044	1366.8	3.5772e-06	1.1866e-06	1364.3	367.64	4.4212e-06	3.3009e-06	418.06	139.96	122.49	41.874	7.2342e-06	51.739	0.00038873	0.00039777	0.00012501	1362.9	4.2327e-06	4.3983e-06	1367.9	368.16	4.1356e-06	4.474e-06	418.48	140.1	120.16	41.922	4.8606e-06	51.634	-81.926	166.221	-39.733	-157.537	-26.878	-116.800	-157.653	-152.892	20.380	-155.572	-153.236	-149.187	-148.764	-144.214	-32.006	-144.875	-8191	255	
1106.859	1	1	0	0	0.17932	0.040394	0.092753	0.18718	0.24474	0.24719	0.32273	0.1482	0.14958	0.27227	0.24708	0.1924	0.087843	0.18844	0.053422	0.16134	-2.8854	-2.8146	-2.9771	-3.4313	-3.1979	-3.2292	-3.1604	-3.0229	-3.375	-2.9271	-3.2188	-3.3792	-2.8604	-3.4667	-3.1229	-2.9146	-3.628	117.480	111.823	146.827	162.154	185.926	169.892	180.448	-68.027	-124.476	-167.766	98.753	169.867	113.082	6.957	27.371	0.00048243	0.00013791	9.1983e-05	1366.2	1.3206e-06	4.9252e-06	1365.7	368.17	5.2797e-06	3.1229e-06	420.53	140.24	121.58	41.767	4.1225e-06	51.603	0.0003773	0.00042369	0.00012236	1361.7	4.1372e-06	4.6624e-06	1367.1	367.89	4.1152e-06	4.7555e-06	417.7	139.88	120.24	42.127	4.68e-06	51.506	-82.647	104.581	-94.093	-157.587	55.612	186.909	-157.421	-152.864	-27.546	-127.530	-153.399	-148.937	-148.737	-143.914	-41.825	-144.890	-8191	255	
1106.955	1	1	0	0	0.1581	0.15624	0.17367	0.52536	0.034911	0.19853	0.23638	0.11159	0.23247	0.23484	0.23911	0.045973	0.088444	0.10988	0.0081786	0.23056	-2.8875	-2.9688	-3.1562	-3.3104	-2.9667	-3.2771	-3.3458	-3.0833	-3.3167	-2.9167	-3.2458	-3.3312	-3.1771	-3.3	-3.2062	-2.9917	109.925	34.298	-86.642	137.032	-141.552	-58.099	132.944	156.715	54.599	145.551	-129.007	-117.911	-46.726	41.033	76.959	147.098	0.00048114	0.00033846	0.0002166	1368.1	4.5735e-06	3.8213e-06	1368.5	367.75	7.6052e-06	1.156e-05	419.29	139.95	122.04	41.779	5.1838e-06	51.882	0.0003835	0.00044444	0.000118	1361	4.2325e-06	4.8847e-06	1365.2	367.35	4.2799e-06	4.9607e-06	416.46	139.83	120.82	42.248	4.5919e-06	51.548	-94.015	169.772	-5.498	-157.608	-117.307	-143.265	-157.758	-152.921	-65.320	-39.101	-153.539	-148.961	-148.306	-143.923	-62.091	-144.905	-8191	255	
1107.076	1	1	0	0	0.23186	0.11077	0.16618	0.29615	0.25194	0.17604	0.23606	0.39462	0.23595	0.27753	0.33814	0.23498	0.10305	0.17205	0.16724	0.26294	-2.7396	-3.1146	-2.9458	-3.3958	-2.7875	-3.1833	-3.3646	-3.0563	-3.2208	-3.0563	-3.0958	-3.3229	-2.8375	-3.1021	-3.0417	-2.9708	-58.945	-94.869	40.800	172.695	-93.752	-60.067	121.555	170.953	61.030	95.834	149.431	166.612	-157.931	-128.276	-63.999	156.893	0.00053639	0.00020815	0.00013894	1366.6	6.3237e-06	4.1321e-06	1360.2	366.59	4.3599e-06	4.416e-06	419.34	140.69	121.82	41.831	4.9185e-06	51.638	0.00041468	0.00046188	0.00011744	1361.2	4.6552e-06	5.0498e-06	1363.3	366.91	4.706e-06	5.0112e-06	416.8	139.84	121.59	42.294	4.514e-06	51.498	-85.697	-83.640	-52.484	-157.519	-98.671	23.293	-157.772	-152.904	-29.263	-80.291	-153.206	-149.073	-148.847	-143.738	9.154	-145.023	-8191	255	
1107.147	1	1	0	0	0.08568	0.014323	0.12423	0.28986	0.22748	0.24191	0.10345	0.21693	0.068163	0.20182	0.099727	0.1594	0.14237	0.05836	0.066364	0.23018	-2.8521	-3.0708	-2.8667	-3.4979	-3.0792	-3.2396	-3.3167	-3.0604	-3.1792	-3.1042	-3.0208	-3.3021	-3	-3.1333	-3.3021	-3	131.046	59.989	74.547	181.675	115.923	150.130	111.224	47.708	17.828	-31.246	177.137	152.849	65.526	-124.211	-119.290	187.721	0.00046858	0.00039652	0.00014692	1364	3.4379e-06	7.3574e-06	1363.9	367.28	4.9248e-06	3.8646e-06	419.71	140.76	122.03	41.824	5.5817e-06	51.699	0.00044553	0.00045076	0.00011519	1361.4	4.9596e-06	4.9025e-06	1362.9	367.7	5.0012e-06	4.8429e-06	416.2	139.98	122.18	42.067	4.4037e-06	51.549	-91.662	-64.444	9.530	-157.571	-15.343	14.029	-157.807	-152.975	-82.298	-22.716	-153.360	-149.118	-148.510	-144.004	-12.691	-144.608	-8191	255	
1107.243	1	1	0	0	0.26636	0.062645	0.066212	0.084161	0.2428	0.091002	0.28444	0.18257	0.34065	0.19364	0.053646	0.20579	0.25817	0.054121	0.16137	0.22867	-2.7104	-3.1583	-2.8958	-3.5125	-3.1646	-3.1104	-3.4729	-3.0396	-3.2521	-3.175	-3.1792	-3.2708	-3.1083	-2.9729	-3.2938	-3.2188	60.838	27.717	150.878	137.703	51.155	-51.722	127.857	131.249	-164.768	-167.266	-56.108	-163.460	135.106	7.999	32.166	62.682	0.00046958	0.00061471	9.5253e-05	1368.5	4.453e-06	8.4761e-06	1364.1	368.87	8.3777e-06	4.2128e-06	420.31	140.47	122.65	41.823	2.4807e-06	51.793	0.00045923	0.00042734	0.00011131	1363.6	5.0486e-06	4.6654e-06	1362.3	368.89	5.057e-06	4.6133e-06	415.68	140.4	122.33	41.998	4.3158e-06	51.832	-95.375	-83.577	16.659	-157.526	-61.180	-18.714	-157.562	-152.912	-54.154	-1.703	-153.264	-149.230	-148.568	-143.974	-28.978	-145.102	-8191	255	
1107.340	1	1	0	0	0.060468	0.22149	0.046779	0.11982	0.12581	0.14928	0.25153	0.11827	0.17653	0.3434	0.24946	0.12897	0.18434	0.10748	0.10396	0.33873	-2.8583	-3.1979	-2.95	-3.4021	-3.0646	-3.1667	-3.4938	-2.8625	-3.1562	-3.325	-2.8333	-3.3375	-2.9188	-3.225	-3.1979	-3.1104	-32.571	9.792	-161.182	149.677	112.390	85.054	123.097	111.992	10.862	21.980	165.496	179.316	130.049	175.674	126.189	157.140	0.00040656	0.00061787	9.8417e-05	1366	6.4994e-07	4.3671e-06	1364.6	367.98	5.7835e-06	5.2729e-06	419.51	140.41	122.61	41.947	5.9253e-06	51.777	0.00045793	0.0004154	0.00010858	1365.8	4.9018e-06	4.5054e-06	1359.4	369.42	4.8658e-06	4.3982e-06	414.93	140.87	121.81	41.879	4.2136e-06	52.035	-88.558	-43.589	70.313	-157.469	-36.709	170.128	-157.660	-152.726	37.748	111.786	-153.374	-148.926	-148.332	-144.057	-57.101	-145.002	-8191	255	
1107.460	1	1	0	0	0.16519	0.11544	0.062822	0.12502	0.21092	0.16253	0.14081	0.24057	0.13138	0.13116	0.14165	0.048452	0.087977	0.073602	0.088801	0.33317	-2.8438	-3.2438	-2.8625	-3.3583	-3.1917	-2.8917	-3.5625	-3.2938	-3.2917	-3.3354	-3.1146	-3.2625	-3.1104	-2.8937	-3.3042	-3.1354	71.432	-23.299	184.124	137.116	65.872	-127.711	69.224	102.296	43.056	55.607	138.399	47.835	-21.498	76.168	-139.821	41.714	0.00045077	0.00048852	6.9484e-05	1363.7	5.6839e-06	4.7436e-06	1362.2	368	2.0092e-06	4.7757e-06	420.88	140.33	122.01	41.877	3.1683e-06	51.803	0.00043595	0.00039974	0.00010865	1368.5	4.6957e-06	4.3713e-06	1360.9	369.74	4.6462e-06	4.2875e-06	415.59	141.12	121.07	41.821	4.3881e-06	52.151	-82.645	181.004	19.828	-157.388	-15.605	-57.994	-157.541	-152.808	-46.606	19.072	-153.425	-148.851	-148.390	-143.965	-122.884	-144.621	-8191	255	
1107.555	1	1	0	0	0.27654	0.28996	0.25724	0.10104	0.15254	0.044528	0.15894	0.19928	0.077511	0.093475	0.074014	0.089634	0.31036	0.0092091	0.24704	0.22818	-2.4313	-3.2625	-2.9667	-3.3917	-3.1833	-2.8542	-3.4417	-3.1792	-2.9917	-3.2562	-3.0187	-3.25	-3.1	-2.8375	-3.3333	-3.1104	175.765	-28.704	128.705	10.680	173.517	152.101	91.024	-170.471	39.395	56.668	-106.376	140.980	138.542	111.599	-113.542	172.687	0.00052063	4.972e-05	0.00010943	1369.2	7.3905e-06	7.3032e-06	1370.7	369.41	7.5117e-06	4.3522e-06	419.6	140.79	121.89	41.994	9.5111e-06	51.678	0.00041854	0.00038696	0.00011341	1370.2	4.5146e-06	4.2742e-06	1366.1	370.62	4.5496e-06	4.227e-06	417.63	141.4	121	41.789	4.7346e-06	52.064	-83.917	22.560	-128.449	-157.502	-17.903	-42.236	-157.751	-152.723	19.986	-9.852	-153.425	-148.914	-148.546	-143.976	-119.242	-144.836	-8191	255	
1107.652	1	1	0	0	0.24935	0.12958	0.18292	0.14628	0.13467	0.23741	0.26123	0.22533	0.15369	0.19264	0.20993	0.15541	0.16258	0.26559	0.23143	0.11883	-2.5438	-3.2562	-2.8208	-3.3229	-3.2042	-2.9583	-3.3354	-3.3729	-2.8937	-3.2708	-3	-3.2521	-3.275	-3.1125	-3.1688	-3.2625	23.451	-79.590	-160.094	143.667	0.134	-123.692	128.453	136.831	-164.772	-50.815	-169.499	-47.330	148.327	-117.593	-148.563	130.879	0.00045775	0.00045336	0.00019282	1371.6	3.8293e-06	3.1249e-06	1365.4	368.34	7.1549e-06	2.9079e-06	419.24	140.27	122.35	41.881	5.3283e-06	51.712	0.00041236	0.00038581	0.00012304	1369.4	4.4516e-06	4.2745e-06	1368.1	369.68	4.4427e-06	4.2716e-06	419.89	140.84	121.03	41.813	5.0257e-06	51.892	-79.332	-158.817	-150.210	-157.519	-14.888	-23.916	-157.713	-152.933	-55.469	-52.619	-153.337	-148.985	-148.525	-144.031	178.671	-144.684	-8191	255	
1107.771	1	1	0	0	0.26074	0.10682	0.18671	0.27451	0.091951	0.19085	0.14041	0.1032	0.020623	0.16859	0.26693	0.15057	0.1941	0.19377	0.060961	0.21895	-2.4188	-3.3688	-2.9271	-3.2229	-3.2104	-2.7792	-3.5083	-3.3146	-2.7604	-3.3583	-3.1354	-3.1771	-3.3771	-2.9229	-3.3021	-3.3604	-24.465	-67.428	-131.934	176.017	-159.488	98.973	95.614	162.674	166.814	-27.986	152.932	167.333	103.316	-133.640	-4.319	132.771	0.0004824	0.00016539	0.00018072	1368.9	7.0931e-06	3.4569e-06	1367.5	368.88	7.3753e-06	4.67e-06	420.99	140.39	122.29	41.926	2.9813e-06	51.773	0.00040818	0.00039719	0.00012869	1366	4.3487e-06	4.4092e-06	1370.4	368.65	4.3352e-06	4.4332e-06	420.33	140.41	120.35	41.972	4.9758e-06	51.695	-77.259	135.590	-104.988	-157.518	14.747	-118.129	-157.539	-152.892	-41.032	-144.844	-153.408	-149.048	-148.765	-144.103	-7.309	-144.889	-8191	255	
1107.843	1	1	0	0	0.15082	0.17985	0.16504	0.26148	0.066546	0.23628	0.26242	0.13228	0.12692	0.063328	0.33894	0.18665	0.10907	0.081684	0.028158	0.091038	-2.3875	-3.3167	-2.9688	-3.0479	-3.3896	-3.0708	-3.3229	-3.4437	-2.9	-3.3875	-3.0083	-3.1542	-3.3375	-3.0125	-3.1958	-3.3292	-134.795	-35.137	131.080	160.202	2.379	-82.177	92.465	82.151	189.136	189.133	101.865	121.547	131.916	-66.285	-68.259	117.874	0.00042083	0.00048033	0.00010112	1368.4	4.1556e-06	2.5919e-06	1366.6	368.41	5.0436e-06	6.3577e-06	418.88	141.37	121.7	41.746	3.0432e-06	51.698	0.00038896	0.00041255	0.00012429	1364.6	4.1331e-06	4.5923e-06	1368.4	367.6	4.1421e-06	4.6307e-06	417.72	140.23	119.88	42.042	4.7449e-06	51.437	-86.923	167.046	3.814	-157.618	-49.325	-106.648	-157.568	-152.716	-66.458	-103.336	-153.498	-148.900	-148.547	-144.076	-70.128	-144.600	-8191	255	
1107.939	1	1	0	0	0.046453	0.14543	0.11255	0.43752	0.17633	0.12306	0.12055	0.14726	0.16614	0.1099	0.1524	0.14202	0.078293	0.16397	0.20554	0.13581	-2.5229	-3.2792	-3.0208	-3.175	-3.375	-3.0854	-3.2792	-3.4188	-3.0104	-3.2792	-3.2229	-2.9792	-3.4188	-2.9625	-2.9479	-3.2417	182.323	-167.613	-131.902	142.704	184.348	99.898	90.327	-151.374	184.710	-147.992	89.122	-169.147	-81.475	-99.558	130.169	-164.527	0.00052579	0.00064466	0.00011992	1368.7	4.58e-06	4.0771e-06	1367.6	367.79	7.2321e-06	4.1922e-06	418.77	140.45	122.3	41.766	4.4068e-06	51.697	0.00037742	0.00043211	0.00011898	1360.8	4.1075e-06	4.7933e-06	1365	366.99	4.1734e-06	4.8654e-06	416.72	139.8	120.27	42.198	4.5675e-06	51.448	-78.676	-158.016	-20.156	-157.507	-57.729	-67.341	-157.672	-152.905	-9.227	-52.152	-153.534	-149.038	-148.717	-144.098	-44.693	-144.991	-8191	255	
1108.060	1	1	0	0	0.18824	0.091894	0.22084	0.27177	0.23092	0.2071	0.33899	0.21992	0.1386	0.079841	0.21646	0.16756	0.069206	0.24338	0.1098	0.22889	-2.5979	-3.2979	-2.9938	-2.9729	-3.3271	-2.9313	-3.225	-3.5458	-3.1312	-3.2875	-3.2958	-2.8896	-3.3063	-3.025	-3.0333	-3.4813	-169.382	27.514	182.596	-156.410	150.410	-120.802	175.816	179.005	-92.322	-39.464	91.537	-161.064	64.157	-159.054	101.052	61.882	0.00050411	0.00018739	0.00018736	1366.9	5.0883e-06	4.8697e-06	1363.7	368.48	5.2882e-06	5.7674e-06	419.38	140.6	122.1	41.982	7.8965e-06	51.802	0.00039666	0.00044849	0.00011543	1360.5	4.3453e-06	4.9245e-06	1365.7	367.34	4.4757e-06	4.9236e-06	416.05	139.77	121.02	42.162	4.4898e-06	51.353	-83.065	144.999	-6.387	-157.570	-72.913	18.643	-157.632	-152.900	-16.023	46.269	-153.271	-148.797	-148.769	-144.309	-16.011	-144.951	-8191	255	
1108.156	1	1	0	0	0.028319	0.027928	0.13972	0.26243	0.14184	0.050008	0.33513	0.19964	0.11131	0.13994	0.12329	0.10088	0.15499	0.17451	0.027953	0.20783	-2.5187	-3.1958	-3.1688	-3.1646	-3.2021	-2.9354	-3.3792	-3.4604	-2.9979	-3.2062	-3.3292	-3.0438	-3.3104	-3.2354	-3.0125	-3.45	-85.401	140.885	-145.566	148.965	110.282	58.612	101.596	133.811	149.486	67.930	5.039	88.137	63.594	-113.908	7.120	161.439	0.00059127	0.00069326	9.2076e-05	1368.7	3.0723e-06	9.4959e-06	1370.1	368.51	4.0996e-06	4.9585e-06	419.48	140.82	122.26	41.866	4.8099e-06	51.567	0.00042896	0.00045058	0.00011353	1361.6	4.747e-06	4.9046e-06	1366.1	367.29	4.8236e-06	4.8542e-06	415.51	139.79	122.02	42.091	4.4154e-06	51.469	-83.878	-79.018	-50.789	-157.527	-77.575	1.221	-157.582	-152.921	-93.509	35.240	-153.422	-149.057	-148.599	-143.978	-16.799	-144.885	-8191	255	
1108.252	1	1	0	0	0.12735	0.083062	0.047014	0.3317	0.25214	0.14735	0.21935	0.27054	0.28316	0.040999	0.22793	0.12565	0.14633	0.23104	0.10007	0.12858	-2.4146	-3.0625	-3.1854	-3.0104	-3.4146	-3.1688	-3.0604	-3.4042	-2.8479	-3.0375	-3.3312	-3.125	-3.1792	-3.2542	-2.8854	-3.3417	113.408	-88.394	-148.348	183.739	64.843	103.052	147.437	91.287	-61.297	-103.981	111.941	141.564	32.994	144.263	94.097	-2.691	0.00054772	0.0005983	0.00020085	1369.3	5.0274e-06	2.6842e-06	1367.4	368.07	3.3669e-06	2.8932e-06	419.83	140.31	121.99	41.724	3.1186e-06	51.893	0.00045268	0.00043187	0.00011051	1362.7	4.9489e-06	4.6781e-06	1362.1	367.7	4.981e-06	4.6286e-06	414.74	140.12	122.11	41.945	4.2782e-06	51.66	-84.176	-118.250	-5.222	-157.407	-67.782	-1.586	-157.774	-152.856	41.331	44.494	-153.722	-148.977	-148.558	-143.715	-28.439	-144.727	-8191	255	
1108.373	1	1	0	0	0.12655	0.21949	0.19393	0.27057	0.19063	0.19616	0.07306	0.054613	0.050159	0.25816	0.1252	0.184	0.1251	0.10755	0.14639	0.18974	-2.6021	-3.0333	-3.3833	-3.0521	-3.2208	-3.2229	-3.0292	-3.4396	-3.1521	-2.9479	-3.3583	-3.0729	-3.3125	-3.2188	-3.0396	-3.3521	-53.807	-110.986	-48.160	167.106	71.762	160.217	-141.908	-119.964	36.455	146.447	72.670	133.611	1.303	-82.106	104.263	146.613	0.00044303	0.00050623	0.00020969	1365.8	6.318e-06	5.2126e-06	1367.3	368.31	3.7414e-06	7.7251e-06	420.54	140.03	122.33	41.988	3.8012e-06	51.798	0.00045113	0.00041211	0.00010688	1364.5	4.9231e-06	4.4553e-06	1360	368.59	4.8574e-06	4.4342e-06	413.93	140.57	121.75	41.894	4.163e-06	51.864	-87.038	-141.446	-52.584	-157.561	-48.332	-17.665	-157.522	-153.059	24.196	-8.462	-153.423	-148.956	-148.653	-143.798	11.896	-144.985	-8191	255	
1108.444	1	1	0	0	0.1416	0.19746	0.22265	0.37849	0.15341	0.19485	0.21801	0.201	0.16454	0.18704	0.23442	0.22424	0.036947	0.089359	0.054308	0.26121	-2.8604	-2.925	-3.2625	-3.3667	-3.0854	-3.1771	-3.1479	-3.5667	-3.1583	-2.9562	-3.3125	-3.2833	-3.2146	-3.4208	-2.8854	-3.3625	135.445	104.012	-134.754	162.205	-139.663	135.095	142.612	-144.897	-110.200	104.405	150.191	37.105	-55.347	-51.055	-0.116	124.997	0.00052219	0.00015626	0.00013248	1369.3	4.3542e-06	5.3521e-06	1366.2	369.13	8.8829e-06	3.178e-06	421.23	140.71	122.65	42.104	5.5513e-07	52.017	0.00043378	0.00039641	0.00010372	1367.5	4.6749e-06	4.3147e-06	1360.6	369.44	4.647e-06	4.3079e-06	414.33	141.45	121.64	41.847	4.209e-06	52.024	-81.151	-77.188	-99.389	-157.458	16.247	-60.155	-157.691	-152.905	5.696	-33.951	-153.481	-148.896	-148.632	-143.863	149.866	-144.712	-8191	255	
1108.541	1	1	0	0	0.071014	0.11125	0.10096	0.21213	0.19765	0.16609	0.08837	0.15674	0.11569	0.2456	0.087776	0.17525	0.21656	0.13203	0.23702	0.046294	-2.6813	-2.6833	-3.2333	-3.1354	-3.0771	-3.3229	-3.1	-3.3625	-3.0604	-3.0604	-3.2438	-3.1229	-3.0396	-3.2771	-3.0271	-3.4354	-142.284	-6.797	26.530	162.284	160.012	50.992	141.100	102.307	-156.338	152.101	134.505	43.860	-105.867	-91.644	71.099	-93.287	0.00052446	0.00026803	0.00010188	1367.4	2.1431e-06	5.547e-06	1369.6	369.12	5.6255e-06	2.0241e-06	421.94	140.68	121.83	41.894	4.8048e-06	51.927	0.00041159	0.00038495	0.00010694	1370.7	4.4451e-06	4.1293e-06	1364	370.12	4.3572e-06	4.1213e-06	416.03	141.32	120.76	41.735	4.4305e-06	52.015	-85.222	-135.844	-45.121	-157.434	76.609	11.038	-157.731	-152.851	9.934	9.966	-153.647	-148.796	-148.379	-143.995	-93.983	-144.829	-8191	255	
1108.637	1	1	0	0	0.066272	0.12999	0.13768	0.35164	0.13293	0.16621	0.47122	0.087025	0.16397	0.12972	0.13545	0.14435	0.068385	0.12465	0.086096	0.14217	-2.5833	-2.8271	-3.2729	-3.1458	-2.9875	-3.3958	-3.0042	-3.3458	-3.3063	-2.8979	-3.4	-3.1833	-3.0896	-3.4042	-3.0563	-3.0292	45.289	-49.533	49.881	175.127	-44.553	-81.812	122.172	32.308	-8.515	169.456	107.199	54.524	-162.228	101.901	90.466	138.937	0.00040498	0.0004555	0.00010203	1371.3	2.3935e-06	3.4227e-06	1369.5	369.49	3.6459e-06	3.8566e-06	421.8	140.96	122.79	41.961	6.8108e-07	51.954	0.00039817	0.00037242	0.00011367	1371	4.3144e-06	4.0273e-06	1368.1	370.18	4.2765e-06	4.084e-06	417.61	141.1	120.84	41.735	4.7468e-06	51.874	-86.841	-90.392	-41.023	-157.441	-63.573	-72.979	-157.739	-152.880	35.869	-4.329	-153.617	-149.082	-148.558	-143.908	72.062	-144.784	-8191	255	
1108.756	1	1	0	0	0.084777	0.22296	0.14647	0.11103	0.087452	0.31797	0.016206	0.38679	0.31999	0.12626	0.091982	0.17695	0.097799	0.2567	0.1133	0.19849	-2.7042	-2.8146	-3.2438	-3.2896	-3.0021	-3.3	-3.2208	-3.1937	-3.1146	-2.9167	-3.4	-3.0687	-2.8958	-3.3667	-3.0229	-3.225	45.446	-155.223	-140.240	136.056	145.652	-75.881	-95.833	88.687	-147.872	-119.959	57.605	179.422	151.415	122.112	-75.857	149.652	0.00049629	0.0002281	0.00023207	1376.1	2.2453e-06	8.8046e-06	1368.9	370.03	4.5465e-06	2.2077e-06	420.9	140.71	122.38	41.941	4.5404e-06	52.055	0.0003941	0.0003799	0.00012199	1371.7	4.2732e-06	4.1736e-06	1371.9	369.15	4.2099e-06	4.2e-06	419.22	140.7	120.49	41.847	4.8784e-06	51.748	-82.608	184.053	-100.539	-157.475	-94.253	-130.474	-157.664	-152.842	21.712	30.254	-153.382	-149.025	-148.311	-144.197	-107.045	-144.632	-8191	255	
1108.852	1	1	0	0	0.28578	0.26072	0.12513	0.24676	0.11879	0.35182	0.26302	0.14642	0.15322	0.11163	0.22526	0.20135	0.27069	0.094689	0.10368	0.38277	-2.8167	-2.8833	-3.1937	-3.2833	-3.0021	-3.4917	-3.2771	-3.1479	-3.4292	-2.9979	-3.2583	-3.4313	-3.025	-3.2042	-3.0187	-3.0917	152.672	128.591	-68.516	175.590	-60.928	77.166	134.043	57.682	18.027	80.726	79.123	182.769	64.692	140.853	86.672	-155.617	0.0004843	0.00020585	0.00010678	1368.5	5.9783e-06	2.4411e-06	1370	369.26	4.178e-06	1.4188e-06	420.19	140.72	122.28	42.111	2.4372e-06	51.854	0.00038248	0.00039909	0.00012356	1365.3	4.1733e-06	4.3925e-06	1372.4	368.55	4.0949e-06	4.4556e-06	419.06	140.17	120.09	41.996	4.7263e-06	51.586	-80.573	154.070	9.745	-157.546	8.381	-118.171	-157.663	-152.910	12.768	174.081	-153.460	-148.935	-148.614	-144.006	6.915	-144.911	-8191	255	
1108.948	1	1	0	0	0.08188	0.13064	0.15022	0.16121	0.25127	0.14103	0.31147	0.19898	0.34419	0.051173	0.32792	0.24201	0.22461	0.12845	0.17803	0.32299	-2.8917	-2.9437	-3.0542	-3.3146	-2.9396	-3.4062	-3.3187	-3.1708	-3.2812	-3.0292	-3.1875	-3.2333	-2.8792	-3.2271	-3.1042	-3.0812	-141.020	7.969	93.730	149.145	32.207	92.658	91.735	168.671	-138.868	-49.589	183.167	157.195	81.276	31.275	-59.970	117.477	0.00053982	0.00053288	0.00027154	1372.2	1.9611e-06	8.4304e-06	1367.1	368.99	6.9986e-06	5.0062e-06	418.26	140.87	121.9	41.927	2.9979e-06	51.804	0.00036685	0.00041602	0.00011762	1363.9	4.0257e-06	4.5476e-06	1367.7	367.85	4.0032e-06	4.6637e-06	417.33	139.86	120.15	42.187	4.4723e-06	51.489	-86.876	-142.375	-49.097	-157.497	-17.756	180.048	-157.625	-152.894	-1.810	-89.099	-153.451	-149.065	-148.628	-144.045	12.138	-144.939	-8191	255	
1109.020	1	1	0	0	0.14918	0.082297	0.12172	0.071985	0.16559	0.032527	0.13195	0.11213	0.063476	0.084643	0.25365	0.16987	0.18518	0.049325	0.12508	0.28641	-2.9125	-2.8563	-3.0583	-3.3438	-2.8729	-3.1396	-3.3417	-3.0396	-3.2979	-3.1646	-3.1063	-3.4417	-2.9542	-3.2167	-3.0542	-3.0042	-94.740	143.313	153.008	85.545	-84.047	37.228	129.019	143.502	125.808	-29.957	-130.925	-130.976	75.437	62.985	-103.099	120.025	0.00060831	0.00031491	0.00019331	1374	4.6629e-06	4.7626e-06	1370.8	369.2	7.9311e-06	2.3156e-06	420.23	140.99	122.27	42.011	1.8132e-06	51.885	0.00037434	0.00043097	0.00011288	1364	4.1316e-06	4.7254e-06	1367.9	367.55	4.1439e-06	4.7533e-06	416.03	139.77	120.59	42.175	4.2903e-06	51.302	-90.831	-118.014	-49.308	-157.435	-63.807	-92.790	-157.485	-152.799	-43.436	8.796	-153.376	-149.085	-148.411	-143.959	72.213	-144.776	-8191	255	
1109.140	1	1	0	0	0.12111	0.26759	0.17267	0.2382	0.16443	0.054679	0.25723	0.2319	0.1121	0.14458	0.17317	0.27383	0.1659	0.11145	0.095286	0.25477	-2.9042	-2.8937	-3.025	-3.5021	-2.8875	-3.3021	-3.2792	-2.9542	-3.2438	-3.0938	-3.0083	-3.4229	-3.025	-3.0917	-3.0917	-2.8875	27.489	42.689	-156.931	167.556	167.287	179.778	152.789	154.025	183.264	-131.296	-135.537	123.857	-147.207	-151.861	77.873	112.966	0.00050696	0.0003839	4.9161e-05	1370.9	5.8435e-06	8.9112e-06	1365.7	367.85	6.4017e-06	7.3485e-06	420.61	140.53	122.15	42.055	7.3075e-06	51.777	0.00039342	0.00042925	0.00010897	1362.1	4.3832e-06	4.6751e-06	1364.5	367.2	4.4619e-06	4.6401e-06	414.61	139.43	121.35	42.148	4.1949e-06	51.365	-90.875	-68.558	-43.331	-157.539	-98.066	-72.998	-157.553	-152.884	-91.310	-71.343	-153.612	-148.917	-148.567	-144.119	-6.998	-144.569	-8191	255	
1109.236	1	1	0	0	0.26392	0.23831	0.18564	0.21714	0.0881	0.14622	0.089245	0.20374	0.1356	0.17809	0.19583	0.10717	0.0548	0.087238	0.14664	0.23575	-2.7875	-2.9271	-2.8833	-3.3917	-2.9354	-3.15	-3.3187	-3.025	-3.2125	-3.1083	-3.0667	-3.2146	-3.0583	-3.0125	-3.2792	-3.0854	-122.926	42.826	82.455	164.313	-121.114	130.352	188.210	145.152	33.258	92.339	51.298	85.800	-147.102	178.670	-78.130	136.092	0.00054826	0.00027697	0.00013474	1369.9	5.7472e-06	6.5745e-06	1369.8	369.67	4.7621e-06	3.9469e-06	421.24	141.06	122.31	41.901	3.3873e-06	51.64	0.00041932	0.00041603	0.00010645	1360.9	4.6385e-06	4.5061e-06	1362.9	367.58	4.654e-06	4.4598e-06	414.84	139.88	121.53	41.927	4.0803e-06	51.409	-87.587	-36.075	-85.352	-157.516	3.430	-68.493	-157.778	-152.896	-31.937	-3.037	-153.280	-148.941	-148.687	-143.916	-6.834	-144.713	-8191	255	
#DATA ENDS
