BOXY.EXE: ISS Imagent and Oximeter Data Acquisition Program Version 0.80
Ascii Record File

#ACQ INFORMATION
2  Detector Channels 
16  External MUX Channels 
1  Auxiliary Channels 
5000  Waveform (CCF) Frequency (Hz)
1  Waveforms Skipped 
30  Waveforms Averaged 
1  Cycles Averaged 
16  Acquisitions per Waveform 
10.0806  Updata Rate (Hz) 

#FILE INFORMATION
TRUE -- External MUX Channel results are PARSED.
FALSE -- AC DC and Phase are NOT grouped.
TRUE -- Companion Program Settings File CREATED.
FALSE -- AC data not excluded
FALSE -- DC data not excluded
FALSE -- Phase data not excluded
FALSE -- Auxillary Chn. data not excluded
Tab delimiters

#CALIBRATION STATE
TRUE -- Waveform Calibration Values APPLIED.


#AUX CALIBRATION VALUES
Val Type	aux-1	

Term	1.0000e+00	
Factor	0.0000e+00	


#WF CALIBRATION VALUES
A = Detector Channel
Val Type	A-AC1	A-AC2	A-AC3	A-AC4	A-AC5	A-AC6	A-AC7	A-AC8	A-AC9	A-AC10	A-AC11	A-AC12	A-AC13	A-AC14	A-AC15	A-AC16	A-DC1	A-DC2	A-DC3	A-DC4	A-DC5	A-DC6	A-DC7	A-DC8	A-DC9	A-DC10	A-DC11	A-DC12	A-DC13	A-DC14	A-DC15	A-DC16	A-Ph1	A-Ph2	A-Ph3	A-Ph4	A-Ph5	A-Ph6	A-Ph7	A-Ph8	A-Ph9	A-Ph10	A-Ph11	A-Ph12	A-Ph13	A-Ph14	A-Ph15	A-Ph16	

Term	0.00000e+00	0.00000e+00	0.00000e+00	0.00000e+00	0.00000e+00	0.00000e+00	0.00000e+00	0.00000e+00	0.00000e+00	0.00000e+00	0.00000e+00	0.00000e+00	0.00000e+00	0.00000e+00	0.00000e+00	0.00000e+00	0.00000e+00	0.00000e+00	0.00000e+00	0.00000e+00	0.00000e+00	0.00000e+00	0.00000e+00	0.00000e+00	0.00000e+00	0.00000e+00	0.00000e+00	0.00000e+00	0.00000e+00	0.00000e+00	0.00000e+00	0.00000e+00	0.00000e+00	0.00000e+00	0.00000e+00	0.00000e+00	0.00000e+00	0.00000e+00	0.00000e+00	0.00000e+00	0.00000e+00	0.00000e+00	0.00000e+00	0.00000e+00	0.00000e+00	0.00000e+00	0.00000e+00	0.00000e+00	
Factor	1.00000e+00	1.00000e+00	1.00000e+00	1.00000e+00	1.00000e+00	1.00000e+00	1.00000e+00	1.00000e+00	1.00000e+00	1.00000e+00	1.00000e+00	1.00000e+00	1.00000e+00	1.00000e+00	1.00000e+00	1.00000e+00	1.00000e+00	1.00000e+00	1.00000e+00	1.00000e+00	1.00000e+00	1.00000e+00	1.00000e+00	1.00000e+00	1.00000e+00	1.00000e+00	1.00000e+00	1.00000e+00	1.00000e+00	1.00000e+00	1.00000e+00	1.00000e+00	X	X	X	X	X	X	X	X	X	X	X	X	X	X	X	X	

B = Detector Channel
Val Type	B-AC1	B-AC2	B-AC3	B-AC4	B-AC5	B-AC6	B-AC7	B-AC8	B-AC9	B-AC10	B-AC11	B-AC12	B-AC13	B-AC14	B-AC15	B-AC16	B-DC1	B-DC2	B-DC3	B-DC4	B-DC5	B-DC6	B-DC7	B-DC8	B-DC9	B-DC10	B-DC11	B-DC12	B-DC13	B-DC14	B-DC15	B-DC16	B-Ph1	B-Ph2	B-Ph3	B-Ph4	B-Ph5	B-Ph6	B-Ph7	B-Ph8	B-Ph9	B-Ph10	B-Ph11	B-Ph12	B-Ph13	B-Ph14	B-Ph15	B-Ph16	

Term	0.00000e+00	0.00000e+00	0.00000e+00	0.00000e+00	0.00000e+00	0.00000e+00	0.00000e+00	0.00000e+00	0.00000e+00	0.00000e+00	0.00000e+00	0.00000e+00	0.00000e+00	0.00000e+00	0.00000e+00	0.00000e+00	0.00000e+00	0.00000e+00	0.00000e+00	0.00000e+00	0.00000e+00	0.00000e+00	0.00000e+00	0.00000e+00	0.00000e+00	0.00000e+00	0.00000e+00	0.00000e+00	0.00000e+00	0.00000e+00	0.00000e+00	0.00000e+00	-5.24022e+01	-1.64169e+02	-9.76990e+01	-1.80969e+02	-5.66720e+01	-9.77327e+01	-1.56073e+02	-1.62015e+02	-2.91745e+01	-6.44927e+01	-1.73276e+02	-1.70265e+02	-1.82009e+02	-1.76771e+02	-6.96488e+01	-1.50163e+02	
Factor	1.86859e-05	9.78118e-05	2.79070e-05	1.67683e-01	9.76611e-07	1.10387e-06	1.73110e-01	5.09591e-02	1.07639e-06	1.05178e-06	1.04153e-01	2.91335e-02	3.50756e-02	9.31146e-03	9.58455e-07	1.36155e-02	6.11716e-07	6.27859e-07	1.75053e-07	7.79073e-02	6.84918e-09	6.89061e-09	7.55109e-02	2.36384e-02	6.84905e-09	6.88618e-09	4.50172e-02	1.28399e-02	1.55609e-02	4.22386e-03	6.88738e-09	5.88561e-03	X	X	X	X	X	X	X	X	X	X	X	X	X	X	X	X	



#DISTANCE SETTINGS
A = Detector Channel
A-1	A-2	A-3	A-4	A-5	A-6	A-7	A-8	A-9	A-10	A-11	A-12	A-13	A-14	A-15	A-16	

2.5000e+00	3.0000e+00	2.5000e+00	3.0000e+00	2.0000e+00	3.0000e+00	1.5000e+00	3.0000e+00	3.0000e+00	3.0000e+00	3.0000e+00	3.0000e+00	3.0000e+00	3.0000e+00	1.5000e+00	3.0000e+00	

B = Detector Channel
B-1	B-2	B-3	B-4	B-5	B-6	B-7	B-8	B-9	B-10	B-11	B-12	B-13	B-14	B-15	B-16	

1.0000e+01	1.0000e+01	1.0000e+01	1.4400e+00	1.0000e+01	1.0000e+01	1.5100e+00	1.9400e+00	1.0000e+01	1.0000e+01	1.9900e+00	2.4900e+00	2.4100e+00	2.9000e+00	1.0000e+01	2.9800e+00	




#DATA BEGINS
time	group	step	mark	flag	A-AC1	A-AC2	A-AC3	A-AC4	A-AC5	A-AC6	A-AC7	A-AC8	A-AC9	A-AC10	A-AC11	A-AC12	A-AC13	A-AC14	A-AC15	A-AC16	A-DC1	A-DC2	A-DC3	A-DC4	A-DC5	A-DC6	A-DC7	A-DC8	A-DC9	A-DC10	A-DC11	A-DC12	A-DC13	A-DC14	A-DC15	A-DC16	A-Ph1	A-Ph2	A-Ph3	A-Ph4	A-Ph5	A-Ph6	A-Ph7	A-Ph8	A-Ph9	A-Ph10	A-Ph11	A-Ph12	A-Ph13	A-Ph14	A-Ph15	A-Ph16	B-AC1	B-AC2	B-AC3	B-AC4	B-AC5	B-AC6	B-AC7	B-AC8	B-AC9	B-AC10	B-AC11	B-AC12	B-AC13	B-AC14	B-AC15	B-AC16	B-DC1	B-DC2	B-DC3	B-DC4	B-DC5	B-DC6	B-DC7	B-DC8	B-DC9	B-DC10	B-DC11	B-DC12	B-DC13	B-DC14	B-DC15	B-DC16	B-Ph1	B-Ph2	B-Ph3	B-Ph4	B-Ph5	B-Ph6	B-Ph7	B-Ph8	B-Ph9	B-Ph10	B-Ph11	B-Ph12	B-Ph13	B-Ph14	B-Ph15	B-Ph16	aux-1	digaux	

1205.582	1	1	0	256	0.044	0.37727	0.18478	0.29096	0.22408	0.059811	0.05715	0.17254	0.033597	0.12571	0.11957	0.12805	0.27572	0.27214	0.063106	0.12681	-2.7875	-2.9562	-3.4875	-3.1417	-3.3083	-3.0625	-3.0708	-3.6167	-3.0521	-3.1917	-3.3625	-3.1146	-3.2333	-3.3479	-2.9333	-3.4583	60.291	-157.578	-48.355	128.408	21.894	51.513	22.022	-58.958	106.696	-13.169	71.820	-148.295	-117.736	-53.396	-16.883	-44.684	0.00050845	0.0006528	0.00014483	1282.8	2.843e-06	2.9263e-06	1291.4	348.36	3.7521e-06	3.5556e-06	397.05	134.34	116.56	40.2	1.4404e-06	50.046	0.00037814	0.0003667	9.3752e-05	1281.8	4.1435e-06	3.9525e-06	1287.7	348.04	4.1677e-06	3.8887e-06	391.12	133.64	115.61	40.2	3.5845e-06	49.651	-90.049	-51.882	-40.659	-157.143	6.960	-43.282	-157.043	-152.084	-63.552	16.348	-152.889	-148.448	-147.914	-143.404	-68.660	-144.081	-8191	255	
1205.703	1	1	0	0	0.11769	0.15425	0.11294	0.090211	0.16906	0.095711	0.20122	0.16621	0.1955	0.12364	0.10933	0.32331	0.40041	0.29834	0.085542	0.12631	-2.8375	-3.0146	-3.2979	-3.1937	-3.1542	-3.2625	-3.0542	-3.4688	-3.0771	-3.2104	-3.425	-3.0812	-3.2979	-3.5125	-3.0125	-3.6125	91.109	-131.750	181.260	171.475	62.306	135.987	96.035	-160.581	139.667	52.759	-165.022	151.363	-159.354	-145.577	59.129	101.650	0.00044175	0.00059046	3.579e-05	1287.8	6.5759e-06	4.5332e-06	1292.2	348.38	6.483e-06	5.1882e-06	397.57	134.08	116.26	40.082	1.167e-06	50.034	0.00037647	0.00034072	8.8158e-05	1285.7	4.0699e-06	3.705e-06	1287.4	348.77	4.1065e-06	3.7574e-06	390.72	133.84	115.24	40.055	3.6166e-06	49.866	-81.838	-99.097	30.742	-157.013	-58.674	-28.111	-157.023	-152.214	31.807	-25.003	-152.711	-148.285	-147.606	-143.301	56.602	-144.240	-8191	255	
1205.799	1	1	0	0	0.1423	0.047268	0.28651	0.32295	0.060557	0.22702	0.10188	0.23857	0.0044777	0.26199	0.084644	0.21638	0.14925	0.25858	0.074518	0.1719	-2.7521	-3	-3.2458	-3.1875	-3.2125	-3.2208	-3.1875	-3.3104	-3.15	-3.0458	-3.3396	-3.2562	-3.0292	-3.3312	-3.1188	-3.3771	90.808	-158.880	-16.964	116.370	185.407	184.394	102.111	93.108	-62.061	-115.089	-42.446	140.840	121.630	66.471	-155.086	-155.920	0.00046306	0.00018066	9.0996e-05	1287.6	4.078e-06	4.2423e-06	1288	348.03	6.6462e-06	2.992e-06	397.86	134.05	116.38	40.165	1.3369e-06	49.905	0.00037999	0.00034918	9.2067e-05	1288.7	4.1186e-06	3.7891e-06	1285.7	349.62	4.0913e-06	3.8041e-06	391.14	134.35	114.94	40.032	3.7482e-06	50.039	-79.243	-125.016	-72.848	-156.994	53.548	-51.181	-156.907	-152.243	-4.798	-48.619	-152.942	-148.571	-147.856	-143.003	-3.059	-144.307	-8191	255	
1205.894	1	1	0	0	0.12187	0.066268	0.1095	0.14667	0.2686	0.14303	0.11864	0.17662	0.022727	0.20901	0.038277	0.27621	0.29393	0.21388	0.1364	0.27453	-2.7062	-2.8146	-3.0979	-3.2562	-3.0062	-3.4042	-3.1375	-3.4396	-3.1479	-3.0833	-3.3708	-3.3312	-3.0729	-3.4708	-3.0229	-3.4562	-0.546	102.710	138.280	-106.868	-86.956	-100.703	97.154	102.153	-150.681	-137.519	111.826	166.066	48.040	101.995	-92.928	-161.072	0.00047111	0.00049366	0.00012739	1283.9	5.0445e-06	8.5605e-06	1285.2	347.42	5.5564e-06	8.7682e-07	394.77	133.69	115.39	39.934	1.7678e-06	49.951	0.00036548	0.00034021	9.508e-05	1287.4	3.9173e-06	3.6327e-06	1285	349.16	3.8318e-06	3.6441e-06	391.28	134.21	114.29	39.851	3.9581e-06	49.995	-86.257	-106.212	-139.571	-157.028	53.924	-31.994	-157.251	-152.246	28.070	-5.153	-152.995	-148.434	-147.853	-143.441	-139.880	-144.382	-8191	255	
1205.990	1	1	0	0	0.13905	0.24154	0.18343	0.19001	0.36662	0.056884	0.11464	0.23143	0.14886	0.14831	0.28089	0.12068	0.34303	0.17945	0.17151	0.14065	-2.8396	-2.9521	-3.2833	-3.1958	-3.1271	-3.4062	-3.1292	-3.2896	-3.1958	-3.0354	-3.4604	-3.1917	-3.0854	-3.4479	-3.0479	-3.1229	-37.257	159.998	10.972	147.430	-106.388	-128.248	120.660	187.122	99.085	-152.240	188.926	174.306	111.612	-99.014	54.997	-139.629	0.00045948	1.8666e-05	9.1673e-05	1281.1	1.2891e-06	5.9352e-06	1285.9	348.53	4.4116e-06	7.3547e-07	396.58	133.31	115.04	40.081	1.5618e-06	49.905	0.0003604	0.00033961	0.00010382	1287.5	3.9889e-06	3.7547e-06	1289.4	349.8	4.0119e-06	3.8216e-06	395.66	134.17	114.22	39.952	4.4834e-06	50.089	-82.557	-2.762	-153.924	-156.917	-117.340	-39.698	-157.086	-152.195	-79.731	-20.735	-152.957	-148.356	-147.908	-143.379	-68.148	-144.328	-8191	255	
1206.110	1	1	0	0	0.12667	0.11613	0.28898	0.18729	0.17753	0.17319	0.065514	0.22383	0.23647	0.22765	0.020003	0.24053	0.2472	0.20401	0.085778	0.19183	-2.9208	-2.7604	-3.1271	-3.2438	-2.9938	-3.25	-3.2583	-3.1917	-3.2833	-3.0896	-3.375	-3.0792	-2.9646	-3.4146	-3.1333	-3.0979	179.369	-13.491	-89.201	179.329	33.358	104.664	27.329	120.607	30.303	120.521	24.328	145.000	158.396	120.098	81.576	-115.940	0.0004748	0.00054478	2.4008e-05	1287.6	4.2259e-06	1.5892e-06	1288.2	348.96	8.2231e-06	4.1737e-06	399.76	134.15	116.06	39.91	2.9244e-06	50.078	0.00037336	0.00036249	0.00011714	1292.3	4.144e-06	4.0562e-06	1298.6	351.03	4.1411e-06	4.2193e-06	399.97	134.7	115.31	40.233	4.9814e-06	50.358	-88.789	-151.652	86.619	-156.853	-14.797	156.340	-157.167	-152.212	-24.041	-131.885	-152.995	-148.404	-147.739	-143.463	-63.936	-144.215	-8191	255	
1206.206	1	1	0	0	0.22039	0.082507	0.048691	0.43784	0.30319	0.10979	0.25201	0.27373	0.06756	0.13369	0.18598	0.17948	0.081006	0.10903	0.074979	0.22996	-2.9021	-2.8667	-3.2521	-3.3229	-2.9562	-3.5792	-3.2417	-3.2208	-3.5292	-2.7833	-3.3792	-3.125	-2.9875	-3.2625	-3.1792	-3.2333	-46.073	30.156	52.852	149.406	181.921	-0.026	142.541	102.835	-157.916	63.913	-14.104	-142.847	39.389	-120.104	-12.564	134.844	0.0004642	0.00050193	3.5607e-05	1294.3	1.7885e-06	2.5572e-06	1297.2	349.71	4.7941e-06	7.1222e-06	399.03	134.53	116.25	39.994	2.9735e-06	49.844	0.00039209	0.00041221	0.00012904	1299.5	4.3639e-06	4.6172e-06	1308.7	352.6	4.2766e-06	4.7124e-06	401.57	135.12	115.61	40.636	4.9565e-06	50.333	-84.808	166.393	-112.390	-156.971	8.005	-164.309	-157.011	-152.167	22.165	-119.295	-153.243	-148.645	-147.787	-143.298	65.681	-144.218	-8191	255	
1206.278	1	1	0	0	0.13177	0.13866	0.25418	0.2441	0.068547	0.2237	0.34937	0.14791	0.20848	0.11488	0.14728	0.1439	0.13808	0.086775	0.19637	0.37214	-2.9813	-3.0104	-3.2271	-3.3896	-2.8917	-3.2167	-3.3625	-3.15	-3.3229	-3.0354	-3.3104	-3.4417	-2.9396	-3.4437	-3.2125	-3.125	98.453	-70.990	-120.299	107.500	124.915	107.312	-167.477	155.544	-70.634	81.091	101.472	177.279	93.668	-162.274	75.782	101.909	0.00050349	0.00042811	0.0001831	1296.1	1.0706e-07	4.5063e-06	1295	350.01	4.6668e-06	2.7565e-06	399.7	133.7	115.37	40.055	5.4122e-06	49.988	0.00038757	0.00044097	0.00012393	1298.7	4.1981e-06	4.7915e-06	1303.6	350.79	4.0865e-06	4.7414e-06	397.82	134.07	114.61	40.407	4.3845e-06	49.794	-88.772	180.134	7.374	-156.962	-45.822	-85.148	-157.219	-152.278	-87.588	-20.302	-152.965	-148.376	-147.810	-143.522	52.155	-144.194	-8191	255	
1206.399	1	1	0	0	0.11783	0.24804	0.32639	0.07887	0.13732	0.051064	0.29795	0.29635	0.17456	0.10155	0.0049863	0.043724	0.087196	0.2215	0.046101	0.24518	-2.8063	-2.9896	-3.0021	-3.4271	-2.8688	-3.2583	-3.4	-3.0083	-3.3417	-3.0646	-3.1854	-3.4375	-3.0667	-3.2583	-3.2	-2.9104	120.630	-164.358	141.744	114.316	54.038	20.142	93.083	79.994	-129.739	128.004	-1.536	-138.816	-155.162	-168.667	105.564	-148.003	0.00049078	0.00025842	5.8442e-05	1293	2.3316e-06	1.6751e-06	1289.1	347.21	6.6897e-06	5.6979e-06	396.77	133.78	115.36	39.772	2.6441e-06	49.583	0.00036795	0.00042183	0.00010967	1288.5	4.0563e-06	4.6239e-06	1290.1	347.52	4.0599e-06	4.5679e-06	393.35	132.93	114.46	40.154	4.1047e-06	49.414	-83.583	-111.445	52.671	-156.862	-82.950	-145.548	-157.014	-152.399	-46.336	-22.022	-152.830	-148.353	-147.874	-143.454	36.517	-144.313	-8191	255	
1206.495	1	1	0	0	0.065616	0.091363	0.097797	0.12962	0.13874	0.17665	0.34372	0.051714	0.096875	0.20194	0.12817	0.11339	0.18742	0.27898	0.13534	0.089374	-2.8833	-2.9604	-2.8708	-3.4625	-2.9813	-3.2042	-3.3521	-3.0396	-3.3042	-3	-3.0958	-3.4354	-3.0625	-3.1021	-3.3063	-3.0646	97.900	-95.448	76.715	63.919	7.077	21.535	145.810	-163.571	48.088	30.435	-4.849	182.443	189.138	138.534	-88.272	141.441	0.00043925	0.00030714	0.00011925	1281.5	4.3405e-06	4.4828e-07	1281.3	345.48	7.1554e-06	4.7446e-06	394.38	132.86	114.51	39.716	3.581e-06	49.657	0.00037888	0.00040728	0.00010346	1277.5	4.1934e-06	4.4012e-06	1282.6	345.6	4.2675e-06	4.3364e-06	390.68	132.32	114.49	39.914	3.9379e-06	49.298	-93.646	-68.988	-14.306	-156.957	-98.496	-84.929	-157.138	-152.200	-32.070	-1.465	-152.740	-148.306	-147.882	-143.143	-71.250	-144.376	-8191	255	
1206.591	1	1	0	0	0.039931	0.068703	0.27912	0.2375	0.19406	0.17066	0.29649	0.18161	0.15857	0.16208	0.12984	0.36044	0.26548	0.061154	0.092391	0.1059	-2.8063	-3.3271	-2.8292	-3.525	-2.9583	-3.0396	-3.3458	-3.1083	-3.1667	-3.1583	-2.9396	-3.2896	-3.0563	-3	-3.3979	-3.0958	-15.047	65.828	70.768	149.163	-78.582	-138.017	116.280	116.896	73.455	-53.601	-157.183	141.883	155.027	-98.200	-163.106	141.358	0.00054056	0.00085594	0.00014445	1275	8.1103e-07	1.7402e-06	1273.9	344.74	5.8611e-06	5.5706e-06	392.69	132.64	114.8	39.6	4.5994e-06	49.586	0.00039579	0.00038331	9.856e-05	1272.1	4.3162e-06	4.1408e-06	1274.4	344.51	4.3115e-06	4.0425e-06	387.85	131.91	114.16	39.645	3.7072e-06	49.221	-91.734	-58.320	-46.300	-156.771	-147.375	-56.975	-156.899	-152.264	-53.798	13.252	-152.695	-148.422	-147.580	-142.977	-64.740	-144.118	-8191	255	
1206.685	1	1	0	0	0.17978	0.32154	0.11839	0.19199	0.1266	0.20969	0.22668	0.055315	0.24411	0.053329	0.12935	0.22089	0.16378	0.14087	0.29286	0.23125	-2.9792	-3.125	-3.0083	-3.4708	-3.0146	-3.025	-3.4938	-3.1979	-3.2938	-3.2479	-3.1688	-3.5729	-3.1562	-2.9958	-3.3937	-2.8875	36.913	126.563	30.833	-163.227	173.154	10.309	155.706	126.716	87.765	57.579	-139.929	-161.671	66.887	151.780	87.555	-0.928	0.00049937	0.00052	7.1509e-05	1274.9	3.3363e-06	4.1779e-06	1274.8	344.86	6.6056e-07	6.2329e-06	392.15	132.05	114.74	39.502	2.4129e-06	49.683	0.0003947	0.0003561	9.2884e-05	1270.1	4.2107e-06	3.8449e-06	1267.4	344.41	4.1695e-06	3.7534e-06	385.75	131.89	113.51	39.463	3.516e-06	49.378	-81.267	-69.453	-64.127	-156.912	-24.272	-44.355	-157.017	-152.273	-104.894	21.003	-152.771	-148.354	-147.696	-143.181	-50.537	-144.110	-8191	255	
1206.806	1	1	0	0	0.17085	0.27303	0.13599	0.013224	0.1935	0.18826	0.16279	0.20798	0.31505	0.19139	0.19705	0.10289	0.21063	0.22412	0.20442	0.098926	-2.8083	-3.2687	-2.8604	-3.4458	-2.9646	-3.1937	-3.5875	-3.1292	-3.1396	-3.2667	-3.0208	-3.3563	-3.0854	-2.9521	-3.2938	-3.1521	11.806	107.634	14.803	-29.281	53.250	185.571	137.466	167.488	-166.036	182.218	-159.511	69.260	-143.564	-152.997	-80.759	176.882	0.00041699	0.0004661	0.00020259	1271.1	5.3757e-06	4.7758e-06	1274.1	344.14	3.8568e-06	2.0546e-06	392.73	132.42	113.86	39.557	5.8423e-06	49.42	0.00037603	0.00034262	9.02e-05	1269	4.0493e-06	3.7533e-06	1265.7	344.75	4.0368e-06	3.724e-06	386.68	132.61	113.03	39.391	3.6525e-06	49.551	-81.757	-93.705	-83.498	-156.878	68.086	-57.780	-157.031	-152.218	12.356	29.726	-152.932	-148.446	-147.535	-143.263	-142.786	-144.246	-8191	255	
1206.878	1	1	0	0	0.33714	0.29083	0.036991	0.15869	0.11058	0.23779	0.083265	0.19114	0.24606	0.1143	0.12377	0.19297	0.040537	0.16027	0.041538	0.22244	-2.8021	-3.2083	-2.8271	-3.2333	-3.0687	-2.8542	-3.7479	-3.175	-3.1917	-3.35	-2.9667	-3.2292	-3.3125	-3.0146	-3.2208	-3.2729	126.871	-130.861	30.893	166.401	-109.804	168.066	152.521	106.242	-19.461	-23.306	-51.195	53.690	-153.148	77.179	-127.941	172.557	0.00047107	0.0007195	0.00010115	1274	6.7509e-06	6.1009e-06	1274.5	344.34	6.2937e-06	3.7803e-06	392.97	132.38	114.64	39.56	3.6982e-06	49.752	0.00036383	0.00033569	9.3863e-05	1272.2	3.8708e-06	3.6953e-06	1268.7	345.33	3.9066e-06	3.6551e-06	387.71	132.65	112.91	39.35	3.9643e-06	49.603	-85.822	-104.150	-65.950	-157.036	-12.789	-47.982	-157.135	-152.093	-2.342	1.146	-153.124	-148.328	-147.922	-143.124	-113.825	-144.232	-8191	255	
1206.974	1	1	0	0	0.35892	0.10502	0.22736	0.15583	0.060384	0.081121	0.28887	0.30849	0.27788	0.076197	0.14774	0.19734	0.1316	0.2264	0.1368	0.27606	-2.6354	-3.2792	-2.9062	-3.4437	-3.1979	-2.9688	-3.5667	-3.3333	-2.9833	-3.5521	-3.0646	-3.2438	-3.4854	-3.1146	-3.2646	-3.2042	-140.809	-118.654	-16.089	185.023	-81.338	56.509	105.126	143.126	157.156	-48.103	-8.476	119.189	-77.453	-121.046	143.890	-45.160	0.00042852	0.00045886	6.0799e-05	1272.9	7.091e-06	4.6848e-06	1280.3	344.97	5.414e-06	2.1969e-06	394.76	132.63	115.17	39.695	4.1507e-06	49.689	0.00036235	0.00033502	0.00010278	1272.5	3.8768e-06	3.7062e-06	1276	345.61	3.9123e-06	3.6442e-06	390.68	132.89	112.98	39.416	4.2604e-06	49.557	-84.320	-110.159	-168.777	-156.720	-20.956	110.692	-157.064	-152.045	-25.719	66.596	-152.736	-148.073	-147.750	-143.284	76.642	-144.004	-8191	255	
1207.070	1	1	0	0	0.19588	0.19812	0.1467	0.26757	0.079675	0.1831	0.39129	0.34973	0.15943	0.16796	0.48661	0.070849	0.03593	0.11101	0.010055	0.21418	-2.6042	-3.2604	-2.8646	-3.2667	-3.2167	-2.9833	-3.3688	-3.3438	-2.9313	-3.4083	-2.9583	-3.2479	-3.4271	-3.1375	-3.3833	-3.4688	83.914	51.914	72.383	187.739	68.438	-27.326	176.718	146.584	-60.991	-13.721	80.984	165.603	27.214	93.366	98.328	113.786	0.00039225	0.00022124	5.4558e-05	1279.3	6.5372e-06	4.2345e-06	1280	345.26	7.3627e-06	1.7563e-06	392.69	132.33	114.99	39.629	3.6813e-06	49.682	0.00035703	0.0003394	0.00011015	1274.6	3.7946e-06	3.7876e-06	1280.3	345.07	3.8488e-06	3.8201e-06	391.98	132.33	112.67	39.557	4.4572e-06	49.334	-86.799	-134.638	-76.153	-156.909	7.865	-73.536	-157.165	-151.997	-48.331	31.062	-152.757	-148.466	-147.802	-143.486	-135.093	-143.793	-8191	255	
1207.191	1	1	0	0	0.13034	0.23802	0.085331	0.33445	0.094768	0.23618	0.19439	0.067407	0.072086	0.14998	0.17072	0.18131	0.089238	0.28698	0.15555	0.06666	-2.5896	-3.3958	-2.9562	-3.3583	-3.3271	-2.9458	-3.4125	-3.4437	-2.9833	-3.2625	-3.0812	-3.0729	-3.4333	-3.0604	-3.3125	-3.4188	-142.191	93.876	-3.971	156.647	-170.062	-124.770	69.835	-149.860	-117.144	64.757	94.359	-132.259	-17.153	-9.994	48.178	-19.066	0.00044671	0.00037487	0.0002556	1278.5	3.4855e-06	5.0019e-06	1278.7	345.7	3.8449e-06	4.1605e-06	393.84	132.38	114.56	39.726	1.6093e-06	49.549	0.00035443	0.00036311	0.00011308	1272	3.7442e-06	4.0528e-06	1279.2	345.01	3.7862e-06	4.078e-06	392.07	132.21	112.6	39.715	4.3022e-06	49.217	-90.254	-117.619	-24.178	-156.860	-27.446	-147.527	-156.799	-152.095	0.633	-31.036	-152.524	-148.232	-147.696	-143.290	-85.954	-144.481	-8191	255	
1207.287	1	1	0	0	0.3648	0.14215	0.28336	0.13081	0.1551	0.15594	0.42215	0.39602	0.3152	0.10503	0.24067	0.25424	0.064265	0.098311	0.10869	0.20362	-2.3708	-3.1896	-3.1229	-3.1542	-3.4479	-3.1125	-3.4521	-3.4229	-2.8937	-3.3771	-3.2687	-3.1188	-3.4562	-2.9979	-3.0833	-3.3042	-138.395	59.075	184.157	177.148	103.679	-0.860	180.127	146.889	79.952	-1.840	75.930	121.983	157.117	180.085	83.398	85.012	0.00050059	0.00042713	0.00014498	1276.8	6.1431e-06	1.2014e-06	1274.5	345.21	2.7808e-06	1.7312e-06	393.64	133.16	114.79	39.729	4.0867e-06	49.873	0.00034251	0.00038175	0.00010788	1270.2	3.6746e-06	4.2721e-06	1274.9	344.24	3.7187e-06	4.2815e-06	390.6	131.98	112.68	39.831	4.1415e-06	49.203	-78.473	-169.971	7.104	-156.806	-20.184	89.441	-156.914	-152.154	-16.354	-167.568	-152.738	-148.088	-147.832	-143.242	25.782	-144.089	-8191	255	
1207.383	1	1	0	0	0.12125	0.1746	0.34932	0.17192	0.07269	0.03988	0.24627	0.23213	0.1295	0.30633	0.17801	0.1923	0.13564	0.15103	0.16773	0.17754	-2.6875	-3.2125	-2.9	-3.0625	-3.2708	-3.0875	-3.4062	-3.5062	-2.7896	-3.1688	-3.1875	-2.9229	-3.3833	-3.125	-2.9667	-3.2812	31.961	76.350	114.558	-114.463	-150.681	166.239	146.598	100.322	-94.823	-6.760	134.897	-65.309	127.808	159.804	34.952	129.736	0.00052378	0.00028068	0.00013506	1279	2.8615e-06	6.5591e-06	1281.9	346.84	7.6904e-06	7.1181e-06	394.54	132.79	114.79	39.74	2.0248e-06	49.749	0.00034922	0.00039803	0.00010365	1271.2	3.8079e-06	4.3792e-06	1278.1	344.75	3.9027e-06	4.3443e-06	389.87	132.08	113.28	39.85	3.9325e-06	49.114	-93.334	179.788	-24.148	-156.845	-141.920	-82.213	-156.835	-152.237	-60.031	-16.046	-152.817	-148.312	-147.784	-143.050	-62.003	-144.259	-8191	255	
1207.479	1	1	0	0	0.10689	0.22093	0.17768	0.13592	0.32532	0.10567	0.059651	0.064849	0.19173	0.14438	0.21376	0.17495	0.14962	0.09764	0.12383	0.14017	-2.4833	-3.0917	-3.2958	-3.0896	-3.2875	-3.1708	-3.2271	-3.4354	-2.9667	-3.1042	-3.3854	-3.0354	-3.4417	-3.1083	-3.175	-3.475	-95.584	107.014	61.711	-104.882	-125.261	-143.407	187.776	164.842	86.629	-156.839	129.215	151.604	-73.836	-169.912	-164.459	-127.326	0.00048255	0.00052121	4.5124e-05	1277.5	2.7357e-06	2.776e-06	1281.2	346.7	5.447e-06	1.0348e-06	397.9	133.79	115.35	39.875	3.0059e-06	49.888	0.00036445	0.00038718	9.8954e-05	1270.3	4.0267e-06	4.2244e-06	1275.8	344.74	4.1114e-06	4.189e-06	389.36	131.98	113.97	39.771	3.8421e-06	49.045	-87.845	-122.462	-43.755	-156.846	-63.972	-55.473	-156.962	-152.117	-7.286	-6.251	-152.884	-148.436	-147.694	-143.243	-0.563	-144.115	-8191	255	
1207.575	1	1	0	0	0.076742	0.13315	0.053296	0.034525	0.15842	0.092127	0.38918	0.13054	0.046278	0.18799	0.20816	0.1728	0.16027	0.1212	0.29659	0.18438	-2.6	-2.9875	-3.1604	-3.0104	-3.2667	-3.2771	-3.2375	-3.3354	-3.1375	-3.1063	-3.325	-3.0646	-3.3396	-3.175	-2.8812	-3.2938	-61.881	116.102	-163.626	138.256	22.297	-102.975	126.914	104.993	162.539	-49.425	52.911	18.897	-118.866	102.080	51.404	181.381	0.00049586	0.00026796	0.00019709	1282.7	2.3946e-06	6.9597e-06	1283.1	347.72	2.8334e-06	5.9539e-06	395.54	133.46	114.93	39.928	6.6336e-07	49.852	0.00038361	0.00037695	9.6234e-05	1273.5	4.2528e-06	4.0597e-06	1276.8	346	4.2665e-06	4.0245e-06	388.93	132.28	114.38	39.713	3.7541e-06	49.259	-89.874	-127.304	-65.621	-156.834	-30.615	10.912	-156.909	-152.360	-30.075	-34.272	-152.742	-148.322	-147.827	-143.231	-23.609	-144.243	-8191	255	
1207.671	1	1	0	0	0.27144	0.15746	0.070377	0.28116	0.16435	0.085531	0.29514	0.12295	0.12679	0.22099	0.11239	0.33295	0.18034	0.070127	0.25816	0.22328	-2.6479	-3.2208	-3.425	-3.1937	-3.2042	-3.3688	-3.0417	-3.4479	-3.075	-2.9958	-3.3083	-3.1312	-3.3396	-3.4062	-2.8896	-3.2938	144.667	38.591	105.051	-143.360	66.963	166.421	128.601	-149.945	-50.048	-123.493	25.799	162.813	95.005	-86.070	28.271	127.838	0.00047909	0.0004094	0.00017661	1281.9	3.0426e-06	5.4057e-07	1287.4	346.9	2.6635e-06	6.6541e-06	395.92	133.41	115.47	39.867	1.7972e-06	49.896	0.00039174	0.00036155	9.3156e-05	1277.4	4.2806e-06	3.9068e-06	1279	346.66	4.2463e-06	3.9089e-06	388.67	132.84	114.76	39.66	3.6971e-06	49.576	-81.807	-122.622	-55.874	-156.983	-52.424	-96.631	-157.053	-152.269	87.981	7.225	-152.951	-148.338	-147.640	-143.173	-53.878	-144.454	-8191	255	
1207.790	1	1	0	0	0.28903	0.12611	0.14612	0.11565	0.20274	0.26487	0.21507	0.24159	0.12752	0.22142	0.31916	0.21747	0.067174	0.17397	0.19059	0.14606	-2.7583	-2.7542	-3.4188	-3.1312	-3.1562	-3.2125	-3.0771	-3.3333	-3.0292	-3.0271	-3.2146	-3.0938	-3.0396	-3.2771	-2.8417	-3.3063	101.049	-113.622	71.917	-168.702	-21.622	17.479	144.823	125.708	143.684	-124.794	136.962	129.515	-93.778	175.367	168.118	163.229	0.00046639	0.00092812	0.00020488	1288.5	4.8241e-06	7.4067e-06	1293.1	348.82	4.1726e-06	6.2021e-06	394.9	133.98	115.77	39.881	3.6767e-06	49.951	0.0003892	0.00035695	9.3442e-05	1283.8	4.2168e-06	3.8818e-06	1283.6	348.61	4.217e-06	3.9168e-06	390.01	133.86	114.57	39.721	3.8155e-06	49.826	-89.113	-106.897	-71.346	-156.997	28.458	-31.236	-156.924	-152.286	48.026	-8.236	-152.898	-148.340	-147.736	-143.061	-72.265	-144.243	-8191	255	
1207.886	1	1	0	0	0.21511	0.15142	0.1485	0.11728	0.12561	0.20882	0.1901	0.16388	0.11835	0.1684	0.016499	0.18291	0.091964	0.090696	0.15192	0.13788	-2.6937	-2.9188	-3.3229	-3.3292	-3.3167	-3.2188	-3.2583	-3.3875	-3.2771	-3.1063	-3.4896	-3.1	-3.0854	-3.4625	-2.9313	-3.225	160.290	97.301	52.927	62.710	-64.348	-113.833	123.350	124.167	14.411	-10.873	87.595	-130.173	176.120	-112.613	-147.673	109.481	0.00042093	0.00051283	0.00018329	1289	3.7217e-06	4.8915e-06	1289	348.99	9.376e-06	4.4137e-06	397.75	133.36	115.97	39.914	4.4815e-06	49.875	0.00037924	0.00034932	9.6849e-05	1285.9	4.0689e-06	3.7663e-06	1284.6	348.72	3.9889e-06	3.7898e-06	391.87	133.67	114.09	39.614	3.9966e-06	49.77	-83.333	-81.566	-112.798	-156.899	-21.003	-50.392	-156.994	-152.153	35.703	8.675	-152.858	-148.333	-147.535	-143.382	-24.608	-144.054	-8191	255	
1207.983	1	1	0	0	0.038205	0.19645	0.23012	0.22237	0.13063	0.13162	0.40886	0.14721	0.058224	0.052935	0.14942	0.077043	0.17711	0.16158	0.21443	0.19933	-2.8042	-3.0396	-3.2667	-3.3208	-3.0479	-3.3125	-3.2438	-3.3771	-3.2125	-2.9042	-3.375	-2.975	-3.0458	-3.2938	-3.0146	-3.3167	48.645	-57.232	104.529	154.212	-162.599	94.761	105.642	154.778	-117.620	123.093	48.401	-115.718	183.931	151.478	-122.880	41.042	0.00043979	0.00055204	3.4714e-05	1287.6	4.3711e-06	6.0951e-06	1286.9	348.71	3.66e-06	3.2238e-06	397.81	134.19	115.71	39.905	1.8511e-06	49.856	0.00035854	0.00033713	0.00010202	1285.2	3.8934e-06	3.639e-06	1285.6	348.47	3.8107e-06	3.6764e-06	393.6	133.41	113.7	39.603	4.2551e-06	49.611	-87.301	-163.234	-42.731	-156.760	-40.834	-12.223	-157.060	-152.086	-81.817	-107.322	-153.004	-148.422	-147.552	-143.263	85.144	-144.182	-8191	255	
1208.103	1	1	0	0	0.12777	0.17333	0.17183	0.33927	0.14686	0.20132	0.25132	0.095374	0.11323	0.18439	0.19485	0.082061	0.086176	0.11713	0.21569	0.21982	-2.8271	-2.9646	-3.1521	-3.3042	-3.0604	-3.2667	-3.1312	-3.3812	-3.1917	-3.0938	-3.2188	-3.2354	-3.1521	-3.5062	-2.9521	-3.1667	95.301	83.711	118.152	171.083	-107.360	73.585	112.795	-62.879	-142.617	113.607	27.151	134.083	-161.370	-139.721	93.410	184.583	0.0005219	0.00043054	0.0001192	1287.5	1.2292e-06	4.2729e-06	1287.4	347.9	7.7708e-06	3.5396e-06	398.21	133.64	115.32	39.982	3.6632e-06	49.711	0.00035194	0.00034125	0.00010936	1283.4	3.8874e-06	3.7769e-06	1288.7	348.63	3.8523e-06	3.908e-06	395.28	133.44	113.82	39.813	4.496e-06	49.565	-83.337	-154.757	-144.103	-156.896	74.470	-120.879	-157.049	-152.165	62.280	-154.957	-153.035	-148.288	-147.918	-143.343	-105.163	-144.050	-8191	255	
1208.175	1	1	0	0	0.1648	0.2803	0.09766	0.14543	0.21444	0.25927	0.27786	0.40164	0.17453	0.2452	0.082482	0.1801	0.17807	0.21701	0.30909	0.23358	-2.8937	-2.9167	-3.1688	-3.2938	-2.8187	-3.4917	-3.2292	-3.1688	-3.2583	-2.9458	-3.2812	-3.4104	-3.1521	-3.3479	-3.2188	-3.15	-58.426	177.914	-132.567	81.174	53.293	-16.109	150.269	136.172	122.143	43.473	45.606	110.212	-140.075	-150.821	-83.661	-68.120	0.00046858	6.2811e-05	6.3738e-05	1282.9	5.5483e-06	7.7518e-07	1284	348.76	4.8876e-06	6.1861e-06	397.34	133.72	115.71	39.925	4.48e-06	49.852	0.00035342	0.0003683	0.00011452	1280.2	3.8897e-06	4.1297e-06	1287.9	347.73	3.8128e-06	4.1977e-06	395.39	133.03	113.63	39.942	4.3864e-06	49.484	-80.999	-169.494	-64.139	-156.892	7.312	-154.042	-156.946	-152.116	-10.436	-133.499	-152.915	-148.270	-147.646	-143.117	44.667	-144.191	-8191	255	
1208.271	1	1	0	0	0.20482	0.14568	0.28046	0.25538	0.23468	0.024394	0.1868	0.29721	0.079435	0.14925	0.24098	0.20677	0.22612	0.16241	0.15245	0.22523	-2.7708	-3.0104	-3.2229	-3.3812	-3.0521	-3.1917	-3.2604	-3.2375	-3.4125	-3.0938	-3.2771	-3.3458	-3.0042	-3.3104	-3.0396	-3.1521	-128.928	-164.496	-144.830	169.753	67.912	18.728	-135.147	88.622	184.118	16.210	135.159	-167.753	79.853	69.726	52.516	-123.751	0.00043936	0.00013176	0.00015448	1283	5.6243e-06	1.3427e-06	1284.3	348.15	8.705e-06	2.1263e-06	397.54	133.1	115.27	40.005	5.0928e-06	49.713	0.00034558	0.00039148	0.00011017	1278.1	3.7938e-06	4.2969e-06	1284.7	346.8	3.7072e-06	4.3323e-06	392.95	132.64	113.26	40.024	4.1199e-06	49.323	-92.897	-123.810	-18.482	-156.826	5.225	-145.673	-157.102	-152.235	13.148	-27.356	-152.791	-148.268	-147.776	-143.452	33.920	-144.479	-8191	255	
1208.367	1	1	0	0	0.079678	0.15316	0.098783	0.29075	0.17001	0.077927	0.20585	0.31166	0.010702	0.47062	0.037089	0.4506	0.31408	0.082999	0.16798	0.31323	-2.95	-3.0292	-3.1312	-3.525	-3.0042	-3.2188	-3.3917	-3.2521	-3.3417	-3.1167	-3.3042	-3.3604	-3.1083	-3.4458	-3.3271	-3.0625	-63.057	15.675	80.931	100.388	165.953	94.737	-139.715	147.723	85.304	-89.655	117.951	-157.282	-167.741	-157.846	-96.335	-157.481	0.00056378	7.2478e-05	0.00021523	1284.3	5.906e-06	5.2679e-06	1291	348.61	6.3033e-06	3.4923e-06	397.72	133.54	115.54	39.834	4.9948e-06	49.819	0.00034692	0.00039975	0.0001044	1277.9	3.8521e-06	4.4014e-06	1285.7	346.7	3.8816e-06	4.4159e-06	392.39	132.7	114.2	40.06	4.0077e-06	49.29	-86.501	64.753	-0.111	-156.762	-102.038	-119.589	-156.911	-152.034	-69.697	-29.566	-152.686	-148.368	-147.706	-143.251	-70.693	-144.292	-8191	255	
1208.488	1	1	0	0	0.11812	0.22028	0.17002	0.10939	0.13406	0.23304	0.13487	0.22864	0.21381	0.29491	0.38554	0.071387	0.1328	0.10161	0.20856	0.28693	-3.0896	-3.0354	-2.8396	-3.4896	-2.9729	-3.1271	-3.6146	-3.0854	-3.3042	-3.1396	-3.0563	-3.5875	-2.9562	-3.0354	-3.1396	-3.0021	-21.169	-25.676	-111.957	187.573	-126.068	-103.211	143.806	97.599	13.745	-20.341	40.944	-80.587	173.216	172.516	12.428	103.060	0.00054541	0.00069008	4.9935e-05	1291	3.392e-06	2.3112e-06	1293	349.14	1.3014e-06	8.4871e-07	399.05	134.4	116.58	40.006	3.9674e-06	49.95	0.00037722	0.00040463	0.00010293	1282.6	4.2059e-06	4.436e-06	1289	347.75	4.2884e-06	4.3671e-06	393.71	133.09	115.41	40.075	3.9784e-06	49.37	-85.755	-121.137	10.210	-156.821	-126.549	-77.406	-156.945	-152.058	-70.423	-141.538	-152.834	-148.295	-147.660	-143.292	6.181	-144.158	-8191	255	
1208.584	1	1	0	0	0.071586	0.21124	0.16411	0.24122	0.22456	0.094976	0.16363	0.14777	0.023218	0.071028	0.14934	0.027167	0.14195	0.16585	0.18751	0.16363	-2.7792	-2.8354	-3.15	-3.5687	-3.0333	-3.1083	-3.4792	-2.8563	-3.3146	-3.1479	-2.9521	-3.4396	-3.25	-3.0312	-3.2625	-2.9229	119.655	-145.829	-154.668	185.459	160.722	167.104	159.991	56.795	53.815	-126.965	132.766	171.505	169.386	84.124	-45.958	114.924	0.00042775	0.00031886	0.00013842	1294.2	7.6659e-06	3.3469e-06	1298	349.21	4.0143e-06	5.4772e-06	397.69	133.88	116.12	40.084	4.0035e-06	49.891	0.00040286	0.00038856	0.00010121	1286.1	4.3565e-06	4.2096e-06	1290.8	347.82	4.3811e-06	4.0813e-06	391.5	132.98	115.16	39.906	3.7005e-06	49.253	-97.494	-118.114	-47.944	-156.857	-57.927	-28.083	-157.004	-152.183	-91.974	35.355	-152.760	-148.348	-147.993	-143.280	47.259	-144.326	-8191	255	
1208.678	1	1	0	0	0.030959	0.083831	0.081864	0.18436	0.15476	0.055611	0.10736	0.14295	0.23879	0.13203	0.18579	0.21491	0.077942	0.16543	0.026206	0.28734	-2.8354	-3.1521	-2.7771	-3.4604	-3.075	-3.3854	-3.4667	-3.1063	-3.1479	-3.1646	-2.9333	-3.3292	-3.2396	-3.0292	-3.3063	-3.0583	115.671	-142.536	-135.490	-153.319	181.487	-140.209	98.172	-136.785	-61.074	-139.350	-86.010	127.398	-66.929	164.016	-43.969	135.075	0.00051446	0.00052213	0.00012449	1290	8.0796e-06	4.7393e-06	1288	348.51	4.1129e-06	4.7988e-06	396.97	133.76	116.06	39.963	3.4105e-06	49.688	0.00039199	0.00035457	9.2678e-05	1280.2	4.1824e-06	3.8116e-06	1280.4	346.96	4.1131e-06	3.7305e-06	389.01	133.03	114.44	39.645	3.4911e-06	49.292	-89.100	-75.878	-49.915	-156.816	-57.841	-4.245	-156.959	-152.207	26.040	-36.302	-152.533	-148.471	-147.633	-143.459	-16.767	-143.967	-8191	255	
1208.752	1	1	0	0	0.12787	0.10642	0.20587	0.073173	0.27978	0.16348	0.10627	0.11226	0.1933	0.12055	0.012938	0.17879	0.11651	0.11535	0.11391	0.24379	-2.6146	-3.3625	-2.8125	-3.5625	-3.2854	-3.1125	-3.6104	-3.0187	-3.2479	-3.3563	-3.0458	-3.3583	-3.1729	-3.0625	-3.3208	-3.1	115.858	-142.080	-70.381	78.029	93.011	155.967	32.664	166.390	10.466	183.255	-49.372	-150.765	-6.794	-16.298	-146.083	-143.486	0.00046455	0.00039599	0.00010165	1287.2	6.446e-06	4.4087e-06	1287.1	348.12	2.1866e-06	1.6241e-06	397.33	133.51	115.63	39.986	2.4446e-06	49.732	0.00037106	0.00033342	8.9258e-05	1281.1	3.971e-06	3.6978e-06	1276.7	347.55	3.921e-06	3.6236e-06	388.62	133.14	113.9	39.624	3.5615e-06	49.49	-80.818	-133.956	-153.037	-156.927	21.832	73.943	-156.983	-152.268	-87.872	20.723	-152.815	-147.967	-147.875	-143.212	-35.257	-144.330	-8191	255	
1208.871	1	1	0	0	0.10641	0.19238	0.073233	0.25467	0.088756	0.34859	0.34665	0.10973	0.13454	0.078606	0.23928	0.27346	0.48276	0.17916	0.031104	0.09958	-2.7625	-3.2667	-2.9	-3.3146	-3.1958	-2.9875	-3.5729	-3.2125	-3.0771	-3.4562	-3.1104	-3.2646	-3.1458	-3.0479	-3.2708	-3.3125	-102.166	20.019	-59.773	54.603	-155.142	-20.813	128.687	128.410	62.179	-44.996	-61.670	-161.742	156.677	-45.978	167.216	103.291	0.00040351	0.0011024	8.0052e-05	1284.5	2.1383e-06	5.855e-06	1284.9	348.51	2.2724e-06	6.7291e-06	397.99	133.96	116.03	40.067	8.2938e-07	49.488	0.0003627	0.00033281	9.3343e-05	1282.8	3.8717e-06	3.6654e-06	1281.5	348.63	3.8914e-06	3.6036e-06	391.13	133.7	113.8	39.646	3.8355e-06	49.422	-82.902	-73.943	165.721	-156.708	62.205	-42.748	-156.880	-152.195	-22.679	-5.990	-152.801	-148.427	-147.519	-143.355	-95.794	-143.860	-8191	255	
1208.967	1	1	0	0	0.18602	0.07783	0.20943	0.25771	0.15417	0.05312	0.13242	0.12629	0.13052	0.09456	0.16668	0.13109	0.18627	0.066501	0.13693	0.12022	-2.7417	-3.2771	-2.9083	-3.3292	-3.2958	-2.8604	-3.5167	-3.3104	-3.1083	-3.3167	-2.8646	-3.1688	-3.2938	-3.0375	-3.2896	-3.125	127.387	86.921	-134.195	182.045	14.790	13.950	176.890	112.367	-7.915	44.292	128.365	-168.146	-161.641	95.092	24.638	-149.276	0.00046907	0.00041836	0.00013108	1291.4	1.2735e-06	1.3325e-06	1290.6	348.86	4.5724e-06	1.6605e-06	397.2	134.02	115.89	40.06	4.4806e-06	49.597	0.00034649	0.00032088	9.8623e-05	1285.9	3.7322e-06	3.5436e-06	1284.9	348.13	3.7507e-06	3.511e-06	392.69	133.44	113.53	39.609	4.0604e-06	49.423	-78.009	-142.753	-112.226	-156.903	12.383	9.024	-156.987	-152.172	11.543	168.908	-153.021	-148.011	-147.877	-143.302	-109.186	-144.039	-8191	255	
1209.063	1	1	0	0	0.30789	0.25076	0.34192	0.069538	0.1158	0.23957	0.20631	0.1887	0.25596	0.12849	0.3362	0.12196	0.078513	0.18366	0.12685	0.079451	-2.7042	-3.2542	-2.8771	-3.2958	-3.3417	-2.9354	-3.3063	-3.2104	-2.8854	-3.3792	-3.0792	-3.0563	-3.4208	-3.0292	-3.0062	-3.3021	114.101	72.144	161.021	75.044	153.285	72.013	-169.936	-158.060	112.481	-30.630	-100.543	98.646	-77.062	146.118	-52.737	132.831	0.00051494	0.00061453	0.00018428	1294.9	3.5761e-06	3.4871e-06	1291.1	348.7	4.8443e-06	1.4606e-06	397.86	134.08	116.09	40.034	1.3671e-06	49.939	0.00034579	0.00032833	0.00010608	1287	3.7261e-06	3.6778e-06	1291.5	348.48	3.7715e-06	3.7224e-06	395.24	133.65	113.89	39.846	4.3492e-06	49.449	-87.150	-169.900	-93.606	-156.810	7.165	-14.959	-156.832	-152.133	-88.372	60.381	-153.032	-148.277	-147.637	-143.441	36.698	-144.267	-8191	255	
1209.184	1	1	0	0	0.086982	0.21484	0.21585	0.21731	0.085135	0.15716	0.195	0.1177	0.21582	0.18943	0.11009	0.082665	0.14828	0.29696	0.33425	0.11261	-2.2958	-3.325	-3.1	-3.2479	-3.2646	-2.9458	-3.3021	-3.3312	-2.9938	-3.2938	-3.2146	-3.1833	-3.3438	-3.0729	-3.2042	-3.1937	-61.741	-106.563	114.267	-138.498	-0.029	107.029	94.598	138.506	140.269	-38.015	175.714	-5.747	104.339	187.119	27.902	184.745	0.00042115	0.0003816	4.0881e-05	1291.6	5.5457e-06	1.8212e-06	1292.6	349.2	3.3815e-06	1.3881e-06	397.79	134.31	116	40.117	3.9768e-07	49.656	0.00034671	0.00035415	0.00011105	1286.9	3.7275e-06	4.0228e-06	1293.2	348.53	3.8019e-06	4.1258e-06	396.21	133.69	113.96	40.13	4.4726e-06	49.462	-81.039	152.662	-58.006	-156.890	31.897	-83.987	-156.964	-152.152	-24.837	136.006	-152.804	-148.250	-147.936	-143.258	172.055	-144.112	-8191	255	
1209.280	1	1	0	0	0.028419	0.049601	0.15051	0.15464	0.31968	0.060281	0.253	0.2962	0.020109	0.22114	0.22844	0.22008	0.15066	0.10854	0.21975	0.12616	-2.6333	-3.2208	-2.9604	-3.1167	-3.2604	-2.925	-3.3563	-3.1646	-3.1167	-3.2375	-3.1083	-3.1125	-3.4229	-2.9813	-3.2396	-3.3208	179.680	-36.194	-160.793	101.414	-138.822	7.043	119.218	82.496	113.098	-112.687	107.262	177.403	186.856	-125.781	-166.533	108.247	0.00046232	0.00053631	0.00018597	1294.7	3.567e-06	3.8483e-06	1292.8	350.24	2.2802e-06	2.801e-06	398.5	134.15	115.73	40.051	8.23e-07	49.823	0.00035601	0.00039609	0.00011266	1290.2	3.8174e-06	4.4226e-06	1296.2	349.38	3.8787e-06	4.4605e-06	395.89	133.83	114.24	40.303	4.341e-06	49.494	-84.779	-111.503	-39.523	-156.818	-24.103	-58.547	-157.080	-152.269	-102.470	-101.087	-153.084	-148.430	-148.029	-143.199	-91.601	-144.304	-8191	255	
1209.376	1	1	0	0	0.37371	0.19071	0.18111	0.10355	0.23716	0.14529	0.27884	0.10816	0.16926	0.14662	0.061036	0.18501	0.17746	0.067448	0.11469	0.20309	-2.475	-3.2125	-3.1958	-3.225	-3.4042	-2.9	-3.2896	-3.3771	-2.9583	-3.1937	-3.2812	-3.0042	-3.1542	-3.1458	-2.9229	-3.2875	187.241	110.182	133.808	137.563	104.766	54.192	87.849	166.659	-121.582	-59.005	115.893	143.773	93.505	58.563	-47.247	-135.019	0.00051891	0.00057818	0.00014334	1299.8	3.7141e-06	5.6045e-06	1304.8	350.38	7.3808e-06	4.4761e-06	399.16	134.79	116.78	40.1	5.4366e-06	49.91	0.00036459	0.00041447	0.00010794	1293.1	3.9656e-06	4.5724e-06	1301.6	349.48	4.1008e-06	4.6049e-06	395.98	134.05	115.36	40.419	4.2454e-06	49.53	-84.901	-143.464	-58.203	-156.860	-127.036	42.058	-156.862	-152.283	-28.638	2.661	-152.993	-148.181	-147.537	-143.163	-27.810	-144.155	-8191	255	
1209.472	1	1	0	0	0.057962	0.040047	0.1837	0.083384	0.22147	0.22413	0.29828	0.20058	0.29018	0.0431	0.19	0.18916	0.11057	0.057905	0.11514	0.090739	-2.5083	-3.2229	-3.0458	-3.1437	-3.3229	-3.0854	-3.2188	-3.3917	-2.8563	-3.0583	-3.2583	-2.9375	-3.3271	-3.2562	-3.0375	-3.2	96.279	-106.266	21.551	143.265	186.331	-115.479	148.090	174.502	-122.914	-165.832	51.532	109.626	-125.876	46.956	-127.797	123.043	0.00048774	0.00093818	8.2042e-05	1306.9	6.9859e-06	7.7484e-06	1305.2	350.41	3.7883e-06	2.3146e-06	399.47	134.39	116.64	40.089	3.0671e-06	49.926	0.00039033	0.00041992	0.00010518	1297.6	4.2772e-06	4.4928e-06	1303.3	349.58	4.2981e-06	4.3744e-06	394.9	133.55	115.61	40.212	4.0127e-06	49.309	-94.754	-86.281	-21.500	-156.795	-80.592	-48.388	-156.990	-152.154	-53.466	51.613	-152.772	-148.423	-147.618	-143.143	163.733	-144.168	-8191	255	
1209.568	1	1	0	0	0.10986	0.16368	0.18564	0.17658	0.14768	0.11566	0.37856	0.12949	0.084149	0.27991	0.16653	0.18395	0.25659	0.14294	0.15095	0.21964	-2.5729	-3.1333	-3.2021	-3.0812	-3.2417	-3.0229	-3.0896	-3.2125	-2.9854	-3.0563	-3.3604	-2.9979	-3.2833	-3.1958	-2.9417	-3.2938	10.188	-120.787	-14.645	68.113	-166.491	-60.984	135.237	170.833	50.719	125.630	115.051	4.510	124.708	90.018	-153.643	127.632	0.00052892	0.0006173	9.5491e-05	1296.7	5.9975e-06	3.6302e-06	1304.4	351.6	5.7947e-06	3.4465e-06	398.94	134.14	116.43	40.043	7.1911e-06	49.84	0.00040249	0.00039166	0.00010049	1289.6	4.4091e-06	4.2472e-06	1295.5	349.5	4.515e-06	4.2527e-06	394	133.81	116.32	40.095	3.9749e-06	49.554	-94.312	-105.930	-57.687	-156.709	-78.183	-45.272	-156.876	-152.255	-16.812	-33.075	-152.693	-148.320	-147.738	-143.261	-47.440	-144.189	-8191	255	
1209.663	1	1	0	0	0.1472	0.20318	0.22357	0.30109	0.31313	0.097435	0.042119	0.42736	0.32649	0.18138	0.10421	0.14582	0.24802	0.25857	0.12251	0.10218	-2.7687	-3.0396	-3.3479	-2.9771	-3.1104	-3.225	-2.9479	-3.3542	-3.0167	-3.0333	-3.1875	-3.0563	-3.2542	-3.2271	-3.1208	-3.4437	-60.524	-30.846	-150.336	153.579	-110.211	-28.361	-157.167	149.535	48.549	-41.556	-106.379	9.550	48.709	-163.033	-22.339	72.484	0.00047073	0.00038584	0.00011627	1299.3	4.2057e-06	3.8006e-06	1300.5	350.87	6.5796e-06	8.2297e-06	400.19	134.45	116.45	40.128	2.3761e-06	50.001	0.00041452	0.00038184	9.8007e-05	1293.6	4.4976e-06	4.1056e-06	1295.8	350.69	4.4425e-06	4.0936e-06	393.53	134.12	115.92	40.025	3.8881e-06	49.877	-91.625	-103.627	-36.807	-156.890	-65.187	5.333	-156.890	-152.153	-24.153	34.493	-152.947	-148.225	-147.559	-143.095	183.802	-144.343	-8191	255	
1209.783	1	1	0	0	0.17174	0.077534	0.27142	0.22128	0.11805	0.22793	0.375	0.31656	0.11353	0.064412	0.11596	0.076859	0.23725	0.075024	0.15645	0.12097	-2.6521	-2.8646	-3.3021	-3.1792	-3.4146	-3.2458	-3.0563	-3.6188	-3.2938	-3.1729	-3.5333	-3.1917	-3.1833	-3.5083	-3.0438	-3.2958	-76.550	124.648	-12.424	-154.950	-88.583	-47.864	133.633	159.208	8.861	0.328	-124.411	-89.352	-92.267	109.745	-118.872	168.053	0.00050857	0.00014136	0.00011553	1297.8	6.5089e-06	5.0441e-06	1298.4	350.58	8.0086e-07	4.7562e-06	399.96	134.13	116.98	40.157	3.3954e-06	49.944	0.00040486	0.00037319	9.7674e-05	1297.6	4.4079e-06	4.0383e-06	1294	351.9	4.3444e-06	4.0505e-06	394	134.93	115.78	39.996	3.9812e-06	50.117	-79.343	-109.976	-98.649	-156.931	5.977	-15.719	-156.955	-152.025	113.362	-92.322	-153.144	-148.532	-147.908	-143.252	-92.107	-144.172	-8191	255	
1209.879	1	1	0	0	0.44079	0.22228	0.1506	0.18147	0.10793	0.15929	0.30644	0.22232	0.19351	0.088277	0.13859	0.25698	0.32986	0.18438	0.1239	0.1176	-2.8146	-3.0854	-3.4521	-3.3	-3.3563	-3.3125	-3.0187	-3.4583	-3.125	-2.9292	-3.3833	-3.2521	-3.1604	-3.2667	-2.9042	-3.2146	13.088	118.788	37.830	145.131	179.777	173.159	166.363	85.890	94.264	54.104	164.863	158.342	156.803	143.515	144.228	158.601	0.00044999	0.00013973	7.5647e-05	1298.9	2.1895e-06	9.1111e-06	1299.9	350.16	6.9624e-06	7.1e-06	399.64	134.64	116.57	40.099	5.0876e-06	49.831	0.00039252	0.00036855	0.0001013	1301.7	4.2847e-06	3.9955e-06	1298.9	353.03	4.2402e-06	4.0328e-06	396.47	135.43	115.78	40.028	4.2942e-06	50.173	-79.730	161.417	-20.444	-156.750	-32.236	1.142	-156.996	-152.088	8.233	-4.579	-153.148	-148.491	-147.809	-143.092	-104.604	-143.999	-8191	255	
1209.976	1	1	0	0	0.24085	0.12952	0.12845	0.28067	0.14484	0.13681	0.24601	0.061777	0.21898	0.21421	0.083585	0.078425	0.10591	0.17848	0.17701	0.16488	-2.8438	-2.8646	-3.2833	-3.3312	-2.9875	-3.3792	-3.0396	-3.3583	-3.1354	-2.875	-3.275	-3.3896	-3.05	-3.4521	-3.1792	-3.3312	-81.956	-60.553	-69.960	141.629	-51.299	35.098	179.973	105.514	-164.399	-36.431	154.378	185.149	165.332	-158.806	125.588	86.343	0.00044144	0.00050156	6.5999e-05	1303	1.5462e-06	1.5195e-06	1309	352.28	8.3662e-06	3.9815e-06	400.3	135.36	116.7	40.267	3.6782e-06	49.975	0.00038575	0.00036386	0.00011035	1307.1	4.1936e-06	3.929e-06	1309	353.84	4.1452e-06	3.9568e-06	399.35	135.39	115.67	40.093	4.5279e-06	50.075	-73.071	-93.244	-166.948	-156.897	74.438	-107.420	-157.117	-152.194	-13.352	-26.418	-152.954	-148.354	-147.693	-143.198	-48.692	-144.173	-8191	255	
1210.047	1	1	0	0	0.39577	0.24233	0.13217	0.25028	0.26	0.16242	0.30443	0.2361	0.32084	0.24842	0.20095	0.28753	0.1403	0.1659	0.065378	0.22722	-2.9375	-2.9917	-3.1354	-3.2833	-3.0917	-3.3021	-3.225	-3.1312	-3.3375	-2.9667	-3.4813	-3.2625	-3.0146	-3.3833	-3.1104	-3.2208	-15.933	17.097	180.673	145.170	-144.043	-48.908	110.326	116.611	128.129	-138.528	97.710	157.089	78.287	-89.571	-139.270	158.793	0.00041061	0.00020319	7.6316e-05	1305	3.0702e-06	3.1806e-06	1307.8	351.82	7.7406e-06	1.4567e-06	401.76	134.57	117.11	40.128	3.529e-06	49.992	0.00037199	0.00036007	0.00011445	1306.6	4.0624e-06	3.9205e-06	1311.1	352.65	3.9778e-06	4.0157e-06	400.49	134.94	115.44	40.176	4.6484e-06	49.936	-79.193	-101.225	-155.399	-156.903	-54.847	19.676	-157.135	-152.117	-7.386	111.997	-152.701	-148.823	-147.657	-143.261	-38.357	-144.076	-8191	255	
1210.168	1	1	0	0	0.085217	0.072213	0.24273	0.20541	0.11144	0.27192	0.04446	0.231	0.19199	0.12079	0.096151	0.28785	0.1263	0.18779	0.096693	0.21567	-2.7	-2.8604	-3.3125	-3.5208	-2.7646	-3.3146	-3.4188	-3.2667	-3.5104	-3.0125	-3.4833	-3.2333	-2.8958	-3.5271	-3.1458	-3.1479	-32.512	-65.516	180.764	157.806	86.721	167.252	119.818	76.601	47.169	25.778	97.204	161.663	176.909	-103.911	-161.353	-43.074	0.00047039	0.00040058	0.00011762	1304.7	1.0595e-06	1.3852e-06	1303.5	351.61	4.5716e-06	3.4734e-06	399.99	135.08	116.83	40.2	4.2594e-06	49.847	0.00036529	0.0003789	0.00011872	1303.7	3.9998e-06	4.1945e-06	1309.5	352.37	3.9127e-06	4.2976e-06	399.87	134.55	114.98	40.299	4.5386e-06	49.74	-78.301	-129.298	-62.730	-156.837	113.291	153.016	-156.852	-152.206	-61.282	-70.212	-152.835	-148.555	-148.042	-143.330	17.227	-144.133	-8191	255	
1210.264	1	1	0	0	0.12095	0.12797	0.15487	0.096908	0.23529	0.14765	0.057672	0.15459	0.19415	0.076393	0.1033	0.12455	0.016966	0.10786	0.18734	0.18012	-3.1125	-2.9021	-2.9667	-3.3354	-3.0146	-3.2833	-3.2771	-3.2167	-3.3792	-3.0646	-3.2729	-3.4542	-3.0042	-3.4062	-2.9667	-3.1396	117.159	73.081	172.505	160.144	27.479	146.276	137.082	81.308	-159.849	62.875	-25.137	149.627	46.496	51.963	-105.543	-43.001	0.00048767	0.00043179	0.0002208	1304.9	4.7499e-06	2.2095e-06	1304.9	351.54	7.7892e-06	1.8084e-06	401.49	134.75	116	40.182	4.1421e-06	49.819	0.00035583	0.00040418	0.00011467	1298.7	3.957e-06	4.5155e-06	1306.9	352.15	3.9755e-06	4.6254e-06	399.31	134.47	115.22	40.508	4.456e-06	49.706	-84.446	115.319	-0.366	-156.874	-80.367	185.865	-157.135	-152.176	-38.528	-136.544	-152.704	-148.285	-147.749	-143.174	47.250	-144.072	-8191	255	
1210.360	1	1	0	0	0.14503	0.24934	0.1043	0.12448	0.053841	0.044587	0.33036	0.24507	0.048798	0.22295	0.31601	0.16184	0.098654	0.049565	0.22322	0.21386	-2.85	-3.1229	-3.2042	-3.4583	-2.8167	-3.1896	-3.175	-3.0604	-3.2375	-3.0854	-3.2	-3.3229	-3.1479	-3.1437	-3.2	-3.0396	71.204	-143.838	-47.501	-17.528	158.879	-108.644	121.361	67.347	-10.989	-34.834	175.165	174.283	118.685	-135.958	-159.575	-127.958	0.00043634	0.00060198	0.00017189	1301.1	6.1832e-06	4.5893e-06	1299.4	351.48	1.1174e-05	2.2613e-06	400.31	134.94	116.39	40.278	3.8386e-06	49.768	0.0003711	0.00042771	0.00011191	1298	4.0967e-06	4.6636e-06	1304.4	351.21	4.0684e-06	4.5816e-06	396.87	134.15	115.42	40.422	4.1323e-06	49.463	-94.231	-143.855	-41.526	-156.971	-115.637	-98.683	-157.082	-152.379	-45.971	-0.446	-152.834	-148.450	-147.692	-143.170	-30.113	-144.339	-8191	255	
1210.456	1	1	0	0	0.11997	0.27029	0.34966	0.29323	0.22599	0.069263	0.16852	0.10898	0.069842	0.11501	0.23275	0.022475	0.20491	0.077269	0.21378	0.13574	-2.975	-3.0646	-2.9083	-3.4479	-3.1354	-3.2854	-3.5646	-3.2375	-3.4	-3.2208	-3.0583	-3.5229	-3.1792	-3.3937	-3.3771	-3.25	-43.026	-11.080	-124.615	112.811	-62.559	-27.548	95.709	98.925	7.120	189.458	-153.580	157.732	173.596	110.330	136.635	131.497	0.00053545	0.00013209	7.8862e-05	1302.4	1.9551e-06	1.6102e-06	1299.7	350.91	8.0317e-06	3.2356e-06	400.11	134.67	116.78	40.049	5.8824e-06	49.945	0.00038243	0.00041034	0.00010509	1294	4.2811e-06	4.5123e-06	1299.5	350.45	4.3363e-06	4.4297e-06	395.78	133.88	116.26	40.361	4.0855e-06	49.533	-85.377	5.149	-48.561	-156.911	92.219	56.475	-156.980	-152.275	-93.705	71.288	-152.725	-148.453	-147.636	-143.168	-47.289	-144.147	-8191	255	
1210.552	1	1	0	0	0.10124	0.087922	0.22154	0.30391	0.17998	0.073946	0.19939	0.060293	0.19382	0.085556	0.14132	0.05263	0.19268	0.12607	0.20422	0.15559	-2.9437	-3.1542	-3.0104	-3.5583	-3.1188	-3.2104	-3.5687	-3.3063	-3.4292	-3.275	-3.1521	-3.5583	-3.1729	-3.1146	-3.4354	-2.9542	55.281	78.014	69.045	-157.099	104.353	-71.708	125.413	186.323	-139.665	-139.863	83.941	-160.060	-156.322	7.444	126.236	-23.255	0.00051606	0.00056509	7.9007e-05	1301.1	4.4997e-06	4.2427e-06	1305	351.66	6.2091e-06	6.3214e-06	399.84	134.56	116.88	40.201	4.1892e-07	49.932	0.00041393	0.00040197	0.0001043	1297.9	4.5859e-06	4.4103e-06	1302.7	351.16	4.5872e-06	4.3217e-06	396.26	134.28	116.73	40.264	3.9502e-06	49.706	-90.728	-64.469	-18.582	-156.882	-90.776	-86.072	-157.020	-152.103	-3.608	20.788	-152.846	-148.549	-147.810	-143.341	-80.782	-144.248	-8191	255	
1210.649	1	1	0	0	0.24329	0.27908	0.16784	0.16016	0.099276	0.085501	0.18572	0.34183	0.17977	0.27751	0.12203	0.20052	0.14975	0.22686	0.056306	0.12051	-2.7854	-3.0333	-2.9333	-3.5729	-3.0333	-3.1771	-3.5104	-3.3292	-3.2938	-3.4458	-3.075	-3.5833	-3.2625	-3.1958	-3.3833	-3.0375	70.394	38.936	-132.511	189.288	124.503	93.273	56.536	168.758	-162.470	-3.507	-149.721	96.148	-133.031	178.004	-154.602	101.443	0.00049777	0.00057936	4.9846e-05	1300	5.3084e-06	3.4567e-06	1302	350.92	4.4792e-06	8.4358e-06	398.65	134.9	116.42	40.209	5.5237e-06	49.971	0.00042186	0.00038488	0.00010178	1302.9	4.603e-06	4.2394e-06	1300.8	352.27	4.6064e-06	4.1913e-06	394.73	135.09	116.47	40.194	3.9148e-06	50.003	-86.018	-63.131	-24.136	-157.054	-31.097	-11.684	-157.083	-152.238	-40.090	11.779	-152.956	-148.445	-147.837	-143.528	-1.460	-144.352	-8191	255	
1210.745	1	1	0	0	0.11025	0.043795	0.14939	0.2157	0.17199	0.16773	0.33988	0.18167	0.031928	0.18721	0.069888	0.13947	0.13991	0.067334	0.22382	0.11607	-2.7792	-3.2062	-3.0083	-3.4313	-3.1771	-3.0417	-3.4542	-3.0896	-3.2458	-3.3458	-3.175	-3.4354	-3.2313	-3.2396	-3.3271	-3.2104	172.079	140.425	1.869	116.621	-31.606	119.046	160.270	-122.133	107.251	-37.695	-156.279	20.691	179.724	87.943	-68.437	-81.634	0.00041548	0.00034613	8.3602e-05	1309.7	7.1068e-06	5.055e-06	1307.1	352.53	3.7481e-06	4.2309e-06	399.31	134.33	117	40.148	2.0959e-06	49.657	0.00042158	0.00038101	0.00010164	1310.5	4.5095e-06	4.1979e-06	1304.4	353.29	4.4746e-06	4.0846e-06	394.97	135.27	116.18	40.138	3.9752e-06	50.104	-82.994	-122.018	-74.306	-156.998	11.669	-29.669	-157.032	-152.355	11.397	28.179	-153.092	-148.349	-147.908	-143.342	-102.828	-144.015	-8191	255	
1210.864	1	1	0	0	0.10421	0.1344	0.13577	0.24607	0.29791	0.071361	0.29677	0.38392	0.096876	0.33625	0.20661	0.1743	0.2181	0.089469	0.14595	0.2249	-2.7812	-3.3146	-2.8104	-3.4625	-3.1646	-2.9375	-3.6042	-3.1854	-3.0917	-3.3917	-3.1958	-3.325	-3.175	-2.8896	-3.3417	-3.1312	87.233	70.899	96.684	152.702	-139.886	187.474	99.721	117.644	173.614	-169.199	35.470	90.514	152.100	150.972	113.649	132.957	0.0003812	0.00084827	7.8788e-05	1305.9	3.778e-06	4.4783e-06	1307.8	351.48	9.8004e-06	1.7506e-06	403	134.97	116.22	40.197	4.2306e-06	50.05	0.00040085	0.00036496	0.00010395	1309.2	4.2519e-06	4.0438e-06	1304.8	353.54	4.288e-06	3.9724e-06	397.48	135.86	115.63	40.158	4.2644e-06	50.188	-84.647	-92.171	-94.519	-156.918	-51.777	-14.674	-157.136	-152.199	-9.235	10.251	-153.070	-148.550	-147.959	-143.255	-48.704	-144.294	-8191	255	
1210.960	1	1	0	0	0.074459	0.11261	0.18946	0.19808	0.09029	0.0596	0.12746	0.27317	0.24915	0.20763	0.16298	0.20497	0.24504	0.22799	0.23211	0.1576	-2.475	-3.2812	-2.9021	-3.3125	-3.3146	-2.9125	-3.4792	-3.0667	-2.8854	-3.3312	-3.1146	-3.225	-3.2687	-3.1333	-3.2958	-3.1875	-18.337	-67.853	-34.638	148.059	-26.158	-158.742	158.635	148.692	-108.500	145.537	101.317	139.106	39.481	162.997	-118.251	-73.867	0.0004001	0.00028232	0.0001096	1307.4	6.526e-06	1.7345e-06	1306.9	352	4.3517e-06	9.244e-06	400.27	134.75	117	39.981	4.446e-06	49.968	0.00039195	0.00036272	0.00011163	1308.8	4.1986e-06	4.0356e-06	1309.2	353.44	4.2305e-06	3.9871e-06	399.54	135.49	115.54	40.108	4.5828e-06	50.07	-86.084	-112.789	179.812	-157.038	-63.519	-23.849	-156.939	-152.203	-5.485	-11.883	-152.892	-148.524	-147.742	-143.340	-87.499	-144.123	-8191	255	
1211.056	1	1	0	0	0.11367	0.1895	0.11657	0.29159	0.056595	0.33765	0.14971	0.1647	0.082831	0.082282	0.2928	0.078744	0.17132	0.030312	0.076816	0.10545	-2.6271	-3.3688	-3.0062	-3.3167	-3.3271	-3.125	-3.5875	-3.2771	-3.0458	-3.3625	-3.2438	-3.0792	-3.25	-3.0354	-3.2625	-3.3187	-106.156	123.176	-138.873	-114.428	-25.231	-74.679	84.706	79.036	-142.618	31.470	143.500	110.770	187.097	93.268	-165.876	15.000	0.00047022	0.00046227	0.00011033	1305.5	1.848e-06	2.8775e-06	1303.1	351.56	3.263e-06	4.4814e-06	401.25	134.81	116.72	40.297	3.4225e-06	49.949	0.00038621	0.00036457	0.00011899	1306.1	4.1145e-06	4.0893e-06	1309.3	352.93	4.1908e-06	4.1602e-06	401.03	135.14	115.45	40.262	4.8743e-06	49.988	-87.088	-144.844	-31.638	-156.828	-74.812	-130.038	-156.913	-152.350	-21.699	-119.421	-152.907	-148.288	-147.986	-143.471	-15.123	-144.171	-8191	255	
1211.152	1	1	0	0	0.29695	0.099249	0.0372	0.21965	0.37852	0.13014	0.1975	0.17527	0.17351	0.10939	0.11046	0.2864	0.20991	0.18755	0.32153	0.17371	-2.4917	-3.4083	-3.1146	-3.2979	-3.2167	-3.0458	-3.2958	-3.2917	-2.9833	-3.3479	-3.0187	-3.025	-3.375	-3.0625	-3.2583	-3.2562	-48.769	-164.774	-78.270	-121.197	-104.263	98.315	-116.862	126.758	146.436	-105.433	133.621	5.646	-129.607	105.671	-143.015	-10.179	0.00045593	0.00025158	8.7392e-05	1303.3	4.9134e-06	3.2e-06	1306.4	352.32	4.0384e-06	8.3854e-06	400.17	134.64	116.74	40.103	6.1108e-06	49.868	0.00039014	0.00039859	0.00012529	1305.6	4.207e-06	4.5514e-06	1313.3	353.11	4.2779e-06	4.6397e-06	402.17	135.16	115.76	40.523	4.8987e-06	49.944	-95.202	-95.715	-119.676	-156.934	-2.262	136.554	-157.055	-152.291	-18.028	-113.764	-152.641	-148.670	-147.944	-143.294	-3.307	-144.326	-8191	255	
1211.273	1	1	0	0	0.1368	0.10458	0.093979	0.23034	0.19507	0.1743	0.18155	0.12346	0.17749	0.082318	0.15805	0.21961	0.32854	0.24906	0.19139	0.30736	-2.6979	-3.2979	-3.1104	-3.15	-3.3604	-3.1646	-3.4958	-3.5542	-3.0875	-3.5042	-3.3104	-3.1979	-3.4375	-3.2479	-3.2438	-3.4167	29.473	-101.938	161.012	181.660	-32.587	147.848	101.419	66.859	-2.685	99.693	107.133	121.315	110.435	173.002	22.090	55.223	0.00048534	0.00057299	6.2984e-05	1308.2	8.7455e-07	4.347e-06	1305.9	351.84	4.849e-06	1.1213e-06	399.35	134.75	116.37	40.156	3.704e-06	49.828	0.0003867	0.00042954	0.00012179	1307.1	4.1147e-06	4.7345e-06	1311.9	352.55	4.1372e-06	4.7212e-06	399.6	134.89	115.22	40.506	4.5291e-06	49.73	-79.582	-120.740	11.169	-157.067	-25.629	2.729	-156.966	-152.147	-5.845	-88.617	-152.900	-148.605	-147.901	-143.615	-35.223	-144.211	-8191	255	
1211.344	1	1	0	0	0.41169	0.092197	0.24909	0.14076	0.12922	0.36738	0.21628	0.064992	0.1572	0.12881	0.24043	0.087462	0.26232	0.28108	0.061922	0.12652	-2.6375	-3.3688	-3.1083	-3.2229	-3.4271	-3.0438	-3.3958	-3.4792	-3.0583	-3.3917	-3.3667	-3.0938	-3.5271	-3.1667	-3.1271	-3.2875	-16.168	-21.818	-14.543	126.992	139.417	-15.092	133.997	162.859	35.368	108.660	-158.466	79.574	-168.456	166.070	174.678	-32.199	0.00046369	0.00046476	1.7589e-05	1302.2	4.9144e-06	5.7344e-06	1304.1	350.38	1.0531e-05	3.8394e-06	399.08	134.89	116.41	40.093	4.2953e-06	49.656	0.00038275	0.00043377	0.00011278	1301	4.1406e-06	4.7558e-06	1307.4	350.74	4.2419e-06	4.7785e-06	397.13	134.25	115.68	40.53	4.3431e-06	49.517	-91.472	-76.971	-87.630	-156.928	-87.781	-152.059	-156.959	-152.288	-56.016	66.367	-152.702	-148.452	-147.991	-143.248	-1.131	-144.299	-8191	255	
1211.465	1	1	0	0	0.050819	0.26212	0.19956	0.23724	0.083791	0.15559	0.18298	0.40033	0.22861	0.4052	0.30467	0.10557	0.18152	0.040519	0.072027	0.042954	-2.6667	-3.1583	-3.1937	-3.1083	-3.2687	-3.1896	-3.2417	-3.5146	-3.1542	-3.225	-3.0104	-3.0729	-3.3625	-3.2979	-3.0771	-3.5271	-1.491	-41.515	-44.952	167.164	-73.728	89.382	85.376	137.223	8.918	65.121	65.993	-167.217	-27.795	89.074	-25.734	-159.089	0.00043223	0.00032688	6.3627e-05	1296.6	5.6057e-06	4.2835e-06	1302.3	350.21	3.8017e-06	5.0581e-06	399.56	133.89	115.72	40.068	1.4755e-06	49.709	0.00039676	0.00042484	0.00010673	1295.5	4.3118e-06	4.5463e-06	1300.1	349.8	4.3978e-06	4.4996e-06	395.59	133.58	115.53	40.223	4.09e-06	49.321	-91.666	-62.874	-134.868	-156.813	-98.913	-37.458	-156.789	-152.207	-92.958	43.726	-152.975	-148.390	-147.745	-143.178	-3.427	-144.323	-8191	255	
1211.561	1	1	0	0	0.34169	0.3757	0.16168	0.32403	0.21431	0.2648	0.18057	0.17755	0.084143	0.26461	0.1522	0.09002	0.33825	0.026406	0.23573	0.074968	-2.7104	-3.1437	-3.4979	-3.1312	-3.325	-3.2687	-3.225	-3.5292	-3.0396	-3.2292	-3.375	-3.05	-3.3417	-3.0854	-2.8542	-3.5208	-94.957	-100.218	180.625	176.232	-14.286	-25.505	168.603	105.662	140.941	171.155	66.265	-156.435	184.175	132.953	94.242	-54.485	0.00054125	0.00067188	0.00012396	1295.4	5.2088e-06	4.8764e-06	1294.2	348.51	2.2829e-06	7.3977e-06	397.8	134.24	115.69	39.884	3.9428e-06	49.536	0.00040753	0.00039845	0.00010123	1290.3	4.4506e-06	4.2479e-06	1290.6	348.89	4.4414e-06	4.2007e-06	392.54	133.5	115.53	39.956	3.8781e-06	49.276	-83.180	-104.636	-60.523	-156.965	-42.180	24.148	-157.120	-152.206	10.921	-5.455	-152.833	-148.551	-148.161	-143.291	-51.915	-144.222	-8191	255	
1211.656	1	1	0	0	0.040936	0.16755	0.091819	0.33227	0.016831	0.28004	0.23376	0.12973	0.21063	0.092582	0.15646	0.11111	0.25801	0.17447	0.16782	0.25238	-2.6	-2.8937	-3.3729	-3.2979	-3.3375	-3.1417	-3.05	-3.3312	-3.075	-3.1	-3.3604	-3.0604	-3.3271	-3.2875	-2.9167	-3.3958	-107.557	147.484	-158.444	-131.270	-142.802	142.990	144.551	94.303	-130.577	-35.071	169.249	-6.228	-48.594	138.164	171.328	-88.885	0.00040668	0.00055403	0.00021955	1293.4	5.3548e-06	4.0055e-06	1291.7	348.89	4.7028e-06	7.6818e-06	397.07	134.25	116.66	40.031	4.0782e-06	49.733	0.00040373	0.00037205	9.6277e-05	1288.6	4.4123e-06	4.0046e-06	1288.2	349.58	4.3837e-06	4.0358e-06	391.52	133.94	115.59	39.887	3.7887e-06	49.623	-83.405	-93.646	-50.950	-156.997	-10.293	-59.141	-157.132	-152.102	-4.956	-4.328	-152.898	-148.457	-147.918	-143.261	-105.216	-144.039	-8191	255	
1211.752	1	1	0	0	0.18906	0.10951	0.22532	0.44629	0.055037	0.16745	0.32099	0.15072	0.10308	0.11839	0.19217	0.212	0.04587	0.17953	0.12249	0.067488	-2.8125	-3.0729	-3.2854	-3.2146	-2.9792	-3.3646	-3.0854	-3.3729	-3.2	-3.0479	-3.5438	-3.0687	-3.1729	-3.4	-2.8979	-3.3812	-167.570	-40.124	-69.587	168.209	42.890	71.339	83.742	163.493	23.169	-10.290	167.655	171.827	181.961	121.368	53.205	68.746	0.00044137	0.00066858	0.00014583	1293.3	7.2691e-06	1.045e-05	1290.9	349.43	5.1296e-06	3.8385e-06	398.85	134.25	115.72	39.903	2.7265e-06	49.447	0.00039632	0.00036364	9.4253e-05	1295	4.2189e-06	3.853e-06	1289.7	350.29	4.0682e-06	3.8122e-06	390.28	133.95	114.44	39.689	3.6377e-06	49.413	-90.998	-104.986	-44.286	-156.887	-74.332	11.215	-157.086	-152.170	-7.483	31.346	-152.964	-148.349	-147.643	-143.180	-2.423	-144.315	-8191	255	
1211.872	1	1	0	0	0.056391	0.074992	0.04256	0.19343	0.23239	0.27337	0.31614	0.23383	0.11143	0.15797	0.28877	0.086429	0.18033	0.035179	0.078438	0.27115	-2.7687	-2.5979	-3.2188	-3.2188	-3.0792	-3.35	-3.025	-3.4021	-3.1813	-2.7833	-3.4333	-3.1208	-3.1771	-3.4042	-3.0458	-3.2188	-118.804	42.917	-137.167	95.377	164.084	108.578	115.819	125.088	-130.477	-0.918	148.160	-136.296	146.571	104.156	167.961	175.407	0.00045254	0.00039644	8.6434e-05	1289.6	3.379e-06	7.5352e-06	1292	348.97	5.2459e-06	3.1591e-06	398.6	133.78	115.79	39.822	4.5902e-06	49.494	0.00035937	0.00033614	9.2349e-05	1288.3	3.9029e-06	3.5919e-06	1285.9	349.45	3.7945e-06	3.6036e-06	391.73	133.75	114.09	39.598	3.8687e-06	49.49	-83.362	-121.574	-119.795	-156.960	130.584	-73.073	-156.909	-152.148	3.650	47.436	-152.989	-148.619	-147.908	-143.109	-146.546	-144.112	-8191	255	
1211.944	1	1	0	0	0.2883	0.091242	0.075994	0.14267	0.22303	0.1164	0.24021	0.032946	0.20346	0.17233	0.21824	0.097741	0.029605	0.12879	0.17528	0.08281	-2.7708	-2.875	-3.4479	-3.3167	-3.0812	-3.3458	-3.1208	-3.3146	-3.2542	-2.9875	-3.4042	-3.2896	-3.1167	-3.5292	-3.0542	-3.1875	102.635	-79.029	152.055	173.046	189.203	117.817	39.751	-73.500	80.233	171.292	180.180	71.251	63.853	111.045	-1.404	26.019	0.00050218	0.00044507	0.00015244	1292	3.9665e-06	8.1455e-06	1290	349.75	3.6952e-06	3.3068e-06	398.18	134.23	115.44	39.785	1.2339e-06	49.568	0.00034835	0.00033067	9.9511e-05	1291	3.8147e-06	3.5477e-06	1292.4	350.04	3.7683e-06	3.5726e-06	393.77	133.75	113.96	39.561	4.0969e-06	49.376	-86.850	-66.759	-67.450	-157.003	-58.288	-22.188	-156.976	-152.209	-41.387	-65.040	-153.012	-148.555	-148.069	-143.374	-77.440	-143.870	-8191	255	
1212.040	1	1	0	0	0.23952	0.10092	0.076292	0.11619	0.19825	0.06251	0.30581	0.20259	0.080922	0.13869	0.28958	0.15649	0.069878	0.11911	0.072947	0.15648	-2.7396	-3.0021	-3.2417	-3.3167	-2.9938	-3.3104	-3.0958	-3.2271	-3.1917	-3.3104	-3.3896	-3.1813	-2.7833	-3.3229	-3.1708	-3.1917	-14.777	127.389	-126.139	178.592	-113.655	176.063	159.612	133.207	-3.244	-42.343	-126.974	-123.848	-109.129	78.370	163.177	170.181	0.00043232	0.00016822	0.00011285	1283.6	2.5271e-06	5.3647e-06	1289.4	348.15	3.7104e-06	3.2837e-06	395.81	133.22	116.19	39.804	4.8991e-06	49.461	0.00033656	0.00032735	0.00010449	1282.7	3.6549e-06	3.5355e-06	1289.6	348.06	3.6026e-06	3.6005e-06	393.75	132.91	113.68	39.583	4.0809e-06	49.065	-86.414	-106.549	-84.354	-156.842	4.768	-75.226	-157.239	-152.170	22.706	-12.653	-153.031	-148.428	-147.691	-143.484	-13.030	-144.058	-8191	255	
1212.136	1	1	0	0	0.08441	0.27498	0.17822	0.33741	0.24115	0.22677	0.077407	0.33715	0.064318	0.14545	0.11653	0.28411	0.090472	0.21187	0.17748	0.021403	-2.9875	-2.8646	-3.3688	-3.225	-2.9167	-3.3479	-3.1729	-3.3521	-3.2125	-2.8708	-3.3438	-3.2562	-2.9896	-3.4604	-3.1375	-3.2917	-8.783	-54.999	-26.363	155.096	-169.806	-21.612	136.325	113.457	96.891	25.189	98.648	178.775	-42.326	139.361	-90.916	-114.692	0.00049155	0.00031963	0.00012884	1288	3.8458e-06	4.1668e-06	1290.6	348.15	9.0579e-06	1.745e-06	396.63	133.43	115.7	39.851	1.5176e-06	49.266	0.00031806	0.00033292	0.00010338	1282.2	3.48e-06	3.6556e-06	1288.3	347.1	3.4135e-06	3.7576e-06	392.79	132.66	113.08	39.744	4.0126e-06	48.977	-89.066	141.230	-29.534	-156.823	13.287	-133.387	-156.968	-152.161	27.399	-131.643	-152.789	-148.460	-147.822	-143.256	27.753	-144.197	-8191	255	
1212.232	1	1	0	0	0.16062	0.1062	0.087439	0.22452	0.25696	0.080457	0.15693	0.12167	0.093752	0.11175	0.27188	0.146	0.16702	0.043136	0.1721	0.083296	-2.9062	-2.8583	-3.1604	-3.4833	-2.9354	-3.2667	-3.3521	-3.2062	-3.4083	-3.1	-3.3312	-3.3688	-3.1	-3.2542	-3.0604	-3.1542	-18.257	-137.521	26.652	159.112	-165.381	-59.928	128.299	174.420	-106.328	154.351	-167.085	134.215	-166.114	152.908	-89.091	52.432	0.00036237	0.00025854	0.00016385	1283.8	5.6164e-06	6.3349e-06	1288	347.47	6.7786e-06	2.0828e-06	394.78	133.16	115.6	39.856	5.5552e-06	49.569	0.00031686	0.00035951	0.00010203	1279.9	3.5149e-06	4.0332e-06	1286.7	346.93	3.5028e-06	4.0721e-06	391.96	132.39	113.49	39.914	3.8929e-06	48.966	-84.597	154.672	-12.178	-156.928	-52.236	184.814	-156.972	-152.096	-45.531	100.076	-152.995	-148.487	-147.944	-143.221	19.566	-143.954	-8191	255	
1212.353	1	1	0	0	0.087034	0.11202	0.058493	0.089691	0.11866	0.27209	0.27857	0.31077	0.2207	0.37989	0.1938	0.31963	0.06181	0.19495	0.095893	0.23103	-2.925	-2.9813	-3.1396	-3.5542	-3.25	-3.2208	-3.425	-3.1042	-3.4396	-3.0583	-3.2729	-3.4104	-3.0938	-3.4521	-3.3604	-3.1917	-82.263	185.676	165.242	66.834	42.899	-138.564	172.823	94.558	100.042	-20.129	54.035	96.895	163.770	170.155	-79.765	159.605	0.00051732	0.00014927	0.00015632	1286.4	3.0086e-06	3.6589e-06	1285.8	347.95	3.4118e-06	2.6788e-06	396.4	133.09	116.03	39.668	2.7556e-06	49.5	0.00032602	0.00037519	9.8217e-05	1278.3	3.6247e-06	4.141e-06	1282.3	346.64	3.6444e-06	4.1002e-06	391.29	131.99	113.79	39.856	3.6951e-06	48.846	-88.978	-100.777	-1.671	-156.913	-72.232	99.498	-157.114	-152.316	-20.135	-46.803	-152.928	-148.465	-147.812	-143.126	-43.779	-144.351	-8191	255	
1212.449	1	1	0	0	0.065662	0.20562	0.21822	0.07599	0.12676	0.30772	0.27652	0.20276	0.1458	0.22549	0.21294	0.097985	0.091822	0.094293	0.054552	0.27487	-2.9688	-3.1104	-3.05	-3.6042	-3.0792	-3.2375	-3.4188	-3.2062	-3.2667	-3.1937	-3.1979	-3.3083	-3.0646	-3.3063	-3.3604	-3.0896	123.625	104.712	-153.401	113.837	-109.593	184.804	186.119	171.104	-71.381	-134.522	162.529	81.598	-126.416	139.120	-39.723	182.766	0.00049304	0.00024317	8.3229e-05	1280.3	3.413e-06	5.2774e-06	1282.9	346.57	5.8713e-06	3.9222e-06	397.2	133.44	115.71	39.813	8.3152e-06	49.332	0.00034187	0.00036767	9.382e-05	1270.3	3.7848e-06	3.9917e-06	1275	345.9	3.8285e-06	3.9233e-06	389.57	131.79	114.14	39.725	3.599e-06	48.736	-92.145	-69.188	-28.325	-156.966	-34.997	-52.726	-156.990	-152.186	-99.097	19.403	-152.974	-148.515	-147.895	-143.427	-7.393	-144.253	-8191	255	
1212.545	1	1	0	0	0.090528	0.079232	0.12219	0.22403	0.24445	0.032459	0.15007	0.14581	0.22667	0.17415	0.22597	0.2171	0.13281	0.098391	0.16378	0.2778	-2.8312	-3.2083	-2.9604	-3.5583	-3.1333	-3.3083	-3.4917	-3.1312	-3.2542	-3.1792	-3.0271	-3.425	-3.1708	-3.1396	-3.4042	-3.0187	-128.035	173.602	-165.693	98.587	-152.744	26.172	-154.168	87.706	19.556	-109.317	132.573	138.478	16.065	182.778	126.286	138.898	0.00045482	0.00058561	0.00010783	1279.7	8.1907e-06	2.7081e-06	1285.7	347.52	6.896e-06	7.1406e-06	395.06	133.94	116.13	39.718	4.9128e-06	49.263	0.00036598	0.00035777	9.3125e-05	1271.3	4.0851e-06	3.963e-06	1278.7	346.7	4.1792e-06	3.9062e-06	389.94	132.53	115.07	39.73	3.5552e-06	49.014	-88.061	-90.736	-43.394	-156.886	-69.081	-8.613	-157.022	-152.326	-39.412	57.977	-152.819	-148.467	-148.001	-143.173	-26.610	-144.245	-8191	255	
1212.642	1	1	0	0	0.046888	0.16216	0.32343	0.11254	0.21735	0.17844	0.1495	0.42803	0.093449	0.11429	0.35035	0.14504	0.16165	0.15083	0.13887	0.17235	-2.8375	-3.0062	-2.8771	-3.5646	-2.9542	-3.1521	-3.5708	-3.2417	-3.2062	-3.2958	-2.8917	-3.2396	-3.2521	-3.1896	-3.3521	-3.0771	-89.791	134.850	37.280	166.769	62.820	162.084	49.449	179.132	-119.641	52.557	142.797	-162.975	-115.181	162.360	58.796	76.785	0.00051251	0.0003698	0.00010309	1284.3	3.8097e-06	2.7528e-06	1287.2	348.48	4.1777e-06	6.7593e-07	395.36	133.67	116.17	39.741	1.0228e-06	49.55	0.00037919	0.00034205	9.0177e-05	1279.5	4.0786e-06	3.7145e-06	1279.1	347.44	4.0635e-06	3.6879e-06	389.4	132.97	114.49	39.626	3.4685e-06	49.202	-85.004	-47.371	-61.343	-156.912	12.577	-76.605	-157.097	-152.273	17.430	-26.042	-152.701	-148.442	-147.855	-143.334	6.203	-144.463	-8191	255	
1212.738	1	1	0	0	0.026624	0.11289	0.19515	0.34821	0.10981	0.037558	0.10892	0.37575	0.15335	0.22816	0.17477	0.11311	0.28936	0.27376	0.10058	0.17702	-2.8187	-3.2458	-2.8271	-3.5375	-3.0479	-2.9854	-3.5812	-3.0771	-3.2646	-3.3958	-3.1021	-3.4188	-3.1167	-3.2188	-3.4646	-3.3396	-161.695	-115.285	-110.155	131.955	132.775	106.654	96.628	110.193	54.688	165.418	112.150	169.988	-37.295	-126.528	-121.162	-157.927	0.00045253	0.00076535	0.00010094	1282.6	4.4427e-06	1.8793e-06	1288.5	348.08	6.339e-06	3.3224e-06	396.49	133.91	115.36	39.94	2.3096e-06	49.462	0.00037291	0.00033736	9.0593e-05	1283.6	4.0644e-06	3.7853e-06	1282.1	349.03	4.0994e-06	3.7683e-06	390.59	133.99	114.49	39.779	3.6773e-06	49.654	-82.679	175.025	-162.619	-156.988	-32.081	17.922	-157.170	-152.219	30.614	42.554	-153.244	-148.562	-147.908	-143.217	-7.525	-144.060	-8191	255	
1212.834	1	1	0	0	0.17254	0.24532	0.024011	0.29502	0.23722	0.083731	0.20845	0.16861	0.21867	0.052284	0.095439	0.20295	0.21918	0.20944	0.25268	0.091146	-2.8812	-3.2854	-2.85	-3.4333	-3.2	-3.0604	-3.45	-3.3375	-3.1562	-3.3937	-2.9188	-3.2917	-3.2	-2.9292	-3.4708	-3.2292	19.524	-6.225	97.937	123.912	-124.868	-97.447	187.820	118.188	-138.357	-71.278	91.877	-162.768	71.790	120.422	23.765	-3.154	0.00044497	0.00051289	9.2731e-05	1287.2	4.5587e-06	2.9112e-06	1285.5	347.85	6.9905e-06	2.2672e-06	396.38	133	116.01	39.87	3.2783e-06	49.6	0.00037644	0.00034292	9.793e-05	1290	4.0738e-06	3.8274e-06	1286.4	349.96	4.0705e-06	3.775e-06	392.8	134.2	114.4	39.811	4.0526e-06	49.759	-80.821	-110.794	-142.283	-156.901	-29.194	-23.524	-157.073	-152.348	-24.775	54.658	-153.059	-148.610	-147.936	-143.299	-58.929	-144.228	-8191	255	
1212.953	1	1	0	0	0.1085	0.016261	0.11215	0.20336	0.15765	0.22685	0.37894	0.28217	0.12337	0.18692	0.082179	0.19936	0.15321	0.2685	0.31286	0.19232	-2.6542	-3.1667	-2.7958	-3.3375	-3.1188	-3.0958	-3.3312	-3.3521	-3.1375	-3.4208	-3.1562	-3.2687	-3.3917	-3.2	-3.3083	-3.1875	180.262	-39.970	88.104	188.773	-136.903	124.136	147.286	116.645	79.515	-46.822	-91.754	84.787	49.629	142.521	29.545	-142.268	0.00043172	0.00023069	4.5169e-05	1286.6	3.0503e-06	2.5888e-06	1289.8	348.18	6.3774e-06	3.5699e-06	397.52	133.73	115.96	39.699	6.5712e-06	49.291	0.00036907	0.0003401	0.00010513	1291.7	3.939e-06	3.7091e-06	1291.4	349.54	3.8831e-06	3.6207e-06	394.64	133.88	114.05	39.57	4.0819e-06	49.296	-80.503	-108.269	-98.296	-157.025	13.474	-46.929	-157.187	-152.222	-12.040	39.164	-153.089	-148.268	-147.887	-143.165	-138.869	-144.146	-8191	255	
1213.049	1	1	0	0	0.10343	0.17676	0.28367	0.24305	0.22458	0.051539	0.46411	0.20476	0.024165	0.29211	0.22591	0.14465	0.23975	0.065268	0.10169	0.26752	-2.6083	-3.1917	-2.9646	-3.3146	-3.4083	-3.0438	-3.3312	-3.4104	-2.9667	-3.2917	-3.125	-3.1521	-3.2854	-3.125	-3.2146	-3.3812	76.232	-127.395	-40.238	153.139	140.644	-146.626	107.382	-105.045	-142.309	96.116	189.347	87.115	-56.351	55.941	-141.291	-124.832	0.00047429	0.0002351	0.00011025	1282.4	3.7283e-06	3.9497e-06	1283	346.9	3.1868e-06	4.5788e-06	396.66	133.59	115.07	39.871	1.6064e-06	49.458	0.00034298	0.00032172	0.00010519	1282.8	3.6352e-06	3.6165e-06	1288.2	347.83	3.6924e-06	3.6524e-06	394.55	133.07	113.37	39.725	4.2815e-06	49.239	-77.714	170.190	-91.299	-156.772	2.445	-56.600	-157.072	-152.367	25.009	11.787	-152.947	-148.517	-148.044	-143.283	147.680	-144.122	-8191	255	
1213.145	1	1	0	0	0.19428	0.23524	0.056725	0.1467	0.17798	0.16372	0.18696	0.24368	0.1642	0.16518	0.18587	0.14321	0.091686	0.21913	0.19673	0.17938	-2.4583	-3.2521	-3.1396	-3.1271	-3.4625	-3.1188	-3.3937	-3.1937	-2.95	-3.3167	-3.225	-3.0125	-3.4958	-3.0792	-3.3	-3.3083	-19.555	113.887	-36.415	163.745	-143.410	120.956	106.504	119.727	56.863	15.459	163.005	128.994	-140.882	126.551	52.489	178.080	0.00039778	0.00041676	0.00014395	1280.5	3.8784e-06	3.6253e-06	1287.3	346.97	3.3791e-06	3.9318e-06	396	133.49	115.4	39.791	1.7618e-06	49.526	0.00034147	0.00034741	0.00010976	1282.4	3.6563e-06	3.929e-06	1292.3	347.8	3.6934e-06	3.9667e-06	394.33	133.17	113.38	39.836	4.1996e-06	49.139	-90.975	137.614	-14.602	-156.936	-75.014	-123.793	-157.066	-152.256	-31.769	25.120	-152.884	-148.504	-147.883	-143.282	166.222	-144.188	-8191	255	
1213.241	1	1	0	0	0.065169	0.091382	0.13457	0.2804	0.26474	0.12085	0.29713	0.2587	0.12428	0.20604	0.26892	0.15578	0.067866	0.18748	0.12977	0.1474	-2.4729	-3.2729	-3.0062	-3.0583	-3.3667	-3.1229	-3.4458	-3.4979	-3.0208	-3.4458	-3.2062	-3.1271	-3.3646	-3.0854	-3.2333	-3.2375	-147.827	136.046	85.567	169.411	14.464	-3.357	-139.971	135.498	82.379	65.077	138.899	-142.053	-87.909	-151.538	-54.083	178.998	0.00047483	0.0003818	2.4603e-05	1283	5.2928e-06	6.6297e-06	1285.9	346.43	3.59e-06	1.8095e-06	395.16	133.03	115.14	39.71	1.7615e-06	49.356	0.00033201	0.00036831	0.00010407	1279.3	3.5024e-06	4.0406e-06	1284.8	346.53	3.5433e-06	4.0484e-06	391.44	132.24	113.06	39.828	3.9318e-06	48.855	-71.191	165.798	22.899	-156.935	-86.735	-111.512	-157.041	-152.191	35.701	129.595	-152.713	-148.498	-147.613	-143.321	52.802	-144.174	-8191	255	
1213.337	1	1	0	0	0.27677	0.18089	0.13054	0.36884	0.017558	0.11258	0.31634	0.37007	0.30418	0.074332	0.023064	0.18861	0.24939	0.057687	0.053335	0.19404	-2.6583	-3.1917	-3.2042	-3.1979	-3.2896	-2.9854	-3.35	-3.4708	-2.9875	-3.2938	-3.1271	-2.85	-3.3333	-2.9917	-2.9396	-3.3312	48.515	-12.316	135.273	170.110	-98.893	-36.754	158.063	133.356	78.500	-74.751	-57.721	128.366	147.327	-27.176	152.098	47.768	0.00047485	0.00024787	0.00013916	1274	3.4873e-06	7.4948e-06	1278.5	345.31	3.8751e-06	3.302e-06	393.18	132.74	115.34	39.6	4.9736e-06	49.393	0.00033465	0.00037671	9.7996e-05	1271.8	3.5801e-06	4.093e-06	1277.3	345.08	3.6436e-06	4.1129e-06	388.89	131.86	113.21	39.783	3.7667e-06	48.675	-91.089	106.516	-6.880	-156.913	-61.841	-8.452	-157.080	-152.274	-54.055	7.112	-152.871	-148.412	-147.924	-143.525	-62.782	-144.211	-8191	255	
1213.433	1	1	0	0	0.07751	0.068504	0.11407	0.15091	0.12074	0.04141	0.084878	0.16232	0.24361	0.23024	0.16999	0.3628	0.084728	0.19741	0.2475	0.13153	-2.5708	-3.2667	-3.1229	-3.2354	-3.3104	-3.1396	-3.3042	-3.3021	-2.8917	-3.2229	-3.3396	-2.9896	-3.5292	-3.1646	-2.8771	-3.55	-14.842	119.697	-104.152	-64.745	-61.860	174.366	74.430	154.865	92.767	-106.377	-78.281	156.599	172.104	89.658	60.288	110.251	0.0005083	7.5119e-05	0.00012982	1271.5	7.3074e-06	7.6173e-06	1272.4	346.06	7.6579e-06	3.7863e-06	392.98	132.81	114.85	39.681	5.8187e-06	49.423	0.00034946	0.00037322	9.3977e-05	1268.3	3.8259e-06	4.0224e-06	1273.7	345.07	3.9088e-06	4.0498e-06	388.32	131.99	113.88	39.696	3.6755e-06	48.672	-91.289	159.464	-55.712	-156.859	-85.894	-42.216	-157.009	-152.223	-51.247	-35.547	-153.186	-148.743	-148.139	-143.336	-67.748	-144.249	-8191	255	
1213.530	1	1	0	0	0.27152	0.17332	0.16196	0.10858	0.13615	0.12198	0.25069	0.12951	0.1055	0.18166	0.11201	0.2124	0.23127	0.13407	0.13615	0.25713	-2.6437	-3.0771	-3.1312	-3.2146	-3.3333	-3.1229	-3.2417	-3.5	-2.9604	-3.2271	-3.5396	-3.1688	-3.3812	-3.2208	-3.0125	-3.375	131.394	-95.615	-66.007	91.203	89.753	15.685	130.367	-160.021	-85.517	-36.698	78.062	141.219	126.266	-155.410	15.255	126.274	0.00052076	0.00050993	0.00017632	1269.9	5.1174e-06	1.9594e-06	1272.2	345.38	4.7608e-06	4.0508e-06	393.02	133.19	114.85	39.61	4.9244e-07	49.464	0.00037016	0.00035922	9.1721e-05	1267.7	4.0169e-06	3.8604e-06	1271.3	344.89	4.0832e-06	3.8434e-06	387.66	132.19	114.18	39.565	3.6029e-06	48.88	-85.313	-73.362	-25.731	-156.917	-126.117	-4.254	-157.043	-152.192	-17.585	-20.458	-152.742	-148.372	-147.699	-143.305	31.901	-144.361	-8191	255	
1213.648	1	1	0	0	0.15477	0.19263	0.21228	0.13449	0.059743	0.087579	0.101	0.12331	0.060495	0.34973	0.12137	0.17716	0.27392	0.15781	0.14936	0.11347	-2.4917	-3.1229	-3.2687	-3.125	-3.2479	-3.25	-3.2604	-3.3187	-3.1292	-3.1771	-3.2833	-3.075	-3.2479	-3.2354	-2.8458	-3.4208	151.408	-62.644	18.426	-169.585	53.497	21.188	77.749	170.910	-77.727	-7.573	174.459	-57.889	143.957	-41.256	50.647	163.220	0.00056132	0.00054741	0.00011877	1274.4	5.4318e-06	2.057e-06	1270.5	347.45	6.3181e-06	8.238e-07	395.37	133	114.74	39.537	3.2791e-06	49.253	0.00038028	0.00034589	8.9327e-05	1271.2	4.1359e-06	3.7496e-06	1271.9	346.78	4.0833e-06	3.747e-06	388.35	132.56	114.02	39.46	3.5203e-06	49.089	-87.050	-53.348	-31.805	-156.945	-31.498	-18.092	-157.010	-152.195	-15.666	-153.740	-152.882	-148.472	-147.803	-143.236	2.283	-144.523	-8191	255	
1213.745	1	1	0	0	0.10652	0.29743	0.084159	0.34617	0.10191	0.22939	0.17405	0.1428	0.18209	0.076358	0.12371	0.23931	0.050446	0.16649	0.17708	0.27504	-2.7396	-2.975	-3.3583	-3.1146	-3.1604	-3.1542	-3.2333	-3.3917	-3.1625	-2.9646	-3.4979	-3.1813	-3.2	-3.4854	-3.0146	-3.4125	-11.838	98.861	-135.455	171.877	-25.921	171.491	51.900	-168.724	-148.896	142.904	-126.763	89.600	160.203	-108.307	-158.412	97.736	0.00042947	0.00021125	3.5175e-05	1273.8	2.7402e-06	1.8402e-06	1277.7	346.95	2.9847e-06	5.9684e-06	393.53	133.14	115.34	39.665	5.511e-06	49.202	0.00036754	0.00033699	8.7415e-05	1274.4	3.9701e-06	3.6449e-06	1272.7	347	3.9316e-06	3.6724e-06	387.74	132.9	113.86	39.467	3.5659e-06	49.244	-90.193	-124.981	-114.396	-157.007	-33.102	-113.026	-156.983	-152.310	35.357	22.154	-152.937	-148.384	-147.903	-143.350	-55.211	-144.091	-8191	255	
1213.818	1	1	0	0	0.29559	0.38801	0.083548	0.35652	0.11473	0.24521	0.28891	0.18451	0.060651	0.13185	0.26736	0.18361	0.10169	0.12485	0.2094	0.25772	-2.8146	-2.8063	-3.2333	-3.1188	-2.9	-3.3125	-3.0854	-3.1208	-3.2	-3.1333	-3.3271	-3.1542	-3.0104	-3.375	-3.0125	-3.3937	171.635	174.995	82.968	100.282	86.593	95.381	162.336	135.217	-54.399	110.194	-97.764	-134.425	36.109	132.728	91.242	181.635	0.00043753	0.0002174	3.4305e-05	1274.7	4.3888e-06	5.002e-06	1275.5	347	3.5383e-06	6.4411e-06	394.51	133.06	115.02	39.591	4.0664e-06	49.515	0.00035746	0.00033383	9.2114e-05	1274.8	3.8869e-06	3.6463e-06	1273.7	348.05	3.8728e-06	3.6753e-06	389.88	133.48	113.61	39.478	3.9644e-06	49.455	-80.124	-52.903	-130.297	-156.734	66.172	-24.666	-157.042	-152.390	78.578	10.780	-152.918	-148.449	-147.720	-143.284	-114.603	-144.247	-8191	255	
1213.914	1	1	0	0	0.20749	0.15969	0.16157	0.17851	0.025774	0.22339	0.14285	0.068328	0.084799	0.21692	0.047274	0.16776	0.20808	0.083321	0.12561	0.21343	-2.8125	-2.875	-3.175	-3.2958	-2.9938	-3.275	-3.0479	-3.2021	-3.1646	-2.9854	-3.3979	-3.2833	-3.1583	-3.3771	-3.0833	-3.2979	-85.468	187.046	7.716	-169.407	-70.438	183.160	126.545	-119.550	92.470	0.106	164.389	-164.341	-125.815	-34.980	-9.402	55.421	0.00046002	0.00037179	9.5788e-05	1276.7	1.9955e-06	2.0856e-06	1279.4	346.67	5.0412e-06	3.7927e-06	394.71	132.9	115.46	39.711	3.5253e-06	49.094	0.00036216	0.00033759	0.00010208	1281.7	3.9318e-06	3.6433e-06	1283.2	348.4	3.8837e-06	3.698e-06	393.08	133.5	113.89	39.555	4.2436e-06	49.328	-88.222	-169.159	-136.059	-156.911	-112.137	-5.508	-157.103	-152.212	-20.878	-63.946	-152.588	-148.470	-147.607	-143.269	-63.907	-144.322	-8191	255	
1214.033	1	1	0	0	0.19393	0.072086	0.13368	0.2	0.14265	0.098104	0.30625	0.16834	0.27535	0.078635	0.22922	0.10845	0.18836	0.18267	0.18306	0.098181	-2.8812	-2.8854	-3.2	-3.3187	-3.0521	-3.3375	-3.1625	-3.2188	-3.4437	-3.0125	-3.3646	-3.275	-2.9542	-3.3792	-2.9667	-3.2396	121.206	-34.133	-60.950	127.187	145.300	151.097	117.385	169.358	-132.848	-30.410	62.318	-93.791	-91.976	-139.530	116.733	182.940	0.00044518	0.00042041	0.00011974	1278.3	7.2023e-06	3.4692e-06	1278.1	347.36	3.3164e-06	3.7104e-06	395.89	132.63	115.52	39.652	2.5558e-06	49.121	0.00035103	0.00033784	0.00010865	1278.3	3.8089e-06	3.6921e-06	1283.9	347.55	3.7839e-06	3.7869e-06	394.1	132.9	113.58	39.596	4.3759e-06	49.144	-84.754	35.484	-166.132	-157.021	-29.866	88.752	-157.067	-152.231	-14.843	42.138	-152.869	-148.379	-147.683	-143.542	25.898	-144.218	-8191	255	
1214.129	1	1	0	0	0.19241	0.072842	0.070657	0.15133	0.2671	0.20787	0.10251	0.13235	0.090238	0.31255	0.061602	0.13421	0.12666	0.18494	0.17455	0.36779	-2.8604	-2.9167	-3.4146	-3.4208	-2.8417	-3.2625	-3.2417	-3.2917	-3.4042	-2.9042	-3.2125	-3.3063	-2.8583	-3.4042	-3.05	-3.0625	-155.956	162.847	-16.223	166.495	-42.678	-53.583	114.985	-134.974	-155.293	-149.771	-95.308	-164.974	153.804	151.045	-15.379	110.529	0.00044209	0.00038763	0.00014656	1280.3	1.8761e-06	2.1973e-06	1276.3	346.48	3.4526e-07	4.8191e-06	393.93	133.02	115.06	39.636	4.1176e-06	49.284	0.00034309	0.00035922	0.00011132	1277.8	3.7635e-06	3.9898e-06	1285.2	347.5	3.7341e-06	4.0938e-06	394.08	132.94	113.44	39.868	4.3723e-06	49.205	-87.657	168.779	-90.927	-156.915	-80.401	122.267	-157.107	-152.293	-164.783	-75.503	-153.000	-148.445	-147.657	-143.297	54.247	-144.315	-8191	255	
1214.225	1	1	0	0	0.3277	0.20851	0.19877	0.23408	0.13185	0.18234	0.37548	0.38917	0.17119	0.31467	0.16565	0.073791	0.32529	0.17815	0.056842	0.025782	-2.9188	-3.05	-3.0167	-3.2854	-3.0833	-3.1958	-3.3375	-3.075	-3.2333	-3.0875	-3.2729	-3.2	-2.9021	-3.3854	-3.125	-2.9979	-62.149	-104.326	-94.522	187.339	-88.600	171.318	144.414	179.620	74.045	131.712	-150.130	157.403	157.609	135.520	106.758	157.231	0.00046683	0.00012958	0.00011808	1280.4	2.3627e-06	7.0198e-06	1280	346.49	2.8226e-06	2.5114e-06	396.86	132.55	115.04	39.641	6.7805e-06	49.354	0.00034452	0.00038973	0.00011145	1278.1	3.7732e-06	4.3248e-06	1285.2	347.31	3.7727e-06	4.3631e-06	394.06	132.49	113.46	39.975	4.1514e-06	49.119	-84.618	-161.417	-61.046	-156.988	183.455	-159.548	-157.061	-152.312	32.283	-168.055	-153.066	-148.518	-148.036	-143.327	-34.136	-144.269	-8191	255	
1214.346	1	1	0	0	0.12306	0.07811	0.042222	0.26173	0.20654	0.19613	0.069602	0.10952	0.091325	0.17573	0.19606	0.11569	0.12786	0.36144	0.055141	0.33404	-2.8812	-3.0604	-3.05	-3.4542	-2.9625	-3.2604	-3.4667	-3.0208	-3.3333	-3.0542	-3.1292	-3.3312	-2.9417	-3.2542	-3.3312	-3.2042	-49.941	57.845	-6.818	142.808	-77.221	-153.501	149.710	94.008	99.607	113.453	131.895	-128.932	180.426	-125.959	-23.465	61.279	0.00053685	0.00042565	0.00012599	1279	6.1527e-06	1.2644e-06	1280.2	346.34	6.1822e-06	1.955e-06	394.82	133.42	115.36	39.743	5.3736e-06	49.336	0.00034991	0.00040187	0.00010487	1276.4	3.8554e-06	4.3919e-06	1282.5	346.98	3.8495e-06	4.3728e-06	391.8	132.54	114.03	39.962	3.9273e-06	48.897	-88.377	76.774	-70.592	-156.890	-86.805	-92.345	-157.000	-152.239	-63.625	39.716	-152.902	-148.062	-147.771	-143.089	-38.490	-143.964	-8191	255	
1214.442	1	1	0	0	0.1967	0.030456	0.022665	0.15906	0.26229	0.33959	0.20653	0.14187	0.22951	0.0542	0.097185	0.13234	0.25389	0.17068	0.11751	0.08559	-2.8854	-2.9958	-3.0833	-3.5458	-3.2208	-3.0646	-3.4354	-3.0646	-3.2021	-3.2104	-3.1813	-3.5146	-3.0167	-3.325	-3.175	-3.1667	65.178	25.342	-118.896	106.817	-106.765	56.934	85.957	110.501	-60.889	-145.042	126.363	85.602	-33.759	-77.125	-0.384	149.392	0.00048424	0.00072057	0.00011837	1277.4	1.8199e-06	8.0089e-06	1280.2	347.23	2.7962e-06	6.726e-06	395.11	132.97	115.72	39.673	5.9489e-06	49.31	0.00036593	0.00039439	0.00010057	1274.2	4.0847e-06	4.3042e-06	1281.8	346.5	4.1377e-06	4.233e-06	391.25	132.26	114.73	39.935	3.868e-06	48.964	-88.016	-73.144	-67.816	-156.780	-136.401	-8.319	-157.002	-152.195	-86.010	26.259	-152.929	-148.312	-147.769	-143.221	-56.263	-144.245	-8191	255	
1214.514	1	1	0	0	0.1421	0.07959	0.14739	0.090189	0.12947	0.24109	0.28424	0.2944	0.0069004	0.061094	0.16586	0.18863	0.15226	0.15686	0.28989	0.2491	-3.0062	-3.1729	-2.9896	-3.6	-2.9771	-3.2521	-3.5354	-3.2604	-3.2458	-3.2188	-3.1292	-3.5146	-3.1417	-3.1042	-3.2687	-3.1229	-25.780	-9.438	111.545	94.373	124.767	-84.717	134.672	159.290	33.189	-141.309	-74.047	145.725	188.771	-73.187	91.795	125.398	0.00043108	0.00046093	0.00011338	1278.6	4.5969e-06	3.9572e-06	1285.1	346.64	2.2999e-06	7.9406e-06	395.64	132.86	115.26	39.608	1.5362e-06	49.163	0.00038989	0.00038123	9.9113e-05	1276.2	4.3076e-06	4.1545e-06	1281.7	346.75	4.2923e-06	4.0818e-06	390.8	132.7	114.91	39.734	3.7415e-06	48.958	-90.636	-91.036	-20.229	-156.929	-94.604	-2.213	-157.140	-152.499	-5.553	18.473	-153.054	-148.442	-147.624	-143.281	9.975	-144.113	-8191	255	
1214.634	1	1	0	0	0.17916	0.17249	0.13361	0.1933	0.088327	0.12828	0.065391	0.25133	0.21315	0.21214	0.058851	0.40503	0.16713	0.29613	0.23259	0.079224	-2.9042	-3.1312	-2.9021	-3.4667	-2.9521	-3.0229	-3.5687	-3.1813	-3.2583	-3.2667	-2.9313	-3.4938	-3.1688	-3.0187	-3.1375	-3.1292	-166.538	87.926	77.905	47.829	-20.277	-108.872	158.483	173.260	-155.759	160.791	-149.800	129.097	-149.256	-102.373	23.228	27.371	0.00047085	0.00013112	0.00010745	1278	3.6301e-06	9.226e-06	1278.1	346.46	6.5168e-06	2.993e-06	394.06	133.24	115.14	39.697	1.6925e-06	49.206	0.00039366	0.00035766	9.4357e-05	1274.4	4.2361e-06	3.9177e-06	1274.7	347.1	4.2073e-06	3.8487e-06	388.71	132.92	114.42	39.624	3.5529e-06	49.156	-83.965	69.443	-97.783	-156.934	20.377	-20.268	-157.051	-152.180	18.973	-33.110	-152.857	-148.429	-147.679	-143.437	-20.532	-144.283	-8191	255	
1214.729	1	1	0	0	0.13399	0.072411	0.02719	0.26407	0.14504	0.30901	0.27457	0.17444	0.13099	0.21009	0.23879	0.19154	0.20076	0.27031	0.30377	0.17779	-2.6979	-3.2354	-2.775	-3.5583	-3.0875	-3.1375	-3.5083	-3.1417	-3.2188	-3.2417	-3.1521	-3.125	-3.0604	-3.1625	-3.2333	-3.0771	76.530	-30.823	152.107	149.103	92.186	158.609	125.395	122.211	111.817	-64.987	175.562	-24.909	-104.528	-148.666	-164.034	160.106	0.00044701	0.00019811	0.0001623	1277.1	6.3031e-06	8.9465e-06	1280.5	346.49	3.5653e-06	4.253e-06	395.62	133.05	115.22	39.74	7.7772e-06	49.205	0.00037826	0.00034252	9.1288e-05	1276.8	4.0507e-06	3.7474e-06	1274.3	347.49	4.018e-06	3.7138e-06	389.23	133.09	114.11	39.558	3.5955e-06	49.276	-80.886	-79.330	-40.594	-156.907	-14.850	-37.112	-157.238	-152.440	35.082	-3.110	-152.993	-148.371	-147.762	-143.377	-99.725	-144.326	-8191	255	
1214.825	1	1	0	0	0.10948	0.10871	0.039881	0.23378	0.27868	0.075471	0.14365	0.36669	0.067244	0.16259	0.22166	0.20479	0.045818	0.41789	0.18091	0.24001	-2.575	-3.3563	-3.1146	-3.4354	-3.2104	-2.8896	-3.5604	-3.1437	-3.2021	-3.2833	-3.0604	-3.3479	-3.2146	-3.0417	-3.1312	-3.1042	156.130	69.836	-94.023	70.510	18.112	183.195	174.274	110.041	54.410	-10.436	-125.758	-141.169	116.395	105.080	63.617	-162.183	0.0004364	0.00027261	3.8813e-05	1274.7	3.9231e-06	3.0902e-06	1277.4	346.48	6.6998e-06	4.9961e-06	394.05	132.87	115.28	39.74	2.9104e-06	49.096	0.00036364	0.00033402	9.4228e-05	1278.2	3.8932e-06	3.7012e-06	1275.4	348.15	3.9169e-06	3.6543e-06	390.53	133.36	113.81	39.541	3.8725e-06	49.378	-72.979	-71.211	131.022	-157.006	-14.826	5.293	-156.911	-152.233	76.037	-15.219	-152.977	-148.419	-147.720	-143.254	-45.372	-144.147	-8191	255	
1214.946	1	1	0	0	0.022035	0.11505	0.22198	0.24185	0.20017	0.20001	0.12824	0.27494	0.24758	0.15597	0.41577	0.35716	0.2293	0.18498	0.17883	0.35476	-2.6708	-3.3438	-2.8833	-3.3187	-3.4	-2.9896	-3.5938	-3.2021	-3.0083	-3.4375	-3.1083	-3.2375	-3.2875	-3.0583	-3.3354	-3.0438	56.314	-68.251	-65.345	142.485	151.244	72.403	138.011	136.089	18.499	169.105	187.439	127.303	-169.969	-88.869	159.320	155.653	0.00058445	0.00044562	8.0815e-05	1279.6	4.1304e-06	1.4862e-06	1284.3	345.34	3.8229e-06	2.4357e-06	395.08	133.12	115.52	39.656	3.8835e-06	49.393	0.00035598	0.00033047	0.00010098	1279.9	3.8147e-06	3.625e-06	1282	347.65	3.8366e-06	3.594e-06	392.4	133.17	113.53	39.516	4.1261e-06	49.285	-84.521	-96.573	-149.057	-156.762	6.792	-163.437	-157.005	-152.289	10.153	-7.727	-152.867	-148.232	-147.979	-143.361	-158.490	-144.138	-8191	255	
1215.042	1	1	0	0	0.19549	0.28927	0.35846	0.33572	0.18046	0.018641	0.059009	0.20264	0.22084	0.035903	0.18392	0.17972	0.35806	0.32436	0.10619	0.12606	-2.6125	-3.2771	-3.0583	-3.2667	-3.1854	-2.9208	-3.5125	-3.125	-2.8667	-3.4271	-3.2375	-3.1125	-3.3271	-2.9896	-3.1625	-3.3292	-134.925	-79.288	133.925	139.173	-38.821	128.336	144.018	118.284	159.687	36.009	-159.559	-89.783	-6.680	120.404	-96.163	-124.510	0.0004168	0.00015751	5.0933e-05	1278.6	2.9265e-06	4.857e-06	1281.1	346.84	5.3648e-06	4.2184e-06	393.83	133.35	114.87	39.754	5.9528e-06	49.005	0.00034804	0.00032905	0.00010652	1277.8	3.7043e-06	3.6705e-06	1283.3	347.41	3.7205e-06	3.6769e-06	392.91	132.88	112.97	39.644	4.2459e-06	49.087	-78.726	-116.965	-136.619	-156.829	64.018	-54.629	-157.032	-152.154	8.647	-41.203	-152.965	-148.294	-147.776	-143.357	-31.971	-144.103	-8191	255	
1215.113	1	1	0	0	0.06554	0.15391	0.14088	0.21604	0.23346	0.1826	0.059813	0.25261	0.035046	0.064063	0.16837	0.17626	0.25656	0.20082	0.10389	0.24537	-2.5854	-3.2521	-3.1521	-3.175	-3.4542	-2.7875	-3.4667	-3.1979	-2.9917	-3.3604	-3.2	-3.1729	-3.5542	-3.0583	-3.1917	-3.425	-91.819	-21.983	-106.830	119.004	-79.353	-94.246	-113.754	178.653	-34.388	186.322	70.501	100.151	169.232	127.492	-51.202	142.106	0.00042593	0.00024417	9.5058e-05	1275.9	4.787e-06	2.5166e-06	1276.4	346.26	7.2394e-06	2.6457e-06	394.26	132.71	115.12	39.76	5.9096e-06	49.431	0.00033689	0.00034431	0.00010782	1275.4	3.6165e-06	3.8593e-06	1283.3	346.98	3.651e-06	3.904e-06	393.09	132.6	113.18	39.747	4.1878e-06	49.021	-89.351	175.391	-35.941	-156.882	-14.594	-169.501	-156.954	-152.210	-2.627	80.885	-153.029	-148.479	-147.926	-143.553	-54.559	-144.227	-8191	255	
1215.210	1	1	0	0	0.059136	0.08288	0.17805	0.076264	0.32315	0.14332	0.2193	0.13462	0.19107	0.13796	0.24901	0.13073	0.28945	0.31043	0.07358	0.23155	-2.4833	-3.1833	-3.0792	-3.3229	-3.2562	-3.0604	-3.4896	-3.4521	-2.9229	-3.425	-3.1125	-3.0625	-3.375	-3.0958	-3.2104	-3.1771	154.975	-155.527	-135.766	128.769	187.667	139.333	152.739	121.535	-163.037	-0.777	97.374	146.837	150.996	158.442	91.274	140.290	0.00048831	0.00023262	7.2961e-05	1276.6	5.1427e-06	4.8642e-06	1277.5	345.66	2.4162e-06	5.6724e-06	397.11	133.12	115.37	39.784	3.4692e-06	49.145	0.0003325	0.00036807	0.0001042	1275.1	3.5491e-06	4.1024e-06	1280.6	346.6	3.5953e-06	4.1281e-06	391.87	132.45	113.19	39.861	4.0263e-06	48.876	-82.068	136.669	-69.837	-156.875	-56.163	-35.418	-157.068	-152.076	-19.637	-45.379	-152.792	-148.354	-147.737	-143.151	76.515	-144.245	-8191	255	
1215.330	1	1	0	0	0.16555	0.18977	0.026089	0.096693	0.21009	0.35485	0.10517	0.23384	0.14441	0.083663	0.09867	0.26614	0.05939	0.16399	0.13839	0.20641	-2.6479	-3.2438	-3.2125	-3.2396	-3.3271	-3.0021	-3.2708	-3.5062	-3.0896	-3.3292	-3.4062	-3.2125	-3.3688	-3.2938	-3.0292	-3.5438	-162.167	-90.470	-100.122	158.856	-20.121	87.812	-144.331	172.550	9.371	34.391	-121.031	-167.503	-138.932	155.240	-16.626	101.059	0.00053239	0.00042898	0.00027679	1276.1	3.287e-06	2.9854e-06	1278.8	347.48	5.2873e-06	1.8921e-06	395.32	133.4	115.23	39.641	2.6456e-06	49.17	0.00033611	0.00038239	0.00010016	1272.6	3.6528e-06	4.2016e-06	1277.5	345.94	3.7433e-06	4.2264e-06	390.45	132.18	113.61	39.773	3.8335e-06	48.735	-83.398	-111.573	-62.644	-156.841	-63.081	-44.083	-157.010	-152.207	-95.277	-92.842	-152.819	-148.554	-147.696	-143.389	-67.985	-144.151	-8191	255	
1215.426	1	1	0	0	0.16375	0.075489	0.18577	0.26331	0.01974	0.29217	0.22887	0.12505	0.061156	0.17108	0.16197	0.27683	0.14731	0.31775	0.042807	0.22231	-2.5458	-3.1021	-3.1437	-3.0354	-3.3729	-3.1792	-3.1833	-3.6312	-2.9604	-3.1396	-3.2875	-2.9437	-3.3	-3.3479	-2.9229	-3.4979	115.493	112.156	1.639	171.431	47.434	127.399	185.206	-127.118	-60.072	-158.341	103.250	-132.742	179.349	112.428	-101.766	-154.533	0.00059046	0.00056594	0.00017534	1273.1	5.8104e-06	2.9738e-06	1277.9	346.01	6.1009e-06	4.3479e-06	393.42	132.89	114.87	39.709	2.1559e-06	49.168	0.00035122	0.00037845	9.5253e-05	1268.1	3.8328e-06	4.0746e-06	1272.2	344.89	3.9205e-06	4.0392e-06	388.68	131.77	113.66	39.675	3.6906e-06	48.621	-86.680	164.685	-60.990	-156.786	-80.833	-49.466	-156.796	-152.261	-66.356	-37.740	-152.874	-148.422	-148.011	-143.292	-19.284	-144.154	-8191	255	
#DATA ENDS
