BOXY.EXE: ISS Imagent and Oximeter Data Acquisition Program Version 0.80
Ascii Record File

#ACQ INFORMATION
2  Detector Channels 
16  External MUX Channels 
1  Auxiliary Channels 
5000  Waveform (CCF) Frequency (Hz)
1  Waveforms Skipped 
30  Waveforms Averaged 
1  Cycles Averaged 
16  Acquisitions per Waveform 
10.0806  Updata Rate (Hz) 

#FILE INFORMATION
TRUE -- External MUX Channel results are PARSED.
FALSE -- AC DC and Phase are NOT grouped.
TRUE -- Companion Program Settings File CREATED.
FALSE -- AC data not excluded
FALSE -- DC data not excluded
FALSE -- Phase data not excluded
FALSE -- Auxillary Chn. data not excluded
Tab delimiters

#CALIBRATION STATE
TRUE -- Waveform Calibration Values APPLIED.


#AUX CALIBRATION VALUES
Val Type	aux-1	

Term	1.0000e+00	
Factor	0.0000e+00	


#WF CALIBRATION VALUES
A = Detector Channel
Val Type	A-AC1	A-AC2	A-AC3	A-AC4	A-AC5	A-AC6	A-AC7	A-AC8	A-AC9	A-AC10	A-AC11	A-AC12	A-AC13	A-AC14	A-AC15	A-AC16	A-DC1	A-DC2	A-DC3	A-DC4	A-DC5	A-DC6	A-DC7	A-DC8	A-DC9	A-DC10	A-DC11	A-DC12	A-DC13	A-DC14	A-DC15	A-DC16	A-Ph1	A-Ph2	A-Ph3	A-Ph4	A-Ph5	A-Ph6	A-Ph7	A-Ph8	A-Ph9	A-Ph10	A-Ph11	A-Ph12	A-Ph13	A-Ph14	A-Ph15	A-Ph16	

Term	0.00000e+00	0.00000e+00	0.00000e+00	0.00000e+00	0.00000e+00	0.00000e+00	0.00000e+00	0.00000e+00	0.00000e+00	0.00000e+00	0.00000e+00	0.00000e+00	0.00000e+00	0.00000e+00	0.00000e+00	0.00000e+00	0.00000e+00	0.00000e+00	0.00000e+00	0.00000e+00	0.00000e+00	0.00000e+00	0.00000e+00	0.00000e+00	0.00000e+00	0.00000e+00	0.00000e+00	0.00000e+00	0.00000e+00	0.00000e+00	0.00000e+00	0.00000e+00	0.00000e+00	0.00000e+00	0.00000e+00	0.00000e+00	0.00000e+00	0.00000e+00	0.00000e+00	0.00000e+00	0.00000e+00	0.00000e+00	0.00000e+00	0.00000e+00	0.00000e+00	0.00000e+00	0.00000e+00	0.00000e+00	
Factor	1.00000e+00	1.00000e+00	1.00000e+00	1.00000e+00	1.00000e+00	1.00000e+00	1.00000e+00	1.00000e+00	1.00000e+00	1.00000e+00	1.00000e+00	1.00000e+00	1.00000e+00	1.00000e+00	1.00000e+00	1.00000e+00	1.00000e+00	1.00000e+00	1.00000e+00	1.00000e+00	1.00000e+00	1.00000e+00	1.00000e+00	1.00000e+00	1.00000e+00	1.00000e+00	1.00000e+00	1.00000e+00	1.00000e+00	1.00000e+00	1.00000e+00	1.00000e+00	X	X	X	X	X	X	X	X	X	X	X	X	X	X	X	X	

B = Detector Channel
Val Type	B-AC1	B-AC2	B-AC3	B-AC4	B-AC5	B-AC6	B-AC7	B-AC8	B-AC9	B-AC10	B-AC11	B-AC12	B-AC13	B-AC14	B-AC15	B-AC16	B-DC1	B-DC2	B-DC3	B-DC4	B-DC5	B-DC6	B-DC7	B-DC8	B-DC9	B-DC10	B-DC11	B-DC12	B-DC13	B-DC14	B-DC15	B-DC16	B-Ph1	B-Ph2	B-Ph3	B-Ph4	B-Ph5	B-Ph6	B-Ph7	B-Ph8	B-Ph9	B-Ph10	B-Ph11	B-Ph12	B-Ph13	B-Ph14	B-Ph15	B-Ph16	

Term	0.00000e+00	0.00000e+00	0.00000e+00	0.00000e+00	0.00000e+00	0.00000e+00	0.00000e+00	0.00000e+00	0.00000e+00	0.00000e+00	0.00000e+00	0.00000e+00	0.00000e+00	0.00000e+00	0.00000e+00	0.00000e+00	0.00000e+00	0.00000e+00	0.00000e+00	0.00000e+00	0.00000e+00	0.00000e+00	0.00000e+00	0.00000e+00	0.00000e+00	0.00000e+00	0.00000e+00	0.00000e+00	0.00000e+00	0.00000e+00	0.00000e+00	0.00000e+00	-5.24022e+01	-1.64169e+02	-9.76990e+01	-1.80969e+02	-5.66720e+01	-9.77327e+01	-1.56073e+02	-1.62015e+02	-2.91745e+01	-6.44927e+01	-1.73276e+02	-1.70265e+02	-1.82009e+02	-1.76771e+02	-6.96488e+01	-1.50163e+02	
Factor	1.86859e-05	9.78118e-05	2.79070e-05	1.67683e-01	9.76611e-07	1.10387e-06	1.73110e-01	5.09591e-02	1.07639e-06	1.05178e-06	1.04153e-01	2.91335e-02	3.50756e-02	9.31146e-03	9.58455e-07	1.36155e-02	6.11716e-07	6.27859e-07	1.75053e-07	7.79073e-02	6.84918e-09	6.89061e-09	7.55109e-02	2.36384e-02	6.84905e-09	6.88618e-09	4.50172e-02	1.28399e-02	1.55609e-02	4.22386e-03	6.88738e-09	5.88561e-03	X	X	X	X	X	X	X	X	X	X	X	X	X	X	X	X	



#DISTANCE SETTINGS
A = Detector Channel
A-1	A-2	A-3	A-4	A-5	A-6	A-7	A-8	A-9	A-10	A-11	A-12	A-13	A-14	A-15	A-16	

2.5000e+00	3.0000e+00	2.5000e+00	3.0000e+00	2.0000e+00	3.0000e+00	1.5000e+00	3.0000e+00	3.0000e+00	3.0000e+00	3.0000e+00	3.0000e+00	3.0000e+00	3.0000e+00	1.5000e+00	3.0000e+00	

B = Detector Channel
B-1	B-2	B-3	B-4	B-5	B-6	B-7	B-8	B-9	B-10	B-11	B-12	B-13	B-14	B-15	B-16	

1.0000e+01	1.0000e+01	1.0000e+01	1.4400e+00	1.0000e+01	1.0000e+01	1.5100e+00	1.9400e+00	1.0000e+01	1.0000e+01	1.9900e+00	2.4900e+00	2.4100e+00	2.9000e+00	1.0000e+01	2.9800e+00	




#DATA BEGINS
time	group	step	mark	flag	A-AC1	A-AC2	A-AC3	A-AC4	A-AC5	A-AC6	A-AC7	A-AC8	A-AC9	A-AC10	A-AC11	A-AC12	A-AC13	A-AC14	A-AC15	A-AC16	A-DC1	A-DC2	A-DC3	A-DC4	A-DC5	A-DC6	A-DC7	A-DC8	A-DC9	A-DC10	A-DC11	A-DC12	A-DC13	A-DC14	A-DC15	A-DC16	A-Ph1	A-Ph2	A-Ph3	A-Ph4	A-Ph5	A-Ph6	A-Ph7	A-Ph8	A-Ph9	A-Ph10	A-Ph11	A-Ph12	A-Ph13	A-Ph14	A-Ph15	A-Ph16	B-AC1	B-AC2	B-AC3	B-AC4	B-AC5	B-AC6	B-AC7	B-AC8	B-AC9	B-AC10	B-AC11	B-AC12	B-AC13	B-AC14	B-AC15	B-AC16	B-DC1	B-DC2	B-DC3	B-DC4	B-DC5	B-DC6	B-DC7	B-DC8	B-DC9	B-DC10	B-DC11	B-DC12	B-DC13	B-DC14	B-DC15	B-DC16	B-Ph1	B-Ph2	B-Ph3	B-Ph4	B-Ph5	B-Ph6	B-Ph7	B-Ph8	B-Ph9	B-Ph10	B-Ph11	B-Ph12	B-Ph13	B-Ph14	B-Ph15	B-Ph16	aux-1	digaux	

2230.238	1	1	0	512	0.072971	0.11759	0.24926	0.12938	0.023329	0.10381	0.036612	0.20514	0.15282	0.45908	0.26867	0.088115	0.036342	0.068497	0.23236	0.12931	-2.6521	-3.3521	-2.9688	-3.1167	-3.1917	-2.825	-3.4354	-3.1188	-2.9271	-3.1583	-3.0896	-3.0208	-3.2833	-2.9021	-3.2125	-3.0292	175.589	-3.583	-9.366	218.004	171.411	-49.079	-67.996	244.447	128.764	229.333	207.697	162.015	3.330	219.620	248.338	259.566	0.00014463	0.00010042	1.6615e-05	381.76	6.9049e-07	2.2644e-06	542.05	147.57	1.8079e-06	1.8398e-06	227.98	86.437	61.401	32.042	1.6142e-06	47.15	4.6939e-05	3.6764e-05	1.1545e-05	364.19	4.3591e-07	4.05e-07	511.84	140.76	4.3521e-07	3.969e-07	209.35	81.138	56.447	30.144	4.7464e-07	43.254	232.667	-33.415	58.348	-58.992	110.606	55.221	-60.955	-52.884	98.907	81.855	-56.284	-50.689	-46.865	-41.885	112.752	-46.604	-8191	255	
2230.310	1	1	0	0	0.15909	0.092153	0.10313	0.22739	0.083987	0.11214	0.058986	0.28293	0.30069	0.057631	0.12585	0.16567	0.0732	0.090467	0.1726	0.30944	-2.5792	-3.1479	-2.9896	-3.2146	-3.4188	-2.8167	-3.3708	-3.2729	-2.9292	-3.3542	-3.2333	-3.1	-3.2458	-2.9292	-3.0625	-3.3812	135.854	108.911	191.732	28.127	-0.505	-52.340	285.621	210.824	165.447	109.962	205.717	95.419	190.834	147.330	53.375	215.181	0.00014631	0.00020495	3.7014e-05	378.86	1.3282e-06	1.9234e-06	535.96	145.87	3.3106e-06	1.6516e-06	228.83	85.918	60.912	31.832	2.9562e-06	46.76	4.4933e-05	3.5776e-05	1.197e-05	360.82	4.0755e-07	3.8562e-07	508.1	139.52	4.1671e-07	3.8514e-07	208.68	80.487	56.258	29.891	4.7922e-07	42.93	244.799	-37.308	101.176	-59.161	-3.892	25.501	-61.004	-52.308	112.649	127.994	-56.006	-50.808	-46.900	-41.710	66.817	-46.374	-8191	255	
2230.406	1	1	0	0	0.04873	0.15772	0.11358	0.17931	0.14104	0.31189	0.14774	0.35443	0.10348	0.18755	0.2233	0.19651	0.30656	0.10364	0.16125	0.17933	-2.5083	-3.3063	-3.1188	-3.0667	-3.2917	-2.9042	-3.3104	-3.2542	-2.9938	-3.2687	-3.2708	-3.0687	-3.4229	-2.9354	-3.1896	-3.2146	203.771	4.325	39.370	-30.961	-63.765	68.717	50.719	216.346	286.306	259.482	-61.406	126.601	270.028	-54.362	137.819	273.505	0.00014497	6.2717e-05	6.878e-05	380.87	2.1626e-06	1.8986e-06	540.61	146.78	9.0975e-07	1.8807e-06	228.9	86.196	60.908	31.583	1.3492e-06	46.849	4.3211e-05	3.7129e-05	1.2163e-05	361.99	3.9271e-07	4.1134e-07	510.02	140.27	3.9198e-07	4.1449e-07	208.84	80.736	56.111	29.741	4.6283e-07	42.724	249.041	-15.482	39.144	-58.771	85.079	43.641	-60.771	-52.367	104.873	109.828	-55.965	-50.599	-46.852	-41.629	118.947	-46.420	-8191	255	
2230.526	1	1	0	0	0.095255	0.11762	0.057146	0.23617	0.040923	0.29478	0.26578	0.22984	0.16607	0.23859	0.15522	0.13597	0.10782	0.26543	0.1895	0.16416	-2.4208	-3.0854	-3.1167	-2.8854	-3.2875	-3.275	-3.1042	-3.2833	-2.8125	-3.2396	-3.1292	-2.8854	-3.4771	-2.9771	-3.1562	-3.3146	121.699	8.282	-45.922	199.741	282.707	281.641	-68.496	-56.270	262.140	225.263	214.646	138.368	-31.830	147.079	-31.593	188.274	0.00015792	0.00034188	8.3661e-05	375.55	2.1126e-06	2.7841e-06	531.67	146.31	6.7827e-07	1.3829e-06	227.54	85.89	60.617	31.113	2.2656e-06	45.817	4.153e-05	3.8764e-05	1.1479e-05	357.02	3.6636e-07	4.2158e-07	503.71	139.46	3.6991e-07	4.3092e-07	207.81	80.19	55.74	29.289	4.3558e-07	41.953	257.502	4.994	65.827	-59.063	97.789	62.196	-60.832	-52.345	133.945	83.249	-56.118	-50.318	-46.650	-41.682	106.587	-46.180	-8191	255	
2230.623	1	1	0	0	0.209	0.19097	0.22459	0.1028	0.20816	0.14962	0.096141	0.25282	0.063681	0.28353	0.16664	0.18628	0.11622	0.12162	0.083904	0.085068	-2.4042	-3.2625	-3.2729	-2.8792	-3.3833	-2.9271	-3.1729	-3.375	-2.8375	-3.2896	-3.175	-2.9708	-3.5646	-2.8979	-3.0458	-3.3292	65.304	159.130	140.195	169.073	244.049	184.028	260.897	257.335	114.025	-30.342	-63.384	185.444	71.949	-43.606	65.291	130.537	0.0001337	8.2362e-05	3.3646e-05	367.9	2.3025e-06	2.3324e-06	524.72	145.68	1.8418e-06	1.4699e-06	226	84.508	61.249	30.404	1.8576e-06	44.462	3.9021e-05	3.866e-05	1.0457e-05	348.48	3.5901e-07	4.2277e-07	494.79	139.04	3.6777e-07	4.2647e-07	207.05	79.1	56.014	28.587	3.9384e-07	40.589	248.992	34.672	34.837	-58.867	104.752	76.974	-60.903	-52.361	186.751	108.801	-56.019	-50.430	-46.605	-41.347	121.067	-46.367	-8191	255	
2230.719	1	1	0	0	0.19303	0.21329	0.24675	0.081606	0.16046	0.12248	0.25527	0.057328	0.12147	0.10404	0.17866	0.088279	0.14453	0.16641	0.22419	0.21022	-2.7667	-2.9646	-3.2938	-2.8354	-3.3479	-3.3208	-3.0396	-3.4771	-3.0729	-3.1167	-3.4271	-2.9458	-3.3063	-3.1104	-2.8667	-3.3167	96.108	224.518	-68.949	256.857	104.399	92.037	226.581	-31.654	-49.856	2.210	238.213	262.712	61.471	6.120	-47.246	280.180	0.00016443	0.00027813	4.5868e-05	362.04	1.2221e-06	1.3909e-06	515.03	145.93	2.3301e-06	1.7343e-06	227.06	84.622	61.956	30.205	2.3646e-06	43.957	4.0151e-05	3.8705e-05	9.7512e-06	343.1	3.7917e-07	4.174e-07	488.79	138.8	3.9503e-07	4.2496e-07	207.37	79.079	56.834	28.457	3.9555e-07	40.191	242.539	-28.719	77.112	-59.248	110.703	10.505	-61.009	-52.488	154.139	68.933	-56.217	-50.452	-46.688	-41.621	47.370	-46.123	-8191	255	
2230.815	1	1	0	0	0.14567	0.31725	0.1548	0.163	0.23197	0.29124	0.20762	0.21577	0.062075	0.15025	0.13761	0.10793	0.10976	0.1098	0.069672	0.24055	-2.6521	-3.1208	-3.3292	-3.125	-3.2646	-3.0812	-3.0812	-3.3583	-3.0417	-3.1042	-3.3958	-2.8958	-3.5271	-3.1667	-3.1021	-3.3271	-33.677	-65.988	273.079	-34.217	274.534	108.215	216.547	232.504	206.504	-30.955	-32.414	177.747	70.498	-36.216	104.282	127.786	0.00015071	0.0002202	6.605e-05	361.01	1.7102e-06	2.5986e-06	516.45	147.16	1.5282e-06	2.0361e-06	228.8	85.84	63.352	30.448	1.2324e-06	44.065	4.3338e-05	3.8817e-05	9.7286e-06	344.07	4.1372e-07	4.1303e-07	489.85	140.57	4.2959e-07	4.096e-07	208.98	80.012	58.048	28.58	3.7555e-07	40.225	240.125	-9.746	69.551	-59.107	71.639	43.880	-61.153	-52.244	54.913	98.085	-55.986	-50.642	-46.634	-41.429	98.630	-46.013	-8191	255	
2230.909	1	1	0	0	0.16196	0.058003	0.15828	0.16978	0.088338	0.084376	0.021279	0.17993	0.2709	0.11471	0.055804	0.059999	0.22009	0.13479	0.14704	0.058378	-2.7042	-2.8438	-3.0333	-3.0021	-3.225	-3.1917	-3.0104	-3.25	-3.0604	-3.0896	-3.275	-3.2771	-3.15	-3.3104	-3.0187	-3.25	121.115	169.316	-48.491	-52.138	149.675	-61.186	110.386	278.723	-48.284	76.630	22.695	120.794	54.703	254.125	160.438	257.256	0.0001511	0.00022241	4.7594e-05	364.71	1.8047e-06	2.2794e-06	521.13	148.33	9.6729e-07	1.8985e-06	230.86	86.868	64.174	30.458	1.1646e-06	44.081	4.4756e-05	3.6951e-05	9.4193e-06	347.21	4.3771e-07	3.9164e-07	493.7	141.42	4.4108e-07	3.9565e-07	211.49	81.007	58.778	28.673	3.7176e-07	40.443	242.473	-39.651	48.623	-59.375	97.149	28.510	-61.232	-52.457	145.120	54.224	-56.470	-50.908	-46.896	-41.694	118.526	-46.382	-8191	255	
2231.005	1	1	0	0	0.23056	0.04056	0.087901	0.21635	0.073372	0.17019	0.19456	0.26532	0.25681	0.17102	0.05954	0.044008	0.072067	0.29735	0.13988	0.21335	-2.6979	-3.0708	-3.2562	-3.0917	-3.2729	-3.3229	-2.9104	-3.1792	-3.1437	-3.0604	-3.3354	-3.125	-3.15	-3.4458	-2.9188	-3.3521	46.770	77.835	289.355	130.130	266.376	80.508	223.267	187.075	143.293	95.436	-53.364	-58.274	289.205	261.533	46.652	116.467	0.00014182	0.00029886	6.3874e-05	367.57	1.4355e-06	1.5206e-06	523.11	148.3	1.0014e-06	2.2577e-06	227.94	86.773	63.723	30.256	5.3211e-07	43.611	4.5185e-05	3.5643e-05	8.9766e-06	348.07	4.3293e-07	3.802e-07	494.54	141.58	4.4589e-07	3.8313e-07	209.58	80.783	58.667	28.455	3.6569e-07	39.833	245.783	-30.843	44.448	-59.076	145.120	26.974	-61.419	-52.602	55.069	92.476	-56.225	-50.601	-47.004	-41.367	90.032	-46.039	-8191	255	
2231.126	1	1	0	0	0.21399	0.23539	0.32338	0.29149	0.19655	0.35889	0.10652	0.16483	0.17805	0.15801	0.2559	0.23134	0.22206	0.2112	0.21831	0.16253	-2.8458	-2.9021	-3.3833	-2.9625	-3.0438	-3.3563	-2.9437	-3.3312	-3.0104	-2.9958	-3.3792	-3.0021	-3.0521	-3.2729	-3.1	-3.2062	-12.008	-17.139	237.325	163.661	20.945	217.979	281.429	44.070	236.248	151.999	-54.146	-37.181	243.411	240.207	-17.284	207.499	0.00014964	0.00011107	8.1465e-05	365.34	2.2739e-06	2.0667e-06	520.76	148.02	1.8391e-06	2.4303e-06	231.76	86.613	64.202	30.451	2.6408e-06	43.864	4.3615e-05	3.4357e-05	9.0342e-06	347.03	4.1482e-07	3.646e-07	492.69	141.51	4.0671e-07	3.7597e-07	210.49	80.633	58.698	28.544	3.8036e-07	40.235	250.113	-17.643	59.749	-59.021	101.756	20.519	-61.351	-52.658	104.577	38.532	-56.488	-50.647	-46.978	-41.624	62.378	-46.237	-8191	255	
2231.222	1	1	0	0	0.13633	0.15196	0.2116	0.33509	0.081809	0.095346	0.21916	0.11666	0.090194	0.23641	0.024967	0.22629	0.16189	0.13557	0.044951	0.13898	-2.8646	-2.8417	-3.3771	-3.1	-3.1208	-3.2521	-3.1	-3.325	-3.1792	-2.9771	-3.2625	-3.1875	-3.0542	-3.3333	-3.0625	-3.1646	114.257	176.716	131.031	277.429	227.046	134.989	223.924	276.245	227.714	233.537	282.572	236.861	184.884	104.026	94.639	275.311	0.0001674	0.00024285	2.6132e-05	367.11	9.6579e-07	1.2823e-06	532.36	150.27	1.1686e-06	2.5693e-06	235.12	87.49	64.24	30.928	4.3377e-07	45.16	4.1691e-05	3.2364e-05	9.2158e-06	351.41	3.9829e-07	3.5109e-07	503.15	143.61	3.8462e-07	3.625e-07	214.79	81.938	59.024	29.041	4.1161e-07	41.271	243.356	-25.608	23.785	-59.344	41.022	62.773	-61.225	-52.659	73.104	45.510	-56.015	-51.071	-47.158	-41.874	149.670	-46.153	-8191	255	
2231.318	1	1	0	0	0.25442	0.071656	0.21617	0.29925	0.1257	0.083462	0.15234	0.1359	0.11146	0.14274	0.073896	0.18585	0.16099	0.13828	0.2548	0.16143	-2.9042	-2.925	-3.3667	-3.1229	-2.8771	-3.3979	-2.8979	-3.1813	-3.2	-2.8146	-3.2854	-3.1312	-2.775	-3.575	-2.7979	-3.1021	129.856	91.477	108.420	242.596	-67.200	250.372	-36.445	287.822	178.158	235.134	201.974	262.634	228.284	164.847	-62.180	-64.569	0.00016546	0.00021838	7.0137e-05	384.37	1.6327e-06	1.5326e-06	549.95	155.23	1.9692e-06	1.9436e-06	241.36	89.606	66.497	31.15	4.6722e-07	45.332	4.1556e-05	3.3458e-05	1.0376e-05	364.48	3.9045e-07	3.5215e-07	521.24	147.85	3.8697e-07	3.6261e-07	220.59	83.944	60.909	29.35	4.5429e-07	41.466	248.216	-19.148	82.602	-59.611	118.645	56.559	-61.108	-52.529	168.447	80.063	-56.557	-50.854	-47.111	-41.559	183.920	-46.412	-8191	255	
2231.414	1	1	0	0	0.037528	0.090365	0.26837	0.0719	0.22575	0.20605	0.18901	0.17592	0.17323	0.13191	0.15685	0.18399	0.35747	0.090597	0.12028	0.19047	-2.8854	-2.8292	-3.1437	-3.2146	-2.9313	-3.2646	-3.2708	-3.0062	-3.5062	-2.8083	-3.3625	-3.3646	-2.7833	-3.2958	-3.0979	-3.0125	271.154	197.458	263.108	105.627	217.686	121.356	249.950	8.151	-47.405	219.129	-55.193	280.265	-47.704	133.488	211.275	224.034	0.00014037	0.00015081	1.7753e-05	391.8	1.222e-06	6.4604e-07	561.08	156.77	1.4302e-06	1.028e-06	244.9	90.795	67.281	31.669	6.1653e-07	45.421	4.0368e-05	3.4229e-05	1.1067e-05	373.09	3.8773e-07	3.6748e-07	529.93	149.79	3.7744e-07	3.8746e-07	223.52	84.973	61.631	29.677	4.6001e-07	41.625	250.550	10.811	60.795	-59.448	71.661	63.163	-61.241	-52.780	74.265	112.574	-56.525	-50.844	-47.188	-41.755	51.152	-46.500	-8191	255	
2231.535	1	1	0	0	0.03663	0.16237	0.22698	0.084195	0.098661	0.22634	0.11083	0.13148	0.15348	0.080238	0.42251	0.06992	0.069923	0.13963	0.0085219	0.11971	-3.0938	-2.7771	-3.0438	-3.2375	-3.0146	-3.2188	-3.4542	-2.9792	-3.4708	-3.0042	-3.0771	-3.2167	-3.2271	-3.3417	-3.3187	-2.9	95.466	-45.324	33.882	234.890	52.770	211.271	-43.595	149.181	177.908	234.244	193.247	76.539	172.461	236.541	55.489	122.952	0.00013634	0.00012134	4.1049e-05	396.89	1.8931e-06	2.2518e-06	563.19	158.1	2.6235e-06	1.5616e-06	244.02	90.218	66.417	31.594	2.9181e-06	45.397	3.9293e-05	3.5635e-05	1.1408e-05	377.4	3.6398e-07	3.9624e-07	532.5	150.59	3.6076e-07	4.0218e-07	222.6	84.319	61.038	29.651	4.3091e-07	41.597	243.863	-10.634	52.849	-59.838	117.308	45.456	-61.178	-52.632	114.113	135.068	-56.555	-50.894	-47.238	-41.866	53.631	-46.261	-8191	255	
2231.607	1	1	0	0	0.17785	0.042789	0.18029	0.21432	0.29932	0.047427	0.18442	0.07899	0.031443	0.06645	0.044036	0.034514	0.30526	0.14696	0.13722	0.32611	-2.8625	-2.8521	-3.0625	-3.5062	-2.95	-3.3167	-3.3438	-3.0312	-3.2458	-3.1521	-3.1896	-3.3854	-2.775	-3.4562	-3.2438	-2.9646	287.220	166.338	212.269	111.723	-41.990	134.497	233.163	86.441	-12.560	211.506	262.051	6.873	257.316	-54.170	248.370	269.099	0.00013902	0.00017583	6.9584e-05	391.36	2.6656e-06	1.922e-06	554.05	156.71	2.9243e-07	1.8899e-06	241.29	89.5	65.542	31.939	1.5495e-06	45.891	3.8646e-05	3.8299e-05	1.0862e-05	372.69	3.5497e-07	4.1487e-07	525.88	149.01	3.5922e-07	4.2587e-07	220.41	83.67	60.024	29.886	3.9928e-07	42.001	231.871	-13.614	28.179	-59.176	80.942	64.530	-61.106	-52.715	-68.394	89.355	-55.998	-50.871	-46.838	-41.756	125.009	-46.364	-8191	255	
2231.703	1	1	0	0	0.1481	0.19564	0.16467	0.12551	0.10891	0.13245	0.27184	0.13928	0.058332	0.11014	0.06221	0.17433	0.12205	0.040418	0.081989	0.12943	-2.925	-2.9062	-2.9479	-3.1896	-2.9375	-3.2271	-3.2542	-2.9875	-3.3396	-2.9083	-3.2542	-3.1813	-2.9062	-3.1646	-3.4167	-2.9917	10.621	239.659	205.688	226.058	-10.865	-59.806	207.018	206.883	-21.313	-34.896	89.030	-62.184	216.632	274.250	189.218	219.243	0.00015387	0.00015524	3.8705e-05	391.75	1.4715e-06	1.8763e-06	555.69	156.24	2.1678e-06	2.4424e-06	242.06	89.751	64.749	32.138	1.8321e-06	46.553	3.8871e-05	3.851e-05	9.9984e-06	371.07	3.6764e-07	4.2426e-07	525.25	148.28	3.7223e-07	4.2756e-07	219.89	83.541	59.409	30.171	3.7462e-07	42.658	244.823	-26.141	53.868	-59.176	87.698	-8.710	-61.152	-52.394	109.648	64.168	-56.201	-50.417	-47.156	-41.682	72.189	-46.221	-8191	255	
2231.797	1	1	0	0	0.16231	0.15418	0.065437	0.10636	0.1049	0.20447	0.14543	0.31	0.071361	0.082234	0.060653	0.35302	0.11552	0.10781	0.22739	0.095827	-3.1354	-3.0833	-2.8	-3.4167	-2.8792	-3.1979	-3.3875	-2.9042	-3.2354	-3.0958	-2.8	-3.4062	-2.8937	-3.0729	-3.2146	-3.0458	99.165	182.717	-65.292	233.049	127.570	120.374	1.064	200.090	281.279	-39.340	15.183	-19.485	152.031	12.447	35.476	279.072	0.00015649	0.00025461	3.8379e-05	394.49	1.1522e-06	2.3946e-06	556.83	154.82	1.2039e-06	2.7782e-06	238.58	88.949	63.339	32.282	2.4141e-06	46.665	4.0571e-05	3.7543e-05	9.4671e-06	374.15	3.8998e-07	4.0936e-07	526.61	147.35	3.8858e-07	3.9574e-07	217.63	82.989	58.69	30.369	3.6275e-07	42.682	242.989	-19.488	25.206	-59.077	56.019	21.478	-60.903	-52.545	79.594	65.596	-56.128	-50.509	-46.822	-41.634	46.905	-46.280	-8191	255	
2231.918	1	1	0	0	0.073169	0.13865	0.15694	0.16493	0.15003	0.26591	0.16601	0.042734	0.14214	0.1169	0.25726	0.2332	0.090204	0.29797	0.31743	0.15694	-2.6937	-3.0938	-2.9167	-3.2708	-3.1375	-2.9938	-3.3438	-2.9979	-3.2083	-3.3125	-2.9875	-3.1729	-3	-3.0896	-3.4062	-3.1042	130.968	264.653	41.929	268.924	217.513	-44.768	175.325	163.979	167.109	169.355	-32.623	-35.143	-37.421	91.691	24.132	171.163	0.0001572	0.00030816	6.9242e-05	398.14	1.2924e-06	2.5051e-06	557.76	152.72	1.5694e-06	2.6692e-06	234.21	88.342	63.834	32.693	1.8078e-06	47.219	4.2194e-05	3.5728e-05	9.0327e-06	376.62	4.0245e-07	3.8986e-07	526.32	145.74	4.0512e-07	3.7105e-07	213.92	82.654	58.544	30.745	3.4965e-07	43.159	245.844	-37.500	60.493	-59.140	17.956	37.530	-61.239	-52.414	140.410	65.325	-56.143	-50.437	-46.867	-41.415	76.867	-46.323	-8191	255	
2232.014	1	1	0	0	0.044781	0.17373	0.10524	0.15477	0.17815	0.10598	0.20466	0.17462	0.18532	0.22274	0.12204	0.13587	0.067135	0.12485	0.073153	0.19974	-2.7146	-3.2708	-2.9313	-3.4562	-3.1521	-3.0812	-3.5146	-2.7	-3.2812	-3.1937	-2.975	-3.3104	-3.0875	-2.7938	-3.5542	-3.0292	178.772	261.162	151.887	260.888	62.271	202.244	235.144	-60.165	48.672	29.541	267.908	210.062	91.363	195.247	59.901	144.381	0.00015198	0.0001278	5.9944e-05	400.37	2.8212e-06	2.3891e-06	558.97	148.61	1.2487e-06	2.9432e-06	232.06	90.694	64.368	33.832	1.6231e-06	49.051	4.4774e-05	3.5004e-05	9.0568e-06	380.51	4.2622e-07	3.8425e-07	530.06	141.79	4.3172e-07	3.7554e-07	211.77	84.285	59.142	31.898	3.6119e-07	44.946	243.773	-35.963	0.700	-59.029	84.182	17.287	-60.835	-52.511	177.135	63.888	-56.018	-50.713	-46.609	-41.757	89.200	-46.354	-8191	255	
2232.110	1	1	0	0	0.17	0.32291	0.15665	0.32672	0.042229	0.13704	0.12918	0.22387	0.18586	0.070453	0.04959	0.15128	0.18376	0.20455	0.056696	0.101	-2.9104	-3.1979	-2.8792	-3.2792	-3.1625	-2.9417	-3.4729	-2.9396	-3.2208	-3.4167	-2.725	-3.3354	-3.0667	-2.7854	-3.2812	-3.0312	26.065	284.413	71.823	231.422	64.581	-46.758	124.831	81.178	54.115	275.727	-34.083	-39.719	24.760	275.264	90.676	234.373	0.00013835	0.00020025	3.4678e-05	410.45	1.2335e-06	2.3614e-06	576.46	149.03	2.7765e-06	2.5946e-06	235.11	93.535	66.127	34.904	1.297e-06	50.725	4.6456e-05	3.6466e-05	9.3547e-06	391.32	4.5247e-07	4.1369e-07	543.2	142.35	4.7838e-07	3.9712e-07	214.7	87.289	60.87	32.849	3.9809e-07	46.453	242.978	-12.909	40.288	-58.907	90.763	46.863	-60.774	-52.380	120.406	68.686	-56.264	-50.784	-46.514	-41.649	130.072	-46.535	-8191	255	
2232.206	1	1	0	0	0.072428	0.12561	0.31822	0.068093	0.17426	0.2368	0.024989	0.065869	0.048993	0.028983	0.11326	0.24605	0.16522	0.10431	0.12395	0.18995	-2.4083	-3.3042	-2.8312	-3.0354	-3.25	-2.7875	-3.4625	-2.9271	-3.1437	-3.4062	-3.0375	-3.1458	-3.1063	-2.8229	-3.3937	-2.9104	165.093	78.775	170.147	166.776	261.236	52.248	39.816	205.689	257.478	90.225	104.154	-63.064	172.691	33.662	-36.893	280.935	0.00018292	0.00023076	7.1112e-05	416.76	1.7809e-06	1.4661e-06	576.55	149.97	1.9182e-06	3.1434e-06	236.75	94.327	67.482	35.304	1.3933e-06	51.006	4.7994e-05	3.6284e-05	1.0182e-05	396.98	4.4117e-07	4.0688e-07	547.46	143.47	4.5662e-07	3.9442e-07	216.49	88.694	61.869	33.304	4.2746e-07	46.823	233.811	-4.636	54.215	-58.729	118.248	-1.629	-60.747	-51.891	93.853	79.321	-56.025	-50.829	-46.772	-42.148	125.187	-46.335	-8191	255	
2232.303	1	1	0	0	0.1114	0.1055	0.13736	0.13288	0.044908	0.18455	0.10061	0.28673	0.17017	0.13094	0.10119	0.22928	0.23218	0.19995	0.13649	0.3396	-2.6854	-3.2167	-2.9	-3.1167	-3.3937	-2.7333	-3.1708	-3.1562	-3.0396	-3.4375	-3.1562	-3.0312	-3.2333	-2.8063	-3.3458	-3.3688	168.716	54.916	-67.958	-68.056	133.178	75.886	-23.927	276.620	112.224	45.831	289.521	198.680	36.073	247.705	193.925	191.006	0.00016638	0.00024138	7.8481e-05	415.35	1.9932e-06	2.1674e-06	573.33	149.53	2.7114e-06	1.0132e-06	236.02	93.87	66.682	35.187	2.0349e-06	50.542	4.6657e-05	3.5339e-05	1.0843e-05	394.12	4.1325e-07	3.914e-07	543.57	142.93	4.2996e-07	3.7577e-07	214.87	87.896	61.382	33.081	4.6306e-07	46.311	247.287	-15.480	50.705	-58.946	77.744	34.986	-60.890	-52.410	74.146	85.816	-55.923	-50.704	-46.688	-41.843	79.771	-46.507	-8191	255	
2232.399	1	1	0	0	0.12001	0.22949	0.034857	0.12033	0.08574	0.12108	0.09065	0.15059	0.12906	0.15597	0.10986	0.26125	0.1263	0.14474	0.18648	0.18587	-2.5771	-3.1708	-3.0604	-3.0563	-3.3042	-2.8	-3.2	-3.3021	-2.7562	-3.55	-3.0687	-3.2271	-3.2	-2.9313	-3.2021	-3.2812	181.565	-1.727	44.539	-49.152	273.769	-33.846	-39.793	238.699	-32.700	191.967	216.095	-51.973	121.026	-16.806	29.923	148.453	0.0001817	0.00015223	7.814e-05	414.11	2.4458e-06	1.4049e-06	570.11	149.36	1.5971e-06	2.7564e-06	234.04	94.111	67.006	35.524	2.9829e-06	51.051	4.5566e-05	3.5202e-05	1.1829e-05	392.28	4.2289e-07	3.941e-07	541.33	142.69	4.3844e-07	3.988e-07	214.93	88.13	61.598	33.327	5.0476e-07	46.744	246.699	-59.465	92.995	-58.926	68.789	-20.179	-60.701	-52.333	78.032	115.743	-56.094	-50.901	-47.063	-42.093	102.237	-46.581	-8191	255	
2232.495	1	1	0	0	0.22927	0.17496	0.20323	0.17254	0.091144	0.2283	0.3134	0.37852	0.037812	0.2107	0.079441	0.23374	0.31663	0.079485	0.048329	0.21294	-2.4688	-3.3063	-3.1125	-3.0729	-3.3021	-2.9396	-3.2208	-3.1771	-2.925	-3.2583	-3.2125	-3.0708	-3.2458	-2.8688	-3.3375	-3.2562	271.104	223.656	59.172	176.183	64.637	41.587	223.438	201.947	264.479	184.997	72.317	274.855	115.383	222.532	252.419	-48.898	0.00018441	0.0002677	6.1177e-05	406.77	2.2867e-06	2.2037e-06	569.76	148.16	2.3744e-06	3.2555e-06	233.5	93.202	66.141	35.033	2.1166e-06	50.453	4.5164e-05	3.7116e-05	1.245e-05	389.75	4.0326e-07	4.1611e-07	538.43	141.74	4.0967e-07	4.1363e-07	213.48	87.081	60.836	32.89	4.8734e-07	46.096	252.443	23.676	50.903	-58.709	76.367	38.393	-60.667	-52.227	85.517	121.207	-55.730	-50.728	-46.931	-41.948	110.149	-46.715	-8191	255	
2232.615	1	1	0	0	0.068175	0.098072	0.086481	0.10871	0.23984	0.060557	0.23466	0.24486	0.22153	0.098591	0.16308	0.10269	0.22966	0.069301	0.17667	0.23973	-2.4083	-3.2917	-3.3354	-2.8229	-3.4875	-2.9854	-3.0708	-3.3896	-2.8604	-3.3354	-3.1708	-2.9729	-3.3729	-3.1958	-3.0979	-3.4583	189.153	-46.158	216.723	21.690	-52.942	231.765	238.521	189.323	208.406	-41.637	-52.700	-5.008	218.277	-32.182	248.059	230.703	0.00016763	0.00014355	9.7956e-05	405.66	2.2013e-06	2.2898e-06	562.13	147.9	3.1419e-06	1.6338e-06	231.19	91.759	65.353	34.569	2.8587e-06	49.812	4.3107e-05	4.0182e-05	1.2454e-05	386.04	3.957e-07	4.4167e-07	533.13	140.59	4.071e-07	4.43e-07	211.38	85.718	59.956	32.537	4.6322e-07	45.525	250.287	-28.386	32.269	-58.856	105.279	64.049	-60.784	-52.298	98.161	124.151	-56.292	-50.892	-46.664	-42.065	85.660	-46.718	-8191	255	
2232.710	1	1	0	0	0.15112	0.031755	0.14981	0.23495	0.2683	0.13038	0.34604	0.11049	0.13862	0.091689	0.12302	0.13736	0.25525	0.13953	0.26432	0.22374	-2.5187	-3.4542	-3.1708	-2.9458	-3.4188	-3.0042	-3.2667	-3.375	-2.9333	-3.3	-3.2958	-2.95	-3.2521	-3.0958	-2.8417	-3.5354	288.729	-40.192	75.446	158.450	91.645	210.777	196.077	-66.149	236.237	-39.209	31.913	222.001	-41.098	222.196	226.749	161.329	0.00016509	0.0002623	0.00010781	400.78	1.0351e-06	1.2973e-06	553.73	146.07	1.9993e-06	1.4765e-06	228.92	90.428	64.604	34.529	1.0244e-06	49.458	4.209e-05	4.2383e-05	1.1553e-05	380.99	3.8845e-07	4.6645e-07	525.29	139.14	3.9687e-07	4.6423e-07	208.81	84.499	59.193	32.46	4.23e-07	45.371	247.354	-2.133	44.429	-59.076	44.295	44.044	-60.814	-52.386	115.596	79.252	-56.169	-50.937	-46.789	-42.339	85.700	-46.662	-8191	255	
2232.808	1	1	0	0	0.1415	0.09771	0.12155	0.072214	0.10223	0.066135	0.20937	0.078361	0.15675	0.06064	0.23302	0.15605	0.21604	0.16911	0.2589	0.20978	-2.6792	-3.2083	-3.3021	-2.9521	-3.3646	-3.2229	-2.9271	-3.4521	-3.0479	-3.3708	-3.475	-2.9229	-3.2708	-3.1917	-3.125	-3.5812	242.985	43.843	17.234	-37.738	191.184	185.276	151.953	172.595	106.287	10.843	278.024	-24.956	6.519	238.377	248.134	-16.897	0.00017003	0.00033401	8.3448e-05	392.27	1.5498e-06	3.1238e-06	550.14	145.4	1.309e-06	2.72e-06	225.82	87.268	62.722	32.78	8.212e-07	47.217	4.2935e-05	4.238e-05	1.0357e-05	373.66	3.8715e-07	4.4838e-07	517.54	138.77	3.8767e-07	4.2869e-07	206.17	81.563	57.5	30.822	3.7271e-07	43.046	255.460	-25.439	81.442	-59.155	97.849	42.289	-60.568	-52.328	182.326	72.525	-56.117	-50.685	-46.874	-41.854	135.543	-46.602	-8191	255	
2232.904	1	1	0	0	0.061225	0.37446	0.12925	0.18831	0.10049	0.15182	0.2246	0.064514	0.22191	0.063994	0.32513	0.10124	0.14399	0.14367	0.077186	0.14914	-2.6	-3.2229	-3.1396	-2.8458	-3.4771	-3.0563	-3.0375	-3.3812	-3.0396	-3.1917	-3.45	-2.9167	-3.1063	-3.3021	-2.9229	-3.2708	112.991	-9.241	235.323	99.524	157.973	67.861	-45.494	193.993	-57.756	-33.982	274.319	271.910	234.206	-67.596	192.027	-45.190	0.00018035	0.00020778	6.1836e-05	387.75	1.9474e-06	8.4191e-07	539.09	148.58	5.2575e-07	2.0033e-06	230.05	87.258	63.276	32.011	1.4845e-06	45.845	4.1455e-05	3.6537e-05	9.1983e-06	366.05	3.9017e-07	3.9609e-07	509.67	141.32	3.9719e-07	3.9379e-07	209.93	81.573	57.967	29.947	3.6384e-07	41.837	248.111	-1.804	44.988	-58.918	155.687	-7.116	-61.036	-52.352	126.528	38.417	-56.396	-50.629	-46.537	-41.544	12.109	-46.360	-8191	255	
2232.998	1	1	0	0	0.18089	0.11413	0.055954	0.23678	0.14457	0.15988	0.25205	0.10723	0.16754	0.13214	0.039388	0.22203	0.24029	0.1192	0.15369	0.19128	-2.6396	-2.8979	-3.275	-2.8667	-3.4021	-3.1292	-2.9271	-3.1792	-3.1521	-2.9083	-3.4917	-3.1104	-3.1458	-3.1813	-2.8625	-3.3271	-68.743	-32.186	-13.994	18.412	121.565	88.791	-56.200	275.033	50.745	-56.615	129.798	-41.185	205.003	244.022	164.847	275.972	0.00016141	0.00019676	8.3812e-05	395.95	1.6903e-06	1.8169e-06	558.96	156.52	1.437e-06	2.1435e-06	244.03	91.349	68.212	31.639	1.008e-06	44.67	4.2665e-05	3.5304e-05	8.8343e-06	375.91	4.2147e-07	3.8985e-07	528.72	149.76	4.329e-07	3.9277e-07	222.01	85.312	62.764	29.724	3.7318e-07	40.902	245.312	-43.425	44.390	-59.290	102.300	42.963	-61.299	-52.585	191.673	74.391	-56.425	-50.413	-47.202	-41.578	68.677	-46.395	-8191	255	
2233.094	1	1	0	0	0.23202	0.2788	0.07266	0.11168	0.1634	0.11781	0.099553	0.23496	0.12813	0.23228	0.13583	0.075395	0.11353	0.13133	0.10365	0.24398	-2.5771	-3.1479	-3.3083	-3.1208	-3.2313	-3.3083	-2.8	-3.3875	-3.2083	-3.0354	-3.4625	-3.05	-3.2125	-3.2354	-3.1479	-3.1208	-26.972	3.907	-0.987	222.518	236.699	52.782	183.383	244.754	128.800	207.218	242.576	167.874	266.699	-27.610	-36.750	225.522	0.00014221	0.00028305	7.8068e-05	390.22	1.3189e-06	3.1844e-06	542.32	151.62	5.1108e-07	3.4198e-06	234.84	89.033	66.36	29.866	1.1414e-06	41.874	4.5318e-05	3.6666e-05	9.2213e-06	371.1	4.4771e-07	3.9958e-07	511.1	144.9	4.6173e-07	4.0867e-07	213.71	83.047	61.054	28.075	3.8885e-07	38.405	247.250	-33.668	66.051	-59.655	107.644	78.863	-61.155	-52.542	55.569	62.428	-56.396	-50.988	-47.200	-41.421	88.319	-45.965	-8191	255	
2233.215	1	1	0	0	0.092744	0.15884	0.096915	0.14417	0.34025	0.073054	0.18012	0.068704	0.20507	0.11541	0.099176	0.10475	0.061574	0.14795	0.041066	0.10097	-2.7521	-2.9417	-3.35	-2.825	-3.1688	-3.2458	-3.3125	-3.3104	-3.1875	-2.9604	-3.2583	-2.9375	-3.1458	-3.3667	-3.05	-3.2417	183.307	12.631	120.689	130.658	250.710	260.297	232.479	280.355	130.850	187.270	161.959	218.685	182.667	39.799	70.176	224.627	0.000103	0.0001882	3.5352e-05	370.48	2.4636e-06	1.7942e-06	514.56	136.83	3.1081e-06	8.3761e-07	219.75	83.703	61.907	29.859	1.308e-06	41.761	4.6207e-05	3.764e-05	9.6425e-06	351.51	4.4784e-07	4.0512e-07	485.49	130.82	4.4682e-07	4.1296e-07	201.61	78.299	56.987	27.903	4.192e-07	38.257	239.058	12.311	61.370	-59.618	126.386	81.969	-61.278	-52.716	110.592	228.185	-56.487	-51.043	-47.171	-41.488	109.925	-46.344	-8191	255	
2233.311	1	1	0	0	0.016169	0.28451	0.20894	0.25815	0.14914	0.10803	0.24751	0.026512	0.32521	0.14356	0.23855	0.15114	0.1171	0.15988	0.42344	0.13953	-2.9229	-2.8187	-3.3271	-3.1729	-3.1312	-3.4708	-2.8958	-3.2625	-3.1	-2.9	-3.3375	-3.2042	-3.1042	-3.55	-2.9813	-3.1063	161.606	277.689	-37.020	195.682	269.413	60.348	221.204	-50.085	220.810	256.979	275.136	165.574	245.592	-68.100	40.352	81.166	0.00013185	0.00020186	4.0941e-05	363.99	1.4947e-06	2.6067e-06	506.5	129.02	1.7371e-06	2.0727e-06	213.45	81.917	60.837	30.462	9.5726e-07	42.609	4.6267e-05	3.8743e-05	1.0704e-05	346.41	4.5822e-07	4.2087e-07	480.63	123.82	4.6915e-07	4.2343e-07	194.87	76.965	55.714	28.525	4.6596e-07	38.98	241.469	-2.618	71.877	-60.119	149.680	29.476	-61.290	-52.647	111.750	55.851	-56.488	-50.795	-46.744	-41.784	122.204	-46.390	-8191	255	
2233.407	1	1	0	0	0.1611	0.22104	0.2552	0.27515	0.044222	0.17997	0.42424	0.21769	0.15682	0.10344	0.046665	0.18189	0.34249	0.21665	0.10724	0.16438	-2.8646	-2.9396	-3.2625	-3.2687	-3.0021	-3.3896	-3.0479	-3.0292	-3.3646	-2.8875	-3.3812	-3.1604	-2.7917	-3.4688	-2.9354	-3.0146	278.355	281.934	143.050	54.830	43.852	-51.895	253.148	-59.464	264.740	123.612	-11.984	107.591	244.716	-24.401	-46.436	-55.904	0.0001347	0.00026451	4.0534e-05	354.27	2.2562e-06	1.7207e-06	499.52	127.04	1.0143e-06	2.3691e-06	207.4	81.968	59.782	31.005	2.483e-07	42.918	4.6648e-05	3.8558e-05	1.1793e-05	337.18	4.545e-07	4.0903e-07	471.95	120.79	4.4934e-07	4.0614e-07	190.28	77.017	55.052	29.016	4.8484e-07	39.324	241.334	-9.132	38.329	-59.787	78.213	82.024	-61.289	-52.471	176.061	57.248	-56.177	-50.722	-47.008	-41.496	135.638	-46.142	-8191	255	
2233.479	1	1	0	0	0.25681	0.19995	0.054428	0.12683	0.15227	0.032696	0.18596	0.1831	0.15838	0.010479	0.21147	0.16739	0.17725	0.08372	0.14955	0.23129	-2.9771	-2.9729	-3.0625	-3.25	-2.9354	-3.5104	-3.0438	-3.0833	-3.3542	-3.0333	-3.2854	-3.3896	-2.9	-3.4229	-3.1167	-3.2313	63.956	81.821	31.618	19.412	280.831	67.255	206.653	-23.676	221.717	-37.299	213.295	225.330	-19.685	268.578	274.781	218.440	0.00013715	5.4412e-05	7.3176e-05	343.05	1.5967e-06	2.753e-06	483.4	124.27	1.1517e-06	1.9464e-06	205	81.694	60.027	30.757	2.2001e-06	42.159	4.3267e-05	3.583e-05	1.2107e-05	326.62	4.0979e-07	3.9625e-07	459.3	118.68	4.0558e-07	4.0782e-07	187.24	76.45	54.942	28.875	4.7181e-07	38.664	249.915	259.162	64.851	-59.938	90.550	56.784	-61.502	-52.164	12.131	104.694	-56.271	-50.885	-46.700	-41.758	16.647	-46.324	-8191	255	
2233.575	1	1	0	0	0.18805	0.12446	0.054318	0.10796	0.21133	0.27507	0.214	0.28019	0.1332	0.12949	0.19669	0.14816	0.14119	0.16444	0.26363	0.14564	-2.8542	-2.9979	-2.9625	-3.375	-2.7604	-3.2979	-3.1417	-2.9396	-3.3583	-2.9646	-3.1521	-3.1312	-2.7771	-3.2792	-3.025	-3.0333	24.941	84.520	-8.742	230.987	256.897	100.605	180.462	172.359	-55.061	-31.038	-36.200	282.310	277.575	234.674	-52.412	221.537	0.0001285	0.0001331	1.278e-05	339.96	2.2761e-06	1.8806e-06	485.94	128.86	1.2181e-06	2.8559e-06	212.91	83.002	61.644	29.837	1.2477e-06	42.136	4.0934e-05	3.6923e-05	1.1775e-05	324.62	3.8602e-07	4.0777e-07	460.51	123.31	3.8343e-07	4.2165e-07	194	77.674	56.701	27.996	4.6379e-07	38.458	243.867	36.845	123.016	-59.737	72.707	112.544	-60.916	-52.469	183.352	169.819	-56.295	-50.697	-46.988	-41.579	107.685	-46.196	-8191	255	
2233.696	1	1	0	0	0.17268	0.13204	0.12153	0.11451	0.05821	0.048176	0.15625	0.26861	0.10761	0.10999	0.056601	0.14689	0.27278	0.29286	0.20357	0.28606	-2.8229	-3.075	-2.8521	-3.2146	-2.9458	-3.0625	-3.2833	-2.8083	-3.4188	-2.9062	-3.1	-3.425	-2.9813	-3.4167	-3.0708	-3.0333	142.441	-59.171	-67.344	-48.592	-61.434	41.265	201.323	171.946	281.162	2.113	12.350	92.710	218.225	283.961	157.204	240.204	0.0001212	0.00024274	5.546e-05	359.11	6.7952e-07	1.4162e-06	515.91	144.1	7.5345e-07	2.0288e-06	232.79	87.912	65.959	30.853	1.6779e-06	44.6	3.9323e-05	3.8914e-05	1.1418e-05	341.45	3.7543e-07	4.3006e-07	488.82	137.45	3.7751e-07	4.3704e-07	212.1	82.062	60.179	28.978	4.2804e-07	40.793	254.428	-21.723	34.523	-59.167	122.677	228.445	-61.051	-52.464	142.682	54.043	-56.320	-50.642	-47.187	-41.767	79.890	-46.393	-8191	255	
2233.792	1	1	0	0	0.11791	0.35617	0.2306	0.076003	0.10245	0.12616	0.24347	0.15015	0.14	0.0524	0.2185	0.033571	0.10372	0.20645	0.0069572	0.096174	-2.8083	-3.0812	-2.9583	-3.3125	-2.8708	-3.1625	-3.4896	-2.9708	-3.3187	-3.0812	-3.1354	-3.3	-2.8729	-3.2604	-3.2833	-2.9521	187.867	282.493	134.403	158.594	247.629	233.985	136.259	208.910	16.672	98.862	216.794	235.387	201.264	-35.326	-26.310	197.724	0.0001207	0.00010345	6.625e-05	397.87	2.2319e-06	2.3653e-06	569.7	159.66	4.7884e-07	2.2984e-06	250.46	92.138	67.554	32.291	2.0673e-06	46.696	3.9852e-05	4.0734e-05	1.0699e-05	376.7	3.8287e-07	4.3642e-07	538.38	151.87	3.777e-07	4.3125e-07	227.89	86.053	62.378	30.369	4.0306e-07	42.526	248.522	-60.675	41.112	-59.667	141.273	49.553	-61.093	-52.614	198.111	73.644	-56.388	-50.854	-46.990	-41.507	56.972	-46.087	-8191	255	
2233.888	1	1	0	0	0.11415	0.26855	0.11757	0.22286	0.18465	0.17259	0.10776	0.11963	0.10044	0.23746	0.079349	0.22438	0.018638	0.38362	0.13446	0.13427	-2.8563	-3.0146	-2.9437	-3.2708	-3.0875	-3.0563	-3.325	-2.9958	-3.2417	-3.125	-3.0229	-3.3958	-3.0646	-3.1188	-3.3604	-3.0646	150.657	266.969	-27.073	185.791	107.568	-23.589	-46.924	-7.627	139.483	266.057	275.938	92.753	189.551	18.554	117.870	134.096	0.00014635	0.00015577	7.9567e-05	428.29	2.1893e-06	3.5705e-06	595.81	168.09	1.9202e-06	1.2763e-06	256.5	94.125	70.018	32.862	1.2122e-06	47.133	4.0677e-05	3.8779e-05	9.5582e-06	405.79	3.8401e-07	4.1562e-07	566.38	159.53	3.8366e-07	4.0865e-07	234.14	88.153	63.878	30.844	3.7025e-07	43.097	236.471	-7.571	34.206	-59.717	99.176	64.150	-61.355	-53.065	123.164	102.893	-56.671	-50.953	-47.461	-41.744	33.033	-46.453	-8191	255	
2234.007	1	1	0	0	0.15027	0.16049	0.062596	0.13776	0.043266	0.19593	0.37019	0.11442	0.060586	0.21204	0.013341	0.22104	0.015998	0.23332	0.096265	0.3655	-2.7708	-3.2521	-2.8604	-3.3646	-2.9583	-3.0646	-3.2625	-2.8521	-3.1708	-3.2854	-2.8792	-3.4188	-2.9958	-3.1104	-3.5062	-3.1604	25.789	203.809	-57.771	220.098	-68.057	242.600	252.909	78.244	92.649	163.156	239.302	-54.326	211.832	287.586	-13.422	244.481	0.00015868	0.00019671	4.4427e-05	445.14	1.0502e-06	1.4986e-06	617.68	174.1	1.9939e-06	2.1397e-06	266.29	97.845	72.692	33.839	2.0403e-06	48.547	4.1757e-05	3.6153e-05	9.1618e-06	421.79	4.0835e-07	3.9757e-07	584.28	166.25	4.1682e-07	3.8923e-07	242.83	91.342	66.799	31.77	3.601e-07	44.388	246.816	-44.980	26.138	-59.434	124.705	17.346	-61.695	-53.270	157.047	85.941	-56.972	-51.161	-47.363	-41.835	97.925	-46.526	-8191	255	
2234.079	1	1	0	0	0.31956	0.19575	0.2624	0.18901	0.14945	0.16233	0.25533	0.10354	0.16334	0.040704	0.1795	0.056265	0.22149	0.13936	0.32389	0.26246	-2.9104	-3.1	-2.7938	-3.4813	-3.1333	-3.0854	-3.5938	-3.0917	-3.1958	-3.2083	-2.9583	-3.2896	-3.2	-2.9708	-3.5208	-2.9083	262.922	-6.242	166.307	159.666	3.669	115.613	187.419	28.489	260.217	59.928	134.366	183.762	-28.736	-30.214	39.972	279.098	0.00014913	0.00024171	5.9944e-05	471.86	1.2591e-06	1.9792e-06	649.07	185.58	2.2091e-06	2.8362e-06	283.96	103.41	78.382	34.306	2.3568e-06	49.063	4.4221e-05	3.4646e-05	9.1512e-06	446.59	4.1196e-07	3.7485e-07	613.17	176.63	4.1865e-07	3.7253e-07	257.06	96.92	71.614	32.115	3.4285e-07	44.883	245.555	-49.297	37.073	-60.128	138.375	67.105	-61.520	-53.518	133.218	53.783	-56.877	-51.417	-47.880	-41.880	100.653	-46.396	-8191	255	
2234.175	1	1	0	0	0.14155	0.17195	0.1724	0.30488	0.16577	0.10003	0.10147	0.28034	0.019933	0.11147	0.13422	0.13979	0.25436	0.16852	0.29184	0.26498	-2.7438	-3.2146	-2.875	-3.3917	-3.0104	-3.1063	-3.4146	-3.15	-3.0375	-3.2687	-3.0812	-3.3604	-3.2771	-2.8854	-3.4313	-3.0667	171.467	188.826	182.533	217.560	150.068	128.069	-0.262	201.268	264.708	151.685	190.552	-62.542	223.353	213.384	-46.504	-56.541	0.00014592	0.00023489	6.8813e-05	489.96	1.2914e-06	1.8308e-06	666.7	191.25	1.4655e-06	3.2599e-06	289.02	107.49	80.758	34.259	1.8373e-06	49.367	4.4762e-05	3.4395e-05	8.7986e-06	463.99	4.1496e-07	3.701e-07	630.09	181.76	4.2831e-07	3.601e-07	263.76	100.32	74.015	32.244	3.4854e-07	45.15	236.144	-50.097	52.096	-59.939	103.235	63.760	-61.636	-53.456	120.554	67.684	-57.226	-51.267	-47.813	-42.307	68.828	-46.524	-8191	255	
2234.295	1	1	0	0	0.14891	0.18867	0.4737	0.20614	0.19329	0.15197	0.0171	0.18824	0.11799	0.29975	0.19696	0.24607	0.17567	0.14287	0.11526	0.21459	-2.8688	-3.2771	-2.9271	-3.0375	-3.1813	-2.9979	-3.5458	-3.0938	-3.0792	-3.2667	-2.9708	-3.1604	-3.2042	-2.9208	-3.4729	-3.1917	-8.125	26.396	18.827	221.401	174.142	244.733	90.159	252.318	197.026	152.640	1.213	237.887	177.393	83.571	6.204	44.146	0.00017034	0.00027072	5.6865e-05	503.02	1.2288e-06	2.1713e-06	680.35	195.34	2.7951e-07	4.7138e-07	294.7	108.94	81.637	34.416	2.6668e-06	49.297	4.3123e-05	3.3067e-05	8.885e-06	475.67	3.9408e-07	3.5754e-07	642.48	186.21	3.9532e-07	3.5012e-07	267.99	101.72	74.78	32.23	3.5839e-07	45.117	245.731	-32.077	69.766	-60.294	32.427	25.752	-61.589	-53.678	178.207	90.473	-57.025	-51.626	-48.055	-42.279	97.314	-46.784	-8191	255	
2234.392	1	1	0	0	0.10162	0.1952	0.12342	0.14722	0.13889	0.04551	0.14268	0.039683	0.14084	0.13104	0.25386	0.061101	0.083174	0.1337	0.081854	0.1285	-2.6396	-3.3354	-2.9542	-3.1937	-3.3167	-3.0667	-3.2479	-3.0104	-3.0104	-3.475	-2.8875	-3.1229	-3.1896	-2.7958	-3.5354	-3.3688	47.405	119.017	36.583	159.549	104.417	216.866	270.601	204.799	35.353	237.541	224.162	176.173	160.547	242.434	23.960	73.957	0.00013754	0.00019359	4.0915e-05	498.7	1.0134e-06	3.4412e-06	678.37	195.47	2.5681e-06	2.637e-06	293.98	107.66	81.362	34.567	1.3691e-06	49.243	4.1993e-05	3.1491e-05	9.2103e-06	472.66	3.8492e-07	3.5092e-07	638.05	185.6	3.8563e-07	3.4362e-07	266.81	100.91	74.313	32.394	3.9359e-07	45.186	249.303	-12.410	47.411	-59.953	133.863	40.948	-61.706	-53.671	122.282	89.905	-57.496	-51.488	-48.231	-42.211	142.407	-46.568	-8191	255	
2234.488	1	1	0	0	0.094192	0.22154	0.16027	0.27219	0.036998	0.21784	0.11596	0.06575	0.28908	0.042373	0.13272	0.13743	0.28041	0.28521	0.12638	0.21959	-2.5563	-3.2667	-2.925	-3.1958	-3.4062	-2.95	-3.4083	-3.2313	-3.0875	-3.3812	-3.2479	-3.0583	-3.3292	-3.0187	-3.3896	-3.1146	-11.565	-62.939	-23.112	108.492	189.890	131.212	288.361	98.071	246.169	-52.444	217.974	-27.045	159.343	242.533	201.009	267.514	0.00017708	0.00010417	0.00010936	493.1	1.8519e-06	2.6933e-06	668.6	193.92	1.9681e-06	1.5191e-06	290.12	107.05	81.161	34.717	2.063e-06	49.586	4.0349e-05	3.101e-05	1.0047e-05	466.27	3.6157e-07	3.3536e-07	632.31	184.31	3.6366e-07	3.2233e-07	264.78	99.893	73.787	32.525	4.1588e-07	45.249	248.818	-56.122	41.132	-59.915	76.395	72.648	-61.440	-53.571	103.743	111.844	-57.265	-51.610	-48.179	-42.010	66.998	-46.641	-8191	255	
2234.608	1	1	0	0	0.079974	0.1065	0.22411	0.26553	0.12539	0.24509	0.18556	0.15403	0.36378	0.055906	0.048488	0.078974	0.18186	0.11493	0.18469	0.42335	-2.4792	-3.4688	-3.0042	-3.0146	-3.3438	-2.9271	-3.3292	-3.075	-2.8042	-3.3042	-3.0667	-3	-3.2125	-2.7375	-3.1604	-3.3312	75.234	41.763	152.504	230.024	-33.313	143.788	259.094	161.904	239.903	175.758	125.826	-59.003	6.371	-51.841	248.565	273.995	0.00016156	7.3817e-05	0.00010196	490.43	1.2966e-06	2.7094e-06	673.42	194.66	2.4014e-06	1.9439e-06	293.14	107.7	81.164	34.797	1.3486e-06	49.609	3.9403e-05	3.0883e-05	1.0435e-05	466.06	3.5061e-07	3.4772e-07	635.36	185.33	3.5926e-07	3.4669e-07	266.73	100.37	73.752	32.657	4.1639e-07	45.441	245.758	53.929	71.122	-60.035	69.238	68.213	-61.566	-53.568	101.849	67.632	-57.421	-51.533	-47.993	-41.908	103.151	-46.476	-8191	255	
2234.705	1	1	0	0	0.06508	0.051448	0.15041	0.30823	0.11914	0.37292	0.19247	0.090261	0.14207	0.080865	0.17274	0.12202	0.1025	0.16352	0.14857	0.071095	-2.3646	-3.1667	-2.9479	-2.8104	-3.3896	-2.8458	-3.0938	-3.3042	-2.925	-3.3	-3.1667	-2.8708	-3.275	-3.1458	-3.0521	-3.3875	197.953	124.148	256.183	-12.332	247.898	-15.588	-55.701	10.669	165.195	176.548	193.075	207.108	261.757	-40.125	5.728	-63.958	0.000142	0.0002006	5.9739e-05	491.89	1.1742e-06	1.1439e-06	673.47	194.39	2.1172e-06	3.2257e-06	293.11	107.22	80.944	34.498	1.3557e-06	49.357	3.7389e-05	3.3717e-05	1.0344e-05	464.99	3.3761e-07	3.7311e-07	634.93	184.95	3.3874e-07	3.7033e-07	266.76	99.991	73.582	32.463	4.0641e-07	45.043	249.011	15.351	45.444	-60.003	44.104	56.518	-61.658	-53.541	119.389	80.000	-57.168	-51.389	-47.971	-42.042	89.592	-46.650	-8191	255	
2234.776	1	1	0	0	0.087419	0.074187	0.2145	0.095364	0.19666	0.14108	0.28017	0.11936	0.27878	0.11123	0.15267	0.17103	0.10656	0.14367	0.21802	0.093488	-2.4646	-3.2104	-3.1667	-2.8937	-3.3563	-3.05	-3.2562	-3.2229	-2.9167	-3.2292	-3.2812	-3.0062	-3.3854	-3.0583	-2.9417	-3.4771	100.008	206.630	47.214	126.130	258.994	129.446	202.556	-65.245	29.675	71.705	-18.815	52.375	232.778	55.902	105.900	264.710	0.00016304	0.00030546	5.9148e-05	494.02	2.9362e-06	2.7344e-06	670.29	195.54	2.2723e-06	2.278e-06	293.5	107.64	81.643	34.431	2.2561e-06	48.879	3.7357e-05	3.595e-05	9.9076e-06	465.66	3.3638e-07	3.9396e-07	633.13	185.59	3.4906e-07	3.9855e-07	267.2	100.37	74.665	32.231	3.7753e-07	44.596	247.577	-14.989	72.732	-60.019	99.618	48.231	-61.535	-53.570	118.539	84.006	-56.920	-51.535	-48.161	-42.108	60.064	-46.804	-8191	255	
2234.872	1	1	0	0	0.15724	0.25355	0.048235	0.12869	0.063193	0.11941	0.10142	0.019267	0.19184	0.25157	0.079968	0.19296	0.092071	0.11287	0.25879	0.11182	-2.3646	-3.1562	-3.2562	-2.7208	-3.1437	-3.1917	-3.3104	-3.4021	-3.0375	-3.1312	-3.2604	-2.7792	-3.3167	-3.15	-2.8833	-3.4167	221.225	245.407	240.278	166.270	146.937	129.797	-40.020	76.668	55.115	211.600	-35.905	-37.144	39.994	287.821	171.233	220.449	0.00017466	0.00019607	3.5472e-05	493.51	1.4416e-06	2.4315e-06	675.51	198.51	8.2537e-07	1.9957e-06	298.8	110.31	84.11	34.384	8.7934e-07	49.113	3.8035e-05	3.6651e-05	9.4412e-06	467.93	3.6135e-07	4.0287e-07	639.06	188.51	3.6204e-07	4.1057e-07	271.5	102.7	76.685	32.242	3.8271e-07	44.767	247.793	-14.353	60.901	-60.389	79.154	54.617	-61.543	-53.709	145.058	58.114	-57.228	-51.784	-48.332	-42.411	154.212	-46.635	-8191	255	
2234.991	1	1	0	0	0.18569	0.18349	0.17579	0.073422	0.1605	0.13578	0.21315	0.24371	0.30405	0.19287	0.23393	0.21246	0.18211	0.056556	0.071904	0.1225	-2.6333	-3.0417	-3.1417	-2.9688	-3.1792	-3.2188	-2.9062	-3.35	-3.0708	-3.0104	-3.4854	-2.8021	-3.4396	-3.1771	-2.9875	-3.3271	44.951	175.368	136.629	173.307	284.996	239.539	256.326	186.471	194.005	141.867	98.703	269.931	-55.978	18.549	246.724	73.375	0.00017483	0.00014494	3.7616e-05	502.47	2.1178e-06	1.6632e-06	688.14	201.91	2.7219e-06	2.5181e-06	308.22	115.43	87.874	34.005	2.0067e-06	49.027	4.0552e-05	3.7502e-05	9.3434e-06	474.44	3.8404e-07	3.9462e-07	650.19	192.05	4.1097e-07	3.9672e-07	280.1	107.34	80.114	32.041	3.7149e-07	44.783	243.379	-25.156	60.423	-60.328	85.740	49.307	-61.952	-53.977	116.160	101.115	-57.595	-51.856	-48.699	-42.138	29.825	-46.548	-8191	255	
2235.087	1	1	0	0	0.046379	0.33506	0.15433	0.081314	0.022142	0.06555	0.25754	0.28346	0.074854	0.138	0.23196	0.20437	0.049468	0.16942	0.20654	0.045537	-2.6375	-3.1375	-3.2438	-3.0792	-3.0292	-3.4542	-3.0271	-3.4896	-3.1292	-2.9333	-3.5812	-3.1396	-3.3187	-3.3271	-2.9229	-3.3438	125.948	-3.841	5.311	118.644	277.661	129.852	101.045	168.651	15.999	-55.522	260.673	255.505	-20.520	194.021	-39.717	235.318	0.00018343	0.00027702	6.6145e-05	514.31	5.9046e-07	2.2182e-06	700.53	207.32	6.5055e-07	2.6521e-06	317.51	118.77	90.626	34.109	1.0579e-06	48.93	4.3828e-05	3.7055e-05	9.1038e-06	487.14	4.0941e-07	3.8562e-07	660.9	196.67	4.3095e-07	3.9195e-07	288.17	110.51	82.804	32.053	3.6406e-07	44.77	249.098	-13.722	11.675	-60.225	111.382	70.046	-61.867	-54.289	143.401	66.688	-57.621	-51.806	-48.676	-42.261	49.789	-46.923	-8191	255	
2235.184	1	1	0	0	0.24811	0.23366	0.14264	0.14149	0.16548	0.17352	0.078403	0.28041	0.14673	0.13166	0.04277	0.10003	0.090396	0.1287	0.054692	0.11934	-2.5958	-2.9583	-3.3604	-3.0625	-3.0167	-3.3646	-3.1375	-3.3312	-3.3	-3.0458	-3.4208	-3.2562	-3.225	-3.2979	-3.0563	-3.3354	-15.351	91.615	206.933	272.614	174.374	212.046	-18.456	182.723	277.566	142.377	213.009	229.415	212.572	151.633	-54.895	238.739	0.00015541	0.00017959	7.089e-05	528.09	2.0033e-06	2.4999e-06	706.45	209.98	2.1719e-06	2.3143e-06	320.35	119.84	91.124	34.273	2.2167e-06	48.832	4.5239e-05	3.5528e-05	8.8763e-06	496.89	4.2735e-07	3.7768e-07	666.21	199.88	4.2945e-07	3.7865e-07	290.95	111.32	83.618	32.051	3.5388e-07	44.684	242.465	-24.424	14.461	-60.494	87.713	52.617	-61.609	-54.289	131.783	82.122	-57.665	-51.919	-48.911	-42.537	106.745	-46.664	-8191	255	
2235.280	1	1	0	0	0.15768	0.080581	0.16435	0.30696	0.13127	0.12567	0.20822	0.088819	0.2975	0.088819	0.11892	0.14908	0.29815	0.1427	0.29412	0.11336	-2.7021	-3.1104	-3.2167	-2.9938	-3.2604	-3.3563	-3.0792	-3.3208	-3.0333	-3.0187	-3.4646	-3.0917	-3.2542	-3.2958	-2.8812	-3.2583	77.974	-21.156	67.274	209.359	76.176	255.768	215.608	100.163	269.632	146.422	24.966	265.008	-61.470	165.421	-8.591	-65.324	0.00016061	0.00021271	7.0931e-05	525.21	2.7124e-06	3.5309e-06	708.63	211.02	1.4925e-06	2.0307e-06	318.54	118.92	91.423	34.274	1.0003e-06	49.053	4.3961e-05	3.4417e-05	8.7475e-06	498.45	4.164e-07	3.612e-07	666.45	199.99	4.1052e-07	3.697e-07	289.91	110.74	83.388	32.154	3.5724e-07	44.835	252.661	-22.941	38.688	-60.360	91.116	-0.238	-61.851	-54.040	110.844	97.255	-57.569	-51.789	-48.586	-42.485	86.614	-46.631	-8191	255	
2235.376	1	1	0	0	0.014396	0.025742	0.38095	0.26505	0.076739	0.064191	0.17546	0.080374	0.19611	0.21474	0.10117	0.18146	0.1461	0.19606	0.10199	0.10301	-2.9042	-2.7271	-3.2625	-3.1646	-3.0625	-3.5938	-3.05	-3.1854	-3.1729	-2.9167	-3.3187	-3.2083	-3.0583	-3.4875	-3.0708	-3.4021	35.818	-49.107	-21.149	137.679	270.627	130.946	5.092	218.463	151.583	159.463	37.779	204.430	50.306	257.450	280.097	-58.119	0.00015202	0.00026643	7.3333e-05	523.4	3.1289e-06	1.505e-06	705.17	209.24	1.9248e-06	2.1953e-06	319.57	118.06	90.849	34.283	1.6079e-06	49.162	4.264e-05	3.3097e-05	8.9959e-06	494.77	3.9781e-07	3.554e-07	663.95	199.19	3.9241e-07	3.5533e-07	290.28	110.29	83.122	32.172	3.7558e-07	44.98	248.758	-24.717	18.075	-60.467	74.391	75.628	-61.673	-54.133	142.482	91.228	-57.596	-51.838	-48.836	-42.498	67.001	-46.831	-8191	255	
2235.472	1	1	0	0	0.20627	0.10423	0.24207	0.051856	0.1172	0.015723	0.099366	0.32407	0.16772	0.095378	0.23722	0.28624	0.060372	0.30347	0.27378	0.21756	-2.8708	-3.0458	-3.5667	-3.0104	-2.9562	-3.4896	-3.0042	-3.2104	-3.2062	-2.95	-3.3854	-3.225	-3	-3.3438	-2.9333	-3.1979	205.814	237.656	98.931	-18.935	-9.109	-33.075	209.740	228.583	215.933	-49.575	220.826	213.759	149.844	258.504	259.327	167.049	0.00015438	0.00015696	5.6108e-05	521.25	2.3627e-06	1.8743e-06	702.51	209.28	4.5101e-07	1.5878e-06	318.63	118.69	90.988	34.326	2.2297e-06	49.074	4.0318e-05	3.1798e-05	9.2607e-06	493.52	3.7285e-07	3.3256e-07	663.14	199.31	3.7178e-07	3.3881e-07	289.95	110.35	82.911	32.221	4.0241e-07	44.884	241.159	-55.406	60.546	-60.035	103.959	40.771	-61.555	-54.005	214.402	110.087	-57.586	-51.807	-48.561	-42.256	61.456	-46.690	-8191	255	
2235.568	1	1	0	0	0.33389	0.062444	0.20872	0.12129	0.2437	0.055436	0.23198	0.21807	0.071519	0.35869	0.30927	0.143	0.22058	0.13772	0.15593	0.14347	-2.7917	-2.9229	-3.0604	-3.3708	-2.9625	-3.2708	-3.1396	-3.1271	-3.3896	-2.9271	-3.1646	-3.4271	-2.7958	-3.3854	-2.9437	-3.2146	60.586	231.198	7.588	-20.672	211.194	170.524	108.387	187.856	271.191	-45.790	280.573	-26.425	216.497	-51.364	15.137	226.581	0.00014193	0.00027223	6.1049e-05	523.52	2.7604e-06	2.0255e-06	703.03	211.32	1.3173e-06	1.2177e-06	317.78	118.12	91.114	34.185	1.3114e-06	48.827	3.9633e-05	3.0875e-05	1.0319e-05	495.31	3.677e-07	3.3602e-07	665.13	199.89	3.6642e-07	3.3884e-07	289.96	110.36	83.106	32.036	4.1456e-07	44.544	259.663	-37.935	41.829	-60.341	103.194	52.429	-61.663	-53.944	105.163	70.052	-57.506	-51.888	-48.661	-42.310	79.436	-46.873	-8191	255	
2235.689	1	1	0	0	0.087372	0.17503	0.37139	0.26231	0.088863	0.15137	0.11303	0.24461	0.28295	0.073687	0.24729	0.18609	0.21019	0.15787	0.025534	0.066998	-2.8812	-2.9458	-3.2	-3.175	-2.8146	-3.2604	-3.0667	-3	-3.4562	-2.8688	-3.3646	-3.4167	-3.0292	-3.5	-3.0687	-3.1771	-71.083	227.426	55.360	232.790	108.454	194.529	244.742	110.242	227.348	279.266	268.816	-69.263	177.553	272.338	73.980	83.891	0.000165	0.00029987	9.445e-05	526.53	1.1164e-06	3.3281e-06	714.69	211.35	1.2644e-06	2.2998e-06	322.4	120.04	92.656	34.417	2.3406e-06	48.99	3.8068e-05	3.3059e-05	1.0704e-05	499.26	3.5335e-07	3.5557e-07	673.25	200.41	3.5374e-07	3.7002e-07	294.3	112.23	84.353	32.165	4.2735e-07	44.728	242.439	-0.666	58.921	-60.246	30.264	70.673	-61.584	-54.450	46.316	71.119	-57.552	-51.993	-48.659	-42.445	86.848	-46.817	-8191	255	
2235.783	1	1	0	0	0.16054	0.11671	0.15411	0.11387	0.1323	0.12142	0.12724	0.064185	0.16311	0.038066	0.40518	0.10212	0.076298	0.14077	0.16449	0.08511	-3.15	-2.8104	-3.2042	-3.3	-2.8312	-3.2812	-3.3125	-3.2812	-3.4854	-2.9792	-3.2458	-3.4562	-3.0062	-3.3438	-3.2625	-3.0354	153.465	50.891	-28.420	29.777	179.312	22.235	258.659	256.580	68.205	-49.854	-59.997	263.975	39.630	215.048	111.214	226.345	0.00012567	0.00025369	6.6917e-05	538.86	2.3792e-06	1.7625e-06	722.35	213.63	1.4401e-06	3.6367e-06	327.48	123.13	94.027	34.52	1.7302e-06	49.113	3.7352e-05	3.5789e-05	1.0459e-05	506.81	3.5467e-07	3.91e-07	680.61	202.08	3.508e-07	4.0623e-07	297.76	114.48	85.835	32.399	4.1033e-07	44.925	241.549	7.454	8.276	-60.505	54.124	75.229	-61.771	-54.067	138.781	109.660	-57.856	-52.102	-48.682	-42.332	84.399	-46.796	-8191	255	
2235.879	1	1	0	0	0.27175	0.03659	0.19095	0.24159	0.19995	0.21062	0.34012	0.23263	0.17707	0.038304	0.17583	0.078527	0.25642	0.1137	0.15841	0.17987	-3.1396	-2.9833	-3.2104	-3.3875	-3.0125	-3.2104	-3.3521	-3.0417	-3.2479	-3.0458	-3.2188	-3.2938	-3.0792	-3.1958	-3.2708	-3.0479	148.983	1.552	105.929	261.512	283.255	56.904	278.080	284.982	254.907	167.834	-5.050	23.053	-49.374	259.453	83.043	57.339	0.00018223	0.00016618	6.2427e-05	544.78	1.697e-06	2.3221e-06	734.43	213.41	1.8997e-06	7.2364e-07	329.62	123.81	94.417	34.737	2.442e-06	48.608	3.8385e-05	3.8571e-05	1.03e-05	514.79	3.5589e-07	4.1928e-07	693.05	202.86	3.6734e-07	4.3214e-07	298.46	115.5	86.18	32.631	3.9163e-07	44.468	245.210	1.054	45.533	-60.242	100.194	71.706	-61.777	-53.945	163.034	28.388	-57.515	-52.061	-48.893	-42.679	64.544	-46.646	-8191	255	
2235.975	1	1	0	0	0.18108	0.20712	0.3287	0.14404	0.27445	0.084408	0.11046	0.23702	0.13613	0.082146	0.12341	0.28871	0.20278	0.25152	0.28661	0.14485	-2.7542	-2.9375	-3.0771	-3.5229	-2.8021	-3.1625	-3.4854	-2.6167	-3.3312	-3.1583	-2.9458	-3.5167	-3.1	-3.3354	-3.2229	-2.925	231.972	49.290	-67.399	255.614	172.203	130.200	207.770	220.789	249.131	-33.341	31.018	202.849	245.048	278.270	75.403	200.955	0.00016197	0.00024379	5.1654e-05	547	2.3013e-06	4.4235e-06	748.02	212.52	1.3706e-06	2.4768e-06	316.46	124.49	91.505	34.973	1.5305e-06	48.132	4.0428e-05	3.8986e-05	9.9018e-06	518.19	3.832e-07	4.1915e-07	703.57	201.15	3.9177e-07	4.2047e-07	288.66	115.82	83.349	32.758	3.803e-07	44.037	237.104	-34.383	35.414	-60.278	97.285	57.135	-62.022	-53.940	163.038	79.358	-57.027	-51.960	-48.482	-42.449	37.631	-46.718	-8191	255	
2236.072	1	1	0	0	0.11242	0.11775	0.22027	0.20145	0.080275	0.1182	0.090897	0.19468	0.19179	0.25334	0.14007	0.18426	0.23539	0.14736	0.29226	0.22902	-3.0271	-3.0708	-2.8563	-3.5458	-3	-3.3417	-3.4042	-3.0083	-3.1417	-3.2396	-3.0417	-3.3833	-3.125	-2.8875	-3.3812	-2.9896	34.531	73.928	87.422	-44.229	247.563	127.696	225.684	157.880	168.867	-31.794	41.370	-57.500	253.141	109.215	-36.561	269.756	0.00016753	0.00027996	5.8785e-05	540.99	1.5189e-06	1.8364e-06	734.22	208.89	2.7333e-06	2.2125e-06	313.94	125.11	87.702	35.538	1.9092e-06	49.544	4.3752e-05	3.8309e-05	9.7577e-06	511.45	4.1106e-07	4.1881e-07	694.39	198.5	4.221e-07	4.0783e-07	285.27	116.6	80.116	33.317	3.7334e-07	45.288	236.924	-27.218	41.306	-60.068	105.063	41.840	-61.960	-53.983	159.816	101.135	-57.351	-52.086	-48.532	-42.391	116.793	-46.557	-8191	255	
2236.168	1	1	0	0	0.17241	0.20255	0.19608	0.23204	0.079486	0.077863	0.10598	0.33219	0.043794	0.19548	0.31983	0.16101	0.21988	0.23408	0.045963	0.07583	-2.7438	-3.0979	-3.0396	-3.4729	-2.9583	-3.0667	-3.3833	-3.1312	-3.1292	-3.2188	-2.975	-3.2167	-3.2292	-3.1854	-3.2542	-3.0417	-23.710	137.058	167.314	276.088	-26.341	-5.656	33.391	96.775	8.623	267.242	-54.134	-66.839	-32.184	-57.471	35.563	225.089	0.0001615	0.00027584	6.5863e-05	518.44	1.6842e-06	2.9687e-06	726.54	212.67	8.6597e-07	3.2406e-06	314.87	123.6	86.57	35.732	2.3314e-06	50.079	4.5089e-05	3.7177e-05	9.3938e-06	490.45	4.3168e-07	3.9611e-07	684.49	202.48	4.3364e-07	3.893e-07	286.16	115.14	78.717	33.522	3.6159e-07	45.713	246.337	-1.854	29.924	-59.890	115.946	47.998	-61.819	-53.887	64.685	85.164	-56.873	-51.731	-48.117	-42.579	49.636	-46.642	-8191	255	
2236.288	1	1	0	0	0.09915	0.15653	0.34836	0.23484	0.51376	0.23835	0.075714	0.034459	0.056488	0.030409	0.056549	0.071063	0.0066122	0.046314	0.16828	0.22307	-2.6604	-3.4333	-2.7792	-3.3875	-3.0854	-2.9542	-3.5396	-3.1021	-3.4125	-3.1604	-3.0354	-3.5021	-3.1917	-3.1583	-3.3667	-3.2104	264.700	156.968	37.763	-66.086	212.550	147.355	270.093	68.163	-18.182	105.385	-19.159	250.102	6.395	31.802	237.429	211.996	0.00015221	0.00022251	8.0362e-05	505.99	2.2761e-06	2.2987e-06	721.43	214.03	2.7149e-06	3.0439e-06	315.04	123.23	85.697	35.171	1.848e-06	49.147	4.5754e-05	3.4094e-05	8.9685e-06	480.03	4.2452e-07	3.7979e-07	680.29	202.96	4.3524e-07	3.7788e-07	284.92	114.85	78.248	32.971	3.5912e-07	44.916	244.890	-54.108	18.412	-60.086	117.680	62.155	-61.770	-53.623	80.482	101.684	-56.814	-51.843	-48.070	-42.263	75.231	-46.385	-8191	255	
2236.385	1	1	0	0	0.13016	0.22545	0.11411	0.13505	0.19123	0.14037	0.044763	0.27124	0.084171	0.28533	0.21163	0.21807	0.11536	0.21896	0.057108	0.091098	-2.5667	-3.3229	-2.9271	-3.2062	-3.2604	-3.05	-3.6479	-2.9375	-3.1542	-3.4729	-2.9958	-3.2625	-3.2396	-2.8479	-3.2833	-3.3792	76.579	241.254	224.860	-4.590	213.065	95.849	130.483	223.253	218.847	3.530	194.124	280.478	178.949	5.475	235.568	108.868	0.00016382	0.00024733	7.9084e-05	505.78	1.8221e-06	3.6882e-06	714.38	205.27	2.7519e-06	3.0676e-06	301.64	121.14	84.195	33.451	1.6718e-06	47.871	4.3708e-05	3.2861e-05	8.8657e-06	479.76	3.9986e-07	3.6233e-07	672.91	195.37	3.9295e-07	3.4805e-07	275.43	113.09	77.031	31.406	3.416e-07	43.651	242.249	-48.868	46.249	-59.762	57.384	42.505	-61.396	-53.523	98.242	96.111	-56.844	-51.505	-48.014	-42.069	94.624	-46.229	-8191	255	
2236.481	1	1	0	0	0.051902	0.089548	0.053517	0.22658	0.17089	0.28854	0.17928	0.069758	0.23692	0.14671	0.23066	0.24726	0.11371	0.054281	0.19089	0.25719	-2.4042	-3.5271	-2.9646	-3.325	-3.4521	-3.0042	-3.4854	-3.0062	-3.0792	-3.3354	-2.9021	-3.3375	-3.35	-2.8292	-3.4104	-3.2604	178.480	-64.050	111.492	216.018	-53.001	-33.687	-36.185	-39.904	108.647	58.628	156.014	204.004	234.437	170.667	-9.520	206.176	0.00014362	0.00018951	4.8314e-05	511.08	1.3169e-06	7.3466e-07	705.43	199.57	1.406e-06	3.7578e-06	297.74	120.22	84.234	33.124	1.64e-06	47.333	3.9356e-05	3.0119e-05	8.5192e-06	484.49	3.5263e-07	3.2983e-07	666.24	190.07	3.5014e-07	3.0629e-07	271.19	111.99	76.788	31.017	3.417e-07	43.351	239.044	23.861	63.154	-59.799	68.967	7.941	-61.740	-53.445	65.165	68.592	-56.623	-51.646	-48.052	-41.805	62.687	-46.187	-8191	255	
2236.577	1	1	0	0	0.27492	0.039438	0.27164	0.19085	0.16061	0.14756	0.087395	0.062859	0.15706	0.16902	0.13626	0.2022	0.14199	0.33722	0.12801	0.060394	-2.4854	-3.3187	-3.0292	-3.2042	-3.2396	-2.675	-3.3521	-3.1271	-2.9979	-3.5083	-2.9188	-3.1667	-3.4583	-2.925	-3.2083	-3.2792	72.353	244.796	170.923	-63.917	-67.405	96.687	214.738	239.956	-22.108	213.797	45.137	179.697	-64.459	281.458	260.885	-6.994	0.00015902	0.00018969	7.095e-05	511.19	2.1833e-06	2.0111e-06	693.3	195.44	2.8119e-06	2.2603e-06	292.78	118.16	82.766	32.788	2.3996e-06	47.286	3.7203e-05	2.7624e-05	8.9171e-06	481.8	3.3438e-07	3.0769e-07	655.05	186.14	3.3251e-07	3.0149e-07	266.78	110.26	75.75	30.798	3.6948e-07	43.32	238.543	-16.139	52.405	-59.564	91.021	32.757	-61.798	-53.268	108.656	97.760	-56.668	-51.368	-47.812	-41.754	100.720	-46.244	-8191	255	
2236.673	1	1	0	0	0.14826	0.12713	0.30345	0.28789	0.18977	0.14475	0.021895	0.10407	0.24398	0.10406	0.16156	0.26727	0.2144	0.24006	0.20044	0.19046	-2.5021	-3.2687	-2.8667	-3.1854	-3.4333	-3	-3.3896	-3.2687	-2.8688	-3.3833	-3.1312	-2.8625	-3.4521	-2.9958	-3.2812	-3.2	119.432	95.306	215.413	-36.690	197.442	90.514	188.564	-37.166	-25.668	-66.678	6.233	198.936	146.142	275.102	-62.042	66.169	0.00016308	0.00024206	3.3195e-05	506.99	2.3253e-06	1.7121e-06	692.13	195.39	1.9355e-06	2.3289e-06	293.89	118.82	83.148	32.84	2.0713e-06	47.46	3.5996e-05	2.7911e-05	9.4372e-06	479.86	3.1428e-07	3.146e-07	653.85	185.95	3.2393e-07	3.1355e-07	267.29	110.44	76.053	30.875	3.8453e-07	43.298	246.667	-10.131	45.206	-59.887	98.410	67.130	-61.570	-53.165	143.376	93.523	-56.213	-51.514	-47.712	-41.726	92.273	-45.920	-8191	255	
2236.769	1	1	0	0	0.28657	0.1384	0.22068	0.14275	0.18251	0.033606	0.38998	0.24908	0.11601	0.088503	0.11745	0.092835	0.23715	0.15476	0.23485	0.15826	-2.3854	-3.4042	-3.0875	-2.9271	-3.4562	-3.025	-3.1833	-3.2771	-2.7458	-3.3208	-3.1458	-3.0417	-3.4125	-3.0208	-3.1437	-3.2958	81.107	111.618	188.822	253.034	-68.337	80.592	219.065	168.776	132.473	-33.446	1.226	224.056	248.735	205.293	60.713	41.767	0.00014466	0.00017588	9.3264e-05	504.29	1.3225e-06	1.9931e-06	690.21	195.2	1.1598e-06	1.3901e-06	291.38	117.55	82.844	32.763	2.8242e-06	47.252	3.486e-05	2.956e-05	9.4397e-06	479.13	3.0861e-07	3.2914e-07	650.51	185.36	3.1225e-07	3.3082e-07	265.61	109.58	75.626	30.738	3.7677e-07	42.924	248.756	-26.588	64.328	-59.685	68.321	67.664	-61.400	-53.255	78.007	57.036	-56.716	-51.250	-47.895	-41.823	90.484	-46.213	-8191	255	
2236.864	1	1	0	0	0.24364	0.040752	0.1861	0.089198	0.17181	0.17211	0.077656	0.37552	0.043305	0.046441	0.28704	0.056373	0.26487	0.10004	0.12975	0.18762	-2.5208	-3.2396	-2.9729	-3.1208	-3.3896	-2.9917	-3.1813	-3.3604	-3.0271	-3.1979	-3.1583	-3.0979	-3.275	-2.9354	-3.0792	-3.3438	80.994	-12.470	24.079	136.702	250.914	-34.699	17.227	281.773	101.599	192.685	-24.156	171.856	265.742	206.463	-8.166	202.516	0.00016244	0.00016199	5.7517e-05	509.3	1.1278e-06	2.9624e-06	698.93	197.46	1.6155e-06	2.4343e-06	296.26	118.67	84.527	32.979	2.288e-06	47.287	3.4307e-05	3.2305e-05	9.0444e-06	482.48	3.1027e-07	3.5633e-07	658.77	187.9	3.2018e-07	3.5738e-07	268.55	110.63	76.742	30.869	3.5786e-07	43.151	249.534	-4.859	26.739	-59.889	68.394	65.871	-61.777	-53.358	156.344	82.733	-56.915	-51.572	-48.071	-41.891	73.859	-46.342	-8191	255	
2236.960	1	1	0	0	0.22519	0.1456	0.1076	0.033196	0.17815	0.091724	0.1345	0.21389	0.18448	0.12256	0.22501	0.15621	0.058839	0.15397	0.13757	0.10913	-2.4479	-3.2188	-3.0396	-3.0583	-3.5187	-2.9792	-3.1875	-3.3312	-2.9583	-3.1688	-3.35	-3.05	-3.2562	-3.25	-2.9479	-3.4458	123.324	-2.668	-32.995	53.265	16.848	144.345	245.520	-56.662	161.487	3.241	162.513	-68.643	245.557	266.438	-41.205	-70.887	0.00015156	0.00018219	5.6099e-05	521.71	1.8686e-06	2.0332e-06	717	203.98	1.0554e-06	2.0526e-06	305.65	121.76	86.481	33.624	1.4189e-06	47.786	3.5509e-05	3.4375e-05	8.6844e-06	491.73	3.208e-07	3.7258e-07	675.02	194.06	3.383e-07	3.7356e-07	277.58	113.57	78.835	31.511	3.4651e-07	43.657	235.802	-38.281	50.659	-60.061	87.089	32.984	-61.810	-53.442	118.752	84.750	-56.774	-51.561	-48.172	-41.673	86.008	-46.262	-8191	255	
2237.080	1	1	0	0	0.13324	0.10344	0.10465	0.50833	0.075225	0.1478	0.073475	0.19243	0.1487	0.091807	0.36841	0.33296	0.11336	0.070957	0.24703	0.11031	-2.4625	-3.2687	-3.175	-2.8458	-3.2667	-3.2542	-3.2479	-3.3417	-2.8667	-3.2667	-3.4229	-2.8708	-3.2646	-3.4208	-2.9688	-3.4125	-36.383	239.787	40.560	-61.314	-29.420	197.299	238.460	253.646	176.388	64.119	248.047	-2.409	117.245	101.940	219.760	183.732	0.00015199	0.00025473	8.9352e-05	528.89	2.32e-06	2.0721e-06	730.72	208.82	3.3239e-07	2.0416e-06	310.94	123.62	87.105	33.86	2.0306e-06	47.952	3.7647e-05	3.4721e-05	8.594e-06	500.02	3.4824e-07	3.7251e-07	689.17	198.49	3.6428e-07	3.7911e-07	281.97	114.99	79.948	31.78	3.5757e-07	43.812	244.556	5.286	50.360	-59.923	102.786	49.428	-62.147	-53.681	220.572	94.062	-57.072	-51.763	-48.268	-42.041	100.350	-46.344	-8191	255	
2237.176	1	1	0	0	0.11788	0.15277	0.15393	0.35075	0.14977	0.30229	0.13665	0.13118	0.29079	0.19013	0.10922	0.061387	0.13395	0.068862	0.028901	0.097391	-2.3187	-3.275	-3.1625	-2.9667	-3.1875	-3.2708	-2.9313	-3.2583	-3.1813	-3.1125	-3.3229	-2.9646	-3.0604	-3.1958	-2.8792	-3.3125	271.755	-20.088	108.695	189.984	156.466	193.413	11.702	254.343	-66.648	208.974	156.020	223.344	41.122	-38.046	-28.245	119.474	0.0001255	0.00019512	9.088e-05	534.84	3.0368e-06	1.8546e-06	739.48	213.16	8.2148e-07	3.9907e-06	314.12	124.02	88.824	33.686	1.3533e-06	47.659	4.1505e-05	3.4318e-05	8.4908e-06	505.14	3.8554e-07	3.6526e-07	696.05	202.25	4.0302e-07	3.7177e-07	284.61	115.24	80.878	31.721	3.5268e-07	43.599	237.638	-36.723	54.467	-60.077	112.994	-11.510	-61.945	-53.862	137.623	91.201	-57.342	-51.857	-48.236	-42.085	64.172	-46.404	-8191	255	
2237.248	1	1	0	0	0.20995	0.18569	0.26597	0.20901	0.14177	0.1158	0.21541	0.28923	0.16241	0.07818	0.16364	0.18682	0.14099	0.074807	0.084515	0.29156	-2.4729	-2.8021	-3.3375	-3.0563	-3.1708	-3.2583	-2.9875	-3.2875	-3.1708	-3	-3.3021	-2.9646	-2.9208	-3.3771	-2.9146	-3.3958	81.873	127.626	-57.345	193.644	132.668	50.168	242.267	25.949	247.069	256.408	200.144	212.591	-36.712	238.022	276.628	205.431	0.00016236	0.00033694	4.9316e-05	533.11	1.4433e-06	3.8362e-06	742.99	219.07	1.4578e-06	1.3342e-06	320.75	125.19	90.311	34.006	7.2745e-07	47.928	4.3302e-05	3.3712e-05	8.4558e-06	504.77	4.0658e-07	3.6792e-07	699.22	207.59	4.1428e-07	3.6416e-07	291.05	116.39	82.448	31.881	3.3807e-07	43.783	245.053	-25.116	12.195	-60.295	118.286	55.769	-61.819	-54.192	77.900	108.398	-57.339	-52.005	-48.496	-42.273	70.772	-46.462	-8191	255	
2237.369	1	1	0	0	0.059843	0.2431	0.25683	0.23421	0.014243	0.12088	0.075322	0.28348	0.19601	0.15318	0.041367	0.11546	0.2011	0.30954	0.091705	0.10777	-2.7417	-3.0375	-3.2729	-3.1479	-3.0687	-3.2792	-2.9521	-3.2646	-3.0042	-2.9458	-3.4542	-2.9688	-3.2646	-3.4354	-2.7854	-3.3937	195.854	57.471	174.046	252.116	188.807	-38.869	175.327	256.178	-35.717	-30.442	45.175	124.006	-62.280	259.953	-8.948	228.437	0.00015721	0.00036973	5.0851e-05	532.81	2.0747e-06	2.8319e-06	743.27	220.98	1.7809e-06	2.7476e-06	323.55	125.61	91.022	33.984	4.7141e-07	47.647	4.3535e-05	3.4078e-05	8.5469e-06	503.35	4.0671e-07	3.5637e-07	700.9	209.2	4.0367e-07	3.6204e-07	293.51	117.11	83.247	31.886	3.5935e-07	43.753	239.190	-15.473	39.287	-60.032	109.672	52.514	-61.928	-54.230	126.878	69.662	-57.578	-52.176	-48.487	-42.355	181.683	-46.538	-8191	255	
2237.465	1	1	0	0	0.28603	0.32584	0.1539	0.17366	0.19868	0.36717	0.065646	0.10323	0.064576	0.19831	0.17951	0.24529	0.089515	0.056383	0.26047	0.20381	-2.8792	-2.8729	-3.3354	-2.9896	-2.9125	-3.1167	-2.9875	-3.3	-3.2146	-2.7354	-3.5938	-3.1896	-2.8438	-3.4813	-3.0521	-3.2188	3.609	99.524	-49.142	108.999	-25.016	139.642	120.729	284.801	196.249	-43.526	193.093	258.507	-56.469	177.973	188.900	206.841	0.00015756	0.00032695	6.7541e-05	520.8	2.0088e-06	2.0934e-06	734.87	226.03	1.1937e-06	2.437e-06	325.77	127.14	92.657	34.023	2.0084e-06	46.974	4.2928e-05	3.4078e-05	9.0794e-06	493.31	4.1593e-07	3.6355e-07	690.73	214.3	4.1604e-07	3.7482e-07	295.87	118.55	84.342	31.895	3.9252e-07	42.997	236.591	-32.439	68.257	-59.926	89.968	49.577	-62.057	-54.574	105.444	95.610	-57.654	-52.344	-48.595	-42.481	74.763	-46.512	-8191	255	
2237.561	1	1	0	0	0.12033	0.25803	0.22961	0.081806	0.055067	0.25775	0.19565	0.026486	0.13612	0.060616	0.11179	0.18617	0.090691	0.27994	0.029743	0.26323	-2.8812	-2.8667	-3.0917	-3.1021	-3.1521	-3.5292	-3.0062	-3.375	-3.2708	-2.9292	-3.45	-3.0333	-2.9521	-3.5521	-3.0271	-3.1375	130.181	-68.425	285.764	-36.459	-42.577	158.685	-62.466	239.355	179.110	173.497	165.795	21.129	106.341	-56.780	239.583	183.217	0.0001499	0.00028801	9.6936e-05	505.68	2.935e-06	1.7548e-06	714.72	222.48	6.859e-07	2.4424e-06	322.43	125.16	91.553	33.618	2.0372e-06	46.657	4.3308e-05	3.4493e-05	9.9488e-06	480.38	4.0043e-07	3.5672e-07	677.01	211.33	3.9533e-07	3.6167e-07	293.62	116.61	83.464	31.484	4.0904e-07	42.644	260.786	-29.377	59.145	-59.754	113.923	60.590	-62.035	-54.364	31.729	49.364	-57.653	-52.131	-48.724	-42.276	59.903	-46.519	-8191	255	
2237.657	1	1	0	0	0.27507	0.25524	0.3032	0.069115	0.11912	0.077413	0.08681	0.25826	0.017877	0.10973	0.11741	0.1268	0.20916	0.10749	0.13964	0.21174	-2.8396	-3.0375	-3.1271	-3.075	-2.9813	-3.4562	-3.1688	-3.1312	-3.2979	-2.9729	-3.1875	-3.2854	-3.025	-3.3479	-3.0979	-3.0187	220.945	-49.644	46.302	250.946	84.629	275.646	165.918	163.142	44.107	45.291	286.301	217.038	190.820	260.804	169.919	-22.632	0.00014374	0.00025264	4.4237e-05	501.98	2.9711e-06	2.4168e-06	700.68	214.05	8.7465e-07	1.5802e-06	311.92	119.32	88.194	33.187	1.297e-06	46.651	4.0694e-05	3.2069e-05	1.0275e-05	476.67	3.7123e-07	3.3969e-07	661.54	203.29	3.7267e-07	3.4467e-07	283.82	111.22	80.371	31.181	4.1304e-07	42.696	247.109	-9.258	71.876	-60.044	70.526	51.732	-61.790	-54.165	102.078	97.682	-57.377	-51.874	-48.242	-42.007	95.778	-46.401	-8191	255	
2237.778	1	1	0	0	0.14419	0.22058	0.083508	0.27294	0.17687	0.03342	0.19024	0.12235	0.056021	0.19656	0.12199	0.08522	0.38401	0.16104	0.18212	0.13539	-2.875	-2.9375	-3.2625	-3.1896	-2.9625	-3.4479	-3.3688	-3.3229	-3.4979	-2.8542	-3.1188	-3.2062	-2.9437	-3.4833	-3.2875	-3.0667	-10.055	-27.818	268.379	236.651	-25.772	223.990	168.189	-35.166	64.413	146.921	236.455	240.611	194.101	18.869	118.298	149.533	0.00014911	0.00022552	0.0001075	489.47	2.3811e-06	2.0572e-06	677.2	201.94	2.2854e-06	2.1176e-06	297.86	112.85	82.964	32.797	8.7601e-07	46.557	3.7822e-05	3.1093e-05	1.0349e-05	464.49	3.5052e-07	3.3722e-07	639.5	191.45	3.4014e-07	3.4986e-07	270.97	105.21	76.054	30.812	3.9699e-07	42.481	251.818	-14.452	52.414	-59.928	70.217	69.183	-61.441	-53.478	115.346	91.386	-57.275	-51.533	-47.920	-41.818	22.448	-46.212	-8191	255	
2237.872	1	1	0	0	0.16099	0.10636	0.2462	0.28288	0.36505	0.095265	0.072153	0.18275	0.17975	0.14529	0.072598	0.1395	0.032804	0.16233	0.16347	0.23368	-2.9646	-3.0938	-3.1396	-3.2438	-2.9062	-3.3396	-3.1521	-2.9062	-3.4604	-3.0854	-3.3625	-3.4042	-2.9125	-3.3625	-3.2854	-3.0062	76.192	-5.152	95.599	-69.804	217.550	157.628	172.433	199.294	158.646	33.975	-64.673	216.411	-37.143	227.044	87.572	267.923	0.00014668	4.6496e-05	4.7903e-05	479.81	1.9126e-06	1.8862e-06	658.52	190.96	1.4861e-06	1.2299e-06	284.15	106.82	78.066	32.754	2.4391e-06	46.057	3.4745e-05	3.2158e-05	9.6454e-06	453.96	3.2619e-07	3.463e-07	620.44	181.73	3.2132e-07	3.5419e-07	258.7	99.467	71.122	30.701	3.7647e-07	42.245	237.960	-10.087	17.351	-59.918	93.454	83.614	-61.565	-53.458	110.549	128.451	-56.654	-51.038	-47.425	-41.625	114.804	-46.025	-8191	255	
2237.970	1	1	0	0	0.086531	0.23086	0.23288	0.10575	0.10165	0.13662	0.098957	0.22641	0.30237	0.23817	0.18389	0.29082	0.072707	0.42015	0.095636	0.13618	-2.9167	-2.8625	-3.0563	-3.4188	-2.9688	-3.3312	-3.1625	-2.7771	-3.4562	-3.325	-3.0438	-3.3583	-3.075	-3.5021	-3.2396	-2.9813	63.892	116.088	-41.127	220.912	264.498	285.267	219.249	-60.956	218.314	276.977	244.756	197.794	163.767	270.384	98.239	176.418	0.0001443	0.00029547	6.8032e-05	460.73	1.6762e-06	2.4292e-06	630.91	181.18	2.1317e-06	3.1595e-06	272.49	101.57	73.558	32.479	2.1941e-06	45.753	3.4101e-05	3.2896e-05	9.0531e-06	437.28	3.0717e-07	3.5251e-07	597.61	172.17	2.9715e-07	3.5767e-07	247.48	94.643	67.366	30.449	3.35e-07	41.922	240.196	-23.038	66.184	-59.619	75.300	28.296	-61.091	-52.757	129.468	73.477	-56.465	-50.765	-47.049	-41.383	73.794	-45.882	-8191	255	
2238.065	1	1	0	0	0.16908	0.10595	0.075861	0.2903	0.15172	0.2451	0.21671	0.23613	0.20088	0.093507	0.075504	0.11753	0.10028	0.2096	0.1527	0.18092	-3.0062	-3.3708	-3.0479	-3.3229	-3.0583	-3.2979	-3.15	-3.0104	-3.4292	-3.0167	-2.9104	-3.4604	-2.9229	-3.2583	-3.2271	-3.125	31.738	-22.198	166.623	237.361	-50.516	201.213	82.710	-56.385	274.204	-51.797	248.278	283.960	-42.838	280.252	22.834	63.320	0.0001536	0.00015334	5.261e-05	457.34	1.1428e-06	2.0654e-06	626.43	178.6	1.2632e-06	3.5237e-06	267.16	99.624	72.648	32.383	1.0038e-06	45.732	3.4158e-05	3.1806e-05	8.0448e-06	431.94	3.1092e-07	3.4137e-07	588.99	169.34	3.159e-07	3.4612e-07	242.59	92.846	66.354	30.384	3.1286e-07	41.733	238.187	-22.179	37.903	-59.659	75.652	92.053	-61.024	-52.443	101.434	51.256	-56.564	-50.708	-47.105	-41.234	78.255	-46.056	-8191	255	
2238.161	1	1	0	0	0.082155	0.33735	0.26996	0.05622	0.05226	0.20831	0.21606	0.13195	0.1687	0.13552	0.1044	0.035441	0.052083	0.41454	0.016924	0.083829	-2.9562	-3.1917	-2.9437	-3.3438	-2.9813	-3.1729	-3.3792	-2.9854	-3.425	-3.1437	-2.9208	-3.5521	-3.0375	-3.0125	-3.2104	-3.075	223.956	-36.394	280.203	190.565	-30.453	153.615	222.239	-3.474	186.067	-33.956	24.097	149.896	212.201	-55.425	84.585	-54.857	0.00016349	0.00025627	4.7159e-05	453.91	2.1667e-06	3.2039e-06	626.2	178.01	7.8522e-07	2.6032e-06	268.08	100.08	73.033	32.463	1.3414e-06	45.548	3.5158e-05	3.1263e-05	7.8748e-06	430.56	3.2411e-07	3.3257e-07	589.85	169.26	3.3921e-07	3.2567e-07	243.84	93.258	66.885	30.339	3.0355e-07	41.678	234.789	-20.478	51.193	-59.498	105.252	69.289	-61.259	-52.782	122.759	94.531	-56.532	-50.598	-47.256	-41.625	76.539	-45.745	-8191	255	
2238.257	1	1	0	0	0.048382	0.15324	0.061518	0.26267	0.17381	0.091994	0.16279	0.16611	0.25115	0.1975	0.13415	0.27682	0.1157	0.16677	0.24724	0.10734	-2.9833	-3.1958	-2.8438	-3.2562	-3.2583	-2.9875	-3.3958	-3.0062	-3.2521	-3.2396	-2.9667	-3.2687	-3.0312	-2.9792	-3.4354	-2.9146	-67.246	-19.914	139.005	134.534	99.970	-3.719	241.038	286.813	249.932	196.867	282.275	85.119	-30.038	228.354	-64.791	199.544	0.00013511	0.00018599	6.2001e-05	460.17	2.0642e-06	2.2055e-06	630.8	180.47	2.159e-06	3.223e-06	269.72	100.49	73.777	32.292	1.4152e-06	45.739	3.6248e-05	2.9818e-05	7.6965e-06	434.19	3.5015e-07	3.203e-07	594.72	171.03	3.5138e-07	3.1603e-07	245.69	93.97	67.462	30.341	2.9461e-07	41.823	244.283	24.819	24.433	-59.151	168.322	35.220	-61.306	-52.571	79.565	41.497	-56.419	-50.892	-47.512	-41.563	107.738	-45.972	-8191	255	
2238.377	1	1	0	0	0.11815	0.086001	0.063414	0.12169	0.22718	0.033138	0.26665	0.28012	0.035544	0.033025	0.10646	0.12532	0.062608	0.12386	0.17285	0.2366	-2.7792	-3.4833	-2.8	-3.3792	-3.2417	-2.9688	-3.3812	-3.1	-3.2771	-3.1729	-2.9292	-3.5417	-3.3854	-2.9708	-3.3396	-3.1167	125.412	281.399	128.002	265.415	245.092	107.079	277.159	288.431	47.633	21.355	-16.103	-42.445	240.049	-1.887	260.574	172.582	0.00014109	0.00023229	7.5977e-05	458.16	1.7021e-06	2.1336e-06	627.24	180.35	5.4173e-07	1.9121e-06	269.31	100.41	74.176	31.767	2.4618e-06	44.421	3.7789e-05	2.8434e-05	7.528e-06	434.76	3.4897e-07	3.1492e-07	592.54	171.41	3.517e-07	3.0732e-07	244.84	93.85	67.847	29.773	2.9296e-07	40.701	237.062	1.864	51.455	-59.170	138.932	40.551	-61.341	-53.005	161.177	101.148	-56.837	-50.564	-46.960	-41.458	89.627	-45.987	-8191	255	
2238.474	1	1	0	0	0.13207	0.2788	0.078134	0.10833	0.16389	0.15225	0.29012	0.17253	0.25794	0.084651	0.17079	0.10981	0.2411	0.20367	0.053271	0.24015	-2.6333	-3.2792	-2.8646	-3.3833	-3.2375	-2.8792	-3.3125	-3.1917	-3.0958	-3.2708	-2.9042	-3.3292	-3.2667	-2.9479	-3.2646	-3.1167	106.127	153.287	270.986	259.608	12.975	-70.324	248.953	218.495	-61.959	171.391	-50.040	62.477	269.850	275.976	231.729	187.707	0.0001272	0.00021396	6.6277e-05	449.15	1.2951e-06	1.8425e-06	613.93	179.62	2.6871e-06	2.2492e-06	264.77	99.306	74.308	30.966	1.7942e-06	43.207	3.725e-05	2.7941e-05	7.3238e-06	425.69	3.4137e-07	3.0995e-07	577.56	170.64	3.4944e-07	3.0882e-07	241.31	92.929	67.985	29.059	3.0511e-07	39.503	241.222	-16.538	59.890	-59.477	109.134	51.801	-61.218	-52.927	107.784	32.718	-56.549	-50.847	-47.437	-41.491	132.698	-45.952	-8191	255	
2238.545	1	1	0	0	0.099991	0.085066	0.22963	0.22008	0.33437	0.17772	0.10479	0.18623	0.099904	0.32008	0.21527	0.05118	0.10952	0.22906	0.12734	0.017619	-2.7542	-3.2	-2.9521	-3.3625	-3.2271	-2.9979	-3.4896	-3.0375	-3	-3.5792	-3.0104	-3.2667	-3.3771	-2.9917	-3.6375	-3.0938	272.423	237.815	276.667	262.492	42.412	273.132	123.158	20.820	201.512	116.989	168.202	173.128	-4.363	195.814	38.056	254.285	0.00011553	0.0002248	3.0717e-05	434.29	2.4071e-06	1.4649e-06	596.6	177.34	1.728e-06	3.3865e-06	261.03	99.951	74.64	30.597	1.6776e-06	41.944	3.6226e-05	2.7885e-05	7.8004e-06	412.23	3.3989e-07	3.055e-07	564.2	169.03	3.4291e-07	3.052e-07	237.07	93.072	68.346	28.6	3.3052e-07	38.512	254.922	3.074	83.498	-59.657	104.033	53.739	-61.281	-52.840	165.241	76.579	-56.426	-51.024	-47.491	-41.374	71.605	-45.534	-8191	255	
2238.641	1	1	0	0	0.090159	0.0486	0.1454	0.18736	0.28766	0.17929	0.037534	0.011689	0.29622	0.31429	0.046011	0.26169	0.1877	0.03564	0.026583	0.26515	-2.3104	-3.4771	-2.8083	-3.1125	-3.35	-2.8271	-3.3854	-3.2229	-3.0208	-3.5167	-2.9604	-3.0708	-3.2229	-2.9333	-3.3542	-3.3083	200.900	264.815	255.817	256.442	269.892	138.188	143.597	-51.580	129.822	192.880	215.076	273.929	82.483	259.873	56.966	-0.976	0.00013285	0.00020623	6.2307e-05	417.56	1.8906e-06	2.2334e-06	578.79	171.83	8.5389e-07	2.9307e-06	251.8	98.455	74.154	30.099	1.1033e-06	41.88	3.6667e-05	2.7282e-05	8.5572e-06	397.1	3.3761e-07	3.0752e-07	546.94	163.55	3.3399e-07	2.9876e-07	230.26	91.87	67.731	28.308	3.6647e-07	38.26	246.873	22.403	63.877	-59.623	128.891	28.416	-61.136	-52.949	103.132	78.661	-56.179	-50.839	-47.021	-41.543	91.529	-45.878	-8191	255	
2238.760	1	1	0	0	0.21607	0.082715	0.075986	0.098731	0.14501	0.12784	0.12158	0.14045	0.12205	0.090833	0.21434	0.27053	0.074498	0.079596	0.36459	0.24631	-2.5062	-3.2771	-2.925	-3.15	-3.2167	-2.8583	-3.2667	-3.2542	-3	-3.3937	-3.0792	-3.2375	-3.1604	-3.1042	-3.3792	-3.3375	-69.081	207.537	40.147	285.662	267.510	12.046	-64.510	278.181	127.258	-59.296	212.254	217.928	97.346	229.348	272.310	276.014	0.00012578	0.00017005	6.0034e-05	409.39	1.3433e-06	1.2888e-06	563.11	168.32	1.6438e-06	1.8769e-06	245.67	96.126	73.129	29.934	1.6064e-06	41.043	3.6307e-05	2.7647e-05	9.2596e-06	387.99	3.235e-07	3.0665e-07	533.95	159.58	3.2787e-07	3.0572e-07	223.92	89.965	66.492	27.977	3.771e-07	37.546	241.162	-31.807	33.214	-59.293	91.471	33.927	-61.211	-52.559	126.721	34.311	-56.457	-50.756	-47.176	-41.325	67.745	-45.935	-8191	255	
2238.856	1	1	0	0	0.035099	0.17571	0.079018	0.25404	0.10323	0.16071	0.29051	0.049716	0.15775	0.075258	0.098941	0.15244	0.10568	0.08813	0.062302	0.17122	-2.6396	-3.3792	-3.1458	-3.1021	-3.4938	-3.0687	-3.2229	-3.2458	-2.65	-3.5583	-3.1521	-3.1104	-3.2812	-2.9562	-3.3521	-3.2896	-67.847	153.812	120.787	250.656	265.651	266.751	247.078	271.248	106.289	36.968	226.580	247.695	241.464	-64.069	-36.097	226.446	0.00012879	0.00012942	4.0802e-05	400.76	1.6453e-06	5.4796e-07	553.1	164.5	1.9437e-06	1.4117e-06	242.52	95.2	71.921	29.892	1.8489e-06	40.932	3.4252e-05	2.8857e-05	9.4135e-06	378.62	3.0871e-07	3.2719e-07	523.55	156.75	3.168e-07	3.2395e-07	220.85	88.673	66.036	28.065	3.7464e-07	37.666	249.099	-21.606	24.298	-59.528	124.617	94.268	-61.240	-52.888	107.752	76.348	-56.665	-50.659	-47.212	-41.359	72.519	-45.782	-8191	255	
2238.953	1	1	0	0	0.13458	0.053266	0.11904	0.14352	0.14836	0.094564	0.071479	0.21829	0.049945	0.071734	0.23485	0.054598	0.17293	0.23576	0.042335	0.33004	-2.5542	-3.0375	-3.2667	-2.8958	-3.3438	-2.9146	-3.2104	-3.425	-2.9604	-3.3792	-3.0833	-2.9	-3.4	-3.05	-3.1333	-3.3542	233.212	-63.252	289.255	170.082	-26.080	286.526	128.757	201.668	280.236	-19.041	241.739	-7.228	14.045	270.038	-29.925	283.679	0.00015472	0.00016648	5.0469e-05	400.88	1.7577e-06	2.7446e-06	554.98	163.49	5.9539e-07	2.5273e-06	240.36	94.567	71.685	29.894	2.1833e-06	40.937	3.2639e-05	3.1215e-05	9.0032e-06	378.67	3.0136e-07	3.5019e-07	523.29	156.13	3.0742e-07	3.5579e-07	218.96	88.307	65.582	28.088	3.5493e-07	37.486	239.857	-10.234	58.060	-59.423	107.088	53.273	-61.202	-52.466	206.555	90.393	-56.629	-50.804	-47.110	-41.339	62.400	-45.891	-8191	255	
2239.049	1	1	0	0	0.31713	0.16404	0.11209	0.11374	0.14175	0.22249	0.22472	0.25925	0.13104	0.056356	0.12029	0.072382	0.22725	0.093274	0.20419	0.050057	-2.6417	-3.2792	-3.0625	-2.9646	-3.5667	-3.0521	-3.0833	-3.4021	-2.9083	-3.1979	-3.3458	-2.8563	-3.2417	-3.1833	-3.0854	-3.525	16.705	204.263	-31.142	234.870	62.815	218.040	264.591	205.473	180.680	185.175	53.294	-62.593	-38.825	159.819	93.253	178.220	0.00011778	0.00034205	5.0266e-05	393.74	1.4215e-06	1.8414e-06	544.56	161.7	5.4204e-07	2.4427e-06	238.12	94.231	71.005	29.716	1.8816e-06	40.63	3.3676e-05	3.2391e-05	8.513e-06	373.28	3.0152e-07	3.5171e-07	516.13	153.95	3.1384e-07	3.5355e-07	216.42	87.848	65.197	27.903	3.4055e-07	37.117	239.971	10.831	31.515	-59.571	84.562	33.472	-61.189	-52.788	106.126	79.658	-56.505	-50.904	-46.764	-41.228	68.178	-45.759	-8191	255	
2239.169	1	1	0	0	0.19717	0.1893	0.18084	0.049869	0.16281	0.038887	0.15875	0.077951	0.14913	0.16811	0.11369	0.15297	0.35716	0.16928	0.10028	0.13688	-2.6104	-3.2604	-3.375	-3.0479	-3.325	-3.0854	-3.1729	-3.3146	-3.1083	-3.2062	-3.375	-2.9354	-3.3042	-3.2375	-3.0271	-3.6021	63.130	-68.536	117.082	279.998	188.200	218.666	234.180	241.883	173.994	-60.638	94.661	122.143	-64.161	180.169	16.670	3.445	0.00013176	0.00025715	3.0487e-05	387.17	8.5061e-07	2.9472e-06	534.56	158.76	1.5538e-06	3.1293e-06	233.22	92.745	70.637	29.481	2.1291e-06	40.076	3.5202e-05	3.2035e-05	8.1254e-06	366.13	3.2769e-07	3.5646e-07	505.63	150.48	3.2957e-07	3.5178e-07	212.22	86.451	64.315	27.642	3.2247e-07	36.649	256.166	-2.593	22.295	-59.647	20.117	8.528	-61.005	-52.564	64.105	83.521	-56.517	-51.000	-46.874	-41.381	64.725	-45.747	-8191	255	
2239.241	1	1	0	0	0.19578	0.013616	0.24364	0.21363	0.16081	0.036142	0.27648	0.060749	0.1162	0.24617	0.11105	0.10226	0.12236	0.16345	0.23224	0.16929	-2.4229	-3.2792	-3.1917	-2.8812	-3.2771	-3.3208	-3.0229	-3.2521	-3.2146	-3.1813	-3.3729	-3.1125	-3.2375	-3.2792	-3.1229	-3.325	-48.497	-16.173	-47.365	-29.920	269.796	-50.258	246.821	180.733	-0.870	216.031	276.135	234.981	-16.582	25.909	-35.349	276.657	0.00012777	0.00019348	5.1643e-05	375.32	1.3474e-06	7.548e-07	521.47	154.87	1.4512e-06	1.9429e-06	227.71	91.264	69.196	29.413	1.3903e-06	40.188	3.6049e-05	3.1792e-05	7.7315e-06	356.66	3.4564e-07	3.3379e-07	493.11	147.13	3.467e-07	3.3592e-07	207.97	85.048	63.413	27.584	3.0751e-07	36.577	234.752	-48.107	50.359	-59.929	103.372	18.808	-61.207	-52.781	116.848	70.012	-56.550	-50.715	-46.858	-41.262	81.264	-45.863	-8191	255	
2239.337	1	1	0	0	0.086309	0.080529	0.13465	0.24432	0.15929	0.14247	0.23414	0.29171	0.39529	0.14125	0.023401	0.18603	0.19866	0.2349	0.14698	0.14234	-2.7583	-3.225	-3.1813	-3.0292	-3.2125	-3.1813	-3.0042	-3.2667	-2.9271	-2.8875	-3.5271	-2.8688	-3.2333	-3.2	-2.8438	-3.3729	188.681	111.914	4.476	111.265	-16.025	32.454	205.189	136.030	277.662	173.691	20.156	234.308	104.833	192.874	198.981	-0.647	0.00013128	0.00026019	5.3927e-05	374.89	2.5041e-06	3.1951e-06	518.6	154.3	5.3931e-07	1.2022e-06	227.3	91.308	69.317	29.567	2.046e-06	40.107	3.6962e-05	2.9694e-05	7.47e-06	355.2	3.5698e-07	3.2426e-07	491.87	146.64	3.5939e-07	3.1164e-07	206.97	84.986	63.343	27.75	2.9225e-07	36.697	233.126	16.595	66.534	-59.307	98.637	49.916	-60.822	-52.460	106.087	80.536	-56.269	-50.724	-46.840	-41.222	77.542	-45.855	-8191	255	
2239.458	1	1	0	0	0.079981	0.22849	0.090714	0.35378	0.08126	0.22871	0.24072	0.28523	0.20521	0.15226	0.22649	0.020188	0.10998	0.24061	0.19814	0.070695	-2.6458	-2.8854	-3.4208	-3.0917	-3.1625	-3.2479	-2.8896	-3.4083	-3.2458	-3.0729	-3.4104	-3.1146	-3.0729	-3.3521	-3.0604	-3.2	160.611	214.168	239.252	264.642	35.626	-67.476	-64.025	225.188	142.401	36.540	168.572	-21.203	277.495	282.469	207.857	211.972	0.00013268	0.00017951	3.6239e-05	374.21	2.3108e-06	1.8874e-06	518.82	153.13	1.2657e-06	2.082e-06	228.08	91.388	69.652	29.549	1.5202e-06	40.109	3.7197e-05	2.8425e-05	7.1283e-06	353.11	3.4918e-07	3.0795e-07	491.03	146.01	3.4187e-07	3.1698e-07	207.34	85.386	63.393	27.736	2.9236e-07	36.797	236.215	-14.257	14.403	-59.361	69.702	59.167	-61.077	-52.362	147.469	82.444	-56.254	-50.898	-46.760	-41.392	104.974	-45.672	-8191	255	
2239.554	1	1	0	0	0.087649	0.080661	0.16743	0.089223	0.15448	0.11625	0.16699	0.14527	0.062971	0.095918	0.26509	0.097327	0.1851	0.13693	0.11576	0.13259	-2.9375	-2.95	-3.3458	-3.0917	-3.0896	-3.45	-3.0333	-3.1625	-3.2313	-3.1917	-3.4417	-3.0396	-3.1104	-3.4125	-2.9562	-3.1875	6.298	163.151	-46.899	239.134	139.037	55.269	235.621	128.390	140.651	211.552	262.363	149.076	-17.705	-34.071	58.611	-2.192	0.00013917	0.00013162	3.8608e-05	369.73	1.5347e-06	3.0761e-06	518.69	153.4	1.1724e-06	2.6019e-06	227.12	91.048	68.822	29.557	1.5501e-06	40.099	3.5779e-05	2.7846e-05	7.389e-06	351.35	3.4269e-07	3.0489e-07	490.85	145.97	3.3265e-07	3.0349e-07	207.39	85.382	63.274	27.726	2.9766e-07	36.773	239.401	-24.228	60.743	-59.480	48.734	51.457	-61.190	-52.430	92.676	84.580	-56.321	-50.818	-47.008	-41.307	110.358	-45.932	-8191	255	
2239.650	1	1	0	0	0.23123	0.24635	0.044083	0.13027	0.10096	0.14603	0.24808	0.24705	0.21893	0.33595	0.10567	0.21333	0.18867	0.2685	0.10028	0.1704	-2.6875	-2.9125	-3.5146	-3.0479	-2.9396	-3.3583	-2.9146	-3.3104	-3.3292	-2.7146	-3.3771	-3.1292	-3.0625	-3.3896	-2.9833	-3.3146	-56.297	100.794	41.376	2.364	267.637	-56.793	237.624	250.531	136.887	-39.395	160.239	-28.786	-66.622	239.815	262.595	187.206	0.00013974	0.00026551	2.5669e-05	374.85	1.9157e-06	1.9094e-06	522.89	153.25	1.4355e-06	7.1259e-07	229.43	92.085	69.976	29.787	3.3076e-07	40.524	3.4497e-05	2.6645e-05	7.5586e-06	354.54	3.1916e-07	2.798e-07	493.25	146.48	3.1232e-07	2.9275e-07	208.53	85.832	63.851	27.975	3.285e-07	36.961	243.384	-6.229	60.653	-59.431	97.948	50.736	-61.044	-52.416	148.997	60.883	-56.301	-50.874	-46.780	-41.262	-31.100	-45.411	-8191	255	
2239.769	1	1	0	0	0.014045	0.1487	0.11917	0.17929	0.05364	0.16718	0.081597	0.083014	0.11554	0.17143	0.049898	0.22747	0.074093	0.20046	0.10842	0.032416	-2.95	-2.8229	-3.2333	-3.0458	-3.075	-3.3	-3.1729	-3.2396	-3.3125	-3.1188	-3.2521	-3.1458	-3.05	-3.5083	-2.8458	-3.1708	-50.833	-5.014	166.679	202.992	194.434	127.446	236.615	264.433	193.955	-7.139	226.975	262.105	230.204	7.753	88.497	90.754	0.00013758	4.4278e-05	7.267e-05	383.19	9.8314e-07	3.0023e-06	538.94	159.5	1.1516e-06	2.6759e-06	237.67	95.679	72.108	30.621	2.0979e-06	41.595	3.4353e-05	2.629e-05	8.3088e-06	364.29	3.1623e-07	2.803e-07	509.73	151.87	3.1665e-07	2.9737e-07	216.27	88.904	66.127	28.69	3.619e-07	38.048	236.593	-13.258	64.789	-59.317	67.165	41.253	-61.166	-52.576	115.089	87.039	-56.550	-50.740	-47.065	-41.288	37.556	-45.873	-8191	255	
2239.841	1	1	0	0	0.25881	0.16546	0.27092	0.1684	0.14567	0.19696	0.2998	0.17338	0.050829	0.12694	0.20242	0.29635	0.090899	0.15876	0.048186	0.08615	-3.0583	-2.8583	-3.3375	-3.4313	-2.9313	-3.2042	-3.2646	-3.1833	-3.4229	-2.8708	-3.3333	-3.2854	-2.8937	-3.4479	-3.1833	-3.0146	-64.384	227.919	204.434	283.362	222.849	264.123	213.413	217.265	201.605	-69.849	-32.242	281.358	152.029	188.710	46.016	282.783	0.00012367	0.0003101	7.861e-05	394.32	1.6244e-06	1.9938e-06	554	163.35	1.4293e-06	1.3539e-06	244.4	97.634	74.095	31.162	2.0124e-06	42.6	3.3086e-05	2.7605e-05	9.0101e-06	376.2	3.0756e-07	3.0192e-07	524.1	155.39	3.0655e-07	3.1319e-07	222.58	91.259	67.688	29.254	3.7297e-07	38.932	245.305	6.361	49.598	-59.629	81.811	56.459	-61.441	-52.648	126.802	92.044	-56.727	-51.065	-47.341	-41.479	-10.291	-45.875	-8191	255	
2239.937	1	1	0	0	0.20516	0.099847	0.26212	0.16595	0.15338	0.11246	0.14638	0.20411	0.052376	0.1557	0.074235	0.38287	0.29454	0.077778	0.082052	0.25154	-2.9479	-2.7292	-3.2729	-3.4646	-2.8917	-3.3479	-3.3771	-3.0083	-3.4083	-3.3042	-3.3438	-3.025	-3.025	-3.3521	-3.0187	-3.0083	272.158	205.183	-40.460	257.019	35.741	166.968	153.689	201.383	96.177	139.859	-55.809	272.125	220.981	237.884	76.613	137.731	0.00013451	8.4068e-05	4.4683e-05	408.28	1.8192e-06	1.2244e-06	562.93	164.52	1.7373e-06	4.1345e-07	243.9	97.597	74.536	31.377	3.121e-06	42.533	3.25e-05	2.9135e-05	9.1381e-06	385.59	3.0436e-07	3.2476e-07	531.43	156.8	3.0353e-07	3.2989e-07	223.65	91.6	67.861	29.415	3.5746e-07	39.068	253.939	-37.577	58.635	-59.489	104.519	29.720	-61.233	-52.418	129.735	91.151	-56.349	-50.902	-47.422	-41.409	80.884	-45.920	-8191	255	
2240.057	1	1	0	0	0.14788	0.11524	0.094583	0.16863	0.20814	0.067913	0.27198	0.15233	0.12026	0.039331	0.055276	0.24986	0.12912	0.073559	0.29698	0.34133	-3.0396	-2.8458	-2.9542	-3.2625	-2.9625	-3.2188	-3.3833	-2.7875	-3.4354	-2.9417	-3.1333	-3.3312	-2.9583	-3.2438	-3.2438	-2.9833	224.263	110.345	70.343	149.658	172.153	178.796	182.665	-11.304	154.342	31.234	99.205	220.621	-19.581	258.329	242.437	204.721	0.00015785	0.00012893	6.0593e-05	402.77	1.4826e-06	1.3514e-06	551.73	162.03	2.3383e-06	3.1977e-06	239.97	96.206	72.293	31.179	7.8061e-07	42.163	3.2794e-05	3.1881e-05	8.869e-06	379.81	3.0797e-07	3.42e-07	522.57	154.22	2.9945e-07	3.5916e-07	218.63	89.319	66.069	29.273	3.3635e-07	38.647	240.471	2.764	20.307	-59.520	114.467	108.826	-61.273	-52.700	125.454	88.594	-56.126	-50.618	-46.661	-41.509	57.160	-45.938	-8191	255	
#DATA ENDS
