BOXY.EXE: ISS Imagent and Oximeter Data Acquisition Program Version 0.80
Ascii Record File

#ACQ INFORMATION
2  Detector Channels 
16  External MUX Channels 
1  Auxiliary Channels 
5000  Waveform (CCF) Frequency (Hz)
1  Waveforms Skipped 
30  Waveforms Averaged 
1  Cycles Averaged 
16  Acquisitions per Waveform 
10.0806  Updata Rate (Hz) 

#FILE INFORMATION
TRUE -- External MUX Channel results are PARSED.
FALSE -- AC DC and Phase are NOT grouped.
TRUE -- Companion Program Settings File CREATED.
FALSE -- AC data not excluded
FALSE -- DC data not excluded
FALSE -- Phase data not excluded
FALSE -- Auxillary Chn. data not excluded
Tab delimiters

#CALIBRATION STATE
TRUE -- Waveform Calibration Values APPLIED.


#AUX CALIBRATION VALUES
Val Type	aux-1	

Term	1.0000e+00	
Factor	0.0000e+00	


#WF CALIBRATION VALUES
A = Detector Channel
Val Type	A-AC1	A-AC2	A-AC3	A-AC4	A-AC5	A-AC6	A-AC7	A-AC8	A-AC9	A-AC10	A-AC11	A-AC12	A-AC13	A-AC14	A-AC15	A-AC16	A-DC1	A-DC2	A-DC3	A-DC4	A-DC5	A-DC6	A-DC7	A-DC8	A-DC9	A-DC10	A-DC11	A-DC12	A-DC13	A-DC14	A-DC15	A-DC16	A-Ph1	A-Ph2	A-Ph3	A-Ph4	A-Ph5	A-Ph6	A-Ph7	A-Ph8	A-Ph9	A-Ph10	A-Ph11	A-Ph12	A-Ph13	A-Ph14	A-Ph15	A-Ph16	

Term	0.00000e+00	0.00000e+00	0.00000e+00	0.00000e+00	0.00000e+00	0.00000e+00	0.00000e+00	0.00000e+00	0.00000e+00	0.00000e+00	0.00000e+00	0.00000e+00	0.00000e+00	0.00000e+00	0.00000e+00	0.00000e+00	0.00000e+00	0.00000e+00	0.00000e+00	0.00000e+00	0.00000e+00	0.00000e+00	0.00000e+00	0.00000e+00	0.00000e+00	0.00000e+00	0.00000e+00	0.00000e+00	0.00000e+00	0.00000e+00	0.00000e+00	0.00000e+00	0.00000e+00	0.00000e+00	0.00000e+00	0.00000e+00	0.00000e+00	0.00000e+00	0.00000e+00	0.00000e+00	0.00000e+00	0.00000e+00	0.00000e+00	0.00000e+00	0.00000e+00	0.00000e+00	0.00000e+00	0.00000e+00	
Factor	1.00000e+00	1.00000e+00	1.00000e+00	1.00000e+00	1.00000e+00	1.00000e+00	1.00000e+00	1.00000e+00	1.00000e+00	1.00000e+00	1.00000e+00	1.00000e+00	1.00000e+00	1.00000e+00	1.00000e+00	1.00000e+00	1.00000e+00	1.00000e+00	1.00000e+00	1.00000e+00	1.00000e+00	1.00000e+00	1.00000e+00	1.00000e+00	1.00000e+00	1.00000e+00	1.00000e+00	1.00000e+00	1.00000e+00	1.00000e+00	1.00000e+00	1.00000e+00	X	X	X	X	X	X	X	X	X	X	X	X	X	X	X	X	

B = Detector Channel
Val Type	B-AC1	B-AC2	B-AC3	B-AC4	B-AC5	B-AC6	B-AC7	B-AC8	B-AC9	B-AC10	B-AC11	B-AC12	B-AC13	B-AC14	B-AC15	B-AC16	B-DC1	B-DC2	B-DC3	B-DC4	B-DC5	B-DC6	B-DC7	B-DC8	B-DC9	B-DC10	B-DC11	B-DC12	B-DC13	B-DC14	B-DC15	B-DC16	B-Ph1	B-Ph2	B-Ph3	B-Ph4	B-Ph5	B-Ph6	B-Ph7	B-Ph8	B-Ph9	B-Ph10	B-Ph11	B-Ph12	B-Ph13	B-Ph14	B-Ph15	B-Ph16	

Term	0.00000e+00	0.00000e+00	0.00000e+00	0.00000e+00	0.00000e+00	0.00000e+00	0.00000e+00	0.00000e+00	0.00000e+00	0.00000e+00	0.00000e+00	0.00000e+00	0.00000e+00	0.00000e+00	0.00000e+00	0.00000e+00	0.00000e+00	0.00000e+00	0.00000e+00	0.00000e+00	0.00000e+00	0.00000e+00	0.00000e+00	0.00000e+00	0.00000e+00	0.00000e+00	0.00000e+00	0.00000e+00	0.00000e+00	0.00000e+00	0.00000e+00	0.00000e+00	-2.01985e+02	-1.29378e+02	-1.28570e+02	-1.80487e+02	-8.05482e+01	-6.35979e+01	-1.57016e+02	-1.62015e+02	-9.10596e+01	-6.42508e+01	-1.71443e+02	-1.71615e+02	-1.83224e+02	-1.76661e+02	-7.99887e+01	-1.49508e+02	
Factor	5.02138e-05	2.16187e-04	5.75228e-05	2.02782e-01	2.24451e-06	2.39498e-06	2.11821e-01	6.23708e-02	2.36109e-06	2.12806e-06	1.02550e-01	4.02935e-02	4.67635e-02	1.15781e-02	2.14567e-06	1.65216e-02	1.48403e-05	2.08106e-05	5.80611e-06	1.01095e-01	2.10257e-07	2.31288e-07	9.93696e-02	3.12328e-02	2.09323e-07	2.30627e-07	4.98278e-02	1.95568e-02	2.33408e-02	5.84236e-03	2.17295e-07	8.10984e-03	X	X	X	X	X	X	X	X	X	X	X	X	X	X	X	X	



#DISTANCE SETTINGS
A = Detector Channel
A-1	A-2	A-3	A-4	A-5	A-6	A-7	A-8	A-9	A-10	A-11	A-12	A-13	A-14	A-15	A-16	

2.5000e+00	3.0000e+00	2.5000e+00	3.0000e+00	2.0000e+00	3.0000e+00	1.5000e+00	3.0000e+00	3.0000e+00	3.0000e+00	3.0000e+00	3.0000e+00	3.0000e+00	3.0000e+00	1.5000e+00	3.0000e+00	

B = Detector Channel
B-1	B-2	B-3	B-4	B-5	B-6	B-7	B-8	B-9	B-10	B-11	B-12	B-13	B-14	B-15	B-16	

1.0000e+01	1.0000e+01	1.0000e+01	1.4400e+00	1.0000e+01	1.0000e+01	1.5100e+00	1.9400e+00	1.0000e+01	1.0000e+01	1.9900e+00	2.4900e+00	2.4100e+00	2.9000e+00	1.0000e+01	2.9800e+00	




#DATA BEGINS
time	group	step	mark	flag	A-AC1	A-AC2	A-AC3	A-AC4	A-AC5	A-AC6	A-AC7	A-AC8	A-AC9	A-AC10	A-AC11	A-AC12	A-AC13	A-AC14	A-AC15	A-AC16	A-DC1	A-DC2	A-DC3	A-DC4	A-DC5	A-DC6	A-DC7	A-DC8	A-DC9	A-DC10	A-DC11	A-DC12	A-DC13	A-DC14	A-DC15	A-DC16	A-Ph1	A-Ph2	A-Ph3	A-Ph4	A-Ph5	A-Ph6	A-Ph7	A-Ph8	A-Ph9	A-Ph10	A-Ph11	A-Ph12	A-Ph13	A-Ph14	A-Ph15	A-Ph16	B-AC1	B-AC2	B-AC3	B-AC4	B-AC5	B-AC6	B-AC7	B-AC8	B-AC9	B-AC10	B-AC11	B-AC12	B-AC13	B-AC14	B-AC15	B-AC16	B-DC1	B-DC2	B-DC3	B-DC4	B-DC5	B-DC6	B-DC7	B-DC8	B-DC9	B-DC10	B-DC11	B-DC12	B-DC13	B-DC14	B-DC15	B-DC16	B-Ph1	B-Ph2	B-Ph3	B-Ph4	B-Ph5	B-Ph6	B-Ph7	B-Ph8	B-Ph9	B-Ph10	B-Ph11	B-Ph12	B-Ph13	B-Ph14	B-Ph15	B-Ph16	aux-1	digaux	

22442.951	1	1	0	256	0.14072	0.13759	0.18105	0.2274	0.11867	0.11368	0.12818	0.12952	0.26939	0.23512	0.17404	0.193	0.12546	0.16321	0.18264	0.13636	-2.2875	-2.7833	-2.3854	-3.0208	-2.5083	-2.5687	-2.8729	-2.6625	-2.9188	-2.6188	-2.5833	-2.8125	-2.7646	-2.6354	-2.6875	-2.7875	44.000	-66.809	230.860	144.692	-102.881	173.159	135.808	198.124	38.831	150.406	130.043	235.523	57.720	205.151	153.952	195.691	0.00081097	0.0012554	0.00026189	543.57	2.2682e-05	2.546e-05	1047	208.1	1.5503e-05	2.2418e-05	452.4	192.3	83.247	39.831	2.856e-05	110.13	0.023011	0.031726	0.008892	640.8	0.00032171	0.00035397	1089.3	233.55	0.0003131	0.00033746	478.52	202	108.09	44.406	0.00029991	111.57	118.520	108.094	144.089	-92.807	94.835	-57.931	-93.017	-88.469	102.993	-4.477	-89.031	-84.717	-84.806	-78.575	27.226	-80.346	-8191	255	
22443.047	1	1	0	0	0.15628	0.12628	0.051702	0.22912	0.11999	0.086375	0.17687	0.33528	0.2574	0.22249	0.19027	0.096869	0.083588	0.16339	0.15108	0.2198	-2.3042	-2.6625	-2.4042	-2.925	-2.6417	-2.7583	-2.9896	-2.5229	-2.6354	-2.7	-2.6125	-2.95	-2.5646	-2.6729	-2.9	-2.7958	-1.883	204.549	64.381	193.756	230.884	-18.740	178.525	159.321	38.003	-87.739	182.590	248.134	-100.864	135.870	216.911	162.365	0.001434	0.001403	0.00021185	534.64	4.2069e-05	1.4709e-05	1049.2	209.84	1.4614e-05	5.0339e-06	465.96	199.72	89.581	41.046	2.4819e-05	113.37	0.020645	0.028943	0.0081621	625.02	0.00030955	0.00034653	1094.9	239.12	0.00034332	0.00038906	504.68	214.95	122.6	47.939	0.00039764	117.89	93.151	-58.845	57.045	-92.803	112.524	-25.594	-92.574	-88.941	93.512	8.943	-89.083	-85.028	-85.284	-79.241	60.305	-80.661	-8191	255	
22443.166	1	1	0	0	0.12211	0.25143	0.027903	0.12833	0.28989	0.23058	0.12796	0.19349	0.26512	0.033995	0.20957	0.26578	0.26051	0.18031	0.11791	0.17719	-2.1917	-2.875	-2.4792	-2.9396	-2.8146	-2.4313	-3.0708	-2.55	-2.7271	-2.7042	-2.5125	-2.9604	-2.6979	-2.7313	-2.9667	-2.8625	229.149	103.524	132.863	122.767	-2.651	64.617	-61.883	-15.182	130.042	12.721	245.104	173.295	133.305	104.756	113.729	232.082	0.0013339	0.0045592	0.00023201	546.76	2.3382e-05	1.9579e-05	1050.5	207.37	4.2499e-06	1.2645e-05	445.81	189.52	80.306	39.365	1.1181e-05	108.35	0.027358	0.037505	0.01035	665.99	0.00034979	0.00037063	1093.1	232.57	0.00028962	0.00030741	464.63	195.04	100.35	42.534	0.00025402	107.75	117.255	228.174	-9.941	-92.970	78.946	69.587	-92.923	-88.563	105.416	-25.954	-88.866	-84.305	-84.877	-79.136	64.592	-80.606	-8191	255	
22443.262	1	1	0	0	0.055147	0.33205	0.19942	0.13257	0.03596	0.19754	0.19027	0.19594	0.094605	0.1299	0.3596	0.11069	0.31477	0.24668	0.017582	0.29069	-2.2	-2.6646	-2.4542	-2.8146	-2.6937	-2.5687	-2.9208	-2.7562	-2.6437	-2.8438	-2.6188	-2.9625	-2.6896	-2.7396	-2.8208	-2.825	117.884	89.797	241.138	230.086	117.852	152.489	214.674	192.464	-46.410	91.992	221.893	236.948	90.918	-90.765	190.758	-97.764	0.0010581	0.0024364	0.00028338	523.07	2.3159e-05	1.8585e-05	1022	198.9	3.5661e-06	2.7153e-05	442.98	188.64	80.606	39.53	2.2837e-05	109.09	0.017138	0.023563	0.0066307	584.05	0.00024012	0.00026392	1030.8	214.18	0.00024364	0.0002698	456.96	193.68	101.03	42.952	0.00026526	109.57	130.328	-45.351	72.779	-92.459	144.049	52.645	-92.900	-88.547	13.922	168.358	-88.843	-84.510	-84.240	-78.853	44.811	-80.545	-8191	255	
22443.334	1	1	0	0	0.26229	0.15465	0.22851	0.25173	0.14372	0.17107	0.2219	0.16631	0.10254	0.24447	0.22273	0.12992	0.12463	0.061453	0.10141	0.10706	-2.0875	-2.8479	-2.5229	-2.7958	-2.8333	-2.6667	-3.0208	-2.7896	-2.6521	-2.8	-2.6167	-2.7979	-2.7604	-2.5708	-2.9146	-2.7708	119.223	141.326	9.093	222.120	170.995	189.378	169.170	89.463	166.073	235.872	189.155	-88.509	196.230	-79.084	-8.147	135.163	0.0012356	0.0014088	0.00037856	540.83	2.2457e-05	2.2635e-05	1042.3	205.45	2.5012e-05	2.4487e-05	457.86	196.28	86.346	40.65	2.2014e-05	111.03	0.018912	0.026266	0.0074777	609.17	0.00027556	0.00030931	1069.5	228.56	0.00029358	0.00033005	484.96	206.34	113.72	45.648	0.00032737	113.35	111.326	-34.513	15.353	-93.256	140.244	157.579	-93.301	-88.787	40.579	129.607	-89.232	-85.118	-85.696	-79.519	-67.689	-80.607	-8191	255	
22443.453	1	1	0	0	0.19145	0.27381	0.17151	0.060391	0.16733	0.14488	0.070828	0.25696	0.1394	0.095278	0.26858	0.24315	0.1827	0.11064	0.21033	0.38489	-2.075	-2.7521	-2.4979	-2.5208	-2.75	-2.6042	-2.8375	-2.8458	-2.6958	-2.9083	-2.7833	-2.7729	-2.9104	-2.4271	-2.8083	-3.0542	203.706	12.405	185.157	238.030	-29.830	80.374	-82.238	96.212	85.769	153.762	212.520	-103.741	227.128	-97.092	4.985	186.180	0.00099978	0.0034559	0.00042423	540.26	2.2021e-05	1.1825e-05	1048.9	206.49	1.8465e-05	2.0644e-05	455.17	193.73	83.723	39.882	1.5374e-05	109.62	0.022114	0.030588	0.0083212	623.13	0.00029138	0.0003174	1068	227.5	0.00027455	0.00029928	472.5	199.61	105.5	43.412	0.00026824	110.06	123.281	174.222	38.602	-92.921	-68.552	-67.031	-92.677	-88.705	50.681	179.212	-88.844	-84.651	-85.445	-79.488	62.270	-80.654	-8191	255	
22443.551	1	1	0	0	0.22401	0.13832	0.091505	0.1247	0.1715	0.16389	0.16524	0.16806	0.13119	0.084274	0.28238	0.12231	0.37908	0.21232	0.10761	0.18775	-1.9813	-2.9042	-2.5104	-2.5792	-2.9083	-2.4833	-2.8042	-2.9021	-2.7125	-2.7958	-2.6646	-2.7167	-2.9583	-2.5979	-2.7208	-3.0875	-20.576	85.225	86.848	-82.542	19.883	15.591	186.145	-93.247	87.904	21.811	200.506	249.942	-88.004	145.953	67.034	152.168	0.00090619	0.0017961	0.00034994	533.4	1.8824e-05	2.6365e-05	1033.6	206.59	1.1258e-05	1.3865e-05	449.59	192.07	84.242	39.78	1.0384e-05	108.79	0.018328	0.025316	0.0070244	597.32	0.00025564	0.00028268	1047.8	222.02	0.00025604	0.00028159	466.29	197.67	104.67	43.266	0.00026981	109.38	113.039	-41.011	228.265	-92.428	9.287	94.716	-92.960	-89.035	78.791	32.562	-89.291	-85.067	-84.988	-79.525	-29.073	-80.522	-8191	255	
22443.646	1	1	0	0	0.26957	0.080773	0.12116	0.066154	0.049954	0.14846	0.34391	0.20918	0.068251	0.16628	0.12812	0.17619	0.2209	0.31211	0.078239	0.059111	-2.1417	-2.8375	-2.6458	-2.5479	-2.8271	-2.45	-2.6625	-2.9167	-2.4729	-2.9813	-2.7146	-2.4875	-2.9417	-2.6729	-2.6292	-3.0167	97.368	8.109	-54.483	154.592	-30.725	-99.308	196.127	35.657	187.855	7.716	-48.126	-83.249	114.236	169.936	88.581	229.888	0.0014522	0.0032755	0.00044583	543.3	8.7886e-06	2.2012e-05	1040.5	207.58	4.0309e-05	1.9071e-05	452.89	191.08	84.905	39.455	1.2388e-05	108.71	0.019194	0.026631	0.0073541	611.78	0.00026732	0.00029354	1061.6	226.78	0.00026576	0.00029123	469.32	198.74	105.82	43.166	0.00026732	109.33	79.028	41.991	106.498	-92.958	58.510	-37.901	-92.992	-88.670	-49.119	-100.306	-88.827	-84.886	-85.583	-79.454	202.723	-80.724	-8191	255	
22443.742	1	1	0	0	0.218	0.28699	0.2825	0.080561	0.1293	0.16613	0.30507	0.26034	0.30134	0.20989	0.14978	0.16875	0.25904	0.14019	0.1725	0.19282	-1.9979	-2.4958	-2.6958	-2.6458	-2.8333	-2.5229	-2.7479	-3.0604	-2.6917	-2.8104	-2.7708	-2.5833	-2.7562	-2.65	-2.5125	-3.0146	125.667	-101.546	217.427	188.911	173.353	-20.072	176.685	172.170	218.028	57.929	221.459	139.398	213.814	-52.977	145.460	200.766	0.0011516	0.00099816	0.00091732	532.9	4.2547e-06	9.3521e-06	1036.7	205.16	2.7883e-05	3.219e-06	448.95	191.63	83.129	39.529	1.9712e-05	109.03	0.018439	0.025262	0.0069273	597.72	0.0002494	0.0002717	1045.1	220.21	0.00024887	0.00027338	462.74	196.08	103.1	42.654	0.00025963	109.17	120.375	-28.724	85.886	-92.539	26.702	195.319	-92.981	-88.670	130.466	50.802	-89.294	-84.869	-85.049	-79.337	85.727	-80.470	-8191	255	
22443.863	1	1	0	0	0.17882	0.15207	0.056221	0.17602	0.18351	0.31671	0.34656	0.080179	0.23223	0.12604	0.25566	0.2406	0.065186	0.099954	0.16429	0.32717	-2.025	-2.6083	-2.625	-2.6208	-2.6688	-2.5667	-2.6125	-2.9938	-2.6063	-2.7854	-2.7313	-2.5021	-2.8396	-2.5354	-2.625	-3.05	123.496	-105.557	195.941	-106.131	249.525	113.126	212.325	8.609	145.206	-96.402	-91.663	-41.402	111.560	162.985	-32.913	231.923	0.0012334	0.0011062	0.00061892	535.12	7.4804e-06	1.6564e-05	1040.1	205.17	7.9196e-06	6.8518e-06	447.6	191.54	82.403	39.107	1.6313e-05	108.79	0.018268	0.025054	0.0070062	597.96	0.00025378	0.00027655	1047	221.2	0.00024812	0.00027389	462.68	195.93	102.27	42.443	0.00025621	108.7	133.037	238.855	72.581	-92.641	-50.027	126.455	-92.738	-88.266	-84.488	-5.074	-88.879	-84.913	-85.129	-79.149	179.466	-80.191	-8191	255	
22443.936	1	1	0	0	0.15954	0.12306	0.047098	0.23541	0.23555	0.15833	0.15099	0.09266	0.12218	0.25737	0.063867	0.27917	0.19085	0.2152	0.10972	0.24563	-2.1583	-2.5542	-2.7	-2.55	-2.9062	-2.6937	-2.6688	-3.0479	-2.7375	-2.7479	-2.8688	-2.8125	-2.6813	-2.8688	-2.6396	-3.0104	244.011	246.543	91.028	211.200	97.483	15.395	-103.885	53.160	167.348	-21.383	-42.438	241.910	180.610	157.742	142.373	176.962	0.0011439	0.0014059	0.00081356	530.52	7.2906e-06	1.3108e-05	1022.9	201.94	8.1609e-06	1.2502e-05	439.27	188.41	81.568	39.318	1.903e-05	107.84	0.017675	0.02439	0.0068256	592.11	0.00024634	0.00026855	1037.5	218.22	0.00024174	0.00026481	455.04	192.69	100.5	42.22	0.00025196	107.75	119.598	-77.849	-30.482	-92.262	57.466	55.375	-92.735	-88.146	-33.780	79.545	-88.844	-84.914	-84.895	-79.501	89.082	-80.961	-8191	255	
22444.057	1	1	0	0	0.096571	0.21963	0.25721	0.25047	0.3676	0.055986	0.18893	0.16567	0.055108	0.075896	0.063698	0.21685	0.22417	0.25789	0.12782	0.19546	-2.2417	-2.7125	-2.8979	-2.6125	-2.8042	-2.7292	-2.7146	-2.8208	-2.7646	-2.6562	-2.8833	-2.5917	-2.6688	-2.9292	-2.6312	-3.0146	-4.542	-73.753	-38.227	178.430	191.377	29.042	173.573	208.787	138.403	63.677	172.230	-101.065	236.231	191.405	187.237	250.897	0.0009616	0.0015224	0.00034725	531.84	9.3287e-06	6.8173e-06	1020.8	199.04	1.4651e-05	6.9418e-06	438.53	186.05	78.959	39.452	2.7063e-05	107.5	0.017561	0.024177	0.0067827	591.02	0.00024531	0.0002684	1034.8	215.48	0.00023733	0.00026212	450.15	190.76	97.78	42.11	0.00024319	107.45	152.291	66.160	10.152	-92.455	222.823	14.241	-92.777	-88.478	135.817	-60.301	-88.711	-84.475	-84.331	-79.271	-65.710	-80.836	-8191	255	
22444.152	1	1	0	0	0.12331	0.187	0.11877	0.29898	0.10873	0.32022	0.064423	0.36632	0.13263	0.16813	0.14393	0.36539	0.21293	0.18517	0.24901	0.074077	-2.3167	-2.5417	-2.8771	-2.6771	-2.775	-2.8667	-2.7333	-2.925	-2.7146	-2.6188	-2.9354	-2.6688	-2.6583	-2.7271	-2.4021	-2.9604	232.123	205.133	214.510	137.329	105.789	40.038	-84.813	243.231	-28.555	39.484	-103.706	232.699	-74.991	-78.705	157.017	248.457	0.0014278	0.002071	0.00028458	521.92	8.6231e-06	4.3952e-06	1019.9	196.12	4.5421e-06	1.9032e-05	436.32	185.42	77.711	39.381	2.9126e-06	108.27	0.016702	0.023013	0.0065081	579.64	0.00023414	0.0002569	1022.7	211.05	0.00023065	0.00025326	445.51	188.82	95.464	41.624	0.00022765	106.93	131.019	-23.688	219.062	-92.433	33.381	-56.838	-92.444	-88.141	67.509	63.369	-88.583	-84.122	-83.757	-79.527	52.277	-80.635	-8191	255	
22444.246	1	1	0	0	0.16451	0.21767	0.10254	0.15388	0.32616	0.22903	0.16069	0.27288	0.20475	0.09934	0.54222	0.11716	0.12975	0.15273	0.36212	0.19974	-2.2521	-2.4542	-2.8583	-2.6042	-2.6104	-2.8083	-2.7333	-2.9167	-2.8458	-2.6479	-2.9	-2.7562	-2.6562	-2.9104	-2.5583	-2.8542	177.173	67.996	207.642	136.505	18.958	-44.482	214.577	-101.427	40.851	42.661	170.700	215.871	163.650	147.427	249.210	181.585	0.00088604	0.0013051	0.00031273	511.61	4.6885e-06	1.7123e-05	1003.7	192.86	1.8619e-05	1.9591e-05	432.48	185.18	76.936	39.149	1.5183e-05	109.11	0.015519	0.021409	0.0059684	560.1	0.00021159	0.00023329	1001.9	204.39	0.00021288	0.00023424	439.55	187.74	94.591	41.811	0.00022881	108.25	109.808	31.307	16.105	-92.070	-105.503	-16.300	-92.647	-88.060	-8.779	-30.445	-88.620	-84.103	-84.610	-79.503	50.244	-80.711	-8191	255	
22444.342	1	1	0	0	0.18415	0.084518	0.078254	0.1885	0.12223	0.061846	0.13132	0.38561	0.10477	0.1943	0.18741	0.21386	0.38354	0.38841	0.16937	0.17496	-2.2375	-2.4417	-2.7292	-2.5396	-2.5021	-2.7854	-2.6021	-2.8	-2.8312	-2.5563	-2.8063	-2.775	-2.6063	-2.8542	-2.6104	-2.9479	174.499	142.354	-29.519	244.766	23.070	168.929	-47.283	126.951	211.643	157.372	182.868	229.203	94.008	216.197	54.109	177.583	0.00089446	0.0023398	0.0006428	515.13	9.3557e-06	9.5815e-06	1007.1	192.63	1.1534e-05	5.2359e-06	431.05	185	77.816	39.379	1.0623e-05	109.26	0.015866	0.022092	0.0061728	567.51	0.00022266	0.00024516	1008.2	207.06	0.00022269	0.00024652	440.86	188.37	94.832	42.156	0.00023314	108.15	114.690	100.901	68.954	-92.266	253.781	136.363	-92.698	-87.806	-54.972	183.741	-88.625	-84.129	-84.744	-78.970	45.869	-80.828	-8191	255	
22444.463	1	1	0	0	0.28021	0.074195	0.18002	0.067462	0.14945	0.12799	0.17297	0.18454	0.067061	0.16229	0.11524	0.14735	0.13348	0.25988	0.084748	0.17201	-2.4979	-2.5521	-2.8104	-2.7062	-2.45	-2.8583	-2.7083	-2.5938	-2.8104	-2.5854	-2.8542	-2.7062	-2.6146	-2.9479	-2.7417	-2.7	-3.486	-0.757	0.030	202.660	236.869	195.199	-25.887	167.728	181.049	193.724	183.393	-11.095	188.851	44.890	112.019	154.040	0.00085916	0.0013326	6.6682e-05	518.25	6.139e-06	6.0209e-06	1011.3	193.84	9.8392e-06	1.2755e-05	436.16	187.5	78.183	40.536	1.3122e-05	111.23	0.016157	0.022482	0.0063079	571.61	0.00022971	0.00025495	1016.8	209.36	0.00023207	0.00025824	446.8	191.6	96.98	43.125	0.00024377	110.11	119.887	219.210	203.800	-92.309	-80.663	146.029	-92.719	-87.952	113.030	-63.532	-89.054	-84.243	-84.508	-79.244	24.172	-80.647	-8191	255	
22444.535	1	1	0	0	0.3537	0.12283	0.052604	0.1392	0.083992	0.08049	0.20825	0.1756	0.24231	0.1906	0.32738	0.17751	0.1484	0.18773	0.19201	0.11515	-2.4	-2.4938	-2.7333	-2.7375	-2.4646	-2.9292	-2.6625	-2.7646	-2.9146	-2.5563	-2.8583	-2.7687	-2.4458	-2.9562	-2.5604	-2.6625	-24.052	80.131	-56.468	1.955	247.238	-13.421	112.683	194.861	-20.474	76.744	212.390	-34.594	-77.538	182.965	-52.575	203.698	0.00095889	0.00058517	0.00023603	518.26	2.9839e-05	1.0307e-05	1006.4	192.41	1.6673e-05	1.5927e-05	433.9	186.99	77.654	40.4	1.2735e-05	111.9	0.016803	0.022931	0.0063752	571.06	0.00022919	0.00025112	1011.6	207.57	0.00022619	0.00025025	443.79	190.39	95.845	42.931	0.00023368	110.23	133.973	85.568	230.459	-92.585	54.921	237.424	-92.522	-88.144	85.490	124.722	-88.445	-84.318	-84.577	-79.017	26.020	-80.580	-8191	255	
22444.631	1	1	0	0	0.070048	0.033708	0.15479	0.24378	0.12255	0.10642	0.12651	0.14709	0.059044	0.33887	0.25128	0.36825	0.38066	0.32275	0.28585	0.20713	-2.4521	-2.725	-2.7062	-2.6104	-2.4333	-2.7875	-2.6729	-2.6229	-2.9375	-2.7104	-2.6896	-2.9938	-2.5563	-2.8979	-2.7521	-2.7146	191.505	17.508	-73.616	-41.761	130.341	82.103	-93.581	28.357	3.385	109.385	-40.295	240.303	154.284	241.040	59.413	186.039	0.0010651	0.0014834	0.00010618	515.02	4.5056e-06	6.3593e-06	1013.1	194.09	6.069e-06	1.775e-05	434.45	188.21	78.599	40.251	1.0104e-05	111.55	0.016311	0.022449	0.0062775	569.87	0.00022958	0.0002532	1015.7	208.99	0.00023362	0.00025954	447.58	192.3	97.561	43.204	0.00024636	110.86	125.735	-56.540	113.169	-92.121	52.600	78.394	-92.402	-87.992	-58.765	28.070	-88.406	-84.134	-84.608	-78.934	-74.021	-80.607	-8191	255	
22444.727	1	1	0	0	0.24944	0.096865	0.044213	0.12505	0.14987	0.11532	0.27514	0.17134	0.13651	0.23011	0.27936	0.19582	0.38176	0.099142	0.12913	0.35601	-2.4458	-2.5458	-2.6813	-2.6792	-2.525	-2.9521	-2.7521	-2.5792	-2.9479	-2.8187	-2.7208	-2.95	-2.5521	-2.8958	-2.7021	-2.6771	130.445	151.269	239.968	-86.049	107.496	113.899	249.882	241.986	92.141	75.243	181.489	239.380	85.379	110.916	124.376	199.847	0.00089999	0.0013888	0.00014193	517.06	1.472e-05	6.9863e-06	1011.9	195.49	2.0564e-05	2.1963e-05	438.33	188.14	79.677	40.415	1.5281e-05	110.9	0.017205	0.023667	0.0065643	578.21	0.00024028	0.00026626	1026.4	212.17	0.00024608	0.00027129	452.86	193.84	100.15	43.691	0.00026556	110.95	99.048	23.828	-10.343	-92.832	16.984	-43.099	-92.768	-88.231	-72.390	44.580	-88.872	-84.339	-84.248	-79.301	-27.356	-80.745	-8191	255	
22444.846	1	1	0	0	0.048722	0.18931	0.2406	0.28139	0.13982	0.13053	0.1235	0.032962	0.16681	0.37773	0.096429	0.18918	0.16257	0.17959	0.041462	0.31741	-2.3396	-2.6562	-2.6708	-2.9396	-2.6521	-2.7896	-2.725	-2.4854	-2.5896	-2.5625	-2.5833	-2.9125	-2.5854	-2.6625	-2.825	-2.6688	-5.207	208.191	182.427	-48.989	228.534	227.563	201.838	-36.056	137.648	5.338	64.758	-29.380	-93.547	25.147	146.030	171.684	0.0010331	0.0035361	0.00019827	525.21	5.769e-06	2.6786e-05	1023.7	199.46	3.4714e-05	1.7981e-05	436.92	188.09	79.935	39.885	1.187e-05	110.06	0.018671	0.025702	0.0071922	595.66	0.00026046	0.00028701	1040.7	217.89	0.00025608	0.00028062	456.05	193.89	100.05	43.337	0.00025955	110.05	108.349	-8.925	70.716	-93.107	-93.687	-10.714	-92.614	-88.269	-1.202	155.462	-88.884	-84.325	-84.159	-79.317	8.085	-80.862	-8191	255	
22444.941	1	1	0	0	0.10707	0.22385	0.16743	0.20494	0.1339	0.045468	0.21161	0.15577	0.1511	0.15999	0.18231	0.036224	0.062728	0.12733	0.15371	0.25835	-2.2104	-2.6312	-2.4417	-2.9542	-2.4042	-2.5854	-2.9	-2.6083	-2.7229	-2.5979	-2.725	-2.7917	-2.55	-2.4667	-2.7562	-2.7979	-28.631	215.293	6.747	188.950	-75.935	42.137	150.597	116.689	125.329	-104.471	192.017	144.422	78.648	169.448	101.108	209.389	0.00082299	0.0008589	0.00018894	522.8	1.9732e-05	6.7347e-06	1012.2	195.65	2.2131e-05	2.1868e-05	437.5	187.78	78.093	40.034	2.0989e-05	109.96	0.017724	0.02415	0.0067363	582.12	0.00024042	0.00026255	1021.6	211.53	0.00023861	0.00026576	450.6	192.56	98.555	43.16	0.00025965	110.26	105.393	-6.627	65.891	-91.954	212.307	-41.516	-93.056	-88.442	-39.971	48.986	-88.778	-84.281	-84.360	-79.324	126.233	-80.681	-8191	255	
22445.037	1	1	0	0	0.30584	0.12129	0.18038	0.075244	0.098318	0.11817	0.22308	0.15777	0.1115	0.3823	0.1967	0.3143	0.14391	0.056228	0.15051	0.15911	-2.5062	-2.7604	-2.4479	-3	-2.6979	-2.7521	-3.0354	-2.6063	-2.5812	-2.6854	-2.7396	-2.9375	-2.775	-2.6333	-2.8271	-2.8917	105.176	-68.675	97.182	89.935	191.073	-98.163	244.865	223.902	253.123	197.316	33.840	211.980	-77.944	152.053	216.457	-76.124	0.00065141	0.00129	0.00078327	531.86	1.9918e-05	1.955e-05	1037.6	204.07	1.1779e-05	1.8412e-05	448.87	192.15	82.456	40.176	2.3512e-05	110.65	0.018201	0.02552	0.0072028	599.23	0.00026333	0.00029211	1055.3	222.92	0.00026826	0.00029829	468.54	199.22	104.79	44.018	0.00028483	111.41	160.204	70.082	174.315	-92.479	43.037	11.608	-93.060	-88.754	134.164	71.125	-89.319	-84.886	-85.149	-79.304	77.727	-80.525	-8191	255	
22445.135	1	1	0	0	0.14406	0.29632	0.13234	0.17924	0.26593	0.19583	0.35181	0.12155	0.18157	0.26463	0.26363	0.25229	0.12719	0.25262	0.29111	0.31593	-2.0917	-2.7	-2.5021	-2.8521	-2.7188	-2.6708	-2.8333	-2.5708	-2.65	-2.8937	-2.5563	-2.9208	-2.7896	-2.5021	-2.875	-2.6437	164.852	91.133	107.466	38.594	-29.145	41.069	108.056	119.375	24.268	-77.770	220.135	148.570	36.198	-78.863	-70.019	221.786	0.0013278	0.003172	0.00061626	528.93	6.133e-06	2.0088e-05	1028.5	201.23	1.2023e-05	1.8497e-05	441.19	187.7	80.427	39.562	1.5064e-05	109.05	0.019414	0.026653	0.0074675	602.76	0.00026223	0.00029048	1044.3	219.15	0.00025363	0.00027837	458.33	193.64	100.37	42.738	0.00025859	109.12	113.810	67.326	39.348	-92.350	158.035	56.905	-92.555	-88.421	199.038	14.368	-88.541	-84.625	-84.341	-79.090	127.756	-80.870	-8191	255	
22445.230	1	1	0	0	0.15171	0.083868	0.17366	0.17915	0.026843	0.053978	0.25657	0.3182	0.092612	0.30136	0.11622	0.24052	0.091823	0.11954	0.069284	0.31073	-2.3312	-2.6146	-2.3771	-2.8	-2.6	-2.5604	-2.8604	-2.6188	-2.6917	-2.8312	-2.6479	-2.8812	-2.6271	-2.5208	-2.9062	-2.8	119.013	120.745	43.529	-29.560	243.613	96.053	224.773	173.551	149.196	-87.747	194.343	-71.978	222.914	-34.922	-9.912	175.099	0.001175	0.00041619	0.00016821	521.29	1.3393e-05	9.9995e-06	1019.2	197.98	1.3078e-05	7.0982e-06	438.6	186.7	80.063	39.656	1.479e-05	110.16	0.017764	0.024636	0.0069099	584.85	0.00024632	0.00027098	1031.2	213.96	0.00024176	0.0002661	452.47	193.02	99.203	42.786	0.00025564	109.59	135.593	-15.616	20.665	-92.662	-85.767	110.895	-92.540	-88.649	215.612	63.065	-88.615	-84.366	-84.545	-79.527	-22.428	-80.498	-8191	255	
22445.326	1	1	0	0	0.27273	0.1146	0.22627	0.22924	0.089502	0.19294	0.18307	0.11398	0.092463	0.042671	0.027293	0.21826	0.11515	0.091742	0.25641	0.23737	-2.0667	-2.8042	-2.6771	-2.9167	-2.8042	-2.6875	-2.9958	-2.5833	-2.7708	-2.8333	-2.8125	-2.8854	-2.8	-2.6188	-3.0271	-2.8021	-91.387	106.051	219.658	67.361	37.608	-9.815	178.295	-85.639	-52.596	-55.461	-92.333	218.095	202.341	184.664	42.194	212.464	0.0012076	0.00078743	0.00024287	525.78	2.1638e-05	5.4472e-06	1028.3	198.78	2.1287e-05	5.9212e-06	445.64	189.6	80.585	39.571	1.2778e-05	109.9	0.017794	0.024994	0.0069306	591.25	0.00025169	0.00027916	1042.1	217.16	0.00025131	0.0002795	460.15	195.1	101.01	43.181	0.00026305	110.2	142.310	10.378	155.176	-92.602	-52.909	-43.602	-92.742	-88.696	-56.396	204.693	-88.944	-84.874	-84.655	-78.613	-57.379	-80.822	-8191	255	
22445.424	1	1	0	0	0.25922	0.11752	0.12886	0.088945	0.09374	0.062808	0.1352	0.2095	0.22321	0.27194	0.09478	0.18679	0.092217	0.12504	0.18063	0.34366	-2.0229	-2.9104	-2.6833	-2.5979	-2.8479	-2.7896	-2.9479	-2.75	-2.6542	-2.9875	-2.7583	-2.6833	-2.7292	-2.5625	-2.8396	-2.8167	-102.740	209.038	114.767	37.720	-75.324	164.336	160.980	-10.266	14.391	186.474	-8.713	182.725	144.956	114.212	60.050	203.531	0.0010109	0.00049124	0.00017993	532.48	2.206e-05	3.7973e-06	1035.3	203	1.8019e-05	1.5011e-05	450.38	190.77	81.668	39.761	2.564e-06	110.47	0.018206	0.025491	0.0070814	597.51	0.00025698	0.00028737	1051.7	221.21	0.00026203	0.00029039	466.26	197.57	103.37	43.565	0.00027216	110.63	114.040	38.367	-40.777	-92.923	139.859	243.385	-92.910	-88.207	-78.566	91.775	-89.088	-84.373	-84.657	-79.278	252.287	-80.486	-8191	255	
22445.543	1	1	0	0	0.25821	0.12843	0.16949	0.061239	0.090803	0.23742	0.11905	0.11206	0.21947	0.10446	0.063913	0.16499	0.052551	0.11755	0.18643	0.29304	-2.3542	-2.95	-2.4146	-2.8896	-2.7771	-2.7	-2.8875	-2.8187	-2.6396	-2.7917	-2.8167	-2.6958	-2.8083	-2.6958	-2.7396	-3.1354	116.839	70.348	-44.646	220.061	138.524	171.986	109.193	151.722	201.476	-96.157	218.679	-61.380	83.799	-26.920	81.360	241.435	0.0010657	0.0021871	0.00025012	534.41	2.2999e-05	2.4541e-05	1038.6	202.71	1.6049e-05	6.0998e-06	445.57	190.04	80.654	39.668	3.7036e-06	109.3	0.018842	0.026082	0.0071928	601.95	0.0002603	0.00028447	1049.6	220.08	0.00025683	0.00028331	461.96	195.77	101.82	43.122	0.00026467	109.48	98.992	-26.853	150.456	-92.439	216.170	28.625	-92.834	-88.940	-16.606	-8.801	-88.517	-84.295	-84.693	-78.825	2.668	-80.559	-8191	255	
22445.639	1	1	0	0	0.32912	0.22024	0.034377	0.052339	0.22778	0.13549	0.11611	0.094499	0.20817	0.16794	0.1739	0.11036	0.046611	0.10602	0.21216	0.14728	-2.0979	-2.9062	-2.7021	-2.7438	-2.7583	-2.6771	-2.9917	-2.7521	-2.2667	-2.9042	-2.8042	-2.5146	-2.8187	-2.5354	-2.7208	-2.95	-43.430	-20.482	-97.123	54.382	184.814	191.218	75.872	138.734	9.775	-6.668	208.077	67.700	92.374	-70.396	103.693	139.537	0.0011058	0.0020762	0.00028698	529.65	2.0453e-05	3.0878e-05	1034.9	201.75	7.512e-06	1.4178e-05	445.54	188.98	81.051	39.533	7.2559e-06	108.94	0.018484	0.025781	0.007103	599.76	0.00026002	0.00028661	1049.1	219.88	0.00025586	0.00028373	461.13	195.3	102.4	42.938	0.00026741	109.61	135.884	-1.511	200.010	-92.634	237.293	45.890	-92.666	-88.597	7.299	230.147	-88.984	-84.817	-84.570	-79.297	22.335	-80.706	-8191	255	
22445.734	1	1	0	0	0.41638	0.14972	0.14793	0.20123	0.12611	0.15003	0.13701	0.098266	0.24227	0.49159	0.19307	0.27914	0.10965	0.20379	0.18844	0.19523	-2.1042	-2.8104	-2.6708	-2.625	-2.8833	-2.7271	-2.8667	-2.9208	-2.5521	-2.9688	-2.8063	-2.6625	-2.7521	-2.5854	-2.5292	-2.9021	12.099	102.291	189.525	230.997	184.206	-85.196	66.026	219.176	-47.396	43.744	245.689	-83.427	71.089	215.414	0.849	199.654	0.0010827	0.0013261	0.00058087	530.91	1.181e-05	3.41e-05	1036.5	203.3	3.2315e-05	7.9402e-06	448.87	191.58	82.265	39.802	1.242e-05	110	0.018621	0.025455	0.0071786	601.22	0.00026238	0.00028831	1053.9	221.59	0.00026679	0.00029168	466.97	197.1	103.8	43.391	0.00027362	110.31	150.518	140.509	-80.743	-92.814	30.319	-69.638	-92.865	-88.676	-86.120	-38.508	-88.789	-84.759	-85.425	-79.107	-59.294	-80.600	-8191	255	
22445.830	1	1	0	0	0.25316	0.19974	0.12292	0.13167	0.19688	0.16133	0.18353	0.28826	0.020446	0.20813	0.29954	0.33805	0.10533	0.30983	0.10217	0.1842	-2.2917	-2.8146	-2.8083	-2.5208	-2.9396	-2.6625	-2.7229	-2.9458	-2.6396	-2.8583	-2.8271	-2.5208	-2.8396	-2.6125	-2.5812	-2.9042	-54.126	-96.132	19.276	-49.268	249.557	229.595	-84.197	144.202	172.165	140.344	122.012	243.493	138.112	-28.183	1.145	233.034	0.00094008	0.0014071	0.00054955	533.88	1.8981e-05	2.3878e-05	1039.4	203.67	2.2507e-05	2.2518e-06	449.58	191.87	81.437	39.809	7.2136e-06	110.46	0.018905	0.026055	0.0073136	604.47	0.00026757	0.00029318	1058.9	222.74	0.00026856	0.00029483	469.1	198.82	104.51	43.651	0.00028084	111.24	136.444	124.447	74.415	-92.567	210.714	91.369	-92.597	-88.912	174.320	2.651	-89.263	-84.857	-85.117	-79.111	-38.335	-80.802	-8191	255	
22445.926	1	1	0	0	0.13819	0.11057	0.12558	0.078839	0.39399	0.18362	0.22444	0.14012	0.1179	0.12918	0.17184	0.093825	0.15622	0.3252	0.19882	0.13589	-1.9875	-2.7062	-2.8958	-2.6479	-2.9896	-2.8625	-2.5125	-2.9875	-2.7708	-2.675	-2.9417	-2.6688	-2.6813	-2.6958	-2.4104	-2.9854	196.490	33.835	167.805	-101.391	81.232	41.342	64.657	-29.697	111.515	-8.176	152.451	-100.270	35.267	243.089	-16.659	-67.723	0.0008258	0.0020733	0.00017155	536.11	1.444e-05	2.0356e-05	1037.2	204.83	1.3502e-05	1.6647e-05	450.27	193.57	82.116	39.736	1.1272e-05	110.15	0.019336	0.026886	0.0075314	608.78	0.00027152	0.00029979	1062.6	224.79	0.00027186	0.00029959	471.72	199.72	105.89	43.808	0.00029364	111.36	99.930	-9.214	136.667	-92.410	14.324	64.066	-92.519	-88.434	33.914	215.456	-89.030	-84.981	-85.116	-79.363	-65.391	-80.637	-8191	255	
22446.021	1	1	0	0	0.098278	0.17095	0.14555	0.20351	0.052631	0.20748	0.15356	0.12365	0.23666	0.052648	0.26414	0.18377	0.087755	0.14481	0.33048	0.087153	-2.2875	-2.4979	-2.8271	-2.6167	-2.8146	-2.8396	-2.6417	-2.8438	-2.6833	-2.6979	-2.9083	-2.6854	-2.6958	-2.7812	-2.4313	-2.8917	20.578	223.758	24.478	25.258	141.491	159.971	169.377	150.262	-105.100	172.282	186.747	-86.796	44.604	-84.274	192.885	-42.161	0.0012319	0.0022855	0.00052805	540.06	1.6134e-05	2.3161e-05	1048	208.77	2.5447e-05	2.5269e-05	454.99	193.88	84.289	40.03	6.3967e-06	111.11	0.020786	0.028943	0.0082166	626.2	0.00029734	0.0003265	1084.7	231.51	0.00029555	0.00032219	480.63	202.56	108.54	44.366	0.00030143	112.26	98.795	56.093	170.532	-92.624	9.107	88.887	-92.881	-88.552	-34.293	45.757	-89.195	-84.730	-84.640	-79.228	113.831	-80.289	-8191	255	
22446.143	1	1	0	0	0.16206	0.1643	0.19825	0.18451	0.40461	0.25304	0.1455	0.081946	0.23891	0.11701	0.30618	0.20916	0.10944	0.13361	0.084365	0.29687	-2.2708	-2.7042	-2.8292	-2.6667	-2.6375	-2.75	-2.6625	-3.0187	-2.8	-2.5917	-3.1417	-2.8667	-2.8729	-2.9417	-2.5604	-2.8167	82.869	62.743	-34.440	228.000	-21.019	131.925	-55.660	-79.968	222.939	138.493	240.156	-54.485	-4.725	177.790	190.633	229.971	0.0011136	0.00049958	0.00037578	541.98	2.2222e-05	2.9916e-05	1046.4	207.53	1.8795e-05	1.6305e-05	454.2	194.67	84.315	40.255	2.828e-05	110.4	0.020792	0.028794	0.0080522	621.38	0.00028623	0.00031784	1079.2	229.2	0.00028438	0.0003161	479.78	203.21	108.45	44.178	0.00029119	111.67	148.163	250.338	-62.076	-92.265	-87.161	149.901	-92.967	-88.810	159.099	-77.439	-88.723	-84.917	-85.449	-79.794	243.542	-80.398	-8191	255	
22446.238	1	1	0	0	0.14113	0.25469	0.21497	0.12724	0.060066	0.090587	0.29901	0.23556	0.29372	0.30745	0.075258	0.21867	0.42988	0.14495	0.22823	0.018401	-2.2646	-2.6729	-2.7271	-2.7562	-2.7021	-2.9562	-2.7104	-2.8937	-2.7833	-2.6937	-3.0563	-2.7979	-2.7521	-2.8625	-2.5708	-3.0354	175.813	3.539	242.745	175.641	126.519	-52.929	159.117	226.325	169.016	119.705	105.288	188.926	252.867	-40.567	185.321	110.487	0.00096742	0.0027248	0.00045376	546.6	6.146e-06	1.4927e-05	1057.4	211.14	1.2984e-05	1.356e-05	462.43	196.74	85.969	39.964	1.3696e-05	110.81	0.02017	0.027857	0.0077044	621.51	0.00028005	0.00030791	1077.2	229.82	0.0002753	0.0003056	481.24	204.27	110.39	44.659	0.00031953	113.53	133.618	57.421	144.444	-93.018	74.043	-22.631	-92.760	-88.661	243.428	180.214	-89.039	-85.298	-85.338	-79.120	94.770	-80.593	-8191	255	
22446.336	1	1	0	0	0.16076	0.10164	0.29094	0.28022	0.11207	0.10628	0.29069	0.093512	0.16703	0.18	0.071747	0.19529	0.20589	0.19519	0.2388	0.12225	-2.5292	-2.5563	-2.6271	-2.8021	-2.8563	-3.0229	-2.5896	-2.7042	-2.7417	-2.6333	-2.925	-2.8917	-2.6437	-2.8604	-2.7083	-3.0125	72.062	-32.274	246.324	-30.025	-1.222	7.194	162.737	-56.897	44.849	25.405	230.041	196.312	246.319	-74.504	12.993	154.181	0.0012375	0.0011049	0.00040655	537.36	2.9972e-05	1.3808e-05	1050.2	210.19	9.5135e-06	1.699e-05	459.69	195.48	86.36	39.756	2.6762e-06	109.21	0.023493	0.033585	0.009802	655.74	0.00037039	0.000418	1128.4	244.95	0.0003792	0.00041801	504.03	212.18	119.08	46.415	0.00037805	114.11	131.760	-32.600	100.554	-92.734	81.942	-21.893	-93.016	-88.299	94.587	-31.971	-89.027	-85.023	-85.555	-79.344	-75.301	-80.343	-8191	255	
22446.430	1	1	0	0	0.18151	0.23794	0.14353	0.17543	0.12361	0.20707	0.13476	0.22981	0.10784	0.15674	0.032458	0.18936	0.14671	0.1088	0.095832	0.14626	-2.4437	-2.7104	-2.7083	-2.7979	-2.7208	-2.8208	-2.7396	-2.9479	-2.9396	-2.5396	-2.8875	-3.0083	-2.5958	-2.9979	-2.5417	-2.8812	-55.002	125.907	151.278	251.680	184.491	206.542	196.663	185.293	-98.692	-69.661	-53.990	216.246	171.463	-50.969	31.208	243.640	0.0011035	0.0018325	0.0002809	538.05	9.5082e-06	2.3439e-05	1047.2	207.4	2.017e-05	1.3323e-05	453.35	192.5	83.418	39.91	6.72e-06	110.07	0.025646	0.035475	0.0097438	648.93	0.00034531	0.00037741	1097.8	234.94	0.000328	0.00035778	484.57	204.28	111.02	45.174	0.00032879	112.91	121.307	-2.446	-12.464	-92.673	-61.666	96.917	-93.036	-88.529	-41.911	-42.352	-88.881	-84.843	-85.644	-79.145	206.101	-80.534	-8191	255	
22446.525	1	1	0	0	0.078212	0.22925	0.07211	0.1226	0.27541	0.21712	0.21771	0.14581	0.24268	0.3541	0.20215	0.093503	0.378	0.22553	0.30354	0.17161	-2.5292	-2.6729	-2.8167	-2.7792	-2.5542	-3.0229	-2.7917	-2.7354	-2.925	-2.4979	-2.7354	-2.8125	-2.5167	-2.9375	-2.5187	-2.8312	152.755	149.914	-55.791	176.224	33.958	192.310	202.134	181.953	-64.919	88.480	220.589	12.955	211.058	235.559	62.540	225.643	0.0012864	0.0019971	0.00038789	540.06	1.6587e-05	4.7218e-06	1053.3	206.9	1.6701e-05	1.6891e-05	457.3	193.93	83.651	39.879	2.2035e-05	110.09	0.022512	0.031426	0.0086975	634.9	0.00031879	0.00034962	1094.6	233.43	0.00030856	0.00033884	481.9	202.95	108.57	44.247	0.0003055	111.91	104.557	64.081	87.297	-93.031	55.863	-7.242	-92.887	-89.080	74.286	196.836	-88.972	-84.504	-84.938	-79.309	73.862	-80.547	-8191	255	
22446.621	1	1	0	0	0.3413	0.1801	0.20399	0.092297	0.20969	0.086876	0.2744	0.17923	0.21601	0.31285	0.20267	0.048599	0.071248	0.13716	0.17679	0.14127	-2.5125	-2.375	-2.8583	-2.85	-2.5083	-2.7896	-2.8104	-2.75	-2.9542	-2.4688	-2.9792	-2.9292	-2.4979	-2.8354	-2.5875	-2.9417	192.520	130.706	26.190	-72.491	157.355	13.593	-80.120	172.758	-64.389	230.139	210.040	-68.886	130.293	242.126	5.434	-86.697	0.00086502	0.0014173	0.00071688	536.32	3.7725e-05	2.5098e-05	1048	206.08	1.716e-05	6.6643e-06	458.14	194.35	83.293	39.827	6.3446e-06	110.73	0.020952	0.029053	0.0080924	620.65	0.0002937	0.00032587	1079	229.66	0.00029444	0.00032377	482.13	203.42	109.12	44.22	0.0002998	111.99	136.779	-46.540	7.702	-92.657	19.275	30.312	-92.830	-88.564	48.491	7.022	-88.885	-84.829	-85.092	-79.212	-26.971	-80.810	-8191	255	
22446.719	1	1	0	0	0.093724	0.23271	0.15625	0.05249	0.35331	0.070081	0.16418	0.12211	0.18904	0.14076	0.2038	0.15263	0.10068	0.40383	0.10443	0.15853	-2.4167	-2.4667	-2.5792	-2.7812	-2.5438	-2.8458	-2.7646	-2.4104	-2.7625	-2.8521	-2.7188	-3.0021	-2.5958	-2.8104	-2.8937	-2.7229	140.589	28.377	169.895	88.253	226.331	-70.633	197.917	231.416	183.540	-29.941	139.102	207.549	22.091	159.176	-103.969	175.563	0.00055565	0.0026471	0.00047056	537.9	2.4371e-05	9.2931e-06	1048.2	207.67	1.7792e-05	1.8613e-05	456.23	195.68	84.536	39.473	8.4588e-06	109.43	0.020721	0.028396	0.0078537	618.74	0.00028137	0.00030944	1073.4	228.23	0.00028077	0.00030567	478.37	202.05	107.71	43.481	0.00028013	110.32	129.016	-45.032	40.361	-92.796	42.695	33.308	-92.749	-88.703	97.403	99.669	-89.280	-85.224	-85.356	-79.408	-24.885	-80.589	-8191	255	
22446.814	1	1	0	0	0.1327	0.1103	0.092033	0.19849	0.10765	0.14967	0.18797	0.35897	0.073191	0.14572	0.18904	0.09242	0.35097	0.092128	0.030163	0.11045	-2.5062	-2.4896	-2.5896	-2.8292	-2.5104	-2.9	-2.9771	-2.4042	-2.8521	-2.5771	-2.8292	-2.9188	-2.6542	-2.75	-2.775	-2.6604	32.191	-88.256	-101.957	230.116	63.889	238.625	-94.913	-65.025	-78.834	-104.061	142.928	176.258	247.239	191.183	-69.001	-75.263	0.0012553	0.001582	0.00016747	542.89	1.3799e-05	2.07e-05	1044.2	209.05	2.7814e-06	4.6211e-06	455.24	194.06	85.216	39.654	1.1506e-06	109.05	0.019429	0.026698	0.0074343	610.83	0.00026745	0.00029296	1060.9	226.13	0.0002615	0.00028635	472.65	199.58	105.93	43.157	0.00027556	109.75	142.054	138.496	-5.488	-92.547	0.669	145.567	-92.725	-89.564	4.029	75.429	-89.055	-84.917	-85.631	-78.969	213.421	-80.682	-8191	255	
22446.936	1	1	0	0	0.075145	0.19167	0.046955	0.12158	0.26826	0.09538	0.28704	0.055526	0.21567	0.089513	0.15493	0.08397	0.21685	0.07399	0.152	0.29269	-2.35	-2.6771	-2.5542	-2.95	-2.8146	-2.7125	-2.9271	-2.5563	-2.7479	-2.7958	-2.6562	-3.025	-2.6896	-2.9604	-2.6854	-2.5667	155.383	221.225	241.824	-15.819	-7.150	17.398	179.703	-15.291	75.805	81.049	60.435	148.991	241.553	249.828	-18.526	-105.853	0.0015983	0.00088292	0.00086942	541.19	5.7775e-06	1.5659e-05	1057.6	209.96	5.7545e-06	1.8979e-05	456.83	195.74	85.866	39.332	2.4054e-05	110.08	0.019199	0.026664	0.0074444	615.05	0.00027015	0.00029719	1073.4	228.48	0.00026988	0.00029687	477.09	202.34	108.51	43.344	0.00028586	110.64	105.250	-78.843	3.723	-92.824	22.635	83.499	-92.813	-89.071	178.136	-64.326	-89.542	-85.117	-85.719	-79.110	60.923	-80.589	-8191	255	
22447.031	1	1	0	0	0.13797	0.15351	0.091538	0.10689	0.16439	0.13973	0.082606	0.10011	0.098583	0.10377	0.18786	0.22691	0.084446	0.3163	0.19701	0.15631	-2.4396	-2.575	-2.4896	-2.9625	-2.7313	-2.7562	-2.975	-2.5125	-2.7146	-2.8125	-2.5792	-2.9458	-2.6354	-2.6167	-2.8563	-2.8563	-51.365	-6.506	226.836	141.063	139.525	-62.625	-72.319	167.803	109.288	144.281	248.165	114.732	235.403	-84.671	74.798	148.662	0.0011014	0.0026724	0.00040864	543.66	2.5458e-05	2.2495e-05	1053.2	211.11	6.8529e-06	3.0498e-06	459.07	194.39	85.828	39.107	1.0687e-05	108.48	0.019932	0.027301	0.007678	618.96	0.00027577	0.00030235	1075.5	229.39	0.00027104	0.00029785	477.63	201.72	107.73	43.128	0.00028074	109.85	109.250	228.027	61.658	-92.572	-10.780	-87.698	-92.776	-89.024	27.377	75.132	-89.459	-84.951	-85.895	-79.444	-56.449	-80.632	-8191	255	
22447.104	1	1	0	0	0.19272	0.19404	0.13349	0.27631	0.15408	0.28302	0.2231	0.48851	0.11796	0.12287	0.23808	0.18475	0.12293	0.059052	0.045238	0.034233	-2.3458	-2.7208	-2.5938	-2.8063	-2.7375	-2.7167	-2.9521	-2.8417	-2.8667	-2.7479	-2.7104	-2.9146	-2.8271	-2.825	-2.9917	-2.6354	147.347	147.998	76.730	-94.849	-57.314	51.824	180.406	218.220	84.986	135.599	15.302	-74.482	156.734	241.080	-59.679	30.932	0.001312	0.0015947	0.00048618	543.2	2.5741e-05	1.8338e-05	1054.1	207.6	1.7817e-05	1.9319e-05	458.83	192.86	85.388	39.272	1.1746e-05	108.52	0.019347	0.026771	0.0075102	613.76	0.00027027	0.00029762	1070.6	227.9	0.00027013	0.00029896	476.92	200.26	107.03	42.963	0.00027855	109.21	123.866	205.638	-47.634	-92.511	54.878	13.336	-92.903	-88.759	253.160	30.347	-88.800	-84.825	-85.774	-79.308	-10.363	-80.641	-8191	255	
22447.223	1	1	0	0	0.16744	0.12324	0.24238	0.14948	0.1646	0.18765	0.46668	0.36734	0.034693	0.061464	0.13201	0.18917	0.051539	0.18073	0.16673	0.29934	-2.4188	-2.8229	-2.6208	-2.85	-2.7083	-2.6333	-3.0083	-2.5771	-2.7062	-2.8917	-2.5646	-2.9292	-2.9604	-2.5958	-2.8854	-2.8896	44.146	147.460	-77.649	165.970	80.922	109.633	139.168	209.577	235.582	35.535	225.781	-93.497	146.878	159.828	62.453	246.521	0.0011622	0.0012119	0.00014577	537.79	1.2619e-05	2.5304e-05	1041.3	206.6	9.8251e-06	2.2224e-05	453.39	191.41	82.568	38.862	1.9713e-05	108.08	0.019063	0.02644	0.0073476	606.97	0.00026293	0.00028814	1060.3	224.8	0.00025778	0.00028414	468.56	196.74	103.4	42.328	0.00026513	108.3	135.606	-12.078	-69.951	-92.424	137.192	-13.656	-92.871	-89.133	229.731	-106.947	-89.312	-84.868	-85.720	-79.586	-68.886	-80.599	-8191	255	
22447.318	1	1	0	0	0.035085	0.068558	0.23695	0.34189	0.24838	0.2417	0.23253	0.18501	0.073473	0.14285	0.12037	0.2536	0.23931	0.042345	0.16276	0.088632	-2.2771	-2.8646	-2.6979	-2.7667	-2.8042	-2.5146	-2.8979	-2.6917	-2.6	-3.0333	-2.6813	-2.8146	-2.8146	-2.775	-2.9562	-2.9188	48.410	103.035	18.807	205.498	209.833	114.666	130.498	216.569	25.285	104.390	163.875	-100.989	168.599	220.180	84.110	115.014	0.001521	0.0020101	0.00020518	535.95	2.9992e-05	4.791e-05	1046.9	207.51	1.3625e-05	1.441e-05	458.58	192.46	84.668	39.337	1.2554e-05	109.48	0.018208	0.025337	0.007143	603.24	0.00025923	0.00028733	1060.5	224.77	0.00026216	0.0002926	473.92	199.13	106	43.033	0.00027661	109.95	118.220	-71.436	42.007	-93.070	13.981	5.901	-93.099	-89.050	35.210	33.457	-89.513	-85.043	-85.470	-79.370	2.880	-80.773	-8191	255	
22447.416	1	1	0	0	0.2833	0.04665	0.27542	0.1638	0.062535	0.17761	0.091957	0.13024	0.056034	0.06419	0.22924	0.28972	0.15114	0.13506	0.26135	0.10278	-2.3771	-2.9375	-2.5208	-2.7708	-2.825	-2.625	-3.0062	-2.7667	-2.5687	-2.9542	-2.475	-2.9437	-2.8875	-2.6583	-2.6437	-2.95	130.086	77.581	-6.932	-91.873	-96.535	171.070	222.676	114.952	-57.054	86.979	200.969	231.174	50.059	-41.222	20.188	32.800	0.00141	0.0021963	0.00059124	539.59	2.4264e-05	2.7917e-05	1050.3	206.59	9.8391e-06	1.4894e-05	456.35	192.27	83.506	39.168	1.2212e-05	109.21	0.019223	0.026384	0.0073935	608.87	0.0002673	0.00029289	1063.1	225.18	0.00026102	0.00028891	471.56	199.05	105.03	42.83	0.00027138	109.93	141.064	47.570	124.161	-92.463	158.839	39.744	-92.761	-88.970	126.983	-61.473	-89.119	-84.424	-85.814	-79.034	135.813	-80.790	-8191	255	
22447.533	1	1	0	0	0.17561	0.11552	0.19656	0.37265	0.073396	0.12659	0.23276	0.2582	0.06948	0.15237	0.19797	0.016752	0.14409	0.060788	0.069053	0.28073	-2.0312	-2.8292	-2.5563	-2.5604	-2.75	-2.7604	-2.7042	-2.7188	-2.5292	-2.7042	-2.7625	-2.9208	-2.9646	-2.6813	-2.95	-2.9	153.919	231.753	59.525	217.947	146.403	-74.754	9.629	110.695	58.941	241.848	193.369	21.518	33.897	24.884	-25.132	182.749	0.0008216	0.001279	0.00067345	535.92	7.4778e-06	7.1651e-06	1045.4	205.65	1.7023e-05	7.8165e-06	454.58	191.45	82.424	38.985	8.7725e-06	108.4	0.018696	0.025919	0.0072279	605.45	0.00026241	0.00028982	1061	223.87	0.00026123	0.00028665	468.45	197.39	103.64	42.603	0.00026333	108.81	113.020	29.842	51.868	-92.577	-57.533	1.028	-92.610	-88.878	-11.512	-42.510	-89.185	-84.959	-85.162	-79.430	50.981	-80.851	-8191	255	
22447.631	1	1	0	0	0.28515	0.059489	0.026917	0.21354	0.14474	0.093874	0.12505	0.20329	0.064584	0.09158	0.2305	0.31657	0.16214	0.28641	0.037711	0.15922	-2.1458	-2.7938	-2.6604	-2.4813	-2.9062	-2.4625	-2.8271	-2.8479	-2.5208	-2.8917	-2.7375	-2.6	-2.8479	-2.5917	-2.7625	-2.9271	99.577	94.178	139.724	231.782	178.175	83.871	167.834	183.748	238.487	36.236	235.690	185.277	-78.971	186.462	-46.750	174.363	0.0015757	0.0015289	0.00027274	531.81	3.8584e-06	1.6908e-05	1038.6	206.59	1.7614e-05	4.8979e-06	454.77	192.85	84.467	39.627	1.6508e-05	109.82	0.018289	0.02546	0.0071223	598.09	0.00025743	0.00028812	1058.5	224.76	0.00026374	0.00029249	472.9	199.95	106.55	43.151	0.00027934	110.22	121.670	187.426	3.373	-92.840	-94.770	120.799	-93.264	-89.006	54.902	-88.449	-89.300	-85.082	-85.872	-79.291	124.576	-80.756	-8191	255	
22447.701	1	1	0	0	0.20854	0.37736	0.3146	0.066492	0.23423	0.23017	0.13762	0.23662	0.1917	0.22248	0.16152	0.057671	0.10421	0.35412	0.10746	0.16602	-2.0375	-2.7062	-2.6188	-2.5792	-2.8792	-2.5979	-2.5896	-2.825	-2.55	-2.7708	-2.8563	-2.5583	-3.0521	-2.6583	-2.55	-2.8083	59.608	-16.870	125.260	200.133	-43.044	-104.546	157.247	-104.261	142.255	-69.484	-89.116	184.584	137.708	35.236	-69.086	148.753	0.0012836	0.0025139	0.00064491	537.64	5.0406e-05	2.6233e-05	1041.6	205.72	2.5899e-05	7.9991e-06	457.77	192.74	83.463	39.138	1.7775e-05	109.41	0.019349	0.026564	0.0073929	605.67	0.00026329	0.00029046	1058.4	223.53	0.00026128	0.00028623	470.73	198.86	104.62	42.755	0.00026823	109.8	125.514	-64.559	18.099	-93.039	107.042	13.977	-92.754	-88.648	74.351	-44.508	-89.222	-85.037	-85.996	-79.446	-52.579	-80.482	-8191	255	
22447.799	1	1	0	0	0.22696	0.35036	0.30966	0.1152	0.13122	0.11728	0.14106	0.20785	0.33506	0.06648	0.3299	0.16724	0.36016	0.095668	0.18313	0.36674	-1.9562	-2.4938	-2.5979	-2.6042	-2.7042	-2.4896	-2.5958	-2.8521	-2.3542	-2.6208	-2.6708	-2.5125	-2.6583	-2.5833	-2.4896	-2.9375	126.229	201.898	40.046	-7.188	57.995	-25.494	-85.787	232.739	104.435	117.946	-76.771	169.150	170.636	-11.359	176.379	235.009	0.00087383	0.0024644	0.00040546	537.77	2.039e-05	3.1316e-06	1049.6	206.98	1.6645e-05	1.3749e-05	453.02	192.34	83.731	39.39	4.6474e-06	110.8	0.018674	0.025667	0.0072144	604.73	0.00026311	0.00028617	1061.6	224.58	0.00026316	0.00028707	470.98	199.11	104.95	42.913	0.00026655	110.46	111.245	-14.976	251.733	-92.555	50.369	101.309	-92.877	-88.844	-69.720	86.185	-88.738	-84.298	-85.420	-79.214	-5.101	-80.755	-8191	255	
22447.920	1	1	0	0	0.25277	0.039025	0.16182	0.15483	0.30084	0.11035	0.18689	0.10873	0.31219	0.13411	0.10904	0.28228	0.061221	0.2498	0.13052	0.10954	-1.8979	-2.4521	-2.6042	-2.3521	-2.5646	-2.6562	-2.4688	-2.6	-2.4604	-2.5333	-2.6896	-2.4854	-2.6104	-2.4542	-2.4479	-2.8	225.950	-29.592	172.053	133.425	-12.769	-34.510	161.732	211.699	231.733	99.333	179.904	173.738	228.759	223.174	-96.035	-104.430	0.0012701	0.00064055	0.00017092	533.24	2.0145e-05	1.4869e-05	1043.8	204.9	1.8475e-05	1.9362e-05	449.19	191.61	82.527	38.85	1.0043e-05	109.33	0.018477	0.02564	0.0070936	601.24	0.00025805	0.00028256	1057.4	222.09	0.00025426	0.00027823	465.93	197.35	103.09	42.503	0.00026053	109.29	132.194	-27.909	-26.042	-92.836	161.096	111.717	-93.061	-88.419	31.527	25.622	-88.714	-84.709	-85.285	-79.185	20.574	-80.775	-8191	255	
22448.016	1	1	0	0	0.29495	0.21414	0.1274	0.10863	0.16212	0.1678	0.13407	0.044445	0.079989	0.090396	0.090653	0.041121	0.22647	0.3485	0.15522	0.1603	-2.0708	-2.4167	-2.6625	-2.4375	-2.7208	-2.4417	-2.5396	-2.7208	-2.3875	-2.4375	-2.7729	-2.5333	-2.4458	-2.5917	-2.425	-2.8646	149.518	249.734	-70.044	-49.962	22.826	124.582	148.222	-15.963	-23.563	227.880	242.750	238.305	170.730	-98.957	-72.145	-93.850	0.00097698	0.00049311	0.00017709	534.24	1.8639e-05	7.2657e-06	1035.3	205.57	2.0422e-05	3.0474e-05	451.68	191.74	83.608	39.226	3.0179e-05	109.76	0.017936	0.024957	0.0069978	597.48	0.00025367	0.00027993	1051.6	222.56	0.00025708	0.00028486	469.44	198.64	104.54	42.958	0.00027026	110.44	117.604	156.806	35.084	-92.852	124.914	217.886	-92.925	-88.765	-6.202	74.024	-88.922	-84.724	-84.688	-79.257	155.087	-80.483	-8191	255	
22448.111	1	1	0	0	0.040572	0.10585	0.16554	0.1521	0.13625	0.1041	0.1543	0.2944	0.11783	0.11854	0.07338	0.21305	0.024233	0.17645	0.084075	0.18644	-1.9875	-2.4562	-2.6229	-2.4417	-2.6104	-2.6667	-2.4271	-2.7625	-2.4104	-2.3875	-2.8187	-2.4792	-2.4458	-2.6771	-2.3271	-2.675	41.964	-60.143	-54.229	50.828	211.425	-94.576	180.467	201.299	-67.330	-56.378	177.867	241.276	-0.222	245.823	-45.913	-106.428	0.00068329	0.0015962	0.00022644	537.93	3.1417e-05	1.94e-05	1040.6	205.71	1.0666e-05	1.7669e-05	452.34	192.34	82.805	39.467	1.4442e-05	110.13	0.018908	0.025956	0.0073284	605.08	0.00026199	0.00028836	1059.4	223.65	0.00026091	0.000287	468.94	198.79	104.24	43.046	0.00027556	110.87	108.965	96.214	17.383	-92.383	-24.547	-51.356	-92.795	-89.082	9.622	22.543	-88.776	-85.065	-85.330	-79.310	37.319	-80.335	-8191	255	
22448.207	1	1	0	0	0.082424	0.1112	0.18755	0.11467	0.12301	0.15035	0.12427	0.061532	0.11728	0.27988	0.15004	0.34504	0.23586	0.098971	0.15318	0.28762	-1.9125	-2.3417	-2.6625	-2.6104	-2.6937	-2.7854	-2.4604	-2.675	-2.5875	-2.4396	-2.8271	-2.5854	-2.525	-2.7667	-2.5187	-2.7625	41.267	130.465	-50.759	-18.279	-60.886	196.390	153.588	181.477	174.760	50.476	143.731	245.520	-26.042	239.765	182.331	138.036	0.00087373	0.0011063	0.00096519	529.58	9.6714e-06	1.2497e-05	1046.7	204.99	1.6515e-05	2.2319e-05	452.5	193.23	82.477	39.185	1.8146e-05	110.81	0.019201	0.026602	0.0075215	606	0.000271	0.00030063	1066.6	225.18	0.00027868	0.00031201	476.15	201.74	107.9	44.091	0.00031221	112.54	143.765	229.587	182.263	-92.426	-36.252	188.093	-92.927	-88.492	246.932	226.805	-88.824	-85.083	-85.229	-79.474	18.716	-80.944	-8191	255	
22448.326	1	1	0	0	0.14037	0.11026	0.25142	0.20507	0.26696	0.12919	0.18246	0.060328	0.1238	0.22411	0.067856	0.23397	0.32805	0.11539	0.18829	0.22635	-2.2542	-2.4271	-2.6229	-2.3875	-2.475	-2.5917	-2.5125	-2.4583	-2.5208	-2.5146	-2.7021	-2.7333	-2.2687	-2.8937	-2.6042	-2.8375	87.825	95.486	215.959	-80.540	-105.863	-26.972	-102.409	22.568	225.220	184.422	81.602	244.666	-53.019	7.161	212.993	193.681	0.0011552	0.0034073	0.00073716	533.02	2.3418e-05	2.5468e-05	1036	202.29	3.0711e-05	1.8089e-05	450.14	192.87	83.456	39.405	9.3055e-06	109.62	0.021962	0.03075	0.0086779	629.24	0.00031963	0.00035696	1088.3	231.7	0.00033084	0.00036863	487.24	206.05	113.07	45.346	0.00036135	113.65	126.486	-56.272	19.286	-92.922	41.334	28.284	-92.902	-88.725	37.514	65.585	-89.129	-84.902	-85.328	-79.811	26.239	-80.821	-8191	255	
22448.400	1	1	0	0	0.074684	0.050652	0.068072	0.19389	0.14947	0.13792	0.1751	0.099374	0.075478	0.074577	0.20611	0.123	0.1672	0.1279	0.070474	0.24752	-2.1646	-2.3458	-2.6458	-2.6354	-2.5792	-2.8312	-2.7313	-2.5875	-2.6729	-2.575	-2.8271	-2.5646	-2.4625	-2.8875	-2.575	-2.5708	167.766	185.155	-26.565	157.128	123.911	-2.269	221.669	174.816	78.928	123.602	-71.716	72.351	226.866	180.073	187.087	96.371	0.00072778	0.0010419	0.00047161	534.51	2.7957e-05	3.6813e-05	1048.1	203.17	1.6579e-05	2.335e-05	452.57	192.27	83.234	39.52	1.5828e-05	110.16	0.025402	0.035693	0.0099533	651.11	0.00036066	0.00039495	1105.7	236.27	0.00034963	0.00039045	491.6	207.53	115.29	46.023	0.0003849	115.16	120.701	12.320	-10.346	-93.186	-14.815	202.007	-92.777	-88.976	-68.075	57.405	-88.919	-84.722	-84.837	-79.408	2.658	-80.757	-8191	255	
22448.496	1	1	0	0	0.13508	0.095123	0.028929	0.060309	0.14578	0.17127	0.069843	0.152	0.38278	0.37737	0.24175	0.20927	0.29387	0.15361	0.16686	0.16071	-2.3125	-2.4625	-2.575	-2.6396	-2.4	-2.8375	-2.7313	-2.6479	-2.7167	-2.4104	-2.6937	-2.6229	-2.5521	-2.6542	-2.5875	-2.6708	240.217	12.611	-0.852	17.153	124.844	200.897	-28.651	196.720	-15.772	101.634	221.970	-103.249	179.119	-80.640	159.460	241.439	0.00074782	0.0023526	0.00029229	533.08	1.7398e-05	2.8054e-05	1041.9	202.97	4.1648e-06	1.1623e-05	452.67	192.17	82.7	39.233	2.2859e-05	110.66	0.026851	0.037408	0.010451	656.13	0.00038288	0.00043055	1124.7	244.12	0.0004287	0.00049163	517.76	218.24	128.15	49.426	0.00050364	120.01	125.177	26.114	127.137	-92.342	-13.802	84.978	-92.649	-88.802	73.015	11.794	-89.106	-84.700	-84.392	-79.488	48.122	-80.612	-8191	255	
22448.615	1	1	0	0	0.094394	0.075916	0.1612	0.20829	0.11867	0.20024	0.19042	0.16689	0.075175	0.30997	0.15062	0.1633	0.17627	0.38668	0.20347	0.095403	-2.2208	-2.3104	-2.5729	-2.6625	-2.3854	-2.7208	-2.6292	-2.5229	-2.7438	-2.4375	-2.5458	-2.6354	-2.3042	-2.6104	-2.6729	-2.5958	32.349	30.012	100.905	208.467	47.170	-56.239	210.920	180.598	-48.081	61.510	79.081	102.358	-66.900	-72.950	-2.409	5.039	0.0012898	0.0032964	5.5622e-05	537.41	2.219e-05	9.0841e-06	1040.7	205.29	3.4084e-05	1.2558e-05	456.55	194	83.245	39.459	2.313e-05	111.78	0.035113	0.048939	0.01372	716.24	0.00050103	0.00055627	1176.9	260.44	0.00050819	0.00056175	533.23	223.72	132.43	50.204	0.0005247	121.17	97.120	134.296	109.482	-92.580	-99.169	133.194	-92.731	-88.970	-2.721	168.847	-88.962	-84.863	-85.414	-79.305	-39.513	-80.760	-8191	255	
22448.711	1	1	0	0	0.032781	0.28205	0.26996	0.13082	0.18733	0.23719	0.3302	0.17639	0.14746	0.077596	0.19608	0.16924	0.1008	0.12156	0.19183	0.19873	-2.2812	-2.5667	-2.5021	-2.7729	-2.5521	-2.675	-2.6167	-2.4167	-2.7604	-2.3958	-2.65	-2.6688	-2.4062	-2.7771	-2.4562	-2.5771	137.066	86.569	31.649	148.947	77.183	97.636	249.329	167.244	150.628	8.763	176.862	111.355	131.112	218.808	64.060	195.529	0.00063233	0.0016939	0.00055232	536.95	1.0199e-05	1.1653e-05	1043.4	203.99	1.8193e-05	4.4174e-05	454.95	192.62	80.691	39.28	1.4245e-05	110.71	0.036104	0.049999	0.013887	721.72	0.00050831	0.0005577	1175.5	258.97	0.00050135	0.00055056	527.52	221.07	129.87	49.673	0.00051383	119.98	134.958	68.375	17.630	-92.439	153.681	191.556	-92.960	-89.104	-61.992	82.677	-89.581	-84.911	-84.974	-79.365	-67.966	-80.613	-8191	255	
22448.807	1	1	0	0	0.29741	0.11175	0.15482	0.11455	0.13669	0.16501	0.048536	0.087919	0.15147	0.019873	0.2301	0.15421	0.1764	0.12392	0.38615	0.15029	-2.35	-2.575	-2.4688	-2.7562	-2.6125	-2.7375	-2.5917	-2.3604	-2.6021	-2.4437	-2.6417	-2.8542	-2.3187	-2.8021	-2.6021	-2.5771	133.565	220.557	-94.947	233.826	88.416	148.948	210.393	34.103	210.789	107.605	-78.750	190.513	10.421	233.314	108.025	201.317	0.000779	0.0037636	0.00071692	534.1	1.3905e-05	1.4189e-05	1042.2	203.13	1.335e-05	7.0821e-06	452.43	191.18	82.311	39.686	1.9699e-05	110.74	0.035572	0.049558	0.013824	717.97	0.00050364	0.00055448	1171.5	258.37	0.00050072	0.00054985	526.18	221.37	130.48	49.933	0.00051608	120.18	87.860	-23.656	-2.257	-93.214	152.172	178.943	-93.164	-88.725	53.519	-25.227	-88.965	-84.845	-84.843	-79.403	-47.297	-80.799	-8191	255	
22448.902	1	1	0	0	0.046696	0.15652	0.3058	0.099577	0.079218	0.061778	0.27828	0.22944	0.10958	0.23629	0.047814	0.068876	0.15173	0.13402	0.1246	0.30521	-2.2521	-2.5	-2.4396	-2.7854	-2.4125	-2.6771	-2.8	-2.5333	-2.6188	-2.6396	-2.3396	-2.7938	-2.5396	-2.6667	-2.6604	-2.5042	107.108	-87.194	-29.919	184.763	68.023	-103.145	130.473	86.372	-30.993	219.349	-87.699	247.498	185.031	2.047	183.747	207.333	0.0010297	0.0014534	0.00074712	532.92	3.455e-05	2.0128e-05	1035.7	204.51	1.6766e-05	1.0624e-05	453.51	192.81	81.966	39.959	3.217e-05	111.8	0.035603	0.049512	0.013784	719	0.00050304	0.00055292	1171.5	258.14	0.00050077	0.00054869	528.18	221.78	130.54	50.1	0.00051791	121.15	151.748	-35.006	-54.762	-92.710	58.682	-25.806	-92.571	-88.742	207.100	104.582	-89.287	-84.803	-85.204	-79.332	-24.935	-80.721	-8191	255	
22448.998	1	1	0	0	0.27026	0.13061	0.36618	0.26313	0.17007	0.14498	0.36764	0.26978	0.071452	0.24404	0.20058	0.068504	0.16631	0.41505	0.20376	0.23359	-2.1604	-2.4583	-2.2896	-2.7104	-2.5167	-2.4979	-2.8875	-2.6208	-2.5458	-2.6771	-2.3979	-2.75	-2.5229	-2.6104	-2.8229	-2.5146	148.131	97.767	206.514	203.604	-9.092	18.743	163.479	156.421	117.898	27.097	-7.570	-77.913	2.273	-78.746	74.200	27.202	0.0015472	0.0020305	0.00049193	536.87	4.1114e-05	6.5959e-06	1043.2	203.17	6.8599e-06	9.3179e-06	454.26	192.82	81.995	39.576	2.0629e-05	110.57	0.035678	0.049356	0.0137	717.38	0.00049451	0.00054256	1170.1	255.92	0.00048794	0.00053395	523.51	219.79	128.33	49.228	0.00049709	119.64	103.658	77.451	-84.211	-92.537	-2.900	128.553	-92.774	-88.779	55.903	8.978	-88.998	-84.583	-84.903	-79.014	82.654	-81.003	-8191	255	
22449.096	1	1	0	0	0.03039	0.075765	0.078647	0.1775	0.14387	0.29025	0.25528	0.11775	0.17834	0.15032	0.11172	0.20975	0.13119	0.31183	0.13196	0.0956	-2.2854	-2.6875	-2.2604	-2.7229	-2.6375	-2.5354	-2.9688	-2.4688	-2.7042	-2.8063	-2.5438	-2.75	-2.475	-2.4979	-2.9479	-2.5792	7.868	114.170	183.795	126.796	144.030	243.016	44.105	-58.578	45.323	140.411	228.670	214.055	106.565	123.507	60.390	-44.188	0.0011592	0.0013403	0.00070264	528.29	1.2177e-05	6.881e-06	1035	204.27	1.6052e-05	5.0691e-05	449.53	192.66	82.71	39.338	3.0684e-05	109.95	0.034066	0.047191	0.013231	703.63	0.0004792	0.00052564	1159.1	254.74	0.00048308	0.00053188	523.18	219.58	129.2	49.477	0.00051497	119.68	140.473	29.452	228.018	-93.118	31.621	-4.674	-92.576	-88.465	175.263	-27.152	-89.046	-84.822	-85.385	-78.890	79.725	-80.745	-8191	255	
22449.217	1	1	0	0	0.055018	0.17064	0.148	0.3088	0.14355	0.18593	0.19873	0.11184	0.055385	0.055494	0.16353	0.20738	0.054745	0.24455	0.15266	0.20239	-1.9979	-2.6021	-2.4271	-2.7021	-2.5438	-2.3917	-2.7875	-2.4083	-2.4875	-2.7812	-2.4229	-2.8583	-2.5667	-2.4437	-2.6063	-2.5354	149.088	91.018	32.743	128.395	164.129	-84.162	187.225	98.547	160.255	130.921	22.837	135.245	123.754	201.459	-82.206	151.677	0.0008921	0.0014132	0.0012429	539.84	1.3309e-05	1.7373e-05	1041.1	203.22	9.0534e-06	1.1489e-05	453.53	192.2	80.921	39.463	2.503e-05	110.37	0.035327	0.049196	0.013816	718.35	0.00049767	0.00054901	1169.4	257.02	0.00049218	0.00054401	526.12	219.88	129.29	49.618	0.00051035	119.75	128.800	-82.250	-20.804	-92.980	-56.633	-66.905	-93.120	-89.135	111.757	123.410	-89.554	-85.052	-85.283	-79.397	163.320	-80.481	-8191	255	
22449.312	1	1	0	0	0.1802	0.16429	0.17525	0.23464	0.21959	0.076534	0.014448	0.17348	0.28603	0.093428	0.29636	0.13384	0.11217	0.16345	0.052993	0.12091	-2.1104	-2.5604	-2.2854	-2.6375	-2.6104	-2.4771	-2.8854	-2.6708	-2.4354	-2.7812	-2.6167	-2.6083	-2.6312	-2.3333	-2.6813	-2.5542	223.172	231.053	155.721	-63.663	75.110	50.091	0.692	132.074	201.132	36.496	169.170	-103.387	42.225	72.222	117.973	-104.594	0.0015806	0.00081345	0.00091182	534.02	4.7651e-05	1.1793e-05	1037	201.76	4.8993e-05	8.0539e-06	449.63	192.01	81.659	39.256	2.8232e-05	111.08	0.034781	0.04861	0.013606	708.11	0.00048177	0.00053442	1159.3	253.83	0.00048304	0.00053509	521.02	219.38	128.56	49.441	0.00050809	120.03	109.466	-102.893	-45.989	-92.948	5.904	221.725	-92.912	-88.815	-95.397	26.981	-89.102	-85.002	-85.605	-79.600	28.403	-80.927	-8191	255	
22449.406	1	1	0	0	0.23302	0.19038	0.21195	0.22698	0.36854	0.048449	0.22147	0.21375	0.11353	0.087766	0.12954	0.19933	0.23189	0.24873	0.12038	0.15418	-2.0646	-2.725	-2.4896	-2.4604	-2.6	-2.5417	-2.7896	-2.6	-2.6417	-2.825	-2.4562	-2.5521	-2.7313	-2.4708	-2.6083	-2.6396	-11.275	162.578	44.038	154.296	-59.992	134.842	183.824	69.698	-100.653	-50.698	78.437	126.468	171.789	162.920	-69.039	195.295	0.0010086	0.0018516	0.00057972	538.35	1.8461e-05	4.0988e-05	1041.3	204.58	1.3851e-05	1.1266e-05	452.82	191.85	81.344	39.279	3.6859e-05	110.77	0.034764	0.04887	0.013682	712.98	0.0004953	0.00054873	1168.9	256.9	0.00049007	0.00054382	526.2	220.4	129.12	49.396	0.00050808	119.73	96.181	-94.351	123.298	-92.563	-29.816	191.153	-93.027	-89.037	224.144	250.592	-88.865	-84.624	-85.327	-79.506	127.735	-80.586	-8191	255	
22449.506	1	1	0	0	0.23162	0.16633	0.088283	0.028401	0.074693	0.25154	0.22266	0.24508	0.12555	0.089191	0.1447	0.15009	0.4015	0.090087	0.18811	0.065761	-1.9688	-2.7083	-2.4021	-2.6437	-2.8542	-2.4354	-2.7167	-2.6479	-2.3042	-2.7625	-2.4625	-2.4958	-2.5812	-2.5146	-2.8396	-2.7125	85.475	-29.235	85.879	-98.582	-63.778	187.642	202.890	206.451	150.147	26.601	172.603	166.736	114.089	200.860	244.444	214.172	0.00099925	0.0015113	0.0006221	531.7	1.4532e-05	3.5081e-05	1032.9	202.19	2.8477e-05	2.8939e-05	449.53	190.51	82.44	39.152	1.5483e-05	109.19	0.03468	0.048506	0.013354	708.16	0.00048544	0.00053368	1159.2	253.71	0.00048205	0.00053534	519.88	218.52	128.89	49.193	0.00050471	118.73	111.709	93.878	-39.440	-92.728	-75.227	68.315	-92.646	-88.369	89.280	193.825	-89.073	-84.697	-84.946	-79.450	167.967	-80.429	-8191	255	
22449.623	1	1	0	0	0.19882	0.26788	0.11494	0.1417	0.24111	0.19974	0.31728	0.17422	0.34559	0.39211	0.2231	0.21725	0.18158	0.071877	0.10375	0.20813	-1.8729	-2.4958	-2.4958	-2.4083	-2.8167	-2.4646	-2.4396	-2.5896	-2.5312	-2.7896	-2.7083	-2.5229	-2.7167	-2.4604	-2.5125	-2.9354	164.488	216.664	225.855	-106.558	200.933	42.282	207.797	-55.592	130.712	231.369	241.861	176.047	85.644	198.959	233.148	181.217	0.00097595	0.003943	0.00066309	534.86	4.5777e-06	1.6103e-05	1037.1	202.48	1.4879e-05	1.2015e-05	448.43	190.16	82.216	39.065	2.808e-05	109.32	0.034621	0.047977	0.013416	707.77	0.00048188	0.00052933	1159.4	253.38	0.0004783	0.00053002	518.33	217.51	127.64	48.921	0.00049813	118.52	148.879	210.956	-66.730	-92.564	-97.136	167.490	-93.035	-88.620	79.546	136.462	-89.165	-84.646	-85.048	-79.506	-0.582	-80.751	-8191	255	
22449.695	1	1	0	0	0.12018	0.17741	0.1112	0.29017	0.14781	0.18001	0.046415	0.26813	0.20098	0.086377	0.12964	0.1084	0.12813	0.08952	0.087656	0.29961	-1.9875	-2.5646	-2.6125	-2.2979	-2.6896	-2.5208	-2.6792	-2.7562	-2.3104	-2.7104	-2.6625	-2.4479	-2.7146	-2.6396	-2.5583	-2.8667	208.124	122.716	43.815	194.489	-73.660	206.572	248.095	177.010	115.271	67.174	-85.603	170.772	-66.235	-71.275	14.640	207.900	0.0012291	0.0018705	0.0001755	529.99	1.3067e-05	9.3928e-06	1043.6	203.1	3.4775e-05	1.8696e-05	449.46	191.75	81.965	39.121	1.3514e-05	109.25	0.034277	0.047928	0.013399	707.97	0.0004871	0.00053287	1164.5	255.59	0.00048615	0.00053543	521.23	218.89	128.33	49.027	0.00050142	118.69	82.436	91.601	246.972	-92.734	3.365	66.251	-92.737	-88.832	-59.286	46.580	-89.209	-85.055	-85.715	-79.516	-45.989	-80.767	-8191	255	
22449.791	1	1	0	0	0.14504	0.16757	0.066997	0.35561	0.1178	0.26124	0.14887	0.23652	0.075755	0.15402	0.22404	0.18618	0.13328	0.31916	0.17305	0.2149	-1.9312	-2.6042	-2.7188	-2.3917	-2.7313	-2.5375	-2.4396	-2.8625	-2.4417	-2.7125	-2.7229	-2.4938	-2.7292	-2.4104	-2.5417	-2.8375	210.980	223.057	200.096	49.375	44.165	79.441	77.295	183.713	220.818	182.178	177.187	-75.853	66.312	-90.659	-99.746	159.605	0.0014744	0.0016396	0.00059817	536.09	1.956e-05	1.942e-05	1044.2	205.01	2.5641e-05	2.9547e-05	450.44	191.33	81.635	39.161	2.5275e-05	109.64	0.034918	0.048335	0.013537	714.08	0.00049948	0.00054236	1170.3	257.43	0.00049162	0.00053941	522.78	218.88	128.18	48.936	0.00049823	118.77	104.689	115.972	128.244	-92.895	-48.102	28.800	-93.001	-88.887	-24.757	-48.125	-88.982	-85.233	-85.005	-79.502	-6.344	-80.651	-8191	255	
22449.889	1	1	0	0	0.13693	0.16935	0.25283	0.12222	0.21682	0.12321	0.18326	0.23928	0.048325	0.099305	0.31264	0.18134	0.37951	0.14536	0.14697	0.19867	-2.0687	-2.625	-2.4083	-2.5458	-2.5667	-2.5833	-2.5896	-2.7875	-2.4896	-2.6667	-2.75	-2.475	-2.6188	-2.7104	-2.5417	-2.8937	223.951	162.289	72.799	122.095	167.981	70.298	-91.185	-98.131	184.881	50.817	216.656	220.105	221.229	223.703	-84.959	140.174	0.00045057	0.0013637	0.00087542	540.37	1.5735e-05	1.377e-05	1039.5	202.56	1.2377e-05	1.4908e-05	450.27	190.93	82.502	39.075	3.334e-05	109.67	0.034424	0.047643	0.013348	708.93	0.00048773	0.00053641	1167.5	257.19	0.00049563	0.00054549	526.07	220.35	131.22	49.447	0.00052097	119.2	104.299	232.578	-55.130	-92.979	30.047	176.679	-92.674	-88.616	47.059	84.643	-89.199	-85.081	-85.645	-79.308	98.620	-80.871	-8191	255	
22450.008	1	1	0	0	0.038452	0.12844	0.086187	0.1567	0.17943	0.27287	0.25045	0.12029	0.040291	0.10581	0.11012	0.091524	0.082867	0.050681	0.10975	0.083926	-2.05	-2.4104	-2.6833	-2.4792	-2.7271	-2.6375	-2.5958	-2.7875	-2.3021	-2.5563	-2.7438	-2.5104	-2.5771	-2.4667	-2.2854	-2.8229	129.502	-19.781	54.094	225.620	-88.591	-65.228	198.219	177.464	152.875	177.956	186.778	234.973	195.954	-27.401	211.189	-36.447	0.00088434	0.0020314	0.0003667	533.27	3.088e-05	8.1801e-06	1034.7	206.28	1.7129e-05	1.6382e-05	447.93	191.68	83.05	38.973	1.1867e-05	108.68	0.035802	0.050221	0.014021	724.29	0.00050652	0.00055649	1172.6	259.64	0.00049889	0.00054974	524.17	219.44	129.92	49.1	0.00051873	118.39	101.658	97.338	80.823	-92.910	67.359	-81.010	-93.118	-89.071	79.277	45.928	-89.186	-84.738	-84.846	-79.322	208.756	-80.907	-8191	255	
22450.104	1	1	0	0	0.086239	0.2189	0.32303	0.094059	0.3731	0.084536	0.2333	0.027462	0.11416	0.19179	0.32618	0.088915	0.18468	0.054396	0.28091	0.10861	-1.9917	-2.4562	-2.7958	-2.5104	-2.75	-2.6	-2.5708	-2.6437	-2.4021	-2.4979	-2.7125	-2.5125	-2.6271	-2.8042	-2.4521	-2.9625	154.300	125.800	-10.447	143.746	180.978	101.987	144.184	116.745	131.346	-19.109	216.604	183.888	-46.117	161.624	119.846	190.207	0.00090765	0.0021204	0.00022609	537.38	4.3785e-05	2.4018e-05	1036.2	205.97	8.7352e-06	6.2873e-06	449.9	190.47	83.176	38.898	2.5908e-05	108.85	0.035513	0.049265	0.013851	719.56	0.00049567	0.00054389	1167.1	257.4	0.00049001	0.00054387	522.75	218.72	129.58	48.917	0.00050988	118.22	122.993	-78.581	173.814	-93.019	26.466	244.198	-92.900	-88.817	225.882	66.127	-88.645	-84.517	-85.875	-79.580	179.836	-80.857	-8191	255	
22450.199	1	1	0	0	0.21518	0.20424	0.062252	0.14387	0.15871	0.25673	0.095805	0.13638	0.17931	0.14842	0.26665	0.35225	0.23797	0.29567	0.097004	0.14845	-2.0938	-2.3417	-2.6792	-2.5271	-2.6146	-2.6708	-2.4333	-2.7104	-2.5729	-2.4875	-2.6875	-2.4833	-2.4583	-2.75	-2.4833	-2.8312	158.260	237.266	18.190	75.010	72.210	142.461	13.032	172.029	-101.298	248.079	192.155	206.680	-98.242	202.631	44.888	96.868	0.0011381	0.0028122	0.00087251	539.21	1.914e-05	3.4431e-05	1029.6	204.48	2.138e-05	2.0794e-05	449.69	190.75	82.354	38.784	2.2832e-06	108.05	0.034864	0.048497	0.013547	712.81	0.00048843	0.0005417	1165.1	256.22	0.00048381	0.00053453	522.37	218.34	129.02	48.74	0.00050879	117.45	179.447	22.056	-52.430	-93.424	-78.632	185.747	-93.100	-88.855	239.000	210.240	-88.883	-84.824	-85.692	-79.678	71.477	-80.625	-8191	255	
22450.297	1	1	0	0	0.29049	0.34485	0.12375	0.33383	0.071805	0.37821	0.15716	0.07458	0.12931	0.099831	0.1494	0.098725	0.025873	0.20655	0.14601	0.28052	-2.1292	-2.3354	-2.7	-2.5438	-2.5417	-2.65	-2.4437	-2.7833	-2.4813	-2.3854	-2.8146	-2.5292	-2.5646	-2.6854	-2.4417	-2.8063	-37.894	74.992	112.173	215.717	223.039	-9.819	136.544	-68.944	196.220	98.620	-90.766	152.727	194.200	195.076	113.478	102.497	0.0008903	0.0025233	0.00043955	531.37	1.0393e-05	1.0661e-05	1030.3	202.55	5.0391e-06	7.3172e-06	448.1	189.89	82.846	38.349	1.6149e-05	108	0.034574	0.048478	0.013463	708	0.00048254	0.00053575	1158	254.4	0.00048063	0.00053173	518.26	216.9	127.94	48.472	0.00050201	117.1	99.365	-89.691	-70.825	-92.599	5.399	62.150	-92.958	-88.920	16.530	243.726	-89.110	-84.821	-85.580	-79.386	-30.727	-80.657	-8191	255	
22450.393	1	1	0	0	0.23848	0.22851	0.098021	0.071095	0.086794	0.094186	0.37626	0.3917	0.083386	0.12837	0.19311	0.070955	0.17849	0.17286	0.27817	0.28414	-2.2771	-2.1625	-2.6479	-2.4938	-2.3521	-2.8042	-2.6417	-2.5542	-2.5687	-2.4729	-2.7375	-2.875	-2.3708	-2.7229	-2.3958	-2.7125	-29.909	53.388	-63.255	117.538	34.092	37.951	205.636	162.202	76.394	-65.612	107.626	191.545	-74.812	130.872	85.560	245.418	0.0015303	0.0018332	0.0009432	533.15	2.0756e-05	4.5694e-05	1034.5	204.12	5.2576e-05	2.7468e-05	446.74	190.79	82.971	39.083	1.1422e-05	109.21	0.034248	0.048046	0.01342	708.74	0.00048565	0.00053496	1159.9	255.41	0.00048483	0.00054196	521.18	218.59	130.22	49.337	0.00052083	118.67	146.864	90.500	-68.680	-92.875	28.091	100.131	-92.792	-88.455	79.430	151.024	-89.323	-84.922	-84.784	-79.142	84.378	-80.585	-8191	255	
22450.488	1	1	0	0	0.023647	0.078189	0.056644	0.26248	0.24315	0.14218	0.34395	0.11991	0.064252	0.11253	0.12998	0.26565	0.044793	0.18567	0.15408	0.23208	-2.3958	-2.4104	-2.6208	-2.6375	-2.55	-2.6917	-2.475	-2.4646	-2.7021	-2.1188	-2.8396	-2.6521	-2.4146	-2.9062	-2.4792	-2.4938	190.073	160.292	60.364	137.398	12.565	42.294	179.008	249.207	-57.742	39.402	-74.220	139.609	71.260	-79.080	113.781	228.158	0.0012378	0.0022102	0.00018745	534.86	5.6744e-06	2.6226e-05	1045.3	204.4	8.7017e-06	2.7169e-05	452.5	191.17	82.698	38.902	1.2712e-05	108.99	0.035944	0.050654	0.01407	722.84	0.00051122	0.00056184	1180.3	260.67	0.00050704	0.00056178	529.84	220.73	132.11	49.682	0.00052653	119.55	90.075	231.846	-21.804	-92.970	113.560	-0.865	-92.697	-88.770	31.134	15.242	-89.311	-84.728	-85.488	-79.359	-83.424	-81.024	-8191	255	
22450.586	1	1	0	0	0.22415	0.14621	0.0011019	0.18177	0.11862	0.12468	0.070895	0.11312	0.33644	0.20358	0.17702	0.10835	0.10558	0.24713	0.23096	0.27652	-2.1854	-2.3812	-2.4854	-2.4208	-2.3896	-2.5312	-2.5458	-2.5167	-2.8104	-2.4021	-2.5792	-2.7604	-2.4292	-2.7958	-2.3604	-2.5625	-72.072	-15.512	180.000	41.350	75.250	-17.304	217.729	141.983	2.006	140.566	204.604	-98.700	173.119	161.402	120.056	214.587	0.00089721	0.0028861	0.00055976	534.9	4.3305e-05	1.7379e-05	1038.9	203.88	2.7155e-05	1.1521e-05	451.9	191.36	81.72	38.876	2.5366e-05	109.82	0.036323	0.050864	0.014073	720.5	0.00050961	0.0005608	1175.1	259.28	0.00050511	0.00055757	527.19	220.62	130.72	49.402	0.00051571	119.3	96.981	-9.057	-95.883	-92.821	51.284	45.408	-93.068	-88.760	-21.878	59.001	-89.033	-84.577	-85.263	-79.560	41.186	-80.964	-8191	255	
22450.703	1	1	0	0	0.18962	0.41281	0.20153	0.21776	0.27692	0.23647	0.091952	0.2555	0.1137	0.36682	0.17249	0.069382	0.21472	0.17942	0.086041	0.14738	-2.1604	-2.3125	-2.4146	-2.7313	-2.4625	-2.7229	-2.6042	-2.25	-2.6771	-2.4313	-2.5021	-2.55	-2.475	-2.6167	-2.6083	-2.5687	186.377	48.545	205.235	144.039	113.300	206.242	231.381	183.737	67.465	10.112	91.941	-10.910	13.033	214.182	-81.222	200.583	0.0015033	0.0012197	0.00042429	532.18	1.1192e-05	2.693e-05	1035.6	205.94	1.6052e-05	2.0864e-05	453.48	192.01	83.341	39.16	2.2146e-05	109.12	0.035814	0.049869	0.013875	719.89	0.00051136	0.00056217	1175.3	261.78	0.00051867	0.00057181	532.08	222.48	133.84	50.146	0.00053999	119.45	114.335	71.051	69.376	-92.906	113.170	9.302	-92.946	-89.120	-53.606	141.682	-89.056	-84.914	-85.515	-79.221	249.038	-80.902	-8191	255	
22450.801	1	1	0	0	0.15364	0.21127	0.10527	0.18452	0.069014	0.11858	0.031723	0.16324	0.067011	0.16818	0.26338	0.12816	0.212	0.14282	0.046856	0.11573	-2.2875	-2.6063	-2.3667	-2.7021	-2.3812	-2.6063	-2.8083	-2.5104	-2.5563	-2.4021	-2.4854	-2.7313	-2.5271	-2.5417	-2.5604	-2.3854	172.438	-3.928	103.299	170.061	192.686	153.218	47.935	249.870	208.629	177.430	176.437	-66.730	17.298	192.708	-104.347	-24.593	0.00094637	0.0017748	0.00053983	531.5	3.3046e-05	4.2411e-05	1033.9	203.29	3.715e-06	4.5974e-05	449.35	190.14	81.903	38.821	2.2288e-05	108.32	0.03724	0.051489	0.014364	726.19	0.00052064	0.00056777	1173.9	260.27	0.00051299	0.0005628	526.78	220.27	130.6	49.323	0.0005135	118.23	89.890	98.119	25.220	-93.095	92.128	103.792	-92.725	-88.956	223.348	-89.700	-89.295	-84.595	-85.021	-79.569	-42.997	-80.801	-8191	255	
22450.896	1	1	0	0	0.26252	0.2863	0.089991	0.14938	0.19869	0.33875	0.26358	0.1074	0.21796	0.085234	0.10646	0.043467	0.22605	0.19213	0.026196	0.19247	-2.15	-2.475	-2.4208	-2.6229	-2.3563	-2.4625	-2.7354	-2.1688	-2.6604	-2.6542	-2.5625	-2.7021	-2.4646	-2.7313	-2.7896	-2.5375	149.366	182.742	34.336	-105.245	52.305	34.335	-80.005	-84.726	47.299	237.825	241.534	53.342	198.272	161.160	118.298	170.978	0.0011412	0.0022808	6.8514e-05	530.78	1.3752e-05	4.3889e-05	1038.3	204.88	3.3567e-05	3.3845e-05	455.09	191.9	83.475	39.254	8.835e-06	109.65	0.035583	0.048993	0.013738	714.7	0.00050305	0.00055061	1168.4	258.62	0.00050581	0.00055761	528.81	221.77	132.92	50.155	0.0005412	120.48	161.436	189.805	192.445	-92.658	86.438	74.740	-93.113	-88.393	-86.350	9.875	-88.913	-84.995	-85.656	-79.591	122.519	-80.650	-8191	255	
22450.992	1	1	0	0	0.30735	0.13327	0.25221	0.067959	0.095199	0.12205	0.11702	0.12351	0.12606	0.17897	0.14331	0.25904	0.23267	0.17731	0.044365	0.31739	-2.425	-2.6542	-2.3438	-2.9479	-2.3979	-2.4146	-2.7583	-2.55	-2.6271	-2.7958	-2.5271	-2.8146	-2.6125	-2.5917	-2.8125	-2.4938	227.339	38.554	216.776	138.300	241.773	167.853	-82.400	193.410	-100.808	102.738	95.027	201.321	228.356	109.001	65.688	235.897	0.0015009	0.0015792	0.00044416	537.63	2.2486e-05	2.8883e-05	1041.5	206.05	1.4953e-05	4.4523e-05	453.56	191.82	82.132	39.678	2.2169e-05	109.85	0.037487	0.052584	0.014677	737.74	0.0005323	0.00058306	1188.6	264.35	0.00052557	0.00057699	533.81	223.55	133.79	50.417	0.00053958	120.64	120.666	159.550	-9.689	-92.596	4.787	163.332	-92.966	-88.732	93.698	-69.782	-89.251	-85.299	-85.878	-79.234	74.139	-81.229	-8191	255	
22451.090	1	1	0	0	0.086301	0.12884	0.15764	0.097331	0.064385	0.10435	0.1071	0.29618	0.084658	0.10509	0.2639	0.20944	0.068374	0.092043	0.13903	0.029606	-2.2271	-2.7	-2.3458	-2.7	-2.5375	-2.4896	-2.8958	-2.4896	-2.5396	-2.8271	-2.65	-2.5917	-2.5896	-2.3917	-2.7438	-2.5812	-13.566	241.533	-100.208	87.702	62.968	76.942	87.331	240.651	-39.132	-27.423	222.166	213.911	4.271	-8.239	191.028	223.980	0.00097715	0.0020664	0.00044692	537.13	9.3236e-06	1.6089e-05	1037	203.27	1.9468e-05	1.4645e-05	450.49	190.52	83.388	39.123	2.5767e-05	109.21	0.037176	0.051727	0.014487	730.75	0.00052176	0.00057313	1179.6	261.63	0.0005189	0.00057504	529.83	222.19	133.34	50.274	0.00055271	120.16	135.915	5.275	239.497	-93.356	77.282	17.131	-92.684	-88.610	27.083	115.793	-89.294	-85.196	-85.347	-79.514	65.953	-80.737	-8191	255	
22451.186	1	1	0	0	0.3528	0.17095	0.17991	0.19152	0.098361	0.11383	0.19398	0.26085	0.19043	0.13794	0.18956	0.1511	0.22555	0.24466	0.043497	0.3145	-2.1854	-2.6083	-2.1104	-2.7917	-2.4167	-2.5208	-2.7771	-2.5042	-2.4604	-2.6479	-2.4646	-2.7375	-2.5146	-2.3312	-2.6229	-2.4667	179.801	152.161	163.299	-0.306	-66.602	-54.753	163.961	-76.377	-36.108	91.302	-84.855	220.766	214.484	-29.133	135.600	181.108	0.0007863	0.0040978	0.00036288	534.46	1.2625e-05	1.8814e-05	1038.3	204.93	6.6517e-05	2.9526e-05	450.22	192.32	83.622	39.33	2.1556e-05	109.4	0.037945	0.052984	0.014754	729.83	0.00052472	0.00057877	1179.3	262.64	0.00052126	0.00057285	530.5	222.4	133.5	50.137	0.000542	119.84	140.225	-79.971	39.265	-92.544	177.796	195.511	-92.782	-88.591	54.276	-18.577	-89.322	-84.974	-85.012	-79.430	182.342	-80.925	-8191	255	
22451.305	1	1	0	0	0.29901	0.053896	0.10641	0.1915	0.36647	0.157	0.17537	0.13671	0.094766	0.15803	0.24279	0.31644	0.29745	0.31215	0.22915	0.20596	-2.1458	-2.6562	-2.2542	-2.6729	-2.5417	-2.3833	-2.8167	-2.5083	-2.2833	-2.6271	-2.475	-2.9083	-2.5542	-2.4083	-2.7625	-2.6188	20.095	-72.840	-61.838	173.595	168.639	107.962	248.384	45.676	138.971	226.537	150.746	232.317	128.346	139.235	121.329	-44.972	0.00117	0.0020376	0.00071553	530.88	1.8899e-05	3.1752e-05	1036.6	203.09	5.78e-05	1.2395e-05	453.13	190.13	83.44	39.131	2.3556e-05	109.11	0.036726	0.051409	0.014352	725.17	0.00051396	0.00056901	1177.5	259.81	0.00050934	0.00056354	528.82	220.27	131.09	49.757	0.00052464	118.91	131.252	-72.222	57.513	-93.281	72.021	133.924	-92.943	-88.729	-4.774	245.389	-89.176	-85.126	-85.440	-79.438	-16.989	-80.934	-8191	255	
22451.400	1	1	0	0	0.081288	0.36685	0.12765	0.093574	0.05407	0.20055	0.16664	0.12405	0.30418	0.17741	0.3154	0.22597	0.22421	0.10847	0.24702	0.28292	-2.0292	-2.8396	-2.3021	-2.6229	-2.6333	-2.2292	-2.7417	-2.5604	-2.475	-2.6354	-2.6729	-2.4875	-2.6771	-2.3125	-2.55	-2.6417	44.465	-11.905	-33.171	129.386	52.356	51.894	177.531	-81.385	2.008	249.199	152.133	232.004	154.923	-53.336	15.591	221.279	0.00081269	0.0019565	0.00073038	534.8	1.8226e-05	1.0977e-05	1039.1	205.02	3.1929e-05	1.8261e-05	453.53	193.48	82.837	39.076	6.5713e-06	109.41	0.035906	0.050148	0.013974	720.25	0.00050766	0.00056423	1176.9	260.48	0.00051146	0.00057255	531.36	222.61	132.63	49.956	0.00052976	119.52	156.796	136.979	-71.518	-92.372	4.797	22.862	-92.880	-88.725	19.261	104.666	-88.985	-85.070	-85.706	-79.430	241.368	-80.659	-8191	255	
22451.496	1	1	0	0	0.17853	0.29854	0.12387	0.19504	0.099207	0.20223	0.16449	0.20491	0.17098	0.1747	0.33039	0.12031	0.092405	0.28247	0.13878	0.20911	-2.0792	-2.7875	-2.4958	-2.5104	-2.6167	-2.4458	-2.7146	-2.5333	-2.2667	-2.725	-2.3187	-2.5646	-2.7417	-2.5938	-2.4688	-2.7667	-29.569	209.466	115.747	182.026	147.002	197.488	212.684	183.510	-101.103	71.263	145.997	108.384	1.712	-18.822	31.088	214.665	0.0013657	0.00088977	7.8183e-05	533.32	2.4518e-05	3.0309e-05	1031.1	202.52	2.3552e-05	1.6611e-05	447.02	191.57	82.994	39.229	2.4775e-05	109.56	0.036224	0.05055	0.014036	719.17	0.00050495	0.00055562	1168.8	257.48	0.00050457	0.00056114	524.8	220.67	131.76	49.955	0.00052786	119.21	124.329	-100.146	183.726	-92.954	19.584	-91.428	-92.883	-88.887	5.813	135.310	-88.986	-84.692	-85.519	-79.708	-67.192	-81.104	-8191	255	
22451.568	1	1	0	0	0.089164	0.15743	0.25121	0.13637	0.15446	0.2881	0.12154	0.22269	0.044549	0.034461	0.22881	0.35143	0.31	0.12112	0.20915	0.17458	-1.7396	-2.575	-2.4083	-2.3937	-2.7687	-2.3187	-2.6104	-2.6312	-2.2958	-2.7771	-2.5125	-2.5208	-2.6542	-2.6	-2.8104	-2.8563	158.997	-96.489	242.082	-74.859	193.017	158.423	187.202	135.829	113.109	-67.330	206.024	-104.448	-72.731	-99.518	-105.565	176.379	0.0013563	0.0031105	0.0006393	522.09	9.1358e-06	2.625e-05	1031.9	202.34	1.9357e-05	2.6467e-05	447.08	190.48	80.71	39.315	1.1838e-05	109.14	0.036516	0.050809	0.014045	717.98	0.00050904	0.00056	1163.9	256.52	0.00050034	0.00055006	519.5	218.19	128.64	49.463	0.00051083	118.8	110.727	-104.442	17.868	-92.305	18.367	159.008	-92.723	-88.829	1.364	-27.932	-89.011	-84.736	-85.798	-79.177	84.672	-80.798	-8191	255	
22451.688	1	1	0	0	0.27387	0.16051	0.3189	0.36381	0.078902	0.24299	0.14171	0.27734	0.2663	0.092709	0.031167	0.3527	0.20074	0.16415	0.022445	0.2032	-1.7354	-2.7229	-2.5062	-2.3833	-2.5771	-2.2938	-2.6312	-2.5354	-2.1208	-2.575	-2.6792	-2.5187	-2.6104	-2.4896	-2.5771	-2.7333	180.988	240.021	15.139	221.205	183.278	212.630	138.917	158.391	143.083	147.068	249.309	145.085	-43.194	138.733	130.239	-106.008	0.00086832	0.0022121	0.00015055	529.2	2.9293e-05	3.1782e-05	1035.9	201.29	3.3655e-06	4.4439e-05	450.92	190.66	81.443	39.833	1.9896e-05	110.35	0.035397	0.049425	0.01375	713.35	0.0005054	0.00055681	1170.1	256.98	0.00050754	0.00055771	524.81	220.47	130.92	50.154	0.00052486	120.34	80.766	9.010	41.460	-92.785	124.375	-3.067	-92.890	-89.145	-12.167	1.488	-89.289	-84.662	-84.688	-79.484	43.275	-80.767	-8191	255	
22451.783	1	1	0	0	0.22807	0.11819	0.11072	0.038054	0.18917	0.17541	0.38769	0.18824	0.21825	0.025036	0.075365	0.17624	0.36889	0.18485	0.15057	0.20878	-1.7917	-2.5083	-2.4792	-2.325	-2.5687	-2.4208	-2.6188	-2.6042	-2.3583	-2.5542	-2.6021	-2.4437	-2.5312	-2.5042	-2.2083	-2.7208	59.579	143.895	-96.251	-71.952	190.925	56.874	150.862	-66.413	219.854	-52.665	-39.058	-70.206	81.993	36.563	62.043	210.709	0.00073791	0.0028992	0.00084421	535.68	3.2766e-05	4.2792e-05	1047.6	207.49	2.2864e-05	3.4888e-05	452.82	192.64	83.182	39.771	8.4962e-06	110.66	0.036654	0.050759	0.014241	727.56	0.00052211	0.00057206	1182.9	262.29	0.00052442	0.00057535	532.08	223.69	134.11	50.782	0.00054491	121.44	131.635	-77.922	60.394	-93.041	166.527	74.625	-92.807	-88.630	69.619	-0.566	-89.033	-84.668	-85.787	-79.361	-45.622	-80.590	-8191	255	
22451.881	1	1	0	0	0.26328	0.21499	0.097853	0.26496	0.095852	0.2334	0.2584	0.33644	0.071255	0.10719	0.12032	0.12481	0.16379	0.14227	0.1937	0.39294	-1.9792	-2.425	-2.4208	-2.1833	-2.6604	-2.4375	-2.3312	-2.6312	-2.3396	-2.5062	-2.7833	-2.3	-2.575	-2.6646	-2.2396	-2.6417	-44.275	126.311	221.351	-69.680	151.392	204.499	203.569	121.493	3.187	-5.792	143.768	-11.279	-47.917	129.076	185.215	197.850	0.00075574	0.0028544	0.00074858	537.2	1.3469e-05	1.224e-05	1037.7	204.6	3.6062e-05	1.9587e-05	448.67	191.09	82.216	39.141	2.8739e-05	109.08	0.037805	0.052273	0.014628	732.75	0.00052733	0.00057543	1178.5	262.01	0.00051905	0.00056852	527.53	221	131.71	49.995	0.00053478	119.67	74.348	-31.425	-63.261	-93.379	3.427	139.985	-92.832	-88.905	-84.692	-21.236	-89.060	-84.882	-84.917	-78.965	36.631	-80.671	-8191	255	
22451.977	1	1	0	0	0.10673	0.18329	0.032051	0.17904	0.2814	0.16244	0.12317	0.048958	0.12103	0.34661	0.024909	0.30064	0.15682	0.088624	0.23971	0.064364	-1.7271	-2.4458	-2.3917	-2.4521	-2.6896	-2.5417	-2.2333	-2.725	-2.4854	-2.3854	-2.6854	-2.4479	-2.4521	-2.5062	-2.3042	-2.6958	248.037	87.572	-38.288	126.850	40.993	184.743	253.427	-16.615	-68.536	235.948	166.313	171.225	206.097	11.854	-29.049	-85.968	0.0012374	0.0022781	0.0003762	532.89	8.7219e-06	2.3136e-05	1037.7	202.73	2.5411e-05	5.0993e-06	448.17	191.62	83.054	39.632	5.6403e-05	109.88	0.036839	0.051033	0.014297	727.69	0.00051989	0.00057194	1179.5	262.13	0.00051915	0.00057313	530.23	222.59	133.18	50.537	0.00054266	120.5	142.944	-10.926	3.174	-92.803	166.906	187.358	-92.868	-88.335	-49.968	-32.532	-89.438	-84.812	-85.362	-79.228	41.157	-80.845	-8191	255	
22452.098	1	1	0	0	0.26406	0.16248	0.16147	0.24192	0.13433	0.12853	0.21843	0.19255	0.13136	0.26442	0.27129	0.17676	0.32048	0.011583	0.38984	0.13931	-2.0792	-2.3875	-2.7083	-2.3937	-2.5646	-2.5771	-2.5479	-2.4667	-2.4188	-2.4521	-2.7104	-2.4875	-2.4313	-2.6104	-2.3125	-2.6646	-37.071	154.889	53.869	-22.063	-52.438	-75.919	243.502	125.735	115.496	62.447	241.762	141.886	241.016	-11.458	-22.811	224.560	0.0015782	0.0018841	0.0010944	530.82	4.6701e-05	3.5956e-05	1041.4	204.95	1.3546e-05	2.3932e-05	451.73	190.58	82.381	39.617	1.5222e-05	109.49	0.037209	0.051573	0.014566	730.66	0.00052506	0.00057554	1180.8	262.25	0.00051835	0.0005706	530.55	222.02	132.55	50.368	0.00053723	120.19	134.244	-15.581	26.863	-92.981	-34.819	-44.951	-93.072	-89.111	27.879	-63.774	-89.060	-84.682	-85.900	-79.139	-50.148	-80.700	-8191	255	
22452.170	1	1	0	0	0.021747	0.22866	0.15455	0.39256	0.071865	0.10968	0.10453	0.097209	0.046742	0.38566	0.19811	0.096821	0.19307	0.036651	0.12177	0.31998	-2.0854	-2.4208	-2.5917	-2.5146	-2.6521	-2.5563	-2.3375	-2.6437	-2.4771	-2.3833	-2.8812	-2.4813	-2.525	-2.4708	-2.4146	-2.625	-14.986	49.566	4.793	96.563	70.089	-52.036	77.769	125.381	-106.115	67.852	-100.805	232.354	176.460	233.354	221.528	193.367	0.0012542	0.0010918	0.0011739	539.75	2.17e-05	1.844e-05	1030.3	203.65	1.3048e-05	2.6409e-05	452.4	193.35	83.818	39.795	2.8225e-05	110.46	0.036726	0.05114	0.014367	725.98	0.00051335	0.00056992	1175.4	261.04	0.00051614	0.00057079	532.87	223.26	133.86	50.828	0.0005483	121.11	88.802	193.266	-26.687	-92.884	14.294	3.095	-92.824	-88.610	-63.846	14.389	-89.392	-84.828	-85.341	-79.243	18.520	-80.893	-8191	255	
22452.266	1	1	0	0	0.19155	0.10113	0.086597	0.13507	0.14866	0.29558	0.24955	0.087512	0.18672	0.09116	0.097492	0.23006	0.24752	0.22429	0.10306	0.13173	-1.9896	-2.3229	-2.7354	-2.4604	-2.3083	-2.7604	-2.3729	-2.7042	-2.6208	-2.5542	-2.7354	-2.5125	-2.4354	-2.8625	-2.3229	-2.5479	-1.741	-52.669	211.325	-58.247	-2.146	209.278	167.721	127.444	-77.559	-32.670	223.399	-97.065	240.373	-67.675	-56.405	-93.693	0.0010239	0.0030555	0.00027762	530.33	4.9756e-06	3.6544e-05	1041.1	203	2.917e-05	3.3296e-05	446.67	189.03	81.917	39.228	7.8339e-06	108.83	0.03765	0.052673	0.014705	729.39	0.00052208	0.00057205	1176.5	259.38	0.00050884	0.00055901	523.96	219.02	130.65	49.827	0.00052935	118.84	134.239	36.258	-40.748	-92.966	115.673	228.465	-92.951	-88.640	-21.751	20.638	-88.887	-84.720	-85.061	-79.003	183.618	-80.659	-8191	255	
22452.387	1	1	0	0	0.32171	0.2787	0.33725	0.16727	0.069877	0.19959	0.22403	0.1698	0.34176	0.1377	0.071483	0.062652	0.11573	0.33088	0.25308	0.65028	-2.2979	-2.4729	-2.5042	-2.4062	-2.4042	-2.7	-2.3542	-2.4708	-2.7083	-2.35	-2.7313	-2.8563	-2.1854	-2.6875	-2.3604	-2.5917	202.085	234.250	-71.207	32.248	108.727	246.809	87.785	-101.343	134.902	6.129	-63.556	-91.998	184.071	247.600	148.695	186.373	0.0015776	0.0016237	0.00056466	536.07	2.9261e-05	9.9592e-06	1039.1	205.91	2.3268e-05	8.9139e-06	449.2	191.68	82.796	39.325	3.2318e-05	109	0.036527	0.051651	0.014474	729.94	0.00052781	0.0005864	1186.1	264.57	0.00052983	0.00058592	533.23	223.26	133.86	50.612	0.00054359	119.8	123.235	196.579	-33.343	-92.748	83.657	21.318	-92.815	-88.700	-2.302	221.889	-89.073	-84.834	-85.630	-79.478	33.768	-80.947	-8191	255	
22452.480	1	1	0	0	0.15742	0.15653	0.13777	0.10828	0.26475	0.26063	0.14296	0.42904	0.22196	0.16485	0.32948	0.10559	0.14416	0.31245	0.18271	0.28363	-2.2146	-2.3229	-2.5938	-2.6312	-2.3208	-2.6813	-2.6375	-2.5062	-2.5896	-2.5958	-2.6104	-2.7	-2.4167	-2.7812	-2.3646	-2.5062	93.146	-103.765	-64.470	-65.525	66.347	-87.081	-44.623	117.081	-47.891	98.813	-35.160	224.401	-97.017	197.775	200.575	188.205	0.0011238	0.002072	0.00072519	535.71	1.9016e-05	3.9546e-05	1037.7	206.23	1.2943e-05	1.9372e-05	450.69	191.81	84.181	39.409	4.1964e-06	109.78	0.037043	0.052358	0.014416	728.82	0.0005221	0.00057791	1180.1	262.73	0.00052375	0.00058068	533.51	223.34	134.93	50.602	0.00054799	120.59	111.060	-52.997	-69.726	-93.090	20.940	44.678	-93.310	-88.596	-38.220	-97.365	-89.362	-84.946	-85.644	-79.090	97.055	-80.921	-8191	255	
22452.578	1	1	0	0	0.17609	0.40181	0.1272	0.053346	0.19432	0.23756	0.34326	0.2408	0.098875	0.09233	0.26304	0.20833	0.091928	0.1639	0.14529	0.10417	-2.4	-2.4188	-2.5812	-2.6667	-2.3146	-2.8292	-2.6042	-2.4792	-2.6771	-2.5229	-2.7604	-2.5604	-2.3708	-2.6646	-2.4688	-2.4896	-10.788	77.915	243.975	236.725	14.218	-89.999	192.403	153.161	3.583	56.552	149.828	66.997	-79.926	-69.463	206.244	157.668	0.001531	0.0023075	0.00056608	539.24	1.8733e-05	2.1941e-05	1044.8	206.42	1.5562e-05	1.1059e-05	451.56	192.23	83.513	39.586	1.3955e-05	109.47	0.037907	0.052917	0.014609	734.94	0.0005306	0.00058243	1186.7	263.79	0.00052557	0.00058054	533.9	224.03	134.76	50.663	0.00054736	120.73	114.145	13.427	-48.868	-92.723	-25.400	58.669	-93.125	-88.696	-42.259	160.942	-88.967	-85.268	-85.143	-79.787	65.060	-80.726	-8191	255	
22452.697	1	1	0	0	0.23182	0.14837	0.11371	0.14475	0.11712	0.10783	0.26839	0.34479	0.18348	0.10516	0.35644	0.21134	0.25424	0.16078	0.14419	0.31361	-2.3458	-2.2313	-2.55	-2.6646	-2.2271	-2.7833	-2.6167	-2.2604	-2.5979	-2.6521	-2.5708	-2.7479	-2.5167	-2.6	-2.5312	-2.4896	129.555	-87.968	-79.383	227.170	86.552	11.240	217.036	221.183	146.768	214.023	-86.241	122.559	70.040	206.332	-5.593	200.727	0.0013636	0.002021	0.00034732	539.77	4.1606e-05	3.0618e-05	1037.5	205.33	1.4616e-05	2.6401e-05	456.79	191.57	82.967	39.454	6.987e-05	108.28	0.038261	0.052988	0.014797	740.49	0.00053748	0.00058834	1187.4	264.95	0.00053027	0.00058109	532.94	222.73	134.65	50.54	0.00054707	119.54	117.002	221.245	122.903	-92.670	28.119	51.098	-92.608	-88.736	57.037	16.964	-89.162	-85.334	-85.212	-78.841	-76.140	-80.689	-8191	255	
22452.793	1	1	0	0	0.096453	0.036184	0.30548	0.024122	0.13179	0.075745	0.14396	0.47903	0.088868	0.25292	0.20219	0.24609	0.095594	0.1865	0.12861	0.17685	-2.1896	-2.6104	-2.4542	-2.7333	-2.5229	-2.6333	-2.6417	-2.3979	-2.8229	-2.4917	-2.3875	-2.9	-2.2917	-2.5187	-2.6646	-2.4771	-102.499	25.692	224.725	202.999	218.851	167.563	216.216	185.366	-92.844	104.234	203.843	-93.783	-37.218	208.059	230.379	231.922	0.0012349	0.0014791	0.00075303	537.15	2.3411e-05	2.8488e-05	1040	204.99	2.4405e-05	2.0447e-05	452.29	192.02	84.462	39.121	1.203e-05	108.84	0.037908	0.052491	0.014575	737.05	0.00053142	0.00057927	1185.9	264.62	0.00053052	0.00057966	534.49	223.42	135.2	50.373	0.0005422	119.44	124.311	146.613	-14.817	-93.057	82.761	26.045	-92.839	-89.056	62.982	71.324	-89.430	-84.976	-85.252	-79.165	-30.588	-81.150	-8191	255	
#DATA ENDS
