BOXY.EXE: ISS Imagent and Oximeter Data Acquisition Program Version 0.80
Ascii Record File

#ACQ INFORMATION
2  Detector Channels 
16  External MUX Channels 
1  Auxiliary Channels 
5000  Waveform (CCF) Frequency (Hz)
1  Waveforms Skipped 
30  Waveforms Averaged 
1  Cycles Averaged 
16  Acquisitions per Waveform 
10.0806  Updata Rate (Hz) 

#FILE INFORMATION
TRUE -- External MUX Channel results are PARSED.
FALSE -- AC DC and Phase are NOT grouped.
TRUE -- Companion Program Settings File CREATED.
FALSE -- AC data not excluded
FALSE -- DC data not excluded
FALSE -- Phase data not excluded
FALSE -- Auxillary Chn. data not excluded
Tab delimiters

#CALIBRATION STATE
TRUE -- Waveform Calibration Values APPLIED.


#AUX CALIBRATION VALUES
Val Type	aux-1	

Term	1.0000e+00	
Factor	0.0000e+00	


#WF CALIBRATION VALUES
A = Detector Channel
Val Type	A-AC1	A-AC2	A-AC3	A-AC4	A-AC5	A-AC6	A-AC7	A-AC8	A-AC9	A-AC10	A-AC11	A-AC12	A-AC13	A-AC14	A-AC15	A-AC16	A-DC1	A-DC2	A-DC3	A-DC4	A-DC5	A-DC6	A-DC7	A-DC8	A-DC9	A-DC10	A-DC11	A-DC12	A-DC13	A-DC14	A-DC15	A-DC16	A-Ph1	A-Ph2	A-Ph3	A-Ph4	A-Ph5	A-Ph6	A-Ph7	A-Ph8	A-Ph9	A-Ph10	A-Ph11	A-Ph12	A-Ph13	A-Ph14	A-Ph15	A-Ph16	

Term	0.00000e+00	0.00000e+00	0.00000e+00	0.00000e+00	0.00000e+00	0.00000e+00	0.00000e+00	0.00000e+00	0.00000e+00	0.00000e+00	0.00000e+00	0.00000e+00	0.00000e+00	0.00000e+00	0.00000e+00	0.00000e+00	0.00000e+00	0.00000e+00	0.00000e+00	0.00000e+00	0.00000e+00	0.00000e+00	0.00000e+00	0.00000e+00	0.00000e+00	0.00000e+00	0.00000e+00	0.00000e+00	0.00000e+00	0.00000e+00	0.00000e+00	0.00000e+00	0.00000e+00	0.00000e+00	0.00000e+00	0.00000e+00	0.00000e+00	0.00000e+00	0.00000e+00	0.00000e+00	0.00000e+00	0.00000e+00	0.00000e+00	0.00000e+00	0.00000e+00	0.00000e+00	0.00000e+00	0.00000e+00	
Factor	1.00000e+00	1.00000e+00	1.00000e+00	1.00000e+00	1.00000e+00	1.00000e+00	1.00000e+00	1.00000e+00	1.00000e+00	1.00000e+00	1.00000e+00	1.00000e+00	1.00000e+00	1.00000e+00	1.00000e+00	1.00000e+00	1.00000e+00	1.00000e+00	1.00000e+00	1.00000e+00	1.00000e+00	1.00000e+00	1.00000e+00	1.00000e+00	1.00000e+00	1.00000e+00	1.00000e+00	1.00000e+00	1.00000e+00	1.00000e+00	1.00000e+00	1.00000e+00	X	X	X	X	X	X	X	X	X	X	X	X	X	X	X	X	

B = Detector Channel
Val Type	B-AC1	B-AC2	B-AC3	B-AC4	B-AC5	B-AC6	B-AC7	B-AC8	B-AC9	B-AC10	B-AC11	B-AC12	B-AC13	B-AC14	B-AC15	B-AC16	B-DC1	B-DC2	B-DC3	B-DC4	B-DC5	B-DC6	B-DC7	B-DC8	B-DC9	B-DC10	B-DC11	B-DC12	B-DC13	B-DC14	B-DC15	B-DC16	B-Ph1	B-Ph2	B-Ph3	B-Ph4	B-Ph5	B-Ph6	B-Ph7	B-Ph8	B-Ph9	B-Ph10	B-Ph11	B-Ph12	B-Ph13	B-Ph14	B-Ph15	B-Ph16	

Term	0.00000e+00	0.00000e+00	0.00000e+00	0.00000e+00	0.00000e+00	0.00000e+00	0.00000e+00	0.00000e+00	0.00000e+00	0.00000e+00	0.00000e+00	0.00000e+00	0.00000e+00	0.00000e+00	0.00000e+00	0.00000e+00	0.00000e+00	0.00000e+00	0.00000e+00	0.00000e+00	0.00000e+00	0.00000e+00	0.00000e+00	0.00000e+00	0.00000e+00	0.00000e+00	0.00000e+00	0.00000e+00	0.00000e+00	0.00000e+00	0.00000e+00	0.00000e+00	-2.01985e+02	-1.29378e+02	-1.28570e+02	-1.80487e+02	-8.05482e+01	-6.35979e+01	-1.57016e+02	-1.62015e+02	-9.10596e+01	-6.42508e+01	-1.71443e+02	-1.71615e+02	-1.83224e+02	-1.76661e+02	-7.99887e+01	-1.49508e+02	
Factor	5.02138e-05	2.16187e-04	5.75228e-05	2.02782e-01	2.24451e-06	2.39498e-06	2.11821e-01	6.23708e-02	2.36109e-06	2.12806e-06	1.02550e-01	4.02935e-02	4.67635e-02	1.15781e-02	2.14567e-06	1.65216e-02	1.48403e-05	2.08106e-05	5.80611e-06	1.01095e-01	2.10257e-07	2.31288e-07	9.93696e-02	3.12328e-02	2.09323e-07	2.30627e-07	4.98278e-02	1.95568e-02	2.33408e-02	5.84236e-03	2.17295e-07	8.10984e-03	X	X	X	X	X	X	X	X	X	X	X	X	X	X	X	X	



#DISTANCE SETTINGS
A = Detector Channel
A-1	A-2	A-3	A-4	A-5	A-6	A-7	A-8	A-9	A-10	A-11	A-12	A-13	A-14	A-15	A-16	

2.5000e+00	3.0000e+00	2.5000e+00	3.0000e+00	2.0000e+00	3.0000e+00	1.5000e+00	3.0000e+00	3.0000e+00	3.0000e+00	3.0000e+00	3.0000e+00	3.0000e+00	3.0000e+00	1.5000e+00	3.0000e+00	

B = Detector Channel
B-1	B-2	B-3	B-4	B-5	B-6	B-7	B-8	B-9	B-10	B-11	B-12	B-13	B-14	B-15	B-16	

1.0000e+01	1.0000e+01	1.0000e+01	1.4400e+00	1.0000e+01	1.0000e+01	1.5100e+00	1.9400e+00	1.0000e+01	1.0000e+01	1.9900e+00	2.4900e+00	2.4100e+00	2.9000e+00	1.0000e+01	2.9800e+00	




#DATA BEGINS
time	group	step	mark	flag	A-AC1	A-AC2	A-AC3	A-AC4	A-AC5	A-AC6	A-AC7	A-AC8	A-AC9	A-AC10	A-AC11	A-AC12	A-AC13	A-AC14	A-AC15	A-AC16	A-DC1	A-DC2	A-DC3	A-DC4	A-DC5	A-DC6	A-DC7	A-DC8	A-DC9	A-DC10	A-DC11	A-DC12	A-DC13	A-DC14	A-DC15	A-DC16	A-Ph1	A-Ph2	A-Ph3	A-Ph4	A-Ph5	A-Ph6	A-Ph7	A-Ph8	A-Ph9	A-Ph10	A-Ph11	A-Ph12	A-Ph13	A-Ph14	A-Ph15	A-Ph16	B-AC1	B-AC2	B-AC3	B-AC4	B-AC5	B-AC6	B-AC7	B-AC8	B-AC9	B-AC10	B-AC11	B-AC12	B-AC13	B-AC14	B-AC15	B-AC16	B-DC1	B-DC2	B-DC3	B-DC4	B-DC5	B-DC6	B-DC7	B-DC8	B-DC9	B-DC10	B-DC11	B-DC12	B-DC13	B-DC14	B-DC15	B-DC16	B-Ph1	B-Ph2	B-Ph3	B-Ph4	B-Ph5	B-Ph6	B-Ph7	B-Ph8	B-Ph9	B-Ph10	B-Ph11	B-Ph12	B-Ph13	B-Ph14	B-Ph15	B-Ph16	aux-1	digaux	

21372.844	1	1	0	256	0.17767	0.13143	0.062752	0.058309	0.10218	0.26102	0.22671	0.13345	0.068526	0.11868	0.20656	0.21921	0.060294	0.076839	0.19571	0.36024	-2.5125	-2.8063	-2.7479	-3.1688	-2.7896	-3.0875	-3.0354	-2.7667	-3.0833	-2.9854	-3.0958	-2.9313	-2.6646	-2.825	-2.9896	-2.7375	408.937	390.296	439.506	218.021	483.767	470.885	184.174	172.151	322.345	378.762	386.990	199.767	165.988	342.190	235.459	515.566	0.00052863	0.00025727	8.3881e-05	992.82	2.9978e-06	3.1408e-06	1046.6	208.92	3.7339e-06	2.9492e-06	256.16	73.778	58.981	17.589	3.684e-06	23.825	0.00019311	0.00011957	3.1897e-05	1018.8	1.5485e-06	1.2297e-06	1069.5	214.94	1.4997e-06	1.1786e-06	263.33	76.181	60.69	18.332	1.2974e-06	25.076	483.231	256.535	231.003	172.121	291.309	298.379	171.756	178.978	263.377	325.501	178.443	184.514	184.838	191.957	285.829	191.013	-8191	255	
21372.939	1	1	0	0	0.24892	0.18788	0.14009	0.23085	0.059999	0.19793	0.27184	0.030465	0.25887	0.15713	0.081061	0.47997	0.16283	0.026601	0.14172	0.28956	-2.5292	-2.7542	-2.5854	-3.2146	-2.8937	-2.9146	-3.0292	-2.6917	-2.8604	-2.9521	-2.5833	-3.0604	-2.6188	-2.6708	-3.0396	-2.5938	500.978	290.178	392.644	184.717	499.911	206.732	447.238	510.137	370.377	468.697	354.719	164.848	489.716	244.497	395.742	469.210	0.00052521	0.00032853	8.8065e-05	995.83	5.099e-06	3.3153e-06	1043.2	208.49	4.7889e-06	2.71e-06	254.21	73.535	58.693	17.546	2.6097e-06	23.73	0.00019796	0.00012833	3.272e-05	1017.8	1.6181e-06	1.2509e-06	1069.9	214.69	1.4923e-06	1.2031e-06	262.6	76.094	60.505	18.306	1.2404e-06	25.069	480.908	254.669	266.130	172.167	270.867	335.210	171.717	179.044	265.423	307.035	178.646	184.418	185.154	191.930	285.303	191.722	-8191	255	
21373.035	1	1	0	0	0.17571	0.13884	0.0348	0.086948	0.21411	0.26443	0.19405	0.081687	0.36701	0.11349	0.16246	0.08703	0.14376	0.12316	0.15036	0.08528	-2.5	-2.7229	-2.5604	-2.9458	-2.6833	-2.7146	-3.0521	-2.7188	-3.0187	-2.9062	-2.8542	-3.0396	-2.9458	-2.7833	-3.0312	-2.8208	411.185	435.858	319.268	493.715	468.554	245.557	395.856	422.528	353.439	252.826	472.527	263.619	247.857	162.226	367.345	505.181	0.00053066	0.00035995	6.292e-05	993.07	2.6733e-06	4.1149e-06	1039.9	207.83	4.638e-06	1.7587e-06	253.65	73.837	58.956	17.463	2.9327e-06	23.744	0.00019769	0.00011181	3.3518e-05	1015.5	1.4906e-06	1.3179e-06	1066.2	213.93	1.4892e-06	1.1378e-06	262.41	76.254	60.742	18.29	1.3336e-06	25.061	485.705	245.138	245.618	172.174	269.969	307.357	171.770	178.915	264.570	314.050	178.476	184.958	185.111	191.747	283.701	191.758	-8191	255	
21373.154	1	1	0	0	0.15775	0.11671	0.21675	0.31431	0.064995	0.045884	0.14874	0.10715	0.13267	0.049411	0.14862	0.24955	0.10332	0.013732	0.24	0.21886	-2.4688	-2.9646	-2.7625	-3.0062	-2.8792	-2.6625	-3.1521	-2.5979	-2.8896	-2.8896	-2.8063	-3.0312	-2.8375	-2.7083	-2.9542	-2.8458	256.489	337.194	294.631	164.464	496.239	202.129	480.373	377.352	225.935	291.638	426.207	495.358	429.582	324.187	389.639	209.441	0.00057148	0.00032782	7.3575e-05	992.91	1.9388e-06	2.5268e-06	1044.8	207.95	5.2677e-06	1.6901e-06	254.28	73.634	58.782	17.507	2.0802e-06	23.956	0.00020229	0.00011155	3.2296e-05	1014.6	1.4639e-06	1.2176e-06	1066.7	213.9	1.5285e-06	1.0542e-06	262.56	76.006	60.472	18.31	1.182e-06	25.097	483.633	260.005	251.628	172.128	274.090	341.225	171.790	178.907	270.082	312.715	178.770	184.451	185.016	192.127	297.090	191.486	-8191	255	
21373.252	1	1	0	0	0.2815	0.13303	0.36915	0.325	0.082814	0.091073	0.3541	0.21835	0.094067	0.18071	0.047569	0.086605	0.11853	0.21394	0.094118	0.12566	-2.3479	-2.7812	-2.7021	-2.9167	-2.6937	-2.725	-3.075	-2.6625	-2.6333	-2.9396	-2.7854	-2.9292	-2.7833	-2.7083	-3.0292	-2.7104	435.796	331.008	415.439	469.704	253.661	404.877	472.165	398.618	203.327	191.738	167.222	311.380	188.812	169.175	325.170	464.503	0.00056015	0.00024733	6.5295e-05	993.25	3.9726e-06	3.4831e-06	1037.8	209.13	4.5882e-06	1.3321e-06	254.18	73.878	59.031	17.459	3.3904e-06	23.739	0.0001941	0.00010661	3.1486e-05	1014.6	1.4806e-06	1.2629e-06	1066.4	214.81	1.4862e-06	1.1555e-06	262.44	76.282	60.635	18.338	1.2485e-06	25.081	483.830	224.689	261.615	172.011	272.883	330.983	171.760	178.788	270.223	326.382	178.482	184.773	184.868	191.640	279.241	190.999	-8191	255	
21373.348	1	1	0	0	0.15083	0.26007	0.081513	0.14686	0.20819	0.14182	0.19704	0.065975	0.063279	0.13616	0.27733	0.26822	0.27605	0.056457	0.11924	0.048924	-2.5312	-2.8146	-2.55	-2.8333	-2.95	-2.7792	-2.9854	-2.7708	-2.7562	-2.9813	-2.9458	-2.9083	-2.8104	-2.7167	-2.8729	-2.9437	169.998	297.117	407.712	459.722	515.203	493.586	370.547	403.614	378.856	417.037	245.674	447.545	431.956	288.175	183.167	499.601	0.000542	0.00033303	9.9473e-05	992.85	2.5262e-06	3.0167e-06	1038.5	209.8	5.129e-06	2.787e-06	254.27	74.8	59.525	17.587	3.3649e-06	23.958	0.00019868	0.00011641	3.1921e-05	1014.6	1.4626e-06	1.222e-06	1067.7	215.21	1.5032e-06	1.0859e-06	263.29	76.685	61.077	18.461	1.2884e-06	25.242	485.226	257.397	229.142	172.047	278.834	325.164	171.872	178.901	269.949	328.420	178.458	184.519	184.654	191.971	315.426	191.359	-8191	255	
21373.443	1	1	0	0	0.1569	0.099125	0.18866	0.12969	0.17012	0.11613	0.32274	0.13913	0.23499	0.075353	0.18654	0.18871	0.1249	0.14806	0.25029	0.15081	-2.3854	-2.8688	-2.6708	-2.9646	-2.9083	-2.6458	-3.0979	-2.9062	-2.6708	-3.0187	-2.8875	-2.7562	-2.8937	-2.6646	-2.9396	-2.8042	243.747	371.106	464.289	305.015	448.123	503.987	423.186	181.065	300.084	427.359	183.209	236.224	214.567	328.181	241.563	435.683	0.00055055	0.00017263	7.3578e-05	994.58	2.58e-06	1.643e-06	1046	210.35	4.5716e-06	2.6923e-06	257	74.328	59.448	17.793	2.7107e-06	24.056	0.00019441	0.0001047	3.2841e-05	1017.6	1.4131e-06	1.2157e-06	1071.2	216.38	1.4565e-06	1.1743e-06	264.83	76.936	61.433	18.64	1.1449e-06	25.419	479.467	255.964	233.256	172.254	275.798	339.123	171.691	178.670	272.803	326.881	178.414	184.277	185.010	191.397	272.297	190.935	-8191	255	
21373.539	1	1	0	0	0.21835	0.05451	0.32961	0.1727	0.09108	0.21702	0.16437	0.061803	0.052047	0.30521	0.30749	0.17949	0.23773	0.018634	0.070589	0.17194	-2.2208	-2.8333	-2.8292	-2.8729	-2.9021	-2.6813	-2.9458	-2.95	-2.7271	-3.1042	-2.7521	-2.8521	-3.0646	-2.6875	-2.6937	-2.9104	248.451	369.980	318.940	215.195	465.581	298.905	442.477	384.381	334.364	170.002	482.496	520.926	247.909	394.670	277.335	478.869	0.00056747	0.00034819	9.1132e-05	997	3.6793e-06	3.0625e-06	1050.9	212.68	4.5152e-06	2.7528e-06	259.21	75.642	60.017	18.031	2.6124e-06	24.314	0.00019738	0.00010327	3.1063e-05	1020.8	1.361e-06	1.2282e-06	1074.5	218.17	1.4408e-06	1.1488e-06	267.28	77.705	61.902	18.837	1.2648e-06	25.627	482.714	282.142	254.675	172.159	280.803	319.322	171.783	179.036	279.124	311.030	178.770	184.692	184.715	191.622	300.690	191.018	-8191	255	
21373.637	1	1	0	0	0.32884	0.10073	0.18161	0.23223	0.12719	0.025808	0.14753	0.19355	0.18715	0.18705	0.30977	0.17469	0.17754	0.096789	0.11498	0.040757	-2.2125	-2.7646	-2.8146	-2.8312	-3.0271	-2.9917	-2.8375	-2.9229	-2.6833	-3.0125	-2.9188	-2.7146	-2.9167	-2.7604	-2.8625	-2.8979	415.376	344.828	197.395	434.783	468.151	442.181	514.590	423.344	423.509	508.592	454.806	420.735	351.661	196.396	312.235	403.111	0.00056929	0.00030825	8.2649e-05	1003.7	3.2286e-06	3.252e-06	1056.1	214.36	4.6798e-06	3.4774e-06	260.06	75.379	60.257	18.047	4.188e-06	24.296	0.00020031	0.00010492	3.1208e-05	1026.3	1.417e-06	1.2013e-06	1080	219.54	1.4557e-06	1.12e-06	267.95	77.921	62.089	18.86	1.2802e-06	25.641	482.871	250.035	255.706	172.081	266.686	315.216	171.802	178.503	266.879	294.472	178.748	184.334	184.630	191.312	290.029	191.308	-8191	255	
21373.732	1	1	0	0	0.19267	0.048506	0.16059	0.37967	0.15184	0.34306	0.16889	0.2759	0.41403	0.082968	0.10293	0.14348	0.092664	0.2795	0.025413	0.19258	-2.3042	-2.8208	-2.7333	-2.7521	-2.9125	-2.6937	-2.8583	-2.9	-2.6813	-3.0563	-2.7313	-2.7917	-2.8937	-2.7979	-2.8125	-3.1104	265.646	230.040	307.591	472.436	347.608	495.014	495.796	421.641	259.134	494.931	173.278	209.547	453.197	382.414	432.946	470.827	0.00058817	0.00024627	6.971e-05	1003.2	4.0492e-06	2.6433e-06	1052.4	213.2	4.4995e-06	3.1049e-06	260.27	75.773	60.184	17.895	3.0989e-06	24.437	0.00020254	0.00010635	2.8341e-05	1025.4	1.4267e-06	1.1738e-06	1078.2	219.33	1.4203e-06	1.0907e-06	268.22	77.939	62.004	18.791	1.2431e-06	25.68	482.333	244.320	240.419	171.989	288.086	308.603	171.826	179.015	261.370	301.918	178.703	184.711	185.152	191.440	272.724	191.282	-8191	255	
21373.854	1	1	0	0	0.20804	0.18997	0.054718	0.10055	0.057974	0.080371	0.13377	0.25057	0.079046	0.13655	0.26306	0.090931	0.14342	0.1828	0.091924	0.083392	-2.2667	-2.9354	-2.7042	-2.8042	-2.9188	-2.9271	-2.6479	-3.0479	-2.7417	-2.8333	-2.9208	-2.5792	-2.85	-2.9083	-2.7958	-2.9062	354.028	229.371	212.159	255.589	168.784	439.906	230.514	472.165	325.589	468.552	199.584	511.212	310.366	166.996	432.109	163.950	0.00057793	0.00038156	9.5778e-05	1003.2	4.8649e-06	3.0706e-06	1051.7	214.11	3.8456e-06	3.1974e-06	259.68	75.837	60.362	18.064	1.8695e-06	24.508	0.0002048	0.00010631	2.776e-05	1027.3	1.3824e-06	1.1767e-06	1077.7	219.52	1.4282e-06	1.1411e-06	268.07	78.07	62.09	18.873	1.2784e-06	25.707	484.668	254.704	243.954	172.231	269.874	297.725	171.819	178.769	268.855	317.807	178.586	184.377	184.661	191.680	267.762	191.332	-8191	255	
21373.947	1	1	0	0	0.11224	0.15589	0.18287	0.36639	0.04938	0.058859	0.33352	0.13888	0.16801	0.29816	0.053133	0.18044	0.29343	0.18274	0.06465	0.17656	-2.1875	-2.7021	-2.6854	-2.7646	-2.775	-2.7542	-2.8521	-3.0708	-2.75	-2.75	-3.1333	-2.7687	-2.9729	-2.9938	-2.8187	-3.1021	403.127	430.812	162.786	382.249	208.235	282.463	416.957	210.414	170.809	256.775	163.205	174.846	265.534	202.033	204.126	467.655	0.00058746	0.00027543	7.2471e-05	1003.2	3.949e-06	3.4176e-06	1049.4	212.96	3.6991e-06	2.1825e-06	259.38	75.135	60.052	17.953	2.7481e-06	24.456	0.00020078	0.00011086	2.949e-05	1024.4	1.46e-06	1.0885e-06	1075.9	219.01	1.3597e-06	1.1464e-06	267.96	77.64	61.918	18.839	1.263e-06	25.617	481.431	258.989	254.602	171.792	292.010	320.762	171.841	178.975	252.373	321.219	178.785	184.599	184.672	191.426	300.256	191.352	-8191	255	
21374.045	1	1	0	0	0.29316	0.24456	0.25234	0.18816	0.17985	0.11071	0.17157	0.23	0.075211	0.056585	0.06433	0.053984	0.25374	0.091975	0.27274	0.1188	-2.3875	-2.7375	-3.0042	-2.875	-2.9271	-2.7812	-2.8146	-2.8646	-2.7521	-2.7917	-2.9083	-2.7042	-2.9854	-2.8958	-2.6875	-3.125	345.535	285.627	178.019	449.277	190.228	370.363	320.554	473.738	337.678	326.185	276.591	461.165	517.338	282.589	419.280	474.011	0.00057264	0.00028255	7.4717e-05	1001	2.9523e-06	2.6387e-06	1053.6	212.15	3.3787e-06	1.58e-06	259	75.735	60.3	17.918	1.3095e-06	24.108	0.00020075	0.00011524	2.7845e-05	1022.5	1.4499e-06	1.0606e-06	1076.7	218.51	1.4875e-06	1.2641e-06	267.29	77.795	61.923	18.772	1.2635e-06	25.569	481.312	251.380	251.624	172.008	284.014	333.647	171.890	178.854	283.942	345.200	178.447	184.339	184.593	191.337	271.428	191.403	-8191	255	
21374.139	1	1	0	0	0.12504	0.084215	0.28136	0.079252	0.15986	0.11653	0.18794	0.21213	0.16226	0.25809	0.0053283	0.06116	0.24064	0.16599	0.10194	0.17888	-2.3063	-2.7438	-2.8271	-2.8312	-2.7958	-3	-2.8125	-2.9292	-2.8104	-2.7208	-2.9958	-2.8646	-2.8396	-2.8937	-2.725	-3.0708	330.858	471.196	390.460	314.671	200.058	258.406	186.434	429.820	262.956	252.247	276.822	247.652	167.022	333.060	167.267	249.413	0.00057185	0.00034474	5.2149e-05	998.23	3.8232e-06	2.7952e-06	1050.4	213.16	4.3869e-06	2.0582e-06	259.89	75.061	60.436	18.039	3.0466e-06	24.381	0.00019769	0.00011082	2.5934e-05	1022.5	1.4311e-06	1.1733e-06	1076.1	219.22	1.3828e-06	1.1997e-06	267.7	77.665	62.118	18.827	1.3196e-06	25.634	481.735	264.399	269.543	172.103	266.065	321.749	171.759	178.906	260.643	321.734	178.398	184.419	184.778	191.662	288.427	191.056	-8191	255	
21374.236	1	1	0	0	0.090937	0.46464	0.1578	0.054533	0.040746	0.31357	0.28448	0.054448	0.12964	0.20278	0.08541	0.086045	0.15245	0.22233	0.22863	0.16773	-2.475	-2.625	-3.0479	-2.7687	-3.0104	-2.9271	-2.6875	-3.2021	-2.8396	-2.7188	-3.1792	-2.6521	-2.8646	-2.8917	-2.6813	-3.0542	339.135	284.034	368.649	322.734	364.815	411.174	209.074	321.704	382.045	440.919	257.712	438.458	423.439	441.844	417.903	431.163	0.00057031	0.00032843	9.7691e-05	999.14	3.1249e-06	2.7194e-06	1052.5	212.27	4.5784e-06	3.3271e-06	259.86	75.797	60.375	17.936	2.682e-06	24.197	0.00019781	0.00012079	3.0337e-05	1022.9	1.5108e-06	1.0649e-06	1076.8	218.45	1.4378e-06	1.219e-06	267.19	77.83	62.056	18.79	1.2494e-06	25.595	481.988	241.543	230.423	172.018	293.300	307.182	172.047	178.788	259.962	313.321	178.676	184.481	185.051	191.522	278.209	190.818	-8191	255	
21374.332	1	1	0	0	0.22411	0.16329	0.27821	0.15733	0.039523	0.19537	0.40514	0.080588	0.042329	0.15559	0.31734	0.064443	0.29817	0.15075	0.11158	0.14978	-2.3875	-2.7542	-2.9333	-2.8458	-2.8292	-3.1271	-2.7667	-2.725	-3.0271	-2.6667	-2.9708	-2.9396	-2.7687	-2.7938	-2.9729	-2.8937	186.906	300.628	500.690	176.150	215.104	296.338	450.789	379.233	249.577	492.716	316.468	236.648	512.980	464.077	211.837	322.938	0.00058857	0.00030286	9.3121e-05	1003.5	3.6438e-06	1.6507e-06	1053.4	213.45	4.5458e-06	3.0275e-06	259.35	75.368	60.348	17.996	3.0262e-06	24.387	0.00019818	0.00011255	2.9853e-05	1023.6	1.4166e-06	1.1097e-06	1077.2	218.8	1.4121e-06	1.2396e-06	267.34	77.742	61.896	18.83	1.2368e-06	25.685	481.366	250.242	254.377	172.149	277.683	319.670	171.871	178.978	259.031	318.478	178.586	184.541	185.013	191.578	293.669	191.128	-8191	255	
21374.451	1	1	0	0	0.20555	0.23803	0.20816	0.18987	0.06283	0.14664	0.10299	0.046416	0.23531	0.22928	0.16352	0.33692	0.04979	0.25582	0.090409	0.15359	-2.6271	-2.6229	-2.9188	-2.9	-2.7562	-2.9021	-2.9521	-2.7167	-3.0146	-2.775	-3.025	-2.8667	-2.6875	-2.9146	-2.65	-2.8604	243.341	444.716	170.685	408.903	203.194	497.712	298.552	262.586	410.955	460.681	491.034	464.291	518.079	432.945	248.811	320.087	0.00057741	0.00027914	6.8622e-05	1002.7	2.4601e-06	2.8834e-06	1052.2	213.15	4.5118e-06	2.6648e-06	258.33	75.733	60.235	17.947	2.7321e-06	24.432	0.00019459	0.00010817	3.1038e-05	1023.9	1.449e-06	1.074e-06	1076.3	219.12	1.3903e-06	1.1618e-06	267.16	77.699	62.088	18.841	1.2024e-06	25.664	480.843	241.938	261.109	172.033	273.681	321.154	171.744	179.121	265.029	310.748	178.498	184.271	184.893	191.451	283.172	191.163	-8191	255	
21374.549	1	1	0	0	0.25574	0.12564	0.29852	0.21248	0.20488	0.21671	0.18623	0.37396	0.16236	0.03528	0.028138	0.13433	0.13319	0.091263	0.1037	0.26973	-2.7083	-2.8521	-2.8292	-2.8104	-2.7438	-2.8417	-2.825	-2.8875	-2.7771	-2.7021	-2.8292	-2.8375	-2.7271	-2.7979	-2.8292	-2.7208	448.276	226.269	205.005	330.167	311.637	502.546	314.734	468.456	326.705	165.310	466.296	303.602	290.686	212.720	495.279	238.342	0.00059044	0.0003973	8.3145e-05	998.36	2.974e-06	2.1046e-06	1052.3	213.46	3.3636e-06	2.46e-06	259.69	75.143	60.459	18.013	2.6423e-06	24.354	0.00019864	0.000108	2.8801e-05	1022.9	1.5169e-06	1.0697e-06	1075.8	218.94	1.3462e-06	1.1896e-06	267.64	77.884	62.122	18.881	1.225e-06	25.702	482.286	236.758	249.989	172.110	263.107	340.136	171.793	179.001	265.317	322.272	178.437	184.403	184.576	191.435	288.699	191.457	-8191	255	
21374.645	1	1	0	0	0.10716	0.20236	0.25332	0.35044	0.083386	0.092719	0.30054	0.098632	0.24617	0.048618	0.31276	0.14088	0.18231	0.069656	0.2436	0.18342	-2.6417	-2.6188	-2.7062	-2.9	-2.7333	-2.9062	-2.8292	-2.7292	-2.9396	-2.6771	-2.8917	-2.9667	-2.7	-2.9562	-2.7792	-2.7458	262.934	357.653	325.928	461.357	276.423	292.249	456.266	451.846	346.654	359.052	215.404	509.752	359.886	304.229	477.387	359.981	0.00058289	0.00030748	5.952e-05	1000.2	3.8106e-06	2.4638e-06	1050.5	212.06	4.7089e-06	2.4267e-06	260	75.516	60.193	17.998	2.7752e-06	24.37	0.00020078	0.00010978	2.8389e-05	1024.7	1.4766e-06	1.0919e-06	1077.2	218.83	1.3789e-06	1.1185e-06	268.14	77.843	62.153	18.904	1.1929e-06	25.721	479.450	256.561	273.993	172.056	274.727	315.537	171.926	179.031	263.289	319.499	178.827	184.520	185.090	191.597	290.954	191.178	-8191	255	
21374.717	1	1	0	0	0.11877	0.060442	0.059636	0.13981	0.25596	0.094824	0.25972	0.2411	0.11791	0.25222	0.19572	0.022846	0.16845	0.051472	0.1684	0.2478	-2.5125	-2.5667	-2.7	-2.9729	-2.4271	-3.1021	-2.9771	-2.8083	-2.9854	-2.7208	-2.75	-2.9437	-2.7521	-3.075	-2.8583	-2.7708	191.642	342.366	219.281	485.659	235.966	389.710	424.336	173.105	346.373	213.947	346.832	378.677	180.499	376.171	163.196	469.763	0.0005742	0.00027315	9.1777e-05	1005	3.4509e-06	2.6055e-06	1048.9	213.52	5.0557e-06	1.5448e-06	260.61	76.324	60.606	17.995	3.0634e-06	24.397	0.00020031	0.00010665	3.0216e-05	1026.7	1.4236e-06	1.1328e-06	1077.6	219.48	1.3759e-06	1.181e-06	268.63	78.19	62.267	18.894	1.2259e-06	25.678	483.354	242.634	272.265	172.016	277.682	316.373	171.852	178.903	262.463	328.174	178.550	184.317	184.873	191.450	294.908	191.034	-8191	255	
21374.838	1	1	0	0	0.12095	0.074934	0.08231	0.25151	0.10157	0.067818	0.33044	0.18279	0.21273	0.13975	0.15669	0.29893	0.047822	0.077676	0.18645	0.14886	-2.4562	-2.7562	-2.8104	-3.1604	-2.7021	-3.0167	-3.0417	-2.7146	-2.9417	-2.9417	-2.7938	-2.9646	-2.7792	-2.8271	-2.6833	-2.6542	233.996	435.276	300.652	425.427	331.213	297.766	387.767	361.633	379.427	238.054	504.026	285.939	496.341	474.807	420.287	240.095	0.00055648	0.00020934	6.252e-05	1002.6	3.317e-06	2.636e-06	1056.5	213.04	4.6247e-06	2.5227e-06	259.56	75.687	60.338	18.054	3.3866e-06	24.611	0.00019342	0.00010297	3.1909e-05	1025.1	1.4521e-06	1.0904e-06	1078.3	219.51	1.3344e-06	1.1306e-06	268.3	77.984	62.22	18.945	1.1956e-06	25.736	480.976	246.242	245.357	172.033	267.499	318.299	171.707	178.745	259.546	296.429	178.431	184.414	184.628	191.563	284.504	190.998	-8191	255	
21374.934	1	1	0	0	0.28	0.08327	0.23033	0.096203	0.2642	0.50924	0.12757	0.069187	0.13917	0.16503	0.1748	0.31442	0.18169	0.33198	0.11845	0.30839	-2.5812	-2.8646	-2.7771	-2.9854	-2.6875	-2.7042	-2.9292	-2.7667	-3.0125	-2.8	-2.775	-2.95	-2.7042	-2.5896	-2.7896	-2.6604	503.174	301.321	405.950	310.794	277.438	435.961	440.225	484.148	483.747	423.880	441.511	466.319	404.865	265.514	484.868	394.124	0.0005793	0.00022903	6.1626e-05	1000.1	3.2677e-06	3.2644e-06	1050	213.29	4.6124e-06	1.955e-06	258.07	75.409	60.592	17.969	2.0422e-06	24.525	0.00019565	9.9154e-05	2.8353e-05	1025.1	1.3697e-06	1.0514e-06	1077.6	219.46	1.4007e-06	1.1637e-06	267.97	77.978	62.194	18.873	1.1114e-06	25.783	481.558	253.654	239.471	171.831	284.540	313.112	171.764	179.048	264.684	338.655	178.722	184.157	184.634	191.289	306.474	190.947	-8191	255	
21375.027	1	1	0	0	0.025264	0.26913	0.29465	0.15629	0.11027	0.081738	0.149	0.21661	0.06085	0.14641	0.097211	0.26968	0.12141	0.22584	0.1028	0.15946	-2.5333	-2.8479	-2.6271	-3.0062	-2.6146	-2.9083	-3.0125	-2.5917	-2.775	-2.8646	-2.6208	-2.9604	-2.7604	-2.6813	-3	-2.6417	222.814	367.431	280.106	288.424	193.262	214.185	465.781	463.365	375.028	436.093	518.090	380.075	450.540	364.799	486.386	378.353	0.0005682	0.00028878	6.6961e-05	998.82	3.2172e-06	2.6321e-06	1051.8	214.09	3.6469e-06	2.5786e-06	261.37	75.824	60.618	18.063	2.049e-06	24.444	0.00019815	0.00010358	2.9055e-05	1023	1.3938e-06	1.1805e-06	1078.5	219.73	1.2982e-06	1.0551e-06	268.56	78.173	62.241	18.944	1.1123e-06	25.751	481.232	252.628	270.676	171.980	280.123	327.778	171.971	179.008	264.063	322.427	178.960	184.472	185.088	191.690	286.614	191.275	-8191	255	
21375.125	1	1	0	0	0.1201	0.19038	0.21615	0.24985	0.21476	0.18638	0.21721	0.084797	0.47946	0.1555	0.041171	0.18211	0.14094	0.20567	0.084744	0.25168	-2.3646	-2.7271	-2.6063	-2.9167	-2.7313	-2.9667	-2.9542	-2.7188	-2.7812	-2.8875	-2.7646	-2.9875	-2.7375	-2.7625	-2.8438	-2.6188	181.732	241.119	216.981	236.967	452.832	424.374	437.965	215.452	465.325	274.917	310.954	212.716	500.830	455.728	381.265	423.754	0.0005713	0.00023365	7.6147e-05	1001.3	3.0485e-06	2.5787e-06	1055.5	213.81	5.5072e-06	2.3912e-06	260.67	75.587	60.588	18.141	2.2089e-06	24.572	0.00019861	0.00010371	2.6914e-05	1025.3	1.4052e-06	1.1275e-06	1077.9	219.79	1.4221e-06	1.0152e-06	268.31	78.067	62.316	18.918	1.168e-06	25.752	480.298	265.982	253.537	172.083	280.859	328.751	171.851	178.771	277.810	321.220	178.539	184.719	184.703	191.563	303.958	191.055	-8191	255	
21375.244	1	1	0	0	0.15179	0.15928	0.064423	0.23135	0.15066	0.12219	0.095681	0.080325	0.15942	0.059462	0.22906	0.086794	0.058248	0.21273	0.25021	0.17861	-2.2708	-2.7646	-2.5	-2.9688	-2.7958	-2.6417	-3.1437	-2.8771	-2.8604	-2.8896	-2.8812	-2.9792	-2.7083	-2.7354	-3.0979	-2.7458	250.477	378.854	201.197	420.759	478.903	404.915	251.040	505.168	232.074	329.026	424.641	379.311	402.027	465.148	355.705	309.018	0.00057934	0.00024411	6.7341e-05	1003.9	3.7936e-06	2.8777e-06	1055.4	213.99	5.3237e-06	1.7297e-06	259.94	76.13	60.614	18.054	3.9583e-06	24.607	0.00020099	0.00010236	2.8027e-05	1025	1.3995e-06	1.089e-06	1079.1	219.79	1.3641e-06	1.0431e-06	268.43	78.176	62.409	18.926	1.1743e-06	25.789	480.734	238.991	275.017	172.072	263.873	316.781	171.701	178.775	263.910	316.888	178.468	184.215	184.820	191.543	288.210	191.001	-8191	255	
21375.316	1	1	0	0	0.12799	0.13688	0.07383	0.30515	0.15657	0.13577	0.25681	0.40385	0.11068	0.24169	0.11199	0.19141	0.22253	0.12764	0.25256	0.068557	-2.3125	-2.9458	-2.6875	-3.0271	-2.7771	-2.7938	-3.0667	-2.725	-2.7062	-2.8229	-2.7875	-2.8854	-2.9292	-2.6063	-2.9208	-2.7438	307.336	191.949	278.168	172.375	477.895	431.424	463.020	446.072	396.865	337.153	200.137	269.791	481.246	433.032	315.430	178.202	0.00059556	0.00030753	7.3002e-05	1002.3	3.1398e-06	1.9837e-06	1057.2	214.87	4.0477e-06	2.0018e-06	260.21	75.819	60.391	18.099	3.7562e-06	24.465	0.00020081	9.3994e-05	3.0155e-05	1026.1	1.3185e-06	1.0586e-06	1079	220.29	1.3575e-06	1.0782e-06	268.78	78.231	62.419	18.954	1.1231e-06	25.766	479.438	258.020	243.663	172.100	280.369	320.388	171.623	179.011	274.869	312.015	178.665	184.282	184.466	191.313	306.972	191.276	-8191	255	
21375.412	1	1	0	0	0.054259	0.3728	0.25795	0.03353	0.049506	0.27234	0.43822	0.19752	0.030473	0.20773	0.049256	0.032321	0.11569	0.1778	0.14545	0.34337	-2.3042	-3.0187	-2.6562	-2.9917	-2.7208	-2.9042	-3.0958	-2.9083	-2.6708	-3.0167	-2.8146	-2.8438	-2.7479	-2.6958	-3.0062	-2.8688	259.866	348.506	491.028	452.003	219.123	357.758	502.724	398.538	490.370	458.160	165.004	448.611	480.717	506.473	404.647	379.875	0.00053657	0.00026201	5.3126e-05	1003.9	4.0001e-06	1.9477e-06	1052.3	215.14	5.6965e-06	1.6713e-06	260.72	75.867	60.332	18.063	3.1575e-06	24.471	0.00019515	9.3994e-05	2.891e-05	1027.1	1.3548e-06	1.0914e-06	1079.2	220.32	1.4217e-06	1.0148e-06	268.76	78.136	62.051	18.924	1.1612e-06	25.812	480.936	236.160	246.786	172.083	283.318	315.261	171.564	178.907	269.981	299.601	178.603	184.058	184.300	191.643	293.712	191.262	-8191	255	
21375.533	1	1	0	0	0.13066	0.054451	0.23489	0.21016	0.062193	0.26454	0.015866	0.25571	0.021194	0.31523	0.30663	0.19805	0.21984	0.047223	0.22465	0.099445	-2.2562	-3.0104	-2.6521	-2.95	-3.0938	-2.5479	-2.9104	-2.7833	-2.7896	-3.1042	-2.7729	-2.8208	-2.9646	-2.8833	-2.8	-2.7104	426.213	242.508	251.242	247.674	205.438	453.650	460.978	170.991	419.650	187.931	492.034	505.871	265.475	192.869	344.622	401.739	0.00059171	0.00027448	8.0368e-05	1001.8	4.4189e-06	1.835e-06	1056.5	214.1	3.5719e-06	2.4087e-06	260.58	75.19	60.553	18.129	2.129e-06	24.486	0.00019778	0.00010106	2.7724e-05	1024.8	1.3829e-06	1.0755e-06	1078	219.97	1.3227e-06	1.0119e-06	267.98	77.884	62.247	18.93	1.148e-06	25.776	485.031	236.397	252.725	172.155	290.552	297.689	171.811	178.869	257.207	319.084	178.346	184.203	184.942	191.619	267.768	191.423	-8191	255	
21375.629	1	1	0	0	0.097308	0.18797	0.11946	0.26711	0.21608	0.13508	0.19386	0.051833	0.19377	0.11304	0.29929	0.16861	0.21279	0.049584	0.035759	0.21249	-2.225	-3.1083	-2.7375	-2.8521	-2.9417	-2.7292	-2.9479	-3.0042	-2.5375	-2.875	-2.8833	-2.8021	-2.9729	-2.8625	-2.7604	-2.975	359.373	507.794	245.558	258.283	187.806	300.506	457.004	352.620	354.688	459.318	333.288	504.554	310.712	338.348	413.359	443.709	0.00055772	0.00025951	7.5956e-05	1003.3	3.4811e-06	2.5748e-06	1057	213.98	3.3299e-06	1.535e-06	260.09	75.46	60.46	18.097	2.0175e-06	24.491	0.00019697	9.6162e-05	3.1159e-05	1025.3	1.2948e-06	1.1483e-06	1078.8	219.53	1.4103e-06	1.0657e-06	268.03	78.016	62.107	18.962	1.2332e-06	25.805	482.619	256.392	241.354	171.997	279.888	299.308	171.868	178.841	274.066	293.876	178.553	184.424	184.462	191.355	285.474	191.182	-8191	255	
21375.725	1	1	0	0	0.16961	0.13831	0.21742	0.45206	0.22115	0.077954	0.15377	0.19201	0.079932	0.15317	0.039457	0.098275	0.22865	0.14384	0.16028	0.076123	-2.2917	-3.05	-2.7583	-2.6917	-3.0875	-2.6229	-3.0458	-2.8917	-2.7042	-2.925	-2.8771	-2.7062	-3.0187	-2.7354	-2.6083	-2.9146	379.221	420.436	207.304	506.618	298.843	466.331	498.423	515.463	255.720	483.545	194.265	277.818	329.339	339.295	238.602	442.894	0.00057378	0.00030596	7.7212e-05	1002.4	4.0113e-06	3.1735e-06	1052	214.35	4.3688e-06	3.2772e-06	260.41	76.067	60.725	18.165	2.4599e-06	24.546	0.00019682	0.00010414	2.9865e-05	1025.3	1.4118e-06	1.1102e-06	1079.1	220.06	1.382e-06	1.1008e-06	268.84	78.27	62.535	19.049	1.2123e-06	25.879	482.654	244.772	235.568	171.964	288.218	310.843	171.600	178.799	255.190	322.490	178.626	184.437	184.725	191.564	305.499	191.006	-8191	255	
21375.846	1	1	0	0	0.2158	0.215	0.080731	0.19398	0.087824	0.27559	0.35857	0.2515	0.37929	0.16689	0.0064858	0.058764	0.19477	0.16525	0.11961	0.25166	-2.3042	-3.0583	-2.5729	-2.6354	-2.9708	-2.6833	-2.8833	-2.9625	-2.8333	-2.7625	-2.8646	-2.7833	-2.9604	-2.6875	-2.7396	-3.0021	384.830	234.207	453.268	472.662	455.697	202.718	442.874	445.657	221.811	231.362	337.789	425.345	195.239	216.263	317.515	287.760	0.00056403	0.00032327	8.1941e-05	1003.3	4.3904e-06	3.071e-06	1056.1	214.72	3.2376e-06	2.3515e-06	260.65	76.242	61.139	18.136	2.9084e-06	24.569	0.00020535	0.00010067	2.9938e-05	1028.1	1.4429e-06	1.1131e-06	1082	220.58	1.3815e-06	1.1498e-06	268.77	78.472	62.761	19.083	1.2418e-06	25.809	481.501	241.515	265.673	171.924	279.586	309.345	171.830	178.766	265.351	306.527	178.594	184.247	184.668	191.525	291.095	190.699	-8191	255	
21375.939	1	1	0	0	0.31173	0.24253	0.19877	0.34008	0.1999	0.084174	0.071925	0.050051	0.25176	0.078132	0.031979	0.24137	0.15253	0.14249	0.29835	0.17155	-2.2687	-2.7458	-2.825	-2.975	-2.8771	-2.7125	-2.9146	-3.0021	-2.8479	-2.8187	-2.9521	-2.7583	-2.9146	-3.0625	-2.5625	-2.9729	336.577	294.700	298.555	460.237	241.903	392.025	221.585	510.089	235.312	311.531	247.255	444.065	240.682	407.336	278.312	366.691	0.00056185	0.00018387	8.7857e-05	1005.6	3.6573e-06	2.925e-06	1056.3	214.61	3.0552e-06	3.521e-06	261.87	76.001	60.716	18.303	2.8882e-06	24.656	0.0001962	9.7333e-05	2.9914e-05	1029.7	1.4035e-06	1.1155e-06	1081.9	220.76	1.3772e-06	1.1844e-06	269.43	78.481	62.605	19.075	1.1933e-06	25.9	481.720	262.860	271.329	172.049	289.262	332.622	171.926	178.896	242.952	317.719	178.413	184.692	184.839	191.390	286.510	191.202	-8191	255	
21376.014	1	1	0	0	0.12294	0.11479	0.097783	0.29063	0.15417	0.28503	0.23192	0.16576	0.15366	0.097266	0.16331	0.16771	0.12885	0.21202	0.095596	0.13408	-2.0979	-2.7396	-2.9	-2.8167	-2.8896	-2.8792	-2.7021	-3.0542	-2.6583	-2.9271	-3.0292	-2.4958	-2.8958	-2.85	-2.6562	-2.9271	380.127	333.701	447.314	178.410	241.151	214.466	503.208	345.253	392.177	206.419	415.953	474.853	278.851	174.570	301.179	343.442	0.00057566	0.00028965	8.6938e-05	1005.5	2.8609e-06	3.6123e-06	1057.3	214.68	3.4988e-06	3.186e-06	259.4	75.917	60.354	18.114	3.8523e-06	24.436	0.00019339	0.00010848	2.7869e-05	1027.3	1.3776e-06	1.0567e-06	1081.3	220.54	1.3868e-06	1.1584e-06	268.4	78.342	62.273	18.977	1.2354e-06	25.739	481.942	235.105	239.014	172.209	281.478	323.174	171.834	179.053	271.439	317.660	178.595	184.658	184.788	191.684	294.422	191.039	-8191	255	
21376.133	1	1	0	0	0.11006	0.13216	0.1132	0.2651	0.17677	0.13621	0.19453	0.15546	0.1	0.17771	0.22693	0.27447	0.23918	0.16058	0.096667	0.18083	-2.3604	-2.6875	-2.8438	-2.8521	-2.9813	-3.0896	-2.9188	-3.1708	-2.9104	-2.8833	-2.9938	-2.8229	-2.9542	-2.9875	-2.7208	-2.8333	516.008	438.859	264.765	415.409	395.579	304.104	180.101	374.886	389.620	223.161	513.285	168.511	507.954	199.155	308.118	340.131	0.0005946	0.0003233	7.9698e-05	1004.6	3.4058e-06	2.1201e-06	1052.7	213.93	5.0399e-06	2.9992e-06	259.65	75.714	60.622	17.934	2.4787e-06	24.594	0.00019923	0.00010076	2.8208e-05	1025.6	1.4004e-06	1.0553e-06	1077.1	219.71	1.3628e-06	1.1551e-06	268.45	78.09	62.243	18.909	1.105e-06	25.782	482.603	253.677	247.380	172.114	275.617	320.578	171.718	178.940	267.447	309.527	178.566	184.259	184.661	191.371	289.836	191.463	-8191	255	
21376.229	1	1	0	0	0.055259	0.12409	0.11157	0.090177	0.2082	0.22442	0.26501	0.098448	0.10843	0.2342	0.10477	0.24802	0.047722	0.15055	0.036098	0.12784	-2.4104	-2.6521	-2.7833	-2.7854	-2.8438	-2.9625	-2.7687	-3.0167	-2.8854	-2.7833	-2.9062	-2.6229	-2.825	-3.1604	-2.8917	-3.0146	494.928	484.565	172.949	187.984	196.090	518.523	475.203	485.347	480.314	367.318	177.241	519.883	183.162	193.144	323.978	445.090	0.00056609	0.00023462	9.0272e-05	1002.3	4.083e-06	2.6561e-06	1049.3	214.36	4.3092e-06	2.5748e-06	260.26	75.901	60.428	18.191	3.0115e-06	24.716	0.00019651	0.00010232	2.5656e-05	1024.6	1.3807e-06	9.8876e-07	1076.6	219.95	1.2681e-06	1.0974e-06	268.72	78.05	62.263	18.975	1.2531e-06	25.83	484.131	250.988	249.698	171.875	270.180	304.205	171.758	178.884	262.971	327.540	178.607	184.583	185.028	191.732	299.365	191.180	-8191	255	
21376.324	1	1	0	0	0.17733	0.24101	0.25404	0.15185	0.13774	0.37217	0.23449	0.24632	0.17616	0.15743	0.075652	0.22329	0.18373	0.21709	0.24076	0.058813	-2.4479	-2.7333	-2.9646	-2.9188	-2.8187	-3.0167	-2.7146	-2.9437	-2.9729	-2.6521	-3.0417	-2.7229	-2.8312	-2.9062	-2.7229	-2.9896	281.360	270.831	211.924	205.070	343.193	448.955	445.665	516.713	248.162	161.710	487.636	428.974	289.659	235.079	371.883	498.907	0.00054873	0.00026389	7.7253e-05	1006.2	3.9148e-06	2.3894e-06	1053.1	215.02	4.1848e-06	2.3829e-06	260.99	76.191	61.024	18.165	4.0179e-06	24.57	0.00019141	0.00010965	2.8014e-05	1026.4	1.3864e-06	1.0085e-06	1079.5	220.37	1.382e-06	1.1666e-06	269.65	78.358	62.607	19.006	1.1575e-06	25.81	482.926	240.915	239.662	172.186	280.507	320.802	171.901	179.055	275.654	326.974	178.588	184.432	184.939	191.746	293.033	191.513	-8191	255	
21376.422	1	1	0	0	0.46334	0.41674	0.20845	0.48009	0.31799	0.02889	0.19154	0.16006	0.15721	0.3041	0.10663	0.12187	0.2731	0.03501	0.16416	0.11104	-2.4854	-2.5542	-2.9062	-2.7854	-2.7188	-3.1437	-2.6854	-2.8208	-2.9917	-2.6833	-3.1	-2.8667	-2.7438	-2.9646	-2.7313	-2.8417	510.577	284.344	249.299	458.961	173.157	323.937	406.723	194.293	462.678	184.537	267.640	166.299	465.881	519.670	184.819	419.956	0.00055471	0.00028002	6.7996e-05	1006.5	3.3571e-06	2.6768e-06	1057.3	214.49	4.4676e-06	3.1381e-06	261.89	76.153	60.721	18.186	2.4639e-06	24.72	0.00019141	0.0001028	2.7555e-05	1028.4	1.4495e-06	1.0475e-06	1080.9	220.65	1.4055e-06	1.1954e-06	269.51	78.583	62.552	19.03	1.1616e-06	25.946	484.110	240.070	235.278	172.014	257.336	329.105	172.041	178.991	251.224	302.788	178.425	184.135	184.722	191.483	299.887	190.900	-8191	255	
21376.541	1	1	0	0	0.11926	0.30711	0.09219	0.22984	0.10691	0.30084	0.2507	0.06003	0.09822	0.17926	0.19278	0.20059	0.077108	0.076354	0.26612	0.14172	-2.4146	-2.5333	-2.8479	-2.6979	-2.8458	-2.8312	-2.8625	-2.9542	-3.0021	-2.6542	-2.9292	-2.7833	-2.5583	-2.9396	-2.6958	-2.6729	394.545	435.578	489.819	488.806	237.148	442.337	458.469	476.255	268.503	292.339	405.038	476.661	444.943	476.580	372.807	209.061	0.00057886	0.00022788	7.7331e-05	1004.8	4.3553e-06	2.6067e-06	1055.5	215.25	4.6772e-06	2.4281e-06	260.97	76.407	60.546	18.113	2.4966e-06	24.639	0.00018968	9.82e-05	2.8099e-05	1027.9	1.4591e-06	1.0076e-06	1081.2	220.9	1.3916e-06	1.1921e-06	269.8	78.548	62.512	19.061	1.1748e-06	25.903	479.344	229.315	229.607	171.837	289.352	339.047	171.747	178.751	258.143	316.673	178.317	184.625	185.159	191.376	297.169	191.545	-8191	255	
21376.613	1	1	0	0	0.18806	0.28424	0.20667	0.20214	0.29856	0.15801	0.078104	0.076885	0.039211	0.12631	0.21924	0.036172	0.13303	0.21197	0.083622	0.18493	-2.4229	-2.5271	-2.7042	-2.8792	-2.6208	-2.8667	-2.8146	-2.7562	-2.9771	-2.7146	-2.9896	-2.9375	-2.5938	-2.9833	-2.6583	-2.7208	516.923	366.556	440.368	442.125	481.175	218.240	356.832	188.711	463.597	310.696	448.216	399.898	459.399	472.094	301.775	516.152	0.00058002	0.00034324	9.9395e-05	1007.5	3.9866e-06	2.9314e-06	1059.7	214.74	4.541e-06	2.8724e-06	260.17	76.014	60.825	18.191	2.7101e-06	24.607	0.00018819	0.00011342	2.8039e-05	1030	1.4433e-06	1.101e-06	1081.9	220.69	1.2716e-06	1.1748e-06	269.63	78.423	62.599	19.071	1.1761e-06	25.902	481.300	251.283	266.510	172.062	295.528	304.488	171.667	178.828	266.215	323.780	178.723	184.206	184.738	191.633	288.819	191.010	-8191	255	
21376.709	1	1	0	0	0.1843	0.27608	0.10168	0.14527	0.08381	0.039096	0.16124	0.20392	0.19571	0.039269	0.25522	0.071781	0.08648	0.2185	0.27158	0.099801	-2.6208	-2.5833	-2.8688	-2.95	-2.6292	-3.0542	-2.8563	-2.5771	-2.9542	-2.5792	-2.9208	-2.975	-2.6354	-3.0187	-2.8958	-2.8063	199.881	275.551	377.826	477.721	414.661	244.175	492.697	209.073	345.057	364.168	192.944	311.985	306.443	481.600	214.790	245.790	0.00059809	0.00030766	7.3539e-05	1003.7	4.0845e-06	3.1771e-06	1058.5	214.26	4.1991e-06	2.0067e-06	262.32	76.204	61.458	18.188	3.5104e-06	24.621	0.00019292	0.00010878	2.8027e-05	1027.6	1.3851e-06	1.0321e-06	1082.3	220.89	1.324e-06	1.1166e-06	270.66	78.592	62.905	19.049	1.1793e-06	25.916	484.767	255.350	258.007	171.991	287.137	332.972	171.677	179.023	263.413	302.907	178.431	184.348	185.036	191.542	290.278	191.072	-8191	255	
21376.805	1	1	0	0	0.26258	0.17532	0.13208	0.41395	0.052751	0.10467	0.15504	0.086707	0.17004	0.24151	0.30437	0.09109	0.084515	0.22916	0.13946	0.11072	-2.575	-2.75	-2.7521	-3.0271	-2.6813	-2.925	-3.025	-2.7333	-3.0021	-2.7583	-2.8833	-3.1854	-2.5771	-2.9229	-2.7125	-2.7917	508.204	300.283	438.335	401.557	273.939	204.671	407.914	370.635	394.454	279.883	451.438	481.922	423.868	326.420	347.347	409.600	0.00056889	0.00030008	6.315e-05	1008.1	3.5583e-06	2.6851e-06	1061.4	216.02	4.1683e-06	1.9754e-06	262.49	75.969	60.954	18.216	2.9363e-06	24.717	0.00019407	9.9717e-05	2.718e-05	1030.6	1.4468e-06	1.0668e-06	1084.2	221.17	1.3357e-06	1.1109e-06	270.54	78.646	62.806	19.087	1.158e-06	25.902	483.056	232.102	281.055	172.098	299.862	308.199	171.801	179.001	278.765	323.988	178.600	184.314	184.560	191.536	297.495	191.282	-8191	255	
21376.924	1	1	0	0	0.052876	0.12983	0.23303	0.18164	0.18563	0.084207	0.092728	0.21576	0.25232	0.19525	0.16255	0.064188	0.22459	0.23315	0.1034	0.023416	-2.4437	-2.6875	-2.6937	-3.1437	-2.7021	-2.7812	-3.0812	-2.7167	-2.9854	-2.8312	-2.875	-2.9896	-2.7938	-3.075	-2.8646	-2.7833	358.430	200.250	295.265	431.097	184.697	432.391	400.419	371.724	202.682	272.407	463.288	368.623	247.789	206.792	243.751	317.599	0.00055874	0.00035815	8.2972e-05	1003.9	3.0974e-06	2.6679e-06	1054.6	214.93	3.6764e-06	3.0958e-06	262.64	76.317	60.979	18.198	2.6099e-06	24.608	0.00019314	9.8807e-05	2.9478e-05	1028.9	1.4424e-06	1.1405e-06	1081.8	221.22	1.2965e-06	1.0412e-06	270.51	78.643	62.675	19.068	1.1082e-06	25.909	482.044	256.891	268.767	171.870	288.109	320.481	171.683	178.643	275.305	314.783	178.485	184.424	184.644	191.442	279.891	190.949	-8191	255	
21377.021	1	1	0	0	0.19347	0.15301	0.2077	0.27066	0.076779	0.23181	0.21911	0.20888	0.16078	0.092157	0.11806	0.20292	0.38879	0.19162	0.33274	0.12944	-2.6396	-2.7625	-2.8833	-3.0708	-2.8438	-2.8208	-2.9437	-2.6063	-2.8792	-2.8042	-2.7229	-3.1646	-2.7646	-2.7854	-3.1521	-2.6271	234.372	223.884	312.811	425.989	172.226	335.715	191.598	463.218	352.761	410.774	476.562	437.181	210.695	343.840	379.865	449.225	0.00057175	0.00028768	7.5251e-05	1006.9	2.8192e-06	2.7503e-06	1059.3	214.94	4.3735e-06	2.8276e-06	261.99	76.148	61.265	18.127	3.9794e-06	24.778	0.00019218	0.00010427	2.8172e-05	1030.1	1.4898e-06	1.1222e-06	1082.8	221.07	1.3349e-06	1.1185e-06	270.3	78.562	62.752	19.07	1.1711e-06	25.919	482.874	247.755	243.002	171.935	296.138	324.173	171.783	178.714	263.435	306.805	178.636	184.163	184.327	190.919	297.725	191.019	-8191	255	
21377.117	1	1	0	0	0.14759	0.19263	0.1256	0.061668	0.10833	0.098427	0.28319	0.1293	0.10707	0.12703	0.16818	0.22977	0.16487	0.31015	0.14881	0.12564	-2.6417	-2.8312	-2.6	-3.1562	-2.6875	-2.7021	-2.9313	-2.7062	-2.8667	-2.9396	-2.55	-3.0229	-2.7708	-2.8021	-2.8208	-2.7396	318.877	175.709	208.826	495.378	431.883	450.063	421.428	176.871	272.293	261.302	471.362	167.511	208.167	244.110	309.656	378.826	0.00054548	0.00023623	7.9293e-05	1008.4	3.2769e-06	2.7592e-06	1057.8	215.06	4.0464e-06	2.2748e-06	262.06	76.068	60.544	18.318	3.6442e-06	24.564	0.00019385	0.00010323	2.7954e-05	1030	1.3763e-06	1.0668e-06	1083.7	221.2	1.2982e-06	1.0969e-06	270.01	78.485	62.575	19.063	1.1462e-06	25.902	483.499	229.859	266.102	171.897	288.693	305.556	171.735	178.668	262.925	324.573	178.410	184.476	184.589	191.256	287.043	190.875	-8191	255	
21377.213	1	1	0	0	0.20628	0.1287	0.14689	0.16523	0.12787	0.29198	0.13969	0.099337	0.12857	0.13153	0.14317	0.24697	0.31066	0.26336	0.10503	0.2065	-2.3792	-2.7854	-2.7167	-3.0646	-2.8812	-2.6208	-2.8958	-2.7771	-2.8667	-2.9104	-2.7479	-2.9667	-2.7521	-2.85	-2.9917	-2.6792	384.146	422.295	331.242	165.135	494.818	251.701	471.114	191.239	359.722	482.677	402.818	228.329	176.379	221.228	380.046	371.241	0.00056087	0.00034589	6.2756e-05	1007.6	3.7694e-06	4.1577e-06	1060.5	215.1	5.3909e-06	2.3402e-06	260.04	76.361	60.814	18.151	3.4417e-06	24.706	0.00019527	9.5208e-05	3.0833e-05	1029.4	1.4385e-06	1.2726e-06	1083.7	221.09	1.3964e-06	9.989e-07	269.68	78.615	62.72	19.094	1.1327e-06	25.937	483.831	239.680	272.351	171.953	276.194	320.269	171.925	178.879	274.722	294.782	178.623	184.443	184.576	191.682	290.778	191.108	-8191	255	
21377.309	1	1	0	0	0.17737	0.049041	0.37428	0.083703	0.13991	0.14835	0.24983	0.095227	0.22572	0.25092	0.16885	0.18504	0.18315	0.23276	0.15446	0.10815	-2.3875	-2.9521	-2.6583	-2.8438	-2.7562	-2.7271	-3.0896	-2.8375	-2.775	-2.8229	-2.6167	-2.8458	-2.8792	-2.6667	-2.9958	-2.75	168.452	187.367	266.975	450.237	334.897	314.199	398.745	176.778	511.018	362.211	319.961	498.611	392.389	440.127	227.697	266.019	0.00061826	0.00025085	8.6373e-05	1009.6	4.177e-06	2.6083e-06	1059	215.2	3.4496e-06	3.177e-06	261.26	75.807	61.223	18.251	3.232e-06	24.771	0.00020276	9.8633e-05	2.9672e-05	1030.5	1.4241e-06	1.156e-06	1083.9	221.4	1.4195e-06	1.0811e-06	270.12	78.622	62.936	19.098	1.1503e-06	25.977	481.293	243.727	251.728	172.106	304.012	308.082	171.893	178.925	264.415	320.061	178.710	184.361	184.841	191.753	307.963	191.132	-8191	255	
21377.404	1	1	0	0	0.035772	0.3722	0.14573	0.3531	0.14025	0.15499	0.12426	0.029234	0.30297	0.26091	0.05631	0.099272	0.13601	0.1842	0.17015	0.090005	-2.3354	-2.8875	-2.5292	-2.9479	-2.8417	-2.7438	-3.0521	-2.7479	-2.7542	-3.0438	-2.8312	-2.8271	-2.9979	-2.6667	-2.9313	-2.7812	477.074	237.468	440.993	516.709	354.007	461.462	203.142	467.194	424.448	313.968	276.392	382.593	473.223	182.875	307.625	396.034	0.0005872	0.00025498	7.4844e-05	1007.8	2.4087e-06	1.4791e-06	1060.2	216.2	4.0049e-06	2.0916e-06	262.47	76.422	61.112	18.238	2.7772e-06	24.69	0.00020588	9.8937e-05	2.8474e-05	1031.2	1.3487e-06	1.1396e-06	1083.2	221.34	1.4461e-06	1.0412e-06	270.54	78.812	62.694	19.096	1.2178e-06	25.987	482.509	245.719	232.643	172.018	277.066	299.541	171.838	178.960	262.341	326.820	178.651	184.413	184.538	191.629	301.078	191.115	-8191	255	
21377.525	1	1	0	0	0.47678	0.092184	0.11097	0.13287	0.16039	0.297	0.025848	0.20677	0.072871	0.19738	0.090171	0.15274	0.16235	0.18564	0.12981	0.061578	-2.4708	-2.9688	-2.7896	-2.9396	-2.8229	-2.6021	-2.9292	-2.9271	-2.8667	-2.9062	-2.7979	-2.8646	-3.025	-2.7313	-2.8958	-2.7604	446.395	278.417	415.383	257.193	316.184	238.041	173.290	499.855	464.702	410.183	187.630	516.977	404.313	245.163	418.475	250.896	0.00058681	0.00023807	8.6735e-05	1007.5	2.5973e-06	3.1015e-06	1055.9	215.01	4.9633e-06	2.3905e-06	262.76	75.879	60.959	18.252	3.1282e-06	24.756	0.00019719	0.00010032	2.8305e-05	1031	1.343e-06	1.1386e-06	1084.4	221.46	1.4378e-06	9.6239e-07	270.9	78.517	62.693	19.086	1.2327e-06	25.994	483.564	239.264	249.806	172.046	276.561	321.549	171.631	178.729	275.959	324.878	178.464	184.365	185.165	191.335	287.507	190.974	-8191	255	
21377.621	1	1	0	0	0.043805	0.17401	0.050118	0.2551	0.15103	0.25088	0.14826	0.23665	0.011142	0.16831	0.062087	0.19611	0.1121	0.056494	0.26064	0.13466	-2.3479	-2.8979	-2.7438	-2.9062	-2.9479	-2.5187	-2.9646	-2.8375	-2.6021	-2.9625	-2.75	-2.7625	-3.1063	-2.6437	-2.8104	-2.9479	264.477	278.516	316.356	500.631	460.092	308.300	295.102	449.036	409.220	232.198	483.182	257.887	470.332	488.543	362.493	326.891	0.00057067	0.00034316	0.00011013	1007.3	3.8037e-06	4.5664e-06	1057	215.74	4.4684e-06	2.7199e-06	262.75	76.445	61.155	18.22	2.0506e-06	24.873	0.00019883	9.9717e-05	2.9176e-05	1030.9	1.3443e-06	1.2278e-06	1083.7	221.48	1.3859e-06	1.1181e-06	270.63	78.785	62.813	19.098	1.1023e-06	25.976	482.585	268.090	247.228	172.177	272.765	317.639	171.660	178.843	260.174	279.553	178.401	184.211	184.953	191.246	277.093	190.935	-8191	255	
21377.719	1	1	0	0	0.097136	0.084254	0.076659	0.38674	0.20866	0.10769	0.12023	0.3522	0.36544	0.20348	0.048145	0.14137	0.18375	0.11276	0.10817	0.18424	-2.3646	-2.8625	-2.7812	-2.8229	-3.0062	-2.8021	-3.0771	-2.9917	-2.7375	-2.9521	-2.8771	-2.6479	-2.8542	-2.8063	-2.9396	-3.1813	484.663	514.617	385.705	475.452	395.732	221.378	497.724	305.918	258.527	170.260	232.412	435.158	196.030	371.906	406.209	440.657	0.00054605	0.00029392	4.96e-05	1007	3.6266e-06	3.9052e-06	1062.6	215.2	3.0124e-06	2.0726e-06	261.51	75.779	60.67	18.226	2.2639e-06	24.632	0.00019614	0.00010462	3.0071e-05	1030.1	1.3614e-06	1.0712e-06	1085.5	221.27	1.3493e-06	1.1022e-06	270.58	78.505	62.703	19.099	1.2173e-06	25.925	480.759	260.879	265.633	171.960	276.249	318.680	171.764	178.755	265.277	313.482	178.684	184.663	184.771	191.129	300.358	190.959	-8191	255	
21377.814	1	1	0	0	0.080152	0.11889	0.17383	0.12477	0.13971	0.080028	0.4242	0.11869	0.036028	0.21345	0.1188	0.097691	0.067186	0.12323	0.15401	0.08558	-2.2646	-2.9146	-2.8146	-2.9125	-3.0708	-2.7146	-2.9896	-3.0625	-2.6167	-3.125	-2.8479	-2.9021	-3.175	-2.775	-2.8854	-2.9417	182.802	483.915	387.552	506.813	445.046	161.290	455.144	458.825	396.684	371.920	270.239	425.289	516.300	232.081	488.535	498.094	0.00054896	0.00038964	8.799e-05	1009.7	3.7618e-06	2.4506e-06	1059.6	215.54	4.3406e-06	1.6762e-06	261.65	76.816	61.11	18.153	3.4386e-06	24.632	0.0001997	9.9804e-05	2.8994e-05	1031.6	1.3491e-06	1.061e-06	1083.9	221.34	1.4308e-06	1.1176e-06	270.3	78.745	62.835	19.115	1.2906e-06	26.006	483.349	264.712	256.533	172.086	278.040	319.469	171.672	178.935	280.617	324.141	178.643	184.531	184.799	191.583	280.417	191.069	-8191	255	
21377.910	1	1	0	0	0.050426	0.037241	0.23767	0.098902	0.28775	0.16609	0.014473	0.18154	0.092703	0.33841	0.26987	0.13851	0.39465	0.4159	0.094026	0.219	-2.2562	-2.7833	-2.9896	-2.7917	-3.3042	-2.7854	-2.8042	-3.0083	-2.6854	-3.0458	-2.9292	-2.7708	-2.8521	-2.6583	-2.8833	-3.1875	445.115	223.696	437.613	490.590	182.103	360.139	235.261	364.661	210.302	519.856	165.610	331.336	457.616	500.310	349.104	281.265	0.00056759	0.00033018	7.2366e-05	1006.5	3.7782e-06	3.2809e-06	1057	215.56	4.8189e-06	2.1017e-06	262.68	76.01	60.746	18.298	3.8432e-06	24.632	0.00019648	0.00010414	2.8643e-05	1030.1	1.3307e-06	1.1295e-06	1084.4	221.56	1.3794e-06	1.0969e-06	270.87	78.634	62.734	19.109	1.1594e-06	25.939	481.117	262.192	239.368	172.034	276.545	316.968	171.847	178.719	270.211	304.926	178.379	184.323	184.654	191.379	280.422	191.275	-8191	255	
21378.006	1	1	0	0	0.19592	0.18175	0.12115	0.22596	0.2419	0.19662	0.11651	0.35531	0.06048	0.2724	0.13729	0.26261	0.16279	0.19198	0.17407	0.092624	-2.2958	-2.8479	-2.9771	-2.7521	-2.8833	-2.7708	-2.9521	-3.0896	-2.8229	-2.9521	-2.9938	-2.6562	-3.0458	-2.9979	-2.8771	-3.0229	201.886	210.819	455.554	487.335	287.102	197.192	447.098	436.665	273.450	459.133	420.801	500.521	328.951	171.816	315.998	293.212	0.00059479	0.00033193	8.8021e-05	1006.3	3.332e-06	1.7684e-06	1062.1	215.49	4.9629e-06	3.1192e-06	261.75	76.54	61.332	18.336	3.217e-06	24.494	0.00019982	0.00010392	2.7942e-05	1030.3	1.3404e-06	1.0943e-06	1085.5	221.22	1.4321e-06	1.096e-06	270.27	78.697	62.943	19.154	1.1888e-06	25.892	482.098	243.515	240.210	172.067	291.071	308.418	172.055	178.697	270.479	325.977	178.614	184.145	184.841	191.374	301.755	191.062	-8191	255	
21378.102	1	1	0	0	0.24139	0.074658	0.1962	0.27515	0.19845	0.097649	0.14845	0.11314	0.081026	0.23893	0.046638	0.11199	0.09362	0.21547	0.039546	0.10888	-2.35	-2.9125	-2.9917	-2.7354	-3.1562	-2.9479	-2.8396	-3.1708	-2.7875	-2.8583	-3.1312	-2.6688	-2.85	-2.9	-2.6354	-3.0708	377.185	204.256	260.304	193.282	290.440	288.053	386.076	478.379	197.110	504.326	425.153	404.611	248.308	167.664	220.340	442.321	0.0005814	0.00025908	7.1768e-05	1006.9	3.8017e-06	3.7022e-06	1057.6	215.19	4.7514e-06	2.3834e-06	263.17	76.049	60.913	18.316	1.898e-06	24.66	0.00019809	0.00010557	2.6853e-05	1030.7	1.3759e-06	1.0572e-06	1083.1	221.28	1.3305e-06	1.0998e-06	270.67	78.413	62.77	19.102	1.1951e-06	25.97	481.643	266.692	233.376	172.028	280.179	309.164	171.801	178.800	270.251	309.396	178.553	183.902	184.495	191.490	281.360	191.119	-8191	255	
21378.223	1	1	0	0	0.040738	0.068791	0.065669	0.25651	0.085114	0.20126	0.039616	0.10902	0.088217	0.21997	0.14743	0.10185	0.17349	0.14412	0.085763	0.29896	-2.2479	-2.8354	-2.9875	-2.7479	-3.0312	-2.9646	-2.7438	-3.0479	-2.9042	-2.8083	-3.1813	-2.7583	-2.9208	-3.0083	-2.7188	-3.0833	265.919	398.694	379.756	199.875	182.087	347.694	303.216	288.535	232.379	186.197	412.902	197.234	380.664	276.714	398.869	462.674	0.00056677	0.00037149	5.538e-05	1006.5	3.8124e-06	3.0484e-06	1060.9	215.76	3.95e-06	2.424e-06	261.93	76.911	60.815	18.289	2.8523e-06	24.61	0.0001992	0.00010488	2.6333e-05	1029.6	1.3943e-06	1.0842e-06	1084.4	221.12	1.3724e-06	1.0638e-06	269.78	78.679	62.792	19.114	1.1956e-06	26.015	481.233	257.035	235.787	171.960	291.363	324.309	171.754	178.809	270.039	300.881	178.571	184.466	184.805	191.532	280.878	190.717	-8191	255	
21378.318	1	1	0	0	0.14695	0.1345	0.19198	0.12086	0.11249	0.18345	0.3173	0.13262	0.055408	0.22669	0.1006	0.098155	0.29838	0.18275	0.10777	0.12037	-2.3458	-2.6875	-2.8708	-2.8833	-2.8438	-3	-2.9396	-2.9833	-2.7375	-2.6958	-3.0021	-2.8667	-2.9667	-3.0708	-2.6521	-3.0792	240.389	413.823	416.441	455.267	357.128	477.444	461.306	481.800	277.914	193.160	297.413	172.054	312.377	360.753	176.336	439.520	0.00057972	0.00030116	5.8212e-05	1008.9	2.7508e-06	3.5204e-06	1065.2	216.22	3.7186e-06	2.4118e-06	262.84	76.362	61.086	18.479	3.4449e-06	24.882	0.00019837	9.885e-05	2.5982e-05	1031.7	1.4591e-06	1.0716e-06	1087.7	221.88	1.392e-06	1.2118e-06	270.88	78.944	63.093	19.264	1.259e-06	26.128	485.784	231.966	225.888	171.927	298.766	321.276	171.636	178.923	269.090	323.962	178.649	184.168	184.505	191.312	286.136	191.211	-8191	255	
21378.414	1	1	0	0	0.12792	0.11386	0.067918	0.15073	0.31715	0.11443	0.30121	0.28548	0.1577	0.14141	0.15493	0.24766	0.25212	0.15724	0.052762	0.16096	-2.2354	-2.575	-3.0146	-2.9479	-2.7625	-2.9188	-2.8104	-2.9604	-3.0229	-2.6125	-3.15	-2.8187	-2.8958	-3.0938	-2.85	-2.9896	386.374	170.983	235.442	386.417	335.602	201.173	471.833	350.498	505.328	510.568	513.327	277.977	236.011	164.853	199.006	469.635	0.00057805	0.00018557	7.6026e-05	1007.4	3.7451e-06	2.8686e-06	1058.6	217.01	4.9936e-06	3.4672e-06	264.69	77.118	61.501	18.557	3.6117e-06	24.836	0.000192	0.00010041	2.7579e-05	1032.5	1.4324e-06	1.1078e-06	1087.9	222.56	1.3423e-06	1.1666e-06	272.43	79.219	63.411	19.399	1.2775e-06	26.254	484.477	247.863	241.901	172.012	274.272	319.268	171.674	178.643	272.971	328.003	178.321	184.144	184.579	191.226	313.336	190.987	-8191	255	
21378.484	1	1	0	0	0.15949	0.071416	0.14761	0.070913	0.2286	0.18501	0.093801	0.15854	0.24005	0.25929	0.1653	0.068693	0.20317	0.16262	0.12601	0.045178	-2.4875	-2.5625	-2.9938	-2.9583	-2.7167	-3.0771	-2.8	-3.025	-2.7188	-2.7354	-3.0062	-2.8583	-2.8521	-3.025	-2.8125	-2.9396	417.915	499.292	361.897	187.069	407.918	471.903	481.484	483.704	408.905	433.770	326.405	334.921	225.820	506.961	360.703	197.968	0.00056673	0.00028714	6.2922e-05	1017.3	3.4882e-06	3.291e-06	1065.3	218.09	5.1023e-06	3.6533e-06	266.09	77.722	62.103	18.724	3.3025e-06	25.135	0.00019101	9.9934e-05	2.6055e-05	1040.1	1.4565e-06	1.0403e-06	1092.8	224.29	1.3942e-06	1.1224e-06	274.32	80.048	63.938	19.561	1.2327e-06	26.475	482.289	248.301	260.906	171.815	276.741	298.402	171.748	178.787	266.400	318.922	178.299	184.310	184.617	190.802	295.250	190.900	-8191	255	
21378.605	1	1	0	0	0.01192	0.18488	0.056447	0.13527	0.082527	0.14541	0.13946	0.20757	0.17832	0.17195	0.10665	0.090435	0.054623	0.034061	0.14996	0.28442	-2.575	-2.6542	-3.0208	-2.8625	-2.7354	-3.05	-2.8854	-3.0354	-3.0104	-2.7938	-3.0292	-2.8937	-2.7146	-2.9917	-2.7854	-2.8208	300.685	372.402	296.189	432.271	467.738	414.612	512.800	447.830	340.520	458.477	410.482	422.351	194.445	191.638	273.772	343.832	0.00058308	0.00029656	8.7691e-05	1017.1	3.8395e-06	2.9011e-06	1073	219.93	4.8157e-06	1.5777e-06	267.13	78.423	62.721	18.845	2.2431e-06	25.312	0.00019308	9.7073e-05	2.7845e-05	1041.8	1.3925e-06	1.0109e-06	1098	226.05	1.2795e-06	1.0604e-06	276.11	80.648	64.486	19.747	1.1367e-06	26.694	481.565	227.820	246.160	172.024	281.847	322.094	171.836	178.667	265.632	300.087	178.279	184.404	184.470	191.166	285.009	190.825	-8191	255	
21378.701	1	1	0	0	0.079052	0.046492	0.22944	0.068885	0.37393	0.055289	0.14329	0.15723	0.12484	0.11727	0.20768	0.3544	0.054371	0.18675	0.070013	0.057556	-2.4437	-2.6083	-2.9333	-3.0333	-2.8312	-3.1292	-2.825	-2.9021	-3.1333	-2.6437	-2.8792	-2.9729	-2.5438	-2.9292	-2.7771	-2.8563	413.177	178.884	371.143	376.753	200.312	364.678	422.774	452.330	494.509	465.971	402.504	420.933	413.736	296.161	323.695	381.592	0.00059615	0.00026373	9.9378e-05	1023	4.3243e-06	3.5601e-06	1073.5	221.69	4.8756e-06	2.4359e-06	268.3	78.36	62.674	18.856	2.9806e-06	25.404	0.00019228	0.00010323	2.718e-05	1047.2	1.2856e-06	1.0485e-06	1102.2	227	1.2559e-06	1.0441e-06	276.95	80.732	64.646	19.776	1.1123e-06	26.699	482.653	259.578	257.793	172.000	276.334	317.807	171.522	178.624	258.260	326.556	178.273	184.288	184.575	190.945	275.590	190.605	-8191	255	
21378.799	1	1	0	0	0.063316	0.071407	0.27471	0.077049	0.08711	0.16013	0.29038	0.38685	0.17487	0.012807	0.091136	0.10565	0.054998	0.088582	0.18138	0.12119	-2.6083	-2.6937	-2.8542	-3.0312	-2.5687	-3.0687	-2.8312	-2.8417	-3.1167	-2.7833	-2.9667	-3.1312	-2.6583	-2.9417	-2.7938	-2.8167	336.919	431.397	401.355	312.174	243.497	513.060	438.143	184.252	262.367	390.273	208.354	342.170	255.173	259.713	249.650	225.356	0.0006012	0.00034505	8.455e-05	1024.3	4.5489e-06	4.1253e-06	1076.8	221.89	4.02e-06	2.8629e-06	269.16	78.457	63.179	19.003	1.9643e-06	25.482	0.00019265	9.781e-05	2.7277e-05	1048.4	1.4052e-06	9.6707e-07	1103.8	227.61	1.2254e-06	1.0815e-06	277.56	81.022	65.035	19.888	1.1195e-06	26.779	483.795	237.867	227.463	171.718	264.358	318.874	171.675	178.627	251.311	319.088	178.198	184.247	184.593	190.990	287.346	190.803	-8191	255	
21378.895	1	1	0	0	0.1407	0.14843	0.13698	0.21788	0.25654	0.087822	0.27423	0.27437	0.14346	0.14727	0.026821	0.13929	0.090714	0.12325	0.09724	0.25541	-2.6792	-2.8646	-2.725	-3.0438	-2.6583	-3.0979	-3.0375	-2.7396	-2.8292	-2.8563	-3.0208	-3.025	-2.8896	-2.7687	-2.9583	-2.7146	376.349	402.527	301.321	421.824	503.788	434.321	389.581	475.738	202.552	518.187	418.163	216.757	319.095	386.436	377.431	519.609	0.00058677	0.00028613	8.1811e-05	1028.9	2.5021e-06	3.3155e-06	1083.6	222.91	5.2108e-06	2.7222e-06	268.84	78.827	63.254	19.117	2.6021e-06	25.512	0.00019428	0.00010947	2.6248e-05	1052.2	1.3732e-06	1.0235e-06	1108.6	228.65	1.283e-06	1.1411e-06	278.34	81.433	65.134	19.988	1.0738e-06	26.921	484.418	254.432	260.266	171.930	283.040	328.686	171.484	178.566	258.522	313.951	178.446	183.919	184.462	190.797	295.230	190.678	-8191	255	
21379.014	1	1	0	0	0.083743	0.21742	0.19915	0.10214	0.17116	0.085071	0.083794	0.23857	0.13607	0.057913	0.19065	0.1773	0.1149	0.12486	0.10243	0.1484	-2.5812	-2.575	-2.7833	-2.8917	-2.7979	-3.0667	-2.9375	-2.7542	-2.8812	-2.9896	-2.7479	-3.1458	-2.6729	-2.8729	-2.85	-2.8229	352.932	288.050	313.575	392.935	248.584	177.091	393.092	506.170	231.895	431.614	475.533	384.796	516.520	251.150	374.818	494.896	0.00058799	0.00034485	0.00010293	1029.9	3.1942e-06	3.3073e-06	1083.1	222.41	4.169e-06	2.6648e-06	270.42	79.248	63.886	19.144	2.5686e-06	25.657	0.00019243	9.8937e-05	2.7567e-05	1054.9	1.3824e-06	1.0528e-06	1110.3	229.1	1.2555e-06	1.0239e-06	279.48	81.672	65.581	20.079	1.0439e-06	26.974	481.200	252.432	250.436	171.803	266.274	322.581	171.650	178.523	263.605	311.019	178.167	183.995	184.719	190.909	291.755	190.761	-8191	255	
21379.109	1	1	0	0	0.21259	0.087621	0.07729	0.19053	0.23176	0.13669	0.2164	0.20487	0.046034	0.10586	0.2468	0.07647	0.083046	0.10886	0.23948	0.18749	-2.5021	-2.75	-2.5896	-3.0563	-2.7812	-2.7771	-3.0396	-2.8458	-2.8479	-2.6729	-2.7271	-2.9	-2.7313	-2.8063	-2.8979	-2.6083	493.481	343.399	422.414	421.745	499.942	451.682	483.611	485.071	197.577	423.292	434.119	370.748	494.899	420.945	482.327	498.707	0.00061811	0.00027719	0.00010907	1036.2	4.3501e-06	3.5976e-06	1083.7	223.38	5.4233e-06	3.1012e-06	272.43	79.445	64.165	19.107	3.7457e-06	25.758	0.00019945	9.9544e-05	2.9006e-05	1056.8	1.3785e-06	1.0668e-06	1113.3	229.91	1.3235e-06	8.6725e-07	280.03	81.861	65.631	20.059	1.0842e-06	27.071	481.464	242.382	260.351	171.971	286.769	322.480	171.736	178.667	255.869	335.901	178.137	183.858	184.530	190.822	287.840	190.643	-8191	255	
21379.205	1	1	0	0	0.20608	0.1643	0.047735	0.18389	0.14957	0.17645	0.22834	0.062563	0.10417	0.22917	0.19944	0.15749	0.2902	0.095784	0.093063	0.14664	-2.5458	-2.6875	-2.575	-3.0021	-2.5896	-2.875	-3.1125	-2.8208	-2.9729	-2.7458	-2.9083	-3.0604	-2.6646	-2.7188	-2.85	-2.8271	460.554	252.961	330.176	516.398	228.186	226.918	364.419	486.264	195.351	419.019	380.261	458.592	469.325	272.950	255.446	400.353	0.00059818	0.00032347	8.9878e-05	1030.6	3.8643e-06	3.5439e-06	1086.9	223.99	4.1812e-06	3.2588e-06	270.84	79.283	63.745	19.21	2.5756e-06	25.714	0.00019926	9.0829e-05	2.7652e-05	1056.9	1.3715e-06	1.0389e-06	1113	229.71	1.3166e-06	1.0143e-06	279.92	81.812	65.407	20.087	1.0801e-06	27.096	480.978	241.887	255.054	171.888	282.478	308.049	171.802	178.722	275.489	315.610	178.457	184.036	184.642	191.173	291.854	190.338	-8191	255	
21379.303	1	1	0	0	0.11973	0.11361	0.16481	0.17504	0.085434	0.17724	0.25829	0.14011	0.089156	0.14736	0.1682	0.1767	0.19922	0.22006	0.31816	0.057803	-2.5	-3.0208	-2.5042	-3.0687	-2.7667	-2.6104	-3.0687	-2.6937	-2.7792	-2.7375	-2.7167	-3.025	-2.8333	-2.5563	-3.0292	-2.8479	206.900	502.311	384.919	481.431	340.523	244.799	394.402	167.975	283.248	264.673	354.918	245.709	349.686	481.531	398.027	505.468	0.00061704	0.00031897	6.5148e-05	1035.5	3.3918e-06	2.4723e-06	1092.1	223.82	5.3627e-06	2.5195e-06	272.11	79.745	64.299	19.373	3.7248e-06	25.661	0.00020118	9.2694e-05	2.8039e-05	1060.2	1.4293e-06	1.0475e-06	1115.6	230.37	1.3275e-06	9.8785e-07	281.2	82.035	66.021	20.198	1.1055e-06	27.067	481.534	262.576	243.305	171.996	270.154	313.519	171.682	178.371	263.675	311.257	178.224	184.088	184.477	190.911	281.491	190.726	-8191	255	
21379.398	1	1	0	0	0.15962	0.22643	0.27792	0.032302	0.13605	0.19229	0.19682	0.21865	0.15848	0.13436	0.20014	0.08841	0.16237	0.27059	0.23405	0.23301	-2.1292	-2.9875	-2.4667	-3.0542	-2.6958	-2.6208	-3.1312	-2.7979	-2.7708	-2.9021	-2.5875	-3.0417	-2.8354	-2.6521	-3.0167	-2.7625	217.587	411.589	335.942	319.726	388.190	269.257	401.370	434.772	207.887	473.303	509.088	184.135	437.108	253.668	415.713	321.909	0.00063383	0.00025472	7.1422e-05	1035.9	3.6174e-06	3.9018e-06	1088.7	224.95	5.2032e-06	2.0098e-06	272.45	79.241	63.922	19.293	2.6746e-06	25.755	0.00020208	9.4471e-05	2.7857e-05	1062	1.3986e-06	1.1338e-06	1117.2	230.81	1.3567e-06	9.8112e-07	281.31	81.979	65.823	20.189	1.053e-06	27.073	481.623	254.785	252.969	171.807	277.949	319.643	171.708	178.529	259.870	339.332	178.469	184.295	184.446	190.823	286.769	190.371	-8191	255	
21379.494	1	1	0	0	0.23015	0.072132	0.15558	0.24707	0.12356	0.14754	0.28712	0.10273	0.10063	0.13978	0.16976	0.32983	0.28971	0.094799	0.09633	0.2319	-2.3625	-2.9104	-2.6375	-2.9833	-2.9313	-2.6875	-3.0438	-2.8708	-2.7333	-3.0021	-2.8125	-2.7771	-2.8771	-2.6417	-3.1333	-2.6188	166.633	347.306	183.925	472.690	308.332	480.542	411.193	498.150	382.259	488.422	235.209	422.106	426.582	425.750	454.980	469.993	0.00058832	0.0003026	8.5633e-05	1038.5	3.957e-06	3.0269e-06	1092.3	224.88	5.6002e-06	2.479e-06	271.92	79.745	63.536	19.251	2.6041e-06	25.646	0.00019895	9.5989e-05	2.851e-05	1061.7	1.3251e-06	1.1174e-06	1117.9	230.85	1.3868e-06	9.965e-07	280.88	82.215	65.646	20.148	1.105e-06	27.082	481.092	238.437	254.640	171.924	269.262	317.753	171.681	178.498	268.403	332.554	178.615	183.961	184.535	190.815	282.185	190.829	-8191	255	
21379.615	1	1	0	0	0.18014	0.03453	0.15407	0.19392	0.19219	0.30961	0.26719	0.092373	0.12203	0.1797	0.13895	0.045397	0.19819	0.1878	0.10439	0.31916	-2.1958	-3.0125	-2.6104	-3.0375	-2.8542	-2.7083	-3.1188	-2.8771	-2.6854	-2.95	-2.7771	-2.9	-2.9021	-2.4771	-2.975	-2.8438	275.965	188.929	330.449	171.375	505.086	321.105	388.168	456.269	367.449	320.023	493.024	509.704	286.073	430.536	471.425	435.477	0.00058874	0.00019701	7.7149e-05	1039.2	3.3632e-06	2.7071e-06	1091	224.31	4.9656e-06	3.4323e-06	270.36	79.894	63.652	19.235	3.1178e-06	25.703	0.00019815	9.9154e-05	2.7881e-05	1060.5	1.3097e-06	1.0567e-06	1115.2	230.61	1.3248e-06	9.9458e-07	279.96	81.955	65.55	20.117	1.1236e-06	27.04	482.684	247.899	234.400	171.987	273.405	323.162	171.572	178.780	268.666	318.875	178.342	183.892	184.238	190.929	289.566	190.771	-8191	255	
21379.711	1	1	0	0	0.078219	0.17056	0.18655	0.1243	0.03787	0.14901	0.22978	0.23583	0.17393	0.20736	0.045612	0.13387	0.17009	0.17587	0.14887	0.25139	-2.2479	-3.0042	-2.5146	-2.7021	-2.9208	-2.5604	-2.9958	-2.9854	-2.6875	-2.9188	-2.7583	-2.8333	-2.9313	-2.6688	-2.8354	-2.9396	377.790	488.816	165.498	197.198	405.576	460.661	369.186	225.526	362.258	334.247	360.519	488.998	268.924	242.035	358.452	423.124	0.00059018	0.00030095	7.6333e-05	1038.4	4.0323e-06	3.6166e-06	1089.8	223.31	5.1817e-06	2.1727e-06	271.52	79.478	63.559	19.284	2.8019e-06	25.784	0.00020656	9.4688e-05	2.8631e-05	1061.3	1.3754e-06	1.2143e-06	1116.5	230.32	1.3427e-06	1.0176e-06	280.46	81.982	65.554	20.143	1.0842e-06	27.122	483.814	255.117	248.176	171.892	282.568	298.812	171.764	178.561	267.833	302.355	178.493	184.354	184.277	191.061	302.227	190.089	-8191	255	
21379.783	1	1	0	0	0.17958	0.19196	0.15416	0.16399	0.23918	0.10871	0.052752	0.19544	0.16438	0.19417	0.1523	0.023357	0.23338	0.089899	0.082096	0.16843	-2.1542	-2.9708	-2.7875	-2.7313	-2.9354	-2.6542	-3.0271	-2.9833	-2.5917	-2.9333	-2.8563	-2.6354	-3.0792	-2.4833	-2.9146	-3.0104	185.714	458.658	232.459	488.674	329.511	242.724	387.055	423.256	167.220	332.087	407.423	385.012	233.932	410.117	162.189	405.293	0.00060853	0.00029162	7.487e-05	1039.6	3.3198e-06	3.1907e-06	1087	225.62	4.4974e-06	2.5093e-06	271.93	79.984	63.944	19.274	3.4182e-06	25.657	0.00020529	0.00010011	2.8619e-05	1062.5	1.3364e-06	1.1179e-06	1116.9	230.94	1.4369e-06	1.02e-06	281.28	82.25	65.805	20.156	1.2055e-06	27.126	483.228	245.439	262.709	171.907	297.532	340.273	171.560	178.598	266.403	314.381	178.233	184.192	184.521	190.814	293.817	191.083	-8191	255	
21379.879	1	1	0	0	0.032214	0.23943	0.33575	0.33968	0.023884	0.1921	0.4297	0.050527	0.16889	0.02702	0.29317	0.1058	0.18246	0.37919	0.044242	0.086523	-2.3833	-2.8646	-2.7812	-2.7479	-2.8937	-2.7646	-3.1188	-2.8771	-2.6146	-3.0521	-2.9229	-2.7771	-3.0438	-2.6417	-2.8875	-3.0375	438.657	400.761	297.550	464.364	190.222	359.648	462.732	296.116	347.204	416.789	462.240	458.649	505.515	458.808	507.956	511.631	0.0006075	0.00030346	8.8517e-05	1038.2	4.0573e-06	3.0573e-06	1095.1	225.37	4.822e-06	3.3376e-06	270.79	79.765	64.146	19.39	3.3131e-06	25.884	0.00020084	9.9587e-05	2.6115e-05	1061.5	1.318e-06	1.0167e-06	1117.8	231.51	1.3131e-06	1.0542e-06	281.13	82.372	65.977	20.295	1.1073e-06	27.193	483.555	257.490	272.845	171.948	262.279	310.960	171.733	178.698	267.153	312.514	178.606	184.020	184.681	190.945	287.130	190.725	-8191	255	
21379.998	1	1	0	0	0.20495	0.098096	0.28574	0.32263	0.081905	0.10964	0.099176	0.19462	0.20936	0.059403	0.060396	0.13455	0.12139	0.094672	0.12163	0.12784	-2.2021	-2.9542	-2.7146	-2.6333	-2.8104	-2.7729	-2.9292	-3.1125	-2.6312	-2.95	-3.0271	-2.5417	-3.1417	-2.7854	-2.7812	-3.3125	311.154	320.791	258.177	457.528	385.611	373.756	515.147	361.738	427.509	437.136	245.714	505.721	391.125	166.549	518.846	310.541	0.00060474	0.00019868	5.6332e-05	1038.8	4.0434e-06	2.9602e-06	1090.7	225.06	4.2093e-06	2.2332e-06	274.18	79.546	64.062	19.266	3.5398e-06	25.86	0.00019908	9.3864e-05	2.724e-05	1062.8	1.3903e-06	1.0418e-06	1117.4	231.17	1.3615e-06	9.9121e-07	281.47	82.155	65.897	20.175	1.211e-06	27.177	481.209	255.821	256.091	171.923	269.138	307.388	171.635	178.643	274.072	318.920	178.477	184.060	184.290	190.902	294.823	190.790	-8191	255	
21380.094	1	1	0	0	0.027102	0.2433	0.22372	0.1584	0.076132	0.29855	0.14917	0.17439	0.29824	0.11799	0.15829	0.3216	0.15235	0.28959	0.18043	0.26675	-2.3771	-2.9208	-2.7292	-2.8063	-3	-2.8667	-2.8042	-3.0812	-2.6583	-2.8792	-2.9292	-2.9125	-2.8771	-2.8604	-2.7417	-2.9292	414.512	325.138	372.424	520.245	361.541	489.524	461.880	468.383	229.209	320.972	182.995	207.660	355.435	485.356	509.544	485.999	0.00058741	0.00030842	7.4677e-05	1037.5	2.9051e-06	2.7262e-06	1086.3	223.69	4.7146e-06	2.9829e-06	272.93	80.063	64.059	19.396	3.2423e-06	25.857	0.0001975	9.924e-05	2.5474e-05	1060.6	1.3632e-06	1.0177e-06	1115.1	230.62	1.3628e-06	9.9938e-07	281.74	82.325	65.934	20.22	1.1159e-06	27.158	481.654	249.883	264.971	172.071	271.564	319.827	171.731	178.540	271.670	297.332	178.141	184.048	184.373	190.505	290.230	190.939	-8191	255	
21380.189	1	1	0	0	0.11927	0.063033	0.10922	0.14332	0.22485	0.11792	0.17369	0.14794	0.18794	0.15606	0.10365	0.41731	0.036922	0.094381	0.087213	0.1429	-2.125	-2.7042	-2.7917	-2.7417	-3.0458	-2.8812	-2.7062	-3.0208	-2.7188	-2.8354	-2.8979	-2.6458	-2.7583	-2.7396	-2.5875	-2.8875	410.480	252.352	451.009	475.585	207.776	424.674	456.457	415.851	474.968	227.472	350.732	504.374	283.321	373.749	508.102	378.947	0.00057268	0.00036368	8.5124e-05	1035.8	3.0495e-06	2.3647e-06	1091.3	224.5	5.4279e-06	3.1442e-06	273.45	79.708	64.077	19.241	3.5019e-06	25.844	0.00019481	9.6856e-05	2.5765e-05	1061.1	1.2466e-06	9.849e-07	1117.3	230.96	1.3475e-06	1.12e-06	281.08	82.033	65.78	20.165	1.2055e-06	27.119	481.586	236.362	248.528	171.928	269.106	312.847	171.735	178.648	273.678	319.575	178.495	183.917	184.243	190.853	296.946	190.766	-8191	255	
21380.285	1	1	0	0	0.095828	0.18305	0.26645	0.10233	0.11886	0.094558	0.28275	0.20164	0.12674	0.11597	0.10042	0.19845	0.11109	0.13193	0.11779	0.16425	-2.2875	-2.8	-2.9958	-2.6521	-2.9188	-2.7542	-2.8229	-2.9938	-2.7729	-2.875	-2.9521	-2.675	-2.7604	-3.0521	-2.6583	-2.9229	448.984	259.422	517.188	311.214	248.179	492.123	475.392	163.258	226.898	344.253	497.709	488.135	181.074	184.916	294.766	493.801	0.00058409	0.00027284	8.8537e-05	1035.1	3.8297e-06	2.3206e-06	1088.8	224.17	3.7804e-06	2.9564e-06	270.61	79.831	63.986	19.325	3.219e-06	25.68	0.00019799	0.00010258	2.8051e-05	1059.6	1.3728e-06	9.9695e-07	1114.6	230.55	1.3327e-06	1.1445e-06	280.45	82.029	65.803	20.183	1.2087e-06	27.057	483.336	244.819	242.004	171.834	284.211	295.954	171.605	178.538	275.486	313.151	178.209	184.176	184.427	190.956	303.451	190.530	-8191	255	
21380.383	1	1	0	0	0.12937	0.19021	0.12871	0.17181	0.13446	0.074453	0.11059	0.074585	0.10592	0.22222	0.093558	0.25301	0.15586	0.080071	0.38439	0.26401	-2.3937	-2.7583	-2.9562	-2.9229	-2.7771	-2.9604	-2.7375	-2.8937	-2.8812	-2.7562	-3.0917	-2.7521	-2.7646	-2.9979	-2.6917	-2.9979	419.881	506.469	447.409	403.848	370.405	253.270	407.764	420.089	237.562	324.954	367.176	411.153	197.322	318.999	451.056	257.757	0.00059014	0.00026846	5.714e-05	1038.9	3.5248e-06	3.2757e-06	1089.6	224.68	5.4733e-06	2.9934e-06	271.73	79.665	64.066	19.29	2.7954e-06	25.756	0.00019982	9.7593e-05	2.5341e-05	1060.1	1.3618e-06	9.8057e-07	1115.5	230.62	1.2987e-06	1.1022e-06	280.47	82.195	65.933	20.154	1.1399e-06	27.119	484.281	261.899	247.548	171.992	275.510	297.344	171.732	178.382	253.456	322.656	178.410	183.960	184.191	190.697	306.311	190.470	-8191	255	
21380.479	1	1	0	0	0.33072	0.080107	0.017012	0.20265	0.15523	0.13296	0.23301	0.12071	0.11768	0.15529	0.14581	0.27729	0.38787	0.1006	0.2076	0.15754	-2.3771	-2.5917	-2.8354	-2.7938	-2.7604	-2.9354	-2.9042	-3.0083	-2.7708	-2.825	-3.1458	-2.625	-2.9437	-3.0687	-2.5667	-2.9667	341.862	464.519	291.661	483.427	211.267	243.179	401.150	394.016	249.342	489.175	161.555	193.740	240.287	476.970	502.967	440.775	0.00062159	0.00035258	7.3994e-05	1036.5	3.2497e-06	3.2437e-06	1089.5	224.91	4.533e-06	2.4294e-06	273.05	79.736	64.06	19.287	2.6157e-06	25.812	0.00019648	9.9934e-05	2.5353e-05	1060.2	1.3259e-06	9.7334e-07	1116	230.9	1.3305e-06	1.0844e-06	281.6	82.278	65.884	20.221	1.1716e-06	27.175	483.230	268.454	256.471	171.924	282.712	327.872	171.831	178.530	257.113	332.374	178.541	184.388	184.371	190.466	283.232	190.577	-8191	255	
21380.574	1	1	0	0	0.021352	0.33105	0.15601	0.37802	0.17756	0.16253	0.24589	0.23483	0.18288	0.15076	0.21914	0.23147	0.093456	0.11342	0.14811	0.23819	-2.4167	-2.5854	-3.0083	-2.7438	-2.5938	-3.0021	-2.8021	-2.8021	-2.825	-2.8521	-2.9646	-2.7708	-2.7146	-2.9938	-2.8688	-2.6958	412.510	323.098	180.036	485.404	330.899	298.891	426.364	385.067	231.168	396.704	514.237	512.954	192.551	368.571	494.029	483.128	0.00063071	0.00022999	6.1327e-05	1032.5	3.7499e-06	2.7411e-06	1087.4	225.22	5.154e-06	2.756e-06	272.62	79.521	64.22	19.314	4.0203e-06	25.839	0.00019926	0.0001044	2.5595e-05	1060	1.35e-06	9.796e-07	1115.4	231.1	1.3497e-06	1.0441e-06	281.6	82.222	66.004	20.241	1.1725e-06	27.227	479.627	248.129	234.190	171.917	281.605	315.881	171.593	178.493	261.203	294.665	178.402	184.093	184.689	191.013	281.779	190.694	-8191	255	
21380.695	1	1	0	0	0.22354	0.19344	0.045099	0.20506	0.10511	0.09525	0.21036	0.33352	0.16785	0.094814	0.089378	0.18137	0.13364	0.12298	0.17777	0.21565	-2.5729	-2.5542	-2.8292	-2.8833	-2.5146	-3.0187	-2.7125	-2.6979	-3.0208	-2.7167	-2.8458	-2.9229	-2.7021	-2.9104	-2.7042	-2.6792	382.472	179.807	517.599	164.341	332.850	497.702	405.307	462.870	404.477	329.693	364.814	415.141	446.256	194.646	306.190	488.864	0.00060909	0.0002364	7.4294e-05	1037.8	2.9556e-06	2.369e-06	1090.6	225.52	4.4585e-06	2.9389e-06	272.41	79.808	64.173	19.283	3.5572e-06	25.775	0.00019694	9.9804e-05	2.6756e-05	1062.6	1.3216e-06	9.8731e-07	1118	231.09	1.269e-06	1.1041e-06	281.5	82.217	66.002	20.149	1.1467e-06	27.14	479.636	260.146	240.170	172.092	261.813	325.891	171.717	178.599	266.956	307.104	178.351	183.917	184.199	190.819	296.907	190.594	-8191	255	
21380.791	1	1	0	0	0.15026	0.14601	0.079295	0.2529	0.12507	0.11928	0.15389	0.12226	0.090802	0.15037	0.094908	0.15388	0.30447	0.12442	0.099531	0.034053	-2.4354	-2.5958	-2.9	-2.975	-2.6833	-2.8812	-2.9625	-2.6083	-2.9	-2.5938	-2.9771	-2.9167	-2.7167	-2.6625	-2.7208	-2.7396	221.385	310.429	171.776	477.616	240.022	388.843	468.984	274.789	238.083	331.576	362.910	468.478	388.179	302.210	458.398	425.228	0.00061489	0.00031815	8.5709e-05	1033.7	3.9015e-06	2.5985e-06	1090.2	224.21	4.6846e-06	2.459e-06	273.53	79.38	63.827	19.219	2.732e-06	25.602	0.0001971	0.00010397	2.776e-05	1060.6	1.3965e-06	9.9406e-07	1116.6	230.69	1.3161e-06	1.0681e-06	281.26	82.087	65.868	20.174	1.1539e-06	27.034	482.823	232.910	265.514	171.867	273.431	307.512	171.656	178.581	259.319	330.901	178.288	183.916	184.604	190.726	281.627	190.730	-8191	255	
21380.887	1	1	0	0	0.1444	0.098982	0.15614	0.2755	0.0077262	0.24928	0.33165	0.097651	0.22463	0.092267	0.058111	0.10191	0.16352	0.13977	0.25998	0.20051	-2.4396	-2.8396	-2.8083	-2.8396	-2.625	-2.8729	-2.7583	-2.5625	-2.9562	-2.7313	-2.9042	-2.7771	-2.5354	-2.9833	-2.8021	-2.7979	310.718	198.716	277.983	181.734	474.040	457.031	472.230	236.288	162.646	409.880	218.772	488.768	221.394	383.190	492.831	192.564	0.00057099	0.00036815	0.00010567	1033.7	3.9001e-06	3.7395e-06	1092.5	223.69	4.5488e-06	2.6102e-06	272.86	79.248	63.767	19.132	4.2134e-06	25.734	0.00018826	0.00010717	2.7881e-05	1059.1	1.364e-06	1.0581e-06	1115.9	229.87	1.2189e-06	1.0753e-06	280.74	81.885	65.61	20.075	1.1603e-06	26.973	480.022	230.200	255.092	171.984	265.271	319.237	171.726	178.728	267.580	329.054	178.484	184.201	184.321	191.132	295.887	191.016	-8191	255	
21381.006	1	1	0	0	0.33959	0.29319	0.092771	0.15405	0.17111	0.2281	0.272	0.24676	0.24395	0.2582	0.063116	0.16571	0.23021	0.11496	0.018732	0.19396	-2.5958	-2.5458	-2.6625	-3.0875	-2.6521	-2.9833	-2.8771	-2.5687	-3.0687	-2.5354	-2.8312	-2.8292	-2.5479	-2.8625	-2.675	-2.5625	231.155	397.190	163.515	459.475	418.392	291.276	490.513	439.607	168.189	478.982	485.295	288.118	486.348	419.241	233.021	234.364	0.00058839	0.0003341	8.8175e-05	1036.6	3.6186e-06	3.1547e-06	1083.8	222.94	4.3837e-06	3.1288e-06	272.1	79.148	63.156	18.977	2.6282e-06	25.355	0.00019682	9.0916e-05	2.8595e-05	1058.2	1.463e-06	9.8394e-07	1110.8	229.08	1.2603e-06	1.0912e-06	279.44	81.398	64.973	19.876	1.1612e-06	26.763	481.501	271.501	244.905	172.020	276.191	307.780	171.766	178.598	262.000	297.604	178.502	183.953	184.375	191.306	296.483	190.803	-8191	255	
21381.080	1	1	0	0	0.25268	0.01702	0.20707	0.10065	0.025525	0.14158	0.50031	0.16017	0.098493	0.26475	0.408	0.28343	0.11253	0.13463	0.071778	0.2237	-2.5146	-2.7396	-2.775	-2.9375	-2.6917	-2.6688	-2.9313	-2.7542	-2.8667	-2.6396	-2.6771	-3.1125	-2.7542	-2.7729	-2.8896	-2.4708	275.012	311.618	166.136	450.634	363.890	202.864	396.717	364.203	247.464	511.372	411.164	397.356	164.619	452.020	330.548	509.868	0.00059465	0.00034481	8.4115e-05	1029.4	4.4606e-06	2.6458e-06	1082.2	221.92	4.6748e-06	2.8852e-06	269.4	78.097	63.172	18.798	2.8091e-06	25.386	0.00019054	9.9284e-05	2.9115e-05	1054.5	1.3697e-06	1.049e-06	1109.5	227.85	1.2978e-06	1.0071e-06	277.57	80.83	64.742	19.667	1.1861e-06	26.595	480.026	259.093	257.236	171.912	276.368	306.716	171.614	178.572	273.082	308.845	178.680	184.070	184.884	191.341	289.029	191.028	-8191	255	
21381.174	1	1	0	0	0.26978	0.072177	0.18156	0.31927	0.087268	0.13532	0.059069	0.1706	0.34538	0.13036	0.23134	0.28476	0.29298	0.024871	0.26937	0.19245	-2.5542	-2.7208	-2.7062	-2.8563	-2.7354	-2.9188	-3.1562	-2.5812	-2.9792	-2.7979	-2.7792	-2.7396	-2.7604	-2.8542	-2.8708	-2.8021	455.480	228.006	333.935	234.806	251.211	421.621	515.138	436.204	165.647	306.984	410.538	439.709	459.094	370.138	499.160	217.724	0.00059778	0.00032161	8.3161e-05	1025.1	3.7703e-06	2.4131e-06	1079.5	221.02	6.4159e-06	3.4093e-06	267.68	77.558	62.551	18.704	4.1913e-06	25.173	0.00019555	0.0001044	2.8414e-05	1051	1.3925e-06	1.0509e-06	1105.4	226.86	1.361e-06	1.0806e-06	276.69	80.646	64.348	19.608	1.1702e-06	26.486	481.128	251.576	263.529	171.864	266.780	322.033	171.570	178.938	278.778	315.105	178.200	184.277	184.460	191.346	294.022	190.836	-8191	255	
21381.295	1	1	0	0	0.19897	0.12331	0.095554	0.24635	0.12663	0.21162	0.17975	0.097975	0.052587	0.17168	0.18872	0.052014	0.23954	0.1318	0.19571	0.05367	-2.4125	-2.6229	-2.7646	-2.8771	-2.6792	-2.7667	-2.9375	-2.7979	-2.8563	-2.6562	-2.5625	-2.8833	-2.6604	-2.7604	-2.9896	-2.4375	447.506	436.850	306.674	446.119	163.394	372.679	442.669	487.206	473.125	307.157	362.437	188.679	503.167	184.516	179.373	219.577	0.00055293	0.0002741	7.8423e-05	1023.8	3.8752e-06	3.6604e-06	1077.8	220.7	4.6764e-06	2.8964e-06	267.35	78.267	62.572	18.609	3.1595e-06	25.079	0.000192	9.6856e-05	2.7639e-05	1047.2	1.382e-06	1.0837e-06	1103.9	226.6	1.3157e-06	9.8593e-07	275.82	80.489	64.25	19.563	1.0992e-06	26.547	482.836	254.546	236.247	171.951	270.289	304.235	171.786	178.630	276.207	314.022	178.676	184.210	184.436	191.303	286.898	190.846	-8191	255	
21381.391	1	1	0	0	0.057356	0.23951	0.14103	0.062346	0.19287	0.13797	0.19718	0.2794	0.17206	0.11206	0.17084	0.070911	0.27393	0.32229	0.084743	0.084463	-2.3875	-2.8333	-2.5958	-2.9875	-2.5958	-2.6604	-3.0208	-2.5812	-2.7583	-2.8563	-2.7708	-2.6792	-2.8375	-2.5479	-2.9792	-2.6042	496.399	172.143	177.471	518.510	495.316	299.658	396.498	490.120	308.770	319.447	263.524	451.576	224.006	339.221	273.153	185.069	0.00061613	0.00025917	5.4811e-05	1024.6	3.8157e-06	2.8065e-06	1077.8	220.55	4.3254e-06	2.6448e-06	267.03	78.026	62.767	18.73	4.2163e-06	25.366	0.00019676	9.2564e-05	2.7591e-05	1048.7	1.3132e-06	1.0798e-06	1102.8	226.55	1.3275e-06	9.9506e-07	276.1	80.664	64.395	19.641	1.1154e-06	26.627	481.120	246.315	253.808	172.106	283.639	310.397	171.820	178.741	271.798	314.292	178.522	184.349	184.472	191.255	302.468	190.602	-8191	255	
21381.486	1	1	0	0	0.19751	0.11669	0.18673	0.18278	0.090653	0.26737	0.13378	0.11802	0.15048	0.16638	0.18604	0.073705	0.086734	0.2094	0.16723	0.02658	-2.1875	-2.9146	-2.6458	-2.9313	-2.6813	-2.7354	-3.0646	-2.6667	-2.7375	-3.0312	-2.6625	-2.8229	-2.7021	-2.6292	-2.9437	-2.7604	415.343	357.294	520.705	191.310	335.439	168.495	463.520	386.987	280.018	178.335	280.028	177.784	502.222	268.729	257.606	361.963	0.00057212	0.00029379	8.7907e-05	1023.5	3.2729e-06	3.7959e-06	1078.8	220.49	4.9941e-06	2.1051e-06	268.9	78.551	62.385	18.854	2.6564e-06	25.261	0.00019592	8.8575e-05	2.7119e-05	1049.4	1.2725e-06	1.0008e-06	1104.1	226.66	1.3514e-06	9.4605e-07	277.49	80.973	64.521	19.716	1.0231e-06	26.635	480.220	230.653	243.251	172.114	301.181	334.390	171.901	178.819	272.829	294.229	178.541	184.284	184.621	191.136	303.580	190.777	-8191	255	
21381.582	1	1	0	0	0.046864	0.22803	0.33073	0.28601	0.083757	0.19608	0.14697	0.27068	0.049023	0.047556	0.22275	0.21278	0.19634	0.40764	0.23771	0.26556	-2.2125	-3.0208	-2.5771	-2.8729	-2.7958	-2.6625	-2.9542	-2.7438	-2.6562	-3.1417	-2.6188	-2.8375	-2.8187	-2.6333	-3.025	-2.5771	185.085	377.611	214.281	489.140	231.703	464.885	167.275	164.162	208.574	226.616	176.987	441.984	164.709	183.861	486.358	407.638	0.00060062	0.00034838	0.00010585	1026.5	2.6341e-06	3.8167e-06	1080.2	221.41	4.9916e-06	2.282e-06	269.34	78.9	62.604	18.861	3.9651e-06	25.295	0.00020347	9.278e-05	2.9091e-05	1051.3	1.2764e-06	1.0745e-06	1105.9	227.55	1.3065e-06	9.8353e-07	277.75	81.295	64.74	19.801	1.1091e-06	26.725	481.669	239.993	254.394	171.921	276.317	306.860	171.812	178.719	267.512	308.605	178.424	183.976	184.604	190.974	297.307	190.656	-8191	255	
21381.680	1	1	0	0	0.18064	0.029946	0.14574	0.25577	0.095589	0.1454	0.10675	0.2842	0.14976	0.068047	0.13765	0.15661	0.097837	0.27844	0.13983	0.13442	-2.1604	-2.7687	-2.6312	-2.825	-2.8667	-2.5333	-2.9	-2.7562	-2.65	-2.8958	-2.7646	-2.8292	-2.8187	-2.5125	-2.7125	-2.9229	422.328	200.113	165.613	497.653	515.890	351.799	182.132	458.811	518.809	425.198	227.800	185.341	195.517	372.655	279.500	341.692	0.00060143	0.00036082	7.0348e-05	1029	2.6363e-06	3.3863e-06	1082.2	222.1	4.525e-06	2.3018e-06	267.58	78.729	63.105	18.912	2.4451e-06	25.509	0.00019957	9.3257e-05	2.7833e-05	1051.2	1.2852e-06	1.0914e-06	1107.6	228.29	1.2734e-06	9.4509e-07	277.96	81.143	64.817	19.812	1.0077e-06	26.8	482.093	242.206	264.986	172.206	291.586	308.301	171.617	178.693	259.328	316.112	178.784	184.145	184.743	191.335	298.801	190.981	-8191	255	
21381.775	1	1	0	0	0.19404	0.20825	0.29042	0.19573	0.25698	0.15029	0.33697	0.068362	0.16867	0.22468	0.2393	0.18287	0.16196	0.20788	0.1267	0.1533	-2.1458	-2.8146	-2.575	-2.9104	-2.7438	-2.6188	-2.95	-2.7583	-2.5958	-3.15	-2.9229	-2.6167	-2.7396	-2.6854	-2.8688	-2.8417	187.950	222.488	352.507	385.958	372.329	355.496	507.347	242.686	190.523	333.173	431.110	239.588	318.290	276.421	172.577	170.365	0.00060978	0.00030773	9.7543e-05	1030	3.4414e-06	3.2525e-06	1082.8	221.43	5.5142e-06	3.28e-06	269.92	79.326	63.151	18.985	3.9922e-06	25.35	0.00019404	9.0439e-05	2.724e-05	1053.2	1.311e-06	1.0697e-06	1107.9	227.99	1.351e-06	8.9464e-07	277.96	81.238	64.856	19.9	1.1376e-06	26.794	481.332	257.053	247.616	171.984	280.945	334.057	171.746	178.601	255.221	322.447	178.420	184.231	184.523	191.026	295.406	191.131	-8191	255	
21381.871	1	1	0	0	0.21729	0.21383	0.19884	0.29633	0.20064	0.2108	0.21151	0.39564	0.15137	0.2352	0.10888	0.062743	0.26352	0.091326	0.050207	0.13258	-2.4167	-2.9604	-2.5938	-2.6979	-2.9708	-2.6896	-2.8458	-3.0167	-2.7229	-2.8958	-2.8542	-2.525	-2.8896	-2.6396	-2.7604	-3.0125	390.052	450.093	225.657	478.217	408.739	279.952	499.201	458.725	464.339	510.615	223.172	194.208	478.618	267.609	382.081	440.890	0.0005361	0.00024155	9.9365e-05	1028.5	3.8138e-06	2.0954e-06	1082.9	222.51	4.315e-06	2.0095e-06	269.76	78.757	63.426	18.883	2.7701e-06	25.431	0.00018853	8.619e-05	2.6599e-05	1052.7	1.2782e-06	1.1097e-06	1108.5	228.37	1.3135e-06	9.2587e-07	278.93	81.324	65.273	19.885	1.0946e-06	26.818	478.854	248.510	261.489	171.985	275.304	317.984	171.563	178.603	267.357	303.551	178.562	184.128	184.383	191.109	292.523	190.753	-8191	255	
21381.969	1	1	0	0	0.12315	0.071646	0.23109	0.25615	0.31249	0.1695	0.21732	0.21688	0.17904	0.067969	0.13969	0.097123	0.12542	0.1022	0.17147	0.16181	-2.0979	-2.9854	-2.9271	-2.7917	-2.975	-2.6771	-2.8021	-3.1396	-2.6562	-2.9521	-3.0958	-2.8896	-2.9625	-2.5687	-2.7292	-2.8563	202.190	513.861	485.004	214.578	462.569	168.480	476.145	441.116	249.011	494.223	196.159	487.064	513.627	170.854	197.872	181.101	0.00060923	0.00026272	8.0363e-05	1031.6	2.6536e-06	3.5875e-06	1082.1	222.32	3.8787e-06	2.4684e-06	270.78	79.436	64.055	19.066	4.0404e-06	25.666	0.00020044	9.2347e-05	2.5378e-05	1054.2	1.3023e-06	1.0471e-06	1110	228.91	1.2721e-06	8.9512e-07	279.36	81.582	65.327	19.964	1.1014e-06	26.965	484.578	261.482	249.197	172.153	268.120	309.506	171.871	178.748	244.321	324.816	178.276	184.054	184.503	190.950	283.584	190.866	-8191	255	
21382.088	1	1	0	0	0.28478	0.064162	0.041473	0.13485	0.18504	0.11461	0.069425	0.13491	0.093445	0.13935	0.15467	0.066045	0.085521	0.0785	0.051763	0.049974	-2.2479	-2.8271	-2.8812	-2.8812	-3.0125	-2.7396	-2.8312	-3.0708	-2.7708	-2.9729	-2.9375	-2.7583	-2.9396	-2.8354	-2.5687	-2.9375	204.250	456.851	259.290	261.769	493.887	327.979	494.459	480.237	239.204	518.764	479.905	507.870	294.596	285.524	419.853	380.116	0.00059189	0.00027705	8.3756e-05	1030.5	3.088e-06	3.2956e-06	1086.7	223.01	5.4281e-06	2.0777e-06	271.03	78.937	63.587	19.016	3.5832e-06	25.449	0.00020254	0.00010063	2.4265e-05	1054.5	1.2839e-06	1.0032e-06	1110.6	229.39	1.3318e-06	9.8497e-07	279.66	81.595	65.444	19.979	1.096e-06	26.902	484.080	239.894	257.292	172.011	274.071	299.507	171.576	178.882	263.361	327.379	178.431	184.198	184.411	190.951	289.314	190.970	-8191	255	
21382.184	1	1	0	0	0.19165	0.14156	0.065734	0.14352	0.070181	0.22681	0.24276	0.065471	0.089397	0.20422	0.13506	0.15231	0.28851	0.1782	0.13957	0.32343	-2.1708	-2.9875	-2.6833	-2.75	-2.7479	-2.8812	-2.8812	-2.7896	-2.5812	-2.9458	-2.8417	-2.6146	-2.9354	-2.6333	-2.7271	-3.0667	218.539	223.770	471.271	246.236	496.934	271.872	394.198	411.211	363.121	466.668	407.146	280.497	317.172	484.940	519.241	189.168	0.00061057	0.00033553	8.2148e-05	1034.6	4.2684e-06	3.1865e-06	1088.1	223.29	4.792e-06	2.9104e-06	270.33	78.983	63.763	19.073	2.9002e-06	25.593	0.00019515	0.00010136	2.5994e-05	1056.3	1.2813e-06	9.4732e-07	1112.2	229.2	1.351e-06	1.0455e-06	279.88	81.669	65.391	19.999	1.1806e-06	26.958	482.159	251.326	246.212	171.986	288.748	315.069	171.643	178.615	286.302	315.359	178.399	184.157	184.324	191.019	273.094	190.688	-8191	255	
21382.279	1	1	0	0	0.10429	0.19457	0.13797	0.1803	0.14132	0.023286	0.15055	0.074373	0.22402	0.23812	0.16099	0.24257	0.3383	0.057661	0.12002	0.12419	-2.1188	-2.7479	-2.8583	-2.625	-2.85	-2.8521	-2.7021	-2.9271	-2.7042	-2.6292	-3.1312	-2.7125	-2.6729	-3.0187	-2.5104	-3.0521	363.431	234.171	251.890	354.975	495.516	318.967	453.263	263.132	222.632	386.091	379.219	200.994	474.532	479.850	205.364	500.841	0.00059087	0.00024015	8.1793e-05	1032.3	3.7727e-06	3.838e-06	1089.3	222.3	4.6475e-06	3.5762e-06	268.98	78.943	63.163	18.931	2.4243e-06	25.602	0.00019892	9.9501e-05	2.6236e-05	1056.7	1.3378e-06	9.8008e-07	1110.8	229	1.3353e-06	1.0297e-06	279.13	81.558	65.221	19.944	1.1363e-06	26.879	481.606	228.163	250.576	171.943	276.772	304.253	171.561	178.706	267.237	325.677	178.541	183.986	184.586	191.386	305.888	190.716	-8191	255	
21382.375	1	1	0	0	0.17843	0.11791	0.12694	0.03383	0.047845	0.07659	0.39467	0.14312	0.097625	0.023115	0.12393	0.17496	0.14903	0.18736	0.1647	0.059723	-2.2104	-2.7646	-2.9792	-2.8375	-2.9313	-2.875	-2.825	-2.8937	-2.7792	-2.7771	-3.0292	-2.8875	-2.8521	-2.9292	-2.6458	-2.9042	475.236	190.359	409.213	273.538	482.618	239.484	454.816	383.997	491.753	349.439	383.795	194.787	161.083	432.960	390.466	404.871	0.00059013	0.00037481	7.6351e-05	1033.5	3.4418e-06	2.7373e-06	1086.8	222.45	4.6869e-06	2.5897e-06	271.17	78.765	63.583	19.037	4.1742e-06	25.557	0.00018832	9.4818e-05	2.6684e-05	1054.9	1.3307e-06	1.0398e-06	1110.7	228.99	1.2791e-06	9.8881e-07	279.22	81.542	65.259	19.971	1.1544e-06	26.891	480.899	249.333	262.966	172.115	279.016	318.524	171.811	178.799	276.641	284.763	178.315	183.750	184.903	190.944	286.719	191.253	-8191	255	
21382.471	1	1	0	0	0.064893	0.39013	0.2186	0.48672	0.12081	0.1942	0.34595	0.14449	0.10359	0.30368	0.13436	0.20029	0.018869	0.1163	0.055083	0.25121	-2.2917	-2.6396	-3.0187	-2.9062	-2.7583	-2.8646	-2.8021	-2.9792	-2.8625	-2.6437	-2.9958	-2.8187	-2.7833	-2.8438	-2.7188	-2.8979	190.596	223.664	455.403	416.247	325.023	421.820	455.724	466.276	170.418	308.503	234.919	492.219	237.322	512.602	513.718	365.145	0.00059709	0.00033551	9.3584e-05	1029.1	3.9466e-06	3.1136e-06	1087.3	223.22	5.8333e-06	2.9045e-06	270.81	79.174	63.451	18.932	3.7781e-06	25.6	0.00019512	9.3387e-05	2.3829e-05	1055	1.3588e-06	9.16e-07	1110.5	228.91	1.2965e-06	9.547e-07	279.01	81.522	65.23	19.91	1.1218e-06	26.907	480.257	247.271	257.366	171.756	287.338	321.521	171.786	178.666	271.115	303.955	178.335	184.049	184.389	191.065	288.520	190.811	-8191	255	
21382.566	1	1	0	0	0.27004	0.075469	0.055763	0.30555	0.20397	0.39715	0.23135	0.11386	0.16771	0.15057	0.25807	0.17233	0.21374	0.18962	0.091505	0.11322	-2.4104	-2.6437	-2.7812	-2.8208	-2.8396	-2.9688	-2.8229	-2.9062	-2.8583	-2.5604	-2.9542	-2.7062	-2.7479	-2.8292	-2.5917	-2.7833	387.601	170.054	230.635	495.581	296.609	420.606	330.431	487.989	347.968	377.470	184.076	376.984	418.161	479.565	228.809	457.704	0.00059578	0.00027139	7.4382e-05	1030.5	4.1596e-06	3.121e-06	1085.8	222.53	3.8855e-06	2.3336e-06	271.32	78.589	63.593	19.017	2.4184e-06	25.516	0.00020208	9.8894e-05	2.5051e-05	1055.5	1.3382e-06	9.8924e-07	1109.9	228.98	1.2629e-06	1.0974e-06	279.5	81.455	65.329	19.955	1.172e-06	26.841	483.893	251.587	257.622	171.909	271.120	324.030	171.652	178.520	267.791	347.486	178.454	184.380	184.481	191.063	282.956	190.880	-8191	255	
21382.688	1	1	0	0	0.095181	0.15006	0.061711	0.17177	0.084251	0.023735	0.13585	0.15557	0.26749	0.1782	0.068811	0.12121	0.059856	0.1566	0.10456	0.17523	-2.3375	-2.6458	-2.9292	-2.6729	-2.725	-3.0396	-2.6688	-2.8479	-2.9062	-2.5	-3.0146	-2.8229	-2.4792	-3.0146	-2.7396	-2.8375	451.221	425.648	168.845	462.631	217.454	227.926	515.275	502.459	508.487	330.185	440.159	217.878	358.786	245.632	220.483	484.569	0.0005751	0.00024013	7.8765e-05	1032.9	3.2016e-06	1.9861e-06	1081.4	222.42	5.1159e-06	1.9812e-06	271.03	78.988	63.757	19.007	3.6795e-06	25.476	0.00019385	9.9891e-05	2.4966e-05	1055.4	1.2764e-06	9.4395e-07	1108.9	228.71	1.2934e-06	9.8977e-07	278.91	81.436	65.346	19.906	1.1381e-06	26.851	483.064	237.204	242.032	172.103	267.298	305.171	171.592	178.599	259.012	328.889	178.480	184.100	184.259	191.410	284.168	190.728	-8191	255	
#DATA ENDS
