BOXY.EXE: ISS Imagent and Oximeter Data Acquisition Program Version 0.80
Ascii Record File

#ACQ INFORMATION
2  Detector Channels 
16  External MUX Channels 
1  Auxiliary Channels 
5000  Waveform (CCF) Frequency (Hz)
1  Waveforms Skipped 
30  Waveforms Averaged 
1  Cycles Averaged 
16  Acquisitions per Waveform 
10.0806  Updata Rate (Hz) 

#FILE INFORMATION
TRUE -- External MUX Channel results are PARSED.
FALSE -- AC DC and Phase are NOT grouped.
TRUE -- Companion Program Settings File CREATED.
FALSE -- AC data not excluded
FALSE -- DC data not excluded
FALSE -- Phase data not excluded
FALSE -- Auxillary Chn. data not excluded
Tab delimiters

#CALIBRATION STATE
TRUE -- Waveform Calibration Values APPLIED.


#AUX CALIBRATION VALUES
Val Type	aux-1	

Term	1.0000e+00	
Factor	0.0000e+00	


#WF CALIBRATION VALUES
A = Detector Channel
Val Type	A-AC1	A-AC2	A-AC3	A-AC4	A-AC5	A-AC6	A-AC7	A-AC8	A-AC9	A-AC10	A-AC11	A-AC12	A-AC13	A-AC14	A-AC15	A-AC16	A-DC1	A-DC2	A-DC3	A-DC4	A-DC5	A-DC6	A-DC7	A-DC8	A-DC9	A-DC10	A-DC11	A-DC12	A-DC13	A-DC14	A-DC15	A-DC16	A-Ph1	A-Ph2	A-Ph3	A-Ph4	A-Ph5	A-Ph6	A-Ph7	A-Ph8	A-Ph9	A-Ph10	A-Ph11	A-Ph12	A-Ph13	A-Ph14	A-Ph15	A-Ph16	

Term	0.00000e+00	0.00000e+00	0.00000e+00	0.00000e+00	0.00000e+00	0.00000e+00	0.00000e+00	0.00000e+00	0.00000e+00	0.00000e+00	0.00000e+00	0.00000e+00	0.00000e+00	0.00000e+00	0.00000e+00	0.00000e+00	0.00000e+00	0.00000e+00	0.00000e+00	0.00000e+00	0.00000e+00	0.00000e+00	0.00000e+00	0.00000e+00	0.00000e+00	0.00000e+00	0.00000e+00	0.00000e+00	0.00000e+00	0.00000e+00	0.00000e+00	0.00000e+00	0.00000e+00	0.00000e+00	0.00000e+00	0.00000e+00	0.00000e+00	0.00000e+00	0.00000e+00	0.00000e+00	0.00000e+00	0.00000e+00	0.00000e+00	0.00000e+00	0.00000e+00	0.00000e+00	0.00000e+00	0.00000e+00	
Factor	1.00000e+00	1.00000e+00	1.00000e+00	1.00000e+00	1.00000e+00	1.00000e+00	1.00000e+00	1.00000e+00	1.00000e+00	1.00000e+00	1.00000e+00	1.00000e+00	1.00000e+00	1.00000e+00	1.00000e+00	1.00000e+00	1.00000e+00	1.00000e+00	1.00000e+00	1.00000e+00	1.00000e+00	1.00000e+00	1.00000e+00	1.00000e+00	1.00000e+00	1.00000e+00	1.00000e+00	1.00000e+00	1.00000e+00	1.00000e+00	1.00000e+00	1.00000e+00	X	X	X	X	X	X	X	X	X	X	X	X	X	X	X	X	

B = Detector Channel
Val Type	B-AC1	B-AC2	B-AC3	B-AC4	B-AC5	B-AC6	B-AC7	B-AC8	B-AC9	B-AC10	B-AC11	B-AC12	B-AC13	B-AC14	B-AC15	B-AC16	B-DC1	B-DC2	B-DC3	B-DC4	B-DC5	B-DC6	B-DC7	B-DC8	B-DC9	B-DC10	B-DC11	B-DC12	B-DC13	B-DC14	B-DC15	B-DC16	B-Ph1	B-Ph2	B-Ph3	B-Ph4	B-Ph5	B-Ph6	B-Ph7	B-Ph8	B-Ph9	B-Ph10	B-Ph11	B-Ph12	B-Ph13	B-Ph14	B-Ph15	B-Ph16	

Term	0.00000e+00	0.00000e+00	0.00000e+00	0.00000e+00	0.00000e+00	0.00000e+00	0.00000e+00	0.00000e+00	0.00000e+00	0.00000e+00	0.00000e+00	0.00000e+00	0.00000e+00	0.00000e+00	0.00000e+00	0.00000e+00	0.00000e+00	0.00000e+00	0.00000e+00	0.00000e+00	0.00000e+00	0.00000e+00	0.00000e+00	0.00000e+00	0.00000e+00	0.00000e+00	0.00000e+00	0.00000e+00	0.00000e+00	0.00000e+00	0.00000e+00	0.00000e+00	-2.01985e+02	-1.29378e+02	-1.28570e+02	-1.80487e+02	-8.05482e+01	-6.35979e+01	-1.57016e+02	-1.62015e+02	-9.10596e+01	-6.42508e+01	-1.71443e+02	-1.71615e+02	-1.83224e+02	-1.76661e+02	-7.99887e+01	-1.49508e+02	
Factor	5.02138e-05	2.16187e-04	5.75228e-05	2.02782e-01	2.24451e-06	2.39498e-06	2.11821e-01	6.23708e-02	2.36109e-06	2.12806e-06	1.02550e-01	4.02935e-02	4.67635e-02	1.15781e-02	2.14567e-06	1.65216e-02	1.48403e-05	2.08106e-05	5.80611e-06	1.01095e-01	2.10257e-07	2.31288e-07	9.93696e-02	3.12328e-02	2.09323e-07	2.30627e-07	4.98278e-02	1.95568e-02	2.33408e-02	5.84236e-03	2.17295e-07	8.10984e-03	X	X	X	X	X	X	X	X	X	X	X	X	X	X	X	X	



#DISTANCE SETTINGS
A = Detector Channel
A-1	A-2	A-3	A-4	A-5	A-6	A-7	A-8	A-9	A-10	A-11	A-12	A-13	A-14	A-15	A-16	

2.5000e+00	3.0000e+00	2.5000e+00	3.0000e+00	2.0000e+00	3.0000e+00	1.5000e+00	3.0000e+00	3.0000e+00	3.0000e+00	3.0000e+00	3.0000e+00	3.0000e+00	3.0000e+00	1.5000e+00	3.0000e+00	

B = Detector Channel
B-1	B-2	B-3	B-4	B-5	B-6	B-7	B-8	B-9	B-10	B-11	B-12	B-13	B-14	B-15	B-16	

1.0000e+01	1.0000e+01	1.0000e+01	1.4400e+00	1.0000e+01	1.0000e+01	1.5100e+00	1.9400e+00	1.0000e+01	1.0000e+01	1.9900e+00	2.4900e+00	2.4100e+00	2.9000e+00	1.0000e+01	2.9800e+00	




#DATA BEGINS
time	group	step	mark	flag	A-AC1	A-AC2	A-AC3	A-AC4	A-AC5	A-AC6	A-AC7	A-AC8	A-AC9	A-AC10	A-AC11	A-AC12	A-AC13	A-AC14	A-AC15	A-AC16	A-DC1	A-DC2	A-DC3	A-DC4	A-DC5	A-DC6	A-DC7	A-DC8	A-DC9	A-DC10	A-DC11	A-DC12	A-DC13	A-DC14	A-DC15	A-DC16	A-Ph1	A-Ph2	A-Ph3	A-Ph4	A-Ph5	A-Ph6	A-Ph7	A-Ph8	A-Ph9	A-Ph10	A-Ph11	A-Ph12	A-Ph13	A-Ph14	A-Ph15	A-Ph16	B-AC1	B-AC2	B-AC3	B-AC4	B-AC5	B-AC6	B-AC7	B-AC8	B-AC9	B-AC10	B-AC11	B-AC12	B-AC13	B-AC14	B-AC15	B-AC16	B-DC1	B-DC2	B-DC3	B-DC4	B-DC5	B-DC6	B-DC7	B-DC8	B-DC9	B-DC10	B-DC11	B-DC12	B-DC13	B-DC14	B-DC15	B-DC16	B-Ph1	B-Ph2	B-Ph3	B-Ph4	B-Ph5	B-Ph6	B-Ph7	B-Ph8	B-Ph9	B-Ph10	B-Ph11	B-Ph12	B-Ph13	B-Ph14	B-Ph15	B-Ph16	aux-1	digaux	

22853.760	1	1	0	768	0.095595	0.2679	0.21566	0.12216	0.10299	0.19899	0.12197	0.18245	0.11726	0.21262	0.16739	0.094489	0.15296	0.046013	0.063758	0.21049	-2.5396	-3	-2.85	-3.0687	-2.9417	-2.6292	-3.1063	-2.8854	-2.8875	-3.05	-2.7833	-2.9875	-3.0687	-2.8792	-3.15	-3.1063	363.391	248.106	476.869	259.284	443.043	406.546	215.937	257.782	188.572	439.744	177.419	166.186	223.518	459.495	505.310	430.635	0.0016579	0.00025629	0.00015311	305.01	2.8861e-06	4.6738e-06	615.53	95.339	6.7334e-06	4.8168e-06	278.64	135.8	47.04	19.985	4.1257e-06	76.66	0.0012858	0.0012921	0.00035951	298.36	1.3166e-05	1.4314e-05	601.12	93.954	1.3006e-05	1.4e-05	273.46	133.05	46.527	19.803	1.3489e-05	75.682	475.242	243.991	267.763	164.011	294.615	276.661	164.384	168.764	269.434	297.135	168.220	171.879	171.660	176.630	301.294	174.802	-8191	255	
22853.855	1	1	0	0	0.17028	0.089523	0.11096	0.22031	0.19776	0.057422	0.18203	0.053444	0.039788	0.21713	0.11197	0.04796	0.16199	0.13043	0.13676	0.28861	-2.3396	-3.1167	-2.9583	-2.9771	-3.0271	-2.8875	-3.0667	-2.8375	-2.8958	-3.15	-3.0917	-2.9583	-3.0729	-2.6417	-3.1375	-3.05	394.112	418.639	429.352	224.677	171.002	466.368	340.498	332.692	433.068	422.824	420.214	335.572	184.635	491.075	421.944	412.595	0.0017513	0.00033841	8.2713e-05	304.97	3.178e-06	5.431e-07	622.32	96.881	6.1692e-06	3.0226e-06	281.04	137.32	47.316	20.049	6.2816e-06	76.946	0.001256	0.001229	0.00035223	299.48	1.2713e-05	1.4114e-05	603.22	94.881	1.3098e-05	1.4236e-05	274.65	133.75	46.768	19.919	1.3438e-05	76.067	475.271	477.624	231.397	164.353	257.553	349.543	164.197	169.019	203.727	266.190	168.157	171.668	171.949	176.445	271.885	174.924	-8191	255	
22853.951	1	1	0	0	0.24911	0.0329	0.21735	0.14015	0.16385	0.15189	0.10308	0.064977	0.11294	0.18024	0.18163	0.091283	0.14211	0.32172	0.15839	0.1506	-2.2333	-2.8812	-2.8542	-2.7625	-2.9979	-2.8917	-3.1396	-2.8958	-2.9208	-3.0854	-2.8563	-2.8937	-3.0312	-2.825	-2.9271	-3.2354	492.888	389.520	206.412	162.166	199.602	464.926	362.757	190.677	187.019	232.018	482.572	264.090	191.803	432.524	371.755	425.596	0.0017786	0.00027185	0.00012522	304.66	5.3975e-06	5.5727e-06	620.85	97.201	3.5584e-06	5.7295e-06	282.59	138.22	47.666	20.115	2.9469e-06	77.605	0.0012836	0.0012741	0.00034949	299.65	1.2994e-05	1.4127e-05	604.95	95.176	1.3302e-05	1.4183e-05	276.37	134.24	46.895	20.014	1.3162e-05	76.59	476.630	228.344	185.965	164.798	288.456	309.196	164.033	168.677	249.972	293.146	168.153	171.906	171.557	176.074	202.644	175.160	-8191	255	
22854.047	1	1	0	0	0.19902	0.17904	0.14589	0.21039	0.087024	0.065116	0.20407	0.25687	0.50025	0.085983	0.060173	0.25701	0.22021	0.10155	0.13948	0.13177	-2.45	-3.0104	-2.7208	-2.8354	-3.1479	-2.725	-3.0604	-2.8708	-2.8667	-3.175	-2.9104	-2.8896	-3.0896	-2.8896	-3.0104	-3.2083	345.420	321.754	412.331	151.348	376.699	402.501	235.978	411.668	493.958	285.520	152.817	495.018	232.073	357.677	279.100	235.841	0.0018079	0.00025769	0.00013083	303.74	4.9154e-06	3.8888e-06	619.34	96.741	8.4832e-06	3.9877e-06	279.95	136.08	47.473	19.982	4.1291e-06	76.776	0.0012915	0.0012558	0.00035485	300.39	1.2674e-05	1.424e-05	603.91	94.962	1.278e-05	1.3943e-05	274.15	133.09	46.732	19.911	1.307e-05	75.792	476.491	257.735	297.281	164.678	330.601	296.092	164.161	168.922	280.449	314.664	168.137	171.890	170.979	176.125	262.263	174.776	-8191	255	
22854.143	1	1	0	0	0.04735	0.25138	0.093988	0.11385	0.19231	0.19655	0.31706	0.071708	0.31649	0.2824	0.13539	0.2118	0.24981	0.010963	0.063684	0.071897	-2.3042	-3.0438	-2.9667	-2.8896	-3.1479	-2.8354	-3.0438	-3.0458	-2.7875	-3.1312	-2.8521	-2.9167	-3.1354	-2.8812	-2.8771	-3.1771	285.992	445.576	194.369	309.949	277.011	307.086	357.067	166.850	229.999	391.986	468.822	434.672	232.501	277.004	299.358	244.185	0.0016766	0.00083524	0.00011994	306.15	6.2239e-06	3.7871e-06	614.94	96.872	7.137e-06	1.0605e-06	279.43	136.61	47.287	19.925	5.1989e-06	76.46	0.0012701	0.0012228	0.00034476	300.85	1.2618e-05	1.3806e-05	600.7	94.743	1.2445e-05	1.3592e-05	273.23	133.17	46.686	19.827	1.3142e-05	75.441	474.394	244.054	213.213	164.225	307.557	321.192	164.533	168.561	262.115	242.027	168.528	171.702	170.797	176.462	282.055	175.165	-8191	255	
22854.238	1	1	0	0	0.22625	0.20122	0.045862	0.059049	0.17737	0.054562	0.088779	0.15131	0.21496	0.1496	0.10067	0.081149	0.17765	0.28087	0.041604	0.037531	-2.3396	-2.8771	-2.9229	-2.7438	-3.1167	-3.0479	-3.0687	-3.3021	-2.7	-3.0812	-3.0146	-2.9042	-3.0604	-2.7167	-2.9083	-3.2438	224.977	372.364	352.112	290.559	489.032	324.267	290.751	397.835	215.116	504.549	431.120	395.423	328.519	207.767	475.063	463.092	0.0016854	0.00035913	0.00020725	306.74	1.8041e-06	3.3266e-06	620.43	96.774	5.4711e-06	4.4447e-06	279.93	137.4	47.662	20.002	6.2512e-06	77.365	0.0012465	0.0012167	0.00034284	300.33	1.2392e-05	1.3394e-05	604.16	95.026	1.2516e-05	1.3652e-05	275	133.95	46.885	19.95	1.3225e-05	76.283	476.566	209.023	241.479	164.879	345.722	373.093	164.120	168.758	266.146	306.465	167.942	171.699	171.416	176.485	236.081	174.983	-8191	255	
22854.359	1	1	0	0	0.086941	0.21271	0.10968	0.19204	0.32944	0.14996	0.2539	0.05591	0.10263	0.035952	0.14096	0.27168	0.17954	0.11042	0.1936	0.086033	-2.4479	-2.9208	-3.0021	-2.6792	-3.0875	-2.8688	-2.7917	-2.9833	-2.7687	-3.0229	-2.9583	-2.7646	-3.0208	-2.8563	-2.7313	-3.2208	231.271	388.692	473.660	436.631	434.326	253.301	482.153	465.548	368.974	153.048	217.026	467.348	336.715	312.626	393.009	179.964	0.0016248	0.00031625	6.0325e-05	304.89	8.8617e-06	3.5285e-06	620.6	96.953	4.7542e-06	4.1941e-06	283.41	137.34	47.741	20.259	6.5708e-06	77.708	0.0012304	0.001229	0.00033596	300.28	1.2328e-05	1.3379e-05	604.1	95.263	1.2456e-05	1.3479e-05	276.48	134.34	47.041	20.075	1.3244e-05	76.615	476.886	188.085	257.492	164.329	311.517	270.614	164.344	168.638	250.584	350.078	168.430	171.861	171.317	176.212	261.774	175.073	-8191	255	
22854.455	1	1	0	0	0.11191	0.15598	0.13511	0.086128	0.13501	0.19969	0.10065	0.04148	0.19943	0.10445	0.10409	0.07346	0.018807	0.10665	0.1276	0.33611	-2.3896	-2.8542	-2.9271	-2.7917	-2.9417	-3.0062	-2.7792	-3.125	-2.8125	-2.8312	-2.8771	-2.9146	-2.9688	-3.1	-2.7562	-3.2	467.774	321.753	291.521	257.703	235.618	501.532	491.515	159.177	496.242	203.021	467.721	285.138	249.028	450.172	319.058	442.007	0.0016909	0.00070556	8.0159e-05	306.33	3.6027e-06	6.0358e-06	618.59	97.462	9.095e-06	6.4795e-06	280.99	137.48	48.537	20.12	2.9187e-06	77.308	0.0012112	0.0012286	0.00033563	302.62	1.2408e-05	1.3614e-05	602.9	95.849	1.2093e-05	1.2933e-05	275.56	133.96	47.251	20.031	1.2407e-05	76.061	477.369	216.280	485.966	164.086	236.766	327.307	164.197	168.501	287.762	320.902	167.877	171.909	171.108	176.661	269.010	174.831	-8191	255	
22854.553	1	1	0	0	0.21689	0.13142	0.34075	0.36948	0.20335	0.10551	0.19443	0.12439	0.28392	0.17906	0.16857	0.20129	0.12929	0.17619	0.32664	0.26576	-2.5042	-2.7458	-3.2417	-2.6917	-3.0021	-3.1354	-2.9604	-3.3021	-2.95	-2.8042	-3.0792	-2.9938	-2.9646	-3.0479	-2.7354	-3.1042	318.022	253.508	347.586	155.680	409.494	339.763	154.787	316.012	286.027	340.221	399.805	401.642	354.996	381.270	184.060	394.440	0.0016448	0.00069341	0.0001339	307.8	6.8979e-06	7.6193e-06	623.03	98.478	4.7381e-06	3.5707e-06	281.09	137.23	48.021	20.085	2.7038e-06	76.752	0.0012146	0.0011946	0.00033106	301.82	1.1813e-05	1.3141e-05	603.72	95.771	1.2094e-05	1.304e-05	274.98	133.93	47.003	19.889	1.2493e-05	75.635	474.476	221.031	228.316	164.496	261.878	294.805	163.652	168.778	284.998	329.658	167.968	171.816	171.401	176.379	274.158	175.153	-8191	255	
22854.648	1	1	0	0	0.21775	0.24157	0.013217	0.040479	0.12242	0.28286	0.035503	0.085869	0.14094	0.20979	0.10787	0.08552	0.13726	0.12684	0.084103	0.13103	-2.5458	-3.0229	-3.0938	-2.75	-2.8375	-3.0542	-2.8292	-3.1	-2.8604	-2.7438	-3.0938	-2.8021	-2.9271	-2.9938	-2.725	-3.1479	414.136	294.953	322.071	469.666	324.182	438.307	230.574	505.944	316.172	389.211	479.747	463.313	387.419	208.851	176.292	463.983	0.0017439	0.00030237	6.3719e-05	308.36	2.7356e-06	7.3072e-06	623.34	97.319	1.2949e-06	2.9761e-06	282.39	137.37	48.165	19.972	4.9238e-06	76.454	0.0012142	0.0012145	0.00032757	303.08	1.1969e-05	1.2954e-05	605.18	95.527	1.1706e-05	1.2819e-05	276.1	133.96	47.24	19.859	1.2309e-05	75.566	476.375	231.969	249.776	164.489	326.971	312.952	164.293	168.551	337.629	318.979	168.079	171.491	171.692	176.463	261.198	175.513	-8191	255	
22854.742	1	1	0	0	0.038714	0.2146	0.16753	0.19642	0.16503	0.20177	0.16516	0.10881	0.14897	0.24352	0.13215	0.26922	0.21695	0.022191	0.17553	0.29248	-2.4625	-2.8771	-3.0312	-2.9542	-2.9958	-3.2271	-2.7938	-3.0854	-2.9667	-2.9333	-3.1208	-2.6354	-2.9104	-3.0354	-2.7417	-2.9813	396.333	402.307	400.074	302.946	330.985	260.650	343.005	391.495	499.873	421.951	409.731	430.653	457.797	273.686	308.804	460.510	0.0016648	0.00052713	0.00011949	308.2	4.4488e-06	3.4331e-06	621.14	98.83	8.8781e-06	6.0391e-06	282.23	137.91	47.903	19.93	4.6205e-06	76.733	0.0011772	0.001161	0.00032223	303.86	1.1656e-05	1.2557e-05	605.18	96.567	1.1525e-05	1.2756e-05	276.62	134.44	47.223	19.852	1.1853e-05	75.885	477.254	277.841	242.684	164.121	294.049	329.472	164.435	168.651	274.234	293.556	167.891	171.818	171.649	176.792	265.637	174.993	-8191	255	
22854.840	1	1	0	0	0.19332	0.1723	0.21534	0.063984	0.18607	0.3278	0.13498	0.24067	0.12735	0.24549	0.215	0.058762	0.097543	0.13398	0.22919	0.064768	-2.4938	-2.7438	-3.0458	-2.7792	-2.8	-3.0646	-2.7646	-2.8271	-2.9437	-2.725	-3.0312	-2.8792	-2.7333	-2.9938	-2.7083	-3.0146	487.622	247.201	449.752	476.134	309.935	508.872	263.448	388.544	441.579	377.891	419.596	331.775	202.050	191.333	281.569	226.797	0.0018372	0.00045093	0.00010574	310.46	5.9871e-06	8.9512e-07	621.61	98.521	7.9135e-06	2.4239e-06	282.27	136.54	48.06	20.173	4.1297e-06	76.862	0.0011948	0.0011138	0.00031363	303.3	1.1481e-05	1.2511e-05	605.43	96.289	1.0939e-05	1.2546e-05	275.8	133.83	47.417	19.99	1.1873e-05	75.937	477.836	264.316	252.295	164.456	277.288	280.430	164.205	168.794	255.819	291.673	168.053	171.879	171.665	176.419	299.644	175.084	-8191	255	
22854.961	1	1	0	0	0.32345	0.19414	0.17212	0.19446	0.19422	0.07477	0.38372	0.09181	0.10018	0.050586	0.20993	0.18933	0.038966	0.11279	0.13158	0.16247	-2.65	-2.7062	-3	-2.8771	-2.6688	-2.9437	-2.8896	-2.9562	-2.9792	-2.7438	-2.9771	-3.1937	-2.6708	-3.0271	-2.8708	-2.8125	466.220	471.918	214.903	378.284	473.035	180.265	464.927	275.829	351.306	375.967	303.302	444.905	417.068	380.227	383.838	385.342	0.0017156	0.00054137	0.00016174	310.4	4.2292e-06	3.8614e-06	621.96	99.51	5.5606e-06	3.6315e-06	281.95	137.55	48.456	20.177	4.9232e-06	76.853	0.0012043	0.0011539	0.00032323	302.69	1.1312e-05	1.2431e-05	602.47	96.561	1.1375e-05	1.2331e-05	276.24	134.02	47.378	19.921	1.1667e-05	75.816	475.735	269.110	212.771	164.303	247.264	317.409	164.087	169.068	220.033	281.684	168.291	171.587	171.038	176.628	272.162	175.190	-8191	255	
22855.057	1	1	0	0	0.25941	0.18029	0.12566	0.19541	0.15512	0.13136	0.1692	0.13938	0.2845	0.090522	0.21068	0.17529	0.16715	0.18147	0.2394	0.11756	-2.6104	-2.6937	-3.0667	-3.0854	-2.7313	-2.9813	-3.0083	-2.7562	-2.9313	-2.7542	-3.0979	-3.1104	-2.6458	-3.1125	-2.8146	-2.7958	440.104	222.597	452.507	435.212	204.586	326.777	343.771	179.576	164.704	263.618	411.456	477.640	473.810	416.455	320.388	431.578	0.0018188	0.00063813	0.00012674	311.1	3.8324e-06	7.4501e-06	620.36	99.204	4.6317e-06	4.1672e-06	285.03	138.07	48.602	20.146	2.7826e-06	76.627	0.0011642	0.0011264	0.00031218	303.4	1.146e-05	1.2205e-05	603.91	96.925	1.1252e-05	1.205e-05	277.98	134.52	47.556	20.004	1.1759e-05	75.813	478.188	234.259	205.514	164.487	277.582	284.800	163.876	169.118	254.263	334.409	168.217	172.009	170.995	176.725	286.341	175.077	-8191	255	
22855.152	1	1	0	0	0.13731	0.15185	0.16235	0.31487	0.11732	0.12468	0.27214	0.082555	0.21798	0.11359	0.12721	0.10514	0.2099	0.18407	0.14163	0.11667	-2.6854	-2.8688	-2.8396	-2.9688	-2.6729	-2.9813	-2.9583	-2.6937	-3.2479	-2.5625	-2.8958	-2.9313	-2.8042	-3	-2.9708	-3.0229	282.332	315.343	459.156	359.286	330.458	398.343	318.065	302.808	165.245	196.329	430.503	439.992	392.867	483.282	499.965	460.664	0.0018161	0.00048768	0.00012904	310.04	4.2375e-06	5.6842e-06	627	99.667	4.2318e-06	4.4013e-06	284.63	138.32	48.806	20.084	5.0552e-06	77.354	0.001146	0.0010921	0.00031457	304.28	1.1256e-05	1.2383e-05	608.44	97.408	1.1611e-05	1.2417e-05	278.17	134.88	47.703	19.983	1.1778e-05	76.065	476.054	216.501	277.816	164.161	290.825	330.707	164.386	168.807	305.116	293.231	168.405	172.116	171.639	176.689	310.551	175.261	-8191	255	
22855.248	1	1	0	0	0.078076	0.052086	0.23374	0.19383	0.16318	0.19239	0.20619	0.1724	0.12285	0.22949	0.25913	0.15816	0.18667	0.086813	0.26809	0.11533	-2.5333	-2.7062	-2.9542	-3.1229	-2.8438	-3.1333	-3.0979	-2.7271	-2.9792	-2.8312	-2.9375	-3.0604	-2.7667	-2.95	-2.9521	-2.8146	261.804	467.922	216.296	471.536	274.448	229.450	445.467	301.113	267.046	400.346	392.707	164.868	441.657	438.942	304.945	368.665	0.0016452	0.00032283	2.4243e-05	309.63	8.5897e-06	4.9731e-06	620.47	99.514	3.546e-06	5.4578e-06	282.66	137.93	48.423	20.186	4.5819e-06	76.73	0.0011352	0.001126	0.00030673	303.99	1.1322e-05	1.238e-05	605.16	97.339	1.1536e-05	1.2424e-05	276.68	134.53	47.617	20.047	1.1502e-05	75.744	476.402	239.207	272.165	164.145	253.714	311.018	164.685	168.600	226.993	242.026	168.391	171.866	170.981	176.598	273.765	175.170	-8191	255	
22855.320	1	1	0	0	0.099307	0.089992	0.04303	0.17122	0.30135	0.17375	0.38731	0.33532	0.22018	0.086959	0.35928	0.26354	0.024027	0.32087	0.15577	0.076093	-2.5417	-2.6562	-2.5729	-3.3104	-2.8063	-2.8438	-2.9792	-2.875	-3.1521	-2.9542	-2.7812	-3.1208	-2.8458	-2.9417	-3.0646	-2.9958	424.652	421.870	192.607	449.431	344.172	258.538	422.984	409.102	362.699	316.689	193.786	176.077	401.042	200.542	376.015	304.892	0.001757	0.00035565	0.00014829	312.28	5.9634e-06	4.5485e-06	618.86	99.106	5.801e-06	1.3908e-06	282.47	137.5	48.461	20.121	3.8558e-06	76.583	0.0011588	0.0011249	0.00030351	304.72	1.1162e-05	1.2258e-05	601.99	96.917	1.1128e-05	1.1836e-05	276.21	134.13	47.514	19.971	1.1281e-05	75.777	478.966	283.885	238.295	164.562	290.261	272.756	164.109	168.850	254.040	298.185	168.258	171.852	171.655	177.074	271.686	175.090	-8191	255	
22855.439	1	1	0	0	0.1666	0.13728	0.1183	0.15113	0.085303	0.31963	0.10113	0.2656	0.25024	0.13902	0.2433	0.23833	0.16118	0.22465	0.020274	0.23561	-2.4938	-2.8542	-2.6354	-3.0458	-2.8479	-2.9	-3.1	-2.8083	-3.2167	-2.8896	-2.8125	-3.2021	-2.8417	-2.9042	-2.9917	-2.8083	237.703	327.666	495.505	152.482	161.148	157.963	458.063	176.379	256.403	154.873	468.992	482.889	448.698	180.815	232.544	370.887	0.0018237	0.00067537	8.8308e-05	312.88	7.4332e-06	6.5159e-06	620.97	98.578	6.2533e-06	6.608e-06	282.06	137.93	49.021	20.166	5.9553e-06	77.127	0.0011619	0.0010771	0.00030609	304.4	1.1206e-05	1.2229e-05	604.02	96.832	1.122e-05	1.1992e-05	276.69	134.5	47.788	20.089	1.1107e-05	76.074	476.336	218.880	201.057	164.163	279.725	316.364	164.142	168.920	264.250	302.471	168.042	171.832	171.198	176.594	254.268	175.363	-8191	255	
22855.537	1	1	0	0	0.23614	0.11	0.087094	0.33098	0.15039	0.038181	0.17833	0.17544	0.18209	0.07567	0.16689	0.047016	0.12947	0.087423	0.3088	0.25755	-2.5229	-2.9396	-2.7188	-3.0625	-2.7313	-2.7917	-3.1083	-2.5979	-2.8542	-3.0333	-2.6771	-2.9271	-2.9437	-2.85	-3.0125	-2.9562	460.607	451.577	271.821	235.978	208.878	420.819	449.452	218.055	174.690	487.682	220.077	507.657	225.203	279.944	360.491	434.017	0.0018981	0.00046679	0.00012192	307.99	4.7392e-06	6.9996e-06	620.74	98.989	7.118e-06	6.9053e-06	284.75	137.75	48.821	20.207	6.4406e-06	77.246	0.0011695	0.0010606	0.0002958	303.11	1.0965e-05	1.1912e-05	602.82	97.361	1.0573e-05	1.1675e-05	277.94	134.49	47.897	20.031	1.1067e-05	76.157	477.479	231.047	231.928	164.495	260.825	281.019	163.946	168.646	259.226	304.487	168.391	171.808	171.389	176.513	293.026	175.056	-8191	255	
22855.633	1	1	0	0	0.21053	0.26084	0.14978	0.12987	0.25054	0.22862	0.21049	0.14427	0.06533	0.14496	0.074023	0.24164	0.22965	0.12943	0.093724	0.093162	-2.5167	-2.7229	-2.7208	-2.9313	-2.8146	-2.7167	-3.1437	-2.7313	-2.6625	-2.9313	-2.8792	-3.0521	-2.8708	-2.8021	-2.8688	-2.9813	220.721	464.865	195.389	373.488	399.970	260.087	364.938	236.280	194.649	324.783	251.151	481.319	165.221	498.366	345.463	283.678	0.0017483	0.00049823	0.00011421	310.32	4.8084e-06	1.7299e-06	619.23	98.096	2.8126e-06	6.9787e-07	280.46	137.23	48.512	20.156	3.3999e-06	76.931	0.0011146	0.0010613	0.00029083	303.61	1.0419e-05	1.1316e-05	600.65	96.356	1.059e-05	1.1445e-05	275.46	133.82	47.471	20.108	1.1248e-05	76.091	475.975	280.074	221.887	164.518	325.079	271.507	164.444	169.008	222.761	305.190	168.313	172.207	170.680	176.766	247.298	175.027	-8191	255	
22855.729	1	1	0	0	0.13017	0.11327	0.10841	0.1724	0.32119	0.23083	0.14292	0.039405	0.22114	0.23571	0.15843	0.37488	0.14514	0.1127	0.03935	0.10291	-2.3583	-2.8583	-2.6583	-2.9688	-2.9354	-2.6604	-3.0542	-2.8417	-2.7687	-3.0333	-2.6833	-2.9708	-2.8167	-2.7729	-3.0167	-2.9542	382.552	505.112	215.205	424.902	508.356	232.960	354.282	379.982	427.232	216.099	442.377	438.813	246.337	505.519	469.332	398.301	0.0017951	0.00031449	0.00011177	307.43	4.5168e-06	4.054e-06	616.32	97.947	4.8288e-06	4.1528e-06	280.84	137.94	48.452	20.315	3.7525e-06	77.017	0.0011231	0.0010463	0.00029488	301.46	1.0761e-05	1.1676e-05	597.42	95.986	1.0825e-05	1.1567e-05	275.1	134.04	47.446	20.152	1.1028e-05	75.976	475.796	263.540	222.582	164.305	299.324	342.052	164.259	168.834	281.287	304.434	168.119	171.660	170.898	175.976	308.252	175.131	-8191	255	
22855.848	1	1	0	0	0.070801	0.26461	0.20807	0.16628	0.17891	0.15594	0.083196	0.12945	0.12837	0.16161	0.2517	0.038044	0.18771	0.12074	0.07038	0.14013	-2.3792	-2.9521	-2.6312	-2.8375	-2.9708	-2.7729	-3.2271	-2.9104	-2.7125	-2.9604	-2.9479	-2.8125	-2.9271	-2.8979	-2.9833	-2.8104	459.046	445.238	202.198	363.815	210.705	439.727	491.510	237.519	293.179	182.025	442.037	477.446	398.898	497.372	462.962	438.545	0.0017192	0.00056072	0.00013761	309.22	4.693e-06	5.4088e-06	614.13	98.32	7.2349e-06	4.9316e-06	282.35	137.25	48.097	20.068	3.9202e-06	76.47	0.0010998	0.0010222	0.00029189	301.13	1.0031e-05	1.1404e-05	596.69	96.2	1.0092e-05	1.0983e-05	274.67	133.37	47.227	19.911	1.0671e-05	75.577	477.628	214.631	234.074	164.515	272.158	321.771	164.233	168.727	264.427	293.180	168.094	171.862	171.252	176.401	206.768	174.947	-8191	255	
22855.922	1	1	0	0	0.16444	0.033668	0.18387	0.19701	0.21975	0.097697	0.20712	0.37425	0.082728	0.061269	0.12496	0.063273	0.093568	0.41749	0.1116	0.23107	-2.2354	-2.9458	-2.6917	-2.775	-2.9313	-2.7833	-3.0229	-2.9354	-2.6729	-3.0771	-2.8542	-2.9875	-2.9562	-2.875	-3.0271	-2.8917	166.549	250.939	266.544	161.986	300.103	291.749	451.326	307.102	166.693	427.851	165.208	464.055	164.774	493.588	305.087	425.732	0.0017129	0.00060614	8.3065e-05	305.01	4.7692e-06	4.0149e-06	613.82	98.025	3.4595e-06	4.3668e-06	282.67	137.48	48.7	20.104	9.1527e-06	77.096	0.0010954	0.0010029	0.00028172	299.8	1.0087e-05	1.1134e-05	597.13	96.195	1.0406e-05	1.1334e-05	275.59	133.81	47.445	20.047	1.1003e-05	75.915	475.336	234.154	273.965	164.490	301.132	264.983	164.478	168.766	272.623	339.576	168.527	171.515	170.957	176.347	292.588	175.191	-8191	255	
22856.039	1	1	0	0	0.082612	0.04264	0.04423	0.055812	0.21789	0.24342	0.22364	0.044758	0.22015	0.15664	0.25235	0.17445	0.11376	0.24582	0.083667	0.24457	-2.3708	-2.9771	-2.5687	-2.8667	-3.0542	-2.8896	-3.0104	-2.9125	-2.5187	-3.1167	-2.9625	-2.7562	-2.8771	-2.5021	-2.9688	-2.9375	442.596	380.226	458.930	392.805	427.430	469.038	380.763	238.910	367.270	190.459	497.051	342.473	475.043	381.480	200.256	207.319	0.0017534	0.00081679	0.00017645	307.89	6.1467e-06	6.4777e-06	615.45	98.318	1.1573e-05	6.324e-06	279.76	136.44	48.021	20.188	4.3536e-06	76.604	0.0011154	0.001051	0.00028562	300.45	1.0558e-05	1.1726e-05	596.42	96.074	1.057e-05	1.1687e-05	274.07	133.05	47.215	19.976	1.104e-05	75.306	473.533	244.470	299.713	164.284	280.489	308.229	164.196	168.636	275.068	276.465	168.352	171.716	171.188	176.793	255.844	175.232	-8191	255	
22856.137	1	1	0	0	0.17472	0.24096	0.1396	0.29591	0.22603	0.049813	0.05781	0.15537	0.19807	0.2566	0.12015	0.24207	0.25387	0.15282	0.11282	0.065104	-2.3896	-3.0062	-2.8146	-3.0125	-3.2042	-2.775	-2.9083	-3.0896	-2.6375	-3.075	-3.025	-2.9604	-3.0104	-2.8958	-3.0563	-2.9833	233.055	151.167	252.234	268.021	265.213	247.734	488.109	218.657	448.450	400.315	500.396	486.386	371.542	473.453	383.492	179.014	0.0016904	0.00020703	3.5028e-05	309.76	5.3134e-06	4.1085e-06	610.16	96.827	5.3276e-06	4.3771e-06	279.73	136.53	48.295	20.184	6.67e-06	76.807	0.0011271	0.0010603	0.00028989	300.63	1.0751e-05	1.1825e-05	594.38	95.548	1.0758e-05	1.1324e-05	273.1	132.86	47.308	19.941	1.1106e-05	75.522	475.844	238.628	376.613	164.265	340.719	326.677	164.256	168.674	247.930	303.204	168.141	171.800	171.764	176.709	294.394	174.960	-8191	255	
22856.232	1	1	0	0	0.09716	0.088276	0.20381	0.17008	0.12399	0.18649	0.2079	0.21468	0.12101	0.13095	0.2393	0.15295	0.19999	0.067939	0.14789	0.33774	-2.2146	-2.8125	-2.7792	-2.8312	-2.95	-2.8667	-2.8875	-2.9854	-2.6437	-3.0083	-2.9896	-2.7687	-2.9604	-2.8708	-2.9938	-3.0604	283.872	194.187	449.462	401.370	257.208	176.242	428.890	391.141	225.300	448.642	415.709	503.427	162.491	398.171	488.243	464.716	0.0017505	0.00036025	0.00016723	307.68	6.2626e-06	5.2875e-06	610.86	98.425	6.3909e-06	4.1893e-06	280.12	137.52	48.615	20.288	4.3938e-06	77.22	0.001104	0.0010665	0.00028988	299.07	1.0731e-05	1.1506e-05	594.93	96.148	1.0801e-05	1.1692e-05	275.11	133.89	47.443	20.148	1.1203e-05	76.256	477.714	284.598	255.589	164.361	241.446	278.282	164.328	168.831	287.417	309.895	168.237	171.988	171.382	176.555	275.620	175.052	-8191	255	
22856.328	1	1	0	0	0.14656	0.095705	0.062452	0.10121	0.091627	0.30084	0.11933	0.082565	0.10558	0.155	0.29998	0.10575	0.058522	0.1078	0.069493	0.26244	-2.2542	-2.9562	-2.8312	-2.6458	-3.1875	-2.8563	-2.9333	-3.0854	-2.8312	-2.9604	-2.9021	-2.7271	-3.0521	-2.8042	-2.9021	-3.2375	499.157	169.773	439.319	382.461	214.110	494.923	168.943	280.259	481.644	311.057	423.580	196.579	193.635	218.238	228.181	416.347	0.0017887	0.00036505	7.0044e-05	307.31	4.7515e-06	6.0702e-06	611.96	98.479	9.1304e-06	2.5304e-06	281.82	137.12	48.953	20.265	3.1385e-06	77.226	0.0011537	0.0011162	0.00030013	300.53	1.09e-05	1.2055e-05	596.5	96.224	1.0883e-05	1.1879e-05	275.44	133.92	47.807	20.091	1.1289e-05	76.078	478.239	220.215	195.167	164.517	264.465	293.906	163.838	168.827	272.692	312.059	168.546	171.787	171.282	176.748	252.981	175.268	-8191	255	
22856.449	1	1	0	0	0.23564	0.08368	0.04023	0.26644	0.02293	0.1619	0.27219	0.3223	0.087244	0.11005	0.20828	0.04202	0.21917	0.34637	0.27173	0.23192	-2.325	-2.8375	-3.0896	-2.8708	-3.1167	-2.8875	-2.6625	-2.9562	-2.9292	-2.8958	-3.0604	-2.8542	-3.0438	-2.9437	-2.6083	-3.1229	283.674	151.583	181.519	423.237	335.189	215.754	317.486	348.666	227.258	337.677	356.125	255.003	439.145	292.743	388.849	456.406	0.0017804	0.00030816	8.054e-05	307.05	5.7178e-07	6.7825e-06	614.05	98.356	8.0507e-06	2.4261e-06	280.68	137.07	48.777	20.371	4.0553e-06	77.073	0.0011407	0.001066	0.00028882	300.95	1.0705e-05	1.1655e-05	596.8	96.442	1.0742e-05	1.1886e-05	275.12	133.61	47.556	20.147	1.124e-05	75.955	477.090	269.349	243.718	163.947	491.725	236.873	164.047	168.948	276.526	335.808	168.113	171.690	171.614	176.080	291.746	174.936	-8191	255	
22856.545	1	1	0	0	0.20162	0.11585	0.073144	0.062633	0.12213	0.079169	0.10725	0.23136	0.25868	0.08385	0.066473	0.25322	0.080573	0.1423	0.037676	0.2763	-2.2271	-2.8	-3.1792	-2.8021	-2.9875	-2.9542	-2.65	-3.0083	-2.9375	-2.7542	-3.0292	-2.5479	-3.025	-2.8708	-2.5354	-3.0729	436.538	380.064	413.680	260.053	330.132	308.013	274.595	496.145	293.458	297.757	344.204	190.699	242.625	400.660	350.080	155.572	0.0017017	0.00024189	0.00018902	305.79	7.4212e-06	3.5047e-06	617.48	98.178	5.4935e-06	2.9135e-06	282.24	136.79	48.744	20.33	6.5079e-06	76.982	0.0011206	0.0010989	0.00030021	300.81	1.0787e-05	1.1632e-05	597.54	96.532	1.1127e-05	1.1971e-05	275.12	133.52	47.524	20.07	1.1273e-05	75.643	477.255	224.584	246.417	164.533	297.015	292.843	164.393	169.121	268.206	270.628	168.202	171.657	170.882	176.902	286.626	175.278	-8191	255	
22856.617	1	1	0	0	0.20673	0.24625	0.091483	0.10135	0.039864	0.15342	0.35451	0.093637	0.20146	0.1435	0.18327	0.15861	0.17109	0.14374	0.10001	0.086931	-2.4375	-2.7521	-2.9521	-2.6562	-2.8312	-3.0083	-2.7208	-3.1104	-3.0187	-2.6354	-3.0312	-2.8458	-3.0104	-3.0687	-2.7833	-3.0583	466.040	433.206	178.575	158.605	307.190	209.951	422.349	416.737	330.637	490.402	501.736	170.385	257.866	407.653	266.760	490.900	0.0017329	0.00046857	0.0002049	308.74	5.5994e-06	7.0007e-06	616.43	98.619	5.5668e-06	5.038e-06	282.07	136.4	48.504	20.201	5.0213e-06	77.268	0.0011186	0.0010676	0.000296	301.76	1.1059e-05	1.172e-05	597.84	96.567	1.0665e-05	1.1648e-05	275.6	133.58	47.427	20.085	1.1316e-05	75.971	476.163	247.455	224.600	164.041	266.212	273.719	164.232	168.423	280.727	296.986	167.898	171.898	171.181	176.624	249.002	175.055	-8191	255	
22856.736	1	1	0	0	0.21214	0.039465	0.094792	0.058561	0.10197	0.14171	0.18485	0.29878	0.15716	0.14193	0.12409	0.078524	0.11336	0.18287	0.058242	0.40173	-2.5146	-2.9292	-3.0208	-2.8042	-2.9417	-2.9729	-2.7146	-3.0542	-2.9458	-2.7271	-3.1479	-2.7313	-2.7917	-2.9646	-2.7729	-2.9208	317.948	186.327	422.799	206.172	413.423	371.543	486.714	280.345	225.688	168.187	395.224	404.307	461.395	221.564	235.899	425.404	0.0018776	7.0307e-05	7.8665e-05	310.8	4.1392e-06	7.2803e-06	617.35	99.418	5.521e-06	4.0296e-06	282.95	138.15	48.913	20.429	4.051e-06	77.445	0.0011496	0.0010608	0.00029829	303.27	1.0866e-05	1.2066e-05	601.09	97.032	1.1142e-05	1.1887e-05	276.79	134.52	47.736	20.253	1.1416e-05	76.411	475.424	182.243	214.999	164.052	310.177	323.204	164.487	168.589	284.439	261.487	168.335	171.540	171.273	176.836	320.720	175.162	-8191	255	
22856.832	1	1	0	0	0.10044	0.14283	0.08346	0.14836	0.19935	0.11936	0.22345	0.03785	0.096792	0.13843	0.10061	0.34175	0.19992	0.030008	0.17215	0.14398	-2.5771	-2.4708	-2.8396	-2.8563	-2.9083	-2.9562	-2.9125	-2.8354	-2.9271	-2.8354	-3.0271	-2.7521	-2.8042	-2.9979	-2.8229	-2.9979	382.358	248.971	363.175	154.294	509.273	151.808	489.559	155.354	242.757	226.497	492.444	189.150	159.558	204.262	215.371	465.905	0.0017592	0.00054139	3.9713e-05	308.24	2.3586e-06	7.6585e-06	617.64	99.974	2.515e-06	5.0717e-06	281.86	137.35	48.751	20.201	4.463e-06	76.923	0.0011142	0.0010664	0.00029713	303.19	1.0997e-05	1.1732e-05	600.92	97.419	1.0594e-05	1.1937e-05	276.57	133.77	47.519	20.103	1.1213e-05	75.8	475.613	253.416	220.423	164.173	259.959	309.007	164.386	169.011	287.387	286.810	167.757	171.507	170.946	176.262	263.815	174.988	-8191	255	
22856.928	1	1	0	0	0.072031	0.17107	0.053207	0.086338	0.19221	0.13464	0.22578	0.15033	0.099991	0.21724	0.2981	0.14708	0.27654	0.090412	0.17487	0.054486	-2.6625	-2.7229	-2.9625	-2.8896	-2.85	-3.1458	-2.875	-2.9583	-3.0938	-2.6917	-3.0062	-2.9396	-2.7687	-3.0208	-2.8292	-3.1104	435.512	398.462	238.142	219.782	345.615	317.455	361.175	486.833	423.814	278.523	456.715	397.715	408.824	165.539	340.668	317.036	0.0017094	0.00057791	0.00010578	310.05	2.3484e-06	5.3753e-06	613.74	99.203	7.8343e-06	2.3865e-06	281.12	136.36	48.815	20.129	5.9245e-06	76.711	0.0011199	0.0010656	0.00029748	304.7	1.0848e-05	1.1626e-05	599.79	97.048	1.0616e-05	1.1618e-05	274.83	133.23	47.588	20.004	1.1117e-05	75.57	475.068	237.163	277.243	164.504	238.352	300.993	164.125	168.830	238.942	323.527	168.134	171.726	171.307	176.251	273.632	175.105	-8191	255	
22857.023	1	1	0	0	0.16302	0.29356	0.045329	0.12602	0.16265	0.10282	0.090488	0.33137	0.15048	0.041575	0.26063	0.16583	0.16234	0.10327	0.30985	0.15334	-2.6396	-2.7354	-2.9521	-2.9021	-2.5687	-2.9062	-2.75	-2.6937	-3.1792	-2.7354	-3.2	-3.0812	-2.7333	-3.025	-2.9542	-2.9625	272.555	348.815	218.838	474.842	397.205	209.206	283.330	504.164	211.457	439.430	203.053	480.128	379.969	217.335	482.822	450.018	0.001822	0.00059916	0.00013857	310.29	4.3293e-06	4.616e-06	615.36	99.14	7.7259e-06	1.2744e-06	284.73	137.04	48.597	20.168	3.6429e-06	76.373	0.0011463	0.0010542	0.00029945	303.27	1.083e-05	1.1678e-05	599.83	97.28	1.0814e-05	1.1539e-05	276.21	133.7	47.551	20.014	1.1003e-05	75.474	476.006	239.111	262.683	164.483	311.666	261.857	164.345	168.765	247.923	385.370	168.132	171.866	171.387	176.562	301.281	175.161	-8191	255	
22857.145	1	1	0	0	0.040732	0.23669	0.24711	0.22415	0.11928	0.21322	0.24953	0.29364	0.081743	0.21331	0.13201	0.18712	0.17228	0.298	0.26446	0.20381	-2.6021	-2.8167	-3.0271	-2.9854	-2.8688	-2.9958	-2.9313	-2.8563	-3.2083	-2.9333	-3.0771	-3.075	-2.7958	-3.0667	-2.8563	-2.9875	243.214	403.073	377.273	378.533	300.874	209.076	185.845	508.949	180.046	461.376	473.170	375.132	428.109	431.721	480.699	347.651	0.0017119	0.00051663	0.00012777	312.79	2.9966e-06	6.5351e-06	618.01	99.048	6.5951e-06	3.5566e-06	282.92	137.13	49.048	20.13	6.2412e-06	76.703	0.0011197	0.0010508	0.00029615	305.62	1.1117e-05	1.1758e-05	603.15	97.146	1.0797e-05	1.1757e-05	275.96	133.42	47.655	20.013	1.1078e-05	75.635	474.176	225.596	217.466	164.140	295.852	285.664	164.204	168.483	280.301	363.752	168.262	171.623	171.602	176.261	266.674	174.915	-8191	255	
22857.217	1	1	0	0	0.09312	0.12518	0.27431	0.23097	0.12974	0.25152	0.19246	0.27361	0.080147	0.20531	0.25025	0.21548	0.11681	0.1289	0.021773	0.22383	-2.7292	-2.8187	-2.9	-3.0021	-2.7333	-3.0417	-2.9896	-2.9292	-3.1937	-2.9479	-3.0292	-3.0667	-2.8375	-3.0563	-2.8	-2.7167	379.979	246.407	381.076	195.739	310.462	440.521	479.476	371.521	296.125	242.614	436.104	406.173	452.240	216.793	283.254	431.564	0.0017249	0.00048161	0.00016407	312.17	6.1929e-06	5.3216e-06	616.4	99.2	4.5882e-06	4.2083e-06	281.86	137.5	48.665	20.206	5.6331e-06	76.741	0.0011196	0.0010716	0.00029233	304.44	1.0773e-05	1.1673e-05	601.06	97.188	1.0528e-05	1.1663e-05	275.69	133.98	47.577	20.102	1.1007e-05	75.732	475.720	241.801	245.444	163.729	262.460	294.619	164.185	168.685	316.911	318.233	168.456	171.668	171.471	177.003	289.185	175.090	-8191	255	
22857.312	1	1	0	0	0.22063	0.15558	0.22493	0.29258	0.13496	0.069039	0.21929	0.079075	0.37313	0.28865	0.14201	0.015499	0.043697	0.14816	0.1287	0.1653	-2.6875	-2.9	-2.9562	-3.0729	-2.8542	-2.8937	-3.075	-2.8167	-2.8792	-2.8354	-2.9333	-3.2687	-2.825	-2.9479	-2.975	-2.7083	196.731	352.242	397.725	430.812	380.795	447.280	428.361	235.575	452.299	473.484	460.722	341.668	469.913	302.027	290.204	352.942	0.0018338	0.00042231	6.4498e-05	307.74	3.9013e-06	2.452e-06	614.9	99.198	6.0064e-06	8.1647e-07	281.47	137.03	48.822	20.409	4.9426e-06	77.371	0.0011255	0.0010394	0.00029955	302.92	1.0742e-05	1.1567e-05	596.76	97.025	1.0402e-05	1.1714e-05	275.32	133.68	47.747	20.28	1.1141e-05	76.381	477.615	247.846	299.885	164.611	253.804	276.634	164.392	168.786	271.821	266.764	167.944	171.974	171.403	176.386	255.935	175.001	-8191	255	
22857.408	1	1	0	0	0.13209	0.1797	0.16992	0.014649	0.11672	0.31721	0.024096	0.085235	0.28514	0.13758	0.33675	0.1287	0.10673	0.25938	0.16054	0.17957	-2.6167	-2.9	-2.8229	-3.0563	-2.8688	-2.9625	-3.0146	-2.7354	-2.9729	-2.9396	-2.8521	-3.1958	-2.8729	-2.8583	-3.0375	-2.8896	471.864	442.000	469.172	474.192	288.743	291.351	372.198	182.827	321.356	300.108	409.856	165.898	438.220	186.986	276.037	482.756	0.0017639	0.00046543	5.9115e-05	310.85	6.4918e-06	6.2942e-06	611.12	99.569	5.3287e-06	2.8011e-06	281.89	137.85	49.15	20.546	2.225e-06	77.724	0.0011376	0.0010619	0.00030095	303.28	1.1173e-05	1.172e-05	597.9	97.421	1.071e-05	1.1654e-05	276.78	134.76	48.098	20.367	1.1009e-05	76.754	475.604	256.354	275.790	164.354	301.138	319.485	164.098	168.792	281.152	279.076	168.133	171.697	171.085	176.512	276.686	175.056	-8191	255	
22857.529	1	1	0	0	0.16691	0.14873	0.22184	0.13458	0.14124	0.027851	0.16403	0.15984	0.025173	0.39827	0.046666	0.14525	0.061939	0.21893	0.20192	0.093822	-2.6333	-2.6792	-2.6792	-3.1958	-2.7917	-2.9125	-3.1979	-2.7542	-3.0667	-3.0292	-2.975	-3.2313	-2.9125	-2.825	-3.1646	-2.6375	453.339	482.047	342.826	446.098	441.994	201.285	339.120	211.302	499.567	507.582	217.579	451.968	158.761	210.222	397.621	150.888	0.0018025	0.00044346	0.00011332	311.66	5.1165e-06	4.8558e-06	617.38	99.679	6.1194e-06	2.202e-06	282.99	138.6	49.295	20.648	7.8087e-06	78.024	0.0011478	0.0010774	0.00029742	304.34	1.0865e-05	1.1716e-05	600.98	97.856	1.0825e-05	1.1746e-05	277.69	135.07	48.135	20.4	1.102e-05	76.704	477.307	220.366	263.381	164.477	286.097	282.214	163.901	168.794	272.333	323.977	168.421	171.925	171.096	176.467	299.809	175.171	-8191	255	
22857.627	1	1	0	0	0.24668	0.28769	0.20808	0.18955	0.27666	0.10559	0.071448	0.067543	0.23881	0.098167	0.15884	0.16905	0.086405	0.093033	0.089792	0.035021	-2.5083	-2.8542	-2.7104	-3.1708	-2.9167	-2.8375	-3.2979	-2.7979	-2.8667	-2.7687	-2.7208	-3.1292	-2.8896	-2.8208	-3.1625	-2.9458	403.438	469.020	316.254	309.264	468.156	286.851	361.779	357.893	299.061	318.568	448.725	469.058	292.693	339.310	442.647	429.057	0.0018621	0.0004323	0.00018432	311.73	4.3398e-06	4.7786e-06	619.17	99.154	2.4082e-06	2.9829e-06	284.95	138.37	49.124	20.81	3.2925e-06	77.576	0.0011229	0.0010623	0.00029418	305.02	1.081e-05	1.1699e-05	601.72	97.807	1.0978e-05	1.181e-05	277.46	135.04	48.25	20.498	1.1055e-05	76.625	477.768	257.009	261.424	164.379	285.489	283.147	164.072	168.808	233.023	260.172	168.196	171.889	171.254	176.260	261.925	175.249	-8191	255	
22857.723	1	1	0	0	0.057644	0.081032	0.060842	0.19834	0.1416	0.14868	0.38299	0.20776	0.16752	0.043169	0.18505	0.18323	0.15371	0.18932	0.3215	0.13805	-2.5021	-2.8521	-2.75	-2.9562	-2.9125	-2.8438	-3.0042	-2.9229	-2.7271	-3.0896	-2.7542	-3.1479	-2.7875	-2.8521	-3.1562	-3.0229	411.240	429.502	192.134	450.307	389.697	213.532	394.245	475.341	354.980	164.482	303.875	414.201	264.636	465.238	232.591	397.253	0.0018587	0.00084529	0.00014892	307.72	3.0238e-06	3.8314e-06	616.89	99.517	5.3394e-06	7.1723e-06	283.04	138.73	49.385	20.817	3.9646e-06	77.658	0.0011338	0.0010247	0.00028865	302.13	1.0332e-05	1.1415e-05	596.71	97.649	1.0251e-05	1.1277e-05	276.77	134.7	48.321	20.536	1.1057e-05	76.863	478.538	255.007	251.331	164.351	281.976	321.681	164.196	168.754	226.799	319.126	168.441	171.755	171.290	176.730	259.442	175.119	-8191	255	
22857.818	1	1	0	0	0.24552	0.13442	0.064576	0.045126	0.26128	0.041043	0.054362	0.05675	0.15732	0.078829	0.19817	0.093152	0.20509	0.32346	0.056943	0.33761	-2.2792	-2.9333	-2.6792	-2.975	-2.9375	-2.6625	-3.0167	-2.7979	-2.8896	-3.1396	-2.8	-2.9083	-2.9021	-2.6958	-3.0875	-2.9813	432.655	464.549	453.068	298.298	241.814	503.064	480.765	492.070	500.176	177.579	496.236	213.688	324.806	303.698	153.898	455.024	0.0018638	0.00015789	0.00016396	309.65	8.9262e-06	5.0847e-06	612.76	100.68	4.0217e-06	2.0838e-06	284.72	140.16	49.944	21.017	3.9652e-06	78.373	0.0011189	0.0010299	0.00029368	302.68	1.0399e-05	1.1517e-05	596.88	98.304	1.0283e-05	1.1371e-05	279.08	136.12	48.534	20.692	1.0907e-05	77.437	477.849	482.091	205.728	164.343	280.801	308.265	164.062	168.404	271.685	308.832	168.035	171.894	171.449	176.758	278.183	175.222	-8191	255	
22857.912	1	1	0	0	0.05544	0.072579	0.04133	0.057307	0.26364	0.060817	0.25454	0.031913	0.15685	0.099683	0.42386	0.11349	0.15485	0.38015	0.17395	0.16661	-2.4646	-2.7938	-2.6729	-2.7812	-2.9562	-2.7958	-3.0812	-2.8583	-2.8146	-3.2188	-2.7083	-2.9938	-3.0062	-2.8604	-3.0042	-3.1167	222.617	169.115	194.829	250.464	429.227	504.628	454.144	369.456	391.884	273.590	486.446	155.244	366.353	172.435	386.164	416.031	0.0018004	0.00048553	0.00016718	312.12	7.6326e-06	5.4126e-06	620.43	101.15	6.5036e-06	1.2288e-06	287.63	139.77	50.176	20.65	2.0777e-06	78.485	0.0011206	0.0010433	0.00028992	304.95	1.033e-05	1.1387e-05	602.19	99.164	1.0376e-05	1.1483e-05	281.23	136.48	49.031	20.575	1.0738e-05	77.329	475.208	230.076	258.469	164.584	261.502	323.169	164.948	168.803	239.584	305.656	168.058	171.854	171.479	176.463	308.348	175.293	-8191	255	
22858.010	1	1	0	0	0.28937	0.22284	0.1615	0.22284	0.17595	0.18054	0.21057	0.13643	0.062228	0.1225	0.20013	0.069426	0.36388	0.35436	0.19636	0.10584	-2.1396	-3.0958	-2.8438	-2.7979	-2.9354	-2.9083	-2.9938	-2.9021	-2.6354	-3.0792	-2.8542	-2.7854	-3.1188	-2.875	-3.0271	-2.9688	337.195	398.028	256.268	246.986	373.396	309.147	387.228	439.399	409.363	345.779	244.428	350.029	384.463	333.133	226.429	359.239	0.0017759	0.0003377	0.00012616	312.58	2.6237e-06	4.0089e-06	618.4	101.57	2.5316e-06	2.9784e-06	287.6	139.93	49.934	20.923	5.1633e-06	78.545	0.0011158	0.0010274	0.00028008	306.67	1.039e-05	1.1595e-05	601.84	99.088	1.0548e-05	1.1701e-05	280.76	136.15	49.05	20.682	1.0894e-05	77.353	476.850	205.594	255.450	164.621	313.919	272.061	164.233	168.920	278.414	270.839	168.258	171.974	171.159	176.936	271.502	175.001	-8191	255	
22858.129	1	1	0	0	0.2902	0.057994	0.20798	0.15107	0.18266	0.18261	0.12646	0.22517	0.12438	0.1434	0.12251	0.28301	0.20605	0.26804	0.24836	0.17419	-2.3229	-2.7958	-2.6813	-2.8646	-3.3208	-2.7104	-2.9354	-2.9354	-2.7708	-3.1479	-2.8854	-2.9188	-3.0292	-3.0187	-2.8396	-3.1021	403.819	235.623	281.056	479.968	242.709	454.977	419.207	408.078	201.438	296.416	238.875	497.396	492.873	319.208	415.920	455.107	0.0017146	0.00053622	0.00014101	311.46	5.5032e-06	3.2429e-06	616.37	101.34	3.514e-06	2.7757e-06	286.8	139.51	50.289	20.961	2.9716e-06	78.565	0.0011043	0.0010124	0.00029032	303.77	1.0285e-05	1.1359e-05	598.37	99.43	1.0307e-05	1.1559e-05	279.8	136.05	49.118	20.755	1.0768e-05	77.408	474.332	243.301	253.895	164.464	229.764	302.441	164.193	168.980	273.141	325.676	168.405	171.898	171.772	176.388	288.659	175.097	-8191	255	
22858.225	1	1	0	0	0.27068	0.28361	0.081613	0.25727	0.031553	0.2308	0.11357	0.25599	0.27331	0.25066	0.19793	0.18393	0.18118	0.18446	0.18673	0.050473	-2.475	-3.1229	-2.7792	-2.6417	-3.025	-2.8708	-2.9521	-2.7313	-2.7104	-2.9458	-2.9729	-2.7708	-2.9188	-2.8208	-2.9813	-3.1771	462.483	168.175	334.480	384.580	481.907	404.477	237.417	262.386	156.827	179.399	444.524	459.506	163.870	414.800	510.720	482.244	0.0017634	0.00048602	6.0492e-05	310.8	6.802e-06	6.1987e-06	616.83	101.28	6.3751e-06	5.9262e-06	286.37	140.35	50.457	20.97	9.3343e-06	78.902	0.0011163	0.001036	0.00027401	304.43	1.0681e-05	1.1366e-05	600.93	99.397	1.0299e-05	1.1259e-05	280.55	136.72	49.076	20.866	1.071e-05	77.896	476.636	240.556	272.214	164.713	305.255	290.493	164.325	169.212	255.789	258.089	168.242	171.459	171.250	176.522	276.198	175.098	-8191	255	
22858.322	1	1	0	0	0.045114	0.202	0.14982	0.20606	0.23899	0.15427	0.12102	0.23218	0.075937	0.14047	0.16747	0.20133	0.31519	0.22367	0.045851	0.13777	-2.4771	-2.9396	-2.9875	-2.8625	-3.2042	-2.9583	-2.9354	-3.075	-2.9	-3.0854	-2.9021	-2.8167	-3.0917	-2.7583	-2.8333	-3.25	196.569	201.378	412.973	195.227	293.645	401.497	250.640	199.561	466.428	510.363	401.277	190.385	361.809	185.318	336.065	504.750	0.0017504	0.00051941	0.00013294	311.89	5.7339e-06	3.8716e-06	616.97	101.81	3.4531e-06	2.2373e-06	289.27	140.7	50.393	21.079	2.5438e-06	78.98	0.0011125	0.0010471	0.00028541	305	1.0447e-05	1.1258e-05	602.38	99.678	1.0332e-05	1.1021e-05	282.5	137.16	49.373	20.908	1.0685e-05	77.97	472.557	265.883	253.283	164.297	274.851	294.359	164.133	168.603	292.900	303.718	168.324	171.514	171.094	176.618	314.757	175.141	-8191	255	
22858.441	1	1	0	0	0.31915	0.14126	0.12383	0.099393	0.11605	0.057356	0.19215	0.063089	0.11037	0.18035	0.091159	0.084425	0.12999	0.16719	0.14783	0.15139	-2.2062	-2.8375	-2.8375	-2.6354	-3.0958	-2.7875	-2.8063	-3.1437	-2.7687	-3.1042	-3.0917	-2.6708	-3.0875	-2.7812	-2.8625	-3.0333	472.629	438.926	498.680	205.949	481.262	351.588	413.069	291.419	204.945	406.169	166.744	157.230	368.089	318.474	214.636	404.845	0.0018776	0.00062487	0.00019729	316.39	7.5734e-06	7.5293e-06	620.38	101.99	2.7649e-06	4.6145e-06	287.47	140.11	50.423	21.054	4.221e-06	78.574	0.0011148	0.0010119	0.00028457	307.43	1.0351e-05	1.1124e-05	603.55	100.03	1.0091e-05	1.1361e-05	281.25	136.76	49.372	20.836	1.0809e-05	77.501	475.597	220.031	219.872	164.438	297.627	328.000	164.068	168.622	217.358	333.135	168.075	171.661	171.873	176.419	348.987	175.272	-8191	255	
22858.514	1	1	0	0	0.35034	0.04624	0.06079	0.2925	0.016368	0.11598	0.059329	0.15524	0.21072	0.014911	0.29118	0.27372	0.18747	0.18418	0.23939	0.16413	-2.3729	-2.8563	-2.9875	-2.7771	-2.9813	-2.7104	-2.7708	-2.9625	-2.6146	-3.1208	-2.9792	-2.7333	-3.0687	-2.8104	-2.7687	-3.2354	185.998	467.335	502.905	201.459	498.710	424.260	270.466	156.623	395.137	163.005	165.911	387.854	448.010	502.762	238.811	477.981	0.0018075	0.00032652	0.00019039	313.37	4.0503e-06	7.7206e-06	613.8	102.33	6.6328e-06	6.4286e-06	287.3	139.85	50.889	20.95	6.2151e-06	78.501	0.0011116	0.0010074	0.00028029	305.02	1.0224e-05	1.0977e-05	597.76	99.926	9.8565e-06	1.0918e-05	280.96	136.46	49.373	20.789	1.054e-05	77.475	477.210	271.537	249.252	164.220	300.502	290.938	164.063	168.861	252.869	297.234	168.395	171.843	171.656	176.431	260.811	175.243	-8191	255	
22858.609	1	1	0	0	0.093897	0.14321	0.10698	0.10865	0.13623	0.091366	0.12997	0.057051	0.17861	0.063684	0.28472	0.23081	0.18017	0.081285	0.074145	0.060039	-2.4292	-2.9021	-2.9875	-2.7958	-2.7646	-2.9938	-2.8875	-2.9333	-2.9458	-3.05	-3.1583	-2.7271	-3.0083	-2.9521	-2.7188	-3.0042	340.365	314.898	433.726	476.004	164.236	342.738	394.235	182.271	458.481	296.397	454.517	467.831	468.956	193.689	356.958	469.855	0.001778	0.00059769	0.00015769	312.45	5.9677e-06	8.3136e-07	618.32	101.97	7.6947e-06	6.1211e-06	286.79	140.22	50.129	20.95	2.8464e-06	78.059	0.0010696	0.0010029	0.00026819	304.84	9.8624e-06	1.0753e-05	599.74	99.529	9.6751e-06	1.0761e-05	280.81	136.23	48.946	20.71	1.0296e-05	77.11	475.109	249.389	226.522	164.369	247.759	356.065	164.673	169.039	278.110	272.811	168.266	171.613	171.515	176.849	253.265	175.001	-8191	255	
22858.705	1	1	0	0	0.14705	0.19987	0.1578	0.15558	0.26405	0.33057	0.20925	0.12549	0.1575	0.18909	0.16451	0.12593	0.12881	0.075931	0.020199	0.071442	-2.3125	-2.8563	-2.975	-2.7313	-2.8688	-2.875	-2.8375	-3.1917	-3.1021	-2.925	-3.1542	-2.7208	-2.7938	-2.9521	-2.6583	-3.1375	387.550	409.980	345.864	195.209	192.319	468.785	451.335	320.073	155.191	163.517	189.173	220.771	406.233	375.501	251.962	152.469	0.0017889	0.00063322	0.00016773	310.16	3.6281e-06	3.2142e-06	614.33	101.69	3.2582e-06	4.1139e-06	287.62	139.85	50.477	20.794	3.6725e-06	78.224	0.0010598	0.00096999	0.00026525	303.74	9.4611e-06	1.0613e-05	598.07	99.602	9.6419e-06	1.0867e-05	281.28	136.68	49.239	20.653	1.0063e-05	77.287	476.731	246.993	225.198	164.318	258.678	330.967	164.097	168.873	251.248	317.034	168.263	172.173	171.165	176.160	249.404	175.212	-8191	255	
22858.824	1	1	0	0	0.37008	0.17379	0.1816	0.21335	0.19847	0.1947	0.11477	0.17439	0.28243	0.062409	0.19221	0.16232	0.2343	0.20829	0.10618	0.087236	-2.5563	-2.5375	-3.1896	-2.9542	-2.8792	-3.1229	-2.9083	-2.9479	-2.9729	-2.9583	-3.1521	-3.0208	-2.85	-3.0208	-2.8167	-3.0938	199.135	508.862	275.789	467.868	424.085	175.367	415.219	321.528	310.086	452.897	319.520	460.668	385.664	500.435	332.492	312.141	0.0017953	0.00039191	0.00011061	309.78	4.6347e-06	4.9829e-06	614.66	101.67	2.9032e-06	5.2731e-06	286.09	138.78	50.197	20.851	5.2776e-06	77.498	0.0010606	0.00096353	0.00026684	303.01	9.8786e-06	1.0654e-05	597.12	99.288	9.3703e-06	1.029e-05	279.68	135.21	48.823	20.579	1.004e-05	76.581	476.324	248.143	247.471	164.725	298.829	314.503	164.173	169.060	214.935	324.492	168.102	171.904	171.108	176.581	283.994	175.160	-8191	255	
22858.922	1	1	0	0	0.16476	0.14464	0.068252	0.10621	0.078226	0.31596	0.22735	0.028254	0.1209	0.13962	0.15162	0.25089	0.15343	0.19404	0.085426	0.10079	-2.5708	-2.7521	-3.175	-2.9521	-3.0583	-3.1292	-2.7354	-3.0542	-2.775	-2.8729	-3.1354	-2.6562	-2.8208	-3.0833	-2.7125	-2.9458	443.280	410.715	192.465	499.807	458.720	485.125	167.044	177.878	381.516	343.661	161.781	217.203	270.321	382.711	204.946	467.722	0.0017724	0.00041236	0.00016549	312.18	4.8813e-06	6.0681e-06	611.49	101.18	5.1745e-06	6.5433e-06	285.93	138.69	49.893	20.826	5.5394e-06	77.462	0.0010313	0.00096275	0.00026308	303.07	9.5833e-06	1.0194e-05	594.56	98.695	9.8966e-06	1.0438e-05	279.06	134.97	48.657	20.609	9.8611e-06	76.586	477.503	229.837	242.143	164.581	302.658	267.711	164.338	168.853	259.767	294.996	168.070	171.542	171.302	176.463	294.377	175.294	-8191	255	
22859.018	1	1	0	0	0.13482	0.28009	0.03685	0.3164	0.46413	0.23816	0.1593	0.20305	0.19943	0.20376	0.070314	0.14647	0.16349	0.043529	0.19989	0.20749	-2.625	-2.6792	-3.1271	-3.0125	-2.8583	-3.1146	-2.8875	-2.8521	-3.1104	-2.7687	-2.9083	-2.9875	-2.6542	-3.2	-2.9104	-2.9688	415.873	353.390	187.991	418.230	346.291	261.528	448.546	478.652	287.314	248.407	456.270	176.820	313.867	415.156	399.090	450.039	0.0017272	0.00038172	8.3936e-05	308.93	2.2001e-06	7.0309e-06	610.71	100.62	6.387e-06	5.1849e-06	286.33	139.64	50.211	20.845	6.0486e-06	78.235	0.0010383	0.00095932	0.00026136	301.09	9.6648e-06	1.0622e-05	592.74	98.801	9.6795e-06	1.0379e-05	279.65	135.49	48.887	20.635	1.0264e-05	76.891	477.064	196.546	230.344	164.174	215.769	310.508	164.071	168.345	279.251	309.644	168.253	171.838	171.808	176.488	286.571	175.041	-8191	255	
22859.092	1	1	0	0	0.14867	0.094617	0.14896	0.15455	0.41419	0.043996	0.43042	0.081513	0.14587	0.21474	0.14454	0.23855	0.2436	0.37319	0.1493	0.19919	-2.6021	-2.6771	-2.975	-2.8812	-2.7313	-3.1896	-2.8271	-3.0146	-3.1583	-2.8458	-3.1458	-3.15	-2.8187	-2.9062	-2.9479	-2.8771	157.977	404.396	358.892	167.990	440.130	374.232	380.152	352.417	320.687	459.219	369.142	501.703	234.232	197.036	449.428	210.401	0.0017867	0.00054886	0.00011982	307.91	5.6959e-06	6.0588e-06	610.63	100.99	6.2206e-06	3.5097e-06	286.15	139.71	50.293	20.884	4.2503e-06	78.119	0.0010767	0.0009569	0.00027152	301.68	9.5496e-06	1.0484e-05	593.82	99.134	9.7575e-06	1.0744e-05	280.04	136.01	49.054	20.638	1.0234e-05	76.945	474.972	215.247	290.067	164.581	278.477	317.714	164.249	169.054	258.468	316.326	168.062	171.818	171.596	176.663	299.633	175.065	-8191	255	
22859.211	1	1	0	0	0.11112	0.12856	0.11411	0.073774	0.033991	0.33609	0.19713	0.205	0.15152	0.080723	0.048492	0.15688	0.3221	0.25036	0.19684	0.11312	-2.6229	-2.7438	-2.8375	-3.0521	-2.6354	-3.0458	-2.8958	-2.8729	-3.1146	-2.9667	-3.1479	-3.0417	-2.6729	-3.0146	-2.9833	-2.9833	260.018	436.036	500.035	275.973	436.149	236.498	391.902	502.326	456.953	455.194	336.989	423.874	379.827	186.458	397.632	387.001	0.0017808	0.00068511	0.00016456	311.02	6.0121e-06	2.0738e-06	613.73	101.41	4.1444e-06	5.7331e-06	286.81	139.82	50.122	20.972	8.931e-06	78.149	0.0010491	0.00096691	0.00027077	303.26	9.8926e-06	1.0727e-05	595.29	99.357	9.9363e-06	1.0832e-05	279.91	136.08	49.151	20.708	1.0433e-05	77.063	477.045	265.400	239.003	164.340	243.014	307.518	164.140	168.689	242.831	331.486	167.777	171.943	171.501	176.914	296.760	175.030	-8191	255	
22859.307	1	1	0	0	0.2175	0.15495	0.20737	0.14873	0.35895	0.0937	0.23873	0.17494	0.14621	0.15009	0.29032	0.34592	0.25421	0.1497	0.12093	0.25133	-2.5229	-2.8563	-2.9854	-3.0792	-2.7687	-2.9271	-2.9313	-2.7854	-3.0771	-2.7542	-3.0312	-3.0271	-2.8229	-2.7167	-2.8896	-2.7958	256.138	400.827	341.130	197.965	172.443	373.895	407.119	370.524	333.727	255.691	502.185	439.297	168.572	476.193	250.050	178.151	0.0018582	0.0001491	0.00019893	308.08	5.279e-06	5.1576e-06	611.65	102.01	8.9163e-06	2.6027e-06	286.09	139.74	50.151	21.054	3.9479e-06	78.17	0.0010633	0.00097719	0.00027485	302.14	1.0304e-05	1.0861e-05	593.38	99.157	1.0111e-05	1.0989e-05	279.43	136.1	49.166	20.848	1.0212e-05	77.146	475.600	277.415	248.884	164.252	277.747	304.667	164.270	168.838	282.302	326.866	168.385	171.715	171.453	176.710	298.983	175.274	-8191	255	
22859.402	1	1	0	0	0.20052	0.084021	0.064628	0.12402	0.16398	0.25393	0.072283	0.24077	0.23375	0.10135	0.23611	0.18661	0.071441	0.11917	0.081351	0.089678	-2.5667	-2.825	-2.775	-3.1271	-2.7458	-2.7854	-3.0542	-2.6479	-2.8833	-2.9021	-2.8208	-3.0896	-2.7062	-2.9729	-2.9437	-2.8625	436.048	192.214	429.475	420.628	184.357	381.416	484.142	274.245	402.521	439.614	456.371	364.851	340.506	284.822	154.784	472.312	0.0018068	0.00032026	7.5073e-05	308	5.0179e-06	1.0873e-06	614.78	101.68	8.2101e-06	3.9631e-06	286.02	140.32	50.415	21.03	4.1924e-06	78.813	0.0010918	0.00099154	0.00027733	302.22	9.9705e-06	1.0949e-05	595.35	99.471	1.0343e-05	1.0991e-05	280.8	136.73	49.32	20.896	1.0485e-05	77.696	474.838	216.586	219.820	164.466	294.288	278.341	164.131	168.977	254.467	328.212	168.131	171.639	171.551	176.678	253.890	175.260	-8191	255	
22859.523	1	1	0	0	0.24455	0.06714	0.2338	0.39538	0.21003	0.28171	0.17991	0.10084	0.048396	0.032563	0.29238	0.10269	0.13591	0.20851	0.33331	0.14165	-2.5896	-2.8583	-2.7354	-2.8896	-2.8646	-2.9333	-2.9354	-2.7229	-3.0438	-2.9208	-2.8208	-3.0042	-2.9542	-2.7625	-2.9562	-2.7896	232.206	174.323	465.299	370.382	286.218	151.261	308.739	460.009	446.170	447.151	475.214	396.376	410.133	494.362	255.258	461.990	0.0018104	0.00058405	0.00010699	311.04	6.6551e-06	4.8241e-06	610.42	102.37	4.1617e-06	4.3922e-06	290.83	141.48	51.029	21.316	5.0871e-06	79.343	0.0010851	0.0010005	0.00028059	302.57	1.001e-05	1.1032e-05	597.82	99.866	1.0141e-05	1.115e-05	282.99	137.64	49.832	21.092	1.0527e-05	78.236	476.242	221.378	256.807	164.649	290.723	302.525	164.201	168.959	228.079	294.546	167.928	171.612	171.090	176.527	297.400	174.973	-8191	255	
22859.619	1	1	0	0	0.25404	0.19083	0.21202	0.10327	0.049694	0.27369	0.077315	0.17254	0.066839	0.03669	0.12577	0.11892	0.14312	0.088891	0.1095	0.31437	-2.4625	-2.8812	-2.8688	-3.0667	-2.7792	-2.9771	-3.1146	-2.7875	-3.0729	-2.9854	-2.8688	-3.1479	-2.9437	-2.8417	-3.0646	-2.7917	310.676	426.947	386.285	490.831	425.129	162.568	315.749	431.940	504.082	458.284	508.165	267.106	379.613	232.552	412.015	216.177	0.0017919	0.00047868	0.0001552	310.55	6.9664e-06	3.7262e-06	614.29	102.95	2.627e-06	4.1574e-06	288.89	140.68	51.341	21.318	3.51e-06	79.58	0.0011068	0.0010074	0.00028161	304.74	1.0048e-05	1.116e-05	599.48	100.49	1.0121e-05	1.1315e-05	282.6	137.84	50	21.193	1.0553e-05	78.43	476.336	218.107	249.272	164.110	296.940	375.244	164.396	168.972	245.225	313.626	168.136	171.845	171.052	176.482	261.055	174.941	-8191	255	
22859.713	1	1	0	0	0.13214	0.19187	0.27951	0.075673	0.19609	0.13491	0.13604	0.13875	0.17013	0.090081	0.12739	0.37455	0.22035	0.12969	0.19659	0.26854	-2.5417	-2.7521	-2.7687	-2.9396	-2.7854	-2.8	-3.1458	-2.7896	-3.0667	-3.1208	-2.875	-3.0708	-2.9437	-2.6063	-3.0958	-2.7396	371.789	435.329	468.892	154.298	467.828	456.577	408.552	336.999	245.160	335.960	472.133	500.956	401.027	311.330	325.652	181.455	0.0016834	0.00073158	0.00014344	310.71	4.292e-06	5.3441e-06	614.75	102.3	5.2934e-06	3.6014e-06	288.47	141.83	51.206	21.439	5.1197e-06	79.647	0.001084	0.0010169	0.00028167	303.05	1.0174e-05	1.1584e-05	597.12	100.18	1.0184e-05	1.1216e-05	282.27	137.91	50	21.311	1.0641e-05	78.752	478.034	227.963	217.836	164.354	281.791	305.691	164.007	168.951	287.976	320.632	168.211	171.667	171.415	176.653	295.885	175.184	-8191	255	
22859.811	1	1	0	0	0.19098	0.21426	0.18274	0.049763	0.05427	0.12669	0.31205	0.11721	0.014616	0.038602	0.177	0.11898	0.24338	0.17574	0.2715	0.14075	-2.6646	-3.0563	-2.6417	-3.0479	-2.95	-2.7604	-3.1312	-2.9437	-2.8312	-2.9042	-2.5833	-3.0667	-2.9313	-2.8229	-2.9188	-2.9167	453.668	384.940	251.535	395.188	188.737	362.509	394.169	250.329	159.375	471.148	421.083	233.062	449.632	202.843	267.228	410.174	0.0019063	0.00026753	7.6499e-05	309.92	3.1541e-06	6.4694e-06	612.95	102.46	4.3774e-06	8.7523e-06	290.72	142.23	51.185	21.585	1.9602e-06	80.725	0.0011116	0.001001	0.00028296	302.4	1.0161e-05	1.1154e-05	597.23	100.68	1.039e-05	1.1192e-05	284.05	138.4	50.273	21.379	1.0996e-05	79.295	478.440	256.033	245.174	164.192	314.148	338.721	164.059	168.562	241.289	295.021	168.074	171.768	171.712	176.921	360.901	175.113	-8191	255	
22859.904	1	1	0	0	0.22287	0.10982	0.09749	0.045825	0.10359	0.15615	0.25567	0.11388	0.18868	0.18962	0.20579	0.091719	0.32143	0.20411	0.096902	0.25708	-2.2708	-3.0583	-2.6208	-3.0417	-3.0833	-2.6333	-2.95	-2.7438	-2.9083	-2.95	-2.9458	-2.9354	-3.1125	-2.8896	-3.0458	-2.75	280.438	328.324	411.206	470.227	254.729	453.904	489.504	492.236	173.484	271.364	402.731	295.506	504.963	417.231	489.953	388.026	0.0017911	0.00069209	0.00015074	308.4	5.8181e-06	5.4612e-06	613.35	103.78	6.203e-06	4.7912e-06	292.13	142.91	51.444	21.812	5.5274e-06	80.482	0.0011329	0.0010005	0.00028688	302.45	1.0222e-05	1.1176e-05	597.55	101.27	1.0256e-05	1.1021e-05	286.11	138.98	50.467	21.51	1.0399e-05	79.372	477.498	217.974	253.743	164.522	274.341	293.077	163.960	168.832	270.121	297.718	168.065	172.069	171.153	176.550	304.083	175.198	-8191	255	
22860.002	1	1	0	0	0.17768	0.15322	0.34541	0.20338	0.060564	0.2776	0.11272	0.15947	0.15334	0.077033	0.125	0.062402	0.22168	0.1915	0.047133	0.16649	-2.3979	-3.0479	-2.6208	-2.875	-2.9479	-2.7625	-3.1396	-2.925	-2.9667	-3.0792	-2.7958	-2.9583	-2.9729	-2.7875	-2.9896	-3.0312	270.700	355.125	411.090	367.468	334.259	154.164	508.342	459.732	278.633	504.938	380.024	220.736	219.568	407.324	508.987	493.160	0.0018543	0.00052628	0.00012689	312.07	4.4159e-06	6.586e-06	616.66	104.18	7.4309e-06	4.1641e-06	291.95	142.63	51.501	21.592	6.429e-06	80.272	0.0011018	0.0010174	0.00028068	304.47	1.0183e-05	1.1151e-05	600.42	101.72	1.0222e-05	1.0918e-05	285.86	139.28	50.514	21.47	1.0438e-05	79.296	477.065	270.078	250.481	164.647	306.190	348.307	164.301	169.412	324.934	359.538	168.139	171.411	171.191	176.510	287.472	174.939	-8191	255	
22860.121	1	1	0	0	0.30285	0.15833	0.049272	0.11471	0.28381	0.036927	0.37596	0.072356	0.11892	0.23499	0.028687	0.16341	0.19786	0.0049709	0.085985	0.13799	-2.4813	-2.9458	-2.8292	-2.8458	-2.9625	-2.6854	-2.9125	-2.9125	-2.725	-3.1688	-2.8875	-2.8208	-3.1229	-2.6521	-2.8583	-2.9333	349.314	225.577	433.990	434.720	411.017	169.408	415.886	236.460	415.474	187.601	170.532	438.820	186.486	195.587	249.616	412.975	0.0018484	0.00046287	0.00019424	312.15	7.185e-06	3.9475e-06	615.09	103.48	2.8115e-06	7.8265e-06	291.87	143.34	51.963	21.732	6.7039e-06	80.357	0.0011066	0.0010308	0.00028539	304.71	1.0216e-05	1.1283e-05	598.29	101.54	1.012e-05	1.095e-05	285.49	139.19	50.734	21.498	1.0587e-05	79.259	477.602	210.670	216.725	164.346	291.695	313.008	164.395	169.061	280.747	296.656	168.088	171.869	171.420	176.693	266.356	175.280	-8191	255	
22860.219	1	1	0	0	0.25916	0.047136	0.073482	0.24042	0.1586	0.14748	0.4101	0.17787	0.030612	0.065752	0.16259	0.18626	0.076878	0.1693	0.063533	0.29257	-2.4396	-2.8854	-2.8042	-2.7271	-2.8563	-2.8063	-2.8396	-2.9188	-2.65	-3.1083	-2.9875	-3.0563	-3.1167	-2.7396	-2.9938	-3.125	461.691	193.584	271.472	321.304	195.154	287.501	446.560	459.557	226.238	413.375	179.263	440.912	181.000	367.776	498.370	421.410	0.0018409	0.00015062	9.1092e-05	312.2	6.1004e-06	2.4592e-06	614.95	103.4	3.8933e-06	7.1539e-06	293.79	143.46	51.734	21.818	5.3436e-06	81.262	0.0010976	0.0010083	0.00027939	304.71	1.0229e-05	1.1082e-05	599.57	101.74	1.0401e-05	1.1173e-05	286.67	139.58	50.791	21.598	1.051e-05	79.706	475.991	218.549	316.867	164.456	270.860	330.566	164.053	168.972	265.876	346.711	168.234	171.631	171.105	176.206	299.171	175.223	-8191	255	
22860.314	1	1	0	0	0.33821	0.21606	0.16432	0.13678	0.1726	0.085725	0.19864	0.018744	0.16815	0.13652	0.24289	0.36508	0.19555	0.28624	0.064178	0.017071	-2.4042	-3.075	-2.6937	-2.7313	-2.925	-2.9875	-3.0312	-2.9958	-2.5646	-3.0271	-2.8625	-2.8187	-2.9521	-2.9583	-2.9208	-3.1917	325.612	379.927	262.980	471.591	291.468	212.334	350.696	475.124	151.416	164.019	492.677	369.109	221.340	175.336	193.078	424.299	0.001743	0.00049987	0.00017673	315.25	3.8475e-06	1.3181e-06	615.5	105.21	7.1127e-06	3.8039e-06	296.08	144.65	52.272	21.882	4.3668e-06	81.535	0.0010977	0.0010047	0.00027586	305.48	1.0111e-05	1.1105e-05	600.19	102.54	1.0282e-05	1.0843e-05	288.66	140.6	51.03	21.758	1.035e-05	80.308	476.068	205.679	245.296	164.209	268.500	273.151	164.368	169.066	264.917	265.763	168.167	171.776	172.128	176.582	278.601	175.324	-8191	255	
22860.387	1	1	0	0	0.23945	0.16446	0.064826	0.14474	0.1723	0.070388	0.27426	0.11373	0.10331	0.2845	0.21021	0.29855	0.14581	0.24285	0.19927	0.14777	-2.1333	-3.075	-2.9146	-2.7208	-3.0708	-2.7208	-2.9333	-2.9313	-2.775	-3.0083	-2.9188	-2.8187	-3.0917	-2.7229	-2.7896	-3.0604	174.741	295.180	303.853	405.469	227.256	193.484	483.023	384.027	443.145	248.669	215.399	440.931	226.192	427.052	487.643	428.579	0.0018625	0.00038483	4.8715e-05	313.75	4.3279e-06	4.9052e-06	623.09	105.32	3.0239e-06	3.3296e-06	295.47	144.32	52.536	22.017	5.4534e-06	81.292	0.0011105	0.0010127	0.00028428	306.36	1.0175e-05	1.1265e-05	604.9	102.98	1.0356e-05	1.1311e-05	287.94	140.93	51.246	21.837	1.0738e-05	80.32	477.143	203.960	266.606	163.875	293.753	306.819	164.266	168.445	299.816	296.198	168.257	171.711	171.609	176.762	278.581	174.857	-8191	255	
22860.508	1	1	0	0	0.13373	0.18191	0.34429	0.15603	0.10352	0.24069	0.31422	0.092636	0.21011	0.15144	0.20951	0.02354	0.05187	0.19394	0.14541	0.2664	-2.3937	-2.8083	-2.7687	-2.5479	-3.0875	-2.9729	-2.8937	-3.1146	-2.6813	-3.0062	-3.1354	-2.8792	-2.875	-2.9125	-2.8125	-3.1083	455.220	414.467	480.378	261.333	281.627	305.165	365.334	442.335	220.345	386.634	481.725	153.334	501.311	278.318	438.733	427.490	0.0018415	0.00059136	0.00012708	311.91	6.1935e-06	4.995e-06	615.05	104.4	6.4506e-06	4.6977e-06	295.27	143.87	52.293	22.14	4.9947e-06	81.384	0.0011215	0.0010339	0.00027979	304.68	1.0334e-05	1.1107e-05	598.94	102.59	1.0142e-05	1.1339e-05	287.85	140.47	51.258	21.906	1.0628e-05	80.17	475.406	224.486	206.691	164.257	281.875	274.176	164.495	169.046	276.851	312.576	168.004	171.708	171.437	176.469	302.581	175.149	-8191	255	
22860.604	1	1	0	0	0.17291	0.18566	0.19197	0.20474	0.34271	0.15929	0.26117	0.1583	0.20692	0.31681	0.2762	0.11957	0.10268	0.24437	0.11735	0.072285	-2.3375	-2.8208	-2.9896	-2.7708	-2.9562	-2.8083	-2.6979	-2.9417	-2.9833	-2.7938	-2.9958	-2.8521	-2.925	-2.7396	-2.825	-3.1437	435.788	363.027	171.354	411.530	263.550	386.765	499.904	396.119	337.863	168.591	250.559	299.776	277.025	322.302	485.292	414.949	0.0018262	0.00063737	0.00020557	311.39	4.2149e-06	4.5164e-06	616.03	104.74	8.9974e-06	5.5157e-06	294.49	144.09	52.443	22.057	4.1359e-06	81.221	0.0011088	0.00099652	0.00028195	305.46	1.0355e-05	1.1112e-05	600.06	102.95	1.0257e-05	1.1121e-05	288.04	140.26	51.23	21.789	1.081e-05	80.133	477.518	246.874	205.189	164.721	249.065	284.828	164.153	168.872	265.790	349.424	168.339	171.475	171.201	176.978	296.904	175.193	-8191	255	
22860.699	1	1	0	0	0.063811	0.1253	0.17723	0.23536	0.10655	0.13679	0.23721	0.24406	0.071702	0.22196	0.052455	0.070102	0.089702	0.094146	0.13255	0.058025	-2.4167	-2.7458	-2.9562	-2.7125	-2.9958	-2.9792	-2.7646	-2.95	-2.8417	-2.8354	-3.1625	-2.6771	-2.9583	-3.1167	-2.8083	-3.1437	343.513	401.840	308.104	300.567	259.254	321.809	454.898	236.728	348.353	358.948	243.935	239.870	272.389	365.796	170.638	449.776	0.0019042	0.00030018	0.00011461	313.35	5.523e-06	9.6426e-06	617.78	105.12	7.1409e-06	3.8312e-06	295.12	144.48	52.917	21.98	4.4996e-06	81.281	0.0011006	0.00099964	0.00028283	307.04	1.0338e-05	1.1119e-05	602.85	102.78	1.0251e-05	1.1328e-05	288.71	140.81	51.291	21.822	1.083e-05	80.299	477.800	261.414	263.250	164.411	279.020	307.952	164.676	168.927	303.338	306.566	167.989	171.697	171.456	176.876	239.404	174.809	-8191	255	
22860.795	1	1	0	0	0.23165	0.11349	0.11222	0.12197	0.095916	0.10788	0.22221	0.17271	0.22834	0.16424	0.1347	0.1882	0.19504	0.15004	0.15743	0.11892	-2.2687	-2.9146	-3.0708	-2.8167	-2.8312	-2.9771	-2.8042	-3.1417	-2.9271	-2.7646	-2.9521	-2.8646	-2.9542	-3.0104	-2.6917	-3.0938	410.539	166.576	398.396	373.941	430.612	296.769	400.624	494.523	510.935	436.857	386.806	366.805	160.974	344.900	441.455	510.866	0.0018606	0.00033077	0.00018763	314.39	6.4148e-06	4.1051e-06	621.27	105.61	4.7953e-06	7.9831e-06	298.15	145.15	52.97	22.072	7.1513e-06	81.307	0.0011196	0.001029	0.0002861	306.64	9.9425e-06	1.1173e-05	603.87	103.54	1.0169e-05	1.1175e-05	290.75	141.33	51.483	21.87	1.0591e-05	80.267	474.513	264.229	223.478	164.386	276.950	307.234	163.993	169.123	230.766	297.733	168.004	171.780	170.902	176.386	296.548	174.914	-8191	255	
22860.891	1	1	0	0	0.15931	0.22025	0.18109	0.22667	0.20914	0.1531	0.091652	0.089071	0.068156	0.12027	0.090643	0.070768	0.16169	0.23432	0.20616	0.071053	-2.3917	-2.8167	-3.0583	-2.9854	-2.7771	-3.0625	-2.8479	-2.9646	-3.0104	-2.8625	-3.25	-2.85	-2.9521	-3.0104	-2.7271	-2.8979	329.068	337.122	168.112	478.232	337.685	263.718	163.329	411.745	492.713	287.202	172.116	262.042	348.248	370.283	154.579	449.636	0.0017872	0.0004616	0.00011876	312.92	1.6315e-06	1.3717e-06	617.53	105.95	7.1838e-06	2.9771e-06	295.94	144.04	52.814	22.257	5.9601e-06	81.63	0.0010809	0.0010037	0.00027486	306.56	1.0286e-05	1.1131e-05	600.21	103.54	1.0323e-05	1.0949e-05	288.44	140.49	51.344	21.897	1.0536e-05	80.196	477.088	234.471	225.249	163.999	299.074	383.553	164.196	168.850	282.362	260.679	167.835	171.585	171.412	176.604	275.005	175.174	-8191	255	
22860.986	1	1	0	0	0.16709	0.093797	0.12808	0.31186	0.072676	0.22096	0.13461	0.12322	0.091077	0.27287	0.1055	0.23536	0.071861	0.19529	0.089672	0.26181	-2.4208	-2.6937	-3.0042	-2.7833	-2.8479	-3.0938	-2.7083	-3.0958	-3.0042	-2.6771	-3.1437	-2.9229	-2.8646	-2.9917	-2.8354	-2.9583	469.379	331.750	501.085	381.637	244.535	251.201	154.622	313.902	456.277	256.317	473.879	455.722	206.922	399.273	401.938	428.624	0.0018996	0.00042566	0.00013244	313.15	4.8534e-06	7.4227e-06	620.92	106.49	5.0361e-06	6.1797e-06	294.92	145.14	52.978	22.456	6.8003e-06	82.035	0.0011096	0.00098863	0.00027129	306.37	9.9403e-06	1.1088e-05	602.58	103.48	1.0078e-05	1.1134e-05	289.22	141.13	51.531	22.097	1.0553e-05	80.831	478.233	293.614	247.002	164.523	298.535	335.100	164.081	168.688	283.783	292.167	168.370	171.567	171.297	176.357	286.011	175.037	-8191	255	
22861.084	1	1	0	0	0.10345	0.19015	0.16764	0.31263	0.12452	0.063395	0.25032	0.16299	0.11679	0.26221	0.028106	0.17442	0.10919	0.11044	0.098948	0.40155	-2.5354	-2.9042	-2.9083	-2.9688	-2.7667	-2.9979	-2.8479	-2.9646	-2.9813	-2.8146	-3.1125	-2.9208	-2.8104	-3.0208	-2.8333	-2.8354	472.856	353.252	301.234	388.181	319.694	270.190	404.986	216.336	203.716	486.538	416.862	353.136	158.470	497.446	331.297	386.130	0.0018551	0.00043007	0.0001691	314.06	5.8577e-06	7.529e-06	619.19	106.98	5.1907e-06	7.8395e-06	298.63	146.28	53.012	22.551	6.7165e-06	82.538	0.0011214	0.0010117	0.0002861	306.64	1.0284e-05	1.1312e-05	602.19	104.21	1.0042e-05	1.1033e-05	291.39	142.25	51.907	22.202	1.0701e-05	81.284	475.668	222.808	249.068	164.681	267.715	317.473	164.297	168.896	253.788	312.146	168.087	171.969	171.516	176.499	246.435	175.092	-8191	255	
22861.203	1	1	0	0	0.17965	0.15237	0.041124	0.090529	0.20062	0.11753	0.058483	0.29128	0.09725	0.18051	0.30844	0.17392	0.26872	0.0961	0.2112	0.35405	-2.5396	-2.6354	-2.9917	-2.8854	-2.7396	-3.1208	-2.7062	-2.8667	-2.8875	-2.7667	-3.1542	-2.9896	-2.8833	-3.1312	-2.9458	-2.9708	299.951	225.277	307.661	490.276	338.253	273.672	456.959	463.335	223.261	482.405	418.962	383.173	367.432	466.579	395.206	442.123	0.0019468	0.00047046	0.00011785	312.39	4.3525e-06	4.3247e-06	623.99	107.24	6.1596e-06	5.9702e-06	298.1	145.26	53.576	22.332	5.3719e-06	81.778	0.0011254	0.0010228	0.0002876	306.85	9.9145e-06	1.1032e-05	607.45	104.66	1.0368e-05	1.1489e-05	291.78	141.9	51.986	22.174	1.0698e-05	80.589	476.370	214.391	250.906	164.747	286.686	338.611	164.374	169.038	235.451	274.548	168.090	171.711	170.795	176.623	254.418	175.193	-8191	255	
22861.299	1	1	0	0	0.13149	0.13054	0.25228	0.38125	0.11091	0.19225	0.12635	0.15941	0.12064	0.32032	0.20358	0.11997	0.19172	0.11345	0.090226	0.16477	-2.7542	-2.9062	-2.9333	-3.1208	-2.7833	-3.1458	-3.0979	-2.7625	-3.0667	-2.7917	-3.1125	-3.2062	-2.6771	-3.0208	-3.0563	-2.9042	380.904	167.022	429.624	222.139	478.708	411.633	168.488	198.251	158.818	171.381	466.817	270.212	453.742	236.829	287.988	490.559	0.0018605	0.0003859	0.0001272	313.35	3.6023e-06	8.7387e-06	622.21	105.39	4.4267e-06	4.7122e-06	297.25	145.16	52.938	22.189	5.2022e-06	81.411	0.0011122	0.0010084	0.00028216	306.71	1.0381e-05	1.1215e-05	603.24	103.84	1.0152e-05	1.1173e-05	290.41	141.37	51.9	22.052	1.06e-05	80.3	475.816	187.266	198.916	164.246	262.892	315.121	164.282	168.881	272.803	307.607	168.457	171.535	171.488	176.541	303.340	175.172	-8191	255	
22861.395	1	1	0	0	0.10859	0.1995	0.11408	0.074619	0.18365	0.21191	0.041325	0.30346	0.24303	0.088284	0.10869	0.21663	0.13392	0.12122	0.29128	0.099335	-2.4979	-2.575	-2.9146	-3.0917	-2.7521	-3.1104	-2.8875	-2.8021	-3.0958	-2.9833	-2.9	-3.3187	-2.6958	-2.9917	-2.9146	-2.9938	420.239	367.359	430.388	459.260	196.671	254.047	483.005	488.059	510.589	477.613	401.041	338.519	418.256	507.594	222.685	442.422	0.0019414	0.0007706	9.6497e-05	314.59	7.3174e-06	1.0704e-06	615.77	106.57	6.353e-06	2.2133e-06	295.49	145.02	53.218	22.191	3.5653e-06	81.347	0.001122	0.0010046	0.00028131	307.92	1.0223e-05	1.1347e-05	603.56	104.24	9.9969e-06	1.116e-05	290.02	141.11	51.768	21.97	1.0856e-05	80.153	477.717	232.835	194.514	164.150	260.755	335.412	163.697	168.979	263.812	355.108	168.411	171.928	170.844	177.057	303.584	174.960	-8191	255	
22861.490	1	1	0	0	0.14404	0.21774	0.2374	0.076913	0.11674	0.12201	0.059335	0.022184	0.11841	0.18258	0.10911	0.31461	0.088458	0.1938	0.30362	0.20098	-2.6896	-2.9917	-2.8187	-3.0292	-2.8042	-2.8896	-3.0417	-2.7938	-3.2125	-2.8438	-2.9667	-3.3375	-2.6896	-3.1354	-3.0042	-2.9396	326.664	422.349	251.041	453.800	349.185	228.376	173.399	451.850	361.153	196.880	484.412	456.290	162.749	339.604	442.857	493.995	0.0019007	0.00039385	3.5296e-05	314.4	3.0076e-06	2.3532e-06	623.26	106.3	4.7102e-06	4.7041e-06	296.05	144.76	53.162	22.015	6.2086e-06	80.979	0.0010982	0.001006	0.00028327	308.02	1.031e-05	1.0905e-05	605.74	104.18	9.9472e-06	1.1125e-05	290.2	141.09	52.003	21.882	1.0349e-05	80.081	474.960	225.196	188.681	164.570	280.690	249.630	163.952	169.134	257.956	282.373	168.074	171.803	171.645	176.817	302.014	175.162	-8191	255	
22861.611	1	1	0	0	0.32625	0.07669	0.2227	0.14998	0.22553	0.21335	0.20398	0.15965	0.29563	0.26341	0.12163	0.055612	0.17233	0.068309	0.19159	0.14467	-2.5875	-2.8667	-2.9729	-3.0771	-2.75	-2.8021	-3.1021	-2.7271	-3.0292	-2.7792	-2.775	-3.3187	-2.6167	-2.7958	-3.0646	-2.7854	201.564	183.577	203.023	409.099	490.137	171.712	433.489	357.899	338.582	380.535	496.795	328.849	356.426	378.794	157.341	287.732	0.001828	0.00051818	0.0001475	318.3	5.4515e-06	2.2486e-06	621.42	106.91	7.622e-06	5.7223e-06	296.75	145.68	53.308	22.006	3.8383e-06	80.74	0.0010832	0.00097714	0.00027659	309.61	1.0088e-05	1.0683e-05	605.24	104.43	9.7776e-06	1.0857e-05	290.01	141.04	51.799	21.816	1.0261e-05	79.827	477.134	261.576	268.229	164.515	258.774	340.490	164.188	169.087	272.773	303.699	168.230	171.749	171.437	176.745	250.575	175.159	-8191	255	
22861.684	1	1	0	0	0.051277	0.27026	0.01771	0.043899	0.11159	0.12178	0.20396	0.14273	0.21444	0.15722	0.26192	0.092504	0.087457	0.1244	0.22979	0.2057	-2.6354	-2.8354	-2.6208	-3.1208	-2.7208	-3.0292	-3.1708	-2.6792	-2.9646	-3.0208	-2.7354	-3.0854	-2.8271	-2.8563	-3.0687	-2.8646	349.555	437.596	302.401	373.293	394.899	457.369	447.990	510.550	382.191	270.943	414.415	206.670	343.051	461.324	193.678	476.336	0.0018255	0.00036858	0.00012031	314.18	4.4079e-06	3.3936e-06	614.54	106.63	6.8173e-06	2.8316e-06	296.62	143.16	53.051	21.888	4.9101e-06	80.043	0.0010709	0.00095603	0.00026557	306.5	9.6937e-06	1.0663e-05	599.3	104.25	9.6969e-06	1.0117e-05	288.43	139.76	51.522	21.638	9.9136e-06	78.817	476.964	196.275	219.563	164.301	263.498	314.308	164.323	168.748	284.414	296.513	167.975	171.677	171.766	176.581	321.395	175.142	-8191	255	
22861.779	1	1	0	0	0.16402	0.29417	0.15207	0.19618	0.082991	0.053095	0.18907	0.05288	0.16199	0.071089	0.39456	0.053814	0.040753	0.046114	0.010598	0.30698	-2.6667	-3.0854	-2.825	-3.1708	-2.9542	-2.9167	-3.2271	-2.8229	-2.875	-2.9167	-2.8542	-3.1083	-2.8458	-2.9771	-3.1979	-2.8708	467.897	370.805	292.816	332.740	332.079	343.148	218.977	352.110	330.928	339.894	424.072	358.652	175.956	208.390	446.078	424.680	0.0018572	0.00067179	0.00013295	312.27	2.5623e-06	4.1881e-06	614.79	106.18	5.6094e-06	2.5153e-06	294.18	142.8	52.267	21.862	3.1851e-06	80.08	0.0010455	0.00093648	0.00026696	306.04	9.4948e-06	1.0504e-05	600.19	103.45	9.423e-06	1.0265e-05	287.47	139.19	51.074	21.546	9.9775e-06	78.957	478.958	241.619	199.632	164.097	155.144	332.328	163.983	168.810	272.161	247.865	168.151	171.749	171.428	176.551	269.928	175.186	-8191	255	
22861.898	1	1	0	0	0.16939	0.16568	0.16606	0.044618	0.088248	0.22627	0.16709	0.11082	0.21149	0.14192	0.071939	0.35195	0.10118	0.051894	0.30523	0.1061	-2.4396	-3.1542	-2.8771	-2.9917	-3.0625	-2.7812	-3.0729	-2.7771	-3.0479	-3.1542	-2.9167	-3.0187	-3.0417	-2.7729	-3.0625	-2.9646	362.415	401.860	327.913	365.153	334.495	327.727	324.373	452.965	185.754	438.646	443.613	168.380	422.641	318.329	220.588	406.759	0.0018025	0.00022568	0.00013776	312.06	2.2344e-06	5.4221e-06	620.03	105.77	6.2407e-06	2.4885e-06	294.62	144.01	52.426	21.893	5.0537e-06	80.199	0.001051	0.00094402	0.00026632	305.52	9.674e-06	1.0609e-05	600.46	103.56	9.7074e-06	1.0236e-05	287.77	139.86	51.246	21.66	1.0097e-05	79.109	474.101	238.351	269.386	164.299	297.345	266.115	164.329	168.946	247.258	227.311	168.305	171.680	172.122	176.678	303.972	175.260	-8191	255	
22861.994	1	1	0	0	0.11682	0.17405	0.19437	0.27833	0.35476	0.3752	0.11196	0.24306	0.047642	0.061842	0.078241	0.25612	0.11627	0.24521	0.19773	0.3044	-2.5354	-2.9313	-2.7	-3.0708	-3.0958	-2.8187	-3.2979	-2.8958	-3.0687	-3.1979	-2.9583	-3.1625	-3.0333	-2.9729	-3.2146	-3.1	372.733	346.228	406.648	185.535	343.222	164.298	291.175	423.146	356.962	163.098	163.809	502.717	260.963	368.203	437.451	455.690	0.0017474	0.00085734	0.00010527	313.95	6.072e-06	3.0235e-06	613.68	106.45	5.1302e-06	4.0818e-06	296.22	143.43	52.354	21.738	5.9487e-06	80.313	0.0010322	0.00095226	0.00026522	306.54	9.8864e-06	1.0617e-05	599.65	103.69	9.792e-06	1.0345e-05	288.17	140.09	51.213	21.544	1.0058e-05	79.054	475.232	217.663	209.313	164.178	273.785	270.808	164.393	168.853	322.141	305.696	168.292	171.699	171.649	176.684	312.661	174.855	-8191	255	
22862.092	1	1	0	0	0.20938	0.053893	0.17809	0.059127	0.15471	0.045092	0.28267	0.11475	0.20588	0.10582	0.11148	0.23473	0.069727	0.11774	0.11989	0.21038	-2.4938	-3.0521	-2.725	-3.0771	-3.1104	-2.7729	-3.0083	-2.9437	-2.6729	-3.1312	-2.8792	-2.9396	-3.1292	-2.8396	-3.0375	-3.025	164.208	213.893	360.439	376.083	478.722	297.702	468.521	431.933	365.055	334.844	503.902	505.863	262.600	342.303	220.064	288.548	0.0018782	0.00072695	0.00010748	313.81	2.2925e-06	5.1299e-06	612.07	105.44	2.6099e-06	3.6307e-06	294.32	143.24	52.214	21.75	7.653e-06	79.664	0.0010995	0.00095759	0.0002766	305.53	9.607e-06	1.0571e-05	598.04	103.36	9.7998e-06	1.0635e-05	286.74	139.31	51.174	21.573	1.0462e-05	78.564	476.770	244.264	249.398	164.676	276.053	288.895	164.409	169.172	289.341	339.775	168.077	171.969	171.683	176.566	267.913	175.257	-8191	255	
22862.188	1	1	0	0	0.24985	0.14453	0.10645	0.10957	0.13903	0.030717	0.0096875	0.079802	0.16339	0.071144	0.31904	0.10734	0.13483	0.1596	0.31193	0.14254	-2.1583	-3.1792	-2.9562	-2.9979	-3.0417	-2.8688	-3.1208	-3.0542	-2.9083	-3.0417	-2.9646	-3.0438	-3.1896	-2.8583	-3.1208	-3.1167	473.954	197.468	228.332	177.039	158.840	228.999	486.666	169.859	246.215	502.560	481.891	399.059	492.543	454.162	404.220	383.535	0.0017999	0.00042676	7.4969e-05	310.61	3.6618e-06	2.4426e-06	618.35	105.56	1.9342e-06	1.8562e-06	293.18	143.41	52.104	21.654	4.9705e-06	79.403	0.0010854	0.00096075	0.0002769	305.76	9.7511e-06	1.064e-05	600.66	103.43	9.9612e-06	1.0389e-05	286.77	139.42	50.898	21.468	1.0204e-05	78.167	477.864	189.911	259.828	164.500	274.480	276.935	164.377	168.759	322.126	284.327	168.319	171.600	171.666	176.736	292.204	175.186	-8191	255	
22862.283	1	1	0	0	0.029907	0.34386	0.1266	0.068722	0.23845	0.25436	0.026585	0.078205	0.154	0.11866	0.18702	0.22167	0.18338	0.11416	0.21326	0.28055	-2.4667	-3.0833	-2.8438	-2.8063	-3.025	-2.7792	-2.9833	-2.9958	-2.7896	-3.1	-2.9021	-2.8917	-2.9771	-2.8646	-2.9583	-3.0646	470.449	408.723	276.438	490.161	497.409	249.420	452.118	398.319	362.739	390.285	474.718	495.404	200.688	490.503	173.785	393.968	0.0018337	0.00040699	7.9008e-05	313.61	6.0687e-06	6.9066e-06	617.07	104.84	3.8263e-06	7.3312e-06	293.42	142.89	52.562	21.775	2.8614e-06	79.51	0.0010704	0.00098217	0.00027041	306.5	9.5706e-06	1.0532e-05	601.38	103.01	9.6537e-06	1.066e-05	287.51	139.43	51.078	21.49	1.0154e-05	78.533	474.909	246.213	233.363	164.680	280.603	311.876	164.543	169.252	293.462	299.724	168.069	171.517	171.176	176.387	268.031	174.971	-8191	255	
22862.379	1	1	0	0	0.26888	0.14241	0.16127	0.16691	0.16062	0.058161	0.30007	0.17997	0.23008	0.18757	0.29286	0.096927	0.16447	0.26126	0.17046	0.046684	-2.2833	-2.9583	-2.8438	-2.7604	-3.1437	-2.8312	-3.2042	-3.1875	-2.8333	-3.1021	-3.0938	-2.8667	-3.1104	-2.9667	-2.8083	-3.2271	347.629	473.272	260.429	461.157	206.077	168.689	496.377	435.003	403.816	401.229	501.101	177.164	257.858	481.535	413.364	308.920	0.0018121	0.00037925	7.8379e-05	315.63	4.6839e-06	3.1415e-06	623.07	106.11	5.6632e-06	1.8383e-06	295.12	143.41	52.943	21.715	2.4573e-06	79.896	0.0011022	0.0009624	0.00027329	307.49	9.8729e-06	1.0585e-05	602.87	103.48	1.0054e-05	1.0485e-05	287.81	139.82	51.384	21.637	1.0483e-05	78.894	476.089	200.894	310.224	164.520	246.345	287.418	164.215	168.802	254.650	271.497	168.177	171.822	171.290	176.733	214.039	175.088	-8191	255	
22862.475	1	1	0	0	0.11652	0.066212	0.23061	0.17	0.12825	0.1698	0.24776	0.27975	0.13797	0.14034	0.21307	0.087449	0.27077	0.15789	0.093393	0.27238	-2.3667	-2.8187	-2.9729	-2.8021	-2.9708	-2.7583	-2.8417	-3.1188	-2.7083	-3.0563	-3.0396	-2.8167	-2.9188	-2.8729	-2.9437	-3.1042	456.937	289.168	251.172	462.492	374.100	494.827	461.969	419.822	452.011	271.537	501.191	492.492	338.988	484.536	233.796	500.768	0.0018927	0.00045503	7.3027e-05	315.97	5.5177e-06	4.7168e-06	612.4	105.59	6.8716e-06	3.9849e-06	295.39	143.73	52.663	22.073	4.5305e-06	80.105	0.0011003	0.00098703	0.00026994	306.78	1.0254e-05	1.0889e-05	598.67	103.26	1.0256e-05	1.0909e-05	288.28	139.94	51.413	21.763	1.0334e-05	79.141	475.405	213.850	236.150	164.490	291.918	298.452	164.068	169.301	280.138	286.784	168.280	171.607	171.394	176.696	242.550	175.052	-8191	255	
22862.570	1	1	0	0	0.25213	0.090665	0.05074	0.32008	0.29686	0.07588	0.12193	0.21185	0.029562	0.11172	0.28135	0.09796	0.062448	0.12574	0.1244	0.022526	-2.2646	-2.9896	-2.9688	-2.9188	-3.1813	-2.9833	-2.8771	-3.2938	-2.7917	-2.9938	-3.0021	-2.6625	-2.9458	-2.8021	-2.8021	-3.2771	390.125	280.099	340.448	487.976	411.074	409.520	342.212	449.693	160.430	401.930	170.612	307.268	418.235	431.080	192.267	158.546	0.0018223	0.00062738	0.00013398	310.25	5.3177e-06	4.6469e-06	616.69	105.3	5.1111e-06	3.5729e-06	296.01	144.08	52.954	22.101	4.4696e-06	80.379	0.0010966	0.0010075	0.00026813	305.7	9.9824e-06	1.0859e-05	600.41	103.25	1.0062e-05	1.0769e-05	288.92	140.28	51.564	21.777	1.0299e-05	79.285	476.887	238.413	212.943	164.588	282.171	334.898	164.297	169.041	270.709	295.890	168.047	171.695	171.593	176.391	292.446	175.210	-8191	255	
22862.691	1	1	0	0	0.060178	0.18583	0.18063	0.16468	0.095429	0.070596	0.020164	0.19325	0.15188	0.14505	0.31551	0.098506	0.0049154	0.20192	0.1223	0.32249	-2.3438	-2.85	-2.9958	-2.8354	-3.0146	-2.9521	-2.8604	-3.0646	-2.7667	-2.9938	-3.2938	-2.8125	-2.8125	-2.9313	-2.875	-3.0792	309.652	393.813	504.399	321.808	434.293	411.493	298.234	451.322	506.839	283.629	212.850	208.893	177.018	470.568	239.467	172.666	0.0019012	0.00038085	0.00015364	315.72	3.3192e-06	5.6784e-06	623.96	106.19	5.1985e-06	5.9791e-06	296.89	145.28	53	21.977	3.3227e-06	80.875	0.0011006	0.0010004	0.00027563	308.14	1.0283e-05	1.1232e-05	604.32	103.94	1.0394e-05	1.0954e-05	289.91	141.07	51.873	21.871	1.0473e-05	79.586	477.104	218.821	260.728	164.600	295.906	317.913	164.207	168.676	297.188	307.474	168.266	171.862	171.377	176.971	266.897	175.167	-8191	255	
22862.785	1	1	0	0	0.080706	0.18432	0.068129	0.24066	0.20831	0.085641	0.10168	0.15543	0.29527	0.20016	0.15987	0.28042	0.21369	0.22107	0.24594	0.19412	-2.3937	-2.8625	-3.1104	-2.9333	-3.1063	-3.0563	-2.7438	-3.0812	-2.8396	-2.7708	-3.1125	-2.8792	-2.9292	-3.2875	-2.7417	-3.1854	273.924	249.006	371.590	289.414	212.055	204.137	402.233	318.177	431.599	376.545	297.790	462.305	385.029	458.564	504.756	209.943	0.001861	0.00061781	9.623e-05	314.45	1.8606e-06	4.1437e-06	623.74	106.16	4.9154e-06	6.2768e-06	296.32	144.43	52.824	22.088	7.1765e-06	80.04	0.0011146	0.0010144	0.00027589	307.87	1.0169e-05	1.1067e-05	604.57	104.43	1.0099e-05	1.0715e-05	289.81	140.89	51.664	21.806	1.0629e-05	79.159	475.310	225.833	243.793	164.264	221.966	361.606	164.359	168.858	295.976	306.533	168.029	171.518	171.483	176.589	286.523	175.039	-8191	255	
22862.885	1	1	0	0	0.17103	0.14949	0.087391	0.095482	0.40416	0.080596	0.10569	0.11901	0.096464	0.31315	0.22281	0.15217	0.19659	0.14021	0.089406	0.14109	-2.375	-2.8833	-3.0729	-2.7542	-2.8417	-2.9229	-2.8542	-3.0187	-2.9542	-2.8063	-3.1625	-2.9188	-2.7771	-3.1979	-2.6854	-3.1354	222.408	499.410	476.699	336.858	507.459	483.591	449.486	398.337	441.115	409.333	226.956	439.403	254.796	493.963	164.786	154.705	0.0018032	0.00031327	0.00016941	314.34	5.6405e-06	2.1481e-06	618.64	106.28	3.7426e-06	5.5215e-06	296.98	144.41	52.534	22.167	6.2884e-06	80.127	0.0010969	0.00099384	0.00027388	308.17	1.013e-05	1.0778e-05	600.92	103.8	9.9939e-06	1.0563e-05	289.42	140.43	51.689	21.802	1.0862e-05	79.284	475.420	230.612	241.352	164.829	291.553	326.355	164.117	169.208	270.887	274.979	167.807	171.680	171.367	176.453	280.658	174.931	-8191	255	
22862.979	1	1	0	0	0.35493	0.16555	0.12479	0.14032	0.086383	0.080162	0.069982	0.098707	0.20037	0.092835	0.14757	0.20737	0.19212	0.23701	0.084645	0.18817	-2.4292	-2.7313	-3.0625	-2.9333	-2.975	-3.1042	-2.8333	-2.9271	-3.1042	-2.7125	-3.1333	-2.8729	-2.8083	-2.9437	-2.7438	-3.0333	349.217	350.370	421.716	169.303	226.589	457.606	404.512	368.754	306.008	398.306	346.138	432.362	431.607	296.937	404.402	396.153	0.0018295	0.00067582	0.00014376	313.6	7.1373e-06	4.831e-06	619.74	106.34	6.5737e-06	4.0482e-06	296.59	145.17	53.582	22.146	6.0129e-06	80.824	0.0011023	0.00099717	0.00027578	308.32	1.0058e-05	1.0815e-05	603.32	104.02	1.0161e-05	1.1047e-05	290.19	141.19	52.055	21.955	1.0727e-05	79.672	478.028	262.209	221.742	164.058	290.761	322.860	164.386	169.064	279.937	285.903	168.185	172.050	171.387	176.509	286.992	175.245	-8191	255	
22863.074	1	1	0	0	0.25655	0.20667	0.065654	0.17584	0.036374	0.32543	0.19496	0.084721	0.29222	0.15096	0.21435	0.18459	0.1237	0.22812	0.11226	0.18231	-2.4813	-2.8042	-3.0083	-2.8396	-2.7354	-3.0687	-2.7521	-3.0354	-2.8875	-2.6875	-3.1396	-2.9708	-2.7896	-3.0771	-2.8896	-3.1104	334.786	470.867	240.267	484.215	302.444	401.657	494.723	204.070	328.487	176.139	498.427	420.044	424.632	175.280	153.215	473.718	0.0018369	0.00057009	0.00011512	316.03	4.3752e-06	5.6978e-06	621.4	107.38	8.2945e-06	3.1595e-06	298.34	145.3	53.431	22.192	4.2552e-06	80.971	0.0011054	0.00099349	0.0002838	308.91	1.0258e-05	1.0876e-05	604.98	104.66	1.0147e-05	1.1279e-05	291.85	141.41	52.222	21.968	1.0673e-05	79.882	475.486	264.596	220.274	164.481	284.603	313.624	164.220	169.115	232.383	300.621	168.172	171.734	171.127	176.522	297.374	175.094	-8191	255	
22863.172	1	1	0	0	0.17517	0.27749	0.17416	0.14215	0.17819	0.23699	0.11832	0.20243	0.11416	0.072899	0.12988	0.35663	0.080801	0.085081	0.090751	0.1738	-2.3771	-2.7521	-2.8833	-2.9062	-2.8354	-3.1667	-2.825	-2.8688	-2.9896	-2.8937	-3.1063	-2.9021	-2.7021	-3.2438	-2.9292	-3.1479	185.224	182.755	244.654	162.940	185.153	447.956	334.766	373.091	286.273	243.591	262.490	453.292	506.073	388.214	241.050	365.969	0.0017581	0.00031866	0.00016393	314.56	4.5943e-06	6.5278e-06	623.96	107.33	6.1473e-06	2.5187e-06	297.91	144.99	53.179	22.033	6.3053e-06	80.527	0.0010864	0.0010254	0.00027695	309.02	1.0134e-05	1.1068e-05	606.54	104.73	1.023e-05	1.1118e-05	291.31	141.01	52.011	21.846	1.0725e-05	79.299	477.991	253.685	218.243	164.453	289.845	301.580	164.450	168.823	290.179	379.145	168.263	171.336	171.637	176.614	240.758	175.232	-8191	255	
22863.293	1	1	0	0	0.29915	0.14706	0.11478	0.090212	0.48585	0.1603	0.19397	0.34806	0.20074	0.1798	0.21008	0.16077	0.36804	0.052386	0.031858	0.16125	-2.7521	-2.6854	-2.9583	-2.9896	-2.7438	-2.9875	-2.8417	-2.8292	-2.9813	-2.6562	-2.9917	-2.9458	-2.7812	-2.95	-2.8833	-2.9125	312.499	493.713	502.544	421.538	321.299	458.961	431.878	385.396	384.635	278.969	393.596	223.966	268.771	339.319	498.051	408.101	0.0017846	0.00042746	0.00017193	313.7	5.4577e-06	5.9193e-06	617.44	106.55	4.3506e-06	3.3483e-06	297.46	145.17	53.353	22.18	2.354e-06	80.529	0.0010839	0.0010083	0.00027932	308.47	1.0015e-05	1.1024e-05	601.92	104.26	1.0135e-05	1.1023e-05	290.57	141.04	52.052	21.939	1.0553e-05	79.316	475.434	255.551	212.925	164.632	295.307	312.539	164.133	168.790	278.875	290.116	168.117	171.800	171.626	176.893	261.234	175.066	-8191	255	
22863.389	1	1	0	0	0.049	0.18949	0.14675	0.16846	0.1289	0.028191	0.11001	0.16282	0.076986	0.12352	0.2296	0.2257	0.10307	0.087875	0.15973	0.27827	-2.7042	-2.8833	-2.8875	-2.8333	-2.7896	-3.0563	-2.8375	-2.9813	-3.0958	-2.825	-2.9792	-2.9375	-2.7396	-2.9188	-2.8354	-2.8625	223.851	498.022	382.387	488.730	344.923	192.734	260.086	423.616	213.231	475.400	374.625	497.536	360.568	173.943	474.062	231.254	0.0017805	0.00019481	0.00012105	314.89	4.4048e-06	4.0811e-06	617.08	107.91	8.5643e-06	2.3254e-06	297.31	144.31	53.682	22.068	2.7389e-06	80.511	0.0010884	0.0010238	0.00028042	306.91	1.0186e-05	1.0834e-05	601.59	104.9	1.0031e-05	1.1071e-05	290.59	141.05	52.184	21.876	1.0392e-05	79.615	475.692	164.022	235.349	164.215	259.446	302.839	164.352	168.871	302.298	278.081	167.962	171.836	171.757	176.864	307.720	175.129	-8191	255	
22863.484	1	1	0	0	0.25955	0.18093	0.037053	0.25067	0.030609	0.19051	0.049214	0.25185	0.16402	0.13813	0.085131	0.16763	0.10397	0.29124	0.13224	0.26943	-2.3708	-2.8438	-2.825	-2.8979	-2.8292	-2.8625	-2.9458	-2.6792	-3.0896	-2.8875	-3.1063	-3.15	-2.6188	-2.9854	-2.8812	-2.8438	460.832	483.937	409.350	202.763	249.084	398.005	235.507	420.221	469.452	448.015	453.089	266.116	254.816	241.358	350.385	166.079	0.0017695	0.00049432	0.0001307	315.47	6.6271e-06	1.7887e-06	623.58	107.92	7.6007e-06	3.8765e-06	301.69	145.89	53.829	22.572	3.0837e-06	82.485	0.0010822	0.0010046	0.00028097	308.02	1.0371e-05	1.1207e-05	605.42	105.74	1.0273e-05	1.1272e-05	294.05	142.48	52.681	22.286	1.0465e-05	81.038	474.799	241.463	226.685	164.112	299.706	198.052	164.474	169.238	274.923	250.137	168.159	171.830	170.877	176.683	255.555	175.269	-8191	255	
22863.580	1	1	0	0	0.17683	0.26124	0.1112	0.13271	0.22867	0.12669	0.24289	0.17249	0.068423	0.25734	0.18138	0.095038	0.13589	0.16531	0.35764	0.14574	-2.5312	-2.7979	-2.7354	-2.9458	-2.6146	-3.1646	-3.0354	-2.7792	-3.0292	-2.9208	-2.875	-3.2354	-2.7417	-2.7958	-3.1188	-2.9167	436.912	336.983	319.662	407.440	480.396	197.908	167.354	166.103	186.163	276.212	170.590	173.070	355.976	507.354	386.737	183.551	0.0019293	0.00041931	0.00010554	315.41	4.3632e-06	4.2336e-06	623.7	108.55	5.3027e-06	5.0564e-06	303.52	147.99	54.782	22.669	4.7525e-06	82.908	0.0011278	0.0010111	0.00028354	308.58	1.0693e-05	1.1245e-05	607.55	106.32	1.0493e-05	1.115e-05	296.64	144.07	53.115	22.478	1.0971e-05	81.673	474.144	204.793	189.929	164.592	256.792	283.098	164.261	168.807	259.257	291.826	168.110	171.739	171.421	176.795	292.841	174.995	-8191	255	
#DATA ENDS
