BOXY.EXE: ISS Imagent and Oximeter Data Acquisition Program Version 0.80
Ascii Record File

#ACQ INFORMATION
2  Detector Channels 
16  External MUX Channels 
1  Auxiliary Channels 
5000  Waveform (CCF) Frequency (Hz)
1  Waveforms Skipped 
30  Waveforms Averaged 
1  Cycles Averaged 
16  Acquisitions per Waveform 
10.0806  Updata Rate (Hz) 

#FILE INFORMATION
TRUE -- External MUX Channel results are PARSED.
FALSE -- AC DC and Phase are NOT grouped.
TRUE -- Companion Program Settings File CREATED.
FALSE -- AC data not excluded
FALSE -- DC data not excluded
FALSE -- Phase data not excluded
FALSE -- Auxillary Chn. data not excluded
Tab delimiters

#CALIBRATION STATE
TRUE -- Waveform Calibration Values APPLIED.


#AUX CALIBRATION VALUES
Val Type	aux-1	

Term	1.0000e+00	
Factor	0.0000e+00	


#WF CALIBRATION VALUES
A = Detector Channel
Val Type	A-AC1	A-AC2	A-AC3	A-AC4	A-AC5	A-AC6	A-AC7	A-AC8	A-AC9	A-AC10	A-AC11	A-AC12	A-AC13	A-AC14	A-AC15	A-AC16	A-DC1	A-DC2	A-DC3	A-DC4	A-DC5	A-DC6	A-DC7	A-DC8	A-DC9	A-DC10	A-DC11	A-DC12	A-DC13	A-DC14	A-DC15	A-DC16	A-Ph1	A-Ph2	A-Ph3	A-Ph4	A-Ph5	A-Ph6	A-Ph7	A-Ph8	A-Ph9	A-Ph10	A-Ph11	A-Ph12	A-Ph13	A-Ph14	A-Ph15	A-Ph16	

Term	0.00000e+00	0.00000e+00	0.00000e+00	0.00000e+00	0.00000e+00	0.00000e+00	0.00000e+00	0.00000e+00	0.00000e+00	0.00000e+00	0.00000e+00	0.00000e+00	0.00000e+00	0.00000e+00	0.00000e+00	0.00000e+00	0.00000e+00	0.00000e+00	0.00000e+00	0.00000e+00	0.00000e+00	0.00000e+00	0.00000e+00	0.00000e+00	0.00000e+00	0.00000e+00	0.00000e+00	0.00000e+00	0.00000e+00	0.00000e+00	0.00000e+00	0.00000e+00	0.00000e+00	0.00000e+00	0.00000e+00	0.00000e+00	0.00000e+00	0.00000e+00	0.00000e+00	0.00000e+00	0.00000e+00	0.00000e+00	0.00000e+00	0.00000e+00	0.00000e+00	0.00000e+00	0.00000e+00	0.00000e+00	
Factor	1.00000e+00	1.00000e+00	1.00000e+00	1.00000e+00	1.00000e+00	1.00000e+00	1.00000e+00	1.00000e+00	1.00000e+00	1.00000e+00	1.00000e+00	1.00000e+00	1.00000e+00	1.00000e+00	1.00000e+00	1.00000e+00	1.00000e+00	1.00000e+00	1.00000e+00	1.00000e+00	1.00000e+00	1.00000e+00	1.00000e+00	1.00000e+00	1.00000e+00	1.00000e+00	1.00000e+00	1.00000e+00	1.00000e+00	1.00000e+00	1.00000e+00	1.00000e+00	X	X	X	X	X	X	X	X	X	X	X	X	X	X	X	X	

B = Detector Channel
Val Type	B-AC1	B-AC2	B-AC3	B-AC4	B-AC5	B-AC6	B-AC7	B-AC8	B-AC9	B-AC10	B-AC11	B-AC12	B-AC13	B-AC14	B-AC15	B-AC16	B-DC1	B-DC2	B-DC3	B-DC4	B-DC5	B-DC6	B-DC7	B-DC8	B-DC9	B-DC10	B-DC11	B-DC12	B-DC13	B-DC14	B-DC15	B-DC16	B-Ph1	B-Ph2	B-Ph3	B-Ph4	B-Ph5	B-Ph6	B-Ph7	B-Ph8	B-Ph9	B-Ph10	B-Ph11	B-Ph12	B-Ph13	B-Ph14	B-Ph15	B-Ph16	

Term	0.00000e+00	0.00000e+00	0.00000e+00	0.00000e+00	0.00000e+00	0.00000e+00	0.00000e+00	0.00000e+00	0.00000e+00	0.00000e+00	0.00000e+00	0.00000e+00	0.00000e+00	0.00000e+00	0.00000e+00	0.00000e+00	0.00000e+00	0.00000e+00	0.00000e+00	0.00000e+00	0.00000e+00	0.00000e+00	0.00000e+00	0.00000e+00	0.00000e+00	0.00000e+00	0.00000e+00	0.00000e+00	0.00000e+00	0.00000e+00	0.00000e+00	0.00000e+00	-9.50698e+01	-1.34209e+02	-1.30506e+02	-1.80748e+02	-5.50128e+01	-6.60304e+01	-1.57031e+02	-1.62015e+02	-5.45825e+01	-5.31485e+01	-1.71629e+02	-1.71410e+02	-1.83807e+02	-1.76817e+02	-5.88180e+01	-1.49577e+02	
Factor	1.70242e-05	1.65196e-04	5.02263e-05	1.72618e-01	1.54288e-06	1.59518e-06	1.73682e-01	5.09113e-02	1.15026e-06	1.72375e-06	8.36987e-02	3.22256e-02	4.11735e-02	9.43077e-03	1.40902e-06	1.35806e-02	3.22070e-06	3.66523e-06	1.02384e-06	8.63279e-02	3.97030e-08	4.03732e-08	8.18899e-02	2.56352e-02	3.97281e-08	4.04783e-08	4.06540e-02	1.57543e-02	2.06171e-02	4.74922e-03	4.00296e-08	6.62632e-03	X	X	X	X	X	X	X	X	X	X	X	X	X	X	X	X	



#DISTANCE SETTINGS
A = Detector Channel
A-1	A-2	A-3	A-4	A-5	A-6	A-7	A-8	A-9	A-10	A-11	A-12	A-13	A-14	A-15	A-16	

2.5000e+00	3.0000e+00	2.5000e+00	3.0000e+00	2.0000e+00	3.0000e+00	1.5000e+00	3.0000e+00	3.0000e+00	3.0000e+00	3.0000e+00	3.0000e+00	3.0000e+00	3.0000e+00	1.5000e+00	3.0000e+00	

B = Detector Channel
B-1	B-2	B-3	B-4	B-5	B-6	B-7	B-8	B-9	B-10	B-11	B-12	B-13	B-14	B-15	B-16	

1.0000e+01	1.0000e+01	1.0000e+01	1.4400e+00	1.0000e+01	1.0000e+01	1.5100e+00	1.9400e+00	1.0000e+01	1.0000e+01	1.9900e+00	2.4900e+00	2.4100e+00	2.9000e+00	1.0000e+01	2.9800e+00	




#DATA BEGINS
time	group	step	mark	flag	A-AC1	A-AC2	A-AC3	A-AC4	A-AC5	A-AC6	A-AC7	A-AC8	A-AC9	A-AC10	A-AC11	A-AC12	A-AC13	A-AC14	A-AC15	A-AC16	A-DC1	A-DC2	A-DC3	A-DC4	A-DC5	A-DC6	A-DC7	A-DC8	A-DC9	A-DC10	A-DC11	A-DC12	A-DC13	A-DC14	A-DC15	A-DC16	A-Ph1	A-Ph2	A-Ph3	A-Ph4	A-Ph5	A-Ph6	A-Ph7	A-Ph8	A-Ph9	A-Ph10	A-Ph11	A-Ph12	A-Ph13	A-Ph14	A-Ph15	A-Ph16	B-AC1	B-AC2	B-AC3	B-AC4	B-AC5	B-AC6	B-AC7	B-AC8	B-AC9	B-AC10	B-AC11	B-AC12	B-AC13	B-AC14	B-AC15	B-AC16	B-DC1	B-DC2	B-DC3	B-DC4	B-DC5	B-DC6	B-DC7	B-DC8	B-DC9	B-DC10	B-DC11	B-DC12	B-DC13	B-DC14	B-DC15	B-DC16	B-Ph1	B-Ph2	B-Ph3	B-Ph4	B-Ph5	B-Ph6	B-Ph7	B-Ph8	B-Ph9	B-Ph10	B-Ph11	B-Ph12	B-Ph13	B-Ph14	B-Ph15	B-Ph16	aux-1	digaux	

2446.712	1	1	0	256	0.35918	0.35684	0.39037	0.25885	0.19385	0.097303	0.21638	0.12233	0.054923	0.17824	0.29406	0.11297	0.046372	0.16899	0.38168	0.15068	-2.0729	-2.8688	-2.6208	-2.7479	-2.8458	-2.8937	-2.7833	-3.0563	-2.6417	-2.8667	-2.8771	-2.7313	-2.7354	-2.7	-2.5083	-3.0354	32.488	357.787	248.251	50.584	352.253	357.217	330.830	344.748	104.561	144.971	34.414	263.745	243.617	120.120	301.408	382.573	0.0001861	0.00011548	0.00013158	1149.3	8.9126e-07	4.7329e-06	1237.3	250.23	3.3409e-06	2.1468e-06	313.45	87.677	68.849	19.98	1.6505e-06	28.348	0.00018094	0.00017203	4.7069e-05	1121.8	2.0034e-06	1.9818e-06	1204.4	246.61	2.1087e-06	2.0198e-06	308.17	87.595	68.347	20.083	2.0679e-06	28.458	187.682	76.374	126.119	38.517	318.846	169.191	38.775	45.748	189.335	172.677	45.319	52.208	52.292	58.985	241.011	58.880	-8191	255	
2446.808	1	1	0	0	0.091455	0.47686	0.2188	0.19572	0.1877	0.22815	0.22737	0.13267	0.087412	0.13874	0.32711	0.16956	0.2569	0.092414	0.16921	0.20978	-2.2188	-2.8396	-2.7167	-2.7521	-2.8438	-2.9229	-2.7333	-3.0187	-2.5708	-2.6396	-2.9125	-2.4854	-2.8729	-2.8771	-2.4833	-2.8792	227.548	323.312	132.565	323.712	131.114	30.472	357.265	290.161	192.219	146.897	344.732	107.884	33.737	88.266	356.990	310.237	0.00020777	0.00028759	7.8191e-05	1167.3	3.9554e-06	4.2345e-06	1247.7	252.92	3.9965e-06	3.9401e-06	315.45	88.856	69.043	20.241	2.8104e-06	28.711	0.00019067	0.0001807	5.116e-05	1137.3	2.0181e-06	1.9718e-06	1219.8	248.79	2.0248e-06	1.9065e-06	310.53	88.357	68.565	20.228	1.8864e-06	28.581	179.042	79.957	132.004	38.618	190.403	167.455	38.851	45.860	162.981	207.849	45.177	51.898	52.939	58.724	179.789	58.460	-8191	255	
2446.905	1	1	0	0	0.22147	0.087784	0.26185	0.27699	0.17478	0.15365	0.19476	0.36968	0.33994	0.056184	0.25534	0.07522	0.38261	0.12737	0.31505	0.087591	-2.3083	-2.7146	-2.7438	-2.7542	-2.8896	-2.8271	-2.6479	-2.8937	-2.7562	-2.6625	-2.8667	-2.5687	-2.8771	-2.8417	-2.7229	-2.9354	37.333	302.526	223.279	343.763	235.216	243.615	355.455	344.697	121.705	349.699	371.763	386.865	41.343	130.523	382.733	97.419	0.00018126	0.00040623	0.00016287	1171.5	3.5346e-06	3.0931e-06	1249.1	252.19	1.2478e-06	1.7028e-06	318.67	88.875	69.844	20.194	2.9683e-06	28.409	0.0001726	0.0001672	4.5501e-05	1144.6	1.8588e-06	1.7324e-06	1222.4	248.1	1.8301e-06	1.7805e-06	311.14	88.074	68.597	20.232	1.7918e-06	28.456	193.482	127.995	110.929	38.731	198.817	172.424	38.840	45.853	216.670	156.911	45.176	52.589	52.721	58.653	207.294	58.769	-8191	255	
2447.001	1	1	0	0	0.17778	0.16502	0.09364	0.27149	0.18231	0.30198	0.18864	0.11884	0.32885	0.039545	0.18895	0.17397	0.047697	0.14002	0.17493	0.19103	-2.2292	-2.6	-2.9604	-2.6521	-2.6375	-2.9417	-2.7167	-2.9021	-2.6854	-2.6688	-2.9	-2.4979	-2.6792	-3.0479	-2.4458	-2.8042	171.446	211.698	86.839	358.639	65.310	335.042	316.865	312.606	116.254	213.814	361.913	176.156	372.990	39.183	366.957	28.464	0.00019521	0.00020616	5.9805e-05	1171.2	4.3994e-06	1.0212e-06	1249.8	251.74	9.7227e-07	3.1723e-06	315.78	88.857	69.166	20.321	3.4512e-06	28.571	0.00017188	0.00016596	4.6704e-05	1141.8	1.8445e-06	1.8455e-06	1220.6	248.48	1.9146e-06	1.8306e-06	309.85	88.071	68.534	20.206	1.8334e-06	28.517	177.901	125.667	121.724	38.486	195.440	135.026	38.657	45.699	203.814	192.722	45.185	52.122	52.509	58.721	193.366	58.711	-8191	255	
2447.097	1	1	0	0	0.22637	0.19814	0.19603	0.34015	0.30408	0.24677	0.10219	0.058053	0.10058	0.13812	0.16772	0.10139	0.15068	0.20869	0.093317	0.082721	-2.3271	-2.5958	-3.0312	-2.6604	-2.4146	-2.8417	-2.8458	-3.0687	-2.8063	-2.675	-2.9604	-3	-2.7208	-2.8917	-2.6125	-2.9562	207.883	319.901	164.562	31.798	136.330	99.159	105.126	130.347	93.381	159.374	54.466	243.316	72.219	50.397	166.743	77.428	0.00019494	0.0003402	7.1933e-05	1167.7	4.2292e-06	3.9372e-06	1240.4	251.06	3.2141e-06	1.4949e-06	313.67	87.669	68.525	20.034	3.6469e-06	28.338	0.00017409	0.00015902	4.3509e-05	1135.6	1.7579e-06	1.7288e-06	1211.8	247.16	1.7332e-06	1.6897e-06	308.16	87.328	67.984	20.017	1.6847e-06	28.205	187.405	94.131	124.254	38.666	203.371	197.408	38.822	45.706	243.571	192.464	45.076	52.286	52.973	59.133	194.823	58.612	-8191	255	
2447.193	1	1	0	0	0.15528	0.099257	0.21321	0.2487	0.12544	0.11193	0.11824	0.42396	0.18656	0.17671	0.32775	0.22206	0.20264	0.053376	0.049755	0.23688	-2.4	-2.6312	-2.8292	-2.8625	-2.6437	-2.9771	-2.9646	-2.9646	-3	-2.725	-2.9229	-2.7917	-2.5208	-2.9625	-2.5521	-2.7687	103.908	177.989	304.513	320.290	194.561	106.187	377.683	385.287	55.995	192.032	268.310	116.898	375.154	133.593	248.813	386.941	0.00019936	0.00036506	8.9748e-05	1148.8	3.6748e-06	4.1622e-06	1222.5	248.74	9.4273e-07	2.999e-06	311.46	86.948	67.37	19.943	4.7396e-06	28.159	0.00016188	0.00015194	4.177e-05	1119.9	1.7166e-06	1.6417e-06	1195.6	244.7	1.7016e-06	1.677e-06	305.14	86.69	67.273	19.879	1.7876e-06	28.014	183.938	111.817	133.853	38.699	188.859	203.214	38.862	45.563	210.095	203.869	45.502	52.744	52.699	58.852	178.868	58.517	-8191	255	
2447.312	1	1	0	0	0.040287	0.15306	0.093524	0.29469	0.21278	0.24892	0.1435	0.041746	0.17404	0.19267	0.11221	0.22631	0.13904	0.13671	0.28421	0.22299	-2.4562	-2.5583	-2.7229	-2.85	-2.6562	-2.8854	-2.7042	-2.7938	-2.9083	-2.6521	-3.0479	-2.8896	-2.7062	-2.8958	-2.6458	-2.7438	50.190	197.869	111.172	332.928	338.132	297.632	276.449	371.502	158.876	362.834	88.096	75.993	117.526	365.870	273.093	183.078	0.00016011	0.00041241	5.1018e-05	1139.6	4.9583e-06	2.6513e-06	1224.9	249.66	3.4824e-06	4.7165e-06	312.9	87.076	68.992	20.03	3.1794e-06	28.249	0.00017628	0.00016849	4.7736e-05	1111.2	2.0255e-06	2.0222e-06	1195	245.77	2.1672e-06	2.1201e-06	306.94	87.228	68.083	20.053	2.092e-06	28.342	180.925	112.234	162.316	38.654	231.647	154.155	38.879	45.621	219.524	225.209	45.420	52.599	52.717	59.168	180.860	58.329	-8191	255	
2447.408	1	1	0	0	0.27733	0.25112	0.17014	0.13623	0.26323	0.098676	0.24131	0.22594	0.28376	0.27159	0.068268	0.14438	0.18053	0.16527	0.20304	0.18233	-2.5292	-2.7167	-2.8292	-2.9708	-2.5917	-2.9688	-2.8375	-2.6521	-3.0708	-2.6	-2.9083	-2.9292	-2.45	-2.9854	-2.7292	-2.8146	271.064	68.914	57.929	132.987	105.330	364.650	386.714	378.212	370.380	246.064	74.665	349.187	291.642	261.530	387.377	180.737	0.0002009	0.00044904	6.603e-05	1165.9	3.8026e-06	5.2723e-06	1245.8	250.97	1.2755e-06	2.8528e-06	315.7	87.838	68.94	20.049	1.805e-06	28.341	0.00019474	0.00018829	5.254e-05	1137.2	2.0593e-06	1.9699e-06	1215.3	248.16	2.1318e-06	2.1206e-06	309.84	87.83	68.564	20.135	2.3929e-06	28.441	190.893	113.957	63.226	38.703	200.176	181.355	38.815	45.707	212.453	228.084	44.982	52.314	52.378	59.063	238.764	58.579	-8191	255	
2447.504	1	1	0	0	0.018229	0.13683	0.13152	0.22431	0.33433	0.038409	0.36303	0.14844	0.21556	0.1641	0.018923	0.18996	0.22288	0.332	0.33344	0.35437	-2.4729	-2.7396	-2.6937	-3.0187	-2.6063	-2.7042	-2.7917	-2.6083	-3.0438	-2.7021	-2.9792	-2.9125	-2.7417	-2.9	-2.6729	-2.5917	292.915	265.279	200.486	340.347	278.959	120.858	299.445	52.763	239.047	71.568	323.057	363.998	372.106	304.050	348.499	282.752	0.00017548	0.00048743	5.185e-05	1177.1	4.7249e-06	2.0905e-06	1263.5	255.49	1.4846e-06	5.3981e-06	319.75	88.872	70.436	20.53	5.0523e-06	28.815	0.0002302	0.00023134	6.5376e-05	1150.1	2.7316e-06	2.6485e-06	1232.2	252.25	2.7429e-06	2.6438e-06	314.97	89.221	69.843	20.494	2.5609e-06	28.88	186.615	85.191	132.778	38.482	213.239	166.230	38.658	45.539	172.910	164.239	45.150	52.039	52.791	58.609	162.949	58.328	-8191	255	
2447.576	1	1	0	0	0.27747	0.23074	0.34384	0.27354	0.25894	0.1595	0.23362	0.24551	0.31364	0.27253	0.27216	0.14554	0.17424	0.209	0.14109	0.20036	-2.5521	-2.6958	-2.6792	-2.8625	-2.7146	-2.9604	-2.6875	-2.5479	-2.975	-2.675	-2.7958	-2.9354	-2.4979	-2.7708	-2.9646	-2.7354	200.606	314.664	168.892	309.847	120.767	330.334	254.016	335.405	199.925	150.113	253.157	311.550	336.119	33.449	359.502	141.532	0.00019681	0.00039736	6.1383e-05	1200.5	2.1904e-06	3.5178e-06	1278.9	258.24	2.8127e-06	5.7224e-06	320.76	89.441	70.021	20.358	3e-06	28.779	0.00022319	0.00021917	6.1292e-05	1168.7	2.3293e-06	2.2633e-06	1248.4	253.67	2.2223e-06	2.1955e-06	315.35	89.126	69.573	20.378	2.3102e-06	28.764	170.608	88.214	130.421	38.415	198.064	174.841	38.683	45.596	216.353	200.140	45.014	52.308	52.617	58.740	225.369	58.332	-8191	255	
2447.697	1	1	0	0	0.12173	0.19262	0.16026	0.14797	0.19228	0.15113	0.2635	0.086332	0.18517	0.25059	0.069294	0.13906	0.52282	0.28789	0.30408	0.079241	-2.4688	-2.625	-2.7625	-3.1708	-2.5208	-2.9625	-3.0042	-2.5083	-2.8438	-2.7521	-2.6063	-2.9	-2.7125	-2.7646	-2.8917	-2.6333	200.665	226.092	155.294	307.742	260.764	184.315	265.871	221.922	225.337	299.238	332.798	356.514	382.442	37.046	308.979	72.792	0.00017602	0.00020009	0.00011678	1190.5	5.255e-06	4.3737e-06	1270.9	256.67	1.7412e-06	2.4159e-06	322.2	89.578	70.076	20.444	2.3261e-06	28.832	0.00021403	0.0002181	5.9941e-05	1159.9	2.4786e-06	2.5049e-06	1240.8	252.93	2.5197e-06	2.5808e-06	316.2	89.396	69.819	20.518	2.4866e-06	28.818	179.617	151.759	145.436	38.507	184.295	183.940	38.834	45.636	244.061	111.550	45.082	52.404	52.647	58.876	181.776	58.402	-8191	255	
2447.793	1	1	0	0	0.32184	0.15595	0.15093	0.085589	0.10011	0.14891	0.26535	0.19293	0.12698	0.13786	0.30393	0.06199	0.17592	0.057686	0.20996	0.070231	-2.4792	-2.6708	-2.725	-3.1667	-2.7125	-2.7729	-3.0083	-2.5958	-2.9896	-2.8146	-2.7375	-2.9896	-2.7271	-2.8021	-2.9562	-2.7896	139.580	99.675	305.922	349.852	129.684	53.588	353.434	33.637	46.727	271.705	346.840	108.141	35.712	104.865	315.031	92.930	0.00013434	0.00028252	0.0001182	1198.2	2.9842e-06	4.0481e-06	1273.9	255.81	1.5323e-06	3.6129e-06	321.44	89.57	70.203	20.489	2.3187e-06	28.707	0.00021671	0.00021438	5.9811e-05	1165.7	2.3349e-06	2.2849e-06	1243.9	253.12	2.2943e-06	2.2278e-06	315.77	89.241	69.871	20.416	2.2288e-06	28.783	184.693	79.242	150.145	38.410	215.013	181.497	38.670	45.847	159.182	169.546	45.230	52.343	52.502	58.800	199.204	58.169	-8191	255	
2447.889	1	1	0	0	0.10021	0.088478	0.057252	0.15465	0.22319	0.19277	0.099887	0.12072	0.014792	0.13314	0.15234	0.11429	0.25188	0.11046	0.10697	0.045189	-2.3187	-2.8479	-2.5833	-3.1708	-2.7792	-2.6958	-2.9458	-2.6708	-2.7479	-2.8667	-2.6917	-2.9729	-2.6104	-2.6625	-2.8333	-2.65	192.599	87.204	126.116	313.624	216.899	332.335	299.137	268.037	102.864	267.544	310.392	180.936	62.445	366.884	123.658	325.526	0.00019708	5.9053e-05	2.9268e-05	1193	1.3118e-06	2.867e-06	1268.4	256.72	1.3319e-06	2.5288e-06	320.88	89.491	70.04	20.417	1.6779e-06	28.636	0.00020343	0.00020042	5.6962e-05	1161.4	2.3127e-06	2.2534e-06	1239	252.89	2.2582e-06	2.2309e-06	314.77	89.217	69.674	20.435	2.2546e-06	28.724	180.659	138.767	384.482	38.680	89.871	172.769	38.755	45.649	216.081	202.466	45.519	52.146	52.716	58.864	157.138	58.503	-8191	255	
2447.985	1	1	0	0	0.050705	0.14962	0.046635	0.38507	0.27069	0.24583	0.23832	0.16007	0.26287	0.055123	0.17751	0.14656	0.216	0.2103	0.035103	0.28693	-2.3333	-2.8292	-2.5583	-2.8979	-2.6833	-2.7479	-3.1271	-2.6292	-2.7167	-2.8312	-2.8083	-2.8896	-2.6542	-2.7792	-2.9708	-2.7917	228.610	154.456	307.640	308.047	158.776	106.350	31.531	83.235	158.791	242.942	301.993	296.699	261.728	148.418	188.636	375.262	0.00019503	0.00040581	6.2703e-05	1197.4	3.3373e-06	4.9986e-06	1275.3	258.35	3.4076e-06	2.9177e-06	322.55	89.763	70.545	20.559	2.6054e-06	28.674	0.00020593	0.00019656	5.601e-05	1166.7	2.1998e-06	2.1155e-06	1246.3	253.87	2.2052e-06	2.1488e-06	316.26	89.581	70.075	20.575	2.3123e-06	28.892	182.366	72.927	143.496	38.505	213.575	189.888	38.646	45.528	190.761	225.773	45.169	52.115	52.079	58.794	195.360	58.371	-8191	255	
2448.104	1	1	0	0	0.15348	0.21946	0.27362	0.12068	0.19068	0.080018	0.3684	0.22558	0.32365	0.26506	0.10494	0.22428	0.19243	0.088726	0.26319	0.11953	-2.3667	-2.7104	-2.5979	-2.9188	-2.6792	-2.625	-3.0667	-2.5708	-2.7583	-2.8104	-2.8146	-2.8167	-2.9208	-2.7208	-3.1917	-2.8854	338.534	133.210	177.303	303.809	100.197	72.228	301.421	292.220	337.318	83.245	124.184	233.693	372.214	154.844	254.143	90.367	0.00020845	0.00034531	0.00010524	1211.9	2.1845e-06	1.9791e-06	1296.3	260.35	3.2338e-06	2.3172e-06	326.11	90.019	70.684	20.52	2.884e-06	28.989	0.00022097	0.00022046	6.3107e-05	1182	2.6065e-06	2.5773e-06	1264.8	256.45	2.6283e-06	2.571e-06	319.44	90.359	70.781	20.697	2.567e-06	29.092	186.698	71.339	130.792	38.447	195.326	153.927	38.846	45.705	200.164	201.272	45.174	52.025	52.756	59.021	185.608	58.622	-8191	255	
2448.177	1	1	0	0	0.15985	0.098708	0.10976	0.29095	0.20437	0.14786	0.33006	0.12947	0.13455	0.014663	0.23898	0.19308	0.12689	0.13017	0.048487	0.15656	-2.1708	-3.0708	-2.7271	-3.0812	-2.8167	-2.7792	-3.1021	-3.0812	-2.6312	-3.0021	-2.7854	-2.8854	-3.0125	-2.7062	-2.9771	-2.9521	48.686	212.845	137.547	31.183	366.124	155.909	28.329	383.870	202.449	343.481	318.026	66.887	352.675	201.726	243.762	248.850	0.00021924	0.0005483	7.867e-05	1215.6	4.6323e-06	2.9386e-06	1288.9	260.91	2.0857e-06	3.6785e-06	323.07	90.462	71.011	20.544	2.0478e-06	28.999	0.00023512	0.00022785	6.3713e-05	1185.9	2.5083e-06	2.3834e-06	1263.3	256.61	2.394e-06	2.3297e-06	317.83	89.783	70.267	20.564	2.2466e-06	28.914	182.203	152.804	73.687	38.453	186.131	146.729	38.725	45.691	236.572	167.227	45.290	52.662	52.444	58.730	186.136	58.722	-8191	255	
2448.273	1	1	0	0	0.32385	0.11644	0.30311	0.13587	0.072622	0.15515	0.31839	0.26795	0.16866	0.089988	0.095313	0.026053	0.13937	0.07161	0.045499	0.11651	-2.1167	-2.9604	-2.5896	-2.8583	-2.8146	-2.7396	-3.1125	-2.8729	-2.6458	-2.9083	-2.7271	-2.8729	-2.9833	-2.4604	-2.875	-2.8042	55.524	385.900	98.744	292.366	216.349	94.079	46.168	105.841	49.562	215.118	71.926	75.408	313.063	291.014	111.848	31.514	0.00019633	0.00013628	0.00013786	1207.6	2.556e-06	1.5427e-06	1289.8	258.34	2.646e-06	4.0436e-06	324.11	89.764	71.184	20.52	2.3897e-06	28.879	0.00021292	0.00021254	5.9803e-05	1178.8	2.5116e-06	2.4527e-06	1259.3	255.41	2.6003e-06	2.5244e-06	318.51	89.883	70.502	20.59	2.5727e-06	28.951	182.407	146.431	96.830	38.670	219.767	104.976	38.679	45.846	162.327	197.075	45.270	52.288	52.288	58.718	182.456	58.784	-8191	255	
2448.392	1	1	0	0	0.19063	0.13705	0.18997	0.081201	0.042802	0.11726	0.021945	0.12113	0.087582	0.065868	0.053844	0.051766	0.014664	0.22332	0.2774	0.23009	-2.1771	-2.8563	-2.6854	-2.8854	-3.1042	-2.5583	-3.1083	-2.8542	-2.6021	-3.075	-2.8	-2.6125	-2.8833	-2.8333	-2.85	-2.6646	245.147	94.818	67.856	209.978	109.171	31.850	379.303	34.973	383.036	167.462	332.078	308.463	375.667	264.723	327.803	348.998	0.0001776	0.00026966	6.215e-05	1207.1	3.7278e-06	3.5452e-06	1295.6	261.76	3.7567e-06	6.349e-06	325.06	90.256	71.904	20.745	2.6279e-06	29.237	0.00023513	0.00023433	6.6016e-05	1180	2.661e-06	2.601e-06	1265.2	257.66	2.7311e-06	2.7233e-06	320.37	90.496	71.337	20.845	2.8805e-06	29.371	187.785	64.203	155.576	38.571	178.301	94.106	38.455	45.689	209.554	189.952	45.137	52.262	52.356	58.585	161.078	58.429	-8191	255	
2448.488	1	1	0	0	0.28183	0.010579	0.15253	0.3814	0.1022	0.2387	0.086884	0.30071	0.073256	0.22112	0.0816	0.18086	0.073501	0.11338	0.23127	0.082539	-2.15	-2.9688	-2.6542	-2.7625	-2.9688	-2.5708	-3.0417	-2.9875	-2.6354	-2.9437	-2.8812	-2.9188	-2.9	-2.8458	-2.7188	-2.8708	155.691	188.835	277.174	35.598	40.706	310.141	280.394	371.683	121.913	291.051	364.369	210.437	336.081	178.336	163.012	43.374	0.00019788	0.00026648	0.00011518	1238.6	2.2359e-06	7.1578e-06	1314.3	264.98	2.81e-06	1.0635e-06	329.75	91.973	71.938	21.003	4.9214e-06	29.187	0.00026152	0.00026611	7.5909e-05	1208	2.9919e-06	3.0774e-06	1286.4	261.55	2.9822e-06	2.9257e-06	324.4	91.412	71.925	20.967	2.7033e-06	29.252	187.194	74.485	123.310	38.228	196.290	174.668	38.722	45.708	217.396	176.267	45.112	52.321	52.751	58.515	200.257	58.162	-8191	255	
2448.585	1	1	0	0	0.2118	0.23626	0.06707	0.19068	0.12471	0.36826	0.26972	0.19918	0.16479	0.089603	0.06981	0.1924	0.14869	0.041144	0.17311	0.24625	-2.1875	-2.8063	-2.6729	-2.8292	-3.025	-2.7271	-2.9979	-2.9437	-2.6146	-2.8083	-2.8708	-2.6521	-2.9938	-2.5333	-2.8479	-2.8458	167.344	213.191	223.457	293.522	73.641	33.058	385.505	300.529	173.015	276.485	66.758	328.420	241.656	247.996	77.361	322.197	0.0001709	0.00039	7.8029e-05	1221.2	2.7064e-06	3.2373e-06	1299.5	261.47	3.4786e-06	3.1006e-06	325.71	89.971	70.804	20.613	5.1981e-06	29.021	0.00023857	0.00023941	6.6594e-05	1191.9	2.5343e-06	2.5011e-06	1268.5	257.8	2.4338e-06	2.395e-06	320.13	90.089	70.671	20.614	2.2934e-06	28.969	183.709	94.572	86.377	38.633	183.960	213.510	38.716	45.376	195.661	168.456	45.187	52.330	52.517	58.808	204.244	58.258	-8191	255	
2448.705	1	1	0	0	0.10522	0.13658	0.20143	0.23113	0.10383	0.15523	0.33025	0.18615	0.37393	0.083709	0.26924	0.22787	0.22558	0.069614	0.15694	0.31522	-2.3354	-2.9042	-2.7687	-2.7354	-2.95	-2.8771	-2.7542	-3.1188	-2.6188	-2.9562	-2.9167	-2.75	-2.9813	-2.8625	-2.6583	-2.9938	385.985	149.113	150.819	354.807	386.023	197.692	300.123	57.502	227.611	354.816	375.236	60.249	377.051	366.292	326.820	327.540	0.00019763	0.0002949	0.00012301	1206.3	4.8529e-06	5.3385e-06	1279.6	259.32	3.3124e-06	3.7899e-06	324.78	90.469	70.173	20.492	2.5154e-06	28.809	0.00020982	0.00020988	5.6616e-05	1174.9	2.3375e-06	2.2578e-06	1253.1	255.74	2.3203e-06	2.2959e-06	318.41	89.91	70.266	20.514	2.2679e-06	28.859	184.063	130.027	121.031	38.712	209.660	152.800	38.840	45.631	210.634	189.091	45.372	52.565	52.441	58.642	164.314	58.637	-8191	255	
2448.801	1	1	0	0	0.14162	0.020894	0.13554	0.16761	0.20181	0.076792	0.28916	0.23192	0.080535	0.16851	0.078165	0.013024	0.15921	0.24871	0.086179	0.070672	-2.1896	-2.775	-2.9083	-2.6875	-3.0104	-2.6583	-2.8396	-3.1104	-2.7333	-2.7938	-2.9292	-2.7021	-2.8521	-2.8833	-2.6104	-2.9979	334.519	261.730	155.230	355.589	339.401	346.996	348.692	27.900	142.371	42.931	151.004	198.227	332.162	30.914	57.661	221.382	0.00018634	0.00026103	8.1177e-05	1192.9	4.8476e-06	2.6576e-06	1265.6	258.67	2.8097e-06	4.1269e-06	321.82	89.074	70.405	20.361	3.8569e-06	28.388	0.00020908	0.00020371	5.7139e-05	1164.4	2.3072e-06	2.24e-06	1241	255.04	2.2897e-06	2.1699e-06	316.89	89.096	69.632	20.351	2.1017e-06	28.548	191.748	104.097	87.684	38.456	186.509	153.549	38.841	45.721	207.112	223.492	45.203	52.452	52.618	59.286	171.820	58.551	-8191	255	
2448.873	1	1	0	0	0.15404	0.31238	0.12147	0.55768	0.071805	0.14911	0.035853	0.30643	0.28025	0.30012	0.07482	0.10038	0.050612	0.1709	0.13026	0.074755	-2.3042	-2.7062	-2.8167	-2.6708	-2.9562	-2.8187	-2.6958	-3.0854	-2.6646	-2.8771	-3.0667	-2.4583	-2.9417	-2.8958	-2.6083	-2.9521	310.897	188.780	349.540	292.743	62.381	213.044	50.324	340.121	57.668	296.328	277.203	62.989	197.075	331.478	220.401	365.234	0.00016636	0.00033724	1.7708e-05	1163	4.127e-06	2.9368e-06	1244.9	253.72	2.5035e-06	4.3616e-06	316.89	88.636	69.197	20.236	1.3744e-06	28.465	0.00018715	0.00017721	4.9705e-05	1136.3	1.933e-06	1.8372e-06	1216.5	249.66	1.8669e-06	1.8459e-06	311.32	88.088	68.691	20.151	1.954e-06	28.536	193.039	130.251	38.096	38.616	213.533	204.422	38.746	45.897	190.688	208.213	45.231	52.365	52.522	58.761	166.033	58.749	-8191	255	
2448.994	1	1	0	0	0.26956	0.16092	0.15828	0.3053	0.20366	0.058104	0.41978	0.1239	0.083387	0.15408	0.13322	0.18485	0.23777	0.2116	0.11411	0.1254	-2.2583	-2.8417	-2.9062	-2.6708	-2.9292	-2.8854	-2.7562	-3.0812	-2.8417	-2.8438	-3.0187	-2.575	-3.0021	-2.8042	-2.6146	-2.875	158.428	264.309	208.760	334.393	229.770	103.815	279.455	250.119	99.051	267.974	350.215	191.419	48.983	80.619	295.845	133.689	0.00020032	0.00029253	8.5124e-05	1186.8	5.1801e-06	2.1197e-06	1269.2	256.78	3.2145e-06	7.5945e-07	321.11	89.785	69.882	20.395	2.0383e-06	28.69	0.00019415	0.00018649	5.3365e-05	1156.2	2.2429e-06	2.1806e-06	1240.9	253.1	2.3062e-06	2.3159e-06	316.13	89.397	69.996	20.494	2.4245e-06	28.825	183.498	96.411	116.136	38.398	171.525	171.204	38.769	45.559	201.844	126.448	45.152	52.149	52.361	58.652	216.277	58.683	-8191	255	
2449.090	1	1	0	0	0.20384	0.24844	0.064597	0.31345	0.14862	0.27664	0.17135	0.24256	0.16647	0.051858	0.098081	0.27651	0.2822	0.33906	0.22386	0.13137	-2.4021	-2.7583	-2.6813	-2.9375	-2.7958	-2.7583	-2.9958	-3.0354	-2.6688	-2.6146	-3.0042	-2.8104	-2.8771	-2.8521	-2.5167	-2.8208	57.087	295.020	278.005	371.370	371.439	351.636	338.539	328.024	107.498	318.869	292.129	374.475	263.288	379.848	30.699	281.263	0.00020114	0.00036761	0.00010582	1198.3	3.7256e-06	3.5461e-06	1272.6	257.46	3.3909e-06	6.2316e-07	322.13	89.579	70.397	20.374	6.074e-07	28.857	0.00022373	0.0002187	6.1194e-05	1169.1	2.4915e-06	2.3662e-06	1246.7	254.58	2.4092e-06	2.3748e-06	316.28	89.308	69.739	20.371	2.3054e-06	28.729	176.364	120.558	117.942	38.606	199.004	172.582	38.754	45.600	182.380	286.409	45.205	52.638	52.957	58.847	165.409	58.782	-8191	255	
2449.186	1	1	0	0	0.093428	0.090636	0.026377	0.11236	0.10871	0.1664	0.25173	0.093103	0.27359	0.14899	0.14556	0.15655	0.044065	0.084319	0.25013	0.18057	-2.3375	-2.7625	-2.975	-2.7792	-2.6458	-2.9125	-2.6354	-3.0333	-2.9188	-2.5917	-3.1917	-2.7708	-2.7125	-2.7875	-2.7687	-2.9542	192.902	380.333	142.875	107.003	160.890	218.462	353.342	324.285	134.071	184.640	83.833	130.661	197.730	30.203	370.538	296.147	0.00017779	0.00029588	7.4213e-05	1189.6	3.2191e-06	3.6516e-06	1267.2	255.85	1.381e-06	3.8117e-06	320.27	89.527	70.22	20.286	2.859e-06	28.553	0.00021102	0.00020423	5.6516e-05	1157.2	2.2961e-06	2.2838e-06	1236.9	252.93	2.3884e-06	2.4364e-06	315.54	89.161	69.794	20.327	2.5059e-06	28.716	187.835	87.569	120.978	38.386	214.492	144.777	38.940	45.803	198.847	209.736	45.236	52.218	52.321	58.601	211.708	58.392	-8191	255	
2449.282	1	1	0	0	0.1715	0.054524	0.15071	0.27081	0.13211	0.045788	0.1587	0.026618	0.095968	0.041913	0.1613	0.20646	0.14877	0.068469	0.19102	0.19044	-2.6271	-2.6229	-3.1208	-2.8667	-2.5583	-3.0687	-2.8917	-2.8125	-2.6708	-2.8646	-2.9479	-2.7083	-2.7979	-2.9083	-2.6729	-2.85	208.193	289.008	185.794	68.801	240.465	184.366	339.035	330.623	276.164	286.082	99.697	46.578	29.614	64.217	59.549	67.802	0.00017296	0.00039026	0.0001147	1187.5	5.7549e-06	4.1596e-06	1270.7	257.64	3.2654e-06	3.1554e-06	321.22	89.408	70.298	20.328	2.7011e-06	28.583	0.00023233	0.0002262	6.5093e-05	1159.7	2.6374e-06	2.5355e-06	1241.5	254.55	2.6629e-06	2.6052e-06	315.91	89.291	70.006	20.396	2.6243e-06	28.722	183.806	97.825	140.249	38.392	202.571	143.421	38.776	45.871	234.937	170.615	45.174	52.463	52.547	59.028	224.322	58.583	-8191	255	
2449.401	1	1	0	0	0.23886	0.085259	0.10861	0.075222	0.18801	0.20602	0.1621	0.11162	0.11454	0.20129	0.087153	0.17209	0.37817	0.20273	0.1327	0.31825	-2.3854	-2.4437	-2.9854	-3.0292	-2.7167	-3.0458	-2.7875	-3.0208	-2.65	-2.6646	-3.0521	-2.9646	-2.7125	-2.8771	-2.7375	-2.6229	89.624	267.626	212.392	329.157	283.992	313.789	345.864	291.997	228.551	362.056	349.465	36.910	353.741	288.559	314.290	267.155	0.00019379	0.00026217	0.00016761	1188.7	4.1982e-06	3.651e-06	1270.1	257.58	2.4494e-06	4.566e-06	322.83	89.795	70.556	20.416	5.8939e-06	28.678	0.00024402	0.00024197	6.7089e-05	1162.6	2.6987e-06	2.5904e-06	1244	254.88	2.6938e-06	2.6844e-06	317.01	89.238	70.11	20.444	2.7414e-06	28.766	177.740	141.479	90.699	38.691	223.625	215.866	38.835	45.621	197.217	203.198	45.200	52.624	52.704	58.677	218.090	58.508	-8191	255	
2449.473	1	1	0	0	0.23537	0.13464	0.14539	0.30553	0.11315	0.1726	0.15409	0.054409	0.20882	0.14977	0.19393	0.059695	0.18503	0.14359	0.037994	0.093516	-2.5146	-2.3979	-2.8542	-2.875	-2.5458	-2.9833	-3.0521	-2.8271	-2.9854	-2.7667	-2.9771	-2.7292	-2.5292	-2.95	-2.8271	-2.7646	121.882	118.486	94.288	365.112	31.331	262.524	330.242	51.305	175.766	61.156	386.413	291.173	233.878	383.285	53.648	184.112	0.00019925	0.00016989	6.6415e-05	1200.7	3.9348e-06	1.009e-06	1270.8	257.99	3.3114e-06	4.4918e-06	322.23	89.058	70.477	20.21	3.2013e-06	28.769	0.00023862	0.00024585	6.8659e-05	1168.5	2.7459e-06	2.7042e-06	1244.6	254.92	2.6873e-06	2.7159e-06	317.35	89.423	70.041	20.424	2.6249e-06	28.709	182.655	66.999	89.965	38.453	211.338	111.402	38.635	45.882	201.870	250.225	45.188	52.331	52.525	59.161	218.455	58.335	-8191	255	
2449.569	1	1	0	0	0.30873	0.16054	0.092691	0.11727	0.17093	0.23496	0.03168	0.18615	0.19814	0.14802	0.083609	0.1817	0.3042	0.13167	0.16417	0.24117	-2.5292	-2.5	-2.7167	-3.0479	-2.5396	-2.8167	-2.7583	-2.7979	-2.8583	-2.7083	-2.9146	-2.7604	-2.6458	-2.8917	-2.9229	-2.8354	31.234	316.291	357.974	335.496	371.682	194.274	254.444	358.735	134.695	99.599	296.831	251.722	380.023	285.462	308.491	380.850	0.0001617	0.00065145	6.3508e-05	1195.9	2.4806e-06	3.7211e-06	1270.3	257.57	4.5141e-06	6.077e-06	320.29	90.068	70.095	20.229	1.2702e-06	28.829	0.00023194	0.00023156	6.7034e-05	1165.3	2.5826e-06	2.5116e-06	1243.5	254.26	2.5019e-06	2.4897e-06	315.8	89.476	69.769	20.303	2.4828e-06	28.703	182.573	100.052	196.481	38.384	191.970	165.611	38.792	45.695	201.200	181.387	45.281	52.438	52.923	58.744	251.954	58.499	-8191	255	
2449.665	1	1	0	0	0.33419	0.21046	0.055491	0.18881	0.29456	0.28826	0.32996	0.16991	0.08777	0.052863	0.23377	0.21552	0.2565	0.12469	0.023549	0.3112	-2.5938	-2.6583	-2.8563	-2.9792	-2.6375	-2.9667	-3.075	-2.7438	-3.0812	-2.7542	-2.725	-3.1146	-2.7792	-2.8146	-2.7896	-2.7875	238.668	168.083	47.318	369.209	117.827	60.438	40.056	33.655	77.892	290.106	358.354	284.242	282.481	372.486	250.780	78.864	0.00018456	0.00060198	0.00010621	1189.5	4.1466e-06	1.0481e-06	1270.3	257.18	2.1066e-06	4.1052e-06	322.41	88.869	70.302	20.26	2.8619e-06	28.47	0.00022688	0.00022278	6.3073e-05	1162.5	2.5898e-06	2.5266e-06	1241.8	253.96	2.5958e-06	2.6005e-06	316.3	89.034	69.912	20.345	2.5629e-06	28.66	185.346	103.169	142.287	38.656	216.399	311.357	38.661	45.662	214.316	241.669	45.125	52.150	52.548	58.402	189.255	58.720	-8191	255	
2449.786	1	1	0	0	0.16415	0.033603	0.11925	0.4105	0.21278	0.24411	0.071266	0.26799	0.17294	0.35309	0.22246	0.17109	0.17748	0.27504	0.23035	0.14796	-2.5333	-2.7521	-2.7917	-3.0771	-2.6167	-2.7604	-3.025	-2.7812	-2.9313	-2.7562	-2.8979	-2.9021	-2.5729	-2.8479	-2.7583	-2.7562	384.971	52.122	350.084	57.567	293.676	288.023	347.323	315.292	212.789	267.465	47.318	124.800	375.877	51.781	188.603	204.450	0.00015571	0.00042193	7.3915e-05	1190.8	4.6481e-06	2.8791e-06	1271.1	257.61	1.4282e-06	3.5624e-06	320.53	89.417	70.215	20.241	4.1083e-06	28.714	0.0002349	0.00023517	6.5615e-05	1162	2.634e-06	2.5923e-06	1242.4	254.28	2.5611e-06	2.5238e-06	315.97	89.087	70.048	20.358	2.5717e-06	28.794	183.328	100.929	83.672	38.616	203.997	181.608	38.503	45.812	193.064	252.436	45.333	52.151	52.715	58.673	227.411	58.670	-8191	255	
2449.882	1	1	0	0	0.10413	0.063938	0.16075	0.17617	0.20223	0.1169	0.12829	0.13743	0.18923	0.083107	0.17225	0.14785	0.093643	0.12723	0.043994	0.10642	-2.3396	-2.7333	-2.7292	-3.0417	-2.7083	-2.7521	-3.1229	-2.7604	-2.9062	-2.7667	-2.8979	-3.1188	-2.8	-2.7792	-2.8625	-2.6312	176.105	322.594	125.415	51.816	142.734	177.450	304.024	379.894	108.084	281.362	265.016	280.341	165.179	366.966	237.606	170.783	0.00018344	0.00073487	5.2496e-05	1194.7	5.8755e-06	2.0707e-06	1276.7	258.1	3.3227e-06	5.8716e-06	322.8	89.583	70.218	20.293	1.4913e-06	28.76	0.00023444	0.00023534	6.7401e-05	1167.4	2.7204e-06	2.594e-06	1249	254.79	2.6967e-06	2.7008e-06	318.18	89.664	70.348	20.463	2.6795e-06	28.897	185.758	80.600	170.564	38.457	197.452	144.946	38.997	45.609	184.316	161.626	45.289	52.526	52.630	58.852	146.967	58.545	-8191	255	
2449.978	1	1	0	0	0.03849	0.27544	0.12216	0.31555	0.22007	0.10517	0.33949	0.14196	0.087674	0.1464	0.3334	0.031044	0.29735	0.12042	0.21728	0.128	-2.5062	-2.7396	-2.5833	-2.9333	-2.65	-2.8542	-3.0792	-2.7188	-2.8812	-2.9042	-2.7646	-3.1437	-2.6479	-2.8208	-2.8375	-2.7896	280.491	166.299	257.734	309.656	97.848	167.609	290.711	110.926	333.454	174.607	374.088	320.857	61.098	139.832	43.406	311.279	0.00018945	0.00033478	9.5559e-05	1205.7	6.5018e-06	3.8117e-06	1290.3	259.86	1.0392e-06	5.1295e-06	323.32	90.094	71.007	20.588	3.8469e-06	28.923	0.00024348	0.00024464	6.8657e-05	1178.8	2.7777e-06	2.7254e-06	1258.3	256.93	2.816e-06	2.7718e-06	318.74	90.083	70.68	20.593	2.8511e-06	28.994	182.120	110.433	106.795	38.597	190.856	176.778	38.820	45.503	175.044	185.660	45.306	52.215	52.550	58.711	230.945	58.229	-8191	255	
2450.074	1	1	0	0	0.11871	0.04859	0.072062	0.39813	0.17677	0.17793	0.13317	0.19705	0.26047	0.19823	0.0883	0.13991	0.2702	0.11069	0.16292	0.05934	-2.4167	-2.7771	-2.7125	-3.0958	-2.8917	-2.6	-3.1646	-2.5563	-2.9271	-2.8937	-2.8021	-3.1063	-2.9	-2.6167	-3.1167	-2.8	132.351	180.404	76.713	33.813	240.996	180.257	160.396	385.447	88.476	169.395	253.630	371.849	312.583	121.369	346.569	330.085	0.0001994	0.00022103	0.00021071	1213.7	5.0544e-06	1.9278e-06	1289.8	260.11	2.0983e-06	1.1154e-06	325.94	90.295	70.841	20.567	2.8339e-06	28.751	0.00025732	0.00025623	7.3409e-05	1183.1	2.885e-06	2.8725e-06	1263.4	256.97	2.904e-06	2.8925e-06	320.16	90.258	70.735	20.646	2.8432e-06	29.003	184.195	110.413	114.618	38.532	203.504	156.226	38.572	45.692	173.470	178.220	45.706	52.255	52.421	58.582	207.233	58.794	-8191	255	
2450.170	1	1	0	0	0.054128	0.083132	0.36343	0.11237	0.22907	0.1499	0.46529	0.25301	0.058809	0.072248	0.15333	0.21345	0.1014	0.14256	0.20997	0.15296	-2.3229	-2.85	-2.775	-2.9688	-2.825	-2.775	-3.1375	-2.7354	-2.6354	-2.9021	-2.6354	-2.9833	-2.7417	-2.7146	-3.0917	-2.7875	210.170	364.689	176.796	370.898	333.993	302.011	301.128	341.734	157.609	246.209	168.541	140.820	372.206	340.384	261.243	53.268	0.00018882	0.00058322	0.00018699	1216.7	3.195e-06	3.3657e-06	1298.7	261.17	4.1386e-06	2.6081e-06	324.64	91.544	71.306	20.61	3.3387e-06	28.964	0.00026235	0.00026643	7.4277e-05	1185.8	2.9321e-06	2.9133e-06	1268.4	257.98	2.8988e-06	2.9537e-06	320.92	90.817	71.275	20.752	2.9644e-06	29.219	183.126	113.716	109.158	38.459	179.749	186.251	38.799	45.642	176.002	166.340	45.169	52.385	52.729	59.063	245.112	58.567	-8191	255	
2450.266	1	1	0	0	0.27751	0.24185	0.15082	0.21916	0.17474	0.080164	0.24054	0.012712	0.093828	0.13326	0.22322	0.11541	0.21209	0.075972	0.20247	0.0076716	-2.35	-2.8667	-2.6146	-2.7417	-2.6396	-2.6813	-3.0312	-2.8896	-2.6271	-2.9833	-2.9437	-2.8125	-2.775	-2.5083	-2.9583	-2.7917	297.534	332.728	141.831	329.545	328.527	170.877	331.706	95.819	302.800	383.863	335.810	374.558	127.474	66.447	66.395	142.558	0.00021862	0.00032443	0.00020739	1227	4.7209e-06	2.7023e-06	1303.8	262.35	4.2343e-06	1.1795e-06	327.76	90.759	71.464	20.516	3.5567e-06	29.096	0.00027289	0.00027616	7.8287e-05	1194.8	3.0474e-06	2.9875e-06	1275.1	259.25	2.9572e-06	2.9683e-06	322.32	90.906	71.343	20.67	2.8422e-06	29.163	194.551	108.437	130.498	38.414	208.901	194.227	38.594	45.624	223.336	152.157	45.074	52.322	52.443	58.799	186.082	58.292	-8191	255	
2450.385	1	1	0	0	0.065245	0.14508	0.12058	0.33989	0.24301	0.25919	0.34016	0.24546	0.10922	0.17688	0.19817	0.2471	0.12716	0.3051	0.064808	0.15571	-2.2667	-3.0812	-2.5687	-2.9167	-2.8729	-2.6104	-3.0021	-2.7667	-2.6021	-2.9229	-2.7729	-2.8438	-2.9083	-2.5792	-2.8854	-2.9604	371.500	55.620	70.153	343.976	314.791	317.621	368.670	332.739	290.208	160.178	365.989	327.208	265.220	360.594	379.845	310.522	0.00021066	0.00029568	9.4983e-05	1223.6	5.8107e-06	2.9562e-06	1296	262	2.2852e-06	8.1255e-07	325.61	90.161	70.899	20.427	4.6816e-06	29	0.00025749	0.00025315	7.2183e-05	1194.5	2.7574e-06	2.7379e-06	1269.6	258.51	2.759e-06	2.757e-06	320.18	90.132	70.658	20.514	2.7218e-06	28.898	181.411	80.414	121.876	38.542	261.739	149.010	38.809	45.614	180.431	264.134	45.458	52.270	52.819	58.817	214.408	58.724	-8191	255	
2450.481	1	1	0	0	0.16946	0.14224	0.10488	0.33629	0.11395	0.081542	0.19186	0.16024	0.036125	0.24633	0.30678	0.16207	0.03844	0.095806	0.18767	0.19487	-2.2208	-2.7958	-2.5312	-2.8229	-2.9125	-2.6667	-2.8896	-2.8896	-2.5479	-2.9917	-2.6042	-2.7083	-2.9875	-2.7146	-2.8104	-2.7646	76.912	100.358	191.149	381.410	306.706	262.720	271.846	338.028	387.338	175.350	169.760	220.208	30.509	50.366	54.192	50.038	0.00016854	0.00038507	8.206e-05	1207.2	5.6114e-06	2.5361e-06	1286.5	259.8	2.6411e-06	3.0983e-06	323.75	89.38	70.577	20.287	3.8245e-06	28.627	0.00023745	0.00024238	6.6878e-05	1178.5	2.6153e-06	2.623e-06	1255.9	255.64	2.6584e-06	2.5999e-06	317.63	89.479	70.113	20.357	2.6714e-06	28.753	194.318	161.961	95.284	38.582	238.209	183.408	38.941	45.521	223.751	142.260	45.073	52.227	53.109	58.806	134.571	58.660	-8191	255	
2450.578	1	1	0	0	0.083226	0.083824	0.078944	0.1703	0.19613	0.42145	0.1368	0.023	0.25801	0.16537	0.23214	0.20652	0.26056	0.20633	0.16432	0.30701	-2.2062	-3.0312	-2.4979	-3.0125	-2.8479	-2.65	-2.9104	-2.9313	-2.6104	-2.8604	-2.8271	-2.7979	-2.8937	-2.6625	-2.6833	-2.8625	305.613	146.070	121.526	378.190	46.263	149.265	55.672	283.926	327.394	359.074	329.243	293.695	34.331	182.974	319.200	184.830	0.00021223	0.00044983	0.00016946	1207.7	6.5889e-06	2.9838e-06	1290.7	259.9	2.2825e-06	2.7281e-06	324.48	89.904	70.898	20.529	3.6314e-06	28.774	0.00024128	0.00025156	6.9666e-05	1180.4	2.843e-06	2.8946e-06	1263.5	257.03	2.9668e-06	2.9829e-06	320.42	90.21	70.774	20.618	2.9359e-06	29.056	185.671	132.511	90.612	38.740	188.861	166.796	38.638	45.624	201.044	152.341	45.426	52.262	52.586	58.767	173.845	58.594	-8191	255	
2450.696	1	1	0	0	0.087528	0.21354	0.12712	0.20253	0.18712	0.11466	0.21639	0.036318	0.30794	0.050491	0.11892	0.22416	0.057463	0.14248	0.091816	0.27363	-1.9333	-3.0229	-2.7146	-2.8208	-3.0771	-2.6896	-2.9729	-2.9313	-2.6771	-2.975	-2.9313	-2.8417	-2.8937	-2.8604	-2.8167	-2.8167	147.788	123.535	367.344	280.404	178.935	354.598	285.459	68.346	157.164	313.197	370.442	136.319	214.027	33.814	102.711	280.240	0.00019086	0.00020115	0.00019176	1229.5	1.541e-06	3.8674e-06	1308.4	263.18	1.9295e-06	1.1904e-06	327.21	90.618	71.128	20.649	2.4554e-06	29.001	0.00026698	0.00026756	7.4693e-05	1199.7	2.939e-06	2.9208e-06	1280.2	259.42	2.9434e-06	2.9137e-06	322.24	90.655	71.136	20.673	2.9135e-06	29.231	189.417	70.662	108.923	38.540	233.479	159.666	38.549	45.538	258.149	128.429	45.015	52.265	52.410	58.879	164.749	58.327	-8191	255	
2450.768	1	1	0	0	0.045422	0.12232	0.124	0.24406	0.25251	0.22919	0.11625	0.28264	0.10246	0.11138	0.3492	0.27355	0.027743	0.31791	0.070014	0.25713	-2.2104	-2.9604	-2.75	-2.6042	-3.1292	-2.6417	-2.9521	-3.1104	-2.5604	-2.8396	-2.8271	-2.6396	-2.8833	-2.7583	-2.6542	-2.8937	266.696	314.218	41.478	301.975	180.614	378.504	198.134	303.444	171.723	241.661	343.051	346.847	324.932	338.929	189.686	114.178	0.00017148	0.00027653	8.4811e-05	1237.3	3.9474e-06	4.5746e-06	1314.9	263.01	2.8817e-06	4.3581e-06	326.13	90.717	70.948	20.493	3.9336e-06	29.069	0.00025716	0.00025914	7.2833e-05	1203.2	2.8945e-06	2.7912e-06	1282.4	259.48	2.8171e-06	2.7637e-06	321.48	90.481	70.775	20.546	2.6503e-06	29.034	188.790	157.629	136.052	38.461	220.091	170.972	38.609	45.559	210.551	198.041	45.120	52.442	52.793	58.820	216.782	58.520	-8191	255	
2450.864	1	1	0	0	0.013336	0.18633	0.14099	0.24675	0.057131	0.12323	0.3572	0.28807	0.097382	0.11421	0.19972	0.20224	0.19697	0.25814	0.25773	0.057967	-2.1188	-2.8167	-2.7854	-2.8271	-2.9208	-2.7208	-2.9833	-3.0604	-2.675	-2.8958	-2.9167	-2.6354	-2.8271	-2.7896	-2.5479	-2.9729	363.487	380.754	374.000	348.290	211.004	315.600	290.345	367.405	187.695	239.593	335.542	285.169	365.772	58.864	267.094	319.110	0.00016919	0.00013185	9.9651e-05	1217.3	4.2967e-06	1.6907e-06	1291.5	259.59	2.4356e-06	3.0867e-06	324	90.56	70.662	20.255	3.0431e-06	28.833	0.00023252	0.00023451	6.5792e-05	1186.1	2.6452e-06	2.529e-06	1263.8	256.62	2.6823e-06	2.6129e-06	319.69	90.2	70.581	20.43	2.6819e-06	28.967	187.633	165.375	101.637	38.459	202.926	205.241	38.676	45.679	224.229	174.424	45.290	52.541	52.463	58.633	187.699	58.338	-8191	255	
2450.960	1	1	0	0	0.14879	0.15169	0.19393	0.23923	0.27261	0.045885	0.044007	0.31234	0.10765	0.11459	0.06176	0.064541	0.067521	0.21795	0.26808	0.23125	-2.1771	-2.8979	-2.7083	-2.7792	-3.0229	-2.7958	-2.825	-3.1125	-2.575	-2.8521	-2.9417	-2.6271	-2.9854	-2.8125	-2.5479	-2.9688	317.367	247.518	201.716	368.141	318.503	280.023	281.747	299.061	266.188	223.984	53.654	326.528	83.255	111.175	168.988	308.899	0.00020543	0.00022883	0.00012968	1219.1	3.9137e-06	3.5384e-06	1300.1	260.86	2.0767e-06	1.2992e-06	322.75	89.554	70.891	20.299	3.4752e-06	28.7	0.00024098	0.00024409	6.6656e-05	1189.6	2.6887e-06	2.6097e-06	1270.1	257.52	2.625e-06	2.5828e-06	319.53	89.832	70.536	20.347	2.4731e-06	28.76	181.878	121.543	114.200	38.308	185.517	157.622	38.690	45.667	248.915	214.264	45.410	52.351	52.546	58.911	207.022	58.301	-8191	255	
2451.081	1	1	0	0	0.10006	0.12667	0.072325	0.15547	0.08211	0.12851	0.33865	0.052935	0.15084	0.080169	0.042065	0.13033	0.14816	0.27078	0.20443	0.13754	-2.1854	-2.6479	-2.9083	-2.6896	-2.7	-2.8063	-2.7812	-2.9458	-2.7313	-2.8521	-2.9354	-2.5396	-2.9917	-2.9354	-2.5792	-3.0708	181.502	157.926	162.193	157.976	278.624	325.726	341.298	273.597	222.299	229.080	219.825	205.897	302.111	61.131	176.091	232.002	0.00016531	0.00037788	0.00012417	1207.1	2.2781e-06	3.541e-06	1286.5	258.75	8.173e-08	3.8101e-06	322.84	89.96	70.29	20.184	3.1599e-06	28.831	0.00022368	0.00021747	6.0257e-05	1179.1	2.4581e-06	2.3161e-06	1259.1	255.44	2.2897e-06	2.2094e-06	317.8	89.461	69.988	20.234	1.9508e-06	28.738	181.708	72.233	153.649	38.642	206.435	218.602	38.801	45.499	258.179	229.812	45.305	52.109	52.925	58.992	229.567	58.511	-8191	255	
2451.177	1	1	0	0	0.14662	0.23923	0.14667	0.13248	0.11321	0.19998	0.15941	0.13832	0.14138	0.36145	0.10092	0.033745	0.097542	0.056848	0.055309	0.20335	-2.4562	-2.6562	-2.8271	-2.7583	-2.7313	-2.8187	-2.6833	-3.1437	-2.6854	-2.6188	-2.9333	-2.625	-2.7979	-2.9562	-2.4125	-2.8312	236.263	211.430	234.821	191.404	292.272	105.896	353.736	29.414	300.510	184.686	360.136	291.977	382.246	101.032	223.949	288.479	0.00018736	0.00018931	4.4851e-05	1214.1	3.8563e-06	2.9801e-06	1293.6	260.14	2.7276e-06	2.9041e-06	323.21	89.588	70.466	20.19	4.0646e-06	28.758	0.00017287	0.00015651	4.1911e-05	1181.4	1.6036e-06	1.49e-06	1261.5	254.86	1.4799e-06	1.4425e-06	316.59	89.008	69.648	20.141	1.5485e-06	28.575	179.949	117.784	103.172	38.408	192.063	202.928	38.617	45.802	196.924	212.361	45.327	52.162	52.668	58.863	201.724	58.716	-8191	255	
2451.273	1	1	0	0	0.11844	0.11214	0.1414	0.13326	0.30136	0.10785	0.20844	0.1432	0.10079	0.027863	0.19588	0.11228	0.10145	0.27433	0.20281	0.16689	-2.2917	-2.65	-2.9271	-2.6667	-2.6167	-2.8917	-2.8958	-2.8854	-2.7979	-2.3917	-3.1063	-2.8	-2.8104	-2.9688	-2.5417	-2.8729	294.973	321.450	97.136	339.163	352.496	233.598	260.038	238.568	166.336	285.739	253.620	174.994	109.047	111.381	234.105	272.579	0.00020232	0.00048672	0.00013419	1212.5	1.5015e-06	3.4444e-06	1289	259.45	1.9421e-06	1.6768e-06	322.12	89.215	70.195	20.015	2.6529e-06	28.551	0.00016241	0.00015894	4.693e-05	1182.4	2.0257e-06	2.0913e-06	1258.7	255.21	2.2909e-06	2.3274e-06	316.7	89.023	69.55	20.099	2.2495e-06	28.434	186.975	122.110	142.307	38.435	212.638	179.456	38.597	45.856	165.491	205.638	45.137	52.671	52.626	59.379	210.759	58.549	-8191	255	
2451.345	1	1	0	0	0.11305	0.19933	0.1167	0.22228	0.18336	0.085096	0.18741	0.095029	0.10739	0.074658	0.30177	0.21027	0.35608	0.1172	0.22675	0.045344	-2.4417	-2.65	-2.9771	-2.8917	-2.7396	-2.9208	-2.8854	-2.8896	-2.8354	-2.4833	-2.9979	-2.7188	-2.5771	-2.9708	-2.5125	-2.7917	117.246	331.973	63.570	318.871	151.741	106.624	265.055	90.610	222.650	55.256	300.599	58.300	106.867	58.471	241.375	351.965	0.00018222	0.00054564	0.00012663	1178.6	1.8313e-06	3.0571e-06	1239.5	249.37	2.1769e-06	2.485e-06	310.81	86.595	67.427	19.376	2.2161e-06	27.666	0.00019738	0.00019545	4.9639e-05	1147.4	1.9577e-06	1.8013e-06	1214.1	245.79	1.7024e-06	1.6314e-06	305.17	85.947	66.7	19.333	1.5624e-06	27.543	184.016	108.975	131.862	38.678	219.013	159.418	38.581	45.900	213.755	189.001	45.470	52.401	52.820	59.534	205.364	58.625	-8191	255	
2451.466	1	1	0	0	0.17747	0.18336	0.063945	0.29391	0.13565	0.051817	0.086551	0.16383	0.088929	0.091925	0.17355	0.10084	0.25714	0.039082	0.18712	0.2967	-2.3854	-2.6021	-2.7958	-2.7771	-2.7417	-3.0438	-2.8771	-2.9604	-2.9417	-2.7271	-3.0271	-2.6854	-2.5312	-2.8854	-2.6271	-2.9813	262.455	303.953	109.811	317.076	37.945	353.866	297.586	378.188	266.415	140.527	310.608	256.730	320.267	325.547	318.548	356.297	0.00018175	0.00042782	6.4321e-05	1128.9	2.7323e-06	1.5604e-06	1217.2	244.51	2.818e-06	4.9845e-06	310.8	86.474	68.317	19.58	2.4044e-06	27.913	0.00014941	0.00014594	4.2692e-05	1102	1.7892e-06	1.8336e-06	1184.6	241.38	2.0888e-06	2.1241e-06	305.3	86.317	67.463	19.663	2.3043e-06	28.031	188.126	87.626	103.044	38.698	155.113	172.577	39.009	45.853	187.108	138.530	45.486	52.880	53.059	58.874	190.740	58.866	-8191	255	
2451.562	1	1	0	0	0.0783	0.19528	0.046966	0.1619	0.053843	0.27671	0.20758	0.25269	0.15909	0.18001	0.1827	0.26863	0.22836	0.088337	0.015979	0.072009	-2.6458	-2.5812	-2.8396	-2.8854	-2.5812	-2.925	-2.7729	-2.8229	-2.8354	-2.5438	-2.95	-2.7333	-2.4542	-2.9667	-2.7021	-2.9896	66.877	196.963	131.518	372.650	351.372	334.320	285.540	302.544	333.566	267.292	350.611	223.315	37.877	214.104	237.615	194.960	0.0001836	0.00043991	8.5683e-05	1155.1	3.0995e-06	2.325e-06	1237.3	250.34	4.8808e-06	1.8741e-06	316.6	87.345	68.668	19.832	1.0843e-06	27.899	0.00020829	0.00020326	5.671e-05	1127.9	2.2965e-06	2.175e-06	1211.8	247.2	2.1534e-06	2.1007e-06	310.61	87.195	68.09	19.76	2.0002e-06	27.994	186.750	129.573	136.055	38.634	205.683	182.657	38.794	45.980	184.996	241.179	45.353	52.297	52.539	58.640	228.838	58.760	-8191	255	
2451.658	1	1	0	0	0.12153	0.12385	0.17188	0.21914	0.26599	0.095022	0.15461	0.12854	0.13997	0.15316	0.26833	0.28687	0.30526	0.3627	0.15937	0.23906	-2.5021	-2.3667	-2.9229	-2.8083	-2.6625	-2.9271	-2.8125	-2.7625	-2.9229	-2.85	-2.9479	-2.9729	-2.5875	-2.8896	-2.6646	-2.6146	308.682	321.862	274.065	167.260	107.230	307.493	126.598	251.500	76.411	305.801	378.610	78.787	331.858	362.210	210.101	118.138	0.00015623	0.00017896	0.00010695	1160.9	3.6821e-06	1.8185e-06	1236.4	248.8	3.2589e-06	2.9152e-06	313.86	86.886	68.387	19.828	1.4252e-06	28.213	0.00018616	0.0001799	4.9456e-05	1132.3	1.9839e-06	1.9705e-06	1207.2	245.83	2.0398e-06	2.0535e-06	308.94	86.736	67.936	19.762	2.1738e-06	28.178	177.700	128.442	100.788	38.615	196.154	170.965	38.708	45.972	208.944	163.145	44.969	52.430	52.703	59.024	226.397	58.354	-8191	255	
2451.777	1	1	0	0	0.036982	0.18541	0.27263	0.33953	0.16659	0.21112	0.16821	0.23387	0.14701	0.050062	0.15279	0.097746	0.23253	0.2519	0.17928	0.098494	-2.5771	-2.4562	-2.6188	-3.0167	-2.6792	-2.85	-2.8604	-2.7979	-2.9292	-2.5563	-2.8271	-2.9708	-2.5646	-2.8021	-2.9146	-2.6979	356.820	220.960	56.322	366.244	250.098	43.125	310.446	336.828	51.773	303.178	387.138	109.038	286.574	40.528	164.321	54.389	0.00016452	0.00028253	0.00012742	1192.2	4.0289e-06	4.5402e-06	1283	257.65	2.4579e-06	3.7421e-06	324.49	89.697	70.537	20.369	3.5332e-06	28.986	0.00020341	0.00020678	5.7685e-05	1163.4	2.4217e-06	2.4278e-06	1255.2	254.11	2.5242e-06	2.5413e-06	318.3	89.633	70.411	20.411	2.6737e-06	28.943	184.726	97.320	158.075	38.470	259.355	149.960	38.547	45.793	181.211	80.841	45.407	52.556	52.549	59.037	170.701	58.507	-8191	255	
2451.873	1	1	0	0	0.099773	0.067061	0.25539	0.17263	0.19342	0.16938	0.070389	0.15243	0.097552	0.26621	0.023248	0.30292	0.20231	0.017396	0.080436	0.15689	-2.3771	-2.6333	-2.5438	-2.8875	-2.6083	-2.8208	-2.7625	-2.6958	-2.925	-2.7812	-2.6958	-2.9375	-2.7333	-2.7833	-2.6813	-2.6229	142.293	166.155	135.015	126.151	225.622	114.411	48.271	130.018	35.367	363.818	141.293	353.053	44.404	303.356	133.856	286.014	0.00019933	0.00041117	9.3258e-05	1231.6	3.302e-06	5.2615e-06	1307.6	261.36	3.0097e-06	1.9156e-06	326.12	90.475	71.023	20.319	4.0114e-06	28.848	0.00025005	0.00025415	7.1903e-05	1200.3	2.9417e-06	2.9195e-06	1281	258.3	2.9083e-06	2.846e-06	321.19	90.277	70.946	20.446	2.8373e-06	28.951	182.398	175.087	139.462	38.432	211.588	196.799	38.661	45.596	214.948	264.245	45.063	52.534	52.365	58.898	198.705	58.372	-8191	255	
2451.969	1	1	0	0	0.14061	0.15922	0.18212	0.19386	0.19503	0.12464	0.45591	0.23708	0.10439	0.27488	0.1408	0.19177	0.13831	0.14525	0.27123	0.10498	-2.4292	-2.7771	-2.5687	-2.9958	-2.5354	-2.8146	-2.8979	-2.6312	-2.9208	-2.7042	-2.5146	-2.8937	-2.4896	-2.8604	-2.7896	-2.4833	267.388	366.395	129.648	342.974	382.349	114.445	337.411	229.132	31.146	106.813	328.510	143.666	64.718	298.500	154.856	85.573	0.00020472	0.00040107	6.6175e-05	1218.7	5.2056e-06	4.6001e-06	1296.1	259.81	1.7377e-06	2.0547e-06	322.84	89.374	70.319	20.158	2.5764e-06	28.739	0.00025395	0.00026324	7.2496e-05	1189.9	2.911e-06	2.8725e-06	1265.2	256.52	2.9685e-06	2.8739e-06	317.75	89.407	70.118	20.274	2.8218e-06	28.724	189.916	86.748	63.552	38.297	189.586	207.034	38.558	45.463	208.557	167.677	45.077	52.327	52.520	58.683	196.680	58.120	-8191	255	
2452.065	1	1	0	0	0.25436	0.16004	0.073895	0.18324	0.09542	0.13559	0.32409	0.14827	0.18172	0.17275	0.12023	0.081374	0.2039	0.27249	0.023078	0.15066	-2.3417	-2.6771	-2.4771	-2.9104	-2.6479	-2.7479	-2.8542	-2.5479	-2.8125	-2.775	-2.6458	-3.0667	-2.6	-2.7438	-2.8729	-2.6125	364.637	323.340	211.887	362.425	313.171	35.760	284.442	269.798	282.839	80.203	32.438	383.445	261.912	156.865	30.992	75.461	0.00019713	0.00030098	7.9743e-05	1196.3	1.6869e-06	2.7953e-06	1277.5	256.44	6.8336e-07	9.4749e-07	321.76	89.324	69.949	20.377	7.9965e-06	28.812	0.00025005	0.00025401	7.1007e-05	1170.9	2.8062e-06	2.9131e-06	1250	253.68	2.99e-06	2.9839e-06	317.25	89.335	70.172	20.397	3.2989e-06	28.878	187.752	97.777	118.670	38.672	216.782	182.559	38.601	45.689	224.511	70.591	45.332	52.516	52.472	58.507	304.577	58.460	-8191	255	
2452.161	1	1	0	0	0.050903	0.18852	0.10528	0.25673	0.16895	0.27744	0.20124	0.20459	0.096948	0.038772	0.19615	0.16294	0.099053	0.1113	0.1588	0.041635	-2.4958	-2.8917	-2.4792	-3.075	-2.6063	-2.6521	-3.1354	-2.7208	-2.7521	-2.8458	-2.6312	-2.9458	-2.6292	-2.6354	-2.8917	-2.6417	242.862	169.253	278.724	45.323	274.204	155.653	318.586	241.722	136.579	264.053	65.979	55.424	223.361	105.760	195.573	185.797	0.00021953	0.00039599	7.6982e-05	1203.7	3.8269e-06	3.3261e-06	1284.8	257.74	3.075e-06	4.3532e-06	323.81	88.92	70.243	20.136	5.155e-06	28.637	0.00029386	0.00029949	8.4915e-05	1175.2	3.3666e-06	3.4271e-06	1254.3	255.43	3.3966e-06	3.4574e-06	318.76	89.437	70.356	20.321	3.3018e-06	28.918	185.397	94.739	106.715	38.586	178.729	170.141	38.844	45.431	217.493	207.259	45.215	52.609	52.075	58.787	172.651	58.574	-8191	255	
2452.258	1	1	0	0	0.080865	0.12398	0.15301	0.36394	0.32351	0.13957	0.14199	0.18526	0.23257	0.061039	0.31961	0.11437	0.068937	0.056765	0.095501	0.11753	-2.3312	-2.5896	-2.4521	-2.9167	-2.7333	-2.6813	-2.9896	-2.7146	-2.7	-2.875	-2.4729	-2.9021	-2.5938	-2.6521	-2.85	-2.5646	225.580	250.449	155.554	316.999	247.789	86.772	223.701	338.549	117.939	286.853	286.095	372.968	52.044	317.298	383.537	120.028	0.0001522	0.00028641	0.00012598	1201	3.0089e-06	3.1313e-06	1281.8	258.18	7.0819e-07	4.2186e-06	323.59	88.854	70.162	20.258	2.8931e-06	28.647	0.00029116	0.00030241	8.4631e-05	1174.5	3.308e-06	3.2349e-06	1253.5	255.38	3.364e-06	3.411e-06	318.84	89.381	70.389	20.4	3.3722e-06	28.96	175.263	121.858	133.823	38.748	202.341	136.641	38.745	45.372	211.835	220.514	45.445	52.337	52.916	59.105	196.883	58.404	-8191	255	
2452.354	1	1	0	0	0.20664	0.14988	0.18365	0.30975	0.31854	0.25902	0.31127	0.15813	0.090747	0.18176	0.18557	0.26147	0.08921	0.12115	0.072789	0.13981	-2.3396	-3.0333	-2.4938	-3.0958	-2.6521	-2.6208	-2.8937	-2.5854	-2.7438	-2.9833	-2.7083	-2.8812	-2.9	-2.6417	-2.9521	-2.6979	369.828	218.364	264.098	354.656	209.721	192.538	319.019	364.303	371.612	212.780	62.455	339.319	244.415	196.972	61.808	358.853	0.00019937	0.00046268	7.2553e-05	1199.5	1.5452e-06	1.5369e-06	1281.6	258.3	2.4424e-06	3.7264e-06	324.34	89.363	70.224	20.269	2.1493e-06	28.825	0.00030273	0.00031288	8.6327e-05	1174.8	3.5086e-06	3.4785e-06	1253.1	255.45	3.4611e-06	3.4676e-06	319.11	89.472	70.297	20.376	3.3985e-06	28.944	179.158	141.524	96.562	38.528	226.281	181.133	38.679	45.571	214.239	156.837	45.217	52.159	52.171	58.872	174.585	58.773	-8191	255	
2452.474	1	1	0	0	0.26641	0.33476	0.29556	0.11769	0.31378	0.099513	0.21688	0.22744	0.040865	0.09568	0.21659	0.10058	0.21431	0.193	0.114	0.17596	-2.2208	-2.8312	-2.4125	-2.8937	-2.7146	-2.6375	-3.0625	-2.7354	-2.5958	-3.1937	-2.6188	-2.925	-2.8208	-2.7146	-2.8125	-2.7958	356.994	329.956	142.164	269.151	282.062	346.757	372.159	369.146	273.467	295.683	48.348	78.461	56.296	221.799	185.701	325.520	0.00018309	0.00047082	5.3103e-05	1191.6	5.9955e-06	2.1299e-06	1271	257.21	1.6692e-06	3.5116e-06	322.05	88.63	69.736	20.007	2.7676e-06	28.631	0.00030148	0.00030683	8.5736e-05	1167.4	3.3998e-06	3.3275e-06	1246.3	254.04	3.366e-06	3.3913e-06	317.84	89.08	69.994	20.225	3.3314e-06	28.863	194.865	188.798	96.549	38.552	213.167	247.195	38.879	45.668	195.897	125.598	45.527	52.235	52.814	59.067	218.515	58.516	-8191	255	
2452.569	1	1	0	0	0.24841	0.13171	0.11928	0.14513	0.39812	0.24316	0.092208	0.073563	0.13953	0.05919	0.13657	0.17427	0.10418	0.19641	0.14762	0.10833	-2.325	-2.8167	-2.5354	-2.9062	-2.9646	-2.6708	-3.1208	-2.7958	-2.6521	-2.8417	-2.7396	-2.8271	-2.8333	-2.6479	-2.9667	-2.8875	286.560	44.554	251.109	343.224	264.380	222.002	382.479	233.511	330.387	343.983	368.953	97.764	71.091	109.137	39.111	114.051	0.00020306	0.00033183	0.00017409	1188.5	4.9399e-06	3.2711e-06	1267.3	256.47	3.0491e-06	2.1624e-07	321.29	88.437	69.306	19.933	2.4248e-06	28.666	0.00030376	0.00030722	8.4586e-05	1162.1	3.3805e-06	3.3462e-06	1239.8	253.54	3.3532e-06	3.2358e-06	317.37	88.597	69.511	20.136	3.227e-06	28.724	179.127	101.821	141.553	38.661	217.310	142.780	38.761	45.562	206.678	302.293	45.240	52.733	52.592	59.009	181.680	58.429	-8191	255	
2452.642	1	1	0	0	0.097846	0.10212	0.17204	0.22273	0.18653	0.16257	0.13454	0.134	0.18708	0.18267	0.17946	0.18011	0.17259	0.16777	0.057695	0.25234	-2.2167	-2.8479	-2.7646	-2.9167	-2.9396	-2.6792	-2.9979	-2.8563	-2.5146	-3.0896	-2.7687	-2.7562	-2.9083	-2.7479	-2.8604	-2.9458	316.532	329.127	94.640	49.213	263.295	311.989	277.161	59.165	268.498	368.962	46.093	60.016	44.765	348.504	129.795	370.226	0.00020817	0.00014746	0.00012215	1180	3.844e-06	2.6969e-06	1258	253.57	1.6162e-06	4.9644e-06	321.12	88.008	69.544	19.864	4.9919e-06	28.488	0.00028329	0.0002924	8.1532e-05	1152.8	3.1845e-06	3.1604e-06	1233.2	251.19	3.3031e-06	3.243e-06	316.13	88.433	69.26	20.033	3.2436e-06	28.666	190.178	377.949	89.225	38.537	201.244	273.769	38.859	45.539	108.033	156.619	45.241	52.336	52.407	58.885	184.277	58.341	-8191	255	
2452.738	1	1	0	0	0.14994	0.061606	0.10644	0.11004	0.11054	0.054704	0.19635	0.15054	0.20256	0.28384	0.19274	0.029715	0.20896	0.27857	0.093892	0.22552	-2.2729	-2.8167	-2.6417	-2.7604	-2.95	-2.7125	-2.8333	-2.8958	-2.7583	-2.9896	-2.7313	-2.75	-2.9583	-2.8146	-2.9354	-2.9125	276.161	30.298	101.924	376.167	328.888	78.324	387.756	294.778	200.883	310.703	310.595	86.040	75.447	275.597	197.471	314.490	0.00018845	0.00064669	0.0001852	1185.7	5.4234e-06	2.3798e-06	1262	254.69	2.1697e-06	6.3628e-06	320.73	87.712	69.719	19.864	4.6214e-06	28.653	0.00028715	0.00029738	8.2558e-05	1157.4	3.3193e-06	3.2333e-06	1234.3	251.82	3.3111e-06	3.2191e-06	316.57	88.044	69.194	20.007	3.2149e-06	28.748	183.785	142.974	105.808	38.561	195.575	171.851	39.073	45.800	195.441	168.607	45.012	52.233	52.843	58.929	232.258	58.254	-8191	255	
2452.857	1	1	0	0	0.18837	0.058723	0.1396	0.18526	0.11465	0.10167	0.17207	0.16388	0.36335	0.14481	0.085324	0.053158	0.063213	0.14592	0.20404	0.077819	-2.0438	-2.6562	-2.6521	-2.7875	-2.9188	-2.7146	-2.8125	-2.9625	-2.5438	-3.0667	-2.9271	-2.7062	-2.8312	-2.6688	-2.6375	-3.0687	218.415	227.474	170.345	34.648	171.345	291.674	305.321	346.001	49.321	370.778	37.875	261.178	218.625	340.534	68.522	136.090	0.00018018	0.00013688	0.00016953	1173.1	2.3913e-06	3.3403e-06	1248.2	253.36	9.0091e-07	5.3031e-06	319.07	87.218	68.792	19.696	5.0361e-06	28.502	0.00029077	0.00029768	8.2133e-05	1145.9	3.346e-06	3.2587e-06	1223	250.48	3.2167e-06	3.1861e-06	314.31	87.788	68.747	19.915	3.2084e-06	28.58	184.132	197.222	154.040	38.598	117.012	165.203	38.718	45.860	227.149	189.138	45.197	52.487	52.512	58.922	165.126	58.627	-8191	255	
2452.953	1	1	0	0	0.14683	0.26281	0.28554	0.1011	0.17046	0.094005	0.26827	0.27865	0.21773	0.082317	0.31786	0.20539	0.13158	0.24008	0.093483	0.2049	-2.1229	-2.7625	-2.7229	-2.7354	-2.8125	-2.7938	-2.8708	-3.0958	-2.5792	-2.6417	-2.8229	-2.7479	-2.975	-2.7687	-2.6437	-3.0167	311.428	69.472	180.620	320.064	94.947	209.260	318.730	378.018	40.714	244.779	120.890	98.903	375.469	302.326	301.462	317.352	0.00020181	0.0005496	0.000134	1171.5	2.4725e-06	1.1983e-06	1249.5	253.98	2.0568e-06	4.2556e-06	321.35	88.165	69.404	19.755	3.9239e-06	28.808	0.00028122	0.00029035	8.1914e-05	1143.5	3.3452e-06	3.3432e-06	1223.4	250.77	3.5122e-06	3.4649e-06	316.59	88.284	69.485	20.012	3.5767e-06	28.866	186.078	137.949	76.625	38.661	246.920	212.979	38.612	45.906	186.188	256.084	45.017	52.487	53.014	58.685	168.782	58.716	-8191	255	
2453.049	1	1	0	0	0.15485	0.17137	0.24512	0.2451	0.077255	0.10446	0.18831	0.30766	0.26037	0.084239	0.04867	0.057733	0.18171	0.097639	0.22111	0.073796	-2.275	-2.9188	-2.9313	-2.5833	-2.9458	-2.8354	-2.6875	-2.9292	-2.4313	-2.7271	-3.0771	-2.7	-2.8771	-2.8729	-2.5542	-3.2292	290.358	324.280	224.971	338.438	168.965	340.466	290.773	317.437	29.917	37.220	318.005	119.920	80.020	111.736	196.380	318.308	0.00018223	0.00041225	0.00011569	1191	7.3911e-06	2.2849e-06	1272.1	254.77	4.445e-06	7.0409e-06	321.36	88.54	69.589	19.872	3.2897e-06	28.541	0.00032071	0.00033531	9.4091e-05	1163.4	3.7574e-06	3.7554e-06	1241.2	252.64	3.7458e-06	3.7879e-06	318.1	88.918	69.99	20.132	3.7732e-06	28.926	180.415	125.840	87.569	38.626	193.324	236.283	38.640	45.625	187.009	222.686	45.247	52.228	52.510	58.892	190.334	58.715	-8191	255	
2453.146	1	1	0	0	0.068302	0.12406	0.082404	0.19443	0.34474	0.16726	0.12035	0.18216	0.12302	0.11462	0.030755	0.18609	0.22793	0.09663	0.14393	0.14511	-2.2833	-2.8229	-2.7708	-2.6875	-2.9458	-2.7938	-2.7521	-3.0812	-2.7479	-2.775	-3.0417	-2.6958	-3.0667	-2.9188	-2.5167	-2.6729	242.016	362.481	198.482	42.009	202.190	364.242	339.769	297.606	261.515	281.146	196.551	314.179	240.900	92.257	61.885	143.697	0.00019126	0.00018229	9.8382e-05	1184	4.1386e-06	4.889e-06	1263.7	254.95	2.5735e-06	3.5886e-06	321.97	88.496	69.108	19.83	3.1439e-06	28.556	0.00033478	0.00034249	9.3462e-05	1159.5	3.6815e-06	3.6021e-06	1237	252.8	3.5788e-06	3.5962e-06	317.47	88.662	69.65	20.079	3.5304e-06	28.843	190.005	84.311	177.166	38.445	249.630	222.832	38.759	45.736	177.207	214.198	45.353	52.294	52.813	58.727	154.937	58.378	-8191	255	
2453.242	1	1	0	0	0.14782	0.28205	0.1116	0.27756	0.1048	0.26015	0.31784	0.1764	0.072102	0.12579	0.13002	0.31856	0.075221	0.055031	0.090072	0.061849	-2.1333	-2.5958	-2.8354	-2.8187	-2.8604	-2.8354	-2.8083	-2.8563	-2.6354	-2.7333	-3.1437	-2.6937	-2.7854	-3.0583	-2.6042	-2.8708	187.557	276.066	191.961	337.597	231.481	222.654	386.753	57.567	350.984	95.239	313.351	28.069	135.338	371.886	217.531	338.410	0.00014366	0.0002181	9.566e-05	1192.8	6.2822e-06	6.2375e-06	1269	256.54	1.7671e-06	3.1548e-06	322.13	88.607	69.802	19.956	1.5261e-06	28.754	0.00031861	0.00032782	9.0857e-05	1166.2	3.7518e-06	3.7579e-06	1245.9	254.06	3.7603e-06	3.8358e-06	318.9	89.104	70.007	20.211	3.8537e-06	29.09	179.415	96.119	225.530	38.544	225.633	146.404	38.790	45.548	212.198	169.847	45.185	52.241	52.556	59.076	154.395	58.660	-8191	255	
2453.338	1	1	0	0	0.24066	0.18068	0.054954	0.064298	0.21323	0.20635	0.35895	0.17931	0.39515	0.040089	0.051689	0.1932	0.1797	0.2049	0.16532	0.23193	-2.3688	-2.7479	-3.0229	-2.7938	-2.7938	-2.9583	-2.875	-3.0083	-2.7771	-2.65	-2.9958	-2.5187	-2.6625	-2.9437	-2.7167	-2.9542	314.302	282.991	365.592	349.717	115.830	37.592	312.867	330.362	286.362	219.000	327.268	337.002	121.326	67.444	329.415	292.752	0.00018447	0.00056913	9.4967e-05	1191.5	5.9708e-06	3.7937e-06	1265.4	255.87	2.392e-06	4.7866e-06	322.25	88.375	69.328	19.867	1.6421e-06	28.625	0.00033054	0.00034102	9.4065e-05	1164.3	3.6594e-06	3.5525e-06	1238.6	253.34	3.4704e-06	3.3982e-06	317.27	88.274	69.392	20.014	3.3527e-06	28.78	179.910	89.897	123.937	38.579	201.144	223.415	38.689	45.880	195.434	230.969	45.197	52.150	52.516	58.877	252.111	58.573	-8191	255	
2453.459	1	1	0	0	0.14109	0.3277	0.088226	0.065967	0.084975	0.083013	0.2431	0.13074	0.049039	0.19211	0.21357	0.15733	0.090107	0.18017	0.13767	0.45616	-2.375	-2.4917	-2.9521	-2.8438	-2.6792	-2.9083	-2.7583	-2.9625	-2.85	-2.5938	-3.0771	-2.625	-2.6729	-2.8479	-2.5729	-2.8625	310.816	211.728	228.249	251.064	67.924	325.241	31.540	305.696	128.408	294.892	100.420	233.546	137.626	80.561	139.810	89.410	0.00019046	0.00039601	0.00017059	1179.7	2.5709e-07	2.3252e-06	1255.3	253.21	1.1093e-07	4.4879e-06	321.45	88.078	68.479	19.777	4.139e-06	28.442	0.00029337	0.00030243	8.1935e-05	1152.8	3.3743e-06	3.2659e-06	1229.5	250.91	3.313e-06	3.311e-06	316.05	87.912	69.088	19.906	3.3377e-06	28.73	185.921	76.028	138.808	38.556	184.173	195.916	38.792	45.720	230.588	154.659	45.148	52.165	52.241	58.541	237.221	58.944	-8191	255	
2453.555	1	1	0	0	0.20672	0.18289	0.22394	0.12464	0.2338	0.16682	0.34947	0.26979	0.083512	0.1486	0.40588	0.043474	0.30066	0.17023	0.14244	0.3084	-2.3479	-2.6	-2.9208	-2.9917	-2.6521	-2.7938	-2.7396	-2.7708	-2.7313	-2.6167	-2.9	-2.6833	-2.5479	-3.0771	-2.6521	-2.8958	152.233	296.513	73.678	59.992	249.985	223.396	295.075	260.609	348.996	247.566	31.545	83.444	50.613	78.172	372.370	363.039	0.00021021	0.00032394	7.1357e-05	1170.7	1.8823e-06	3.5942e-06	1244.6	252.89	2.5189e-06	9.4638e-07	317.69	87.023	68.332	19.729	2.1887e-06	28.333	0.00029333	0.00029276	8.1941e-05	1143	3.2787e-06	3.1829e-06	1219.4	249.83	3.251e-06	3.2095e-06	314.01	87.437	68.439	19.858	3.2346e-06	28.466	185.751	174.820	134.645	38.475	225.115	195.340	38.755	45.660	189.338	50.671	45.295	52.356	53.021	59.264	215.849	58.503	-8191	255	
2453.651	1	1	0	0	0.20493	0.13499	0.16645	0.095891	0.13959	0.36876	0.09531	0.074335	0.23065	0.073933	0.19606	0.23921	0.036046	0.08299	0.22286	0.179	-2.6104	-2.6583	-2.8646	-2.8333	-2.7417	-3.0875	-2.7458	-2.9021	-3.0979	-2.5938	-2.9542	-2.9021	-2.6583	-3.0521	-2.7104	-2.8375	278.300	287.123	379.844	316.875	324.573	218.817	314.071	216.655	34.440	216.727	346.332	325.123	310.237	280.900	188.572	364.266	0.00013113	0.00044662	0.00012245	1163.5	4.678e-06	2.947e-06	1244.3	252.45	3.2798e-06	2.3948e-06	318.31	86.926	68.476	19.827	3.8345e-06	28.316	0.00027743	0.00028267	8.0446e-05	1139.4	3.1928e-06	3.0934e-06	1218.1	249.23	3.1912e-06	3.1065e-06	314.02	87.275	68.544	19.887	3.2625e-06	28.53	193.146	45.564	124.478	38.729	189.021	179.203	38.862	45.879	197.281	226.117	45.500	52.451	52.720	58.950	208.629	58.550	-8191	255	
2453.747	1	1	0	0	0.18441	0.28284	0.064765	0.19992	0.40485	0.22896	0.35373	0.04868	0.23097	0.11028	0.32947	0.44745	0.32476	0.072741	0.20692	0.10101	-2.4292	-2.6417	-2.8417	-3.0458	-2.5312	-2.8563	-2.8167	-2.8271	-2.8854	-2.4479	-2.8667	-2.825	-2.5229	-2.7333	-2.725	-2.7125	304.294	239.392	207.338	350.226	180.045	103.837	345.175	92.190	217.188	84.332	359.376	33.192	274.988	354.855	252.759	73.681	0.00020765	0.000498	9.7935e-05	1173.3	5.028e-06	4.0252e-06	1252.3	253.38	3.2427e-06	1.3513e-06	319.29	87.41	68.795	19.764	3.1823e-06	28.335	0.00029047	0.00029897	8.4211e-05	1146.2	3.3305e-06	3.3001e-06	1226.5	249.85	3.2275e-06	3.2811e-06	314.96	87.75	68.834	19.887	3.2143e-06	28.574	193.738	99.015	166.401	38.501	229.410	214.698	38.657	45.829	193.774	126.820	45.309	52.584	53.188	59.112	188.381	58.538	-8191	255	
2453.866	1	1	0	0	0.066133	0.14851	0.035244	0.16684	0.11741	0.17474	0.21439	0.31951	0.20274	0.22896	0.090614	0.44387	0.22036	0.083958	0.10588	0.22545	-2.4458	-2.4229	-2.7792	-3.0479	-2.5312	-2.9708	-2.9479	-2.8063	-3.0833	-2.7417	-2.8646	-2.85	-2.5875	-2.9042	-2.6604	-2.5792	112.552	345.251	314.557	299.342	220.089	335.353	367.055	311.801	348.847	295.443	359.309	293.415	288.257	282.511	158.135	231.636	0.00020823	0.00036345	9.7623e-05	1173.5	3.2592e-06	8.2145e-07	1253.1	252.36	3.2098e-06	3.0551e-06	318.13	87.893	68.507	19.6	3.147e-06	28.369	0.00028306	0.00029533	8.2602e-05	1148.5	3.2819e-06	3.241e-06	1226.6	250.01	3.3286e-06	3.3485e-06	314.74	87.856	68.756	19.876	3.3584e-06	28.616	185.325	128.453	123.918	38.620	204.135	161.011	38.593	45.771	195.101	298.728	45.204	52.207	52.564	58.683	207.422	58.680	-8191	255	
2453.938	1	1	0	0	0.11941	0.095713	0.10379	0.2249	0.11186	0.22534	0.34603	0.092069	0.11606	0.12254	0.14847	0.18006	0.11664	0.071771	0.21515	0.15387	-2.5229	-2.7062	-2.7208	-3.0521	-2.5083	-2.8229	-3.1271	-2.7875	-3	-2.9396	-2.8333	-3.0854	-2.5458	-2.8292	-2.8563	-2.6958	89.102	302.533	41.457	40.691	114.109	30.954	315.263	142.355	319.935	346.387	382.863	372.271	132.586	65.034	290.313	40.978	0.00018	0.00028001	4.7712e-05	1174.6	4.0859e-06	2.1052e-06	1253.6	253.18	1.7675e-06	3.9637e-06	319.14	87.434	68.522	19.691	2.4402e-06	28.4	0.00029058	0.00030242	8.3869e-05	1151.2	3.3613e-06	3.2918e-06	1228	250.8	3.3772e-06	3.3397e-06	315.43	87.855	68.797	19.94	3.2909e-06	28.61	178.119	115.061	51.691	38.810	199.017	139.787	38.771	45.671	229.549	208.974	45.230	52.435	52.725	58.906	201.495	58.498	-8191	255	
2454.034	1	1	0	0	0.03787	0.11773	0.21174	0.30359	0.21027	0.18489	0.10348	0.19688	0.28059	0.090263	0.20536	0.13996	0.16535	0.083248	0.13427	0.17402	-2.3104	-2.5396	-2.7021	-3.1833	-2.6479	-2.8812	-2.8708	-2.7875	-2.9875	-2.7083	-2.85	-3.125	-2.7167	-2.7979	-2.8604	-2.7771	384.239	195.296	228.613	341.740	184.644	273.501	172.661	319.269	203.590	91.073	351.625	316.574	39.913	312.451	198.486	295.584	0.00019852	0.00067404	9.1531e-05	1176.9	4.3535e-06	6.2684e-07	1253.2	254.5	4.4894e-06	1.8043e-06	316.95	87.12	68.956	19.844	3.1949e-06	28.315	0.00029098	0.00030095	8.2498e-05	1150.1	3.3553e-06	3.2762e-06	1227.6	250.67	3.2686e-06	3.2648e-06	314.17	87.551	68.83	19.919	3.2807e-06	28.609	184.428	181.384	59.897	38.631	183.558	138.220	38.755	45.623	224.201	186.901	45.263	52.429	53.151	59.072	146.471	58.303	-8191	255	
2454.154	1	1	0	0	0.05854	0.15822	0.12064	0.12206	0.22193	0.2347	0.28645	0.20374	0.17178	0.13915	0.1219	0.12974	0.16303	0.034811	0.18625	0.32796	-2.5938	-2.7417	-2.4875	-3.1063	-2.8063	-3.0021	-3.1437	-2.6208	-2.8583	-2.9458	-2.6063	-2.9833	-2.6208	-2.7771	-2.9583	-2.6896	83.536	37.292	320.855	48.273	121.663	189.998	326.987	320.397	264.377	122.565	370.625	148.822	162.932	263.565	91.771	323.473	0.00019332	0.00025068	2.2449e-05	1177.9	3.9929e-06	2.3369e-06	1252.9	254.2	3.9529e-06	3.6434e-06	319.29	87.11	68.286	19.652	3.3714e-06	28.504	0.00029163	0.00029527	8.2788e-05	1150	3.3211e-06	3.2588e-06	1226.5	250.62	3.417e-06	3.3011e-06	314.77	87.735	68.606	19.904	3.2864e-06	28.61	187.515	33.918	91.233	38.539	263.535	275.015	38.852	45.613	213.033	250.002	45.235	52.521	52.923	59.074	186.067	58.549	-8191	255	
2454.250	1	1	0	0	0.086963	0.16773	0.11252	0.34948	0.060253	0.24428	0.20589	0.25141	0.14509	0.14736	0.14987	0.13432	0.051518	0.33379	0.32983	0.14341	-2.4167	-2.75	-2.6354	-2.8729	-2.8125	-2.8167	-3.1542	-2.7208	-2.8625	-2.925	-2.6708	-3.1021	-2.8042	-2.7812	-2.9292	-2.8729	217.797	109.714	45.128	81.330	55.732	127.826	333.682	284.270	358.906	89.318	326.278	348.304	350.890	311.235	53.602	78.794	0.00018494	0.00050501	4.5366e-05	1174.6	4.5056e-06	2.194e-06	1254	252.46	3.4759e-06	1.8407e-06	318.39	87.863	68.607	19.77	2.0747e-06	28.421	0.0002909	0.00029638	8.0966e-05	1148.8	3.2471e-06	3.1437e-06	1227.4	250.18	3.1979e-06	3.1201e-06	314.67	87.735	68.821	19.893	3.1377e-06	28.546	187.034	131.499	76.185	38.675	233.227	174.677	38.905	46.021	225.468	149.678	45.367	52.280	52.881	59.591	197.049	58.575	-8191	255	
2454.347	1	1	0	0	0.050233	0.16571	0.12533	0.14599	0.23532	0.14139	0.38346	0.285	0.23205	0.064643	0.30366	0.22967	0.029303	0.22449	0.23978	0.090373	-2.4708	-2.8521	-2.5687	-3.0438	-2.7333	-2.5938	-3.0771	-2.85	-2.7333	-2.9417	-2.7875	-3.05	-2.55	-2.7771	-2.8708	-2.6958	315.977	209.458	78.347	238.075	66.635	125.800	315.301	331.178	250.064	197.538	300.420	127.302	320.876	42.501	252.203	277.656	0.000175	0.0004515	7.2492e-05	1171.8	4.0932e-06	5.1738e-06	1254.7	253.61	2.9572e-06	2.285e-06	319.48	87.07	68.57	19.631	2.1439e-06	28.49	0.00027192	0.00027931	7.747e-05	1145.4	3.0844e-06	3.1272e-06	1223.3	249.84	3.1567e-06	2.9986e-06	314.01	87.495	68.531	19.829	3.1934e-06	28.509	186.810	129.420	56.466	38.636	187.948	183.661	38.817	45.895	286.911	192.428	45.263	52.252	52.697	59.060	216.928	58.502	-8191	255	
2454.443	1	1	0	0	0.23851	0.26063	0.10518	0.14517	0.0050903	0.11969	0.147	0.077041	0.2102	0.28136	0.074778	0.077242	0.099275	0.23492	0.21206	0.081579	-2.4646	-2.8854	-2.5833	-3.1875	-2.6604	-2.6917	-2.9417	-2.6813	-2.7938	-2.9979	-2.6729	-3.1292	-2.825	-2.4313	-3.0875	-2.5375	333.877	369.584	287.388	289.461	117.801	160.169	256.422	326.992	342.043	168.971	58.765	195.742	65.155	52.362	365.836	308.208	0.00018732	4.8739e-05	8.9256e-05	1172	2.8988e-06	3.1751e-06	1256.1	252.75	3.1294e-06	6.1498e-06	317.09	87.483	68.785	19.754	7.0509e-07	28.426	0.00028117	0.00029382	8.0506e-05	1147.6	3.2722e-06	3.2269e-06	1229	249.93	3.2684e-06	3.1869e-06	314.39	87.768	68.743	19.862	3.1661e-06	28.527	188.512	366.375	113.469	38.732	230.149	110.057	38.752	45.743	212.464	225.340	45.303	52.345	52.867	58.939	273.610	58.731	-8191	255	
2454.539	1	1	0	0	0.25258	0.20617	0.14488	0.25521	0.23229	0.10573	0.31271	0.048621	0.13815	0.07423	0.2786	0.070223	0.10302	0.2612	0.059998	0.24089	-2.2583	-2.7958	-2.6146	-2.9417	-2.8667	-2.5667	-3.0062	-2.875	-2.6271	-3.1021	-2.6562	-2.8958	-2.8479	-2.6	-2.95	-2.7687	102.848	85.694	40.261	339.559	106.094	216.980	316.495	61.643	86.906	132.276	344.251	53.735	83.785	129.077	216.545	326.063	0.00018369	0.00018012	4.9247e-05	1170.7	3.4593e-06	6.4258e-06	1247.9	251.59	2.6255e-06	3.4928e-06	318.84	87.317	68.675	19.696	3.6008e-06	28.488	0.00028473	0.00029168	8.0847e-05	1146.4	3.1671e-06	3.1625e-06	1224.1	249.37	3.1846e-06	3.1322e-06	314.08	87.607	68.74	19.884	3.1623e-06	28.569	179.100	239.706	216.625	38.629	235.584	153.984	39.040	45.634	239.760	253.946	44.989	52.126	52.447	58.929	205.489	58.627	-8191	255	
2454.635	1	1	0	0	0.089675	0.14984	0.1112	0.15166	0.30262	0.19437	0.068204	0.21324	0.10677	0.25227	0.24048	0.21932	0.16093	0.074133	0.21149	0.084365	-2.3833	-2.9562	-2.6667	-2.9792	-2.9417	-2.6708	-3.0687	-3.0875	-2.7146	-2.9458	-2.9313	-2.8208	-3.0312	-2.55	-2.8542	-2.8854	70.558	128.604	76.170	357.771	371.399	193.240	325.882	377.671	289.878	208.684	172.955	48.872	291.050	66.079	339.444	306.595	0.00019672	9.9279e-05	9.2715e-05	1173	5.2238e-06	4.45e-06	1250.8	253.57	3.2657e-06	8.111e-07	318.98	86.529	68.787	19.793	2.3505e-06	28.367	0.00028357	0.00028966	8.2946e-05	1148.3	3.2853e-06	3.3024e-06	1226	250.29	3.3219e-06	3.2531e-06	314.86	87.515	68.87	19.92	3.3642e-06	28.582	186.845	84.565	152.748	38.757	233.560	126.937	38.739	46.011	194.354	179.895	45.268	52.373	52.607	58.885	218.181	58.732	-8191	255	
2454.731	1	1	0	0	0.27618	0.059783	0.32915	0.078031	0.13995	0.042652	0.18912	0.11449	0.20222	0.12137	0.33348	0.15426	0.1554	0.27567	0.078967	0.059221	-2.2458	-2.9729	-2.5396	-2.9062	-2.9833	-2.8083	-3.075	-2.8792	-2.7333	-2.8604	-2.7438	-2.8937	-2.8333	-2.7146	-2.7042	-2.8042	50.418	70.314	321.742	68.405	321.817	116.244	305.369	319.102	31.197	191.588	111.461	98.809	371.763	276.448	71.884	375.546	0.00018092	0.00013051	0.00020143	1177.4	1.7246e-06	9.0877e-07	1253.5	254.2	2.5601e-06	6.0286e-06	318.99	87.48	68.677	19.71	2.3734e-06	28.587	0.00029931	0.00030899	8.7833e-05	1150.4	3.375e-06	3.382e-06	1227.9	250.89	3.3642e-06	3.3654e-06	314.89	87.771	68.831	19.915	3.2349e-06	28.622	184.855	356.180	100.348	38.548	252.240	33.409	38.652	45.837	173.466	171.560	45.249	52.627	52.857	58.896	223.566	58.627	-8191	255	
2454.827	1	1	0	0	0.083982	0.07103	0.20961	0.19699	0.25332	0.069427	0.23364	0.16891	0.1824	0.15115	0.2523	0.17815	0.11162	0.14277	0.15465	0.16533	-2.1	-2.9604	-2.6437	-2.9042	-2.8521	-2.7708	-3.0708	-2.8979	-2.7167	-2.9208	-2.9708	-2.7	-2.9938	-2.7687	-2.8917	-2.9708	159.435	118.342	73.016	307.310	281.664	140.983	313.167	285.099	317.130	192.207	45.018	51.117	323.274	85.954	261.999	193.265	0.00017055	0.00039781	0.00017534	1174.6	3.8926e-06	3.0481e-06	1254.9	253.73	2.8007e-06	5.8346e-06	319.75	87.813	68.453	19.623	7.6275e-07	28.413	0.00028571	0.00029416	8.2402e-05	1148.3	3.2359e-06	3.2531e-06	1228.8	250.66	3.2818e-06	3.2728e-06	314.82	87.9	68.809	19.869	3.4248e-06	28.628	185.026	111.190	124.822	38.491	222.390	191.945	38.783	45.754	241.912	212.565	45.021	52.284	52.768	58.672	360.929	58.252	-8191	255	
2454.946	1	1	0	0	0.1985	0.14562	0.082668	0.15843	0.067513	0.14898	0.17953	0.10019	0.11887	0.14528	0.097004	0.18252	0.045289	0.052796	0.26065	0.17468	-2.1958	-2.8875	-2.6854	-2.9396	-2.9208	-2.8146	-2.9688	-3.0687	-2.3917	-2.9208	-2.8708	-2.6521	-2.9542	-2.6104	-2.7417	-2.9729	65.956	196.778	138.064	336.567	311.971	373.756	112.505	219.036	236.996	260.033	146.187	328.021	307.001	215.359	237.529	71.951	0.00018892	0.00034776	7.357e-05	1182.5	4.3287e-06	4.1394e-06	1260.7	253.88	2.01e-06	2.1677e-06	319.97	88.125	68.818	19.88	2.9449e-06	28.581	0.00030395	0.00031077	8.7212e-05	1155.6	3.4972e-06	3.4073e-06	1235.5	251.25	3.4685e-06	3.5416e-06	316.54	88.164	69.33	20.055	3.5638e-06	28.691	189.537	90.728	100.339	38.754	220.896	162.018	38.727	45.521	201.653	175.783	45.155	52.347	53.117	59.271	34.571	58.363	-8191	255	
2455.042	1	1	0	0	0.010476	0.081572	0.073059	0.20866	0.12409	0.12416	0.32383	0.13827	0.2046	0.19008	0.24468	0.13629	0.17425	0.14244	0.21102	0.035986	-2.1542	-2.6813	-2.8208	-2.7958	-3.0125	-2.8021	-2.7875	-3.0875	-2.6875	-2.8042	-3.0792	-2.8167	-2.9958	-2.8542	-2.8104	-3.1375	331.772	301.727	82.446	78.773	231.379	221.005	356.990	246.657	43.577	324.749	385.124	242.325	386.942	366.684	159.192	329.939	0.00017014	0.00049924	0.00021136	1190.3	2.0941e-06	3.2368e-06	1267.6	255.26	5.2538e-06	7.849e-07	320.33	87.667	68.939	19.885	1.8147e-06	28.837	0.00031555	0.00032284	8.9791e-05	1162.6	3.5506e-06	3.5462e-06	1239.5	252.48	3.536e-06	3.5731e-06	316.97	88.295	69.439	20.056	3.4329e-06	28.836	186.366	123.675	112.091	38.659	205.038	102.092	38.706	45.692	196.869	143.099	45.390	52.264	52.665	59.119	147.566	58.460	-8191	255	
2455.139	1	1	0	0	0.15391	0.19455	0.20851	0.16833	0.17949	0.14315	0.30297	0.24336	0.1967	0.33422	0.1693	0.16187	0.078943	0.30497	0.070491	0.15646	-2.3271	-2.8979	-2.9479	-2.7229	-2.9354	-2.7833	-2.7917	-2.9958	-2.5646	-2.7208	-2.9354	-2.55	-2.9437	-2.8271	-2.8104	-3.0958	291.082	211.242	80.756	29.499	361.903	101.374	327.951	272.572	146.566	76.999	276.419	357.255	41.112	261.829	252.916	157.917	0.00016687	0.00015997	2.7912e-05	1190.8	2.456e-06	4.2442e-06	1266.6	255.39	2.7284e-06	5.2201e-06	321.86	88.41	69.569	19.938	5.3722e-06	28.602	0.00030595	0.00032091	9.1794e-05	1165.5	3.6749e-06	3.6546e-06	1242.9	252.8	3.7814e-06	3.7587e-06	318.49	88.779	69.954	20.188	3.8639e-06	28.881	185.298	128.437	133.860	38.653	204.746	159.916	38.544	45.857	197.013	175.867	45.504	52.231	52.453	58.623	199.280	58.364	-8191	255	
2455.235	1	1	0	0	0.075055	0.19395	0.10808	0.25514	0.22132	0.15873	0.21769	0.081279	0.081934	0.21215	0.052806	0.27431	0.12583	0.10706	0.21899	0.11882	-2.1854	-2.9458	-2.9167	-2.8604	-2.7562	-2.8354	-2.7687	-3.0208	-2.7125	-2.8958	-2.9917	-2.6063	-3.0396	-2.9229	-2.6937	-2.9417	276.992	210.631	348.253	304.992	234.906	287.200	269.667	129.456	230.634	73.077	385.488	299.501	266.477	85.216	67.652	124.070	0.00016045	0.00020013	0.00015273	1200.2	6.3889e-06	1.9211e-06	1282.3	257.19	2.4729e-06	4.1815e-06	323.62	88.414	69.121	20.029	3.5938e-06	28.719	0.00033433	0.00035078	9.7096e-05	1173.1	3.9131e-06	3.9187e-06	1252.3	254.65	3.9586e-06	3.8438e-06	319.82	89.213	69.977	20.249	3.895e-06	29.094	181.532	125.050	104.785	38.326	160.373	226.860	38.481	45.645	261.531	174.003	44.988	52.646	52.759	58.629	199.959	58.727	-8191	255	
2455.331	1	1	0	0	0.023439	0.22303	0.085167	0.27934	0.15408	0.10221	0.33494	0.28001	0.058293	0.14834	0.24542	0.30847	0.12138	0.06521	0.10805	0.056641	-2.3917	-2.7958	-3.0812	-2.8854	-2.8354	-2.7292	-2.9667	-2.9521	-2.9021	-2.725	-3.0583	-2.7625	-2.725	-2.8479	-2.6292	-3.0563	94.790	254.689	128.110	44.338	73.022	123.629	297.343	343.046	143.100	348.172	327.094	323.285	306.450	336.601	364.979	75.974	0.00019343	0.00037589	0.00013884	1201.9	4.1148e-06	2.888e-06	1278.7	257.61	2.9518e-06	2.2109e-06	323.62	88.992	69.595	20.056	4.1274e-06	28.892	0.00033603	0.00034904	9.6676e-05	1177.3	3.8266e-06	3.8154e-06	1255.2	255.1	3.788e-06	3.8238e-06	320.11	89.199	70.035	20.233	3.6589e-06	29.064	179.505	85.485	98.739	38.543	202.092	212.455	38.649	45.884	193.993	235.033	44.888	52.532	52.736	58.823	233.990	58.288	-8191	255	
2455.427	1	1	0	0	0.21538	0.10153	0.16754	0.1072	0.24074	0.034828	0.20504	0.15204	0.22501	0.096932	0.31304	0.21876	0.22407	0.15093	0.20883	0.25899	-2.3125	-2.6625	-2.7917	-2.8625	-2.9062	-2.8833	-2.6021	-3.1125	-2.8458	-2.6292	-3.0292	-2.7125	-2.6937	-2.9104	-2.7146	-2.9896	371.893	29.087	171.518	300.339	78.469	381.855	304.811	202.440	298.957	198.610	331.207	328.011	329.230	380.662	53.052	374.808	0.00017019	0.0004807	0.00018157	1206.6	6.0569e-07	2.8386e-06	1279.4	256.7	2.4035e-06	8.9164e-07	324.06	88.433	69.926	20.1	2.6245e-06	28.765	0.00032146	0.00033114	9.2534e-05	1175.7	3.6198e-06	3.6135e-06	1252.9	254.39	3.5759e-06	3.7327e-06	320.32	89.057	70.181	20.247	3.6976e-06	29.006	177.567	76.339	155.370	38.671	210.821	192.927	38.813	45.594	213.701	374.217	45.276	52.323	52.768	58.855	255.241	58.245	-8191	255	
2455.548	1	1	0	0	0.35222	0.22295	0.065379	0.12976	0.16908	0.12441	0.16208	0.047675	0.10283	0.088141	0.079131	0.046718	0.15283	0.13424	0.093314	0.1626	-2.3063	-2.6542	-3.1146	-2.9333	-2.8021	-2.8979	-2.7833	-3.0563	-2.7687	-2.7188	-3.2062	-2.6688	-2.7458	-3.1042	-2.5062	-2.8792	215.522	221.124	295.176	339.352	69.076	83.545	315.150	257.183	368.409	227.363	346.646	290.074	239.940	306.235	132.786	307.717	0.00017023	0.00032093	8.1186e-05	1206.7	5.3932e-06	3.064e-06	1286.9	258.12	2.9327e-06	3.9143e-06	325.57	88.588	70.01	20.059	3.1147e-06	28.935	0.0003212	0.00033604	9.2715e-05	1179.5	3.7115e-06	3.6212e-06	1259.4	255.28	3.6449e-06	3.6624e-06	320.2	89.199	70.343	20.242	3.7639e-06	29.085	183.950	385.562	128.512	38.347	206.473	194.840	38.870	45.690	169.363	197.409	45.050	52.408	52.526	58.789	198.429	58.543	-8191	255	
2455.642	1	1	0	0	0.025318	0.10783	0.16219	0.057304	0.073574	0.085955	0.39794	0.30728	0.18556	0.20089	0.1783	0.075351	0.18976	0.10998	0.18175	0.094149	-2.2812	-2.6167	-2.9146	-2.8937	-2.7104	-2.9062	-2.8396	-2.9125	-2.8187	-2.6312	-2.9688	-2.7812	-2.5812	-3.0979	-2.6312	-3.0083	152.493	376.539	133.622	287.390	223.053	235.020	335.905	318.202	290.940	282.970	48.443	188.793	179.488	84.165	340.462	241.502	0.0001688	0.00074947	0.00018123	1205.5	4.0072e-06	4.8345e-06	1284.1	258.38	1.9208e-06	1.3296e-06	325.94	88.694	70.094	20.028	4.6152e-06	28.818	0.00032304	0.00034331	9.5198e-05	1180.7	3.7943e-06	3.7137e-06	1258.3	255.62	3.7501e-06	3.7619e-06	320.69	89.362	70.56	20.335	3.8734e-06	29.205	179.734	118.862	118.356	38.420	228.326	226.844	38.901	45.882	227.673	235.111	45.117	52.579	52.500	58.992	164.932	58.562	-8191	255	
2455.738	1	1	0	0	0.29658	0.16677	0.19038	0.14187	0.083052	0.27883	0.093269	0.32391	0.2177	0.13917	0.12568	0.17282	0.13252	0.3626	0.19071	0.12962	-2.5417	-2.5708	-2.7771	-2.9	-2.7438	-3.1	-2.7958	-2.9583	-3.0125	-2.4562	-2.9688	-2.8667	-2.6521	-3.0896	-2.4729	-2.7854	312.693	180.236	212.370	303.054	311.533	322.705	300.521	342.911	88.293	350.695	309.190	288.264	275.700	77.150	330.283	190.186	0.00015925	0.00026647	0.00012178	1214.8	9.676e-06	4.8664e-06	1296.1	257.82	2.2135e-06	3.2734e-06	326.86	89.901	70.46	20.213	3.1783e-06	29.03	0.00034113	0.00035563	0.00010023	1187.3	4.0188e-06	3.9654e-06	1268.6	256.53	4.0716e-06	4.1792e-06	322.75	90.308	71.398	20.522	4.199e-06	29.355	183.968	82.415	100.158	38.773	199.153	193.220	38.705	45.708	181.555	205.834	45.318	52.247	52.831	58.861	236.821	58.115	-8191	255	
2455.836	1	1	0	0	0.24352	0.25827	0.27549	0.18763	0.21175	0.042133	0.24273	0.17439	0.088872	0.22766	0.2324	0.16239	0.10896	0.12353	0.10536	0.12849	-2.5458	-2.4146	-2.9146	-2.8292	-2.5333	-2.9125	-2.9333	-2.9271	-2.7708	-2.675	-3.1417	-2.9021	-2.8375	-2.8812	-2.675	-2.7625	335.899	66.607	175.806	116.761	221.238	48.117	300.741	48.813	87.337	309.539	326.912	298.007	334.377	78.791	34.815	231.647	0.00021747	0.00073001	9.8896e-05	1223.6	4.9321e-06	1.8421e-06	1302.8	260.27	3.4551e-06	3.6989e-06	328.23	89.909	70.53	20.157	3.7643e-06	29.082	0.00036542	0.00038708	0.00010773	1198.2	4.2436e-06	4.232e-06	1278.5	258.4	4.2882e-06	4.2804e-06	323.79	90.297	71.267	20.499	4.2078e-06	29.501	190.983	111.649	151.561	38.557	249.824	277.639	38.726	45.449	200.027	199.585	45.160	52.170	52.500	58.743	190.308	58.612	-8191	255	
2455.930	1	1	0	0	0.04931	0.08174	0.11004	0.049703	0.067911	0.060867	0.21577	0.17229	0.18625	0.24747	0.1481	0.18747	0.17901	0.17525	0.19572	0.18645	-2.5625	-2.6854	-2.7354	-3.0312	-2.7687	-2.8604	-2.9375	-2.8771	-2.9083	-2.7917	-3.0292	-2.9479	-2.375	-3.1583	-2.7417	-2.7604	311.048	325.163	56.681	336.673	218.764	187.880	343.456	359.354	375.077	170.380	329.955	254.037	241.047	251.553	323.439	270.820	0.00022323	2.5361e-05	0.0001718	1224.8	3.8135e-06	4.9695e-06	1295	260.55	2.5775e-06	2.3565e-06	326.92	90.033	71.263	20.285	4.8902e-06	29.267	0.00035905	0.00037627	0.00010517	1196.8	4.1923e-06	4.196e-06	1274.3	258.68	4.1759e-06	4.1792e-06	323.47	90.438	71.363	20.524	4.1817e-06	29.37	186.931	276.860	100.253	38.358	216.020	193.071	38.779	45.668	235.085	178.306	45.081	52.103	52.510	58.684	214.105	58.621	-8191	255	
2456.027	1	1	0	0	0.13618	0.33622	0.13618	0.19289	0.2088	0.23612	0.22454	0.40901	0.11339	0.31521	0.035764	0.11466	0.24124	0.2143	0.11334	0.27415	-2.5104	-2.6167	-2.6292	-2.9104	-2.55	-2.8875	-3.0542	-2.8792	-2.9042	-2.8042	-2.6833	-2.8021	-2.6604	-2.8458	-2.6104	-2.725	307.330	43.764	252.147	259.315	130.802	120.984	345.130	275.650	204.919	115.692	147.751	160.806	329.006	366.947	344.517	332.379	0.00019215	0.00055076	0.00011567	1226.8	4.0325e-06	4.0816e-06	1303.6	262.15	1.875e-06	8.0113e-06	326.79	89.934	70.232	20.476	5.5655e-06	29.173	0.00036443	0.0003792	0.00010536	1198.6	4.2119e-06	4.1917e-06	1277.1	258.86	4.162e-06	4.2323e-06	323.65	90.394	71.365	20.602	4.1212e-06	29.431	194.107	387.257	62.950	38.383	249.788	69.874	38.699	45.577	284.656	204.315	45.159	52.417	52.270	58.668	166.341	58.624	-8191	255	
2456.123	1	1	0	0	0.0863	0.046519	0.14682	0.26823	0.13071	0.035905	0.18024	0.31116	0.28051	0.27494	0.29882	0.12883	0.2112	0.0017008	0.24822	0.19019	-2.675	-2.6104	-2.7542	-3.0417	-2.5438	-2.875	-2.9875	-2.5875	-2.9437	-2.6604	-2.7	-2.9938	-2.5687	-3.0396	-2.9938	-2.7021	363.893	191.279	276.489	71.575	91.462	291.075	336.704	325.577	57.778	274.054	32.883	106.787	92.735	180.000	267.225	318.739	0.00017727	0.00021092	0.00015609	1226.6	5.4551e-06	3.7173e-06	1298.3	260.91	4.9032e-06	2.6568e-06	326.65	90.034	70.562	20.233	4.1638e-06	29.064	0.00035787	0.00037587	0.00010392	1198.5	4.0957e-06	4.0631e-06	1273.9	258.28	3.9726e-06	4.0491e-06	323.46	90.407	71.262	20.493	3.9699e-06	29.344	169.662	352.409	125.472	38.483	220.360	190.997	38.557	45.427	162.111	102.465	45.240	52.350	52.776	58.334	162.593	58.321	-8191	255	
2456.243	1	1	0	0	0.21685	0.13261	0.075891	0.16254	0.13061	0.17941	0.20827	0.089668	0.23667	0.17706	0.14767	0.040918	0.058508	0.22665	0.12798	0.27228	-2.3563	-2.7146	-2.4646	-2.9083	-2.7583	-2.8208	-3.1521	-2.9188	-2.9125	-2.8292	-2.7854	-3.1229	-2.825	-2.8333	-3.075	-2.7667	210.238	309.116	58.213	131.603	56.002	223.409	270.737	149.267	89.633	341.992	222.495	58.958	283.934	299.576	311.023	186.738	0.00017863	0.00073282	0.00012955	1223	2.7509e-06	2.9206e-06	1301.6	261.3	3.7902e-06	2.5452e-06	327.93	89.629	70.393	20.254	3.1874e-06	28.791	0.00035158	0.0003692	0.00010409	1196.3	4.0278e-06	4.0186e-06	1273.8	258.78	4.099e-06	4.1041e-06	323.51	90.278	71.266	20.553	4.1105e-06	29.325	173.265	82.415	161.994	38.436	203.823	146.826	38.540	45.542	139.706	125.451	45.186	52.131	52.053	59.139	193.453	58.408	-8191	255	
2456.340	1	1	0	0	0.18949	0.23344	0.12921	0.15943	0.0081796	0.14958	0.019372	0.28009	0.16575	0.084578	0.10679	0.076237	0.27639	0.17321	0.12584	0.029408	-2.6813	-2.875	-2.6917	-3.25	-2.6771	-2.6958	-3.1021	-2.7812	-3.0292	-2.7479	-2.7708	-3.1063	-2.8104	-2.9583	-3.0708	-2.7646	186.294	152.199	310.908	336.319	72.578	258.514	69.240	348.840	68.903	101.906	325.269	38.639	176.262	318.999	232.632	367.536	0.0001899	0.00033876	0.00019514	1224.4	3.2904e-06	2.8392e-06	1306.5	260.89	3.8394e-06	3.242e-06	327.95	89.913	70.894	20.283	6.7674e-06	29.081	0.00035512	0.00036381	0.00010187	1198.1	4.0626e-06	4.015e-06	1278.3	258.82	4.102e-06	3.9993e-06	324.2	90.489	71.49	20.527	4.0262e-06	29.417	188.076	156.076	150.522	38.367	243.645	212.927	38.438	45.658	173.979	207.153	45.378	52.438	52.535	58.969	162.902	58.830	-8191	255	
2456.411	1	1	0	0	0.095694	0.22831	0.19899	0.3164	0.28084	0.13938	0.15374	0.1955	0.19721	0.092928	0.13282	0.27921	0.084244	0.038823	0.03622	0.06786	-2.5375	-2.7687	-2.4167	-3.0479	-2.8354	-2.7042	-3.1813	-2.9125	-2.8708	-3.0083	-2.7396	-3.1979	-2.7438	-2.9688	-2.7812	-2.8917	362.705	276.526	65.233	320.072	199.248	90.768	322.738	245.156	68.173	148.870	302.386	260.360	238.440	216.318	94.108	293.797	0.00018277	0.00015086	0.00013734	1230.8	4.2911e-06	3.0859e-06	1307.7	262.25	3.9377e-06	5.3004e-06	328.13	90.164	70.699	20.316	1.3979e-06	29.12	0.0003502	0.00036646	0.00010422	1201.6	4.0313e-06	4.0174e-06	1279.8	259.04	4.0319e-06	4.0254e-06	323.44	90.39	71.317	20.555	3.9808e-06	29.36	186.165	144.072	127.331	38.645	214.929	273.621	38.628	45.454	215.827	225.658	45.256	52.139	52.677	58.858	180.331	58.262	-8191	255	
2456.507	1	1	0	0	0.048881	0.21611	0.22954	0.15643	0.17581	0.15807	0.31075	0.26081	0.1128	0.12753	0.17254	0.11964	0.11853	0.34768	0.11505	0.17604	-2.325	-2.9854	-2.7458	-3.1146	-2.9208	-2.775	-3.2562	-3.0146	-2.8917	-2.9958	-2.7687	-3.0271	-2.8563	-2.7875	-3.0271	-2.8917	372.860	290.425	230.453	378.359	218.819	51.833	380.450	314.644	146.335	137.792	34.842	341.150	122.796	68.030	332.035	293.106	0.00018304	0.00078756	0.00013737	1222.2	5.8007e-06	1.9137e-06	1306.5	261.54	2.8049e-06	1.5375e-06	327.43	90.364	70.921	20.324	4.4244e-06	28.98	0.00035667	0.00036852	0.00010313	1199.4	4.0773e-06	3.989e-06	1279	259.17	4.1067e-06	4.1147e-06	323.66	90.647	71.53	20.525	4.0682e-06	29.368	190.070	93.624	125.022	38.543	203.016	369.554	38.593	45.432	213.098	191.174	45.179	52.150	52.661	58.608	189.036	58.169	-8191	255	
#DATA ENDS
