BOXY.EXE: ISS Imagent and Oximeter Data Acquisition Program Version 0.80
Ascii Record File

#ACQ INFORMATION
2  Detector Channels 
16  External MUX Channels 
1  Auxiliary Channels 
5000  Waveform (CCF) Frequency (Hz)
1  Waveforms Skipped 
30  Waveforms Averaged 
1  Cycles Averaged 
16  Acquisitions per Waveform 
10.0806  Updata Rate (Hz) 

#FILE INFORMATION
TRUE -- External MUX Channel results are PARSED.
FALSE -- AC DC and Phase are NOT grouped.
TRUE -- Companion Program Settings File CREATED.
FALSE -- AC data not excluded
FALSE -- DC data not excluded
FALSE -- Phase data not excluded
FALSE -- Auxillary Chn. data not excluded
Tab delimiters

#CALIBRATION STATE
TRUE -- Waveform Calibration Values APPLIED.


#AUX CALIBRATION VALUES
Val Type	aux-1	

Term	1.0000e+00	
Factor	0.0000e+00	


#WF CALIBRATION VALUES
A = Detector Channel
Val Type	A-AC1	A-AC2	A-AC3	A-AC4	A-AC5	A-AC6	A-AC7	A-AC8	A-AC9	A-AC10	A-AC11	A-AC12	A-AC13	A-AC14	A-AC15	A-AC16	A-DC1	A-DC2	A-DC3	A-DC4	A-DC5	A-DC6	A-DC7	A-DC8	A-DC9	A-DC10	A-DC11	A-DC12	A-DC13	A-DC14	A-DC15	A-DC16	A-Ph1	A-Ph2	A-Ph3	A-Ph4	A-Ph5	A-Ph6	A-Ph7	A-Ph8	A-Ph9	A-Ph10	A-Ph11	A-Ph12	A-Ph13	A-Ph14	A-Ph15	A-Ph16	

Term	0.00000e+00	0.00000e+00	0.00000e+00	0.00000e+00	0.00000e+00	0.00000e+00	0.00000e+00	0.00000e+00	0.00000e+00	0.00000e+00	0.00000e+00	0.00000e+00	0.00000e+00	0.00000e+00	0.00000e+00	0.00000e+00	0.00000e+00	0.00000e+00	0.00000e+00	0.00000e+00	0.00000e+00	0.00000e+00	0.00000e+00	0.00000e+00	0.00000e+00	0.00000e+00	0.00000e+00	0.00000e+00	0.00000e+00	0.00000e+00	0.00000e+00	0.00000e+00	0.00000e+00	0.00000e+00	0.00000e+00	0.00000e+00	0.00000e+00	0.00000e+00	0.00000e+00	0.00000e+00	0.00000e+00	0.00000e+00	0.00000e+00	0.00000e+00	0.00000e+00	0.00000e+00	0.00000e+00	0.00000e+00	
Factor	1.00000e+00	1.00000e+00	1.00000e+00	1.00000e+00	1.00000e+00	1.00000e+00	1.00000e+00	1.00000e+00	1.00000e+00	1.00000e+00	1.00000e+00	1.00000e+00	1.00000e+00	1.00000e+00	1.00000e+00	1.00000e+00	1.00000e+00	1.00000e+00	1.00000e+00	1.00000e+00	1.00000e+00	1.00000e+00	1.00000e+00	1.00000e+00	1.00000e+00	1.00000e+00	1.00000e+00	1.00000e+00	1.00000e+00	1.00000e+00	1.00000e+00	1.00000e+00	X	X	X	X	X	X	X	X	X	X	X	X	X	X	X	X	

B = Detector Channel
Val Type	B-AC1	B-AC2	B-AC3	B-AC4	B-AC5	B-AC6	B-AC7	B-AC8	B-AC9	B-AC10	B-AC11	B-AC12	B-AC13	B-AC14	B-AC15	B-AC16	B-DC1	B-DC2	B-DC3	B-DC4	B-DC5	B-DC6	B-DC7	B-DC8	B-DC9	B-DC10	B-DC11	B-DC12	B-DC13	B-DC14	B-DC15	B-DC16	B-Ph1	B-Ph2	B-Ph3	B-Ph4	B-Ph5	B-Ph6	B-Ph7	B-Ph8	B-Ph9	B-Ph10	B-Ph11	B-Ph12	B-Ph13	B-Ph14	B-Ph15	B-Ph16	

Term	0.00000e+00	0.00000e+00	0.00000e+00	0.00000e+00	0.00000e+00	0.00000e+00	0.00000e+00	0.00000e+00	0.00000e+00	0.00000e+00	0.00000e+00	0.00000e+00	0.00000e+00	0.00000e+00	0.00000e+00	0.00000e+00	0.00000e+00	0.00000e+00	0.00000e+00	0.00000e+00	0.00000e+00	0.00000e+00	0.00000e+00	0.00000e+00	0.00000e+00	0.00000e+00	0.00000e+00	0.00000e+00	0.00000e+00	0.00000e+00	0.00000e+00	0.00000e+00	-9.99014e+01	-1.28059e+02	-1.24292e+02	-1.80815e+02	-5.64162e+01	-6.70400e+01	-1.57141e+02	-1.62015e+02	-5.78422e+01	-6.46554e+01	-1.71605e+02	-1.71581e+02	-1.83471e+02	-1.76929e+02	-6.31455e+01	-1.49760e+02	
Factor	1.57090e-05	1.56009e-04	4.31416e-05	1.49598e-01	1.26044e-06	1.72627e-06	1.55617e-01	4.50887e-02	1.02207e-06	1.73542e-06	7.47621e-02	2.92882e-02	3.47003e-02	8.87559e-03	1.34979e-06	1.27559e-02	1.64394e-05	5.02448e-05	1.40396e-05	7.54145e-02	4.32544e-07	5.76823e-07	7.39352e-02	2.29014e-02	4.22910e-07	5.74600e-07	3.67841e-02	1.45451e-02	1.77443e-02	4.53651e-03	4.81585e-07	6.33307e-03	X	X	X	X	X	X	X	X	X	X	X	X	X	X	X	X	



#DISTANCE SETTINGS
A = Detector Channel
A-1	A-2	A-3	A-4	A-5	A-6	A-7	A-8	A-9	A-10	A-11	A-12	A-13	A-14	A-15	A-16	

2.5000e+00	3.0000e+00	2.5000e+00	3.0000e+00	2.0000e+00	3.0000e+00	1.5000e+00	3.0000e+00	3.0000e+00	3.0000e+00	3.0000e+00	3.0000e+00	3.0000e+00	3.0000e+00	1.5000e+00	3.0000e+00	

B = Detector Channel
B-1	B-2	B-3	B-4	B-5	B-6	B-7	B-8	B-9	B-10	B-11	B-12	B-13	B-14	B-15	B-16	

1.0000e+01	1.0000e+01	1.0000e+01	1.4400e+00	1.0000e+01	1.0000e+01	1.5100e+00	1.9400e+00	1.0000e+01	1.0000e+01	1.9900e+00	2.4900e+00	2.4100e+00	2.9000e+00	1.0000e+01	2.9800e+00	




#DATA BEGINS
time	group	step	mark	flag	A-AC1	A-AC2	A-AC3	A-AC4	A-AC5	A-AC6	A-AC7	A-AC8	A-AC9	A-AC10	A-AC11	A-AC12	A-AC13	A-AC14	A-AC15	A-AC16	A-DC1	A-DC2	A-DC3	A-DC4	A-DC5	A-DC6	A-DC7	A-DC8	A-DC9	A-DC10	A-DC11	A-DC12	A-DC13	A-DC14	A-DC15	A-DC16	A-Ph1	A-Ph2	A-Ph3	A-Ph4	A-Ph5	A-Ph6	A-Ph7	A-Ph8	A-Ph9	A-Ph10	A-Ph11	A-Ph12	A-Ph13	A-Ph14	A-Ph15	A-Ph16	B-AC1	B-AC2	B-AC3	B-AC4	B-AC5	B-AC6	B-AC7	B-AC8	B-AC9	B-AC10	B-AC11	B-AC12	B-AC13	B-AC14	B-AC15	B-AC16	B-DC1	B-DC2	B-DC3	B-DC4	B-DC5	B-DC6	B-DC7	B-DC8	B-DC9	B-DC10	B-DC11	B-DC12	B-DC13	B-DC14	B-DC15	B-DC16	B-Ph1	B-Ph2	B-Ph3	B-Ph4	B-Ph5	B-Ph6	B-Ph7	B-Ph8	B-Ph9	B-Ph10	B-Ph11	B-Ph12	B-Ph13	B-Ph14	B-Ph15	B-Ph16	aux-1	digaux	

14405.431	1	1	0	768	0.081068	0.28195	0.078767	0.35373	0.1935	0.1352	0.42528	0.32532	0.09078	0.16533	0.10081	0.079203	0.17991	0.22554	0.26286	0.15873	-2.9417	-2.9375	-3.3604	-3.3917	-3.1583	-3.3979	-3.2771	-3.3625	-3.3083	-3.0208	-3.5333	-3.1208	-3.1562	-3.2875	-2.8625	-3.1208	366.107	314.493	309.040	445.310	332.625	517.434	471.266	440.108	416.156	295.782	417.182	183.767	401.418	391.087	265.937	492.213	0.0004871	0.00054834	0.00013329	1361	4.6535e-06	4.9953e-06	1357	367.1	4.939e-06	5.0537e-06	421.54	140.65	121.74	42.061	4.2544e-06	52.085	0.00053137	0.00056525	0.00014867	1375.4	6.2575e-06	5.9076e-06	1374.9	373.75	6.2089e-06	6.068e-06	427.83	143.74	124.64	43.097	5.9907e-06	53.317	221.088	248.397	260.862	175.485	308.085	300.995	175.360	179.989	300.425	311.837	179.724	183.748	184.055	188.951	303.147	188.230	-8191	255	
14405.527	1	1	0	0	0.14777	0.14399	0.10964	0.10292	0.060958	0.39859	0.18306	0.28572	0.15402	0.27952	0.22567	0.30727	0.15018	0.15452	0.054052	0.2484	-2.8646	-2.7521	-3.3958	-3.4313	-2.8792	-3.2375	-3.1479	-3.3	-3.3354	-2.9729	-3.3375	-3.35	-3.2021	-3.3771	-3.0938	-3.1437	329.802	418.636	379.301	440.210	338.433	212.175	418.514	464.734	164.031	334.233	436.259	468.079	196.123	435.717	287.507	409.073	0.0004931	0.00056789	0.00013441	1360.9	4.3458e-06	5.8728e-06	1356.9	366.44	4.6736e-06	5.878e-06	421.03	140.28	122.45	42.047	4.1368e-06	52.19	0.00054925	0.00056777	0.00015019	1375.7	6.3368e-06	5.9209e-06	1373.8	373.8	5.9463e-06	5.9579e-06	427.45	143.57	125.08	43.085	6.1252e-06	53.377	222.337	249.717	258.612	175.373	302.617	322.897	175.273	180.062	302.313	312.681	179.336	183.852	184.197	188.966	306.560	188.368	-8191	255	
14405.623	1	1	0	0	0.085583	0.20743	0.1726	0.2211	0.10942	0.079643	0.2286	0.4107	0.21313	0.13511	0.17378	0.20674	0.29919	0.2217	0.22391	0.27248	-2.85	-2.9333	-3.1792	-3.2375	-3.0542	-3.3979	-3.3104	-3.3021	-3.2271	-3.0729	-3.2104	-3.0667	-3.0625	-3.3396	-3.0521	-3.1229	358.113	263.616	478.585	518.614	193.421	309.470	500.933	411.315	318.401	426.254	288.819	185.231	294.879	504.332	355.032	434.430	0.00046986	0.00052426	0.00012258	1355.2	4.4581e-06	4.932e-06	1360.3	368.43	4.294e-06	3.7535e-06	420.81	140.21	122.21	41.979	3.5579e-06	51.765	0.00053788	0.00058137	0.00015952	1374.5	6.0439e-06	5.9857e-06	1376.7	373.97	6.067e-06	6.2919e-06	427.81	143.59	125.05	43.02	6.0208e-06	53.27	222.923	249.136	259.277	175.659	306.132	317.960	175.350	180.017	290.514	303.522	179.858	183.731	184.317	189.135	301.583	188.288	-8191	255	
14405.719	1	1	0	0	0.093987	0.35097	0.21091	0.23564	0.14086	0.093099	0.2959	0.25789	0.20043	0.18536	0.058682	0.079082	0.14069	0.261	0.20377	0.1983	-2.7875	-2.8125	-2.9146	-3.3875	-3.0479	-3.2729	-3.2313	-3.1104	-3.3292	-2.8833	-3.1021	-3.2604	-3.2542	-3.2562	-3.1021	-3.1875	368.298	407.555	318.206	464.906	279.497	304.578	468.490	454.701	419.625	321.921	480.042	290.631	454.576	464.514	168.665	327.217	0.00049459	0.00054708	0.00014512	1361	4.6268e-06	4.4252e-06	1355.8	367.85	4.5307e-06	5.8398e-06	420.75	140.17	122.14	42.072	4.1937e-06	52.061	0.00054253	0.00055583	0.00015853	1375.7	6.0241e-06	5.9954e-06	1375	374.08	5.9357e-06	6.4355e-06	427.46	143.71	124.76	43.108	5.9365e-06	53.362	223.860	249.769	247.925	175.427	301.660	304.079	175.348	179.857	300.855	313.929	179.616	183.893	184.105	188.905	316.553	188.573	-8191	255	
14405.816	1	1	0	0	0.28503	0.12362	0.0577	0.18822	0.1957	0.1642	0.20507	0.22152	0.16939	0.31566	0.31036	0.24544	0.102	0.15602	0.071822	0.10297	-2.75	-3.1521	-3.1458	-3.2604	-3.1021	-3.3146	-3.3646	-3.075	-3.4083	-3.1792	-3.1312	-3.3792	-3.1792	-3.1854	-3.2583	-3.1354	459.814	358.736	335.066	487.883	206.580	288.436	484.268	464.478	275.148	472.668	519.648	162.504	273.575	244.956	518.794	508.537	0.00048022	0.00056432	0.0001391	1363	4.684e-06	6.2626e-06	1357.8	368.18	4.4524e-06	5.4554e-06	420.27	140.44	122.16	42.04	4.2998e-06	51.849	0.0005312	0.00056347	0.00015663	1377.8	6.3971e-06	6.3751e-06	1374.5	374.31	5.9815e-06	5.7891e-06	427.65	143.63	124.86	43.105	5.9777e-06	53.336	222.830	249.613	257.184	175.578	303.035	313.217	175.482	180.087	295.076	304.550	179.586	183.781	184.086	189.023	300.705	188.328	-8191	255	
14405.912	1	1	0	0	0.13383	0.11332	0.12278	0.51746	0.35101	0.26457	0.21269	0.30458	0.031775	0.19227	0.20391	0.42543	0.1289	0.12217	0.094847	0.25881	-2.8417	-3.1833	-3.0083	-3.5146	-3.0479	-3.3187	-3.5417	-3.1667	-3.3937	-3.1375	-3.1229	-3.3333	-3.1917	-3.1958	-3.2313	-3.1167	398.046	345.919	260.793	484.374	208.115	270.492	498.685	461.821	492.344	266.968	459.273	471.274	461.184	514.130	217.269	451.932	0.00048612	0.000484	0.00012244	1360.9	4.3509e-06	5.9834e-06	1357.1	368.21	4.8775e-06	6.0447e-06	420.21	140.44	121.78	42.014	5.1942e-06	52.139	0.00053836	0.00055039	0.00015312	1376.1	6.3737e-06	6.3174e-06	1376.7	374.43	6.1437e-06	6.062e-06	427.15	143.95	124.68	43.088	5.9807e-06	53.29	223.690	248.090	263.095	175.680	298.391	309.184	175.291	180.104	299.825	305.617	179.617	183.753	184.129	189.095	312.408	188.516	-8191	255	
14406.032	1	1	0	0	0.12452	0.095964	0.17868	0.123	0.0041246	0.038865	0.28617	0.20907	0.30343	0.26766	0.26946	0.080231	0.10393	0.23531	0.14062	0.083481	-2.8937	-3.0563	-2.9875	-3.3521	-3.0125	-3.1583	-3.425	-3.1521	-3.4104	-3.2313	-3.1917	-3.5125	-3.1229	-3.0604	-3.4125	-3.2146	178.597	259.558	483.779	399.043	353.061	253.700	430.511	459.527	460.202	511.446	484.905	169.450	276.361	307.931	460.879	331.428	0.00049219	0.00040872	0.00015343	1361.3	3.7949e-06	4.9006e-06	1355.5	367.92	4.6109e-06	5.6058e-06	419.72	140.05	121.95	41.91	4.1377e-06	52.019	0.0005438	0.00054254	0.00015458	1375.3	5.9817e-06	6.3403e-06	1375.7	373.97	6.1771e-06	6.1003e-06	427.17	143.53	124.83	43.045	5.9385e-06	53.245	223.739	244.291	255.889	175.703	306.893	311.246	175.419	180.064	302.730	309.396	179.752	183.780	184.206	189.159	302.548	188.149	-8191	255	
14406.128	1	1	0	0	0.23706	0.11219	0.098851	0.14814	0.062996	0.16312	0.23566	0.13586	0.084069	0.047131	0.20517	0.11578	0.14829	0.0025504	0.17774	0.18687	-2.825	-3.1625	-2.9542	-3.5583	-3.1229	-3.3125	-3.5229	-3.1813	-3.3667	-3.3104	-3.1813	-3.5104	-3.2188	-3.0938	-3.0604	-3.0917	496.529	353.497	419.301	479.433	383.024	481.324	482.902	425.575	220.587	478.231	441.587	476.328	219.422	329.069	237.357	413.210	0.00049918	0.00047511	0.0001543	1359.5	5.3516e-06	5.5366e-06	1357.5	366.73	5.2807e-06	4.6165e-06	420.09	139.66	121.82	42.01	4.428e-06	51.869	0.00054455	0.00057593	0.00015634	1376.5	5.9078e-06	6.1167e-06	1374.2	373.96	6.2608e-06	5.8214e-06	427.42	143.43	124.88	42.991	5.8693e-06	53.378	223.451	250.160	243.433	175.545	300.955	309.341	175.367	179.901	308.576	321.098	179.558	183.938	184.222	188.972	307.768	188.237	-8191	255	
14406.225	1	1	0	0	0.075923	0.11496	0.16611	0.15541	0.13214	0.1826	0.11032	0.37469	0.077734	0.046198	0.35843	0.17332	0.2216	0.17815	0.21272	0.067769	-2.8896	-3.3021	-2.9292	-3.4208	-3.2021	-3.1771	-3.5417	-3.1937	-3.0938	-3.1063	-3.2042	-3.3417	-3.3771	-2.9292	-3.2354	-3.1542	193.733	431.149	290.961	505.944	445.534	465.137	425.430	472.823	279.610	201.665	486.162	382.511	511.274	398.138	320.884	388.952	0.00049835	0.00051703	0.00012083	1361.6	4.466e-06	5.0855e-06	1362.4	367.98	4.8755e-06	4.1368e-06	419.4	139.9	121.79	42.098	4.7485e-06	51.812	0.00054904	0.00055845	0.00015154	1376.7	6.0015e-06	6.0963e-06	1376.1	373.92	6.0432e-06	5.9375e-06	427.52	143.72	124.75	43.096	6.0409e-06	53.197	223.840	259.274	253.465	175.636	322.204	308.341	175.311	180.034	300.312	303.886	179.511	183.773	184.263	188.897	308.388	188.214	-8191	255	
14406.321	1	1	0	0	0.19262	0.1774	0.057549	0.083333	0.13461	0.25465	0.27314	0.32553	0.20976	0.11769	0.13782	0.13317	0.045329	0.20772	0.2246	0.13803	-2.7625	-3.2771	-3.0083	-3.4188	-3.1396	-3.0563	-3.6417	-3.2792	-3.2062	-3.3396	-3.0062	-3.325	-3.1729	-2.9313	-3.3271	-3.3	345.247	451.539	318.634	457.262	229.949	445.585	415.634	421.967	321.819	509.766	474.854	432.936	251.460	216.469	330.958	300.424	0.00049374	0.00043805	0.00013796	1359	3.7071e-06	5.1062e-06	1357.9	368.63	4.9496e-06	4.6039e-06	420.58	140.82	121.65	41.984	4.8434e-06	51.935	0.00052996	0.00055207	0.00016458	1375.2	6.0178e-06	6.2874e-06	1375.2	374.07	6.1542e-06	5.7544e-06	427.55	143.85	124.9	43.055	5.9506e-06	53.296	222.215	250.015	243.086	175.529	306.919	312.914	175.230	180.135	292.338	323.887	179.598	183.756	184.249	188.873	302.621	188.433	-8191	255	
14406.415	1	1	0	0	0.22481	0.1198	0.10967	0.28837	0.051822	0.16832	0.21648	0.30324	0.15462	0.056852	0.074123	0.23971	0.22174	0.10045	0.18624	0.28394	-2.6979	-3.1188	-2.9833	-3.4271	-3.2562	-3.1063	-3.4479	-3.2896	-2.8417	-3.2708	-3.1917	-3.3104	-3.2333	-3.0917	-3.4333	-3.225	267.037	434.280	172.129	484.895	240.343	314.723	469.427	427.787	188.550	265.054	433.835	256.029	196.549	420.266	430.562	433.192	0.00047249	0.00051067	0.00015342	1356.5	5.0291e-06	4.6976e-06	1357.3	367.26	4.963e-06	4.9255e-06	419.89	140.31	121.64	42.038	4.9602e-06	51.628	0.00053633	0.00054055	0.00015297	1375.1	5.7979e-06	6.1636e-06	1375.7	373.81	6.1533e-06	5.7412e-06	427.38	143.6	124.79	43.038	6.08e-06	53.331	223.350	247.731	260.736	175.477	312.007	311.747	175.367	179.997	298.734	312.947	179.462	183.649	184.243	189.010	310.551	188.363	-8191	255	
14406.511	1	1	0	0	0.18911	0.26818	0.13604	0.3257	0.11284	0.28601	0.070675	0.354	0.051421	0.086922	0.13332	0.092741	0.19732	0.22003	0.085654	0.3099	-2.5583	-3.4021	-2.8375	-3.5	-3.1542	-3.0396	-3.5021	-3.3042	-2.9958	-3.2833	-3.2479	-3.2104	-3.3063	-3.1146	-3.2583	-3.35	400.033	289.118	331.154	479.111	507.300	444.259	171.743	443.967	339.065	428.836	500.434	517.958	509.093	395.505	446.517	435.358	0.00049642	0.00055491	0.00013555	1354.6	3.8991e-06	3.7512e-06	1359.1	367.43	4.9865e-06	5.1566e-06	420.09	140.3	122.23	42.143	5.1841e-06	52.038	0.00054733	0.00053814	0.00015947	1374.9	5.6375e-06	5.7947e-06	1376.3	373.81	6.0044e-06	5.8765e-06	427.6	143.61	125.01	43.121	5.9496e-06	53.311	222.758	246.824	255.795	175.514	303.285	316.071	175.382	180.015	300.907	311.508	179.613	183.691	184.275	188.931	314.791	188.227	-8191	255	
14406.632	1	1	0	0	0.12131	0.17645	0.2329	0.11456	0.14	0.17433	0.15831	0.26735	0.15351	0.04862	0.066879	0.20119	0.055141	0.20131	0.055281	0.11695	-2.3417	-3.2562	-3.0187	-3.4313	-3.1875	-3.0563	-3.475	-3.3771	-3.0812	-3.3604	-3.3187	-3.2812	-3.2667	-3.0354	-3.1771	-3.2562	260.181	196.828	405.298	165.064	431.435	285.379	498.004	467.439	423.058	287.881	184.697	439.790	492.658	473.378	250.043	367.438	0.0004631	0.00052586	0.00014262	1359.8	3.7331e-06	4.3553e-06	1358.8	368.09	4.8145e-06	5.6244e-06	419.5	140.24	122.13	41.957	3.8979e-06	51.859	0.00052455	0.00052673	0.00015426	1376.1	5.7925e-06	5.874e-06	1376.4	373.94	6.0379e-06	5.7891e-06	426.55	143.77	124.8	42.984	5.9014e-06	53.303	223.809	256.397	243.746	175.408	300.724	310.086	175.352	179.949	294.559	309.170	179.739	183.910	184.286	188.874	301.145	188.404	-8191	255	
14406.728	1	1	0	0	0.20865	0.074745	0.11683	0.32065	0.084632	0.35771	0.28966	0.23608	0.15393	0.11247	0.18663	0.11609	0.17789	0.093015	0.17014	0.24444	-2.4813	-3.0812	-2.8771	-3.2625	-3.2792	-3.0625	-3.3667	-3.2479	-2.8438	-3.2958	-3.3646	-3.3187	-3.5625	-3.1312	-3.0875	-3.2146	443.283	247.915	310.667	442.719	239.614	344.013	470.275	171.807	335.897	358.424	510.600	441.508	401.901	460.519	325.431	493.897	0.00046551	0.00059529	0.00013243	1357.4	4.8549e-06	4.8593e-06	1356.6	367.05	4.674e-06	4.871e-06	421.37	139.79	122.86	41.925	5.0702e-06	51.849	0.00053219	0.00054966	0.00015549	1376.5	5.5708e-06	5.7959e-06	1375.1	373.75	6.1102e-06	5.904e-06	427.89	143.59	125.07	43.023	6.1412e-06	53.311	223.572	242.447	263.107	175.764	296.191	307.907	175.423	180.025	301.694	308.838	179.674	183.790	184.114	189.004	300.873	188.150	-8191	255	
14406.824	1	1	0	0	0.097383	0.22507	0.12947	0.16837	0.40928	0.19275	0.2672	0.23117	0.26951	0.024148	0.15932	0.1874	0.27833	0.11206	0.051935	0.16868	-2.5896	-3.2646	-3.0292	-3.2292	-3.1875	-2.9979	-3.3917	-3.5187	-2.9083	-3.2396	-3.3083	-3.1167	-3.4021	-3.175	-3.1833	-3.4188	357.213	471.544	461.878	499.773	359.519	245.228	167.988	439.796	204.560	194.821	470.119	443.158	498.615	460.839	378.736	339.266	0.00046096	0.00050621	0.00011614	1361.7	4.5945e-06	5.626e-06	1357.1	368.52	4.718e-06	6.1717e-06	420.54	140.79	121.84	42.028	4.0711e-06	51.99	0.00052972	0.00053103	0.00015514	1376.2	5.8511e-06	6.3042e-06	1374.4	374.01	6.3031e-06	6.3122e-06	427.4	143.79	124.75	43.103	6.1001e-06	53.348	225.102	253.332	243.685	175.577	301.381	315.796	175.416	180.051	299.643	301.692	179.421	183.721	184.277	189.157	298.554	188.345	-8191	255	
14406.920	1	1	0	0	0.10599	0.18214	0.18442	0.29871	0.16814	0.19288	0.27149	0.19384	0.15169	0.21067	0.38416	0.19961	0.036963	0.04814	0.1022	0.26758	-2.4562	-3.1729	-3.1646	-3.0979	-3.2833	-2.9938	-3.2167	-3.3396	-2.9146	-3.2875	-3.2833	-3.2375	-3.4042	-3.1312	-2.9688	-3.2667	501.123	204.600	248.719	476.243	272.587	504.090	433.889	424.237	317.172	490.910	437.523	272.124	428.744	377.909	384.242	483.594	0.00046971	0.00049622	0.000116	1360.4	4.4852e-06	4.7891e-06	1358.3	367.24	4.4776e-06	5.3286e-06	420.11	139.74	121.87	41.972	3.9126e-06	51.954	0.00052962	0.00053929	0.00014791	1376.6	6.0106e-06	6.3342e-06	1375.7	374.01	6.1604e-06	5.9986e-06	427.8	143.61	124.9	43.031	6.0048e-06	53.34	223.470	253.114	254.965	175.655	303.227	310.429	175.338	180.051	299.159	322.885	179.535	183.763	184.054	189.054	301.608	188.394	-8191	255	
14406.992	1	1	0	0	0.069717	0.22199	0.12337	0.25361	0.14392	0.17417	0.4328	0.29652	0.14404	0.1996	0.10532	0.21819	0.22774	0.18051	0.10893	0.2738	-2.5229	-2.9958	-3.2354	-3.2042	-3.0604	-3.0792	-3.3563	-3.4	-2.9917	-3.1	-3.5729	-2.9917	-3.4354	-3.2313	-2.9313	-3.3333	196.698	296.785	176.085	457.444	252.474	224.316	452.291	442.650	406.502	188.946	211.849	449.720	496.385	198.594	385.598	477.788	0.00049599	0.00045365	0.00014255	1361.4	4.8062e-06	5.5101e-06	1356.5	367.53	4.9246e-06	5.0646e-06	421.63	140.05	121.84	41.979	3.8096e-06	51.888	0.0005452	0.00056682	0.00015119	1377.1	6.2223e-06	6.2357e-06	1375.7	374.11	6.3022e-06	6.1698e-06	427.9	143.65	124.77	43.097	5.7339e-06	53.23	221.744	243.043	255.288	175.306	311.169	306.794	175.347	180.067	305.623	310.768	179.614	183.769	184.304	188.872	312.189	188.407	-8191	255	
14407.113	1	1	0	0	0.17754	0.28834	0.25631	0.16634	0.070436	0.14702	0.32614	0.21869	0.11623	0.32729	0.22813	0.28526	0.15529	0.19742	0.16819	0.20337	-2.4667	-3.1479	-3.3312	-3.1813	-3.1042	-3.1354	-3.1771	-3.4437	-3.1437	-3.0521	-3.2854	-3.0396	-3.3333	-3.1583	-2.8979	-3.3917	284.509	446.982	469.734	431.997	177.422	248.690	442.234	456.813	422.242	172.534	455.678	413.189	475.759	436.592	253.126	485.924	0.00047386	0.00040508	0.00013181	1359.6	4.0253e-06	5.2234e-06	1358.8	367.7	4.5369e-06	5.5712e-06	421.1	140.08	122.45	42.046	4.5757e-06	52.071	0.00053335	0.00056033	0.00014756	1375.8	6.0006e-06	6.0038e-06	1374.9	374.16	5.9912e-06	6.0249e-06	427.6	143.54	124.84	43.048	6.2656e-06	53.325	224.388	250.734	268.711	175.490	310.716	313.507	175.402	180.045	299.590	309.584	179.605	183.376	184.313	189.189	299.989	188.455	-8191	255	
14407.209	1	1	0	0	0.077509	0.10447	0.033469	0.38704	0.15633	0.10235	0.45682	0.17356	0.21569	0.04912	0.12486	0.39666	0.015731	0.25743	0.166	0.12205	-2.5917	-3.05	-3.2333	-3.225	-3.175	-3.1521	-3.2292	-3.4167	-2.9375	-3.0229	-3.2896	-3.1063	-3.1583	-3.2208	-2.9437	-3.2646	237.341	279.421	323.559	503.110	231.135	404.134	457.505	505.381	351.992	264.517	505.894	466.371	512.484	480.389	203.912	483.457	0.00047432	0.00048432	0.00012938	1364.1	3.7539e-06	5.5499e-06	1355.8	367.79	5.0979e-06	4.7391e-06	419.15	140.23	121.92	41.949	4.9835e-06	51.775	0.00054127	0.0005461	0.00014832	1376.1	6.0259e-06	5.8211e-06	1375.2	373.24	6.1701e-06	6.5037e-06	426.97	143.66	124.74	42.995	6.1974e-06	53.308	223.848	239.434	257.455	175.333	318.181	319.129	175.300	179.944	308.074	319.631	179.448	183.470	184.474	188.977	306.127	188.226	-8191	255	
14407.305	1	1	0	0	0.25914	0.21457	0.066682	0.24664	0.28825	0.085767	0.12372	0.38861	0.16131	0.077408	0.10856	0.11393	0.2005	0.11	0.018892	0.08683	-2.6396	-2.8208	-3.2271	-3.2958	-3.2229	-3.2333	-3.0875	-3.4	-3.225	-3.0167	-3.3646	-3.25	-3.15	-3.1937	-2.975	-3.2792	225.682	320.641	177.203	502.942	265.082	272.917	502.262	479.153	414.986	315.091	521.789	205.998	227.139	166.934	198.158	270.490	0.00047383	0.00051157	0.00015419	1362.8	4.2804e-06	4.8854e-06	1356.6	367.58	4.555e-06	6.4015e-06	420.09	140.22	121.67	41.985	4.9185e-06	51.852	0.00052777	0.0005753	0.00015034	1376.3	5.9799e-06	6.1107e-06	1375.2	373.81	6.0652e-06	6.3326e-06	427.18	143.62	124.78	43.053	6.1553e-06	53.263	223.087	248.614	258.402	175.344	303.319	307.205	175.269	180.159	293.267	320.145	179.561	183.860	184.239	188.987	308.354	188.384	-8191	255	
14407.401	1	1	0	0	0.16543	0.2377	0.099372	0.20442	0.32053	0.036499	0.369	0.13823	0.073537	0.23815	0.25094	0.045079	0.44074	0.33776	0.39184	0.27903	-2.8083	-2.8937	-3.3458	-3.2771	-3.15	-3.3146	-3.0104	-3.175	-3.1375	-3.0396	-3.3	-3.2062	-3.3167	-3.4188	-3.0062	-3.3187	303.681	320.108	349.130	500.842	323.593	477.699	460.780	410.988	314.745	483.468	279.157	362.154	403.863	180.288	497.174	203.962	0.00050521	0.00042308	0.0001562	1357.6	4.5912e-06	5.8827e-06	1357.4	367.29	4.351e-06	5.2608e-06	419.53	140.57	122.07	42.114	3.8522e-06	51.817	0.00054229	0.00057133	0.00015771	1374.9	6.1394e-06	5.8439e-06	1375	373.83	5.8071e-06	6.1985e-06	426.82	143.52	124.92	43.09	6.1773e-06	53.275	223.436	254.561	262.391	175.540	302.726	317.091	175.338	179.988	302.988	312.093	179.686	183.824	184.161	188.967	303.948	188.220	-8191	255	
14407.520	1	1	0	0	0.057751	0.23157	0.22915	0.24458	0.15364	0.21766	0.17191	0.28235	0.11461	0.25034	0.4528	0.20322	0.071662	0.10644	0.079959	0.23016	-2.8646	-2.9542	-3.2604	-3.2167	-3.0042	-3.375	-3.2083	-3.175	-3.3125	-3.1292	-3.3542	-3.1104	-3.1188	-3.35	-2.9958	-3.4229	502.324	370.210	376.323	487.936	304.388	347.738	472.899	498.147	458.620	483.948	471.701	490.384	507.728	440.502	488.980	174.751	0.0004772	0.00051391	0.00010727	1359.9	4.4732e-06	4.8165e-06	1358.5	367.65	4.5139e-06	6.0951e-06	419.46	140.52	121.77	41.956	5.0837e-06	51.934	0.0005375	0.00055856	0.00015066	1374.7	6.1178e-06	5.8704e-06	1375.2	373.62	5.9604e-06	6.0812e-06	427.58	143.64	124.74	43.071	5.9907e-06	53.281	223.396	255.616	242.984	175.366	307.781	307.665	175.381	180.088	301.753	311.370	179.421	183.651	184.166	189.035	289.686	188.229	-8191	255	
14407.593	1	1	0	0	0.032173	0.18454	0.17424	0.23476	0.13305	0.33466	0.25452	0.46735	0.11034	0.1432	0.05594	0.13833	0.22091	0.19425	0.12148	0.11723	-2.8937	-3.0958	-3.15	-3.3646	-3.2438	-3.3229	-3.2583	-3.225	-3.1979	-2.9479	-3.2521	-3.1917	-3.1458	-3.4271	-3.1562	-3.2062	188.295	502.721	267.370	474.915	409.490	220.948	449.837	494.325	337.253	230.726	432.373	521.252	219.746	479.086	227.957	189.126	0.0005015	0.00047726	0.00014955	1358	4.5332e-06	4.4548e-06	1354.9	368.11	4.6978e-06	5.809e-06	420.71	140.53	121.94	42.083	4.9605e-06	51.912	0.00054942	0.00057897	0.00016099	1374.6	6.2439e-06	5.7478e-06	1373.3	374.47	6.0547e-06	6.3194e-06	427.33	143.6	124.96	43.163	5.8513e-06	53.348	224.330	252.292	262.799	175.416	307.872	317.048	175.423	180.034	298.218	311.189	179.658	183.667	184.218	189.192	307.031	188.164	-8191	255	
14407.712	1	1	0	0	0.19347	0.17793	0.25028	0.36219	0.10164	0.022278	0.27979	0.31449	0.14097	0.14572	0.065903	0.15872	0.10445	0.23328	0.11293	0.15392	-2.875	-3.0667	-3.2583	-3.4229	-3.1312	-3.1792	-3.1667	-3.2979	-3.3458	-3.0958	-3.3458	-3.3833	-2.9354	-3.5375	-3.0563	-3.0958	182.590	218.808	248.117	164.933	321.688	264.665	173.432	498.149	274.352	370.701	440.151	471.474	325.803	485.480	296.829	319.457	0.00048147	0.00044221	0.00013682	1356.9	3.9313e-06	5.1682e-06	1355.1	367.22	4.7256e-06	5.4358e-06	420.92	139.87	122.67	42.06	4.7244e-06	51.982	0.00053452	0.00056389	0.00015759	1374.6	6.1304e-06	6.2021e-06	1374.1	373.99	5.7216e-06	6.4104e-06	427.62	143.43	125.02	43.105	6.077e-06	53.28	223.883	250.840	262.391	175.503	311.826	313.036	175.370	179.925	297.403	309.776	179.614	183.820	184.293	188.897	300.503	188.299	-8191	255	
14407.808	1	1	0	0	0.08534	0.10064	0.061336	0.19341	0.13025	0.056865	0.23814	0.42237	0.20458	0.084921	0.30312	0.083603	0.18135	0.24135	0.1304	0.082316	-2.8625	-2.9417	-3.2667	-3.3812	-3.0292	-3.2896	-3.3292	-3.1958	-3.5021	-3.1813	-3.2958	-3.5083	-3.1312	-3.3208	-3.1625	-3.0687	239.103	386.981	185.366	482.104	195.339	251.662	419.214	487.938	330.994	290.143	467.667	342.102	494.104	167.615	322.028	521.099	0.00047379	0.00045921	0.00014758	1357.1	4.2596e-06	5.2538e-06	1360.7	368.12	4.7399e-06	6.132e-06	420.25	140.15	122.08	41.942	4.7457e-06	52.121	0.00053373	0.0005662	0.00015347	1374.6	6.1962e-06	6.3571e-06	1375.7	374.05	6.0547e-06	6.4822e-06	426.59	143.38	124.58	42.997	6.1854e-06	53.28	223.992	254.199	252.577	175.439	303.113	315.084	175.427	180.084	304.926	302.117	179.594	183.577	184.170	189.158	300.454	188.055	-8191	255	
14407.905	1	1	0	0	0.11742	0.1337	0.16389	0.17829	0.13086	0.17947	0.34086	0.10283	0.22241	0.12778	0.19698	0.24854	0.149	0.19119	0.10449	0.038121	-2.5708	-2.9979	-2.9021	-3.3729	-3.0458	-3.2458	-3.0292	-3.1042	-3.1271	-3.1958	-3.3646	-3.5438	-3.2521	-3.4167	-3.2708	-3.0708	477.290	319.011	494.890	452.872	441.530	423.566	489.291	455.485	328.160	407.275	471.507	422.281	458.369	501.851	184.944	462.560	0.00048861	0.00053142	0.00016611	1355.2	4.6912e-06	4.9727e-06	1352.7	367.36	5.3188e-06	5.6903e-06	419.96	140.13	122.09	41.918	4.4275e-06	51.827	0.00053873	0.00058033	0.00015882	1373.3	6.2439e-06	5.9893e-06	1374.7	373.91	6.3419e-06	6.5121e-06	427.54	143.62	124.8	43.089	5.9827e-06	53.227	224.234	242.418	261.647	175.635	307.200	300.656	175.323	179.970	302.186	316.052	179.580	183.647	184.368	189.073	290.887	188.291	-8191	255	
14408.001	1	1	0	0	0.051905	0.1724	0.13462	0.20552	0.042121	0.10393	0.2228	0.23172	0.099552	0.19705	0.10074	0.35031	0.12922	0.18624	0.1139	0.066417	-2.7875	-3.0458	-3.1188	-3.5583	-3.0771	-3.2083	-3.3021	-3.1792	-3.2625	-3.1917	-3.1188	-3.3458	-3.075	-3.2938	-3.2417	-3.0812	517.994	288.411	365.239	472.201	367.340	300.668	418.663	462.777	340.991	187.762	426.325	455.055	465.139	171.750	348.176	343.290	0.0004891	0.00046719	0.00014456	1358.1	4.8642e-06	4.1238e-06	1354.4	368.21	4.6961e-06	5.2472e-06	419.73	140.57	121.96	41.945	4.6895e-06	51.7	0.00053335	0.0005685	0.0001609	1375.2	6.0682e-06	5.7045e-06	1372.4	374.07	6.2353e-06	6.2751e-06	427.44	143.6	124.8	43.088	5.9205e-06	53.213	224.138	256.449	249.210	175.571	313.833	317.476	175.455	179.949	298.146	320.424	179.522	183.805	184.207	188.910	311.093	188.140	-8191	255	
14408.121	1	1	0	0	0.081026	0.21829	0.2133	0.26218	0.13296	0.31364	0.22433	0.1436	0.2483	0.16782	0.25714	0.071608	0.05911	0.17556	0.19917	0.16096	-2.9146	-3.0438	-2.6937	-3.4854	-2.9354	-3.0667	-3.4667	-3.2188	-3.2792	-3.2271	-3.2854	-3.3146	-2.9917	-3.3729	-3.1646	-3.0729	447.711	325.625	197.145	500.395	520.514	425.801	485.714	341.482	498.083	378.336	478.422	162.324	449.456	164.722	305.216	472.960	0.00048861	0.00049492	0.00014407	1358.4	4.4795e-06	4.6077e-06	1353.1	367.1	4.9142e-06	5.187e-06	420.53	140.33	122.33	42.009	5.3707e-06	51.88	0.00054644	0.00056881	0.00015678	1374.7	6.1268e-06	6.0518e-06	1373.5	373.59	6.2115e-06	5.9148e-06	427.26	143.57	124.77	43.03	6.2365e-06	53.304	223.164	249.953	257.999	175.670	303.580	318.386	175.213	179.962	302.516	327.582	179.544	183.724	184.130	189.064	311.394	188.357	-8191	255	
14408.218	1	1	0	0	0.12139	0.19129	0.23614	0.36804	0.2129	0.1726	0.074089	0.1359	0.1074	0.079456	0.3319	0.15833	0.26627	0.1125	0.18135	0.12711	-2.8	-3.1229	-2.9479	-3.4083	-3.0292	-3.1104	-3.5187	-3.1729	-3.1792	-3.0563	-3.0104	-3.4104	-3.0667	-3.1125	-3.2167	-3.0687	334.177	252.957	493.728	183.746	352.025	185.874	513.987	481.621	364.270	336.980	442.768	465.855	424.979	240.444	415.921	410.685	0.00047235	0.00048326	0.00015157	1357.5	4.438e-06	4.7087e-06	1358.4	368.35	4.645e-06	5.032e-06	420.41	140.51	121.71	42.078	5.031e-06	51.969	0.00054366	0.00056546	0.00015558	1375.4	6.171e-06	6.148e-06	1376	373.97	6.3278e-06	5.7855e-06	427.15	143.51	124.8	43.036	6.0549e-06	53.361	224.689	255.640	258.968	175.610	311.437	310.643	175.299	179.870	299.293	312.762	179.598	183.610	184.145	188.932	293.168	188.117	-8191	255	
14408.289	1	1	0	0	0.065202	0.25801	0.13146	0.39179	0.073839	0.037047	0.24533	0.080918	0.23862	0.049404	0.093154	0.067807	0.19153	0.17681	0.04023	0.22954	-2.8042	-3.1396	-2.9625	-3.3812	-3.0271	-2.9313	-3.375	-3.2562	-3.1312	-3.2292	-2.9479	-3.3688	-3.2542	-3.0729	-3.1208	-2.9979	214.178	467.164	474.724	461.755	379.531	496.113	475.880	420.399	493.076	361.154	310.047	410.529	185.381	276.099	209.636	397.022	0.0004984	0.00047268	0.0001307	1357.7	3.7236e-06	6.0137e-06	1357.3	367.26	5.691e-06	4.6421e-06	418.9	140.05	121.61	42.052	4.6859e-06	51.821	0.00053863	0.00054589	0.00015724	1376	6.0637e-06	6.2706e-06	1374.5	373.52	6.4265e-06	5.9447e-06	426.7	143.4	124.61	43.046	6.2315e-06	53.259	224.015	251.706	252.003	175.612	303.716	307.372	175.403	180.076	297.454	316.418	179.442	183.762	184.107	189.071	301.757	188.232	-8191	255	
14408.408	1	1	0	0	0.063185	0.23854	0.22206	0.34869	0.28415	0.057277	0.15106	0.27447	0.18418	0.22967	0.27101	0.2562	0.081347	0.16836	0.091984	0.12915	-2.6979	-3.3646	-3.0312	-3.4333	-3.0479	-3.1729	-3.5083	-3.1667	-3.0104	-3.2875	-3.175	-3.3812	-3.1583	-2.9	-3.3333	-3.2021	274.278	364.651	335.357	490.439	202.498	252.815	163.063	450.237	192.236	331.874	502.413	498.819	176.444	221.082	407.903	393.236	0.0004869	0.00054762	0.00015099	1357	4.3032e-06	4.4264e-06	1356.5	367.99	4.1314e-06	3.9247e-06	418.4	140.14	121.32	41.979	4.6132e-06	51.911	0.00054616	0.00054086	0.00016327	1373.6	6.1592e-06	6.2561e-06	1373.1	373.59	6.06e-06	5.8082e-06	426.12	143.42	124.33	43.071	5.9115e-06	53.253	223.896	260.401	255.375	175.452	307.534	310.964	175.320	180.101	299.407	309.413	179.555	183.627	184.186	188.977	305.048	188.302	-8191	255	
14408.504	1	1	0	0	0.10462	0.086001	0.056144	0.40689	0.20076	0.11116	0.19688	0.24396	0.013647	0.23833	0.24305	0.074344	0.093453	0.12322	0.13302	0.17359	-2.6437	-3.2687	-2.9667	-3.3854	-2.9646	-2.85	-3.5	-3.3875	-3.1292	-3.2583	-3.1646	-3.2771	-3.2062	-3.0125	-3.2271	-3.2604	476.215	444.957	336.141	456.430	415.377	511.927	482.478	425.509	392.574	317.854	168.746	521.806	343.675	173.396	458.137	417.323	0.00047113	0.00045321	0.00013606	1360.8	4.613e-06	4.3507e-06	1362.4	367.58	5.1312e-06	4.6266e-06	419.19	140.22	122.46	42.103	4.9131e-06	51.881	0.00053781	0.00055709	0.00015625	1375	6.1953e-06	6.1912e-06	1374.8	373.77	6.1525e-06	6.1135e-06	427.08	143.4	124.82	43.065	6.2295e-06	53.318	223.703	246.821	258.889	175.527	299.338	313.660	175.284	180.118	302.617	315.036	179.338	183.708	184.154	188.875	310.694	188.180	-8191	255	
14408.600	1	1	0	0	0.21409	0.1351	0.085667	0.24179	0.10155	0.099671	0.2725	0.16889	0.2785	0.14784	0.095107	0.039375	0.16121	0.16932	0.009052	0.22295	-2.5729	-3.3042	-3.0542	-3.2604	-3.3563	-2.9604	-3.5292	-3.3167	-2.9271	-3.2875	-3.1063	-3.2229	-3.2083	-3.3021	-3.1458	-3.2438	225.675	365.072	345.205	483.360	334.800	189.753	449.198	427.742	408.244	267.910	219.918	181.420	429.581	511.133	213.412	396.441	0.0004852	0.0004796	0.00011559	1357.1	4.3164e-06	4.6818e-06	1353.3	367.71	4.6595e-06	4.6201e-06	419.7	140.34	122.07	41.929	4.5116e-06	51.8	0.00054914	0.00054746	0.00016087	1373.9	5.9808e-06	6.3463e-06	1374.6	373.78	5.9569e-06	6.0513e-06	426.89	143.51	124.77	43.054	6.1502e-06	53.267	224.268	252.703	249.240	175.617	308.157	323.635	175.414	179.874	307.647	327.439	179.468	183.914	184.059	189.016	305.660	188.286	-8191	255	
14408.697	1	1	0	0	0.10153	0.13611	0.17025	0.14149	0.11808	0.1191	0.33228	0.12577	0.19524	0.24609	0.2126	0.046791	0.27471	0.13485	0.23223	0.22768	-2.7104	-3.1229	-3.1104	-3.3333	-3.2292	-3.0312	-3.5042	-3.3667	-3.0458	-3.2687	-3.2792	-3.0625	-3.2938	-3.0729	-3.0479	-3.3104	375.654	383.668	283.957	476.751	296.836	334.776	454.100	399.825	405.502	247.384	454.251	355.275	464.528	426.581	520.143	446.611	0.00047926	0.00058043	0.0001466	1359.4	4.0148e-06	5.0798e-06	1357.1	367.69	4.7224e-06	4.7676e-06	421.79	139.98	122.09	41.966	3.9081e-06	51.995	0.00054075	0.00053856	0.00015321	1374.8	5.9529e-06	6.4905e-06	1375	373.88	6.1895e-06	6.1243e-06	427.76	143.45	124.77	43.097	6.1974e-06	53.253	222.778	247.865	257.409	175.531	301.718	305.589	175.346	180.038	295.727	317.869	179.633	183.764	184.237	188.851	301.241	188.446	-8191	255	
14408.817	1	1	0	0	0.12556	0.18392	0.34317	0.30423	0.073222	0.18521	0.14072	0.109	0.23641	0.22683	0.13535	0.25704	0.14589	0.15573	0.10723	0.23018	-2.4604	-3.2	-3.1	-3.1708	-3.2313	-3.0667	-3.4062	-3.3479	-3.0438	-3.3563	-3.2354	-3.2333	-3.2375	-3.0438	-3.0812	-3.3021	307.450	384.723	406.064	442.205	329.287	478.778	381.689	223.258	280.790	266.239	490.749	491.480	509.775	480.886	496.204	490.755	0.00049502	0.00042841	0.00016765	1354.6	4.7904e-06	5.3325e-06	1354.8	367.68	4.7876e-06	5.2257e-06	420.74	140.1	122.05	41.916	5.2899e-06	51.81	0.00055277	0.00055793	0.00015651	1374.3	6.1637e-06	5.916e-06	1374.2	373.62	6.1384e-06	6.1279e-06	427.33	143.51	124.87	42.986	6.073e-06	53.26	222.800	256.761	252.977	175.628	307.911	315.107	175.295	180.020	301.870	313.794	179.789	183.781	184.203	188.910	307.740	188.354	-8191	255	
14408.889	1	1	0	0	0.18992	0.10591	0.091693	0.28286	0.158	0.028267	0.2704	0.29385	0.17519	0.083691	0.10597	0.33461	0.13793	0.2746	0.18888	0.13432	-2.6021	-3.2979	-3.2167	-3.2396	-3.3229	-3.0479	-3.3146	-3.3417	-2.8083	-3.4729	-3.25	-3.1125	-3.2771	-3.1146	-3.0604	-3.3208	453.028	255.993	215.176	484.364	237.469	183.078	390.329	466.074	416.065	329.792	451.427	452.076	346.355	461.821	499.442	437.981	0.00048073	0.00042233	0.00012042	1359.6	5.0576e-06	5.2934e-06	1351.8	366.45	4.9981e-06	5.235e-06	420.45	139.84	121.34	41.921	5.0441e-06	51.876	0.00054229	0.00053961	0.00014864	1375.7	5.9763e-06	6.2742e-06	1373	373.4	6.3437e-06	5.9699e-06	427.33	143.54	124.62	43.039	6.3078e-06	53.227	223.299	252.047	258.436	175.501	312.668	309.946	175.372	179.886	294.924	315.163	179.513	183.934	184.427	189.181	311.155	188.395	-8191	255	
14408.985	1	1	0	0	0.18555	0.26759	0.11184	0.32482	0.20789	0.42876	0.044981	0.13031	0.12645	0.17198	0.17263	0.13944	0.082065	0.21855	0.23889	0.03425	-2.375	-3.2417	-3.1708	-3.125	-3.3229	-3.0438	-3.225	-3.4167	-2.9458	-3.1354	-3.2125	-3.2125	-3.3104	-3.1813	-3.0854	-3.1312	244.830	516.916	489.727	475.971	270.673	411.480	319.185	485.348	429.569	418.950	420.932	486.389	518.033	230.164	245.599	302.646	0.00048175	0.00053125	0.00014063	1357.3	4.6234e-06	5.2871e-06	1354.3	366.84	4.7464e-06	5.7792e-06	421	139.69	122.2	42.026	4.8888e-06	52	0.00054685	0.00059027	0.00015441	1373.4	6.0457e-06	6.2681e-06	1372.9	373.6	6.1551e-06	6.2428e-06	427.63	143.26	124.83	43.077	6.1292e-06	53.346	223.885	254.786	253.336	175.563	308.584	308.684	175.269	180.098	295.205	305.225	179.641	183.713	184.320	189.021	312.787	188.145	-8191	255	
14409.081	1	1	0	0	0.043151	0.14916	0.20339	0.37177	0.18024	0.28926	0.098527	0.41634	0.25766	0.23527	0.13116	0.20546	0.16509	0.30255	0.059912	0.11415	-2.6208	-3.0833	-3.0646	-3.3083	-3.3063	-3.0417	-3.0521	-3.3417	-2.9229	-3.1542	-3.4167	-3.2562	-3.2875	-3.2771	-3.0771	-3.4146	517.978	388.389	507.237	486.912	364.507	325.178	426.388	484.789	452.068	510.481	173.761	479.046	520.464	486.762	235.612	398.899	0.00048234	0.00052072	0.00015392	1356.7	4.0348e-06	4.3166e-06	1352.1	368.44	5.6666e-06	5.6822e-06	420.05	140.12	122.03	42.011	4.1289e-06	51.766	0.00053805	0.00056787	0.00015236	1374.5	5.9772e-06	6.3066e-06	1373	373.89	6.3956e-06	6.2141e-06	427.05	143.36	124.79	43.078	6.3369e-06	53.235	223.170	259.561	257.711	175.619	323.014	308.393	175.368	179.824	298.260	308.957	179.654	183.676	184.268	188.959	306.671	188.424	-8191	255	
14409.202	1	1	0	0	0.27694	0.13853	0.10543	0.26476	0.1199	0.037889	0.17532	0.28048	0.20316	0.17916	0.13061	0.23492	0.058288	0.047112	0.022687	0.14326	-2.5312	-3.0958	-3.2167	-3.0292	-3.2188	-3.1542	-3.0354	-3.3375	-3.0229	-3.1458	-3.4479	-3.0292	-3.35	-3.2521	-2.8708	-3.3979	453.346	259.550	421.665	475.117	231.661	511.368	519.708	476.029	222.120	505.433	212.044	378.432	444.884	180.941	400.237	506.563	0.00049291	0.00050458	0.0001478	1362.6	4.6238e-06	5.4587e-06	1352.9	367.54	4.7923e-06	5.8507e-06	419.94	140.48	121.97	41.979	3.3124e-06	52.054	0.00053243	0.00056107	0.00015183	1375.7	6.0412e-06	6.1263e-06	1372.9	373.73	6.1031e-06	6.0357e-06	426.71	143.6	124.81	43.024	5.779e-06	53.403	223.499	244.845	254.628	175.489	309.903	306.496	175.391	180.026	302.583	319.940	179.861	183.654	184.317	189.094	303.470	188.350	-8191	255	
14409.298	1	1	0	0	0.17028	0.10277	0.092401	0.098336	0.15801	0.1051	0.17468	0.23774	0.20231	0.025607	0.19483	0.14234	0.18154	0.26501	0.20845	0.2208	-2.6188	-3.0938	-3.1813	-3.2333	-3.2583	-3.1688	-3.2333	-3.2812	-3.0104	-3.0333	-3.3208	-2.9813	-3.0479	-3.1479	-2.8792	-3.3333	238.090	368.758	257.218	188.609	419.256	340.840	168.729	439.651	421.902	456.740	221.844	197.143	297.008	181.561	490.838	495.429	0.0004762	0.00055445	0.00011812	1360.2	4.1433e-06	5.0502e-06	1357.9	367.73	4.4866e-06	4.7487e-06	420.92	139.64	121.91	42.153	4.6025e-06	51.78	0.00053822	0.00057164	0.00014739	1375.7	5.9502e-06	5.7478e-06	1374.6	373.87	6.3683e-06	6.0536e-06	426.83	143.42	124.73	43.049	6.0359e-06	53.177	224.368	249.635	252.586	175.605	310.175	325.314	175.399	179.997	297.346	309.414	179.647	183.733	184.391	189.074	306.092	188.608	-8191	255	
14409.394	1	1	0	0	0.12754	0.22101	0.24106	0.13059	0.072839	0.17062	0.074753	0.19036	0.14952	0.28639	0.29866	0.23781	0.18901	0.14248	0.23047	0.14435	-2.8	-2.9354	-3.1583	-3.2771	-3.1437	-3.4417	-3.2104	-3.3333	-3.0312	-3.1271	-3.5417	-3.1833	-3.1104	-3.4729	-2.9938	-3.3771	192.345	342.485	280.826	503.550	283.369	454.981	487.896	397.351	316.893	261.950	474.693	467.150	508.795	495.382	480.987	172.844	0.00046619	0.00053738	0.00012678	1357.5	3.9951e-06	3.9408e-06	1355.5	367.47	5.1519e-06	5.1728e-06	419.6	139.63	122.48	41.849	4.9663e-06	51.944	0.00052924	0.0005641	0.00015523	1373	6.025e-06	5.8656e-06	1373.4	373.47	6.1084e-06	6.1434e-06	426.69	143.12	124.68	42.98	6.2004e-06	53.326	223.907	247.473	260.812	175.531	307.357	317.517	175.311	180.038	311.550	312.735	179.452	183.754	184.486	189.146	307.694	188.286	-8191	255	
14409.488	1	1	0	0	0.22075	0.16228	0.14524	0.16391	0.30364	0.1668	0.18421	0.15463	0.19889	0.07585	0.17932	0.10335	0.32252	0.031816	0.071328	0.090859	-2.6521	-2.9146	-3.2479	-3.3812	-2.95	-3.3604	-3.0083	-3.3396	-3.1688	-2.9854	-3.4729	-3.2292	-3.0625	-3.2854	-2.8812	-3.4354	283.054	212.862	299.634	500.298	492.882	497.923	485.153	466.498	250.293	229.231	491.104	163.941	520.204	241.312	241.142	188.677	0.00047261	0.00051362	0.00014069	1359.2	4.7996e-06	5.1694e-06	1354.2	367.17	4.2281e-06	5.1982e-06	420.05	140.24	121.71	41.953	5.0361e-06	51.806	0.00053157	0.00053867	0.00015736	1374.1	6.1529e-06	6.1792e-06	1371.7	373.36	6.0476e-06	6.3721e-06	426.69	143.46	124.6	43.023	6.3138e-06	53.258	225.130	247.735	260.541	175.492	311.018	307.816	175.359	179.897	310.243	315.156	179.678	183.605	184.121	189.304	304.546	188.268	-8191	255	
14409.585	1	1	0	0	0.1584	0.14147	0.1029	0.17824	0.11448	0.12925	0.26636	0.18941	0.14606	0.13925	0.077298	0.24298	0.36233	0.10114	0.083437	0.21922	-2.7687	-2.9521	-3.1667	-3.3083	-2.9271	-3.3333	-3.1104	-3.3542	-3.2062	-2.9583	-3.45	-3.2875	-3.1104	-3.3229	-2.9896	-3.2062	178.936	404.039	185.483	466.456	207.424	255.971	509.089	476.438	243.977	226.733	295.955	170.749	243.214	508.237	315.967	434.033	0.00046289	0.00052166	0.00013286	1356.6	4.9537e-06	4.5101e-06	1351.8	367.62	4.5656e-06	5.8706e-06	420.39	140.22	121.69	42.142	4.8568e-06	52.005	0.00053938	0.00059404	0.00015408	1372.8	6.2944e-06	6.1035e-06	1371.7	373.45	6.0564e-06	6.627e-06	427.02	143.47	124.63	43.065	6.083e-06	53.356	223.573	255.909	250.964	175.282	311.359	305.271	175.406	180.006	299.243	309.102	179.448	183.609	184.297	188.893	308.577	188.342	-8191	255	
14409.681	1	1	0	0	0.31886	0.014867	0.12087	0.33625	0.18253	0.16011	0.25757	0.31509	0.091117	0.13701	0.34399	0.21097	0.22732	0.12427	0.048948	0.18558	-2.6833	-2.9917	-3.0729	-3.3479	-2.9354	-3.1542	-3.2667	-3.3125	-3.3146	-3.0354	-3.425	-3.2521	-3.1208	-3.25	-3.0104	-3.2417	474.014	163.499	272.269	212.236	444.982	477.365	382.071	422.925	194.022	473.635	474.619	413.449	206.793	494.792	234.884	323.534	0.00048242	0.00049738	0.00013032	1359.6	3.917e-06	5.779e-06	1356.1	367.89	5.1703e-06	3.1192e-06	419.39	139.78	121.62	42.028	4.4562e-06	51.943	0.00053914	0.00058451	0.00015376	1373.4	6.0493e-06	6.3943e-06	1373.1	373.55	6.4855e-06	6.4128e-06	427.11	143.37	124.8	43.086	6.3248e-06	53.289	223.377	249.847	272.803	175.544	304.047	310.476	175.367	180.218	301.722	322.448	179.470	183.662	184.200	188.881	310.316	188.347	-8191	255	
14409.801	1	1	0	0	0.018987	0.10834	0.12004	0.36716	0.27818	0.16412	0.17635	0.15886	0.055397	0.094605	0.30755	0.29741	0.31055	0.25447	0.081107	0.080674	-2.9917	-3.1146	-3.0396	-3.2833	-2.9562	-3.2792	-3.2458	-3.2271	-3.3208	-3.1083	-3.2354	-3.2188	-3.2062	-3.3	-3.0687	-3.125	325.458	478.147	178.146	184.345	468.117	392.564	169.340	162.464	301.976	212.157	462.750	504.744	467.273	495.510	386.247	378.580	0.00047558	0.0003797	0.00012639	1353.2	4.9626e-06	5.1729e-06	1355.7	366.7	3.9845e-06	4.9115e-06	420.17	140.1	122.61	42.002	4.0523e-06	52.014	0.00053668	0.00056986	0.00015493	1370.7	6.2034e-06	6.1348e-06	1373.1	373.4	6.3331e-06	6.2895e-06	426.76	143.6	124.83	43.039	6.2054e-06	53.315	222.732	257.987	264.827	175.589	314.152	303.109	175.530	179.973	303.901	304.901	179.619	183.939	184.240	189.029	301.827	188.422	-8191	255	
14409.898	1	1	0	0	0.15057	0.23506	0.062298	0.25564	0.34384	0.22897	0.34139	0.22983	0.077353	0.22906	0.21677	0.29968	0.1284	0.11921	0.017015	0.26558	-2.7104	-2.9792	-3.0896	-3.4667	-2.8854	-3.2833	-3.2188	-3.2562	-3.2104	-3.0021	-3.1542	-3.3542	-3.1208	-3.2708	-3.0938	-2.9458	290.000	520.602	232.600	492.652	270.719	392.539	491.312	477.829	379.198	461.510	166.768	453.773	500.845	482.000	204.626	471.939	0.00050275	0.00052445	0.00011631	1354.5	4.2517e-06	4.8286e-06	1357.3	368.5	4.0285e-06	4.9094e-06	419.4	139.52	121.98	41.83	4.0817e-06	51.884	0.00055271	0.00058326	0.00016052	1372.9	6.3269e-06	5.9184e-06	1373.2	373.86	6.2221e-06	6.2703e-06	426.33	143.35	124.6	43.003	6.07e-06	53.295	224.435	262.757	240.035	175.508	312.802	320.473	175.477	180.232	301.725	312.885	179.498	183.807	184.078	188.937	308.423	188.275	-8191	255	
14409.994	1	1	0	0	0.19201	0.3567	0.23403	0.26084	0.22189	0.12696	0.12952	0.15382	0.051283	0.16511	0.20729	0.031139	0.014636	0.20106	0.039457	0.16756	-2.7229	-2.9562	-3.0146	-3.4417	-3.0062	-3.1354	-3.4208	-3.2687	-3.2375	-3.0583	-3.3812	-3.4188	-3.1271	-3.3229	-3.0896	-3.0458	317.000	254.557	410.705	162.760	247.646	273.744	407.638	363.914	193.105	364.153	332.377	320.824	405.295	450.775	482.258	359.539	0.00046713	0.00049561	0.0001091	1359.1	3.9593e-06	4.7941e-06	1354.9	367.34	4.2066e-06	4.2589e-06	419.61	139.62	122.18	42.087	4.7557e-06	52.003	0.00053233	0.00060985	0.00016081	1374.2	6.1989e-06	5.9473e-06	1371.8	373.33	6.104e-06	6.2428e-06	426.67	143.34	124.73	43.055	6.0599e-06	53.281	223.215	259.045	261.317	175.444	313.761	309.593	175.286	179.925	313.807	320.724	179.640	183.752	184.083	188.798	301.163	188.231	-8191	255	
14410.114	1	1	0	0	0.12449	0.12739	0.15021	0.062527	0.051739	0.033125	0.28187	0.13976	0.13781	0.066776	0.33543	0.13666	0.084795	0.27046	0.15686	0.30091	-2.8812	-2.9354	-2.8875	-3.5479	-3.0167	-3.4083	-3.6521	-3.3146	-3.4833	-2.9979	-3.1771	-3.3667	-2.9813	-3.2875	-3.2062	-3.1813	497.042	391.641	390.569	446.266	437.701	309.746	454.899	404.247	354.700	278.508	507.257	389.118	482.444	470.111	181.199	474.053	0.00045828	0.00052916	0.00011963	1352.7	4.1589e-06	5.3051e-06	1355.8	366.51	5.3007e-06	5.5353e-06	419.86	140.34	122.08	42.105	4.4816e-06	51.938	0.00053757	0.00058441	0.00016473	1372.4	6.4728e-06	6.2513e-06	1371.9	373.47	6.126e-06	6.2871e-06	426.69	143.59	124.82	43.079	5.9355e-06	53.282	222.521	238.863	253.139	175.607	304.466	315.191	175.463	180.097	298.159	307.372	179.626	183.486	183.914	189.097	310.099	188.328	-8191	255	
14410.186	1	1	0	0	0.085523	0.091027	0.020924	0.18191	0.085666	0.066992	0.32792	0.37204	0.21435	0.15665	0.32974	0.25386	0.11094	0.17172	0.30438	0.20134	-2.9688	-3.0792	-3.1375	-3.5375	-2.9938	-3.1625	-3.3958	-3.1771	-3.2854	-3.0458	-3.125	-3.3979	-3.1208	-3.1875	-3.1729	-3.0646	168.273	436.630	477.012	375.280	381.067	241.175	433.943	493.841	451.264	395.559	489.635	496.643	340.598	505.500	283.195	403.455	0.0004849	0.00056952	9.8784e-05	1356.1	4.2401e-06	5.6699e-06	1352.8	366.36	4.0792e-06	4.8376e-06	418.98	140.36	122.09	41.997	4.6765e-06	52.22	0.00054044	0.00058472	0.00016064	1371.7	6.3007e-06	6.3018e-06	1370.1	373.14	6.2124e-06	6.0393e-06	426.25	143.49	124.77	43.09	6.1141e-06	53.376	224.847	247.410	255.428	175.572	304.429	311.545	175.234	180.080	295.069	303.861	179.500	183.716	184.391	189.072	304.438	188.337	-8191	255	
14410.282	1	1	0	0	0.19903	0.1746	0.10646	0.19319	0.24554	0.19107	0.1553	0.27788	0.076068	0.27264	0.12111	0.13028	0.10165	0.036194	0.086665	0.20064	-2.8	-3.1813	-2.9667	-3.3604	-2.9583	-3.0917	-3.4917	-3.0333	-3.1042	-3.05	-3.0583	-3.3375	-3.1146	-3.1813	-3.4625	-3.2083	412.677	315.353	254.517	193.134	204.263	282.641	417.775	481.259	295.137	400.881	466.474	475.666	426.303	500.887	316.935	442.560	0.00046932	0.00050004	0.00011229	1356.9	4.4739e-06	5.2853e-06	1357.3	367.76	4.6132e-06	6.9191e-06	420.81	140.19	121.74	42.074	4.949e-06	51.75	0.00054497	0.00055751	0.00016175	1371.9	6.3124e-06	6.4112e-06	1371	373.69	6.2661e-06	6.3781e-06	426.81	143.33	124.65	43.065	6.1432e-06	53.218	223.184	253.138	255.480	175.526	309.605	307.087	175.449	180.037	294.901	313.626	179.668	183.756	184.178	189.036	303.049	188.396	-8191	255	
14410.378	1	1	0	0	0.2679	0.027578	0.070372	0.3739	0.21098	0.26667	0.2472	0.16123	0.16552	0.1925	0.10643	0.1857	0.11199	0.26871	0.15818	0.25479	-2.6083	-3.2208	-2.9583	-3.2458	-3.0771	-3.1437	-3.4271	-3.2021	-3.1833	-3.225	-2.8458	-3.4333	-3.2938	-3.0479	-3.3604	-3.1542	437.994	228.229	480.589	475.467	343.392	365.256	483.652	185.069	498.729	440.404	496.005	451.871	372.336	521.269	194.649	497.175	0.00048189	0.00051968	0.00013751	1355.9	3.9599e-06	4.3821e-06	1354.1	366.6	4.7043e-06	5.5825e-06	420.31	140.17	122.62	41.945	5.3972e-06	51.553	0.00053442	0.00056347	0.00016286	1371	6.1728e-06	6.3342e-06	1371.7	373.05	6.1445e-06	6.171e-06	427.11	143.46	124.94	43.072	5.9777e-06	53.135	222.298	244.265	256.544	175.504	314.766	317.827	175.523	179.876	301.825	309.324	179.753	183.802	184.063	189.070	306.336	188.258	-8191	255	
14410.497	1	1	0	0	0.1427	0.065818	0.18736	0.18495	0.13193	0.37803	0.031526	0.3387	0.25848	0.15308	0.021675	0.15952	0.17299	0.18861	0.16787	0.022717	-2.8125	-3.1771	-3.0375	-3.55	-3.1042	-2.9083	-3.3563	-3.3312	-3.075	-3.4062	-3.2062	-3.2979	-3.0583	-3.0812	-3.3063	-3.2396	517.062	227.517	498.071	433.916	242.047	239.026	431.620	183.783	181.178	494.570	360.969	507.905	431.864	332.308	439.964	246.238	0.00047206	0.0004641	0.00015641	1355.9	4.2924e-06	5.2204e-06	1350.4	367.72	4.781e-06	4.9434e-06	419.39	139.96	122.24	42.006	4.1944e-06	51.721	0.00053325	0.00056881	0.00015663	1371	6.116e-06	6.3258e-06	1370.1	373.22	6.3313e-06	6.0249e-06	426.1	143.18	124.77	43.006	6.2034e-06	53.191	223.819	251.879	256.038	175.573	301.146	316.510	175.255	179.984	297.785	313.427	179.505	183.722	184.165	188.801	308.854	188.214	-8191	255	
14410.593	1	1	0	0	0.23693	0.21189	0.10137	0.26909	0.044883	0.13064	0.21996	0.26446	0.1078	0.14603	0.11116	0.14442	0.11355	0.095989	0.0604	0.48357	-2.5979	-3.5042	-2.9938	-3.4625	-3.2292	-3.1333	-3.5167	-3.2938	-2.9896	-3.3937	-3.2604	-3.3104	-3.2604	-3.0917	-3.2313	-3.1937	321.804	203.715	446.080	472.361	360.156	173.923	164.836	175.607	353.963	307.972	451.700	487.678	509.795	293.760	283.098	478.239	0.00048791	0.000434	0.00013506	1356.7	5.0072e-06	4.8311e-06	1355.5	367.71	3.8606e-06	5.2338e-06	420.37	139.7	121.29	42.067	4.6375e-06	51.794	0.00055904	0.00054453	0.00016409	1372.4	6.3935e-06	6.3138e-06	1370	373.46	6.1075e-06	5.8489e-06	426.71	143.37	124.56	43.073	6.0198e-06	53.23	224.539	253.280	253.034	175.548	300.419	309.837	175.331	179.966	305.174	314.254	179.726	183.759	184.142	189.264	307.540	188.375	-8191	255	
14410.690	1	1	0	0	0.45662	0.17484	0.15064	0.31312	0.17236	0.090114	0.081242	0.16311	0.37405	0.11856	0.33501	0.024175	0.22106	0.36729	0.13272	0.14776	-2.5708	-3.3667	-2.8292	-3.3812	-3.2021	-2.9542	-3.5667	-3.3167	-3.1562	-3.2125	-3.0208	-2.9688	-3.2958	-3.1021	-3.2313	-3.1875	261.590	261.852	462.231	487.385	334.263	343.242	510.408	474.597	184.117	351.921	489.103	408.588	449.046	413.202	517.857	514.654	0.00048782	0.0005374	0.00013845	1354.1	3.964e-06	5.0837e-06	1352.3	366.83	4.4448e-06	4.6741e-06	420.18	140.14	122.12	41.988	4.5516e-06	51.846	0.00054668	0.00057049	0.00015473	1370.3	5.8547e-06	6.029e-06	1371.2	373.13	6.2881e-06	6.1027e-06	426.9	143.5	124.79	43.067	5.9315e-06	53.262	222.924	243.255	246.057	175.671	311.155	306.921	175.263	180.090	308.454	325.529	179.662	183.786	184.178	188.981	314.501	188.216	-8191	255	
14410.763	1	1	0	0	0.16419	0.30383	0.11049	0.091027	0.15854	0.13654	0.43655	0.16927	0.097556	0.11029	0.075972	0.20766	0.19409	0.1579	0.10598	0.17116	-2.5354	-3.2917	-3.1542	-3.2479	-3.2875	-2.8125	-3.4146	-3.4042	-2.975	-3.2792	-3.1188	-3.1562	-3.4604	-3.2	-3.1375	-3.1146	198.522	375.930	422.884	196.275	332.804	294.868	459.554	459.348	207.791	494.751	391.640	383.250	177.011	447.275	465.347	186.915	0.00048074	0.00044255	0.00014508	1354.6	3.8236e-06	5.2169e-06	1356.1	366.66	4.7679e-06	5.7347e-06	418.75	140.27	121.47	42.138	5.0774e-06	52.032	0.00054801	0.00058169	0.00015835	1371.6	6.016e-06	6.2129e-06	1370.8	372.93	6.4538e-06	6.0417e-06	426.03	143.45	124.44	43.122	6.1673e-06	53.283	223.963	258.378	256.995	175.482	302.437	305.366	175.310	179.952	301.389	317.965	179.555	183.583	184.410	189.100	314.544	188.149	-8191	255	
14410.882	1	1	0	0	0.13956	0.18168	0.13998	0.081181	0.37814	0.053273	0.21025	0.36905	0.20873	0.22693	0.26496	0.23303	0.15605	0.090973	0.0924	0.2551	-2.55	-3.15	-3.0833	-3.2771	-3.2271	-3.0792	-3.4813	-3.3812	-2.9417	-3.2417	-3.1396	-3.2396	-3.4271	-3.0062	-3.1479	-3.4021	311.237	214.281	454.179	436.511	452.818	355.210	480.150	469.053	400.940	232.519	470.700	177.186	171.453	197.839	478.924	433.089	0.00047926	0.00048916	0.00012229	1353.2	4.1874e-06	5.2355e-06	1351.6	367.26	5.3435e-06	5.1016e-06	419.43	140.67	122.01	41.984	4.0732e-06	51.96	0.00054216	0.00054149	0.0001535	1371.3	5.9042e-06	6.0506e-06	1370.1	373.36	6.2353e-06	5.9399e-06	426.46	143.6	124.63	43.02	6.0258e-06	53.235	222.715	247.440	250.694	175.614	306.716	312.846	175.443	180.080	300.753	311.048	179.634	183.713	184.181	188.926	312.258	188.352	-8191	255	
14410.978	1	1	0	0	0.063732	0.21012	0.092759	0.25471	0.072621	0.10164	0.19878	0.24967	0.18584	0.20139	0.2284	0.19881	0.13313	0.23453	0.21241	0.13879	-2.6583	-3.2771	-3.15	-3.3896	-3.3417	-3.0646	-3.3479	-3.5333	-2.7354	-3.0625	-3.1458	-3.2062	-3.4437	-3.0542	-2.9437	-3.325	184.435	481.299	230.770	461.681	490.572	309.040	455.413	440.041	506.569	407.048	427.931	443.286	474.943	167.677	428.560	479.528	0.00049345	0.00047946	0.00014182	1352.4	4.8435e-06	6.1379e-06	1356.5	366.41	4.4727e-06	5.4587e-06	418.79	139.82	121.99	42.009	4.792e-06	51.809	0.00055514	0.0005551	0.0001573	1370	5.7564e-06	6.2345e-06	1371.7	372.88	6.3234e-06	6.0417e-06	426.19	143.34	124.73	43.011	6.1001e-06	53.256	222.467	248.054	271.426	175.768	299.056	317.474	175.316	180.205	296.812	309.449	179.597	183.796	184.105	188.981	308.176	188.220	-8191	255	
14411.074	1	1	0	0	0.065682	0.068436	0.29894	0.4607	0.23183	0.33057	0.29109	0.09738	0.096005	0.080003	0.10628	0.10169	0.15166	0.11988	0.22715	0.064479	-2.4292	-3.2271	-3.2	-3.0938	-3.2271	-3.1688	-3.3521	-3.4708	-3.0583	-3.2188	-3.2375	-3.1813	-3.4417	-3.2792	-3.0146	-3.3125	258.171	162.363	478.046	462.024	306.433	487.340	427.073	514.579	216.692	268.512	489.249	203.953	413.401	504.687	318.630	237.625	0.00046893	0.00055783	0.00016179	1355.9	4.7369e-06	4.8223e-06	1351.1	366.31	4.9518e-06	5.104e-06	419.11	140.03	122.12	41.98	3.964e-06	51.877	0.00053555	0.00054987	0.00015444	1371.8	5.9042e-06	6.0446e-06	1369.8	373.1	6.3833e-06	5.9076e-06	425.91	143.41	124.74	43.072	6.1512e-06	53.295	223.535	253.142	253.722	175.579	291.862	317.708	175.505	180.068	299.091	317.599	179.339	183.781	184.217	188.998	301.710	188.334	-8191	255	
14411.195	1	1	0	0	0.20829	0.32318	0.16159	0.25933	0.086177	0.13565	0.066562	0.30578	0.18469	0.15798	0.13691	0.34534	0.038567	0.23319	0.089756	0.13797	-2.6208	-3.15	-2.8625	-3.1271	-3.2521	-2.9479	-3.2687	-3.4625	-3.0146	-2.9375	-3.3979	-3.025	-3.3292	-3.2104	-2.8771	-3.3875	276.506	419.261	191.157	466.406	369.021	195.800	243.094	449.201	448.015	185.435	467.953	211.089	329.958	163.784	323.054	386.032	0.00046756	0.00049313	0.00018006	1355.1	3.6072e-06	5.5734e-06	1352.1	365.64	4.5437e-06	5.6652e-06	420.72	139.75	121.71	42.03	4.7923e-06	51.909	0.00053589	0.00056389	0.00015669	1370	6.0187e-06	6.2045e-06	1370.5	373	6.215e-06	6.1997e-06	426.86	143.47	124.8	43.029	6.0198e-06	53.291	222.971	250.459	263.230	175.432	312.950	320.243	175.317	179.948	301.392	307.811	179.519	183.896	184.298	188.941	292.843	188.352	-8191	255	
14411.289	1	1	0	0	0.14397	0.19	0.10503	0.018121	0.071733	0.088137	0.24712	0.16701	0.2418	0.15841	0.22042	0.23063	0.091911	0.24777	0.13451	0.27189	-2.5271	-3.1125	-3.1729	-3.1292	-3.2812	-3.0687	-3.1396	-3.4542	-3.0521	-3.0771	-3.3917	-3.0896	-3.2875	-3.4062	-3.0229	-3.4646	324.876	383.675	410.457	498.455	191.343	231.144	515.234	453.634	352.995	425.298	498.766	515.143	179.886	433.728	213.468	173.964	0.00047381	0.00050562	0.00013822	1353.9	4.4445e-06	4.8769e-06	1354.5	366.74	4.306e-06	3.982e-06	419.05	140.04	122.62	41.874	4.2189e-06	51.88	0.00053312	0.00056463	0.00015414	1372.4	5.9925e-06	6.1324e-06	1370.9	373.25	6.2608e-06	5.9136e-06	426.41	143.24	124.89	42.99	6.1141e-06	53.264	223.658	249.086	261.750	175.517	303.839	320.166	175.454	180.109	300.949	310.754	179.591	183.679	184.228	189.159	300.702	188.337	-8191	255	
14411.385	1	1	0	0	0.032047	0.14893	0.13337	0.16072	0.054662	0.20468	0.24523	0.17684	0.26813	0.080208	0.4525	0.31547	0.04239	0.2449	0.15065	0.043833	-2.7271	-2.8271	-3.2333	-3.3021	-3.2562	-3.1063	-3.0563	-3.3375	-3.1229	-3.0354	-3.3438	-3.0896	-3.2271	-3.2646	-2.9792	-3.3479	269.350	318.712	240.943	495.692	191.837	347.111	445.900	433.395	455.962	440.832	434.027	469.943	321.729	191.741	493.478	355.825	0.00048154	0.00043775	0.00016812	1355.6	4.0898e-06	4.2395e-06	1354.2	367.4	4.7814e-06	4.9238e-06	421.13	140.28	122.34	42.082	4.8007e-06	52.038	0.00053582	0.00057101	0.00015607	1372	5.8727e-06	6.0398e-06	1371.2	373.56	6.1278e-06	6.3374e-06	427.5	143.56	124.91	43.052	6.1161e-06	53.324	222.519	245.765	255.806	175.603	303.092	320.778	175.459	180.007	301.537	314.432	179.499	183.939	184.481	188.755	300.330	188.129	-8191	255	
14411.483	1	1	0	0	0.21341	0.16362	0.29662	0.31106	0.22693	0.16067	0.42054	0.29401	0.10798	0.16515	0.21722	0.13287	0.12598	0.14487	0.15383	0.058655	-2.7188	-3.0292	-3.4104	-3.3521	-3.0333	-3.3042	-3.1875	-3.4354	-3.1771	-2.95	-3.3146	-3.0646	-3.2958	-3.2938	-2.95	-3.5312	241.761	317.742	420.481	465.572	272.647	502.382	468.893	500.774	287.942	346.886	483.760	434.350	272.838	367.020	224.965	260.129	0.00047721	0.00054572	0.00014298	1357.2	4.5679e-06	4.835e-06	1351.6	367.6	4.5696e-06	5.4289e-06	418.94	139.95	121.96	42.094	5.0209e-06	51.964	0.00053377	0.00056274	0.00015695	1372.3	6.1701e-06	5.8427e-06	1369.9	373.51	6.1357e-06	5.9483e-06	426.77	143.31	124.8	43.077	5.9807e-06	53.261	222.125	249.699	258.799	175.553	316.960	304.952	175.389	180.116	302.325	320.658	179.499	183.817	184.200	189.024	305.219	188.404	-8191	255	
14411.578	1	1	0	0	0.19865	0.16258	0.093879	0.22406	0.23597	0.19253	0.080777	0.14608	0.2261	0.1743	0.25448	0.081318	0.055704	0.24452	0.18543	0.26989	-2.5896	-2.7667	-3.2938	-3.1125	-3.1125	-3.3458	-3.0646	-3.2125	-3.0146	-3.0229	-3.2458	-3.0771	-3.2562	-3.0646	-2.9813	-3.2792	408.697	270.076	371.975	486.943	173.889	167.978	414.824	363.315	339.337	296.982	471.046	488.017	480.868	449.252	316.797	510.719	0.00048265	0.00039448	0.00010977	1357.9	4.3783e-06	4.3759e-06	1350.4	366.4	4.9115e-06	5.7087e-06	419.52	140.16	121.65	42.242	4.8475e-06	51.894	0.00054315	0.00054641	0.00015104	1371.3	6.2764e-06	5.9893e-06	1370.3	373.12	6.0846e-06	6.5421e-06	426.48	143.38	124.8	43.144	6.2335e-06	53.288	224.371	251.667	262.116	175.631	304.090	311.226	175.297	180.059	302.344	316.678	179.683	183.611	184.276	189.114	304.730	188.519	-8191	255	
14411.674	1	1	0	0	0.15282	0.13468	0.18709	0.074985	0.24831	0.29852	0.36493	0.20588	0.025862	0.1965	0.1134	0.29443	0.20605	0.26903	0.22335	0.10433	-2.7771	-2.6917	-3.1896	-3.2854	-2.9375	-3.25	-3.2354	-3.2646	-3.25	-3.0792	-3.4729	-3.1063	-2.9167	-3.4125	-3.0812	-3.2708	477.519	480.009	444.846	193.009	454.486	339.229	440.702	482.664	175.699	340.773	519.263	435.787	515.092	498.393	472.166	508.581	0.00049515	0.00049089	0.00010641	1353	4.4709e-06	5.031e-06	1353.2	367.19	4.1552e-06	4.4287e-06	421.78	140.1	121.91	42.144	3.8725e-06	51.89	0.00053788	0.0005462	0.00014715	1370.8	5.8898e-06	6.19e-06	1370.9	373.63	5.9287e-06	5.752e-06	427.34	143.43	124.59	43.071	6.2305e-06	53.304	223.993	238.919	266.274	175.806	307.682	316.970	175.420	180.023	305.247	323.332	179.624	183.801	184.220	188.918	296.521	188.185	-8191	255	
14411.794	1	1	0	0	0.21251	0.24445	0.25537	0.15696	0.24454	0.13564	0.26889	0.39113	0.16751	0.15122	0.12135	0.19457	0.10081	0.16833	0.12155	0.13308	-2.8417	-3.0062	-3.1917	-3.3458	-3.1208	-3.3979	-3.3354	-3.4292	-3.2667	-3.0458	-3.3125	-3.3063	-2.9854	-3.3604	-3.1208	-3.2396	477.536	216.638	508.050	495.321	315.387	399.504	433.111	468.672	381.078	448.734	482.500	239.025	491.272	447.851	431.524	248.435	0.00049919	0.00058028	0.00015417	1355.4	4.4796e-06	4.8581e-06	1350.1	366.48	4.8441e-06	6.0257e-06	420.65	140.64	122.65	42.009	3.542e-06	51.989	0.00054945	0.00054725	0.00015245	1371.7	6.1061e-06	5.6985e-06	1370.9	373.46	6.1075e-06	6.0932e-06	426.89	143.53	124.83	43.059	5.9797e-06	53.303	223.667	247.219	251.296	175.491	298.290	300.486	175.280	180.054	300.128	312.523	179.445	183.814	184.224	189.338	320.246	188.323	-8191	255	
14411.891	1	1	0	0	0.2633	0.15299	0.15346	0.059261	0.18997	0.31329	0.073374	0.24442	0.1663	0.32783	0.30327	0.08742	0.063922	0.12537	0.30039	0.30348	-3.0583	-2.9479	-3.2042	-3.3896	-2.9979	-3.3917	-3.2729	-3.2229	-3.3354	-2.9646	-3.4188	-3.2667	-3.1125	-3.3021	-2.9562	-2.9875	339.735	180.762	270.478	448.867	418.542	176.096	406.937	405.316	472.186	168.496	465.214	508.266	450.742	226.642	294.055	482.175	0.00048497	0.00051259	0.00016135	1356.4	4.3065e-06	3.6528e-06	1354.1	367.6	4.3303e-06	5.1959e-06	419.79	140.17	121.79	41.746	4.5569e-06	51.828	0.00053777	0.00056965	0.0001561	1372.6	6.1637e-06	5.5615e-06	1371.7	373.85	5.8159e-06	6.0321e-06	426.73	143.3	124.91	43.03	6.069e-06	53.222	223.101	246.879	258.265	175.441	307.094	321.815	175.329	180.144	295.780	320.985	179.586	183.680	184.172	189.180	310.671	188.254	-8191	255	
14411.987	1	1	0	0	0.12542	0.21606	0.040805	0.29496	0.0914	0.33547	0.1982	0.041228	0.26406	0.08041	0.10327	0.32204	0.16102	0.27326	0.27141	0.281	-2.7479	-2.9625	-3.1312	-3.3167	-2.7792	-3.1063	-3.3104	-3.225	-3.2083	-3.1542	-3.2854	-3.3563	-2.975	-3.3625	-3.0563	-3.125	397.521	516.461	375.480	465.403	241.196	252.759	436.386	421.738	266.077	306.021	465.267	245.490	434.510	490.618	166.399	455.134	0.00048749	0.0005092	0.00015161	1356.5	3.8897e-06	3.7695e-06	1355.2	367.22	4.7779e-06	5.0013e-06	420.31	140.72	122.36	42.186	4.9392e-06	51.892	0.00054346	0.00056023	0.00015306	1371.8	5.9141e-06	5.9004e-06	1372.8	373.47	5.9877e-06	6.2404e-06	427.71	143.69	124.83	43.155	6.1462e-06	53.261	224.484	254.351	253.925	175.600	305.982	322.228	175.398	179.880	299.976	318.609	179.508	183.823	184.141	189.111	298.032	188.325	-8191	255	
14412.058	1	1	0	0	0.10885	0.18724	0.20379	0.34501	0.14904	0.011987	0.25617	0.24123	0.10857	0.18889	0.17119	0.29818	0.28823	0.20604	0.15956	0.079746	-2.7896	-3.0396	-3.0354	-3.5458	-3.0229	-3.3187	-3.3292	-3.0208	-3.0792	-3.1417	-3.1104	-3.3875	-2.9417	-3.1917	-3.0271	-3.0563	519.128	390.738	384.846	476.158	387.183	429.235	400.514	505.019	489.940	433.473	409.954	480.048	410.492	517.532	344.709	440.053	0.00049778	0.00044587	0.0001201	1355.9	4.3542e-06	5.0309e-06	1352.9	367.09	4.2986e-06	6.3508e-06	419.62	140.31	121.99	41.995	4.8333e-06	52.07	0.00054986	0.00056505	0.00015172	1371.8	6.0502e-06	6.0134e-06	1370.6	373.21	6.0467e-06	6.3182e-06	426.2	143.44	124.75	43.072	6.0028e-06	53.307	224.132	256.054	245.015	175.505	298.360	313.126	175.460	179.969	301.802	323.038	179.559	183.875	184.101	188.983	312.109	188.483	-8191	255	
14412.179	1	1	0	0	0.18857	0.16511	0.17822	0.26644	0.045802	0.0076432	0.1199	0.22716	0.066903	0.16075	0.22738	0.14796	0.11983	0.088227	0.11122	0.13421	-2.7646	-3.05	-2.9542	-3.5104	-3.0229	-3.0417	-3.3854	-3.1958	-3.2646	-3.0333	-3.2229	-3.4271	-3.1021	-3.2562	-3.1854	-3.2271	454.579	220.514	233.923	435.831	406.371	266.210	398.006	459.646	355.008	332.482	181.661	241.183	508.549	364.767	476.561	295.120	0.00049235	0.00063009	0.00013177	1356.7	3.6157e-06	4.7398e-06	1355.8	366.77	5.7695e-06	5.0407e-06	419.23	140.31	122.22	42.091	4.8503e-06	51.925	0.00053178	0.00057206	0.00015376	1372.6	6.0484e-06	6.2081e-06	1370.2	373.4	6.0547e-06	6.0536e-06	426.28	143.56	124.64	43.086	6.0278e-06	53.267	222.881	253.699	250.154	175.480	309.084	305.000	175.284	179.955	300.339	309.168	179.554	183.877	184.087	188.850	302.880	188.521	-8191	255	
14412.275	1	1	0	0	0.031703	0.25196	0.31156	0.19228	0.094622	0.048805	0.19937	0.10099	0.07506	0.36365	0.16759	0.18458	0.20636	0.056533	0.16999	0.15484	-2.9188	-3.1958	-3.0229	-3.5104	-3.1271	-3.2292	-3.4167	-3.2	-3.275	-3.1542	-3.1104	-3.3292	-3.1979	-3.0979	-3.0812	-3.0792	204.478	430.908	258.636	170.485	308.085	371.970	455.127	478.702	390.666	291.779	468.544	506.594	476.015	438.252	253.273	227.247	0.00047609	0.00043849	0.00013665	1354.2	4.3981e-06	4.7756e-06	1349.5	367.52	4.9911e-06	4.5322e-06	419.04	140.53	121.86	42.188	3.6369e-06	51.846	0.00053332	0.00053772	0.00015876	1371.2	6.1755e-06	6.1996e-06	1370.3	373.52	6.1243e-06	5.7113e-06	427.01	143.5	124.65	43.108	5.8061e-06	53.273	223.562	242.794	256.300	175.484	314.142	330.834	175.517	180.032	299.734	310.313	179.660	183.657	184.391	188.878	307.574	188.355	-8191	255	
14412.371	1	1	0	0	0.1513	0.29801	0.11698	0.19999	0.12349	0.11914	0.076742	0.2216	0.258	0.049269	0.13662	0.22384	0.1703	0.15418	0.17063	0.11834	-2.7208	-3.1896	-3.0521	-3.4167	-3.1208	-3.2771	-3.4458	-3.1667	-3.1854	-3.1813	-3.0521	-3.4146	-2.9292	-3.1667	-3.3104	-3.0833	216.938	438.471	173.863	502.055	367.540	489.309	170.624	429.342	206.337	459.887	209.558	495.392	392.664	468.949	458.773	177.084	0.0004704	0.00051073	0.00013104	1357.3	4.4545e-06	5.7177e-06	1355.6	367.05	4.5925e-06	5.4814e-06	420.77	140.36	121.78	42.056	4.359e-06	51.951	0.00053363	0.00055636	0.00015025	1372.9	6.2611e-06	6.0819e-06	1371.3	373.49	6.1375e-06	5.9567e-06	426.82	143.68	124.66	43.069	5.9616e-06	53.368	225.580	243.654	249.405	175.606	313.343	311.113	175.385	180.005	298.916	318.402	179.626	183.764	184.169	189.089	306.916	188.168	-8191	255	
14412.466	1	1	0	0	0.087569	0.07246	0.12537	0.25578	0.13721	0.12003	0.18842	0.16244	0.1029	0.053172	0.036007	0.1784	0.06261	0.29239	0.22666	0.15933	-2.8104	-3.2125	-2.9542	-3.45	-3.0812	-2.9229	-3.375	-3.425	-3.0542	-3.1937	-3.0125	-3.2625	-3.1542	-3.025	-3.1896	-3.1	342.342	351.768	397.262	508.213	401.491	433.155	514.148	484.095	347.915	236.326	294.520	386.520	172.152	219.673	339.260	355.688	0.00050148	0.0004068	0.00013547	1355.1	4.1187e-06	4.1991e-06	1352.2	366.61	5.1133e-06	5.4045e-06	420.18	140.63	122.15	42.027	5.7618e-06	51.882	0.00055205	0.00056515	0.00016005	1370.5	5.9565e-06	6.172e-06	1370.7	373.25	6.3067e-06	5.989e-06	426.86	143.51	124.89	43.097	6.0318e-06	53.227	224.355	263.654	259.210	175.522	304.102	295.802	175.344	180.005	298.703	323.867	179.466	183.700	184.019	189.193	307.349	188.290	-8191	255	
14412.564	1	1	0	0	0.10236	0.097306	0.11878	0.24115	0.1807	0.10347	0.19479	0.29745	0.022516	0.064339	0.036843	0.13065	0.3574	0.29643	0.13593	0.14416	-2.5646	-3.1896	-2.8583	-3.3042	-3.0521	-3.1896	-3.5604	-3.2375	-3.1312	-3.4208	-3.1896	-3.3021	-3.2104	-2.9313	-3.3187	-3.1792	336.377	435.984	194.416	487.570	207.200	365.832	382.032	439.408	470.301	253.224	503.816	505.605	209.619	262.365	199.266	452.772	0.00046252	0.00049972	0.00014877	1357.6	4.0932e-06	5.6815e-06	1352.7	366.75	4.1126e-06	4.9261e-06	420.03	140.21	121.9	42.019	4.0841e-06	51.87	0.00052579	0.00056023	0.00016049	1371.2	6.0853e-06	6.2033e-06	1369.9	373.11	6.3701e-06	5.9196e-06	426.86	143.3	124.92	43.076	5.8472e-06	53.246	224.366	253.326	254.663	175.533	307.932	299.843	175.383	179.968	301.522	301.492	179.512	183.807	184.079	188.843	309.100	188.331	-8191	255	
14412.658	1	1	0	0	0.083587	0.19938	0.11502	0.29223	0.16998	0.059444	0.18875	0.37317	0.15309	0.024344	0.099019	0.1456	0.21591	0.41345	0.2626	0.14684	-2.55	-3.2917	-3.1354	-3.3958	-3.1875	-2.9958	-3.3708	-3.3083	-3.125	-3.2958	-3.1708	-3.2729	-3.1125	-3.15	-3.1813	-3.3417	305.631	499.116	382.043	196.642	344.332	513.327	436.330	484.796	481.674	439.911	381.313	178.950	483.809	435.612	237.573	508.728	0.00047572	0.00041742	0.00013987	1352.2	4.1664e-06	4.7203e-06	1350.7	367.03	4.4084e-06	4.4844e-06	419.93	140.33	121.92	41.931	5.3359e-06	51.82	0.00053438	0.00051082	0.00015069	1371.4	6.0259e-06	6.0098e-06	1369.7	373.02	6.1507e-06	6.1219e-06	426.43	143.34	124.55	43.038	6.2014e-06	53.299	223.640	237.215	262.554	175.442	304.396	311.032	175.395	179.836	302.817	308.351	179.524	183.740	184.161	189.179	296.673	188.111	-8191	255	
14412.754	1	1	0	0	0.020318	0.1451	0.22903	0.061779	0.19215	0.055131	0.22661	0.12654	0.013764	0.14103	0.22189	0.16405	0.17393	0.24589	0.25763	0.092987	-2.5229	-3.1729	-2.9625	-3.3271	-3.2833	-2.8229	-3.4271	-3.3208	-2.9792	-3.1937	-3.1	-3.2938	-3.1979	-3.025	-3.0646	-3.3063	316.957	316.704	236.859	227.562	164.241	495.113	469.721	469.785	347.151	359.540	220.574	512.083	492.370	187.950	288.777	518.766	0.00049626	0.00051788	0.00011195	1356.1	5.5644e-06	5.6319e-06	1350.7	366.44	4.6908e-06	5.3839e-06	420.17	139.83	122.34	41.968	5.0838e-06	52.078	0.00054863	0.00051689	0.00015002	1373.4	6.1394e-06	6.1648e-06	1370.5	372.99	6.3639e-06	6.2871e-06	426.89	143.41	124.96	43.068	6.1031e-06	53.373	225.066	246.297	247.098	175.746	305.350	319.831	175.393	180.130	303.343	318.130	179.436	183.716	184.228	188.956	303.571	188.444	-8191	255	
14412.875	1	1	0	0	0.16496	0.18648	0.16424	0.14164	0.17888	0.15891	0.094502	0.041467	0.14672	0.19094	0.18314	0.059465	0.067971	0.10968	0.31786	0.12483	-2.4938	-3.1896	-2.9125	-3.3438	-3.2583	-3.0104	-3.2854	-3.4167	-2.9917	-3.3063	-3.1937	-3.0958	-3.375	-3.3	-3.1042	-3.1646	252.184	356.880	364.993	514.931	517.765	391.673	471.201	477.233	319.562	304.046	168.694	511.959	180.133	193.499	165.347	409.078	0.00046836	0.00055031	0.00016545	1352.9	3.8446e-06	4.718e-06	1351.7	366.78	5.0211e-06	5.9122e-06	419.89	140.06	121.88	41.875	5.0132e-06	51.855	0.00052767	0.00055646	0.00016175	1370.6	5.9457e-06	6.1215e-06	1370.6	373.15	6.4221e-06	6.3014e-06	426.67	143.5	124.53	43.049	6.2295e-06	53.243	222.969	247.984	271.049	175.674	295.672	313.268	175.442	180.067	298.009	311.807	179.703	183.593	184.075	188.972	308.591	188.406	-8191	255	
14412.971	1	1	0	0	0.15814	0.054268	0.096121	0.41235	0.15809	0.14982	0.068152	0.27052	0.37085	0.03927	0.079025	0.21784	0.067511	0.31314	0.069706	0.13955	-2.6292	-3.2667	-2.9854	-3.3125	-3.1729	-2.9479	-3.3375	-3.4333	-3.1063	-3.1667	-3.3438	-3.1875	-3.4417	-3.0083	-3.2167	-3.2354	363.516	340.503	463.578	508.600	365.527	427.869	368.618	477.616	463.630	424.906	413.304	221.473	164.394	500.569	177.557	457.277	0.00048655	0.00058006	0.00014589	1356.2	3.9681e-06	4.9651e-06	1353.1	366.23	4.1798e-06	4.2905e-06	417.77	140.01	121.55	41.99	4.1913e-06	52.051	0.0005437	0.0005617	0.00016265	1371.3	5.8132e-06	6.4412e-06	1370.3	373.29	6.2335e-06	6.1638e-06	426.36	143.26	124.7	43.07	6.0298e-06	53.324	225.222	253.528	251.129	175.565	304.426	301.170	175.325	180.079	298.174	317.997	179.649	183.794	184.351	188.914	306.600	188.337	-8191	255	
14413.067	1	1	0	0	0.25544	0.058674	0.089104	0.2645	0.23802	0.17467	0.38934	0.25379	0.33469	0.29985	0.1135	0.10769	0.22505	0.11693	0.020373	0.17767	-2.3167	-3.3167	-3.0625	-3.1875	-3.2854	-3.0292	-3.2833	-3.3792	-2.9542	-3.275	-3.2	-2.975	-3.25	-3.0583	-3.0812	-3.2625	492.598	167.848	470.179	487.189	324.155	326.482	456.050	449.509	314.431	381.117	426.925	287.207	513.825	331.368	390.243	418.411	0.00048794	0.00045949	0.00013336	1354.7	5.5996e-06	5.3742e-06	1352.2	366.56	4.5777e-06	5.1819e-06	418.43	140.2	122.25	42.051	3.0535e-06	51.922	0.00054596	0.00054034	0.00016037	1372	6.0205e-06	6.339e-06	1371.1	372.9	6.3137e-06	6.3721e-06	426.3	143.37	124.74	43.076	6.1402e-06	53.237	222.544	253.634	253.514	175.478	306.043	308.449	175.422	179.970	305.301	326.223	179.711	183.691	184.310	188.955	307.170	188.202	-8191	255	
14413.163	1	1	0	0	0.14432	0.17687	0.23387	0.18165	0.26345	0.087751	0.23	0.37053	0.19802	0.18684	0.1723	0.14321	0.30253	0.13972	0.11858	0.10658	-2.4854	-3.2021	-3.0604	-3.1125	-3.2521	-3.2167	-3.1562	-3.3833	-2.9688	-3.3458	-3.3333	-3.0229	-3.4021	-3.1833	-2.9854	-3.4688	266.109	405.407	348.750	444.345	225.061	376.858	422.041	484.664	185.563	209.748	360.304	468.305	276.837	494.813	166.654	434.247	0.00049116	0.00048949	0.00010849	1354.3	4.4422e-06	5.74e-06	1348.2	367.1	4.4582e-06	5.2849e-06	417.87	140.46	122.3	41.962	4.7291e-06	51.862	0.00055455	0.00059362	0.00015157	1370	6.2196e-06	6.2213e-06	1367.9	373.14	6.3674e-06	6.2883e-06	425.44	143.43	124.68	43.034	6.2064e-06	53.269	222.797	258.384	252.652	175.378	302.633	300.282	175.461	179.901	305.477	310.198	179.410	183.550	184.100	188.912	313.847	188.307	-8191	255	
14413.284	1	1	0	0	0.07512	0.27241	0.28753	0.14767	0.033553	0.1216	0.15284	0.37058	0.097968	0.2768	0.10171	0.052197	0.1954	0.20059	0.28304	0.17468	-2.5271	-3.1146	-3.0021	-3.1542	-3.2938	-3.1125	-3.0854	-3.4437	-3.0542	-3.1312	-3.4062	-2.9458	-3.2583	-3.2708	-2.9188	-3.1854	222.293	435.636	432.850	508.281	276.803	282.681	509.554	476.309	384.989	428.342	451.359	328.562	174.916	169.595	495.425	394.183	0.00048222	0.00040036	0.00012445	1352.4	4.3964e-06	4.3689e-06	1350.2	367.76	5.1549e-06	6.2274e-06	419.05	139.99	121.83	42.05	4.0064e-06	51.756	0.00055305	0.00056766	0.00015467	1371	6.2458e-06	6.3571e-06	1369.6	373.58	6.4036e-06	6.2117e-06	425.7	143.46	124.63	43.014	5.9737e-06	53.265	223.033	261.821	253.501	175.550	312.016	308.813	175.389	180.065	305.847	316.609	179.621	183.569	184.216	189.029	298.714	188.119	-8191	255	
14413.355	1	1	0	0	0.442	0.039579	0.1874	0.14952	0.11779	0.09369	0.12488	0.28984	0.26275	0.088655	0.16886	0.26193	0.14342	0.23331	0.11787	0.17763	-2.55	-2.9938	-3.1917	-3.1729	-3.2604	-3.2083	-3.2125	-3.4792	-2.8146	-3.0292	-3.4458	-3.1583	-3.4146	-3.1646	-3.0042	-3.425	365.533	255.089	240.797	452.527	399.043	316.299	393.851	459.568	502.464	383.404	438.708	491.741	469.196	414.129	234.706	407.780	0.00047158	0.00056101	0.00014538	1354.9	3.5957e-06	6.1058e-06	1348.5	366.36	4.6518e-06	4.412e-06	418.77	139.08	122.45	41.845	5.0159e-06	51.664	0.00053716	0.00060409	0.00015072	1371.1	6.3368e-06	6.416e-06	1368.1	372.79	6.2652e-06	6.4152e-06	426.49	143.13	124.83	43.044	6.3539e-06	53.291	222.906	248.605	262.909	175.542	312.733	309.742	175.381	180.050	301.734	311.945	179.817	183.548	184.277	189.004	305.597	188.546	-8191	255	
14413.452	1	1	0	0	0.11376	0.17118	0.069563	0.29457	0.044207	0.30292	0.20121	0.080413	0.13492	0.11121	0.17214	0.28575	0.044578	0.020854	0.23222	0.087464	-2.5875	-3.1125	-3.3979	-3.2375	-3.1104	-3.3	-3.1708	-3.3979	-3.1333	-2.9604	-3.4146	-3.0854	-3.0646	-3.3417	-3.0396	-3.2812	484.017	199.049	296.067	518.529	298.170	395.547	403.351	411.129	244.314	255.327	176.533	462.162	217.563	316.237	425.929	329.096	0.00049237	0.00051317	0.00013795	1353	5.0871e-06	5.5837e-06	1348.8	366.47	4.3988e-06	6.2275e-06	419.26	139.74	121.97	42.063	4.3835e-06	52.072	0.00055024	0.0005887	0.00015081	1368.5	6.2034e-06	5.9906e-06	1369.4	373.19	6.1674e-06	6.5768e-06	427.02	143.3	124.63	43.076	6.4332e-06	53.347	224.397	252.783	272.828	175.582	296.982	320.612	175.451	180.146	297.024	307.357	179.574	184.074	184.278	189.161	309.390	188.311	-8191	255	
14413.571	1	1	0	0	0.077002	0.071294	0.032159	0.35052	0.11691	0.079666	0.0523	0.27074	0.14715	0.28049	0.1136	0.13037	0.21654	0.22462	0.031233	0.23557	-2.4854	-2.9833	-3.1937	-3.2687	-2.9292	-3.0396	-3.0875	-3.3604	-3.0958	-2.8021	-3.275	-3.0146	-3.0604	-3.2438	-2.825	-3.2458	299.372	162.625	510.449	448.662	452.481	378.723	516.542	435.850	404.528	227.435	209.896	394.185	518.467	434.379	239.484	485.730	0.00048445	0.00042095	0.00014452	1360.1	4.0347e-06	5.7538e-06	1351.7	366.38	4.4779e-06	5.3643e-06	420.1	140.18	122.17	41.899	4.372e-06	51.98	0.00054041	0.00059718	0.00016461	1373.1	6.125e-06	6.3895e-06	1368.9	372.46	6.3163e-06	6.311e-06	426.8	143.54	124.91	43.074	6.2435e-06	53.245	223.514	250.462	242.671	175.423	312.012	317.077	175.434	180.062	300.106	305.931	179.468	183.606	184.387	189.015	318.219	188.264	-8191	255	
14413.667	1	1	0	0	0.10111	0.12658	0.34244	0.24857	0.31071	0.033714	0.43408	0.20984	0.16153	0.15146	0.10805	0.1267	0.30476	0.2403	0.11017	0.15261	-2.7146	-2.9375	-3.1646	-3.1729	-2.9688	-3.2208	-3.0167	-3.1833	-3.0729	-2.9062	-3.2938	-3.0604	-3.0604	-3.3583	-2.975	-3.0792	266.931	504.238	409.668	480.850	320.937	318.128	451.166	509.182	247.375	363.658	469.971	430.609	262.184	170.969	370.102	462.146	0.00047655	0.00043001	0.0001177	1358.6	4.5397e-06	5.9669e-06	1355.1	367.65	5.007e-06	5.1076e-06	418.97	139.81	122.07	42.032	4.2075e-06	51.976	0.00054058	0.00055657	0.00015265	1372.9	6.2584e-06	6.416e-06	1371.9	373.65	6.2758e-06	6.092e-06	426.94	143.42	124.91	43.079	6.1984e-06	53.331	222.360	242.140	256.021	175.482	307.658	315.099	175.449	180.078	302.192	306.472	179.534	183.426	184.292	188.995	304.636	188.543	-8191	255	
14413.763	1	1	0	0	0.10231	0.17421	0.041208	0.36774	0.21653	0.27382	0.25478	0.36833	0.1325	0.029799	0.22575	0.14369	0.12688	0.073875	0.098226	0.20419	-2.7833	-2.9229	-3.2	-3.325	-2.9208	-3.375	-3.2708	-3.3792	-3.2	-3.0062	-3.3563	-3.2292	-3.2292	-3.2896	-3.0208	-3.1542	372.692	249.421	322.106	171.064	242.513	226.163	447.338	463.206	381.946	226.103	167.396	500.118	491.598	206.534	294.554	473.115	0.00047331	0.00054299	0.00013486	1354.4	4.2289e-06	5.1905e-06	1353.2	367.78	4.5187e-06	5.7251e-06	419.43	140.01	121.77	41.997	4.4314e-06	52.06	0.00053538	0.00057122	0.00015891	1370.2	6.2061e-06	6.0494e-06	1371.5	373.34	6.1111e-06	6.4068e-06	427.22	143.56	124.59	43.138	6.2275e-06	53.415	222.773	256.916	246.828	175.553	306.648	312.850	175.199	180.144	294.289	309.238	179.459	183.773	184.260	188.998	298.481	188.343	-8191	255	
14413.883	1	1	0	0	0.25277	0.12775	0.059302	0.26373	0.13244	0.21379	0.22128	0.19862	0.093918	0.10557	0.188	0.31508	0.26097	0.28677	0.28342	0.16645	-2.9083	-2.8042	-3.1813	-3.2958	-3.1271	-3.3583	-3.0771	-3.3438	-3.2417	-2.9958	-3.4	-3.0083	-3.0271	-3.5146	-3.1396	-3.3083	331.156	518.708	483.962	473.929	412.656	405.070	434.189	489.686	439.751	517.583	422.770	515.485	451.541	463.436	204.629	422.905	0.00046503	0.00054751	0.00014535	1356.1	5.0083e-06	4.2146e-06	1358.2	367.31	4.3298e-06	4.6991e-06	419.83	139.91	122.28	42.034	3.5124e-06	51.97	0.00053246	0.00056431	0.0001659	1372	6.2439e-06	5.9641e-06	1372.9	373.84	5.7348e-06	6.1039e-06	426.78	143.65	124.91	43.133	6.0429e-06	53.32	224.752	253.865	257.100	175.573	299.438	315.534	175.173	180.220	303.732	329.865	179.697	183.797	184.314	188.999	305.246	188.316	-8191	255	
14413.955	1	1	0	0	0.13169	0.11225	0.1008	0.35942	0.20009	0.071603	0.39692	0.20245	0.14759	0.13687	0.25488	0.0694	0.060145	0.22391	0.032798	0.081184	-2.875	-2.9146	-3.2167	-3.3042	-2.9958	-3.1583	-3.2812	-3.1875	-3.2938	-2.8979	-3.2396	-3.2438	-3.1479	-3.3438	-3.1625	-3.2271	189.942	359.049	358.304	476.845	336.156	343.176	439.358	495.428	269.651	207.115	478.379	497.369	195.151	506.569	419.460	168.021	0.00050003	0.00039947	0.00015504	1352.4	5.0531e-06	5.5166e-06	1351.3	367.98	4.5023e-06	5.2274e-06	420.2	140.45	121.89	42.099	5.054e-06	51.858	0.00053418	0.0005662	0.00015043	1371.1	6.2971e-06	6.1936e-06	1371.5	373.83	5.9683e-06	6.3828e-06	426.85	143.59	124.66	43.128	5.9145e-06	53.307	223.342	254.384	265.346	175.340	293.991	297.973	175.299	180.172	298.032	316.913	179.668	183.648	184.241	188.941	303.427	188.161	-8191	255	
14414.051	1	1	0	0	0.11322	0.10821	0.12322	0.28883	0.086114	0.22648	0.25639	0.3044	0.17833	0.21066	0.097192	0.26198	0.18235	0.11066	0.1955	0.044643	-2.8979	-2.9313	-3.1896	-3.5625	-2.95	-3.3146	-3.4313	-3.1167	-3.35	-2.8583	-3.1667	-3.2375	-3.0708	-3.2354	-3.1125	-3.2125	272.509	314.489	367.966	467.662	318.011	325.654	468.594	398.709	327.311	465.040	435.132	493.486	394.481	483.879	393.581	470.972	0.00047538	0.00042419	0.00014328	1355	4.8518e-06	5.5519e-06	1354.2	368.53	4.9433e-06	4.5804e-06	421.7	140.46	122.27	42.075	3.9451e-06	51.77	0.00052356	0.00053574	0.0001564	1372.5	6.2809e-06	5.8824e-06	1372.9	374.17	5.9296e-06	5.8585e-06	427.49	143.81	124.99	43.144	5.9837e-06	53.276	224.159	245.370	247.877	175.491	300.031	317.296	175.396	180.046	301.053	318.078	179.703	183.559	184.314	188.890	311.197	188.337	-8191	255	
14414.147	1	1	0	0	0.16542	0.13985	0.11529	0.34542	0.11359	0.11052	0.25769	0.27966	0.15005	0.2819	0.16801	0.11016	0.032819	0.28899	0.036835	0.029562	-2.9375	-3.1292	-2.95	-3.6875	-2.9333	-3.3396	-3.3708	-3.0979	-3.3208	-3.1521	-3.0646	-3.3104	-3.0438	-3.4021	-3.0146	-3.1208	369.356	164.646	185.663	187.940	181.473	458.432	397.886	502.700	356.825	169.896	461.789	513.001	213.188	485.000	434.401	496.331	0.00046329	0.00047814	0.00015223	1359.4	4.0863e-06	5.037e-06	1356.9	367.83	4.1099e-06	4.8799e-06	421.82	140.51	122.2	42.047	4.5161e-06	52.011	0.00051942	0.00053898	0.00015259	1374.7	6.0124e-06	5.85e-06	1375.1	374.26	5.8582e-06	6.2212e-06	428	143.86	125.06	43.169	5.8573e-06	53.421	223.705	254.038	256.850	175.565	314.242	307.705	175.397	179.956	299.182	327.705	179.670	183.711	184.175	188.840	301.062	188.152	-8191	255	
14414.244	1	1	0	0	0.24484	0.20857	0.14218	0.29577	0.1359	0.17395	0.42596	0.090666	0.096303	0.19186	0.11683	0.095307	0.28785	0.138	0.21451	0.42416	-2.7458	-2.9417	-2.8937	-3.4083	-3.0229	-3.2938	-3.4188	-3.0479	-3.2438	-3.0833	-3.1188	-3.3604	-2.9854	-3.3208	-3.1	-3.1479	466.447	287.826	225.917	511.783	482.461	394.153	462.324	508.940	220.597	237.371	409.565	313.455	513.769	302.345	466.471	448.049	0.00048598	0.00045255	0.00015735	1360.6	3.7012e-06	5.6242e-06	1358.3	368.21	5.0379e-06	4.9884e-06	419.06	140.26	122.11	42.09	4.4907e-06	52.247	0.00052637	0.00054537	0.00015329	1376	5.9376e-06	5.9545e-06	1374.6	374.23	5.978e-06	5.6897e-06	427.1	143.55	124.92	43.066	5.6998e-06	53.37	224.524	245.193	252.149	175.491	295.201	314.044	175.326	180.083	302.236	309.266	179.552	183.444	184.225	189.140	300.963	188.546	-8191	255	
14414.362	1	1	0	0	0.1629	0.33618	0.21041	0.34721	0.091273	0.10735	0.089142	0.11336	0.081084	0.10363	0.050573	0.079202	0.15967	0.14794	0.13661	0.17083	-2.9833	-3.0125	-3.0708	-3.3896	-3.0187	-3.225	-3.4625	-3.1937	-3.1125	-3.2833	-3.0062	-3.3896	-3.0104	-3.0812	-3.3083	-2.8833	425.174	448.560	184.905	491.051	473.806	200.420	209.996	402.251	178.312	203.792	426.199	341.383	451.686	472.749	275.437	400.486	0.00050627	0.00048209	0.00015669	1357.6	4.3065e-06	5.4822e-06	1355.9	368.82	4.4197e-06	5.1715e-06	421.09	140.64	122.09	42.08	4.4852e-06	52.094	0.00053459	0.00053082	0.00015631	1374.6	5.815e-06	5.7382e-06	1373.4	374.48	5.9234e-06	5.8477e-06	428.39	143.81	125.12	43.183	5.7048e-06	53.426	223.939	247.975	246.932	175.532	312.530	303.899	175.310	180.149	299.178	306.729	179.502	183.697	184.098	189.228	313.721	188.389	-8191	255	
14414.459	1	1	0	0	0.054966	0.12152	0.37828	0.13322	0.09438	0.23119	0.15804	0.34665	0.34301	0.066556	0.29184	0.27528	0.069953	0.20161	0.071428	0.1202	-2.8042	-2.9479	-2.7917	-3.5354	-2.9875	-3.1333	-3.575	-3.1229	-3.2896	-3.1917	-3.0792	-3.3625	-2.9958	-3.15	-3.4188	-3.1042	368.520	388.296	424.411	474.244	519.404	320.168	476.442	469.343	364.784	401.866	456.845	173.401	190.550	477.736	385.507	301.627	0.00047045	0.00051688	0.00015283	1356.9	4.7522e-06	5.1285e-06	1358.5	368.99	4.955e-06	4.4437e-06	421.64	140.97	122.79	42.118	4.1779e-06	52.176	0.00052685	0.00053008	0.00015011	1374.4	5.8204e-06	6.0182e-06	1377.2	375.2	5.8009e-06	5.6023e-06	428.46	144.06	125.55	43.269	5.6024e-06	53.47	224.190	247.585	241.900	175.496	314.560	313.644	175.434	180.040	294.325	318.100	179.839	183.733	184.314	189.011	295.898	188.338	-8191	255	
14414.556	1	1	0	0	0.17551	0.10106	0.26716	0.32989	0.19801	0.34577	0.48651	0.11295	0.25546	0.32499	0.24735	0.055313	0.2532	0.14768	0.14766	0.45256	-2.8083	-3.0667	-3.1896	-3.5167	-3.1833	-3.0896	-3.5479	-3.1	-3.0958	-3.0875	-3.2396	-3.3042	-3.1792	-3.0646	-3.2021	-3.3042	349.208	446.218	432.004	478.237	473.223	214.025	486.007	475.022	508.293	274.155	494.266	275.815	295.553	466.872	259.616	498.106	0.0004585	0.00048896	0.00014772	1361.7	4.941e-06	5.4126e-06	1361	368.49	5.0896e-06	5.2966e-06	421.7	140.92	122.25	42.349	3.8972e-06	52.313	0.00051034	0.00052956	0.00015008	1378.4	5.8646e-06	5.6433e-06	1378.3	375.32	5.7463e-06	5.8693e-06	429.19	144.27	125.31	43.326	5.3887e-06	53.613	223.528	251.930	250.903	175.438	306.836	310.107	175.331	179.936	293.031	315.569	179.526	183.620	184.067	188.993	299.801	188.352	-8191	255	
14414.651	1	1	0	0	0.065942	0.025957	0.086432	0.12418	0.14904	0.2205	0.31842	0.24196	0.1016	0.092989	0.21237	0.19987	0.18818	0.29999	0.14871	0.014973	-2.7125	-3.3375	-2.8542	-3.4104	-3.2021	-2.9917	-3.4792	-3.1937	-3.1896	-3.3271	-3.2271	-3.4125	-3.1458	-3.0167	-3.2812	-3.1292	479.109	471.456	431.494	520.096	426.976	388.095	404.090	195.709	340.391	232.661	466.177	376.797	335.949	258.607	481.619	273.743	0.00049699	0.00047831	0.00012	1364.5	4.5993e-06	5.6039e-06	1362.7	369.78	4.7153e-06	5.4965e-06	422.09	141.38	122.59	42.277	3.4809e-06	52.231	0.00053055	0.00048999	0.00014543	1377.7	5.5924e-06	5.9016e-06	1378.9	376.17	5.7437e-06	5.3593e-06	429.29	144.44	125.42	43.348	5.3887e-06	53.537	224.520	250.576	265.331	175.558	301.215	299.429	175.490	179.967	301.660	312.835	179.679	183.632	184.046	188.972	303.381	188.291	-8191	255	
14414.747	1	1	0	0	0.10717	0.1911	0.27299	0.22656	0.11084	0.19813	0.17237	0.349	0.30616	0.16755	0.059554	0.1679	0.051549	0.089567	0.14598	0.20468	-2.6104	-3.2875	-2.9354	-3.3083	-3.2542	-3.0083	-3.45	-3.1688	-3.1396	-3.2333	-3.0646	-3.2188	-3.3708	-3.0771	-3.1771	-3.3937	486.081	474.216	483.401	488.574	447.801	385.005	405.162	505.873	353.279	462.701	511.365	505.567	171.224	166.120	169.398	413.164	0.00048773	0.0004082	0.00014456	1363.3	4.5418e-06	5.0666e-06	1358.6	369.31	4.0609e-06	5.7149e-06	422.32	141.06	122.86	42.262	5.3501e-06	52.039	0.00052592	0.00050098	0.00014592	1379.3	5.7366e-06	5.6901e-06	1379.6	375.71	5.5031e-06	5.503e-06	429.74	144.51	125.75	43.355	5.6295e-06	53.565	224.235	263.300	259.339	175.496	305.614	320.703	175.462	180.035	300.823	313.489	179.427	183.757	184.171	189.106	309.203	188.237	-8191	255	
14414.843	1	1	0	0	0.19395	0.18051	0.079683	0.40875	0.25342	0.38349	0.23459	0.14275	0.19256	0.093579	0.29468	0.12778	0.15896	0.083488	0.27523	0.17477	-2.5167	-3.3167	-3.0812	-3.3125	-3.1542	-3.0292	-3.4813	-3.3479	-2.8104	-3.3208	-3.0125	-3.3708	-3.2896	-3.0292	-3.2875	-3.2542	225.381	220.563	436.870	460.580	453.228	326.126	463.439	509.061	282.822	262.039	509.202	183.470	185.748	184.480	285.668	459.517	0.00048747	0.00050627	0.00012187	1362.7	3.9422e-06	5.2925e-06	1357.5	370.32	4.3666e-06	3.7452e-06	422.79	141	123	42.426	4.1559e-06	52.116	0.0005277	0.00050507	0.00014121	1379.3	5.296e-06	5.469e-06	1377.5	376.14	5.5886e-06	5.084e-06	429.46	144.33	125.69	43.353	5.479e-06	53.537	222.810	258.027	252.111	175.515	306.046	309.840	175.308	179.987	293.744	304.094	179.615	183.592	184.254	189.001	312.968	188.229	-8191	255	
14414.964	1	1	0	0	0.22116	0.17703	0.17819	0.097424	0.14245	0.048051	0.1881	0.46922	0.16235	0.077773	0.12476	0.16007	0.1251	0.055431	0.071731	0.28334	-2.4583	-3.2833	-2.975	-3.3917	-3.225	-2.9708	-3.3375	-3.3146	-2.9625	-3.15	-3.1396	-3.2479	-3.3229	-3.0083	-3.1271	-3.1708	177.894	188.557	353.895	508.787	380.941	361.010	425.453	462.837	204.812	449.463	483.281	414.967	425.362	500.127	370.635	466.054	0.00047821	0.00042519	0.00013604	1361.8	5.4096e-06	4.0765e-06	1356.7	368.47	5.1133e-06	5.0129e-06	420.79	140.93	123.01	42.332	4.2113e-06	52.074	0.00052551	0.00048926	0.0001451	1376.8	5.6618e-06	5.6096e-06	1377.9	374.68	5.8873e-06	5.6011e-06	428.28	144.47	125.47	43.343	5.6426e-06	53.488	224.248	263.410	238.601	175.375	302.966	305.418	175.428	179.978	298.916	307.451	179.546	183.589	184.008	189.029	303.476	188.220	-8191	255	
14415.060	1	1	0	0	0.12867	0.13573	0.19018	0.36775	0.11576	0.21099	0.32382	0.19403	0.096331	0.17218	0.037032	0.33467	0.38512	0.1259	0.20106	0.35478	-2.6562	-3.3063	-3.0479	-3.2021	-3.2938	-2.8625	-3.4188	-3.3063	-3.0083	-3.3229	-3.2667	-2.9333	-3.3958	-2.9833	-3.25	-3.3812	231.162	255.066	327.668	478.145	480.189	453.358	423.980	505.567	315.182	427.581	434.424	498.691	414.241	478.725	206.842	433.791	0.00047769	0.00060313	0.00012666	1361.7	3.7901e-06	5.2462e-06	1362.1	369.48	4.6707e-06	4.6019e-06	420.07	140.9	122.6	42.271	5.0256e-06	52.185	0.0005262	0.00051093	0.00014259	1376.9	5.4537e-06	5.8163e-06	1377.2	375.63	6.1155e-06	5.6059e-06	428.36	144.31	125.68	43.352	5.8352e-06	53.555	224.464	250.768	248.573	175.598	301.934	314.367	175.301	179.980	299.166	312.029	179.701	183.699	184.265	188.995	307.816	188.179	-8191	255	
14415.156	1	1	0	0	0.13001	0.1218	0.13384	0.2321	0.13369	0.093547	0.2608	0.4111	0.066563	0.21659	0.16629	0.089957	0.24532	0.20682	0.11555	0.21172	-2.5625	-3.2854	-3.1521	-3.2583	-3.3771	-3.0854	-3.4292	-3.3396	-2.9688	-3.3438	-3.3146	-3.0312	-3.3729	-3.0417	-3.2188	-3.3292	405.002	348.167	317.178	195.331	348.830	379.520	400.887	451.295	496.458	163.753	517.021	505.813	492.454	377.497	387.168	362.782	0.00048421	0.00042747	0.00014981	1362.1	4.6296e-06	4.5483e-06	1361.1	368.25	4.7579e-06	6.123e-06	422.57	141.03	122.28	42.315	5.5495e-06	52.287	0.00053496	0.00052809	0.00015031	1379	5.6501e-06	5.9605e-06	1379.6	375.37	5.9886e-06	6.08e-06	429.32	144.55	125.59	43.413	5.9315e-06	53.616	221.753	254.056	254.471	175.449	302.977	315.237	175.421	180.116	299.846	328.526	179.644	183.692	183.889	189.046	309.493	188.164	-8191	255	
14415.252	1	1	0	0	0.12757	0.10582	0.178	0.30841	0.14646	0.066018	0.27703	0.22686	0.21267	0.32014	0.29572	0.17567	0.21571	0.12278	0.11513	0.084625	-2.5438	-3.0854	-3.1604	-3.175	-3.0604	-3.0417	-3.3083	-3.5854	-2.875	-3.25	-3.3208	-3.1083	-3.3021	-3.0854	-3.1271	-3.4021	490.716	384.738	377.986	485.711	207.635	352.378	447.250	448.007	360.159	446.350	508.183	413.337	517.122	477.695	459.739	464.112	0.00048341	0.00059842	0.00014337	1362.9	4.4935e-06	5.7681e-06	1362.2	368.73	4.3546e-06	4.6902e-06	423.8	140.89	122.28	42.289	5.3341e-06	52.255	0.00054041	0.00054892	0.00014753	1380.9	5.7456e-06	6.0951e-06	1379.7	375.58	5.7956e-06	5.9627e-06	429.62	144.43	125.52	43.36	6.2034e-06	53.682	222.945	250.683	250.695	175.626	311.491	312.854	175.496	180.092	296.454	310.102	179.638	183.723	184.267	189.132	301.960	188.103	-8191	255	
#DATA ENDS
