BOXY.EXE: ISS Imagent and Oximeter Data Acquisition Program Version 0.80
Ascii Record File

#ACQ INFORMATION
2  Detector Channels 
16  External MUX Channels 
1  Auxiliary Channels 
5000  Waveform (CCF) Frequency (Hz)
1  Waveforms Skipped 
30  Waveforms Averaged 
1  Cycles Averaged 
16  Acquisitions per Waveform 
10.0806  Updata Rate (Hz) 

#FILE INFORMATION
TRUE -- External MUX Channel results are PARSED.
FALSE -- AC DC and Phase are NOT grouped.
TRUE -- Companion Program Settings File CREATED.
FALSE -- AC data not excluded
FALSE -- DC data not excluded
FALSE -- Phase data not excluded
FALSE -- Auxillary Chn. data not excluded
Tab delimiters

#CALIBRATION STATE
TRUE -- Waveform Calibration Values APPLIED.


#AUX CALIBRATION VALUES
Val Type	aux-1	

Term	1.0000e+00	
Factor	0.0000e+00	


#WF CALIBRATION VALUES
A = Detector Channel
Val Type	A-AC1	A-AC2	A-AC3	A-AC4	A-AC5	A-AC6	A-AC7	A-AC8	A-AC9	A-AC10	A-AC11	A-AC12	A-AC13	A-AC14	A-AC15	A-AC16	A-DC1	A-DC2	A-DC3	A-DC4	A-DC5	A-DC6	A-DC7	A-DC8	A-DC9	A-DC10	A-DC11	A-DC12	A-DC13	A-DC14	A-DC15	A-DC16	A-Ph1	A-Ph2	A-Ph3	A-Ph4	A-Ph5	A-Ph6	A-Ph7	A-Ph8	A-Ph9	A-Ph10	A-Ph11	A-Ph12	A-Ph13	A-Ph14	A-Ph15	A-Ph16	

Term	0.00000e+00	0.00000e+00	0.00000e+00	0.00000e+00	0.00000e+00	0.00000e+00	0.00000e+00	0.00000e+00	0.00000e+00	0.00000e+00	0.00000e+00	0.00000e+00	0.00000e+00	0.00000e+00	0.00000e+00	0.00000e+00	0.00000e+00	0.00000e+00	0.00000e+00	0.00000e+00	0.00000e+00	0.00000e+00	0.00000e+00	0.00000e+00	0.00000e+00	0.00000e+00	0.00000e+00	0.00000e+00	0.00000e+00	0.00000e+00	0.00000e+00	0.00000e+00	0.00000e+00	0.00000e+00	0.00000e+00	0.00000e+00	0.00000e+00	0.00000e+00	0.00000e+00	0.00000e+00	0.00000e+00	0.00000e+00	0.00000e+00	0.00000e+00	0.00000e+00	0.00000e+00	0.00000e+00	0.00000e+00	
Factor	1.00000e+00	1.00000e+00	1.00000e+00	1.00000e+00	1.00000e+00	1.00000e+00	1.00000e+00	1.00000e+00	1.00000e+00	1.00000e+00	1.00000e+00	1.00000e+00	1.00000e+00	1.00000e+00	1.00000e+00	1.00000e+00	1.00000e+00	1.00000e+00	1.00000e+00	1.00000e+00	1.00000e+00	1.00000e+00	1.00000e+00	1.00000e+00	1.00000e+00	1.00000e+00	1.00000e+00	1.00000e+00	1.00000e+00	1.00000e+00	1.00000e+00	1.00000e+00	X	X	X	X	X	X	X	X	X	X	X	X	X	X	X	X	

B = Detector Channel
Val Type	B-AC1	B-AC2	B-AC3	B-AC4	B-AC5	B-AC6	B-AC7	B-AC8	B-AC9	B-AC10	B-AC11	B-AC12	B-AC13	B-AC14	B-AC15	B-AC16	B-DC1	B-DC2	B-DC3	B-DC4	B-DC5	B-DC6	B-DC7	B-DC8	B-DC9	B-DC10	B-DC11	B-DC12	B-DC13	B-DC14	B-DC15	B-DC16	B-Ph1	B-Ph2	B-Ph3	B-Ph4	B-Ph5	B-Ph6	B-Ph7	B-Ph8	B-Ph9	B-Ph10	B-Ph11	B-Ph12	B-Ph13	B-Ph14	B-Ph15	B-Ph16	

Term	0.00000e+00	0.00000e+00	0.00000e+00	0.00000e+00	0.00000e+00	0.00000e+00	0.00000e+00	0.00000e+00	0.00000e+00	0.00000e+00	0.00000e+00	0.00000e+00	0.00000e+00	0.00000e+00	0.00000e+00	0.00000e+00	0.00000e+00	0.00000e+00	0.00000e+00	0.00000e+00	0.00000e+00	0.00000e+00	0.00000e+00	0.00000e+00	0.00000e+00	0.00000e+00	0.00000e+00	0.00000e+00	0.00000e+00	0.00000e+00	0.00000e+00	0.00000e+00	-5.24022e+01	-1.64169e+02	-9.76990e+01	-1.80969e+02	-5.66720e+01	-9.77327e+01	-1.56073e+02	-1.62015e+02	-2.91745e+01	-6.44927e+01	-1.73276e+02	-1.70265e+02	-1.82009e+02	-1.76771e+02	-6.96488e+01	-1.50163e+02	
Factor	1.86859e-05	9.78118e-05	2.79070e-05	1.67683e-01	9.76611e-07	1.10387e-06	1.73110e-01	5.09591e-02	1.07639e-06	1.05178e-06	1.04153e-01	2.91335e-02	3.50756e-02	9.31146e-03	9.58455e-07	1.36155e-02	6.11716e-07	6.27859e-07	1.75053e-07	7.79073e-02	6.84918e-09	6.89061e-09	7.55109e-02	2.36384e-02	6.84905e-09	6.88618e-09	4.50172e-02	1.28399e-02	1.55609e-02	4.22386e-03	6.88738e-09	5.88561e-03	X	X	X	X	X	X	X	X	X	X	X	X	X	X	X	X	



#DISTANCE SETTINGS
A = Detector Channel
A-1	A-2	A-3	A-4	A-5	A-6	A-7	A-8	A-9	A-10	A-11	A-12	A-13	A-14	A-15	A-16	

2.5000e+00	3.0000e+00	2.5000e+00	3.0000e+00	2.0000e+00	3.0000e+00	1.5000e+00	3.0000e+00	3.0000e+00	3.0000e+00	3.0000e+00	3.0000e+00	3.0000e+00	3.0000e+00	1.5000e+00	3.0000e+00	

B = Detector Channel
B-1	B-2	B-3	B-4	B-5	B-6	B-7	B-8	B-9	B-10	B-11	B-12	B-13	B-14	B-15	B-16	

1.0000e+01	1.0000e+01	1.0000e+01	1.4400e+00	1.0000e+01	1.0000e+01	1.5100e+00	1.9400e+00	1.0000e+01	1.0000e+01	1.9900e+00	2.4900e+00	2.4100e+00	2.9000e+00	1.0000e+01	2.9800e+00	




#DATA BEGINS
time	group	step	mark	flag	A-AC1	A-AC2	A-AC3	A-AC4	A-AC5	A-AC6	A-AC7	A-AC8	A-AC9	A-AC10	A-AC11	A-AC12	A-AC13	A-AC14	A-AC15	A-AC16	A-DC1	A-DC2	A-DC3	A-DC4	A-DC5	A-DC6	A-DC7	A-DC8	A-DC9	A-DC10	A-DC11	A-DC12	A-DC13	A-DC14	A-DC15	A-DC16	A-Ph1	A-Ph2	A-Ph3	A-Ph4	A-Ph5	A-Ph6	A-Ph7	A-Ph8	A-Ph9	A-Ph10	A-Ph11	A-Ph12	A-Ph13	A-Ph14	A-Ph15	A-Ph16	B-AC1	B-AC2	B-AC3	B-AC4	B-AC5	B-AC6	B-AC7	B-AC8	B-AC9	B-AC10	B-AC11	B-AC12	B-AC13	B-AC14	B-AC15	B-AC16	B-DC1	B-DC2	B-DC3	B-DC4	B-DC5	B-DC6	B-DC7	B-DC8	B-DC9	B-DC10	B-DC11	B-DC12	B-DC13	B-DC14	B-DC15	B-DC16	B-Ph1	B-Ph2	B-Ph3	B-Ph4	B-Ph5	B-Ph6	B-Ph7	B-Ph8	B-Ph9	B-Ph10	B-Ph11	B-Ph12	B-Ph13	B-Ph14	B-Ph15	B-Ph16	aux-1	digaux	

3709.163	1	1	0	512	0.11112	0.092126	0.027927	0.079313	0.14217	0.060599	0.11092	0.1002	0.053605	0.23848	0.048046	0.17476	0.25745	0.13528	0.12554	0.33784	-2.3458	-2.4188	-2.7021	-2.7208	-2.3	-2.9083	-2.7083	-2.5917	-2.9	-2.6188	-2.7938	-2.8	-2.5604	-2.9521	-2.6562	-2.8458	172.179	-128.502	151.226	-34.679	174.102	-55.143	89.191	18.967	17.630	153.718	152.257	-125.373	35.139	176.458	143.010	-126.136	0.00044345	0.0024133	0.00048036	393.28	1.7291e-05	3.2683e-05	584.39	163.06	1.8197e-05	3.4449e-05	269.8	144.22	87.356	44.97	2.2756e-05	73.918	0.0040368	0.004124	0.001326	934.63	4.4682e-05	4.5872e-05	1153.2	325.01	4.4675e-05	4.6431e-05	600.36	228.16	182.54	73.106	5.2624e-05	111.05	-48.258	98.990	157.195	-143.352	49.860	186.805	-145.537	-138.474	65.862	-143.268	-141.677	-138.461	-135.633	-131.246	59.893	-134.528	-8191	255	
3709.259	1	1	0	0	0.1628	0.10393	0.11336	0.16305	0.14545	0.21349	0.26554	0.213	0.28916	0.17802	0.17192	0.15845	0.037667	0.058074	0.082848	0.20475	-2.2	-2.5854	-2.6896	-2.725	-2.3979	-2.6292	-2.85	-2.6792	-2.8396	-2.5521	-2.6562	-2.8771	-2.4083	-2.9667	-2.6354	-2.7708	-60.316	39.108	46.235	-91.296	92.823	-87.796	115.331	122.535	-11.268	-88.572	-78.905	171.418	-99.980	-153.068	23.051	202.472	0.00061821	0.0044697	0.00033473	391.41	5.6556e-06	4.0846e-05	585.53	164.53	1.1275e-05	3.8127e-05	273.83	144.46	87.822	44.998	1.9311e-05	73.676	0.0039912	0.0044399	0.0013453	926.11	4.4787e-05	4.997e-05	1160.9	325.33	4.5025e-05	5.0925e-05	601.28	228.25	184.15	75.734	5.1886e-05	110.52	-73.204	129.806	-43.156	-143.097	32.826	193.949	-144.845	-138.806	30.754	-136.733	-141.239	-138.441	-135.898	-131.174	4.298	-134.885	-8191	255	
3709.355	1	1	0	0	0.18135	0.2215	0.41411	0.18217	0.083973	0.066435	0.11004	0.26796	0.20164	0.26328	0.26646	0.17792	0.097362	0.22186	0.13477	0.2664	-2.5563	-2.6063	-2.6063	-2.8896	-2.4896	-2.75	-2.85	-2.6437	-2.7771	-2.7396	-2.6375	-2.8708	-2.4146	-2.8167	-2.6667	-2.4875	45.503	100.984	152.702	80.155	143.461	-68.585	-98.806	147.157	114.709	169.628	141.114	196.997	-12.424	200.210	-84.570	195.064	0.00091969	0.0030434	0.00093014	389.53	1.9446e-05	3.4221e-05	584.98	161.99	2.4511e-05	2.3657e-05	272.07	143.23	86.275	44.998	2.2667e-05	73.361	0.0040148	0.0047398	0.0012952	914.13	4.477e-05	5.2258e-05	1133.2	319.5	4.5279e-05	5.295e-05	582.14	224.3	186.12	76.666	4.9578e-05	109.42	-101.402	128.462	-7.300	-143.010	-153.716	143.178	-144.736	-138.596	-51.806	-127.434	-141.292	-138.074	-136.461	-130.905	6.621	-134.717	-8191	255	
3709.476	1	1	0	0	0.35471	0.17897	0.044095	0.25644	0.17047	0.027955	0.19121	0.27321	0.047406	0.13981	0.068982	0.030841	0.19819	0.038153	0.25477	0.41075	-2.2354	-2.5896	-2.4938	-2.8688	-2.525	-2.6875	-2.8312	-2.4583	-2.9562	-2.7125	-2.6	-2.8917	-2.6604	-2.7542	-2.7979	-2.4062	115.683	-142.561	-104.019	89.002	176.421	63.473	159.621	-44.337	-19.428	-116.487	175.673	-110.333	198.587	76.999	-131.135	132.850	0.0012787	0.001731	0.00078485	389.41	3.1398e-05	6.4456e-06	585.16	162.27	4.277e-05	1.6806e-05	272.32	143.29	85.959	45.159	2.0848e-05	73.685	0.0041901	0.00492	0.0012498	905.24	4.7511e-05	5.3889e-05	1111.7	316.93	4.8338e-05	5.3894e-05	572.01	224.16	193.89	76.989	4.8686e-05	109.42	-110.899	182.441	-14.085	-143.456	-149.307	-17.026	-145.091	-139.021	-120.845	28.042	-141.566	-138.543	-136.568	-130.860	-23.988	-134.433	-8191	255	
3709.548	1	1	0	0	0.045965	0.079417	0.21386	0.16296	0.20696	0.1322	0.16169	0.19435	0.19233	0.042502	0.067802	0.24169	0.094748	0.53617	0.23853	0.22277	-2.375	-2.5458	-2.4354	-2.9271	-2.4896	-2.725	-2.8875	-2.5542	-2.9146	-2.6813	-2.4188	-2.9646	-2.6354	-2.6625	-2.8875	-2.4583	-30.663	127.040	47.784	167.999	167.677	178.445	-144.529	141.933	4.544	-103.530	48.286	115.642	79.654	125.853	-51.369	170.652	0.0012805	0.0017724	0.00069375	390.3	3.5682e-05	2.8785e-05	580.23	161.68	3.2553e-05	2.1699e-05	269.74	143.44	86.73	45.088	1.2075e-05	73.561	0.0045096	0.0048842	0.0012216	900.57	5.1111e-05	5.3046e-05	1103.1	316.83	5.1849e-05	5.2434e-05	565.05	223.47	200.53	75.369	4.698e-05	108.78	-114.407	-53.617	-14.895	-143.439	-129.172	9.270	-145.156	-138.979	-109.897	58.153	-141.750	-138.472	-136.574	-130.663	11.289	-134.870	-8191	255	
3709.644	1	1	0	0	0.2539	0.071756	0.29731	0.11789	0.18046	0.03998	0.10803	0.18299	0.091814	0.1603	0.093601	0.088422	0.29228	0.126	0.094378	0.14463	-2.3229	-2.6583	-2.3875	-2.9021	-2.5521	-2.6063	-2.9833	-2.5083	-2.6979	-2.6437	-2.5021	-3.0229	-2.7458	-2.6333	-3.0271	-2.7771	-73.148	185.656	188.303	170.340	-61.417	-80.873	114.068	-152.818	-69.507	-80.659	-139.259	47.656	173.655	-148.803	22.071	107.128	0.00095148	0.0031748	0.00067712	386.05	2.0229e-05	2.9325e-05	579.51	160.72	1.7144e-05	2.5692e-05	266.6	141.67	86.134	44.699	3.7491e-06	72.919	0.0046697	0.0046213	0.0011753	898.83	5.2449e-05	4.9528e-05	1075.8	316.19	5.2359e-05	4.8813e-05	548.09	223.14	200.23	72.874	4.4661e-05	109.46	-100.978	-76.848	6.709	-144.558	-107.975	-7.873	-144.982	-139.556	-84.238	-8.376	-141.694	-138.795	-136.088	-130.898	147.304	-135.027	-8191	255	
3709.740	1	1	0	0	0.10244	0.055192	0.12945	0.19852	0.18121	0.067327	0.2498	0.13373	0.10059	0.33298	0.093491	0.071024	0.063324	0.15253	0.15449	0.1637	-2.2271	-2.6437	-2.5417	-2.8146	-2.7292	-2.5563	-3.0167	-2.4604	-2.8146	-2.6937	-2.5667	-2.75	-2.5833	-2.5958	-2.95	-2.6458	18.709	102.312	88.382	99.395	23.519	195.646	142.049	94.468	0.184	-137.005	128.841	182.460	82.852	-90.397	44.436	164.011	0.00054949	0.0026809	0.00080903	384.54	1.1646e-05	1.6302e-05	578.26	160.01	7.9715e-06	3.0824e-05	266.74	141.74	86.502	44.618	1.5445e-05	73.109	0.0046392	0.0043002	0.0011156	909.42	5.1063e-05	4.598e-05	1044.7	319.9	5.0093e-05	4.5514e-05	531.05	224.87	193.44	70.803	4.2349e-05	110.63	-83.068	-60.343	18.089	-144.881	44.730	-54.248	-145.416	-139.488	47.284	21.299	-141.719	-139.000	-135.477	-130.727	-48.082	-135.028	-8191	255	
3709.861	1	1	0	0	0.1633	0.024716	0.25737	0.10478	0.14247	0.17326	0.23847	0.11751	0.37626	0.16551	0.17919	0.19177	0.041239	0.14034	0.18593	0.20424	-2.1042	-2.8	-2.3854	-2.8438	-2.6417	-2.4833	-2.9396	-2.7958	-2.6375	-2.7333	-2.3104	-2.8583	-2.6937	-2.4104	-2.7979	-2.7667	-82.803	-61.098	-52.228	-8.690	23.365	3.631	-4.976	77.102	162.790	107.615	60.051	40.528	-65.466	-127.362	200.018	150.147	0.00029469	0.002335	0.00012649	382.93	1.8777e-05	4.0119e-05	578.61	160.23	3.4615e-05	1.6104e-05	266.5	141.24	86.192	44.532	1.9803e-05	73.1	0.0043695	0.00407	0.0010737	928.49	4.8431e-05	4.4182e-05	1035.3	327.84	4.7941e-05	4.4227e-05	531.71	229.65	188.62	70.129	4.3007e-05	112.6	-57.631	-58.262	-98.640	-144.379	35.906	-6.059	-145.397	-139.191	71.466	-58.245	-142.348	-138.703	-135.444	-131.048	180.478	-134.910	-8191	255	
3709.957	1	1	0	0	0.16463	0.0973	0.12683	0.064859	0.16428	0.079097	0.13193	0.25037	0.23611	0.10277	0.17745	0.20949	0.21513	0.17872	0.11092	0.20184	-2.0375	-2.7917	-2.3375	-2.6937	-2.6813	-2.5187	-2.8917	-2.5896	-2.5458	-2.8563	-2.6312	-2.9208	-2.6958	-2.3688	-2.8	-2.7708	30.411	135.712	128.362	50.160	50.540	-60.774	44.925	95.621	-134.631	-27.178	125.465	150.842	36.599	117.545	-128.681	193.563	0.0002454	0.002222	0.00086594	385.68	2.3243e-05	2.3251e-05	574.87	160.57	2.9176e-05	1.2731e-05	265.53	141.52	85.529	44.396	2.6593e-05	73.046	0.0041893	0.0039818	0.0011092	952.45	4.6529e-05	4.3259e-05	1053.3	332.52	4.5802e-05	4.3306e-05	545.87	231.56	184.35	69.452	4.5652e-05	113.03	-24.333	-73.321	171.966	-143.929	46.121	-12.354	-145.702	-139.303	51.636	56.772	-142.432	-138.168	-135.879	-130.631	-130.415	-134.479	-8191	255	
3710.053	1	1	0	0	0.078407	0.1339	0.309	0.077617	0.35102	0.099754	0.21948	0.2126	0.13641	0.24614	0.1622	0.19202	0.20671	0.1911	0.15562	0.029621	-2.0792	-2.8	-2.4042	-2.7479	-2.8729	-2.4313	-2.6979	-2.5979	-2.5021	-2.8021	-2.5354	-2.7188	-2.6146	-2.5375	-2.6021	-2.6833	45.023	-104.171	-89.303	186.155	88.402	-30.312	103.476	-109.641	-53.020	-2.262	160.934	-135.522	189.134	187.251	92.473	-43.082	0.00047253	0.0010325	0.0008504	386.78	1.1719e-05	6.813e-06	573.68	160.04	1.1869e-05	5.3275e-06	265.77	141.18	85.826	44.276	4.4751e-05	72.883	0.0040301	0.0038972	0.0011795	947.81	4.4882e-05	4.2441e-05	1085	329.66	4.4483e-05	4.2422e-05	564.5	227.52	180.34	68.902	4.8007e-05	110.84	-64.393	-115.605	192.062	-143.364	39.392	-4.255	-145.937	-138.822	103.744	124.507	-142.490	-137.991	-135.817	-130.931	202.227	-134.548	-8191	255	
3710.149	1	1	0	0	0.23494	0.15466	0.11118	0.18292	0.24002	0.093055	0.2391	0.11108	0.20324	0.076878	0.15352	0.17676	0.24648	0.027033	0.22646	0.15872	-2.0542	-2.7229	-2.4792	-2.6292	-2.7562	-2.3979	-2.9229	-2.5208	-2.6021	-2.8646	-2.6417	-2.5687	-2.8521	-2.4896	-2.7375	-2.8896	80.472	-154.128	158.133	52.394	-25.763	159.753	128.963	24.334	61.757	-102.483	-80.293	-75.771	-133.738	-66.514	-54.164	174.644	0.0006306	0.0022372	0.0006877	388.08	1.9332e-05	1.051e-05	576.57	160.28	1.7835e-05	1.3726e-05	265.45	140.78	85.594	44.232	1.4416e-05	72.712	0.0039098	0.0038368	0.0012382	920.69	4.3396e-05	4.2162e-05	1106.6	320.83	4.2952e-05	4.2531e-05	575.48	222.31	176.63	69.447	4.9263e-05	108.55	-91.934	-6.700	181.982	-143.715	15.708	-100.117	-146.039	-138.356	43.126	194.501	-142.237	-137.837	-135.321	-131.114	182.034	-134.317	-8191	255	
3710.244	1	1	0	0	0.03297	0.051582	0.14017	0.23264	0.15381	0.26261	0.12859	0.14309	0.10656	0.21076	0.15024	0.1002	0.2514	0.094798	0.29314	0.06769	-1.8271	-2.5667	-2.4	-2.4667	-2.7812	-2.375	-2.7313	-2.5833	-2.2958	-2.6729	-2.6188	-2.5812	-2.9437	-2.5687	-2.5812	-2.7896	-49.022	-141.855	159.795	-20.555	28.152	-11.124	119.590	182.233	-43.041	199.982	-89.749	-95.044	-100.971	94.726	-32.133	-130.381	0.00048053	0.0022681	0.00015508	386.57	8.9275e-06	3.9205e-05	578.05	159.91	8.557e-06	4.0468e-05	265.38	140.32	85.031	44.027	2.4483e-05	72.821	0.0037823	0.0039501	0.0012585	890.02	4.2167e-05	4.3976e-05	1111.5	311.75	4.1625e-05	4.4627e-05	574.92	218.47	174.12	70.951	4.8708e-05	106.98	-45.927	111.425	-102.192	-142.869	-93.304	176.648	-145.156	-138.747	29.430	-137.013	-141.488	-138.175	-135.522	-131.274	41.426	-134.445	-8191	255	
3710.341	1	1	0	0	0.087861	0.25036	0.11708	0.2692	0.061731	0.16071	0.18554	0.10925	0.21949	0.1993	0.22033	0.15196	0.13816	0.13929	0.068774	0.40368	-2.1833	-2.8167	-2.4542	-2.3396	-2.7708	-2.5125	-2.5979	-2.8125	-2.3312	-2.7458	-2.5708	-2.6229	-2.8479	-2.6771	-2.5458	-2.8083	-34.371	134.507	-60.936	111.182	58.168	33.251	166.500	163.107	159.235	-26.209	-118.998	-149.268	-91.559	195.147	52.053	136.994	0.00063667	0.0043766	0.000988	382.21	1.3426e-05	3.3337e-05	575.01	159.79	9.8018e-06	3.7175e-05	268.73	140.21	84.395	44.413	2.1013e-05	73.053	0.0036773	0.0041674	0.001229	871.75	4.1101e-05	4.6543e-05	1093.1	307.35	4.0919e-05	4.7294e-05	562.7	215.59	173.08	72.703	4.6736e-05	106.09	-71.147	110.376	13.568	-143.070	-6.336	-151.729	-144.867	-138.748	36.414	-140.212	-141.654	-138.318	-136.093	-131.071	10.595	-134.699	-8191	255	
3710.460	1	1	0	0	0.15141	0.0966	0.10076	0.21916	0.21625	0.090107	0.095469	0.19402	0.11017	0.2769	0.036117	0.15933	0.058785	0.1738	0.19959	0.2777	-1.9688	-2.7521	-2.4083	-2.4292	-2.9042	-2.6208	-2.6146	-2.8979	-2.3917	-2.7854	-2.8229	-2.4958	-2.8979	-2.6063	-2.4917	-2.9333	-83.325	107.818	85.122	-70.047	-27.061	-53.699	196.191	44.274	-22.886	-135.914	140.411	127.311	-110.761	-103.705	176.396	177.469	0.0007992	0.0016414	0.00068066	382.68	2.0352e-05	1.2216e-05	573.91	159.88	2.9026e-05	1.5884e-06	266.38	139.39	84.663	44.342	1.3904e-05	72.654	0.0037004	0.0043979	0.0011843	860.38	4.177e-05	4.8816e-05	1067.8	303.56	4.2178e-05	4.9066e-05	548.49	213.53	177.23	73.561	4.4836e-05	104.93	-94.948	114.326	30.681	-142.983	-119.679	185.324	-144.956	-138.491	-127.088	145.733	-141.122	-138.271	-136.861	-130.847	-19.561	-134.558	-8191	255	
3710.556	1	1	0	0	0.28104	0.18517	0.16886	0.18074	0.18957	0.24427	0.20287	0.25614	0.16008	0.12847	0.17092	0.14101	0.14613	0.12088	0.28352	0.064024	-2.0417	-2.7833	-2.6646	-2.3333	-2.7104	-2.5583	-2.4125	-2.95	-2.4979	-2.7	-2.8667	-2.5042	-2.6021	-2.5625	-2.2062	-3.0354	-6.630	-73.281	-36.631	79.524	129.569	135.744	124.236	143.123	58.794	-100.362	-95.308	80.406	-150.266	122.112	54.052	159.302	0.0012032	0.0012142	0.00039346	382.93	4.1489e-05	1.6912e-05	577.41	160.43	4.0023e-05	2.6183e-05	264.95	139.98	84.769	44.6	7.4674e-06	72.762	0.0039111	0.0044996	0.0011442	856.13	4.4882e-05	4.9994e-05	1057.8	302.88	4.5861e-05	4.9624e-05	544.54	214.33	186.01	73.547	4.4034e-05	104.81	-100.282	-10.907	-8.464	-143.553	-133.571	38.119	-145.123	-138.744	-115.778	29.896	-141.700	-138.068	-136.617	-130.539	56.843	-134.792	-8191	255	
3710.653	1	1	0	0	0.18077	0.10928	0.034448	0.083961	0.21654	0.26365	0.21711	0.17024	0.017179	0.3614	0.072821	0.18712	0.054515	0.049501	0.075964	0.27405	-2.0021	-2.8458	-2.6792	-2.6479	-2.7229	-2.7	-2.2438	-2.8208	-2.6729	-2.5292	-2.7687	-2.5563	-2.8271	-2.7771	-2.2979	-2.8708	29.549	-22.435	-24.758	-143.013	-151.511	-6.739	125.836	158.892	106.311	-53.180	42.538	51.531	93.686	119.335	-104.104	141.654	0.0012736	0.0027127	0.00048353	385.82	3.7265e-05	2.5951e-05	573.34	159.1	4.5114e-05	2.6412e-05	265.07	140.05	84.832	44.63	1.094e-05	72.712	0.0041772	0.004375	0.0011058	846.47	4.7096e-05	4.7511e-05	1037.5	300.7	4.7818e-05	4.7057e-05	533.71	213.85	190.48	72.072	4.2984e-05	105.59	-118.519	-75.501	-27.967	-143.840	-119.783	-13.860	-145.108	-138.975	-96.775	30.725	-141.258	-138.556	-136.359	-130.327	5.764	-134.842	-8191	255	
3710.773	1	1	0	0	0.027361	0.056398	0.019223	0.27075	0.15482	0.037062	0.090531	0.19341	0.24734	0.14663	0.18883	0.16211	0.3622	0.19764	0.3087	0.21135	-2.1292	-2.4583	-2.8604	-2.45	-2.7667	-2.7667	-2.5125	-2.9062	-2.6396	-2.4833	-2.8333	-2.4479	-2.8458	-2.9729	-2.3333	-2.7625	28.594	-131.300	43.138	119.553	45.593	-69.058	49.418	-128.310	91.372	164.322	197.225	184.973	179.555	120.386	-37.824	107.372	0.00080573	0.002889	4.0333e-05	379.42	1.2282e-05	2.5458e-05	570	159.07	4.6473e-06	3.2453e-05	265.18	139.85	85.63	44.606	8.1316e-06	73.255	0.0043681	0.0041934	0.00109	862.1	4.9084e-05	4.5618e-05	1025.1	304.99	4.8964e-05	4.4956e-05	526.75	217.96	192.85	71.043	4.25e-05	108.72	-109.716	-59.179	71.991	-144.028	-109.369	12.260	-145.340	-139.409	131.158	49.328	-141.623	-138.725	-135.608	-130.702	5.800	-134.924	-8191	255	
3710.845	1	1	0	0	0.19985	0.052014	0.13494	0.050077	0.24315	0.16447	0.091118	0.15698	0.2863	0.048722	0.076327	0.16725	0.062263	0.24795	0.30373	0.1217	-2.1146	-2.5104	-2.7729	-2.5167	-2.575	-2.8333	-2.4708	-2.7562	-2.5125	-2.4688	-2.775	-2.5021	-2.6979	-2.8833	-2.2938	-2.9	-29.470	-104.726	103.037	-123.291	130.400	141.621	-91.303	146.125	121.119	-84.515	163.103	156.034	156.756	-156.997	73.703	171.189	0.00052746	0.002806	9.2041e-05	381.72	1.7309e-05	1.1019e-05	574.04	159.7	2.5995e-05	1.5019e-05	264.07	140.72	86.552	44.467	6.5285e-06	73.219	0.0044841	0.0041333	0.0010961	910.24	5.0157e-05	4.5865e-05	1036.8	322.95	5.0095e-05	4.5338e-05	531.72	227.34	192.87	71.012	4.261e-05	111.8	-52.917	-100.496	171.880	-144.770	29.587	71.388	-145.269	-139.799	112.334	27.029	-141.618	-138.690	-134.998	-130.679	-110.727	-134.782	-8191	255	
3710.941	1	1	0	0	0.030692	0.19368	0.12874	0.22117	0.28179	0.045974	0.078656	0.21533	0.2348	0.33447	0.12264	0.058675	0.12047	0.24322	0.082765	0.08342	-2.3812	-2.3271	-2.7125	-2.5083	-2.7917	-2.8896	-2.3271	-2.6688	-2.7354	-2.625	-2.7729	-2.7	-2.5667	-3.0125	-2.2083	-2.8667	-95.501	113.997	-149.547	-147.272	93.887	-3.235	33.502	132.329	98.514	61.247	79.723	112.289	116.390	-113.889	-100.787	-142.479	0.00028983	0.0013299	7.6847e-05	382.73	2.2061e-05	1.4827e-05	569.89	158.96	4.0063e-05	2.1441e-05	260.95	139.64	85.392	44.418	2.2111e-05	72.334	0.0043548	0.0040333	0.0010857	935.79	4.7476e-05	4.3938e-05	1027.8	326.38	4.6925e-05	4.3247e-05	528.86	228.28	184.41	69.595	4.3092e-05	111.81	-34.974	-78.317	-20.319	-144.017	77.516	37.100	-145.566	-138.984	59.513	49.575	-142.234	-138.747	-134.930	-130.589	-142.590	-134.677	-8191	255	
3711.037	1	1	0	0	0.12719	0.022835	0.076747	0.30346	0.28117	0.032461	0.11693	0.12809	0.01114	0.12677	0.094133	0.28665	0.17557	0.18179	0.1387	0.15944	-2.175	-2.4625	-2.6667	-2.6542	-2.4583	-2.9229	-2.4833	-2.7542	-2.65	-2.3104	-2.8354	-2.7271	-2.3688	-3.0375	-2.4708	-2.8792	174.932	-105.166	30.646	-140.937	-140.122	-59.326	193.370	145.730	-92.353	171.961	188.943	154.204	-125.939	92.832	-52.099	138.098	0.00040683	0.0017684	0.00090873	382.03	3.1645e-05	8.2336e-06	567.89	158.3	1.8704e-05	1.8787e-05	262.63	139.25	85.196	44.129	3.9054e-05	72.874	0.0040845	0.0038789	0.0011116	939.72	4.5018e-05	4.2766e-05	1047.8	326.93	4.4864e-05	4.2243e-05	543	227.17	179.7	68.662	4.5729e-05	111.33	-65.689	-79.453	201.121	-143.586	39.761	-9.110	-145.906	-138.503	67.343	23.978	-142.599	-138.028	-135.429	-130.583	-139.484	-134.250	-8191	255	
3711.156	1	1	0	0	0.36377	0.2428	0.1786	0.11848	0.14904	0.12837	0.12721	0.15314	0.16939	0.15652	0.22745	0.065815	0.18289	0.11698	0.17969	0.17512	-2.2708	-2.3	-2.8646	-2.5833	-2.5979	-2.8979	-2.5708	-2.5375	-2.8812	-2.4313	-2.8187	-2.8604	-2.3979	-2.7958	-2.4938	-2.5938	-30.935	-152.477	32.178	-127.617	76.458	142.294	136.986	123.251	136.376	103.456	90.373	177.846	173.937	-129.763	74.841	-84.389	0.0006743	0.0023121	0.00082955	383.78	1.8878e-05	1.621e-05	573.05	158.12	1.095e-05	4.1698e-06	262.38	140.11	84.691	44.118	1.7973e-05	72.84	0.003943	0.0037953	0.0011818	927.47	4.3585e-05	4.1882e-05	1084.2	323.03	4.4115e-05	4.2106e-05	565.84	225.59	178.95	68.927	4.8514e-05	109.89	-67.430	-84.057	197.044	-143.075	6.352	-3.407	-146.018	-138.362	80.590	-108.827	-142.442	-137.872	-135.774	-131.033	178.773	-133.967	-8191	255	
3711.252	1	1	0	0	0.098218	0.14209	0.16563	0.10183	0.13044	0.072538	0.098708	0.20148	0.12611	0.18036	0.17561	0.24184	0.23047	0.11102	0.098925	0.45254	-2.4188	-2.3	-2.5729	-2.7188	-2.425	-2.7354	-2.6958	-2.6021	-2.8479	-2.3604	-2.7354	-2.8729	-2.3958	-2.8271	-2.6646	-2.7125	107.347	125.199	94.673	143.526	-65.043	-108.216	156.635	-99.191	-45.658	-93.204	-77.364	106.018	-111.276	157.597	133.397	139.323	0.00068715	0.0024883	0.0006198	383.17	9.6371e-06	1.3895e-05	575.31	159.58	1.1125e-05	1.7768e-05	265.45	139.5	84.204	44.254	6.1302e-06	72.779	0.0038634	0.0038271	0.0012371	904.8	4.2509e-05	4.2513e-05	1105.1	314.6	4.2709e-05	4.3058e-05	574.76	220.71	175.74	70.004	4.9851e-05	108.02	-65.943	138.000	177.156	-142.904	5.438	163.762	-145.345	-138.270	71.421	-113.933	-141.950	-137.897	-135.323	-131.417	-138.249	-134.585	-8191	255	
3711.348	1	1	0	0	0.13399	0.092292	0.19427	0.21877	0.19876	0.11452	0.18833	0.085446	0.14336	0.083606	0.14392	0.093262	0.27851	0.26561	0.18529	0.11234	-2.45	-2.425	-2.7021	-2.7938	-2.3792	-2.7458	-2.6542	-2.4813	-2.7125	-2.4104	-2.6146	-2.9188	-2.3792	-2.8312	-2.5938	-2.5896	-84.825	79.852	-131.810	12.639	-117.147	-22.982	-140.263	-51.860	-95.863	-153.407	120.102	52.167	88.204	150.176	-17.118	123.631	0.00057208	0.0036161	0.00016404	380.82	5.3696e-06	4.4707e-05	568.07	157.46	1.649e-05	4.708e-05	262.15	139.25	84.397	44.156	1.6879e-05	72.265	0.0037668	0.0040227	0.0012506	876.4	4.1475e-05	4.4547e-05	1098	306.33	4.1391e-05	4.5283e-05	566.12	216.4	172.83	71.493	4.8533e-05	106.61	-74.973	107.347	-37.555	-143.460	4.330	196.924	-145.259	-138.497	-60.088	-151.430	-141.255	-138.234	-135.428	-131.331	39.381	-134.386	-8191	255	
3711.422	1	1	0	0	0.079811	0.23256	0.1955	0.30129	0.080085	0.15758	0.13444	0.2901	0.35563	0.16581	0.16374	0.070553	0.25709	0.10237	0.17625	0.10511	-2.2875	-2.4854	-2.5729	-2.7896	-2.6	-2.7188	-2.8146	-2.6521	-2.7396	-2.4854	-2.7708	-2.8229	-2.4042	-2.7729	-2.7687	-2.6937	-42.918	22.938	-9.074	142.451	3.604	159.308	75.507	46.519	134.162	-115.821	151.682	133.324	180.393	136.551	4.732	-140.669	0.00079688	0.0037312	0.00059607	382.19	1.0177e-05	3.3393e-05	570.29	158.48	8.3007e-06	1.4636e-05	264.55	139.81	84.497	44.491	2.7207e-05	72.415	0.0037113	0.0043202	0.00123	875.53	4.1826e-05	4.8456e-05	1093.1	307.07	4.2211e-05	4.9216e-05	563.38	217.71	177.11	74.021	4.78e-05	106.76	-80.626	134.315	13.624	-143.572	-95.369	194.508	-144.861	-138.698	-96.660	-122.812	-141.263	-138.016	-136.099	-131.200	17.592	-134.451	-8191	255	
3711.541	1	1	0	0	0.15859	0.12032	0.27089	0.08175	0.10871	0.23848	0.15553	0.13508	0.17483	0.18509	0.20768	0.26029	0.16641	0.3574	0.10157	0.23128	-2.4854	-2.5083	-2.5396	-2.8167	-2.5083	-2.6125	-2.7417	-2.4458	-2.7521	-2.5771	-2.4292	-2.9562	-2.5771	-2.7729	-2.6521	-2.3833	12.095	-153.312	-121.297	-109.720	3.781	192.945	173.004	58.025	199.225	203.524	85.818	-17.111	161.687	168.376	-126.975	100.182	0.0010143	0.0011734	0.000912	381.72	1.3489e-05	7.9331e-06	566.9	156.62	3.5986e-05	1.5377e-05	263.75	139.69	83.945	44.193	2.7166e-05	72.297	0.0038815	0.0045874	0.0011967	870.38	4.3586e-05	5.0353e-05	1070.3	303.4	4.4253e-05	5.0661e-05	549.71	215.57	182.12	74.336	4.626e-05	106.16	-109.794	92.132	13.268	-143.590	-155.383	-88.635	-145.087	-138.460	-99.830	122.486	-141.140	-137.919	-136.661	-130.669	22.663	-134.467	-8191	255	
3711.637	1	1	0	0	0.086481	0.061665	0.1639	0.24078	0.34893	0.097991	0.29033	0.099023	0.28933	0.38528	0.079468	0.17992	0.19502	0.058134	0.029786	0.15803	-2.1646	-2.5854	-2.4104	-2.8625	-2.6771	-2.7979	-2.6875	-2.5146	-2.7917	-2.6021	-2.2333	-2.8063	-2.5542	-2.4562	-2.7208	-2.6229	28.197	-136.517	-102.895	189.669	89.579	-110.046	131.654	-79.639	-58.029	-111.768	-79.959	188.730	93.828	-126.551	-12.211	148.080	0.0012695	0.0021777	0.00048835	381	3.5933e-05	2.7863e-05	567.36	156.35	3.8166e-05	2.164e-05	261.53	140.59	84.708	44.738	6.6217e-06	73.081	0.0041594	0.0046797	0.0011753	868.51	4.7566e-05	5.1303e-05	1070.3	305.05	4.8606e-05	5.1245e-05	550.5	217.58	192.9	74.615	4.6338e-05	107.17	-104.328	-108.778	6.353	-143.407	-119.725	-23.076	-145.125	-138.969	-90.327	45.592	-141.688	-138.330	-136.232	-130.574	177.743	-134.947	-8191	255	
3711.733	1	1	0	0	0.17757	0.094641	0.068289	0.097581	0.20473	0.20956	0.11831	0.082646	0.20663	0.17016	0.15675	0.15534	0.14507	0.32769	0.061497	0.3697	-2.2604	-2.5521	-2.2875	-2.8729	-2.4333	-2.7458	-2.875	-2.375	-2.7958	-2.6833	-2.4375	-2.8521	-2.4458	-2.5417	-2.9729	-2.6729	-4.780	77.456	158.773	117.476	97.453	71.376	85.203	133.831	-31.086	7.036	51.570	-94.983	145.321	-123.182	139.635	136.238	0.0010962	0.0025127	0.0003787	376.17	1.7193e-05	2.2947e-05	569.24	157.97	3.0642e-05	2.3206e-05	264.13	139.95	85.439	44.806	1.9371e-05	73.036	0.0044906	0.0045883	0.0011654	873.06	5.0643e-05	4.9558e-05	1063.6	308.28	5.0951e-05	4.9141e-05	544.09	219.44	197.58	73.023	4.4606e-05	108.09	-107.222	-90.127	9.439	-143.638	-120.681	4.960	-145.198	-139.151	-90.711	40.948	-141.184	-138.728	-136.446	-130.754	32.318	-135.259	-8191	255	
3711.854	1	1	0	0	0.10248	0.34158	0.097509	0.14427	0.14771	0.1094	0.20726	0.12939	0.25008	0.029715	0.30845	0.24928	0.16143	0.17338	0.23358	0.18483	-2.3375	-2.7396	-2.4021	-2.9042	-2.5771	-2.6479	-2.9521	-2.3937	-2.6229	-2.7583	-2.3854	-2.8208	-2.5229	-2.3875	-2.8917	-2.4792	55.664	87.325	-117.859	-88.523	199.541	-103.688	76.011	166.840	-29.796	-59.468	161.700	121.528	-153.605	138.614	-139.176	187.899	0.00081022	0.0021151	0.00049086	381.37	9.2769e-06	1.8418e-05	571.67	159.21	1.0692e-05	7.0062e-06	265.43	140.42	85.639	44.404	8.9062e-06	72.78	0.0045874	0.0043381	0.0011239	892.2	5.1371e-05	4.6959e-05	1046.2	316.24	5.1125e-05	4.6747e-05	536.47	223.45	196.38	71.409	4.3107e-05	109.53	-78.698	-86.764	-19.049	-144.135	-35.277	-11.958	-145.226	-139.453	81.152	104.095	-141.808	-138.547	-135.465	-130.743	49.332	-135.194	-8191	255	
3711.950	1	1	0	0	0.34446	0.19058	0.085729	0.11555	0.2754	0.10922	0.21321	0.134	0.29806	0.26894	0.23545	0.18831	0.077733	0.11248	0.1888	0.20167	-2.0729	-2.8667	-2.2917	-2.8583	-2.85	-2.4813	-3.0208	-2.4208	-2.6729	-2.7062	-2.5271	-2.8208	-2.7042	-2.4833	-2.8292	-2.8312	143.376	-79.257	128.153	39.569	190.885	-27.784	123.064	148.365	-91.738	154.554	-47.121	188.990	19.679	199.566	-40.085	144.189	0.0004192	0.001745	0.00011	377.9	2.2592e-05	1.985e-05	563.78	156.83	2.571e-05	1.0381e-05	259.28	139.15	85.058	44.217	2.3957e-05	72.235	0.0044237	0.004081	0.0010676	903.45	4.8244e-05	4.3632e-05	1014.6	316.83	4.7134e-05	4.3322e-05	515.41	222.72	185.63	69.071	4.1181e-05	110.02	-56.685	-97.411	-104.162	-144.388	66.799	-35.340	-145.678	-139.485	72.965	56.118	-141.908	-138.452	-135.085	-130.389	-99.883	-134.799	-8191	255	
3712.044	1	1	0	0	0.14187	0.065195	0.078517	0.182	0.17976	0.23944	0.15752	0.027753	0.10057	0.10744	0.15215	0.28876	0.068482	0.1375	0.16072	0.17251	-2.2062	-2.7125	-2.2125	-2.6146	-2.4688	-2.3833	-2.7958	-2.5354	-2.5125	-2.9146	-2.5354	-2.8979	-2.8146	-2.4979	-2.7354	-2.6292	-13.446	-91.774	-130.961	79.604	191.773	142.147	199.769	177.205	18.715	-43.349	-142.451	190.942	-144.955	181.220	51.164	194.900	0.00046519	0.0013013	0.00063269	378.86	1.3145e-05	1.3804e-05	564.53	156.67	3.1396e-05	1.8699e-05	259.87	138.18	84.018	43.871	3.3584e-05	72.282	0.0041159	0.0038962	0.0010546	918.59	4.5784e-05	4.2275e-05	1015.4	320.6	4.4567e-05	4.1609e-05	520.07	223.48	178.73	67.816	4.2159e-05	109.85	-71.388	-103.326	-147.555	-143.877	41.424	19.193	-145.945	-139.031	63.830	10.038	-142.209	-138.304	-135.597	-130.494	-143.714	-134.658	-8191	255	
3712.142	1	1	0	0	0.25368	0.21971	0.092033	0.044426	0.26387	0.25728	0.17803	0.17393	0.2349	0.071632	0.056729	0.39777	0.16979	0.10432	0.23527	0.18831	-1.9479	-2.8063	-2.4875	-2.8333	-2.8646	-2.3167	-2.9167	-2.6479	-2.4708	-2.9646	-2.6167	-2.7208	-2.8625	-2.5771	-2.825	-2.7542	105.437	-44.105	-117.012	-133.024	56.616	33.205	-147.907	150.820	-53.656	39.662	198.491	-140.735	-118.226	81.992	117.695	154.880	0.0004782	0.001893	0.00084027	380.29	1.0653e-05	2.0385e-05	567.1	156.1	2.8054e-05	1.4193e-05	258.44	139.07	84.448	43.911	2.3463e-05	72.157	0.0038597	0.0037205	0.0010852	910.57	4.2908e-05	4.0573e-05	1035.2	317.81	4.2416e-05	4.0402e-05	536.02	221.93	175.52	67.301	4.4826e-05	108.72	-50.864	-78.670	183.264	-143.439	27.657	-30.689	-145.933	-138.688	61.126	-72.197	-142.469	-138.159	-135.321	-130.797	-111.550	-134.430	-8191	255	
3712.236	1	1	0	0	0.23287	0.040194	0.1275	0.055776	0.11028	0.36591	0.29696	0.035555	0.040623	0.2668	0.029599	0.1172	0.12961	0.11885	0.053201	0.20939	-1.9375	-2.7938	-2.5583	-2.7771	-2.7583	-2.2833	-2.7292	-2.8542	-2.4688	-2.8063	-2.4354	-2.425	-2.9625	-2.6521	-2.5333	-2.9833	179.252	-68.230	81.807	166.014	74.326	115.469	110.853	76.785	-136.540	84.583	-14.782	-81.890	201.937	-149.185	137.117	153.126	0.00072972	0.0011352	0.00058522	378.99	1.4897e-05	6.0981e-06	562.71	156.95	1.3299e-05	1.3788e-05	256.66	137.36	83.596	43.86	2.3914e-05	71.94	0.0037344	0.0036448	0.0011465	887.96	4.1128e-05	3.9357e-05	1047	306.13	3.9912e-05	3.8774e-05	537.9	213.5	168.32	66.423	4.4936e-05	105.27	-53.905	133.970	179.933	-143.010	84.146	189.141	-145.660	-138.379	66.022	-97.799	-142.103	-137.833	-135.558	-131.071	-145.087	-134.171	-8191	255	
3712.333	1	1	0	0	0.16987	0.26431	0.21635	0.11275	0.35206	0.34025	0.22205	0.17388	0.07993	0.075269	0.026104	0.097228	0.14233	0.24671	0.11785	0.034815	-2.175	-2.9167	-2.6396	-2.5917	-2.8063	-2.3917	-3.0062	-2.8292	-2.4771	-2.8187	-2.5458	-2.6063	-2.7562	-2.6479	-2.6521	-2.8042	58.266	172.768	152.689	163.893	-80.990	23.458	2.604	156.213	-82.055	-23.479	-129.533	96.533	70.399	169.362	190.357	17.591	0.00048431	0.0016325	0.00032776	378.21	1.7206e-05	1.8684e-05	561.96	156.33	1.6523e-05	3.0767e-05	258.59	136.93	82.941	43.61	1.2976e-05	71.589	0.0035327	0.0035843	0.001161	851.81	3.9396e-05	3.9885e-05	1056.4	298.15	3.8743e-05	4.0333e-05	543.06	209.14	165.77	67.589	4.5396e-05	103.62	-83.366	130.560	160.049	-143.162	48.586	-152.403	-145.351	-138.280	108.688	-135.253	-141.961	-137.637	-135.420	-131.159	31.995	-134.476	-8191	255	
3712.453	1	1	0	0	0.082253	0.068121	0.20457	0.28344	0.27346	0.15051	0.12649	0.19958	0.080797	0.16873	0.16742	0.19126	0.2053	0.097237	0.15426	0.19081	-1.9146	-2.6333	-2.625	-2.3708	-2.8812	-2.3979	-2.5667	-2.9083	-2.4396	-2.7438	-2.9021	-2.5792	-2.925	-2.5479	-2.6021	-2.7938	-77.441	-16.590	11.904	-18.761	-41.374	161.297	-100.191	81.864	-118.546	-102.856	17.708	90.117	-93.068	31.174	-142.277	186.310	0.00059414	0.0027228	0.0004111	377.66	2.8445e-06	3.6524e-05	567.38	155.42	5.3471e-06	1.981e-05	258.97	136.96	83.158	43.68	3.154e-05	71.468	0.0034556	0.0038047	0.0011632	837.52	3.8847e-05	4.2842e-05	1056.4	295.68	3.8654e-05	4.3525e-05	541.8	208.36	165.46	69.577	4.4183e-05	102.55	-85.925	145.195	7.678	-143.413	6.159	186.350	-145.120	-138.403	56.635	-116.349	-140.883	-137.864	-135.569	-131.213	23.127	-134.490	-8191	255	
3712.549	1	1	0	0	0.18225	0.28268	0.15849	0.065458	0.18174	0.10555	0.21285	0.028447	0.1902	0.23558	0.13745	0.27357	0.3256	0.15976	0.24281	0.1708	-1.8604	-2.8063	-2.6542	-2.4417	-2.8833	-2.5167	-2.7021	-2.9313	-2.3979	-2.7938	-2.7938	-2.5854	-2.7625	-2.6437	-2.4729	-2.9958	74.851	92.462	-121.580	-113.368	202.795	132.670	123.690	160.484	-102.774	39.861	176.368	100.124	94.721	166.104	-10.385	152.085	0.00074925	0.0021463	0.0007212	374.31	2.0365e-05	2.8748e-05	561.24	153.79	2.0923e-05	2.3314e-05	256.9	136.07	81.941	43.581	2.2917e-05	71.392	0.0034077	0.0039768	0.0011031	814.44	3.786e-05	4.3877e-05	1017.1	285.98	3.7983e-05	4.423e-05	518.65	203.56	164.68	69.878	4.172e-05	100.85	-84.299	104.317	11.362	-143.466	-110.706	182.508	-144.781	-138.562	-91.040	-128.431	-141.123	-138.269	-135.900	-130.676	12.533	-134.414	-8191	255	
3712.646	1	1	0	0	0.1286	0.039424	0.058647	0.11077	0.23728	0.057139	0.19887	0.18185	0.31727	0.14874	0.059044	0.20825	0.14928	0.19312	0.14421	0.14247	-1.9188	-2.6208	-2.6979	-2.2771	-2.7812	-2.5187	-2.5687	-2.9708	-2.4437	-2.6167	-2.7521	-2.3438	-2.7333	-2.7896	-2.4938	-2.8271	103.785	-38.343	112.792	69.336	186.891	-12.307	154.744	101.878	-109.413	173.023	44.439	150.427	68.760	60.340	39.720	92.851	0.0011099	0.00063123	0.00053319	373.35	2.6788e-05	1.5114e-05	558.09	153.82	2.4334e-05	1.6199e-05	257.56	135.83	82.195	43.879	1.3454e-05	71.272	0.0034865	0.0040846	0.0010517	801.81	3.9524e-05	4.5156e-05	997.56	283.34	4.0155e-05	4.5044e-05	509.8	202.53	171.28	70.387	4.0721e-05	100.82	-100.517	153.370	-2.502	-143.805	-135.795	45.299	-145.020	-138.160	-94.101	19.142	-140.688	-137.971	-135.966	-130.577	27.013	-134.504	-8191	255	
3712.717	1	1	0	0	0.15687	0.23435	0.16336	0.17113	0.074874	0.095356	0.083523	0.10085	0.23414	0.079681	0.16683	0.12243	0.14668	0.1194	0.014645	0.17865	-2.1854	-2.4646	-2.7208	-2.2146	-2.6458	-2.6875	-2.5479	-2.9	-2.4646	-2.5104	-2.9271	-2.4958	-2.8396	-2.7854	-2.3875	-2.8625	91.583	38.960	-83.214	77.947	65.706	90.401	109.515	-129.377	114.216	-136.989	13.283	173.990	13.911	203.010	-110.981	-119.444	0.0010997	0.00052657	0.00012976	377.53	2.7971e-05	2.4131e-05	560.53	154.99	3.4896e-05	4.2159e-05	256.59	135.7	82.541	43.936	1.8562e-05	71.421	0.0037723	0.0040993	0.0010351	804.62	4.2689e-05	4.4743e-05	994.84	284.66	4.304e-05	4.378e-05	504.64	202.15	176.73	69.169	3.9282e-05	100.39	-116.048	-73.454	48.188	-143.788	-121.165	0.831	-145.042	-138.747	-90.253	26.472	-141.336	-138.217	-135.738	-130.619	-31.316	-134.607	-8191	255	
3712.838	1	1	0	0	0.2276	0.37018	0.34908	0.15121	0.071579	0.10183	0.31553	0.15804	0.22568	0.056836	0.094869	0.38986	0.3444	0.18975	0.18571	0.12187	-2.1521	-2.3479	-2.6396	-2.3854	-2.8792	-2.7375	-2.5312	-2.9417	-2.5021	-2.5187	-2.6958	-2.5125	-2.6104	-2.7521	-2.3958	-2.9167	171.207	61.880	36.835	-56.998	105.343	114.000	103.693	-145.809	137.785	-108.977	82.912	164.180	-145.336	-139.859	86.791	-138.823	0.00093461	0.0025353	0.00016284	374.65	2.0296e-05	1.9828e-05	561.71	154.55	1.7358e-05	2.3442e-05	255.88	135.43	82.493	43.859	1.5312e-05	71.412	0.0039024	0.0038602	0.00098934	800	4.3583e-05	4.1744e-05	975.02	284.13	4.3796e-05	4.1089e-05	492.54	203.16	177.09	67.288	3.7708e-05	100.99	-111.045	-91.719	-37.948	-143.836	-108.167	-1.163	-145.381	-139.157	-96.069	36.765	-141.597	-138.441	-135.705	-130.541	26.919	-134.816	-8191	255	
3712.934	1	1	0	0	0.19259	0.21893	0.27799	0.19461	0.076377	0.26092	0.22478	0.24118	0.09326	0.17618	0.272	0.32724	0.10123	0.12579	0.23801	0.14017	-2.2667	-2.5104	-2.8542	-2.5271	-2.5958	-2.8937	-2.5479	-2.8563	-2.5292	-2.5271	-2.9833	-2.5396	-2.5687	-2.7708	-2.2979	-2.9875	36.615	59.295	37.899	73.929	170.826	-77.687	-34.739	-116.586	151.770	181.291	-75.336	104.394	63.487	131.252	-78.052	110.988	0.00049768	0.001753	0.00040048	373.98	1.3747e-05	8.9333e-06	562.7	153.13	2.9704e-05	1.4491e-05	256.25	134.66	82.992	43.62	6.7741e-06	71.349	0.0039015	0.0036162	0.00094568	810.3	4.2881e-05	3.8973e-05	951.48	287.23	4.2574e-05	3.8528e-05	482.02	205.16	173.67	66.037	3.664e-05	103.12	-87.006	-54.973	-18.239	-144.091	36.906	12.733	-144.884	-138.976	91.118	35.762	-141.487	-138.765	-135.258	-130.386	-7.615	-134.838	-8191	255	
3713.030	1	1	0	0	0.13743	0.22428	0.010779	0.27187	0.065504	0.17812	0.1783	0.18289	0.24956	0.15462	0.15831	0.087789	0.19353	0.024368	0.077078	0.27865	-2.1	-2.4333	-2.8625	-2.4271	-2.6792	-2.7979	-2.2833	-2.7687	-2.6021	-2.4771	-2.9146	-2.7396	-2.6521	-2.8542	-2.4375	-2.8854	-48.796	-89.463	121.757	192.513	-112.562	144.441	44.561	89.294	195.778	-129.527	68.396	90.149	-135.214	116.382	36.330	-84.422	0.00048114	0.0013701	0.00018521	374.33	2.52e-05	5.5293e-06	565.12	154.97	3.0145e-05	2.3696e-05	255.94	135.83	82.985	43.728	1.2776e-05	71.178	0.0038273	0.0035508	0.00094655	850.62	4.2823e-05	3.9467e-05	968.1	302.08	4.2729e-05	3.9114e-05	491.13	212.75	172.93	66.176	3.798e-05	105.36	-40.898	-152.536	-108.855	-144.335	45.667	-1.334	-145.431	-139.020	81.074	10.884	-142.015	-138.432	-135.166	-130.786	181.337	-134.814	-8191	255	
3713.126	1	1	0	0	0.10957	0.17729	0.17494	0.033454	0.077419	0.082623	0.1314	0.04027	0.21666	0.098497	0.077489	0.1241	0.17219	0.15781	0.18566	0.071223	-2.2458	-2.4437	-2.8187	-2.8438	-2.5542	-2.7521	-2.6792	-2.7708	-2.6854	-2.5625	-2.825	-2.7854	-2.6333	-3.0208	-2.55	-2.8104	110.984	-18.613	165.448	18.054	199.469	73.207	183.014	82.361	143.535	-126.517	191.904	40.058	-80.093	-111.955	189.503	52.778	0.00065162	0.0014458	0.00041532	375.48	1.5943e-05	1.3928e-05	559.23	154.84	2.7008e-05	1.8352e-05	254.04	136.33	83.611	43.472	3.1347e-05	71.295	0.0037182	0.0035017	0.00097487	870.1	4.0757e-05	3.8291e-05	974.64	304.3	4.0449e-05	3.7945e-05	499	214.19	168.83	65.633	4.0055e-05	105.98	-44.234	-74.825	196.030	-144.042	49.998	0.808	-145.452	-138.895	60.087	46.251	-142.476	-138.161	-135.127	-130.722	-148.096	-134.547	-8191	255	
3713.222	1	1	0	0	0.093945	0.10814	0.17011	0.13898	0.21475	0.3198	0.19351	0.23874	0.17466	0.17009	0.14369	0.23565	0.09377	0.13796	0.14241	0.13939	-2.3792	-2.2604	-2.6708	-2.6167	-2.4938	-2.9062	-2.5438	-2.6854	-2.8625	-2.4042	-2.9542	-2.7604	-2.5542	-3.0187	-2.6	-2.7188	-61.659	167.240	-46.172	191.201	10.190	89.524	134.470	127.116	191.614	4.392	142.965	113.638	-130.692	-127.881	50.296	127.713	0.00059733	0.0015587	0.00091103	377.11	2.3404e-05	2.8698e-06	563.63	155.45	1.7318e-05	7.47e-06	258.85	137.65	83.775	43.675	1.7196e-05	72.116	0.0036027	0.0034768	0.0010412	879.72	3.9986e-05	3.8078e-05	1013.1	306.09	3.9805e-05	3.7859e-05	522.84	214.9	168.66	65.892	4.3504e-05	106.33	-86.754	-80.249	202.889	-143.318	38.241	-80.168	-146.093	-138.576	56.744	57.363	-142.385	-138.168	-134.957	-130.894	191.645	-134.498	-8191	255	
3713.317	1	1	0	0	0.28645	0.27541	0.073586	0.33491	0.17509	0.28988	0.20322	0.18479	0.005852	0.080084	0.11377	0.1876	0.19294	0.23128	0.1953	0.25867	-2.2583	-2.5563	-2.825	-2.7979	-2.3833	-2.9479	-2.6979	-2.5896	-2.9229	-2.3542	-2.8229	-2.8396	-2.3312	-2.9958	-2.5625	-2.5438	159.414	28.055	95.931	200.638	58.877	-5.161	178.827	-45.284	146.449	-101.622	56.958	201.280	-152.141	111.058	110.779	188.137	0.00035102	0.00018467	0.00072379	382.78	1.5609e-05	8.5223e-06	571.89	158.13	1.1033e-05	2.6926e-05	260.55	138.04	84.476	43.758	1.3952e-05	72.177	0.0036044	0.0035454	0.0011358	877.26	4.0485e-05	3.9476e-05	1061.6	307.07	4.0433e-05	3.9711e-05	548.33	215.25	170.43	67.405	4.6373e-05	105.8	-95.512	143.540	189.981	-143.064	68.729	-104.247	-146.158	-138.133	-1.121	-132.700	-141.534	-138.037	-135.491	-131.053	-151.235	-134.326	-8191	255	
3713.415	1	1	0	0	0.019102	0.16402	0.31908	0.1505	0.09878	0.064092	0.20174	0.32018	0.19253	0.10239	0.22525	0.19768	0.20823	0.19079	0.17821	0.14586	-2.3792	-2.45	-2.6583	-2.5896	-2.4604	-2.8521	-2.5979	-2.4333	-2.8688	-2.6063	-2.6125	-2.7729	-2.4813	-2.7417	-2.5771	-2.6083	133.525	-64.171	18.645	116.612	132.650	-88.823	-39.378	193.676	58.666	-81.014	84.699	104.460	-100.125	-143.836	-155.442	148.848	0.00050753	0.0026503	0.00041192	381.35	9.1388e-06	1.8355e-05	572.72	158	1.5698e-05	3.3358e-05	265.26	138.87	83.857	43.89	1.665e-05	72.198	0.0036044	0.0037407	0.0011893	864.87	4.0096e-05	4.1776e-05	1080	302.81	4.0185e-05	4.2432e-05	556.82	213.74	170.21	69.489	4.7432e-05	105.41	-94.987	118.172	-134.401	-143.245	7.557	-150.205	-145.298	-138.205	28.295	203.171	-141.743	-138.041	-135.515	-131.013	38.211	-134.382	-8191	255	
3713.534	1	1	0	0	0.084865	0.10561	0.14272	0.10404	0.14715	0.11637	0.063926	0.02153	0.061469	0.1753	0.15179	0.17641	0.18506	0.31926	0.14601	0.086873	-2.5042	-2.6063	-2.5104	-2.7104	-2.2854	-2.8083	-2.7792	-2.5833	-2.8125	-2.6063	-2.75	-2.9	-2.5521	-2.7771	-2.7479	-2.5354	-129.928	-37.545	183.500	4.779	-10.090	59.077	-105.657	-103.884	16.619	86.868	137.399	172.629	179.474	-134.532	-69.848	143.271	0.00064286	0.0027672	0.00037224	381.4	3.8516e-06	4.1027e-05	571.68	158.3	7.0661e-06	1.8505e-05	263.77	139.57	84.208	43.869	2.7144e-05	72.174	0.0036266	0.0041166	0.0012238	867.34	4.1098e-05	4.6354e-05	1091.9	306.39	4.1358e-05	4.7224e-05	562.27	215.79	173.62	72.176	4.7194e-05	105.64	-66.987	118.919	-0.274	-143.255	-16.973	193.612	-144.983	-138.547	152.017	-129.878	-141.307	-138.142	-135.746	-131.036	-4.878	-134.534	-8191	255	
3713.630	1	1	0	0	0.18135	0.13933	0.034184	0.19727	0.11095	0.18032	0.16484	0.31499	0.18092	0.056316	0.3131	0.24907	0.18519	0.23904	0.25031	0.075629	-2.425	-2.5042	-2.3896	-2.6688	-2.3792	-2.6625	-2.7958	-2.3708	-2.775	-2.5792	-2.6542	-2.9813	-2.5438	-2.8042	-2.7333	-2.3521	181.135	99.561	141.011	109.992	-9.711	61.966	163.926	97.252	13.086	-156.396	122.233	101.667	-120.947	195.093	-63.595	166.697	0.0009788	0.0019978	0.00071469	383.44	1.8416e-05	2.4412e-05	572.71	158.54	2.6109e-05	1.6153e-05	265.54	138.78	84.109	44.17	1.7414e-05	71.925	0.0037256	0.0044032	0.0011911	865.32	4.1986e-05	4.8715e-05	1073.3	303.51	4.2308e-05	4.9017e-05	547.7	213.91	176.48	73.047	4.4766e-05	104.08	-105.034	143.220	-5.840	-143.633	-125.492	193.427	-145.012	-138.517	-94.654	190.542	-141.159	-138.088	-137.021	-130.906	16.232	-134.442	-8191	255	
3713.726	1	1	0	0	0.22535	0.071833	0.21528	0.13661	0.09325	0.10211	0.055447	0.28344	0.12332	0.23433	0.20498	0.076809	0.075471	0.39452	0.26044	0.25115	-2.5167	-2.5833	-2.3479	-2.9104	-2.5396	-2.6312	-2.7458	-2.5167	-2.9167	-2.7667	-2.5958	-2.8812	-2.5438	-2.5896	-2.75	-2.475	-12.655	-55.726	134.830	66.760	137.503	-24.411	85.965	195.176	166.524	165.222	1.198	-31.659	58.958	133.095	23.882	161.912	0.0010681	0.00098366	0.00057712	380.19	3.4653e-05	2.3217e-05	571.1	157.11	4.2789e-05	1.9752e-05	262.74	138.62	83.789	44.198	6.4924e-06	72.176	0.0038139	0.0044066	0.0011191	840.42	4.293e-05	4.7737e-05	1037.7	295.74	4.3489e-05	4.7608e-05	528.93	209.59	180.25	71.989	4.2962e-05	103.29	-109.164	-130.174	-13.615	-143.621	-127.383	35.058	-145.107	-138.713	-87.547	69.186	-141.286	-138.325	-136.212	-130.604	107.571	-134.794	-8191	255	
3713.822	1	1	0	0	0.1857	0.21376	0.065962	0.23021	0.27223	0.18988	0.2685	0.14743	0.16621	0.29249	0.28161	0.024852	0.10354	0.12209	0.25852	0.081929	-2.2604	-2.5667	-2.45	-2.8042	-2.5542	-2.5563	-3.0771	-2.4292	-2.8354	-2.7521	-2.575	-2.9437	-2.7646	-2.6958	-2.8792	-2.6104	137.407	55.631	-21.015	-143.023	155.376	-119.520	97.808	174.083	87.317	-33.011	144.813	-44.569	-147.995	-121.476	-79.281	123.495	0.001299	0.0020579	0.00042671	379.27	1.4958e-05	3.4595e-05	569.8	157.74	3.4363e-05	2.3014e-05	264.78	139.72	85.12	44.379	1.7051e-05	72.134	0.0040538	0.0043261	0.0010958	840.18	4.6527e-05	4.7487e-05	1038.8	298.8	4.747e-05	4.759e-05	533.29	213.92	191.12	72.307	4.3896e-05	105.61	-116.377	-77.219	9.730	-143.638	-124.260	13.343	-145.434	-139.068	-98.527	5.772	-141.517	-138.315	-136.525	-130.706	49.679	-134.766	-8191	255	
3713.943	1	1	0	0	0.067279	0.0701	0.13834	0.25341	0.099625	0.050031	0.09918	0.14953	0.064242	0.073208	0.24991	0.12103	0.25419	0.075146	0.20965	0.18868	-2.2083	-2.775	-2.1937	-2.8854	-2.5625	-2.4813	-2.9396	-2.4813	-2.7271	-2.7771	-2.3875	-2.7646	-2.6562	-2.7313	-2.9417	-2.6479	-50.850	183.321	63.737	187.942	-140.049	-155.667	102.886	14.005	-135.476	126.830	164.723	132.879	-123.533	172.423	-126.763	144.349	0.00116	0.0019337	0.00065532	380.49	1.9079e-05	2.8926e-05	571.52	158.59	1.0358e-05	3.5987e-05	262.35	139.41	85.25	44.331	1.2853e-05	72.273	0.0044157	0.0043144	0.0011155	867.87	4.9949e-05	4.6917e-05	1041.1	308.59	5.0224e-05	4.6626e-05	532.14	218.89	194.68	71.159	4.3146e-05	107.75	-102.632	-90.512	22.040	-144.083	198.845	7.421	-145.179	-139.342	-92.156	31.677	-141.260	-138.877	-135.544	-130.434	7.819	-135.146	-8191	255	
3714.014	1	1	0	0	0.11491	0.085608	0.10012	0.27531	0.053232	0.21976	0.28677	0.38462	0.19888	0.067527	0.25744	0.11705	0.23747	0.36318	0.16391	0.17316	-2.3104	-2.5833	-2.4896	-2.7729	-2.6625	-2.5458	-2.9125	-2.5833	-2.5042	-2.7521	-2.4188	-2.8312	-2.7083	-2.4437	-2.7167	-2.625	-40.205	75.890	137.651	-78.093	161.469	159.791	168.092	50.335	187.949	93.159	45.745	-8.091	66.384	199.938	165.477	128.601	0.00080088	0.0028745	0.00072982	378.66	1.685e-05	1.1782e-05	566.27	157.13	1.4559e-05	1.3027e-05	260.55	139.88	85.436	44.147	4.0973e-06	71.843	0.0045052	0.0041775	0.0010981	900.19	5.0088e-05	4.5589e-05	1028.8	317.94	4.9669e-05	4.5246e-05	526.31	224.21	191.69	70.318	4.2522e-05	110.03	-62.775	-72.535	-23.594	-144.173	48.479	-12.121	-145.221	-139.620	48.970	94.521	-141.770	-138.754	-134.897	-130.998	182.750	-134.919	-8191	255	
3714.135	1	1	0	0	0.22083	0.051323	0.091566	0.069585	0.14856	0.12762	0.061424	0.090817	0.060391	0.093493	0.1071	0.037054	0.22503	0.049403	0.1933	0.33044	-2.1125	-2.7458	-2.6042	-2.6375	-2.725	-2.4521	-2.9042	-2.7854	-2.3292	-2.9229	-2.6167	-2.9417	-2.7021	-2.4167	-2.7729	-2.6583	106.349	190.992	77.515	194.862	182.902	-105.310	-132.656	106.389	130.799	87.581	201.667	198.271	84.572	-124.308	-70.449	144.130	0.00062804	0.00045889	0.00030037	377.5	2.4916e-05	3.252e-05	569.59	157.72	2.5258e-05	1.5743e-05	259.62	139.71	85.662	44.097	2.4207e-05	72.284	0.0043372	0.0040513	0.0010869	927.4	4.8054e-05	4.4049e-05	1025.6	324.44	4.7157e-05	4.3695e-05	526.91	227.2	186.25	69.558	4.3288e-05	111.98	-52.971	-106.683	155.488	-144.733	29.058	-37.404	-145.676	-139.508	32.351	44.518	-142.131	-138.571	-135.399	-130.640	-142.484	-134.781	-8191	255	
3714.229	1	1	0	0	0.29595	0.14532	0.19168	0.14861	0.20072	0.065412	0.059014	0.10516	0.16972	0.11467	0.047085	0.16812	0.25372	0.10874	0.032693	0.23638	-2.1125	-2.775	-2.3271	-2.8521	-2.5625	-2.5292	-2.9521	-2.6396	-2.4875	-2.8375	-2.5333	-2.6521	-2.8021	-2.5604	-2.7896	-2.5625	-89.904	53.248	101.240	116.410	-153.287	174.116	88.456	139.327	57.527	-42.930	199.500	138.064	126.442	187.618	-93.137	159.319	0.00043185	0.0021852	0.00072397	382.36	3.4719e-05	1.4199e-05	568.75	158	2.699e-05	1.6502e-05	260.86	139.52	84.537	44.223	4.2622e-05	72.281	0.0041515	0.0039599	0.0011215	946.69	4.602e-05	4.3146e-05	1049.1	328.1	4.506e-05	4.2651e-05	540.99	227.44	180.84	68.798	4.5285e-05	111.17	-53.004	-49.248	-153.434	-143.478	55.762	-52.780	-146.023	-139.027	60.910	39.512	-142.008	-138.064	-135.561	-130.749	-139.440	-134.569	-8191	255	
3714.326	1	1	0	0	0.20424	0.15548	0.25039	0.17096	0.092394	0.42009	0.12582	0.148	0.12672	0.11396	0.15147	0.40531	0.18355	0.042338	0.12849	0.13965	-1.9229	-2.6375	-2.4854	-2.6562	-2.9125	-2.3479	-2.7875	-2.5521	-2.45	-2.9	-2.7	-2.7375	-3.0646	-2.4625	-2.8438	-2.7812	27.463	-96.482	-70.776	-143.248	173.991	64.762	98.824	171.916	-150.005	66.688	117.353	-151.893	-72.613	132.032	-89.608	157.749	0.00038715	0.0011411	0.0012848	381.72	1.5811e-05	1.3846e-05	571.93	157.67	9.2341e-06	9.6593e-06	259.53	139.6	85.314	43.999	3.4031e-05	71.988	0.0039687	0.0038328	0.0011813	932.61	4.4297e-05	4.2339e-05	1080.9	324.82	4.4358e-05	4.2424e-05	564.14	225.61	180.02	69.055	4.862e-05	110.18	-42.825	26.452	199.349	-143.152	20.106	16.610	-145.974	-138.252	-23.518	191.616	-142.235	-138.141	-135.721	-130.943	-98.549	-134.279	-8191	255	
3714.422	1	1	0	0	0.086515	0.096278	0.097212	0.073024	0.09509	0.26859	0.20838	0.10473	0.22226	0.037143	0.076179	0.073732	0.25323	0.369	0.072761	0.27764	-1.9021	-2.9479	-2.4667	-2.6917	-2.6979	-2.2938	-2.75	-2.7208	-2.45	-2.9354	-2.8625	-2.5229	-2.9417	-2.4896	-2.8208	-2.8937	-10.012	-28.592	-40.267	-125.266	-67.954	2.212	17.278	200.857	-18.972	-3.721	22.869	29.366	-102.359	174.213	94.748	115.700	0.00077295	0.0031002	0.00040906	381.68	1.5099e-05	4.5372e-06	570.92	157.85	2.5087e-05	1.9395e-05	260.8	139.54	83.939	43.956	5.8913e-06	71.652	0.0039468	0.0038961	0.0012582	915.65	4.3679e-05	4.3168e-05	1108	317.74	4.3233e-05	4.3322e-05	573.25	220.79	176.56	69.688	4.9454e-05	107.34	-60.143	126.223	188.373	-142.743	13.947	132.232	-145.749	-138.332	56.919	-125.400	-142.051	-138.122	-135.527	-131.080	41.821	-134.533	-8191	255	
3714.542	1	1	0	0	0.32073	0.10035	0.10428	0.18078	0.074251	0.22191	0.061839	0.18408	0.1683	0.20337	0.20157	0.1558	0.16301	0.24	0.10939	0.21025	-2.0042	-2.7	-2.5333	-2.4792	-2.8271	-2.3354	-2.4917	-2.7354	-2.4979	-2.7687	-2.7438	-2.5354	-2.9021	-2.4333	-2.6937	-2.7708	-154.292	29.387	-27.499	119.524	58.351	-109.945	125.374	48.903	62.231	-128.157	-149.728	108.984	-144.753	201.845	-146.752	59.533	0.00054201	0.0025868	0.0001869	380.56	2.1412e-05	1.9422e-05	566.51	156.73	2.2627e-05	3.8892e-05	260.29	137.6	83.539	43.446	1.0211e-05	71.184	0.0037789	0.0039818	0.001251	876.49	4.1431e-05	4.3929e-05	1088.2	302.81	4.0594e-05	4.38e-05	557.21	212.53	169.35	69.549	4.6285e-05	103.62	-58.916	128.673	103.174	-143.325	46.088	197.039	-145.236	-138.433	70.766	-128.849	-141.228	-137.976	-135.837	-131.095	35.839	-134.341	-8191	255	
3714.614	1	1	0	0	0.31726	0.12299	0.13787	0.084684	0.14224	0.17348	0.21159	0.077385	0.078752	0.090762	0.12737	0.27114	0.12908	0.065609	0.15688	0.16663	-1.9417	-2.725	-2.625	-2.4292	-2.8583	-2.575	-2.8292	-2.8583	-2.3042	-2.8812	-2.8083	-2.5521	-2.9042	-2.6875	-2.5687	-3.0292	-154.423	28.876	24.372	178.265	-41.846	0.725	137.436	168.348	198.446	-37.941	-74.483	177.675	-30.068	181.731	110.186	139.703	0.00059363	0.0021027	0.00045208	379.67	1.0227e-05	4.2513e-05	567.95	155.04	5.2839e-06	2.722e-05	260.51	136.91	82.423	43.416	2.4623e-05	71.394	0.003524	0.0040128	0.0011551	837.74	3.9061e-05	4.4559e-05	1048.4	293.83	3.8832e-05	4.467e-05	532.52	206.92	165.59	69.959	4.3073e-05	101.8	-98.890	126.266	51.989	-143.470	-131.048	196.958	-145.319	-138.514	121.048	-154.576	-141.242	-137.931	-135.945	-130.759	17.914	-134.349	-8191	255	
3714.710	1	1	0	0	0.02604	0.054611	0.21851	0.097505	0.19161	0.19429	0.2863	0.11777	0.18367	0.090275	0.1434	0.4419	0.17207	0.068171	0.17344	0.23004	-2.0438	-2.7438	-2.6937	-2.3333	-2.9938	-2.5833	-2.6562	-2.9604	-2.3583	-2.6583	-2.6417	-2.4875	-2.7354	-2.8563	-2.5583	-2.8667	80.524	155.256	136.736	196.154	158.504	-135.919	77.640	84.189	-106.782	-93.462	-9.093	186.067	-153.822	86.064	193.191	-89.985	0.0011041	0.0013245	0.00058315	376.9	2.1392e-05	9.851e-06	563.51	154.88	2.2966e-05	1.4101e-05	258.06	136.74	82.291	43.627	2.4335e-05	70.873	0.0034694	0.0040805	0.0010809	814.41	3.8995e-05	4.5209e-05	1014.4	287.03	3.9411e-05	4.5077e-05	515.01	204.07	168.53	70.271	4.0934e-05	100.46	-89.037	144.279	3.204	-143.546	-154.399	182.639	-145.017	-138.559	-80.308	-43.523	-141.127	-137.999	-135.996	-130.583	39.722	-134.311	-8191	255	
3714.806	1	1	0	0	0.23424	0.1352	0.076297	0.11725	0.075831	0.22341	0.19672	0.34412	0.024739	0.13526	0.32195	0.35389	0.079327	0.38773	0.20733	0.23843	-2.05	-2.5312	-2.7292	-2.2583	-2.7375	-2.6813	-2.6646	-2.7646	-2.375	-2.4958	-2.7646	-2.5104	-2.8583	-2.7479	-2.3146	-2.9437	101.039	-7.731	-126.373	-127.215	191.671	81.496	39.591	188.273	-90.668	-100.417	-85.372	173.161	-1.352	139.048	-90.796	148.494	0.0011098	0.00052832	0.00067656	375.18	3.1411e-05	2.5616e-05	562.83	154.09	4.4923e-05	1.1163e-05	257.31	135.85	81.695	43.581	1.5266e-05	70.453	0.003638	0.0041014	0.0010326	803.1	4.0929e-05	4.4637e-05	993.58	282.59	4.1333e-05	4.3892e-05	501.59	200.78	172.37	68.802	3.8854e-05	98.871	-101.110	-20.264	-0.187	-143.511	-128.806	6.311	-145.046	-138.781	-110.739	13.835	-141.583	-138.205	-135.787	-130.382	-13.079	-134.687	-8191	255	
3714.902	1	1	0	0	0.3813	0.13507	0.2137	0.092368	0.078834	0.28914	0.11859	0.13507	0.06097	0.069635	0.28245	0.11063	0.16152	0.069833	0.13534	0.1214	-2.0167	-2.4125	-2.6521	-2.4188	-2.6562	-2.4771	-2.3083	-2.8563	-2.4792	-2.4354	-2.8896	-2.5375	-2.6854	-2.8958	-2.4042	-2.675	178.604	-136.023	-118.672	166.280	-110.033	4.304	81.163	140.551	-29.626	66.964	84.472	175.516	-139.498	61.428	139.428	107.966	0.0011673	0.0016059	0.00042382	373.3	2.6562e-05	2.6698e-05	558.36	154.52	2.9347e-05	2.6026e-05	255.58	135.2	81.924	43.304	1.0878e-06	70.383	0.0037359	0.0038296	0.00097089	783.22	4.1678e-05	4.1389e-05	965.61	277.82	4.196e-05	4.0689e-05	486.7	198.85	173.24	66.894	3.7273e-05	99.04	-122.298	-86.135	17.815	-143.723	-153.306	-12.139	-145.266	-139.138	-108.722	40.629	-141.445	-138.246	-135.404	-130.546	-146.044	-134.799	-8191	255	
3715.023	1	1	0	0	0.076838	0.22329	0.22398	0.15351	0.057686	0.24929	0.14365	0.27992	0.12376	0.09706	0.16227	0.11048	0.092825	0.088096	0.09918	0.20141	-2.15	-2.4271	-2.7562	-2.3146	-2.5896	-2.7271	-2.3042	-2.8396	-2.35	-2.4042	-2.7687	-2.575	-2.6604	-2.8375	-2.2917	-2.7375	114.790	191.922	-87.053	-131.478	16.390	141.059	-87.464	-121.391	87.111	-73.804	176.481	194.450	-97.262	-134.158	121.214	168.320	0.00086289	0.0031578	0.00034954	373	1.2322e-05	2.6516e-05	558.42	153.85	2.1795e-05	2.4991e-05	254.85	135.47	82.713	43.359	1.4055e-05	71.086	0.0038082	0.0036174	0.00093561	792.76	4.2392e-05	3.9185e-05	951.11	281.55	4.2211e-05	3.8648e-05	479.26	202.14	173.14	65.643	3.6094e-05	100.82	-109.805	-66.449	-34.514	-143.888	-153.885	13.109	-144.836	-138.973	64.023	24.599	-141.321	-138.474	-135.216	-130.429	-7.157	-134.811	-8191	255	
3715.119	1	1	0	0	0.29856	0.058645	0.12726	0.12861	0.13495	0.22308	0.25027	0.048367	0.27183	0.27876	0.2368	0.25464	0.15172	0.11488	0.089083	0.32506	-2.1896	-2.3125	-2.775	-2.5458	-2.5208	-2.7667	-2.2458	-2.5479	-2.5979	-2.4313	-2.7625	-2.3312	-2.6271	-2.9667	-2.3875	-2.8625	-78.928	-73.834	114.187	-35.375	100.273	-37.603	169.081	161.376	-62.709	26.432	-142.789	101.416	-50.516	153.048	-134.908	172.439	0.00047444	0.0012058	0.00011939	372.1	1.1811e-05	1.1719e-05	559.19	153.96	1.8528e-05	9.3414e-06	253.12	135.5	83.052	43.42	9.6013e-06	70.922	0.0037464	0.0034633	0.00091409	817.03	4.1609e-05	3.79e-05	944.78	290.85	4.1245e-05	3.7678e-05	477.73	207.5	170.65	65.253	3.5997e-05	102.89	-79.424	200.909	20.505	-144.471	49.713	-8.406	-145.305	-139.448	45.994	60.788	-141.739	-138.303	-135.185	-130.341	-102.569	-134.549	-8191	255	
3715.215	1	1	0	0	0.025432	0.08646	0.19338	0.19954	0.098161	0.051708	0.12565	0.096194	0.22409	0.16316	0.084804	0.22975	0.23802	0.092062	0.25125	0.10419	-2.3937	-2.2979	-2.7646	-2.5542	-2.4292	-2.5396	-2.5062	-2.7146	-2.5771	-2.3021	-2.8104	-2.6063	-2.4667	-2.8375	-2.3646	-2.8	84.265	-98.196	112.438	140.183	20.255	162.515	-55.602	-16.305	-13.754	35.242	-78.748	139.810	-146.049	145.693	104.601	130.835	0.00050399	0.0020633	9.5607e-05	374.9	1.7497e-05	2.0727e-05	561.46	154.92	2.6952e-05	2.3054e-05	255.49	135.88	83.495	43.628	2.8201e-05	70.893	0.0036408	0.0034214	0.00092163	844.8	4.022e-05	3.7454e-05	957.11	299.62	4.0239e-05	3.7418e-05	487.62	211.68	167.85	64.993	3.7676e-05	104.06	-31.405	-79.218	156.964	-144.637	43.398	8.533	-145.407	-139.182	81.110	24.150	-142.083	-138.298	-135.340	-130.459	-131.335	-134.763	-8191	255	
3715.310	1	1	0	0	0.16867	0.23722	0.14427	0.0574	0.14199	0.06296	0.14377	0.29751	0.33308	0.284	0.17539	0.16869	0.30662	0.26033	0.16248	0.088369	-2.2833	-2.3125	-2.625	-2.4833	-2.3542	-2.775	-2.6771	-2.5062	-2.7625	-2.2917	-2.7896	-2.5625	-2.4292	-2.9375	-2.3229	-2.525	-154.811	-96.322	115.424	165.905	100.913	107.452	173.124	36.355	109.872	128.298	182.246	-151.186	147.993	-93.622	11.941	-112.889	0.00043095	0.0022359	0.0011062	373.89	2.4281e-05	6.3092e-06	560.95	155.36	2.1763e-05	1.2843e-05	255.07	135.71	83.213	43.458	2.9303e-05	71.294	0.0034764	0.0033246	0.00095778	847.94	3.8238e-05	3.6273e-05	973.73	298.87	3.8388e-05	3.6335e-05	499.47	210.4	164.02	64.456	3.9748e-05	103.58	-50.729	-73.731	177.103	-143.786	-8.141	24.250	-145.647	-138.678	85.656	90.112	-142.404	-138.128	-135.504	-130.741	-151.935	-134.283	-8191	255	
3715.406	1	1	0	0	0.15743	0.17437	0.32489	0.19034	0.21258	0.13943	0.12257	0.13176	0.21426	0.07963	0.11738	0.35793	0.061364	0.18907	0.015767	0.12911	-2.2667	-2.3208	-2.7729	-2.7438	-2.5479	-2.7875	-2.5292	-2.4938	-2.7958	-2.3208	-2.5521	-2.7313	-2.4875	-2.7708	-2.5229	-2.4396	105.951	28.618	144.799	-154.065	193.212	115.233	87.821	-155.418	-45.216	-65.039	38.795	-122.027	147.697	-153.214	177.977	197.736	0.00051241	0.00058015	0.00054621	379.09	9.0047e-06	8.1113e-06	561.24	155.73	8.8963e-06	1.0305e-05	257.66	136.45	83.167	43.654	1.1933e-05	71.383	0.0033856	0.0032925	0.0010281	844.38	3.7675e-05	3.6115e-05	1006.7	294.93	3.7417e-05	3.6027e-05	514.82	207.9	162.33	64.594	4.186e-05	102.33	-93.370	-112.611	186.278	-143.253	-6.105	-111.595	-145.557	-138.230	75.755	-147.218	-142.274	-137.870	-135.400	-130.758	-151.811	-134.177	-8191	255	
3715.502	1	1	0	0	0.067205	0.27358	0.30892	0.16487	0.062154	0.23784	0.031127	0.2708	0.09776	0.15674	0.066395	0.21739	0.22601	0.15054	0.22377	0.11765	-2.3667	-2.2188	-2.6167	-2.6708	-2.4396	-2.8167	-2.5312	-2.4979	-2.7646	-2.5479	-2.6417	-2.8021	-2.4188	-3.0062	-2.5729	-2.5875	-114.556	189.806	-83.076	79.760	-93.579	-27.620	154.778	-143.914	-105.707	88.791	53.068	110.369	-150.841	123.525	-136.013	-59.001	0.00044974	0.0014513	0.00031513	378.59	1.3754e-05	2.4587e-05	563.48	155.87	1.9086e-05	2.8551e-05	259.02	136.56	82.813	43.506	1.9943e-05	70.866	0.0033183	0.0033435	0.001073	821.96	3.6735e-05	3.6984e-05	1023.1	288.69	3.6498e-05	3.7434e-05	522.16	204.12	160.36	65.639	4.277e-05	100.75	-62.758	143.972	-126.700	-143.150	93.445	201.962	-145.323	-138.423	88.583	-135.322	-141.519	-137.915	-134.929	-130.984	35.680	-134.301	-8191	255	
3715.623	1	1	0	0	0.19184	0.1345	0.064759	0.035393	0.069308	0.048935	0.17186	0.14277	0.23767	0.17428	0.29095	0.21265	0.46749	0.1318	0.19296	0.29231	-2.5563	-2.4625	-2.7875	-2.7021	-2.3146	-2.7833	-2.6875	-2.55	-2.8458	-2.5104	-2.625	-2.8417	-2.4271	-2.7979	-2.7604	-2.4354	-37.018	154.650	-124.774	-42.542	-71.854	-35.091	202.103	180.436	190.961	-37.744	-37.805	168.728	-63.811	202.553	38.922	154.391	0.00058665	0.0040252	0.000242	378.29	1.4156e-05	3.7503e-05	560.56	155.95	5.9366e-06	2.8012e-05	258.48	136.22	82.641	43.435	2.7517e-05	70.747	0.0032572	0.0035487	0.0010901	810.14	3.6591e-05	3.9754e-05	1026	285.92	3.6358e-05	4.0399e-05	522.03	202.75	159.74	67.354	4.189e-05	99.807	-62.909	130.432	158.954	-143.350	8.753	179.240	-145.014	-138.544	31.150	-137.240	-141.287	-138.061	-135.575	-130.910	36.124	-134.514	-8191	255	
3715.719	1	1	0	0	0.38048	0.092268	0.20344	0.28647	0.23013	0.16706	0.14649	0.21232	0.17372	0.18632	0.1492	0.14666	0.26093	0.26155	0.13721	0.24655	-2.3354	-2.4104	-2.5354	-2.7562	-2.4208	-2.7292	-2.65	-2.4292	-2.7562	-2.5729	-2.525	-2.9083	-2.4	-2.6937	-2.6312	-2.3167	-118.800	121.224	0.047	141.351	117.384	-150.744	152.397	-144.297	-56.352	-124.195	198.866	82.100	121.880	158.124	-34.598	127.245	0.00073131	0.0022095	0.00039864	377.77	4.4748e-06	3.6527e-05	566.06	155.4	3.528e-06	5.627e-06	258.82	136.44	83.399	43.512	3.2562e-05	70.898	0.00322	0.0037606	0.0010511	797.33	3.6216e-05	4.1859e-05	1008	282.7	3.6437e-05	4.2365e-05	510.29	201.26	161.3	68.505	4.0151e-05	99.091	-89.097	121.851	-4.318	-143.324	-74.567	185.336	-144.816	-138.676	-90.953	166.114	-141.223	-137.887	-135.686	-130.596	4.865	-134.545	-8191	255	
3715.815	1	1	0	0	0.29382	0.19453	0.38624	0.096041	0.30134	0.12024	0.14777	0.15528	0.15808	0.13674	0.4939	0.035368	0.34046	0.22304	0.23983	0.11117	-2.3458	-2.3417	-2.4333	-2.8312	-2.45	-2.5229	-2.8438	-2.3688	-2.6271	-2.6583	-2.3625	-2.9708	-2.4813	-2.6562	-2.65	-2.3833	-151.201	41.809	35.296	24.000	157.869	189.647	-13.764	136.482	23.120	-57.594	181.581	-13.592	81.384	169.247	-112.171	159.866	0.00082278	0.00020824	0.00053994	375.36	2.3938e-05	6.3593e-06	563.49	155.83	2.6867e-05	7.6231e-06	258.83	135.33	81.776	43.541	6.032e-06	70.815	0.003303	0.0038779	0.0010011	783.78	3.7015e-05	4.2357e-05	980.57	277.19	3.7536e-05	4.2533e-05	495.88	198.8	165.46	68.683	3.8892e-05	98.642	-108.847	127.113	3.434	-142.973	-129.375	41.869	-144.878	-138.252	-99.446	23.751	-141.404	-137.880	-136.039	-130.572	-37.900	-134.371	-8191	255	
3715.911	1	1	0	0	0.096756	0.089967	0.25598	0.18185	0.12549	0.081575	0.1555	0.10927	0.089713	0.11846	0.061806	0.11913	0.1096	0.1741	0.11713	0.29262	-2.3979	-2.6063	-2.4604	-2.7854	-2.4562	-2.5417	-2.8875	-2.2875	-2.6	-2.6375	-2.5938	-2.9708	-2.5833	-2.65	-2.6771	-2.6208	173.270	124.752	115.055	94.057	145.870	85.449	167.468	-24.218	66.008	-71.242	96.312	126.576	-108.176	-68.391	-128.899	143.479	0.0011343	0.0017451	0.00056858	375.58	3.2339e-05	4.9461e-06	564.63	155.17	2.6385e-05	2.4671e-05	258.17	135.87	82.028	43.447	1.1843e-05	70.765	0.0035523	0.0039217	0.00098701	785.68	4.0418e-05	4.2731e-05	979.4	277.96	4.0803e-05	4.2224e-05	493.71	198.78	171.23	67.752	3.812e-05	98.393	-107.980	0.197	-19.694	-143.827	-121.096	-48.738	-145.160	-138.692	-118.501	60.698	-141.154	-138.346	-135.710	-130.285	9.460	-134.663	-8191	255	
3716.007	1	1	0	0	0.12327	0.05411	0.1737	0.12003	0.10855	0.20416	0.073791	0.087003	0.15788	0.070161	0.086507	0.24968	0.21281	0.2594	0.21166	0.17103	-2.4396	-2.35	-2.4313	-2.8833	-2.5708	-2.5042	-2.8521	-2.4771	-2.7438	-2.7	-2.5083	-2.7771	-2.6521	-2.5979	-2.7438	-2.4688	-156.296	-112.705	-125.935	27.522	-146.863	3.684	-54.969	-16.141	-89.409	192.432	5.475	144.979	199.402	158.526	-126.200	202.456	0.00087389	0.0027048	0.00036917	378.1	2.198e-05	3.717e-05	561.78	154.28	1.3905e-05	3.6873e-05	257.61	135.22	82.349	43.491	1.0542e-05	70.433	0.0037536	0.0037867	0.0009676	788.32	4.2532e-05	4.1131e-05	968.33	280.52	4.2529e-05	4.0427e-05	486.43	200.34	174.76	66.529	3.7018e-05	99.406	-98.402	-49.291	64.690	-143.865	-123.583	-3.612	-145.007	-138.858	-97.112	18.943	-141.603	-138.445	-135.525	-130.330	-33.669	-134.833	-8191	255	
3716.103	1	1	0	0	0.17579	0.25566	0.2466	0.13398	0.018592	0.2661	0.16296	0.1343	0.3282	0.094916	0.30395	0.012762	0.31113	0.21043	0.19421	0.18275	-2.3146	-2.7146	-2.3583	-2.8646	-2.6333	-2.475	-2.8	-2.4875	-2.8229	-2.6292	-2.4167	-2.8479	-2.7188	-2.4792	-2.7562	-2.5521	-46.269	-124.188	111.255	53.731	-28.021	26.055	150.872	177.489	195.984	-38.516	133.364	-125.208	166.681	-132.464	197.771	118.358	0.00072802	0.0034564	0.00029159	374.03	6.557e-06	1.5913e-05	561.07	154.24	1.7362e-05	1.9301e-05	256.75	134.83	82.909	43.303	4.0724e-06	70.242	0.0038193	0.0035815	0.00093852	803.47	4.2644e-05	3.8891e-05	952.42	285.91	4.2376e-05	3.8461e-05	478.88	203.65	172.96	65.449	3.6155e-05	101.24	-88.117	-77.620	11.210	-144.395	-7.882	-21.807	-145.036	-139.281	94.435	6.420	-141.304	-138.576	-135.040	-130.512	156.261	-134.640	-8191	255	
3716.200	1	1	0	0	0.21664	0.11989	0.16932	0.26129	0.13738	0.39365	0.16857	0.14191	0.17457	0.18565	0.24498	0.035265	0.078264	0.064032	0.14767	0.07974	-2.1333	-2.7938	-2.3229	-2.7542	-2.7208	-2.55	-2.9979	-2.3854	-2.6896	-2.8521	-2.5667	-2.8812	-2.6604	-2.3792	-2.7958	-2.6312	-154.732	22.548	89.212	159.895	92.791	140.034	154.519	-131.949	-141.306	42.387	176.833	-54.133	173.585	31.452	18.773	38.972	0.00043911	0.0013713	0.00016859	373.25	2.6276e-05	1.0552e-05	562.95	155.09	2.4392e-05	1.2569e-05	257.4	135.29	82.924	43.369	1.1503e-05	71.005	0.0037333	0.0034832	0.00092412	831.37	4.1662e-05	3.8188e-05	951.91	295.98	4.1261e-05	3.794e-05	482.25	209.72	171.12	65.428	3.7066e-05	104.35	-52.051	-61.389	-40.777	-144.381	43.811	-39.733	-145.245	-139.011	39.542	-20.451	-141.761	-138.459	-135.054	-130.331	-104.695	-134.721	-8191	255	
3716.318	1	1	0	0	0.079929	0.19624	0.026041	0.027142	0.10544	0.25073	0.16564	0.27346	0.17845	0.15842	0.15016	0.12867	0.26348	0.14782	0.085858	0.17609	-2.0458	-2.7	-2.1813	-2.8312	-2.7021	-2.3521	-2.8792	-2.7625	-2.3979	-2.6958	-2.4646	-2.7958	-2.8146	-2.3875	-2.7687	-2.8042	93.459	-112.047	101.856	178.193	-89.872	-59.623	138.946	74.487	-137.476	170.745	128.344	-90.157	-24.923	156.131	-108.167	192.893	0.00055245	0.0016459	0.00029764	378.74	3.8369e-05	6.3299e-06	563.92	156.6	2.3138e-05	1.3345e-05	258.75	136.69	83.744	43.701	2.3813e-05	71.192	0.0036821	0.003491	0.00096435	869.61	4.1144e-05	3.8417e-05	977.85	305.23	4.0226e-05	3.7648e-05	495.66	213.16	167.8	65.02	3.8686e-05	105.13	-39.996	-93.881	162.405	-144.113	41.660	12.601	-145.772	-138.706	53.669	76.330	-142.093	-138.169	-135.068	-130.860	-147.300	-134.558	-8191	255	
3716.415	1	1	0	0	0.32536	0.20854	0.15376	0.072299	0.14856	0.071591	0.054517	0.16149	0.069817	0.21878	0.24577	0.10161	0.22413	0.12601	0.06565	0.28502	-2.1417	-2.8042	-2.4542	-2.8438	-2.7854	-2.4604	-2.9208	-2.55	-2.3042	-2.7938	-2.6208	-2.75	-2.6729	-2.4208	-2.6771	-2.6479	-115.809	9.251	72.052	41.925	57.895	137.263	-137.895	-118.245	-53.367	96.958	-119.137	-150.564	174.991	-4.599	-75.895	101.650	0.00038441	0.0014095	0.00086147	376.7	1.1432e-05	1.3149e-05	565.85	156.54	1.0189e-05	1.9366e-05	259.14	137.58	83.576	43.577	2.6134e-05	71.244	0.0035212	0.0034079	0.0010128	869.04	3.9475e-05	3.7604e-05	1005.8	305.13	3.9317e-05	3.7533e-05	517.72	213.98	168.07	65.465	4.2426e-05	105.28	-56.250	-93.513	182.775	-143.213	82.665	-3.334	-146.136	-138.439	58.599	60.614	-142.118	-138.057	-135.180	-130.677	181.496	-134.291	-8191	255	
3716.486	1	1	0	0	0.19235	0.21237	0.10912	0.24784	0.20609	0.24745	0.2312	0.27059	0.11541	0.15136	0.2251	0.24938	0.14903	0.30248	0.23204	0.26568	-1.9562	-2.8271	-2.4021	-2.6667	-2.7979	-2.4042	-2.7625	-2.6937	-2.4396	-2.8	-2.5083	-2.5438	-2.7021	-2.4708	-2.5812	-2.85	-18.475	-2.320	-15.527	-118.565	-20.801	15.814	-83.033	33.885	85.385	-122.649	91.003	111.163	128.583	-136.791	130.008	116.438	0.00044629	0.00054416	0.00064392	381.19	1.5385e-05	1.7119e-05	570.28	157.52	1.7383e-05	1.7783e-05	259.35	137.68	83.852	43.508	2.2246e-05	71.364	0.0035468	0.0034678	0.0011054	865.84	3.9558e-05	3.848e-05	1044.3	303.35	3.9506e-05	3.8727e-05	539.43	212.77	168.16	66.343	4.4955e-05	104.21	-74.084	40.952	200.597	-143.165	14.719	199.765	-145.618	-137.880	77.599	187.723	-141.961	-138.007	-135.478	-130.974	184.341	-134.336	-8191	255	
3716.582	1	1	0	0	0.13134	0.01977	0.1852	0.028791	0.12777	0.086043	0.090745	0.2597	0.091177	0.067501	0.18512	0.35307	0.30343	0.03863	0.10868	0.32871	-1.8333	-2.725	-2.425	-2.4833	-2.6979	-2.4188	-2.7271	-2.725	-2.4771	-2.8625	-2.4708	-2.5312	-2.7042	-2.4333	-2.6562	-2.7875	130.379	-80.624	-91.522	135.063	183.643	-58.309	111.027	173.467	-58.981	97.982	-102.997	72.271	176.682	3.111	-51.478	71.280	0.00068349	0.0025507	9.1221e-05	380.96	2.3466e-05	3.0653e-05	568.15	156.18	1.2404e-05	3.3448e-05	260.89	137.26	83.684	43.714	2.1653e-05	71.39	0.0034985	0.0036013	0.0011563	850.36	3.8957e-05	4.0346e-05	1060.4	297.54	3.8684e-05	4.0585e-05	542.52	208.72	165.87	67.679	4.4781e-05	102.67	-78.074	97.035	192.144	-143.111	59.665	202.529	-145.428	-138.267	111.870	-128.703	-141.506	-138.043	-135.214	-130.991	63.040	-134.598	-8191	255	
3716.703	1	1	0	0	0.1434	0.10591	0.072838	0.16514	0.15173	0.19337	0.12336	0.1233	0.10096	0.17445	0.063353	0.1405	0.030601	0.073714	0.15742	0.16923	-1.8292	-2.5167	-2.4833	-2.5104	-2.8875	-2.5292	-2.7375	-2.8396	-2.4062	-2.7417	-2.7083	-2.3958	-2.8208	-2.5938	-2.5417	-2.8	-76.734	-100.069	-102.227	-75.933	88.369	-128.804	43.017	65.591	-80.222	-117.784	150.182	150.801	143.751	-9.347	125.187	105.904	0.00061297	0.0037181	0.00043679	378.18	8.09e-06	4.5008e-05	567.48	156.24	9.4458e-06	3.2461e-05	259.9	137.83	83.817	43.73	1.87e-05	71.51	0.0034097	0.0038001	0.0011392	829.54	3.7971e-05	4.2502e-05	1048.5	293.43	3.8158e-05	4.3258e-05	536.44	207.85	165.72	69.794	4.3962e-05	102.55	-75.282	125.741	-15.801	-143.572	6.192	186.829	-144.847	-138.706	-75.753	201.481	-141.409	-138.091	-135.383	-131.000	64.226	-134.348	-8191	255	
3716.799	1	1	0	0	0.12692	0.026973	0.25868	0.2855	0.054995	0.30182	0.017605	0.14862	0.034982	0.086301	0.16014	0.24397	0.19409	0.29208	0.082906	0.35384	-1.9021	-2.675	-2.5625	-2.4667	-2.7479	-2.6521	-2.5646	-2.875	-2.5375	-2.6021	-2.8167	-2.3729	-2.5667	-2.5646	-2.4083	-3.0792	1.610	66.846	122.269	180.954	183.913	20.666	170.431	202.483	-60.428	-5.574	-40.202	102.730	-139.751	-125.620	-79.600	127.338	0.00079149	0.0017809	0.00081004	379.07	9.0027e-06	2.108e-05	568.31	156.94	2.1232e-05	1.3373e-05	264.27	138.17	84.351	44.116	2.4664e-05	71.758	0.0034669	0.0040973	0.0011247	832.95	3.9569e-05	4.6186e-05	1047	296.08	4.0347e-05	4.6961e-05	538.15	210.64	173.15	72.269	4.3826e-05	103.41	-101.984	119.303	4.016	-143.731	-90.682	166.312	-144.714	-138.317	-82.061	125.140	-141.181	-138.388	-136.006	-130.712	10.745	-134.309	-8191	255	
3716.895	1	1	0	0	0.22556	0.29026	0.0069262	0.069159	0.1616	0.091792	0.12454	0.33201	0.20974	0.15653	0.097591	0.16288	0.057742	0.13369	0.2393	0.24013	-1.9125	-2.5312	-2.6458	-2.4562	-2.625	-2.5458	-2.5187	-2.7292	-2.3292	-2.45	-2.7854	-2.3417	-2.6458	-2.7396	-2.5	-2.8125	112.812	-33.720	-3.168	22.488	183.991	164.119	-88.701	171.376	159.952	45.210	191.191	185.582	84.619	91.134	178.967	148.394	0.0012495	0.00095748	0.00050749	382.22	3.3164e-05	1.3929e-05	567.88	156.53	4.3327e-05	2.2521e-05	261.62	138.67	83.285	44.134	1.3851e-05	71.609	0.0037489	0.004327	0.0011054	835.25	4.2216e-05	4.7512e-05	1032.9	293.98	4.289e-05	4.7181e-05	526.65	208.86	179.02	72.052	4.2691e-05	102.76	-106.162	62.813	-4.921	-143.626	-138.044	-14.835	-145.194	-138.641	-93.407	47.170	-141.254	-138.372	-136.539	-130.478	9.199	-134.475	-8191	255	
3717.016	1	1	0	0	0.29713	0.13642	0.14005	0.27987	0.18529	0.05575	0.19964	0.077255	0.23256	0.12933	0.17817	0.16306	0.26165	0.17215	0.2745	0.25312	-2.0583	-2.5896	-2.725	-2.3063	-2.6771	-2.5396	-2.5667	-2.9042	-2.5104	-2.5604	-2.7479	-2.3667	-2.8125	-2.7979	-2.3729	-2.9833	11.742	-32.959	-114.503	-115.993	-21.573	30.983	34.042	129.429	13.750	-52.742	201.388	-110.154	-4.862	184.501	-107.295	197.995	0.0012014	0.002687	0.00064567	380.85	2.5808e-05	3.3402e-05	570.24	157.82	3.4862e-05	2.7811e-05	262.14	138.13	83.641	44.108	1.4525e-05	71.31	0.004026	0.0043063	0.0010883	834.4	4.5519e-05	4.703e-05	1027.4	295.85	4.6416e-05	4.6602e-05	525.96	210.25	186.14	71.159	4.2093e-05	103.03	-116.946	-48.535	-4.669	-143.704	-131.557	-0.832	-144.960	-138.889	-95.711	44.708	-141.395	-138.521	-136.079	-130.213	49.346	-134.734	-8191	255	
3717.112	1	1	0	0	0.19295	0.31018	0.044405	0.11532	0.10722	0.13324	0.21034	0.14861	0.070687	0.22974	0.20623	0.20525	0.15382	0.113	0.14739	0.11372	-2.0083	-2.4583	-2.7562	-2.375	-2.675	-2.7521	-2.5292	-2.6813	-2.4375	-2.4646	-2.8375	-2.5312	-2.8146	-2.7604	-2.1396	-2.8625	184.856	-130.660	-123.346	51.552	79.615	-28.380	-94.364	94.518	112.084	134.111	175.327	81.826	-104.705	191.228	-49.474	124.157	0.0011624	0.00094869	0.00043213	374.99	8.9173e-06	3.8466e-05	568.18	155.47	1.0659e-05	1.8158e-05	258.79	136.87	83.14	43.901	2.6762e-06	70.807	0.0042295	0.0041349	0.0010701	842.41	4.7619e-05	4.5054e-05	1015.2	297.93	4.7702e-05	4.4226e-05	514.81	210.94	186.31	69.123	4.0681e-05	103.99	-100.672	-42.115	63.408	-144.087	-152.031	4.616	-145.290	-139.209	-134.466	33.548	-141.660	-138.606	-135.430	-130.231	-41.638	-135.006	-8191	255	
3717.184	1	1	0	0	0.30619	0.24925	0.30118	0.17125	0.17658	0.12299	0.097576	0.23359	0.17992	0.15438	0.29077	0.18213	0.15164	0.12419	0.25054	0.11278	-2.0875	-2.4125	-2.7313	-2.3187	-2.5896	-2.7667	-2.325	-2.7313	-2.7083	-2.3771	-2.9562	-2.5833	-2.5104	-2.7854	-2.4396	-2.7292	-57.374	73.267	59.813	4.811	-72.715	161.381	16.841	76.005	128.120	-102.971	196.573	-156.674	-63.191	-7.414	202.079	-123.986	0.00041383	0.00059583	0.00048942	375.85	2.3995e-05	2.3529e-05	563.6	155.99	1.597e-05	7.1051e-06	257.84	136.27	82.94	43.526	3.799e-06	70.942	0.0042189	0.0039135	0.0010309	861.57	4.6954e-05	4.2704e-05	997.91	304.08	4.655e-05	4.2176e-05	502.54	214.43	181.82	67.754	3.9209e-05	105.36	-117.262	-10.553	27.040	-144.238	45.450	-0.758	-145.671	-139.696	78.083	-15.200	-141.433	-138.481	-135.305	-130.604	167.510	-134.722	-8191	255	
3717.303	1	1	0	0	0.24543	0.11297	0.027614	0.10988	0.060777	0.185	0.30209	0.055268	0.22908	0.25871	0.13563	0.18695	0.16212	0.031342	0.1928	0.08954	-2.1875	-2.2271	-2.6375	-2.4667	-2.6104	-2.7438	-2.3729	-2.5833	-2.6604	-2.2917	-2.9479	-2.5167	-2.5438	-2.9562	-2.4021	-2.6854	136.306	172.392	50.812	159.953	135.404	-54.051	116.172	58.306	115.862	-71.531	166.907	149.449	120.809	102.771	50.970	14.724	0.00069685	0.00065864	0.00040853	373.1	2.4729e-05	2.4805e-05	564.58	153.84	2.8425e-05	1.6303e-05	254.82	136.35	83.196	43.55	2.7804e-05	70.919	0.0040161	0.0037443	0.00099839	880.44	4.469e-05	4.1234e-05	990.87	310.55	4.4426e-05	4.091e-05	502.65	217.65	176.3	66.869	3.9659e-05	106.67	-47.368	-54.457	-70.177	-144.607	59.347	13.985	-145.825	-139.029	74.905	44.458	-142.267	-138.220	-134.865	-130.454	-144.361	-134.777	-8191	255	
3717.399	1	1	0	0	0.12219	0.12241	0.070071	0.16901	0.21794	0.29903	0.36624	0.085134	0.068869	0.065408	0.23547	0.32951	0.050535	0.11234	0.12062	0.25586	-2.1979	-2.275	-2.6646	-2.7562	-2.4896	-2.9271	-2.3063	-2.5271	-2.6729	-2.4146	-2.9146	-2.7146	-2.4188	-2.8167	-2.2667	-2.7625	-130.274	73.523	42.438	156.174	134.278	83.650	126.401	125.913	115.437	135.542	137.252	103.095	42.644	187.465	-1.579	178.005	0.00061076	0.0021196	0.00046534	376.46	1.6407e-05	1.9958e-05	563.43	155.9	2.157e-05	1.0188e-05	257.79	137.23	83.151	43.519	2.9005e-05	71.358	0.0038287	0.0036416	0.0010267	896.92	4.2649e-05	4.0121e-05	1006.3	313.82	4.2415e-05	3.9924e-05	517.24	219.66	173.07	66.704	4.2373e-05	107.72	-80.905	-79.991	170.810	-143.829	51.149	-20.117	-146.049	-138.629	80.531	32.361	-142.540	-138.468	-135.381	-130.509	-132.674	-134.617	-8191	255	
3717.495	1	1	0	0	0.051984	0.13021	0.22431	0.036628	0.18441	0.16484	0.036507	0.15364	0.074484	0.16735	0.18303	0.1823	0.19621	0.11745	0.26044	0.2354	-2.2542	-2.2938	-2.7	-2.5042	-2.6	-2.8375	-2.6125	-2.6854	-2.675	-2.4896	-3.0521	-2.7417	-2.3937	-2.9958	-2.4479	-2.6104	-107.642	107.498	199.257	-65.202	19.523	17.851	107.829	158.450	8.701	-80.559	130.015	-125.287	114.744	196.450	189.352	40.133	0.00058093	0.00030254	0.00068066	378.61	1.815e-05	7.8135e-06	570.31	155.82	6.0238e-06	6.7952e-06	258.54	138.68	84.259	43.853	1.665e-05	71.51	0.0037404	0.0036176	0.0011032	900.62	4.2044e-05	4.0004e-05	1049.1	314.53	4.1945e-05	4.019e-05	543.78	220.44	174.38	67.399	4.6181e-05	107.7	-58.244	19.891	164.398	-143.510	94.050	-22.045	-145.912	-138.236	98.363	-1.748	-142.408	-138.048	-135.694	-130.667	-148.290	-134.200	-8191	255	
3717.616	1	1	0	0	0.13622	0.17942	0.12898	0.27261	0.14134	0.19427	0.26981	0.19259	0.2115	0.022734	0.12511	0.20159	0.32806	0.17419	0.21771	0.20297	-2.1333	-2.2875	-2.75	-2.5187	-2.5563	-2.7333	-2.525	-2.5812	-2.8708	-2.4104	-2.8187	-2.9521	-2.4562	-2.9208	-2.7229	-2.7208	-79.072	171.726	105.622	147.385	40.068	-17.864	190.775	153.649	-15.471	-124.155	-37.732	193.037	201.945	83.906	74.369	166.755	0.00048849	0.0015402	0.00074919	378.14	1.8048e-05	8.9734e-06	568.22	155.14	1.8015e-05	1.2621e-05	258.72	138.2	84.295	43.753	1.8554e-05	71.343	0.0037527	0.0037023	0.0011886	888.26	4.154e-05	4.0809e-05	1078.8	309.13	4.1447e-05	4.1368e-05	557.58	216.84	172.14	68.216	4.7816e-05	105.74	-66.146	98.016	177.048	-143.240	-12.321	113.759	-145.868	-137.859	38.613	-126.564	-141.852	-137.834	-135.286	-130.789	-146.366	-134.363	-8191	255	
3717.712	1	1	0	0	0.11242	0.18884	0.18682	0.16757	0.13337	0.2249	0.35069	0.12226	0.11428	0.22849	0.23411	0.33441	0.26617	0.24194	0.22905	0.10404	-2.4813	-2.3208	-2.65	-2.6125	-2.3771	-2.7667	-2.7417	-2.3917	-2.8667	-2.5333	-2.575	-3.0167	-2.4292	-2.8042	-2.6667	-2.5708	-0.724	80.209	-151.008	125.757	44.569	148.783	127.630	137.349	-108.062	97.427	179.866	201.862	184.831	-88.386	-114.306	98.346	0.0005537	0.0013289	0.00042144	378.11	1.845e-06	2.7788e-05	566.43	155.6	4.2384e-06	2.5576e-05	260.35	138.35	83.552	43.677	2.2938e-05	71.762	0.0036864	0.0038671	0.0012256	870.44	4.1143e-05	4.3294e-05	1090.8	304.08	4.0955e-05	4.3983e-05	560.42	214.86	171	70.269	4.8085e-05	105.59	-57.510	90.145	43.164	-143.841	71.083	183.056	-144.939	-138.494	-81.932	193.010	-141.221	-138.229	-135.428	-131.233	22.410	-134.271	-8191	255	
3717.783	1	1	0	0	0.32143	0.017234	0.1996	0.31897	0.06239	0.063621	0.21617	0.1069	0.14547	0.24133	0.20559	0.4316	0.25218	0.13415	0.12937	0.13633	-2.3792	-2.3292	-2.4229	-2.7729	-2.325	-2.725	-2.6583	-2.5375	-2.7458	-2.5438	-2.5604	-2.7146	-2.325	-2.6917	-2.65	-2.5	114.590	199.421	-27.081	100.112	104.205	41.253	150.066	157.283	124.048	-127.582	163.961	132.717	-54.312	196.362	127.188	-135.464	0.00077276	0.0026492	0.00070838	379.14	5.2422e-06	3.0406e-05	573.68	155.94	2.4124e-06	2.8553e-05	261.45	139.3	84.369	43.667	2.7726e-05	71.672	0.0036879	0.0042173	0.0012293	872.61	4.1646e-05	4.7596e-05	1098.5	306.65	4.1966e-05	4.8254e-05	560.56	215.99	173.95	72.542	4.706e-05	105.35	-81.787	119.843	6.390	-143.242	169.121	182.869	-144.789	-138.750	-116.033	-99.889	-140.771	-138.315	-135.550	-131.122	23.866	-134.213	-8191	255	
3717.880	1	1	0	0	0.19446	0.04601	0.16141	0.051347	0.10271	0.22528	0.13328	0.03643	0.10556	0.13807	0.29567	0.053744	0.12048	0.041359	0.4364	0.19636	-2.4521	-2.3667	-2.6458	-2.9021	-2.2875	-2.7833	-2.8208	-2.3833	-2.8271	-2.45	-2.6708	-2.9125	-2.4333	-2.7917	-2.7375	-2.6021	-83.882	52.060	-94.755	-152.507	-141.662	33.923	158.459	-147.678	-65.786	44.315	193.149	182.359	-78.720	81.064	-32.468	187.179	0.00099044	0.0027641	0.0011881	378.46	2.8632e-05	1.0594e-05	570.43	157.4	2.0612e-05	1.8609e-05	262.44	139.5	83.585	44.109	1.8148e-05	72.098	0.0037603	0.0044488	0.0011832	860.55	4.2447e-05	4.9378e-05	1069.9	301.88	4.3124e-05	4.9742e-05	547.68	214.75	178.85	73.63	4.5602e-05	105.09	-96.025	151.807	4.024	-143.578	-141.250	186.829	-145.071	-138.654	-95.569	173.225	-141.144	-138.160	-136.670	-130.957	17.103	-134.473	-8191	255	
3718.000	1	1	0	0	0.12974	0.089725	0.21357	0.060809	0.081241	0.18862	0.241	0.23026	0.16921	0.11744	0.21109	0.28195	0.086953	0.40315	0.25423	0.11419	-2.4542	-2.5938	-2.3125	-2.8729	-2.5375	-2.6229	-2.8021	-2.2479	-2.7417	-2.6729	-2.3771	-2.8771	-2.5375	-2.6167	-2.5479	-2.4021	-144.710	168.173	85.744	7.454	-7.268	203.312	113.609	-118.343	-51.813	-103.982	-86.339	121.948	73.426	142.610	-145.983	-120.737	0.00096073	0.0020274	0.00037091	377.93	4.0222e-05	2.9325e-05	570.84	156.54	2.2166e-05	2.4363e-05	263.11	139.87	83.753	44.223	1.0429e-05	71.985	0.0039899	0.0045563	0.0011481	853.3	4.5226e-05	4.9429e-05	1050.3	298.88	4.5644e-05	4.9054e-05	536.73	212.84	184.67	72.711	4.411e-05	104.32	-113.647	-102.364	14.944	-143.268	-127.915	-21.525	-144.939	-138.548	-103.445	74.563	-141.854	-138.144	-136.403	-130.742	22.912	-134.587	-8191	255	
3718.096	1	1	0	0	0.26309	0.16376	0.11396	0.2543	0.11243	0.18947	0.21604	0.12543	0.19563	0.15579	0.36151	0.12119	0.077319	0.063908	0.15469	0.34494	-2.3208	-2.6021	-2.4208	-2.8042	-2.4479	-2.6	-2.6896	-2.4104	-2.8375	-2.5729	-2.475	-2.9146	-2.4958	-2.7354	-2.9667	-2.5812	90.619	-98.612	-10.433	138.492	181.291	140.344	79.449	-117.357	-67.467	121.472	199.925	168.840	144.984	-118.309	176.128	170.225	0.0010381	0.0033803	0.00010583	378.85	2.6884e-05	2.798e-05	570.41	157.83	2.1517e-05	4.0038e-05	262.71	139.64	84.817	44.154	1.1121e-05	72.61	0.0042187	0.0044196	0.0011213	850.35	4.8217e-05	4.7986e-05	1044.5	300.7	4.8394e-05	4.7515e-05	533.67	214.31	190.97	71.539	4.3185e-05	105.56	-94.772	-83.803	22.684	-143.729	201.817	-17.298	-144.874	-139.202	-120.358	41.630	-141.451	-138.284	-136.293	-130.320	34.843	-134.613	-8191	255	
3718.191	1	1	0	0	0.18976	0.11908	0.1407	0.2336	0.16245	0.13689	0.24996	0.096093	0.15364	0.24172	0.22998	0.18279	0.076906	0.26731	0.21028	0.17159	-2.2708	-2.7188	-2.3833	-2.7417	-2.5625	-2.5896	-2.825	-2.4875	-2.6583	-2.7188	-2.3667	-2.6979	-2.7313	-2.3937	-2.7062	-2.4833	5.017	-52.201	43.615	-101.582	166.169	-47.395	119.843	196.873	-30.177	156.303	110.043	18.464	-142.721	-5.838	21.627	4.392	0.00076443	0.0031387	0.00025442	379.98	9.1642e-06	3.3685e-05	571.04	157.03	1.3032e-05	2.379e-05	263.65	139.4	85.539	44.258	1.7259e-05	72.419	0.0043885	0.0042117	0.0010877	863.42	4.9087e-05	4.5377e-05	1025.2	305.04	4.876e-05	4.4728e-05	522.86	217.68	191.09	70.225	4.2014e-05	107.7	-108.199	-58.832	15.702	-143.754	-111.464	15.167	-145.008	-139.408	178.213	-3.423	-141.453	-138.771	-135.510	-130.407	27.777	-134.923	-8191	255	
3718.287	1	1	0	0	0.088428	0.020725	0.18662	0.15394	0.18457	0.06721	0.12333	0.17572	0.21043	0.093364	0.19877	0.209	0.22615	0.23634	0.26753	0.079972	-2.0458	-2.7833	-2.3271	-2.7104	-2.4708	-2.4167	-2.85	-2.4938	-2.6479	-2.6229	-2.4083	-2.8958	-2.6729	-2.3542	-2.875	-2.4562	-34.345	118.697	-81.487	-146.718	62.397	-33.445	69.712	141.297	200.885	-110.726	156.720	189.628	-128.453	92.412	-95.944	-152.785	0.00023204	0.0010219	0.00019516	374.31	1.3348e-05	1.5187e-05	570.9	157.37	2.9606e-05	1.6835e-05	262.8	140.08	85.616	44.232	1.006e-05	72.773	0.0043639	0.0040616	0.0010622	894.01	4.8507e-05	4.377e-05	1019.9	315.63	4.7792e-05	4.3777e-05	518.74	223.61	187.9	69.463	4.1523e-05	110.19	-74.758	-49.682	53.692	-144.369	-3.882	61.415	-145.051	-139.415	84.408	48.093	-141.848	-138.553	-135.118	-130.574	-30.294	-134.945	-8191	255	
3718.385	1	1	0	0	0.22968	0.16481	0.11355	0.097655	0.1548	0.15158	0.28745	0.050185	0.19855	0.058453	0.14669	0.5263	0.38196	0.26141	0.19104	0.14346	-2.05	-2.5979	-2.5208	-2.6604	-2.6333	-2.3708	-2.7958	-2.6146	-2.5542	-2.7771	-2.4062	-2.7396	-2.6146	-2.4146	-2.8396	-2.625	-19.092	-154.619	64.254	100.969	-33.528	-18.662	96.241	18.973	69.910	170.678	11.734	171.560	-121.468	-150.116	157.199	-149.577	0.00040324	0.00063349	0.00079269	380.79	4.0475e-05	1.0018e-05	576.98	159.32	2.7036e-05	1.3837e-05	262.44	140.26	85.192	44.019	2.1907e-05	72.795	0.0041838	0.0039536	0.0010609	922.02	4.6514e-05	4.2771e-05	1022.7	322.71	4.5374e-05	4.2212e-05	522.31	225.63	181.35	68.26	4.2214e-05	110.48	-33.495	-66.644	-153.607	-144.457	43.139	-8.717	-145.698	-139.281	88.495	45.885	-142.604	-138.113	-135.654	-130.614	-131.463	-134.531	-8191	255	
3718.479	1	1	0	0	0.37407	0.41017	0.17229	0.0073136	0.1109	0.17969	0.37709	0.36528	0.14757	0.16503	0.12955	0.20653	0.19899	0.13094	0.026211	0.2444	-2.0292	-2.7271	-2.3479	-2.7021	-2.6979	-2.2354	-2.7438	-2.4813	-2.475	-2.7792	-2.4271	-2.7042	-2.6688	-2.3979	-2.8479	-2.6771	-59.185	126.833	-88.345	-41.948	76.290	7.943	66.169	171.716	131.401	-106.370	-93.856	-137.285	91.664	-78.707	168.260	108.271	0.00039502	0.0011146	0.00083744	383.25	2.405e-05	2.6561e-05	570.8	158.63	2.537e-05	7.735e-06	261.54	139.72	84.861	43.846	3.0071e-05	72.237	0.0039347	0.0037869	0.0010864	921.99	4.3652e-05	4.1115e-05	1040.1	321.32	4.3172e-05	4.0945e-05	536.46	224.26	176.68	67.57	4.4476e-05	109.57	-38.190	-37.649	173.359	-143.518	36.857	51.902	-146.052	-138.612	87.716	23.747	-142.594	-138.081	-135.857	-130.641	192.061	-134.230	-8191	255	
3718.575	1	1	0	0	0.092274	0.064062	0.013825	0.31605	0.2412	0.19371	0.17961	0.35352	0.18907	0.23974	0.30853	0.27218	0.291	0.10778	0.14458	0.15026	-1.9958	-2.8083	-2.2854	-2.7667	-2.7333	-2.2396	-2.9167	-2.7708	-2.4271	-2.9896	-2.4062	-2.7104	-2.85	-2.3187	-2.7083	-2.7854	-116.728	203.117	85.427	98.808	163.283	-29.485	177.200	139.744	191.629	-125.254	150.786	-123.392	104.974	53.314	34.559	90.882	0.00051874	0.0007786	0.00085099	382.51	7.0241e-06	1.0747e-05	575.75	157.59	5.8953e-06	2.0838e-05	262.13	139.44	84.105	43.703	3.5535e-05	72.091	0.0037985	0.003705	0.0011549	907	4.2272e-05	4.0533e-05	1068.6	315.35	4.1874e-05	4.0434e-05	551.89	219.93	173.18	67.181	4.6071e-05	106.92	-73.898	-75.738	194.102	-142.983	-2.107	124.336	-145.748	-138.613	46.324	-92.700	-142.155	-137.640	-135.433	-130.682	-124.056	-134.407	-8191	255	
3718.696	1	1	0	0	0.20992	0.15153	0.26615	0.075433	0.1742	0.15321	0.17313	0.18767	0.094491	0.11214	0.32674	0.12055	0.18582	0.24052	0.011515	0.29515	-2.1542	-2.7687	-2.6583	-2.6208	-2.7271	-2.4229	-2.7958	-2.6521	-2.4667	-2.8104	-2.6479	-2.4792	-2.7604	-2.5938	-2.5854	-2.7021	-108.087	164.418	-51.191	-49.341	11.333	182.475	-146.135	189.600	-21.604	79.460	153.179	92.685	201.915	123.323	-30.345	105.830	0.00051646	0.0013951	0.00051809	386.81	1.1688e-05	3.1722e-05	577.15	156.85	2.0307e-05	2.5251e-05	261.15	138.83	84.206	43.415	3.7616e-06	71.415	0.0036412	0.0036658	0.0011815	874.41	4.0765e-05	4.0741e-05	1080.6	305.41	4.0428e-05	4.1159e-05	555.45	213.52	169.14	67.738	4.6518e-05	104.37	-42.892	148.005	175.273	-143.134	73.293	203.367	-145.627	-138.458	66.448	-103.112	-142.163	-138.059	-135.377	-131.154	125.347	-134.426	-8191	255	
3718.792	1	1	0	0	0.16123	0.18255	0.12068	0.10265	0.28314	0.078213	0.20174	0.12995	0.091461	0.069054	0.25251	0.33316	0.12253	0.090994	0.30275	0.070341	-1.925	-2.7979	-2.6333	-2.475	-2.7812	-2.5312	-2.6917	-2.8604	-2.4104	-2.7313	-2.7917	-2.5062	-2.8563	-2.3688	-2.4375	-2.8896	37.986	-141.721	50.718	51.881	-36.948	-30.965	107.590	115.940	-155.295	71.957	190.465	169.560	-36.848	188.457	175.163	96.295	0.00070946	0.0026852	0.0004636	381.8	1.3387e-05	3.8937e-05	571.91	155.91	8.1991e-06	3.2971e-05	262.04	138.91	84.261	43.417	3.2086e-05	71.601	0.0035159	0.003827	0.0011807	846.2	3.9248e-05	4.26e-05	1069.1	296.96	3.9067e-05	4.3429e-05	550.26	211.65	168.66	70.081	4.656e-05	104.36	-77.418	103.330	27.201	-143.431	24.316	182.270	-145.047	-138.551	95.090	-135.570	-141.379	-137.886	-135.701	-131.127	19.045	-134.308	-8191	255	
3718.888	1	1	0	0	0.022037	0.21561	0.42456	0.099682	0.2668	0.28752	0.13699	0.096953	0.13359	0.080415	0.13964	0.22104	0.28531	0.21416	0.22988	0.28419	-1.6958	-2.7354	-2.5271	-2.1792	-3	-2.2687	-2.3333	-2.7042	-2.3354	-2.7021	-2.4813	-2.6604	-2.8083	-2.6437	-2.7938	-2.8625	1.735	200.069	-66.803	191.601	63.063	-120.461	137.810	189.376	-80.001	-92.904	107.042	197.705	78.800	-143.666	55.709	191.984	0.00065087	0.0029285	0.00050612	382.62	1.6044e-05	3.2453e-05	572.01	157.38	1.3422e-05	3.105e-05	264.48	139.25	83.778	43.643	2.9407e-05	71.901	0.0035953	0.0041959	0.001188	855.97	4.0587e-05	4.6857e-05	1071.4	299.78	4.0722e-05	4.7325e-05	548.88	213.23	172.95	72.409	4.5515e-05	105.13	-96.589	120.344	20.394	-143.277	-44.524	188.704	-145.208	-138.857	-91.936	-146.554	-141.445	-137.890	-136.238	-130.817	17.097	-134.489	-8191	255	
3718.984	1	1	0	0	0.20931	0.19729	0.16246	0.15339	0.12764	0.067325	0.13701	0.23489	0.16197	0.17576	0.18062	0.25672	0.12293	0.29208	0.09006	0.13794	-1.7917	-2.6729	-2.4771	-2.4292	-2.7062	-2.6083	-2.4521	-2.8812	-2.4479	-2.7062	-2.6917	-2.4375	-2.7208	-2.5958	-2.6021	-2.9771	-18.928	-122.928	159.242	192.532	-106.712	111.535	-126.600	48.264	197.273	186.158	199.295	142.896	-19.703	94.783	-89.171	-102.176	0.0012425	0.0013861	0.0010109	382.06	2.527e-05	7.009e-06	576.38	158.26	3.4442e-05	2.0202e-06	264.74	140.04	84.389	44.253	1.4386e-05	71.87	0.0037804	0.0044648	0.001168	861.09	4.3424e-05	5.012e-05	1074.3	304.15	4.4583e-05	5.0615e-05	552.12	216.48	183.5	74.228	4.6007e-05	106.1	-108.993	129.356	0.766	-143.455	-146.867	-74.564	-145.089	-138.879	-87.944	-26.160	-142.048	-138.470	-136.459	-130.824	30.614	-134.580	-8191	255	
#DATA ENDS
