BOXY.EXE: ISS Imagent and Oximeter Data Acquisition Program Version 0.80
Ascii Record File

#ACQ INFORMATION
2  Detector Channels 
16  External MUX Channels 
1  Auxiliary Channels 
5000  Waveform (CCF) Frequency (Hz)
1  Waveforms Skipped 
30  Waveforms Averaged 
1  Cycles Averaged 
16  Acquisitions per Waveform 
10.0806  Updata Rate (Hz) 

#FILE INFORMATION
TRUE -- External MUX Channel results are PARSED.
FALSE -- AC DC and Phase are NOT grouped.
TRUE -- Companion Program Settings File CREATED.
FALSE -- AC data not excluded
FALSE -- DC data not excluded
FALSE -- Phase data not excluded
FALSE -- Auxillary Chn. data not excluded
Tab delimiters

#CALIBRATION STATE
TRUE -- Waveform Calibration Values APPLIED.


#AUX CALIBRATION VALUES
Val Type	aux-1	

Term	1.0000e+00	
Factor	0.0000e+00	


#WF CALIBRATION VALUES
A = Detector Channel
Val Type	A-AC1	A-AC2	A-AC3	A-AC4	A-AC5	A-AC6	A-AC7	A-AC8	A-AC9	A-AC10	A-AC11	A-AC12	A-AC13	A-AC14	A-AC15	A-AC16	A-DC1	A-DC2	A-DC3	A-DC4	A-DC5	A-DC6	A-DC7	A-DC8	A-DC9	A-DC10	A-DC11	A-DC12	A-DC13	A-DC14	A-DC15	A-DC16	A-Ph1	A-Ph2	A-Ph3	A-Ph4	A-Ph5	A-Ph6	A-Ph7	A-Ph8	A-Ph9	A-Ph10	A-Ph11	A-Ph12	A-Ph13	A-Ph14	A-Ph15	A-Ph16	

Term	0.00000e+00	0.00000e+00	0.00000e+00	0.00000e+00	0.00000e+00	0.00000e+00	0.00000e+00	0.00000e+00	0.00000e+00	0.00000e+00	0.00000e+00	0.00000e+00	0.00000e+00	0.00000e+00	0.00000e+00	0.00000e+00	0.00000e+00	0.00000e+00	0.00000e+00	0.00000e+00	0.00000e+00	0.00000e+00	0.00000e+00	0.00000e+00	0.00000e+00	0.00000e+00	0.00000e+00	0.00000e+00	0.00000e+00	0.00000e+00	0.00000e+00	0.00000e+00	0.00000e+00	0.00000e+00	0.00000e+00	0.00000e+00	0.00000e+00	0.00000e+00	0.00000e+00	0.00000e+00	0.00000e+00	0.00000e+00	0.00000e+00	0.00000e+00	0.00000e+00	0.00000e+00	0.00000e+00	0.00000e+00	
Factor	1.00000e+00	1.00000e+00	1.00000e+00	1.00000e+00	1.00000e+00	1.00000e+00	1.00000e+00	1.00000e+00	1.00000e+00	1.00000e+00	1.00000e+00	1.00000e+00	1.00000e+00	1.00000e+00	1.00000e+00	1.00000e+00	1.00000e+00	1.00000e+00	1.00000e+00	1.00000e+00	1.00000e+00	1.00000e+00	1.00000e+00	1.00000e+00	1.00000e+00	1.00000e+00	1.00000e+00	1.00000e+00	1.00000e+00	1.00000e+00	1.00000e+00	1.00000e+00	X	X	X	X	X	X	X	X	X	X	X	X	X	X	X	X	

B = Detector Channel
Val Type	B-AC1	B-AC2	B-AC3	B-AC4	B-AC5	B-AC6	B-AC7	B-AC8	B-AC9	B-AC10	B-AC11	B-AC12	B-AC13	B-AC14	B-AC15	B-AC16	B-DC1	B-DC2	B-DC3	B-DC4	B-DC5	B-DC6	B-DC7	B-DC8	B-DC9	B-DC10	B-DC11	B-DC12	B-DC13	B-DC14	B-DC15	B-DC16	B-Ph1	B-Ph2	B-Ph3	B-Ph4	B-Ph5	B-Ph6	B-Ph7	B-Ph8	B-Ph9	B-Ph10	B-Ph11	B-Ph12	B-Ph13	B-Ph14	B-Ph15	B-Ph16	

Term	0.00000e+00	0.00000e+00	0.00000e+00	0.00000e+00	0.00000e+00	0.00000e+00	0.00000e+00	0.00000e+00	0.00000e+00	0.00000e+00	0.00000e+00	0.00000e+00	0.00000e+00	0.00000e+00	0.00000e+00	0.00000e+00	0.00000e+00	0.00000e+00	0.00000e+00	0.00000e+00	0.00000e+00	0.00000e+00	0.00000e+00	0.00000e+00	0.00000e+00	0.00000e+00	0.00000e+00	0.00000e+00	0.00000e+00	0.00000e+00	0.00000e+00	0.00000e+00	-2.01985e+02	-1.29378e+02	-1.28570e+02	-1.80487e+02	-8.05482e+01	-6.35979e+01	-1.57016e+02	-1.62015e+02	-9.10596e+01	-6.42508e+01	-1.71443e+02	-1.71615e+02	-1.83224e+02	-1.76661e+02	-7.99887e+01	-1.49508e+02	
Factor	5.02138e-05	2.16187e-04	5.75228e-05	2.02782e-01	2.24451e-06	2.39498e-06	2.11821e-01	6.23708e-02	2.36109e-06	2.12806e-06	1.02550e-01	4.02935e-02	4.67635e-02	1.15781e-02	2.14567e-06	1.65216e-02	1.48403e-05	2.08106e-05	5.80611e-06	1.01095e-01	2.10257e-07	2.31288e-07	9.93696e-02	3.12328e-02	2.09323e-07	2.30627e-07	4.98278e-02	1.95568e-02	2.33408e-02	5.84236e-03	2.17295e-07	8.10984e-03	X	X	X	X	X	X	X	X	X	X	X	X	X	X	X	X	



#DISTANCE SETTINGS
A = Detector Channel
A-1	A-2	A-3	A-4	A-5	A-6	A-7	A-8	A-9	A-10	A-11	A-12	A-13	A-14	A-15	A-16	

2.5000e+00	3.0000e+00	2.5000e+00	3.0000e+00	2.0000e+00	3.0000e+00	1.5000e+00	3.0000e+00	3.0000e+00	3.0000e+00	3.0000e+00	3.0000e+00	3.0000e+00	3.0000e+00	1.5000e+00	3.0000e+00	

B = Detector Channel
B-1	B-2	B-3	B-4	B-5	B-6	B-7	B-8	B-9	B-10	B-11	B-12	B-13	B-14	B-15	B-16	

1.0000e+01	1.0000e+01	1.0000e+01	1.4400e+00	1.0000e+01	1.0000e+01	1.5100e+00	1.9400e+00	1.0000e+01	1.0000e+01	1.9900e+00	2.4900e+00	2.4100e+00	2.9000e+00	1.0000e+01	2.9800e+00	




#DATA BEGINS
time	group	step	mark	flag	A-AC1	A-AC2	A-AC3	A-AC4	A-AC5	A-AC6	A-AC7	A-AC8	A-AC9	A-AC10	A-AC11	A-AC12	A-AC13	A-AC14	A-AC15	A-AC16	A-DC1	A-DC2	A-DC3	A-DC4	A-DC5	A-DC6	A-DC7	A-DC8	A-DC9	A-DC10	A-DC11	A-DC12	A-DC13	A-DC14	A-DC15	A-DC16	A-Ph1	A-Ph2	A-Ph3	A-Ph4	A-Ph5	A-Ph6	A-Ph7	A-Ph8	A-Ph9	A-Ph10	A-Ph11	A-Ph12	A-Ph13	A-Ph14	A-Ph15	A-Ph16	B-AC1	B-AC2	B-AC3	B-AC4	B-AC5	B-AC6	B-AC7	B-AC8	B-AC9	B-AC10	B-AC11	B-AC12	B-AC13	B-AC14	B-AC15	B-AC16	B-DC1	B-DC2	B-DC3	B-DC4	B-DC5	B-DC6	B-DC7	B-DC8	B-DC9	B-DC10	B-DC11	B-DC12	B-DC13	B-DC14	B-DC15	B-DC16	B-Ph1	B-Ph2	B-Ph3	B-Ph4	B-Ph5	B-Ph6	B-Ph7	B-Ph8	B-Ph9	B-Ph10	B-Ph11	B-Ph12	B-Ph13	B-Ph14	B-Ph15	B-Ph16	aux-1	digaux	

21397.357	1	1	0	256	0.13903	0.23839	0.095899	0.15197	0.13968	0.21078	0.17022	0.32135	0.059483	0.09153	0.26193	0.19195	0.10846	0.10998	0.13342	0.34375	-2.2812	-2.65	-2.6333	-2.775	-2.5812	-2.7708	-2.8312	-2.8312	-2.8792	-2.475	-2.8312	-2.8625	-2.5854	-2.8458	-2.6708	-2.6688	246.269	261.462	354.282	428.931	269.953	364.085	428.749	492.665	277.570	378.422	462.666	406.968	504.420	461.457	292.776	435.233	0.0011606	0.00036108	0.00018723	1321.6	7.9263e-06	7.9009e-06	1321.9	358.73	8.1634e-06	6.5749e-06	407.86	138.59	118.69	40.948	6.8826e-06	51.2	0.00086445	0.0008763	0.00023885	1353.5	9.2119e-06	9.3378e-06	1352	366.85	9.1047e-06	9.3812e-06	419.6	141.58	121.57	42.4	9.0354e-06	53.091	479.557	227.174	248.780	168.113	288.431	317.743	167.733	172.460	258.634	310.327	172.130	176.078	176.671	181.613	262.200	180.682	-8191	255	
21397.453	1	1	0	0	0.050829	0.086328	0.15785	0.069178	0.24584	0.22059	0.10022	0.041275	0.13546	0.072104	0.13639	0.12802	0.22034	0.13105	0.14108	0.34212	-2.2792	-2.4437	-2.7271	-2.7458	-2.425	-2.8708	-2.7979	-2.6458	-2.7771	-2.5958	-2.8542	-2.6708	-2.6667	-2.8937	-2.6875	-2.5292	478.295	347.152	164.266	190.865	190.818	501.225	440.567	396.726	469.060	203.928	184.676	441.119	245.132	492.925	363.680	440.686	0.0011437	0.00048865	0.00017509	1324	7.7692e-06	5.3728e-06	1324.2	357.52	8.2636e-06	5.5328e-06	407.93	138.48	118.61	40.835	5.37e-06	51.042	0.00085168	0.00086689	0.00023792	1351.7	9.1243e-06	9.2554e-06	1351.5	365.89	8.8971e-06	9.2755e-06	418.98	141.53	121.46	42.268	8.8199e-06	52.991	480.931	240.896	254.661	168.088	270.998	282.161	167.843	172.465	260.333	322.185	171.932	175.950	176.532	181.899	281.557	181.124	-8191	255	
21397.549	1	1	0	0	0.089536	0.24544	0.20362	0.12153	0.13596	0.033177	0.22705	0.14699	0.097635	0.17038	0.015686	0.34544	0.0847	0.087196	0.027108	0.20272	-2.4062	-2.7271	-2.6125	-2.9917	-2.4458	-2.8458	-2.7542	-2.8083	-2.8771	-2.5938	-2.8396	-2.7333	-2.7188	-2.7604	-2.7521	-2.6833	450.318	382.186	271.101	492.206	502.465	455.556	507.747	513.369	490.986	277.894	246.322	439.434	488.630	464.601	322.582	383.270	0.0012483	0.00060797	0.00011655	1320.4	5.8299e-06	3.9766e-06	1318.2	356.44	7.232e-06	2.9218e-06	407.25	138.42	118.87	40.868	6.3952e-06	50.719	0.00083811	0.00083234	0.00023221	1347.6	8.7077e-06	9.1855e-06	1345.4	364.96	8.7078e-06	9.0276e-06	418.16	141.13	121.33	42.24	8.8389e-06	52.804	477.697	240.123	228.223	168.117	295.817	283.545	167.688	172.561	274.423	293.710	172.130	175.774	176.443	181.750	273.568	180.917	-8191	255	
21397.646	1	1	0	0	0.072167	0.10697	0.4041	0.23291	0.11228	0.17363	0.27305	0.16737	0.24602	0.074488	0.28288	0.143	0.22139	0.15088	0.13881	0.21622	-2.4979	-2.6417	-2.5354	-2.8542	-2.6	-2.975	-3.0208	-2.6146	-2.7646	-2.7146	-2.5042	-2.7229	-2.6271	-2.875	-2.9562	-2.5187	513.387	429.167	310.458	467.401	264.762	361.506	425.145	445.999	176.048	178.059	269.369	492.746	387.743	475.225	441.537	394.497	0.0011783	0.0005777	0.00015168	1317.5	7.501e-06	3.5869e-06	1314.2	355.69	5.6133e-06	5.0202e-06	406.41	137.41	117.51	40.822	6.8614e-06	50.928	0.00083168	0.00083628	0.00023048	1344.4	8.6827e-06	9.0641e-06	1341.9	364.02	8.5325e-06	8.7965e-06	417.45	140.8	120.75	42.226	8.7919e-06	52.814	478.511	285.745	262.666	168.081	256.766	299.901	167.760	172.643	267.444	319.341	172.240	176.040	176.722	181.725	262.226	180.544	-8191	255	
21397.764	1	1	0	0	0.13911	0.097572	0.30951	0.16443	0.18215	0.37743	0.045502	0.30918	0.19578	0.066104	0.24095	0.10513	0.079492	0.11108	0.077922	0.24412	-2.2771	-2.55	-2.3563	-3.0167	-2.7708	-2.5687	-3.0104	-2.8438	-2.8	-2.6625	-2.6958	-3.0229	-2.5563	-2.7604	-2.8833	-2.7042	241.781	170.786	327.578	485.561	309.977	303.548	426.414	155.627	328.642	425.449	498.275	403.671	440.476	333.420	425.861	485.550	0.0011537	0.00053692	8.4814e-05	1311.4	7.9162e-06	7.6175e-06	1309.3	354.81	7.9342e-06	2.747e-06	404.84	137.4	118.13	40.818	6.6619e-06	51.046	0.00082525	0.00080801	0.00022868	1340.9	8.7734e-06	9.146e-06	1339.5	364.09	8.584e-06	8.8455e-06	416.82	140.78	120.78	42.215	8.8742e-06	52.89	479.316	268.966	220.942	168.002	267.184	304.359	167.822	172.523	257.490	341.039	172.078	175.994	176.825	181.571	279.712	180.870	-8191	255	
21397.861	1	1	0	0	0.28	0.20889	0.12366	0.077883	0.065179	0.03564	0.097542	0.27347	0.25906	0.08683	0.27555	0.13754	0.26104	0.060043	0.33172	0.099375	-2.3958	-2.7229	-2.5042	-2.8125	-2.6	-2.8958	-2.9146	-2.5354	-2.7729	-2.7188	-2.7708	-3.1125	-2.7583	-2.5917	-2.9021	-2.7125	350.781	479.839	254.421	262.665	330.212	505.034	239.683	187.815	453.294	185.745	413.449	503.236	358.747	504.033	386.628	498.380	0.001252	0.00054329	0.00016943	1315.9	6.1772e-06	6.2664e-06	1313.4	357.45	6.7641e-06	6.7116e-06	406.14	138.09	118.28	40.754	6.1471e-06	51.387	0.00085165	0.00084179	0.00022841	1343	8.7787e-06	8.9981e-06	1342.7	365.15	8.6782e-06	8.8825e-06	417.53	141.04	120.99	42.231	8.5202e-06	52.997	480.785	254.559	218.282	168.065	296.022	314.395	167.789	172.551	280.320	322.400	172.095	176.211	176.722	181.678	272.841	180.740	-8191	255	
21397.957	1	1	0	0	0.27038	0.094995	0.1706	0.070053	0.093121	0.24933	0.12246	0.10841	0.15709	0.21885	0.039466	0.15622	0.10139	0.30473	0.12951	0.14392	-2.3854	-2.6083	-2.6146	-2.9062	-2.5458	-2.5458	-2.9813	-2.625	-2.8063	-2.9	-2.6312	-2.8729	-2.8083	-2.7062	-2.8812	-2.7208	293.783	488.492	302.090	427.313	295.090	371.388	414.803	488.891	242.982	351.824	243.904	476.730	461.089	188.868	204.742	499.621	0.0012494	0.00059439	0.00011258	1319.1	6.5562e-06	4.8048e-06	1314.8	357.01	8.9173e-06	4.4152e-06	406.71	138.36	118.33	40.867	7.2868e-06	50.94	0.00083495	0.00080086	0.00022672	1344.4	8.5531e-06	8.9282e-06	1343.8	365.68	8.6324e-06	8.7686e-06	418.01	141.18	121.18	42.386	8.5184e-06	52.982	479.159	243.788	244.488	168.054	270.355	323.596	167.814	172.833	255.955	323.235	172.053	176.130	176.770	181.675	282.103	180.757	-8191	255	
21398.053	1	1	0	0	0.11594	0.098119	0.18205	0.20186	0.09043	0.042388	0.24686	0.099003	0.35473	0.23406	0.055254	0.26523	0.24524	0.049353	0.17885	0.12076	-2.2687	-2.7438	-2.4688	-3.0042	-2.7708	-2.6083	-3.0042	-2.7229	-2.8458	-2.9229	-2.8875	-2.8292	-2.8104	-2.5125	-2.9021	-2.9229	339.922	492.318	255.124	473.913	279.099	191.132	420.523	330.814	158.307	480.098	289.612	162.474	452.020	353.871	335.954	244.975	0.0012153	0.00052751	0.0001797	1320.3	7.4528e-06	5.0144e-06	1318.1	357.94	7.0946e-06	4.9962e-06	408.88	138.38	118.72	41.277	5.538e-06	51.197	0.00081622	0.00079822	0.00022154	1346.9	8.7103e-06	8.7962e-06	1345.4	365.8	8.3437e-06	8.637e-06	419.05	141.4	121.36	42.478	8.2183e-06	53.016	479.111	247.398	255.382	167.924	275.937	291.451	167.762	172.704	267.493	308.588	171.986	175.805	176.654	181.535	280.527	181.031	-8191	255	
21398.174	1	1	0	0	0.061429	0.062972	0.32847	0.2442	0.11084	0.020649	0.20787	0.31107	0.11885	0.25107	0.17503	0.061208	0.11504	0.059063	0.26648	0.14307	-2.1354	-2.8375	-2.4958	-2.8937	-2.8146	-2.5292	-3.0771	-2.6979	-2.6271	-2.9	-2.5938	-2.7625	-2.7583	-2.625	-3.0042	-2.9271	348.021	181.457	269.553	510.508	501.408	188.204	446.187	409.339	318.467	474.132	463.512	394.512	246.162	498.128	315.123	223.887	0.00117	0.00054163	8.7133e-05	1320.8	7.9376e-06	2.1524e-06	1315.8	358.25	1.0234e-05	3.4656e-06	409.11	137.79	119.33	41.011	5.9151e-06	51.252	0.00081093	0.00076362	0.00021575	1348.2	8.4085e-06	8.6218e-06	1345.4	366.18	8.4117e-06	8.3208e-06	419.34	141.16	121.6	42.435	8.3663e-06	53.063	482.129	228.857	258.398	168.250	276.596	292.947	167.886	172.503	264.300	310.783	172.098	176.253	176.554	181.699	290.818	180.821	-8191	255	
21398.244	1	1	0	0	0.018551	0.14448	0.050353	0.22369	0.26295	0.12279	0.12927	0.13449	0.19254	0.11432	0.24373	0.25749	0.12295	0.13043	0.10803	0.20675	-2.0687	-2.7583	-2.4188	-2.9896	-2.7771	-2.5687	-2.8812	-2.6583	-2.5771	-2.7042	-2.5833	-2.7521	-2.8792	-2.7083	-2.8271	-2.8083	226.857	418.009	212.011	194.552	423.441	318.754	423.140	237.570	462.424	512.198	468.084	494.868	451.100	367.163	277.532	159.448	0.0011742	0.00045002	0.00015714	1320.2	7.2189e-06	3.5306e-06	1320.7	358.25	8.8556e-06	4.1429e-06	407.88	138.23	119.14	40.953	5.069e-06	51.079	0.00080901	0.00077866	0.00021758	1348.6	8.3257e-06	8.5471e-06	1347.7	366.67	8.1087e-06	8.4505e-06	419.47	141.45	121.65	42.455	8.3197e-06	52.959	480.923	246.966	235.168	168.106	244.770	318.510	167.774	172.733	275.751	285.644	172.213	176.159	176.996	181.773	289.707	180.667	-8191	255	
21398.365	1	1	0	0	0.19229	0.24523	0.24649	0.19691	0.24611	0.23987	0.15751	0.34277	0.24188	0.051718	0.026192	0.11094	0.14454	0.11059	0.044894	0.11403	-2.2771	-2.7417	-2.4729	-2.95	-2.8354	-2.9792	-2.9021	-2.7229	-2.5	-2.875	-2.6333	-2.6917	-3.0375	-2.7313	-2.9083	-2.8187	168.610	328.806	335.851	453.516	267.488	409.792	335.488	472.948	447.510	160.465	157.587	186.967	479.474	315.809	468.619	350.275	0.0011398	0.00060908	0.00016957	1321.2	6.5377e-06	4.3887e-06	1321.8	357.97	7.5697e-06	3.0069e-06	409.09	138.5	119.18	41.03	4.9966e-06	51.183	0.00079322	0.00075525	0.00021677	1349.8	8.2e-06	8.4358e-06	1347.1	366.36	8.2133e-06	8.5466e-06	419.75	141.58	121.85	42.447	8.2264e-06	53.073	477.764	220.983	227.116	168.109	292.859	295.359	167.722	172.542	265.494	336.849	172.274	176.146	176.774	181.569	263.391	180.729	-8191	255	
21398.463	1	1	0	0	0.073597	0.29612	0.13688	0.22461	0.11042	0.08006	0.13707	0.18198	0.076203	0.058625	0.28808	0.10774	0.049051	0.066794	0.12182	0.285	-2.1979	-2.8021	-2.4792	-2.6708	-2.8396	-2.7208	-2.9562	-2.8771	-2.6167	-2.8063	-2.5875	-2.6896	-2.9667	-2.6667	-2.6771	-3.075	489.947	487.906	363.595	456.907	264.559	312.826	379.567	479.626	302.768	186.473	426.393	449.319	263.680	364.787	303.069	437.772	0.0011945	0.00038688	0.00014753	1322.7	5.5676e-06	4.1318e-06	1320.7	358.59	5.4131e-06	4.8407e-06	407.86	138.37	118.97	40.979	6.5433e-06	50.962	0.00080518	0.0007706	0.00021867	1350.1	8.0528e-06	8.5297e-06	1348.2	366.31	8.2491e-06	8.5221e-06	419.06	141.26	121.47	42.451	8.4962e-06	53.026	479.278	234.438	219.950	168.169	268.745	296.507	167.685	172.560	269.170	324.342	172.042	176.002	176.796	181.552	269.022	180.795	-8191	255	
21398.557	1	1	0	0	0.28062	0.06345	0.065265	0.40748	0.12597	0.19521	0.13153	0.18048	0.098003	0.10336	0.31295	0.11871	0.36305	0.14861	0.22976	0.13927	-2.1583	-2.7896	-2.5854	-2.6604	-2.9146	-2.5938	-2.8292	-2.8542	-2.5729	-2.8104	-2.9437	-2.6625	-2.7375	-2.7667	-2.6417	-2.6896	157.717	186.071	206.676	469.724	363.116	439.255	418.782	360.636	233.289	299.515	450.572	436.900	161.196	458.066	253.063	196.348	0.0011851	0.0005644	0.00013355	1321	8.5437e-06	4.9338e-06	1321.6	358.82	7.2087e-06	5.7911e-06	408.39	138.27	118.65	41.175	6.7614e-06	51.252	0.0007972	0.00077589	0.00021838	1349.4	8.3065e-06	8.6695e-06	1349.6	366.51	8.369e-06	8.7105e-06	418.95	141.34	121.61	42.568	8.3247e-06	53.071	479.197	261.816	243.738	168.003	262.824	350.143	167.856	172.627	267.518	304.813	172.245	176.052	176.571	181.798	292.913	180.628	-8191	255	
21398.652	1	1	0	0	0.26665	0.23871	0.18221	0.20682	0.066528	0.15674	0.30452	0.17906	0.10745	0.19365	0.16429	0.13246	0.23232	0.11695	0.13304	0.12178	-2.0062	-2.8563	-2.6396	-2.85	-2.8229	-2.7687	-2.5729	-2.9396	-2.6125	-2.7458	-2.7771	-2.7021	-2.7396	-2.7604	-2.7958	-2.9292	314.290	337.068	178.096	439.284	276.895	181.249	425.634	469.375	299.364	423.284	511.109	402.531	496.187	488.459	219.446	341.209	0.0012468	0.00048432	9.1513e-05	1325.5	6.447e-06	2.3613e-06	1322.8	358.65	5.9474e-06	3.95e-06	409.42	139.58	119.21	41.128	6.6065e-06	51.366	0.00082707	0.0008071	0.00022127	1353.5	8.4295e-06	8.8371e-06	1351.8	367.53	8.4287e-06	8.8138e-06	420.12	142.12	122.07	42.603	8.4474e-06	53.255	480.381	212.064	244.801	168.108	281.439	287.496	167.526	172.344	275.374	318.712	171.970	175.980	176.558	181.576	285.562	180.814	-8191	255	
21398.748	1	1	0	0	0.088595	0.12298	0.10596	0.079106	0.13604	0.16121	0.18041	0.093841	0.13006	0.016471	0.30907	0.098661	0.26467	0.18886	0.12452	0.22327	-2.0104	-2.6271	-2.8146	-2.6312	-2.7271	-2.8083	-2.6104	-3.0958	-2.6083	-2.7896	-2.9083	-2.6792	-2.8729	-2.8729	-2.5354	-2.8479	374.727	307.074	386.205	257.593	488.527	487.988	446.339	438.686	163.393	365.739	499.985	377.503	495.772	361.306	158.096	396.386	0.0012065	0.00058991	0.00017118	1325.2	4.0861e-06	5.4397e-06	1319.4	359.14	8.6404e-06	4.2431e-06	407.97	138.73	119.53	40.989	5.799e-06	51.21	0.00081344	0.00079319	0.00022143	1352.9	8.32e-06	8.8661e-06	1348.4	367.3	8.4942e-06	8.7273e-06	419.61	141.63	121.54	42.477	8.5764e-06	53.078	478.879	242.282	237.935	168.137	258.893	272.776	167.923	172.600	248.700	303.508	172.148	175.932	176.607	181.713	270.028	180.980	-8191	255	
21398.846	1	1	0	0	0.038837	0.20835	0.17576	0.14728	0.11986	0.36931	0.30996	0.29185	0.17178	0.060883	0.089828	0.16799	0.045646	0.23937	0.20124	0.03613	-2.1646	-2.8167	-2.65	-2.75	-2.7938	-2.6958	-2.7	-2.9729	-2.5583	-2.6229	-3.2938	-2.7458	-2.7417	-2.6479	-2.4667	-2.9229	465.245	161.141	369.238	455.164	162.738	505.689	383.696	482.604	370.738	254.398	334.100	437.540	338.002	219.607	508.718	493.672	0.0011394	0.00055368	0.00012608	1320.2	6.3423e-06	5.0532e-06	1315.2	357.65	5.7141e-06	5.5703e-06	408.03	138.28	118.77	40.841	4.1473e-06	50.994	0.00083177	0.00082744	0.00022129	1350.3	8.709e-06	8.9162e-06	1345.8	366.31	8.6948e-06	9.0007e-06	418.51	141.2	121.25	42.353	8.6895e-06	52.998	478.258	229.994	249.276	168.052	268.495	321.516	167.646	172.498	293.206	291.650	172.091	175.953	176.576	181.612	280.845	180.683	-8191	255	
21398.941	1	1	0	0	0.097853	0.32042	0.19531	0.1072	0.093398	0.053265	0.27656	0.19178	0.12797	0.18455	0.21434	0.24237	0.093445	0.058883	0.12655	0.14166	-2.0729	-2.65	-2.8583	-2.6667	-2.8854	-2.6542	-2.7021	-3.1646	-2.5271	-2.6854	-2.9104	-2.4729	-2.8563	-2.8375	-2.5625	-2.975	480.941	247.632	354.443	415.981	390.228	378.218	407.548	444.810	276.786	476.835	488.995	485.586	460.151	500.918	209.476	360.092	0.0011689	0.00045643	0.00012212	1315.6	3.6192e-06	6.5088e-06	1320.4	356.11	7.8397e-06	5.6654e-06	406.71	137.75	118.02	40.599	5.4939e-06	50.824	0.00083805	0.00081959	0.00023119	1345.2	8.8974e-06	8.9759e-06	1345.6	365.22	8.8387e-06	9.1323e-06	417.84	140.88	121.01	42.184	9.0381e-06	52.812	478.446	237.816	253.457	168.176	244.761	334.596	167.548	172.295	263.673	330.697	172.165	176.121	176.967	181.700	295.454	180.751	-8191	255	
21399.037	1	1	0	0	0.082279	0.19194	0.15788	0.25257	0.20065	0.043743	0.18683	0.19631	0.18086	0.079534	0.26715	0.21476	0.14923	0.082614	0.18488	0.25794	-2.1917	-2.5458	-2.9292	-2.7729	-2.7625	-2.75	-2.5229	-2.8271	-2.6729	-2.5354	-2.8688	-2.7938	-2.6688	-2.8125	-2.6729	-2.8396	493.126	270.801	488.422	493.361	409.100	421.305	460.857	432.336	441.618	295.244	250.489	163.585	346.918	477.604	446.192	395.585	0.0010639	0.00047122	0.00014137	1315.3	5.7327e-06	6.3216e-06	1313	355.68	5.107e-06	3.7492e-06	405.65	137.41	117.43	40.818	7.635e-06	50.949	0.00084927	0.00083862	0.00023691	1342.8	8.995e-06	9.3797e-06	1341.7	364.29	9.1025e-06	9.4197e-06	416.92	140.47	120.61	42.202	9.0784e-06	52.802	480.859	231.724	245.681	168.138	261.308	327.273	167.592	172.530	250.953	301.757	172.279	176.050	176.822	181.718	277.606	180.802	-8191	255	
21399.133	1	1	0	0	0.10257	0.074677	0.21201	0.034288	0.11484	0.055181	0.071278	0.074379	0.17005	0.11471	0.067404	0.22776	0.18844	0.38502	0.27536	0.14255	-2.325	-2.4792	-2.7771	-2.7167	-2.7833	-2.6688	-2.7438	-2.7917	-2.7417	-2.5875	-2.8958	-2.6937	-2.55	-2.9771	-2.5333	-2.8708	171.888	353.599	335.878	294.217	504.345	287.792	507.866	201.843	419.187	199.976	505.962	457.994	215.167	453.546	250.205	453.751	0.0011699	0.00063606	0.00010746	1317.5	8.1651e-06	4.1269e-06	1312.1	356.53	8.7225e-06	4.7884e-06	405.88	137.54	118.19	40.686	6.1568e-06	50.625	0.00086386	0.00084777	0.00023474	1344.3	8.9508e-06	9.2448e-06	1340.1	364.41	9.0205e-06	9.4081e-06	416.37	140.57	120.78	42.1	9.2147e-06	52.663	478.294	255.748	247.682	167.877	280.872	301.855	167.754	172.548	263.754	296.493	172.287	176.379	176.674	181.698	306.756	180.688	-8191	255	
21399.254	1	1	0	0	0.076621	0.065188	0.17152	0.14618	0.23462	0.028827	0.46864	0.19046	0.16408	0.21037	0.11979	0.081057	0.039795	0.19956	0.28403	0.13798	-2.2042	-2.6125	-2.7396	-3.0208	-2.6333	-3.0208	-2.7167	-2.5792	-2.8187	-2.5812	-2.9813	-2.8312	-2.7292	-2.8875	-2.5458	-2.725	420.620	165.349	176.551	385.845	447.475	227.539	405.802	469.609	271.919	276.610	397.278	201.255	495.184	381.112	453.905	481.437	0.0011969	0.00062021	0.0001294	1315.2	7.1396e-06	7.4618e-06	1311.1	355.85	9.5114e-06	5.2528e-06	405.57	136.99	117.5	40.808	5.6616e-06	50.809	0.00085047	0.00085232	0.00024266	1341.1	9.1067e-06	9.4901e-06	1336.2	363.56	8.9961e-06	9.4149e-06	416.33	140.29	120.61	42.112	9.3016e-06	52.757	479.015	228.272	248.911	168.055	273.703	329.103	167.678	172.659	266.486	315.940	172.084	176.112	176.909	181.974	317.061	181.024	-8191	255	
21399.350	1	1	0	0	0.10652	0.12838	0.24487	0.19199	0.062016	0.055738	0.17304	0.20512	0.19134	0.14952	0.20818	0.11625	0.072255	0.16569	0.18489	0.073463	-2.4625	-2.4458	-2.8375	-2.6896	-2.6188	-2.7208	-2.6396	-2.8875	-2.7792	-2.4146	-2.9167	-2.75	-2.6833	-3.0417	-2.5958	-2.725	361.551	437.402	461.570	423.841	233.156	287.747	504.681	382.228	417.118	459.572	444.950	321.544	210.267	166.671	395.835	475.070	0.0012629	0.00052145	0.00015174	1312.6	8.6094e-06	4.2986e-06	1308.9	355.19	7.6417e-06	4.9804e-06	407.11	137.27	118.43	40.772	5.844e-06	50.832	0.00087932	0.00088042	0.000244	1341.5	9.2938e-06	9.451e-06	1338.7	363.99	9.1348e-06	9.8386e-06	416.98	140.28	120.7	42.137	9.4111e-06	52.754	479.377	221.306	242.189	168.058	259.822	338.724	167.751	172.705	246.248	308.010	172.083	176.180	176.625	181.705	278.901	180.443	-8191	255	
21399.445	1	1	0	0	0.29051	0.099398	0.17219	0.24285	0.35983	0.21759	0.065948	0.17032	0.41514	0.027263	0.091485	0.14589	0.10457	0.046995	0.13748	0.36793	-2.4958	-2.4542	-2.7521	-2.9188	-2.4646	-2.7333	-2.7146	-2.6625	-2.8521	-2.5042	-2.7167	-2.7708	-2.5479	-2.8375	-2.5521	-2.6542	456.464	471.414	424.405	178.733	177.916	437.184	355.993	400.651	325.526	297.399	378.791	400.566	437.894	501.735	392.032	462.994	0.0011938	0.00048026	0.00013141	1312.7	7.0923e-06	5.3907e-06	1306.3	355.75	5.4765e-06	3.0255e-06	403.75	136.44	117.9	40.565	6.894e-06	50.606	0.00086154	0.00085701	0.00024019	1338.7	9.3954e-06	9.6014e-06	1335	363.6	9.0515e-06	9.3255e-06	415.52	139.94	120.42	42.007	9.4116e-06	52.689	477.756	232.137	225.388	168.188	281.818	337.366	167.836	172.637	275.537	312.649	172.145	175.769	176.894	181.590	261.181	180.950	-8191	255	
21399.543	1	1	0	0	0.22936	0.11258	0.061401	0.12079	0.10517	0.085723	0.21342	0.10355	0.020534	0.30457	0.14528	0.41575	0.13951	0.29042	0.050115	0.19521	-2.2271	-2.6271	-2.7708	-3.0271	-2.525	-2.9146	-2.7875	-2.7938	-2.7938	-2.6292	-2.8625	-2.7792	-2.6167	-2.8083	-2.7354	-2.5042	396.185	266.009	436.621	513.168	460.423	276.642	478.913	361.652	340.652	380.528	419.767	464.573	412.013	160.424	239.655	178.194	0.0011604	0.00057179	0.00014572	1309	4.7395e-06	6.5297e-06	1305.3	354.06	8.4288e-06	4.6784e-06	404.9	136.64	117.34	40.548	3.6919e-06	50.404	0.00085756	0.00085094	0.00023708	1336.1	9.0826e-06	9.3585e-06	1335	363.01	9.1513e-06	9.6983e-06	415.97	139.94	120.11	42.006	9.2233e-06	52.482	478.343	210.957	230.525	168.056	271.175	331.048	167.605	172.580	266.826	293.032	172.359	176.406	176.854	181.679	285.475	181.001	-8191	255	
21399.637	1	1	0	0	0.16078	0.092928	0.10528	0.25037	0.15048	0.072616	0.22093	0.021783	0.25352	0.19831	0.095623	0.072511	0.044792	0.18292	0.10867	0.1312	-2.4792	-2.5687	-2.6521	-2.9146	-2.4979	-2.7104	-2.7646	-2.6021	-2.8104	-2.6063	-2.7313	-2.8063	-2.4167	-2.7854	-2.7292	-2.75	289.000	158.325	228.798	473.331	165.703	382.229	408.472	171.383	373.668	346.326	492.031	307.956	268.034	479.308	429.219	168.023	0.001196	0.00038832	0.00012254	1310.9	6.3123e-06	4.1232e-06	1307.1	353.4	6.6555e-06	4.1432e-06	405.28	136.73	117.71	40.575	4.4874e-06	50.454	0.00085103	0.00089152	0.00023624	1336.4	9.1269e-06	9.4828e-06	1333.8	361.8	9.1579e-06	9.4768e-06	414.84	139.49	119.95	41.908	9.1735e-06	52.442	478.147	214.741	237.140	168.020	262.266	320.860	167.783	172.811	258.644	310.487	172.294	176.169	176.561	181.721	284.110	180.872	-8191	255	
21399.734	1	1	0	0	0.1334	0.21344	0.015591	0.079015	0.23486	0.23484	0.052968	0.12009	0.17696	0.10154	0.11396	0.138	0.078568	0.15192	0.098369	0.28691	-2.4562	-2.4854	-2.5312	-2.9979	-2.525	-2.8	-3.0187	-2.6104	-2.8688	-2.7458	-2.6479	-2.8771	-2.6917	-2.7917	-2.8625	-2.7646	177.561	237.484	159.551	181.544	311.485	308.372	475.810	162.783	354.747	327.352	492.587	301.275	429.889	312.044	217.552	409.723	0.0011379	0.00031243	0.00018189	1307	6.894e-06	3.4801e-06	1302.8	354.01	7.635e-06	4.08e-06	403.44	135.95	117.73	40.529	4.2846e-06	50.686	0.00085499	0.00083997	0.0002423	1333.8	9.2456e-06	9.3797e-06	1331.8	362.16	9.2495e-06	9.4004e-06	414.16	139.43	120	41.929	8.9589e-06	52.452	481.354	270.096	236.923	168.135	263.082	279.755	167.785	172.708	261.219	301.279	172.070	176.046	176.738	181.663	279.937	180.889	-8191	255	
21399.854	1	1	0	0	0.049656	0.11343	0.13824	0.18688	0.19344	0.11959	0.13797	0.24376	0.19066	0.1499	0.13141	0.0915	0.24146	0.13147	0.12399	0.33047	-2.4854	-2.7125	-2.5062	-2.9833	-2.5854	-2.7292	-3.1208	-2.6167	-2.8604	-2.8417	-2.6271	-2.8875	-2.6396	-2.6375	-2.8792	-2.5563	377.894	286.881	248.937	470.478	311.983	245.042	446.086	491.454	302.822	166.638	354.547	479.357	481.749	243.272	195.597	199.000	0.0011796	0.00029757	0.00015954	1308.2	7.1617e-06	5.3561e-06	1299.7	353.47	8.8436e-06	5.5576e-06	405.5	136.68	117.31	40.443	5.0001e-06	50.491	0.00086457	0.00085211	0.00023435	1333.9	9.218e-06	9.6259e-06	1330	361.91	9.1902e-06	9.3346e-06	414.45	139.59	119.67	41.883	9.1355e-06	52.387	478.938	248.459	219.648	168.182	295.687	293.386	167.687	172.544	263.791	319.839	171.995	175.981	176.985	181.827	294.904	180.787	-8191	255	
21399.949	1	1	0	0	0.28054	0.14894	0.12808	0.35673	0.21052	0.0216	0.16768	0.24039	0.087578	0.17636	0.19795	0.089413	0.11347	0.42766	0.2836	0.10358	-2.3229	-2.6792	-2.4292	-3.0667	-2.7771	-2.7083	-3.1125	-2.7917	-2.7833	-2.7979	-2.5229	-2.9208	-2.7938	-2.7271	-2.8063	-2.5938	303.709	402.759	347.292	467.667	325.987	358.715	452.899	487.719	423.788	416.939	385.100	184.041	298.023	180.713	309.654	476.590	0.0011795	0.00054469	0.00010872	1306.2	5.7413e-06	2.9166e-06	1303.8	353.11	8.3934e-06	4.4467e-06	401.6	136.23	116.97	40.383	3.8794e-06	50.442	0.00085644	0.00086789	0.00023601	1333.7	9.0349e-06	9.2458e-06	1330.4	361.35	9.0423e-06	9.3481e-06	412.97	139.39	119.71	41.802	8.9838e-06	52.329	480.720	245.713	247.776	168.013	281.894	308.824	167.643	172.764	250.951	301.376	172.244	176.278	176.834	181.821	285.158	180.885	-8191	255	
21400.047	1	1	0	0	0.03178	0.27676	0.17246	0.049822	0.16121	0.067906	0.11662	0.1875	0.090079	0.18165	0.16631	0.21103	0.21725	0.18486	0.055504	0.08513	-2.2292	-2.7208	-2.5146	-3.0021	-2.7167	-2.7542	-3.0896	-2.7792	-2.6667	-2.85	-2.8104	-2.8896	-2.975	-2.5	-2.9188	-2.5458	223.515	299.832	503.924	304.033	216.044	459.138	170.213	444.105	159.687	162.859	347.892	467.761	168.452	465.848	371.643	349.316	0.0012196	0.00057584	0.00017265	1306.6	5.3437e-06	5.7809e-06	1294.8	350.84	7.0477e-06	4.4244e-06	403.14	135.8	116.53	40.303	6.2263e-06	50.242	0.00085282	0.0008525	0.00024377	1331.1	8.9508e-06	9.1407e-06	1325.5	359.92	9.0545e-06	9.2352e-06	412.69	138.81	119.28	41.698	9.1418e-06	52.249	482.174	265.820	205.327	168.106	254.330	298.818	167.913	172.568	277.858	303.811	172.027	176.050	176.622	181.853	297.617	180.836	-8191	255	
21400.143	1	1	0	0	0.08779	0.12878	0.14931	0.30119	0.1335	0.077223	0.077073	0.33598	0.096655	0.17813	0.24299	0.10253	0.10082	0.27493	0.22062	0.23589	-2.3396	-2.8854	-2.7313	-2.8917	-2.8438	-2.6146	-2.9521	-2.8271	-2.6396	-3.075	-2.7708	-2.9354	-2.95	-2.5979	-2.7979	-2.7521	456.584	397.741	267.705	194.716	363.004	433.952	380.303	179.479	232.797	439.750	437.759	497.925	497.990	448.352	259.316	412.814	0.0012409	0.00045778	0.00012187	1303.7	6.077e-06	5.6775e-06	1296.2	351.43	8.7559e-06	5.3265e-06	400.78	135.56	116.88	40.216	7.9281e-06	50.342	0.0008706	0.00084161	0.0002357	1330.1	8.9653e-06	9.3084e-06	1326.3	359.93	9.1322e-06	9.2193e-06	411.74	138.78	119.29	41.62	9.1508e-06	52.234	477.552	230.364	223.879	168.019	286.594	314.237	167.691	172.603	273.492	312.399	172.160	176.165	176.647	181.682	282.958	180.665	-8191	255	
21400.238	1	1	0	0	0.32355	0.13792	0.078955	0.23168	0.3318	0.10875	0.025994	0.24222	0.25869	0.16666	0.34752	0.095544	0.15867	0.075123	0.13464	0.11703	-2.3708	-2.6813	-2.625	-2.7854	-2.8708	-2.7	-3.0938	-2.7938	-2.6604	-2.9917	-2.6979	-2.8833	-2.9437	-2.6854	-2.7313	-2.9333	316.441	192.070	231.078	513.027	486.697	379.204	395.681	473.449	406.191	392.126	405.252	289.776	487.954	232.120	359.185	245.559	0.0012226	0.00055375	0.00017927	1300	8.0224e-06	6.9986e-06	1302.2	350.76	8.4895e-06	5.1898e-06	401.72	135.89	115.85	40.368	5.8085e-06	50.217	0.0008638	0.00085362	0.00024041	1327.9	9.1098e-06	9.5325e-06	1328.6	359.45	8.9878e-06	9.4283e-06	411.38	138.69	118.87	41.709	9.0096e-06	52.094	480.574	250.022	238.550	168.103	263.312	297.987	167.659	172.469	259.067	299.223	172.113	176.114	177.129	181.639	272.100	180.812	-8191	255	
21400.334	1	1	0	0	0.057699	0.20566	0.13155	0.12381	0.047799	0.069801	0.11225	0.12502	0.1127	0.067591	0.07723	0.15124	0.091492	0.20055	0.067966	0.31332	-2.0833	-2.7083	-2.6375	-2.8354	-2.8833	-2.6833	-3.0542	-2.9938	-2.6146	-2.9604	-2.9542	-2.7729	-2.9146	-2.5375	-2.7562	-2.9375	330.306	209.997	398.752	465.556	461.574	171.680	467.678	464.060	234.568	437.867	370.989	467.652	323.024	281.503	404.036	430.460	0.0011831	0.00051317	8.0361e-05	1302.9	4.7358e-06	5.9377e-06	1299.2	350.17	6.6166e-06	6.237e-06	400.07	135.03	116.3	40.213	5.7477e-06	50.096	0.00085493	0.00085527	0.0002387	1328.4	8.9324e-06	9.32e-06	1324.8	358.57	9.0663e-06	9.1818e-06	411.05	138.48	118.88	41.665	9.068e-06	52.055	480.398	218.836	216.248	168.311	301.104	301.644	167.847	172.477	251.997	306.467	172.124	176.085	176.599	181.866	270.880	180.749	-8191	255	
21400.430	1	1	0	0	0.22661	0.16618	0.10946	0.3146	0.12717	0.18249	0.50531	0.26291	0.11641	0.054358	0.2962	0.16132	0.10538	0.087088	0.048251	0.28543	-2.0479	-2.8083	-2.575	-2.8	-2.9188	-2.5583	-3.075	-2.7938	-2.7125	-2.8083	-2.7479	-2.8125	-3	-2.375	-2.7958	-2.9396	341.149	298.689	235.698	408.698	397.423	462.892	462.084	455.428	446.556	261.508	401.541	418.291	215.925	476.782	309.710	437.520	0.0011671	0.00063587	0.00012386	1302.4	3.3942e-06	5.5476e-06	1300.6	351.37	6.2026e-06	5.4007e-06	400.41	135.55	116.3	40.202	5.2132e-06	49.907	0.00084435	0.00085909	0.00023429	1328.1	8.8575e-06	9.3209e-06	1324.5	358.73	9.1422e-06	9.127e-06	410.65	138.42	118.87	41.661	8.9969e-06	51.937	480.264	241.065	262.065	168.033	277.490	311.068	167.877	172.384	261.826	305.038	172.009	176.270	176.779	181.792	292.163	180.815	-8191	255	
21400.549	1	1	0	0	0.15628	0.10149	0.15296	0.21065	0.1063	0.18931	0.20028	0.081461	0.071274	0.10163	0.21454	0.17516	0.19553	0.077832	0.048556	0.087216	-2.1146	-2.9167	-2.55	-2.6104	-2.9437	-2.6708	-3.0271	-2.925	-2.6125	-2.9542	-2.7458	-2.8229	-2.9667	-2.5229	-2.8083	-3.0229	319.515	249.059	364.284	378.984	191.395	311.594	506.574	410.322	496.092	509.140	393.825	447.579	289.205	510.331	492.719	477.999	0.0011958	0.00055345	0.00011165	1297.5	7.9027e-06	5.1042e-06	1293.5	349.53	8.2959e-06	6.1149e-06	399.69	136.32	115.82	40.242	4.0998e-06	50.175	0.00084098	0.00083546	0.00023657	1327.6	8.8102e-06	9.1667e-06	1322.8	358.59	8.867e-06	9.1246e-06	410.55	138.76	118.84	41.666	9.0399e-06	52.04	478.240	240.789	249.188	168.123	271.262	315.865	167.896	172.488	248.506	311.963	172.258	176.072	177.162	181.615	302.818	180.529	-8191	255	
21400.645	1	1	0	0	0.09224	0.12274	0.27306	0.072472	0.25129	0.12481	0.23017	0.12758	0.078828	0.13397	0.29712	0.22327	0.085719	0.23694	0.029565	0.069698	-2.2208	-2.6708	-2.7167	-2.6208	-2.8146	-2.5187	-2.9542	-2.9917	-2.5729	-2.775	-2.8375	-2.6104	-2.8271	-2.8563	-2.525	-2.7938	277.917	362.480	378.201	394.732	252.085	295.706	451.891	460.747	196.219	344.701	417.896	415.299	226.595	475.710	160.991	368.912	0.0011723	0.00061907	0.00012333	1293.9	7.2664e-06	4.2212e-06	1288.9	350.47	1.0566e-05	7.384e-06	397.69	135	115.64	39.97	4.906e-06	49.758	0.00083029	0.00081465	0.00022796	1323.4	8.727e-06	9.0737e-06	1318.8	357.53	8.7715e-06	8.957e-06	409.01	137.84	118.37	41.446	8.8647e-06	51.706	479.191	255.512	265.693	168.132	268.524	317.732	167.642	172.692	257.184	295.685	172.111	176.141	176.719	181.839	280.084	180.714	-8191	255	
21400.717	1	1	0	0	0.27121	0.15155	0.13048	0.24282	0.14061	0.28098	0.33386	0.070288	0.21966	0.10422	0.16967	0.16378	0.25115	0.32344	0.34107	0.12437	-2.2167	-2.7687	-2.8312	-2.6979	-2.8417	-2.6958	-2.9333	-3.1458	-2.3979	-2.7917	-2.8021	-2.5729	-3.1083	-2.7333	-2.5833	-2.9729	212.600	281.293	447.560	491.911	499.403	445.406	476.254	307.062	514.487	279.018	320.220	447.084	280.777	447.502	313.883	380.981	0.0011604	0.00055502	0.00017221	1291	8.8661e-06	5.2494e-06	1284.4	348.52	7.3368e-06	3.7274e-06	395.23	134.6	115.11	39.89	7.0004e-06	49.801	0.00083604	0.0008515	0.00022462	1318.2	8.5719e-06	8.9195e-06	1313.2	356.36	8.922e-06	8.8738e-06	406.99	137.68	117.97	41.344	8.618e-06	51.555	482.478	253.045	232.764	168.203	282.380	306.323	167.666	172.606	257.921	317.014	171.975	176.274	176.807	181.738	276.658	180.851	-8191	255	
21400.814	1	1	0	0	0.086243	0.035259	0.083234	0.068379	0.025182	0.13394	0.083945	0.18996	0.15257	0.082395	0.14216	0.3093	0.21173	0.021996	0.13131	0.30122	-2.0229	-2.5438	-2.8542	-2.8479	-2.7458	-2.7979	-2.6854	-2.9208	-2.5438	-2.7	-3.0125	-2.6896	-2.85	-2.4729	-2.7083	-2.8042	198.044	492.412	342.475	284.489	470.882	301.148	383.444	436.844	357.603	356.475	167.992	509.137	378.069	199.392	228.824	463.690	0.0011276	0.00043014	0.00013039	1285.8	5.4265e-06	6.4008e-06	1284.4	346.99	5.5549e-06	4.1176e-06	396.33	133.76	114.9	39.845	4.6822e-06	49.495	0.00082497	0.00082323	0.0002235	1313.5	8.8168e-06	9.0761e-06	1311.3	354.86	8.7262e-06	9.0699e-06	406.55	137.02	117.65	41.231	8.6583e-06	51.499	481.148	249.441	240.419	168.038	272.627	325.495	167.620	172.645	268.633	318.859	172.110	176.208	176.673	181.982	259.522	180.636	-8191	255	
21400.934	1	1	0	0	0.070227	0.18141	0.12888	0.30896	0.23526	0.092609	0.15281	0.28549	0.38755	0.12728	0.24852	0.25848	0.15347	0.078712	0.14111	0.22252	-2.0979	-2.7375	-2.8625	-2.7917	-2.9458	-2.7625	-2.5083	-3.1146	-2.6375	-2.6771	-2.8812	-2.5771	-2.7542	-2.7792	-2.4229	-2.9188	413.959	380.903	475.646	166.435	173.325	274.930	213.174	402.707	485.230	325.651	493.264	510.131	212.662	512.582	218.610	511.786	0.0010754	0.00062961	0.00017463	1285.4	4.2847e-06	6.5509e-06	1281.1	346.6	9.2318e-06	4.7579e-06	396.08	133.89	114.62	39.82	4.2003e-06	49.636	0.00083792	0.0008365	0.00022869	1311.9	8.8571e-06	9.1735e-06	1308.8	354.44	8.7693e-06	9.1809e-06	405.84	137.01	117.48	41.23	8.9412e-06	51.461	481.052	225.683	225.435	168.085	283.960	315.978	167.726	172.640	274.118	289.415	172.236	176.242	176.898	181.771	279.030	180.874	-8191	255	
21401.029	1	1	0	0	0.069686	0.13336	0.1319	0.18624	0.17248	0.052586	0.033394	0.20502	0.11295	0.18234	0.33786	0.26083	0.11923	0.11923	0.1751	0.19441	-2.2146	-2.6708	-2.7313	-2.6354	-2.6083	-2.8187	-2.7208	-2.825	-2.7646	-2.5792	-2.9792	-2.5979	-2.5292	-2.8083	-2.3167	-3.1146	256.962	375.827	471.070	372.575	273.478	268.895	328.316	202.822	375.715	339.095	463.337	237.051	362.134	388.693	326.383	473.273	0.001195	0.00062989	0.00012466	1283.1	9.4368e-06	5.4214e-06	1279.1	345.44	8.1121e-06	8.4277e-07	393.78	133.32	114.51	39.856	6.4553e-06	49.593	0.00082862	0.00083771	0.00022906	1311.4	8.8457e-06	9.1528e-06	1308.1	353.84	8.7589e-06	9.2135e-06	405.25	137.1	117.45	41.22	8.7651e-06	51.467	478.960	244.513	250.123	168.129	284.131	307.153	167.946	172.713	263.711	277.205	172.141	176.234	176.669	181.681	278.041	180.845	-8191	255	
21401.127	1	1	0	0	0.24082	0.17153	0.12772	0.27479	0.038988	0.18396	0.13734	0.20764	0.24303	0.15655	0.16086	0.17786	0.13108	0.31095	0.16632	0.15134	-2.3	-2.4979	-2.8312	-2.7667	-2.6042	-2.8417	-2.4375	-2.8646	-2.8396	-2.7125	-2.8625	-2.6396	-2.8625	-2.9167	-2.6646	-2.7417	203.066	430.604	248.976	486.332	423.384	278.848	196.788	194.285	299.902	168.768	367.955	258.057	382.373	490.476	390.972	497.284	0.0011232	0.00036558	0.00012913	1284.6	6.9818e-06	6.1922e-06	1285.5	347.97	9.4333e-06	5.9674e-06	396.33	134.62	114.77	40.024	7.4055e-06	49.577	0.00084877	0.00084816	0.0002407	1311.8	9.0279e-06	9.1802e-06	1310.4	355.15	8.8618e-06	9.4221e-06	406.66	137.34	117.7	41.383	9.1816e-06	51.582	481.704	233.883	231.783	168.070	258.941	338.166	167.893	172.594	264.042	305.306	172.242	176.085	176.763	181.858	276.289	180.760	-8191	255	
21401.246	1	1	0	0	0.088056	0.10418	0.10662	0.10445	0.12105	0.1013	0.054711	0.18747	0.17065	0.18983	0.26517	0.11696	0.12893	0.27223	0.33823	0.1684	-2.3521	-2.4813	-2.9083	-2.8375	-2.6562	-2.8979	-2.8833	-2.7458	-2.8604	-2.6021	-2.9354	-3.0125	-2.4792	-2.9833	-2.7229	-2.8396	365.954	433.957	361.124	441.934	189.261	190.684	413.386	318.134	204.446	272.713	382.093	312.157	467.397	456.485	335.102	393.820	0.0011236	0.00076901	0.00011843	1283.9	7.0507e-06	5.2633e-06	1285.8	347.22	8.8001e-06	2.4417e-06	395.37	134.27	115.47	39.935	4.4347e-06	49.84	0.00083517	0.00084747	0.00023889	1313.7	8.995e-06	8.9571e-06	1311.2	355.38	8.8962e-06	9.276e-06	406.33	137.25	117.99	41.439	8.8643e-06	51.756	478.046	240.783	257.198	168.166	278.440	306.208	167.772	172.547	269.179	289.686	172.091	175.966	176.826	181.740	278.058	180.704	-8191	255	
21401.344	1	1	0	0	0.17243	0.24027	0.23705	0.17923	0.28902	0.16521	0.21665	0.13772	0.13415	0.15063	0.19253	0.21879	0.17371	0.15418	0.17763	0.29802	-2.1833	-2.5292	-2.7125	-2.7292	-2.5021	-2.875	-2.7958	-2.8	-2.9417	-2.5833	-2.8875	-2.8375	-2.6042	-2.9146	-2.5021	-2.7021	378.890	197.918	325.607	420.042	213.164	304.328	411.618	321.338	180.652	245.225	493.781	473.276	510.284	233.066	319.766	439.791	0.0011621	0.0007144	0.00015533	1289	4.865e-06	4.5507e-06	1287	347.55	8.9714e-06	3.7586e-06	395.6	134.44	115.38	40.172	7.0588e-06	49.865	0.00083097	0.00082345	0.00022695	1316.4	8.8978e-06	9.0019e-06	1314.4	355.87	8.8204e-06	8.9166e-06	407.43	137.78	118.3	41.538	8.58e-06	51.806	478.321	246.931	240.622	168.037	301.469	321.788	167.710	172.566	258.936	315.485	171.973	176.250	176.769	181.602	280.668	180.878	-8191	255	
21401.414	1	1	0	0	0.16514	0.15638	0.17859	0.13704	0.25559	0.11044	0.22199	0.015069	0.053319	0.28799	0.11215	0.037055	0.11143	0.23675	0.18641	0.23939	-2.4583	-2.7604	-2.7958	-3.0417	-2.5563	-2.8083	-2.8417	-2.7625	-2.8333	-2.6604	-3.0917	-2.8312	-2.5667	-2.8083	-2.9167	-2.6958	401.176	163.145	229.886	449.651	292.383	429.084	386.934	227.549	214.353	241.861	371.872	427.816	345.118	177.938	455.823	369.418	0.0011692	0.00059263	0.00018587	1294.6	5.4404e-06	3.9649e-06	1288.2	348.16	7.8158e-06	5.9024e-06	396.87	135.25	115.38	40.139	4.886e-06	49.864	0.00081572	0.00080364	0.00022367	1321	8.4006e-06	8.7605e-06	1315.8	356.69	8.4013e-06	8.8484e-06	407.89	137.88	118.35	41.52	8.542e-06	51.77	480.393	238.945	243.311	167.979	270.033	284.229	167.839	172.735	268.941	314.986	172.100	176.140	176.728	181.717	272.774	180.776	-8191	255	
21401.535	1	1	0	0	0.25848	0.14703	0.10309	0.097121	0.19292	0.15489	0.17117	0.22456	0.19059	0.17731	0.19745	0.20497	0.32814	0.063805	0.08279	0.20518	-2.5042	-2.6208	-2.6021	-2.9542	-2.5438	-2.8792	-2.8104	-2.7229	-2.8833	-2.6125	-2.9354	-2.8917	-2.5208	-2.7958	-2.7292	-2.6937	509.959	387.024	176.192	428.596	440.571	467.832	401.209	428.376	502.378	415.088	492.682	274.371	482.974	278.131	205.583	449.125	0.0011232	0.00042558	8.9101e-05	1290.9	5.1601e-06	4.0571e-06	1283.1	348.18	6.0629e-06	6.1593e-06	397.54	134.8	115.34	40.114	7.6583e-06	49.82	0.00078787	0.0008127	0.00022	1318	8.3244e-06	8.576e-06	1312.1	355.94	8.3926e-06	8.5005e-06	407.13	137.46	118.12	41.442	8.4356e-06	51.727	478.956	270.809	232.822	168.049	261.636	289.587	167.659	172.607	270.647	272.919	172.026	176.164	176.705	181.757	293.109	180.859	-8191	255	
21401.631	1	1	0	0	0.059371	0.13201	0.12215	0.14394	0.10349	0.25385	0.23742	0.11853	0.18616	0.092748	0.11496	0.1622	0.3453	0.16234	0.077765	0.10085	-2.4979	-2.7062	-2.7292	-3.0375	-2.6646	-2.9083	-2.8458	-2.6792	-2.8688	-2.6875	-2.7313	-2.8958	-2.6958	-2.9542	-2.6	-2.5	316.133	187.958	439.138	447.824	368.251	509.373	414.159	263.738	306.821	179.116	354.855	448.693	493.864	173.014	494.629	459.228	0.001153	0.00056061	0.0001268	1287.5	5.8956e-06	7.0242e-06	1288.2	348.11	7.217e-06	4.5528e-06	396.95	134.52	115.72	40.146	6.4208e-06	49.832	0.00080447	0.00080294	0.00022108	1315.5	8.5049e-06	8.6097e-06	1314.4	356.05	8.5177e-06	8.8854e-06	407.61	137.47	118.26	41.484	8.4107e-06	51.757	479.903	245.835	257.880	167.856	273.657	299.986	167.747	172.575	264.669	304.239	172.147	176.222	176.437	181.781	302.493	180.523	-8191	255	
21401.727	1	1	0	0	0.22928	0.11374	0.18203	0.033324	0.20102	0.26132	0.14385	0.042909	0.13778	0.10317	0.33882	0.22291	0.18495	0.14748	0.046233	0.18927	-2.3917	-2.5854	-2.5167	-2.8187	-2.5583	-2.8646	-2.9813	-2.5104	-2.9062	-2.7167	-2.5854	-2.9938	-2.5292	-2.7979	-2.6625	-2.5375	182.880	174.796	496.480	380.456	359.640	508.001	444.023	177.561	308.334	290.923	452.327	501.686	275.468	495.637	332.083	372.959	0.0011387	0.00038008	0.00012074	1293.7	5.1536e-06	4.7912e-06	1287.7	348.59	6.8408e-06	5.8288e-06	396.49	134.61	115.87	40.127	6.2284e-06	49.749	0.00080472	0.00080654	0.00022052	1318.2	8.5767e-06	8.5957e-06	1315.6	356.12	8.4122e-06	8.5649e-06	407.33	137.66	118.3	41.49	8.4587e-06	51.701	480.320	217.892	247.754	168.071	286.617	292.048	167.649	172.628	253.218	311.766	172.133	176.150	176.776	181.938	269.583	180.603	-8191	255	
21401.846	1	1	0	0	0.24614	0.081011	0.2013	0.31256	0.18461	0.22377	0.11309	0.21253	0.19976	0.20759	0.31496	0.16275	0.1212	0.12025	0.10386	0.24655	-2.2854	-2.4542	-2.575	-2.975	-2.5167	-2.6542	-2.8854	-2.7104	-2.6292	-2.8354	-2.5812	-2.8812	-2.6542	-2.8083	-2.8	-2.7396	183.069	362.780	259.392	162.684	493.226	190.599	171.250	488.459	234.024	443.659	435.837	397.938	492.394	334.187	244.237	441.731	0.0011463	0.00058587	0.00010628	1294.7	6.3729e-06	5.3765e-06	1287.5	346.92	7.0808e-06	3.9417e-06	397.96	134.56	115.54	40.209	6.7193e-06	49.965	0.00080877	0.00078465	0.0002209	1318.9	8.4401e-06	8.7509e-06	1315	356.35	8.3638e-06	8.6499e-06	407.55	137.63	118.08	41.537	8.6646e-06	51.719	480.276	242.653	230.306	168.125	276.442	332.907	167.657	172.488	248.855	279.684	172.137	176.142	176.589	181.587	278.701	180.855	-8191	255	
21401.943	1	1	0	0	0.13804	0.29993	0.15609	0.34562	0.383	0.14476	0.21292	0.14174	0.14599	0.12065	0.32416	0.24678	0.0099848	0.13558	0.042168	0.036209	-2.4521	-2.8479	-2.5458	-3.0062	-2.7271	-2.4583	-3.0146	-2.7333	-2.7604	-2.7042	-2.7854	-2.8479	-2.675	-2.6562	-2.9271	-2.7479	330.199	288.548	445.219	483.490	231.245	248.590	485.424	509.543	239.009	407.544	328.890	476.979	209.192	282.705	447.893	165.708	0.0011538	0.00043214	0.00015266	1291.4	5.4872e-06	4.4417e-06	1288.7	346.86	6.9342e-06	3.847e-06	397.71	134.79	116.19	40.083	4.4364e-06	49.617	0.0008143	0.00077771	0.00022291	1319	8.4015e-06	8.6902e-06	1315.7	355.98	8.4715e-06	8.8287e-06	407.61	137.54	118.23	41.508	8.4283e-06	51.75	481.095	247.221	247.242	168.074	250.632	310.026	167.631	172.612	262.038	305.675	171.970	176.173	176.689	181.682	274.782	180.838	-8191	255	
21402.014	1	1	0	0	0.083001	0.12228	0.10288	0.22751	0.29981	0.32746	0.073953	0.2333	0.22906	0.11789	0.1657	0.1451	0.042348	0.055666	0.1022	0.25228	-2.3958	-2.7229	-2.6208	-2.9771	-2.775	-2.6458	-2.9896	-2.7292	-2.6958	-2.95	-2.7313	-3.0792	-2.8187	-2.5375	-2.8333	-2.8604	241.901	269.012	383.866	454.167	483.201	364.483	458.098	417.541	397.896	496.032	452.066	170.354	322.411	477.148	211.367	408.505	0.001092	0.000638	0.0001365	1293.3	6.2716e-06	3.6063e-06	1285.9	347.78	8.484e-06	3.3744e-06	396.41	134.53	115.36	40.21	4.4714e-06	49.971	0.00080849	0.00079427	0.00022262	1321.9	8.3362e-06	8.5803e-06	1314.6	356.47	8.3734e-06	8.709e-06	408.03	137.42	118.11	41.505	8.4895e-06	51.79	480.560	255.630	238.195	168.257	267.376	311.954	167.659	172.455	254.692	316.071	172.126	176.310	176.743	181.693	282.135	180.765	-8191	255	
21402.109	1	1	0	0	0.082212	0.17858	0.10707	0.078094	0.096878	0.14326	0.23067	0.10751	0.041845	0.21093	0.37022	0.073862	0.25021	0.094996	0.16129	0.443	-2.4208	-2.8083	-2.6	-2.8875	-2.8604	-2.7479	-3.1	-2.75	-2.7083	-3.0312	-2.7042	-2.7938	-2.9229	-2.5542	-2.8208	-2.7625	241.638	356.159	290.717	245.467	452.602	378.061	454.594	172.210	399.150	163.893	500.694	174.270	438.291	194.358	502.680	442.176	0.0011974	0.00056103	0.00017699	1293.2	5.9293e-06	2.5894e-06	1287.5	348.93	7.2005e-06	4.9954e-06	397.9	134.9	115.76	40.15	4.8238e-06	49.952	0.00079968	0.0007869	0.00022252	1320.7	8.5715e-06	8.6165e-06	1316	356.65	8.2081e-06	8.575e-06	408.08	137.67	118.41	41.507	8.494e-06	51.775	479.449	231.993	208.637	168.081	292.541	320.553	167.482	172.597	249.191	328.882	172.266	176.431	176.700	181.732	284.233	180.712	-8191	255	
21402.230	1	1	0	0	0.1413	0.043113	0.047115	0.26698	0.11381	0.15274	0.088263	0.53262	0.020377	0.023067	0.013082	0.28241	0.13256	0.19116	0.16774	0.26644	-2.5708	-3.0542	-2.6396	-3.1146	-2.6979	-2.7021	-2.9729	-2.8563	-2.4521	-2.7896	-2.7792	-2.8479	-2.7979	-2.6792	-3.0396	-2.7854	231.321	392.249	422.093	491.894	387.689	324.963	269.524	461.414	306.537	294.307	284.562	447.488	482.823	506.468	492.713	352.288	0.0011496	0.00039578	0.00012619	1295.8	4.2909e-06	4.7021e-06	1288.7	347.07	6.3151e-06	6.3935e-06	397.15	134.68	115.67	40.228	6.1716e-06	49.903	0.0008109	0.00078889	0.00022056	1319.8	8.3051e-06	8.669e-06	1315.8	355.95	8.3973e-06	8.6797e-06	407.64	137.71	118.22	41.541	8.3636e-06	51.808	478.280	255.635	226.744	168.115	278.751	297.358	167.764	172.595	264.335	337.846	172.201	176.081	176.629	181.796	297.408	180.734	-8191	255	
21402.326	1	1	0	0	0.17132	0.071779	0.12555	0.093106	0.054202	0.21267	0.074533	0.11968	0.13574	0.10643	0.31835	0.097644	0.2685	0.051409	0.06674	0.2572	-2.1792	-2.8604	-2.6833	-2.75	-2.7687	-2.6333	-3.0875	-2.8167	-2.7062	-3.0292	-2.725	-2.7021	-2.9188	-2.65	-2.9813	-2.6875	311.924	321.852	461.599	449.763	364.474	251.389	176.105	272.949	220.640	184.379	449.234	163.302	408.684	216.219	288.348	465.857	0.0011175	0.00047261	0.00012621	1295	5.4436e-06	5.2864e-06	1292.3	348.56	1.0287e-05	3.4072e-06	397.89	134.66	116.01	40.218	4.886e-06	49.889	0.00079241	0.00079414	0.00021704	1320	8.281e-06	8.5461e-06	1318.7	356.78	8.4396e-06	8.5711e-06	408.33	137.88	118.41	41.556	8.5451e-06	51.845	478.130	216.261	238.756	168.135	283.250	295.121	167.625	172.445	283.183	280.427	172.166	176.281	176.833	181.755	281.640	180.915	-8191	255	
21402.424	1	1	0	0	0.015593	0.057241	0.033555	0.36618	0.21938	0.10464	0.10401	0.076497	0.12625	0.14211	0.32073	0.037933	0.092489	0.18237	0.062022	0.22955	-2.3042	-2.8583	-2.525	-2.7125	-2.9229	-2.5396	-2.9271	-2.8917	-2.5875	-2.8521	-2.775	-2.7438	-2.9562	-2.8292	-2.7979	-2.875	256.535	199.796	490.628	477.196	367.743	156.434	485.750	393.283	354.085	243.484	490.584	488.171	258.298	161.893	258.754	492.294	0.0011874	0.00055577	7.8099e-05	1292.3	4.8876e-06	5.2773e-06	1288.8	348.96	7.0363e-06	3.378e-06	397.51	134.74	115.51	40.296	5.0623e-06	49.837	0.00081375	0.00078603	0.00021992	1320.2	8.3722e-06	8.6521e-06	1316.1	356.57	8.5735e-06	8.4923e-06	407.77	137.79	118.28	41.575	8.6651e-06	51.821	478.719	250.471	225.922	168.027	301.006	295.200	167.895	172.669	264.488	321.526	171.966	176.026	176.695	181.740	293.725	180.973	-8191	255	
21402.520	1	1	0	0	0.20983	0.11296	0.13346	0.43502	0.16191	0.085281	0.16337	0.11717	0.17303	0.17769	0.16854	0.42057	0.36282	0.13869	0.1504	0.08572	-2.1042	-2.9667	-2.8271	-2.8417	-2.9437	-2.7	-2.8417	-2.9104	-2.7604	-2.9667	-2.8146	-2.7229	-2.9437	-2.7354	-2.9583	-2.725	244.379	477.341	359.462	497.108	275.992	186.063	490.832	428.364	420.958	221.072	415.035	376.230	156.644	461.494	423.359	446.531	0.0011968	0.00041509	0.00010792	1294.4	7.1286e-06	2.199e-06	1290.7	347.99	1.0478e-05	4.0885e-06	396.8	134.81	115.78	40.076	5.5715e-06	50.105	0.00081356	0.00079193	0.00021925	1320.9	8.3082e-06	8.6218e-06	1317.6	356.29	8.4152e-06	8.6168e-06	407.56	137.74	118.38	41.529	8.3505e-06	51.894	482.362	225.482	234.767	168.048	271.589	307.420	167.665	172.692	252.505	325.491	172.343	176.137	176.765	181.659	266.018	180.830	-8191	255	
21402.613	1	1	0	0	0.18733	0.053823	0.19347	0.10671	0.14176	0.14269	0.22818	0.23167	0.050938	0.072784	0.1794	0.10281	0.25306	0.037564	0.078283	0.26114	-2.1625	-2.7729	-2.6479	-2.8542	-2.9521	-2.5604	-2.925	-2.8812	-2.5458	-3.0187	-2.8542	-2.5104	-2.9771	-2.7646	-2.7417	-2.7958	456.699	467.255	222.376	460.126	252.133	362.178	169.581	448.956	414.213	345.993	498.612	215.057	501.701	467.614	172.342	187.371	0.0011797	0.00049165	0.00011741	1290.9	3.9793e-06	6.7248e-06	1291	348.35	7.0115e-06	4.8358e-06	398.15	134.94	115.43	40.132	5.0643e-06	49.998	0.00080574	0.00079249	0.00022021	1320.5	8.4313e-06	8.8362e-06	1317.6	356.77	8.5884e-06	8.6788e-06	408	137.96	118.37	41.482	8.455e-06	51.859	478.336	236.797	231.181	168.105	230.351	303.167	167.790	172.439	262.619	306.014	172.059	176.072	176.460	181.901	271.469	180.883	-8191	255	
21402.711	1	1	0	0	0.058852	0.16564	0.075241	0.23426	0.14995	0.09859	0.35425	0.079829	0.076009	0.093544	0.24447	0.14934	0.15234	0.10931	0.10212	0.16831	-2.0458	-2.6958	-2.7479	-2.8	-3.0708	-2.7083	-2.8271	-3.0271	-2.5917	-2.7646	-2.8583	-2.6333	-2.7771	-2.5646	-2.5979	-3.0021	443.518	288.612	423.179	512.340	244.967	493.827	462.809	228.737	191.706	262.334	452.327	433.928	500.913	223.163	446.128	402.108	0.0011548	0.0004357	0.00011603	1291.5	6.6999e-06	4.4834e-06	1295.3	348.74	8.5276e-06	4.7244e-06	397.26	134.87	115.12	40.032	6.7491e-06	50.003	0.00081878	0.00080242	0.00021918	1320.3	8.4138e-06	8.7099e-06	1317.2	356.62	8.5177e-06	8.5466e-06	408.2	137.83	118.14	41.499	8.4256e-06	51.801	480.193	236.295	220.888	168.299	271.350	325.223	167.883	172.768	264.651	334.746	172.148	176.116	176.661	181.549	287.161	180.988	-8191	255	
21402.807	1	1	0	0	0.038879	0.15074	0.16785	0.23258	0.23246	0.19112	0.11778	0.069459	0.10896	0.18088	0.12667	0.21671	0.16094	0.23285	0.24978	0.15409	-2.2188	-2.7542	-2.6875	-2.7687	-2.7396	-2.7	-2.9313	-2.7708	-2.6354	-2.7854	-2.9313	-2.6437	-2.6583	-2.6375	-2.4604	-2.9375	475.716	509.434	257.143	493.287	352.371	477.472	487.431	420.226	443.825	507.320	482.273	499.519	272.586	419.680	183.760	438.220	0.0011378	0.00048477	6.9359e-05	1292.9	7.5497e-06	6.666e-06	1290.3	348.93	8.4458e-06	6.0541e-06	396.99	134.87	115.63	40.223	5.5204e-06	49.852	0.00079863	0.00080754	0.00022064	1319.7	8.5421e-06	8.787e-06	1317.1	356.78	8.5696e-06	8.834e-06	407.71	137.83	118.26	41.501	8.4089e-06	51.814	475.777	211.992	231.031	168.122	277.886	329.178	167.699	172.642	267.421	306.229	172.037	175.864	176.672	181.629	275.606	180.894	-8191	255	
21402.928	1	1	0	0	0.21483	0.11274	0.22053	0.23904	0.11037	0.22435	0.08941	0.13967	0.23467	0.21532	0.12076	0.14987	0.13235	0.20622	0.27534	0.20597	-2.125	-2.7042	-2.8229	-2.7375	-2.9917	-2.8104	-2.7542	-2.9333	-2.6063	-2.575	-2.8563	-2.6875	-2.7896	-2.8	-2.7479	-2.9146	448.233	400.662	439.011	183.903	335.582	416.691	431.577	176.896	378.326	281.139	502.660	176.906	494.059	510.481	410.595	411.448	0.001204	0.0006628	0.00015387	1296.6	5.2441e-06	7.3237e-06	1293.8	348.34	5.244e-06	4.7323e-06	396.68	134.76	115.38	40.142	4.4825e-06	49.788	0.00080932	0.00080381	0.00022074	1322.3	8.3257e-06	8.8208e-06	1320.2	357.14	8.4963e-06	8.7677e-06	407.4	137.88	118.19	41.573	8.5388e-06	51.769	480.541	273.019	241.659	168.029	287.042	314.017	167.860	172.654	249.467	290.762	172.180	176.113	176.693	181.740	284.919	181.063	-8191	255	
21403.021	1	1	0	0	0.062558	0.043618	0.085541	0.2794	0.1156	0.21405	0.06035	0.13177	0.16901	0.12199	0.26619	0.15356	0.22706	0.34098	0.13029	0.13388	-2.0187	-2.6188	-2.9021	-2.7208	-2.9375	-2.6521	-2.6312	-3.0812	-2.6625	-2.6562	-2.925	-2.6042	-2.8417	-3.0208	-2.6396	-2.7854	444.104	246.126	381.536	463.195	387.353	299.081	322.608	182.427	290.471	309.584	185.552	435.208	458.189	458.788	165.726	440.851	0.0011561	0.00060195	0.0001399	1294.3	6.8927e-06	3.3659e-06	1293.2	348.81	8.247e-06	4.0888e-06	396.73	134.65	115.66	40.054	6.8232e-06	49.807	0.00082321	0.00079592	0.0002212	1320.1	8.5303e-06	8.7345e-06	1317.4	356.66	8.5491e-06	8.7826e-06	407.82	137.5	118.13	41.477	8.5823e-06	51.677	477.939	218.657	246.199	168.104	273.002	293.016	167.655	172.455	269.045	296.740	172.246	176.004	176.383	181.656	287.684	180.800	-8191	255	
21403.117	1	1	0	0	0.21796	0.096841	0.0787	0.1753	0.036613	0.21473	0.065673	0.12843	0.12102	0.17363	0.26044	0.27875	0.20867	0.056507	0.17541	0.21587	-2.3146	-2.6729	-2.7625	-2.8667	-2.9417	-2.7938	-2.7833	-3.0896	-2.6771	-2.5438	-2.9688	-2.7125	-2.6917	-3	-2.5417	-2.9021	448.823	352.763	342.591	418.679	272.949	218.937	231.086	423.112	325.645	331.294	496.252	198.163	185.366	461.113	388.449	430.545	0.0011513	0.00053939	0.00014212	1292	7.3214e-06	5.8969e-06	1289.4	348.18	7.2937e-06	6.1737e-06	396.14	134.24	115.35	40.157	6.2936e-06	49.838	0.00081084	0.00078707	0.0002206	1319.4	8.5474e-06	8.8184e-06	1316.9	356.64	8.4846e-06	8.9445e-06	407.4	137.78	118.47	41.519	8.5945e-06	51.703	476.863	235.825	254.253	168.150	284.718	308.297	167.615	172.501	262.442	303.598	172.038	176.263	176.649	181.833	276.793	180.755	-8191	255	
21403.215	1	1	0	0	0.075742	0.21546	0.1612	0.23666	0.24721	0.23593	0.14571	0.022485	0.13792	0.1409	0.20983	0.36698	0.14202	0.20355	0.10146	0.066412	-2.2375	-2.5312	-2.8937	-2.9458	-2.8125	-3	-2.6875	-2.85	-2.85	-2.5604	-3.0417	-2.6688	-2.5354	-2.8063	-2.6979	-2.8146	228.691	470.895	476.985	422.695	414.490	200.666	448.682	184.254	213.757	480.776	451.588	435.233	511.560	479.338	469.978	336.514	0.0011509	0.00072243	0.00014049	1293.9	6.3112e-06	6.284e-06	1289.8	349.08	9.458e-06	5.5241e-06	398.18	135.19	114.96	40.193	5.3844e-06	49.82	0.00081922	0.0008208	0.00022523	1320.6	8.4488e-06	8.7841e-06	1318.1	356.51	8.5395e-06	8.7638e-06	408	137.85	118.13	41.529	8.5297e-06	51.752	476.986	249.554	250.433	168.279	266.738	316.477	167.576	172.488	258.985	309.098	172.309	176.174	176.847	181.640	295.158	180.983	-8191	255	
21403.311	1	1	0	0	0.26125	0.31255	0.13469	0.46531	0.23288	0.10715	0.16943	0.22832	0.12729	0.14894	0.2204	0.16305	0.075202	0.14538	0.15323	0.19462	-2.3479	-2.4479	-2.7792	-2.8104	-2.7604	-2.8688	-2.9229	-2.8333	-2.8	-2.5646	-2.9417	-2.7833	-2.6167	-2.9729	-2.5542	-2.6854	178.775	481.340	357.225	481.513	491.047	381.023	413.181	483.761	479.616	373.358	462.318	384.218	259.623	170.950	305.481	497.015	0.0011755	0.0006101	0.00016734	1292.1	5.6339e-06	5.6433e-06	1292.1	348.55	9.4134e-06	4.1367e-06	398.46	134.34	115.46	40.144	6.3444e-06	49.894	0.00080803	0.00081426	0.00022624	1321.3	8.8457e-06	8.9321e-06	1318.1	356.41	8.574e-06	8.9555e-06	408.39	137.73	118.14	41.535	8.7158e-06	51.749	479.898	241.909	247.141	168.077	261.076	287.418	167.903	172.610	274.729	325.379	172.073	176.160	176.771	181.793	272.616	180.994	-8191	255	
21403.406	1	1	0	0	0.21012	0.059217	0.20861	0.1298	0.16709	0.13549	0.043198	0.2533	0.16278	0.12846	0.25149	0.15543	0.07504	0.15252	0.1076	0.15506	-2.2333	-2.6292	-2.8146	-2.8312	-2.5	-2.8958	-2.8187	-2.7979	-2.7	-2.5062	-2.8375	-2.8167	-2.6271	-2.8604	-2.6792	-2.6417	460.016	239.060	271.290	455.934	248.221	300.762	508.397	505.646	367.165	201.669	454.473	419.482	310.741	500.455	164.905	469.620	0.0011558	0.0005559	0.00016442	1292.3	7.6368e-06	5.6757e-06	1292.7	348.11	7.853e-06	3.1044e-06	396.8	134.7	115.48	40.03	4.4246e-06	49.786	0.00081285	0.00081872	0.00022152	1322.3	8.6048e-06	8.7856e-06	1319.1	356.73	8.5151e-06	8.8143e-06	407.7	137.79	118.42	41.49	8.6542e-06	51.784	478.592	234.382	249.893	168.068	286.423	289.166	167.702	172.833	259.297	294.759	172.097	176.040	176.476	181.870	248.389	180.771	-8191	255	
21403.527	1	1	0	0	0.070178	0.38397	0.11831	0.096502	0.30767	0.20511	0.33143	0.29618	0.13011	0.086024	0.10899	0.13947	0.24069	0.29407	0.22669	0.20707	-2.2438	-2.6562	-2.5729	-2.7938	-2.4854	-2.6208	-2.8604	-2.625	-2.6979	-2.4667	-2.8417	-2.7479	-2.6396	-2.7521	-2.5667	-2.4375	396.175	401.937	278.671	302.420	248.331	195.908	425.562	437.461	375.575	336.315	248.623	508.673	335.000	447.342	254.463	443.408	0.0011996	0.00052888	0.00014606	1292.5	6.1888e-06	5.4979e-06	1291.1	348.79	8.1377e-06	4.7884e-06	397.47	134.68	115.83	40.215	5.9833e-06	49.83	0.00082543	0.00081556	0.00022724	1320.8	8.4874e-06	9.0048e-06	1318.5	356.78	8.7083e-06	8.9007e-06	408.52	137.76	118.47	41.599	8.695e-06	51.783	479.359	234.452	225.534	168.145	269.807	279.921	167.636	172.653	260.463	306.536	172.304	176.101	176.970	181.611	275.246	180.765	-8191	255	
21403.623	1	1	0	0	0.16711	0.096607	0.031963	0.11043	0.34932	0.11039	0.26028	0.17882	0.23764	0.11759	0.24533	0.18687	0.15979	0.35316	0.33524	0.17308	-2.5021	-2.3375	-2.6792	-2.7917	-2.525	-2.9375	-2.95	-2.6375	-2.8229	-2.5875	-2.8646	-2.8792	-2.6813	-2.8292	-2.6562	-2.6958	471.931	453.583	462.535	335.147	164.964	210.147	479.243	482.155	242.240	305.897	310.453	439.632	215.099	355.302	154.988	308.067	0.0012454	0.00082773	0.00019525	1294.4	6.3918e-06	4.8709e-06	1291.5	348.88	7.1999e-06	5.0148e-06	397.79	134.71	115.48	40.176	4.0715e-06	49.849	0.00082386	0.00081877	0.00022419	1322.8	8.5364e-06	8.9986e-06	1319.5	356.96	8.5626e-06	8.8618e-06	408.35	137.7	118.23	41.497	8.8204e-06	51.72	478.979	245.714	244.610	168.051	271.802	343.475	167.842	172.533	264.922	324.842	172.238	176.422	176.494	181.795	278.222	180.624	-8191	255	
21403.719	1	1	0	0	0.18412	0.18167	0.13879	0.14757	0.28937	0.1931	0.17594	0.15614	0.11019	0.17922	0.25793	0.19698	0.21582	0.17798	0.02772	0.10055	-2.4604	-2.5479	-2.6208	-2.8833	-2.6146	-2.8104	-2.8354	-2.5687	-2.8875	-2.5521	-2.7979	-2.8875	-2.5042	-2.8271	-2.7875	-2.5354	358.454	166.864	466.830	423.402	360.748	345.524	415.245	180.949	445.179	414.876	214.303	428.574	170.898	206.125	284.553	462.875	0.001201	0.00051246	0.00010323	1295.2	7.6824e-06	3.287e-06	1293.8	348.75	5.9694e-06	4.6689e-06	396.78	134.37	116.01	40.111	6.0641e-06	49.836	0.00082398	0.0008202	0.00022846	1322.6	8.7519e-06	9.1629e-06	1320	356.59	8.6712e-06	9.0074e-06	407.51	137.57	118.45	41.543	8.7986e-06	51.711	476.888	255.204	238.281	168.074	284.147	339.079	167.582	172.584	252.500	290.183	172.052	176.062	176.585	181.696	262.293	180.722	-8191	255	
21403.814	1	1	0	0	0.1324	0.23287	0.15498	0.20944	0.060682	0.082277	0.060016	0.29352	0.059717	0.18586	0.099796	0.095841	0.22461	0.13565	0.25405	0.30776	-2.2562	-2.5792	-2.5687	-3.0396	-2.5521	-2.6937	-3.1562	-2.675	-2.7333	-2.6396	-2.6333	-2.8292	-2.575	-2.7646	-2.525	-2.7125	485.779	346.395	441.903	447.207	327.168	197.361	314.333	454.447	192.341	255.471	311.754	179.268	439.358	380.418	199.570	464.634	0.0011499	0.00053565	0.00013886	1293.3	4.4532e-06	3.127e-06	1293.1	349.35	7.5744e-06	3.0612e-06	397.7	134.9	115.63	40.186	5.4997e-06	50.015	0.00082342	0.00080112	0.00022508	1322.2	8.5627e-06	9.1311e-06	1319.3	356.79	8.7619e-06	8.8613e-06	408.46	137.62	118.26	41.537	8.5402e-06	51.727	480.414	283.393	253.617	168.123	288.485	296.935	167.644	172.649	254.807	305.144	172.132	176.043	176.590	181.634	290.444	180.807	-8191	255	
21403.908	1	1	0	0	0.13647	0.1362	0.099735	0.24226	0.24684	0.23112	0.37787	0.26408	0.33264	0.18863	0.33792	0.17786	0.19696	0.08825	0.18252	0.093107	-2.4583	-2.5042	-2.5354	-2.9917	-2.4458	-2.5604	-3.0563	-2.6667	-2.8563	-2.7708	-2.5104	-2.8896	-2.7167	-2.6146	-2.9167	-2.7438	428.991	478.169	208.705	187.920	486.853	259.553	411.616	465.656	239.729	510.850	498.504	493.280	170.657	368.941	286.592	404.843	0.001118	0.00058776	0.00012349	1294.9	6.7051e-06	4.7162e-06	1293.1	347.74	7.8426e-06	2.4822e-06	397.39	134.62	115.17	40.053	5.5059e-06	49.866	0.00081659	0.00080784	0.00023085	1321.4	8.4983e-06	8.9841e-06	1319.6	356.45	8.744e-06	8.8503e-06	408.3	137.71	118.4	41.501	8.6456e-06	51.753	479.157	232.945	242.299	168.100	264.497	294.659	167.853	172.575	262.567	333.730	172.237	176.100	176.692	181.711	276.229	180.910	-8191	255	
21404.006	1	1	0	0	0.057396	0.11013	0.13132	0.35272	0.15128	0.04666	0.10676	0.19524	0.095239	0.19371	0.34045	0.16793	0.26911	0.19571	0.18801	0.17332	-2.3125	-2.6625	-2.6104	-3.0542	-2.5333	-2.6042	-3.0187	-2.5583	-2.7438	-2.6125	-2.5979	-2.8708	-2.6583	-2.6625	-2.8833	-2.6854	402.900	252.260	257.791	160.719	500.650	221.475	410.947	199.561	212.862	479.957	449.511	229.214	451.938	470.415	443.131	169.643	0.0011919	0.00048142	8.2707e-05	1296	3.0318e-06	4.8702e-06	1290.2	348.97	8.2166e-06	6.3136e-06	398.89	134.92	115.63	40.196	6.0408e-06	49.801	0.00081226	0.00081621	0.00022459	1322.6	8.5938e-06	8.8694e-06	1318.6	357.14	8.6189e-06	8.759e-06	408.77	137.99	118.4	41.576	8.6108e-06	51.771	482.242	238.164	243.233	168.160	292.141	296.397	167.743	172.606	253.273	309.520	172.059	176.018	176.717	181.794	280.680	180.808	-8191	255	
21404.102	1	1	0	0	0.14716	0.12723	0.1968	0.1193	0.21064	0.12444	0.37465	0.069675	0.37519	0.19784	0.44026	0.1768	0.0095899	0.18106	0.24633	0.24222	-2.3563	-2.6688	-2.5146	-2.9813	-2.6437	-2.5792	-3.0708	-2.7354	-2.7521	-2.9583	-2.575	-2.9375	-2.6854	-2.7458	-2.875	-2.5146	296.883	308.448	420.085	161.992	440.477	402.190	492.089	471.434	215.886	170.894	505.432	478.199	221.973	493.641	427.306	477.146	0.0011917	0.0006461	0.00012682	1295.8	5.0891e-06	2.7883e-06	1291.7	347.38	6.765e-06	4.8615e-06	397.11	135.13	115.57	40.023	5.6123e-06	49.875	0.00082806	0.00080936	0.00022701	1319.9	8.6039e-06	8.9036e-06	1318.6	356.33	8.5853e-06	8.5596e-06	407.57	137.95	118.46	41.49	8.5347e-06	51.726	479.326	250.192	234.957	168.070	271.625	362.752	167.829	172.591	257.862	309.065	172.101	176.071	176.865	181.607	294.939	180.629	-8191	255	
21404.197	1	1	0	0	0.071128	0.12453	0.087852	0.19173	0.07248	0.068003	0.48183	0.040542	0.33831	0.096472	0.12614	0.053444	0.19064	0.1607	0.17532	0.16822	-2.3229	-2.5625	-2.4688	-2.7958	-2.7125	-2.4167	-3.0083	-2.8208	-2.5542	-3.0167	-2.6042	-2.7562	-2.8167	-2.5208	-2.8292	-2.6896	472.354	468.171	195.781	482.015	167.197	184.322	159.893	282.939	421.785	318.375	514.256	287.373	220.800	443.889	505.476	159.750	0.0012032	0.00047983	7.8133e-05	1294.4	4.4353e-06	4.0289e-06	1290.7	347.9	7.3979e-06	6.1745e-06	398.12	134.37	115.6	40.248	4.3965e-06	49.757	0.00081279	0.00080507	0.00022542	1322.2	8.5176e-06	8.7408e-06	1318	356.34	8.4881e-06	8.637e-06	408.23	137.75	118.32	41.57	8.4397e-06	51.792	478.399	211.070	233.952	168.030	283.024	311.678	167.767	172.559	259.860	304.022	172.245	176.180	176.556	181.483	285.824	180.868	-8191	255	
21404.295	1	1	0	0	0.2192	0.08902	0.21166	0.2629	0.11426	0.15332	0.29861	0.21253	0.068961	0.14415	0.15886	0.26203	0.071539	0.32699	0.28977	0.095292	-2.1688	-2.6354	-2.6188	-2.7979	-2.7208	-2.6021	-2.8708	-2.7271	-2.7333	-2.8708	-2.6688	-2.7125	-2.5563	-2.6875	-2.7708	-2.8833	253.436	195.794	195.295	483.902	398.138	389.299	459.047	451.120	386.052	396.977	472.419	464.695	333.650	161.440	183.026	422.579	0.0012088	0.00038414	0.00010031	1294.2	6.689e-06	5.5766e-06	1291.3	349.89	7.6562e-06	5.1048e-06	397.09	134.97	115.74	40.084	4.0453e-06	49.719	0.00082151	0.00078512	0.00022114	1320.8	8.4282e-06	8.8179e-06	1319.7	357.18	8.5386e-06	8.709e-06	407.94	137.87	118.44	41.527	8.6769e-06	51.751	478.794	243.202	260.376	168.057	265.299	332.790	167.721	172.569	261.884	290.215	172.143	176.254	176.598	182.020	304.672	180.679	-8191	255	
21404.414	1	1	0	0	0.027534	0.21293	0.25847	0.039015	0.18157	0.18094	0.33379	0.30118	0.27655	0.10829	0.18868	0.34942	0.15191	0.29636	0.18384	0.10859	-2.2521	-2.7854	-2.5646	-2.7854	-2.775	-2.6562	-2.9479	-2.8729	-2.6458	-2.9083	-2.6979	-2.775	-2.9396	-2.5958	-2.8542	-2.8187	486.893	465.507	248.949	390.151	513.094	316.481	498.625	423.173	187.414	453.705	235.241	190.608	262.703	157.773	503.839	480.944	0.0011381	0.00036972	0.00013712	1294.5	7.1496e-06	4.8696e-06	1288.6	349.55	7.0348e-06	4.2624e-06	398.1	134.27	115.31	40.271	5.0344e-06	49.675	0.00082253	0.0007761	0.00022898	1321.5	8.681e-06	8.8203e-06	1317.2	357.02	8.611e-06	8.6427e-06	407.97	137.68	118.16	41.574	8.4718e-06	51.734	478.675	270.591	223.191	168.055	263.597	303.588	167.832	172.567	251.864	289.782	171.842	176.164	176.653	181.772	263.341	180.794	-8191	255	
21404.512	1	1	0	0	0.16048	0.23542	0.23745	0.14132	0.15388	0.27757	0.20227	0.15543	0.22671	0.14511	0.085629	0.18534	0.15366	0.12068	0.16074	0.22658	-2.0375	-2.8479	-2.65	-2.7125	-2.7375	-2.5354	-2.9125	-2.8667	-2.5312	-2.9792	-2.7875	-2.7125	-2.9188	-2.6729	-2.8271	-2.9646	155.250	393.912	251.310	420.561	494.721	324.680	392.670	426.557	414.347	198.840	277.384	209.856	459.987	311.585	184.487	499.156	0.0011879	0.00063434	8.741e-05	1297.1	4.1567e-06	6.3514e-06	1290.4	348.77	7.2862e-06	4.0035e-06	398.64	134.74	116.52	40.146	6.1059e-06	50.116	0.00082624	0.00081027	0.00022072	1322.3	8.4072e-06	8.7254e-06	1319	356.48	8.3686e-06	8.6893e-06	408.26	137.75	118.36	41.58	8.6814e-06	51.857	480.861	254.989	248.346	168.044	316.380	312.982	167.942	172.369	264.602	303.541	172.004	176.238	176.863	181.716	268.969	180.588	-8191	255	
21404.607	1	1	0	0	0.090833	0.16891	0.10143	0.49431	0.26129	0.17924	0.3235	0.063846	0.14793	0.0787	0.11332	0.18229	0.25346	0.27995	0.29171	0.38791	-2.0271	-2.9333	-2.5812	-2.7875	-3	-2.6896	-2.7854	-2.9313	-2.525	-2.9583	-2.8521	-2.7396	-2.7417	-2.6292	-2.7417	-2.9146	373.541	382.941	290.631	433.822	313.632	237.674	470.254	479.707	510.716	439.743	463.249	417.953	443.244	472.354	451.051	357.579	0.0012081	0.00054605	0.0001146	1295.1	6.0149e-06	5.8568e-06	1292.4	347.69	6.2158e-06	4.8525e-06	398.32	134.63	115.7	40.129	5.2621e-06	49.864	0.00081971	0.00079761	0.00022223	1320.3	8.5461e-06	8.6511e-06	1318.8	356.19	8.4645e-06	8.5486e-06	408.32	137.74	118.2	41.584	8.4958e-06	51.788	479.409	237.818	244.999	168.047	264.705	300.263	167.780	172.635	256.416	289.142	172.212	176.222	176.626	181.603	289.815	180.993	-8191	255	
21404.703	1	1	0	0	0.051041	0.058505	0.21923	0.1459	0.26576	0.063147	0.35829	0.081593	0.12811	0.19229	0.11168	0.1037	0.24134	0.25573	0.057603	0.10339	-2.0146	-2.8854	-2.6875	-2.7313	-2.8771	-2.7396	-3.0021	-2.9521	-2.6542	-2.8729	-2.8167	-2.7292	-2.9354	-2.7479	-2.7167	-3.1458	319.561	324.678	372.693	183.558	350.987	182.026	466.583	272.699	242.207	215.462	198.828	186.797	219.071	410.732	380.395	264.994	0.0012035	0.00059681	0.00013797	1294	3.9949e-06	5.9029e-06	1292.3	348.38	7.1216e-06	4.1024e-06	397.29	134.51	115.86	40.063	5.2487e-06	49.736	0.00081755	0.00080077	0.00022189	1320.6	8.3126e-06	8.6858e-06	1316.8	356.03	8.512e-06	8.5615e-06	407.51	137.65	118.45	41.53	8.4623e-06	51.642	481.192	237.821	240.754	168.210	261.078	297.874	167.644	172.438	279.585	311.127	172.193	176.248	176.778	181.753	287.196	180.750	-8191	255	
21404.799	1	1	0	0	0.029767	0.08407	0.12662	0.29867	0.016185	0.12446	0.23081	0.30081	0.14065	0.15804	0.10852	0.11526	0.4076	0.17094	0.071416	0.28257	-2.2479	-2.7875	-2.675	-2.7188	-2.8083	-2.6521	-2.7625	-2.9417	-2.7062	-2.7333	-2.8854	-2.5938	-2.7062	-2.7333	-2.5729	-2.8937	437.505	337.333	365.945	224.753	204.536	497.967	450.992	401.542	353.980	167.103	463.822	447.141	167.247	489.909	381.729	466.686	0.0012263	0.00051186	0.00012413	1292.8	5.1118e-06	3.0156e-06	1291	348.51	5.8903e-06	5.5973e-06	396.96	135.26	115.06	40.035	8.0358e-06	49.726	0.00081826	0.00078989	0.00021634	1320.4	8.317e-06	8.6107e-06	1317.2	356.44	8.2984e-06	8.8037e-06	408.14	137.81	118.21	41.451	8.3939e-06	51.726	480.031	233.937	254.572	168.194	287.639	304.264	167.925	172.487	269.529	286.626	171.881	176.145	176.675	181.658	288.516	180.857	-8191	255	
21404.895	1	1	0	0	0.062098	0.26641	0.046209	0.19928	0.099763	0.059277	0.095905	0.0059403	0.14631	0.17533	0.10207	0.19292	0.21077	0.13927	0.18528	0.10508	-2.1396	-2.5792	-2.7104	-2.6063	-2.7625	-2.8208	-2.7	-2.9333	-2.5417	-2.7042	-2.9458	-2.8	-2.9667	-2.9813	-2.6083	-2.9625	155.803	164.000	339.083	411.723	422.173	514.091	503.033	321.866	155.011	407.724	452.335	241.262	288.724	427.104	512.733	482.894	0.00123	0.00057304	0.00017304	1292.9	4.1488e-06	4.5768e-06	1287.1	348.38	8.0202e-06	5.8991e-06	395.98	134.09	115.22	40.062	3.9725e-06	49.877	0.00081724	0.00079613	0.00022138	1319.5	8.3432e-06	8.7996e-06	1315.5	356.24	8.4676e-06	8.7806e-06	407.61	137.63	118.02	41.438	8.4474e-06	51.733	479.291	250.188	238.250	168.196	283.731	277.098	167.590	172.735	260.019	318.525	172.087	176.137	176.843	181.598	263.844	180.717	-8191	255	
21405.014	1	1	0	0	0.31549	0.18361	0.12105	0.48927	0.13148	0.086406	0.13686	0.2431	0.12911	0.26283	0.21499	0.16701	0.21234	0.056372	0.052576	0.2279	-2.1188	-2.4854	-3.05	-2.6542	-2.7917	-2.775	-2.75	-3.0083	-2.6708	-2.8125	-3.0312	-2.7958	-2.8438	-2.7958	-2.6167	-2.8167	395.598	339.837	218.709	462.498	282.466	386.423	503.898	495.306	443.771	269.610	192.734	364.361	497.273	187.538	444.665	426.267	0.0011847	0.00047528	0.00016572	1292.8	6.0742e-06	4.8861e-06	1287	347.82	5.5533e-06	3.4049e-06	397.59	134.89	115.52	40.024	4.0578e-06	49.953	0.0008109	0.00080706	0.00021796	1317.6	8.4081e-06	8.7032e-06	1316.4	355.93	8.2792e-06	8.5711e-06	407.71	137.51	118.32	41.46	8.4614e-06	51.782	479.563	228.416	237.726	168.055	280.813	318.235	167.758	172.509	262.267	327.842	172.008	176.065	176.625	181.844	237.412	180.940	-8191	255	
21405.109	1	1	0	0	0.057713	0.089525	0.30462	0.25718	0.28343	0.151	0.3588	0.24588	0.11505	0.13254	0.052896	0.30096	0.28302	0.096331	0.17367	0.09705	-2.3583	-2.5938	-2.8167	-2.625	-2.8	-2.8833	-2.7396	-2.9583	-2.7875	-2.9646	-3.0187	-2.8958	-2.9146	-2.8083	-2.5687	-2.7542	185.037	203.886	213.973	411.544	229.746	403.129	186.801	407.628	329.949	158.999	414.461	158.584	321.512	233.408	441.536	166.243	0.001154	0.00065065	0.00012554	1289.2	5.99e-06	6.5668e-06	1289.6	348.5	7.5902e-06	3.7201e-06	395.62	134.64	115.62	39.881	3.5545e-06	49.695	0.00081235	0.00078915	0.00021709	1319.2	8.4405e-06	8.8005e-06	1317.3	356.56	8.3921e-06	8.8075e-06	407.66	137.56	118.32	41.446	8.3555e-06	51.664	480.959	226.455	223.529	167.888	294.513	285.146	167.754	172.854	253.687	311.191	172.101	176.102	176.701	181.656	263.249	180.711	-8191	255	
21405.207	1	1	0	0	0.087921	0.19615	0.24773	0.15451	0.17996	0.049195	0.28059	0.10527	0.079382	0.20045	0.061449	0.19303	0.065927	0.11269	0.12061	0.17887	-2.3979	-2.6562	-2.9083	-2.6937	-2.6104	-2.8812	-2.6417	-2.9521	-2.7062	-2.5938	-2.8292	-2.6854	-2.6562	-2.9646	-2.6104	-3.0187	264.838	263.777	200.562	499.193	504.114	342.675	451.740	499.935	281.967	253.523	471.293	268.300	433.378	387.237	409.558	281.758	0.0011393	0.00061312	0.000199	1288.9	5.9236e-06	4.827e-06	1288.9	348.11	6.5218e-06	4.0178e-06	397.18	133.92	115.52	40.085	7.308e-06	50.02	0.00080561	0.00078759	0.00021545	1318.6	8.4812e-06	8.4868e-06	1315.6	356.29	8.4436e-06	8.5687e-06	407.19	137.54	118.12	41.561	8.5257e-06	51.75	480.058	249.243	237.909	168.235	273.081	321.742	167.742	172.542	261.370	330.232	172.257	176.012	176.472	181.858	284.654	180.958	-8191	255	
21405.303	1	1	0	0	0.19342	0.21896	0.30966	0.14356	0.1711	0.22956	0.25764	0.045289	0.25447	0.1224	0.12519	0.082557	0.32266	0.090337	0.048604	0.2594	-2.4042	-2.4479	-3.0042	-2.8021	-2.6667	-2.7375	-2.6229	-2.7771	-2.8792	-2.8063	-2.9604	-2.8646	-2.6479	-3.0396	-2.8479	-2.7938	393.999	252.497	394.571	210.769	264.207	340.467	455.799	425.493	236.883	325.118	227.059	324.672	196.082	227.053	306.482	487.609	0.0010841	0.0005914	9.4692e-05	1290.5	4.9335e-06	6.0492e-06	1285.8	348.27	8.0147e-06	3.8589e-06	397.37	134.68	114.85	40.206	3.721e-06	49.823	0.00080484	0.00078629	0.00021859	1318.7	8.433e-06	8.7234e-06	1314.7	355.79	8.2936e-06	8.6423e-06	407.35	137.51	117.93	41.501	8.6465e-06	51.665	482.340	236.890	263.691	168.126	263.785	317.589	167.630	172.746	256.265	312.207	172.222	176.106	176.738	181.552	314.233	180.737	-8191	255	
21405.398	1	1	0	0	0.066053	0.27788	0.019822	0.19251	0.12086	0.07438	0.10837	0.17848	0.20384	0.080302	0.20487	0.091093	0.21229	0.22823	0.21149	0.11283	-2.4521	-2.5479	-2.8604	-2.9688	-2.7687	-2.95	-2.7188	-2.7958	-2.7583	-2.6875	-2.9021	-2.9	-2.5458	-2.8792	-2.2604	-2.6562	207.304	331.332	492.608	382.721	348.080	475.896	487.260	464.809	436.808	377.480	397.615	399.214	494.222	180.077	169.845	408.735	0.0011758	0.00049934	0.00010005	1295.1	5.0255e-06	7.0361e-06	1290.4	347.94	7.5998e-06	1.3001e-06	396.67	134.95	115.86	40.321	6.2593e-06	50.157	0.00080905	0.00078872	0.00021452	1319.3	8.2416e-06	8.6145e-06	1316.9	356	8.2399e-06	8.6197e-06	406.98	137.61	118.34	41.565	8.4442e-06	51.782	481.171	246.233	262.328	168.003	277.332	319.922	167.830	172.713	251.568	310.042	172.202	176.134	176.817	181.678	272.643	181.063	-8191	255	
21405.494	1	1	0	0	0.1078	0.46968	0.21494	0.32178	0.21423	0.0907	0.18917	0.07722	0.12259	0.088548	0.11986	0.10534	0.10991	0.11678	0.12742	0.2231	-2.5438	-2.3854	-2.7771	-2.7604	-2.6458	-2.9021	-2.9271	-2.6875	-2.8354	-2.7812	-2.8708	-2.8125	-2.6604	-2.9479	-2.5729	-2.7167	170.845	504.998	256.853	485.280	339.510	407.394	166.655	343.651	280.073	273.192	367.445	486.388	438.664	226.964	175.249	294.607	0.0011272	0.00053652	0.0002055	1294.2	4.9857e-06	3.2699e-06	1289.6	348.84	8.1067e-06	5.451e-06	397.01	134.26	116.06	40.17	4.0343e-06	49.784	0.00080261	0.00079913	0.00021889	1319.2	8.2644e-06	8.5895e-06	1315.2	356.12	8.3132e-06	8.5524e-06	407.32	137.35	118.13	41.449	8.6103e-06	51.753	476.930	206.869	246.421	168.166	286.385	340.310	167.746	172.552	255.702	317.987	172.205	176.327	176.780	181.602	300.479	180.737	-8191	255	
21405.592	1	1	0	0	0.10683	0.091297	0.21745	0.36812	0.060584	0.24681	0.065626	0.22068	0.26857	0.11979	0.18383	0.11541	0.14704	0.29653	0.08671	0.14396	-2.5875	-2.7313	-2.6979	-2.8625	-2.5708	-2.8521	-2.8604	-2.9104	-2.8042	-2.7062	-2.9271	-2.9271	-2.7083	-2.9229	-2.8542	-2.6104	356.022	241.073	318.466	470.888	350.258	336.683	202.264	308.815	225.702	305.773	440.042	306.313	184.721	209.879	280.043	281.100	0.001169	0.00037391	0.00013165	1290.8	7.4819e-06	5.9021e-06	1287.2	348.49	7.8528e-06	4.3147e-06	396.3	134.62	115.58	40.024	6.2977e-06	49.538	0.00079822	0.00079731	0.00021795	1319.3	8.4155e-06	8.6034e-06	1314.5	356.37	8.209e-06	8.7864e-06	407.23	137.63	117.94	41.393	8.384e-06	51.622	482.293	231.735	246.350	168.142	281.912	311.176	167.691	172.732	273.194	318.530	172.224	176.039	176.386	181.663	283.516	180.718	-8191	255	
21405.713	1	1	0	0	0.23654	0.05291	0.13764	0.35454	0.13365	0.16024	0.20574	0.058353	0.11235	0.17109	0.15345	0.19224	0.099206	0.16261	0.11465	0.073121	-2.4688	-2.7083	-2.8042	-3.0708	-2.5042	-2.7625	-3.0375	-2.8812	-2.8167	-2.5604	-2.7521	-3.0771	-2.6458	-2.9896	-2.6813	-2.5938	182.823	215.344	466.459	468.330	456.751	302.146	455.681	181.589	253.036	461.470	170.152	422.305	385.668	495.132	333.962	346.285	0.0011566	0.00056351	0.00012213	1290.9	5.9219e-06	3.4952e-06	1285.3	347	6.3621e-06	2.9597e-06	395.8	134.1	115.23	40.071	5.7452e-06	49.595	0.00078947	0.00079145	0.00022068	1315.4	8.3871e-06	8.5991e-06	1313	355.06	8.3001e-06	8.969e-06	405.87	137	117.63	41.402	8.6986e-06	51.464	476.651	224.473	245.513	168.046	269.113	300.094	167.721	172.585	253.531	324.206	172.071	176.156	176.744	181.865	268.843	180.735	-8191	255	
21405.783	1	1	0	0	0.099223	0.16088	0.16669	0.19762	0.11235	0.09383	0.34732	0.29101	0.1641	0.20906	0.11556	0.21344	0.21213	0.19493	0.33632	0.18021	-2.4083	-2.5687	-2.7083	-3.1562	-2.5396	-2.8542	-2.9542	-2.5438	-2.6771	-2.6896	-2.8875	-2.9521	-2.6521	-2.7167	-2.6604	-2.5542	253.348	454.434	368.276	482.916	236.673	434.295	388.754	456.708	349.936	322.627	423.372	481.912	255.770	229.336	177.740	264.201	0.0011738	0.00066835	0.00015067	1287.2	5.8175e-06	6.0442e-06	1282.7	345.47	5.2863e-06	5.1482e-06	394.75	133.53	115.05	39.911	7.0525e-06	49.536	0.00081399	0.0007977	0.00022501	1312.7	8.6096e-06	9.1229e-06	1311	354.39	8.5565e-06	8.9397e-06	405.85	136.87	117.52	41.315	8.6656e-06	51.462	476.424	238.167	238.803	167.933	290.348	310.536	167.738	172.645	252.827	302.735	172.150	176.198	176.551	181.963	266.819	180.856	-8191	255	
21405.881	1	1	0	0	0.12078	0.26422	0.04935	0.10673	0.23845	0.12167	0.25789	0.16862	0.13586	0.25522	0.11984	0.18865	0.026496	0.18252	0.088698	0.33359	-2.5229	-2.6875	-2.6458	-3.0646	-2.6125	-2.7854	-3.0396	-2.5542	-2.8167	-2.9896	-2.7562	-2.8479	-2.6917	-2.7833	-3.075	-2.6167	504.957	323.602	247.805	357.049	459.984	231.265	497.988	161.538	162.399	207.703	501.531	162.942	494.689	510.199	233.171	194.026	0.0011473	0.00038842	0.00018231	1287.8	6.3141e-06	3.8445e-06	1278.9	346.35	6.9227e-06	5.2205e-06	395.79	134.28	114.7	39.92	6.295e-06	49.581	0.00081399	0.00082072	0.00022725	1312.8	8.6306e-06	8.7119e-06	1308.3	354.51	8.5343e-06	8.8825e-06	405.48	136.76	117.17	41.271	8.6013e-06	51.486	481.331	245.236	258.015	168.006	272.577	280.605	167.790	172.831	273.163	290.855	172.187	176.135	176.884	181.707	278.621	180.974	-8191	255	
21405.977	1	1	0	0	0.13169	0.19002	0.036677	0.21258	0.11602	0.25022	0.24147	0.027531	0.22673	0.29157	0.15488	0.12784	0.18438	0.25515	0.23746	0.10846	-2.3896	-2.6271	-2.6458	-2.9437	-2.7062	-2.7458	-3.0312	-2.8042	-2.6312	-2.6917	-2.5812	-2.7521	-2.6625	-2.7458	-2.9833	-2.5333	283.188	323.446	466.093	451.214	433.273	370.165	427.571	177.529	463.479	232.422	185.134	179.587	243.389	471.371	170.503	498.429	0.0011815	0.00044052	0.0001567	1281.7	6.2924e-06	5.8362e-06	1284.1	346.2	8.2769e-06	1.5361e-06	394.76	133.39	114.66	39.875	4.9345e-06	49.654	0.00081093	0.00079692	0.00022154	1310.6	8.5509e-06	8.8232e-06	1310	354.36	8.5831e-06	8.6855e-06	405.36	136.61	117.25	41.255	8.4908e-06	51.507	480.196	242.114	230.467	168.232	279.021	318.537	167.695	172.582	263.621	267.643	171.970	176.039	176.418	181.787	310.172	181.009	-8191	255	
21406.096	1	1	0	0	0.02281	0.083967	0.13076	0.31356	0.046737	0.0084064	0.19279	0.2443	0.15464	0.17545	0.30074	0.24335	0.21048	0.36972	0.057505	0.07196	-2.2854	-2.575	-2.4938	-2.85	-2.7042	-2.5812	-2.9104	-2.6458	-2.7562	-2.8479	-2.7146	-2.9083	-2.7979	-2.825	-2.9521	-2.6979	426.884	164.776	470.749	467.139	456.521	386.971	443.417	445.112	230.275	401.564	486.418	508.301	229.097	488.530	292.560	212.255	0.0011188	0.00051151	0.00016838	1287.9	7.0638e-06	6.1456e-06	1282.7	345.78	8.1594e-06	4.6734e-06	395.31	134.17	114.79	39.931	5.9173e-06	49.673	0.0008092	0.00079904	0.00022622	1312	8.6104e-06	8.9528e-06	1309.8	354.18	8.6115e-06	8.6668e-06	405.49	136.91	117.61	41.362	8.4188e-06	51.463	481.024	225.975	247.808	167.951	279.502	335.748	167.731	172.701	259.252	276.666	171.881	176.127	176.697	181.852	296.938	180.921	-8191	255	
21406.191	1	1	0	0	0.44129	0.41878	0.2624	0.37646	0.095158	0.36606	0.093708	0.24176	0.1403	0.34041	0.18232	0.099089	0.12583	0.095249	0.15132	0.23873	-2.4375	-2.6708	-2.4833	-3.0458	-2.6021	-2.7938	-2.8646	-2.6792	-2.7146	-2.9396	-2.6875	-2.925	-2.7	-2.5833	-2.9229	-2.5271	250.459	298.496	216.090	454.893	275.447	297.977	388.925	488.589	380.818	340.449	469.215	251.406	374.298	496.928	296.617	436.341	0.0011873	0.00059742	8.1337e-05	1287.3	3.333e-06	5.0077e-06	1282.8	346.65	7.5011e-06	3.0909e-06	395.22	133.99	114.74	39.914	3.6494e-06	49.61	0.00081477	0.00078959	0.00021929	1313.1	8.4768e-06	8.7022e-06	1309.7	354.64	8.4096e-06	8.502e-06	405.68	136.76	117.56	41.338	8.3708e-06	51.502	480.525	257.069	257.398	168.113	281.985	350.443	167.851	172.677	256.306	326.462	172.178	176.388	176.631	181.608	282.542	180.562	-8191	255	
21406.287	1	1	0	0	0.036361	0.21355	0.041554	0.13345	0.037077	0.22652	0.083963	0.27133	0.24006	0.12099	0.32214	0.073726	0.26232	0.078254	0.11602	0.27708	-2.1167	-2.9396	-2.5708	-3.1646	-2.7938	-2.6354	-2.9604	-2.9667	-2.5187	-3.0854	-2.5729	-2.7917	-2.8833	-2.5854	-2.8208	-2.8875	387.740	484.031	347.921	429.583	358.531	327.860	162.023	369.715	309.160	288.903	457.767	355.426	245.922	181.805	178.128	375.465	0.0011677	0.00042086	0.00012232	1283.9	5.5212e-06	5.1997e-06	1278.8	346.74	5.2863e-06	4.218e-06	394.58	133.91	114.92	40.015	3.7628e-06	49.53	0.00080515	0.00078213	0.0002168	1312.3	8.5079e-06	8.7403e-06	1307.4	354.59	8.3141e-06	8.5572e-06	405.53	136.74	117.47	41.329	8.4356e-06	51.42	476.285	206.612	231.818	168.146	251.552	299.614	167.670	172.525	263.242	322.698	172.226	176.062	176.659	181.536	292.241	180.790	-8191	255	
21406.408	1	1	0	0	0.198	0.078908	0.052867	0.12114	0.13255	0.12567	0.25867	0.37042	0.22898	0.22548	0.19519	0.015656	0.21944	0.090056	0.12431	0.10497	-2.2042	-2.8812	-2.55	-2.8521	-2.7646	-2.6896	-3.1437	-2.8979	-2.6917	-2.8375	-2.7625	-2.8063	-2.8708	-2.6354	-2.8542	-2.7812	423.240	159.829	197.759	479.239	496.875	415.119	435.862	399.523	295.030	441.720	229.357	493.624	368.848	322.523	189.955	481.070	0.0011431	0.00062739	0.00017923	1283.4	6.9285e-06	4.9583e-06	1285.1	346.63	9.5299e-06	4.7857e-06	395.47	133.69	115.32	39.939	7.1081e-06	49.69	0.00080169	0.00078668	0.0002195	1311.3	8.4628e-06	8.6352e-06	1309.9	353.93	8.3494e-06	8.7441e-06	405.46	136.67	117.66	41.332	8.4727e-06	51.531	480.519	268.506	243.572	167.934	277.479	332.989	167.752	172.640	261.508	315.385	172.099	176.189	176.777	181.715	287.460	180.849	-8191	255	
21406.479	1	1	0	0	0.17883	0.087598	0.20966	0.10765	0.23445	0.085583	0.20418	0.12664	0.074092	0.1571	0.43876	0.16448	0.22959	0.22836	0.17324	0.14943	-2.2417	-2.7604	-2.5187	-2.6979	-2.7396	-2.5833	-2.8083	-2.7771	-2.55	-2.8667	-2.7	-2.8542	-2.9396	-2.6125	-2.7729	-2.7958	487.795	337.987	276.659	463.374	328.737	484.899	451.152	217.042	342.520	277.374	163.437	499.424	479.702	439.746	272.012	456.139	0.0011528	0.00056092	7.4128e-05	1284.6	4.0417e-06	7.0146e-06	1281.2	346.33	6.0284e-06	5.9642e-06	396.11	134.45	115.44	39.876	5.1405e-06	49.701	0.00080373	0.00077957	0.0002182	1310.8	8.4309e-06	8.7027e-06	1307.8	354.49	8.2984e-06	8.3991e-06	406.14	137.17	117.74	41.292	8.3469e-06	51.498	479.216	241.098	247.965	168.148	286.901	298.449	167.740	172.775	264.581	286.027	172.076	176.319	176.740	181.797	295.250	180.708	-8191	255	
21406.574	1	1	0	0	0.22433	0.13807	0.28469	0.39512	0.17321	0.2436	0.19203	0.056693	0.10332	0.26849	0.15861	0.20106	0.10787	0.12307	0.24947	0.15809	-2.1042	-2.9104	-2.75	-2.8312	-2.9146	-2.6396	-2.8375	-2.8937	-2.7354	-2.8	-2.6979	-2.7271	-2.8688	-2.5354	-2.6063	-2.9062	255.749	429.744	266.772	475.079	459.089	285.223	163.122	190.041	264.369	277.729	483.121	502.564	424.365	280.215	437.051	483.628	0.0011121	0.00065584	0.0001646	1284.1	6.7172e-06	4.0512e-06	1283.2	346.98	8.2049e-06	4.4125e-06	397.47	133.89	115.75	39.901	6.175e-06	49.686	0.00080295	0.00078187	0.00021691	1313.8	8.2355e-06	8.5798e-06	1311.4	355.16	8.3773e-06	8.8705e-06	406.54	137.22	117.92	41.43	8.5913e-06	51.616	479.363	242.928	262.414	168.188	285.893	274.070	167.525	172.652	254.598	285.821	172.197	176.176	176.692	181.867	297.228	180.824	-8191	255	
21406.695	1	1	0	0	0.05921	0.11771	0.24551	0.25485	0.14226	0.24321	0.13691	0.23967	0.18905	0.021471	0.17437	0.098663	0.20241	0.053952	0.29089	0.09237	-2.0938	-2.7729	-2.6437	-2.9896	-2.7083	-2.5917	-2.9604	-2.7271	-2.5771	-2.7042	-2.7875	-2.6188	-2.8	-2.6417	-2.6604	-2.9708	270.949	345.107	279.891	494.711	286.374	164.021	448.149	499.199	335.710	154.889	468.950	485.784	184.892	378.532	309.482	181.015	0.0012366	0.0004954	0.00013805	1291.6	6.5163e-06	5.4425e-06	1284.4	348	7.413e-06	5.0946e-06	397.15	135.02	114.54	39.938	5.6346e-06	49.81	0.00081322	0.00080285	0.00022064	1317.6	8.3717e-06	8.8714e-06	1313	355.56	8.4475e-06	8.8138e-06	407.04	137.34	117.53	41.422	8.7407e-06	51.515	482.454	235.987	235.850	168.226	277.478	292.511	167.740	172.333	256.445	301.096	172.032	176.136	176.658	181.663	309.671	180.844	-8191	255	
21406.793	1	1	0	0	0.13046	0.072722	0.10383	0.19811	0.2031	0.21175	0.031313	0.2127	0.029291	0.026703	0.079885	0.0762	0.22186	0.14322	0.21046	0.22155	-2.1375	-2.6437	-2.7979	-2.7146	-2.7812	-2.5354	-2.6646	-2.9375	-2.5646	-2.8312	-2.8021	-2.6188	-2.9	-2.6083	-2.6875	-2.8688	483.363	214.256	249.183	444.049	385.310	490.996	471.599	497.787	364.373	180.777	501.881	347.041	343.774	399.709	196.034	488.139	0.0011063	0.00066194	7.6351e-05	1290.6	6.7439e-06	5.2075e-06	1288.1	346.75	9.6753e-06	7.1936e-06	396.24	134.03	115.45	39.971	4.8262e-06	49.637	0.00079634	0.00080628	0.00021867	1315.8	8.3888e-06	8.7355e-06	1313.9	355.19	8.7798e-06	8.8911e-06	406.65	137.29	117.93	41.474	8.6425e-06	51.577	477.244	254.390	224.571	168.053	272.673	317.842	167.873	172.574	251.818	324.829	172.052	176.163	176.598	181.801	284.790	180.955	-8191	255	
21406.889	1	1	0	0	0.098055	0.033511	0.18116	0.16941	0.14469	0.041754	0.46203	0.12676	0.12552	0.18953	0.2795	0.1095	0.24567	0.21787	0.17597	0.23243	-2.0521	-2.7687	-2.6562	-2.7687	-2.7208	-2.7042	-2.7646	-2.9417	-2.6458	-2.6646	-2.8792	-2.7104	-2.8042	-2.6333	-2.525	-2.9542	422.933	252.571	311.305	417.042	319.152	477.739	408.862	445.943	491.335	299.689	477.725	275.946	512.119	419.874	159.109	477.029	0.0011625	0.00056937	0.00010515	1287.5	7.1689e-06	6.8484e-06	1289.5	348.13	9.2587e-06	4.5818e-06	395.75	133.95	115.65	40.056	4.3782e-06	49.637	0.00080901	0.00078941	0.00022725	1316.4	8.5802e-06	8.8704e-06	1315.2	355.73	8.6237e-06	9.006e-06	406.48	137.09	118.11	41.462	8.7995e-06	51.613	477.508	255.330	239.319	167.915	280.519	294.934	167.746	172.646	260.778	275.551	172.241	176.211	176.932	181.560	291.417	180.652	-8191	255	
21407.008	1	1	0	0	0.20652	0.38842	0.16026	0.27355	0.048998	0.23634	0.17459	0.45698	0.11594	0.10978	0.172	0.065919	0.19278	0.28651	0.12744	0.28466	-2.0667	-2.8479	-2.8375	-2.6667	-2.7417	-2.5979	-2.7396	-2.9458	-2.6146	-2.6708	-2.8625	-2.5979	-2.8187	-2.7792	-2.4	-2.8438	417.325	242.296	392.627	435.399	382.295	481.782	404.898	156.586	227.269	363.369	216.494	404.648	280.038	422.725	502.547	435.698	0.001156	0.00051366	0.00011098	1294.8	3.5194e-06	2.8613e-06	1287.1	347.01	7.8556e-06	5.3373e-06	396.39	134.54	115.17	40.022	3.9464e-06	49.53	0.00082995	0.00081612	0.00021908	1319.1	8.7638e-06	8.9446e-06	1315	355.06	8.5404e-06	8.9027e-06	406.72	137.22	118.04	41.427	8.6176e-06	51.604	478.309	240.746	221.797	168.042	260.817	330.190	167.673	172.502	262.084	298.454	172.052	176.221	176.672	181.736	283.360	180.654	-8191	255	
21407.078	1	1	0	0	0.3081	0.16066	0.2895	0.26075	0.14278	0.24447	0.12218	0.37635	0.088014	0.15853	0.21677	0.10233	0.17857	0.0078462	0.28519	0.10289	-2.0646	-2.6271	-2.6937	-2.6542	-2.6292	-2.5479	-2.6479	-2.9646	-2.7313	-2.575	-2.9646	-2.5958	-2.5771	-2.7146	-2.5521	-2.6667	493.590	470.324	426.798	439.917	378.626	254.428	497.702	422.883	300.788	312.011	448.755	453.739	440.024	461.416	218.558	226.532	0.0012136	0.00026805	0.00017196	1290.8	8.112e-06	5.6635e-06	1286.8	348.34	9.4154e-06	3.69e-06	395.77	134.18	115.09	39.971	7.4414e-06	49.695	0.000822	0.00081786	0.00022133	1315.4	8.6494e-06	8.8916e-06	1313	355.81	8.8906e-06	9.0218e-06	406.95	137.07	117.77	41.352	8.6456e-06	51.578	477.497	234.004	251.094	168.060	272.421	318.040	167.631	172.350	261.562	332.194	172.280	176.168	176.626	181.752	283.265	181.040	-8191	255	
21407.176	1	1	0	0	0.11094	0.13459	0.18876	0.24012	0.08423	0.25646	0.18295	0.11483	0.31456	0.17752	0.21374	0.045469	0.16613	0.27225	0.074761	0.3103	-2.1271	-2.5458	-2.8083	-2.5438	-2.6708	-2.8312	-2.7729	-2.85	-2.5687	-2.7375	-2.8979	-2.7083	-2.9167	-2.8521	-2.6063	-2.7417	172.481	254.228	226.284	202.563	478.225	387.602	464.729	383.113	240.775	312.599	326.695	367.394	460.389	220.689	336.305	333.342	0.0011579	0.0003317	0.00013117	1291.9	2.3331e-06	7.7082e-06	1291.1	347.6	7.9729e-06	3.9894e-06	396.37	134.54	115.14	39.981	5.0138e-06	49.759	0.00082719	0.00081682	0.0002209	1319.8	8.6639e-06	8.762e-06	1314.8	355.85	8.6878e-06	9.0804e-06	406.34	137.37	117.92	41.431	9.0173e-06	51.655	478.745	242.057	235.033	168.095	262.196	299.276	167.767	172.541	273.544	304.585	172.026	176.012	176.863	181.715	285.561	180.940	-8191	255	
#DATA ENDS
