BOXY.EXE: ISS Imagent and Oximeter Data Acquisition Program Version 0.80
Ascii Record File

#ACQ INFORMATION
2  Detector Channels 
16  External MUX Channels 
1  Auxiliary Channels 
5000  Waveform (CCF) Frequency (Hz)
1  Waveforms Skipped 
30  Waveforms Averaged 
1  Cycles Averaged 
16  Acquisitions per Waveform 
10.0806  Updata Rate (Hz) 

#FILE INFORMATION
TRUE -- External MUX Channel results are PARSED.
FALSE -- AC DC and Phase are NOT grouped.
TRUE -- Companion Program Settings File CREATED.
FALSE -- AC data not excluded
FALSE -- DC data not excluded
FALSE -- Phase data not excluded
FALSE -- Auxillary Chn. data not excluded
Tab delimiters

#CALIBRATION STATE
TRUE -- Waveform Calibration Values APPLIED.


#AUX CALIBRATION VALUES
Val Type	aux-1	

Term	1.0000e+00	
Factor	0.0000e+00	


#WF CALIBRATION VALUES
A = Detector Channel
Val Type	A-AC1	A-AC2	A-AC3	A-AC4	A-AC5	A-AC6	A-AC7	A-AC8	A-AC9	A-AC10	A-AC11	A-AC12	A-AC13	A-AC14	A-AC15	A-AC16	A-DC1	A-DC2	A-DC3	A-DC4	A-DC5	A-DC6	A-DC7	A-DC8	A-DC9	A-DC10	A-DC11	A-DC12	A-DC13	A-DC14	A-DC15	A-DC16	A-Ph1	A-Ph2	A-Ph3	A-Ph4	A-Ph5	A-Ph6	A-Ph7	A-Ph8	A-Ph9	A-Ph10	A-Ph11	A-Ph12	A-Ph13	A-Ph14	A-Ph15	A-Ph16	

Term	0.00000e+00	0.00000e+00	0.00000e+00	0.00000e+00	0.00000e+00	0.00000e+00	0.00000e+00	0.00000e+00	0.00000e+00	0.00000e+00	0.00000e+00	0.00000e+00	0.00000e+00	0.00000e+00	0.00000e+00	0.00000e+00	0.00000e+00	0.00000e+00	0.00000e+00	0.00000e+00	0.00000e+00	0.00000e+00	0.00000e+00	0.00000e+00	0.00000e+00	0.00000e+00	0.00000e+00	0.00000e+00	0.00000e+00	0.00000e+00	0.00000e+00	0.00000e+00	0.00000e+00	0.00000e+00	0.00000e+00	0.00000e+00	0.00000e+00	0.00000e+00	0.00000e+00	0.00000e+00	0.00000e+00	0.00000e+00	0.00000e+00	0.00000e+00	0.00000e+00	0.00000e+00	0.00000e+00	0.00000e+00	
Factor	1.00000e+00	1.00000e+00	1.00000e+00	1.00000e+00	1.00000e+00	1.00000e+00	1.00000e+00	1.00000e+00	1.00000e+00	1.00000e+00	1.00000e+00	1.00000e+00	1.00000e+00	1.00000e+00	1.00000e+00	1.00000e+00	1.00000e+00	1.00000e+00	1.00000e+00	1.00000e+00	1.00000e+00	1.00000e+00	1.00000e+00	1.00000e+00	1.00000e+00	1.00000e+00	1.00000e+00	1.00000e+00	1.00000e+00	1.00000e+00	1.00000e+00	1.00000e+00	X	X	X	X	X	X	X	X	X	X	X	X	X	X	X	X	

B = Detector Channel
Val Type	B-AC1	B-AC2	B-AC3	B-AC4	B-AC5	B-AC6	B-AC7	B-AC8	B-AC9	B-AC10	B-AC11	B-AC12	B-AC13	B-AC14	B-AC15	B-AC16	B-DC1	B-DC2	B-DC3	B-DC4	B-DC5	B-DC6	B-DC7	B-DC8	B-DC9	B-DC10	B-DC11	B-DC12	B-DC13	B-DC14	B-DC15	B-DC16	B-Ph1	B-Ph2	B-Ph3	B-Ph4	B-Ph5	B-Ph6	B-Ph7	B-Ph8	B-Ph9	B-Ph10	B-Ph11	B-Ph12	B-Ph13	B-Ph14	B-Ph15	B-Ph16	

Term	0.00000e+00	0.00000e+00	0.00000e+00	0.00000e+00	0.00000e+00	0.00000e+00	0.00000e+00	0.00000e+00	0.00000e+00	0.00000e+00	0.00000e+00	0.00000e+00	0.00000e+00	0.00000e+00	0.00000e+00	0.00000e+00	0.00000e+00	0.00000e+00	0.00000e+00	0.00000e+00	0.00000e+00	0.00000e+00	0.00000e+00	0.00000e+00	0.00000e+00	0.00000e+00	0.00000e+00	0.00000e+00	0.00000e+00	0.00000e+00	0.00000e+00	0.00000e+00	-1.80303e+02	-1.38097e+02	-1.19944e+02	-1.80819e+02	-7.90061e+01	-8.11867e+01	-1.57378e+02	-1.62015e+02	-8.94823e+01	-7.32125e+01	-1.71564e+02	-1.71541e+02	-1.83671e+02	-1.76147e+02	-9.09538e+01	-1.49257e+02	
Factor	2.87017e-05	1.45962e-04	4.30770e-05	1.57142e-01	1.46671e-06	1.61965e-06	1.59980e-01	4.53428e-02	1.43660e-06	1.32136e-06	7.50420e-02	2.82269e-02	3.42424e-02	8.08152e-03	1.41912e-06	1.17899e-02	2.86743e-06	3.12586e-06	8.73151e-07	7.88825e-02	3.38613e-08	3.44756e-08	7.56613e-02	2.28643e-02	3.41259e-08	3.46871e-08	3.65790e-02	1.37491e-02	1.70758e-02	4.08423e-03	3.47117e-08	5.78306e-03	X	X	X	X	X	X	X	X	X	X	X	X	X	X	X	X	



#DISTANCE SETTINGS
A = Detector Channel
A-1	A-2	A-3	A-4	A-5	A-6	A-7	A-8	A-9	A-10	A-11	A-12	A-13	A-14	A-15	A-16	

2.5000e+00	3.0000e+00	2.5000e+00	3.0000e+00	2.0000e+00	3.0000e+00	1.5000e+00	3.0000e+00	3.0000e+00	3.0000e+00	3.0000e+00	3.0000e+00	3.0000e+00	3.0000e+00	1.5000e+00	3.0000e+00	

B = Detector Channel
B-1	B-2	B-3	B-4	B-5	B-6	B-7	B-8	B-9	B-10	B-11	B-12	B-13	B-14	B-15	B-16	

1.0000e+01	1.0000e+01	1.0000e+01	1.4400e+00	1.0000e+01	1.0000e+01	1.5100e+00	1.9400e+00	1.0000e+01	1.0000e+01	1.9900e+00	2.4900e+00	2.4100e+00	2.9000e+00	1.0000e+01	2.9800e+00	




#DATA BEGINS
time	group	step	mark	flag	A-AC1	A-AC2	A-AC3	A-AC4	A-AC5	A-AC6	A-AC7	A-AC8	A-AC9	A-AC10	A-AC11	A-AC12	A-AC13	A-AC14	A-AC15	A-AC16	A-DC1	A-DC2	A-DC3	A-DC4	A-DC5	A-DC6	A-DC7	A-DC8	A-DC9	A-DC10	A-DC11	A-DC12	A-DC13	A-DC14	A-DC15	A-DC16	A-Ph1	A-Ph2	A-Ph3	A-Ph4	A-Ph5	A-Ph6	A-Ph7	A-Ph8	A-Ph9	A-Ph10	A-Ph11	A-Ph12	A-Ph13	A-Ph14	A-Ph15	A-Ph16	B-AC1	B-AC2	B-AC3	B-AC4	B-AC5	B-AC6	B-AC7	B-AC8	B-AC9	B-AC10	B-AC11	B-AC12	B-AC13	B-AC14	B-AC15	B-AC16	B-DC1	B-DC2	B-DC3	B-DC4	B-DC5	B-DC6	B-DC7	B-DC8	B-DC9	B-DC10	B-DC11	B-DC12	B-DC13	B-DC14	B-DC15	B-DC16	B-Ph1	B-Ph2	B-Ph3	B-Ph4	B-Ph5	B-Ph6	B-Ph7	B-Ph8	B-Ph9	B-Ph10	B-Ph11	B-Ph12	B-Ph13	B-Ph14	B-Ph15	B-Ph16	aux-1	digaux	

9205.658	1	1	0	512	0.22989	0.044414	0.29495	0.12821	0.20704	0.15222	0.15829	0.15977	0.27643	0.12591	0.25108	0.14798	0.12869	0.28456	0.23497	0.18733	-2.0375	-2.5333	-2.6542	-2.4458	-2.6208	-2.5458	-2.45	-2.7625	-2.4854	-2.7021	-2.725	-2.6146	-2.6604	-2.8167	-2.2938	-2.7521	87.270	190.190	2.914	-55.141	48.687	-58.935	157.548	56.215	-36.245	-45.853	97.542	-134.809	35.441	-134.467	-22.731	154.024	0.0011724	0.00036566	0.00013558	334.22	4.5093e-06	5.3812e-06	518.02	136.48	4.6827e-06	3.1457e-06	260.6	138.69	69.124	38.51	3.9402e-06	84.338	0.00010963	2.3529e-05	6.3595e-06	324.21	2.778e-07	2.3192e-07	507.11	133.53	2.9782e-07	2.3891e-07	252.97	135.38	66.98	37.647	3.2166e-07	82.753	148.281	-71.695	-60.035	-140.631	-22.173	-34.380	-141.281	-135.483	-46.525	-19.502	-137.587	-133.784	-133.118	-127.896	-33.393	-130.046	-8191	255	
9205.754	1	1	0	0	0.08955	0.1202	0.31474	0.31029	0.050753	0.081532	0.20258	0.064443	0.021745	0.087378	0.24202	0.2292	0.066016	0.16452	0.13643	0.26411	-2.0104	-2.4375	-2.6771	-2.3979	-2.7208	-2.4813	-2.625	-2.7062	-2.2708	-2.6229	-3.0792	-2.4729	-2.5667	-2.7479	-2.475	-2.9333	135.379	195.168	-116.942	65.090	-113.065	59.455	141.651	178.367	133.534	-6.124	98.046	163.806	73.568	99.960	-69.694	129.508	0.0011396	0.00050543	0.00012177	336.93	4.8585e-06	4.6918e-06	527.07	138.33	4.0367e-06	3.3809e-06	263.27	139.5	69.893	38.681	3.3933e-06	84.967	0.000109	2.4831e-05	6.2412e-06	325.07	2.6553e-07	2.2761e-07	512.44	134.4	2.9633e-07	2.4216e-07	254.93	136.32	67.468	37.836	3.106e-07	83.171	147.183	-68.570	-60.716	-140.793	-24.985	-22.339	-141.213	-135.584	-48.031	-16.608	-137.402	-133.737	-133.218	-128.155	-36.859	-129.926	-8191	255	
9205.850	1	1	0	0	0.19208	0.2769	0.12092	0.14828	0.085894	0.11066	0.23933	0.19043	0.094052	0.10192	0.11818	0.15617	0.39055	0.024705	0.092438	0.12383	-2.1521	-2.4396	-2.6708	-2.5167	-2.4938	-2.6417	-2.4771	-2.6083	-2.4667	-2.5042	-2.6562	-2.4479	-2.6688	-2.5625	-2.3604	-2.6354	-129.834	-49.416	-70.917	-132.554	46.344	-15.050	187.488	197.065	-93.879	182.502	109.030	-122.685	160.567	104.317	-113.048	94.356	0.0011441	0.00035209	0.00015134	336.06	4.4721e-06	4.0801e-06	517.47	136.99	4.5934e-06	4.4364e-06	256.91	138.67	70.246	38.803	4.4352e-06	84.559	0.00010853	2.2565e-05	6.0739e-06	324.5	2.7096e-07	2.3882e-07	504.14	133.6	2.8047e-07	2.5893e-07	249.78	135.57	67.771	38.035	3.119e-07	83.001	147.701	-83.387	-61.157	-140.371	-21.785	-32.693	-141.546	-135.663	-42.968	-8.734	-137.637	-133.829	-132.717	-128.040	-39.132	-130.116	-8191	255	
9205.946	1	1	0	0	0.04336	0.41623	0.079241	0.10889	0.25641	0.16588	0.23712	0.24933	0.2316	0.2688	0.35049	0.31555	0.265	0.21376	0.13566	0.23534	-2.0208	-2.4104	-2.6708	-2.3417	-2.5708	-2.6521	-2.4354	-2.6396	-2.6021	-2.5146	-2.8167	-2.525	-2.6125	-2.7521	-2.4	-2.8063	171.373	176.455	103.688	-98.802	126.621	119.895	75.918	193.335	102.511	-113.764	162.503	166.044	168.441	-120.530	23.241	-144.291	0.0011592	0.00037162	0.000116	336.29	4.3385e-06	5.5217e-06	523.78	140.79	3.6389e-06	3.8871e-06	263.6	142.06	71.202	39.419	4.403e-06	85.71	0.00011047	2.2754e-05	6.6432e-06	325.77	2.7188e-07	2.5691e-07	510.93	136.4	2.7251e-07	2.423e-07	255.65	138.28	68.927	38.608	3.3468e-07	84.083	148.733	-76.750	-49.164	-140.491	-20.869	-16.754	-141.349	-135.594	-46.887	-17.486	-137.526	-133.844	-132.986	-127.999	-41.066	-130.157	-8191	255	
9206.067	1	1	0	0	0.14622	0.37376	0.13548	0.26747	0.22924	0.065768	0.15024	0.1711	0.063507	0.20879	0.25305	0.083618	0.43882	0.3485	0.23443	0.26113	-1.9708	-2.2667	-2.8042	-2.3833	-2.4958	-2.7	-2.5083	-2.675	-2.5	-2.3937	-2.8812	-2.5521	-2.5563	-2.8438	-2.675	-2.7	-42.653	118.782	106.664	54.829	-104.608	13.602	149.145	185.671	166.990	41.513	140.594	-110.271	152.160	143.456	40.318	162.681	0.0011444	0.0004157	0.00011547	339.05	3.3176e-06	4.6558e-06	536.33	140.21	4.0115e-06	3.3379e-06	266.54	142.14	71.294	39.217	3.6821e-06	85.881	0.00011082	2.444e-05	6.4431e-06	328.98	2.608e-07	2.3917e-07	520.47	136.77	2.7642e-07	2.337e-07	258.62	138.59	68.915	38.45	3.2282e-07	84.236	148.030	-81.276	-47.006	-140.417	-26.043	-16.242	-141.314	-135.721	-38.646	-18.425	-137.806	-133.709	-133.074	-127.814	-38.331	-130.068	-8191	255	
9206.163	1	1	0	0	0.30097	0.27438	0.044487	0.051079	0.028769	0.087755	0.10563	0.14954	0.19144	0.090402	0.50495	0.30721	0.34345	0.22219	0.054371	0.26029	-2.1729	-2.4	-2.7438	-2.6896	-2.6021	-2.8125	-2.5354	-2.5729	-2.7562	-2.2938	-2.7854	-2.5542	-2.5375	-2.7375	-2.3792	-2.7	44.684	79.025	13.274	39.826	130.329	151.811	62.568	28.469	93.054	118.093	132.131	-135.096	155.798	-124.129	36.730	-149.429	0.0012017	0.00047556	0.00011788	340.93	4.412e-06	5.7493e-06	543.25	140.84	4.6605e-06	3.3866e-06	268.5	142.62	71.579	39.549	4.0636e-06	86.682	0.00011337	2.433e-05	6.2248e-06	331.24	2.5276e-07	2.4679e-07	527.24	137.85	2.7614e-07	2.4816e-07	260.84	139.36	69.236	38.654	3.2853e-07	84.718	147.384	-71.915	-71.256	-140.576	-29.080	-18.771	-141.328	-135.632	-45.629	-8.599	-137.332	-133.740	-132.937	-128.029	-40.200	-130.026	-8191	255	
9206.235	1	1	0	0	0.22312	0.2198	0.12315	0.10334	0.12533	0.2155	0.12233	0.18242	0.11606	0.070734	0.20259	0.24227	0.059487	0.047492	0.035117	0.080068	-2.2188	-2.4083	-2.6562	-2.5	-2.4021	-2.7667	-2.45	-2.6458	-2.6604	-2.4896	-2.8833	-2.6813	-2.3979	-2.7604	-2.3771	-2.8146	44.203	104.602	-51.779	118.935	-3.109	-117.475	116.431	188.566	159.495	108.976	174.206	-142.846	-130.602	-3.159	171.647	183.065	0.0012042	0.00044592	0.00012828	342.34	4.7175e-06	4.37e-06	530.42	138.29	4.9744e-06	4.0022e-06	258.99	140.26	69.987	38.912	4.2107e-06	84.639	0.00011445	2.3685e-05	6.4613e-06	331.32	2.5579e-07	2.3673e-07	517.38	135.27	2.7955e-07	2.6651e-07	252.68	137.14	68.006	38.074	3.2788e-07	83.095	148.269	-84.428	-62.306	-140.506	-21.447	-20.784	-141.356	-135.628	-33.992	-4.656	-137.423	-133.792	-133.233	-128.235	-42.680	-129.933	-8191	255	
9206.355	1	1	0	0	0.22657	0.17809	0.20454	0.28298	0.21982	0.16399	0.10411	0.46999	0.13825	0.32279	0.25131	0.14348	0.080997	0.10739	0.089599	0.3395	-2.2583	-2.2354	-2.5563	-2.4521	-2.3396	-2.725	-2.3958	-2.5604	-2.8417	-2.6271	-2.7562	-2.5563	-2.3896	-2.9229	-2.6417	-2.5687	-31.911	-111.316	76.642	155.149	119.318	166.882	-96.903	143.747	150.428	163.124	24.736	-138.388	107.388	-111.482	101.224	126.609	0.0011484	0.00052188	0.00012516	337.66	4.9729e-06	4.5454e-06	529.28	138.41	5.0512e-06	3.7771e-06	264.04	141.93	71.493	39.435	3.9667e-06	86.513	0.00010657	2.4518e-05	6.2412e-06	327.94	2.7562e-07	2.3623e-07	517.9	135.05	2.7635e-07	2.5127e-07	256.14	138.65	69.173	38.652	3.2079e-07	84.478	146.847	-79.606	-62.351	-140.362	-21.150	-32.722	-141.892	-135.944	-47.050	-16.136	-137.249	-133.901	-133.041	-128.195	-52.288	-129.971	-8191	255	
9206.450	1	1	0	0	0.14906	0.092828	0.32765	0.26291	0.026463	0.17005	0.11075	0.06569	0.040846	0.29029	0.3292	0.12947	0.098631	0.1438	0.12064	0.19248	-2.2229	-2.4938	-2.6354	-2.6458	-2.3125	-2.8521	-2.5604	-2.6688	-2.7396	-2.4	-2.7333	-2.7521	-2.4292	-2.7792	-2.4875	-2.5917	111.637	-65.388	-57.460	71.287	20.920	-113.465	-88.520	79.539	-108.061	-96.375	107.250	130.897	198.903	138.506	-23.192	149.546	0.0011935	0.00043578	0.00013171	342.74	3.2974e-06	4.5016e-06	537.82	141.62	4.2771e-06	3.2911e-06	268.7	143.74	71.504	39.855	4.669e-06	86.581	0.00011264	2.4401e-05	6.9416e-06	332.5	2.735e-07	2.391e-07	524.31	138.05	2.8652e-07	2.5069e-07	259.96	140.23	69.638	38.923	3.268e-07	84.869	148.670	-88.946	-75.477	-140.718	-27.845	-14.594	-141.436	-135.680	-51.822	-10.498	-137.598	-133.816	-133.285	-128.217	-45.393	-130.075	-8191	255	
9206.546	1	1	0	0	0.13948	0.26362	0.20019	0.25627	0.084588	0.18971	0.18452	0.014829	0.23334	0.048438	0.17177	0.14799	0.26387	0.021892	0.13197	0.27859	-1.9813	-2.3021	-2.4958	-2.6104	-2.3708	-2.7604	-2.5604	-2.3812	-2.6063	-2.4708	-2.5583	-2.5938	-2.4729	-2.775	-2.4208	-2.4625	134.014	-57.766	163.966	-123.338	88.283	177.048	72.432	-149.973	3.304	-49.085	-42.792	-13.111	159.161	-111.107	94.941	99.414	0.0012105	0.00039266	0.0001141	342.16	3.5826e-06	4.8705e-06	539.47	141.41	4.4507e-06	3.5517e-06	268.39	142.83	71.688	39.71	3.7728e-06	86.66	0.00011371	2.5352e-05	6.5905e-06	332.22	2.8316e-07	2.4442e-07	525.13	137.75	2.868e-07	2.3819e-07	260.47	139.62	69.369	38.803	3.0901e-07	85.071	148.745	-86.297	-50.152	-140.287	-32.700	-28.261	-141.697	-135.438	-48.711	-3.436	-137.425	-133.971	-133.126	-128.076	-40.321	-129.984	-8191	255	
9206.642	1	1	0	0	0.044716	0.2472	0.25874	0.15123	0.036927	0.13184	0.18213	0.087856	0.061871	0.070619	0.12299	0.087551	0.18616	0.11075	0.20113	0.06977	-2.2042	-2.4313	-2.4229	-2.7479	-2.4125	-2.5438	-2.8	-2.4396	-2.8042	-2.5625	-2.6375	-2.8229	-2.3	-2.6979	-2.5563	-2.4188	206.221	82.028	-95.626	134.310	191.070	109.017	195.213	113.331	-104.225	-34.787	145.223	-96.074	102.116	-126.193	-136.074	100.208	0.0011786	0.00049806	0.00012848	342.35	4.0323e-06	4.1956e-06	533.18	140.7	4.7093e-06	4.3768e-06	264.3	141.79	71.837	39.57	4.4221e-06	85.978	0.000112	2.4838e-05	6.7196e-06	331.44	2.9022e-07	2.3982e-07	519.54	137.35	2.8723e-07	2.5553e-07	256.03	138.28	69.101	38.619	3.1602e-07	84.202	146.454	-68.588	-58.285	-140.654	-21.650	-19.120	-141.738	-135.560	-40.627	-14.565	-137.610	-133.785	-133.232	-127.970	-38.539	-129.992	-8191	255	
9206.763	1	1	0	0	0.16074	0.11652	0.13847	0.11458	0.04411	0.12144	0.12665	0.12976	0.1633	0.37402	0.048687	0.30539	0.079524	0.11276	0.067343	0.3647	-2.2104	-2.5083	-2.3646	-2.7875	-2.5125	-2.8146	-2.7042	-2.3646	-2.8396	-2.6354	-2.6146	-2.7833	-2.525	-2.6896	-2.6104	-2.6771	-53.217	-74.444	-41.175	113.417	157.587	14.092	-89.333	102.871	18.616	132.781	-146.106	200.518	-10.701	-70.792	-47.255	137.004	0.0011803	0.00047962	0.00012664	338.96	3.7604e-06	5.1078e-06	524.22	139.33	3.8275e-06	3.1238e-06	262.08	141.11	71.115	39.247	4.7732e-06	86.071	0.00011126	2.4525e-05	6.5741e-06	327.13	2.7893e-07	2.5182e-07	509.8	135.68	2.7564e-07	2.4585e-07	254.08	137.69	68.801	38.456	3.1891e-07	84.165	148.626	-77.278	-68.253	-140.502	-22.058	-17.999	-141.659	-135.532	-30.456	-10.598	-137.484	-133.588	-133.272	-127.875	-34.645	-130.082	-8191	255	
9206.834	1	1	0	0	0.18439	0.018515	0.33375	0.12257	0.16141	0.020941	0.056072	0.27368	0.12197	0.19623	0.094005	0.17965	0.19036	0.18928	0.049611	0.050439	-2.2667	-2.7062	-2.4521	-2.7958	-2.4542	-2.7396	-2.925	-2.5333	-2.6188	-2.4521	-2.6021	-2.8812	-2.5687	-2.6312	-2.7396	-2.6625	84.050	34.719	186.734	144.478	-147.422	160.820	-78.268	147.797	111.955	37.650	195.144	-58.555	-44.610	-129.700	-12.449	198.566	0.0011811	0.00043681	0.00014457	337.39	4.2934e-06	4.8791e-06	526.51	139.97	3.8908e-06	3.8992e-06	263.04	141.91	71.121	39.58	4.8157e-06	86.124	0.00011037	2.3717e-05	6.6487e-06	327.62	2.7364e-07	2.6043e-07	512.28	136.38	2.8339e-07	2.6145e-07	255.9	138.53	68.956	38.639	3.0886e-07	84.474	148.411	-77.941	-41.744	-140.235	-24.022	-21.578	-141.672	-135.601	-30.066	-6.407	-137.384	-133.780	-133.047	-127.907	-49.052	-129.998	-8191	255	
9206.955	1	1	0	0	0.044648	0.16075	0.22003	0.28177	0.094019	0.20588	0.23114	0.2072	0.239	0.16661	0.16636	0.19974	0.12507	0.2239	0.28836	0.21909	-2.3833	-2.5917	-2.4917	-2.675	-2.5604	-2.5563	-2.8292	-2.4229	-2.6875	-2.675	-2.3958	-2.9417	-2.4958	-2.675	-2.6792	-2.6063	-136.666	79.225	-87.901	164.931	-35.228	-67.871	168.977	-58.051	168.194	177.860	89.873	118.360	141.038	-86.839	157.084	135.945	0.0011588	0.00043913	0.00013421	340.56	4.4506e-06	5.165e-06	529.45	141.08	4.6564e-06	3.6712e-06	264.54	142.31	70.995	39.258	3.5093e-06	85.731	0.00011243	2.3424e-05	6.7178e-06	329.29	2.6144e-07	2.5261e-07	515.73	137.31	2.991e-07	2.4881e-07	257.35	138.94	68.799	38.558	3.0756e-07	84.113	148.341	-70.367	-55.727	-140.517	-22.393	-19.760	-141.595	-135.826	-36.942	-4.939	-137.597	-133.685	-133.085	-128.112	-48.400	-130.015	-8191	255	
9207.051	1	1	0	0	0.15946	0.25625	0.078045	0.16721	0.32166	0.1919	0.26983	0.28643	0.15551	0.32484	0.30528	0.14952	0.060075	0.25743	0.028271	0.22801	-2.2208	-2.6646	-2.3396	-2.7313	-2.475	-2.5583	-2.8125	-2.5708	-2.6583	-2.85	-2.4854	-2.7708	-2.5583	-2.7604	-2.7521	-2.7167	32.505	-140.927	-63.083	-115.752	146.271	201.745	131.905	-128.262	-127.726	152.210	164.011	-103.040	156.239	-135.213	-41.547	135.280	0.0011819	0.00039448	0.00013542	338.34	4.0556e-06	4.1604e-06	524.74	136.84	3.1383e-06	3.0651e-06	255.14	137.89	68.718	38.502	4.1966e-06	83.923	0.00011138	2.4564e-05	6.7378e-06	327.48	2.6313e-07	2.6058e-07	509.67	133.63	2.858e-07	2.1694e-07	249	134.53	66.582	37.5	2.9302e-07	82.223	148.101	-73.443	-69.193	-140.490	-27.823	-25.487	-141.464	-135.656	-50.977	-9.536	-137.590	-133.722	-132.977	-128.056	-52.201	-129.897	-8191	255	
9207.147	1	1	0	0	0.18365	0.09798	0.056985	0.31379	0.10937	0.048041	0.1557	0.25026	0.18466	0.27093	0.034636	0.064952	0.30641	0.16345	0.23489	0.077333	-2.125	-2.7	-2.3312	-2.6854	-2.6521	-2.4479	-2.8521	-2.6375	-2.4396	-2.8792	-2.55	-2.7604	-2.7687	-2.5354	-2.8729	-2.7854	-15.101	73.385	-1.006	36.692	64.299	10.419	108.008	150.175	-111.977	60.387	-106.238	149.084	-116.391	-134.331	115.240	30.786	0.0011441	0.00038397	0.00013421	331.69	4.4863e-06	3.7601e-06	511.91	133.85	3.9948e-06	3.5653e-06	252.41	137.11	68.295	38.135	4.3038e-06	83.5	0.00010821	2.1236e-05	6.7433e-06	321.28	2.5791e-07	2.5296e-07	497.56	130.88	2.9142e-07	2.2005e-07	246.14	133.43	66.13	37.202	3.2058e-07	81.864	147.774	-90.679	-56.163	-140.269	-31.036	-25.241	-141.564	-135.590	-37.255	-25.692	-137.492	-133.743	-133.039	-127.963	-41.175	-130.059	-8191	255	
9207.243	1	1	0	0	0.034587	0.10185	0.35356	0.23842	0.089628	0.10762	0.23675	0.2072	0.085063	0.12179	0.25258	0.16149	0.18014	0.20829	0.3126	0.22973	-2.3542	-2.7229	-2.5979	-2.6312	-2.5938	-2.4583	-2.5604	-2.5125	-2.525	-2.8021	-2.6542	-2.6604	-2.8125	-2.4771	-2.6833	-2.6083	169.949	149.191	28.609	174.405	-143.289	-104.535	-146.068	182.960	-77.893	94.212	165.146	-138.630	115.702	58.250	167.315	96.652	0.001148	0.00046727	9.2608e-05	330.97	4.2028e-06	4.721e-06	517.77	134.49	4.6364e-06	3.8156e-06	252.4	136.37	67.954	37.718	4.4241e-06	83.109	0.00010632	2.362e-05	6.6651e-06	321.67	2.6193e-07	2.4851e-07	501.73	130.51	2.858e-07	2.4043e-07	246.04	132.75	65.588	36.925	3.0141e-07	81.522	148.361	-80.313	-54.296	-140.473	-30.463	-24.761	-141.536	-135.574	-41.346	-11.780	-137.210	-133.570	-133.451	-127.714	-40.925	-129.897	-8191	255	
9207.364	1	1	0	0	0.089509	0.072238	0.10379	0.07497	0.21861	0.15641	0.10896	0.10075	0.076114	0.3528	0.18462	0.06168	0.24391	0.11997	0.069016	0.3474	-2.0667	-2.7375	-2.5146	-2.6437	-2.5854	-2.3917	-2.8083	-2.6521	-2.5104	-2.9292	-2.4938	-2.7875	-2.5812	-2.5396	-2.7271	-2.7771	52.104	31.167	122.694	-63.487	-151.160	17.683	169.802	-121.547	-34.055	-133.328	71.709	47.120	133.919	-135.332	-52.900	119.941	0.0011269	0.00045242	0.00012236	328.42	3.7309e-06	5.1631e-06	519.85	134.41	3.509e-06	3.4547e-06	257.83	136.8	67.532	37.763	3.6259e-06	83.382	0.00010705	2.3997e-05	6.6432e-06	320.76	2.4902e-07	2.6345e-07	506.62	130.88	2.9654e-07	2.2193e-07	248.83	133.36	65.584	36.927	3.1183e-07	81.84	147.403	-83.440	-52.475	-140.407	-24.797	-23.686	-141.556	-135.505	-25.489	-24.042	-137.530	-133.579	-133.252	-128.180	-33.715	-129.796	-8191	255	
9207.436	1	1	0	0	0.28013	0.094315	0.17494	0.1255	0.17061	0.010893	0.012236	0.27483	0.19347	0.1858	0.12918	0.19773	0.072767	0.39373	0.20617	0.21217	-2.0042	-2.7938	-2.2958	-2.6146	-3.0042	-2.3146	-2.7229	-2.6021	-2.4188	-2.6292	-2.5187	-2.8396	-2.9292	-2.4208	-2.6917	-2.7104	141.091	138.608	-150.585	0.388	-134.468	-22.300	84.332	85.345	187.060	-60.980	-39.961	141.048	150.140	139.606	-83.227	173.192	0.0011477	0.00044505	0.00011962	337.87	3.5438e-06	4.7615e-06	528.86	134.09	3.0166e-06	3.3418e-06	256.25	137.32	67.6	37.682	3.5067e-06	83.309	0.00010921	2.2024e-05	6.3849e-06	325.68	2.4754e-07	2.4284e-07	514.64	131.41	2.6597e-07	2.1701e-07	248.16	133.59	65.619	36.88	2.8912e-07	81.516	147.318	-72.014	-54.171	-140.312	-18.585	-24.900	-141.708	-135.589	-44.872	-8.866	-137.753	-133.697	-133.130	-127.929	-39.864	-129.924	-8191	255	
9207.530	1	1	0	0	0.2561	0.075286	0.096459	0.12698	0.054735	0.25915	0.20413	0.32965	0.010679	0.25903	0.15695	0.21001	0.080671	0.12948	0.096528	0.15578	-1.9854	-2.8	-2.4979	-2.4771	-2.8417	-2.3354	-2.6604	-2.6708	-2.3688	-2.8812	-2.6771	-2.6146	-2.75	-2.4958	-2.6375	-2.95	89.708	167.581	46.473	199.279	-8.661	-33.240	-60.889	-127.429	117.382	-81.980	-38.949	167.806	-122.552	116.912	-59.946	79.893	0.0011315	0.00043338	0.00013618	331.54	4.2534e-06	4.9244e-06	521.58	134.29	4.0412e-06	3.39e-06	253.76	137.19	68.166	38.059	4.0868e-06	83.448	0.00010558	2.0748e-05	6.0029e-06	322.77	2.5036e-07	2.2388e-07	507.93	130.69	2.7877e-07	2.1954e-07	246.65	133.79	65.989	37.231	2.9368e-07	81.815	148.372	-70.192	-65.666	-140.493	-13.099	-17.534	-141.528	-135.434	-46.314	-4.023	-137.514	-133.731	-132.742	-127.992	-35.729	-130.048	-8191	255	
9207.626	1	1	0	0	0.09241	0.15434	0.17362	0.11385	0.15507	0.16746	0.16933	0.17619	0.089774	0.084641	0.13026	0.034835	0.14513	0.26269	0.2162	0.17126	-2.0646	-2.6396	-2.6375	-2.4542	-2.6312	-2.5667	-2.7229	-2.5687	-2.4354	-2.6688	-2.7271	-2.6375	-2.6958	-2.5	-2.4083	-3.0312	-92.608	12.716	-55.492	153.189	67.522	-104.795	25.469	140.887	-81.367	98.407	170.493	67.874	-23.732	132.233	143.662	124.150	0.0011388	0.00036077	0.00013389	333.56	2.8009e-06	3.8356e-06	526.11	135.63	4.8289e-06	3.7081e-06	257.19	138.12	68.205	37.913	3.5259e-06	83.395	0.00010738	2.2402e-05	6.1248e-06	324.69	2.5601e-07	2.4162e-07	513.94	131.75	2.8993e-07	2.379e-07	249.05	134.14	66.05	37.132	3.0532e-07	81.9	147.097	-69.065	-61.957	-140.676	-20.527	-8.548	-141.561	-135.775	-49.255	-10.779	-137.360	-133.596	-133.116	-127.930	-52.705	-130.030	-8191	255	
9207.722	1	1	0	0	0.086452	0.13633	0.28302	0.23528	0.15283	0.059124	0.2643	0.15267	0.059262	0.11753	0.15297	0.22038	0.038574	0.321	0.093635	0.087405	-1.9167	-2.7333	-2.8187	-2.4667	-2.5896	-2.5271	-2.6979	-2.7562	-2.3625	-2.7208	-2.8	-2.3354	-2.6312	-2.5604	-2.6	-3.0667	78.854	90.560	167.520	16.127	-34.740	140.404	179.563	98.426	174.948	193.287	-138.146	131.778	-112.552	-116.814	86.921	157.598	0.0011403	0.0004979	0.00013643	336.87	3.9483e-06	4.6382e-06	531.16	136.05	4.7854e-06	4.8119e-06	258.62	138	68.45	38.097	4.2588e-06	83.89	0.00010983	2.2083e-05	6.2921e-06	326.04	2.5198e-07	2.3867e-07	516.25	132.61	3.023e-07	2.3255e-07	251.83	134.72	66.42	37.265	3.012e-07	82.215	149.478	-74.029	-67.725	-140.298	-20.216	-18.010	-141.764	-135.525	-45.719	-20.428	-137.557	-133.595	-133.046	-127.925	-42.047	-129.924	-8191	255	
9207.841	1	1	0	0	0.16328	0.19199	0.15121	0.17686	0.10563	0.38545	0.1805	0.074371	0.086965	0.13043	0.14561	0.28314	0.13348	0.060324	0.079971	0.24504	-2.0604	-2.6188	-2.675	-2.7354	-2.4854	-2.6625	-2.6479	-2.9667	-2.7313	-2.7042	-2.85	-2.5479	-2.8479	-2.6937	-2.4208	-2.9021	201.193	-39.642	41.819	16.789	-124.572	-143.169	104.091	205.097	81.501	-102.016	136.622	203.570	46.624	-82.847	155.490	192.169	0.0011055	0.00037095	0.00012382	340.02	3.5857e-06	4.9285e-06	531.95	136.43	4.0027e-06	3.724e-06	257.71	138.55	68.578	38.16	4.2574e-06	83.331	0.00010736	2.2623e-05	6.1066e-06	327.34	2.5728e-07	2.4004e-07	517.71	133.06	2.7962e-07	2.4028e-07	251.25	134.76	66.282	37.302	2.9679e-07	82.038	147.972	-72.413	-54.444	-140.683	-16.298	-17.125	-141.231	-135.844	-41.630	-7.813	-137.395	-133.883	-132.833	-128.080	-48.825	-129.847	-8191	255	
9207.937	1	1	0	0	0.36566	0.067214	0.12809	0.089437	0.22308	0.13955	0.092854	0.16707	0.26505	0.11139	0.37532	0.17159	0.22095	0.060236	0.19961	0.15045	-1.9896	-2.4729	-2.5833	-2.6167	-2.6188	-2.6271	-2.5042	-2.775	-2.4208	-2.5438	-2.7375	-2.4625	-2.7438	-2.3937	-2.3396	-2.9562	45.401	112.227	-66.700	-18.517	149.780	-114.092	67.274	-142.045	80.955	-113.929	105.075	35.933	194.108	-106.272	172.501	-28.614	0.0011717	0.0004005	0.00013629	332.3	4.5698e-06	4.961e-06	520.3	134.59	5.1487e-06	3.3503e-06	253.55	136.78	68.536	38.277	3.2637e-06	83.584	0.00011007	2.3594e-05	6.4359e-06	323.12	2.6765e-07	2.3551e-07	507.11	131.08	2.7606e-07	2.3125e-07	246.71	133.67	66.269	37.338	2.8283e-07	81.875	146.928	-91.310	-63.322	-140.655	-22.605	-14.967	-141.781	-135.706	-50.227	-4.366	-137.496	-133.721	-133.095	-128.045	-54.511	-129.933	-8191	255	
9208.034	1	1	0	0	0.14941	0.067928	0.11492	0.14639	0.067092	0.385	0.16966	0.16354	0.26292	0.15068	0.096321	0.086936	0.16889	0.25624	0.17659	0.12082	-2.0333	-2.3875	-2.6729	-2.4375	-2.6896	-2.5583	-2.5333	-2.7958	-2.4542	-2.7542	-2.8937	-2.525	-2.7687	-2.8375	-2.3958	-2.9583	-153.240	12.552	193.167	57.741	-47.195	-127.729	58.150	130.592	-20.157	93.740	156.429	-121.924	127.313	41.930	193.722	-120.499	0.0011447	0.00041726	0.00013481	334.41	4.296e-06	3.1538e-06	522.1	135.18	5.0416e-06	3.1028e-06	256.27	138.23	68.531	38.332	4.4199e-06	83.959	0.00010912	2.3822e-05	6.3158e-06	324.49	2.5953e-07	2.3451e-07	509.07	132.12	2.959e-07	2.2344e-07	249.15	134.58	66.586	37.437	3.2672e-07	82.433	146.582	-76.334	-62.788	-140.292	-29.858	-24.069	-141.527	-135.763	-39.887	3.131	-137.411	-133.596	-133.045	-127.896	-36.447	-130.129	-8191	255	
9208.130	1	1	0	0	0.12395	0.29327	0.51823	0.085444	0.18474	0.14236	0.25829	0.043206	0.049835	0.11851	0.30858	0.17576	0.13429	0.35981	0.12526	0.13656	-2.1958	-2.5187	-2.7604	-2.5896	-2.5729	-2.7938	-2.3667	-2.8125	-2.5542	-2.6125	-2.925	-2.625	-2.6146	-2.8771	-2.55	-2.7333	75.260	89.881	-109.972	49.028	45.127	-46.361	202.402	178.186	201.151	-70.079	34.041	55.190	146.813	175.866	-64.922	109.741	0.0011403	0.00033184	0.00010459	336.51	4.7388e-06	4.2777e-06	529.09	137.06	3.8968e-06	3.3496e-06	258.8	138.23	68.678	38.19	4.2055e-06	83.704	0.00010994	2.2617e-05	6.454e-06	325.98	2.5255e-07	2.2998e-07	513.6	133.5	2.8865e-07	2.3732e-07	251	134.7	66.773	37.384	2.965e-07	82.211	148.775	-71.588	-54.902	-140.439	-35.036	-15.596	-141.523	-135.556	-27.274	-20.127	-137.543	-133.646	-133.324	-128.164	-37.524	-129.806	-8191	255	
9208.226	1	1	0	0	0.10779	0.19151	0.085247	0.2649	0.11232	0.19405	0.02717	0.11228	0.37733	0.10635	0.14985	0.11355	0.049639	0.29915	0.13727	0.23685	-2.075	-2.525	-2.7646	-2.65	-2.5521	-2.8292	-2.4979	-2.7771	-2.5729	-2.525	-2.9042	-2.7375	-2.4813	-2.8583	-2.5729	-2.8625	-52.041	20.735	194.332	89.437	-96.680	135.602	164.805	-133.229	7.523	-94.253	78.963	112.960	-115.705	204.613	51.624	174.541	0.0011401	0.0005699	0.0001211	335.22	3.5355e-06	5.8233e-06	525.05	135.22	4.1375e-06	3.4738e-06	257.21	137.88	68.993	38.18	3.9623e-06	84.02	0.00010719	2.5124e-05	6.374e-06	324.64	2.5424e-07	2.2388e-07	509.76	131.86	2.74e-07	2.4158e-07	249.99	134.53	66.688	37.399	3.1537e-07	82.347	149.215	-77.475	-57.451	-140.525	-22.778	-28.972	-141.706	-135.582	-46.113	-14.597	-137.451	-133.679	-133.386	-127.708	-37.143	-130.128	-8191	255	
9208.346	1	1	0	0	0.096624	0.06368	0.02477	0.25128	0.12969	0.2363	0.25731	0.086242	0.19451	0.066444	0.20449	0.17124	0.32791	0.1194	0.046066	0.27265	-2.2438	-2.5479	-2.6042	-2.4583	-2.5792	-2.8667	-2.6125	-2.8146	-2.7438	-2.5229	-2.8187	-2.575	-2.4646	-2.9417	-2.5062	-2.75	34.396	121.456	201.796	202.180	-67.239	35.855	203.226	138.544	84.123	-66.954	167.690	-146.716	148.494	-125.787	108.096	56.154	0.0011711	0.00037229	0.00014302	336.35	3.9549e-06	4.6058e-06	529.07	136.63	4.1459e-06	3.8481e-06	259.12	138.45	68.81	38.237	4.544e-06	84.105	0.00010758	2.3483e-05	6.3576e-06	324.62	2.5819e-07	2.149e-07	512.26	133.11	2.8872e-07	2.569e-07	251.43	134.86	66.477	37.352	3.0315e-07	82.499	148.040	-73.064	-56.564	-140.286	-21.494	-21.803	-141.626	-135.668	-36.275	-9.348	-137.588	-133.623	-133.007	-128.113	-46.246	-130.079	-8191	255	
9208.443	1	1	0	0	0.16956	0.10927	0.26634	0.14475	0.151	0.15816	0.21387	0.22434	0.10491	0.1661	0.1226	0.22425	0.099769	0.22258	0.26662	0.20377	-2.3375	-2.4021	-2.6083	-2.5354	-2.5104	-2.8375	-2.5563	-2.7479	-2.8458	-2.7104	-3.0042	-2.6833	-2.5708	-3.0979	-2.3917	-2.7979	156.039	-94.976	51.003	-69.968	31.777	24.378	128.959	54.579	49.844	-48.355	40.344	190.735	99.080	177.877	8.069	164.730	0.0011667	0.00033986	0.00014255	336.08	4.5701e-06	4.4656e-06	523.38	136.87	4.1713e-06	3.5503e-06	260.29	139.74	69.358	38.557	3.8743e-06	84.846	0.00010924	2.2903e-05	6.2339e-06	325.89	2.7399e-07	2.3364e-07	512.19	133.71	2.8076e-07	2.4086e-07	252.95	135.86	66.95	37.635	2.8442e-07	83.078	147.785	-73.552	-54.283	-140.310	-16.411	-11.090	-141.519	-135.939	-44.926	-9.695	-137.446	-133.682	-133.191	-128.202	-42.218	-129.999	-8191	255	
9208.539	1	1	0	0	0.17653	0.23898	0.18983	0.086956	0.1312	0.14013	0.19044	0.068497	0.27343	0.14355	0.17385	0.098412	0.025044	0.26698	0.15285	0.35244	-2.1688	-2.5521	-2.8271	-2.6521	-2.5563	-2.7729	-2.6792	-2.5917	-2.6979	-2.5	-2.9521	-2.7812	-2.5604	-3.0042	-2.7042	-2.8167	65.583	36.954	-132.221	87.077	-35.693	-104.215	46.433	11.056	174.445	155.030	91.941	-40.928	104.132	181.020	130.074	166.715	0.0011457	0.00041542	0.00011174	337.5	4.8583e-06	4.6806e-06	528.57	137.7	4.6244e-06	3.7584e-06	261.69	139.97	69.547	38.535	4.3355e-06	85.016	0.00010857	2.3542e-05	5.7537e-06	325.81	2.7428e-07	2.3515e-07	514.22	134.28	3.0422e-07	2.4534e-07	255.06	136.58	67.226	37.8	3.1009e-07	83.571	147.537	-82.361	-50.296	-140.793	-35.109	-27.775	-141.515	-135.466	-40.647	-21.608	-137.166	-133.754	-133.295	-128.056	-41.963	-130.028	-8191	255	
9208.635	1	1	0	0	0.096238	0.21156	0.10178	0.32683	0.17934	0.24747	0.14313	0.1626	0.33356	0.10429	0.15053	0.19821	0.049461	0.28713	0.28617	0.19484	-2.1167	-2.4875	-2.7646	-2.6229	-2.3833	-2.8083	-2.7542	-2.5312	-2.8083	-2.5187	-2.7708	-2.7625	-2.4688	-2.8417	-2.4667	-2.6562	36.318	-7.816	8.270	145.115	124.427	-132.018	198.537	9.344	188.965	162.971	203.635	-117.014	201.165	-119.194	118.028	131.189	0.0011373	0.00051112	0.00011914	337.29	4.1147e-06	4.6205e-06	528.37	138.6	4.4218e-06	3.42e-06	264.26	140.84	70.25	38.863	4.0339e-06	85.474	0.00010992	2.4037e-05	6.1684e-06	326.25	2.6899e-07	2.3508e-07	515.82	135.33	2.9626e-07	2.4693e-07	256.73	137.34	67.889	37.95	3.1906e-07	83.713	147.806	-76.969	-66.203	-140.993	-31.175	-6.144	-141.593	-135.788	-38.605	-22.623	-137.422	-133.665	-133.326	-128.248	-39.283	-129.941	-8191	255	
9208.731	1	1	0	0	0.09404	0.20167	0.21102	0.094378	0.18476	0.19512	0.12706	0.14957	0.19134	0.3379	0.15925	0.19254	0.017418	0.13624	0.11283	0.18915	-2.2188	-2.3625	-2.6625	-2.6146	-2.375	-2.7208	-2.6833	-2.6521	-2.8979	-2.3458	-2.8438	-2.7771	-2.4938	-2.8479	-2.5479	-2.7292	-5.545	-100.583	-19.830	113.671	30.913	159.560	150.680	30.891	32.297	114.299	201.475	-98.699	-40.544	167.000	127.822	158.354	0.0011749	0.00044415	0.0001304	336.06	3.8658e-06	4.5467e-06	518.38	136.48	4.0634e-06	3.7067e-06	255.92	138.87	69.428	38.722	4.1781e-06	84.649	0.00011178	2.5046e-05	6.2812e-06	324.99	2.7907e-07	2.4233e-07	504.72	133.1	2.6355e-07	2.3334e-07	248.9	135.43	67.207	37.702	2.9664e-07	82.929	147.850	-68.850	-65.237	-140.287	-26.807	-13.893	-141.507	-135.565	-53.201	-6.448	-137.561	-133.705	-133.222	-128.163	-47.914	-129.978	-8191	255	
9208.827	1	1	0	0	0.16901	0.21737	0.11167	0.1155	0.17812	0.18443	0.069507	0.16397	0.19029	0.27437	0.13798	0.24518	0.26114	0.20368	0.10842	0.077428	-2.45	-2.5583	-2.6271	-2.6625	-2.4437	-2.7375	-2.8	-2.6208	-2.7667	-2.575	-2.7292	-2.8563	-2.4271	-2.7604	-2.6646	-2.5708	192.133	-22.936	181.046	97.007	139.681	170.287	113.004	130.029	83.623	39.861	137.991	145.422	-126.436	-75.372	38.116	188.391	0.0011777	0.0004943	0.00011534	333.08	3.8885e-06	3.9771e-06	518.84	137.49	3.6503e-06	3.4276e-06	257.72	138.68	69.681	38.669	4.4195e-06	84.833	0.00011035	2.4427e-05	6.8815e-06	322.54	2.7787e-07	2.59e-07	504.54	133.61	2.7393e-07	2.4505e-07	250.68	135.49	67.33	37.832	3.0373e-07	83.024	147.689	-80.117	-65.453	-140.632	-14.965	-12.123	-141.486	-135.674	-34.452	-9.879	-137.527	-133.582	-133.061	-128.041	-38.220	-130.027	-8191	255	
9208.922	1	1	0	0	0.29386	0.14239	0.061006	0.10182	0.044025	0.040593	0.18783	0.24496	0.17827	0.18701	0.24846	0.16454	0.10078	0.10797	0.095501	0.19268	-2.1479	-2.3271	-2.5542	-2.6083	-2.4938	-2.5146	-2.4708	-2.6437	-2.8125	-2.4688	-2.5271	-2.6854	-2.4375	-2.7333	-2.7792	-2.7354	-22.596	101.439	142.132	-111.202	184.583	-98.404	83.147	37.078	136.056	-150.182	-67.384	162.002	-131.473	63.088	30.242	97.424	0.0011592	0.00046352	0.00013728	334.32	4.1977e-06	4.6509e-06	522.61	138.02	4.1549e-06	4.0812e-06	259.8	140.55	69.985	38.951	4.6496e-06	85.244	0.00010948	2.4447e-05	6.5268e-06	324.51	2.9678e-07	2.4628e-07	508.25	134.75	2.8111e-07	2.4043e-07	253.55	136.91	68.008	38.142	3.1241e-07	83.795	148.093	-77.101	-59.193	-140.739	-32.464	-21.404	-141.285	-135.609	-51.169	-2.496	-137.513	-133.747	-133.151	-128.081	-50.202	-129.876	-8191	255	
9209.018	1	1	0	0	0.12847	0.29564	0.11899	0.17987	0.057917	0.083144	0.16457	0.12501	0.23097	0.25545	0.13387	0.11472	0.20887	0.22855	0.19611	0.29027	-2.2417	-2.5792	-2.3688	-2.8833	-2.625	-2.7188	-2.8583	-2.4708	-2.7562	-2.7667	-2.4208	-2.7125	-2.4729	-2.6396	-2.5729	-2.5271	28.421	148.260	-82.797	175.150	168.359	-99.991	201.848	149.110	161.788	153.936	-102.074	149.317	-108.916	109.269	7.809	198.758	0.0011566	0.00043032	0.00010246	337.62	3.5834e-06	4.5361e-06	527.16	140.43	3.9272e-06	3.9474e-06	265.56	141.76	71.129	39.298	4.3546e-06	85.833	0.0001123	2.3685e-05	6.6614e-06	326.79	2.6969e-07	2.4183e-07	513.32	136.63	2.7621e-07	2.4353e-07	256.86	138.44	68.598	38.371	3.0966e-07	84.277	148.172	-84.898	-53.922	-140.647	-18.519	-14.964	-141.451	-135.476	-45.959	-29.941	-137.375	-133.538	-133.239	-128.037	-53.131	-129.880	-8191	255	
9209.138	1	1	0	0	0.06381	0.15049	0.23761	0.15535	0.25746	0.098576	0.1846	0.32029	0.090583	0.16606	0.26916	0.11597	0.10059	0.24125	0.096742	0.29494	-2.2979	-2.7292	-2.2958	-2.8417	-2.6167	-2.5396	-2.8063	-2.4792	-2.8333	-2.8375	-2.7729	-2.9146	-2.6604	-2.6833	-2.6417	-2.6042	170.587	-50.296	77.440	141.259	91.618	102.372	131.133	67.430	169.349	22.634	138.840	170.062	-108.679	-8.924	166.432	139.905	0.0011985	0.00041634	0.00014016	338.3	3.4802e-06	5.6091e-06	520.92	138.9	3.8105e-06	3.082e-06	260.18	140.78	70.971	39.202	4.3935e-06	85.295	0.00011339	2.3437e-05	7.0234e-06	327.19	2.6638e-07	2.6065e-07	507.91	135.37	2.9035e-07	2.324e-07	252.95	137.45	68.547	38.419	3.2839e-07	83.769	148.599	-86.377	-59.386	-140.678	-32.625	-21.584	-141.615	-135.653	-36.294	-9.595	-137.475	-133.678	-133.039	-128.157	-33.847	-130.077	-8191	255	
9209.235	1	1	0	0	0.020502	0.2669	0.32425	0.039674	0.11174	0.13318	0.14713	0.12449	0.14848	0.033621	0.14508	0.07744	0.30176	0.17216	0.15808	0.27632	-2.0042	-2.6208	-2.3792	-2.7083	-2.525	-2.4437	-2.7417	-2.6063	-2.6937	-2.6479	-2.5229	-2.7271	-2.7104	-2.5833	-2.9417	-2.7104	202.375	132.874	133.890	119.154	-7.207	-102.581	-133.528	-81.465	177.661	-144.486	172.855	100.326	-78.287	-123.779	178.090	129.607	0.0011499	0.00044394	0.00014221	334.86	4.5554e-06	4.4927e-06	522.09	138.68	3.7245e-06	3.9754e-06	261.91	141.56	71.732	39.638	4.3545e-06	86.07	0.00011004	2.4974e-05	6.5086e-06	325.5	2.8112e-07	2.4147e-07	506.99	135.7	3.0607e-07	2.522e-07	253.8	138.04	69.029	38.704	3.1985e-07	84.295	146.648	-76.084	-70.526	-140.525	-4.328	-11.285	-141.495	-135.651	-51.702	-17.637	-137.512	-133.680	-133.370	-128.218	-44.977	-130.030	-8191	255	
9209.331	1	1	0	0	0.32593	0.082966	0.19723	0.01596	0.30747	0.20568	0.24851	0.20356	0.26403	0.19095	0.19201	0.070085	0.29531	0.071944	0.057772	0.17099	-2.1646	-2.5896	-2.4646	-2.5708	-2.6667	-2.4875	-2.6562	-2.4437	-2.5458	-2.6688	-2.6292	-2.9021	-2.4833	-2.6625	-2.8563	-2.6188	-128.219	106.635	18.012	192.573	172.519	-137.963	201.408	155.834	144.352	-1.693	180.833	-34.263	119.471	-18.162	86.829	151.974	0.0011594	0.00049615	0.00013226	334.86	4.1429e-06	4.7265e-06	523.58	139.85	3.8247e-06	3.5846e-06	262.03	141.73	71.538	39.449	3.5491e-06	86.168	0.00011139	2.3848e-05	6.8506e-06	326.49	2.7682e-07	2.4241e-07	509.87	136.32	2.9682e-07	2.6023e-07	255.19	138.39	68.988	38.635	3.0857e-07	84.334	149.194	-84.579	-54.696	-140.391	-14.208	-15.373	-141.596	-135.518	-30.125	-5.528	-137.426	-133.918	-133.158	-128.115	-49.817	-130.085	-8191	255	
9209.427	1	1	0	0	0.21521	0.23086	0.09706	0.10227	0.31092	0.10439	0.1518	0.18908	0.037353	0.10448	0.12906	0.23013	0.16733	0.18423	0.21762	0.29357	-2.1479	-2.7562	-2.25	-2.5604	-2.6312	-2.5438	-2.7687	-2.8	-2.6021	-2.8771	-2.325	-2.7208	-2.5458	-2.5854	-2.7104	-2.4875	-51.275	-96.001	24.985	180.209	102.809	136.008	141.268	114.226	156.095	182.682	-99.018	151.673	-114.360	-107.949	145.754	-142.689	0.0011872	0.0004298	0.00013593	337.93	2.9197e-06	3.9686e-06	524.67	139.31	4.4349e-06	3.7223e-06	263.56	142.39	70.982	39.413	3.7326e-06	86.344	0.00011332	2.2604e-05	6.6578e-06	327.71	2.7724e-07	2.5533e-07	512.55	135.88	3.1097e-07	2.2879e-07	256.64	138.74	68.761	38.535	3.1421e-07	84.621	147.807	-69.372	-60.992	-140.251	-34.789	-25.585	-141.513	-135.646	-47.172	-14.553	-137.542	-133.785	-133.242	-128.217	-43.343	-130.067	-8191	255	
9209.523	1	1	0	0	0.15856	0.12636	0.078309	0.18749	0.20924	0.12259	0.030714	0.10506	0.1409	0.38241	0.14071	0.17905	0.095992	0.0538	0.13255	0.1514	-2.0417	-2.7438	-2.3021	-2.5667	-2.5083	-2.6521	-2.7521	-2.4604	-2.5708	-2.6604	-2.5771	-2.8333	-2.7021	-2.4688	-2.9583	-2.8229	134.671	-138.663	13.893	170.970	107.701	109.533	90.902	21.434	129.816	97.921	97.794	87.285	48.012	56.314	77.250	164.178	0.0011862	0.00035841	0.00012187	341.02	4.5228e-06	4.9942e-06	528.56	139.9	4.3364e-06	3.8222e-06	262.56	141.83	71.387	39.541	3.7269e-06	86.156	0.00011386	2.3418e-05	6.7869e-06	329.07	2.7512e-07	2.6546e-07	514.33	136.03	3.0664e-07	2.3139e-07	254.57	138.33	69.102	38.665	3.1277e-07	84.354	147.869	-84.528	-55.604	-140.541	-21.070	-22.659	-141.774	-135.492	-49.101	-9.605	-137.468	-133.618	-133.565	-128.003	-33.850	-129.898	-8191	255	
9209.619	1	1	0	0	0.12388	0.24341	0.25198	0.38766	0.11731	0.42315	0.18034	0.19492	0.15568	0.16229	0.12979	0.44512	0.14242	0.23448	0.17204	0.30736	-2.2083	-2.7729	-2.4625	-2.6104	-2.6271	-2.4583	-2.7417	-2.6896	-2.4979	-2.8875	-2.5479	-2.5812	-2.7521	-2.3104	-2.5417	-2.9542	142.754	-77.812	141.213	-116.548	-144.133	82.841	91.150	140.971	31.645	96.911	65.880	168.635	122.568	181.269	120.440	149.182	0.0011945	0.00032066	0.00013071	337.07	3.6989e-06	5.3638e-06	526.18	140.94	4.7849e-06	4.6173e-06	262.21	142.31	71.87	39.779	3.9466e-06	86.36	0.00011373	2.1809e-05	6.847e-06	328.04	2.5057e-07	2.498e-07	510.91	136.87	2.9789e-07	2.5271e-07	255.12	139.22	69.79	38.993	3.2043e-07	84.798	148.095	-76.434	-76.262	-140.155	-20.475	-28.948	-141.300	-135.696	-46.926	-5.157	-137.238	-133.693	-133.186	-128.008	-54.142	-130.122	-8191	255	
9209.715	1	1	0	0	0.037932	0.19326	0.29242	0.37046	0.17239	0.30179	0.18798	0.095645	0.1599	0.089182	0.20389	0.29139	0.065991	0.22139	0.25697	0.17564	-2.1542	-2.7021	-2.4479	-2.4396	-2.6583	-2.6792	-2.65	-2.6104	-2.4896	-2.7646	-2.55	-2.375	-2.6188	-2.4958	-2.4521	-2.8187	1.410	55.794	30.976	84.276	-79.651	71.283	178.215	-29.028	1.882	84.841	86.085	182.501	-25.807	-139.056	-110.669	126.784	0.0011523	0.00042345	0.00012191	342.12	4.73e-06	4.2839e-06	530.33	141.5	3.8995e-06	3.0766e-06	266.11	143.55	72.642	40.181	3.8593e-06	86.956	0.0001124	2.4414e-05	6.4995e-06	330.91	2.5953e-07	2.4435e-07	516.62	138.09	3.0337e-07	2.3537e-07	258.37	140.32	70.17	39.214	3.132e-07	85.239	148.762	-84.027	-55.745	-140.432	-21.124	-24.596	-141.384	-135.327	-40.700	-21.217	-137.432	-133.677	-132.935	-128.162	-46.642	-129.715	-8191	255	
9209.836	1	1	0	0	0.10526	0.063008	0.12373	0.20491	0.14754	0.24035	0.046601	0.23011	0.21554	0.23128	0.098509	0.33764	0.33059	0.22219	0.25062	0.090788	-1.8813	-2.7	-2.5104	-2.6375	-2.7562	-2.475	-2.6396	-2.7333	-2.3875	-2.5958	-2.5333	-2.5333	-2.6333	-2.5146	-2.6479	-2.7875	134.636	-113.894	145.895	107.261	155.905	52.334	189.239	-120.171	-70.732	12.408	44.690	99.099	41.820	-111.077	-1.116	-139.060	0.0011704	0.00043871	0.00014035	339.85	3.3657e-06	4.7184e-06	530.91	139.99	3.8298e-06	2.7648e-06	262.29	141.2	71.069	39.154	4.7347e-06	85.761	0.00011392	2.2324e-05	6.7833e-06	329.15	2.6496e-07	2.6158e-07	516.56	136.01	3.0401e-07	2.4715e-07	255.83	138.04	68.742	38.424	3.26e-07	84.261	147.728	-72.205	-49.316	-140.112	-19.895	-15.920	-141.443	-135.799	-36.834	-14.750	-137.457	-133.656	-133.218	-128.128	-45.316	-130.053	-8191	255	
9209.930	1	1	0	0	0.10935	0.07431	0.20907	0.15921	0.16134	0.241	0.18832	0.15739	0.19824	0.2111	0.15897	0.24513	0.13145	0.20831	0.2557	0.19391	-2.0271	-2.6708	-2.7521	-2.5354	-2.7125	-2.5312	-2.6854	-2.6729	-2.5167	-2.5667	-2.6542	-2.6583	-2.75	-2.4354	-2.5083	-2.8625	187.118	-137.380	-109.545	153.129	-118.729	99.624	186.387	103.845	45.087	194.268	-140.195	-63.478	-67.007	204.985	-2.144	141.809	0.0011433	0.00041716	0.00011004	337.8	3.5655e-06	4.6228e-06	524.21	138.28	4.4026e-06	4.3753e-06	258.27	140.13	70.681	38.974	3.6066e-06	85.188	0.0001098	2.2376e-05	6.867e-06	326.95	2.6779e-07	2.3357e-07	511.59	134.33	2.9882e-07	2.5488e-07	251.03	136.88	68.03	38.209	3.1819e-07	83.412	146.963	-81.827	-60.039	-140.431	-19.736	-25.503	-141.263	-135.608	-43.189	-3.749	-137.489	-133.807	-132.954	-128.082	-33.623	-130.123	-8191	255	
9210.026	1	1	0	0	0.054856	0.21486	0.27518	0.24442	0.044632	0.17808	0.11351	0.32982	0.23484	0.1184	0.16789	0.18681	0.13003	0.268	0.082607	0.20496	-1.8917	-2.6396	-2.5979	-2.5	-2.7375	-2.5208	-2.5458	-2.9229	-2.4104	-2.7583	-2.8917	-2.6125	-2.8521	-2.5312	-2.4729	-2.8688	-118.922	196.144	129.821	106.228	-25.741	59.229	36.227	198.648	-50.574	-112.842	197.531	-151.017	-74.669	111.212	-126.602	191.040	0.001221	0.00043722	0.00015213	334.13	4.3824e-06	3.5834e-06	519.9	137.06	3.2339e-06	4.2e-06	257.95	139.84	70.83	39.218	3.7567e-06	85.455	0.00011224	2.4421e-05	6.6068e-06	323.46	2.6539e-07	2.3479e-07	505.54	133.55	2.964e-07	2.4657e-07	250.8	136.66	68.43	38.385	3.3302e-07	83.832	148.847	-70.478	-45.561	-140.576	-23.510	-25.831	-141.242	-135.527	-35.321	-15.717	-137.802	-133.812	-133.041	-127.786	-42.353	-130.101	-8191	255	
9210.123	1	1	0	0	0.14127	0.071955	0.2205	0.17781	0.055649	0.38243	0.30902	0.29494	0.071419	0.14021	0.30977	0.22657	0.20533	0.12845	0.21474	0.13854	-2.0417	-2.3	-2.6646	-2.3625	-2.7188	-2.7167	-2.6688	-2.8417	-2.5521	-2.5521	-2.8063	-2.4896	-2.6729	-2.4021	-2.2687	-2.9604	-65.626	5.658	122.146	-21.595	189.100	153.782	59.180	66.798	28.631	106.322	174.764	141.963	181.397	127.095	22.297	38.576	0.001185	0.00050987	0.00015741	336.53	4.3551e-06	3.8651e-06	521.7	138.58	3.7105e-06	4.0533e-06	260.75	141.26	71.258	39.581	3.5198e-06	85.938	0.00011506	2.4649e-05	6.7324e-06	326.21	2.6595e-07	2.5275e-07	509.31	135.3	2.9469e-07	2.5799e-07	253.29	137.94	68.74	38.579	3.2376e-07	84.154	147.594	-69.411	-56.308	-140.644	-28.263	-13.456	-141.612	-135.392	-37.755	-6.619	-137.431	-133.669	-132.977	-127.890	-41.594	-129.982	-8191	255	
9210.219	1	1	0	0	0.2776	0.22717	0.20604	0.091306	0.28973	0.0038186	0.11128	0.12191	0.26729	0.11361	0.17769	0.10532	0.31738	0.061993	0.085248	0.36922	-2.0292	-2.4104	-2.7542	-2.4917	-2.6083	-2.4021	-2.5417	-2.6437	-2.5104	-2.5687	-2.7792	-2.6312	-2.6708	-2.9521	-2.3917	-2.6937	121.651	9.376	-45.902	5.457	-140.951	181.009	-38.538	7.670	81.916	-7.912	108.438	173.867	205.836	-126.633	44.123	111.591	0.0011889	0.00040919	0.00013868	338.47	4.5608e-06	3.8386e-06	528.69	138.77	4.5705e-06	3.6557e-06	261.71	141.3	70.457	39.019	4.5879e-06	85.68	0.00011426	2.5567e-05	6.5832e-06	327.71	2.584e-07	2.4025e-07	514.8	135.45	2.9363e-07	2.5531e-07	254.37	137.67	68.328	38.272	3.2817e-07	84.045	148.050	-83.089	-48.050	-140.555	-17.212	-33.398	-141.682	-135.571	-30.524	-12.957	-137.493	-133.834	-132.874	-127.980	-32.717	-130.096	-8191	255	
9210.315	1	1	0	0	0.020182	0.053444	0.3383	0.35438	0.26096	0.16186	0.22341	0.04411	0.1878	0.20147	0.076667	0.22066	0.10418	0.029807	0.095861	0.27628	-1.9104	-2.4208	-2.7875	-2.4688	-2.6958	-2.7042	-2.4167	-2.7583	-2.6688	-2.4917	-2.7271	-2.5625	-2.5042	-2.6875	-2.4896	-2.9042	-110.379	-15.290	181.162	-108.616	-104.614	102.511	157.572	98.033	-0.335	164.676	103.618	-152.178	-86.214	110.368	-121.522	156.452	0.0011405	0.00044799	0.00012613	334.85	5.2066e-06	4.0984e-06	523.85	138.67	5.2952e-06	4.3103e-06	257.8	139.59	69.211	38.857	4.0488e-06	84.415	0.00011033	2.4681e-05	6.5923e-06	325.42	2.7011e-07	2.4542e-07	509.57	134.54	3.1517e-07	2.6434e-07	250.14	135.9	67.438	37.914	3.187e-07	82.824	147.264	-69.390	-52.166	-140.625	-32.215	-24.640	-141.378	-135.509	-60.498	-4.482	-137.483	-133.675	-133.209	-128.114	-44.579	-130.264	-8191	255	
9210.436	1	1	0	0	0.27056	0.23973	0.082511	0.14676	0.10339	0.085557	0.097488	0.17702	0.23669	0.10345	0.094612	0.40469	0.12043	0.05929	0.23674	0.21203	-2.1354	-2.4208	-2.7229	-2.4229	-2.3458	-2.7417	-2.4333	-2.6458	-2.6312	-2.5438	-2.8812	-2.5604	-2.6437	-3.0062	-2.4542	-2.7229	104.798	-151.832	-93.323	-143.513	96.772	-131.010	49.524	186.395	66.370	-134.356	-43.205	95.345	50.122	158.098	-67.047	194.062	0.0011532	0.00045835	9.7936e-05	330.85	3.5177e-06	4.0897e-06	512.39	136.44	5.5619e-06	2.9084e-06	254.44	138.66	69.824	38.869	3.4769e-06	84.907	0.0001109	2.3919e-05	6.4686e-06	321.09	2.6955e-07	2.3293e-07	498.08	132.57	3.0528e-07	2.3703e-07	247.45	135.21	67.691	38.001	2.9194e-07	83.168	147.506	-73.705	-62.404	-140.498	-30.689	-26.565	-141.485	-135.691	-47.172	-9.318	-137.649	-133.759	-133.154	-128.191	-36.218	-129.877	-8191	255	
9210.532	1	1	0	0	0.10393	0.21556	0.11518	0.12245	0.22499	0.29298	0.16488	0.27118	0.11285	0.17427	0.20324	0.11329	0.29366	0.13076	0.17009	0.44434	-2.0833	-2.4604	-2.6125	-2.5687	-2.5583	-2.7917	-2.6042	-2.7896	-2.5792	-2.4979	-2.55	-2.6437	-2.4354	-2.8479	-2.4688	-2.725	-3.019	-55.393	-80.854	86.579	159.413	139.731	185.425	147.708	-122.899	-78.222	197.526	-152.536	-129.329	116.131	-41.647	132.875	0.0011522	0.00048433	0.00012476	334.32	4.2346e-06	4.6133e-06	520.55	138.69	4.8829e-06	3.4837e-06	259.87	141.13	71.13	39.64	3.8206e-06	85.823	0.00011153	2.4238e-05	6.5395e-06	324.6	2.6955e-07	2.442e-07	506.52	135.44	2.9505e-07	2.3855e-07	252.89	137.49	68.997	38.762	3.2079e-07	84.268	147.906	-82.356	-58.781	-140.621	-17.807	-22.996	-141.639	-135.454	-44.092	-10.376	-137.426	-133.626	-133.412	-127.959	-46.608	-129.864	-8191	255	
9210.603	1	1	0	0	0.13596	0.29844	0.25876	0.32571	0.30677	0.18349	0.27954	0.17212	0.084511	0.28875	0.24992	0.21329	0.035171	0.10473	0.057311	0.13877	-2.1958	-2.3208	-2.6354	-2.5042	-2.4938	-2.7917	-2.5021	-2.6292	-2.7417	-2.3646	-2.6792	-2.6958	-2.4833	-2.9313	-2.5729	-2.7458	144.299	43.182	-144.322	201.345	150.547	199.510	160.914	-13.572	28.259	-112.178	84.262	-3.971	173.532	177.706	148.666	186.992	0.0012123	0.00048401	0.00014024	334.67	3.7103e-06	4.8869e-06	523.02	141.1	4.3823e-06	2.7462e-06	262.03	142.73	71.636	39.815	3.6242e-06	86.246	0.00011334	2.6127e-05	6.9725e-06	326.28	2.8077e-07	2.3565e-07	508.94	137.06	3.087e-07	2.4621e-07	255.28	139.06	69.629	38.949	3.315e-07	84.614	148.071	-79.395	-52.169	-140.419	-31.641	-7.505	-141.552	-135.514	-49.256	-12.807	-137.459	-133.680	-133.250	-128.006	-40.765	-129.964	-8191	255	
9210.699	1	1	0	0	0.078436	0.15812	0.16357	0.25987	0.20027	0.20095	0.13056	0.086469	0.12005	0.075729	0.17152	0.097969	0.072666	0.16746	0.25899	0.2487	-2.0979	-2.4979	-2.6979	-2.5312	-2.4188	-2.6688	-2.4646	-2.6625	-2.7271	-2.3604	-2.6437	-2.7167	-2.4479	-2.8458	-2.5438	-2.7771	-47.916	-13.656	187.188	49.110	-80.656	-88.053	157.571	70.192	59.334	-142.792	14.431	196.203	74.762	183.890	202.976	133.797	0.0011584	0.00036168	0.00014879	336.71	4.2584e-06	5.8976e-06	525.42	140.22	3.7856e-06	4.1335e-06	261.09	140.99	71.177	39.506	4.5549e-06	85.595	0.00011182	2.5254e-05	7.0762e-06	326.82	2.8408e-07	2.7387e-07	510.15	136.92	2.9782e-07	2.7302e-07	253.82	137.92	69.051	38.744	3.3265e-07	83.944	147.074	-70.618	-60.237	-140.640	-24.343	-23.082	-141.669	-135.294	-39.171	-9.879	-137.534	-133.637	-133.473	-128.141	-45.739	-130.117	-8191	255	
9210.818	1	1	0	0	0.11915	0.14401	0.11084	0.10517	0.29309	0.15863	0.19202	0.087838	0.098898	0.17589	0.12578	0.30418	0.033646	0.21726	0.19119	0.24064	-2.0792	-2.3875	-2.6708	-2.6146	-2.5354	-2.6562	-2.5438	-2.5187	-2.5917	-2.4938	-2.6333	-2.7062	-2.2167	-2.7479	-2.4813	-2.6854	66.860	9.287	188.853	57.882	-132.341	-133.536	-150.655	43.425	80.862	-18.957	186.622	177.848	42.616	-113.263	-128.046	180.870	0.0011916	0.00041263	0.00012209	332.04	4.3402e-06	5.0846e-06	511.27	138.13	3.977e-06	3.7447e-06	255.74	138.92	70.705	39.192	3.6576e-06	84.645	0.0001107	2.6283e-05	6.4613e-06	322.46	2.7265e-07	2.4959e-07	497.58	134.35	2.7742e-07	2.4823e-07	248.7	135.67	68.202	38.381	3.1855e-07	83.229	148.676	-74.218	-55.127	-140.342	-22.456	-24.808	-141.504	-135.617	-57.052	-22.452	-137.158	-133.674	-133.131	-128.045	-40.274	-130.188	-8191	255	
9210.915	1	1	0	0	0.10328	0.23139	0.3749	0.18123	0.13353	0.21942	0.1944	0.34179	0.082154	0.1293	0.36999	0.14542	0.22857	0.1693	0.27963	0.11612	-2.1875	-2.2938	-2.4333	-2.5417	-2.3104	-2.7125	-2.7438	-2.5042	-2.7104	-2.4292	-2.6688	-2.7313	-2.3375	-2.6333	-2.5604	-2.6479	52.363	197.461	19.570	28.919	-61.445	0.412	181.366	198.166	37.701	73.354	136.651	-44.078	52.033	158.346	-109.657	-150.606	0.001127	0.00044411	0.00012012	334.67	3.189e-06	5.8718e-06	515.45	139.83	4.4378e-06	4.4979e-06	259.11	140.93	71.791	39.597	4.3518e-06	85.876	0.00011104	2.5463e-05	6.5432e-06	323.77	2.68e-07	2.7257e-07	501.98	135.69	2.9796e-07	2.6507e-07	251.89	137.36	69.184	38.776	3.2564e-07	84.227	147.051	-67.320	-66.387	-140.546	-29.588	-27.911	-141.387	-135.418	-31.055	-0.314	-137.526	-133.888	-133.014	-128.091	-47.878	-130.156	-8191	255	
9211.011	1	1	0	0	0.16414	0.17691	0.11228	0.23709	0.25903	0.25864	0.17065	0.22122	0.28853	0.26848	0.15853	0.16726	0.15321	0.19687	0.34825	0.214	-2.2542	-2.4521	-2.4833	-2.8667	-2.5396	-2.7167	-2.6875	-2.6437	-2.7875	-2.4792	-2.8438	-3.0104	-2.4938	-2.7854	-2.6792	-2.7083	52.094	163.554	75.975	145.294	73.524	-27.849	-142.673	83.950	-39.266	9.704	41.016	141.744	-137.939	-78.795	104.585	-126.587	0.0011757	0.00038762	0.00010992	337.09	3.2645e-06	5.0545e-06	518.69	140.88	4.8933e-06	3.4944e-06	261.12	142.11	71.462	39.814	3.9646e-06	85.901	0.00011191	2.5476e-05	6.8833e-06	325.95	2.7392e-07	2.6776e-07	506.33	136.92	3.018e-07	2.6868e-07	254.42	138.45	69.355	38.928	3.268e-07	84.173	148.685	-77.053	-54.536	-140.387	-19.798	-26.990	-141.477	-135.618	-49.494	-23.600	-137.429	-133.864	-133.468	-128.131	-44.306	-130.066	-8191	255	
9211.107	1	1	0	0	0.063311	0.085555	0.0775	0.27921	0.23009	0.14559	0.24839	0.13351	0.056854	0.156	0.12725	0.18987	0.06873	0.22073	0.26943	0.1521	-2.3563	-2.5167	-2.3604	-2.7583	-2.3521	-2.5167	-2.8354	-2.5187	-2.6104	-2.6604	-2.6354	-2.7708	-2.6521	-2.7667	-2.7458	-2.4896	92.401	-41.955	126.985	-7.921	39.398	58.865	140.057	115.452	-109.324	132.974	-117.271	115.565	-42.098	115.150	-47.296	148.447	0.0012363	0.00043398	0.00014597	335.66	4.0573e-06	3.6241e-06	522.44	139.03	4.4321e-06	3.1278e-06	259.81	140.02	70.495	39.072	3.9571e-06	85.043	0.00011519	2.4812e-05	7.1344e-06	325.14	2.8345e-07	2.4643e-07	506.25	135.46	3.163e-07	2.5083e-07	252.11	136.43	68.149	38.316	3.2817e-07	83.391	147.129	-78.834	-62.081	-140.028	-17.644	-19.690	-141.261	-135.565	-48.256	-12.834	-137.726	-133.708	-133.123	-128.278	-39.947	-130.216	-8191	255	
9211.227	1	1	0	0	0.072566	0.028377	0.12833	0.32513	0.20788	0.18894	0.17888	0.13565	0.27888	0.07138	0.045295	0.044156	0.17927	0.023073	0.17041	0.28814	-2.1562	-2.6833	-2.3771	-2.7875	-2.2875	-2.6708	-2.8625	-2.4583	-2.7521	-2.4688	-2.5979	-2.825	-2.5062	-2.5125	-2.8104	-2.5917	-44.705	-57.145	-33.388	134.302	-96.553	-80.129	60.330	61.766	150.032	-96.968	-10.422	-43.217	152.462	-137.727	-31.515	88.804	0.0011054	0.00043199	0.00011872	330.64	3.6291e-06	4.1454e-06	509.66	137.7	4.6124e-06	4.3034e-06	257.41	140.28	71.694	39.667	4.3504e-06	85.374	0.00010892	2.4492e-05	6.6832e-06	321.98	2.8366e-07	2.6611e-07	497.42	134.03	2.8886e-07	2.6897e-07	249.2	136.64	69.05	38.794	3.3641e-07	83.766	148.009	-81.746	-54.027	-140.528	-12.595	-10.692	-141.523	-135.595	-43.820	-8.612	-137.095	-133.782	-133.154	-128.063	-46.734	-130.115	-8191	255	
9211.299	1	1	0	0	0.1967	0.063804	0.23473	0.26435	0.027108	0.088788	0.2347	0.12456	0.13633	0.10627	0.28084	0.32536	0.16909	0.10602	0.14671	0.33032	-2.1396	-2.4896	-2.2458	-2.7958	-2.5271	-2.3812	-2.8833	-2.3146	-2.7875	-2.5146	-2.6104	-2.8042	-2.5292	-2.5375	-2.6354	-2.6146	153.315	-128.309	200.549	-149.428	1.078	0.316	114.900	176.678	178.537	121.481	110.465	-146.104	50.593	199.163	-64.506	-142.902	0.0011858	0.0003978	0.00013004	334.45	4.2696e-06	4.8576e-06	513.04	139.49	4.557e-06	3.2268e-06	255.97	139.82	70.24	39.059	3.6992e-06	84.394	0.00011607	2.5756e-05	7.1253e-06	324.18	2.9368e-07	2.5821e-07	498.1	135.53	3.1502e-07	2.5517e-07	249.52	136.12	68.212	38.295	3.2853e-07	83.026	148.292	-77.049	-54.676	-140.405	-37.656	-25.756	-141.464	-135.582	-37.154	-21.801	-137.519	-133.574	-133.331	-128.120	-38.841	-130.118	-8191	255	
9211.395	1	1	0	0	0.20569	0.16091	0.3207	0.16592	0.23623	0.1674	0.1342	0.16865	0.15918	0.085344	0.30767	0.16687	0.20476	0.31912	0.038141	0.22272	-2.0896	-2.6354	-2.2792	-2.8479	-2.5854	-2.5187	-2.7333	-2.5583	-2.5333	-2.65	-2.75	-2.8021	-2.6771	-2.4854	-2.7729	-2.6229	192.607	-71.790	130.519	-72.493	161.586	35.584	75.633	89.198	69.260	-121.159	198.178	85.929	-19.741	180.245	-17.513	84.742	0.0011618	0.00041473	0.00010178	332.27	3.4358e-06	3.7831e-06	514.37	137.57	4.5705e-06	2.9643e-06	259.5	140.43	70.583	39.408	4.2455e-06	85.915	0.00011264	2.444e-05	6.6578e-06	321.89	2.8387e-07	2.6043e-07	501.41	134.36	2.9341e-07	2.4678e-07	251.55	136.83	68.6	38.572	3.1812e-07	84.15	148.100	-82.285	-60.314	-140.157	-12.601	-25.044	-141.784	-135.758	-37.901	-11.591	-137.442	-133.758	-133.224	-128.271	-35.624	-130.020	-8191	255	
9211.516	1	1	0	0	0.079908	0.18957	0.019357	0.25083	0.070737	0.19954	0.12839	0.14289	0.33058	0.19151	0.23678	0.40829	0.15317	0.16749	0.25624	0.14633	-2.0875	-2.6604	-2.3292	-2.6542	-2.55	-2.5021	-2.8312	-2.5896	-2.8021	-2.8125	-2.6	-2.8563	-2.6292	-2.5729	-2.8125	-2.7167	158.208	1.830	191.103	160.221	-95.227	-121.561	-56.196	145.874	31.120	12.801	192.406	149.218	182.783	47.709	-68.669	122.225	0.0012103	0.00045519	0.00013304	336.68	4.358e-06	4.2147e-06	519.58	140.01	4.8709e-06	2.8689e-06	262.98	142.17	70.763	39.589	3.8728e-06	85.494	0.00011338	2.4571e-05	7.309e-06	326	2.7167e-07	2.5275e-07	505.71	136.67	3.1282e-07	2.4238e-07	254.98	138.28	68.768	38.637	3.2904e-07	83.988	148.780	-75.951	-54.661	-140.485	-21.808	-8.042	-141.400	-135.455	-38.653	-27.137	-137.822	-133.764	-133.498	-128.136	-44.526	-129.881	-8191	255	
9211.612	1	1	0	0	0.083724	0.28565	0.3259	0.053027	0.087418	0.30202	0.14061	0.012474	0.12485	0.076995	0.19113	0.21146	0.1075	0.33318	0.15372	0.03887	-2.0542	-2.6271	-2.4229	-2.6333	-2.7208	-2.3625	-2.9521	-2.5604	-2.525	-2.6542	-2.4188	-2.7146	-2.6417	-2.4938	-2.6771	-2.5333	-31.068	80.631	49.056	-115.456	48.947	19.987	-136.043	141.779	122.774	-11.270	-86.661	-147.218	174.083	194.292	202.142	139.055	0.0011794	0.0006051	0.00012042	334.48	3.5425e-06	4.5984e-06	512.82	136.95	4.2678e-06	3.7127e-06	258.12	140.24	70.977	39.259	3.1803e-06	84.856	0.00011148	2.6023e-05	6.7342e-06	324.44	2.6539e-07	2.6453e-07	499.65	134.45	2.8787e-07	2.4288e-07	249.34	136.4	68.665	38.521	3.2737e-07	83.215	148.105	-75.416	-61.840	-140.513	-19.732	-26.605	-141.600	-135.665	-29.015	-24.444	-137.425	-133.689	-133.359	-128.099	-39.051	-130.137	-8191	255	
9211.708	1	1	0	0	0.17619	0.22191	0.26181	0.058877	0.20109	0.061018	0.18067	0.22167	0.10647	0.2246	0.13662	0.080198	0.21328	0.20187	0.22944	0.11562	-2.0625	-2.5542	-2.4729	-2.5229	-2.6875	-2.4437	-2.5917	-2.5854	-2.4083	-2.6437	-2.4917	-2.6271	-2.5875	-2.4458	-2.5604	-2.6417	-93.102	-98.879	-131.543	47.461	138.225	54.534	-152.322	-33.311	185.761	73.428	-141.441	12.543	184.381	144.523	-139.595	-40.485	0.00116	0.00034635	0.00012109	334.16	3.6405e-06	4.8321e-06	515.08	137.41	4.6528e-06	3.3668e-06	258.74	141.42	71.42	39.621	4.9485e-06	85.516	0.00011173	2.2649e-05	6.434e-06	322.5	2.7787e-07	2.5979e-07	500.88	134.34	3.0678e-07	2.3183e-07	251.21	137.53	69.237	38.771	3.14e-07	83.885	148.717	-70.615	-64.041	-140.420	-24.570	-23.697	-141.525	-135.785	-36.444	-18.876	-137.684	-133.562	-133.070	-128.169	-52.287	-130.064	-8191	255	
9211.827	1	1	0	0	0.17084	0.06989	0.2371	0.26335	0.34385	0.086594	0.1337	0.27534	0.07872	0.115	0.14513	0.14179	0.139	0.074023	0.095454	0.11249	-1.8583	-2.6667	-2.45	-2.5271	-2.6625	-2.6375	-2.7583	-2.525	-2.4708	-2.8729	-2.4938	-2.7417	-2.6854	-2.4625	-2.5146	-2.7729	-137.074	-103.298	72.869	-65.627	167.386	173.894	141.552	-150.187	-13.800	-24.252	151.282	-105.083	-58.552	-110.728	-39.275	159.008	0.0011962	0.00040984	0.00014801	336.03	4.2604e-06	5.4353e-06	524.2	140.37	3.4013e-06	3.2968e-06	261.17	141.79	71.73	39.732	3.9909e-06	85.941	0.00011345	2.4603e-05	6.9288e-06	325.3	2.572e-07	2.7494e-07	509.7	136.48	2.9754e-07	2.4014e-07	254.23	138.44	69.38	38.852	3.2383e-07	84.129	147.874	-78.441	-56.784	-140.586	-15.615	-11.667	-141.536	-135.614	-33.062	-4.913	-137.543	-133.767	-133.350	-127.949	-50.659	-130.062	-8191	255	
9211.901	1	1	0	0	0.12828	0.16596	0.13992	0.1789	0.20485	0.062242	0.12888	0.14081	0.12932	0.098149	0.074889	0.12575	0.24948	0.1683	0.025347	0.32597	-1.9917	-2.5729	-2.4688	-2.5563	-2.6312	-2.3312	-2.6208	-2.5875	-2.3458	-2.7521	-2.5812	-2.6562	-2.675	-2.6042	-2.6437	-2.5979	-98.804	116.411	18.722	31.009	97.925	-58.545	181.155	79.408	197.193	-100.575	-137.564	102.892	148.829	166.239	101.748	137.447	0.0011567	0.0004629	0.00011381	337.18	4.0087e-06	4.6451e-06	530.06	141.22	3.7937e-06	3.8332e-06	263.6	142.94	72.184	39.936	4.111e-06	86.265	0.00011356	2.4955e-05	6.6505e-06	327.77	2.7851e-07	2.4822e-07	514.36	137.69	3.0664e-07	2.5719e-07	257.05	139.44	69.964	39.128	3.2159e-07	84.611	148.037	-71.362	-57.942	-140.735	-16.773	-27.163	-141.632	-135.444	-43.444	-7.738	-137.582	-133.712	-132.941	-128.384	-41.178	-130.089	-8191	255	
9211.995	1	1	0	0	0.10692	0.22261	0.22693	0.34297	0.26229	0.21096	0.31507	0.12813	0.033874	0.027492	0.13651	0.010504	0.072343	0.439	0.055671	0.10234	-1.9479	-2.5312	-2.6708	-2.5125	-2.7333	-2.5604	-2.4771	-2.5375	-2.4854	-2.825	-2.6375	-2.5938	-2.6917	-2.5417	-2.5792	-2.6292	-24.465	-31.685	-46.669	143.635	167.885	172.650	151.165	171.255	112.979	132.221	176.060	-0.520	97.881	170.349	-43.151	128.146	0.0011939	0.00043702	0.0001352	337.53	3.9855e-06	4.8414e-06	522.79	139.66	5.0354e-06	2.8907e-06	259.26	141.34	71.514	39.784	4.1309e-06	85.614	0.00011312	2.5215e-05	7.3217e-06	327.02	2.5974e-07	2.6122e-07	508.2	136.09	3.1204e-07	2.4751e-07	251.74	137.66	69.206	38.855	3.1566e-07	83.895	147.728	-82.535	-52.176	-140.423	-13.072	-11.834	-141.670	-135.642	-42.216	-16.695	-137.367	-133.910	-132.906	-128.402	-47.559	-130.048	-8191	255	
9212.116	1	1	0	0	0.15688	0.026371	0.34104	0.30543	0.054144	0.19061	0.16913	0.071834	0.39389	0.28803	0.1014	0.22788	0.07821	0.27362	0.08767	0.15468	-1.9396	-2.6833	-2.5208	-2.3042	-2.7125	-2.6375	-2.5187	-2.7375	-2.4229	-2.6521	-2.8229	-2.5146	-2.7458	-2.5354	-2.5375	-2.6958	-32.686	-136.027	153.249	-128.598	201.667	-122.526	-107.551	151.389	-119.279	-29.206	161.243	187.018	-34.618	110.330	-30.550	-119.955	0.0011982	0.00039422	0.0001461	337.17	3.9248e-06	4.1623e-06	517.09	140.33	3.5172e-06	3.9025e-06	261.85	142.32	72.298	39.957	4.5715e-06	86.209	0.00011246	2.2773e-05	6.5796e-06	325.5	2.6983e-07	2.4356e-07	503.39	136.58	2.9882e-07	2.306e-07	253.53	138.59	70.154	39.22	3.3121e-07	84.403	148.442	-72.528	-46.791	-140.380	-27.475	-18.631	-141.636	-135.637	-23.616	-11.453	-137.531	-133.701	-132.871	-128.012	-36.333	-130.215	-8191	255	
9212.212	1	1	0	0	0.083786	0.054956	0.040458	0.1369	0.048104	0.094348	0.20187	0.086664	0.11144	0.050642	0.24493	0.24769	0.2025	0.2145	0.148	0.14828	-2.0292	-2.6396	-2.6125	-2.3333	-2.5125	-2.45	-2.6063	-2.6917	-2.4062	-2.6042	-2.4896	-2.4479	-2.7208	-2.5521	-2.3979	-2.9396	-5.078	-20.642	78.425	204.548	-68.923	196.036	152.250	-13.606	-121.033	25.735	6.779	13.431	83.965	202.087	-64.776	196.923	0.0011437	0.00049884	0.00015073	338.4	4.8494e-06	3.903e-06	520.29	141.68	3.8608e-06	2.9131e-06	263.03	143.18	72.346	40.131	4.4531e-06	86.184	0.00011019	2.7293e-05	6.4813e-06	326.6	2.7914e-07	2.5296e-07	507.63	137.7	2.964e-07	2.5358e-07	255.66	139.57	70.223	39.306	3.4516e-07	84.685	147.803	-77.896	-63.368	-140.675	-22.719	-35.954	-141.385	-135.767	-46.226	-11.235	-137.425	-133.880	-133.117	-128.054	-30.485	-130.314	-8191	255	
9212.308	1	1	0	0	0.10096	0.077577	0.21271	0.22301	0.16376	0.022179	0.43927	0.2739	0.15134	0.10819	0.18903	0.3049	0.033966	0.24655	0.17575	0.31046	-2.0146	-2.7542	-2.5542	-2.3667	-2.7042	-2.6417	-2.5354	-2.775	-2.5771	-2.6042	-2.8917	-2.4792	-2.8125	-2.5417	-2.3875	-2.8146	-65.717	107.762	51.247	195.522	-9.308	-101.639	133.936	-42.127	45.387	157.114	150.347	35.864	-108.492	135.202	63.546	118.599	0.0012078	0.00049507	0.00012582	337.82	4.1288e-06	5.2181e-06	524.63	142.14	4.0301e-06	4.2014e-06	265.97	143.23	72.918	40.269	4.2188e-06	86.62	0.00011457	2.6127e-05	6.5923e-06	327.97	2.795e-07	2.577e-07	511.33	138.23	3.2228e-07	2.6225e-07	258.11	139.91	70.532	39.337	3.2578e-07	85.073	148.936	-69.037	-54.273	-140.535	-19.651	-23.279	-141.723	-135.656	-37.028	-9.331	-137.064	-133.761	-133.216	-128.351	-37.899	-130.124	-8191	255	
9212.404	1	1	0	0	0.16108	0.38131	0.11547	0.39627	0.19874	0.163	0.096456	0.051995	0.12423	0.16722	0.13284	0.061684	0.086698	0.066005	0.19341	0.34198	-1.8875	-2.4729	-2.6937	-2.4813	-2.8208	-2.6104	-2.5438	-2.9313	-2.4875	-2.4667	-2.8792	-2.7521	-2.6937	-2.8604	-2.3792	-3.0479	10.379	-133.264	-66.304	55.476	55.777	151.110	101.290	163.893	-6.653	-151.407	115.906	146.231	-7.374	56.003	-146.416	139.383	0.0012127	0.00037799	0.00011002	340.66	4.5332e-06	5.2289e-06	522.11	141.1	4.0227e-06	4.6186e-06	261.62	142.92	72.301	40.258	4.1515e-06	86.404	0.00011115	2.6283e-05	7.0034e-06	328.92	2.8366e-07	2.4413e-07	510.77	137.13	2.9476e-07	2.6926e-07	253.95	139.08	70.03	39.272	3.2564e-07	84.477	147.552	-84.660	-77.020	-140.422	-15.219	-9.024	-141.379	-135.730	-49.002	-17.332	-137.591	-133.734	-133.316	-128.184	-45.787	-130.030	-8191	255	
9212.525	1	1	0	0	0.24145	0.17034	0.066662	0.25707	0.13611	0.13154	0.26198	0.31887	0.20276	0.012454	0.20793	0.12547	0.0121	0.1183	0.29646	0.17977	-2.1271	-2.4396	-2.7125	-2.3146	-2.6229	-2.6354	-2.5292	-2.7042	-2.3812	-2.6104	-2.8458	-2.4396	-2.5229	-2.6729	-2.2458	-2.775	110.514	95.587	-18.512	-114.914	-105.461	-147.977	156.937	165.830	-37.252	-22.837	-24.072	167.418	-68.696	-52.295	-69.846	179.820	0.0011655	0.00045248	0.00012828	337.18	4.2016e-06	4.7299e-06	516.66	141.23	4.4624e-06	3.3042e-06	262.27	142.83	72.985	40.397	4.8193e-06	86.552	0.00011225	2.6674e-05	7.0925e-06	326.87	2.7195e-07	2.5375e-07	504.4	137.55	3.1076e-07	2.5806e-07	254.19	139.44	70.894	39.591	3.584e-07	84.859	148.058	-81.929	-58.816	-140.271	-18.321	-21.520	-141.502	-135.657	-31.761	-22.253	-137.312	-133.978	-133.135	-128.306	-39.427	-130.068	-8191	255	
9212.596	1	1	0	0	0.090836	0.1845	0.050134	0.22473	0.17064	0.25508	0.059587	0.12752	0.086066	0.20762	0.23212	0.099091	0.12717	0.19029	0.27043	0.10767	-1.8854	-2.3917	-2.7417	-2.4688	-2.6688	-2.7417	-2.4958	-2.8146	-2.6167	-2.6396	-2.8563	-2.4958	-2.6354	-2.6979	-2.3271	-2.8396	165.624	-79.726	-68.125	58.615	-97.217	-45.430	-100.508	92.494	94.310	39.167	78.694	156.188	-8.017	195.829	-133.750	17.436	0.0011626	0.00047189	0.00012564	340.18	4.0301e-06	4.9863e-06	523.51	142.58	4.0141e-06	3.5374e-06	265.48	144.37	73.23	40.496	3.8427e-06	87.046	0.00011203	2.4206e-05	6.8924e-06	328.91	2.7823e-07	2.5476e-07	508.74	139.09	3.1446e-07	2.608e-07	257.39	140.42	71.248	39.748	3.3294e-07	85.423	148.277	-74.372	-71.856	-140.380	-29.318	-8.226	-141.628	-135.723	-42.237	-17.565	-137.202	-134.129	-133.171	-128.159	-34.237	-130.037	-8191	255	
9212.692	1	1	0	0	0.19522	0.047324	0.012304	0.11057	0.18036	0.29621	0.21756	0.22907	0.090307	0.18929	0.11069	0.21815	0.16286	0.10468	0.30337	0.33328	-2.0583	-2.3771	-2.7833	-2.6458	-2.3792	-2.7958	-2.5125	-2.7375	-2.5792	-2.7188	-2.7708	-2.5938	-2.4354	-2.9542	-2.2958	-2.6646	54.858	169.747	188.610	24.878	196.697	122.155	-42.361	122.498	4.140	83.519	-96.866	-148.097	180.000	84.235	31.407	133.738	0.0011675	0.00046727	0.00014346	338.02	4.3003e-06	5.5778e-06	525.44	143.94	4.0291e-06	4.9282e-06	266.52	144.59	73.789	40.844	2.886e-06	87.055	0.00011209	2.7794e-05	7.1053e-06	328.51	2.8951e-07	2.5368e-07	512.31	140.05	3.151e-07	2.7735e-07	258.65	141.02	71.401	39.827	3.1732e-07	85.535	147.336	-74.907	-63.817	-140.646	-20.677	-22.432	-141.771	-135.654	-35.022	-21.959	-137.479	-133.885	-133.418	-128.184	-49.716	-130.119	-8191	255	
9212.789	1	1	0	0	0.24112	0.27186	0.17948	0.09018	0.10918	0.094307	0.095204	0.16732	0.16714	0.10634	0.20225	0.28834	0.1581	0.14322	0.26489	0.36889	-2.0583	-2.3333	-2.5854	-2.6042	-2.5042	-2.7125	-2.5333	-2.5438	-2.7583	-2.4458	-2.7458	-2.6937	-2.5708	-2.85	-2.3229	-2.6542	-58.494	175.776	193.625	-65.477	47.643	5.041	54.550	-127.368	-65.311	-120.635	123.462	204.134	77.404	-108.367	119.987	-144.678	0.0011999	0.00047109	0.00017841	341.13	3.8406e-06	5.113e-06	526.93	143.25	4.3241e-06	3.715e-06	264.29	144.05	73.983	40.652	4.053e-06	86.8	0.00011406	2.5697e-05	7.2417e-06	329.92	2.8585e-07	2.6898e-07	513.78	139.41	3.0749e-07	2.7128e-07	256.62	140.53	71.378	39.749	3.2036e-07	85.062	147.929	-67.630	-62.569	-140.358	-17.578	-21.226	-141.235	-135.841	-36.518	-23.075	-137.547	-133.745	-132.964	-127.956	-45.578	-130.261	-8191	255	
9212.907	1	1	0	0	0.1031	0.12846	0.11062	0.041049	0.31237	0.13654	0.07909	0.13975	0.13332	0.19103	0.23926	0.071645	0.15437	0.16142	0.037968	0.12155	-2.2125	-2.175	-2.4854	-2.5979	-2.4875	-2.7667	-2.5	-2.5708	-2.6583	-2.4458	-2.8458	-2.7208	-2.3458	-2.8542	-2.3396	-2.5854	37.536	-102.856	68.237	143.868	167.665	-72.336	181.019	18.123	53.550	134.712	190.357	-98.446	114.144	159.139	114.538	199.724	0.0012179	0.00045547	0.00015325	338.5	3.923e-06	4.8469e-06	519.94	142.81	3.302e-06	4.0942e-06	262.4	143.48	73.362	40.713	3.866e-06	86.963	0.00011212	2.5319e-05	6.927e-06	327.86	2.9734e-07	2.47e-07	504.65	138.54	2.9128e-07	2.6883e-07	254.5	139.64	71.074	39.787	3.3063e-07	85.172	147.229	-71.927	-55.124	-140.471	-23.426	-21.577	-141.390	-135.613	-51.407	-3.453	-137.635	-134.045	-133.247	-127.989	-46.418	-130.189	-8191	255	
9213.004	1	1	0	0	0.10047	0.20825	0.038193	0.1279	0.29372	0.09948	0.18091	0.37277	0.22901	0.18299	0.2127	0.29408	0.2364	0.14926	0.06979	0.14588	-2.3292	-2.4375	-2.5083	-2.6958	-2.425	-2.5979	-2.4854	-2.475	-2.6437	-2.3292	-2.5229	-2.8229	-2.4604	-2.7917	-2.525	-2.4667	-65.445	-48.017	38.569	117.627	106.564	-125.607	2.613	72.387	163.925	-43.687	-68.286	143.964	119.146	-141.521	-45.367	98.042	0.0012211	0.0005117	0.00012152	336.88	3.3925e-06	5.6008e-06	521.73	142.28	5.0097e-06	3.6443e-06	263.02	144.61	74.183	40.869	4.4167e-06	87.367	0.0001139	2.5938e-05	6.5941e-06	327.87	2.9784e-07	2.6453e-07	507.11	139.1	3.0166e-07	2.8472e-07	256.5	140.6	71.602	39.968	3.3533e-07	85.791	147.537	-77.470	-61.188	-140.538	-20.744	-7.202	-141.793	-135.628	-46.162	-15.979	-137.589	-133.949	-133.056	-128.261	-33.549	-130.181	-8191	255	
9213.100	1	1	0	0	0.16163	0.034138	0.13276	0.063235	0.26813	0.216	0.10172	0.10286	0.14696	0.085275	0.13308	0.23882	0.33695	0.38959	0.042983	0.34162	-2.2271	-2.325	-2.6104	-2.7729	-2.4708	-2.775	-2.6917	-2.4	-2.8187	-2.5146	-2.6854	-2.675	-2.3417	-2.7854	-2.7896	-2.6979	104.736	54.383	1.292	-101.924	32.635	91.419	192.498	154.008	-134.029	-11.574	-95.203	187.020	135.974	156.666	169.865	151.991	0.0012107	0.00050628	0.0001609	341.16	3.9808e-06	3.8276e-06	525.93	143.61	4.5401e-06	3.687e-06	267.09	144.74	74.168	40.964	3.5849e-06	87.97	0.00011541	2.584e-05	7.2963e-06	330.13	3.02e-07	2.5153e-07	510.7	140.32	3.0543e-07	2.8458e-07	259.17	141.41	71.758	40.158	3.3482e-07	86.178	148.129	-70.171	-57.639	-140.409	-19.130	-25.049	-141.489	-135.637	-43.242	-17.901	-137.677	-133.628	-133.222	-127.892	-35.679	-130.209	-8191	255	
9213.196	1	1	0	0	0.18993	0.26032	0.19237	0.15872	0.15838	0.15006	0.19581	0.046804	0.20797	0.14002	0.10402	0.026789	0.089069	0.10922	0.17228	0.19618	-2.2875	-2.2396	-2.55	-2.6604	-2.2438	-2.5979	-2.5354	-2.4521	-2.75	-2.5333	-2.5271	-2.8042	-2.4396	-2.6104	-2.5687	-2.6667	-73.835	187.198	178.943	-59.530	51.465	101.495	82.875	-27.838	15.707	120.144	-126.970	41.065	-52.028	-119.083	50.522	137.354	0.0012245	0.00052182	0.00014099	340.72	4.3413e-06	5.0703e-06	525.78	144.65	4.704e-06	3.6945e-06	266.99	145.19	74.503	41.073	3.9775e-06	87.397	0.00011556	2.64e-05	7.3217e-06	330.87	3.0122e-07	2.6891e-07	512.87	140.99	2.9945e-07	2.6695e-07	259.33	141.69	71.928	40.172	3.2607e-07	85.699	147.694	-77.342	-56.876	-140.306	-29.072	-18.088	-141.496	-135.331	-48.682	-17.844	-137.349	-134.054	-133.326	-128.029	-50.937	-130.220	-8191	255	
9213.292	1	1	0	0	0.094667	0.35549	0.08346	0.15077	0.14123	0.11627	0.47467	0.1797	0.18897	0.10981	0.23644	0.24434	0.099733	0.12074	0.069367	0.3338	-2.0375	-2.5292	-2.4021	-2.7458	-2.5729	-2.6417	-2.6063	-2.4833	-2.7146	-2.5458	-2.7062	-2.8271	-2.2604	-2.7104	-2.7604	-2.6146	184.146	-103.663	113.318	-146.641	11.382	174.621	129.435	-133.018	-101.913	44.177	-99.703	-153.540	101.609	-137.302	-38.940	121.232	0.0011949	0.00055868	0.00011294	338.77	4.1607e-06	4.8519e-06	519.04	143.29	5.2074e-06	3.3132e-06	262.24	144.9	74.814	41.118	2.7163e-06	87.713	0.00011379	2.6589e-05	7.2963e-06	329.09	2.9353e-07	2.5189e-07	504.97	139.67	3.1247e-07	2.6348e-07	255.56	140.84	72.29	40.28	3.2101e-07	85.776	147.880	-75.493	-66.546	-140.590	-15.274	-20.683	-141.465	-135.793	-46.786	-6.223	-137.523	-133.774	-133.094	-128.404	-45.902	-130.191	-8191	255	
9213.388	1	1	0	0	0.083758	0.10068	0.13791	0.19493	0.13685	0.093943	0.073991	0.14071	0.24697	0.25183	0.3257	0.23045	0.22394	0.1249	0.21413	0.35243	-2.2292	-2.5625	-2.4562	-2.6479	-2.3312	-2.5125	-2.8104	-2.6042	-2.6104	-2.5687	-2.5708	-2.8979	-2.4583	-2.4646	-2.8417	-2.7188	-110.870	84.881	2.495	-139.678	-117.712	91.479	-27.654	121.679	-57.124	82.107	-129.103	-144.734	44.293	148.589	95.451	142.169	0.0011725	0.00046479	0.0001517	337.09	4.1277e-06	5.2512e-06	517.64	144.61	4.2192e-06	3.5074e-06	264.48	145.14	74.529	41.317	4.602e-06	87.791	0.00011344	2.5534e-05	7.6237e-06	328.3	2.9629e-07	2.8715e-07	505.74	140.7	3.1645e-07	2.5054e-07	257.59	141.57	72.376	40.484	3.3381e-07	86.266	147.831	-76.595	-55.707	-140.328	-29.746	-26.800	-141.284	-135.522	-52.796	-3.220	-137.454	-133.843	-133.001	-128.104	-46.735	-130.079	-8191	255	
9213.509	1	1	0	0	0.26112	0.11944	0.084894	0.045251	0.24828	0.40937	0.18141	0.17747	0.16998	0.21729	0.14124	0.17399	0.077914	0.075053	0.044064	0.14966	-2.2938	-2.5354	-2.4375	-2.7583	-2.3917	-2.5083	-2.6854	-2.3854	-2.6042	-2.5875	-2.5	-2.8896	-2.6396	-2.7729	-2.6896	-2.4479	48.032	-77.187	89.502	188.517	93.527	151.395	-116.435	-40.730	-147.353	-139.004	-76.645	195.202	167.287	196.999	-45.503	70.617	0.0011919	0.00047928	0.00013535	340.28	5.5074e-06	4.101e-06	523.47	144.61	4.7377e-06	3.3454e-06	266.79	145.92	74.409	41.392	3.925e-06	87.909	0.00011375	2.4831e-05	6.9925e-06	330.36	3.0242e-07	2.5921e-07	509.9	141.4	3.0429e-07	2.6969e-07	259.21	142.18	72.554	40.504	3.2246e-07	86.335	147.715	-81.314	-64.612	-140.292	-26.519	-14.204	-141.513	-135.601	-44.879	-12.580	-137.608	-133.646	-133.204	-128.101	-41.021	-130.098	-8191	255	
9213.605	1	1	0	0	0.23893	0.23442	0.15743	0.1967	0.21219	0.037682	0.12204	0.23301	0.10483	0.29879	0.1085	0.27041	0.091566	0.19449	0.059851	0.26995	-2.1667	-2.6146	-2.2542	-2.7604	-2.4062	-2.3583	-2.9521	-2.4813	-2.6146	-2.6375	-2.5396	-2.8167	-2.4625	-2.5396	-2.6333	-2.6271	-75.681	108.835	62.999	-124.689	131.035	-36.465	-15.320	166.808	-17.535	-148.188	-120.383	-103.423	-142.583	109.282	182.178	140.005	0.0012144	0.00050323	0.00013229	340.4	3.5888e-06	5.8187e-06	523.29	144.9	3.2979e-06	3.779e-06	266.28	145.91	74.753	41.384	4.3883e-06	87.811	0.000115	2.7208e-05	7.2435e-06	330.83	2.9142e-07	2.9003e-07	510.93	141.15	2.9178e-07	2.78e-07	259.45	142.01	72.31	40.442	3.4422e-07	86.134	148.091	-81.543	-67.039	-140.540	-44.621	-9.265	-141.245	-135.764	-41.267	-6.237	-137.433	-133.691	-133.340	-128.439	-49.644	-130.123	-8191	255	
9213.701	1	1	0	0	0.18778	0.11388	0.12182	0.34271	0.098814	0.091132	0.13072	0.14242	0.31857	0.13055	0.05732	0.1988	0.2477	0.29594	0.19037	0.21612	-2.1646	-2.6813	-2.4062	-2.6708	-2.7438	-2.4792	-2.7354	-2.6125	-2.575	-2.7292	-2.3104	-2.7188	-2.5812	-2.6437	-2.8333	-2.8604	-82.430	143.234	77.960	127.060	201.800	191.393	67.014	199.005	97.816	163.186	62.955	143.249	195.963	153.999	38.186	138.716	0.0011919	0.00042334	0.00011972	341.71	3.6044e-06	4.4735e-06	515.56	142.75	5.2537e-06	3.9261e-06	263.65	144.08	74.694	41.331	4.0953e-06	87.445	0.00011557	2.4929e-05	7.1598e-06	329.87	2.6228e-07	2.8055e-07	502.48	139.96	3.1886e-07	2.6247e-07	256.03	140.77	72.324	40.382	3.1646e-07	85.734	147.542	-81.744	-75.525	-140.202	-15.905	-23.025	-141.429	-135.582	-52.578	-8.506	-137.403	-133.915	-133.180	-128.240	-34.192	-130.296	-8191	255	
9213.797	1	1	0	0	0.22569	0.19184	0.1464	0.076695	0.20864	0.12839	0.1857	0.21337	0.27694	0.25046	0.14315	0.16641	0.20398	0.23924	0.11024	0.10855	-2.0458	-2.7646	-2.4188	-2.8146	-2.6437	-2.6646	-2.9229	-2.5438	-2.7375	-3.0438	-2.5187	-2.8708	-2.6188	-2.4125	-2.9188	-2.7042	-44.997	165.718	-66.153	88.895	-43.332	160.775	173.021	202.115	-99.821	31.234	-147.600	-138.558	-141.371	182.813	-65.751	186.275	0.0011904	0.00045688	0.00012981	340.18	4.0209e-06	4.4514e-06	518.93	144.55	4.0353e-06	3.4769e-06	264.97	145.32	74.929	41.53	3.4549e-06	87.837	0.00011638	2.4831e-05	7.6019e-06	329.35	2.8112e-07	2.4909e-07	505.91	140.49	3.0408e-07	2.6203e-07	257.11	141.65	72.525	40.565	3.3613e-07	86.297	148.156	-79.688	-54.866	-140.368	-30.080	-24.065	-141.576	-135.708	-40.754	-23.553	-137.443	-133.780	-133.170	-128.071	-38.510	-130.142	-8191	255	
9213.892	1	1	0	0	0.16219	0.054987	0.12126	0.17272	0.21196	0.19395	0.14762	0.24907	0.10196	0.10425	0.098537	0.2185	0.064252	0.036187	0.20605	0.2229	-2.0417	-2.9271	-2.4062	-2.6292	-2.6292	-2.6167	-2.8375	-2.5979	-2.5479	-2.8417	-2.5	-2.8312	-2.6667	-2.6354	-2.5854	-2.5542	117.923	-153.236	-119.212	77.253	6.443	-147.674	165.500	-138.964	30.025	47.925	139.076	180.182	135.560	83.013	-17.478	181.108	0.0012212	0.00047124	0.00010777	340.28	4.0821e-06	4.2991e-06	524.55	145.23	3.2926e-06	2.9214e-06	266.53	145.29	74.621	41.475	4.4408e-06	88.147	0.00011469	2.6303e-05	7.1489e-06	330.78	2.8479e-07	2.715e-07	508.41	141.65	3.1901e-07	2.5835e-07	258.74	142.3	72.459	40.568	3.2882e-07	86.486	146.755	-86.930	-57.708	-140.299	-16.334	-34.580	-141.666	-135.741	-54.607	-8.014	-137.315	-133.951	-133.084	-128.102	-34.713	-130.216	-8191	255	
9213.988	1	1	0	0	0.021982	0.15992	0.15884	0.14395	0.056667	0.22491	0.18733	0.043591	0.32264	0.131	0.48477	0.40846	0.15958	0.15483	0.11794	0.10221	-2.15	-2.8917	-2.6312	-2.4604	-3.0271	-2.5917	-2.5396	-2.6021	-2.5479	-2.8083	-2.5125	-2.575	-2.7625	-2.5896	-2.6	-2.8271	193.977	-73.491	-93.120	199.798	186.495	79.460	-122.660	-66.015	40.048	36.027	105.709	130.565	161.570	-39.171	-112.995	120.705	0.0012052	0.00045576	0.00010804	340.76	4.5596e-06	4.6008e-06	525.2	146.35	4.2489e-06	3.8813e-06	267.58	146.14	75.658	41.555	3.8737e-06	88.072	0.00011475	2.6811e-05	7.0725e-06	330.97	2.8436e-07	2.7997e-07	512.23	142.34	3.2078e-07	2.478e-07	260.5	142.73	72.892	40.721	3.4249e-07	86.392	147.339	-77.482	-73.235	-140.548	-28.267	-15.915	-141.759	-135.680	-40.373	-7.982	-137.451	-133.856	-133.299	-128.049	-40.394	-130.038	-8191	255	
9214.084	1	1	0	0	0.17436	0.11678	0.063539	0.10616	0.096617	0.024291	0.16109	0.17472	0.15978	0.13875	0.1172	0.15341	0.24082	0.10378	0.13056	0.18971	-2.0417	-2.8083	-2.5979	-2.7521	-2.6312	-2.4333	-2.8604	-2.7438	-2.3417	-2.7167	-2.7125	-2.5333	-2.8979	-2.5187	-2.7896	-2.8729	107.965	-72.274	121.490	91.886	52.090	121.031	98.340	155.177	134.575	145.988	33.203	157.124	88.885	186.523	120.228	128.107	0.0012139	0.00038705	0.00012385	338.26	4.8589e-06	4.0834e-06	518.35	143.83	4.6986e-06	3.7095e-06	263.39	145	74.667	41.251	4.6442e-06	87.282	0.00011653	2.433e-05	7.1653e-06	329.21	2.8055e-07	2.6122e-07	504.93	140.15	3.1744e-07	2.564e-07	255.4	140.78	72.236	40.423	3.461e-07	85.671	147.525	-70.222	-46.330	-140.403	-13.654	-18.877	-141.416	-135.587	-34.931	-9.471	-137.584	-133.780	-133.389	-128.033	-51.600	-130.208	-8191	255	
9214.205	1	1	0	0	0.13305	0.041414	0.2044	0.1521	0.21708	0.11591	0.25856	0.15098	0.15703	0.10914	0.076753	0.11175	0.13909	0.33625	0.085173	0.20603	-2.1188	-2.7604	-2.4729	-2.5333	-2.7542	-2.5	-2.6542	-2.8021	-2.5917	-2.9813	-2.6292	-2.6417	-2.8417	-2.6396	-2.8312	-2.6208	20.856	153.628	-32.212	196.995	-105.759	-50.137	133.682	102.450	129.860	-130.551	121.940	130.725	-148.967	-147.138	-23.085	135.777	0.0011926	0.0004225	0.00014672	338.61	4.7489e-06	5.3547e-06	517.05	143.36	4.0166e-06	3.8393e-06	262.14	144.52	74.201	41.421	3.4444e-06	87.59	0.00011551	2.4636e-05	7.3818e-06	328.07	2.7865e-07	2.7437e-07	503.09	139.73	3.0827e-07	2.6471e-07	255.64	140.87	72.158	40.489	3.2137e-07	85.962	148.095	-73.987	-60.052	-140.507	-20.624	-17.646	-141.385	-135.748	-32.859	-23.155	-137.618	-133.633	-133.534	-128.015	-57.511	-130.307	-8191	255	
9214.301	1	1	0	0	0.062992	0.35914	0.071378	0.1294	0.20462	0.11487	0.15398	0.1881	0.025629	0.055458	0.044673	0.24545	0.13522	0.26273	0.11887	0.048598	-1.9708	-2.6646	-2.6333	-2.6646	-2.6792	-2.7271	-2.5229	-2.8187	-2.4813	-2.7354	-2.7812	-2.5729	-2.8063	-2.625	-2.6063	-3.0708	-139.905	-89.931	-10.465	11.601	-19.835	-118.057	146.427	154.602	108.686	25.760	132.858	127.970	154.553	155.878	80.177	187.472	0.0011878	0.00052681	0.00012545	340.27	4.3825e-06	4.0519e-06	517.11	143.79	3.7834e-06	4.0837e-06	264.1	144.49	74.952	41.506	4.9648e-06	87.927	0.00011457	2.6094e-05	6.9616e-06	328.89	2.8366e-07	2.5749e-07	504.01	140.28	3.2349e-07	2.5235e-07	256.49	141.41	72.489	40.562	3.3468e-07	86.288	148.401	-64.353	-49.774	-140.287	-15.639	-24.098	-141.282	-135.851	-47.931	-1.514	-137.697	-133.635	-132.825	-128.128	-40.586	-130.021	-8191	255	
9214.397	1	1	0	0	0.30371	0.079452	0.08849	0.063202	0.15766	0.084247	0.31352	0.064974	0.1016	0.26673	0.23555	0.14258	0.13877	0.2305	0.01991	0.17698	-2.0417	-2.5167	-2.7521	-2.5458	-2.9083	-2.6083	-2.6896	-2.9042	-2.4125	-2.6583	-2.6729	-2.4	-2.8438	-2.7479	-2.6104	-3.0792	-70.929	163.462	-38.221	-28.427	-13.082	-139.518	64.618	29.297	-102.137	186.334	-151.784	161.995	-103.657	130.293	27.410	-137.935	0.0012275	0.00039537	0.00012843	341.64	3.1238e-06	4.2091e-06	521.76	144.21	5.2062e-06	4.4194e-06	265.36	146.47	74.957	41.521	4.4049e-06	87.987	0.00011437	2.5821e-05	7.2017e-06	330.32	2.7237e-07	2.6589e-07	506.85	140.72	3.2384e-07	2.6796e-07	258.34	142.27	72.629	40.577	3.495e-07	86.417	147.237	-77.748	-45.402	-140.215	-10.074	-20.089	-141.449	-135.662	-39.776	-3.491	-137.851	-133.963	-133.575	-128.108	-38.421	-129.887	-8191	255	
9214.469	1	1	0	0	0.19372	0.29338	0.14616	0.2821	0.11146	0.26416	0.16862	0.1882	0.12189	0.11735	0.24311	0.18964	0.27225	0.29786	0.071308	0.10619	-2.0833	-2.6375	-2.8146	-2.5563	-2.5354	-2.5854	-2.6146	-2.7562	-2.3625	-2.6354	-2.7979	-2.5687	-2.7542	-2.8792	-2.3771	-2.8208	179.089	-22.918	55.364	151.263	119.078	202.916	195.015	59.306	185.705	3.750	172.889	-139.210	-151.510	148.325	-130.480	94.388	0.0011915	0.00050442	0.0001317	340.49	4.7743e-06	5.0198e-06	516.09	143.4	4.3069e-06	3.3698e-06	260.8	144.6	74.418	41.404	3.5664e-06	87.506	0.00011589	2.7221e-05	6.6269e-06	329	2.9219e-07	2.5964e-07	500.79	139.48	3.2014e-07	2.6731e-07	253.56	140.62	72.247	40.454	3.3128e-07	85.627	148.116	-88.927	-66.254	-140.448	-13.141	-22.005	-141.595	-135.814	-33.293	-3.003	-137.313	-133.712	-133.343	-128.332	-55.651	-130.081	-8191	255	
9214.589	1	1	0	0	0.13607	0.094262	0.21478	0.24584	0.16106	0.15846	0.16103	0.13015	0.11681	0.22522	0.1615	0.25347	0.14694	0.095039	0.071336	0.27728	-2.0917	-2.5208	-2.8083	-2.5458	-2.8896	-2.6375	-2.7562	-2.7417	-2.5792	-2.5917	-2.7687	-2.6646	-2.9583	-2.8646	-2.5312	-2.9646	187.899	41.747	-16.824	70.326	164.345	185.846	-4.994	138.443	-48.345	75.402	76.359	176.804	-94.818	-90.195	3.237	192.137	0.0011645	0.00053523	0.00013974	340.02	3.3754e-06	3.6016e-06	509.88	143.55	4.0426e-06	3.7901e-06	262.2	143.7	74.673	41.406	4.1539e-06	87.4	0.00011304	2.7032e-05	6.7724e-06	328.1	2.8119e-07	2.5584e-07	496.67	139.67	3.1467e-07	2.7692e-07	254.45	140.36	72.331	40.477	3.2709e-07	85.536	147.416	-80.825	-58.706	-140.469	-46.582	-29.972	-141.115	-135.794	-45.443	-21.276	-137.548	-133.666	-133.484	-128.103	-43.600	-130.246	-8191	255	
9214.685	1	1	0	0	0.02846	0.12177	0.093939	0.34618	0.20155	0.17183	0.22255	0.11806	0.154	0.14354	0.12573	0.17409	0.11161	0.25489	0.20578	0.37118	-2.0375	-2.4125	-2.7625	-2.5833	-2.8625	-2.7771	-2.5979	-2.6729	-2.6792	-2.4479	-2.8083	-2.4708	-2.6604	-2.9479	-2.5792	-2.8771	206.298	-20.107	140.555	-139.292	102.322	131.377	165.521	-150.825	155.313	-151.622	-149.560	115.218	-18.406	122.127	147.684	180.437	0.0012112	0.00044691	0.00010317	338.32	5.1918e-06	4.6031e-06	512.83	143.09	3.8178e-06	3.2533e-06	261.96	143.36	73.911	40.993	3.2929e-06	86.838	0.00011608	2.4792e-05	6.5941e-06	327.93	2.9283e-07	2.4851e-07	499.74	139.33	3.0621e-07	2.707e-07	254.15	139.47	71.419	40.056	3.2087e-07	85.307	148.077	-65.484	-48.181	-140.653	-21.156	-17.239	-141.430	-135.650	-39.480	-22.355	-137.585	-134.064	-133.444	-128.339	-52.572	-130.129	-8191	255	
9214.782	1	1	0	0	0.064474	0.26334	0.20379	0.05972	0.1253	0.16871	0.13574	0.27927	0.09591	0.10723	0.10507	0.15208	0.084923	0.13446	0.32934	0.2758	-2.1896	-2.4604	-2.75	-2.6875	-2.7687	-2.7062	-2.3896	-2.5854	-2.5229	-2.5604	-2.9167	-2.7354	-2.6875	-2.8583	-2.5917	-2.8396	-74.733	-3.024	-49.964	-42.384	92.517	51.362	161.977	178.640	61.556	20.660	-32.406	192.733	-93.044	-139.942	126.866	160.480	0.0012126	0.00042548	0.00012299	336.94	3.5805e-06	3.7493e-06	516.48	143.89	5.384e-06	4.2662e-06	264.15	144.7	74.928	41.268	4.1173e-06	87.544	0.00011603	2.657e-05	6.6669e-06	327.25	2.9664e-07	2.5763e-07	502.46	139.87	3.1453e-07	2.616e-07	256.3	140.8	72.087	40.387	3.3591e-07	86.041	147.897	-76.872	-55.007	-140.356	-27.825	-32.484	-141.539	-135.599	-43.043	0.847	-137.783	-133.875	-133.569	-128.179	-39.091	-130.262	-8191	255	
9214.878	1	1	0	0	0.26875	0.11228	0.12033	0.21084	0.12148	0.053846	0.082913	0.11123	0.2592	0.25843	0.25306	0.34051	0.30157	0.42464	0.10168	0.11447	-2.0729	-2.5396	-2.8521	-2.5271	-2.5812	-2.725	-2.6083	-2.7771	-2.725	-2.6917	-2.7854	-2.5604	-2.6667	-2.7958	-2.3125	-2.8729	89.160	-115.985	29.819	105.053	135.340	52.510	39.714	179.146	-53.078	-99.040	-125.380	121.511	127.007	167.871	18.286	129.921	0.0011831	0.00047873	0.000126	338.31	3.8167e-06	4.4018e-06	513.27	144.36	2.9297e-06	3.7265e-06	260.71	143.33	74.067	41.185	4.0676e-06	87.04	0.000113	2.642e-05	6.6978e-06	328.5	2.7329e-07	2.5067e-07	499.9	140.48	3.1247e-07	2.5351e-07	253.16	139.55	71.645	40.247	3.4328e-07	85.079	147.724	-70.822	-63.122	-140.421	-25.318	-18.290	-141.490	-135.539	-32.025	-16.583	-137.512	-133.777	-133.395	-128.095	-35.510	-130.264	-8191	255	
9214.997	1	1	0	0	0.045794	0.081566	0.064433	0.062045	0.15915	0.12532	0.078746	0.094832	0.08761	0.18102	0.11746	0.22907	0.063682	0.075212	0.090493	0.19794	-2.3354	-2.3688	-2.8729	-2.6917	-2.4813	-2.8458	-2.4521	-2.4792	-2.6333	-2.5479	-2.8333	-2.6771	-2.4313	-2.8042	-2.3292	-2.5354	167.406	164.771	88.976	-150.846	-110.853	-7.643	83.223	-136.666	194.916	158.855	-105.075	197.296	154.782	-1.843	170.535	86.867	0.0011606	0.00051472	0.00013007	334.9	4.2466e-06	5.2133e-06	507.46	142.54	4.9101e-06	4.0364e-06	259.8	142.27	74.088	41.107	4.7152e-06	86.95	0.00011337	2.7898e-05	6.7178e-06	326.26	2.8154e-07	2.5203e-07	495.03	138.79	3.2903e-07	2.6976e-07	252.3	139.04	71.586	40.284	3.328e-07	85.47	147.713	-82.268	-51.762	-140.465	-31.751	-25.455	-141.698	-135.543	-33.557	-11.648	-137.285	-133.838	-133.342	-128.445	-37.349	-130.236	-8191	255	
9215.070	1	1	0	0	0.27686	0.092612	0.16276	0.18952	0.17157	0.11306	0.18422	0.35978	0.15962	0.12844	0.20798	0.16797	0.037383	0.29416	0.12575	0.31515	-2.3771	-2.2313	-2.6646	-2.8083	-2.4479	-2.8187	-2.3708	-2.7083	-2.9938	-2.4292	-2.8542	-2.8021	-2.6375	-2.8396	-2.5271	-2.6167	119.186	88.166	57.199	141.830	-143.838	-11.369	97.130	144.948	-114.291	-44.015	123.933	134.939	-140.368	165.916	118.912	110.018	0.0012039	0.00039916	0.00011049	336.62	3.5322e-06	4.5247e-06	512.63	144.37	4.8083e-06	4.0355e-06	263.47	144.85	74.506	41.526	3.7016e-06	87.763	0.0001127	2.6948e-05	6.7906e-06	327.92	2.9502e-07	2.5713e-07	499.9	140.51	3.0365e-07	2.5827e-07	255.97	140.9	72.502	40.599	3.2195e-07	85.915	148.175	-74.797	-49.532	-140.597	-24.048	-21.501	-141.494	-135.742	-42.014	-11.528	-137.447	-133.809	-133.339	-128.157	-38.921	-130.365	-8191	255	
9215.189	1	1	0	0	0.11688	0.074543	0.10738	0.057837	0.14507	0.099602	0.18765	0.074567	0.059043	0.20224	0.055291	0.14963	0.12246	0.071295	0.2706	0.33582	-2.25	-2.5	-2.6458	-2.8167	-2.4229	-2.7875	-2.5792	-2.4979	-2.8229	-2.4083	-2.8875	-2.6229	-2.3667	-2.8292	-2.4562	-2.5146	-23.525	62.051	-140.286	53.610	64.011	-83.979	198.133	72.532	-98.852	6.185	191.912	-84.957	78.362	-91.269	83.859	128.764	0.0011872	0.00045681	0.00015839	338.14	4.3598e-06	4.4436e-06	518.76	143.29	3.4845e-06	2.8333e-06	266.11	144.74	74.612	41.398	4.3528e-06	87.889	0.00011383	2.6863e-05	7.3345e-06	328.66	2.7759e-07	2.4593e-07	503.54	139.88	2.8971e-07	2.6015e-07	256.99	141	72.15	40.472	3.3215e-07	86.281	147.791	-82.008	-53.160	-140.537	-14.298	-2.757	-141.517	-135.713	-54.544	-19.100	-137.836	-133.726	-133.403	-128.380	-43.320	-129.962	-8191	255	
9215.285	1	1	0	0	0.19492	0.25054	0.094566	0.066254	0.074369	0.32585	0.11158	0.19034	0.13582	0.10066	0.1609	0.28211	0.14011	0.063454	0.21703	0.44492	-2.2833	-2.3667	-2.4917	-2.5125	-2.4562	-2.6083	-2.575	-2.6292	-2.6437	-2.5042	-2.7958	-2.7646	-2.4271	-2.6792	-2.6729	-2.5083	32.675	-89.627	89.404	78.617	160.487	-38.975	56.843	154.282	30.058	156.725	179.617	140.678	194.436	88.210	107.497	134.486	0.001155	0.00042306	0.00014172	341	4.753e-06	5.2632e-06	517.79	144.32	4.1467e-06	3.0749e-06	262.51	144.29	74.569	41.228	4.3029e-06	87.195	0.00011184	2.6674e-05	7.2617e-06	329.99	2.9607e-07	2.5404e-07	504.77	140.75	2.8851e-07	2.8321e-07	254.98	140.77	72.298	40.529	3.495e-07	85.665	148.359	-68.264	-63.014	-140.392	-30.613	-21.619	-141.353	-135.612	-37.543	-1.528	-137.539	-133.712	-133.568	-128.056	-34.193	-130.119	-8191	255	
9215.381	1	1	0	0	0.12563	0.076938	0.13772	0.27459	0.11584	0.22771	0.35649	0.075915	0.029573	0.14283	0.33868	0.12517	0.21501	0.18542	0.28434	0.17375	-2.4729	-2.5792	-2.5687	-2.7125	-2.3667	-2.775	-2.7542	-2.5417	-2.8521	-2.5646	-2.625	-2.9062	-2.5312	-2.8021	-2.7646	-2.3708	84.337	59.582	154.842	84.611	139.613	162.152	170.805	-64.680	40.373	-85.343	-134.123	186.729	120.978	183.221	-122.632	121.509	0.0011739	0.00047137	0.0001536	340.67	4.3766e-06	4.7803e-06	514.25	144.34	4.0245e-06	3.2979e-06	260.67	143.62	74.654	41.549	3.9889e-06	87.472	0.00011196	2.5463e-05	7.4909e-06	327.83	2.8338e-07	2.4435e-07	500.02	140.32	2.9092e-07	2.5119e-07	253.68	140.09	72.115	40.492	3.3034e-07	85.596	147.134	-66.638	-59.588	-140.124	-4.828	-16.269	-141.160	-135.801	-42.678	-5.030	-137.277	-133.907	-133.338	-128.109	-43.200	-130.345	-8191	255	
9215.477	1	1	0	0	0.16601	0.078804	0.089405	0.17803	0.21203	0.040281	0.14497	0.32174	0.21062	0.05056	0.23827	0.075741	0.14988	0.17302	0.21893	0.25371	-2.2687	-2.5292	-2.45	-2.8937	-2.3771	-2.7125	-2.7708	-2.4708	-2.6479	-2.6667	-2.8042	-2.8167	-2.45	-2.7271	-2.6083	-2.6417	135.836	156.382	122.591	141.650	-27.252	55.747	169.796	-116.348	42.147	-14.493	118.585	64.703	110.360	157.109	71.407	81.906	0.0011899	0.00042865	0.00013373	340.55	4.587e-06	4.7853e-06	517.87	144.51	4.6773e-06	4.1251e-06	265.06	144.34	75.262	41.581	4.161e-06	88.015	0.00011532	2.6329e-05	6.9088e-06	330.49	2.9177e-07	2.6252e-07	503.65	140.89	3.2469e-07	2.7923e-07	257.05	140.96	72.754	40.686	3.4372e-07	86.195	148.740	-89.748	-57.778	-140.414	-29.915	-30.599	-141.470	-135.902	-38.545	-11.332	-137.635	-134.033	-133.278	-128.262	-34.234	-129.964	-8191	255	
#DATA ENDS
