BOXY.EXE: ISS Imagent and Oximeter Data Acquisition Program Version 0.80
Ascii Record File

#ACQ INFORMATION
2  Detector Channels 
16  External MUX Channels 
1  Auxiliary Channels 
5000  Waveform (CCF) Frequency (Hz)
1  Waveforms Skipped 
30  Waveforms Averaged 
1  Cycles Averaged 
16  Acquisitions per Waveform 
10.0806  Updata Rate (Hz) 

#FILE INFORMATION
TRUE -- External MUX Channel results are PARSED.
FALSE -- AC DC and Phase are NOT grouped.
TRUE -- Companion Program Settings File CREATED.
FALSE -- AC data not excluded
FALSE -- DC data not excluded
FALSE -- Phase data not excluded
FALSE -- Auxillary Chn. data not excluded
Tab delimiters

#CALIBRATION STATE
TRUE -- Waveform Calibration Values APPLIED.


#AUX CALIBRATION VALUES
Val Type	aux-1	

Term	1.0000e+00	
Factor	0.0000e+00	


#WF CALIBRATION VALUES
A = Detector Channel
Val Type	A-AC1	A-AC2	A-AC3	A-AC4	A-AC5	A-AC6	A-AC7	A-AC8	A-AC9	A-AC10	A-AC11	A-AC12	A-AC13	A-AC14	A-AC15	A-AC16	A-DC1	A-DC2	A-DC3	A-DC4	A-DC5	A-DC6	A-DC7	A-DC8	A-DC9	A-DC10	A-DC11	A-DC12	A-DC13	A-DC14	A-DC15	A-DC16	A-Ph1	A-Ph2	A-Ph3	A-Ph4	A-Ph5	A-Ph6	A-Ph7	A-Ph8	A-Ph9	A-Ph10	A-Ph11	A-Ph12	A-Ph13	A-Ph14	A-Ph15	A-Ph16	

Term	0.00000e+00	0.00000e+00	0.00000e+00	0.00000e+00	0.00000e+00	0.00000e+00	0.00000e+00	0.00000e+00	0.00000e+00	0.00000e+00	0.00000e+00	0.00000e+00	0.00000e+00	0.00000e+00	0.00000e+00	0.00000e+00	0.00000e+00	0.00000e+00	0.00000e+00	0.00000e+00	0.00000e+00	0.00000e+00	0.00000e+00	0.00000e+00	0.00000e+00	0.00000e+00	0.00000e+00	0.00000e+00	0.00000e+00	0.00000e+00	0.00000e+00	0.00000e+00	0.00000e+00	0.00000e+00	0.00000e+00	0.00000e+00	0.00000e+00	0.00000e+00	0.00000e+00	0.00000e+00	0.00000e+00	0.00000e+00	0.00000e+00	0.00000e+00	0.00000e+00	0.00000e+00	0.00000e+00	0.00000e+00	
Factor	1.00000e+00	1.00000e+00	1.00000e+00	1.00000e+00	1.00000e+00	1.00000e+00	1.00000e+00	1.00000e+00	1.00000e+00	1.00000e+00	1.00000e+00	1.00000e+00	1.00000e+00	1.00000e+00	1.00000e+00	1.00000e+00	1.00000e+00	1.00000e+00	1.00000e+00	1.00000e+00	1.00000e+00	1.00000e+00	1.00000e+00	1.00000e+00	1.00000e+00	1.00000e+00	1.00000e+00	1.00000e+00	1.00000e+00	1.00000e+00	1.00000e+00	1.00000e+00	X	X	X	X	X	X	X	X	X	X	X	X	X	X	X	X	

B = Detector Channel
Val Type	B-AC1	B-AC2	B-AC3	B-AC4	B-AC5	B-AC6	B-AC7	B-AC8	B-AC9	B-AC10	B-AC11	B-AC12	B-AC13	B-AC14	B-AC15	B-AC16	B-DC1	B-DC2	B-DC3	B-DC4	B-DC5	B-DC6	B-DC7	B-DC8	B-DC9	B-DC10	B-DC11	B-DC12	B-DC13	B-DC14	B-DC15	B-DC16	B-Ph1	B-Ph2	B-Ph3	B-Ph4	B-Ph5	B-Ph6	B-Ph7	B-Ph8	B-Ph9	B-Ph10	B-Ph11	B-Ph12	B-Ph13	B-Ph14	B-Ph15	B-Ph16	

Term	0.00000e+00	0.00000e+00	0.00000e+00	0.00000e+00	0.00000e+00	0.00000e+00	0.00000e+00	0.00000e+00	0.00000e+00	0.00000e+00	0.00000e+00	0.00000e+00	0.00000e+00	0.00000e+00	0.00000e+00	0.00000e+00	0.00000e+00	0.00000e+00	0.00000e+00	0.00000e+00	0.00000e+00	0.00000e+00	0.00000e+00	0.00000e+00	0.00000e+00	0.00000e+00	0.00000e+00	0.00000e+00	0.00000e+00	0.00000e+00	0.00000e+00	0.00000e+00	-9.99014e+01	-1.28059e+02	-1.24292e+02	-1.80815e+02	-5.64162e+01	-6.70400e+01	-1.57141e+02	-1.62015e+02	-5.78422e+01	-6.46554e+01	-1.71605e+02	-1.71581e+02	-1.83471e+02	-1.76929e+02	-6.31455e+01	-1.49760e+02	
Factor	1.57090e-05	1.56009e-04	4.31416e-05	1.49598e-01	1.26044e-06	1.72627e-06	1.55617e-01	4.50887e-02	1.02207e-06	1.73542e-06	7.47621e-02	2.92882e-02	3.47003e-02	8.87559e-03	1.34979e-06	1.27559e-02	1.64394e-05	5.02448e-05	1.40396e-05	7.54145e-02	4.32544e-07	5.76823e-07	7.39352e-02	2.29014e-02	4.22910e-07	5.74600e-07	3.67841e-02	1.45451e-02	1.77443e-02	4.53651e-03	4.81585e-07	6.33307e-03	X	X	X	X	X	X	X	X	X	X	X	X	X	X	X	X	



#DISTANCE SETTINGS
A = Detector Channel
A-1	A-2	A-3	A-4	A-5	A-6	A-7	A-8	A-9	A-10	A-11	A-12	A-13	A-14	A-15	A-16	

2.5000e+00	3.0000e+00	2.5000e+00	3.0000e+00	2.0000e+00	3.0000e+00	1.5000e+00	3.0000e+00	3.0000e+00	3.0000e+00	3.0000e+00	3.0000e+00	3.0000e+00	3.0000e+00	1.5000e+00	3.0000e+00	

B = Detector Channel
B-1	B-2	B-3	B-4	B-5	B-6	B-7	B-8	B-9	B-10	B-11	B-12	B-13	B-14	B-15	B-16	

1.0000e+01	1.0000e+01	1.0000e+01	1.4400e+00	1.0000e+01	1.0000e+01	1.5100e+00	1.9400e+00	1.0000e+01	1.0000e+01	1.9900e+00	2.4900e+00	2.4100e+00	2.9000e+00	1.0000e+01	2.9800e+00	




#DATA BEGINS
time	group	step	mark	flag	A-AC1	A-AC2	A-AC3	A-AC4	A-AC5	A-AC6	A-AC7	A-AC8	A-AC9	A-AC10	A-AC11	A-AC12	A-AC13	A-AC14	A-AC15	A-AC16	A-DC1	A-DC2	A-DC3	A-DC4	A-DC5	A-DC6	A-DC7	A-DC8	A-DC9	A-DC10	A-DC11	A-DC12	A-DC13	A-DC14	A-DC15	A-DC16	A-Ph1	A-Ph2	A-Ph3	A-Ph4	A-Ph5	A-Ph6	A-Ph7	A-Ph8	A-Ph9	A-Ph10	A-Ph11	A-Ph12	A-Ph13	A-Ph14	A-Ph15	A-Ph16	B-AC1	B-AC2	B-AC3	B-AC4	B-AC5	B-AC6	B-AC7	B-AC8	B-AC9	B-AC10	B-AC11	B-AC12	B-AC13	B-AC14	B-AC15	B-AC16	B-DC1	B-DC2	B-DC3	B-DC4	B-DC5	B-DC6	B-DC7	B-DC8	B-DC9	B-DC10	B-DC11	B-DC12	B-DC13	B-DC14	B-DC15	B-DC16	B-Ph1	B-Ph2	B-Ph3	B-Ph4	B-Ph5	B-Ph6	B-Ph7	B-Ph8	B-Ph9	B-Ph10	B-Ph11	B-Ph12	B-Ph13	B-Ph14	B-Ph15	B-Ph16	aux-1	digaux	

15895.621	1	1	0	256	0.19208	0.25125	0.068513	0.23652	0.40592	0.39999	0.077678	0.044243	0.025035	0.1084	0.30614	0.16532	0.15408	0.10813	0.20169	0.14341	-2.15	-2.8875	-2.9146	-2.5333	-2.8958	-2.6833	-2.8854	-2.8667	-2.6688	-2.7208	-2.7417	-2.5687	-2.8438	-2.6479	-2.6958	-2.8479	173.626	221.072	166.141	464.272	477.871	178.839	330.019	309.534	382.323	390.576	172.747	334.824	471.195	449.742	354.796	135.207	0.00035171	0.0014168	0.00013447	165.07	1.0027e-05	5.7719e-06	319.91	63.781	4.0839e-06	2.0614e-06	161.66	76.59	27.67	11.998	4.8818e-06	39.115	0.012077	0.035695	0.0099317	222.55	0.00030411	0.00040086	380.88	81.598	0.00029217	0.00039185	192.39	89.797	40.428	15.684	0.00032634	45.304	209.980	282.958	252.648	133.089	259.349	436.359	132.716	137.213	265.631	224.506	135.900	139.361	140.592	144.633	252.803	142.816	-8191	255	
15895.742	1	1	0	0	0.089453	0.095099	0.16606	0.17934	0.12897	0.10115	0.27018	0.054609	0.13082	0.148	0.21196	0.22286	0.35235	0.25648	0.23896	0.10725	-2.2125	-2.7146	-2.6937	-2.5104	-2.9167	-2.8167	-2.8083	-2.9771	-2.525	-2.7583	-2.7375	-2.6646	-2.7583	-2.675	-2.6813	-2.9688	209.548	382.692	365.285	474.605	436.775	405.954	397.075	312.414	472.013	163.732	423.322	430.364	361.459	129.631	380.432	309.167	0.00038318	0.00025114	0.00011214	165.2	4.0015e-06	7.3843e-06	321.02	64.411	8.2454e-08	1.4275e-06	162	76.488	27.583	12.182	1.0725e-06	39.181	0.01141	0.033746	0.009503	220.68	0.00029177	0.00038776	380.85	81.882	0.0002853	0.00038521	192.69	89.654	40.425	15.737	0.00031967	45.231	220.307	149.834	190.757	132.252	259.030	237.784	131.996	136.814	366.802	196.503	136.092	139.946	140.493	144.951	219.118	142.959	-8191	255	
15895.838	1	1	0	0	0.28672	0.12836	0.20676	0.32577	0.18185	0.22659	0.099542	0.19586	0.2064	0.19105	0.13964	0.19668	0.31441	0.13534	0.10964	0.12114	-2.475	-2.9	-2.8792	-2.6458	-2.8771	-2.9167	-2.4729	-2.85	-2.6021	-2.7583	-2.9875	-2.4938	-2.7604	-2.8771	-2.7271	-3.0521	160.903	374.354	359.236	439.714	267.951	268.021	455.919	474.540	363.073	204.862	332.496	372.750	199.643	132.305	242.158	440.663	0.00035059	8.4756e-05	0.00018282	166.04	3.9369e-06	6.7473e-06	321.28	64.412	4.0057e-06	8.0545e-06	163.68	77.953	28.397	12.402	2.7752e-06	39.841	0.011209	0.033441	0.0093834	221.64	0.00028616	0.00038128	380.44	81.754	0.00027357	0.00036917	193.35	90.646	40.505	15.898	0.00031043	45.839	207.681	167.429	185.937	132.257	125.026	462.888	132.265	137.133	266.108	333.100	135.898	139.380	139.946	144.914	227.377	143.044	-8191	255	
15895.910	1	1	0	0	0.18958	0.16498	0.28527	0.12449	0.28265	0.10565	0.20308	0.10331	0.20123	0.27439	0.15098	0.13354	0.059356	0.31212	0.13774	0.22468	-2.1667	-2.7292	-2.8375	-2.3667	-2.775	-2.6979	-2.65	-3.0875	-2.6271	-2.6667	-2.9771	-2.925	-2.6771	-2.9083	-2.6854	-2.9208	425.694	265.841	177.205	213.497	168.016	120.580	131.690	330.849	466.112	362.916	471.173	435.130	170.238	472.093	370.522	448.796	0.00039391	0.00043539	0.00019279	168.76	3.8425e-06	2.6901e-06	325.89	66.322	2.4794e-06	8.5693e-06	167.73	80.724	29.216	12.91	7.6717e-06	41.219	0.011051	0.032821	0.0091259	221.18	0.00027303	0.00035973	381.75	82.318	0.00025661	0.0003464	195.79	92.564	40.643	16.2	0.00028607	46.882	203.342	261.823	277.273	132.655	217.488	415.232	132.604	137.551	315.708	459.038	135.770	139.281	140.239	144.518	300.246	143.129	-8191	255	
15896.006	1	1	0	0	0.1821	0.09914	0.027466	0.21997	0.060901	0.30823	0.21588	0.16431	0.11588	0.055589	0.046303	0.19231	0.25562	0.2558	0.21251	0.017474	-2.3688	-2.8479	-2.8958	-2.4813	-2.8771	-2.8729	-2.4437	-2.7562	-2.8146	-2.6979	-2.8979	-2.4271	-2.6833	-2.6833	-2.4562	-3.0542	414.634	393.699	303.971	147.815	473.970	423.963	329.502	341.697	167.028	137.339	345.245	379.325	318.094	235.460	371.667	430.335	0.00041276	0.00035071	7.3779e-05	170.83	7.3418e-07	1.511e-06	327.96	66.363	2.1895e-06	8.4488e-06	167.84	81.056	29.454	12.843	3.7641e-06	41.255	0.010017	0.029935	0.0084758	220.53	0.00026026	0.00034477	384.46	82.538	0.00025335	0.00034325	196.32	93.048	40.74	16.251	0.00028642	47.058	207.913	196.930	182.007	132.350	449.096	439.848	132.730	137.142	232.680	213.799	136.075	139.415	139.835	144.045	279.893	143.016	-8191	255	
15896.125	1	1	0	0	0.21288	0.12272	0.17825	0.10253	0.23941	0.24966	0.037011	0.195	0.18424	0.12216	0.13972	0.35567	0.18949	0.049039	0.086486	0.2239	-2.3292	-2.6896	-2.9104	-2.5979	-2.7979	-2.9125	-2.7271	-2.8292	-2.6729	-2.5354	-2.8833	-2.6292	-2.5833	-2.9813	-2.4771	-2.9521	326.792	457.395	389.950	333.325	125.014	426.091	239.592	353.783	266.419	394.535	280.377	408.624	210.634	355.527	172.939	398.611	0.00035197	0.00045456	7.2755e-05	169.93	5.2148e-06	1.9097e-06	326.43	66.09	5.8521e-06	2.7828e-06	166.45	79.825	29.349	12.81	1.1657e-06	41.129	0.010053	0.029957	0.0084274	219.71	0.00026047	0.00035062	382.44	82.328	0.00025835	0.00035348	195.78	92.544	40.917	16.249	0.00029694	46.933	217.570	269.337	216.074	132.212	285.791	314.661	132.627	137.309	318.807	430.873	135.759	139.638	139.924	144.738	327.240	143.022	-8191	255	
15896.221	1	1	0	0	0.13011	0.1648	0.29564	0.12621	0.27035	0.11824	0.16185	0.2545	0.27264	0.080677	0.41327	0.025905	0.17886	0.10153	0.095719	0.12584	-2.3208	-2.5729	-2.9625	-2.7167	-2.5292	-2.9125	-2.65	-2.9792	-2.8	-2.5604	-3.0083	-2.8229	-2.6833	-2.8042	-2.6667	-2.8812	393.316	431.917	226.748	353.291	390.104	242.275	268.997	459.268	451.836	394.111	390.154	151.737	453.625	162.126	191.215	303.190	0.00041271	0.00050602	0.00014211	169.54	6.3778e-06	1.0892e-06	328.32	66.291	2.0845e-06	7.6095e-06	167.5	80.533	29.26	12.84	4.3724e-06	41.098	0.010277	0.030561	0.0084802	220.12	0.00025901	0.00034551	383.02	82.182	0.00024819	0.00033744	195.8	92.699	40.643	16.223	0.00028547	46.915	212.393	250.768	401.531	132.831	356.131	388.096	132.407	136.975	193.989	321.299	135.820	139.348	139.990	144.535	175.804	143.079	-8191	255	
15896.317	1	1	0	0	0.21029	0.063949	0.21065	0.11242	0.02498	0.25195	0.26704	0.14506	0.1887	0.12176	0.22972	0.20377	0.12974	0.072491	0.04055	0.20071	-2.3833	-2.5979	-2.75	-2.6646	-2.6771	-3.0687	-2.4146	-2.8104	-2.7292	-2.4771	-2.8854	-2.8083	-2.5646	-2.7854	-2.6396	-2.6958	301.431	359.662	380.129	241.211	184.268	189.912	133.311	277.352	249.435	405.420	120.795	476.549	427.304	229.950	384.855	420.227	0.00041126	0.00033712	7.5975e-05	169.27	4.0735e-06	7.7372e-06	327.19	66.381	3.8679e-06	6.1457e-06	168.27	80.963	29.379	12.991	7.7692e-06	41.181	0.010151	0.03037	0.0084767	219.97	0.00026356	0.00035232	383.41	82.42	0.0002565	0.00034768	196.75	93.189	40.721	16.294	0.00028481	47.083	206.718	193.885	233.527	132.839	279.539	241.804	132.548	137.514	125.997	240.271	136.010	139.506	139.593	144.587	294.087	142.884	-8191	255	
15896.413	1	1	0	0	0.06996	0.076525	0.14065	0.10343	0.29363	0.16377	0.1404	0.1009	0.24471	0.0069556	0.096832	0.29149	0.056871	0.16267	0.058095	0.039754	-2.4375	-2.5667	-2.5896	-2.6125	-2.5312	-2.9792	-2.7333	-2.6167	-2.9021	-2.5917	-2.7833	-2.7167	-2.6146	-2.8958	-2.5917	-2.6125	286.372	202.658	252.401	342.403	355.611	230.187	474.199	368.993	336.120	425.311	295.517	448.299	146.753	225.099	323.382	143.845	0.00038583	0.00031702	0.00010177	167.88	2.1318e-06	4.6809e-06	329.45	66.296	5.1596e-06	7.0654e-06	168.15	80.615	29.173	13.026	9.5169e-06	41.129	0.010021	0.02972	0.0082929	218.62	0.00025734	0.00034155	383.09	82	0.00024668	0.00033432	195.89	92.772	40.211	16.197	0.0002797	46.794	218.321	195.351	321.858	132.218	341.265	412.569	132.811	137.652	230.283	231.151	136.087	139.300	140.028	144.554	288.784	142.898	-8191	255	
15896.534	1	1	0	0	0.11291	0.18746	0.078187	0.052452	0.2793	0.030582	0.21995	0.22044	0.083333	0.10791	0.013722	0.15353	0.19542	0.12309	0.26361	0.11089	-2.3792	-2.4417	-2.9229	-2.9062	-2.6708	-2.9396	-2.675	-2.6479	-2.9271	-2.5417	-2.6604	-2.575	-2.5854	-2.7917	-2.6521	-2.5938	168.533	139.562	311.606	391.939	219.915	352.829	445.147	417.852	382.380	254.413	196.459	205.631	164.443	340.207	229.760	374.897	0.00041038	0.00049578	9.5847e-05	167.04	5.4603e-06	7.4399e-06	326.73	65.458	4.812e-06	2.9171e-06	167.38	80.077	28.659	12.843	9.4514e-06	41.241	0.0099855	0.029768	0.0084538	217.71	0.00026395	0.00035044	380.89	81.403	0.00025413	0.00033908	195.02	92.083	40.195	16.092	0.0002792	46.842	202.449	220.293	280.130	132.371	319.882	255.441	132.269	137.073	288.045	123.032	135.932	139.453	139.772	144.792	242.323	142.918	-8191	255	
15896.606	1	1	0	0	0.1847	0.02573	0.22957	0.19637	0.2454	0.152	0.30895	0.30465	0.016313	0.070774	0.031752	0.026354	0.082133	0.060325	0.15842	0.056911	-2.3937	-2.6146	-2.5938	-2.775	-2.6167	-2.6417	-2.5417	-2.4562	-2.7375	-2.6125	-2.5125	-2.8937	-2.4708	-2.7146	-2.7062	-2.6854	191.586	170.790	283.577	331.832	177.242	458.247	377.051	435.436	274.029	146.520	240.670	174.832	410.304	383.003	148.716	358.531	0.00040297	0.00055895	8.2658e-05	167.47	4.5313e-06	2.4591e-06	327.13	65.614	3.5778e-06	5.1913e-06	167.11	79.592	28.692	12.771	1.9587e-06	41.094	0.0099041	0.029334	0.0081908	216.58	0.00025487	0.00033724	381.18	81.298	0.00025074	0.00033772	194.23	91.51	39.812	15.976	0.0002753	46.559	210.500	169.077	145.151	132.423	195.400	322.876	132.390	137.149	292.037	329.912	135.771	139.696	139.599	144.788	242.885	142.819	-8191	255	
15896.726	1	1	0	0	0.34422	0.15176	0.058889	0.18926	0.10902	0.034893	0.14081	0.088149	0.27334	0.17265	0.18413	0.053088	0.19057	0.41297	0.14896	0.30376	-2.2917	-2.5667	-2.6646	-2.7938	-2.5687	-2.7958	-2.7083	-2.5292	-2.7479	-2.7375	-2.9437	-2.9813	-2.6521	-2.6646	-2.7583	-2.4667	312.106	135.481	426.557	183.527	444.839	273.826	432.619	222.114	458.233	399.954	123.050	335.598	466.002	154.247	471.436	166.556	0.00036864	0.00078891	5.5909e-05	168.52	2.1768e-06	6.1102e-06	325.92	65.016	2.5798e-06	9.6031e-06	166.66	78.902	28.143	12.706	6.049e-08	40.875	0.0096367	0.028464	0.0079721	215.12	0.0002435	0.00032512	379.06	80.303	0.00023901	0.00032402	193.34	90.825	39.287	15.811	0.00027611	46.271	211.428	265.225	435.667	132.559	293.739	270.497	132.172	137.068	198.632	274.041	135.739	139.404	140.940	144.354	376.558	143.018	-8191	255	
15896.822	1	1	0	0	0.11424	0.20102	0.18586	0.076302	0.24017	0.1728	0.2587	0.047398	0.17642	0.20203	0.090195	0.31616	0.14518	0.12916	0.29157	0.019977	-2.5854	-2.725	-2.625	-2.9104	-2.7083	-2.9271	-2.9042	-2.5729	-3.0354	-2.6875	-2.5229	-2.9375	-2.5229	-2.6833	-2.8354	-2.6333	363.657	244.265	211.394	304.524	414.542	157.321	249.941	186.182	232.530	383.418	410.687	403.938	384.127	292.309	369.044	397.930	0.00040368	0.0002762	4.7277e-05	166.78	5.0332e-06	3.3173e-06	326.28	64.808	2.3805e-06	2.3066e-06	165.48	78.666	28.309	12.616	5.4457e-06	40.669	0.0096567	0.02853	0.0080163	213.36	0.0002471	0.00033052	377.83	80.085	0.00024328	0.00033036	192.69	90.768	39.404	15.823	0.00027623	46.014	208.796	220.776	450.138	132.660	358.059	233.552	132.435	137.364	295.888	247.359	135.991	139.459	140.378	144.462	154.723	142.863	-8191	255	
15896.919	1	1	0	0	0.19006	0.083767	0.18338	0.19186	0.40829	0.077838	0.1678	0.14317	0.037466	0.24549	0.26674	0.15005	0.15225	0.088881	0.11747	0.10575	-2.5167	-2.6458	-2.8	-2.7646	-2.5875	-2.8625	-2.9396	-2.5333	-2.7792	-2.7396	-2.6	-3.0396	-2.7708	-2.8208	-2.7833	-2.6917	191.779	302.787	406.415	125.426	349.787	319.167	357.829	360.983	265.404	225.999	164.600	389.832	207.893	252.602	233.114	382.629	0.00044807	0.00097371	5.0476e-05	166.44	1.2662e-06	1.0274e-05	324.69	65.056	3.1339e-06	4.1412e-06	166.05	79.124	28.47	12.557	4.8409e-06	40.805	0.0097113	0.028497	0.0079117	213.79	0.00024403	0.000321	376.05	79.873	0.00023702	0.00031941	192.06	90.529	39.227	15.737	0.00027026	46.192	213.623	437.880	203.935	132.673	474.292	307.773	132.701	136.976	224.376	176.663	136.059	139.429	140.689	144.791	306.611	142.972	-8191	255	
15897.015	1	1	0	0	0.24924	0.23181	0.18167	0.13014	0.20687	0.15757	0.15706	0.15325	0.17173	0.51897	0.11397	0.27453	0.15359	0.13515	0.11185	0.24225	-2.5625	-2.825	-2.5979	-2.7667	-2.7479	-2.7375	-2.8458	-2.5167	-2.8688	-2.7687	-2.5833	-2.8708	-2.7354	-2.6104	-2.8271	-2.7479	300.771	324.123	374.012	457.061	376.091	187.689	418.669	267.869	254.603	436.267	289.283	448.364	244.726	416.009	249.113	453.729	0.00039832	0.0010702	7.0851e-05	168.42	4.1347e-06	6.1105e-06	327.19	65.238	3.9802e-06	4.4586e-06	167.58	79.497	28.699	12.789	2.791e-06	41.018	0.0095097	0.028218	0.0079144	214.98	0.00024442	0.00032514	379.67	80.478	0.00023649	0.00031981	193.5	91.112	39.264	15.826	0.00025732	46.33	218.400	181.170	221.722	132.695	271.962	234.158	132.375	137.141	286.203	453.174	135.666	139.671	140.177	144.807	347.396	143.104	-8191	255	
15897.134	1	1	0	0	0.22366	0.25479	0.10725	0.29028	0.17567	0.25656	0.18809	0.21527	0.032531	0.24822	0.023586	0.18773	0.11349	0.12457	0.35309	0.43562	-2.3812	-2.8479	-2.5333	-2.7792	-2.6688	-2.6604	-2.975	-2.6854	-2.6646	-3.0104	-2.7854	-2.9	-2.7208	-2.4396	-2.8292	-2.8042	275.788	344.263	384.100	409.731	218.729	285.961	367.796	407.815	168.423	190.796	374.401	326.868	120.520	119.971	138.940	441.072	0.00034698	0.00034852	3.223e-05	168.8	7.3469e-06	2.6839e-06	328.22	65.78	5.3319e-06	8.0076e-06	167.6	79.885	28.893	12.768	6.2503e-06	41.116	0.0089354	0.026714	0.0074136	213.31	0.00022839	0.00030657	378.02	80.08	0.00022675	0.00030815	193.34	91.359	39.21	15.825	0.00026235	46.472	203.481	148.125	258.640	132.667	305.212	376.763	132.536	136.894	343.939	340.525	135.930	139.674	139.795	144.814	210.165	143.220	-8191	255	
15897.205	1	1	0	0	0.30364	0.098476	0.30894	0.23793	0.11586	0.29638	0.058758	0.27252	0.11085	0.3328	0.1957	0.2537	0.11622	0.12353	0.13071	0.32271	-2.2854	-2.7979	-2.4167	-2.7583	-2.8375	-2.5833	-2.8563	-2.5687	-2.625	-2.8521	-2.7479	-2.7896	-2.8208	-2.6688	-2.9646	-2.7875	318.213	169.251	345.273	369.709	274.022	308.174	413.536	418.635	150.240	137.231	191.419	377.177	290.447	230.642	267.523	389.348	0.00035176	0.00030498	9.0769e-05	167.89	2.6294e-06	4.0809e-06	328.08	65.655	6.0235e-06	6.2925e-06	166.15	78.679	28.798	12.639	1.489e-06	40.759	0.0092612	0.027456	0.0077472	215.03	0.00024013	0.00032267	378.65	80.652	0.00024092	0.00032785	192.82	90.623	39.662	15.869	0.00027489	46.246	209.201	191.500	426.463	132.507	303.384	211.966	132.406	137.302	277.342	272.712	135.826	139.595	140.230	144.729	335.953	142.871	-8191	255	
15897.301	1	1	0	0	0.16496	0.037794	0.051577	0.16379	0.078251	0.15876	0.15882	0.28844	0.23661	0.090076	0.21195	0.1903	0.090878	0.087405	0.16636	0.071747	-2.4625	-2.7792	-2.4708	-2.6979	-2.8354	-2.6979	-2.9604	-2.7062	-2.6271	-3.0396	-2.7271	-2.8354	-2.8146	-2.4354	-2.8146	-2.9479	365.482	463.550	323.491	162.175	336.624	204.096	321.316	134.074	338.728	471.085	134.438	325.110	246.556	302.954	371.470	464.360	0.00041226	0.00043031	0.00010944	169.74	1.3331e-06	4.0129e-06	327.34	66.142	5.8467e-06	6.1556e-06	166.14	79.202	28.868	12.646	3.6457e-06	40.616	0.0095987	0.028409	0.0079616	216.75	0.00024796	0.00033531	382.24	81.875	0.00025443	0.00034921	195.07	91.763	40.536	16.047	0.00029704	46.489	214.775	243.055	162.021	132.438	254.471	280.516	132.484	137.186	322.983	322.644	135.919	139.506	140.629	145.157	214.353	142.908	-8191	255	
15897.422	1	1	0	0	0.092206	0.25083	0.080951	0.19972	0.11297	0.24327	0.16875	0.083301	0.14588	0.068642	0.056149	0.023241	0.026419	0.10217	0.10887	0.31559	-2.15	-2.8937	-2.6688	-2.7104	-2.9375	-2.6562	-2.7604	-2.7375	-2.4771	-2.9271	-2.5875	-2.7396	-2.7833	-2.5771	-2.8792	-2.8333	168.610	191.541	433.955	188.159	444.967	292.082	176.158	397.411	179.042	306.671	441.512	397.561	269.121	389.969	152.489	406.651	0.00041052	0.00038386	5.5039e-05	169.3	5.3783e-06	3.8485e-07	330.58	66.199	1.3515e-06	2.2788e-06	168.01	79.818	28.787	12.73	3.2953e-06	40.888	0.010426	0.031028	0.0086405	221.46	0.00026879	0.00036091	386.53	82.856	0.00026799	0.00036295	197.23	92.682	41.008	16.235	0.00030598	46.832	213.638	251.135	476.825	132.479	332.936	413.239	132.241	137.539	332.690	281.320	135.733	139.360	139.406	144.431	306.903	143.056	-8191	255	
15897.518	1	1	0	0	0.21107	0.21059	0.047304	0.1136	0.097199	0.11599	0.06368	0.33796	0.21727	0.14421	0.15708	0.18672	0.020113	0.17	0.076921	0.22363	-2.0625	-2.8229	-2.5812	-2.6792	-3.0417	-2.5875	-2.9	-2.6479	-2.5208	-2.9083	-2.6396	-2.6167	-2.95	-2.675	-2.5938	-2.8292	373.528	121.611	321.179	407.370	431.332	269.215	275.841	464.082	320.907	205.098	193.471	125.226	334.170	145.042	233.186	460.598	0.00039874	0.00028134	0.00019571	169.14	3.5514e-06	7.6031e-06	331.48	66.091	3.0676e-06	6.111e-06	167.47	79.96	28.766	12.649	1.358e-06	40.388	0.010732	0.032169	0.0089859	222.7	0.00028005	0.00037548	389.18	82.993	0.00027361	0.00037387	197.27	92.704	41.07	16.229	0.00031503	46.571	202.196	181.503	228.680	132.978	196.687	151.804	132.439	137.487	191.251	322.029	135.796	139.847	140.131	145.009	467.034	143.045	-8191	255	
15897.614	1	1	0	0	0.19511	0.15385	0.1521	0.14798	0.32512	0.10084	0.1343	0.26442	0.19946	0.091565	0.19389	0.21631	0.13271	0.16548	0.23456	0.11648	-2.1854	-2.7562	-2.7625	-2.5771	-2.9333	-2.6542	-2.7583	-2.9062	-2.4458	-2.7875	-2.7687	-2.6458	-2.8375	-2.6625	-2.8771	-2.8333	202.859	372.454	207.618	316.808	328.567	194.739	213.252	380.462	341.066	299.194	425.145	350.970	372.859	327.027	335.021	408.700	0.00035285	0.0008559	0.00019527	169.32	6.5666e-06	1.2016e-06	325.88	65.651	4.056e-06	6.4031e-06	165.53	78.826	28.744	12.545	2.9584e-06	40.225	0.011074	0.033176	0.0092402	223.32	0.00028437	0.00038334	385.31	82.888	0.00028405	0.00038588	196.41	92.137	41.331	16.198	0.00031747	46.45	214.755	215.980	326.901	132.821	264.688	192.778	132.572	137.153	243.009	215.315	135.811	139.831	140.154	144.800	353.550	142.916	-8191	255	
15897.711	1	1	0	0	0.15533	0.023712	0.070993	0.14089	0.11003	0.15072	0.16385	0.27031	0.17463	0.089347	0.13414	0.16168	0.34667	0.24461	0.25909	0.087967	-2.2354	-2.6813	-2.6667	-2.675	-2.8604	-2.5187	-2.7104	-2.8667	-2.55	-2.9188	-2.9	-2.55	-2.9833	-2.8021	-2.6396	-2.9792	294.410	187.739	310.942	316.125	350.216	463.476	419.371	208.156	154.625	329.830	350.134	454.645	279.856	440.272	126.236	387.177	0.0003573	0.00048339	4.0679e-05	169.17	1.3215e-06	7.8309e-06	329.62	65.58	5.0011e-06	3.1173e-06	166.47	79.259	28.843	12.548	1.211e-06	40.462	0.011215	0.033341	0.0093051	223.75	0.00029157	0.00039117	389.43	83.688	0.00029133	0.00039822	198.05	92.676	42.022	16.398	0.00033917	46.921	220.993	284.599	342.654	132.625	387.199	447.314	132.291	137.202	357.864	122.960	135.769	139.350	140.320	144.390	330.636	142.936	-8191	255	
15897.807	1	1	0	0	0.16168	0.22425	0.086398	0.029778	0.2174	0.074579	0.16527	0.11389	0.15717	0.22332	0.077341	0.18399	0.14759	0.076646	0.24268	0.12405	-2.1417	-2.6708	-2.8333	-2.7583	-2.9792	-2.6229	-2.7104	-3.0521	-2.6646	-3.1583	-2.9208	-2.7083	-2.9688	-2.8271	-2.5958	-2.825	443.655	226.138	233.476	475.681	226.848	174.657	445.769	152.150	192.407	394.736	347.685	380.985	158.934	198.800	392.563	435.127	0.00036969	0.00058075	3.4298e-05	169.22	3.0976e-06	6.8592e-06	330.67	65.821	3.9611e-06	1.2935e-06	168.1	79.829	28.851	12.688	7.2525e-06	40.671	0.011838	0.035473	0.0098858	228.26	0.00030904	0.00041315	393.49	84.891	0.00030843	0.00041684	200.27	93.762	42.693	16.596	0.00035115	47.229	209.041	252.594	122.850	132.652	240.708	374.373	132.614	137.214	313.570	276.828	135.774	139.450	140.668	144.454	254.475	142.817	-8191	255	
15897.901	1	1	0	0	0.16819	0.2484	0.094997	0.11002	0.32606	0.2936	0.19687	0.36526	0.048572	0.26199	0.11066	0.16819	0.11482	0.17063	0.048804	0.056447	-2.225	-2.6583	-2.7271	-2.5729	-2.7333	-2.7583	-2.6583	-2.9896	-2.7396	-2.6646	-2.875	-2.5021	-2.7167	-2.7188	-2.5854	-3.1167	204.964	405.287	201.093	417.523	299.574	421.731	239.282	340.733	317.852	395.616	348.592	440.403	150.079	119.216	425.790	328.864	0.00035806	0.0012061	9.1145e-05	170.32	1.2967e-06	1.228e-06	329.32	66.273	1.8565e-06	5.2401e-06	165.5	78.932	28.499	12.558	2.6882e-06	40.248	0.012314	0.036657	0.010281	230.01	0.00031635	0.00042065	394.29	85.293	0.00031098	0.00042125	199.06	93.192	42.511	16.44	0.00035347	46.703	199.524	210.325	393.740	132.361	321.381	404.797	132.181	137.198	234.087	305.304	135.582	139.811	140.500	144.612	226.908	142.895	-8191	255	
15897.997	1	1	0	0	0.023097	0.28568	0.11143	0.044459	0.087488	0.23563	0.074884	0.15522	0.16896	0.20858	0.17464	0.10845	0.14648	0.23296	0.25416	0.14192	-2.2896	-2.6375	-3.0125	-2.5708	-2.8375	-2.7354	-2.6813	-2.8458	-2.6979	-2.8417	-3.0187	-2.6771	-2.7604	-2.7396	-2.5146	-2.9625	158.547	376.299	407.412	208.154	184.770	380.171	225.922	468.188	402.023	375.629	438.387	133.098	326.022	207.137	193.171	364.624	0.00030005	0.00051668	0.0002612	168.27	7.2398e-06	5.1497e-06	327.55	65.716	3.8394e-06	2.5115e-07	163.85	78.615	28.509	12.444	4.344e-06	40.136	0.012269	0.0364	0.010193	228.46	0.00031175	0.0004109	390.64	84.409	0.00029805	0.00040298	197.01	92.271	41.675	16.198	0.00033462	46.363	206.602	438.980	202.982	132.604	234.811	210.940	132.456	137.404	204.939	157.845	135.635	139.724	140.289	145.168	344.482	143.015	-8191	255	
15898.093	1	1	0	0	0.13545	0.027792	0.10525	0.056742	0.2405	0.089342	0.033764	0.056285	0.18408	0.25514	0.47687	0.17035	0.24318	0.030752	0.17068	0.11705	-2.1333	-2.6292	-2.6562	-2.7479	-2.8021	-2.8917	-2.6604	-2.8312	-2.6708	-2.7375	-2.9229	-2.7208	-2.5875	-2.8792	-2.5417	-2.9313	345.168	444.182	384.238	350.197	445.512	347.292	427.297	216.847	198.417	344.489	252.420	403.049	380.044	392.429	168.655	449.619	0.00038712	0.00063818	0.00020187	167	9.377e-07	1.2068e-05	325.99	64.625	7.3522e-07	7.3495e-06	165.51	78.378	27.943	12.463	3.4606e-06	39.985	0.011613	0.034751	0.0097537	224.68	0.00029813	0.00039617	386.88	82.633	0.00028569	0.00038632	195.98	91.483	40.858	15.948	0.00032141	46.005	201.592	234.399	254.297	132.775	404.007	237.114	132.507	137.616	341.670	261.643	136.137	139.749	140.330	144.856	451.443	142.966	-8191	255	
15898.214	1	1	0	0	0.18883	0.18368	0.13568	0.30121	0.16461	0.10525	0.33674	0.25937	0.24572	0.17206	0.15462	0.21439	0.10214	0.15731	0.061013	0.11468	-2.2271	-2.5479	-2.7646	-2.6667	-2.5979	-2.8854	-2.6562	-2.7771	-2.6729	-2.5604	-2.9896	-2.7354	-2.6958	-2.8521	-2.6688	-2.8812	263.924	407.824	184.890	281.102	174.151	165.986	476.574	135.199	460.431	222.071	194.376	156.500	178.860	439.671	174.314	393.872	0.00037384	0.00016851	3.6563e-05	167.27	2.4255e-06	6.234e-06	327.84	64.857	1.6653e-06	1.904e-06	163.15	77.57	27.943	12.295	2.5586e-06	38.908	0.011108	0.033185	0.0092722	223	0.00028567	0.00038465	386.81	82.591	0.0002863	0.00039122	194.87	90.835	40.844	15.855	0.00033157	45.414	215.681	179.622	422.036	132.644	252.463	341.264	132.692	136.867	314.689	429.462	135.759	139.462	139.743	144.877	306.060	143.141	-8191	255	
15898.310	1	1	0	0	0.13092	0.13985	0.19278	0.19656	0.083898	0.29224	0.31203	0.17133	0.24096	0.12833	0.11991	0.041531	0.17301	0.16771	0.3057	0.24648	-2.4354	-2.5021	-2.8729	-2.5625	-2.6562	-2.9437	-2.8812	-2.9229	-2.8104	-2.5479	-2.9208	-2.7646	-2.5375	-3.0104	-2.4813	-2.8125	454.932	309.959	256.000	213.239	386.255	382.205	445.352	397.733	368.626	171.140	395.361	381.923	442.106	157.961	218.506	412.844	0.00039143	8.452e-05	8.7182e-05	166.62	3.8649e-06	5.732e-06	322.72	64.086	4.1976e-06	5.5338e-06	160.17	75.869	27.7	11.91	5.9834e-06	38.669	0.011564	0.034627	0.0097837	224.02	0.00030108	0.00039991	384.44	82.164	0.00029332	0.00039851	192.52	89.302	40.56	15.629	0.00033599	44.882	210.236	457.908	403.274	132.888	244.605	288.144	132.380	137.035	292.819	197.513	135.920	139.450	139.745	144.626	322.187	143.325	-8191	255	
15898.406	1	1	0	0	0.087229	0.23112	0.045315	0.1687	0.10171	0.16671	0.12011	0.22308	0.17167	0.091083	0.074772	0.10207	0.17839	0.19324	0.073922	0.088449	-2.3667	-2.4938	-2.8688	-2.7896	-2.6167	-2.8583	-2.8125	-2.5958	-2.9208	-2.7125	-2.8271	-2.6896	-2.6229	-2.8396	-2.5417	-2.7583	376.565	265.497	371.771	472.535	316.277	367.135	159.014	135.272	348.221	417.070	191.335	150.645	135.358	345.423	242.720	358.071	0.00030556	0.00017759	0.00015199	165.69	2.0702e-06	3.8132e-06	322.26	63.929	2.3799e-06	5.7729e-06	160.59	75.855	27.208	11.873	7.8877e-06	38.819	0.011653	0.034736	0.0097801	223.33	0.00030304	0.00040635	384.71	82.251	0.00030382	0.00041527	193.3	89.615	40.828	15.667	0.00034449	44.935	208.153	331.653	345.434	132.519	226.148	211.255	132.238	137.117	319.913	460.493	135.959	139.897	140.183	145.029	204.052	143.026	-8191	255	
15898.503	1	1	0	0	0.15879	0.14806	0.081546	0.20902	0.027318	0.14497	0.20749	0.18452	0.079112	0.15771	0.27099	0.28579	0.308	0.32782	0.18418	0.28124	-2.4083	-2.4875	-2.9437	-2.7667	-2.7708	-2.8688	-2.5146	-2.7729	-2.9792	-2.7375	-2.9333	-2.9	-2.4396	-2.9042	-2.7104	-2.6479	127.371	294.236	469.102	262.550	221.933	362.432	128.813	397.932	308.298	438.783	352.483	362.316	155.089	163.003	300.898	372.314	0.00038471	0.00027082	0.00012822	165.82	4.8038e-06	9.0861e-06	323.07	63.369	7.6169e-06	7.2398e-06	160.63	76.341	27.561	11.941	5.6982e-06	39.043	0.011989	0.036209	0.01008	224.9	0.00031363	0.00041879	386.44	82.417	0.0003064	0.00041661	193.53	89.854	41.01	15.764	0.00034616	45.414	208.672	368.719	366.215	131.943	304.838	391.990	132.295	136.992	262.658	211.856	135.613	139.315	140.141	144.431	257.600	143.108	-8191	255	
15898.597	1	1	0	0	0.15338	0.37553	0.14051	0.22532	0.28167	0.13244	0.31998	0.27452	0.10586	0.2707	0.061216	0.12576	0.041427	0.17305	0.25432	0.094496	-2.5542	-2.6188	-2.6979	-2.9146	-2.6375	-2.8958	-2.9083	-2.5875	-2.7625	-2.6271	-2.8479	-2.9333	-2.6792	-2.9	-2.9375	-2.8104	212.883	341.764	283.480	402.177	324.243	254.671	294.428	157.685	408.753	436.074	334.555	124.000	384.065	139.707	227.070	135.371	0.00033894	0.00036049	0.00017214	165.73	2.5349e-06	5.4206e-06	322.12	63.529	4.3255e-06	2.0263e-06	161.89	75.799	27.485	11.841	1.9117e-07	38.515	0.011984	0.03629	0.010021	225.17	0.00031001	0.00041681	385.95	82.109	0.00030476	0.0004144	193.78	89.808	41.008	15.764	0.00035171	45.019	202.575	423.205	212.544	132.841	296.593	296.132	132.846	137.213	244.923	426.439	135.762	139.699	139.983	144.905	437.372	143.147	-8191	255	
15898.695	1	1	0	0	0.20893	0.21153	0.10828	0.095072	0.10006	0.054655	0.42862	0.088776	0.16352	0.30494	0.10442	0.28811	0.24136	0.27965	0.11474	0.20154	-2.4437	-2.6771	-2.7271	-2.8167	-2.4208	-2.8729	-2.8375	-2.4771	-2.8604	-2.6917	-2.7667	-2.8583	-2.4083	-2.8667	-2.725	-2.7	205.238	322.065	396.419	429.212	321.668	381.694	355.003	306.499	399.433	304.911	396.553	469.906	339.006	358.643	389.210	399.145	0.00038405	0.00060794	8.0539e-05	164.05	3.3213e-06	1.9439e-06	321.45	63.73	3.5107e-06	4.5087e-06	161.53	75.947	27.756	11.943	1.6677e-06	38.742	0.012391	0.036903	0.010283	224.66	0.00031718	0.00042263	385.51	82.614	0.00030945	0.00041797	194.11	90.002	41.201	15.793	0.00034714	45.32	215.984	186.948	209.258	132.337	224.048	329.020	132.284	137.077	304.301	386.202	135.786	139.741	140.277	144.698	342.210	143.197	-8191	255	
15898.814	1	1	0	0	0.032479	0.23435	0.16849	0.13937	0.10652	0.099074	0.090442	0.10015	0.088669	0.023409	0.18006	0.28155	0.059209	0.14634	0.13816	0.25053	-2.5792	-2.5563	-2.7208	-2.9125	-2.875	-2.9813	-2.7792	-2.4167	-2.9417	-3.0208	-2.5479	-2.9562	-2.6437	-2.8208	-2.8771	-2.5146	386.695	397.490	339.080	450.818	197.499	379.938	289.426	451.219	119.824	334.840	423.204	308.875	239.799	146.211	198.587	333.515	0.00038806	0.00057014	7.7682e-05	165.1	1.4026e-06	2.8956e-06	323.16	63.892	6.0125e-06	6.328e-06	162.53	76.695	27.87	12.072	4.577e-06	39.279	0.012213	0.036563	0.010157	224.93	0.00031602	0.00042072	386.25	82.676	0.00030897	0.00041412	194.58	90.49	41.152	15.859	0.00034272	45.662	198.646	181.867	205.094	132.877	284.641	230.031	132.415	137.081	286.267	230.353	135.772	139.760	139.800	144.558	324.612	143.250	-8191	255	
15898.910	1	1	0	0	0.12581	0.12604	0.084859	0.1961	0.12946	0.19396	0.11406	0.22327	0.1258	0.21778	0.17856	0.11372	0.1347	0.098084	0.20097	0.13048	-2.4104	-2.6208	-2.5833	-2.8333	-2.7	-2.8958	-2.9542	-2.4104	-2.8583	-2.7521	-2.7313	-2.9208	-2.6854	-2.7292	-3.0125	-2.6063	253.701	321.702	209.203	456.257	231.465	159.720	374.150	461.355	424.000	172.431	410.915	375.448	158.623	229.661	413.373	317.322	0.00037729	0.00037862	5.2932e-05	165.78	4.7531e-06	1.3046e-06	324.48	64.361	7.5613e-07	5.2926e-06	162.59	77.584	27.679	12.262	7.1225e-06	39.445	0.01202	0.035751	0.010003	224.92	0.00030943	0.00041058	386.77	82.922	0.00030234	0.00040659	195.75	91.48	41.47	16.038	0.00034544	46.004	212.080	208.044	181.465	132.862	282.740	182.755	132.830	137.199	361.717	449.737	135.770	139.328	140.148	144.500	232.556	143.219	-8191	255	
15899.006	1	1	0	0	0.1282	0.13388	0.16301	0.32741	0.17166	0.052899	0.10069	0.091063	0.16412	0.088388	0.033585	0.07559	0.12878	0.20021	0.31953	0.032065	-2.4896	-2.7146	-2.725	-2.9042	-2.7333	-2.5896	-2.9729	-2.6354	-2.8021	-2.8917	-2.65	-3.0062	-2.5917	-2.7417	-2.8812	-2.5125	373.736	403.916	467.389	391.047	251.197	314.603	392.454	279.947	309.966	135.249	138.925	273.248	359.370	347.166	191.234	473.490	0.00028581	0.00070717	0.00017286	167.06	5.1421e-06	4.304e-06	322.6	64.085	4.7377e-06	6.7277e-06	163.06	77.238	27.644	12.178	1.7476e-06	39.584	0.01224	0.036524	0.010288	227.34	0.0003215	0.00043142	389.68	83.992	0.00031969	0.00043052	197.15	91.723	42.094	16.139	0.00035622	46.076	201.578	227.689	164.591	132.358	264.750	358.675	132.526	137.093	251.791	384.074	135.626	139.633	140.513	144.549	226.210	142.794	-8191	255	
15899.078	1	1	0	0	0.26373	0.030038	0.20948	0.014485	0.034978	0.02079	0.31266	0.20693	0.28901	0.17335	0.1365	0.25799	0.17321	0.25652	0.34173	0.21566	-2.2729	-2.825	-2.525	-2.9938	-2.5917	-2.6937	-2.9896	-2.4771	-2.9396	-2.7938	-2.4938	-3.0354	-2.8292	-2.675	-2.9042	-2.7542	424.902	310.380	469.457	298.781	289.938	308.474	455.471	301.788	441.629	313.445	425.115	389.576	425.543	402.459	275.117	171.301	0.0004284	0.00057963	7.0482e-05	166.69	4.7066e-06	8.7829e-06	324.74	64.488	3.1879e-06	4.8125e-06	164.65	77.989	28.024	12.359	5.9974e-06	39.624	0.012448	0.036968	0.010411	227.21	0.00031691	0.00042339	389.6	83.753	0.00031181	0.00042345	197.33	92.158	41.926	16.22	0.00035455	46.272	211.102	211.852	198.431	132.800	187.657	317.624	132.427	136.903	270.001	323.230	135.611	139.525	140.679	144.687	218.676	143.191	-8191	255	
15899.198	1	1	0	0	0.22038	0.36362	0.11045	0.25456	0.15667	0.23609	0.2073	0.19346	0.12972	0.052029	0.23758	0.012676	0.1472	0.14859	0.13621	0.13549	-2.375	-2.6917	-2.4771	-2.7604	-2.7229	-2.4437	-2.8917	-2.575	-2.5687	-2.8604	-2.7792	-2.8042	-2.8104	-2.6104	-2.8042	-2.8708	448.875	254.476	306.698	212.481	252.689	311.752	155.329	461.307	292.238	372.310	337.356	330.241	163.952	170.007	135.215	420.049	0.00039849	0.00072824	5.107e-05	167.55	3.5831e-06	9.7014e-06	324.92	64.814	3.8434e-06	2.7017e-06	165.36	78.448	28.117	12.417	6.0652e-06	40.096	0.012265	0.03654	0.010258	227.53	0.00031603	0.00042228	390.25	84.005	0.00031198	0.00042698	198.69	92.796	42.173	16.367	0.00036342	46.753	217.924	180.598	455.530	132.381	320.794	253.694	132.622	136.814	148.290	307.792	135.951	139.877	140.222	144.851	234.151	143.149	-8191	255	
15899.294	1	1	0	0	0.11187	0.0967	0.12801	0.035407	0.066242	0.035709	0.25363	0.28464	0.045326	0.1304	0.34507	0.20192	0.19667	0.12706	0.14615	0.091675	-2.1875	-2.7875	-2.5771	-2.7896	-2.8104	-2.5687	-3.0812	-2.6	-2.5938	-2.9479	-2.6958	-2.825	-2.7479	-2.7542	-2.825	-2.8438	156.165	149.298	458.804	435.353	382.972	352.909	475.906	382.037	341.813	442.264	366.392	359.014	161.700	209.809	296.142	227.205	0.00043741	0.00079548	0.00014174	168.33	4.2957e-06	1.0759e-05	327.94	65.088	2.8213e-06	1.2931e-05	164.5	78.491	28.272	12.257	4.7155e-06	39.917	0.012606	0.037791	0.010477	228.89	0.00032096	0.00042906	392.21	84.202	0.00031314	0.0004274	198.81	92.794	42.219	16.336	0.00036277	46.562	218.550	164.243	392.750	132.630	168.057	190.701	132.484	137.082	315.513	210.864	135.921	139.747	140.135	145.035	225.805	142.990	-8191	255	
15899.391	1	1	0	0	0.21758	0.20618	0.21215	0.39335	0.27998	0.25848	0.18669	0.046911	0.087314	0.29154	0.21635	0.42935	0.29683	0.18421	0.10411	0.1941	-2.0938	-2.9562	-2.6583	-2.7979	-2.6958	-2.6042	-2.9	-2.7167	-2.6896	-2.8438	-2.7021	-2.7708	-2.9729	-2.7042	-2.7062	-2.8063	279.243	154.266	256.425	363.056	183.932	208.103	453.628	326.354	206.103	213.203	431.858	171.909	132.295	448.292	357.048	390.778	0.00042023	0.00015723	0.0002645	165.83	7.1304e-06	8.3586e-06	323.01	64.138	5.7915e-06	5.7413e-06	163.93	78.085	28.342	12.405	7.2125e-06	40.107	0.012602	0.03783	0.010607	226.75	0.00032283	0.00043073	389.28	83.593	0.00031333	0.00042904	197.58	92.46	42.298	16.419	0.00036516	46.72	201.555	282.455	217.236	132.661	187.305	236.054	132.285	137.232	189.708	313.412	135.906	139.806	139.943	144.657	255.963	142.942	-8191	255	
15899.487	1	1	0	0	0.20815	0.11359	0.19826	0.17066	0.17138	0.083473	0.30057	0.11615	0.17626	0.26942	0.090387	0.14238	0.25043	0.20403	0.26215	0.08905	-2.1521	-2.9083	-2.5583	-2.9313	-2.9333	-2.65	-2.8875	-2.7958	-2.4542	-2.95	-2.6333	-2.7646	-2.7208	-2.3875	-2.5687	-2.8458	257.163	474.158	326.608	446.240	286.853	389.851	456.934	220.486	222.975	385.640	349.350	413.259	232.435	411.763	283.325	404.308	0.00035237	0.00033256	0.00018498	168.08	3.777e-06	1.0193e-05	325.74	65.479	4.761e-06	5.5045e-06	166.28	78.761	28.38	12.481	3.0385e-06	40.404	0.012597	0.037859	0.010508	228.68	0.00032243	0.00043165	391.58	84.215	0.00031125	0.00041995	198.76	92.714	41.911	16.296	0.00033875	46.816	216.523	315.429	294.693	133.041	227.687	281.763	132.589	137.510	298.095	302.851	135.834	139.386	139.868	145.063	393.134	143.041	-8191	255	
15899.606	1	1	0	0	0.056031	0.14219	0.057092	0.11338	0.23113	0.060403	0.1414	0.099295	0.040991	0.073567	0.093798	0.30549	0.16801	0.31626	0.11147	0.28683	-2.0604	-2.7146	-2.7292	-2.7625	-2.9354	-2.5583	-2.9104	-2.9292	-2.6375	-2.775	-2.6792	-2.7458	-2.9542	-2.6521	-2.8521	-2.8312	212.354	278.475	344.035	379.917	370.228	323.512	153.418	313.486	401.009	272.199	451.734	408.018	471.223	438.207	441.273	357.944	0.00037243	0.00059287	4.6464e-05	168.05	6.3116e-06	2.3077e-06	326.66	65.531	6.5787e-06	7.1155e-06	167.61	79.964	28.579	12.603	1.9325e-06	40.895	0.011837	0.035493	0.0098547	226	0.00030646	0.00041028	391.99	84.031	0.00030234	0.00040928	199.54	93.611	42.167	16.45	0.00033855	47.28	211.812	135.317	327.508	132.990	190.558	344.593	132.932	137.479	259.700	258.411	135.779	139.618	140.564	144.577	203.282	143.125	-8191	255	
15899.702	1	1	0	0	0.18969	0.011178	0.064226	0.29156	0.18499	0.18634	0.28619	0.18975	0.10657	0.1271	0.038763	0.18653	0.28487	0.19408	0.1233	0.12033	-2.1437	-2.9021	-2.5979	-2.4958	-2.9167	-2.4938	-2.9167	-2.7396	-2.525	-2.9437	-2.8688	-2.6979	-2.8563	-2.7083	-2.7646	-2.9646	447.713	394.206	334.918	240.829	452.531	261.601	333.749	433.277	271.616	320.308	127.206	146.376	222.186	258.065	389.098	472.130	0.00039634	0.00039717	3.8107e-05	169.18	3.6448e-06	6.956e-06	331.15	66.181	7.0653e-06	2.7589e-06	166.72	79.598	28.588	12.513	5.7423e-06	40.544	0.011753	0.035139	0.0097196	226.28	0.00030189	0.00040292	391.84	84.233	0.00029565	0.00039829	198.48	93.184	41.801	16.346	0.00033139	46.85	211.862	358.397	188.267	132.670	239.660	180.652	132.209	136.800	246.794	318.569	135.704	139.550	139.819	145.100	281.911	143.156	-8191	255	
15899.775	1	1	0	0	0.1391	0.021975	0.33928	0.27449	0.10534	0.19414	0.034282	0.05881	0.15812	0.091971	0.13356	0.05761	0.0057263	0.21048	0.19765	0.251	-2.225	-2.8542	-2.9437	-2.6479	-2.8979	-2.7042	-2.675	-2.6562	-2.6688	-2.8396	-2.7375	-2.4188	-2.85	-2.6979	-2.7396	-2.9604	339.197	358.142	220.455	173.139	181.607	348.803	431.171	288.421	195.860	198.636	180.314	241.575	155.177	388.263	441.886	419.605	0.000379	0.00013616	0.00022413	167.89	5.8712e-06	1.1739e-05	329.48	65.473	4.5462e-06	6.8995e-06	168.36	79.569	28.508	12.508	6.0493e-06	40.507	0.011714	0.034734	0.0096486	224.98	0.00029802	0.00039623	390.01	83.684	0.00029453	0.00039991	199.07	93.388	42.139	16.436	0.00034318	47.067	202.035	423.114	134.506	132.376	348.667	225.598	132.478	136.820	306.809	217.880	135.980	139.726	140.276	144.695	248.037	142.836	-8191	255	
15899.894	1	1	0	0	0.21408	0.18258	0.11587	0.20478	0.15342	0.052954	0.023655	0.18863	0.094697	0.18059	0.18954	0.33536	0.062148	0.16059	0.24303	0.1633	-2.2146	-2.6063	-2.6854	-2.4458	-2.8729	-2.6271	-2.6875	-2.8292	-2.7313	-2.8375	-2.8167	-2.5833	-2.8312	-2.75	-2.7271	-2.7062	122.836	205.487	422.290	461.945	452.526	347.031	347.759	345.617	468.059	323.940	293.336	366.790	233.164	450.572	187.910	413.324	0.00036835	0.00084334	0.00015449	167.46	4.9717e-06	1.6168e-06	327.17	64.938	3.7788e-06	2.039e-06	167.85	80.118	28.588	12.743	8.9771e-06	40.983	0.012206	0.03627	0.010072	227.93	0.000313	0.0004141	391.61	84.073	0.00030244	0.00040789	200	94.101	42.196	16.538	0.0003386	47.404	205.234	238.875	160.618	132.923	304.120	466.603	132.443	137.132	200.136	309.211	136.135	139.794	139.749	145.034	278.541	143.286	-8191	255	
15899.990	1	1	0	0	0.16631	0.16581	0.14616	0.17721	0.14082	0.036831	0.19697	0.17435	0.14927	0.26345	0.078213	0.058474	0.095665	0.10282	0.078646	0.12716	-2.3896	-2.6042	-2.65	-2.4667	-2.8083	-2.7625	-2.5542	-2.7771	-2.6958	-2.5979	-2.8104	-2.6312	-2.7875	-2.7646	-2.75	-3.0958	410.180	430.071	464.477	458.386	356.363	268.705	435.251	352.872	206.889	350.737	389.789	320.969	233.812	416.948	136.640	451.332	0.00044844	0.00029119	7.2033e-05	168.86	6.488e-06	7.9153e-06	331.63	66	4.496e-06	8.3106e-06	167.88	80.309	28.683	12.756	3.1368e-06	41.051	0.011869	0.035241	0.0098589	227.39	0.0003049	0.00040104	394.01	84.524	0.00029946	0.00040538	200.37	94.113	42.165	16.538	0.0003367	47.518	199.493	266.508	229.720	132.068	240.930	284.153	132.343	137.055	329.433	246.522	135.547	139.597	140.192	145.009	322.742	142.968	-8191	255	
15900.086	1	1	0	0	0.18349	0.16624	0.14942	0.13754	0.10414	0.19478	0.1794	0.23858	0.17502	0.19276	0.033875	0.11356	0.12264	0.1109	0.068173	0.27825	-2.275	-2.5458	-2.9521	-2.6542	-2.7625	-2.9979	-2.6625	-2.8583	-2.6958	-2.5583	-2.9208	-2.7542	-2.5833	-2.7333	-2.6875	-2.9833	394.507	361.381	331.784	185.399	423.215	462.073	327.979	341.694	474.453	122.241	341.805	384.487	150.050	337.013	346.908	437.315	0.00039674	0.00048313	0.00012439	167.8	5.0986e-06	3.283e-06	330.03	65.786	4.4162e-06	7.3172e-06	167.39	79.56	28.956	12.578	6.5989e-06	40.81	0.011801	0.034943	0.009811	226.75	0.00030024	0.00039971	391.87	84.049	0.00029158	0.00039588	198.63	93.124	41.892	16.342	0.00033305	47.139	215.443	281.189	134.125	132.546	280.599	369.881	132.534	136.806	460.593	445.698	136.008	139.551	139.960	144.885	282.001	143.140	-8191	255	
15900.207	1	1	0	0	0.39017	0.18763	0.093697	0.07598	0.03933	0.17938	0.26132	0.34948	0.1684	0.27234	0.35096	0.14558	0.21832	0.012871	0.20941	0.097543	-2.3083	-2.6021	-2.9667	-2.5771	-2.6021	-2.8292	-2.4625	-2.7812	-2.8125	-2.5708	-2.9271	-2.7938	-2.6917	-3.0042	-2.6792	-2.9896	349.359	194.751	259.788	316.783	373.105	362.781	382.966	362.798	394.625	126.246	379.893	458.127	145.484	461.284	328.589	403.788	0.00040281	0.000553	0.00015905	168.7	1.4146e-06	1.55e-06	329.2	66.606	2.8206e-06	1.1458e-05	168.27	80.762	28.988	12.759	3.3237e-06	41.368	0.011542	0.034373	0.0096431	224.97	0.00029353	0.00039022	390.66	83.949	0.00028093	0.00038194	199.74	94.193	41.649	16.446	0.00032049	47.459	213.778	266.692	167.657	132.753	312.072	314.625	132.695	137.307	276.803	309.502	135.816	139.397	140.455	144.574	302.027	143.006	-8191	255	
15900.303	1	1	0	0	0.12751	0.21052	0.11439	0.2639	0.28524	0.15508	0.17691	0.2163	0.077638	0.11922	0.10294	0.078363	0.21772	0.091625	0.21338	0.071958	-2.275	-2.5687	-2.9146	-2.5708	-2.6479	-3.0646	-2.6146	-2.8458	-2.8792	-2.6354	-2.9896	-2.7125	-2.8521	-2.7667	-2.5667	-2.7708	406.267	272.079	360.818	370.480	148.928	468.090	398.637	438.387	273.837	417.154	185.073	359.403	171.224	346.117	265.421	451.603	0.00045808	0.00079249	7.9563e-05	168.8	1.0575e-06	9.017e-06	332.88	65.966	4.2914e-06	5.9316e-06	170.39	81.373	29.2	12.809	4.8798e-06	41.585	0.011146	0.033322	0.0093261	224.6	0.00028402	0.00038156	391.46	83.865	0.00027885	0.00037916	200.14	94.286	41.752	16.459	0.00031684	47.665	206.994	144.848	200.473	132.827	292.560	244.113	132.465	137.283	249.066	387.393	135.969	139.646	140.040	144.665	271.563	143.123	-8191	255	
15900.375	1	1	0	0	0.2704	0.10164	0.21738	0.1449	0.11577	0.25302	0.17769	0.2486	0.1572	0.24173	0.13468	0.22385	0.12353	0.25138	0.083912	0.20723	-2.4021	-2.4688	-2.9354	-2.6042	-2.8375	-2.8688	-2.6583	-2.8021	-2.8854	-2.6562	-2.95	-2.7875	-2.5896	-2.9229	-2.8208	-2.7104	312.050	396.571	457.487	444.845	301.598	167.572	219.310	253.585	418.118	248.958	341.276	443.705	414.625	442.054	239.028	400.481	0.00038447	0.00023289	0.00032881	170.51	6.3404e-06	1.171e-05	332.39	66.69	4.9834e-06	9.4462e-06	169.34	80.782	29.154	12.924	5.2327e-06	41.39	0.011036	0.033328	0.0093135	225.51	0.00028762	0.00038552	392.81	84.183	0.00028392	0.0003919	200.6	94.444	42.211	16.615	0.00033413	47.633	206.894	222.767	265.193	132.716	256.948	171.459	132.592	137.634	194.794	287.982	135.792	139.490	140.007	144.859	201.141	143.144	-8191	255	
15900.495	1	1	0	0	0.27187	0.116	0.23208	0.053922	0.26548	0.11573	0.1335	0.070168	0.14305	0.11216	0.12074	0.031991	0.13987	0.075617	0.04027	0.20998	-2.4542	-2.4958	-2.8	-2.7792	-2.5333	-2.8104	-2.5646	-2.7667	-3.0208	-2.6792	-2.9667	-2.7833	-2.5625	-2.8792	-2.7562	-2.7854	267.224	285.778	407.919	214.567	384.852	158.458	450.529	445.986	245.433	210.565	405.886	272.937	270.120	344.539	144.565	424.032	0.00050155	0.00069362	0.00015356	170.9	1.6593e-06	8.3718e-06	331.43	66.61	3.4032e-06	1.1929e-05	168.16	80.515	29.302	12.854	2.405e-06	41.431	0.011685	0.035169	0.0098565	228.21	0.00030404	0.00040835	393.9	84.924	0.00029821	0.0004077	200.66	94.505	42.671	16.688	0.00033744	47.845	208.152	171.887	160.898	132.479	388.864	395.986	132.425	137.374	342.648	255.755	136.054	139.877	140.256	144.340	142.899	142.989	-8191	255	
15900.590	1	1	0	0	0.027513	0.11742	0.18547	0.11329	0.28524	0.097969	0.1603	0.11334	0.17135	0.068982	0.2127	0.17523	0.22879	0.033103	0.024611	0.20989	-2.4313	-2.3583	-2.7792	-2.775	-2.6042	-2.9021	-2.575	-2.4313	-2.9083	-2.675	-2.7771	-2.7812	-2.4479	-2.7521	-2.6292	-2.7188	449.431	397.746	232.362	426.870	389.534	156.406	159.025	198.673	304.881	284.243	385.298	149.397	164.054	222.171	336.782	465.631	0.00037699	1.2179e-05	0.00021547	170.82	1.8685e-06	5.8093e-06	333.37	66.404	2.1866e-06	5.0612e-06	169.09	80.782	29.285	12.788	7.7812e-07	41.522	0.011988	0.035832	0.010007	228.58	0.00030907	0.00041239	395.74	85.301	0.00030322	0.00041549	202.12	95.032	42.977	16.789	0.00035095	48.02	208.214	330.996	200.590	132.601	234.082	450.512	132.615	137.414	158.553	148.743	135.873	139.910	140.356	144.553	329.512	142.867	-8191	255	
15900.686	1	1	0	0	0.3243	0.048686	0.28115	0.1132	0.13255	0.038784	0.24141	0.097435	0.20483	0.050434	0.23652	0.18444	0.21251	0.31476	0.12623	0.138	-2.4792	-2.6208	-2.9188	-2.6958	-2.6	-2.5979	-2.9542	-2.6312	-2.8417	-2.7188	-2.7062	-2.7354	-2.6	-2.8708	-2.7917	-2.6583	248.348	379.402	432.010	241.730	233.115	471.153	180.244	397.454	318.665	250.584	167.013	183.978	309.842	236.259	235.003	424.957	0.00038728	0.00057671	9.6038e-05	169.55	7.6141e-06	4.8985e-06	333.9	67.762	5.3813e-06	2.1853e-06	170.11	81.366	29.358	12.819	3.367e-06	41.386	0.012391	0.036869	0.010232	229.49	0.00031384	0.00041638	397.38	85.611	0.00030246	0.00040897	202.65	95.325	42.766	16.689	0.00034449	47.974	213.207	219.797	392.711	132.433	256.629	126.477	132.399	137.216	263.897	177.305	135.850	139.493	140.157	144.935	284.043	143.319	-8191	255	
15900.782	1	1	0	0	0.15525	0.047252	0.15563	0.28449	0.15133	0.13044	0.24069	0.28024	0.079583	0.29587	0.21742	0.28458	0.1955	0.3071	0.28608	0.21105	-2.5042	-2.5208	-2.825	-2.9375	-2.6	-2.9688	-2.8833	-2.7458	-2.9396	-2.6104	-2.7188	-2.8646	-2.5312	-3.0062	-2.9917	-2.8021	393.105	247.755	444.137	317.880	121.491	287.112	444.222	395.957	463.752	430.012	255.096	455.977	402.499	441.861	212.349	292.186	0.00043184	0.00067339	0.00019665	170.98	1.1505e-06	7.4905e-06	331.75	66.44	3.4716e-06	1.0144e-05	169	80.2	29.403	12.897	5.1738e-06	41.144	0.012219	0.036737	0.010267	231.65	0.00032326	0.00043225	397.32	86.17	0.00032264	0.00043454	202.54	95.351	43.697	16.931	0.00036796	48.079	211.076	479.372	205.841	132.061	259.677	124.826	132.647	137.613	265.492	257.145	136.117	139.442	140.704	144.962	230.199	143.075	-8191	255	
15900.903	1	1	0	0	0.1233	0.22762	0.23565	0.16599	0.37729	0.20693	0.034577	0.1604	0.112	0.054481	0.23305	0.27074	0.16581	0.05683	0.16664	0.047022	-2.475	-2.4938	-2.6562	-2.8292	-2.3312	-2.5687	-2.8396	-2.5417	-2.95	-2.7438	-2.6792	-2.9062	-2.5229	-2.6813	-2.7417	-2.6479	334.879	205.012	305.978	444.338	148.331	378.565	257.179	144.661	299.229	390.188	345.055	389.278	126.425	120.186	427.153	338.205	0.00035682	0.00047497	0.00016443	169.71	2.5968e-06	6.322e-06	332.32	66.855	2.4477e-06	5.5149e-06	169.62	81.305	29.209	12.841	7.1497e-06	41.466	0.012986	0.038377	0.010636	233.18	0.00032723	0.00043163	398.01	86.415	0.00031484	0.00042511	203.01	95.561	43.543	16.826	0.0003592	48.132	208.325	274.806	244.524	132.864	399.611	283.231	132.417	137.199	341.716	471.873	135.546	139.596	140.005	144.555	193.151	142.990	-8191	255	
15900.999	1	1	0	0	0.05483	0.12358	0.19206	0.27697	0.18836	0.39203	0.10364	0.15859	0.2787	0.1096	0.17787	0.20079	0.19053	0.18216	0.3003	0.18733	-2.5042	-2.7708	-2.4792	-2.975	-2.6521	-2.8125	-2.875	-2.6188	-2.9729	-2.825	-2.6917	-2.9813	-2.4708	-2.575	-2.9938	-2.6125	473.148	165.400	460.666	193.693	420.746	199.504	364.155	384.588	190.094	382.908	120.910	283.431	385.305	458.701	349.276	120.604	0.00038364	7.559e-05	0.00021743	170.66	8.2937e-06	2.9336e-06	335.55	67.022	4.547e-06	2.6728e-06	169.71	80.943	29.19	12.758	6.266e-06	41.191	0.012681	0.037541	0.010561	233.1	0.00032709	0.00043351	400.6	86.574	0.0003189	0.00043097	203.37	95.51	43.563	16.859	0.00036772	48.043	208.209	247.866	270.200	132.880	315.714	205.405	132.385	137.408	290.824	177.784	135.564	139.376	140.250	144.640	243.811	143.293	-8191	255	
15901.071	1	1	0	0	0.18389	0.13362	0.3161	0.17212	0.12592	0.080179	0.34741	0.04301	0.18654	0.048768	0.40254	0.12103	0.25107	0.25774	0.17691	0.1681	-2.3896	-2.7354	-2.5479	-2.9354	-2.4938	-2.7333	-3.0521	-2.5354	-2.9167	-2.8458	-2.7042	-2.9354	-2.6354	-2.7562	-3.0229	-2.7313	245.621	143.898	458.273	461.693	147.447	400.165	394.844	451.977	300.545	422.796	262.497	132.238	365.061	363.931	132.197	400.329	0.00039886	0.0004129	8.0604e-05	172.4	3.006e-06	4.5488e-06	336.05	66.909	4.1349e-07	2.0291e-06	168.42	80.202	28.975	12.654	3.1099e-06	40.659	0.012909	0.038235	0.010698	233.84	0.00032758	0.00043195	400.71	86.302	0.00031699	0.00043123	202.82	95.074	43.245	16.66	0.0003698	47.451	215.168	238.626	448.712	132.430	126.314	191.390	132.605	137.045	251.782	157.532	135.876	139.768	140.157	144.854	291.792	143.058	-8191	255	
15901.167	1	1	0	0	0.071796	0.29631	0.11231	0.17615	0.056927	0.13573	0.035738	0.38033	0.30485	0.26012	0.17813	0.23551	0.1544	0.0061703	0.096029	0.28577	-2.2146	-2.9292	-2.4708	-2.9354	-2.6437	-2.5667	-2.7625	-2.5812	-2.6813	-2.9271	-2.5896	-2.95	-2.7646	-2.6104	-2.8688	-2.6437	313.820	293.153	216.582	414.678	155.063	123.248	191.553	454.579	307.585	355.838	230.169	458.719	202.091	280.768	120.690	430.386	0.00042969	0.00027654	0.00023621	169.65	8.5067e-06	5.7785e-06	329.77	65.219	2.3787e-06	7.3678e-06	166.05	78.982	28.577	12.402	2.4234e-06	40.072	0.012873	0.038579	0.01088	232.95	0.00033506	0.0004471	396.97	85.436	0.00032495	0.00043813	199.96	93.228	42.443	16.337	0.00035298	46.563	208.296	194.495	281.475	132.587	235.884	306.692	132.647	137.005	445.840	457.946	135.887	139.696	139.897	144.789	189.562	142.974	-8191	255	
15901.287	1	1	0	0	0.18096	0.37231	0.20601	0.10589	0.17591	0.32329	0.12731	0.018295	0.072338	0.27964	0.16769	0.091067	0.1614	0.057111	0.29856	0.13714	-2.2	-2.7	-2.5458	-2.7979	-2.7208	-2.625	-2.9146	-2.7292	-2.7042	-2.8667	-2.8208	-2.9833	-2.8521	-2.3667	-2.9958	-2.6354	384.716	425.317	178.459	247.160	184.334	458.343	326.149	405.294	281.933	192.822	421.392	385.437	383.714	125.808	293.513	258.931	0.00043557	0.00042869	0.00019256	170.46	3.9515e-06	2.88e-06	327.8	64.464	3.4982e-06	1.8599e-06	163.67	77.632	28.114	12.149	3.6696e-06	39.581	0.012019	0.035937	0.010049	227.43	0.00030382	0.00040791	390.57	83.313	0.00029896	0.00040951	196.71	91.867	41.647	16.027	0.00035023	46.133	208.437	283.122	189.124	132.743	356.197	469.543	132.588	137.407	195.576	335.413	135.890	139.819	139.849	144.735	244.729	142.998	-8191	255	
15901.384	1	1	0	0	0.19309	0.049975	0.217	0.22671	0.12912	0.13742	0.20726	0.25411	0.098272	0.191	0.11835	0.25098	0.14153	0.2422	0.064648	0.1065	-2.0542	-2.8042	-2.4604	-2.7792	-2.8833	-2.5146	-2.8063	-2.5396	-2.5958	-2.8812	-2.6562	-2.9083	-2.7562	-2.5187	-2.9375	-2.7125	430.335	358.011	150.174	120.844	275.295	169.185	362.844	432.783	466.362	309.148	443.860	238.712	387.096	220.879	286.534	478.021	0.00042789	0.00068317	0.00014987	168.02	5.2425e-06	4.6404e-06	326.47	64.132	3.6047e-06	5.1346e-06	164.23	77.075	27.777	12.025	3.6013e-06	39.328	0.012174	0.036802	0.010285	227.73	0.00032006	0.000434	392.85	83.747	0.00032298	0.0004461	198.13	92.215	42.467	16.276	0.00038789	46.328	218.582	224.873	153.755	132.463	314.587	425.590	132.590	137.143	221.512	170.002	135.684	139.772	140.500	144.832	327.118	143.138	-8191	255	
15901.480	1	1	0	0	0.22078	0.23325	0.029992	0.26822	0.19183	0.23651	0.13862	0.19222	0.21043	0.10058	0.18546	0.13658	0.16203	0.19299	0.10319	0.14372	-2.1083	-2.8854	-2.5146	-2.6375	-3.0208	-2.7875	-2.8458	-2.6792	-2.8146	-3.0187	-2.7792	-2.8042	-2.8	-2.3333	-2.8646	-2.7292	288.396	408.335	475.285	437.469	420.945	223.306	247.155	208.972	204.049	388.676	215.941	300.995	122.225	463.603	357.466	443.941	0.00043465	0.00048941	5.282e-05	165.7	4.4622e-06	8.9884e-06	325.63	64.207	5.2083e-06	3.2638e-06	162.07	76.645	27.519	11.866	8.803e-06	38.944	0.013535	0.04063	0.01136	231.35	0.00034769	0.00046038	394.62	84.086	0.00032962	0.0004451	196.82	91.239	41.837	15.883	0.00036032	45.519	196.996	204.828	149.907	132.494	211.515	218.738	132.571	137.125	288.666	469.201	135.358	139.750	140.627	144.753	277.160	143.179	-8191	255	
15901.576	1	1	0	0	0.19968	0.062685	0.19134	0.059255	0.11404	0.17885	0.14518	0.068436	0.21114	0.15554	0.24844	0.085548	0.20314	0.090129	0.15578	0.16	-1.8646	-3.0042	-2.5625	-2.85	-3.0229	-2.4	-2.9333	-2.8146	-2.7229	-2.7958	-2.7438	-2.6625	-2.7313	-2.6708	-2.8021	-2.9708	344.135	189.286	478.416	179.059	454.819	452.082	309.981	326.313	317.434	310.671	291.544	375.306	160.523	182.991	391.119	138.475	0.0003301	0.00070957	3.6117e-05	166.24	5.8725e-06	6.0282e-06	327.48	64.499	1.558e-06	6.212e-06	163.29	77.677	27.507	11.963	6.4049e-06	39.25	0.012656	0.037878	0.010445	227.04	0.00032365	0.00043083	391.05	83.534	0.00031454	0.00042633	196.4	91.713	41.687	15.954	0.00035612	45.98	216.730	188.549	246.884	132.253	160.636	458.318	132.427	137.471	287.888	227.584	135.624	139.596	140.165	144.534	418.009	143.296	-8191	255	
15901.670	1	1	0	0	0.10884	0.15762	0.097206	0.22116	0.12522	0.067276	0.27478	0.11026	0.065383	0.19325	0.31842	0.17596	0.09462	0.082055	0.059712	0.077493	-2.0896	-2.9313	-2.5229	-2.6458	-2.9208	-2.5438	-2.7979	-2.9146	-2.5875	-2.8104	-2.8146	-2.5771	-2.8667	-2.7021	-2.9021	-2.8812	274.339	379.879	341.949	178.099	312.715	469.175	448.138	323.993	274.783	399.198	426.247	406.477	165.234	349.915	175.904	366.609	0.00041733	0.0002532	0.00017337	167.13	1.9739e-06	7.8062e-06	326.11	65.205	3.1445e-06	3.1228e-06	165.82	79.116	27.932	12.255	4.9383e-06	40.021	0.012621	0.038033	0.010543	228.31	0.00032785	0.00043498	391.91	84.005	0.00031845	0.00042599	198.25	92.846	41.998	16.205	0.00034805	46.52	209.003	178.092	188.121	132.728	382.390	190.485	132.532	137.111	253.697	252.321	135.801	139.619	140.170	144.625	279.463	142.979	-8191	255	
15901.768	1	1	0	0	0.070908	0.023883	0.057848	0.36075	0.27383	0.11592	0.16608	0.2665	0.093545	0.24146	0.019258	0.21762	0.21212	0.17328	0.30931	0.2203	-2.0854	-2.7771	-2.5771	-2.3771	-2.7438	-2.6417	-2.7167	-2.8396	-2.6167	-2.8187	-2.7042	-2.5729	-2.7521	-2.625	-2.4896	-2.8917	378.260	211.391	155.355	142.054	447.020	267.564	298.408	346.793	294.865	324.078	122.015	383.580	189.386	134.931	192.512	405.863	0.00040464	0.00091317	0.00012392	166.45	5.5052e-06	9.7356e-07	327.24	63.911	1.2027e-06	3.3863e-06	164.44	77.483	27.774	11.997	1.1353e-06	40.075	0.012259	0.036484	0.010134	226.5	0.00031718	0.00041865	390	82.853	0.00030867	0.00041512	196.41	91.607	41.232	15.882	0.00033836	46.287	213.483	414.775	443.256	132.583	184.835	248.142	132.522	137.201	441.006	301.560	135.958	139.704	140.120	144.749	241.696	143.054	-8191	255	
15901.887	1	1	0	0	0.16846	0.13925	0.10097	0.11842	0.053604	0.081288	0.031145	0.094041	0.057215	0.071768	0.093358	0.29441	0.071222	0.11182	0.19911	0.22321	-2.1583	-2.7062	-2.6875	-2.5542	-2.8167	-2.6583	-2.5583	-2.9146	-2.6104	-2.9	-2.8146	-2.5563	-2.8063	-2.6063	-2.6583	-2.8042	148.552	281.023	336.529	198.040	228.037	223.606	167.564	433.532	331.227	227.016	303.981	423.679	127.217	268.053	149.659	326.139	0.00042467	0.00026684	0.00017911	164.9	1.0063e-06	5.1028e-06	321.48	63.565	2.6331e-06	4.5728e-06	163.42	77.075	27.471	12.127	1.5815e-06	39.872	0.011899	0.03501	0.0097721	222.45	0.00030476	0.00040473	384.44	81.879	0.000298	0.00040301	194.58	90.904	40.627	15.767	0.00032567	46.029	205.345	281.309	183.590	132.347	324.545	348.974	132.655	137.218	256.268	323.105	135.975	139.662	139.779	144.719	473.645	143.140	-8191	255	
15901.983	1	1	0	0	0.25057	0.2828	0.12404	0.066628	0.037714	0.16372	0.25513	0.050384	0.091965	0.16956	0.019319	0.16787	0.28398	0.10692	0.19128	0.17582	-2.1042	-2.5312	-2.7521	-2.5125	-2.7979	-2.6854	-2.6458	-2.8292	-2.7062	-2.6875	-2.8542	-2.7708	-2.8438	-2.6042	-2.5354	-2.8729	140.846	212.601	163.505	395.097	193.627	470.054	429.978	205.350	278.679	253.142	326.626	381.635	332.882	407.451	424.254	312.764	0.00034613	0.00044123	7.2006e-05	164.27	1.2443e-06	7.862e-07	326.47	64.744	1.4407e-06	8.4491e-06	164.66	78.465	28.029	12.242	1.7831e-06	40.09	0.011311	0.033424	0.0093016	219.63	0.00028676	0.00038024	384.87	82.129	0.00028112	0.00038325	195.79	91.84	40.807	15.931	0.00032985	46.395	199.521	123.138	294.172	132.693	166.436	427.518	132.498	136.759	380.337	270.040	136.036	139.673	139.787	144.537	260.396	143.207	-8191	255	
15902.079	1	1	0	0	0.13852	0.2752	0.31233	0.041246	0.13913	0.048886	0.174	0.11029	0.159	0.12518	0.057797	0.28017	0.11567	0.12357	0.069284	0.18773	-2.2458	-2.65	-2.8417	-2.5167	-2.6792	-2.7646	-2.575	-2.8563	-2.5187	-2.7188	-2.8937	-2.6833	-2.6375	-2.8958	-2.5417	-2.9292	319.495	239.028	298.609	362.803	319.694	223.217	168.143	220.883	424.211	134.397	252.517	385.125	220.065	419.467	343.775	143.926	0.00039605	0.00085549	0.00014466	164.73	3.8984e-06	1.6728e-06	326.47	64.173	7.3085e-06	3.5581e-06	165.42	78.739	28.001	12.309	3.8723e-06	40.178	0.011503	0.034377	0.0097272	221.71	0.00029763	0.00039577	386.77	81.952	0.00028498	0.00038429	196.28	91.765	40.399	15.86	0.00031683	46.273	217.811	455.743	294.763	132.678	223.720	279.757	132.707	137.170	284.412	272.225	136.033	139.457	140.720	144.311	286.226	143.007	-8191	255	
15902.175	1	1	0	0	0.047067	0.03236	0.12774	0.20435	0.21131	0.077254	0.040467	0.052142	0.062721	0.23436	0.18713	0.14408	0.13215	0.33504	0.031637	0.12247	-2.2708	-2.6792	-2.6562	-2.6292	-2.7104	-2.8208	-2.6146	-2.7729	-2.4833	-2.5958	-2.8167	-2.5604	-2.5771	-2.7083	-2.4521	-2.7479	306.501	143.522	190.826	141.167	383.897	427.683	147.988	433.617	382.215	273.532	181.740	273.980	364.455	421.100	372.892	433.658	0.00037403	0.00046967	0.00020213	164.18	3.716e-06	1.1216e-06	324.97	63.874	2.696e-06	6.0612e-06	165.49	78.441	27.784	12.276	7.6073e-06	39.951	0.011167	0.033564	0.0094559	219.15	0.00029067	0.00038904	385.19	81.341	0.00028188	0.00038211	196	91.844	40.455	15.878	0.00032441	46.226	212.426	263.678	192.673	132.182	290.906	219.562	132.722	137.135	273.113	177.674	135.765	139.601	139.796	144.850	300.071	142.983	-8191	255	
15902.272	1	1	0	0	0.17349	0.23026	0.13677	0.05144	0.1749	0.18932	0.094472	0.18771	0.10919	0.12602	0.044718	0.2172	0.14735	0.12839	0.16964	0.077944	-2.2521	-2.5979	-2.7854	-2.5896	-2.5667	-2.8854	-2.6958	-2.7917	-2.6458	-2.7146	-3.0708	-2.6833	-2.6562	-2.7854	-2.5833	-2.775	319.548	122.104	391.991	220.441	168.138	259.120	344.840	201.565	342.661	324.347	261.498	222.098	354.914	308.413	208.155	163.476	0.00041958	0.00053627	0.00013266	164.61	1.9352e-06	1.5316e-06	322.32	63.522	3.3468e-06	2.2598e-06	166.53	78.307	28.179	12.351	3.1234e-06	40.679	0.011339	0.034104	0.0096218	220.55	0.00029619	0.00039755	384.5	81.482	0.00028766	0.00039048	196.49	92.061	40.811	16.012	0.00032173	46.693	211.740	158.148	163.713	132.521	413.086	311.730	132.521	137.195	299.839	170.683	135.921	139.454	139.901	144.448	432.608	142.994	-8191	255	
15902.368	1	1	0	0	0.12751	0.12043	0.2876	0.23881	0.11247	0.13063	0.31418	0.073037	0.15282	0.086494	0.14485	0.24059	0.35773	0.1376	0.10696	0.12202	-2.2625	-2.4896	-2.7917	-2.7313	-2.5583	-2.9479	-2.5417	-2.6708	-2.8521	-2.4771	-2.8937	-2.6167	-2.5396	-2.8208	-2.5917	-2.65	354.346	238.860	156.331	425.858	393.188	272.747	453.131	181.818	222.469	364.421	335.992	448.109	425.491	297.143	124.382	424.130	0.00037239	0.00087712	0.00011184	165.26	8.0775e-06	4.0841e-06	328.42	64.532	2.0345e-06	9.4707e-06	166.33	78.739	28.227	12.398	1.9652e-06	40.599	0.011144	0.033324	0.0092826	219.95	0.00028687	0.00038293	386.27	81.83	0.00028057	0.00038215	196.99	92.303	40.938	16.056	0.00032483	46.85	202.295	203.957	391.163	132.368	346.236	346.178	132.635	137.169	224.674	206.380	135.763	139.550	139.812	144.424	466.267	143.079	-8191	255	
15902.464	1	1	0	0	0.069489	0.25454	0.1382	0.17967	0.026167	0.16929	0.2783	0.098249	0.12216	0.19561	0.15524	0.14542	0.06947	0.10704	0.20216	0.13309	-2.3667	-2.5083	-2.7625	-2.6375	-2.4604	-2.7896	-2.4854	-2.6708	-2.6042	-2.4792	-2.8271	-2.6312	-2.4917	-2.85	-2.6312	-2.7375	304.674	158.243	365.448	252.874	466.638	246.152	141.177	202.190	121.261	252.390	383.288	142.105	236.740	339.139	436.240	380.590	0.00039409	0.00059683	0.00013911	165.96	5.9328e-06	9.5071e-06	329.35	63.992	2.0022e-06	5.3213e-06	166.74	79.13	28.046	12.388	4.6281e-06	40.783	0.011391	0.034112	0.0094574	220.89	0.00029113	0.00038818	388.6	82.063	0.00028426	0.00038601	198.08	92.636	40.872	16.061	0.00032124	46.99	205.418	189.935	293.358	132.213	194.701	147.300	132.584	137.488	249.015	228.261	136.027	139.535	140.679	144.769	189.761	143.118	-8191	255	
15902.583	1	1	0	0	0.061168	0.13559	0.13075	0.27863	0.15547	0.092593	0.047925	0.13782	0.20008	0.26069	0.12265	0.29041	0.13584	0.11805	0.20507	0.090212	-2.4458	-2.5146	-2.6708	-2.6562	-2.6208	-2.8292	-2.5563	-2.5646	-2.9146	-2.5917	-2.7625	-2.8292	-2.5375	-2.7583	-2.6375	-2.7875	144.305	377.781	257.547	362.852	326.438	397.393	144.148	158.453	266.428	467.996	283.186	418.983	232.250	462.016	292.247	131.083	0.00039158	0.00057435	8.4597e-05	167.21	3.5896e-06	1.2883e-06	328.67	65.452	8.1756e-07	4.17e-06	166.25	79.375	28.114	12.451	6.3992e-06	40.558	0.011188	0.03343	0.0092462	221.53	0.00028543	0.00038007	387.48	82.421	0.0002763	0.00037634	196.6	92.525	40.818	16.027	0.00031841	46.751	210.732	236.753	222.208	132.617	304.512	338.307	132.615	136.945	249.793	412.194	135.766	139.691	140.012	144.682	329.768	142.936	-8191	255	
15902.679	1	1	0	0	0.27418	0.22037	0.21256	0.21602	0.059292	0.090644	0.27215	0.18844	0.16763	0.21095	0.12054	0.18236	0.10159	0.16479	0.088146	0.055515	-2.4646	-2.575	-2.6813	-2.6479	-2.4458	-2.9125	-2.7667	-2.7646	-2.8042	-2.5979	-2.75	-2.6125	-2.5521	-2.7771	-2.6604	-2.6917	289.186	258.365	159.480	396.937	412.917	363.006	425.375	140.012	145.720	449.627	262.805	245.946	210.767	405.657	318.603	285.460	0.00042281	0.00027383	1.8922e-05	166.59	4.7568e-06	3.5994e-06	329.29	64.938	2.3418e-06	4.871e-06	168.3	79.971	28.405	12.635	7.0064e-06	40.934	0.01122	0.033469	0.0093269	222.13	0.00028935	0.00038376	388.48	82.535	0.00027901	0.00037905	198.29	93.164	40.983	16.144	0.00030974	47.058	209.641	371.523	441.003	132.960	206.864	307.469	132.610	137.588	299.362	259.506	135.662	139.651	140.744	144.508	323.472	142.884	-8191	255	
15902.775	1	1	0	0	0.15458	0.18795	0.11379	0.078051	0.090844	0.17056	0.039175	0.18607	0.17316	0.11355	0.12653	0.16202	0.24182	0.14236	0.087939	0.41365	-2.4604	-2.5687	-2.7562	-2.8333	-2.4896	-2.8312	-2.7167	-2.5875	-2.8063	-2.7104	-2.9167	-2.875	-2.6167	-2.9375	-2.7083	-2.7396	446.232	317.709	387.522	225.893	150.941	144.111	305.968	393.853	213.363	277.824	440.167	399.653	407.829	417.343	427.718	199.756	0.00030859	0.00077514	0.00027819	167.53	8.9922e-06	6.8303e-06	331.31	65.315	4.262e-06	7.8866e-06	169.34	80.629	28.735	12.499	2.8035e-06	41.226	0.010888	0.032188	0.0089666	220.36	0.00027832	0.0003681	387.3	81.996	0.00026739	0.00035931	197.66	93.211	40.672	16.073	0.00030704	47.21	206.141	380.858	228.330	132.579	291.281	246.011	132.336	137.235	258.614	404.378	135.885	139.234	139.860	144.494	192.981	143.157	-8191	255	
15902.871	1	1	0	0	0.37874	0.31785	0.27901	0.11315	0.036771	0.18156	0.091739	0.25944	0.21705	0.091665	0.11187	0.18053	0.10108	0.10176	0.23628	0.32722	-2.5187	-2.6729	-2.7979	-3.0062	-2.5979	-2.7917	-2.6854	-2.4771	-2.8125	-2.7375	-2.8604	-2.9188	-2.4979	-2.6688	-2.825	-2.6979	293.291	389.863	216.775	398.720	406.894	251.698	152.374	265.658	359.899	233.540	348.539	465.145	423.818	275.358	150.682	474.676	0.00043431	0.0002878	0.00013901	167.91	4.4322e-06	8.3101e-06	329.16	65.249	1.4368e-06	1.0713e-06	167.85	80.072	28.539	12.615	5.2553e-06	41.031	0.011025	0.032753	0.0092086	222.21	0.00028937	0.0003888	390.26	82.849	0.000288	0.00038698	198.94	93.562	41.408	16.241	0.00032424	47.019	208.167	126.279	211.910	132.527	281.026	250.155	132.458	136.947	457.211	399.771	135.940	139.842	140.219	144.366	169.295	142.895	-8191	255	
15902.967	1	1	0	0	0.046054	0.20987	0.15639	0.086963	0.3104	0.21736	0.22518	0.12716	0.13731	0.24606	0.41909	0.15129	0.079646	0.17216	0.32987	0.10545	-2.3063	-2.6229	-2.6417	-2.8229	-2.5417	-2.65	-2.8312	-2.6312	-2.875	-2.8375	-2.5708	-2.8667	-2.5792	-2.7042	-2.6729	-2.5708	227.224	391.949	420.688	231.468	453.852	288.735	388.511	433.734	264.226	393.118	411.786	410.023	280.421	189.110	253.294	175.012	0.00036244	0.00051335	0.00016623	166.94	7.1655e-06	1.7882e-06	326.58	64.679	3.3175e-06	2.2991e-06	166.01	79.266	28.445	12.449	8.8806e-07	40.762	0.011446	0.033768	0.0094514	222.5	0.00028981	0.00038576	386.8	82.141	0.00028192	0.00038359	196.62	92.481	41.062	16.089	0.00032604	46.934	211.141	410.261	202.517	132.237	267.516	279.538	132.707	136.946	271.932	334.955	135.832	139.910	140.738	144.547	240.828	143.144	-8191	255	
15903.064	1	1	0	0	0.19224	0.1302	0.28344	0.16325	0.12794	0.26732	0.03403	0.081244	0.17384	0.223	0.23281	0.09099	0.24052	0.1428	0.085496	0.2472	-2.4458	-2.7146	-2.525	-2.9792	-2.575	-2.6771	-2.9417	-2.5812	-2.8458	-2.5958	-2.6354	-2.7896	-2.3688	-2.5938	-2.8146	-2.8146	269.389	160.939	158.519	420.543	382.582	457.405	219.368	299.387	306.077	159.495	374.848	351.558	412.233	327.906	225.365	420.235	0.00037152	0.00092038	0.00014129	165.8	5.7462e-06	9.9686e-06	328.06	64.582	1.0331e-06	2.3169e-06	167.45	78.889	28.16	12.478	2.9692e-06	40.713	0.011357	0.033799	0.0094953	222.08	0.00029106	0.0003898	388.98	82.588	0.00028957	0.00039262	198.53	92.731	41.383	16.2	0.00033559	47.214	216.503	132.205	263.483	132.696	261.504	310.916	132.403	137.276	242.162	294.703	135.917	139.693	140.044	144.532	199.781	143.156	-8191	255	
15903.160	1	1	0	0	0.21095	0.18395	0.16635	0.15589	0.19757	0.10729	0.10258	0.17937	0.070945	0.12852	0.21215	0.32817	0.041919	0.05119	0.062042	0.041504	-2.4083	-2.7812	-2.5271	-2.8542	-2.6562	-2.6583	-2.9354	-2.4375	-2.7833	-2.8354	-2.5354	-2.9292	-2.75	-2.4813	-3.0229	-2.65	131.263	377.137	369.335	326.924	474.816	316.244	427.978	368.930	296.604	358.093	454.513	380.870	270.202	144.640	266.050	397.590	0.00036228	0.00049262	0.00018582	165.05	6.3871e-06	9.2315e-06	328.15	64.84	5.8817e-06	2.8956e-06	167.69	79.785	28.31	12.486	6.6594e-06	40.786	0.011738	0.035277	0.0098908	223.81	0.00030473	0.00040467	390.88	83.149	0.00029514	0.00039865	199.46	93.348	41.386	16.184	0.00033258	47.167	217.733	177.694	375.987	132.561	123.259	228.768	132.512	137.144	214.637	278.415	135.877	139.745	139.617	144.888	261.490	143.258	-8191	255	
15903.256	1	1	0	0	0.20705	0.22257	0.29765	0.23425	0.15211	0.081234	0.064312	0.14567	0.030713	0.08336	0.22029	0.24775	0.34061	0.16993	0.2186	0.088758	-2.2917	-2.7958	-2.6208	-2.7729	-2.5104	-2.5563	-2.8208	-2.7083	-2.8333	-3.0667	-2.5125	-2.7938	-2.7521	-2.4458	-2.825	-2.6396	469.840	477.672	269.497	378.270	157.329	373.415	171.066	184.202	396.690	473.174	244.383	414.342	300.026	200.786	196.684	399.430	0.00038211	0.00046027	0.00011121	166.22	3.6733e-06	1.0428e-05	326.62	64.137	2.2618e-06	8.0328e-06	165.3	79.009	28.384	12.512	1.8983e-06	40.552	0.011598	0.034799	0.0098337	223.48	0.00030518	0.00040927	390.5	82.825	0.00030121	0.00041052	198.24	93.13	41.527	16.292	0.00034352	46.94	221.916	199.067	191.976	132.620	275.671	265.767	132.452	137.072	334.298	225.747	135.970	139.452	139.887	144.306	207.463	142.894	-8191	255	
15903.376	1	1	0	0	0.072504	0.19893	0.2857	0.035373	0.149	0.30574	0.20729	0.17743	0.24573	0.25128	0.094016	0.15917	0.10362	0.086902	0.12949	0.18825	-2.2104	-2.8542	-2.3208	-2.7583	-2.4625	-2.6229	-2.9188	-2.7229	-2.55	-2.925	-2.3917	-2.7292	-2.5917	-2.4375	-2.9146	-2.7021	446.256	177.400	478.776	194.469	449.875	432.430	374.585	293.274	273.913	313.029	288.318	149.097	239.436	390.484	214.458	174.607	0.00039871	0.00026295	3.386e-05	165.16	2.8898e-06	1.0127e-05	326.42	64.343	2.7282e-06	3.0478e-06	166.31	79.332	27.986	12.454	3.5127e-06	40.805	0.011873	0.035678	0.0099051	223.41	0.00030503	0.00040728	389.28	82.781	0.0002988	0.0004087	198.9	93.236	41.621	16.285	0.00033844	47.2	201.533	237.568	313.771	132.468	266.228	329.161	132.250	137.312	222.840	350.684	135.913	139.628	139.720	145.063	283.988	142.954	-8191	255	
15903.471	1	1	0	0	0.2218	0.026214	0.31915	0.18626	0.044586	0.091116	0.21183	0.035358	0.074188	0.1698	0.20983	0.22388	0.27665	0.11006	0.11336	0.1832	-2.1729	-3	-2.6229	-2.7938	-2.9229	-2.6833	-2.9042	-2.7125	-2.6188	-3.0146	-2.6458	-2.8292	-2.625	-2.55	-2.8563	-2.5708	370.529	267.556	463.005	127.824	343.898	266.806	416.228	198.573	301.686	426.100	460.803	307.739	456.316	272.022	256.580	398.430	0.00039635	0.00062409	0.00018265	166.37	5.9537e-06	5.734e-06	328.41	64.94	1.8053e-06	7.0988e-06	167.62	79.655	28.482	12.587	5.8013e-06	40.96	0.011797	0.034961	0.0097932	223.52	0.00030259	0.00040665	391.22	83.344	0.00030156	0.00041034	199.98	93.811	41.899	16.396	0.00033997	47.455	213.065	228.517	277.803	132.993	308.308	307.123	132.943	136.679	321.892	355.749	135.866	139.572	140.081	144.645	308.069	143.031	-8191	255	
15903.569	1	1	0	0	0.24816	0.11849	0.072088	0.1804	0.2309	0.21275	0.14358	0.17415	0.18372	0.25937	0.23396	0.25551	0.19579	0.12803	0.21612	0.14187	-2.2229	-2.8187	-2.5687	-2.725	-2.7771	-2.6333	-2.7167	-2.7479	-2.4604	-2.8875	-2.6271	-2.7979	-2.7458	-2.3354	-2.8958	-2.8646	435.123	204.927	183.155	474.634	282.732	426.596	454.605	420.928	153.513	150.524	427.570	330.311	281.338	152.685	258.666	474.265	0.00038813	0.00073417	7.0705e-05	166.15	6.8527e-06	1.2756e-05	330.19	64.862	5.1531e-06	3.1251e-06	167.05	80.162	28.29	12.525	5.447e-06	40.648	0.011987	0.035606	0.00991	224.41	0.00030652	0.00040833	392.54	83.131	0.00030122	0.00040632	199.6	93.609	41.617	16.305	0.00033897	47.128	213.580	262.782	235.093	132.548	258.887	276.736	132.624	137.429	321.024	332.356	136.297	139.624	140.150	144.835	330.745	143.203	-8191	255	
15903.663	1	1	0	0	0.19977	0.21665	0.13712	0.20421	0.22432	0.11242	0.17811	0.22541	0.023161	0.35062	0.41117	0.21309	0.15581	0.13757	0.16276	0.2501	-2.0979	-2.9042	-2.65	-2.6021	-2.7938	-2.4062	-2.7354	-2.7896	-2.6646	-2.9146	-2.6542	-2.6146	-2.875	-2.6375	-2.9	-2.8021	190.318	430.995	259.950	241.109	287.125	344.804	385.802	362.360	322.849	383.949	391.763	125.750	460.366	432.985	381.347	149.063	0.00041075	0.00088748	0.0001456	166.98	6.1405e-06	4.5935e-06	326.99	64.821	3.9501e-06	4.5744e-06	165.36	79.215	28.482	12.578	4.5813e-06	40.853	0.011948	0.035816	0.0099617	225.21	0.00031192	0.00041485	390.5	83.567	0.00030365	0.00041164	198.67	93.297	41.882	16.353	0.00034051	47.292	209.219	268.261	119.392	132.878	273.513	241.566	132.505	137.120	320.445	237.265	136.142	139.817	139.783	144.456	301.271	143.177	-8191	255	
15903.759	1	1	0	0	0.28646	0.082965	0.12569	0.19597	0.19281	0.29233	0.12724	0.19893	0.17318	0.13023	0.2258	0.26997	0.13297	0.16347	0.13471	0.10802	-2.0833	-2.8937	-2.5729	-2.5708	-3.0396	-2.675	-2.6958	-2.6896	-2.7042	-2.9188	-2.5563	-2.6437	-2.7812	-2.5021	-2.775	-2.8312	363.263	475.705	207.097	417.866	142.625	267.632	138.439	468.527	445.028	207.373	411.239	441.546	266.918	165.800	177.794	172.433	0.00039222	0.00055474	0.00012871	166.11	1.0727e-06	2.0047e-06	327.75	64.854	7.7378e-06	1.9695e-06	167.82	79.748	28.652	12.527	2.6096e-06	40.944	0.012035	0.035732	0.01	225.32	0.00031075	0.00041519	391.61	83.651	0.00030652	0.00041522	200.15	93.883	42.018	16.376	0.0003427	47.484	218.838	218.794	226.074	132.614	266.479	203.429	132.439	137.122	288.449	148.986	135.776	140.014	140.352	144.758	247.706	142.915	-8191	255	
15903.855	1	1	0	0	0.26539	0.1086	0.075756	0.10922	0.21216	0.036126	0.16083	0.24297	0.14871	0.11203	0.29453	0.15681	0.24881	0.13608	0.054908	0.11139	-2.2979	-2.8208	-2.8	-2.5104	-2.8417	-2.6125	-2.6979	-2.9333	-2.4313	-2.9875	-2.8417	-2.5833	-2.5979	-2.55	-2.5625	-2.8833	153.668	175.830	169.584	202.661	460.285	440.275	403.558	260.697	222.600	408.943	436.791	120.406	149.999	222.328	219.016	121.141	0.000402	0.0006317	0.00012606	165.33	2.877e-06	6.0839e-06	331.84	65.346	4.7668e-06	7.6612e-06	167.38	79.786	28.368	12.548	5.9253e-06	41.134	0.011994	0.035524	0.0098764	223.74	0.00030247	0.00040033	392.49	83.396	0.00029395	0.00039999	199.68	93.875	41.897	16.411	0.00034513	47.644	212.357	292.943	200.323	132.652	160.639	287.901	132.401	137.449	271.514	395.651	135.947	139.824	140.398	144.719	226.835	142.942	-8191	255	
15903.976	1	1	0	0	0.17685	0.389	0.33208	0.10475	0.11933	0.075222	0.071568	0.12394	0.099046	0.029511	0.16312	0.22951	0.32308	0.15171	0.091735	0.34023	-1.8792	-2.6021	-2.8042	-2.5	-2.9646	-2.7375	-2.5958	-2.7146	-2.5438	-2.7687	-2.6917	-2.4521	-2.5625	-2.4542	-2.5479	-2.9771	327.534	464.751	129.747	475.955	392.831	167.373	450.871	453.708	197.556	254.911	390.451	420.989	388.054	178.061	467.102	410.518	0.00038995	0.00049536	0.0003324	165.52	5.9559e-06	2.4652e-06	330.55	65.097	4.5041e-06	9.5359e-06	167.71	79.551	28.289	12.569	3.8829e-06	40.575	0.012206	0.036402	0.010116	225.56	0.00031203	0.00041347	393.82	83.925	0.00030075	0.00040833	199.74	93.468	41.638	16.246	0.00033678	46.965	216.907	309.659	158.624	132.651	342.940	321.197	132.570	137.263	213.862	247.210	135.649	139.723	140.294	144.437	250.872	142.981	-8191	255	
15904.072	1	1	0	0	0.0963	0.12887	0.20959	0.28968	0.19065	0.17323	0.20289	0.21846	0.13427	0.10906	0.085759	0.070568	0.055693	0.14813	0.10473	0.17386	-2.1625	-2.625	-2.9542	-2.4979	-2.8812	-2.5208	-2.5438	-2.9521	-2.5917	-2.6042	-3.0229	-2.3708	-2.8896	-2.6813	-2.5417	-2.8729	428.038	330.766	172.653	467.185	235.545	152.884	136.176	366.706	146.322	210.278	465.217	290.536	392.027	205.292	343.890	162.749	0.00042268	0.00060376	2.4175e-05	165.82	1.1904e-06	8.1511e-06	329.18	65.066	4.6425e-06	5.253e-06	166.9	79.336	28.524	12.441	4.279e-06	40.385	0.011696	0.034792	0.0097099	223.68	0.00029963	0.00039925	390.92	83.127	0.00029422	0.00039864	198.47	93.112	41.651	16.214	0.00034243	46.928	200.845	183.891	300.312	132.398	300.181	303.498	132.703	137.153	259.066	274.938	136.071	139.683	140.659	144.854	141.080	142.950	-8191	255	
15904.168	1	1	0	0	0.30801	0.15428	0.24642	0.16304	0.088783	0.1771	0.26415	0.15033	0.031033	0.29864	0.13607	0.31514	0.12728	0.10185	0.19904	0.2528	-2.2687	-2.5667	-2.8917	-2.375	-2.8917	-2.7	-2.6375	-2.8583	-2.5875	-2.5625	-2.8583	-2.5042	-2.8	-2.7458	-2.5167	-2.9333	172.048	316.935	263.487	449.724	289.407	267.588	445.477	357.145	404.664	282.645	473.573	432.665	125.186	370.509	213.079	175.813	0.0003888	0.00074799	5.5282e-05	166.19	6.8425e-06	2.3736e-06	327.05	63.917	4.2085e-06	3.8048e-06	166.02	78.31	27.838	12.338	2.6701e-06	40.514	0.012109	0.036136	0.010179	224.97	0.00031557	0.0004225	391.38	83.156	0.00030961	0.00041672	198.33	92.544	41.473	16.138	0.00034083	46.903	208.016	190.465	295.447	132.800	473.527	416.464	132.489	136.921	273.734	386.046	135.775	139.612	140.445	144.650	181.343	143.120	-8191	255	
15904.240	1	1	0	0	0.32401	0.11871	0.18981	0.11607	0.16009	0.066203	0.18847	0.07197	0.10042	0.14665	0.27864	0.16944	0.24034	0.083134	0.15252	0.090406	-2.2562	-2.5542	-2.7604	-2.6083	-2.5521	-2.725	-2.4	-2.9813	-2.9188	-2.6583	-2.8667	-2.6458	-2.7188	-2.8521	-2.5833	-2.9125	122.478	355.937	347.298	181.314	203.472	183.929	263.204	462.490	462.242	430.565	434.198	427.636	443.302	264.101	225.506	140.876	0.00041294	0.00025475	3.8037e-05	164.75	8.746e-06	4.2444e-07	325.48	64.139	3.6294e-06	1.1309e-05	164.52	78.256	27.828	12.084	6.3329e-06	39.986	0.011926	0.035469	0.0099122	223.25	0.00030424	0.00040753	389.29	82.582	0.00030251	0.00041092	197.07	91.979	41.227	15.972	0.00034347	46.276	208.679	194.336	379.148	132.516	180.478	267.372	132.661	137.046	182.053	336.384	135.936	139.832	140.277	144.662	224.262	143.036	-8191	255	
15904.361	1	1	0	0	0.14246	0.19185	0.20491	0.22231	0.10099	0.10131	0.19716	0.10224	0.35618	0.25345	0.20239	0.22891	0.049995	0.28184	0.036889	0.068152	-2.2417	-2.6917	-2.8417	-2.6063	-2.6562	-2.9979	-2.5792	-2.9208	-2.8937	-2.65	-2.9396	-2.7042	-2.65	-3.0083	-2.4958	-2.7708	420.655	390.261	310.780	174.938	272.705	140.843	377.531	297.915	242.010	251.447	454.365	457.597	365.257	394.800	405.304	403.741	0.00039049	0.00049664	0.00015809	164.46	4.8381e-06	1.0793e-05	324.41	63.212	4.4858e-06	2.6588e-06	161.98	76.46	27.319	11.855	2.1111e-06	39.341	0.01198	0.035911	0.010043	223.26	0.00030753	0.00041114	387.02	81.78	0.00030363	0.00041283	194.09	90.604	40.868	15.745	0.00034762	45.714	208.690	461.247	313.002	132.621	352.152	196.369	132.593	136.989	244.522	286.805	136.056	139.719	140.097	144.526	378.206	143.050	-8191	255	
15904.457	1	1	0	0	0.18387	0.054692	0.28491	0.069348	0.13531	0.1327	0.054739	0.22246	0.10909	0.14572	0.14723	0.22416	0.11118	0.1149	0.091012	0.10173	-2.3104	-2.5917	-2.7146	-2.6729	-2.6437	-2.8667	-2.3708	-2.7188	-2.7458	-2.5729	-2.9458	-2.8187	-2.4583	-2.85	-2.5938	-2.975	439.063	346.403	173.375	211.281	421.407	297.339	473.814	381.903	401.332	189.356	188.794	370.612	268.581	449.132	384.147	141.316	0.00043246	0.00029904	0.00020549	163.32	3.7363e-06	6.9429e-06	322.54	62.225	1.4997e-06	7.3786e-06	161.56	76.071	26.807	11.863	7.7894e-07	39.317	0.012112	0.036355	0.010216	222.99	0.00031581	0.00042167	385.68	81.426	0.00031195	0.00042171	194.29	90.329	40.745	15.746	0.00035297	45.625	216.685	457.767	266.236	133.157	216.878	286.686	132.805	137.261	402.165	280.895	135.922	139.533	139.888	144.620	270.399	142.941	-8191	255	
15904.553	1	1	0	0	0.13503	0.25331	0.10003	0.095115	0.062891	0.10647	0.2022	0.11685	0.089211	0.15755	0.10925	0.072759	0.22042	0.16439	0.14383	0.020736	-2.2854	-2.5667	-2.8563	-2.6583	-2.525	-2.8812	-2.7417	-2.7458	-2.8271	-2.375	-2.7104	-2.7896	-2.5563	-2.8167	-2.5167	-2.7792	186.312	240.217	194.197	459.944	436.189	266.005	393.325	242.747	244.043	349.581	366.190	150.580	336.609	407.673	147.374	251.609	0.00044366	0.00034064	0.00014459	162.84	3.296e-06	1.6128e-05	321.34	63.083	4.8345e-06	9.7009e-06	162.91	77.224	27.401	12.024	2.8844e-06	39.667	0.012178	0.036305	0.010025	220.82	0.00030519	0.00040352	383.87	81.007	0.00029579	0.00040265	194.75	90.916	40.667	15.8	0.00034248	46.09	214.148	219.419	436.454	132.298	289.931	239.234	132.630	137.314	321.239	238.365	136.009	139.412	140.069	144.588	329.988	143.261	-8191	255	
15904.672	1	1	0	0	0.22721	0.24671	0.16366	0.10488	0.23177	0.24254	0.34734	0.17553	0.17064	0.080412	0.058336	0.14626	0.074335	0.062257	0.211	0.044371	-2.4354	-2.4146	-2.5833	-2.7104	-2.5938	-2.8729	-2.6646	-2.5812	-2.8292	-2.7458	-2.7854	-2.8312	-2.425	-2.7958	-2.5917	-2.6083	348.926	131.130	153.771	383.647	298.857	398.346	132.395	256.228	219.223	342.340	452.314	422.345	134.763	461.135	265.840	224.452	0.00043614	0.0010001	0.00014406	163.11	5.466e-06	4.5612e-06	324.66	63.604	6.0643e-06	6.3302e-06	162.22	77.517	27.562	12.076	5.6704e-06	39.804	0.012003	0.03573	0.0099401	221.27	0.00030273	0.00040289	385.89	81.507	0.0002971	0.00040642	194.8	91.364	40.929	15.889	0.00034309	46.141	216.746	330.551	173.109	132.577	287.408	281.842	132.290	137.575	323.766	263.306	136.002	139.501	140.191	144.722	249.679	143.067	-8191	255	
15904.768	1	1	0	0	0.18326	0.043183	0.129	0.12324	0.1205	0.067246	0.2882	0.11656	0.16204	0.091117	0.22423	0.29194	0.2778	0.23992	0.04952	0.1052	-2.4292	-2.6521	-2.5625	-2.8833	-2.5604	-2.8438	-2.7667	-2.6479	-2.9313	-2.5167	-2.7146	-2.675	-2.6958	-2.725	-2.6063	-2.7333	160.597	379.258	463.265	142.706	240.597	376.387	346.278	130.780	204.113	160.695	464.001	119.889	321.908	435.721	238.873	380.973	0.00038437	0.00022373	0.00015674	163.32	2.8358e-06	8.8462e-06	321.53	63.077	4.4358e-06	3.6325e-06	163.72	77.826	27.741	12.215	3.1777e-06	39.972	0.01199	0.035853	0.0099512	221.17	0.00030539	0.00040532	383.45	81.297	0.00029488	0.00039833	195.06	91.502	40.692	15.933	0.00033482	46.372	205.408	409.591	238.500	132.415	294.043	318.022	131.994	137.212	283.006	209.655	135.589	139.635	140.245	144.819	225.577	142.954	-8191	255	
15904.840	1	1	0	0	0.0753	0.23272	0.12051	0.2188	0.067324	0.12651	0.17127	0.21754	0.057351	0.11043	0.053196	0.23654	0.20044	0.085029	0.19253	0.080483	-2.5125	-2.4938	-2.5438	-2.7604	-2.6333	-2.8792	-2.6333	-2.5438	-2.7771	-2.6146	-2.7812	-2.7083	-2.575	-2.8896	-2.5917	-2.6312	233.989	173.780	429.491	385.616	348.728	286.353	191.280	349.209	368.686	126.534	459.471	421.280	341.926	429.458	246.763	148.981	0.00044807	0.00029233	0.00012058	163.75	1.77e-06	4.1132e-06	324.07	63.653	2.3314e-06	4.3119e-06	163.99	78.646	28.115	12.329	5.9443e-06	40.278	0.011791	0.035305	0.0098475	220.96	0.00030365	0.00040585	385.11	81.75	0.00029683	0.00040289	196.3	92.229	41.151	16.057	0.00033587	46.674	203.787	249.518	341.388	132.383	389.862	397.905	132.659	137.207	345.484	356.678	135.869	139.494	139.995	144.585	252.760	143.162	-8191	255	
15904.936	1	1	0	0	0.028675	0.30859	0.16749	0.20276	0.35043	0.13064	0.13731	0.27178	0.091988	0.15752	0.33292	0.19709	0.045946	0.27843	0.10109	0.052061	-2.5021	-2.6167	-2.5083	-2.9333	-2.6021	-2.8854	-2.6917	-2.7375	-2.8875	-2.6917	-2.7979	-2.8917	-2.4979	-2.6292	-2.8063	-2.7708	375.637	193.833	251.200	147.633	142.827	391.616	383.504	246.265	322.245	465.172	139.661	279.227	173.677	451.145	158.071	271.960	0.00037501	0.00056973	0.00013366	164.41	5.7004e-06	2.8216e-06	322.94	63.852	5.865e-06	3.7295e-06	164.53	78.663	27.843	12.313	4.4396e-06	40.333	0.011783	0.035282	0.0099028	221.89	0.00030485	0.00040779	386.79	82.084	0.0002988	0.00040493	196.64	92.543	41.247	16.097	0.00033826	46.886	201.085	404.778	455.038	132.334	281.388	247.455	132.922	137.121	177.796	265.824	135.952	139.535	140.598	144.984	311.847	143.040	-8191	255	
15905.056	1	1	0	0	0.13305	0.07471	0.25474	0.3191	0.22746	0.14457	0.37349	0.25783	0.096583	0.16972	0.10681	0.07453	0.087253	0.1903	0.31151	0.16734	-2.2917	-2.4583	-2.5479	-2.825	-2.5646	-2.7812	-2.8854	-2.3604	-2.7083	-2.7979	-2.6875	-2.8354	-2.7667	-2.9	-2.8563	-2.3958	331.548	295.647	219.185	234.665	233.141	260.237	135.072	190.178	225.305	240.293	349.715	430.133	401.861	288.393	398.439	313.165	0.00042015	9.4176e-05	0.00012905	162.58	2.3262e-06	5.4649e-06	324.43	63.781	7.2824e-07	2.2935e-06	163.59	78.194	27.529	12.309	1.1375e-06	40.196	0.011981	0.035635	0.0099145	221.35	0.00030674	0.00040785	386.46	82.138	0.00030185	0.00040768	195.95	91.983	41.205	16.05	0.00034154	46.637	211.532	292.243	200.529	132.732	277.955	364.285	132.275	136.826	280.642	352.319	135.922	139.513	140.416	144.948	424.857	143.036	-8191	255	
15905.153	1	1	0	0	0.1445	0.27458	0.18912	0.18746	0.29158	0.10009	0.15818	0.091602	0.080387	0.18287	0.0686	0.27406	0.18943	0.14465	0.10916	0.14421	-2.3208	-2.7083	-2.6125	-2.8729	-2.725	-2.7833	-2.8417	-2.5	-2.9333	-2.7375	-2.7646	-2.9271	-2.6396	-2.6833	-2.9708	-2.7229	191.150	434.553	374.089	404.227	380.154	342.146	124.358	394.893	165.962	279.180	318.737	409.784	348.555	123.765	444.280	218.235	0.00036524	0.00034953	0.00027906	161.99	6.3692e-06	4.9368e-06	324.97	64.038	4.095e-06	6.1903e-06	165.73	79.44	28.124	12.383	4.1666e-06	40.415	0.011939	0.035637	0.010012	221.93	0.00030964	0.00040977	387.34	82.46	0.00030096	0.00040633	197.27	92.907	41.398	16.151	0.00033464	46.892	220.655	140.317	213.289	132.776	325.311	181.212	132.505	137.229	292.043	233.115	135.857	139.456	139.987	144.522	266.388	142.962	-8191	255	
15905.249	1	1	0	0	0.25668	0.10693	0.24338	0.22278	0.308	0.066284	0.052614	0.085921	0.068164	0.064417	0.13091	0.10744	0.12968	0.17961	0.043424	0.3023	-2.275	-2.6271	-2.5271	-2.8187	-2.5625	-2.4833	-2.9458	-2.7792	-2.8521	-3.0146	-2.55	-2.9271	-2.7896	-2.5812	-3.0062	-2.7188	398.394	375.998	157.012	355.998	154.152	148.816	436.814	351.611	440.243	373.928	217.767	401.850	351.811	137.258	199.202	424.417	0.00039782	0.00021679	0.00010648	165.04	6.2092e-06	3.6666e-06	326.29	64.251	4.3793e-06	5.9731e-06	166.49	79.922	28.262	12.54	4.4881e-06	41.187	0.011752	0.035111	0.0098539	222.62	0.0003031	0.00040414	388.67	82.612	0.00029768	0.00040272	198.34	93.487	41.579	16.283	0.00033764	47.527	204.791	454.322	431.918	132.658	293.011	376.453	132.491	137.230	238.683	316.292	135.714	139.676	140.403	144.582	130.069	143.230	-8191	255	
15905.369	1	1	0	0	0.24246	0.19022	0.23117	0.22983	0.03908	0.29864	0.23472	0.21542	0.21037	0.074101	0.13451	0.22528	0.1191	0.1279	0.29487	0.26698	-2.1979	-2.6958	-2.7146	-2.8187	-2.6458	-2.6458	-2.8354	-2.475	-2.9313	-2.8833	-2.5438	-2.7417	-2.8125	-2.5896	-2.9208	-2.7458	405.780	179.220	298.383	434.622	140.189	276.377	366.706	139.334	270.247	425.272	202.047	144.643	387.644	320.497	137.688	476.993	0.00037395	0.00022155	0.00025727	166.09	2.4526e-06	4.6305e-06	329.49	64.208	6.0104e-06	1.1377e-05	166.29	79.39	28.178	12.32	3.862e-06	40.827	0.011766	0.035295	0.009873	223.97	0.00030412	0.00040351	390.72	82.87	0.00029868	0.00040853	198.81	93.567	41.786	16.289	0.0003491	47.238	225.563	223.637	206.886	132.983	271.767	179.629	132.212	137.529	329.163	312.343	135.804	139.499	140.139	144.583	249.108	143.070	-8191	255	
15905.441	1	1	0	0	0.16614	0.14013	0.24986	0.23907	0.14935	0.26151	0.096138	0.097937	0.13906	0.16931	0.077378	0.061254	0.25569	0.19686	0.14558	0.12318	-2.0646	-2.8958	-2.5292	-2.7167	-2.6667	-2.5708	-2.9125	-2.5521	-2.5729	-2.9271	-2.5125	-2.6833	-2.8312	-2.2687	-2.75	-2.6792	238.146	359.398	233.563	478.771	400.818	132.043	402.829	351.959	315.256	223.272	169.689	352.589	305.387	408.251	269.506	287.918	0.00042206	0.0004121	1.9791e-05	164.83	1.6855e-06	6.8915e-06	325.08	64.434	3.8368e-06	4.3821e-06	166.25	79.874	28.384	12.569	1.5896e-06	40.788	0.012234	0.036476	0.010244	224.85	0.00031363	0.00041609	389.98	83.166	0.00030269	0.00041352	198.96	93.84	41.963	16.417	0.00035185	47.46	209.473	209.339	289.117	132.335	370.816	259.512	132.790	137.726	324.518	291.671	135.801	139.427	140.033	144.563	179.950	142.918	-8191	255	
#DATA ENDS
