BOXY.EXE: ISS Imagent and Oximeter Data Acquisition Program Version 0.80
Ascii Record File

#ACQ INFORMATION
2  Detector Channels 
16  External MUX Channels 
1  Auxiliary Channels 
5000  Waveform (CCF) Frequency (Hz)
1  Waveforms Skipped 
30  Waveforms Averaged 
1  Cycles Averaged 
16  Acquisitions per Waveform 
10.0806  Updata Rate (Hz) 

#FILE INFORMATION
TRUE -- External MUX Channel results are PARSED.
FALSE -- AC DC and Phase are NOT grouped.
TRUE -- Companion Program Settings File CREATED.
FALSE -- AC data not excluded
FALSE -- DC data not excluded
FALSE -- Phase data not excluded
FALSE -- Auxillary Chn. data not excluded
Tab delimiters

#CALIBRATION STATE
TRUE -- Waveform Calibration Values APPLIED.


#AUX CALIBRATION VALUES
Val Type	aux-1	

Term	1.0000e+00	
Factor	0.0000e+00	


#WF CALIBRATION VALUES
A = Detector Channel
Val Type	A-AC1	A-AC2	A-AC3	A-AC4	A-AC5	A-AC6	A-AC7	A-AC8	A-AC9	A-AC10	A-AC11	A-AC12	A-AC13	A-AC14	A-AC15	A-AC16	A-DC1	A-DC2	A-DC3	A-DC4	A-DC5	A-DC6	A-DC7	A-DC8	A-DC9	A-DC10	A-DC11	A-DC12	A-DC13	A-DC14	A-DC15	A-DC16	A-Ph1	A-Ph2	A-Ph3	A-Ph4	A-Ph5	A-Ph6	A-Ph7	A-Ph8	A-Ph9	A-Ph10	A-Ph11	A-Ph12	A-Ph13	A-Ph14	A-Ph15	A-Ph16	

Term	0.00000e+00	0.00000e+00	0.00000e+00	0.00000e+00	0.00000e+00	0.00000e+00	0.00000e+00	0.00000e+00	0.00000e+00	0.00000e+00	0.00000e+00	0.00000e+00	0.00000e+00	0.00000e+00	0.00000e+00	0.00000e+00	0.00000e+00	0.00000e+00	0.00000e+00	0.00000e+00	0.00000e+00	0.00000e+00	0.00000e+00	0.00000e+00	0.00000e+00	0.00000e+00	0.00000e+00	0.00000e+00	0.00000e+00	0.00000e+00	0.00000e+00	0.00000e+00	0.00000e+00	0.00000e+00	0.00000e+00	0.00000e+00	0.00000e+00	0.00000e+00	0.00000e+00	0.00000e+00	0.00000e+00	0.00000e+00	0.00000e+00	0.00000e+00	0.00000e+00	0.00000e+00	0.00000e+00	0.00000e+00	
Factor	1.00000e+00	1.00000e+00	1.00000e+00	1.00000e+00	1.00000e+00	1.00000e+00	1.00000e+00	1.00000e+00	1.00000e+00	1.00000e+00	1.00000e+00	1.00000e+00	1.00000e+00	1.00000e+00	1.00000e+00	1.00000e+00	1.00000e+00	1.00000e+00	1.00000e+00	1.00000e+00	1.00000e+00	1.00000e+00	1.00000e+00	1.00000e+00	1.00000e+00	1.00000e+00	1.00000e+00	1.00000e+00	1.00000e+00	1.00000e+00	1.00000e+00	1.00000e+00	X	X	X	X	X	X	X	X	X	X	X	X	X	X	X	X	

B = Detector Channel
Val Type	B-AC1	B-AC2	B-AC3	B-AC4	B-AC5	B-AC6	B-AC7	B-AC8	B-AC9	B-AC10	B-AC11	B-AC12	B-AC13	B-AC14	B-AC15	B-AC16	B-DC1	B-DC2	B-DC3	B-DC4	B-DC5	B-DC6	B-DC7	B-DC8	B-DC9	B-DC10	B-DC11	B-DC12	B-DC13	B-DC14	B-DC15	B-DC16	B-Ph1	B-Ph2	B-Ph3	B-Ph4	B-Ph5	B-Ph6	B-Ph7	B-Ph8	B-Ph9	B-Ph10	B-Ph11	B-Ph12	B-Ph13	B-Ph14	B-Ph15	B-Ph16	

Term	0.00000e+00	0.00000e+00	0.00000e+00	0.00000e+00	0.00000e+00	0.00000e+00	0.00000e+00	0.00000e+00	0.00000e+00	0.00000e+00	0.00000e+00	0.00000e+00	0.00000e+00	0.00000e+00	0.00000e+00	0.00000e+00	0.00000e+00	0.00000e+00	0.00000e+00	0.00000e+00	0.00000e+00	0.00000e+00	0.00000e+00	0.00000e+00	0.00000e+00	0.00000e+00	0.00000e+00	0.00000e+00	0.00000e+00	0.00000e+00	0.00000e+00	0.00000e+00	-9.99014e+01	-1.28059e+02	-1.24292e+02	-1.80815e+02	-5.64162e+01	-6.70400e+01	-1.57141e+02	-1.62015e+02	-5.78422e+01	-6.46554e+01	-1.71605e+02	-1.71581e+02	-1.83471e+02	-1.76929e+02	-6.31455e+01	-1.49760e+02	
Factor	1.57090e-05	1.56009e-04	4.31416e-05	1.49598e-01	1.26044e-06	1.72627e-06	1.55617e-01	4.50887e-02	1.02207e-06	1.73542e-06	7.47621e-02	2.92882e-02	3.47003e-02	8.87559e-03	1.34979e-06	1.27559e-02	1.64394e-05	5.02448e-05	1.40396e-05	7.54145e-02	4.32544e-07	5.76823e-07	7.39352e-02	2.29014e-02	4.22910e-07	5.74600e-07	3.67841e-02	1.45451e-02	1.77443e-02	4.53651e-03	4.81585e-07	6.33307e-03	X	X	X	X	X	X	X	X	X	X	X	X	X	X	X	X	



#DISTANCE SETTINGS
A = Detector Channel
A-1	A-2	A-3	A-4	A-5	A-6	A-7	A-8	A-9	A-10	A-11	A-12	A-13	A-14	A-15	A-16	

2.5000e+00	3.0000e+00	2.5000e+00	3.0000e+00	2.0000e+00	3.0000e+00	1.5000e+00	3.0000e+00	3.0000e+00	3.0000e+00	3.0000e+00	3.0000e+00	3.0000e+00	3.0000e+00	1.5000e+00	3.0000e+00	

B = Detector Channel
B-1	B-2	B-3	B-4	B-5	B-6	B-7	B-8	B-9	B-10	B-11	B-12	B-13	B-14	B-15	B-16	

1.0000e+01	1.0000e+01	1.0000e+01	1.4400e+00	1.0000e+01	1.0000e+01	1.5100e+00	1.9400e+00	1.0000e+01	1.0000e+01	1.9900e+00	2.4900e+00	2.4100e+00	2.9000e+00	1.0000e+01	2.9800e+00	




#DATA BEGINS
time	group	step	mark	flag	A-AC1	A-AC2	A-AC3	A-AC4	A-AC5	A-AC6	A-AC7	A-AC8	A-AC9	A-AC10	A-AC11	A-AC12	A-AC13	A-AC14	A-AC15	A-AC16	A-DC1	A-DC2	A-DC3	A-DC4	A-DC5	A-DC6	A-DC7	A-DC8	A-DC9	A-DC10	A-DC11	A-DC12	A-DC13	A-DC14	A-DC15	A-DC16	A-Ph1	A-Ph2	A-Ph3	A-Ph4	A-Ph5	A-Ph6	A-Ph7	A-Ph8	A-Ph9	A-Ph10	A-Ph11	A-Ph12	A-Ph13	A-Ph14	A-Ph15	A-Ph16	B-AC1	B-AC2	B-AC3	B-AC4	B-AC5	B-AC6	B-AC7	B-AC8	B-AC9	B-AC10	B-AC11	B-AC12	B-AC13	B-AC14	B-AC15	B-AC16	B-DC1	B-DC2	B-DC3	B-DC4	B-DC5	B-DC6	B-DC7	B-DC8	B-DC9	B-DC10	B-DC11	B-DC12	B-DC13	B-DC14	B-DC15	B-DC16	B-Ph1	B-Ph2	B-Ph3	B-Ph4	B-Ph5	B-Ph6	B-Ph7	B-Ph8	B-Ph9	B-Ph10	B-Ph11	B-Ph12	B-Ph13	B-Ph14	B-Ph15	B-Ph16	aux-1	digaux	

14557.359	1	1	0	256	0.19263	0.20139	0.29845	0.083782	0.097261	0.050077	0.034006	0.17296	0.039658	0.22298	0.10506	0.21376	0.10202	0.17465	0.15748	0.25166	-2.7479	-2.8583	-3.1417	-3.2729	-2.7625	-3.275	-3.1646	-2.8688	-3.075	-2.8625	-3.2333	-3.1083	-2.8417	-2.8875	-2.9271	-3.0042	213.124	314.680	185.392	417.245	264.753	230.667	256.895	187.753	262.328	220.225	261.231	458.234	458.357	516.787	173.410	460.124	0.00023504	0.00032411	9.4412e-05	1020.8	1.5855e-06	2.5802e-06	1055.3	222	3.6973e-06	4.325e-06	268.5	78.988	63.957	20.561	2.6702e-06	26.825	0.00046397	0.00084924	0.00023812	1039.1	8.6932e-06	9.3505e-06	1078.2	227.85	7.9331e-06	9.9502e-06	276.14	81.997	66.775	21.46	8.4157e-06	28.119	225.176	277.515	250.873	179.380	312.273	316.302	179.235	185.739	299.017	311.702	185.551	191.247	191.543	197.080	321.731	197.441	-8191	255	
14557.455	1	1	0	0	0.16588	0.19669	0.31516	0.1425	0.142	0.23389	0.062954	0.028252	0.11995	0.047401	0.28764	0.10508	0.21662	0.28366	0.13474	0.12228	-2.6646	-2.8542	-2.9688	-3.2687	-2.9521	-3.025	-3.1792	-2.7625	-3.2333	-3.0146	-2.975	-3.2458	-2.8042	-3.1417	-3.0521	-2.9938	388.567	371.680	256.163	409.558	201.375	211.728	423.303	186.582	350.394	362.349	250.821	442.473	188.455	447.741	221.765	471.620	0.00023232	0.0002399	8.9113e-05	1016.8	2.9468e-06	4.197e-06	1055.9	221.7	2.5686e-06	2.6536e-06	268.06	78.141	64.296	20.42	2.6996e-06	26.803	0.0004514	0.00088274	0.00024189	1036	8.413e-06	9.3806e-06	1076.3	227.13	8.3851e-06	9.8496e-06	275.31	81.481	66.653	21.338	8.511e-06	28.033	226.068	241.115	251.020	179.301	314.404	314.491	179.112	186.027	304.988	314.041	185.688	191.647	191.585	197.081	321.785	197.360	-8191	255	
14557.551	1	1	0	0	0.21806	0.078931	0.068876	0.082866	0.24565	0.1767	0.098014	0.22881	0.10827	0.080943	0.2101	0.052149	0.19319	0.12474	0.1164	0.077957	-2.8542	-2.8792	-2.8146	-3.2375	-2.7896	-3.0917	-3.3312	-2.9708	-3.2125	-3.1063	-3.0458	-3.1833	-2.9688	-3.2188	-3.1021	-2.9729	409.750	362.101	220.139	211.529	183.135	318.659	428.488	424.884	178.022	296.215	268.948	269.741	475.665	380.322	477.171	420.768	0.00023763	0.00020637	7.5299e-05	1016.2	3.7645e-06	3.2071e-06	1059	222.24	2.6916e-06	4.2118e-06	267.39	78.347	63.558	20.444	1.5134e-06	26.649	0.0004579	0.00084788	0.00024894	1035.4	8.4535e-06	9.3157e-06	1077.4	227.26	8.0608e-06	9.6904e-06	274.65	81.524	66.443	21.359	8.4117e-06	27.996	224.114	253.325	258.202	179.362	293.572	306.476	179.082	185.937	310.960	318.217	185.835	191.483	191.322	197.365	283.875	197.565	-8191	255	
14557.646	1	1	0	0	0.10284	0.080839	0.17827	0.30367	0.16786	0.051486	0.16741	0.33331	0.092727	0.17939	0.057759	0.19955	0.25812	0.10391	0.09252	0.22305	-2.7792	-3.0229	-2.8312	-3.3563	-2.8417	-3.1375	-3.3229	-3.0563	-3.0396	-2.9354	-3.0146	-3.1833	-2.8083	-3.0729	-3.3375	-2.8833	208.974	210.699	266.589	486.553	192.712	254.579	455.546	470.331	296.923	346.712	502.699	174.654	409.030	428.471	181.676	198.582	0.00022341	0.00028882	6.6636e-05	1020.3	1.4878e-06	1.9186e-06	1054.9	221.19	2.6999e-06	2.4349e-06	266.51	78.118	63.831	20.313	2.1061e-06	26.643	0.00046571	0.00085144	0.00023598	1036.7	8.632e-06	9.7063e-06	1075.2	226.22	8.1789e-06	9.3588e-06	274.37	81.426	66.426	21.263	8.2471e-06	27.999	225.496	274.214	284.809	179.270	333.675	315.054	179.277	185.799	283.817	359.103	185.658	191.303	191.659	197.102	292.766	197.785	-8191	255	
14557.743	1	1	0	0	0.028339	0.17679	0.35049	0.081779	0.27448	0.021118	0.29059	0.24859	0.11804	0.19053	0.24601	0.15404	0.13985	0.081229	0.37382	0.26734	-2.6104	-3.0229	-2.8688	-3.2646	-3.0542	-3.0271	-3.4417	-2.9854	-3.2625	-2.8854	-2.8708	-3.2833	-2.9604	-3.0229	-3.025	-2.9604	515.256	479.024	455.171	391.239	304.036	361.683	453.064	455.082	354.197	503.377	168.739	500.125	337.233	384.103	300.882	506.812	0.00025632	0.00024376	7.4023e-05	1016.9	2.9079e-06	2.7277e-06	1056.5	220.42	3.0718e-06	2.8475e-06	266.55	78.277	63.934	20.259	2.3448e-06	26.565	0.0004689	0.00084453	0.00023358	1034.3	8.3796e-06	1.0004e-05	1075.2	226.38	8.2961e-06	9.7012e-06	274.21	81.49	66.491	21.218	8.3414e-06	27.967	223.298	238.967	271.249	179.262	304.703	324.688	179.198	186.103	298.062	328.102	185.630	191.413	191.805	197.045	325.734	197.431	-8191	255	
14557.862	1	1	0	0	0.037222	0.12135	0.25691	0.10741	0.19318	0.19706	0.14486	0.12903	0.25814	0.13816	0.25739	0.13893	0.17118	0.15353	0.2733	0.020451	-2.7062	-2.9604	-2.8333	-3.3667	-3.0271	-3.1437	-3.25	-2.8396	-3.175	-3.4146	-2.8646	-3.0917	-2.975	-2.8979	-3.2208	-2.9646	406.791	321.764	473.385	201.218	201.571	196.473	462.811	443.657	303.832	332.110	525.992	451.211	340.654	215.507	308.604	508.038	0.00023319	0.00023652	8.9912e-05	1020.7	2.2597e-06	3.2702e-06	1055.7	220.63	2.5759e-06	3.0182e-06	266.33	78.351	64.012	20.312	3.3688e-06	26.845	0.00045458	0.0008438	0.00023598	1036.5	8.4373e-06	9.3962e-06	1075.8	226.24	8.2062e-06	9.1936e-06	274.42	81.572	66.585	21.316	8.4769e-06	28.187	224.940	271.494	237.800	179.392	307.128	327.221	179.299	185.791	302.011	321.720	185.863	191.422	191.677	197.320	303.705	197.244	-8191	255	
14557.958	1	1	0	0	0.17207	0.16167	0.15476	0.21788	0.15819	0.23035	0.1131	0.2264	0.25326	0.17196	0.15094	0.10965	0.10353	0.097934	0.19869	0.039799	-2.625	-3.0875	-2.7917	-3.2875	-3.1229	-2.975	-3.2146	-3	-3	-3.15	-3.1271	-3.0896	-2.9292	-2.8187	-3.0771	-2.7771	200.425	364.339	246.058	464.115	284.167	270.319	349.918	458.933	478.186	280.271	304.581	468.600	480.043	506.638	430.345	502.783	0.00024436	0.00032075	5.2288e-05	1023.1	2.3128e-06	3.4761e-06	1057.4	221.16	2.2013e-06	2.7735e-06	269.01	78.492	63.99	20.37	2.1353e-06	26.783	0.00046575	0.00085406	0.00023247	1039.4	8.6734e-06	9.693e-06	1078.6	227.52	8.2335e-06	9.4797e-06	276.2	81.85	66.834	21.409	8.6525e-06	28.176	224.033	263.687	273.962	179.242	318.660	319.451	179.181	186.125	317.992	319.005	185.838	191.174	191.374	197.307	326.538	197.315	-8191	255	
14558.055	1	1	0	0	0.25909	0.25966	0.31542	0.31666	0.24786	0.25988	0.14944	0.40956	0.12764	0.114	0.17256	0.18316	0.27807	0.14158	0.16073	0.19704	-2.4167	-3.05	-2.85	-3.1125	-2.9479	-2.9583	-3.3875	-2.9437	-2.8292	-2.9938	-2.9	-3.0792	-3.0083	-2.9458	-3.1958	-3.0167	216.217	222.499	224.666	502.066	299.509	393.122	178.847	433.882	486.685	385.351	209.639	460.255	474.455	378.084	192.814	247.751	0.00026329	0.00039467	0.00010694	1017.8	2.7587e-06	2.4216e-06	1059.1	220.96	3.0197e-06	3.4713e-06	265.96	78.698	63.766	20.365	3.7441e-06	26.68	0.00047527	0.0008416	0.00023303	1037.5	8.5644e-06	9.8072e-06	1077.6	226.66	8.156e-06	9.4282e-06	274.49	81.577	66.33	21.222	8.4769e-06	27.98	225.792	265.738	274.504	179.255	295.996	330.741	179.131	185.973	310.686	327.133	185.828	191.417	191.539	197.275	311.663	197.676	-8191	255	
14558.151	1	1	0	0	0.11602	0.17528	0.13782	0.31492	0.09956	0.1272	0.34452	0.19137	0.044161	0.10128	0.23168	0.16225	0.13081	0.15508	0.18392	0.1308	-2.4354	-3.1542	-2.8521	-3.1979	-3.1	-2.7042	-3.1667	-3.0458	-3.0062	-3.1312	-3.0021	-3.1688	-3.3021	-2.9	-3.2396	-3.0542	391.735	176.194	522.073	174.578	302.475	254.703	480.376	496.583	332.963	466.303	430.126	482.316	480.604	372.938	468.759	443.577	0.00024782	0.00027214	3.9073e-05	1019.6	3.4832e-06	3.4476e-06	1055.2	220.66	2.0921e-06	2.6928e-06	266.32	78.28	63.759	20.325	2.8285e-06	26.567	0.00048174	0.00086882	0.00024136	1036.8	8.3256e-06	1.0034e-05	1076.5	226.39	8.0899e-06	9.8735e-06	274.21	81.363	66.254	21.245	8.5993e-06	27.883	224.407	275.718	232.656	179.233	295.940	338.400	179.346	185.986	296.695	307.203	185.901	191.235	191.374	197.262	337.688	197.838	-8191	255	
14558.247	1	1	0	0	0.17533	0.0071709	0.07295	0.14784	0.11095	0.20074	0.24172	0.080094	0.041237	0.10275	0.25639	0.15106	0.29818	0.16459	0.23034	0.35143	-2.4833	-3.1083	-2.925	-2.9729	-3.1625	-2.9875	-3.2188	-3.075	-2.8479	-3.1396	-3.0021	-2.9021	-3.1833	-2.8917	-3.0917	-3	490.000	443.192	219.712	480.828	481.050	286.383	469.457	320.096	339.885	372.273	475.810	427.537	498.036	361.114	186.076	488.259	0.00023931	0.00028515	6.81e-05	1018.9	2.384e-06	2.6704e-06	1052.9	219.52	2.4805e-06	3.2051e-06	266.53	78.246	63.993	20.273	2.8109e-06	26.678	0.0004777	0.00087792	0.00024511	1036.1	8.44e-06	1.0111e-05	1075.9	225.92	8.4045e-06	9.3552e-06	274.53	81.454	66.386	21.179	8.8762e-06	27.939	226.474	263.563	254.255	179.291	318.903	336.899	179.041	185.966	328.488	329.385	185.844	191.371	191.644	197.626	308.432	197.531	-8191	255	
14558.343	1	1	0	0	0.16392	0.23273	0.10384	0.08509	0.11041	0.11883	0.12992	0.29089	0.086209	0.064631	0.28291	0.21298	0.080162	0.061949	0.084272	0.067403	-2.2188	-3.0896	-3.0375	-3.0708	-3.3	-2.8875	-3.3396	-3.1312	-2.9125	-3.1167	-2.9167	-2.9292	-3.1625	-2.9333	-2.9208	-3.0375	421.385	523.509	471.983	380.089	213.530	244.268	493.485	486.972	207.327	321.144	501.001	179.115	425.398	472.124	214.373	346.190	0.00024712	0.00033223	8.0354e-05	1023.3	3.2024e-06	2.3225e-06	1054.7	220.89	1.7318e-06	1.1791e-06	267.45	78.211	64.133	20.148	2.4791e-06	26.6	0.00047428	0.00088787	0.00025444	1038.2	8.4779e-06	1.0097e-05	1075.9	226.66	8.1833e-06	9.7945e-06	274.5	81.202	66.208	21.177	8.9133e-06	27.881	226.206	248.433	257.039	179.301	311.006	306.022	179.293	185.901	305.177	333.835	185.763	191.257	191.747	197.256	289.791	197.769	-8191	255	
14558.439	1	1	0	0	0.28016	0.17679	0.1262	0.15944	0.23792	0.17155	0.34435	0.18787	0.1785	0.22947	0.1139	0.043482	0.11454	0.081591	0.0267	0.14585	-2.4354	-2.925	-2.8771	-3.0021	-3.2125	-2.9896	-3.1917	-3.2104	-2.85	-3.2	-3.0333	-3.025	-3.1208	-2.9896	-2.8521	-3.1979	502.235	423.682	321.336	506.579	440.830	360.203	471.295	465.120	292.050	495.322	269.990	238.761	218.577	453.675	321.335	445.138	0.00023498	0.00013296	0.00010507	1020.9	2.1352e-06	4.1552e-06	1056.1	219.79	2.2584e-06	2.9544e-06	267.28	78.098	63.445	20.13	2.471e-06	26.46	0.00046866	0.00092806	0.00024911	1035	8.5337e-06	9.812e-06	1073.9	225.39	8.2767e-06	9.6533e-06	273.3	80.922	65.863	21.072	8.9043e-06	27.8	228.264	266.979	285.890	179.151	301.924	315.279	179.328	186.025	291.447	316.672	185.574	191.082	191.631	197.041	303.264	197.466	-8191	255	
14558.535	1	1	0	0	0.26252	0.34759	0.15987	0.25449	0.10787	0.091536	0.19701	0.39084	0.17564	0.14847	0.19132	0.16186	0.31084	0.11992	0.12568	0.055046	-2.4062	-3.2167	-3.0771	-2.9167	-3.0812	-2.8979	-3.1813	-3.2333	-2.9813	-3.0521	-3.1875	-2.9583	-3.1646	-2.9083	-3.2208	-3.1354	445.310	358.008	467.211	373.069	523.364	455.008	467.564	462.523	332.371	176.707	177.691	171.948	231.636	368.555	453.388	502.995	0.00023635	0.00027035	8.4568e-05	1015.6	2.9859e-06	1.9325e-06	1051.9	218.85	2.6118e-06	3.7908e-06	265.38	77.903	63.331	20.127	2.6374e-06	26.476	0.00046393	0.00088818	0.00023961	1032.2	8.3355e-06	1.0049e-05	1071.4	224.88	8.3877e-06	9.7478e-06	272.92	80.923	65.819	21.081	8.6053e-06	27.798	225.820	276.154	270.821	179.114	322.061	319.963	179.267	186.159	303.935	334.205	185.718	191.495	191.784	197.440	302.873	197.863	-8191	255	
14558.654	1	1	0	0	0.093966	0.26491	0.27505	0.054613	0.027704	0.12139	0.090105	0.29822	0.26367	0.11024	0.50995	0.1699	0.19303	0.19908	0.16391	0.1614	-2.3708	-3.0312	-3.0542	-2.9562	-3.2167	-2.9729	-2.8875	-3.1708	-2.7729	-3.1375	-3.2396	-2.8	-3.1562	-3.2771	-2.8667	-3.2396	311.197	253.346	473.211	412.040	194.531	513.898	424.785	444.694	446.029	330.417	470.522	452.672	469.456	332.278	316.409	198.227	0.00023512	0.00035576	8.4678e-05	1012.4	2.1912e-06	2.7527e-06	1044.2	217.84	2.0785e-06	3.3032e-06	265.3	77.616	63.348	20.085	2.5383e-06	26.36	0.00045989	0.0008663	0.00024063	1028.4	8.5743e-06	9.7627e-06	1066.5	224.05	7.9119e-06	9.8927e-06	272.35	80.703	65.832	21.039	8.7929e-06	27.769	229.430	278.004	254.692	179.435	307.407	299.775	179.305	185.940	303.442	308.952	185.769	191.159	191.759	197.385	325.970	197.759	-8191	255	
14558.728	1	1	0	0	0.10992	0.11891	0.063383	0.27367	0.19311	0.093877	0.16281	0.19449	0.14432	0.12126	0.14749	0.0073906	0.1802	0.10721	0.011232	0.19698	-2.4146	-3.0104	-2.9542	-3.1021	-3.1854	-3.0396	-3.0292	-3.3479	-2.8417	-3.1229	-3.2333	-2.8063	-3.1333	-3.1417	-2.7042	-3.1625	413.607	474.860	474.088	175.001	186.201	496.984	433.383	487.340	427.777	413.737	457.050	238.261	205.420	247.801	442.125	349.900	0.00023677	0.00041048	6.3983e-05	1007.5	4.6354e-06	2.607e-06	1045.4	217.59	2.8572e-06	2.3388e-06	264.8	77.445	63.043	19.999	2.955e-06	26.255	0.00046041	0.00086934	0.00024174	1025.7	8.6653e-06	1.0046e-05	1065.3	223.56	8.1833e-06	9.8017e-06	271.56	80.532	65.504	20.949	8.9284e-06	27.625	227.205	243.306	283.290	179.242	307.652	311.721	179.318	186.061	312.297	337.333	185.595	191.873	191.820	197.294	313.009	197.736	-8191	255	
14558.824	1	1	0	0	0.087363	0.19139	0.14882	0.26895	0.18428	0.2835	0.36709	0.1742	0.048316	0.10202	0.11028	0.29875	0.0065285	0.10136	0.12368	0.11762	-2.5	-2.8438	-3.1479	-3.0854	-3.0125	-3.0958	-3.1521	-3.2146	-2.8521	-3.0646	-3.1771	-2.9542	-3.1375	-3.0771	-2.7229	-3.2771	276.828	224.896	256.037	424.221	376.966	449.229	449.711	394.586	406.016	334.085	487.683	439.201	416.693	349.576	459.696	345.077	0.00024109	0.00028009	5.8472e-05	1002.5	2.1232e-06	2.6523e-06	1045.9	216.68	2.6339e-06	2.6159e-06	263.2	77.111	62.797	20.011	3.3612e-06	26.318	0.00046301	0.00090818	0.00024601	1020.5	8.5454e-06	9.5993e-06	1062.8	222.53	8.3983e-06	9.9944e-06	270.27	80.284	65.32	20.926	8.813e-06	27.658	224.937	258.869	284.996	179.511	305.836	294.645	179.243	185.959	304.420	298.704	185.859	191.465	191.529	197.539	320.154	198.021	-8191	255	
14558.943	1	1	0	0	0.063321	0.23818	0.28101	0.21513	0.050229	0.13107	0.19862	0.28615	0.37905	0.13994	0.045942	0.057836	0.14008	0.16954	0.32583	0.16419	-2.625	-2.9271	-3.0854	-2.9583	-3.0646	-3.0271	-2.9083	-3.2708	-2.9917	-2.9542	-3.3667	-3.0729	-2.9271	-3.0646	-2.8937	-3.2521	210.065	477.535	256.263	525.505	438.479	476.809	389.261	468.027	474.124	320.023	495.183	206.739	191.990	227.589	307.827	219.865	0.00023269	0.00031799	6.2227e-05	1001.3	2.7142e-06	2.3305e-06	1035.4	216.28	2.7817e-06	2.2349e-06	261.59	77.16	62.606	19.842	2.5328e-06	26.196	0.00048085	0.00089101	0.00023964	1020.2	8.6734e-06	9.7471e-06	1057.3	221.63	8.0538e-06	9.9106e-06	269.16	80.041	64.933	20.751	8.9565e-06	27.481	223.428	244.939	216.816	179.125	293.553	333.004	179.359	186.061	297.036	324.926	185.765	191.484	191.975	197.733	295.812	197.442	-8191	255	
14559.039	1	1	0	0	0.028246	0.073434	0.080772	0.058958	0.12265	0.133	0.28811	0.17336	0.25139	0.057247	0.21575	0.10245	0.020206	0.14619	0.20117	0.12806	-2.7042	-2.7458	-2.9729	-3.0187	-3.0021	-3.2604	-3.1375	-3.2104	-2.9667	-2.9896	-3.3646	-3.0146	-2.9646	-3.325	-2.9542	-3.0208	426.651	521.066	443.532	233.861	471.859	523.788	490.958	168.168	355.007	395.740	383.322	181.830	172.916	431.874	413.039	285.228	0.00022108	0.00027088	9.1503e-05	995.25	2.1483e-06	3.7401e-06	1030	215.21	2.6426e-06	2.0767e-06	260.96	76.02	62.376	19.815	1.7954e-06	26.149	0.00045421	0.00088242	0.00023402	1013.9	8.6581e-06	9.7832e-06	1052.8	220.9	8.2802e-06	1.0016e-05	268.6	79.764	64.912	20.756	8.2813e-06	27.473	226.711	269.458	244.341	179.520	296.153	324.941	179.204	186.047	322.067	306.268	185.740	191.556	192.040	197.617	288.854	197.994	-8191	255	
14559.135	1	1	0	0	0.12518	0.13067	0.075108	0.27289	0.043416	0.21392	0.21209	0.078193	0.19225	0.11598	0.035113	0.1523	0.11008	0.30394	0.36039	0.2103	-2.7229	-2.7938	-3.1875	-3.2208	-2.9313	-3.1604	-3.0417	-3.0625	-2.8396	-2.8458	-3.1583	-2.9771	-2.9542	-3.1937	-2.8375	-2.9729	331.199	440.048	280.943	218.510	425.063	524.324	452.231	170.982	191.710	523.351	429.970	192.152	474.748	527.389	306.104	381.703	0.00023976	0.00033638	9.419e-05	998.03	3.306e-06	3.4236e-06	1035.6	216.1	2.6636e-06	3.2621e-06	261.32	76.503	62.552	19.838	2.2261e-06	26.168	0.00045626	0.00086976	0.00022627	1015.4	8.2517e-06	9.3361e-06	1054.8	221.79	7.9252e-06	9.919e-06	269.6	79.936	64.881	20.739	8.808e-06	27.476	226.901	264.801	270.206	179.118	304.298	349.642	179.432	186.107	291.196	332.789	185.820	191.774	191.696	197.674	321.929	197.734	-8191	255	
14559.256	1	1	0	0	0.17265	0.33148	0.1463	0.17771	0.10216	0.1189	0.13265	0.027577	0.15382	0.21678	0.11553	0.17419	0.14516	0.26616	0.15959	0.092704	-2.6333	-2.7854	-3.1188	-3.1688	-2.8521	-3.2479	-3.0646	-2.9521	-3.0542	-2.8688	-3.1875	-3.075	-3.0146	-3.3146	-2.975	-2.9542	271.704	346.044	445.978	514.240	257.790	314.395	248.550	401.804	203.845	362.014	389.101	205.783	446.449	507.694	439.521	283.070	0.0002483	0.00030261	7.996e-05	996.22	2.2136e-06	2.2524e-06	1031.9	214.66	2.2359e-06	3.2846e-06	261.45	76.621	62.519	19.803	2.0347e-06	26.097	0.00045794	0.00086463	0.00024294	1014	8.6076e-06	9.389e-06	1052	220.64	8.082e-06	1.0014e-05	268.92	79.776	64.798	20.697	8.5431e-06	27.46	221.447	260.351	272.202	179.376	277.695	321.892	179.327	186.204	306.143	328.449	185.699	191.447	191.956	197.428	312.907	197.577	-8191	255	
14559.352	1	1	0	0	0.14094	0.16358	0.14393	0.0073667	0.36806	0.20242	0.17747	0.33817	0.044346	0.23172	0.21387	0.20847	0.29319	0.23737	0.033226	0.089608	-2.7	-2.7625	-3.1688	-3.1208	-2.7375	-3.1729	-3.0729	-3.025	-3.1271	-2.925	-3.0708	-3.0938	-2.7125	-3.0958	-3.0917	-2.9042	175.054	288.728	205.802	433.315	340.270	222.948	445.440	475.335	329.231	424.414	375.521	382.456	520.278	228.895	479.218	223.246	0.00025036	0.00041199	0.00013602	996.38	2.1512e-06	2.1131e-06	1028.8	215.41	2.9169e-06	3.9996e-06	260.46	76.889	62.177	19.78	2.4619e-06	26.081	0.00046506	0.00087573	0.00023943	1013.9	8.6094e-06	9.9394e-06	1051.8	220.92	7.9868e-06	1.0087e-05	268.14	79.79	64.783	20.725	8.7006e-06	27.449	226.197	242.348	264.710	179.341	337.071	326.340	179.311	186.206	293.672	322.760	185.974	191.431	191.723	197.166	327.200	197.682	-8191	255	
14559.423	1	1	0	0	0.21944	0.11508	0.13012	0.12507	0.15711	0.073262	0.094263	0.15088	0.17097	0.21059	0.12821	0.057724	0.083203	0.24507	0.11505	0.28583	-2.6521	-2.9646	-3.0021	-3.1063	-2.7083	-2.9437	-3.0979	-2.9396	-3.2313	-2.9458	-3.0854	-3.0854	-2.7958	-3.1104	-3.0146	-2.9146	356.446	326.184	236.840	474.227	212.163	447.781	404.245	479.603	447.316	464.031	229.784	390.035	475.836	505.183	479.710	478.013	0.00026454	0.0003609	6.6688e-05	993.5	2.8548e-06	2.7414e-06	1030.9	215.01	2.6164e-06	2.5228e-06	259.86	75.974	62.285	19.72	2.2248e-06	26.132	0.00047116	0.00089206	0.00024704	1010.3	8.322e-06	9.5608e-06	1049.8	220.15	8.3278e-06	1.063e-05	267.95	79.583	64.549	20.648	8.6555e-06	27.404	227.133	267.074	249.939	179.296	321.519	317.812	179.306	185.946	301.780	303.069	185.869	191.912	191.653	197.643	323.896	197.765	-8191	255	
14559.544	1	1	0	0	0.21345	0.030279	0.12786	0.13122	0.05402	0.11929	0.2326	0.10852	0.13039	0.27037	0.073583	0.019372	0.043502	0.30593	0.21528	0.16604	-2.6833	-2.8542	-2.9771	-3.1937	-2.7042	-3.1125	-3.1688	-2.8479	-3.225	-2.9021	-3.0354	-3.1896	-2.9562	-2.9667	-3.0917	-2.8125	229.134	244.534	516.788	171.874	349.274	362.635	514.384	300.069	396.851	407.940	518.944	219.308	405.933	316.806	478.043	516.697	0.00023374	0.00028951	9.2647e-05	992.33	2.2315e-06	2.7869e-06	1027.3	214.4	2.043e-06	3.538e-06	261.07	76.333	62.309	19.606	2.1341e-06	26.083	0.00046171	0.00089771	0.00025491	1009.7	8.6878e-06	1.0014e-05	1048.2	219.87	8.3983e-06	1.0127e-05	267.84	79.373	64.525	20.541	8.817e-06	27.307	226.191	241.916	270.145	179.258	334.120	295.921	179.437	186.110	297.769	325.533	185.811	191.648	191.762	197.607	318.875	197.764	-8191	255	
14559.638	1	1	0	0	0.079541	0.15845	0.32725	0.10034	0.090179	0.2112	0.083694	0.32186	0.11753	0.16899	0.16137	0.22243	0.11631	0.1876	0.14928	0.12738	-2.7771	-2.9917	-2.9229	-3.3021	-2.7333	-2.975	-3.1	-3.0938	-3.0875	-3.0375	-2.9854	-3.1604	-2.9313	-3.0458	-3.2104	-2.7625	401.765	375.352	360.884	233.937	280.845	267.245	443.298	470.867	205.023	449.362	294.139	477.745	275.457	493.018	396.528	430.036	0.00023449	0.00028501	9.78e-05	987.87	3.1847e-06	3.4134e-06	1025.9	214.79	1.968e-06	2.337e-06	261.15	76.669	62.338	19.92	2.367e-06	26.169	0.00046177	0.00088965	0.00024622	1007	8.9636e-06	1.0248e-05	1047.2	220	8.1313e-06	1.0272e-05	267.99	79.766	64.757	20.776	8.8e-06	27.5	225.982	285.044	254.339	179.236	299.322	321.270	179.316	186.146	308.008	310.924	185.902	191.357	191.903	197.339	301.962	197.781	-8191	255	
14559.735	1	1	0	0	0.079861	0.15169	0.11754	0.17798	0.10188	0.14481	0.14188	0.379	0.12087	0.21413	0.071213	0.13759	0.22215	0.10904	0.15625	0.19088	-2.6833	-2.9562	-2.7854	-3.2604	-2.9458	-3.2438	-3.3354	-2.9188	-3.1417	-3.0375	-2.7104	-3.0229	-2.8229	-3.0604	-3.0083	-3.0583	526.218	433.040	490.530	407.147	353.889	213.736	404.501	485.409	438.629	343.968	497.507	368.366	435.036	309.834	468.767	518.031	0.00025057	0.0002764	8.2932e-05	995.7	3.0948e-06	3.2258e-06	1033.3	217.43	2.6551e-06	2.8136e-06	264.09	77.776	63.589	20.162	1.8803e-06	26.503	0.00046592	0.00089383	0.00024677	1014.5	8.8969e-06	9.5993e-06	1056.6	222.78	8.2512e-06	9.6856e-06	271.01	80.798	65.799	21.099	8.6675e-06	27.85	228.326	261.957	251.118	179.458	321.425	312.238	179.451	185.994	304.462	306.428	185.798	191.617	191.548	197.286	371.887	197.337	-8191	255	
14559.831	1	1	0	0	0.14391	0.36965	0.16074	0.34972	0.3123	0.13145	0.13007	0.15601	0.30079	0.20915	0.023014	0.26094	0.13094	0.077731	0.10335	0.1114	-2.6292	-2.9646	-2.7229	-3.3458	-2.9396	-3.0521	-3.1792	-2.9417	-3.0875	-2.9958	-2.9583	-3.3104	-2.8625	-3.1042	-2.9271	-2.8063	468.397	477.864	313.484	492.832	312.980	303.397	467.290	178.329	355.520	395.567	225.963	286.750	444.142	372.697	346.311	454.719	0.00023887	0.00030708	6.8767e-05	1012.6	2.9575e-06	2.2279e-06	1043.4	219.57	3.4382e-06	1.9497e-06	264.48	77.823	63.962	20.384	2.8674e-06	26.629	0.00045448	0.00089739	0.00024435	1027.1	8.4013e-06	9.9863e-06	1064.6	225.01	8.0855e-06	9.6293e-06	272.84	81.159	66.355	21.327	8.8762e-06	27.985	227.715	273.023	265.922	179.239	302.040	320.353	179.320	186.023	297.881	350.786	185.806	191.246	191.727	197.332	293.737	197.694	-8191	255	
14559.951	1	1	0	0	0.087644	0.081825	0.17285	0.24326	0.079617	0.10133	0.30955	0.10159	0.097048	0.090081	0.23055	0.20279	0.12336	0.064861	0.12316	0.068752	-2.6813	-3.0542	-2.8104	-3.2396	-3.0187	-3.0062	-3.4229	-3.0875	-2.9646	-3.0583	-3.1063	-3.0292	-2.85	-3.0312	-3.2875	-2.9771	464.351	268.992	504.909	444.454	330.743	463.890	478.791	498.422	431.461	461.921	500.671	222.895	448.654	363.027	526.698	260.081	0.00025216	0.00023251	9.192e-05	1008.2	2.6545e-06	2.1489e-06	1046.1	219.66	2.8436e-06	2.1393e-06	266.18	78.381	63.781	20.359	2.0383e-06	26.722	0.00047496	0.00088839	0.00024774	1026.4	8.6734e-06	1.0252e-05	1066.2	225.08	8.378e-06	1.0123e-05	273.26	81.415	66.184	21.344	9.0137e-06	28.083	227.176	251.947	280.919	179.265	317.774	299.174	179.203	185.931	329.219	337.684	185.650	191.172	191.486	197.003	301.453	197.418	-8191	255	
14560.023	1	1	0	0	0.26002	0.14388	0.18034	0.029173	0.053508	0.1336	0.35197	0.21672	0.062632	0.15873	0.081463	0.11021	0.068231	0.09553	0.19855	0.08894	-2.8854	-2.9729	-2.8167	-3.1271	-2.975	-3.1312	-3.3917	-2.8917	-3.1854	-3.3438	-3.0167	-3.0958	-3.0229	-2.8667	-3.1375	-2.9604	399.245	479.920	435.573	404.840	516.677	271.596	455.728	177.751	283.842	342.178	281.611	223.294	395.922	262.219	515.709	328.015	0.00023698	0.00019675	6.8399e-05	1014.7	2.2271e-06	3.9017e-06	1043.2	219.44	2.3916e-06	2.3668e-06	265.92	78.181	63.891	20.327	2.5421e-06	26.835	0.00047708	0.00089321	0.00024882	1028.6	8.4283e-06	1.0477e-05	1065.2	225.07	8.3736e-06	1.004e-05	272.77	81.28	66.31	21.308	8.5491e-06	28.022	225.931	305.200	257.288	179.282	308.734	308.260	179.260	185.976	307.417	328.322	185.764	191.542	191.596	197.437	309.979	197.383	-8191	255	
14560.119	1	1	0	0	0.083551	0.17462	0.095189	0.31904	0.31291	0.17015	0.23517	0.094572	0.21919	0.091544	0.2512	0.31013	0.23439	0.084262	0.13686	0.077834	-2.4813	-3.0312	-2.9583	-3.1937	-3.025	-2.9375	-3.1708	-2.9604	-2.9375	-3.3187	-2.9062	-3.1312	-2.9521	-2.8167	-3.1437	-2.9792	459.211	211.847	300.374	518.138	296.101	216.122	445.858	237.890	216.215	196.811	232.982	484.512	203.916	521.223	375.037	281.632	0.00025595	0.00034456	4.2409e-05	1007.6	2.3576e-06	4.5751e-06	1046.8	219.4	2.2946e-06	4.536e-06	265.19	78.106	64.07	20.381	2.4657e-06	26.655	0.0004765	0.00085249	0.00024625	1027.5	8.7716e-06	1.0026e-05	1067.3	224.97	8.4371e-06	9.7407e-06	272.98	81.327	66.388	21.361	8.8511e-06	28.045	226.744	262.942	262.441	179.351	340.045	321.303	179.354	185.972	298.266	317.903	185.741	191.318	192.030	197.187	309.652	197.423	-8191	255	
14560.215	1	1	0	0	0.21338	0.33672	0.20451	0.12315	0.18228	0.17624	0.28535	0.2087	0.15517	0.17775	0.18903	0.055432	0.29222	0.30453	0.22857	0.14414	-2.4542	-3.0854	-2.6688	-3.125	-3.0396	-2.7792	-3.3771	-3.0563	-2.7625	-3.0812	-2.8771	-2.9958	-3.1917	-2.8771	-3.2229	-2.9854	266.722	346.905	327.923	177.764	288.670	475.048	448.108	191.389	262.266	474.128	445.003	362.213	186.606	326.925	227.778	455.518	0.00023822	0.00027388	5.6511e-05	1009.9	3.2891e-06	3.1631e-06	1048	220.13	2.2232e-06	2.813e-06	266.79	77.969	63.972	20.562	3.4012e-06	26.793	0.00046869	0.00084872	0.0002468	1027.7	8.3256e-06	1.0157e-05	1068.8	225.86	8.356e-06	9.6174e-06	273.91	81.332	66.496	21.471	8.7006e-06	28.137	224.624	267.610	238.811	179.357	296.858	324.852	179.368	185.991	303.915	315.363	185.724	191.637	191.797	197.124	305.818	197.420	-8191	255	
14560.336	1	1	0	0	0.084001	0.14139	0.14178	0.11669	0.17416	0.084313	0.30656	0.10739	0.41522	0.13802	0.20766	0.12127	0.072793	0.04417	0.22955	0.1714	-2.5	-3.1229	-2.7375	-2.8896	-3.1771	-2.8521	-3.0938	-3.2146	-2.8833	-3.2083	-2.9604	-2.9479	-3.1042	-2.825	-3.1	-3.0729	178.311	448.696	229.646	347.399	521.329	428.823	446.234	450.967	310.130	179.266	527.627	487.616	197.509	466.180	461.479	443.421	0.00024358	0.00025682	8.9724e-05	1011.1	2.9404e-06	2.4972e-06	1049.9	219.83	2.1465e-06	3.6155e-06	266.13	78.816	64.339	20.445	2.6033e-06	26.62	0.00048366	0.00084192	0.00024502	1030.2	8.5238e-06	9.9923e-06	1071.9	225.94	8.5798e-06	9.6521e-06	274.1	81.717	66.665	21.426	8.5953e-06	28.104	226.374	272.401	269.023	179.315	314.621	323.822	179.142	185.880	316.347	311.197	185.712	191.337	191.561	197.148	287.209	197.384	-8191	255	
14560.432	1	1	0	0	0.40728	0.29223	0.21067	0.10722	0.011604	0.22432	0.23981	0.32474	0.025009	0.25792	0.20712	0.071581	0.086422	0.36863	0.16691	0.20454	-2.3771	-3.1437	-2.5938	-3.0583	-3.3417	-2.8958	-3.2583	-3.15	-2.8833	-3.1458	-2.9542	-2.8292	-3.1271	-2.8896	-2.8896	-3.1604	289.233	186.105	231.647	478.083	238.898	303.788	410.167	505.940	422.889	295.725	345.879	245.002	195.410	485.361	353.090	258.122	0.00024618	0.00030028	5.9268e-05	1013.9	1.9856e-06	3.3712e-06	1049.7	219.85	2.4566e-06	3.4385e-06	267.07	78.261	63.933	20.419	2.6992e-06	26.578	0.00048058	0.00083804	0.00024227	1031.1	8.3039e-06	1.0032e-05	1069.9	225.65	8.467e-06	9.7658e-06	274.04	81.515	66.353	21.361	8.7347e-06	28.04	227.215	267.724	251.461	179.447	272.710	346.895	179.372	186.072	294.177	339.359	185.947	191.677	191.773	197.001	314.210	197.368	-8191	255	
14560.528	1	1	0	0	0.21046	0.027451	0.029757	0.22576	0.058713	0.11037	0.15599	0.12122	0.1297	0.10638	0.10375	0.073054	0.11842	0.17338	0.077587	0.18156	-2.4125	-3.1708	-3.0563	-3.2271	-3.1458	-2.8729	-3.1542	-3.2	-2.9229	-3.1813	-3.1375	-2.9437	-3.1229	-2.9208	-2.9958	-3.2667	172.805	172.191	474.867	464.050	484.626	357.970	215.936	411.372	221.507	309.574	508.889	200.615	208.307	420.817	306.124	417.511	0.00023276	0.00021567	5.4752e-05	1010.8	1.9803e-06	2.8292e-06	1048.8	220.51	1.937e-06	4.0404e-06	265.78	77.988	63.848	20.448	2.7296e-06	26.644	0.00047688	0.00086076	0.00023885	1029	8.2436e-06	9.9586e-06	1069.9	225.43	8.3181e-06	9.937e-06	273.53	81.135	66.305	21.301	8.7207e-06	27.999	228.032	261.392	275.117	179.024	299.402	316.658	179.416	185.870	295.927	318.766	185.697	191.726	191.710	196.939	328.541	197.799	-8191	255	
14560.624	1	1	0	0	0.49088	0.19181	0.33211	0.19078	0.27987	0.04226	0.06038	0.15757	0.15804	0.17454	0.05461	0.18699	0.091252	0.12866	0.057524	0.16129	-2.3937	-2.9917	-2.9771	-2.9167	-3.1979	-2.9896	-2.9646	-3.2729	-2.8688	-3.1813	-3.0438	-2.8937	-3.0583	-2.9188	-2.9625	-3.2792	354.003	277.452	421.086	400.500	450.160	188.260	512.992	459.057	197.551	299.712	171.181	221.614	203.707	180.266	233.217	392.680	0.00023541	0.00034082	7.2724e-05	1009.1	2.5899e-06	2.8405e-06	1043.6	218.63	2.5746e-06	4.0176e-06	265.7	77.648	63.429	20.241	2.3946e-06	26.439	0.00047054	0.0008909	0.00023069	1026.6	8.2183e-06	1.0279e-05	1065.2	224.67	8.5983e-06	9.5048e-06	272.77	80.979	65.84	21.192	8.7016e-06	27.806	224.058	251.936	268.862	179.271	280.552	318.281	179.238	186.030	301.282	320.638	185.811	191.566	191.579	196.954	302.610	197.877	-8191	255	
14560.719	1	1	0	0	0.26226	0.27701	0.16173	0.093825	0.12966	0.097895	0.010012	0.12484	0.17759	0.183	0.12422	0.14039	0.14641	0.13051	0.17745	0.17482	-2.2854	-3.1125	-2.9813	-2.9479	-3.1854	-2.9188	-3.0771	-3.2687	-2.9521	-2.9979	-3.1208	-2.8229	-3.125	-3.0125	-2.7646	-3.0687	406.992	235.186	457.245	181.906	195.212	204.669	431.407	517.895	336.594	441.440	240.064	481.761	436.775	478.792	513.460	333.166	0.00024316	0.00022447	8.6964e-05	1006.8	1.6507e-06	1.9925e-06	1044.5	218.32	2.5186e-06	2.2678e-06	265.06	77.703	63.333	20.133	1.7001e-06	26.473	0.00047715	0.00087143	0.0002425	1025.7	8.3922e-06	9.8529e-06	1064.8	223.97	8.156e-06	9.5611e-06	272.26	80.79	65.649	21.054	9.0949e-06	27.728	226.888	257.701	256.910	179.401	333.538	304.005	179.463	186.081	295.274	344.882	185.871	191.633	191.858	197.279	327.085	197.709	-8191	255	
14560.817	1	1	0	0	0.28594	0.099508	0.21581	0.16796	0.30398	0.22541	0.23115	0.20336	0.16386	0.08155	0.28022	0.24302	0.22347	0.082249	0.16759	0.049616	-2.5333	-2.9979	-3.0938	-3.0646	-3.1583	-3.1583	-3.0792	-3.4188	-3.0146	-3.0354	-3.1271	-2.9021	-3.2896	-3.0771	-2.9292	-3.1188	464.361	222.458	371.481	473.712	446.782	185.764	460.354	208.988	198.903	442.106	501.727	488.339	510.132	334.423	236.724	318.149	0.00025443	0.00026568	6.6451e-05	1004.3	3.2556e-06	3.0807e-06	1041	218.35	2.4502e-06	2.7248e-06	263.13	77.69	63.319	20.022	2.6274e-06	26.395	0.00046832	0.00087824	0.00022882	1022.6	8.3066e-06	9.836e-06	1062	223.36	8.2071e-06	9.7203e-06	270.96	80.549	65.454	20.901	8.5642e-06	27.629	223.518	263.435	277.973	179.570	289.071	321.138	179.270	186.065	309.188	317.947	185.655	191.723	191.901	197.459	319.814	197.577	-8191	255	
14560.936	1	1	0	0	0.1172	0.18741	0.14577	0.18533	0.13952	0.11045	0.22449	0.21239	0.32623	0.36298	0.13837	0.14897	0.20808	0.092995	0.12256	0.11193	-2.5104	-2.9667	-3.1625	-3.0479	-3.1625	-3.0417	-3.0458	-3.2542	-2.8292	-2.975	-3.4229	-3.0208	-3.05	-3.1583	-2.9146	-3.225	215.131	243.748	505.988	466.959	173.583	444.855	464.510	513.454	290.985	273.692	425.768	283.163	366.615	505.642	502.072	466.679	0.00023972	0.00039845	0.0001035	1004.6	1.8545e-06	2.0737e-06	1039.5	217.45	3.1723e-06	2.724e-06	263.71	77.194	62.55	19.908	2.1504e-06	26.257	0.00046205	0.00088431	0.00023668	1021.5	8.1724e-06	9.514e-06	1059.2	222.75	8.2415e-06	9.6593e-06	270.86	80.193	65.203	20.841	8.8933e-06	27.49	225.302	270.254	279.413	179.116	328.315	335.677	179.054	186.177	297.010	331.255	185.722	191.443	192.065	197.347	298.811	197.874	-8191	255	
14561.032	1	1	0	0	0.19345	0.22457	0.26363	0.1914	0.036715	0.3175	0.3194	0.19671	0.08618	0.15586	0.12397	0.21081	0.14956	0.13718	0.046421	0.20591	-2.4354	-2.8583	-3.2521	-3.0563	-2.8896	-3.1646	-2.9083	-3.3146	-2.7479	-2.9958	-3.1854	-2.8937	-3.0354	-3.0542	-3.0583	-3.2333	472.563	221.292	470.351	505.148	236.815	364.131	452.265	444.495	467.255	180.148	361.564	447.210	489.932	393.938	408.881	457.305	0.00025633	0.00021154	5.6664e-05	1004.9	2.828e-06	2.6277e-06	1040.8	216.53	3.2888e-06	3.6026e-06	262.01	76.869	62.809	19.885	1.0775e-06	26.166	0.00046818	0.00087531	0.00023747	1020.3	8.3229e-06	9.7519e-06	1059	222.64	8.0053e-06	1.0281e-05	269.49	80.09	65.198	20.833	8.497e-06	27.519	227.630	253.639	261.114	179.463	303.081	325.349	179.299	186.029	306.892	286.464	185.842	191.541	192.051	197.600	288.508	197.956	-8191	255	
14561.128	1	1	0	0	0.047794	0.15897	0.027098	0.2715	0.23139	0.15368	0.15253	0.090757	0.098901	0.1993	0.12624	0.013378	0.090734	0.084625	0.085551	0.13655	-2.375	-2.9271	-3.0125	-2.8833	-2.825	-3.1042	-2.9396	-3.0667	-3.0375	-2.8083	-3.2938	-2.9542	-2.9708	-3.0271	-2.9083	-3.1771	169.775	274.023	201.397	467.946	263.683	330.768	428.004	185.892	481.029	260.797	172.414	385.730	357.211	418.258	455.874	436.897	0.00022965	0.00025477	9.4464e-05	1002.5	2.6929e-06	2.9541e-06	1038.8	218.06	2.6731e-06	2.1954e-06	262.98	76.758	62.614	19.918	2.7173e-06	26.212	0.00046801	0.00084516	0.00023999	1020.4	8.322e-06	9.7027e-06	1058.8	222.95	8.2661e-06	9.8472e-06	270.79	80.155	65.256	20.819	8.799e-06	27.541	228.245	250.264	258.744	179.393	299.664	316.916	179.437	186.163	306.789	290.544	185.901	191.580	191.625	197.442	288.728	197.885	-8191	255	
14561.224	1	1	0	0	0.034822	0.1974	0.052225	0.14241	0.079005	0.074428	0.23546	0.19947	0.23138	0.22224	0.18735	0.13498	0.19037	0.20523	0.13468	0.15906	-2.6021	-2.8458	-3.2542	-3.1125	-2.9437	-3.1542	-2.9375	-3.1312	-2.9458	-2.8646	-3.2083	-3.1708	-2.9792	-3.0167	-2.8812	-3.2583	268.451	230.522	483.604	461.348	221.636	457.755	400.192	186.684	311.731	502.935	519.491	252.187	359.981	449.118	394.496	379.530	0.00022061	0.00023949	9.2293e-05	1001.6	3.748e-06	2.7972e-06	1037.8	217.42	2.8866e-06	1.2275e-06	263.92	77.584	62.679	19.948	2.5199e-06	26.409	0.00045143	0.00086903	0.00023528	1021.4	8.4616e-06	9.1078e-06	1060.4	223.25	8.0934e-06	9.9298e-06	271.35	80.398	65.406	20.885	8.4558e-06	27.59	227.338	234.682	279.754	179.438	292.583	357.954	179.166	186.220	295.458	345.371	185.685	191.715	191.687	197.603	319.584	197.800	-8191	255	
14561.320	1	1	0	0	0.19543	0.076513	0.1378	0.049515	0.28933	0.17926	0.33336	0.13306	0.045175	0.17416	0.17361	0.33757	0.34671	0.09481	0.085707	0.23799	-2.6188	-2.9479	-2.9396	-3.0687	-2.9667	-3.2646	-3.0458	-2.9417	-3.0167	-2.9625	-3.0896	-3	-2.8271	-3.1312	-3.025	-3.1063	467.508	329.417	194.795	476.104	433.049	473.133	466.443	513.053	190.045	512.885	205.730	247.868	271.510	381.393	286.183	479.641	0.0002436	0.00033969	8.6525e-05	1007.7	2.1892e-06	2.2809e-06	1046.3	218.64	2.4911e-06	2.3867e-06	266.5	77.583	63.474	20.085	2.4136e-06	26.457	0.00045451	0.00085259	0.00024198	1024.7	8.3499e-06	9.3373e-06	1065.2	224.16	8.0186e-06	9.6413e-06	272.61	80.626	65.747	20.962	8.6976e-06	27.723	225.399	261.291	253.890	179.279	303.269	300.278	179.327	185.903	283.884	352.385	185.613	191.511	191.560	197.555	310.558	197.489	-8191	255	
14561.416	1	1	0	0	0.40349	0.28306	0.21888	0.42439	0.2856	0.18773	0.094841	0.17935	0.23594	0.034814	0.1486	0.075085	0.20825	0.24414	0.27364	0.048413	-2.7146	-2.8208	-3.0354	-3.2438	-2.7521	-3.2646	-3.0917	-2.9958	-3.2208	-2.8688	-3.1917	-3.0812	-3.0792	-3.225	-3.0625	-2.8854	442.804	509.139	184.676	486.976	350.667	515.664	443.997	501.104	482.535	294.812	177.136	449.330	527.898	481.379	508.393	286.375	0.00023411	0.00037134	7.032e-05	1012.4	2.2777e-06	2.799e-06	1042.2	218.93	1.9516e-06	2.854e-06	264.34	78.23	63.382	20.115	9.0447e-07	26.391	0.0004478	0.00085961	0.00023189	1027.5	8.1246e-06	9.4094e-06	1066.4	224.49	7.6626e-06	9.8233e-06	272.61	81.004	65.967	21.079	8.3946e-06	27.815	225.039	288.583	260.633	179.231	311.193	316.132	179.262	186.072	299.337	322.107	185.626	191.518	191.583	197.242	306.500	197.402	-8191	255	
14561.513	1	1	0	0	0.19787	0.10083	0.23121	0.32307	0.25574	0.39327	0.19001	0.043773	0.27001	0.10309	0.18105	0.054149	0.07937	0.26978	0.12096	0.081391	-2.7375	-2.9542	-3.125	-3.0187	-2.9083	-3.0146	-3.0479	-3.1917	-3.1792	-2.8875	-3.1125	-3.2646	-2.9104	-3.1583	-3.1354	-3.0604	274.862	408.374	329.733	482.785	428.915	204.621	430.258	505.932	274.047	258.008	168.962	445.552	235.363	439.148	480.105	333.845	0.00025147	0.00027976	5.519e-05	1012.8	2.6922e-06	3.0307e-06	1048.9	219.06	2.701e-06	2.2252e-06	265.31	77.621	63.72	20.133	3.2432e-06	26.549	0.00044835	0.00087217	0.00022677	1028.9	7.9976e-06	9.1126e-06	1067.3	225.04	7.7507e-06	9.366e-06	272.68	80.801	65.924	21.105	8.3736e-06	27.758	227.061	297.000	252.403	179.343	309.194	319.739	179.308	186.107	288.793	277.802	185.768	191.421	191.647	197.641	318.554	197.602	-8191	255	
14561.631	1	1	0	0	0.18727	0.18686	0.24109	0.36364	0.042328	0.12648	0.24949	0.33342	0.041547	0.25537	0.15109	0.22799	0.17982	0.17126	0.11156	0.19369	-2.7229	-2.8667	-2.9229	-3.1854	-2.7292	-3.2583	-3.1437	-2.8688	-3.0438	-2.9521	-3.0812	-3.2479	-2.8896	-3.1188	-3	-2.8854	323.403	515.932	276.215	492.999	173.743	394.278	184.128	422.093	448.122	429.865	406.318	443.849	285.034	525.674	409.411	522.880	0.0002618	0.00012345	7.5037e-05	1010	2.0509e-06	2.9556e-06	1047.8	220.15	1.9249e-06	2.6845e-06	265.46	77.696	63.607	20.143	3.2525e-06	26.421	0.00045332	0.00082747	0.00022425	1027.9	8.1868e-06	9.0982e-06	1069.7	225.24	7.7454e-06	9.4498e-06	273.36	80.941	65.882	21.071	8.0756e-06	27.766	226.318	246.761	264.317	179.233	320.555	317.489	179.258	185.976	280.678	287.336	185.758	191.281	191.813	197.518	305.118	197.459	-8191	255	
14561.728	1	1	0	0	0.15885	0.29032	0.035098	0.11007	0.10468	0.23994	0.2453	0.2646	0.13088	0.1303	0.12605	0.12242	0.16145	0.31233	0.11308	0.11008	-2.65	-2.8104	-2.7771	-3.425	-2.9813	-2.9792	-3.1667	-2.8896	-3.1646	-3.0396	-3.1521	-3.1813	-2.8521	-3.1417	-3.2583	-2.9583	389.778	385.527	336.535	168.586	447.582	341.076	509.921	418.504	393.929	238.915	377.749	230.651	170.738	221.127	394.017	462.174	0.00023398	0.00030286	4.7892e-05	1010.9	2.7782e-06	2.4673e-06	1043.3	218.76	2.3818e-06	3.1025e-06	265.52	77.991	63.536	20.142	2.4484e-06	26.544	0.00043157	0.00084171	0.00023066	1028	8.7131e-06	9.3974e-06	1066.6	224.65	7.8274e-06	9.5946e-06	272.7	80.938	65.942	21.038	8.3144e-06	27.779	225.687	270.028	271.200	179.419	304.195	321.182	179.329	185.998	298.131	321.480	185.668	191.537	192.017	197.499	325.925	197.715	-8191	255	
14561.824	1	1	0	0	0.17465	0.16526	0.12873	0.15593	0.10623	0.12819	0.18864	0.086078	0.2676	0.043793	0.14216	0.15816	0.074669	0.1961	0.19048	0.077889	-2.7167	-2.7875	-2.9854	-3.3604	-2.8917	-3.1896	-3.3187	-2.8417	-2.9938	-3.0479	-2.8458	-3.2812	-2.9458	-2.9229	-3.0187	-2.8708	371.218	487.721	442.816	484.566	381.703	451.099	511.712	418.304	420.268	241.393	395.246	454.852	309.086	514.116	410.352	422.120	0.00023444	0.00025448	8.1536e-05	1010	2.8721e-06	3.7906e-06	1046.2	219.46	3.508e-06	3.3717e-06	264.99	77.681	63.269	20.056	2.3395e-06	26.468	0.00045653	0.00082025	0.0002268	1027.1	8.1057e-06	9.2184e-06	1065.9	224.59	7.8441e-06	9.5024e-06	272.48	80.741	65.781	20.987	8.3374e-06	27.785	222.877	243.263	251.943	179.457	298.944	306.456	179.246	186.111	320.908	330.176	185.620	191.401	191.973	197.544	335.362	197.748	-8191	255	
14561.897	1	1	0	0	0.079875	0.096146	0.20922	0.18277	0.18604	0.12846	0.14033	0.15199	0.13095	0.12122	0.33522	0.19729	0.3523	0.15323	0.15626	0.091299	-2.6688	-3.0625	-2.6312	-3.3563	-2.8708	-2.9542	-3.1896	-2.8229	-2.8583	-3.1396	-2.9917	-3.1125	-2.9708	-2.9938	-3.0312	-2.9146	453.493	368.945	299.411	500.899	429.614	481.872	396.001	526.979	439.123	475.464	499.148	169.759	524.184	206.313	232.266	363.949	0.00023999	0.00030407	0.00011361	1008.4	2.5066e-06	2.6152e-06	1044.9	218.16	3.4684e-06	2.9016e-06	263.49	77.791	63.244	20.097	2.5812e-06	26.597	0.00044982	0.00082381	0.00023873	1026.8	8.3535e-06	9.5428e-06	1065.6	224.12	8.1437e-06	9.2918e-06	272.01	80.679	65.789	20.968	7.912e-06	27.751	225.066	261.101	251.030	179.269	304.981	331.003	179.365	185.868	306.821	330.221	185.792	191.949	191.844	197.493	299.751	197.864	-8191	255	
14562.016	1	1	0	0	0.087058	0.31746	0.070412	0.33384	0.12121	0.32133	0.16792	0.017895	0.21842	0.19394	0.12898	0.032497	0.13638	0.18443	0.17236	0.068354	-2.7646	-3.075	-2.8438	-3.1667	-3.0083	-3.1479	-3.3417	-3.1125	-2.9542	-2.9646	-2.8958	-3.1521	-2.9458	-2.8667	-3.2875	-2.725	474.505	277.893	172.189	470.944	363.080	453.186	423.014	197.375	362.218	523.989	438.909	525.731	402.297	218.368	298.048	383.906	0.0002396	0.00037418	5.7331e-05	1006.3	2.2036e-06	2.1437e-06	1042.1	218.99	2.8817e-06	2.464e-06	265.26	77.603	62.895	20.057	3.0167e-06	26.442	0.0004564	0.00084799	0.00024019	1026.3	8.2778e-06	9.2688e-06	1066	224.57	8.0811e-06	9.1708e-06	272.42	80.72	65.725	21.012	8.1358e-06	27.744	226.530	272.032	235.363	179.444	312.449	324.111	179.244	186.228	307.430	312.436	185.717	191.613	191.668	197.539	321.576	197.814	-8191	255	
14562.112	1	1	0	0	0.1847	0.094622	0.10328	0.23028	0.26557	0.063442	0.21612	0.19362	0.13862	0.25588	0.1866	0.11733	0.22583	0.11577	0.13105	0.28371	-2.6833	-2.9021	-2.8833	-3.1312	-3.0146	-2.7812	-3.2917	-2.9313	-2.8604	-3.2146	-2.9479	-3.3146	-2.9646	-2.9604	-3.1354	-2.9146	251.721	273.911	280.709	446.484	340.588	441.852	464.787	474.336	291.724	436.060	199.173	218.854	523.900	333.466	479.670	410.420	0.00022345	0.00030373	0.00010377	1009.7	2.572e-06	3.5913e-06	1047	218.22	2.7305e-06	2.2244e-06	265.78	77.733	63.206	19.995	2.2337e-06	26.476	0.00044948	0.00084254	0.00022838	1026.7	8.1715e-06	9.6666e-06	1067.1	223.98	7.7771e-06	9.5192e-06	272.8	80.657	65.7	20.978	8.206e-06	27.714	229.349	259.584	263.726	179.304	303.855	319.039	179.380	186.000	299.812	318.661	185.736	191.520	191.774	197.524	322.016	197.527	-8191	255	
14562.208	1	1	0	0	0.15686	0.19094	0.29346	0.30673	0.12573	0.15728	0.31853	0.13891	0.32149	0.14616	0.14217	0.022338	0.15245	0.25165	0.32718	0.024674	-2.3125	-3.1542	-2.7646	-3.1771	-2.9354	-2.7042	-3.2313	-2.9021	-3.0312	-3.1542	-3.0792	-3.1708	-3.0375	-2.8521	-3.0667	-2.9875	327.843	361.463	231.926	526.558	193.806	305.553	479.363	246.095	308.055	488.885	509.183	427.471	513.271	380.281	509.691	379.579	0.00023458	0.00019267	7.9669e-05	1009.5	2.913e-06	3.2727e-06	1043.9	218	2.6041e-06	2.8669e-06	263.72	77.97	62.778	20.064	1.5732e-06	26.393	0.00045421	0.00084066	0.00023551	1026.7	8.4004e-06	9.3842e-06	1064.5	223.83	7.8908e-06	8.8824e-06	271.59	80.666	65.546	20.961	8.4157e-06	27.704	229.226	258.594	262.843	179.185	304.587	340.666	179.441	185.870	291.923	313.919	185.846	191.444	191.262	197.549	327.089	197.598	-8191	255	
14562.304	1	1	0	0	0.14229	0.091006	0.32216	0.15069	0.1513	0.11758	0.093339	0.10437	0.083166	0.25014	0.27118	0.11328	0.24763	0.14078	0.0062596	0.12895	-2.4021	-2.9417	-2.75	-3.0917	-2.9688	-2.9125	-3.3542	-3.0958	-2.8854	-3.1604	-2.9688	-2.9708	-3.0667	-2.7458	-3.05	-3.0333	271.855	326.420	343.257	508.761	342.255	305.727	224.698	441.935	414.929	404.761	472.681	464.288	185.996	196.308	342.991	285.877	0.00025795	0.00027603	8.514e-05	1008.2	1.6668e-06	2.2939e-06	1044.7	218.06	2.6734e-06	2.8326e-06	264.83	77.685	63.733	20.018	3.2772e-06	26.475	0.00048078	0.00082182	0.00023531	1025.3	8.1922e-06	9.7507e-06	1064.6	223.83	8.1278e-06	9.6054e-06	272.01	80.798	65.895	20.993	8.2572e-06	27.716	228.274	272.611	234.874	179.466	281.740	318.396	179.374	186.054	298.987	326.542	185.838	191.510	191.455	197.432	327.989	197.904	-8191	255	
14562.423	1	1	0	0	0.098937	0.14826	0.072252	0.14531	0.10205	0.14957	0.22518	0.17822	0.18799	0.24471	0.13797	0.036745	0.13308	0.10891	0.10146	0.19561	-2.4583	-3.2042	-2.9313	-3.1625	-3.1271	-2.9917	-3.2562	-3.1458	-2.9333	-3.225	-3.0438	-2.8396	-3.1146	-3.0854	-2.9792	-3.1125	314.429	244.080	199.351	485.212	280.028	364.347	203.157	469.345	247.379	471.349	177.624	486.578	245.027	332.937	313.238	423.754	0.00023305	0.00025573	9.741e-05	1007.9	1.8893e-06	2.6142e-06	1042.5	219.55	2.0991e-06	1.0196e-06	264.86	77.617	63.435	20.008	2.0172e-06	26.384	0.00045342	0.00079753	0.00023505	1025.5	8.1165e-06	9.8721e-06	1065.3	224.33	8.0062e-06	9.0404e-06	272.31	80.725	65.821	20.997	8.3515e-06	27.711	226.249	262.199	258.002	179.312	332.466	324.005	179.313	186.208	293.854	306.602	185.524	191.744	191.447	197.557	341.267	197.369	-8191	255	
14562.519	1	1	0	0	0.31547	0.23019	0.18994	0.11505	0.37346	0.086372	0.2495	0.14707	0.1034	0.13787	0.082987	0.17701	0.38666	0.14099	0.17855	0.22071	-2.5979	-3.0125	-2.9104	-3.0917	-3.1396	-3.1354	-3.2583	-3.1813	-2.9167	-3.1521	-3.0042	-2.9396	-3.0854	-3.0083	-3.1437	-3.0146	320.800	358.135	379.853	382.645	321.995	390.079	510.710	454.073	292.182	392.498	403.143	206.929	225.625	466.012	238.325	307.348	0.00025445	0.00029614	7.6028e-05	1007.2	2.3149e-06	3.2401e-06	1045.5	218.99	2.3865e-06	3.5876e-06	264.48	77.411	63.504	20.093	1.8861e-06	26.464	0.00047287	0.00084485	0.00023195	1026.1	7.8876e-06	9.3385e-06	1065.9	224.26	8.3904e-06	9.0787e-06	271.96	80.816	65.812	21.009	8.5271e-06	27.716	227.786	259.982	246.190	179.273	298.891	312.819	179.319	185.870	298.557	330.275	185.965	191.533	191.667	197.469	315.536	197.896	-8191	255	
14562.616	1	1	0	0	0.15743	0.06718	0.074871	0.098074	0.21659	0.14282	0.30016	0.066722	0.14133	0.045547	0.29763	0.17344	0.25254	0.1605	0.13255	0.12999	-2.3917	-3.0083	-2.9271	-2.9333	-3.1688	-3.0563	-3.2687	-3.2396	-2.8479	-3.225	-3.1208	-2.9896	-3.0479	-2.9688	-2.8563	-3.2583	265.441	326.301	191.621	225.654	439.116	304.408	487.547	380.648	427.754	525.220	499.289	508.655	214.322	229.155	297.618	407.161	0.00023907	0.00040161	8.882e-05	1011.2	2.2595e-06	2.6101e-06	1042.8	219.06	2.5027e-06	3.3852e-06	264.59	77.797	63.274	20.191	3.3308e-06	26.452	0.00046873	0.00082684	0.00023467	1025	8.0084e-06	9.4335e-06	1065.5	224.66	8.1419e-06	9.4773e-06	272.1	80.879	65.818	21.032	8.2863e-06	27.757	229.447	272.223	261.736	179.479	316.287	332.149	179.452	186.053	297.970	329.015	185.675	191.338	191.890	197.126	293.991	197.785	-8191	255	
14562.712	1	1	0	0	0.19246	0.10121	0.058716	0.17715	0.19856	0.14497	0.074979	0.11703	0.10943	0.32318	0.30808	0.12293	0.10053	0.31458	0.13361	0.23411	-2.375	-2.9896	-3.0542	-2.9354	-3.0938	-2.9146	-3.0979	-3.2896	-2.9083	-3.2271	-3.0521	-2.8812	-3.1875	-3.1625	-2.925	-3.2542	181.516	454.944	481.685	420.049	290.602	434.425	336.631	454.161	377.670	433.448	185.913	222.470	200.219	426.673	332.561	516.878	0.00025974	0.00031112	9.3677e-05	1012.4	1.994e-06	3.6837e-06	1049	218.64	2.1175e-06	3.2284e-06	264.04	78.281	63.482	20.051	1.7439e-06	26.349	0.00047332	0.00082653	0.00023899	1026.4	8.2445e-06	9.4587e-06	1065.1	224.41	8.0785e-06	9.8257e-06	272.38	81.011	65.758	21.008	8.4458e-06	27.712	225.570	272.728	253.276	179.456	294.986	313.546	179.336	185.947	308.527	339.915	185.649	191.590	191.208	197.357	314.262	197.788	-8191	255	
14562.808	1	1	0	0	0.06869	0.041136	0.24414	0.21571	0.077363	0.23334	0.36306	0.10014	0.16593	0.37603	0.083358	0.26282	0.23832	0.13141	0.1018	0.089386	-2.4604	-3.0479	-3.1125	-2.8854	-3.1646	-2.8271	-3.1375	-3.3417	-2.8042	-3.1417	-3.0875	-2.8458	-3.0958	-2.9792	-2.9729	-3.4208	386.433	285.796	442.623	454.227	510.183	352.127	454.760	475.766	334.044	185.847	498.172	196.294	435.329	301.062	502.859	201.146	0.00024387	0.00036217	6.645e-05	1008.5	2.0154e-06	3.2897e-06	1044.3	218.56	2.7301e-06	2.6055e-06	263.52	78.175	63.343	20.004	3.3606e-06	26.442	0.00045054	0.00084087	0.00022607	1027.1	8.2598e-06	9.5296e-06	1065.1	224.38	8.0802e-06	9.7754e-06	271.98	80.887	65.691	21.001	8.4047e-06	27.78	224.996	260.642	260.580	179.139	322.292	330.738	179.481	185.935	306.309	313.238	185.698	191.404	191.490	197.470	311.624	197.638	-8191	255	
14562.929	1	1	0	0	0.21922	0.052949	0.21037	0.034653	0.12406	0.1053	0.31176	0.22479	0.1087	0.13822	0.15138	0.15095	0.091237	0.12501	0.22691	0.066541	-2.4854	-2.8292	-3.05	-2.9146	-3.0833	-3	-2.9833	-3.3063	-2.7771	-3.1583	-3.1979	-2.9229	-3.2521	-2.9625	-2.8229	-3.2708	512.744	281.458	431.411	483.802	337.939	437.130	387.880	459.032	376.487	505.593	509.408	510.876	459.954	503.024	342.582	339.358	0.0002389	0.00025277	9.6724e-05	1007.4	2.9681e-06	3.1433e-06	1041.5	218.79	3.2621e-06	2.6841e-06	263.84	77.844	63.729	20.196	2.3555e-06	26.542	0.00046301	0.00085029	0.00023022	1026.7	8.194e-06	9.3674e-06	1064.7	224.2	8.1146e-06	9.858e-06	272.01	80.76	65.858	21.116	8.2341e-06	27.796	226.335	238.744	245.515	179.338	295.910	318.650	179.248	186.116	298.390	354.609	185.637	191.600	191.551	197.331	304.034	197.237	-8191	255	
14563.025	1	1	0	0	0.10824	0.15914	0.29077	0.2105	0.078668	0.047345	0.45505	0.24553	0.26411	0.30129	0.073544	0.075329	0.049164	0.056908	0.32113	0.15262	-2.5229	-2.7771	-3.1396	-2.9833	-3.1188	-3.0167	-2.7771	-3.325	-2.8417	-2.9396	-3.2062	-2.9208	-3.0938	-2.8583	-2.9938	-3.3646	285.537	461.879	278.480	207.969	398.098	197.746	464.997	467.020	274.188	506.118	312.720	229.200	355.159	358.159	257.624	226.768	0.00025357	0.00031602	6.8681e-05	1010.8	3.6035e-06	3.4107e-06	1044.3	218.71	2.7335e-06	2.147e-06	266.72	77.545	63.442	20.317	2.7557e-06	26.453	0.00046578	0.00084359	0.00022732	1028.6	8.4562e-06	9.5176e-06	1065.9	224.78	8.0485e-06	9.7574e-06	273.13	80.913	65.963	21.15	8.3244e-06	27.807	223.518	279.745	243.061	179.479	329.491	354.205	179.453	185.834	281.510	333.583	185.995	191.683	191.797	197.303	304.713	197.938	-8191	255	
14563.119	1	1	0	0	0.1916	0.12385	0.14955	0.30063	0.1881	0.28352	0.3451	0.17476	0.17006	0.30142	0.11239	0.28419	0.22076	0.1524	0.087876	0.097713	-2.4479	-2.9313	-3.2042	-2.9917	-3.1188	-3.0021	-2.9938	-3.1167	-2.8479	-2.7938	-3.2333	-2.7687	-2.9229	-3.0729	-2.7833	-3.3937	502.931	525.674	206.417	490.514	239.101	495.143	468.594	480.973	360.040	483.965	240.621	244.624	301.307	441.688	449.214	360.063	0.00024908	0.00032896	9.302e-05	1013.6	3.1337e-06	2.7009e-06	1048.1	219.21	2.9208e-06	2.9591e-06	264.93	77.792	63.573	20.301	2.7069e-06	26.509	0.00046157	0.00084202	0.00022814	1028.9	8.1985e-06	9.4311e-06	1067.8	225.04	8.1516e-06	9.281e-06	272.54	81.035	66.04	21.152	8.4799e-06	27.883	230.167	254.069	280.925	179.280	314.802	306.824	179.346	186.110	305.748	326.716	185.540	191.478	191.790	197.240	342.714	197.479	-8191	255	
14563.193	1	1	0	0	0.18642	0.10439	0.18982	0.20408	0.22976	0.3432	0.17252	0.21003	0.049949	0.077012	0.1373	0.23153	0.20731	0.058096	0.12676	0.20751	-2.4896	-2.8646	-3.0625	-2.9896	-3.0083	-2.9708	-3.0396	-3.0312	-2.9229	-2.9646	-3.2958	-2.9854	-2.9958	-3.0792	-2.7875	-3.1688	425.645	428.135	469.861	480.660	329.728	465.737	270.466	508.189	416.668	311.812	481.189	444.106	447.429	286.553	171.683	515.058	0.00023994	0.00038311	0.00011469	1012	2.9956e-06	3.023e-06	1048.7	219.63	2.9579e-06	1.7389e-06	265.66	78.058	63.566	20.357	1.9517e-06	26.486	0.00045212	0.00084537	0.0002199	1029.3	8.2778e-06	9.1811e-06	1067.2	225.23	7.9084e-06	9.4593e-06	273.48	81.111	66.071	21.191	8.2963e-06	27.889	226.152	260.536	273.604	179.359	297.738	315.897	179.225	186.237	309.328	327.021	185.661	191.363	191.738	197.499	302.540	197.784	-8191	255	
14563.311	1	1	0	0	0.2678	0.02951	0.18154	0.16812	0.066387	0.099732	0.24862	0.023096	0.22764	0.10629	0.11677	0.17369	0.11814	0.10767	0.1883	0.33317	-2.6042	-2.8375	-3.2646	-3.1146	-2.8229	-3.1896	-2.9521	-3.2021	-2.9479	-3.0229	-3.2917	-2.9625	-2.8063	-3.2021	-2.8208	-3.0625	406.772	507.698	224.799	460.420	416.044	345.670	332.828	315.360	250.879	287.201	397.676	231.756	405.473	466.906	478.695	195.994	0.00024516	0.00030356	4.8659e-05	1011.2	2.1659e-06	1.6372e-06	1047.2	219.78	3.2924e-06	3.7571e-06	265.28	77.694	63.746	20.182	2.619e-06	26.577	0.00046037	0.00083082	0.00023048	1028.1	8.3427e-06	9.2027e-06	1066.8	225.05	8.0943e-06	9.7287e-06	272.69	80.838	66.001	21.168	8.1007e-06	27.883	222.367	263.553	250.376	179.443	307.595	340.879	179.436	185.956	313.900	316.882	185.736	191.287	191.355	197.194	317.078	197.954	-8191	255	
14563.408	1	1	0	0	0.088639	0.085148	0.20646	0.22238	0.13757	0.21869	0.27324	0.076922	0.11898	0.20389	0.13419	0.091051	0.11709	0.40802	0.13182	0.3814	-2.5208	-2.7896	-2.9792	-3.0687	-3.0896	-3.0083	-2.9167	-3.0125	-3.1708	-2.8063	-3.3479	-3.1646	-2.775	-3.2417	-2.9604	-3.0292	300.025	229.521	322.137	517.459	334.264	299.531	474.081	269.553	338.186	508.468	479.743	186.239	362.654	518.397	314.557	356.957	0.0002402	0.00035493	4.5321e-05	1012.4	2.3082e-06	2.4856e-06	1045	219.41	3.8064e-06	3.7594e-06	265.41	77.767	63.558	20.21	3.4356e-06	26.536	0.00045338	0.00085741	0.00023104	1028.9	8.2553e-06	9.0705e-06	1066.2	225.13	7.6705e-06	9.5527e-06	272.8	81.009	66.043	21.18	8.4458e-06	27.856	225.496	255.910	262.067	179.324	312.868	296.756	179.219	185.881	300.103	303.880	185.730	191.452	191.579	197.284	303.509	197.701	-8191	255	
14563.504	1	1	0	0	0.052257	0.26569	0.17192	0.44671	0.081722	0.098516	0.47513	0.16777	0.069834	0.084135	0.096675	0.07725	0.16238	0.27239	0.18773	0.17211	-2.7833	-2.7938	-3.0646	-3.0521	-2.9021	-3.2042	-3.0625	-3.1792	-3.0646	-2.8312	-3.2583	-3.2104	-2.95	-3.1875	-2.9271	-2.9562	342.656	522.307	525.533	485.088	387.924	486.979	486.480	419.723	514.521	297.545	418.456	491.068	403.587	306.378	233.602	191.580	0.00023863	0.00021892	8.8321e-05	1009.4	2.7991e-06	2.8494e-06	1046.4	219.54	2.6854e-06	2.7646e-06	265.4	78.191	63.64	20.278	2.0882e-06	26.466	0.00044811	0.00083919	0.00023265	1028.3	8.4499e-06	9.2063e-06	1066.8	225.29	7.7948e-06	9.5467e-06	272.59	81.16	66.111	21.142	8.0756e-06	27.891	223.569	238.398	264.456	179.346	311.705	328.954	179.295	186.091	298.245	305.165	185.714	191.408	191.579	197.244	339.618	197.102	-8191	255	
14563.600	1	1	0	0	0.087088	0.15751	0.13623	0.16582	0.11328	0.19632	0.1989	0.34276	0.14994	0.20708	0.21847	0.27092	0.090741	0.042228	0.12771	0.0699	-2.8	-2.7875	-3.1146	-3.2333	-2.9958	-3.2396	-3.125	-3.0542	-3.3063	-2.8792	-3.2104	-3.1937	-2.8333	-3.1688	-3.0146	-3.0687	331.383	388.928	467.353	488.652	303.822	519.573	498.121	466.028	264.379	341.348	399.789	521.707	524.697	346.945	213.660	366.790	0.00024051	0.00051777	4.4378e-05	1011.7	2.6628e-06	3.3959e-06	1045.3	219.51	3.2684e-06	1.6578e-06	265.06	77.783	63.573	20.299	2.3129e-06	26.582	0.00045969	0.00084872	0.00022923	1028.6	8.413e-06	9.2099e-06	1067.8	225.22	8.0247e-06	9.0356e-06	273.17	80.997	66.139	21.184	8.1468e-06	27.872	226.078	262.689	256.096	179.399	303.055	300.746	179.327	186.264	308.097	322.453	185.771	191.407	191.609	197.205	329.922	197.568	-8191	255	
14563.720	1	1	0	0	0.14736	0.15323	0.14785	0.17008	0.13493	0.08387	0.22224	0.23078	0.15897	0.12204	0.028882	0.11321	0.23651	0.083764	0.12809	0.25315	-2.6688	-3.0917	-3.1125	-3.2792	-2.8542	-3.2	-3.1458	-3.0583	-3.325	-2.9292	-3.3229	-3.2042	-2.925	-3.0687	-3.0729	-2.9	326.378	308.208	406.351	485.057	281.043	241.916	479.347	240.796	429.717	192.048	251.881	337.201	429.188	472.201	182.109	512.062	0.00024121	0.00032262	7.5941e-05	1008.9	1.8106e-06	2.747e-06	1045	219.26	2.4231e-06	1.1801e-06	263.98	77.951	63.659	20.125	2.0528e-06	26.545	0.00046027	0.00082443	0.00023025	1027.1	8.1994e-06	9.1991e-06	1066.7	224.92	7.7349e-06	9.3157e-06	272.65	81.234	66.196	21.159	8.2331e-06	27.921	226.448	246.539	258.809	179.294	288.591	325.415	179.156	186.317	304.123	339.170	185.772	191.656	191.762	197.260	283.356	197.764	-8191	255	
14563.817	1	1	0	0	0.17854	0.067736	0.11727	0.25768	0.066387	0.10585	0.16776	0.13941	0.080866	0.098925	0.18928	0.46415	0.18203	0.24095	0.19659	0.028849	-2.625	-3.0167	-2.9271	-3.4208	-3.0812	-3.0875	-3.1479	-2.9292	-3.1229	-2.9229	-2.9188	-3.2146	-2.9396	-3.1958	-3.1562	-2.9792	194.640	405.946	294.261	459.725	178.174	272.249	423.012	447.184	400.358	286.689	286.867	504.502	442.881	465.979	319.528	269.690	0.00024442	0.00019359	9.7807e-05	1009.2	2.4759e-06	3.4248e-06	1046.6	219.27	2.0723e-06	2.4862e-06	266.4	77.964	63.485	20.17	2.5278e-06	26.549	0.00045397	0.00084453	0.00022349	1028.7	8.5004e-06	9.5645e-06	1069	225.12	7.8106e-06	9.2654e-06	272.84	81.12	65.995	21.14	8.1488e-06	27.916	224.220	247.665	254.878	179.286	286.267	313.992	179.234	186.029	323.001	343.429	185.749	191.609	191.815	197.291	318.710	197.777	-8191	255	
14563.888	1	1	0	0	0.10204	0.1059	0.094516	0.24689	0.39584	0.13361	0.22373	0.26471	0.083841	0.070708	0.1516	0.15084	0.22166	0.091877	0.11189	0.15787	-2.9167	-2.9771	-2.9542	-3.3542	-3.0271	-2.9854	-3.2625	-2.8354	-3.175	-3.0146	-3.1104	-3.4021	-3.025	-3.1167	-3.1229	-3.0021	347.873	179.561	243.494	447.591	394.020	370.937	184.606	180.856	274.696	464.400	524.793	421.512	197.897	245.650	466.089	482.120	0.00024781	0.00035156	0.00012375	1014.1	3.0896e-06	2.4327e-06	1044.2	218.7	3.2984e-06	3.9589e-06	264.99	77.969	63.145	20.325	2.3115e-06	26.69	0.00046219	0.00083239	0.00023566	1029.8	8.2409e-06	9.2772e-06	1066.8	224.88	7.7754e-06	9.2965e-06	272.85	81.136	65.866	21.193	8.3033e-06	27.908	226.829	239.446	255.563	179.145	333.094	331.281	179.359	185.940	296.411	306.868	185.769	191.470	191.566	197.558	310.868	197.761	-8191	255	
14564.009	1	1	0	0	0.06958	0.08179	0.20365	0.29053	0.24869	0.19747	0.062735	0.26517	0.13627	0.19205	0.20158	0.10387	0.21634	0.037784	0.2062	0.24501	-2.7708	-2.8875	-2.8021	-3.3812	-3.0354	-2.9562	-3.2521	-3.175	-3.1562	-2.9375	-2.9604	-3.0646	-2.9167	-2.8688	-3.075	-2.9792	380.852	214.567	505.645	430.956	501.921	240.383	443.096	473.004	464.340	476.366	322.632	479.128	485.679	277.575	210.472	177.096	0.00026151	0.00022761	7.3305e-05	1009	2.3407e-06	2.3766e-06	1046.3	219.92	2.3559e-06	3.6758e-06	266.09	77.681	62.994	20.156	1.5138e-06	26.567	0.00046938	0.00084108	0.00023461	1028.5	8.0886e-06	9.3133e-06	1067	224.97	8.0142e-06	9.3325e-06	272.9	80.982	65.768	21.152	7.8679e-06	27.865	223.909	266.994	270.527	179.420	317.087	331.744	179.460	185.761	285.461	315.029	185.697	191.428	191.715	197.193	310.202	197.800	-8191	255	
14564.103	1	1	0	0	0.24676	0.18186	0.1215	0.20124	0.23309	0.21714	0.10343	0.1842	0.22463	0.11757	0.3068	0.12378	0.13873	0.12455	0.23326	0.12876	-2.8771	-3.0812	-2.8875	-3.1958	-3.0917	-3.025	-3.2792	-3.1104	-3.1063	-3.0625	-3.0354	-3.2125	-2.8563	-3.1125	-3.1667	-2.9667	202.048	479.169	360.472	494.300	431.860	356.230	504.389	467.834	358.050	339.802	506.292	472.857	523.030	523.669	319.443	431.284	0.00022603	0.00018761	4.485e-05	1013.5	1.6756e-06	3.478e-06	1043.1	219.6	3.0402e-06	1.665e-06	264.55	77.546	63.479	20.104	2.8121e-06	26.487	0.00045626	0.00083092	0.00023294	1028.9	8.3039e-06	9.4287e-06	1065.7	224.95	7.9948e-06	9.5635e-06	272.89	80.857	65.861	21.103	8.4097e-06	27.806	228.074	262.339	286.299	179.674	321.093	304.058	179.304	185.968	310.115	335.382	185.780	191.200	191.636	197.463	297.504	197.469	-8191	255	
14564.199	1	1	0	0	0.11568	0.21111	0.037581	0.042716	0.12933	0.22887	0.16673	0.28022	0.13197	0.015961	0.28478	0.22098	0.05391	0.066441	0.41743	0.44715	-2.5521	-3.075	-2.7604	-3.2333	-2.975	-2.9042	-3.3187	-3.0083	-3.0854	-3.2729	-2.9979	-3.3104	-3.0438	-2.8729	-3.1917	-2.9771	514.301	348.949	270.910	522.505	233.012	306.368	483.854	436.883	322.472	305.479	468.389	519.097	418.193	352.334	207.375	466.822	0.00024674	0.00039067	7.8843e-05	1005.7	2.8507e-06	3.3811e-06	1044.8	217.71	2.2146e-06	3.6714e-06	264.37	77.8	63.412	20.079	1.9676e-06	26.381	0.00046654	0.00080245	0.00023271	1024.4	8.23e-06	9.1679e-06	1065	223.99	7.8653e-06	9.2271e-06	272.15	80.797	65.712	21.062	8.3184e-06	27.762	225.239	254.393	280.682	179.177	308.936	316.021	179.316	186.026	300.760	321.476	185.872	191.481	191.566	197.288	303.362	197.449	-8191	255	
14564.296	1	1	0	0	0.054433	0.18449	0.13286	0.14348	0.10139	0.2332	0.12512	0.16021	0.20925	0.090806	0.13841	0.095881	0.062262	0.086987	0.13958	0.13827	-2.5167	-3.4083	-2.9354	-3.3833	-3.1125	-2.9729	-3.3688	-3.1188	-3.1729	-3.2208	-2.95	-3.2438	-3.0938	-2.8021	-3.0812	-3.15	253.134	264.462	326.561	503.758	344.736	330.526	376.978	439.107	364.254	360.167	491.072	468.163	396.700	237.043	354.769	213.309	0.00023734	0.00030264	0.00010931	1010.1	2.6214e-06	2.3445e-06	1044.5	218.86	2.9916e-06	2.6859e-06	265.9	77.839	63.319	20.157	1.9865e-06	26.659	0.00045695	0.00083249	0.00022963	1027	8.0579e-06	9.3914e-06	1066.9	225.03	7.8556e-06	9.1266e-06	273.07	81.017	65.916	21.169	8.6103e-06	27.881	228.299	269.982	256.023	179.268	303.163	301.415	179.405	186.212	301.812	298.526	185.945	191.529	191.553	197.305	308.533	197.745	-8191	255	
14564.416	1	1	0	0	0.22199	0.18299	0.18626	0.25534	0.14466	0.21326	0.14828	0.33611	0.14501	0.071583	0.20141	0.054007	0.10281	0.12016	0.12137	0.063563	-2.6458	-3.0271	-2.7417	-3.1562	-2.9667	-2.7167	-3.4417	-3.1021	-2.9396	-3.2729	-2.9646	-3.0812	-3.0833	-3.0021	-3.2271	-3.1104	192.206	177.774	210.708	466.923	441.615	525.637	518.634	204.502	406.643	311.413	398.238	202.448	258.952	181.419	200.855	381.959	0.00023703	0.00034125	7.2927e-05	1010	2.7229e-06	2.8462e-06	1046.1	218.54	2.3645e-06	2.8404e-06	265.87	77.882	63.673	20.303	2.8222e-06	26.602	0.0004602	0.00084349	0.00024169	1027	7.766e-06	9.3493e-06	1067.8	224.68	8.0996e-06	9.1529e-06	273.19	81.091	66.013	21.189	8.4207e-06	27.83	223.154	248.377	261.973	179.099	314.289	312.974	179.210	186.157	302.122	333.819	185.661	191.163	191.657	197.167	325.872	197.415	-8191	255	
14564.488	1	1	0	0	0.21636	0.20534	0.28365	0.20505	0.016782	0.11303	0.20338	0.051715	0.13771	0.16943	0.052476	0.16656	0.16334	0.21457	0.17416	0.20304	-2.4188	-3.2438	-2.7896	-3.1479	-3.0958	-2.7792	-3.2188	-3.0687	-2.9896	-3.2792	-2.9292	-2.9125	-3.1042	-2.8667	-3.2458	-2.8229	301.252	378.891	203.548	484.210	200.533	488.068	439.408	186.002	222.940	343.997	334.601	191.657	497.753	448.458	191.672	502.400	0.00025444	0.00025208	9.0806e-05	1010.7	3.1302e-06	2.4301e-06	1045.9	219.39	2.1396e-06	4.1681e-06	264.39	78.088	63.441	20.138	3.5034e-06	26.457	0.00046177	0.00081616	0.00023636	1027.8	8.0904e-06	9.5777e-06	1067.6	224.83	8.0582e-06	9.2546e-06	272.46	81.09	65.926	21.135	8.3244e-06	27.808	226.934	234.382	278.688	179.306	291.967	334.993	179.369	186.011	295.424	323.303	185.635	191.592	191.561	197.176	302.138	197.597	-8191	255	
14564.609	1	1	0	0	0.11806	0.21158	0.21623	0.2196	0.095131	0.12234	0.38741	0.12896	0.13299	0.20525	0.30117	0.22	0.097313	0.1973	0.086514	0.35912	-2.4396	-3.1604	-2.9083	-3.0396	-3.1479	-2.9667	-3.3229	-3.1125	-2.925	-3.0625	-3.1042	-3.0896	-3.0833	-2.9479	-3.0187	-3.1688	323.598	478.595	526.013	410.295	240.226	412.393	492.778	508.886	179.405	500.728	524.140	503.483	192.361	313.788	489.534	182.298	0.00026767	0.00024672	9.4896e-05	1010.9	3.045e-06	3.7997e-06	1046.8	218.59	1.666e-06	2.8214e-06	264.87	77.4	63.465	20.09	2.7649e-06	26.384	0.00045643	0.00083249	0.0002287	1029.3	7.9615e-06	9.3734e-06	1066.9	224.85	8.0661e-06	9.2906e-06	272.65	80.817	65.88	21.054	8.4789e-06	27.785	223.044	237.472	252.941	179.225	311.237	302.788	179.449	186.064	315.829	319.050	185.835	191.301	191.550	197.375	328.450	197.507	-8191	255	
14564.705	1	1	0	0	0.10028	0.14754	0.21176	0.23687	0.12062	0.16059	0.13379	0.23693	0.22912	0.24657	0.070373	0.23189	0.26464	0.27309	0.05703	0.209	-2.5083	-3.1083	-2.95	-3.1458	-3.2229	-2.9437	-3.1458	-3.2562	-2.9875	-3.4542	-3.1333	-3.1542	-3.2417	-2.9021	-3.0979	-3.175	436.356	315.556	435.408	474.908	288.837	412.795	469.652	433.555	258.832	352.438	459.600	170.471	517.014	423.302	410.259	499.964	0.00024617	0.00044333	5.5078e-05	1009.3	2.6688e-06	2.6415e-06	1043.3	218.75	2.3728e-06	3.8003e-06	264.87	77.387	62.997	20.031	1.4455e-06	26.205	0.00046428	0.00085626	0.0002342	1026.6	8.2021e-06	9.2472e-06	1064.5	224.29	8.1146e-06	9.7454e-06	272.51	80.654	65.605	20.963	8.4759e-06	27.61	229.155	269.740	263.445	179.333	314.654	304.891	179.341	185.803	281.738	324.990	185.589	191.577	192.080	197.402	346.697	197.849	-8191	255	
14564.801	1	1	0	0	0.13423	0.14114	0.29133	0.16065	0.16614	0.18043	0.25081	0.19205	0.038089	0.12534	0.081858	0.11749	0.040786	0.18406	0.15718	0.11386	-2.6146	-3.0479	-2.8333	-2.9667	-3.0854	-2.9938	-3.175	-3.0875	-3.0479	-3.1188	-3.1792	-2.8979	-3.3042	-2.9375	-2.9854	-3.2521	238.522	515.087	451.386	176.011	330.595	357.831	437.361	479.680	193.516	210.681	464.585	400.965	453.675	477.090	395.204	253.921	0.00024606	0.00040113	0.00011529	1006.4	3.1256e-06	2.9292e-06	1041.5	217.49	3.0243e-06	2.5213e-06	264.4	76.868	62.904	19.831	1.3393e-06	26.277	0.00046133	0.00082046	0.00023756	1024.4	8.1868e-06	9.4719e-06	1063.8	223.49	8.2097e-06	9.3875e-06	271.3	80.217	65.267	20.788	8.193e-06	27.631	228.941	247.217	258.348	179.406	306.333	340.102	179.443	186.012	308.611	277.344	185.819	191.708	191.527	197.505	302.879	197.727	-8191	255	
14564.897	1	1	0	0	0.08905	0.11668	0.213	0.23871	0.22572	0.34047	0.32023	0.22293	0.087246	0.18198	0.22977	0.24496	0.199	0.24318	0.03528	0.10086	-2.4854	-3.1896	-3.1063	-3.0542	-3.2625	-3.0792	-3.2792	-3.1354	-2.8375	-3.1	-3.2354	-3.0292	-3.2542	-3.0854	-2.8937	-3.3667	270.922	170.007	260.678	465.701	509.232	481.829	467.418	414.955	270.642	222.228	468.941	419.701	511.363	518.892	407.541	440.825	0.00023718	0.00037935	9.7282e-05	1007.4	3.0061e-06	2.3641e-06	1040.7	217.23	2.3492e-06	2.7415e-06	261.92	76.991	62.78	19.782	2.68e-06	26.164	0.00045092	0.00086777	0.00022551	1022.8	7.9876e-06	9.3433e-06	1060.3	222.65	7.8917e-06	9.7514e-06	269.97	80.189	65.069	20.718	8.3906e-06	27.436	226.230	261.543	245.917	179.480	297.395	340.882	179.226	186.043	302.428	311.012	185.779	191.429	191.724	197.397	302.072	197.949	-8191	255	
14565.018	1	1	0	0	0.090032	0.055762	0.11551	0.169	0.030394	0.2731	0.091511	0.27775	0.22689	0.28853	0.16966	0.24536	0.2641	0.12394	0.21731	0.091139	-2.4792	-2.9833	-3.0854	-3.05	-3.2125	-3.0542	-3.0812	-3.2354	-2.9625	-3.1646	-3.2562	-2.9021	-3.2083	-3.1146	-2.95	-3.2458	484.391	492.602	247.128	520.218	274.931	191.067	238.649	500.440	396.867	411.531	271.874	336.076	442.554	483.398	260.943	364.454	0.00023204	0.00015945	8.4169e-05	1002	2.5902e-06	4.4197e-06	1038.2	217.07	2.6306e-06	3.1131e-06	262.27	76.773	62.592	19.74	1.5006e-06	25.986	0.0004552	0.0008618	0.00023224	1020.7	8.3796e-06	9.8757e-06	1058.2	222.23	8.3516e-06	9.2044e-06	269.84	79.831	64.81	20.668	8.6334e-06	27.375	227.078	268.503	247.224	179.428	307.026	326.071	179.138	186.009	312.536	324.729	185.849	191.648	191.480	197.824	309.109	197.924	-8191	255	
14565.089	1	1	0	0	0.099005	0.22225	0.10613	0.35221	0.079107	0.13503	0.35327	0.21037	0.15345	0.33158	0.21837	0.19699	0.20582	0.16437	0.15489	0.096364	-2.4958	-2.9979	-3.2083	-2.9958	-2.9562	-2.8646	-3.1792	-3.3333	-3.0479	-3.1104	-3.2625	-2.9042	-3.05	-3.2583	-2.9208	-3.0875	428.966	341.460	491.836	498.978	417.766	406.956	489.327	479.866	168.499	509.480	444.167	372.476	506.616	209.035	253.870	497.765	0.00025031	0.00019559	6.0929e-05	999.71	1.9666e-06	2.5378e-06	1041.9	216.07	2.5579e-06	3.3409e-06	262.27	76.765	62.482	19.614	1.453e-06	25.978	0.00046938	0.00085489	0.00023183	1019	8.3373e-06	9.8613e-06	1059.3	221.82	7.8626e-06	9.6257e-06	269.68	79.754	64.778	20.608	8.6836e-06	27.32	223.576	237.842	265.737	179.358	305.823	319.782	179.316	186.105	305.468	312.879	185.807	191.600	191.591	197.687	313.393	197.953	-8191	255	
14565.184	1	1	0	0	0.46087	0.24576	0.12779	0.1852	0.26292	0.039302	0.10592	0.030489	0.21889	0.076452	0.2159	0.076719	0.11479	0.10035	0.074834	0.07196	-2.6688	-2.975	-3.2375	-3.0458	-3.0375	-2.9062	-3.05	-3.2375	-3	-2.8375	-3.3667	-2.8771	-2.9542	-3.1979	-2.7646	-3.2042	385.821	358.465	185.115	483.155	368.631	358.426	419.109	366.840	182.905	363.928	499.645	330.447	341.803	431.898	517.233	333.526	0.00026017	0.00027015	8.2832e-05	1000.1	3.2457e-06	1.7266e-06	1035.7	215.76	2.3302e-06	2.9859e-06	260.7	76.227	62.273	19.58	2.8684e-06	25.889	0.00045698	0.00087709	0.00023098	1018.1	8.1562e-06	9.5548e-06	1057.1	221.57	8.2291e-06	9.6078e-06	269.14	79.675	64.807	20.54	8.4709e-06	27.273	222.107	271.855	252.394	179.521	311.845	343.498	179.204	186.145	333.214	325.622	185.872	191.752	191.893	197.738	274.853	197.917	-8191	255	
14565.280	1	1	0	0	0.11838	0.15067	0.18078	0.24595	0.20225	0.058192	0.11006	0.16977	0.086984	0.15069	0.21062	0.51378	0.17248	0.19155	0.10119	0.050983	-2.7354	-3.0479	-3.0417	-2.9417	-3.0771	-3.0708	-2.9333	-3.125	-2.9479	-2.8729	-3.175	-3.025	-3.1896	-3.2062	-2.7167	-3.0687	417.309	312.114	372.847	192.931	423.442	474.307	328.921	402.511	379.216	241.621	528.104	492.929	438.908	174.483	403.843	407.756	0.0002499	0.00019737	9.1598e-05	1003.6	2.5376e-06	3.2687e-06	1037.6	216.59	2.4624e-06	2.388e-06	261.08	76.59	62.299	19.567	3.3951e-06	25.846	0.00045386	0.00082768	0.00023338	1019.7	8.3481e-06	9.6486e-06	1058.8	221.67	8.0318e-06	9.7275e-06	268.76	79.639	64.682	20.518	8.506e-06	27.28	228.245	250.543	264.144	179.310	304.525	322.313	179.365	186.171	300.830	304.210	185.799	191.845	192.058	197.723	302.441	197.932	-8191	255	
14565.378	1	1	0	0	0.10897	0.25479	0.10163	0.19173	0.24611	0.15036	0.36456	0.0060728	0.15143	0.17105	0.10219	0.27192	0.11193	0.11276	0.19883	0.14658	-2.6063	-3	-3.2	-3.0292	-2.925	-3.1521	-3.05	-3.0958	-3.2125	-2.9333	-3.3625	-2.9083	-2.9021	-3.1604	-2.7562	-3.1667	299.317	479.420	388.085	262.406	425.809	215.124	437.920	334.665	328.606	435.658	225.009	438.949	206.873	312.412	376.547	510.453	0.0002478	0.00032202	3.535e-05	1001.9	3.516e-06	3.6502e-06	1036.6	215.52	1.6739e-06	1.3671e-06	261.35	76.173	62.508	19.626	2.7584e-06	26.001	0.00045253	0.00084464	0.00024177	1018.2	8.5103e-06	9.5104e-06	1056.4	221.33	8.1119e-06	9.4965e-06	268.99	79.768	64.745	20.541	8.1508e-06	27.353	225.608	273.698	242.986	179.372	322.176	312.215	179.206	186.020	307.962	319.129	185.602	191.529	191.929	197.739	309.558	198.141	-8191	255	
14565.497	1	1	0	0	0.072865	0.14664	0.073589	0.1519	0.21783	0.019053	0.16036	0.16601	0.054805	0.098903	0.15482	0.1097	0.17673	0.22573	0.25738	0.18216	-2.8333	-2.7562	-2.9188	-3.0938	-2.8042	-2.9938	-3.1417	-3.0625	-2.9938	-2.9104	-3.2125	-3.0833	-2.9354	-3.2687	-2.9688	-3.0708	378.651	433.076	387.246	475.875	507.741	290.397	363.501	188.191	277.356	399.718	225.644	332.450	501.888	201.231	223.747	342.130	0.0002282	0.00028412	6.3733e-05	1000.5	2.912e-06	2.827e-06	1034.6	215.96	3.4904e-06	3.3851e-06	262.75	76.844	62.615	19.608	1.9039e-06	26.089	0.00045284	0.00084809	0.00023031	1018.6	8.303e-06	9.7255e-06	1056.9	221.52	8.0177e-06	9.5874e-06	269.82	79.796	64.923	20.579	8.4628e-06	27.357	223.642	258.831	278.142	179.455	332.898	318.827	179.139	186.080	297.354	302.992	185.972	191.403	191.951	197.752	294.951	198.024	-8191	255	
14565.593	1	1	0	0	0.11597	0.10724	0.12665	0.12897	0.19475	0.10741	0.1516	0.18232	0.10522	0.097428	0.0644	0.12365	0.26948	0.092719	0.17336	0.10788	-2.6542	-2.8833	-3.1396	-3.1188	-2.8271	-3.3083	-3.0354	-3.2375	-3.1771	-2.85	-3.1479	-3.0042	-2.6479	-3.3438	-2.9	-2.8646	350.128	242.107	245.404	520.844	299.038	367.755	497.433	398.332	430.076	207.305	422.021	388.547	467.385	444.620	523.531	246.028	0.00024794	0.00037577	6.7483e-05	998.09	2.5721e-06	2.7947e-06	1034	215.61	3.2173e-06	1.9962e-06	262.2	75.972	62.29	19.632	2.1856e-06	26.046	0.00046191	0.00087028	0.00023323	1016.8	8.2336e-06	9.359e-06	1054.7	221.21	7.823e-06	9.4701e-06	269.38	79.516	64.691	20.557	8.199e-06	27.303	226.421	275.827	275.700	179.538	319.994	328.310	179.115	186.123	302.359	320.118	186.045	191.728	191.729	197.870	339.863	197.888	-8191	255	
14565.689	1	1	0	0	0.31654	0.027696	0.15855	0.31786	0.063311	0.077985	0.16834	0.15792	0.077077	0.39183	0.13935	0.19301	0.16074	0.052923	0.092737	0.22589	-2.8229	-3.0042	-2.9542	-3.1896	-2.7021	-3.1542	-3	-2.9167	-3.1708	-2.8063	-2.9792	-3.2104	-2.875	-3.2792	-3.0854	-2.9813	503.166	203.586	180.711	488.493	183.493	500.522	416.595	402.035	463.929	483.691	465.378	372.873	368.920	338.954	349.763	297.240	0.00023766	0.0003303	7.1206e-05	998.17	2.1575e-06	3.6177e-06	1033	214.94	2.8794e-06	3.0087e-06	261.51	76.588	62.002	19.652	3.1012e-06	25.993	0.00046722	0.00084118	0.00022952	1014.9	8.358e-06	9.3686e-06	1054.5	221.22	7.9824e-06	9.6509e-06	269.19	79.565	64.617	20.6	8.3826e-06	27.321	226.602	268.495	258.399	179.312	315.059	310.355	179.271	186.152	292.010	307.806	186.125	191.885	191.629	197.620	327.890	197.849	-8191	255	
14565.785	1	1	0	0	0.1658	0.13276	0.12827	0.097761	0.22602	0.15374	0.18507	0.076122	0.12915	0.38057	0.07517	0.15729	0.19229	0.14328	0.13262	0.2833	-2.8021	-2.8521	-3.0583	-3.2375	-2.7292	-3.2458	-3.1396	-2.9188	-3.2417	-2.9271	-3.2146	-3.1417	-3.0062	-3.1396	-3.0125	-3.0938	189.594	511.939	206.905	419.458	524.644	521.700	433.365	361.533	204.424	465.656	273.099	395.538	237.222	206.369	444.572	300.937	0.00024744	0.00011234	7.8304e-05	994.7	1.917e-06	2.4536e-06	1031.5	215.1	2.723e-06	2.9621e-06	261.53	76.438	62.144	19.632	1.8555e-06	26.077	0.00044417	0.00082339	0.00023592	1013.6	8.3841e-06	9.27e-06	1052.4	220.97	7.9031e-06	9.761e-06	268.99	79.609	64.565	20.606	8.2411e-06	27.339	223.108	248.759	266.992	179.294	313.980	333.274	179.345	185.934	298.496	324.585	185.899	191.788	191.768	197.466	322.164	197.752	-8191	255	
14565.881	1	1	0	0	0.21496	0.21672	0.33949	0.2466	0.062503	0.031032	0.20831	0.092198	0.19109	0.22199	0.25269	0.059434	0.24354	0.097613	0.064303	0.22629	-2.8333	-2.8896	-2.975	-3.2417	-2.9021	-3.2625	-3.2271	-2.8479	-3.2667	-2.9938	-3.0042	-3.2125	-2.9333	-3.1042	-3.325	-3.0292	411.458	191.402	272.878	509.816	258.643	235.636	460.236	296.905	291.988	500.969	501.524	177.640	173.604	190.610	498.625	347.344	0.00023199	0.00020794	5.5438e-05	997.97	2.21e-06	3.436e-06	1037.1	215	2.1554e-06	2.4814e-06	261.62	76.665	62.322	19.653	2.442e-06	26.105	0.00044736	0.00085406	0.00022601	1015.1	8.1363e-06	9.413e-06	1054.2	220.75	8.045e-06	9.4773e-06	268.74	79.63	64.716	20.669	8.1398e-06	27.391	226.571	257.193	237.965	179.397	329.830	327.432	179.317	186.208	313.188	310.540	185.846	191.679	191.863	197.680	325.846	197.914	-8191	255	
14565.977	1	1	0	0	0.063574	0.1784	0.090871	0.10195	0.18009	0.19875	0.22578	0.3783	0.26287	0.11063	0.19435	0.12525	0.050899	0.28672	0.22173	0.10278	-2.7271	-2.9208	-2.8333	-3.3292	-3.0417	-3.1625	-3.1125	-2.9479	-3.2521	-2.9083	-3.05	-3.3354	-2.9208	-3.1146	-2.9562	-3.0229	356.350	497.168	411.832	470.370	313.872	309.187	481.611	485.913	484.783	209.096	430.172	427.468	216.105	180.173	418.017	255.570	0.00024779	0.00034696	9.6068e-05	994.98	3.1764e-06	2.6084e-06	1034.4	215.67	2.2797e-06	2.3305e-06	261.64	76.938	62.588	19.848	2.1769e-06	26.081	0.00045167	0.00082726	0.00022858	1014.1	8.1787e-06	9.2099e-06	1054.6	221.27	7.8335e-06	9.6353e-06	268.98	79.908	64.887	20.724	8.499e-06	27.416	226.236	261.378	254.768	179.378	305.567	304.891	179.288	186.022	299.155	306.195	185.632	191.590	191.903	197.586	308.018	198.000	-8191	255	
14566.098	1	1	0	0	0.26096	0.054442	0.29695	0.25626	0.12684	0.042403	0.18692	0.13101	0.24503	0.078213	0.14294	0.22701	0.10062	0.31054	0.068082	0.014391	-2.6542	-2.9688	-2.9208	-3.4062	-3.0292	-2.9813	-3.1688	-2.8917	-3.0604	-3.0604	-2.7812	-3.0125	-2.8854	-2.9417	-3.1396	-2.9688	510.124	336.889	492.013	466.293	462.397	459.669	491.801	468.261	387.035	409.926	223.375	408.307	494.785	475.070	342.494	506.487	0.00025179	0.00027304	8.4689e-05	995.4	2.6742e-06	2.5152e-06	1036.1	216.14	2.908e-06	3.0027e-06	261.47	77.137	62.702	19.886	3.3333e-06	26.328	0.00046092	0.00083249	0.00023016	1015.3	8.2508e-06	9.693e-06	1056.1	221.74	7.8485e-06	9.7239e-06	268.99	79.96	65.089	20.725	8.3605e-06	27.49	225.458	242.913	269.648	179.443	301.145	324.610	179.343	186.164	305.153	345.223	185.658	191.174	191.839	197.479	308.355	197.767	-8191	255	
14566.192	1	1	0	0	0.094291	0.35659	0.11451	0.13956	0.069148	0.20691	0.075021	0.13289	0.13164	0.091748	0.33396	0.20087	0.11302	0.17552	0.14005	0.27738	-2.575	-2.975	-2.8167	-3.2188	-3.025	-2.9021	-3.1208	-2.8187	-3.075	-2.8333	-2.9396	-3.1042	-2.9188	-3.0312	-3.0521	-2.8521	433.914	499.611	269.788	366.500	322.440	428.332	482.123	492.188	381.031	394.181	469.202	199.613	208.044	384.183	414.650	439.336	0.00024689	0.00034822	3.4663e-05	997.99	2.8437e-06	3.8856e-06	1031.8	216.16	2.7467e-06	3.182e-06	261.26	76.514	62.515	19.795	1.6487e-06	26.226	0.00045099	0.00082705	0.00022826	1017	8.2174e-06	9.7027e-06	1055.2	221.66	7.9595e-06	9.2367e-06	269.28	79.821	64.942	20.689	8.3806e-06	27.5	227.108	280.930	253.126	179.324	290.515	316.135	179.295	186.267	319.117	367.715	185.897	191.380	191.820	197.652	297.856	198.231	-8191	255	
14566.289	1	1	0	0	0.24668	0.28027	0.11168	0.20871	0.23984	0.22416	0.27995	0.26931	0.14573	0.19029	0.034519	0.2373	0.17279	0.093773	0.15942	0.014375	-2.5417	-3.0438	-2.6688	-3.3104	-3.0167	-2.8667	-3.4292	-2.7521	-3.0354	-3.0792	-2.8354	-3.2438	-2.7917	-3.1042	-3.1125	-3.1375	404.892	374.188	407.020	520.437	300.903	226.545	491.025	487.548	453.550	401.971	356.069	325.310	224.425	235.302	239.364	296.950	0.00022906	0.00036214	9.1817e-05	995.38	1.8017e-06	4.0827e-06	1031.8	216.53	2.8544e-06	3.7867e-06	261.38	76.919	62.435	19.748	2.3148e-06	26.223	0.00044927	0.00086201	0.00023151	1014.5	8.0075e-06	9.2724e-06	1053.2	221.55	7.889e-06	9.4079e-06	269.59	79.956	64.875	20.715	8.2682e-06	27.477	221.796	265.813	275.255	179.393	331.984	319.921	179.322	186.165	306.744	313.493	186.021	191.473	192.203	197.502	319.008	197.733	-8191	255	
14566.385	1	1	0	0	0.11814	0.14828	0.18277	0.37997	0.083174	0.14685	0.050903	0.096856	0.16436	0.16008	0.053787	0.22354	0.10919	0.29953	0.13718	0.10561	-2.6479	-2.9813	-2.7854	-3.0917	-2.9875	-2.9875	-3.2188	-2.9958	-3.1208	-3.1229	-2.925	-3.1479	-3.0854	-2.8542	-3.0646	-3.0687	435.367	237.523	437.663	177.787	231.479	335.489	222.276	405.494	468.759	182.240	194.068	408.214	360.461	402.766	363.384	241.386	0.00023585	0.00018078	8.0847e-05	999.13	3.101e-06	3.0814e-06	1035.2	215.42	2.6779e-06	4.2797e-06	261.4	76.761	62.748	19.823	3.0414e-06	26.17	0.00045691	0.00080277	0.00022987	1015.7	8.1841e-06	9.3265e-06	1055.3	221.21	7.9313e-06	9.3133e-06	269.09	79.85	64.96	20.782	8.3766e-06	27.487	222.610	239.565	240.397	179.482	317.599	311.648	179.379	186.147	312.158	332.448	185.790	191.410	191.747	197.625	315.707	197.815	-8191	255	
14566.481	1	1	0	0	0.025661	0.037087	0.23161	0.038744	0.15133	0.1575	0.17448	0.18692	0.19785	0.24652	0.30718	0.20926	0.066269	0.063445	0.097731	0.20136	-2.5333	-3.2167	-2.8479	-3.3292	-3.0729	-2.8417	-3.3583	-3.0625	-3.025	-3.2583	-2.8271	-3.2021	-3.2542	-2.9062	-3.1292	-2.9688	181.452	204.569	482.468	248.420	381.634	325.250	423.260	491.965	212.307	366.942	429.377	466.533	414.292	442.322	330.490	189.161	0.00025276	0.00025147	9.9893e-05	998.89	3.3645e-06	2.2809e-06	1033.9	215.59	2.7652e-06	3.4699e-06	263.34	77.297	62.463	19.852	2.6082e-06	26.118	0.00044921	0.00083626	0.00023423	1015.5	8.0336e-06	9.5849e-06	1055.1	221.32	7.8494e-06	9.3492e-06	269.89	80.201	64.897	20.776	8.4016e-06	27.439	225.029	223.910	242.130	179.343	298.627	307.082	179.209	186.248	305.247	342.519	185.611	191.587	191.634	197.817	296.977	197.750	-8191	255	
14566.577	1	1	0	0	0.12141	0.1804	0.13376	0.21473	0.050328	0.07454	0.081781	0.033264	0.098064	0.11625	0.10329	0.18404	0.24995	0.22086	0.11913	0.12402	-2.5167	-3.2583	-2.9813	-3.1604	-3.2021	-2.7854	-3.2854	-3.0396	-2.9083	-3.1354	-2.9958	-3.0354	-3.2042	-2.9125	-3.1792	-3.1875	463.445	318.891	184.949	471.162	324.304	525.538	495.902	289.261	438.898	359.117	266.126	488.512	471.509	231.276	399.825	440.237	0.00023797	0.00033346	0.00012741	996.42	2.5503e-06	3.7873e-06	1030.9	216.3	2.6276e-06	3.66e-06	262.9	76.734	62.598	19.993	1.8632e-06	26.174	0.00045667	0.00083438	0.00023788	1015.2	8.0228e-06	9.5356e-06	1054.9	221.93	8.3631e-06	9.0296e-06	269.72	80.098	65.174	20.835	8.3906e-06	27.583	227.254	266.778	239.677	179.258	302.404	321.908	179.269	186.010	309.661	332.709	185.901	191.671	191.756	197.538	303.541	197.605	-8191	255	
14566.673	1	1	0	0	0.32387	0.16079	0.23271	0.13629	0.060634	0.16951	0.29682	0.19279	0.13646	0.094817	0.28795	0.23557	0.20599	0.089747	0.12928	0.12689	-2.3937	-3.0875	-2.9	-3.0625	-3.2604	-2.9354	-3.125	-3.1854	-2.8604	-3.3021	-3.1104	-3.1292	-3.2625	-2.8979	-3.0438	-3.2458	361.357	495.434	390.405	419.855	242.617	470.119	479.143	479.910	246.590	373.885	483.341	238.653	220.597	231.833	241.965	320.217	0.00025321	0.00027974	0.00011729	999.4	3.2657e-06	2.7707e-06	1034.7	217.14	1.93e-06	3.0218e-06	262.3	77.577	62.494	19.96	2.068e-06	26.152	0.00045595	0.00085123	0.00022601	1017.2	8.1345e-06	9.3421e-06	1056.5	222.28	7.8309e-06	9.0894e-06	269.77	80.183	65.106	20.847	8.2261e-06	27.54	226.557	244.252	256.882	179.282	305.341	337.583	179.425	186.068	301.861	312.262	185.727	191.745	191.793	197.510	318.709	197.993	-8191	255	
14566.794	1	1	0	0	0.05733	0.10729	0.19937	0.31318	0.11075	0.082595	0.22668	0.15364	0.1851	0.040972	0.26654	0.23059	0.33765	0.30126	0.090469	0.1563	-2.3292	-3.0667	-2.8396	-2.9229	-3.2438	-2.9146	-3.1083	-2.9437	-2.8187	-3.2479	-2.7979	-2.8479	-3.2958	-2.9104	-2.8833	-3.1729	423.540	334.530	271.370	512.273	169.366	404.435	469.549	345.543	384.146	292.611	475.663	453.762	236.868	487.168	474.292	456.685	0.00023683	0.00026993	8.6441e-05	1001.5	2.302e-06	3.1613e-06	1036.2	216.38	2.3254e-06	4.539e-06	262.3	76.815	62.877	19.818	2.8003e-06	26.173	0.00044732	0.00080758	0.00023803	1017.5	7.8876e-06	9.7039e-06	1056.1	222.22	8.0573e-06	9.2906e-06	269.7	80.042	65.141	20.818	8.201e-06	27.548	221.489	264.053	265.185	179.308	309.251	278.051	179.498	186.122	292.772	337.051	185.806	191.549	191.565	197.690	313.529	197.768	-8191	255	
14566.890	1	1	0	0	0.19779	0.22277	0.22645	0.22332	0.26457	0.12238	0.33982	0.21029	0.15517	0.07376	0.2132	0.10338	0.1173	0.087213	0.069257	0.11238	-2.5	-3.0979	-3.0458	-3.125	-3.1896	-3.0167	-3.3312	-3.2292	-2.9042	-3.2	-3.1104	-2.9813	-3.0792	-3.0542	-2.9292	-3.025	349.870	314.820	183.317	202.836	427.463	482.320	448.575	235.372	477.453	499.944	441.540	199.542	425.503	201.873	420.897	339.323	0.00023166	0.00032992	8.1376e-05	1002	2.23e-06	3.8825e-06	1037	217.5	2.5602e-06	2.1562e-06	262.37	77.302	62.548	19.9	1.9702e-06	26.246	0.00046253	0.00080947	0.00023186	1017.1	7.921e-06	9.4455e-06	1057	222.16	7.8186e-06	9.3516e-06	269.93	80.267	65.151	20.819	8.505e-06	27.541	224.253	250.267	267.689	179.172	328.261	339.777	179.517	186.193	303.386	309.068	185.744	191.571	191.790	197.433	330.605	197.835	-8191	255	
14566.986	1	1	0	0	0.23478	0.10073	0.26608	0.29554	0.10377	0.18394	0.20302	0.29434	0.14326	0.14156	0.063696	0.23964	0.065145	0.32077	0.14649	0.16256	-2.3875	-3.0417	-2.9833	-3.0146	-3.1646	-3.1208	-3.0604	-3.3458	-2.9333	-3.1229	-3.125	-2.9729	-3.15	-3.1792	-2.9562	-3.1937	353.584	279.935	376.637	509.225	227.077	514.651	495.610	177.195	220.239	362.795	362.434	511.797	495.753	506.960	311.873	465.884	0.00024698	0.00025937	0.00010091	998.72	3.3858e-06	2.8039e-06	1034.5	216.09	3.2135e-06	3.1664e-06	262.71	77.249	62.58	19.96	1.7216e-06	26.143	0.00045633	0.00083281	0.00022194	1016.7	7.9399e-06	9.1439e-06	1055.8	221.99	7.9428e-06	9.4151e-06	270.01	80.114	65.173	20.881	7.9983e-06	27.549	226.293	270.330	259.886	179.291	284.127	281.943	179.225	186.090	308.827	295.480	185.836	191.589	191.857	197.878	342.496	197.847	-8191	255	
14567.058	1	1	0	0	0.13127	0.058009	0.14905	0.086003	0.26338	0.23183	0.0865	0.19004	0.20679	0.083005	0.28457	0.15191	0.20388	0.21023	0.105	0.19344	-2.5146	-3.3229	-3.2646	-2.8812	-3.1312	-3.0521	-3.0458	-3.4437	-3.0104	-3.2229	-3.3333	-2.7562	-3.2771	-2.9833	-3.0646	-3.2104	206.880	298.032	297.592	431.924	270.296	483.416	389.385	518.746	307.012	272.933	424.466	520.636	445.858	521.872	432.852	415.560	0.0002381	0.00018568	5.1102e-05	998.78	2.4671e-06	3.1396e-06	1036.4	216.43	2.228e-06	4.6858e-06	262.71	77.107	62.373	19.978	2.0247e-06	26.318	0.00044058	0.00082286	0.00022481	1016.8	7.738e-06	9.7687e-06	1056.8	222.17	7.7604e-06	9.1924e-06	270.13	80.234	65.11	20.862	8.1859e-06	27.635	228.989	226.174	273.419	179.383	291.415	323.908	179.312	186.297	304.830	322.674	185.599	191.789	191.916	197.574	296.321	197.701	-8191	255	
14567.177	1	1	0	0	0.16639	0.13845	0.079401	0.072058	0.055297	0.04763	0.18747	0.20198	0.36221	0.14972	0.04631	0.10711	0.20392	0.18599	0.036148	0.11597	-2.4979	-2.9104	-3.1375	-2.8375	-3.0854	-3.1604	-3.0563	-3.3438	-3.0958	-3.0542	-3.2542	-2.7687	-2.9271	-3.0208	-2.9271	-3.25	525.653	380.939	362.783	437.547	263.812	424.540	440.546	396.622	168.529	514.459	415.507	503.541	508.797	175.230	417.385	439.086	0.0002433	0.00026955	5.9138e-05	996.2	3.4875e-06	3.0326e-06	1034.7	216.07	3.043e-06	2.9483e-06	262.96	77.23	62.819	20.01	4.0127e-06	26.532	0.00043835	0.00082255	0.00022835	1015.4	8.167e-06	8.9324e-06	1057.3	222.38	7.741e-06	9.5204e-06	270.42	80.345	65.293	20.938	8.2451e-06	27.772	226.069	278.638	260.972	179.340	309.923	335.930	179.278	186.130	317.939	337.897	185.785	191.250	191.822	197.443	342.122	197.662	-8191	255	
#DATA ENDS
