BOXY.EXE: ISS Imagent and Oximeter Data Acquisition Program Version 0.80
Ascii Record File

#ACQ INFORMATION
2  Detector Channels 
16  External MUX Channels 
1  Auxiliary Channels 
5000  Waveform (CCF) Frequency (Hz)
1  Waveforms Skipped 
30  Waveforms Averaged 
1  Cycles Averaged 
16  Acquisitions per Waveform 
10.0806  Updata Rate (Hz) 

#FILE INFORMATION
TRUE -- External MUX Channel results are PARSED.
FALSE -- AC DC and Phase are NOT grouped.
TRUE -- Companion Program Settings File CREATED.
FALSE -- AC data not excluded
FALSE -- DC data not excluded
FALSE -- Phase data not excluded
FALSE -- Auxillary Chn. data not excluded
Tab delimiters

#CALIBRATION STATE
TRUE -- Waveform Calibration Values APPLIED.


#AUX CALIBRATION VALUES
Val Type	aux-1	

Term	1.0000e+00	
Factor	0.0000e+00	


#WF CALIBRATION VALUES
A = Detector Channel
Val Type	A-AC1	A-AC2	A-AC3	A-AC4	A-AC5	A-AC6	A-AC7	A-AC8	A-AC9	A-AC10	A-AC11	A-AC12	A-AC13	A-AC14	A-AC15	A-AC16	A-DC1	A-DC2	A-DC3	A-DC4	A-DC5	A-DC6	A-DC7	A-DC8	A-DC9	A-DC10	A-DC11	A-DC12	A-DC13	A-DC14	A-DC15	A-DC16	A-Ph1	A-Ph2	A-Ph3	A-Ph4	A-Ph5	A-Ph6	A-Ph7	A-Ph8	A-Ph9	A-Ph10	A-Ph11	A-Ph12	A-Ph13	A-Ph14	A-Ph15	A-Ph16	

Term	0.00000e+00	0.00000e+00	0.00000e+00	0.00000e+00	0.00000e+00	0.00000e+00	0.00000e+00	0.00000e+00	0.00000e+00	0.00000e+00	0.00000e+00	0.00000e+00	0.00000e+00	0.00000e+00	0.00000e+00	0.00000e+00	0.00000e+00	0.00000e+00	0.00000e+00	0.00000e+00	0.00000e+00	0.00000e+00	0.00000e+00	0.00000e+00	0.00000e+00	0.00000e+00	0.00000e+00	0.00000e+00	0.00000e+00	0.00000e+00	0.00000e+00	0.00000e+00	0.00000e+00	0.00000e+00	0.00000e+00	0.00000e+00	0.00000e+00	0.00000e+00	0.00000e+00	0.00000e+00	0.00000e+00	0.00000e+00	0.00000e+00	0.00000e+00	0.00000e+00	0.00000e+00	0.00000e+00	0.00000e+00	
Factor	1.00000e+00	1.00000e+00	1.00000e+00	1.00000e+00	1.00000e+00	1.00000e+00	1.00000e+00	1.00000e+00	1.00000e+00	1.00000e+00	1.00000e+00	1.00000e+00	1.00000e+00	1.00000e+00	1.00000e+00	1.00000e+00	1.00000e+00	1.00000e+00	1.00000e+00	1.00000e+00	1.00000e+00	1.00000e+00	1.00000e+00	1.00000e+00	1.00000e+00	1.00000e+00	1.00000e+00	1.00000e+00	1.00000e+00	1.00000e+00	1.00000e+00	1.00000e+00	X	X	X	X	X	X	X	X	X	X	X	X	X	X	X	X	

B = Detector Channel
Val Type	B-AC1	B-AC2	B-AC3	B-AC4	B-AC5	B-AC6	B-AC7	B-AC8	B-AC9	B-AC10	B-AC11	B-AC12	B-AC13	B-AC14	B-AC15	B-AC16	B-DC1	B-DC2	B-DC3	B-DC4	B-DC5	B-DC6	B-DC7	B-DC8	B-DC9	B-DC10	B-DC11	B-DC12	B-DC13	B-DC14	B-DC15	B-DC16	B-Ph1	B-Ph2	B-Ph3	B-Ph4	B-Ph5	B-Ph6	B-Ph7	B-Ph8	B-Ph9	B-Ph10	B-Ph11	B-Ph12	B-Ph13	B-Ph14	B-Ph15	B-Ph16	

Term	0.00000e+00	0.00000e+00	0.00000e+00	0.00000e+00	0.00000e+00	0.00000e+00	0.00000e+00	0.00000e+00	0.00000e+00	0.00000e+00	0.00000e+00	0.00000e+00	0.00000e+00	0.00000e+00	0.00000e+00	0.00000e+00	0.00000e+00	0.00000e+00	0.00000e+00	0.00000e+00	0.00000e+00	0.00000e+00	0.00000e+00	0.00000e+00	0.00000e+00	0.00000e+00	0.00000e+00	0.00000e+00	0.00000e+00	0.00000e+00	0.00000e+00	0.00000e+00	-5.24022e+01	-1.64169e+02	-9.76990e+01	-1.80969e+02	-5.66720e+01	-9.77327e+01	-1.56073e+02	-1.62015e+02	-2.91745e+01	-6.44927e+01	-1.73276e+02	-1.70265e+02	-1.82009e+02	-1.76771e+02	-6.96488e+01	-1.50163e+02	
Factor	1.86859e-05	9.78118e-05	2.79070e-05	1.67683e-01	9.76611e-07	1.10387e-06	1.73110e-01	5.09591e-02	1.07639e-06	1.05178e-06	1.04153e-01	2.91335e-02	3.50756e-02	9.31146e-03	9.58455e-07	1.36155e-02	6.11716e-07	6.27859e-07	1.75053e-07	7.79073e-02	6.84918e-09	6.89061e-09	7.55109e-02	2.36384e-02	6.84905e-09	6.88618e-09	4.50172e-02	1.28399e-02	1.55609e-02	4.22386e-03	6.88738e-09	5.88561e-03	X	X	X	X	X	X	X	X	X	X	X	X	X	X	X	X	



#DISTANCE SETTINGS
A = Detector Channel
A-1	A-2	A-3	A-4	A-5	A-6	A-7	A-8	A-9	A-10	A-11	A-12	A-13	A-14	A-15	A-16	

2.5000e+00	3.0000e+00	2.5000e+00	3.0000e+00	2.0000e+00	3.0000e+00	1.5000e+00	3.0000e+00	3.0000e+00	3.0000e+00	3.0000e+00	3.0000e+00	3.0000e+00	3.0000e+00	1.5000e+00	3.0000e+00	

B = Detector Channel
B-1	B-2	B-3	B-4	B-5	B-6	B-7	B-8	B-9	B-10	B-11	B-12	B-13	B-14	B-15	B-16	

1.0000e+01	1.0000e+01	1.0000e+01	1.4400e+00	1.0000e+01	1.0000e+01	1.5100e+00	1.9400e+00	1.0000e+01	1.0000e+01	1.9900e+00	2.4900e+00	2.4100e+00	2.9000e+00	1.0000e+01	2.9800e+00	




#DATA BEGINS
time	group	step	mark	flag	A-AC1	A-AC2	A-AC3	A-AC4	A-AC5	A-AC6	A-AC7	A-AC8	A-AC9	A-AC10	A-AC11	A-AC12	A-AC13	A-AC14	A-AC15	A-AC16	A-DC1	A-DC2	A-DC3	A-DC4	A-DC5	A-DC6	A-DC7	A-DC8	A-DC9	A-DC10	A-DC11	A-DC12	A-DC13	A-DC14	A-DC15	A-DC16	A-Ph1	A-Ph2	A-Ph3	A-Ph4	A-Ph5	A-Ph6	A-Ph7	A-Ph8	A-Ph9	A-Ph10	A-Ph11	A-Ph12	A-Ph13	A-Ph14	A-Ph15	A-Ph16	B-AC1	B-AC2	B-AC3	B-AC4	B-AC5	B-AC6	B-AC7	B-AC8	B-AC9	B-AC10	B-AC11	B-AC12	B-AC13	B-AC14	B-AC15	B-AC16	B-DC1	B-DC2	B-DC3	B-DC4	B-DC5	B-DC6	B-DC7	B-DC8	B-DC9	B-DC10	B-DC11	B-DC12	B-DC13	B-DC14	B-DC15	B-DC16	B-Ph1	B-Ph2	B-Ph3	B-Ph4	B-Ph5	B-Ph6	B-Ph7	B-Ph8	B-Ph9	B-Ph10	B-Ph11	B-Ph12	B-Ph13	B-Ph14	B-Ph15	B-Ph16	aux-1	digaux	

3828.181	1	1	0	512	0.18298	0.063382	0.070658	0.28318	0.27896	0.067865	0.17293	0.22248	0.2428	0.11176	0.10435	0.089173	0.146	0.038758	0.28632	0.14407	-2.0625	-2.5396	-2.4417	-2.7167	-2.5979	-2.4521	-2.9062	-2.4542	-2.525	-2.6312	-2.2438	-2.7958	-2.3625	-2.4417	-2.6708	-2.6375	139.947	227.974	229.912	-26.999	175.957	15.628	-38.609	175.734	50.494	246.726	229.350	244.265	120.176	231.983	111.870	258.641	0.00022551	0.0005782	2.4903e-05	400.14	4.9587e-06	4.7066e-06	558.84	165.77	3.4191e-06	3.0347e-06	256.33	117.72	78.086	41.266	5.495e-07	59.306	0.00051136	0.00047123	0.00012318	446.35	5.5582e-06	5.0802e-06	594.16	179.62	5.543e-06	5.157e-06	271.04	122.34	85.934	42.814	5.0399e-06	60.423	243.652	-44.951	37.771	-73.781	45.175	-47.214	-75.437	-67.449	136.149	0.210	-70.822	-66.195	-63.239	-58.402	67.431	-62.597	-8191	255	
3828.278	1	1	0	0	0.029624	0.08023	0.10935	0.15907	0.04795	0.14738	0.30916	0.26383	0.23225	0.052712	0.094606	0.25311	0.19053	0.2257	0.010205	0.30141	-1.9333	-2.6875	-2.225	-2.7229	-2.6396	-2.4125	-2.6958	-2.4833	-2.3812	-2.8417	-2.3792	-2.775	-2.7	-2.3812	-2.6354	-2.4792	265.869	46.245	57.905	194.103	76.392	36.751	102.326	212.858	175.704	50.247	213.878	223.852	16.909	-53.265	156.069	-31.091	0.00021093	0.0006771	0.00011676	392.73	4.7993e-06	8.2183e-06	551.25	163.12	4.4831e-06	1.7886e-06	252.68	115.57	77.302	40.846	6.4978e-06	58.743	0.00052956	0.00049406	0.00013172	450.18	5.9838e-06	5.488e-06	591.59	179.71	5.9726e-06	5.516e-06	269.89	122.02	85.436	42.432	5.3872e-06	60.341	273.116	-19.925	81.387	-73.940	89.890	27.493	-75.566	-67.279	90.181	26.774	-70.922	-66.496	-62.871	-58.551	200.698	-62.448	-8191	255	
3828.374	1	1	0	0	0.10173	0.24441	0.019535	0.099687	0.15729	0.12324	0.2699	0.062284	0.17691	0.11502	0.078697	0.18867	0.25882	0.24825	0.021601	0.33013	-1.8479	-2.7708	-2.2604	-2.5542	-2.6188	-2.4417	-2.7229	-2.6688	-2.4792	-2.7188	-2.4	-2.7417	-2.7438	-2.3625	-2.8229	-2.4813	80.040	1.284	201.876	-15.207	106.014	273.903	203.206	177.868	41.086	262.706	138.447	151.432	94.875	211.905	182.047	124.156	0.00018441	0.00050409	6.1152e-05	393.82	5.7024e-06	5.0553e-06	545.67	163.24	1.0117e-05	3.1487e-06	252.6	115.17	76.644	40.773	9.6529e-06	58.666	0.0005303	0.00049464	0.00013947	452.39	5.8448e-06	5.4666e-06	593.8	180.31	5.813e-06	5.4903e-06	272.19	122.14	84.959	42.282	5.6957e-06	60.266	259.189	273.683	236.397	-73.928	65.966	25.216	-75.662	-67.319	124.679	44.746	-70.752	-66.460	-63.289	-58.390	229.078	-62.704	-8191	255	
3828.470	1	1	0	0	0.043417	0.11192	0.062837	0.047824	0.11696	0.2144	0.029959	0.08891	0.060946	0.31082	0.058635	0.15174	0.1562	0.22332	0.26364	0.10432	-2.0125	-2.7	-2.4208	-2.6292	-2.7708	-2.175	-2.6604	-2.3729	-2.1521	-2.7438	-2.5521	-2.5104	-2.6937	-2.4458	-2.5271	-2.6667	238.048	135.344	242.829	196.095	-7.398	-53.931	-33.424	-54.176	144.652	-55.756	37.853	161.727	-55.067	144.321	201.971	-19.086	0.00019995	0.00019984	0.00012961	392.9	2.5722e-06	8.6163e-06	546.17	162.56	5.233e-06	4.0572e-06	250.47	115.8	76.913	40.63	4.0779e-06	58.612	0.00050384	0.0004764	0.00014526	449.05	5.4925e-06	5.1891e-06	594.37	179.14	5.4522e-06	5.2152e-06	273.07	121.75	84.375	42.286	6.0583e-06	60.057	-82.069	-26.557	142.000	-73.717	27.995	18.342	-75.506	-67.092	51.767	83.624	-70.702	-66.454	-63.333	-58.447	170.678	-62.448	-8191	255	
3828.566	1	1	0	0	0.47019	0.24656	0.27811	0.15088	0.085368	0.2328	0.10083	0.29061	0.25745	0.21005	0.086441	0.26249	0.26427	0.37133	0.08499	0.074578	-1.9562	-2.6479	-2.2812	-2.4583	-2.6833	-2.3458	-2.6354	-2.6937	-2.3417	-2.8333	-2.4958	-2.4708	-2.7354	-2.4229	-2.4729	-2.6667	96.056	41.528	175.324	110.962	35.015	162.938	186.261	70.543	253.181	128.401	-24.450	261.978	136.846	241.146	201.915	-55.154	0.00016426	0.00018352	0.00012305	390.33	4.4348e-06	3.904e-06	548.07	162.29	3.2487e-06	5.2166e-06	253.66	116.17	77.189	40.731	2.1788e-06	58.753	0.00050162	0.00048795	0.00015567	446.05	5.4597e-06	5.3458e-06	599.32	178.43	5.331e-06	5.3023e-06	275.9	121.49	83.959	42.41	6.0602e-06	59.895	251.697	32.635	106.716	-74.004	103.384	55.396	-75.442	-67.164	40.780	108.516	-70.681	-66.532	-63.494	-58.304	55.423	-62.348	-8191	255	
3828.660	1	1	0	0	0.041072	0.1448	0.1116	0.16988	0.38657	0.17408	0.20296	0.22605	0.35189	0.069609	0.13853	0.17832	0.19849	0.12134	0.23624	0.16999	-1.9021	-2.6312	-2.3063	-2.3146	-2.7896	-2.3812	-2.6646	-2.55	-2.0438	-2.7771	-2.6	-2.5521	-2.8563	-2.5958	-2.4396	-2.7708	69.993	61.760	126.031	-45.474	15.406	-35.321	194.528	223.296	118.292	-37.266	249.685	-79.777	11.592	-28.190	167.054	209.193	0.00020081	0.00028278	5.0121e-05	390.54	3.4839e-06	5.4809e-06	548.17	161.95	4.7472e-06	5.4923e-06	251.24	115.85	76.675	40.635	7.0801e-06	58.507	0.000474	0.00049495	0.00015637	441.78	5.2365e-06	5.5885e-06	598.31	177.46	5.2278e-06	5.712e-06	274.7	120.72	83.69	42.566	6.0341e-06	59.428	263.911	34.851	233.976	-73.666	87.681	121.543	-75.718	-67.326	49.528	150.007	-70.735	-66.618	-63.276	-58.337	44.894	-62.611	-8191	255	
3828.758	1	1	0	0	0.10952	0.3615	0.2358	0.069475	0.20759	0.085504	0.038515	0.33062	0.13326	0.10812	0.15192	0.22146	0.33289	0.1446	0.28067	0.025885	-1.9021	-2.5667	-2.5687	-2.2896	-2.8917	-2.4854	-2.5083	-2.8917	-2.2146	-2.6417	-2.7208	-2.3812	-2.8729	-2.4375	-2.5521	-2.8875	213.390	206.872	-64.978	171.036	-12.021	229.712	-38.351	-58.150	96.036	248.556	250.464	263.039	243.494	177.429	-72.401	229.788	0.00026917	0.00011853	7.2691e-05	390.02	1.0367e-06	2.2244e-06	547.74	162.7	5.9008e-06	4.7594e-06	252.73	116.13	77.388	40.759	4.968e-06	58.603	0.00046637	0.00052233	0.00014825	439.48	5.0203e-06	5.7196e-06	594.44	176.7	4.9891e-06	5.7663e-06	272.12	120.4	83.683	42.789	5.6079e-06	59.244	-85.090	24.664	-10.731	-73.774	147.109	241.015	-75.498	-67.259	203.282	108.686	-70.778	-66.672	-63.291	-58.333	12.811	-62.596	-8191	255	
3828.877	1	1	0	0	0.1257	0.081165	0.089259	0.13312	0.15753	0.068545	0.24906	0.10987	0.093324	0.16611	0.31319	0.21602	0.26989	0.14858	0.041594	0.11732	-1.7354	-2.4458	-2.4396	-2.175	-2.7125	-2.6583	-2.3604	-2.6208	-2.3146	-2.4958	-2.7979	-2.1854	-2.7229	-2.5875	-2.4917	-2.8792	63.623	-64.954	-42.796	244.030	24.515	260.867	272.318	220.451	84.832	114.882	210.204	-60.629	261.366	141.883	36.091	-70.679	0.00026614	0.00034446	5.3902e-05	390.96	1.4088e-06	1.1054e-06	549.09	162.77	5.8322e-06	5.7828e-06	255.07	116.26	77.4	41.059	5.3785e-07	58.951	0.00046164	0.00053169	0.00014079	437.88	5.092e-06	5.8609e-06	591.79	176.47	5.089e-06	5.7656e-06	271.43	120.3	84.103	42.877	5.1808e-06	59.347	245.551	70.744	-74.480	-73.686	218.918	112.488	-75.466	-67.368	273.343	115.613	-70.965	-66.578	-63.200	-58.674	80.605	-62.509	-8191	255	
3828.973	1	1	0	0	0.070965	0.11669	0.24726	0.1422	0.14434	0.20734	0.32884	0.084124	0.060228	0.14663	0.23685	0.11618	0.072103	0.19844	0.072157	0.12041	-2.0542	-2.5604	-2.7417	-2.4896	-2.7167	-2.3792	-2.2646	-2.7146	-2.2438	-2.5833	-2.6375	-2.4042	-2.6625	-2.4667	-2.1729	-2.8417	81.019	125.384	53.598	-83.429	107.224	33.806	134.254	240.759	-74.301	-10.364	160.953	191.123	22.542	-67.058	36.977	196.025	0.00031676	0.00032614	0.00012159	394.57	3.9047e-06	5.4739e-06	554.21	165.03	4.4536e-06	2.8043e-06	255.13	117.08	77.971	41.436	2.5546e-06	59.51	0.00046809	0.00051255	0.00012913	437.92	5.1858e-06	5.5224e-06	592.32	176.72	5.2075e-06	5.3965e-06	270.63	120.85	85.109	43.08	4.8926e-06	59.722	250.953	263.630	-0.064	-73.616	239.483	63.496	-75.616	-67.515	256.921	-8.326	-71.008	-66.147	-63.161	-58.414	-61.814	-62.318	-8191	255	
3829.045	1	1	0	0	0.11539	0.070371	0.24497	0.11846	0.25133	0.15201	0.19585	0.075764	0.074178	0.18321	0.13199	0.075309	0.16214	0.31705	0.10106	0.30587	-1.9458	-2.5667	-2.5833	-2.3667	-2.5771	-2.6562	-2.3187	-2.7	-2.4833	-2.4938	-2.6688	-2.4854	-2.7021	-2.7292	-2.1646	-2.8771	37.957	47.706	1.958	217.776	234.899	64.870	-22.267	-46.494	192.318	-76.541	97.472	25.034	100.193	-72.260	254.588	-30.651	0.00028099	0.0010145	9.2226e-05	397.86	1.0738e-06	9.8158e-06	559.24	165.65	2.5882e-06	9.7962e-06	257.69	118.96	79.052	41.767	3.952e-06	59.94	0.00048135	0.00047417	0.00012077	440.03	5.1986e-06	5.0368e-06	592.13	177.59	5.1276e-06	4.8298e-06	269.89	121.59	85.38	43.001	4.4138e-06	59.895	255.481	-56.595	1.200	-73.961	60.003	47.816	-75.492	-67.409	153.857	56.580	-70.766	-66.525	-63.210	-58.437	69.532	-62.282	-8191	255	
3829.166	1	1	0	0	0.1574	0.20369	0.28668	0.10853	0.21084	0.11096	0.1961	0.15342	0.06994	0.043301	0.18505	0.16661	0.064889	0.15078	0.059699	0.20252	-1.9708	-2.2812	-2.6979	-2.3896	-2.5187	-2.6458	-2.3521	-2.8	-2.5146	-2.4708	-2.7271	-2.4583	-2.3458	-2.7438	-2.3854	-2.7729	-18.888	-39.044	42.883	208.934	252.596	146.840	270.307	194.493	32.228	-65.034	263.230	179.244	230.641	183.486	-31.644	-78.076	0.00021692	0.0006164	0.00020665	403.48	5.6568e-06	2.587e-06	560.41	166.73	2.6752e-06	6.1308e-06	258.63	118.11	79.05	41.618	4.2631e-06	59.919	0.00046015	0.00042699	0.0001118	443.4	5.0801e-06	4.6945e-06	592.12	178.97	5.0773e-06	4.633e-06	269.19	121.7	85.295	42.824	4.3408e-06	60.008	260.619	-70.876	31.942	-74.040	102.565	101.372	-75.597	-67.447	102.719	52.633	-70.764	-66.617	-63.423	-58.493	32.396	-62.850	-8191	255	
3829.262	1	1	0	0	0.27476	0.086614	0.025337	0.21869	0.26023	0.21717	0.21584	0.39125	0.17965	0.12332	0.14498	0.074639	0.28749	0.3487	0.29126	0.33043	-1.9458	-2.3396	-2.8125	-2.3604	-2.5229	-2.6896	-2.3625	-2.6229	-2.5792	-2.5417	-2.8688	-2.4583	-2.5042	-2.6646	-2.0729	-2.8208	-3.714	129.288	86.610	216.733	152.821	183.950	167.812	186.239	171.328	149.907	222.922	-66.388	-66.960	-76.097	-34.654	-48.594	0.0002719	0.00034835	0.00014926	405.2	3.5735e-06	3.7304e-06	562.06	166.74	4.858e-06	5.1136e-06	258.21	118.45	79.461	41.903	2.9299e-06	60.204	0.0004547	0.00041514	0.00010962	448.36	4.9415e-06	4.5438e-06	592.8	180.17	4.8728e-06	4.4918e-06	269.32	122.42	84.896	42.862	4.2615e-06	60.273	-85.324	-0.369	56.883	-73.866	92.313	70.050	-75.442	-67.452	50.677	49.890	-70.651	-66.380	-63.217	-58.424	260.838	-62.572	-8191	255	
3829.358	1	1	0	0	0.39807	0.027254	0.077719	0.12864	0.17898	0.19175	0.19252	0.22563	0.10588	0.34828	0.084633	0.065305	0.091501	0.29804	0.17045	0.12579	-2.1083	-2.2417	-2.6146	-2.5312	-2.45	-2.6958	-2.3063	-2.6458	-2.6375	-2.2521	-2.8375	-2.7396	-2.4917	-2.8979	-2.4521	-2.6875	-30.459	217.001	56.183	269.358	158.046	162.013	-44.816	254.773	119.912	-55.887	234.549	226.404	-50.793	240.999	-66.052	66.533	0.00021108	0.00060681	7.8184e-05	404.11	2.6876e-06	3.0883e-06	562.57	168.28	6.3254e-06	6.7193e-06	260.89	119.09	80.014	42.233	1.2823e-06	60.443	0.0004221	0.00039065	0.00010762	447.57	4.4746e-06	4.1822e-06	593.2	180.93	4.4011e-06	4.1143e-06	270.69	123.01	84.409	42.977	4.2911e-06	60.551	251.826	-31.371	142.200	-73.734	91.641	54.022	-75.331	-67.518	101.031	41.541	-70.711	-66.416	-63.197	-58.425	230.013	-62.515	-8191	255	
3829.479	1	1	0	0	0.29767	0.020447	0.27764	0.1488	0.33775	0.15086	0.23626	0.061926	0.091872	0.34288	0.34604	0.37593	0.26885	0.10429	0.2156	0.16176	-2.1854	-2.1437	-2.6125	-2.725	-2.4125	-2.6792	-2.5521	-2.7313	-2.65	-2.3563	-2.8521	-2.5417	-2.4875	-2.7917	-2.4333	-2.5	106.101	259.799	10.870	148.777	259.156	113.895	202.590	-32.105	21.966	50.227	244.406	-59.235	-49.098	164.444	87.666	157.616	0.00025534	0.00041617	4.6446e-05	408.35	4.9164e-06	4.4696e-06	564.46	169.74	2.9886e-06	1.5208e-06	262.96	121.06	80.52	42.416	4.0979e-07	60.882	0.00038942	0.0003679	0.00010975	448.61	4.2248e-06	4.0109e-06	597.33	181.27	4.1396e-06	3.9141e-06	273.33	123.48	84.371	43.127	4.4263e-06	60.722	269.516	-68.707	163.023	-73.750	73.392	-1.769	-75.573	-67.516	123.979	-21.080	-70.813	-66.368	-63.139	-58.529	117.480	-62.641	-8191	255	
3829.573	1	1	0	0	0.13602	0.20203	0.20856	0.19283	0.19744	0.18804	0.16707	0.27581	0.21046	0.25094	0.14618	0.23728	0.21796	0.14739	0.17888	0.068756	-2.2062	-2.2271	-2.5333	-2.5708	-2.325	-2.6646	-2.3417	-2.3625	-2.6417	-2.425	-2.5646	-2.675	-2.4313	-2.9667	-2.6646	-2.6375	89.606	241.732	56.071	1.921	121.383	-21.246	231.307	12.510	-21.860	155.978	221.393	215.568	162.433	212.331	31.009	201.859	0.00018979	0.00034408	0.00021804	409.98	5.4659e-06	2.3488e-06	569.49	169.91	4.0589e-06	5.9654e-06	261.58	120.87	80.579	42.515	4.1082e-06	60.761	0.00037317	0.00035794	0.00011325	448.63	4.0364e-06	3.9566e-06	601.9	181.07	4.0403e-06	3.9839e-06	274.51	123.22	84.256	43.222	4.5891e-06	60.459	-76.533	212.083	104.694	-73.904	20.685	-35.766	-75.589	-67.770	28.987	129.393	-70.595	-66.540	-63.283	-58.581	78.693	-62.639	-8191	255	
3829.646	1	1	0	0	0.058069	0.13291	0.089552	0.15339	0.20714	0.10577	0.16316	0.1197	0.32464	0.097403	0.16909	0.27895	0.096048	0.15478	0.25752	0.5122	-2.4188	-2.2479	-2.7083	-2.6354	-2.2542	-2.7812	-2.6167	-2.4542	-2.7667	-2.5167	-2.5521	-2.7292	-2.3833	-2.7417	-2.7729	-2.5604	141.690	24.494	229.671	78.696	163.392	132.116	213.140	206.426	130.459	262.660	268.641	201.548	227.217	150.258	88.333	189.437	0.00024625	0.00034797	2.1944e-05	410.21	5.1792e-06	3.3472e-06	569.38	170.7	4.1057e-06	5.0917e-07	262.71	119.67	80.137	42.379	5.3728e-06	60.762	0.00036774	0.0003747	0.0001178	446.43	3.9889e-06	4.1664e-06	602.16	180.54	4.0085e-06	4.247e-06	274.24	122.27	84.008	43.327	4.6076e-06	60.284	248.136	114.035	131.837	-73.959	31.631	264.888	-75.630	-67.517	95.895	178.115	-70.705	-66.494	-63.549	-58.427	30.678	-62.403	-8191	255	
3829.743	1	1	0	0	0.37973	0.10501	0.22006	0.21708	0.17389	0.14578	0.088757	0.24501	0.09187	0.078485	0.21926	0.28889	0.16632	0.23691	0.31741	0.13365	-2.4167	-2.4958	-2.4167	-2.6375	-2.3146	-2.7146	-2.5312	-2.5125	-2.7083	-2.4667	-2.4583	-2.8854	-2.375	-2.7938	-2.7917	-2.575	-30.154	-0.120	125.414	-40.320	-65.841	150.750	107.427	238.740	64.361	58.887	241.520	173.640	124.201	214.857	217.885	163.619	0.00024422	8.3588e-05	0.00014735	411	2.0667e-06	4.6518e-06	566.47	170.83	3.7994e-07	6.6253e-07	263.04	120.61	81.06	42.736	4.5689e-06	61.063	0.00036105	0.00039899	0.00011618	446.06	3.955e-06	4.4413e-06	601.5	180.47	3.9187e-06	4.4556e-06	273.27	122.49	84.296	43.703	4.3122e-06	60.487	246.409	101.842	31.107	-73.912	-41.568	80.091	-75.691	-67.758	82.137	203.654	-70.985	-66.468	-63.261	-58.535	59.877	-62.393	-8191	255	
3829.861	1	1	0	0	0.18322	0.42642	0.092201	0.017162	0.16299	0.19946	0.28511	0.2267	0.05891	0.18937	0.1379	0.2598	0.2164	0.048286	0.11628	0.10199	-2.4083	-2.2604	-2.4333	-2.9042	-2.3271	-2.6604	-2.575	-2.3375	-2.5667	-2.5667	-2.4083	-2.9583	-2.3167	-2.6333	-2.6667	-2.3854	192.073	37.633	146.874	-11.832	-9.744	-55.606	145.180	11.673	244.586	94.846	-5.771	194.342	198.885	139.956	79.949	-38.415	0.0002741	0.00010089	0.00016381	413.62	2.2298e-06	5.6173e-06	570.68	171.77	1.0345e-06	3.3517e-06	262.9	120.63	81.04	42.79	5.8545e-06	61.069	0.00035445	0.00040336	0.00010821	445.23	3.9177e-06	4.515e-06	600.08	180.55	4.0104e-06	4.568e-06	272.36	122.5	84.771	43.747	4.1332e-06	60.436	258.650	204.352	-13.680	-74.222	244.054	97.647	-75.475	-67.584	194.587	76.152	-70.778	-66.559	-63.287	-58.493	30.545	-62.660	-8191	255	
3829.958	1	1	0	0	0.16469	0.1791	0.015727	0.10504	0.030967	0.2657	0.13865	0.20253	0.14204	0.13255	0.18032	0.27817	0.058064	0.03158	0.093836	0.096785	-2.3354	-2.4875	-2.0646	-2.5833	-2.4333	-2.5208	-2.6813	-2.2292	-2.7021	-2.4583	-2.3583	-2.7792	-2.4062	-2.4979	-2.7333	-2.4771	52.856	124.813	227.068	157.194	6.926	74.626	141.494	170.883	159.868	6.253	164.075	249.963	204.993	-34.186	190.770	-45.740	0.00028515	0.00058337	5.2284e-05	416.22	3.5979e-06	3.9125e-06	574.83	172.53	1.9753e-06	4.3036e-06	265.22	121.93	81.643	43.084	4.1882e-06	61.292	0.0003698	0.00040513	0.00010273	444.74	4.0536e-06	4.3768e-06	601.09	180.82	4.1047e-06	4.3514e-06	272.8	123.31	85.739	43.97	3.9452e-06	60.521	261.377	243.860	13.244	-73.899	213.304	88.976	-75.689	-67.609	262.483	33.050	-70.439	-66.628	-63.339	-58.525	54.940	-62.542	-8191	255	
3830.054	1	1	0	0	0.18622	0.31006	0.15825	0.056232	0.068682	0.22887	0.17285	0.28242	0.14818	0.18987	0.24512	0.24356	0.22796	0.13195	0.13099	0.13508	-2.2	-2.5542	-2.3583	-2.6188	-2.4479	-2.4646	-2.7521	-2.3292	-2.6146	-2.6021	-2.4375	-2.8396	-2.3229	-2.4771	-2.6208	-2.4354	-67.886	56.542	114.839	-37.408	-36.523	149.835	52.801	161.482	27.165	201.197	-11.372	-54.989	269.828	238.864	257.514	196.569	0.00030551	0.00039731	0.00010361	417.17	3.9134e-06	7.814e-06	576.12	173.24	1.9664e-06	5.6299e-06	264	121.1	82.008	42.865	6.7048e-06	60.712	0.00038433	0.00038869	9.9234e-05	446.68	4.2417e-06	4.1514e-06	601.39	181.3	4.2533e-06	4.1293e-06	271.62	122.97	86.12	43.709	3.8522e-06	60.22	251.884	-38.116	82.450	-73.878	157.298	16.562	-75.530	-67.541	150.506	45.320	-70.872	-66.411	-63.294	-58.527	40.592	-62.833	-8191	255	
3830.174	1	1	0	0	0.022837	0.2379	0.12093	0.15723	0.25758	0.084779	0.13617	0.093262	0.13301	0.20592	0.12799	0.20064	0.23131	0.11062	0.20037	0.13643	-2.1646	-2.5083	-2.3	-2.5917	-2.4604	-2.3854	-2.7542	-2.3271	-2.55	-2.7604	-2.3271	-2.6312	-2.4479	-2.5396	-2.6542	-2.4917	109.365	-82.824	-14.781	166.670	52.386	162.086	191.110	138.540	-19.084	108.282	46.759	232.380	174.167	184.484	-28.703	196.532	0.00024494	0.00034295	0.00013458	416.16	4.4236e-06	7.1394e-06	573.62	172.23	8.9351e-07	3.6666e-06	264.45	121.94	82.204	42.964	3.7075e-06	61.067	0.00039456	0.00036887	9.6469e-05	446.19	4.3229e-06	3.9865e-06	597.28	181.08	4.2776e-06	3.9342e-06	270.22	123.59	86.047	43.682	3.6499e-06	60.392	259.663	-12.956	91.873	-74.041	42.761	28.358	-75.663	-67.474	131.427	49.530	-70.792	-66.393	-63.354	-58.322	95.231	-62.482	-8191	255	
3830.270	1	1	0	0	0.1013	0.080722	0.29846	0.4084	0.10023	0.10299	0.17973	0.25414	0.070346	0.055975	0.18544	0.14044	0.18232	0.2438	0.12706	0.29311	-1.9813	-2.4542	-2.2917	-2.4708	-2.5708	-2.3229	-2.7458	-2.3479	-2.4813	-2.8479	-2.2521	-2.7104	-2.5458	-2.4521	-2.8604	-2.6188	23.212	81.598	63.552	218.604	109.392	-14.473	110.757	220.798	-67.533	225.783	171.235	238.880	13.184	195.946	71.021	223.727	0.00020829	0.00071641	8.3156e-05	412.89	4.1448e-06	4.0673e-06	572.94	172.04	2.4286e-06	1.3588e-06	264.83	121.79	81.605	43.056	3.2061e-06	60.67	0.00038013	0.00034647	9.1806e-05	445.65	4.1103e-06	3.7582e-06	595.25	181.65	4.0307e-06	3.7467e-06	270.21	123.97	85.567	43.605	3.6049e-06	60.498	255.406	-36.290	17.733	-73.877	96.207	-8.032	-75.445	-67.627	53.294	241.260	-70.898	-66.592	-63.447	-58.387	96.068	-62.732	-8191	255	
3830.342	1	1	0	0	0.21876	0.029654	0.016039	0.18475	0.39334	0.1261	0.22858	0.10648	0.28007	0.0075532	0.094955	0.027287	0.029994	0.26872	0.11213	0.079792	-1.8896	-2.4979	-2.1375	-2.5875	-2.6208	-2.3833	-2.7167	-2.5208	-2.4562	-2.7458	-2.5312	-2.5771	-2.5604	-2.4	-2.6521	-2.5042	167.652	184.480	-23.780	272.297	-58.247	224.411	206.530	186.068	203.550	-30.399	82.520	188.215	215.941	-26.103	215.325	78.992	0.00021587	0.00044529	2.699e-05	413.85	6.7459e-06	4.0868e-06	573.15	172.38	3.3675e-06	3.9907e-06	266.84	122.3	82.185	43.167	4.2867e-06	61.191	0.00036411	0.00033776	9.2201e-05	448.36	3.9151e-06	3.6544e-06	596.55	182.36	3.8762e-06	3.6317e-06	271.6	124.62	85.4	43.538	3.7583e-06	60.753	254.098	260.586	100.797	-73.798	27.894	49.206	-75.418	-67.400	68.397	50.518	-70.522	-66.520	-63.161	-58.344	173.792	-62.556	-8191	255	
3830.438	1	1	0	0	0.27401	0.13865	0.094611	0.28636	0.26896	0.12552	0.17681	0.11755	0.085984	0.11597	0.098544	0.18698	0.09678	0.075398	0.075242	0.086258	-1.7479	-2.6271	-2.3167	-2.6125	-2.5604	-2.1937	-2.7729	-2.5062	-2.2042	-2.5792	-2.4625	-2.5979	-2.6375	-2.4354	-2.575	-2.4604	153.026	44.426	-77.904	163.714	90.372	-65.526	125.108	208.076	-71.813	-31.294	193.610	-11.588	-47.623	44.550	176.861	166.967	0.00019025	0.00024346	8.2987e-05	414.26	4.8764e-06	5.5413e-06	573.58	172.57	6.3713e-06	6.7634e-06	264.37	121.58	82.217	42.853	1.8244e-06	60.855	0.00034713	0.00032796	9.7562e-05	449.79	3.7832e-06	3.5998e-06	599.82	182.4	3.8056e-06	3.6035e-06	273.01	124.08	85.127	43.399	4.0049e-06	60.338	267.302	-41.796	228.964	-73.944	42.881	23.351	-75.706	-67.575	35.425	53.153	-70.694	-66.593	-63.169	-58.545	219.459	-62.645	-8191	255	
3830.559	1	1	0	0	0.18097	0.086216	0.26079	0.023498	0.11755	0.058985	0.27192	0.10895	0.13523	0.29395	0.19941	0.36013	0.0037503	0.16128	0.15408	0.020546	-1.8563	-2.6229	-2.4333	-2.4271	-2.6521	-2.3646	-2.6208	-2.5042	-2.3042	-2.8833	-2.4146	-2.5458	-2.9	-2.3042	-2.4688	-2.7854	22.015	213.943	160.664	97.020	101.255	17.224	-34.239	111.713	-16.973	73.320	173.995	201.104	19.236	-58.604	50.916	192.525	0.00021832	0.00025969	6.0941e-05	414.61	2.8361e-06	2.4818e-06	568.32	171.81	3.6891e-06	2.2089e-06	265.17	121.7	81.724	42.751	2.4747e-06	60.277	0.00034291	0.0003249	0.00010202	445.82	3.7025e-06	3.5982e-06	599.77	181.04	3.7081e-06	3.6318e-06	273.31	123.72	84.843	43.347	4.2043e-06	59.9	270.802	270.540	176.476	-73.950	13.040	50.688	-75.607	-67.772	96.636	-54.865	-70.915	-66.475	-63.390	-58.340	115.257	-62.588	-8191	255	
3830.653	1	1	0	0	0.14405	0.15812	0.060345	0.12219	0.16762	0.21044	0.17483	0.12113	0.046298	0.23575	0.047853	0.0096035	0.15215	0.10946	0.10592	0.16816	-1.8271	-2.7125	-2.4	-2.375	-2.6479	-2.3875	-2.9562	-2.7021	-2.3458	-2.5417	-2.4813	-2.4771	-2.8021	-2.4062	-2.6375	-2.6375	-40.280	123.305	-41.850	-65.145	-46.228	17.235	225.550	188.742	-7.711	239.697	104.279	141.935	197.709	193.585	-34.804	79.361	0.0002621	0.00042225	7.9655e-05	409.18	5.2961e-06	1.3989e-06	568.16	170.44	4.9145e-06	4.3689e-06	262.01	120.92	81.295	42.601	4.7929e-06	59.976	0.00033883	0.00034245	0.0001084	442.21	3.7142e-06	3.8389e-06	598.49	179.86	3.7725e-06	3.9537e-06	272.78	122.88	84.503	43.363	4.3597e-06	59.488	252.780	-63.291	189.822	-73.984	64.639	127.516	-75.538	-67.444	61.296	112.380	-70.680	-66.440	-63.265	-58.408	18.606	-62.612	-8191	255	
3830.749	1	1	0	0	0.19306	0.10851	0.056778	0.13433	0.057582	0.12033	0.26208	0.062756	0.063884	0.24255	0.14777	0.30082	0.3098	0.10144	0.19965	0.18863	-1.7563	-2.7021	-2.4708	-2.2708	-2.6937	-2.5187	-2.625	-2.7229	-2.225	-2.6625	-2.6771	-2.4646	-2.6146	-2.3792	-2.5438	-2.7812	91.492	232.575	-20.151	-2.877	186.794	150.218	57.324	97.073	2.565	177.218	79.395	-41.594	200.280	191.389	205.258	164.228	0.00024588	0.00016276	8.2376e-05	402.54	2.9941e-06	1.1437e-06	563.81	169.22	1.6479e-06	1.1875e-06	262.2	120.97	81.451	42.342	6.2276e-06	59.649	0.00034153	0.00037103	0.00010942	435.89	3.6993e-06	4.1323e-06	593.04	178.37	3.6892e-06	4.1796e-06	271.69	122.75	84.295	43.321	4.1294e-06	59.175	244.987	2.943	78.489	-74.079	113.743	196.607	-75.495	-67.219	-52.410	196.486	-70.750	-66.465	-63.031	-58.366	63.794	-62.544	-8191	255	
3830.846	1	1	0	0	0.17689	0.089374	0.17264	0.20998	0.2084	0.19552	0.0548	0.29964	0.15656	0.073853	0.0050943	0.22929	0.12326	0.19349	0.24775	0.18609	-2.0062	-2.5896	-2.5229	-2.2521	-2.6354	-2.4208	-2.6125	-2.5896	-2.35	-2.4021	-2.55	-2.3854	-2.5833	-2.4375	-2.225	-2.7333	265.712	236.877	34.173	177.261	150.054	93.898	168.754	176.807	201.827	-2.224	57.437	222.497	-60.558	209.187	13.804	229.762	0.00025078	0.00025376	7.1211e-05	401.46	3.8311e-06	3.4331e-06	561.58	168.15	1.0059e-06	2.6531e-06	262.16	121.02	80.8	42.488	3.6233e-06	59.853	0.0003381	0.00038281	0.00010407	432.46	3.6871e-06	4.2297e-06	588.67	177.4	3.7586e-06	4.2894e-06	270.38	122.59	84.425	43.427	3.9713e-06	59.14	260.765	108.246	15.456	-73.841	174.596	132.440	-75.384	-67.460	-2.231	169.351	-70.753	-66.381	-63.182	-58.489	-5.590	-62.624	-8191	255	
3830.942	1	1	0	0	0.16447	0.079889	0.21575	0.18655	0.050102	0.22708	0.060553	0.24065	0.10595	0.041112	0.25508	0.17216	0.062411	0.19242	0.18462	0.25004	-1.7271	-2.4646	-2.4521	-2.2667	-2.6479	-2.4729	-2.6292	-2.6937	-2.4208	-2.4542	-2.7167	-2.1458	-2.6042	-2.4938	-2.2729	-2.7542	126.237	-64.155	201.265	-73.463	144.988	218.408	75.709	182.686	67.704	187.859	97.345	78.482	-33.173	-84.372	61.802	216.745	0.00029984	0.00013971	0.00015499	400.16	3.6623e-06	6.95e-06	557.35	167.99	2.209e-06	6.4045e-06	260.15	120.29	80.339	42.042	5.1332e-06	59.255	0.00035392	0.00039371	0.00010111	428.93	3.9414e-06	4.3301e-06	584.98	176.45	4.0216e-06	4.3081e-06	268.36	121.78	84.628	43.069	3.9777e-06	58.737	252.834	29.410	17.268	-73.785	160.152	17.444	-75.545	-67.320	209.440	19.116	-70.893	-66.529	-63.440	-58.698	-63.643	-62.670	-8191	255	
3831.038	1	1	0	0	0.1496	0.083255	0.22895	0.11004	0.22785	0.23481	0.12377	0.17032	0.12882	0.17234	0.17363	0.14087	0.10451	0.045408	0.26738	0.17162	-1.8854	-2.4229	-2.7042	-2.3125	-2.4813	-2.3208	-2.2667	-2.6271	-2.4375	-2.4437	-2.85	-2.4146	-2.4604	-2.5729	-2.2042	-2.7583	-12.003	256.336	100.315	255.203	156.827	270.600	148.650	177.381	91.905	127.258	215.710	20.286	-52.426	31.145	124.336	81.260	0.00027481	0.0004872	0.0001726	395.99	2.3419e-06	3.1132e-06	552.88	165.35	6.4156e-06	3.3943e-06	257.25	119	79.111	41.755	5.7779e-06	58.757	0.00039194	0.0003978	0.00010298	427.84	4.4085e-06	4.4413e-06	580.65	174.81	4.5348e-06	4.4444e-06	266.41	120.76	84.776	42.748	4.1277e-06	58.443	245.054	-34.472	16.174	-73.839	227.501	3.335	-75.649	-67.545	103.333	32.514	-70.666	-66.350	-63.097	-58.528	53.007	-62.601	-8191	255	
3831.159	1	1	0	0	0.30627	0.21522	0.17144	0.12693	0.20921	0.13655	0.072252	0.13041	0.13175	0.24391	0.20959	0.36537	0.17751	0.23664	0.057865	0.11396	-1.8687	-2.2333	-2.5458	-2.2479	-2.6229	-2.5729	-2.3792	-2.6229	-2.4708	-2.4958	-2.6896	-2.5354	-2.5667	-2.8208	-2.0542	-2.7562	-14.541	14.311	-17.364	202.926	233.106	197.018	21.236	-11.634	227.962	267.185	236.108	-67.823	-70.809	-16.541	171.017	207.732	0.00017642	0.00033546	5.0069e-05	388.53	2.0933e-06	5.1814e-06	547.64	164.09	1.5529e-06	4.2414e-06	256.8	118.78	79.149	41.701	4.337e-06	58.818	0.0004279	0.00040255	0.0001055	425.4	4.7026e-06	4.3774e-06	576.84	174.73	4.6541e-06	4.2802e-06	265.54	121.45	84.769	42.666	4.0601e-06	58.722	247.185	-24.085	67.949	-73.631	182.921	37.530	-75.459	-67.419	271.425	39.673	-70.734	-66.328	-63.328	-58.596	43.043	-62.498	-8191	255	
3831.255	1	1	0	0	0.10384	0.084619	0.20346	0.43536	0.13023	0.40217	0.11376	0.055346	0.17733	0.19489	0.26574	0.18866	0.39585	0.37881	0.25282	0.12365	-2.1813	-2.2292	-2.5812	-2.3875	-2.5167	-2.6125	-2.4208	-2.6875	-2.4896	-2.3021	-2.6875	-2.4938	-2.4396	-2.8229	-2.4146	-2.7438	233.877	242.191	87.576	271.743	48.500	162.719	264.434	116.552	165.224	47.214	-62.100	173.086	253.022	233.770	177.872	212.938	0.00013396	0.00028683	0.0001601	387.76	4.2031e-06	2.4886e-06	548.68	165.06	4.6684e-06	1.793e-06	255.35	118.96	79.69	41.753	3.9916e-07	58.993	0.00042763	0.00039002	0.00010399	429.47	4.6773e-06	4.2996e-06	577.84	176.37	4.6118e-06	4.2127e-06	265.12	121.93	84.593	42.658	4.0451e-06	59.185	272.013	-8.999	102.728	-73.780	76.229	-33.481	-75.448	-67.198	57.106	-45.145	-70.472	-66.482	-63.379	-58.387	72.164	-62.567	-8191	255	
3831.351	1	1	0	0	0.27766	0.15272	0.30276	0.24513	0.18267	0.14801	0.22394	0.15243	0.073358	0.083605	0.056871	0.2153	0.33017	0.29451	0.21806	0.20478	-2.1562	-2.2375	-2.5729	-2.5104	-2.2938	-2.7125	-2.3396	-2.5667	-2.6208	-2.2438	-2.7396	-2.5375	-2.3396	-2.85	-2.2771	-2.5958	-39.601	224.884	2.312	266.948	208.517	42.299	8.377	195.522	71.844	107.770	242.218	32.672	-68.679	212.734	159.617	201.749	0.00011751	0.00018669	9.3934e-05	388.34	3.7082e-06	2.2787e-06	547.57	164.85	1.563e-06	4.7379e-06	256.71	118.83	79.585	41.729	6.2908e-06	59.087	0.00041454	0.00038424	0.00010515	430.52	4.5122e-06	4.2174e-06	578.7	176.8	4.4796e-06	4.15e-06	266.57	122.31	84.322	42.541	4.1853e-06	59.29	268.039	-52.890	-22.555	-73.884	21.832	40.368	-75.341	-67.188	11.198	42.019	-70.533	-66.425	-63.501	-58.584	210.567	-62.665	-8191	255	
3831.447	1	1	0	0	0.065738	0.096176	0.1503	0.01291	0.095902	0.32284	0.31619	0.20701	0.21749	0.10965	0.096426	0.18088	0.23966	0.079027	0.16837	0.1241	-2.1375	-2.3708	-2.5375	-2.3438	-2.2396	-2.6771	-2.3187	-2.4437	-2.7458	-2.1896	-2.6625	-2.4208	-2.4167	-2.9229	-2.4396	-2.425	38.002	-38.396	64.951	-56.077	-64.152	182.642	164.724	-14.427	187.886	50.395	158.599	229.839	46.577	208.425	140.300	191.781	0.00026959	0.00037095	4.914e-05	388.63	2.6722e-06	3.4151e-06	549.12	164.06	1.5264e-06	1.5668e-06	255.08	118.44	79.255	41.579	1.9512e-06	58.847	0.00039337	0.00036782	0.00010761	430.36	4.2631e-06	4.0484e-06	580.49	176.51	4.2908e-06	4.0481e-06	266.99	121.79	83.86	42.36	4.5519e-06	58.929	258.059	273.128	129.232	-73.736	72.805	38.575	-75.371	-67.024	82.421	150.170	-70.642	-66.523	-63.337	-58.630	218.015	-62.607	-8191	255	
3831.566	1	1	0	0	0.094814	0.031275	0.14091	0.30202	0.081668	0.055794	0.10601	0.23565	0.16676	0.28465	0.14276	0.10928	0.18527	0.2106	0.14043	0.020112	-2.25	-2.1104	-2.5125	-2.5083	-2.3354	-2.7667	-2.5187	-2.3979	-2.5917	-2.1875	-2.6104	-2.6979	-2.2062	-2.7104	-2.5396	-2.5479	179.424	-6.888	-75.001	-58.372	141.889	217.486	219.854	239.002	156.970	274.658	244.050	135.328	81.937	46.495	196.499	103.293	0.00020123	0.0005699	0.00011788	386.08	2.0683e-06	3.1945e-06	547.76	163.61	3.8954e-06	2.0778e-06	256.06	118.15	79.239	41.556	2.5158e-06	58.652	0.00039409	0.00037592	0.00011853	429.28	4.3184e-06	4.1802e-06	584.36	176.39	4.3651e-06	4.2256e-06	269.91	121.42	83.851	42.494	4.8643e-06	58.875	-83.091	-17.704	80.989	-73.767	51.032	6.936	-75.544	-67.349	51.365	130.428	-70.873	-66.454	-63.115	-58.653	129.472	-62.742	-8191	255	
3831.639	1	1	0	0	0.14036	0.2235	0.21118	0.16166	0.21004	0.13391	0.079743	0.22581	0.11255	0.031857	0.11097	0.1089	0.26919	0.27744	0.085035	0.21045	-2.1625	-2.1208	-2.4396	-2.6646	-2.1229	-2.7562	-2.6562	-2.3167	-2.7646	-2.3021	-2.5625	-2.6312	-2.275	-2.7729	-2.6042	-2.3875	30.004	165.636	4.839	180.866	100.425	143.291	261.237	240.761	37.607	126.688	255.315	152.193	57.076	-55.012	129.325	227.226	0.00021558	0.00039286	6.8908e-05	389.97	6.9989e-06	3.6766e-06	549.71	164.41	4.1243e-06	5.4492e-06	255.11	118.39	79.151	41.466	1.171e-06	58.559	0.00038983	0.00038806	0.00012388	429.55	4.2366e-06	4.32e-06	587.37	175.64	4.241e-06	4.4009e-06	269.72	121.15	83.353	42.522	4.8843e-06	58.617	254.821	226.782	159.764	-73.854	40.712	108.291	-75.259	-67.282	126.222	154.595	-70.612	-66.493	-63.390	-58.418	69.982	-62.711	-8191	255	
3831.735	1	1	0	0	0.24118	0.046688	0.23113	0.20654	0.14216	0.26135	0.2327	0.23182	0.14977	0.19396	0.068715	0.22402	0.25107	0.18548	0.21916	0.087526	-2.3104	-2.1083	-2.5208	-2.6375	-2.1437	-2.5771	-2.5854	-2.3125	-2.6937	-2.5	-2.6604	-2.8917	-2.4188	-2.7771	-2.55	-2.4021	-72.625	240.390	195.177	176.364	-6.153	203.872	138.217	149.286	-36.299	1.104	270.595	256.183	159.926	157.793	181.710	188.695	0.00022496	0.00041954	0.0001303	386.89	6.0249e-06	2.8906e-06	551.15	164.72	6.6096e-06	4.3249e-06	256.9	118.28	79.384	41.234	5.1561e-06	58.509	0.00038063	0.00040842	0.00012205	425.97	4.1211e-06	4.5282e-06	585.03	174.93	4.1493e-06	4.649e-06	269	120.84	83.311	42.563	4.7512e-06	58.38	261.763	-4.866	18.177	-73.542	91.930	194.874	-75.373	-67.447	53.992	223.595	-70.858	-66.182	-63.192	-58.545	109.149	-62.661	-8191	255	
3831.830	1	1	0	0	0.18935	0.1494	0.20335	0.21202	0.16837	0.17933	0.047077	0.15308	0.051042	0.17947	0.095005	0.021898	0.17004	0.036838	0.31241	0.11528	-2.1375	-2.4854	-2.5729	-2.7188	-2.2896	-2.7979	-2.6146	-2.1542	-2.6667	-2.5812	-2.5896	-2.6771	-2.2208	-2.6542	-2.6083	-2.3771	232.373	31.916	255.146	-2.689	-38.079	-40.219	227.639	215.207	236.065	-47.347	208.041	97.011	64.812	61.946	-18.707	183.392	0.00024524	0.00033373	8.3009e-05	386.53	5.0484e-06	1.6944e-06	550.31	164.26	2.0259e-06	7.3311e-06	255.6	118.06	78.68	41.36	1.56e-06	58.349	0.00038053	0.00043807	0.00011883	425.34	4.1991e-06	4.8123e-06	583.85	174.54	4.2034e-06	4.8571e-06	267.65	120.56	83.419	42.621	4.5133e-06	58.138	262.315	139.203	7.641	-73.511	76.194	191.264	-75.479	-67.495	215.662	17.926	-70.492	-66.653	-62.826	-58.517	77.822	-62.530	-8191	255	
3831.950	1	1	0	0	0.11095	0.19896	0.083772	0.096656	0.17088	0.27556	0.17211	0.19508	0.13317	0.062502	0.21227	0.10005	0.026066	0.2064	0.035354	0.1979	-2.2521	-2.3854	-2.25	-2.6708	-2.35	-2.625	-2.7958	-2.1458	-2.7208	-2.5104	-2.3917	-2.7792	-2.2833	-2.5187	-2.5333	-2.1667	86.190	83.677	257.275	203.129	113.985	-53.998	154.328	244.101	253.898	187.844	19.812	52.168	213.602	47.474	-3.302	142.013	0.0002631	0.00045148	9.0396e-05	386.84	5.7048e-06	1.2551e-06	548.75	163.64	4.5491e-06	3.6331e-06	254.83	117.45	78.252	41.299	1.7238e-06	58.104	0.00039525	0.00044718	0.00011463	423.11	4.4276e-06	4.9165e-06	580.45	173.99	4.5362e-06	4.954e-06	266.36	120.21	84.07	42.578	4.4744e-06	57.997	256.035	-30.611	32.078	-73.726	217.443	24.454	-75.471	-67.470	-56.369	115.507	-70.846	-66.282	-62.986	-58.451	126.516	-62.768	-8191	255	
3832.047	1	1	0	0	0.13382	0.1995	0.21335	0.13049	0.063984	0.27215	0.049771	0.19914	0.12881	0.11694	0.22291	0.29579	0.19596	0.20003	0.27234	0.073994	-2.1854	-2.5646	-2.3979	-2.7125	-2.3146	-2.6063	-2.6625	-2.3354	-2.6479	-2.5062	-2.2938	-2.7271	-2.4646	-2.5292	-2.6521	-2.4146	191.016	-72.420	184.640	260.279	243.502	217.755	0.257	-48.330	195.546	-29.815	261.033	233.117	-10.312	274.611	137.676	128.745	0.00030131	0.00043108	0.00011213	385.07	3.4374e-06	5.3062e-06	546.73	163.71	9.5619e-07	5.9995e-06	255.35	117.99	79.143	41.528	4.1204e-06	58.379	0.00042472	0.00044148	0.00011258	422.44	4.7456e-06	4.8174e-06	579.71	174.31	4.8323e-06	4.7931e-06	266.5	120.6	85.169	42.714	4.4107e-06	58.37	257.055	-28.036	5.330	-73.773	172.930	-6.439	-75.217	-67.090	55.798	43.755	-70.969	-66.424	-63.182	-58.443	24.604	-62.574	-8191	255	
3832.143	1	1	0	0	0.061821	0.27165	0.22777	0.078992	0.27384	0.077528	0.2424	0.10428	0.20459	0.095229	0.2166	0.29588	0.12213	0.24157	0.20668	0.28579	-2.1562	-2.5312	-2.3792	-2.8417	-2.4104	-2.4771	-2.7208	-2.2938	-2.4917	-2.5917	-2.0833	-2.725	-2.4562	-2.4542	-2.7521	-2.4979	218.103	177.301	-51.074	257.715	58.340	-69.943	207.595	260.978	-76.697	223.460	240.538	100.989	221.325	252.006	-25.363	214.509	0.0003505	0.00020767	6.2562e-05	387.24	2.5738e-06	6.1167e-06	547.23	163.55	2.5805e-06	5.1114e-06	255.02	118.52	79.425	41.717	3.1011e-06	58.705	0.00045095	0.00043032	0.00011209	424.21	4.9739e-06	4.6499e-06	577.68	175.26	4.9403e-06	4.5844e-06	266.13	121.45	85.301	42.71	4.2295e-06	58.808	246.866	-12.309	-30.511	-73.970	183.676	67.182	-75.379	-67.334	61.493	84.419	-70.562	-66.345	-63.252	-58.502	24.826	-62.525	-8191	255	
3832.239	1	1	0	0	0.067455	0.11525	0.15885	0.19514	0.17218	0.13417	0.17282	0.23464	0.12933	0.06262	0.10634	0.18976	0.27143	0.3872	0.22594	0.39479	-1.9208	-2.5604	-2.1188	-2.5521	-2.4604	-2.5062	-2.7854	-2.2896	-2.6188	-2.8187	-2.3896	-2.5854	-2.525	-2.425	-2.825	-2.6458	256.329	267.320	119.015	264.609	224.162	264.724	64.885	166.761	268.555	245.404	230.628	243.004	-83.767	271.745	-17.772	227.309	0.00024644	0.00065912	2.707e-05	387.5	5.8559e-06	6.2434e-06	550.7	165.37	6.8795e-06	6.5903e-06	256.81	118.73	79.829	41.807	3.3691e-06	59.072	0.000442	0.00040495	0.00010633	426.92	4.8289e-06	4.4002e-06	578.05	176.86	4.749e-06	4.3393e-06	266.46	122.23	85.176	42.694	4.0507e-06	59.207	264.992	-51.891	36.209	-73.660	76.488	56.691	-75.322	-67.351	119.780	72.248	-70.738	-66.461	-63.450	-58.685	165.691	-62.326	-8191	255	
3832.335	1	1	0	0	0.071844	0.21463	0.21588	0.29417	0.13866	0.15918	0.37274	0.087454	0.12984	0.068848	0.26954	0.26312	0.13376	0.19535	0.13767	0.028187	-1.9208	-2.6958	-2.3104	-2.6021	-2.6083	-2.2896	-2.7938	-2.4771	-2.5458	-2.5833	-2.3063	-2.6	-2.55	-2.3708	-2.7021	-2.4271	118.668	61.988	225.297	243.219	146.176	-9.518	167.405	69.039	246.627	137.261	232.628	251.742	46.816	183.629	250.720	-29.936	0.00018148	0.00041402	2.6658e-05	392.53	6.4069e-06	2.7116e-06	553.03	167.24	3.9033e-06	4.3427e-06	258.27	119.66	80.672	41.932	3.9636e-06	59.164	0.00040823	0.0003774	0.00010099	432.55	4.4092e-06	4.1069e-06	580.21	178.05	4.3476e-06	4.0375e-06	266.9	122.71	84.78	42.716	4.0599e-06	59.231	260.815	226.895	246.644	-73.968	75.836	70.970	-75.601	-67.252	116.293	59.653	-70.578	-66.334	-63.461	-58.536	187.620	-62.615	-8191	255	
3832.431	1	1	0	0	0.29377	0.15806	0.30743	0.14767	0.087332	0.065263	0.16591	0.084526	0.3648	0.048014	0.091592	0.070343	0.086105	0.096001	0.15334	0.075824	-1.8833	-2.825	-2.1833	-2.4896	-2.7354	-2.2938	-2.8021	-2.4958	-2.5312	-2.8667	-2.5083	-2.6042	-2.7521	-2.4042	-2.6583	-2.5625	100.669	105.588	-40.441	-68.991	-11.192	-67.097	141.153	14.118	-10.822	-80.001	229.733	245.164	158.838	244.575	-76.722	232.438	0.00022665	0.00042418	1.5723e-05	394.96	5.5746e-06	1.0079e-06	557.03	167.51	1.1447e-06	2.3598e-06	259.21	120.23	80.673	42.297	3.185e-06	59.508	0.0003864	0.00036572	0.00010466	435.54	4.1781e-06	3.9219e-06	584.08	178.79	4.0978e-06	3.866e-06	269.24	122.99	84.492	42.942	4.2259e-06	59.452	253.569	-46.745	211.199	-73.695	70.311	42.210	-75.532	-67.317	43.587	31.337	-70.756	-66.400	-63.299	-58.405	129.693	-62.651	-8191	255	
3832.527	1	1	0	0	0.076503	0.030286	0.12269	0.12009	0.18532	0.10138	0.058779	0.046475	0.18378	0.072704	0.13226	0.23124	0.21554	0.20465	0.048912	0.27489	-1.8896	-2.5958	-2.25	-2.4146	-2.675	-2.3604	-2.575	-2.3958	-2.1583	-2.8542	-2.3688	-2.5125	-2.6417	-2.3438	-2.5167	-2.5062	151.809	266.124	143.771	227.172	14.711	239.345	209.761	123.034	55.434	34.820	270.550	179.425	-37.700	-14.376	202.971	192.548	0.00024234	0.00030601	3.8165e-05	396.49	1.4754e-06	6.2904e-06	557.03	167.62	1.4281e-06	2.4494e-06	260.2	120.48	80.675	42.192	2.947e-06	59.658	0.00037262	0.00035297	0.00011002	435.48	4.0486e-06	3.9003e-06	589.09	178.66	4.0295e-06	3.8628e-06	271.1	123	84.423	42.836	4.4562e-06	59.344	262.189	-27.619	113.768	-73.862	116.749	44.562	-75.611	-67.405	207.564	72.943	-70.604	-66.556	-63.286	-58.523	235.543	-62.619	-8191	255	
3832.648	1	1	0	0	0.14037	0.090978	0.25083	0.14724	0.16565	0.25004	0.32938	0.14303	0.062604	0.16407	0.12427	0.11455	0.041684	0.035076	0.16701	0.29242	-1.6562	-2.5646	-2.3	-2.4562	-2.7979	-2.3417	-2.6333	-2.55	-2.3917	-2.7229	-2.4813	-2.5708	-2.6688	-2.4083	-2.5458	-2.6229	28.773	266.958	181.787	222.810	38.447	-33.293	-53.935	-29.110	-9.980	88.705	-70.633	217.016	10.577	-59.750	269.510	179.536	0.00019584	0.00036336	2.0894e-05	398.25	2.5935e-06	2.4805e-06	558.21	167.84	6.4552e-06	2.3019e-06	262.03	121.66	81.624	42.496	7.2129e-06	60.452	0.00036413	0.00036069	0.00011521	433.46	3.9643e-06	3.993e-06	591.31	178.26	3.9567e-06	4.0135e-06	273.33	123.68	84.919	43.332	4.4919e-06	59.892	-84.653	39.670	234.171	-73.638	15.253	120.760	-75.437	-67.443	67.059	251.488	-70.669	-66.363	-63.473	-58.403	51.595	-62.907	-8191	255	
3832.742	1	1	0	0	0.165	0.12514	0.25229	0.073809	0.099737	0.13778	0.25236	0.30199	0.1551	0.1661	0.14975	0.12645	0.26081	0.10083	0.24458	0.039128	-1.7229	-2.6125	-2.3	-2.5542	-2.8229	-2.4292	-2.6208	-2.7396	-2.1708	-2.7229	-2.5542	-2.375	-2.7625	-2.3187	-2.5312	-2.6146	126.840	134.095	-68.608	249.134	110.966	28.864	198.184	144.592	-15.663	121.344	16.675	-6.535	249.337	7.518	-14.869	-20.385	0.00017941	0.00026061	5.048e-05	402.64	6.3345e-06	1.5494e-06	564.39	169.45	2.3983e-06	1.9144e-06	264.04	122.43	81.658	42.872	3.6898e-06	60.406	0.00035274	0.00037345	0.00011359	435.53	3.8048e-06	4.1434e-06	595.74	179.13	3.8094e-06	4.1762e-06	273.99	123.99	85.033	43.702	4.2933e-06	59.934	252.300	22.923	227.041	-74.009	38.702	184.452	-75.300	-67.550	232.000	222.014	-70.844	-66.572	-63.479	-58.663	70.251	-62.624	-8191	255	
3832.839	1	1	0	0	0.073721	0.069808	0.15485	0.19718	0.18848	0.36534	0.064695	0.087064	0.20126	0.086985	0.1791	0.17138	0.07485	0.16024	0.23508	0.22803	-1.7146	-2.4313	-2.5875	-2.5458	-2.7104	-2.5312	-2.5292	-2.7604	-2.2396	-2.45	-2.5979	-2.3208	-2.6937	-2.5062	-2.2687	-2.6646	61.007	230.656	184.783	169.519	243.741	115.180	89.000	228.312	39.735	197.469	268.027	243.319	257.572	170.778	109.815	235.046	0.0002608	0.00031765	0.00012333	403.7	1.8929e-06	2.0667e-06	563.51	170.17	2.4489e-06	5.7923e-06	262.79	122.04	81.836	42.704	1.7232e-06	59.879	0.00034085	0.00038706	0.00010722	437.11	3.7452e-06	4.3188e-06	594.42	179.19	3.814e-06	4.3502e-06	272.56	123.45	85.175	43.657	4.0873e-06	59.36	255.644	81.691	-13.404	-73.840	120.718	99.221	-75.634	-67.397	18.250	116.563	-70.563	-66.585	-63.182	-58.631	7.023	-62.499	-8191	255	
3832.935	1	1	0	0	0.087129	0.062035	0.083794	0.10978	0.25073	0.1632	0.19466	0.11144	0.093265	0.34643	0.087072	0.23107	0.1663	0.073406	0.19364	0.27256	-1.9396	-2.5917	-2.6833	-2.3812	-2.7104	-2.3229	-2.4062	-2.6562	-2.2167	-2.5333	-2.7646	-2.5312	-2.8458	-2.6125	-2.4458	-2.8875	-79.784	88.056	175.231	126.610	250.236	115.323	121.832	-11.605	-3.291	-23.637	252.003	239.293	-60.600	232.351	192.832	-72.499	0.00023093	0.00035885	0.00012004	401.53	5.1476e-06	1.9388e-06	562.97	169.13	2.9776e-06	1.4534e-06	262.66	121.36	81.532	42.555	1.4112e-06	59.666	0.00035056	0.00039091	0.00010191	432.79	3.8211e-06	4.2983e-06	589.8	178.11	3.9335e-06	4.3046e-06	270.59	123.11	85.327	43.522	3.9404e-06	59.088	245.195	9.877	-5.145	-74.076	121.816	83.805	-75.400	-67.359	199.761	160.271	-70.676	-66.333	-63.024	-58.723	17.882	-62.559	-8191	255	
3833.031	1	1	0	0	0.35285	0.16957	0.10391	0.22121	0.19538	0.18147	0.19752	0.36566	0.22302	0.1523	0.18876	0.18262	0.036831	0.33439	0.03716	0.30828	-1.8354	-2.3167	-2.5042	-2.3479	-2.6813	-2.4333	-2.4292	-2.7354	-2.3875	-2.5792	-2.7875	-2.2521	-2.6312	-2.6937	-2.3667	-2.8458	141.690	131.351	252.775	101.832	80.123	156.634	79.109	155.079	-63.535	118.368	146.012	-59.958	229.787	201.758	271.161	225.376	0.00030146	0.00034889	5.4112e-05	402.25	3.6264e-06	5.3855e-06	562.3	169.11	9.2817e-07	5.0193e-06	265.1	122.98	82.505	42.766	6.7611e-07	60.026	0.00036839	0.00038777	9.8188e-05	431.48	4.0061e-06	4.1172e-06	587.77	177.92	4.0082e-06	4.0022e-06	270.38	123.95	86.23	43.484	3.7e-06	59.239	257.896	-61.564	-29.438	-73.877	111.087	14.544	-75.410	-67.502	261.373	62.936	-70.723	-66.558	-63.200	-58.656	141.554	-62.593	-8191	255	
3833.127	1	1	0	0	0.32882	0.22126	0.069254	0.15632	0.17356	0.28164	0.14103	0.38911	0.24536	0.093818	0.14678	0.17728	0.25341	0.37543	0.31761	0.17497	-2.1521	-2.2938	-2.7229	-2.2271	-2.7021	-2.7333	-2.3604	-2.7146	-2.4375	-2.3917	-2.8104	-2.3708	-2.6104	-2.6813	-2.3563	-2.8083	266.320	-58.084	244.986	-49.563	-59.844	97.950	157.331	159.316	172.834	-21.631	117.136	78.735	263.362	251.744	267.127	157.661	0.00032258	0.00065516	0.00015991	400.29	3.293e-06	4.0134e-06	565.52	171.03	6.9633e-06	1.0393e-06	266.19	122.69	82.877	42.969	2.1327e-06	60.555	0.00037569	0.00035868	9.3247e-05	430.13	4.1326e-06	3.9142e-06	588.53	179.08	4.1142e-06	3.845e-06	271.03	124.17	86.575	43.53	3.5354e-06	59.695	264.539	-37.244	0.903	-73.702	27.829	31.858	-75.345	-67.251	34.081	103.095	-70.506	-66.516	-62.934	-58.543	17.450	-62.629	-8191	255	
3833.248	1	1	0	0	0.1655	0.087998	0.24825	0.045412	0.042301	0.22458	0.13928	0.16554	0.089281	0.17048	0.29747	0.273	0.055416	0.3156	0.095887	0.20569	-2.0187	-2.3896	-2.6875	-2.3229	-2.6229	-2.5958	-2.3063	-2.8021	-2.5625	-2.3042	-2.8875	-2.4021	-2.5312	-2.7396	-2.2542	-2.6729	255.205	229.033	244.749	115.886	104.921	102.704	104.910	101.964	165.260	-70.800	-75.753	249.518	-61.664	202.537	266.457	257.560	0.00026727	0.00030915	8.9927e-05	405.97	5.4466e-06	5.8751e-06	567.56	171.79	4.462e-07	4.2175e-06	265.31	122.07	82.408	42.621	2.9737e-06	59.748	0.00036817	0.00033582	8.7989e-05	434.88	3.9968e-06	3.6813e-06	588.9	180.11	3.9743e-06	3.6612e-06	269.13	123.98	85.931	43.199	3.4835e-06	59.315	259.158	255.399	10.033	-73.849	126.000	53.645	-75.579	-67.267	220.527	-68.517	-70.530	-66.515	-63.154	-58.695	35.834	-62.680	-8191	255	
3833.344	1	1	0	0	0.13671	0.17148	0.25254	0.1125	0.072611	0.22889	0.071128	0.049088	0.23757	0.12438	0.12528	0.069715	0.30203	0.29098	0.35913	0.31467	-1.9312	-2.3896	-2.5708	-2.3979	-2.4729	-2.6688	-2.4313	-2.6396	-2.3875	-2.3771	-2.725	-2.525	-2.3563	-2.8104	-2.2812	-2.6271	190.356	231.002	219.411	-31.813	56.379	121.565	10.558	-14.475	17.006	9.327	208.861	122.124	253.035	254.852	42.640	231.698	0.00028334	0.00016203	5.4862e-05	403.08	4.8677e-06	4.6731e-06	566.9	170.22	4.0962e-06	5.3261e-06	264.07	121.94	82.053	42.923	3.7177e-06	59.636	0.00036111	0.00033122	8.9223e-05	436.29	3.8874e-06	3.6397e-06	587.38	180.27	3.9129e-06	3.6287e-06	268.98	124.06	85.614	43.197	3.6343e-06	59.399	263.444	257.990	21.280	-73.668	58.618	22.437	-75.363	-67.513	76.355	11.680	-70.827	-66.486	-63.561	-58.591	39.230	-62.646	-8191	255	
3833.440	1	1	0	0	0.088397	0.10327	0.097226	0.34861	0.21399	0.075079	0.40136	0.25548	0.069181	0.27441	0.075716	0.26616	0.14844	0.17367	0.12378	0.12578	-2.1771	-2.2667	-2.6104	-2.2083	-2.4479	-2.6958	-2.4375	-2.6417	-2.55	-2.4646	-2.6771	-2.7875	-2.3208	-2.7375	-2.4458	-2.6354	131.856	181.469	185.007	250.578	15.423	40.731	216.358	263.207	-57.683	274.660	240.137	264.555	-20.778	-56.455	15.840	-58.193	0.00025808	0.00030551	0.00011948	402.98	4.0791e-06	5.9492e-06	564.64	170.34	4.9736e-06	1.3392e-06	264.22	122.22	82.208	42.776	1.541e-06	59.775	0.00035269	0.00033032	9.3728e-05	438.19	3.8293e-06	3.6168e-06	589.03	180.44	3.8172e-06	3.6176e-06	270.7	124.55	85.397	43.135	3.8642e-06	59.483	258.522	-51.825	1.252	-73.798	172.759	0.517	-75.537	-67.325	125.584	156.613	-70.615	-66.437	-63.090	-58.416	31.020	-62.749	-8191	255	
3833.512	1	1	0	0	0.31225	0.16243	0.31633	0.030808	0.37622	0.12028	0.14902	0.24844	0.17911	0.045534	0.18711	0.35816	0.2834	0.096436	0.18281	0.11702	-2.2104	-2.1312	-2.6167	-2.6312	-2.2167	-2.8	-2.6208	-2.5812	-2.7604	-2.4521	-2.6583	-2.7125	-2.2687	-2.7583	-2.3458	-2.475	163.501	258.672	251.557	-51.306	24.941	122.578	145.697	247.878	197.520	148.976	231.213	113.832	-68.338	12.591	33.054	187.584	0.00018371	0.00012637	9.0377e-05	401.75	8.0024e-07	3.382e-06	561.68	170.69	1.7564e-06	3.5235e-06	265.67	122.28	82.623	42.484	9.3822e-07	59.456	0.0003456	0.00032655	9.9577e-05	435.71	3.7341e-06	3.5577e-06	589.67	179.87	3.6911e-06	3.5544e-06	272.61	124.34	85.335	42.983	4.0927e-06	59.083	267.320	-56.835	96.570	-73.547	19.670	-17.007	-75.447	-67.269	32.541	52.209	-70.783	-66.351	-63.254	-58.573	0.150	-62.718	-8191	255	
3833.630	1	1	0	0	0.095726	0.16525	0.29255	0.15181	0.07854	0.16463	0.19446	0.33737	0.21518	0.027569	0.077427	0.18194	0.018018	0.15845	0.19481	0.36444	-2.1521	-2.1625	-2.4292	-2.3583	-2.225	-2.7313	-2.4354	-2.4417	-2.7354	-2.3354	-2.475	-2.525	-2.3479	-2.7896	-2.4875	-2.3979	169.443	37.889	-47.897	-68.629	74.413	193.394	218.790	186.441	187.582	261.136	59.380	242.247	-41.242	140.134	-70.607	153.143	0.00025885	5.0336e-05	0.00010728	398.56	3.6555e-06	4.393e-06	562.19	169.74	2.1236e-06	4.7577e-06	264.08	122.85	82.527	42.611	2.2973e-06	59.439	0.00033738	0.00033057	0.00010458	431.89	3.6908e-06	3.6573e-06	591.68	178.91	3.6367e-06	3.727e-06	273.77	124.44	85.408	43.154	4.2148e-06	59.052	254.372	34.623	269.486	-73.942	34.588	151.238	-75.460	-67.335	121.024	154.546	-70.525	-66.515	-63.195	-58.605	99.636	-62.672	-8191	255	
3833.727	1	1	0	0	0.22339	0.04801	0.070123	0.11672	0.12145	0.2256	0.19367	0.29853	0.10176	0.23931	0.16702	0.30058	0.10778	0.1155	0.21173	0.18322	-2.3063	-2.1896	-2.5292	-2.6	-2.3187	-2.8375	-2.4958	-2.4	-2.9437	-2.3083	-2.5229	-2.5187	-2.1375	-2.5646	-2.5021	-2.5104	44.308	188.432	227.804	-43.534	34.327	-53.159	174.134	207.478	165.158	-50.875	-45.656	258.698	142.144	30.666	49.442	244.577	0.00025259	7.1162e-05	0.00010444	399.8	3.0888e-06	3.6019e-06	564.89	170.73	2.6187e-06	2.3264e-06	265.38	122.42	82.326	42.457	5.592e-06	59.223	0.00033073	0.00034854	0.0001071	431.76	3.6256e-06	3.8586e-06	593.94	178.97	3.5912e-06	3.9653e-06	273.74	124.07	85.383	43.227	4.1989e-06	58.722	266.706	-2.114	42.977	-73.974	45.148	-12.863	-75.624	-67.469	41.303	223.246	-70.937	-66.474	-63.510	-58.484	82.433	-62.564	-8191	255	
3833.823	1	1	0	0	0.045722	0.25217	0.13195	0.21563	0.27682	0.14422	0.12996	0.25653	0.27547	0.14257	0.19255	0.27644	0.039499	0.45549	0.26931	0.068083	-2.3271	-2.35	-2.4813	-2.5438	-2.1688	-2.6708	-2.4604	-2.3583	-2.8083	-2.3583	-2.4604	-2.7604	-2.3375	-2.7958	-2.5979	-2.6042	225.396	88.999	78.469	80.835	84.903	-28.122	85.481	112.824	252.229	221.707	200.361	199.108	-83.902	200.454	164.475	-80.201	0.00028003	0.00017378	0.00011547	399.19	5.0467e-07	3.4669e-06	563.95	170.77	6.8674e-07	2.0403e-06	264.45	122.87	83.045	42.574	1.4929e-06	59.321	0.00033264	0.00037646	0.00010566	431.35	3.6354e-06	4.1915e-06	591.55	179.17	3.6309e-06	4.207e-06	272.86	124.14	85.869	43.412	3.9757e-06	58.712	257.722	-18.119	0.327	-73.791	144.261	-8.010	-75.588	-67.459	269.678	71.922	-70.581	-66.383	-62.963	-58.849	58.695	-62.707	-8191	255	
3833.919	1	1	0	0	0.23184	0.086186	0.10785	0.17761	0.1471	0.17141	0.21726	0.13007	0.10088	0.15023	0.36658	0.091439	0.10676	0.30038	0.052861	0.32847	-2.1479	-2.3042	-2.3625	-2.7208	-2.3563	-2.6437	-2.6375	-2.2938	-2.7021	-2.3208	-2.4875	-2.8708	-2.2083	-2.8354	-2.6146	-2.3438	173.232	168.713	267.638	166.262	187.277	260.732	203.373	255.042	143.375	-54.956	260.918	217.115	-35.637	188.095	-27.313	-67.476	0.00029011	0.00022445	0.00019594	400.35	2.0749e-06	2.6691e-06	563.37	169.18	3.9963e-06	8.2267e-06	263.25	122.34	82.127	42.121	7.7556e-07	59.002	0.00034085	0.00038522	0.00010113	430.27	3.7691e-06	4.2687e-06	589.47	178.04	3.8369e-06	4.2877e-06	270.75	123.23	85.878	43.173	3.8911e-06	58.342	257.723	-37.187	9.538	-73.553	99.674	51.456	-75.343	-67.391	-40.769	26.205	-70.778	-66.321	-63.153	-58.443	-14.522	-62.720	-8191	255	
3834.040	1	1	0	0	0.082587	0.25565	0.1412	0.24879	0.21972	0.14092	0.057444	0.14223	0.3412	0.29656	0.16948	0.30611	0.18391	0.12533	0.24369	0.16402	-2.1437	-2.35	-2.3063	-2.7229	-2.2771	-2.6375	-2.875	-2.2771	-2.6896	-2.5875	-2.4521	-2.8792	-2.3375	-2.5667	-2.7375	-2.4271	65.760	217.074	262.001	208.534	197.267	161.141	199.595	153.426	-6.734	-2.797	209.097	274.700	271.664	218.002	178.516	-5.504	0.00032378	0.00031292	0.00010012	396.65	1.1058e-06	3.0434e-06	560.02	169.03	1.9081e-06	7.1081e-06	262.71	121.67	82.106	42.388	3.4861e-06	59.085	0.00036285	0.00038662	9.8408e-05	426.38	4.0425e-06	4.2299e-06	585.38	177.37	4.104e-06	4.2264e-06	269.73	123.02	86.111	43.189	3.8532e-06	58.415	252.940	-18.190	68.298	-73.856	-70.681	3.079	-75.457	-67.124	196.070	59.091	-71.001	-66.413	-62.802	-58.469	59.914	-62.623	-8191	255	
3834.111	1	1	0	0	0.015404	0.039646	0.12717	0.28831	0.2683	0.30369	0.41751	0.091888	0.019861	0.1818	0.19225	0.30942	0.23737	0.12921	0.091675	0.20154	-2.0771	-2.3646	-2.3458	-2.6896	-2.2979	-2.4313	-2.5354	-2.2958	-2.45	-2.6688	-2.2583	-2.7125	-2.5292	-2.45	-2.5896	-2.2708	-52.983	-23.112	129.452	271.833	214.602	142.429	182.376	206.087	-21.315	77.510	197.859	222.257	257.682	199.467	124.438	9.252	0.00030781	0.0012511	0.00012101	393.85	1.8342e-06	2.3668e-06	560.19	167.66	3.0623e-06	1.9739e-06	262.09	121.55	81.908	42.005	6.256e-06	58.346	0.00038442	0.0003769	9.7262e-05	424.58	4.2546e-06	4.0937e-06	583.1	176.65	4.2894e-06	4.0271e-06	268.08	123.09	86.247	42.676	3.7943e-06	57.885	260.527	-41.937	25.717	-73.811	201.260	77.359	-75.098	-67.402	47.944	36.803	-70.678	-66.559	-63.016	-58.793	71.986	-62.661	-8191	255	
3834.207	1	1	0	0	0.055423	0.056471	0.26429	0.20801	0.22401	0.13614	0.14944	0.13503	0.081377	0.17251	0.16272	0.21549	0.032128	0.18186	0.12947	0.12698	-2.2333	-2.6479	-2.0625	-2.8021	-2.3875	-2.3042	-2.8458	-2.4375	-2.6271	-2.4896	-2.2396	-2.6604	-2.6437	-2.4042	-2.8146	-2.35	145.828	10.538	20.021	198.796	128.764	-55.068	177.361	254.088	147.557	241.826	5.854	-35.725	-7.375	-66.544	156.086	214.235	0.00028079	0.00063502	2.479e-05	386.64	4.8667e-06	3.7168e-06	549.25	166.13	6.9471e-06	7.9274e-07	258.35	119.88	80.346	41.592	1.6045e-06	57.66	0.00039991	0.00037195	9.788e-05	423.55	4.4464e-06	4.1187e-06	576.57	176.24	4.5351e-06	4.1437e-06	265.5	122.4	85.521	42.327	3.9134e-06	57.819	270.612	-40.813	53.036	-73.725	95.138	11.037	-75.526	-67.275	56.189	166.591	-70.763	-66.387	-63.303	-58.520	229.571	-62.618	-8191	255	
3834.328	1	1	0	0	0.19989	0.06969	0.17573	0.13409	0.21639	0.17521	0.17475	0.20512	0.21522	0.14034	0.17277	0.039818	0.24489	0.11408	0.16506	0.12167	-2.0646	-2.6604	-2.2458	-2.7021	-2.4562	-2.3	-2.7396	-2.5104	-2.5958	-2.5979	-2.3896	-2.5979	-2.4292	-2.3354	-2.8271	-2.3667	245.414	56.036	163.689	263.759	-64.381	91.265	158.625	-57.410	131.498	149.843	247.176	134.248	257.868	-84.177	226.149	-50.852	0.00018326	0.00027523	0.00015401	384.69	1.1383e-06	6.4996e-06	547.77	164.87	8.1017e-06	5.8294e-06	256.54	118.92	80.062	41.617	2.2192e-06	58.006	0.00040993	0.00037779	0.00010042	425.36	4.475e-06	4.1591e-06	574.32	176.51	4.4433e-06	4.0919e-06	265.13	122.3	84.823	42.331	3.9436e-06	58.195	263.992	-15.107	34.989	-73.631	83.787	20.564	-75.270	-67.251	124.419	93.019	-70.661	-66.438	-63.166	-58.563	224.070	-62.262	-8191	255	
3834.424	1	1	0	0	0.10946	0.31528	0.14958	0.30737	0.053744	0.19004	0.31422	0.25965	0.10699	0.037338	0.01805	0.14437	0.056209	0.23347	0.040986	0.35902	-1.8146	-2.5354	-2.2708	-2.4292	-2.5938	-2.2646	-2.8563	-2.5542	-2.3146	-2.7042	-2.4396	-2.7313	-2.7583	-2.1667	-2.6771	-2.5438	132.986	205.524	114.322	-73.475	261.831	221.688	-65.037	212.436	212.064	160.887	10.488	191.340	267.917	174.619	111.221	161.325	0.00026703	0.00050155	0.00012415	387.99	1.5113e-06	4.5297e-06	555.21	167.03	6.3054e-06	2.7531e-06	261.04	120.75	81.716	42.182	4.6855e-06	58.928	0.00038227	0.00035487	9.9144e-05	427.13	4.0367e-06	3.7766e-06	579.37	177.82	3.9161e-06	3.6715e-06	268.13	123.52	85.034	42.717	3.9401e-06	58.89	250.354	-33.020	60.869	-73.964	81.960	98.112	-75.511	-67.328	88.623	126.652	-70.684	-66.333	-63.173	-58.604	249.034	-62.526	-8191	255	
3834.520	1	1	0	0	0.16746	0.23238	0.20002	0.082342	0.080645	0.14364	0.14295	0.27058	0.13648	0.23243	0.12418	0.15699	0.15646	0.2023	0.15572	0.12123	-1.7604	-2.65	-2.2521	-2.3958	-2.6708	-2.3854	-2.9104	-2.6271	-2.2708	-2.7667	-2.2938	-2.6604	-2.8	-2.4062	-2.6	-2.5042	6.786	153.650	-56.981	-59.579	181.598	274.092	152.505	150.920	123.742	215.522	141.668	27.498	155.794	245.710	225.452	189.643	0.00019437	0.00014607	0.0001327	393.84	2.2521e-06	1.4619e-06	554.43	167.56	1.9329e-06	2.4753e-06	259.7	119.79	80.714	41.984	7.4207e-07	58.788	0.00036012	0.00034023	0.00010372	433.03	3.9343e-06	3.7379e-06	586.2	178.25	3.9389e-06	3.7423e-06	269.17	122.39	84.17	42.682	4.2721e-06	58.745	239.643	160.267	147.643	-73.777	-4.932	108.155	-75.407	-67.183	88.835	13.578	-70.652	-66.218	-63.362	-58.439	-4.952	-62.593	-8191	255	
3834.639	1	1	0	0	0.27773	0.25725	0.18504	0.20799	0.29366	0.08117	0.17482	0.12462	0.12567	0.11944	0.094387	0.15883	0.27071	0.15216	0.054871	0.19233	-1.8813	-2.6917	-2.3583	-2.7292	-2.6312	-2.425	-2.8042	-2.6333	-2.3833	-2.9313	-2.5375	-2.4833	-2.6479	-2.2271	-2.5625	-2.7479	59.331	91.360	-33.722	216.683	172.649	-79.475	150.699	252.091	108.805	-7.164	-9.688	-20.962	202.393	258.973	47.731	251.150	0.00020614	0.00031905	0.00012167	395.43	1.7775e-06	6.5923e-07	551.56	165.63	6.6229e-06	3.7399e-06	256.36	117.95	79.467	41.502	1.3105e-06	57.906	0.00035672	0.00034309	0.00010954	431.78	3.8838e-06	3.851e-06	584.89	176.21	3.9453e-06	3.9496e-06	267.83	120.59	83.165	42.368	4.6819e-06	57.931	245.798	5.493	174.182	-73.703	8.647	43.780	-75.420	-67.495	131.507	186.937	-70.548	-66.348	-63.502	-58.524	-51.051	-62.514	-8191	255	
3834.735	1	1	0	0	0.20892	0.35217	0.15403	0.13832	0.29567	0.2243	0.17334	0.21351	0.16927	0.21232	0.12229	0.19661	0.22095	0.14507	0.16242	0.14509	-1.7938	-2.6792	-2.5583	-2.3833	-2.6708	-2.4146	-2.5396	-2.6083	-2.1396	-2.7812	-2.5875	-2.4521	-2.6063	-2.4542	-2.5396	-2.6667	245.285	170.186	124.454	117.297	237.030	18.085	203.574	256.455	-8.698	-78.131	-9.765	252.348	266.152	178.103	64.499	212.558	0.00019205	0.00028863	9.0151e-05	390.62	3.081e-06	4.1768e-06	545.24	163.61	5.9902e-06	1.8552e-06	254.7	116.95	78.538	41.221	4.2369e-06	57.868	0.00036818	0.0003837	0.00012007	426.72	4.0683e-06	4.3046e-06	581.64	174.72	4.0392e-06	4.3477e-06	266.96	119.56	82.475	42.37	4.7552e-06	57.864	260.784	135.819	44.736	-73.994	71.465	156.276	-75.364	-67.532	123.171	151.461	-70.597	-66.419	-63.361	-58.534	126.977	-62.701	-8191	255	
3834.807	1	1	0	0	0.070705	0.23074	0.23243	0.17025	0.22739	0.094657	0.1298	0.14516	0.1461	0.2262	0.166	0.22301	0.14371	0.25262	0.17688	0.11511	-1.7437	-2.4688	-2.3833	-2.4021	-2.7521	-2.2958	-2.4	-2.6083	-2.3063	-2.6104	-2.5125	-2.4	-2.7583	-2.6146	-2.4729	-2.9625	9.716	190.314	-7.350	-81.005	242.246	-5.731	21.269	271.575	130.110	249.707	244.843	173.846	-61.534	190.791	-19.568	146.183	0.00017554	5.3753e-05	8.3284e-05	388.18	1.6216e-06	2.0161e-06	546.86	165.13	1.5837e-06	4.2574e-06	257.37	118.48	79.697	41.912	5.2068e-06	58.907	0.00037735	0.00042395	0.00012068	425.04	4.0357e-06	4.592e-06	580.54	174.81	3.9056e-06	4.4194e-06	266.89	120.21	83.09	42.851	4.1459e-06	58.401	253.482	216.678	33.575	-73.570	-49.187	257.945	-75.403	-67.522	112.233	131.308	-70.723	-66.329	-63.161	-58.548	14.919	-62.443	-8191	255	
3834.928	1	1	0	0	0.13982	0.093617	0.15404	0.21619	0.079659	0.22315	0.23813	0.10614	0.23813	0.27155	0.15894	0.28773	0.13939	0.26695	0.21795	0.075791	-1.9167	-2.6021	-2.4604	-2.2625	-2.5542	-2.4958	-2.5	-2.7604	-2.3438	-2.5917	-2.6542	-2.3167	-2.6333	-2.4688	-2.3312	-2.8521	243.646	186.646	-79.933	243.349	180.819	-46.181	-68.836	242.555	185.255	233.564	235.653	240.359	-28.316	273.506	-65.544	61.842	0.00025483	0.00021276	0.00018176	391.65	4.3276e-06	6.281e-07	556.88	167.65	2.2898e-06	3.5222e-06	260.88	119.65	80.902	42.254	4.1698e-06	59.533	0.00034497	0.00038943	0.00010328	423.07	3.7581e-06	4.3068e-06	583.45	176.36	3.8262e-06	4.3139e-06	268	121.48	84.217	43.175	3.9334e-06	58.796	250.612	-84.809	44.046	-73.755	247.297	21.111	-75.524	-67.481	115.772	-26.953	-70.657	-66.504	-63.616	-58.527	75.327	-62.575	-8191	255	
3835.024	1	1	0	0	0.23019	0.11892	0.31684	0.089837	0.11193	0.17355	0.26471	0.3356	0.092435	0.1548	0.088926	0.092567	0.080483	0.17995	0.1237	0.40515	-1.7313	-2.4188	-2.6271	-2.1896	-2.6333	-2.6167	-2.25	-2.6354	-2.3438	-2.6125	-2.6625	-2.4083	-2.8063	-2.5312	-2.2521	-3.0083	241.774	171.000	232.030	77.497	119.615	173.064	254.221	217.803	-11.427	-80.533	268.142	177.284	230.611	217.213	212.639	183.590	0.00024932	0.00045942	0.00011031	402.03	2.6373e-06	5.6316e-06	561.46	169.46	1.8554e-06	3.4776e-06	261.9	120.84	80.732	42.418	3.0743e-06	59.534	0.00035898	0.00038754	9.8732e-05	431.42	3.9207e-06	4.1702e-06	587.19	177.43	3.9673e-06	4.1038e-06	268.25	121.7	84.844	43.182	3.7671e-06	58.674	260.214	-14.040	-23.661	-74.021	178.354	59.341	-75.464	-67.602	194.853	47.917	-70.873	-66.485	-63.235	-58.650	66.448	-62.675	-8191	255	
3835.120	1	1	0	0	0.24462	0.19032	0.11603	0.15626	0.21319	0.22778	0.082978	0.2849	0.10319	0.16946	0.32534	0.22747	0.1702	0.2677	0.14447	0.0044016	-2.1354	-2.4917	-2.8208	-2.25	-2.5292	-2.6708	-2.4167	-2.8146	-2.6042	-2.4625	-2.8354	-2.3792	-2.4813	-2.5875	-2.2708	-2.8583	198.621	233.336	179.496	-50.957	86.539	165.869	104.660	-83.433	-33.544	164.679	158.137	175.438	-37.024	-75.557	-56.764	96.438	0.00024573	0.00038002	0.000146	401.49	3.2121e-06	5.752e-06	561.37	169.13	2.6962e-06	5.9747e-06	263	120.59	82.067	42.463	2.3292e-06	59.106	0.0003732	0.00037089	9.4934e-05	431.02	4.0872e-06	3.9575e-06	585.51	177.17	4.0376e-06	3.826e-06	267.61	122.1	85.535	42.905	3.5032e-06	58.404	245.664	-54.430	-6.403	-73.964	124.264	70.414	-75.404	-67.478	81.570	43.143	-70.669	-66.318	-63.392	-58.462	114.901	-62.334	-8191	255	
3835.216	1	1	0	0	0.11105	0.090722	0.089303	0.13665	0.073871	0.32182	0.26506	0.2865	0.18063	0.20897	0.12439	0.049846	0.087374	0.055766	0.24953	0.067813	-2.0312	-2.2854	-2.6667	-2.425	-2.4292	-2.675	-2.2208	-2.5687	-2.4292	-2.3521	-2.7229	-2.4417	-2.4146	-2.6688	-2.2146	-2.8438	96.126	-32.905	-1.137	-55.532	227.203	-79.750	255.167	225.671	127.283	93.797	15.997	-68.023	222.926	198.568	-77.108	164.930	0.00025033	0.00019498	0.00012843	402.11	7.5465e-06	4.3356e-06	564.31	169.79	3.8297e-06	2.2769e-06	263.32	121.69	82.241	42.488	3.3759e-06	59.264	0.00036303	0.00033658	8.8191e-05	431.88	3.9814e-06	3.6877e-06	586.44	178.71	4.0249e-06	3.7456e-06	268.06	123.33	86.067	43.022	3.5488e-06	58.902	268.311	-83.316	-1.657	-73.731	81.096	-5.976	-75.491	-67.689	21.264	67.192	-70.689	-66.527	-63.146	-58.413	115.153	-62.534	-8191	255	
3835.337	1	1	0	0	0.25921	0.10298	0.29385	0.13451	0.28191	0.31847	0.043681	0.12085	0.13143	0.27852	0.018089	0.15764	0.21698	0.16571	0.13788	0.12074	-2.0833	-2.2083	-2.7667	-2.5125	-2.4688	-2.6708	-2.4583	-2.6333	-2.4542	-2.2604	-2.7792	-2.5167	-2.3792	-2.7271	-2.2021	-2.55	-30.743	241.908	3.936	170.051	-80.143	216.593	-69.536	104.935	162.072	84.443	-11.174	-55.470	-83.661	222.770	-37.949	176.232	0.00024867	0.00034849	0.00010461	406.13	2.8864e-06	2.2566e-06	570.45	172.18	3.7227e-06	4.2489e-06	269.16	124	84.126	43.123	2.7305e-06	60.143	0.00037216	0.00033919	8.9642e-05	438.84	3.9605e-06	3.6438e-06	591.87	181.5	3.8551e-06	3.5258e-06	271.53	125.38	86.974	43.414	3.4178e-06	59.602	268.278	-44.576	33.399	-74.158	44.808	-48.034	-75.390	-67.400	76.872	90.072	-70.857	-66.396	-63.319	-58.634	149.629	-62.502	-8191	255	
3835.408	1	1	0	0	0.12601	0.10451	0.18722	0.18953	0.17185	0.20599	0.27432	0.14867	0.037368	0.038313	0.18511	0.33348	0.16083	0.19294	0.26545	0.30051	-2.1271	-2.3271	-2.6688	-2.625	-2.3396	-2.7479	-2.4604	-2.65	-2.7104	-2.3521	-2.45	-2.525	-2.3896	-2.6375	-2.2521	-2.7396	226.942	108.423	136.573	113.745	211.948	140.397	164.259	264.347	118.550	-77.657	135.948	165.068	254.364	-59.680	24.454	267.765	0.00023596	0.00023945	0.00014155	407.91	3.7708e-06	4.3045e-06	571.79	173.02	7.1578e-06	5.7049e-06	269.03	124.34	84.859	43.047	1.7672e-06	60.055	0.00034134	0.0003167	8.8109e-05	441.03	3.7e-06	3.4863e-06	594.88	182.74	3.6732e-06	3.4383e-06	274.17	126.22	87.409	43.389	3.5382e-06	59.424	-79.519	11.917	7.823	-73.740	108.739	2.402	-75.388	-67.482	78.601	46.862	-70.733	-66.483	-63.334	-58.708	176.652	-62.680	-8191	255	
3835.505	1	1	0	0	0.083288	0.035726	0.23288	0.26673	0.11586	0.12988	0.2735	0.15355	0.12704	0.2995	0.083151	0.091803	0.18808	0.11646	0.13381	0.30109	-2.1146	-2.2771	-2.575	-2.5396	-2.6083	-2.7979	-2.4729	-2.5104	-2.7271	-2.1771	-2.7604	-2.6833	-2.3812	-2.8688	-2.2521	-2.6646	227.849	-45.330	78.087	161.809	24.307	113.121	137.452	34.660	255.715	215.206	-65.847	251.797	224.883	72.384	151.497	198.835	0.000209	0.00043396	6.6447e-05	407.9	2.4955e-06	4.4979e-06	569.18	172.86	4.063e-06	3.075e-06	270.24	123.76	84.21	42.614	3.8326e-06	59.236	0.0003232	0.00030582	9.0806e-05	438.14	3.5334e-06	3.3644e-06	593.7	182.13	3.5635e-06	3.3862e-06	274.91	125.66	86.881	42.967	3.8255e-06	58.674	249.600	-48.395	101.922	-73.897	162.872	-33.529	-75.510	-67.280	26.840	27.684	-70.689	-66.519	-63.500	-58.600	-63.922	-62.601	-8191	255	
3835.601	1	1	0	0	0.1471	0.097022	0.18908	0.15512	0.075122	0.26855	0.21268	0.09375	0.2237	0.267	0.13959	0.30895	0.18672	0.18848	0.23765	0.12226	-2.1854	-2.2083	-2.5438	-2.6375	-2.3292	-2.8271	-2.4813	-2.4542	-2.7625	-2.4271	-2.5396	-2.7562	-2.175	-2.7938	-2.4562	-2.5875	231.296	47.462	241.531	34.706	158.018	119.993	270.309	105.377	5.973	167.393	226.830	-21.653	242.235	185.961	-72.699	199.541	0.00015809	0.00032007	5.3086e-05	404.02	3.1379e-06	2.4681e-06	567.66	173.34	3.9975e-06	3.2339e-06	268.87	124.12	85.206	42.915	1.0391e-06	59.489	0.00032363	0.00031143	9.8267e-05	434.94	3.4943e-06	3.3952e-06	594.51	181.4	3.4524e-06	3.4304e-06	275.77	125.47	87.112	43.296	3.9225e-06	58.875	254.155	266.904	122.516	-74.203	42.395	87.158	-75.472	-67.270	88.435	37.981	-70.714	-66.381	-63.379	-58.797	-36.658	-62.826	-8191	255	
3835.720	1	1	0	0	0.048202	0.17176	0.15594	0.1295	0.13384	0.050965	0.1441	0.22124	0.27338	0.16717	0.24364	0.20376	0.29503	0.20724	0.12595	0.045248	-2.3708	-2.275	-2.4583	-2.5771	-2.325	-2.4375	-2.6167	-2.5604	-2.7875	-2.2958	-2.7313	-2.7729	-2.4354	-2.8354	-2.5271	-2.5479	167.745	139.570	252.945	147.845	98.823	78.653	181.481	-52.754	11.735	167.818	127.110	156.846	219.789	208.848	-78.967	173.665	0.00020897	0.00017272	0.00012623	403.76	5.5154e-06	1.5677e-06	569.98	173.86	3.7399e-06	2.5215e-06	269.44	123.97	84.8	42.815	4.7323e-06	59.474	0.00031497	0.00032004	0.00010012	433.88	3.4016e-06	3.5571e-06	596.37	181.78	3.437e-06	3.6387e-06	276.41	125.19	86.972	43.313	3.9593e-06	58.672	273.639	206.122	-3.421	-74.096	81.296	172.759	-75.666	-67.250	50.270	111.537	-70.649	-66.678	-63.325	-58.855	65.145	-62.733	-8191	255	
3835.816	1	1	0	0	0.2228	0.15342	0.11627	0.13134	0.059536	0.16109	0.037177	0.18259	0.16487	0.15196	0.31895	0.14977	0.11151	0.15168	0.35019	0.067081	-2.2313	-2.1583	-2.275	-2.7562	-2.2625	-2.6771	-2.6583	-2.4125	-2.8812	-2.4771	-2.6229	-2.9208	-2.4542	-2.6229	-2.4938	-2.3333	-12.932	-5.028	121.333	186.287	228.904	-19.025	126.379	-70.426	34.879	249.907	-59.794	253.999	273.032	39.987	120.507	11.448	0.00019703	0.00031691	0.00011682	400.84	6.4664e-07	2.6664e-06	565.67	171.74	2.7491e-06	8.0455e-07	267.64	124.04	83.954	42.433	1.1888e-06	58.982	0.00031397	0.00034377	0.00010003	430.68	3.4108e-06	3.8237e-06	591.51	180.1	3.4202e-06	3.9063e-06	274.31	124.8	86.211	43.199	3.8843e-06	58.413	263.976	29.716	24.983	-73.954	166.225	101.227	-75.540	-67.298	-40.976	57.040	-70.656	-66.458	-63.227	-58.604	104.527	-62.519	-8191	255	
3835.912	1	1	0	0	0.10158	0.25278	0.16196	0.16884	0.36099	0.15989	0.14863	0.13578	0.2164	0.12441	0.2647	0.29388	0.13725	0.35399	0.1146	0.16385	-2.225	-2.2687	-2.225	-2.5729	-2.2438	-2.6042	-2.7271	-2.3833	-2.8333	-2.45	-2.3979	-2.9917	-2.4667	-2.6917	-2.5958	-2.2083	16.521	25.555	223.725	-77.324	267.856	107.150	169.490	262.304	-6.534	-28.025	259.107	261.214	271.178	266.148	233.667	-30.014	0.00018677	0.0005038	0.00020052	398.49	1.8305e-06	4.7663e-06	565.29	170.97	2.5589e-06	1.2512e-06	265.31	124.26	83.566	42.368	6.1259e-06	58.894	0.00032141	0.00036471	9.7059e-05	427.07	3.5187e-06	4.0101e-06	587.68	178.81	3.557e-06	4.0458e-06	272.46	124.55	86.477	43.172	3.6966e-06	58.072	254.059	30.015	11.460	-73.899	161.230	-11.336	-75.568	-67.229	227.454	-77.205	-70.474	-66.457	-63.300	-58.424	62.137	-62.579	-8191	255	
3836.008	1	1	0	0	0.45222	0.15877	0.18203	0.23303	0.15884	0.0364	0.011319	0.23886	0.053206	0.083711	0.22369	0.082271	0.36986	0.21423	0.14465	0.22012	-2.1562	-2.4104	-2.2604	-2.8917	-2.3063	-2.5083	-2.5563	-2.2542	-2.5083	-2.5333	-2.3583	-2.8688	-2.3479	-2.5187	-2.5958	-2.2625	177.171	227.029	-18.893	272.739	10.092	73.191	68.643	227.349	-14.254	-74.716	235.301	5.403	-49.272	264.193	-1.912	142.051	0.00029459	0.00024733	7.5425e-05	398.63	2.8743e-06	3.5107e-06	562.64	171.36	1.7042e-06	5.9823e-06	266.76	123.3	83.583	42.231	1.9121e-06	58.779	0.00033542	0.00036669	9.3505e-05	425.61	3.7009e-06	4.039e-06	585.76	178.48	3.7924e-06	4.0078e-06	271.15	123.77	86.852	43.01	3.6524e-06	57.849	272.333	269.942	-5.857	-74.037	180.371	12.871	-75.455	-67.564	-35.981	59.654	-70.610	-66.461	-63.170	-58.593	73.269	-62.626	-8191	255	
3836.104	1	1	0	0	0.12726	0.17538	0.13488	0.12016	0.10446	0.011332	0.14675	0.18218	0.14743	0.11648	0.21248	0.1212	0.1271	0.046209	0.30469	0.27862	-2.0979	-2.3333	-2.3312	-2.8937	-2.2104	-2.5729	-2.6771	-2.4125	-2.5771	-2.4646	-2.3896	-2.7792	-2.4938	-2.4583	-2.7625	-2.5229	109.859	-76.478	183.369	-32.982	-84.289	168.837	132.509	97.755	-83.429	84.786	265.459	119.456	170.674	252.260	258.019	187.545	0.00023945	0.00039486	0.00013214	399.53	2.1948e-06	4.3228e-06	564.77	170.74	2.882e-06	5.0605e-06	266.75	123.35	83.777	42.362	5.9673e-07	58.473	0.00035659	0.00035709	9.1913e-05	426.2	3.9158e-06	3.8852e-06	586.09	178.82	3.9971e-06	3.8708e-06	270.98	124.11	87.428	42.899	3.597e-06	57.809	261.953	-16.452	34.986	-73.764	85.604	25.851	-75.477	-67.276	134.353	40.701	-70.786	-66.454	-63.301	-58.675	43.418	-62.670	-8191	255	
3836.200	1	1	0	0	0.34693	0.18191	0.095213	0.12456	0.13846	0.35854	0.19262	0.11734	0.12006	0.080257	0.11834	0.14549	0.14785	0.23427	0.050612	0.098506	-2.0438	-2.4313	-2.2646	-2.7417	-2.6479	-2.4979	-3.0354	-2.4458	-2.6208	-2.5896	-2.1375	-2.6833	-2.5792	-2.3812	-2.6083	-2.4354	39.560	130.917	108.683	272.346	-60.602	49.894	114.361	191.115	147.243	-14.533	142.904	131.348	236.144	261.353	-30.001	53.800	0.00020776	0.00086143	0.00024337	396.37	2.3528e-06	3.6007e-06	561.63	169.77	3.8885e-06	6.287e-06	265.34	122.65	83.86	42.306	4.4066e-06	58.496	0.00037372	0.00035074	9.1099e-05	426.7	4.095e-06	3.7807e-06	582.81	178.81	4.0683e-06	3.7695e-06	269.85	124.34	87.443	42.716	3.5178e-06	57.975	253.656	-45.665	29.546	-73.838	44.736	8.365	-75.355	-67.449	162.455	54.901	-70.805	-66.500	-63.296	-58.600	72.818	-62.865	-8191	255	
3836.321	1	1	0	0	0.075101	0.2424	0.08552	0.16017	0.21151	0.3338	0.33783	0.15701	0.13625	0.23809	0.29498	0.1459	0.12106	0.094999	0.17915	0.34263	-2.1271	-2.6437	-2.2896	-2.6979	-2.4354	-2.3563	-2.7896	-2.4333	-2.3833	-2.5625	-2.2167	-2.6625	-2.525	-2.4792	-2.5438	-2.4458	188.062	-12.102	-30.813	270.381	1.080	237.417	194.335	179.233	93.645	99.551	-9.841	155.470	-26.301	104.604	102.674	-81.347	0.0002574	0.00010885	6.3608e-05	396.39	7.332e-06	5.9678e-06	562.24	170.35	6.4681e-06	3.4119e-06	264.61	122.83	83.629	42.186	1.2942e-06	58.436	0.0003675	0.00034064	8.9879e-05	429.27	4.0395e-06	3.7102e-06	583.74	179.87	4.0004e-06	3.6937e-06	270.4	124.86	87.017	42.686	3.558e-06	58.273	265.276	-46.273	-4.661	-73.701	70.741	6.376	-75.581	-67.139	116.752	56.506	-70.861	-66.263	-63.247	-58.683	4.778	-62.521	-8191	255	
3836.417	1	1	0	0	0.063584	0.15624	0.075086	0.072884	0.10045	0.1638	0.078502	0.25101	0.1735	0.13302	0.26163	0.15334	0.3059	0.30865	0.086808	0.20594	-1.9417	-2.7146	-2.1229	-2.5646	-2.5292	-2.2542	-2.7375	-2.4833	-2.2062	-2.8708	-2.3937	-2.6521	-2.6104	-2.3354	-2.5542	-2.4479	158.949	150.129	-65.340	243.047	234.514	77.057	104.518	67.044	99.915	-75.362	198.996	220.170	164.369	-25.845	-82.920	193.640	0.00020855	0.00058449	0.00011697	397	1.6786e-06	1.8292e-06	562.03	169.98	4.7484e-06	6.5046e-06	264.1	122.76	83.326	42.179	7.013e-06	58.324	0.00035875	0.00033511	9.1685e-05	432.45	3.899e-06	3.634e-06	585.22	180.05	3.8875e-06	3.639e-06	270.33	124.91	86.584	42.545	3.7594e-06	58.117	-82.011	17.960	-77.201	-73.883	35.628	-30.394	-75.496	-67.307	64.381	56.236	-70.603	-66.609	-63.232	-58.717	183.384	-62.630	-8191	255	
3836.513	1	1	0	0	0.18099	0.1217	0.10205	0.23814	0.2054	0.075129	0.16426	0.28039	0.32311	0.25634	0.090252	0.20523	0.18493	0.32059	0.10118	0.03415	-1.8646	-2.6042	-2.3583	-2.5021	-2.4229	-2.2625	-2.6917	-2.6354	-2.4104	-2.7229	-2.35	-2.6833	-2.6354	-2.2604	-2.4583	-2.5208	136.222	202.233	-67.181	158.691	215.184	242.867	73.722	188.315	274.499	138.049	240.087	191.990	212.760	249.981	-66.812	-2.477	0.00020418	0.00032154	0.00011692	397.65	1.9583e-06	5.55e-06	560.1	170.36	4.3275e-06	2.8546e-06	263.52	123	83.991	42.096	1.5993e-06	58.32	0.00034922	0.00032779	9.6593e-05	432.42	3.7875e-06	3.5798e-06	585.65	180.08	3.7427e-06	3.5646e-06	271.91	124.77	86.536	42.505	3.9469e-06	58.113	251.966	271.084	123.377	-73.900	118.236	-22.373	-75.418	-67.467	89.091	140.866	-70.573	-66.611	-63.387	-58.681	207.901	-62.690	-8191	255	
3836.608	1	1	0	0	0.27112	0.29369	0.15488	0.030132	0.22232	0.15945	0.16945	0.25728	0.076785	0.13143	0.1422	0.065586	0.18103	0.026901	0.25613	0.15687	-1.7167	-2.675	-2.3958	-2.4688	-2.775	-2.3229	-2.7042	-2.5771	-2.2792	-2.5917	-2.4854	-2.5938	-2.7854	-2.4521	-2.4854	-2.5979	-79.095	230.432	173.689	169.755	232.965	25.008	-67.376	220.187	151.498	50.445	241.273	184.229	248.423	196.242	210.505	268.721	0.00018258	0.00011794	8.9054e-05	399.05	2.1091e-06	5.1361e-06	560.44	171.32	4.6495e-06	2.5542e-06	264.99	122.63	83.293	42.186	1.6096e-06	58.497	0.00034039	0.00032819	0.00010333	432.57	3.7286e-06	3.5981e-06	590.65	180.25	3.7151e-06	3.6402e-06	273.77	124.53	86.146	42.687	4.2675e-06	58.163	255.001	17.606	156.089	-73.828	146.269	53.596	-75.508	-67.189	108.057	152.177	-70.727	-66.634	-63.019	-58.539	209.732	-62.851	-8191	255	
3836.704	1	1	0	0	0.057483	0.23516	0.025876	0.10561	0.29382	0.063572	0.26299	0.1303	0.16772	0.085253	0.20353	0.23423	0.091116	0.36724	0.1373	0.32952	-1.8854	-2.5146	-2.3917	-2.4229	-2.7646	-2.3021	-2.5667	-2.5917	-2.1958	-2.6542	-2.3896	-2.4521	-2.7271	-2.3375	-2.2792	-2.7375	-17.811	198.880	208.372	200.519	181.940	-0.299	9.092	174.708	258.553	197.100	155.314	179.243	-34.310	243.637	270.317	241.351	0.00022145	0.0002334	9.939e-05	395.94	1.3326e-06	1.1066e-06	552.47	166.54	6.0109e-06	3.3212e-06	258.61	119.81	80.6	41.409	2.7038e-06	57.197	0.00034641	0.00034749	0.000111	429.66	3.8053e-06	3.9473e-06	585.49	176.8	3.839e-06	4.066e-06	270.31	122.08	84.22	42.242	4.5274e-06	57.219	251.137	-51.349	53.638	-74.000	-24.404	72.671	-75.436	-67.334	81.391	191.523	-70.633	-66.396	-63.268	-58.486	-41.600	-62.679	-8191	255	
3836.800	1	1	0	0	0.11244	0.1348	0.1692	0.12727	0.09025	0.11438	0.15031	0.098239	0.12951	0.1968	0.34923	0.055574	0.13334	0.13646	0.089228	0.14234	-1.6812	-2.3937	-2.4083	-2.3917	-2.6083	-2.4333	-2.575	-2.6708	-2.3063	-2.6646	-2.4562	-2.0438	-2.7687	-2.4062	-2.4583	-2.6063	200.051	206.996	27.101	-14.631	247.392	-80.616	216.084	23.277	226.191	-35.312	223.737	11.219	253.708	-59.220	16.865	254.405	0.00012188	0.00048805	0.00013309	386.06	3.6181e-06	3.5837e-06	544.98	163.18	3.8423e-06	4.3235e-06	254.88	118.3	79.178	40.604	5.8782e-06	56.508	0.00035555	0.00038987	0.00011599	420.52	3.9081e-06	4.3933e-06	578.49	173.92	3.9412e-06	4.4482e-06	266.6	120.38	83.056	41.81	4.4875e-06	56.354	246.026	119.973	-8.304	-73.770	60.623	89.399	-75.387	-67.411	98.192	217.630	-70.626	-66.523	-63.155	-58.526	55.610	-62.534	-8191	255	
3836.896	1	1	0	0	0.10064	0.20084	0.17236	0.21707	0.18642	0.10005	0.21714	0.18159	0.18586	0.1011	0.069457	0.085951	0.052809	0.39407	0.15112	0.16518	-1.7812	-2.4979	-2.6542	-2.3	-2.6979	-2.4104	-2.3333	-2.6333	-2.45	-2.6312	-2.6833	-2.4313	-2.6146	-2.4604	-2.4792	-2.7583	259.822	128.285	21.408	25.023	167.846	-14.989	93.502	241.188	38.695	53.782	12.927	-57.640	114.804	240.014	264.191	173.650	0.00027667	0.00037284	5.059e-05	379.28	2.5073e-06	5.2366e-06	541.11	162.64	1.4852e-06	2.9147e-06	253.86	117.31	79.07	40.445	2.8092e-06	56.008	0.00036276	0.00041237	0.00011216	412.83	3.9536e-06	4.5418e-06	571.18	172.81	4.0072e-06	4.5878e-06	264.04	119.61	83.342	41.725	4.3608e-06	55.988	236.780	4.230	12.895	-73.637	33.385	71.377	-75.401	-67.337	203.009	99.401	-70.682	-66.374	-63.201	-58.557	152.364	-62.661	-8191	255	
3837.017	1	1	0	0	0.2452	0.22907	0.052775	0.17689	0.19604	0.22993	0.091058	0.087694	0.13977	0.19014	0.16628	0.15531	0.23319	0.21624	0.16683	0.21441	-1.9729	-2.5104	-2.5	-2.3583	-2.525	-2.4062	-2.3583	-2.6188	-2.1333	-2.5958	-2.6833	-2.3229	-2.4292	-2.575	-2.3688	-2.7792	219.547	124.605	121.507	251.847	126.892	-42.493	157.708	213.911	113.180	-82.221	67.812	229.758	109.392	215.202	111.213	222.072	0.00032882	0.00020005	0.00017502	377.11	2.3545e-06	3.1541e-06	538.53	162.46	3.7899e-06	4.7051e-06	253.46	117.32	79.295	40.66	4.6973e-06	56.514	0.00038854	0.00043901	0.00011235	412.2	4.3804e-06	4.8135e-06	569.44	172.31	4.431e-06	4.7443e-06	263.69	119.64	84.232	41.877	4.2438e-06	56.399	243.793	-61.864	43.007	-73.699	-61.055	38.619	-75.451	-67.237	-82.319	41.717	-70.704	-66.257	-63.290	-58.480	62.877	-62.618	-8191	255	
3837.113	1	1	0	0	0.18418	0.091534	0.30925	0.11359	0.088975	0.34815	0.10537	0.09924	0.18787	0.082116	0.20001	0.19459	0.16996	0.24925	0.21013	0.40917	-1.9271	-2.4813	-2.7438	-2.0854	-2.6937	-2.5396	-2.3396	-2.7021	-2.2333	-2.4021	-2.7125	-2.2771	-2.6292	-2.5583	-2.2917	-2.6646	-69.509	266.353	43.931	-16.283	4.646	143.587	229.141	206.471	273.706	60.955	259.102	171.376	-51.291	191.019	174.562	243.877	0.00030518	0.00063611	0.00015376	380.23	2.9733e-06	4.1465e-06	539.32	163.93	1.2655e-06	4.0483e-06	253.2	116.9	79.282	40.802	4.4587e-06	56.656	0.00040816	0.00041939	0.00010793	414.63	4.5969e-06	4.6328e-06	571.44	173.24	4.7432e-06	4.6821e-06	263.83	119.68	84.727	41.906	4.2653e-06	56.64	256.639	-57.747	34.617	-73.620	64.181	76.168	-75.538	-67.369	-39.859	30.500	-70.529	-66.403	-63.201	-58.410	39.382	-62.701	-8191	255	
3837.209	1	1	0	0	0.16101	0.15836	0.18004	0.13254	0.18148	0.098512	0.22286	0.035781	0.045779	0.18622	0.19866	0.29263	0.27765	0.099523	0.12129	0.21981	-1.7979	-2.3771	-2.5917	-2.4208	-2.7104	-2.6375	-2.2313	-2.7562	-2.5875	-2.2938	-2.8042	-2.5062	-2.5438	-2.6625	-2.3792	-2.7271	117.361	118.507	-35.923	110.234	86.684	94.132	182.725	-35.137	116.829	-24.702	-79.494	-66.876	199.994	177.360	45.516	238.973	0.00024193	0.00020186	0.0001032	382.46	3.1521e-06	7.5423e-06	545.64	165.12	3.9687e-06	3.2138e-06	257.5	119.33	81.27	41.358	1.9243e-06	57.755	0.00043491	0.00040794	0.00010484	418.94	4.6191e-06	4.3151e-06	574.25	175.22	4.508e-06	4.1488e-06	265.42	121.97	85.7	42.245	3.8676e-06	57.588	254.744	90.654	63.490	-73.437	179.031	15.700	-75.619	-67.308	100.558	-64.719	-70.722	-66.497	-63.131	-58.631	-13.477	-62.451	-8191	255	
3837.281	1	1	0	0	0.15189	0.30926	0.27116	0.22653	0.17577	0.16853	0.068557	0.12628	0.18747	0.19464	0.2971	0.085137	0.38185	0.058757	0.090385	0.081	-1.9604	-2.3104	-2.6375	-2.3833	-2.575	-2.7562	-2.3521	-2.6167	-2.3583	-2.2875	-2.7583	-2.5521	-2.3396	-2.7687	-2.4062	-2.5646	58.167	108.582	58.776	73.473	-38.498	186.061	146.198	183.814	-21.589	146.233	138.696	175.817	-68.783	-69.593	168.901	225.329	0.00026016	5.2369e-05	1.9334e-05	386.29	6.767e-06	4.5628e-06	547.46	165.35	2.5525e-06	1.4082e-06	254.28	118.49	80.016	41.062	2.0465e-06	57.077	0.00040768	0.00037286	9.8002e-05	423.33	4.4718e-06	4.1285e-06	573.62	175.75	4.477e-06	4.1267e-06	263.4	121.32	84.759	41.875	3.9367e-06	57.246	257.895	84.360	-40.974	-73.492	95.017	11.665	-75.366	-67.145	73.359	141.652	-70.408	-66.411	-63.296	-58.308	231.258	-62.624	-8191	255	
3837.401	1	1	0	0	0.2913	0.10589	0.26205	0.21336	0.18184	0.1756	0.38262	0.29731	0.11323	0.15731	0.1933	0.13217	0.10832	0.020709	0.21109	0.082512	-1.9167	-2.2167	-2.5229	-2.6271	-2.3937	-2.7375	-2.3917	-2.6167	-2.6688	-2.4625	-2.6562	-2.4917	-2.4062	-2.8521	-2.375	-2.4333	-27.870	101.238	-74.433	134.566	214.760	89.183	132.896	212.330	267.340	113.103	197.992	-42.478	-36.780	52.041	50.943	96.702	0.00022971	0.00057907	4.1038e-05	383.66	6.3925e-06	3.0266e-06	542.92	165.36	7.6683e-06	3.9324e-06	256.24	118.66	80.463	41.208	1.0755e-06	57.321	0.00040193	0.00037069	9.9372e-05	423.95	4.2491e-06	3.983e-06	572.87	176.58	4.233e-06	3.9486e-06	264.23	121.66	84.281	41.923	4.0109e-06	57.554	273.117	-32.703	15.431	-73.496	65.838	10.050	-75.592	-67.453	72.940	125.554	-70.518	-66.541	-63.105	-58.639	206.051	-62.662	-8191	255	
3837.497	1	1	0	0	0.10275	0.36922	0.24655	0.46064	0.18691	0.24323	0.0516	0.16431	0.35975	0.22833	0.10667	0.24788	0.10774	0.097132	0.15335	0.28732	-2.1208	-2.25	-2.7646	-2.5729	-2.3667	-2.7958	-2.4646	-2.5687	-2.6625	-2.3354	-2.6958	-2.6917	-2.45	-2.7542	-2.4729	-2.6188	75.167	87.063	58.731	195.425	65.766	166.969	153.488	136.523	17.950	-30.832	205.400	100.507	47.851	228.226	80.660	271.934	0.00013526	0.00038464	2.2165e-05	388.32	5.3061e-06	5.5443e-06	546.46	165.17	4.3529e-06	4.3485e-06	256.67	119.05	80.374	41.602	2.1794e-06	57.936	0.00038223	0.0003565	0.00010395	426.72	4.1175e-06	3.9033e-06	576.74	176.86	4.0819e-06	3.8535e-06	266.42	121.97	84.237	42.129	4.27e-06	57.82	-78.801	-27.304	-41.763	-73.693	53.345	11.534	-75.455	-67.488	78.954	12.364	-70.782	-66.465	-62.877	-58.686	132.238	-62.789	-8191	255	
3837.594	1	1	0	0	0.1701	0.128	0.20017	0.13254	0.090552	0.26844	0.16645	0.22071	0.062073	0.019107	0.27288	0.23295	0.1424	0.086925	0.076884	0.37896	-2.0187	-2.0854	-2.6146	-2.5812	-2.3625	-2.8021	-2.2833	-2.4354	-2.6188	-2.4042	-2.5333	-2.7167	-2.3187	-2.925	-2.575	-2.5938	-56.852	60.477	19.383	214.493	-78.655	252.878	-51.440	159.758	127.922	110.083	146.499	187.511	258.484	183.438	201.542	195.344	0.0002341	0.00048435	8.8489e-05	389.94	1.5123e-06	4.111e-06	551.15	167	5.4678e-06	3.9625e-06	257.92	119.89	80.965	41.584	4.4419e-06	58.198	0.00036992	0.00035017	0.00010932	428.33	4.0177e-06	3.8312e-06	581.68	176.99	3.9441e-06	3.8134e-06	268.91	122.13	84.116	42.241	4.3407e-06	57.881	266.822	263.707	152.981	-73.876	39.389	91.114	-75.655	-67.075	74.237	83.427	-70.658	-66.431	-63.113	-58.527	75.951	-62.676	-8191	255	
3837.690	1	1	0	0	0.1397	0.2698	0.057238	0.124	0.19077	0.1149	0.066703	0.15387	0.046813	0.14631	0.21776	0.14946	0.083225	0.20872	0.047306	0.31024	-2.2812	-2.2542	-2.4292	-2.7521	-2.1625	-2.6583	-2.4062	-2.5021	-2.6396	-2.1667	-2.8396	-2.8229	-2.1396	-2.8917	-2.7438	-2.4396	271.042	151.733	-13.403	218.782	35.174	-7.697	191.478	260.499	112.626	131.996	216.615	-31.631	48.176	270.701	79.960	176.650	0.00024169	9.891e-05	0.00013883	391.89	2.591e-06	2.3913e-06	552.9	166.92	2.2388e-06	3.3223e-06	259.99	120.34	81.096	41.914	6.912e-06	58.498	0.00035177	0.00034759	0.00011075	425.4	3.8137e-06	3.8501e-06	584.13	176.57	3.744e-06	3.867e-06	270.03	122.51	84.214	42.47	4.1758e-06	57.964	257.842	78.905	46.213	-73.983	37.557	181.301	-75.537	-67.452	168.292	210.878	-70.724	-66.429	-63.428	-58.523	-19.300	-62.582	-8191	255	
3837.809	1	1	0	0	0.2236	0.21692	0.17411	0.12993	0.25456	0.14456	0.041492	0.18468	0.25394	0.23941	0.37272	0.11557	0.19	0.12278	0.30869	0.046236	-2.3729	-2.3958	-2.7479	-2.6292	-2.3667	-2.825	-2.6125	-2.4333	-2.7062	-2.5062	-2.5521	-2.8417	-2.4167	-2.6604	-2.6396	-2.3438	204.565	101.703	-81.573	-16.254	117.746	-43.052	41.518	59.734	145.485	50.451	-54.365	-55.846	-59.657	114.435	171.887	199.866	0.00020237	0.00049194	8.9832e-05	396.11	3.0481e-06	5.5615e-06	560.19	168.83	4.7555e-06	1.5683e-06	262.14	120.9	81.992	41.877	2.9374e-06	58.356	0.00032641	0.00034751	0.00010437	427.39	3.5071e-06	3.8541e-06	587.24	177.17	3.5574e-06	3.9601e-06	270.1	122.6	84.521	42.651	4.0294e-06	57.678	264.718	98.477	50.892	-73.789	76.003	221.612	-75.594	-67.375	174.993	96.247	-70.913	-66.488	-63.375	-58.538	57.698	-62.667	-8191	255	
3837.905	1	1	0	0	0.25862	0.11977	0.12165	0.093307	0.12738	0.2629	0.21323	0.041465	0.075606	0.25856	0.045065	0.32443	0.28375	0.080607	0.032605	0.35958	-2.3792	-2.3417	-2.4271	-2.8958	-2.4604	-2.7271	-2.7208	-2.4	-2.7583	-2.5375	-2.4521	-2.8438	-2.2854	-2.7792	-2.8354	-2.4542	93.670	242.259	6.633	88.132	64.597	241.727	217.027	169.355	157.138	43.017	77.891	256.995	68.745	-78.392	42.933	207.529	0.00024057	0.00029262	8.0551e-05	395.61	4.22e-06	4.5865e-06	558.96	168.91	2.3044e-06	7.9869e-07	262.15	121.57	82.136	41.842	3.2012e-06	58.255	0.00032509	0.00036521	0.00010116	425.6	3.5217e-06	4.0561e-06	584.52	177.15	3.564e-06	4.0908e-06	269.41	122.82	85.077	42.717	3.8792e-06	57.632	247.052	248.448	25.154	-74.128	-26.439	97.900	-75.440	-67.379	166.211	88.353	-70.572	-66.304	-63.342	-58.544	49.682	-62.571	-8191	255	
3838.001	1	1	0	0	0.043118	0.10589	0.13321	0.25015	0.14915	0.25958	0.23328	0.083254	0.18936	0.2086	0.18324	0.082219	0.041096	0.22758	0.087198	0.35037	-2.2521	-2.5021	-2.4625	-2.8146	-2.3333	-2.5333	-2.8708	-2.225	-2.8146	-2.5938	-2.3333	-2.7708	-2.2938	-2.5187	-2.7521	-2.4417	26.873	99.452	115.994	200.676	85.401	206.075	184.958	217.840	201.161	-45.092	42.587	219.847	15.885	-80.772	123.307	223.455	0.00029934	0.0004924	0.00019002	395.39	1.347e-06	1.7719e-06	560.14	169.58	2.0562e-06	6.5047e-07	264.57	122.68	83.076	42.457	2.6444e-06	59.306	0.00033716	0.00037951	9.7412e-05	424.72	3.6887e-06	4.1292e-06	585.16	177.59	3.7096e-06	4.0338e-06	270.24	123.51	86.103	43.101	3.613e-06	58.379	264.044	16.295	38.799	-74.049	149.031	95.723	-75.558	-67.391	-54.098	57.617	-70.603	-66.532	-62.957	-58.581	93.491	-62.744	-8191	255	
#DATA ENDS
