BOXY.EXE: ISS Imagent and Oximeter Data Acquisition Program Version 0.80
Ascii Record File

#ACQ INFORMATION
2  Detector Channels 
16  External MUX Channels 
1  Auxiliary Channels 
5000  Waveform (CCF) Frequency (Hz)
1  Waveforms Skipped 
30  Waveforms Averaged 
1  Cycles Averaged 
16  Acquisitions per Waveform 
10.0806  Updata Rate (Hz) 

#FILE INFORMATION
TRUE -- External MUX Channel results are PARSED.
FALSE -- AC DC and Phase are NOT grouped.
TRUE -- Companion Program Settings File CREATED.
FALSE -- AC data not excluded
FALSE -- DC data not excluded
FALSE -- Phase data not excluded
FALSE -- Auxillary Chn. data not excluded
Tab delimiters

#CALIBRATION STATE
TRUE -- Waveform Calibration Values APPLIED.


#AUX CALIBRATION VALUES
Val Type	aux-1	

Term	1.0000e+00	
Factor	0.0000e+00	


#WF CALIBRATION VALUES
A = Detector Channel
Val Type	A-AC1	A-AC2	A-AC3	A-AC4	A-AC5	A-AC6	A-AC7	A-AC8	A-AC9	A-AC10	A-AC11	A-AC12	A-AC13	A-AC14	A-AC15	A-AC16	A-DC1	A-DC2	A-DC3	A-DC4	A-DC5	A-DC6	A-DC7	A-DC8	A-DC9	A-DC10	A-DC11	A-DC12	A-DC13	A-DC14	A-DC15	A-DC16	A-Ph1	A-Ph2	A-Ph3	A-Ph4	A-Ph5	A-Ph6	A-Ph7	A-Ph8	A-Ph9	A-Ph10	A-Ph11	A-Ph12	A-Ph13	A-Ph14	A-Ph15	A-Ph16	

Term	0.00000e+00	0.00000e+00	0.00000e+00	0.00000e+00	0.00000e+00	0.00000e+00	0.00000e+00	0.00000e+00	0.00000e+00	0.00000e+00	0.00000e+00	0.00000e+00	0.00000e+00	0.00000e+00	0.00000e+00	0.00000e+00	0.00000e+00	0.00000e+00	0.00000e+00	0.00000e+00	0.00000e+00	0.00000e+00	0.00000e+00	0.00000e+00	0.00000e+00	0.00000e+00	0.00000e+00	0.00000e+00	0.00000e+00	0.00000e+00	0.00000e+00	0.00000e+00	0.00000e+00	0.00000e+00	0.00000e+00	0.00000e+00	0.00000e+00	0.00000e+00	0.00000e+00	0.00000e+00	0.00000e+00	0.00000e+00	0.00000e+00	0.00000e+00	0.00000e+00	0.00000e+00	0.00000e+00	0.00000e+00	
Factor	1.00000e+00	1.00000e+00	1.00000e+00	1.00000e+00	1.00000e+00	1.00000e+00	1.00000e+00	1.00000e+00	1.00000e+00	1.00000e+00	1.00000e+00	1.00000e+00	1.00000e+00	1.00000e+00	1.00000e+00	1.00000e+00	1.00000e+00	1.00000e+00	1.00000e+00	1.00000e+00	1.00000e+00	1.00000e+00	1.00000e+00	1.00000e+00	1.00000e+00	1.00000e+00	1.00000e+00	1.00000e+00	1.00000e+00	1.00000e+00	1.00000e+00	1.00000e+00	X	X	X	X	X	X	X	X	X	X	X	X	X	X	X	X	

B = Detector Channel
Val Type	B-AC1	B-AC2	B-AC3	B-AC4	B-AC5	B-AC6	B-AC7	B-AC8	B-AC9	B-AC10	B-AC11	B-AC12	B-AC13	B-AC14	B-AC15	B-AC16	B-DC1	B-DC2	B-DC3	B-DC4	B-DC5	B-DC6	B-DC7	B-DC8	B-DC9	B-DC10	B-DC11	B-DC12	B-DC13	B-DC14	B-DC15	B-DC16	B-Ph1	B-Ph2	B-Ph3	B-Ph4	B-Ph5	B-Ph6	B-Ph7	B-Ph8	B-Ph9	B-Ph10	B-Ph11	B-Ph12	B-Ph13	B-Ph14	B-Ph15	B-Ph16	

Term	0.00000e+00	0.00000e+00	0.00000e+00	0.00000e+00	0.00000e+00	0.00000e+00	0.00000e+00	0.00000e+00	0.00000e+00	0.00000e+00	0.00000e+00	0.00000e+00	0.00000e+00	0.00000e+00	0.00000e+00	0.00000e+00	0.00000e+00	0.00000e+00	0.00000e+00	0.00000e+00	0.00000e+00	0.00000e+00	0.00000e+00	0.00000e+00	0.00000e+00	0.00000e+00	0.00000e+00	0.00000e+00	0.00000e+00	0.00000e+00	0.00000e+00	0.00000e+00	-5.24022e+01	-1.64169e+02	-9.76990e+01	-1.80969e+02	-5.66720e+01	-9.77327e+01	-1.56073e+02	-1.62015e+02	-2.91745e+01	-6.44927e+01	-1.73276e+02	-1.70265e+02	-1.82009e+02	-1.76771e+02	-6.96488e+01	-1.50163e+02	
Factor	1.86859e-05	9.78118e-05	2.79070e-05	1.67683e-01	9.76611e-07	1.10387e-06	1.73110e-01	5.09591e-02	1.07639e-06	1.05178e-06	1.04153e-01	2.91335e-02	3.50756e-02	9.31146e-03	9.58455e-07	1.36155e-02	6.11716e-07	6.27859e-07	1.75053e-07	7.79073e-02	6.84918e-09	6.89061e-09	7.55109e-02	2.36384e-02	6.84905e-09	6.88618e-09	4.50172e-02	1.28399e-02	1.55609e-02	4.22386e-03	6.88738e-09	5.88561e-03	X	X	X	X	X	X	X	X	X	X	X	X	X	X	X	X	



#DISTANCE SETTINGS
A = Detector Channel
A-1	A-2	A-3	A-4	A-5	A-6	A-7	A-8	A-9	A-10	A-11	A-12	A-13	A-14	A-15	A-16	

2.5000e+00	3.0000e+00	2.5000e+00	3.0000e+00	2.0000e+00	3.0000e+00	1.5000e+00	3.0000e+00	3.0000e+00	3.0000e+00	3.0000e+00	3.0000e+00	3.0000e+00	3.0000e+00	1.5000e+00	3.0000e+00	

B = Detector Channel
B-1	B-2	B-3	B-4	B-5	B-6	B-7	B-8	B-9	B-10	B-11	B-12	B-13	B-14	B-15	B-16	

1.0000e+01	1.0000e+01	1.0000e+01	1.4400e+00	1.0000e+01	1.0000e+01	1.5100e+00	1.9400e+00	1.0000e+01	1.0000e+01	1.9900e+00	2.4900e+00	2.4100e+00	2.9000e+00	1.0000e+01	2.9800e+00	




#DATA BEGINS
time	group	step	mark	flag	A-AC1	A-AC2	A-AC3	A-AC4	A-AC5	A-AC6	A-AC7	A-AC8	A-AC9	A-AC10	A-AC11	A-AC12	A-AC13	A-AC14	A-AC15	A-AC16	A-DC1	A-DC2	A-DC3	A-DC4	A-DC5	A-DC6	A-DC7	A-DC8	A-DC9	A-DC10	A-DC11	A-DC12	A-DC13	A-DC14	A-DC15	A-DC16	A-Ph1	A-Ph2	A-Ph3	A-Ph4	A-Ph5	A-Ph6	A-Ph7	A-Ph8	A-Ph9	A-Ph10	A-Ph11	A-Ph12	A-Ph13	A-Ph14	A-Ph15	A-Ph16	B-AC1	B-AC2	B-AC3	B-AC4	B-AC5	B-AC6	B-AC7	B-AC8	B-AC9	B-AC10	B-AC11	B-AC12	B-AC13	B-AC14	B-AC15	B-AC16	B-DC1	B-DC2	B-DC3	B-DC4	B-DC5	B-DC6	B-DC7	B-DC8	B-DC9	B-DC10	B-DC11	B-DC12	B-DC13	B-DC14	B-DC15	B-DC16	B-Ph1	B-Ph2	B-Ph3	B-Ph4	B-Ph5	B-Ph6	B-Ph7	B-Ph8	B-Ph9	B-Ph10	B-Ph11	B-Ph12	B-Ph13	B-Ph14	B-Ph15	B-Ph16	aux-1	digaux	

2355.698	1	1	0	512	0.1892	0.12654	0.10361	0.15472	0.055027	0.29659	0.18107	0.13685	0.12057	0.058909	0.076162	0.11362	0.37547	0.22928	0.066939	0.24185	-2.3979	-2.6458	-2.8833	-3.05	-2.6396	-2.9521	-2.5687	-2.9062	-2.9396	-2.6292	-3.0563	-2.6917	-2.8167	-3.1229	-2.6604	-2.8458	98.255	189.239	284.169	23.873	217.756	280.464	286.843	59.562	-40.459	95.524	-8.829	232.140	-47.060	194.412	249.803	246.004	0.00021503	0.00032533	0.00012113	625.47	1.9474e-06	8.8496e-06	895.05	254.81	3.9323e-06	7.6473e-06	383.9	159.9	112.17	52.697	4.5912e-06	79.131	0.00027046	0.00024134	6.7219e-05	613.37	2.9234e-06	2.6357e-06	852.44	246.48	2.9212e-06	2.6758e-06	357.66	151.34	105.44	49.541	2.927e-06	72.756	245.184	12.564	52.023	-41.012	40.503	-7.556	-41.850	-34.865	128.203	64.359	-37.968	-33.466	-29.814	-26.087	176.743	-29.800	-8191	255	
2355.770	1	1	0	0	0.19943	0.10196	0.19258	0.26697	0.12334	0.12157	0.28585	0.24845	0.11601	0.14375	0.10381	0.1391	0.077041	0.2256	0.21577	0.11355	-2.4792	-2.5167	-2.9667	-2.7062	-2.7896	-3.0687	-2.8854	-2.8917	-3.1937	-2.3833	-3.1688	-2.8521	-2.6896	-3.3354	-2.7062	-3.0062	306.720	134.064	-37.206	265.054	126.259	157.099	232.547	270.089	239.489	304.698	-5.985	89.279	-40.115	11.291	44.191	240.695	0.00029108	0.00063613	0.00013782	626.51	6.5866e-06	4.1687e-06	892.45	255.06	3.4771e-06	3.8923e-06	382.68	161.35	112.6	52.912	1.9438e-06	79.075	0.00027026	0.00024266	7.5339e-05	612.3	2.8295e-06	2.592e-06	851.7	245.81	2.7927e-06	2.5926e-06	358.14	151.44	105.23	49.626	3.1116e-06	72.845	229.042	-51.993	119.823	-40.909	93.562	28.444	-41.933	-34.923	82.782	135.119	-37.925	-33.441	-30.126	-26.004	175.957	-29.684	-8191	255	
2355.866	1	1	0	0	0.089731	0.25266	0.10653	0.11006	0.21123	0.29806	0.13833	0.13492	0.1612	0.17554	0.21009	0.29217	0.46676	0.3301	0.20384	0.23639	-2.3896	-2.6042	-2.7938	-2.9667	-2.5979	-3.1917	-2.8375	-2.9188	-3.0917	-2.8229	-3.0083	-3.1604	-2.7313	-3.1167	-2.6312	-2.8	144.154	182.667	234.292	-10.065	35.886	2.332	-9.793	212.925	243.807	137.000	260.989	235.309	290.471	243.522	118.377	242.471	0.00029155	0.00049855	0.00018076	627.24	4.7081e-06	2.928e-06	887.03	255.19	3.1313e-06	2.3898e-06	382.43	160.72	112.8	52.917	3.5016e-06	79.561	0.00025445	0.00023363	7.9389e-05	610.42	2.6676e-06	2.5656e-06	853.29	245.48	2.65e-06	2.5726e-06	358.89	151	105.07	49.737	3.1722e-06	72.919	229.340	5.526	123.147	-41.278	130.990	60.488	-42.194	-34.970	134.556	130.724	-37.803	-33.658	-30.175	-26.054	159.769	-29.760	-8191	255	
2355.962	1	1	0	0	0.065807	0.15906	0.14463	0.20224	0.1276	0.26425	0.11775	0.11585	0.1082	0.047958	0.086026	0.072301	0.22845	0.097798	0.22906	0.19801	-2.5458	-2.6333	-2.7667	-3.2271	-2.7479	-3.0104	-3.0458	-2.8063	-3.1083	-2.6208	-2.9208	-2.9854	-2.5167	-3.2188	-2.7854	-2.7583	-25.122	163.849	303.308	183.996	292.300	127.711	259.575	303.899	251.063	-3.719	271.818	100.021	-14.658	79.222	-48.456	248.369	0.00025223	0.00030281	0.00010099	624.92	5.4529e-06	4.3965e-06	897.57	255.07	1.532e-06	4.5655e-06	383.45	161.4	112.5	52.787	2.1978e-06	79.064	0.00024093	0.00024198	8.0704e-05	607.66	2.5248e-06	2.7205e-06	857.41	245.21	2.4936e-06	2.7441e-06	359.69	150.89	104.56	49.753	3.081e-06	72.56	233.723	22.300	-45.109	-41.131	217.753	123.020	-42.114	-34.764	206.328	153.491	-37.847	-33.516	-30.047	-26.114	118.740	-29.915	-8191	255	
2356.058	1	1	0	0	0.12242	0.26876	0.050668	0.20879	0.17728	0.19271	0.11238	0.34822	0.16258	0.029396	0.14714	0.061609	0.12611	0.18154	0.052856	0.09914	-2.7062	-2.5083	-2.8167	-2.9958	-2.5354	-2.9146	-2.9646	-2.6292	-3.1583	-2.8125	-2.8	-3.1083	-2.7438	-3.0958	-2.9521	-2.6396	185.446	68.156	-8.178	194.404	274.536	114.906	155.249	259.074	276.363	280.158	109.104	-30.729	-7.267	274.586	224.872	130.907	0.00026378	0.00061273	6.539e-05	625.67	2.8625e-06	4.9795e-06	898.63	253.98	1.2698e-06	2.5169e-06	382.32	160.72	111.48	52.734	1.9646e-06	78.83	0.00023176	0.00026447	7.7118e-05	606.18	2.4726e-06	2.9358e-06	854.97	244.01	2.4684e-06	2.9707e-06	356.92	150.11	104.12	49.715	2.9316e-06	72.113	244.052	4.717	88.309	-41.080	56.337	72.458	-42.429	-34.849	236.259	188.871	-37.959	-33.434	-30.116	-25.767	233.568	-29.681	-8191	255	
2356.179	1	1	0	0	0.19708	0.14529	0.17902	0.10224	0.10483	0.29071	0.071328	0.069396	0.035879	0.096737	0.072067	0.11676	0.33012	0.055072	0.086029	0.027342	-2.4562	-2.7208	-2.7896	-2.9167	-2.5667	-2.8417	-3.125	-2.6729	-3.0062	-2.6792	-2.7229	-3.1	-2.6354	-2.9646	-3.1688	-2.6083	137.151	56.115	260.894	184.918	255.681	290.605	241.501	232.530	126.131	46.154	36.146	257.615	-42.669	260.254	207.917	250.923	0.00029121	0.00038711	0.00012278	625.61	4.8709e-06	4.2604e-06	895.75	255.47	4.8921e-06	5.4028e-06	383.74	160.78	111.57	52.938	2.6758e-06	79.152	0.00023679	0.00028085	7.2742e-05	605.86	2.5808e-06	3.0981e-06	852.87	244.56	2.6108e-06	3.1569e-06	357.13	150.12	104.69	49.994	2.7742e-06	72.397	235.067	21.375	96.302	-41.090	170.431	84.737	-42.195	-34.870	225.467	61.648	-37.721	-33.357	-30.229	-26.015	83.624	-29.672	-8191	255	
2356.275	1	1	0	0	0.15402	0.13195	0.068575	0.17162	0.12255	0.23839	0.39849	0.16523	0.1633	0.17904	0.14107	0.22076	0.29713	0.11235	0.11379	0.32049	-2.6458	-2.6521	-2.625	-3.0187	-2.6542	-2.7667	-2.9625	-2.6979	-3.1146	-2.9625	-2.6437	-3.1437	-2.6021	-2.9646	-2.8271	-2.5521	204.533	203.245	-44.599	192.642	165.097	99.891	270.228	220.100	196.792	94.332	204.448	249.417	-42.209	252.486	253.382	261.744	0.00031751	0.0002504	2.4291e-05	626.07	1.2188e-06	7.6063e-06	899.11	255.39	2.0022e-06	6.0254e-06	382.88	161.51	111.97	52.812	3.5202e-06	79.308	0.0002532	0.00028443	6.9346e-05	603.73	2.7594e-06	3.1149e-06	854.41	244.22	2.8632e-06	3.0782e-06	356.7	150.46	105.42	49.741	2.6773e-06	72.37	228.617	28.555	-23.973	-41.137	64.572	62.815	-42.098	-34.909	222.154	56.753	-37.968	-33.398	-30.159	-26.027	113.594	-29.669	-8191	255	
2356.371	1	1	0	0	0.22262	0.13015	0.21197	0.20134	0.14076	0.35465	0.09684	0.096416	0.10567	0.084173	0.17158	0.23829	0.10124	0.21568	0.13308	0.12764	-2.3375	-2.9083	-2.5563	-3.1229	-2.675	-2.8312	-3.1437	-2.7062	-3.0625	-2.9188	-2.7417	-2.975	-2.8083	-2.8958	-2.825	-2.775	93.072	231.654	65.035	304.097	127.986	257.499	214.346	137.089	251.231	199.325	-6.679	-25.265	-42.554	291.415	264.553	230.223	0.00032847	0.00010749	8.7025e-05	629.22	2.2038e-06	2.8057e-06	899.96	255.63	2.8368e-06	3.7248e-06	386.45	161.49	111.95	52.78	4.5834e-06	79.384	0.00027326	0.0002705	6.7116e-05	605.92	2.9823e-06	2.9203e-06	855.24	244.65	3.0163e-06	2.8999e-06	358.07	150.98	105.84	49.684	2.5814e-06	72.693	236.596	-39.283	39.939	-41.167	112.098	52.654	-42.298	-34.815	204.523	70.261	-37.951	-33.326	-30.021	-25.950	76.739	-29.839	-8191	255	
2356.467	1	1	0	0	0.2546	0.026619	0.19137	0.12978	0.15952	0.1015	0.14284	0.20643	0.16365	0.21281	0.2419	0.19265	0.11564	0.3682	0.18748	0.11884	-2.3542	-2.8604	-2.2812	-3.2271	-2.7396	-2.5938	-3.1292	-2.7792	-2.7458	-2.8125	-2.625	-2.9771	-2.7854	-2.8292	-2.9083	-2.8563	82.564	42.935	34.767	176.767	84.716	-24.930	251.224	40.908	144.147	275.907	207.044	168.885	266.972	255.568	100.327	229.971	0.00027991	0.000866	0.0001569	631.27	9.8522e-06	3.7292e-06	902.01	255.52	5.9005e-06	5.7686e-06	385.73	161.1	112.34	52.702	1.8662e-06	79.001	0.00028466	0.00025235	6.368e-05	610.15	3.05e-06	2.7225e-06	854.05	245.14	3.0253e-06	2.6747e-06	355.72	150.92	105.94	49.518	2.4787e-06	72.57	230.620	-25.267	54.253	-40.908	155.081	-36.376	-42.237	-34.829	136.620	65.585	-37.784	-33.405	-30.122	-25.823	100.439	-29.912	-8191	255	
2356.564	1	1	0	0	0.30859	0.37	0.10277	0.31261	0.17484	0.02965	0.17451	0.43629	0.21438	0.17115	0.07274	0.13713	0.19723	0.064876	0.26744	0.16343	-2.2854	-3	-2.5625	-3	-2.8896	-2.6896	-3.3312	-2.7854	-2.525	-3.0229	-2.6896	-2.8208	-2.9375	-2.5917	-3.1271	-2.7729	270.722	289.905	277.560	279.305	34.148	252.491	202.087	273.895	210.905	90.363	253.426	134.492	297.845	278.705	-40.596	239.234	0.00022598	0.00057837	0.00013979	631.65	4.5774e-06	7.5794e-06	901.03	255.19	6.9168e-06	1.296e-06	386.11	161.43	112.14	52.924	3.084e-06	79.65	0.00027932	0.00024443	6.2204e-05	613.41	3.0381e-06	2.6548e-06	855.66	246.28	2.9613e-06	2.6794e-06	356.62	151.65	105.74	49.614	2.493e-06	73.148	229.545	71.888	48.182	-40.996	149.609	35.448	-42.103	-34.988	99.293	70.894	-38.119	-33.358	-29.921	-25.933	108.438	-29.678	-8191	255	
2356.660	1	1	0	0	0.29978	0.23218	0.11441	0.20763	0.24446	0.04249	0.14153	0.16369	0.16137	0.090667	0.090599	0.42792	0.090659	0.29453	0.21626	0.21099	-2.4437	-2.9	-2.6979	-2.9062	-2.8333	-2.5604	-3.2438	-2.8	-2.5708	-3.175	-2.6292	-2.8917	-2.8208	-2.8083	-3.0854	-2.8646	-20.837	23.375	306.105	261.793	37.713	267.713	205.634	51.039	62.634	-13.531	137.807	200.384	160.462	302.137	204.368	261.249	0.0001735	0.00052168	8.1104e-05	631.64	6.3549e-06	7.2474e-06	901.34	256.81	1.8061e-06	5.4079e-06	386.32	162.28	112.84	52.9	5.3064e-06	79.751	0.00026838	0.00023703	6.2937e-05	614.91	2.8365e-06	2.5661e-06	856.96	247.66	2.7919e-06	2.5172e-06	358.07	152.65	105.55	49.59	2.6023e-06	73.164	243.232	-36.034	205.549	-41.129	136.790	59.068	-42.158	-34.950	189.704	67.294	-37.896	-33.239	-30.109	-25.821	148.606	-30.030	-8191	255	
2356.779	1	1	0	0	0.074369	0.19853	0.14653	0.033883	0.12919	0.35906	0.23739	0.31401	0.21025	0.078018	0.18784	0.13217	0.138	0.14806	0.19383	0.21991	-2.3625	-2.7875	-2.7792	-2.8125	-2.95	-2.6125	-3.2812	-2.9479	-2.7146	-3.0417	-2.7792	-2.9125	-3.1958	-2.6312	-2.8979	-2.9896	24.149	-21.887	236.028	69.181	-21.608	-8.346	219.733	258.529	-38.772	194.025	113.652	84.132	207.306	270.721	42.210	248.822	0.00019885	0.00027319	4.9495e-05	631.81	2.4988e-06	2.6679e-06	901.49	257.66	2.2482e-06	4.5332e-06	387.13	162.21	112.2	52.69	4.0159e-06	79.571	0.00025152	0.00022478	6.7575e-05	615.22	2.6796e-06	2.4563e-06	859.08	247.47	2.659e-06	2.4426e-06	360.74	152.58	105.03	49.354	2.8139e-06	73.103	254.051	-29.652	184.222	-40.991	88.479	-9.632	-42.137	-34.935	74.898	46.159	-38.248	-33.509	-30.121	-25.921	141.754	-29.703	-8191	255	
2356.875	1	1	0	0	0.047206	0.099919	0.10647	0.22832	0.072292	0.21396	0.052011	0.080876	0.082252	0.086429	0.1019	0.29052	0.064811	0.24322	0.073816	0.10758	-2.1083	-2.7562	-2.6667	-2.9062	-3.0771	-2.4417	-2.9771	-2.7292	-2.6208	-2.9604	-2.8	-2.8271	-3.0417	-2.6833	-2.8771	-3.1646	78.397	18.819	-30.379	303.254	202.532	9.482	9.007	170.570	83.027	277.668	155.127	304.018	-25.152	288.822	253.692	173.023	0.00020392	0.00014647	0.0001695	630.53	1.552e-06	5.1762e-06	900.99	255.31	2.8721e-06	5.7646e-06	385.44	160.79	111.46	52.374	3.6776e-06	79.317	0.00024185	0.00021997	7.2951e-05	613.13	2.5631e-06	2.3945e-06	860.74	245.35	2.5563e-06	2.4132e-06	359.46	150.75	103.99	49.076	2.9682e-06	72.533	223.136	-42.754	202.963	-40.879	71.392	80.585	-42.268	-35.170	81.156	104.527	-37.836	-33.359	-30.342	-25.920	212.876	-29.800	-8191	255	
2356.971	1	1	0	0	0.26956	0.13654	0.1768	0.23166	0.052952	0.27494	0.094517	0.10699	0.040933	0.20819	0.22889	0.24398	0.38607	0.18644	0.074002	0.092357	-2.0542	-2.8917	-2.7667	-2.7979	-3.0833	-2.6604	-3.2229	-2.9562	-2.5167	-3.2146	-2.8167	-2.8583	-2.9938	-2.6437	-2.9083	-3.0542	135.970	57.762	237.700	261.019	60.034	-34.533	-32.650	83.320	170.751	65.983	139.470	263.271	-16.751	-29.843	-2.528	-31.771	0.00014625	0.00011598	9.8072e-05	630.76	2.7834e-06	3.7952e-06	906.42	255.61	4.3928e-06	2.5211e-06	385.41	160.72	111.46	52.258	4.933e-06	79.176	0.00023234	0.00022691	7.6592e-05	611.18	2.4727e-06	2.5338e-06	863.18	245.11	2.4646e-06	2.5683e-06	360.24	150.3	103.7	49.174	3.0169e-06	72.557	243.762	265.172	-49.909	-41.130	100.671	184.095	-41.913	-34.929	95.696	195.880	-38.271	-33.394	-30.102	-26.121	60.141	-29.838	-8191	255	
2357.067	1	1	0	0	0.21754	0.045174	0.18164	0.17891	0.10515	0.28082	0.094819	0.30838	0.15251	0.23939	0.11596	0.12665	0.20373	0.22475	0.293	0.20864	-2.2958	-2.95	-2.7417	-2.7854	-3	-2.7812	-2.8646	-3.0229	-2.5917	-2.9313	-2.9167	-2.5958	-2.7729	-2.9938	-2.6604	-3.2417	198.216	151.036	87.680	18.179	237.857	211.566	-41.954	264.805	-31.711	264.811	108.494	271.725	105.459	294.443	-8.633	228.796	0.00023125	0.00052615	4.312e-05	634.25	2.0542e-06	2.8775e-06	908.08	256.87	1.8619e-06	4.9269e-06	386.37	161.45	111.45	52.124	3.0733e-06	79.373	0.00022527	0.00024514	7.5451e-05	611.49	2.3933e-06	2.74e-06	863.99	245.46	2.3786e-06	2.7507e-06	360.32	150.72	103.81	49.232	2.837e-06	72.484	221.257	8.291	136.146	-41.213	128.201	80.764	-42.290	-35.002	180.552	93.145	-37.990	-33.436	-30.070	-26.033	47.936	-29.655	-8191	255	
2357.163	1	1	0	0	0.16578	0.18026	0.36139	0.18884	0.078833	0.046573	0.10414	0.21231	0.078895	0.19547	0.11042	0.21793	0.16686	0.086606	0.17234	0.17227	-2.0687	-2.875	-2.9604	-2.6771	-3.2625	-2.8208	-2.8854	-3.0687	-2.5771	-2.8917	-3.1083	-2.6813	-3.225	-2.8646	-2.5979	-3.1625	257.804	24.203	73.175	297.056	288.931	98.193	220.159	273.854	215.143	17.787	249.168	241.464	-44.443	98.387	294.900	215.371	0.00030335	0.00027345	0.00010179	635.47	7.5843e-07	3.0236e-06	905.8	257.36	6.5653e-07	3.4747e-06	389.26	161.33	111.61	52.281	6.1665e-06	79.394	0.00022263	0.00026355	7.2259e-05	610.74	2.4037e-06	2.953e-06	863.31	245.38	2.4096e-06	2.9414e-06	361.34	150.72	104.12	49.329	2.6701e-06	72.434	225.462	51.144	69.647	-41.047	275.784	160.150	-42.177	-34.873	123.285	92.850	-37.867	-33.493	-29.902	-25.870	77.449	-29.762	-8191	255	
2357.259	1	1	0	0	0.14048	0.30376	0.070978	0.20708	0.091858	0.1845	0.27052	0.077975	0.16283	0.092442	0.25179	0.24114	0.067092	0.26718	0.12834	0.093007	-2.2146	-2.9125	-2.8688	-2.5354	-2.9646	-2.9625	-2.8563	-2.9125	-2.4917	-2.9604	-2.8625	-2.6292	-3.0646	-3.0979	-2.4292	-3.175	-32.010	-52.473	39.051	239.153	56.717	-1.361	260.576	21.695	142.631	206.185	-38.630	209.970	281.302	294.544	43.325	293.887	0.00031508	0.0002151	0.00019388	633.63	2.4691e-06	6.6237e-06	905.22	257.03	2.1682e-06	2.903e-06	388.07	160.7	110.61	51.968	4.557e-06	79.133	0.00023073	0.0002674	6.6545e-05	608.52	2.5208e-06	2.9359e-06	860.91	244.74	2.5986e-06	2.928e-06	359.25	149.69	103.73	49.021	2.5278e-06	71.989	228.407	2.766	53.720	-41.330	253.424	75.691	-42.159	-34.894	207.841	132.076	-37.985	-33.342	-30.225	-25.980	84.638	-29.785	-8191	255	
2357.380	1	1	0	0	0.090981	0.042474	0.063021	0.040545	0.19133	0.16558	0.24953	0.26717	0.159	0.013892	0.042616	0.050384	0.17217	0.13662	0.075005	0.12555	-2.1604	-2.8625	-2.8229	-2.5542	-2.8167	-2.725	-2.5729	-3.2583	-2.5646	-2.8583	-2.7062	-2.775	-2.7417	-3.0583	-2.6	-3.3833	166.753	43.799	213.386	36.617	295.128	177.767	257.377	182.995	202.697	230.225	-44.441	90.189	113.280	-24.658	245.255	264.113	0.00034491	0.00040887	0.00011142	633.96	3.3182e-06	3.5631e-06	904.57	255.17	2.4755e-06	6.5709e-06	386.22	159.98	110.6	51.846	5.4186e-06	78.672	0.00024586	0.00025904	6.3247e-05	608.68	2.7251e-06	2.7964e-06	860.26	243.91	2.7653e-06	2.7928e-06	357.48	149.05	104.01	48.879	2.4717e-06	71.836	228.254	282.336	12.759	-41.453	189.340	12.398	-42.001	-34.994	285.238	77.790	-37.544	-33.365	-30.083	-25.915	119.051	-29.822	-8191	255	
2357.474	1	1	0	0	0.14831	0.095647	0.148	0.10477	0.1742	0.090854	0.069404	0.25945	0.18342	0.03832	0.16324	0.19892	0.23654	0.15578	0.077436	0.1154	-2.0729	-2.8271	-2.8979	-2.8854	-2.825	-3.0479	-2.5917	-3.1271	-2.7396	-2.7875	-3.0208	-2.7396	-2.6729	-2.95	-2.6021	-3.1479	211.585	24.071	36.029	161.576	115.393	25.568	299.766	242.851	115.378	72.550	272.646	253.222	213.573	-25.385	192.497	251.362	0.00031418	0.0007253	8.1192e-05	632.69	3.8145e-06	1.8445e-06	906.93	255.98	4.8089e-06	2.4615e-06	387.25	160.22	110.63	51.865	2.2623e-06	78.796	0.00026736	0.00024878	6.2883e-05	608.02	2.8966e-06	2.6888e-06	860.07	244.41	2.9148e-06	2.5949e-06	357.47	149.58	104.23	48.785	2.3393e-06	72.126	224.869	-33.766	64.576	-41.066	70.752	109.021	-42.108	-34.781	167.983	113.404	-38.261	-33.503	-30.285	-25.705	103.382	-29.620	-8191	255	
2357.571	1	1	0	0	0.19783	0.067653	0.027274	0.098884	0.079037	0.11892	0.0058988	0.14853	0.11151	0.13464	0.33854	0.19097	0.18449	0.33289	0.24114	0.15078	-2.4646	-2.6271	-3.0687	-2.5938	-2.9562	-2.9813	-2.9229	-2.9771	-2.8854	-2.7438	-3.1479	-2.8729	-2.8792	-2.9208	-2.8479	-3.2271	176.128	110.237	297.608	-1.021	7.878	53.007	18.013	293.854	94.949	104.812	238.148	259.171	-36.348	217.544	102.537	233.197	0.00032327	0.00024689	0.00018956	633.68	3.9898e-06	2.2852e-06	910.19	256.7	4.191e-06	2.0898e-06	390.99	161.6	111.7	52.11	2.8666e-06	79.68	0.00026489	0.00022897	5.8258e-05	611.12	2.823e-06	2.4729e-06	859.63	245.77	2.8126e-06	2.4477e-06	358.64	151.07	104.42	48.933	2.2381e-06	73.001	227.845	19.294	47.211	-41.109	86.692	112.146	-42.334	-34.994	114.735	73.151	-37.907	-33.601	-30.450	-26.047	148.095	-29.670	-8191	255	
2357.644	1	1	0	0	0.079214	0.20661	0.21236	0.13336	0.059043	0.24102	0.086176	0.13895	0.11312	0.10393	0.095012	0.17576	0.20237	0.10896	0.31806	0.18304	-2.4896	-2.6125	-3.1312	-2.9417	-2.7208	-3.025	-2.7604	-3.0125	-2.9021	-2.7562	-3.3063	-2.8208	-2.8	-3.2354	-2.7333	-3.1063	153.044	276.431	11.799	200.768	45.354	278.624	86.928	125.926	248.442	220.534	78.972	276.282	-43.979	279.931	128.305	225.158	0.00024294	0.0006067	0.00010374	639.09	6.9879e-06	3.7104e-06	908.84	256.69	3.8196e-06	2.0661e-06	388.77	161.28	111.24	52.131	9.3513e-07	79.191	0.00025106	0.00021782	5.674e-05	616.29	2.6599e-06	2.3978e-06	860.26	246.74	2.6352e-06	2.3677e-06	358.03	150.96	103.91	48.745	2.3033e-06	72.743	230.398	22.555	79.329	-41.238	86.144	68.413	-42.027	-34.902	167.612	106.679	-37.958	-33.296	-30.117	-26.007	173.615	-29.432	-8191	255	
2357.740	1	1	0	0	0.1998	0.20917	0.11077	0.28723	0.17278	0.20225	0.061891	0.1218	0.35953	0.29449	0.19462	0.25649	0.24482	0.071869	0.026158	0.11291	-2.6167	-2.5354	-3.0062	-3.0187	-2.7979	-3.0583	-2.7104	-2.8063	-2.8333	-2.4958	-3.0458	-2.8187	-2.7542	-3.2313	-2.675	-2.9896	23.601	189.996	118.983	226.430	248.802	34.913	275.844	220.087	272.649	-31.901	235.942	278.764	-31.776	-18.667	133.616	231.939	0.00027742	0.00039038	0.00018859	634.87	5.5147e-06	5.5576e-06	913.18	257.29	2.1515e-06	1.533e-06	388.6	160.68	111.02	52.163	1.9946e-06	79.382	0.00023707	0.00020809	5.9629e-05	615.79	2.4814e-06	2.2762e-06	864.91	246.57	2.4925e-06	2.2825e-06	359.15	150.94	103.63	48.751	2.5156e-06	72.835	233.639	97.482	67.765	-41.090	59.263	-28.308	-42.298	-35.297	90.092	56.872	-37.922	-33.388	-30.266	-25.847	244.770	-29.781	-8191	255	
2357.859	1	1	0	0	0.11762	0.1209	0.053055	0.28459	0.22612	0.13693	0.065891	0.059448	0.044062	0.26373	0.10098	0.23523	0.35589	0.16357	0.095741	0.26286	-2.6771	-2.4354	-2.9229	-3.0083	-2.5	-3.0729	-2.7146	-2.8458	-3.0167	-2.6646	-3.0479	-3.0812	-2.6437	-3.2958	-2.8979	-2.775	4.598	239.484	58.667	12.420	177.162	206.878	277.133	210.052	294.066	6.396	80.466	148.527	255.256	286.635	228.028	286.389	0.00025428	0.00038848	0.0002427	635.93	1.3783e-06	2.5972e-06	910.46	257.35	1.4524e-06	2.991e-06	389.83	162.24	111.86	52.341	3.8244e-06	79.52	0.00022866	0.00020434	6.5391e-05	615.76	2.4189e-06	2.2497e-06	866.76	246.79	2.4152e-06	2.2447e-06	361.28	151.58	103.78	48.962	2.7154e-06	72.849	233.648	14.790	147.623	-41.095	270.906	69.011	-42.176	-34.923	47.939	145.514	-37.965	-33.419	-30.182	-25.759	147.644	-29.779	-8191	255	
2357.955	1	1	0	0	0.2538	0.093235	0.086223	0.074098	0.23123	0.051852	0.046529	0.18839	0.2486	0.18076	0.12536	0.35322	0.17665	0.40525	0.17036	0.059127	-2.7229	-2.45	-3.0292	-2.9875	-2.5104	-3.0687	-2.8958	-2.6917	-3.1083	-2.6229	-3.1208	-2.9958	-2.7062	-3.1312	-2.6729	-2.9208	222.456	273.987	274.340	288.815	145.709	170.621	78.190	151.961	161.422	284.665	220.422	296.305	223.921	253.164	55.253	168.121	0.0003207	0.00016893	0.00016407	634.4	6.8851e-06	6.3072e-06	911.73	257.79	2.8211e-06	4.9627e-06	387.62	161.98	111.66	52.211	1.8938e-06	79.735	0.00022037	0.00020389	6.9582e-05	612.76	2.3119e-06	2.2625e-06	868.59	246.08	2.3047e-06	2.3011e-06	361.63	150.84	103.33	48.856	2.8107e-06	72.891	236.317	84.791	60.807	-41.213	100.149	71.466	-42.119	-35.074	138.939	140.962	-37.990	-33.590	-29.951	-25.986	98.297	-29.843	-8191	255	
2358.051	1	1	0	0	0.30266	0.18711	0.02337	0.1276	0.30031	0.1443	0.16368	0.32467	0.19794	0.14918	0.11195	0.091981	0.19587	0.32322	0.13838	0.12169	-2.4667	-2.7062	-2.7042	-3.1729	-2.6021	-3.0604	-2.9104	-2.7292	-3.0708	-2.5312	-2.9792	-3.1979	-2.5458	-3.0042	-2.7875	-2.7313	251.293	186.661	193.036	222.547	12.076	165.168	290.602	251.677	8.197	91.036	217.910	93.452	292.029	260.298	45.901	205.554	0.00025576	0.00021783	5.0714e-05	637.57	1.1138e-06	4.0278e-06	913.9	256.26	3.6649e-06	5.0239e-06	389.19	160.33	110.83	51.976	2.0953e-06	79.132	0.00021261	0.00021991	7.1408e-05	611.97	2.263e-06	2.4585e-06	868.5	244.76	2.2232e-06	2.4849e-06	360.8	150.02	102.57	48.744	2.6803e-06	72.267	231.543	122.223	80.626	-41.078	99.139	258.404	-42.209	-35.034	69.322	148.657	-37.962	-33.331	-29.994	-25.737	92.956	-29.702	-8191	255	
2358.172	1	1	0	0	0.13329	0.091311	0.13142	0.1041	0.071223	0.1493	0.35895	0.13165	0.0048214	0.16002	0.18413	0.084175	0.1356	0.16966	0.1618	0.15248	-2.5958	-2.7021	-2.6875	-2.8833	-2.5917	-2.9562	-2.9521	-2.7708	-2.9083	-2.8375	-2.6354	-3.2604	-2.6042	-3.1458	-2.675	-2.7021	206.332	163.252	197.266	294.659	266.952	21.798	141.983	287.604	259.231	206.410	279.687	296.054	236.327	167.944	305.148	263.175	0.00024211	0.00070191	0.00013835	635.66	4.7062e-06	3.4588e-06	911.99	255.94	2.072e-06	7.8009e-07	388.45	160.95	110.74	52.214	1.8122e-06	79.352	0.00020155	0.00023128	6.5963e-05	608.37	2.1368e-06	2.577e-06	864.68	243.53	2.1317e-06	2.6273e-06	358.8	149.53	102.71	49.045	2.531e-06	72.247	235.226	65.146	71.901	-41.218	121.282	116.855	-42.153	-35.003	91.140	61.483	-38.009	-33.494	-30.076	-25.868	28.420	-29.927	-8191	255	
2358.244	1	1	0	0	0.29718	0.16723	0.15554	0.30909	0.24306	0.086059	0.056499	0.1083	0.15986	0.18362	0.17107	0.15716	0.21526	0.12537	0.10083	0.16673	-2.5979	-2.8042	-2.6625	-3.2042	-2.4917	-2.9188	-3.1292	-2.65	-3.1146	-2.8583	-2.8729	-3.1854	-2.6542	-3.1604	-2.7958	-2.7333	-1.533	149.132	100.741	259.084	-5.143	221.870	-29.623	8.528	305.302	208.686	244.914	-46.566	87.888	-38.559	-26.939	270.242	0.00031982	9.4591e-05	0.00013456	636.36	5.6654e-06	3.5607e-06	911.51	256	2.0872e-06	5.5083e-06	387.7	161.15	110.78	52.269	2.3123e-06	79.539	0.00021115	0.0002495	6.42e-05	611.58	2.2966e-06	2.748e-06	865.89	244.12	2.3204e-06	2.7571e-06	358.85	149.79	103.3	49.228	2.4328e-06	72.42	234.368	65.411	30.792	-41.141	207.923	65.855	-42.210	-35.091	228.823	194.601	-38.113	-33.430	-29.996	-26.026	224.944	-29.803	-8191	255	
2358.340	1	1	0	0	0.17116	0.030424	0.21853	0.15287	0.085542	0.36671	0.030809	0.10867	0.33955	0.09751	0.1433	0.24518	0.13783	0.17414	0.2026	0.29885	-2.6479	-2.7313	-2.6458	-3.1958	-2.6208	-3.05	-2.9604	-2.6854	-3.1354	-2.7938	-2.6604	-3.2104	-2.6708	-2.9833	-3.1792	-2.6479	37.793	96.650	12.847	201.968	35.426	-4.461	-52.395	113.592	131.774	110.033	-48.171	236.471	159.694	291.651	156.339	170.626	0.00032805	0.00040016	0.00012102	635.35	6.1854e-06	5.3704e-06	909.11	255.83	2.6273e-06	5.083e-06	390.4	161.59	110.87	52.173	3.6097e-06	79.748	0.00022969	0.0002511	6.0846e-05	609.05	2.4762e-06	2.7136e-06	864.3	243.71	2.5555e-06	2.688e-06	359.13	150.48	104.05	49.072	2.377e-06	72.428	224.290	35.403	-46.521	-41.381	147.822	21.267	-42.254	-34.991	251.331	103.763	-38.005	-33.496	-30.280	-25.554	87.167	-29.767	-8191	255	
2358.460	1	1	0	0	0.11258	0.065003	0.22062	0.31595	0.11968	0.20598	0.11899	0.2044	0.14019	0.31405	0.2694	0.1368	0.14316	0.1716	0.05503	0.35223	-2.6979	-2.8729	-2.6562	-3.2667	-2.7271	-2.8396	-3.2125	-2.8417	-2.8042	-2.9583	-2.6292	-3.1354	-3.0042	-2.8	-3.2708	-2.8542	4.365	104.995	6.290	240.096	174.568	227.360	53.425	81.902	-42.114	-33.775	276.659	164.682	41.096	3.989	292.044	241.923	0.00033443	0.0003722	0.00017803	635.52	3.1229e-06	6.0529e-06	911.17	254.35	6.6858e-06	6.874e-06	387.9	160.85	110.03	51.868	3.4782e-06	78.67	0.00024831	0.00024106	5.9669e-05	607.65	2.7099e-06	2.5641e-06	863.52	243.44	2.7141e-06	2.5549e-06	358.01	149.55	103.59	48.584	2.2486e-06	71.864	224.249	-52.271	60.328	-41.113	179.174	64.167	-42.495	-34.923	158.813	92.589	-37.734	-33.463	-30.124	-25.728	64.918	-29.803	-8191	255	
2358.555	1	1	0	0	0.12032	0.20252	0.091477	0.15631	0.092313	0.17213	0.074126	0.12722	0.21675	0.050939	0.093512	0.18102	0.23327	0.3095	0.1503	0.1957	-2.3771	-2.7771	-2.7146	-3.125	-2.925	-2.7583	-3.1542	-2.9042	-2.9146	-2.9333	-2.6688	-3.0771	-2.9479	-2.6833	-2.9729	-2.875	-6.181	32.810	217.718	179.383	-15.932	222.544	236.928	227.387	18.909	298.019	227.291	239.748	133.855	284.633	-22.091	295.201	0.00029727	0.00049969	0.00017806	631.22	3.6157e-06	5.2417e-06	909.8	253.55	4.0657e-06	4.3411e-06	383.09	159.07	109.51	51.336	3.569e-06	78.243	0.0002569	0.00022538	5.6442e-05	606.67	2.732e-06	2.4124e-06	858.31	241.94	2.7119e-06	2.3717e-06	352.29	148.18	102.52	48.134	2.1967e-06	71.619	236.567	-40.278	55.787	-41.142	48.960	108.800	-42.158	-35.137	139.444	129.468	-38.132	-33.497	-30.227	-26.104	143.567	-30.080	-8191	255	
2358.651	1	1	0	0	0.082096	0.18122	0.12909	0.1506	0.12776	0.33405	0.079098	0.16347	0.10178	0.085106	0.24963	0.19732	0.19122	0.23912	0.18862	0.055625	-2.5042	-3.0104	-2.5438	-3.0375	-2.8979	-2.6917	-3.2729	-2.5708	-2.9625	-3.0542	-2.7896	-3.1021	-2.7687	-2.6063	-3.0771	-2.7146	91.125	205.741	125.233	281.774	258.930	15.597	270.058	293.947	20.423	-12.856	-27.860	164.298	-46.534	253.682	152.444	291.306	0.00013978	0.0002503	0.0001514	632.78	5.73e-06	2.3223e-06	907.32	253.12	5.701e-06	2.9944e-06	386.9	159.28	110.11	51.518	9.1349e-06	78.654	0.00025392	0.00021804	5.5838e-05	610.12	2.696e-06	2.3821e-06	858.83	243.03	2.6597e-06	2.3625e-06	354.08	149.1	102.89	48.334	2.2512e-06	72.174	216.071	0.110	42.928	-41.217	102.741	82.278	-42.052	-35.091	123.666	134.674	-37.978	-33.267	-29.941	-25.820	132.312	-29.545	-8191	255	
2358.772	1	1	0	0	0.22322	0.10374	0.16762	0.17402	0.22697	0.05665	0.28391	0.074957	0.12814	0.059213	0.036332	0.091321	0.074517	0.31695	0.19983	0.22934	-2.2083	-3.0458	-2.5646	-2.9437	-2.8104	-2.5	-3.0438	-2.9104	-2.8146	-3.1271	-2.7479	-2.875	-3.0375	-2.7229	-2.8854	-2.7687	-22.810	133.223	-36.742	-31.008	12.980	46.039	303.520	260.295	73.475	100.528	151.302	239.474	11.344	-50.817	71.427	284.109	0.00022778	0.00023916	0.0001549	633.01	4.2359e-06	4.166e-06	912.54	254.71	2.1932e-06	7.0029e-06	386.16	160.75	111.15	51.82	1.2487e-06	79.328	0.00023908	0.00021088	5.6901e-05	612.46	2.5289e-06	2.2621e-06	861.6	244.86	2.4747e-06	2.2329e-06	356.69	150.64	102.77	48.514	2.3794e-06	72.528	225.132	282.329	119.879	-40.978	40.720	50.562	-42.116	-35.069	108.091	68.114	-38.095	-33.386	-30.101	-26.003	219.239	-29.935	-8191	255	
2358.868	1	1	0	0	0.12152	0.024754	0.31473	0.15645	0.067029	0.16149	0.25285	0.28433	0.19017	0.045268	0.051508	0.20712	0.24846	0.094477	0.15432	0.20716	-2.2542	-3.1396	-2.6	-2.9104	-3.05	-2.5146	-3.0958	-2.8875	-2.4292	-3.1833	-2.7521	-3.1417	-3.0792	-2.7854	-3.0229	-3.0958	266.989	33.276	72.062	33.976	189.162	-32.298	203.931	271.384	230.009	292.266	64.503	137.526	222.129	267.188	-41.199	225.593	0.00022138	0.00046728	0.00012592	630.86	3.2079e-06	2.087e-06	913.42	255.33	4.0281e-06	6.5617e-06	387.76	160.74	109.65	51.409	4.3425e-06	78.728	0.00022653	0.00020264	6.1715e-05	612.19	2.379e-06	2.1862e-06	865.8	244.59	2.3626e-06	2.18e-06	358.29	150.41	102.2	48.22	2.5672e-06	72.058	237.892	-25.865	82.253	-41.018	160.045	18.030	-42.208	-35.158	146.266	89.626	-37.936	-33.409	-29.923	-25.801	174.425	-29.894	-8191	255	
2358.939	1	1	0	0	0.22956	0.20367	0.069749	0.37565	0.074219	0.064763	0.12189	0.036897	0.21237	0.071249	0.065013	0.25151	0.16916	0.38195	0.070636	0.10905	-2.1437	-3.1229	-2.5563	-3.0292	-3.0958	-2.6958	-2.9708	-2.9688	-2.6521	-2.8688	-2.8812	-2.7062	-3.0333	-2.6854	-2.8333	-3.1146	286.376	185.276	35.730	-16.267	14.893	83.971	-9.764	207.066	47.135	74.173	234.390	252.290	22.031	-30.360	299.503	204.067	0.00031045	0.00056299	9.2753e-05	634.24	3.8199e-06	5.66e-06	905.44	252.74	3.8702e-06	1.2795e-06	384.29	158.25	109.16	51.408	3.9123e-06	78.332	0.00021774	0.00019791	6.5765e-05	608.46	2.2685e-06	2.1551e-06	862.36	241.57	2.2693e-06	2.1823e-06	355.52	148.04	101.19	47.982	2.7149e-06	71.416	236.300	-45.984	188.937	-41.333	66.276	97.611	-42.418	-34.887	159.678	158.205	-38.230	-33.435	-30.071	-25.869	137.915	-29.814	-8191	255	
2359.036	1	1	0	0	0.15667	0.15597	0.015572	0.15488	0.19808	0.24853	0.2237	0.19284	0.11067	0.075233	0.17415	0.25331	0.20361	0.31105	0.28187	0.059459	-2.1104	-3.0417	-2.7792	-2.7417	-2.9792	-2.7625	-2.975	-3	-2.6437	-3.0896	-2.7604	-2.8354	-2.9125	-2.8708	-2.7229	-3.0375	192.364	53.773	4.247	296.388	158.352	110.912	301.974	83.491	-13.822	56.405	-30.718	271.557	218.814	-41.852	149.112	109.204	0.0001799	0.00033846	0.00016763	630.89	4.6277e-06	2.4634e-06	908.57	253.17	6.9168e-06	2.4804e-06	385.91	159.02	109.41	51.586	6.0391e-06	78.433	0.00021053	0.00020877	6.9605e-05	607.13	2.2203e-06	2.3283e-06	865.17	241.42	2.2145e-06	2.3701e-06	356.5	148.23	101.14	48.367	2.7465e-06	71.693	255.043	67.383	67.429	-41.144	116.623	104.027	-42.156	-35.041	83.250	48.134	-38.234	-33.685	-30.345	-25.867	37.932	-29.932	-8191	255	
2359.156	1	1	0	0	0.25918	0.11964	0.043078	0.22413	0.092274	0.24375	0.16146	0.13374	0.19657	0.34759	0.25831	0.38189	0.15876	0.019209	0.19557	0.28668	-2.0146	-2.8958	-2.7979	-2.7146	-3.0875	-2.8667	-2.8688	-3.0667	-2.6979	-3.1458	-3.025	-2.8208	-3.0354	-2.9208	-2.7792	-3.075	110.714	22.837	-14.081	178.073	171.115	61.952	238.039	201.766	166.288	-43.425	297.450	240.850	294.760	257.962	-13.876	257.002	0.00027188	0.00080078	2.3029e-05	628.72	5.853e-06	4.2329e-06	911.83	252.64	2.3092e-06	4.709e-06	384.87	159.45	108.96	51.869	3.9017e-06	78.925	0.00020659	0.00022775	6.9139e-05	604.95	2.2071e-06	2.5621e-06	863.3	241.3	2.2062e-06	2.6408e-06	355.58	148.59	101.23	48.663	2.6544e-06	71.979	217.665	58.602	73.944	-40.902	76.576	90.587	-42.080	-34.917	248.293	226.317	-37.996	-33.496	-30.392	-25.908	28.025	-30.053	-8191	255	
2359.252	1	1	0	0	0.17957	0.15075	0.044318	0.34737	0.21451	0.22042	0.22573	0.16077	0.039531	0.18799	0.030725	0.39572	0.18877	0.29	0.13674	0.32978	-2.075	-3.0479	-2.6229	-2.7771	-3.0083	-2.6771	-2.8604	-2.975	-2.6063	-2.9708	-2.9583	-2.7146	-3.0458	-2.9437	-2.7625	-3.15	-23.526	244.161	45.482	270.950	299.872	268.035	230.938	267.436	215.230	-42.086	199.106	262.657	301.952	273.050	2.202	260.054	0.00029872	0.00046314	0.00015519	626.02	3.2932e-06	4.355e-06	905.19	253.09	3.6429e-06	3.3291e-06	383.7	160.04	109.33	51.782	1.9525e-06	78.901	0.00020994	0.00024738	6.6193e-05	601.71	2.2723e-06	2.7485e-06	859.69	241.16	2.3111e-06	2.8056e-06	354.71	149.11	101.78	48.757	2.4919e-06	71.874	231.000	-50.326	25.470	-41.436	168.242	240.593	-42.203	-35.106	186.103	122.643	-38.088	-33.495	-30.208	-26.203	99.069	-29.671	-8191	255	
2359.348	1	1	0	0	0.13963	0.089362	0.43073	0.22901	0.14392	0.13172	0.1818	0.17127	0.083036	0.17995	0.090836	0.28849	0.35158	0.15762	0.18235	0.097482	-2.0958	-2.9229	-2.925	-2.7479	-2.9458	-2.8458	-2.725	-3.1	-2.6646	-2.9188	-3.0438	-2.5563	-3.1521	-2.9833	-2.5708	-3.0771	306.018	201.912	102.218	225.174	250.774	281.664	12.226	267.182	203.277	148.005	240.306	270.421	-26.267	-36.443	191.795	63.264	0.00031428	0.00038521	9.6844e-05	627.9	7.5132e-07	5.0473e-06	903.23	252.27	2.8967e-06	3.9452e-06	381.43	159.52	109.37	51.78	3.4293e-06	78.786	0.00022118	0.00025126	6.2477e-05	601.47	2.4189e-06	2.7448e-06	856.61	240.1	2.4754e-06	2.7323e-06	352.03	148.27	102.1	48.594	2.4124e-06	71.585	222.357	29.131	59.614	-41.141	102.026	54.622	-42.521	-35.098	180.663	81.859	-37.907	-33.745	-29.843	-25.971	97.526	-29.984	-8191	255	
2359.445	1	1	0	0	0.17264	0.11018	0.23414	0.26015	0.1402	0.033472	0.27512	0.10644	0.13745	0.13096	0.028157	0.09419	0.241	0.1339	0.15552	0.069952	-2.3063	-2.85	-2.9125	-2.5958	-3.0979	-2.9	-2.7542	-3.05	-2.7417	-2.9833	-3.0125	-2.7896	-3.0083	-3.1104	-2.4667	-3.2958	126.667	112.948	77.363	249.273	144.186	148.159	270.308	297.949	75.721	229.139	103.788	192.484	72.529	50.635	305.763	169.248	0.00025629	0.00046974	0.00015851	626.34	5.1738e-06	6.6134e-06	904.68	252.77	2.8795e-06	3.0602e-06	381.78	159.69	109.81	52.102	1.9091e-06	79.234	0.00024316	0.0002453	6.0847e-05	601.71	2.6718e-06	2.6696e-06	855.94	240.64	2.7108e-06	2.6537e-06	352.36	148.68	102.97	48.888	2.3707e-06	72.109	228.238	-18.237	69.790	-41.311	140.503	81.042	-42.450	-35.075	151.771	-8.017	-38.149	-33.322	-29.981	-26.141	156.659	-29.976	-8191	255	
2359.541	1	1	0	0	0.1564	0.038337	0.088022	0.10388	0.1634	0.27216	0.27931	0.30167	0.22009	0.14899	0.19496	0.15849	0.13522	0.098483	0.09928	0.27812	-2.0833	-2.6479	-3.0542	-2.4958	-2.9354	-2.7854	-2.7354	-3.0458	-2.7521	-2.8167	-3.0375	-2.7396	-2.6958	-3.0354	-2.6396	-2.8729	-12.284	176.469	61.885	232.711	176.807	243.937	217.665	285.701	88.157	30.861	10.456	261.613	237.256	220.442	-14.079	293.024	0.00025097	0.00063665	0.00016729	631.06	4.5296e-06	1.0306e-05	908.41	254.49	4.9574e-06	4.6773e-06	385.66	160.39	109.78	52.06	4.3695e-06	79.23	0.00026102	0.00023867	6.0275e-05	604.63	2.8371e-06	2.5864e-06	859.23	242.76	2.8334e-06	2.5274e-06	354.49	149.96	103.26	48.807	2.2988e-06	72.423	227.232	302.665	18.837	-41.064	145.578	61.368	-42.601	-34.967	151.345	118.213	-38.149	-33.325	-30.222	-25.858	59.850	-29.824	-8191	255	
2359.637	1	1	0	0	0.34111	0.12521	0.063098	0.30568	0.19204	0.066394	0.03881	0.085066	0.17032	0.01125	0.068153	0.44939	0.18003	0.18561	0.098653	0.26831	-2.2708	-2.5542	-3.0021	-2.675	-2.6667	-2.9854	-2.6583	-3.0333	-2.6854	-2.6917	-3.0333	-2.9146	-2.8604	-3.0083	-2.4917	-2.9479	46.019	135.496	17.430	-29.275	140.990	198.526	263.378	190.595	166.470	92.200	262.129	-50.585	235.310	248.344	229.926	-36.913	0.00032579	0.00043307	0.00020117	628.54	1.4191e-06	4.1671e-06	913.18	254.07	2.2961e-06	4.7409e-06	384.99	160.64	109.65	52.224	3.7616e-06	79.578	0.00026042	0.00022435	5.7666e-05	607.36	2.7798e-06	2.4534e-06	860.45	242.98	2.7397e-06	2.3913e-06	354.01	150.17	102.88	48.622	2.231e-06	72.542	237.339	-4.297	38.049	-41.317	7.380	73.138	-42.366	-35.066	82.306	123.914	-38.192	-33.425	-30.070	-25.916	108.115	-29.892	-8191	255	
2359.733	1	1	0	0	0.057735	0.17262	0.17659	0.10836	0.25661	0.13377	0.38131	0.25502	0.14533	0.025578	0.057787	0.23917	0.25574	0.12974	0.036784	0.049457	-2.1604	-2.5458	-2.9313	-2.6208	-2.65	-2.9729	-2.5312	-2.7687	-3.0396	-2.4625	-3.2167	-2.8604	-2.6583	-2.8688	-2.5333	-2.8875	40.489	-26.816	170.869	227.505	167.700	233.543	236.428	-7.362	55.182	263.284	13.472	233.598	-31.867	262.782	303.174	255.277	0.00019183	0.00046189	0.0001802	628.15	3.5062e-06	3.7218e-06	906.95	252.01	1.4782e-06	2.6826e-06	383.53	158.94	109.33	51.321	1.4216e-06	78.445	0.00024717	0.00021303	5.6964e-05	609.3	2.6341e-06	2.366e-06	858.1	242.46	2.5865e-06	2.3305e-06	353.14	149.54	101.72	48.08	2.3083e-06	71.794	243.064	-12.145	105.214	-41.347	71.344	-0.686	-42.352	-35.096	63.574	137.643	-38.056	-33.305	-30.248	-26.061	78.210	-29.890	-8191	255	
2359.852	1	1	0	0	0.19346	0.13863	0.15141	0.2041	0.088862	0.09285	0.2652	0.13493	0.24517	0.19755	0.075701	0.20021	0.22522	0.17371	0.39466	0.21126	-2.55	-2.4479	-2.8979	-2.6937	-2.7146	-2.8979	-2.5708	-2.8937	-2.8771	-2.3271	-3.0958	-2.6458	-2.5479	-3.1458	-2.5958	-2.9646	165.352	146.636	41.610	278.338	221.362	192.897	264.814	163.107	15.772	95.433	237.979	11.091	250.366	212.464	165.394	-29.093	0.0002329	0.00031122	4.6197e-05	629.82	3.7529e-06	2.0341e-06	907.32	253.42	3.5915e-06	4.0096e-06	385.04	159.15	108.69	51.504	4.027e-06	78.536	0.00023245	0.00020534	5.9987e-05	609.2	2.4528e-06	2.2621e-06	860.79	242.98	2.4577e-06	2.2205e-06	355.29	148.94	101.63	48.153	2.5273e-06	71.977	223.964	-33.647	115.986	-41.174	108.492	27.956	-42.382	-35.040	156.178	34.055	-38.046	-33.429	-29.950	-25.703	138.808	-29.837	-8191	255	
2359.948	1	1	0	0	0.22524	0.25685	0.34625	0.19578	0.087243	0.23366	0.18113	0.29403	0.15159	0.067335	0.1473	0.36868	0.26595	0.28772	0.2414	0.093418	-2.4354	-2.5042	-2.7458	-2.9042	-2.5333	-3.0292	-2.4333	-2.9188	-3.0083	-2.6813	-2.9313	-2.8042	-2.5479	-3.2438	-2.5875	-2.9458	159.551	34.936	19.423	267.498	-31.335	150.731	188.910	241.681	216.183	281.131	303.953	281.772	274.013	286.226	18.834	197.921	0.00016517	0.00043114	8.0811e-05	633.38	2.8276e-06	5.7257e-06	910.64	253.67	5.6825e-06	2.5901e-06	386.83	159.11	108.95	51.388	1.6702e-06	78.374	0.00022427	0.00020106	6.5926e-05	611.66	2.3558e-06	2.2e-06	865.92	242.9	2.3698e-06	2.1904e-06	357.8	149.19	101.64	48.093	2.7841e-06	71.767	223.993	7.919	115.122	-41.221	112.896	120.195	-42.205	-35.039	82.631	84.216	-38.253	-33.360	-29.915	-25.842	98.407	-29.718	-8191	255	
2360.044	1	1	0	0	0.22678	0.17744	0.085656	0.21145	0.054469	0.072371	0.35945	0.20747	0.073289	0.1603	0.076086	0.26422	0.1479	0.21075	0.091511	0.33393	-2.7042	-2.6271	-2.9271	-2.8229	-2.4688	-3.0312	-2.9188	-2.7875	-3.075	-2.5604	-2.7979	-2.9167	-2.6229	-3.0229	-2.775	-2.6896	251.024	232.411	166.006	286.221	225.071	284.961	195.571	257.573	90.391	-14.515	-46.313	187.125	262.216	267.730	183.322	252.247	0.00026465	0.0004046	0.00015235	628.56	4.5855e-06	2.5408e-06	907.4	252.76	5.6548e-06	2.8876e-06	384.47	158.76	109.06	51.164	4.7943e-06	78.557	0.00022131	0.0002098	7.2005e-05	607.77	2.3356e-06	2.3621e-06	865.15	241.43	2.331e-06	2.3759e-06	356.92	148.33	101.06	48.015	2.8339e-06	71.608	234.417	4.716	51.064	-41.238	91.919	120.453	-42.274	-34.962	115.001	122.230	-37.937	-33.433	-29.953	-25.821	151.114	-29.837	-8191	255	
2360.140	1	1	0	0	0.18927	0.053936	0.11416	0.092825	0.074642	0.13383	0.2506	0.17666	0.26384	0.20698	0.32176	0.19185	0.094761	0.11409	0.14834	0.30076	-2.6792	-2.4917	-2.6854	-2.9375	-2.3354	-3.0312	-2.8146	-2.7958	-2.8396	-2.7062	-2.8833	-3.1771	-2.7188	-3.0729	-2.7979	-2.7708	37.420	-31.670	254.316	15.027	259.924	29.226	194.792	-40.172	177.213	18.557	-50.886	296.787	290.960	264.310	36.877	266.692	0.00025074	0.0001039	5.042e-05	626.57	6.475e-06	3.0786e-06	901.13	251.34	1.5124e-06	3.4156e-06	381.29	158.25	107.28	50.925	6.1409e-06	78.027	0.00021508	0.00022816	7.2006e-05	602.36	2.2747e-06	2.586e-06	859.88	240.34	2.2798e-06	2.5936e-06	354.86	147.58	100.04	47.858	2.6788e-06	71.062	236.277	13.075	282.055	-41.297	83.704	72.863	-42.084	-34.910	151.892	108.258	-37.786	-33.441	-29.882	-25.610	74.570	-29.771	-8191	255	
2360.235	1	1	0	0	0.17417	0.20469	0.067023	0.23556	0.25842	0.19811	0.093646	0.15615	0.20659	0.26578	0.060044	0.075216	0.077942	0.061333	0.10728	0.21517	-2.4958	-2.6188	-2.6875	-2.8729	-2.5833	-2.9542	-2.8917	-2.6417	-2.9188	-2.8625	-2.925	-3.0458	-2.7229	-2.9437	-2.8583	-2.6188	238.073	23.620	-14.259	255.157	212.043	-42.724	279.657	259.476	111.117	195.276	142.151	268.803	278.237	283.907	35.241	249.337	0.00028688	0.00010984	0.00013115	624.43	4.2755e-06	5.6548e-06	898.53	250.77	3.5937e-06	4.9399e-06	378.61	157.75	107.81	51.01	1.9719e-06	78.243	0.00020578	0.00023732	6.6743e-05	598.61	2.1767e-06	2.6762e-06	853.66	239.27	2.2365e-06	2.719e-06	351.41	146.97	100.53	48.13	2.5858e-06	71.189	228.206	97.338	46.142	-41.073	108.851	118.576	-42.163	-35.141	213.220	221.859	-38.121	-33.271	-30.041	-25.849	-3.228	-29.741	-8191	255	
2360.331	1	1	0	0	0.38663	0.068667	0.061507	0.39418	0.045991	0.09022	0.15227	0.17972	0.10236	0.0894	0.25168	0.0049479	0.16393	0.063702	0.10975	0.14003	-2.3958	-2.5208	-2.5958	-2.9833	-2.7125	-2.9479	-2.9729	-2.4562	-2.825	-2.7146	-2.8042	-3.0833	-2.775	-2.9646	-3.0104	-2.6167	137.928	170.721	264.279	298.933	136.823	107.446	275.611	176.652	11.189	75.312	285.222	147.275	158.903	15.303	244.474	68.229	0.0002626	0.00045097	0.00017731	623.29	2.3422e-06	2.6793e-06	896.91	250.98	3.2889e-06	4.5806e-06	378.98	159.03	108.24	51.489	5.1561e-06	78.477	0.00021785	0.00025556	6.4592e-05	598.17	2.392e-06	2.8475e-06	852.57	239.68	2.4941e-06	2.8683e-06	351.32	148.07	101.7	48.555	2.5512e-06	71.682	220.187	50.466	41.692	-41.357	199.856	-2.652	-41.941	-34.953	162.701	116.526	-37.859	-33.382	-30.112	-26.003	68.527	-29.625	-8191	255	
2360.452	1	1	0	0	0.19511	0.14373	0.18232	0.30404	0.15786	0.074943	0.061568	0.15713	0.084392	0.15638	0.098482	0.14108	0.22057	0.14453	0.14186	0.27302	-2.55	-2.5812	-2.6542	-2.9875	-2.7104	-2.7854	-3.1896	-2.7062	-3.0979	-3.0062	-2.7833	-3.2021	-2.7313	-3.0187	-3.0583	-2.6854	292.753	254.232	183.096	-42.894	23.400	148.194	97.553	203.089	137.731	-5.955	243.082	243.758	278.898	276.599	297.442	255.962	0.00034406	0.00033223	0.00016383	621.63	4.425e-06	8.1026e-06	899.65	250.94	3.6773e-06	5.3816e-06	379.68	159.03	108.08	51.027	9.4769e-07	78.268	0.00024725	0.00026152	6.4281e-05	595.42	2.6892e-06	2.8418e-06	849.96	239.39	2.7463e-06	2.811e-06	350.95	147.68	101.73	48.156	2.497e-06	71.499	233.156	-28.868	54.356	-41.352	159.760	39.329	-42.191	-35.042	207.047	119.950	-38.046	-33.275	-30.178	-25.936	45.653	-29.812	-8191	255	
2360.548	1	1	0	0	0.16037	0.14158	0.15176	0.2127	0.14909	0.3097	0.21681	0.013984	0.21917	0.17978	0.13349	0.1333	0.20922	0.11342	0.25058	0.078403	-2.6479	-2.8688	-2.5792	-2.9	-2.6708	-2.7229	-3.1729	-2.6937	-2.8896	-2.9938	-2.6792	-3.1813	-2.6813	-2.9313	-3.0521	-2.7875	-23.686	159.823	113.547	198.174	39.132	-8.497	-0.666	144.487	3.127	240.857	250.906	278.730	202.091	-19.111	221.087	207.350	0.0002763	0.00032178	8.9806e-05	621.12	2.0628e-06	9.5896e-07	894.8	250.18	4.5675e-06	2.1208e-06	379.58	156.92	107.45	50.975	1.9447e-06	77.93	0.000265	0.00025121	6.2563e-05	596.54	2.863e-06	2.6738e-06	849.14	238.91	2.8206e-06	2.5981e-06	349.55	146.65	101.45	47.81	2.2968e-06	71.198	220.646	18.072	93.353	-40.780	142.914	200.156	-42.166	-34.742	218.221	32.684	-38.088	-33.318	-30.273	-25.956	9.740	-29.736	-8191	255	
2360.644	1	1	0	0	0.12822	0.21759	0.032314	0.13717	0.15233	0.19715	0.35786	0.34673	0.21931	0.09578	0.1684	0.10569	0.069469	0.20044	0.091508	0.16515	-2.4521	-2.9062	-2.5625	-3.1771	-2.8625	-2.6604	-3.0521	-2.6562	-2.9771	-3.0604	-2.5187	-3.0646	-2.8042	-2.7458	-3.1208	-2.7896	2.001	13.530	-34.209	111.798	-15.219	253.831	182.870	223.108	295.440	180.809	282.938	295.967	-17.841	283.680	8.764	156.490	0.00016723	0.00050199	0.00010902	616.47	2.5956e-06	3.8888e-06	893.63	249.72	3.2955e-06	4.4073e-06	378.37	156.74	107.84	50.882	1.9574e-06	77.978	0.00025817	0.00022743	5.7058e-05	594.54	2.7593e-06	2.4421e-06	846.18	238.62	2.7162e-06	2.4257e-06	347.47	146.75	101.3	47.733	2.2407e-06	71.353	258.110	-24.323	92.962	-41.195	114.357	-8.791	-42.235	-35.017	212.478	103.291	-37.976	-33.356	-30.174	-25.988	158.180	-29.757	-8191	255	
2360.740	1	1	0	0	0.077106	0.12375	0.10843	0.34161	0.23326	0.078257	0.051785	0.074245	0.30045	0.2638	0.066725	0.1872	0.1842	0.44813	0.039898	0.26731	-2.3875	-2.9083	-2.225	-3.0354	-2.7417	-2.7542	-3.1833	-2.9146	-2.7438	-3.0146	-2.8104	-2.9125	-2.9396	-2.5229	-3.2	-2.7958	132.644	13.564	238.665	178.060	178.156	-34.283	4.924	297.928	86.088	126.287	174.556	154.255	292.646	-39.279	-19.858	293.306	0.00023229	0.00053178	0.00016936	618.07	2.3292e-06	4.756e-06	891.98	250.08	1.811e-06	3.4281e-06	377.33	157.97	108.03	51.441	4.1926e-06	78.501	0.00025085	0.00021677	5.6823e-05	600.58	2.6655e-06	2.3827e-06	845.67	240.22	2.6489e-06	2.3823e-06	349.31	148.16	101.47	48.04	2.3071e-06	71.872	240.247	-15.842	85.266	-40.993	69.172	52.588	-42.019	-34.980	45.158	31.790	-37.958	-33.299	-30.050	-25.763	72.066	-29.592	-8191	255	
2360.836	1	1	0	0	0.13259	0.1504	0.2861	0.40483	0.039753	0.29594	0.15567	0.037143	0.084067	0.059701	0.18033	0.012705	0.20546	0.26353	0.25701	0.099175	-2.3354	-3.1104	-2.7438	-3.0729	-2.9021	-2.7438	-3.1688	-2.8083	-2.5604	-3.0271	-2.7979	-2.8979	-3.05	-2.7271	-2.8354	-3.0229	20.520	193.515	271.336	248.107	158.555	299.355	240.865	94.218	-9.948	263.195	284.486	-0.839	261.977	72.258	194.798	137.912	0.00018807	0.00027351	7.3623e-05	620.53	4.1908e-06	8.2874e-06	898.49	250.75	5.6196e-06	5.206e-06	379.7	158.58	108.48	51.11	3.6122e-06	78.432	0.00023995	0.00020889	5.809e-05	603.31	2.4927e-06	2.2545e-06	851.41	241.27	2.4336e-06	2.2413e-06	351.75	148.36	101.14	47.786	2.4061e-06	71.781	227.242	88.725	-31.307	-41.412	70.309	27.403	-42.059	-34.959	93.102	104.269	-38.018	-33.412	-30.007	-25.952	175.557	-29.594	-8191	255	
2360.932	1	1	0	0	0.10706	0.44597	0.027156	0.3578	0.035364	0.099256	0.16577	0.18919	0.23547	0.098922	0.19923	0.16086	0.075151	0.12853	0.30029	0.098929	-1.8958	-3.0146	-2.6979	-2.9708	-2.7479	-2.7479	-3.1021	-2.8521	-2.6979	-3.0604	-2.6833	-2.8417	-3.2458	-2.5771	-2.9125	-2.9417	196.207	174.804	222.668	275.753	55.428	116.268	282.370	279.885	234.887	165.019	150.392	268.336	199.381	210.337	284.207	117.785	0.00024834	3.1951e-05	9.7612e-05	623.53	4.8582e-06	3.0706e-06	901.82	250.82	3.0988e-06	2.5488e-06	381.36	157.97	108.01	51.089	2.5061e-06	78.068	0.00022153	0.00019799	6.2131e-05	602	2.3706e-06	2.1586e-06	854.33	240.9	2.3428e-06	2.2036e-06	353.58	148.21	100.76	47.729	2.6108e-06	71.622	240.292	266.305	109.586	-41.160	134.102	57.565	-41.952	-35.025	45.528	108.803	-38.084	-33.371	-30.275	-26.026	238.919	-29.533	-8191	255	
2361.028	1	1	0	0	0.050448	0.079557	0.073892	0.017271	0.10186	0.14697	0.21454	0.19504	0.22459	0.13334	0.2007	0.31001	0.2585	0.32084	0.047019	0.15607	-2.2771	-2.8917	-2.7521	-2.7333	-2.9542	-2.4958	-3.0417	-2.9021	-2.4167	-2.9333	-2.7271	-2.8875	-3.0062	-2.6354	-2.7646	-3.0417	90.702	4.048	202.346	301.888	254.517	108.876	22.107	175.331	-42.172	249.600	293.648	296.255	210.733	271.650	262.171	144.717	0.00022761	0.00037024	7.0736e-05	621.46	3.1767e-06	3.1427e-06	896.41	250.21	4.3738e-06	5.2361e-06	379.87	157.57	107.45	50.895	3.6844e-06	77.916	0.00021447	0.00019625	6.6414e-05	599.14	2.2635e-06	2.1671e-06	853.4	239.58	2.2422e-06	2.2148e-06	352.28	147.18	99.924	47.624	2.6916e-06	71.068	235.086	-27.595	112.036	-41.043	89.851	71.214	-42.183	-35.228	73.747	72.667	-38.184	-33.560	-30.181	-25.860	116.753	-29.820	-8191	255	
2361.125	1	1	0	0	0.19271	0.21993	0.15016	0.16561	0.044598	0.20363	0.25481	0.065737	0.048484	0.063254	0.4004	0.082751	0.12867	0.13612	0.22973	0.15761	-2.1562	-3.0104	-2.7896	-2.7125	-2.8812	-2.6083	-2.8854	-2.95	-2.4146	-3.0104	-2.8812	-2.5771	-3.2125	-2.7042	-2.8042	-3.0917	-47.088	209.655	286.509	186.862	292.480	15.801	-42.996	189.609	65.407	36.478	263.305	244.780	281.043	306.852	109.910	160.307	0.00025848	0.00053207	1.1431e-05	624.02	1.0446e-06	3.8918e-06	897.83	251.18	8.4932e-07	8.0636e-07	380.69	157.31	107.9	51.068	2.2739e-06	77.899	0.0002068	0.00020831	6.9027e-05	599.98	2.1705e-06	2.3377e-06	855.92	239.73	2.1517e-06	2.3907e-06	354.05	147.07	100.09	47.854	2.6657e-06	71.109	215.894	26.018	202.872	-41.256	157.172	85.500	-42.229	-35.140	186.225	48.762	-38.164	-33.172	-30.160	-25.954	124.135	-29.773	-8191	255	
2361.243	1	1	0	0	0.092011	0.03787	0.1729	0.082542	0.22557	0.15889	0.3086	0.26438	0.12743	0.044874	0.14052	0.21914	0.22614	0.089206	0.055425	0.23221	-2.1542	-2.9354	-2.6937	-2.5687	-3.05	-2.6729	-2.9521	-2.9917	-2.7896	-2.9521	-2.8729	-2.8333	-2.9062	-2.6354	-2.7687	-3.2417	89.023	18.275	53.546	193.685	119.856	218.033	225.640	201.146	10.485	-1.919	301.119	259.421	161.329	233.507	127.019	233.123	0.00024921	0.0004871	0.00010814	625.15	3.9915e-06	3.3847e-06	905.83	250.98	2.5942e-06	2.1992e-06	383.33	157.92	106.95	50.587	4.44e-06	77.843	0.00020095	0.00022655	6.6619e-05	601.21	2.1208e-06	2.5358e-06	859.34	239.72	2.1315e-06	2.5598e-06	354.18	146.51	99.284	47.645	2.5327e-06	70.896	245.760	32.359	46.305	-41.173	66.823	96.122	-42.230	-35.085	121.182	194.339	-37.956	-33.454	-29.927	-25.886	40.217	-29.644	-8191	255	
2361.340	1	1	0	0	0.026341	0.12721	0.092953	0.28701	0.071873	0.21537	0.15074	0.082551	0.24712	0.077983	0.2165	0.10222	0.03149	0.16749	0.24463	0.27563	-2.1188	-2.7208	-2.85	-2.6813	-3.0187	-2.825	-2.9313	-3.2667	-2.6708	-3.025	-3.0042	-2.5646	-3.0104	-2.8708	-2.7896	-3.1396	208.189	-45.167	112.087	269.203	-51.600	236.315	193.845	232.779	53.685	-32.745	176.382	153.720	1.815	-33.655	297.082	234.220	0.000205	0.0003925	0.00010947	623.87	3.7955e-06	4.7811e-06	906.4	251.44	1.3077e-06	3.6481e-06	380.84	156.4	106.48	50.254	5.361e-06	77.203	0.00020796	0.0002432	6.3642e-05	598.03	2.2153e-06	2.6873e-06	856.7	239.02	2.2619e-06	2.6745e-06	352.45	145.75	99.463	47.411	2.3963e-06	70.421	228.476	-2.550	81.070	-41.063	146.089	71.536	-42.222	-34.823	123.146	34.096	-37.687	-33.319	-29.977	-25.788	114.072	-29.644	-8191	255	
2361.411	1	1	0	0	0.32905	0.11453	0.086321	0.16357	0.20355	0.081011	0.11506	0.30957	0.073032	0.14269	0.098972	0.04192	0.13674	0.082766	0.09172	0.26944	-2.2729	-2.8771	-2.9375	-2.4688	-2.9333	-2.7083	-2.7271	-3.15	-2.5583	-2.9188	-3.0417	-2.7917	-3.0167	-3.0354	-2.4854	-3.0479	106.416	6.899	201.427	235.952	18.330	-11.365	299.086	5.489	272.193	29.082	232.124	241.873	201.382	267.371	301.979	211.428	0.00028361	9.0822e-05	0.00015294	621.69	4.5859e-06	7.42e-06	893.72	248.7	8.0464e-06	1.625e-06	377.02	154.62	105.88	50.204	6.2425e-06	76.932	0.00022002	0.00024511	6.0429e-05	593.74	2.3764e-06	2.6481e-06	846.65	236.26	2.4141e-06	2.6079e-06	348.14	143.87	98.931	47.053	2.2754e-06	69.857	228.138	-43.278	80.072	-40.967	133.792	64.510	-42.089	-35.287	224.712	96.215	-37.925	-33.420	-30.094	-25.994	107.723	-29.710	-8191	255	
2361.532	1	1	0	0	0.21293	0.12368	0.40161	0.10899	0.076976	0.092175	0.23577	0.16125	0.011051	0.061283	0.078379	0.072628	0.1399	0.18457	0.18492	0.050897	-2.1458	-2.6292	-2.8438	-2.6542	-2.9521	-2.8208	-2.6708	-3.0708	-2.7458	-2.6979	-3.0146	-2.6354	-2.9646	-2.8667	-2.4667	-3.0896	71.264	197.897	79.051	178.649	75.486	29.098	221.588	-21.425	120.073	-43.764	267.516	258.415	256.004	183.069	201.502	52.306	0.00026536	0.00050836	8.5252e-05	619.9	4.9013e-06	7.2954e-06	897.49	248.53	2.7479e-06	1.685e-06	378.72	155.16	106.29	50.458	1.2342e-06	77.395	0.0002349	0.00023106	5.739e-05	592.98	2.5393e-06	2.4947e-06	847.8	236.83	2.5778e-06	2.4731e-06	348.15	144.53	99.531	47.24	2.1903e-06	70.378	227.748	-5.164	25.968	-40.999	158.621	43.006	-42.137	-35.006	200.272	39.233	-38.291	-33.452	-30.309	-25.792	130.962	-29.730	-8191	255	
2361.628	1	1	0	0	0.04288	0.22015	0.14114	0.2437	0.16349	0.10864	0.23125	0.34599	0.12471	0.11205	0.06514	0.14432	0.33945	0.10987	0.35088	0.25797	-2.3729	-2.6104	-2.9542	-2.7375	-2.9354	-2.9458	-2.5979	-3.1729	-2.8042	-2.6208	-3.2083	-2.8146	-3.1188	-2.8646	-2.7687	-3.0312	268.816	229.712	226.504	-37.496	170.612	50.203	-15.806	245.240	32.385	0.883	-44.776	270.509	264.915	225.798	167.147	-41.986	0.00020636	0.00034089	6.3271e-05	622.64	1.4539e-06	7.3506e-06	898.34	250.69	3.6846e-06	7.0276e-06	385.37	157.27	107.57	50.858	2.5187e-06	78.203	0.00024273	0.00021646	5.4643e-05	597.64	2.5819e-06	2.332e-06	849.22	239.5	2.5926e-06	2.288e-06	352.14	146.66	100.73	47.646	2.0424e-06	71.103	255.298	-10.678	69.199	-41.088	-18.695	11.640	-42.057	-35.009	172.271	68.969	-38.014	-33.430	-30.226	-25.595	38.818	-29.810	-8191	255	
2361.724	1	1	0	0	0.12193	0.10942	0.22679	0.14346	0.2247	0.32206	0.082838	0.21717	0.14869	0.31183	0.11873	0.25847	0.12175	0.14584	0.15008	0.32311	-2.2687	-2.5896	-2.9542	-2.6833	-3.0479	-2.8958	-2.7979	-2.9375	-2.8625	-2.6521	-3.1833	-2.6917	-2.8312	-3.0208	-2.5271	-3.2313	101.689	202.697	13.415	-24.577	180.809	-45.208	196.516	258.159	281.528	78.090	244.614	-43.535	-9.570	257.514	251.047	215.960	0.00020112	0.00042297	6.6802e-05	623.91	7.3676e-06	3.7281e-06	902.57	251.84	1.386e-06	2.9056e-06	383.84	157.48	108.11	50.799	2.9851e-06	77.85	0.00023686	0.00020113	5.1916e-05	600.06	2.4864e-06	2.1858e-06	850.04	240.56	2.4832e-06	2.2037e-06	351.38	147.18	100.37	47.457	2.0644e-06	71.145	210.603	-51.490	58.027	-41.038	75.325	63.569	-42.033	-34.762	50.790	82.935	-37.953	-33.262	-30.194	-25.800	121.925	-29.367	-8191	255	
2361.845	1	1	0	0	0.26649	0.23402	0.10735	0.17294	0.10354	0.18584	0.21434	0.10325	0.20804	0.090282	0.18844	0.12576	0.25814	0.22674	0.25769	0.19165	-2.3667	-2.7521	-3.1375	-2.7646	-2.7396	-2.925	-2.8125	-3.0563	-3.0438	-2.6312	-2.9938	-2.8625	-2.7646	-3.1479	-2.6021	-3.1	-45.282	198.421	192.790	194.438	262.055	177.348	165.076	266.423	218.210	124.675	274.589	220.542	235.010	260.651	-8.483	77.978	0.0002304	0.00046998	0.00012841	624.15	2.1868e-06	4.5248e-06	896.21	248.64	1.9478e-07	2.591e-06	378.03	155.95	106.47	50.263	2.3563e-06	77.326	0.00022743	0.00019716	5.3114e-05	599.69	2.374e-06	2.1277e-06	847.5	238.87	2.3322e-06	2.1141e-06	348.67	145.87	99.177	47.016	2.1956e-06	70.548	248.156	-33.647	110.245	-41.289	115.493	-11.951	-42.190	-34.768	166.012	104.627	-38.001	-33.389	-30.242	-25.915	194.590	-29.424	-8191	255	
2361.941	1	1	0	0	0.098598	0.12885	0.10358	0.14102	0.14886	0.18236	0.24928	0.16874	0.19769	0.25773	0.20162	0.277	0.080346	0.11579	0.10321	0.27475	-2.675	-2.5042	-3.0417	-2.8958	-2.8167	-3.2271	-2.625	-2.9083	-3.1562	-2.6	-3.1	-2.8729	-2.7167	-3.1083	-2.725	-3.0167	298.858	-17.150	9.457	-18.192	-7.319	109.991	175.809	-25.696	119.990	36.143	115.097	284.636	3.305	251.053	144.594	248.086	0.00023822	0.00065233	3.2597e-05	617.15	1.7471e-06	5.9779e-06	897.74	248.24	4.9196e-06	6.2544e-06	376.81	155.21	106.14	50.133	5.4986e-06	77.244	0.00021186	0.00018708	5.6282e-05	597.14	2.2308e-06	2.0574e-06	847.67	238.13	2.2236e-06	2.0284e-06	348.54	144.94	98.556	46.88	2.3975e-06	70.584	238.333	-6.515	55.136	-40.949	-35.699	26.370	-42.157	-34.798	81.135	102.281	-37.941	-33.406	-30.111	-25.570	168.930	-29.606	-8191	255	
2362.035	1	1	0	0	0.1738	0.19098	0.32791	0.20829	0.16631	0.08415	0.3364	0.23769	0.10188	0.15788	0.26519	0.046172	0.078385	0.31441	0.07144	0.23044	-2.3812	-2.6188	-2.7604	-2.9167	-2.4479	-2.9667	-2.7292	-2.8354	-3.0917	-2.6417	-3.0542	-3.0854	-2.6271	-3.2313	-2.7104	-2.7792	147.523	122.049	57.631	290.293	73.463	38.260	154.637	78.051	-18.509	34.657	254.350	181.472	36.830	-52.341	48.109	256.718	0.0001666	0.00031178	5.1283e-05	622.65	3.9369e-06	3.8472e-06	895.6	249.17	3.2206e-06	4.7781e-06	379.91	155.47	105.75	50.174	2.0158e-06	76.914	0.00020877	0.00018846	6.2659e-05	599.21	2.192e-06	2.072e-06	851.65	238.64	2.2139e-06	2.1048e-06	351.74	144.75	98.278	46.824	2.6187e-06	70.3	246.941	-19.132	140.218	-41.095	143.033	138.693	-42.014	-35.209	90.178	134.090	-37.968	-33.224	-29.575	-25.423	294.340	-29.510	-8191	255	
2362.132	1	1	0	0	0.26057	0.19043	0.12439	0.26996	0.39273	0.21876	0.13457	0.15866	0.090065	0.39064	0.19909	0.21963	0.13905	0.16295	0.22553	0.17093	-2.6042	-2.575	-2.8667	-3.0125	-2.4146	-3.025	-2.9625	-2.6188	-2.9708	-2.6417	-2.9646	-2.8625	-2.5354	-3.0229	-2.7438	-2.6958	199.319	118.913	208.917	302.696	180.257	306.609	231.804	236.420	38.117	244.955	177.454	253.862	239.558	263.685	-7.367	133.502	0.00026408	0.00057205	7.0539e-05	615.04	7.2308e-06	1.009e-06	896.78	247.51	3.4748e-06	6.3838e-06	375.03	152.85	104.59	49.545	5.017e-06	76.748	0.00020564	0.00020036	6.7161e-05	594.72	2.1647e-06	2.2136e-06	851.68	236.59	2.1444e-06	2.2694e-06	350.04	143.12	97.2	46.463	2.6529e-06	69.781	232.977	-5.502	73.556	-41.095	111.494	113.655	-42.125	-34.832	154.722	120.410	-37.997	-33.135	-30.088	-25.538	42.619	-29.744	-8191	255	
2362.228	1	1	0	0	0.064392	0.16304	0.27821	0.10259	0.35709	0.13871	0.24826	0.070799	0.081461	0.073603	0.2525	0.39085	0.1356	0.23479	0.12405	0.17368	-2.4042	-2.6521	-2.8083	-2.9542	-2.4229	-3.0979	-2.8854	-2.775	-3.0812	-2.7062	-2.7229	-3.1146	-2.7521	-2.9146	-3.2	-2.5687	13.452	40.588	92.222	131.632	304.374	109.195	-25.736	180.327	305.391	165.215	-47.380	287.717	243.868	260.488	220.620	-29.015	0.00024472	0.0003653	6.5894e-05	616.21	3.1212e-06	2.1633e-06	895.82	247.64	3.2849e-06	3.7548e-06	375.89	153.3	104.6	49.549	3.9297e-06	76.246	0.00020031	0.00021509	6.61e-05	591.75	2.0737e-06	2.3692e-06	849.31	235.44	2.0839e-06	2.4202e-06	348.18	142.82	96.806	46.549	2.4644e-06	69.335	224.317	-15.138	73.123	-41.004	96.081	175.305	-42.067	-34.829	174.788	160.301	-37.894	-33.542	-29.790	-25.505	46.615	-29.643	-8191	255	
2362.324	1	1	0	0	0.27624	0.25793	0.08029	0.22651	0.083172	0.059272	0.19087	0.19812	0.052304	0.32382	0.20411	0.071013	0.10619	0.11906	0.25432	0.17997	-2.6333	-2.7021	-2.6646	-2.925	-2.4958	-2.8521	-2.9375	-2.7125	-2.9646	-2.7812	-2.7917	-3.2833	-2.7417	-2.9458	-2.8375	-2.625	187.208	107.865	232.079	-26.685	290.401	-3.948	-30.238	50.214	275.462	206.588	260.904	139.268	77.298	45.173	180.715	177.901	0.00023962	0.00034307	2.0814e-05	613.57	4.7395e-06	2.5775e-06	891.39	244.91	3.6823e-06	4.5156e-06	373.26	151.64	103.49	49.161	2.5844e-06	75.888	0.00019577	0.00022876	6.2083e-05	588.47	2.0837e-06	2.5265e-06	842.61	233.66	2.144e-06	2.589e-06	344.93	141.28	96.261	46.343	2.3803e-06	69.083	232.957	78.115	107.309	-41.257	94.846	287.689	-42.074	-34.944	180.127	134.857	-38.316	-33.627	-29.907	-25.626	78.595	-29.567	-8191	255	
2362.420	1	1	0	0	0.0051125	0.22876	0.28406	0.072234	0.12579	0.19006	0.27127	0.058653	0.14712	0.12499	0.25336	0.22202	0.16243	0.14297	0.12455	0.27809	-2.5604	-2.4896	-2.6958	-3.0146	-2.3771	-2.85	-3.0958	-2.7167	-2.8917	-2.8167	-2.7792	-2.9896	-2.7104	-2.9167	-3.1	-2.7479	252.550	89.896	-36.790	23.940	-5.665	-51.563	252.313	-31.221	224.279	207.363	220.584	-33.730	-27.810	-42.892	111.390	264.043	0.00030339	0.00012786	0.00017866	615.18	3.0578e-06	4.0648e-06	892.95	246.55	1.4064e-07	2.2356e-06	374.71	151.71	104.25	49.495	4.2132e-06	76.163	0.00020752	0.00024026	5.9579e-05	590.04	2.296e-06	2.6785e-06	844.63	234.45	2.3749e-06	2.6721e-06	345.87	141.47	97.174	46.488	2.3203e-06	69.464	228.558	31.357	50.575	-41.312	136.862	45.122	-42.112	-34.705	21.281	141.494	-38.029	-33.194	-29.797	-25.682	100.714	-29.593	-8191	255	
2362.541	1	1	0	0	0.47804	0.20059	0.20964	0.20061	0.25356	0.25033	0.1518	0.33075	0.065009	0.11528	0.1185	0.22113	0.23817	0.21803	0.092001	0.065586	-2.4437	-2.8312	-2.5792	-3.1125	-2.6562	-2.6	-3.0312	-2.7354	-2.8479	-2.7042	-2.6104	-3.0729	-2.725	-2.9625	-3.0667	-2.7021	302.506	46.364	8.075	224.515	-42.401	41.901	159.163	280.628	162.909	34.318	150.571	256.282	172.350	277.643	7.407	-21.237	0.00034472	0.00058241	0.00014145	617.66	3.597e-06	6.241e-06	894.71	246.22	2.2573e-06	2.0092e-06	376.51	152.54	104.16	49.299	3.0273e-06	76.344	0.00022983	0.00023634	5.8366e-05	589.92	2.5015e-06	2.571e-06	846.05	234.67	2.5565e-06	2.5237e-06	346.38	142.01	97.653	46.335	2.252e-06	69.521	231.338	2.254	89.418	-41.069	143.753	70.231	-42.031	-34.823	100.523	111.203	-38.087	-33.230	-29.966	-25.631	56.890	-29.394	-8191	255	
2362.637	1	1	0	0	0.16634	0.031317	0.18747	0.26046	0.22161	0.17524	0.45145	0.34352	0.08458	0.29539	0.079135	0.22973	0.16826	0.23138	0.1884	0.34165	-2.3396	-3.0583	-2.5708	-2.9875	-2.7917	-2.6479	-3.1021	-2.8771	-2.9625	-3.1333	-2.7333	-3.0979	-2.8875	-2.5854	-3.0938	-2.6312	92.513	182.062	62.435	233.877	17.704	210.061	31.533	265.234	227.547	41.568	272.957	201.947	304.027	195.976	112.285	249.900	0.00023639	0.00045288	0.00012691	614.64	2.2547e-06	3.8035e-06	893.57	245.18	1.444e-06	5.3562e-06	375.15	152.69	104.23	49.422	3.8436e-06	76.295	0.00024307	0.00022442	5.6291e-05	589.99	2.6299e-06	2.4055e-06	843.97	234.21	2.6301e-06	2.3622e-06	345.16	142.2	97.718	46.238	2.1512e-06	69.593	222.122	-46.349	42.351	-40.892	154.871	8.055	-42.130	-34.899	34.370	37.145	-38.117	-33.315	-29.929	-25.673	114.651	-29.497	-8191	255	
2362.708	1	1	0	0	0.22566	0.10502	0.11648	0.10198	0.10264	0.23155	0.20743	0.15984	0.22132	0.2879	0.067749	0.17863	0.1667	0.15675	0.039907	0.12784	-2.4688	-3.0146	-2.5667	-3.0187	-2.8479	-2.5062	-3.1625	-2.8521	-2.7833	-2.9542	-2.6979	-3.2646	-2.8438	-2.7896	-3.0292	-2.9292	215.735	104.676	184.632	258.548	234.062	214.422	244.219	265.179	233.409	125.715	203.054	279.976	296.522	-0.108	117.994	265.870	0.000257	0.00044012	1.694e-05	614.41	3.172e-06	5.6329e-06	888.33	244.88	4.1694e-06	5.7221e-06	374.52	151.88	103.59	49.197	3.0314e-06	76.267	0.00024648	0.00021183	5.4284e-05	590.76	2.6251e-06	2.3224e-06	840.24	234.43	2.6177e-06	2.2923e-06	343.13	142.02	97.177	46.144	2.1291e-06	69.532	210.630	19.392	-52.872	-41.141	77.932	53.432	-42.086	-34.964	133.721	79.874	-37.760	-33.309	-30.143	-25.912	79.788	-29.446	-8191	255	
2362.805	1	1	0	0	0.24872	0.14143	0.099478	0.20672	0.16754	0.1296	0.1387	0.13706	0.043056	0.1474	0.1944	0.17072	0.14011	0.35415	0.25205	0.27777	-2.2833	-2.9729	-2.7625	-2.8833	-3.0146	-2.7979	-3.2583	-2.95	-2.8812	-2.9667	-2.7708	-2.9583	-3.1	-2.7708	-3.0312	-3.0104	302.570	-13.538	173.834	217.368	282.999	213.845	87.075	194.123	193.220	103.408	203.364	205.704	-34.054	-48.153	293.857	250.026	0.00024812	0.0001036	7.6595e-05	613.63	7.8647e-06	1.5911e-06	893.55	246.31	1.3865e-06	2.8183e-06	376.31	152.46	104.49	49.313	2.1205e-06	76.438	0.0002387	0.00020806	5.3967e-05	594.47	2.512e-06	2.2796e-06	843.2	236.02	2.5074e-06	2.2601e-06	346.18	143.02	97.567	46.322	2.2485e-06	70.037	218.430	-8.232	79.801	-40.982	60.629	64.581	-42.188	-34.934	238.250	42.221	-37.863	-33.387	-29.805	-25.727	117.611	-29.622	-8191	255	
2362.925	1	1	0	0	0.20149	0.20653	0.15615	0.26078	0.18217	0.17236	0.21787	0.15407	0.092336	0.01716	0.074412	0.17642	0.1357	0.12806	0.12572	0.23183	-2.3979	-3.0083	-2.5458	-3.0333	-3.1146	-2.6792	-3.1729	-2.8583	-2.6312	-3.1729	-2.6479	-2.9313	-3.0396	-2.7896	-3.1312	-2.9729	132.104	-27.226	208.320	218.207	181.629	83.931	215.241	294.554	290.618	180.773	270.662	285.655	-34.647	211.741	115.673	202.625	0.00020095	0.00067003	3.9065e-05	616.8	4.0166e-06	4.5982e-06	895.7	246.76	6.3914e-06	1.7417e-06	376.27	153.06	104.03	49.618	1.1675e-06	76.172	0.00023083	0.00020319	5.7865e-05	596.25	2.4323e-06	2.2131e-06	847.52	236.97	2.3943e-06	2.1859e-06	347.67	143.46	97.065	46.214	2.446e-06	69.986	226.664	-43.524	71.931	-40.829	109.564	72.941	-42.156	-35.098	84.852	60.643	-37.798	-33.283	-29.860	-25.425	183.164	-29.582	-8191	255	
2363.020	1	1	0	0	0.13121	0.14584	0.19158	0.13034	0.1168	0.22681	0.28398	0.23592	0.20762	0.20163	0.10299	0.12381	0.32422	0.28574	0.090397	0.14382	-2.2708	-2.8542	-2.575	-2.8458	-3.0479	-2.5292	-3.2104	-2.9083	-2.5354	-3.0792	-2.5646	-3.0729	-3.15	-2.5687	-3.0354	-2.9917	272.443	-41.334	249.841	214.483	106.030	59.623	218.939	260.427	200.930	186.546	53.019	209.850	276.236	-14.157	-52.150	167.482	0.00024919	0.00039018	0.00010431	615.94	4.0107e-06	3.2139e-06	892.23	245.52	3.4058e-06	5.6911e-06	374.65	151.81	103.37	49.142	2.2044e-06	76.123	0.00022056	0.00019929	6.3893e-05	595.49	2.3405e-06	2.179e-06	848.71	235.62	2.329e-06	2.1476e-06	347.6	142.64	96.574	45.985	2.6393e-06	69.716	230.770	14.987	138.823	-40.992	52.959	59.473	-42.280	-35.034	114.634	92.119	-38.039	-33.189	-30.188	-25.749	-33.376	-29.656	-8191	255	
2363.116	1	1	0	0	0.24225	0.18807	0.16658	0.017371	0.099376	0.045767	0.12755	0.054293	0.082527	0.076078	0.19475	0.12423	0.26497	0.22715	0.12862	0.054237	-2.2125	-3.0083	-2.7062	-2.9125	-2.9313	-2.7062	-2.9292	-2.9417	-2.5542	-2.9188	-2.7542	-2.8063	-3.1271	-2.7146	-2.9021	-2.9208	166.866	28.630	220.959	251.420	297.763	91.082	109.947	127.528	-26.089	229.365	199.898	286.342	284.789	265.708	299.662	282.844	0.00029426	0.00073599	9.5306e-05	613.37	3.0536e-06	3.5418e-06	892.21	246.14	2.2306e-06	6.0211e-06	373.22	152.26	103.96	49.052	6.0778e-06	75.97	0.0002154	0.00019854	6.7351e-05	592.65	2.2344e-06	2.191e-06	848.14	234.94	2.1856e-06	2.2155e-06	346.91	142.08	96.41	45.978	2.671e-06	69.331	231.688	18.266	125.923	-41.131	92.866	100.405	-42.152	-34.996	233.171	129.134	-37.908	-33.384	-30.082	-25.720	109.421	-29.728	-8191	255	
2363.214	1	1	0	0	0.20727	0.096286	0.096668	0.073703	0.039802	0.25223	0.17443	0.06576	0.11005	0.051783	0.057962	0.16552	0.093315	0.20226	0.13339	0.12696	-2.2083	-3.0854	-2.875	-2.6063	-3.1667	-2.6521	-2.9104	-2.9437	-2.6542	-3.1625	-2.9958	-2.7812	-3.0042	-2.6979	-2.8729	-3.0042	223.228	77.666	117.416	263.344	112.181	88.165	247.781	127.832	-3.220	234.323	10.816	-28.777	62.667	22.042	-13.514	97.112	0.00026615	0.00021459	0.00013003	613.88	4.4015e-06	4.8518e-07	890.62	245.19	6.8622e-06	3.5271e-06	373.05	152.49	104.32	49.309	4.5309e-06	76.264	0.00020242	0.00021033	6.749e-05	592.24	2.1524e-06	2.3861e-06	848.63	234.27	2.1588e-06	2.4578e-06	347.64	141.93	96.598	46.292	2.6636e-06	69.468	213.666	37.780	36.479	-40.913	130.412	152.204	-42.117	-34.987	119.665	170.506	-37.874	-33.434	-30.208	-25.572	60.519	-29.743	-8191	255	
2363.333	1	1	0	0	0.28724	0.066366	0.038732	0.21311	0.087893	0.15411	0.10317	0.096368	0.19503	0.11305	0.11997	0.18441	0.091405	0.22196	0.11098	0.397	-1.9833	-2.7542	-2.9333	-2.6542	-3.125	-2.8542	-3.2396	-3.1458	-2.7271	-2.9396	-3.0125	-2.9208	-3.1312	-2.6917	-2.7188	-3.2833	37.940	43.255	34.165	172.559	258.069	217.303	116.101	299.986	26.631	220.552	246.662	304.309	200.408	-46.090	-4.005	248.169	0.00029665	0.00036548	0.00010344	617.63	4.7292e-06	6.4466e-06	899.26	245.99	5.1312e-06	3.1239e-06	377.14	151.82	103.81	49.112	6.7489e-06	76.282	0.00020298	0.00023438	6.6002e-05	592.43	2.1567e-06	2.6128e-06	850.55	234.63	2.1755e-06	2.653e-06	347.86	141.79	96.457	46.231	2.5099e-06	69.411	243.299	19.671	6.296	-41.039	65.339	107.700	-42.081	-34.874	191.336	119.505	-38.184	-33.271	-29.846	-25.605	36.046	-29.470	-8191	255	
2363.404	1	1	0	0	0.23024	0.042837	0.24533	0.18443	0.097622	0.20829	0.35058	0.18559	0.15959	0.083538	0.086778	0.23807	0.28654	0.25467	0.25598	0.21631	-2.0208	-3.0667	-2.6688	-2.6417	-3.1979	-2.5729	-2.7667	-3.1937	-2.4188	-2.7812	-3.0417	-2.4896	-2.9062	-2.8438	-2.5021	-3.2646	275.475	236.760	118.317	280.274	165.545	187.641	203.354	-48.107	267.465	115.818	268.203	230.195	243.203	292.006	41.749	253.445	0.00028594	0.00051533	9.2702e-05	616.29	4.3737e-06	5.0007e-06	894.6	245.17	5.0325e-06	6.7364e-06	374.68	151.25	103.27	48.84	4.1201e-06	75.434	0.0002084	0.00024586	6.2396e-05	590.42	2.2233e-06	2.6875e-06	847.2	233.92	2.2984e-06	2.6826e-06	345.46	141.23	96.301	45.934	2.3775e-06	69.038	235.544	0.016	100.830	-41.252	151.086	58.595	-42.084	-35.239	202.556	105.412	-37.791	-33.259	-29.924	-25.553	114.058	-29.743	-8191	255	
2363.525	1	1	0	0	0.2208	0.11995	0.27488	0.17197	0.026295	0.047529	0.0724	0.18447	0.31607	0.034318	0.14177	0.09539	0.27845	0.057771	0.10458	0.16985	-2.3854	-2.8479	-2.9333	-2.6312	-2.95	-2.9375	-2.7021	-2.9854	-2.5333	-2.7479	-3.0208	-2.7042	-3.0021	-2.8854	-2.9354	-3.2	109.616	244.407	-31.492	298.008	54.617	175.446	146.434	191.430	268.132	297.168	190.267	272.114	-34.065	75.755	0.099	271.792	0.00031881	0.00033705	0.00020966	612.18	3.9504e-06	4.628e-06	891.96	244.19	3.7332e-06	3.8118e-06	370.06	150.09	102.43	48.204	2.0381e-06	75.163	0.00022595	0.0002424	5.9288e-05	587.55	2.411e-06	2.6152e-06	844.03	232.79	2.4617e-06	2.5907e-06	343.16	140.01	96.011	45.485	2.3009e-06	68.367	235.093	47.018	78.718	-41.260	228.413	32.966	-42.148	-34.849	201.966	53.152	-37.943	-33.148	-30.121	-25.528	287.125	-29.560	-8191	255	
2363.621	1	1	0	0	0.21008	0.17656	0.18049	0.37188	0.20889	0.17413	0.1577	0.18564	0.16676	0.1486	0.1724	0.13692	0.11258	0.32512	0.16344	0.36927	-2.0333	-2.7646	-2.8375	-2.4979	-3.0375	-2.8125	-2.7313	-3.2042	-2.8563	-2.8042	-2.9792	-2.7938	-2.7167	-3.0333	-2.5563	-3.1792	273.168	13.854	-1.108	301.469	254.058	17.245	266.396	254.794	158.660	-31.427	283.772	237.112	-10.914	283.364	240.380	239.161	0.00024579	0.00061299	8.3754e-05	612.91	5.273e-06	6.2967e-06	891.06	244.66	2.6225e-06	5.9189e-06	373.9	150.29	102.6	48.356	3.8289e-06	74.99	0.00024027	0.00023131	5.765e-05	587.51	2.6132e-06	2.5068e-06	842.75	232.95	2.6461e-06	2.4507e-06	343.42	140.42	96.619	45.522	2.2373e-06	68.756	218.561	305.952	42.856	-40.939	138.103	82.680	-42.230	-34.942	30.544	86.662	-38.028	-33.331	-30.115	-25.846	97.412	-29.488	-8191	255	
2363.717	1	1	0	0	0.23283	0.10051	0.090252	0.20124	0.17598	0.2121	0.19541	0.087383	0.1061	0.11957	0.32426	0.13495	0.17726	0.16348	0.095438	0.31654	-2.3958	-2.5771	-2.85	-2.6167	-2.7854	-2.7354	-2.8792	-3.05	-2.6688	-2.7604	-3.1604	-2.7458	-2.8063	-2.7958	-2.4125	-3.2438	67.963	222.386	270.259	-44.845	295.070	104.980	195.866	195.275	206.594	304.639	29.878	263.793	280.692	-24.723	91.004	170.223	0.0002624	0.00052706	0.00012925	618.01	1.481e-06	2.9075e-06	897.3	246.1	2.5716e-06	4.5386e-06	377.14	151.67	103.86	48.424	3.181e-06	75.452	0.00025195	0.00022315	5.5972e-05	592.84	2.7015e-06	2.3656e-06	846.54	235.54	2.6573e-06	2.3351e-06	346.61	141.52	97.247	45.6	2.1417e-06	69.267	237.476	-6.478	19.502	-41.132	169.271	7.641	-42.371	-34.902	95.263	95.247	-38.056	-33.249	-29.868	-25.558	117.475	-29.785	-8191	255	
2363.813	1	1	0	0	0.080062	0.15645	0.21834	0.17672	0.2463	0.044283	0.13593	0.22245	0.23628	0.033315	0.18267	0.11921	0.18347	0.091813	0.082872	0.13345	-2.5583	-2.6083	-3.1292	-2.4875	-2.9146	-3.0667	-2.7417	-2.9875	-2.9583	-2.5083	-3.1	-2.8563	-2.7562	-3.1375	-2.5042	-2.9979	241.861	217.721	55.512	171.050	-15.914	151.979	303.527	245.598	79.923	-1.586	168.647	-38.107	248.141	271.270	2.653	291.660	0.00021771	0.0004317	0.00010983	615.57	1.0663e-06	6.0075e-06	897.1	245.73	4.1316e-06	4.5892e-06	374.73	150.29	102.21	48.093	3.2825e-06	75.397	0.00024541	0.00021146	5.4681e-05	594.8	2.6084e-06	2.3329e-06	845.95	235.69	2.6573e-06	2.3796e-06	345.62	141.31	96.279	45.176	2.3296e-06	69.203	212.487	306.808	76.920	-41.100	25.324	22.273	-42.040	-34.881	-19.312	84.702	-37.890	-33.238	-29.784	-25.629	189.131	-29.336	-8191	255	
2363.934	1	1	0	0	0.1829	0.25413	0.15757	0.052435	0.038287	0.082225	0.14535	0.17263	0.19185	0.20028	0.18877	0.22011	0.11079	0.15178	0.10041	0.19052	-2.5479	-2.5625	-2.9562	-2.8083	-2.6188	-3.0458	-2.7917	-2.9646	-3.15	-2.4938	-3.1021	-3.0042	-2.6917	-3.3	-2.6354	-2.9604	115.769	109.709	-28.378	155.942	-34.727	96.487	130.108	240.203	93.367	239.943	211.859	293.669	-28.988	266.937	269.837	286.218	0.00022126	0.00040444	7.8459e-05	615.95	2.4483e-06	6.0531e-06	893.25	243.48	3.5153e-06	4.9832e-06	372.2	150.09	101.47	47.799	1.3721e-06	74.72	0.00024471	0.00021831	5.9472e-05	596.64	2.6031e-06	2.3749e-06	846.79	234.5	2.5484e-06	2.3091e-06	345.07	140.55	95.026	44.773	2.4169e-06	68.573	241.190	36.832	46.097	-41.224	68.667	58.309	-41.986	-34.727	96.970	60.303	-37.759	-33.307	-30.199	-25.842	113.193	-29.827	-8191	255	
2364.006	1	1	0	0	0.17173	0.18946	0.046212	0.44532	0.063172	0.083073	0.3281	0.015064	0.18002	0.17305	0.045584	0.20641	0.15364	0.084707	0.2997	0.3842	-2.5104	-2.5438	-2.9896	-2.9417	-2.4625	-3.2479	-2.7604	-2.6208	-2.9875	-2.5729	-3.0417	-3.0125	-2.6188	-3.2375	-2.775	-2.7292	195.705	161.648	77.858	-19.245	14.697	74.825	245.652	98.386	82.394	188.905	290.459	4.707	-0.732	234.589	160.279	168.955	0.00027129	0.00061217	8.5377e-05	612.58	3.8671e-06	4.8861e-06	890.58	242.68	2.0097e-06	5.111e-06	369.91	149.36	101.47	48.008	3.2127e-06	75.188	0.00022724	0.00020299	6.2491e-05	592.56	2.3984e-06	2.1874e-06	843.87	233.45	2.3868e-06	2.1827e-06	343.95	140.12	94.913	44.945	2.6268e-06	68.781	224.577	-1.362	159.125	-41.008	142.051	19.140	-42.086	-34.943	116.834	134.713	-37.888	-33.275	-30.123	-25.639	220.219	-29.505	-8191	255	
2364.100	1	1	0	0	0.12242	0.15584	0.21547	0.10014	0.069084	0.074694	0.038552	0.20932	0.18084	0.064601	0.33451	0.4058	0.26274	0.23595	0.26161	0.27189	-2.6271	-2.525	-2.7625	-3.0375	-2.5792	-3.2104	-2.7875	-2.6229	-3.0667	-2.5854	-3.0958	-2.7917	-2.5021	-3.1646	-2.5563	-2.6542	210.185	251.044	272.000	299.348	18.638	295.659	236.777	250.512	276.781	265.228	8.709	253.922	212.600	291.040	272.601	258.027	0.00023975	0.00059355	0.00011929	610.9	7.7226e-06	2.2609e-06	889.59	242.99	6.4314e-06	2.6062e-06	373.03	149.45	101.89	48.084	3.6824e-06	74.674	0.00022268	0.00020647	6.9294e-05	591.87	2.4019e-06	2.3136e-06	848.07	233.48	2.3931e-06	2.3314e-06	346.6	140.11	95.013	45.081	2.8489e-06	68.594	215.119	-17.177	95.236	-40.839	117.562	103.837	-42.101	-34.931	77.292	104.916	-37.893	-33.290	-29.976	-25.478	35.495	-29.700	-8191	255	
2364.196	1	1	0	0	0.2003	0.22877	0.080444	0.21986	0.18885	0.20531	0.067876	0.24829	0.15705	0.12143	0.12294	0.10113	0.15787	0.15309	0.11934	0.15572	-2.5417	-2.6229	-2.7229	-2.8542	-2.5687	-2.9583	-2.9146	-2.7771	-2.8583	-2.85	-2.9271	-2.9437	-2.6458	-2.9562	-2.8438	-2.8438	-29.455	65.404	17.011	226.970	-9.111	62.285	230.260	273.184	150.014	296.681	213.579	306.812	-42.851	-28.217	6.965	271.711	0.0002366	0.00040509	0.0001101	607.84	9.9554e-07	3.0514e-06	890.1	242.87	1.8544e-06	5.936e-06	373.75	149.95	100.91	47.605	1.38e-06	74.724	0.00021797	0.00021638	7.1733e-05	589.68	2.3068e-06	2.4189e-06	847.26	232.89	2.2673e-06	2.4575e-06	347.12	140.05	94.333	44.875	2.7525e-06	68.31	238.796	-11.599	151.460	-41.473	105.591	155.296	-42.137	-35.127	128.590	184.607	-38.013	-33.230	-29.893	-25.551	118.802	-29.757	-8191	255	
2364.317	1	1	0	0	0.035739	0.10001	0.16323	0.13702	0.17925	0.062501	0.10454	0.45789	0.11086	0.076534	0.13952	0.25689	0.12552	0.14968	0.19187	0.25237	-2.4354	-2.7771	-2.7417	-2.9417	-2.6208	-2.9125	-2.8854	-2.725	-3.0354	-2.8083	-2.7729	-3.0021	-2.6979	-2.975	-2.95	-2.8146	278.269	188.134	-27.766	123.988	259.049	248.059	61.811	241.874	246.230	-13.028	247.798	-18.289	177.771	-21.761	-49.591	213.872	0.00022	0.00065497	0.00012823	611.04	7.033e-06	1.7899e-06	891.94	241.77	3.1215e-06	5.7914e-06	372.93	149.64	100.42	47.599	2.433e-06	74.354	0.00020561	0.00023061	6.8309e-05	587.98	2.1662e-06	2.5338e-06	845.1	231.35	2.1844e-06	2.6066e-06	345.3	139.34	93.843	44.801	2.6022e-06	67.714	251.205	89.267	53.351	-41.032	110.859	39.243	-42.259	-34.761	161.239	253.945	-37.790	-33.099	-29.894	-25.593	51.788	-29.625	-8191	255	
2364.413	1	1	0	0	0.059005	0.12168	0.12018	0.16384	0.29039	0.050197	0.15071	0.053646	0.21285	0.036443	0.015928	0.069401	0.18458	0.17919	0.32012	0.054779	-2.3917	-2.6146	-2.7313	-3.1312	-2.6104	-3.0354	-2.9729	-2.7979	-2.9792	-2.7438	-2.8896	-3.1292	-2.8063	-3.0083	-3.0625	-2.5979	197.766	-32.951	101.602	274.786	138.963	156.065	-42.913	280.606	130.914	200.003	216.713	211.094	238.569	286.093	123.477	201.750	0.0002467	0.00012021	0.00023465	607.33	4.6199e-06	5.1413e-06	883.61	239.33	2.3218e-06	5.0199e-06	368.37	147.4	100.47	47.137	3.5076e-06	73.843	0.00020861	0.00024636	6.4741e-05	583.57	2.2522e-06	2.7164e-06	839.16	229.34	2.2546e-06	2.735e-06	340.94	137.58	93.512	44.495	2.4723e-06	67.309	223.637	181.315	19.565	-41.242	162.117	115.627	-42.135	-34.960	48.922	136.470	-38.085	-33.296	-29.444	-25.694	85.857	-29.802	-8191	255	
2364.509	1	1	0	0	0.20226	0.12398	0.29173	0.11899	0.29885	0.087466	0.21768	0.29143	0.21025	0.10984	0.14939	0.1234	0.1469	0.083748	0.070913	0.033528	-2.7333	-2.5146	-2.5771	-3.1292	-2.6042	-3.0312	-3.1021	-2.4479	-3.0729	-2.8354	-2.8708	-3.0125	-2.8563	-2.8479	-2.9146	-2.7542	236.157	274.283	99.634	-41.856	256.168	239.752	280.225	-50.351	161.608	100.049	273.337	172.914	-41.236	258.101	83.047	138.330	0.00026498	0.00046674	0.00010132	607.42	1.9988e-06	5.2329e-06	883.03	241.38	4.2808e-06	2.8849e-06	371.35	148.42	100.41	47.547	1.902e-06	74.128	0.00022289	0.00025101	6.1581e-05	582.3	2.4241e-06	2.7054e-06	838.75	229.88	2.4342e-06	2.6922e-06	342.11	138.37	94.574	44.815	2.3532e-06	67.721	229.802	23.671	45.191	-41.019	59.134	131.578	-42.053	-34.985	194.980	124.295	-38.130	-33.326	-30.022	-25.887	137.912	-29.422	-8191	255	
2364.605	1	1	0	0	0.22061	0.10856	0.088111	0.086699	0.20235	0.20495	0.15659	0.23431	0.23072	0.26333	0.095354	0.26331	0.25867	0.039771	0.15975	0.012183	-2.5521	-2.7333	-2.825	-3.0062	-2.7438	-2.8917	-3.0521	-2.7313	-2.7667	-2.8021	-2.6375	-3.1188	-2.6437	-2.7583	-3.2146	-2.6937	189.828	81.596	172.888	-45.994	286.297	286.755	29.496	274.135	3.193	271.085	247.751	11.219	210.831	110.968	63.018	94.859	0.00031314	0.00016746	0.00017412	608.09	2.1308e-06	2.7039e-06	884.63	241.44	1.7601e-06	6.1851e-06	368.93	147.96	99.966	47.206	5.3196e-06	74.41	0.00023608	0.00023888	5.8988e-05	583.19	2.5704e-06	2.5637e-06	838.41	230.49	2.5926e-06	2.5143e-06	340.9	138.19	94.346	44.433	2.2214e-06	67.602	222.697	101.618	70.062	-41.166	111.090	74.345	-42.350	-34.895	240.519	71.318	-37.892	-33.357	-29.919	-25.736	84.036	-29.754	-8191	255	
2364.701	1	1	0	0	0.26836	0.05483	0.1521	0.35566	0.22786	0.17741	0.16055	0.27907	0.33775	0.062665	0.214	0.23499	0.026168	0.25607	0.016865	0.064624	-2.4792	-2.8896	-2.3312	-2.9458	-2.7083	-2.5271	-2.9813	-2.4333	-3.0771	-2.9458	-2.6583	-3.0083	-2.7812	-2.8438	-3.0146	-2.8396	39.275	207.443	104.328	-14.427	42.050	91.488	196.045	251.119	229.463	-3.004	258.562	-37.848	133.575	238.380	-48.631	178.110	0.00024957	0.00033872	8.8822e-05	608.8	3.695e-06	7.5695e-06	889.32	241.74	5.6226e-06	1.0976e-06	372.63	147.48	100	46.944	6.4985e-06	74.16	0.00024719	0.00022177	5.6078e-05	583.73	2.6349e-06	2.3939e-06	839.58	231.53	2.6395e-06	2.3579e-06	342.75	138.74	94.392	44.107	2.1221e-06	67.699	232.111	11.264	4.683	-41.216	119.046	36.008	-42.224	-34.888	128.230	5.492	-37.743	-33.204	-30.107	-25.647	89.018	-29.729	-8191	255	
2364.798	1	1	0	0	0.15972	0.084189	0.36661	0.066985	0.13227	0.30852	0.067907	0.087722	0.14365	0.062232	0.14269	0.26246	0.30699	0.19575	0.20652	0.22773	-2.2687	-3.0458	-2.2646	-3.0146	-2.7979	-2.7646	-3.0229	-2.7542	-2.6375	-2.9354	-2.6729	-3.0104	-2.8396	-2.5396	-3.0583	-2.7875	132.585	162.590	117.853	276.797	18.317	-0.491	242.342	221.470	139.139	-3.627	257.407	287.268	-34.984	200.798	205.858	302.721	0.00021807	0.00063351	9.6075e-05	610.54	4.9914e-06	3.1888e-06	887.53	240.94	6.1833e-06	6.1066e-06	371.59	147.74	99.547	46.825	5.9512e-06	73.71	0.00023724	0.00020514	5.249e-05	585.63	2.519e-06	2.2385e-06	838.45	231	2.5208e-06	2.2386e-06	341.06	138.13	93.502	43.808	2.0626e-06	67.406	225.356	-20.357	33.926	-41.336	124.196	89.889	-42.142	-35.027	78.348	79.593	-37.997	-33.422	-30.473	-25.650	160.026	-29.716	-8191	255	
2364.894	1	1	0	0	0.03681	0.12172	0.13948	0.16684	0.13699	0.14066	0.1472	0.10787	0.10531	0.27103	0.416	0.20255	0.18707	0.1191	0.12178	0.19924	-2.3688	-2.9229	-2.7021	-2.8854	-2.8521	-2.7208	-3.2208	-2.6854	-2.625	-2.8625	-2.6333	-3.0938	-2.8479	-2.675	-3.0687	-2.9208	282.270	196.683	-17.723	-6.659	189.035	233.484	-44.089	-2.345	12.534	270.489	299.579	163.421	-50.765	246.316	277.956	294.186	0.00025556	0.00021904	9.9067e-05	608.7	2.8006e-06	5.8621e-06	884.99	241.73	4.2455e-06	3.6349e-06	373.44	148.4	99.976	46.946	3.1966e-06	73.925	0.0002267	0.00019796	5.2801e-05	588.7	2.406e-06	2.1533e-06	838.27	232.12	2.3836e-06	2.1481e-06	343.24	139.09	93.916	44.056	2.2141e-06	68.006	250.330	164.718	73.559	-41.002	135.985	68.345	-42.224	-35.083	217.285	83.512	-37.909	-33.388	-30.059	-25.502	171.109	-29.476	-8191	255	
2365.014	1	1	0	0	0.14285	0.19367	0.10003	0.3223	0.19535	0.33047	0.24775	0.11227	0.22413	0.056242	0.24484	0.081317	0.17514	0.19179	0.11195	0.16825	-2.625	-2.775	-2.6521	-2.9688	-2.9042	-2.6208	-3.0812	-2.8708	-2.6833	-2.9542	-2.7062	-2.7562	-3.0292	-2.4458	-2.9854	-2.8042	89.276	156.303	178.458	-51.683	104.855	209.508	228.211	-34.235	89.436	173.694	99.017	208.266	291.650	161.303	106.212	208.704	0.00027118	0.00056735	8.0391e-05	606.19	4.4884e-06	2.239e-06	885.91	243.45	5.6097e-07	2.5052e-06	372.6	148.79	100.21	47.146	4.3732e-06	74.242	0.00021887	0.00019541	5.7914e-05	589.34	2.3046e-06	2.0924e-06	840.66	232.88	2.2716e-06	2.0995e-06	344.84	138.97	93.459	44.018	2.4282e-06	67.941	231.253	-10.427	98.166	-40.994	61.583	87.388	-42.233	-35.122	108.848	43.039	-38.265	-33.308	-30.070	-25.794	174.635	-29.731	-8191	255	
2365.109	1	1	0	0	0.23697	0.31774	0.10489	0.24708	0.25571	0.17265	0.060812	0.13602	0.1131	0.09652	0.26539	0.15972	0.21551	0.43499	0.32394	0.039925	-2.2771	-3.0833	-2.5146	-2.9833	-2.8187	-2.7729	-3.0729	-3.05	-2.625	-3.2375	-2.6521	-2.8104	-3.0438	-2.6458	-2.8979	-2.9583	-13.931	245.812	213.298	217.118	179.084	205.072	291.043	50.527	123.452	90.998	-17.756	282.329	265.898	252.210	242.795	241.713	0.00027014	0.00044131	0.00016215	610.76	1.188e-06	5.0095e-06	885.58	241.8	4.2977e-06	3.7059e-06	372.56	147.76	99.863	46.956	3.2223e-06	74.288	0.00021242	0.00019208	6.2545e-05	587.79	2.244e-06	2.0956e-06	842.33	231.78	2.2184e-06	2.0909e-06	345.75	138.32	92.774	43.916	2.5555e-06	67.813	225.227	27.767	96.187	-40.915	131.119	104.583	-42.239	-34.948	80.340	73.384	-37.896	-33.450	-30.096	-25.578	136.374	-29.597	-8191	255	
2365.205	1	1	0	0	0.1533	0.14519	0.039986	0.14544	0.1797	0.22491	0.1011	0.22028	0.12085	0.11771	0.13651	0.12989	0.12969	0.21162	0.25431	0.16105	-2.2375	-2.9958	-2.7521	-2.7	-2.9792	-2.5125	-3.0375	-2.975	-2.6312	-3	-2.8958	-2.6771	-2.9625	-2.8125	-2.8375	-3.0792	174.912	271.574	287.557	298.261	39.195	274.329	1.175	32.257	-27.350	38.743	284.789	263.889	176.121	278.375	106.573	44.370	0.0002219	0.00042024	0.00013251	606.36	3.9647e-06	4.5603e-06	883.08	241.39	4.759e-06	1.6963e-06	370.2	146.51	99.178	46.549	1.5764e-06	73.658	0.00020399	0.00019206	6.5067e-05	583.62	2.1154e-06	2.1379e-06	840.9	230.33	2.1038e-06	2.2036e-06	344.21	137.43	92.168	43.675	2.6078e-06	67.17	224.812	20.821	13.351	-40.963	67.031	15.688	-42.045	-34.957	104.371	211.308	-38.198	-33.418	-30.077	-25.740	84.097	-29.722	-8191	255	
2365.301	1	1	0	0	0.1291	0.15176	0.06528	0.20464	0.14522	0.040587	0.34281	0.16559	0.11616	0.25222	0.40243	0.11535	0.22756	0.36333	0.23419	0.17025	-2.1667	-3.0812	-2.9771	-2.5875	-3.0458	-2.5604	-3.0646	-2.9979	-2.7333	-2.9792	-2.7875	-2.6667	-3.1875	-2.7979	-2.8354	-3.0354	272.050	228.058	109.387	295.271	62.338	277.335	229.437	226.234	-8.338	116.222	186.275	296.431	25.056	-6.062	-11.995	126.405	0.00022467	0.00037769	8.6553e-05	605.13	4.9682e-06	3.2229e-06	886.3	240.9	2.4053e-06	1.7709e-06	372.31	147.55	99.234	46.936	2.7767e-06	73.859	0.00019945	0.00021324	6.6656e-05	581.23	2.1015e-06	2.4215e-06	841.02	230.24	2.1134e-06	2.4481e-06	344.81	137.56	92.644	44.182	2.557e-06	67.564	221.759	35.766	78.081	-41.092	52.995	197.604	-42.101	-35.105	154.777	89.656	-37.985	-33.349	-29.696	-25.209	90.451	-29.622	-8191	255	
2365.397	1	1	0	0	0.11857	0.20879	0.13673	0.27187	0.051653	0.092817	0.24211	0.19448	0.24389	0.20662	0.072313	0.19785	0.1909	0.064743	0.056973	0.17236	-2.2667	-2.9354	-2.9188	-2.5625	-3.075	-2.7354	-2.8063	-3.3667	-2.5125	-3.0354	-2.8187	-2.6188	-3.0271	-2.8458	-2.6833	-3.2458	255.851	1.716	77.103	279.399	301.208	-41.040	294.675	262.812	92.277	265.523	-13.393	-37.307	-16.378	118.576	229.043	-11.267	0.00026904	0.00041573	0.00015945	607.43	1.6498e-06	2.9447e-06	892.22	241.76	2.098e-06	1.0299e-06	374.97	148.23	100.39	46.931	5.3147e-06	74.107	0.00020282	0.00023492	6.4548e-05	583.72	2.147e-06	2.6099e-06	844.32	231.36	2.1896e-06	2.6458e-06	346.58	138.29	93.227	44.335	2.4171e-06	67.528	242.508	53.714	18.594	-41.044	49.865	177.099	-42.148	-34.777	178.741	257.074	-37.937	-33.278	-29.744	-25.517	83.584	-29.646	-8191	255	
2365.493	1	1	0	0	0.2204	0.098204	0.17187	0.30281	0.26233	0.18375	0.068463	0.18642	0.070534	0.11548	0.18353	0.10985	0.24405	0.24249	0.1305	0.057223	-2.075	-2.8312	-2.8833	-2.6417	-2.9562	-2.7229	-2.8063	-3.1375	-2.5875	-2.7917	-2.8479	-2.8229	-2.8479	-2.9542	-2.6396	-3.0708	152.480	189.598	49.265	-40.668	275.822	72.080	-41.584	196.240	-23.204	-31.685	-24.665	-39.109	-17.347	-36.685	142.001	149.337	0.00027672	0.00055103	0.0001363	608.14	1.8504e-06	3.4168e-06	888.27	241.87	2.0125e-06	4.7005e-06	375.38	148.59	99.415	47.078	2.647e-06	74.413	0.00021112	0.00024115	6.0726e-05	583.34	2.2953e-06	2.6543e-06	841.46	230.59	2.3851e-06	2.6926e-06	345.95	138.6	93.771	44.388	2.4109e-06	67.711	234.275	23.506	61.479	-40.927	126.141	87.525	-42.218	-35.013	185.552	69.931	-38.180	-33.059	-29.981	-25.643	77.930	-29.299	-8191	255	
#DATA ENDS
