BOXY.EXE: ISS Imagent and Oximeter Data Acquisition Program Version 0.80
Ascii Record File

#ACQ INFORMATION
2  Detector Channels 
16  External MUX Channels 
1  Auxiliary Channels 
5000  Waveform (CCF) Frequency (Hz)
1  Waveforms Skipped 
30  Waveforms Averaged 
1  Cycles Averaged 
16  Acquisitions per Waveform 
10.0806  Updata Rate (Hz) 

#FILE INFORMATION
TRUE -- External MUX Channel results are PARSED.
FALSE -- AC DC and Phase are NOT grouped.
TRUE -- Companion Program Settings File CREATED.
FALSE -- AC data not excluded
FALSE -- DC data not excluded
FALSE -- Phase data not excluded
FALSE -- Auxillary Chn. data not excluded
Tab delimiters

#CALIBRATION STATE
TRUE -- Waveform Calibration Values APPLIED.


#AUX CALIBRATION VALUES
Val Type	aux-1	

Term	1.0000e+00	
Factor	0.0000e+00	


#WF CALIBRATION VALUES
A = Detector Channel
Val Type	A-AC1	A-AC2	A-AC3	A-AC4	A-AC5	A-AC6	A-AC7	A-AC8	A-AC9	A-AC10	A-AC11	A-AC12	A-AC13	A-AC14	A-AC15	A-AC16	A-DC1	A-DC2	A-DC3	A-DC4	A-DC5	A-DC6	A-DC7	A-DC8	A-DC9	A-DC10	A-DC11	A-DC12	A-DC13	A-DC14	A-DC15	A-DC16	A-Ph1	A-Ph2	A-Ph3	A-Ph4	A-Ph5	A-Ph6	A-Ph7	A-Ph8	A-Ph9	A-Ph10	A-Ph11	A-Ph12	A-Ph13	A-Ph14	A-Ph15	A-Ph16	

Term	0.00000e+00	0.00000e+00	0.00000e+00	0.00000e+00	0.00000e+00	0.00000e+00	0.00000e+00	0.00000e+00	0.00000e+00	0.00000e+00	0.00000e+00	0.00000e+00	0.00000e+00	0.00000e+00	0.00000e+00	0.00000e+00	0.00000e+00	0.00000e+00	0.00000e+00	0.00000e+00	0.00000e+00	0.00000e+00	0.00000e+00	0.00000e+00	0.00000e+00	0.00000e+00	0.00000e+00	0.00000e+00	0.00000e+00	0.00000e+00	0.00000e+00	0.00000e+00	0.00000e+00	0.00000e+00	0.00000e+00	0.00000e+00	0.00000e+00	0.00000e+00	0.00000e+00	0.00000e+00	0.00000e+00	0.00000e+00	0.00000e+00	0.00000e+00	0.00000e+00	0.00000e+00	0.00000e+00	0.00000e+00	
Factor	1.00000e+00	1.00000e+00	1.00000e+00	1.00000e+00	1.00000e+00	1.00000e+00	1.00000e+00	1.00000e+00	1.00000e+00	1.00000e+00	1.00000e+00	1.00000e+00	1.00000e+00	1.00000e+00	1.00000e+00	1.00000e+00	1.00000e+00	1.00000e+00	1.00000e+00	1.00000e+00	1.00000e+00	1.00000e+00	1.00000e+00	1.00000e+00	1.00000e+00	1.00000e+00	1.00000e+00	1.00000e+00	1.00000e+00	1.00000e+00	1.00000e+00	1.00000e+00	X	X	X	X	X	X	X	X	X	X	X	X	X	X	X	X	

B = Detector Channel
Val Type	B-AC1	B-AC2	B-AC3	B-AC4	B-AC5	B-AC6	B-AC7	B-AC8	B-AC9	B-AC10	B-AC11	B-AC12	B-AC13	B-AC14	B-AC15	B-AC16	B-DC1	B-DC2	B-DC3	B-DC4	B-DC5	B-DC6	B-DC7	B-DC8	B-DC9	B-DC10	B-DC11	B-DC12	B-DC13	B-DC14	B-DC15	B-DC16	B-Ph1	B-Ph2	B-Ph3	B-Ph4	B-Ph5	B-Ph6	B-Ph7	B-Ph8	B-Ph9	B-Ph10	B-Ph11	B-Ph12	B-Ph13	B-Ph14	B-Ph15	B-Ph16	

Term	0.00000e+00	0.00000e+00	0.00000e+00	0.00000e+00	0.00000e+00	0.00000e+00	0.00000e+00	0.00000e+00	0.00000e+00	0.00000e+00	0.00000e+00	0.00000e+00	0.00000e+00	0.00000e+00	0.00000e+00	0.00000e+00	0.00000e+00	0.00000e+00	0.00000e+00	0.00000e+00	0.00000e+00	0.00000e+00	0.00000e+00	0.00000e+00	0.00000e+00	0.00000e+00	0.00000e+00	0.00000e+00	0.00000e+00	0.00000e+00	0.00000e+00	0.00000e+00	-9.50698e+01	-1.34209e+02	-1.30506e+02	-1.80748e+02	-5.50128e+01	-6.60304e+01	-1.57031e+02	-1.62015e+02	-5.45825e+01	-5.31485e+01	-1.71629e+02	-1.71410e+02	-1.83807e+02	-1.76817e+02	-5.88180e+01	-1.49577e+02	
Factor	1.70242e-05	1.65196e-04	5.02263e-05	1.72618e-01	1.54288e-06	1.59518e-06	1.73682e-01	5.09113e-02	1.15026e-06	1.72375e-06	8.36987e-02	3.22256e-02	4.11735e-02	9.43077e-03	1.40902e-06	1.35806e-02	3.22070e-06	3.66523e-06	1.02384e-06	8.63279e-02	3.97030e-08	4.03732e-08	8.18899e-02	2.56352e-02	3.97281e-08	4.04783e-08	4.06540e-02	1.57543e-02	2.06171e-02	4.74922e-03	4.00296e-08	6.62632e-03	X	X	X	X	X	X	X	X	X	X	X	X	X	X	X	X	



#DISTANCE SETTINGS
A = Detector Channel
A-1	A-2	A-3	A-4	A-5	A-6	A-7	A-8	A-9	A-10	A-11	A-12	A-13	A-14	A-15	A-16	

2.5000e+00	3.0000e+00	2.5000e+00	3.0000e+00	2.0000e+00	3.0000e+00	1.5000e+00	3.0000e+00	3.0000e+00	3.0000e+00	3.0000e+00	3.0000e+00	3.0000e+00	3.0000e+00	1.5000e+00	3.0000e+00	

B = Detector Channel
B-1	B-2	B-3	B-4	B-5	B-6	B-7	B-8	B-9	B-10	B-11	B-12	B-13	B-14	B-15	B-16	

1.0000e+01	1.0000e+01	1.0000e+01	1.4400e+00	1.0000e+01	1.0000e+01	1.5100e+00	1.9400e+00	1.0000e+01	1.0000e+01	1.9900e+00	2.4900e+00	2.4100e+00	2.9000e+00	1.0000e+01	2.9800e+00	




#DATA BEGINS
time	group	step	mark	flag	A-AC1	A-AC2	A-AC3	A-AC4	A-AC5	A-AC6	A-AC7	A-AC8	A-AC9	A-AC10	A-AC11	A-AC12	A-AC13	A-AC14	A-AC15	A-AC16	A-DC1	A-DC2	A-DC3	A-DC4	A-DC5	A-DC6	A-DC7	A-DC8	A-DC9	A-DC10	A-DC11	A-DC12	A-DC13	A-DC14	A-DC15	A-DC16	A-Ph1	A-Ph2	A-Ph3	A-Ph4	A-Ph5	A-Ph6	A-Ph7	A-Ph8	A-Ph9	A-Ph10	A-Ph11	A-Ph12	A-Ph13	A-Ph14	A-Ph15	A-Ph16	B-AC1	B-AC2	B-AC3	B-AC4	B-AC5	B-AC6	B-AC7	B-AC8	B-AC9	B-AC10	B-AC11	B-AC12	B-AC13	B-AC14	B-AC15	B-AC16	B-DC1	B-DC2	B-DC3	B-DC4	B-DC5	B-DC6	B-DC7	B-DC8	B-DC9	B-DC10	B-DC11	B-DC12	B-DC13	B-DC14	B-DC15	B-DC16	B-Ph1	B-Ph2	B-Ph3	B-Ph4	B-Ph5	B-Ph6	B-Ph7	B-Ph8	B-Ph9	B-Ph10	B-Ph11	B-Ph12	B-Ph13	B-Ph14	B-Ph15	B-Ph16	aux-1	digaux	

2387.555	1	1	0	256	0.16372	0.075907	0.15253	0.25919	0.30284	0.1496	0.21935	0.41097	0.12256	0.11844	0.11903	0.12585	0.10616	0.094528	0.36672	0.099931	-2.2167	-2.7854	-2.6875	-2.7646	-2.8604	-2.6167	-2.9437	-2.8812	-2.5917	-2.8063	-2.8021	-2.5312	-2.925	-2.6479	-2.8854	-2.8896	66.788	249.355	370.902	28.277	52.145	184.944	254.982	308.804	122.710	297.530	198.506	73.420	260.593	43.619	209.685	254.963	0.00015982	0.00041829	7.584e-05	1263.4	3.5358e-06	2.8801e-06	1336.9	263.32	2.2497e-06	3.4214e-06	327.88	90.495	71.109	20.904	1.6411e-06	29.325	0.0002991	0.00029995	8.4354e-05	1232	3.3823e-06	3.2726e-06	1303.1	260.48	3.3011e-06	3.2538e-06	323.31	90.568	71.146	21.094	3.1548e-06	29.548	196.307	140.639	96.468	38.167	200.068	182.680	38.488	45.513	215.493	193.921	45.125	52.098	52.294	58.744	158.702	58.287	-8191	255	
2387.652	1	1	0	0	0.23107	0.086078	0.16239	0.22158	0.16462	0.25614	0.044911	0.26263	0.084265	0.19373	0.13699	0.13735	0.17234	0.080534	0.036041	0.17435	-2.0792	-2.9771	-2.7958	-2.7812	-3.0729	-2.6583	-2.7333	-3.125	-2.6958	-2.8521	-2.8146	-2.5771	-2.9375	-2.8292	-2.575	-2.9333	346.667	372.289	53.232	361.458	131.132	270.454	305.859	371.865	49.178	184.187	135.324	139.563	357.058	160.189	346.606	360.137	0.00020902	0.00047186	2.4022e-05	1263.5	3.4192e-06	4.6447e-06	1334.9	262.89	5.8499e-06	4.1998e-06	326.22	89.95	71.284	20.952	2.1369e-06	29.494	0.00028527	0.00029072	7.9998e-05	1235.5	3.2792e-06	3.1921e-06	1305.9	259.99	3.348e-06	3.3041e-06	322.66	90.581	71.317	21.064	3.5943e-06	29.561	189.667	89.685	285.762	38.373	198.368	149.849	38.696	45.631	182.191	148.736	45.027	52.152	52.221	58.476	257.541	58.891	-8191	255	
2387.770	1	1	0	0	0.10894	0.079567	0.18325	0.32085	0.27759	0.18017	0.13648	0.11979	0.11868	0.18733	0.21063	0.12185	0.30391	0.12438	0.15632	0.15778	-1.9521	-2.8771	-2.8	-2.8688	-2.9583	-2.65	-2.7938	-2.9625	-2.3271	-2.7771	-2.9625	-2.75	-2.8833	-2.7521	-2.8042	-2.9646	104.332	312.112	215.466	347.718	296.320	51.632	299.116	364.230	248.214	184.360	325.382	316.079	36.726	130.808	177.400	90.093	0.0001619	0.00025808	0.00012494	1257.7	1.2164e-06	5.9642e-06	1330	263.76	3.6717e-06	3.0708e-06	327.56	90.178	70.728	20.979	2.4554e-06	29.111	0.00032119	0.00032576	9.3946e-05	1229.8	3.7192e-06	3.7352e-06	1300.1	260.59	3.7694e-06	3.7063e-06	323.2	90.468	71.208	21.096	3.585e-06	29.432	183.211	77.570	128.050	38.423	186.347	159.591	38.645	45.772	210.384	189.551	45.331	52.218	52.639	58.445	214.728	58.602	-8191	255	
2387.842	1	1	0	0	0.31144	0.024957	0.18941	0.11696	0.24358	0.33087	0.34388	0.32376	0.032688	0.12083	0.076652	0.11606	0.062882	0.22693	0.067879	0.33956	-1.9813	-2.7021	-2.7104	-2.7417	-2.8146	-2.8021	-2.9021	-2.9354	-2.6833	-2.8167	-2.95	-2.5167	-3.0125	-2.7896	-2.6646	-3.0062	234.723	291.046	286.465	222.230	93.951	377.139	286.603	184.574	166.486	361.985	45.157	298.849	356.042	348.108	376.201	154.411	0.00021317	0.00015107	9.034e-05	1257.4	5.0309e-06	4.4342e-06	1325.1	263.66	4.298e-06	3.9948e-06	326.08	89.546	70.73	20.81	4.8803e-06	29.259	0.00031174	0.00032306	8.9701e-05	1227.2	3.6356e-06	3.531e-06	1297.7	260.33	3.5285e-06	3.4955e-06	322.25	90.02	70.796	20.995	3.4779e-06	29.504	183.028	117.239	96.955	38.634	191.605	160.053	38.628	45.730	191.470	239.211	45.009	52.245	52.613	58.535	212.862	58.513	-8191	255	
2387.940	1	1	0	0	0.048256	0.09242	0.20577	0.20548	0.078056	0.15672	0.3257	0.52291	0.3054	0.24281	0.097826	0.10473	0.090236	0.072632	0.10189	0.15981	-2.1937	-2.7188	-2.7938	-2.6646	-2.8646	-2.7271	-2.9479	-3.1021	-2.6104	-2.6771	-2.9562	-2.7812	-3.0146	-2.9437	-2.5417	-3.0333	180.402	235.770	178.526	351.634	121.374	146.503	374.172	305.452	371.994	123.880	29.726	117.132	381.036	165.861	105.007	349.235	0.0001981	0.00030302	0.00011739	1255.3	1.634e-06	3.3833e-06	1326.2	263.29	1.8695e-06	2.2548e-06	326.91	90.095	70.992	20.765	2.71e-06	29.455	0.00029824	0.00031176	8.599e-05	1224.7	3.4263e-06	3.398e-06	1296.2	259.77	3.4667e-06	3.3523e-06	322.38	90.132	70.921	20.995	3.2631e-06	29.567	188.151	115.925	97.523	38.228	66.859	82.296	38.870	45.579	199.966	173.097	45.112	52.250	52.389	58.500	201.217	58.292	-8191	255	
2388.059	1	1	0	0	0.1803	0.049392	0.22812	0.34825	0.035647	0.21681	0.3528	0.14792	0.11801	0.043723	0.20753	0.035818	0.23921	0.2328	0.16877	0.15729	-2.2083	-2.6562	-2.9417	-2.875	-2.8417	-2.8271	-2.8292	-3.0687	-2.7542	-2.6771	-3.0125	-2.7375	-2.7021	-2.6854	-2.6708	-3.0062	67.174	292.897	176.292	331.125	339.273	66.670	297.604	300.877	385.642	229.047	302.009	383.425	362.083	217.897	28.658	288.622	0.00019518	0.00050254	0.00017157	1249	2.8456e-06	5.1951e-06	1326.3	262.16	2.8766e-06	6.5701e-06	323.79	89.552	70.657	20.769	2.7711e-06	29.13	0.00029532	0.00029976	8.2477e-05	1221.2	3.2376e-06	3.0855e-06	1294.9	259	3.0547e-06	3.0125e-06	320.89	89.844	70.472	20.917	2.8572e-06	29.28	178.883	138.601	77.205	38.307	143.825	197.497	38.799	45.429	216.105	182.491	45.241	52.166	52.638	58.769	205.029	58.321	-8191	255	
2388.155	1	1	0	0	0.19472	0.090996	0.29017	0.26767	0.077919	0.16704	0.20292	0.22651	0.22631	0.1956	0.10382	0.17415	0.23997	0.11193	0.11362	0.064933	-2.2958	-2.5646	-2.7854	-2.8792	-2.8542	-2.7521	-2.6896	-2.9792	-2.6542	-2.7208	-2.8104	-2.7208	-2.7313	-2.9062	-2.5917	-2.8563	46.539	105.026	212.621	337.350	327.377	54.911	213.310	328.312	141.716	120.741	327.050	265.995	115.567	237.158	279.424	296.868	0.0001857	0.00037091	0.00011971	1245.4	3.057e-06	4.9268e-07	1317.8	260.48	1.7739e-06	2.4185e-06	325.46	90.009	70.711	20.734	3.4818e-06	29.202	0.00025926	0.00026384	7.1061e-05	1215.9	2.8687e-06	2.8167e-06	1288	257.67	2.9716e-06	2.9603e-06	320.26	89.827	70.433	20.88	2.9789e-06	29.327	190.113	150.242	106.563	38.465	163.877	67.350	38.687	45.336	225.922	259.387	45.275	52.363	52.388	58.500	146.514	58.461	-8191	255	
2388.251	1	1	0	0	0.083676	0.1553	0.274	0.045995	0.047949	0.074882	0.18804	0.064771	0.26193	0.11219	0.073581	0.15539	0.065199	0.12047	0.029752	0.087423	-2.3521	-2.5521	-3.0438	-2.8521	-2.7687	-2.8917	-2.8667	-2.8646	-2.6188	-2.5354	-2.8542	-2.8396	-2.6312	-3.05	-2.6917	-2.9625	340.848	230.396	151.565	68.807	161.745	360.334	39.040	141.065	67.467	282.708	306.078	197.870	128.208	374.743	186.793	28.895	0.00023507	0.00053461	8.8066e-05	1245.6	4.8507e-06	1.3684e-06	1312.3	261.3	1.595e-06	4.4674e-06	323.82	88.56	69.313	20.638	4.8017e-06	29.031	0.00027452	0.00027375	7.7938e-05	1215.5	3.0413e-06	2.9638e-06	1282.4	257.37	2.9034e-06	2.9073e-06	318.7	88.768	69.765	20.709	2.7951e-06	29.183	180.040	163.688	98.938	38.303	208.594	223.924	38.742	45.690	287.560	199.245	45.270	52.122	52.621	58.526	173.827	58.436	-8191	255	
2388.372	1	1	0	0	0.21844	0.11102	0.17312	0.26179	0.23062	0.34891	0.2859	0.17058	0.091613	0.31798	0.15788	0.0081365	0.17103	0.31339	0.21486	0.064323	-2.45	-2.5854	-2.8833	-2.8646	-2.7333	-2.9	-2.8292	-2.8042	-2.9792	-2.4646	-2.8271	-2.5771	-2.6688	-2.8729	-2.6688	-2.7812	39.937	156.940	234.413	303.650	345.823	81.998	46.572	315.479	113.761	129.430	70.214	348.551	329.751	380.107	202.443	182.936	0.00017794	0.00043598	0.00014438	1229	4.0747e-06	3.6512e-06	1295	257.53	2.1628e-06	4.1995e-06	320.85	88.069	69.034	20.466	1.1845e-06	28.879	0.00025257	0.00025718	7.0011e-05	1198.7	2.8422e-06	2.7902e-06	1266.9	254.21	2.7876e-06	2.7989e-06	315.78	88.316	68.978	20.547	2.7329e-06	28.924	193.865	129.749	154.147	38.343	200.001	223.509	38.835	45.757	201.425	190.599	45.153	52.375	52.646	58.807	303.725	58.618	-8191	255	
2388.468	1	1	0	0	0.065359	0.20424	0.090725	0.10592	0.31375	0.15854	0.37073	0.28385	0.011524	0.17488	0.18834	0.15453	0.21338	0.20512	0.14074	0.18879	-2.4417	-2.625	-2.9188	-2.7625	-2.6021	-2.9458	-2.8083	-2.8604	-2.9583	-2.6583	-3.1188	-2.6688	-2.6229	-3.2125	-2.5854	-2.8479	289.007	119.145	125.932	54.740	163.580	110.504	323.175	286.840	87.984	335.715	292.934	125.553	358.841	219.813	297.917	349.130	0.00020267	0.00030128	4.9783e-05	1222.1	4.6112e-06	3.471e-06	1286.1	256.2	5.5317e-07	2.7184e-06	318.83	87.831	68.507	20.47	2.3085e-06	29.083	0.00024438	0.00024925	6.8098e-05	1189	2.7327e-06	2.7335e-06	1258.4	252.66	2.6645e-06	2.6463e-06	314.07	88	68.556	20.497	2.7085e-06	28.889	188.804	114.500	81.910	38.586	187.902	156.781	38.632	45.639	261.714	174.133	45.273	52.401	52.868	59.098	190.969	58.712	-8191	255	
2388.540	1	1	0	0	0.4152	0.090009	0.087297	0.04852	0.19589	0.23166	0.30959	0.36227	0.13404	0.13912	0.21775	0.079768	0.055576	0.046096	0.33016	0.08513	-2.4479	-2.5792	-2.8833	-2.9958	-2.5396	-2.9313	-2.9646	-2.7792	-2.9188	-2.6813	-2.9271	-2.7667	-2.7667	-3.0438	-2.7229	-2.6979	312.849	302.576	67.059	98.492	354.014	177.287	302.690	301.847	67.230	262.973	323.396	384.874	323.497	334.834	148.738	303.913	0.00019402	0.00042454	3.6503e-05	1211.4	4.0218e-06	2.8432e-06	1285.3	255.24	4.0818e-06	5.136e-06	316.98	87.843	68.907	20.317	2.2541e-06	28.918	0.00024391	0.00025129	6.8644e-05	1184.2	2.7889e-06	2.7438e-06	1255.8	252.13	2.7386e-06	2.6797e-06	312.92	88.033	68.794	20.451	2.618e-06	28.879	185.149	121.495	94.559	38.463	153.693	200.267	38.728	46.168	202.024	185.205	45.392	52.849	52.497	58.578	210.215	58.661	-8191	255	
2388.660	1	1	0	0	0.22502	0.1495	0.033553	0.36794	0.20192	0.13065	0.47472	0.23639	0.15356	0.27645	0.13554	0.16051	0.26346	0.12672	0.14319	0.19668	-2.4729	-2.5292	-2.7438	-3.1417	-2.6583	-2.8104	-2.9354	-2.7542	-2.8708	-2.7062	-2.7458	-3.1604	-2.5792	-2.7854	-2.9979	-2.6667	50.736	127.053	366.975	376.270	139.087	307.543	353.246	352.347	229.817	110.480	319.146	86.816	250.048	35.777	385.756	41.849	0.00018557	0.00058655	0.00011232	1206.2	3.9659e-06	1.7645e-06	1279.9	254.02	3.2007e-06	6.1307e-06	316.25	87.382	68.592	20.273	4.2241e-06	28.7	0.0002339	0.00022983	6.2766e-05	1178.6	2.5878e-06	2.4761e-06	1251.5	250.79	2.5305e-06	2.4876e-06	311.8	87.191	68.319	20.373	2.5336e-06	28.752	189.845	109.639	146.359	38.576	192.848	193.182	38.655	45.483	204.660	196.587	45.042	52.726	52.261	58.633	217.979	58.313	-8191	255	
2388.755	1	1	0	0	0.073981	0.0091195	0.053991	0.3361	0.1207	0.21951	0.056046	0.12965	0.087306	0.14333	0.11425	0.23294	0.24463	0.12866	0.031382	0.1529	-2.5146	-2.5625	-2.7375	-3	-2.5896	-2.8812	-2.9229	-2.725	-3.1042	-2.5938	-2.8125	-2.9542	-2.7021	-2.8208	-2.7938	-2.4354	120.179	121.066	169.307	338.532	373.028	199.158	60.826	338.214	29.331	204.999	309.453	317.640	82.595	371.059	315.525	70.753	0.00018426	0.00035617	0.00011168	1213.7	3.7515e-06	2.3336e-06	1278.2	253.62	3.4123e-06	1.2473e-06	315.92	87.13	68.011	20.315	1.9614e-06	28.57	0.00022832	0.00022726	6.2055e-05	1181.5	2.4707e-06	2.4544e-06	1248.4	250.43	2.4883e-06	2.3738e-06	310.79	86.94	67.729	20.263	2.3156e-06	28.47	184.569	178.538	83.028	38.690	213.255	185.761	39.023	45.769	185.017	225.731	45.264	52.520	52.740	58.808	234.625	58.810	-8191	255	
2388.851	1	1	0	0	0.10467	0.13439	0.081427	0.13694	0.099306	0.11432	0.18717	0.43143	0.24907	0.10433	0.083497	0.074841	0.092318	0.12391	0.15786	0.281	-2.6479	-2.5792	-2.5583	-3.2167	-2.6354	-2.925	-2.9875	-2.5417	-2.9188	-2.6417	-2.7958	-3.0625	-2.6583	-2.8125	-2.9896	-2.775	87.767	193.303	220.388	318.429	269.190	251.042	309.042	378.275	54.690	181.898	374.589	210.261	356.568	324.942	369.716	380.558	0.00018897	0.00035778	8.7664e-05	1192.6	3.6567e-06	1.7829e-06	1261.1	249.72	1.4685e-06	3.7823e-06	312.62	86.466	67.182	19.866	3.3315e-06	27.92	0.00021608	0.00021107	5.8662e-05	1165.3	2.3407e-06	2.2531e-06	1233.7	246.98	2.2521e-06	2.2053e-06	307.45	85.941	66.905	19.918	2.1515e-06	28.077	180.873	120.096	103.444	38.550	172.168	326.303	38.750	45.857	285.884	204.721	45.463	52.463	52.629	58.784	197.814	58.892	-8191	255	
2388.947	1	1	0	0	0.19882	0.13254	0.093512	0.094594	0.046727	0.1756	0.17587	0.09857	0.10864	0.23651	0.23474	0.18167	0.23605	0.030989	0.20574	0.10295	-2.4958	-2.4938	-2.7	-2.9458	-2.5479	-2.8917	-3.0479	-2.7583	-2.7208	-2.8688	-2.8563	-2.9083	-2.7042	-2.8271	-2.9021	-2.9188	94.152	230.469	364.653	112.609	40.361	76.223	302.503	245.981	324.802	380.678	182.641	261.618	167.089	330.559	114.120	69.526	0.00018608	0.00056541	0.00010648	1181.4	3.6506e-06	3.5348e-06	1245.6	247.88	3.934e-06	2.3049e-06	309.74	85.759	67.154	19.829	3.0449e-06	28.167	0.00019772	0.00018973	5.4925e-05	1150.8	2.1658e-06	2.1035e-06	1220.7	243.64	2.1831e-06	2.1073e-06	304.34	85.236	66.454	19.814	2.1554e-06	28.076	190.410	118.385	77.094	38.756	226.537	167.575	38.606	45.878	212.557	178.471	45.567	52.392	52.651	58.821	195.191	58.835	-8191	255	
2389.068	1	1	0	0	0.21856	0.090583	0.12115	0.1391	0.23723	0.2149	0.013602	0.064384	0.24515	0.12168	0.16534	0.2063	0.28976	0.13223	0.045808	0.21287	-2.3833	-2.8479	-2.4458	-3.1083	-2.7917	-2.6583	-3.1375	-2.7979	-2.9125	-2.7417	-2.9104	-2.9875	-2.8563	-2.5958	-2.9938	-2.6562	310.935	120.213	220.489	360.028	179.036	338.122	311.070	136.959	69.458	220.009	211.950	245.054	310.264	65.591	243.641	256.032	0.00018492	0.00023044	0.00010973	1179.4	2.7262e-06	3.5749e-06	1243.3	246.03	3.7065e-06	2.1488e-06	309.56	86.039	66.831	19.669	4.0911e-06	27.936	0.00020008	0.00019282	5.415e-05	1148.3	2.1731e-06	2.1505e-06	1218	242.97	2.2662e-06	2.2071e-06	303.77	85.415	66.373	19.797	2.1924e-06	28.033	183.316	36.177	81.799	38.556	228.289	190.260	38.805	45.840	204.445	233.697	45.495	52.672	52.992	59.053	186.539	58.794	-8191	255	
2389.139	1	1	0	0	0.12643	0.1001	0.29016	0.33785	0.13081	0.126	0.18618	0.19055	0.26878	0.13378	0.11665	0.12288	0.17552	0.18287	0.08718	0.12406	-2.4208	-2.8271	-2.5229	-3.0583	-2.7729	-2.5375	-3	-2.5917	-2.8458	-2.9229	-2.5354	-2.8688	-3.0229	-2.7396	-2.8021	-2.6208	184.005	178.342	288.447	313.832	51.375	165.241	369.994	244.845	291.974	118.764	45.677	186.042	61.846	334.123	280.897	64.474	0.00020223	0.00024699	0.00013071	1174.2	4.0609e-06	3.143e-06	1244.6	245.33	2.1882e-06	1.9396e-06	306.73	85.669	66.373	19.707	1.1057e-06	27.848	0.0002032	0.00019412	5.5789e-05	1145.7	2.2471e-06	2.1195e-06	1218.5	242.54	2.197e-06	2.1394e-06	303	85.256	66.127	19.743	2.12e-06	27.984	192.228	108.144	113.734	38.629	203.072	167.413	38.872	45.951	194.281	174.928	45.364	52.494	52.600	59.036	153.433	58.529	-8191	255	
2389.235	1	1	0	0	0.16426	0.016046	0.15761	0.16508	0.17429	0.14995	0.12064	0.074962	0.10535	0.27641	0.3155	0.17993	0.02654	0.38976	0.19256	0.19323	-2.1875	-2.8271	-2.4708	-2.8917	-2.7146	-2.7188	-3.1729	-2.6688	-2.7271	-2.9313	-2.6958	-2.8542	-2.6229	-2.6479	-3.0687	-2.7938	299.527	86.945	285.052	366.808	177.160	304.974	284.271	52.238	109.512	32.904	86.236	80.604	34.472	71.266	145.898	62.783	0.00015969	0.00018153	0.00012329	1169.2	5.7497e-06	4.4789e-06	1245.1	245.69	3.2413e-06	1.8285e-06	307.3	85.128	66.735	19.68	2.6326e-06	27.911	0.00020048	0.00019278	5.4129e-05	1142.6	2.158e-06	2.1139e-06	1214.7	241.69	2.1177e-06	2.0467e-06	302.59	84.859	66.06	19.691	2.0111e-06	27.886	191.163	159.725	138.418	38.844	239.708	153.673	38.565	45.862	199.961	141.928	45.315	52.558	52.627	59.112	182.814	58.929	-8191	255	
2389.332	1	1	0	0	0.076871	0.22198	0.2341	0.057997	0.18386	0.16833	0.093219	0.26548	0.098312	0.23331	0.11465	0.016321	0.079727	0.10881	0.092567	0.25745	-2.1375	-2.9042	-2.6167	-2.8729	-2.9833	-2.7479	-3.0958	-2.7396	-2.4958	-2.8583	-2.7125	-2.7208	-2.8375	-2.3937	-2.8167	-2.7979	43.677	258.987	137.004	303.436	194.758	187.526	353.255	231.904	68.333	347.037	116.284	284.079	273.383	244.015	278.660	335.858	0.00016911	0.00048595	8.9261e-05	1174.8	4.1418e-06	1.1351e-06	1240.4	244.79	4.0707e-06	3.6328e-06	306.83	85.393	66.375	19.707	2.938e-06	28.093	0.00019257	0.00018169	5.3777e-05	1141.2	2.0475e-06	2.0198e-06	1211.3	241.41	2.0545e-06	2.0156e-06	301.56	84.892	66.049	19.696	2.0696e-06	27.961	188.519	133.004	136.294	38.658	199.473	207.453	38.828	45.671	212.301	181.153	45.491	52.855	52.976	59.094	216.775	58.936	-8191	255	
2389.452	1	1	0	0	0.15996	0.28216	0.10751	0.20641	0.064663	0.16372	0.15461	0.16915	0.082183	0.090456	0.078123	0.11708	0.31683	0.22662	0.20753	0.11492	-2.3354	-2.9	-2.4417	-3.0021	-2.8792	-2.6604	-2.9292	-2.7792	-2.8208	-2.8187	-2.7958	-2.7771	-2.8958	-2.6146	-3.0042	-2.8792	106.115	145.185	376.986	310.896	50.281	294.370	295.646	311.232	334.254	163.486	332.159	58.505	310.625	183.142	310.488	326.722	0.00022377	0.00022298	0.00011586	1167.5	4.6155e-06	2.5134e-06	1241.9	245.57	3.3146e-06	1.495e-06	308.5	85.229	66.281	19.651	2.4442e-06	27.959	0.00019739	0.00019296	5.4419e-05	1140.2	2.1131e-06	2.1775e-06	1212.3	241.92	2.1625e-06	2.1056e-06	302.6	85.286	66.015	19.759	2.221e-06	27.971	180.611	82.182	74.333	38.609	206.137	207.978	38.953	45.780	202.089	103.488	45.170	52.733	52.631	59.206	275.237	58.860	-8191	255	
2389.548	1	1	0	0	0.044974	0.10875	0.29004	0.12119	0.11796	0.080999	0.04511	0.014794	0.10927	0.18648	0.2193	0.29869	0.12067	0.24009	0.030912	0.081444	-2.1667	-2.8729	-2.6292	-2.8854	-3.05	-2.6125	-3.075	-2.7271	-2.8042	-2.8458	-2.8208	-3	-2.975	-2.6479	-2.7833	-2.8042	52.976	314.982	303.575	337.294	186.671	318.245	272.537	111.127	319.114	385.920	330.320	369.894	139.606	294.133	174.292	217.983	0.0001958	0.00050771	9.9738e-05	1179.4	4.0071e-06	1.5659e-07	1248.2	247.63	2.7062e-06	2.2298e-06	311.21	86.81	68.068	20.034	1.7026e-06	28.319	0.00020708	0.00020208	5.8318e-05	1150.7	2.4426e-06	2.3871e-06	1226.1	244.66	2.5683e-06	2.6059e-06	307.39	86.72	67.74	20.164	2.8559e-06	28.549	175.924	121.575	91.180	38.614	193.428	146.543	38.811	45.920	203.552	232.179	45.551	52.379	52.452	58.958	182.632	58.699	-8191	255	
2389.643	1	1	0	0	0.052292	0.11579	0.1735	0.19695	0.033432	0.10049	0.16902	0.089035	0.13656	0.13508	0.11678	0.052235	0.15789	0.02606	0.07712	0.090406	-2.2042	-2.8458	-2.5438	-2.95	-2.8958	-2.575	-2.8771	-2.9354	-2.4625	-2.9854	-2.7625	-2.8021	-2.9792	-2.725	-2.8667	-2.8167	176.281	214.396	204.077	311.938	134.355	95.870	353.555	196.346	370.069	73.927	377.416	374.464	81.918	272.715	208.060	370.126	0.00021666	0.00020029	0.00025301	1215.1	5.5895e-06	3.9006e-06	1287.3	254.28	5.0108e-06	6.4905e-06	319.74	88.067	68.993	20.338	3.6178e-06	28.684	0.00025795	0.00026201	7.4574e-05	1185.6	3.0529e-06	2.9651e-06	1261.3	251.57	3.1068e-06	3.0869e-06	314.42	88.26	69.164	20.498	3.128e-06	28.917	191.668	198.527	146.824	38.523	239.057	147.144	38.763	45.625	210.659	179.990	45.508	52.303	52.701	58.599	219.656	58.263	-8191	255	
2389.741	1	1	0	0	0.18763	0.11563	0.19052	0.12237	0.32574	0.33624	0.42055	0.053414	0.16115	0.29894	0.10605	0.13059	0.055204	0.22499	0.025008	0.22447	-2.1625	-2.7521	-2.7542	-2.8563	-3.0979	-2.6937	-2.9167	-2.8646	-2.5854	-2.725	-3.0042	-2.7833	-2.9333	-2.5438	-2.7917	-3.0479	274.448	327.546	242.258	311.068	315.593	386.177	287.654	74.494	220.502	271.850	334.991	247.913	76.152	228.136	134.936	381.011	0.00020456	0.00058318	0.00013571	1231.4	6.5917e-06	4.3639e-06	1301.3	256.46	2.5582e-06	2.6243e-06	319.96	88.041	69.121	20.477	4.1337e-06	28.885	0.0002734	0.00028105	7.7298e-05	1200.9	3.1228e-06	3.0554e-06	1271.7	253.36	3.0543e-06	3.035e-06	315.04	88.137	69.154	20.523	2.996e-06	28.875	183.386	103.162	114.289	38.171	204.899	179.724	38.692	45.744	272.512	156.252	45.288	52.380	52.950	58.522	211.592	58.416	-8191	255	
2389.835	1	1	0	0	0.18158	0.3055	0.22268	0.26312	0.056916	0.062138	0.20661	0.095346	0.21737	0.055234	0.058404	0.17964	0.08454	0.19341	0.208	0.067972	-2.1708	-2.5812	-2.7417	-2.7562	-3.0396	-2.5458	-2.9313	-2.8542	-2.5771	-2.9854	-2.7938	-2.6917	-2.9042	-2.7229	-2.4458	-2.9	64.364	172.356	121.042	335.352	145.031	216.426	301.768	343.269	202.966	171.793	255.487	258.176	360.906	126.129	347.840	281.807	0.00018829	0.00038165	5.3125e-05	1227.7	3.0365e-06	2.5208e-06	1295.6	255.88	1.9229e-06	2.2537e-06	319.89	88.41	68.811	20.38	2.6212e-06	28.846	0.00027547	0.00027759	7.7748e-05	1197.5	3.068e-06	3.0817e-06	1268.1	253.27	3.0783e-06	3.0368e-06	314.73	88.079	68.876	20.474	3.0508e-06	28.864	176.878	94.530	111.625	38.405	259.883	86.681	38.547	45.526	291.386	141.823	45.589	52.351	52.068	58.779	170.742	58.515	-8191	255	
2389.931	1	1	0	0	0.18834	0.13434	0.091281	0.19313	0.10349	0.21923	0.092593	0.24084	0.087114	0.061549	0.15602	0.13464	0.2804	0.10103	0.16443	0.17541	-2.1375	-2.8688	-2.8125	-2.7	-3.0938	-2.8333	-2.8604	-2.8417	-2.6292	-2.6917	-2.9667	-2.3958	-2.9375	-2.7167	-2.6604	-3.05	100.911	382.773	385.465	351.099	231.068	163.166	351.847	56.664	355.543	86.182	359.708	337.338	218.725	164.621	327.054	211.556	0.00021449	0.0003055	7.769e-05	1227.1	3.8855e-06	2.8445e-06	1296.3	256.24	1.2681e-06	2.1402e-06	319.75	87.737	69.355	20.145	2.0477e-06	28.675	0.00027331	0.00027479	7.7059e-05	1196.2	3.0769e-06	3.0874e-06	1265	252.82	3.1525e-06	3.1161e-06	315.2	88.023	69.105	20.409	3.1578e-06	28.865	180.711	75.509	131.674	38.594	211.878	204.994	38.586	45.602	189.531	221.423	45.439	52.212	52.746	58.857	224.082	58.552	-8191	255	
2390.052	1	1	0	0	0.1724	0.26328	0.08181	0.19455	0.067821	0.15081	0.32009	0.17652	0.11394	0.1155	0.062364	0.21815	0.29092	0.081257	0.13179	0.41455	-2.2271	-2.7792	-2.9729	-2.6042	-2.7229	-2.8	-2.7417	-3.0062	-2.7104	-2.7792	-2.8688	-2.8292	-2.9604	-2.7687	-2.5792	-2.8333	193.065	58.651	237.091	360.132	345.052	387.631	298.510	274.118	68.971	63.069	323.388	82.886	287.244	135.476	161.229	304.866	0.00017259	0.00040292	8.1887e-05	1220	4.5876e-06	3.4691e-06	1286.8	256.71	1.5467e-06	2.7725e-06	319.87	87.826	69.113	20.192	4.178e-06	28.683	0.00027453	0.00027442	7.7251e-05	1193.5	3.0611e-06	2.9992e-06	1264.3	253.13	3.0135e-06	2.9942e-06	315	88.009	68.823	20.371	2.9269e-06	28.698	186.635	116.483	91.317	38.282	238.862	249.318	38.967	45.622	248.512	182.384	45.625	52.039	52.572	58.610	198.375	58.800	-8191	255	
2390.148	1	1	0	0	0.054806	0.10449	0.14644	0.22885	0.074537	0.11489	0.23915	0.21112	0.10456	0.20404	0.24083	0.19478	0.12114	0.18434	0.062459	0.12812	-2.1667	-2.525	-2.7521	-2.55	-2.8542	-2.9813	-2.6167	-3.0646	-2.8375	-2.8625	-3.0667	-2.7229	-2.7625	-2.8792	-2.6937	-2.8792	336.277	382.500	44.522	385.911	306.274	320.765	255.210	255.882	208.998	212.262	336.890	337.470	379.738	33.601	89.177	294.668	0.00021585	0.00027301	0.00024176	1222.3	1.588e-06	3.4856e-06	1290.5	254.84	3.0913e-06	2.3579e-06	317.45	87.801	68.358	20.18	5.4214e-06	28.371	0.00025195	0.0002522	7.022e-05	1190.9	2.8245e-06	2.6739e-06	1260.9	251.32	2.7176e-06	2.5962e-06	312.31	87.412	68.388	20.281	2.6582e-06	28.524	178.907	94.659	98.900	38.466	206.942	192.344	38.839	45.773	241.072	210.977	45.410	52.332	52.625	59.108	174.564	58.921	-8191	255	
2390.244	1	1	0	0	0.0748	0.088161	0.22542	0.16235	0.18086	0.195	0.19224	0.17181	0.056251	0.12046	0.039859	0.22577	0.30853	0.2655	0.10993	0.2265	-2.2958	-2.6667	-2.8167	-2.6229	-2.8271	-2.8104	-2.5854	-2.9167	-2.6521	-2.7271	-2.9875	-2.6437	-2.7729	-2.8563	-2.5854	-2.7708	295.204	263.925	129.577	58.614	104.707	48.349	351.133	28.839	80.287	304.278	111.707	354.477	281.409	63.927	229.031	207.634	0.00019666	0.00052139	5.5003e-05	1214.6	4.2595e-06	1.3739e-06	1284.3	253.28	2.554e-06	1.8462e-06	315.58	86.674	68.254	20.092	3.1308e-06	28.283	0.00023592	0.00023991	6.5163e-05	1183.4	2.6733e-06	2.587e-06	1253	250.08	2.6218e-06	2.5999e-06	311.63	86.939	67.97	20.181	2.5195e-06	28.354	187.497	50.445	129.002	38.448	180.819	176.814	38.745	45.593	236.321	224.971	45.383	52.280	52.740	58.824	186.463	58.740	-8191	255	
2390.340	1	1	0	0	0.30445	0.13641	0.28059	0.14037	0.17949	0.076506	0.31279	0.15261	0.14478	0.14635	0.061003	0.065999	0.14116	0.18221	0.24184	0.14571	-2.3333	-2.5792	-3.0083	-2.6042	-2.6167	-2.6562	-2.6125	-2.8375	-2.7583	-2.625	-3.0312	-2.5646	-2.6208	-2.8021	-2.5417	-2.8396	209.020	284.713	315.753	320.421	135.245	362.112	325.557	244.320	167.934	241.353	241.339	285.189	66.980	347.657	199.952	87.780	0.00016362	0.00031428	0.00010984	1203.5	3.4055e-06	4.5221e-06	1271.9	250.62	3.6117e-06	2.1553e-06	313.55	86.144	67.693	20.112	1.8251e-06	27.968	0.00022961	0.00022822	6.2471e-05	1176.9	2.4972e-06	2.4696e-06	1244.2	248.23	2.5294e-06	2.3706e-06	308.85	86.172	67.23	20.02	2.2975e-06	28.057	181.515	114.759	85.143	38.502	150.793	162.083	38.709	45.847	195.296	169.232	45.486	52.543	52.852	59.039	198.083	58.770	-8191	255	
2390.436	1	1	0	0	0.26831	0.10901	0.31457	0.35797	0.21084	0.23622	0.2923	0.16213	0.1045	0.095371	0.15535	0.24695	0.16367	0.30446	0.053858	0.21895	-2.5438	-2.3542	-2.775	-2.8458	-2.7083	-2.9188	-2.6854	-2.9104	-2.8854	-2.7625	-3.1583	-2.7771	-2.6354	-2.9313	-2.5521	-2.875	256.640	44.226	118.110	59.917	149.787	148.795	319.039	32.642	282.878	232.281	345.064	345.867	323.195	167.465	163.430	318.919	0.00018354	0.00029132	9.3466e-05	1181.6	3.2146e-06	4.3317e-06	1249.6	247.05	3.3832e-06	3.9716e-06	310.2	85.716	66.313	19.656	2.9383e-06	27.987	0.00020089	0.00019824	5.277e-05	1154	2.1288e-06	1.9918e-06	1222.3	243.63	2.0143e-06	1.9798e-06	303.84	85.148	66.093	19.686	1.9379e-06	27.827	179.278	136.618	150.718	38.526	202.285	185.500	38.992	45.991	181.787	211.344	45.360	52.449	53.075	58.686	240.287	58.720	-8191	255	
2390.533	1	1	0	0	0.22968	0.053697	0.19617	0.32521	0.056404	0.11912	0.12493	0.38711	0.31713	0.1792	0.16182	0.044597	0.2323	0.11789	0.21204	0.092893	-2.4313	-2.4125	-2.8375	-2.8792	-2.6042	-3.0062	-2.8104	-2.8458	-2.7146	-2.6562	-3.0312	-2.8229	-2.5917	-2.9167	-2.7917	-2.6458	281.705	154.074	131.365	370.034	29.090	63.035	199.909	299.257	171.740	209.700	301.838	163.167	235.752	318.588	161.126	302.382	0.00019375	0.00031028	9.1308e-05	1174.3	2.2891e-06	3.2801e-06	1237	244.93	4.8675e-06	3.4748e-06	307.32	85.043	66.543	19.735	2.5764e-06	27.749	0.00017484	0.00017276	4.6715e-05	1141.9	1.9095e-06	1.7791e-06	1209.2	241.31	1.87e-06	1.8428e-06	301.87	84.846	65.856	19.631	1.902e-06	27.819	187.664	88.013	125.176	38.397	214.647	148.537	38.960	45.864	231.891	192.730	45.497	52.713	52.684	59.277	226.221	58.958	-8191	255	
2390.629	1	1	0	0	0.11904	0.22272	0.23039	0.33593	0.10218	0.23088	0.28042	0.14229	0.26711	0.1369	0.11559	0.15294	0.2059	0.073796	0.19009	0.17796	-2.575	-2.4833	-2.5354	-2.9271	-2.5729	-2.875	-2.925	-2.7521	-2.9583	-2.4521	-2.7917	-2.6979	-2.5583	-2.8229	-2.6188	-2.7917	375.948	313.601	244.808	369.903	305.697	83.635	345.783	313.174	94.632	241.320	226.211	134.041	323.247	255.664	70.560	365.052	0.00018332	0.00037741	8.8437e-05	1167.9	4.967e-06	5.0006e-06	1237.1	243.71	2.2764e-06	4.1128e-06	306.45	84.828	66.282	19.629	1.1815e-06	27.943	0.00017854	0.00016858	4.6263e-05	1138.2	1.8827e-06	1.8086e-06	1207.1	241.15	1.8719e-06	1.8191e-06	301.1	84.705	65.82	19.625	1.8649e-06	27.752	183.944	131.566	98.107	38.772	207.682	175.525	38.919	45.934	201.245	190.345	45.618	52.567	52.834	59.183	230.309	58.947	-8191	255	
2390.748	1	1	0	0	0.076997	0.17849	0.13891	0.21286	0.11662	0.20349	0.38479	0.17201	0.36948	0.21171	0.15693	0.32943	0.45948	0.15295	0.18767	0.12953	-2.6875	-2.3542	-2.7875	-3.0438	-2.5708	-3.0167	-2.7625	-2.7646	-2.9771	-2.6979	-2.775	-3.0083	-2.6146	-2.9604	-2.7125	-2.6646	182.665	303.764	146.374	57.787	107.342	171.477	332.401	337.873	98.559	96.598	52.869	43.035	377.896	110.081	75.667	283.501	0.0001635	0.00021681	0.00014184	1165.7	4.304e-06	2.5443e-06	1233.7	244.7	1.8444e-06	2.6436e-06	304.8	85.136	66.907	19.72	3.442e-06	28.044	0.00017116	0.00016589	4.6683e-05	1134.8	1.8851e-06	1.8114e-06	1208	241.05	1.9074e-06	1.858e-06	301.03	84.741	66.014	19.668	1.894e-06	27.887	183.733	117.770	123.054	38.693	213.702	224.213	38.883	46.070	186.404	172.537	45.571	52.616	52.930	58.969	237.583	59.090	-8191	255	
2390.844	1	1	0	0	0.10602	0.038898	0.11823	0.25552	0.19622	0.14295	0.34415	0.17318	0.23944	0.16413	0.18331	0.13121	0.20327	0.15902	0.068233	0.095979	-2.4437	-2.6479	-2.6125	-2.9333	-2.5812	-2.7542	-2.8271	-2.6521	-2.8521	-2.8	-2.6729	-2.8417	-2.6104	-2.7687	-2.7542	-2.5146	290.414	348.381	367.635	305.802	138.323	34.838	268.417	326.168	56.229	134.952	355.287	44.685	42.550	75.214	97.028	352.670	0.00018568	0.00028846	0.00011151	1166.8	3.8721e-06	4.1289e-07	1244.4	244.83	3.3444e-06	2.7636e-06	307.63	85.465	66.497	19.708	3.0838e-06	28.027	0.00017941	0.0001756	4.9464e-05	1139.9	2.0615e-06	1.9457e-06	1214.2	242.08	2.027e-06	1.9761e-06	302.72	85.07	66.181	19.717	1.9616e-06	27.93	180.058	80.673	95.598	38.560	233.786	264.675	38.978	46.055	244.425	244.384	45.501	52.425	52.542	59.083	191.650	58.741	-8191	255	
2390.940	1	1	0	0	0.046664	0.19798	0.099125	0.019592	0.097091	0.24757	0.2843	0.42239	0.093774	0.26953	0.21741	0.20871	0.13757	0.009111	0.12529	0.14465	-2.4938	-2.6333	-2.5542	-3.0646	-2.425	-2.9042	-3.0167	-2.7	-2.9229	-2.7521	-2.675	-2.9083	-2.6021	-2.9167	-2.8146	-2.6771	203.617	284.158	343.231	137.330	244.442	221.632	318.115	354.590	201.522	351.559	382.750	44.378	80.178	366.894	286.736	332.121	0.0001838	0.00046994	6.4511e-05	1177.6	3.803e-06	4.1721e-06	1245.4	246.95	3.2993e-06	2.3999e-06	308.74	85.254	66.495	19.74	2.4556e-06	28.042	0.00018985	0.00018203	5.0465e-05	1146.3	2.0263e-06	2.0198e-06	1217.5	242.98	2.0523e-06	1.9595e-06	303.32	85.023	66.246	19.771	1.9902e-06	28.037	179.128	116.010	124.090	38.358	237.285	158.741	38.789	45.729	236.279	215.052	45.385	52.679	52.810	58.758	226.190	58.794	-8191	255	
2391.013	1	1	0	0	0.2225	0.20761	0.28243	0.22852	0.11692	0.039356	0.2058	0.26189	0.27672	0.0964	0.024905	0.025425	0.17365	0.19505	0.26882	0.23014	-2.5208	-2.7479	-2.6167	-3.0146	-2.5292	-2.6813	-3.0438	-2.8083	-2.6146	-2.6646	-2.6479	-2.8417	-2.5896	-2.6375	-2.9354	-2.5542	376.269	56.695	268.726	371.643	55.553	135.532	336.656	296.496	144.647	384.403	345.761	365.339	38.276	40.376	303.583	223.262	0.00016563	0.00032581	5.8117e-05	1182	5.2551e-06	1.6552e-06	1243.2	246.96	3.5929e-06	5.072e-06	309.4	85.509	66.65	19.688	3.6098e-06	28.087	0.00018652	0.00018181	5.1023e-05	1149.3	2.027e-06	1.9974e-06	1218.3	243.23	2.0129e-06	2.03e-06	304.27	85.283	66.354	19.744	2.0524e-06	28.047	182.510	77.827	77.828	38.599	181.135	136.724	38.985	45.819	187.638	206.651	45.472	52.466	52.669	59.056	197.634	58.855	-8191	255	
2391.132	1	1	0	0	0.08307	0.17575	0.15185	0.32241	0.14584	0.16271	0.10784	0.15346	0.02336	0.16952	0.13005	0.21276	0.15573	0.099557	0.11855	0.057197	-2.3812	-2.7479	-2.6312	-3.0563	-2.6083	-2.7438	-3.075	-2.6333	-2.6979	-2.6521	-2.5896	-2.8208	-2.8375	-2.8042	-2.95	-2.6271	217.983	45.351	144.491	347.065	250.690	317.801	199.044	250.078	158.167	278.242	354.358	305.146	127.923	108.035	189.092	108.234	0.00019891	0.00012979	0.00011367	1174	3.2727e-06	1.4894e-06	1250.1	246.58	4.193e-06	2.4122e-06	309.3	85.555	67.018	19.783	2.7863e-06	27.947	0.00019287	0.00017985	5.1115e-05	1146.2	2.1043e-06	2.019e-06	1220.3	243.53	2.0632e-06	2.0657e-06	304	85.476	66.47	19.802	2.0526e-06	28.035	185.671	89.516	121.196	38.472	196.731	250.075	38.831	45.775	203.403	188.960	45.457	52.576	52.605	58.717	206.580	58.650	-8191	255	
2391.228	1	1	0	0	0.16028	0.055987	0.042604	0.057828	0.074788	0.17581	0.14654	0.13972	0.19526	0.13101	0.2349	0.18536	0.2056	0.15953	0.22548	0.032368	-2.3208	-2.6271	-2.55	-3.0167	-2.7208	-2.4958	-3.1146	-2.6917	-2.7062	-2.9667	-2.4792	-2.8604	-2.7583	-2.6437	-2.8396	-2.6646	162.886	351.714	364.170	103.869	221.757	222.780	310.533	314.409	303.490	96.051	28.706	139.569	371.649	347.594	262.236	365.073	0.00019661	0.0004659	7.4642e-05	1180.3	3.41e-06	3.627e-06	1248.7	248.19	3.1902e-06	2.4727e-06	310.1	85.666	67.083	19.829	5.3466e-06	27.972	0.00019744	0.00019048	5.3924e-05	1150.9	2.1473e-06	2.1562e-06	1222.5	244.27	2.1903e-06	2.111e-06	304.79	85.602	66.675	19.842	2.118e-06	28.095	179.997	113.132	157.986	38.400	207.362	237.027	38.751	45.848	184.465	189.210	45.620	52.222	52.978	59.187	183.318	58.586	-8191	255	
2391.325	1	1	0	0	0.17717	0.25611	0.048844	0.12916	0.18349	0.032006	0.2551	0.40264	0.16831	0.20909	0.21916	0.033574	0.14468	0.10076	0.095297	0.028183	-2.2083	-2.8542	-2.5646	-2.8833	-2.6458	-2.6521	-3.1188	-2.75	-2.75	-2.95	-2.7333	-2.9542	-2.5854	-2.6167	-2.7292	-2.9292	194.899	39.675	62.841	291.912	32.370	39.925	338.250	383.232	335.321	287.337	354.062	77.633	372.615	32.936	43.560	221.549	0.00019592	0.0004979	0.00012445	1183.9	2.3114e-06	1.261e-06	1252	247.9	3.5871e-06	3.7268e-06	309.9	86.086	67.354	19.775	2.1605e-06	27.946	0.00019774	0.00019494	5.4176e-05	1153.8	2.1881e-06	2.1088e-06	1223.3	244.38	2.1482e-06	2.0926e-06	304.91	85.594	66.614	19.875	2.1147e-06	28.029	190.527	128.264	157.224	38.514	180.562	217.015	38.933	45.975	197.172	195.201	45.544	52.514	52.769	59.000	230.386	58.830	-8191	255	
2391.421	1	1	0	0	0.13263	0.18576	0.21757	0.22731	0.091231	0.095899	0.16558	0.23683	0.14143	0.06671	0.13293	0.20136	0.11155	0.15212	0.14702	0.13768	-2.1729	-2.9979	-2.5604	-2.9458	-2.7771	-2.7021	-3.1479	-2.8021	-2.6271	-3.1146	-2.5563	-2.6083	-2.8896	-2.6562	-2.9875	-2.6813	227.112	109.564	176.249	367.299	130.452	355.551	248.359	299.896	287.816	193.795	319.003	303.960	263.903	31.139	219.008	145.157	0.00020062	0.00037367	9.3436e-05	1181.7	4.7034e-06	2.9992e-06	1251.5	248.3	2.2009e-06	2.8578e-06	309.36	85.524	67.121	19.754	6.9071e-07	28.128	0.00019826	0.0001911	5.2395e-05	1153.4	2.1674e-06	2.1183e-06	1223.6	244.41	2.1336e-06	2.0818e-06	304.91	85.537	66.632	19.838	2.1178e-06	28.11	188.441	81.002	113.352	38.747	183.965	177.847	38.839	45.883	212.877	181.058	45.200	52.712	52.694	58.976	201.535	59.265	-8191	255	
2391.541	1	1	0	0	0.10766	0.14069	0.077335	0.17391	0.26592	0.076026	0.25139	0.020512	0.36113	0.19298	0.28429	0.085322	0.17345	0.12861	0.16847	0.1246	-2.2479	-2.8708	-2.5292	-2.7521	-2.8396	-2.6854	-3.0396	-2.825	-2.6063	-2.8625	-2.7208	-2.9437	-2.6396	-2.4146	-2.7812	-2.7083	108.375	79.955	33.385	56.224	222.167	154.805	323.916	87.852	219.685	302.968	377.360	155.196	252.973	234.881	192.535	152.064	0.00018367	0.00038918	1.7038e-05	1186.6	4.5344e-06	4.2716e-06	1251	247.52	3.6988e-06	2.8702e-06	310.35	85.587	67.389	19.894	3.2259e-06	28.119	0.00019807	0.00019481	5.5646e-05	1154.6	2.1703e-06	2.0948e-06	1223.7	244.42	2.1535e-06	2.1551e-06	305.04	85.469	66.788	19.894	2.1055e-06	28.092	185.201	134.947	174.947	38.487	234.510	199.888	38.745	45.751	190.254	242.546	45.214	52.563	52.852	59.074	223.692	58.474	-8191	255	
2391.636	1	1	0	0	0.12166	0.27916	0.091629	0.16488	0.28594	0.12226	0.15659	0.33393	0.047848	0.15832	0.21999	0.14578	0.14009	0.1004	0.070225	0.14621	-2.0125	-2.9021	-2.6229	-2.9313	-3.0521	-2.7292	-3.0062	-2.875	-2.5729	-3.0417	-2.7896	-2.6312	-2.8896	-2.7542	-2.8458	-2.7417	313.493	255.320	99.698	50.525	81.654	380.024	276.471	323.777	103.501	280.338	367.985	83.337	301.001	89.131	113.740	168.150	0.00021106	0.00047283	5.7157e-05	1182.2	2.4729e-06	2.2087e-06	1250	247.97	7.091e-07	5.1519e-06	309.58	85.654	67.196	19.865	2.0354e-06	27.923	0.00019616	0.00019214	5.2943e-05	1154	2.1846e-06	2.1089e-06	1224.8	244.1	2.202e-06	2.1271e-06	305.06	85.726	66.816	19.863	2.1259e-06	28.049	182.465	93.728	144.092	38.436	238.549	200.469	38.675	45.945	202.084	203.107	45.417	52.504	52.942	58.855	163.121	58.828	-8191	255	
2391.734	1	1	0	0	0.31807	0.12633	0.11015	0.1569	0.20753	0.23308	0.15799	0.20373	0.058653	0.15054	0.17826	0.070827	0.36798	0.025241	0.15942	0.12698	-2.1583	-2.9333	-2.5979	-2.7729	-2.9	-2.7604	-3.0229	-2.7687	-2.5667	-3.0333	-2.7646	-2.6104	-2.875	-2.5812	-2.9479	-2.9479	231.092	65.329	282.814	42.390	292.327	42.350	296.518	344.687	221.777	240.199	372.799	42.757	283.660	175.590	197.056	106.898	0.00014626	0.00047727	5.1167e-05	1185.9	3.0056e-06	9.3754e-07	1255.4	247.42	3.3965e-06	2.5997e-06	309.39	85.603	66.815	19.816	2.3887e-06	28.047	0.00020196	0.00019917	5.4472e-05	1155	2.1866e-06	2.1908e-06	1225.5	244.43	2.1831e-06	2.0895e-06	304.8	85.547	66.463	19.883	2.1469e-06	28.059	194.743	139.212	138.008	38.660	149.997	211.863	38.896	45.882	209.236	197.609	45.550	52.391	52.661	59.215	218.791	58.479	-8191	255	
2391.830	1	1	0	0	0.092844	0.092764	0.20976	0.22259	0.051604	0.087541	0.12022	0.10247	0.048397	0.28612	0.18958	0.16281	0.084305	0.10417	0.18509	0.2184	-2.2812	-2.9437	-2.7417	-2.7188	-2.9458	-2.6646	-2.9479	-2.8438	-2.5667	-2.8854	-2.7854	-2.5833	-2.8958	-2.6458	-2.5521	-2.8708	350.254	61.135	278.777	384.091	114.689	140.165	356.501	59.127	205.822	256.267	229.121	67.710	346.585	211.908	359.538	283.106	0.00018489	0.00043642	0.00018831	1184.1	2.9531e-06	1.7839e-06	1253.6	248.53	3.2054e-06	3.0454e-06	309.75	85.373	67.054	19.801	2.8886e-06	28.1	0.00019826	0.00019357	5.2849e-05	1155.2	2.1551e-06	2.1415e-06	1225.8	244.34	2.2048e-06	2.1813e-06	305.35	85.527	66.784	19.864	2.1512e-06	28.104	177.258	112.991	111.892	38.725	172.086	231.743	38.671	45.638	215.654	222.015	45.358	52.469	53.003	59.014	214.551	58.713	-8191	255	
2391.924	1	1	0	0	0.21318	0.23927	0.032301	0.02835	0.084547	0.16838	0.21606	0.12921	0.098371	0.20541	0.11256	0.30644	0.10616	0.096754	0.30851	0.34855	-2.1958	-2.7729	-2.8354	-2.6104	-2.8125	-2.8083	-2.8271	-2.9729	-2.6583	-2.875	-2.875	-2.5646	-2.9292	-2.7833	-2.6354	-3.15	127.687	41.878	343.167	225.023	63.374	109.902	236.187	333.781	65.811	240.282	355.890	349.005	297.858	47.248	115.698	298.601	0.00020086	0.0006069	8.5077e-05	1185.2	2.4791e-06	4.094e-06	1250.7	247.53	3.0272e-06	4.2653e-06	310.5	85.973	67.29	19.801	3.3424e-06	28.05	0.00020355	0.00019488	5.3685e-05	1153.1	2.1735e-06	2.1107e-06	1224.3	244.02	2.1394e-06	2.1165e-06	304.74	85.39	66.619	19.838	2.1029e-06	28.019	188.430	120.574	117.305	38.361	174.462	192.997	38.823	45.918	189.507	184.891	45.613	52.394	52.629	58.817	201.060	58.488	-8191	255	
2392.020	1	1	0	0	0.23366	0.12917	0.1657	0.28401	0.18908	0.19185	0.25988	0.31323	0.23679	0.14852	0.16105	0.26832	0.055159	0.13143	0.30634	0.05467	-2.2062	-2.775	-2.8417	-2.8625	-3.05	-2.7396	-2.7188	-2.9292	-2.5979	-2.9188	-2.9208	-2.5604	-2.9271	-2.7146	-2.6646	-3.0083	211.498	253.265	220.832	378.708	328.437	28.714	276.662	280.032	36.015	335.399	274.990	353.632	208.423	69.131	81.960	185.114	0.00018624	0.00046713	0.00013272	1182.4	2.3676e-06	7.4627e-07	1249.4	248.13	3.2792e-06	4.7214e-06	310.57	85.796	67.627	19.952	1.9992e-06	27.973	0.00019621	0.00018686	5.3016e-05	1151.6	2.0806e-06	2.0341e-06	1220.9	243.95	2.1057e-06	2.0263e-06	304.22	85.389	66.578	19.888	2.0334e-06	27.999	178.580	103.370	137.890	38.554	212.325	204.931	38.656	45.849	194.584	190.168	45.658	52.504	53.007	59.248	185.931	58.861	-8191	255	
2392.141	1	1	0	0	0.22124	0.26347	0.26021	0.21327	0.29679	0.23179	0.31601	0.098481	0.06095	0.13725	0.33046	0.13278	0.22911	0.20238	0.099024	0.081876	-2.2167	-2.7938	-2.9208	-2.7313	-2.9146	-2.7438	-2.7667	-3.0521	-2.6292	-2.9104	-2.8896	-2.6375	-2.8375	-2.7875	-2.5104	-2.8958	239.279	309.607	286.162	365.284	264.420	128.411	267.397	311.877	373.666	81.830	44.829	367.152	191.195	46.990	216.095	262.202	0.00014935	0.00017142	6.9563e-05	1180.2	2.097e-06	3.7011e-06	1250.7	247.53	4.0582e-06	2.571e-07	309.32	85.404	67	19.713	3.2415e-06	28.051	0.00018824	0.00018503	5.2512e-05	1149.2	2.105e-06	2.0247e-06	1220.6	243.63	2.0924e-06	2.0423e-06	303.97	85.311	66.452	19.795	2.1543e-06	28.017	180.419	91.125	124.823	38.597	227.406	163.606	38.798	45.912	195.563	163.850	45.690	52.481	53.037	58.794	207.375	58.914	-8191	255	
2392.237	1	1	0	0	0.13743	0.035396	0.18389	0.15211	0.081447	0.17425	0.26754	0.089898	0.14462	0.19003	0.16457	0.12139	0.080855	0.30916	0.20675	0.060112	-2.2562	-2.7417	-2.7917	-2.6708	-2.775	-2.9729	-2.6646	-2.8854	-2.6312	-2.8042	-2.9958	-2.8104	-2.6688	-2.7396	-2.5146	-2.9833	193.092	120.442	384.712	347.619	122.698	222.678	34.921	237.835	29.810	105.243	235.230	65.250	379.728	270.018	198.306	116.199	0.00019544	0.00025531	6.7712e-05	1173.3	2.0068e-06	5.7649e-07	1246.5	247.04	1.9884e-06	3.202e-06	308.57	85.694	66.91	19.759	2.1311e-06	27.75	0.00019576	0.00019264	5.1693e-05	1147.4	2.1054e-06	2.0861e-06	1218.5	243.27	2.1752e-06	2.1152e-06	303.7	85.304	66.461	19.776	2.1523e-06	27.999	178.374	109.377	123.955	38.657	184.586	44.088	38.891	46.027	189.935	178.913	45.356	52.744	52.923	58.952	215.801	58.964	-8191	255	
2392.309	1	1	0	0	0.084627	0.086243	0.076014	0.28439	0.17717	0.13347	0.13708	0.27479	0.25968	0.11787	0.26715	0.14772	0.12431	0.24526	0.12522	0.27158	-2.3771	-2.6875	-2.9667	-2.8333	-2.8833	-3.0375	-2.7438	-2.9771	-2.7708	-2.6937	-3.0417	-2.75	-2.775	-2.7958	-2.6396	-2.8417	371.169	221.838	354.426	304.741	325.074	250.110	366.272	313.347	272.942	177.200	358.394	207.031	241.973	38.100	384.215	67.549	0.00019687	0.00017973	3.5677e-05	1175.5	4.4e-06	3.8102e-06	1248.9	246.01	2.7678e-06	3.2418e-06	310.11	85.704	66.804	19.823	1.5197e-06	28.069	0.00019814	0.00019652	5.2237e-05	1146.3	2.1826e-06	2.1575e-06	1218.3	243.38	2.2199e-06	2.1619e-06	304.58	85.308	66.441	19.802	2.2063e-06	28.069	183.922	135.553	218.410	38.588	217.842	192.896	38.925	45.936	231.282	201.528	45.186	52.459	52.602	59.408	177.495	58.493	-8191	255	
2392.405	1	1	0	0	0.10245	0.094128	0.11797	0.096532	0.12444	0.092956	0.35496	0.1526	0.092147	0.1754	0.095387	0.17453	0.06074	0.31875	0.058931	0.33376	-2.4375	-2.5771	-2.8521	-2.6229	-2.6521	-3.0125	-2.8458	-2.9396	-2.9042	-2.6562	-3.1125	-2.8271	-2.7542	-3.1021	-2.7167	-3	101.185	195.062	363.559	79.663	64.482	268.258	244.798	322.323	65.142	372.368	303.148	356.314	346.456	385.651	201.702	331.510	0.00019024	0.00031572	9.9593e-05	1176.1	2.6743e-06	3.4877e-06	1245.8	246.84	2.3146e-06	4.6411e-06	308.93	85.608	67.378	19.888	1.651e-06	27.758	0.00020422	0.00020076	5.5592e-05	1147.1	2.2586e-06	2.1885e-06	1219.2	243.5	2.2572e-06	2.2577e-06	304.64	85.442	66.854	19.874	2.2876e-06	27.972	177.715	109.846	140.794	38.757	223.008	91.911	38.882	46.096	227.127	201.815	45.390	52.386	53.050	59.060	166.988	58.320	-8191	255	
2392.526	1	1	0	0	0.21129	0.085036	0.093461	0.13836	0.28399	0.23899	0.27426	0.12574	0.16642	0.13434	0.16309	0.14335	0.078124	0.135	0.10428	0.1221	-2.3771	-2.4688	-3.0354	-2.8958	-2.7667	-2.875	-2.7562	-2.8812	-2.8042	-2.5896	-2.8667	-2.825	-2.5396	-3.0604	-2.7771	-2.8646	270.589	147.775	177.618	39.556	139.690	113.176	271.502	134.638	249.394	272.083	90.876	366.151	125.396	152.541	58.022	143.610	0.00019622	0.00045519	0.00016591	1182.4	1.766e-06	2.2699e-06	1254.3	248.16	2.6497e-06	1.6134e-06	312.23	86.025	67.73	19.902	2.2563e-06	28.186	0.00021594	0.00020669	5.9741e-05	1152.1	2.4162e-06	2.3612e-06	1225.7	244.83	2.4181e-06	2.3891e-06	305.95	85.755	67.077	19.912	2.3971e-06	28.166	190.657	102.198	105.722	38.644	258.089	137.233	38.609	45.749	205.995	247.599	45.515	52.308	52.917	58.970	224.282	58.714	-8191	255	
2392.622	1	1	0	0	0.11109	0.068391	0.1615	0.036426	0.080562	0.18157	0.18313	0.15747	0.15374	0.32351	0.26214	0.32234	0.28126	0.08091	0.14474	0.13439	-2.3542	-2.4583	-2.7333	-2.775	-2.6375	-2.8187	-2.7979	-2.8604	-3.0854	-2.7208	-3.0104	-2.6625	-2.5479	-3.0104	-2.6208	-2.6229	89.193	147.872	188.111	52.231	31.753	228.296	285.097	346.467	202.431	147.187	37.648	343.073	382.251	289.476	129.384	268.523	0.00018728	0.00027	0.00012788	1187.4	1.7035e-06	1.7967e-06	1253.2	248.35	2.9523e-06	3.7575e-06	311.24	85.623	67.585	19.787	4.6877e-06	28.053	0.0002237	0.00021551	6.0451e-05	1157.8	2.459e-06	2.401e-06	1226.7	244.96	2.4209e-06	2.4321e-06	306.32	85.972	66.972	19.905	2.4402e-06	28.118	189.121	147.425	138.829	38.382	171.490	185.052	38.875	45.955	172.638	200.221	45.431	52.207	52.766	59.178	184.232	58.680	-8191	255	
2392.716	1	1	0	0	0.098128	0.14117	0.086366	0.43686	0.22887	0.12479	0.30111	0.09942	0.18337	0.14786	0.19826	0.3657	0.1429	0.16655	0.11471	0.14691	-2.4583	-2.5375	-2.8208	-2.7479	-2.6229	-2.8729	-2.8667	-2.75	-2.8937	-2.5792	-2.9042	-2.8396	-2.5563	-2.8771	-2.7708	-2.7542	186.894	247.794	102.567	341.617	67.158	193.090	334.151	143.476	323.669	305.901	350.800	98.294	186.261	199.607	353.939	137.927	0.00019232	0.00011788	0.00014284	1186.8	2.6906e-06	4.0562e-06	1253.9	248.21	1.3438e-06	3.6787e-06	311.44	85.917	67.993	19.829	3.1101e-06	28.063	0.00022418	0.00022836	6.1659e-05	1157.1	2.5464e-06	2.3966e-06	1229.9	245.35	2.5342e-06	2.5098e-06	307.12	86.044	67.254	19.945	2.4792e-06	28.174	181.123	125.175	101.304	38.485	189.451	169.507	38.941	45.834	202.265	161.007	45.446	52.453	53.146	58.962	214.417	58.965	-8191	255	
2392.814	1	1	0	0	0.044509	0.29813	0.16275	0.17175	0.24086	0.15701	0.46581	0.21039	0.19023	0.13268	0.20591	0.26703	0.28032	0.053477	0.18546	0.1084	-2.2958	-2.7333	-2.7896	-3.0167	-2.4979	-3.0062	-2.9083	-2.7521	-2.9542	-2.5979	-2.9042	-2.8854	-2.5479	-2.9604	-2.8354	-2.6146	195.920	60.621	126.067	288.154	46.804	384.495	308.850	360.168	277.609	32.022	349.232	385.964	239.788	155.502	38.521	114.352	0.00018814	0.00037342	6.5347e-05	1187.7	3.984e-06	1.9517e-06	1261	248.52	3.7203e-06	2.9179e-06	310.12	85.751	66.752	19.937	1.5212e-06	28.212	0.00022917	0.00023181	6.3762e-05	1159.6	2.5833e-06	2.4404e-06	1229.2	245.39	2.5448e-06	2.4639e-06	306.52	85.922	66.767	20.006	2.463e-06	28.248	184.433	130.773	68.643	38.737	211.502	151.095	38.684	45.836	219.502	198.034	45.387	52.407	52.497	59.342	194.620	58.496	-8191	255	
2392.908	1	1	0	0	0.31231	0.14377	0.032789	0.20961	0.32816	0.0068476	0.077011	0.39188	0.18658	0.10131	0.20059	0.097053	0.040913	0.21614	0.18986	0.04043	-2.4417	-2.65	-2.8625	-2.8688	-2.5812	-2.8167	-2.9479	-2.6562	-2.8979	-2.8042	-2.8167	-2.975	-2.5604	-2.8583	-2.6688	-2.6542	46.312	89.831	58.494	369.004	330.732	368.104	346.327	330.258	89.237	259.803	302.426	41.695	278.593	325.843	350.251	347.198	0.00018124	0.00050708	0.00011271	1184	3.5044e-06	1.2473e-06	1256.1	250.54	4.1067e-06	1.7965e-06	311.44	85.981	67.143	19.958	1.9783e-06	28.07	0.00022291	0.0002309	6.2601e-05	1156.3	2.6381e-06	2.5035e-06	1228.3	246.1	2.5573e-06	2.5105e-06	306.91	86.096	67.135	19.986	2.5376e-06	28.245	184.342	104.395	118.914	38.547	239.364	215.368	38.785	45.974	188.498	175.566	45.613	52.492	52.703	59.165	202.938	58.697	-8191	255	
2393.005	1	1	0	0	0.12223	0.074357	0.31927	0.17708	0.043639	0.21421	0.18842	0.2462	0.092192	0.17744	0.25332	0.14294	0.16706	0.28861	0.26706	0.24297	-2.4167	-2.8292	-2.7104	-3.125	-2.5979	-2.8792	-2.9938	-2.6583	-2.7833	-2.6354	-2.7896	-2.8583	-2.5771	-2.9396	-2.7313	-2.6958	336.868	154.316	187.170	306.290	283.817	316.526	283.060	330.873	274.749	308.870	385.150	227.088	137.620	95.758	180.766	290.431	0.00020688	0.00053305	6.3287e-05	1183.8	4.625e-06	5.0186e-06	1255.5	248.73	3.8672e-06	3.6159e-06	312.35	86.535	67.155	19.731	2.6814e-06	28.167	0.0002317	0.00023072	6.5319e-05	1158	2.6144e-06	2.5472e-06	1230	246.26	2.579e-06	2.5892e-06	307.31	86.084	67.098	19.936	2.5037e-06	28.247	186.176	88.185	116.998	38.497	214.670	171.515	38.751	45.799	225.983	212.462	45.588	52.375	53.051	59.023	188.606	58.734	-8191	255	
2393.101	1	1	0	0	0.062266	0.030506	0.16382	0.31147	0.077736	0.19923	0.42094	0.15028	0.070313	0.20024	0.10677	0.24636	0.1006	0.22109	0.14424	0.23078	-2.3708	-2.8083	-2.6792	-3.2083	-2.6333	-2.8375	-2.9542	-2.7021	-2.9604	-2.6667	-2.8833	-3.0417	-2.5479	-2.8417	-2.9271	-2.6104	53.037	378.943	285.217	346.886	345.494	46.739	315.088	180.261	85.281	206.604	281.389	57.415	44.172	56.668	84.844	78.860	0.00015907	0.00010455	0.00015624	1185.9	2.7824e-06	2.8781e-06	1253.7	248.82	2.2389e-06	2.7923e-06	313.17	85.978	67.528	19.821	4.2301e-06	28.131	0.00023298	0.00023222	6.4547e-05	1158.6	2.5777e-06	2.5017e-06	1228.8	245.93	2.5691e-06	2.5134e-06	306.94	85.989	67.128	19.916	2.5409e-06	28.203	186.884	132.900	86.830	38.478	222.386	194.927	38.728	45.874	238.348	189.200	45.276	52.829	52.795	59.010	201.961	58.661	-8191	255	
2393.221	1	1	0	0	0.09789	0.44088	0.20815	0.3565	0.16341	0.21779	0.12779	0.13324	0.18477	0.14212	0.26483	0.083497	0.055358	0.18065	0.17174	0.30674	-2.3646	-2.7271	-2.5563	-3.0187	-2.6375	-2.8229	-3.1833	-2.7771	-2.8604	-2.8438	-2.6375	-2.9604	-2.7	-2.5896	-2.8896	-2.6917	317.745	348.058	201.269	349.175	295.292	148.956	380.509	287.275	195.014	317.521	340.084	71.217	276.915	79.584	87.953	99.148	0.00019686	0.0002888	0.00010795	1185.1	3.516e-06	3.5048e-06	1257.8	247.7	3.1035e-06	3.1167e-06	311.06	85.615	67.301	19.835	3.3023e-06	28.125	0.00022845	0.00023058	6.3988e-05	1157.1	2.5811e-06	2.5029e-06	1227.6	245.31	2.507e-06	2.4719e-06	306.18	85.835	67.004	19.88	2.4236e-06	28.131	191.496	119.844	117.055	38.737	171.692	157.235	38.954	46.010	221.557	214.967	45.299	52.485	52.791	58.658	202.004	58.322	-8191	255	
2393.317	1	1	0	0	0.17095	0.10634	0.069624	0.072402	0.11428	0.24072	0.22138	0.13505	0.03771	0.25221	0.11358	0.27571	0.10681	0.2979	0.26859	0.20578	-2.6188	-2.7896	-2.6167	-2.9354	-2.7687	-2.6333	-2.9875	-2.8875	-2.8354	-2.8333	-2.6771	-2.9396	-2.8229	-2.7021	-2.8958	-2.6896	354.469	268.994	36.782	324.989	268.455	320.914	320.519	256.082	106.353	33.850	173.318	297.552	355.534	385.460	135.673	367.771	0.00015759	0.00049976	0.00015552	1182.8	4.0577e-06	1.9243e-06	1250.2	247.77	2.2551e-06	3.239e-06	310.77	86.292	67.234	19.784	4.576e-06	27.922	0.00023094	0.00022428	6.2964e-05	1153.6	2.4816e-06	2.4691e-06	1225.3	245.26	2.4988e-06	2.4548e-06	305.8	85.923	66.826	19.904	2.4893e-06	28.102	184.653	150.694	168.963	38.469	224.100	152.815	38.817	45.775	209.781	164.504	45.194	52.568	53.000	58.958	231.081	58.934	-8191	255	
2393.414	1	1	0	0	0.22799	0.15037	0.13526	0.11312	0.093081	0.028549	0.024974	0.084203	0.11571	0.10919	0.15409	0.15033	0.09638	0.19662	0.13545	0.017603	-2.2438	-2.8271	-2.4208	-3.1042	-2.7167	-2.7438	-3.2042	-2.7333	-2.8875	-2.9292	-2.7438	-3.0625	-2.8	-2.5604	-3.0104	-2.6917	214.676	328.437	96.143	365.947	29.203	285.221	185.135	283.815	168.297	201.280	245.634	76.755	356.853	173.376	354.194	228.290	0.00016697	0.00033231	8.5526e-05	1183.2	3.0246e-06	2.4383e-06	1256	247.62	3.8737e-06	2.314e-06	311.19	85.721	66.894	19.856	1.6152e-06	28.004	0.00023068	0.0002261	6.408e-05	1154.8	2.5207e-06	2.5276e-06	1225.5	245.07	2.534e-06	2.4471e-06	305.78	85.686	66.727	19.882	2.4386e-06	28.009	173.654	160.972	101.842	38.427	203.530	200.474	38.802	45.818	177.172	209.314	45.166	52.686	52.787	59.277	212.507	58.623	-8191	255	
2393.534	1	1	0	0	0.25746	0.31458	0.14715	0.28131	0.28388	0.26853	0.37947	0.34278	0.11288	0.14739	0.12152	0.20202	0.013739	0.26244	0.04205	0.16884	-2.3396	-2.7958	-2.7042	-2.9854	-2.9188	-2.5729	-3.0187	-2.7146	-2.6792	-2.8271	-2.6875	-2.8104	-2.8667	-2.6896	-2.8292	-2.6542	289.124	88.945	123.390	370.236	194.822	261.950	323.100	327.883	177.622	172.847	209.765	357.408	245.205	242.853	54.581	47.008	0.00017876	0.00017726	8.9023e-05	1183.4	3.0864e-06	2.2285e-06	1251.9	247.88	1.6358e-06	2.8525e-06	309.07	86.164	67.069	19.811	3.7166e-06	27.957	0.00022277	0.00022303	6.21e-05	1155.8	2.5166e-06	2.4586e-06	1225.3	244.76	2.4576e-06	2.3939e-06	305.09	85.807	66.981	19.885	2.4314e-06	28.041	182.286	98.837	109.773	38.344	187.675	160.698	38.818	45.813	185.294	157.072	45.271	52.425	52.969	58.801	188.052	58.663	-8191	255	
2393.606	1	1	0	0	0.2101	0.19374	0.10986	0.1607	0.16041	0.2243	0.11185	0.24191	0.13867	0.028259	0.10541	0.10258	0.038969	0.052399	0.29948	0.2131	-2.2938	-2.875	-2.55	-3.1	-3.0396	-2.6688	-2.9479	-2.6896	-2.6833	-2.7833	-2.6479	-2.8167	-2.8688	-2.5729	-2.8833	-2.6229	341.565	162.882	295.882	63.554	53.767	337.439	336.742	47.677	167.700	279.329	225.498	91.839	387.350	233.628	283.659	174.901	0.00020087	0.00041297	4.7917e-05	1187.9	3.7011e-06	3.1289e-06	1257.1	248.37	3.584e-06	6.1178e-06	312.66	85.645	67.85	19.909	2.8608e-06	27.775	0.00022196	0.00022234	6.2699e-05	1156.7	2.4767e-06	2.413e-06	1226.9	245.15	2.4915e-06	2.4903e-06	306.31	85.704	67.223	19.898	2.4654e-06	28.033	179.897	96.995	96.329	38.802	189.976	151.358	38.884	45.888	164.804	156.210	45.841	52.578	52.416	58.709	248.812	58.846	-8191	255	
2393.702	1	1	0	0	0.072732	0.066265	0.088218	0.13939	0.31495	0.13149	0.25661	0.26668	0.18891	0.16529	0.16244	0.159	0.094487	0.28034	0.057642	0.49289	-2.2646	-2.6958	-2.5854	-2.9146	-2.9021	-2.7417	-2.9771	-2.9625	-2.6312	-2.9292	-2.6375	-2.6562	-2.9479	-2.5583	-2.8063	-2.85	244.221	151.847	126.902	146.774	136.628	310.936	41.735	353.912	140.338	214.741	356.392	363.661	282.245	126.848	180.134	65.352	0.00019991	0.00012713	0.00011267	1184.7	5.1361e-06	3.8419e-06	1257.6	248.56	4.4403e-06	2.1561e-06	310.17	85.643	67.032	19.607	3.9383e-06	27.968	0.00022596	0.00022461	6.3679e-05	1157.2	2.5343e-06	2.4754e-06	1227.9	245.31	2.544e-06	2.4599e-06	306.14	85.86	66.905	19.872	2.4662e-06	28.093	185.522	52.518	88.759	38.777	217.467	165.807	38.781	45.667	207.513	152.990	45.370	52.474	53.194	58.738	204.700	58.771	-8191	255	
2393.821	1	1	0	0	0.23995	0.10701	0.057988	0.3031	0.071767	0.16082	0.1074	0.20601	0.1532	0.19585	0.20085	0.06795	0.29478	0.17279	0.054159	0.23527	-2.2875	-2.7958	-2.7042	-2.6646	-2.8771	-2.6063	-2.8292	-2.9729	-2.4917	-2.8688	-2.6854	-2.6375	-3.0271	-2.5958	-2.65	-2.8833	177.312	203.907	274.614	360.321	348.677	158.488	98.781	346.839	366.173	235.792	330.449	246.974	380.532	140.704	351.884	191.851	0.00020537	0.00040807	0.00013672	1184.5	4.0693e-06	2.1284e-06	1257.4	249.25	2.2782e-06	2.4304e-06	309.54	86.134	67.138	19.755	5.7762e-06	27.808	0.00023243	0.00022258	6.4777e-05	1156.3	2.5576e-06	2.4601e-06	1228.8	245.29	2.56e-06	2.5231e-06	305.87	86.087	66.904	19.881	2.4425e-06	27.994	187.691	111.106	115.164	38.812	188.339	200.114	38.785	45.713	215.513	107.006	45.548	52.591	52.351	58.914	183.555	58.883	-8191	255	
2393.917	1	1	0	0	0.055917	0.20066	0.14408	0.35465	0.0081469	0.079772	0.18563	0.12735	0.14857	0.24808	0.027872	0.038197	0.247	0.17417	0.17922	0.13917	-2.2438	-2.8958	-2.7417	-2.7583	-3.0771	-2.8646	-3.0417	-2.9958	-2.7292	-2.875	-2.8958	-2.7625	-2.9375	-2.6521	-2.775	-2.9729	352.729	144.503	215.687	318.645	378.797	266.845	46.867	275.884	264.672	315.344	28.502	229.223	380.712	383.200	101.200	168.943	0.00017969	0.00043645	0.00011546	1187.8	3.9134e-06	4.519e-06	1252.6	248.12	4.6349e-06	2.5026e-06	309.92	85.462	66.975	19.79	1.1649e-06	28.129	0.00021808	0.00022097	6.0707e-05	1155.9	2.4466e-06	2.4269e-06	1225.1	244.91	2.463e-06	2.3737e-06	305.64	85.519	66.774	19.848	2.4288e-06	28.083	178.666	101.945	128.437	38.792	219.682	192.148	38.623	46.057	197.718	196.851	45.236	52.455	53.455	58.871	194.640	59.232	-8191	255	
2394.013	1	1	0	0	0.19131	0.28116	0.090889	0.46325	0.25671	0.13658	0.18594	0.020642	0.1507	0.050148	0.18102	0.14639	0.28979	0.28431	0.106	0.14561	-2.1729	-2.8396	-2.5771	-2.6271	-2.8312	-2.7146	-2.8438	-2.975	-2.4479	-2.8958	-2.9271	-2.4708	-3.0167	-2.7292	-2.6542	-3.0125	229.800	229.702	290.961	327.103	320.041	319.032	330.952	348.450	386.579	302.436	271.964	287.198	365.096	240.795	142.707	309.241	0.00018599	0.00036177	6.3952e-05	1185.5	5.4739e-06	3.4793e-06	1253	248.25	1.0788e-06	2.9036e-06	308.87	85.733	66.719	19.743	4.767e-07	27.968	0.0002237	0.00022049	6.0848e-05	1153.8	2.4884e-06	2.4253e-06	1224.7	244.6	2.4878e-06	2.4064e-06	304.44	85.378	66.726	19.819	2.4515e-06	28.045	180.862	106.116	135.979	38.515	203.589	246.999	38.730	45.865	186.725	161.153	45.514	52.312	52.544	59.162	172.098	58.551	-8191	255	
2394.109	1	1	0	0	0.23398	0.10463	0.12688	0.28888	0.29512	0.25618	0.052365	0.15588	0.11342	0.22853	0.238	0.09975	0.21373	0.070022	0.33049	0.2111	-1.9583	-2.7167	-2.8583	-2.6021	-2.7938	-2.6229	-2.8312	-2.975	-2.6792	-2.7646	-3.0375	-2.4729	-2.8958	-2.7354	-2.6625	-2.8917	282.875	49.063	299.859	37.512	56.682	251.257	294.080	328.338	213.578	44.562	340.926	61.038	218.001	47.981	353.596	191.282	0.00019584	0.0001343	6.0075e-05	1181.8	2.9994e-06	3.046e-06	1251.2	246.47	4.6968e-07	2.3854e-06	309.63	85.364	66.758	19.762	4.0653e-06	27.981	0.00021981	0.00021846	6.0477e-05	1151.3	2.4406e-06	2.3663e-06	1223.3	244.08	2.4209e-06	2.4533e-06	304.87	85.649	66.533	19.821	2.402e-06	28.03	186.536	64.315	128.299	38.453	218.035	190.984	38.774	45.680	205.789	209.137	45.555	52.520	52.819	59.173	191.624	58.825	-8191	255	
2394.206	1	1	0	0	0.050566	0.16166	0.1077	0.14758	0.06583	0.091529	0.17655	0.25978	0.19942	0.10952	0.10906	0.083527	0.18038	0.27397	0.063268	0.24695	-2.2208	-2.8187	-2.9875	-2.6688	-2.9125	-2.7792	-2.7146	-3.1083	-2.6583	-2.8417	-3.2021	-2.5563	-3.1625	-2.775	-2.6146	-2.9292	194.277	384.075	112.841	387.298	180.340	31.083	351.038	330.674	179.539	173.297	343.159	337.196	347.669	329.966	326.947	329.047	0.00016374	0.00029038	0.00013269	1180.4	5.1763e-06	2.939e-06	1247.7	246.86	4.8255e-06	2.8521e-06	307.85	85.07	66.481	19.717	3.4073e-06	27.88	0.00022021	0.00022507	6.2714e-05	1151.9	2.5304e-06	2.4026e-06	1221.9	243.81	2.436e-06	2.4009e-06	304.2	85.189	66.528	19.802	2.4223e-06	27.997	187.923	144.250	102.416	38.811	186.957	217.599	38.905	46.108	200.204	171.644	45.630	52.904	52.333	58.987	181.353	58.919	-8191	255	
2394.302	1	1	0	0	0.23663	0.20298	0.022866	0.46828	0.2389	0.14062	0.22636	0.084182	0.16003	0.38568	0.090129	0.21215	0.12518	0.011898	0.24783	0.20076	-2.2375	-2.5771	-2.9458	-2.7479	-2.7375	-2.8542	-2.8542	-2.9875	-2.7833	-2.8958	-2.8958	-2.7146	-2.9125	-2.8688	-2.5938	-2.7771	171.048	294.625	133.384	364.191	177.418	64.506	334.614	277.474	130.251	145.976	29.874	252.833	199.866	221.585	115.252	379.337	0.0001931	0.00056647	0.00011995	1173.3	1.9302e-06	2.881e-06	1248.7	247.29	6.0899e-07	2.7364e-06	309.19	85.642	66.869	19.608	1.7491e-06	27.906	0.00022053	0.00022154	6.1731e-05	1147	2.4465e-06	2.3607e-06	1219	244.17	2.4625e-06	2.3979e-06	304.51	85.354	66.472	19.715	2.407e-06	27.909	180.796	146.983	101.913	38.412	186.698	255.241	38.790	46.001	238.653	239.183	45.475	52.744	52.397	59.442	200.910	58.715	-8191	255	
2394.398	1	1	0	0	0.17046	0.14751	0.14641	0.16242	0.17477	0.20759	0.40825	0.043755	0.16506	0.16981	0.3003	0.054365	0.11851	0.01373	0.24785	0.088788	-2.2667	-2.5563	-2.8979	-2.8375	-2.7896	-2.9146	-2.6708	-2.9625	-2.6104	-2.7042	-2.8458	-2.7917	-2.9083	-2.7292	-2.6708	-2.9125	125.159	380.799	115.695	284.562	286.801	270.961	327.627	127.034	127.557	367.073	385.562	278.895	188.560	164.613	255.912	64.636	0.0001907	0.00029201	9.7922e-05	1179.9	1.4259e-06	4.2691e-06	1246.5	247.06	1.7714e-06	3.3537e-06	307.91	85.063	66.724	19.609	3.7939e-06	27.847	0.00021314	0.00021601	6.0767e-05	1148.5	2.4261e-06	2.3996e-06	1218.5	243.49	2.4463e-06	2.4793e-06	303.29	85.156	66.555	19.753	2.4366e-06	27.907	185.757	106.954	124.834	38.629	237.377	196.286	38.803	45.849	177.708	150.065	45.613	52.591	52.830	59.391	207.364	58.797	-8191	255	
2394.494	1	1	0	0	0.069019	0.11992	0.078368	0.17492	0.069669	0.12693	0.080677	0.2549	0.037643	0.27678	0.21144	0.19628	0.26434	0.030971	0.086402	0.055057	-2.2354	-2.5271	-2.7979	-2.8021	-2.6458	-2.9292	-2.7542	-2.8063	-2.6688	-2.7625	-3.1354	-2.7417	-2.6833	-2.7708	-2.6125	-2.8375	254.833	230.344	206.994	268.072	174.534	211.768	159.152	332.966	221.220	139.490	299.562	318.841	363.969	195.889	360.916	28.602	0.000159	0.00061046	0.00016941	1171.5	5.5538e-06	3.1354e-06	1241.3	247.1	9.6472e-07	2.1721e-06	309.45	85.55	66.944	19.707	3.3054e-06	27.609	0.00022287	0.00022103	6.1296e-05	1143.7	2.4628e-06	2.417e-06	1216.9	243.37	2.4753e-06	2.3884e-06	303.94	85.319	66.486	19.756	2.3769e-06	27.815	190.788	98.421	114.727	38.542	197.501	167.977	38.913	45.823	219.649	245.100	45.310	52.605	53.061	58.927	170.293	58.857	-8191	255	
2394.613	1	1	0	0	0.23026	0.07189	0.16747	0.26465	0.2414	0.12147	0.10482	0.1836	0.063908	0.17759	0.13981	0.29699	0.088969	0.19866	0.26778	0.22644	-2.55	-2.5375	-2.9896	-2.7229	-2.6208	-2.8917	-2.7396	-2.7854	-2.7458	-2.7938	-3.0354	-2.7771	-2.7479	-2.7875	-2.7271	-2.9333	254.040	82.752	135.729	311.200	189.556	305.181	194.663	248.656	303.368	274.087	226.426	296.820	200.853	340.565	327.395	305.780	0.00019237	0.00043558	0.00011765	1171	3.4416e-06	4.339e-06	1240.2	246.25	2.6999e-06	2.57e-06	308.82	85.206	66.609	19.632	7.3916e-07	27.848	0.00021779	0.00022149	6.1208e-05	1144.6	2.4676e-06	2.4179e-06	1216.3	243.28	2.4563e-06	2.4766e-06	303.31	85.215	66.318	19.672	2.4788e-06	27.854	179.642	121.720	117.302	38.703	217.540	194.550	38.907	46.003	211.422	192.172	45.397	52.277	52.619	59.086	228.210	58.795	-8191	255	
2394.709	1	1	0	0	0.187	0.10663	0.13886	0.19586	0.052943	0.053375	0.18549	0.29172	0.35172	0.13886	0.22566	0.3686	0.16339	0.389	0.021399	0.157	-2.4479	-2.6083	-2.7542	-2.9167	-2.5396	-3.0542	-2.8167	-2.9437	-2.925	-2.4458	-3.0875	-2.9292	-2.6208	-2.9792	-2.8479	-2.8625	153.914	167.037	385.303	371.530	83.138	140.288	314.641	382.654	48.478	215.433	352.642	339.258	85.538	41.902	203.531	308.959	0.00019443	0.00034802	7.3202e-05	1168.8	4.0164e-06	3.8728e-06	1245.9	246.42	3.2311e-06	3.5935e-06	309.19	84.891	66.812	19.618	3.9408e-06	27.839	0.00022537	0.00022747	6.1505e-05	1143.2	2.4927e-06	2.4147e-06	1215.9	243.38	2.4849e-06	2.4978e-06	303.62	85.202	66.526	19.774	2.5159e-06	27.869	183.397	132.226	118.672	38.738	198.802	188.203	38.707	46.100	190.969	191.082	45.427	52.731	53.014	59.199	187.960	58.668	-8191	255	
2394.805	1	1	0	0	0.19769	0.14862	0.25581	0.16162	0.19589	0.16315	0.18373	0.075011	0.039388	0.040853	0.010344	0.1831	0.30124	0.13071	0.13541	0.13691	-2.6146	-2.6	-2.9188	-2.875	-2.6688	-2.8646	-2.7354	-2.5938	-2.6729	-2.5792	-3.0083	-2.8646	-2.5208	-2.7687	-2.7104	-2.6729	257.326	351.914	64.882	371.384	261.027	327.671	323.083	271.601	296.122	355.681	163.208	342.649	336.234	124.843	101.185	126.361	0.00018393	0.00049672	6.6477e-05	1179.5	3.81e-06	2.8353e-06	1246.3	247.1	3.092e-06	2.6671e-06	309.03	85.425	66.456	19.775	2.8604e-06	27.735	0.00022956	0.00023322	6.4626e-05	1146.6	2.577e-06	2.5094e-06	1217.8	243.47	2.5574e-06	2.5244e-06	303.71	85.309	66.63	19.828	2.511e-06	27.901	179.021	105.794	168.345	38.611	187.722	161.174	38.840	45.985	205.775	186.349	45.235	52.873	53.038	59.126	194.154	58.615	-8191	255	
2394.901	1	1	0	0	0.033374	0.18965	0.17591	0.22161	0.07169	0.13895	0.18496	0.38785	0.14229	0.20233	0.24615	0.062737	0.094207	0.22248	0.22912	0.13672	-2.5812	-2.6813	-2.7479	-3.1375	-2.5729	-3.0687	-2.8479	-2.6625	-2.95	-2.5479	-2.7542	-3.0167	-2.625	-2.7542	-2.8042	-2.5708	189.306	79.943	144.756	382.873	49.546	338.232	334.874	70.432	53.466	286.469	364.870	38.120	275.364	299.117	246.159	232.125	0.0001766	0.00031776	9.3982e-05	1177.6	3.4183e-06	2.9731e-06	1250.8	247.77	1.7655e-06	3.5904e-06	309.44	85.459	67.073	19.797	2.804e-06	27.888	0.00022989	0.00023266	6.4065e-05	1148.2	2.6236e-06	2.4719e-06	1220	244.07	2.5346e-06	2.5414e-06	304.03	85.462	66.565	19.803	2.6049e-06	27.973	182.731	95.174	141.403	38.518	234.929	212.779	38.958	46.028	161.868	193.661	45.264	52.811	52.598	59.115	223.537	58.934	-8191	255	
2394.997	1	1	0	0	0.10687	0.28447	0.052001	0.16712	0.027931	0.13606	0.29699	0.10728	0.072993	0.15153	0.10254	0.046899	0.12115	0.19031	0.085023	0.14391	-2.4938	-2.5375	-2.6646	-3.0187	-2.6292	-2.8229	-3.0125	-2.6667	-2.8563	-2.7167	-2.7375	-3.0729	-2.5417	-2.8812	-2.8354	-2.6542	260.026	170.438	82.934	291.514	369.555	137.995	290.870	239.081	211.523	111.692	72.331	216.651	54.208	277.017	328.281	348.946	0.00017031	0.00047254	7.2492e-05	1182.1	3.3682e-06	1.4031e-06	1251.3	246.65	1.5917e-06	1.9306e-06	309.94	85.514	67.22	19.717	1.6489e-06	27.91	0.0002335	0.0002305	6.3e-05	1150.5	2.5675e-06	2.5507e-06	1221.2	244.02	2.5155e-06	2.5923e-06	305.17	85.4	66.953	19.846	2.6003e-06	28.011	192.386	98.231	125.096	38.538	236.190	230.372	38.775	45.687	213.793	251.736	45.226	52.752	52.905	59.190	298.977	58.547	-8191	255	
2395.094	1	1	0	0	0.14964	0.32068	0.093746	0.1178	0.21333	0.24716	0.079724	0.1953	0.41959	0.135	0.066962	0.293	0.36582	0.095602	0.17278	0.14338	-2.6	-2.3937	-2.4208	-3.1417	-2.6562	-2.7687	-3.0042	-2.7562	-2.8833	-2.7521	-2.9313	-2.9396	-2.8187	-2.8146	-2.8792	-2.7333	322.284	261.504	115.440	289.752	211.559	311.195	376.586	251.780	277.411	47.528	289.842	239.665	341.523	128.022	368.701	349.700	0.00017432	0.00034966	4.2101e-05	1175	2.4998e-06	3.1044e-06	1253	247.53	2.5442e-06	2.9844e-06	310.74	85.546	66.908	19.722	3.2468e-06	27.803	0.00023771	0.00024099	6.7501e-05	1151.5	2.6561e-06	2.601e-06	1223.4	244.46	2.6058e-06	2.6002e-06	305.54	85.596	66.745	19.839	2.653e-06	27.992	186.388	149.728	315.749	38.647	182.174	158.921	38.707	45.874	199.537	158.675	45.556	52.512	52.442	59.411	172.050	58.818	-8191	255	
2395.214	1	1	0	0	0.14022	0.2647	0.10574	0.22347	0.28464	0.20301	0.1815	0.11455	0.21252	0.05136	0.15859	0.23691	0.16552	0.27845	0.11056	0.1296	-2.3812	-2.7208	-2.7229	-3.0896	-2.5833	-2.6937	-3.0563	-2.7542	-2.7375	-2.85	-2.7042	-2.9458	-2.5938	-2.8479	-2.8917	-2.6333	339.337	370.293	229.218	317.075	276.553	186.617	33.580	379.615	78.090	166.022	96.296	361.656	110.695	53.830	219.410	159.940	0.00019234	0.00040962	1.0579e-05	1175.3	2.9557e-06	5.2045e-06	1248.4	247.43	3.105e-06	2.0732e-06	309.26	86.012	66.777	19.805	1.3555e-06	27.798	0.00023935	0.00024032	6.8898e-05	1150.1	2.7234e-06	2.6129e-06	1222.6	244.37	2.6778e-06	2.6494e-06	305.19	85.753	66.738	19.892	2.6677e-06	27.995	177.336	95.159	223.733	38.613	273.783	187.917	38.842	46.007	241.705	164.671	45.268	52.343	53.033	59.090	197.130	58.862	-8191	255	
2395.310	1	1	0	0	0.17963	0.17025	0.067029	0.16287	0.1735	0.082326	0.079234	0.20066	0.15252	0.12722	0.29102	0.2346	0.1722	0.16667	0.18543	0.22558	-2.4042	-2.5229	-2.5646	-3.0187	-2.6188	-2.9958	-3.0062	-2.7104	-2.6729	-2.7667	-2.6229	-2.8542	-2.4896	-2.8208	-2.95	-2.7	289.652	224.878	292.048	329.924	63.313	211.169	312.242	258.221	322.777	338.266	307.082	268.473	308.255	309.868	122.955	76.568	0.00018932	0.00021406	9.8217e-05	1182.1	3.7862e-06	3.1118e-06	1253.8	247.86	1.5537e-06	3.0065e-06	311.8	85.439	67.122	19.802	2.0024e-06	27.877	0.00024375	0.00024396	6.6609e-05	1152.8	2.7716e-06	2.6958e-06	1224.7	244.76	2.6817e-06	2.6643e-06	305.94	85.605	66.978	19.9	2.7104e-06	28.079	183.707	116.149	131.072	38.537	219.619	243.411	38.852	45.879	143.526	177.684	45.451	52.380	53.123	58.868	191.036	58.923	-8191	255	
2395.407	1	1	0	0	0.25422	0.19344	0.11685	0.16018	0.13076	0.17631	0.18071	0.12349	0.15425	0.16672	0.11834	0.17631	0.21903	0.1553	0.3046	0.15776	-2.3271	-2.6562	-2.8063	-2.9229	-2.6667	-2.9271	-3.0417	-2.5708	-2.7333	-2.8438	-2.7375	-2.7479	-2.6063	-2.5021	-2.8792	-2.5646	110.518	76.890	268.615	305.900	30.835	56.469	320.066	99.910	195.469	268.569	113.996	335.280	95.700	93.401	33.959	370.239	0.00018613	0.00057286	6.8662e-05	1186.7	4.085e-06	4.2979e-06	1254	248.57	1.0492e-06	3.8904e-06	309.36	85.738	67.243	19.763	4.5396e-06	27.88	0.00024198	0.00024303	6.8314e-05	1157.6	2.7341e-06	2.6947e-06	1225.5	245.29	2.7554e-06	2.6736e-06	305.51	85.749	67.279	19.87	2.6923e-06	28.05	181.213	88.448	66.400	38.515	211.609	151.004	38.913	46.025	242.349	211.591	45.370	52.318	52.693	58.928	204.235	58.541	-8191	255	
2395.503	1	1	0	0	0.35062	0.11646	0.16124	0.14357	0.056607	0.11104	0.042154	0.29309	0.15727	0.12235	0.088159	0.089998	0.043884	0.21736	0.13368	0.057483	-2.4313	-2.8042	-2.5125	-3.0042	-2.8375	-2.4896	-3.1188	-2.6604	-2.7354	-2.8063	-2.7438	-2.8187	-2.9625	-2.7104	-2.8854	-2.5604	134.134	60.474	200.284	343.281	106.084	67.817	76.945	88.677	137.225	61.354	113.951	251.360	293.084	77.805	90.626	148.782	0.00017624	0.00040113	0.00012463	1182.1	6.3195e-06	1.7245e-06	1253.9	247.77	4.331e-06	2.004e-06	311.09	85.48	66.949	19.799	1.4285e-06	27.856	0.00024167	0.000245	6.829e-05	1155.8	2.7039e-06	2.6634e-06	1227.3	244.69	2.6906e-06	2.694e-06	306.21	85.479	66.844	19.889	2.6383e-06	27.979	181.295	81.133	100.159	38.475	238.776	192.442	38.751	45.880	203.793	212.584	45.522	52.680	52.660	58.930	267.070	58.616	-8191	255	
2395.599	1	1	0	0	0.0699	0.13589	0.060107	0.16368	0.26334	0.28373	0.37274	0.1001	0.25674	0.19716	0.10713	0.21499	0.35214	0.039226	0.074201	0.16712	-2.1208	-2.9437	-2.6208	-3.0625	-2.7062	-2.7062	-2.9625	-2.5792	-2.7229	-3.0104	-2.6604	-2.8146	-2.9313	-2.5812	-3.0042	-2.6729	253.926	142.122	88.771	49.161	180.909	236.396	319.771	116.773	382.618	362.501	314.768	87.827	109.805	233.112	352.682	273.332	0.00014487	6.2112e-05	0.0001061	1179.6	3.6287e-06	2.1155e-06	1250.8	247.41	1.6603e-06	6.5662e-07	308.73	85.268	67.197	19.669	2.7211e-06	27.99	0.00023417	0.00024116	6.755e-05	1154.5	2.6735e-06	2.6095e-06	1224.7	244.67	2.6196e-06	2.653e-06	305.28	85.504	66.91	19.8	2.6138e-06	27.967	190.253	257.318	91.018	38.453	235.764	157.185	38.922	45.828	301.687	107.029	45.579	52.883	52.997	59.096	244.785	58.550	-8191	255	
2395.693	1	1	0	0	0.21493	0.24576	0.11568	0.094521	0.12917	0.23941	0.20072	0.19729	0.33595	0.14264	0.054636	0.16279	0.10885	0.087898	0.171	0.27285	-2.2292	-2.9083	-2.4375	-2.95	-2.8937	-2.5854	-2.9229	-2.7146	-2.5833	-3	-2.5979	-2.7854	-2.8979	-2.4313	-2.8958	-2.5583	59.386	347.954	80.646	318.041	253.046	171.712	302.049	307.223	57.868	181.698	63.269	45.517	325.509	273.835	312.271	200.449	0.00019756	0.00029983	0.00011511	1185.4	3.976e-06	2.3222e-06	1253.5	247.36	2.9958e-06	2.4761e-06	310.72	85.79	67.057	19.724	3.5876e-06	27.909	0.00023549	0.00023927	6.5415e-05	1154.6	2.6421e-06	2.5745e-06	1224.9	244.56	2.6382e-06	2.5928e-06	305.18	85.703	66.922	19.859	2.6146e-06	27.986	186.026	153.105	175.612	38.175	229.441	177.140	38.859	45.680	229.375	175.727	45.819	52.585	53.013	58.823	238.660	58.980	-8191	255	
2395.789	1	1	0	0	0.088591	0.25324	0.098824	0.17729	0.23781	0.17497	0.12796	0.24362	0.1199	0.15762	0.35917	0.083747	0.22559	0.18367	0.19782	0.11281	-2.1437	-2.9021	-2.7896	-2.7875	-2.8146	-2.4896	-2.9771	-2.8417	-2.5604	-2.9062	-2.875	-2.7208	-2.825	-2.3604	-2.7146	-2.9542	366.777	107.618	192.349	291.945	186.282	270.866	358.927	361.415	120.068	251.931	255.266	160.633	40.462	94.996	374.236	213.361	0.00018939	0.00025763	0.00018576	1187.9	4.4916e-06	3.1315e-06	1253.6	248.66	3.9076e-06	1.7982e-06	309.23	85.55	66.904	19.703	3.013e-06	27.965	0.00023664	0.00023732	6.6507e-05	1157.3	2.6058e-06	2.5977e-06	1226.7	245.19	2.6142e-06	2.5599e-06	304.62	85.406	66.881	19.805	2.5108e-06	28.086	191.401	71.795	105.234	38.812	171.300	187.508	38.788	46.062	219.328	338.431	45.331	52.490	52.563	59.016	183.039	58.710	-8191	255	
2395.910	1	1	0	0	0.075177	0.13042	0.15758	0.27036	0.048292	0.11642	0.17063	0.13236	0.11635	0.15119	0.22421	0.17697	0.12485	0.15967	0.38515	0.47385	-2.0146	-2.8354	-2.5979	-2.7146	-2.9062	-2.6583	-3.05	-2.9021	-2.4625	-2.775	-2.8208	-2.5583	-2.7854	-2.5396	-2.6604	-2.8375	160.623	273.695	363.570	336.994	153.855	300.900	278.102	332.079	93.857	214.502	213.739	251.311	371.887	349.397	71.533	348.532	0.00017873	0.0002175	0.00010002	1183.1	3.51e-06	1.5489e-06	1248.9	247.31	2.6018e-06	2.8851e-06	309.89	85.755	67.118	19.686	9.2147e-07	28.157	0.0002396	0.00023343	6.6539e-05	1154.5	2.6131e-06	2.6015e-06	1223.5	244.38	2.6048e-06	2.5413e-06	304.94	85.54	66.922	19.818	2.6058e-06	28.034	187.680	125.458	135.725	38.704	187.121	130.799	38.864	46.021	203.806	191.944	45.840	52.419	53.094	59.134	136.102	58.523	-8191	255	
2396.006	1	1	0	0	0.21204	0.20617	0.15904	0.078986	0.096209	0.24745	0.24602	0.12389	0.086353	0.14196	0.17124	0.066062	0.16374	0.10553	0.0538	0.13427	-2.0625	-2.8	-2.6708	-2.5604	-2.9146	-2.6937	-2.9667	-2.7417	-2.5229	-2.9562	-2.7625	-2.75	-2.8104	-2.7	-2.6917	-3.0604	299.138	347.362	358.504	48.334	46.813	177.841	362.387	371.984	252.909	239.489	46.548	312.713	354.977	110.102	312.943	58.992	0.00018483	0.00066483	0.0001196	1184.1	5.1275e-06	3.1476e-06	1248	248.02	2.4498e-06	4.1529e-06	308.03	85.591	66.845	19.715	2.5729e-06	27.711	0.00023473	0.00023235	6.5799e-05	1152.3	2.6527e-06	2.5513e-06	1222.4	244.41	2.5664e-06	2.5961e-06	304.23	85.489	66.562	19.803	2.5487e-06	27.937	183.220	142.901	153.951	38.549	222.423	204.195	38.713	45.872	189.343	194.259	45.458	52.598	52.920	58.791	211.949	58.931	-8191	255	
2396.078	1	1	0	0	0.041197	0.24509	0.20921	0.3021	0.38319	0.23634	0.27107	0.12079	0.13041	0.20806	0.34004	0.12701	0.13753	0.27141	0.13083	0.15435	-2.2667	-2.8	-2.8521	-2.5292	-2.9458	-2.6229	-2.8292	-3.075	-2.6083	-2.8875	-2.9292	-2.6146	-2.9833	-2.7208	-2.6479	-2.9917	312.924	302.516	54.939	358.787	313.218	147.299	315.290	303.229	155.192	130.506	46.950	380.451	46.050	71.434	317.643	249.061	0.00021245	0.00035753	7.9622e-05	1178.1	5.078e-06	4.5983e-06	1247.6	247.52	2.2196e-06	6.4762e-07	309.2	84.924	66.961	19.832	1.4412e-06	27.904	0.00023189	0.00023572	6.4359e-05	1149.7	2.6778e-06	2.5907e-06	1221.1	244.11	2.6906e-06	2.611e-06	304.7	85.425	66.862	19.851	2.6452e-06	27.99	183.440	96.970	160.710	38.616	268.565	218.351	38.875	46.052	252.956	208.693	45.362	52.678	52.973	59.162	214.918	58.939	-8191	255	
2396.174	1	1	0	0	0.064157	0.14668	0.1917	0.24345	0.40395	0.17166	0.19373	0.19221	0.40465	0.036921	0.11201	0.14885	0.13041	0.1973	0.21725	0.15689	-2.1854	-2.5979	-2.7396	-2.6646	-2.85	-2.7938	-2.8	-3.1188	-2.5771	-2.7062	-2.9583	-2.5	-3.0292	-2.8542	-2.6458	-3.0229	258.404	37.096	287.416	371.008	164.694	205.453	376.907	324.883	304.805	197.274	32.975	242.265	127.372	318.618	360.177	98.851	0.00017919	0.00025578	3.4125e-05	1176.8	6.1735e-06	1.3975e-06	1248.8	247.26	3.6564e-06	4.8139e-06	308.95	84.971	67.033	19.601	5.2335e-06	27.868	0.00023562	0.00024266	6.544e-05	1148.7	2.6297e-06	2.5869e-06	1218.8	244	2.611e-06	2.5542e-06	303.78	85.335	66.507	19.732	2.5464e-06	27.922	190.660	85.830	163.811	38.800	188.851	147.742	38.807	45.792	204.086	214.079	45.533	52.501	53.069	59.348	227.322	58.769	-8191	255	
2396.295	1	1	0	0	0.16394	0.20025	0.21632	0.14782	0.28192	0.15909	0.12114	0.14716	0.19286	0.042106	0.13243	0.27974	0.073703	0.076646	0.08733	0.17303	-2.2125	-2.725	-2.7479	-2.6083	-2.8333	-3.0375	-2.7625	-2.7729	-2.6375	-2.5563	-2.9458	-2.5875	-2.9917	-2.75	-2.7458	-2.8833	210.444	194.832	256.163	29.373	166.586	387.819	36.567	36.492	162.324	320.795	318.415	269.915	333.911	182.655	160.040	296.032	0.00015896	0.00051489	0.00011184	1170.8	2.8325e-06	3.2928e-06	1248.6	246.78	1.901e-06	4.5416e-06	307.14	85.202	66.927	19.688	2.7689e-06	27.845	0.00023696	0.00023498	6.319e-05	1146.2	2.6225e-06	2.5163e-06	1219.5	243.62	2.6322e-06	2.5871e-06	303.55	85.256	66.72	19.746	2.6619e-06	27.918	182.308	62.367	124.949	38.702	240.893	171.896	38.983	45.960	147.861	224.409	45.526	52.602	52.773	59.078	133.704	58.861	-8191	255	
2396.391	1	1	0	0	0.10728	0.070989	0.13667	0.32463	0.10627	0.19592	0.12924	0.28702	0.07204	0.11475	0.28183	0.21501	0.079439	0.24917	0.23541	0.18097	-2.2521	-2.7396	-2.7479	-2.6813	-2.8646	-2.6771	-2.7125	-3.025	-2.6354	-2.6188	-2.9875	-2.6125	-2.8937	-2.8042	-2.6354	-2.8583	364.109	298.060	124.505	378.723	30.047	48.552	233.027	329.371	139.427	154.846	385.546	283.478	339.815	281.493	35.366	47.093	0.00019838	0.00032612	0.00020847	1175.6	4.4377e-06	3.317e-06	1247.7	246.53	2.0987e-06	2.6611e-06	308.59	85.086	66.939	19.624	3.3371e-06	27.791	0.00024145	0.00023506	6.5257e-05	1147.8	2.6421e-06	2.5738e-06	1217.1	243.78	2.6337e-06	2.5696e-06	303.85	85.341	66.628	19.749	2.5951e-06	27.935	184.166	98.209	103.257	38.529	224.890	152.730	38.937	45.787	164.915	195.970	45.507	52.686	52.468	58.824	235.664	58.616	-8191	255	
2396.487	1	1	0	0	0.2531	0.20303	0.18127	0.28821	0.34023	0.24875	0.16883	0.119	0.22937	0.036199	0.16881	0.21262	0.1068	0.24076	0.13049	0.1563	-2.2292	-2.6979	-2.9917	-2.7812	-2.7458	-2.8146	-2.725	-2.8979	-2.8979	-2.55	-3.1292	-2.8729	-2.7	-2.7271	-2.7542	-2.9708	206.766	204.350	367.004	368.247	321.383	52.177	94.253	73.313	310.682	55.215	369.881	342.819	330.511	33.212	94.223	76.788	0.00019743	0.00025827	6.5063e-05	1176.2	3.5253e-06	3.0773e-06	1243.9	247.7	2.4173e-06	2.4467e-06	309.32	85.671	66.879	19.75	1.7876e-06	27.734	0.00023897	0.00023739	6.5816e-05	1149.5	2.6797e-06	2.6163e-06	1218.7	243.6	2.665e-06	2.6517e-06	304.06	85.429	66.628	19.813	2.6513e-06	27.95	180.737	82.865	138.320	38.564	202.137	170.577	38.945	45.799	194.461	213.747	45.475	52.578	52.965	58.867	142.974	58.833	-8191	255	
2396.583	1	1	0	0	0.26997	0.26443	0.077245	0.10282	0.14233	0.2309	0.11492	0.32665	0.13157	0.015202	0.08827	0.14852	0.17852	0.1787	0.145	0.093835	-2.4479	-2.4583	-2.8604	-2.6813	-2.7979	-2.9188	-2.7146	-2.7771	-2.7792	-2.5958	-2.9625	-2.6125	-2.6479	-2.8979	-2.5521	-2.7833	165.726	175.730	66.094	339.996	83.102	300.699	312.110	312.527	216.958	177.793	67.555	30.683	282.298	313.123	365.707	247.451	0.00019462	0.00026616	0.00014169	1181.8	4.8691e-06	4.2745e-06	1248.6	247.4	3.5949e-06	7.3102e-07	310.57	85.644	67.298	19.837	2.2336e-06	27.778	0.00023802	0.00024253	6.6355e-05	1151.7	2.7116e-06	2.6234e-06	1221.8	244.36	2.6094e-06	2.5547e-06	305.02	85.443	66.837	19.81	2.6525e-06	27.959	191.728	136.063	112.895	38.484	215.875	128.103	38.821	45.895	238.119	103.354	45.396	52.323	52.947	58.779	259.785	58.860	-8191	255	
2396.704	1	1	0	0	0.12366	0.24649	0.091109	0.20748	0.16419	0.17112	0.2874	0.12172	0.026683	0.28258	0.17981	0.20856	0.27812	0.28596	0.056728	0.034876	-2.3875	-2.6708	-2.9437	-2.7875	-2.5854	-2.9771	-2.8708	-2.7771	-2.8271	-2.6604	-2.9604	-2.7729	-2.8021	-2.8375	-2.4979	-2.8083	263.204	132.302	43.481	100.340	179.417	112.812	307.531	221.301	146.835	147.216	376.542	376.917	342.198	40.195	105.049	331.947	0.00018865	0.00030593	2.9947e-05	1180.2	1.9264e-06	1.5295e-06	1247.3	247.16	1.6015e-06	2.8859e-06	310.04	85.463	66.885	19.618	1.7419e-06	28.042	0.00023376	0.00023726	6.5954e-05	1152	2.6744e-06	2.6471e-06	1222.5	244.02	2.6375e-06	2.6267e-06	304.69	85.518	66.789	19.782	2.6324e-06	27.923	181.538	161.481	112.979	38.745	218.647	222.930	38.761	46.031	221.315	183.109	45.300	52.484	53.311	59.008	230.238	58.514	-8191	255	
2396.775	1	1	0	0	0.11742	0.19193	0.04991	0.17689	0.19926	0.49904	0.10982	0.062529	0.22561	0.20138	0.36005	0.25343	0.20679	0.3288	0.17513	0.30911	-2.4021	-2.5771	-2.7708	-2.9771	-2.6	-3.0458	-2.8146	-2.7812	-2.9792	-2.6729	-2.9146	-2.8333	-2.6833	-2.9562	-2.6875	-2.8458	127.437	375.622	74.463	336.960	113.104	168.525	28.377	340.225	75.000	81.651	343.539	361.091	58.641	339.652	241.633	340.048	0.00018157	0.00036983	0.00013798	1185.5	2.3024e-06	2.0059e-06	1250.3	247.22	2.1281e-06	1.1744e-06	310.02	85.546	66.642	19.663	4.2779e-06	27.848	0.00023439	0.00024045	6.5146e-05	1154.2	2.6663e-06	2.5799e-06	1222.6	244	2.6247e-06	2.5791e-06	305.04	85.542	66.605	19.77	2.5576e-06	27.942	179.621	83.935	161.300	38.689	193.209	187.377	38.822	45.893	214.846	210.848	45.493	52.296	52.903	59.008	166.353	58.923	-8191	255	
2396.894	1	1	0	0	0.2314	0.11604	0.11734	0.23716	0.066179	0.049863	0.062638	0.36843	0.1426	0.15943	0.10411	0.1466	0.092097	0.23502	0.096291	0.25551	-2.4979	-2.6271	-2.8083	-3.1271	-2.55	-3.0583	-2.7438	-2.7	-3.0187	-2.6646	-3.0854	-2.9938	-2.7271	-3.0292	-2.8917	-2.6813	306.180	231.711	237.134	346.196	257.621	52.031	70.206	302.080	284.752	96.756	125.626	207.935	345.097	101.677	66.876	57.392	0.0002228	0.0001483	9.9486e-05	1181.3	4.3704e-06	2.6643e-06	1247.1	246.97	2.5103e-06	4.4635e-06	309.54	85.611	66.772	19.728	5.8564e-06	27.913	0.00022998	0.00023893	6.5366e-05	1151.8	2.6922e-06	2.6555e-06	1222.1	243.9	2.6828e-06	2.6103e-06	304.27	85.397	66.798	19.775	2.629e-06	28.063	180.619	183.661	132.415	38.617	218.648	244.624	38.897	45.907	175.618	179.820	45.188	52.561	53.155	58.994	195.726	58.785	-8191	255	
2396.990	1	1	0	0	0.17101	0.055691	0.16862	0.099075	0.082068	0.12811	0.27538	0.3047	0.071828	0.1167	0.11098	0.090174	0.088564	0.25617	0.24644	0.15101	-2.4604	-2.5229	-2.8583	-3.1458	-2.6146	-2.7771	-2.9542	-2.7938	-3.0354	-2.6958	-2.9333	-2.8937	-2.5521	-2.8563	-2.8896	-2.6542	280.710	123.407	128.269	97.958	202.426	383.226	359.679	323.981	137.861	123.728	261.547	302.434	226.039	299.372	161.594	298.049	0.00018681	0.00046768	0.00012752	1175.6	2.3731e-06	5.7688e-06	1253.2	246.9	2.8331e-06	5.6641e-06	306.68	85.38	66.609	19.852	3.1447e-06	27.852	0.00023558	0.00023828	6.8055e-05	1150.4	2.6646e-06	2.5565e-06	1222	243.78	2.6299e-06	2.5851e-06	303.69	85.305	66.746	19.806	2.6357e-06	27.894	193.564	134.665	158.501	38.626	259.650	172.780	38.890	45.885	182.917	221.211	45.470	52.097	52.818	58.970	215.059	58.730	-8191	255	
2397.087	1	1	0	0	0.048294	0.177	0.037843	0.28604	0.16655	0.061018	0.29918	0.21072	0.012591	0.19481	0.14528	0.2952	0.12179	0.079854	0.045753	0.14539	-2.4938	-2.5604	-2.8688	-3.1417	-2.6333	-2.9021	-2.9167	-2.6542	-2.8812	-2.7438	-2.6417	-2.9542	-2.6125	-2.7375	-2.7938	-2.6729	57.528	166.094	117.471	342.651	94.792	266.492	351.756	326.955	355.290	357.358	383.825	343.756	68.559	60.022	349.565	132.530	0.00017464	0.00019877	0.00011723	1176.2	2.3447e-06	1.9468e-06	1251.7	247.01	2.5479e-06	1.0745e-06	308.82	85.194	66.88	19.663	2.2684e-06	27.868	0.00023564	0.00023511	6.4963e-05	1148.6	2.6714e-06	2.5567e-06	1220.6	243.97	2.6031e-06	2.6865e-06	304.44	85.437	66.911	19.753	2.6416e-06	27.971	185.251	147.166	120.390	38.372	196.322	234.432	38.772	46.037	201.798	310.786	45.617	52.549	52.945	59.131	175.139	58.714	-8191	255	
2397.183	1	1	0	0	0.13901	0.17455	0.23221	0.29544	0.094337	0.16558	0.33627	0.12461	0.038141	0.13948	0.20778	0.20842	0.128	0.10146	0.28445	0.22172	-2.5917	-2.7438	-2.5854	-3.075	-2.675	-2.8771	-3.1521	-2.5896	-2.6229	-2.9688	-2.9042	-2.8771	-2.525	-2.8146	-2.9396	-2.55	256.146	300.307	198.736	338.780	216.668	308.996	348.024	276.824	275.394	154.859	359.053	146.411	51.105	33.588	48.481	71.175	0.00019954	0.00070455	0.00014978	1183.8	3.7986e-06	4.0911e-06	1252.4	245.94	2.9143e-06	4.0578e-07	309.76	85.278	67.209	19.692	3.0023e-06	27.985	0.00023898	0.0002442	6.6409e-05	1153.7	2.7035e-06	2.595e-06	1223.1	243.59	2.6947e-06	2.6204e-06	304.34	85.417	66.877	19.808	2.656e-06	27.976	179.279	116.685	111.871	38.702	205.295	208.504	38.851	45.747	225.818	67.477	45.342	52.522	52.940	58.922	204.404	58.923	-8191	255	
2397.303	1	1	0	0	0.22803	0.074777	0.20737	0.15371	0.16018	0.25049	0.11155	0.22098	0.17307	0.24927	0.23949	0.038463	0.18379	0.087462	0.28734	0.35741	-2.5625	-2.7729	-2.6917	-3.1437	-2.5792	-2.7875	-3.0479	-2.5958	-2.9813	-2.725	-2.7875	-2.9396	-2.5458	-2.85	-2.875	-2.6146	117.617	73.524	358.439	272.045	247.904	240.946	293.693	49.385	347.764	199.324	258.771	103.719	30.351	102.345	347.214	303.937	0.00019334	0.000218	0.00011212	1179.4	4.1512e-06	2.9393e-06	1254	247.2	2.4373e-06	1.6939e-06	308.5	85.635	67.016	19.647	3.7742e-06	27.843	0.00024177	0.00024171	6.8032e-05	1151.4	2.7278e-06	2.6436e-06	1222.3	243.64	2.6631e-06	2.6243e-06	304.15	85.37	66.854	19.77	2.5864e-06	27.905	185.599	117.866	124.736	38.503	212.842	204.077	38.754	45.776	229.813	220.458	45.455	52.543	52.723	59.008	230.415	58.639	-8191	255	
2397.375	1	1	0	0	0.16259	0.14292	0.14943	0.15297	0.15956	0.035812	0.1009	0.23268	0.10987	0.14343	0.14812	0.12131	0.13316	0.14418	0.072451	0.1035	-2.2875	-2.6896	-2.7333	-2.9688	-2.5375	-2.8229	-3.1083	-2.6854	-2.925	-2.9333	-2.7458	-3.0375	-2.8458	-2.7042	-2.9833	-2.6354	372.080	278.397	174.015	48.458	321.572	81.298	262.446	54.673	295.305	31.694	122.511	186.027	245.705	342.121	156.815	328.635	0.00016268	0.0003711	2.0393e-05	1181.3	7.9171e-07	4.034e-06	1248	246.78	1.322e-06	5.9034e-06	306.66	85.495	66.85	19.696	4.5548e-07	27.76	0.00024236	0.00023596	6.7891e-05	1152	2.7036e-06	2.6771e-06	1221.8	243.92	2.7084e-06	2.635e-06	303.63	85.347	66.717	19.766	2.6494e-06	27.874	191.074	79.267	163.979	38.371	70.362	209.885	38.894	45.857	242.952	142.954	45.646	52.533	52.963	59.144	283.589	59.035	-8191	255	
#DATA ENDS
