BOXY.EXE: ISS Imagent and Oximeter Data Acquisition Program Version 0.80
Ascii Record File

#ACQ INFORMATION
2  Detector Channels 
16  External MUX Channels 
1  Auxiliary Channels 
5000  Waveform (CCF) Frequency (Hz)
1  Waveforms Skipped 
30  Waveforms Averaged 
1  Cycles Averaged 
16  Acquisitions per Waveform 
10.0806  Updata Rate (Hz) 

#FILE INFORMATION
TRUE -- External MUX Channel results are PARSED.
FALSE -- AC DC and Phase are NOT grouped.
TRUE -- Companion Program Settings File CREATED.
FALSE -- AC data not excluded
FALSE -- DC data not excluded
FALSE -- Phase data not excluded
FALSE -- Auxillary Chn. data not excluded
Tab delimiters

#CALIBRATION STATE
TRUE -- Waveform Calibration Values APPLIED.


#AUX CALIBRATION VALUES
Val Type	aux-1	

Term	1.0000e+00	
Factor	0.0000e+00	


#WF CALIBRATION VALUES
A = Detector Channel
Val Type	A-AC1	A-AC2	A-AC3	A-AC4	A-AC5	A-AC6	A-AC7	A-AC8	A-AC9	A-AC10	A-AC11	A-AC12	A-AC13	A-AC14	A-AC15	A-AC16	A-DC1	A-DC2	A-DC3	A-DC4	A-DC5	A-DC6	A-DC7	A-DC8	A-DC9	A-DC10	A-DC11	A-DC12	A-DC13	A-DC14	A-DC15	A-DC16	A-Ph1	A-Ph2	A-Ph3	A-Ph4	A-Ph5	A-Ph6	A-Ph7	A-Ph8	A-Ph9	A-Ph10	A-Ph11	A-Ph12	A-Ph13	A-Ph14	A-Ph15	A-Ph16	

Term	0.00000e+00	0.00000e+00	0.00000e+00	0.00000e+00	0.00000e+00	0.00000e+00	0.00000e+00	0.00000e+00	0.00000e+00	0.00000e+00	0.00000e+00	0.00000e+00	0.00000e+00	0.00000e+00	0.00000e+00	0.00000e+00	0.00000e+00	0.00000e+00	0.00000e+00	0.00000e+00	0.00000e+00	0.00000e+00	0.00000e+00	0.00000e+00	0.00000e+00	0.00000e+00	0.00000e+00	0.00000e+00	0.00000e+00	0.00000e+00	0.00000e+00	0.00000e+00	0.00000e+00	0.00000e+00	0.00000e+00	0.00000e+00	0.00000e+00	0.00000e+00	0.00000e+00	0.00000e+00	0.00000e+00	0.00000e+00	0.00000e+00	0.00000e+00	0.00000e+00	0.00000e+00	0.00000e+00	0.00000e+00	
Factor	1.00000e+00	1.00000e+00	1.00000e+00	1.00000e+00	1.00000e+00	1.00000e+00	1.00000e+00	1.00000e+00	1.00000e+00	1.00000e+00	1.00000e+00	1.00000e+00	1.00000e+00	1.00000e+00	1.00000e+00	1.00000e+00	1.00000e+00	1.00000e+00	1.00000e+00	1.00000e+00	1.00000e+00	1.00000e+00	1.00000e+00	1.00000e+00	1.00000e+00	1.00000e+00	1.00000e+00	1.00000e+00	1.00000e+00	1.00000e+00	1.00000e+00	1.00000e+00	X	X	X	X	X	X	X	X	X	X	X	X	X	X	X	X	

B = Detector Channel
Val Type	B-AC1	B-AC2	B-AC3	B-AC4	B-AC5	B-AC6	B-AC7	B-AC8	B-AC9	B-AC10	B-AC11	B-AC12	B-AC13	B-AC14	B-AC15	B-AC16	B-DC1	B-DC2	B-DC3	B-DC4	B-DC5	B-DC6	B-DC7	B-DC8	B-DC9	B-DC10	B-DC11	B-DC12	B-DC13	B-DC14	B-DC15	B-DC16	B-Ph1	B-Ph2	B-Ph3	B-Ph4	B-Ph5	B-Ph6	B-Ph7	B-Ph8	B-Ph9	B-Ph10	B-Ph11	B-Ph12	B-Ph13	B-Ph14	B-Ph15	B-Ph16	

Term	0.00000e+00	0.00000e+00	0.00000e+00	0.00000e+00	0.00000e+00	0.00000e+00	0.00000e+00	0.00000e+00	0.00000e+00	0.00000e+00	0.00000e+00	0.00000e+00	0.00000e+00	0.00000e+00	0.00000e+00	0.00000e+00	0.00000e+00	0.00000e+00	0.00000e+00	0.00000e+00	0.00000e+00	0.00000e+00	0.00000e+00	0.00000e+00	0.00000e+00	0.00000e+00	0.00000e+00	0.00000e+00	0.00000e+00	0.00000e+00	0.00000e+00	0.00000e+00	-9.29970e+01	-1.31392e+02	-1.23755e+02	-1.81317e+02	-5.33619e+01	-6.48182e+01	-1.56949e+02	-1.62015e+02	-5.50886e+01	-6.87642e+01	-1.71959e+02	-1.70284e+02	-1.79234e+02	-1.77030e+02	-6.24173e+01	-1.49880e+02	
Factor	2.02525e-05	2.04927e-04	5.47415e-05	1.73521e-01	1.61479e-06	2.15799e-06	2.08365e-01	7.47178e-02	1.46152e-06	2.09857e-06	1.03330e-01	3.53755e-02	3.43424e-02	1.15752e-02	1.82063e-06	1.65684e-02	1.86485e-05	4.58517e-05	1.28386e-05	8.54534e-02	4.13224e-07	5.17627e-07	9.68864e-02	3.69658e-02	4.35134e-07	5.18470e-07	4.97831e-02	1.71989e-02	1.73445e-02	5.78419e-03	4.58961e-07	8.02566e-03	X	X	X	X	X	X	X	X	X	X	X	X	X	X	X	X	



#DISTANCE SETTINGS
A = Detector Channel
A-1	A-2	A-3	A-4	A-5	A-6	A-7	A-8	A-9	A-10	A-11	A-12	A-13	A-14	A-15	A-16	

2.5000e+00	3.0000e+00	2.5000e+00	3.0000e+00	2.0000e+00	3.0000e+00	1.5000e+00	3.0000e+00	3.0000e+00	3.0000e+00	3.0000e+00	3.0000e+00	3.0000e+00	3.0000e+00	1.5000e+00	3.0000e+00	

B = Detector Channel
B-1	B-2	B-3	B-4	B-5	B-6	B-7	B-8	B-9	B-10	B-11	B-12	B-13	B-14	B-15	B-16	

1.0000e+01	1.0000e+01	1.0000e+01	1.4400e+00	1.0000e+01	1.0000e+01	1.5100e+00	1.9400e+00	1.0000e+01	1.0000e+01	1.9900e+00	2.4900e+00	2.4100e+00	2.9000e+00	1.0000e+01	2.9800e+00	




#DATA BEGINS
time	group	step	mark	flag	A-AC1	A-AC2	A-AC3	A-AC4	A-AC5	A-AC6	A-AC7	A-AC8	A-AC9	A-AC10	A-AC11	A-AC12	A-AC13	A-AC14	A-AC15	A-AC16	A-DC1	A-DC2	A-DC3	A-DC4	A-DC5	A-DC6	A-DC7	A-DC8	A-DC9	A-DC10	A-DC11	A-DC12	A-DC13	A-DC14	A-DC15	A-DC16	A-Ph1	A-Ph2	A-Ph3	A-Ph4	A-Ph5	A-Ph6	A-Ph7	A-Ph8	A-Ph9	A-Ph10	A-Ph11	A-Ph12	A-Ph13	A-Ph14	A-Ph15	A-Ph16	B-AC1	B-AC2	B-AC3	B-AC4	B-AC5	B-AC6	B-AC7	B-AC8	B-AC9	B-AC10	B-AC11	B-AC12	B-AC13	B-AC14	B-AC15	B-AC16	B-DC1	B-DC2	B-DC3	B-DC4	B-DC5	B-DC6	B-DC7	B-DC8	B-DC9	B-DC10	B-DC11	B-DC12	B-DC13	B-DC14	B-DC15	B-DC16	B-Ph1	B-Ph2	B-Ph3	B-Ph4	B-Ph5	B-Ph6	B-Ph7	B-Ph8	B-Ph9	B-Ph10	B-Ph11	B-Ph12	B-Ph13	B-Ph14	B-Ph15	B-Ph16	aux-1	digaux	

43220.035	1	1	0	256	0.51195	0.25082	0.16071	0.38392	0.09715	0.069672	0.020492	0.32609	0.041257	0.14972	0.26038	0.15942	0.3621	0.069031	0.087342	0.19117	-1.6875	-1.9292	-2.3979	-2.0667	-2.2521	-2.475	-2.1188	-2.3438	-2.3604	-1.95	-2.5021	-2.1542	-2.1354	-2.2896	-1.8792	-2.3667	219.285	385.235	486.214	433.125	284.024	255.168	438.289	487.927	394.111	454.749	429.599	320.668	424.365	229.168	486.124	397.352	0.00028281	0.00028647	6.2467e-05	757.07	1.4864e-06	5.4669e-06	582.55	262.15	3.7817e-06	2.7081e-06	184	64.916	98.411	41.131	3.3908e-06	29.652	0.0011953	0.0024027	0.0006885	744.26	2.1566e-05	5.4451e-05	572.03	258.97	2.2624e-05	2.6047e-05	186.31	64.933	98.404	41.138	2.3151e-05	30.021	229.137	223.775	202.865	162.586	338.474	284.456	161.003	167.535	318.508	299.094	165.236	169.531	171.962	176.553	277.978	172.645	-8191	255	
43220.133	1	1	0	0	0.037293	0.028541	0.070309	0.3037	0.19477	0.12815	0.060043	0.22796	0.22867	0.18169	0.19056	0.22432	0.060328	0.14145	0.24131	0.1444	-1.675	-1.875	-2.3979	-1.9958	-2.2062	-2.5104	-2.1229	-2.4125	-2.35	-2.1	-2.5417	-2.0021	-2.3417	-2.35	-1.9125	-2.1229	485.734	505.349	270.549	460.242	168.185	255.568	398.869	440.466	492.120	160.047	273.000	323.680	217.163	507.460	271.861	432.077	0.00028687	0.00037038	0.00010077	766.72	3.863e-06	1.211e-05	584.83	262.42	4.1692e-06	2.2438e-06	184.6	65.03	98.142	40.637	9.2296e-07	28.728	0.0010803	0.0021854	0.00062059	752.08	1.9918e-05	4.4774e-05	576.65	260.77	2.1173e-05	2.4686e-05	187.57	64.763	97.995	40.675	2.1887e-05	29.009	225.140	229.464	278.971	162.588	298.810	354.247	161.615	167.809	281.370	303.697	165.549	169.642	172.041	176.583	304.021	172.723	-8191	255	
43220.254	1	1	0	0	0.070161	0.3198	0.095456	0.16621	0.1941	0.15893	0.09872	0.2174	0.092793	0.11944	0.095614	0.18437	0.019287	0.13154	0.13717	0.16839	-1.8854	-1.9417	-2.5062	-2.2042	-2.0312	-2.5604	-2.2125	-2.2333	-2.2479	-2.075	-2.2625	-2.2167	-2.0542	-2.4667	-2.0042	-2.2896	160.219	476.503	419.604	190.973	306.827	269.683	480.879	459.433	167.360	199.661	498.822	333.454	294.787	424.469	395.214	163.120	0.00033849	0.00022762	5.2635e-05	763.76	4.9269e-06	1.5326e-05	580.19	259.17	3.8238e-06	5.1186e-06	182.55	63.179	96.265	39.169	4.6321e-06	27.998	0.0012734	0.0021433	0.00059478	748.48	1.8998e-05	5.225e-05	570.42	257.06	1.9904e-05	2.3271e-05	183.63	63.201	96.336	39.312	2.1115e-05	28.106	225.287	253.462	224.996	162.617	326.092	368.107	161.231	167.612	316.788	312.064	165.480	169.402	172.221	176.241	276.687	172.738	-8191	255	
43220.352	1	1	0	0	0.11025	0.18542	0.18648	0.084463	0.18391	0.24081	0.17524	0.16137	0.20842	0.16753	0.20512	0.14499	0.18698	0.26869	0.19965	0.056307	-1.8583	-1.9104	-2.4188	-2.3792	-2.0292	-2.4708	-2.0417	-2.0979	-2.4229	-2.0229	-2.425	-2.3688	-2.2438	-2.4854	-2.1271	-2.175	168.190	447.868	184.356	483.737	256.626	238.463	488.257	487.068	494.323	473.557	170.625	508.008	249.395	265.430	380.599	439.778	0.00038094	0.00017862	0.00012361	757.64	1.9146e-06	1.1179e-05	577.1	258.37	3.9888e-06	2.706e-06	181.72	63.083	95.591	38.814	9.5334e-07	27.641	0.0019915	0.0020968	0.00057501	744.84	1.844e-05	4.2605e-05	568.3	255.77	1.9923e-05	2.2827e-05	183.27	62.714	95.437	38.786	1.9696e-05	27.655	221.453	207.226	262.216	162.469	295.415	357.249	161.593	167.535	287.224	303.421	165.202	169.552	172.179	176.528	278.677	172.600	-8191	255	
43220.445	1	1	0	0	0.29698	0.32056	0.13596	0.29409	0.076768	0.19788	0.1253	0.17316	0.1317	0.27106	0.14343	0.15467	0.24194	0.076902	0.11285	0.22497	-2.0062	-1.9375	-2.2083	-2.3667	-1.9708	-2.6021	-2.2417	-2.1958	-2.4729	-1.8521	-2.4062	-2.3167	-2.1646	-2.3292	-2.0208	-2.0875	225.821	373.978	340.273	159.108	453.983	374.671	417.407	500.344	224.463	186.135	360.451	479.331	200.340	330.100	170.981	299.982	0.00033312	0.00029161	5.523e-05	757.53	3.677e-06	1.115e-05	578.16	258.41	3.6725e-06	4.3188e-06	181.46	62.814	96.036	38.672	2.7064e-06	27.756	0.0016466	0.0020209	0.00053232	745.62	1.8388e-05	4.9911e-05	568.35	255.69	1.9503e-05	2.2586e-05	181.66	63.054	95.725	38.746	2.0453e-05	27.765	231.696	264.306	278.874	162.548	292.530	376.716	161.335	167.616	297.561	344.899	165.507	169.226	171.900	176.330	322.236	172.733	-8191	255	
43220.566	1	1	0	0	0.29655	0.22377	0.17375	0.14976	0.022934	0.24432	0.24846	0.17479	0.16685	0.28657	0.084951	0.18585	0.23712	0.25448	0.16116	0.12121	-2.1292	-2.0042	-2.1479	-2.3563	-2.0021	-2.2354	-2.2458	-2.1771	-2.4083	-1.9688	-2.2833	-2.3875	-2.0583	-2.4146	-2.2271	-2.1896	300.956	398.595	153.330	435.483	328.786	322.471	306.489	202.175	256.093	401.187	242.070	200.540	452.217	214.949	317.003	357.759	0.00034545	0.00026153	5.6441e-05	762.13	2.9502e-06	6.1817e-06	581.14	260.45	2.0335e-06	3.4717e-06	184.59	64.009	96.93	39.001	1.7859e-06	28.063	0.0020078	0.0019881	0.00053909	747.93	1.8568e-05	4.1518e-05	571.7	257.57	1.9871e-05	2.286e-05	182.79	64.716	96.745	39.067	1.9993e-05	27.939	230.952	241.096	233.158	162.338	294.084	361.428	161.473	167.396	284.220	319.198	165.284	169.335	172.088	176.357	316.603	172.687	-8191	255	
43220.637	1	1	0	0	0.12952	0.17537	0.15044	0.21219	0.33417	0.23859	0.12541	0.27426	0.088966	0.147	0.11144	0.16979	0.039227	0.23583	0.08761	0.20396	-1.8396	-2.1312	-2.2812	-2.4229	-2.0167	-2.3	-2.3063	-2.0938	-2.3958	-2.3354	-2.1896	-2.4437	-2.0375	-2.3854	-2.2833	-1.9021	462.822	496.524	274.783	426.269	156.220	475.260	464.398	459.021	241.707	206.496	204.071	475.698	480.118	211.028	310.972	455.106	0.00035493	0.00035322	6.5607e-05	759.06	1.6856e-06	1.0044e-05	575.99	259.27	2.4164e-06	5.2638e-06	183.26	63.23	96.103	38.728	4.2184e-06	27.507	0.0017114	0.0019948	0.0005503	747.14	1.8709e-05	5.0201e-05	568.25	256.8	1.9708e-05	2.2462e-05	180.88	63.591	96.11	38.738	1.9979e-05	27.531	233.794	251.994	246.858	162.467	267.457	390.953	161.233	167.540	265.359	274.148	165.290	169.378	171.809	176.470	312.013	172.629	-8191	255	
43220.734	1	1	0	0	0.24139	0.22365	0.15289	0.042803	0.042533	0.15595	0.14193	0.20232	0.17959	0.028363	0.114	0.070428	0.16006	0.29983	0.10154	0.017399	-2.0167	-2.3083	-2.1271	-2.5771	-2.1688	-2.4354	-2.5646	-2.1146	-2.3979	-1.8958	-2.1562	-2.3833	-2.0604	-2.2396	-2.3396	-1.8604	326.129	504.908	409.802	430.678	258.474	500.701	152.079	468.062	320.779	502.759	206.657	319.560	392.286	155.729	473.409	167.480	0.00033816	0.00048419	8.1246e-05	757.06	5.1142e-06	1.2588e-05	575.67	260.5	3.0544e-06	4.236e-06	183.07	62.832	96.191	38.466	3.2014e-06	27.226	0.0019777	0.0020165	0.00054297	743.79	1.8376e-05	2.9312e-05	567.69	256.8	1.9883e-05	2.2287e-05	180.54	63.701	96.019	38.53	2.0234e-05	27.357	232.661	253.484	250.940	162.419	291.732	385.115	161.430	167.618	329.304	319.570	165.215	169.337	171.984	176.142	310.743	172.618	-8191	255	
43220.855	1	1	0	0	0.10089	0.064946	0.1333	0.13517	0.2367	0.2125	0.13735	0.14918	0.14173	0.19713	0.18488	0.0044389	0.12505	0.13143	0.16856	0.14767	-1.8417	-2.0583	-2.2292	-2.3104	-2.1542	-2.2417	-2.5083	-2.1771	-2.4729	-2.2958	-1.9167	-2.4021	-2.0792	-2.075	-2.2687	-1.9646	322.436	395.598	338.009	497.990	203.207	459.352	479.515	351.486	153.592	333.332	502.573	338.730	379.540	467.872	465.203	493.506	0.00028985	0.00058202	0.00013061	761.2	2.5733e-06	4.5675e-06	577.97	260.81	4.0597e-06	2.4312e-06	183.19	63.664	97.462	38.983	2.7606e-06	27.971	0.0016875	0.0019688	0.00056798	746.89	1.8993e-05	2.1896e-05	573.28	257.94	1.979e-05	2.2302e-05	182.22	64.296	97.063	38.964	2.1188e-05	27.933	237.953	228.126	257.226	162.703	326.341	273.761	161.296	167.520	283.085	330.510	165.237	169.416	171.886	176.346	344.509	172.462	-8191	255	
43220.949	1	1	0	0	0.16313	0.068384	0.22513	0.13797	0.039578	0.15245	0.093313	0.07351	0.10319	0.12202	0.23795	0.20952	0.35834	0.15295	0.17331	0.080162	-1.7062	-2.3875	-1.9917	-2.6854	-2.0875	-2.1083	-2.3542	-1.9292	-2.3104	-2.2938	-2.0833	-2.4354	-2.1125	-2.0167	-2.4292	-2.0292	500.893	188.229	483.616	462.320	164.381	183.308	387.519	419.112	207.418	452.807	215.227	150.710	206.612	248.469	468.650	195.686	0.00027984	0.00031185	5.2963e-05	763.95	3.7978e-06	1.1756e-06	585.12	264	2.3939e-06	2.8163e-06	186.97	64.807	98.331	39.575	1.611e-06	28.627	0.001962	0.0020101	0.00057744	751.17	1.8383e-05	2.1931e-05	579.27	261.05	1.9437e-05	2.1789e-05	185.01	65.636	98.47	39.8	2.1266e-05	28.56	237.285	212.423	238.949	162.614	295.897	345.103	161.470	167.506	296.036	278.439	165.369	169.275	172.084	176.391	307.222	172.583	-8191	255	
43221.047	1	1	0	0	0.034166	0.36368	0.24794	0.20871	0.21979	0.34827	0.14959	0.0688	0.16513	0.12128	0.27035	0.13209	0.19433	0.12675	0.11065	0.17904	-1.6333	-2.2458	-1.8917	-2.25	-2.25	-2.0625	-2.5563	-2.3021	-2.2229	-2.4042	-1.9813	-2.3375	-2.1479	-2.0187	-2.4146	-2.1021	174.786	441.768	444.846	176.355	206.012	506.610	315.268	385.039	263.783	452.411	472.904	152.154	434.399	225.374	492.766	219.818	0.0002577	0.00059952	8.1022e-05	773.87	3.6953e-06	3.2118e-06	584.08	264.76	2.5105e-06	4.8129e-06	185.63	64.593	99.336	39.831	4.014e-06	28.163	0.0012129	0.0028894	0.00058263	757.38	1.822e-05	2.23e-05	582.16	261.89	1.9198e-05	2.2606e-05	184.58	65.315	98.622	39.702	2.0453e-05	28.201	239.360	195.413	208.824	162.460	279.576	320.542	161.220	167.340	296.326	274.550	165.425	169.236	171.833	176.286	294.111	172.864	-8191	255	
43221.141	1	1	0	0	0.030537	0.17066	0.29574	0.31411	0.044062	0.10594	0.20934	0.079308	0.091081	0.30311	0.18198	0.17147	0.19333	0.037672	0.17217	0.1182	-1.6333	-2.3333	-1.9542	-2.5271	-2.2313	-1.9521	-2.3521	-2.05	-2.0646	-2.4042	-2.1312	-2.3479	-2.3563	-1.9854	-2.35	-2.1562	195.221	346.536	479.281	470.590	390.461	201.379	453.676	501.654	391.714	485.675	287.335	396.650	440.990	192.508	401.305	349.179	0.00027762	0.0014175	0.0001833	766.84	4.6519e-06	4.2536e-06	580.69	262.84	4.1075e-06	3.3523e-06	185.65	64.091	97.79	39.194	3.5677e-06	27.871	0.00098126	0.0044751	0.00055487	752.04	1.8153e-05	2.1991e-05	576.35	259.94	1.9351e-05	2.3002e-05	183.27	64.836	97.832	39.179	2.0766e-05	27.932	224.332	232.816	259.673	162.550	290.479	319.374	161.327	167.478	316.105	300.827	165.254	169.776	171.766	176.567	323.812	172.684	-8191	255	
43221.238	1	1	0	0	0.055967	0.11605	0.25288	0.14343	0.29793	0.11371	0.18342	0.12792	0.13481	0.082954	0.057727	0.0098129	0.15821	0.17884	0.17219	0.12663	-1.7229	-2.3896	-1.9833	-2.3896	-2.3708	-1.6229	-2.3	-2.0833	-1.975	-2.2604	-2.1063	-2.2833	-2.1708	-2.0292	-2.3229	-2.2188	300.341	494.696	411.127	401.700	493.906	362.101	440.285	297.170	457.013	271.550	397.424	307.446	425.459	258.540	486.132	215.744	0.00029911	0.00096176	0.00015245	764.08	3.6096e-06	3.9191e-06	579.77	262.38	3.9102e-06	2.8232e-06	186.37	65.135	98.645	39.409	4.8144e-06	28.305	0.0010076	0.0037919	0.00056717	750.72	1.8306e-05	2.2717e-05	578.79	260.61	1.9421e-05	2.3399e-05	184.62	64.896	99.025	39.542	2.0969e-05	28.387	229.048	245.615	213.643	162.247	295.609	299.886	161.367	167.481	310.936	254.849	165.350	169.503	171.895	176.451	282.888	172.292	-8191	255	
43221.336	1	1	0	0	0.11273	0.17656	0.1123	0.31186	0.18155	0.13391	0.076644	0.40355	0.099695	0.076695	0.39942	0.33831	0.11964	0.23554	0.36728	0.19461	-1.425	-2.3104	-2.0521	-2.1937	-2.3438	-2.0125	-2.3875	-2.2021	-2.0917	-2.4083	-2.0104	-2.1979	-2.5021	-2.05	-2.4104	-2.3083	277.343	379.197	220.868	490.685	273.588	322.577	394.247	149.558	189.563	186.776	503.916	193.817	213.373	163.023	364.686	502.592	0.00026591	0.0011958	6.7142e-05	773.52	4.9521e-07	3.7066e-06	589.15	267.05	3.6115e-06	4.766e-06	188.01	65.784	100.41	40.177	4.6575e-06	28.956	0.00099762	0.0045525	0.00056025	759.55	1.889e-05	2.2419e-05	584.68	264.23	1.9906e-05	2.2576e-05	186.73	65.796	101.42	40.217	2.0709e-05	28.866	230.540	251.107	245.048	162.712	225.300	281.310	161.317	167.476	294.948	314.230	165.613	169.381	171.803	176.265	269.457	172.351	-8191	255	
43221.430	1	1	0	0	0.38435	0.07157	0.06438	0.34918	0.077938	0.24318	0.053076	0.16165	0.18099	0.2892	0.25127	0.29535	0.14543	0.32515	0.28162	0.20939	-1.525	-2.3896	-2.2125	-2.2	-2.4313	-2.0854	-2.3937	-2.2042	-1.975	-2.4375	-2.0229	-2.0979	-2.3771	-1.9	-2.3521	-2.4875	352.474	386.177	427.630	498.956	175.538	210.091	157.138	171.204	472.635	461.604	423.607	251.530	505.058	317.823	212.332	171.820	0.00030083	0.0010851	7.022e-05	774.89	2.9389e-06	1.6604e-06	592.52	267.62	3.9741e-06	1.0425e-06	189.38	66.096	100.71	40.194	2.7065e-06	28.738	0.0010246	0.0037562	0.00056453	762.26	1.9231e-05	2.3053e-05	587.52	265.33	2.0638e-05	2.2814e-05	187.74	66.122	101.29	40.3	1.9701e-05	28.736	225.467	257.420	281.622	162.652	303.469	284.937	161.506	167.319	277.637	219.649	165.557	169.798	171.612	176.224	292.504	172.553	-8191	255	
43221.527	1	1	0	0	0.078723	0.18717	0.10698	0.2683	0.27509	0.13788	0.11716	0.10564	0.20004	0.17601	0.26285	0.20996	0.16764	0.084175	0.088788	0.24027	-1.3937	-2.3625	-2.1833	-2.0125	-2.4208	-2.2208	-2.2375	-2.2583	-1.9562	-2.4646	-2.0917	-2.2542	-2.5438	-2.2792	-2.0958	-2.25	474.268	392.690	205.630	442.245	345.163	211.512	330.118	458.559	305.350	340.544	156.843	488.098	172.365	216.277	262.327	382.428	0.00027809	0.0011208	8.5733e-05	773.83	2.717e-06	1.2005e-06	586.03	265.74	2.7751e-06	9.4756e-07	188.84	65.75	100.03	40.039	4.1151e-06	28.427	0.001013	0.0044596	0.00055963	759.67	1.8648e-05	2.2769e-05	578.45	264.76	1.9995e-05	2.245e-05	185.82	65.402	100.84	39.965	1.983e-05	28.393	232.167	252.361	259.184	162.502	295.771	497.949	161.230	167.490	299.937	191.283	165.187	169.191	171.647	176.232	292.898	172.463	-8191	255	
43221.645	1	1	0	0	0.18478	0.37892	0.20419	0.35159	0.06342	0.14808	0.064417	0.45784	0.22108	0.23331	0.1614	0.13029	0.13297	0.21164	0.26976	0.11512	-1.575	-2.3292	-2.1958	-2.1583	-2.5875	-2.1437	-2.1792	-2.3688	-1.9083	-2.2125	-2.2333	-2.1458	-2.3458	-2.025	-2.0875	-2.3854	497.377	163.755	391.303	475.933	191.018	259.565	191.549	497.401	504.134	393.263	439.237	375.474	151.860	478.961	417.934	414.228	0.00025408	0.0011316	7.1913e-05	765.15	4.3181e-06	5.0962e-06	587.68	265.84	2.007e-06	2.4852e-06	187.13	65.544	100.36	39.857	1.1564e-06	28.587	0.001004	0.0037121	0.00055835	754.92	1.8668e-05	2.2439e-05	576.76	265.65	1.9943e-05	2.2132e-05	186.14	65.604	100.5	39.896	2.038e-05	28.53	228.879	283.640	314.497	162.266	296.068	333.121	161.699	167.285	309.315	312.613	165.545	169.046	171.914	176.195	283.721	172.642	-8191	255	
43221.742	1	1	0	0	0.07166	0.17016	0.11376	0.23145	0.10423	0.093842	0.24895	0.15271	0.22344	0.078364	0.25219	0.04004	0.28566	0.057342	0.23623	0.18868	-1.5708	-2.2979	-2.2979	-2.1813	-2.4229	-1.9833	-2.0458	-2.2729	-1.8958	-2.1333	-2.2	-2.025	-2.3979	-2.3792	-2.0979	-2.5312	241.481	158.328	236.688	422.026	390.412	281.553	188.693	417.260	431.144	421.204	444.400	493.536	158.554	359.274	162.466	165.676	0.00029728	0.0010719	0.00024327	771.22	2.4498e-06	4.5919e-07	590.5	268	2.1722e-06	3.2727e-06	188.73	66.192	101.38	40.35	3.1559e-06	28.802	0.0010137	0.0040375	0.00056097	760.2	1.894e-05	2.16e-05	581.23	266.72	1.9841e-05	2.2685e-05	187.51	66.19	101.85	40.304	2.111e-05	28.967	227.908	290.642	221.064	162.712	289.888	488.433	161.202	167.649	287.691	312.814	165.111	169.273	171.740	176.552	285.209	172.693	-8191	255	
43221.840	1	1	0	0	0.21165	0.13429	0.12682	0.19544	0.22611	0.15826	0.28799	0.18558	0.35023	0.15631	0.14589	0.077927	0.23103	0.27052	0.053704	0.088783	-1.4583	-2.2604	-2.5354	-2.1875	-2.4979	-2.3	-2.2292	-2.3646	-2.0208	-2.0646	-2.4021	-2.0167	-2.5042	-2.2812	-1.9104	-2.2	210.234	182.414	212.308	466.704	439.850	361.498	493.834	363.499	171.388	363.833	183.507	175.752	463.083	464.030	151.155	229.444	0.00027945	0.00096216	0.00021807	776.1	1.3807e-06	6.2579e-06	596.78	268.67	2.7176e-06	3.0015e-06	191.16	67.394	102.6	40.805	3.9987e-06	29.096	0.0010087	0.0023663	0.00088228	764.37	1.8283e-05	2.1758e-05	585.74	269.11	1.9431e-05	2.2187e-05	189.52	67.18	102.74	40.785	2.0841e-05	29.196	225.509	295.368	268.695	162.474	311.486	287.058	161.340	167.394	300.387	325.977	165.229	169.402	171.544	176.564	293.095	172.606	-8191	255	
43221.934	1	1	0	0	0.057625	0.17791	0.22495	0.24249	0.16729	0.23773	0.33565	0.095037	0.033447	0.098155	0.045575	0.19695	0.14827	0.15623	0.048575	0.13602	-1.4021	-2.0021	-2.4	-2.0687	-2.4146	-2.4688	-1.8687	-2.5187	-2.2625	-2.2375	-2.3312	-2.0396	-2.3417	-2.2125	-1.9917	-2.45	436.121	469.602	358.207	176.095	382.896	451.462	202.238	306.490	200.885	366.638	484.711	298.732	261.874	496.467	302.059	400.535	0.00026127	0.00060723	0.000344	778.94	3.4813e-06	1.8552e-06	594.81	270.46	3.2573e-06	2.823e-06	190.13	66.456	102.8	40.61	1.7548e-06	28.649	0.0010052	0.0020029	0.0012876	767.71	1.8266e-05	2.2419e-05	584.02	268.97	1.9412e-05	2.263e-05	188.1	66.338	102.76	40.452	2.109e-05	28.628	232.540	258.346	294.150	162.689	297.121	252.414	161.281	167.393	286.656	296.099	165.095	168.822	171.849	176.037	287.695	172.514	-8191	255	
43222.031	1	1	0	0	0.21697	0.20704	0.14793	0.21	0.16737	0.11106	0.41173	0.1898	0.21879	0.26844	0.15722	0.20411	0.062262	0.073602	0.123	0.1894	-1.6771	-2.1354	-2.4375	-1.9667	-2.2958	-2.5312	-2.0667	-2.4062	-2.2125	-1.9	-2.5333	-2.0292	-2.3167	-2.4958	-2.0187	-2.3354	407.117	480.487	176.219	484.308	429.846	193.115	458.567	255.437	462.345	221.589	477.848	375.330	419.715	469.244	400.933	362.226	0.00028637	0.00063306	0.00017213	773.69	2.5587e-06	3.069e-06	586.95	267.33	3.4889e-06	4.5892e-06	187.79	65.586	101.07	40.146	1.9219e-06	28.427	0.00097648	0.002033	0.0010568	760.94	1.8765e-05	2.3468e-05	577.85	267.19	1.9225e-05	2.2597e-05	186.12	65.712	100.95	40.356	2.106e-05	28.526	227.615	260.721	303.550	162.650	306.860	297.565	161.575	167.261	275.266	239.659	165.175	168.915	171.766	176.730	341.731	172.224	-8191	255	
43222.129	1	1	0	0	0.31161	0.08274	0.1672	0.1593	0.2194	0.14231	0.098655	0.21445	0.19086	0.068764	0.18569	0.31606	0.13332	0.28564	0.16138	0.33539	-1.8021	-2.1937	-2.4125	-2.2021	-2.2646	-2.3229	-2.0542	-2.425	-2.2604	-1.9917	-2.2583	-2.1042	-2.3896	-2.3667	-1.9813	-2.3021	290.273	430.303	200.880	507.904	250.926	422.015	307.374	392.441	466.431	326.923	475.539	411.843	392.471	487.032	171.404	217.880	0.00025833	0.00012234	0.00029245	774.16	4.4963e-06	2.2192e-06	592.21	268.97	2.5479e-06	2.927e-06	189.21	66.71	101.79	40.564	3.8809e-06	28.81	0.00099117	0.0020461	0.0012435	760.77	1.8432e-05	2.2957e-05	580.03	267.19	1.9778e-05	2.289e-05	187.91	66.477	101.37	40.867	2.1283e-05	28.898	230.346	192.402	279.867	162.272	301.973	249.916	161.451	167.477	324.909	328.411	165.671	169.177	172.050	176.036	299.109	172.715	-8191	255	
43222.246	1	1	0	0	0.38138	0.24455	0.30515	0.27964	0.064654	0.08893	0.2146	0.14723	0.1254	0.16423	0.11677	0.23691	0.24449	0.2075	0.14062	0.23306	-1.7437	-2.0125	-2.3771	-2.3312	-2.0104	-2.3312	-1.8792	-2.2917	-2.3792	-2.1188	-2.4208	-2.0854	-2.1292	-2.4458	-2.0083	-2.4708	447.064	387.518	186.272	475.154	324.550	282.535	488.466	169.877	400.229	508.706	211.892	163.806	320.982	475.795	264.792	362.156	0.0003071	0.00028035	0.00033267	779.51	2.5979e-06	1.8728e-06	597.38	270.19	6.69e-06	3.6263e-06	191.17	67.441	102.65	40.778	5.9168e-06	29.438	0.0010208	0.0021102	0.0010571	764.95	1.9281e-05	2.3336e-05	587.33	268.92	2.3204e-05	2.3676e-05	189.52	67.345	102.45	41.194	2.1342e-05	29.42	231.469	228.037	294.664	162.626	264.119	320.810	161.316	167.541	233.615	288.641	165.650	169.368	171.892	176.500	283.628	172.577	-8191	255	
43222.344	1	1	0	0	0.13836	0.096381	0.13652	0.12799	0.27504	0.040856	0.11222	0.34064	0.052528	0.16126	0.13025	0.16222	0.049423	0.18516	0.20781	0.11004	-1.8604	-2.0542	-2.3083	-2.3771	-2.0521	-2.4875	-2.0354	-2.1167	-2.3458	-1.7542	-2.2417	-2.1542	-1.9729	-2.4896	-2.0833	-2.075	471.878	371.264	352.981	422.574	383.131	500.082	311.486	430.277	435.701	449.432	399.609	267.413	240.971	459.303	408.380	215.164	0.0002434	0.00042878	0.00022818	785.73	4.2598e-06	2.7558e-06	598.16	270.51	4.461e-06	1.6678e-06	192.1	67.208	102.54	41.152	4.4185e-06	28.935	0.0010429	0.0021184	0.0012914	770.55	1.9461e-05	2.3193e-05	588.68	268.31	3.2125e-05	2.2453e-05	190.18	67.288	102.41	41.358	2.0308e-05	29.253	226.486	226.833	299.589	162.550	271.363	278.708	161.314	167.465	257.365	245.318	165.471	169.404	172.032	176.230	282.690	172.956	-8191	255	
43222.438	1	1	0	0	0.10913	0.095363	0.10603	0.21217	0.25846	0.28758	0.053888	0.1846	0.068074	0.073675	0.14263	0.19752	0.20095	0.14873	0.29115	0.25039	-2.1479	-1.9771	-2.2771	-2.2646	-1.975	-2.3375	-2.1729	-2.1021	-2.2875	-2.275	-2.3625	-2.2771	-2.0771	-2.3063	-2.1646	-2.1771	234.074	501.601	266.021	497.138	316.180	159.438	507.602	417.807	434.138	386.215	185.893	268.479	389.836	159.462	442.400	401.236	0.00027983	6.2642e-05	0.00022145	776.03	2.7485e-06	7.7361e-07	593.62	269.4	5.8513e-06	4.1936e-06	188.71	66.815	101.89	40.66	1.4642e-06	29.05	0.00104	0.0020605	0.001052	764.3	1.924e-05	2.3829e-05	582.2	266.67	4.3321e-05	2.3012e-05	187.98	66.621	101.65	40.99	2.0343e-05	29.023	225.885	156.940	316.248	162.525	289.603	321.091	161.485	167.696	193.829	251.025	165.382	169.335	171.832	176.221	339.372	173.040	-8191	255	
43222.535	1	1	0	0	0.051181	0.075942	0.36507	0.044148	0.23881	0.098863	0.29855	0.32606	0.22262	0.16662	0.26293	0.13171	0.24597	0.21802	0.17342	0.041761	-2.0812	-2.0625	-2.2375	-2.3521	-1.9333	-2.4062	-2.2188	-2.25	-2.6167	-1.9188	-2.4667	-2.3583	-2.0042	-2.3438	-2.1083	-2.1521	336.058	280.765	265.929	415.024	377.028	269.142	223.444	426.016	450.840	494.770	416.392	301.542	196.707	477.843	475.253	281.962	0.0002735	0.00040732	0.0002243	777.15	2.4016e-06	2.3805e-06	594.86	270.58	4.7124e-06	2.5501e-06	190.82	66.842	101.89	41.025	2.1599e-06	29.368	0.0010365	0.0020212	0.0010476	763.98	1.8934e-05	2.2317e-05	582.9	266.7	3.6382e-05	2.2059e-05	188.86	67.026	102.18	41.288	2.0466e-05	29.323	226.570	227.973	333.854	162.364	311.836	381.165	161.496	167.364	246.084	273.706	165.395	169.116	172.032	176.472	299.870	172.687	-8191	255	
43222.629	1	1	0	0	0.27269	0.16813	0.24319	0.26916	0.029651	0.24316	0.19791	0.27729	0.052123	0.11372	0.14395	0.19268	0.18116	0.30513	0.32831	0.31717	-2.2313	-1.9354	-2.1917	-2.5021	-1.9667	-2.325	-2.3979	-2.1688	-2.4	-2.1771	-2.2188	-2.2375	-1.9042	-2.3896	-2.5625	-1.9625	433.685	186.800	413.559	489.088	400.215	462.776	293.747	238.052	186.072	258.086	403.682	313.233	402.447	480.900	324.361	409.521	0.00026448	0.00042512	0.00018498	783.75	2.1492e-06	2.5016e-06	594.36	272.83	7.0961e-06	1.327e-06	192.72	68.403	103.48	41.523	4.0407e-06	29.8	0.0010327	0.0019998	0.00060138	770.41	1.8529e-05	2.2433e-05	588.37	269.47	4.385e-05	2.2902e-05	191.13	68.056	103.45	41.622	2.1135e-05	29.904	223.020	251.117	320.186	162.761	335.123	280.512	161.360	167.435	242.258	337.832	165.701	169.544	171.894	176.535	295.048	172.995	-8191	255	
43222.727	1	1	0	0	0.19877	0.27392	0.21769	0.33819	0.24767	0.34789	0.072336	0.15067	0.19807	0.13719	0.21942	0.27786	0.21218	0.20848	0.09943	0.36664	-1.9813	-2.075	-2.0354	-2.4625	-1.975	-2.1688	-2.3146	-1.8937	-2.425	-2.1	-2.1354	-2.3833	-2.0438	-2.5062	-2.4792	-1.9083	473.816	416.860	435.009	163.814	342.417	303.124	418.274	325.975	181.998	274.316	296.569	279.723	158.228	405.894	176.224	446.203	0.00027579	0.00033856	8.5373e-05	787.12	3.1536e-06	1.6288e-06	604.28	274.47	4.2033e-06	2.1336e-06	194.28	69.046	104.38	41.831	1.1362e-05	29.748	0.0010136	0.002007	0.0005753	778.44	1.9289e-05	2.2578e-05	594.67	271.53	3.6529e-05	2.2912e-05	193.21	68.844	104.12	42.003	2.6852e-05	29.991	234.273	266.672	228.449	162.378	278.584	302.589	161.153	167.766	263.049	355.796	165.252	169.590	172.085	176.644	267.743	172.726	-8191	255	
43222.820	1	1	0	0	0.20913	0.072313	0.21473	0.045645	0.15082	0.15133	0.12308	0.25418	0.084869	0.20052	0.27355	0.28824	0.30539	0.43619	0.23558	0.099315	-1.9979	-2.0771	-2.0083	-2.4562	-2	-2.1875	-2.2938	-1.9104	-2.2792	-2.15	-2.1333	-2.5292	-2.0396	-2.3354	-2.2896	-2.0646	236.909	300.810	357.684	237.360	380.551	409.346	420.468	420.548	490.268	247.467	389.794	508.010	174.895	466.650	471.365	421.144	0.00025987	0.00062719	0.00011989	786.74	4.0778e-06	1.1405e-06	600.17	272.2	9.699e-06	5.5459e-06	191.77	68.053	103.34	41.484	9.7042e-06	29.563	0.001003	0.0020652	0.00058574	775.61	1.9228e-05	2.2835e-05	590.49	270.76	4.3233e-05	2.3015e-05	190.6	67.775	103.22	41.446	3.5127e-05	29.585	229.285	226.881	234.147	162.441	296.263	264.816	161.626	167.679	234.234	307.007	165.707	169.538	171.807	176.383	268.811	173.123	-8191	255	
43222.941	1	1	0	0	0.13	0.10778	0.21277	0.30913	0.069227	0.12918	0.32961	0.16991	0.32642	0.084106	0.24337	0.19478	0.15559	0.023034	0.036199	0.19414	-1.9188	-2.4	-1.8333	-2.4	-2.2021	-2.1292	-2.4021	-2.1708	-2.2958	-2.3396	-2.2417	-2.3396	-2.1958	-2.2354	-2.3812	-2.2417	188.668	355.199	454.739	498.051	234.229	170.464	498.349	507.851	263.435	174.770	194.372	477.628	454.890	177.737	367.859	268.966	0.00031248	0.00036216	0.00012563	781.99	2.9164e-06	3.5895e-06	598.04	272	6.7972e-06	4.1893e-06	192.21	67.671	103.18	41.216	1.1125e-05	29.306	0.0010055	0.0020153	0.00058386	773.46	1.8841e-05	2.3069e-05	586.6	269.23	3.5783e-05	2.3535e-05	190.19	67.465	102.97	41.256	4.5816e-05	29.45	228.421	232.308	220.463	162.654	306.888	324.923	161.142	167.618	240.473	311.501	165.690	168.916	172.056	176.507	311.425	172.457	-8191	255	
43223.039	1	1	0	0	0.1037	0.23205	0.32966	0.2957	0.33535	0.082704	0.24498	0.18498	0.13447	0.097813	0.12116	0.36814	0.067201	0.30462	0.090208	0.17965	-1.9979	-2.3438	-1.9896	-2.3458	-2.2083	-2.0833	-2.6646	-2.2313	-2.2542	-2.5354	-2.0792	-2.5146	-2.3187	-1.9771	-2.4354	-2.0646	507.003	491.091	477.692	492.976	363.830	357.124	290.283	456.318	213.946	448.186	424.759	467.241	479.672	469.747	497.474	339.198	0.00028674	0.00032826	4.6686e-05	784.5	1.6556e-06	5.721e-06	597.49	272.98	4.5513e-06	1.1464e-05	193.44	68.17	104.33	41.753	6.9715e-06	29.758	0.0010067	0.0020978	0.00058012	773.36	1.9044e-05	2.3095e-05	588.63	270.12	3.4653e-05	3.0336e-05	191.63	68.28	103.98	41.665	3.8988e-05	29.835	227.307	226.857	259.281	162.510	273.383	341.247	161.109	167.678	393.893	227.488	165.488	169.550	171.979	176.154	317.725	173.064	-8191	255	
43223.109	1	1	0	0	0.21368	0.056903	0.1347	0.22747	0.12862	0.14072	0.1312	0.077427	0.32345	0.34713	0.21602	0.22247	0.1001	0.26473	0.17743	0.1746	-1.6917	-2.3354	-2.0583	-2.4896	-2.3292	-1.9396	-2.6333	-2.0792	-2.2146	-2.3896	-1.9	-2.2917	-2.3542	-2.1729	-2.4375	-2.2583	183.790	468.705	454.849	484.131	446.738	291.598	159.733	302.221	205.151	154.393	211.018	196.575	289.987	448.566	381.780	247.105	0.00027337	0.00023658	7.7897e-05	790.08	3.8843e-06	6.6416e-06	604.43	275.46	4.8546e-06	7.1445e-06	194.64	69.278	105.47	42.071	1.046e-05	29.842	0.0010225	0.002163	0.00058223	781.2	1.9744e-05	2.4434e-05	594	272.9	2.059e-05	4.086e-05	193.47	68.908	104.92	42.09	4.7019e-05	30.097	226.146	234.762	269.012	162.562	307.114	296.659	161.175	167.454	296.568	230.945	165.497	169.463	171.991	176.499	343.985	172.711	-8191	255	
43223.207	1	1	0	0	0.13532	0.22081	0.1758	0.12476	0.12272	0.22713	0.12868	0.42574	0.28888	0.4343	0.15631	0.2524	0.17929	0.080617	0.28617	0.16165	-1.8229	-2.2604	-1.95	-2.4854	-2.3917	-2.0792	-2.5292	-2.3417	-2.0521	-2.3417	-1.9854	-2.3688	-2.3208	-2.1063	-2.2583	-2.1583	357.178	358.914	364.881	469.849	227.449	420.496	446.696	447.669	380.426	294.191	269.935	180.851	369.985	414.059	454.565	402.499	0.00029638	0.00047628	8.2458e-05	793.74	3.7341e-06	3.1406e-06	602.8	274.41	3.5461e-06	1.265e-05	192.56	68.22	104.53	41.811	1.1878e-05	29.489	0.0010429	0.0021042	0.00057469	783.52	1.9619e-05	2.3491e-05	594.43	272.92	1.9994e-05	5.1097e-05	191.33	68.21	104.63	41.885	3.6918e-05	29.637	227.358	270.645	240.912	162.478	292.922	326.101	161.519	167.609	310.732	244.251	165.106	169.082	171.676	176.502	319.418	172.861	-8191	255	
43223.328	1	1	0	0	0.10964	0.045455	0.18021	0.15225	0.045962	0.1757	0.20338	0.10006	0.1446	0.29736	0.20269	0.16706	0.16988	0.26376	0.27304	0.23261	-1.6187	-2.4542	-1.9125	-2.3396	-2.2771	-2.1792	-2.7229	-2.2438	-1.9292	-2.3271	-2.1146	-2.2188	-2.3354	-1.9771	-2.1354	-2.0042	470.789	438.162	373.599	464.188	199.112	361.751	423.305	409.504	150.039	196.945	407.110	159.421	492.058	227.328	408.699	302.079	0.00028814	0.0003611	0.00011149	786.11	5.2873e-06	2.9539e-06	600.82	272.58	2.8436e-06	8.8343e-06	190.7	67.548	102.64	41.213	9.996e-06	28.881	0.0010053	0.0020459	0.00054246	774.77	2.5099e-05	2.2717e-05	585.9	270.06	1.9995e-05	4.2114e-05	188.72	67.17	103.07	41.188	4.4134e-05	28.974	232.197	201.399	249.550	162.572	199.713	280.589	161.448	167.424	312.586	225.565	165.401	169.338	172.053	176.591	329.515	172.871	-8191	255	
43223.426	1	1	0	0	0.15826	0.18108	0.082904	0.063713	0.30458	0.13911	0.15197	0.28152	0.074711	0.12113	0.19187	0.17868	0.13332	0.21554	0.11148	0.10807	-1.6063	-2.1937	-2.0833	-2.1583	-2.4562	-2.1312	-2.2979	-2.2812	-2.0792	-2.5854	-2.1271	-2.1792	-2.4667	-2.0187	-2.4625	-2.3729	202.272	163.157	298.569	453.311	342.802	198.411	489.354	496.563	220.196	380.417	473.464	247.481	419.555	496.722	221.840	190.390	0.00027875	0.00027476	8.2753e-05	782.42	1.0044e-06	2.2068e-06	588.31	268.82	3.8214e-06	1.1621e-05	188.04	66.23	101.4	40.019	5.3695e-06	28.48	0.0010052	0.0019066	0.00054029	767.98	3.2586e-05	2.1785e-05	580.02	266.93	1.9075e-05	5.0053e-05	185.94	65.938	101.2	40.181	3.6892e-05	28.411	228.430	193.698	226.294	162.526	248.181	292.133	161.347	167.441	318.029	244.680	165.516	169.201	171.808	176.101	325.618	173.035	-8191	255	
43223.520	1	1	0	0	0.22251	0.088856	0.10994	0.22501	0.13949	0.13294	0.29962	0.22445	0.13085	0.21993	0.37825	0.1821	0.36514	0.25335	0.19914	0.40218	-1.5604	-2.3729	-2.0479	-2.2521	-2.5167	-2.075	-2.3792	-2.4479	-1.875	-2.4	-2.05	-2.15	-2.3958	-2.1854	-2.2562	-2.2229	500.062	281.871	507.568	469.783	293.443	293.082	450.576	500.935	370.906	487.115	379.579	415.024	504.462	372.709	249.918	443.894	0.00027485	0.0004952	0.00011739	777.14	5.767e-06	5.6331e-06	591.11	268.56	3.3354e-06	1.1388e-05	187.4	65.939	101.43	39.875	1.0476e-05	28.338	0.00096797	0.0019108	0.00054067	765.28	3.9976e-05	2.1154e-05	581.25	265.88	1.878e-05	3.9733e-05	185.27	65.595	101.17	39.877	3.2135e-05	28.421	229.155	222.769	261.766	162.534	491.439	302.496	161.337	167.610	292.791	255.785	165.199	168.910	171.860	176.240	347.154	172.696	-8191	255	
43223.617	1	1	0	0	0.071923	0.32428	0.08456	0.26013	0.13054	0.1182	0.21167	0.15702	0.096304	0.24071	0.3034	0.19112	0.14109	0.29405	0.087984	0.14279	-1.5229	-2.2583	-2.0333	-2.0542	-2.4354	-2.0438	-2.0708	-2.525	-2.1333	-2.2875	-2.3125	-1.9875	-2.3187	-2.2625	-2.2021	-2.3646	498.155	306.835	220.790	457.535	401.910	324.530	494.259	224.930	264.247	460.642	343.246	403.752	151.475	358.025	412.039	239.669	0.00026114	0.00026842	8.7016e-05	778.17	2.6181e-06	3.1701e-06	589.61	269.74	5.1633e-06	1.1938e-05	185.02	64.937	100.46	39.535	3.3509e-06	27.795	0.00095282	0.0018803	0.0005416	765.68	3.256e-05	2.1064e-05	579.41	266.15	1.9126e-05	4.882e-05	184.14	64.912	100.28	39.497	1.92e-05	28.065	231.770	267.737	237.290	162.441	467.652	293.646	161.300	167.243	319.603	262.671	165.476	169.069	171.837	176.110	306.510	172.387	-8191	255	
43223.734	1	1	0	0	0.29434	0.37003	0.36552	0.22912	0.2227	0.1935	0.32923	0.28664	0.086681	0.26082	0.47498	0.067016	0.14491	0.16282	0.26074	0.17945	-1.6167	-2.2292	-2.1958	-1.9708	-2.5396	-2.0333	-2.275	-2.4042	-2.0812	-2.4542	-2.3833	-2.0438	-2.4354	-2.2438	-1.925	-2.4896	207.449	493.787	423.771	436.025	162.461	503.319	408.171	193.146	211.798	494.756	216.307	297.778	364.136	473.262	240.664	440.420	0.00025034	0.0002638	5.0537e-05	772.24	1.0841e-06	2.856e-06	576.88	265.36	3.3e-06	9.817e-06	181.73	63.882	98.845	38.435	2.8568e-06	27.229	0.00093161	0.0018583	0.00053141	758.97	3.9095e-05	2.0575e-05	569.5	261.9	1.7937e-05	3.9903e-05	180.68	63.568	98.336	38.536	1.9945e-05	27.664	224.997	247.582	295.735	162.487	484.220	313.427	161.067	167.294	283.487	243.265	165.488	169.149	171.459	176.265	302.776	172.532	-8191	255	
43223.809	1	1	0	0	0.033648	0.12338	0.037062	0.1948	0.26735	0.12905	0.28117	0.042786	0.31399	0.15953	0.22796	0.13327	0.28796	0.15072	0.33878	0.21899	-1.5583	-2.3604	-2.2646	-2.1229	-2.5208	-2.1646	-2.1604	-2.4708	-2.0438	-2.1271	-2.3854	-2.0833	-2.4625	-2.2562	-2.0604	-2.3583	507.159	437.407	292.860	171.455	485.749	289.257	441.370	468.170	402.242	163.987	457.540	268.084	425.485	282.716	505.773	248.081	0.00024422	0.00039853	4.1467e-05	763.77	5.0175e-06	3.0973e-06	574.8	263.44	3.8568e-06	3.5626e-06	183.7	63.749	98.396	38.852	4.1893e-06	27.519	0.00093359	0.0019118	0.00053965	752.06	3.293e-05	2.134e-05	565.61	260.29	1.8157e-05	3.5199e-05	182.26	63.584	98.307	38.786	1.973e-05	27.822	226.173	267.831	253.184	162.461	209.085	286.125	161.197	167.459	326.068	291.694	165.403	169.384	171.805	175.997	282.416	172.198	-8191	255	
43223.926	1	1	0	0	0.26751	0.062192	0.12033	0.17366	0.20086	0.17543	0.17002	0.27896	0.15547	0.23248	0.37541	0.42966	0.17863	0.081483	0.085391	0.12734	-1.5146	-2.1417	-2.3604	-1.8937	-2.3667	-2.4771	-2.1396	-2.5	-2.1896	-2.1667	-2.3042	-2.1	-2.4167	-2.3167	-2.0812	-2.5312	374.944	240.619	382.778	295.911	412.157	477.691	245.041	402.927	505.416	320.523	174.386	151.948	440.675	450.724	480.228	286.502	0.00029757	0.0001485	0.00012519	765.39	7.0619e-06	3.9931e-06	580.99	265.47	4.1343e-06	3.0486e-06	185.28	65.105	100.34	39.596	1.8502e-06	27.936	0.00095562	0.0019369	0.00054773	753.74	3.9507e-05	2.2263e-05	570.09	262.21	1.8639e-05	2.2412e-05	184.95	64.783	100.08	39.641	2.0204e-05	28.5	223.701	264.126	250.533	162.447	161.629	310.175	161.558	167.325	298.926	288.014	165.287	169.310	171.818	176.313	212.136	172.596	-8191	255	
43224.023	1	1	0	0	0.13132	0.11833	0.12872	0.17403	0.15985	0.22972	0.096834	0.1266	0.057749	0.15925	0.34268	0.072221	0.10334	0.38174	0.13328	0.34441	-1.7521	-2.0833	-2.3604	-2.0021	-2.2604	-2.4667	-2.1708	-2.3896	-2.0521	-2.0271	-2.4688	-2.0333	-2.2417	-2.4458	-2.1292	-2.375	423.054	441.756	405.679	404.864	452.148	191.387	453.579	264.153	471.496	286.239	438.899	506.379	161.977	493.093	374.032	500.974	0.0002753	0.00035561	0.00010534	774.88	3.0827e-06	1.459e-06	585.86	268.77	3.3521e-06	1.6392e-06	188.89	66.149	102.79	40.43	3.8879e-06	28.714	0.00094878	0.0019845	0.00054302	760.66	3.3795e-05	2.246e-05	576.98	266.31	1.9214e-05	2.2148e-05	188.95	66.039	102.15	40.423	2.0376e-05	28.997	226.681	245.807	269.038	162.481	192.113	263.245	161.490	167.414	272.443	438.523	165.380	169.200	171.753	176.024	314.407	172.372	-8191	255	
43224.121	1	1	0	0	0.090942	0.34092	0.097636	0.33405	0.12015	0.29969	0.23466	0.17835	0.12222	0.24023	0.31743	0.13108	0.24862	0.26536	0.099566	0.036855	-1.6896	-2.025	-2.4938	-2.2208	-2.25	-2.4854	-2.0646	-2.3646	-2.2062	-2.0625	-2.3333	-2.1792	-2.2042	-2.5938	-1.975	-2.2562	357.062	154.284	440.538	460.552	414.940	361.553	417.251	403.813	333.679	244.230	350.229	351.398	406.005	221.495	278.401	259.013	0.00025723	0.00040499	7.1235e-05	776.24	1.9753e-06	7.6488e-06	587.82	269.43	1.565e-06	3.4482e-06	187.39	65.835	101.52	40.237	1.9122e-06	28.124	0.00098946	0.0019589	0.00055094	763.41	2.7984e-05	3.3205e-05	576.65	266.38	1.948e-05	2.2572e-05	186.99	65.742	101.46	40.272	2.0334e-05	28.813	226.898	214.302	235.446	162.551	486.707	192.418	161.697	167.373	286.714	267.050	165.560	169.363	171.841	176.193	251.165	172.543	-8191	255	
43224.215	1	1	0	0	0.15	0.17462	0.088994	0.045997	0.078296	0.27821	0.2645	0.16351	0.15336	0.27939	0.16854	0.26569	0.10743	0.23882	0.072509	0.18438	-2.0583	-1.9333	-2.3521	-2.2167	-2.1604	-2.4188	-2.1083	-2.2917	-2.2417	-2.0687	-2.4437	-2.1229	-2.0312	-2.5833	-2.1083	-2.1271	487.259	249.291	355.801	405.818	404.521	356.472	292.355	206.428	433.509	493.243	372.356	177.889	214.751	438.288	477.311	455.868	0.00029542	0.00010077	8.4953e-05	769.63	4.1464e-06	4.6393e-06	581.25	268.64	3.3656e-06	2.0797e-06	186.09	65.733	100.87	39.903	2.9696e-06	28.292	0.00099365	0.0020114	0.00053997	757.74	1.8482e-05	4.2286e-05	573.29	265.37	1.9582e-05	2.2252e-05	187.41	65.382	101.05	40.131	1.9983e-05	28.692	232.022	254.809	225.656	162.491	316.459	193.792	161.143	167.568	289.028	273.246	165.875	169.338	172.005	176.186	301.561	172.470	-8191	255	
43224.336	1	1	0	0	0.1061	0.1432	0.053235	0.10595	0.06693	0.10838	0.020678	0.16122	0.1694	0.1987	0.18278	0.25958	0.060758	0.09135	0.029234	0.16866	-1.9438	-2.025	-2.3479	-2.4104	-2.1146	-2.5438	-2.1104	-2.3458	-2.2625	-2.0521	-2.4562	-2.1833	-1.9833	-2.4208	-1.9188	-2.1333	413.727	289.328	397.429	464.200	471.699	442.960	405.700	305.510	321.383	502.684	448.453	427.497	471.872	288.618	278.033	335.364	0.0002739	0.00032577	0.000179	774.57	3.8478e-06	1.0904e-05	587.87	269.14	2.8554e-06	1.9604e-06	188.21	66.47	102.35	40.357	4.6239e-06	28.673	0.00099525	0.0019836	0.00054599	761.11	1.863e-05	4.9198e-05	576.98	266.47	1.9611e-05	2.2211e-05	188.48	66.21	102.11	40.465	2.0409e-05	28.936	229.708	212.963	226.086	162.427	302.730	166.166	161.055	167.456	298.259	340.253	165.571	169.313	171.488	176.119	285.099	172.849	-8191	255	
43224.406	1	1	0	0	0.15527	0.034152	0.27835	0.19937	0.24298	0.11447	0.20587	0.21351	0.052542	0.13707	0.28995	0.32323	0.056153	0.033688	0.23824	0.20445	-1.8813	-1.9708	-2.3646	-2.3021	-1.9292	-2.4958	-2.2125	-2.2729	-2.4021	-1.9521	-2.3146	-2.3937	-2.0104	-2.375	-2.0771	-2.0667	287.857	191.030	162.043	331.488	168.582	161.359	481.294	347.924	193.474	469.299	293.154	496.425	180.190	201.609	304.634	208.108	0.00025856	0.00033289	6.1171e-05	780.82	2.4837e-06	6.7463e-06	597	270.32	2.2027e-06	4.6173e-06	190.64	67.27	103.43	40.857	3.5479e-06	29.092	0.0014772	0.0019992	0.00055869	766.98	1.8989e-05	4.2162e-05	582.72	268.55	2.0219e-05	2.1924e-05	191.47	67.006	103.15	40.901	2.0819e-05	29.141	223.293	229.447	232.906	162.473	288.925	212.517	161.286	167.182	298.825	277.854	165.212	169.403	171.623	176.306	324.748	172.836	-8191	255	
43224.504	1	1	0	0	0.22216	0.048937	0.17037	0.17367	0.24178	0.10982	0.23567	0.077082	0.086777	0.24223	0.21358	0.32034	0.1531	0.26181	0.05001	0.20764	-2.1646	-1.8771	-2.1771	-2.4583	-2.0333	-2.4208	-2.1458	-2.0583	-2.45	-2.0625	-2.3354	-2.3854	-1.9354	-2.4917	-2.1125	-1.9458	482.603	168.488	485.625	177.523	203.615	262.917	154.309	215.576	273.099	481.590	328.322	388.722	182.839	416.453	328.601	284.016	0.00021124	0.0002337	0.00016396	782.98	4.1635e-06	1.0563e-05	594.45	273.78	2.9884e-06	4.61e-06	191.25	67.075	103.47	40.954	3.0289e-06	28.968	0.0016968	0.002005	0.00058196	769.55	1.9048e-05	5.0287e-05	584.13	270.31	2.0305e-05	2.2412e-05	191.04	67.05	103.36	40.911	2.0988e-05	28.975	236.455	223.178	234.569	162.375	287.073	225.583	161.253	167.485	307.503	280.770	165.496	169.016	171.840	176.141	270.247	172.491	-8191	255	
43224.625	1	1	0	0	0.28313	0.14804	0.030901	0.10718	0.43223	0.05017	0.0634	0.14375	0.19248	0.12542	0.099227	0.063634	0.15461	0.24089	0.21467	0.078122	-2.0083	-1.9167	-2.1813	-2.3375	-1.9521	-2.4375	-2.3104	-2.0854	-2.6	-2.1708	-2.2521	-2.6375	-2.0396	-2.5187	-2.2042	-1.9688	477.987	483.025	471.219	482.397	498.266	161.491	393.052	475.594	410.869	491.697	476.767	428.924	161.538	433.576	451.271	249.569	0.00025384	0.0002163	7.9427e-05	777.96	3.9405e-06	7.0941e-06	585.48	270.66	2.0076e-06	3.3813e-06	189.46	66.62	102.52	40.718	2.2511e-06	28.866	0.0020256	0.0020461	0.00057357	763.7	1.8638e-05	4.142e-05	578.28	267.9	1.9691e-05	2.2185e-05	188.82	66.86	102.49	40.657	2.116e-05	28.92	234.035	294.488	216.958	162.477	309.660	236.191	161.255	167.298	274.447	295.643	165.691	169.142	171.697	176.219	391.538	172.577	-8191	255	
43224.719	1	1	0	0	0.30609	0.11509	0.14579	0.13487	0.18834	0.21928	0.2211	0.19274	0.13129	0.14577	0.15458	0.14697	0.049677	0.15746	0.16459	0.080029	-1.8646	-2.15	-2.3104	-2.4	-2.0042	-2.5271	-2.4042	-2.0208	-2.2625	-2.2292	-2.1021	-2.4875	-2.0479	-2.3854	-2.3187	-1.9292	430.648	197.100	352.474	298.925	257.415	352.066	154.140	489.998	429.519	437.972	333.053	205.915	483.045	506.035	172.777	419.048	0.00022001	0.00027458	0.00015725	777.9	3.3755e-06	1.1379e-05	587.56	271.54	4.2862e-06	3.0058e-06	189.73	67.08	103.39	40.95	3.7115e-06	29.205	0.001681	0.0020613	0.0005676	764.18	1.8779e-05	5.1244e-05	579.16	268.77	1.9378e-05	2.3005e-05	188.44	67.641	103.44	40.972	2.1128e-05	29.059	227.890	256.643	245.052	162.656	287.067	225.250	160.972	167.476	291.369	400.476	165.351	169.228	171.515	176.374	317.572	172.271	-8191	255	
43224.816	1	1	0	0	0.040389	0.31984	0.089881	0.077724	0.22119	0.075579	0.058931	0.20769	0.042797	0.15277	0.3154	0.18052	0.31778	0.094252	0.063662	0.1812	-2.0187	-2.2125	-2.0583	-2.5396	-2.1437	-2.2146	-2.3542	-1.9875	-2.4188	-2.1667	-2.0354	-2.4146	-1.8604	-2.3042	-2.3583	-1.8771	224.371	370.067	219.392	220.092	413.969	217.037	308.731	426.725	396.994	389.550	165.170	422.136	445.641	496.319	223.662	433.376	0.00017639	0.00049293	0.00011295	783.96	4.6474e-06	8.8162e-07	595.19	272.95	3.8177e-06	3.5781e-06	190.59	68.613	104.45	41.325	2.1189e-06	29.318	0.0019927	0.002079	0.00058245	769.99	1.9103e-05	4.1084e-05	586.5	270.65	1.9998e-05	2.3539e-05	190.26	68.852	104.29	41.292	2.1109e-05	29.352	219.370	226.096	200.185	162.559	367.498	393.050	160.980	167.536	291.289	313.718	165.769	169.851	171.888	176.363	311.931	172.650	-8191	255	
43224.910	1	1	0	0	0.19162	0.087283	0.29206	0.15519	0.060212	0.037571	0.31157	0.11273	0.21718	0.12582	0.062729	0.26961	0.25307	0.33707	0.17062	0.15153	-2.0208	-2.1771	-2.0812	-2.6	-2.05	-2.2917	-2.3187	-2.0187	-2.3729	-2.15	-2.1271	-2.5333	-2.0292	-2.3104	-2.275	-2.0396	149.964	386.475	211.204	228.183	213.877	246.644	375.916	500.253	377.069	337.606	239.671	208.066	508.661	476.746	261.005	269.187	0.00022665	0.00013549	4.0296e-05	785.95	4.1915e-06	3.0537e-06	597.04	274.13	2.5231e-06	1.9901e-06	192.37	68.219	104.95	41.279	4.7599e-06	29.3	0.0017091	0.0020719	0.00056747	772.24	1.8259e-05	3.119e-05	590.42	271.29	1.9886e-05	2.2882e-05	190.6	68.755	104.65	41.452	2.0909e-05	29.333	209.702	183.594	220.184	162.301	288.973	236.355	161.296	167.449	268.928	336.247	165.247	169.319	171.700	176.077	274.350	172.652	-8191	255	
43225.008	1	1	0	0	0.0060102	0.31597	0.063812	0.15146	0.11836	0.29115	0.27537	0.31391	0.20574	0.14492	0.12158	0.077195	0.13838	0.18561	0.12004	0.11009	-1.8604	-2.3354	-2.0604	-2.4896	-2.1479	-2.2521	-2.4188	-1.9833	-2.3458	-2.3521	-2.1167	-2.4521	-2.2812	-1.9667	-2.5396	-2.1104	461.469	372.490	206.317	460.155	273.411	342.514	400.437	466.168	232.589	464.576	328.318	455.149	169.813	176.551	348.434	349.192	0.00014744	0.00036181	5.3219e-05	781.95	5.7647e-07	1.731e-06	589.72	271.33	2.7234e-06	1.74e-06	187.07	66.806	102.12	40.308	3.8816e-06	28.523	0.0019935	0.0020072	0.00055195	767.79	1.8791e-05	2.2034e-05	582.98	268.58	1.9711e-05	2.2571e-05	186.5	67.381	102.12	40.424	2.0398e-05	28.556	219.548	204.173	214.493	162.512	273.541	298.268	161.342	167.497	314.568	286.907	165.411	169.579	171.869	176.054	278.962	172.606	-8191	255	
43225.102	1	1	0	0	0.36061	0.071416	0.27624	0.059856	0.053352	0.20682	0.14786	0.12066	0.17734	0.25549	0.25088	0.23079	0.15758	0.19975	0.30862	0.41567	-1.9875	-2.55	-1.9792	-2.5146	-2.1021	-2.0104	-2.5312	-2.2812	-2.2208	-2.4188	-2.0687	-2.4521	-2.3104	-2.1979	-2.3208	-2.3229	209.855	149.927	155.162	167.874	258.746	471.354	453.479	431.012	172.161	488.040	311.937	206.029	478.118	485.026	359.265	351.337	0.0001635	0.00058079	0.00012382	772.04	2.9432e-06	7.3249e-06	580.4	266.88	2.9042e-06	2.2226e-06	186.79	65.403	100.98	39.723	3.0261e-06	28.363	0.0016044	0.002029	0.00056664	758.31	1.9015e-05	2.2709e-05	577.06	264.37	1.9531e-05	2.2323e-05	184.62	65.976	100.55	39.798	1.9873e-05	28.282	230.788	227.919	234.487	162.427	297.578	340.951	161.297	167.373	281.535	287.596	165.517	169.365	171.784	176.168	311.888	172.691	-8191	255	
43225.199	1	1	0	0	0.17622	0.26053	0.21315	0.26162	0.19006	0.3408	0.14059	0.26157	0.075744	0.085655	0.1447	0.12374	0.11262	0.261	0.14882	0.19066	-1.6437	-2.2354	-1.95	-2.375	-2.2333	-2.1667	-2.3688	-2.2708	-2.0417	-2.4521	-2.0854	-2.4125	-2.3688	-2.1188	-2.4146	-2.2333	405.665	414.315	352.376	477.594	474.362	349.273	309.956	430.221	205.932	352.653	362.750	158.016	226.178	465.085	434.883	350.603	0.00016299	9.1445e-05	0.00017674	768.65	2.36e-06	3.515e-06	585.6	266.02	4.5949e-06	9.4426e-07	186.23	66.152	101.62	40.205	3.2491e-06	28.593	0.0012644	0.0033627	0.00054936	756.11	1.9088e-05	2.2359e-05	577.44	264.09	1.9666e-05	2.2208e-05	185.38	66.894	101.19	40.207	2.0869e-05	28.689	228.233	439.577	262.069	162.368	299.128	304.663	161.165	167.324	274.927	226.426	165.571	169.400	171.682	176.173	268.241	172.643	-8191	255	
43225.293	1	1	0	0	0.12742	0.14093	0.031537	0.090964	0.2477	0.14347	0.1512	0.24632	0.094312	0.10916	0.16318	0.24366	0.098443	0.10677	0.23161	0.25137	-1.6938	-2.2875	-1.9479	-2.3521	-2.2625	-2.0458	-2.4354	-2.2542	-1.9229	-2.3688	-1.9792	-2.3271	-2.275	-1.9	-2.3625	-2.3146	214.415	306.245	416.834	153.146	440.285	280.836	406.537	210.890	259.662	459.953	374.073	416.177	438.789	235.742	478.387	424.516	0.00028689	0.00060142	0.00011059	774.19	3.4538e-06	5.2232e-06	590.02	269.27	4.0245e-06	1.4205e-06	189.08	66.867	102.37	40.861	5.8527e-06	29.391	0.00098561	0.0037149	0.00055516	760.48	1.9172e-05	2.2715e-05	584.71	266.53	1.9794e-05	2.2439e-05	188.02	67.403	102.17	40.886	2.0838e-05	29.331	226.554	408.970	228.594	162.514	295.189	289.460	161.235	167.251	311.947	404.254	165.233	169.397	171.810	176.516	287.544	172.672	-8191	255	
43225.414	1	1	0	0	0.13179	0.072088	0.21863	0.11737	0.10811	0.16345	0.12824	0.11658	0.23801	0.13011	0.29524	0.14315	0.15509	0.22154	0.056124	0.15961	-1.8479	-2.475	-2.1271	-2.2833	-2.3542	-2.1	-2.4542	-2.3125	-2.0563	-2.6396	-2.2188	-2.2833	-2.6437	-2.0875	-2.5062	-2.2271	246.627	155.629	188.287	359.970	318.195	415.859	349.382	417.392	437.555	188.666	477.126	500.819	157.828	169.628	458.858	258.647	0.0002724	0.00071345	9.7096e-05	773.66	2.6758e-06	4.8545e-06	589.5	269.86	3.982e-06	4.6435e-06	189.2	66.294	101.78	40.756	2.421e-06	29.264	0.001008	0.0043829	0.00056707	760.96	1.8432e-05	2.2259e-05	583.2	265.97	1.9774e-05	2.2315e-05	187.38	66.733	102.31	40.781	2.0782e-05	29.166	229.415	463.071	243.519	162.624	278.336	335.173	161.172	167.524	272.072	304.051	165.935	169.823	171.926	176.294	346.547	172.590	-8191	255	
43225.512	1	1	0	0	0.37345	0.15867	0.063327	0.13656	0.18378	0.086961	0.34079	0.26379	0.219	0.1705	0.014105	0.030952	0.12444	0.19373	0.18565	0.064885	-1.6083	-2.3354	-2.1479	-2.1375	-2.3708	-2.0875	-2.4875	-2.4167	-1.8667	-2.5167	-2.1479	-1.9562	-2.4125	-2.0646	-2.2771	-2.2313	361.766	162.317	276.024	473.189	173.846	424.322	431.016	499.998	326.652	472.503	460.651	406.268	151.350	448.363	165.252	353.044	0.00026911	0.00058977	9.7768e-06	771.48	3.7117e-06	3.9845e-06	586.24	266.24	4.0067e-06	3.6931e-06	187.82	66.178	101.6	40.549	1.6225e-06	29.099	0.0010039	0.0036445	0.0005821	756.16	1.8585e-05	2.2399e-05	579.62	264.36	1.9666e-05	2.2452e-05	186.43	66.125	101.78	40.63	2.1062e-05	29.12	222.242	472.154	262.323	162.526	292.732	339.464	161.088	167.541	318.576	330.046	165.336	169.451	172.048	176.375	260.212	172.696	-8191	255	
43225.605	1	1	0	0	0.34727	0.14577	0.29218	0.20237	0.11708	0.15764	0.09707	0.28475	0.098415	0.28649	0.093725	0.16366	0.27605	0.18029	0.10642	0.10801	-1.5521	-2.3792	-2.0125	-2.1583	-2.2854	-2.1271	-2.4167	-2.3854	-1.8417	-2.3625	-2.2542	-1.9937	-2.5438	-2.2646	-2.3667	-2.375	180.234	190.764	452.065	492.687	197.409	230.707	156.873	450.934	411.540	315.001	429.086	397.580	480.659	264.578	401.214	434.470	0.00028326	0.00081975	6.6193e-05	771.31	3.7169e-06	2.8015e-06	587.58	269.46	2.2107e-06	4.3091e-06	189.28	66.884	102.37	41.054	4.4591e-06	29.85	0.0009862	0.0044585	0.00056653	757.37	1.8206e-05	2.2969e-05	581.6	266.49	1.9016e-05	2.2762e-05	188.31	66.942	103.33	41.182	2.1223e-05	29.704	226.103	449.527	500.166	162.564	293.545	340.754	161.510	167.443	258.146	294.209	165.401	169.601	171.885	176.229	311.214	172.649	-8191	255	
43225.703	1	1	0	0	0.17167	0.10046	0.35043	0.21654	0.16261	0.28727	0.21264	0.21286	0.23707	0.32243	0.21486	0.15461	0.21234	0.15384	0.1729	0.18613	-1.475	-2.35	-2.2771	-2.1625	-2.5438	-2.275	-2.3417	-2.4333	-2.0646	-2.475	-2.4958	-2.1562	-2.4417	-2.0396	-2.1208	-2.4771	431.630	315.957	257.699	202.108	193.549	243.256	468.105	493.028	282.878	209.936	241.893	496.417	336.967	468.172	493.257	267.679	0.0002784	0.00059919	6.0028e-05	782.66	3.2179e-06	5.5749e-06	597.24	272.77	3.2234e-06	4.2021e-06	193.5	68.526	103.95	42.163	4.0145e-06	30.116	0.00099183	0.0037824	0.00057768	766.68	1.8883e-05	2.3142e-05	589.42	271.08	2.0019e-05	2.3944e-05	191.72	68.339	104.77	42.005	2.1234e-05	30.293	228.527	486.941	295.263	162.629	301.417	310.883	161.181	167.361	279.415	277.717	165.757	169.105	171.971	176.344	285.071	172.656	-8191	255	
43225.801	1	1	0	0	0.19821	0.20258	0.20293	0.31522	0.036442	0.39476	0.2866	0.31617	0.11025	0.15916	0.20612	0.16325	0.099768	0.10061	0.33072	0.21438	-1.5688	-2.1604	-2.2062	-1.8687	-2.4646	-2.075	-2.3125	-2.3792	-2.1167	-2.2021	-2.5021	-2.0771	-2.3625	-2.0875	-2	-2.675	257.063	450.343	429.854	404.280	230.834	295.527	450.156	459.477	157.394	427.543	411.022	254.746	274.058	367.624	181.052	241.508	0.00029987	0.00041935	5.8261e-05	784.17	3.1237e-06	4.92e-06	605.11	274.74	4.1628e-06	3.8982e-06	193.8	68.638	103.5	42.064	3.3782e-06	30.035	0.0010308	0.0046375	0.00059633	772.51	1.8894e-05	2.3252e-05	594.43	273.24	2.0147e-05	2.3693e-05	192.62	68.47	104.51	42.111	2.0623e-05	30.237	221.741	486.512	278.397	162.530	275.675	295.474	161.202	167.883	298.974	291.244	165.648	169.174	171.948	176.201	320.026	172.401	-8191	255	
43225.895	1	1	0	0	0.29421	0.13913	0.10276	0.13221	0.12093	0.26005	0.073897	0.20612	0.065317	0.059561	0.2138	0.16891	0.23311	0.14019	0.17025	0.23301	-1.6063	-2.2667	-2.2979	-2.0375	-2.4104	-2.3958	-2.3104	-2.6479	-2.0104	-1.9708	-2.5021	-1.9208	-2.4167	-2.2521	-2.1229	-2.65	474.007	325.032	165.510	432.673	431.295	401.389	421.551	336.806	214.983	188.961	394.825	445.511	431.277	489.234	348.180	398.279	0.00030989	0.00045025	0.00014387	779.76	2.6026e-06	6.5629e-06	596.95	271.72	3.488e-06	2.9475e-06	192.99	67.775	103.39	41.64	5.815e-06	30.194	0.0010376	0.0032954	0.00059988	765.67	1.8877e-05	2.2742e-05	587.39	271.06	2.0459e-05	2.2561e-05	191.15	67.67	104.04	41.815	2.0699e-05	30.133	224.587	351.900	174.560	162.362	340.653	309.245	161.471	167.491	300.509	299.674	165.719	169.670	172.421	176.511	305.233	172.632	-8191	255	
43226.016	1	1	0	0	0.18871	0.10787	0.26161	0.22047	0.17	0.1198	0.053343	0.26352	0.23005	0.12025	0.079261	0.29359	0.10503	0.33732	0.20419	0.2733	-1.7708	-2.1417	-2.3729	-2.2292	-2.3354	-2.3875	-2.2062	-2.4688	-2.0354	-2.1271	-2.3167	-2.0396	-2.5563	-2.4229	-2.0333	-2.4313	420.970	328.615	410.568	190.074	354.253	295.099	167.415	294.461	230.185	382.488	154.840	453.427	176.938	152.211	291.301	405.616	0.00029536	0.00015613	0.00025877	777.79	3.7326e-06	1.7013e-06	593.32	269.78	3.8649e-06	4.8347e-06	190.05	67.832	102.46	41.378	6.1694e-06	29.45	0.0010398	0.002344	0.001058	765.78	1.8624e-05	2.2578e-05	584.61	268.75	1.9759e-05	2.2532e-05	189.17	67.219	103.46	41.443	2.0528e-05	29.547	229.174	336.703	176.808	162.446	331.207	195.136	161.288	167.516	286.747	289.324	165.589	169.508	172.410	176.330	289.814	172.817	-8191	255	
43226.109	1	1	0	0	0.19056	0.11886	0.15618	0.055434	0.077048	0.083859	0.02499	0.0068472	0.037029	0.089898	0.25265	0.15686	0.095133	0.071139	0.14746	0.30153	-1.7208	-2.0833	-2.4708	-2.0292	-2.2562	-2.2583	-2.0208	-2.4667	-2.4562	-2.0563	-2.4562	-2.225	-2.3063	-2.4396	-1.975	-2.475	382.736	345.407	491.174	504.085	154.440	428.160	479.339	499.554	473.123	441.729	460.521	158.588	181.061	423.831	288.361	178.825	0.00028323	0.00038629	0.000241	777.46	3.4918e-06	3.588e-06	590.28	269.82	2.6991e-06	3.3819e-06	190.12	66.799	102.05	41.086	2.7771e-06	29.409	0.00098732	0.0019589	0.0010474	763.07	1.9038e-05	2.2842e-05	582.67	268.33	2.0111e-05	2.2557e-05	188.77	66.741	102.45	41.058	2.0212e-05	29.572	220.353	276.990	149.988	162.428	309.797	301.567	161.375	167.612	307.270	275.296	165.780	169.395	171.977	176.233	298.490	172.687	-8191	255	
43226.207	1	1	0	0	0.32593	0.39143	0.087919	0.094907	0.40796	0.18785	0.044378	0.32242	0.1048	0.28488	0.049187	0.072546	0.075387	0.26529	0.27498	0.15982	-1.7979	-2.0792	-2.4688	-2.1937	-2.1375	-2.3417	-2.1125	-2.5271	-2.2979	-2.1875	-2.4167	-1.9875	-2.2	-2.3583	-2.0729	-2.4646	406.219	356.799	327.701	161.885	286.432	270.554	417.893	476.033	177.284	288.970	355.486	457.178	448.221	164.705	385.086	356.990	0.00029915	0.00011132	0.00018597	778.37	2.1332e-06	3.6225e-06	591.48	269.35	4.6303e-06	5.9238e-06	192.08	67.612	102.79	41.202	3.4394e-06	29.623	0.001002	0.0019696	0.0012456	765.07	1.8829e-05	2.248e-05	585.45	268.86	1.9929e-05	2.2301e-05	189.87	67.508	102.6	41.484	2.1036e-05	29.695	227.281	280.395	508.401	162.615	268.726	285.464	161.553	167.615	319.287	306.455	165.574	169.488	172.042	176.339	310.722	173.003	-8191	255	
43226.277	1	1	0	0	0.19587	0.051547	0.37782	0.19528	0.17987	0.19523	0.25843	0.29082	0.17571	0.12607	0.12435	0.060481	0.072255	0.16605	0.10864	0.041318	-1.9604	-2.1	-2.3937	-2.2188	-2.0521	-2.4146	-2.0396	-2.3542	-2.2167	-2.1021	-2.4562	-2.2687	-1.8458	-2.5187	-2.0917	-2.2542	229.902	200.771	402.750	411.786	303.201	407.288	453.422	163.080	156.724	408.070	299.361	160.704	261.220	440.910	318.506	376.394	0.00027237	0.00030073	0.00013833	772.83	3.693e-06	2.4223e-06	591.14	268.62	4.4115e-06	3.0326e-06	189.26	66.305	101.52	40.732	3.8754e-06	29.252	0.00099715	0.0019645	0.0010422	761.32	1.8769e-05	2.1822e-05	581.33	267.67	1.9916e-05	2.2228e-05	187.86	66.576	101.39	41.039	2.1129e-05	29.351	230.304	231.654	195.062	162.581	289.134	322.550	161.607	167.612	271.514	271.236	165.831	169.711	172.062	176.328	261.718	172.687	-8191	255	
43226.398	1	1	0	0	0.18569	0.15506	0.19349	0.19189	0.16065	0.060726	0.076499	0.3526	0.25591	0.15356	0.11328	0.15386	0.093162	0.12954	0.11882	0.06602	-2.0854	-1.8333	-2.5479	-2.3354	-2.2125	-2.375	-2.2229	-2.3312	-2.3167	-1.9604	-2.3708	-2.2479	-2.0438	-2.3708	-2.2354	-2.1562	412.768	465.592	471.464	233.112	363.657	445.906	454.567	436.928	454.066	467.235	278.736	474.543	437.213	168.749	390.977	492.597	0.00028962	0.000416	0.00028422	773.99	4.5408e-06	3.2194e-06	588.92	267.81	4.685e-06	8.7781e-07	186.99	66.601	100.5	40.614	1.7806e-06	29.267	0.00098981	0.0019988	0.0012449	758.59	1.843e-05	2.249e-05	577.89	265.88	2.2443e-05	2.2486e-05	186.8	66.486	101.02	41.084	2.0891e-05	29.353	230.193	238.791	161.632	162.526	342.353	299.210	161.486	167.896	279.308	265.891	165.228	169.491	172.092	176.161	270.988	172.792	-8191	255	
43226.496	1	1	0	0	0.056908	0.19572	0.17194	0.089546	0.26957	0.092586	0.11311	0.11591	0.25906	0.26126	0.36499	0.16917	0.15427	0.27994	0.06827	0.088175	-1.9042	-2.1417	-2.3021	-2.1646	-2.0354	-2.2104	-2.1917	-2.2125	-2.6125	-2.2417	-2.2792	-2.2271	-2.1521	-2.5333	-2.1208	-2.2458	232.121	300.367	286.516	200.635	170.999	441.482	262.597	385.275	282.532	164.547	488.539	414.822	249.152	243.918	329.870	373.959	0.00029652	0.00041949	0.00025712	771.7	3.8178e-06	1.6842e-06	590.26	268.61	8.4889e-06	1.754e-06	191.71	67.585	102.52	41.184	5.3942e-06	29.734	0.00097415	0.0019876	0.0010432	759.57	1.8426e-05	2.3002e-05	581.5	266.83	3.7916e-05	2.3102e-05	189.76	67.413	102.22	41.548	2.0916e-05	29.791	228.629	282.317	183.257	162.620	307.073	283.913	161.378	167.664	283.685	154.738	165.470	169.314	171.965	176.311	305.006	172.694	-8191	255	
43226.590	1	1	0	0	0.13274	0.27379	0.28063	0.084834	0.23307	0.15996	0.14022	0.2648	0.062168	0.26895	0.15595	0.080635	0.072421	0.17613	0.096685	0.23029	-2.0917	-2.0062	-2.1396	-2.3688	-2.1771	-2.525	-2.1021	-2.0563	-2.525	-2.2771	-2.3667	-2.3104	-1.9042	-2.3708	-2.2417	-2.1875	233.921	369.322	506.068	318.997	497.982	191.113	254.897	389.918	406.419	250.435	446.304	441.764	272.809	259.371	153.299	506.381	0.0003225	0.00032326	0.00027936	779.4	4.2222e-06	2.0262e-06	597.9	271.39	9.3582e-06	5.1764e-06	192.29	68.266	103.53	41.612	5.2716e-06	30.072	0.0010146	0.0020159	0.0012614	767.42	1.8812e-05	2.3003e-05	588.19	269.21	3.6056e-05	2.3352e-05	191.35	68.237	103.56	42.112	2.1253e-05	30.219	229.270	261.611	183.180	162.544	318.229	273.836	161.175	167.782	327.322	308.123	165.415	169.144	172.048	175.994	273.190	172.936	-8191	255	
43226.688	1	1	0	0	0.26498	0.061101	0.015981	0.024848	0.055804	0.23161	0.15567	0.24327	0.14781	0.0085429	0.36499	0.17725	0.087163	0.10975	0.21703	0.15019	-1.9521	-2.0687	-2.2917	-2.5333	-1.9479	-2.3458	-2.2521	-1.9292	-2.4458	-1.8875	-2.1729	-2.5708	-2.1917	-2.6292	-2.2458	-2.1854	418.671	402.168	199.791	471.841	351.158	495.262	368.629	174.668	303.873	313.714	216.273	175.159	234.592	473.316	435.732	466.597	0.00029538	0.00040065	0.00015421	780.03	3.6489e-06	1.8319e-06	598.67	271.72	8.2726e-06	6.6741e-06	194.23	68.1	103.6	41.621	4.905e-06	30.085	0.0010307	0.002074	0.00087838	767.76	1.9276e-05	2.3567e-05	588.5	269.05	4.3306e-05	2.3162e-05	190.93	68.013	103.31	41.937	2.0874e-05	29.987	232.196	254.318	245.811	162.562	313.154	326.650	161.147	167.453	342.985	310.109	165.409	169.624	171.908	176.580	312.588	172.858	-8191	255	
43226.809	1	1	0	0	0.19418	0.068655	0.2169	0.2797	0.08977	0.099972	0.089658	0.09024	0.16626	0.3289	0.11045	0.22066	0.21868	0.12588	0.14719	0.20985	-1.9875	-2.2062	-2.1562	-2.4021	-1.9	-2.5333	-2.1896	-2.2687	-2.5354	-2.1021	-2.1125	-2.4875	-2.1063	-2.375	-2.3	-2.0938	205.377	450.270	340.841	500.196	210.778	223.862	440.875	174.096	319.378	302.066	215.924	359.384	174.683	269.652	247.169	340.781	0.00029239	0.00052954	7.2918e-05	776.78	2.2218e-06	1.2031e-06	594.91	269.5	7.5102e-06	3.9375e-06	191.94	67.471	102.68	41.526	3.9388e-06	29.864	0.0010132	0.0020479	0.00057482	767.9	1.9345e-05	2.2632e-05	585.54	267.86	3.5811e-05	2.2992e-05	189.77	67.402	102.94	41.9	2.0226e-05	29.827	227.805	259.357	226.214	162.434	328.577	341.666	161.592	167.571	343.537	295.449	165.456	169.480	172.014	176.290	275.558	172.711	-8191	255	
43226.902	1	1	0	0	0.16257	0.18524	0.22005	0.20763	0.030491	0.089371	0.10302	0.24303	0.14361	0.072879	0.31515	0.13238	0.23077	0.33293	0.027643	0.06326	-2.0104	-2.175	-2.1708	-2.6375	-2.0938	-2.2604	-2.3396	-1.9542	-2.3354	-2.3625	-2.2479	-2.4813	-2.15	-2.2479	-2.3312	-2.1396	158.507	302.434	360.608	221.187	196.278	369.136	438.304	451.869	288.369	476.684	194.097	479.453	155.248	483.539	180.645	332.163	0.00025805	0.00038161	8.4455e-05	780.7	2.6459e-06	3.3174e-06	595.17	271.82	9.4854e-06	4.0926e-06	192.64	68.055	103.9	41.879	2.4885e-06	30.02	0.0010261	0.0020745	0.00056755	769.38	1.8934e-05	2.3493e-05	586.14	269	4.299e-05	2.2667e-05	191.19	67.99	103.73	42.001	2.5371e-05	30.115	227.031	245.744	290.293	162.184	287.539	272.384	161.130	167.499	360.412	274.632	165.476	169.822	171.817	176.090	203.558	172.705	-8191	255	
43226.977	1	1	0	0	0.33882	0.31513	0.31355	0.2363	0.30856	0.096304	0.20579	0.15475	0.24939	0.083257	0.05588	0.12789	0.071078	0.37527	0.22163	0.11438	-1.9167	-2.3146	-1.9896	-2.4479	-2.2229	-2.1	-2.5187	-2.05	-2.3604	-2.4	-2.1021	-2.5417	-2.2458	-2.2542	-2.4375	-1.9667	475.912	278.801	458.786	163.661	503.618	430.681	200.244	435.864	307.276	273.716	407.716	481.741	348.099	426.329	450.313	414.751	0.00028168	0.00047722	0.00016789	785.55	4.1288e-06	1.747e-06	598.47	273.67	7.6293e-06	9.818e-07	193.84	69.377	104.52	42.242	6.2074e-06	30.343	0.0010224	0.002025	0.00054251	775.99	1.9053e-05	2.2356e-05	590.1	271.79	3.701e-05	2.2827e-05	193.03	68.915	104.44	42.167	4.2299e-05	30.418	235.475	237.724	260.926	162.709	301.336	318.603	161.346	167.386	333.338	242.834	165.429	169.389	171.938	176.157	208.160	172.872	-8191	255	
43227.098	1	1	0	0	0.1832	0.25745	0.091669	0.14257	0.23142	0.14732	0.13762	0.29581	0.19532	0.21042	0.056717	0.083604	0.11448	0.087276	0.15622	0.1248	-1.9333	-2.2583	-2.1188	-2.4896	-2.2208	-2.1458	-2.3833	-2.1208	-2.2792	-2.4354	-1.9708	-2.4479	-2.2854	-2.1229	-2.4437	-2.1813	413.095	228.044	197.249	435.124	371.180	439.131	481.861	427.674	466.144	437.825	416.304	263.925	257.954	427.243	349.687	290.641	0.00029608	0.00019985	0.00014229	786.68	2.3948e-06	3.75e-06	601.47	275.3	1.0957e-05	4.4758e-06	194.35	69.005	104.53	42.177	3.8662e-06	30.113	0.0010251	0.0019842	0.00055244	777.3	1.8849e-05	2.2352e-05	592.99	272.22	4.2427e-05	2.2129e-05	192.47	68.841	104.32	42.192	3.7245e-05	30.131	224.429	250.501	233.769	162.416	306.490	315.462	161.553	167.464	373.322	302.823	165.406	169.530	171.987	176.106	507.762	173.140	-8191	255	
43227.191	1	1	0	0	0.22508	0.24271	0.11647	0.22015	0.066699	0.18682	0.11492	0.60776	0.1727	0.20545	0.11355	0.20893	0.040653	0.27085	0.12264	0.095264	-1.6354	-2.4229	-2.1312	-2.3625	-2.2313	-2.0729	-2.5792	-2.2	-2.2938	-2.3083	-2.1208	-2.35	-2.2896	-2.0958	-2.3625	-2.1875	316.453	384.582	248.037	396.528	400.853	321.287	266.340	441.952	485.441	362.885	484.652	476.911	185.730	467.671	468.684	174.864	0.00030133	0.00022902	4.4862e-05	788.4	1.9568e-06	4.6497e-06	592.8	272.32	5.3114e-06	5.2336e-06	190.41	66.832	102.16	41.095	4.7432e-06	29.119	0.00099991	0.0019305	0.00054858	774.14	1.8396e-05	2.1388e-05	583.65	269.77	2.7624e-05	2.7384e-05	188.52	66.88	102.26	41.029	4.3825e-05	29.124	231.355	293.354	285.467	162.331	277.808	310.040	161.368	167.481	346.754	284.211	165.206	169.406	171.816	176.172	493.535	172.952	-8191	255	
43227.285	1	1	0	0	0.19141	0.22672	0.076021	0.26974	0.10726	0.1129	0.27482	0.14129	0.20005	0.2046	0.22639	0.39882	0.079547	0.24504	0.13465	0.24455	-1.6521	-2.1542	-2.0458	-2.475	-2.2438	-2.1917	-2.475	-2.3438	-2.2208	-2.3167	-2.1354	-2.4354	-2.325	-1.9479	-2.4417	-2.0271	404.133	408.556	296.829	378.214	177.364	369.110	391.674	337.991	461.217	329.163	179.832	230.750	368.131	452.747	429.049	309.319	0.00027568	0.00030744	7.8952e-05	776.49	1.8319e-06	5.4277e-06	588.22	267.06	1.9005e-06	3.4394e-06	187.81	65.805	100.39	40.077	6.6009e-06	28.647	0.00095492	0.0018809	0.00055594	764.25	1.8335e-05	2.1617e-05	577.47	264.65	1.8405e-05	4.6807e-05	185.92	65.549	100.26	39.97	3.6577e-05	28.578	229.148	270.185	268.911	162.643	302.086	262.879	161.616	167.175	275.738	270.791	165.352	169.413	171.692	175.800	193.425	172.433	-8191	255	
43227.406	1	1	0	0	0.11027	0.10273	0.17169	0.18378	0.16601	0.22746	0.3787	0.19994	0.13237	0.12117	0.08728	0.062775	0.12977	0.15869	0.071051	0.16185	-1.4708	-2.1875	-1.9562	-2.3583	-2.4417	-1.9	-2.4458	-2.2896	-2.0646	-2.5875	-2.0479	-2.2896	-2.5458	-2.2812	-2.5083	-2.2146	172.640	286.750	329.750	467.253	451.348	211.311	432.696	438.559	173.943	365.440	439.434	385.260	410.823	162.527	263.487	359.351	0.00027624	0.00022122	9.1537e-05	773.93	1.6069e-06	2.8879e-06	585.62	266.18	4.281e-06	6.3944e-06	186.86	65.348	99.85	39.786	3.5094e-06	28.446	0.0009456	0.0019408	0.00054417	762.66	1.7488e-05	2.1083e-05	574.31	262.98	1.8437e-05	4.0193e-05	185.33	65.049	99.715	39.755	4.3295e-05	28.437	229.425	258.896	210.668	162.478	305.762	302.575	161.341	167.152	272.829	351.721	165.494	169.321	171.614	176.115	178.109	173.047	-8191	255	
43227.504	1	1	0	0	0.10868	0.15601	0.35986	0.19759	0.19384	0.078117	0.11618	0.12587	0.14756	0.029579	0.2983	0.25501	0.2775	0.19469	0.15172	0.31471	-1.7833	-2.5542	-2.25	-2.6333	-2.4375	-2.3125	-2.5062	-2.35	-2.1396	-2.5708	-2.3063	-2.1208	-2.5896	-2.175	-2.3792	-2.3333	413.582	470.825	173.097	211.658	383.900	466.267	238.019	507.804	470.614	400.290	369.161	463.142	380.341	182.235	507.615	474.195	0.00029426	0.00036505	9.5788e-05	769.02	5.9886e-06	1.5578e-06	578.95	265.59	2.4816e-06	1.1716e-05	186.66	65.202	99.982	39.769	5.1533e-06	28.257	0.00091685	0.0018771	0.00052785	757.06	2.2975e-05	2.1523e-05	572.29	262.64	1.8594e-05	4.8708e-05	184.62	65.092	99.917	39.913	3.6471e-05	28.444	225.004	217.491	257.988	162.587	276.901	242.521	161.490	167.535	289.758	374.015	165.953	169.411	171.721	176.174	174.806	172.379	-8191	255	
43227.574	1	1	0	0	0.15548	0.062287	0.23439	0.31519	0.19199	0.063132	0.27116	0.083309	0.14363	0.095463	0.20449	0.12885	0.15485	0.13448	0.18575	0.078803	-1.6917	-2.5229	-2.2271	-2.3521	-2.4313	-2.0896	-2.375	-2.4542	-2.0458	-2.5417	-2.3	-2.3208	-2.6396	-2.4375	-2.1521	-2.2938	284.705	443.470	293.957	483.257	171.081	330.020	285.169	365.248	485.068	327.661	212.735	177.505	491.536	184.148	350.362	164.821	0.00026812	0.00018042	5.0359e-05	766.25	9.5102e-06	3.4697e-06	579.11	265.47	3.9855e-06	5.5993e-06	183.69	64.091	98.915	39.226	7.829e-06	27.755	0.00094901	0.0019152	0.00053944	755.07	3.8727e-05	2.1699e-05	569.25	261.6	1.8733e-05	4.0781e-05	182.15	63.812	98.373	39.098	4.307e-05	27.716	227.752	252.058	242.257	162.419	260.338	291.166	161.510	167.149	280.079	402.515	164.980	169.235	171.550	176.275	194.568	172.843	-8191	255	
43227.695	1	1	0	0	0.21297	0.080109	0.24463	0.29313	0.090277	0.21792	0.11971	0.087271	0.16251	0.15647	0.254	0.14904	0.39419	0.21145	0.29962	0.2113	-1.5812	-2.3208	-2.2958	-2.0896	-2.5	-2.1479	-2.4521	-2.6146	-1.925	-2.55	-2.3083	-2.2021	-2.5021	-2.2208	-2.25	-2.5146	386.144	416.797	240.159	387.330	379.784	244.882	243.828	257.063	387.675	456.071	357.937	431.387	166.513	480.308	445.931	170.646	0.00025566	0.00022925	9.5107e-05	756.96	7.694e-06	3.1108e-06	572.21	261.94	3.9774e-06	8.8317e-06	182.28	63.666	97.428	38.927	8.1304e-07	27.79	0.00096059	0.0019527	0.00053735	745.29	3.3097e-05	2.173e-05	563.21	258.62	1.9227e-05	4.7715e-05	180.81	63.453	97.492	38.9	2.6737e-05	27.869	231.652	204.126	247.784	162.475	291.825	311.654	161.258	167.282	304.763	400.747	165.183	169.407	171.540	176.190	332.090	172.193	-8191	255	
43227.793	1	1	0	0	0.15899	0.23292	0.18095	0.40145	0.035924	0.14369	0.2713	0.4277	0.19906	0.18021	0.20136	0.11417	0.1492	0.063186	0.090975	0.23436	-1.5792	-2.2938	-2.3979	-1.9625	-2.3583	-2.2167	-2.2313	-2.4562	-2.1625	-2.3958	-2.2771	-2.1229	-2.5896	-2.1854	-2.1333	-2.4542	237.718	435.886	252.401	439.885	243.742	163.834	155.252	437.974	195.969	226.228	206.346	371.930	461.579	327.283	182.877	150.288	0.00027648	0.000186	8.0079e-05	757.13	1.0327e-05	3.0007e-06	570.14	262.55	3.1869e-06	5.6262e-06	185.43	64.521	98.645	39.582	5.9882e-06	28.237	0.00095208	0.0020063	0.00052491	744.67	3.9407e-05	2.1549e-05	565.26	259.68	1.9246e-05	4.0105e-05	183.28	64.262	98.793	39.667	1.9622e-05	28.792	221.887	247.028	212.895	162.463	295.475	280.617	161.141	167.401	315.288	404.215	165.615	169.218	171.688	175.982	336.351	172.183	-8191	255	
43227.891	1	1	0	0	0.28093	0.20735	0.19057	0.20572	0.070044	0.28927	0.1907	0.36448	0.31729	0.091161	0.086185	0.066125	0.3691	0.13348	0.33684	0.093893	-1.7188	-2.3563	-2.4229	-2.0187	-2.4396	-2.1021	-2.0812	-2.5896	-2.1042	-2.025	-2.5125	-2.1417	-2.4375	-2.1542	-1.9833	-2.5542	387.577	226.425	255.821	393.643	160.935	487.008	391.658	225.755	507.969	248.342	323.888	380.908	420.705	501.961	348.122	369.388	0.00026293	0.0004118	1.7827e-05	765.94	8.2138e-06	4.0096e-06	579.34	266.98	4.5062e-06	5.3527e-06	187.71	65.932	100.57	40.352	4.1197e-06	28.929	0.00098853	0.0019264	0.00054048	752.47	3.3718e-05	2.2099e-05	571.07	263.51	1.9392e-05	4.9499e-05	185.82	65.619	100.4	40.406	2.0243e-05	29.289	234.801	230.895	249.059	162.322	301.429	300.702	161.566	167.324	292.237	410.929	165.525	169.101	171.835	176.046	292.540	172.654	-8191	255	
43227.984	1	1	0	0	0.10988	0.031453	0.14298	0.19344	0.18264	0.16258	0.20431	0.18782	0.01147	0.15936	0.19044	0.13988	0.1437	0.051271	0.1063	0.066796	-1.6313	-2.2208	-2.2667	-2.0958	-2.425	-2.1958	-2.1063	-2.4938	-2.0896	-2.3333	-2.525	-2.1708	-2.4188	-2.4854	-1.9062	-2.3563	210.141	340.988	179.695	415.733	331.228	291.647	236.068	495.863	225.989	432.300	477.401	418.420	224.398	367.126	483.634	388.665	0.0002751	0.0005143	0.00012404	768.36	9.7402e-06	1.2752e-06	585.03	267.08	8.8149e-07	6.8071e-06	189.45	66.4	100.79	40.668	3.2072e-06	29	0.0010061	0.0019872	0.00055195	757.14	4.0427e-05	2.2394e-05	576.52	264.89	1.9464e-05	3.0172e-05	188.13	66.173	100.68	40.638	2.0262e-05	29.463	225.284	219.166	220.149	162.394	304.200	302.861	161.413	167.563	336.585	362.840	165.202	169.509	171.798	176.432	293.228	172.766	-8191	255	
43228.105	1	1	0	0	0.14333	0.1178	0.26554	0.13986	0.065122	0.23006	0.31063	0.23553	0.39968	0.31246	0.13913	0.33705	0.18113	0.19491	0.2656	0.17124	-1.6604	-1.9854	-2.3396	-2.2604	-2.175	-2.2188	-1.9813	-2.4	-2.1896	-2.2313	-2.4896	-2.1208	-2.3396	-2.3771	-1.825	-2.3667	219.874	285.990	417.533	464.018	291.990	293.148	457.262	424.312	199.619	221.648	161.509	500.452	168.468	207.882	468.385	166.865	0.00029767	0.00024534	6.1968e-05	769.18	9.1154e-06	4.964e-06	584.06	265.36	5.6943e-06	1.5174e-06	185.47	66.516	100.02	40.421	4.2071e-06	28.951	0.0010092	0.0019404	0.00054989	753.72	3.3438e-05	2.1947e-05	571.6	263.53	1.9085e-05	2.2228e-05	188.2	66.038	100.45	40.521	2.0937e-05	29.299	230.492	241.327	259.557	162.517	317.100	312.083	161.319	167.362	301.307	307.433	165.414	169.494	171.759	176.037	290.845	172.188	-8191	255	
43228.199	1	1	0	0	0.21801	0.081251	0.10035	0.12673	0.067676	0.17961	0.14507	0.29287	0.040108	0.26467	0.035654	0.18123	0.21024	0.078299	0.071895	0.21367	-1.725	-2.1583	-2.4125	-2.0958	-2.3167	-2.45	-2.1542	-2.5167	-2.2167	-1.9771	-2.2729	-2.0667	-2.2833	-2.4583	-2.075	-2.3583	422.211	457.050	491.499	418.706	222.736	232.685	220.686	507.077	325.166	267.000	505.239	160.862	499.274	209.370	484.132	310.530	0.00027378	0.00028742	9.1357e-05	763.43	8.9974e-06	5.6609e-06	583.84	266.27	4.4356e-06	3.0437e-06	188.05	66.311	100.86	40.852	3.3654e-06	29.427	0.0009604	0.001955	0.00056185	751.55	3.9412e-05	2.2151e-05	573.55	263.59	1.9151e-05	2.1893e-05	189.21	66.265	100.94	40.883	2.0936e-05	29.976	224.319	246.481	226.023	162.520	358.898	293.959	161.218	167.460	315.822	298.110	165.706	169.661	172.015	176.021	252.279	172.630	-8191	255	
43228.270	1	1	0	0	0.070056	0.072148	0.13408	0.20165	0.15068	0.20028	0.18537	0.15537	0.046531	0.26675	0.073801	0.10163	0.30896	0.17357	0.13374	0.17382	-1.8958	-1.95	-2.3708	-2.3187	-2.1875	-2.5771	-2.0167	-2.1792	-2.4042	-2.0021	-2.4667	-2.0667	-2.2792	-2.5438	-2.0187	-2.3812	399.669	202.818	456.783	420.010	351.582	196.200	429.982	410.188	153.432	184.911	292.641	172.436	414.599	457.060	390.281	486.965	0.00028749	0.00022672	0.00018089	771.17	6.049e-06	6.6784e-06	589.56	269.77	4.6803e-06	2.1634e-06	191.39	67.72	102.37	41.448	1.8823e-06	30.229	0.00099676	0.0020404	0.00057776	758.16	2.371e-05	3.2637e-05	581.38	267.01	1.975e-05	2.3221e-05	193.01	67.581	102.19	41.501	2.1852e-05	30.493	231.543	219.774	234.181	162.656	346.277	260.665	161.328	167.482	276.668	330.840	165.534	169.226	171.991	176.324	264.438	172.523	-8191	255	
43228.367	1	1	0	0	0.14362	0.13307	0.23378	0.28357	0.10281	0.20188	0.096512	0.072256	0.29037	0.091849	0.15435	0.2329	0.030904	0.1052	0.075863	0.11333	-1.7917	-1.9667	-2.3292	-2.275	-1.9208	-2.5563	-1.9625	-2.3917	-2.3229	-1.8417	-2.3958	-2.2521	-2.0667	-2.6146	-2.0479	-2.1	494.388	196.427	324.930	473.420	330.021	153.750	229.295	462.774	180.592	173.062	197.757	337.142	425.732	465.771	301.076	471.351	0.00027857	0.00038393	5.0181e-05	780.01	4.202e-06	1.106e-05	593.32	271.27	2.7179e-06	4.2835e-06	193.11	68.46	103.54	41.957	3.0587e-06	30.487	0.0010073	0.0020976	0.00058255	764.55	1.8574e-05	5.1252e-05	587.48	269.1	1.9676e-05	2.3704e-05	194.65	68.419	103.17	42.024	2.1321e-05	30.878	233.463	194.708	261.915	162.547	295.763	326.072	161.203	167.378	276.678	281.163	165.726	169.454	171.717	176.337	304.416	173.117	-8191	255	
43228.488	1	1	0	0	0.13462	0.033917	0.05732	0.080818	0.22373	0.21669	0.28582	0.2745	0.3049	0.17266	0.14426	0.095063	0.26102	0.083283	0.18073	0.078246	-1.8438	-1.9896	-2.4479	-2.2938	-1.9854	-2.6458	-2.2208	-2.0312	-2.3104	-2.2	-2.5563	-2.3354	-2.0167	-2.4396	-2.0292	-2.1708	266.489	432.312	178.206	340.624	191.273	460.533	426.624	457.311	426.063	394.787	429.840	423.215	224.344	301.687	505.256	225.754	0.00031382	0.00019131	0.00014365	780	4.5575e-06	1.1302e-05	593.98	270.9	4.6325e-06	4.1737e-07	191.13	67.656	102.49	41.766	6.3018e-06	30.084	0.0010358	0.0020982	0.00057849	764.51	1.9243e-05	4.3047e-05	585.1	268.06	2.012e-05	2.2916e-05	193.19	67.602	102.52	41.802	2.0506e-05	30.265	224.645	247.144	246.590	162.697	311.764	324.351	161.707	167.525	295.800	346.106	165.255	169.515	172.007	176.535	299.296	172.727	-8191	255	
43228.586	1	1	0	0	0.053978	0.18633	0.17037	0.12008	0.19633	0.17022	0.22425	0.083713	0.35195	0.037741	0.047332	0.40172	0.17296	0.30628	0.15412	0.18505	-1.875	-1.85	-2.3917	-2.3917	-2.0563	-2.4229	-2.25	-2.2229	-2.5563	-1.9125	-2.5583	-2.3708	-2.1042	-2.425	-2.0271	-2.1042	229.079	481.135	373.604	298.870	357.291	358.517	384.339	290.804	251.310	428.902	336.893	435.267	504.320	152.969	159.411	382.345	0.00032606	7.5059e-05	5.0428e-05	779.75	3.3109e-06	1.6759e-05	595.69	268.77	2.6891e-06	3.7761e-06	192.14	67.525	102.42	41.537	4.5688e-06	30.112	0.0013709	0.0020749	0.00056554	762.14	1.9224e-05	5.0782e-05	582.26	267.06	1.9996e-05	2.3672e-05	192.14	67.398	102.17	41.643	2.0866e-05	30.21	219.462	268.485	259.919	162.485	288.756	343.713	161.515	167.613	267.143	291.886	165.238	169.602	171.902	176.438	283.737	172.954	-8191	255	
43228.680	1	1	0	0	0.093732	0.069986	0.20313	0.37625	0.24367	0.24723	0.43929	0.25201	0.37143	0.12199	0.035698	0.16535	0.1882	0.37116	0.16417	0.16579	-2.0646	-2.0458	-2.2083	-2.4938	-2.0042	-2.5	-2.2396	-2.1896	-2.4562	-2.075	-2.3146	-2.4375	-2.3458	-2.4917	-2.2625	-2.0938	372.594	311.106	442.686	456.654	377.003	346.643	430.302	414.272	493.670	183.045	320.812	475.860	259.028	215.367	298.497	501.370	0.00038914	0.00035085	7.3012e-05	776.98	1.5414e-06	1.0002e-05	597.71	270.87	3.7336e-06	3.7043e-06	193.01	67.751	103.49	41.863	2.7567e-06	30.265	0.0020028	0.0020471	0.00057127	762.57	1.933e-05	4.1825e-05	585.31	268.22	2.0416e-05	2.1969e-05	193.6	67.7	102.85	41.894	2.0417e-05	30.35	223.380	230.800	261.625	162.359	324.405	351.070	161.589	167.650	305.570	322.666	165.458	169.317	171.935	176.215	304.192	172.867	-8191	255	
43228.777	1	1	0	0	0.049917	0.29045	0.025704	0.31786	0.17499	0.085004	0.086912	0.070689	0.21369	0.14967	0.21465	0.14043	0.12711	0.29862	0.049392	0.091863	-2.125	-2.1396	-2.3625	-2.5333	-2.1021	-2.3563	-2.4479	-2.2	-2.6125	-2.2438	-2.4167	-2.4896	-2.0625	-2.35	-2.4521	-2.1625	169.596	400.691	330.537	173.981	423.535	275.240	444.690	152.381	295.367	475.008	352.073	386.193	238.391	443.896	251.514	215.547	0.00034436	0.00028246	5.3228e-05	779.49	3.9331e-06	1.3142e-05	597.03	271.17	4.3418e-06	1.6734e-06	191.66	68.188	103.11	41.953	3.1901e-06	30.367	0.0017397	0.0019911	0.00055752	765.79	1.9119e-05	4.948e-05	584.89	268.07	1.9502e-05	2.2274e-05	191.45	68.29	102.84	41.889	2.0253e-05	30.372	224.651	268.226	218.575	162.517	293.245	350.746	161.354	167.606	287.217	383.518	164.902	169.510	171.962	176.201	292.192	172.555	-8191	255	
43228.871	1	1	0	0	0.35398	0.16132	0.31649	0.1458	0.18634	0.3325	0.067837	0.15398	0.051485	0.19539	0.25035	0.23266	0.19157	0.11807	0.19075	0.10423	-2.0854	-2.1958	-2.0812	-2.4375	-2.1688	-2.2812	-2.2375	-2.0583	-2.4417	-2.2396	-2.2646	-2.75	-2.1625	-2.3917	-2.4938	-2.1229	172.563	365.809	266.306	336.226	451.421	498.318	149.608	371.152	414.212	370.745	196.550	433.918	369.519	325.891	354.056	398.559	0.00037796	0.00036754	7.0347e-05	778.8	1.9147e-06	9.5592e-06	591.87	270.06	3.3062e-06	2.5327e-06	190.93	67.149	102.18	41.462	4.4013e-06	29.749	0.0019605	0.0019654	0.00054904	764.82	1.8777e-05	4.0693e-05	581.36	267.27	1.913e-05	2.2286e-05	189.11	67.91	101.94	41.405	2.0104e-05	29.745	224.369	197.294	211.668	162.457	336.197	370.528	161.113	167.468	283.848	315.920	165.499	169.206	171.902	176.392	281.049	172.862	-8191	255	
43228.969	1	1	0	0	0.074779	0.30042	0.32657	0.13547	0.19135	0.069338	0.18923	0.18941	0.24377	0.22874	0.33251	0.10473	0.13362	0.17304	0.22605	0.24184	-1.7958	-2.3125	-2.15	-2.5458	-2.1813	-2.3	-2.4562	-2.075	-2.475	-2.1875	-2.1125	-2.6688	-1.9396	-2.4229	-2.2438	-1.9396	157.031	219.921	329.036	364.444	371.242	197.731	494.145	491.507	336.637	391.932	433.902	467.572	454.442	364.202	184.151	283.109	0.00033216	0.00048151	0.00010397	766.82	2.8891e-06	1.0167e-05	585.16	267.46	3.6144e-06	4.176e-06	187.88	65.968	100.82	40.521	3.5627e-06	29.048	0.001681	0.0019051	0.00055757	755.35	1.8047e-05	4.3595e-05	574.49	264.12	1.9001e-05	2.1783e-05	186.67	66.59	100.76	40.735	2.0302e-05	29.294	226.642	206.525	257.750	162.618	287.840	362.308	161.630	167.463	307.143	262.967	165.963	169.431	171.895	176.070	301.976	172.534	-8191	255	
43229.090	1	1	0	0	0.33345	0.19163	0.069003	0.058891	0.10359	0.23638	0.1497	0.24833	0.088358	0.16294	0.14318	0.21516	0.18248	0.099062	0.095817	0.13431	-1.9688	-2.2	-1.9833	-2.6792	-2.1813	-2.25	-2.3854	-2.2021	-2.4938	-2.4708	-2.075	-2.3604	-2.1896	-2.3063	-2.5687	-2.0396	460.656	407.720	185.090	172.206	366.109	232.969	501.380	444.642	303.730	163.389	151.938	278.448	161.517	266.449	258.533	381.294	0.00037222	0.00035525	7.8763e-05	771	3.7141e-06	7.915e-06	579.1	265.01	3.9518e-06	5.1126e-06	189.01	66.209	101.4	41.045	2.8199e-06	29.577	0.0019577	0.0019512	0.00055548	755.31	1.8054e-05	2.5614e-05	575.78	263.52	1.8997e-05	2.2153e-05	186.87	67.144	101.23	40.978	2.0447e-05	29.578	234.075	494.509	240.617	162.487	266.780	377.248	161.287	167.494	290.495	315.099	165.471	169.296	171.775	176.177	303.807	172.737	-8191	255	
43229.184	1	1	0	0	0.073384	0.43994	0.25275	0.33106	0.21212	0.19829	0.061879	0.12082	0.2912	0.15285	0.217	0.20937	0.36903	0.38373	0.30512	0.273	-1.8292	-2.2875	-1.9729	-2.4604	-2.4021	-2.0417	-2.6083	-2.2333	-2.2562	-2.5167	-2.1292	-2.6083	-2.2021	-2.0604	-2.425	-2.2292	364.858	455.222	242.482	391.998	247.757	202.365	228.650	431.420	189.204	269.012	359.575	340.599	241.604	400.333	469.931	159.205	0.00038413	0.00047419	0.00011032	774.74	2.4908e-06	4.5212e-06	590.18	269.65	2.9225e-06	4.5115e-06	190.53	68.053	102.23	41.717	2.3526e-06	30.166	0.001667	0.0019654	0.00056905	759.97	1.7906e-05	2.2026e-05	585.48	266.47	1.9204e-05	2.2279e-05	189.72	68.064	102.31	41.741	2.103e-05	30.231	229.029	243.514	250.986	162.597	283.356	310.290	161.558	167.758	301.584	273.285	165.641	169.399	171.667	176.153	275.456	172.788	-8191	255	
43229.281	1	1	0	0	0.20325	0.035347	0.3256	0.072744	0.26404	0.099879	0.21456	0.10339	0.10568	0.052149	0.24557	0.26578	0.16021	0.17947	0.1297	0.18966	-1.7375	-2.3438	-2.1125	-2.3729	-2.1583	-2.1354	-2.5229	-2.0917	-2.1458	-2.3833	-2.1917	-2.475	-2.4667	-1.9646	-2.4583	-2.2854	232.894	442.584	499.143	165.315	152.770	216.849	445.315	425.488	426.807	189.010	409.223	370.564	336.558	187.678	166.046	156.588	0.00031903	0.0012713	0.00012484	779.88	4.849e-06	2.6482e-06	593.26	272.04	2.9148e-06	6.8206e-06	190.9	68.078	102.98	41.712	5.509e-06	30.144	0.001768	0.0021748	0.00057161	765.81	1.7719e-05	2.3105e-05	588.16	268.67	1.9295e-05	2.3225e-05	190.33	68.723	102.92	41.844	2.106e-05	30.21	236.506	202.262	291.644	162.522	289.229	331.431	161.473	167.462	304.649	260.529	165.543	169.381	171.896	176.228	296.180	172.769	-8191	255	
43229.375	1	1	0	0	0.13644	0.36003	0.06005	0.27473	0.3225	0.19478	0.16267	0.2015	0.22133	0.072722	0.11567	0.14563	0.20585	0.16901	0.099799	0.37756	-1.7437	-2.3458	-1.9396	-2.2479	-2.4938	-1.9833	-2.5646	-2.1354	-2.1521	-2.4729	-1.9354	-2.3333	-2.3646	-2.0479	-2.4667	-2.2625	468.585	156.573	191.516	478.727	406.253	453.268	389.468	206.316	243.258	409.586	202.838	241.668	481.833	388.360	440.234	151.491	0.00028788	0.0012296	9.6346e-05	776.61	3.1381e-06	2.5521e-06	589.05	269.2	4.6725e-06	2.3296e-06	189.45	67.211	102.57	41.575	2.9635e-06	29.849	0.0011116	0.0031657	0.00056244	762.02	1.8686e-05	2.2818e-05	585.21	266.7	1.9631e-05	2.286e-05	188.6	67.631	102.29	41.674	2.0687e-05	30	236.818	209.530	254.703	162.480	323.588	312.317	161.229	167.396	277.033	237.963	165.433	169.450	171.826	176.192	247.269	172.790	-8191	255	
43229.473	1	1	0	0	0.18037	0.20682	0.12534	0.12481	0.13292	0.13545	0.28445	0.17559	0.061686	0.13303	0.092223	0.33214	0.23045	0.030048	0.23967	0.037322	-1.7646	-2.375	-2.0312	-2.3688	-2.1667	-2.1208	-2.5312	-2.3563	-2.225	-2.5	-2.1688	-2.3083	-2.5604	-2.1208	-2.35	-2.3604	425.039	425.588	192.291	263.025	333.926	353.638	157.994	509.207	233.557	298.951	425.690	198.536	204.385	344.641	405.433	155.671	0.00028671	0.0014004	0.00012041	769.96	1.7318e-06	2.5711e-06	583.92	268.55	3.7428e-06	2.6157e-06	189.66	66.813	102.67	41.718	3.4234e-06	29.95	0.00099292	0.0044499	0.0005649	757.34	1.8516e-05	2.2949e-05	580.8	266	1.978e-05	2.2731e-05	188.43	67.739	102.49	41.66	2.0342e-05	29.992	223.399	213.477	232.153	162.408	323.737	289.745	161.471	167.732	333.060	299.313	165.840	169.369	171.682	176.306	288.042	172.591	-8191	255	
43229.570	1	1	0	0	0.18413	0.27701	0.14584	0.13092	0.091759	0.2149	0.19996	0.091251	0.20156	0.12153	0.062866	0.10099	0.13337	0.21969	0.057968	0.1202	-1.9062	-2.4854	-2.0583	-2.2229	-2.3563	-2.1479	-2.3917	-2.2188	-2.0187	-2.4625	-2.3042	-2.2729	-2.4854	-2.2583	-2.425	-2.4542	254.276	334.042	423.952	161.782	396.417	250.642	201.726	342.979	210.953	270.770	194.664	243.231	314.355	200.252	247.112	378.344	0.0002947	0.001245	0.00014608	772.76	4.361e-06	7.3704e-06	590.22	269.83	2.972e-06	2.2345e-06	191.97	67.695	103.59	41.867	7.044e-06	30.415	0.0010141	0.0036992	0.00056169	760.94	1.889e-05	2.2603e-05	586.82	267.79	2.01e-05	2.2333e-05	190.65	67.829	103.66	42.077	2.0344e-05	30.49	228.772	239.233	245.853	162.461	286.480	288.693	161.591	167.428	333.938	292.148	165.732	169.914	171.768	176.446	298.299	172.743	-8191	255	
43229.664	1	1	0	0	0.087873	0.19295	0.09438	0.10579	0.026417	0.11388	0.059468	0.14061	0.090006	0.19093	0.29609	0.25357	0.17432	0.10131	0.13322	0.21412	-1.525	-2.1604	-2.2583	-2.1958	-2.5875	-2.1792	-2.2646	-2.4125	-2.1146	-2.4458	-2.2667	-2.2146	-2.4542	-2.1917	-2.3688	-2.4938	324.031	373.564	275.001	216.068	381.284	323.033	223.103	176.933	311.694	330.205	405.279	225.019	361.013	485.377	163.787	440.200	0.00029595	0.0013462	9.4524e-05	783.4	1.4917e-06	3.8545e-06	591.97	272.09	2.3422e-06	4.783e-06	192.26	68.228	104.21	42.389	3.8464e-06	30.691	0.0010264	0.0045528	0.00054487	767.97	1.9143e-05	2.2249e-05	588.21	269.6	2.0001e-05	2.2754e-05	190.97	68.334	104.93	42.452	1.9797e-05	30.671	232.071	229.951	233.865	162.484	317.005	336.924	161.424	167.363	298.264	264.682	165.343	169.394	171.829	176.154	291.217	172.324	-8191	255	
43229.785	1	1	0	0	0.17463	0.18425	0.20123	0.097341	0.10122	0.099371	0.26994	0.15935	0.17917	0.16091	0.21287	0.18249	0.20788	0.11894	0.38069	0.17423	-1.4833	-2.3458	-2.3583	-2.0687	-2.6292	-2.2333	-2.2917	-2.5083	-2.1562	-2.3104	-2.4521	-2.2313	-2.3937	-2.2562	-2.1042	-2.4479	354.887	203.431	226.793	307.040	427.233	329.222	416.669	154.550	506.587	204.824	402.607	417.406	295.458	183.337	266.954	451.286	0.0002764	0.0009461	8.9639e-05	780.93	3.9364e-06	5.4705e-06	589.94	271.21	3.1161e-06	3.4819e-06	190.09	67.636	103.03	42.273	3.1709e-06	30.394	0.0010235	0.0036524	0.0005484	766	1.8721e-05	2.2543e-05	585.79	268.66	1.9916e-05	2.1671e-05	189.27	67.61	103.57	42.339	2.0197e-05	30.467	225.845	243.326	222.528	162.505	309.265	271.042	161.353	167.703	295.572	274.914	165.357	169.596	171.947	176.125	259.083	172.698	-8191	255	
43229.883	1	1	0	0	0.10829	0.17281	0.1212	0.29487	0.22079	0.12758	0.23929	0.16635	0.20105	0.074685	0.26446	0.3455	0.15652	0.17787	0.35686	0.13822	-1.7146	-2.3708	-2.2062	-2.0521	-2.5563	-2.2958	-2.3542	-2.2667	-1.9604	-2.4396	-2.5062	-2.0604	-2.5458	-2.3271	-2.1646	-2.4688	435.516	353.424	464.142	436.733	487.881	237.398	508.196	459.104	166.062	441.439	464.406	332.531	482.007	409.863	230.390	300.195	0.00029463	0.0015606	0.00011238	777.46	2.8815e-06	1.1787e-06	591.18	271.05	3.9191e-06	3.736e-06	190.09	67.018	102.44	42.389	2.166e-06	30.373	0.00099672	0.0043354	0.00054492	763.24	1.8448e-05	2.1558e-05	580.39	269.09	1.9572e-05	2.1698e-05	188.73	67.074	103.52	42.449	2.0578e-05	30.5	223.966	234.800	257.819	162.439	277.798	312.818	161.328	167.484	294.878	338.040	165.433	169.743	171.642	176.172	316.847	172.730	-8191	255	
#DATA ENDS
