BOXY.EXE: ISS Imagent and Oximeter Data Acquisition Program Version 0.80
Ascii Record File

#ACQ INFORMATION
2  Detector Channels 
16  External MUX Channels 
1  Auxiliary Channels 
5000  Waveform (CCF) Frequency (Hz)
1  Waveforms Skipped 
30  Waveforms Averaged 
1  Cycles Averaged 
16  Acquisitions per Waveform 
10.0806  Updata Rate (Hz) 

#FILE INFORMATION
TRUE -- External MUX Channel results are PARSED.
FALSE -- AC DC and Phase are NOT grouped.
TRUE -- Companion Program Settings File CREATED.
FALSE -- AC data not excluded
FALSE -- DC data not excluded
FALSE -- Phase data not excluded
FALSE -- Auxillary Chn. data not excluded
Tab delimiters

#CALIBRATION STATE
TRUE -- Waveform Calibration Values APPLIED.


#AUX CALIBRATION VALUES
Val Type	aux-1	

Term	1.0000e+00	
Factor	0.0000e+00	


#WF CALIBRATION VALUES
A = Detector Channel
Val Type	A-AC1	A-AC2	A-AC3	A-AC4	A-AC5	A-AC6	A-AC7	A-AC8	A-AC9	A-AC10	A-AC11	A-AC12	A-AC13	A-AC14	A-AC15	A-AC16	A-DC1	A-DC2	A-DC3	A-DC4	A-DC5	A-DC6	A-DC7	A-DC8	A-DC9	A-DC10	A-DC11	A-DC12	A-DC13	A-DC14	A-DC15	A-DC16	A-Ph1	A-Ph2	A-Ph3	A-Ph4	A-Ph5	A-Ph6	A-Ph7	A-Ph8	A-Ph9	A-Ph10	A-Ph11	A-Ph12	A-Ph13	A-Ph14	A-Ph15	A-Ph16	

Term	0.00000e+00	0.00000e+00	0.00000e+00	0.00000e+00	0.00000e+00	0.00000e+00	0.00000e+00	0.00000e+00	0.00000e+00	0.00000e+00	0.00000e+00	0.00000e+00	0.00000e+00	0.00000e+00	0.00000e+00	0.00000e+00	0.00000e+00	0.00000e+00	0.00000e+00	0.00000e+00	0.00000e+00	0.00000e+00	0.00000e+00	0.00000e+00	0.00000e+00	0.00000e+00	0.00000e+00	0.00000e+00	0.00000e+00	0.00000e+00	0.00000e+00	0.00000e+00	0.00000e+00	0.00000e+00	0.00000e+00	0.00000e+00	0.00000e+00	0.00000e+00	0.00000e+00	0.00000e+00	0.00000e+00	0.00000e+00	0.00000e+00	0.00000e+00	0.00000e+00	0.00000e+00	0.00000e+00	0.00000e+00	
Factor	1.00000e+00	1.00000e+00	1.00000e+00	1.00000e+00	1.00000e+00	1.00000e+00	1.00000e+00	1.00000e+00	1.00000e+00	1.00000e+00	1.00000e+00	1.00000e+00	1.00000e+00	1.00000e+00	1.00000e+00	1.00000e+00	1.00000e+00	1.00000e+00	1.00000e+00	1.00000e+00	1.00000e+00	1.00000e+00	1.00000e+00	1.00000e+00	1.00000e+00	1.00000e+00	1.00000e+00	1.00000e+00	1.00000e+00	1.00000e+00	1.00000e+00	1.00000e+00	X	X	X	X	X	X	X	X	X	X	X	X	X	X	X	X	

B = Detector Channel
Val Type	B-AC1	B-AC2	B-AC3	B-AC4	B-AC5	B-AC6	B-AC7	B-AC8	B-AC9	B-AC10	B-AC11	B-AC12	B-AC13	B-AC14	B-AC15	B-AC16	B-DC1	B-DC2	B-DC3	B-DC4	B-DC5	B-DC6	B-DC7	B-DC8	B-DC9	B-DC10	B-DC11	B-DC12	B-DC13	B-DC14	B-DC15	B-DC16	B-Ph1	B-Ph2	B-Ph3	B-Ph4	B-Ph5	B-Ph6	B-Ph7	B-Ph8	B-Ph9	B-Ph10	B-Ph11	B-Ph12	B-Ph13	B-Ph14	B-Ph15	B-Ph16	

Term	0.00000e+00	0.00000e+00	0.00000e+00	0.00000e+00	0.00000e+00	0.00000e+00	0.00000e+00	0.00000e+00	0.00000e+00	0.00000e+00	0.00000e+00	0.00000e+00	0.00000e+00	0.00000e+00	0.00000e+00	0.00000e+00	0.00000e+00	0.00000e+00	0.00000e+00	0.00000e+00	0.00000e+00	0.00000e+00	0.00000e+00	0.00000e+00	0.00000e+00	0.00000e+00	0.00000e+00	0.00000e+00	0.00000e+00	0.00000e+00	0.00000e+00	0.00000e+00	-9.29970e+01	-1.31392e+02	-1.23755e+02	-1.81317e+02	-5.33619e+01	-6.48182e+01	-1.56949e+02	-1.62015e+02	-5.50886e+01	-6.87642e+01	-1.71959e+02	-1.70284e+02	-1.79234e+02	-1.77030e+02	-6.24173e+01	-1.49880e+02	
Factor	2.02525e-05	2.04927e-04	5.47415e-05	1.73521e-01	1.61479e-06	2.15799e-06	2.08365e-01	7.47178e-02	1.46152e-06	2.09857e-06	1.03330e-01	3.53755e-02	3.43424e-02	1.15752e-02	1.82063e-06	1.65684e-02	1.86485e-05	4.58517e-05	1.28386e-05	8.54534e-02	4.13224e-07	5.17627e-07	9.68864e-02	3.69658e-02	4.35134e-07	5.18470e-07	4.97831e-02	1.71989e-02	1.73445e-02	5.78419e-03	4.58961e-07	8.02566e-03	X	X	X	X	X	X	X	X	X	X	X	X	X	X	X	X	



#DISTANCE SETTINGS
A = Detector Channel
A-1	A-2	A-3	A-4	A-5	A-6	A-7	A-8	A-9	A-10	A-11	A-12	A-13	A-14	A-15	A-16	

2.5000e+00	3.0000e+00	2.5000e+00	3.0000e+00	2.0000e+00	3.0000e+00	1.5000e+00	3.0000e+00	3.0000e+00	3.0000e+00	3.0000e+00	3.0000e+00	3.0000e+00	3.0000e+00	1.5000e+00	3.0000e+00	

B = Detector Channel
B-1	B-2	B-3	B-4	B-5	B-6	B-7	B-8	B-9	B-10	B-11	B-12	B-13	B-14	B-15	B-16	

1.0000e+01	1.0000e+01	1.0000e+01	1.4400e+00	1.0000e+01	1.0000e+01	1.5100e+00	1.9400e+00	1.0000e+01	1.0000e+01	1.9900e+00	2.4900e+00	2.4100e+00	2.9000e+00	1.0000e+01	2.9800e+00	




#DATA BEGINS
time	group	step	mark	flag	A-AC1	A-AC2	A-AC3	A-AC4	A-AC5	A-AC6	A-AC7	A-AC8	A-AC9	A-AC10	A-AC11	A-AC12	A-AC13	A-AC14	A-AC15	A-AC16	A-DC1	A-DC2	A-DC3	A-DC4	A-DC5	A-DC6	A-DC7	A-DC8	A-DC9	A-DC10	A-DC11	A-DC12	A-DC13	A-DC14	A-DC15	A-DC16	A-Ph1	A-Ph2	A-Ph3	A-Ph4	A-Ph5	A-Ph6	A-Ph7	A-Ph8	A-Ph9	A-Ph10	A-Ph11	A-Ph12	A-Ph13	A-Ph14	A-Ph15	A-Ph16	B-AC1	B-AC2	B-AC3	B-AC4	B-AC5	B-AC6	B-AC7	B-AC8	B-AC9	B-AC10	B-AC11	B-AC12	B-AC13	B-AC14	B-AC15	B-AC16	B-DC1	B-DC2	B-DC3	B-DC4	B-DC5	B-DC6	B-DC7	B-DC8	B-DC9	B-DC10	B-DC11	B-DC12	B-DC13	B-DC14	B-DC15	B-DC16	B-Ph1	B-Ph2	B-Ph3	B-Ph4	B-Ph5	B-Ph6	B-Ph7	B-Ph8	B-Ph9	B-Ph10	B-Ph11	B-Ph12	B-Ph13	B-Ph14	B-Ph15	B-Ph16	aux-1	digaux	

43202.871	1	1	0	512	0.14046	0.08394	0.21849	0.12289	0.10456	0.22126	0.17588	0.30621	0.068907	0.094588	0.23771	0.27166	0.24748	0.38807	0.17451	0.11683	-1.45	-2.4271	-2.1813	-2.2146	-2.6208	-2.1333	-2.3125	-2.4083	-2.0521	-2.4917	-2.3229	-2.1562	-2.525	-1.9542	-2.4792	-2.2542	185.161	288.348	499.824	370.222	231.067	423.080	431.224	474.397	176.853	341.165	411.819	181.183	469.726	506.073	185.548	473.294	0.00036051	0.00045667	0.00012382	866.03	5.9869e-06	7.1868e-06	667.82	299.07	2.9663e-06	4.5347e-06	212.48	75.066	112.95	48.598	2.1005e-06	34.746	0.0010257	0.0019121	0.00055385	850.05	3.6313e-05	2.1647e-05	656.14	296.1	1.9072e-05	5.2608e-05	210.48	74.786	113.19	48.521	2.0175e-05	34.867	223.646	227.015	263.262	162.987	366.192	310.326	161.256	167.908	287.156	505.961	165.214	169.427	172.087	176.722	228.058	172.889	-8191	255	
43202.969	1	1	0	0	0.098062	0.10536	0.069889	0.26021	0.15325	0.12962	0.058856	0.20231	0.27614	0.16862	0.10096	0.32437	0.15176	0.1662	0.17254	0.21361	-1.6542	-2.3542	-1.9604	-1.9979	-2.225	-2.0208	-2.325	-2.3187	-1.9354	-2.3625	-2.2062	-2.0979	-2.4208	-2.0875	-2.1875	-2.325	337.923	259.295	207.473	496.136	162.354	471.754	294.339	466.144	404.122	364.097	449.803	457.361	499.389	447.439	305.774	417.486	0.00036642	0.00019072	4.9248e-05	863.2	8.1046e-06	3.431e-06	662.1	299.9	3.9333e-06	2.7269e-06	213.13	74.624	112.82	48.216	3.4624e-06	34.369	0.0010154	0.0019254	0.00056217	846.83	4.2677e-05	2.1724e-05	653.04	295.89	1.8884e-05	4.0775e-05	209.93	74.268	112.5	48.153	2.0211e-05	34.784	226.676	252.577	249.193	162.653	401.469	339.910	161.274	167.873	284.592	377.798	165.446	169.314	172.204	176.842	304.258	172.960	-8191	255	
43203.090	1	1	0	0	0.23292	0.16104	0.20259	0.19224	0.020914	0.1363	0.18574	0.012241	0.14818	0.095463	0.02494	0.2156	0.25387	0.29389	0.44943	0.10837	-1.6271	-2.2229	-1.975	-2.1	-2.3396	-2.0563	-2.1417	-2.5167	-2.0812	-2.3792	-2.1771	-2.0125	-2.3521	-2.0667	-1.9875	-2.5479	488.206	475.427	268.637	477.373	493.903	299.206	480.947	265.569	240.588	480.469	407.715	486.834	389.875	197.169	273.293	226.259	0.00029619	0.00033507	0.00014245	862.63	4.117e-06	2.8257e-06	662.09	298.47	3.7236e-06	5.9955e-06	211.15	73.942	112.04	48.017	5.1404e-06	34.004	0.00097574	0.0019049	0.00053168	846.12	3.5624e-05	2.1922e-05	652.09	295.13	1.879e-05	3.0683e-05	210.78	73.791	111.93	47.77	2.025e-05	34.379	226.716	205.339	271.364	162.641	365.345	275.625	161.164	167.763	292.164	394.578	165.658	169.595	172.208	176.673	306.945	172.526	-8191	255	
43203.184	1	1	0	0	0.20301	0.061156	0.15789	0.023568	0.30878	0.043386	0.047107	0.084212	0.14212	0.14735	0.20696	0.23151	0.35301	0.19144	0.13072	0.22697	-1.475	-2.1292	-2.0833	-1.9729	-2.3646	-2.1396	-1.9979	-2.3937	-1.9375	-2.1625	-2.4875	-1.9042	-2.3917	-2.1792	-2.1292	-2.3417	418.914	339.479	386.577	469.483	253.363	263.936	194.055	201.914	353.756	498.679	460.947	504.274	162.230	198.169	441.251	492.754	0.0003089	0.00035037	0.00014025	858.58	7.784e-06	2.13e-06	663.51	295.41	4.6058e-06	5.3466e-06	210.44	73.935	111.47	47.461	2.8412e-06	33.967	0.00097213	0.0019503	0.00055011	843.31	4.3063e-05	2.1936e-05	651.39	293.66	1.846e-05	2.2028e-05	210.69	73.778	111.35	47.408	2.0188e-05	34.223	230.941	245.728	232.380	162.575	394.623	310.654	161.486	167.582	309.396	293.996	165.477	169.758	172.304	176.590	288.935	172.622	-8191	255	
43203.277	1	1	0	0	0.092622	0.25121	0.27889	0.12828	0.29054	0.2763	0.11409	0.071866	0.094928	0.29309	0.095068	0.089587	0.13032	0.24565	0.29924	0.18573	-1.575	-2.2208	-2.1771	-2.0458	-2.3521	-2.2875	-1.9438	-2.3729	-2.1562	-2.3979	-2.3521	-2.05	-2.425	-2.1188	-2.1375	-2.5812	466.876	471.934	461.421	362.721	485.340	153.788	406.904	383.461	495.221	510.033	235.176	316.030	168.272	186.103	412.045	426.766	0.00033178	0.0004188	4.9278e-05	849.35	8.1775e-06	3.1311e-06	654.85	293.35	3.2164e-06	3.3627e-06	207.57	72.658	110.36	46.479	4.8876e-06	32.9	0.00099466	0.0019737	0.00055003	835.88	3.2724e-05	2.1952e-05	641.79	290.18	1.9183e-05	2.209e-05	208.5	72.242	109.74	46.504	2.036e-05	33.279	224.638	217.740	227.978	162.525	367.370	287.611	161.383	168.070	277.683	238.584	165.406	169.763	172.275	176.531	269.475	172.887	-8191	255	
43203.375	1	1	0	0	0.22419	0.33288	0.19478	0.32902	0.12721	0.23107	0.18505	0.028165	0.24519	0.20153	0.10991	0.072431	0.2645	0.068734	0.065625	0.26978	-1.6313	-2.2125	-2.4437	-1.9333	-2.3979	-2.0708	-2.1583	-2.3646	-1.9083	-2.15	-2.2562	-2.0438	-2.3917	-2.3688	-1.95	-2.3646	431.096	377.991	232.508	467.899	408.895	495.823	405.812	187.834	206.677	406.904	196.313	361.841	437.357	291.145	365.497	430.330	0.00033159	0.00038096	0.00014835	847.55	9.006e-06	3.3373e-06	648.37	291.42	4.9828e-06	4.7909e-06	205.49	72.48	110.16	46.505	4.4006e-06	33.273	0.0010087	0.0019774	0.00056586	831.42	2.4781e-05	4.1451e-05	639.33	288.32	1.9641e-05	2.2626e-05	206.49	72.102	109.48	46.395	2.044e-05	33.554	229.929	256.001	217.694	162.919	386.172	276.951	161.228	167.856	297.075	310.419	165.296	169.796	172.566	176.596	300.424	172.956	-8191	255	
43203.473	1	1	0	0	0.16175	0.30773	0.21369	0.23796	0.16634	0.067221	0.39936	0.13477	0.099672	0.21689	0.25898	0.14815	0.16212	0.14077	0.11074	0.23478	-1.4042	-2.1	-2.3875	-2.1583	-2.1854	-2.4125	-1.9646	-2.4292	-2.2417	-2.0104	-2.4479	-1.9521	-2.1042	-2.2833	-1.9104	-2.0979	414.643	295.689	273.289	495.224	216.034	503.000	437.794	353.943	198.424	171.530	177.009	363.770	294.161	494.085	337.728	493.106	0.00029548	0.00052578	0.00010406	844.3	2.8583e-06	6.2259e-06	653.01	292.56	3.6702e-06	5.1009e-06	207.47	73.181	111	47.108	2.2815e-06	33.621	0.0010292	0.0020621	0.00056527	831.68	1.8827e-05	4.5385e-05	642.77	290.59	2.0146e-05	2.3024e-05	209.59	72.887	110.83	47.131	2.0239e-05	34.023	220.043	226.907	259.484	162.788	277.538	403.790	161.194	167.769	325.325	306.142	164.990	169.417	172.171	176.714	304.733	172.887	-8191	255	
43203.566	1	1	0	0	0.18205	0.1104	0.18416	0.080863	0.12068	0.13467	0.24456	0.01513	0.2756	0.092492	0.1249	0.27921	0.23765	0.08529	0.21252	0.24471	-1.5542	-1.9958	-2.4	-2.1708	-2.0625	-2.4646	-1.9562	-2.325	-2.1896	-2.1375	-2.55	-1.9542	-2.0021	-2.5167	-1.7896	-2.2771	329.842	355.280	478.390	445.860	455.418	407.620	402.375	349.748	433.425	224.408	233.614	491.364	470.471	275.681	212.612	394.474	0.00037269	0.00027337	9.5796e-05	852.32	4.5369e-06	1.3948e-05	659.49	296.69	4.4151e-06	1.2632e-06	210.41	74.106	112.11	47.958	3.8261e-06	34.336	0.0010597	0.0019965	0.00055765	840.51	1.8637e-05	5.3613e-05	648.88	293.65	1.969e-05	2.2546e-05	210.88	73.699	111.86	47.935	2.0193e-05	34.447	227.653	238.850	257.952	162.726	298.926	431.496	161.444	167.941	302.218	298.761	165.318	169.560	172.334	176.504	268.859	172.909	-8191	255	
43203.688	1	1	0	0	0.045401	0.11854	0.029055	0.082714	0.12746	0.023565	0.13623	0.21893	0.16719	0.24183	0.13639	0.1542	0.25295	0.09127	0.32923	0.16441	-1.8167	-1.7812	-2.2208	-2.1729	-2.0354	-2.3125	-2.1104	-2.3688	-2.2708	-1.9354	-2.4417	-2.1604	-2.0896	-2.4688	-1.9958	-2.275	410.369	375.091	157.228	163.109	425.653	401.277	438.947	480.401	381.164	466.011	424.975	365.514	234.936	308.014	434.191	345.008	0.00043323	0.00016187	0.00011106	857.23	2.178e-06	5.6869e-06	659.74	295.7	2.1719e-06	4.4838e-06	208.43	73.452	111.7	47.46	4.7465e-06	34.061	0.0017775	0.0020238	0.00054944	842.04	1.8939e-05	4.496e-05	647.98	292.31	1.9924e-05	2.2256e-05	209.87	73.188	111.28	47.493	2.1077e-05	33.922	225.258	228.146	225.502	162.712	328.690	427.770	161.189	167.857	313.502	291.395	165.634	169.161	172.501	176.603	269.985	172.459	-8191	255	
43203.785	1	1	0	0	0.21121	0.10692	0.15158	0.22724	0.08033	0.30566	0.071792	0.4183	0.12559	0.23839	0.27141	0.26216	0.17062	0.11079	0.008922	0.21855	-1.7563	-1.8479	-2.3521	-2.2583	-2.1063	-2.3875	-1.9958	-2.2438	-2.2771	-1.825	-2.3438	-2.2042	-2.0354	-2.2938	-2.0771	-2.1792	428.143	386.762	405.944	427.144	151.879	309.365	377.123	175.896	218.783	293.342	441.123	428.784	503.460	322.027	465.754	432.156	0.00037747	0.00040161	0.00012854	847.08	5.4896e-06	1.0703e-05	654.31	294.97	2.7098e-06	4.8123e-06	208.59	73.501	111.4	47.639	4.4201e-06	33.937	0.001846	0.0019781	0.00058055	832.09	1.906e-05	5.2427e-05	643.18	291.37	1.9706e-05	2.2557e-05	208.79	73.477	111.14	47.666	2.1416e-05	33.974	243.104	214.897	234.550	162.863	302.151	449.100	161.008	167.982	317.412	274.877	165.772	169.773	172.269	176.613	313.471	172.983	-8191	255	
43203.883	1	1	0	0	0.1468	0.13546	0.24983	0.2558	0.22891	0.16064	0.18039	0.1191	0.093	0.1708	0.066695	0.077115	0.22692	0.085823	0.14165	0.24594	-1.7396	-1.8979	-2.2313	-2.0563	-1.9042	-2.5646	-2.0917	-2.325	-2.2833	-1.9146	-2.3458	-2.2646	-1.9062	-2.4188	-2.0938	-2.1	262.394	417.455	239.340	165.071	455.109	197.616	152.780	442.317	501.203	417.877	359.592	484.573	165.086	496.449	483.981	402.694	0.0003441	0.00040804	0.00015439	848.76	3.0968e-06	5.6642e-06	654.95	295.72	2.8728e-06	3.0772e-06	211.11	74.086	111.86	47.992	5.1787e-06	34.383	0.0021483	0.0020153	0.00057239	835.38	1.9296e-05	4.4409e-05	645.63	293	1.9947e-05	2.2983e-05	208.78	74.375	111.82	48.019	2.1702e-05	34.425	247.988	222.237	258.852	162.623	300.777	427.609	161.559	168.077	248.080	257.456	165.669	169.199	172.566	176.641	281.495	173.248	-8191	255	
43203.977	1	1	0	0	0.18359	0.095508	0.07028	0.31294	0.1103	0.14022	0.084028	0.06651	0.15819	0.13813	0.2034	0.21339	0.042968	0.37331	0.22709	0.20087	-1.775	-1.9479	-2.2771	-2.0917	-1.7542	-2.4771	-2.3167	-2.1021	-2.4958	-1.9625	-2.2146	-2.2708	-2.0687	-2.4167	-2.0187	-2.2146	509.592	198.994	150.699	454.844	446.071	504.557	198.702	416.003	318.944	368.200	266.528	154.357	372.193	158.189	196.181	363.201	0.00033467	2.913e-05	0.00012411	854.05	4.0974e-06	1.3827e-05	658.25	297.61	2.5648e-06	5.8894e-06	212.29	75.63	113.08	48.23	4.0626e-06	35.159	0.0018267	0.0020173	0.00058079	839.1	1.8944e-05	5.5542e-05	649.42	294.12	1.9691e-05	2.3395e-05	210.71	75.6	112.66	48.343	2.2084e-05	34.96	239.923	253.120	226.618	163.009	298.673	433.030	161.482	167.941	282.955	282.953	165.774	169.659	172.255	176.789	287.543	172.872	-8191	255	
43204.070	1	1	0	0	0.092536	0.31486	0.13227	0.26875	0.20022	0.17885	0.070068	0.30044	0.20337	0.1606	0.1714	0.04033	0.25032	0.3048	0.17818	0.21381	-1.9354	-2.0625	-2.2604	-2.4062	-1.9396	-2.1896	-2.1125	-1.9729	-2.3375	-2.1063	-2.275	-2.35	-2.0062	-2.4521	-2.0729	-1.9396	471.980	150.772	366.699	455.375	252.117	260.461	149.825	395.656	311.874	426.209	338.186	171.303	428.455	487.719	500.637	434.096	0.00036984	0.00038939	8.1608e-05	856.04	4.3694e-06	7.9786e-06	665.57	297.33	1.5341e-06	2.755e-06	212.44	75.362	112.25	48.275	2.3155e-06	34.609	0.0022262	0.0021354	0.00059705	839.19	1.9339e-05	4.0511e-05	655.21	293.92	2.0516e-05	2.4106e-05	211.18	76.06	111.93	48.299	2.2183e-05	34.744	245.595	262.165	250.770	162.836	311.826	396.354	161.689	167.802	326.553	297.856	165.614	169.803	172.259	176.875	262.969	172.836	-8191	255	
43204.168	1	1	0	0	0.32824	0.18852	0.14508	0.12255	0.30516	0.18907	0.22853	0.051896	0.17133	0.17086	0.2129	0.096763	0.099019	0.29347	0.21294	0.049406	-1.775	-1.9792	-2.3208	-2.35	-2.0187	-2.3125	-2.3021	-1.8958	-2.4979	-2.2771	-2.0958	-2.1125	-1.9146	-2.1562	-2.2438	-1.9562	509.293	260.040	481.440	479.635	243.996	226.838	425.679	477.746	344.075	395.274	423.855	267.301	241.725	421.151	201.355	369.981	0.00036154	0.00038459	0.00011355	847.29	3.8634e-06	9.6325e-06	656.52	295.75	4.7789e-06	4.7491e-06	210.9	74.454	111.9	48.146	3.975e-06	34.626	0.0018472	0.0020931	0.00057132	834.66	1.9296e-05	2.728e-05	650.95	292.48	1.9603e-05	2.3007e-05	208.3	74.64	111.5	48.164	2.1461e-05	34.605	241.475	213.706	219.916	162.752	282.027	410.512	161.104	168.135	294.163	296.376	165.596	169.549	172.268	176.897	315.431	172.673	-8191	255	
43204.266	1	1	0	0	0.1602	0.10989	0.11126	0.1832	0.079075	0.066684	0.178	0.13818	0.083057	0.29745	0.28432	0.13098	0.26014	0.19182	0.07329	0.29116	-2.0312	-2.1937	-1.9688	-2.5792	-1.9042	-2.1479	-2.2562	-2.0458	-2.2896	-2.0958	-2.0187	-2.4646	-1.9104	-2.2438	-2.3125	-1.7104	431.730	429.534	301.705	416.487	346.373	308.277	205.668	449.855	408.701	509.271	441.208	261.041	347.281	160.651	425.965	361.753	0.00032981	0.00041125	9.6028e-05	847.64	5.4465e-06	7.7178e-08	657.77	294.94	3.606e-06	3.3185e-06	211.26	74.461	111.72	48.588	4.181e-06	34.771	0.0021633	0.002083	0.00057653	834.43	1.9273e-05	2.3122e-05	651.68	292.1	2.042e-05	2.3088e-05	209.22	75.112	111.81	48.505	2.0697e-05	34.737	246.148	262.169	254.022	162.786	275.863	395.691	161.615	167.943	302.674	348.466	165.540	169.622	172.464	176.686	293.463	173.180	-8191	255	
43204.359	1	1	0	0	0.19259	0.23144	0.23764	0.29449	0.22149	0.10115	0.054767	0.19692	0.38941	0.076334	0.38878	0.23581	0.22135	0.31931	0.039923	0.23046	-1.8396	-2.1771	-1.8729	-2.3542	-2.2313	-2.2979	-2.2896	-1.9062	-2.2938	-2.1583	-2.0333	-2.5646	-2.1396	-2.1708	-2.3708	-1.8146	177.405	195.271	231.862	168.747	468.126	387.678	461.628	398.558	504.827	270.920	477.884	274.614	438.671	375.970	164.035	425.354	0.00027671	0.00056813	4.44e-05	851.09	4.4236e-06	4.6226e-06	663.46	298.02	3.0928e-06	5.4662e-06	213.45	75.503	112.74	48.537	6.4969e-06	35.301	0.0016132	0.0024151	0.00056386	837.28	2.0022e-05	2.3392e-05	658.67	293.36	2.1027e-05	2.333e-05	211.03	75.885	112.73	48.768	2.1314e-05	35.284	234.869	231.250	293.355	162.652	283.818	320.547	161.241	168.148	302.737	296.545	165.826	169.639	172.260	176.809	280.380	172.906	-8191	255	
43204.457	1	1	0	0	0.35492	0.13825	0.26824	0.034328	0.18814	0.2218	0.18691	0.1153	0.23526	0.069657	0.19095	0.2727	0.45318	0.17133	0.10994	0.18108	-1.6771	-2.1063	-1.8062	-2.3604	-2.1292	-1.9937	-2.3646	-2.0792	-2.1958	-2.3958	-1.9625	-2.2938	-2.1771	-1.9125	-2.4792	-1.9312	218.663	373.731	235.976	212.128	505.889	205.066	456.258	347.001	462.799	416.786	232.406	215.959	479.111	471.536	219.385	474.645	0.00027707	0.00075471	8.7754e-05	853.62	2.1891e-06	3.6765e-06	667.38	298.82	4.6632e-06	3.5359e-06	214.76	76.272	113.74	49.079	4.8688e-06	35.881	0.0011351	0.0042809	0.00057712	841.51	2.0237e-05	2.333e-05	661.96	295.39	2.0707e-05	2.3698e-05	212.7	77.017	113.47	49.202	2.1596e-05	35.677	243.762	195.643	234.443	162.838	307.463	286.318	161.304	168.116	272.264	364.315	165.445	169.745	172.343	176.805	279.391	173.148	-8191	255	
43204.578	1	1	0	0	0.1151	0.095177	0.195	0.20794	0.27184	0.22378	0.099123	0.13989	0.10773	0.16243	0.27312	0.028329	0.069559	0.10902	0.17261	0.32208	-1.7104	-2.1604	-1.7396	-2.4292	-2.2396	-2.1	-2.5875	-2.1042	-2.0563	-2.1813	-1.775	-2.3021	-2.2062	-2.0354	-2.425	-2.1083	184.752	364.234	344.558	433.731	469.525	281.919	393.370	287.614	417.772	470.187	391.847	488.579	399.195	485.567	446.238	181.731	0.00031926	0.001185	0.00016849	860.69	1.7939e-06	2.9984e-06	662.53	297.26	4.1657e-06	4.2482e-06	213.4	75.249	113.08	48.733	1.6664e-06	34.955	0.0010775	0.0040198	0.00057274	842.65	1.9478e-05	2.3019e-05	659.6	294.09	2.0169e-05	2.3077e-05	211.13	75.45	113.14	48.771	2.1357e-05	34.876	230.982	280.670	243.943	162.701	288.495	335.203	161.136	167.900	311.035	286.153	165.802	169.674	172.348	176.677	317.706	172.653	-8191	255	
43204.672	1	1	0	0	0.32927	0.23332	0.26243	0.1015	0.13823	0.29884	0.082581	0.15243	0.1338	0.27109	0.18869	0.16734	0.26117	0.12541	0.1542	0.2553	-1.6021	-2.0917	-1.9458	-2.2417	-2.1312	-2.0125	-2.4354	-1.9729	-2.0042	-2.4437	-2.0312	-2.2604	-2.4	-2.1729	-2.5521	-2.1437	283.344	427.545	459.648	217.341	374.147	293.645	246.261	460.854	329.236	484.623	416.129	305.984	444.077	444.348	241.697	290.204	0.00034703	0.001589	0.00014046	862.12	6.5378e-06	3.6472e-06	666.4	300.85	3.4462e-06	4.0817e-06	214.29	75.564	113.99	48.685	2.0463e-06	34.808	0.0010545	0.0047963	0.00058162	845.98	1.984e-05	2.3147e-05	660.83	297.18	1.9965e-05	2.3572e-05	211.59	75.275	114.44	48.73	2.1952e-05	34.783	226.430	290.972	256.611	162.916	288.194	352.998	161.499	168.054	302.744	343.394	165.644	169.335	172.272	176.595	292.127	172.712	-8191	255	
43204.770	1	1	0	0	0.23591	0.14646	0.024537	0.19255	0.072764	0.23575	0.28569	0.28638	0.10137	0.17738	0.25307	0.14816	0.13661	0.13596	0.18274	0.22461	-1.65	-2.4313	-1.9458	-2.3396	-2.275	-2.1312	-2.4729	-1.9625	-2.075	-2.3479	-1.9375	-2.2958	-2.4313	-1.8542	-2.2958	-2.0375	235.025	471.120	425.123	414.355	238.737	321.794	438.724	419.568	477.114	366.596	438.080	170.410	494.728	221.509	246.118	487.976	0.00034568	0.0008304	0.0001102	864.1	3.8141e-06	4.1208e-06	669.97	301.22	1.8408e-06	3.6624e-06	214.1	75.817	115.09	48.877	6.145e-06	34.788	0.0010518	0.0040484	0.00059721	848.63	2.018e-05	2.3065e-05	664.35	298.3	2.0241e-05	2.3365e-05	212.36	75.661	115.17	48.816	2.1649e-05	34.852	225.027	310.673	233.119	162.837	309.905	308.553	161.181	167.748	318.987	268.549	165.777	169.590	172.124	176.613	305.958	172.338	-8191	255	
43204.863	1	1	0	0	0.14298	0.18337	0.18266	0.16237	0.12826	0.21993	0.11818	0.19954	0.17533	0.082146	0.22492	0.10093	0.34193	0.053781	0.12295	0.23876	-1.5354	-2.4458	-1.8875	-2.2583	-2.4	-1.9354	-2.5	-2.4104	-2.0521	-2.6125	-2.2146	-2.2	-2.3812	-2.125	-2.5125	-2.2292	282.436	358.810	466.977	226.090	217.988	235.899	280.808	426.234	436.869	315.405	401.409	189.496	463.571	418.848	405.569	181.286	0.00032284	0.0010702	0.00010524	866.32	2.5223e-06	5.0074e-06	670.44	301.02	3.2855e-06	4.3678e-06	215.6	75.831	115.01	48.866	4.8103e-06	35.152	0.0010572	0.0048398	0.00057988	852.5	1.9092e-05	2.3508e-05	662.95	298.61	2.0276e-05	2.3602e-05	213.09	75.725	115.31	48.946	2.2373e-05	35.265	228.223	311.192	256.092	162.588	290.684	277.866	161.081	167.377	293.976	297.709	165.712	169.424	172.541	176.772	307.794	172.888	-8191	255	
43204.961	1	1	0	0	0.12676	0.13299	0.1614	0.19629	0.14863	0.13378	0.12424	0.16651	0.22439	0.15378	0.37815	0.15745	0.23194	0.12332	0.21138	0.13067	-1.8083	-2.3771	-1.9354	-2.2938	-2.2958	-1.9354	-2.3667	-2.1625	-1.9167	-2.4375	-2.1229	-2.0229	-2.5125	-2.1708	-2.1833	-2.1604	178.826	213.141	471.009	434.375	280.093	382.107	242.124	465.729	249.434	176.457	446.244	190.898	306.346	399.109	442.824	406.525	0.00034903	0.00080687	7.5756e-05	860.79	2.6558e-06	3.1958e-06	662.44	295.91	3.6768e-06	3.5412e-06	210.25	74.755	112.07	48.331	3.8649e-06	34.841	0.0010751	0.0042043	0.0005925	845.99	2.0009e-05	2.4305e-05	653.67	295.25	2.043e-05	2.3841e-05	208.88	74.363	112.53	48.452	2.1733e-05	34.836	226.790	320.101	255.680	162.776	272.596	297.642	161.258	167.909	283.830	334.932	165.773	169.385	172.573	176.869	281.286	172.901	-8191	255	
43205.059	1	1	0	0	0.20413	0.22885	0.11736	0.32111	0.41664	0.14917	0.063856	0.38878	0.28451	0.2177	0.205	0.16545	0.083824	0.14167	0.047456	0.2696	-1.3917	-2.35	-2.0375	-2.2333	-2.4375	-2.0229	-2.1208	-2.1708	-2.0167	-2.3625	-2.0646	-1.9813	-2.3812	-1.9937	-2.1396	-2.4083	269.519	455.024	501.256	500.187	152.117	269.100	152.510	509.303	448.832	378.022	468.496	491.353	401.687	490.284	282.355	376.932	0.000322	0.0010623	0.00018201	843.1	4.1055e-06	5.5435e-06	655.57	292.13	3.2663e-06	5.4489e-06	209.51	73.56	111.61	48.269	1.1993e-06	34.988	0.0010804	0.0049462	0.00059224	829.51	2.016e-05	2.3899e-05	645.17	291.33	2.1101e-05	2.4659e-05	207.39	73.677	112.16	48.385	2.2033e-05	34.875	226.966	350.385	226.983	162.990	289.872	299.820	161.306	167.991	299.423	288.270	165.576	169.742	172.345	176.776	310.722	173.055	-8191	255	
43205.176	1	1	0	0	0.2367	0.21616	0.10507	0.27481	0.16438	0.21984	0.2846	0.20639	0.097798	0.11561	0.098362	0.054906	0.11554	0.092201	0.1395	0.1875	-1.5875	-2.3354	-2.1688	-1.9833	-2.5354	-1.9688	-2.0583	-2.5896	-1.7687	-2.2667	-2.3625	-1.9125	-2.3896	-2.275	-1.9646	-2.4229	170.400	492.609	260.221	169.690	279.028	344.337	160.711	509.267	230.132	478.168	199.742	484.138	218.173	453.368	360.568	166.747	0.00032502	0.00094135	0.00012045	846.48	2.4033e-06	2.5894e-06	661.87	293.79	4.1728e-06	1.8545e-06	210.58	74.212	111.61	48.551	4.2115e-06	34.962	0.0010975	0.0032844	0.00075721	831.58	2.045e-05	2.3907e-05	647.69	292.32	2.125e-05	2.4324e-05	208.7	74.006	112.31	48.493	2.174e-05	35.013	225.028	312.037	293.685	163.083	302.261	288.811	161.562	167.976	271.539	276.377	165.742	169.724	172.646	176.818	299.713	172.833	-8191	255	
43205.273	1	1	0	0	0.2035	0.41084	0.095902	0.12887	0.20834	0.10444	0.29101	0.13031	0.1593	0.2008	0.076879	0.20097	0.45487	0.14366	0.1313	0.11844	-1.4771	-2.1958	-2.2833	-1.8458	-2.3604	-2.1375	-2.2	-2.5521	-1.8625	-2.4688	-2.3833	-2.0083	-2.45	-2.3104	-2.0187	-2.4437	437.623	301.970	379.524	451.707	504.310	260.436	438.771	443.360	215.167	390.059	487.376	339.746	508.271	331.959	384.981	227.296	0.00035045	0.00033748	8.0549e-05	851.31	3.2149e-06	1.7407e-06	663.54	296.51	3.8126e-06	5.3484e-06	214.13	75.069	112.98	48.874	5.3916e-06	35.389	0.0010986	0.0021115	0.0013078	836.07	2.0214e-05	2.3984e-05	652.64	295.19	2.1312e-05	2.4429e-05	211.39	75.078	113.77	48.949	2.1206e-05	35.383	228.120	223.449	167.372	162.821	306.774	309.228	161.321	167.940	266.793	276.321	165.346	169.668	172.293	176.777	323.617	172.856	-8191	255	
43205.367	1	1	0	0	0.17831	0.059619	0.04182	0.22916	0.12519	0.10464	0.10905	0.16849	0.20676	0.30315	0.28932	0.28955	0.17714	0.12378	0.22255	0.33771	-1.5938	-2.0854	-2.35	-1.7896	-2.2521	-2.0896	-2.2229	-2.5187	-1.9875	-2.2854	-2.3917	-2.0083	-2.4021	-2.2646	-1.9271	-2.2729	336.006	362.915	191.127	468.566	405.191	488.079	211.327	420.569	314.870	494.609	275.703	223.596	430.940	453.571	165.584	477.503	0.00034478	0.00027048	0.00024943	859.74	3.5512e-06	3.2107e-06	672.81	301.25	6.2899e-06	3.8348e-06	215.44	75.89	114.16	49.11	4.8645e-06	34.856	0.0010805	0.0021152	0.0011343	847.13	1.9458e-05	2.2737e-05	661.33	300.37	2.0495e-05	2.264e-05	213.33	75.492	114.08	49.112	2.0449e-05	34.99	227.756	185.803	338.404	162.803	294.969	316.503	161.354	167.720	307.822	304.307	165.616	169.522	172.276	176.674	296.711	172.612	-8191	255	
43205.465	1	1	0	0	0.26672	0.045813	0.10105	0.18469	0.17633	0.21376	0.33509	0.35065	0.069299	0.090158	0.10317	0.25831	0.13825	0.35718	0.091153	0.27297	-1.65	-2.0083	-2.1708	-1.9271	-2.2438	-2.0187	-2.1312	-2.5104	-1.9875	-1.8312	-2.4104	-2.0521	-2.4479	-2.1771	-1.8687	-2.5292	181.653	220.242	369.607	438.726	243.046	192.848	361.296	471.043	203.300	416.206	367.886	444.993	494.878	472.457	176.656	282.745	0.00032142	0.00050859	0.00012231	858.85	3.3257e-06	3.9413e-06	662.22	297.85	1.4596e-06	5.7509e-06	212.65	74.29	112.53	48.604	4.3119e-06	34.546	0.0010488	0.0020296	0.0013223	842.04	1.8913e-05	2.2322e-05	650.83	296.48	2.0028e-05	2.2327e-05	210.13	74.256	112.54	48.848	2.1245e-05	34.573	221.486	231.988	348.940	162.839	317.481	306.221	161.254	167.883	354.038	346.791	165.196	169.531	172.435	176.776	288.877	172.797	-8191	255	
43205.562	1	1	0	0	0.28816	0.20937	0.26446	0.29438	0.18516	0.12618	0.12553	0.13675	0.27826	0.19401	0.25226	0.1016	0.103	0.28528	0.074196	0.22729	-1.575	-2.0208	-2.425	-1.7896	-2.0771	-2.1437	-1.8708	-2.3958	-2.1396	-2.0333	-2.4125	-2.0958	-2.2271	-2.3125	-1.9229	-2.2938	383.466	258.292	444.273	504.809	484.375	484.078	431.314	381.912	484.893	384.788	481.657	371.717	413.973	157.707	214.625	171.856	0.00032392	0.00058142	0.00017402	852.54	3.069e-06	5.5568e-06	659.88	297.58	2.8407e-06	3.6363e-06	212.33	74.948	112.6	48.834	4.3128e-06	34.638	0.0010465	0.0020487	0.0011369	837.85	1.8582e-05	2.2395e-05	648.9	296.26	2.0051e-05	2.2551e-05	209.15	74.235	112.38	48.856	2.183e-05	34.596	223.489	204.626	329.160	162.878	274.425	316.406	161.464	167.548	319.884	308.623	165.542	169.717	172.563	176.596	327.587	172.765	-8191	255	
43205.656	1	1	0	0	0.34547	0.15063	0.2291	0.30344	0.024982	0.18373	0.29906	0.26926	0.07505	0.24606	0.16651	0.22208	0.23264	0.099018	0.37219	0.16945	-1.5896	-1.9792	-2.2167	-2.0854	-2.1458	-2.5	-2.0292	-2.3333	-2.2958	-2.0542	-2.4792	-2.0583	-2.275	-2.5458	-2.0625	-2.425	190.972	353.170	414.403	472.646	315.039	213.162	416.988	440.454	423.912	193.401	169.707	495.984	451.010	477.426	436.660	498.219	0.0003342	0.00045778	0.00024538	854.12	3.5691e-06	4.0648e-06	662.88	297.64	6.1946e-06	1.9396e-06	211.69	74.597	113.45	48.875	4.3596e-06	34.961	0.0010526	0.0020366	0.001351	839.17	1.8783e-05	2.3373e-05	650.67	295.38	2.7114e-05	2.2817e-05	210.77	74.622	112.77	49.219	2.197e-05	34.958	233.170	240.300	361.252	162.754	283.782	272.155	161.337	167.784	259.229	300.154	165.695	169.894	172.269	176.714	299.519	172.813	-8191	255	
43205.754	1	1	0	0	0.16043	0.20868	0.22507	0.23022	0.16822	0.098497	0.25193	0.12358	0.21621	0.17473	0.29863	0.097466	0.096943	0.022065	0.16989	0.20635	-1.8292	-2	-2.3417	-2.1146	-2.1625	-2.3417	-1.9375	-2.5	-2.3063	-2.2042	-2.2708	-2.2542	-2.025	-2.5104	-2.0042	-2.2271	176.085	275.827	347.670	497.544	397.696	474.566	382.747	502.011	243.992	229.731	480.433	162.848	393.940	303.557	246.870	463.808	0.00036899	0.00025589	0.00010859	858.33	4.0364e-06	4.3705e-06	666.59	297.83	1.1893e-05	2.0741e-06	213.26	75.376	113.7	48.867	5.0965e-06	35.011	0.0010849	0.0020692	0.0011723	844.16	1.8975e-05	2.3858e-05	655.14	295.15	4.6933e-05	2.4298e-05	211.21	75.209	113.18	49.11	2.2314e-05	35.015	227.318	242.735	337.396	162.979	302.140	282.009	161.519	167.854	252.792	322.751	165.719	169.313	172.593	176.576	303.105	172.716	-8191	255	
43205.871	1	1	0	0	0.15089	0.053299	0.22254	0.20434	0.096222	0.1931	0.26043	0.11552	0.20323	0.1351	0.09674	0.18987	0.052151	0.34936	0.11811	0.23597	-1.8438	-1.8542	-2.2854	-2.1208	-2.2333	-2.4979	-2.0604	-2.3021	-2.55	-2.0083	-2.2708	-2.1958	-2.1292	-2.6042	-2.1437	-1.9583	174.393	316.230	494.840	500.915	184.925	478.202	394.526	423.368	245.218	368.663	449.124	226.351	473.636	468.192	182.688	405.743	0.00035304	0.00062212	0.00025453	856.64	3.683e-06	4.9426e-06	661.37	297.43	8.6379e-06	3.5805e-06	211.29	74.243	112.9	48.635	3.9374e-06	34.159	0.001089	0.0021709	0.0013793	840.33	1.9382e-05	2.4532e-05	650.26	293.54	3.888e-05	2.3076e-05	209.07	74.158	112.45	48.861	2.1341e-05	34.307	225.952	209.390	400.276	162.836	317.813	236.469	161.348	168.190	250.982	268.387	165.621	169.352	172.575	176.756	298.575	172.466	-8191	255	
43205.969	1	1	0	0	0.069881	0.1725	0.085263	0.08285	0.14003	0.26764	0.17132	0.20342	0.056673	0.20582	0.19548	0.28904	0.27851	0.1521	0.16839	0.07682	-1.8542	-1.9083	-2.3146	-2.3833	-2.0375	-2.3979	-2.2625	-2.1479	-2.2438	-2.1875	-2.3229	-2.2229	-2.0396	-2.5271	-1.9813	-2.1542	206.721	402.949	183.951	153.994	352.499	426.974	180.408	409.240	166.080	376.275	497.770	472.264	221.559	216.158	327.214	253.477	0.0003299	0.00045789	0.00011442	852.73	3.1512e-06	3.3177e-06	659.48	296.17	1.0182e-05	2.7775e-06	211.19	74.161	112.71	48.265	5.3892e-06	34.359	0.0010566	0.0020667	0.0008007	840.01	1.9515e-05	2.3459e-05	648.54	294.09	4.6467e-05	2.3759e-05	209.16	74.005	112.59	48.538	2.1365e-05	34.256	224.905	242.605	329.813	162.745	324.069	296.788	161.322	167.926	257.492	283.046	165.751	169.397	172.219	176.733	292.390	172.536	-8191	255	
43206.043	1	1	0	0	0.14057	0.10367	0.11291	0.15174	0.22146	0.24099	0.12676	0.21247	0.19243	0.14289	0.19884	0.10405	0.15558	0.17444	0.10901	0.28037	-1.8792	-1.8521	-2.35	-2.4771	-1.9375	-2.5104	-2.1188	-2.0312	-2.4875	-1.9917	-2.3271	-2.3187	-1.9271	-2.6333	-2.1042	-2.1292	399.690	456.340	362.040	329.875	222.155	491.094	354.392	178.061	459.459	249.283	205.200	497.637	405.648	437.454	496.163	488.240	0.00032634	0.0002828	7.4641e-05	846.4	4.468e-06	4.1553e-06	659.4	294.75	9.9026e-06	8.2744e-07	210.46	74.58	113.36	48.299	3.7816e-06	34.456	0.0010585	0.0021072	0.00057918	839.8	1.9648e-05	2.3815e-05	646.4	292.69	3.9379e-05	2.3518e-05	208.96	74.285	112.63	48.752	2.2034e-05	34.431	229.179	226.127	259.867	162.567	291.859	332.116	161.205	167.902	276.694	397.867	165.397	169.467	172.209	176.737	289.850	172.905	-8191	255	
43206.137	1	1	0	0	0.12552	0.17282	0.39702	0.10799	0.223	0.10198	0.11632	0.11741	0.13064	0.14536	0.014303	0.22808	0.10322	0.2062	0.26232	0.08331	-2.0312	-2.0583	-2.1354	-2.3937	-1.9729	-2.4729	-2.1458	-2.3583	-2.4396	-2.1479	-2.3604	-2.4542	-2.1875	-2.5375	-2.2938	-2.0563	223.121	356.452	335.886	164.701	433.590	238.383	422.720	370.324	381.829	181.010	205.099	436.765	157.048	503.645	202.118	495.802	0.00031659	0.00032129	0.00017605	853.86	4.1444e-06	5.4342e-06	663.76	297.73	9.5182e-06	3.973e-06	212.07	75.158	113.46	48.729	4.3157e-06	34.597	0.0011043	0.0021502	0.00057584	844.76	1.98e-05	2.374e-05	652.18	296.04	4.7431e-05	2.3331e-05	210.82	74.854	113.67	48.849	3.0123e-05	34.726	222.810	206.288	215.976	162.675	296.433	291.080	161.269	167.917	242.642	326.933	165.562	169.510	172.415	176.744	258.481	172.784	-8191	255	
43206.258	1	1	0	0	0.10397	0.12079	0.2019	0.17051	0.019681	0.25298	0.15597	0.23217	0.2987	0.1636	0.23718	0.13141	0.39709	0.22334	0.29438	0.30835	-1.9875	-2.0333	-2.1354	-2.4813	-2.0563	-2.2729	-2.4583	-2.2625	-2.35	-2.1625	-2.1854	-2.5583	-1.8917	-2.4208	-2.3812	-1.9958	292.324	358.658	455.109	482.996	279.318	177.617	454.358	402.625	433.874	339.535	393.819	202.825	177.146	452.686	494.669	393.302	0.00030283	0.0003596	0.00013752	859.39	3.9428e-06	4.6383e-06	666.41	298.1	1.091e-05	6.8782e-06	211.1	74.228	113.13	48.31	1.2432e-05	34.357	0.0010852	0.0020773	0.00058023	851.25	1.9757e-05	2.3182e-05	655.19	296.18	3.8983e-05	2.3651e-05	209.5	74.299	112.83	48.392	4.8389e-05	34.239	224.695	239.502	247.544	162.582	330.581	305.828	161.433	167.783	254.595	296.926	165.452	169.798	172.276	176.865	376.203	172.548	-8191	255	
43206.352	1	1	0	0	0.21198	0.087831	0.028201	0.19818	0.11025	0.19133	0.19973	0.13433	0.27405	0.20657	0.047044	0.070952	0.11121	0.34689	0.054052	0.27264	-1.9208	-2.1083	-1.9333	-2.2812	-2.0417	-2.1562	-2.2375	-2.0312	-2.2896	-2.2833	-2.1167	-2.5	-1.8875	-2.1917	-2.3083	-2.0958	316.147	353.770	161.155	424.480	221.538	296.859	389.693	223.846	367.450	326.241	500.953	495.065	168.073	424.896	198.447	398.087	0.00030862	0.00028556	0.00014308	851.72	4.3681e-06	4.0645e-06	656.99	297.74	5.2829e-06	6.2469e-06	210.61	73.997	112.77	48.039	8.4734e-06	34.018	0.0010629	0.0020874	0.00057185	840.92	1.9483e-05	2.2585e-05	645.76	294.33	4.527e-05	2.3016e-05	208.1	73.824	112.44	48.178	4.0972e-05	34.039	229.058	251.601	253.638	162.594	301.184	263.878	161.355	167.671	294.054	308.825	165.550	169.406	172.164	176.623	358.911	172.428	-8191	255	
43206.449	1	1	0	0	0.017126	0.2084	0.16852	0.23444	0.17121	0.14653	0.22959	0.10335	0.10806	0.070807	0.19852	0.11744	0.10403	0.062288	0.2461	0.098071	-1.8604	-2.2729	-1.7292	-2.375	-2.0583	-2.1646	-2.35	-1.9062	-2.3208	-2.1542	-2.0729	-2.4167	-1.9542	-2.0625	-2.3125	-2.0125	228.544	169.147	377.302	494.758	453.572	222.445	450.907	305.051	344.970	155.758	477.829	384.428	416.405	438.821	371.507	349.109	0.00032875	0.00011483	0.00014358	849.98	3.5753e-06	5.1267e-06	654.58	296.18	4.106e-06	1.165e-05	209.57	73.82	112.16	48.312	1.2986e-05	34.172	0.0010328	0.0020807	0.00059068	840.91	1.9286e-05	2.2579e-05	644.66	293.32	2.624e-05	3.4488e-05	207.51	73.715	112.19	48.366	4.9412e-05	34.275	230.846	240.803	226.630	162.742	288.563	277.604	161.166	167.942	309.953	261.132	165.781	169.834	172.110	176.443	365.072	172.583	-8191	255	
43206.570	1	1	0	0	0.19235	0.42004	0.12792	0.24816	0.294	0.1909	0.16677	0.31903	0.25749	0.47309	0.1615	0.23764	0.10078	0.32617	0.13587	0.050839	-1.8708	-1.9813	-1.6979	-2.4625	-2.0958	-2.1604	-2.4625	-2.1688	-2.2042	-2.1896	-1.8417	-2.3438	-2.0312	-2.1354	-2.275	-2.0708	150.369	186.194	211.674	470.040	272.882	440.262	299.703	453.132	159.524	467.036	423.942	503.956	439.119	267.913	271.370	212.558	0.0003488	0.0003944	0.00014947	854.51	4.2199e-06	2.3839e-06	659.25	298.42	3.8115e-06	1.5038e-05	212.13	74.292	113.9	48.703	5.5629e-06	34.561	0.0010452	0.002082	0.00059569	843.91	1.9016e-05	2.3189e-05	649.17	295.98	2.0415e-05	5.5019e-05	210.08	74.326	113.41	48.728	4.1932e-05	34.564	228.682	237.148	245.959	162.698	276.097	250.791	161.632	167.809	329.101	275.581	165.364	169.300	172.103	176.405	356.658	172.701	-8191	255	
43206.641	1	1	0	0	0.3097	0.24037	0.17372	0.16332	0.15604	0.12533	0.21484	0.06195	0.025772	0.31298	0.18991	0.14093	0.034655	0.11151	0.10164	0.24877	-1.675	-2.1396	-1.9312	-2.4062	-2.2146	-2.1042	-2.4167	-2.1937	-2.1792	-2.1125	-1.9	-2.3937	-2.25	-2.0583	-2.4854	-1.7979	170.406	323.218	494.669	449.618	384.473	443.830	498.401	463.078	478.912	484.542	364.646	383.085	433.108	458.111	491.962	328.935	0.00035494	8.9084e-05	8.2294e-05	857.98	4.7184e-06	3.701e-06	661.38	298.8	3.6827e-06	1.2602e-05	211.77	74.824	113	48.776	7.5536e-06	34.514	0.0010628	0.0021156	0.00059376	848.06	1.9066e-05	2.4117e-05	651.98	296.06	2.0408e-05	4.6548e-05	209.98	74.811	113.56	48.767	4.9444e-05	34.444	235.315	170.418	279.292	162.919	316.059	317.520	161.441	167.904	289.359	288.867	165.178	169.583	172.215	176.487	407.931	172.588	-8191	255	
43206.738	1	1	0	0	0.15026	0.044788	0.1424	0.18743	0.18893	0.17843	0.050696	0.15013	0.096655	0.24026	0.40437	0.13667	0.20269	0.14139	0.24635	0.12727	-1.4958	-2.3604	-1.8396	-2.3271	-2.1063	-2.1354	-2.4104	-2.2125	-1.9479	-2.3979	-2.0104	-2.1896	-2.1646	-2.0875	-2.3063	-1.95	485.825	426.164	281.587	166.153	381.519	162.830	501.670	196.833	208.083	402.543	472.429	355.263	509.581	491.754	233.735	353.838	0.00034014	0.00038876	7.3774e-05	854.88	8.2118e-06	2.9023e-06	655.06	298.15	2.8581e-06	1.6931e-05	209.34	74.232	112.72	48.322	4.6782e-06	33.839	0.0010493	0.0021389	0.00060149	841.41	2.9015e-05	2.4165e-05	645.59	294.22	1.9715e-05	5.4606e-05	207.44	73.575	112.57	48.301	4.0364e-05	33.9	227.258	240.587	199.545	162.871	240.603	323.177	161.297	167.964	276.326	282.637	165.473	169.532	172.153	176.842	388.281	172.617	-8191	255	
43206.859	1	1	0	0	0.22427	0.23807	0.23224	0.3098	0.11802	0.22746	0.16186	0.18348	0.24857	0.2052	0.20889	0.14732	0.23058	0.11622	0.18758	0.18427	-1.6125	-2.3417	-1.8042	-2.2833	-2.1437	-2.1208	-2.3667	-2.1104	-1.9208	-2.3375	-1.8396	-2.3812	-2.3688	-1.8875	-2.2104	-2.0792	226.079	500.846	282.380	506.549	383.876	151.320	451.461	482.814	181.487	450.353	391.712	326.634	454.001	348.784	157.938	346.616	0.00032362	0.00049179	0.00014206	850.05	7.1858e-06	2.9839e-06	654.45	296.71	3.0423e-06	1.455e-05	208.5	73.912	112.55	48.069	8.8734e-06	34.226	0.0010416	0.0021131	0.000584	835.46	4.3698e-05	2.3515e-05	643.62	292.98	2.0668e-05	4.5488e-05	206.75	73.416	112.15	48.322	4.4451e-05	34.173	225.067	225.312	260.653	162.799	176.900	269.433	161.326	167.862	307.141	286.669	165.362	169.163	172.192	176.540	387.753	172.664	-8191	255	
43206.953	1	1	0	0	0.29488	0.39784	0.18136	0.045129	0.18887	0.12184	0.3455	0.17052	0.13266	0.24363	0.078104	0.065355	0.27634	0.41384	0.12146	0.31296	-1.5292	-2.2188	-1.9729	-2.0708	-2.3104	-1.8813	-2.3375	-2.3271	-1.9625	-2.5958	-1.9458	-2.0958	-2.3167	-1.9958	-2.1625	-2.2167	244.857	494.507	378.613	469.921	358.574	509.059	428.727	152.298	196.331	336.186	417.678	251.773	456.207	394.729	283.996	281.593	0.00034754	0.00046161	8.1447e-05	853.65	7.0434e-06	2.3025e-06	656.85	296.65	1.8036e-06	1.3577e-05	210.69	73.997	113.06	48.672	6.2058e-06	34.614	0.0010673	0.0020747	0.00057038	838.7	3.6921e-05	2.3059e-05	645.5	294.07	2.0688e-05	5.4553e-05	208.33	73.967	113.01	48.663	2.5181e-05	34.761	220.600	229.730	235.878	162.566	229.800	307.183	161.481	167.671	306.382	303.872	165.630	169.325	172.235	176.619	369.316	172.571	-8191	255	
43207.047	1	1	0	0	0.2163	0.16427	0.17116	0.10062	0.12922	0.22043	0.30724	0.23536	0.29943	0.15411	0.17435	0.23606	0.36017	0.36261	0.1601	0.1243	-1.3542	-2.3812	-1.7625	-2.3104	-2.3146	-2.0292	-2.3417	-2.1604	-1.9854	-2.2542	-2.0292	-2.0375	-2.4396	-1.9729	-2.1583	-2.3479	197.381	472.743	299.525	171.536	384.573	323.202	413.208	457.319	468.362	504.530	164.860	478.435	423.776	479.801	471.569	212.984	0.00036092	0.00041899	7.654e-05	857.96	1.1862e-05	3.1074e-06	660.94	299.23	4.8506e-06	1.5015e-05	212.46	74.564	113.47	48.937	4.0438e-06	34.851	0.0010772	0.0020303	0.00055281	841.3	4.3848e-05	2.3081e-05	650.76	296.14	1.9922e-05	4.4715e-05	209.53	74.395	113.52	48.948	2.0024e-05	35.199	231.260	227.248	218.557	162.756	216.287	314.275	161.496	167.922	312.772	296.739	165.544	169.269	172.222	176.325	301.461	173.111	-8191	255	
43207.168	1	1	0	0	0.079882	0.17859	0.29981	0.18752	0.16993	0.31238	0.2026	0.12331	0.076613	0.15382	0.13605	0.21266	0.16471	0.17781	0.14929	0.28095	-1.6021	-2.3708	-2.0833	-2.1667	-2.2729	-1.9458	-2.2208	-2.4813	-1.9062	-2.3	-2.1333	-1.9396	-2.475	-2.1063	-2.0563	-2.4042	154.436	291.936	427.698	211.520	393.836	192.107	482.763	467.910	207.470	292.867	495.255	509.444	357.849	260.847	336.464	349.631	0.00033293	0.00057435	0.00016896	859.96	7.9541e-06	3.1746e-06	655.34	296.1	2.711e-06	1.1144e-05	208.59	74.02	113.2	48.159	1.243e-06	33.588	0.0010292	0.0019443	0.00054746	843.83	3.5447e-05	2.1737e-05	645.48	294.32	1.9079e-05	4.6067e-05	206.66	73.502	112.62	48.138	1.9538e-05	34.074	231.784	234.948	232.706	162.764	197.289	282.644	161.537	167.968	286.582	335.221	165.490	169.637	172.205	176.373	289.476	172.457	-8191	255	
43207.242	1	1	0	0	0.0686	0.067103	0.20145	0.22039	0.25977	0.18612	0.15647	0.12229	0.22167	0.11718	0.051371	0.10147	0.20239	0.23156	0.066	0.12985	-1.4896	-2.2208	-2.1292	-1.9688	-2.3	-2.1188	-2.2167	-2.5146	-1.7271	-2.1979	-1.9729	-2.0958	-2.3958	-2.2562	-2.0479	-2.1063	407.563	184.675	414.115	406.756	188.670	431.619	485.265	473.642	391.309	392.971	437.641	496.400	404.900	463.580	200.926	397.011	0.00032615	0.00055095	3.3639e-05	847.95	8.4833e-06	2.292e-06	645.11	295.17	3.751e-06	7.7164e-06	207.09	72.993	112.04	47.352	6.9806e-06	33.076	0.00099738	0.0018985	0.00052561	830.94	4.2268e-05	2.1011e-05	635.01	291.94	1.9316e-05	2.5009e-05	206.33	72.737	111.91	47.507	1.9666e-05	33.713	227.766	221.082	150.192	162.699	214.997	292.070	161.279	167.728	296.705	347.014	165.568	169.373	172.065	176.461	307.130	172.519	-8191	255	
43207.336	1	1	0	0	0.12093	0.23534	0.20871	0.20503	0.083984	0.16163	0.32987	0.080516	0.11994	0.16039	0.17668	0.085868	0.39893	0.10495	0.16351	0.17352	-1.475	-2.225	-2.2417	-1.9208	-2.425	-2.3083	-2.2313	-2.5104	-1.9021	-2.1458	-2.3187	-1.9958	-2.3729	-1.9625	-1.8979	-2.5187	238.981	293.578	253.682	217.330	416.916	368.593	460.315	179.806	310.993	458.285	355.580	505.747	427.444	446.205	409.777	341.279	0.00032397	0.00030411	5.9585e-05	845.14	5.7932e-06	3.4767e-06	647.03	292.55	3.4349e-06	5.6069e-06	206.48	72.693	110.82	47.292	3.1647e-06	32.789	0.00099676	0.001829	0.00053665	830.28	3.4595e-05	2.0508e-05	634.15	290.59	1.8484e-05	2.0346e-05	206.65	72.008	110.95	47.027	1.9666e-05	33.18	221.938	243.114	262.966	162.582	260.738	300.412	161.234	167.753	303.069	319.131	165.654	169.703	172.437	176.251	305.959	172.830	-8191	255	
43207.434	1	1	0	0	0.1145	0.052859	0.085524	0.10318	0.23387	0.067619	0.14418	0.12526	0.049462	0.39298	0.17768	0.19137	0.19191	0.10212	0.15342	0.17092	-1.4562	-2.1646	-2.3146	-2.0229	-2.3271	-2.2562	-2.0812	-2.3458	-2.0646	-2.0958	-2.4229	-1.9229	-2.3438	-2.1021	-2.2729	-2.5229	187.100	227.981	155.177	319.476	430.579	317.763	488.161	502.030	200.096	199.196	159.189	476.184	436.825	503.311	158.665	170.663	0.0003371	0.00042882	7.5396e-05	840.74	5.0744e-06	1.5237e-05	645.46	292.98	3.4883e-06	3.6167e-06	204.34	72.324	110.32	46.81	5.5045e-06	32.766	0.00095395	0.0018598	0.00053703	827.72	3.6022e-05	2.33e-05	632.57	289.03	1.8431e-05	2.1084e-05	204.66	71.735	110.25	46.65	1.9979e-05	33.302	228.032	239.637	235.523	162.498	319.997	240.046	161.357	167.758	318.616	385.290	165.530	169.243	171.946	176.413	300.283	172.447	-8191	255	
43207.551	1	1	0	0	0.075392	0.11059	0.13779	0.52816	0.26721	0.2983	0.096447	0.17608	0.11619	0.050036	0.3079	0.38755	0.15219	0.16246	0.15116	0.32721	-1.425	-1.9438	-2.4521	-1.9625	-2.2458	-2.3042	-2.0125	-2.425	-2.0812	-2.075	-2.4271	-1.9021	-2.2583	-2.4	-1.9792	-2.45	156.605	489.985	248.115	497.598	261.169	151.729	448.040	469.560	488.946	172.898	430.855	358.468	192.459	479.809	377.230	477.240	0.00030276	0.0005559	9.8662e-05	843	3.0012e-06	1.1622e-05	646.18	293.06	4.8432e-06	4.9667e-06	205.13	72.041	109.8	46.427	5.7353e-06	32.287	0.00095103	0.001809	0.00054564	827.8	1.9874e-05	3.6078e-05	633.92	289.91	1.8556e-05	2.113e-05	205.56	71.408	109.65	46.33	2.0433e-05	32.605	230.050	210.788	252.293	162.710	340.941	230.311	160.824	167.632	296.962	292.344	165.181	169.645	172.045	176.469	304.846	172.520	-8191	255	
43207.648	1	1	0	0	0.2558	0.37501	0.26154	0.31667	0.089928	0.11961	0.11692	0.27289	0.04962	0.25362	0.10642	0.28354	0.10507	0.15512	0.18277	0.30351	-1.6812	-2.0354	-2.3792	-2.1312	-2.1562	-2.1958	-2.0771	-2.2875	-1.9917	-1.9958	-2.5438	-2.0208	-2.25	-2.3667	-1.8229	-2.4437	359.297	314.542	399.558	477.982	374.930	184.667	154.933	488.348	429.876	378.244	401.580	459.639	309.125	186.155	263.467	314.369	0.00030928	0.00019915	0.0001622	830.79	4.2722e-06	1.184e-05	636.25	288.46	4.565e-06	3.8566e-06	201.37	70.524	108.69	45.601	3.48e-06	31.876	0.000948	0.0019402	0.00055214	816.16	1.7381e-05	5.1988e-05	624.5	285.5	1.8339e-05	2.1294e-05	201.36	70.172	108.34	45.592	1.9534e-05	32.272	228.355	229.070	230.780	162.602	300.100	239.666	161.336	167.793	296.954	329.072	165.701	169.376	171.971	176.336	283.494	172.597	-8191	255	
43207.742	1	1	0	0	0.14909	0.11785	0.17382	0.18697	0.13011	0.22151	0.46591	0.21582	0.0036665	0.22557	0.20275	0.21588	0.035452	0.30984	0.17959	0.11054	-1.7125	-2.0354	-2.3042	-2.0333	-2.1396	-2.3208	-1.9479	-2.3417	-2.0271	-1.9521	-2.3292	-2.1896	-2.1271	-2.2104	-1.7229	-2.3604	252.215	219.741	290.017	458.972	403.980	182.035	425.087	464.971	260.572	245.898	157.343	509.934	303.628	503.577	371.935	243.695	0.0003317	0.00030157	7.7412e-05	826.52	4.7227e-06	1.201e-05	632.2	288.53	3.5553e-06	4.3915e-06	202.72	71.169	109.04	45.866	4.7405e-06	32.052	0.001101	0.0019621	0.00054671	812.38	1.7606e-05	4.2913e-05	621.52	285.24	1.8936e-05	2.1986e-05	203.33	70.778	109.01	45.795	1.9668e-05	32.231	216.975	272.796	238.958	162.693	294.966	244.462	161.319	167.975	309.687	273.101	165.271	169.545	172.077	176.654	264.688	172.800	-8191	255	
43207.840	1	1	0	0	0.086004	0.42013	0.1022	0.20189	0.057181	0.084421	0.17438	0.15603	0.047127	0.3391	0.1592	0.17429	0.2466	0.34523	0.14977	0.18722	-1.8438	-1.8771	-2.1604	-2.0333	-2.0521	-2.3625	-2.0583	-2.3146	-1.9667	-1.9688	-2.4792	-2.2313	-2.0979	-2.6	-1.9521	-2.2854	306.182	200.145	384.890	463.134	489.934	344.448	160.032	469.928	281.052	425.174	382.270	474.872	495.917	428.918	374.606	350.189	0.00036967	0.0003573	7.1669e-05	832.08	1.9381e-06	1.098e-05	638.58	291.08	3.5288e-06	3.4538e-06	205.2	72.33	111.53	46.549	3.4376e-06	33.026	0.0015887	0.0019764	0.00055589	817.12	1.8434e-05	5.2799e-05	627.48	288.09	1.9264e-05	2.201e-05	205.94	72.366	111.04	46.508	2.0162e-05	32.91	221.055	264.561	239.238	162.614	325.058	258.274	161.720	167.831	301.714	276.401	165.705	169.447	172.277	176.877	295.539	172.782	-8191	255	
43207.938	1	1	0	0	0.15107	0.054723	0.077802	0.083485	0.069621	0.17614	0.19889	0.10739	0.2865	0.18289	0.09493	0.29702	0.20786	0.18394	0.1962	0.027179	-1.7896	-1.7563	-2.3375	-2.0896	-2.0542	-2.3521	-2.0312	-2.3167	-2.25	-1.8854	-2.3812	-2.0729	-2.2	-2.2271	-2.0646	-2.2562	351.844	353.696	408.281	328.669	483.749	151.511	509.239	160.311	260.119	202.631	213.712	256.334	171.522	163.023	273.426	222.562	0.00028549	0.00072095	0.00015752	839.04	5.6117e-06	1.1642e-05	646.3	294.47	2.8236e-06	3.8071e-06	207.76	73.824	111.57	47.178	2.3836e-06	33.27	0.0021424	0.0020482	0.000545	824.1	1.8808e-05	4.4547e-05	635.51	291.22	1.9451e-05	2.2493e-05	208.11	73.834	111.76	47.149	1.9985e-05	33.363	205.680	264.357	273.132	162.797	306.267	261.122	161.231	168.008	304.469	299.131	165.648	169.305	172.099	176.619	288.496	172.899	-8191	255	
43208.031	1	1	0	0	0.11746	0.11098	0.13546	0.14949	0.12253	0.085121	0.083926	0.08935	0.30091	0.09303	0.054335	0.20758	0.17691	0.2382	0.13773	0.12414	-1.9875	-1.9354	-2.2687	-2.3083	-1.9396	-2.4	-2.0896	-2.1063	-2.3583	-2.0083	-2.2833	-2.3083	-1.8583	-2.5333	-2.1854	-2.0146	377.505	279.648	409.443	401.282	316.999	152.319	481.488	240.012	217.436	283.259	275.024	442.303	377.856	474.002	390.788	162.193	0.00033195	0.00056622	0.00011303	838.02	9.2868e-07	1.3746e-05	642.27	293.73	6.6825e-06	5.6854e-06	206.1	73.52	111.65	46.771	5.4641e-06	32.855	0.0018133	0.0020324	0.00053002	823.89	1.8919e-05	5.1406e-05	631.82	290.29	2.0449e-05	2.1576e-05	204.75	73.52	111.46	46.842	1.9955e-05	32.884	211.355	187.666	251.830	162.773	177.963	271.583	161.048	168.083	282.337	281.154	165.528	169.576	172.191	176.480	286.004	172.440	-8191	255	
43208.129	1	1	0	0	0.12119	0.10506	0.084769	0.26857	0.22987	0.092054	0.034012	0.064488	0.14083	0.18427	0.14762	0.068691	0.21912	0.18263	0.051597	0.17691	-1.9813	-1.9271	-1.8646	-2.3833	-1.9729	-2.5146	-2.2167	-2.025	-2.2958	-1.9937	-2.325	-2.3187	-2.0938	-2.4792	-2.2083	-1.9958	395.694	488.295	360.219	504.331	376.807	406.174	456.579	358.284	302.296	486.250	240.088	430.923	320.039	469.048	202.256	485.713	0.0002994	0.00046974	0.00011845	835.87	3.9891e-06	7.0721e-06	644.45	292.81	2.7967e-06	4.66e-06	206.12	73.016	111.9	46.867	1.4401e-06	33.075	0.002098	0.0019576	0.0005396	823.02	1.849e-05	4.2524e-05	632.1	290.03	1.9616e-05	2.2385e-05	204.46	73.827	111.8	46.914	1.9906e-05	33.037	212.944	225.383	270.673	162.663	286.978	290.382	161.514	167.968	283.108	309.047	165.387	169.777	172.355	176.629	301.067	172.715	-8191	255	
43208.250	1	1	0	0	0.093924	0.050816	0.19795	0.28164	0.15062	0.03522	0.11844	0.30547	0.13363	0.08385	0.30237	0.2364	0.25776	0.25309	0.10711	0.077622	-1.8333	-2.1521	-2.2292	-2.3958	-2.0312	-2.5417	-2.2062	-2.0854	-2.1542	-2.225	-2.0687	-2.2167	-2.0271	-2.4	-2.2062	-2.2146	394.293	345.588	323.104	474.528	454.824	246.477	340.570	457.460	272.058	454.380	467.973	364.033	483.686	486.330	299.236	195.890	0.0002901	0.00038744	6.3929e-05	835.66	3.4753e-06	9.486e-06	647.26	292.82	3.101e-06	3.6977e-07	208	73.837	112.39	47.432	4.5791e-06	33.387	0.0017907	0.0019699	0.00055436	823.24	1.8672e-05	4.0946e-05	636.31	290.98	1.9854e-05	2.204e-05	206.67	74.433	112.33	47.397	2.1121e-05	33.434	221.407	212.994	220.224	162.961	331.916	331.521	161.227	167.844	307.284	303.329	165.175	169.477	172.304	176.449	265.563	173.009	-8191	255	
43208.348	1	1	0	0	0.31395	0.16332	0.12417	0.18816	0.12005	0.18504	0.28239	0.15605	0.14492	0.064009	0.26073	0.23461	0.095857	0.15188	0.16815	0.35511	-2.0521	-2.0708	-2.1792	-2.6583	-1.8687	-2.4833	-2.2979	-2.025	-2.35	-2.1896	-2.2146	-2.3396	-1.9708	-2.4083	-2.3521	-1.8458	454.909	502.406	405.793	413.008	417.210	152.830	414.268	499.610	386.200	375.398	455.340	500.690	332.869	155.626	392.188	401.287	0.00030828	0.00037409	0.0001188	842.68	3.8194e-06	7.3937e-06	655.32	295.81	3.889e-06	5.0334e-06	209.75	74.697	113.27	47.901	4.2767e-06	33.944	0.0021214	0.002025	0.00055987	829.6	1.8689e-05	2.2954e-05	645.14	292.92	1.9198e-05	2.2958e-05	208.46	75.582	113.25	47.918	2.1699e-05	34.014	211.607	214.619	283.472	162.679	282.041	331.449	161.278	167.873	299.206	307.568	165.496	169.519	172.327	176.711	314.257	172.606	-8191	255	
43208.441	1	1	0	0	0.2359	0.30283	0.052461	0.22618	0.22906	0.16588	0.13438	0.068781	0.25366	0.070611	0.16297	0.13556	0.17212	0.078267	0.19423	0.15911	-1.8042	-2.1458	-2.0792	-2.3812	-2.1208	-2.1458	-2.3417	-2.0583	-2.4437	-2.1688	-2.1021	-2.4292	-1.8771	-2.2708	-2.425	-2.125	307.811	242.455	154.618	483.920	291.800	300.130	487.045	199.591	287.859	501.046	385.339	509.359	496.015	433.869	258.831	425.019	0.00033858	0.00038504	7.2599e-05	847.82	2.8575e-06	6.1286e-06	654.72	295.88	3.6086e-06	4.4197e-06	208.35	74.378	112.49	47.766	3.4733e-06	33.583	0.0018061	0.002018	0.00058437	832.11	1.8519e-05	2.2702e-05	648.38	292.85	1.9362e-05	2.2559e-05	206.53	74.76	112.58	47.708	2.1206e-05	33.68	213.559	249.074	218.462	162.797	279.953	311.060	161.446	167.693	312.471	297.136	165.702	169.329	172.440	176.732	273.267	172.931	-8191	255	
43208.539	1	1	0	0	0.21821	0.21373	0.035806	0.21643	0.20515	0.2029	0.30606	0.20514	0.14709	0.1561	0.12647	0.098307	0.10163	0.25734	0.15736	0.21799	-1.9813	-2.1688	-2.0125	-2.3708	-2.2146	-2.2271	-2.5229	-1.9146	-2.4437	-2.1	-2.0375	-2.6542	-2.3979	-2.1146	-2.3563	-2.0708	346.014	469.497	320.257	498.982	163.030	438.331	393.776	421.643	443.397	478.943	174.163	218.595	320.548	160.414	498.747	432.946	0.00029712	0.000978	9.3468e-05	843.13	5.0741e-06	4.9993e-06	647.25	294.88	4.0292e-06	5.7223e-06	208.84	73.893	113.08	48.013	4.9115e-06	33.762	0.0016339	0.0027251	0.00057977	828	1.8357e-05	2.274e-05	640.53	291.6	1.9107e-05	2.3006e-05	206.32	74.747	112.7	47.948	2.0725e-05	33.788	230.117	497.685	247.383	162.642	301.822	245.235	161.179	168.022	318.302	291.679	165.367	169.531	172.253	176.775	324.967	172.788	-8191	255	
43208.633	1	1	0	0	0.2301	0.12857	0.18236	0.27106	0.24337	0.15774	0.077901	0.28352	0.048315	0.2193	0.23522	0.24477	0.5365	0.15608	0.19867	0.10426	-1.9042	-2.2125	-1.8375	-2.4583	-2.0438	-2.1271	-2.4167	-1.9854	-2.3625	-2.2771	-2.0521	-2.3208	-2.2583	-2.1021	-2.25	-2.0979	174.575	386.177	442.473	462.661	358.130	347.827	227.179	407.798	336.816	382.537	167.567	493.953	413.078	412.907	460.887	419.697	0.00034003	0.00087389	5.0983e-05	845.96	3.6682e-06	3.0853e-06	649.33	296.49	2.7322e-06	2.9972e-06	209.2	74.544	113.64	47.871	3.2556e-06	34.03	0.0010353	0.0036734	0.00055682	830.35	1.89e-05	2.2361e-05	645.07	293.27	1.9355e-05	2.2888e-05	207.61	74.759	113.26	48.107	2.0646e-05	33.965	225.111	161.475	248.592	162.618	305.800	293.409	161.395	167.836	310.940	299.143	165.446	169.699	172.182	176.757	265.228	172.756	-8191	255	
43208.727	1	1	0	0	0.044149	0.12275	0.083929	0.17492	0.12409	0.1108	0.23143	0.24375	0.29349	0.080902	0.18964	0.17027	0.19569	0.20789	0.17273	0.28395	-1.9417	-2.4667	-1.8729	-2.3333	-2.1312	-2.0417	-2.4521	-2.0458	-2.3208	-2.25	-2.0042	-2.4583	-2.225	-2.0625	-2.2521	-1.875	254.581	344.771	220.594	508.781	183.062	165.946	425.674	218.625	199.574	391.333	178.528	397.981	289.978	199.264	455.025	262.738	0.00027166	0.0011976	7.9626e-05	847.69	4.8462e-06	6.589e-06	654.07	299.27	3.7844e-06	1.7591e-06	211.21	74.799	114.31	48.855	5.2481e-06	34.536	0.0010042	0.0048257	0.00056669	833.99	1.8827e-05	2.2735e-05	647.45	295.12	1.9932e-05	2.3391e-05	209.86	75.225	114.25	48.732	2.0845e-05	34.516	230.262	490.065	234.658	162.763	307.094	297.179	161.453	167.859	277.897	262.952	165.683	169.728	172.128	176.662	292.928	172.850	-8191	255	
43208.848	1	1	0	0	0.12448	0.17934	0.11928	0.1374	0.065982	0.27737	0.19494	0.12923	0.081897	0.11053	0.14698	0.24997	0.27564	0.2148	0.12211	0.1897	-1.7479	-2.3146	-2.0083	-2.275	-2.2687	-2.0646	-2.4875	-2.0354	-2.0042	-2.2917	-2.1146	-2.1937	-2.4	-1.9896	-2.3438	-2.1854	287.240	447.702	265.823	503.732	288.895	154.357	165.602	387.363	463.822	422.493	428.531	491.242	501.610	324.368	374.820	311.131	0.00032316	0.00089146	0.00016365	852.53	4.0605e-06	4.606e-06	660.16	296.49	3.8861e-06	1.588e-06	211.68	75.036	113.59	48.665	3.2449e-06	34.621	0.0010448	0.004017	0.00057303	835.97	1.9788e-05	2.3573e-05	654.39	294.67	2.0843e-05	2.3297e-05	209.78	74.992	114.58	48.771	2.0775e-05	34.54	231.377	483.845	247.137	162.842	292.773	301.742	161.435	167.767	294.756	292.678	165.454	169.595	172.252	176.668	289.977	172.574	-8191	255	
43208.945	1	1	0	0	0.092327	0.15284	0.22979	0.11984	0.1544	0.12139	0.11143	0.21964	0.19541	0.12633	0.061072	0.2336	0.14741	0.070089	0.21406	0.092125	-1.7437	-2.3979	-1.9188	-2.4604	-2.0771	-1.8521	-2.4729	-2.3396	-2.0896	-2.4104	-1.8792	-2.3896	-2.3625	-1.9167	-2.1063	-2.2396	208.796	297.512	449.745	171.689	465.008	467.046	480.902	459.429	486.013	323.623	178.862	355.243	489.256	445.857	266.029	427.195	0.00034978	0.0010011	0.00011551	846.27	4.1135e-06	2.9278e-06	655.31	295.86	4.6452e-06	5.087e-06	208.8	74.641	113.46	48.278	1.8184e-06	33.781	0.0010455	0.0047151	0.00056362	832.15	1.9618e-05	2.3288e-05	646.77	293.19	2.0822e-05	2.2833e-05	207.87	74.252	114.27	48.194	2.1016e-05	33.934	228.650	153.709	223.014	162.717	314.448	327.243	161.480	167.743	331.977	297.721	165.441	169.609	172.134	176.620	301.511	172.915	-8191	255	
43209.039	1	1	0	0	0.047343	0.16862	0.19136	0.10411	0.14507	0.26143	0.17531	0.26727	0.2256	0.15873	0.13732	0.085688	0.21267	0.2512	0.17858	0.02539	-1.5333	-2.5396	-2.0104	-2.2354	-2.2729	-2.025	-2.2896	-1.9896	-1.8167	-2.4062	-2.0812	-2.1604	-2.2375	-2.1063	-2.1604	-2.1896	503.805	479.762	336.040	356.271	190.516	447.237	150.432	172.490	363.459	481.545	393.442	360.509	210.768	495.000	411.525	325.173	0.00033338	0.00070782	0.00013726	844.69	2.1059e-06	3.489e-06	652.93	297.6	5.4618e-06	6.5745e-06	209.77	74.675	114.23	47.935	4.8229e-06	33.829	0.0010735	0.0040048	0.00058517	832.34	2.0548e-05	2.4074e-05	646.12	294.83	2.1583e-05	2.4086e-05	208.16	74.517	114.54	48.088	2.1559e-05	33.848	227.886	156.261	233.691	162.731	253.191	322.682	161.491	167.955	279.584	320.742	165.626	169.810	172.076	176.582	277.474	172.635	-8191	255	
43209.137	1	1	0	0	0.15588	0.10992	0.1322	0.40672	0.1764	0.12864	0.14582	0.092697	0.084186	0.089973	0.13828	0.21275	0.28645	0.18674	0.21616	0.03198	-1.4625	-2.3563	-2.1063	-2.0854	-2.375	-2.0604	-2.2583	-2.4542	-1.8667	-2.3708	-2.1396	-2.25	-2.4208	-2.0417	-2.35	-2.4042	357.752	300.028	165.959	500.023	470.114	277.146	443.259	346.881	344.346	473.646	339.311	458.808	424.982	477.268	204.020	178.798	0.00030018	0.00076515	4.3177e-05	849.79	3.7408e-06	3.2004e-06	655.06	296.91	3.3299e-06	1.3762e-06	211.07	75.013	113.31	48.337	1.7352e-06	34.262	0.0010817	0.0048246	0.00059972	833.82	2.007e-05	2.3262e-05	643.59	296.05	2.0865e-05	2.3437e-05	208.68	74.652	114.78	48.392	2.1891e-05	34.118	230.192	153.079	186.422	162.794	288.741	306.884	161.333	167.876	284.485	281.234	165.583	169.873	172.262	176.619	254.802	172.833	-8191	255	
43209.234	1	1	0	0	0.09101	0.070582	0.17173	0.15461	0.39236	0.23617	0.041188	0.22832	0.11551	0.075873	0.13247	0.29154	0.085487	0.43158	0.12797	0.23632	-1.5354	-2.5104	-2.1167	-2.0708	-2.4958	-2.2375	-2.2125	-2.5521	-2.0187	-2.4229	-2.2229	-1.8875	-2.2854	-2.2979	-2.0354	-2.2958	449.250	272.095	401.973	491.061	343.146	469.659	216.822	331.690	444.127	167.129	154.538	367.067	489.577	461.336	317.748	451.967	0.00032601	0.00084915	0.00012265	850.72	3.9742e-06	5.8205e-06	658.81	299.44	4.7276e-06	5.3535e-06	211.77	75.335	114.44	48.685	3.0233e-06	34.146	0.0010804	0.0040138	0.00061064	836.16	1.9719e-05	2.3148e-05	648.14	298.61	2.0982e-05	2.361e-05	210.35	74.982	115.07	48.517	2.2086e-05	34.216	229.725	171.946	244.182	162.706	277.171	291.327	161.492	167.893	310.575	311.033	165.770	169.513	172.043	176.646	277.424	172.826	-8191	255	
43209.328	1	1	0	0	0.30027	0.18738	0.1378	0.18972	0.23578	0.053465	0.10844	0.15997	0.18006	0.29535	0.21112	0.2781	0.20822	0.11228	0.14816	0.027607	-1.3542	-2.2646	-2.0771	-2.0729	-2.4708	-2.1333	-2.2083	-2.4458	-2.0292	-2.2521	-2.2687	-2.0875	-2.4021	-2.0563	-1.9458	-2.4458	447.372	304.111	230.610	479.450	208.083	302.332	423.886	361.270	433.316	350.226	489.123	191.227	500.627	235.598	160.198	331.607	0.00032274	0.00025532	0.00024204	845.99	4.0347e-06	4.9918e-06	652.53	296.6	5.2139e-06	3.5118e-06	210.53	74.507	112.44	47.875	3.4546e-06	33.653	0.0010711	0.0034296	0.00088715	833.85	1.956e-05	2.3894e-05	641.69	295.31	2.0293e-05	2.4203e-05	208.11	73.991	113.86	47.925	2.1738e-05	33.687	229.326	218.124	176.189	162.908	282.161	300.828	161.398	167.896	286.209	299.750	166.116	169.157	172.176	176.604	294.620	173.010	-8191	255	
43209.426	1	1	0	0	0.34116	0.31852	0.19754	0.44085	0.17735	0.13326	0.16426	0.31562	0.31037	0.16179	0.19095	0.11074	0.35319	0.14074	0.25443	0.12529	-1.4417	-2.2208	-2.2792	-2.0875	-2.2375	-2.075	-2.1125	-2.3958	-2.0438	-2.1208	-2.1854	-2.0438	-2.3875	-2.2417	-2.0104	-2.4083	495.261	328.031	228.179	491.141	262.093	428.263	443.567	476.883	235.420	503.740	508.398	460.776	486.349	433.541	354.191	437.802	0.00032115	0.00030066	0.00034833	841.34	2.9478e-06	5.5269e-06	648.2	295.95	2.5395e-06	5.1415e-06	208.95	73.375	112.2	47.908	3.853e-06	33.923	0.0010582	0.0020831	0.0011168	824.07	1.9092e-05	2.3809e-05	637.59	294.33	1.9992e-05	2.3739e-05	207.17	73.325	112.84	47.927	2.181e-05	33.807	220.278	235.118	193.562	162.838	302.743	269.624	161.260	167.779	303.924	315.954	165.690	169.363	172.154	176.619	315.968	172.754	-8191	255	
43209.523	1	1	0	0	0.12727	0.24298	0.10313	0.18645	0.15776	0.067808	0.24198	0.12992	0.083709	0.22911	0.16069	0.13185	0.06048	0.2306	0.10253	0.16306	-1.6896	-2.3875	-2.3063	-2.1312	-2.475	-2.2229	-2.2979	-2.6396	-2.1125	-2.2625	-2.5146	-1.9	-2.45	-2.3458	-1.9937	-2.5812	457.854	443.817	388.529	497.532	365.007	190.961	503.868	360.166	236.015	179.232	201.451	316.925	253.983	451.264	193.255	489.410	0.00031788	0.00050154	0.0003848	842.55	4.1005e-06	5.4118e-06	652.25	295.31	2.9001e-06	5.3617e-06	209.71	73.864	112.59	48.081	4.2977e-06	34.343	0.0010285	0.0020914	0.001334	826.77	1.9171e-05	2.3974e-05	639.56	294.14	1.9833e-05	2.3395e-05	207.95	73.801	113.09	48.403	2.148e-05	34.164	225.194	246.148	202.371	162.846	314.978	322.412	161.297	167.820	282.185	275.987	165.654	169.747	172.747	176.775	300.645	172.666	-8191	255	
43209.641	1	1	0	0	0.17414	0.27053	0.24366	0.094702	0.12976	0.17651	0.31092	0.17502	0.099902	0.22629	0.20069	0.22381	0.21179	0.080005	0.30695	0.023913	-1.525	-2.1458	-2.2479	-2.1521	-2.4083	-2.2042	-1.8917	-2.4458	-1.9958	-2.1792	-2.4771	-1.9542	-2.3354	-2.2396	-2.0646	-2.4646	303.989	463.852	152.489	201.883	164.756	345.394	398.070	175.543	169.997	212.013	286.488	301.480	200.105	500.951	424.749	158.624	0.00037615	0.00047703	0.0002566	847.99	1.4612e-06	1.7968e-06	657.28	297.58	4.3436e-06	4.2521e-06	211.72	75.338	113.64	48.542	4.0147e-06	34.564	0.001073	0.0020928	0.0011291	831.84	1.8833e-05	2.4351e-05	646.36	296.97	2.0812e-05	2.3829e-05	210.31	74.887	113.87	48.88	2.1369e-05	34.523	228.983	251.600	186.308	162.626	325.254	266.555	161.145	168.131	283.490	268.162	165.404	169.704	172.226	176.753	255.108	172.689	-8191	255	
43209.738	1	1	0	0	0.049781	0.17879	0.12177	0.27072	0.17533	0.23291	0.18647	0.12735	0.089226	0.077143	0.16083	0.088689	0.27393	0.067306	0.11977	0.12946	-1.7188	-1.9604	-2.3917	-2.1917	-2.2375	-2.2354	-1.8438	-2.3125	-2.0479	-2.0958	-2.3667	-2.0604	-2.3271	-2.4458	-1.8979	-2.3521	162.992	214.496	310.944	490.307	379.323	180.611	370.159	461.851	232.758	167.851	451.682	421.718	401.772	164.169	341.087	408.243	0.00032249	0.00022604	0.00040495	851.51	4.4454e-06	3.9287e-06	663.38	300.28	3.7485e-06	1.9448e-06	212.1	74.496	113.85	48.169	4.0796e-06	34.03	0.0010789	0.0021214	0.0013521	838.33	1.967e-05	2.3442e-05	649.77	298.68	2.0566e-05	2.3663e-05	209.82	74.636	113.61	48.729	2.0787e-05	34.117	223.322	252.207	191.588	163.028	277.255	342.282	161.474	167.863	267.388	247.407	165.260	169.296	172.367	176.447	310.796	172.799	-8191	255	
43209.809	1	1	0	0	0.17057	0.34775	0.26203	0.082831	0.17092	0.12392	0.13984	0.20042	0.21242	0.11283	0.27375	0.20431	0.20874	0.15876	0.29928	0.20078	-1.8083	-1.9188	-2.55	-2.2167	-2.1104	-2.3458	-2.0896	-2.3271	-2.1604	-1.8979	-2.4042	-2.2292	-2.2042	-2.3583	-1.9417	-2.3917	379.548	247.536	230.693	260.198	163.453	437.498	429.072	155.317	263.436	228.297	425.256	238.986	488.428	466.541	181.294	473.610	0.00032262	0.00021214	0.00039222	844.85	4.1341e-06	3.2973e-06	653.54	295.91	2.8888e-06	4.532e-06	209.51	74.201	113.16	47.835	5.7133e-06	33.988	0.0010797	0.0020101	0.0010753	830.59	1.8708e-05	2.3094e-05	640.19	294.17	3.2358e-05	2.2965e-05	206.9	73.913	112.71	48.054	2.137e-05	33.876	228.516	222.201	216.382	162.697	303.365	250.782	161.597	167.869	328.069	318.109	165.493	169.404	172.066	176.775	303.855	172.895	-8191	255	
43209.930	1	1	0	0	0.046244	0.050445	0.054252	0.052748	0.1547	0.23753	0.075417	0.097213	0.077508	0.2244	0.06558	0.14113	0.086057	0.3216	0.13717	0.13136	-1.7854	-2.0604	-2.3979	-2.2146	-2.0625	-2.5146	-2.1562	-2.4167	-2.3646	-1.9021	-2.5729	-2.0854	-2.1063	-2.4646	-1.9188	-2.1083	218.253	274.625	433.999	179.089	479.252	160.469	454.073	444.470	410.930	229.424	468.280	197.167	455.398	383.394	399.785	430.976	0.00034614	0.00040051	0.0002922	839.12	3.3237e-06	5.934e-06	645.4	294.29	3.9873e-06	6.1434e-06	211.06	74.413	113.23	47.893	3.1201e-06	33.727	0.0010897	0.0020981	0.0013155	824.95	1.9594e-05	2.3335e-05	637.51	291.7	3.9041e-05	2.3155e-05	208.09	74.334	113.03	48.142	2.1638e-05	33.828	228.696	245.296	222.579	162.819	298.679	297.597	161.356	167.844	330.827	279.595	165.642	169.835	172.337	176.575	297.330	172.976	-8191	255	
43210.027	1	1	0	0	0.055869	0.036092	0.1696	0.22883	0.18936	0.12149	0.09181	0.29478	0.024444	0.50358	0.17496	0.22526	0.23771	0.23237	0.17812	0.17285	-1.8417	-1.9271	-2.4229	-2.2979	-1.9292	-2.4646	-2.0938	-2.1708	-2.3312	-1.9917	-2.4292	-2.4021	-2.1979	-2.5771	-2.1562	-2.2062	248.079	154.615	436.966	498.818	244.714	429.359	156.236	156.534	269.277	480.337	390.124	210.965	461.456	293.282	310.838	359.439	0.00032742	0.00034285	0.00016624	839.61	1.2954e-06	3.8642e-06	647.95	297.04	7.3406e-06	3.0594e-06	212.32	75.192	114.05	47.958	3.7514e-06	33.991	0.0010687	0.002044	0.0010773	828.22	1.9453e-05	2.2819e-05	642.01	293.79	4.6016e-05	2.2895e-05	209.55	75.133	114.08	48.248	2.2109e-05	34.153	231.119	218.934	251.187	162.739	294.500	238.947	161.394	167.803	392.033	307.776	165.627	169.534	172.362	176.803	291.604	173.029	-8191	255	
43210.121	1	1	0	0	0.081933	0.049995	0.21844	0.25435	0.17964	0.25929	0.092511	0.15077	0.12072	0.1616	0.0070076	0.058606	0.18099	0.15439	0.11208	0.22287	-1.8729	-1.8375	-2.3583	-2.2667	-2.0958	-2.3375	-2.1625	-2.1104	-2.4979	-2.0292	-2.1875	-2.475	-1.8438	-2.5771	-2.0896	-2.1521	393.536	262.946	212.020	213.891	279.504	328.297	487.161	393.734	168.257	266.010	152.374	332.750	159.353	465.521	379.923	446.714	0.00034575	0.0003713	0.00021541	846.57	4.1649e-06	4.7333e-06	659.76	297.45	2.7516e-06	2.4043e-06	213.62	76.055	114.57	47.855	2.3115e-06	33.97	0.0010738	0.0021179	0.00084484	833.43	1.9877e-05	2.3125e-05	646.4	295.1	3.8974e-05	2.3413e-05	211.6	75.966	114.42	48.271	2.2384e-05	33.939	229.039	234.617	261.292	162.550	293.488	309.307	161.406	167.643	347.131	251.312	165.655	169.609	172.203	176.718	280.340	172.677	-8191	255	
43210.242	1	1	0	0	0.13978	0.21478	0.19486	0.22777	0.32945	0.1355	0.15621	0.17427	0.12393	0.20732	0.1557	0.050446	0.11666	0.058112	0.16593	0.32575	-1.9188	-1.6604	-2.1708	-2.3563	-1.7917	-2.5146	-2.3063	-2.0354	-2.3396	-1.9146	-2.2729	-2.3688	-1.9333	-2.3396	-2.2125	-2.1104	344.765	335.954	173.112	250.166	186.157	293.102	451.310	474.785	196.445	186.579	465.101	465.392	164.370	436.876	446.495	364.317	0.00032487	0.00033901	5.2287e-05	842.53	3.0348e-06	5.3498e-06	651.11	295.79	4.5072e-06	3.5749e-06	210.01	74.972	114.14	47.462	5.3866e-06	33.793	0.0010383	0.0021189	0.00059018	832	1.9066e-05	2.3141e-05	640.16	293.55	4.5024e-05	2.3065e-05	208	74.783	113.77	47.699	2.1575e-05	33.703	234.047	241.126	253.554	162.635	330.443	309.959	161.383	167.923	392.785	293.452	165.702	169.096	172.284	176.734	295.522	172.630	-8191	255	
43210.340	1	1	0	0	0.17054	0.053998	0.25382	0.27976	0.23213	0.11083	0.036624	0.17755	0.22769	0.13016	0.20389	0.097845	0.28133	0.23774	0.080896	0.14612	-1.8708	-1.9979	-2.1292	-2.4542	-1.9167	-2.2979	-2.1688	-1.8687	-2.3667	-1.9604	-2.1312	-2.5604	-1.9937	-2.3104	-2.3146	-2.1229	210.372	477.404	327.054	313.816	234.813	437.952	347.111	502.679	381.919	477.013	315.028	163.377	182.973	466.015	439.094	443.729	0.00033902	0.00058007	0.00014478	841.33	3.3259e-06	3.6315e-06	645.6	296.09	5.9643e-06	2.7476e-06	210.17	75.299	113.99	47.637	1.3378e-05	33.588	0.0010483	0.002062	0.00056386	832.01	1.8595e-05	2.3152e-05	638.17	292.93	3.7312e-05	2.332e-05	208.56	74.997	113.92	47.575	3.6692e-05	33.661	224.093	213.763	226.736	162.702	316.572	288.680	161.242	167.720	391.458	281.473	165.613	169.502	171.997	176.747	213.900	172.807	-8191	255	
43210.410	1	1	0	0	0.11942	0.40011	0.017536	0.10677	0.17586	0.090504	0.16586	0.18983	0.095885	0.1019	0.13574	0.14215	0.21721	0.20342	0.27145	0.18789	-1.8979	-1.9729	-1.9958	-2.3521	-1.9396	-2.3979	-2.3771	-1.9104	-2.1646	-2.1292	-2.2833	-2.5708	-1.9979	-2.2438	-2.2271	-1.8438	466.007	237.061	276.621	447.550	163.309	246.494	174.762	474.780	491.047	430.143	234.923	418.369	352.746	399.503	218.739	449.398	0.00032259	0.00070625	7.7668e-05	840.11	3.0379e-06	5.1631e-06	651.43	298.27	7.0241e-06	8.8194e-07	212.47	75.921	114.88	47.411	7.8148e-06	33.979	0.0010195	0.0020406	0.0005829	830.17	1.8989e-05	2.3299e-05	640.56	294.96	4.5673e-05	2.3622e-05	210.02	75.866	114.83	47.69	4.1538e-05	33.968	230.481	217.837	251.466	162.741	343.592	334.011	161.281	168.076	409.461	283.777	165.691	169.815	171.922	176.423	217.995	172.899	-8191	255	
43210.531	1	1	0	0	0.15437	0.10949	0.16243	0.10503	0.21858	0.20967	0.17424	0.25645	0.08645	0.27291	0.076052	0.14343	0.18099	0.26139	0.091519	0.020794	-1.9479	-1.9396	-1.9646	-2.4	-2	-2.2646	-2.3312	-1.9917	-2.2604	-2.2812	-1.9917	-2.3563	-2.1083	-2.1417	-2.3833	-2.0062	303.332	434.030	394.386	458.500	155.624	371.180	180.429	494.175	293.498	414.115	205.285	362.330	407.954	485.294	415.100	336.466	0.00033894	0.00021527	0.00015067	846.08	6.008e-06	4.8527e-06	656.65	298.66	6.4568e-06	5.6589e-06	214.61	77.179	115.5	47.715	8.6079e-06	34.177	0.0010663	0.0021617	0.00058592	835.69	1.9662e-05	2.4034e-05	645.14	295.94	3.6061e-05	2.4496e-05	211.63	76.476	115.43	47.798	4.969e-05	34.203	227.245	299.027	209.386	162.803	315.286	297.201	161.357	167.968	361.844	292.811	165.666	169.754	172.616	176.701	222.406	172.789	-8191	255	
43210.625	1	1	0	0	0.27781	0.20646	0.22901	0.25013	0.16047	0.29306	0.076145	0.15293	0.23336	0.070242	0.12754	0.091893	0.15806	0.29052	0.24667	0.26652	-1.9146	-2.0708	-1.8875	-2.6937	-2.075	-2.0417	-2.4729	-1.9896	-2.1479	-2.2062	-2.0104	-2.3625	-2.1604	-2.1542	-2.3583	-2.1729	301.817	453.987	173.658	396.688	189.006	494.574	378.322	447.074	231.114	236.708	424.029	349.968	501.012	476.939	246.691	176.280	0.00033639	0.00050799	0.00016616	844.91	2.2615e-06	4.114e-06	652.68	297.95	6.1474e-06	5.0585e-06	211.51	76.184	114.81	47.38	4.6786e-06	33.615	0.0010656	0.0021458	0.00057766	833.79	1.9367e-05	2.4216e-05	641.97	294.28	2.686e-05	4.17e-05	209.56	75.73	114.83	47.507	3.9349e-05	33.686	229.674	264.078	256.536	162.733	284.087	312.183	161.104	167.886	406.451	508.477	165.363	169.467	172.173	176.589	253.177	172.985	-8191	255	
43210.723	1	1	0	0	0.099834	0.33604	0.17332	0.081086	0.14214	0.2707	0.22159	0.18013	0.35711	0.047602	0.21263	0.3021	0.063579	0.10016	0.13137	0.20026	-1.8729	-2.2042	-1.8937	-2.5583	-2.2646	-1.9646	-2.6188	-2.225	-2.1375	-2.2333	-1.9396	-2.4333	-2.2125	-2.0396	-2.4229	-2.125	208.764	301.594	217.756	467.670	308.084	203.236	430.853	432.404	301.170	188.605	263.203	503.312	209.538	422.366	318.572	162.970	0.00032509	0.00017587	5.9966e-05	842.25	4.5283e-06	3.8961e-06	649.85	295.64	3.8777e-06	4.6615e-06	210.04	76.04	114.81	47.467	9.4773e-06	33.547	0.0010477	0.0020784	0.00057025	831.71	1.9551e-05	2.2772e-05	638.26	293.15	2.0776e-05	4.4803e-05	208.54	75.499	114.49	47.425	4.8508e-05	33.613	229.146	205.937	252.087	162.752	290.974	302.945	161.464	167.789	331.186	350.164	165.609	169.532	172.177	176.611	223.900	172.688	-8191	255	
43210.816	1	1	0	0	0.14983	0.018173	0.11417	0.19858	0.13064	0.076272	0.082003	0.31982	0.1936	0.11844	0.1883	0.22804	0.056531	0.11216	0.091197	0.1552	-1.7208	-2.2271	-1.7021	-2.425	-2.2167	-1.9688	-2.6771	-2.1146	-2.0729	-2.3521	-1.8	-2.4229	-2.0708	-2.2208	-2.075	-2.0979	488.604	437.955	244.509	196.452	224.999	332.451	432.967	419.514	264.391	296.640	199.273	395.043	470.410	244.225	446.185	406.218	0.00030712	0.00028934	5.2126e-05	841.31	3.9064e-06	1.1535e-06	651.54	298.15	3.7259e-06	8.1279e-06	212.8	76.483	115.9	47.53	1.1586e-05	33.728	0.0010481	0.0020817	0.00056923	828.65	2.0047e-05	2.3375e-05	639.1	294.32	2.0436e-05	5.4005e-05	210.27	76.141	115.31	47.463	4.0746e-05	33.822	225.019	246.881	268.695	162.783	281.762	282.901	161.428	167.860	296.377	421.325	165.633	169.361	171.995	176.653	233.746	172.614	-8191	255	
43210.914	1	1	0	0	0.23213	0.14275	0.28951	0.16764	0.14521	0.10934	0.24939	0.2656	0.12104	0.038324	0.10159	0.055693	0.068947	0.14373	0.39406	0.22989	-1.5604	-2.125	-1.8479	-2.3688	-2.1437	-1.9708	-2.5021	-2.0792	-2.1271	-2.4917	-2.0479	-2.2938	-2.1437	-1.9604	-2.45	-2.0771	233.910	354.047	296.050	461.875	365.696	360.840	189.392	417.219	180.509	232.183	430.879	429.993	176.247	185.482	309.426	410.431	0.00033378	0.0005423	9.8585e-05	845.83	6.8106e-06	4.0517e-06	655.15	298.8	3.6384e-06	6.0121e-06	213.61	76.854	115.76	47.585	1.0359e-05	34.154	0.0010628	0.0020919	0.00059004	831.73	3.5199e-05	2.3134e-05	644.16	296.15	2.0387e-05	4.5009e-05	211.21	76.542	116.06	47.797	4.8463e-05	34.224	227.714	223.361	195.893	162.826	313.739	296.564	161.135	167.794	309.865	427.811	165.519	169.360	172.170	176.829	228.359	173.150	-8191	255	
43211.035	1	1	0	0	0.16691	0.24014	0.14561	0.15192	0.10522	0.090097	0.12508	0.24901	0.21133	0.1655	0.099792	0.32693	0.19995	0.23124	0.16997	0.25265	-1.5167	-2.3417	-2.0062	-2.1917	-2.1604	-1.8604	-2.3563	-2.25	-2.0396	-2.2583	-2.0292	-2.1333	-2.3021	-1.9646	-2.4042	-2.0479	502.692	476.996	499.010	474.998	220.739	378.315	403.712	424.859	325.544	382.337	213.113	441.469	174.621	174.082	375.727	179.901	0.00035652	0.00032347	8.4184e-05	852.39	1.0061e-05	3.3346e-06	654.92	300.03	2.1392e-06	8.0526e-06	213.82	77.138	115.61	47.32	3.5139e-07	33.953	0.0010601	0.0020701	0.00060002	834.3	3.7603e-05	2.3203e-05	646.36	297.26	2.0558e-05	5.2929e-05	211.38	76.728	115.58	47.442	3.6152e-05	33.842	227.810	259.015	248.649	162.643	339.520	292.117	161.454	167.877	296.692	437.937	165.557	169.315	172.169	176.751	286.346	172.775	-8191	255	
43211.105	1	1	0	0	0.22423	0.13623	0.11073	0.21551	0.25008	0.25176	0.013206	0.37041	0.089204	0.27512	0.24124	0.14475	0.24015	0.14325	0.045216	0.17332	-1.5833	-2.4708	-1.9312	-2.1625	-2.3667	-1.8792	-2.1521	-2.2562	-1.9375	-2.2958	-2.1333	-2.1063	-2.2583	-2.2333	-2.2375	-2.3854	388.123	267.303	362.300	382.467	400.139	322.852	431.712	430.639	507.894	488.405	423.017	248.949	418.498	258.965	409.462	376.703	0.00032773	0.00040448	8.9171e-05	838.71	1.2634e-05	7.9168e-06	652.99	296.94	4.9407e-06	4.7564e-06	210.69	76.439	115.33	47.31	3.7564e-06	33.743	0.0010492	0.0021109	0.00059876	827.06	4.3679e-05	2.3193e-05	639.32	294.4	2.02e-05	4.4749e-05	209.24	75.787	114.83	47.23	2.5914e-05	33.977	230.028	230.765	220.953	162.758	332.665	293.716	161.615	167.909	303.300	500.411	165.326	169.640	172.118	176.713	391.365	172.677	-8191	255	
43211.203	1	1	0	0	0.1006	0.2253	0.14002	0.2034	0.14405	0.20358	0.10721	0.12407	0.020728	0.084082	0.23265	0.25264	0.0075627	0.19297	0.30143	0.1206	-1.5271	-2.3542	-1.8979	-2.0104	-2.55	-2.0208	-2.3125	-2.35	-2.1271	-2.3417	-2.2	-2.1125	-2.2833	-2.025	-1.9125	-2.2958	364.589	284.973	406.332	181.047	253.435	459.699	475.248	171.808	507.139	284.400	402.405	162.555	326.260	443.442	399.109	404.361	0.00032922	0.00043726	0.00012295	836.78	9.9061e-06	5.5089e-06	643.02	295.94	4.916e-06	8.3376e-06	210.94	75.575	114.06	46.949	6.5101e-06	33.726	0.0010283	0.0020509	0.00058114	823.2	3.6052e-05	2.3362e-05	635.25	293.21	1.9952e-05	5.3418e-05	208.76	75.378	113.93	47.11	2.0895e-05	34.012	229.503	220.771	229.626	162.688	358.483	310.823	161.409	167.756	308.255	467.287	165.281	169.514	172.060	176.745	282.984	172.748	-8191	255	
43211.324	1	1	0	0	0.12042	0.065523	0.051918	0.23821	0.25598	0.036737	0.21793	0.14584	0.25239	0.14743	0.11461	0.15261	0.10172	0.12416	0.27388	0.3282	-1.3708	-2.3563	-1.9521	-2.0479	-2.4	-1.9542	-2.2729	-2.4771	-1.9729	-2.3917	-2.4292	-1.9521	-2.5896	-1.7979	-1.9604	-2.35	163.871	293.077	387.898	446.096	292.327	326.669	415.172	201.063	203.275	238.204	351.042	419.158	167.194	462.204	183.488	391.305	0.0003125	0.00035474	0.00015147	833.46	1.1693e-05	3.3152e-06	648.17	295.1	4.3816e-06	5.672e-06	211.13	75.901	114.39	47.122	2.3057e-06	33.867	0.001037	0.0021326	0.00057857	820.26	4.3431e-05	2.2848e-05	635.93	292.21	2.0636e-05	3.8357e-05	209.39	75.513	114.31	47.26	2.0739e-05	34.317	227.226	256.040	225.738	162.647	354.078	273.636	161.622	167.957	311.025	431.577	165.713	169.776	172.309	176.772	278.131	173.260	-8191	255	
43211.418	1	1	0	0	0.078683	0.2377	0.21309	0.21013	0.094806	0.16007	0.19361	0.060555	0.28002	0.27446	0.17888	0.18159	0.16261	0.076049	0.12288	0.23358	-1.4521	-2.3521	-2.2396	-2.1229	-2.4771	-1.9729	-1.9979	-2.3167	-2.0187	-2.1042	-2.3312	-1.9625	-2.325	-2.0667	-2.1271	-2.4167	439.978	354.049	391.356	485.494	474.838	406.910	183.688	424.918	195.399	268.500	455.079	255.398	450.915	469.604	460.288	154.000	0.00032539	0.00045892	8.532e-05	837.58	7.4699e-06	3.4856e-06	647.74	295.3	3.712e-06	8.5365e-06	211.95	76.113	114.74	47.381	3.3857e-06	34.02	0.0010533	0.0020231	0.00057878	824.62	3.6033e-05	2.2943e-05	638.61	292.64	1.9595e-05	2.5697e-05	211.76	75.737	114.75	47.427	2.0224e-05	34.127	229.013	272.873	276.217	162.761	343.258	309.646	161.568	167.988	282.987	408.361	165.403	169.791	172.192	176.829	280.047	172.611	-8191	255	
43211.512	1	1	0	0	0.2018	0.14114	0.09049	0.20066	0.092249	0.097763	0.1281	0.18684	0.24465	0.25445	0.26141	0.069732	0.18139	0.16628	0.14134	0.14563	-1.4667	-2.2792	-2.2396	-1.8125	-2.2854	-2.1917	-2.1708	-2.2208	-1.9625	-2.025	-2.4042	-1.9188	-2.1583	-2.2396	-1.9937	-2.5292	326.295	184.252	194.473	180.869	394.114	206.016	167.738	505.010	298.527	223.328	400.766	455.099	401.027	203.087	151.003	379.368	0.00035726	0.00013284	6.4754e-05	835.84	9.4558e-06	3.8441e-06	639.81	292.5	3.5266e-06	3.628e-06	207.27	74.685	113.36	46.715	5.3904e-06	33.144	0.001051	0.0019765	0.00055856	820.72	4.205e-05	2.2689e-05	630.51	290	1.9312e-05	2.2232e-05	208.21	74.472	112.75	46.66	1.9961e-05	33.518	227.495	169.086	320.074	162.915	368.368	262.116	161.209	167.668	304.508	295.356	165.383	169.886	172.324	176.527	280.732	173.070	-8191	255	
43211.609	1	1	0	0	0.18188	0.15986	0.29096	0.2069	0.15458	0.22891	0.26582	0.1044	0.39003	0.24727	0.19702	0.39925	0.41118	0.12855	0.18472	0.13517	-1.6333	-2	-2.3542	-2.1	-2.2812	-2.3292	-2.1729	-2.4208	-1.9438	-2.2083	-2.5042	-1.9167	-2.2812	-2.3958	-1.7896	-2.3792	294.759	212.533	432.217	494.576	442.703	375.043	206.593	504.514	215.699	297.550	481.764	150.212	150.753	492.838	204.498	357.958	0.00033402	0.00082005	7.6305e-05	831.05	4.7704e-06	3.5501e-06	635.12	291.59	3.2358e-06	2.2297e-06	205.97	73.791	112.33	45.864	3.1277e-06	32.615	0.0010086	0.001955	0.00055054	814.72	2.9783e-05	2.5564e-05	626.12	288.65	1.9266e-05	2.1519e-05	207.34	73.547	111.91	45.989	1.9701e-05	32.952	222.355	221.262	237.628	162.933	347.970	301.734	161.415	167.826	287.672	299.940	165.535	169.693	172.283	176.542	285.704	172.882	-8191	255	
43211.707	1	1	0	0	0.31036	0.26356	0.17828	0.13493	0.13292	0.31164	0.098109	0.47547	0.3136	0.11088	0.015027	0.099692	0.22711	0.39839	0.18202	0.20054	-1.5604	-2.1458	-2.4583	-1.9792	-2.2458	-2.2146	-2.0708	-2.3125	-2.0958	-2.1333	-2.4188	-1.8917	-2.3896	-2.3896	-1.8458	-2.5646	343.170	175.523	450.390	403.671	490.106	413.249	465.690	463.467	321.361	193.396	486.445	365.708	485.418	189.855	258.324	174.990	0.0003113	0.0003286	0.00011079	825.95	8.8535e-06	6.3658e-07	632.39	289.73	3.5088e-06	2.2448e-06	206.16	73.589	111.26	45.441	2.4746e-06	32.605	0.0010111	0.0018706	0.00053034	812.14	1.971e-05	4.4831e-05	624.62	287.07	1.9407e-05	2.1051e-05	206.22	73.299	111.18	45.475	1.9576e-05	32.78	227.061	252.977	255.353	162.852	381.836	214.899	161.427	167.963	288.839	249.004	165.431	169.788	172.249	176.419	320.232	173.143	-8191	255	
43211.801	1	1	0	0	0.15609	0.3836	0.21323	0.10609	0.17113	0.064053	0.17747	0.17101	0.22449	0.3137	0.226	0.3558	0.27293	0.25298	0.11064	0.19165	-1.6625	-1.8229	-2.35	-2.0417	-2.3104	-2.1292	-1.9375	-2.3958	-2.1937	-2.0646	-2.3833	-2.1375	-2.3937	-2.425	-1.9562	-2.3625	288.438	246.008	269.133	172.358	233.775	505.398	459.846	465.438	354.442	398.869	181.208	495.451	405.840	187.055	186.604	227.551	0.00030054	0.00033487	7.9001e-05	822.61	2.542e-06	1.1217e-05	634.11	290.04	4.1222e-06	5.1302e-06	206.48	73.622	110.8	45.18	3.4281e-06	32.467	0.00099789	0.0018822	0.00053026	808.35	1.811e-05	4.2331e-05	624.82	286.43	1.881e-05	2.1757e-05	207.54	73.266	110.58	45.372	2.0541e-05	32.67	227.022	250.124	203.387	162.635	323.251	389.054	161.326	167.549	277.140	332.018	165.419	169.506	172.481	176.892	293.564	172.932	-8191	255	
43211.922	1	1	0	0	0.18466	0.33613	0.10523	0.035467	0.2523	0.11565	0.084467	0.2753	0.14906	0.17345	0.24816	0.14134	0.20968	0.17555	0.092011	0.0048908	-1.7146	-1.925	-2.4667	-2.2	-2.0146	-2.4292	-1.9729	-2.2125	-2.125	-1.975	-2.3646	-2.1312	-1.8604	-2.3979	-1.8542	-2.3604	223.746	492.133	185.024	256.591	477.525	203.219	176.550	413.456	458.219	239.666	403.451	406.483	478.772	368.298	481.855	231.692	0.00035148	0.00043217	0.0001511	822.8	3.9735e-06	1.2005e-05	636.18	287.96	4.8575e-06	1.5956e-06	204.91	72.949	110.06	44.969	4.8455e-06	31.974	0.0011481	0.0019357	0.00055845	808.33	1.7973e-05	5.1603e-05	623.14	285.18	1.873e-05	2.1345e-05	204.95	72.669	110.07	45.003	2.0109e-05	31.941	225.977	247.270	213.333	162.746	302.819	371.528	161.279	168.032	300.209	301.970	165.430	169.594	172.385	176.517	322.080	172.893	-8191	255	
43212.020	1	1	0	0	0.21784	0.045284	0.11296	0.20456	0.26787	0.047398	0.21196	0.25179	0.12912	0.26273	0.26099	0.30107	0.3468	0.1455	0.19321	0.2468	-1.7958	-1.9208	-2.2979	-2.3542	-2.125	-2.3125	-2.1958	-2.3	-2.1271	-1.9229	-2.4271	-2.1833	-2.1396	-2.7188	-2.1	-2.1354	329.012	215.208	505.500	454.868	190.242	333.114	158.933	475.658	401.196	298.701	424.086	426.922	502.971	430.829	401.374	413.063	0.00041366	0.00035022	1.8784e-05	818.3	2.5913e-06	9.4653e-06	630.13	287.8	5.2914e-06	3.5906e-06	205.35	72.324	110.39	45.005	2.5071e-06	31.891	0.0018334	0.0019152	0.00054457	803.94	1.7943e-05	4.2099e-05	620.3	284.71	1.8942e-05	2.1674e-05	205.47	72.545	110.29	45.039	2.0564e-05	31.988	227.094	249.159	281.476	162.572	262.190	368.874	161.354	167.892	299.239	329.068	165.757	169.544	172.200	176.531	272.959	172.988	-8191	255	
43212.113	1	1	0	0	0.10583	0.074515	0.28195	0.17496	0.11213	0.115	0.23642	0.072708	0.035264	0.15048	0.21565	0.096648	0.1474	0.23569	0.069614	0.10871	-1.7812	-1.8792	-2.2979	-2.4354	-1.9333	-2.3792	-1.9917	-2.2917	-2.1813	-1.9229	-2.3583	-2.4208	-2.2229	-2.3271	-2.0812	-2.0875	205.038	228.515	353.932	480.831	320.452	205.673	302.664	403.888	398.545	151.253	300.083	235.836	363.805	498.369	167.347	443.232	0.00036869	0.00069645	0.00011851	813.93	4.2641e-06	9.308e-06	631.45	287.68	4.4629e-06	5.3091e-06	207.84	73.584	110.62	45.243	2.8561e-06	32.549	0.0017252	0.0019735	0.00054872	802.71	1.8317e-05	5.1224e-05	622.62	284.93	1.9375e-05	2.2826e-05	205.89	73.573	110.61	45.393	2.0572e-05	32.575	234.748	235.770	239.399	162.601	292.048	388.250	161.191	167.689	288.279	293.293	165.652	169.454	172.459	176.900	254.014	172.808	-8191	255	
43212.211	1	1	0	0	0.37575	0.22173	0.22734	0.19184	0.26709	0.10326	0.16942	0.36616	0.2023	0.05195	0.083	0.11919	0.19348	0.25726	0.16015	0.099651	-1.9521	-1.9229	-2.3021	-2.2625	-2.0375	-2.2938	-2.2042	-2.2042	-2.4583	-2.125	-2.3063	-2.3396	-2.075	-2.3167	-2.1292	-2.0104	488.677	366.411	360.123	432.788	252.118	501.227	189.201	487.676	196.877	383.041	427.155	254.598	474.599	269.611	234.450	509.244	0.00041541	0.00048692	0.00011772	822.32	5.5831e-06	7.9658e-06	636.46	291.23	4.6169e-06	2.1181e-06	209.53	74.942	112.48	46.228	5.6365e-07	33.546	0.0020847	0.0020492	0.00055305	808.39	1.8918e-05	4.3833e-05	627.94	288.09	2.0086e-05	2.3433e-05	207.8	75.497	112.29	46.306	2.1738e-05	33.448	239.446	251.967	222.621	162.874	282.872	397.680	161.781	167.742	295.820	354.887	165.509	169.521	172.346	176.836	280.892	172.915	-8191	255	
43212.332	1	1	0	0	0.2207	0.35805	0.25246	0.047452	0.1505	0.15146	0.39383	0.14111	0.012488	0.32426	0.28982	0.37087	0.27478	0.2799	0.20142	0.3319	-1.9854	-2.0458	-2.2396	-2.4104	-1.8396	-2.4333	-2.2479	-2.1417	-2.4208	-1.9542	-2.0479	-2.2375	-1.975	-2.4021	-2.1979	-1.9333	423.609	249.812	185.179	394.358	384.890	215.309	415.358	376.812	350.224	334.343	357.399	506.505	410.730	484.588	341.037	280.194	0.00036112	0.00010785	0.00014539	831.59	8.6915e-07	9.2559e-06	649.59	292.22	4.8218e-06	2.7206e-06	211.09	75.535	112.92	46.662	5.9009e-06	33.587	0.0018434	0.0020757	0.00057461	816	1.9075e-05	5.3215e-05	637.57	290.17	1.9662e-05	2.3512e-05	209.65	76.228	112.85	46.713	2.0572e-05	33.481	236.197	290.726	239.076	162.975	250.597	441.722	161.339	168.082	292.186	257.682	165.665	169.497	172.360	176.929	275.977	173.036	-8191	255	
43212.402	1	1	0	0	0.18355	0.12138	0.47512	0.127	0.13039	0.13824	0.19756	0.36485	0.2828	0.32759	0.25943	0.18762	0.14243	0.043422	0.10857	0.2657	-1.8813	-2.0646	-2.2917	-2.3	-1.9271	-2.1375	-2.25	-1.9062	-2.3771	-2.0458	-2.0521	-2.4167	-1.9979	-2.3042	-2.1646	-1.8396	278.678	154.919	220.178	450.925	294.124	387.170	414.234	167.865	405.709	256.577	191.837	448.917	477.190	447.100	477.433	413.858	0.00038492	0.00036845	0.00018336	826.28	3.8703e-07	1.2611e-05	644.35	293.23	4.641e-06	2.9413e-06	209.75	75.176	112.87	46.38	3.2482e-06	33.389	0.002087	0.0020423	0.00056525	812.94	1.8678e-05	3.4763e-05	633.55	289.69	2.0027e-05	2.3502e-05	207.76	75.766	112.29	46.486	2.0364e-05	33.356	239.680	262.987	262.028	162.955	235.502	390.319	161.611	167.697	268.023	322.300	166.120	169.726	172.417	176.983	283.421	172.943	-8191	255	
43212.500	1	1	0	0	0.097168	0.1237	0.2166	0.094564	0.11506	0.14258	0.053482	0.01994	0.026111	0.38728	0.22771	0.059161	0.1338	0.10798	0.2811	0.27456	-1.9604	-2.0375	-1.9312	-2.5104	-1.9208	-2.3229	-2.3021	-1.9833	-2.2667	-2.3271	-2.1312	-2.5417	-2.0438	-2.2333	-2.125	-2.0312	509.711	363.844	190.478	376.371	256.601	313.504	395.328	502.115	304.471	175.737	161.067	374.922	360.703	460.695	449.608	455.298	0.00039105	0.00051477	6.9892e-05	826.35	3.0239e-06	3.2473e-06	644.65	292.62	4.162e-06	3.7045e-06	211.37	74.864	112.74	46.496	3.0506e-06	33.481	0.001827	0.0020942	0.00055452	812.65	1.949e-05	2.2878e-05	639.11	289.57	2.0324e-05	2.3072e-05	208.69	75.64	112.66	46.651	2.0439e-05	33.594	229.394	228.965	226.341	162.705	290.971	353.871	161.433	167.895	253.993	320.420	165.699	169.488	172.212	177.021	275.542	173.094	-8191	255	
43212.617	1	1	0	0	0.25077	0.36778	0.2469	0.2356	0.26373	0.2158	0.10926	0.19933	0.22704	0.068305	0.20109	0.048932	0.080293	0.17885	0.28499	0.066262	-2.0958	-2.2208	-1.9667	-2.525	-2.025	-2.0187	-2.3271	-2.1458	-2.2708	-2.3417	-1.9458	-2.3563	-2.0375	-2.2042	-2.4562	-2.1063	253.877	295.407	398.227	159.683	369.838	290.348	491.134	485.581	343.766	276.675	181.092	481.115	318.381	429.371	351.354	276.055	0.00038907	0.00041256	0.00014712	830.95	3.6169e-06	7.2547e-06	646.46	294.45	2.9333e-06	4.5096e-06	211.81	76.268	114.64	47.219	4.4891e-06	34.302	0.0021373	0.0020567	0.00056752	818.24	1.9274e-05	2.2757e-05	641.55	292.13	2.0282e-05	2.2787e-05	210.71	77.114	114.14	47.185	2.0675e-05	34.123	243.918	183.068	253.019	162.789	282.391	301.152	161.376	167.863	320.206	276.579	165.879	169.417	172.290	176.504	272.583	172.657	-8191	255	
43212.715	1	1	0	0	0.078905	0.17833	0.014758	0.15138	0.2445	0.11547	0.15086	0.29829	0.058968	0.29411	0.20586	0.16624	0.22878	0.16808	0.17682	0.081455	-1.8229	-2.1854	-2.2625	-2.2167	-2.1083	-2.0604	-2.3563	-2.0271	-2.3646	-2.1167	-2.075	-2.2979	-2.1146	-2.2271	-2.3125	-2.0625	318.953	491.338	246.573	500.142	376.663	202.061	358.100	452.260	219.630	271.901	176.935	494.707	166.059	201.776	412.001	376.059	0.00032834	0.00091958	0.00014754	835.05	3.0119e-06	5.2484e-06	651.8	296.36	3.93e-06	3.0471e-06	214.38	76.689	115.3	47.474	1.9555e-06	34.258	0.0014501	0.0026153	0.00056773	823.44	1.9654e-05	2.2525e-05	649.12	293.87	2.0164e-05	2.2742e-05	212.6	77.292	114.7	47.491	2.1471e-05	34.417	237.087	226.801	239.628	162.758	309.578	349.383	161.404	167.894	295.903	263.073	165.394	169.319	172.072	176.875	275.791	173.151	-8191	255	
#DATA ENDS
