BOXY.EXE: ISS Imagent and Oximeter Data Acquisition Program Version 0.80
Ascii Record File

#ACQ INFORMATION
2  Detector Channels 
16  External MUX Channels 
1  Auxiliary Channels 
5000  Waveform (CCF) Frequency (Hz)
1  Waveforms Skipped 
30  Waveforms Averaged 
1  Cycles Averaged 
16  Acquisitions per Waveform 
10.0806  Updata Rate (Hz) 

#FILE INFORMATION
TRUE -- External MUX Channel results are PARSED.
FALSE -- AC DC and Phase are NOT grouped.
TRUE -- Companion Program Settings File CREATED.
FALSE -- AC data not excluded
FALSE -- DC data not excluded
FALSE -- Phase data not excluded
FALSE -- Auxillary Chn. data not excluded
Tab delimiters

#CALIBRATION STATE
TRUE -- Waveform Calibration Values APPLIED.


#AUX CALIBRATION VALUES
Val Type	aux-1	

Term	1.0000e+00	
Factor	0.0000e+00	


#WF CALIBRATION VALUES
A = Detector Channel
Val Type	A-AC1	A-AC2	A-AC3	A-AC4	A-AC5	A-AC6	A-AC7	A-AC8	A-AC9	A-AC10	A-AC11	A-AC12	A-AC13	A-AC14	A-AC15	A-AC16	A-DC1	A-DC2	A-DC3	A-DC4	A-DC5	A-DC6	A-DC7	A-DC8	A-DC9	A-DC10	A-DC11	A-DC12	A-DC13	A-DC14	A-DC15	A-DC16	A-Ph1	A-Ph2	A-Ph3	A-Ph4	A-Ph5	A-Ph6	A-Ph7	A-Ph8	A-Ph9	A-Ph10	A-Ph11	A-Ph12	A-Ph13	A-Ph14	A-Ph15	A-Ph16	

Term	0.00000e+00	0.00000e+00	0.00000e+00	0.00000e+00	0.00000e+00	0.00000e+00	0.00000e+00	0.00000e+00	0.00000e+00	0.00000e+00	0.00000e+00	0.00000e+00	0.00000e+00	0.00000e+00	0.00000e+00	0.00000e+00	0.00000e+00	0.00000e+00	0.00000e+00	0.00000e+00	0.00000e+00	0.00000e+00	0.00000e+00	0.00000e+00	0.00000e+00	0.00000e+00	0.00000e+00	0.00000e+00	0.00000e+00	0.00000e+00	0.00000e+00	0.00000e+00	0.00000e+00	0.00000e+00	0.00000e+00	0.00000e+00	0.00000e+00	0.00000e+00	0.00000e+00	0.00000e+00	0.00000e+00	0.00000e+00	0.00000e+00	0.00000e+00	0.00000e+00	0.00000e+00	0.00000e+00	0.00000e+00	
Factor	1.00000e+00	1.00000e+00	1.00000e+00	1.00000e+00	1.00000e+00	1.00000e+00	1.00000e+00	1.00000e+00	1.00000e+00	1.00000e+00	1.00000e+00	1.00000e+00	1.00000e+00	1.00000e+00	1.00000e+00	1.00000e+00	1.00000e+00	1.00000e+00	1.00000e+00	1.00000e+00	1.00000e+00	1.00000e+00	1.00000e+00	1.00000e+00	1.00000e+00	1.00000e+00	1.00000e+00	1.00000e+00	1.00000e+00	1.00000e+00	1.00000e+00	1.00000e+00	X	X	X	X	X	X	X	X	X	X	X	X	X	X	X	X	

B = Detector Channel
Val Type	B-AC1	B-AC2	B-AC3	B-AC4	B-AC5	B-AC6	B-AC7	B-AC8	B-AC9	B-AC10	B-AC11	B-AC12	B-AC13	B-AC14	B-AC15	B-AC16	B-DC1	B-DC2	B-DC3	B-DC4	B-DC5	B-DC6	B-DC7	B-DC8	B-DC9	B-DC10	B-DC11	B-DC12	B-DC13	B-DC14	B-DC15	B-DC16	B-Ph1	B-Ph2	B-Ph3	B-Ph4	B-Ph5	B-Ph6	B-Ph7	B-Ph8	B-Ph9	B-Ph10	B-Ph11	B-Ph12	B-Ph13	B-Ph14	B-Ph15	B-Ph16	

Term	0.00000e+00	0.00000e+00	0.00000e+00	0.00000e+00	0.00000e+00	0.00000e+00	0.00000e+00	0.00000e+00	0.00000e+00	0.00000e+00	0.00000e+00	0.00000e+00	0.00000e+00	0.00000e+00	0.00000e+00	0.00000e+00	0.00000e+00	0.00000e+00	0.00000e+00	0.00000e+00	0.00000e+00	0.00000e+00	0.00000e+00	0.00000e+00	0.00000e+00	0.00000e+00	0.00000e+00	0.00000e+00	0.00000e+00	0.00000e+00	0.00000e+00	0.00000e+00	-9.29970e+01	-1.31392e+02	-1.23755e+02	-1.81317e+02	-5.33619e+01	-6.48182e+01	-1.56949e+02	-1.62015e+02	-5.50886e+01	-6.87642e+01	-1.71959e+02	-1.70284e+02	-1.79234e+02	-1.77030e+02	-6.24173e+01	-1.49880e+02	
Factor	2.02525e-05	2.04927e-04	5.47415e-05	1.73521e-01	1.61479e-06	2.15799e-06	2.08365e-01	7.47178e-02	1.46152e-06	2.09857e-06	1.03330e-01	3.53755e-02	3.43424e-02	1.15752e-02	1.82063e-06	1.65684e-02	1.86485e-05	4.58517e-05	1.28386e-05	8.54534e-02	4.13224e-07	5.17627e-07	9.68864e-02	3.69658e-02	4.35134e-07	5.18470e-07	4.97831e-02	1.71989e-02	1.73445e-02	5.78419e-03	4.58961e-07	8.02566e-03	X	X	X	X	X	X	X	X	X	X	X	X	X	X	X	X	



#DISTANCE SETTINGS
A = Detector Channel
A-1	A-2	A-3	A-4	A-5	A-6	A-7	A-8	A-9	A-10	A-11	A-12	A-13	A-14	A-15	A-16	

2.5000e+00	3.0000e+00	2.5000e+00	3.0000e+00	2.0000e+00	3.0000e+00	1.5000e+00	3.0000e+00	3.0000e+00	3.0000e+00	3.0000e+00	3.0000e+00	3.0000e+00	3.0000e+00	1.5000e+00	3.0000e+00	

B = Detector Channel
B-1	B-2	B-3	B-4	B-5	B-6	B-7	B-8	B-9	B-10	B-11	B-12	B-13	B-14	B-15	B-16	

1.0000e+01	1.0000e+01	1.0000e+01	1.4400e+00	1.0000e+01	1.0000e+01	1.5100e+00	1.9400e+00	1.0000e+01	1.0000e+01	1.9900e+00	2.4900e+00	2.4100e+00	2.9000e+00	1.0000e+01	2.9800e+00	




#DATA BEGINS
time	group	step	mark	flag	A-AC1	A-AC2	A-AC3	A-AC4	A-AC5	A-AC6	A-AC7	A-AC8	A-AC9	A-AC10	A-AC11	A-AC12	A-AC13	A-AC14	A-AC15	A-AC16	A-DC1	A-DC2	A-DC3	A-DC4	A-DC5	A-DC6	A-DC7	A-DC8	A-DC9	A-DC10	A-DC11	A-DC12	A-DC13	A-DC14	A-DC15	A-DC16	A-Ph1	A-Ph2	A-Ph3	A-Ph4	A-Ph5	A-Ph6	A-Ph7	A-Ph8	A-Ph9	A-Ph10	A-Ph11	A-Ph12	A-Ph13	A-Ph14	A-Ph15	A-Ph16	B-AC1	B-AC2	B-AC3	B-AC4	B-AC5	B-AC6	B-AC7	B-AC8	B-AC9	B-AC10	B-AC11	B-AC12	B-AC13	B-AC14	B-AC15	B-AC16	B-DC1	B-DC2	B-DC3	B-DC4	B-DC5	B-DC6	B-DC7	B-DC8	B-DC9	B-DC10	B-DC11	B-DC12	B-DC13	B-DC14	B-DC15	B-DC16	B-Ph1	B-Ph2	B-Ph3	B-Ph4	B-Ph5	B-Ph6	B-Ph7	B-Ph8	B-Ph9	B-Ph10	B-Ph11	B-Ph12	B-Ph13	B-Ph14	B-Ph15	B-Ph16	aux-1	digaux	

43257.562	1	1	0	256	0.01454	0.15134	0.33165	0.12174	0.08093	0.13313	0.20444	0.025075	0.1565	0.070742	0.13909	0.011624	0.11582	0.073287	0.13913	0.26473	-1.8687	-2.0979	-1.8833	-2.5187	-2.0167	-2.275	-2.0542	-2.1042	-2.5458	-2.1646	-2.0229	-2.65	-2.2167	-2.3229	-2.2542	-2.0333	415.380	458.068	247.299	235.344	298.548	479.327	284.417	460.375	439.834	367.639	164.204	210.810	440.296	418.292	261.548	465.558	0.00031817	0.00032512	5.8853e-05	783.95	3.457e-06	9.8396e-06	601.62	291.19	3.5798e-06	2.4243e-06	208.23	73.182	109.27	44.202	4.2821e-06	33.112	0.00083168	0.0015879	0.00044098	771.32	1.436e-05	3.5366e-05	591.74	288.35	1.5259e-05	1.6935e-05	208.49	72.862	108.82	44.189	1.6198e-05	33.172	230.374	276.401	226.095	162.807	286.768	397.804	161.592	167.646	306.298	286.916	165.141	169.840	171.782	176.622	282.719	173.291	-8191	255	
43257.656	1	1	0	0	0.26228	0.27962	0.14294	0.1845	0.1894	0.29505	0.10152	0.34346	0.18816	0.1823	0.31578	0.19638	0.10976	0.077231	0.10262	0.13858	-2.0021	-2.1729	-1.9396	-2.4521	-1.775	-2.3333	-2.4313	-1.9542	-2.2271	-2.2417	-2.1854	-2.4146	-2.3042	-2.0333	-2.4604	-1.9542	237.076	410.472	407.786	178.783	296.420	327.285	302.591	281.123	438.001	410.465	307.103	410.659	419.366	381.478	398.660	404.588	0.00040315	0.00026713	5.6477e-05	786.89	4.0624e-06	1.3592e-05	598.89	289.32	3.7888e-06	1.2206e-06	209.73	73.469	109.35	43.895	5.8398e-06	32.91	0.0011586	0.0015529	0.00043199	770.85	1.4565e-05	4.3314e-05	591.26	287.19	1.5169e-05	1.757e-05	208.17	72.923	108.73	43.913	1.5674e-05	32.921	226.941	232.105	208.560	162.643	314.837	405.863	161.652	167.752	304.123	323.104	165.238	169.569	171.806	176.448	280.327	173.133	-8191	255	
43257.754	1	1	0	0	0.23673	0.22159	0.22134	0.064784	0.3628	0.10862	0.13259	0.033673	0.16252	0.07418	0.04002	0.19217	0.2998	0.051162	0.043133	0.30796	-1.8021	-2.1875	-1.8854	-2.5563	-2.1917	-2.0687	-2.3792	-2.0979	-2.2771	-2.3438	-2.0729	-2.375	-2.2854	-2.1875	-2.4542	-1.7646	361.765	364.010	263.202	295.463	455.908	334.807	452.107	426.349	227.222	178.903	478.805	438.945	260.837	465.901	337.038	164.024	0.0003726	0.00048239	0.00015197	786.81	2.3179e-06	6.7459e-06	602.97	292.58	2.7481e-06	4.0128e-06	210.28	73.777	109.89	44.042	5.7825e-06	33.473	0.0017817	0.0015307	0.00043814	771.35	1.4648e-05	3.543e-05	593.3	289.58	1.576e-05	1.7189e-05	210.37	73.442	109.32	44.119	1.5709e-05	33.275	240.871	206.184	249.417	162.858	319.656	395.091	161.897	167.668	295.563	290.351	165.484	169.860	172.085	176.479	309.312	173.058	-8191	255	
43257.852	1	1	0	0	0.29876	0.066819	0.19809	0.35456	0.17494	0.12135	0.2214	0.10525	0.27022	0.068949	0.13094	0.11514	0.2647	0.040164	0.10704	0.27097	-1.6479	-2.2354	-1.9354	-2.425	-2.1771	-2.1729	-2.5729	-2.2833	-2.1604	-2.4083	-2.0583	-2.45	-2.2438	-2.0625	-2.5354	-2.0792	224.949	338.272	340.943	493.747	327.629	425.871	439.003	348.280	226.056	459.679	463.953	432.993	462.957	170.397	322.823	203.139	0.00034839	0.00023363	0.00013745	791.42	4.3218e-06	9.0446e-06	607.77	295.38	2.4873e-06	1.3158e-06	211.44	74.468	109.66	44.062	5.0684e-06	33.119	0.0015342	0.0015251	0.00044745	776.66	1.4857e-05	4.3981e-05	597.73	291.5	1.5867e-05	1.6723e-05	209.74	74.371	109.5	44.095	1.6251e-05	33.077	229.818	222.747	254.541	162.631	316.825	388.191	161.761	167.458	281.808	253.866	165.335	169.562	172.029	176.368	268.417	172.608	-8191	255	
43257.973	1	1	0	0	0.29517	0.17553	0.17622	0.076766	0.15245	0.097365	0.18496	0.16823	0.12058	0.18604	0.1107	0.21366	0.090702	0.17956	0.25919	0.094313	-1.7313	-2.3583	-2.0917	-2.3208	-2.2104	-2.1396	-2.4083	-2.0271	-2.0563	-2.2896	-2.0104	-2.1771	-2.2938	-1.9083	-2.4208	-2.1021	264.985	234.654	422.867	486.649	190.129	258.061	506.370	480.927	272.938	206.922	464.777	317.112	457.588	460.652	415.501	430.131	0.00036045	0.00063324	0.00010009	784.63	4.2139e-06	7.5946e-06	600.2	292.42	3.8586e-06	2.515e-06	208.34	73.382	109.04	43.658	2.6973e-06	32.405	0.001775	0.0015659	0.00043919	772.69	1.4563e-05	3.5672e-05	590.08	289.47	1.5799e-05	1.7226e-05	206.56	73.608	108.67	43.666	1.6646e-05	32.45	237.617	239.697	233.181	162.515	329.588	444.842	161.865	167.483	317.099	314.904	165.770	169.590	172.014	176.679	290.692	173.315	-8191	255	
43258.043	1	1	0	0	0.27799	0.22247	0.18464	0.060285	0.25433	0.045413	0.19875	0.22514	0.17003	0.41912	0.12398	0.072946	0.24108	0.062177	0.077271	0.17908	-1.6479	-2.3646	-2.0083	-2.3042	-2.3229	-2.0458	-2.3583	-2.2083	-1.9792	-2.4833	-2.1375	-2.1875	-2.3625	-1.9813	-2.4208	-2.1917	178.522	286.487	179.918	333.663	211.488	371.143	186.546	414.160	459.145	172.650	212.808	450.991	478.453	453.938	341.716	368.264	0.00037916	0.00046125	6.9961e-05	787.18	3.4916e-06	8.9766e-06	603.94	293.99	4.1354e-06	2.6613e-06	209.72	73.001	109.32	43.28	5.3586e-06	32.471	0.0014839	0.0015024	0.00043705	770.53	1.4105e-05	4.0594e-05	591.4	289.08	1.555e-05	1.7183e-05	207.13	73.271	108.89	43.36	1.6414e-05	32.45	242.992	237.902	269.470	163.006	300.978	413.889	161.467	167.742	296.001	260.383	165.378	169.775	172.103	176.494	288.372	173.035	-8191	255	
43258.141	1	1	0	0	0.18692	0.35683	0.082337	0.16584	0.3308	0.30196	0.24114	0.33024	0.3107	0.16575	0.12051	0.037597	0.13778	0.19109	0.040336	0.27262	-1.6271	-2.3187	-1.9688	-2.2938	-2.4313	-1.8417	-2.2354	-2.3	-1.9396	-2.3458	-1.975	-2.2583	-2.3417	-2.0021	-2.3333	-2.2188	173.848	208.423	387.328	473.221	216.763	506.067	439.995	393.235	309.601	483.852	390.871	471.892	238.703	485.463	488.611	164.330	0.00034344	0.00041387	0.00010804	786.23	2.9866e-06	8.6166e-06	601.08	293.71	3.8143e-06	4.7957e-06	209.39	73.608	109.15	43.457	3.9389e-06	32.521	0.0017558	0.0015333	0.00044146	771.05	1.4549e-05	2.2247e-05	593.15	289.87	1.5302e-05	1.779e-05	207.27	74.053	109.1	43.508	1.6224e-05	32.572	241.393	247.405	276.704	162.720	368.061	405.119	161.674	167.737	305.890	316.109	165.487	169.208	171.946	176.408	284.418	172.870	-8191	255	
43258.262	1	1	0	0	0.062105	0.098175	0.12313	0.26326	0.23787	0.068433	0.055285	0.17618	0.11291	0.3169	0.20908	0.35293	0.10416	0.097626	0.2336	0.098972	-1.6167	-2.3375	-1.9625	-2.2042	-2.5333	-1.9854	-2.3	-2.2062	-2.0896	-2.3792	-2.1979	-1.9979	-2.5187	-2.0146	-2.275	-2.5312	197.660	481.447	486.078	448.620	178.187	428.631	456.618	178.417	488.624	323.460	366.097	220.547	169.896	185.945	395.620	389.815	0.00034282	0.00044746	6.2784e-05	787.35	5.1846e-06	4.8153e-06	601.11	294.63	2.0002e-06	3.6775e-06	210.83	74.481	110.55	43.741	3.5371e-06	33.197	0.0015278	0.0015762	0.00044109	773.03	1.4315e-05	1.7275e-05	598.52	291.06	1.5587e-05	1.7412e-05	208.76	74.456	110.03	43.838	1.6095e-05	33.03	240.462	201.332	213.814	162.705	318.575	290.968	161.370	167.716	287.389	259.070	165.527	169.317	171.859	176.793	304.424	173.190	-8191	255	
43258.355	1	1	0	0	0.070937	0.12026	0.16669	0.10302	0.16468	0.13056	0.16773	0.27227	0.015188	0.13782	0.11898	0.23401	0.13965	0.15565	0.14674	0.33634	-1.4688	-2.3458	-1.9521	-2.0187	-2.4083	-2.1208	-2.2167	-2.5229	-2.0625	-2.3396	-2.2313	-2.1188	-2.4333	-2.225	-2.125	-2.2625	348.815	459.087	150.067	436.029	426.226	398.272	347.300	469.584	210.865	341.751	241.970	411.247	257.987	496.002	343.728	165.185	0.00028218	0.00064133	7.6637e-05	790.68	2.7749e-06	5.5748e-06	604.62	294.76	3.684e-06	2.326e-06	209.72	73.486	109.65	43.636	2.3629e-06	32.349	0.0016189	0.0015419	0.00042763	775.42	1.4296e-05	1.775e-05	596.53	290.7	1.5714e-05	1.6972e-05	207.41	73.842	109.3	43.473	1.5933e-05	32.389	240.673	225.772	238.477	162.561	278.276	315.599	161.836	167.711	300.708	294.320	165.491	169.304	172.257	176.561	275.288	172.922	-8191	255	
43258.453	1	1	0	0	0.04293	0.15181	0.24704	0.10322	0.16742	0.3237	0.23858	0.18097	0.12684	0.15425	0.10079	0.10888	0.30421	0.24509	0.18957	0.26069	-1.5312	-2.2104	-2.1958	-1.9937	-2.4479	-1.9875	-2.2604	-2.4833	-1.9438	-2.225	-2.2	-1.8188	-2.3771	-2.0417	-2.2271	-2.45	431.735	195.888	443.247	190.852	174.632	335.051	416.975	487.885	373.255	326.572	494.379	230.208	176.642	484.332	306.792	155.587	0.00027679	0.000648	5.4633e-05	783.33	1.9837e-06	4.6142e-06	596.61	291.73	2.4056e-06	3.171e-06	209.79	72.956	108.8	43.229	3.8422e-06	32.235	0.00098569	0.0025664	0.00042573	768.77	1.4479e-05	1.7521e-05	592.91	287.93	1.5434e-05	1.7152e-05	206.53	73.218	108.58	43.308	1.6095e-05	32.292	239.718	214.694	223.639	162.641	308.549	321.137	161.682	167.596	296.607	281.942	165.484	169.472	172.124	176.273	292.771	173.070	-8191	255	
43258.574	1	1	0	0	0.10352	0.25148	0.093053	0.10154	0.048823	0.12101	0.21026	0.31517	0.080204	0.028407	0.13943	0.17817	0.080981	0.21098	0.2367	0.11072	-1.5604	-2.2979	-2.1937	-1.9917	-2.375	-2.1458	-2.1104	-2.55	-2.0187	-2.3375	-2.3625	-2.0125	-2.4188	-2.1229	-2.0312	-2.5396	332.573	393.648	272.948	261.035	274.668	186.455	323.325	454.332	165.837	220.779	243.204	197.647	315.923	487.257	191.610	161.521	0.00030683	0.001135	8.5399e-05	789.35	3.9907e-06	4.2313e-06	598.96	294.78	4.6799e-06	1.3799e-06	209.06	73.014	110.38	43.463	4.4067e-06	32.584	0.00082209	0.0037788	0.00042375	772.45	1.4259e-05	1.6954e-05	593.79	290.57	1.5277e-05	1.6629e-05	206.86	73.641	109.65	43.472	1.5361e-05	32.464	229.123	285.347	254.308	162.702	262.275	301.861	161.567	167.455	291.273	290.808	165.315	169.284	171.603	176.389	287.874	172.910	-8191	255	
43258.668	1	1	0	0	0.16006	0.20847	0.18491	0.078054	0.038033	0.29672	0.1843	0.049567	0.090111	0.051279	0.36395	0.37577	0.12033	0.14311	0.18794	0.11205	-1.7563	-2.2167	-2.5708	-1.9708	-2.3458	-2.2729	-2.05	-2.475	-2.1667	-2.1979	-2.6021	-1.9271	-2.4542	-2.3354	-1.9937	-2.6521	311.830	268.605	469.893	450.560	463.368	271.747	415.436	497.196	466.988	256.588	322.035	447.787	246.558	196.074	269.292	335.947	0.00030831	0.0012337	0.00014777	790.91	3.3201e-06	2.4703e-06	603.84	294.75	3.8562e-06	4.8107e-06	210.3	73.595	110.54	43.673	3.7267e-06	32.532	0.00080573	0.0030739	0.00041437	776.4	1.3884e-05	1.6215e-05	598.47	290.95	1.4377e-05	1.6462e-05	207.04	73.237	110.22	43.569	1.5535e-05	32.577	226.305	308.989	241.485	162.825	324.759	338.657	161.342	167.500	313.602	306.467	165.514	169.179	171.756	176.490	289.886	173.028	-8191	255	
43258.738	1	1	0	0	0.16561	0.19503	0.21111	0.08651	0.13573	0.19308	0.11376	0.13739	0.20497	0.10358	0.12868	0.095048	0.28135	0.037062	0.14173	0.20566	-1.5917	-2.075	-2.4333	-2.1375	-2.2375	-2.3042	-2.0625	-2.3854	-2.0417	-2.1688	-2.6792	-2.0083	-2.1833	-2.3438	-1.9208	-2.4229	475.726	498.443	232.045	432.484	468.658	462.787	399.007	421.809	384.212	309.010	366.172	201.863	188.848	421.168	318.354	416.264	0.00030064	0.0014185	0.00010159	794.11	3.0023e-06	1.8038e-06	604.12	293.92	2.9452e-06	4.5118e-06	207.16	72.624	109.3	43.492	4.4189e-06	32.146	0.00078382	0.0037546	0.00039877	778.34	1.3326e-05	1.584e-05	597.16	290.28	1.4042e-05	1.5435e-05	205.07	72.251	109.94	43.479	1.5006e-05	32.071	223.556	279.737	256.941	162.601	265.055	259.007	161.451	167.428	307.137	335.487	165.568	169.474	171.887	176.288	299.475	172.370	-8191	255	
43258.859	1	1	0	0	0.2102	0.086407	0.11787	0.11711	0.16	0.28369	0.15246	0.11517	0.47846	0.38626	0.2709	0.27912	0.18986	0.21883	0.054999	0.1719	-1.7167	-2.0208	-2.2979	-2.2271	-2.2354	-2.4271	-2.1667	-2.6667	-2.2667	-1.9479	-2.575	-2.0896	-2.1833	-2.4125	-2.0833	-2.3604	249.843	205.808	350.521	487.394	466.912	410.594	454.249	227.309	383.131	172.471	333.656	155.651	493.755	415.899	192.089	422.314	0.00028713	0.00087438	0.00012219	786.05	4.3485e-06	2.4098e-06	592.97	290.59	3.3774e-06	3.0519e-06	203.76	71.475	107.81	42.426	2.0131e-06	31.504	0.00076766	0.0029584	0.00039128	771.63	1.3555e-05	1.5322e-05	588.18	287.62	1.368e-05	1.5675e-05	201.76	71.1	107.84	42.615	1.4227e-05	31.508	233.436	296.806	235.868	162.646	300.858	306.303	161.698	167.203	296.445	310.802	165.308	169.442	171.775	176.334	337.227	172.920	-8191	255	
43258.957	1	1	0	0	0.087165	0.020631	0.33678	0.47848	0.19164	0.066887	0.084304	0.24783	0.25257	0.12906	0.15554	0.12317	0.19483	0.11506	0.2075	0.088176	-1.825	-2.1208	-2.3479	-2.0812	-2.0854	-2.425	-2.1562	-2.5333	-2.2479	-2.0812	-2.5625	-2.1271	-2.3208	-2.5854	-2.0417	-2.3708	239.060	346.793	408.931	487.674	443.801	268.852	417.186	260.107	398.187	183.761	417.882	404.654	480.060	464.671	363.567	474.703	0.00030966	0.0010501	7.7425e-05	780	2.2996e-06	1.4898e-06	591.57	288.07	2.5519e-06	2.4598e-06	202.76	70.77	106.71	42.039	6.4109e-06	30.9	0.00075744	0.0036827	0.00039273	764.74	1.2697e-05	1.5225e-05	581.05	285.48	1.3516e-05	1.6282e-05	200.69	70.347	107.02	42.004	1.4616e-05	31.048	228.601	295.338	272.047	162.578	319.976	253.344	161.658	167.330	289.375	323.721	165.361	169.009	171.804	176.754	311.267	172.907	-8191	255	
43259.051	1	1	0	0	0.18355	0.21918	0.12342	0.14166	0.26948	0.069667	0.2969	0.21991	0.038957	0.047056	0.10875	0.17629	0.41794	0.20666	0.1447	0.18419	-1.8917	-2.0146	-2.2979	-2.1688	-2.2146	-2.4083	-2.0979	-2.5312	-2.1917	-2.2229	-2.4125	-2.1417	-2	-2.8063	-2.0333	-2.2833	376.329	207.207	456.540	414.216	395.876	342.542	393.377	406.112	366.927	460.739	385.987	461.814	209.249	476.835	181.045	201.798	0.00027129	0.00076495	8.703e-05	778.5	3.5104e-06	4.433e-06	589.68	286.76	2.3189e-06	3.688e-06	202.53	70.234	106.29	41.689	3.0559e-06	31.139	0.00074858	0.0029295	0.0003846	763.66	1.3113e-05	1.5466e-05	579.11	285.39	1.3475e-05	1.5336e-05	200.18	70.378	106.7	41.71	1.4258e-05	30.959	230.406	280.123	214.414	162.585	299.563	298.220	161.303	167.539	264.859	251.729	165.399	169.578	171.888	176.204	280.827	172.908	-8191	255	
43259.148	1	1	0	0	0.16762	0.18639	0.1772	0.23706	0.25763	0.12391	0.15016	0.26198	0.17682	0.23906	0.068497	0.11487	0.15649	0.14648	0.18465	0.14	-1.7667	-1.8375	-2.2958	-2.2354	-2.0792	-2.5354	-2.2854	-2.2208	-2.3521	-2.0833	-2.5708	-2.4583	-2.1604	-2.7354	-2.0396	-2.3021	485.959	256.296	463.023	428.349	209.870	406.770	387.756	460.807	391.083	155.614	324.047	444.760	184.891	185.651	307.644	197.760	0.00031483	0.00080076	4.6028e-05	778.62	2.2527e-06	3.7883e-06	590.88	287.03	4.9619e-06	2.9485e-06	202.58	70.982	105.86	41.5	4.879e-06	31.034	0.00076793	0.0029148	0.00048019	761.23	1.3457e-05	1.5477e-05	580.01	284.27	1.3871e-05	1.6127e-05	200.9	70.349	106.3	41.561	1.4475e-05	31.042	229.004	317.933	238.551	162.668	314.458	342.540	161.719	167.195	329.611	294.560	165.450	169.385	172.039	176.337	298.105	172.815	-8191	255	
43259.242	1	1	0	0	0.10235	0.12553	0.30258	0.16469	0.13881	0.10765	0.25023	0.19111	0.20512	0.028356	0.09074	0.057465	0.23724	0.30293	0.26412	0.097258	-1.9417	-1.7854	-2.25	-2.2938	-1.9271	-2.5125	-2.0917	-2.2687	-2.5875	-1.9479	-2.3187	-2.2479	-1.7917	-2.5312	-2.275	-2.3479	423.736	475.791	338.018	168.522	214.473	462.528	456.539	468.079	194.361	396.443	268.422	495.693	424.194	400.283	431.229	358.379	0.00030162	0.0008729	4.1791e-05	771.35	2.96e-06	5.2869e-06	587.02	284.27	3.3175e-06	3.6818e-06	201.59	70.073	105.26	40.84	4.1713e-06	30.548	0.00076673	0.0015579	0.00072707	755.86	1.3495e-05	1.5753e-05	575.69	282.4	1.4028e-05	1.6087e-05	198.68	69.639	105.34	40.987	1.4356e-05	30.538	224.249	293.810	251.799	162.742	308.038	280.988	161.871	167.306	290.930	298.472	165.874	169.206	171.929	176.594	292.343	172.934	-8191	255	
43259.340	1	1	0	0	0.12334	0.18301	0.13895	0.22251	0.25213	0.067516	0.13226	0.35329	0.18688	0.27325	0.11586	0.094348	0.20876	0.14276	0.09938	0.18511	-1.9604	-2.0604	-2.3146	-2.3104	-2.0187	-2.4188	-2.4021	-2.1167	-2.4396	-2.2417	-2.475	-2.475	-2.0771	-2.3354	-2.2604	-2.0312	366.809	366.202	161.338	197.963	315.028	473.063	327.916	469.623	221.865	304.905	429.475	414.937	181.695	282.995	215.784	480.928	0.00029977	0.00035486	0.00025964	769.2	3.7804e-06	3.8008e-06	584.41	283.91	3.033e-06	4.8751e-06	200.98	70.146	105.37	41.47	3.6687e-06	30.922	0.00077935	0.0014313	0.0010179	754.25	1.358e-05	1.5661e-05	574.89	282.12	1.413e-05	1.575e-05	198.91	69.757	105.64	41.52	1.4123e-05	30.845	224.497	233.193	354.494	162.735	301.423	283.397	161.402	167.479	278.608	280.896	165.212	169.253	171.885	176.461	322.094	173.155	-8191	255	
43259.438	1	1	0	0	0.21858	0.15734	0.21576	0.24908	0.20849	0.21358	0.1427	0.38844	0.12611	0.16226	0.16576	0.056454	0.27835	0.065919	0.033002	0.19304	-2.0646	-1.8833	-2.1583	-2.5438	-2.05	-2.4562	-2.2396	-1.9604	-2.3604	-2.1271	-2.2354	-2.4021	-2.1063	-2.4313	-2.2729	-1.9438	344.636	449.104	331.897	466.517	327.042	288.492	265.496	508.884	403.214	264.514	485.020	237.405	188.297	372.604	277.871	179.197	0.00030017	0.00026405	9.1727e-05	769.44	2.0173e-06	2.5006e-07	587.9	285.88	3.7512e-06	5.5193e-06	202.9	70.886	106.15	42.217	4.0909e-06	31.537	0.00077356	0.001412	0.00083141	755.61	1.332e-05	1.5753e-05	578.01	284.51	1.4034e-05	1.6036e-05	201.52	70.767	106.11	42.313	1.474e-05	31.579	228.930	245.613	354.018	162.813	306.579	345.573	161.772	167.766	293.756	304.682	165.853	169.562	171.697	176.264	303.730	172.901	-8191	255	
43259.531	1	1	0	0	0.23143	0.013294	0.17558	0.10874	0.11045	0.32363	0.12673	0.11937	0.064496	0.37074	0.34407	0.049381	0.22887	0.27391	0.018355	0.12248	-2.0521	-2.0917	-2.0396	-2.4146	-2.1167	-2.3187	-2.2646	-1.9875	-2.4854	-2.2521	-2.1375	-2.5563	-2.0958	-2.2896	-2.3854	-2.0583	498.969	166.137	294.145	265.177	384.368	425.574	500.225	366.732	216.085	155.231	373.769	504.525	444.176	440.003	506.722	441.832	0.00032013	0.0004865	0.00012732	776.63	3.0327e-06	2.2754e-06	595.37	288.04	4.4135e-06	1.5158e-06	206.73	72.624	107.7	42.734	4.4357e-06	32.046	0.00078436	0.0014504	0.0010224	762.08	1.3557e-05	1.6096e-05	584.35	286.55	1.432e-05	1.6098e-05	204.28	72.098	107.38	42.966	1.5049e-05	32.104	226.385	232.035	348.145	162.830	290.631	297.433	161.596	167.617	292.696	256.611	165.665	169.547	172.214	176.502	286.195	172.924	-8191	255	
43259.652	1	1	0	0	0.39483	0.095381	0.3147	0.072182	0.086947	0.1382	0.41087	0.19649	0.070262	0.35155	0.25951	0.15108	0.16982	0.35926	0.16759	0.18232	-1.9771	-2.2625	-2.1562	-2.5187	-2.0875	-2.3271	-2.3583	-2.0417	-2.2979	-2.3396	-2.2375	-2.4375	-2.1542	-2.3167	-2.2917	-2.1167	220.142	263.420	261.731	299.444	509.154	259.009	192.261	498.564	180.210	508.572	415.198	369.279	440.722	508.520	311.109	415.929	0.00031351	0.00034752	0.00016023	780.09	3.1671e-06	1.8015e-06	593.81	288.86	1.0029e-05	5.1243e-06	204.64	71.634	108.32	42.805	2.6907e-06	31.777	0.00080391	0.0014573	0.00085957	765.61	1.3778e-05	1.5865e-05	584.87	286.19	1.9376e-05	1.612e-05	202.75	71.583	107.52	42.915	1.4956e-05	31.709	224.617	244.585	341.340	162.782	330.842	337.326	161.527	167.559	247.654	317.680	165.349	169.471	171.935	176.551	275.549	172.765	-8191	255	
43259.746	1	1	0	0	0.30095	0.15098	0.075206	0.15614	0.21759	0.15861	0.083476	0.21968	0.093963	0.14386	0.099674	0.31967	0.23325	0.19503	0.22406	0.058648	-1.9708	-2.3625	-1.9688	-2.6708	-1.9792	-2.1979	-2.3958	-2.1667	-2.4104	-2.4188	-1.9896	-2.3896	-2.1125	-2.1771	-2.3708	-1.9479	488.934	221.922	330.171	460.470	266.341	340.650	245.288	397.355	268.262	437.157	158.528	436.171	245.131	449.322	477.876	451.701	0.00029201	0.00023388	0.00017112	777.71	2.8423e-06	5.1378e-06	591.4	289.29	9.5943e-06	4.2543e-06	206.39	71.412	108.41	42.777	1.0357e-06	31.834	0.00077438	0.0013931	0.0010477	761.24	1.3149e-05	1.6039e-05	582.55	285.51	2.6991e-05	1.589e-05	203.48	71.463	107.73	43.059	1.4823e-05	31.77	228.216	200.819	364.731	162.652	295.950	315.435	161.574	167.574	246.727	269.404	165.504	169.543	172.027	176.714	285.758	172.578	-8191	255	
43259.844	1	1	0	0	0.19761	0.26488	0.056469	0.084746	0.042093	0.35023	0.16429	0.20173	0.2148	0.18382	0.05709	0.12633	0.15205	0.1023	0.14444	0.15356	-1.9458	-2.3333	-2.1562	-2.5979	-2.2417	-2.2625	-2.5833	-2.1063	-2.3812	-2.4813	-2.2104	-2.425	-2.3229	-2.1458	-2.5042	-2.1937	250.796	155.057	387.960	399.602	477.822	387.220	437.422	326.894	419.594	475.302	425.941	183.091	457.433	187.922	312.651	182.498	0.00031969	0.00020546	8.6058e-05	776.81	1.6697e-06	3.6658e-06	593.66	289.34	6.423e-06	4.6186e-06	205.4	72.303	108.86	42.981	3.9175e-06	32.141	0.00078899	0.0014312	0.00083924	764.23	1.3535e-05	1.638e-05	583.67	285.72	3.5881e-05	1.5993e-05	203.63	72.178	108.21	43.202	1.5122e-05	32.117	224.938	284.740	369.838	162.848	296.377	325.154	161.463	167.968	228.895	284.009	165.311	169.311	172.174	176.655	292.826	172.739	-8191	255	
43259.941	1	1	0	0	0.28324	0.12668	0.18118	0.31629	0.19815	0.11961	0.1059	0.193	0.35006	0.10699	0.021509	0.044216	0.18337	0.24962	0.12966	0.24378	-1.7792	-2.3875	-2.0687	-2.6583	-2.2208	-1.9104	-2.5458	-2.1188	-2.1104	-2.2979	-2.1333	-2.4625	-2.2354	-2.0542	-2.3125	-2.2521	376.813	317.047	240.986	440.989	191.832	426.568	160.356	447.978	289.797	307.673	160.479	361.920	162.111	441.331	409.344	227.319	0.00032662	0.00016101	0.00016544	783.09	2.026e-06	4.4849e-06	598.19	290.86	5.7098e-06	1.1984e-06	207.8	73.261	109.23	43.459	4.188e-06	32.471	0.00080441	0.0014931	0.00077519	769.44	1.3393e-05	1.6661e-05	588.78	287.74	2.9602e-05	1.6627e-05	206.04	72.872	109.11	43.697	1.537e-05	32.459	228.565	256.173	322.843	162.549	324.760	309.650	161.390	167.750	259.611	317.846	165.470	169.979	171.870	176.613	267.018	172.716	-8191	255	
43260.035	1	1	0	0	0.2565	0.29686	0.23119	0.37121	0.11527	0.1748	0.049675	0.37884	0.26242	0.18165	0.021984	0.15876	0.19348	0.12086	0.091018	0.092318	-1.8604	-2.5458	-2.025	-2.425	-2.3604	-2.0229	-2.4437	-2.2479	-2.1271	-2.5271	-2.2125	-2.2812	-2.5312	-2.0687	-2.4354	-2.3646	382.792	362.681	329.406	183.240	213.474	268.223	332.572	461.535	226.865	262.401	482.138	354.526	395.214	440.166	175.385	205.169	0.00033327	0.00027262	9.8337e-05	787.46	3.3197e-06	6.8817e-06	605.28	293.26	7.762e-06	3.6551e-06	208.49	73.514	109.66	43.375	4.5411e-06	32.225	0.00081521	0.0014767	0.00041742	776.06	1.3745e-05	1.6774e-05	593.4	290.11	3.6928e-05	1.6265e-05	206.46	72.98	108.87	43.613	1.4899e-05	32.266	225.578	238.796	271.555	162.807	297.258	317.731	161.592	167.700	250.223	360.145	165.935	169.387	171.830	176.567	262.541	172.998	-8191	255	
43260.133	1	1	0	0	0.11055	0.079876	0.12509	0.22124	0.1186	0.11702	0.27941	0.45078	0.13155	0.13765	0.034763	0.15931	0.091391	0.21081	0.04627	0.12479	-1.7083	-2.4188	-1.85	-2.3563	-2.3604	-1.9667	-2.5875	-2.2417	-2.1417	-2.5354	-2.0667	-2.2292	-2.4833	-1.8188	-2.2604	-2.0812	183.007	387.663	263.202	176.471	197.669	459.985	421.317	499.519	421.007	324.521	240.970	398.076	215.076	401.551	373.444	401.823	0.00032323	0.00049512	0.00012077	782.03	3.425e-06	2.8812e-06	595.21	291.24	4.9242e-06	3.1067e-06	207.82	72.572	109.26	43.215	8.0675e-06	32.138	0.00080464	0.0014211	0.00039979	772.87	1.3646e-05	1.6472e-05	587.36	287.73	2.9733e-05	1.6118e-05	204.88	72.37	108.67	43.424	2.2144e-05	32.148	226.417	228.131	235.986	162.587	311.872	315.388	161.723	167.867	265.200	270.406	165.793	169.819	171.891	176.538	269.227	172.935	-8191	255	
43260.250	1	1	0	0	0.26301	0.19162	0.12289	0.080177	0.084273	0.081962	0.27384	0.31893	0.31114	0.26893	0.1611	0.17302	0.18526	0.12753	0.072608	0.12899	-1.5583	-2.4188	-2.0521	-2.1167	-2.4417	-1.95	-2.4437	-2.3896	-2	-2.4625	-2.0875	-2.1271	-2.5	-2.0333	-2.2333	-2.3063	351.849	236.604	484.330	213.377	230.583	437.349	420.171	444.389	341.747	156.933	261.060	238.173	458.449	437.202	327.634	422.209	0.00030872	0.00042488	0.00010363	786.66	1.9138e-06	3.36e-06	596.76	290.12	1.1023e-05	2.5683e-06	206.99	72.417	108.99	43.38	4.8644e-06	32.425	0.00080111	0.0014329	0.00039802	772.17	1.3296e-05	1.6542e-05	587.17	287.3	3.6491e-05	1.5844e-05	204.44	72.225	108.57	43.378	2.9364e-05	32.307	227.982	227.147	198.944	162.597	306.332	296.899	161.731	167.552	263.231	276.126	165.550	169.177	172.201	176.701	297.874	173.221	-8191	255	
43260.348	1	1	0	0	0.25588	0.087354	0.21401	0.1401	0.21596	0.0845	0.06908	0.1124	0.20381	0.14612	0.080555	0.20678	0.057172	0.098531	0.1723	0.20336	-1.4354	-2.525	-2.0021	-2.1854	-2.2333	-2.0687	-2.3667	-2.4521	-2.0646	-2.4375	-2.2792	-1.9583	-2.5625	-2.0542	-2.4125	-2.2896	412.840	414.139	438.250	506.002	415.160	238.839	240.486	227.217	217.890	214.935	433.664	333.546	264.751	449.643	325.591	489.459	0.0003132	0.00045707	0.00011755	786.34	3.6827e-06	4.9466e-06	600.48	292.57	8.0195e-06	3.1334e-06	208.24	73.262	109.54	43.418	1.1698e-05	32.546	0.00080868	0.0013852	0.00039463	775.38	1.3561e-05	1.6071e-05	590.08	289.53	3.0366e-05	1.5808e-05	205.99	73.004	109.34	43.6	3.7792e-05	32.558	227.944	222.624	245.668	162.994	282.492	292.622	161.442	167.487	269.871	296.812	165.448	169.576	172.036	176.609	345.069	172.669	-8191	255	
43260.441	1	1	0	0	0.10044	0.17721	0.22776	0.15873	0.24307	0.10057	0.28734	0.050156	0.17388	0.19767	0.1008	0.3032	0.11431	0.25287	0.15066	0.12873	-1.7271	-2.2833	-2.0542	-2.2562	-2.4167	-2.0958	-2.3875	-2.4458	-2.0396	-2.4125	-2.2104	-1.8854	-2.5146	-2.0417	-2.0458	-2.5479	473.820	392.742	396.748	459.254	466.955	464.779	164.840	491.855	307.028	384.063	246.773	399.476	167.774	437.360	361.009	156.007	0.00031115	0.00025502	0.00010065	792.4	3.6425e-06	3.376e-06	602.47	295.17	3.0725e-06	1.2069e-05	210.26	73.27	110.26	43.8	9.0122e-06	32.617	0.00080189	0.001455	0.00040364	779.28	1.3468e-05	1.5519e-05	593.45	290.8	2.4983e-05	2.5495e-05	207.1	73.071	109.41	43.803	3.0667e-05	32.466	230.514	221.711	237.883	162.864	321.532	278.011	161.533	167.259	323.460	242.450	165.585	169.458	172.241	176.529	348.393	172.820	-8191	255	
43260.539	1	1	0	0	0.52581	0.1458	0.13008	0.28158	0.27722	0.046861	0.23696	0.19152	0.10481	0.13222	0.25873	0.2111	0.17057	0.17949	0.14414	0.12733	-1.5021	-2.3042	-2.2812	-2.0667	-2.4875	-2.3083	-2.2833	-2.4167	-2.1188	-2.2292	-2.4167	-2.2167	-2.425	-2.1917	-2.0729	-2.5271	260.368	490.509	352.633	447.316	360.580	218.268	370.354	495.114	444.950	217.897	268.667	487.484	396.600	492.280	345.549	357.080	0.0003224	0.0003056	9.7439e-05	786.56	4.5396e-06	3.1689e-06	598.78	292.8	2.6999e-06	9.1847e-06	205.73	71.702	108.57	43.294	1.0153e-05	31.749	0.00077986	0.0013851	0.00040014	777.66	1.2993e-05	1.5298e-05	587.97	288.35	1.4253e-05	3.2732e-05	203.47	71.543	108.23	43.219	3.7262e-05	31.792	225.500	212.795	242.292	162.672	295.064	309.359	161.446	167.565	297.624	241.552	165.566	169.410	172.324	176.511	363.940	172.880	-8191	255	
43260.637	1	1	0	0	0.063776	0.11359	0.1437	0.042988	0.14882	0.097116	0.13934	0.056568	0.099657	0.18305	0.26689	0.16848	0.39265	0.1736	0.23482	0.14427	-1.6854	-2.2938	-2.2833	-2.0542	-2.5187	-2.1562	-2.1312	-2.7333	-2.1083	-2.3083	-2.6708	-2.2812	-2.6	-2.2417	-2.2562	-2.6458	424.172	194.093	431.530	197.492	457.414	360.213	153.847	178.197	363.562	338.321	463.158	398.765	488.354	502.750	164.189	500.419	0.00029756	0.00034425	0.00018095	780.38	3.8506e-06	4.264e-06	594.96	288.56	5.0925e-06	8.707e-06	204.02	71.446	107.44	42.68	2.6269e-06	31.566	0.00076941	0.001382	0.0003958	769.5	1.2882e-05	1.5348e-05	584.03	285.87	1.4239e-05	4.2215e-05	201.99	71.139	107.15	42.684	3.0711e-05	31.495	229.080	179.312	230.599	162.735	292.198	302.950	161.608	167.612	291.226	268.908	165.468	169.378	171.808	176.348	384.032	172.999	-8191	255	
43260.730	1	1	0	0	0.12235	0.066097	0.13658	0.1186	0.17588	0.25349	0.15436	0.10095	0.22007	0.079608	0.25177	0.10804	0.21143	0.14978	0.080116	0.30901	-1.7708	-2.1771	-2.3542	-2.2687	-2.35	-2.1479	-2.0333	-2.6083	-2.0792	-2.2875	-2.3104	-2.0458	-2.3604	-2.3167	-2.0375	-2.3208	451.931	295.536	192.355	317.502	399.743	408.521	405.326	466.417	396.022	319.702	426.989	296.150	172.201	469.927	356.859	437.351	0.00028577	0.00036571	8.4239e-05	781.38	7.9071e-06	4.1559e-06	594.49	290.59	2.011e-06	7.2982e-06	205.51	71.756	107.8	42.472	1.0398e-05	31.753	0.00074361	0.0014436	0.00039134	770	2.143e-05	1.595e-05	584.72	286.12	1.4089e-05	3.3594e-05	203.12	71.435	107.4	42.731	3.8213e-05	31.703	229.730	248.677	200.470	162.945	233.621	299.174	161.372	167.559	276.371	274.306	165.289	169.494	171.876	176.189	361.363	172.819	-8191	255	
43260.828	1	1	0	0	0.133	0.067107	0.097199	0.20171	0.15498	0.18355	0.21253	0.28027	0.093124	0.17958	0.08749	0.29183	0.34246	0.10987	0.18568	0.19631	-1.6479	-2.0687	-2.2792	-2.1146	-2.2375	-2.3396	-1.9125	-2.5875	-2.1292	-2.1188	-2.5417	-2.1625	-2.2583	-2.4375	-1.9021	-2.4771	506.293	364.372	495.630	256.802	364.732	335.279	469.218	425.394	351.958	346.794	464.236	396.452	155.597	186.339	213.477	243.006	0.00030377	0.00035778	6.0355e-05	784.27	1.8401e-06	1.6743e-06	597.58	291.23	3.5952e-06	1.5496e-05	207.24	72.67	108.53	43.384	2.1791e-06	32.11	0.00077248	0.0014551	0.00040479	768.88	2.7428e-05	1.596e-05	587.1	287.58	1.4339e-05	4.2253e-05	204.44	72.118	108.41	43.257	3.1827e-05	32.222	229.638	247.108	212.069	162.824	194.716	259.359	161.474	167.665	289.045	287.584	165.457	169.723	172.020	176.360	398.517	173.040	-8191	255	
43260.926	1	1	0	0	0.3288	0.055564	0.10247	0.31503	0.072995	0.11141	0.20857	0.13457	0.12669	0.083054	0.10613	0.12619	0.03007	0.57456	0.20808	0.24896	-1.6562	-1.9271	-2.2958	-1.9771	-2.2854	-2.6188	-2.2396	-2.5812	-2.3229	-2.0729	-2.6292	-2.2771	-2.4188	-2.5062	-2.0542	-2.5125	375.285	200.298	197.388	421.290	171.811	338.782	437.573	460.432	237.874	196.652	350.040	300.600	232.253	186.480	392.250	465.625	0.00031042	0.00052427	8.7273e-05	787.76	3.7964e-06	4.3109e-06	599.95	291.76	2.9526e-06	6.5583e-06	204.07	72.566	109.08	43.065	7.8323e-06	31.92	0.00078887	0.0015189	0.00040583	771.78	3.3712e-05	1.6757e-05	587.72	287.26	1.447e-05	3.4133e-05	202.7	71.818	108.2	43.161	2.3956e-05	31.973	227.041	244.707	268.678	162.624	198.299	281.624	161.460	167.632	281.975	280.312	165.704	169.281	171.942	176.434	408.017	172.732	-8191	255	
43261.043	1	1	0	0	0.35418	0.15364	0.32249	0.064346	0.23061	0.19851	0.15593	0.277	0.12534	0.051442	0.18524	0.17322	0.1776	0.13369	0.035964	0.13281	-1.9167	-2.0125	-2.3729	-2.2771	-2.2542	-2.5062	-2.0208	-2.4229	-2.3854	-2.225	-2.4167	-2.2458	-2.2917	-2.5083	-2.2021	-2.3958	466.624	286.455	348.601	295.148	192.379	345.464	209.020	256.420	340.098	371.097	392.659	487.229	180.596	330.191	207.796	462.535	0.00029685	0.00050208	6.8722e-05	781.14	5.1908e-06	3.6643e-06	593.23	289.84	3.824e-06	1.3215e-05	204.43	72.011	109.13	43.152	2.478e-06	31.743	0.0007865	0.0014709	0.00040789	765.59	2.7528e-05	1.6211e-05	582.38	286.54	1.4719e-05	4.1906e-05	202.38	71.429	108.16	43.135	1.5106e-05	32.024	224.605	253.965	226.851	162.845	215.988	273.390	161.486	167.856	291.234	291.906	165.790	169.623	172.117	176.328	322.391	172.682	-8191	255	
43261.141	1	1	0	0	0.1949	0.1407	0.32971	0.28981	0.19188	0.20036	0.36179	0.13708	0.089766	0.092452	0.11444	0.2079	0.22764	0.038153	0.29252	0.16848	-1.8729	-1.8958	-2.3167	-2.1562	-2.0438	-2.4271	-2.1208	-1.9937	-2.5938	-2.1188	-2.55	-2.4104	-2.1271	-2.4646	-2.2354	-2.3229	288.216	241.915	391.461	436.965	204.203	435.157	183.683	473.610	494.292	421.936	469.344	317.565	277.844	267.597	499.453	282.783	0.00031844	0.0004367	0.00013508	781.25	9.2467e-06	3.7054e-06	594.31	289.23	1.998e-06	4.355e-06	205.96	72.324	109.6	43.339	1.7608e-06	31.895	0.00081385	0.0014908	0.00039193	766.56	3.4307e-05	1.5919e-05	583.66	286.61	1.4301e-05	3.3176e-05	203.08	71.653	108.71	43.36	1.4462e-05	32.354	227.442	214.746	254.225	162.624	203.422	315.196	161.573	167.617	281.336	324.017	165.620	169.254	172.080	176.412	297.458	172.607	-8191	255	
43261.215	1	1	0	0	0.10239	0.1087	0.051563	0.30083	0.23766	0.18911	0.13536	0.25898	0.036912	0.07866	0.079526	0.13002	0.19573	0.15665	0.067451	0.037937	-2.0229	-2.0292	-2.2042	-2.2625	-2.0687	-2.5167	-2.2396	-2.4396	-2.2812	-2.2333	-2.4917	-2.45	-2.0625	-2.5708	-2.0875	-2.1667	506.556	454.007	310.419	451.942	505.802	506.755	414.422	439.558	171.400	483.764	489.449	458.348	192.764	231.136	340.958	386.926	0.00029522	0.00031447	0.00010378	786.85	5.4236e-06	6.8879e-06	597.76	293.2	4.2438e-06	1.0415e-05	206.85	72.671	109.61	43.717	3.6031e-06	32.518	0.00079295	0.001462	0.00038647	772.29	2.8211e-05	1.6086e-05	587.8	289.53	1.4462e-05	2.546e-05	205.72	72.319	109.43	43.762	1.4889e-05	32.559	226.015	250.231	258.243	162.722	266.915	287.763	161.278	167.374	292.398	323.142	165.856	169.191	171.850	176.435	310.019	172.784	-8191	255	
43261.332	1	1	0	0	0.14077	0.11592	0.05837	0.23603	0.23477	0.21275	0.11922	0.15079	0.19729	0.14091	0.021768	0.16048	0.31402	0.095367	0.45643	0.029993	-2.0938	-1.8417	-2.1667	-2.3792	-2.0104	-2.4083	-2.2313	-2.1688	-2.5354	-2.0708	-2.3771	-2.4062	-2	-2.6771	-2.3146	-2.1271	465.289	166.615	181.234	431.115	468.847	359.479	331.192	469.615	189.846	248.366	306.988	184.470	454.376	160.562	457.761	370.174	0.00030607	0.00035422	0.0001093	792.38	7.7929e-06	3.8422e-06	600.39	293.31	3.6766e-06	4.8948e-06	207.74	72.572	109.7	44.011	1.1994e-06	32.123	0.00080488	0.0014493	0.00040006	774.9	3.4978e-05	1.5917e-05	589.54	289.9	1.5196e-05	1.6613e-05	206.58	72.358	109.19	43.889	1.5012e-05	32.53	232.410	246.875	226.446	162.683	250.687	323.803	161.739	167.817	309.335	284.613	165.535	169.147	172.363	176.625	258.851	173.103	-8191	255	
43261.430	1	1	0	0	0.20686	0.12413	0.19735	0.21032	0.22173	0.2114	0.18182	0.25986	0.12462	0.14754	0.25349	0.21594	0.10624	0.16252	0.087817	0.21256	-1.8583	-2.0146	-2.3854	-2.4313	-2.0229	-2.4542	-2.2938	-2.2375	-2.6125	-2.2542	-2.4271	-2.5667	-2.2188	-2.6625	-2.5167	-2.2125	356.922	478.965	173.970	503.365	275.857	462.338	456.120	423.529	290.829	400.572	156.712	425.229	308.943	345.862	358.538	176.272	0.00028844	0.00028799	6.2479e-05	783.2	5.3108e-07	3.9518e-06	594.93	293.5	4.2136e-06	4.9552e-06	205.79	71.441	108.75	43.674	3.8234e-06	31.827	0.00076995	0.0013982	0.00040057	769.12	2.6665e-05	1.5785e-05	585.41	288.41	1.4309e-05	1.5777e-05	205.61	71.339	108.66	43.667	1.501e-05	32.179	227.899	230.364	223.259	162.858	285.255	298.838	161.475	167.638	300.165	282.230	165.688	169.222	171.926	176.293	320.113	172.779	-8191	255	
43261.523	1	1	0	0	0.062143	0.11816	0.078675	0.10717	0.14882	0.18823	0.15042	0.12286	0.38426	0.10441	0.12954	0.11682	0.11461	0.33535	0.12898	0.094497	-2.1333	-2.0854	-2.3042	-2.4979	-2.1271	-2.3958	-2.5208	-2.1625	-2.3604	-2.3354	-2.2146	-2.4167	-2	-2.5167	-2.4708	-1.9833	370.155	427.091	241.655	439.663	384.593	169.699	450.142	448.322	335.701	219.670	487.390	501.392	356.797	459.073	292.439	384.321	0.00032242	0.00023385	6.565e-05	785.64	1.8886e-06	1.2525e-05	592.33	291.66	4.3836e-06	3.8688e-06	205.23	71.95	109.19	43.6	2.0453e-06	31.83	0.00077446	0.0014129	0.00041993	770.88	1.9802e-05	2.9872e-05	583.33	288.09	1.4523e-05	1.61e-05	204.66	71.353	108.55	43.666	1.5093e-05	32.339	228.718	251.037	242.260	162.586	321.442	220.496	161.293	167.629	284.054	301.317	165.207	169.307	171.950	176.328	311.743	172.608	-8191	255	
43261.621	1	1	0	0	0.16571	0.1771	0.22232	0.12109	0.021107	0.2215	0.039389	0.089337	0.19575	0.12672	0.14467	0.14297	0.10168	0.22028	0.2089	0.066006	-1.95	-2.0125	-2.075	-2.5167	-2.0396	-2.2375	-2.4646	-2.1729	-2.3625	-2.1042	-1.9583	-2.4646	-2.0667	-2.2062	-2.3479	-1.9146	243.053	348.639	179.979	358.177	205.214	398.846	448.849	396.960	292.169	280.465	491.124	204.470	278.468	474.034	248.866	223.002	0.00031293	0.00065239	0.00013092	786.36	1.687e-06	7.0671e-06	598.35	291.76	3.0147e-06	3.2047e-06	205.92	72.02	110.35	44.078	3.1022e-06	32.366	0.00077706	0.0014633	0.00041672	771.29	1.3469e-05	3.4492e-05	587.17	289.03	1.4523e-05	1.67e-05	206.64	71.99	109.53	44.026	1.5218e-05	32.511	227.808	225.089	227.102	162.779	319.877	219.987	161.365	167.580	289.971	306.873	165.313	169.252	172.071	176.304	294.820	172.614	-8191	255	
43261.738	1	1	0	0	0.2159	0.15748	0.056826	0.15297	0.17078	0.23334	0.15994	0.094931	0.11749	0.047025	0.093763	0.11758	0.17986	0.45213	0.11902	0.16926	-1.9583	-2.2313	-2.1667	-2.5917	-2.2062	-2.2562	-2.3792	-2.2354	-2.4271	-2.3896	-2.2604	-2.4813	-2.2417	-2.3292	-2.3125	-2.1125	283.792	497.753	149.609	373.565	260.838	256.213	329.225	247.722	293.855	302.471	196.317	402.957	414.668	157.779	311.555	430.467	0.00031096	0.00035428	0.00012311	790.23	4.8822e-06	1.3408e-05	598.52	294.87	2.4268e-06	4.6641e-06	208.55	73.739	110.39	44.454	2.4267e-06	32.607	0.00078689	0.0014621	0.00042648	775.7	1.3747e-05	4.3013e-05	590.56	291.24	1.4244e-05	1.6941e-05	207.56	72.998	110.03	44.409	1.5673e-05	32.718	231.733	257.118	244.604	162.533	319.268	257.106	161.285	167.583	290.584	303.748	165.734	169.267	172.228	176.355	282.271	172.943	-8191	255	
43261.836	1	1	0	0	0.16591	0.10308	0.087231	0.3642	0.24875	0.04608	0.1369	0.37328	0.17543	0.12617	0.19526	0.071974	0.060318	0.37467	0.1851	0.26162	-2.0875	-2.3104	-2.0875	-2.8083	-2.2167	-2.1729	-2.6542	-2.2542	-2.3917	-2.3229	-2.175	-2.5292	-2.1333	-2.2771	-2.4583	-2.2104	294.648	382.632	174.501	430.244	370.874	362.351	392.069	414.535	153.034	241.806	297.562	353.179	390.903	177.814	314.905	287.235	0.00032724	0.00042275	0.00011679	793.54	4.9462e-06	8.0801e-06	594.41	291.91	3.696e-06	3.0731e-06	204.9	72.035	109.04	43.982	4.4275e-06	32.206	0.001335	0.0014622	0.00042622	775.37	1.3492e-05	3.4888e-05	585.62	288.58	1.4572e-05	1.6435e-05	206.17	71.512	108.87	43.962	1.5367e-05	32.115	209.964	241.190	239.620	162.666	284.771	257.106	161.470	167.645	302.618	273.819	165.426	169.122	172.258	176.282	277.577	172.536	-8191	255	
43261.934	1	1	0	0	0.01666	0.12003	0.15755	0.28862	0.18195	0.1165	0.047488	0.16435	0.22067	0.086852	0.22892	0.18107	0.32252	0.19355	0.23762	0.15596	-2.0521	-2.4583	-2.1604	-2.6021	-2.3146	-2.2396	-2.4813	-2.0667	-2.0021	-2.3708	-2.025	-2.4083	-2.1792	-2.2729	-2.4542	-2.2083	313.823	230.355	456.572	155.534	235.005	157.056	407.438	368.529	432.854	426.162	171.626	201.418	453.340	246.075	224.375	261.772	0.00023974	0.00058314	0.00010469	785.4	2.5695e-06	1.1144e-05	593.01	294.87	3.6926e-06	4.3571e-06	204.34	71.54	108.96	43.862	4.5546e-06	31.843	0.001402	0.0014639	0.00041118	769.92	1.3517e-05	4.2365e-05	583.18	289.03	1.468e-05	1.5987e-05	203.72	71.226	108.65	43.865	1.4799e-05	31.806	216.994	216.355	192.572	162.590	322.044	243.548	161.368	167.384	294.298	273.241	165.527	169.432	172.199	176.602	303.605	172.728	-8191	255	
43262.027	1	1	0	0	0.092387	0.36818	0.079312	0.33603	0.20622	0.21025	0.17338	0.1225	0.032827	0.29371	0.29921	0.14343	0.12491	0.16668	0.11495	0.16843	-1.9188	-2.2729	-2.1292	-2.3333	-2.3042	-1.9021	-2.3146	-2.0417	-2.3167	-2.4854	-1.9438	-2.4417	-2.3937	-2.0708	-2.5583	-2.1375	162.432	312.031	419.795	462.911	477.136	444.230	444.380	186.055	392.047	265.140	387.227	498.519	500.629	433.567	231.408	203.805	0.00026945	0.00041891	5.9037e-05	780.44	2.0915e-06	1.2757e-05	595.14	291.35	2.798e-06	2.5656e-06	204.55	71.277	109.07	44.041	4.1276e-06	32.038	0.001714	0.0014347	0.00039334	767.61	1.338e-05	3.4087e-05	583.29	288	1.4538e-05	1.5447e-05	203.59	71.727	108.8	43.965	1.4097e-05	32.025	213.289	224.005	231.436	162.638	323.517	266.048	161.887	167.363	291.901	272.494	165.342	169.253	171.831	176.631	287.393	172.855	-8191	255	
43262.121	1	1	0	0	0.19579	0.16987	0.12243	0.22994	0.028204	0.13356	0.048093	0.34178	0.13683	0.11719	0.10346	0.18939	0.22312	0.17259	0.061582	0.30325	-1.7437	-2.5229	-2.075	-2.4833	-2.3854	-2.1979	-2.5938	-2.2417	-2.2792	-2.5833	-2.0062	-2.4708	-2.4458	-2.2021	-2.5875	-2.3563	411.631	468.632	473.526	177.994	158.645	285.236	334.778	461.405	392.438	487.953	486.736	375.901	484.931	185.825	442.567	412.291	0.00024363	0.00045297	0.00011497	787.37	2.8559e-06	1.5678e-05	595.93	291.99	2.122e-06	2.4557e-06	204.29	71.432	109.02	44.173	2.7022e-06	32.374	0.0014509	0.0013962	0.00038486	772.31	1.3724e-05	4.1788e-05	585.78	288.22	1.3759e-05	1.5187e-05	202.26	71.94	108.74	44.1	1.3893e-05	32.202	213.947	228.646	251.468	162.621	285.277	255.221	161.668	167.682	286.519	304.474	165.284	169.612	171.972	176.260	278.231	172.857	-8191	255	
43262.219	1	1	0	0	0.11834	0.025987	0.13184	0.33798	0.13249	0.3387	0.23512	0.24556	0.19568	0.1071	0.35521	0.21744	0.076861	0.031949	0.1212	0.27442	-1.6313	-2.3417	-2.0021	-2.2042	-2.3521	-2.1688	-2.5083	-2.3812	-2.1042	-2.6021	-2.1729	-2.2938	-2.5062	-2.0854	-2.3583	-2.2188	415.803	418.731	392.605	172.404	432.310	216.897	453.253	444.532	313.781	316.156	339.931	366.174	206.498	373.008	211.525	438.211	0.00030705	0.00034155	9.9408e-05	787.4	2.4465e-06	6.6405e-06	595.1	292	2.4452e-06	1.4061e-06	202.36	70.674	108.2	43.626	4.9985e-06	31.786	0.0017331	0.0013417	0.00037772	772.66	1.3139e-05	2.9345e-05	582.89	288.02	1.4202e-05	1.4687e-05	200.58	71.188	107.89	43.656	1.3404e-05	31.571	219.492	226.349	279.439	162.758	346.064	326.762	161.768	167.615	331.834	292.725	165.655	169.158	171.851	176.131	301.689	172.822	-8191	255	
43262.340	1	1	0	0	0.29093	0.33741	0.090541	0.23116	0.10547	0.10862	0.19841	0.18707	0.020095	0.08552	0.16859	0.27741	0.19106	0.24763	0.22431	0.13168	-1.6146	-2.5604	-2.0146	-2.4229	-2.4042	-2.1896	-2.3833	-2.4437	-2.2646	-2.5375	-2.15	-2.0312	-2.5812	-2.2188	-2.4667	-2.3167	238.940	310.796	268.147	498.823	364.836	431.231	180.599	227.029	268.731	326.309	345.210	411.197	448.543	453.639	474.146	357.380	0.00025806	0.00018367	7.7386e-05	780.37	3.2917e-06	6.6685e-06	589.79	288.78	3.8296e-06	2.135e-06	199.63	69.74	106.99	42.83	4.9232e-06	30.927	0.0013728	0.0012946	0.00036975	766.1	1.2388e-05	1.9138e-05	580.37	284.91	1.3499e-05	1.477e-05	197.68	69.814	106.55	42.753	1.3847e-05	30.858	214.736	208.809	246.881	162.976	305.442	326.031	161.082	167.333	286.231	297.863	165.008	169.336	172.147	176.057	251.015	172.528	-8191	255	
43262.438	1	1	0	0	0.21651	0.12099	0.26746	0.30561	0.19833	0.263	0.22898	0.1763	0.20255	0.11065	0.15832	0.16395	0.24949	0.18928	0.14397	0.12771	-1.7042	-2.6083	-2.3458	-2.1312	-2.5417	-2.2812	-2.4667	-2.5229	-2.1417	-2.4688	-2.2979	-1.9917	-2.5771	-2.2625	-2.2646	-2.4771	237.803	482.805	154.730	171.128	177.872	287.666	427.490	492.696	404.375	194.579	228.981	415.422	451.044	387.381	298.124	231.405	0.00030686	0.00040356	0.00013912	776.97	3.9162e-06	3.4607e-06	585.85	286.27	3.6768e-06	4.243e-06	199.26	69.363	106.09	42.035	2.5819e-06	30.498	0.0016645	0.0012725	0.00037783	762.35	1.2178e-05	1.4008e-05	576.74	282.38	1.3371e-05	1.4523e-05	196.93	69.521	105.54	42.131	1.3896e-05	30.502	214.551	246.533	278.100	162.871	324.322	296.118	161.404	167.358	297.891	303.836	165.103	169.343	172.004	176.610	308.613	172.731	-8191	255	
43262.508	1	1	0	0	0.1806	0.15556	0.15628	0.24756	0.23341	0.16465	0.1385	0.13816	0.086422	0.1882	0.33169	0.038387	0.13716	0.16049	0.011562	0.085482	-1.3979	-2.3083	-2.0958	-2.1542	-2.2771	-2.3854	-2.2938	-2.3521	-2.0875	-2.3729	-2.3583	-2.0479	-2.5646	-2.125	-2.2188	-2.5167	225.779	195.274	349.937	360.964	495.963	181.725	367.204	434.147	372.528	293.269	463.562	419.195	474.769	420.862	474.386	481.823	0.0002832	0.00059683	8.2462e-05	773.33	3.9277e-06	3.8211e-06	584.53	283.74	4.185e-06	4.9172e-06	197.46	69.162	105.32	42.083	4.7092e-06	30.782	0.0011954	0.0014523	0.00037433	759.3	1.2063e-05	1.4779e-05	578.06	280.91	1.2536e-05	1.4624e-05	195.85	69.139	104.6	42.003	1.4184e-05	30.561	225.411	174.955	245.676	162.911	302.494	303.926	161.693	167.657	323.092	273.951	165.290	169.522	172.131	176.372	301.293	172.646	-8191	255	
43262.605	1	1	0	0	0.054402	0.094105	0.15732	0.26543	0.081397	0.22034	0.35524	0.1332	0.23327	0.14378	0.23521	0.12164	0.27795	0.21751	0.18384	0.094975	-1.4792	-2.2667	-2.3792	-1.8563	-2.4771	-2.1292	-2.1958	-2.6125	-2.0646	-2.2	-2.2646	-2.0542	-2.5146	-2.3958	-2.1542	-2.5167	190.037	249.876	216.409	460.250	509.609	189.810	448.527	274.931	292.663	255.607	218.036	373.041	488.739	434.640	150.477	229.886	0.00026185	0.00077079	8.0159e-05	771.54	2.3994e-06	5.9625e-06	584.27	284.25	3.6652e-06	2.5282e-06	199.47	68.929	104.88	41.829	4.6977e-06	30.48	0.00085224	0.0030464	0.00037304	756.27	1.2142e-05	1.5172e-05	575.77	280.43	1.3431e-05	1.4891e-05	197.34	69.544	104.42	41.857	1.4458e-05	30.431	228.103	504.653	277.999	162.776	326.577	298.229	161.513	167.683	315.041	305.541	165.308	169.919	171.961	176.242	282.467	172.851	-8191	255	
43262.727	1	1	0	0	0.058322	0.13054	0.2125	0.089121	0.15614	0.030379	0.18419	0.11713	0.085362	0.084112	0.30583	0.30199	0.10659	0.46044	0.29219	0.12482	-1.7333	-2.1562	-2.3812	-1.9375	-2.5	-2.3271	-2.1292	-2.6771	-2.1813	-2.2313	-2.4437	-1.9792	-2.2896	-2.425	-2.0083	-2.7104	477.807	376.702	312.581	403.691	163.770	257.567	432.526	351.362	188.154	223.809	421.745	162.877	482.185	485.392	265.530	490.201	0.00032067	0.00040921	0.00013859	767.98	3.9943e-06	3.1432e-06	580.46	281.76	4.3073e-06	3.02e-06	195.76	67.638	104	41.258	4.0518e-06	30.201	0.00074108	0.0028816	0.00038912	752.07	1.2584e-05	1.4797e-05	572.71	278.65	1.3679e-05	1.5461e-05	194.61	67.968	103.68	41.454	1.4464e-05	30.17	230.947	151.232	229.097	162.820	325.289	308.957	161.727	167.872	313.450	322.374	165.311	169.532	172.063	176.353	262.483	172.580	-8191	255	
43262.820	1	1	0	0	0.19844	0.1133	0.029663	0.2815	0.099687	0.10362	0.23297	0.10709	0.058776	0.25228	0.062004	0.15669	0.22681	0.031417	0.10784	0.27803	-1.6771	-2.3	-2.4271	-2.0479	-2.4375	-2.3208	-2.125	-2.4875	-2.2146	-2.3229	-2.5917	-2.025	-2.3021	-2.2729	-2.0687	-2.5938	335.412	447.188	193.814	423.675	272.153	257.605	434.785	459.806	270.666	340.235	381.982	484.136	508.483	505.746	299.849	250.897	0.00029469	0.00088756	7.1065e-05	765.95	3.088e-06	3.1782e-06	577.09	283.29	3.9854e-06	4.546e-06	198.47	68.668	105.45	41.885	3.3126e-06	30.619	0.00073572	0.0036325	0.00037754	750.53	1.2648e-05	1.4991e-05	571.27	279.07	1.3654e-05	1.5718e-05	195.31	68.304	105.39	41.936	1.4297e-05	30.575	228.855	505.915	229.932	162.608	297.992	263.845	161.713	167.606	302.607	313.908	165.071	169.291	172.056	176.330	314.663	172.495	-8191	255	
43262.918	1	1	0	0	0.12587	0.17974	0.025606	0.049074	0.14897	0.06903	0.27597	0.2561	0.26366	0.071122	0.14336	0.22823	0.06185	0.29176	0.16983	0.13593	-1.7792	-1.9562	-2.3083	-2.2792	-2.225	-2.3625	-2.2021	-2.3958	-2.2167	-1.9875	-2.4333	-2.0229	-2.2417	-2.5229	-1.9271	-2.3625	388.641	396.165	182.772	464.815	442.105	158.572	151.568	408.916	161.533	327.702	465.021	457.820	420.523	462.416	327.855	396.884	0.00030755	0.00090578	0.00012095	767.59	3.3947e-06	4.3341e-06	583.24	285.46	4.6248e-06	2.8788e-06	201.73	69.946	106.5	42.726	4.3414e-06	31.146	0.0007548	0.0029387	0.0003709	754.43	1.3209e-05	1.5376e-05	576.65	281.58	1.4045e-05	1.5803e-05	198.39	69.305	106.84	42.774	1.5014e-05	31.213	228.263	488.609	211.353	162.838	306.470	345.036	161.387	167.613	285.309	307.312	165.317	169.258	172.159	176.318	288.940	172.727	-8191	255	
43263.012	1	1	0	0	0.065078	0.07504	0.34647	0.17788	0.23943	0.050308	0.28846	0.10969	0.13411	0.097352	0.2409	0.31154	0.34697	0.041053	0.24445	0.10177	-1.7313	-2.025	-2.4729	-2.1542	-2.1104	-2.1708	-1.9625	-2.5146	-2.2271	-2	-2.4479	-2.1875	-2.15	-2.5542	-2.0167	-2.4729	477.293	275.393	227.468	477.774	304.080	446.533	460.393	316.742	407.343	459.050	233.674	502.750	451.641	262.619	421.976	297.968	0.00030385	0.00090709	9.3986e-05	773.44	2.563e-06	3.3551e-06	588.82	289.18	1.7755e-06	1.1636e-06	203.36	70.884	107.73	43.328	3.0528e-06	31.667	0.00078071	0.0037316	0.00036686	759.28	1.3453e-05	1.5743e-05	580.9	285.01	1.3718e-05	1.6334e-05	200.75	70.506	108.24	43.395	1.4162e-05	31.69	229.629	499.490	263.802	162.688	306.122	301.758	161.599	167.588	291.212	284.277	165.551	169.358	172.262	176.390	320.669	172.658	-8191	255	
43263.133	1	1	0	0	0.29899	0.17873	0.14972	0.53357	0.068838	0.14171	0.13166	0.21796	0.14585	0.076549	0.10622	0.16441	0.33035	0.18652	0.17083	0.20101	-1.8396	-2.0417	-2.6146	-2.475	-2.1479	-2.4979	-1.9083	-2.3375	-2.2687	-2.0917	-2.3958	-2.0979	-2.2583	-2.6771	-2.125	-2.3604	369.434	314.106	262.640	459.730	372.925	502.195	506.723	174.863	389.130	333.742	406.645	358.268	499.519	404.902	320.639	450.971	0.00030262	0.0008759	1.0963e-05	780.72	3.0993e-06	3.6121e-06	587.41	288.56	2.719e-06	5.757e-06	201.15	70.048	107.2	43.273	2.9095e-06	31.425	0.00077185	0.0030418	0.00038462	764.27	1.382e-05	1.5709e-05	578.19	285.87	1.4059e-05	1.5436e-05	198.61	69.887	107.48	43.28	1.454e-05	31.44	229.108	151.368	370.729	162.857	315.762	281.927	161.692	167.571	302.726	268.144	165.708	169.180	172.169	176.468	316.477	172.421	-8191	255	
43263.203	1	1	0	0	0.18195	0.25885	0.2744	0.16874	0.24084	0.15184	0.18294	0.17931	0.23278	0.14325	0.30512	0.16042	0.19466	0.062458	0.28006	0.18847	-1.8979	-1.8604	-2.1708	-2.2604	-1.9479	-2.5271	-2.2	-2.425	-2.4167	-2.0312	-2.3458	-2.3458	-2.0687	-2.4979	-2.2042	-2.3146	438.757	264.141	311.661	253.310	498.958	506.086	463.555	390.734	435.298	199.127	368.980	211.016	155.972	372.791	506.714	169.966	0.00030448	0.0009338	0.00014017	778.57	3.6863e-06	5.3489e-06	583.56	288.09	4.122e-06	1.9234e-06	200.18	70.252	107.81	43.217	3.0958e-06	31.576	0.00077465	0.0035913	0.00039177	761.59	1.31e-05	1.5647e-05	574.75	285.55	1.3572e-05	1.5931e-05	198.74	69.962	108.3	43.318	1.4454e-05	31.566	222.484	158.549	247.346	162.735	305.075	296.979	161.416	167.672	277.764	274.033	165.388	169.614	172.216	176.311	292.730	172.819	-8191	255	
43263.301	1	1	0	0	0.11276	0.094213	0.10735	0.3319	0.17563	0.10354	0.23014	0.38281	0.11819	0.20129	0.14976	0.27104	0.11478	0.25537	0.15503	0.062165	-1.975	-2.1604	-2.3937	-2.3937	-1.9042	-2.4167	-2.2521	-2.3458	-2.4062	-1.9979	-2.4542	-2.4	-2.2146	-2.4188	-2.1104	-1.9479	507.449	378.752	504.381	458.166	324.641	319.327	197.729	289.350	377.729	276.333	248.166	425.611	409.366	355.371	176.936	477.561	0.00029756	9.3835e-05	0.00020349	776.99	3.3303e-06	2.9299e-06	584.73	289.88	4.1302e-06	4.8785e-06	202.51	70.909	108.72	43.671	3.9454e-06	31.857	0.00077034	0.0023263	0.00049081	761.74	1.3373e-05	1.5437e-05	577.41	287.54	1.3951e-05	1.5631e-05	200.61	70.567	108.79	43.665	1.4985e-05	31.801	226.768	396.301	197.269	162.810	288.215	297.539	161.813	167.752	295.033	265.419	165.595	168.918	172.449	176.622	287.170	172.902	-8191	255	
43263.422	1	1	0	0	0.30328	0.13576	0.16234	0.20485	0.21477	0.094381	0.11475	0.26131	0.016304	0.23343	0.28164	0.029321	0.1195	0.48084	0.27353	0.24012	-2.0479	-1.9229	-2.1896	-2.3167	-1.975	-2.7417	-2.2354	-2.2458	-2.5458	-2.0479	-2.3729	-2.4437	-2.1021	-2.4104	-2.2271	-2.0687	200.592	438.048	206.925	413.987	247.247	383.255	472.220	210.536	457.208	174.074	505.130	395.703	346.003	465.108	332.113	424.211	0.0002969	0.00038273	0.00029435	784.78	2.8172e-06	4.4041e-06	595.64	291.09	2.4776e-06	5.2679e-06	204.48	71.942	109.24	44.174	5.0752e-06	32.488	0.00075849	0.0014339	0.00095514	768.67	1.3215e-05	1.5947e-05	583.52	289.39	1.3673e-05	1.5944e-05	202.78	71.451	109.91	44.201	1.5147e-05	32.382	229.217	231.999	174.466	162.600	331.108	312.376	161.491	167.754	277.006	291.341	165.421	169.699	171.880	176.454	293.152	172.199	-8191	255	
43263.516	1	1	0	0	0.35909	0.017825	0.20869	0.045873	0.039726	0.041249	0.1264	0.075014	0.092763	0.21911	0.21075	0.12093	0.15262	0.17432	0.088712	0.085727	-2.0229	-2.025	-2.1792	-2.5083	-2	-2.3563	-2.3479	-2.0417	-2.275	-2.0458	-2.2188	-2.6521	-1.9896	-2.4958	-2.1833	-2.1604	206.031	272.011	191.171	263.195	216.230	196.914	407.367	272.642	177.891	193.922	412.589	356.072	186.830	491.744	298.119	359.077	0.00030122	0.00034344	0.0002232	787.78	3.9862e-06	3.5323e-06	596.52	292.56	3.8943e-06	2.8522e-06	206.74	71.697	109.75	44.073	3.811e-06	32.206	0.00076214	0.0014094	0.00084489	773.34	1.3054e-05	1.5602e-05	587.9	291.42	1.3574e-05	1.5574e-05	202.94	71.206	109.39	44.286	1.4587e-05	32.209	231.557	242.041	194.061	162.851	295.980	269.216	161.409	167.709	313.677	284.920	165.445	169.201	172.091	176.454	295.217	172.693	-8191	255	
43263.613	1	1	0	0	0.058154	0.16522	0.016397	0.19309	0.11719	0.19603	0.14355	0.19118	0.20631	0.084587	0.15218	0.15996	0.14684	0.050326	0.13308	0.21315	-1.9271	-2.0563	-2.0563	-2.5417	-1.9729	-2.3146	-2.4542	-2.1229	-2.3563	-2.1583	-2.2083	-2.4562	-2.0708	-2.4333	-2.5479	-2.1854	175.020	292.325	393.737	491.220	506.361	407.150	393.569	444.743	494.083	432.971	214.539	350.609	426.063	426.812	448.591	450.383	0.00030204	0.00046351	0.00027712	782.52	4.9544e-06	2.6905e-06	593.15	291.57	3.1571e-06	3.3926e-06	204.25	71.249	108.89	44.244	3.5844e-06	31.944	0.00075705	0.0014303	0.0010282	768.91	1.3522e-05	1.5638e-05	582.31	288.93	1.3615e-05	1.5576e-05	200.75	70.652	108.42	44.565	1.4511e-05	32.083	227.015	255.322	186.617	162.960	304.320	277.044	161.452	167.500	315.403	286.349	165.249	169.207	172.134	176.431	299.865	172.800	-8191	255	
43263.734	1	1	0	0	0.22806	0.13831	0.09323	0.26198	0.17036	0.11184	0.16438	0.23322	0.14849	0.15659	0.16279	0.11563	0.26166	0.18428	0.22215	0.37166	-1.9854	-2.2667	-2.0312	-2.4021	-2.1208	-2.2792	-2.3333	-2.0479	-2.35	-2.2708	-2.0687	-2.2708	-2.0417	-2.2625	-2.5146	-2.0062	235.430	192.958	276.706	462.963	166.479	231.051	259.350	463.211	194.784	277.636	181.504	434.520	168.581	398.115	375.057	416.058	0.00029675	0.00051255	0.00030154	783.27	4.6776e-06	2.0375e-06	590.96	290.15	2.654e-06	2.2917e-06	203.3	71.623	108.51	44.428	4.3297e-06	32.499	0.00076843	0.0014525	0.0008347	767.26	1.3345e-05	1.6041e-05	582.53	289.64	1.4399e-05	1.5706e-05	201.73	70.928	108.72	44.695	1.4574e-05	32.418	224.987	249.328	190.898	162.608	287.535	306.159	161.355	167.820	290.378	248.313	165.564	169.101	172.259	176.347	316.716	172.471	-8191	255	
43263.805	1	1	0	0	0.26639	0.10453	0.35823	0.1774	0.25258	0.1655	0.19176	0.2606	0.21824	0.14957	0.13755	0.27731	0.36457	0.20785	0.19444	0.17746	-2.0125	-2.2896	-2.0292	-2.5146	-2.15	-1.9854	-2.4375	-2.0667	-2.2875	-2.2917	-2.1354	-2.5271	-2.2875	-2.3521	-2.3271	-2.0229	391.704	409.777	240.549	495.710	198.519	401.664	486.340	461.715	174.404	249.084	220.566	451.686	225.879	302.169	495.794	411.509	0.00030916	0.00030786	0.00031699	786.49	2.1928e-06	5.0714e-06	598.9	293.19	4.751e-06	4.1241e-06	206.33	71.486	109.92	44.677	3.636e-06	32.765	0.0007825	0.0014505	0.001028	770.39	1.3501e-05	1.5777e-05	586.51	290.38	1.9134e-05	1.5558e-05	203.31	71.368	109.57	45.032	1.4269e-05	32.64	229.506	256.867	191.908	162.756	316.491	271.410	161.596	167.721	296.460	302.248	165.256	169.412	171.975	176.391	302.458	172.946	-8191	255	
43263.902	1	1	0	0	0.2692	0.10882	0.22591	0.20051	0.064632	0.18404	0.23377	0.37671	0.084201	0.14872	0.21664	0.20799	0.30095	0.079397	0.31309	0.084655	-1.9604	-2.5167	-1.9542	-2.4646	-2.225	-2.05	-2.5375	-2.0083	-2.4333	-2.5542	-2.0312	-2.4146	-2.1792	-2.1354	-2.5687	-1.9271	383.759	500.725	434.406	278.771	153.452	387.589	508.516	175.642	452.216	338.316	384.942	198.837	441.230	450.280	262.910	261.442	0.00031829	0.00048205	0.00027642	789.42	2.3384e-06	3.316e-06	595.22	292.8	5.5692e-06	4.7066e-06	206.54	72.346	109.86	44.897	2.738e-06	32.294	0.000783	0.0014536	0.0008389	774.7	1.3393e-05	1.6166e-05	587.18	289.85	3.4727e-05	1.5599e-05	203.99	71.756	109.64	45.105	1.4408e-05	32.374	231.884	233.993	192.111	162.851	342.717	333.015	161.217	167.482	308.990	295.902	165.182	169.245	171.962	176.444	295.806	172.595	-8191	255	
43264.023	1	1	0	0	0.2185	0.10008	0.058101	0.30277	0.1819	0.18026	0.16161	0.25742	0.22192	0.12082	0.087034	0.17692	0.24835	0.39623	0.031455	0.1853	-2.0021	-2.3375	-1.9708	-2.5083	-2.2354	-2.2354	-2.4437	-2.2542	-2.2417	-2.5104	-2.1521	-2.4417	-2.3625	-2.2792	-2.5521	-2.0979	361.986	221.964	417.311	183.058	313.958	323.167	332.140	192.267	298.119	484.803	466.733	264.309	278.708	422.037	290.737	487.032	0.00029104	0.0003128	0.00037238	786.13	3.242e-06	3.6159e-06	591.16	291.25	6.5289e-06	2.7087e-06	201.9	70.605	108.6	44.255	3.4943e-06	32.078	0.00079186	0.0013531	0.0010255	770.57	1.3543e-05	1.5535e-05	581.62	287.89	2.8696e-05	1.5257e-05	200.31	70.405	108.46	44.597	1.4731e-05	31.884	228.996	265.247	223.097	162.817	289.551	243.988	161.321	167.567	359.295	354.630	165.169	169.325	171.896	176.338	310.123	172.224	-8191	255	
43264.117	1	1	0	0	0.24593	0.24455	0.15815	0.066594	0.3443	0.039912	0.27467	0.32278	0.060902	0.067816	0.14313	0.31351	0.17493	0.12927	0.29234	0.2399	-1.6938	-2.3542	-2.1708	-2.4042	-2.3625	-2.0458	-2.5875	-2.2479	-2.2854	-2.3125	-2.1125	-2.0979	-2.3729	-2.0479	-2.4521	-2.1729	199.933	311.966	282.523	195.170	205.221	276.475	499.786	370.314	217.119	349.836	247.258	166.241	474.343	484.882	392.239	421.618	0.00029491	0.00045832	0.00015135	781.03	2.7447e-06	3.452e-06	589.18	288.81	7.1986e-06	3.5807e-06	201.35	69.625	107.64	43.639	2.641e-06	31.625	0.00077799	0.0013656	0.00059229	766.67	1.3179e-05	1.6063e-05	578.15	285.88	3.5859e-05	1.5016e-05	199.21	69.675	107.34	43.87	1.437e-05	31.559	221.677	219.258	270.088	162.791	259.344	286.453	161.450	167.739	360.175	264.791	165.409	169.342	172.003	176.383	289.674	172.574	-8191	255	
43264.211	1	1	0	0	0.23225	0.23386	0.29546	0.08332	0.31434	0.16008	0.076154	0.19482	0.09387	0.056271	0.06783	0.17652	0.16677	0.16661	0.23659	0.48115	-1.5083	-2.5396	-2.0042	-2.3271	-2.3187	-2.1604	-2.4583	-2.3979	-2.0854	-2.4375	-2.0938	-2.2958	-2.55	-1.9875	-2.275	-2.1688	398.601	167.714	218.578	221.369	262.960	439.835	454.047	376.505	472.762	437.065	490.458	168.222	419.629	199.414	365.043	428.592	0.00031008	0.00020976	6.813e-05	776.05	2.3888e-06	3.7673e-06	589.24	288.78	4.7415e-06	3.5992e-06	201.65	70.372	107.55	43.776	5.3347e-06	31.784	0.00080977	0.0014188	0.00040126	766.61	1.3114e-05	1.5411e-05	578.26	285.39	2.8935e-05	1.5229e-05	199.35	70.048	107.29	43.984	1.474e-05	31.678	228.303	253.216	215.647	163.075	303.483	316.500	161.281	167.516	359.345	283.030	165.406	169.562	172.023	176.392	307.062	172.287	-8191	255	
43264.309	1	1	0	0	0.19099	0.17068	0.1599	0.25717	0.14936	0.1369	0.14162	0.2369	0.23979	0.24792	0.45651	0.16185	0.3838	0.14981	0.26507	0.17936	-1.4771	-2.4562	-1.9229	-2.2729	-2.4583	-1.8875	-2.5062	-2.4625	-2.0896	-2.5646	-2.2604	-2.1854	-2.4542	-2.1146	-2.2333	-2.5146	503.434	384.289	250.515	217.725	455.417	199.080	394.830	154.378	274.406	398.192	396.162	381.104	434.994	469.661	362.737	277.771	0.0003213	0.0003559	7.3712e-05	779.77	2.7831e-06	4.1238e-06	593.15	290.22	5.5456e-06	2.4498e-06	204.26	71.123	108.59	44.006	5.6008e-06	32.282	0.00079066	0.0014463	0.00039399	769.05	1.2696e-05	1.5727e-05	582.13	287.03	3.5736e-05	1.6041e-05	201.89	70.845	108.23	44.224	2.1534e-05	32.117	228.964	162.325	223.761	162.620	279.960	318.528	161.459	167.667	366.419	306.081	165.203	169.189	172.243	176.445	229.172	172.475	-8191	255	
43264.383	1	1	0	0	0.1417	0.2125	0.13495	0.23128	0.28075	0.088815	0.17284	0.072778	0.17977	0.16274	0.22565	0.14538	0.34801	0.15782	0.21329	0.17167	-1.4562	-2.3812	-2.0667	-2.2896	-2.45	-2.1896	-2.3917	-2.3083	-1.9583	-2.5917	-2.2438	-2.0646	-2.525	-2.0792	-2.3604	-2.4062	175.167	466.584	172.031	483.662	169.051	396.354	427.396	168.802	441.831	469.325	490.149	164.380	166.612	433.915	461.931	378.480	0.00034561	0.00048379	4.1679e-05	785.83	1.9694e-06	5.1038e-06	592.89	289.66	3.9844e-06	3.8462e-06	202.41	70.562	108.12	43.997	3.7884e-06	31.971	0.0007884	0.0014494	0.00039888	773.21	1.3049e-05	1.5901e-05	580.37	286.7	2.8923e-05	1.5258e-05	199.67	70.296	107.77	43.997	3.7816e-05	31.779	228.976	221.250	235.067	162.943	288.020	295.067	161.317	167.497	356.398	332.523	165.444	169.350	172.033	176.455	214.818	172.439	-8191	255	
43264.500	1	1	0	0	0.076581	0.11403	0.14683	0.14783	0.099546	0.23981	0.043826	0.06812	0.21527	0.15939	0.03838	0.18059	0.18363	0.17122	0.43119	0.09147	-1.2979	-2.2729	-2.1083	-2.2188	-2.6021	-2.1312	-2.2917	-2.4625	-2.0583	-2.3688	-2.3396	-2.0729	-2.5667	-2.1437	-2.175	-2.3563	355.522	193.282	259.212	177.826	166.758	437.776	357.867	220.494	389.504	485.514	349.215	201.580	167.977	194.199	289.808	330.985	0.00030332	0.00039034	7.2664e-05	777.55	4.2232e-06	5.2519e-06	585.94	289.14	4.1684e-06	2.6366e-06	202.49	70.3	108.21	44.009	4.7369e-06	31.731	0.00076708	0.0014564	0.00038997	765.02	1.3129e-05	1.6399e-05	577.05	285.49	3.6328e-05	1.6356e-05	199.44	70.034	107.81	43.874	3.0123e-05	31.725	223.997	268.796	246.940	162.770	326.934	289.607	161.625	167.571	391.331	275.154	165.065	169.397	172.043	176.368	192.476	172.560	-8191	255	
43264.598	1	1	0	0	0.16635	0.19692	0.084579	0.19948	0.10286	0.35651	0.13297	0.14839	0.17781	0.18621	0.18777	0.071109	0.16243	0.26505	0.094704	0.079182	-1.4958	-2.4313	-2.3396	-2.1542	-2.4458	-2.1104	-2.1396	-2.4813	-2.2292	-2.2958	-2.4188	-2.0917	-2.3354	-2.2208	-2.3292	-2.6292	338.596	432.864	430.493	454.052	265.915	405.352	344.099	370.954	205.319	307.770	393.814	481.510	451.065	460.231	244.238	430.668	0.00032441	0.00037389	8.0144e-05	775.48	3.7259e-06	2.3848e-07	588.03	289.6	4.2329e-06	1.3184e-06	203.64	70.957	109.1	44.072	9.0998e-06	32.11	0.00078293	0.0014448	0.00041316	766.57	1.3351e-05	1.596e-05	576.93	285.97	1.9925e-05	2.394e-05	200.01	70.469	108.58	44.185	3.8552e-05	31.916	226.731	247.346	234.126	162.856	333.268	170.012	161.233	167.539	364.174	230.334	165.314	169.275	172.285	176.521	218.843	172.798	-8191	255	
43264.691	1	1	0	0	0.31506	0.13419	0.14266	0.13854	0.15169	0.048767	0.25717	0.40373	0.1533	0.19626	0.12875	0.096292	0.056974	0.25208	0.15452	0.26162	-1.4979	-2.1458	-2.3646	-2.0521	-2.4667	-2.1083	-2.1188	-2.625	-2.0667	-2.2125	-2.4917	-1.95	-2.4938	-2.2708	-1.9625	-2.4333	472.902	405.753	385.968	188.183	359.162	420.619	444.040	471.400	339.763	162.314	402.933	493.012	474.530	501.277	507.633	402.531	0.00033141	0.00053872	0.00010794	784.87	3.099e-06	3.4439e-06	591.23	292.4	2.1736e-06	8.983e-06	204.93	71.739	109.49	44.337	8.3521e-06	32.296	0.00080352	0.0014255	0.00039185	771.64	1.3638e-05	1.6196e-05	582.63	288.29	1.4553e-05	4.2129e-05	202.2	71.487	109.41	44.474	3.1186e-05	32.314	231.340	247.012	224.265	162.971	315.472	311.656	161.641	167.738	292.262	403.018	165.371	169.384	172.020	176.420	236.422	172.725	-8191	255	
43264.812	1	1	0	0	0.16375	0.12766	0.18649	0.051743	0.11442	0.12836	0.41388	0.10425	0.15924	0.1224	0.038747	0.065152	0.09643	0.16395	0.22932	0.25155	-1.6375	-2.2167	-2.2875	-1.9854	-2.4521	-2.2646	-2.1292	-2.725	-2.0792	-2.2938	-2.3042	-2.0167	-2.4521	-2.4167	-2.1813	-2.6604	234.356	418.850	182.405	149.901	300.090	446.189	505.790	188.632	279.275	312.537	488.991	471.855	226.345	304.594	305.218	484.604	0.0003224	0.00048113	9.9341e-05	788.26	4.9305e-06	2.9871e-06	597.1	293.15	4.6629e-06	4.3764e-06	204.06	71.621	109.56	44.572	7.7378e-06	32.239	0.0008067	0.001443	0.00039861	776.75	1.3719e-05	1.5817e-05	587.03	289.97	1.4621e-05	3.4177e-05	202.1	71.333	109.32	44.523	3.7588e-05	32.18	224.971	233.132	260.958	162.782	312.413	296.687	161.660	167.585	307.053	384.018	165.367	169.668	171.987	176.377	214.472	172.501	-8191	255	
43264.910	1	1	0	0	0.17475	0.27518	0.22681	0.25269	0.20881	0.139	0.34993	0.089233	0.14297	0.1172	0.052414	0.17821	0.1463	0.14208	0.16493	0.04775	-1.8458	-2.1042	-2.3458	-2.175	-2.3	-2.2812	-2.0292	-2.5229	-2.1771	-2.2521	-2.5	-1.9583	-2.3688	-2.5979	-2.0333	-2.2542	249.487	319.370	186.846	162.375	272.148	168.769	462.492	504.397	305.816	372.992	224.292	501.654	505.458	504.336	490.810	260.992	0.00031441	0.00035587	0.00011383	782.79	6.0033e-06	4.3616e-06	588.71	291.52	3.9889e-06	8.8852e-06	202.14	71.101	109.17	44.234	8.2169e-06	31.887	0.00078479	0.0014428	0.00038422	768.27	2.0313e-05	1.6027e-05	579.69	287.93	1.4335e-05	4.1523e-05	200.34	70.892	108.63	44.313	3.0278e-05	31.93	229.544	192.980	250.412	162.544	288.436	335.596	161.232	167.734	301.789	417.879	165.415	169.409	172.008	176.501	224.159	172.568	-8191	255	
43265.004	1	1	0	0	0.15498	0.19877	0.032553	0.21752	0.052409	0.1609	0.11731	0.2603	0.22742	0.15672	0.056563	0.12094	0.062565	0.32782	0.21479	0.15749	-1.6479	-1.9188	-2.5646	-2.2458	-2.3896	-2.5521	-2.0229	-2.3625	-2.5708	-2.1937	-2.5333	-2.2354	-2.4042	-2.4271	-2.1312	-2.4271	372.457	277.951	274.891	170.093	378.593	174.933	346.240	471.071	286.987	468.890	169.749	445.711	456.184	382.665	255.744	212.113	0.00030688	0.00026058	8.7393e-05	775.49	1.151e-05	4.9104e-06	589.03	289.37	3.2448e-06	6.4637e-06	202.77	70.87	109.1	44.275	2.6824e-06	32.165	0.00079314	0.0014318	0.00039211	762.46	3.3755e-05	1.5274e-05	577.48	286.54	1.4413e-05	3.3551e-05	200.89	70.717	108.44	44.289	3.6375e-05	32.133	230.014	246.233	233.945	162.679	320.997	317.556	161.650	167.805	289.336	421.763	165.461	169.710	172.364	176.543	286.335	172.647	-8191	255	
43265.102	1	1	0	0	0.12514	0.23009	0.17884	0.30959	0.048448	0.2327	0.35938	0.13674	0.17346	0.1587	0.085029	0.17602	0.46276	0.19034	0.17991	0.18438	-2.1188	-1.9354	-2.3833	-2.2562	-2.2438	-2.5312	-2.2313	-2.4208	-2.3604	-2.2333	-2.5229	-2.3	-2.0479	-2.6396	-1.9792	-2.4354	372.470	164.264	416.609	491.023	487.504	402.739	385.772	342.735	158.396	314.717	480.548	159.540	489.129	327.837	494.328	464.501	0.00029594	0.00039556	0.00013247	775.7	6.7098e-06	3.1856e-06	587.44	289.82	3.7494e-06	5.9601e-06	205.03	71.231	108.95	44.39	2.1136e-06	32.652	0.00078277	0.0014699	0.00040008	762.13	2.7966e-05	1.6074e-05	578.04	286.31	1.4601e-05	4.2876e-05	202.31	71.17	108.39	44.497	2.0409e-05	32.684	231.956	230.662	253.510	162.528	329.311	323.129	161.536	167.631	324.919	433.190	165.452	169.243	172.062	176.601	319.771	172.867	-8191	255	
43265.195	1	1	0	0	0.13763	0.20477	0.34941	0.28355	0.11515	0.16358	0.18802	0.2951	0.084052	0.17239	0.14841	0.31676	0.021712	0.27529	0.18793	0.24911	-2.0458	-1.7604	-2.2604	-2.2979	-2.1896	-2.55	-2.1	-2.1021	-2.2729	-2.0958	-2.4042	-2.3771	-2.0583	-2.55	-1.9979	-2.275	164.643	198.917	231.014	413.035	369.523	153.437	375.118	454.105	304.077	450.198	456.165	385.642	174.640	387.396	457.630	432.750	0.00029707	0.0004169	4.9181e-05	778.25	1.0945e-05	3.3868e-06	588.08	289.23	2.7389e-06	3.617e-06	205.19	72.139	108.87	44.634	2.6801e-06	33.05	0.00079248	0.0015233	0.00041782	762.02	3.4323e-05	1.6906e-05	580.25	285.61	1.4359e-05	3.4743e-05	203.09	71.711	108.68	44.665	1.6022e-05	33.287	225.832	227.403	221.212	162.802	330.066	301.587	161.288	167.959	312.504	421.794	165.263	169.524	172.408	176.974	275.625	172.920	-8191	255	
43265.293	1	1	0	0	0.30944	0.14128	0.13577	0.26625	0.25116	0.16234	0.35207	0.077862	0.25002	0.13796	0.20215	0.3478	0.27155	0.28443	0.22802	0.28642	-2.0042	-1.9625	-2.4333	-2.3771	-2.05	-2.4729	-2.3021	-2.3896	-2.4146	-2.0187	-2.3521	-2.3688	-2.0208	-2.5354	-2.2042	-2.0563	190.239	427.636	296.522	495.823	425.926	175.222	443.702	311.843	441.527	192.706	181.480	481.925	398.794	189.566	472.466	477.481	0.00034604	0.00030703	7.4096e-05	770.43	8.355e-06	4.079e-06	584.05	285.7	3.7479e-06	1.0166e-05	202.08	71.562	107.74	44.447	3.7652e-06	32.483	0.00080663	0.0015036	0.00041397	757.73	2.837e-05	1.6495e-05	574.89	283.23	1.4396e-05	3.9964e-05	200.41	70.887	107.56	44.382	1.5463e-05	32.722	228.528	218.589	231.081	163.123	344.255	275.279	161.605	167.816	278.456	398.710	165.826	169.527	172.307	176.898	226.210	172.598	-8191	255	
43265.414	1	1	0	0	0.22105	0.31813	0.14957	0.014709	0.12935	0.15505	0.064049	0.098568	0.19589	0.075787	0.085266	0.30305	0.20339	0.27872	0.13581	0.036788	-1.9167	-2.125	-2.3312	-2.3021	-2.0333	-2.3854	-2.2229	-2.3354	-2.4292	-2.1208	-2.3604	-2.5354	-1.9042	-2.4875	-2.2833	-2.0792	493.577	151.231	341.875	397.544	230.693	250.405	466.427	150.234	474.487	387.987	453.568	164.131	477.150	466.608	256.418	200.625	0.00032047	0.00039071	0.00016828	764.93	7.076e-06	4.9483e-06	580.96	284.78	4.1119e-06	2.7713e-07	202.6	70.45	106.79	44.242	3.9481e-06	32.323	0.00080119	0.0014987	0.00041718	752.75	3.484e-05	1.7011e-05	571.66	282.3	1.4342e-05	2.1586e-05	201.22	70.202	106.84	44.166	1.5683e-05	32.672	231.254	236.942	269.561	162.941	357.620	296.467	161.690	168.048	282.686	151.759	165.486	169.579	172.494	176.971	318.489	173.042	-8191	255	
43265.512	1	1	0	0	0.11939	0.046767	0.030901	0.25233	0.20376	0.081939	0.094005	0.10996	0.12959	0.24427	0.13104	0.2525	0.20753	0.36258	0.12925	0.1995	-2.0229	-2.0396	-2.1354	-2.3812	-1.9917	-2.4271	-2.2687	-2.2229	-2.5896	-1.9479	-2.4333	-2.4896	-2.1042	-2.3729	-2.2438	-2.0771	264.187	212.142	471.604	495.483	443.372	497.145	472.939	180.740	191.943	295.262	197.483	420.667	504.013	503.390	297.190	449.791	0.00031468	0.00033527	9.8195e-05	763.06	6.9542e-06	4.4287e-06	583.87	284.5	2.1159e-06	3.7471e-06	200.47	70.474	107.09	44.205	5.1009e-06	32.237	0.00080651	0.0014409	0.0004191	751.38	2.7818e-05	1.6684e-05	572	281.52	1.4339e-05	1.5811e-05	201.98	70.161	106.75	43.964	1.5243e-05	32.427	227.307	222.527	237.460	162.834	360.253	293.017	161.483	167.937	294.843	330.521	165.237	169.229	172.324	176.685	294.495	172.698	-8191	255	
43265.605	1	1	0	0	0.15	0.15869	0.23116	0.16624	0.085619	0.13061	0.25108	0.26783	0.25018	0.22092	0.058508	0.41566	0.095485	0.36075	0.12552	0.34649	-2.0333	-2.1292	-2.2708	-2.5375	-1.9896	-2.2938	-2.1604	-1.9562	-2.4396	-2.2771	-2.3021	-2.3917	-2.0833	-2.3708	-2.1417	-1.9438	484.142	333.798	468.367	421.276	385.928	430.857	485.424	237.038	407.291	456.960	447.623	405.477	201.549	488.515	296.710	462.206	0.0003227	0.00026475	0.00010866	763.55	1.0703e-05	6.8863e-06	580.92	284.09	4.704e-06	3.2863e-06	200.98	70.623	107.48	43.738	5.9528e-06	32.212	0.00078164	0.0014426	0.00041003	750.84	3.1641e-05	1.629e-05	570.46	280.95	1.4118e-05	1.5709e-05	200.97	70.16	106.49	43.768	1.4768e-05	32.583	227.418	254.382	235.980	163.040	369.436	284.979	161.689	168.193	309.096	290.037	165.559	169.526	172.267	176.626	289.870	172.683	-8191	255	
43265.676	1	1	0	0	0.17356	0.25426	0.06588	0.20889	0.11406	0.14341	0.14132	0.12925	0.30208	0.18911	0.14208	0.23178	0.03195	0.32666	0.14815	0.14393	-1.8854	-2.0333	-2.0729	-2.4958	-2.2646	-2.3667	-2.2812	-2.2167	-2.4021	-2.5	-2.0708	-2.5021	-2.1292	-2.3	-2.3583	-1.925	333.128	470.984	242.529	420.490	341.848	272.362	164.429	236.254	157.400	334.202	211.555	156.732	495.966	508.026	332.462	463.954	0.00032381	0.00034651	0.00011015	768.54	6.1668e-06	2.197e-06	583.88	284.54	3.8307e-06	2.7842e-06	200.14	70.132	105.75	43.351	3.051e-06	31.588	0.00077854	0.0014383	0.00038644	752.79	1.6284e-05	2.6056e-05	572.03	281.21	1.3486e-05	1.5413e-05	200.68	69.639	105.81	43.417	1.359e-05	31.793	225.561	223.373	257.756	162.934	359.030	278.765	161.563	167.905	299.824	291.820	165.369	169.574	172.341	176.714	288.660	172.894	-8191	255	
43265.797	1	1	0	0	0.10188	0.1261	0.20367	0.30737	0.24213	0.20579	0.16795	0.22548	0.12845	0.15974	0.30297	0.13276	0.35319	0.1575	0.1826	0.14595	-2.0479	-2.3021	-2.1021	-2.5542	-1.8854	-2.2167	-2.3167	-2.0667	-2.4146	-2.3208	-2.075	-2.3271	-2.1813	-2.4417	-2.2354	-1.7729	203.902	258.075	406.889	422.696	417.099	280.882	411.860	462.990	458.071	216.473	469.445	459.558	157.018	483.792	224.581	395.912	0.00031965	0.00030327	5.0704e-05	763.87	2.9413e-06	8.0046e-06	572.73	281.76	3.4415e-06	4.4469e-06	198.64	68.908	105.64	42.682	6.8983e-06	31.1	0.00073798	0.0013201	0.00037935	749.33	1.2629e-05	4.0298e-05	564.31	278.8	1.3521e-05	1.482e-05	197.38	68.551	105.04	42.733	1.3606e-05	31.289	231.176	243.901	232.865	162.798	281.388	359.030	161.439	167.668	291.582	271.886	165.845	169.415	172.263	176.622	289.576	172.916	-8191	255	
43265.895	1	1	0	0	0.1107	0.16697	0.077708	0.30938	0.1948	0.078903	0.18863	0.076735	0.174	0.1177	0.22627	0.064012	0.18004	0.40674	0.17486	0.15687	-1.8354	-2.3021	-1.7854	-2.6292	-2.1833	-2.1375	-2.3646	-1.8917	-2.2896	-2.5104	-2.0521	-2.4938	-2.0208	-2.1688	-2.5167	-2.1854	219.097	418.901	452.562	488.589	401.518	435.034	355.139	443.215	387.531	236.696	179.069	408.495	492.783	458.923	505.122	438.530	0.00038687	0.00034344	6.5692e-05	761.27	2.3202e-06	4.8925e-06	568.21	279.83	3.9576e-06	3.4469e-06	196.17	68.229	104.57	42.153	5.4291e-06	30.936	0.00078184	0.0013539	0.00037195	745.39	1.2506e-05	3.2042e-05	562.4	277.04	1.3128e-05	1.4491e-05	196.81	67.815	103.97	42.246	1.3804e-05	30.7	223.135	230.469	227.255	162.846	310.547	347.731	161.478	167.825	301.499	290.005	165.290	169.525	171.983	176.652	286.534	172.982	-8191	255	
43265.988	1	1	0	0	0.18151	0.27454	0.14595	0.19289	0.099757	0.1784	0.097703	0.32005	0.37153	0.12522	0.31296	0.037732	0.16024	0.18928	0.15159	0.20155	-1.7875	-2.3667	-1.9562	-2.6146	-2.2604	-2.2896	-2.3854	-2.2229	-2.2417	-2.4208	-1.9792	-2.4688	-2.3812	-1.975	-2.5083	-2.2875	377.525	157.862	340.046	465.154	445.315	268.480	456.355	411.543	496.051	316.008	363.521	152.006	335.392	211.500	176.348	162.430	0.00037947	0.00042165	7.182e-05	762.58	2.2677e-06	1.0608e-05	570.68	281.26	4.4276e-06	1.4687e-06	196.97	68.242	104.28	42.107	4.0527e-06	30.603	0.0011408	0.0013049	0.00036157	746.35	1.2307e-05	3.9479e-05	561.9	276.99	1.2949e-05	1.4103e-05	196.01	67.93	103.91	42.079	1.3334e-05	30.565	227.033	257.179	214.846	162.791	284.589	385.668	161.317	167.783	281.146	255.416	165.381	169.395	172.281	176.587	319.710	172.724	-8191	255	
43266.086	1	1	0	0	0.11495	0.23285	0.069211	0.076144	0.071734	0.22607	0.095214	0.2293	0.12191	0.055502	0.18436	0.068331	0.18156	0.177	0.1197	0.10465	-1.8604	-2.2583	-2.0708	-2.2542	-2.275	-2.0125	-2.5542	-2.3542	-2.0896	-2.6458	-2.0146	-2.3021	-2.3354	-2.0021	-2.4375	-2.0792	424.359	387.684	407.539	508.889	485.930	485.174	499.441	506.778	457.626	379.064	191.563	400.509	505.228	478.341	455.626	269.643	0.00039605	0.00037602	0.00010523	761.36	4.4785e-06	5.6627e-06	572.26	279.88	4.2227e-06	5.3269e-06	197.27	68.14	104.37	41.867	4.0123e-06	30.315	0.0016204	0.0012553	0.0003678	747.65	1.1922e-05	3.1864e-05	562.84	277.12	1.2923e-05	1.4013e-05	195.97	67.923	103.98	41.956	1.3024e-05	30.231	232.533	248.978	225.639	162.791	302.704	344.317	161.412	167.958	285.196	302.892	165.199	169.439	172.089	176.504	280.792	172.231	-8191	255	
43266.203	1	1	0	0	0.17472	0.18069	0.20251	0.3486	0.16394	0.13695	0.17662	0.12449	0.14771	0.37893	0.19914	0.20849	0.078836	0.25811	0.4238	0.1637	-1.55	-2.3896	-2.1021	-2.4896	-2.2854	-1.9292	-2.3688	-2.3479	-1.9729	-2.4625	-2.1417	-2.2146	-2.4021	-2.1562	-2.4375	-2.3479	448.888	269.740	239.756	498.414	177.749	279.742	432.523	401.829	299.873	469.588	445.522	400.083	442.152	499.302	299.996	184.781	0.00037869	0.00031511	0.0001279	752.96	2.8122e-06	6.6565e-06	567.25	277.93	3.4153e-06	2.3597e-06	192.21	66.303	103.24	41.415	3.3646e-06	29.667	0.0013408	0.0012819	0.00035734	741.08	1.1462e-05	3.8923e-05	556.21	274.64	1.2134e-05	1.4242e-05	190.69	66.619	102.51	41.223	1.2758e-05	29.603	233.152	271.305	220.996	162.850	338.824	378.259	161.739	167.810	306.912	299.939	165.359	169.250	171.740	176.496	281.416	172.342	-8191	255	
43266.301	1	1	0	0	0.44759	0.057645	0.20477	0.27537	0.084125	0.052513	0.29452	0.34741	0.24405	0.2623	0.12504	0.18541	0.16324	0.22266	0.19727	0.045297	-1.6542	-2.2188	-2.0604	-2.2979	-2.4	-2.1083	-2.4479	-2.2438	-1.9646	-2.6292	-2.0438	-2.1562	-2.5687	-2.0917	-2.3979	-2.2146	327.648	273.981	324.746	423.607	212.870	215.365	425.432	447.213	175.937	349.717	170.512	487.801	156.638	459.088	177.807	195.112	0.00036407	0.00021178	8.2581e-05	753.3	3.0807e-06	7.2114e-06	561.67	276.94	3.5935e-06	6.2553e-06	193.07	67.012	102.47	40.984	4.6066e-06	29.644	0.0015878	0.001247	0.00034769	739.19	1.1773e-05	3.1204e-05	553.31	273.23	1.272e-05	1.4251e-05	190.35	67.067	101.96	40.865	1.3008e-05	29.525	236.484	258.773	192.743	162.844	291.767	387.344	161.484	167.731	281.937	305.446	165.810	169.303	172.368	176.410	296.313	172.785	-8191	255	
43266.375	1	1	0	0	0.11274	0.27594	0.15745	0.34945	0.18776	0.34556	0.036998	0.050229	0.17136	0.24622	0.20242	0.2707	0.099913	0.25019	0.36866	0.31807	-1.5583	-2.4333	-2.2229	-2.1771	-2.5646	-1.9979	-2.4146	-2.4146	-2.0146	-2.5417	-1.8979	-2.1104	-2.6208	-2.3021	-2.2667	-2.3292	348.093	287.114	367.794	503.177	477.540	258.724	153.851	250.789	329.025	193.048	301.964	453.409	150.421	501.838	506.482	315.471	0.00031487	0.00038819	8.5559e-05	754.63	4.2759e-06	1.1676e-05	566.65	278.08	1.7884e-06	3.343e-06	194.74	66.743	103	41.376	1.5812e-06	29.966	0.0013105	0.0012827	0.00036018	739.48	1.2145e-05	3.2384e-05	556.65	274.42	1.2816e-05	1.4363e-05	191.76	67.379	102.89	41.361	1.3435e-05	29.895	233.249	255.228	270.588	162.879	315.301	389.986	161.280	167.502	290.506	296.864	165.183	169.456	172.090	176.662	308.236	172.786	-8191	255	
43266.492	1	1	0	0	0.15022	0.20175	0.12808	0.052591	0.15813	0.27428	0.030843	0.15999	0.034305	0.19	0.16263	0.088653	0.1972	0.23573	0.30316	0.13559	-1.5708	-2.4562	-2.2167	-2.2042	-2.4833	-1.8979	-2.1083	-2.4313	-1.8479	-2.5708	-2.3229	-2.0542	-2.4062	-2.0646	-2.2271	-2.3271	399.534	345.457	431.582	281.083	497.290	289.095	224.863	429.880	267.290	275.045	455.752	291.798	315.495	290.372	412.024	348.763	0.00033348	0.00028164	0.00011852	758.07	4.1391e-06	5.9113e-06	569.68	280.72	2.4874e-06	4.0491e-06	195.37	68.554	105.26	42.257	3.6562e-06	30.551	0.0016507	0.0013435	0.00036146	744.34	1.2444e-05	1.6162e-05	562.25	277.53	1.3852e-05	1.4853e-05	193.98	69.051	104.82	42.221	1.3666e-05	30.513	236.884	212.446	252.399	162.758	305.355	381.633	161.632	167.593	294.650	328.096	165.527	168.840	172.275	176.495	320.636	172.387	-8191	255	
43266.590	1	1	0	0	0.10084	0.35024	0.22387	0.2834	0.28749	0.19124	0.024494	0.043386	0.1058	0.14845	0.13284	0.18117	0.24693	0.074953	0.12785	0.11522	-1.4646	-2.3438	-2.1125	-2.1937	-2.5167	-2.0833	-2.2396	-2.6292	-2.1063	-2.425	-2.2438	-1.9521	-2.4562	-2.2458	-2.1583	-2.6312	366.285	387.225	222.318	430.150	225.667	325.284	305.822	171.193	472.535	343.161	463.640	297.545	167.200	179.582	156.518	473.124	0.0003281	0.00053304	6.6499e-05	761.26	3.2784e-06	3.2479e-06	568.54	281.27	4.0015e-06	3.2149e-06	196.58	67.896	105.41	42.01	2.0381e-06	30.289	0.0013855	0.0012849	0.00035705	747.67	1.2251e-05	1.4584e-05	563.97	278.1	1.35e-05	1.452e-05	193.6	68.51	104.78	42.176	1.3824e-05	30.29	239.047	236.457	249.291	162.922	299.550	328.344	161.292	167.626	304.942	291.241	165.514	169.491	172.337	176.779	299.537	173.057	-8191	255	
43266.688	1	1	0	0	0.068231	0.17342	0.12195	0.30972	0.062659	0.194	0.083979	0.089224	0.07364	0.10379	0.16122	0.29251	0.3117	0.21044	0.090308	0.21622	-1.4146	-2.2521	-2.3042	-1.9833	-2.4625	-2.2729	-2.1188	-2.5417	-2.2	-2.275	-2.3792	-1.9229	-2.4292	-2.2229	-1.975	-2.5375	361.488	235.962	347.609	483.728	288.803	255.389	361.092	415.567	257.367	306.688	249.705	397.670	237.469	406.751	229.633	304.606	0.00029112	0.00096992	0.00010719	760.13	3.5736e-06	4.6729e-06	565.33	281.64	2.7679e-06	3.1285e-06	196.58	68.609	106	42.392	1.9186e-06	30.569	0.0013425	0.0017615	0.00036681	743.97	1.2231e-05	1.4789e-05	562.06	278.62	1.3161e-05	1.5097e-05	194.19	69.072	105.35	42.391	1.4004e-05	30.425	240.241	196.842	182.111	162.680	328.061	288.924	161.614	167.687	300.000	307.137	165.179	169.392	172.014	176.607	299.621	172.663	-8191	255	
43266.781	1	1	0	0	0.04876	0.22046	0.067256	0.25552	0.11849	0.34579	0.079195	0.03601	0.12401	0.20121	0.2946	0.11019	0.18801	0.14563	0.019307	0.10724	-1.575	-2.2667	-2.4854	-2.0333	-2.325	-2.3854	-2.2271	-2.3333	-2.2542	-2.3854	-2.5229	-2.2146	-2.4437	-2.3833	-2.1083	-2.4625	186.606	435.405	165.382	466.360	381.891	305.898	334.487	469.079	350.409	490.939	462.007	484.444	475.594	437.845	197.832	468.099	0.0002867	0.00091982	0.00011808	764.69	3.8355e-06	3.2522e-06	574.04	285.33	3.8558e-06	2.9563e-06	198.94	69.487	106.37	42.815	4.0258e-06	31.256	0.0007649	0.002575	0.00037208	749.93	1.2861e-05	1.4429e-05	569.38	281.48	1.2994e-05	1.4892e-05	196.07	69.505	106.29	42.887	1.461e-05	31.047	238.401	212.252	247.530	162.562	307.811	286.025	161.145	167.639	299.723	262.725	165.497	169.269	171.988	176.687	283.110	172.538	-8191	255	
43266.902	1	1	0	0	0.19353	0.14146	0.31864	0.31306	0.20005	0.090042	0.23284	0.078081	0.179	0.093169	0.12438	0.17896	0.16748	0.085354	0.1129	0.2087	-1.7104	-2.0542	-2.5354	-2.1104	-2.3083	-2.3125	-2.0646	-2.6875	-2.0583	-2.15	-2.3625	-1.9896	-2.4313	-2.3208	-2.1354	-2.3875	251.095	344.684	493.058	157.847	366.759	243.033	152.865	475.153	304.942	217.466	153.768	255.455	381.968	240.783	234.335	350.588	0.0003225	0.00094975	7.1747e-05	770.04	2.1939e-06	3.2716e-06	578.54	286.27	5.5628e-06	4.3758e-06	201.11	70.271	108.81	43.493	3.6781e-06	31.381	0.00075165	0.0035766	0.00038494	755.36	1.246e-05	1.4951e-05	573.46	283.15	1.3504e-05	1.5019e-05	198.67	70.531	107.83	43.395	1.4462e-05	31.489	229.937	254.139	276.871	162.834	294.965	318.617	161.364	167.698	296.282	316.363	165.048	169.237	172.105	176.670	305.088	172.676	-8191	255	
43266.977	1	1	0	0	0.21611	0.26009	0.24947	0.2567	0.22498	0.13303	0.35703	0.29227	0.080925	0.049376	0.10163	0.0068539	0.17634	0.042917	0.20451	0.12442	-1.7479	-2.2042	-2.3917	-2	-2.3396	-2.2979	-1.9583	-2.4292	-2.3187	-2.1312	-2.5812	-2.1646	-2.3729	-2.4083	-1.8937	-2.4604	412.212	239.103	293.077	455.389	197.983	489.658	374.301	382.692	383.814	383.039	312.241	176.846	218.828	439.262	406.480	166.374	0.00029131	0.00061555	0.00014163	774.21	3.8173e-06	4.5568e-06	581.75	288.09	2.6719e-06	5.3173e-06	200.99	70.78	108.46	43.408	6.0966e-06	31.365	0.00074186	0.0029745	0.00038409	760.72	1.3223e-05	1.4907e-05	577.62	285.22	1.3563e-05	1.4974e-05	198.71	70.05	108.05	43.371	1.4634e-05	31.371	230.857	274.654	223.669	162.796	296.752	300.421	161.677	167.897	314.550	273.661	165.243	169.537	171.986	176.298	280.937	172.698	-8191	255	
43267.094	1	1	0	0	0.40963	0.15637	0.17678	0.059397	0.19293	0.057008	0.14434	0.31569	0.14365	0.47012	0.12188	0.19742	0.21941	0.20267	0.057796	0.054885	-1.7583	-1.9688	-2.3083	-2.1292	-2.1208	-2.2792	-2.0271	-2.3771	-2.1146	-2.0083	-2.5042	-2.0625	-2.225	-2.4625	-1.9312	-2.3333	272.138	340.023	321.351	150.231	332.564	399.159	498.182	452.000	218.026	250.976	410.063	181.070	153.790	462.770	240.535	173.110	0.0003124	0.0011429	0.00011039	768.11	4.017e-06	2.6239e-06	579.34	286.6	4.2886e-06	1.7797e-06	200.4	70.161	107.98	43.365	5.5308e-06	31.355	0.00073017	0.0036431	0.00038075	755.21	1.283e-05	1.5437e-05	572.52	283.41	1.3555e-05	1.5703e-05	198.45	69.836	108.43	43.386	1.4707e-05	31.32	226.310	263.963	280.514	162.536	304.049	304.044	161.797	167.850	300.071	222.710	165.162	169.565	172.023	176.533	283.947	172.780	-8191	255	
43267.191	1	1	0	0	0.032289	0.19683	0.047939	0.28491	0.11052	0.20771	0.33146	0.15809	0.14997	0.22623	0.086569	0.1073	0.12261	0.093341	0.06054	0.11418	-1.9021	-1.9875	-2.4708	-2.2229	-2.15	-2.5479	-2.2771	-2.2646	-2.1792	-2.1125	-2.6125	-2.4167	-2.1854	-2.4604	-2.0417	-2.25	445.513	222.375	329.122	480.238	203.547	166.655	433.724	424.388	444.032	486.155	347.736	242.978	186.441	501.467	418.926	199.820	0.00028932	0.00072326	7.9622e-05	768.75	3.4076e-06	3.2932e-06	579.23	287.96	1.9046e-06	4.2074e-06	200.89	70.384	108.66	43.704	2.6743e-06	31.579	0.00073409	0.0030081	0.00036879	756.13	1.2862e-05	1.5384e-05	573.53	285.25	1.347e-05	1.5722e-05	198.96	70.12	108.81	43.609	1.4583e-05	31.545	229.518	260.689	251.985	163.086	293.024	287.610	161.144	167.614	299.598	338.656	165.381	169.093	172.132	176.168	269.582	172.859	-8191	255	
43267.285	1	1	0	0	0.21171	0.12144	0.14729	0.021575	0.29194	0.17327	0.15195	0.17919	0.21814	0.16107	0.099839	0.1518	0.14671	0.27702	0.14769	0.21491	-1.9896	-2.1188	-2.4167	-2.2625	-1.9521	-2.5229	-2.2292	-2.2542	-2.3458	-2.0646	-2.3479	-2.275	-2.1479	-2.5104	-2.175	-2.3812	431.745	233.581	153.278	150.735	446.731	167.211	223.588	506.939	474.208	324.092	207.649	174.380	452.833	171.077	423.243	181.165	0.00028858	0.0011232	9.0595e-05	778.41	2.3507e-06	2.7904e-06	585.57	289.55	4.5224e-06	2.8715e-06	203.87	71.717	109.72	43.995	3.5033e-06	31.925	0.00073366	0.0036949	0.0003847	761.53	1.3175e-05	1.6005e-05	576.69	287.63	1.3658e-05	1.6124e-05	201.59	71.278	110.15	44.043	1.4442e-05	31.942	221.968	284.679	256.340	162.844	302.526	312.439	161.720	167.907	301.513	299.390	165.322	169.338	171.935	176.305	277.939	172.750	-8191	255	
43267.383	1	1	0	0	0.077045	0.03285	0.076404	0.094236	0.14936	0.1653	0.30472	0.14865	0.026692	0.19676	0.1923	0.12078	0.35671	0.20959	0.13292	0.13485	-2.0271	-1.95	-2.3646	-2.4688	-2.1542	-2.5729	-2.2438	-2.1896	-2.3937	-2.0458	-2.2875	-2.2583	-1.9188	-2.475	-2.1083	-2.0958	470.695	356.909	275.852	388.698	307.758	404.580	200.831	443.650	285.291	269.407	303.536	368.991	178.314	206.705	440.278	383.966	0.00031714	0.00060122	9.345e-05	783.12	2.64e-06	1.1154e-06	591.07	291.85	3.0755e-06	2.9433e-06	204.54	72.448	109.96	44.256	4.5192e-06	32.027	0.00077011	0.003055	0.00037481	766.88	1.3382e-05	1.5389e-05	579.98	290.92	1.3719e-05	1.5604e-05	202.47	71.846	110.19	44.242	1.3864e-05	31.909	230.165	269.545	266.320	162.576	284.185	269.686	161.500	167.717	310.972	321.071	165.191	169.940	172.182	176.617	284.254	172.726	-8191	255	
#DATA ENDS
