BOXY.EXE: ISS Imagent and Oximeter Data Acquisition Program Version 0.80
Ascii Record File

#ACQ INFORMATION
2  Detector Channels 
16  External MUX Channels 
1  Auxiliary Channels 
5000  Waveform (CCF) Frequency (Hz)
1  Waveforms Skipped 
30  Waveforms Averaged 
1  Cycles Averaged 
16  Acquisitions per Waveform 
10.0806  Updata Rate (Hz) 

#FILE INFORMATION
TRUE -- External MUX Channel results are PARSED.
FALSE -- AC DC and Phase are NOT grouped.
TRUE -- Companion Program Settings File CREATED.
FALSE -- AC data not excluded
FALSE -- DC data not excluded
FALSE -- Phase data not excluded
FALSE -- Auxillary Chn. data not excluded
Tab delimiters

#CALIBRATION STATE
TRUE -- Waveform Calibration Values APPLIED.


#AUX CALIBRATION VALUES
Val Type	aux-1	

Term	1.0000e+00	
Factor	0.0000e+00	


#WF CALIBRATION VALUES
A = Detector Channel
Val Type	A-AC1	A-AC2	A-AC3	A-AC4	A-AC5	A-AC6	A-AC7	A-AC8	A-AC9	A-AC10	A-AC11	A-AC12	A-AC13	A-AC14	A-AC15	A-AC16	A-DC1	A-DC2	A-DC3	A-DC4	A-DC5	A-DC6	A-DC7	A-DC8	A-DC9	A-DC10	A-DC11	A-DC12	A-DC13	A-DC14	A-DC15	A-DC16	A-Ph1	A-Ph2	A-Ph3	A-Ph4	A-Ph5	A-Ph6	A-Ph7	A-Ph8	A-Ph9	A-Ph10	A-Ph11	A-Ph12	A-Ph13	A-Ph14	A-Ph15	A-Ph16	

Term	0.00000e+00	0.00000e+00	0.00000e+00	0.00000e+00	0.00000e+00	0.00000e+00	0.00000e+00	0.00000e+00	0.00000e+00	0.00000e+00	0.00000e+00	0.00000e+00	0.00000e+00	0.00000e+00	0.00000e+00	0.00000e+00	0.00000e+00	0.00000e+00	0.00000e+00	0.00000e+00	0.00000e+00	0.00000e+00	0.00000e+00	0.00000e+00	0.00000e+00	0.00000e+00	0.00000e+00	0.00000e+00	0.00000e+00	0.00000e+00	0.00000e+00	0.00000e+00	0.00000e+00	0.00000e+00	0.00000e+00	0.00000e+00	0.00000e+00	0.00000e+00	0.00000e+00	0.00000e+00	0.00000e+00	0.00000e+00	0.00000e+00	0.00000e+00	0.00000e+00	0.00000e+00	0.00000e+00	0.00000e+00	
Factor	1.00000e+00	1.00000e+00	1.00000e+00	1.00000e+00	1.00000e+00	1.00000e+00	1.00000e+00	1.00000e+00	1.00000e+00	1.00000e+00	1.00000e+00	1.00000e+00	1.00000e+00	1.00000e+00	1.00000e+00	1.00000e+00	1.00000e+00	1.00000e+00	1.00000e+00	1.00000e+00	1.00000e+00	1.00000e+00	1.00000e+00	1.00000e+00	1.00000e+00	1.00000e+00	1.00000e+00	1.00000e+00	1.00000e+00	1.00000e+00	1.00000e+00	1.00000e+00	X	X	X	X	X	X	X	X	X	X	X	X	X	X	X	X	

B = Detector Channel
Val Type	B-AC1	B-AC2	B-AC3	B-AC4	B-AC5	B-AC6	B-AC7	B-AC8	B-AC9	B-AC10	B-AC11	B-AC12	B-AC13	B-AC14	B-AC15	B-AC16	B-DC1	B-DC2	B-DC3	B-DC4	B-DC5	B-DC6	B-DC7	B-DC8	B-DC9	B-DC10	B-DC11	B-DC12	B-DC13	B-DC14	B-DC15	B-DC16	B-Ph1	B-Ph2	B-Ph3	B-Ph4	B-Ph5	B-Ph6	B-Ph7	B-Ph8	B-Ph9	B-Ph10	B-Ph11	B-Ph12	B-Ph13	B-Ph14	B-Ph15	B-Ph16	

Term	0.00000e+00	0.00000e+00	0.00000e+00	0.00000e+00	0.00000e+00	0.00000e+00	0.00000e+00	0.00000e+00	0.00000e+00	0.00000e+00	0.00000e+00	0.00000e+00	0.00000e+00	0.00000e+00	0.00000e+00	0.00000e+00	0.00000e+00	0.00000e+00	0.00000e+00	0.00000e+00	0.00000e+00	0.00000e+00	0.00000e+00	0.00000e+00	0.00000e+00	0.00000e+00	0.00000e+00	0.00000e+00	0.00000e+00	0.00000e+00	0.00000e+00	0.00000e+00	-9.29970e+01	-1.31392e+02	-1.23755e+02	-1.81317e+02	-5.33619e+01	-6.48182e+01	-1.56949e+02	-1.62015e+02	-5.50886e+01	-6.87642e+01	-1.71959e+02	-1.70284e+02	-1.79234e+02	-1.77030e+02	-6.24173e+01	-1.49880e+02	
Factor	2.02525e-05	2.04927e-04	5.47415e-05	1.73521e-01	1.61479e-06	2.15799e-06	2.08365e-01	7.47178e-02	1.46152e-06	2.09857e-06	1.03330e-01	3.53755e-02	3.43424e-02	1.15752e-02	1.82063e-06	1.65684e-02	1.86485e-05	4.58517e-05	1.28386e-05	8.54534e-02	4.13224e-07	5.17627e-07	9.68864e-02	3.69658e-02	4.35134e-07	5.18470e-07	4.97831e-02	1.71989e-02	1.73445e-02	5.78419e-03	4.58961e-07	8.02566e-03	X	X	X	X	X	X	X	X	X	X	X	X	X	X	X	X	



#DISTANCE SETTINGS
A = Detector Channel
A-1	A-2	A-3	A-4	A-5	A-6	A-7	A-8	A-9	A-10	A-11	A-12	A-13	A-14	A-15	A-16	

2.5000e+00	3.0000e+00	2.5000e+00	3.0000e+00	2.0000e+00	3.0000e+00	1.5000e+00	3.0000e+00	3.0000e+00	3.0000e+00	3.0000e+00	3.0000e+00	3.0000e+00	3.0000e+00	1.5000e+00	3.0000e+00	

B = Detector Channel
B-1	B-2	B-3	B-4	B-5	B-6	B-7	B-8	B-9	B-10	B-11	B-12	B-13	B-14	B-15	B-16	

1.0000e+01	1.0000e+01	1.0000e+01	1.4400e+00	1.0000e+01	1.0000e+01	1.5100e+00	1.9400e+00	1.0000e+01	1.0000e+01	1.9900e+00	2.4900e+00	2.4100e+00	2.9000e+00	1.0000e+01	2.9800e+00	




#DATA BEGINS
time	group	step	mark	flag	A-AC1	A-AC2	A-AC3	A-AC4	A-AC5	A-AC6	A-AC7	A-AC8	A-AC9	A-AC10	A-AC11	A-AC12	A-AC13	A-AC14	A-AC15	A-AC16	A-DC1	A-DC2	A-DC3	A-DC4	A-DC5	A-DC6	A-DC7	A-DC8	A-DC9	A-DC10	A-DC11	A-DC12	A-DC13	A-DC14	A-DC15	A-DC16	A-Ph1	A-Ph2	A-Ph3	A-Ph4	A-Ph5	A-Ph6	A-Ph7	A-Ph8	A-Ph9	A-Ph10	A-Ph11	A-Ph12	A-Ph13	A-Ph14	A-Ph15	A-Ph16	B-AC1	B-AC2	B-AC3	B-AC4	B-AC5	B-AC6	B-AC7	B-AC8	B-AC9	B-AC10	B-AC11	B-AC12	B-AC13	B-AC14	B-AC15	B-AC16	B-DC1	B-DC2	B-DC3	B-DC4	B-DC5	B-DC6	B-DC7	B-DC8	B-DC9	B-DC10	B-DC11	B-DC12	B-DC13	B-DC14	B-DC15	B-DC16	B-Ph1	B-Ph2	B-Ph3	B-Ph4	B-Ph5	B-Ph6	B-Ph7	B-Ph8	B-Ph9	B-Ph10	B-Ph11	B-Ph12	B-Ph13	B-Ph14	B-Ph15	B-Ph16	aux-1	digaux	

42656.703	1	1	0	512	0.089255	0.087118	0.27414	0.26933	0.097974	0.050114	0.19758	0.31272	0.17686	0.19322	0.10541	0.1074	0.14812	0.26495	0.21921	0.12887	-1.5187	-2.3271	-2.1354	-2.1958	-2.2542	-1.9917	-2.2812	-2.3667	-1.7958	-2.2396	-1.9792	-2.0938	-2.6458	-2.2292	-2.1583	-2.3375	-23.797	-61.405	-145.158	153.383	-66.707	192.071	-62.074	189.842	1.012	2.599	-27.508	113.164	167.078	-95.533	-31.751	90.038	0.00047191	0.00091407	0.00021946	1544.1	5.5214e-06	7.5116e-06	1116	646.92	6.4037e-06	6.6077e-06	465.64	198.34	285.01	108.16	5.9169e-06	71.269	0.00050425	0.0003628	0.00010033	1486.8	4.2777e-06	4.2402e-06	1074.7	626.51	5.0829e-06	3.6487e-06	449.53	192.52	277.38	105.06	4.6919e-06	69.202	-119.952	-65.345	-60.455	-134.623	-7.619	-8.422	-136.036	-131.677	-21.293	0.093	-134.015	-130.827	-128.654	-125.093	-20.235	-128.004	-8191	255	
42656.824	1	1	0	0	0.17185	0.16374	0.32654	0.22051	0.14081	0.015767	0.20815	0.3949	0.17771	0.22636	0.079948	0.18731	0.15665	0.18361	0.16677	0.048166	-1.4146	-2.0521	-1.9062	-2.2938	-2.3021	-1.8	-2.2208	-2.3	-1.9729	-2.2333	-2.2708	-2.1042	-2.4708	-2.0896	-1.9875	-2.525	-35.898	-115.316	9.020	156.348	42.450	199.154	157.594	141.957	-141.649	108.838	189.733	192.543	113.874	169.932	-125.352	157.121	0.00047079	0.00094782	0.00020866	1552.9	5.9315e-06	7.3515e-06	1120.8	650.32	6.9432e-06	7.1583e-06	468.49	198.33	285.67	108.64	6.4811e-06	71.581	0.00050021	0.00036003	9.8002e-05	1492.7	4.2906e-06	4.2607e-06	1078.1	628.19	5.0612e-06	3.4845e-06	451.15	193.01	278.28	105.62	5.0524e-06	69.306	-119.382	-57.724	-63.063	-134.706	1.315	4.958	-136.235	-131.728	-26.411	0.401	-134.055	-130.948	-128.679	-124.992	-13.195	-127.771	-8191	255	
42656.918	1	1	0	0	0.29798	0.28649	0.23616	0.14139	0.059394	0.11633	0.2982	0.28457	0.18027	0.031926	0.28789	0.084477	0.2145	0.13052	0.2605	0.15121	-1.3208	-2.2792	-1.95	-2.0104	-2.2417	-1.8833	-2.275	-2.5542	-1.8333	-2.2208	-2.2375	-1.9042	-2.4854	-2.2417	-2.0833	-2.5917	-144.637	1.151	104.542	164.031	-116.949	3.151	134.749	102.024	-51.431	-11.413	141.205	-124.898	184.306	184.020	185.571	-37.876	0.00049323	0.00090971	0.00021539	1551.7	5.7747e-06	7.5484e-06	1114.6	644.3	6.6697e-06	7.7251e-06	464.58	195.96	282.69	107.26	7.5363e-06	70.143	0.00050743	0.00035019	9.9285e-05	1489.2	4.1607e-06	4.2888e-06	1071	623.4	5.092e-06	3.6531e-06	445.79	190.46	275.39	104.2	5.0562e-06	68.101	-119.013	-62.010	-55.349	-134.834	-1.638	7.070	-136.440	-131.633	-16.014	-12.375	-134.065	-131.054	-128.639	-124.959	-19.169	-127.787	-8191	255	
42656.992	1	1	0	0	0.29278	0.099273	0.12319	0.23735	0.16019	0.091793	0.24949	0.30811	0.17912	0.11832	0.12281	0.3933	0.17811	0.44136	0.088928	0.10842	-1.55	-2.1437	-2.0333	-1.9396	-2.3271	-1.9104	-1.9667	-2.4667	-1.85	-2.3167	-2.3208	-1.8979	-2.3708	-2.1458	-1.9667	-2.2979	131.583	-133.411	22.578	206.977	70.716	162.203	117.910	148.450	180.777	105.330	-91.438	-147.226	-118.287	193.410	-147.299	49.327	0.00045815	0.00076532	0.00020491	1542.5	5.7051e-06	8.8358e-06	1105.3	641.97	6.443e-06	7.424e-06	460.84	194.3	281.8	106.73	6.2594e-06	69.711	0.00050739	0.00036767	9.2893e-05	1483.1	4.3346e-06	4.334e-06	1065.6	621.93	4.9496e-06	3.5764e-06	442.95	189.46	274.39	103.52	4.9816e-06	67.563	-118.997	-68.925	-53.760	-134.828	-1.836	-0.495	-136.244	-131.663	-19.804	-4.851	-134.236	-131.159	-128.637	-124.992	-12.602	-127.989	-8191	255	
42657.109	1	1	0	0	0.035536	0.12033	0.03487	0.33505	0.04011	0.014682	0.43158	0.21977	0.28986	0.18489	0.092581	0.23698	0.16768	0.31483	0.05638	0.22131	-1.4146	-2.1896	-2.1167	-2.0104	-2.1583	-2.0667	-2.1542	-2.5	-2.1271	-2.1312	-2.4938	-1.775	-2.5812	-2.4104	-1.7792	-2.35	-110.913	145.510	-148.521	155.254	-134.033	47.980	111.357	144.929	39.327	53.064	196.056	-130.183	181.252	168.766	116.600	167.946	0.00048739	0.00078354	0.00020693	1538.8	5.8904e-06	6.7923e-06	1108.7	641.97	5.9145e-06	8.2131e-06	460.38	195.22	282.25	106.49	6.8158e-06	69.808	0.00051167	0.00035535	9.9927e-05	1479.9	4.2691e-06	4.0105e-06	1065.1	621.27	4.849e-06	3.8972e-06	442.59	189.49	274.81	103.62	5.083e-06	67.626	-118.244	-57.205	-56.436	-134.828	-11.333	-0.825	-136.295	-131.710	-22.839	0.420	-134.131	-131.056	-128.600	-125.136	-21.417	-128.226	-8191	255	
42657.207	1	1	0	0	0.22694	0.22744	0.13307	0.2722	0.086292	0.064239	0.15338	0.41095	0.33539	0.21927	0.082745	0.3203	0.18922	0.23936	0.14652	0.21038	-1.2771	-2.0292	-2.2354	-2.0708	-2.1667	-2.1271	-1.9562	-2.4688	-2.0917	-1.9167	-2.2521	-1.9229	-2.2833	-2.4354	-1.9271	-2.4479	-101.632	-115.782	80.882	208.878	-128.755	121.146	165.924	133.667	121.298	-49.479	-114.847	101.279	-143.230	-132.931	-37.723	109.102	0.00046057	0.00064831	0.00021694	1540.5	5.8444e-06	7.274e-06	1102.3	641.43	6.0243e-06	7.0898e-06	458.34	193.01	281.03	106.14	6.8158e-06	69.476	0.00049228	0.00035841	0.00010041	1478.2	4.1693e-06	4.0159e-06	1062.2	620.1	4.9478e-06	3.6131e-06	441.4	188.42	273.77	103.28	5.2111e-06	67.27	-118.229	-60.857	-60.097	-134.850	10.754	5.878	-136.629	-131.647	-18.809	-2.519	-133.948	-131.046	-128.954	-125.144	-11.103	-127.779	-8191	255	
42657.305	1	1	0	0	0.034685	0.13568	0.15389	0.23509	0.18507	0.087168	0.18696	0.17255	0.12416	0.13701	0.080283	0.26403	0.2132	0.41921	0.054371	0.22112	-1.5854	-2.0354	-2.3396	-2.1458	-2.3208	-2.1083	-2.15	-2.5417	-2.05	-1.8146	-2.3771	-1.9312	-2.3604	-2.4792	-1.6125	-2.3167	-136.277	29.087	86.371	174.526	-124.220	194.097	205.334	163.123	-145.841	-119.664	135.114	161.574	197.206	165.726	13.314	169.255	0.00047246	0.00094481	0.00021117	1533.2	5.5357e-06	7.5952e-06	1094.8	639.26	5.2772e-06	7.5335e-06	451.61	190.52	277.87	104.46	7.1597e-06	67.396	0.00049951	0.00039117	9.6932e-05	1471.2	4.2149e-06	3.7938e-06	1054.1	616.78	4.6333e-06	3.7017e-06	434.98	185.36	270.23	101.56	5.0725e-06	65.495	-118.278	-63.331	-49.840	-134.773	3.134	3.903	-136.426	-131.701	-22.349	-1.781	-133.970	-131.114	-128.665	-125.063	-10.813	-128.266	-8191	255	
42657.398	1	1	0	0	0.19283	0.090375	0.11269	0.18047	0.24698	0.25777	0.13148	0.29293	0.048731	0.059641	0.062104	0.23192	0.2681	0.27122	0.26788	0.1993	-1.5896	-1.9188	-2.3958	-2.1688	-2.0375	-2.4042	-2.1063	-2.3896	-2.175	-1.9021	-2.4188	-2.0625	-2.3896	-2.4125	-1.8792	-2.3063	83.894	-25.225	0.172	120.405	44.694	-82.841	-1.183	180.213	-6.142	-100.881	-99.348	98.690	147.972	137.545	174.888	155.047	0.00045245	0.00089892	0.00023034	1523.5	5.4748e-06	8.0131e-06	1085.4	636.02	6.4733e-06	6.5311e-06	447.62	187.88	275.51	103.66	6.9087e-06	67.375	0.00048253	0.000365	0.00010108	1462.9	4.1994e-06	3.6816e-06	1045.7	614.35	4.7421e-06	3.4035e-06	431.81	183.46	268.58	100.78	4.9004e-06	65.237	-120.587	-63.737	-53.724	-134.936	-5.786	2.806	-136.277	-131.638	-17.286	-3.648	-134.075	-131.235	-128.675	-125.152	-18.031	-127.942	-8191	255	
42657.520	1	1	0	0	0.089507	0.2812	0.26354	0.28326	0.32183	0.14585	0.27236	0.31775	0.11375	0.14029	0.31143	0.10283	0.23759	0.18599	0.11711	0.2561	-1.6958	-1.8292	-2.3563	-2.0854	-2.0917	-2.2021	-2.1375	-2.5458	-2.2625	-1.8813	-2.3104	-2.0083	-2.3417	-2.3167	-1.7771	-2.0812	13.901	13.687	23.252	186.218	-9.302	173.036	162.353	125.784	-133.543	16.844	160.296	-66.854	174.512	-138.563	126.884	-129.832	0.00047237	0.00071517	0.00024055	1512.7	4.932e-06	7.301e-06	1083.3	635.63	6.2968e-06	8.3367e-06	448.56	188.74	276.35	104.19	6.2206e-06	68.023	0.00048548	0.00036127	9.4845e-05	1457	4.3311e-06	3.6029e-06	1044.4	615.39	4.752e-06	3.9814e-06	432.66	184.48	269.44	101.26	4.9195e-06	65.867	-118.118	-69.776	-59.564	-134.610	0.397	-4.986	-136.317	-131.627	-15.114	-5.675	-134.054	-131.091	-128.757	-125.055	-21.307	-128.178	-8191	255	
42657.594	1	1	0	0	0.30984	0.052248	0.1241	0.17375	0.12856	0.17285	0.37249	0.166	0.13013	0.28171	0.31124	0.2091	0.22441	0.30287	0.10932	0.03106	-1.7563	-1.8312	-2.1417	-2.1896	-1.8479	-2.2833	-2.1792	-2.1417	-2.2042	-1.9542	-2.4896	-2.0104	-2.2125	-2.525	-1.7125	-2.2354	-56.611	157.171	9.442	127.760	99.665	84.791	-144.796	-139.909	114.441	-112.213	161.784	182.476	98.677	202.581	-125.538	60.655	0.00046862	0.0007444	0.00021468	1525.8	6.1934e-06	7.5444e-06	1092.2	641.57	6.6106e-06	7.3263e-06	453.62	192.3	280.61	105.76	7.4019e-06	68.861	0.00048894	0.00036271	9.3829e-05	1465.9	4.2872e-06	3.3894e-06	1052.8	620.16	4.7892e-06	3.8518e-06	437.08	187.17	272.6	102.78	4.7895e-06	66.992	-119.788	-59.298	-55.906	-134.772	1.251	-6.512	-136.387	-131.708	-20.830	-6.083	-133.891	-131.200	-128.728	-125.128	-19.565	-127.885	-8191	255	
42657.688	1	1	0	0	0.29876	0.035748	0.11544	0.12875	0.068681	0.13196	0.19639	0.19792	0.083725	0.088113	0.38619	0.37142	0.34898	0.080536	0.1005	0.15934	-1.6292	-1.825	-1.9792	-2.3104	-1.8208	-2.3583	-2.1292	-2.2667	-2.2229	-1.9	-2.475	-2.4583	-2.0542	-2.6021	-2.0187	-2.2625	74.823	196.416	-73.348	204.386	-85.482	-5.054	199.068	123.760	-4.679	176.793	-111.681	-148.721	193.330	73.495	205.342	145.487	0.00049196	0.00077092	0.00025349	1531	5.7165e-06	7.4377e-06	1095.9	640.3	5.808e-06	6.7638e-06	457.48	192.53	279.63	106.41	7.3205e-06	69.29	0.00050743	0.00038897	9.8028e-05	1471.7	4.2545e-06	3.6072e-06	1057	620.66	4.7557e-06	3.8421e-06	439.04	187.38	272.66	103.1	4.931e-06	67.027	-119.208	-63.728	-63.165	-134.559	8.002	-1.283	-136.098	-131.578	-20.486	6.365	-133.966	-130.953	-128.762	-124.933	-20.737	-128.042	-8191	255	
42657.785	1	1	0	0	0.093009	0.067799	0.18765	0.27909	0.23644	0.092687	0.28046	0.19955	0.37109	0.36639	0.17319	0.29145	0.39107	0.12463	0.1762	0.1645	-1.8042	-1.8563	-2.0458	-2.2313	-1.8729	-2.3208	-2.1937	-2.3792	-2.1437	-1.7687	-2.3229	-2.1854	-1.9333	-2.4375	-2	-2.1083	60.826	94.978	-79.585	142.450	-66.882	-7.368	133.246	208.121	61.902	51.260	132.163	141.465	156.768	-90.268	-113.445	141.650	0.00047759	0.00076066	0.0002097	1526.6	5.1476e-06	7.7643e-06	1093.8	639.52	5.6707e-06	7.9289e-06	452.63	191.39	279.52	105.65	6.46e-06	68.981	0.00048638	0.00037694	9.4524e-05	1466.3	4.2218e-06	3.5177e-06	1052.2	618.56	4.8037e-06	3.6703e-06	436.24	186.53	271.78	102.45	5.0122e-06	66.749	-120.541	-59.963	-57.862	-134.508	-1.725	-5.746	-136.645	-131.635	-26.711	-3.791	-133.761	-131.366	-128.657	-125.139	-17.422	-128.062	-8191	255	
42657.902	1	1	0	0	0.36544	0.035038	0.12689	0.071465	0.03514	0.27536	0.061608	0.12993	0.17119	0.14996	0.07735	0.068405	0.14656	0.35577	0.29942	0.36631	-1.7646	-1.9125	-2	-2.2938	-1.9875	-2.3271	-2.1146	-2.1646	-2.4417	-1.8687	-2.2271	-2.3208	-2.025	-2.6437	-2.1667	-1.9292	179.867	151.044	72.930	194.150	-129.309	-89.019	148.075	116.321	65.108	-53.483	183.455	-99.465	-98.034	-127.843	71.109	-118.417	0.00048759	0.00086155	0.00019567	1529.1	5.1107e-06	8.1827e-06	1095.3	639.95	5.9263e-06	7.8165e-06	454.04	192.11	279.32	105.58	6.3499e-06	69.209	0.00048245	0.00041419	0.00010025	1469.3	4.4017e-06	3.4983e-06	1053.5	618.16	4.6305e-06	3.6833e-06	437.54	186.95	271.72	102.49	4.9243e-06	66.973	-121.339	-66.325	-59.534	-134.773	1.269	5.452	-136.229	-131.474	-16.455	-2.346	-134.121	-131.178	-128.747	-125.195	-10.347	-128.031	-8191	255	
42658.000	1	1	0	0	0.2658	0.27326	0.15382	0.37635	0.25907	0.10138	0.20389	0.26876	0.11318	0.27276	0.37969	0.30716	0.23841	0.35117	0.1467	0.12136	-1.8188	-2.0146	-2.1937	-2.4	-1.8875	-2.1146	-2.1396	-2.0229	-2.1917	-1.9937	-2.2146	-2.5	-2.0625	-2.3771	-2.0583	-1.9771	-104.604	167.871	51.374	150.102	155.881	-35.048	169.925	118.227	-72.085	88.237	172.436	99.061	165.591	199.366	-19.830	-16.882	0.00047662	0.00082266	0.00018133	1537	5.6073e-06	7.4158e-06	1102.5	644.07	6.4067e-06	7.8387e-06	459.64	195.76	280.63	106.84	7.0553e-06	70.455	0.0004776	0.00039853	9.4845e-05	1474.6	4.3776e-06	3.4907e-06	1062	622.5	4.7683e-06	3.747e-06	442.57	189.34	274	103.72	4.9616e-06	68.091	-118.549	-64.036	-54.279	-134.752	0.566	-1.929	-136.228	-131.602	-21.694	-3.052	-133.842	-130.925	-128.549	-125.088	-15.874	-127.967	-8191	255	
42658.094	1	1	0	0	0.11127	0.13555	0.024315	0.54221	0.072979	0.20271	0.11853	0.20111	0.1536	0.022229	0.20301	0.26937	0.15259	0.52081	0.21337	0.18087	-1.7646	-1.7667	-1.9813	-2.3896	-2.0146	-2.1458	-2.275	-1.9458	-2.2771	-1.7979	-1.9479	-2.275	-1.8292	-2.1646	-2.1167	-1.8417	-51.103	46.134	148.924	183.087	-17.386	157.479	98.336	-79.918	-127.602	172.624	-95.496	184.397	153.614	170.776	-123.491	112.037	0.00045326	0.00089817	0.00019074	1545.7	5.7917e-06	8.5297e-06	1109.4	647.52	6.6357e-06	6.4892e-06	463.42	194.92	282.3	107.53	6.1179e-06	70.614	0.00048105	0.00040712	9.9927e-05	1482.8	4.4473e-06	3.8455e-06	1068.5	625.17	4.8209e-06	3.6639e-06	446.1	190.26	275.15	104.31	5.0505e-06	68.396	-120.819	-62.491	-55.712	-134.934	9.770	-2.538	-136.316	-131.645	-23.861	-3.195	-133.864	-131.290	-128.399	-124.823	-10.636	-127.919	-8191	255	
42658.191	1	1	0	0	0.28213	0.024334	0.095046	0.1686	0.14274	0.044511	0.26252	0.1808	0.30735	0.21816	0.30272	0.24877	0.41003	0.31071	0.15409	0.26783	-1.8354	-2.0938	-1.8062	-2.5104	-1.8979	-1.9667	-2.3479	-1.9542	-2.2229	-2.1771	-2.0917	-2.4125	-2.2875	-2.2604	-2.2833	-2.0604	163.601	208.651	200.874	145.781	127.204	147.242	154.814	-87.847	116.426	108.111	177.680	112.987	188.422	200.081	5.274	134.690	0.00046625	0.00080386	0.0002285	1545	4.9834e-06	7.4884e-06	1108.1	643.47	5.718e-06	7.6308e-06	459.21	194.32	281.43	106.82	6.7175e-06	69.746	0.00048101	0.00040579	0.00010311	1482	4.3389e-06	3.9167e-06	1065.5	622.8	4.8662e-06	3.8118e-06	442.38	189.1	273.99	103.6	4.865e-06	67.58	-119.063	-64.923	-61.898	-134.638	6.686	5.603	-136.581	-131.683	-18.031	-9.984	-134.061	-131.117	-128.614	-125.021	-24.156	-127.668	-8191	255	
42658.289	1	1	0	0	0.20823	0.13406	0.11969	0.064067	0.20184	0.13548	0.034809	0.18673	0.06088	0.16638	0.17387	0.32893	0.16949	0.31913	0.064472	0.10362	-1.7896	-2.1146	-1.9167	-2.5771	-1.9854	-1.8854	-2.5083	-1.9542	-2.1042	-2.2	-1.9833	-2.2458	-2.3063	-2.0979	-2.35	-1.9083	46.918	109.760	44.949	-147.046	-25.403	-11.440	152.908	172.233	177.970	39.209	-133.092	155.153	-149.085	192.101	52.790	154.144	0.0004531	0.00075814	0.00020954	1539.7	5.9787e-06	7.4042e-06	1101.4	640.6	6.4662e-06	8.3613e-06	458.05	193.27	280.89	106.23	6.4662e-06	69.724	0.0004835	0.00038544	0.00010092	1479.2	4.5248e-06	3.6579e-06	1062.6	620.01	4.7892e-06	3.5677e-06	440.88	188.38	273.06	103.07	4.6661e-06	67.46	-119.291	-63.901	-58.543	-134.855	5.573	2.117	-136.099	-131.691	-20.693	-7.805	-134.301	-131.075	-128.736	-125.010	-13.112	-127.898	-8191	255	
42658.383	1	1	0	0	0.16552	0.11958	0.11822	0.11313	0.41176	0.20517	0.069716	0.42153	0.24539	0.20933	0.26134	0.28098	0.13489	0.16347	0.11243	0.10951	-1.8271	-2.1562	-1.6688	-2.4625	-1.9271	-1.9062	-2.5125	-2.2167	-2.0417	-2.3458	-2.1604	-2.3271	-2.1583	-2.275	-2.4125	-1.9833	-111.199	207.742	-93.004	65.328	170.730	-46.948	169.250	193.894	30.584	62.792	-125.736	192.468	-15.876	-128.556	-116.055	179.914	0.00045811	0.00079511	0.00022174	1540.7	6.155e-06	7.4977e-06	1105.1	643.37	5.8504e-06	7.3035e-06	461.31	195.63	282.78	107.23	6.7806e-06	70.41	0.00047802	0.00038773	9.7627e-05	1476.8	4.2872e-06	3.6719e-06	1063.9	621.96	4.7212e-06	3.599e-06	444.7	190.23	275.2	104.13	4.9683e-06	68.374	-117.890	-64.400	-60.143	-134.727	3.806	-5.547	-136.450	-131.558	-15.181	-10.969	-133.881	-131.117	-128.857	-125.107	-11.433	-127.950	-8191	255	
42658.504	1	1	0	0	0.26833	0.21127	0.2684	0.24567	0.41019	0.069304	0.21985	0.41789	0.079997	0.10014	0.14467	0.1249	0.2297	0.21578	0.19212	0.16871	-1.7708	-2.275	-1.7042	-2.3208	-2.1167	-1.6708	-2.2646	-2.1104	-2.1792	-2.4729	-1.8604	-2.3312	-2.1083	-2.0083	-2.3646	-2.1188	-80.553	-109.367	176.748	188.227	-34.761	-124.136	59.507	138.440	163.703	-75.693	43.514	-1.621	179.583	165.316	-44.015	110.526	0.00049392	0.00079442	0.00020492	1550.3	5.3325e-06	6.0391e-06	1116.6	650.34	6.0422e-06	8.421e-06	465.68	197.61	284.32	108.44	6.6065e-06	71.386	0.00048498	0.00034647	0.00011397	1486.7	4.177e-06	3.6536e-06	1072.8	626.91	5.0167e-06	3.7211e-06	449.54	192.37	276.8	105.37	4.9711e-06	69.429	-119.355	-60.963	-49.880	-134.632	-1.378	-4.795	-136.312	-131.719	-18.727	-7.179	-134.138	-130.945	-128.579	-125.013	-4.874	-127.768	-8191	255	
42658.602	1	1	0	0	0.072818	0.18174	0.095224	0.12021	0.20479	0.31529	0.17738	0.15913	0.12747	0.071987	0.07061	0.11036	0.12747	0.45036	0.30913	0.069228	-1.4688	-2.0729	-1.9042	-2.3	-2.1125	-1.8479	-2.2354	-2.3083	-1.875	-2.3312	-2.0958	-2.2583	-2.3167	-1.9792	-2.3208	-2.3333	116.919	-130.231	114.661	-19.059	-135.711	-3.956	2.788	176.482	55.053	-21.633	174.897	-72.198	-86.573	145.893	-50.980	82.117	0.00047523	0.00072633	0.00020418	1548.4	6.1242e-06	7.8526e-06	1114	649.1	6.0438e-06	7.4001e-06	463.44	196.2	282.9	108.29	6.4238e-06	71.06	0.00049364	0.00035545	0.0001095	1487.9	4.301e-06	3.7819e-06	1071.6	626.67	5.0358e-06	3.7092e-06	447.01	191.3	275.97	105.12	4.8698e-06	68.857	-118.814	-67.597	-55.983	-134.629	6.770	-1.257	-136.156	-131.614	-22.301	-16.857	-134.071	-130.986	-128.548	-124.998	-20.153	-127.943	-8191	255	
42658.695	1	1	0	0	0.11685	0.33407	0.10645	0.24005	0.034893	0.17544	0.042883	0.052629	0.35633	0.32099	0.2479	0.27657	0.12597	0.17335	0.24199	0.21101	-1.425	-2.1688	-1.7687	-2.1396	-2.2146	-1.6958	-2.2667	-2.2687	-1.7542	-2.3563	-2.1063	-2.1583	-2.4083	-1.8958	-2.2042	-2.2021	121.551	-66.515	155.337	-145.250	-64.701	58.471	2.098	107.251	197.100	-139.104	-127.377	208.900	199.967	136.715	81.861	177.905	0.00049315	0.00082875	0.00023536	1544.3	6.3006e-06	7.5718e-06	1104.4	646.99	6.4056e-06	7.0338e-06	463.85	196.6	282.4	107.82	6.3599e-06	70.695	0.00050269	0.00034351	0.00011314	1482.2	4.2158e-06	3.9555e-06	1064.9	623.73	5.0095e-06	3.5224e-06	445.19	190.77	275.4	104.79	4.7751e-06	68.53	-118.944	-62.949	-50.015	-134.728	-0.168	-2.632	-136.516	-131.840	-15.623	-3.285	-133.968	-131.333	-128.695	-125.126	-12.594	-127.955	-8191	255	
42658.793	1	1	0	0	0.076286	0.17362	0.21661	0.18084	0.1056	0.12479	0.47969	0.28737	0.091182	0.076988	0.09624	0.027919	0.12673	0.21108	0.072951	0.23929	-1.2958	-2.1083	-1.9688	-2.1125	-2.2125	-1.8833	-2.125	-2.3417	-1.8583	-2.1792	-1.9854	-2.2417	-2.4354	-2.0917	-2.0062	-2.3729	-63.603	103.474	168.824	180.871	-43.058	1.851	66.656	174.669	41.433	44.494	-69.987	42.376	183.334	194.466	-123.311	-142.138	0.00047835	0.00082525	0.00023365	1540.6	5.8546e-06	8.3119e-06	1105.8	644.3	5.4805e-06	7.1662e-06	465.17	196.79	283.43	108.29	6.5761e-06	71.421	0.00049994	0.00035172	0.00011488	1479.1	4.2114e-06	3.6137e-06	1064.6	623.19	4.9161e-06	3.8108e-06	445.8	190.86	275.93	104.9	5.3574e-06	68.969	-117.910	-71.719	-50.976	-134.664	3.231	-2.314	-136.120	-131.585	-16.770	-4.715	-134.029	-131.293	-128.658	-124.850	-14.083	-127.998	-8191	255	
42658.887	1	1	0	0	0.065926	0.068958	0.045771	0.29155	0.22383	0.25617	0.080962	0.27856	0.19554	0.081033	0.24863	0.079583	0.25632	0.14533	0.083363	0.23774	-1.2812	-2.275	-1.8354	-2.0125	-2.275	-1.7479	-2.2125	-2.3646	-1.8417	-2.2708	-2.175	-1.9583	-2.2896	-2.1146	-1.9146	-2.4125	163.518	189.281	-47.018	169.635	-131.281	124.569	-82.517	162.002	38.799	-87.443	180.613	-126.307	183.642	189.731	107.378	142.842	0.00049614	0.000749	0.00022514	1544.2	4.8665e-06	8.5599e-06	1116.4	648.01	5.709e-06	7.9661e-06	466.85	199.08	285.52	108.55	6.1146e-06	72.15	0.00050623	0.0003478	0.00011458	1486.2	4.0823e-06	4.031e-06	1072.5	626.5	4.9741e-06	3.7708e-06	450.04	193.06	277.86	105.6	4.9902e-06	69.805	-120.247	-71.081	-40.297	-134.766	-0.042	13.333	-136.423	-131.614	-17.063	0.119	-133.917	-131.074	-128.538	-124.896	-16.711	-127.915	-8191	255	
42658.984	1	1	0	0	0.092475	0.36261	0.31808	0.29573	0.21776	0.10804	0.10321	0.16491	0.14	0.20306	0.23005	0.057584	0.20483	0.072197	0.15934	0.37895	-1.3771	-2.2229	-2.0375	-2.3063	-2.1688	-1.8542	-2.2208	-2.5021	-1.7708	-2.1396	-2.3229	-2.0771	-2.3875	-2.05	-1.9646	-2.2188	207.393	189.462	-7.467	167.950	26.320	-23.565	127.936	127.416	-139.104	-2.070	207.928	197.776	186.157	-104.751	37.786	134.064	0.00049295	0.00081565	0.00022074	1554.8	6.2291e-06	8.2958e-06	1121.3	649.92	6.4109e-06	7.6072e-06	468.88	198.51	286.61	108.95	7.2332e-06	72.3	0.00048948	0.00035793	0.00011164	1491.3	4.2889e-06	3.9458e-06	1076.6	628.66	5.4292e-06	3.5645e-06	450.71	193.21	278.13	105.97	4.9281e-06	69.641	-120.295	-59.987	-66.247	-134.842	-2.486	-0.455	-136.387	-131.670	-14.449	-10.463	-134.000	-131.013	-128.755	-124.921	-19.085	-128.057	-8191	255	
42659.105	1	1	0	0	0.18655	0.06549	0.23597	0.24955	0.11502	0.078038	0.16498	0.15143	0.1177	0.16779	0.16106	0.066985	0.17636	0.43673	0.15268	0.16086	-1.4813	-2.1396	-2.0563	-1.9646	-2.3146	-1.8646	-2.0771	-2.4354	-1.9271	-2.2354	-2.1792	-1.9688	-2.3417	-2.4021	-1.8875	-2.2125	174.532	151.019	-83.354	155.376	-67.254	-22.111	126.873	187.126	64.903	199.470	79.699	49.252	-84.113	145.369	25.820	-107.759	0.00048561	0.00096197	0.00024539	1544.2	5.2142e-06	8.3658e-06	1115.2	646.91	5.7856e-06	7.7103e-06	463.79	196.84	283.14	107.79	7.4824e-06	70.656	0.00050965	0.00037245	0.00011194	1483.4	4.1718e-06	3.8445e-06	1068.7	624.7	5.1736e-06	3.6487e-06	445.46	191.01	275.21	104.6	4.9931e-06	68.427	-118.075	-59.745	-56.323	-134.592	5.652	3.991	-136.314	-131.602	-25.082	1.731	-133.923	-131.198	-128.590	-125.030	-23.605	-127.738	-8191	255	
42659.199	1	1	0	0	0.28226	0.20107	0.10399	0.25285	0.28729	0.19719	0.22267	0.28292	0.15323	0.02992	0.15819	0.34109	0.22478	0.45249	0.021001	0.15155	-1.4125	-2.0583	-1.9396	-2.0104	-2.1813	-1.8917	-2.0667	-2.3708	-1.7604	-2.0479	-2.4167	-2.0708	-2.4292	-2.2083	-1.9542	-2.3875	145.203	-58.467	164.732	97.876	19.196	-58.325	92.807	160.288	-115.060	139.947	149.974	182.638	-147.138	-142.370	-129.152	-127.929	0.00045418	0.00080785	0.00019298	1542.9	5.3948e-06	8.0102e-06	1109.2	642.47	6.0447e-06	7.59e-06	460.42	195.35	281.83	107.15	8.0312e-06	70.684	0.00049547	0.00037388	9.9473e-05	1481.4	4.276e-06	3.7722e-06	1067.6	622.61	5.14e-06	3.6358e-06	443.62	190.29	274.66	104.18	5.2752e-06	68.412	-120.765	-60.507	-51.970	-134.729	-1.161	12.334	-136.326	-131.555	-21.987	-6.223	-133.964	-131.078	-128.687	-125.151	-15.114	-127.787	-8191	255	
42659.297	1	1	0	0	0.084077	0.17961	0.10639	0.13334	0.26277	0.15479	0.43125	0.24582	0.32146	0.11107	0.054743	0.27668	0.52499	0.16759	0.11201	0.33451	-1.4167	-2.0687	-2.1104	-2.0479	-2.0646	-1.95	-2.0542	-2.5208	-2.0812	-2.1125	-2.3479	-1.85	-2.2729	-2.2958	-2.0104	-2.3792	8.566	-72.770	73.816	68.013	-50.855	-116.284	156.533	126.648	91.963	178.743	31.694	199.135	-147.610	155.001	10.590	120.033	0.00047551	0.00083252	0.00023756	1545.1	6.0901e-06	7.8735e-06	1114.7	647.96	5.8781e-06	5.5046e-06	466.37	197.57	285.47	109.13	7.1717e-06	72.01	0.00048412	0.00037761	9.7467e-05	1484.4	4.301e-06	3.6137e-06	1071.6	627.27	5.1201e-06	3.6433e-06	449.17	192.38	277.61	105.79	5.1872e-06	69.636	-118.757	-73.766	-59.506	-134.870	-0.298	3.440	-136.067	-131.523	-21.102	-7.487	-133.681	-131.050	-128.574	-125.040	-22.533	-127.848	-8191	255	
42659.391	1	1	0	0	0.10186	0.21359	0.17621	0.24339	0.10807	0.26238	0.22372	0.14862	0.17004	0.087737	0.23124	0.30564	0.19935	0.13325	0.15926	0.23294	-1.4542	-1.7604	-2.2458	-2.0792	-2.1875	-2.075	-1.9667	-2.5021	-1.9396	-1.9292	-2.5042	-2.0667	-2.3396	-2.5417	-1.9292	-2.3312	61.583	166.897	192.929	-132.826	136.408	-71.926	90.360	194.954	184.503	-35.237	-143.860	135.474	147.760	-143.154	-120.067	155.462	0.00048128	0.00085418	0.00022474	1549.7	5.8825e-06	8.8226e-06	1121.8	652.32	6.0037e-06	7.4859e-06	470.44	198.82	285.94	109.65	6.206e-06	72.413	0.00049725	0.000382	9.9526e-05	1490.1	4.4258e-06	3.8412e-06	1077.2	629.7	5.2869e-06	4.1067e-06	452.07	193.71	278.57	106.35	5.2092e-06	70.071	-119.733	-70.843	-51.792	-134.705	9.602	4.228	-136.363	-131.659	-23.743	-7.073	-133.898	-131.072	-128.543	-124.973	-15.182	-127.938	-8191	255	
42659.465	1	1	0	0	0.16662	0.14889	0.21763	0.38151	0.39178	0.30493	0.062383	0.28197	0.17273	0.2321	0.19632	0.30936	0.12603	0.27972	0.29115	0.071393	-1.5438	-1.9	-2.3187	-1.9458	-2.2604	-2.0271	-1.9354	-2.6104	-2.1312	-2.1167	-2.3812	-2.0646	-2.1083	-2.2771	-1.8104	-2.3271	116.232	-141.342	-95.855	134.703	-18.365	-106.637	-111.829	106.857	173.592	-92.976	174.031	77.808	5.852	132.360	-32.961	131.294	0.0004792	0.00077458	0.00023977	1550.9	5.9407e-06	7.5345e-06	1116.2	648.73	6.033e-06	7.8451e-06	466.05	197.32	285.03	108.88	6.6507e-06	71.302	0.00049574	0.00036357	0.00010183	1489.2	4.4878e-06	3.6956e-06	1072.3	626.92	5.033e-06	3.9523e-06	447.62	191.89	277.04	105.45	5.5114e-06	68.994	-119.233	-66.156	-53.418	-134.753	3.815	5.786	-136.402	-131.698	-17.652	-1.561	-134.042	-131.196	-128.565	-125.188	-8.438	-127.716	-8191	255	
42659.586	1	1	0	0	0.11403	0.23367	0.13248	0.36043	0.059129	0.11664	0.17896	0.1714	0.19727	0.11243	0.19151	0.20233	0.37676	0.27349	0.26606	0.038949	-1.5896	-1.9042	-2.2167	-2.3583	-2.075	-2.0958	-2.0417	-2.3438	-2.1	-1.9312	-2.4271	-2.225	-2.1104	-2.5812	-1.9937	-2.1312	46.959	209.698	-138.717	182.284	-79.442	-125.899	-111.425	-50.927	143.624	-45.266	55.617	189.009	178.189	193.993	49.728	166.036	0.00047926	0.00093084	0.00025406	1542.5	5.2015e-06	7.6811e-06	1107.4	645.94	5.8409e-06	8.0585e-06	462.55	195.65	282.67	108.26	6.2715e-06	71.187	0.00048972	0.00038296	9.8831e-05	1482.6	4.2898e-06	3.4336e-06	1067.2	623.71	5.1446e-06	4.07e-06	445.28	191.01	275.91	105	5.4913e-06	68.958	-119.185	-71.176	-60.396	-134.743	4.919	0.932	-136.375	-131.709	-24.984	-3.628	-133.763	-131.109	-128.571	-125.143	-17.944	-127.964	-8191	255	
42659.680	1	1	0	0	0.019144	0.099235	0.17234	0.14311	0.35857	0.045039	0.17293	0.33743	0.085105	0.13184	0.22816	0.16222	0.22612	0.36815	0.19571	0.16551	-1.7458	-1.7042	-2.1708	-2.0687	-1.7458	-2.2604	-2.0104	-2.0917	-2.0625	-1.6833	-2.3187	-2.2146	-2.0771	-2.5625	-1.8333	-2.0958	-56.507	32.222	-122.205	-141.389	158.467	22.870	-142.138	169.089	-129.586	61.938	210.275	166.139	-137.908	138.770	130.643	63.466	0.00047763	0.00085677	0.00020914	1547.1	5.5866e-06	7.3796e-06	1109.3	647.22	5.8993e-06	8.9204e-06	465.23	197.23	283.93	108.91	7.5856e-06	71.372	0.00049329	0.00038496	9.9473e-05	1482.5	4.3698e-06	3.6417e-06	1068.7	625.77	5.1019e-06	4.1067e-06	447.86	191.92	276.83	105.53	5.5639e-06	69.285	-118.723	-58.277	-55.877	-134.709	-1.772	3.703	-136.311	-131.721	-16.948	-14.483	-134.023	-131.134	-128.497	-124.968	-8.804	-127.840	-8191	255	
42659.777	1	1	0	0	0.12922	0.18673	0.13347	0.3509	0.20508	0.042256	0.09342	0.14174	0.17245	0.14699	0.19192	0.23335	0.14031	0.3638	0.15975	0.042843	-1.5729	-1.6708	-2.1792	-2.2146	-1.8875	-2.3646	-2.1104	-2.075	-2.35	-1.8208	-2.2062	-2.3125	-1.925	-2.3729	-1.8958	-2.1208	199.478	-92.675	-61.954	135.366	37.576	104.380	-100.380	182.276	80.596	-145.009	-47.895	114.823	150.595	193.757	32.790	-148.029	0.00047647	0.00071486	0.00022531	1551	5.8918e-06	7.9667e-06	1126.1	653.59	7.0092e-06	7.3141e-06	470.43	198.6	285.61	109.23	6.3573e-06	72.008	0.00049562	0.00037398	9.7761e-05	1491.5	4.5386e-06	3.4401e-06	1078.8	629.49	4.9569e-06	4.2039e-06	451.37	193.1	278.16	106.03	5.4052e-06	69.964	-118.116	-66.294	-56.274	-134.624	1.599	2.521	-136.298	-131.546	-15.059	-1.473	-133.941	-130.880	-128.423	-124.936	-17.892	-127.698	-8191	255	
42659.871	1	1	0	0	0.19798	0.18658	0.21132	0.37179	0.098902	0.26229	0.18189	0.31818	0.16433	0.15858	0.17942	0.11132	0.57503	0.10175	0.061454	0.1917	-1.6667	-1.7938	-2	-2.1937	-1.8646	-2.1833	-2.2271	-2.1375	-2.1896	-1.9	-2.3333	-2.2875	-1.975	-2.4208	-1.9354	-2.0208	188.219	43.660	200.612	184.140	149.502	-10.223	149.335	129.622	-46.944	116.062	-73.110	84.767	148.942	143.184	-15.829	-98.068	0.00048123	0.00086166	0.0002355	1556.6	5.8098e-06	9.2404e-06	1118.3	650.55	6.2202e-06	8.5698e-06	469.14	197.42	285.15	108.9	6.3245e-06	71.308	0.00049555	0.00037933	0.00010041	1493.4	4.6057e-06	3.811e-06	1076	629	4.9732e-06	4.5485e-06	449.86	192.03	277.36	105.63	5.5639e-06	69.213	-117.820	-69.415	-59.036	-134.587	4.042	3.295	-136.072	-131.529	-18.796	-0.907	-133.996	-130.934	-128.525	-125.083	-20.397	-127.770	-8191	255	
42659.992	1	1	0	0	0.16923	0.11807	0.36972	0.1996	0.11159	0.10097	0.14451	0.21656	0.31656	0.22922	0.31336	0.075993	0.40394	0.020821	0.17352	0.2481	-1.9667	-1.8979	-2.1188	-2.4229	-1.9521	-2.2167	-2.3271	-2.1813	-2.1771	-1.9125	-2.1875	-2.3375	-1.8708	-2.3104	-1.9708	-1.9729	175.690	63.668	-46.387	174.602	7.278	90.598	157.231	205.991	33.950	146.810	191.805	-44.494	194.119	116.234	-99.911	161.254	0.00048495	0.00085228	0.00024698	1550.2	5.886e-06	7.9803e-06	1111.5	646.42	5.2123e-06	7.6906e-06	461.2	195.35	282.9	107.45	6.4123e-06	70.536	0.00048568	0.00037923	0.00010121	1485.3	4.6204e-06	3.5199e-06	1066.7	623.68	4.5589e-06	4.3627e-06	444.33	189.95	274.95	104.2	5.3048e-06	68.315	-119.287	-58.932	-59.880	-134.693	-6.833	-3.841	-136.433	-131.719	-21.766	-1.595	-134.027	-130.986	-128.700	-125.059	-11.613	-127.815	-8191	255	
42660.090	1	1	0	0	0.10189	0.16626	0.17016	0.26959	0.17595	0.13593	0.27562	0.26118	0.198	0.14403	0.2057	0.3751	0.20042	0.32809	0.20876	0.084838	-1.8583	-1.8271	-1.9188	-2.5208	-1.8771	-2.2562	-2.2562	-2.2146	-2.3438	-2.1437	-2.0271	-2.1208	-1.875	-2.4042	-2.1458	-1.9396	175.944	20.004	-10.751	-129.354	175.267	-71.972	180.703	179.867	115.515	196.960	95.282	179.363	-108.553	146.702	-99.795	160.833	0.00047185	0.00098039	0.00021194	1545.3	4.7267e-06	6.998e-06	1106.6	646.1	6.5122e-06	8.0822e-06	462.55	195.4	282.96	107.58	6.8204e-06	70.749	0.0004795	0.0003928	0.00010209	1482.4	4.7779e-06	3.7129e-06	1066.7	623.54	4.7457e-06	4.1791e-06	444.67	190.1	275.08	104.41	5.2455e-06	68.66	-118.245	-59.435	-52.618	-134.634	3.523	12.446	-136.332	-131.461	-13.798	-1.311	-133.989	-130.992	-128.606	-125.094	-24.222	-127.947	-8191	255	
42660.184	1	1	0	0	0.12521	0.10686	0.15225	0.31689	0.18527	0.27096	0.1079	0.25309	0.095732	0.17974	0.20502	0.27321	0.20271	0.32671	0.1347	0.068654	-1.8354	-2.0229	-2.1188	-2.5458	-2.0292	-2.1771	-2.475	-1.9521	-2.1688	-2.0812	-1.9229	-2.3875	-2.0812	-2.2229	-2.1417	-1.8667	120.726	119.662	150.333	174.688	-59.848	-67.141	83.925	166.097	46.892	169.973	-106.426	191.091	194.267	162.890	52.747	-137.885	0.00049301	0.00085805	0.00022095	1550.1	6.2586e-06	7.0761e-06	1117.1	648.41	5.7915e-06	7.4713e-06	468.27	197.18	285.67	109.33	7.4042e-06	72.139	0.00051035	0.00035229	0.00010231	1487.9	4.9931e-06	3.3657e-06	1073.4	627.3	4.7547e-06	4.3087e-06	450.49	192.62	278.13	105.82	5.0208e-06	69.85	-118.814	-59.451	-54.628	-134.811	1.633	10.459	-136.087	-131.531	-23.143	-4.197	-133.804	-130.981	-128.678	-125.097	-16.434	-127.679	-8191	255	
42660.277	1	1	0	0	0.12313	0.027418	0.28617	0.16477	0.10687	0.1056	0.25864	0.26438	0.16591	0.1263	0.26152	0.18838	0.32153	0.15863	0.17322	0.14155	-1.8271	-2.0958	-1.8771	-2.8042	-1.8958	-2.0417	-2.4021	-2.2062	-2.2708	-2.1458	-1.9937	-2.4813	-2.2333	-2.1437	-2.2104	-1.9625	-98.202	-57.899	-67.866	203.769	-63.227	3.019	-91.076	170.433	36.669	153.919	139.901	176.884	148.349	119.478	5.927	198.618	0.0004684	0.00083543	0.00018356	1561.6	6.9229e-06	8.0923e-06	1121.7	653.75	6.1685e-06	8.6344e-06	466.65	199.11	286.71	109.47	6.162e-06	71.63	0.00049523	0.00036586	0.00010255	1495.1	4.9707e-06	3.8013e-06	1078.4	630.13	4.898e-06	4.2461e-06	450.98	193.42	278.58	106.11	4.8019e-06	69.613	-118.678	-66.065	-54.013	-134.857	-3.841	4.561	-136.233	-131.547	-19.634	-4.215	-133.932	-130.936	-128.595	-125.056	-21.986	-127.939	-8191	255	
42660.375	1	1	0	0	0.18808	0.15921	0.13067	0.16226	0.10149	0.19346	0.28273	0.3483	0.16917	0.12261	0.17462	0.020078	0.20932	0.31772	0.20402	0.4386	-1.7208	-1.9479	-1.7771	-2.4646	-1.9583	-2.0125	-2.3854	-1.9937	-2.1688	-2.2354	-1.9562	-2.3958	-2.1167	-2.1854	-2.3708	-1.8354	-130.420	86.983	-72.159	178.000	62.654	-127.982	-80.815	181.793	129.014	-91.291	144.341	129.460	174.467	204.744	-51.983	171.983	0.0004804	0.00092335	0.00021634	1550	4.8333e-06	6.7505e-06	1110.6	648.24	5.9531e-06	8.8537e-06	462.74	196.08	283.54	108.09	7.2165e-06	70.699	0.00049924	0.0003863	9.7921e-05	1487.4	4.48e-06	3.5468e-06	1069.2	625.49	4.7919e-06	4.219e-06	445.51	190.76	276.15	104.97	4.9826e-06	68.531	-119.521	-68.570	-48.040	-134.697	-0.126	-3.324	-136.180	-131.546	-29.169	-0.905	-133.938	-130.827	-128.605	-125.214	-20.455	-127.898	-8191	255	
42660.496	1	1	0	0	0.44298	0.24196	0.1236	0.33667	0.11315	0.14355	0.28973	0.050495	0.30305	0.048989	0.24225	0.23548	0.2857	0.15691	0.099592	0.1053	-1.55	-2.0229	-1.7229	-2.3229	-1.9979	-2.025	-2.3438	-1.9771	-2.0917	-2.1312	-1.7938	-2.2438	-2.1375	-2.0708	-2.2479	-1.9146	-1.261	125.849	195.735	196.867	19.938	198.028	117.135	190.761	-97.728	-7.529	7.423	122.624	178.712	-147.978	70.727	-125.928	0.00047051	0.00085474	0.00019988	1545.7	6.02e-06	8.2652e-06	1105.1	645.55	5.9806e-06	7.1532e-06	462.12	194.87	281.92	107.26	6.5067e-06	70.294	0.00049143	0.00034465	0.00010268	1484.1	4.6333e-06	3.8844e-06	1065.7	623.71	4.9506e-06	3.7935e-06	444.23	189.82	274.62	104.25	4.6728e-06	68.207	-120.963	-71.062	-65.025	-134.604	-11.918	0.467	-136.307	-131.473	-18.848	4.364	-134.094	-131.025	-128.550	-124.779	-13.923	-128.093	-8191	255	
42660.594	1	1	0	0	0.29522	0.11529	0.17119	0.20991	0.11616	0.10805	0.3593	0.17697	0.22269	0.044518	0.32796	0.2412	0.2719	0.20752	0.36828	0.3115	-1.5875	-2.1604	-1.8667	-2.4042	-2.0208	-1.8062	-2.4708	-2.1104	-1.975	-2.1063	-1.7896	-2.3375	-2.3167	-2.0125	-2.0292	-2.0271	205.377	71.403	-7.330	175.933	44.161	158.986	194.815	169.202	-113.746	-137.125	144.592	142.665	-134.933	159.017	143.057	97.926	0.00047115	0.00078568	0.0002211	1548.4	6.2716e-06	7.3476e-06	1112.9	647.67	6.6665e-06	8.0612e-06	465.87	195.9	284.73	108.05	6.0197e-06	71.652	0.00049053	0.00034064	0.00010113	1485.6	4.7125e-06	3.467e-06	1070.4	624.85	5.0285e-06	3.666e-06	447.6	190.98	276.72	105.09	4.7665e-06	69.292	-119.897	-57.107	-51.312	-134.678	-12.134	-2.403	-136.165	-131.669	-13.688	1.718	-133.734	-130.968	-128.695	-125.066	-12.351	-127.867	-8191	255	
42660.688	1	1	0	0	0.10137	0.25343	0.096481	0.20302	0.12542	0.21013	0.050871	0.37615	0.14253	0.17996	0.086927	0.19364	0.2866	0.20715	0.19487	0.078357	-1.5812	-2.1	-1.7729	-2.1604	-2.3104	-1.9417	-2.4813	-2.2313	-2.0312	-2.2917	-1.9417	-2.2125	-2.3104	-1.8687	-2.0146	-1.9479	75.678	-134.119	56.866	113.579	9.985	70.081	135.437	170.400	-132.504	1.486	118.305	108.943	141.987	163.310	-132.356	98.169	0.00047804	0.00084893	0.00023134	1561.2	4.9199e-06	8.0718e-06	1120.4	654.3	5.9297e-06	8.7023e-06	470.07	198.81	285.71	109.67	6.1348e-06	72.076	0.00050425	0.00035554	0.00010423	1493.6	4.5231e-06	3.7765e-06	1076.4	630.49	5.0693e-06	3.8496e-06	451.13	193.5	278.27	106.18	4.9204e-06	69.889	-120.754	-64.893	-57.318	-134.611	-11.121	8.271	-136.379	-131.648	-21.252	-4.073	-133.989	-131.148	-128.567	-125.001	-21.491	-127.697	-8191	255	
42660.762	1	1	0	0	0.12561	0.040739	0.12402	0.1818	0.2661	0.057741	0.17955	0.1538	0.08876	0.1172	0.54197	0.2685	0.36483	0.11649	0.060335	0.11655	-1.4438	-2.2	-1.9	-2.1417	-2.125	-1.9333	-2.45	-2.4021	-2.0312	-2.3604	-2.1354	-2.2438	-2.2771	-1.8375	-2.1104	-2.1354	193.154	114.075	87.914	150.051	-3.264	113.915	-123.087	115.379	-40.332	102.648	178.002	159.495	177.338	-144.788	118.667	-73.752	0.00047586	0.00091571	0.00023892	1556.4	5.3563e-06	6.1447e-06	1114.3	648.52	5.7656e-06	6.4789e-06	465.93	196.48	284.25	108.58	6.7417e-06	71.383	0.00049508	0.00034656	0.00010258	1491.6	4.5248e-06	3.9706e-06	1073.2	627.1	4.7928e-06	3.437e-06	448.1	191.42	276.57	105.26	4.9635e-06	68.945	-118.703	-66.816	-55.509	-134.667	-3.768	-4.459	-136.068	-131.679	-12.344	-9.575	-134.060	-130.925	-128.730	-125.049	-20.675	-127.893	-8191	255	
42660.879	1	1	0	0	0.21568	0.098028	0.16451	0.21197	0.12588	0.16715	0.15224	0.17751	0.14395	0.29993	0.097778	0.31535	0.10862	0.39761	0.32092	0.04069	-1.4146	-2.3292	-1.925	-2.1937	-2.2542	-2.0667	-2.3688	-2.3042	-1.6521	-2.1813	-1.9813	-2.0687	-2.3833	-2.0229	-2.0417	-2.2271	-89.886	-75.152	-11.663	133.874	196.864	142.687	107.580	127.751	95.038	-65.585	-80.866	-139.250	206.441	205.135	176.380	32.929	0.00049239	0.00086558	0.00022251	1547	5.5892e-06	8.0413e-06	1110.2	645.72	6.6282e-06	7.8275e-06	461.95	196.02	282.65	107.87	6.386e-06	71.141	0.00050359	0.00035182	0.00010121	1485.6	4.1822e-06	4.3254e-06	1069.1	624.04	5.0847e-06	3.9004e-06	445.06	190.53	275.56	104.69	4.8631e-06	68.599	-119.749	-69.622	-58.230	-134.741	2.825	-9.430	-136.318	-131.513	-17.420	3.800	-134.225	-130.981	-128.542	-124.917	-19.915	-127.760	-8191	255	
42660.977	1	1	0	0	0.12201	0.31121	0.21378	0.018912	0.30312	0.13794	0.11823	0.40222	0.20362	0.27021	0.23934	0.18092	0.41272	0.19888	0.30602	0.32103	-1.4125	-2.0521	-1.8229	-2.0354	-2.0542	-1.7021	-2.2208	-2.4083	-1.5896	-2.275	-2.1562	-2.2375	-2.3167	-2.0396	-2.0479	-2.4417	105.764	63.125	191.365	163.709	161.200	-37.070	-106.245	120.102	6.242	111.079	155.934	15.662	147.682	-79.404	93.768	119.534	0.00048123	0.0007869	0.00021517	1556.6	5.2041e-06	8.0598e-06	1114.8	648.5	6.6242e-06	8.8552e-06	466.32	196.59	286.05	108.56	6.8178e-06	71.522	0.00049593	0.00035497	9.5808e-05	1488.2	4.152e-06	4.375e-06	1071	625.76	5.0521e-06	3.5861e-06	447.72	191.63	277.39	105.4	4.8535e-06	69.308	-119.973	-57.953	-43.463	-134.662	2.304	-2.011	-136.061	-131.590	-21.856	1.652	-133.897	-131.093	-128.440	-124.938	-14.053	-127.863	-8191	255	
42661.070	1	1	0	0	0.23564	0.22598	0.095722	0.22425	0.42844	0.28538	0.11656	0.12998	0.20944	0.23601	0.20341	0.2108	0.15735	0.11298	0.12595	0.32824	-1.2167	-2.075	-1.9854	-2.1437	-2.2875	-2.0312	-2.1792	-2.4021	-1.7854	-2.3563	-2.2354	-1.975	-2.5187	-2.1375	-2.0312	-2.1958	116.964	196.373	187.050	177.024	199.401	61.763	-90.492	156.403	45.715	108.843	-145.213	-60.986	131.388	138.189	183.024	-121.497	0.00048837	0.00074807	0.00021591	1557.9	5.6537e-06	9.0155e-06	1124.2	652.72	6.075e-06	8.2356e-06	470.58	198.63	286.73	109.47	6.5996e-06	72.057	0.00050382	0.00034188	0.00010362	1495.1	4.202e-06	4.567e-06	1079.8	630.78	4.8536e-06	3.8118e-06	452.72	193.3	279.07	106.23	5.061e-06	69.758	-120.036	-55.951	-50.972	-134.720	-2.248	0.445	-136.182	-131.537	-21.620	5.048	-133.835	-130.994	-128.562	-125.058	-11.005	-127.906	-8191	255	
42661.168	1	1	0	0	0.24472	0.21756	0.10333	0.35765	0.21558	0.1172	0.20939	0.31088	0.13925	0.14997	0.40742	0.21975	0.28247	0.19967	0.23875	0.23496	-1.4333	-2.1667	-2.1854	-1.8354	-2.3146	-2.0021	-2.1	-2.5271	-1.7375	-2.1146	-2.2021	-1.8729	-2.3875	-2.1958	-2.1229	-2.1875	-79.946	37.235	138.973	139.604	54.041	0.011	186.923	188.505	-95.190	-80.251	-143.092	140.925	139.562	200.194	-65.203	96.897	0.0004676	0.00083733	0.00022372	1563.4	5.2964e-06	7.7839e-06	1123.7	652.4	5.9679e-06	7.9089e-06	467.81	197.78	285.66	109.31	7.267e-06	71.771	0.00052204	0.00037579	9.8403e-05	1497.8	4.2726e-06	4.0019e-06	1079	630.23	4.9496e-06	3.7243e-06	449.48	192.52	278.53	106.14	5.1901e-06	69.405	-121.088	-60.282	-54.972	-134.768	1.412	4.399	-136.142	-131.483	-23.295	-8.140	-134.040	-131.158	-128.559	-125.066	-11.734	-127.852	-8191	255	
42661.285	1	1	0	0	0.2244	0.078246	0.10969	0.28901	0.12172	0.46395	0.11658	0.18852	0.26657	0.15978	0.31187	0.22088	0.36592	0.40043	0.036783	0.071946	-1.4021	-1.9646	-2.1521	-2.0938	-2.3063	-1.9875	-1.9667	-2.5312	-1.8125	-2.1688	-2.4146	-1.9438	-2.5208	-2.1042	-1.7563	-2.5438	154.659	1.784	108.420	191.285	-21.105	183.543	-23.825	114.585	-147.239	109.441	188.358	186.571	195.372	-138.877	-119.859	-54.206	0.00046363	0.0008887	0.00021927	1550	5.7362e-06	8.5594e-06	1112.5	651.21	6.3513e-06	6.9128e-06	464.49	195.85	284.99	108.53	7.5349e-06	70.896	0.00051202	0.00037149	9.0218e-05	1488	4.3397e-06	4.251e-06	1069.6	626.88	5.0503e-06	3.5008e-06	445.87	190.74	276.62	105.14	5.0648e-06	68.496	-119.373	-65.696	-50.599	-134.843	1.117	-2.820	-136.247	-131.699	-19.840	-5.630	-134.031	-131.116	-128.658	-124.951	-17.694	-127.761	-8191	255	
42661.383	1	1	0	0	0.16752	0.086624	0.07127	0.40566	0.11765	0.12022	0.34649	0.18399	0.074189	0.22769	0.10188	0.10928	0.16244	0.31247	0.14711	0.13121	-1.6583	-2.0042	-2.1229	-2	-2.2896	-2.2833	-2	-2.4104	-1.9583	-2.0812	-2.3792	-1.8813	-2.2667	-2.3417	-1.9458	-2.3708	-42.773	13.489	-22.592	185.880	-41.427	43.481	169.886	147.227	37.093	-85.090	203.655	127.248	177.441	157.883	36.119	-142.959	0.00047105	0.00084285	0.00021479	1548.2	5.9062e-06	8.7165e-06	1107	647.24	6.957e-06	8.7886e-06	464.14	195.41	283.85	107.71	6.9212e-06	70.089	0.00052997	0.00037063	9.3348e-05	1484.4	4.2536e-06	4.0289e-06	1066.5	624.21	5.0856e-06	3.8097e-06	444.65	189.96	275.83	104.49	4.9855e-06	68.029	-118.134	-63.180	-62.738	-134.736	2.723	8.824	-136.349	-131.458	-19.752	3.682	-133.876	-131.160	-128.682	-125.099	-20.846	-127.668	-8191	255	
42661.457	1	1	0	0	0.071101	0.26427	0.1981	0.37093	0.28766	0.072818	0.23061	0.24687	0.072192	0.15552	0.16886	0.32467	0.41334	0.34895	0.26492	0.087375	-1.675	-2.2292	-2.3479	-2.2604	-2.0771	-2.275	-1.9417	-2.4354	-2.0479	-2.0625	-2.1583	-2.0667	-2.4271	-2.2938	-1.8542	-2.5104	209.275	-93.095	-79.607	180.970	85.235	-124.188	157.398	171.555	-24.784	116.068	124.248	177.777	155.008	190.742	-12.416	-146.547	0.00047715	0.00078879	0.00023013	1546.6	6.7732e-06	7.6219e-06	1108.8	647.29	5.2789e-06	7.5743e-06	459.24	193.9	282.16	107.51	5.4889e-06	69.883	0.00050662	0.00035573	9.8349e-05	1481.4	4.2631e-06	3.9458e-06	1063.9	623.98	4.8282e-06	3.8021e-06	441.67	188.87	275.05	104.12	4.8956e-06	67.771	-118.724	-67.163	-55.801	-134.697	-4.961	2.142	-135.973	-131.497	-26.421	-7.528	-134.006	-131.114	-128.497	-125.146	-17.568	-127.807	-8191	255	
42661.574	1	1	0	0	0.18693	0.015077	0.38164	0.26624	0.14534	0.24147	0.045357	0.14005	0.13985	0.15703	0.54194	0.15548	0.30369	0.33095	0.39323	0.1729	-1.4771	-2.0104	-2.2562	-2.2708	-2.1604	-2.1813	-2.0375	-2.4354	-2.1021	-2.0792	-2.4188	-1.9333	-2.2354	-2.2979	-1.8813	-2.3063	185.812	-141.216	136.307	187.956	148.238	163.503	-36.840	180.532	41.808	-7.305	97.141	140.773	-145.424	202.827	38.997	125.691	0.00047378	0.00084202	0.00018229	1541.8	5.2243e-06	8.8621e-06	1109.1	646.58	6.262e-06	6.7255e-06	460.69	193.62	281.76	106.86	7.2985e-06	69.387	0.00050409	0.00035793	9.1208e-05	1480	4.1581e-06	3.879e-06	1062	623.42	4.8599e-06	3.5256e-06	441.79	188.47	274.03	103.58	5.2455e-06	67.091	-118.030	-59.913	-57.658	-134.721	5.709	3.844	-136.306	-131.502	-26.196	2.190	-134.176	-131.097	-128.573	-125.100	-15.736	-128.083	-8191	255	
42661.672	1	1	0	0	0.090679	0.22223	0.38405	0.12698	0.14837	0.15424	0.022832	0.12535	0.067774	0.1563	0.12363	0.27299	0.2397	0.18707	0.1098	0.29775	-1.7479	-1.9167	-2.2375	-2.2833	-2.0438	-2.1875	-1.9479	-2.4938	-2.1021	-1.9646	-2.3875	-1.9542	-2.2396	-2.4125	-1.8458	-2.1312	-68.538	101.390	-90.480	146.763	-130.920	-128.232	-131.922	49.851	14.562	167.059	192.717	204.629	-116.968	172.112	-19.169	147.379	0.00043833	0.00079659	0.00023206	1536.8	3.7663e-06	8.0534e-06	1089.6	640.3	6.0015e-06	8.801e-06	452.16	189.57	278.27	105.12	5.814e-06	68.261	0.00049345	0.00035277	0.00010134	1471.3	4.0909e-06	3.5199e-06	1048.2	619.27	4.646e-06	3.908e-06	434.71	185	270.86	101.93	5.0868e-06	65.976	-117.967	-60.337	-60.044	-134.717	6.593	-0.310	-136.310	-131.704	-11.931	-1.747	-134.050	-130.904	-128.784	-124.998	-11.020	-128.102	-8191	255	
42661.770	1	1	0	0	0.27681	0.19379	0.24579	0.18919	0.14544	0.099006	0.23281	0.47415	0.081699	0.23375	0.22004	0.20769	0.20303	0.1751	0.17427	0.2521	-1.6063	-1.8646	-2.1458	-1.9542	-1.9396	-2.1854	-2.0062	-2.2646	-2.1833	-1.8479	-2.3146	-2.0208	-1.9396	-2.325	-1.95	-2.2167	92.681	-104.971	-95.923	-122.748	32.570	82.498	-125.117	150.135	-71.438	-27.234	104.324	176.209	172.559	131.930	-103.728	-80.118	0.00048002	0.00085618	0.00022328	1529.3	6.103e-06	6.4943e-06	1083.5	641.43	6.0858e-06	7.5622e-06	451.02	188.46	278.06	104.86	6.8228e-06	68.353	0.00049372	0.00035545	9.0138e-05	1464.1	4.3397e-06	3.494e-06	1043.3	618.22	4.8681e-06	3.8939e-06	433.53	184	270.47	101.67	4.8057e-06	66.001	-121.711	-57.682	-63.576	-134.708	-5.257	7.654	-136.405	-131.819	-17.764	-2.977	-134.033	-131.134	-128.623	-125.155	-13.543	-127.919	-8191	255	
42661.863	1	1	0	0	0.076187	0.19063	0.21828	0.21783	0.014345	0.021856	0.17799	0.32848	0.26527	0.13555	0.17551	0.054649	0.25349	0.24661	0.027464	0.10422	-1.7292	-1.8312	-2.1063	-2.3229	-1.8583	-2.4229	-2.2229	-2.2542	-2.15	-1.6479	-2.3312	-2.3229	-2.0792	-2.5938	-2.0458	-2.0375	42.417	190.103	95.232	156.314	193.954	-55.943	168.535	121.462	201.808	-20.010	85.062	16.671	99.696	150.322	180.301	141.814	0.00045902	0.00067123	0.00023454	1526.7	5.6281e-06	7.9516e-06	1087.2	644.17	5.3068e-06	8.214e-06	452.37	191.8	279.29	105.86	7.0172e-06	68.932	0.00047391	0.00038334	9.4738e-05	1464.5	4.3888e-06	3.4757e-06	1046.5	620.05	4.5154e-06	3.8356e-06	435.19	186.05	272.02	102.64	5.0887e-06	66.889	-117.830	-59.366	-52.690	-134.688	6.101	2.287	-136.528	-131.568	-31.654	3.652	-133.964	-131.219	-128.717	-125.015	-8.375	-127.615	-8191	255	
42661.984	1	1	0	0	0.26887	0.12323	0.095031	0.278	0.20265	0.18038	0.21684	0.29802	0.049847	0.097993	0.082491	0.20751	0.17059	0.20055	0.18363	0.33163	-1.7563	-1.725	-2.0417	-2.4062	-1.9708	-2.3083	-2.0979	-2.175	-2.3271	-1.7958	-2.2521	-2.3042	-1.9542	-2.3854	-1.9604	-2.1958	37.337	74.818	-47.897	126.490	-127.791	-102.041	157.014	159.298	24.268	-71.583	81.982	198.880	192.788	204.568	-118.466	146.382	0.00047005	0.0009005	0.00023037	1537.7	5.6001e-06	8.8624e-06	1099.5	645.95	5.5869e-06	8.1244e-06	459.88	194.41	281.52	107.35	6.4654e-06	70.365	0.00048187	0.00040607	9.9499e-05	1472.6	4.2011e-06	3.3603e-06	1057.6	624.55	4.9696e-06	3.7513e-06	441.96	188.59	274.32	103.97	4.9998e-06	68.112	-118.497	-55.573	-57.132	-134.668	6.410	2.090	-136.195	-131.699	-22.100	1.775	-134.003	-130.999	-128.580	-124.929	-18.028	-127.913	-8191	255	
42662.059	1	1	0	0	0.12757	0.049279	0.099717	0.23155	0.022403	0.23133	0.1943	0.20964	0.066983	0.16745	0.38147	0.23937	0.237	0.024396	0.080948	0.091695	-1.8375	-1.75	-2.0458	-2.4792	-1.8292	-2.2708	-2.2354	-2.0438	-2.3083	-1.8854	-2.0875	-2.35	-1.8854	-2.3083	-1.8854	-1.9354	5.201	86.898	87.564	197.314	27.587	163.182	-108.962	181.482	116.029	125.975	174.375	74.370	202.001	188.178	-7.249	-10.394	0.0004703	0.00087645	0.00022443	1535	4.8213e-06	6.6823e-06	1102.2	645.86	6.0481e-06	7.6923e-06	458.3	193.62	282.21	106.87	6.8759e-06	69.873	0.00048179	0.00041849	9.4498e-05	1475.9	4.1787e-06	3.5263e-06	1057.9	623.84	4.7357e-06	3.5213e-06	439.56	187.77	273.67	103.63	4.9176e-06	67.389	-120.490	-61.573	-57.461	-134.664	1.068	8.543	-136.223	-131.528	-16.316	-1.872	-134.138	-130.980	-128.518	-124.913	-20.311	-127.657	-8191	255	
42662.176	1	1	0	0	0.16446	0.14338	0.19695	0.078059	0.28024	0.27388	0.16375	0.064457	0.25141	0.11433	0.015394	0.14683	0.21506	0.3202	0.3256	0.35982	-1.8208	-1.8979	-2.0687	-2.3417	-1.7771	-2.2792	-2.3042	-2.2313	-2.2396	-1.8312	-2.2792	-2.5396	-1.9792	-2.4833	-2.1958	-2.1437	177.443	-72.313	172.236	-111.130	27.850	-15.463	117.839	172.096	123.119	-22.130	23.526	-109.610	191.342	193.331	-95.253	155.368	0.00046571	0.0005616	0.00022457	1530.8	5.6004e-06	8.1289e-06	1096.2	641.08	5.7053e-06	7.8627e-06	456.11	191.44	280.38	106.22	5.7328e-06	69.381	0.00048851	0.00039528	9.6102e-05	1469.9	4.3509e-06	3.5641e-06	1052.5	620.08	4.6777e-06	3.9717e-06	438.07	186.64	272.64	102.98	4.7981e-06	67.155	-118.170	-62.863	-52.655	-134.686	-1.307	5.461	-136.092	-131.553	-20.463	-2.763	-133.998	-131.074	-128.577	-124.999	-9.952	-127.929	-8191	255	
42662.273	1	1	0	0	0.31503	0.068609	0.14175	0.20502	0.13857	0.30797	0.31587	0.13371	0.27571	0.22229	0.073671	0.2159	0.28847	0.18755	0.31542	0.11792	-1.9542	-2.0771	-1.9146	-2.4313	-2.025	-2.1625	-2.3521	-2.1708	-2.1583	-1.9937	-2.0479	-2.2854	-2.2833	-2.225	-2.2062	-1.925	-118.458	112.854	87.691	209.172	-99.551	-45.224	78.856	145.481	181.210	115.649	141.021	119.143	154.239	207.430	-81.352	92.996	0.00046452	0.00079672	0.00021431	1536	5.613e-06	7.4072e-06	1094.9	642.94	6.8472e-06	7.4613e-06	458.92	193.67	281.39	107.02	7.4074e-06	70.205	0.00047888	0.00039127	9.7814e-05	1473	4.2932e-06	3.5598e-06	1055.6	621.67	4.8264e-06	3.5915e-06	440.86	188.06	273.55	103.81	5.0218e-06	67.783	-117.155	-65.470	-57.300	-134.628	-5.845	-1.396	-136.312	-131.491	-25.936	-8.050	-133.937	-131.054	-128.552	-124.918	-18.719	-127.897	-8191	255	
42662.367	1	1	0	0	0.13152	0.1437	0.052814	0.19401	0.16447	0.059382	0.050487	0.088119	0.14549	0.17674	0.10724	0.099551	0.19624	0.2628	0.3183	0.042987	-1.8333	-1.8042	-1.7792	-2.4896	-1.9146	-1.9625	-2.4458	-1.9875	-2.0979	-2.1979	-1.95	-2.5312	-2.1104	-2.1583	-2.2458	-2.0604	22.255	-4.431	-147.081	-117.320	143.928	-79.353	187.983	94.901	161.120	0.622	-49.996	67.033	163.803	152.409	151.880	-48.215	0.00047455	0.00083892	0.00020375	1547.2	5.8977e-06	7.3541e-06	1108.4	647.56	5.9474e-06	6.9157e-06	463.58	194.92	283.11	107.98	6.2592e-06	71.28	0.00047596	0.00040827	9.9927e-05	1480	4.4396e-06	3.797e-06	1065.1	624.73	4.82e-06	3.6574e-06	445.52	189.96	275.35	104.67	4.9616e-06	68.862	-117.933	-68.934	-54.707	-134.654	1.375	5.722	-136.484	-131.682	-26.392	-8.807	-133.992	-130.808	-128.648	-124.963	-9.385	-127.975	-8191	255	
42662.465	1	1	0	0	0.046828	0.24076	0.12326	0.35716	0.056456	0.10399	0.22761	0.20837	0.019065	0.02778	0.40092	0.2265	0.4877	0.36762	0.33359	0.24534	-1.7104	-1.9813	-2.0042	-2.4396	-1.8917	-1.8458	-2.3042	-2.2229	-2.2396	-2.0854	-1.9688	-2.35	-2.1229	-2.1125	-2.4729	-2.1104	119.964	-141.990	35.884	198.145	-16.048	-108.027	164.341	184.094	194.569	-8.387	169.351	106.048	148.940	194.120	37.715	14.694	0.00048341	0.00080698	0.00018106	1556.4	5.325e-06	6.9601e-06	1116.1	649.5	6.3312e-06	7.5634e-06	463.62	196.96	283.62	108.67	5.7409e-06	71.321	0.00049143	0.00039203	9.7868e-05	1487.2	4.1873e-06	3.714e-06	1071.2	626.9	4.8001e-06	3.6077e-06	446.61	191.03	276.07	105	4.8765e-06	68.827	-119.106	-68.475	-46.243	-134.705	-4.909	-0.811	-136.203	-131.671	-11.931	-6.155	-133.762	-131.066	-128.586	-125.007	-7.574	-127.688	-8191	255	
42662.586	1	1	0	0	0.055034	0.22509	0.076897	0.082531	0.1849	0.15261	0.16125	0.089205	0.17478	0.10992	0.26225	0.077166	0.32045	0.18027	0.21165	0.073845	-1.7729	-2.1458	-1.8687	-2.5708	-2.0563	-1.8854	-2.275	-2.0646	-2.0792	-2.1583	-1.9354	-2.4167	-2.35	-2.275	-2.3021	-2.1792	58.635	46.594	2.169	121.108	-126.796	171.995	126.322	147.566	34.992	94.217	172.263	84.199	184.608	-132.613	79.828	85.411	0.00047899	0.00082746	0.0002292	1545.7	5.3304e-06	6.9904e-06	1110.2	648.16	5.6003e-06	7.5251e-06	460.53	195.52	282.4	107.57	6.5361e-06	70.216	0.00047775	0.00038257	0.0001102	1483.2	4.1675e-06	3.5253e-06	1064.7	624.05	4.7121e-06	3.6325e-06	443.71	189.59	274.9	104.21	4.8315e-06	68.221	-118.386	-68.534	-57.133	-134.645	-1.620	7.564	-136.491	-131.487	-15.597	-9.559	-133.986	-131.140	-128.509	-124.804	-14.668	-128.139	-8191	255	
42662.656	1	1	0	0	0.24024	0.095293	0.10012	0.24307	0.34632	0.07981	0.44999	0.12137	0.14955	0.17059	0.27575	0.1478	0.22244	0.28399	0.11801	0.29967	-1.8146	-2.0687	-1.9417	-2.4333	-1.9562	-1.8958	-2.4188	-1.8937	-2.1188	-2.1854	-2.1354	-2.3479	-2.1729	-2.0521	-2.3292	-1.9771	-141.607	62.741	141.899	193.885	125.692	33.066	148.084	173.482	67.860	-109.504	-104.645	176.566	193.289	-147.428	140.229	112.157	0.00047052	0.00087537	0.00023574	1545.1	5.0364e-06	8.656e-06	1102	644.35	6.576e-06	8.5112e-06	461.25	194.74	281.48	107.35	6.5437e-06	70.79	0.00048136	0.00038191	0.00011239	1480.3	4.0737e-06	3.6439e-06	1060.9	621.66	4.8871e-06	3.5494e-06	442.58	189.35	274.43	104.12	4.6977e-06	68.261	-119.573	-57.908	-53.222	-134.653	-0.070	7.479	-136.377	-131.539	-27.528	-4.378	-133.931	-131.167	-128.551	-124.978	-19.494	-128.026	-8191	255	
42662.754	1	1	0	0	0.029997	0.12302	0.24208	0.14298	0.04307	0.16573	0.095302	0.23986	0.15933	0.10495	0.091429	0.083725	0.21269	0.18918	0.374	0.18216	-1.6562	-2.25	-1.8042	-2.4979	-2.0917	-1.9521	-2.4792	-2.225	-2.0375	-2.3438	-2.1562	-2.15	-2.375	-2.0833	-2.4271	-2.1458	-123.472	-34.245	66.629	124.385	101.609	81.829	190.065	134.634	125.770	-59.694	174.706	-128.215	-139.911	174.425	179.209	-140.966	0.00045938	0.0008995	0.00024656	1547.8	5.5985e-06	9.2657e-06	1115.5	649.54	6.1063e-06	7.3795e-06	466.42	196.84	284.49	108.42	6.4783e-06	71.437	0.00049061	0.00036242	0.00011483	1484.1	4.1081e-06	3.9092e-06	1068.4	626.25	4.9288e-06	3.6498e-06	447.48	191.16	276.67	105.19	4.7072e-06	69.16	-118.242	-62.829	-59.492	-134.779	4.455	4.925	-136.397	-131.883	-16.484	-0.983	-133.867	-131.074	-128.630	-124.998	-35.038	-128.028	-8191	255	
42662.848	1	1	0	0	0.22039	0.24189	0.11669	0.32822	0.15138	0.21154	0.28321	0.40857	0.048112	0.084535	0.085599	0.063912	0.29214	0.055107	0.09078	0.2854	-1.5521	-2.3854	-2.0583	-2.3646	-2.3125	-1.9479	-2.5083	-2.425	-2.0833	-2.3083	-1.9271	-2.2271	-2.6125	-2.1208	-2.3667	-2.4021	-25.577	-3.037	-91.492	166.919	181.524	-80.850	-148.524	167.949	-56.098	89.037	146.000	137.438	166.803	-120.579	155.457	-146.513	0.00048424	0.00072409	0.00019176	1551	7.3424e-06	8.1996e-06	1118.4	651.71	6.4772e-06	8.1109e-06	467.6	198.48	285.78	108.94	7.7301e-06	71.784	0.00049535	0.00033701	0.00011287	1489.8	4.3724e-06	3.797e-06	1075	628.28	5.1817e-06	3.5796e-06	450.13	192.58	277.83	105.68	4.9243e-06	69.616	-119.542	-70.646	-58.663	-134.701	-3.322	-0.654	-136.397	-131.535	-20.506	-5.881	-133.994	-130.839	-128.525	-124.946	-18.352	-127.999	-8191	255	
42662.969	1	1	0	0	0.29606	0.10827	0.10364	0.3297	0.039265	0.12934	0.14751	0.40576	0.090258	0.049378	0.03006	0.47118	0.25006	0.3186	0.093387	0.23057	-1.3667	-2.5521	-1.8292	-2.1333	-2.4146	-2.0458	-2.6437	-2.3917	-1.9146	-2.3458	-1.9417	-2.2812	-2.5104	-2.15	-2.2104	-2.3479	54.513	155.592	-37.237	193.792	104.044	106.684	133.407	158.352	92.840	201.725	83.015	208.600	-108.210	163.840	-120.851	139.535	0.00050356	0.00089626	0.00021212	1548	5.1696e-06	7.249e-06	1114.6	647.2	5.3955e-06	7.8088e-06	463.67	195.98	283.62	108.03	6.8325e-06	70.655	0.00050918	0.00038649	0.00010766	1486.3	4.3165e-06	3.7895e-06	1071.3	625.73	5.0195e-06	3.6822e-06	444.82	190.36	275.72	104.81	4.9979e-06	68.485	-118.360	-66.323	-58.227	-134.660	7.455	1.047	-136.349	-131.719	-27.108	-3.677	-133.905	-130.982	-128.668	-124.875	-18.326	-128.085	-8191	255	
42663.066	1	1	0	0	0.088183	0.20601	0.050084	0.3442	0.28082	0.11191	0.25899	0.22801	0.13167	0.21109	0.069621	0.36049	0.10971	0.1227	0.20503	0.33925	-1.6938	-2.1937	-2.0438	-2.1896	-2.2458	-1.725	-2.2062	-2.1854	-1.9604	-2.3271	-2.2708	-2.1354	-2.55	-2.1688	-2.3021	-2.3042	158.356	-77.125	-84.157	193.094	105.625	12.045	99.018	192.122	204.673	114.622	-144.236	146.216	179.455	202.694	-73.143	69.915	0.00047629	0.00085624	0.00021149	1542.8	5.73e-06	8.0823e-06	1108.4	644.49	6.5042e-06	9.5769e-06	462.19	195.92	282.33	108.01	6.6641e-06	70.936	0.00049384	0.00035525	0.00010811	1482.2	4.2321e-06	3.7711e-06	1066.9	623.1	5.014e-06	3.7351e-06	444.32	190.38	274.95	104.63	4.9577e-06	68.522	-117.948	-60.145	-59.825	-134.764	-2.020	4.134	-136.173	-131.530	-21.437	-1.012	-134.128	-131.040	-128.582	-124.961	-20.452	-127.805	-8191	255	
42663.160	1	1	0	0	0.092008	0.14597	0.095007	0.44991	0.052689	0.26322	0.15815	0.24499	0.092167	0.11571	0.25167	0.19323	0.23935	0.28895	0.26155	0.090619	-1.3875	-2.325	-2.0646	-2.0438	-2.4375	-2.0792	-2.3417	-2.3896	-1.9708	-2.4917	-2.0625	-1.8937	-2.3104	-2.1625	-2.05	-2.4	-60.106	87.669	-2.306	-97.474	-60.611	-66.717	-147.839	116.803	152.722	-34.232	171.773	-65.901	-140.607	191.689	131.578	148.438	0.00046862	0.00083052	0.00022673	1546.6	6.2398e-06	7.9619e-06	1111.6	648.66	6.1226e-06	7.2314e-06	468.52	198.05	286.1	108.44	6.4986e-06	71.739	0.00049667	0.00036548	0.00011362	1483.3	4.1219e-06	3.8682e-06	1070	625.7	5.4582e-06	3.4651e-06	448.93	191.74	277.25	105.3	4.842e-06	69.307	-120.935	-58.179	-55.129	-134.784	0.838	-1.395	-136.301	-131.547	-18.340	-1.887	-133.942	-131.046	-128.535	-125.238	-22.800	-127.646	-8191	255	
42663.258	1	1	0	0	0.1741	0.11832	0.2214	0.32349	0.035031	0.15776	0.3347	0.34248	0.3943	0.19286	0.22353	0.28587	0.19274	0.38715	0.16304	0.22346	-1.6229	-2.1646	-2.1021	-1.9917	-2.4333	-1.9312	-2.2729	-2.4646	-2.0417	-2.1875	-2.2958	-1.9667	-2.6146	-2.3292	-2.0979	-2.5208	17.901	-54.812	-142.475	169.804	202.126	-35.855	164.667	146.080	75.900	72.553	-135.363	173.977	-121.685	143.766	118.927	120.229	0.00048762	0.00072492	0.00025423	1553.5	5.6917e-06	7.6811e-06	1121.4	654.08	6.6277e-06	1.0135e-05	470.51	199.47	287	110.21	6.4335e-06	72.466	0.00050747	0.00036223	0.00011004	1490.5	4.2442e-06	3.6719e-06	1076.1	630.14	5.6459e-06	3.7773e-06	452.04	193.89	279.3	106.64	4.9855e-06	70.266	-118.961	-67.979	-63.961	-134.672	8.416	0.962	-136.167	-131.720	-12.744	-0.102	-133.891	-130.767	-128.513	-125.113	-18.334	-127.785	-8191	255	
42663.355	1	1	0	0	0.14626	0.11193	0.37004	0.1639	0.17643	0.12774	0.14699	0.4083	0.15902	0.26231	0.022339	0.16001	0.38678	0.38581	0.23917	0.081612	-1.3979	-2.3583	-2.2542	-2.1729	-2.1604	-1.9333	-2.3292	-2.4896	-1.9583	-2.0854	-2.2375	-1.9521	-2.4062	-2.4396	-2.0438	-2.4979	-108.646	-31.134	119.777	-145.019	-59.744	183.060	-22.827	145.848	-124.356	180.401	-128.308	201.665	188.598	194.864	143.372	125.256	0.00047256	0.00083098	0.00027293	1557.2	4.5487e-06	8.4351e-06	1122.7	651.1	6.5831e-06	7.676e-06	468.9	198.6	286.98	109.65	7.109e-06	72.146	0.00050203	0.00035793	0.00011734	1495.6	4.1305e-06	3.5468e-06	1077.1	629.85	5.1781e-06	3.6487e-06	450.33	193.19	278.62	106.17	5.1126e-06	69.69	-119.639	-58.313	-49.130	-134.491	-9.014	-2.048	-136.344	-131.556	-16.096	13.860	-134.153	-130.886	-128.419	-124.942	-8.405	-127.760	-8191	255	
42663.449	1	1	0	0	0.11292	0.10971	0.022749	0.11021	0.060625	0.15244	0.22595	0.35304	0.078967	0.18551	0.059022	0.35173	0.26337	0.47544	0.15062	0.10548	-1.3542	-2.0625	-2.1562	-2.1271	-2.1813	-2.1396	-2.0104	-2.6229	-2.0771	-2.125	-2.2396	-1.9292	-2.5521	-2.2042	-2.0458	-2.3146	-62.291	168.978	126.560	-144.130	96.691	-13.442	175.049	142.681	3.730	197.456	112.005	160.869	182.700	181.431	24.174	111.558	0.00049832	0.0008572	0.00023685	1547.7	5.8352e-06	7.0999e-06	1111.1	650.96	6.515e-06	9.0524e-06	464.02	196.85	284.91	108.99	5.5861e-06	71.307	0.00051252	0.00035564	9.9392e-05	1486.7	4.3673e-06	3.7442e-06	1067.8	627.29	5.3059e-06	3.9501e-06	447.05	191.6	277	105.6	5.017e-06	69.102	-119.390	-70.375	-58.059	-134.667	6.107	10.029	-136.027	-131.433	-15.085	0.323	-134.299	-131.051	-128.465	-124.987	-22.930	-127.841	-8191	255	
42663.547	1	1	0	0	0.36789	0.14715	0.17882	0.29289	0.19984	0.14619	0.17197	0.26003	0.21186	0.22174	0.29043	0.10562	0.21187	0.28747	0.11045	0.047697	-1.5771	-1.8438	-2.2104	-2.0979	-2.1354	-2.2125	-2.0083	-2.5229	-2.0417	-1.8354	-2.5354	-1.9208	-2.3271	-2.3563	-1.7437	-2.275	-139.163	-39.995	198.181	153.997	168.083	47.576	92.481	182.773	73.216	145.299	146.459	-45.595	189.215	194.732	103.276	-42.656	0.0004684	0.00084903	0.00021692	1541.9	6.2802e-06	8.0011e-06	1112.8	652.6	6.9207e-06	7.7995e-06	465.02	197.7	285.09	108.71	6.8871e-06	71.494	0.00049873	0.00037656	9.2197e-05	1483	4.4206e-06	3.4649e-06	1068.7	627.16	5.3086e-06	3.6336e-06	447.61	191.87	277.32	105.56	5.2608e-06	69.45	-120.593	-64.002	-60.294	-134.716	-5.297	8.329	-136.345	-131.663	-19.720	-14.346	-134.034	-131.220	-128.596	-124.958	-13.845	-127.699	-8191	255	
42663.664	1	1	0	0	0.081412	0.16731	0.25116	0.22643	0.10716	0.20594	0.082771	0.40216	0.31036	0.14391	0.29786	0.23982	0.45719	0.18097	0.15323	0.18152	-1.5396	-1.9875	-2.0896	-2.1104	-2.0375	-2.1792	-1.8104	-2.3021	-1.9521	-1.7292	-2.3604	-2.2167	-2.1625	-2.4042	-1.7646	-2.3417	15.463	61.786	160.732	188.015	183.615	4.443	-94.877	134.297	34.788	-71.817	171.445	170.682	191.540	128.650	91.276	121.185	0.00048497	0.00091813	0.00022593	1552.6	5.5934e-06	7.8599e-06	1116.8	651.24	6.0634e-06	9.148e-06	470.19	198.32	286.6	109.59	6.3744e-06	72.399	0.00049694	0.00038745	0.00010236	1490.5	4.1753e-06	3.6784e-06	1073.6	629.08	5.1627e-06	4.03e-06	451.32	193.11	278.11	106.14	5.4004e-06	70.043	-118.946	-70.062	-61.215	-134.562	-2.540	1.087	-136.280	-131.654	-20.022	-4.232	-133.809	-131.294	-128.672	-124.881	-18.604	-127.691	-8191	255	
42663.762	1	1	0	0	0.097516	0.258	0.1273	0.14653	0.13662	0.30379	0.1402	0.31406	0.15476	0.12299	0.27648	0.24049	0.17938	0.38969	0.022561	0.298	-1.5875	-1.7667	-2.1667	-2.1646	-1.9417	-2.4354	-2.0854	-2.4313	-2.1688	-1.9229	-2.3167	-2.1854	-2.3438	-2.325	-1.8646	-2.2333	-123.493	63.866	-89.987	208.783	150.042	56.884	169.639	163.503	-24.796	-131.951	196.543	180.532	-53.201	171.717	112.702	135.264	0.00050701	0.00090687	0.00021874	1561	5.2522e-06	7.9737e-06	1127.7	655.31	7.1894e-06	8.7082e-06	471.05	199.83	286.19	109.67	7.5649e-06	72.363	0.00049376	0.00038	0.00010359	1496.5	4.3492e-06	3.6353e-06	1080.8	631.21	5.3621e-06	3.9415e-06	452.06	193.62	278.73	106.39	5.5936e-06	69.891	-121.555	-77.377	-60.594	-134.520	-4.047	-0.404	-136.146	-131.571	-17.272	-3.910	-134.061	-131.090	-128.652	-125.012	-12.207	-127.976	-8191	255	
42663.855	1	1	0	0	0.12234	0.18585	0.27122	0.061129	0.18602	0.14858	0.30708	0.42485	0.15331	0.20281	0.39588	0.21822	0.056251	0.25137	0.0061087	0.23066	-1.6313	-1.7896	-2.3771	-2.075	-2.0125	-2.2896	-1.9646	-2.3729	-2.2208	-2.0167	-2.4521	-2.0354	-2.025	-2.4083	-1.9125	-2.175	-125.437	-80.082	119.376	82.665	35.546	-13.441	99.499	199.733	13.776	188.228	130.672	192.037	181.641	205.456	-31.469	161.319	0.00048286	0.00081902	0.00021213	1554.8	4.7968e-06	8.137e-06	1119.7	649.89	5.8952e-06	7.7048e-06	467.69	197.22	285.43	108.78	7.2495e-06	71.466	0.00049912	0.00037684	9.9045e-05	1491.5	4.2941e-06	3.6482e-06	1072.4	627.58	5.1944e-06	3.9976e-06	448.65	191.7	277.24	105.45	5.3947e-06	69.232	-118.594	-66.222	-56.026	-134.838	-5.168	6.069	-136.238	-131.617	-16.493	-3.361	-134.045	-131.269	-128.720	-124.804	-9.504	-127.828	-8191	255	
42663.953	1	1	0	0	0.33	0.2113	0.073323	0.3651	0.10793	0.16705	0.097194	0.32115	0.1823	0.19387	0.48566	0.10036	0.60685	0.49781	0.14721	0.33202	-1.6708	-1.7437	-2.1437	-2.0375	-1.8583	-2.4125	-2.0375	-2.2062	-2.2917	-1.925	-2.4	-2.0187	-2.1354	-2.5104	-2.1167	-2.1521	207.236	-142.765	11.372	194.044	61.634	-128.617	-35.645	142.907	-57.460	-71.685	128.472	-10.319	176.503	208.950	-83.215	127.707	0.00048245	0.0008281	0.00022285	1550.7	6.305e-06	7.4806e-06	1115.4	651.26	6.6833e-06	7.6894e-06	465.97	196.54	285.53	108.54	6.3269e-06	71.706	0.00049185	0.00036825	9.7895e-05	1486.4	4.4181e-06	3.5727e-06	1069.2	626.61	4.8282e-06	4.2504e-06	446.98	191.52	277.08	105.26	5.4932e-06	69.255	-119.286	-59.476	-55.325	-134.802	2.279	9.636	-136.218	-131.402	-17.736	-6.528	-133.827	-131.200	-128.646	-124.973	-16.961	-127.889	-8191	255	
42664.051	1	1	0	0	0.16162	0.30046	0.02834	0.14402	0.25928	0.10188	0.048015	0.13218	0.047179	0.17021	0.31952	0.10557	0.33875	0.44665	0.17064	0.1759	-1.6479	-1.8042	-2.0146	-2.2375	-2.0417	-2.1625	-2.1375	-2.2521	-2.1792	-1.7833	-2.3271	-2.0479	-1.8104	-2.4083	-1.9917	-2.1042	172.522	-141.536	9.269	28.301	-15.856	19.422	-107.719	130.339	63.580	-79.649	141.850	164.443	-125.561	169.958	135.314	127.868	0.00049375	0.00078532	0.00023568	1552.4	6.0192e-06	8.7299e-06	1113.9	650.8	5.8743e-06	7.3965e-06	470.02	199.02	286.2	109.28	7.0266e-06	72.777	0.00049248	0.00038076	9.9847e-05	1487.5	4.3337e-06	3.6698e-06	1073.2	628.19	4.8871e-06	4.2558e-06	451.22	193.21	278.4	106.04	5.4798e-06	70.159	-118.725	-60.458	-60.293	-134.609	-3.769	-1.977	-136.378	-131.541	-19.060	-0.897	-133.825	-131.016	-128.605	-124.987	-16.058	-127.949	-8191	255	
42664.145	1	1	0	0	0.1674	0.12864	0.22036	0.27628	0.19925	0.048567	0.24064	0.14873	0.034094	0.067392	0.18453	0.129	0.39118	0.42798	0.22645	0.27687	-1.8604	-1.7521	-2.0292	-2.0479	-1.7479	-2.2917	-1.8521	-2.0479	-2.1771	-1.9604	-2.1375	-2.1292	-1.9229	-2.3625	-1.8896	-2.0208	155.146	-145.656	43.476	-117.564	-82.166	205.046	203.824	171.043	16.817	-22.136	13.500	-40.728	160.867	208.519	17.167	69.583	0.00049159	0.00081103	0.00026323	1561.7	5.5584e-06	7.3734e-06	1126.5	654.13	5.5831e-06	8.3149e-06	471.62	200.86	288.27	109.96	6.2748e-06	72.818	0.00049768	0.00037598	0.00010362	1495.2	4.505e-06	3.577e-06	1080.2	632.02	4.9152e-06	4.245e-06	453.92	194.63	279.73	106.81	5.7016e-06	70.537	-119.258	-70.085	-60.718	-134.756	11.154	-9.378	-136.263	-131.505	-16.275	-2.938	-134.161	-130.798	-128.387	-125.109	-29.930	-127.888	-8191	255	
42664.266	1	1	0	0	0.053724	0.19585	0.19596	0.45019	0.1741	0.19383	0.14059	0.032108	0.28124	0.21086	0.17967	0.19311	0.14941	0.29839	0.25868	0.30662	-1.8042	-1.9125	-1.9229	-2.2875	-1.7833	-2.2708	-2.0958	-1.9646	-2.2125	-1.8625	-2.0187	-2.1625	-1.6333	-2.2938	-2.0625	-1.8042	-95.444	183.650	147.644	205.396	189.056	-129.285	-107.579	-148.400	9.672	37.447	94.066	179.111	109.269	168.260	62.625	105.629	0.00050524	0.00074403	0.00023406	1562.5	7.2073e-06	7.8873e-06	1120.1	651.76	6.1259e-06	8.069e-06	468.17	198.14	284.67	109.08	7.6339e-06	71.609	0.00050868	0.00035946	0.00010252	1495.8	4.8072e-06	3.9189e-06	1076.7	629.47	4.7774e-06	4.3865e-06	449	192.22	277.45	105.77	5.5037e-06	69.319	-118.738	-52.068	-57.574	-134.531	2.222	3.125	-136.319	-131.576	-22.459	-1.064	-134.047	-130.885	-128.456	-124.983	-25.506	-127.717	-8191	255	
42664.359	1	1	0	0	0.24495	0.12631	0.17648	0.19891	0.075584	0.18724	0.11916	0.1962	0.070257	0.1312	0.04175	0.1991	0.14352	0.20551	0.059883	0.1085	-1.9042	-1.9417	-2.0479	-2.3792	-1.9062	-2.0833	-2.1125	-2.0583	-2.3417	-2.0396	-1.9479	-2.4354	-2.0167	-2.4229	-2.2812	-2.0312	-48.997	-101.763	-119.167	163.900	-41.594	47.556	-144.197	-141.020	-18.251	78.420	162.362	157.741	-52.949	-148.736	203.384	-128.039	0.0004749	0.00083267	0.00021125	1551.9	5.727e-06	9.3064e-06	1115.9	648.72	5.2791e-06	8.1669e-06	465.15	196.93	282.79	108.8	7.0131e-06	71.103	0.00050277	0.00037274	9.7574e-05	1485.2	4.7073e-06	3.81e-06	1069.4	625.4	4.8273e-06	4.1499e-06	446.92	191.25	275.85	105.1	5.0017e-06	68.812	-120.721	-65.920	-47.079	-134.576	-5.639	5.221	-136.336	-131.652	-11.223	3.891	-133.810	-130.925	-128.382	-125.071	-18.966	-127.739	-8191	255	
42664.457	1	1	0	0	0.25202	0.059712	0.13103	0.50177	0.085076	0.16619	0.37114	0.27945	0.27145	0.085922	0.075128	0.21873	0.48656	0.28519	0.12667	0.18444	-1.9542	-2.0687	-1.8438	-2.5396	-1.7354	-2.2292	-2.2167	-2.05	-2.2542	-2.0583	-1.9188	-2.3896	-1.9667	-2.1562	-2.075	-1.9062	111.282	-83.428	157.057	141.606	-126.183	121.983	96.984	168.559	131.744	79.993	170.325	125.304	162.265	171.362	40.422	33.644	0.00044572	0.00085392	0.00025007	1551.7	5.8436e-06	8.4232e-06	1110.9	647.34	5.6538e-06	8.2655e-06	466.01	197.08	283.19	108.14	6.9502e-06	71.506	0.00048276	0.00036404	0.00010367	1484.3	4.7616e-06	3.7711e-06	1067.4	624.17	4.7022e-06	4.2212e-06	446.33	191.08	275.96	104.89	4.9702e-06	69.155	-119.199	-63.783	-52.145	-134.650	-0.340	0.345	-136.175	-131.593	-17.297	-11.366	-133.805	-131.119	-128.721	-125.025	-22.025	-127.967	-8191	255	
42664.555	1	1	0	0	0.24776	0.13931	0.11563	0.17938	0.43501	0.26652	0.31526	0.14147	0.076699	0.092765	0.30492	0.19899	0.12243	0.20489	0.20143	0.291	-1.6938	-1.8854	-1.9104	-2.2229	-1.7021	-1.9458	-2.4188	-2.1417	-2.1688	-2.1083	-1.9208	-2.4229	-2.3604	-2.1833	-2.3229	-1.7938	-100.765	97.790	-22.235	151.786	-121.350	154.216	136.371	-128.744	53.035	-71.410	133.545	85.654	61.858	202.601	-122.195	73.850	0.00047625	0.00093285	0.00018057	1554.2	5.0381e-06	7.3537e-06	1116.3	651.9	6.0231e-06	8.3878e-06	469.82	199.27	286.82	109.48	6.2768e-06	72.313	0.00048774	0.00037178	0.00010319	1489.2	4.7409e-06	3.6708e-06	1074.5	628.83	5.0738e-06	4.0884e-06	451.66	193.24	278.77	106.23	5.0897e-06	69.955	-119.264	-59.074	-57.650	-134.685	4.975	2.868	-136.292	-131.559	-23.076	-13.678	-133.957	-130.938	-128.476	-125.169	-20.217	-127.782	-8191	255	
42664.629	1	1	0	0	0.084814	0.070167	0.16014	0.2499	0.099044	0.2623	0.21463	0.15992	0.12361	0.21279	0.15727	0.33455	0.4491	0.18828	0.26735	0.13377	-1.7646	-1.9688	-1.7437	-2.4354	-1.9208	-1.925	-2.3583	-2.0583	-2.3646	-2.2125	-2.0271	-2.2521	-2.1917	-2.2958	-2.3937	-1.9229	-43.330	-42.661	195.532	167.288	54.771	-114.257	143.388	150.256	141.621	78.221	-69.960	208.469	195.211	130.824	144.417	26.000	0.00049771	0.0008447	0.00023432	1560.2	4.8778e-06	8.7603e-06	1122.8	655.4	6.3091e-06	7.5747e-06	471.39	198.41	286.01	109.34	7.2193e-06	71.713	0.00051217	0.00035678	0.00010798	1494.3	4.4534e-06	4.1874e-06	1078.1	630.82	4.9923e-06	3.8097e-06	451.77	192.95	278.36	105.89	4.865e-06	69.424	-118.499	-65.770	-49.348	-134.743	-2.368	3.642	-136.335	-131.646	-21.194	7.193	-133.916	-131.060	-128.506	-124.871	-22.592	-127.734	-8191	255	
42664.746	1	1	0	0	0.18836	0.2279	0.1163	0.25152	0.16395	0.20824	0.11815	0.21813	0.23481	0.2371	0.19559	0.20871	0.28709	0.27991	0.13403	0.070328	-1.6667	-2.0521	-1.9396	-2.4958	-2.1437	-1.9979	-2.425	-2.1312	-2.0687	-2.0792	-2.1083	-2.3042	-2.1729	-2.1542	-2.325	-2.0625	-138.555	-37.933	-39.315	134.885	-78.307	-57.016	148.867	121.286	101.962	108.804	161.277	109.584	175.990	167.833	200.842	-5.501	0.00050887	0.00087417	0.00021895	1554	5.6503e-06	8.7645e-06	1112	650.5	6.4784e-06	7.5724e-06	464.15	196.9	285.23	108.8	6.8768e-06	71.345	0.00050153	0.0003608	0.00010597	1488.5	4.7745e-06	4.0008e-06	1069.9	626.41	5.0512e-06	3.5278e-06	446.47	191.2	277.1	105.44	4.822e-06	68.952	-118.752	-68.453	-56.472	-134.655	-4.476	0.150	-136.235	-131.800	-13.933	-6.204	-134.008	-130.939	-128.605	-124.927	-14.988	-127.841	-8191	255	
42664.844	1	1	0	0	0.21151	0.27188	0.15162	0.52095	0.039777	0.24194	0.063092	0.41542	0.1932	0.27557	0.32346	0.049701	0.20522	0.17764	0.095985	0.10575	-1.6625	-2.2083	-1.8917	-2.4958	-2.0854	-2.0812	-2.4917	-2.2542	-2.1188	-2.2208	-1.9771	-2.4583	-2.3375	-2.1792	-2.2062	-2.1292	-125.245	147.069	85.771	144.471	-68.480	-25.269	141.821	170.850	-140.491	-36.477	92.937	-143.530	-143.194	196.778	-24.180	158.273	0.00044981	0.00082865	0.00022469	1551.8	6.6528e-06	7.1592e-06	1112.8	649.38	6.0207e-06	7.9772e-06	464.8	197.56	285.75	108.93	6.2682e-06	71.531	0.00048055	0.00036127	0.00010587	1487.4	4.6927e-06	3.7377e-06	1068.8	625.51	5.0476e-06	3.6444e-06	447.51	191.87	277.57	105.59	4.8736e-06	69.294	-118.869	-66.802	-53.185	-134.615	-4.407	6.253	-136.486	-131.588	-22.086	-5.623	-133.692	-131.074	-128.620	-125.054	-20.999	-127.759	-8191	255	
42664.938	1	1	0	0	0.12688	0.1353	0.088805	0.16097	0.17143	0.1097	0.070724	0.44444	0.14708	0.063769	0.02	0.32833	0.28328	0.036823	0.063023	0.13769	-1.7125	-2.2292	-1.8958	-2.2812	-2.4354	-1.9896	-2.2812	-2.1542	-1.8083	-2.3354	-2.1604	-2.4125	-2.525	-2.0146	-2.1937	-2.2875	195.379	89.686	13.072	166.052	21.288	78.243	208.111	146.112	-57.882	106.574	97.006	48.291	191.252	93.761	38.618	90.480	0.00047901	0.00075954	0.00021178	1555.5	6.4635e-06	8.6637e-06	1122.6	653.5	5.4982e-06	8.7518e-06	473.9	200.08	288.66	110.13	7.3027e-06	72.704	0.00051551	0.00035535	0.00010418	1491.1	4.4938e-06	4.2532e-06	1077.3	630.52	5.2053e-06	3.5904e-06	453.58	194.11	280.35	106.71	5.1566e-06	70.342	-119.013	-62.709	-62.602	-134.686	-3.001	8.224	-136.365	-131.628	-13.250	-6.377	-133.814	-130.728	-128.655	-125.264	-18.807	-127.844	-8191	255	
42665.059	1	1	0	0	0.23791	0.24119	0.30092	0.25648	0.14155	0.13612	0.41036	0.41979	0.17024	0.10154	0.31124	0.13551	0.25021	0.13628	0.13435	0.28731	-1.5104	-2.1708	-1.9354	-2.3875	-2.1417	-2.1021	-2.5146	-2.2271	-1.9229	-2.3021	-1.9813	-2.1542	-2.4417	-2.0187	-2.1833	-2.4021	41.286	149.315	-13.808	177.371	144.197	-74.309	166.890	202.601	201.991	-22.968	110.251	121.190	183.007	-145.450	135.955	166.234	0.0004945	0.00082418	0.00021605	1566.9	6.0152e-06	8.1825e-06	1126.5	657.67	6.4145e-06	7.905e-06	475.16	201.93	289.96	111.11	6.8624e-06	73.144	0.00050569	0.00034437	9.9954e-05	1500	4.214e-06	4.2499e-06	1082.9	633.86	5.1962e-06	3.7092e-06	455.93	196.05	281.5	107.67	5.2484e-06	70.729	-119.907	-63.825	-55.966	-134.762	-12.613	3.514	-136.121	-131.640	-22.428	-7.476	-133.868	-130.974	-128.601	-124.832	-17.205	-127.852	-8191	255	
42665.152	1	1	0	0	0.51559	0.17689	0.32424	0.16966	0.17906	0.24498	0.26203	0.19333	0.2415	0.097425	0.079883	0.11135	0.45725	0.38514	0.10841	0.17727	-1.4229	-2.1021	-1.9771	-2.1229	-2.1604	-1.6708	-2.25	-2.3208	-1.7458	-2.4292	-2.2438	-2.2021	-2.4708	-2.1396	-2.1125	-2.2604	185.816	108.330	47.168	-47.328	201.858	152.229	166.863	180.280	-83.391	-29.694	147.289	-119.588	-116.213	201.361	206.794	133.371	0.00051048	0.00085323	0.00018839	1557.9	5.0376e-06	7.8903e-06	1120.9	654.1	6.5084e-06	6.8475e-06	471.52	198.75	287.47	109.85	6.8612e-06	72.07	0.00052705	0.0003693	0.00010274	1494.6	4.2889e-06	4.3071e-06	1076.5	630.71	5.1092e-06	3.6606e-06	451.77	193.4	279.21	106.45	4.9587e-06	69.663	-120.438	-66.350	-65.216	-134.693	6.800	7.198	-136.440	-131.413	-13.022	-0.504	-133.783	-131.296	-128.686	-125.076	-16.488	-127.973	-8191	255	
42665.227	1	1	0	0	0.2054	0.09478	0.23732	0.089944	0.074763	0.073044	0.15281	0.45435	0.073922	0.058606	0.058879	0.19469	0.47144	0.19181	0.14571	0.096636	-1.5271	-2.2729	-2.0021	-2.1437	-2.2771	-1.9438	-2.2	-2.3979	-1.9312	-2.375	-2.3	-2.1417	-2.4292	-2.3125	-1.9396	-2.2917	121.186	-75.493	101.169	104.552	-48.440	-22.216	155.551	157.898	34.572	77.378	180.260	145.234	155.027	133.803	-104.557	42.871	0.00044593	0.00086997	0.00017688	1558.7	5.5368e-06	8.8887e-06	1116.6	651.58	5.6439e-06	8.357e-06	465.04	198.95	286.95	109.49	6.9235e-06	71.691	0.0005067	0.0003585	0.00010276	1491.5	4.1796e-06	4.2963e-06	1072	628.3	5.2352e-06	3.8475e-06	448.07	192.63	278.45	106.14	4.9463e-06	69.463	-117.962	-63.451	-56.069	-134.637	0.554	4.516	-136.391	-131.702	-22.272	2.887	-133.877	-130.971	-128.535	-124.887	-25.687	-127.831	-8191	255	
42665.348	1	1	0	0	0.093135	0.24372	0.068326	0.27604	0.18383	0.48117	0.041618	0.36293	0.14936	0.16949	0.2479	0.16809	0.20498	0.2673	0.025476	0.05103	-1.5271	-2.2188	-1.9271	-2.0583	-2.3229	-1.9354	-2.3438	-2.6021	-1.7708	-2.2917	-2.1271	-2.2104	-2.3646	-2.1021	-2.2979	-2.5187	106.458	-65.787	161.478	127.883	207.830	106.351	-13.909	171.623	-45.276	-99.118	98.908	127.406	158.012	152.010	-60.559	-60.945	0.00047665	0.00071985	0.00021003	1556.9	5.4429e-06	9.0248e-06	1113.5	654.06	5.532e-06	8.9762e-06	472.37	199.98	288.5	109.73	7.8669e-06	72.452	0.00050487	0.00033816	9.9419e-05	1491.9	4.1056e-06	4.5476e-06	1073	630.16	4.9895e-06	3.8496e-06	453.48	194.23	280	106.71	5.1729e-06	70.206	-119.935	-57.233	-46.534	-134.479	4.861	-3.189	-136.356	-131.383	-13.804	-6.232	-133.829	-131.027	-128.585	-124.792	-15.109	-128.140	-8191	255	
42665.441	1	1	0	0	0.11307	0.25918	0.088132	0.22427	0.19368	0.16468	0.18063	0.12681	0.1782	0.034582	0.095488	0.078595	0.14457	0.20721	0.29549	0.16874	-1.2896	-2.2021	-2.2875	-2.0583	-2.2917	-1.9417	-2.2146	-2.5271	-1.8854	-2.15	-2.25	-1.9625	-2.6	-2.25	-1.8625	-2.4146	-114.507	-2.978	208.202	189.093	36.949	-124.704	-99.203	112.093	-140.534	24.243	122.447	-115.777	-140.924	209.471	-71.085	140.818	0.00049948	0.00083926	0.00021114	1566.6	5.9338e-06	7.6371e-06	1125.5	659.02	7.0479e-06	7.412e-06	472.68	200.81	288.77	110.65	6.6742e-06	72.807	0.000545	0.00035143	9.4845e-05	1497.6	4.1908e-06	4.3394e-06	1081.8	634.06	5.3639e-06	3.5904e-06	454.6	195.35	281.15	107.31	5.301e-06	70.595	-119.642	-59.689	-53.280	-134.784	-0.924	-3.431	-136.229	-131.545	-17.922	1.604	-133.801	-131.146	-128.487	-125.012	-24.778	-127.894	-8191	255	
42665.535	1	1	0	0	0.10587	0.19805	0.071729	0.095663	0.10522	0.12224	0.33456	0.32586	0.09649	0.26612	0.21843	0.24306	0.25738	0.095035	0.36216	0.04411	-1.3521	-2.0021	-2.1521	-1.9	-2.2083	-2.1896	-2.2208	-2.4896	-1.8833	-2.2229	-2.325	-2.0938	-2.4729	-2.4979	-1.9771	-2.4458	88.247	203.174	101.873	146.981	-102.653	79.730	192.557	193.402	-10.448	-128.689	119.296	201.713	-148.645	179.132	-20.624	2.051	0.00049443	0.00083308	0.00020571	1563.3	5.4484e-06	9.1853e-06	1126.3	654.67	6.8576e-06	7.769e-06	470.31	199.11	286.89	109.76	6.3535e-06	71.655	0.00052111	0.00037809	0.00010065	1499.2	4.3371e-06	4.7881e-06	1079.5	631.45	5.1074e-06	3.733e-06	450.43	193.36	279.09	106.24	5.0008e-06	69.252	-120.125	-62.739	-58.924	-134.756	2.794	-0.285	-136.475	-131.602	-17.689	-8.927	-134.206	-130.844	-128.595	-124.926	-8.323	-127.794	-8191	255	
42665.656	1	1	0	0	0.25773	0.28746	0.056536	0.1021	0.16118	0.091957	0.26629	0.41088	0.20797	0.12417	0.28108	0.17023	0.25027	0.31173	0.1416	0.11467	-1.3646	-2.0667	-2.4688	-1.7917	-2.1667	-2.125	-2.0917	-2.4354	-2.0167	-2.0542	-2.3792	-1.8896	-2.3396	-2.3667	-1.8417	-2.5917	124.689	-12.065	63.182	-93.156	195.355	191.729	-131.408	162.163	170.252	197.762	173.404	126.495	-133.318	-132.983	48.964	199.091	0.00048079	0.00080974	0.00021184	1550.4	4.4914e-06	8.5465e-06	1115.2	649.56	5.83e-06	7.7984e-06	464.98	197.3	284.35	108.85	6.3664e-06	71.042	0.0005187	0.00037369	9.8162e-05	1487.3	4.0496e-06	3.99e-06	1068.9	626.38	4.8916e-06	3.7135e-06	447.29	191.37	277.4	105.55	4.9099e-06	68.694	-118.009	-65.091	-57.713	-134.784	-0.921	5.268	-136.436	-131.824	-11.106	-3.100	-134.118	-131.012	-128.592	-125.135	-21.643	-127.815	-8191	255	
42665.754	1	1	0	0	0.24069	0.23277	0.23034	0.36601	0.30596	0.081982	0.30834	0.14009	0.11945	0.038286	0.2534	0.059841	0.21105	0.092293	0.098502	0.085775	-1.5958	-1.9833	-2.1833	-2.1375	-2.1604	-2.1604	-2.0021	-2.3375	-1.9292	-1.8458	-2.5125	-2.0167	-2.1813	-2.2438	-1.9	-2.4042	-70.470	-146.991	8.624	196.875	202.860	-72.420	186.797	201.826	50.473	68.665	193.663	-56.020	-107.555	103.669	-134.725	95.805	0.00047442	0.00081361	0.00021313	1551.7	6.0898e-06	5.5887e-06	1108.7	649.24	5.6174e-06	7.622e-06	465.83	196.42	285.32	109.02	5.5901e-06	70.976	0.00050907	0.0003608	9.8456e-05	1485.4	4.3707e-06	3.5608e-06	1065.4	626.9	4.8789e-06	3.8637e-06	445.78	191.14	277.4	105.35	5.0008e-06	68.646	-119.243	-64.147	-59.412	-134.577	-6.599	1.812	-136.090	-131.544	-22.349	-2.236	-133.921	-131.126	-128.545	-124.987	-20.434	-127.991	-8191	255	
42665.824	1	1	0	0	0.079232	0.20094	0.17249	0.29848	0.03468	0.096754	0.2899	0.3717	0.21695	0.12492	0.2912	0.26283	0.22105	0.14372	0.25481	0.1619	-1.6417	-1.8062	-2.3667	-1.9375	-2.0542	-2.1604	-2.0812	-2.3688	-2.1562	-1.8729	-2.4292	-2.0896	-2.3146	-2.4062	-1.7729	-2.3042	69.790	95.765	-69.637	205.690	-135.818	165.648	177.966	168.775	103.833	158.046	187.526	-46.431	188.667	171.561	93.046	163.818	0.00049261	0.00084105	0.00020199	1548.5	6.0023e-06	7.4336e-06	1108.8	651.08	6.1406e-06	8.93e-06	462.42	197.05	285.79	108.59	6.655e-06	71.012	0.00051419	0.00037809	9.0914e-05	1483.8	4.4043e-06	3.7798e-06	1062.7	627.13	4.9778e-06	4.0613e-06	445.51	190.8	277.27	105.23	4.973e-06	68.61	-118.735	-67.292	-54.395	-134.899	-4.044	-7.153	-136.175	-131.696	-19.681	-0.413	-133.899	-130.943	-128.498	-124.900	-23.203	-127.997	-8191	255	
42665.922	1	1	0	0	0.28801	0.063187	0.25113	0.32377	0.11607	0.070133	0.073884	0.41399	0.16586	0.21506	0.019606	0.21315	0.21554	0.24093	0.026379	0.081666	-1.8125	-1.8417	-2.3042	-2.1104	-1.9417	-2.2625	-2.0979	-2.4396	-1.9875	-1.9292	-2.3333	-2.1917	-2.1063	-2.4604	-1.8917	-2.1937	0.846	68.136	-132.284	148.495	-98.194	63.382	94.651	142.607	56.996	173.122	-74.934	192.358	193.468	161.913	-106.972	151.428	0.00047232	0.00096947	0.0002502	1553.1	4.3331e-06	7.7587e-06	1108.2	649.3	6.8243e-06	6.683e-06	462.39	194.93	283.78	107.2	7.1549e-06	69.969	0.00050596	0.0003906	9.8002e-05	1482.7	4.1865e-06	3.5684e-06	1062.8	626.02	4.9877e-06	3.8723e-06	441.99	189.58	275.16	104.11	5.171e-06	67.426	-118.536	-64.554	-54.770	-134.744	-1.280	-2.066	-136.385	-131.561	-13.482	-9.645	-133.885	-131.117	-128.753	-125.033	-18.756	-127.840	-8191	255	
42666.043	1	1	0	0	0.30738	0.26747	0.21992	0.3497	0.2759	0.20156	0.078749	0.34533	0.21776	0.15089	0.25561	0.24547	0.35169	0.35311	0.25058	0.15353	-1.5646	-1.7	-2.2438	-2.075	-1.9062	-2.3417	-2.0292	-2.1792	-2.3479	-1.8458	-2.3896	-2.3042	-1.8167	-2.4729	-1.9438	-2.2896	-62.668	80.026	161.590	183.770	169.185	33.463	-131.765	156.300	194.011	-57.447	121.985	133.874	-140.512	176.037	75.076	165.345	0.00048085	0.00090597	0.00022425	1538.5	5.4351e-06	8.1758e-06	1092.6	644.28	6.7159e-06	8.533e-06	455.63	192.17	281.67	106.31	7.8794e-06	69.241	0.00049053	0.00038296	0.00010244	1470.7	4.3216e-06	3.3495e-06	1048.7	622.31	4.6723e-06	3.7438e-06	437.06	186.81	273.17	102.97	5.1241e-06	66.882	-120.213	-71.025	-57.046	-134.658	2.928	1.041	-136.340	-131.565	-17.002	-4.314	-134.017	-131.042	-128.527	-125.057	-23.361	-128.012	-8191	255	
42666.141	1	1	0	0	0.12836	0.11613	0.13435	0.46628	0.051737	0.11538	0.14368	0.24739	0.1405	0.29808	0.047383	0.15601	0.013672	0.161	0.10683	0.080782	-1.7437	-1.8729	-2.1208	-2.2167	-2.05	-2.3458	-2.0438	-2.1083	-2.2229	-1.6167	-2.2917	-2.2313	-1.9438	-2.5354	-1.8583	-2.1312	71.693	27.539	36.240	172.347	33.197	31.434	110.862	-147.716	116.297	36.316	87.351	-148.674	152.849	188.994	118.313	-135.121	0.00046526	0.00069681	0.00018611	1530.8	5.117e-06	8.2522e-06	1092.2	646.53	6.4347e-06	8.1256e-06	456.71	192.69	281.86	106.71	6.7617e-06	70.054	0.00047997	0.00040187	9.2064e-05	1466.6	4.1073e-06	3.6503e-06	1049.8	622.54	4.6922e-06	3.9641e-06	437.36	187.12	273.82	103.49	4.9443e-06	67.466	-119.799	-72.380	-53.394	-134.675	-1.717	3.171	-136.210	-131.414	-20.494	-6.690	-133.998	-131.064	-128.738	-125.010	-14.544	-127.826	-8191	255	
42666.234	1	1	0	0	0.14832	0.28806	0.20048	0.43931	0.23686	0.10801	0.083711	0.28915	0.20338	0.16886	0.080232	0.084201	0.31032	0.25283	0.035866	0.29438	-1.6313	-1.7479	-2.0396	-2.3312	-1.925	-2.2146	-2.1625	-2.0917	-2.3583	-1.8396	-2.225	-2.3146	-2.1146	-2.3896	-2.0292	-2.0667	-7.884	27.435	190.789	-143.668	-74.473	41.626	152.171	153.462	-116.158	54.228	188.708	169.691	163.072	188.750	162.607	195.785	0.00045173	0.00092912	0.00023232	1536	5.5576e-06	7.6717e-06	1101.4	647.64	5.633e-06	8.3215e-06	461.66	195.99	284.55	107.87	6.6654e-06	70.665	0.00046913	0.00040741	0.00010292	1471.6	4.2898e-06	3.2557e-06	1055.1	626.29	4.8808e-06	4.0808e-06	443.1	189.84	276.16	104.75	5.084e-06	68.371	-119.554	-77.255	-59.098	-134.810	0.835	3.931	-136.241	-131.637	-17.534	2.716	-134.017	-130.939	-128.398	-125.091	-11.872	-127.944	-8191	255	
42666.328	1	1	0	0	0.26259	0.20353	0.11901	0.31706	0.16805	0.14996	0.19272	0.2184	0.2516	0.13357	0.22193	0.20182	0.091087	0.41286	0.20779	0.11496	-1.9688	-2.0208	-2.0333	-2.2687	-1.8438	-2.3312	-2.1646	-1.9375	-2.2354	-1.8917	-2.2146	-2.3688	-1.9688	-2.1583	-1.9167	-2.0104	36.753	78.141	183.291	200.562	-59.543	-18.301	162.430	190.617	178.242	-68.169	143.436	103.715	201.496	177.363	91.138	186.448	0.00048892	0.00087391	0.0002115	1550.3	5.6444e-06	8.1424e-06	1107	652.67	5.6299e-06	7.7262e-06	463.6	197.96	286.13	108.9	6.7631e-06	71.721	0.0004889	0.00040846	9.5942e-05	1482.5	4.4447e-06	3.8455e-06	1063.8	628.23	4.6505e-06	3.7762e-06	445.76	191.69	277.76	105.66	4.9769e-06	69.087	-119.610	-59.671	-60.970	-134.624	4.341	8.498	-136.427	-131.551	-18.146	3.547	-134.005	-131.164	-128.373	-124.954	-25.770	-128.001	-8191	255	
42666.449	1	1	0	0	0.15108	0.16763	0.10914	0.2155	0.21783	0.2914	0.37687	0.36866	0.20733	0.20944	0.24315	0.33702	0.19132	0.19232	0.16615	0.17233	-1.8875	-1.9042	-2.1958	-2.6	-1.8312	-2.3375	-2.1375	-2	-2.2354	-1.9396	-2.2146	-2.2396	-1.9833	-2.3271	-2.0417	-1.8604	-142.530	160.057	-93.710	162.683	175.299	-101.192	86.606	130.801	35.469	19.636	84.088	189.119	166.547	58.014	124.597	69.186	0.00047123	0.00076473	0.00021818	1544.6	5.171e-06	8.747e-06	1102.3	650.6	5.74e-06	7.2228e-06	462.22	195.8	284.4	108.34	5.7998e-06	70.839	0.00048719	0.00039203	0.00010009	1483.2	4.3389e-06	3.6439e-06	1061.1	626.21	4.7103e-06	3.8885e-06	443.24	189.87	276.31	104.97	4.9377e-06	68.35	-119.461	-58.483	-56.532	-134.642	1.733	3.737	-136.374	-131.525	-21.803	-11.955	-134.021	-131.063	-128.485	-125.081	-13.316	-127.859	-8191	255	
42666.523	1	1	0	0	0.25719	0.28406	0.31924	0.28139	0.22396	0.12678	0.23954	0.21418	0.17707	0.20211	0.10586	0.22403	0.28347	0.059606	0.22197	0.075604	-1.8479	-2.1208	-1.8542	-2.3771	-1.7875	-1.9375	-2.4208	-1.9375	-2.0563	-2.0729	-2.0833	-2.4458	-1.8667	-2.4146	-2.0333	-1.9125	3.142	-91.032	-104.186	194.062	131.480	147.813	172.830	201.409	17.087	-25.485	-90.432	129.251	176.166	-111.811	-4.321	62.404	0.00044295	0.00078593	0.00021084	1538.1	5.981e-06	8.1947e-06	1108.7	648.32	5.6267e-06	7.3754e-06	460.82	195.56	284.06	108.15	5.6598e-06	70.343	0.00047748	0.00041486	0.00010025	1477.9	4.5472e-06	3.8682e-06	1060.9	624.26	4.8155e-06	3.6379e-06	443.09	189.89	275.74	104.72	4.7866e-06	68.261	-119.178	-56.156	-57.017	-134.727	-8.023	1.227	-136.376	-131.531	-21.387	1.627	-133.882	-130.918	-128.588	-125.201	-10.180	-127.970	-8191	255	
#DATA ENDS
