BOXY.EXE: ISS Imagent and Oximeter Data Acquisition Program Version 0.80
Ascii Record File

#ACQ INFORMATION
2  Detector Channels 
16  External MUX Channels 
1  Auxiliary Channels 
5000  Waveform (CCF) Frequency (Hz)
1  Waveforms Skipped 
30  Waveforms Averaged 
1  Cycles Averaged 
16  Acquisitions per Waveform 
10.0806  Updata Rate (Hz) 

#FILE INFORMATION
TRUE -- External MUX Channel results are PARSED.
FALSE -- AC DC and Phase are NOT grouped.
TRUE -- Companion Program Settings File CREATED.
FALSE -- AC data not excluded
FALSE -- DC data not excluded
FALSE -- Phase data not excluded
FALSE -- Auxillary Chn. data not excluded
Tab delimiters

#CALIBRATION STATE
TRUE -- Waveform Calibration Values APPLIED.


#AUX CALIBRATION VALUES
Val Type	aux-1	

Term	1.0000e+00	
Factor	0.0000e+00	


#WF CALIBRATION VALUES
A = Detector Channel
Val Type	A-AC1	A-AC2	A-AC3	A-AC4	A-AC5	A-AC6	A-AC7	A-AC8	A-AC9	A-AC10	A-AC11	A-AC12	A-AC13	A-AC14	A-AC15	A-AC16	A-DC1	A-DC2	A-DC3	A-DC4	A-DC5	A-DC6	A-DC7	A-DC8	A-DC9	A-DC10	A-DC11	A-DC12	A-DC13	A-DC14	A-DC15	A-DC16	A-Ph1	A-Ph2	A-Ph3	A-Ph4	A-Ph5	A-Ph6	A-Ph7	A-Ph8	A-Ph9	A-Ph10	A-Ph11	A-Ph12	A-Ph13	A-Ph14	A-Ph15	A-Ph16	

Term	0.00000e+00	0.00000e+00	0.00000e+00	0.00000e+00	0.00000e+00	0.00000e+00	0.00000e+00	0.00000e+00	0.00000e+00	0.00000e+00	0.00000e+00	0.00000e+00	0.00000e+00	0.00000e+00	0.00000e+00	0.00000e+00	0.00000e+00	0.00000e+00	0.00000e+00	0.00000e+00	0.00000e+00	0.00000e+00	0.00000e+00	0.00000e+00	0.00000e+00	0.00000e+00	0.00000e+00	0.00000e+00	0.00000e+00	0.00000e+00	0.00000e+00	0.00000e+00	0.00000e+00	0.00000e+00	0.00000e+00	0.00000e+00	0.00000e+00	0.00000e+00	0.00000e+00	0.00000e+00	0.00000e+00	0.00000e+00	0.00000e+00	0.00000e+00	0.00000e+00	0.00000e+00	0.00000e+00	0.00000e+00	
Factor	1.00000e+00	1.00000e+00	1.00000e+00	1.00000e+00	1.00000e+00	1.00000e+00	1.00000e+00	1.00000e+00	1.00000e+00	1.00000e+00	1.00000e+00	1.00000e+00	1.00000e+00	1.00000e+00	1.00000e+00	1.00000e+00	1.00000e+00	1.00000e+00	1.00000e+00	1.00000e+00	1.00000e+00	1.00000e+00	1.00000e+00	1.00000e+00	1.00000e+00	1.00000e+00	1.00000e+00	1.00000e+00	1.00000e+00	1.00000e+00	1.00000e+00	1.00000e+00	X	X	X	X	X	X	X	X	X	X	X	X	X	X	X	X	

B = Detector Channel
Val Type	B-AC1	B-AC2	B-AC3	B-AC4	B-AC5	B-AC6	B-AC7	B-AC8	B-AC9	B-AC10	B-AC11	B-AC12	B-AC13	B-AC14	B-AC15	B-AC16	B-DC1	B-DC2	B-DC3	B-DC4	B-DC5	B-DC6	B-DC7	B-DC8	B-DC9	B-DC10	B-DC11	B-DC12	B-DC13	B-DC14	B-DC15	B-DC16	B-Ph1	B-Ph2	B-Ph3	B-Ph4	B-Ph5	B-Ph6	B-Ph7	B-Ph8	B-Ph9	B-Ph10	B-Ph11	B-Ph12	B-Ph13	B-Ph14	B-Ph15	B-Ph16	

Term	0.00000e+00	0.00000e+00	0.00000e+00	0.00000e+00	0.00000e+00	0.00000e+00	0.00000e+00	0.00000e+00	0.00000e+00	0.00000e+00	0.00000e+00	0.00000e+00	0.00000e+00	0.00000e+00	0.00000e+00	0.00000e+00	0.00000e+00	0.00000e+00	0.00000e+00	0.00000e+00	0.00000e+00	0.00000e+00	0.00000e+00	0.00000e+00	0.00000e+00	0.00000e+00	0.00000e+00	0.00000e+00	0.00000e+00	0.00000e+00	0.00000e+00	0.00000e+00	-9.29970e+01	-1.31392e+02	-1.23755e+02	-1.81317e+02	-5.33619e+01	-6.48182e+01	-1.56949e+02	-1.62015e+02	-5.50886e+01	-6.87642e+01	-1.71959e+02	-1.70284e+02	-1.79234e+02	-1.77030e+02	-6.24173e+01	-1.49880e+02	
Factor	2.02525e-05	2.04927e-04	5.47415e-05	1.73521e-01	1.61479e-06	2.15799e-06	2.08365e-01	7.47178e-02	1.46152e-06	2.09857e-06	1.03330e-01	3.53755e-02	3.43424e-02	1.15752e-02	1.82063e-06	1.65684e-02	1.86485e-05	4.58517e-05	1.28386e-05	8.54534e-02	4.13224e-07	5.17627e-07	9.68864e-02	3.69658e-02	4.35134e-07	5.18470e-07	4.97831e-02	1.71989e-02	1.73445e-02	5.78419e-03	4.58961e-07	8.02566e-03	X	X	X	X	X	X	X	X	X	X	X	X	X	X	X	X	



#DISTANCE SETTINGS
A = Detector Channel
A-1	A-2	A-3	A-4	A-5	A-6	A-7	A-8	A-9	A-10	A-11	A-12	A-13	A-14	A-15	A-16	

2.5000e+00	3.0000e+00	2.5000e+00	3.0000e+00	2.0000e+00	3.0000e+00	1.5000e+00	3.0000e+00	3.0000e+00	3.0000e+00	3.0000e+00	3.0000e+00	3.0000e+00	3.0000e+00	1.5000e+00	3.0000e+00	

B = Detector Channel
B-1	B-2	B-3	B-4	B-5	B-6	B-7	B-8	B-9	B-10	B-11	B-12	B-13	B-14	B-15	B-16	

1.0000e+01	1.0000e+01	1.0000e+01	1.4400e+00	1.0000e+01	1.0000e+01	1.5100e+00	1.9400e+00	1.0000e+01	1.0000e+01	1.9900e+00	2.4900e+00	2.4100e+00	2.9000e+00	1.0000e+01	2.9800e+00	




#DATA BEGINS
time	group	step	mark	flag	A-AC1	A-AC2	A-AC3	A-AC4	A-AC5	A-AC6	A-AC7	A-AC8	A-AC9	A-AC10	A-AC11	A-AC12	A-AC13	A-AC14	A-AC15	A-AC16	A-DC1	A-DC2	A-DC3	A-DC4	A-DC5	A-DC6	A-DC7	A-DC8	A-DC9	A-DC10	A-DC11	A-DC12	A-DC13	A-DC14	A-DC15	A-DC16	A-Ph1	A-Ph2	A-Ph3	A-Ph4	A-Ph5	A-Ph6	A-Ph7	A-Ph8	A-Ph9	A-Ph10	A-Ph11	A-Ph12	A-Ph13	A-Ph14	A-Ph15	A-Ph16	B-AC1	B-AC2	B-AC3	B-AC4	B-AC5	B-AC6	B-AC7	B-AC8	B-AC9	B-AC10	B-AC11	B-AC12	B-AC13	B-AC14	B-AC15	B-AC16	B-DC1	B-DC2	B-DC3	B-DC4	B-DC5	B-DC6	B-DC7	B-DC8	B-DC9	B-DC10	B-DC11	B-DC12	B-DC13	B-DC14	B-DC15	B-DC16	B-Ph1	B-Ph2	B-Ph3	B-Ph4	B-Ph5	B-Ph6	B-Ph7	B-Ph8	B-Ph9	B-Ph10	B-Ph11	B-Ph12	B-Ph13	B-Ph14	B-Ph15	B-Ph16	aux-1	digaux	

43237.422	1	1	0	256	0.20304	0.012653	0.16935	0.21321	0.25289	0.14247	0.16207	0.33958	0.14532	0.064758	0.5511	0.12169	0.23003	0.20999	0.26824	0.11159	-1.8438	-2.4604	-1.8292	-2.2417	-2.1417	-2.0104	-2.5042	-2.1458	-2.1104	-2.2771	-1.8208	-2.1729	-2.1667	-2.1021	-2.4167	-2.1396	492.284	384.464	501.439	468.120	312.946	155.145	359.902	417.048	477.602	463.756	478.642	241.044	194.845	190.811	152.458	352.503	0.00038732	0.00034926	0.00018186	810.34	2.057e-06	1.0973e-05	621.62	293.92	4.95e-06	4.0201e-06	209.31	71.255	108.97	44.488	4.6767e-06	32.374	0.001858	0.0016314	0.0004527	795.15	1.4241e-05	1.9351e-05	611.87	290.39	1.5451e-05	1.7787e-05	204.67	72.263	108.3	44.617	1.5961e-05	32.277	223.426	233.345	239.863	162.540	318.020	369.361	161.738	167.612	289.878	365.979	165.041	169.563	171.685	176.218	282.257	172.674	-8191	255	
43237.516	1	1	0	0	0.022292	0.033332	0.11729	0.32119	0.053761	0.31095	0.051758	0.18057	0.19071	0.14659	0.18631	0.15409	0.15098	0.36346	0.2744	0.05255	-1.775	-2.4938	-2.0104	-2.2417	-2.2521	-1.9896	-2.4958	-2.0979	-2.1312	-2.4146	-2.2188	-2.1875	-2.1333	-1.9562	-2.4167	-2.2458	168.335	481.767	413.289	499.195	275.667	241.821	311.717	220.827	342.986	198.296	346.041	267.450	200.709	500.876	257.139	367.343	0.0003706	0.00037271	0.00018258	811.74	3.8171e-06	5.7151e-06	619.6	294.75	2.8193e-06	5.4241e-06	205.91	71.628	108.23	44.482	4.6685e-06	32.059	0.0015782	0.0015622	0.00044791	797.36	1.4965e-05	1.8181e-05	614.64	291.27	1.5578e-05	1.7753e-05	204.28	72.077	107.92	44.6	1.6487e-05	32.052	227.174	243.817	219.822	162.569	331.706	319.153	161.811	167.460	301.778	290.213	165.400	169.411	171.871	176.668	290.077	172.742	-8191	255	
43237.613	1	1	0	0	0.13097	0.16586	0.12189	0.38046	0.20192	0.27868	0.16743	0.18413	0.20778	0.086942	0.12856	0.27829	0.23071	0.12034	0.13873	0.1401	-1.5396	-2.4062	-1.925	-2.4479	-2.3708	-2.05	-2.4229	-2.3667	-2	-2.3479	-1.9854	-2.3792	-2.325	-2.0667	-2.4021	-2.2979	245.234	303.446	445.920	424.069	225.368	352.410	411.727	430.990	475.820	507.984	400.617	392.152	505.357	443.928	376.493	243.056	0.00030594	0.0011737	9.1027e-05	805.16	3.8054e-06	3.3717e-06	612.15	292.59	3.8609e-06	4.844e-06	204.2	70.345	107.7	44.023	5.5948e-06	31.738	0.0014505	0.0020793	0.00042865	792.7	1.4496e-05	1.7542e-05	606.45	289.03	1.552e-05	1.6945e-05	201.17	71.067	107.34	44.094	1.5854e-05	31.614	232.836	187.205	242.184	162.558	269.407	286.223	161.516	167.598	283.316	300.865	165.433	169.290	171.751	176.444	321.801	173.155	-8191	255	
43237.734	1	1	0	0	0.1426	0.15533	0.11423	0.32065	0.19303	0.10649	0.27583	0.17865	0.17461	0.16674	0.12723	0.14562	0.16156	0.21029	0.35209	0.15408	-1.4625	-2.4583	-1.9854	-2.2396	-2.3667	-1.9542	-2.4604	-2.375	-2.0438	-2.2687	-2.2125	-2.0833	-2.3729	-1.8792	-2.425	-2.3104	270.528	193.851	348.494	484.154	209.856	324.724	433.015	429.332	198.709	309.357	294.071	468.684	483.727	426.529	501.950	214.280	0.00030023	0.00088157	9.9162e-05	807.11	2.0215e-06	2.3104e-06	609.28	291.47	2.8747e-06	2.7981e-06	203.24	69.994	106.34	43.512	4.2215e-06	31.528	0.00082753	0.0029488	0.00042212	792.48	1.4427e-05	1.7381e-05	606.41	287.61	1.5244e-05	1.7161e-05	201.07	70.464	106.48	43.591	1.5936e-05	31.462	233.651	214.979	222.811	162.555	315.458	324.035	161.474	167.476	292.161	313.153	165.429	169.473	171.859	176.538	292.595	172.688	-8191	255	
43237.805	1	1	0	0	0.10877	0.37772	0.13942	0.095664	0.10286	0.094986	0.14214	0.22271	0.25304	0.21914	0.22525	0.25528	0.081822	0.15363	0.56479	0.20845	-1.4625	-2.3417	-2.0812	-1.975	-2.3625	-1.9729	-2.3208	-2.3979	-1.9542	-2.3542	-1.9562	-2.0604	-2.5042	-2.2083	-2.2229	-2.3854	197.765	176.973	457.005	361.706	405.873	477.051	450.487	248.807	185.520	231.639	446.840	203.566	371.038	433.756	256.494	468.178	0.0003095	0.0019985	0.0001316	806.11	4.3627e-06	4.3703e-06	613.02	290.5	4e-06	3.6161e-06	202.99	70.431	107.3	43.891	3.5711e-06	31.884	0.00083872	0.0039904	0.00042046	790.81	1.4774e-05	1.7196e-05	606.55	288	1.5857e-05	1.7453e-05	201.89	70.974	107.24	43.774	1.579e-05	31.787	226.408	194.653	243.945	162.772	273.426	334.925	161.460	167.287	298.773	322.958	165.316	169.189	171.766	176.167	276.498	173.118	-8191	255	
43237.898	1	1	0	0	0.063572	0.10268	0.080533	0.10997	0.26063	0.16917	0.27174	0.060706	0.19272	0.016712	0.28475	0.15025	0.10225	0.060598	0.060525	0.12965	-1.4688	-2.2917	-2.0812	-1.9396	-2.4375	-1.9271	-2.1083	-2.325	-1.9792	-2.25	-2.3063	-2.2	-2.5083	-2.2104	-2.2375	-2.4562	484.528	257.685	310.544	206.148	193.465	194.064	188.788	380.511	234.710	313.893	434.597	449.058	439.512	372.370	195.701	416.453	0.00030973	0.00060122	7.7328e-05	806.51	4.8794e-06	2.9754e-06	620.68	295.05	4.031e-06	1.304e-06	206.47	71.84	108.82	44.439	4.8077e-06	32.405	0.0008433	0.0033389	0.00043135	793.59	1.4939e-05	1.7018e-05	614.46	290.7	1.5642e-05	1.7353e-05	205.17	71.475	108.89	44.382	1.6368e-05	32.303	229.263	212.268	268.490	162.258	302.099	313.352	161.716	167.590	278.789	282.063	165.427	169.331	171.798	176.372	263.643	173.040	-8191	255	
43238.020	1	1	0	0	0.028742	0.12356	0.29634	0.2767	0.05386	0.22148	0.24572	0.0057109	0.070775	0.35327	0.073743	0.20432	0.29948	0.1418	0.19505	0.11544	-1.5063	-2.2729	-2.2562	-2.0062	-2.3958	-2.0479	-2.0792	-2.6188	-2.025	-2.3063	-2.4292	-2.1771	-2.4771	-2.0854	-2.0021	-2.5438	495.414	304.892	196.697	425.783	469.633	371.055	417.371	212.286	334.913	496.064	269.340	327.890	474.079	479.621	276.782	493.481	0.00031777	0.0014569	0.00020186	810.91	2.5258e-06	2.9991e-06	616.12	292.87	2.3694e-06	2.5726e-06	205.9	71.064	108.03	44.271	4.1649e-06	31.759	0.00085263	0.0040483	0.00043352	795.84	1.4376e-05	1.6913e-05	608.6	289.24	1.5371e-05	1.7286e-05	202.88	70.656	108.58	44.199	1.6197e-05	31.732	230.929	210.628	235.699	162.787	252.304	291.468	161.160	167.525	299.686	309.583	165.486	169.463	171.889	176.585	290.706	172.920	-8191	255	
43238.113	1	1	0	0	0.2828	0.039209	0.37567	0.23976	0.11192	0.18908	0.084995	0.15199	0.15502	0.19848	0.24918	0.12399	0.08374	0.23293	0.14526	0.045134	-1.7375	-2.3208	-2.2479	-1.9854	-2.4854	-2.2333	-2.0583	-2.6104	-2.2625	-2.075	-2.5292	-1.8104	-2.4542	-2.4104	-2.2104	-2.5833	243.742	270.208	171.313	499.586	316.179	275.384	174.040	280.527	258.284	361.169	154.620	312.101	399.569	180.118	317.887	158.815	0.00029726	0.00092027	0.00010032	807.61	3.4873e-06	1.2482e-06	611.68	291.76	4.0229e-06	8.9157e-07	206.06	70.783	108.31	44.124	2.3797e-06	31.869	0.00081517	0.0032431	0.00044483	790.83	1.4485e-05	1.6961e-05	605.03	289.84	1.4999e-05	1.7645e-05	203.07	70.605	108.3	44.18	1.6538e-05	31.814	233.680	221.517	243.521	162.733	284.678	262.140	161.723	167.368	310.185	323.024	165.596	169.211	171.986	176.180	295.700	172.749	-8191	255	
43238.211	1	1	0	0	0.20999	0.21288	0.15451	0.24597	0.050434	0.28054	0.18724	0.14827	0.066124	0.14536	0.21274	0.15589	0.1483	0.31271	0.15318	0.15389	-1.5979	-2.1229	-2.3896	-2.0021	-2.3042	-2.3167	-1.9958	-2.4083	-1.9896	-2.2583	-2.4771	-1.9521	-2.1979	-2.1771	-2.0729	-2.5458	468.734	421.177	459.026	452.156	371.239	423.729	505.628	358.037	467.572	287.875	425.435	464.076	152.432	438.419	218.575	392.697	0.00031202	0.0014323	8.954e-05	804.56	3.1212e-06	7.1274e-06	612.71	292.76	2.749e-06	1.6697e-06	205.45	71.747	108.59	44.495	2.2843e-06	31.965	0.00083067	0.0040566	0.00043823	791.68	1.4812e-05	1.796e-05	603.76	291.65	1.5436e-05	1.8535e-05	203.23	71.11	109.21	44.432	1.6435e-05	32.035	227.506	228.091	249.560	162.601	319.328	316.704	161.406	167.293	248.860	366.146	165.760	169.377	171.987	176.212	297.714	172.900	-8191	255	
43238.332	1	1	0	0	0.11089	0.1888	0.24265	0.10784	0.04718	0.21174	0.27077	0.24461	0.17609	0.047843	0.2453	0.23644	0.045229	0.29693	0.081258	0.34396	-1.6833	-2.0146	-2.3604	-2.075	-2.3458	-2.3854	-1.9396	-2.3937	-2.2917	-2.3771	-2.4813	-2.0146	-2.2604	-2.3375	-2.0125	-2.5167	245.868	275.157	451.779	176.104	394.151	459.067	392.633	508.455	193.709	489.301	331.916	178.181	292.943	484.769	158.555	479.667	0.0003367	0.0012741	0.00014805	810.65	3.6856e-06	4.6179e-06	621.49	296.4	4.3142e-06	2.9479e-06	207.6	72.376	110.17	45.076	2.5832e-06	32.747	0.00085286	0.0033732	0.00044903	796.69	1.4897e-05	1.7564e-05	609.97	295.01	1.5501e-05	1.8372e-05	206.04	71.987	110.32	44.906	1.6369e-05	32.597	228.598	230.189	222.441	162.625	316.463	295.986	161.712	167.456	300.674	291.772	165.209	169.582	171.903	176.560	289.005	172.512	-8191	255	
43238.402	1	1	0	0	0.13964	0.2051	0.3278	0.31343	0.015156	0.1564	0.17176	0.098914	0.23153	0.11481	0.31274	0.16723	0.12958	0.17946	0.22465	0.35602	-1.5979	-2.1312	-2.5333	-2.0917	-2.1896	-2.2667	-2.0896	-2.3563	-2.2313	-1.875	-2.4146	-2.0729	-2.1625	-2.4417	-1.9813	-2.3292	340.760	168.317	269.971	437.017	497.278	331.019	360.749	506.400	408.945	497.105	438.232	336.892	362.111	213.482	477.986	300.148	0.0003133	0.00081875	0.00031397	816.74	3.2588e-06	4.6969e-06	619.41	299.05	4.3104e-06	1.3646e-06	208.29	72.191	109.73	45.035	4.9201e-06	32.322	0.00084485	0.0028862	0.00068633	802.29	1.4796e-05	1.7524e-05	610.9	296.31	1.556e-05	1.797e-05	205.6	71.78	110.22	44.917	1.6368e-05	32.233	229.977	272.307	207.823	162.534	297.963	331.804	161.296	167.700	285.676	311.838	165.142	169.521	171.969	176.449	311.074	172.878	-8191	255	
43238.500	1	1	0	0	0.33263	0.084275	0.27726	0.24124	0.29934	0.15828	0.11164	0.12243	0.166	0.1123	0.15904	0.3639	0.065574	0.27974	0.066105	0.077752	-1.95	-1.9167	-2.3458	-2.1729	-2.1104	-2.4042	-2.0521	-2.3479	-2.2354	-2.1021	-2.4375	-2.2375	-2.2042	-2.3458	-2.025	-2.2833	462.405	330.855	292.325	226.291	497.211	380.834	196.167	468.787	365.456	484.813	328.603	426.952	233.397	428.341	256.583	487.151	0.00031109	0.00031806	0.00021874	812.82	4.1526e-06	4.1584e-06	617.58	294.96	3.2462e-06	3.0559e-06	206.74	71.746	109.26	44.773	3.6062e-06	32.43	0.00081634	0.001561	0.00090946	796.65	1.4819e-05	1.7306e-05	604.62	294.01	1.5571e-05	1.7992e-05	204.52	71.268	109.45	44.796	1.5952e-05	32.191	224.478	232.501	232.880	162.459	315.138	281.718	161.490	167.326	265.147	293.934	164.945	169.000	171.715	176.421	304.908	172.970	-8191	255	
43238.598	1	1	0	0	0.31874	0.35748	0.13956	0.19789	0.20406	0.16568	0.053287	0.14162	0.17244	0.10215	0.093956	0.19032	0.30113	0.18056	0.11373	0.17647	-1.7958	-1.8146	-2.3312	-2.0812	-2.0104	-2.4062	-2.0729	-2.4229	-2.3917	-1.8208	-2.5104	-2.1271	-2.2479	-2.5729	-2.05	-2.3667	419.612	351.566	448.760	397.638	353.097	174.408	160.931	496.477	504.436	153.214	287.621	168.585	200.257	503.525	481.083	467.580	0.0003093	0.00035493	0.00049957	812.66	3.6599e-06	2.6227e-06	614.03	295.28	3.011e-06	1.2292e-06	205.27	71.823	108.98	45.232	3.8684e-06	32.244	0.00084668	0.0015649	0.0011203	794.87	1.4755e-05	1.8088e-05	605	293.23	1.5632e-05	1.8205e-05	203.59	71.188	109.18	45.209	1.5445e-05	32.352	227.832	249.716	243.441	162.617	309.905	319.345	161.701	167.533	296.538	262.537	165.206	169.288	172.011	176.293	297.145	172.913	-8191	255	
43238.691	1	1	0	0	0.1198	0.16926	0.058272	0.37785	0.093076	0.069589	0.25262	0.33679	0.090032	0.19168	0.013103	0.13957	0.0216	0.30335	0.043583	0.13571	-2.1104	-1.9375	-2.2646	-2.1229	-2.1458	-2.4229	-2.2458	-2.1063	-2.4104	-1.9813	-2.4604	-2.1833	-1.9813	-2.5208	-2.0583	-2.2771	374.729	386.767	283.844	441.774	305.797	338.829	442.571	438.980	371.700	486.843	336.270	483.034	488.219	472.828	207.051	359.227	0.00031092	0.00064849	0.00029884	813.13	4.5353e-06	2.7919e-06	619.02	296.14	4.3416e-06	5.3764e-06	208.91	72.291	109.96	45.322	3.7201e-06	32.755	0.00084517	0.0015684	0.00091967	797.92	1.4943e-05	1.7749e-05	609.38	295.61	1.6039e-05	1.7198e-05	206.05	71.977	109.79	45.609	1.6278e-05	32.779	231.476	245.448	270.515	162.736	284.369	316.246	161.566	167.666	319.649	257.516	165.429	169.543	171.810	176.419	318.292	173.042	-8191	255	
43238.812	1	1	0	0	0.39067	0.1359	0.35248	0.10329	0.2587	0.23185	0.078121	0.13709	0.076794	0.078348	0.23063	0.18576	0.17282	0.2912	0.023931	0.17751	-2.1521	-1.8042	-2.3521	-2.2271	-1.9708	-2.5	-2.3979	-2.0792	-2.4896	-2.1083	-2.3271	-2.4625	-2.0521	-2.5667	-2.2771	-2.1104	410.481	429.801	445.672	241.091	256.624	243.136	396.478	420.558	487.069	166.654	329.359	442.965	491.068	487.163	470.322	165.038	0.00032391	0.00013512	0.00040422	815.08	2.86e-06	2.5159e-06	623.27	297.56	3.6575e-06	2.9376e-06	208.46	72.668	109.76	45.675	5.0092e-06	32.841	0.00085002	0.0015774	0.0011523	799.39	1.4923e-05	1.724e-05	611.9	295.26	1.6116e-05	1.7736e-05	206.68	72.28	109.59	45.865	1.5882e-05	32.825	229.102	193.312	271.715	162.675	287.303	260.108	161.578	167.475	295.031	353.648	165.515	169.443	172.064	176.478	307.153	172.560	-8191	255	
43238.910	1	1	0	0	0.08226	0.2105	0.26227	0.16876	0.14806	0.052081	0.37111	0.072895	0.21151	0.27252	0.10608	0.17988	0.18277	0.21562	0.24423	0.15242	-1.9188	-1.9146	-2.1167	-2.4437	-1.8958	-2.5771	-2.2417	-2.1021	-2.475	-2.2292	-2.3	-2.4271	-1.8979	-2.3479	-2.2771	-2.0833	269.220	498.946	446.314	149.468	352.138	260.726	387.416	499.010	467.250	177.177	338.331	373.464	160.685	495.938	326.961	438.022	0.00030214	0.00025508	0.00032144	809.08	3.3046e-06	4.0176e-06	615.67	295.13	4.5823e-06	2.8717e-06	207.52	71.775	109.32	45.297	2.1177e-06	32.779	0.00083483	0.0015311	0.00090924	794.75	1.4675e-05	1.7658e-05	605.74	293.13	2.528e-05	1.7212e-05	204.3	71.295	108.95	45.554	1.6699e-05	32.566	225.416	256.575	257.121	162.571	299.441	276.416	161.380	167.403	233.347	271.482	165.389	169.569	171.915	176.357	263.775	172.880	-8191	255	
43238.980	1	1	0	0	0.0743	0.21625	0.24894	0.21002	0.19316	0.10091	0.049041	0.27721	0.22089	0.27959	0.13235	0.11063	0.11193	0.18212	0.093156	0.24078	-2.0354	-2.05	-2.1833	-2.6292	-1.6833	-2.3833	-2.3396	-2.1479	-2.6167	-1.9937	-2.25	-2.4562	-1.9958	-2.3625	-2.1104	-1.8479	399.325	371.949	327.089	471.575	266.544	449.993	183.253	410.132	317.934	382.822	265.282	216.462	482.754	410.804	219.380	220.140	0.00029698	0.00028832	0.00043929	808.82	4.0483e-06	5.5622e-06	614.27	294.85	1.4494e-06	1.1074e-06	205.61	71.17	108.8	45.344	2.4795e-06	32.479	0.00083001	0.0015529	0.0011233	794.01	1.4531e-05	1.7408e-05	605.45	291.2	3.1585e-05	1.7081e-05	203.55	71.069	108.66	45.656	1.6595e-05	32.546	225.638	222.354	261.585	162.460	299.436	280.008	161.584	167.614	502.292	293.953	165.801	169.217	171.993	176.589	296.693	173.302	-8191	255	
43239.102	1	1	0	0	0.30526	0.12799	0.18834	0.12111	0.11095	0.2544	0.23854	0.16499	0.12891	0.15167	0.16038	0.020567	0.071029	0.17719	0.17608	0.11787	-1.9604	-1.9438	-2.2125	-2.6229	-2.0229	-2.2562	-2.3688	-2.1417	-2.3167	-2.0312	-2.0771	-2.6437	-2.1312	-2.2979	-2.4229	-2.0229	444.620	245.062	467.963	444.805	410.334	194.595	432.599	285.699	164.360	456.850	469.054	287.560	168.808	224.254	205.633	345.542	0.00029769	0.00035501	0.00023657	809.06	4.61e-06	4.2218e-06	617.97	296.51	3.8533e-06	4.9188e-06	206.76	71.745	109.68	45.517	3.3236e-06	33.222	0.00082065	0.001537	0.0009163	794.86	1.4333e-05	1.7514e-05	607.51	292.98	3.9052e-05	1.7566e-05	205.14	71.698	109.35	45.882	1.6241e-05	32.994	229.401	283.063	294.887	162.850	284.053	312.932	161.585	167.659	498.806	303.487	165.094	169.621	172.056	176.316	299.665	172.818	-8191	255	
43239.195	1	1	0	0	0.39635	0.11576	0.35291	0.07011	0.12224	0.24506	0.11089	0.14032	0.17405	0.17477	0.43515	0.069185	0.20718	0.052896	0.014771	0.30427	-1.9937	-2.2583	-2.0938	-2.5125	-2.0208	-2.1479	-2.2812	-1.9354	-2.3917	-2.3042	-2.1646	-2.4146	-2.0958	-2.1896	-2.3312	-2.0125	194.980	310.877	248.405	163.649	252.105	381.961	306.166	478.398	396.914	440.351	397.016	282.332	394.764	443.131	483.815	490.534	0.00030684	0.00033683	0.00041101	814.94	3.2793e-06	4.1267e-06	623.42	297.47	7.5337e-07	3.8804e-06	210.34	72.75	110.11	45.693	5.355e-06	33.328	0.00084501	0.0015763	0.00070944	802.17	1.482e-05	1.7867e-05	612.73	293.64	3.1842e-05	1.8048e-05	207.06	72.242	109.59	46.214	1.6898e-05	33.348	225.440	190.681	295.452	162.666	312.121	276.495	161.594	167.682	341.895	293.194	165.519	169.472	172.260	176.560	287.732	173.056	-8191	255	
43239.293	1	1	0	0	0.20895	0.14535	0.086798	0.08244	0.038049	0.023869	0.3801	0.1631	0.068233	0.023575	0.21737	0.16681	0.21418	0.20489	0.12494	0.15845	-1.9438	-2.1521	-1.9188	-2.4729	-2.1667	-2.1917	-2.3375	-2.1937	-2.3167	-2.2146	-2.0333	-2.4521	-2.1937	-2.1125	-2.4229	-2.1917	307.454	303.701	392.243	458.363	354.661	221.608	453.147	468.178	509.197	208.366	501.776	153.202	474.624	456.071	493.435	399.022	0.00032664	0.00042415	5.7791e-05	811.14	3.5923e-06	4.401e-06	619.44	292.96	2.7868e-06	5.1103e-06	205.19	71.471	108.49	45.479	1.625e-06	32.806	0.0008567	0.0015975	0.00045379	798.67	1.4718e-05	1.8227e-05	607.63	290.4	3.8542e-05	1.828e-05	204.22	71.341	108.38	45.733	1.6245e-05	32.828	231.619	231.199	257.987	162.725	274.653	329.920	161.699	167.744	187.334	312.847	165.222	169.866	172.228	176.668	265.577	172.960	-8191	255	
43239.414	1	1	0	0	0.11613	0.11638	0.22091	0.31725	0.16628	0.15891	0.14016	0.067545	0.096774	0.1182	0.1341	0.17063	0.28329	0.22177	0.30984	0.25639	-1.6521	-2.2771	-1.7917	-2.4667	-2.3688	-1.9104	-2.4104	-2.1458	-2.1771	-2.4458	-1.9646	-2.4042	-2.2521	-2.1167	-2.5375	-2.075	357.195	440.591	435.279	451.422	375.833	502.485	320.209	410.193	299.990	412.383	326.973	344.751	495.483	185.417	392.837	192.518	0.0003401	0.00037906	0.00010696	803.31	1.7235e-06	5.9969e-06	615.68	291.9	1.9769e-06	3.9754e-06	205.67	71.224	108.49	45.458	1.1507e-05	32.67	0.00084563	0.0015882	0.00042849	794.19	1.4534e-05	1.7957e-05	602.87	288.9	3.2632e-05	1.8071e-05	203.84	70.865	108.09	45.529	2.9014e-05	32.793	224.154	215.492	291.207	162.692	305.291	284.359	161.620	167.806	190.414	316.272	165.845	169.543	171.943	176.510	255.608	172.865	-8191	255	
43239.508	1	1	0	0	0.083442	0.13275	0.15183	0.19655	0.28501	0.019121	0.18446	0.33498	0.059149	0.08503	0.35543	0.10414	0.32425	0.27409	0.14805	0.096775	-1.7396	-2.5417	-2.0542	-2.35	-2.1688	-1.9208	-2.4333	-2.1813	-2.075	-2.3104	-1.9333	-2.1583	-2.3292	-1.8854	-2.5083	-2.1583	184.096	200.192	163.197	450.286	403.589	271.785	466.969	450.991	199.068	443.980	471.647	278.836	439.786	428.153	464.608	442.478	0.00033964	0.00040987	0.00016093	804.28	3.4422e-06	3.3959e-06	616.47	293.84	2.9991e-06	3.913e-06	206.34	71.586	108.6	45.554	8.4387e-06	32.926	0.00086207	0.0015954	0.00044106	793.19	1.5109e-05	1.776e-05	604.8	290.04	3.9356e-05	1.8301e-05	204.06	71.388	108.47	45.654	3.39e-05	32.941	225.987	221.927	231.679	162.761	308.743	286.594	161.663	167.660	224.165	325.478	165.587	169.431	172.185	176.558	266.742	172.690	-8191	255	
43239.605	1	1	0	0	0.091425	0.17243	0.05804	0.19609	0.22186	0.22234	0.17136	0.073362	0.044814	0.22054	0.16012	0.037369	0.13345	0.067891	0.12309	0.14696	-1.6792	-2.4479	-1.7583	-2.4313	-2.2167	-2.0625	-2.4771	-2.3417	-2.1396	-2.3937	-1.9792	-2.2146	-2.4875	-2.1854	-2.4458	-2.2062	451.760	499.488	344.586	477.194	498.973	290.275	351.582	211.339	333.035	421.159	496.998	480.431	403.199	347.196	359.983	493.638	0.00030813	0.00052347	7.3816e-05	807.98	4.4936e-06	1.729e-06	620.02	295.14	8.9192e-07	1.4969e-06	209.75	72.517	110.14	45.936	1.0904e-05	33.581	0.00087932	0.0017205	0.00045109	797.29	1.5006e-05	1.8659e-05	609.83	291.92	3.0828e-05	1.8378e-05	207.05	72.212	109.61	45.887	4.1631e-05	33.335	227.784	255.196	231.888	162.903	305.098	278.825	161.345	167.580	227.220	327.524	165.705	169.773	172.136	176.481	275.704	172.707	-8191	255	
43239.699	1	1	0	0	0.16576	0.23651	0.13548	0.38403	0.018985	0.23009	0.22466	0.075369	0.036296	0.20855	0.13441	0.15789	0.024033	0.23166	0.11525	0.20342	-1.4792	-2.4458	-1.9208	-2.2979	-2.3708	-1.9813	-2.4083	-2.4062	-2.0708	-2.5458	-2.2812	-2.1333	-2.3917	-2.1208	-2.2042	-2.1333	448.042	382.527	155.568	481.006	306.958	457.647	458.589	458.927	499.704	401.121	281.745	269.436	384.340	226.366	277.251	481.658	0.00031865	0.00026577	0.00012396	817.1	3.6815e-06	3.5609e-06	627.54	297.37	1.5749e-06	1.0016e-05	209.11	72.398	109.76	45.739	7.9324e-06	33.045	0.00088332	0.001574	0.00045647	804.11	1.5185e-05	1.7964e-05	614.93	294.69	2.2475e-05	3.2786e-05	206.65	72.138	109.41	45.721	3.3088e-05	32.942	226.929	242.814	264.134	162.678	274.038	324.235	161.555	167.629	151.763	202.809	165.573	169.641	172.112	176.522	275.919	173.173	-8191	255	
43239.797	1	1	0	0	0.33238	0.19313	0.25477	0.15894	0.23375	0.14726	0.16569	0.071552	0.035832	0.013756	0.15381	0.072174	0.14886	0.20997	0.24929	0.11616	-1.475	-2.3792	-1.9417	-2.1958	-2.2792	-2.1729	-2.2958	-2.3167	-2.0687	-2.425	-2.0896	-2.2938	-2.4938	-1.9438	-2.2125	-2.4417	176.184	251.574	414.725	456.172	288.986	409.458	160.946	439.968	507.165	164.330	431.433	362.728	450.193	507.849	455.881	280.470	0.00032218	0.00042017	7.537e-05	806.78	5.0257e-06	4.5302e-06	613.31	294.37	3.8262e-06	4.5771e-06	207.01	71.046	108.77	45.108	1.3713e-05	32.53	0.00085958	0.0016202	0.0004386	794.92	1.5254e-05	1.8719e-05	605.02	291.25	1.6729e-05	3.7344e-05	204.1	71.09	108.44	45.241	4.1747e-05	32.557	231.182	225.652	198.915	162.649	296.299	314.393	161.372	167.470	309.118	176.932	165.784	169.381	172.110	176.692	279.467	173.038	-8191	255	
43239.895	1	1	0	0	0.12685	0.16037	0.22684	0.24512	0.14957	0.1027	0.1511	0.11045	0.24358	0.17431	0.27991	0.1385	0.27939	0.18608	0.045624	0.183	-1.4229	-2.3208	-2.1667	-2.2104	-2.5167	-2.15	-2.2958	-2.5062	-1.8958	-2.4208	-2.2021	-2.0021	-2.6729	-2.2938	-2.1	-2.4188	411.798	496.785	445.481	414.340	419.343	416.809	469.682	461.256	383.403	429.650	176.598	483.364	505.133	501.779	177.127	481.243	0.00029834	0.00050497	0.00010625	805.23	3.3053e-06	4.3675e-06	618.12	294.15	3.0054e-06	1.072e-05	207.17	71.941	109.24	45.529	8.4527e-06	32.73	0.00087741	0.0015867	0.00046856	792.81	1.5587e-05	1.8295e-05	605.12	290.6	1.6356e-05	4.5687e-05	204.7	71.35	108.89	45.45	3.355e-05	32.63	229.547	236.675	262.553	162.823	305.229	301.258	161.636	167.689	296.647	174.103	165.333	169.356	172.238	176.577	288.726	172.728	-8191	255	
43239.988	1	1	0	0	0.081758	0.34234	0.17982	0.11121	0.17035	0.32118	0.24642	0.18096	0.0447	0.38484	0.047084	0.14099	0.12497	0.061755	0.1741	0.30053	-1.4417	-2.3125	-2.0146	-2.2271	-2.3292	-2.2208	-2.2229	-2.5062	-2.0354	-2.3354	-2.2396	-2.0708	-2.4771	-2.1562	-2.1729	-2.4792	363.387	327.750	253.193	500.690	218.826	213.520	457.441	395.629	150.355	460.113	310.063	288.547	373.926	348.668	501.151	268.543	0.0003451	0.00028713	8.1906e-05	804.61	3.1715e-06	3.3072e-06	616.11	296	3.0783e-06	7.7137e-06	207.16	72.767	109.35	45.482	1.7996e-05	32.769	0.00087959	0.0016083	0.00046141	791.69	2.8238e-05	1.8663e-05	607.85	292.33	1.5868e-05	3.7976e-05	205.68	72.065	109.22	45.605	4.2044e-05	32.921	223.166	234.939	210.922	162.582	263.080	286.747	161.186	167.523	315.131	192.476	165.763	169.582	172.290	176.531	283.380	173.199	-8191	255	
43240.109	1	1	0	0	0.1896	0.19211	0.091888	0.21353	0.091191	0.22974	0.1255	0.22546	0.17242	0.20989	0.077718	0.032568	0.17786	0.37522	0.1232	0.18337	-1.4167	-2.375	-2.2708	-2.0167	-2.4771	-2.2708	-2.3458	-2.5021	-2.1021	-2.3063	-2.2167	-2.0312	-2.6063	-2.2708	-1.9667	-2.275	290.868	492.988	331.726	183.945	443.072	206.471	383.138	158.214	164.309	496.188	469.133	369.459	415.077	450.857	372.414	391.509	0.00033471	0.00059538	3.7896e-05	808.85	6.1449e-06	4.4176e-06	621.99	295.95	4.2494e-06	1.2475e-05	210.21	72.519	109.86	46.01	1.0311e-05	33.124	0.00086801	0.0017007	0.00046738	794.28	3.0855e-05	1.8234e-05	610.1	292.52	1.6554e-05	4.6222e-05	207.78	72.472	109.62	46.045	3.1888e-05	33.171	228.185	226.827	264.603	162.416	389.295	260.369	161.494	167.618	275.837	205.390	165.390	169.814	172.010	176.812	336.038	172.950	-8191	255	
43240.203	1	1	0	0	0.14542	0.096148	0.1979	0.5211	0.26152	0.10348	0.42162	0.044409	0.10784	0.46162	0.077577	0.31718	0.16062	0.18403	0.21452	0.30905	-1.6021	-2.1604	-2.3417	-2.2146	-2.3375	-2.2625	-2.0542	-2.6708	-2.1021	-2.2812	-2.4333	-1.8917	-2.3271	-2.4396	-2.0104	-2.4062	501.400	154.904	253.374	471.388	320.623	246.330	452.476	437.578	489.885	228.662	449.110	480.372	200.694	183.262	279.262	412.284	0.00031256	0.00016248	0.00014429	805.72	5.0862e-06	3.6087e-06	617.16	293.47	3.3936e-06	5.4588e-06	207.81	71.62	109.17	45.512	7.9251e-06	32.769	0.00085756	0.0016792	0.00047078	790.14	3.7259e-05	1.8412e-05	604.84	290.67	1.5999e-05	3.7173e-05	204.27	71.125	108.65	45.686	2.213e-05	32.928	229.548	223.596	222.293	162.544	422.555	293.942	161.379	167.510	305.143	186.820	165.447	169.518	172.186	176.378	335.702	172.631	-8191	255	
43240.277	1	1	0	0	0.20302	0.17364	0.22131	0.16587	0.12315	0.097236	0.10653	0.23716	0.028619	0.24167	0.053562	0.094741	0.26908	0.294	0.12807	0.25886	-1.6875	-2.3729	-2.3208	-2.2396	-2.4979	-2.2229	-2.275	-2.4917	-2.0542	-2.1917	-2.4833	-1.8292	-2.4729	-2.4062	-2.0167	-2.4437	360.296	449.533	360.810	185.418	323.628	413.434	490.064	447.598	464.681	269.537	417.803	353.652	463.687	482.141	152.416	398.951	0.00031063	0.00024835	0.00011507	805.56	2.9707e-06	4.633e-06	614.45	295.14	3.7706e-06	7.5139e-06	206.5	71.46	108.93	45.536	2.6741e-06	32.671	0.00089047	0.0016195	0.00044208	789.17	3.0422e-05	1.8679e-05	604	291.36	1.5742e-05	4.5755e-05	204.16	71.166	108.29	45.547	1.6761e-05	32.949	227.292	265.899	225.112	162.567	432.369	297.580	161.679	167.731	290.143	200.783	165.582	169.753	172.007	176.499	282.011	172.697	-8191	255	
43240.375	1	1	0	0	0.4043	0.078045	0.22057	0.063308	0.25159	0.10305	0.15766	0.24638	0.10842	0.25544	0.17293	0.10312	0.04103	0.24903	0.21823	0.063211	-1.8604	-2.0021	-2.3625	-2.1292	-2.5125	-2.3208	-2.0792	-2.4354	-2.1542	-2.0812	-2.3896	-2.0438	-2.3708	-2.4062	-1.7812	-2.3958	225.096	419.938	156.809	170.561	241.481	491.203	434.218	495.324	354.879	395.277	471.985	368.802	314.012	486.584	312.990	342.348	0.00031645	0.00032158	0.00011893	805.65	3.6877e-06	3.3328e-06	616.91	294.02	4.7943e-06	2.5234e-06	207.37	71.917	109.48	45.789	3.8894e-06	33.092	0.00087104	0.001694	0.00045219	789.99	3.7531e-05	1.8624e-05	603.74	290.66	1.6145e-05	3.3671e-05	205.39	71.727	109.3	45.762	1.6752e-05	33.382	229.452	247.282	263.393	162.634	427.209	294.653	161.449	167.414	278.055	358.737	165.381	169.559	172.119	176.892	300.946	173.030	-8191	255	
43240.492	1	1	0	0	0.15029	0.10071	0.13926	0.24125	0.23776	0.23921	0.10637	0.18157	0.16136	0.18441	0.028423	0.21032	0.099035	0.084273	0.22639	0.032193	-1.7667	-1.9896	-2.4354	-2.3187	-2.3167	-2.1437	-1.9875	-2.3271	-2.0229	-1.9292	-2.4646	-2.2375	-2.2479	-2.2646	-1.8563	-2.3271	484.641	399.588	382.863	468.125	364.912	465.714	198.549	483.376	270.135	389.797	400.624	358.005	430.394	213.166	289.074	229.956	0.00030377	0.00023905	0.00011915	806.48	4.3249e-06	3.9645e-06	622.9	297.53	2.658e-06	9.136e-07	208.12	72.95	110.45	46.224	3.2587e-06	33.531	0.0008719	0.0016923	0.00044095	794.05	3.0446e-05	1.7934e-05	609.69	294.08	1.6367e-05	2.2848e-05	208.82	72.567	110.15	46.146	1.7096e-05	33.644	223.701	243.728	256.009	162.687	412.583	267.459	161.579	167.736	295.469	462.626	164.937	169.400	171.973	176.331	298.964	172.918	-8191	255	
43240.590	1	1	0	0	0.081063	0.27138	0.12488	0.093581	0.088287	0.080389	0.073184	0.35825	0.34278	0.14992	0.13203	0.15146	0.11782	0.11269	0.24116	0.15504	-1.7708	-2.1375	-2.6146	-2.2125	-2.0646	-2.55	-2.0354	-2.3271	-2.2687	-1.9104	-2.4417	-2.1292	-2.2375	-2.5458	-2.1896	-2.2646	443.755	434.367	420.139	508.367	223.437	263.179	278.436	486.167	216.324	487.936	496.476	353.340	162.042	340.272	291.718	355.111	0.00027179	0.00045922	6.8387e-05	808.28	5.452e-06	2.9447e-06	618.56	296.86	3.5121e-06	2.5818e-06	207.67	72.529	110.1	45.693	4.1042e-06	32.808	0.00086001	0.0015866	0.00045294	795.84	3.7133e-05	1.8052e-05	609.17	293.31	1.6434e-05	1.8392e-05	207.51	71.982	109.63	45.825	1.6904e-05	33.223	234.504	208.829	208.477	162.740	470.369	295.218	161.563	167.724	290.116	310.593	165.350	169.463	172.193	176.492	276.152	173.031	-8191	255	
43240.684	1	1	0	0	0.4239	0.44248	0.016593	0.056398	0.28957	0.16175	0.20598	0.11877	0.098036	0.061846	0.189	0.38485	0.1058	0.088869	0.15308	0.3551	-1.9188	-1.8104	-2.4271	-2.2125	-2.1229	-2.4146	-2.0125	-2.4146	-2.3583	-2.1125	-2.3729	-2.2833	-2.2146	-2.4688	-2.2	-2.2167	382.740	298.372	450.348	153.027	336.522	418.485	221.397	363.409	194.951	441.290	427.358	488.380	465.080	418.536	303.481	428.432	0.00031399	0.00034643	0.00014267	805.82	3.5179e-06	1.7078e-06	617.85	297.52	3.2572e-06	4.0788e-06	208.38	71.768	110.11	45.944	3.5963e-06	32.432	0.00086273	0.0015604	0.00044261	792.14	2.5984e-05	1.9876e-05	606.41	293.38	1.5533e-05	1.7693e-05	208.16	71.723	110	45.82	1.6204e-05	32.798	225.260	236.941	251.940	162.812	394.818	209.522	161.403	167.518	280.503	297.623	165.441	169.612	171.896	176.529	317.343	172.849	-8191	255	
43240.781	1	1	0	0	0.06742	0.21356	0.16028	0.25431	0.20646	0.25034	0.19399	0.14529	0.065608	0.15593	0.14524	0.26803	0.084728	0.13872	0.24499	0.25321	-1.9479	-2.075	-2.3688	-2.1625	-1.9813	-2.3917	-2.1437	-2.4354	-2.3479	-2.2	-2.4229	-2.1437	-1.9542	-2.4646	-2.0854	-2.0375	426.571	418.273	496.010	493.618	262.466	258.328	488.711	202.366	173.785	314.992	385.745	181.575	496.694	406.033	445.484	171.956	0.00030074	0.00020051	4.9574e-05	808.97	4.8646e-06	6.1021e-06	614.46	296.27	4.0206e-06	4.325e-06	208.15	71.943	109.85	45.708	6.3469e-06	32.839	0.0008353	0.0015538	0.00045093	794.27	1.7096e-05	3.774e-05	604.19	292.36	1.5365e-05	1.7644e-05	207.42	71.748	109.68	45.684	1.6942e-05	33.229	228.718	257.970	254.846	162.692	417.530	175.344	161.421	167.692	314.660	296.616	165.037	169.563	172.076	176.639	298.184	173.095	-8191	255	
43240.902	1	1	0	0	0.20865	0.29082	0.0091845	0.22926	0.083387	0.23608	0.033004	0.18775	0.1394	0.022103	0.07405	0.19839	0.15439	0.15002	0.16143	0.058366	-2.0333	-2.1	-2.3625	-2.3063	-1.9854	-2.525	-2.2854	-2.1854	-2.4188	-1.9104	-2.2438	-2.4437	-1.9396	-2.4938	-2.0771	-2.0958	271.819	357.794	393.927	472.648	388.234	393.693	493.105	395.307	312.674	402.025	441.422	454.682	458.812	337.380	452.899	221.236	0.00030075	0.00057172	6.9722e-05	808.97	5.2576e-06	5.2115e-06	620.96	298.76	2.4411e-06	2.9818e-06	210.26	72.921	110.9	46.033	3.4098e-06	33.005	0.0008412	0.0016445	0.00045034	795.16	1.4782e-05	3.7642e-05	608.74	294.51	1.5319e-05	1.7869e-05	210.48	72.739	110.71	46.116	1.6983e-05	33.36	226.436	231.654	243.986	162.706	327.681	462.869	161.653	167.543	338.367	282.103	165.058	169.496	171.935	176.607	300.822	173.066	-8191	255	
43240.973	1	1	0	0	0.11544	0.12223	0.22952	0.087146	0.086059	0.022367	0.24415	0.47059	0.076044	0.038805	0.22415	0.078184	0.37142	0.21259	0.13266	0.2474	-2.0021	-2.1208	-2.3312	-2.4104	-2.0333	-2.3229	-2.2687	-2	-2.2562	-2.2083	-2.3708	-2.4104	-2.1667	-2.3979	-2.3063	-2.075	399.014	202.964	176.762	508.352	353.906	384.397	421.434	450.966	239.818	209.126	497.037	269.359	480.697	490.123	288.471	468.593	0.00033608	0.00015088	0.00010486	812.57	2.5447e-06	9.9185e-06	627.04	299.47	2.6179e-06	2.2326e-06	211.32	72.763	110.52	46.021	5.8337e-06	32.883	0.00097427	0.0016309	0.00045569	798.79	1.4821e-05	4.5808e-05	612.69	295.93	1.5593e-05	1.745e-05	209.9	72.773	110.52	46.018	1.6503e-05	32.951	228.844	230.947	275.969	162.597	329.438	476.525	161.613	167.536	312.854	290.096	165.305	169.521	172.319	176.594	294.537	172.747	-8191	255	
43241.094	1	1	0	0	0.20542	0.17154	0.048672	0.26177	0.14698	0.040917	0.17253	0.29513	0.30615	0.046467	0.22889	0.22466	0.27142	0.11425	0.18292	0.06956	-2.0125	-2.125	-1.975	-2.3604	-1.9708	-2.3583	-2.3375	-2.0417	-2.5333	-2.1875	-2.0729	-2.5333	-2.0625	-2.4542	-2.3458	-2.0354	153.894	307.599	505.466	508.929	392.959	485.212	354.342	443.741	223.380	169.876	439.680	393.608	452.856	480.449	452.170	460.019	0.00030447	0.00048496	0.00010452	807.61	3.2253e-06	2.2091e-06	615.78	296.3	3.2912e-06	1.3269e-06	206.1	72.145	109.86	45.644	6.7433e-06	32.585	0.0016181	0.0016026	0.00044943	792.28	1.4622e-05	3.7129e-05	605.68	292.86	1.5787e-05	1.787e-05	207.28	71.82	109.86	45.724	1.6607e-05	32.553	231.276	279.681	239.522	162.738	267.303	186.563	161.425	167.582	321.084	344.558	165.338	169.851	171.986	176.379	280.591	173.100	-8191	255	
43241.188	1	1	0	0	0.19499	0.2181	0.024646	0.19253	0.13315	0.19212	0.16629	0.25394	0.2558	0.066913	0.17962	0.15941	0.27592	0.048615	0.14304	0.11522	-1.8229	-1.9083	-2.0792	-2.3875	-2.0479	-2.3917	-2.4125	-2.0187	-2.4208	-2.1437	-2.0646	-2.5083	-2.0854	-2.3583	-2.3354	-2.1	424.485	211.427	291.241	180.428	488.865	508.490	361.925	167.973	245.048	271.844	420.363	178.723	471.975	376.617	319.833	151.752	0.00029238	0.00031563	0.0001215	809.71	1.8242e-06	7.1046e-06	616.17	294.76	1.4842e-06	3.9741e-06	207.64	72.325	110.04	45.839	2.8632e-06	32.923	0.001533	0.0016082	0.00044641	792.8	1.4662e-05	4.5754e-05	604.21	292.23	1.5694e-05	1.7795e-05	206.21	71.976	109.84	45.745	1.6433e-05	32.775	241.746	182.950	232.069	162.724	320.499	154.846	161.504	167.615	346.388	319.062	165.221	169.322	172.044	176.362	309.800	172.862	-8191	255	
43241.285	1	1	0	0	0.12518	0.074233	0.18875	0.14345	0.35424	0.088974	0.31751	0.23342	0.25149	0.072501	0.34101	0.17611	0.17815	0.21337	0.21885	0.043914	-2.0333	-2.1708	-2.0687	-2.5104	-2.2188	-2.1271	-2.2833	-1.7792	-2.4562	-2.2833	-1.8792	-2.3833	-2.1729	-2.0417	-2.2771	-1.8625	277.183	350.166	182.223	464.366	217.206	350.352	166.102	494.776	412.259	379.986	159.298	345.437	471.841	164.910	237.604	443.119	0.0002831	0.00048337	0.00016744	808.9	2.8368e-06	3.9971e-06	617.16	297.64	3.8276e-06	3.2248e-06	210.22	73.3	110.59	46.184	2.5198e-06	33.313	0.0018344	0.0015999	0.00043785	793.36	1.5018e-05	3.7447e-05	606.76	293.83	1.6201e-05	1.8187e-05	207	73.399	110.36	46.18	1.5892e-05	33.184	244.320	253.414	249.479	162.764	272.723	182.213	161.561	167.841	311.217	273.599	165.518	169.235	172.091	176.820	314.652	172.892	-8191	255	
43241.383	1	1	0	0	0.32633	0.16996	0.11764	0.26925	0.1748	0.079649	0.24444	0.29731	0.27463	0.11574	0.129	0.37882	0.19088	0.27761	0.079046	0.11665	-1.8312	-2.1354	-1.8937	-2.4562	-2.1	-2.1208	-2.4313	-2.0687	-2.3875	-2.2687	-1.875	-2.3563	-2.0708	-2.1417	-2.3563	-2.0521	419.217	438.059	313.632	196.766	162.065	375.033	285.908	454.913	199.994	505.206	427.626	485.415	156.049	502.485	491.251	372.401	0.00026679	0.00054928	0.00012214	814.31	4.4193e-06	1.0809e-05	619.55	299.93	4.6974e-06	4.3849e-06	209.53	73.604	111.71	46.56	4.964e-06	33.274	0.0015754	0.0016351	0.00043694	798.1	1.4977e-05	4.5503e-05	611.27	295.98	1.5538e-05	1.7451e-05	208.42	73.765	111.38	46.531	1.5979e-05	33.295	236.982	235.647	258.366	162.919	301.779	190.324	161.595	167.509	302.203	282.677	165.416	169.356	172.104	176.370	326.518	172.796	-8191	255	
43241.504	1	1	0	0	0.077526	0.20935	0.16763	0.26062	0.14392	0.025916	0.23154	0.3748	0.2899	0.11875	0.065273	0.20914	0.091827	0.31725	0.22212	0.26299	-1.8438	-2.4771	-1.8625	-2.5271	-2.3312	-2.0771	-2.4021	-2.2062	-2.1375	-2.4917	-1.9813	-2.425	-2.3708	-1.9792	-2.5396	-2.1396	187.767	402.435	245.681	503.335	221.546	452.892	416.438	151.344	153.239	506.195	416.260	182.144	263.689	448.834	364.798	473.032	0.00026446	0.00039001	9.1983e-05	813.49	4.5974e-06	2.2875e-06	619.33	298.78	4.6999e-06	4.9253e-07	208.61	72.86	111.27	45.823	4.4276e-06	32.752	0.0018326	0.0015202	0.00042838	799.05	1.4437e-05	2.7307e-05	608.02	294.66	1.5253e-05	1.7272e-05	205.74	73.126	110.68	45.974	1.5193e-05	32.655	239.766	171.495	253.672	162.447	308.202	357.174	161.422	167.307	289.946	331.556	165.300	169.414	171.931	176.560	284.089	172.837	-8191	255	
43241.574	1	1	0	0	0.2249	0.2979	0.21566	0.18321	0.16291	0.094235	0.10187	0.19405	0.22297	0.0077036	0.076419	0.38469	0.16388	0.34954	0.10488	0.090881	-1.6708	-2.2146	-1.9979	-2.375	-2.3104	-1.9646	-2.4271	-2.2667	-1.9958	-2.4083	-2.1958	-2.0958	-2.2729	-1.9104	-2.5333	-2.2604	234.704	227.435	335.050	235.172	317.946	311.715	488.958	389.600	389.849	215.114	393.030	477.549	236.780	179.501	440.313	441.744	0.00027506	0.00035362	0.00010588	810.77	3.9112e-06	2.911e-06	613.98	297.07	2.7076e-06	8.261e-07	205.12	72.302	110.15	45.513	3.6383e-06	32.628	0.0014951	0.0014169	0.00040878	794.86	1.3927e-05	1.6163e-05	609.15	293.05	1.4452e-05	1.5782e-05	203.58	72.203	109.68	45.479	1.5554e-05	32.41	229.189	256.052	207.989	162.806	310.468	314.754	161.252	167.566	260.352	337.526	165.514	169.486	171.844	176.713	247.242	172.968	-8191	255	
43241.672	1	1	0	0	0.10835	0.15633	0.28591	0.13905	0.07675	0.098246	0.093716	0.27841	0.23358	0.078912	0.17253	0.33063	0.04514	0.15703	0.01309	0.1542	-1.8042	-2.2625	-2.0271	-2.225	-2.4313	-2.1958	-2.3042	-2.1771	-2.1312	-2.3354	-2.1396	-2.2792	-2.2188	-1.9417	-2.3937	-2.2812	254.933	352.979	167.823	428.461	325.616	425.650	361.742	485.813	154.622	250.312	282.491	213.415	236.729	259.478	240.142	360.357	0.00019108	0.0002999	0.00013784	808.08	2.9094e-06	3.2639e-06	611.15	294.91	4.0006e-06	3.4288e-06	205.21	71.331	108.47	45.147	5.6457e-06	32.006	0.0017789	0.0014348	0.00041415	790.97	1.3964e-05	1.6261e-05	604.38	291.14	1.4512e-05	1.6478e-05	202.28	71.613	108.32	45.034	1.55e-05	32.054	233.676	229.614	222.495	162.472	317.210	323.136	161.039	167.334	322.038	292.187	165.688	169.271	171.987	176.412	282.180	172.754	-8191	255	
43241.789	1	1	0	0	0.23347	0.15017	0.11492	0.12183	0.14356	0.12693	0.10636	0.14299	0.017198	0.15956	0.082568	0.13629	0.16265	0.13131	0.10147	0.1217	-1.6208	-2.4604	-2.0042	-2.1813	-2.1167	-1.9417	-2.4979	-2.2917	-2.0896	-2.3979	-2.1146	-1.9771	-2.2313	-1.9667	-2.2146	-2.2333	499.872	449.971	459.358	168.427	403.965	211.955	435.447	163.646	249.623	347.941	481.736	253.797	207.107	180.816	508.772	463.659	0.00025462	0.00032945	8.0958e-05	808.17	2.9432e-06	4.8835e-06	612.26	293.43	3.6711e-06	2.9477e-06	204.88	71.537	108.77	45.12	6.3976e-06	32.141	0.0011421	0.0019339	0.00040776	789.55	1.3159e-05	1.5956e-05	605.74	290.08	1.4011e-05	1.6212e-05	202.88	71.265	108.02	44.937	1.5139e-05	32.113	236.338	243.273	210.436	162.758	307.464	301.456	161.503	167.499	297.864	305.765	165.288	169.624	172.118	176.357	257.956	172.543	-8191	255	
43241.887	1	1	0	0	0.19852	0.14531	0.24956	0.22921	0.21307	0.32939	0.31969	0.19096	0.17246	0.24419	0.22735	0.096272	0.016143	0.21334	0.08516	0.16241	-1.5063	-2.2604	-2.1396	-2.1917	-2.2771	-2.0333	-2.4479	-2.4854	-2.0604	-2.2958	-2.1729	-2.1437	-2.4792	-2.1042	-2.1625	-2.3438	494.317	248.414	411.038	228.982	421.488	287.795	377.423	486.199	419.750	442.736	498.073	277.182	496.492	442.057	495.941	364.698	0.00028809	0.0003889	0.00010395	800.27	2.5325e-06	4.2245e-06	609.85	292.66	3.3008e-06	2.4754e-06	203.87	69.835	107.82	44.198	5.6238e-06	31.421	0.00077283	0.0036911	0.00041076	788.22	1.3252e-05	1.5904e-05	602.64	289.18	1.3966e-05	1.596e-05	200.99	70.373	107.07	44.189	1.4843e-05	31.34	225.167	218.428	251.193	162.603	285.645	286.943	161.254	167.591	304.376	298.956	165.431	169.466	172.030	176.676	292.721	172.510	-8191	255	
43241.980	1	1	0	0	0.11351	0.11069	0.050024	0.15462	0.13497	0.2193	0.27975	0.17732	0.36455	0.25373	0.12146	0.15212	0.28288	0.13695	0.051222	0.18621	-1.625	-2.3917	-2.0563	-1.9458	-2.3896	-2.0917	-2.2875	-2.3646	-1.8979	-2.35	-2.3	-2.0312	-2.6042	-2.15	-2.2458	-2.3583	168.434	399.257	263.156	435.196	149.882	374.527	501.060	381.006	151.483	191.852	288.737	172.655	487.387	275.674	208.291	481.312	0.00030447	0.00052353	0.00012577	796.12	3.7943e-06	8.7314e-07	600.02	289.29	3.2642e-06	4.4843e-06	199.65	68.901	106.73	43.62	1.6691e-06	31.226	0.00076335	0.0031178	0.00040335	781.99	1.3213e-05	1.623e-05	595.74	286.17	1.4577e-05	1.6286e-05	198.25	69.046	106.07	43.566	1.4999e-05	31.123	227.719	305.997	251.553	162.640	287.667	315.573	161.273	167.722	301.173	306.182	165.435	169.653	171.877	176.519	298.609	172.500	-8191	255	
43242.078	1	1	0	0	0.028754	0.044587	0.16169	0.058013	0.10415	0.20538	0.064661	0.19937	0.11097	0.11609	0.19007	0.18229	0.19744	0.24848	0.016713	0.21448	-1.4042	-2.3833	-2.2979	-1.9354	-2.4417	-2.0563	-2.1312	-2.3146	-1.9083	-2.1833	-2.1354	-2.3333	-2.5333	-2.35	-2.0792	-2.4437	296.115	334.155	424.503	189.128	458.647	434.004	217.958	459.977	361.368	392.058	248.689	282.028	453.788	429.830	195.462	500.082	0.00029266	0.00098927	9.1823e-05	795.53	3.2081e-06	1.3683e-06	606.17	290.4	3.9304e-06	5.4365e-06	201.16	70.008	107.51	43.827	5.3655e-06	31.468	0.00078363	0.0038151	0.00041736	781.73	1.352e-05	1.6588e-05	595.56	286.13	1.4672e-05	1.6566e-05	199.92	69.329	107.25	43.768	1.5379e-05	31.359	229.085	333.352	262.307	162.587	282.094	244.102	161.459	167.460	310.034	284.274	165.673	169.257	171.832	176.604	288.983	173.020	-8191	255	
43242.172	1	1	0	0	0.067392	0.087887	0.20028	0.19725	0.15431	0.12126	0.075449	0.27917	0.30489	0.24685	0.17271	0.11445	0.13409	0.051622	0.21016	0.061348	-1.5646	-2.1604	-2.3104	-2.0333	-2.4333	-2.0896	-2.1896	-2.6792	-2.1813	-2.1021	-2.2396	-1.9667	-2.4521	-2.1583	-2.0708	-2.5021	285.474	365.583	218.236	368.108	307.385	356.898	392.229	479.214	264.689	227.533	300.083	314.993	482.211	466.365	254.994	298.901	0.00031123	0.00052572	0.00011496	797.69	2.7116e-06	3.2333e-06	608.04	292.01	2.7179e-06	2.8171e-06	205.86	71.011	108.31	44.45	4.169e-06	31.771	0.00080546	0.0031662	0.00042392	782.13	1.3969e-05	1.6483e-05	602.65	288.42	1.5357e-05	1.7193e-05	202.58	70.489	108.49	44.493	1.5777e-05	31.863	224.043	345.019	222.812	162.607	292.870	269.602	161.610	167.625	320.994	282.664	165.504	169.469	171.921	176.334	261.703	172.736	-8191	255	
43242.270	1	1	0	0	0.16176	0.14554	0.35512	0.24128	0.09372	0.27532	0.22363	0.10781	0.26696	0.067249	0.20731	0.10259	0.028909	0.19354	0.20234	0.12084	-1.4792	-2.0021	-2.2896	-2.0167	-2.3854	-2.2396	-2.1813	-2.4417	-2.0396	-2.1583	-2.5396	-2.0646	-2.2208	-2.3271	-2.1437	-2.4208	227.997	433.654	234.532	417.899	359.924	422.870	472.419	326.669	172.689	262.596	461.605	506.935	297.603	156.902	315.325	400.838	0.00030706	0.00072375	0.00013185	803.48	3.1972e-06	4.2647e-06	612.14	294.47	4.0729e-06	3.7147e-06	205.4	71.987	109.69	44.98	3.0988e-06	32.034	0.00082376	0.0039223	0.00041728	788.75	1.4429e-05	1.6627e-05	603.83	292	1.4808e-05	1.7507e-05	204.75	71.436	110.21	44.994	1.5914e-05	32.044	223.189	388.734	224.208	162.619	311.109	297.992	161.762	167.557	297.513	311.884	165.315	169.690	171.931	176.471	287.540	172.965	-8191	255	
43242.363	1	1	0	0	0.1811	0.066321	0.22647	0.34363	0.083073	0.23433	0.025978	0.11166	0.10474	0.094512	0.12818	0.19676	0.25955	0.35328	0.14561	0.12042	-1.8521	-1.9813	-2.4292	-2.1333	-2.3292	-2.3833	-1.9771	-2.5187	-2.2417	-2.1792	-2.375	-1.9521	-2.3104	-2.2896	-1.9104	-2.4458	470.579	190.889	434.788	443.188	344.798	204.506	314.875	431.799	274.378	360.242	278.754	482.018	160.612	468.345	468.429	180.423	0.00031097	0.00052876	0.00016268	803.97	1.8485e-06	3.7334e-06	608.2	294.1	3.661e-06	5.1434e-06	205.18	71.068	109.47	44.774	3.6389e-06	32.054	0.00083503	0.003162	0.00041386	789.36	1.4396e-05	1.6865e-05	597.25	292.58	1.5197e-05	1.6941e-05	202.77	70.893	109.47	44.79	1.5713e-05	31.97	229.203	338.524	229.302	162.815	275.378	288.895	161.628	167.560	333.169	303.220	165.474	169.520	172.219	176.688	313.565	173.055	-8191	255	
43242.461	1	1	0	0	0.39872	0.098253	0.17968	0.26815	0.14589	0.33627	0.094956	0.24649	0.17308	0.17933	0.37835	0.27442	0.33033	0.12804	0.092679	0.10168	-1.6146	-2.0521	-2.4521	-2.2292	-2.0354	-2.3937	-1.9042	-2.4667	-1.9688	-2.2	-2.4667	-1.9604	-2.3187	-2.3771	-1.9646	-2.3771	314.169	200.982	265.073	411.919	497.343	156.530	253.062	453.488	474.428	435.648	502.996	242.010	452.881	424.487	181.720	378.934	0.00029338	0.0004662	8.3748e-05	802.27	4.8717e-06	3.9093e-06	610.66	293.34	4.8166e-06	2.9141e-06	205.22	71.076	109.35	44.971	5.0121e-06	32.203	0.00083444	0.0038661	0.00041731	786.1	1.4337e-05	1.6723e-05	597.79	291.31	1.5285e-05	1.6823e-05	202.97	70.739	109.83	45.082	1.5811e-05	32.298	227.441	347.782	242.141	162.802	271.931	291.456	161.617	167.481	303.763	304.415	165.363	169.348	172.328	176.292	298.478	172.696	-8191	255	
43242.582	1	1	0	0	0.15462	0.0064942	0.11737	0.19028	0.1746	0.12784	0.10639	0.16046	0.19239	0.15025	0.17708	0.21144	0.12508	0.32114	0.12413	0.066161	-1.8167	-2.0208	-2.2896	-2.2417	-2.2292	-2.3417	-2.0875	-2.2583	-2.2292	-1.9271	-2.5354	-2.1688	-2.1854	-2.4396	-1.9271	-2.3042	424.158	368.338	403.611	169.625	338.922	336.716	448.417	241.381	388.422	194.615	387.635	455.894	437.517	466.319	493.525	437.124	0.00028882	0.00069366	0.00011341	802.59	2.4582e-06	4.0843e-06	610.2	296.3	3.8502e-06	5.1774e-06	207.87	72.662	110.76	45.686	2.4909e-06	32.771	0.00082415	0.0022221	0.00062848	788.79	1.403e-05	1.7201e-05	601.02	294.53	1.465e-05	1.7208e-05	204.92	71.928	110.75	45.681	1.5954e-05	32.875	229.760	334.842	218.100	162.721	314.110	315.034	161.361	167.529	305.862	278.576	165.507	169.761	172.272	176.374	252.547	172.503	-8191	255	
43242.676	1	1	0	0	0.14783	0.31005	0.17388	0.15974	0.1392	0.096341	0.31817	0.077801	0.20375	0.099673	0.11294	0.13746	0.20807	0.37525	0.11801	0.063144	-1.9062	-1.8125	-2.4042	-2.2396	-1.9667	-2.4542	-1.9729	-2.3292	-2.3	-1.7563	-2.4813	-2.0375	-2.0125	-2.4042	-1.9646	-2.3146	412.160	162.602	217.490	419.976	169.796	299.981	438.836	388.087	374.842	275.634	240.373	450.062	460.830	460.920	368.522	271.108	0.00033689	0.00033384	0.00017061	808.63	2.795e-06	3.2846e-06	618.11	299.07	2.2491e-06	3.8076e-06	210.33	73.056	111.96	46.167	3.3943e-06	33.296	0.00084276	0.001539	0.0011146	795.76	1.4579e-05	1.7243e-05	608.31	296.92	1.4758e-05	1.7422e-05	207.53	72.885	112.25	46.17	1.6553e-05	33.241	227.689	242.608	390.752	162.617	284.842	313.437	161.319	167.505	270.289	275.409	165.235	169.601	172.120	176.783	293.047	172.570	-8191	255	
43242.773	1	1	0	0	0.094082	0.030247	0.17995	0.19405	0.31697	0.13835	0.19746	0.19856	0.11072	0.08166	0.12859	0.05514	0.093951	0.23425	0.28705	0.12276	-1.8479	-1.9396	-2.5	-2.3167	-2.2375	-2.5292	-2.2417	-2.35	-2.3187	-2.0771	-2.4646	-2.2896	-2.0896	-2.3417	-2.15	-2.1771	481.209	397.799	488.274	420.557	427.341	387.307	425.778	488.480	505.061	342.175	421.371	502.084	160.229	319.937	270.665	308.190	0.00030337	0.00035614	2.4581e-05	814.01	1.1747e-06	4.5496e-06	621.12	297.81	3.5941e-06	3.095e-06	208.36	72.506	110.92	45.755	4.6254e-06	32.956	0.00082912	0.0015209	0.00090675	797.77	1.4087e-05	1.7435e-05	607.84	297.18	1.4912e-05	1.7288e-05	205.91	72.285	110.93	45.937	1.5912e-05	32.73	229.294	234.165	392.535	162.879	317.980	308.999	161.240	167.394	296.172	299.749	165.976	169.694	171.833	176.517	312.385	172.564	-8191	255	
43242.867	1	1	0	0	0.067571	0.2327	0.16121	0.18836	0.13309	0.18313	0.13165	0.059266	0.070323	0.053955	0.31281	0.15841	0.11098	0.20317	0.32608	0.088772	-1.8438	-1.8667	-2.2917	-2.2812	-1.9062	-2.4208	-2.2396	-2.0771	-2.5167	-1.7667	-2.3333	-2.3854	-1.95	-2.5833	-2.0729	-2.325	366.868	297.461	308.114	342.837	179.372	452.179	330.417	358.349	205.665	166.958	479.453	373.456	317.403	371.231	415.890	193.668	0.00030321	0.00018425	0.00017567	810.31	3.2784e-06	3.0158e-06	613.22	298.29	2.8158e-06	4.1908e-06	208	72.795	110.76	45.91	3.757e-06	32.946	0.00080857	0.0015352	0.0010841	794.17	1.4097e-05	1.7621e-05	603.23	296.05	1.5307e-05	1.733e-05	206.13	72.307	110.49	46.225	1.6035e-05	32.859	225.057	242.326	461.137	162.611	318.200	330.646	161.165	167.503	298.899	287.805	165.301	169.306	172.094	176.388	253.719	172.583	-8191	255	
43242.965	1	1	0	0	0.17375	0.1404	0.20302	0.14113	0.15914	0.072524	0.10054	0.22372	0.14206	0.040749	0.17138	0.2635	0.10345	0.16869	0.094008	0.20692	-1.8208	-2.1188	-2.2458	-2.4042	-2.0625	-2.4146	-2.2229	-2.2354	-2.3958	-2.1146	-2.1979	-2.3979	-2.2167	-2.4958	-2.2521	-2.0542	159.077	432.939	421.142	371.488	346.565	407.278	213.264	442.183	376.369	409.265	496.059	451.593	438.426	183.106	407.074	373.609	0.00032228	0.00030201	0.00011892	810.07	3.1641e-06	5.1346e-06	618.13	298.93	5.094e-06	3.44e-06	210.28	72.952	111.43	46.157	3.4918e-06	33.2	0.00082345	0.0015221	0.00089635	794.8	1.4405e-05	1.7326e-05	606.75	296.85	1.515e-05	1.6525e-05	207.02	72.733	110.93	46.289	1.5455e-05	33.1	229.230	188.992	447.692	162.682	346.899	316.804	161.874	167.425	318.749	272.224	165.833	169.645	172.230	176.566	253.975	172.858	-8191	255	
43243.086	1	1	0	0	0.08392	0.066725	0.18467	0.21032	0.16121	0.11891	0.13737	0.10873	0.1905	0.10413	0.20864	0.1501	0.089023	0.28764	0.025625	0.16577	-2.0021	-1.9583	-2.1396	-2.3875	-2.0479	-2.45	-2.2542	-2.0979	-2.4229	-2.0896	-2.1542	-2.4729	-2.125	-2.3604	-2.1833	-2.075	288.811	292.886	268.729	486.429	447.878	387.715	392.378	415.221	197.343	326.515	336.064	181.746	480.886	481.075	157.298	417.797	0.00032303	0.00050911	0.00012115	815.82	3.0871e-06	3.6597e-06	624.9	299.94	7.2265e-06	5.7014e-06	210.74	73.921	112.35	46.581	2.3712e-06	33.426	0.00082477	0.0015299	0.0011059	801.17	1.4075e-05	1.7036e-05	611.45	297.71	2.3517e-05	1.6877e-05	209.15	73.334	111.95	46.83	1.5172e-05	33.307	229.329	215.426	461.178	162.592	302.665	311.077	161.367	167.544	274.099	300.957	165.324	169.549	172.005	176.269	265.240	172.631	-8191	255	
43243.184	1	1	0	0	0.12283	0.12044	0.17695	0.20569	0.19378	0.061628	0.091421	0.28154	0.15127	0.16796	0.20823	0.36314	0.087585	0.17076	0.17793	0.06743	-1.8229	-2.1	-2.05	-2.6375	-2.2062	-2.3208	-2.1396	-2.0312	-2.3521	-2.1708	-2.0875	-2.3229	-2.2125	-2.3167	-2.3458	-1.7396	152.256	178.747	301.567	204.616	251.483	198.389	225.540	495.255	425.127	430.742	375.340	394.863	479.011	449.376	393.862	171.308	0.00032509	0.0004171	0.00016735	817.03	1.8463e-06	5.4534e-06	622.77	300	1.2042e-05	3.6469e-06	209.77	72.923	111.26	46.068	3.9344e-06	32.917	0.00081692	0.001487	0.00088431	802.31	1.3841e-05	1.6493e-05	611.06	297.41	3.7507e-05	1.5701e-05	207.06	72.529	111.12	46.295	1.4865e-05	32.994	233.997	233.231	430.718	162.966	305.271	329.462	161.246	167.443	273.777	295.857	165.603	169.270	172.406	176.645	291.296	172.271	-8191	255	
43243.277	1	1	0	0	0.12521	0.12319	0.055282	0.034521	0.11044	0.03765	0.069515	0.35443	0.29861	0.1694	0.043397	0.097351	0.22439	0.18629	0.31124	0.23423	-1.9354	-2.2062	-2.0563	-2.3625	-2.1604	-2.1792	-2.4729	-1.9521	-2.3354	-2.3187	-2.05	-2.4167	-2.1729	-2.2604	-2.3583	-2.0792	165.179	293.712	340.397	501.550	253.816	371.486	297.927	180.659	155.511	324.896	327.593	479.749	171.338	420.980	463.503	434.491	0.00031073	0.00041165	6.8635e-05	804.06	2.9994e-06	4.0672e-06	615.12	298.33	8.7386e-06	5.0697e-06	207.04	71.993	110.46	45.696	3.3696e-06	32.608	0.00079777	0.0014355	0.0010099	791.04	1.3543e-05	1.5846e-05	601.34	293.82	3.0135e-05	1.613e-05	204.75	71.609	110.06	45.965	1.4703e-05	32.615	230.264	219.780	372.513	162.551	331.980	322.373	161.550	167.805	297.120	319.139	165.368	169.239	172.076	176.564	288.445	172.932	-8191	255	
43243.375	1	1	0	0	0.081352	0.15713	0.21217	0.22123	0.061652	0.10379	0.059805	0.15076	0.08833	0.25388	0.042727	0.11988	0.10061	0.40043	0.17041	0.28975	-1.8958	-2.2479	-2.05	-2.5625	-2.1208	-2.2604	-2.5979	-2.1146	-2.2333	-2.1958	-1.8917	-2.4479	-2.2104	-2.2458	-2.3271	-2.0875	217.446	257.382	417.200	296.112	332.029	235.830	442.554	290.259	289.497	410.245	414.767	426.833	380.176	442.502	501.705	374.628	0.00034683	0.00027772	7.1588e-05	803.64	3.8319e-06	3.6036e-06	609.03	296.05	1.0742e-05	5.9175e-06	207.49	71.648	110.01	45.299	4.393e-06	32.339	0.00083095	0.001427	0.00054109	791.38	1.3632e-05	1.5753e-05	599.62	292.57	3.7419e-05	1.5914e-05	204.5	71.538	109.63	45.512	1.5245e-05	32.39	233.459	236.508	296.357	162.652	278.111	305.330	161.537	167.578	289.476	288.185	165.029	169.292	171.940	176.365	277.209	172.807	-8191	255	
43243.469	1	1	0	0	0.22456	0.0472	0.071266	0.23135	0.2243	0.046019	0.1094	0.17025	0.23013	0.072492	0.053801	0.18813	0.12397	0.12462	0.17693	0.24603	-1.8771	-2.2188	-1.9979	-2.5563	-1.9771	-2.1167	-2.3625	-2.175	-2.1354	-2.2708	-2.0292	-2.3146	-2.2979	-2.3354	-2.2667	-2.1271	366.598	489.981	434.150	464.797	448.515	367.883	403.147	164.875	205.567	242.768	444.721	457.140	240.846	460.189	495.821	175.027	0.00031411	0.00027649	0.00012599	805.43	2.8472e-06	3.9702e-06	607.68	296.76	7.9148e-06	3.9073e-06	207.33	72.541	110.19	45.36	4.5194e-06	32.809	0.00080484	0.0014392	0.00041359	794.76	1.3927e-05	1.6942e-05	600.54	292.31	3.0392e-05	1.6435e-05	205.4	71.878	109.49	45.631	1.5505e-05	32.719	226.966	222.634	207.580	162.598	266.617	318.035	161.705	167.587	296.068	317.084	165.370	169.542	171.813	176.817	324.649	172.898	-8191	255	
43243.566	1	1	0	0	0.24061	0.32457	0.16764	0.36769	0.021227	0.20715	0.088745	0.38928	0.20115	0.05867	0.14211	0.24222	0.21389	0.1644	0.23185	0.18396	-1.6083	-2.4271	-1.9604	-2.3937	-2.2125	-1.9937	-2.4833	-2.2646	-2.3083	-2.5208	-2.3333	-2.4313	-2.2687	-2.1083	-2.625	-2.3125	260.415	240.424	499.680	461.598	454.603	322.891	279.939	457.765	442.564	477.346	309.377	357.773	164.668	379.553	456.983	374.368	0.0003238	0.00028362	0.00016186	805.68	4.1065e-06	5.9076e-06	617.75	296.52	1.0013e-05	3.7576e-06	209.56	72.697	110.57	45.5	4.226e-06	32.863	0.00081816	0.0015021	0.00042028	794.8	1.4192e-05	1.7595e-05	606.97	293.68	3.843e-05	1.6517e-05	207.36	72.636	110.31	45.669	2.5387e-05	32.83	225.896	241.401	227.719	162.858	274.442	295.088	161.599	167.604	307.527	308.960	165.707	169.729	172.125	176.805	276.459	172.867	-8191	255	
43243.660	1	1	0	0	0.069535	0.3097	0.22408	0.42557	0.2006	0.22653	0.25181	0.21213	0.25203	0.34107	0.14538	0.14751	0.12611	0.035231	0.088503	0.21899	-1.7833	-2.2917	-1.9646	-2.2771	-2.3708	-1.9292	-2.5292	-2.2896	-2.2396	-2.5083	-2.25	-2.0208	-2.325	-2.0646	-2.3625	-2.1	338.108	150.740	277.302	487.701	365.894	234.742	445.544	172.016	156.589	356.399	383.269	237.608	494.092	379.152	509.514	156.688	0.00032795	0.00051167	5.9393e-05	802.93	3.5881e-06	4.5589e-06	611.99	295.6	8.3408e-06	6.4557e-06	207.32	72.336	110.17	45.444	6.3507e-06	32.767	0.00082112	0.0015023	0.0004203	792.23	1.3989e-05	1.7167e-05	601.09	292.38	3.0363e-05	1.6745e-05	205	72.051	109.87	45.521	3.9306e-05	32.8	228.570	239.067	233.222	162.667	312.260	288.281	161.731	167.563	304.516	297.745	165.649	169.633	171.870	176.728	400.275	173.035	-8191	255	
43243.758	1	1	0	0	0.14148	0.28746	0.1048	0.12716	0.045627	0.087899	0.24049	0.28904	0.37832	0.16818	0.15051	0.1985	0.10212	0.1934	0.069837	0.17754	-1.5917	-2.4771	-1.8979	-2.3604	-2.225	-2.1729	-2.4896	-2.1083	-2.0146	-2.3063	-2.0333	-2.2833	-2.4792	-1.9896	-2.4979	-2.2812	346.480	474.725	376.776	427.342	184.408	211.676	422.984	400.804	170.385	227.660	431.235	490.189	325.508	248.665	369.892	278.558	0.00030414	0.00023728	7.5849e-05	800.4	1.585e-06	4.7891e-06	612.65	296.5	7.6755e-06	8.1264e-06	207.61	72.472	110.56	45.578	3.2348e-06	32.968	0.00079404	0.0015326	0.00041627	789.48	1.3772e-05	1.7001e-05	601.49	292.71	3.2978e-05	1.7882e-05	205.66	71.987	110.15	45.721	3.228e-05	32.885	228.108	243.714	233.292	162.634	305.421	276.058	161.441	167.580	320.356	279.752	165.458	169.824	172.336	176.570	399.249	172.853	-8191	255	
43243.852	1	1	0	0	0.28403	0.17465	0.21651	0.1082	0.032657	0.29772	0.14797	0.19845	0.11334	0.29478	0.13583	0.16499	0.16225	0.16807	0.10041	0.040948	-1.6125	-2.3417	-2.0687	-2.3042	-2.3688	-2.0708	-2.3312	-2.3771	-1.8833	-2.3563	-2.1729	-2.0354	-2.6125	-2.0438	-2.1271	-2.2542	478.683	157.799	354.107	504.121	338.392	211.547	261.390	479.250	509.273	276.120	508.771	181.539	451.856	150.649	410.569	163.296	0.00031192	0.00040875	0.00010602	804.2	3.3823e-06	3.0276e-06	614.31	298.42	5.1236e-06	1.0186e-05	209.61	73.179	111.69	46.317	5.2224e-06	33.342	0.00080775	0.0015089	0.0004157	795.17	1.4011e-05	1.7535e-05	605.39	294.59	1.839e-05	2.9248e-05	207.74	72.967	111.06	46.199	3.9174e-05	33.298	228.575	256.082	254.421	162.495	286.268	308.517	161.638	167.533	321.970	271.495	165.370	169.288	171.998	176.532	415.446	173.142	-8191	255	
43243.973	1	1	0	0	0.22784	0.064407	0.13022	0.1433	0.09159	0.217	0.23259	0.1053	0.088523	0.18442	0.05509	0.061532	0.31046	0.22067	0.15762	0.081654	-1.5042	-2.4021	-2.0062	-2.0958	-2.4875	-2.2	-2.425	-2.5479	-1.8438	-2.2646	-2.0958	-2.1396	-2.5458	-2.0792	-2.1	-2.3083	505.119	215.799	165.331	179.696	417.001	284.475	493.808	505.093	386.932	364.944	349.563	271.265	505.395	465.236	164.088	474.307	0.00032547	0.00029361	0.00012523	810.69	2.4434e-06	5.3307e-06	621.68	300.71	5.1858e-06	1.2622e-05	212.09	74.202	112.27	46.403	2.8405e-06	33.667	0.0008205	0.0015645	0.00042672	800.3	1.4081e-05	1.7477e-05	610.86	296.52	1.6045e-05	4.5133e-05	209.43	73.832	111.93	46.435	3.3041e-05	33.766	228.851	192.427	222.716	162.712	308.024	297.473	161.633	167.540	312.330	314.350	165.307	169.836	172.184	176.506	447.294	172.725	-8191	255	
43244.070	1	1	0	0	0.23473	0.10052	0.067141	0.327	0.097234	0.26059	0.051012	0.096949	0.082153	0.084703	0.01883	0.13186	0.13697	0.18472	0.25616	0.10352	-1.5625	-2.325	-2.0167	-2.0958	-2.3958	-2.1604	-2.1854	-2.4771	-1.7938	-2.3896	-2.2875	-2.1021	-2.4333	-2.1979	-2.0729	-2.5958	229.785	385.398	456.212	445.768	303.189	383.218	449.845	362.392	443.252	459.737	332.167	410.077	493.236	478.605	508.367	242.279	0.00031882	0.00031093	0.00013258	806.81	9.357e-06	4.2971e-06	616.27	298.04	3.0571e-06	1.1343e-05	209.69	73.212	111.48	46.345	4.1978e-06	33.482	0.000875	0.0015615	0.00044665	795.42	1.6418e-05	1.7795e-05	606.69	294.45	1.5748e-05	3.5922e-05	207.44	73.138	111.18	46.386	3.9513e-05	33.409	226.798	271.894	254.834	162.820	242.348	324.694	161.581	167.732	271.699	315.313	165.787	169.787	172.060	176.473	461.975	173.089	-8191	255	
43244.164	1	1	0	0	0.36226	0.13564	0.10464	0.28086	0.23401	0.21922	0.088441	0.061281	0.18981	0.16287	0.16972	0.23891	0.080359	0.07387	0.19987	0.18995	-1.5167	-2.2896	-1.9438	-2.1771	-2.4833	-2.0771	-2.25	-2.4646	-2.1896	-2.4417	-2.3667	-1.9417	-2.5396	-2.2417	-2.0458	-2.3583	492.727	369.295	410.265	197.539	200.090	478.731	443.598	491.946	172.905	463.423	377.457	468.137	453.729	235.426	425.487	494.316	0.00033144	0.000407	8.6426e-05	807.34	5.9304e-06	3.5547e-06	612.16	298.2	3.7575e-06	1.5328e-05	209.35	73.299	111.6	46.392	4.5991e-06	33.729	0.00081257	0.0014764	0.00040527	791.45	2.4279e-05	1.641e-05	604.35	294.84	1.5014e-05	4.408e-05	207.75	73.149	111.43	46.336	3.2786e-05	33.501	226.890	260.523	241.003	162.699	264.588	299.379	161.495	167.684	300.327	325.790	165.683	169.584	172.132	176.562	451.662	173.069	-8191	255	
43244.262	1	1	0	0	0.14028	0.13973	0.10148	0.17686	0.13797	0.2665	0.15099	0.055197	0.041984	0.19555	0.16218	0.26275	0.08949	0.059358	0.075269	0.175	-1.3438	-2.075	-2.3187	-2.0438	-2.3063	-2.1063	-2.0958	-2.5208	-2.0271	-2.3417	-2.425	-2.1167	-2.2917	-2.3396	-2.1021	-2.3625	385.893	427.723	463.394	503.085	436.673	356.610	382.076	394.884	182.158	426.453	474.938	296.537	397.399	217.892	199.173	394.044	0.00032278	0.00024287	0.00013344	811.44	1.0144e-05	3.6211e-06	619.34	300.09	2.327e-06	7.6842e-06	211.53	74.33	112.33	46.586	4.6158e-06	33.634	0.00084272	0.0015057	0.0004172	795.77	3.6168e-05	1.7168e-05	610.4	296.78	1.5445e-05	3.5724e-05	209.15	73.865	112.32	46.536	3.4052e-05	33.664	229.562	189.947	221.647	162.415	257.216	300.744	161.604	167.953	305.468	320.798	165.699	169.476	172.212	176.775	376.078	172.721	-8191	255	
43244.359	1	1	0	0	0.16529	0.19113	0.28509	0.078693	0.083992	0.1678	0.21965	0.35359	0.1183	0.054429	0.16336	0.27511	0.17755	0.10851	0.098891	0.24717	-1.7021	-2.275	-2.3542	-2.1521	-2.4729	-2.3187	-2.1417	-2.4896	-2.125	-2.2938	-2.4167	-1.8208	-2.1937	-2.3083	-1.8917	-2.4208	503.970	380.212	291.051	506.721	434.899	387.609	421.866	451.581	488.382	170.812	255.185	480.902	232.516	215.932	284.151	412.076	0.00035121	0.00037339	9.4273e-05	812.59	8.5106e-06	3.5959e-06	626.86	300.09	3.061e-06	1.4338e-05	212.53	74.693	112.83	46.824	3.8479e-06	33.678	0.00085527	0.0015842	0.00043697	798.73	2.9671e-05	1.7848e-05	612.17	297.74	1.5581e-05	4.5611e-05	210.51	74.258	112.61	46.702	1.8733e-05	34.006	226.132	248.261	277.871	162.725	274.545	304.294	161.571	167.703	292.687	325.071	165.388	169.442	172.214	176.408	422.786	172.772	-8191	255	
43244.453	1	1	0	0	0.10268	0.02128	0.072859	0.12312	0.083819	0.18242	0.23072	0.46398	0.10501	0.25552	0.10699	0.16921	0.54263	0.22221	0.31008	0.069488	-1.7125	-2.1583	-2.45	-2.2562	-2.3667	-2.3812	-1.9792	-2.3458	-2.0187	-1.9646	-2.4062	-1.9688	-2.3083	-2.3771	-1.9229	-2.3333	163.909	304.096	185.763	173.643	501.407	225.014	415.160	466.246	351.915	471.142	501.284	382.786	185.271	192.057	460.911	488.100	0.00031945	0.00033069	0.00010846	814.56	9.4619e-06	4.0473e-06	626.11	302.3	3.6464e-06	9.3078e-06	212.31	74.95	113.02	46.617	4.1938e-06	33.544	0.00083448	0.0016255	0.00044908	800.73	3.6805e-05	1.7183e-05	615.41	299.16	1.5261e-05	3.6254e-05	210.54	74.17	112.69	46.577	1.6247e-05	33.924	233.675	232.420	222.555	162.773	255.780	273.945	161.654	167.853	281.572	338.919	165.500	169.653	171.851	176.665	246.762	173.078	-8191	255	
43244.574	1	1	0	0	0.26989	0.30062	0.28495	0.34128	0.16061	0.12027	0.12884	0.28714	0.24805	0.19287	0.14894	0.3494	0.13317	0.4297	0.15814	0.28569	-1.7292	-2.0792	-2.3104	-2.0042	-2.1146	-2.4625	-2.1063	-2.3667	-2.2146	-1.9542	-2.25	-2.2021	-2.1063	-2.4208	-1.8208	-2.4021	252.738	208.846	334.084	485.777	258.389	308.217	505.114	483.688	425.198	155.348	195.023	188.151	265.869	191.108	362.572	289.907	0.00032133	0.00035628	0.00010515	812.82	7.4952e-06	3.0514e-06	618.15	299.96	2.8428e-06	8.1963e-06	211.04	73.873	112.19	46.338	1.759e-06	33.18	0.0008353	0.0015806	0.00043991	798.79	2.9251e-05	1.7195e-05	607.08	296.98	1.5234e-05	3.5828e-05	208.89	73.506	111.97	46.346	1.6115e-05	33.622	226.624	233.028	213.786	162.686	277.215	287.067	161.489	167.673	307.335	356.484	165.328	169.356	172.138	176.505	309.032	172.732	-8191	255	
43244.668	1	1	0	0	0.13881	0.20477	0.090793	0.068965	0.071995	0.15503	0.1822	0.09735	0.11492	0.17933	0.20996	0.22171	0.083589	0.46354	0.055883	0.15608	-1.6875	-1.9312	-2.55	-2.1625	-2.0771	-2.2271	-2.0312	-2.4083	-2.2188	-1.9688	-2.1937	-2.0854	-2.1917	-2.4042	-1.9792	-2.4292	368.796	188.779	387.608	155.392	318.458	199.366	430.029	491.281	488.290	250.786	414.272	399.484	336.656	419.182	389.756	391.292	0.00032184	0.00030506	0.00010616	807.14	9.0237e-06	3.0446e-06	615.77	299.85	4.4373e-06	8.4343e-06	209.5	72.949	112.47	46.509	4.3323e-06	33.356	0.00083277	0.0015954	0.00043429	792.23	3.5991e-05	1.7744e-05	604.81	295.35	1.5213e-05	1.8824e-05	209.41	73.125	111.55	46.381	1.6466e-05	33.971	227.607	247.002	283.946	162.564	267.956	290.508	161.558	167.689	291.652	354.169	165.691	169.725	172.079	176.646	281.935	172.848	-8191	255	
43244.766	1	1	0	0	0.10252	0.1775	0.18562	0.069882	0.09032	0.14367	0.14544	0.17476	0.11271	0.17302	0.1104	0.16691	0.10475	0.12521	0.083783	0.1349	-1.8146	-1.8229	-2.4875	-2.1875	-1.9354	-2.3833	-1.9979	-2.3417	-2.4292	-1.95	-2.3375	-2.1458	-2.0542	-2.525	-2.1188	-2.3708	464.078	374.282	223.553	490.529	250.708	227.055	487.742	411.016	273.438	168.145	352.737	503.436	274.890	490.100	301.333	170.461	0.00032816	0.0004459	0.00011882	807.87	9.2143e-06	5.2687e-06	618.88	298.05	4.3888e-06	2.696e-06	212.87	73.887	112.23	46.964	2.6618e-06	33.879	0.00080799	0.0015968	0.00043071	793.49	2.9826e-05	1.779e-05	607.11	295.97	1.5137e-05	1.7459e-05	211.9	73.752	112.27	46.807	1.5786e-05	34.113	227.155	244.362	240.432	162.887	277.146	314.842	161.604	167.645	317.250	293.774	165.854	169.408	172.225	176.801	299.783	173.304	-8191	255	
43244.863	1	1	0	0	0.18355	0.21108	0.041791	0.16543	0.12386	0.15169	0.046719	0.16796	0.27362	0.42299	0.072693	0.19579	0.49418	0.028295	0.099514	0.21708	-1.9208	-1.8292	-2.2625	-2.2042	-2.0792	-2.3625	-2.0438	-2.1021	-2.2729	-1.9333	-2.4271	-2.1792	-2.1104	-2.55	-2.0896	-2.15	364.534	302.694	410.367	457.335	196.695	188.697	281.129	478.864	432.821	391.247	421.761	375.074	490.314	200.915	452.075	212.211	0.00033937	0.00017408	0.0001068	814.4	6.6513e-06	1.5764e-05	622.36	302.4	3.8582e-06	3.3816e-06	212.84	74.575	112.94	46.913	4.305e-06	33.809	0.00083899	0.0015397	0.00042442	797.92	2.8871e-05	2.3166e-05	611.36	297.89	1.5367e-05	1.7143e-05	211.91	73.985	112.4	46.882	1.5291e-05	34.276	230.450	219.277	219.828	162.724	308.723	255.323	161.614	167.699	302.967	305.888	165.879	169.563	172.116	176.865	304.376	172.588	-8191	255	
43244.957	1	1	0	0	0.15402	0.21958	0.050282	0.087531	0.14675	0.24471	0.024096	0.11483	0.23023	0.2405	0.21968	0.1251	0.049671	0.13014	0.15227	0.23294	-1.9333	-1.7854	-2.2417	-2.3167	-1.9208	-2.4208	-2.225	-2.2229	-2.4562	-2.1583	-2.45	-2.1292	-2.0812	-2.5021	-2.1396	-2.0646	491.502	201.671	398.209	168.357	162.087	423.790	188.807	451.794	435.943	385.035	386.545	303.402	157.724	198.454	374.295	351.384	0.00032488	0.00020246	0.00018319	806.89	4.2047e-06	9.2991e-06	613.49	298.9	3.782e-06	3.8621e-06	209.19	73.259	112.26	46.24	4.5375e-06	33.127	0.00082341	0.0015198	0.00041637	791.99	1.4479e-05	3.2042e-05	603.14	295.17	1.4409e-05	1.6554e-05	209.09	72.754	111.19	46.3	1.5218e-05	33.388	227.144	204.506	265.506	162.582	329.769	254.948	161.421	167.557	300.262	285.896	165.779	169.763	172.295	176.701	303.719	172.876	-8191	255	
43245.055	1	1	0	0	0.21727	0.44173	0.070397	0.24454	0.030184	0.22362	0.17191	0.1514	0.09731	0.028733	0.12695	0.38722	0.17472	0.15515	0.1248	0.22739	-1.8479	-2.1292	-2.1208	-2.3083	-1.9375	-2.4167	-2.3	-2.0646	-2.4	-2.0521	-2.2917	-2.4021	-1.9688	-2.5458	-2.1375	-2.0792	245.914	485.380	346.248	417.980	447.079	484.287	220.320	420.640	311.511	297.315	345.243	476.925	227.469	485.147	369.010	230.933	0.00031783	0.00050189	4.424e-05	801.71	2.6497e-06	1.4682e-05	608.79	297.05	4.0725e-06	4.3918e-06	206.46	71.93	109.71	45.414	3.1901e-06	32.478	0.0008027	0.0014842	0.00040006	786.24	1.3877e-05	4.3477e-05	598.61	292.83	1.4796e-05	1.5889e-05	206.36	71.642	109.22	45.395	1.4999e-05	32.762	226.413	262.301	203.683	162.655	325.820	279.586	161.501	167.641	298.223	331.035	165.385	169.977	172.091	176.682	295.839	173.149	-8191	255	
43245.148	1	1	0	0	0.15977	0.24027	0.34288	0.30063	0.23122	0.15314	0.11844	0.28728	0.29052	0.23638	0.18763	0.10332	0.28857	0.24164	0.13509	0.28371	-1.925	-1.9312	-2.1604	-2.5	-1.9021	-2.4021	-2.2833	-1.9375	-2.4167	-2.1292	-2.1521	-2.2333	-1.9354	-2.0938	-2.3063	-1.9833	466.661	206.287	282.658	481.277	426.112	333.885	346.662	174.360	369.303	177.578	345.694	483.942	357.245	244.737	283.821	411.299	0.0003723	0.00019763	9.2486e-05	801.71	3.9882e-06	1.0947e-05	605.21	293.24	5.1401e-06	4.3478e-06	204.9	71.547	108.87	44.536	4.7493e-06	32.029	0.0010332	0.001417	0.00039864	785.53	1.3573e-05	3.4033e-05	595.91	290.23	1.4263e-05	1.5841e-05	205.66	70.936	108.25	44.595	1.4906e-05	31.97	216.699	257.078	215.191	162.638	319.121	285.091	161.769	167.433	292.724	274.321	165.773	169.698	171.900	176.653	302.157	172.669	-8191	255	
43245.270	1	1	0	0	0.078693	0.48614	0.14927	0.224	0.29779	0.14904	0.12439	0.18961	0.19887	0.078455	0.1032	0.11965	0.23908	0.12824	0.34903	0.1733	-1.9229	-2.1375	-1.9729	-2.5563	-2	-2.2313	-2.4813	-1.9375	-2.4208	-2.2104	-2.0417	-2.5062	-2.1021	-2.3292	-2.3208	-1.9708	178.655	279.647	230.703	466.666	256.111	297.572	162.087	178.244	497.464	283.966	336.813	469.178	339.782	497.571	414.847	463.449	0.00035303	0.00044324	0.00011716	799.34	4.0065e-06	1.5518e-05	608.52	292.05	3.0128e-06	3.4378e-06	205.37	71.202	107.98	44.298	5.2437e-06	31.993	0.0013641	0.0013447	0.000413	784.77	1.3566e-05	4.2499e-05	597.01	289.38	1.3908e-05	1.5653e-05	204.71	70.692	107.55	44.324	1.5011e-05	31.989	222.045	260.012	254.374	162.954	311.192	293.570	161.478	167.439	291.129	304.729	165.535	169.414	171.892	176.449	277.083	172.895	-8191	255	
43245.344	1	1	0	0	0.085538	0.011754	0.1458	0.063793	0.10414	0.25683	0.27576	0.1489	0.1796	0.19612	0.10585	0.13215	0.45322	0.084169	0.11168	0.24434	-1.875	-2.1125	-1.9042	-2.5667	-1.9917	-2.1167	-2.4104	-2.075	-2.4833	-2.2625	-1.8854	-2.3375	-2.1604	-2.2271	-2.3063	-2.2979	159.857	332.917	245.039	441.980	341.276	353.697	226.945	200.609	490.437	490.844	224.028	475.845	488.110	204.548	498.169	358.281	0.00033123	0.00046104	0.00013801	799.55	3.4632e-06	1.0686e-05	601.83	290.89	3.413e-06	6.3689e-06	202.04	70.055	106.7	43.683	3.6503e-06	31.162	0.0017523	0.0013917	0.00040327	783.57	1.3414e-05	3.4533e-05	591.7	287.04	1.3922e-05	1.607e-05	201.79	69.763	106.33	43.559	1.5005e-05	31.171	209.835	250.601	235.629	162.531	297.243	289.058	161.531	167.655	319.580	289.962	165.560	169.554	171.893	176.435	293.758	172.928	-8191	255	
43245.438	1	1	0	0	0.14973	0.29511	0.34617	0.13848	0.17995	0.15288	0.21872	0.37174	0.28968	0.080407	0.15326	0.28673	0.10276	0.015794	0.22704	0.17896	-1.8958	-2.3083	-1.825	-2.5812	-1.9333	-2.2396	-2.5208	-1.95	-2.2271	-2.4479	-1.9292	-2.2167	-2.0625	-2	-2.3354	-2.1958	294.669	320.667	454.436	381.886	363.275	328.583	399.313	445.477	421.822	195.004	399.691	160.505	472.033	427.545	202.903	230.076	0.00030195	0.0002691	0.00013275	789.58	2.7694e-06	1.3821e-05	597.58	288.1	4.4067e-06	2.4032e-06	200.04	68.968	105.86	43.236	3.7574e-06	31.342	0.0014312	0.0014328	0.00043082	772.92	1.3549e-05	4.2536e-05	585.72	284.11	1.4588e-05	1.6709e-05	198.67	69.421	105.39	43.245	1.5095e-05	31.217	217.854	199.310	214.620	162.747	310.062	300.320	161.367	167.364	290.469	312.098	165.470	169.769	171.681	176.268	295.883	172.761	-8191	255	
43245.535	1	1	0	0	0.1011	0.097292	0.096192	0.089388	0.022995	0.24227	0.16381	0.24222	0.043879	0.059843	0.094993	0.047417	0.14418	0.11943	0.25254	0.12813	-1.6708	-2.1	-1.8667	-2.55	-2.05	-2.2104	-2.7854	-2.0708	-2.0708	-2.2917	-2.0417	-2.4125	-2.0854	-2.0792	-2.2938	-1.8896	362.176	167.373	441.500	151.854	362.570	385.175	467.879	168.943	362.000	266.907	416.244	495.391	372.141	393.272	407.956	163.283	0.00036267	0.00014512	0.0001156	788.24	3.3263e-06	1.0072e-05	594.8	287.93	3.3523e-06	3.972e-06	201.98	70.224	106.88	43.987	2.136e-06	31.865	0.001727	0.0014662	0.00041413	773.92	1.3766e-05	3.471e-05	586.94	285.42	1.4604e-05	1.6658e-05	200.34	70.678	106.58	43.919	1.4958e-05	31.751	209.648	239.823	254.805	162.817	301.657	309.922	161.366	167.634	285.425	272.992	165.246	169.372	172.161	176.365	303.608	172.887	-8191	255	
43245.652	1	1	0	0	0.2079	0.1068	0.17809	0.14369	0.16058	0.050579	0.1742	0.087777	0.0070192	0.087226	0.074496	0.24477	0.16717	0.19751	0.18107	0.12589	-1.7687	-2.3083	-1.8792	-2.4562	-2.1521	-2.0625	-2.3104	-2.1146	-2.1958	-2.475	-2.0604	-2.2542	-2.4188	-2.1604	-2.2229	-2.1333	362.484	441.301	472.939	425.785	505.284	224.311	487.222	444.396	275.250	167.022	353.750	366.039	487.282	430.100	235.320	339.122	0.00034905	0.00039706	6.5761e-05	791	3.5115e-06	9.9624e-06	601.35	291.99	3.6082e-06	3.9027e-06	205.01	71.141	108.36	44.626	3.7139e-06	32.43	0.0014767	0.0014964	0.00041073	777.87	1.3877e-05	3.047e-05	593.66	288.22	1.4954e-05	1.6734e-05	203.04	71.432	108	44.695	1.523e-05	32.389	223.384	201.347	248.488	162.540	263.543	338.701	161.666	167.880	289.036	297.142	165.398	169.333	171.988	176.887	264.469	172.611	-8191	255	
43245.750	1	1	0	0	0.15567	0.081586	0.18466	0.021795	0.20589	0.17758	0.24619	0.23217	0.081363	0.083907	0.23973	0.031803	0.26352	0.094252	0.17483	0.083709	-1.5312	-2.3187	-2.1125	-2.4	-2.1937	-1.775	-2.6646	-2.2375	-2.1479	-2.2917	-2.0521	-2.2479	-2.3271	-2.1292	-2.5583	-2.3021	285.024	507.764	183.592	171.729	359.062	253.210	427.827	359.855	266.581	453.931	370.829	183.674	446.873	228.886	440.572	257.987	0.00037842	0.00048815	7.0384e-05	793.77	3.2043e-06	3.7496e-06	605.66	292.73	3.6489e-06	3.9758e-06	206.79	71.517	108.5	44.945	3.8486e-06	32.45	0.0017951	0.0015706	0.00041306	780.7	1.394e-05	1.6785e-05	600.27	290.11	1.5381e-05	1.6771e-05	204.73	72.519	108.48	45.032	1.526e-05	32.495	216.935	236.444	171.114	162.883	298.318	302.430	161.795	167.697	293.806	286.127	165.345	169.751	172.062	176.567	272.876	172.742	-8191	255	
43245.848	1	1	0	0	0.20914	0.16138	0.034667	0.090005	0.3008	0.16617	0.11733	0.42287	0.03865	0.16612	0.21849	0.12079	0.035271	0.11959	0.075933	0.047465	-1.6458	-2.2646	-1.9146	-2.3438	-2.3625	-2.0792	-2.3146	-2.2771	-2.0042	-2.4542	-2.1521	-2.1625	-2.3021	-1.9875	-2.2562	-2.2646	360.376	465.835	465.744	294.104	152.317	401.329	369.458	435.549	286.277	456.721	177.626	467.699	444.686	374.043	244.973	386.201	0.00035074	0.00044756	8.5277e-05	790.79	1.6686e-06	5.1376e-06	601.42	293.28	4.2801e-06	3.2112e-06	204.21	71.168	108.91	44.824	3.7389e-06	32.705	0.0014822	0.0014716	0.00041314	779.04	1.3876e-05	1.6988e-05	598.09	289.5	1.5377e-05	1.6573e-05	202.91	71.764	108.3	44.947	1.5614e-05	32.563	220.415	266.838	233.326	162.763	303.823	308.695	161.553	167.701	287.348	291.578	165.894	169.507	172.158	176.570	287.504	173.063	-8191	255	
43245.969	1	1	0	0	0.011395	0.18039	0.13013	0.19147	0.23657	0.16387	0.24176	0.049629	0.098645	0.14698	0.13121	0.12709	0.2688	0.18179	0.083123	0.17069	-1.5042	-2.3521	-2.1375	-2.2687	-2.4542	-2.025	-2.4521	-2.3208	-1.9542	-2.4188	-2.2146	-2.2875	-2.3708	-2.0958	-2.2875	-2.4271	257.732	373.258	157.041	456.543	332.949	170.331	416.988	239.688	222.461	436.661	469.153	508.053	283.234	461.430	335.299	436.218	0.00031132	0.0011912	8.8911e-05	791.91	4.3329e-06	4.5862e-06	601.69	293.15	4.601e-06	3.5757e-06	206.57	71.941	109.07	45.255	5.0728e-06	32.708	0.0012415	0.0023428	0.00041522	778.68	1.4074e-05	1.7067e-05	597.43	290.07	1.5135e-05	1.6965e-05	204.18	72.403	108.89	45.289	1.5292e-05	32.804	221.321	176.720	257.002	162.713	293.546	282.949	161.726	167.598	299.881	289.634	165.620	169.365	172.245	176.543	295.491	172.504	-8191	255	
43246.039	1	1	0	0	0.066388	0.10834	0.39912	0.25552	0.15075	0.1354	0.083972	0.14579	0.13699	0.12916	0.12778	0.043851	0.12273	0.31964	0.13082	0.08198	-1.3625	-2.2125	-2.0229	-2.0563	-2.5396	-1.8896	-2.3208	-2.5208	-1.8458	-2.4833	-2.3688	-2.0125	-2.5187	-2.1292	-2.1458	-2.3042	445.616	447.873	483.873	176.177	153.853	174.134	235.950	430.759	427.759	214.059	262.325	407.671	454.526	489.309	164.566	452.566	0.00033183	0.00080355	8.3615e-05	801.48	3.9054e-06	3.0243e-06	610.6	297.71	3.715e-06	1.3524e-06	210.18	72.856	111.27	45.846	3.1747e-06	33.28	0.00081813	0.0030725	0.00041613	785.32	1.3729e-05	1.6812e-05	605.22	293.89	1.484e-05	1.6402e-05	207.14	73.276	110.46	45.757	1.6091e-05	33.308	228.331	198.011	203.759	162.676	301.857	333.618	161.797	167.735	303.648	380.976	165.673	169.796	172.269	176.617	286.028	173.052	-8191	255	
43246.133	1	1	0	0	0.23723	0.059801	0.21029	0.0845	0.064124	0.17327	0.38847	0.10469	0.28844	0.21057	0.10482	0.32689	0.33592	0.201	0.009768	0.21379	-1.4021	-2.3438	-2.2625	-2.1354	-2.5521	-2.1167	-2.1583	-2.3479	-1.9896	-2.4042	-2.3063	-2.1604	-2.4208	-2.2812	-2.1937	-2.4542	440.984	192.798	273.651	194.167	485.749	380.033	156.720	490.692	437.414	476.288	192.239	176.176	416.288	267.423	191.446	446.810	0.0003158	0.0010176	7.8347e-05	805.1	1.7166e-06	4.314e-06	618.29	298.82	3.9224e-06	4.6929e-06	211.12	74.316	111.01	46.043	6.107e-06	33.569	0.00080709	0.0038807	0.00041578	791.94	1.3934e-05	1.6642e-05	610.46	295.74	1.5166e-05	1.6895e-05	209.05	73.899	111.43	46.165	1.5798e-05	33.585	226.837	201.690	261.570	162.767	276.054	308.175	161.743	167.892	299.273	293.536	165.328	169.189	172.000	176.476	291.129	172.890	-8191	255	
43246.254	1	1	0	0	0.19676	0.096435	0.093738	0.14705	0.12716	0.10605	0.055378	0.0064034	0.25017	0.29624	0.14593	0.11698	0.21114	0.18082	0.13941	0.28752	-1.5479	-2.3042	-2.3	-2.0396	-2.3354	-2.3312	-2.1063	-2.5187	-2.0583	-2.2521	-2.3625	-2.0708	-2.3771	-2.3208	-2.0812	-2.4813	301.456	381.190	206.970	460.094	286.293	375.483	308.545	298.426	497.052	295.111	330.537	196.584	426.118	450.048	387.150	493.454	0.00034267	0.00089889	6.9361e-05	804.04	3.1832e-06	2.2573e-06	609.28	295.35	4.225e-06	2.8708e-06	208.6	72.787	110.17	45.824	4.2375e-06	33.138	0.0008121	0.0031518	0.00043269	788.96	1.4e-05	1.6794e-05	605.25	292.62	1.4564e-05	1.7162e-05	206.32	72.651	110.74	45.817	1.5561e-05	33.178	227.857	187.943	228.882	162.689	265.032	339.034	161.528	167.678	302.945	301.066	165.452	169.557	172.254	176.687	258.471	172.824	-8191	255	
43246.352	1	1	0	0	0.21017	0.032725	0.26313	0.13643	0.043975	0.17407	0.15262	0.27918	0.17868	0.13245	0.26135	0.31159	0.043343	0.28125	0.12342	0.26725	-1.5146	-2.1604	-2.3979	-2.0208	-2.2125	-2.2792	-2.1521	-2.6458	-2.0417	-2.1583	-2.4125	-2.0271	-2.4375	-2.2521	-2.0854	-2.4771	311.300	340.260	272.467	446.887	363.617	359.349	180.087	493.470	385.342	152.073	155.389	324.559	416.981	443.730	495.181	429.624	0.00032692	0.0010778	0.00014986	801.18	1.8405e-06	3.7479e-06	610.95	296.86	3.1819e-06	2.8478e-06	206.86	72.565	110.19	45.798	4.7554e-06	33.12	0.00080402	0.0038732	0.00042686	786.45	1.393e-05	1.6626e-05	604.67	293.69	1.4764e-05	1.6912e-05	205.93	72.294	110.98	45.736	1.5717e-05	33.184	226.875	196.107	241.761	162.690	294.478	332.255	161.369	167.760	278.142	296.730	165.647	169.254	172.092	176.461	304.598	172.694	-8191	255	
43246.445	1	1	0	0	0.1267	0.1761	0.18836	0.35551	0.088958	0.25992	0.20448	0.23765	0.072352	0.10996	0.1645	0.17708	0.086817	0.24392	0.24492	0.25184	-1.6958	-2.075	-2.4	-2.1125	-2.2458	-2.0917	-1.9625	-2.2833	-2.0667	-1.8875	-2.4125	-1.9854	-2.2646	-2.275	-1.8813	-2.4042	432.131	336.469	327.259	487.397	508.224	439.559	363.635	476.185	323.527	170.075	370.055	385.001	496.552	196.283	318.068	444.773	0.00031631	0.00068999	9.1315e-05	804.23	2.2436e-06	3.2012e-06	611.6	298.79	5.1565e-06	4.6977e-06	208.41	73.212	110.74	45.661	3.5291e-06	33.386	0.00080865	0.003191	0.00042817	787.87	1.4391e-05	1.722e-05	602.82	295	1.4594e-05	1.7263e-05	207.26	72.922	111.05	45.792	1.5657e-05	33.424	226.611	196.059	184.539	162.662	288.329	316.980	161.407	167.925	278.877	326.731	165.575	169.539	172.184	176.469	306.885	173.320	-8191	255	
43246.566	1	1	0	0	0.10748	0.14597	0.29426	0.25762	0.28515	0.13652	0.16086	0.07504	0.29016	0.31227	0.11068	0.20856	0.20438	0.18696	0.077204	0.24971	-1.7333	-1.9542	-2.2	-2.0958	-2.2333	-2.4188	-2.0542	-2.4125	-2.1354	-2.0875	-2.5229	-1.9708	-2.1208	-2.3333	-1.6896	-2.5167	308.217	470.761	420.114	154.567	166.222	382.518	229.248	208.032	238.289	265.591	278.554	378.950	149.788	494.313	402.754	426.508	0.00032932	0.0011803	9.2456e-05	807.69	5.3307e-06	4.3017e-06	616.25	299.73	4.4898e-06	5.2917e-06	211.19	73.987	111.66	46.355	3.8796e-06	33.841	0.0008264	0.0038741	0.00042959	792.5	1.4286e-05	1.7197e-05	606.69	297.42	1.4908e-05	1.776e-05	209.1	73.598	112.39	46.275	1.5929e-05	33.819	225.615	215.365	235.259	162.773	320.934	309.984	161.700	167.612	291.625	305.216	165.865	169.620	172.127	176.762	280.259	173.015	-8191	255	
43246.637	1	1	0	0	0.32055	0.23243	0.1041	0.12031	0.26366	0.1136	0.2262	0.11672	0.22177	0.32575	0.18581	0.21081	0.2734	0.35179	0.095736	0.049311	-1.8021	-1.9521	-2.5125	-2.0062	-2.0792	-2.3417	-1.9458	-2.35	-2.3896	-2.0104	-2.5979	-1.9917	-2.2333	-2.5292	-1.9833	-2.3625	394.354	269.515	503.273	392.600	318.925	384.705	435.738	260.084	222.567	185.366	447.703	218.053	454.106	483.766	508.973	457.313	0.00032284	0.00085522	0.00016858	807.11	2.9986e-06	2.6026e-06	615.05	298.49	1.9678e-06	3.6703e-06	208.89	73.379	111.05	46.269	4.2532e-06	33.481	0.00084256	0.0031363	0.00042111	793	1.4345e-05	1.7468e-05	604.63	297.03	1.5675e-05	1.722e-05	207.45	73.041	111.22	46.111	1.5787e-05	33.507	230.511	253.013	235.015	162.583	270.781	335.483	161.658	167.760	333.383	278.875	165.419	169.656	172.067	176.307	294.302	172.797	-8191	255	
43246.734	1	1	0	0	0.18418	0.071229	0.13676	0.22983	0.084735	0.06116	0.16223	0.20114	0.16012	0.038003	0.26169	0.16496	0.23485	0.31698	0.13446	0.16696	-1.8896	-2.0792	-2.3812	-2.3604	-2.1979	-2.4417	-1.9875	-2.1125	-2.2021	-2.0229	-2.3729	-2.1146	-2.1104	-2.3792	-2.1396	-2.2146	342.400	484.464	425.093	494.863	427.805	221.629	237.389	414.518	166.850	413.116	276.838	493.793	181.779	163.953	297.077	192.362	0.00031446	0.00083359	0.00021468	800.44	3.4298e-06	5.9377e-06	610.06	295.46	2.3971e-06	3.9893e-06	210.2	73.422	111.08	45.945	4.0901e-06	33.363	0.00083452	0.0023291	0.00076917	787.76	1.4265e-05	1.7328e-05	601.17	295.04	1.4826e-05	1.7143e-05	207.31	72.893	111.5	45.992	1.5382e-05	33.443	227.207	242.445	210.891	162.677	316.689	324.656	162.030	167.596	319.075	245.781	165.429	169.605	172.235	176.657	289.520	172.916	-8191	255	
43246.828	1	1	0	0	0.33932	0.16799	0.19381	0.071755	0.11202	0.10117	0.15384	0.22853	0.1764	0.108	0.026683	0.33044	0.31832	0.13016	0.44392	0.10302	-1.7208	-1.9104	-2.3479	-2.3083	-2.1813	-2.4979	-1.9896	-2.2354	-2.1417	-1.975	-2.3792	-2.2562	-2.1	-2.5062	-1.8438	-2.2167	435.230	378.140	170.195	405.711	305.222	228.256	428.214	442.347	235.974	283.174	295.425	473.632	494.960	350.390	224.400	458.457	0.00035086	0.00041506	0.00028998	805.48	3.8693e-06	4.151e-06	609	297.95	3.8203e-06	2.6802e-06	208.82	72.995	111.03	46.036	4.8174e-06	33.696	0.00084757	0.0015045	0.00086436	789.62	1.4512e-05	1.6447e-05	600.33	296.13	1.4662e-05	1.6642e-05	207.13	72.812	111.15	46.026	1.5625e-05	33.677	226.247	232.626	227.242	162.691	320.222	329.370	161.339	167.898	290.707	285.079	165.486	169.529	172.030	176.438	286.248	172.801	-8191	255	
43246.949	1	1	0	0	0.12637	0.12528	0.071056	0.18074	0.059942	0.23448	0.27428	0.2696	0.093263	0.11488	0.079846	0.11064	0.26096	0.20479	0.27375	0.32996	-2.0479	-1.925	-2.2354	-2.1979	-2.0417	-2.4729	-1.9958	-2.1125	-2.4229	-2.0229	-2.2583	-2.2271	-1.9604	-2.3792	-2.2208	-2.0354	467.164	263.361	160.714	156.453	325.758	345.776	436.866	486.925	421.248	187.294	423.995	192.127	448.325	468.633	217.386	238.915	0.00030462	0.00050136	0.00034476	805.62	5.6206e-06	2.4336e-06	615.7	298.63	3.412e-06	4.397e-06	212.82	74.55	111.43	46.421	2.8943e-06	34.16	0.00082854	0.001538	0.0010974	790.76	1.4659e-05	1.7256e-05	604.65	297.3	1.5215e-05	1.6591e-05	209.49	73.702	111.67	46.633	1.6221e-05	34.173	224.942	288.626	226.411	162.754	292.064	276.231	161.602	167.481	286.197	293.204	165.837	169.336	172.163	176.396	289.249	172.964	-8191	255	
43247.047	1	1	0	0	0.23401	0.25538	0.33312	0.22093	0.11697	0.1132	0.13397	0.12704	0.17709	0.10273	0.18248	0.12084	0.088508	0.183	0.19501	0.10628	-1.8854	-1.8854	-2.1771	-2.6042	-1.9167	-2.3312	-1.9958	-2.2021	-2.3333	-1.9917	-2.3917	-2.1271	-1.9562	-2.4604	-2.2208	-2.0208	201.573	156.237	407.006	452.803	259.194	237.119	209.598	184.903	454.392	309.769	194.677	372.449	482.432	355.974	226.619	420.681	0.00036309	0.00061267	0.00026184	810.99	5.4833e-06	3.6289e-06	619.5	299.71	3.3161e-06	4.9748e-06	212.4	74.242	111.11	46.605	4.6622e-06	34.028	0.00084194	0.0015032	0.00090114	794.89	1.4479e-05	1.7261e-05	608.15	298.76	1.5261e-05	1.7275e-05	209.69	73.891	111.24	46.669	1.5609e-05	34.001	228.013	243.956	244.575	162.837	316.951	265.279	161.856	167.702	284.634	279.867	165.534	169.741	172.124	176.655	275.065	172.552	-8191	255	
43247.145	1	1	0	0	0.099716	0.1644	0.18194	0.14736	0.18065	0.10748	0.23102	0.23229	0.17721	0.070519	0.50604	0.23594	0.063115	0.20049	0.12357	0.12483	-1.9396	-1.8125	-2.2438	-2.5292	-1.9333	-2.3604	-2.2833	-1.9062	-2.2875	-2.0438	-2.1042	-2.3771	-1.9688	-2.5042	-2.2667	-1.9937	339.372	186.599	507.127	489.663	227.366	223.200	410.855	368.337	411.219	159.046	399.575	161.690	220.652	456.591	385.443	502.392	0.0003368	0.00057536	0.0003036	807.49	2.2611e-06	2.381e-06	612.9	296.99	5.1471e-06	5.1473e-06	209.86	73.22	110.69	46.293	2.8921e-06	33.737	0.0008102	0.0014963	0.0010961	791.43	1.3951e-05	1.6733e-05	602.61	295.61	1.4737e-05	1.6865e-05	207.38	72.817	110.4	46.536	1.6289e-05	33.816	226.251	217.967	236.589	162.312	298.722	334.047	161.596	167.588	326.721	279.359	165.193	169.696	172.114	176.451	329.604	173.037	-8191	255	
43247.238	1	1	0	0	0.28526	0.18803	0.18236	0.055092	0.14411	0.15008	0.11763	0.18406	0.067429	0.10764	0.29725	0.23443	0.12313	0.08612	0.10886	0.14305	-1.8667	-2.0542	-2.1354	-2.5042	-1.9792	-2.1542	-2.5583	-2.1625	-2.3292	-2.1292	-2.1271	-2.4958	-1.95	-2.4667	-2.2562	-1.9333	324.872	420.338	301.531	415.454	313.094	406.386	447.064	388.801	427.847	397.053	445.432	205.218	162.693	374.865	201.299	347.278	0.0003095	0.00055431	0.00023269	801.72	2.7741e-06	2.7449e-06	613.66	296.64	8.9886e-07	4.6686e-06	209	73.421	111.06	46.055	5.2634e-06	34.056	0.00080185	0.0015517	0.00090068	788.01	1.3778e-05	1.7058e-05	601.63	294	2.8043e-05	1.6643e-05	206.46	72.908	110.54	46.359	1.5975e-05	33.986	227.551	231.955	246.005	162.664	327.905	280.966	161.534	167.559	276.578	289.959	165.736	169.491	171.958	176.218	303.149	172.765	-8191	255	
#DATA ENDS
