BOXY.EXE: ISS Imagent and Oximeter Data Acquisition Program Version 0.80
Ascii Record File

#ACQ INFORMATION
2  Detector Channels 
16  External MUX Channels 
1  Auxiliary Channels 
5000  Waveform (CCF) Frequency (Hz)
1  Waveforms Skipped 
30  Waveforms Averaged 
1  Cycles Averaged 
16  Acquisitions per Waveform 
10.0806  Updata Rate (Hz) 

#FILE INFORMATION
TRUE -- External MUX Channel results are PARSED.
FALSE -- AC DC and Phase are NOT grouped.
TRUE -- Companion Program Settings File CREATED.
FALSE -- AC data not excluded
FALSE -- DC data not excluded
FALSE -- Phase data not excluded
FALSE -- Auxillary Chn. data not excluded
Tab delimiters

#CALIBRATION STATE
TRUE -- Waveform Calibration Values APPLIED.


#AUX CALIBRATION VALUES
Val Type	aux-1	

Term	1.0000e+00	
Factor	0.0000e+00	


#WF CALIBRATION VALUES
A = Detector Channel
Val Type	A-AC1	A-AC2	A-AC3	A-AC4	A-AC5	A-AC6	A-AC7	A-AC8	A-AC9	A-AC10	A-AC11	A-AC12	A-AC13	A-AC14	A-AC15	A-AC16	A-DC1	A-DC2	A-DC3	A-DC4	A-DC5	A-DC6	A-DC7	A-DC8	A-DC9	A-DC10	A-DC11	A-DC12	A-DC13	A-DC14	A-DC15	A-DC16	A-Ph1	A-Ph2	A-Ph3	A-Ph4	A-Ph5	A-Ph6	A-Ph7	A-Ph8	A-Ph9	A-Ph10	A-Ph11	A-Ph12	A-Ph13	A-Ph14	A-Ph15	A-Ph16	

Term	0.00000e+00	0.00000e+00	0.00000e+00	0.00000e+00	0.00000e+00	0.00000e+00	0.00000e+00	0.00000e+00	0.00000e+00	0.00000e+00	0.00000e+00	0.00000e+00	0.00000e+00	0.00000e+00	0.00000e+00	0.00000e+00	0.00000e+00	0.00000e+00	0.00000e+00	0.00000e+00	0.00000e+00	0.00000e+00	0.00000e+00	0.00000e+00	0.00000e+00	0.00000e+00	0.00000e+00	0.00000e+00	0.00000e+00	0.00000e+00	0.00000e+00	0.00000e+00	0.00000e+00	0.00000e+00	0.00000e+00	0.00000e+00	0.00000e+00	0.00000e+00	0.00000e+00	0.00000e+00	0.00000e+00	0.00000e+00	0.00000e+00	0.00000e+00	0.00000e+00	0.00000e+00	0.00000e+00	0.00000e+00	
Factor	1.00000e+00	1.00000e+00	1.00000e+00	1.00000e+00	1.00000e+00	1.00000e+00	1.00000e+00	1.00000e+00	1.00000e+00	1.00000e+00	1.00000e+00	1.00000e+00	1.00000e+00	1.00000e+00	1.00000e+00	1.00000e+00	1.00000e+00	1.00000e+00	1.00000e+00	1.00000e+00	1.00000e+00	1.00000e+00	1.00000e+00	1.00000e+00	1.00000e+00	1.00000e+00	1.00000e+00	1.00000e+00	1.00000e+00	1.00000e+00	1.00000e+00	1.00000e+00	X	X	X	X	X	X	X	X	X	X	X	X	X	X	X	X	

B = Detector Channel
Val Type	B-AC1	B-AC2	B-AC3	B-AC4	B-AC5	B-AC6	B-AC7	B-AC8	B-AC9	B-AC10	B-AC11	B-AC12	B-AC13	B-AC14	B-AC15	B-AC16	B-DC1	B-DC2	B-DC3	B-DC4	B-DC5	B-DC6	B-DC7	B-DC8	B-DC9	B-DC10	B-DC11	B-DC12	B-DC13	B-DC14	B-DC15	B-DC16	B-Ph1	B-Ph2	B-Ph3	B-Ph4	B-Ph5	B-Ph6	B-Ph7	B-Ph8	B-Ph9	B-Ph10	B-Ph11	B-Ph12	B-Ph13	B-Ph14	B-Ph15	B-Ph16	

Term	0.00000e+00	0.00000e+00	0.00000e+00	0.00000e+00	0.00000e+00	0.00000e+00	0.00000e+00	0.00000e+00	0.00000e+00	0.00000e+00	0.00000e+00	0.00000e+00	0.00000e+00	0.00000e+00	0.00000e+00	0.00000e+00	0.00000e+00	0.00000e+00	0.00000e+00	0.00000e+00	0.00000e+00	0.00000e+00	0.00000e+00	0.00000e+00	0.00000e+00	0.00000e+00	0.00000e+00	0.00000e+00	0.00000e+00	0.00000e+00	0.00000e+00	0.00000e+00	-9.29970e+01	-1.31392e+02	-1.23755e+02	-1.81317e+02	-5.33619e+01	-6.48182e+01	-1.56949e+02	-1.62015e+02	-5.50886e+01	-6.87642e+01	-1.71959e+02	-1.70284e+02	-1.79234e+02	-1.77030e+02	-6.24173e+01	-1.49880e+02	
Factor	2.02525e-05	2.04927e-04	5.47415e-05	1.73521e-01	1.61479e-06	2.15799e-06	2.08365e-01	7.47178e-02	1.46152e-06	2.09857e-06	1.03330e-01	3.53755e-02	3.43424e-02	1.15752e-02	1.82063e-06	1.65684e-02	1.86485e-05	4.58517e-05	1.28386e-05	8.54534e-02	4.13224e-07	5.17627e-07	9.68864e-02	3.69658e-02	4.35134e-07	5.18470e-07	4.97831e-02	1.71989e-02	1.73445e-02	5.78419e-03	4.58961e-07	8.02566e-03	X	X	X	X	X	X	X	X	X	X	X	X	X	X	X	X	



#DISTANCE SETTINGS
A = Detector Channel
A-1	A-2	A-3	A-4	A-5	A-6	A-7	A-8	A-9	A-10	A-11	A-12	A-13	A-14	A-15	A-16	

2.5000e+00	3.0000e+00	2.5000e+00	3.0000e+00	2.0000e+00	3.0000e+00	1.5000e+00	3.0000e+00	3.0000e+00	3.0000e+00	3.0000e+00	3.0000e+00	3.0000e+00	3.0000e+00	1.5000e+00	3.0000e+00	

B = Detector Channel
B-1	B-2	B-3	B-4	B-5	B-6	B-7	B-8	B-9	B-10	B-11	B-12	B-13	B-14	B-15	B-16	

1.0000e+01	1.0000e+01	1.0000e+01	1.4400e+00	1.0000e+01	1.0000e+01	1.5100e+00	1.9400e+00	1.0000e+01	1.0000e+01	1.9900e+00	2.4900e+00	2.4100e+00	2.9000e+00	1.0000e+01	2.9800e+00	




#DATA BEGINS
time	group	step	mark	flag	A-AC1	A-AC2	A-AC3	A-AC4	A-AC5	A-AC6	A-AC7	A-AC8	A-AC9	A-AC10	A-AC11	A-AC12	A-AC13	A-AC14	A-AC15	A-AC16	A-DC1	A-DC2	A-DC3	A-DC4	A-DC5	A-DC6	A-DC7	A-DC8	A-DC9	A-DC10	A-DC11	A-DC12	A-DC13	A-DC14	A-DC15	A-DC16	A-Ph1	A-Ph2	A-Ph3	A-Ph4	A-Ph5	A-Ph6	A-Ph7	A-Ph8	A-Ph9	A-Ph10	A-Ph11	A-Ph12	A-Ph13	A-Ph14	A-Ph15	A-Ph16	B-AC1	B-AC2	B-AC3	B-AC4	B-AC5	B-AC6	B-AC7	B-AC8	B-AC9	B-AC10	B-AC11	B-AC12	B-AC13	B-AC14	B-AC15	B-AC16	B-DC1	B-DC2	B-DC3	B-DC4	B-DC5	B-DC6	B-DC7	B-DC8	B-DC9	B-DC10	B-DC11	B-DC12	B-DC13	B-DC14	B-DC15	B-DC16	B-Ph1	B-Ph2	B-Ph3	B-Ph4	B-Ph5	B-Ph6	B-Ph7	B-Ph8	B-Ph9	B-Ph10	B-Ph11	B-Ph12	B-Ph13	B-Ph14	B-Ph15	B-Ph16	aux-1	digaux	

41394.418	1	1	0	768	0.11243	0.19039	0.074212	0.27674	0.21727	0.17831	0.19933	0.24355	0.1176	0.16827	0.21543	0.12544	0.14538	0.0191	0.10179	0.12145	-1.6958	-2.7354	-2.4938	-2.425	-2.5667	-2.4667	-2.6104	-2.5771	-2.0646	-2.6771	-2.65	-2.1937	-2.6521	-2.4083	-2.3708	-2.7792	29.595	101.756	158.670	274.012	45.792	256.772	239.019	293.916	88.416	110.381	280.142	-44.176	-47.263	158.888	-13.449	210.184	0.00013255	0.00048248	0.0001585	1374.7	2.6674e-06	6.3507e-06	1366.3	370.51	2.3856e-06	3.2021e-06	422.35	140.09	121.31	42.236	2.7331e-06	52.289	0.00041889	0.00053131	0.00014778	1380.2	5.8902e-06	6.0023e-06	1377.9	374.71	6.1227e-06	5.8944e-06	427.59	143.31	124.61	43.12	5.7886e-06	53.298	187.981	49.429	44.292	-38.657	143.518	90.089	-38.570	-34.105	115.733	101.009	-34.571	-29.908	-29.375	-25.152	118.966	-25.623	-8191	255	
41394.512	1	1	0	0	0.27017	0.30307	0.091089	0.040997	0.25408	0.14137	0.20063	0.19916	0.13543	0.09755	0.21826	0.18579	0.22845	0.1887	0.21202	0.21519	-1.9042	-2.5917	-2.3354	-2.25	-2.7396	-2.5833	-2.6583	-2.8312	-2.025	-2.5604	-2.6312	-2.2604	-2.5625	-2.3792	-2.3438	-2.7021	291.849	34.262	94.420	241.266	80.908	193.268	259.516	230.179	156.654	-33.336	-48.730	-19.205	245.986	190.798	167.130	284.360	0.0001502	0.00048809	0.00013551	1373.9	2.4069e-06	4.2853e-06	1371.7	369.75	2.703e-06	4.0021e-06	424.49	140.28	121.92	42.478	3.1021e-06	52.431	0.00040611	0.00054325	0.00014272	1381.8	5.8445e-06	5.9861e-06	1380.9	374.48	6.0692e-06	5.4677e-06	428.53	143.63	124.95	43.239	5.8298e-06	53.402	186.029	34.455	38.372	-38.698	151.273	94.863	-38.312	-34.032	118.258	107.567	-34.560	-29.990	-29.404	-25.210	100.360	-25.780	-8191	255	
41394.609	1	1	0	0	0.058852	0.0071827	0.052024	0.14128	0.083863	0.18916	0.14743	0.29066	0.034364	0.1852	0.34798	0.10094	0.14034	0.11645	0.30618	0.096708	-1.8729	-2.3979	-2.5708	-2.2896	-2.5833	-2.3458	-2.4646	-2.7479	-2.4417	-2.5646	-2.7604	-2.2604	-2.8083	-2.6688	-2.3312	-2.6479	169.126	62.079	165.839	271.786	200.624	126.853	-46.403	-22.352	44.638	113.907	272.972	162.200	229.600	45.515	204.621	200.565	0.00015876	0.00053769	0.00012181	1367.8	3.0532e-06	5.6993e-06	1362.6	369.44	1.9585e-06	3.7865e-06	421.89	139.57	121.73	42.228	3.3238e-06	52.396	0.00039597	0.00049415	0.00013705	1374.4	5.4769e-06	5.3132e-06	1371.7	373.11	5.47e-06	5.391e-06	426.49	143.22	124.65	43.115	5.7753e-06	53.317	188.499	32.023	44.317	-38.716	133.749	91.598	-38.533	-33.967	118.815	82.812	-34.750	-30.033	-29.786	-25.251	107.817	-25.501	-8191	255	
41394.707	1	1	0	0	0.12755	0.15071	0.087776	0.090361	0.29417	0.11019	0.2971	0.19924	0.16071	0.0078909	0.19085	0.31689	0.0087896	0.18412	0.11274	0.2234	-1.9583	-2.5	-2.8208	-2.4021	-2.6146	-2.6771	-2.4646	-2.7438	-2.3417	-2.3563	-2.775	-2.3042	-2.6979	-2.5833	-2.2062	-2.7521	229.971	41.104	85.645	-51.749	301.644	301.152	272.724	-40.513	-39.369	71.111	256.006	242.219	68.543	300.965	161.081	223.497	0.00014883	0.00047802	0.00011477	1368.5	3.9829e-06	4.1532e-06	1363.8	368.01	2.9199e-06	4.5633e-06	422.48	139.4	121.44	42.304	3.5895e-06	52.454	0.00039958	0.00052194	0.00014532	1373.9	5.5596e-06	5.5181e-06	1373.6	373.16	5.7601e-06	6.051e-06	427.14	143.23	124.58	43.092	6.02e-06	53.396	187.616	16.426	49.405	-38.732	135.751	107.390	-38.445	-33.971	116.436	98.515	-34.545	-30.034	-29.642	-25.249	107.407	-25.794	-8191	255	
41394.801	1	1	0	0	0.06212	0.23103	0.071187	0.23065	0.09573	0.172	0.19499	0.27679	0.12221	0.19881	0.06609	0.133	0.11479	0.19718	0.13354	0.21326	-2	-2.3167	-2.75	-2.4042	-2.4979	-2.6437	-2.4208	-2.8083	-2.4375	-2.2979	-2.6917	-2.4313	-2.5354	-2.6333	-2.1437	-2.7396	125.058	203.562	127.458	9.234	-36.093	-18.952	246.309	236.381	92.093	189.174	224.398	261.126	167.232	248.355	-33.410	268.228	0.000138	0.00052241	0.00012711	1367.7	2.0987e-06	4.1279e-06	1367.2	368.39	2.0227e-06	5.0531e-06	422.37	139.92	122.61	42.495	3.6313e-06	52.616	0.00040203	0.00054286	0.00014128	1376.2	5.7524e-06	5.5764e-06	1376.8	373.43	5.6404e-06	5.7313e-06	427.42	143.58	125.18	43.188	6.0822e-06	53.473	180.688	52.780	29.635	-38.542	137.906	109.599	-38.656	-33.884	114.926	89.038	-34.548	-30.035	-29.482	-25.131	104.441	-25.773	-8191	255	
41394.898	1	1	0	0	0.21339	0.096676	0.086113	0.24375	0.12246	0.13344	0.21476	0.10168	0.11784	0.20365	0.2163	0.26931	0.25808	0.10768	0.33849	0.20894	-2.05	-2.3438	-2.4958	-2.4	-2.3958	-2.5667	-2.3958	-2.8	-2.4729	-2.3792	-2.7417	-2.3542	-2.525	-2.7708	-2.1875	-2.7625	217.887	-21.504	8.436	260.288	66.460	291.358	209.139	166.485	-28.948	150.624	274.248	265.639	233.606	-17.264	257.997	217.090	0.00015751	0.00053193	9.7435e-05	1374.3	2.8899e-06	5.0005e-06	1370.4	370.74	2.6324e-06	3.8441e-06	422.92	140.39	122.57	42.547	3.6735e-06	52.73	0.00039364	0.00053083	0.0001443	1381.1	5.3289e-06	5.7597e-06	1380.3	375.07	5.5543e-06	5.6373e-06	428.04	143.86	125.4	43.384	5.6586e-06	53.597	187.673	37.704	40.671	-38.814	142.203	114.938	-38.655	-33.996	119.674	99.704	-34.722	-30.112	-29.596	-25.291	121.714	-25.710	-8191	255	
41395.020	1	1	0	0	0.19865	0.16609	0.23111	0.25103	0.14692	0.098951	0.20545	0.13683	0.23599	0.085383	0.26088	0.2964	0.1918	0.13907	0.17162	0.35084	-2.2021	-2.275	-2.6646	-2.6125	-2.4396	-2.7125	-2.3021	-2.7646	-2.6583	-2.2479	-2.5396	-2.4188	-2.3354	-2.6354	-2.3958	-2.6771	286.290	-40.034	-28.422	263.100	21.935	196.175	262.146	198.020	148.905	-20.000	-4.538	294.999	207.997	175.836	177.138	279.172	0.00015418	0.00047722	0.00014722	1377.8	2.1091e-06	5.6515e-06	1371.6	369.07	1.8034e-06	4.4486e-06	423.24	140.28	122.04	42.549	3.1671e-06	52.795	0.00040405	0.00050179	0.00014034	1383.6	5.6164e-06	5.6551e-06	1380.9	374.57	5.5724e-06	5.8252e-06	428.36	143.89	124.92	43.3	5.6997e-06	53.53	188.144	35.045	26.520	-38.722	158.754	100.585	-38.406	-33.810	125.651	92.168	-34.525	-30.054	-29.668	-25.338	95.961	-25.573	-8191	255	
41395.113	1	1	0	0	0.14937	0.095959	0.16991	0.25617	0.20872	0.13888	0.23141	0.19779	0.046181	0.13961	0.24869	0.076139	0.30503	0.17406	0.16159	0.30294	-2.075	-2.4229	-2.5187	-2.4625	-2.2729	-2.7458	-2.3229	-2.6167	-2.4813	-2.2354	-2.7	-2.5625	-2.275	-2.6937	-2.3563	-2.5521	123.221	18.904	258.773	-50.438	275.269	292.040	226.412	239.584	114.665	62.146	231.722	277.127	199.226	219.424	285.963	224.223	0.00015616	0.00054351	0.00012436	1375.7	3.6343e-06	5.8968e-06	1372.7	368.25	2.6678e-06	5.1983e-06	422.57	140.23	121.68	42.325	4.5517e-06	52.354	0.00039216	0.00053732	0.00013652	1381.9	5.8222e-06	5.6163e-06	1379.5	374.03	5.6096e-06	5.8101e-06	427.59	143.6	124.74	43.144	5.6471e-06	53.309	184.370	43.302	41.975	-38.740	120.868	100.983	-38.512	-33.998	129.082	101.397	-34.588	-30.113	-29.517	-25.230	122.968	-25.632	-8191	255	
41395.211	1	1	0	0	0.14884	0.08225	0.059979	0.29201	0.022741	0.16631	0.22623	0.22381	0.13064	0.22087	0.20423	0.084993	0.22291	0.047346	0.2083	0.15837	-2.1583	-2.0458	-2.3958	-2.7313	-2.4104	-2.6667	-2.5938	-2.5646	-2.5687	-2.2896	-2.7771	-2.6021	-2.35	-2.65	-2.25	-2.4292	144.126	14.506	147.057	278.519	170.667	16.112	167.475	-25.201	-50.096	92.270	234.494	282.201	42.912	-2.780	91.186	-43.094	0.00014144	0.00047952	0.00015118	1377.3	3.8557e-06	4.7365e-06	1372.4	368.35	2.0441e-06	4.0794e-06	423.71	139.85	121.76	42.284	3.0637e-06	52.321	0.00040557	0.00053818	0.00014869	1382.3	6.2268e-06	5.9171e-06	1379.7	373.85	5.6694e-06	5.9656e-06	428.24	143.49	124.8	43.179	5.6701e-06	53.407	187.041	47.330	41.852	-38.788	131.321	112.191	-38.532	-33.999	108.030	101.734	-34.597	-30.014	-29.448	-25.195	100.741	-25.938	-8191	255	
41395.305	1	1	0	0	0.081261	0.066312	0.12105	0.2465	0.20735	0.1561	0.4274	0.10899	0.20238	0.10512	0.34383	0.25709	0.17013	0.14873	0.1186	0.3199	-2.175	-2.1104	-2.5021	-2.4979	-2.2646	-2.6583	-2.5958	-2.3812	-2.5604	-2.2708	-2.6479	-2.5896	-2.3833	-2.4208	-2.2458	-2.4854	78.887	146.988	5.885	288.999	257.591	128.532	258.721	194.935	230.607	208.153	248.911	207.026	-50.199	193.927	-21.534	291.434	0.00015241	0.00040133	0.00015651	1379.5	3.4397e-06	5.0774e-06	1372.1	369.53	1.4803e-06	5.4323e-06	424.65	140.35	121.93	42.452	4.4789e-06	52.781	0.00039515	0.00054153	0.00014259	1384.3	5.9513e-06	5.5979e-06	1380.3	374.74	5.7891e-06	5.6459e-06	428.18	143.5	124.78	43.268	5.6337e-06	53.545	189.789	50.264	33.528	-38.692	139.758	103.733	-38.495	-33.938	117.556	95.828	-34.471	-29.893	-29.668	-25.157	96.553	-25.662	-8191	255	
41395.402	1	1	0	0	0.050704	0.13391	0.20624	0.16124	0.18913	0.24777	0.18161	0.37249	0.23762	0.099766	0.1418	0.096212	0.24585	0.25638	0.080247	0.10124	-2.1188	-2.2458	-2.5833	-2.6312	-2.1396	-2.4313	-2.575	-2.4521	-2.5854	-2.3146	-2.5187	-2.6167	-2.2917	-2.6	-2.4271	-2.2125	-36.393	50.106	182.729	-43.193	231.902	229.833	193.257	272.195	217.976	29.127	66.198	248.034	292.997	-42.902	133.497	97.382	0.00013958	0.00043066	0.00012241	1376.9	3.2674e-06	5.7766e-06	1376.7	369.86	2.7981e-06	6.5163e-06	423.44	140.18	121.63	42.357	3.8198e-06	52.582	0.00039337	0.00050733	0.00014623	1385.2	5.9203e-06	5.3898e-06	1384.2	375	5.606e-06	5.8339e-06	428.93	143.69	124.83	43.217	5.8145e-06	53.5	192.181	27.197	45.553	-38.715	111.251	105.371	-38.659	-33.890	117.317	103.501	-34.475	-29.982	-29.572	-24.960	105.113	-25.544	-8191	255	
41395.496	1	1	0	0	0.24361	0.27127	0.41668	0.39124	0.21168	0.16547	0.17619	0.11886	0.14513	0.11185	0.13305	0.40558	0.18039	0.13595	0.11223	0.028528	-2.3167	-2.0938	-2.175	-2.8104	-2.1188	-2.5292	-2.5083	-2.4375	-2.7687	-2.1542	-2.3229	-2.6417	-2.1792	-2.4854	-2.3812	-2.225	10.201	186.272	212.301	-42.476	281.821	236.314	181.207	288.714	121.434	-51.600	224.302	-0.730	206.018	200.962	269.304	277.040	0.00014974	0.00048235	0.00013768	1377.2	3.4018e-06	5.1378e-06	1372.6	370.91	2.9194e-06	4.1493e-06	425.15	138.68	122.17	42.294	3.7202e-06	52.536	0.00039391	0.00050465	0.00014454	1384.6	5.5906e-06	5.2744e-06	1383.3	374.54	5.4927e-06	5.3305e-06	428.24	143.06	124.8	43.104	5.6395e-06	53.411	183.431	20.518	41.545	-38.820	125.430	99.886	-38.690	-33.946	102.052	86.519	-34.637	-29.869	-29.599	-25.374	116.264	-25.676	-8191	255	
41395.594	1	1	0	0	0.16695	0.18116	0.18674	0.27143	0.040707	0.09996	0.23406	0.12578	0.15885	0.18841	0.19054	0.28882	0.059828	0.25179	0.088518	0.1683	-2.2979	-2.3438	-2.2896	-2.7333	-2.1917	-2.5583	-2.7188	-2.3104	-2.6813	-2.4979	-2.4729	-2.8521	-2.3625	-2.5062	-2.6792	-2.2354	156.956	26.570	194.824	290.016	143.589	85.959	286.651	-21.046	223.512	254.872	-13.070	294.433	82.057	-47.548	139.955	87.520	0.00015619	0.00046427	0.00014347	1381.2	2.3035e-06	4.5414e-06	1374.2	369.08	2.8503e-06	5.1197e-06	422.31	139.55	122.07	42.547	2.4526e-06	52.6	0.0003908	0.00053016	0.0001485	1387	5.6586e-06	5.5947e-06	1383.2	374.04	5.6504e-06	5.4936e-06	427.93	143.21	124.84	43.287	5.7542e-06	53.478	182.415	38.948	38.921	-38.680	135.811	110.662	-38.656	-34.058	111.817	92.031	-34.677	-30.109	-29.453	-25.288	141.006	-25.622	-8191	255	
41395.715	1	1	0	0	0.25225	0.20228	0.19235	0.28389	0.23755	0.10472	0.15076	0.11121	0.09103	0.12717	0.17648	0.2432	0.11074	0.38213	0.12608	0.27753	-2.1104	-2.5187	-2.1937	-2.8292	-2.1104	-2.5125	-2.7958	-2.1896	-2.5146	-2.425	-2.2083	-2.8521	-2.3167	-2.4313	-2.5521	-2.1292	74.658	158.253	62.421	237.610	117.811	64.136	145.842	279.397	281.978	-0.725	221.652	-46.525	63.552	280.803	-14.930	284.521	0.00014694	0.00044189	0.00015508	1382	3.6157e-06	4.9975e-06	1373.4	370.76	2.3009e-06	3.5129e-06	424.83	139.57	121.69	42.489	3.6314e-06	52.462	0.00040292	0.00051793	0.00014762	1389.6	5.6965e-06	5.7662e-06	1386	375.22	5.5271e-06	5.8652e-06	428.69	143.17	124.68	43.241	5.6538e-06	53.477	184.605	42.163	48.037	-38.729	131.708	104.692	-38.639	-33.984	137.821	112.525	-34.524	-30.073	-29.614	-25.378	116.913	-25.625	-8191	255	
41395.812	1	1	0	0	0.14852	0.17724	0.062439	0.18596	0.018594	0.11748	0.5148	0.14917	0.10387	0.018467	0.19406	0.25579	0.19427	0.088797	0.35238	0.092733	-2.1458	-2.3625	-2.1583	-2.6937	-2.425	-2.3875	-2.7708	-2.3333	-2.35	-2.5479	-2.3521	-2.75	-2.4208	-2.4188	-2.5583	-2.2958	252.286	259.633	198.070	202.843	-43.392	140.885	283.402	298.917	286.302	83.645	282.191	221.175	255.217	182.374	75.505	284.921	0.00015156	0.00053525	0.00016848	1383.9	2.0516e-06	5.4076e-06	1376.5	371.08	2.9209e-06	4.4426e-06	426.7	139.44	121.7	42.39	3.923e-06	52.898	0.00039729	0.00053818	0.00015251	1390.9	5.7481e-06	5.7888e-06	1387.4	375.64	5.9731e-06	5.9775e-06	429.34	143.51	125.02	43.272	5.9302e-06	53.679	186.712	46.359	44.594	-38.640	144.123	102.851	-38.470	-33.837	115.153	98.579	-34.584	-29.984	-29.422	-25.079	119.799	-25.656	-8191	255	
41395.906	1	1	0	0	0.078658	0.094676	0.079724	0.16584	0.098804	0.088234	0.26501	0.17342	0.27538	0.18694	0.10595	0.19754	0.24303	0.14539	0.14057	0.071406	-2.0792	-2.5229	-2.1312	-2.6708	-2.3729	-2.2938	-2.7938	-2.4104	-2.2438	-2.7167	-2.2313	-2.5729	-2.5167	-2.4458	-2.6292	-2.4771	300.844	-31.171	203.317	239.611	59.593	252.420	253.263	-0.271	-37.715	102.391	280.130	294.410	-35.444	-15.834	199.517	304.351	0.00014271	0.00044521	0.00013727	1387.2	2.947e-06	5.1686e-06	1377.8	371.69	2.2887e-06	4.4692e-06	423.47	139.92	122.27	42.455	4.5332e-06	52.438	0.00041089	0.00055108	0.00015463	1394.9	5.9444e-06	6.2115e-06	1390.1	376.17	6.0085e-06	6.0564e-06	429.64	143.87	125.14	43.332	5.8604e-06	53.569	185.302	45.230	38.713	-38.712	131.462	102.730	-38.459	-33.908	143.734	102.935	-34.547	-29.911	-29.209	-25.034	111.757	-26.189	-8191	255	
41395.977	1	1	0	0	0.12625	0.061172	0.20313	0.42298	0.16806	0.06456	0.1575	0.063466	0.028499	0.093031	0.12308	0.20884	0.1348	0.1448	0.14704	0.14436	-2.1437	-2.5646	-2.2375	-2.6292	-2.525	-2.2188	-2.9625	-2.5563	-2.3146	-2.6042	-2.2667	-2.6875	-2.5812	-2.1792	-2.7958	-2.4562	261.100	166.797	20.948	286.082	-8.971	-46.586	225.483	32.812	270.747	81.960	190.875	-6.141	-37.575	184.038	-2.278	162.668	0.0001555	0.00040768	0.00011679	1391.3	2.7928e-06	5.3073e-06	1384	371.17	2.8097e-06	3.2557e-06	425.27	140.4	122.73	42.667	3.1199e-06	52.708	0.00041578	0.00057744	0.00014997	1396.6	6.0202e-06	6.2816e-06	1395	376.21	6.0221e-06	5.7388e-06	430.67	144.07	125.56	43.478	5.5037e-06	53.74	188.456	47.004	50.101	-38.855	135.725	111.395	-38.573	-34.113	128.990	106.562	-34.552	-30.134	-29.474	-25.110	102.892	-25.605	-8191	255	
41396.098	1	1	0	0	0.16412	0.26071	0.22976	0.06684	0.078664	0.2163	0.30933	0.1363	0.12481	0.22098	0.27722	0.06783	0.37351	0.15093	0.15198	0.078575	-1.8604	-2.7146	-2.4313	-2.7333	-2.5604	-2.1083	-2.9208	-2.4604	-2.275	-2.675	-2.3729	-2.6896	-2.3792	-2.2417	-2.5833	-2.3479	121.251	45.591	155.939	274.935	94.967	110.855	193.473	268.201	156.510	157.367	295.608	288.298	-34.730	94.257	149.544	224.173	0.00015052	0.00057264	0.00015144	1391.8	3.488e-06	4.8986e-06	1383.6	371.05	1.589e-06	5.6982e-06	428.07	140.2	122.47	42.536	2.6211e-06	52.61	0.00041435	0.00055977	0.00015219	1399.1	6.0038e-06	6.0002e-06	1393.4	376.38	6.0375e-06	5.4709e-06	431.18	143.95	125.32	43.382	5.7667e-06	53.645	186.697	29.678	47.333	-38.854	125.579	99.289	-38.614	-34.076	123.762	94.975	-34.665	-30.155	-29.392	-25.135	114.003	-26.049	-8191	255	
41396.191	1	1	0	0	0.12576	0.29617	0.10729	0.2446	0.18307	0.071324	0.3599	0.2035	0.060681	0.18042	0.11677	0.28371	0.14201	0.14593	0.44103	0.21725	-1.7812	-2.5938	-2.2812	-2.6396	-2.6333	-2.1312	-2.7917	-2.5625	-2.3417	-2.6083	-2.4	-2.4854	-2.6354	-2.4167	-2.4958	-2.5708	33.167	95.927	-11.550	-40.398	288.832	-23.944	248.407	242.182	293.079	293.404	243.606	24.760	264.324	184.254	146.990	-31.301	0.00014588	0.00056539	0.00013902	1393.3	3.222e-06	5.3175e-06	1384.6	370.47	3.1339e-06	5.6649e-06	426.9	140.4	122.25	42.355	3.9691e-06	52.78	0.00042919	0.00055519	0.00014684	1398.1	6.2268e-06	6.1662e-06	1391.9	375.71	6.2895e-06	5.8836e-06	429.97	143.81	125.15	43.309	5.8431e-06	53.649	184.538	33.366	50.862	-38.753	121.677	106.599	-38.472	-34.195	114.032	100.131	-34.667	-29.943	-29.659	-25.431	120.168	-25.946	-8191	255	
41396.289	1	1	0	0	0.20516	0.15595	0.084396	0.22418	0.092318	0.16381	0.26021	0.10981	0.092605	0.16494	0.22629	0.026992	0.02847	0.082963	0.18075	0.026648	-1.8833	-2.6333	-2.3333	-2.7042	-2.5167	-2.3354	-2.8792	-2.55	-2.0229	-2.5396	-2.3708	-2.6083	-2.6792	-2.35	-2.4896	-2.6646	257.244	299.430	-3.332	-38.169	123.025	258.748	229.431	169.513	282.795	18.772	282.143	17.529	120.406	307.285	-1.648	170.092	0.0001417	0.0004462	0.00012314	1388.7	3.5713e-06	5.4604e-06	1384.4	371.7	1.8135e-06	5.9806e-06	427.58	140.95	122.11	42.463	2.4137e-06	52.544	0.00041609	0.00054907	0.00015372	1395.5	6.0821e-06	5.9872e-06	1392.8	376.26	5.897e-06	5.6708e-06	430.77	144.07	125.14	43.37	5.8843e-06	53.549	187.881	21.274	41.670	-38.618	124.522	103.429	-38.683	-34.008	116.773	91.943	-34.467	-30.022	-29.480	-25.068	126.481	-25.849	-8191	255	
41396.387	1	1	0	0	0.14835	0.054877	0.22265	0.22128	0.12683	0.17755	0.20837	0.22749	0.19722	0.25638	0.085091	0.40911	0.077316	0.26586	0.062215	0.10407	-1.6583	-2.5563	-2.3708	-2.6167	-2.5292	-2.2875	-2.7771	-2.4771	-2.075	-2.825	-2.3563	-2.4667	-2.6917	-2.2458	-2.3187	-2.5771	-40.900	67.789	64.423	234.142	191.749	126.428	235.285	270.744	90.972	274.791	34.730	278.523	293.271	244.258	18.914	230.235	0.00015796	0.00062086	0.00015858	1392.4	2.3442e-06	4.7964e-06	1384.7	371.25	2.7414e-06	4.9855e-06	424.75	140.15	122.57	42.386	4.3235e-06	52.445	0.0004133	0.00052796	0.00015733	1397.1	5.854e-06	5.9193e-06	1392.7	376.23	6.1852e-06	6.0434e-06	430.36	143.9	125.22	43.264	6.0315e-06	53.454	188.019	42.604	45.938	-38.810	116.072	98.106	-38.664	-34.108	111.632	100.999	-34.445	-29.918	-29.528	-25.192	113.583	-25.632	-8191	255	
41396.508	1	1	0	0	0.27429	0.21334	0.26661	0.10854	0.033599	0.20715	0.12141	0.15625	0.023074	0.17466	0.15457	0.082049	0.18021	0.13203	0.03932	0.28795	-1.675	-2.4104	-2.5	-2.5208	-2.5229	-2.3312	-2.4938	-2.7396	-2.1542	-2.6542	-2.6292	-2.325	-2.9313	-2.4021	-2.2375	-2.7167	32.293	256.282	26.722	274.763	106.968	195.898	303.939	192.859	262.503	43.484	-4.548	243.240	-46.111	184.095	174.475	210.629	0.00014303	0.00051121	0.00015418	1385.9	2.6705e-06	4.5532e-06	1380	372.53	3.0345e-06	5.2244e-06	426.21	140.08	122.05	42.374	3.4974e-06	52.485	0.00040786	0.00053006	0.00015973	1394.1	5.823e-06	5.8567e-06	1390.4	376.9	6.0647e-06	6.2346e-06	430.21	143.69	125.17	43.283	6.0812e-06	53.523	187.921	28.556	27.972	-38.674	120.866	96.406	-38.636	-34.245	113.614	90.515	-34.450	-29.792	-29.548	-25.203	109.181	-25.744	-8191	255	
41396.578	1	1	0	0	0.1499	0.31211	0.20394	0.15032	0.14444	0.34256	0.25705	0.27425	0.082484	0.26551	0.13751	0.079105	0.12613	0.11487	0.1663	0.17008	-1.8625	-2.3646	-2.6271	-2.3521	-2.7	-2.2271	-2.4292	-2.7021	-2.1625	-2.3708	-2.5354	-2.3271	-2.6667	-2.3354	-2.2354	-2.5167	169.960	226.564	227.061	262.147	208.808	11.360	225.051	-50.189	-46.894	195.416	111.938	254.008	296.433	-45.776	128.997	59.211	0.00014303	0.00049081	0.00014517	1390.9	3.2049e-06	4.0837e-06	1384.8	373.31	2.0168e-06	4.3792e-06	424.95	140.19	122.46	42.743	3.2229e-06	52.781	0.00042872	0.00054248	0.00016324	1397.2	5.7731e-06	6.259e-06	1392.8	377.28	5.8698e-06	5.9894e-06	430.17	143.63	125.38	43.395	6.0803e-06	53.623	191.476	13.037	51.958	-38.785	123.963	103.501	-38.737	-33.997	130.827	83.040	-34.446	-29.955	-29.415	-25.334	96.932	-25.575	-8191	255	
41396.699	1	1	0	0	0.050645	0.05318	0.19285	0.34098	0.057885	0.065911	0.050836	0.25621	0.20599	0.058764	0.15097	0.20831	0.2323	0.12597	0.18357	0.07107	-1.5938	-2.5062	-2.4792	-2.2729	-2.6375	-2.4375	-2.4729	-2.8312	-2.1396	-2.5021	-2.5667	-2.3312	-2.5167	-2.3896	-2.2771	-2.8438	194.353	291.533	4.878	228.122	32.872	-29.819	259.222	-28.844	161.077	263.344	234.488	16.288	196.249	-16.561	-47.968	231.507	0.00014313	0.00055355	0.00013203	1393.5	3.7325e-06	4.8362e-06	1385.6	372.44	2.08e-06	5.8361e-06	424.93	139.98	122.64	42.528	4.2454e-06	52.663	0.00041419	0.00054296	0.00016083	1398	5.8652e-06	6.2018e-06	1395.7	377.27	6.168e-06	6.226e-06	430.4	143.81	125.34	43.301	6.5134e-06	53.657	188.254	38.026	35.732	-38.687	112.243	106.889	-38.565	-34.050	117.679	94.069	-34.663	-29.861	-29.618	-25.418	106.342	-25.915	-8191	255	
41396.797	1	1	0	0	0.2757	0.10654	0.16408	0.12382	0.23062	0.14205	0.40375	0.25838	0.094985	0.2063	0.16334	0.023193	0.19087	0.25258	0.12572	0.32185	-1.9333	-2.4542	-2.5771	-2.3833	-2.5604	-2.5333	-2.4521	-2.5667	-2.3833	-2.3396	-2.8312	-2.3208	-2.3542	-2.525	-2.2417	-2.6312	-30.320	49.211	30.470	262.385	1.701	220.820	229.806	259.369	137.194	-3.037	104.291	2.405	285.906	300.199	82.642	181.835	0.00015512	0.00050577	0.00011481	1387.6	3.4938e-06	4.5081e-06	1379.2	372.7	2.0901e-06	4.5342e-06	425.96	139.83	122.47	42.664	1.5662e-06	52.85	0.00042484	0.00055586	0.00015473	1397.4	6.0667e-06	6.3097e-06	1392.4	377.35	6.1354e-06	6.3448e-06	431.37	143.84	125.35	43.356	6.0822e-06	53.621	187.906	31.419	37.510	-38.839	130.776	104.560	-38.543	-33.834	127.543	91.298	-34.554	-29.946	-29.423	-25.459	127.816	-25.601	-8191	255	
41396.891	1	1	0	0	0.1394	0.076477	0.053463	0.1094	0.16508	0.41669	0.21039	0.087648	0.21249	0.1618	0.14183	0.21413	0.1097	0.17435	0.18681	0.24162	-1.8312	-2.2625	-2.6667	-2.3417	-2.4771	-2.7125	-2.3104	-2.7146	-2.4938	-2.1583	-2.9104	-2.425	-2.5667	-2.6083	-2.2792	-2.7771	81.410	-38.210	233.190	225.133	-18.920	134.131	280.052	115.529	105.585	191.193	-37.241	283.725	145.296	235.551	30.775	278.404	0.00015016	0.00048961	0.00012391	1388	2.4926e-06	5.9352e-06	1381.9	372.8	2.4054e-06	4.673e-06	426.28	140.14	122.45	42.549	3.7769e-06	52.75	0.00042243	0.00059884	0.00014575	1396.7	6.1149e-06	6.3647e-06	1392.9	377.34	6.2342e-06	6.4506e-06	430.36	143.87	125.22	43.357	6.2094e-06	53.566	189.562	38.509	32.658	-38.673	126.233	95.794	-38.481	-33.962	132.849	97.488	-34.620	-29.638	-29.602	-25.168	109.938	-25.851	-8191	255	
41396.988	1	1	0	0	0.15595	0.1747	0.17443	0.33238	0.14972	0.13547	0.32503	0.084477	0.10495	0.17673	0.23047	0.18459	0.16683	0.095714	0.076837	0.2303	-1.8104	-2.0833	-2.6667	-2.3979	-2.5708	-2.6021	-2.2771	-2.7562	-2.5875	-2.25	-2.6583	-2.4729	-2.5187	-2.425	-2.2875	-2.5812	236.682	152.089	157.669	255.321	215.273	265.735	240.506	260.331	5.166	49.330	-16.578	-51.472	262.256	97.145	283.757	212.609	0.00015517	0.00045545	0.00013047	1388.7	3.5472e-06	4.2871e-06	1382.8	373.26	2.9463e-06	4.2332e-06	426.24	140.19	122.4	42.599	3.6924e-06	52.792	0.00042903	0.00058709	0.00014775	1396.5	6.2457e-06	5.7834e-06	1392.1	376.84	6.1753e-06	6.4279e-06	430.41	143.63	125.38	43.391	6.0937e-06	53.585	190.654	35.655	46.039	-38.830	142.422	96.964	-38.510	-34.181	138.833	90.365	-34.649	-29.992	-29.550	-25.192	105.720	-25.925	-8191	255	
41397.105	1	1	0	0	0.13884	0.19825	0.13442	0.16435	0.10757	0.024746	0.14927	0.18048	0.163	0.19644	0.10265	0.022275	0.25777	0.46895	0.080282	0.088437	-1.9771	-2.1562	-2.6229	-2.4292	-2.4625	-2.5812	-2.1604	-2.5667	-2.4104	-2.0333	-2.7625	-2.3875	-2.3604	-2.6208	-2.2521	-2.3875	8.674	136.776	146.449	225.965	59.487	177.408	-40.527	34.183	60.841	46.612	271.702	237.658	290.244	-19.730	230.054	0.504	0.00014916	0.00060611	0.00016518	1386.8	3.0051e-06	6.2668e-06	1380.6	369.99	2.2289e-06	4.0161e-06	423.87	139.6	122.4	42.382	2.8023e-06	52.299	0.00041571	0.00055566	0.00014783	1396.1	6.0417e-06	6.0379e-06	1389.1	375.93	6.0384e-06	5.9732e-06	428.95	143.55	124.9	43.194	5.9244e-06	53.408	182.928	31.080	35.586	-38.741	142.844	101.517	-38.529	-34.000	114.577	101.609	-34.474	-29.900	-29.543	-25.253	104.048	-25.671	-8191	255	
41397.203	1	1	0	0	0.15437	0.16829	0.22508	0.34848	0.033063	0.3254	0.090611	0.24179	0.097756	0.12477	0.14356	0.18427	0.028758	0.33991	0.067187	0.10317	-1.9271	-2.0958	-2.6708	-2.4604	-2.4083	-2.8021	-2.35	-2.6188	-2.5771	-2.0833	-2.6437	-2.4708	-2.3167	-2.875	-2.1896	-2.3583	252.990	108.569	107.435	273.404	127.120	211.497	101.414	289.276	202.583	301.030	179.212	84.845	177.583	281.377	290.826	-30.624	0.0001421	0.00054921	0.0001099	1384.6	3.846e-06	4.0644e-06	1378.2	371.46	3.0127e-06	4.8751e-06	424.96	139.71	122.62	42.625	4.0575e-06	52.472	0.00040801	0.00052643	0.00014326	1392.9	6.0512e-06	5.3423e-06	1390.7	375.72	5.7102e-06	5.7917e-06	429.45	143.16	124.95	43.286	5.9799e-06	53.418	180.170	38.194	30.216	-38.788	124.047	85.622	-38.578	-33.973	117.221	96.479	-34.607	-29.884	-29.427	-25.355	110.417	-25.890	-8191	255	
41397.273	1	1	0	0	0.043498	0.061137	0.078683	0.22838	0.17165	0.15227	0.11886	0.29834	0.090199	0.059897	0.12622	0.13966	0.12709	0.40613	0.046083	0.25493	-2.2854	-2.1583	-2.4771	-2.4958	-2.325	-2.6917	-2.4562	-2.5854	-2.6063	-2.4875	-2.6521	-2.5021	-2.2521	-2.5687	-2.3104	-2.3312	124.894	9.537	89.196	195.768	50.951	178.037	22.593	307.593	-47.716	281.317	24.891	273.786	274.801	-45.823	11.390	303.345	0.00014991	0.00036782	0.00012606	1382.3	3.232e-06	6.0969e-06	1379.9	370.5	2.6019e-06	4.5682e-06	426.22	139.83	121.98	42.386	4.0925e-06	52.477	0.00040459	0.00054277	0.0001501	1390.3	5.8084e-06	5.654e-06	1386.8	375.36	5.8308e-06	5.6146e-06	429.29	143.47	124.73	43.221	5.9598e-06	53.412	185.742	15.774	40.701	-38.749	145.706	104.406	-38.613	-34.188	135.271	109.374	-34.357	-30.077	-29.539	-25.252	110.307	-25.994	-8191	255	
41397.395	1	1	0	0	0.19968	0.219	0.010553	0.074282	0.093806	0.1859	0.1035	0.23196	0.12733	0.059819	0.10073	0.23067	0.27483	0.078119	0.11907	0.25836	-2.0563	-2.2896	-2.3125	-2.8667	-2.2604	-2.7042	-2.575	-2.3	-2.4875	-2.1604	-2.5938	-2.4875	-2.1292	-2.6917	-2.4604	-2.3708	59.976	13.132	108.492	282.273	1.545	78.943	-24.983	-31.551	48.327	71.267	258.210	294.847	243.481	194.754	304.587	16.149	0.00014862	0.00050626	0.00011682	1383.2	2.894e-06	5.7958e-06	1374.1	370.9	2.6865e-06	6.5238e-06	424.95	139.5	121.77	42.349	3.5067e-06	52.507	0.00040149	0.00052452	0.00014553	1390.9	5.8359e-06	5.7521e-06	1384.7	374.9	5.6749e-06	6.0521e-06	428.27	143.2	124.78	43.182	6.0401e-06	53.388	183.077	34.601	45.185	-38.705	140.893	97.730	-38.661	-34.114	108.753	89.754	-34.613	-30.072	-29.581	-25.305	99.052	-25.376	-8191	255	
41397.492	1	1	0	0	0.27536	0.17235	0.044017	0.5246	0.078971	0.17467	0.2525	0.17934	0.10854	0.20265	0.19829	0.19058	0.18993	0.012212	0.48439	0.12369	-2.1167	-2.1437	-2.5333	-2.6708	-2.2188	-2.5062	-2.5521	-2.2625	-2.6729	-2.2	-2.5875	-2.7271	-2.1729	-2.7167	-2.3333	-2.1437	178.966	299.232	51.219	276.983	69.308	-7.762	246.419	262.982	51.832	-2.134	218.059	30.200	233.931	56.213	225.523	205.605	0.00015304	0.00052387	0.00013376	1382.6	2.8357e-06	5.1903e-06	1377.4	370.04	2.7436e-06	5.6117e-06	422.9	139.29	121.69	42.197	3.6262e-06	52.285	0.00040083	0.00054363	0.0001496	1389.3	6.1269e-06	5.9743e-06	1386.7	374.91	5.7991e-06	6.1395e-06	428.33	143.07	124.48	43.073	5.8307e-06	53.241	188.745	35.072	42.957	-38.667	131.180	99.702	-38.520	-34.019	116.215	105.251	-34.378	-30.054	-29.577	-25.240	129.019	-25.608	-8191	255	
41397.586	1	1	0	0	0.2437	0.21949	0.22659	0.092264	0.024113	0.14025	0.39613	0.24809	0.086619	0.35056	0.12802	0.044564	0.16066	0.19555	0.13287	0.14552	-2.1375	-2.1854	-2.2708	-2.6437	-2.25	-2.5312	-2.4604	-2.3875	-2.6229	-2.3937	-2.4375	-2.75	-2.1292	-2.4917	-2.4417	-2.1937	273.396	224.696	-22.150	306.874	46.633	77.938	205.974	-22.936	306.197	27.533	18.407	10.873	250.195	101.197	77.103	88.691	0.00014082	0.00052084	0.00014655	1380.7	3.3419e-06	4.6193e-06	1378.3	369.97	2.8195e-06	5.1622e-06	423.35	139.85	121.88	42.259	3.2759e-06	52.349	0.00040743	0.00057983	0.00016305	1390.1	6.077e-06	6.0411e-06	1387.1	374.67	6.0021e-06	6.4571e-06	428.52	143.18	124.77	43.079	6.1376e-06	53.345	180.825	54.795	38.723	-38.719	125.595	93.563	-38.639	-33.990	117.495	93.937	-34.303	-29.946	-29.588	-25.224	107.698	-25.889	-8191	255	
41397.684	1	1	0	0	0.1459	0.11434	0.10965	0.087827	0.15068	0.2872	0.53558	0.28326	0.082408	0.1814	0.29979	0.33688	0.055483	0.31593	0.21323	0.24398	-2.1354	-2.3083	-2.2792	-2.6583	-2.1688	-2.4417	-2.6437	-2.3	-2.775	-2.4042	-2.3604	-2.8396	-2.3333	-2.4146	-2.55	-2.1417	108.254	245.146	241.962	286.766	298.056	277.037	196.970	-39.444	49.242	52.780	204.581	259.222	218.770	-50.443	298.008	253.459	0.00015584	0.00062518	0.00014973	1380.6	2.9557e-06	4.186e-06	1375.7	370.69	2.2997e-06	3.8175e-06	425.4	139.24	122.21	42.297	3.7537e-06	52.424	0.00041858	0.00057315	0.00016401	1389.5	6.2655e-06	6.1662e-06	1386	375.24	5.9931e-06	6.2454e-06	428.87	143.08	124.71	43.143	6.24e-06	53.38	181.384	27.450	53.151	-38.644	124.344	114.161	-38.517	-33.799	121.666	91.705	-34.529	-30.095	-29.631	-25.128	121.039	-25.652	-8191	255	
41397.805	1	1	0	0	0.29818	0.14891	0.13693	0.29863	0.13614	0.15675	0.12997	0.25067	0.213	0.15502	0.27024	0.13408	0.18158	0.11722	0.06071	0.24372	-1.9958	-2.2938	-2.0854	-2.8458	-2.1479	-2.5979	-2.7396	-2.3375	-2.4792	-2.3604	-2.375	-2.825	-2.4229	-2.4917	-2.6104	-2.2667	169.455	157.436	-12.797	-32.313	-14.163	-31.437	286.885	301.371	118.760	12.641	224.672	-46.083	4.831	192.175	147.751	239.744	0.0001567	0.00054554	0.00014197	1387.1	3.8665e-06	4.5577e-06	1373	371.24	2.4626e-06	4.7141e-06	426.84	139.38	121.38	42.206	3.993e-06	52.452	0.00041073	0.00058117	0.00016268	1393.5	6.4472e-06	6.1932e-06	1386.7	375.4	6.1272e-06	6.3124e-06	429.36	143.03	124.52	43.118	6.2256e-06	53.379	194.188	38.264	50.429	-38.744	119.619	104.934	-38.430	-34.007	122.877	101.829	-34.483	-29.895	-29.521	-25.337	120.059	-25.750	-8191	255	
41397.875	1	1	0	0	0.12669	0.10452	0.046384	0.23874	0.048093	0.21322	0.22908	0.26173	0.10663	0.22427	0.16417	0.15973	0.20009	0.080622	0.040951	0.22758	-2.0646	-2.3937	-2.1208	-2.675	-2.3208	-2.2104	-2.6896	-2.3896	-2.3792	-2.5875	-2.2	-2.675	-2.4125	-2.4437	-2.6354	-2.3333	191.927	25.496	293.119	297.842	293.920	48.324	168.628	229.783	172.594	215.604	-40.218	253.272	288.955	249.100	75.404	210.503	0.00013892	0.0005234	0.00012488	1385.1	3.9236e-06	5.881e-06	1379.6	370.28	2.1249e-06	4.5891e-06	424.34	139.05	121.84	42.307	4.3965e-06	52.58	0.00041769	0.00059034	0.00015262	1391.8	6.4248e-06	6.4833e-06	1388.4	375.46	6.3394e-06	6.1017e-06	428.61	142.98	124.58	43.118	6.2333e-06	53.414	181.329	23.820	53.067	-38.824	131.794	96.013	-38.591	-34.236	118.376	101.943	-34.560	-29.912	-29.410	-25.406	111.575	-26.044	-8191	255	
41397.973	1	1	0	0	0.069948	0.16985	0.13014	0.26805	0.030609	0.16341	0.030324	0.27259	0.066274	0.25944	0.31464	0.16192	0.32455	0.11543	0.2106	0.21125	-1.9604	-2.5833	-1.9667	-2.7167	-2.4562	-2.1021	-2.9292	-2.3396	-2.55	-2.5187	-2.2667	-2.6375	-2.3771	-2.3396	-2.6146	-2.4	199.603	207.763	243.918	297.578	230.073	-46.048	129.159	195.033	59.198	238.925	165.644	30.259	212.609	8.389	239.213	276.175	0.00015362	0.00048236	0.00011862	1384.9	4.2347e-06	4.0783e-06	1378.8	371.34	3.9036e-06	4.143e-06	423.71	139.2	121.73	42.337	3.3053e-06	52.33	0.00042522	0.00057353	0.00016246	1392.7	6.5462e-06	6.397e-06	1388.2	375.77	6.314e-06	6.2044e-06	428.42	142.92	124.62	43.162	5.9665e-06	53.367	182.902	33.736	50.184	-38.629	132.237	76.749	-38.484	-34.269	130.569	109.363	-34.579	-30.126	-29.806	-25.255	123.575	-25.717	-8191	255	
41398.066	1	1	0	0	0.026181	0.22863	0.06293	0.15661	0.24668	0.30731	0.23341	0.24748	0.060514	0.11399	0.33171	0.20545	0.35705	0.10561	0.074799	0.14708	-1.9229	-2.3625	-2.2021	-2.8146	-2.5187	-2.1854	-2.9813	-2.3937	-2.4062	-2.6917	-2.2854	-2.5708	-2.5979	-2.1104	-2.7562	-2.2917	132.645	153.789	29.347	207.951	57.773	197.713	184.857	-27.459	2.343	-27.338	292.109	5.748	258.786	-34.471	80.706	107.363	0.0001624	0.00047064	0.00014874	1384.2	3.9737e-06	5.2275e-06	1378.4	371.28	2.4533e-06	5.257e-06	422.97	139.71	122.19	42.316	3.9173e-06	52.478	0.00042274	0.00054554	0.00015508	1391.8	6.2698e-06	6.2644e-06	1387.1	375.22	6.3122e-06	5.9646e-06	428.51	143.05	124.52	43.098	6.0229e-06	53.359	188.519	46.077	44.987	-38.802	141.291	84.993	-38.532	-33.955	108.965	83.473	-34.693	-29.938	-29.537	-25.043	113.257	-25.830	-8191	255	
41398.188	1	1	0	0	0.22907	0.24142	0.13284	0.14249	0.17053	0.1676	0.13261	0.12869	0.16533	0.15041	0.17255	0.13253	0.20161	0.13591	0.1241	0.09555	-2.0292	-2.6437	-2.3042	-2.6271	-2.5042	-2.2375	-2.8167	-2.3104	-2.3063	-2.5563	-2.3937	-2.5062	-2.6354	-2.2521	-2.6083	-2.5062	113.356	267.242	102.399	281.279	-38.148	250.734	302.962	-49.550	66.655	134.007	-15.308	-44.169	234.079	5.383	74.744	238.238	0.00015673	0.00033805	0.00011604	1388.3	3.2288e-06	2.9416e-06	1380.4	370.51	2.4775e-06	5.2046e-06	423.12	139.34	122.03	42.427	3.2939e-06	52.296	0.00043447	0.00054191	0.00016145	1392.6	6.1424e-06	6.0293e-06	1389.8	375.28	6.3149e-06	6.0888e-06	428.54	143.17	124.57	43.149	6.2887e-06	53.328	182.263	24.415	41.116	-38.714	118.386	94.204	-38.544	-33.982	144.468	102.417	-34.356	-30.055	-29.196	-25.320	100.898	-25.776	-8191	255	
41398.281	1	1	0	0	0.065324	0.18154	0.11299	0.17638	0.16165	0.33151	0.23096	0.15259	0.059963	0.22525	0.15184	0.14993	0.20112	0.19857	0.40143	0.096248	-1.7563	-2.5729	-2.3146	-2.4417	-2.4	-2.0708	-2.6167	-2.5062	-2.3333	-2.7125	-2.2479	-2.2542	-2.7479	-2.2375	-2.5083	-2.5563	288.544	8.620	166.298	-35.891	170.049	79.267	233.442	271.923	242.878	262.486	257.906	117.429	204.053	247.493	53.555	3.582	0.00015936	0.00054426	0.00013611	1386.2	2.5922e-06	4.7061e-06	1376.9	370.81	1.6754e-06	4.6432e-06	423.08	139.27	121.33	42.242	3.6268e-06	52.341	0.00042728	0.00054162	0.00016038	1392.8	6.0038e-06	6.2104e-06	1387	375.28	6.2995e-06	6.1946e-06	427.72	142.9	124.44	43.085	6.2744e-06	53.293	182.993	33.391	48.772	-38.732	140.551	101.325	-38.569	-33.857	121.231	85.523	-34.528	-30.009	-29.434	-25.270	120.945	-25.824	-8191	255	
41398.379	1	1	0	0	0.11016	0.13421	0.32817	0.30444	0.17615	0.23453	0.3133	0.20255	0.32599	0.23846	0.26346	0.125	0.030315	0.33381	0.1013	0.096616	-1.8458	-2.6729	-2.3312	-2.5187	-2.6271	-2.2167	-2.5375	-2.6396	-2.1792	-2.5083	-2.3563	-2.525	-2.5646	-2.2083	-2.4646	-2.4313	-30.821	224.483	-41.569	275.140	197.830	163.001	267.096	273.981	30.018	-0.937	208.910	137.628	170.873	268.471	4.905	203.479	0.00015192	0.0004734	0.00017472	1380	4.0982e-06	4.8878e-06	1375.1	369.17	1.5919e-06	5.1312e-06	422.69	139.03	121.7	42.193	3.7333e-06	52.261	0.00043381	0.00059521	0.00016704	1388.3	6.3094e-06	6.5663e-06	1383.8	374.51	6.3058e-06	6.6591e-06	427.29	142.89	124.46	43.029	6.938e-06	53.255	182.504	43.753	41.353	-38.587	138.987	85.774	-38.687	-33.921	116.284	103.295	-34.504	-29.801	-29.783	-24.970	110.663	-25.916	-8191	255	
41398.477	1	1	0	0	0.19251	0.24721	0.34866	0.027408	0.17891	0.25425	0.101	0.10243	0.096212	0.14929	0.083737	0.23838	0.13452	0.072531	0.13053	0.33511	-1.6437	-2.7042	-2.1396	-2.3271	-2.6229	-2.0292	-2.6875	-2.5812	-2.0271	-2.5583	-2.4792	-2.4562	-2.6583	-2.1792	-2.3667	-2.6562	-4.036	-10.810	266.970	-51.549	-12.904	244.552	49.547	167.820	88.503	187.752	154.501	-36.286	214.965	-19.184	-40.792	-45.485	0.000142	0.00064564	0.00016271	1385.5	3.0576e-06	5.7918e-06	1376.4	369.76	2.3223e-06	4.6228e-06	423.25	139.62	121.76	42.225	2.7773e-06	52.232	0.00043762	0.00061604	0.00017359	1391.1	6.3731e-06	6.906e-06	1386.8	374.89	6.7981e-06	6.6688e-06	428.55	143.13	124.58	43.192	6.3968e-06	53.291	187.551	43.939	30.805	-38.775	126.958	101.781	-38.581	-34.168	140.206	94.318	-34.618	-29.916	-29.513	-25.470	113.189	-25.902	-8191	255	
41398.570	1	1	0	0	0.14826	0.31537	0.068252	0.28949	0.13451	0.26121	0.24964	0.18372	0.22232	0.061884	0.15698	0.21938	0.22743	0.30053	0.13496	0.072248	-1.7896	-2.3646	-2.2375	-2.5438	-2.8	-2.3312	-2.575	-2.6729	-2.0896	-2.5521	-2.7896	-2.2083	-2.6333	-2.3417	-2.3771	-2.6104	144.747	244.170	282.052	302.910	120.968	-31.939	268.892	202.129	114.329	178.444	253.273	295.137	285.610	285.030	198.869	245.902	0.00015789	0.00044455	0.00011683	1386.2	3.3882e-06	5.1813e-06	1378.6	370.15	2.823e-06	3.5583e-06	426.74	139.19	121.8	42.292	3.5348e-06	52.556	0.00043731	0.00061393	0.00016963	1392.9	6.3068e-06	6.644e-06	1389.8	375.24	6.8307e-06	6.5435e-06	429.17	143.06	124.58	43.127	6.4532e-06	53.337	181.512	38.263	45.860	-38.601	134.967	97.353	-38.418	-33.914	133.354	90.752	-34.450	-29.933	-29.477	-25.195	130.120	-25.856	-8191	255	
41398.668	1	1	0	0	0.16243	0.3159	0.092256	0.14273	0.11274	0.20687	0.073595	0.17717	0.2532	0.19546	0.070711	0.28784	0.19693	0.13105	0.48276	0.1407	-1.6604	-2.4646	-2.4208	-2.2646	-2.5021	-2.5563	-2.3438	-2.7042	-1.9979	-2.4854	-2.5021	-2.2396	-2.5708	-2.4833	-2.1583	-2.7854	21.871	-4.598	251.919	287.825	44.621	-27.379	-48.567	255.701	-30.024	244.087	250.914	-42.535	-15.338	281.379	-7.311	219.967	0.00014297	0.00064606	0.00015927	1389.6	2.0914e-06	4.8535e-06	1379.1	371.17	1.8864e-06	3.9145e-06	423.38	139.59	121.58	42.279	2.8399e-06	52.257	0.00043793	0.00064307	0.00016468	1395.1	6.6073e-06	7.1637e-06	1391.1	375.59	6.886e-06	6.698e-06	428.6	143.24	124.64	43.149	6.5192e-06	53.352	182.297	25.903	56.004	-38.856	116.069	95.524	-38.672	-34.055	134.172	90.946	-34.584	-29.768	-29.542	-25.282	120.188	-25.790	-8191	255	
41398.789	1	1	0	0	0.074069	0.095322	0.24036	0.31132	0.070353	0.12906	0.19207	0.1636	0.14134	0.12298	0.095954	0.14038	0.098329	0.10853	0.073579	0.29201	-1.8312	-2.4688	-2.4146	-2.4208	-2.5792	-2.3438	-2.6063	-2.6937	-2.3333	-2.45	-2.5917	-2.2917	-2.6979	-2.3208	-2.325	-2.6542	-1.841	180.021	292.179	296.351	265.618	-35.122	290.967	202.349	269.913	-25.200	275.016	-47.436	267.191	107.993	291.265	254.903	0.00014981	0.00043179	0.00013591	1388.4	2.5705e-06	6.1873e-06	1377.8	371.31	2.5419e-06	4.604e-06	424.33	139.68	121.86	42.282	3.1031e-06	52.423	0.00044108	0.00063619	0.00016773	1394.6	6.4721e-06	7.0192e-06	1388.7	375.63	6.5524e-06	6.5943e-06	429.04	143.08	124.65	43.149	6.3002e-06	53.378	190.755	32.344	44.002	-38.895	129.853	88.345	-38.697	-34.010	132.191	101.523	-34.484	-30.031	-29.637	-25.050	119.956	-25.863	-8191	255	
41398.883	1	1	0	0	0.12368	0.17777	0.14916	0.30013	0.15551	0.11983	0.18302	0.18954	0.2059	0.045496	0.082956	0.13641	0.16979	0.043441	0.33933	0.17092	-1.8979	-2.3958	-2.6771	-2.1875	-2.575	-2.6167	-2.3312	-2.5354	-2.3	-2.4958	-2.6917	-2.4562	-2.6292	-2.5208	-2.2375	-2.7479	300.012	307.130	100.089	-42.990	307.851	155.737	304.432	-7.520	51.915	99.836	-10.653	279.866	47.725	194.123	199.110	204.961	0.0001541	0.00046746	0.00014034	1384.9	3.0875e-06	5.6684e-06	1377.1	370.69	2.6293e-06	3.7276e-06	424.41	139.23	122.13	42.229	4.1309e-06	52.275	0.0004544	0.00057878	0.00015639	1394.1	6.5186e-06	6.6138e-06	1389.7	375.49	6.8452e-06	6.3307e-06	429.21	143	124.79	43.2	6.6521e-06	53.308	184.059	35.804	48.186	-38.777	145.695	122.337	-38.613	-33.972	128.522	97.111	-34.413	-29.931	-29.538	-25.194	89.173	-25.874	-8191	255	
41398.980	1	1	0	0	0.29617	0.051654	0.16554	0.55994	0.20329	0.08431	0.20885	0.18656	0.29802	0.18287	0.25971	0.16543	0.29833	0.051518	0.12915	0.11012	-1.8937	-2.1813	-2.4875	-2.2708	-2.6646	-2.2687	-2.3896	-2.6729	-2.3375	-2.2542	-2.7917	-2.2917	-2.5354	-2.5708	-2.1125	-2.7729	-22.612	-48.304	-15.331	261.199	16.453	88.383	274.150	245.876	216.131	-17.390	14.307	141.681	275.936	223.439	172.483	272.790	0.00016556	0.00044596	0.00018314	1387.8	2.3629e-06	4.5256e-06	1380	370.83	1.8408e-06	5.1749e-06	424.83	139.45	121.81	42.352	3.5593e-06	52.365	0.00044652	0.00058193	0.0001661	1395	6.4695e-06	6.2331e-06	1389	375.25	6.5179e-06	6.2886e-06	428.97	143.07	124.73	43.15	6.5765e-06	53.286	184.008	49.356	38.590	-38.780	132.860	110.339	-38.744	-34.069	123.990	105.852	-34.676	-29.840	-29.346	-25.441	101.102	-25.909	-8191	255	
41399.098	1	1	0	0	0.077229	0.16949	0.11929	0.07343	0.10421	0.19489	0.35013	0.057657	0.16222	0.054161	0.064334	0.21059	0.15461	0.23832	0.12509	0.28985	-2.0333	-2.3083	-2.4417	-2.4958	-2.5333	-2.5583	-2.4542	-2.4396	-2.3979	-2.3125	-2.6063	-2.3042	-2.4521	-2.6229	-2.4146	-2.7229	62.575	121.836	271.963	183.932	246.514	5.043	244.559	2.432	174.719	-40.649	-33.206	-18.146	304.481	231.556	82.448	284.412	0.0001458	0.00057504	0.00010682	1385.3	3.6924e-06	6.1019e-06	1376.2	370.93	1.6142e-06	6.3487e-06	425.16	139.29	121.66	42.276	3.6468e-06	52.342	0.00043719	0.0006018	0.00015663	1392.2	6.4558e-06	6.4908e-06	1388	375.3	6.4164e-06	6.8028e-06	429.55	143.02	124.53	43.076	6.7764e-06	53.201	178.576	18.033	53.076	-38.698	131.082	105.556	-38.480	-34.109	114.715	101.425	-34.635	-29.851	-29.431	-25.044	133.293	-25.712	-8191	255	
41399.172	1	1	0	0	0.21812	0.27402	0.14834	0.10265	0.18294	0.30389	0.12691	0.17348	0.078645	0.070326	0.27917	0.20074	0.20893	0.18121	0.16995	0.10888	-2.0563	-2.1792	-2.6771	-2.4688	-2.3229	-2.8042	-2.5333	-2.7021	-2.4729	-2.2458	-2.8125	-2.5396	-2.4667	-2.7375	-2.2958	-2.5771	32.717	-28.437	69.368	-7.451	237.924	252.919	232.140	252.893	305.219	181.023	242.385	77.495	260.229	255.090	-31.967	209.161	0.00014169	0.00050713	0.0001518	1384.6	3.5662e-06	4.8374e-06	1378.4	369.83	2.3946e-06	4.958e-06	422.95	139.06	121.84	42.273	3.9053e-06	52.163	0.00043432	0.00060209	0.00016318	1391.6	6.4127e-06	6.2784e-06	1388.2	374.81	6.4055e-06	6.6958e-06	427.69	142.84	124.42	43.067	6.4972e-06	53.277	191.835	28.390	40.248	-38.859	139.433	94.076	-38.633	-33.998	123.397	92.392	-34.739	-29.887	-29.379	-25.066	116.294	-25.727	-8191	255	
41399.266	1	1	0	0	0.13798	0.18326	0.2077	0.33833	0.12593	0.2741	0.22352	0.2982	0.13401	0.16834	0.23587	0.22329	0.22143	0.22351	0.21831	0.15338	-2.2396	-2.1125	-2.5875	-2.6979	-2.2229	-2.4813	-2.6521	-2.6354	-2.5979	-2.1521	-2.7875	-2.6583	-2.2667	-2.7833	-2.4062	-2.8583	-30.767	192.307	20.600	282.042	122.804	83.552	269.817	208.450	11.398	208.820	258.050	233.385	87.540	225.270	125.728	-6.845	0.00015032	0.00055414	0.00014699	1385.5	2.9731e-06	5.777e-06	1374.5	370.59	2.4937e-06	5.3736e-06	422.72	138.78	121.68	42.191	4.5985e-06	52.108	0.00042876	0.00060152	0.00016463	1391.8	6.3955e-06	6.3355e-06	1385.6	374.86	6.2415e-06	6.4333e-06	428.22	142.74	124.37	43.008	6.4369e-06	53.237	185.668	25.100	44.446	-38.749	127.116	105.290	-38.610	-34.241	115.170	92.963	-34.643	-30.075	-29.460	-24.931	104.672	-25.525	-8191	255	
41399.363	1	1	0	0	0.17067	0.072697	0.37041	0.17252	0.18521	0.091373	0.45439	0.29473	0.058292	0.051687	0.27191	0.19138	0.20896	0.20115	0.076613	0.29568	-2.1104	-2.2313	-2.5938	-2.5708	-2.2646	-2.8563	-2.5458	-2.4771	-2.4958	-2.1688	-2.6854	-2.6479	-2.3396	-2.6562	-2.4562	-2.3521	206.125	-39.213	25.858	202.721	291.397	130.423	277.314	269.683	156.675	4.181	262.187	-49.240	284.893	255.584	290.998	286.099	0.00014387	0.00051213	0.00016001	1383.8	2.7357e-06	3.7208e-06	1380.3	369.85	2.5538e-06	3.9221e-06	424.31	139.92	121.8	42.095	4.3592e-06	52.279	0.00042655	0.00060133	0.00016412	1390.5	6.3258e-06	6.0487e-06	1385.6	374.52	6.2315e-06	6.6818e-06	427.92	142.88	124.4	42.993	6.2868e-06	53.256	180.125	21.806	47.228	-38.739	124.479	96.695	-38.663	-33.920	134.762	97.104	-34.608	-30.035	-29.443	-25.040	116.586	-25.853	-8191	255	
41399.484	1	1	0	0	0.090925	0.16718	0.11325	0.41905	0.13573	0.23504	0.1906	0.20934	0.27583	0.25343	0.19671	0.26781	0.034035	0.18758	0.24335	0.23779	-2.1146	-2.1312	-2.6542	-2.6875	-2.1562	-2.6813	-2.6229	-2.4979	-2.7687	-2.3229	-2.5854	-2.6958	-2.2396	-2.7333	-2.5604	-2.3542	300.240	298.351	176.143	300.963	163.502	244.986	248.450	244.754	0.410	187.185	225.267	64.826	65.369	219.219	223.797	-5.942	0.00015995	0.00058925	0.00012976	1384.5	2.4262e-06	4.8297e-06	1374.3	368.96	2.0131e-06	4.9618e-06	424.42	139.05	121.17	42.209	3.6692e-06	52.399	0.00042297	0.00058929	0.00015334	1390.2	6.2216e-06	6.1673e-06	1384.1	374.19	5.8879e-06	6.5068e-06	427.71	142.58	124.05	43.034	6.0172e-06	53.245	182.210	34.577	44.011	-38.697	120.780	112.391	-38.545	-34.206	123.203	89.428	-34.666	-29.903	-29.424	-25.235	105.395	-25.821	-8191	255	
41399.578	1	1	0	0	0.20137	0.071901	0.4315	0.19726	0.27362	0.059991	0.0088661	0.17845	0.20297	0.11421	0.11389	0.13689	0.1028	0.098489	0.15504	0.24047	-2.3125	-2.2313	-2.4667	-2.7917	-2.3604	-2.8646	-2.6125	-2.425	-2.6188	-2.2708	-2.4521	-2.6125	-2.3812	-2.6917	-2.4167	-2.2771	72.424	87.476	205.753	230.828	51.110	-49.142	-42.576	191.073	30.017	30.117	-19.388	176.564	296.971	228.975	166.044	58.689	0.00013671	0.00056515	0.00015028	1382.7	2.8815e-06	4.3778e-06	1372.1	368.87	2.4794e-06	4.634e-06	421.95	139.63	121.31	42.049	3.8236e-06	52.298	0.00041462	0.00057171	0.00015281	1388.6	6.3576e-06	5.874e-06	1382.5	374.15	5.9178e-06	6.2238e-06	427.08	142.6	124.25	42.959	5.7858e-06	53.255	185.135	32.421	47.548	-38.725	136.276	117.302	-38.691	-34.124	127.206	84.626	-34.471	-29.960	-29.535	-25.226	139.827	-25.636	-8191	255	
41399.676	1	1	0	0	0.12411	0.22799	0.28669	0.24726	0.19451	0.23789	0.33303	0.062063	0.054619	0.21658	0.38971	0.088775	0.16532	0.18736	0.18204	0.12105	-2.2729	-2.3021	-2.2625	-2.675	-2.2062	-2.5354	-2.7146	-2.2604	-2.6604	-2.3563	-2.5333	-2.55	-2.0896	-2.4833	-2.45	-2.3583	101.640	125.049	291.402	244.817	66.923	261.942	282.918	253.299	228.435	108.945	252.092	225.424	288.591	278.547	-13.079	195.298	0.00014745	0.00052728	0.00015946	1381.1	3.4555e-06	4.7272e-06	1374.1	368.58	2.2563e-06	4.9927e-06	421.51	138.72	121.35	42.062	3.3881e-06	52.388	0.00041326	0.00056617	0.00015051	1387.8	6.1527e-06	5.998e-06	1382.7	373.51	5.9777e-06	6.0132e-06	426.72	142.52	124.09	42.897	5.9914e-06	53.126	182.121	42.546	40.707	-38.756	127.232	115.267	-38.806	-33.970	111.618	107.309	-34.400	-29.984	-29.448	-25.384	120.755	-25.620	-8191	255	
41399.746	1	1	0	0	0.044592	0.067975	0.097438	0.076006	0.049405	0.30623	0.26272	0.15541	0.15451	0.16518	0.17128	0.27902	0.21678	0.26571	0.36906	0.21609	-2.3583	-2.2313	-2.3146	-2.7333	-2.1208	-2.5187	-2.6604	-2.2687	-2.6688	-2.3042	-2.4792	-2.5833	-2.5521	-2.4562	-2.5625	-2.5875	264.083	218.802	-39.421	229.364	222.292	-34.845	285.904	299.000	213.898	5.571	149.476	281.348	75.160	-23.802	-40.510	229.566	0.00015231	0.00046066	0.00011422	1380.6	3.0411e-06	3.7679e-06	1365.6	369.22	2.5408e-06	4.064e-06	422.21	138.2	121.5	42.069	3.6206e-06	52.16	0.00039815	0.00055547	0.00014821	1385.3	6.3034e-06	5.8718e-06	1377.3	373.8	6.0592e-06	5.9926e-06	426.14	142.29	124.02	42.889	5.8824e-06	53.112	186.274	45.260	57.750	-38.794	141.648	115.251	-38.603	-34.101	122.152	88.111	-34.342	-29.952	-29.530	-25.075	90.589	-25.907	-8191	255	
41399.867	1	1	0	0	0.10179	0.18122	0.28057	0.32865	0.21861	0.035905	0.18854	0.13036	0.17649	0.1893	0.29197	0.2727	0.41138	0.29371	0.36198	0.13913	-2.0667	-2.3563	-2.2667	-2.7542	-2.4104	-2.7375	-2.7854	-2.3937	-2.7188	-2.5021	-2.4042	-2.8771	-2.4896	-2.6333	-2.5812	-2.3771	-17.015	20.370	76.378	-50.635	52.911	160.168	169.401	-15.104	147.138	17.917	-47.178	221.652	-28.231	34.014	68.117	26.642	0.00014796	0.00056073	0.00014367	1378.7	3.598e-06	4.9686e-06	1369.3	368.62	1.2964e-06	5.1515e-06	421.63	138.84	120.54	42.173	3.6378e-06	52.257	0.00040184	0.0005379	0.00015401	1386.5	6.1398e-06	5.9603e-06	1382.8	373.62	6.1009e-06	5.8285e-06	426.75	142.63	123.84	43.019	6.0296e-06	53.168	188.683	39.095	41.986	-38.927	98.776	110.814	-38.603	-34.048	117.929	106.630	-34.571	-29.971	-29.292	-25.149	116.457	-25.704	-8191	255	
41399.965	1	1	0	0	0.11468	0.14498	0.13304	0.17247	0.18568	0.19658	0.1855	0.39524	0.25108	0.091175	0.20541	0.1795	0.25543	0.025191	0.17794	0.27347	-2.1688	-2.3896	-2.4729	-2.7833	-2.4104	-2.35	-2.8917	-2.475	-2.6917	-2.5896	-2.3521	-2.7396	-2.5604	-2.4062	-2.8375	-2.0896	164.000	91.991	256.611	202.451	151.933	303.966	270.890	295.570	149.406	-26.100	300.194	228.732	11.057	109.747	124.327	226.869	0.00015029	0.00049395	0.00010855	1380.6	3.5412e-06	5.0791e-06	1375.1	369.66	2.6234e-06	4.3447e-06	422.51	138.88	121.4	42.097	4.6148e-06	52.219	0.00041458	0.00052863	0.00016072	1387.2	5.922e-06	5.7101e-06	1384.3	374.03	5.9686e-06	5.6999e-06	427.42	142.51	124.21	43.007	6.0822e-06	53.191	187.962	43.981	41.805	-38.662	118.963	89.854	-38.564	-34.065	129.232	90.383	-34.535	-30.006	-29.447	-25.177	115.035	-25.933	-8191	255	
41400.059	1	1	0	0	0.25835	0.20201	0.15963	0.22633	0.063768	0.12553	0.1204	0.14649	0.059788	0.083137	0.18151	0.42942	0.33864	0.18998	0.12279	0.12515	-2.1875	-2.5375	-1.9854	-2.7042	-2.5042	-2.3063	-2.8354	-2.2979	-2.5479	-2.5917	-2.4125	-2.6562	-2.6437	-2.4437	-2.8312	-2.1458	226.406	260.086	120.943	266.685	-48.107	21.879	-18.858	294.725	166.284	78.650	-13.370	223.036	230.370	265.155	258.174	231.968	0.00013502	0.00046902	0.00011956	1383.4	3.0455e-06	4.666e-06	1376.4	370.15	2.6398e-06	4.577e-06	423.42	139.32	121.72	42.232	2.273e-06	52.409	0.00041155	0.00053704	0.00015963	1388.6	6.108e-06	6.3841e-06	1385.2	374.49	6.1336e-06	5.7755e-06	428.08	142.94	124.2	43.06	6.043e-06	53.276	186.029	34.435	40.259	-38.821	134.274	89.242	-38.597	-34.009	152.980	91.557	-34.776	-29.992	-29.628	-25.067	91.806	-25.906	-8191	255	
41400.180	1	1	0	0	0.26148	0.16254	0.15642	0.23348	0.19879	0.24081	0.24781	0.32356	0.10594	0.14327	0.07447	0.17898	0.15535	0.4237	0.12567	0.18464	-2.0604	-2.6021	-2.2604	-2.8083	-2.6792	-2.2521	-2.7667	-2.4333	-2.4583	-2.8333	-2.3312	-2.7062	-2.5812	-2.4208	-2.7104	-2.3542	216.902	-47.629	61.051	299.065	181.403	269.577	240.769	298.114	26.766	-40.660	175.594	-19.747	295.701	305.588	284.180	46.564	0.00013688	0.00049596	0.00017123	1382.4	3.5945e-06	3.8015e-06	1375	368.62	1.8785e-06	5.1739e-06	422.54	139.09	121.58	42.285	4.0488e-06	52.358	0.00041264	0.00056044	0.00016158	1391.8	6.2414e-06	6.0508e-06	1385	374.01	5.8906e-06	6.0056e-06	427.44	142.75	124.28	43.039	6.1616e-06	53.283	183.338	32.191	35.348	-38.737	122.624	109.314	-38.405	-33.983	121.360	120.115	-34.429	-29.948	-29.514	-25.321	111.044	-25.682	-8191	255	
41400.273	1	1	0	0	0.1483	0.18742	0.19702	0.29925	0.19052	0.09708	0.23756	0.16269	0.14551	0.045282	0.060351	0.20839	0.15448	0.079378	0.21772	0.18314	-1.9333	-2.6208	-2.3146	-2.6458	-2.5542	-2.25	-2.675	-2.5625	-2.475	-2.675	-2.1521	-2.4938	-2.5312	-2.1125	-2.7	-2.6042	128.181	53.694	109.916	299.889	118.964	-28.331	266.961	97.022	56.888	130.181	191.926	-29.665	-16.589	245.431	240.695	8.897	0.00014313	0.00047965	0.00013114	1383.2	2.8825e-06	6.3772e-06	1378.4	369.76	1.8772e-06	3.9521e-06	424.87	139.29	121.48	42.288	4.4361e-06	52.471	0.0004065	0.00057878	0.00016597	1391	6.182e-06	6.5997e-06	1388.7	374.47	6.2106e-06	6.2551e-06	428.49	142.84	124.39	43.101	6.1663e-06	53.329	184.205	24.627	27.587	-38.734	132.262	100.751	-38.687	-33.993	110.492	105.475	-34.493	-30.081	-29.419	-25.062	103.291	-25.858	-8191	255	
41400.371	1	1	0	0	0.28015	0.22218	0.23482	0.043404	0.046103	0.2031	0.34853	0.18517	0.20027	0.095014	0.33915	0.11052	0.14092	0.16549	0.15206	0.10243	-1.7771	-2.5917	-2.2167	-2.6458	-2.4042	-2.2458	-2.5729	-2.4167	-2.3563	-2.7313	-2.3375	-2.4521	-2.7604	-2.2313	-2.6854	-2.5271	241.792	49.815	212.000	-29.258	134.140	13.712	292.930	277.503	187.680	85.193	5.940	-36.839	193.436	259.180	76.095	-14.111	0.00016098	0.00047762	0.00014954	1388	3.7889e-06	6.1703e-06	1377.3	369.59	3.1667e-06	4.2617e-06	423.1	139.63	121.43	42.295	4.2086e-06	52.241	0.0004361	0.00059024	0.0001715	1393.3	6.2457e-06	6.8866e-06	1386.7	374.69	6.7246e-06	6.5338e-06	428.27	143.11	124.43	43.193	6.6406e-06	53.292	186.584	40.908	51.678	-38.779	127.913	113.350	-38.536	-33.921	129.892	101.092	-34.425	-29.879	-29.620	-25.272	95.759	-25.778	-8191	255	
41400.469	1	1	0	0	0.16823	0.22608	0.30701	0.36189	0.17151	0.18902	0.18037	0.27052	0.21991	0.059892	0.28656	0.38483	0.13559	0.17736	0.065565	0.020429	-1.8563	-2.5708	-2.3396	-2.7854	-2.5521	-2.05	-2.7438	-2.4062	-2.1625	-2.6333	-2.3604	-2.3812	-2.7208	-2.1958	-2.5667	-2.7042	-42.334	154.707	46.620	297.212	-19.816	98.416	210.324	243.173	174.988	125.688	229.334	272.210	228.701	196.674	259.448	215.504	0.00015081	0.00041181	0.00017797	1389.7	2.9943e-06	4.6342e-06	1382.5	371.76	2.8989e-06	4.5122e-06	425.33	140.46	122.54	42.436	3.902e-06	52.664	0.00044873	0.00065167	0.0001784	1395.9	6.943e-06	7.401e-06	1393.1	376.79	7.0963e-06	7.1549e-06	430.73	144.03	125.42	43.45	6.8318e-06	53.631	186.244	36.044	37.607	-38.570	133.042	90.320	-38.818	-33.976	122.620	119.901	-34.513	-29.930	-29.589	-25.396	121.631	-25.828	-8191	255	
41400.562	1	1	0	0	0.16189	0.067319	0.18804	0.12535	0.14686	0.17593	0.18742	0.39466	0.16728	0.015142	0.12449	0.28872	0.14988	0.31049	0.29915	0.18967	-1.6812	-2.5312	-2.3021	-2.4042	-2.5583	-2.3667	-2.7562	-2.7521	-2.2833	-2.5417	-2.3438	-2.3	-2.6146	-2.2542	-2.4813	-2.8667	79.059	89.720	211.947	249.092	114.414	-4.779	272.413	242.218	279.082	237.924	188.683	284.669	-47.975	267.090	259.363	289.047	0.00015182	0.00065675	0.00014887	1389.6	3.0125e-06	5.135e-06	1385.3	372.56	2.3451e-06	5.2607e-06	425.77	140.33	122.51	42.654	3.9081e-06	52.669	0.0004668	0.00064985	0.0001776	1398.1	6.8337e-06	7.2026e-06	1394.1	377.64	7.1888e-06	7.2921e-06	431.23	144.1	125.56	43.554	6.6836e-06	53.745	189.446	46.192	49.781	-38.793	135.374	92.824	-38.622	-33.974	129.125	94.860	-34.459	-30.284	-29.634	-25.298	120.343	-26.149	-8191	255	
41400.660	1	1	0	0	0.19688	0.36909	0.20137	0.51019	0.14653	0.13314	0.21443	0.28287	0.094869	0.070829	0.33528	0.028118	0.18171	0.12317	0.21983	0.048836	-1.7458	-2.5583	-2.5438	-2.3917	-2.7562	-2.325	-2.6104	-2.7438	-2.2542	-2.6875	-2.7021	-2.325	-2.8271	-2.3875	-2.5812	-2.85	-33.823	256.029	164.043	252.691	215.318	-9.159	265.175	245.647	192.292	267.943	-51.045	289.252	268.468	261.233	99.300	235.265	0.00013848	0.0006354	0.00012726	1392.9	3.5758e-06	5.1255e-06	1385.4	374.08	2.4015e-06	5.0142e-06	427.05	140.58	122.64	42.563	3.2461e-06	52.829	0.00045141	0.00063734	0.00016618	1400.3	6.8552e-06	6.589e-06	1395.3	378.22	6.9023e-06	6.9723e-06	431.46	144.14	125.66	43.506	6.6196e-06	53.814	183.714	29.102	26.106	-38.824	127.835	94.600	-38.684	-34.269	139.193	99.474	-34.423	-30.179	-29.725	-25.294	101.301	-25.632	-8191	255	
41400.781	1	1	0	0	0.060859	0.34312	0.077357	0.066893	0.11306	0.12868	0.27413	0.15313	0.15055	0.061055	0.080441	0.086845	0.08186	0.075464	0.074361	0.061786	-1.7333	-2.4271	-2.3375	-2.4625	-2.6188	-2.4354	-2.525	-2.7125	-2.3083	-2.6083	-2.6146	-2.3063	-2.5979	-2.4292	-2.1937	-2.8292	65.968	-28.136	291.918	179.647	3.321	-34.057	268.467	222.007	217.137	93.074	-4.215	152.484	169.224	216.597	148.780	37.472	0.00014872	0.00040349	0.0001118	1392.5	3.032e-06	4.6812e-06	1390.9	373.16	2.1302e-06	4.3158e-06	428.34	140.64	122.58	42.722	3.6725e-06	53.062	0.00045961	0.00061479	0.00017222	1399.1	6.8328e-06	6.879e-06	1397.2	377.97	7.0038e-06	6.7671e-06	432.2	144.46	125.72	43.624	6.9886e-06	53.882	191.737	33.536	35.542	-38.840	143.481	101.350	-38.749	-34.013	118.904	88.049	-34.620	-29.975	-29.488	-25.272	114.526	-25.878	-8191	255	
41400.879	1	1	0	0	0.093624	0.06339	0.24237	0.27729	0.2782	0.12581	0.35106	0.20455	0.11375	0.076812	0.22768	0.23143	0.27533	0.18132	0.1673	0.094064	-1.9833	-2.2667	-2.4437	-2.3688	-2.55	-2.4729	-2.4792	-2.6583	-2.375	-2.3563	-2.8187	-2.3937	-2.7146	-2.4938	-2.2208	-2.8417	44.970	255.871	39.308	218.135	41.221	-3.386	235.538	224.310	297.574	243.038	283.686	236.790	299.566	243.229	91.301	211.087	0.00013765	0.00057774	0.00014317	1392	2.9867e-06	5.8372e-06	1382.6	371.54	1.5783e-06	6.5239e-06	427.9	140.61	123.2	42.989	3.5935e-06	52.754	0.00044434	0.00063371	0.00016741	1401.1	7.0739e-06	6.9438e-06	1396	377.83	6.8117e-06	6.5921e-06	432.45	144.45	125.95	43.706	6.8825e-06	53.881	185.077	42.358	42.043	-38.751	129.990	109.781	-38.634	-34.032	117.706	94.033	-34.719	-30.090	-29.608	-25.218	97.986	-26.009	-8191	255	
41400.973	1	1	0	0	0.45902	0.13009	0.14917	0.32578	0.11968	0.12767	0.32623	0.075981	0.030192	0.39008	0.25837	0.10074	0.072608	0.0393	0.19969	0.34066	-1.8312	-2.3563	-2.525	-2.3417	-2.5479	-2.5062	-2.5333	-2.8042	-2.1937	-2.5187	-2.5729	-2.5354	-2.6875	-2.5854	-2.1312	-2.7833	278.034	111.073	281.180	225.005	267.562	125.399	229.946	88.716	71.935	-32.416	209.626	232.926	-34.003	64.311	182.621	184.776	0.00015356	0.00058789	0.00017491	1398.2	2.7559e-06	4.7604e-06	1391.3	371.82	2.5293e-06	4.4485e-06	428.5	141.06	122.55	42.755	3.0255e-06	53.081	0.00045394	0.0005975	0.00017859	1402.1	6.7709e-06	6.7906e-06	1398.6	378	6.711e-06	6.6753e-06	432.31	144.62	125.86	43.593	7.307e-06	53.967	185.332	31.583	40.250	-38.744	121.204	105.045	-38.504	-34.097	112.835	99.749	-34.740	-30.078	-29.745	-25.301	115.446	-25.970	-8191	255	
41401.047	1	1	0	0	0.154	0.05852	0.086205	0.079201	0.19681	0.20579	0.13632	0.16378	0.080696	0.080049	0.12448	0.16222	0.25143	0.12846	0.20111	0.045736	-1.9146	-2.2833	-2.4229	-2.4604	-2.65	-2.5792	-2.2812	-2.7188	-2.5896	-2.2896	-2.8937	-2.3542	-2.4917	-2.6354	-2.2438	-2.6458	209.847	126.910	287.477	307.215	105.983	1.424	250.944	-17.824	38.397	205.216	175.237	259.485	209.057	229.124	259.110	28.182	0.00015617	0.00043005	0.00011169	1397.6	3.1889e-06	5.6266e-06	1387.8	373.51	2.7263e-06	5.0742e-06	427.31	141.1	123.14	42.652	3.1186e-06	53.014	0.0004424	0.00062205	0.00017017	1403.1	6.5238e-06	6.8122e-06	1398.8	378.55	6.5732e-06	6.6969e-06	432.14	144.62	125.98	43.601	6.9131e-06	53.927	191.387	18.418	25.031	-38.881	124.147	90.038	-38.508	-33.953	127.533	108.247	-34.519	-30.055	-29.611	-25.304	100.359	-25.848	-8191	255	
41401.164	1	1	0	0	0.22825	0.24117	0.13556	0.13459	0.18984	0.096191	0.24807	0.056425	0.20349	0.11186	0.036186	0.10413	0.051409	0.11573	0.14549	0.14458	-1.875	-2.1521	-2.7167	-2.6271	-2.5563	-2.6854	-2.2687	-2.7854	-2.4562	-2.4021	-2.6937	-2.5479	-2.5062	-2.5333	-2.2938	-2.7042	270.060	-43.464	212.826	-12.247	115.089	-34.465	265.319	251.626	1.219	58.677	168.486	288.593	199.310	255.704	294.408	167.237	0.00015942	0.00042255	0.00010368	1395.6	3.1294e-06	5.3574e-06	1389	374.01	3.1376e-06	6.0871e-06	429.32	140.54	122.82	42.824	3.3021e-06	52.947	0.00043739	0.00059569	0.00016861	1402.3	6.3705e-06	6.6839e-06	1397.7	378.41	6.4309e-06	7.0469e-06	432.97	144.37	125.74	43.651	6.7611e-06	53.936	183.318	25.796	37.332	-38.739	128.628	125.506	-38.505	-34.022	102.638	105.376	-34.689	-30.177	-29.604	-25.264	112.030	-25.803	-8191	255	
41401.262	1	1	0	0	0.17576	0.058177	0.066463	0.32762	0.17348	0.27056	0.30056	0.2847	0.10602	0.036821	0.16248	0.053782	0.26858	0.27038	0.11982	0.17561	-1.9958	-2.35	-2.8	-2.4688	-2.3417	-2.7375	-2.2562	-2.6417	-2.3958	-2.4062	-2.5312	-2.4333	-2.4583	-2.8042	-2.4	-2.5854	179.664	179.186	-6.033	225.433	63.499	163.127	258.869	286.990	228.393	273.963	177.221	-46.257	22.678	199.192	215.874	237.423	0.00014213	0.00051175	0.00013938	1395	3.5075e-06	4.1406e-06	1386.6	374.21	1.4547e-06	5.2556e-06	427.79	140.03	122.59	42.947	3.7039e-06	52.688	0.0004215	0.00061594	0.0001623	1401.3	6.5496e-06	6.7076e-06	1396.9	378.49	6.2958e-06	6.7941e-06	432.16	144.17	125.58	43.699	6.5517e-06	53.755	189.041	25.435	42.251	-38.715	135.908	107.823	-38.609	-33.804	106.375	105.635	-34.912	-29.865	-29.593	-25.227	105.573	-25.456	-8191	255	
41401.355	1	1	0	0	0.023523	0.034373	0.21357	0.067889	0.24964	0.096507	0.42291	0.21757	0.27218	0.24876	0.085838	0.27296	0.25347	0.22417	0.27669	0.18088	-2.1104	-2	-2.5875	-2.4562	-2.3542	-2.7438	-2.5104	-2.7646	-2.5854	-2.3083	-2.5854	-2.3812	-2.4688	-2.625	-2.5104	-2.5521	296.576	216.028	280.832	296.755	-14.344	277.499	264.024	301.895	110.193	285.025	196.577	205.223	-7.944	245.156	252.104	-15.400	0.00014031	0.00063173	0.00016733	1394.7	2.7776e-06	4.6852e-06	1391.8	372.97	2.604e-06	5.2582e-06	426.63	140.04	122.22	42.792	5.037e-06	52.667	0.00043393	0.00061336	0.00016043	1401.4	6.454e-06	6.4779e-06	1397.4	377.59	6.1698e-06	6.8244e-06	431.52	143.89	125.51	43.625	6.2658e-06	53.815	178.948	28.532	34.817	-38.763	143.845	90.184	-38.645	-34.024	125.333	90.747	-34.631	-29.674	-29.801	-25.427	113.318	-25.766	-8191	255	
41401.453	1	1	0	0	0.31763	0.11042	0.14785	0.10687	0.16857	0.20565	0.20784	0.23517	0.19568	0.14154	0.076665	0.31366	0.16374	0.068981	0.057045	0.11011	-1.9833	-2.125	-2.5125	-2.4688	-2.35	-2.7354	-2.7271	-2.4042	-2.5729	-2.2521	-2.6458	-2.5187	-2.4896	-2.6333	-2.3292	-2.675	278.883	-15.886	223.458	178.880	252.499	-31.724	219.386	245.558	253.277	111.384	275.608	246.670	56.348	258.421	80.341	127.688	0.00016368	0.0004504	0.00013868	1393.6	2.7448e-06	5.2747e-06	1383.8	372.12	1.9302e-06	4.5208e-06	427.46	140.65	122.64	42.693	4.0817e-06	52.77	0.00042794	0.00059865	0.00015302	1399.6	6.2569e-06	6.0918e-06	1395.1	376.91	6.1082e-06	6.3901e-06	431.17	144.01	125.45	43.472	6.1147e-06	53.831	191.160	37.382	37.634	-38.808	149.601	84.500	-38.544	-34.004	120.995	102.334	-34.528	-29.892	-29.464	-25.228	118.450	-25.823	-8191	255	
41401.547	1	1	0	0	0.1538	0.11655	0.13152	0.076515	0.27862	0.18086	0.03557	0.17658	0.12636	0.24343	0.33773	0.24798	0.19044	0.10601	0.054513	0.14585	-2.2396	-2.2313	-2.3646	-2.5083	-2.1833	-2.5062	-2.4292	-2.5854	-2.7792	-2.2458	-2.7583	-2.5687	-2.4021	-2.5521	-2.3812	-2.4271	249.283	234.115	163.242	229.715	307.546	306.426	125.082	72.651	294.981	197.094	248.289	204.063	264.609	238.476	235.167	220.250	0.00015216	0.00044193	0.00013849	1391.5	2.8327e-06	5.4897e-06	1386.4	372.97	2.5408e-06	5.1666e-06	427.3	140.17	122.54	42.498	4.3619e-06	52.767	0.00042678	0.00055939	0.00015372	1398.9	6.3731e-06	6.0897e-06	1394.8	377.47	6.2967e-06	6.2702e-06	431.37	143.93	125.58	43.427	5.9914e-06	53.776	182.490	45.861	49.101	-38.730	125.055	111.330	-38.708	-34.103	115.376	93.915	-34.574	-30.105	-29.779	-25.242	123.667	-25.994	-8191	255	
41401.645	1	1	0	0	0.3468	0.11902	0.19109	0.20311	0.12928	0.11463	0.18436	0.11789	0.18834	0.16799	0.04506	0.11419	0.3609	0.11973	0.19654	0.15893	-2.2417	-2.2771	-2.5729	-2.6729	-2.125	-2.7083	-2.5354	-2.4542	-2.5625	-2.3063	-2.6604	-2.5521	-2.2458	-2.55	-2.5	-2.2458	0.316	136.318	253.183	244.225	211.925	105.977	232.795	281.144	176.037	-48.304	272.531	295.876	-33.110	105.107	248.274	119.725	0.00014861	0.00049532	9.9413e-05	1388.9	3.5424e-06	4.4563e-06	1387.4	372.79	3.2051e-06	5.1493e-06	426.38	140.48	122.46	42.636	3.1696e-06	52.969	0.00043467	0.000572	0.00015398	1397.7	6.4635e-06	6.1727e-06	1395.8	377.74	6.1508e-06	6.1503e-06	431.34	144.19	125.42	43.533	6.2839e-06	53.886	186.927	43.450	49.323	-38.885	141.490	102.202	-38.607	-34.007	111.664	83.834	-34.570	-30.094	-29.484	-25.577	110.422	-25.695	-8191	255	
41401.738	1	1	0	0	0.14236	0.097369	0.33902	0.26351	0.3061	0.038252	0.020856	0.039622	0.070908	0.16121	0.51622	0.41606	0.074666	0.017273	0.13076	0.28527	-2.3688	-2.275	-2.5708	-2.7521	-2.2771	-2.3875	-2.6792	-2.2083	-2.7938	-2.3458	-2.4313	-2.7229	-2.2146	-2.7354	-2.3646	-2.3729	-46.612	196.618	106.086	-49.847	216.572	254.696	269.952	34.013	127.960	62.513	245.945	267.112	253.125	-21.335	172.502	262.484	0.00014608	0.00041507	0.00017582	1391	4.1058e-06	5.8928e-06	1386.3	371.35	2.2749e-06	5.5113e-06	426.23	140.44	122.24	42.692	3.1562e-06	52.767	0.00042173	0.00057133	0.0001607	1398.8	6.4661e-06	6.0681e-06	1395.2	376.67	6.2288e-06	6.0391e-06	431.47	143.96	125.48	43.535	6.3356e-06	53.861	185.867	37.995	49.496	-38.734	134.815	96.081	-38.599	-34.142	119.645	111.949	-34.591	-30.125	-29.646	-25.172	107.735	-25.619	-8191	255	
41401.859	1	1	0	0	0.24049	0.15808	0.29156	0.32485	0.047294	0.18168	0.30492	0.13053	0.17912	0.31097	0.28758	0.29716	0.23235	0.19092	0.024161	0.21832	-2.2687	-2.5146	-2.4292	-2.825	-2.2604	-2.4792	-2.8083	-2.4833	-2.6792	-2.3812	-2.3271	-2.6896	-2.3229	-2.4875	-2.5583	-2.3312	183.510	-7.821	269.592	250.888	229.808	160.951	241.194	229.142	33.270	229.329	-0.303	245.871	272.177	296.916	190.670	244.274	0.00016005	0.00035113	0.00013693	1392.7	2.5459e-06	4.1375e-06	1381.5	372.69	3.1529e-06	4.9255e-06	426.3	140.52	122.54	42.772	3.7309e-06	52.877	0.00042212	0.00055605	0.00016789	1398.5	6.2853e-06	6.2223e-06	1393.8	377.56	6.343e-06	6.3318e-06	431.28	144.15	125.41	43.552	6.3738e-06	53.841	184.626	31.948	43.983	-38.932	116.211	96.546	-38.507	-33.920	136.651	96.432	-34.650	-29.970	-29.197	-25.257	105.283	-25.898	-8191	255	
41401.957	1	1	0	0	0.14456	0.14309	0.12693	0.25329	0.11865	0.034198	0.32169	0.2462	0.22896	0.11078	0.011886	0.2823	0.051678	0.22922	0.19356	0.46529	-2.1229	-2.4688	-2.2292	-2.7625	-2.3021	-2.4729	-2.8854	-2.2583	-2.4604	-2.5458	-2.275	-2.825	-2.45	-2.55	-2.35	-2.4083	-3.151	140.846	5.601	-35.596	293.223	222.354	-39.779	208.371	175.802	217.380	222.466	-35.251	246.917	283.590	107.937	256.346	0.0001413	0.00048089	0.00013628	1391.7	2.9061e-06	4.9578e-06	1380.2	372.42	2.8179e-06	5.5339e-06	426.37	140.35	122.34	42.533	4.0829e-06	52.857	0.00041415	0.00054277	0.00016401	1398.4	6.3903e-06	6.3053e-06	1392.7	377.01	6.1925e-06	6.3826e-06	430.88	144.17	125.46	43.556	6.3863e-06	53.845	187.867	43.970	44.347	-38.781	105.162	93.940	-38.749	-34.029	103.919	89.582	-34.449	-29.982	-29.500	-25.182	92.476	-25.671	-8191	255	
41402.051	1	1	0	0	0.10204	0.29555	0.11652	0.14168	0.20611	0.078362	0.28824	0.30378	0.23557	0.19844	0.062615	0.20075	0.12217	0.20032	0.33211	0.40794	-2.1063	-2.2854	-2.1771	-2.9625	-2.2167	-2.3417	-2.7396	-2.325	-2.4229	-2.4854	-2.3042	-2.7396	-2.4125	-2.5229	-2.7438	-2.2896	221.894	173.637	-17.810	248.304	20.448	295.275	273.273	263.490	172.102	-26.030	104.743	229.047	226.584	289.171	223.806	179.399	0.00015053	0.0005322	0.00014799	1389.2	1.8667e-06	4.5936e-06	1384.2	371.51	2.7079e-06	5.9388e-06	425.51	140.57	122.63	42.784	3.6845e-06	52.926	0.0004206	0.00060276	0.00016848	1396.8	6.5031e-06	6.7399e-06	1392.2	377.22	5.9133e-06	6.7423e-06	430.87	144.13	125.31	43.567	6.4006e-06	53.831	179.998	25.576	49.397	-38.655	138.618	101.515	-38.506	-33.958	138.397	95.843	-34.603	-29.934	-29.422	-25.313	121.069	-25.569	-8191	255	
41402.148	1	1	0	0	0.14054	0.13304	0.17971	0.11905	0.18479	0.30907	0.1209	0.1365	0.078697	0.056815	0.12366	0.2087	0.25444	0.053486	0.34066	0.14711	-2.0854	-2.575	-2.5187	-2.6854	-2.4458	-2.4354	-2.9875	-2.5208	-2.5646	-2.8667	-2.2604	-2.6833	-2.4813	-2.2188	-2.8167	-2.3542	245.664	-24.890	283.094	266.273	43.530	-37.600	276.545	193.936	1.932	47.094	297.787	-0.888	8.703	-36.166	118.426	270.174	0.00014419	0.00050153	8.7338e-05	1389.6	2.3569e-06	5.3652e-06	1383.2	371.7	2.4638e-06	5.1363e-06	427.27	140.21	122.36	42.779	3.5803e-06	52.895	0.00043249	0.00060333	0.00016829	1397	5.8626e-06	6.6095e-06	1393.2	377.16	6.3176e-06	6.2584e-06	431.08	144.04	125.3	43.534	6.4341e-06	53.774	182.911	31.552	30.146	-38.756	145.927	105.930	-38.618	-34.023	123.824	85.897	-34.649	-30.155	-29.597	-25.234	100.494	-25.801	-8191	255	
41402.270	1	1	0	0	0.06645	0.24395	0.10534	0.16062	0.23175	0.063061	0.44838	0.38141	0.22174	0.25313	0.16773	0.01651	0.035242	0.22196	0.11722	0.2158	-1.9	-2.6188	-2.0146	-2.8	-2.4458	-2.2854	-2.8708	-2.3396	-2.3229	-2.7625	-2.3688	-2.4625	-2.4729	-2.2687	-2.6708	-2.4	115.926	-25.167	139.630	301.411	198.165	122.976	271.586	242.428	55.373	137.824	295.993	267.067	242.699	266.254	191.428	239.295	0.00013911	0.0004342	0.00010142	1387.7	3.3112e-06	4.247e-06	1385.7	370.46	1.3893e-06	4.4226e-06	425.91	139.88	122.52	42.678	4.0366e-06	52.771	0.00042165	0.0005976	0.00016626	1395.8	6.38e-06	6.6008e-06	1393.4	376.25	6.4436e-06	6.4355e-06	430.64	143.96	125.43	43.528	6.2122e-06	53.776	186.110	36.880	36.618	-38.777	130.126	106.952	-38.512	-33.879	145.574	89.783	-34.489	-29.898	-29.675	-25.181	106.459	-25.934	-8191	255	
41402.340	1	1	0	0	0.13293	0.11904	0.067882	0.26551	0.21279	0.17695	0.19335	0.15685	0.26234	0.10623	0.17675	0.3027	0.2903	0.23921	0.079183	0.28242	-2.1021	-2.4542	-2.1625	-2.8083	-2.6188	-2.1396	-3.0062	-2.3646	-2.3479	-2.75	-2.3312	-2.5417	-2.5812	-2.2	-2.7708	-2.4292	300.738	140.985	-26.283	-6.890	-30.691	213.165	286.592	0.028	194.489	-50.819	69.663	187.820	205.134	195.389	64.178	242.639	0.0001399	0.00048431	0.00013283	1392.6	2.9698e-06	5.3805e-06	1385.7	371.16	2.9296e-06	5.535e-06	427.11	140.64	122.29	42.576	3.6035e-06	52.831	0.00042282	0.00058986	0.0001642	1398.6	6.4868e-06	6.4908e-06	1394.1	376.32	6.5587e-06	6.5565e-06	431.03	144.11	125.29	43.524	6.0583e-06	53.82	186.706	25.174	37.013	-38.809	122.616	93.959	-38.502	-34.336	121.629	106.217	-34.539	-29.944	-29.774	-25.192	101.843	-25.606	-8191	255	
41402.461	1	1	0	0	0.13644	0.34598	0.31218	0.24697	0.11202	0.076413	0.28633	0.07968	0.075801	0.27487	0.19062	0.16032	0.27163	0.25048	0.17971	0.17803	-1.7396	-2.725	-2.1146	-2.5563	-2.7208	-2.3375	-2.775	-2.4146	-2.3333	-2.6875	-2.4229	-2.6083	-2.6354	-2.3708	-2.5417	-2.5583	195.485	-10.949	161.460	275.859	100.776	99.765	244.723	153.221	7.774	2.874	209.088	208.467	264.986	280.200	298.944	259.552	0.00015334	0.00052284	0.00014052	1390.9	2.5887e-06	3.7965e-06	1378.3	371.29	2.1406e-06	5.3123e-06	427.6	140.16	122.6	42.705	3.6664e-06	52.635	0.00044181	0.00058146	0.00016131	1397.1	6.2793e-06	6.7054e-06	1392.9	376.34	6.4762e-06	6.1892e-06	431.07	144.11	125.45	43.554	6.0956e-06	53.749	183.990	41.558	46.626	-38.764	122.781	115.420	-38.707	-34.133	129.458	95.804	-34.693	-30.071	-29.496	-25.202	98.788	-25.893	-8191	255	
41402.559	1	1	0	0	0.28949	0.1234	0.089156	0.23866	0.13886	0.039968	0.23974	0.19734	0.13729	0.051013	0.10269	0.17566	0.08495	0.080211	0.093841	0.14797	-1.6583	-2.5438	-2.1688	-2.4729	-2.525	-2.2438	-2.6833	-2.5062	-2.1813	-2.7042	-2.4542	-2.5917	-2.6667	-2.4375	-2.4417	-2.8229	118.557	49.650	223.493	275.531	13.946	240.546	259.794	267.843	80.985	282.480	101.251	73.654	214.442	228.886	276.645	205.329	0.00014603	0.00043679	0.00013199	1390.2	2.9587e-06	5.5054e-06	1385.1	371.07	1.7179e-06	4.9451e-06	426.94	139.95	121.94	42.598	3.7173e-06	52.846	0.00044504	0.00057525	0.00016265	1396.2	6.4971e-06	6.2892e-06	1392.7	376.65	6.2813e-06	5.9181e-06	431.19	143.94	125.14	43.522	5.956e-06	53.784	186.629	26.341	34.502	-38.821	121.696	97.487	-38.454	-34.093	120.882	97.541	-34.612	-29.887	-29.630	-25.373	100.624	-25.613	-8191	255	
41402.652	1	1	0	0	0.17675	0.22808	0.17327	0.22502	0.058159	0.1547	0.22844	0.19337	0.13488	0.020578	0.30068	0.24878	0.11872	0.17657	0.20802	0.10967	-1.8312	-2.45	-2.475	-2.4833	-2.7229	-2.2542	-2.5812	-2.7146	-2.1979	-2.775	-2.4333	-2.4979	-2.7396	-2.3729	-2.4521	-2.6437	193.030	209.274	139.932	232.879	25.966	-23.510	278.649	279.546	34.104	57.448	151.982	223.014	257.362	283.690	209.044	244.358	0.00015124	0.0003781	0.00010821	1391.7	3.8276e-06	5.9974e-06	1383.8	372.21	2.0726e-06	4.7279e-06	425.38	140.19	122.53	42.627	3.4078e-06	52.563	0.0004314	0.00055824	0.00016059	1397.6	6.2121e-06	6.3862e-06	1393.5	376.7	6.6349e-06	6.2011e-06	430.03	143.9	125.45	43.483	6.2658e-06	53.7	190.945	22.856	52.696	-38.623	135.340	104.553	-38.569	-34.154	117.580	93.607	-34.977	-29.886	-29.416	-25.135	127.018	-25.711	-8191	255	
41402.750	1	1	0	0	0.23863	0.10612	0.16946	0.05962	0.10332	0.037297	0.32299	0.32713	0.16502	0.10518	0.20811	0.1804	0.14466	0.18556	0.13636	0.31446	-1.8667	-2.6458	-2.4729	-2.35	-2.7396	-2.2958	-2.6813	-2.6979	-2.1125	-2.5625	-2.5208	-2.2354	-2.65	-2.3042	-2.4042	-2.7917	-14.063	90.334	179.763	206.387	-25.463	2.742	246.870	182.649	303.775	4.929	255.848	69.464	-16.211	286.397	57.908	253.082	0.00015349	0.00046554	0.00014888	1391.1	2.1875e-06	4.5749e-06	1382.4	371.52	2.377e-06	3.8473e-06	426.25	139.71	122.79	42.574	3.5764e-06	52.682	0.00043424	0.00055461	0.00017268	1397.9	6.0675e-06	6.2676e-06	1393.1	376.59	6.4309e-06	5.9322e-06	430.77	143.96	125.53	43.476	6.1673e-06	53.758	182.065	34.028	56.613	-38.764	140.271	100.193	-38.667	-33.928	85.558	96.413	-34.536	-30.019	-29.472	-25.227	114.920	-25.645	-8191	255	
41402.871	1	1	0	0	0.30618	0.09654	0.34304	0.24674	0.11709	0.095453	0.30997	0.057783	0.23245	0.082314	0.054698	0.08329	0.16004	0.25166	0.043181	0.21667	-1.6521	-2.5187	-2.3792	-2.3104	-2.6667	-2.4583	-2.3333	-2.8042	-2.4104	-2.6042	-2.6083	-2.2521	-2.85	-2.4646	-2.4583	-2.75	253.156	293.078	271.099	282.338	50.207	266.523	284.932	99.380	-46.402	127.245	150.378	303.382	273.947	-34.203	-34.403	184.424	0.00015956	0.00040116	0.00012275	1394.5	2.144e-06	5.5673e-06	1386.5	371.85	3.6228e-06	4.2694e-06	424.91	139.44	122.84	42.707	4.0255e-06	52.689	0.00043	0.00056359	0.00016653	1396.7	5.972e-06	6.3172e-06	1393	376.49	6.3992e-06	6.3372e-06	430.33	143.75	125.33	43.476	6.4054e-06	53.811	187.905	42.811	52.690	-38.819	136.029	91.529	-38.648	-34.103	116.829	91.831	-34.496	-30.130	-29.617	-25.093	127.518	-25.757	-8191	255	
41402.941	1	1	0	0	0.055963	0.063087	0.23324	0.37378	0.3635	0.011312	0.21839	0.12841	0.31494	0.093375	0.22002	0.22247	0.11539	0.07505	0.27283	0.10067	-1.9688	-2.4521	-2.5208	-2.3104	-2.5854	-2.5292	-2.4021	-3.0146	-2.2354	-2.6417	-2.7083	-2.4813	-2.4167	-2.4771	-2.1229	-2.825	261.327	-29.449	-41.467	281.613	115.919	128.445	229.344	57.878	270.102	53.541	234.343	291.520	149.096	254.175	88.783	19.654	0.00015666	0.00050091	0.00016912	1390.6	3.9326e-06	5.0988e-06	1381.2	371.65	1.7104e-06	4.6033e-06	426.56	139.9	122.52	42.682	4.2246e-06	52.913	0.00041528	0.0005634	0.00016043	1396.6	6.0727e-06	6.3895e-06	1392.8	376.7	6.2179e-06	6.4485e-06	430.97	143.89	125.3	43.473	6.5679e-06	53.718	180.034	35.430	28.016	-38.738	109.565	86.723	-38.620	-33.947	131.829	93.197	-34.735	-30.092	-29.366	-25.288	125.410	-25.713	-8191	255	
41403.039	1	1	0	0	0.14909	0.24148	0.090105	0.24568	0.23788	0.16594	0.14927	0.065086	0.14491	0.17029	0.19684	0.22881	0.17624	0.13828	0.04181	0.2077	-1.7958	-2.3729	-2.6396	-2.4083	-2.5917	-2.5146	-2.5792	-2.6625	-2.4313	-2.4292	-2.5833	-2.2938	-2.5479	-2.5229	-2.2021	-2.8354	237.325	178.176	54.648	232.920	6.551	42.417	187.429	235.431	-15.027	301.858	272.405	236.992	243.764	283.672	-40.081	107.749	0.00016781	0.00058153	0.00010675	1385.6	3.7705e-06	5.7569e-06	1381.1	370.82	2.2119e-06	6.4532e-06	427.48	140.07	122.27	42.631	3.8926e-06	52.863	0.00042791	0.0005891	0.00016072	1394.9	6.3878e-06	6.4563e-06	1390.6	375.99	6.1862e-06	6.5327e-06	430.38	143.72	125.03	43.405	6.4723e-06	53.699	186.505	28.438	33.064	-38.802	120.225	94.380	-38.817	-33.941	159.831	91.771	-34.566	-29.953	-29.499	-25.520	114.291	-25.746	-8191	255	
41403.133	1	1	0	0	0.29795	0.28095	0.16424	0.20357	0.080281	0.1163	0.040883	0.26292	0.23193	0.30617	0.016837	0.024107	0.10144	0.13887	0.098117	0.12377	-2	-2.5479	-2.4583	-2.4292	-2.6208	-2.5625	-2.2771	-2.8187	-2.3937	-2.3458	-2.7167	-2.3937	-2.4333	-2.5979	-2.3063	-2.6583	-2.796	104.033	280.703	29.672	166.099	210.389	9.944	285.313	127.619	-39.049	256.583	264.986	302.530	96.960	-44.576	134.416	0.0001482	0.00054734	0.00011436	1385.5	3.1473e-06	3.902e-06	1379.1	371.24	2.7325e-06	4.4287e-06	426.21	140.24	121.84	42.693	3.7119e-06	52.716	0.00042705	0.00057945	0.00015727	1395.7	6.2182e-06	6.4596e-06	1391.4	376.26	6.2469e-06	6.6602e-06	430.36	143.78	125.11	43.522	6.2639e-06	53.669	178.927	33.889	39.378	-38.756	123.655	94.046	-38.636	-34.165	110.099	89.136	-34.639	-30.082	-29.541	-25.194	111.798	-25.785	-8191	255	
41403.230	1	1	0	0	0.08783	0.025063	0.25154	0.4992	0.17329	0.32453	0.27427	0.17572	0.16765	0.15204	0.065871	0.14331	0.19472	0.18423	0.27642	0.15796	-1.8604	-2.3646	-2.7208	-2.3125	-2.3854	-2.7854	-2.4333	-2.7938	-2.525	-2.25	-2.85	-2.4021	-2.5062	-2.7208	-2.35	-2.4896	260.303	194.249	260.532	259.025	-1.164	163.181	151.977	231.720	119.979	257.137	222.292	160.972	252.426	282.301	271.839	16.060	0.0001553	0.00038359	0.00011564	1389.7	2.896e-06	6.5279e-06	1377.6	370.94	2.5564e-06	4.6357e-06	426.11	139.82	122.19	42.558	3.1374e-06	52.747	0.00043051	0.00057668	0.00015564	1396.5	6.566e-06	6.37e-06	1391.2	376.09	6.2922e-06	6.4917e-06	430.09	143.76	125.11	43.409	6.3796e-06	53.757	185.877	38.321	37.566	-38.809	131.601	113.692	-38.705	-34.011	124.761	80.354	-34.559	-30.039	-29.455	-25.244	101.878	-25.757	-8191	255	
41403.348	1	1	0	0	0.08758	0.070997	0.018162	0.23171	0.27353	0.22068	0.14759	0.17125	0.12854	0.11086	0.34753	0.027986	0.25619	0.12808	0.078139	0.20126	-2.0438	-2.2104	-2.7729	-2.5938	-2.4896	-2.6063	-2.5854	-2.5625	-2.4938	-2.3333	-2.7417	-2.6167	-2.5417	-2.7188	-2.1208	-2.3958	165.421	273.236	248.371	261.753	-49.175	163.257	303.037	253.161	197.458	234.234	283.413	201.208	-34.528	207.455	135.018	286.527	0.00015055	0.00048803	0.00013136	1387.7	2.877e-06	4.5562e-06	1378.7	370.53	2.5013e-06	5.2136e-06	426.04	139.48	122.2	42.608	2.9711e-06	52.659	0.00042554	0.00058738	0.00015155	1396.9	6.2483e-06	6.2784e-06	1390.1	376.12	6.4382e-06	6.5792e-06	430.45	143.73	125.05	43.457	6.3107e-06	53.688	182.996	43.781	35.281	-38.770	137.714	125.002	-38.531	-34.195	107.116	94.607	-34.623	-30.134	-29.460	-25.191	95.395	-25.933	-8191	255	
41403.445	1	1	0	0	0.18832	0.10434	0.083573	0.084658	0.10208	0.22267	0.31344	0.24345	0.20684	0.19372	0.31439	0.070341	0.22743	0.32949	0.045082	0.20408	-2.2021	-2.0896	-2.675	-2.6271	-2.4604	-2.6	-2.3104	-2.6333	-2.5062	-2.2125	-2.6937	-2.4521	-2.3729	-2.6292	-2.2687	-2.6312	146.506	230.468	24.691	294.839	168.024	253.547	243.222	245.887	115.085	133.034	-39.472	235.333	0.418	245.729	126.291	227.324	0.00014845	0.00062064	0.00013539	1385.6	3.2599e-06	4.8905e-06	1379.3	370.78	2.1021e-06	5.2057e-06	424.21	139.39	121.93	42.553	3.3229e-06	52.807	0.00042961	0.00057095	0.00015524	1394.5	6.516e-06	6.1145e-06	1391.4	375.97	6.4001e-06	6.4074e-06	430.18	143.47	125.02	43.384	6.3968e-06	53.676	184.028	37.251	38.972	-38.817	131.181	96.546	-38.789	-34.120	103.617	101.126	-34.555	-29.893	-29.583	-25.153	117.062	-25.860	-8191	255	
41403.539	1	1	0	0	0.22424	0.24754	0.33563	0.29744	0.15633	0.099729	0.29361	0.29672	0.076885	0.15728	0.10501	0.33227	0.047112	0.29321	0.30916	0.29451	-2.1104	-2.3479	-2.4979	-2.4542	-2.2812	-2.6521	-2.5375	-2.4396	-2.6021	-2.2667	-2.4917	-2.4125	-2.4271	-2.6833	-2.2667	-2.3792	64.423	-48.760	236.794	295.372	237.205	82.247	247.269	275.475	124.819	206.447	282.175	298.717	192.568	224.358	-6.270	250.872	0.00015411	0.00039703	0.00011492	1390.4	2.2945e-06	5.344e-06	1381.6	370.79	2.3632e-06	5.2904e-06	425.48	139.93	121.82	42.607	4.3889e-06	52.877	0.00042802	0.00055987	0.00015503	1396.9	6.3258e-06	6.19e-06	1391.7	376.25	6.1662e-06	6.3459e-06	429.99	143.75	124.97	43.438	6.3958e-06	53.791	188.816	14.185	51.421	-38.661	130.031	86.270	-38.505	-33.966	101.946	98.136	-34.552	-30.009	-29.390	-25.232	104.226	-25.728	-8191	255	
41403.637	1	1	0	0	0.11647	0.12619	0.2215	0.44525	0.30773	0.21015	0.29015	0.055464	0.18836	0.37331	0.1034	0.15638	0.4353	0.1387	0.1664	0.17441	-2.1604	-2.1292	-2.5187	-2.6813	-2.2792	-2.7083	-2.4771	-2.5229	-2.6333	-2.1896	-2.6292	-2.6354	-2.1875	-2.6521	-2.2646	-2.4271	290.125	296.581	197.165	222.059	139.707	205.941	278.495	280.618	291.083	120.449	121.608	245.534	281.343	201.462	-0.730	244.905	0.00014356	0.00050114	0.0001268	1384.7	2.2998e-06	5.1263e-06	1381.1	370.79	2.415e-06	5.4309e-06	425.25	140.21	121.87	42.477	3.5831e-06	52.565	0.00041823	0.00056932	0.00015586	1395.9	6.3361e-06	6.1317e-06	1392.9	376.09	6.255e-06	6.159e-06	429.93	143.79	124.9	43.405	6.5096e-06	53.59	187.621	48.613	54.337	-38.742	118.153	103.686	-38.700	-34.030	119.458	107.586	-34.487	-29.868	-29.482	-25.195	102.448	-25.741	-8191	255	
41403.734	1	1	0	0	0.25679	0.20561	0.1698	0.25977	0.082679	0.33589	0.094279	0.20569	0.17778	0.084545	0.25921	0.10799	0.045585	0.21593	0.18748	0.18748	-2.2896	-2.1875	-2.4896	-2.6896	-2.3521	-2.7313	-2.4688	-2.3854	-2.6521	-2.4562	-2.6021	-2.6896	-2.1708	-2.6083	-2.4104	-2.4583	166.387	204.674	189.014	281.036	296.002	-47.065	8.857	-43.435	208.256	7.399	256.197	16.452	289.186	-41.966	266.538	31.132	0.0001541	0.00055462	0.00017499	1387.4	3.6621e-06	5.2426e-06	1381.2	371.31	2.0472e-06	4.7086e-06	427.07	140.04	121.83	42.478	2.7612e-06	52.823	0.00042468	0.00058356	0.00016872	1396.5	6.4558e-06	6.4078e-06	1391.4	376.26	6.0212e-06	6.5176e-06	430.82	143.65	124.85	43.311	6.4474e-06	53.716	183.160	49.959	46.580	-38.945	111.627	98.000	-38.677	-34.130	110.103	102.654	-34.625	-29.997	-29.506	-25.290	116.146	-26.016	-8191	255	
41403.828	1	1	0	0	0.18834	0.2717	0.030735	0.23036	0.27087	0.12784	0.16077	0.097681	0.29021	0.12967	0.47691	0.1076	0.17369	0.17749	0.31227	0.19899	-2.2146	-2.2375	-2.3833	-2.6542	-2.0979	-2.4604	-2.7708	-2.3542	-2.6083	-2.1375	-2.55	-2.6292	-2.4042	-2.5083	-2.4729	-2.5187	48.933	224.236	195.997	303.668	-27.742	150.846	306.023	223.896	283.622	82.322	236.753	-47.341	4.489	152.198	30.697	185.836	0.00013782	0.00054427	0.00014899	1386.1	2.9459e-06	5.0185e-06	1379.7	371.58	2.673e-06	5.548e-06	425.77	140.05	122.04	42.598	3.7228e-06	52.621	0.00041466	0.00057171	0.00016837	1395.5	6.2862e-06	6.2827e-06	1392.9	376.53	6.0112e-06	6.3945e-06	430.31	143.57	124.99	43.411	6.4532e-06	53.622	184.125	27.298	57.198	-38.853	142.316	120.471	-38.744	-34.187	120.912	84.809	-34.673	-29.980	-29.329	-24.952	121.468	-25.735	-8191	255	
41403.949	1	1	0	0	0.10924	0.12431	0.30349	0.071392	0.23786	0.18429	0.18302	0.11948	0.18188	0.33064	0.22314	0.22239	0.18045	0.24204	0.24829	0.13931	-2.4042	-2.5292	-2.325	-2.7854	-2.2562	-2.6896	-2.7458	-2.2979	-2.6875	-2.4688	-2.5021	-2.6875	-2.4771	-2.6708	-2.5396	-2.3229	222.633	170.970	88.700	89.062	186.756	110.823	249.566	-45.601	190.651	155.490	278.250	221.165	271.022	-10.137	105.367	199.872	0.00015065	0.00054916	0.00012575	1388.6	3.3411e-06	4.2641e-06	1378.1	371.26	2.4143e-06	5.1092e-06	426.31	140.02	121.94	42.532	3.4379e-06	52.744	0.00040599	0.00059875	0.00016942	1396.3	6.3533e-06	6.3582e-06	1390.8	376.04	5.9205e-06	6.6018e-06	430.33	143.79	124.84	43.411	6.3652e-06	53.69	185.123	48.138	27.974	-38.763	131.124	101.444	-38.701	-34.013	116.493	113.034	-34.600	-29.879	-29.553	-25.424	122.547	-25.751	-8191	255	
41404.047	1	1	0	0	0.12838	0.067998	0.23117	0.19011	0.25222	0.26171	0.17382	0.19817	0.26991	0.058228	0.085078	0.36099	0.26917	0.41318	0.096618	0.21617	-2.1208	-2.4771	-2.1708	-2.9125	-2.2979	-2.5208	-2.8542	-2.3125	-2.4167	-2.4333	-2.3958	-2.8458	-2.3542	-2.4771	-2.5125	-2.225	183.809	176.904	217.788	255.280	-28.905	27.481	300.908	209.754	193.907	95.082	2.090	254.155	241.019	306.771	144.256	125.927	0.00014401	0.00052339	0.00013659	1384.9	3.2973e-06	4.9569e-06	1377	370.99	2.6977e-06	4.848e-06	424.94	139.8	122.13	42.541	3.1534e-06	52.718	0.00042526	0.000587	0.00016629	1394.6	6.2965e-06	6.4164e-06	1391.2	376.05	6.1952e-06	6.3113e-06	429.81	143.66	124.99	43.409	6.1874e-06	53.634	187.058	27.214	51.690	-38.704	132.744	111.567	-38.773	-34.103	92.950	81.410	-34.490	-30.118	-29.248	-25.149	135.079	-25.728	-8191	255	
41404.141	1	1	0	0	0.15985	0.17186	0.1265	0.13399	0.15515	0.36452	0.33306	0.041728	0.19399	0.41617	0.13757	0.17524	0.18648	0.1783	0.15509	0.1537	-2.0792	-2.5062	-2.3521	-2.9104	-2.4917	-2.2938	-2.8958	-2.1833	-2.6458	-2.6937	-2.1042	-2.7125	-2.3583	-2.4917	-2.7438	-2.3375	135.496	128.409	246.120	-43.729	0.398	214.685	229.427	175.902	82.379	222.650	211.990	294.198	256.096	-33.947	141.870	261.537	0.00015684	0.00056303	0.00013458	1385.7	2.4384e-06	6.1256e-06	1381	370.92	1.678e-06	4.5504e-06	425.84	139.32	121.97	42.808	3.3035e-06	52.576	0.00042864	0.00058566	0.00015741	1396.5	6.3895e-06	6.4811e-06	1391.1	376.53	6.1e-06	6.4614e-06	430.45	143.64	125.05	43.511	6.1099e-06	53.711	189.101	26.595	40.724	-38.611	138.230	90.322	-38.759	-33.943	110.879	102.528	-34.746	-29.913	-29.455	-25.203	102.710	-25.750	-8191	255	
41404.238	1	1	0	0	0.16074	0.13796	0.25165	0.4038	0.1754	0.13213	0.347	0.14185	0.22355	0.16569	0.096311	0.26543	0.31295	0.044114	0.22983	0.26942	-2.0771	-2.5583	-2.3187	-2.7417	-2.3708	-2.1729	-2.6833	-2.5792	-2.3854	-2.4979	-2.2979	-2.5979	-2.3187	-2.3333	-2.7208	-2.25	-37.157	100.965	-23.451	241.915	130.952	39.042	196.339	254.366	140.531	66.772	186.228	227.338	291.380	-18.094	255.868	263.167	0.0001587	0.00048586	0.00010441	1386	3.4509e-06	5.7909e-06	1380.2	371.89	2.6082e-06	5.3281e-06	423.37	139.36	121.5	42.524	3.3754e-06	52.392	0.0004368	0.00058155	0.00016099	1395.3	6.4687e-06	6.4585e-06	1391.2	376.74	6.3747e-06	6.3988e-06	430.09	143.42	124.87	43.315	6.0392e-06	53.517	188.090	32.938	46.173	-38.714	134.275	89.523	-38.652	-34.099	122.349	101.784	-34.619	-30.005	-29.268	-25.187	112.746	-25.898	-8191	255	
#DATA ENDS
