BOXY.EXE: ISS Imagent and Oximeter Data Acquisition Program Version 0.80
Ascii Record File

#ACQ INFORMATION
2  Detector Channels 
16  External MUX Channels 
1  Auxiliary Channels 
5000  Waveform (CCF) Frequency (Hz)
1  Waveforms Skipped 
30  Waveforms Averaged 
1  Cycles Averaged 
16  Acquisitions per Waveform 
10.0806  Updata Rate (Hz) 

#FILE INFORMATION
TRUE -- External MUX Channel results are PARSED.
FALSE -- AC DC and Phase are NOT grouped.
TRUE -- Companion Program Settings File CREATED.
FALSE -- AC data not excluded
FALSE -- DC data not excluded
FALSE -- Phase data not excluded
FALSE -- Auxillary Chn. data not excluded
Tab delimiters

#CALIBRATION STATE
TRUE -- Waveform Calibration Values APPLIED.


#AUX CALIBRATION VALUES
Val Type	aux-1	

Term	1.0000e+00	
Factor	0.0000e+00	


#WF CALIBRATION VALUES
A = Detector Channel
Val Type	A-AC1	A-AC2	A-AC3	A-AC4	A-AC5	A-AC6	A-AC7	A-AC8	A-AC9	A-AC10	A-AC11	A-AC12	A-AC13	A-AC14	A-AC15	A-AC16	A-DC1	A-DC2	A-DC3	A-DC4	A-DC5	A-DC6	A-DC7	A-DC8	A-DC9	A-DC10	A-DC11	A-DC12	A-DC13	A-DC14	A-DC15	A-DC16	A-Ph1	A-Ph2	A-Ph3	A-Ph4	A-Ph5	A-Ph6	A-Ph7	A-Ph8	A-Ph9	A-Ph10	A-Ph11	A-Ph12	A-Ph13	A-Ph14	A-Ph15	A-Ph16	

Term	0.00000e+00	0.00000e+00	0.00000e+00	0.00000e+00	0.00000e+00	0.00000e+00	0.00000e+00	0.00000e+00	0.00000e+00	0.00000e+00	0.00000e+00	0.00000e+00	0.00000e+00	0.00000e+00	0.00000e+00	0.00000e+00	0.00000e+00	0.00000e+00	0.00000e+00	0.00000e+00	0.00000e+00	0.00000e+00	0.00000e+00	0.00000e+00	0.00000e+00	0.00000e+00	0.00000e+00	0.00000e+00	0.00000e+00	0.00000e+00	0.00000e+00	0.00000e+00	0.00000e+00	0.00000e+00	0.00000e+00	0.00000e+00	0.00000e+00	0.00000e+00	0.00000e+00	0.00000e+00	0.00000e+00	0.00000e+00	0.00000e+00	0.00000e+00	0.00000e+00	0.00000e+00	0.00000e+00	0.00000e+00	
Factor	1.00000e+00	1.00000e+00	1.00000e+00	1.00000e+00	1.00000e+00	1.00000e+00	1.00000e+00	1.00000e+00	1.00000e+00	1.00000e+00	1.00000e+00	1.00000e+00	1.00000e+00	1.00000e+00	1.00000e+00	1.00000e+00	1.00000e+00	1.00000e+00	1.00000e+00	1.00000e+00	1.00000e+00	1.00000e+00	1.00000e+00	1.00000e+00	1.00000e+00	1.00000e+00	1.00000e+00	1.00000e+00	1.00000e+00	1.00000e+00	1.00000e+00	1.00000e+00	X	X	X	X	X	X	X	X	X	X	X	X	X	X	X	X	

B = Detector Channel
Val Type	B-AC1	B-AC2	B-AC3	B-AC4	B-AC5	B-AC6	B-AC7	B-AC8	B-AC9	B-AC10	B-AC11	B-AC12	B-AC13	B-AC14	B-AC15	B-AC16	B-DC1	B-DC2	B-DC3	B-DC4	B-DC5	B-DC6	B-DC7	B-DC8	B-DC9	B-DC10	B-DC11	B-DC12	B-DC13	B-DC14	B-DC15	B-DC16	B-Ph1	B-Ph2	B-Ph3	B-Ph4	B-Ph5	B-Ph6	B-Ph7	B-Ph8	B-Ph9	B-Ph10	B-Ph11	B-Ph12	B-Ph13	B-Ph14	B-Ph15	B-Ph16	

Term	0.00000e+00	0.00000e+00	0.00000e+00	0.00000e+00	0.00000e+00	0.00000e+00	0.00000e+00	0.00000e+00	0.00000e+00	0.00000e+00	0.00000e+00	0.00000e+00	0.00000e+00	0.00000e+00	0.00000e+00	0.00000e+00	0.00000e+00	0.00000e+00	0.00000e+00	0.00000e+00	0.00000e+00	0.00000e+00	0.00000e+00	0.00000e+00	0.00000e+00	0.00000e+00	0.00000e+00	0.00000e+00	0.00000e+00	0.00000e+00	0.00000e+00	0.00000e+00	-7.86066e+01	-1.31001e+02	-1.24786e+02	-1.83817e+02	-4.99121e+01	-6.53093e+01	-1.58668e+02	-1.62015e+02	-4.89199e+01	-6.62152e+01	-1.74374e+02	-1.69631e+02	-1.81559e+02	-1.77656e+02	-5.84456e+01	-1.50419e+02	
Factor	1.94216e-05	1.68321e-04	4.74969e-05	1.55115e-01	1.43856e-06	2.00494e-06	1.80626e-01	6.10451e-02	1.32424e-06	1.89511e-06	1.00420e-01	3.08861e-02	3.91032e-02	1.03895e-02	1.63570e-06	1.47649e-02	1.30170e-05	2.26506e-05	6.31162e-06	7.96424e-02	2.23240e-07	2.52336e-07	8.66108e-02	3.14689e-02	2.25496e-07	2.50935e-07	5.02129e-02	1.55535e-02	2.03098e-02	5.40091e-03	2.36603e-07	7.42413e-03	X	X	X	X	X	X	X	X	X	X	X	X	X	X	X	X	



#DISTANCE SETTINGS
A = Detector Channel
A-1	A-2	A-3	A-4	A-5	A-6	A-7	A-8	A-9	A-10	A-11	A-12	A-13	A-14	A-15	A-16	

2.5000e+00	3.0000e+00	2.5000e+00	3.0000e+00	2.0000e+00	3.0000e+00	1.5000e+00	3.0000e+00	3.0000e+00	3.0000e+00	3.0000e+00	3.0000e+00	3.0000e+00	3.0000e+00	1.5000e+00	3.0000e+00	

B = Detector Channel
B-1	B-2	B-3	B-4	B-5	B-6	B-7	B-8	B-9	B-10	B-11	B-12	B-13	B-14	B-15	B-16	

1.0000e+01	1.0000e+01	1.0000e+01	1.4400e+00	1.0000e+01	1.0000e+01	1.5100e+00	1.9400e+00	1.0000e+01	1.0000e+01	1.9900e+00	2.4900e+00	2.4100e+00	2.9000e+00	1.0000e+01	2.9800e+00	




#DATA BEGINS
time	group	step	mark	flag	A-AC1	A-AC2	A-AC3	A-AC4	A-AC5	A-AC6	A-AC7	A-AC8	A-AC9	A-AC10	A-AC11	A-AC12	A-AC13	A-AC14	A-AC15	A-AC16	A-DC1	A-DC2	A-DC3	A-DC4	A-DC5	A-DC6	A-DC7	A-DC8	A-DC9	A-DC10	A-DC11	A-DC12	A-DC13	A-DC14	A-DC15	A-DC16	A-Ph1	A-Ph2	A-Ph3	A-Ph4	A-Ph5	A-Ph6	A-Ph7	A-Ph8	A-Ph9	A-Ph10	A-Ph11	A-Ph12	A-Ph13	A-Ph14	A-Ph15	A-Ph16	B-AC1	B-AC2	B-AC3	B-AC4	B-AC5	B-AC6	B-AC7	B-AC8	B-AC9	B-AC10	B-AC11	B-AC12	B-AC13	B-AC14	B-AC15	B-AC16	B-DC1	B-DC2	B-DC3	B-DC4	B-DC5	B-DC6	B-DC7	B-DC8	B-DC9	B-DC10	B-DC11	B-DC12	B-DC13	B-DC14	B-DC15	B-DC16	B-Ph1	B-Ph2	B-Ph3	B-Ph4	B-Ph5	B-Ph6	B-Ph7	B-Ph8	B-Ph9	B-Ph10	B-Ph11	B-Ph12	B-Ph13	B-Ph14	B-Ph15	B-Ph16	aux-1	digaux	

20025.287	1	1	0	768	0.14117	0.14997	0.22268	0.18453	0.27799	0.16865	0.13669	0.32289	0.10091	0.26149	0.11637	0.25285	0.14968	0.06727	0.027573	0.04627	-1.9167	-3.0167	-2.3667	-2.7938	-2.8708	-2.1854	-3.0125	-2.9542	-2.2271	-3.0833	-2.6063	-2.8458	-3.0854	-2.4813	-2.8563	-2.6688	206.884	159.554	129.895	282.797	368.136	216.028	351.384	307.316	198.433	239.598	330.128	89.106	285.783	239.197	300.259	249.254	0.00055774	0.0010757	0.00033514	1326.5	5.0152e-06	9.4867e-06	1099.2	588.18	6.3992e-06	7.2231e-06	565.68	274.41	288.28	95.43	8.9276e-06	96.808	0.00081964	0.00089045	0.0002492	1300.2	9.1101e-06	9.7859e-06	1075.1	579.5	9.2806e-06	8.8198e-06	556.57	271.47	286.53	95.457	9.6485e-06	96.102	196.293	112.583	122.282	33.109	186.326	165.761	32.372	35.768	194.138	182.038	33.900	35.302	36.868	41.240	185.214	40.045	-8191	255	
20025.385	1	1	0	0	0.071398	0.095275	0.13372	0.20609	0.059947	0.061884	0.065516	0.12355	0.017139	0.22226	0.054149	0.20687	0.012873	0.21542	0.23162	0.39283	-2.1208	-3.1104	-2.4542	-2.6417	-3.1125	-2.3396	-2.7917	-2.9208	-2.2729	-3.0833	-2.6375	-2.5729	-3.1833	-2.7458	-2.65	-2.7812	146.125	222.866	363.920	302.006	318.555	306.693	223.289	271.604	61.747	336.060	311.884	277.856	38.547	371.810	78.987	332.768	0.00057466	0.00079765	0.00025482	1323.8	4.6251e-06	7.8259e-06	1090.7	583.36	5.6615e-06	1.1118e-05	563.95	272.58	287.72	95.14	9.7048e-06	96.7	0.00079903	0.00082302	0.00023529	1297	8.3715e-06	8.909e-06	1069.1	576.26	8.8183e-06	8.9416e-06	554.61	270.58	285.8	94.889	9.3917e-06	95.581	194.573	100.289	100.262	31.565	184.114	180.667	31.080	34.667	199.903	171.883	33.288	35.253	36.483	42.527	192.296	41.555	-8191	255	
20025.480	1	1	0	0	0.19873	0.030463	0.19296	0.12063	0.097058	0.1647	0.10668	0.41279	0.074066	0.23694	0.15571	0.19838	0.15735	0.16446	0.085848	0.020762	-1.7979	-2.8479	-2.6479	-2.6042	-2.9437	-2.3667	-2.7875	-3.2292	-2.3083	-3.05	-2.8646	-2.5187	-3.275	-2.6937	-2.5917	-3.25	338.716	355.417	36.219	336.678	64.095	314.010	300.914	325.331	164.217	304.288	275.478	346.643	356.172	27.930	353.220	284.462	0.00054057	0.0010375	0.00028187	1329.8	7.4442e-06	1.0789e-05	1098.2	590.35	8.1694e-06	9.6126e-06	568.18	274.99	291.02	95.669	7.7491e-06	96.453	0.00077877	0.00084831	0.000236	1300.8	8.5938e-06	9.4679e-06	1073	580.92	9.3562e-06	9.1476e-06	557.56	273.34	288.9	95.378	9.542e-06	95.574	198.682	107.532	106.770	32.909	191.181	168.602	32.170	35.754	200.217	192.784	33.562	35.223	36.642	42.388	175.544	41.420	-8191	255	
20025.576	1	1	0	0	0.34493	0.20795	0.12663	0.13488	0.23995	0.18756	0.28624	0.08007	0.16801	0.18797	0.14571	0.09672	0.2169	0.2956	0.17341	0.1794	-1.9521	-2.8521	-2.5604	-2.4979	-3.0083	-2.5229	-2.6125	-3.2188	-2.5	-2.7562	-2.9646	-2.4938	-3.0521	-2.5979	-2.4729	-2.9583	252.377	295.052	53.924	298.424	348.842	211.545	290.951	361.732	232.509	229.240	291.404	308.448	302.029	333.671	247.649	260.809	0.0005763	0.0009151	0.000249	1329.3	7.8036e-06	8.7093e-06	1093.3	586.24	6.3673e-06	8.8295e-06	564.45	274.79	290.75	95.183	1.0907e-05	96.108	0.00080079	0.00083161	0.00023304	1301.1	8.5575e-06	8.8249e-06	1070.7	579.03	9.1279e-06	8.8261e-06	556.1	272.77	289.06	95.223	9.2522e-06	95.606	193.616	109.658	106.975	33.110	190.689	173.385	31.695	34.439	186.176	170.628	31.986	33.667	35.043	40.976	178.620	40.014	-8191	255	
20025.674	1	1	0	0	0.055457	0.21836	0.14051	0.091218	0.27427	0.05302	0.11331	0.061467	0.21189	0.30049	0.14737	0.15903	0.11174	0.24891	0.1272	0.12503	-2	-2.6271	-2.8542	-2.6167	-2.9896	-2.6063	-2.4854	-3.1646	-2.4958	-2.4583	-2.9896	-2.5042	-3.1396	-2.8688	-2.3063	-3.0271	270.272	209.822	169.605	23.464	105.361	302.004	308.547	234.310	117.003	237.833	344.216	318.356	362.312	364.551	335.159	34.535	0.00055647	0.0009855	0.00028927	1326.3	7.718e-06	1.0907e-05	1091.6	587.71	6.439e-06	7.6574e-06	567.76	276.07	291.17	94.835	9.4273e-06	96.644	0.00077926	0.00079876	0.00022761	1299.4	8.2822e-06	8.8197e-06	1070.6	580.17	8.5656e-06	8.249e-06	558.23	274.2	289.6	94.912	8.6863e-06	95.633	199.699	97.041	107.312	31.481	192.692	170.272	30.899	34.263	206.609	160.600	32.225	33.784	35.153	41.216	179.401	40.626	-8191	255	
20025.770	1	1	0	0	0.089253	0.12883	0.017574	0.36271	0.16109	0.15372	0.16702	0.14469	0.23	0.12512	0.31085	0.11907	0.23375	0.26871	0.12854	0.023895	-1.9688	-2.7167	-2.9417	-2.4167	-2.9417	-2.7083	-2.4688	-3.2396	-2.4562	-2.6146	-3.0479	-2.4625	-2.8875	-2.9188	-2.3625	-3.2604	79.544	30.995	85.990	317.140	72.271	301.785	246.855	339.278	375.011	187.180	42.437	358.000	352.359	17.647	148.228	165.147	0.00055556	0.00078601	0.00021427	1317.7	6.3705e-06	8.6486e-06	1087.2	585.31	7.246e-06	9.5964e-06	564.33	273.72	289.06	95.217	8.507e-06	96.553	0.000758	0.00080735	0.000214	1292.7	8.1292e-06	8.5411e-06	1065.1	575.98	8.5059e-06	8.5532e-06	554.01	271.94	287.18	95.01	8.7538e-06	95.618	195.209	107.667	102.784	32.926	181.351	168.124	32.055	35.604	189.264	164.678	33.520	35.326	36.502	42.410	202.557	41.408	-8191	255	
20025.889	1	1	0	0	0.02481	0.1218	0.2339	0.25673	0.15242	0.06981	0.090674	0.25468	0.02892	0.17852	0.20101	0.16081	0.19992	0.20801	0.21817	0.067974	-2.1083	-2.4854	-2.9292	-2.4417	-2.8292	-2.8792	-2.5896	-3.1813	-2.7229	-2.5917	-3.1396	-2.7062	-2.9313	-3.1042	-2.1813	-3.0896	82.667	88.864	189.109	358.523	340.906	257.037	45.134	360.139	65.818	33.259	310.091	38.227	330.394	357.008	363.874	374.857	0.0005506	0.00093711	0.00019178	1318.1	9.2193e-06	9.6725e-06	1091.1	589.73	7.0907e-06	1.1368e-05	568.82	279.08	295.17	96.971	9.0779e-06	97.352	0.0007635	0.00080065	0.00020937	1291.6	8.2827e-06	8.5064e-06	1066.3	579.93	8.8963e-06	9.0289e-06	558.89	276.97	293.14	96.683	9.0663e-06	96.523	196.680	96.134	104.411	32.904	182.937	163.264	31.959	35.498	196.219	165.253	33.802	35.257	36.575	42.275	174.287	40.694	-8191	255	
20025.984	1	1	0	0	0.19374	0.15003	0.10282	0.076318	0.19168	0.21924	0.28854	0.095425	0.1992	0.23069	0.051838	0.23579	0.10541	0.15179	0.42234	0.026693	-2.1625	-2.525	-2.9333	-2.6063	-2.6375	-2.9646	-2.5583	-3.2854	-2.8229	-2.2042	-3.1667	-2.6167	-2.7042	-3.1917	-2.3292	-2.8896	211.906	327.197	146.446	53.642	32.421	22.349	17.922	304.757	336.298	150.905	228.445	296.437	121.826	340.385	232.495	111.574	0.00054555	0.00089606	0.00033583	1339.5	6.9361e-06	1.0366e-05	1111.6	601.44	7.8172e-06	1.1108e-05	579.44	285.58	300.87	97.54	9.3945e-06	97.572	0.0008169	0.00085105	0.00023287	1312.7	8.9468e-06	9.6682e-06	1085.3	591.77	9.406e-06	9.6558e-06	568.71	283.23	299.08	97.416	1.0081e-05	96.814	195.191	96.892	112.871	32.439	181.657	158.777	31.592	34.970	200.703	172.802	32.890	34.653	36.086	41.883	185.218	40.644	-8191	255	
20026.080	1	1	0	0	0.20158	0.23167	0.23473	0.31992	0.10962	0.20574	0.27175	0.2735	0.081242	0.11543	0.078663	0.13908	0.14183	0.11052	0.11483	0.068441	-2.5208	-2.4417	-2.8667	-2.6479	-2.5146	-3.0542	-2.4458	-3.05	-2.8792	-2.2062	-3.1688	-2.7479	-2.4958	-3.1	-2.2708	-2.9	187.763	360.843	115.192	31.688	98.244	20.779	284.783	285.589	355.899	191.113	324.916	27.359	371.579	307.085	185.557	128.365	0.00059712	0.00072762	0.00031551	1341.5	8.2651e-06	9.5188e-06	1107.3	598.59	6.2117e-06	8.3236e-06	572.83	280.52	295.6	96.659	1.0067e-05	97.046	0.00083005	0.00087814	0.00023932	1314.7	9.0677e-06	9.3943e-06	1081.8	587.76	8.9992e-06	9.3494e-06	562.95	278.76	293.76	96.491	9.5834e-06	96.462	193.325	96.564	118.028	32.583	206.722	150.328	32.035	35.294	201.762	150.848	33.152	34.762	36.092	41.679	187.623	40.880	-8191	255	
20026.176	1	1	0	0	0.083628	0.084436	0.062721	0.0905	0.054491	0.20491	0.39365	0.13213	0.11305	0.21873	0.39773	0.24629	0.22051	0.291	0.16104	0.036126	-2.3979	-2.2875	-2.9875	-2.7167	-2.4333	-2.9813	-2.5729	-2.7292	-2.9917	-2.2875	-3.1083	-2.8688	-2.4688	-3.3333	-2.3333	-2.7146	135.918	367.000	108.137	249.785	338.892	205.818	250.296	61.754	183.199	235.129	320.406	310.588	324.966	345.279	289.569	368.378	0.00053958	0.00087455	0.00018391	1336.1	8.6877e-06	8.7151e-06	1111.3	597.57	7.1806e-06	8.8493e-06	574.73	283.82	297.66	97.444	9.9978e-06	97.638	0.00078777	0.00082821	0.00022446	1308.7	8.845e-06	9.3443e-06	1085.1	588.33	9.4361e-06	9.4806e-06	565.41	281.18	296.16	97.29	1.0005e-05	96.797	195.666	104.194	111.323	32.527	181.811	169.058	31.149	34.733	199.533	164.529	33.185	34.811	35.937	42.115	194.817	40.760	-8191	255	
20026.271	1	1	0	0	0.17559	0.21319	0.050304	0.15939	0.18401	0.15551	0.25368	0.21694	0.18794	0.095884	0.13723	0.15999	0.29958	0.075886	0.16389	0.21069	-2.6292	-2.1625	-2.7333	-2.8396	-2.3521	-3.1479	-2.6937	-2.6417	-2.9708	-2.5729	-2.9271	-2.9604	-2.5396	-3.1792	-2.4583	-2.7167	48.151	109.503	229.097	348.973	244.169	93.942	296.449	360.142	375.251	279.588	256.650	374.715	374.962	245.945	171.163	54.222	0.00055302	0.00074215	0.00027567	1347.3	7.9327e-06	9.2066e-06	1111.7	600.82	6.5954e-06	8.7659e-06	580.48	284.16	299.36	97.701	8.928e-06	97.369	0.00084608	0.00093141	0.00026914	1321.1	1.0001e-05	1.0546e-05	1088.6	592.38	1.0479e-05	1.0731e-05	569.14	281.94	297.51	97.282	1.1217e-05	96.42	193.401	108.952	105.173	32.731	200.800	153.324	32.083	34.990	191.047	169.470	32.903	34.929	36.103	41.796	190.477	40.646	-8191	255	
20026.367	1	1	0	0	0.1061	0.12339	0.050135	0.21391	0.17781	0.2073	0.099158	0.22237	0.043763	0.19438	0.22631	0.4075	0.18347	0.17839	0.074363	0.11545	-2.5083	-2.275	-2.5729	-2.9813	-2.2896	-2.9833	-2.8146	-2.5042	-3.1042	-2.3167	-2.8	-3.1542	-2.5729	-2.9333	-2.6375	-2.5958	354.297	99.892	139.368	375.326	328.887	314.818	266.520	336.392	314.237	107.788	373.638	341.969	359.175	346.886	322.853	55.916	0.00058613	0.00084058	0.00027367	1354.8	8.3032e-06	9.5127e-06	1122.2	605.54	6.6947e-06	8.3738e-06	581.94	286.72	302.02	98.538	1.1189e-05	97.608	0.00090026	0.0010655	0.00030252	1326.1	1.1541e-05	1.1769e-05	1096.1	597.36	1.1816e-05	1.2358e-05	573.15	284.72	301.09	98.219	1.3494e-05	97.101	193.481	95.838	108.145	32.847	179.214	173.372	32.021	35.216	194.080	174.902	32.763	34.489	35.670	41.426	186.432	40.964	-8191	255	
20026.488	1	1	0	0	0.13312	0.30003	0.33598	0.1215	0.1065	0.19365	0.31174	0.40616	0.1038	0.027474	0.32461	0.17879	0.12006	0.34848	0.16833	0.055386	-2.6167	-2.2938	-2.5646	-3.05	-2.2542	-2.9479	-2.8146	-2.6458	-2.9354	-2.4458	-2.9104	-3.3125	-2.4313	-2.9667	-2.7771	-2.5083	102.948	342.835	17.711	313.697	206.076	286.004	318.682	292.346	176.425	299.472	273.050	308.338	307.086	359.476	370.058	65.898	0.00056243	0.00105	0.00019932	1369.6	6.333e-06	9.5324e-06	1139.5	615.89	9.0634e-06	7.5832e-06	597.48	296.92	311.74	100.34	1.1531e-05	98.94	0.0010085	0.0012462	0.00036794	1342.4	1.3382e-05	1.477e-05	1114.7	607.72	1.5185e-05	1.6532e-05	588.2	294.1	309.7	100.03	1.7386e-05	98.398	196.326	115.295	125.278	32.482	196.179	180.214	32.081	35.179	210.281	176.073	33.210	34.789	36.042	41.583	183.699	40.528	-8191	255	
20026.586	1	1	0	0	0.10903	0.089355	0.25417	0.27548	0.064489	0.061271	0.069731	0.22811	0.16779	0.12756	0.22938	0.10169	0.48787	0.39044	0.10008	0.18535	-2.7	-2.4292	-2.6292	-3.1833	-2.25	-2.9167	-2.9083	-2.5875	-3.0083	-2.35	-2.7042	-3.1479	-2.4021	-2.7167	-2.6813	-2.3771	262.377	30.464	239.931	364.740	352.781	374.979	268.025	331.341	207.119	53.706	37.288	346.952	325.665	294.133	167.752	347.467	0.00055749	0.00098536	0.0002378	1395.9	8.7139e-06	1.2413e-05	1159.9	625.26	5.9513e-06	9.135e-06	604.48	301.24	315.82	100.15	9.8047e-06	98.917	0.0012564	0.0017197	0.00047958	1365.3	1.792e-05	1.939e-05	1138	617.33	2.038e-05	2.2167e-05	597.44	298.44	313.62	100.02	2.3818e-05	98.288	191.979	100.297	113.603	33.080	196.568	185.775	32.502	35.056	201.924	157.588	33.417	35.011	36.008	41.223	162.882	40.378	-8191	255	
20026.682	1	1	0	0	0.10478	0.091397	0.21586	0.040025	0.36502	0.16827	0.21983	0.19257	0.19981	0.33137	0.14697	0.40487	0.30648	0.11211	0.21177	0.13629	-2.3875	-2.5	-2.5104	-2.9875	-2.3375	-2.5958	-3.0062	-2.3854	-2.9979	-2.5687	-2.5042	-3.1771	-2.6312	-2.6604	-2.9333	-2.2917	304.001	271.950	208.089	323.190	26.905	205.930	349.472	350.476	18.606	156.601	70.531	372.061	369.913	332.068	52.527	286.917	0.00053764	0.00077597	0.00035182	1410.4	9.7456e-06	1.2505e-05	1188.4	635.91	1.0705e-05	7.9534e-06	615.4	307.84	320.88	100.7	1.3561e-05	98.442	0.0017086	0.0025699	0.00073455	1388.8	2.814e-05	3.2601e-05	1168	630.39	3.2479e-05	3.6707e-05	612.72	306.99	321.57	101.09	3.9955e-05	98.645	194.289	102.237	119.755	32.243	189.430	160.825	31.275	33.704	185.280	98.473	31.975	33.631	34.990	40.090	176.336	39.204	-8191	255	
20026.775	1	1	0	0	0.16623	0.15308	0.21294	0.31399	0.10537	0.16439	0.060022	0.28568	0.067517	0.070398	0.38204	0.3104	0.13251	0.46186	0.056337	0.20361	-2.3667	-2.3875	-2.1479	-3.1583	-2.2479	-2.5104	-3.0792	-2.4562	-2.7667	-2.7458	-2.1542	-3.0958	-2.6042	-2.7021	-2.8083	-2.5271	216.217	215.296	293.746	294.691	215.734	244.787	274.238	294.807	122.361	155.445	349.599	40.296	371.613	298.006	357.104	291.779	0.0005856	0.0010541	0.00039607	1429.3	1.1517e-05	7.3358e-06	1206.3	645.65	6.3995e-06	1.2016e-05	620.39	309.2	322.42	101.33	1.2902e-05	98.808	0.0025491	0.0040193	0.0011305	1413.9	4.2111e-05	4.8896e-05	1191.5	640.48	4.7155e-05	5.2109e-05	621.27	308.85	323.33	102.12	5.4028e-05	99.282	193.374	88.979	117.281	32.167	198.661	139.272	31.617	34.303	176.423	118.896	32.689	34.637	35.789	40.721	198.992	40.280	-8191	255	
20026.850	1	1	0	0	0.27371	0.12721	0.15696	0.28817	0.1642	0.13965	0.045539	0.26136	0.066102	0.10544	0.11549	0.29348	0.38792	0.3406	0.10885	0.18845	-2.3104	-2.6688	-2.2354	-3.1688	-2.4583	-2.45	-3.0354	-2.5625	-2.6937	-2.7708	-2.3979	-3.0312	-2.7333	-2.5771	-2.9562	-2.3563	273.364	338.274	104.247	360.358	359.847	262.362	318.781	332.133	244.784	64.822	62.395	319.339	338.765	365.000	240.557	370.460	0.00059159	0.0007306	0.00029781	1438.9	7.3719e-06	1.0781e-05	1208.4	641.89	8.3836e-06	1.7592e-05	612.16	296.72	309.25	101.38	1.7987e-05	98.459	0.0034629	0.0056969	0.0016218	1428.9	6.3181e-05	7.3706e-05	1202.8	640.02	7.1655e-05	8.0678e-05	616.35	297.84	312.76	103.21	9.1461e-05	100.44	196.474	66.657	114.926	33.088	188.128	188.157	32.547	34.832	163.511	186.151	33.037	34.783	36.206	40.548	181.891	40.049	-8191	255	
20026.969	1	1	0	131072	0.2124	0.29751	0.24286	0.13222	0.16829	0.013229	0.27294	0.26857	0.12622	0.19906	0.2187	0.39861	0.10126	0.55787	0.20076	0.15956	-2.2188	-2.7938	-2.1104	-3.0104	-2.5604	-2.4958	-3.2771	-2.6042	-2.575	-2.8479	-2.5708	-3.1188	-2.8229	-2.4771	-2.9854	-2.6167	270.509	286.189	367.413	24.348	25.927	203.143	344.775	341.215	245.076	109.813	47.744	353.083	205.180	340.414	121.942	343.898	0.00059107	0.00061627	0.00035622	1434.2	6.0035e-06	1.2952e-05	1224.4	643.86	1.0004e-05	1.2226e-05	623.87	310.23	321.54	113.7	6.2161e-06	116.91	0.0058751	0.0101	0.0029323	1443.6	0.00012041	0.00014619	1249.4	654.49	0.00016254	0.00018546	650.29	319.02	335.08	122.42	0.00020366	122.34	193.036	109.616	56.063	33.094	195.159	226.727	32.384	35.080	167.607	178.397	33.159	34.891	36.460	39.567	207.349	39.097	-8191	255	
20027.064	1	1	0	131072	0.035621	0.13882	0.15263	0.16895	0.078216	0.052541	0.26583	0.12998	0.11768	0.12025	0.46312	0.68356	0.55232	1.0345	0.19261	0.67384	-2.0854	-2.8917	-2.1104	-3.0312	-2.7021	-2.2042	-3.3354	-2.7729	-2.3521	-2.9771	-2.7021	-2.9854	-3.0417	-2.4604	-2.8937	-2.8458	223.445	174.281	239.243	354.204	371.521	61.712	341.229	367.677	379.366	339.683	347.997	292.874	331.534	318.552	19.783	289.191	0.00070845	0.00094515	0.00061763	1659.7	1.2565e-05	1.0248e-05	1753.5	394.1	1.0457e-05	2.3363e-05	808.6	0	0	0	3.7331e-05	0.19976	0.012255	0.021522	0.0068992	1833.2	0.00039125	0.00054143	2123.4	904	0.00076474	0.00095926	1357.9	509.64	665.49	176.97	0.0013774	243.22	203.478	370.189	85.592	33.664	178.467	135.059	33.147	37.352	198.913	145.965	33.693	370.369	358.441	362.344	222.017	29.581	-8191	255	
20027.160	1	1	0	131072	0.096806	0.11389	0.29694	0.52808	0.17019	0.085222	0.024974	0.2231	0.10794	0.085028	0.23145	0.17152	0.23346	0.15619	0.22037	0.056789	-2.0396	-3.0646	-2.1729	-2.6042	-2.6104	-1.9646	-2.5646	-2.3875	-2.15	-2.6729	-2.0938	-2.3438	-2.4938	-1.9021	-2.5167	-2.275	90.044	260.026	112.525	327.621	61.117	207.212	53.178	138.578	109.785	297.946	234.070	56.685	74.624	273.160	296.041	212.827	0.0029501	0.0077175	0.001729	255.39	1.1494e-05	1.7449e-06	4.472	0.55073	3.2688e-07	9.0476e-08	0.012139	0.010476	0.007309	0.0002436	2.135e-07	0.0033941	0.090781	0.1685	0.051049	1638.7	6.0089e-05	-8.8843e-07	4.8823	-0.055136	-5.8089e-06	-5.6094e-06	-0.92831	-0.24594	-0.3008	-0.069053	-2.854e-06	-0.081016	188.567	123.837	125.046	62.367	227.150	205.969	71.650	69.845	151.960	76.128	121.418	388.691	402.608	104.629	158.750	345.868	-8191	255	
20027.258	1	1	0	0	0.12728	0.099098	0.040664	0.12663	0.15721	0.0908	0.21491	0.16784	0.17291	0.17852	0.087765	0.18226	0.071972	0.15243	0.10179	0.1016	-1.5812	-2.7042	-1.9792	-2.2521	-2.5896	-2.1708	-2.6583	-2.3688	-2.0396	-2.6813	-2.3271	-2.1479	-2.7396	-2.0938	-2.5292	-2.3208	-49.360	206.013	7.708	178.550	226.885	166.546	58.784	272.488	84.513	121.173	156.355	243.012	8.747	65.498	-50.002	226.738	1.875e-06	3.2543e-05	1.6862e-06	0.01414	1.1369e-07	2.8557e-07	0.039389	0.0053831	2.7216e-07	3.5571e-07	0.011191	0.0056454	0.0043426	0.0020705	3.2511e-07	0.0030469	-0.00012035	-0.00021655	-5.3333e-05	-0.63083	-1.7673e-06	-1.7742e-06	-0.60158	-0.21274	-1.3445e-06	-1.5866e-06	-0.27941	-0.082012	-0.11382	-0.026678	-1.2013e-06	-0.037801	32.176	214.656	197.497	37.852	37.960	-59.139	65.745	-62.306	132.462	72.366	259.642	188.941	181.828	265.853	70.353	18.998	-8191	255	
20027.377	1	1	0	0	0.11337	0.18008	0.26772	0.26802	0.11009	0.11309	0.16617	0.090812	0.04153	0.11191	0.087083	0.13603	0.065407	0.39069	0.1572	0.3548	-1.5875	-2.6146	-2.3083	-2.1625	-2.7875	-2.0396	-2.275	-2.4938	-1.8937	-2.6042	-2.4708	-2.0667	-2.6417	-2.1625	-2.3458	-2.7458	151.771	91.228	197.800	358.537	145.969	311.290	390.179	224.846	144.271	270.211	104.315	360.085	114.077	185.381	332.604	159.613	1.0552e-06	2.9189e-05	2.487e-06	0.017863	7.5833e-08	3.3886e-07	0.030281	0.0050153	4.1051e-07	1.8596e-07	0.010235	0.0030235	0.0075287	0.00040182	2.0615e-07	0.0026211	-5.3614e-05	-0.00010457	-2.7232e-05	-0.3194	-1.0139e-06	-9.1419e-07	-0.34446	-0.13289	-7.789e-07	-1.0215e-06	-0.18328	-0.052234	-0.078235	-0.01609	-8.0544e-07	-0.027268	366.113	68.932	73.699	290.243	368.829	270.577	139.145	56.274	88.394	316.012	205.645	357.521	45.003	53.197	254.893	84.684	-8191	255	
20027.449	1	1	0	0	0.22199	0.27933	0.07942	0.095627	0.15527	0.32385	0.095064	0.22395	0.1196	0.28824	0.10513	0.20505	0.18626	0.36516	0.24224	0.10993	-1.7208	-2.55	-2.3104	-2.1604	-2.65	-2.1917	-2.3292	-2.6021	-2.0563	-2.6458	-2.3438	-2.0812	-2.6604	-2.375	-2.5062	-2.7896	12.658	-24.507	-55.208	23.391	-43.258	139.550	188.846	242.540	-99.180	-101.137	114.054	-76.298	188.229	195.758	19.086	4.280	3.8871e-06	2.5927e-05	5.5837e-06	0.026766	3.7633e-07	2.1331e-07	0.057061	0.019246	1.4799e-07	3.7517e-07	0.0060425	0.0084675	0.0071788	0.0022692	1.5373e-07	0.0014124	-3.3302e-05	-7.7484e-05	-2.1381e-05	-0.23179	-7.8181e-07	-7.8908e-07	-0.24684	-0.10372	-6.5629e-07	-7.9201e-07	-0.15357	-0.041573	-0.065626	-0.01465	-6.2798e-07	-0.023463	229.593	-9.240	-92.892	25.822	126.436	-86.776	4.074	-87.856	78.627	-68.500	15.668	-2.148	-31.917	246.173	95.128	7.033	-8191	255	
20027.568	1	1	0	0	0.16615	0.10018	0.33491	0.12039	0.0092516	0.031445	0.091813	0.22724	0.04754	0.25023	0.20278	0.034193	0.15096	0.012945	0.17483	0.16481	-1.6958	-2.5312	-2.5042	-1.9583	-2.6437	-2.325	-2.0792	-2.6896	-2.0958	-2.4813	-2.4083	-1.825	-2.7625	-2.2354	-2.0917	-2.9375	480.792	237.479	136.080	134.787	352.738	300.173	443.318	433.920	382.183	450.139	262.890	342.508	472.090	326.300	266.726	316.780	2.0648e-06	2.1793e-05	7.4647e-06	0.028097	3.4158e-08	3.2733e-07	0.017521	0.01661	1.4788e-07	4.0984e-07	0.015025	0.0096858	0.0051918	0.0020989	3.6315e-07	0.00081212	-2.5817e-05	-6.5923e-05	-1.8527e-05	-0.19346	-7.2181e-07	-7.3283e-07	-0.22086	-0.10241	-5.2193e-07	-7.0053e-07	-0.15074	-0.036745	-0.058348	-0.012996	-5.4369e-07	-0.022334	464.747	380.478	203.384	271.328	425.318	466.296	302.914	142.174	145.837	214.854	374.745	325.231	225.524	240.447	282.928	136.107	-8191	255	
20027.666	1	1	0	0	0.21111	0.052604	0.035449	0.30734	0.094928	0.20488	0.14796	0.10233	0.30578	0.063205	0.14951	0.014466	0.17418	0.29852	0.1483	0.033043	-1.5104	-2.4167	-2.5604	-1.825	-2.6521	-2.3875	-2.0333	-2.6188	-2.0417	-2.3417	-2.5542	-1.9937	-2.6208	-2.2625	-2.0292	-2.7771	101.146	-34.592	-108.057	182.274	-120.366	-94.933	158.528	-147.536	-96.610	85.417	-6.787	-75.677	-125.846	-163.208	-17.579	36.831	4.2314e-06	3.275e-05	5.7108e-06	0.043623	1.8329e-07	5.6497e-07	0.044599	0.0081205	3.1426e-07	1.1535e-07	0.023768	0.0055235	0.0093651	0.0017721	2.9424e-07	0.0047884	-2.5654e-05	-5.2804e-05	-1.7304e-05	-0.16741	-6.1205e-07	-7.0128e-07	-0.2039	-0.094866	-5.2381e-07	-6.1113e-07	-0.14426	-0.034347	-0.052467	-0.013322	-4.6828e-07	-0.01986	187.159	-121.040	-85.102	-144.104	-143.674	-117.706	-135.691	-149.229	-159.450	23.027	145.523	161.012	113.515	39.852	107.337	-97.916	-8191	255	
20027.762	1	1	0	0	0.205	0.068864	0.035272	0.20058	0.15914	0.19151	0.055297	0.15733	0.17663	0.24835	0.44174	0.039455	0.10479	0.13702	0.37364	0.088275	-1.7062	-2.3688	-2.7042	-1.8937	-2.7042	-2.3979	-2.1167	-2.6958	-2.2021	-2.2354	-2.6958	-2.0458	-2.6188	-2.5292	-2.1937	-2.8667	97.125	101.065	-39.514	-112.788	-76.805	-6.270	104.559	54.874	-119.810	-104.810	-157.822	160.990	44.425	-116.507	96.721	124.092	2.3456e-06	6.1942e-06	4.6106e-06	0.033724	3.9881e-07	3.6298e-07	0.030542	0.012347	1.8651e-07	2.6932e-07	0.019922	0.0014512	0.0021083	0.00051599	5.3448e-07	0.0017695	-2.4244e-05	-5.0209e-05	-1.7712e-05	-0.17936	-5.7763e-07	-6.8131e-07	-0.16979	-0.087654	-5.4542e-07	-5.1912e-07	-0.14081	-0.033732	-0.054667	-0.013604	-4.806e-07	-0.020556	-136.538	43.359	-100.833	-77.233	158.086	-140.364	178.208	-149.975	-155.817	-49.176	15.568	0.194	-139.344	97.255	46.706	106.542	-8191	255	
20027.857	1	1	0	0	0.33668	0.28792	0.037895	0.45502	0.097371	0.113	0.16054	0.049395	0.098143	0.12016	0.31823	0.056327	0.13149	0.24061	0.2274	0.094509	-1.975	-2.2333	-2.7188	-2.15	-2.5708	-2.65	-2.0812	-2.6458	-2.3771	-2.1833	-2.7042	-2.0729	-2.3792	-2.6333	-1.9396	-2.6604	-82.712	160.771	130.355	85.055	189.104	85.250	-0.669	153.906	-70.491	-93.550	104.979	-87.297	-79.071	46.407	-138.926	66.165	4.4795e-06	4.8113e-05	6.1214e-06	0.035706	1.7399e-07	5.5534e-07	0.026454	0.011808	3.1955e-07	4.0868e-07	0.017205	0.0022299	0.0097308	0.00064178	1.8172e-07	0.0024634	-2.6631e-05	-4.3366e-05	-1.7936e-05	-0.15978	-5.8089e-07	-6.934e-07	-0.17051	-0.084048	-5.6609e-07	-5.3951e-07	-0.13924	-0.031755	-0.047009	-0.014121	-4.7074e-07	-0.019133	-61.474	106.153	-7.910	161.691	211.754	43.858	-29.419	-127.130	-119.618	-103.326	33.904	-118.546	-144.806	103.737	77.087	-55.348	-8191	255	
20027.977	1	1	0	0	0.025972	0.073768	0.083415	0.12065	0.23478	0.059121	0.13416	0.246	0.17816	0.16764	0.092911	0.15607	0.021128	0.28715	0.3373	0.12637	-1.9188	-2.0229	-2.7042	-2.1792	-2.3021	-2.7938	-2.0125	-2.5687	-2.5146	-2.2896	-2.5792	-2.1625	-2.2229	-2.6917	-1.9958	-2.6875	496.781	298.205	320.301	504.352	227.279	403.800	274.645	257.504	392.518	522.617	288.824	408.054	276.576	301.538	361.451	409.239	1.0727e-06	4.1433e-05	1.0091e-05	0.034769	1.6381e-07	2.685e-07	0.035075	0.010427	2.3308e-07	2.5882e-07	0.002553	0.010132	0.00082496	0.0016712	9.2885e-08	0.0006946	-2.4461e-05	-4.5396e-05	-1.6884e-05	-0.16725	-4.5346e-07	-6.8183e-07	-0.16005	-0.075001	-5.5294e-07	-5.1232e-07	-0.13129	-0.033084	-0.041508	-0.014054	-4.5793e-07	-0.018978	531.738	385.907	534.634	305.347	286.091	214.201	343.063	197.023	362.067	426.922	340.848	307.159	364.862	301.079	222.842	244.271	-8191	255	
20028.072	1	1	0	0	0.11125	0.15195	0.20799	0.15246	0.090368	0.10834	0.23851	0.14102	0.084011	0.23789	0.14679	0.10425	0.05455	0.069242	0.1456	0.27761	-2.0396	-2.2479	-2.7083	-2.15	-2.3167	-2.7958	-1.9917	-2.5604	-2.5292	-2.2229	-2.8271	-2.1417	-2.1917	-2.6896	-1.9792	-2.3667	57.757	29.733	318.473	96.969	303.405	267.850	333.645	94.160	265.987	47.744	321.774	283.192	29.893	218.580	95.418	326.796	3.9972e-06	3.6461e-05	1.7414e-06	0.034024	1.1945e-07	7.1975e-07	0.018081	0.012868	2.1776e-07	1.439e-07	0.016058	0.0047256	0.013277	0.00058883	3.3237e-07	0.0021703	-2.6848e-05	-4.0771e-05	-1.6292e-05	-0.17505	-4.4741e-07	-6.6449e-07	-0.16131	-0.072444	-5.1394e-07	-5.0082e-07	-0.1338	-0.033958	-0.037912	-0.014009	-4.8257e-07	-0.016101	176.083	169.761	151.372	295.504	311.245	5.861	131.638	14.628	194.114	345.491	192.904	288.986	350.957	177.031	283.503	102.576	-8191	255	
20028.145	1	1	0	0	0.25483	0.15678	0.16178	0.053609	0.2804	0.1707	0.1119	0.28304	0.039353	0.11284	0.20859	0.13361	0.19016	0.23531	0.17661	0.094861	-2.1167	-2.1479	-2.7958	-2.3646	-2.1583	-2.6625	-2.0542	-2.2583	-2.5938	-1.875	-2.7083	-2.3458	-2.0083	-2.775	-2.2687	-2.3937	12.911	177.601	188.994	7.111	295.692	83.470	190.155	130.318	138.206	92.184	-4.904	316.750	265.701	-11.331	226.233	248.701	2.9922e-06	2.9055e-05	4.3323e-06	0.051291	1.9307e-07	4.5584e-08	0.0384	0.0060837	1.7918e-07	4.5956e-07	0.010571	0.0043369	0.0033193	0.00041776	2.9587e-07	0.002975	-2.8393e-05	-3.7374e-05	-1.5043e-05	-0.17339	-4.0741e-07	-6.361e-07	-0.16618	-0.071395	-5.3227e-07	-4.773e-07	-0.12595	-0.035255	-0.039393	-0.013919	-5.0771e-07	-0.015049	288.152	314.147	2.669	228.880	304.031	192.075	15.014	-1.759	130.575	89.772	119.243	128.573	25.646	136.103	185.496	120.883	-8191	255	
20028.266	1	1	0	0	0.15213	0.11726	0.06666	0.1129	0.17145	0.19051	0.069741	0.176	0.09949	0.098246	0.13691	0.085227	0.01567	0.27065	0.035578	0.1668	-2.3812	-1.7687	-2.5417	-2.3187	-2.1479	-2.9125	-2.2646	-2.2708	-2.7229	-2.075	-2.5271	-2.4521	-1.8396	-2.6042	-2.1917	-2.0583	148.656	163.183	38.734	98.632	59.877	108.036	31.954	246.475	233.911	78.661	-44.524	174.236	68.862	-98.517	115.809	208.119	2.2363e-06	2.8707e-05	1.3892e-05	0.017826	2.1305e-07	5.7993e-07	0.043113	0.0033375	7.8622e-08	2.7543e-07	0.02654	0.012321	0.0079607	0.0027152	3.2585e-07	0.0010641	-2.8312e-05	-4.0252e-05	-1.3899e-05	-0.18816	-4.0834e-07	-6.4241e-07	-0.16889	-0.058939	-5.8958e-07	-4.7364e-07	-0.10461	-0.034023	-0.033003	-0.013063	-5.2151e-07	-0.01474	-4.332	228.102	22.562	237.911	141.571	114.093	52.967	-89.293	0.114	244.044	24.873	-87.454	-4.862	218.077	65.230	-8.580	-8191	255	
20028.361	1	1	0	131072	0.075793	0.020951	0.081277	0.23347	0.18812	0.062008	0.11277	0.092159	0.21976	0.23405	0.70954	0.26859	0.10188	0.15645	0.3503	0.11175	-2.225	-1.9125	-2.4188	-2.4313	-1.8583	-2.7958	-2.4188	-2.4938	-3.1875	-2.4875	-2.7	-2.6646	-2.0229	-2.5854	-2.3563	-2.1063	37.492	52.033	308.741	105.755	181.055	115.896	234.615	223.665	172.191	70.557	301.406	-32.347	-24.537	307.617	131.021	-10.773	3.1198e-06	1.785e-05	9.8433e-06	0.020524	1.7882e-07	5.7959e-07	0.073476	0.061041	3.86e-06	0.00061812	185.75	114.61	17.042	3.1534	9.099e-07	0.23119	-2.6929e-05	-3.8034e-05	-1.3281e-05	-0.19081	-3.8648e-07	-5.9825e-07	0.75857	3.9501	5.7033e-05	0.0014366	1523.7	312.36	41.083	5.7102	1.6912e-06	0.23272	17.683	230.006	123.350	147.777	23.650	-23.431	286.423	-30.359	49.435	33.950	-21.449	58.322	61.610	50.231	227.439	41.824	-8191	255	
20028.457	1	1	0	0	0.088424	0.23671	0.24013	0.26565	0.21043	0.11836	0.4137	0.21064	0.19452	0.34115	0.049345	0.06535	0.21509	0.1647	0.039686	0.14176	-2.4729	-1.9542	-2.275	-2.5979	-1.9792	-2.6333	-2.2646	-2.0292	-2.6979	-2.0771	-2.0708	-2.6521	-2.2188	-2.7146	-2.6229	-1.9667	383.304	199.107	157.373	193.300	359.985	382.966	274.915	112.290	209.198	139.940	116.061	103.678	435.498	238.094	280.299	185.617	3.1841e-06	3.4265e-05	8.2777e-06	0.010352	1.3831e-07	1.2416e-07	0.051533	0.0032434	1.7987e-07	3.0623e-07	0.01861	0.0022155	0.0082004	0.001089	4.5663e-07	0.0045383	-0.00022495	-0.00035231	-8.5562e-05	-0.9942	-2.3849e-06	-2.5302e-06	-0.78455	-0.24552	-1.8087e-06	-1.7435e-06	-0.3223	-0.099672	-0.11373	-0.029795	-1.286e-06	-0.034197	111.982	276.797	316.571	183.602	107.168	200.050	328.719	95.504	369.130	199.581	180.694	154.318	231.159	427.237	214.940	250.919	-8191	255	
20028.555	1	1	0	0	0.20728	0.14696	0.21243	0.047215	0.1917	0.12956	0.13546	0.32638	0.098815	0.18435	0.23454	0.034851	0.21235	0.16442	0.092755	0.22237	-2.4229	-2.175	-2.1771	-2.775	-1.9896	-2.4229	-2.4375	-2.0292	-2.6729	-2.3937	-2.0958	-2.65	-2.0792	-2.5417	-2.7208	-2.0104	16.183	-32.493	-62.405	142.082	131.327	-81.908	38.541	182.012	120.341	9.186	84.059	47.178	-87.155	10.210	108.571	220.996	1.5284e-06	7.3457e-06	4.6915e-06	0.033618	3.0622e-07	2.5037e-07	0.024473	0.008066	1.8155e-07	2.5307e-07	0.023515	0.0019611	0.014335	0.0002028	3.176e-07	0.003029	-6.0638e-05	-0.00010084	-2.6022e-05	-0.35374	-7.9576e-07	-1.012e-06	-0.34518	-0.10168	-8.5078e-07	-8.4168e-07	-0.15284	-0.054146	-0.058941	-0.016608	-7.5664e-07	-0.019256	179.298	34.988	-65.661	191.664	203.401	88.393	-85.571	-120.301	-114.530	124.601	193.878	-30.141	-66.371	-33.686	-17.986	-72.966	-8191	255	
20028.674	1	1	0	0	0.15061	0.36577	0.19962	0.2243	0.26306	0.084621	0.18265	0.11368	0.22068	0.16679	0.215	0.27244	0.062257	0.11664	0.19764	0.088102	-2.25	-2.2542	-2.3187	-2.8417	-2.1188	-2.3917	-2.6771	-2.0271	-2.4167	-2.5708	-1.9396	-2.7062	-2.2083	-2.3937	-2.8042	-2.0583	186.622	296.421	304.261	117.021	309.210	254.259	97.082	241.620	319.936	228.150	325.264	140.700	47.932	291.244	282.995	248.749	1.7905e-06	9.6122e-06	7.6231e-06	0.033257	1.3362e-07	2.7747e-07	0.014463	0.0061096	2.1133e-07	1.6439e-07	0.02045	0.0026062	0.0037007	0.0014484	5.345e-07	0.0032508	-3.6014e-05	-5.8278e-05	-1.3859e-05	-0.24125	-5.6043e-07	-6.5134e-07	-0.25063	-0.069232	-5.8723e-07	-6.8798e-07	-0.1043	-0.04355	-0.04172	-0.012096	-6.2946e-07	-0.014353	18.616	259.415	-23.897	214.793	36.965	17.875	167.729	-8.485	276.140	231.048	20.309	25.671	319.443	-5.119	137.336	257.696	-8191	255	
20028.746	1	1	0	0	0.046925	0.1792	0.13631	0.14741	0.10163	0.040213	0.26761	0.064308	0.47398	0.18739	0.088905	0.27475	0.055657	0.27587	0.20716	0.16804	-2.0646	-2.4292	-2.0542	-2.6688	-2.2646	-2.1708	-2.6792	-1.9042	-2.5792	-2.5812	-2.0396	-2.5729	-1.9646	-2.1437	-2.6646	-2.1792	370.308	463.310	330.767	348.609	153.813	185.415	313.242	261.458	257.989	382.902	236.285	157.431	375.113	338.212	128.561	154.888	3.0275e-06	2.0971e-05	8.2994e-07	0.0099822	2.4579e-07	3.6696e-07	0.0296	0.015652	8.7202e-08	4.9468e-07	0.0054141	0.0026209	0.0056147	0.0014736	1.47e-07	0.0015408	-3.021e-05	-5.5164e-05	-1.1755e-05	-0.21022	-4.795e-07	-5.0993e-07	-0.21707	-0.059398	-5.1347e-07	-5.9179e-07	-0.090802	-0.03775	-0.036981	-0.010734	-5.7327e-07	-0.013286	145.305	368.917	117.548	229.026	187.332	176.480	341.534	123.024	353.174	377.989	179.673	217.837	339.809	114.620	179.217	182.037	-8191	255	
20028.842	1	1	0	0	0.2322	0.093183	0.21684	0.11116	0.26983	0.27266	0.1635	0.057362	0.080728	0.067051	0.082329	0.24063	0.2184	0.18665	0.12665	0.30346	-2.0208	-2.5021	-1.9854	-2.5646	-2.4479	-2.2625	-2.7792	-2.0542	-2.3021	-2.7229	-1.9146	-2.6562	-2.5167	-2.175	-2.6125	-2.1625	371.959	309.768	194.646	194.601	407.861	270.773	261.950	343.526	105.132	374.420	271.022	360.234	383.226	102.516	356.956	160.240	2.6597e-06	4.3451e-05	6.0612e-06	0.035507	1.4885e-07	7.377e-07	0.014469	0.010047	1.3605e-07	3.6224e-07	0.01951	0.0023791	0.0047838	0.0040472	2.4567e-07	0.0036534	-1.9309e-05	-5.0681e-05	-1.0861e-05	-0.1855	-4.3671e-07	-4.663e-07	-0.2039	-0.051006	-4.6978e-07	-6.4772e-07	-0.0953	-0.036129	-0.04502	-0.01016	-5.5898e-07	-0.013858	171.535	387.191	273.075	441.555	240.786	242.700	429.980	114.303	249.474	363.058	256.955	303.782	220.589	367.983	217.669	351.016	-8191	255	
20028.938	1	1	0	0	0.19675	0.28377	0.18105	0.12011	0.057442	0.10274	0.15279	0.12225	0.13115	0.19442	0.15297	0.097073	0.11468	0.12838	0.28568	0.044778	-2.0521	-2.6958	-2.0667	-2.6458	-2.4958	-2.2313	-2.8229	-2.1771	-2.3625	-2.5417	-2.0729	-2.5354	-2.3021	-2.125	-2.6854	-2.2687	208.059	321.651	216.813	207.657	42.163	116.571	14.881	157.994	303.627	221.541	231.559	98.221	15.404	22.261	312.877	45.424	3.8242e-06	7.4656e-06	1.4717e-05	0.023363	2.2987e-07	7.2325e-07	0.012701	0.0037246	3.0247e-07	1.9861e-07	0.019068	0.0043433	0.0072606	0.0028787	2.3875e-07	0.00098865	-2.1044e-05	-5.455e-05	-1.1111e-05	-0.18567	-4.9578e-07	-4.6998e-07	-0.21725	-0.058611	-4.3032e-07	-5.9283e-07	-0.088605	-0.032889	-0.044893	-0.0088327	-5.3679e-07	-0.015065	216.679	229.764	332.571	48.695	283.328	99.150	223.779	-3.346	73.640	329.166	298.514	229.609	237.850	22.025	221.756	103.733	-8191	255	
20029.057	1	1	0	0	0.17919	0.17991	0.078349	0.11801	0.30307	0.081255	0.050242	0.10942	0.1733	0.044134	0.34048	0.2074	0.21634	0.21384	0.098315	0.16648	-1.7708	-2.5563	-2.0479	-2.5458	-2.5521	-2.0521	-2.6854	-2.4188	-2.0687	-2.5229	-1.8937	-2.3187	-2.4833	-1.8833	-2.6813	-2.3375	253.558	508.304	517.816	462.163	428.351	434.208	179.372	193.495	247.908	320.435	250.138	439.818	474.257	484.375	520.370	305.260	2.9198e-06	2.6802e-05	4.0763e-06	0.056327	1.3311e-07	1.9786e-07	0.032569	0.0035322	1.6734e-07	1.7669e-07	0.014673	0.0059289	0.011382	0.00043246	3.7886e-07	0.003141	-1.7736e-05	-4.9595e-05	-1.0743e-05	-0.17156	-4.6601e-07	-4.1741e-07	-0.19957	-0.058939	-3.8898e-07	-6.3988e-07	-0.082747	-0.030265	-0.042904	-0.0083602	-5.4813e-07	-0.014508	474.966	504.956	300.709	333.281	263.188	234.666	424.978	193.593	366.853	307.097	323.030	512.507	176.179	340.664	518.443	496.135	-8191	255	
20029.152	1	1	0	0	0.26021	0.17031	0.16873	0.081109	0.20037	0.092228	0.31212	0.076291	0.15543	0.032704	0.10053	0.10379	0.22276	0.18031	0.10572	0.22625	-1.6917	-2.6083	-1.8875	-2.2687	-2.6354	-2.0354	-2.6771	-2.4167	-2.0771	-2.8125	-2.0146	-2.1875	-2.5729	-1.9438	-2.7021	-2.4354	-53.607	226.921	145.454	-92.205	58.181	21.211	132.723	154.900	105.245	90.922	95.016	35.072	102.268	-73.367	135.294	261.866	1.1332e-06	1.8918e-05	9.2417e-06	0.055025	2.9928e-07	5.6098e-07	0.044348	0.0059572	2.1105e-07	1.5547e-07	0.034571	0.0094633	0.0026289	0.00084938	1.8156e-07	0.0047529	-1.8088e-05	-5.3418e-05	-1.2334e-05	-0.1636	-5.0787e-07	-4.3528e-07	-0.19487	-0.066675	-3.6267e-07	-5.9179e-07	-0.083897	-0.030491	-0.046163	-0.0096654	-4.8652e-07	-0.015653	-65.563	53.646	96.159	147.946	65.186	44.798	102.413	-74.922	77.114	226.137	-75.297	77.363	148.909	-7.430	138.784	-30.701	-8191	255	
20029.248	1	1	0	0	0.10778	0.1344	0.054131	0.29073	0.22772	0.076833	0.17923	0.17643	0.12911	0.14946	0.20564	0.18223	0.19415	0.055084	0.071929	0.19659	-1.7687	-2.7833	-1.9979	-2.4125	-2.7	-1.9396	-2.4729	-2.5646	-2.0917	-2.8333	-2.2188	-2.1083	-2.65	-2.05	-2.5583	-2.4521	29.033	228.510	205.178	185.671	70.684	12.082	40.036	-75.192	213.332	61.689	39.930	-39.592	10.569	117.409	37.282	21.648	1.7818e-06	4.8068e-05	6.856e-06	0.027478	2.4454e-07	3.6564e-07	0.015683	0.016426	3.3585e-07	1.0402e-07	0.031788	0.0025306	0.0032268	0.0027971	2.8254e-07	0.0026833	-1.6298e-05	-5.4456e-05	-1.2531e-05	-0.13556	-5.4833e-07	-3.8692e-07	-0.17863	-0.07074	-3.6643e-07	-6.0956e-07	-0.093103	-0.028904	-0.049801	-0.0091028	-5.1067e-07	-0.016457	202.671	13.476	148.250	206.817	-7.978	15.240	200.501	-72.563	-11.729	58.996	20.533	240.759	-22.282	-69.754	196.128	38.832	-8191	255	
20029.346	1	1	0	0	0.1788	0.29398	0.1872	0.24637	0.20285	0.021871	0.21622	0.12464	0.060666	0.063459	0.18962	0.19172	0.33087	0.12079	0.049307	0.29259	-1.6708	-2.5333	-2.3021	-2.2021	-2.6771	-2.0333	-2.5125	-2.6979	-2.0146	-2.6979	-2.4479	-2.1458	-2.5687	-2.1542	-2.3167	-2.4562	111.999	12.573	251.711	181.733	86.248	-3.649	292.105	252.615	267.040	4.259	263.963	224.781	218.618	250.144	320.592	205.841	3.3037e-06	2.439e-05	6.1734e-06	0.021474	2.2471e-07	3.6549e-07	0.034102	0.0066756	2.3374e-07	3.2208e-07	0.018777	0.0080147	0.0065387	0.00073063	3.0467e-07	0.0022717	-1.5593e-05	-5.6202e-05	-1.1111e-05	-0.13423	-5.3252e-07	-4.6472e-07	-0.1716	-0.071592	-3.9838e-07	-5.6931e-07	-0.098752	-0.025728	-0.045782	-0.0095191	-4.6236e-07	-0.016519	218.145	232.982	153.266	142.483	139.656	61.482	19.532	-18.659	83.745	237.838	55.118	91.319	245.938	13.895	156.039	268.901	-8191	255	
20029.441	1	1	0	0	0.065742	0.21744	0.12661	0.26451	0.18107	0.1721	0.058532	0.11066	0.16146	0.12519	0.11918	0.14475	0.16346	0.30799	0.11531	0.14361	-1.7917	-2.6021	-2.3958	-2.05	-2.7292	-2.1396	-2.3917	-2.7146	-2.0583	-2.6208	-2.5833	-2.1521	-2.6396	-2.0604	-2.4146	-2.7458	206.257	-20.269	53.787	61.183	-57.382	-57.618	172.842	-2.124	27.952	213.365	118.037	181.574	206.961	115.149	159.537	124.811	5.1122e-06	1.8062e-05	1.2915e-05	0.040888	2.2661e-07	4.4118e-08	0.016584	0.0098503	3.196e-07	6.0377e-07	0.0083526	0.003975	0.0080249	0.0022758	3.4909e-07	0.003742	-1.2909e-05	-5.0256e-05	-1.2321e-05	-0.12179	-5.3717e-07	-5.0257e-07	-0.1624	-0.073755	-3.9462e-07	-5.7767e-07	-0.11591	-0.026635	-0.045951	-0.0097216	-4.2194e-07	-0.018746	201.767	163.504	-52.076	23.563	248.614	-57.890	-13.582	-56.906	-20.554	251.594	203.432	-5.517	6.583	222.307	247.587	31.847	-8191	255	
20029.537	1	1	0	0	0.023132	0.30633	0.07826	0.062475	0.30843	0.12007	0.32229	0.09713	0.18276	0.40009	0.15168	0.2161	0.13825	0.26955	0.14181	0.20857	-1.5646	-2.5042	-2.5979	-2.0708	-2.6625	-2.3896	-2.1646	-2.8563	-2.1167	-2.4938	-2.6562	-2.0604	-2.8417	-2.1646	-2.0917	-2.7896	10.971	152.662	82.977	-113.605	160.303	238.565	23.009	88.710	5.413	185.203	76.339	-65.686	-17.332	41.881	-97.615	-12.536	3.4022e-06	5.0715e-05	4.2091e-06	0.037214	9.9701e-08	2.7849e-07	0.041954	0.00678	2.8498e-07	1.3569e-07	0.013628	0.0019373	0.0066079	0.002649	4.1906e-07	0.0026766	-1.562e-05	-4.5065e-05	-1.3807e-05	-0.12842	-5.1764e-07	-4.4317e-07	-0.13822	-0.076837	-3.6784e-07	-5.0657e-07	-0.10618	-0.025501	-0.047686	-0.010971	-3.5737e-07	-0.018034	-83.336	46.935	116.955	155.836	-32.455	44.748	136.049	-100.435	117.416	44.636	-35.011	222.993	-105.784	174.457	-48.907	136.274	-8191	255	
20029.658	1	1	0	0	0.017534	0.37506	0.26361	0.04672	0.1209	0.017061	0.078748	0.10737	0.21097	0.16794	0.20255	0.056	0.20972	0.13373	0.093962	0.13149	-1.7375	-2.2979	-2.5771	-2.0292	-2.6813	-2.4062	-2.0521	-2.75	-2.0667	-2.2021	-2.5604	-1.9375	-2.6083	-2.5042	-2.0729	-2.8458	312.650	14.800	116.604	87.836	341.749	288.125	343.644	124.642	38.322	111.591	214.762	280.686	22.140	32.453	334.359	280.809	3.8907e-06	1.8584e-05	6.0418e-06	0.010777	1.1165e-07	2.0385e-07	0.020827	0.0078141	4.3403e-07	4.2862e-07	0.018818	0.0010373	0.0021943	0.0018215	4.5032e-07	0.002886	-1.9851e-05	-4.6528e-05	-1.5056e-05	-0.12179	-4.795e-07	-5.3884e-07	-0.15355	-0.065823	-4.3972e-07	-4.36e-07	-0.1158	-0.023363	-0.043835	-0.012343	-4.0124e-07	-0.018112	299.663	365.199	271.138	270.008	107.118	307.301	135.014	29.769	172.364	221.367	88.967	274.808	203.087	162.103	95.601	295.175	-8191	255	
20029.754	1	1	0	0	0.2798	0.1982	0.18685	0.17776	0.13808	0.080478	0.18968	0.40863	0.096205	0.13919	0.17382	0.20939	0.062945	0.23366	0.34447	0.11045	-1.6562	-2.3229	-2.7708	-1.9292	-2.6021	-2.4813	-2.0542	-2.8167	-2.2646	-2.3125	-2.6729	-2.1146	-2.4813	-2.5625	-2.1417	-2.7938	424.529	494.460	354.850	241.006	324.879	390.482	323.034	393.978	521.757	517.022	184.762	265.203	227.208	222.472	480.020	509.354	7.1753e-06	4.054e-05	5.3133e-06	0.03475	2.595e-07	2.879e-07	0.043214	0.010484	2.3402e-07	2.2073e-07	0.010725	0.0078414	0.0048403	0.00058954	2.82e-07	0.00044143	-1.8712e-05	-4.0252e-05	-1.5003e-05	-0.11714	-5.0787e-07	-5.5356e-07	-0.14291	-0.073821	-4.1952e-07	-4.177e-07	-0.12103	-0.024529	-0.042481	-0.01213	-3.7659e-07	-0.015946	495.904	236.882	382.616	510.370	261.436	391.262	343.412	185.586	421.069	254.039	309.302	505.458	316.488	267.635	359.018	375.780	-8191	255	
20029.850	1	1	0	0	0.15159	0.1932	0.30736	0.098018	0.10633	0.078219	0.090768	0.26765	0.083421	0.19633	0.199	0.11552	0.17002	0.05386	0.23147	0.17403	-2.0563	-2.2146	-2.7875	-2.1833	-2.5125	-2.6417	-2.1292	-2.6979	-2.3438	-2.1583	-2.8	-2.1771	-2.3917	-2.6854	-2.1437	-2.6854	198.117	216.191	299.792	181.034	378.620	354.018	225.834	352.183	100.359	90.130	376.753	238.758	244.696	397.740	265.566	389.502	2.4218e-06	2.2931e-05	5.2799e-06	0.032389	8.2602e-08	7.2363e-07	0.044713	0.0080116	1.2213e-07	2.4213e-07	0.030799	0.0024459	0.012103	0.0020551	2.1331e-07	0.0016944	-2.278e-05	-4.0299e-05	-1.5529e-05	-0.13091	-4.1811e-07	-5.4883e-07	-0.12793	-0.066937	-4.6978e-07	-4.4332e-07	-0.12386	-0.029714	-0.039562	-0.012782	-3.968e-07	-0.016503	288.663	49.198	55.146	380.311	359.559	271.134	61.205	57.065	137.955	129.098	174.868	57.701	118.355	308.582	222.864	169.845	-8191	255	
20029.971	1	1	0	0	0.26449	0.16287	0.30079	0.14562	0.14836	0.21814	0.12673	0.13652	0.13327	0.20216	0.16341	0.14625	0.15786	0.073769	0.17057	0.057609	-1.9833	-2.2062	-2.8333	-2.1854	-2.4208	-2.725	-2.2458	-2.4938	-2.5187	-2.0854	-2.8771	-2.3667	-2.3104	-2.8438	-2.1229	-2.3854	204.947	237.027	244.953	230.263	251.587	276.827	-29.405	230.534	198.702	43.587	256.804	8.069	311.875	67.567	-6.284	82.637	4.1737e-06	1.4315e-05	2.0219e-06	0.025304	1.1759e-07	4.2937e-07	0.021154	0.0055897	2.9915e-07	1.7165e-07	0.024003	0.00099942	0.006245	0.0023522	3.4613e-07	0.00077302	-2.1288e-05	-3.9403e-05	-1.4793e-05	-0.14684	-4.6694e-07	-5.7774e-07	-0.14706	-0.071461	-4.8341e-07	-4.5273e-07	-0.11852	-0.026473	-0.038631	-0.012793	-4.0124e-07	-0.016457	-25.589	-3.501	187.442	72.924	-25.667	63.204	291.876	-12.713	70.910	64.637	287.137	152.422	43.063	67.357	174.438	150.800	-8191	255	
20030.041	1	1	0	0	0.11314	0.098898	0.081442	0.14723	0.021201	0.097949	0.16922	0.28894	0.20383	0.14363	0.05141	0.15217	0.27054	0.25005	0.11151	0.18197	-2.1542	-2.1042	-2.6604	-2.1417	-2.1583	-2.6708	-2.1708	-2.4354	-2.6083	-2.1146	-2.6417	-2.5104	-2.1958	-2.8521	-2.3438	-2.4417	459.347	198.012	261.474	144.401	214.655	205.553	165.929	454.226	395.220	176.376	459.696	281.289	441.488	420.777	221.729	287.682	6.1428e-06	2.5529e-05	5.9593e-06	0.038311	9.4868e-08	6.1227e-08	0.079201	0.016577	2.8878e-07	2.6804e-07	0.021868	0.0020591	0.00066494	0.0023414	6.4138e-07	0.0034976	-2.4461e-05	-3.7751e-05	-1.4661e-05	-0.16144	-3.8137e-07	-6.2348e-07	-0.15265	-0.062807	-4.9891e-07	-4.1718e-07	-0.10995	-0.032727	-0.034357	-0.012827	-4.2046e-07	-0.015915	233.001	462.888	161.608	275.186	403.185	432.567	200.660	161.790	440.185	212.503	490.108	184.382	293.582	326.041	236.590	501.682	-8191	255	
20030.139	1	1	0	0	0.053195	0.10868	0.19003	0.030198	0.18023	0.13045	0.092967	0.18611	0.31827	0.21363	0.063151	0.078452	0.17603	0.25271	0.054155	0.13028	-2.4083	-2.1292	-2.7771	-2.4688	-2.3479	-2.8625	-2.3187	-2.675	-2.8729	-2.0896	-2.8167	-2.5375	-2.1417	-2.7854	-2.1292	-2.3271	86.857	94.316	129.932	276.523	236.252	126.584	78.075	226.128	167.405	55.335	267.412	191.406	181.685	144.289	-21.241	134.627	1.08e-06	7.1698e-06	5.4633e-06	0.022165	2.0261e-07	1.3192e-07	0.026835	0.0077408	1.029e-07	1.3522e-07	0.01517	0.0035659	0.0072552	0.0010491	1.8733e-07	0.0023627	-2.4027e-05	-3.6383e-05	-1.4135e-05	-0.16725	-4.0974e-07	-6.014e-07	-0.15572	-0.05848	-5.2992e-07	-3.9993e-07	-0.11005	-0.033278	-0.034907	-0.012388	-4.2194e-07	-0.01293	166.443	280.671	305.006	66.019	65.850	14.445	93.854	-9.840	179.328	167.325	20.065	331.492	191.442	183.697	188.495	303.120	-8191	255	
20030.234	1	1	0	0	0.1227	0.055262	0.15712	0.12316	0.13063	0.26808	0.28503	0.27883	0.1298	0.20065	0.020049	0.17893	0.14186	0.1069	0.29784	0.13649	-2.3354	-2.1333	-2.6604	-2.4771	-2.1542	-2.9938	-2.3646	-2.2687	-2.8688	-2.2521	-2.5833	-2.6063	-1.9375	-2.8	-2.3833	-2.3354	379.837	530.882	509.295	311.526	511.202	242.791	432.159	326.603	483.136	310.304	479.758	299.190	367.018	397.816	534.275	486.496	5.0043e-06	2.3706e-05	1.3969e-05	0.019577	1.6765e-07	2.1785e-07	0.040464	0.0091485	2.2208e-07	1.6893e-07	0.018632	0.0047058	0.0070933	0.0020776	1.0878e-07	0.0020578	-2.5654e-05	-3.374e-05	-1.3307e-05	-0.17472	-3.4184e-07	-5.6618e-07	-0.16673	-0.057628	-5.4683e-07	-4.4018e-07	-0.10283	-0.034639	-0.0322	-0.012276	-4.3427e-07	-0.011554	407.524	405.580	270.500	531.338	220.795	451.725	459.591	192.385	205.925	450.565	448.045	265.172	333.028	366.820	487.932	216.429	-8191	255	
20030.354	1	1	0	0	0.15461	0.21274	0.32609	0.097088	0.16334	0.1445	0.1895	0.13682	0.17403	0.10966	0.13219	0.12832	0.095751	0.017896	0.3172	0.2979	-2.425	-2.0146	-2.5833	-2.6729	-1.9125	-2.8604	-2.3375	-2.3271	-2.7729	-2.4437	-2.4708	-2.4792	-2.0417	-2.5646	-2.4854	-2.2146	148.817	243.833	150.354	197.914	146.008	329.936	429.270	477.190	307.104	318.844	421.300	267.196	447.576	276.434	364.851	197.866	2.3421e-06	2.2517e-06	1.6859e-05	0.051955	1.4369e-07	5.1937e-07	0.012976	0.01336	2.4653e-07	4.2624e-07	0.0029177	0.010933	0.01391	0.00059725	4.1701e-07	0.0033686	-2.6197e-05	-3.8034e-05	-1.2807e-05	-0.18749	-2.9021e-07	-6.014e-07	-0.18675	-0.051268	-5.4401e-07	-4.2659e-07	-0.090069	-0.034769	-0.032411	-0.011601	-4.4708e-07	-0.012389	244.293	266.602	350.111	441.415	126.320	186.264	213.430	141.156	463.820	417.343	431.964	282.905	170.366	458.883	264.033	153.120	-8191	255	
20030.449	1	1	0	0	0.060869	0.17214	0.06378	0.20195	0.21653	0.080319	0.23634	0.12121	0.24801	0.32984	0.21599	0.31118	0.35311	0.21752	0.1758	0.28038	-2.5125	-2.0104	-2.3104	-2.7562	-2.1583	-2.5646	-2.4938	-2.0646	-2.7333	-2.3167	-2.2604	-2.7229	-1.9021	-2.6667	-2.5042	-2.2188	186.172	440.747	169.433	497.555	367.249	478.696	234.450	301.205	287.141	242.730	235.509	452.748	477.256	394.277	188.393	262.306	3.9048e-06	3.6189e-05	3.4004e-06	0.027761	3.3245e-08	3.1239e-07	0.038122	0.004456	1.8124e-07	3.5927e-07	0.02436	0.006624	0.0045035	0.0025917	1.5011e-07	0.0017548	-2.4922e-05	-3.9214e-05	-1.1203e-05	-0.18849	-3.4091e-07	-5.3779e-07	-0.17629	-0.045696	-5.1253e-07	-4.3704e-07	-0.086931	-0.036	-0.031988	-0.011432	-5.1313e-07	-0.012219	508.002	429.602	390.931	278.581	326.969	178.138	282.949	171.844	375.759	187.742	450.223	204.410	509.228	181.918	495.353	355.022	-8191	255	
20030.547	1	1	0	0	0.09017	0.1156	0.059251	0.13012	0.066335	0.044038	0.23146	0.22398	0.099596	0.24355	0.20578	0.22598	0.078286	0.15645	0.28718	0.078093	-2.3417	-2.1104	-2.225	-2.6521	-1.9854	-2.5667	-2.7021	-2.0312	-2.8292	-2.3833	-2.2042	-2.7833	-2.0479	-2.5167	-2.8042	-2.0792	122.704	58.300	225.965	-11.945	-6.163	-23.505	23.745	-35.163	197.260	-36.827	224.000	182.698	107.779	-1.845	120.276	-52.251	4.8514e-06	2.3884e-05	1.3955e-06	0.054182	4.3603e-07	3.7455e-07	0.05192	0.0076012	4.7077e-07	6.5258e-07	0.0079738	0.0052898	0.0024377	0.0027347	1.5187e-07	0.0018628	-2.3837e-05	-4.5207e-05	-1.2544e-05	-0.18152	-3.7997e-07	-5.073e-07	-0.18802	-0.043663	-4.7119e-07	-5.0814e-07	-0.085571	-0.035676	-0.032073	-0.010701	-5.3679e-07	-0.011832	247.947	213.012	154.486	224.033	229.065	-12.919	38.609	-71.643	-5.136	-52.860	18.087	79.868	227.391	-77.357	113.805	151.442	-8191	255	
20030.617	1	1	0	0	0.099499	0.40317	0.089877	0.1022	0.092474	0.26967	0.1432	0.20764	0.11871	0.28814	0.12054	0.10486	0.19071	0.32351	0.17434	0.18873	-2.3042	-2.2625	-2.2979	-2.9354	-2.3104	-2.4562	-2.7542	-2.1979	-2.8792	-2.3771	-2.1875	-2.7729	-1.9896	-2.3729	-2.6542	-2.3104	49.333	273.961	125.191	220.187	348.186	92.305	149.017	338.791	51.254	106.489	210.705	38.097	69.740	91.960	136.743	171.681	7.812e-06	4.5872e-05	1.0009e-05	0.02068	9.4277e-08	3.196e-07	0.011061	0.0070721	4.1828e-07	2.9982e-07	0.014129	0.0062125	0.0043745	0.0021709	2.4579e-07	0.0016657	-2.3322e-05	-3.9733e-05	-1.0099e-05	-0.19894	-4.2881e-07	-4.8154e-07	-0.20372	-0.051989	-4.9421e-07	-5.4265e-07	-0.087349	-0.037588	-0.037235	-0.0099354	-5.2053e-07	-0.011832	136.222	267.644	107.762	282.556	277.686	315.593	184.491	10.520	142.810	68.333	90.868	81.849	337.055	189.613	244.649	338.519	-8191	255	
20030.738	1	1	0	0	0.18859	0.03006	0.15328	0.25149	0.14524	0.29097	0.035338	0.18859	0.062953	0.11208	0.091753	0.29472	0.23177	0.22504	0.04673	0.09879	-2.1646	-2.4938	-2.0438	-2.825	-2.2896	-2.2229	-2.7771	-2.0458	-2.5271	-2.6083	-2.1792	-2.8167	-2.3375	-2.1167	-2.925	-2.2896	381.870	104.062	164.507	363.135	252.076	281.738	138.001	355.352	280.672	398.208	304.240	217.838	173.627	404.971	296.206	293.579	1.6671e-06	1.5089e-05	3.0893e-06	0.019709	5.3106e-07	3.9123e-07	0.041232	0.020587	1.1341e-07	3.9907e-07	0.011707	0.0052147	0.010005	0.0027021	1.4357e-07	0.0022698	-2.2481e-05	-4.7802e-05	-1.0914e-05	-0.17223	-4.2695e-07	-4.3107e-07	-0.18928	-0.052055	-4.5522e-07	-5.6774e-07	-0.079608	-0.034963	-0.040916	-0.0091928	-5.9151e-07	-0.013085	258.608	410.782	158.581	181.686	392.879	79.385	314.280	82.863	182.258	168.835	65.615	148.458	233.246	215.802	420.652	227.241	-8191	255	
20030.836	1	1	0	0	0.25148	0.14044	0.30025	0.18073	0.17923	0.12894	0.074036	0.17007	0.28031	0.24234	0.065058	0.17178	0.30157	0.30615	0.14142	0.36755	-1.9625	-2.5604	-2.0687	-2.7896	-2.3729	-2.3438	-2.7687	-2.2167	-2.2917	-2.7833	-1.9458	-2.7458	-2.4583	-2.1188	-2.8292	-2.3438	175.241	307.800	262.994	446.328	232.670	400.866	212.805	401.191	391.459	323.538	341.872	161.293	259.191	274.879	477.675	327.946	3.5439e-06	5.4351e-05	9.7834e-06	0.038905	1.6717e-07	1.1398e-07	0.038247	0.01078	3.7842e-07	2.2434e-07	0.0075615	0.0016257	0.0017632	0.0028693	9.4801e-08	0.0022224	-2.0448e-05	-5.2851e-05	-1.0138e-05	-0.1787	-4.7299e-07	-4.8995e-07	-0.20227	-0.053235	-4.2328e-07	-5.8917e-07	-0.071449	-0.033505	-0.041	-0.0078876	-5.4419e-07	-0.013255	355.959	315.527	479.270	217.741	439.345	426.855	366.464	140.430	147.611	341.316	326.316	463.074	407.929	187.517	293.513	394.452	-8191	255	
20030.932	1	1	0	0	0.15811	0.1346	0.12349	0.12856	0.12253	0.25873	0.34743	0.23646	0.076119	0.18363	0.10614	0.1537	0.2375	0.23251	0.021798	0.13774	-2.0187	-2.6604	-2.0563	-2.6146	-2.5646	-2.3312	-2.8708	-2.3146	-2.3375	-2.7	-2.1521	-2.5875	-2.4833	-2.0521	-2.6958	-2.4229	92.729	280.667	326.621	282.208	57.885	329.170	188.125	251.967	257.514	338.008	151.822	110.006	105.719	39.651	346.849	265.146	3.3536e-06	3.1355e-05	1.1263e-05	0.054073	2.814e-07	4.455e-07	0.024354	0.0086031	4.0769e-07	3.1713e-07	0.01661	0.0092657	0.0074084	0.0010114	1.6243e-07	0.0036339	-1.9959e-05	-5.2615e-05	-1.027e-05	-0.17555	-5.0322e-07	-4.1741e-07	-0.20263	-0.056251	-4.1435e-07	-6.1531e-07	-0.085571	-0.030038	-0.043751	-0.0079776	-5.2496e-07	-0.014523	320.539	192.571	280.645	168.724	268.393	265.784	66.601	39.631	146.779	239.332	132.497	193.967	290.961	71.793	84.739	69.926	-8191	255	
20031.051	1	1	0	0	0.094499	0.16821	0.11858	0.2853	0.2526	0.076228	0.1634	0.09869	0.20003	0.047964	0.12908	0.067551	0.13168	0.26914	0.16673	0.21897	-1.8417	-2.6937	-2.0083	-2.4646	-2.6813	-2.0125	-2.7229	-2.1708	-2.2542	-2.8708	-2.1146	-2.5729	-2.6125	-2.0625	-2.7792	-2.2562	42.756	96.448	194.852	214.797	25.776	268.540	238.172	195.240	204.672	257.435	113.145	197.830	255.616	85.146	179.039	46.889	2.3507e-06	5.375e-05	3.8496e-06	0.043608	2.7765e-07	6.7364e-07	0.013717	0.012214	1.1703e-07	3.3612e-07	0.020181	0.0070525	0.011937	0.0025879	1.7566e-07	0.00090362	-1.6922e-05	-5.2521e-05	-1.073e-05	-0.15928	-5.0601e-07	-3.7798e-07	-0.21111	-0.061561	-3.9133e-07	-5.7454e-07	-0.084525	-0.030524	-0.047305	-0.0086077	-5.0771e-07	-0.014369	257.390	-18.605	151.435	12.975	182.874	187.075	-44.261	-56.791	82.082	191.333	221.954	180.812	159.400	201.174	203.468	122.815	-8191	255	
20031.146	1	1	0	0	0.12914	0.17997	0.11181	0.20406	0.11122	0.1252	0.18122	0.22654	0.24766	0.18381	0.2069	0.086203	0.29092	0.10898	0.23531	0.16045	-1.6896	-2.8229	-2.0917	-2.2875	-2.6979	-2.1312	-2.5479	-2.375	-2.125	-2.7271	-2.0604	-2.4729	-2.7333	-1.9833	-2.7042	-2.5042	120.239	255.567	15.610	211.190	32.345	76.748	0.892	196.312	57.945	223.898	69.281	264.783	280.251	168.510	288.108	118.879	5.2539e-06	6.1262e-05	5.0692e-06	0.017951	3.1639e-07	6.6545e-07	0.03242	0.0054261	2.3963e-07	3.1453e-07	0.016805	0.004161	0.0018075	0.00091849	1.961e-07	0.0034921	-1.7031e-05	-5.1766e-05	-1.0519e-05	-0.14319	-4.8648e-07	-4.6524e-07	-0.16781	-0.068707	-3.7489e-07	-6.2054e-07	-0.087559	-0.029195	-0.047982	-0.0097666	-4.6828e-07	-0.016503	196.402	20.613	150.088	148.534	-27.246	54.067	97.133	-46.822	228.026	218.572	108.090	9.378	233.450	22.931	127.264	32.058	-8191	255	
20031.242	1	1	0	0	0.16595	0.094224	0.17715	0.24807	0.075694	0.13331	0.15692	0.054013	0.17261	0.097048	0.21782	0.21043	0.21497	0.14428	0.18941	0.12806	-1.7375	-2.7167	-2.2521	-2.2396	-2.8063	-2.1479	-2.4813	-2.6542	-2.1125	-2.8063	-2.2771	-2.1688	-2.6854	-2.1521	-2.4521	-2.625	244.014	297.692	221.166	118.174	280.985	336.469	298.345	315.778	129.002	303.348	81.954	361.645	138.831	409.636	235.761	229.764	3.7035e-06	1.4466e-05	7.5051e-06	0.042006	1.4007e-07	7.0065e-07	0.019398	0.0071967	3.4451e-07	5.5467e-07	0.01838	0.006356	0.0057129	0.0021757	2.0382e-07	0.0026026	-1.581e-05	-4.9218e-05	-1.1282e-05	-0.13589	-5.6415e-07	-4.4264e-07	-0.15518	-0.068379	-3.9556e-07	-5.4892e-07	-0.089651	-0.026635	-0.045147	-0.0083939	-4.7419e-07	-0.016673	125.879	436.555	213.574	289.254	301.723	150.016	167.949	95.688	149.417	431.390	291.367	326.432	319.836	320.024	267.243	86.375	-8191	255	
20031.340	1	1	0	0	0.15718	0.28986	0.20087	0.1935	0.23975	0.1606	0.20473	0.10065	0.10032	0.25351	0.090189	0.23872	0.2114	0.12595	0.093671	0.17115	-1.6896	-2.6458	-2.1208	-2.1042	-2.8729	-2.1458	-2.2917	-2.7042	-2.1417	-2.625	-2.2708	-2.1958	-2.7812	-2.2604	-2.3729	-2.7667	33.181	-65.756	133.361	-103.988	72.373	29.471	17.995	120.029	31.496	-58.191	-41.979	113.455	-97.687	208.825	81.796	167.731	3.0699e-06	4.6296e-05	9.7e-06	0.072886	8.6077e-08	3.242e-08	0.018042	0.0093077	1.7629e-07	2.5751e-07	0.0092624	0.0047555	0.005787	0.0013939	1.1085e-07	0.0040877	-1.4102e-05	-4.8888e-05	-1.1598e-05	-0.11697	-4.9113e-07	-4.3318e-07	-0.17575	-0.075132	-3.2368e-07	-5.5833e-07	-0.10356	-0.023103	-0.044216	-0.0089228	-4.4511e-07	-0.018344	72.698	28.044	-35.846	-137.633	201.762	20.393	-79.496	-125.716	-89.579	209.906	59.654	127.761	67.590	33.187	-64.880	198.029	-8191	255	
20031.436	1	1	0	0	0.19469	0.11432	0.29257	0.3004	0.12541	0.18529	0.1889	0.19705	0.12691	0.10841	0.097427	0.23712	0.19562	0.17778	0.1384	0.1103	-1.775	-2.5938	-2.3646	-2.0542	-2.7833	-2.1542	-2.125	-2.9062	-2.1583	-2.6042	-2.5521	-2.0687	-2.5938	-2.3396	-2.2417	-2.7875	164.165	26.545	-120.001	-46.109	62.981	36.858	-86.451	-118.917	164.392	26.677	155.767	29.362	97.454	37.029	93.946	139.568	1.2193e-06	3.7309e-05	1.6231e-05	0.04598	2.8273e-07	8.6624e-08	0.037429	0.003368	2.2568e-07	2.866e-07	0.012937	0.0073502	0.0060513	0.0015597	2.3179e-07	0.0013908	-1.4048e-05	-4.4782e-05	-1.2702e-05	-0.12793	-4.9671e-07	-5.0204e-07	-0.14958	-0.074083	-3.7583e-07	-5.5676e-07	-0.10451	-0.023849	-0.047432	-0.0095191	-4.525e-07	-0.016117	192.701	73.010	-60.776	-64.368	-103.231	19.696	154.010	-112.817	114.458	98.206	-24.800	-20.276	176.548	40.745	-78.050	213.248	-8191	255	
20031.531	1	1	0	0	0.26759	0.18877	0.2327	0.12012	0.084582	0.058933	0.070351	0.17055	0.20128	0.037891	0.13909	0.11399	0.10631	0.080898	0.10664	0.096301	-1.5583	-2.5646	-2.4708	-1.9333	-2.8208	-2.45	-2.0958	-2.7833	-2.1562	-2.6729	-2.6	-2.025	-2.5438	-2.2479	-2.225	-2.7979	244.182	440.406	251.871	485.955	328.748	345.989	430.198	226.798	335.539	396.527	152.826	235.605	271.670	491.537	357.561	205.467	6.3669e-06	5.4403e-05	3.5181e-06	0.00033188	1.5256e-07	3.9187e-07	0.054798	0.013216	9.3448e-08	2.7003e-07	0.0053521	0.011499	0.0041281	0.0016154	4.7292e-07	0.0056607	-1.6e-05	-4.1196e-05	-1.4938e-05	-0.12643	-5.5577e-07	-4.7523e-07	-0.16203	-0.070936	-4.0589e-07	-4.9664e-07	-0.10451	-0.025858	-0.044216	-0.010757	-3.8547e-07	-0.017431	345.651	369.319	268.268	356.183	199.137	253.805	366.479	153.643	422.128	306.772	301.829	448.271	366.758	329.342	373.598	374.826	-8191	255	
20031.650	1	1	0	0	0.010124	0.077825	0.32168	0.060057	0.10715	0.35737	0.17943	0.14373	0.17513	0.03333	0.13556	0.03411	0.27037	0.33433	0.06179	0.10715	-1.8792	-2.425	-2.6771	-2.0042	-2.6958	-2.3937	-2.0875	-2.85	-2.1271	-2.4062	-2.6875	-1.9813	-2.5104	-2.5646	-2.2062	-2.9979	489.072	502.463	493.934	327.725	298.031	475.297	476.838	372.402	379.779	196.778	483.066	273.942	414.227	220.563	340.462	256.454	4.7571e-06	3.371e-05	1.0037e-05	0.0093019	3.7621e-07	3.9777e-07	0.024589	0.012092	9.033e-08	4.5194e-07	0.0098433	0.0044532	0.0068953	0.0026129	8.6507e-08	0.001414	-1.7003e-05	-4.2517e-05	-1.3938e-05	-0.12112	-4.8555e-07	-5.2833e-07	-0.13533	-0.065298	-3.8663e-07	-4.8775e-07	-0.11486	-0.025145	-0.047009	-0.011308	-3.7857e-07	-0.018112	507.812	373.604	389.907	268.947	360.612	159.747	249.081	171.061	457.939	448.908	275.822	278.452	495.844	261.808	306.289	376.830	-8191	255	
20031.746	1	1	0	0	0.064633	0.12468	0.2457	0.082826	0.13127	0.11856	0.26223	0.24454	0.082841	0.14868	0.22909	0.091426	0.098185	0.14636	0.15729	0.079187	-1.8521	-2.2917	-2.675	-2.0271	-2.4396	-2.65	-2.0958	-2.6854	-2.3458	-2.1646	-2.8396	-1.9979	-2.5229	-2.5687	-2.175	-2.7687	94.991	252.633	91.261	237.259	338.315	211.832	43.537	151.920	50.876	377.788	194.164	364.114	92.671	26.966	347.033	376.501	2.5557e-06	1.697e-05	6.9662e-06	0.036628	3.3619e-07	1.2906e-07	0.043562	0.0035432	4.1944e-07	1.6027e-07	0.020955	0.00084073	0.0091421	0.00097043	2.2634e-07	0.0022563	-1.8603e-05	-4.0913e-05	-1.4885e-05	-0.12826	-4.7718e-07	-5.9667e-07	-0.14002	-0.070215	-3.8616e-07	-4.2188e-07	-0.11842	-0.024983	-0.040408	-0.012298	-3.6526e-07	-0.016581	122.911	335.910	97.582	334.289	353.069	75.948	334.234	44.670	375.474	330.916	85.114	382.153	271.609	370.063	153.847	127.407	-8191	255	
20031.842	1	1	0	0	0.08187	0.18562	0.083275	0.13973	0.25571	0.18571	0.22506	0.20047	0.28131	0.22885	0.16787	0.16308	0.098088	0.15128	0.30094	0.13859	-2.1083	-2.0792	-2.8042	-2.1083	-2.4646	-2.5854	-1.9937	-2.5583	-2.4146	-2.2521	-2.6188	-2.2896	-2.5875	-2.6292	-1.9083	-2.7313	200.405	202.769	137.687	73.729	93.515	296.960	277.952	120.343	166.194	231.511	304.696	405.988	174.839	228.813	302.752	311.533	8.5744e-07	3.3667e-05	4.2751e-06	0.00528	2.6974e-07	4.9073e-07	0.040293	0.011031	2.4525e-07	2.0199e-07	0.029839	0.0044103	0.0081005	0.001167	1.9281e-07	0.0031669	-2.1885e-05	-3.6052e-05	-1.3583e-05	-0.12345	-4.0276e-07	-5.9141e-07	-0.14056	-0.069559	-4.6321e-07	-4.2136e-07	-0.11612	-0.024173	-0.037108	-0.012175	-3.4998e-07	-0.014972	409.215	399.646	290.006	214.348	258.174	228.960	354.898	91.499	250.867	200.966	179.078	232.216	225.944	106.364	363.765	95.882	-8191	255	
20031.914	1	1	0	0	0.054842	0.1333	0.23495	0.13574	0.053645	0.11838	0.079066	0.14094	0.10301	0.25408	0.0062907	0.10016	0.065047	0.26434	0.13109	0.18156	-2.0146	-2.0875	-2.8167	-2.2062	-2.3292	-2.7833	-1.9667	-2.5687	-2.4771	-2.2417	-2.7792	-2.2562	-2.2979	-2.6708	-2.0563	-2.4646	209.637	200.174	120.321	106.414	153.797	11.324	-82.728	142.725	-99.172	-15.751	195.984	13.048	-47.291	138.905	9.389	228.726	4.1861e-06	3.3555e-05	1.551e-05	0.0069133	1.737e-07	1.9485e-07	0.018396	0.0082552	2.7432e-07	2.2971e-07	0.012488	0.0061105	0.006656	0.0018565	1.6933e-07	0.0019435	-2.3024e-05	-3.6571e-05	-1.5634e-05	-0.14269	-3.5532e-07	-6.3557e-07	-0.12956	-0.063725	-4.6462e-07	-4.0881e-07	-0.12292	-0.031042	-0.036812	-0.0124	-4.0025e-07	-0.016086	236.689	21.485	-16.472	-103.797	35.862	-52.429	-106.595	-102.492	125.063	7.803	-116.363	-2.464	196.655	-41.744	-73.199	48.549	-8191	255	
20032.012	1	1	0	0	0.27585	0.075799	0.31096	0.33371	0.080199	0.067225	0.13469	0.25131	0.16265	0.081464	0.16782	0.10557	0.28075	0.24046	0.077692	0.1415	-2.1	-2.0083	-2.8937	-2.2062	-2.2062	-2.9938	-2.1729	-2.3229	-2.6708	-2.0271	-2.7104	-2.1437	-2.1417	-2.7229	-2.0708	-2.3667	176.219	-44.099	70.051	20.219	71.353	278.741	239.024	80.087	-8.972	174.149	121.100	-9.177	159.088	185.740	198.269	-27.090	6.2799e-06	1.5721e-05	1.2546e-05	0.036046	2.5796e-07	4.5769e-07	0.06118	0.013708	3.5245e-07	3.0607e-07	0.0083053	0.0066649	0.0073123	0.00086746	9.4664e-08	0.00025555	-2.4109e-05	-3.525e-05	-1.4359e-05	-0.15232	-4.0555e-07	-6.4398e-07	-0.15337	-0.057759	-5.0267e-07	-4.3495e-07	-0.11465	-0.028418	-0.033977	-0.012298	-4.1258e-07	-0.014462	-41.789	-57.134	189.609	235.450	62.373	242.197	231.081	-46.776	81.640	84.566	99.027	-28.998	249.324	91.757	230.155	285.361	-8191	255	
20032.131	1	1	0	0	0.37224	0.17553	0.07971	0.054017	0.10887	0.097227	0.053484	0.046769	0.13284	0.189	0.091256	0.10314	0.043368	0.21415	0.10342	0.2901	-2.3542	-1.9979	-2.6312	-2.5062	-2.0458	-2.9437	-2.1208	-2.3479	-2.6646	-2.1063	-2.5854	-2.6083	-2.1708	-2.7562	-2.3854	-2.2896	236.580	138.357	165.848	292.005	23.457	284.002	-2.313	80.877	157.487	117.859	63.105	212.582	309.609	40.646	63.867	145.618	6.2001e-06	1.0656e-06	2.3441e-05	0.012688	4.3309e-07	3.8772e-07	0.0095731	0.001976	3.6166e-07	4.8755e-07	0.031013	0.013187	0.007321	0.0030528	6.9514e-08	0.0044932	-2.5139e-05	-3.0484e-05	-1.3583e-05	-0.15912	-3.9346e-07	-6.0508e-07	-0.1541	-0.054677	-5.1159e-07	-4.1143e-07	-0.099693	-0.033116	-0.031734	-0.012838	-4.3722e-07	-0.013286	90.403	245.292	68.017	78.331	189.446	237.566	120.407	4.359	27.124	38.240	152.480	308.245	8.930	199.095	50.832	139.396	-8191	255	
20032.227	1	1	0	0	0.20321	0.38579	0.15001	0.28219	0.20778	0.20796	0.17275	0.17452	0.20739	0.15243	0.07185	0.092913	0.29958	0.25187	0.25559	0.1604	-2.4021	-1.9688	-2.4854	-2.4833	-2.1542	-2.8	-2.5229	-2.1896	-2.8333	-2.1146	-2.5438	-2.5938	-2.0792	-2.6729	-2.3583	-2.1896	333.202	436.950	226.517	305.919	383.147	146.993	253.605	242.518	358.967	343.329	228.186	355.107	312.384	218.704	348.582	114.785	5.3579e-06	4.4797e-05	1.0521e-05	0.018261	2.7127e-08	6.903e-07	0.0071521	0.0070456	1.3131e-07	2.4323e-07	0.026191	0.0055916	0.0038688	0.0033757	1.835e-07	0.0034891	-2.4326e-05	-3.7043e-05	-1.3557e-05	-0.16625	-3.6788e-07	-6.1139e-07	-0.16312	-0.053169	-5.332e-07	-4.1456e-07	-0.10346	-0.036291	-0.031015	-0.01285	-4.3821e-07	-0.01225	123.857	234.439	150.224	195.058	377.146	241.658	148.890	105.213	398.032	250.323	293.386	95.440	419.515	427.511	394.548	177.327	-8191	255	
20032.322	1	1	0	0	0.072856	0.049554	0.17562	0.089812	0.22419	0.069763	0.15081	0.13759	0.058446	0.12026	0.2997	0.20202	0.069215	0.08425	0.12439	0.15645	-2.3854	-2.2292	-2.3458	-2.4958	-2.0375	-2.8583	-2.3771	-2.1562	-2.775	-2.2167	-2.6375	-2.8583	-1.9958	-2.4375	-2.5979	-2.1729	259.993	335.519	223.465	323.498	447.807	335.858	451.080	252.096	403.336	383.989	399.510	227.709	238.806	453.222	137.281	326.353	3.9921e-06	6.4312e-05	6.7999e-06	0.013554	2.3837e-08	1.2954e-07	0.02307	0.0013039	1.9922e-07	2.2482e-07	0.0069861	0.0041219	0.0081746	0.00085676	2.4097e-07	0.0023123	-2.4461e-05	-4.0016e-05	-1.3162e-05	-0.18368	-3.5439e-07	-5.7564e-07	-0.17376	-0.051596	-5.4448e-07	-4.8723e-07	-0.09938	-0.036842	-0.031903	-0.011826	-4.6828e-07	-0.012312	151.655	290.813	162.586	200.787	380.447	188.405	236.015	119.711	421.395	147.541	419.302	159.265	177.654	313.652	416.638	123.882	-8191	255	
20032.420	1	1	0	0	0.18225	0.1211	0.097626	0.094406	0.16831	0.15892	0.042906	0.029857	0.066721	0.066987	0.24454	0.29373	0.014781	0.092143	0.20884	0.14835	-2.35	-2.3083	-2.4083	-2.6646	-2.1167	-2.7375	-2.5312	-2.0833	-2.8354	-2.2062	-2.1437	-2.5687	-1.9542	-2.3833	-2.5979	-2.1437	446.940	267.381	230.920	240.049	376.946	278.454	253.875	172.148	413.456	459.915	277.080	294.498	273.523	365.476	293.546	476.775	3.1832e-06	4.9189e-05	4.8528e-06	0.038084	3.3933e-07	2.7748e-07	0.043408	0.012846	4.7076e-07	1.3698e-07	0.020616	0.004149	0.0123	0.0011954	4.1071e-07	0.0017874	-2.6685e-05	-4.1951e-05	-1.1663e-05	-0.18052	-3.9532e-07	-5.0625e-07	-0.19632	-0.046876	-5.0032e-07	-4.5691e-07	-0.082433	-0.039694	-0.032411	-0.010115	-5.294e-07	-0.01194	441.776	371.366	151.154	294.937	463.057	180.386	381.235	167.057	483.876	265.042	460.374	151.426	394.278	462.200	283.909	438.621	-8191	255	
20032.516	1	1	0	0	0.094332	0.15773	0.11743	0.2064	0.3348	0.10031	0.10207	0.14102	0.29398	0.15951	0.18199	0.12167	0.3006	0.13404	0.1612	0.15168	-2.3	-2.2417	-2.1188	-2.7854	-2.1354	-2.5521	-2.775	-2.125	-2.6417	-2.4667	-2.125	-2.825	-2.1917	-2.2938	-2.6854	-2.0646	-46.815	212.533	140.929	-19.912	-117.109	-117.997	115.427	154.237	-90.866	-72.883	-54.408	32.250	83.651	176.620	172.364	114.331	6.6052e-07	6.1877e-05	1.0785e-05	0.031569	2.9067e-07	1.5132e-07	0.018524	0.0035907	1.0053e-07	1.3844e-07	0.020021	0.0054077	0.0071576	0.0025275	1.4269e-07	0.0029786	-2.3051e-05	-4.4169e-05	-1.1111e-05	-0.1845	-3.6742e-07	-4.9626e-07	-0.18008	-0.054284	-4.8059e-07	-5.0291e-07	-0.08055	-0.035255	-0.037362	-0.0097554	-5.3877e-07	-0.011028	17.299	110.244	106.289	46.135	158.096	-24.653	-35.835	-104.480	125.836	-30.758	-37.342	48.115	141.495	-118.858	10.776	160.143	-8191	255	
20032.611	1	1	0	0	0.26045	0.1039	0.20987	0.13503	0.40473	0.35023	0.14722	0.05064	0.19599	0.11243	0.23473	0.077503	0.25098	0.14331	0.11391	0.22238	-2.2458	-2.4625	-2.1333	-2.9417	-2.1229	-2.4521	-2.7583	-2.1333	-2.8063	-2.4917	-2.1396	-2.8125	-2.2583	-2.3792	-2.7354	-2.1896	161.417	295.051	182.974	206.350	139.179	244.893	172.934	343.765	345.731	316.302	104.872	122.209	430.063	107.381	342.686	268.257	3.5786e-06	5.4255e-05	5.1634e-06	0.011915	4.6582e-07	2.6645e-07	0.040081	0.00133	2.203e-07	3.4594e-07	0.020587	0.0094397	0.0073766	0.00033887	8.4443e-08	0.0012368	-2.4678e-05	-4.0771e-05	-1.0072e-05	-0.18666	-3.7532e-07	-4.8838e-07	-0.20588	-0.043794	-4.8623e-07	-5.9074e-07	-0.087768	-0.036972	-0.033511	-0.0099917	-5.8461e-07	-0.011971	191.740	404.301	117.221	170.682	340.713	292.386	259.277	105.794	94.174	111.636	92.341	424.167	385.205	251.712	446.703	196.941	-8191	255	
20032.732	1	1	0	0	0.15964	0.10921	0.14939	0.15799	0.1184	0.10458	0.049493	0.28381	0.28312	0.18962	0.24287	0.11437	0.51137	0.10449	0.037462	0.13001	-2.1688	-2.6042	-2.1646	-2.7333	-2.4833	-2.3417	-2.9125	-2.1271	-2.5792	-2.5938	-2.1458	-2.8458	-2.4979	-2.1792	-2.75	-2.2583	218.679	294.379	37.145	290.052	308.281	61.557	114.015	289.570	277.639	277.334	273.349	300.217	221.313	80.840	56.520	10.116	2.2915e-06	1.611e-05	6.3801e-06	0.040819	3.8955e-07	8.4438e-07	0.017266	0.0085145	1.7052e-07	1.1085e-07	0.024591	0.0044617	0.0050115	0.0032811	2.5796e-07	0.0056348	-2.2644e-05	-4.8557e-05	-1.0046e-05	-0.16642	-4.3206e-07	-4.1215e-07	-0.19668	-0.050023	-4.5616e-07	-5.6826e-07	-0.077725	-0.034736	-0.039477	-0.0082589	-5.2102e-07	-0.012343	101.383	56.371	316.362	274.349	59.515	-8.370	247.104	-16.307	7.186	69.946	242.874	248.904	-34.117	2.698	-10.504	-3.596	-8191	255	
20032.826	1	1	0	0	0.079358	0.30027	0.17842	0.13445	0.21551	0.14678	0.098011	0.067956	0.18699	0.15159	0.18611	0.16909	0.23185	0.065089	0.15351	0.14622	-2.0167	-2.4104	-1.9396	-2.875	-2.4792	-2.1125	-2.5229	-2.0458	-2.4833	-2.8229	-1.9625	-2.5833	-2.3042	-2.0938	-2.8292	-2.0375	212.236	80.730	112.474	150.880	159.594	331.709	105.414	124.183	334.364	312.860	95.990	300.816	121.698	17.852	67.847	176.017	3.8708e-06	3.343e-05	5.3326e-06	0.038484	3.1467e-07	6.2281e-07	0.027889	0.010104	2.0986e-07	1.9097e-07	0.013736	0.0044757	0.0073828	0.0029287	3.0927e-07	0.002635	-1.9471e-05	-5.6343e-05	-1.0099e-05	-0.17306	-4.223e-07	-3.9428e-07	-0.20498	-0.053563	-4.3032e-07	-5.6094e-07	-0.080341	-0.033829	-0.04045	-0.0084952	-5.1412e-07	-0.013951	332.955	79.611	330.099	374.135	232.119	163.088	277.920	34.803	228.114	141.034	163.358	101.626	323.580	131.945	269.832	305.818	-8191	255	
20032.922	1	1	0	0	0.3142	0.10601	0.2504	0.24034	0.11207	0.039927	0.083126	0.073728	0.17271	0.11211	0.040087	0.10533	0.18156	0.063807	0.23099	0.25011	-1.8062	-2.8187	-1.9583	-2.5625	-2.3417	-2.0146	-2.6521	-2.4	-2.2062	-2.6729	-2.1917	-2.4083	-2.4458	-2.0542	-2.6583	-2.2687	160.831	365.505	362.589	102.061	99.531	423.608	110.258	385.375	447.689	268.703	436.188	269.189	153.029	262.835	371.866	222.009	5.1255e-06	1.0111e-05	6.6685e-06	0.017922	3.7164e-07	3.0614e-07	0.050081	0.016498	4.9322e-07	3.8919e-07	0.012798	0.0092973	0.0032506	0.0028068	2.6593e-07	0.0018739	-1.657e-05	-5.2663e-05	-9.8488e-06	-0.16874	-4.8462e-07	-3.927e-07	-0.19632	-0.057365	-3.9321e-07	-5.8447e-07	-0.078876	-0.031301	-0.043201	-0.0097441	-5.3827e-07	-0.013781	109.607	176.856	244.532	388.136	415.521	417.658	278.195	110.179	406.560	326.541	415.128	213.058	334.020	244.532	404.399	134.637	-8191	255	
20033.020	1	1	0	0	0.12525	0.20811	0.1231	0.26852	0.38633	0.1936	0.028096	0.12198	0.078363	0.37465	0.10831	0.13468	0.060718	0.371	0.18065	0.014622	-1.8375	-2.7958	-1.9667	-2.4458	-2.4375	-1.8979	-2.7125	-2.1958	-2.2417	-2.8417	-2.1333	-2.4146	-2.4958	-1.9042	-2.6188	-2.4313	175.318	200.115	-40.764	-24.476	-92.961	-1.556	78.992	83.936	-83.874	53.395	-77.448	-41.989	-83.030	104.298	32.651	-44.219	3.1245e-06	3.5648e-05	8.6584e-06	0.025527	3.1795e-07	5.477e-07	0.039313	0.019106	2.5195e-07	3.7681e-07	0.011186	0.0029223	0.0060469	0.0010931	3.609e-07	0.00066403	-1.5078e-05	-5.12e-05	-9.954e-06	-0.15265	-4.981e-07	-4.0532e-07	-0.18531	-0.059725	-4.0354e-07	-6.3831e-07	-0.091952	-0.029001	-0.046543	-0.0084052	-5.4517e-07	-0.015204	191.880	-125.440	-51.196	49.834	49.018	151.197	-14.597	-120.906	-18.140	-128.470	139.650	149.380	111.307	-28.097	-24.847	45.347	-8191	255	
20033.139	1	1	0	0	0.53668	0.0593	0.088995	0.18944	0.16109	0.14233	0.35557	0.23106	0.20583	0.095841	0.17884	0.15581	0.12102	0.17106	0.24945	0.19565	-1.7021	-2.7333	-2.0062	-2.2375	-2.7375	-2.1479	-2.6667	-2.4562	-2.1813	-2.7083	-1.9771	-2.3708	-2.6292	-1.9167	-2.6437	-2.4333	210.482	92.070	146.148	-116.050	213.886	170.573	153.304	76.024	-77.649	-26.179	-101.686	133.356	-111.525	-77.987	-69.540	149.920	2.8111e-06	1.7709e-05	5.8577e-06	0.049592	1.4701e-07	2.9989e-07	0.0036095	0.0059369	2.8384e-07	3.5157e-07	0.0088738	0.0081114	0.0070874	0.0019351	4.6588e-07	0.0018795	-1.6163e-05	-5.1577e-05	-1.023e-05	-0.13456	-4.8136e-07	-4.2792e-07	-0.18495	-0.068904	-3.4388e-07	-5.1651e-07	-0.085362	-0.027802	-0.044809	-0.0084727	-4.3032e-07	-0.015018	96.824	55.372	223.940	-79.908	62.518	181.783	105.343	-107.353	1.495	193.068	13.394	-54.535	12.698	-106.229	175.433	152.007	-8191	255	
20033.211	1	1	0	0	0.097442	0.093422	0.17428	0.078396	0.16546	0.16366	0.14887	0.042799	0.089089	0.18258	0.19422	0.12206	0.077729	0.13594	0.16961	0.075683	-1.4937	-2.7583	-2.2333	-2.1292	-2.7438	-1.9958	-2.2917	-2.525	-1.8917	-2.9417	-2.3667	-2.1562	-2.6979	-2.0667	-2.4792	-2.7896	304.058	175.177	214.406	181.097	255.167	189.005	-6.898	21.155	135.703	295.164	134.811	220.546	272.913	200.540	261.871	40.747	2.4433e-06	2.7224e-05	9.4375e-06	0.026116	2.5616e-07	5.2004e-07	0.014914	0.008034	1.7266e-07	3.0408e-07	0.023073	0.0056753	0.0095003	0.0052072	3.7741e-07	0.0015911	-1.4427e-05	-5.0822e-05	-1.2794e-05	-0.13971	-4.8183e-07	-4.153e-07	-0.18242	-0.071723	-3.8381e-07	-5.7035e-07	-0.098124	-0.024238	-0.046586	-0.0087202	-4.0765e-07	-0.01723	149.242	195.901	16.117	90.332	279.963	152.578	225.347	-21.587	265.864	-5.923	112.211	208.526	199.469	25.454	194.753	158.529	-8191	255	
20033.330	1	1	0	0	0.14463	0.23264	0.11854	0.23656	0.058828	0.061433	0.17895	0.24198	0.076871	0.25264	0.093885	0.3224	0.18642	0.20854	0.2115	0.20794	-1.6396	-2.6521	-2.4437	-2.0208	-2.8646	-2.2313	-2.475	-2.7208	-2.0458	-2.6708	-2.4083	-2.225	-2.7313	-2.2062	-2.2667	-2.7562	389.312	372.113	230.804	325.759	427.098	305.132	412.121	343.539	321.460	385.645	277.628	276.538	127.380	119.370	264.913	181.841	2.1022e-06	3.2969e-05	1.9866e-06	0.025574	1.1345e-07	6.4277e-08	0.016161	0.0069017	1.5341e-07	1.8913e-07	0.024714	0.00045479	0.0059713	0.00227	2.9059e-07	0.0018176	-1.4292e-05	-5.2521e-05	-1.2321e-05	-0.13523	-4.8183e-07	-4.6367e-07	-0.17467	-0.068904	-3.8381e-07	-5.2801e-07	-0.10838	-0.025015	-0.047136	-0.0096316	-4.5891e-07	-0.018174	326.494	434.709	348.721	156.160	102.804	119.020	139.786	117.696	223.995	254.774	121.568	448.559	385.960	270.916	414.114	262.881	-8191	255	
20033.428	1	1	0	0	0.084589	0.08568	0.29451	0.256	0.15682	0.13548	0.12083	0.21359	0.08616	0.29292	0.046619	0.20187	0.13681	0.072512	0.086892	0.11657	-1.7146	-2.5875	-2.4938	-1.9917	-2.7313	-2.2021	-2.225	-2.5792	-1.975	-2.4771	-2.525	-2.0146	-2.6542	-2.2938	-2.0792	-2.9188	234.851	198.193	32.975	295.632	300.048	103.672	2.339	281.331	69.661	8.173	76.156	144.425	-9.528	124.779	286.306	251.639	5.1213e-07	1.5908e-05	8.198e-06	0.02645	4.6231e-07	3.0667e-07	0.01336	0.012677	2.3853e-07	2.0671e-07	0.017495	0.0054613	0.0070669	0.0016385	1.8846e-07	0.0015955	-1.4807e-05	-4.5254e-05	-1.3491e-05	-0.11615	-5.0369e-07	-4.4947e-07	-0.15085	-0.07133	-3.2932e-07	-5.484e-07	-0.10576	-0.024432	-0.047263	-0.010273	-4.037e-07	-0.016874	289.561	105.499	320.273	7.446	301.788	102.208	306.673	5.789	35.744	250.002	208.945	19.400	264.480	249.256	58.381	274.995	-8191	255	
20033.523	1	1	0	0	0.035723	0.037409	0.29371	0.30072	0.1081	0.099847	0.1408	0.060838	0.22761	0.30051	0.22357	0.14556	0.23009	0.22788	0.22557	0.11435	-1.6667	-2.5187	-2.4292	-1.9375	-2.725	-2.3708	-2.2708	-2.6188	-2.2729	-2.3146	-2.675	-2.0812	-2.8021	-2.4604	-2.2417	-2.8417	230.901	134.189	140.717	210.543	-83.938	207.670	9.999	123.618	163.299	203.143	77.026	233.654	19.432	188.195	160.972	77.650	1.9388e-06	4.2323e-06	2.5452e-06	0.013575	6.7069e-08	1.491e-07	0.027318	0.0095973	4.7219e-07	6.8264e-07	0.0021104	0.0019446	0.0045246	0.0016818	1.5375e-07	0.0012396	-1.638e-05	-4.2187e-05	-1.4175e-05	-0.11067	-4.9066e-07	-4.9521e-07	-0.13298	-0.070215	-4.073e-07	-4.5064e-07	-0.11486	-0.028223	-0.043201	-0.010701	-3.554e-07	-0.016379	53.144	-54.830	-55.353	222.069	18.529	116.049	81.750	-95.911	217.356	-58.775	-30.062	202.598	120.057	-7.329	211.543	-96.515	-8191	255	
20033.619	1	1	0	0	0.10853	0.087275	0.21854	0.027772	0.075724	0.21265	0.21498	0.19406	0.058334	0.084107	0.1594	0.1852	0.265	0.082303	0.10515	0.059068	-1.6354	-2.4292	-2.6604	-2.1521	-2.7083	-2.4479	-2.0187	-2.6813	-2.1104	-2.1896	-2.6833	-2.0354	-2.7333	-2.4667	-2.075	-2.625	437.888	149.857	369.518	407.109	133.852	195.586	385.875	315.193	397.036	450.571	451.050	265.894	338.448	378.717	395.888	326.284	3.7426e-06	1.6014e-05	1.6084e-05	0.0098374	1.8382e-07	4.2071e-07	0.013821	0.015599	3.6096e-07	1.8439e-07	0.013473	0.0082744	0.015219	0.00071678	6.2372e-08	0.0005619	-1.638e-05	-3.86e-05	-1.4162e-05	-0.12262	-4.7997e-07	-5.2465e-07	-0.12703	-0.067789	-3.824e-07	-3.6176e-07	-0.11455	-0.02333	-0.039773	-0.011297	-3.8744e-07	-0.016302	410.314	427.840	265.218	105.623	193.186	279.230	341.620	115.549	181.895	263.337	300.143	172.047	157.870	381.765	204.346	208.961	-8191	255	
20033.717	1	1	0	0	0.024907	0.18332	0.13884	0.083925	0.068546	0.22074	0.38909	0.23633	0.12629	0.32014	0.20668	0.27702	0.31088	0.10655	0.2707	0.15936	-1.8958	-2.1562	-2.7875	-1.7354	-2.5438	-2.6688	-2.0292	-2.8167	-2.5708	-2.2125	-2.9792	-2.2146	-2.5104	-2.7562	-2.1625	-2.7833	-51.077	184.069	199.771	18.511	-54.388	164.921	79.957	-89.846	176.593	202.380	36.510	-102.275	-149.393	-127.346	186.332	-138.853	4.4412e-06	1.8669e-05	5.7002e-06	0.0066411	3.4109e-07	1.8439e-07	0.057293	0.0042382	2.925e-07	2.1405e-07	0.016869	0.0059825	0.0013674	0.0010483	3.2687e-07	0.0023405	-1.8793e-05	-3.4401e-05	-1.428e-05	-0.12046	-4.2788e-07	-5.4988e-07	-0.12595	-0.072051	-4.1999e-07	-4.5586e-07	-0.11831	-0.023881	-0.03952	-0.012535	-3.6131e-07	-0.015761	157.352	167.981	81.578	-39.949	-109.802	33.178	127.596	-138.951	65.611	-77.011	52.288	115.228	104.581	-97.618	65.124	133.436	-8191	255	
20033.812	1	1	0	0	0.1552	0.059984	0.035833	0.17884	0.20743	0.059938	0.21664	0.12973	0.23381	0.29265	0.025073	0.15356	0.28273	0.077884	0.2145	0.054757	-1.975	-2.0438	-2.85	-2.0458	-2.3958	-2.675	-1.925	-2.5979	-2.5146	-2.1167	-2.8729	-2.1437	-2.5375	-2.7542	-2.075	-2.6625	99.902	291.639	38.842	276.062	176.759	114.425	-10.760	323.660	74.992	264.655	51.309	268.811	233.879	228.326	319.079	107.811	5.5998e-07	2.2981e-05	9.3557e-06	0.028015	2.1133e-07	2.099e-07	0.024415	0.01287	3.2209e-07	3.276e-07	0.022065	0.0041206	0.0091872	0.0011089	2.4268e-07	0.0015849	-1.9254e-05	-3.341e-05	-1.3754e-05	-0.13655	-4.1904e-07	-6.0981e-07	-0.14237	-0.067527	-4.5052e-07	-3.9156e-07	-0.12281	-0.030783	-0.037869	-0.012445	-3.8448e-07	-0.015683	203.323	81.176	315.801	26.521	261.448	132.851	325.744	6.250	293.208	246.455	10.363	29.802	288.193	122.154	103.801	116.976	-8191	255	
20033.908	1	1	0	0	0.067159	0.27179	0.088304	0.27845	0.26056	0.19695	0.11114	0.11591	0.14934	0.25225	0.15061	0.050716	0.15011	0.1672	0.2664	0.24144	-2.1729	-1.8646	-2.6562	-2.1208	-2.2292	-2.7083	-2.0458	-2.5208	-2.7812	-2.0542	-2.9021	-2.2854	-2.2188	-2.7792	-2.1354	-2.4604	49.422	-80.529	-94.518	234.394	77.260	198.277	183.198	224.114	30.086	62.828	34.621	154.426	56.971	-62.747	78.262	154.298	3.4219e-06	4.04e-05	1.0912e-05	0.017941	1.5386e-07	4.2747e-07	0.016054	0.0047025	1.7634e-07	2.3208e-07	0.032835	0.0056031	0.010837	0.0027447	2.8032e-08	0.001706	-2.5248e-05	-3.5203e-05	-1.4793e-05	-0.13639	-4.0416e-07	-5.6145e-07	-0.13695	-0.065823	-4.8106e-07	-4.1195e-07	-0.10932	-0.030491	-0.035542	-0.011814	-4.0666e-07	-0.014121	-72.138	186.339	-58.807	161.832	-90.056	29.109	-75.380	-105.331	-67.112	33.615	210.809	-33.741	-66.782	137.004	-57.974	-15.669	-8191	255	
20034.004	1	1	0	0	0.11213	0.38603	0.14711	0.17735	0.19526	0.17844	0.089525	0.036706	0.20635	0.24915	0.14931	0.014922	0.10255	0.2046	0.062149	0.048781	-2.2333	-1.9438	-2.7687	-2.2854	-2.3187	-2.7229	-2.1854	-2.5333	-2.5729	-2.2583	-2.6021	-2.2958	-2.1667	-2.8375	-2.3271	-2.4708	338.528	193.075	181.508	223.104	230.454	199.003	319.300	117.730	56.482	83.311	277.556	256.739	355.983	213.755	403.137	369.777	6.7818e-06	1.2353e-05	1.535e-05	0.02026	6.0938e-08	6.8089e-07	0.017729	0.003174	7.5438e-08	2.2762e-07	0.023113	0.0066554	0.0094418	0.0022015	1.7085e-07	0.0016913	-2.3512e-05	-3.3174e-05	-1.3794e-05	-0.1329	-3.9904e-07	-6.5292e-07	-0.13064	-0.059988	-5.3602e-07	-4.1666e-07	-0.11235	-0.033991	-0.033807	-0.011691	-3.9483e-07	-0.014338	111.561	286.308	358.438	329.249	371.282	407.090	160.950	67.841	117.772	167.083	165.054	279.704	204.418	380.697	274.647	377.138	-8191	255	
20034.102	1	1	0	0	0.23364	0.11223	0.12478	0.21073	0.085825	0.069385	0.27473	0.093539	0.15707	0.2572	0.15937	0.19633	0.069295	0.14585	0.060797	0.14737	-2.5938	-2.075	-2.6875	-2.5646	-2.2833	-2.8812	-2.1979	-2.2458	-2.9	-2.1292	-2.5333	-2.4708	-2.125	-2.7125	-2.0687	-2.4208	-22.210	-61.397	4.632	211.072	181.036	8.168	49.564	-9.728	42.776	-27.872	-11.787	141.444	190.431	-135.872	102.813	-3.268	1.4432e-06	4.2176e-05	9.1496e-06	0.021757	1.6105e-07	2.8507e-07	0.022749	0.0092901	2.2306e-07	3.0618e-07	0.0073109	0.0063867	0.0079648	0.0027747	3.2716e-07	0.0025747	-2.5654e-05	-3.6949e-05	-1.4096e-05	-0.15763	-3.6183e-07	-5.9457e-07	-0.16167	-0.051924	-5.6374e-07	-4.6266e-07	-0.096032	-0.034833	-0.034527	-0.011724	-4.3772e-07	-0.013348	72.815	63.858	39.592	-69.074	168.432	95.610	-79.438	-119.029	-29.701	15.793	145.411	27.530	-40.051	82.355	-10.841	30.250	-8191	255	
20034.221	1	1	0	0	0.24662	0.17222	0.11598	0.22752	0.21753	0.043304	0.15789	0.14925	0.13728	0.032315	0.22043	0.15758	0.1156	0.046226	0.33673	0.038845	-2.2667	-2.1354	-2.4771	-2.6208	-2.175	-2.7917	-2.2042	-2.0833	-2.7938	-2.1146	-2.4646	-2.6896	-2.1875	-2.6271	-2.3542	-2.3604	315.161	152.127	233.066	375.690	488.175	201.678	374.655	250.274	475.260	303.380	391.410	397.666	444.689	253.664	412.681	245.585	9.39e-07	3.9232e-05	1.2536e-05	0.045594	2.0695e-07	1.0923e-07	0.038075	0.0091031	2.9512e-07	3.3112e-07	0.012581	0.0033228	0.011958	0.001583	8.7546e-08	0.0017529	-2.5004e-05	-3.341e-05	-1.2952e-05	-0.18019	-3.0649e-07	-5.6565e-07	-0.1707	-0.050875	-5.2804e-07	-3.8686e-07	-0.10053	-0.033796	-0.030507	-0.011859	-4.2687e-07	-0.011353	151.227	327.505	333.507	300.954	434.611	354.628	303.610	158.641	358.638	374.507	319.337	242.802	315.319	179.263	385.875	433.694	-8191	255	
20034.316	1	1	0	0	0.063569	0.1742	0.2635	0.1074	0.087211	0.12415	0.12936	0.055517	0.15016	0.18077	0.1395	0.30304	0.12682	0.089629	0.3259	0.14475	-2.4188	-2.0938	-2.4771	-2.9146	-2.1562	-2.5542	-2.5187	-1.9833	-2.6417	-2.3604	-2.4	-2.7687	-2.0125	-2.7271	-2.5042	-2.3563	-108.968	-76.338	0.817	-31.912	167.596	4.205	101.859	29.969	-105.484	127.223	139.012	143.554	43.609	-176.327	44.650	-168.324	3.7765e-06	1.7705e-05	9.9764e-07	0.034674	6.3821e-07	4.5667e-07	0.037603	0.0053807	1.3043e-07	1.8289e-07	0.018587	0.0029163	0.010255	0.0013871	3.8423e-07	0.004107	-2.5329e-05	-4.0016e-05	-1.1072e-05	-0.18218	-3.7672e-07	-5.2728e-07	-0.18351	-0.049695	-5.2005e-07	-4.8409e-07	-0.080236	-0.036778	-0.031988	-0.011376	-4.7814e-07	-0.012049	164.881	-31.467	72.189	-54.280	82.360	70.922	132.263	-159.218	48.082	-113.742	-37.421	-26.560	177.423	177.817	90.355	1.630	-8191	255	
20034.412	1	1	0	0	0.14619	0.15082	0.1923	0.14468	0.16429	0.12791	0.072357	0.30506	0.20895	0.02991	0.14092	0.16794	0.27615	0.10597	0.07967	0.14425	-2.4042	-2.0854	-2.3146	-2.6104	-2.0271	-2.6437	-2.7167	-2.0583	-2.7333	-2.4667	-2.2833	-2.6667	-1.9896	-2.4062	-2.7521	-2.1125	256.413	219.036	338.698	117.991	346.035	305.176	170.368	268.830	78.581	39.464	45.286	116.052	153.240	342.932	28.283	252.939	2.3064e-06	2.5052e-05	1.5219e-05	0.044304	2.3015e-07	1.6977e-07	0.02498	0.0035116	1.0854e-07	3.7126e-07	0.0046064	0.0045238	0.0033511	0.0013015	7.6499e-08	0.00095296	-2.6251e-05	-4.3886e-05	-1.1532e-05	-0.19131	-3.1951e-07	-5.1519e-07	-0.18369	-0.048384	-5.0126e-07	-4.9141e-07	-0.083374	-0.033634	-0.034188	-0.011398	-5.3137e-07	-0.011399	115.565	45.749	315.641	202.387	80.501	51.092	348.410	35.022	310.771	56.982	267.276	246.143	193.116	96.514	263.337	327.671	-8191	255	
20034.508	1	1	0	0	0.14298	0.14733	0.075093	0.16301	0.2657	0.053751	0.30143	0.064621	0.20621	0.24599	0.16311	0.19435	0.13984	0.24145	0.1211	0.11363	-2.2521	-2.2729	-2.2083	-2.7583	-2.2	-2.4104	-2.7271	-2.0479	-2.7479	-2.4688	-2.2875	-2.7833	-2.0458	-2.2646	-2.7729	-1.9937	64.584	316.715	256.236	117.709	117.516	330.802	33.062	260.078	-8.993	-13.733	150.413	282.012	240.916	172.122	92.412	63.970	2.5831e-06	2.5848e-05	8.1645e-06	0.025689	2.4177e-07	4.4953e-07	0.015981	0.015363	1.104e-07	2.2372e-07	0.028027	0.0063409	0.0038802	0.00077364	4.5808e-07	0.0021684	-2.4461e-05	-4.2659e-05	-1.0611e-05	-0.18401	-3.7439e-07	-4.6945e-07	-0.2039	-0.045433	-5.177e-07	-4.9403e-07	-0.078248	-0.037814	-0.032707	-0.010273	-5.3827e-07	-0.012111	254.841	199.887	286.366	-6.447	252.674	-10.467	280.866	-0.066	335.678	311.951	16.955	176.927	217.776	309.577	258.689	226.678	-8191	255	
20034.604	1	1	0	0	0.17499	0.25084	0.085154	0.075645	0.16289	0.10091	0.23174	0.13934	0.22813	0.050769	0.11239	0.23202	0.24083	0.10998	0.093383	0.19573	-2.325	-2.5125	-2.125	-2.7687	-2.1083	-2.3229	-2.7604	-2.1708	-2.5604	-2.55	-2.1562	-2.7958	-2.2208	-2.2167	-2.8458	-1.9229	35.492	279.059	22.660	249.737	173.107	260.935	59.594	201.882	206.120	32.345	245.196	268.308	326.146	123.660	291.252	146.868	1.5595e-06	1.9043e-05	8.9807e-06	0.022852	2.6646e-07	4.3183e-07	0.030963	0.020568	4.8947e-07	2.8182e-07	0.010394	0.0024817	0.0072031	0.00051792	1.3548e-07	0.0018703	-2.2942e-05	-4.8133e-05	-1.0033e-05	-0.18202	-3.9579e-07	-4.6577e-07	-0.1909	-0.054743	-4.8858e-07	-5.5885e-07	-0.08327	-0.033667	-0.037573	-0.0092153	-5.8707e-07	-0.012111	268.597	79.393	292.797	342.912	310.601	314.175	289.039	1.436	146.879	69.213	114.195	181.195	212.931	309.443	180.591	184.849	-8191	255	
20034.699	1	1	0	0	0.13179	0.18504	0.21303	0.15143	0.048466	0.11375	0.2295	0.25161	0.034587	0.047779	0.079484	0.065228	0.18701	0.14877	0.060228	0.17215	-2.2	-2.4896	-2.2896	-2.7708	-2.3146	-2.2021	-2.6604	-2.1271	-2.6354	-2.6937	-2.1333	-2.7146	-2.3458	-2.0917	-2.7417	-2.325	178.685	104.774	23.411	-39.556	65.209	70.633	197.600	22.784	-49.257	-68.122	82.557	73.706	-67.324	-69.374	245.587	240.740	6.1894e-07	5.1286e-05	9.3307e-06	0.041783	1.3388e-07	1.9578e-07	0.02898	0.011669	1.0688e-07	1.8771e-07	0.025828	0.0061056	0.0051335	0.0022279	9.7835e-08	0.0027945	-2.0122e-05	-4.6764e-05	-1.0427e-05	-0.185	-4.5113e-07	-3.7903e-07	-0.19866	-0.056447	-4.3314e-07	-5.8761e-07	-0.077202	-0.035838	-0.039689	-0.0095866	-5.5207e-07	-0.013054	189.994	194.585	231.630	177.663	8.344	252.408	122.577	-88.669	190.436	75.844	83.533	-26.372	80.992	88.540	128.052	119.540	-8191	255	
20034.820	1	1	0	0	0.066282	0.17628	0.22081	0.044751	0.05419	0.14838	0.19987	0.02854	0.057262	0.17885	0.20274	0.1098	0.18293	0.22747	0.18724	0.014924	-2.0292	-2.8479	-1.9667	-2.6375	-2.3417	-2.3042	-2.6667	-2.1104	-2.3563	-2.8583	-2.0271	-2.6333	-2.5958	-2.0563	-2.7042	-2.4104	386.371	424.111	414.538	277.342	199.334	436.888	273.304	366.979	166.385	185.188	432.582	165.625	367.498	104.732	282.440	313.569	2.0644e-06	1.5985e-05	5.0666e-06	0.03199	3.7354e-07	5.436e-07	0.022085	0.00314	2.3254e-07	4.1083e-07	0.017196	0.0035289	0.0027531	0.0011333	1.8279e-07	0.00021121	-1.8441e-05	-4.8463e-05	-1.0099e-05	-0.16045	-4.5578e-07	-4.1793e-07	-0.17268	-0.055595	-4.0354e-07	-5.7558e-07	-0.084107	-0.033958	-0.040577	-0.0082026	-5.7376e-07	-0.013425	363.755	150.890	309.722	349.263	335.036	307.011	279.191	101.468	338.612	99.549	391.533	205.808	247.260	85.804	133.697	370.681	-8191	255	
20034.914	1	1	0	0	0.092127	0.070294	0.12503	0.25176	0.069558	0.38426	0.14179	0.19675	0.03198	0.26445	0.10473	0.25232	0.18019	0.15817	0.08744	0.19618	-2.0021	-2.7188	-2.1792	-2.4729	-2.65	-2.0521	-2.875	-2.2021	-2.3083	-2.9	-2.1333	-2.3104	-2.7417	-2.0312	-2.8458	-2.2729	72.720	323.723	80.252	146.100	52.625	163.906	108.431	130.613	160.021	264.408	267.323	47.228	310.291	276.952	289.033	174.951	2.3624e-06	2.5782e-05	1.1298e-05	0.038155	1.2112e-07	2.6114e-07	0.013302	0.010834	1.6604e-07	2.1499e-08	0.014588	0.0071249	0.0022759	0.0012846	4.4228e-07	0.0015	-1.6109e-05	-5.2002e-05	-9.9803e-06	-0.15464	-4.8369e-07	-4.132e-07	-0.20498	-0.052907	-3.4435e-07	-6.0956e-07	-0.08578	-0.030005	-0.040747	-0.0080001	-5.0426e-07	-0.013998	308.789	190.470	176.954	332.403	105.687	287.244	107.763	46.235	145.165	272.196	44.889	199.035	272.321	255.961	201.535	237.372	-8191	255	
20035.012	1	1	0	0	0.20558	0.11085	0.089708	0.21925	0.090594	0.24211	0.21635	0.19325	0.091399	0.20384	0.24994	0.14511	0.24842	0.22482	0.33062	0.15943	-1.825	-2.7521	-2.0917	-2.3875	-2.6042	-2.1312	-2.6958	-2.3417	-2.3042	-2.7271	-2.2208	-2.5375	-2.6688	-2.0792	-2.5583	-2.2958	183.745	197.915	80.640	57.716	74.876	115.295	172.960	229.697	162.593	152.362	81.293	62.957	211.924	185.851	248.990	105.515	3.9786e-06	3.0463e-05	2.7003e-06	0.045426	3.3073e-07	2.5128e-07	0.043347	0.0048261	1.8189e-07	5.59e-07	0.0087512	0.0036443	0.0014121	0.0019049	1.5993e-07	0.0032134	-1.3831e-05	-5.2332e-05	-9.6121e-06	-0.14999	-5.0229e-07	-3.6431e-07	-0.20029	-0.064511	-3.8992e-07	-5.7715e-07	-0.090906	-0.028158	-0.042947	-0.008934	-5.0475e-07	-0.015003	350.070	344.406	121.304	409.049	99.641	333.082	191.523	68.865	284.625	410.865	247.475	409.671	275.564	96.102	59.167	79.395	-8191	255	
20035.107	1	1	0	0	0.090788	0.052099	0.20891	0.085348	0.11721	0.19128	0.077874	0.36524	0.24231	0.10638	0.034106	0.21412	0.36391	0.081227	0.20843	0.062714	-1.7417	-2.5125	-2.2875	-2.2	-2.725	-1.8687	-2.6625	-2.3792	-2.1417	-2.7729	-2.1729	-2.2562	-2.7521	-1.8937	-2.4771	-2.5417	397.410	240.069	101.307	342.512	122.945	235.909	155.899	434.541	358.375	220.203	362.430	430.700	220.588	445.199	370.392	140.568	2.7473e-06	9.8284e-06	1.6606e-06	0.021285	5.3576e-08	1.0258e-07	0.035365	0.013087	3.2681e-07	3.4859e-07	0.021412	0.0075884	0.011562	0.0018911	8.4568e-08	0.0036445	-1.5458e-05	-5.0586e-05	-1.0296e-05	-0.13639	-4.9206e-07	-3.7482e-07	-0.17521	-0.071133	-3.4576e-07	-5.8604e-07	-0.088605	-0.028644	-0.047728	-0.0076963	-4.7616e-07	-0.015421	421.993	283.146	320.285	384.019	228.531	110.961	169.955	115.609	243.047	172.278	134.960	182.286	386.008	313.358	268.126	112.615	-8191	255	
#DATA ENDS
