BOXY.EXE: ISS Imagent and Oximeter Data Acquisition Program Version 0.80
Ascii Record File

#ACQ INFORMATION
2  Detector Channels 
16  External MUX Channels 
1  Auxiliary Channels 
5000  Waveform (CCF) Frequency (Hz)
1  Waveforms Skipped 
30  Waveforms Averaged 
1  Cycles Averaged 
16  Acquisitions per Waveform 
10.0806  Updata Rate (Hz) 

#FILE INFORMATION
TRUE -- External MUX Channel results are PARSED.
FALSE -- AC DC and Phase are NOT grouped.
TRUE -- Companion Program Settings File CREATED.
FALSE -- AC data not excluded
FALSE -- DC data not excluded
FALSE -- Phase data not excluded
FALSE -- Auxillary Chn. data not excluded
Tab delimiters

#CALIBRATION STATE
TRUE -- Waveform Calibration Values APPLIED.


#AUX CALIBRATION VALUES
Val Type	aux-1	

Term	1.0000e+00	
Factor	0.0000e+00	


#WF CALIBRATION VALUES
A = Detector Channel
Val Type	A-AC1	A-AC2	A-AC3	A-AC4	A-AC5	A-AC6	A-AC7	A-AC8	A-AC9	A-AC10	A-AC11	A-AC12	A-AC13	A-AC14	A-AC15	A-AC16	A-DC1	A-DC2	A-DC3	A-DC4	A-DC5	A-DC6	A-DC7	A-DC8	A-DC9	A-DC10	A-DC11	A-DC12	A-DC13	A-DC14	A-DC15	A-DC16	A-Ph1	A-Ph2	A-Ph3	A-Ph4	A-Ph5	A-Ph6	A-Ph7	A-Ph8	A-Ph9	A-Ph10	A-Ph11	A-Ph12	A-Ph13	A-Ph14	A-Ph15	A-Ph16	

Term	0.00000e+00	0.00000e+00	0.00000e+00	0.00000e+00	0.00000e+00	0.00000e+00	0.00000e+00	0.00000e+00	0.00000e+00	0.00000e+00	0.00000e+00	0.00000e+00	0.00000e+00	0.00000e+00	0.00000e+00	0.00000e+00	0.00000e+00	0.00000e+00	0.00000e+00	0.00000e+00	0.00000e+00	0.00000e+00	0.00000e+00	0.00000e+00	0.00000e+00	0.00000e+00	0.00000e+00	0.00000e+00	0.00000e+00	0.00000e+00	0.00000e+00	0.00000e+00	0.00000e+00	0.00000e+00	0.00000e+00	0.00000e+00	0.00000e+00	0.00000e+00	0.00000e+00	0.00000e+00	0.00000e+00	0.00000e+00	0.00000e+00	0.00000e+00	0.00000e+00	0.00000e+00	0.00000e+00	0.00000e+00	
Factor	1.00000e+00	1.00000e+00	1.00000e+00	1.00000e+00	1.00000e+00	1.00000e+00	1.00000e+00	1.00000e+00	1.00000e+00	1.00000e+00	1.00000e+00	1.00000e+00	1.00000e+00	1.00000e+00	1.00000e+00	1.00000e+00	1.00000e+00	1.00000e+00	1.00000e+00	1.00000e+00	1.00000e+00	1.00000e+00	1.00000e+00	1.00000e+00	1.00000e+00	1.00000e+00	1.00000e+00	1.00000e+00	1.00000e+00	1.00000e+00	1.00000e+00	1.00000e+00	X	X	X	X	X	X	X	X	X	X	X	X	X	X	X	X	

B = Detector Channel
Val Type	B-AC1	B-AC2	B-AC3	B-AC4	B-AC5	B-AC6	B-AC7	B-AC8	B-AC9	B-AC10	B-AC11	B-AC12	B-AC13	B-AC14	B-AC15	B-AC16	B-DC1	B-DC2	B-DC3	B-DC4	B-DC5	B-DC6	B-DC7	B-DC8	B-DC9	B-DC10	B-DC11	B-DC12	B-DC13	B-DC14	B-DC15	B-DC16	B-Ph1	B-Ph2	B-Ph3	B-Ph4	B-Ph5	B-Ph6	B-Ph7	B-Ph8	B-Ph9	B-Ph10	B-Ph11	B-Ph12	B-Ph13	B-Ph14	B-Ph15	B-Ph16	

Term	0.00000e+00	0.00000e+00	0.00000e+00	0.00000e+00	0.00000e+00	0.00000e+00	0.00000e+00	0.00000e+00	0.00000e+00	0.00000e+00	0.00000e+00	0.00000e+00	0.00000e+00	0.00000e+00	0.00000e+00	0.00000e+00	0.00000e+00	0.00000e+00	0.00000e+00	0.00000e+00	0.00000e+00	0.00000e+00	0.00000e+00	0.00000e+00	0.00000e+00	0.00000e+00	0.00000e+00	0.00000e+00	0.00000e+00	0.00000e+00	0.00000e+00	0.00000e+00	6.90162e+01	-1.56128e+02	-1.16186e+02	-1.81639e+02	-7.96074e+01	-9.11058e+01	-1.56882e+02	-1.62015e+02	-1.33922e+02	-6.75792e+01	-1.72122e+02	-1.69516e+02	-1.85555e+02	-1.76516e+02	-9.85877e+01	-1.49146e+02	
Factor	6.21861e-05	1.15743e-04	3.18327e-05	1.64936e-01	1.44916e-06	1.20847e-06	1.76422e-01	5.14978e-02	1.99006e-06	1.27802e-06	8.81120e-02	2.83650e-02	2.55766e-02	8.90638e-03	1.90026e-06	1.25959e-02	1.53080e-06	1.58230e-06	4.40569e-07	8.63224e-02	1.72893e-08	1.73607e-08	8.67342e-02	2.69960e-02	1.72581e-08	1.73857e-08	4.42118e-02	1.42717e-02	1.32884e-02	4.65608e-03	1.73092e-08	6.35628e-03	X	X	X	X	X	X	X	X	X	X	X	X	X	X	X	X	



#DISTANCE SETTINGS
A = Detector Channel
A-1	A-2	A-3	A-4	A-5	A-6	A-7	A-8	A-9	A-10	A-11	A-12	A-13	A-14	A-15	A-16	

2.5000e+00	3.0000e+00	2.5000e+00	3.0000e+00	2.0000e+00	3.0000e+00	1.5000e+00	3.0000e+00	3.0000e+00	3.0000e+00	3.0000e+00	3.0000e+00	3.0000e+00	3.0000e+00	1.5000e+00	3.0000e+00	

B = Detector Channel
B-1	B-2	B-3	B-4	B-5	B-6	B-7	B-8	B-9	B-10	B-11	B-12	B-13	B-14	B-15	B-16	

1.0000e+01	1.0000e+01	1.0000e+01	1.4400e+00	1.0000e+01	1.0000e+01	1.5100e+00	1.9400e+00	1.0000e+01	1.0000e+01	1.9900e+00	2.4900e+00	2.4100e+00	2.9000e+00	1.0000e+01	2.9800e+00	




#DATA BEGINS
time	group	step	mark	flag	A-AC1	A-AC2	A-AC3	A-AC4	A-AC5	A-AC6	A-AC7	A-AC8	A-AC9	A-AC10	A-AC11	A-AC12	A-AC13	A-AC14	A-AC15	A-AC16	A-DC1	A-DC2	A-DC3	A-DC4	A-DC5	A-DC6	A-DC7	A-DC8	A-DC9	A-DC10	A-DC11	A-DC12	A-DC13	A-DC14	A-DC15	A-DC16	A-Ph1	A-Ph2	A-Ph3	A-Ph4	A-Ph5	A-Ph6	A-Ph7	A-Ph8	A-Ph9	A-Ph10	A-Ph11	A-Ph12	A-Ph13	A-Ph14	A-Ph15	A-Ph16	B-AC1	B-AC2	B-AC3	B-AC4	B-AC5	B-AC6	B-AC7	B-AC8	B-AC9	B-AC10	B-AC11	B-AC12	B-AC13	B-AC14	B-AC15	B-AC16	B-DC1	B-DC2	B-DC3	B-DC4	B-DC5	B-DC6	B-DC7	B-DC8	B-DC9	B-DC10	B-DC11	B-DC12	B-DC13	B-DC14	B-DC15	B-DC16	B-Ph1	B-Ph2	B-Ph3	B-Ph4	B-Ph5	B-Ph6	B-Ph7	B-Ph8	B-Ph9	B-Ph10	B-Ph11	B-Ph12	B-Ph13	B-Ph14	B-Ph15	B-Ph16	aux-1	digaux	

2021.905	1	1	0	256	0.18114	0.18618	0.013504	0.037276	0.1396	0.2888	0.34405	0.35082	0.13853	0.025946	0.082151	0.06453	0.18142	0.21212	0.10154	0.14183	-0.46875	-0.67708	-0.28125	-1.3229	-0.3625	-0.67292	-1.4021	-0.39375	-0.99792	-0.68125	-0.48125	-1.15	-0.64792	-0.55208	-1.2167	-0.29375	84.924	-110.626	120.973	166.232	93.758	-147.551	143.925	116.392	-42.613	25.316	142.850	7.180	179.792	-104.694	-148.124	47.910	0.0017837	0.00037279	9.0915e-05	1435.3	5.5922e-06	3.9453e-06	1424	396.1	7.341e-06	4.2763e-06	443.48	147.98	129.96	44.195	7.7167e-06	54.011	7.5656e-05	4.5435e-05	1.2788e-05	1430.7	5.6071e-07	5.184e-07	1422.2	394.86	5.5125e-07	4.8934e-07	437.86	146.17	128.75	43.905	5.1744e-07	53.584	38.295	-117.634	-52.489	-160.607	-61.198	-48.709	-161.054	-156.212	-104.600	-19.549	-156.477	-152.541	-151.847	-146.943	-81.730	-148.186	-8191	255	
2022.001	1	1	0	0	0.14308	0.37293	0.030651	0.16646	0.2413	0.28117	0.38398	0.31386	0.17547	0.089051	0.2071	0.21377	0.048625	0.29235	0.084794	0.36575	-0.62083	-0.775	-0.20625	-1.3625	-0.32708	-0.61458	-1.4521	-0.34167	-0.74375	-0.82083	-0.36458	-1.1625	-0.73542	-0.575	-0.99792	-0.58333	-77.666	91.503	-156.169	154.115	153.631	126.859	161.138	117.420	167.701	72.225	70.299	171.536	163.854	70.155	70.498	112.356	0.00166	0.00051651	0.00010492	1439.3	4.4023e-06	3.9601e-06	1422.8	394.91	8.0333e-06	4.269e-06	442.92	148.12	130.36	44.23	6.0716e-06	53.68	7.5676e-05	4.3526e-05	1.3275e-05	1431.3	5.3539e-07	4.9232e-07	1419.3	393.92	5.555e-07	4.96e-07	437.26	145.95	128.77	43.832	5.2205e-07	53.34	36.718	-111.490	-62.633	-160.542	-57.651	-60.818	-161.126	-156.354	-123.600	-49.258	-156.776	-152.528	-151.917	-146.855	-86.464	-148.098	-8191	255	
2022.097	1	1	0	0	0.17792	0.18619	0.14326	0.41655	0.15444	0.097584	0.14689	0.64242	0.25156	0.060406	0.077816	0.2025	0.11091	0.2498	0.036717	0.2231	-0.32083	-0.89792	-0.20417	-1.1708	-0.60417	-0.19792	-1.3167	-0.62708	-0.76667	-1.0562	-0.16875	-1.1958	-0.93333	-0.45833	-1.1667	-0.40417	-161.470	157.980	170.158	-167.783	-25.285	-164.383	89.390	104.891	-14.019	-122.834	39.396	-150.457	114.932	177.459	-94.444	115.484	0.0017159	0.00048547	8.7125e-05	1430.7	5.051e-06	3.4605e-06	1425.8	395.57	9.9259e-06	3.8058e-06	440.69	147.72	130.9	43.926	6.7267e-06	53.861	7.6065e-05	4.4796e-05	1.2838e-05	1428.5	5.4252e-07	5.0415e-07	1421.9	394.43	5.5862e-07	4.9296e-07	437.14	146.18	128.72	43.8	5.2577e-07	53.491	37.974	-114.734	-72.289	-160.772	-75.941	-46.782	-161.343	-156.523	-114.775	-22.886	-156.758	-152.431	-152.125	-147.302	-61.937	-148.169	-8191	255	
2022.218	1	1	0	0	0.25804	0.17743	0.33083	0.12219	0.1457	0.15019	0.40953	0.2058	0.23308	0.26417	0.2187	0.18793	0.2256	0.026472	0.29043	0.18114	-0.25417	-1.0208	-0.16875	-1.1542	-0.88125	-0.089583	-1.225	-0.48333	-0.44167	-1.2146	-0.34792	-1.1792	-0.88333	-0.44375	-1.2646	-0.67292	51.188	-95.474	0.245	-120.837	-40.553	-77.129	142.862	80.752	-132.463	138.290	131.103	145.250	169.354	67.314	69.477	-157.284	0.0017551	0.00051844	9.3246e-05	1432.6	5.7102e-06	3.2311e-06	1422.8	395.65	9.7707e-06	3.3253e-06	441.15	147.76	130.03	44.105	6.9773e-06	53.552	7.5169e-05	4.5577e-05	1.3334e-05	1430	5.4415e-07	5.1102e-07	1420.8	393.82	5.6625e-07	4.8803e-07	437.14	145.97	128.48	43.793	5.254e-07	53.438	38.149	-112.393	-78.118	-160.582	-53.190	-20.850	-161.031	-156.358	-122.837	-23.953	-156.871	-152.976	-152.059	-147.349	-51.050	-148.180	-8191	255	
2022.289	1	1	0	0	0.10336	0.11392	0.15846	0.091059	0.080757	0.19863	0.26251	0.21535	0.1072	0.20435	0.19396	0.16696	0.18222	0.17265	0.30145	0.25132	0.079167	-1.0438	-0.21667	-0.93125	-0.93333	-0.35208	-1.3167	-0.7125	-0.42708	-1.1562	-0.37917	-0.84167	-1.1667	-0.45417	-1.0417	-0.73125	-84.822	-84.932	-74.716	125.737	61.858	-55.022	103.783	178.459	-61.629	31.935	154.154	150.340	146.632	-107.229	138.675	93.427	0.0018212	0.00034971	9.4853e-05	1435.6	3.5183e-06	2.9468e-06	1421.4	395.01	9.2101e-06	4.3692e-06	443.05	147.81	130.19	44.149	5.0888e-06	53.53	7.7484e-05	4.4479e-05	1.2942e-05	1428.8	5.2491e-07	4.8556e-07	1419.7	393.79	5.6243e-07	4.7528e-07	437.21	145.91	128.69	43.753	5.3222e-07	53.321	36.992	-119.271	-66.671	-160.794	-32.681	-52.087	-161.089	-156.269	-116.704	-22.490	-156.739	-152.782	-152.342	-147.250	-63.259	-147.895	-8191	255	
2022.386	1	1	0	0	0.24772	0.18027	0.22169	0.23992	0.11746	0.06433	0.23065	0.34101	0.055634	0.046608	0.20584	0.13792	0.1306	0.2936	0.24034	0.33476	0.1125	-1.0854	-0.39792	-0.88542	-1.1021	-0.14583	-1.3062	-0.925	-0.30417	-1.0625	-0.59792	-0.67292	-1.1125	-0.15208	-0.99583	-0.78333	-41.440	-34.163	-31.685	178.359	174.777	-153.927	79.521	147.923	-71.862	-149.164	130.884	158.949	-153.720	156.023	-117.733	-146.908	0.0017596	0.00044916	0.00010612	1432.2	6.2105e-06	4.9469e-06	1423.5	395.02	8.6936e-06	3.6919e-06	441.49	147.55	130.67	44.178	8.5554e-06	53.646	7.6722e-05	4.5356e-05	1.2919e-05	1428.6	5.3013e-07	4.9474e-07	1419.7	393.73	5.523e-07	4.7825e-07	436.83	145.9	128.54	43.82	5.3089e-07	53.382	40.075	-114.591	-64.014	-160.977	-51.604	-46.437	-161.072	-156.621	-105.021	-14.075	-157.211	-152.732	-152.136	-147.530	-56.586	-147.954	-8191	255	
2022.480	1	1	0	0	0.31432	0.028297	0.10342	0.041521	0.11468	0.31061	0.30478	0.35213	0.15924	0.19153	0.11345	0.043218	0.12964	0.2703	0.18984	0.16729	0.029167	-1.1271	-0.42917	-0.825	-1.2042	-0.12292	-1.0688	-0.97917	-0.20625	-1.1437	-0.78333	-0.48542	-1.1938	-0.29167	-0.71875	-1.0729	137.415	180.239	-57.371	-84.525	110.580	-113.329	108.719	164.340	173.374	179.072	42.137	122.101	-86.520	135.911	34.614	-143.457	0.0018527	0.00059862	0.00013455	1438.2	5.9809e-06	5.1899e-06	1419.2	394.45	7.8946e-06	4.9892e-06	441.47	147.08	130.65	44.035	4.7106e-06	53.634	7.7044e-05	4.5023e-05	1.2983e-05	1428.8	5.4832e-07	4.9702e-07	1419.7	393.6	5.4608e-07	4.9767e-07	436.55	145.64	128.6	43.694	5.1682e-07	53.319	40.126	-109.459	-72.332	-160.710	-57.573	-78.556	-161.087	-156.356	-131.043	-24.141	-156.986	-152.578	-152.162	-147.228	-70.133	-148.386	-8191	255	
2022.601	1	1	0	0	0.21583	0.080425	0.20881	0.22044	0.27376	0.025619	0.41665	0.28592	0.13819	0.32573	0.20917	0.055091	0.040791	0.28662	0.29284	0.069487	0.19375	-0.89167	-0.49583	-0.44167	-1.1333	-0.28333	-1.0375	-1.25	-0.14375	-0.98125	-0.73958	-0.425	-1.1667	-0.21458	-0.58958	-1.1354	-33.542	65.327	183.824	169.570	-59.929	97.721	180.983	142.330	-4.214	106.230	79.938	-62.349	156.273	89.129	-14.746	109.619	0.0017478	0.00048559	8.7944e-05	1436.3	4.8279e-06	3.389e-06	1422.8	395.09	1.0287e-05	3.3051e-06	443.12	147.53	130.56	43.919	6.9279e-06	53.749	7.6052e-05	4.468e-05	1.3007e-05	1428.1	5.4728e-07	4.9735e-07	1418.9	394.05	5.6801e-07	4.7166e-07	436.97	145.92	128.53	43.725	5.125e-07	53.425	40.427	-117.596	-71.016	-160.944	-43.930	-39.232	-160.849	-156.370	-121.212	-22.663	-156.921	-152.566	-151.940	-146.971	-60.592	-147.992	-8191	255	
2022.697	1	1	0	0	0.44092	0.11223	0.096538	0.21121	0.063884	0.21871	0.36602	0.21021	0.15615	0.18108	0.17587	0.18341	0.16714	0.14877	0.41421	0.18754	0.23333	-0.80833	-0.69583	-0.7125	-1.1875	-0.48542	-0.76042	-1.3188	-0.15625	-0.98542	-0.97083	-0.36667	-1.1292	-0.49583	-0.54167	-1.1187	-109.592	71.901	42.358	-146.637	-87.095	-99.796	148.445	119.202	84.615	-105.536	157.217	171.930	44.796	70.395	-9.887	135.672	0.0017901	0.00034238	0.00010674	1429.9	4.9124e-06	2.5807e-06	1421.8	393.88	8.1318e-06	3.4467e-06	442.03	147.53	130.61	43.88	8.2806e-06	53.873	7.5465e-05	4.3718e-05	1.2431e-05	1427.8	5.2549e-07	4.9066e-07	1419.9	393.75	5.6204e-07	4.6992e-07	437.09	146.05	128.67	43.795	5.2613e-07	53.483	37.368	-103.167	-55.706	-160.776	-42.172	-46.414	-160.848	-156.267	-120.820	-15.598	-156.935	-152.689	-151.757	-147.168	-75.768	-148.215	-8191	255	
2022.793	1	1	0	0	0.1542	0.13636	0.15902	0.12961	0.13619	0.16225	0.1444	0.31886	0.17112	0.17932	0.44152	0.21362	0.13359	0.26293	0.24429	0.045335	0.26042	-0.775	-0.91875	-0.325	-1.1792	-0.5125	-0.56458	-1.45	-0.37708	-0.84792	-0.8875	-0.2	-1.2062	-0.63542	-0.25	-1.3167	-71.961	38.885	-21.831	-145.708	-75.893	-44.248	-42.780	-159.019	29.399	9.643	147.137	128.922	99.075	75.023	122.622	171.855	0.0017509	0.00042884	9.4103e-05	1436.4	3.9545e-06	4.2897e-06	1422.4	397.17	9.0703e-06	4.701e-06	441.89	147.46	130.97	44.217	6.1356e-06	53.793	7.7057e-05	4.5827e-05	1.2796e-05	1428.3	5.2614e-07	4.7528e-07	1420.1	394.7	5.5701e-07	4.7626e-07	437.6	146.04	128.89	43.856	5.3727e-07	53.505	39.159	-116.694	-72.498	-160.697	-40.008	-31.320	-160.939	-156.221	-131.147	-17.117	-156.947	-152.572	-152.152	-147.226	-79.881	-148.113	-8191	255	
2022.889	1	1	0	0	0.21791	0.098374	0.10621	0.14221	0.15288	0.18995	0.12566	0.16217	0.17758	0.091513	0.37656	0.23825	0.12311	0.055258	0.40182	0.39329	0.10833	-0.68125	-0.85208	-0.35417	-1.1479	-0.51667	-0.54583	-1.4646	-0.36667	-0.56042	-1.0854	-0.35	-1.0042	-0.79167	-0.3875	-1.1958	-89.398	-70.481	112.194	138.698	79.213	166.065	-164.771	90.720	24.922	34.113	79.406	-142.506	145.965	123.575	-114.852	87.442	0.0016916	0.00042673	0.00010201	1433	4.6839e-06	3.2636e-06	1421.6	394.9	1.0064e-05	3.8617e-06	441.4	147.33	131.22	43.997	6.1081e-06	54.057	7.5934e-05	4.5587e-05	1.2993e-05	1428.3	5.4173e-07	5.0114e-07	1419	393.63	5.4485e-07	4.83e-07	436.79	145.63	128.84	43.751	5.4174e-07	53.502	35.296	-101.499	-68.714	-160.700	-48.869	-37.915	-160.870	-156.360	-107.207	-32.081	-156.876	-152.767	-152.011	-147.256	-71.509	-148.100	-8191	255	
2022.985	1	1	0	0	0.15692	0.13345	0.15201	0.076058	0.15396	0.17689	0.059842	0.10588	0.081461	0.18874	0.043979	0.16294	0.11509	0.34542	0.10277	0.29285	-0.17083	-0.375	-1.0938	-0.39167	-0.96042	-0.8125	-0.57917	-1.2833	-0.37292	-0.47708	-1.1167	-0.3875	-0.92292	-1.0521	-0.15417	-1.0146	-164.038	-107.251	-86.165	156.300	-61.833	174.298	-15.438	-1.448	66.418	56.585	68.482	44.944	162.978	147.942	-117.668	147.207	0.0017927	0.0004525	0.00010042	1438.3	5.9447e-06	5.4216e-06	1419.7	395.51	9.339e-06	4.4163e-06	442.69	147.24	130.32	44.047	5.9324e-06	53.735	7.5392e-05	4.7047e-05	1.2522e-05	1428.8	5.4897e-07	5.0653e-07	1417	394.35	5.6844e-07	5.0643e-07	436.66	145.7	128.58	43.702	5.421e-07	53.358	38.681	-102.400	-76.133	-160.782	-58.633	-63.573	-160.845	-156.131	-112.152	-21.429	-156.528	-152.781	-151.927	-147.161	-49.150	-148.304	-8191	255	
2023.081	1	1	0	0	0.17819	0.045259	0.16695	0.40244	0.088928	0.14087	0.39992	0.1689	0.22787	0.21884	0.18113	0.19492	0.25594	0.36056	0.17673	0.25837	-0.20208	-0.56042	-1.175	-0.51458	-0.48542	-0.89792	-0.1875	-1.1437	-0.41458	-0.30833	-1.2563	-0.31667	-0.75	-1.1854	0.095833	-0.86875	26.982	-45.993	1.742	144.432	-162.932	-145.528	139.957	-20.668	27.920	-129.756	-9.182	-133.933	114.056	172.225	38.499	65.620	0.0017345	0.00035659	0.0001033	1429.7	5.1808e-06	3.7693e-06	1424.4	396.35	8.2021e-06	2.5251e-06	442.11	146.56	130.45	44.126	4.2681e-06	53.907	7.6674e-05	4.6994e-05	1.272e-05	1425.8	5.542e-07	5.0086e-07	1418.7	393.84	5.5891e-07	5.1139e-07	437.06	145.3	128.51	43.686	5.3384e-07	53.338	38.561	-113.986	-84.504	-160.962	-40.154	-67.709	-161.236	-156.462	-118.862	-34.569	-156.768	-152.705	-151.807	-147.416	-86.224	-148.172	-8191	255	
2023.178	1	1	0	0	0.18569	0.011318	0.19335	0.11729	0.26776	0.13379	0.26773	0.16688	0.065321	0.21082	0.1439	0.12146	0.1266	0.2426	0.14791	0.21594	-0.23333	-0.21667	-1.2229	-0.60833	-0.89375	-0.975	-0.25	-1.1167	-0.75833	-0.325	-1.2125	-0.6375	-0.73333	-1.2812	-0.30417	-1.0375	128.986	-52.774	-80.275	-157.344	27.119	-90.590	-147.226	-172.522	37.185	-96.702	116.048	-160.956	-168.696	-92.410	110.678	182.262	0.0018744	0.00048478	0.00010589	1434.9	4.7804e-06	3.8832e-06	1419.7	395.53	6.7458e-06	4.2909e-06	441.31	147.31	129.9	44.025	7.0021e-06	53.672	7.838e-05	4.7202e-05	1.2994e-05	1427.5	5.4692e-07	4.9066e-07	1416.2	393.99	5.7078e-07	5.0708e-07	435.96	145.57	128.19	43.631	5.3172e-07	53.25	39.820	-121.118	-70.526	-160.670	-59.045	-35.761	-161.036	-156.239	-99.800	-33.687	-156.578	-152.542	-152.158	-147.293	-64.697	-148.116	-8191	255	
2023.298	1	1	0	0	0.18587	0.3063	0.123	0.29567	0.257	0.24989	0.3349	0.12137	0.057847	0.21955	0.17271	0.11589	0.42584	0.24231	0.12363	0.27102	-0.36667	-0.29167	-1.0625	-0.61458	-0.37083	-1.3417	-0.4875	-0.97292	-0.94375	-0.12708	-1.1792	-0.64583	-0.31042	-1.3167	-0.3125	-0.90208	120.142	-74.657	-82.701	151.700	132.683	-20.430	80.525	61.498	179.972	-154.604	174.791	168.816	165.188	113.403	-125.223	133.948	0.0017358	0.00045302	0.00012229	1431.9	4.356e-06	4.3757e-06	1421.4	394.41	7.5674e-06	5.0913e-06	445.13	147.23	130.66	44.223	6.9956e-06	53.891	7.4419e-05	4.6965e-05	1.2645e-05	1426.5	5.4191e-07	4.9619e-07	1419.2	393.13	5.3975e-07	5.1599e-07	436.79	145.78	128.54	43.738	5.2559e-07	53.41	36.587	-125.725	-60.642	-160.659	-64.289	-65.819	-160.636	-156.097	-117.783	-19.419	-156.772	-152.563	-152.056	-147.221	-80.059	-148.082	-8191	255	
2023.393	1	1	0	0	0.059585	0.16564	0.30478	0.11561	0.21856	0.33556	0.14642	0.19486	0.28896	0.21678	0.13704	0.28248	0.22967	0.10782	0.34877	0.29283	-0.425	-0.058333	-1.2062	-0.90417	-0.47708	-1.3396	-0.575	-0.77917	-0.97292	-0.27708	-1.2292	-0.84167	-0.33958	-1.3854	-0.38542	-0.8	157.851	-79.241	157.066	-117.519	-127.293	107.921	140.080	80.399	24.252	168.027	1.720	150.035	138.808	88.215	-43.167	61.159	0.0016619	0.00046238	0.00010652	1427.9	5.8587e-06	4.331e-06	1417.4	396.79	6.8165e-06	2.5118e-06	441.26	146.65	130.57	43.921	7.1499e-06	53.824	7.5739e-05	4.5992e-05	1.3006e-05	1424.4	5.4267e-07	4.9113e-07	1417.8	393.76	5.6028e-07	4.9951e-07	436.62	145.5	128.53	43.748	5.2753e-07	53.401	40.643	-97.359	-64.838	-160.872	-47.768	-32.314	-161.118	-156.294	-110.623	-2.063	-156.583	-152.696	-151.935	-147.097	-94.392	-148.226	-8191	255	
2023.489	1	1	0	0	0.21183	0.24359	0.12159	0.24981	0.1891	0.22755	0.11614	0.30764	0.33559	0.25068	0.24326	0.27163	0.096695	0.25076	0.012477	0.20339	-0.60625	-0.15625	-1.0229	-1.0354	-0.31458	-1.1729	-0.81667	-0.64167	-1.1063	-0.29167	-1.0625	-1.0833	-0.28958	-1.1604	-0.50833	-0.65417	-155.348	128.177	-130.772	93.593	-22.684	35.002	154.308	102.896	-18.848	73.068	154.847	138.803	120.906	-155.514	139.877	-77.113	0.0017193	0.00045366	0.00010888	1429.8	4.9126e-06	5.0565e-06	1421.6	396.65	7.6047e-06	4.4692e-06	441.25	147.47	130.66	44.078	8.5528e-06	53.717	7.3902e-05	4.5369e-05	1.2628e-05	1424.3	5.3309e-07	4.6646e-07	1416.9	394.25	5.3378e-07	4.9394e-07	436.82	145.82	128.55	43.737	5.2086e-07	53.388	37.746	-134.074	-95.212	-160.766	-33.276	-41.585	-161.164	-156.253	-112.732	-19.053	-156.569	-152.581	-152.092	-147.107	-77.637	-148.493	-8191	255	
2023.585	1	1	0	0	0.11448	0.26621	0.049684	0.17325	0.13082	0.065307	0.24402	0.12809	0.24849	0.30772	0.092563	0.26321	0.074118	0.14714	0.089191	0.1111	-0.61875	-0.15625	-1.0083	-0.975	-0.20833	-1.1	-0.60417	-0.62708	-1.0688	-0.24583	-0.875	-1.0104	-0.15625	-1.0667	-0.61458	-0.525	-81.345	111.813	-162.234	-149.895	-151.787	-20.706	118.149	113.696	53.167	135.787	-101.376	167.673	80.992	-146.472	-72.769	89.380	0.0017184	0.0005049	9.9775e-05	1430.9	5.036e-06	3.4956e-06	1423.9	394.9	8.6137e-06	4.0446e-06	442.28	147.14	130.59	43.985	4.2727e-06	53.891	7.3756e-05	4.645e-05	1.2625e-05	1426.8	5.337e-07	4.7688e-07	1418.8	393.61	5.4794e-07	4.7876e-07	436.5	145.45	128.29	43.718	5.2266e-07	53.417	36.779	-110.372	-60.387	-160.738	-43.022	-41.189	-161.197	-156.222	-138.757	-26.772	-156.761	-152.729	-152.057	-147.044	-75.786	-148.106	-8191	255	
2023.681	1	1	0	0	0.13842	0.17705	0.10398	0.27447	0.26884	0.33788	0.23109	0.042408	0.057999	0.21453	0.087765	0.095182	0.11258	0.33324	0.18425	0.17326	-0.6625	-0.225	-0.70417	-1.1458	0.014583	-0.975	-0.91042	-0.20833	-1.0458	-0.37917	-0.73958	-1.2396	-0.26042	-1.1771	-0.76667	-0.35417	90.692	44.697	30.317	107.298	-145.504	-141.955	90.383	161.345	-36.562	-77.106	60.643	-144.592	-62.178	-168.020	-154.063	38.632	0.0017751	0.00044776	8.8674e-05	1435.8	6.3454e-06	4.3612e-06	1416.3	394.16	6.5337e-06	4.8146e-06	444.15	146.52	130.21	43.877	7.1582e-06	53.691	7.6428e-05	4.7535e-05	1.2626e-05	1428.8	5.7357e-07	4.7955e-07	1416.4	393.5	5.4723e-07	5.1516e-07	437.27	145.5	128.3	43.635	5.4856e-07	53.338	38.992	-106.239	-80.012	-160.677	-51.423	-57.925	-161.134	-156.001	-121.531	-8.895	-156.509	-152.077	-151.666	-146.855	-64.744	-148.084	-8191	255	
2023.777	1	1	0	0	0.23881	0.19983	0.10003	0.18193	0.25446	0.19925	0.12065	0.15103	0.088718	0.17968	0.17182	0.20364	0.13309	0.16053	0.20224	0.21673	-0.80833	-0.36458	-0.44792	-1.3833	-0.058333	-1.0125	-0.91458	-0.40625	-1.2812	-0.51458	-0.58125	-1.1542	-0.26042	-1.0938	-0.91042	-0.34583	-142.783	-128.949	70.786	-84.708	163.949	55.263	150.673	146.845	49.812	41.037	107.135	114.735	121.956	-162.688	27.971	-83.051	0.001786	0.00044869	0.00016175	1437	5.4838e-06	5.0484e-06	1428.8	394.97	8.561e-06	5.3795e-06	442.89	147.33	130.85	44.137	6.5235e-06	53.985	7.8795e-05	4.7591e-05	1.37e-05	1428.6	5.8348e-07	5.2125e-07	1420.6	393.61	5.588e-07	5.282e-07	437.47	145.73	128.48	43.765	5.6125e-07	53.468	39.577	-96.939	-54.125	-160.700	-49.334	-49.320	-160.977	-156.000	-123.084	-27.051	-156.702	-152.307	-151.962	-146.882	-65.862	-147.868	-8191	255	
2023.898	1	1	0	0	0.044558	0.098426	0.11393	0.27711	0.090044	0.1944	0.40668	0.35035	0.12066	0.13342	0.10454	0.39759	0.38975	0.22258	0.17962	0.17572	-0.83542	-0.62083	-0.22917	-1.3583	-0.2625	-0.71875	-1.0438	-0.32083	-1.0854	-0.51667	-0.48958	-1.3625	-0.39167	-0.7875	-1.1688	-0.097917	-80.455	47.106	6.682	160.040	-63.020	109.116	115.566	141.711	24.833	-2.522	-168.579	85.330	151.797	11.680	20.597	129.244	0.0017107	0.00039786	0.00012675	1436.6	4.2856e-06	3.1679e-06	1428.8	395.7	8.3237e-06	3.4044e-06	442.24	147.56	130.42	44.11	7.0626e-06	53.818	7.7554e-05	4.8132e-05	1.3716e-05	1430.7	5.6651e-07	5.1373e-07	1423.7	394.21	5.7912e-07	5.2501e-07	436.95	145.95	128.47	43.836	5.3886e-07	53.424	38.195	-121.420	-58.179	-160.312	-56.083	-60.160	-160.862	-156.122	-122.468	-35.595	-156.638	-152.701	-151.917	-147.221	-62.736	-148.400	-8191	255	
2023.994	1	1	0	0	0.14343	0.15426	0.20195	0.30139	0.10438	0.097588	0.38559	0.45749	0.17001	0.16128	0.095437	0.035749	0.23843	0.24977	0.15713	0.22474	-0.80417	-0.61042	-0.17083	-1.3563	-0.34375	-0.71667	-1.3271	-0.4625	-1.0063	-0.75208	-0.37292	-1.0333	-0.52292	-0.58542	-0.90833	-0.47292	-116.965	167.975	-61.164	143.479	4.999	38.048	118.880	88.703	-137.864	-160.170	164.565	-22.488	127.297	82.971	-143.193	-165.477	0.0017579	0.00035042	0.00011242	1435.5	3.47e-06	3.4844e-06	1428.3	397.97	9.9521e-06	3.4963e-06	445.62	147.85	130.46	44.106	6.5129e-06	53.876	7.8383e-05	4.9259e-05	1.3805e-05	1432.6	5.6313e-07	5.1652e-07	1423.1	394.72	5.6035e-07	5.0176e-07	438.85	146.03	128.57	43.847	5.4188e-07	53.55	39.601	-101.965	-68.596	-160.617	-43.457	-46.187	-161.016	-156.089	-120.554	-10.327	-156.589	-152.520	-152.058	-147.105	-69.277	-148.066	-8191	255	
2024.090	1	1	0	0	0.12202	0.073925	0.27526	0.090124	0.21301	0.32692	0.40568	0.2723	0.18402	0.24482	0.28068	0.1948	0.45074	0.18886	0.28528	0.23341	-0.43333	-0.89167	-0.15625	-1.2417	-0.37083	-0.55417	-1.525	-0.44167	-0.78333	-1.0375	-0.25417	-1.2375	-0.61667	-0.23542	-1.1917	-0.56875	-34.127	13.808	-71.728	60.729	-113.680	177.085	129.524	111.036	-79.089	115.895	-172.118	40.373	-153.829	-97.783	18.339	133.135	0.0018925	0.00040706	9.1952e-05	1433.2	7.3509e-06	3.3874e-06	1428.7	396.38	7.4493e-06	3.6272e-06	443.25	147.53	130.59	44.344	8.8381e-06	53.969	7.7041e-05	4.7894e-05	1.3224e-05	1431.1	5.7357e-07	4.9145e-07	1423.5	394.73	5.6589e-07	4.9165e-07	438.55	146.1	128.89	44.003	5.3218e-07	53.57	38.454	-116.084	-80.887	-160.659	-59.903	-50.150	-160.976	-156.135	-110.659	-21.635	-156.830	-152.608	-151.933	-146.958	-59.845	-148.015	-8191	255	
2024.162	1	1	0	0	0.08386	0.24393	0.15521	0.11094	0.08332	0.056328	0.37721	0.30357	0.087604	0.14008	0.11479	0.30687	0.14736	0.043382	0.080945	0.19665	-0.3875	-1.0479	-0.039583	-1.1938	-0.53542	-0.3	-1.4729	-0.70208	-0.64375	-0.89375	-0.3625	-1.1875	-0.86042	-0.31667	-1.1688	-0.425	83.227	-18.664	-57.735	-123.237	-84.402	-162.003	121.210	135.752	-99.380	65.995	108.854	160.564	130.783	13.009	145.406	-11.557	0.0017319	0.00050174	0.00012751	1441.1	5.3332e-06	3.9308e-06	1428.3	397.87	8.1593e-06	4.5287e-06	444.11	147.54	130.94	44.08	5.3666e-06	53.671	7.6999e-05	4.6741e-05	1.2965e-05	1431.4	5.4818e-07	5.1507e-07	1422.5	394.61	5.5118e-07	4.7315e-07	438.56	146.03	129.03	43.891	5.0885e-07	53.48	39.212	-106.183	-75.952	-160.446	-64.443	-43.225	-161.157	-156.121	-133.689	-40.958	-156.733	-152.551	-151.971	-147.100	-47.658	-148.197	-8191	255	
2024.282	1	1	0	0	0.2594	0.094943	0.3051	0.21716	0.15504	0.16327	0.18659	0.27315	0.089552	0.11215	0.30773	0.22217	0.091133	0.070172	0.10048	0.15447	-0.33542	-1.0438	-0.05625	-1.25	-0.75417	-0.089583	-1.2437	-0.62708	-0.43542	-1.0354	-0.27083	-1.0292	-1.0521	-0.25	-1.1667	-0.47917	-4.471	-101.469	-71.514	100.093	-5.201	-31.930	153.964	137.963	78.405	52.642	147.538	-142.589	-128.515	137.750	94.859	98.144	0.001757	0.00041315	0.00011028	1432.1	5.1783e-06	2.6057e-06	1432.2	394.75	7.3485e-06	2.5763e-06	444.2	147.97	130.58	44.299	6.5811e-06	54.071	7.6269e-05	4.6332e-05	1.3261e-05	1429.1	5.5077e-07	5.1442e-07	1423.9	393.88	5.6323e-07	4.9459e-07	438.13	146.09	128.8	43.893	5.1726e-07	53.656	39.661	-121.376	-78.109	-160.677	-47.237	-27.672	-161.005	-156.287	-109.669	-39.325	-156.972	-152.606	-152.196	-147.078	-84.254	-148.405	-8191	255	
2024.377	1	1	0	0	0.10717	0.27435	0.06616	0.17957	0.17185	0.34126	0.21579	0.35536	0.11694	0.064879	0.12316	0.18928	0.29485	0.070383	0.18384	0.11192	-0.11458	-0.95625	-0.21042	-0.99792	-1.1833	-0.10833	-1.225	-0.63958	-0.21042	-1.0458	-0.38125	-0.57917	-1.0208	-0.29167	-0.90833	-0.82708	41.302	173.331	-103.592	-161.217	-81.970	-117.488	123.941	170.431	-138.524	-33.243	-139.884	119.178	144.829	80.893	-70.351	-41.065	0.0018057	0.00034825	9.0813e-05	1437.7	4.8506e-06	3.8474e-06	1429.9	395.45	8.5473e-06	3.8164e-06	442.78	147.54	130.77	44.175	6.4495e-06	53.678	7.8058e-05	4.764e-05	1.3328e-05	1432.4	5.5985e-07	5.2534e-07	1425.2	393.95	5.93e-07	4.9386e-07	437.39	146.05	128.76	43.796	5.4484e-07	53.371	39.360	-121.978	-88.928	-160.606	-64.910	-45.118	-160.893	-156.320	-131.592	-28.666	-156.526	-152.363	-151.935	-147.179	-66.597	-147.947	-8191	255	
2024.473	1	1	0	0	0.10672	0.29223	0.19375	0.080062	0.25046	0.052669	0.34717	0.14353	0.033367	0.23556	0.10143	0.21873	0.16868	0.23195	0.22307	0.090234	0.2125	-1.0354	-0.33542	-0.79792	-1.2167	-0.18333	-1.1667	-0.80208	-0.41042	-1.0979	-0.51042	-0.48333	-1.0583	-0.51458	-0.86667	-0.92708	8.018	-160.092	-66.997	-25.634	154.505	-99.572	158.873	175.192	86.153	9.773	7.455	134.664	179.486	-154.831	7.715	180.700	0.0017569	0.00044985	0.00010519	1439.1	5.6129e-06	3.4777e-06	1430.4	397.04	9.4657e-06	4.8408e-06	443.21	147.66	130.31	44.237	6.2105e-06	54.025	7.8957e-05	4.8629e-05	1.3246e-05	1432.8	5.5974e-07	5.1568e-07	1425	394.58	5.7797e-07	5.123e-07	438.73	146	128.84	43.909	5.3586e-07	53.632	37.806	-121.888	-86.019	-160.611	-50.840	-57.447	-161.081	-156.716	-110.223	-43.939	-156.864	-152.602	-152.220	-147.316	-72.288	-148.303	-8191	255	
2024.569	1	1	0	0	0.20728	0.24321	0.1973	0.18962	0.21203	0.25959	0.13776	0.2438	0.12861	0.013082	0.15894	0.38578	0.15276	0.36058	0.12113	0.19212	0.36875	-1.0708	-0.5625	-0.54375	-1.0646	-0.25208	-1.1708	-1.1063	-0.17083	-1.0646	-0.7625	-0.59583	-1.1437	-0.175	-0.70208	-0.95625	-84.967	15.813	129.969	151.340	-43.233	-19.682	105.026	129.642	15.983	-98.489	-137.644	156.760	-33.995	-165.137	-90.115	161.622	0.0017608	0.00038577	0.00010882	1436.5	4.4531e-06	3.9122e-06	1425.5	394.58	8.6009e-06	2.1757e-06	445.08	147.48	130.86	44.322	4.7226e-06	53.968	7.6218e-05	4.5478e-05	1.3089e-05	1430.6	5.3788e-07	4.9236e-07	1421.8	393.91	5.5985e-07	4.7854e-07	438.56	145.97	128.81	43.861	5.2335e-07	53.594	39.332	-146.580	-61.494	-160.782	-56.251	-59.620	-160.971	-156.068	-119.106	-32.573	-156.742	-152.555	-151.919	-147.190	-65.487	-148.023	-8191	255	
2024.667	1	1	0	0	0.14541	0.23883	0.21645	0.14676	0.33001	0.15508	0.26614	0.26059	0.14016	0.12108	0.27941	0.066874	0.30848	0.52154	0.25288	0.067602	0.10208	-1.0604	-0.42917	-0.65417	-1.15	-0.44792	-0.87292	-1.0458	-0.016667	-1.0646	-0.55208	-0.45	-1.3917	-0.61875	-0.7375	-1.1833	-115.900	43.104	65.536	169.907	168.597	-37.707	167.363	108.583	93.759	-80.544	163.830	136.302	-133.383	118.557	-147.066	176.525	0.0017256	0.00037973	0.00011316	1430.5	5.1951e-06	3.4896e-06	1425.4	394.58	8.0924e-06	3.9058e-06	442.9	147.59	130.38	43.971	8.5769e-06	54.12	7.7949e-05	4.5429e-05	1.2536e-05	1429.4	5.3874e-07	4.9633e-07	1420.9	394.2	5.5546e-07	5.0027e-07	437.84	146.08	128.85	43.821	5.3327e-07	53.575	39.035	-110.373	-78.663	-160.760	-47.899	-52.278	-161.032	-156.274	-96.466	-26.040	-156.747	-152.603	-151.940	-147.088	-64.386	-148.294	-8191	255	
2024.786	1	1	0	0	0.27621	0.34035	0.18328	0.21275	0.22767	0.11782	0.183	0.13182	0.10169	0.10883	0.25233	0.19869	0.11278	0.33504	0.16228	0.15181	0.15625	-0.8625	-0.67917	-0.525	-0.96667	-0.42917	-0.70625	-1.2125	-0.3625	-0.86042	-1.0292	-0.28542	-1.1354	-0.75417	-0.61667	-1.3563	-146.959	102.517	-43.967	106.876	16.297	-119.500	-157.543	62.481	-100.187	13.027	140.927	125.741	-156.203	-172.123	126.268	133.036	0.0018015	0.00044043	0.00011854	1437.6	6.6624e-06	4.15e-06	1425.9	396.11	9.4297e-06	3.9088e-06	443.63	147.74	130.88	43.97	6.549e-06	53.663	7.7436e-05	4.5814e-05	1.2745e-05	1431.5	5.2967e-07	5.0161e-07	1423	394	5.5585e-07	4.8883e-07	438.44	145.96	128.91	43.831	5.4059e-07	53.519	39.254	-109.242	-67.300	-160.567	-51.872	-27.200	-160.957	-156.168	-127.337	-25.779	-156.682	-152.503	-151.946	-147.298	-59.797	-148.450	-8191	255	
2024.858	1	1	0	0	0.23639	0.096216	0.1605	0.19822	0.23533	0.24368	0.090825	0.28696	0.17458	0.16396	0.15976	0.1696	0.12345	0.16243	0.12438	0.2035	0.175	-0.69792	-0.90625	-0.54375	-1.1521	-0.525	-0.6125	-1.5229	-0.37292	-0.89792	-1.2667	-0.3125	-1.1938	-0.54167	-0.22917	-1.2125	178.048	133.650	-87.395	127.350	-40.601	23.517	81.841	180.039	-81.358	0.907	-138.968	13.419	26.221	-130.805	-130.129	106.324	0.0017076	0.00038522	0.00010007	1435.6	6.1257e-06	5.2325e-06	1423.9	395.51	6.9857e-06	4.5468e-06	443.41	147.27	130.84	44.205	4.6892e-06	53.748	7.7034e-05	4.5379e-05	1.2421e-05	1429.4	5.2023e-07	4.9167e-07	1422.8	394.03	5.6466e-07	5.0078e-07	438.52	145.89	128.79	43.855	5.2544e-07	53.43	33.069	-111.152	-70.260	-160.879	-51.019	-57.938	-161.040	-156.414	-101.607	-9.344	-156.754	-152.572	-152.003	-147.298	-81.691	-148.054	-8191	255	
2024.978	1	1	0	0	0.14908	0.045368	0.11498	0.23748	0.36161	0.31988	0.098207	0.44406	0.14351	0.24937	0.11846	0.28351	0.19545	0.3073	0.11011	0.15645	0.0375	-0.81042	-1.1875	-0.18333	-0.92708	-0.75208	-0.57083	-1.3375	-0.35417	-0.65208	-1.3208	-0.275	-1.1958	-0.84167	-0.33333	-1.0729	-62.751	48.670	-65.927	169.235	-105.789	134.465	137.947	114.818	34.415	22.228	51.403	89.698	-160.037	83.981	-48.032	-153.272	0.001831	0.00049491	0.00011884	1440.7	4.3159e-06	5.4294e-06	1431.8	394.48	9.7013e-06	4.7921e-06	443.15	147.54	130.84	44.185	5.5303e-06	53.979	7.6425e-05	4.7139e-05	1.2783e-05	1431.3	5.4587e-07	5.0411e-07	1425.6	393.43	5.6639e-07	5.0763e-07	437.7	146.01	128.81	43.866	5.5032e-07	53.522	36.099	-105.446	-73.502	-160.752	-47.463	-54.604	-160.961	-156.265	-108.351	-23.305	-156.994	-152.804	-151.897	-147.136	-61.679	-148.263	-8191	255	
2025.074	1	1	0	0	0.01255	0.010616	0.22132	0.094011	0.28615	0.431	0.091597	0.27672	0.29955	0.30777	0.085465	0.042458	0.051433	0.38853	0.29938	0.23554	-0.033333	-0.51458	-0.96875	-0.50208	-0.925	-0.74583	-0.56042	-1.2792	-0.58333	-0.60208	-1.1104	-0.3875	-0.91875	-0.80625	-0.15	-1.0125	-30.095	-124.682	-76.107	-157.027	-105.290	67.885	118.007	182.359	118.289	120.630	34.243	44.395	-82.610	113.643	-138.241	172.069	0.0018575	0.00040154	0.00011011	1437.8	3.8801e-06	3.8362e-06	1430.4	397.04	1.0133e-05	3.4552e-06	443.69	147.36	130.33	43.946	7.9526e-06	53.921	7.7254e-05	4.7123e-05	1.2951e-05	1432.1	5.3734e-07	4.951e-07	1423.9	394.36	5.6445e-07	5.0538e-07	437.98	145.95	128.64	43.798	5.4387e-07	53.43	39.178	-97.978	-95.530	-160.855	-54.002	-32.098	-160.813	-156.206	-135.221	-24.237	-156.978	-152.774	-151.680	-147.324	-85.015	-148.252	-8191	255	
2025.170	1	1	0	0	0.15533	0.23094	0.1742	0.085502	0.19494	0.14077	0.20732	0.35725	0.21472	0.10645	0.36436	0.14613	0.28921	0.064707	0.25574	0.020089	-0.31458	-0.38125	-1.1917	-0.42292	-0.55417	-0.80208	-0.47292	-1.05	-0.73542	-0.20625	-1.0354	-0.35208	-0.70833	-0.99792	-0.2125	-0.93958	7.685	37.860	144.350	145.602	19.296	151.686	68.580	140.078	-90.167	-170.766	137.369	154.462	174.382	47.596	17.296	51.292	0.0017936	0.00034257	0.00010595	1437.7	3.9405e-06	5.0843e-06	1421.3	395.53	8.0015e-06	2.7017e-06	444.08	147.25	130.71	43.967	8.9353e-06	53.82	7.6626e-05	4.7281e-05	1.2386e-05	1431.4	5.5456e-07	5.1333e-07	1421.5	394.55	5.7408e-07	5.1893e-07	438.12	145.8	128.8	43.822	5.3723e-07	53.524	39.372	-100.040	-62.944	-160.623	-47.012	-51.485	-160.979	-156.249	-113.589	-36.705	-156.874	-152.846	-151.919	-147.230	-67.921	-148.001	-8191	255	
2025.267	1	1	0	0	0.085287	0.13662	0.056102	0.14384	0.090947	0.044973	0.10027	0.21978	0.31665	0.32799	0.30937	0.29969	0.21649	0.26863	0.06155	0.1393	-0.22292	-0.18125	-1.1958	-0.66667	-0.68125	-0.88958	-0.46458	-0.95208	-0.62292	-0.25625	-1.4146	-0.425	-0.51875	-1.2812	-0.375	-1.0708	14.771	173.689	-62.169	101.822	-18.436	72.500	157.277	-128.803	-153.720	-113.063	107.212	136.813	174.245	128.742	109.685	62.942	0.0017577	0.00045026	9.7701e-05	1435.4	5.7758e-06	3.5946e-06	1422.3	395.05	7.9238e-06	2.4592e-06	446.42	146.53	130.59	44.042	6.0862e-06	53.846	7.7337e-05	4.7354e-05	1.2544e-05	1431.5	5.7141e-07	4.8393e-07	1419.9	394.2	5.3892e-07	4.9173e-07	438.68	145.53	128.75	43.814	5.3979e-07	53.523	37.045	-113.362	-91.711	-160.715	-60.972	-47.934	-161.247	-156.213	-119.671	-38.023	-156.849	-152.667	-151.871	-147.092	-76.281	-148.204	-8191	255	
2025.387	1	1	0	0	0.13311	0.045932	0.073793	0.26634	0.31663	0.11162	0.2736	0.046802	0.24529	0.13881	0.52569	0.357	0.17596	0.17886	0.06336	0.13514	-0.62917	0.058333	-1.1458	-0.7	-0.31458	-0.99792	-0.68958	-0.93958	-0.69167	-0.24375	-1.1771	-0.66875	-0.5125	-1.3312	-0.27083	-0.7875	-116.646	55.146	18.220	156.121	-71.205	-117.252	133.135	145.306	51.205	-63.980	94.101	183.478	116.927	82.314	-79.005	124.040	0.0016887	0.00049198	0.00010015	1432.4	4.8568e-06	2.7937e-06	1424.2	395.14	8.8983e-06	3.652e-06	443.56	147.24	130.03	44.191	3.576e-06	54.04	7.41e-05	4.7416e-05	1.2324e-05	1426.9	5.3536e-07	4.8501e-07	1418.6	393.95	5.3479e-07	5.0882e-07	437.77	145.75	128.65	43.906	5.1603e-07	53.588	38.631	-115.017	-69.493	-160.899	-63.354	-63.855	-161.075	-156.107	-118.637	-10.950	-156.669	-152.729	-152.047	-147.208	-53.184	-148.146	-8191	255	
2025.459	1	1	0	0	0.24135	0.36845	0.099397	0.25984	0.24347	0.13269	0.3045	0.12859	0.018599	0.048011	0.21458	0.20137	0.049274	0.040113	0.387	0.096373	-0.43542	-0.1	-0.99792	-0.75208	-0.12917	-1.1458	-0.26667	-0.85833	-0.84792	-0.085417	-1.0479	-0.61042	-0.42083	-1.3	-0.29375	-0.57083	21.571	-11.681	-90.222	148.243	-102.144	119.377	120.581	-167.685	-151.650	54.113	-32.670	103.918	-77.863	-60.704	113.846	172.427	0.0017735	0.00033797	0.00011255	1440	4.1607e-06	3.3588e-06	1424.5	396.83	1.0239e-05	4.4921e-06	445.54	148.05	130.18	44.06	6.2776e-06	53.83	7.5631e-05	4.6187e-05	1.2884e-05	1430.7	5.4476e-07	4.776e-07	1422.6	394.64	5.4974e-07	4.9321e-07	438.97	146.06	128.36	43.805	5.3251e-07	53.491	37.827	-96.442	-74.540	-160.935	-59.299	-49.797	-161.086	-156.366	-113.920	-26.056	-157.050	-152.821	-152.082	-147.149	-77.221	-148.005	-8191	255	
2025.578	1	1	0	0	0.19764	0.084017	0.022203	0.20198	0.029091	0.23592	0.32566	0.3866	0.053521	0.050088	0.12458	0.21312	0.13367	0.019778	0.20326	0.17774	-0.5125	-0.23542	-0.91042	-1.1396	-0.27083	-1.0417	-0.6125	-0.69167	-1.1021	-0.36667	-1.2042	-0.98333	-0.16667	-1.2896	-0.48958	-0.47083	-50.271	-64.030	-51.204	-168.419	-131.522	-82.134	85.969	124.821	19.113	-41.633	-128.169	-117.062	-56.007	-166.798	116.680	163.779	0.0016113	0.00041163	8.1008e-05	1435.3	5.4135e-06	4.0077e-06	1427.7	395.49	1.0111e-05	3.5882e-06	445.12	147.68	130.74	44.287	7.79e-06	53.887	7.4862e-05	4.622e-05	1.2334e-05	1430.2	5.3417e-07	4.6816e-07	1420.4	393.61	5.4083e-07	4.9321e-07	438.37	145.85	128.71	43.857	5.2494e-07	53.586	38.350	-129.531	-84.685	-160.888	-69.738	-46.462	-161.082	-156.268	-117.456	-11.436	-156.689	-152.836	-152.078	-147.078	-61.501	-148.132	-8191	255	
2025.674	1	1	0	0	0.33835	0.2126	0.13215	0.069213	0.24211	0.13635	0.27067	0.32019	0.11774	0.067218	0.44211	0.1162	0.17356	0.21003	0.25915	0.18663	-0.70208	-0.020833	-0.71875	-1.0604	-0.027083	-1.0125	-0.73125	-0.45417	-1.0167	-0.38125	-0.73958	-1	-0.24583	-1.0854	-0.59167	-0.39375	3.890	-153.073	143.861	-162.888	-12.515	183.513	129.204	160.735	25.940	-163.153	-132.457	-132.505	173.376	-141.275	140.296	34.288	0.0017336	0.00044026	9.8644e-05	1435.3	4.9716e-06	3.6402e-06	1422.5	396.8	8.717e-06	3.3314e-06	442.67	147.34	130.52	44.247	6.9679e-06	53.737	7.4607e-05	4.4832e-05	1.2301e-05	1429.6	5.534e-07	4.8136e-07	1420.1	394.66	5.5945e-07	4.8579e-07	437.91	145.76	128.57	43.874	5.293e-07	53.563	39.759	-99.657	-61.092	-160.778	-54.028	-43.288	-161.020	-156.124	-129.538	-23.494	-156.899	-152.909	-151.834	-147.122	-61.816	-147.984	-8191	255	
2025.770	1	1	0	0	0.18278	0.059005	0.23712	0.11246	0.046449	0.10878	0.086767	0.11971	0.08449	0.063313	0.21639	0.27612	0.32422	0.20127	0.3152	0.080929	-0.61875	-0.27083	-0.51458	-1.2083	-0.29375	-1.0938	-0.94375	-0.46667	-1.0729	-0.4375	-0.57083	-1.1583	-0.50417	-0.96458	-0.72917	-0.15417	141.025	-119.836	103.856	62.541	16.924	50.316	139.289	-57.189	66.709	179.344	-103.990	93.331	-146.246	-52.303	56.853	98.232	0.0016764	0.00020054	0.00012711	1431.5	5.539e-06	3.2883e-06	1419.3	395.52	7.4763e-06	5.3259e-06	443.49	147.4	130.41	44.213	5.9804e-06	54.015	7.4904e-05	4.736e-05	1.2938e-05	1428.5	5.5384e-07	4.8302e-07	1420.2	393.82	5.3968e-07	4.977e-07	437.44	145.86	128.53	43.848	5.1239e-07	53.503	37.885	-129.174	-78.068	-160.814	-57.307	-49.583	-161.253	-156.269	-136.535	-10.562	-156.809	-152.836	-151.835	-146.907	-53.736	-148.016	-8191	255	
2025.866	1	1	0	0	0.14707	0.037953	0.19674	0.31466	0.21381	0.27529	0.29515	0.25308	0.055382	0.25945	0.043485	0.17494	0.13793	0.087347	0.20964	0.13481	-0.69167	-0.52708	-0.42083	-1.5562	-0.35625	-1.0646	-1.1979	-0.41667	-0.975	-0.42708	-0.42292	-1.2854	-0.27917	-1.0083	-0.93333	-0.14583	-22.588	-116.262	-99.024	-149.350	-87.069	147.720	108.893	173.310	-139.635	-1.248	-130.086	160.813	96.061	-97.819	47.540	139.574	0.0017925	0.0002107	9.1901e-05	1433.3	3.7825e-06	3.5046e-06	1424.3	393.44	1.002e-05	4.425e-06	441.86	147.61	130.77	44.301	6.7978e-06	54.072	7.3376e-05	4.4875e-05	1.2704e-05	1426.8	5.4213e-07	4.6968e-07	1421.3	392.7	5.2026e-07	4.9158e-07	437.1	145.78	128.64	43.865	5.2018e-07	53.587	38.059	-110.799	-86.615	-160.631	-32.644	-38.543	-161.144	-156.201	-121.320	-24.059	-156.956	-152.629	-151.862	-147.145	-72.145	-148.147	-8191	255	
2025.987	1	1	0	0	0.27387	0.10828	0.16837	0.14542	0.24489	0.073929	0.34802	0.3649	0.25956	0.14038	0.039407	0.1395	0.16468	0.27372	0.18623	0.23616	-0.66458	-0.64167	-0.32917	-1.2396	-0.19167	-0.575	-1.225	-0.44375	-1.1521	-0.56042	-0.32083	-1.2854	-0.65	-0.74167	-0.975	-0.41875	-108.895	-17.884	144.336	101.287	65.809	-37.084	104.251	164.945	-98.878	54.438	79.834	-13.736	-164.072	117.767	162.119	-150.797	0.0017888	0.00034443	9.4962e-05	1431.9	5.1892e-06	3.8922e-06	1420.3	395.28	7.5724e-06	4.8771e-06	443.28	147.5	130.46	44.165	8.054e-06	54.044	7.5389e-05	4.5593e-05	1.246e-05	1427.7	5.543e-07	4.814e-07	1417.3	393.94	5.5122e-07	4.9955e-07	437.88	145.86	128.54	43.851	5.0993e-07	53.602	38.293	-118.954	-70.956	-160.977	-59.445	-54.466	-161.064	-156.261	-120.549	-21.075	-156.911	-152.703	-152.169	-147.372	-78.809	-148.178	-8191	255	
2026.083	1	1	0	0	0.24383	0.12261	0.083041	0.0054354	0.31152	0.14157	0.30008	0.13369	0.1554	0.20669	0.16182	0.29955	0.125	0.0922	0.091995	0.23696	-0.72708	-0.76042	-0.12083	-1.2229	-0.37292	-0.39792	-1.3937	-0.44583	-0.87708	-0.75833	-0.48125	-1.2292	-0.62083	-0.56458	-1.2271	-0.18958	48.163	124.753	-67.229	29.729	-11.559	1.503	85.847	84.455	106.494	-116.133	-142.435	132.551	14.068	70.965	139.062	148.515	0.0018231	0.00034678	8.2297e-05	1437.5	3.565e-06	4.7719e-06	1424.4	395.21	9.9669e-06	3.7991e-06	442.98	147.83	130.84	44.057	7.0598e-06	53.764	7.4754e-05	4.556e-05	1.2647e-05	1428.4	5.2794e-07	4.9532e-07	1421.3	393.53	5.4129e-07	4.6572e-07	437.4	145.9	128.69	43.806	5.0777e-07	53.505	38.424	-119.079	-55.260	-160.918	-49.770	-48.076	-161.278	-156.234	-127.804	-9.068	-156.953	-152.744	-152.368	-147.396	-73.412	-148.327	-8191	255	
2026.155	1	1	0	0	0.17331	0.20495	0.15714	0.1416	0.31199	0.12048	0.16214	0.40519	0.1452	0.2466	0.4636	0.22779	0.27654	0.20686	0.29474	0.26609	-0.44167	-0.85833	-0.20208	-1.3104	-0.525	-0.5375	-1.4792	-0.4125	-0.89792	-1.0125	-0.13958	-1.0479	-0.69375	-0.66667	-0.98958	-0.33542	-38.627	129.845	-152.133	57.753	0.383	120.994	50.118	142.873	44.754	13.192	142.655	171.625	-146.527	86.941	-168.759	141.182	0.0017432	0.00028564	0.00011131	1433.5	4.5315e-06	3.1848e-06	1423.8	395.25	8.8176e-06	5.7484e-06	442.89	147.11	129.89	44.01	5.5116e-06	53.783	7.5041e-05	4.4192e-05	1.2618e-05	1428.2	5.2329e-07	4.8237e-07	1419	393.87	5.4115e-07	4.8767e-07	437.33	145.58	128.46	43.772	5.1109e-07	53.435	38.842	-104.122	-82.593	-160.857	-64.807	-40.458	-161.218	-156.382	-116.992	-11.762	-156.840	-152.727	-152.132	-147.083	-61.649	-148.364	-8191	255	
2026.251	1	1	0	0	0.17883	0.14419	0.22139	0.35716	0.051732	0.11281	0.068015	0.19507	0.23724	0.077671	0.47359	0.14294	0.30187	0.19625	0.18869	0.1306	-0.36875	-1.0375	-0.11875	-1.1542	-0.8	-0.32292	-1.4458	-0.475	-0.69583	-1.0896	-0.26042	-0.9	-0.91875	-0.30625	-1.05	-0.69792	-85.551	101.393	17.891	148.163	-122.389	114.586	159.343	166.939	144.449	-93.355	111.997	-149.895	85.129	132.947	-38.365	-154.076	0.0017053	0.00047883	0.00010382	1438.5	4.7522e-06	2.7617e-06	1423.7	395.98	6.4387e-06	4.5615e-06	443.42	147.18	130.47	44.138	5.0833e-06	53.826	7.5242e-05	4.3906e-05	1.2831e-05	1430.4	5.382e-07	4.7575e-07	1421.2	394.21	5.5744e-07	4.9325e-07	438.03	145.75	128.66	43.788	5.0546e-07	53.428	38.812	-131.219	-82.473	-160.737	-60.146	-54.135	-161.144	-156.245	-130.256	-15.720	-156.935	-152.585	-152.005	-147.291	-83.217	-148.137	-8191	255	
2026.347	1	1	0	0	0.15957	0.19708	0.096555	0.18029	0.1442	0.18996	0.10673	0.13896	0.14332	0.21634	0.24895	0.18262	0.30268	0.2012	0.15421	0.1084	-0.37917	-1.0042	-0.16875	-0.8625	-0.79167	-0.22292	-1.3687	-0.62708	-0.37708	-1.2833	-0.47917	-0.95	-0.99583	-0.27708	-1.0771	-0.6875	-155.622	114.822	-74.129	160.970	-3.297	37.889	159.834	75.449	-47.824	8.986	-101.246	-117.826	180.923	142.554	-157.404	-81.254	0.0017994	0.00041639	0.00014212	1438.1	5.5596e-06	4.018e-06	1418.9	393.73	7.1507e-06	4.413e-06	443.04	146.9	129.96	43.991	6.1734e-06	53.789	7.6556e-05	4.5363e-05	1.3188e-05	1431.3	5.525e-07	5.0187e-07	1417	393.04	5.5945e-07	4.8484e-07	437.52	145.63	128.2	43.761	5.3078e-07	53.368	39.096	-115.849	-65.922	-160.679	-48.191	-69.904	-161.149	-156.400	-109.303	-18.913	-156.760	-152.480	-152.034	-147.239	-75.805	-147.984	-8191	255	
2026.466	1	1	0	0	0.30693	0.2449	0.25655	0.37952	0.17979	0.1582	0.20844	0.31867	0.25683	0.27777	0.20383	0.25837	0.29806	0.14042	0.20542	0.15514	0.095833	-1.1792	-0.33333	-0.8625	-0.87708	-0.08125	-1.3	-0.87292	-0.26667	-1.1458	-0.33125	-0.76667	-1.0042	-0.24792	-1.0438	-0.86667	-87.990	-64.433	-149.038	171.078	-113.257	-31.382	111.082	146.316	166.202	-114.941	-155.494	160.582	-141.281	37.164	91.098	89.853	0.0016892	0.00053002	9.1147e-05	1431.9	6.8934e-06	2.9503e-06	1422.6	393.56	8.148e-06	3.363e-06	443.69	147.69	130.42	44.102	6.8721e-06	53.768	7.5554e-05	4.4275e-05	1.2489e-05	1426.8	5.355e-07	4.8104e-07	1419.3	393.28	5.4101e-07	4.5898e-07	438.26	145.88	128.42	43.902	5.0597e-07	53.493	40.084	-102.138	-70.980	-160.769	-59.240	-48.944	-160.968	-156.553	-102.175	-30.735	-156.939	-152.986	-152.304	-147.465	-60.638	-148.389	-8191	255	
2026.562	1	1	0	0	0.096209	0.15224	0.12415	0.24048	0.2738	0.20427	0.13607	0.3761	0.1824	0.15982	0.30463	0.25411	0.053016	0.15089	0.11337	0.3305	0.00625	-1.1833	-0.325	-0.64583	-1.0604	-0.14583	-0.94792	-1.1313	-0.35833	-1.0396	-0.7125	-0.56458	-1.4396	-0.33958	-0.98542	-0.88333	21.201	-41.425	-10.632	138.100	115.177	184.621	159.615	146.887	120.791	29.793	114.466	-136.706	104.646	182.558	93.463	143.745	0.0017291	0.00030289	7.5762e-05	1431.1	3.4556e-06	4.6923e-06	1424.8	394.19	8.9212e-06	4.5144e-06	442.15	147.33	130.09	44.142	7.7746e-06	53.778	7.3922e-05	4.3144e-05	1.2026e-05	1426.2	5.1666e-07	4.7416e-07	1419.6	393.27	5.3518e-07	4.6619e-07	437.79	145.64	128.54	43.82	5.1646e-07	53.524	39.824	-112.082	-86.747	-160.761	-57.428	-34.227	-161.309	-156.503	-112.781	-31.280	-156.911	-152.808	-152.165	-147.421	-60.495	-148.340	-8191	255	
2026.658	1	1	0	0	0.18441	0.063779	0.076692	0.16436	0.16572	0.10627	0.26228	0.084933	0.19253	0.34315	0.17079	0.18497	0.25563	0.138	0.021409	0.26442	0.22708	-1.0229	-0.41875	-0.69792	-1.1667	-0.28333	-1.2833	-1.0688	-0.275	-1.0917	-0.6875	-0.37708	-1.2042	-0.37292	-0.8	-1.0375	-123.528	-34.629	-151.300	181.907	127.668	162.530	146.378	136.010	-166.927	-16.667	88.678	133.574	157.402	55.657	-120.079	140.454	0.0018032	0.00042925	8.6224e-05	1434.7	3.7289e-06	5.573e-06	1421.3	394.57	9.7793e-06	4.2249e-06	442.8	147.19	130.6	44.164	6.654e-06	53.944	7.4435e-05	4.4321e-05	1.2185e-05	1428.1	5.0301e-07	4.853e-07	1419.4	393.42	5.4104e-07	4.5967e-07	437.76	145.48	128.76	43.924	5.1055e-07	53.495	35.843	-121.310	-71.546	-160.811	-53.601	-44.195	-161.011	-156.262	-124.002	-31.003	-156.839	-152.698	-152.024	-147.155	-69.511	-148.465	-8191	255	
2026.754	1	1	0	0	0.15332	0.29182	0.196	0.29375	0.079991	0.12984	0.18709	0.16969	0.01252	0.21101	0.14741	0.26683	0.27742	0.14075	0.22916	0.11613	0.32083	-1.1063	-0.70208	-0.77917	-1.0958	-0.54375	-0.91042	-1.275	-0.083333	-1.0625	-1.1792	-0.37292	-1.3896	-0.575	-0.56042	-1.3396	161.487	16.644	45.335	91.154	-40.289	-54.502	94.102	-108.724	-111.190	-102.379	159.441	110.281	-115.971	108.252	93.865	2.428	0.0016779	0.00041783	0.00010912	1438.4	5.7715e-06	3.3247e-06	1423.9	393.53	7.788e-06	3.063e-06	442.13	146.78	130.6	44.08	6.8456e-06	53.997	7.3657e-05	4.17e-05	1.1674e-05	1428.8	5.078e-07	4.6617e-07	1420.7	393.28	5.419e-07	4.7847e-07	437.25	145.29	128.46	43.865	5.0283e-07	53.502	35.735	-92.775	-62.465	-160.587	-30.187	-36.896	-160.992	-156.353	-122.000	-32.420	-156.960	-152.802	-151.973	-147.204	-92.532	-148.097	-8191	255	
2026.850	1	1	0	0	0.27758	0.14147	0.066114	0.39018	0.12463	0.16289	0.18583	0.14402	0.37435	0.24698	0.15774	0.17519	0.23268	0.29089	0.13493	0.14307	0.19167	-0.7375	-0.84167	-0.32917	-1.225	-0.46875	-0.52917	-1.1333	-0.23333	-0.99583	-0.8625	-0.14792	-1.0542	-0.71458	-0.33333	-1.1771	-91.900	-163.026	-36.798	149.595	181.585	-158.544	169.672	52.513	-43.103	2.376	-117.837	116.641	128.480	112.174	148.373	-71.041	0.0017475	0.00043809	6.9879e-05	1433	4.2302e-06	3.7012e-06	1424.3	394.67	1.0325e-05	2.6037e-06	444	147.34	130	44.239	7.5089e-06	53.874	7.3998e-05	4.4393e-05	1.1989e-05	1427.2	5.1601e-07	4.7735e-07	1418.9	393.39	5.3741e-07	4.6098e-07	437.64	145.7	128.27	43.877	5.1112e-07	53.532	38.825	-108.660	-86.516	-160.767	-49.997	-53.534	-161.231	-156.458	-121.123	-26.144	-157.254	-152.817	-152.083	-147.195	-71.742	-148.198	-8191	255	
2026.947	1	1	0	0	0.19325	0.22043	0.19836	0.21961	0.089658	0.098307	0.047344	0.13821	0.17778	0.12258	0.37634	0.26464	0.10187	0.36263	0.19752	0.13217	0.40833	-0.62083	-0.75625	-0.23542	-0.89167	-0.575	-0.49583	-1.3458	-0.36458	-0.71042	-1.1208	-0.19792	-1.0208	-0.69167	-0.2125	-1.3354	-132.553	-123.567	-101.839	90.300	173.470	70.696	-85.465	87.359	61.192	-113.235	129.729	-150.842	180.275	177.341	85.274	-170.075	0.0018181	0.0004288	0.00014613	1433.1	6.0993e-06	4.2585e-06	1419.9	394.09	9.4446e-06	3.9691e-06	443.3	147.11	129.52	44.013	7.9559e-06	53.685	7.557e-05	4.4463e-05	1.1739e-05	1425.2	5.2026e-07	4.7344e-07	1417.7	392.77	5.368e-07	4.6308e-07	437.75	145.45	128.17	43.744	5.1412e-07	53.36	38.468	-111.214	-83.348	-160.943	-53.795	-49.015	-161.208	-156.375	-127.731	-33.578	-156.996	-152.598	-152.186	-147.203	-77.130	-148.068	-8191	255	
2027.067	1	1	0	0	0.051007	0.23728	0.15711	0.55985	0.044449	0.24182	0.32723	0.25908	0.095215	0.18048	0.20273	0.31586	0.22854	0.36986	0.12794	0.11675	-0.16875	-0.57083	-1.275	-0.4125	-0.95625	-0.85833	-0.5875	-1.375	-0.46875	-0.68333	-1.4208	-0.19375	-1.0979	-0.74375	-0.24375	-1.3229	57.427	-30.618	170.266	150.648	-24.619	155.332	115.471	97.014	-64.482	177.651	-32.675	167.841	137.642	165.569	132.837	43.129	0.001696	0.00050305	0.00012402	1431.3	4.4791e-06	3.6545e-06	1420.5	394.04	8.0304e-06	3.4398e-06	442.87	146.83	130.13	44.072	5.2412e-06	53.985	7.5564e-05	4.4852e-05	1.248e-05	1424.6	5.194e-07	4.7677e-07	1418.4	392.74	5.3806e-07	4.7731e-07	436.99	145.46	128.25	43.765	5.1935e-07	53.569	37.646	-106.784	-58.871	-160.846	-58.399	-37.701	-161.173	-156.328	-120.632	-32.515	-157.081	-152.809	-151.930	-147.358	-83.070	-148.139	-8191	255	
2027.163	1	1	0	0	0.17252	0.052025	0.15332	0.29033	0.22854	0.14317	0.27487	0.40919	0.27466	0.186	0.20912	0.15469	0.33742	0.16475	0.026836	0.21603	-0.016667	-0.3125	-0.91875	-0.525	-0.72708	-0.98958	-0.45625	-1.225	-0.58333	-0.38542	-1.3375	-0.3875	-0.7875	-1.1458	-0.097917	-1.175	-170.680	-108.383	-128.862	163.047	-138.591	161.257	-172.420	128.353	-98.933	-118.866	-129.530	101.582	182.000	-116.832	53.919	119.082	0.0018506	0.00031968	0.00011436	1432.2	5.2408e-06	3.7614e-06	1424	394.87	6.1585e-06	4.2283e-06	444.37	146.94	129.88	44.022	7.2823e-06	54.112	7.7535e-05	4.4637e-05	1.1745e-05	1426.7	5.4739e-07	4.7058e-07	1417.8	393.54	5.3845e-07	4.8437e-07	438.01	145.31	128.19	43.843	5.236e-07	53.568	36.161	-107.963	-73.037	-160.822	-69.886	-38.679	-161.416	-156.425	-126.677	-32.461	-157.084	-152.801	-152.222	-147.054	-97.560	-148.174	-8191	255	
2027.260	1	1	0	0	0.22025	0.16796	0.25751	0.18791	0.098422	0.23609	0.21133	0.14075	0.21789	0.27913	0.20929	0.14168	0.069034	0.13573	0.27125	0.16322	-0.20833	-0.16458	-1.1104	-0.65208	-0.77917	-1.1396	-0.28333	-1.1688	-0.61875	-0.29583	-1.1833	-0.56458	-0.66667	-1.1542	-0.18958	-1.0521	37.198	92.276	-36.112	133.407	-154.590	150.400	126.241	154.285	93.313	-8.256	96.870	-106.212	-156.454	-109.771	-90.099	123.279	0.0017027	0.00027526	0.00010212	1434.1	3.9599e-06	2.9798e-06	1419.4	393.95	8.7399e-06	4.2683e-06	442.15	146.63	130.23	44.072	7.157e-06	53.913	7.4897e-05	4.5953e-05	1.2207e-05	1427.8	5.3363e-07	4.8255e-07	1419	393.3	5.3982e-07	4.9234e-07	437.5	145.24	128.04	43.744	5.2248e-07	53.471	37.633	-126.254	-86.364	-160.955	-52.358	-27.090	-161.105	-156.301	-110.500	-22.762	-156.945	-152.618	-152.210	-147.451	-70.094	-148.166	-8191	255	
2027.356	1	1	0	0	0.24499	0.30966	0.11326	0.34269	0.15989	0.12683	0.13606	0.28227	0.089231	0.018501	0.08937	0.10858	0.054283	0.28169	0.25202	0.019945	-0.44792	-0.060417	-1.3	-0.45417	-0.4875	-1.1104	-0.41875	-0.70417	-0.82917	-0.40833	-1.2687	-0.78125	-0.66042	-1.1979	-0.3125	-0.72292	165.832	-161.977	-122.519	145.574	-23.165	65.015	172.040	121.664	-83.015	-172.862	105.274	8.393	-147.645	-58.798	-48.466	-35.686	0.0017463	0.00036408	0.00010933	1429.6	4.6593e-06	3.6512e-06	1419.5	394.96	7.1967e-06	3.9933e-06	441.31	147	130.31	44.147	3.7083e-06	53.865	7.5995e-05	4.5686e-05	1.203e-05	1424.3	5.2452e-07	4.5662e-07	1417.4	393.3	5.3799e-07	4.7329e-07	437.77	145.14	128.32	43.839	4.8689e-07	53.503	39.586	-115.621	-68.446	-160.913	-59.232	-41.734	-161.055	-156.193	-116.111	-28.416	-157.045	-152.790	-151.846	-147.285	-66.642	-147.973	-8191	255	
2027.450	1	1	0	0	0.08881	0.0984	0.19303	0.2362	0.18918	0.069921	0.12928	0.14173	0.26902	0.064854	0.098189	0.30864	0.23732	0.27348	0.13601	0.097838	-0.66458	-0.05	-0.96458	-1.0271	-0.36042	-1.2812	-0.46042	-0.97292	-1.2125	-0.21042	-1.4333	-0.84792	-0.26042	-1.4625	-0.27917	-0.84792	-88.076	39.562	-74.260	-121.124	-21.708	0.406	41.478	132.868	29.406	59.650	-168.068	140.008	141.528	118.615	89.122	183.354	0.0017649	0.00043494	0.00012096	1427.3	4.9992e-06	4.5357e-06	1417.8	393.95	7.3627e-06	5.2306e-06	442.69	146.91	129.99	44.238	6.5276e-06	54.141	7.3845e-05	4.294e-05	1.1816e-05	1423.7	5.1418e-07	4.6302e-07	1415.1	392.88	5.259e-07	4.9071e-07	437.47	145.37	128.3	43.799	5.2735e-07	53.525	38.058	-114.257	-75.171	-160.885	-73.341	-30.211	-161.055	-156.128	-123.270	-22.613	-156.789	-152.714	-152.044	-147.534	-94.789	-148.478	-8191	255	
2027.546	1	1	0	0	0.087034	0.13089	0.1743	0.4463	0.38122	0.10983	0.24332	0.050585	0.22823	0.17013	0.39434	0.31347	0.31073	0.18169	0.30259	0.11106	-0.49583	-0.00625	-1.1417	-0.89167	-0.11458	-1.2729	-0.81875	-0.67292	-1.0333	-0.14792	-1.125	-0.67292	-0.30625	-1.2542	-0.28333	-0.62292	15.979	-59.092	-173.791	168.169	-20.248	-173.905	101.063	26.005	-153.248	-5.302	174.616	-59.897	-154.721	145.872	-26.067	55.952	0.0016943	0.00039107	9.0426e-05	1430.6	4.3054e-06	3.7239e-06	1418.4	394.11	9.3605e-06	4.2671e-06	442.7	146.82	129.71	44.1	5.7391e-06	53.944	7.3603e-05	4.4809e-05	1.2227e-05	1425.6	5.3878e-07	4.7662e-07	1416	393.61	5.4805e-07	5.1186e-07	437.63	145.15	128.27	43.822	5.2519e-07	53.502	39.537	-119.339	-92.395	-160.860	-43.853	-52.943	-161.478	-156.528	-120.796	-6.960	-157.151	-152.929	-152.411	-147.442	-60.046	-148.342	-8191	255	
2027.642	1	1	0	0	0.10707	0.10461	0.15468	0.2662	0.23132	0.16778	0.12531	0.28758	0.127	0.41187	0.26037	0.19696	0.20591	0.18696	0.24173	0.13346	-0.65625	-0.27708	-0.81667	-1.0812	-0.22083	-1.0979	-0.72292	-0.55833	-1.1792	-0.43542	-0.90417	-1.0979	-0.40208	-1.0896	-0.47708	-0.37292	-40.725	172.308	77.086	-144.262	-63.109	-82.090	104.475	172.029	-113.970	85.278	-23.516	44.759	112.817	137.057	64.623	162.758	0.0018483	0.00043065	0.00013206	1430.6	4.663e-06	2.134e-06	1420.8	395.24	9.7125e-06	2.9486e-06	442.91	146.98	129.9	44.048	6.5386e-06	53.692	7.47e-05	4.617e-05	1.2892e-05	1427.1	5.5528e-07	4.9261e-07	1417.1	393.31	5.4532e-07	4.9596e-07	437.53	145.36	128.15	43.801	5.4484e-07	53.437	38.231	-100.798	-79.536	-160.915	-55.575	-52.018	-161.483	-156.676	-112.207	-14.496	-157.067	-153.143	-152.240	-147.252	-61.363	-148.219	-8191	255	
2027.763	1	1	0	0	0.10745	0.26086	0.20819	0.20212	0.24329	0.11114	0.13528	0.3095	0.35146	0.14962	0.14865	0.28993	0.27517	0.3043	0.09649	0.24488	-0.84375	-0.20208	-0.625	-1.2229	-0.31042	-0.89792	-0.70417	-0.57917	-1.2271	-0.33958	-0.7875	-1.2208	-0.26042	-1.2479	-0.69167	-0.54375	120.614	-71.461	14.749	114.293	94.911	-40.530	116.450	141.791	-46.830	-135.260	-61.773	-155.563	-150.281	182.790	40.991	124.801	0.0018153	0.00044931	0.00013733	1432.7	5.9729e-06	3.1573e-06	1426.3	395.51	7.5097e-06	2.8343e-06	444.79	147.86	130.28	43.972	5.044e-06	54.217	7.5711e-05	4.5818e-05	1.2798e-05	1425.8	5.6165e-07	4.8349e-07	1420	393.15	5.286e-07	4.7836e-07	439.04	145.43	128.31	43.9	5.1325e-07	53.591	35.993	-102.301	-68.817	-161.162	-68.820	-39.431	-161.377	-156.535	-113.761	-8.421	-156.926	-152.967	-152.144	-147.416	-74.160	-148.510	-8191	255	
2027.859	1	1	0	0	0.085889	0.17256	0.26402	0.23901	0.082538	0.13111	0.32179	0.2969	0.13346	0.14264	0.39177	0.057108	0.08718	0.073818	0.14121	0.14804	-0.775	-0.30417	-0.68333	-1.3167	-0.2875	-1.025	-1.0063	-0.29375	-1.1833	-0.3625	-0.70625	-1.2062	-0.37292	-1.1292	-0.85	-0.51042	21.067	77.997	-127.510	132.456	81.041	135.302	117.409	157.124	121.216	-139.171	152.692	-48.419	29.826	171.618	102.875	-29.148	0.001658	0.00039636	0.00013369	1432.3	4.946e-06	4.598e-06	1422.2	395.01	8.4218e-06	4.3283e-06	444.16	146.64	130.72	44.111	6.5901e-06	54.007	7.1804e-05	4.5574e-05	1.2095e-05	1426.8	5.4361e-07	4.7427e-07	1417.9	393.12	5.2062e-07	5.0006e-07	437.94	145.25	128.13	43.954	5.1895e-07	53.624	35.551	-109.657	-72.847	-160.907	-54.053	-66.583	-161.232	-156.357	-125.909	-20.742	-157.057	-153.061	-152.246	-147.285	-61.568	-148.424	-8191	255	
2027.955	1	1	0	0	0.17154	0.29128	0.21152	0.17434	0.14301	0.23936	0.096285	0.21959	0.10138	0.25206	0.14499	0.16347	0.36921	0.21882	0.0017613	0.14175	-0.58958	-0.49792	-0.51875	-1.2354	-0.17708	-0.82083	-1.0812	-0.4625	-0.975	-0.6375	-0.43333	-1.2917	-0.61875	-0.54375	-0.85417	-0.20208	131.708	122.968	-82.828	180.784	46.543	-102.514	44.487	160.792	-173.724	102.419	-164.695	165.821	164.540	-156.960	180.000	121.308	0.0017575	0.00036984	0.0001328	1432.9	4.8181e-06	3.8077e-06	1428.5	394.08	1.0168e-05	3.5813e-06	442.68	146.75	130.16	44.296	5.0679e-06	53.899	7.476e-05	4.4469e-05	1.2569e-05	1427.6	5.2052e-07	4.7684e-07	1419.2	392.95	5.3371e-07	4.7963e-07	438.35	145.4	128.23	43.894	4.9962e-07	53.596	39.704	-117.576	-83.793	-161.111	-42.803	-54.252	-161.424	-156.590	-113.150	-18.330	-157.162	-152.630	-152.119	-147.288	-73.252	-148.257	-8191	255	
2028.027	1	1	0	0	0.23316	0.051768	0.066964	0.5314	0.17478	0.056943	0.36851	0.3233	0.14706	0.098306	0.14624	0.042704	0.051539	0.31907	0.085533	0.1133	-0.75208	-0.57708	-0.33333	-1.3875	-0.32083	-0.70833	-1.0938	-0.37917	-1.0208	-0.83333	-0.32083	-1.4937	-0.50208	-0.53958	-1.1292	-0.38958	-113.744	153.884	-163.598	158.298	120.095	-38.470	-168.082	153.743	-43.004	-95.271	146.281	101.580	28.326	-168.580	109.819	129.170	0.0017717	0.00037499	0.00012168	1433	4.3303e-06	3.5634e-06	1422.5	393.83	8.6755e-06	4.9521e-06	441.55	147.41	130.15	44.054	6.3437e-06	53.849	7.4355e-05	4.501e-05	1.2794e-05	1429.6	5.5528e-07	4.7622e-07	1418.2	392.96	5.2914e-07	4.8676e-07	437.48	145.51	128.04	43.881	4.985e-07	53.477	36.484	-107.498	-55.600	-160.822	-51.217	-45.441	-161.330	-156.444	-112.248	-24.748	-157.228	-153.063	-152.087	-147.375	-59.929	-148.476	-8191	255	
2028.148	1	1	0	0	0.073454	0.069364	0.12592	0.40099	0.23127	0.25776	0.15516	0.14741	0.32156	0.13394	0.42537	0.2759	0.2286	0.17678	0.040519	0.026661	-0.37708	-0.80625	-0.1875	-1.3458	-0.60625	-0.45	-1.3583	-0.50208	-0.99583	-1.0542	-0.34375	-1.2604	-0.61458	-0.25417	-1.1292	-0.1875	157.107	-133.110	133.404	91.148	-7.713	-24.626	121.399	114.796	-82.789	-9.267	166.080	-114.760	115.532	-116.297	-135.120	44.629	0.0017596	0.00050699	0.00015662	1431.6	5.1921e-06	4.5684e-06	1422.2	393.57	7.1209e-06	3.6203e-06	444.61	146.61	129.84	44.175	6.9804e-06	53.655	7.3902e-05	4.5564e-05	1.2458e-05	1425.7	5.4904e-07	4.9561e-07	1416.6	392.49	5.4866e-07	4.6731e-07	437.62	145.01	127.89	43.855	5.0615e-07	53.426	38.485	-117.012	-73.803	-160.914	-56.551	-58.449	-161.258	-156.258	-116.152	-13.527	-156.865	-152.688	-152.223	-147.220	-77.705	-148.441	-8191	255	
2028.244	1	1	0	0	0.081693	0.34407	0.24441	0.13219	0.22574	0.28982	0.33757	0.13638	0.13755	0.092854	0.035412	0.1234	0.099966	0.19613	0.10816	0.11717	-0.13958	-0.92083	-0.04375	-1.3146	-0.73542	-0.24167	-1.4312	-0.34375	-0.63333	-1.2021	-0.47917	-1.075	-0.68125	-0.49375	-1.0667	-0.36875	119.566	69.443	61.975	-113.121	166.591	20.188	115.958	69.897	-93.513	28.403	-128.180	138.189	143.091	-76.023	-65.951	-162.329	0.0017099	0.00041957	0.00010622	1427.8	5.0854e-06	4.7619e-06	1417.5	393.7	9.2412e-06	3.2645e-06	443.64	146.66	129.88	43.997	6.5693e-06	53.714	7.3944e-05	4.5293e-05	1.2795e-05	1425.1	5.3338e-07	4.7847e-07	1415.4	392.26	5.5391e-07	4.8321e-07	437.95	144.93	127.93	43.712	5.1073e-07	53.367	37.393	-109.714	-64.845	-160.829	-52.737	-49.259	-161.269	-156.461	-120.508	-0.846	-157.035	-152.851	-152.134	-147.214	-68.105	-148.543	-8191	255	
2028.340	1	1	0	0	0.068933	0.13282	0.21534	0.3209	0.30953	0.073483	0.19234	0.14881	0.24794	0.18095	0.080331	0.41869	0.15585	0.3139	0.083533	0.31731	-0.34792	-0.81042	-0.0020833	-1.1854	-0.85417	-0.39375	-1.2792	-0.54375	-0.71458	-1	-0.22708	-0.92917	-0.92917	-0.46042	-1.2271	-0.32708	-22.615	-111.403	-86.295	162.454	-93.712	-163.254	116.393	-126.079	-55.760	-89.419	-37.240	154.324	149.677	127.951	133.186	-133.401	0.0016623	0.00043415	0.00013011	1436.4	4.5607e-06	3.3797e-06	1417.7	393.25	1.1289e-05	3.0229e-06	442.03	146.62	129.45	43.956	6.5948e-06	53.874	7.425e-05	4.5402e-05	1.299e-05	1426.9	5.4598e-07	5.0415e-07	1418	392.29	5.5719e-07	4.6887e-07	437.08	145.23	127.8	43.771	5.1509e-07	53.431	38.358	-123.288	-74.458	-160.898	-39.380	-54.593	-161.260	-156.486	-117.637	-40.497	-157.026	-152.839	-152.185	-147.239	-48.871	-148.135	-8191	255	
2028.461	1	1	0	0	0.089674	0.29293	0.20781	0.17469	0.44341	0.2147	0.49039	0.11188	0.09779	0.14546	0.093981	0.041543	0.13166	0.11137	0.19684	0.21463	-0.16458	-1.0187	-0.083333	-1.0417	-0.81042	-0.24583	-1.4792	-0.61875	-0.52917	-1.2021	-0.18333	-0.9	-0.85417	-0.3625	-0.86667	-0.60625	-19.306	129.225	-75.049	181.007	-57.751	88.082	122.334	147.579	-72.072	-67.438	139.232	-91.680	-93.339	181.852	165.407	127.136	0.0017234	0.00050251	0.00011858	1429.8	4.5026e-06	2.6136e-06	1417.5	394.06	7.4112e-06	4.824e-06	442.61	146.54	130.77	44.217	6.3573e-06	53.844	7.5991e-05	4.4571e-05	1.2909e-05	1426.6	5.4069e-07	4.8476e-07	1417.6	392.9	5.4248e-07	4.8271e-07	437.81	145.06	128.14	43.828	5.174e-07	53.425	38.805	-96.154	-62.247	-160.853	-54.688	-38.858	-160.934	-156.563	-106.234	-11.153	-156.881	-152.839	-152.164	-147.306	-62.528	-148.527	-8191	255	
2028.555	1	1	0	0	0.11813	0.048818	0.24709	0.32755	0.12699	0.13641	0.21142	0.1848	0.054848	0.24644	0.25409	0.21836	0.041167	0.074658	0.10244	0.18736	0.18958	-1.2458	-0.064583	-0.8625	-0.8125	-0.027083	-1.25	-0.91458	-0.25	-0.99167	-0.56458	-0.58125	-1.1	-0.47708	-0.78125	-0.83958	-138.632	50.628	78.446	166.440	-76.771	-26.811	-170.941	148.758	-68.320	152.226	144.327	121.616	-123.349	-84.670	175.645	156.455	0.0017724	0.00039319	7.8874e-05	1431.4	3.8012e-06	3.6141e-06	1421.1	394.02	6.094e-06	4.2029e-06	443.95	146.11	129.38	43.821	4.7243e-06	53.365	7.6412e-05	4.3899e-05	1.2816e-05	1425.3	5.3997e-07	5.0465e-07	1418	392.94	5.6035e-07	4.9705e-07	437.72	144.56	127.33	43.574	5.4783e-07	53.121	35.880	-84.572	-79.800	-160.938	-35.895	-41.048	-161.182	-156.440	-108.002	-3.113	-157.065	-152.785	-152.253	-147.060	-59.649	-148.280	-8191	255	
2028.628	1	1	0	0	0.045365	0.24186	0.15944	0.29895	0.10695	0.084225	0.27864	0.25292	0.13894	0.0946	0.30511	0.28801	0.23137	0.43116	0.052302	0.04413	0.27083	-1.1437	-0.22292	-0.72708	-0.91458	-0.083333	-1.1479	-0.93125	-0.19375	-1.1625	-0.60625	-0.5625	-1.3208	-0.30625	-0.70625	-0.98125	-129.066	-33.401	67.452	181.187	-48.248	106.985	90.792	89.172	21.511	-113.012	-79.670	-156.618	126.293	157.918	64.014	132.025	0.0016479	0.00046049	6.588e-05	1435.1	4.6385e-06	3.5167e-06	1426.5	393.12	8.0769e-06	4.4582e-06	442.39	146.04	129.16	43.707	5.4766e-06	53.421	7.9011e-05	4.8395e-05	1.3632e-05	1427.3	5.6248e-07	5.3471e-07	1421.9	392.38	5.6682e-07	5.2269e-07	437.03	144.4	127.47	43.462	5.553e-07	53.114	38.363	-136.881	-72.050	-160.791	-41.497	-32.032	-161.113	-156.424	-107.509	-4.065	-157.108	-152.928	-152.099	-147.233	-75.259	-148.269	-8191	255	
2028.747	1	1	0	0	0.17819	0.31522	0.31341	0.14851	0.096233	0.07082	0.40149	0.13628	0.19768	0.16519	0.15515	0.28091	0.2304	0.12364	0.21626	0.38127	0.34167	-0.98333	-0.49167	-0.51458	-1.2188	-0.10208	-0.8625	-1.0458	-0.10417	-0.94792	-0.57708	-0.46875	-0.9875	-0.43125	-0.6	-1.1792	74.040	165.250	87.047	142.091	-130.462	-117.792	114.033	24.638	-40.282	-45.658	-123.717	104.304	-159.681	178.983	-62.801	124.870	0.001807	0.00018237	0.00010958	1435.4	4.8037e-06	2.4551e-06	1424.2	393.8	9.4673e-06	3.9706e-06	443.54	146.11	129.33	43.769	5.9733e-06	53.54	8.0035e-05	4.7522e-05	1.3135e-05	1428.3	5.4555e-07	5.2664e-07	1420.7	392.19	5.871e-07	5.1665e-07	437.52	144.41	127.56	43.514	5.5346e-07	53.232	38.392	-122.671	-54.939	-160.807	-41.180	-23.353	-161.320	-156.401	-117.046	-25.772	-157.102	-152.800	-152.201	-147.189	-43.326	-148.326	-8191	255	
2028.843	1	1	0	0	0.21209	0.19912	0.034376	0.26368	0.13807	0.076248	0.37033	0.16694	0.16515	0.10426	0.06545	0.25787	0.087137	0.13278	0.12778	0.3159	0.37917	-0.875	-0.57083	-0.525	-0.92708	-0.48125	-0.93125	-1.2354	-0.09375	-1.0375	-0.84167	-0.30208	-1.0521	-0.5	-0.6	-1.3146	153.096	55.406	-156.137	144.388	61.305	124.306	150.858	144.730	-135.326	-150.193	1.667	127.367	-153.815	-81.155	97.946	175.061	0.001618	0.0004202	0.00012832	1435.7	4.6464e-06	3.9187e-06	1417.1	393.6	1.1161e-05	4.2262e-06	443.17	145.71	129.25	43.841	7.0741e-06	53.727	7.8099e-05	4.9955e-05	1.3567e-05	1429.6	5.6529e-07	5.4382e-07	1418.3	392.64	5.8631e-07	5.0759e-07	437.05	144.31	127.44	43.549	5.5494e-07	53.326	37.752	-119.994	-55.103	-160.963	-57.758	-47.196	-161.301	-156.525	-117.597	-27.223	-157.044	-152.891	-152.183	-147.301	-69.607	-148.519	-8191	255	
2028.940	1	1	0	0	0.066328	0.21963	0.16936	0.1318	0.10126	0.095384	0.21063	0.27861	0.039066	0.24866	0.33973	0.10031	0.26884	0.031935	0.068512	0.20807	0.014583	-0.8	-0.91667	-0.36042	-1.1812	-0.54792	-0.73542	-1.2062	-0.10417	-0.89583	-1.0104	-0.27292	-1.2208	-0.75208	-0.53333	-1.2604	-112.944	23.860	-140.735	63.925	58.122	-65.309	127.669	180.910	5.698	44.728	93.043	-169.798	-131.060	63.163	-28.645	159.625	0.0017187	0.00033998	8.8039e-05	1433	5.7516e-06	3.1822e-06	1423.5	393.83	7.1355e-06	3.7476e-06	443.49	146.37	129.37	43.844	7.2875e-06	53.67	7.8482e-05	4.802e-05	1.2575e-05	1428.9	5.5564e-07	5.1247e-07	1420.1	392.92	5.7423e-07	4.993e-07	437.27	144.64	127.51	43.596	5.5386e-07	53.248	36.568	-123.165	-76.606	-160.743	-56.667	-50.601	-161.099	-156.369	-119.759	-34.337	-156.962	-153.026	-152.016	-147.152	-65.037	-148.443	-8191	255	
2029.060	1	1	0	0	0.079287	0.25993	0.075615	0.14311	0.11244	0.16535	0.087083	0.39303	0.27613	0.22971	0.2255	0.29328	0.39651	0.28701	0.32277	0.060128	-0.020833	-0.82083	-0.91667	-0.44375	-1.0375	-0.74583	-0.61667	-1.3208	-0.53958	-0.76875	-1.1646	-0.49583	-1.2417	-0.95833	-0.35	-1.3	121.549	173.075	79.440	134.825	-26.633	158.674	39.138	142.828	-98.745	168.809	130.423	149.354	177.311	174.200	25.824	-54.402	0.0017965	0.00047554	0.0001133	1434.6	6.1345e-06	3.8951e-06	1425	393.86	6.7621e-06	4.0151e-06	444.8	145.9	129.72	43.791	6.7976e-06	53.654	7.5918e-05	4.8066e-05	1.319e-05	1428.1	5.726e-07	5.1851e-07	1421.4	393.04	5.6729e-07	5.1925e-07	438.28	144.5	127.62	43.566	5.5133e-07	53.27	37.807	-131.580	-66.811	-160.863	-50.576	-52.138	-161.126	-156.299	-99.138	-24.387	-156.828	-152.833	-152.050	-147.025	-79.557	-148.475	-8191	255	
2029.156	1	1	0	0	0.029599	0.13713	0.1409	0.029985	0.13438	0.074445	0.18243	0.20596	0.31619	0.086003	0.32737	0.25703	0.20981	0.15437	0.32998	0.12168	0.11458	-0.51042	-1.1437	-0.43542	-0.71875	-0.8375	-0.75833	-1.3083	-0.61875	-0.38333	-1.3229	-0.41458	-0.75833	-1.0771	-0.20833	-1.1792	-59.623	-127.173	144.114	171.222	112.827	99.047	-162.187	167.316	-1.488	156.816	107.297	114.383	164.514	-150.527	86.955	-21.755	0.0017536	0.00043993	8.3943e-05	1438.8	5.4996e-06	3.4812e-06	1426.4	394.5	9.9772e-06	2.247e-06	443.22	145.89	129.24	43.914	4.7043e-06	53.462	7.7949e-05	4.8e-05	1.3597e-05	1430.5	5.4602e-07	5.1561e-07	1420	393.71	5.7764e-07	5.2338e-07	437.45	144.77	127.35	43.646	5.4322e-07	53.27	39.619	-117.973	-75.188	-160.782	-58.047	-37.487	-161.175	-156.139	-102.061	-12.594	-156.999	-152.817	-152.008	-147.340	-72.491	-148.012	-8191	255	
2029.252	1	1	0	0	0.15446	0.18476	0.11242	0.25384	0.27105	0.11903	0.070118	0.21918	0.17064	0.22272	0.22703	0.54911	0.37037	0.14088	0.11936	0.29277	-0.10417	-0.49375	-1.3583	-0.47083	-0.85625	-0.67292	-0.46875	-1.2167	-0.58542	-0.30833	-1.1708	-0.13125	-1.0562	-1.1729	-0.16875	-1.2375	104.518	-128.970	-96.439	132.682	104.067	-112.671	35.505	170.629	111.410	104.529	50.626	158.237	184.260	179.384	-1.708	127.402	0.0016916	0.00036335	9.5427e-05	1434.8	4.087e-06	3.969e-06	1422.5	395.24	1.0373e-05	4.7932e-06	444.55	146.5	130.08	43.915	9.0082e-06	53.485	7.7178e-05	4.6431e-05	1.3091e-05	1428	5.4678e-07	4.9098e-07	1418	394.04	5.4744e-07	4.9756e-07	438.56	144.72	127.79	43.694	5.355e-07	53.374	38.746	-117.408	-71.015	-160.892	-72.325	-32.242	-161.188	-156.005	-123.690	-16.804	-157.156	-152.858	-152.090	-147.495	-68.599	-148.319	-8191	255	
2029.324	1	1	0	0	0.099006	0.15313	0.20703	0.33809	0.22155	0.25484	0.17735	0.32094	0.20284	0.37207	0.37147	0.14803	0.37227	0.041823	0.074574	0.10418	-0.56875	-0.21458	-1.2042	-0.49375	-0.67083	-0.84375	-0.33542	-1.0271	-0.72083	-0.22708	-1.2583	-0.64167	-0.55417	-1.0688	-0.19375	-0.85208	57.154	-29.396	139.356	131.660	1.299	-0.255	82.222	73.699	-70.418	132.278	82.147	-170.877	162.323	95.623	105.037	-64.513	0.0016998	0.00052173	0.00011022	1434.1	5.362e-06	3.4609e-06	1424	395.05	9.114e-06	4.0277e-06	445.98	146.32	129.32	44.005	7.6314e-06	53.84	7.5433e-05	4.7875e-05	1.2648e-05	1427.8	5.5067e-07	4.9265e-07	1421.1	393.44	5.5772e-07	5.1161e-07	438.86	144.82	127.57	43.724	5.3622e-07	53.414	38.677	-125.971	-68.070	-160.737	-60.845	-62.780	-160.903	-156.197	-108.046	-27.742	-157.149	-152.665	-152.054	-147.480	-80.745	-148.151	-8191	255	
2029.443	1	1	0	0	0.3201	0.28292	0.13349	0.47013	0.11263	0.23748	0.19507	0.24717	0.18683	0.35919	0.15757	0.29103	0.4114	0.2266	0.063819	0.064529	-0.4875	-0.14375	-1.1562	-0.48958	-0.34792	-1.1229	-0.29375	-1.0771	-0.6875	-0.20625	-1.2417	-0.72292	-0.5125	-1.0146	-0.22708	-1.0021	-110.606	167.680	-63.816	134.317	13.932	-126.442	147.266	113.557	96.405	-116.643	54.695	159.378	160.502	139.878	-105.136	159.116	0.0017852	0.00041214	0.00013082	1430.5	4.3681e-06	4.3197e-06	1424.6	395.89	8.9483e-06	3.8584e-06	443.62	146.03	129.82	44.037	5.9192e-06	53.799	7.6071e-05	4.7604e-05	1.2875e-05	1426	5.4548e-07	4.9391e-07	1420.3	393.39	5.5082e-07	5.0904e-07	438.13	144.93	127.85	43.748	5.4044e-07	53.426	39.038	-128.415	-67.640	-160.713	-62.765	-42.055	-161.083	-156.359	-119.512	-26.582	-157.049	-152.834	-152.150	-147.372	-53.968	-148.299	-8191	255	
2029.539	1	1	0	0	0.18543	0.16891	0.29469	0.34729	0.073165	0.084717	0.20758	0.14423	0.25905	0.10519	0.16914	0.45646	0.16217	0.16598	0.14185	0.15511	-0.36875	-0.2125	-0.74792	-0.53333	-0.33333	-1.1354	-0.65833	-0.75208	-1.0542	-0.0875	-1.0958	-0.60208	-0.28542	-1.0333	-0.375	-0.63125	-173.799	167.724	92.932	-152.433	155.449	105.153	145.034	134.415	-68.878	117.902	-161.880	156.275	-78.250	-17.460	-45.859	80.600	0.0017532	0.00047495	9.2076e-05	1435.5	5.1974e-06	2.5864e-06	1421.1	394.67	9.0901e-06	3.5026e-06	445.42	146.46	129.73	44.165	5.185e-06	53.933	7.5427e-05	4.7436e-05	1.2701e-05	1429.5	5.5618e-07	4.8559e-07	1421.8	392.92	5.4582e-07	5.1643e-07	439.43	144.8	127.76	43.736	5.3705e-07	53.489	39.046	-114.899	-65.102	-160.969	-59.115	-62.198	-161.424	-156.423	-118.884	-20.831	-156.879	-152.800	-151.863	-147.143	-67.403	-147.875	-8191	255	
2029.635	1	1	0	0	0.17217	0.15582	0.13025	0.179	0.10181	0.28824	0.090883	0.22176	0.23463	0.16345	0.24161	0.23322	0.02303	0.071367	0.10346	0.039471	-0.6125	0.054167	-1.0792	-0.725	-0.32083	-1.0083	-0.6125	-0.66667	-0.96667	-0.33958	-0.89375	-0.88542	-0.24792	-1.3813	-0.3	-0.68958	-119.478	-87.305	173.223	103.855	-86.079	-6.700	171.939	121.846	-48.695	110.633	126.857	121.971	-23.929	114.453	117.805	169.005	0.0017158	0.00027903	0.00011162	1438.8	4.9207e-06	5.1429e-06	1425	395.53	8.1259e-06	4.0107e-06	445.2	145.96	129.7	43.871	5.9088e-06	53.753	7.595e-05	4.6108e-05	1.2618e-05	1429.1	5.6043e-07	4.9312e-07	1420.3	393.86	5.547e-07	4.9763e-07	438.46	144.52	127.63	43.611	5.5162e-07	53.341	39.267	-98.470	-80.640	-160.811	-45.908	-60.331	-161.137	-156.205	-122.895	-29.475	-156.960	-152.878	-151.996	-147.539	-76.213	-148.393	-8191	255	
2029.731	1	1	0	0	0.1755	0.2323	0.22153	0.16794	0.17392	0.35387	0.33825	0.43522	0.45522	0.085078	0.17968	0.32932	0.2278	0.28496	0.10825	0.091241	-0.47083	-0.41042	-0.71667	-1.1167	0.016667	-1.1333	-0.625	-0.55625	-1.25	-0.27917	-0.84792	-1.0271	-0.33333	-0.98125	-0.475	-0.30625	144.366	131.835	126.039	84.358	115.374	84.958	157.242	92.034	123.240	104.955	174.156	112.300	144.271	145.809	125.045	155.670	0.0017003	0.00036534	0.00010739	1432.8	2.6958e-06	3.9754e-06	1423.4	392.95	8.1172e-06	5.1673e-06	443.81	146.16	129.95	44.115	5.5335e-06	53.669	7.5924e-05	4.6803e-05	1.3138e-05	1429.3	5.6781e-07	5.0252e-07	1418.4	392.29	5.5319e-07	5.1277e-07	438.22	144.81	127.59	43.7	5.2948e-07	53.352	38.210	-108.906	-64.032	-160.878	-72.747	-50.586	-161.087	-156.360	-105.345	-24.882	-156.758	-152.997	-151.938	-147.285	-79.096	-148.210	-8191	255	
2029.852	1	1	0	0	0.10264	0.30957	0.2428	0.11175	0.024705	0.13236	0.28363	0.12333	0.28194	0.031575	0.12802	0.33395	0.078299	0.061767	0.052975	0.28819	-0.75625	-0.21042	-0.69375	-1.1833	-0.01875	-1.0583	-0.825	-0.45625	-1.1708	-0.66875	-0.81458	-1.2563	-0.45625	-1.0271	-0.92917	-0.29375	-55.383	158.106	-151.559	59.531	-156.380	175.389	109.370	184.149	102.669	69.761	115.897	106.475	-34.497	149.653	143.151	126.573	0.0016624	0.0005573	0.00012601	1432	4.9622e-06	3.7847e-06	1427.8	394.87	6.3716e-06	4.6465e-06	444.64	145.64	129.41	43.905	6.6069e-06	53.852	7.6425e-05	4.8801e-05	1.3001e-05	1428	5.8528e-07	4.8899e-07	1420.5	393.43	5.592e-07	5.1147e-07	439	144.51	127.5	43.686	5.4434e-07	53.388	39.621	-113.682	-75.331	-160.707	-72.658	-24.876	-160.931	-155.992	-100.337	-48.176	-156.832	-152.622	-151.898	-146.813	-74.317	-147.926	-8191	255	
2029.924	1	1	0	0	0.27085	0.25161	0.1232	0.17607	0.26207	0.16739	0.31594	0.37284	0.069496	0.16109	0.066612	0.15535	0.19651	0.25583	0.2574	0.18671	-0.61042	-0.32708	-0.52708	-1.3188	-0.20625	-0.7875	-1.1083	-0.35833	-0.97708	-0.56875	-0.59792	-1.2437	-0.3625	-0.95833	-0.86875	-0.48125	-72.379	-97.380	92.119	87.278	80.618	152.212	-139.610	112.166	54.388	-76.432	155.804	172.313	165.418	144.877	118.306	-145.585	0.0018946	0.00040928	9.4207e-05	1435.8	4.7496e-06	1.9121e-06	1426.7	395.03	9.0968e-06	5.7067e-06	444.62	146.34	129.31	44.065	8.0616e-06	53.694	7.7305e-05	4.7683e-05	1.2958e-05	1428.7	5.4678e-07	5.0176e-07	1419.5	393.4	5.6208e-07	5.1299e-07	438.75	144.65	127.41	43.684	5.3175e-07	53.343	36.166	-114.102	-57.669	-160.553	-63.929	-40.557	-161.209	-156.142	-123.899	-21.264	-156.950	-152.614	-151.985	-147.219	-58.104	-148.104	-8191	255	
2030.020	1	1	0	0	0.099498	0.13811	0.34509	0.32607	0.1349	0.28691	0.22415	0.075912	0.038713	0.24825	0.15623	0.080855	0.12449	0.15555	0.13459	0.3174	-0.82083	-0.575	-0.35417	-1.4188	-0.23333	-0.82917	-1.1771	-0.28333	-0.97292	-0.63542	-0.4	-1.3167	-0.35208	-0.80208	-1.0646	-0.2125	78.632	-88.716	181.005	120.036	163.921	-144.316	-121.445	181.831	-149.880	128.611	45.215	-0.698	38.792	-95.930	183.084	134.778	0.0017699	0.00043552	0.00012976	1437.5	4.6836e-06	2.635e-06	1423	393.95	9.7127e-06	4.0377e-06	443.01	145.82	129.75	43.741	7.4435e-06	53.856	7.8919e-05	4.772e-05	1.2914e-05	1430.5	5.5592e-07	4.9236e-07	1419.7	392.96	5.5071e-07	5.0984e-07	437.82	144.64	127.71	43.645	5.4033e-07	53.306	38.624	-132.416	-85.095	-160.767	-46.966	-61.273	-161.093	-156.170	-121.043	-38.852	-156.899	-152.461	-152.023	-147.068	-56.527	-148.336	-8191	255	
2030.141	1	1	0	0	0.12367	0.48659	0.15121	0.3799	0.1099	0.17306	0.26967	0.2648	0.38642	0.071222	0.10033	0.13496	0.045029	0.23289	0.077425	0.46245	-0.51875	-0.35208	-0.33958	-1.2021	-0.39792	-0.44792	-1.2792	-0.45208	-0.87917	-0.73125	-0.2	-1.1542	-0.475	-0.5125	-1.3292	-0.4375	119.231	142.898	7.593	-165.304	-0.325	157.900	85.284	123.178	-123.455	-43.870	-124.793	182.895	-55.992	-142.488	104.955	160.617	0.0016963	0.00036446	0.00011248	1433.8	4.611e-06	3.2038e-06	1424.3	394.67	7.546e-06	5.1486e-06	444.65	146.09	129.07	43.827	6.7964e-06	53.711	7.4923e-05	4.7298e-05	1.3267e-05	1429.4	5.6017e-07	5.2096e-07	1420.4	392.95	5.7498e-07	5.1212e-07	438.1	144.6	127.25	43.639	5.2598e-07	53.289	40.741	-125.840	-85.522	-160.736	-28.093	-36.275	-161.114	-156.273	-122.637	-46.824	-156.877	-152.731	-152.251	-147.327	-74.744	-148.251	-8191	255	
2030.237	1	1	0	0	0.20009	0.26804	0.12727	0.11855	0.2783	0.20386	0.21617	0.059371	0.13539	0.30343	0.057708	0.30381	0.34422	0.094425	0.040754	0.2344	-0.56458	-0.77292	-0.089583	-1.2479	-0.4625	-0.46875	-1.3813	-0.091667	-0.71042	-0.86667	-0.34167	-1.2479	-0.6125	-0.41875	-1.1646	-0.39792	169.609	-155.555	135.831	-4.891	-41.909	-126.869	145.530	-72.190	54.997	-146.892	154.785	89.347	-124.648	-115.973	-164.459	150.687	0.0018548	0.00037284	0.00012177	1436.7	6.4976e-06	3.9926e-06	1423.9	394.24	1.0543e-05	3.3992e-06	442.02	146.69	129.11	43.89	6.8454e-06	53.655	7.7216e-05	4.6263e-05	1.402e-05	1429.7	5.5459e-07	5.0299e-07	1418.5	392.64	5.5812e-07	5.0274e-07	437.29	144.7	127.35	43.663	5.2508e-07	53.248	38.476	-115.909	-77.057	-160.710	-57.844	-55.916	-161.053	-156.183	-116.421	-25.014	-156.918	-152.652	-151.891	-147.204	-70.748	-148.330	-8191	255	
2030.333	1	1	0	0	0.39785	0.18033	0.12627	0.16656	0.14252	0.21578	0.13473	0.15672	0.11937	0.15616	0.036218	0.14784	0.18268	0.12406	0.098425	0.11592	-0.18958	-0.95417	-0.28333	-1.2625	-0.48958	-0.41667	-1.2042	-0.41458	-0.51458	-0.95625	-0.39792	-0.98125	-0.79375	-0.39583	-1.1437	-0.49792	98.711	-150.191	33.711	127.006	-33.147	-79.193	73.594	101.139	106.930	15.322	48.343	114.282	-158.254	-159.116	8.653	33.766	0.0018363	0.00030851	0.0001026	1436.7	5.5258e-06	5.1496e-06	1424.7	392.66	1.0371e-05	1.835e-06	443.18	146.41	129.04	43.811	6.8523e-06	53.883	7.7187e-05	4.6253e-05	1.3066e-05	1429.1	5.5315e-07	5.1771e-07	1418.9	392.57	5.6905e-07	4.8771e-07	437.84	144.62	127.42	43.565	5.1852e-07	53.269	40.099	-126.533	-69.603	-160.772	-51.287	-36.647	-161.367	-156.252	-116.565	-38.060	-157.248	-153.134	-152.383	-147.241	-78.721	-148.340	-8191	255	
2030.429	1	1	0	0	0.12631	0.31218	0.016554	0.05232	0.22317	0.11207	0.37116	0.20823	0.24265	0.19114	0.17714	0.23698	0.25289	0.28658	0.20919	0.193	-0.13958	-1.025	-0.10417	-1.1375	-0.74792	-0.26875	-1.3563	-0.62708	-0.29792	-1.1437	-0.27708	-0.75625	-0.93958	-0.3125	-1.1229	-0.45833	-60.947	54.476	55.140	-84.687	178.733	34.877	130.977	146.526	31.237	25.942	-127.350	-133.317	99.509	44.242	78.780	-173.573	0.0017248	0.0003264	9.3394e-05	1435.7	5.5243e-06	3.4991e-06	1427.3	393.97	7.2501e-06	3.7644e-06	442.55	146.35	129.28	44.099	7.0719e-06	53.533	7.7085e-05	4.7944e-05	1.3484e-05	1428.8	5.6781e-07	5.1001e-07	1420.6	392.95	5.7448e-07	5.1183e-07	437.88	144.65	127.39	43.634	5.3208e-07	53.246	39.924	-117.978	-68.228	-161.082	-44.376	-49.767	-161.347	-156.682	-118.094	-22.348	-157.396	-153.065	-152.249	-147.227	-54.766	-148.444	-8191	255	
2030.523	1	1	0	0	0.075777	0.12275	0.13189	0.30283	0.11519	0.028248	0.42504	0.25661	0.090324	0.056983	0.18396	0.088802	0.31417	0.29827	0.073675	0.17412	-0.26667	-0.90625	-0.08125	-1.0771	-0.99792	0.083333	-1.2354	-0.6625	-0.61042	-1.2375	-0.5125	-0.84375	-1.025	-0.45833	-0.93333	-0.69375	45.897	-54.226	-116.435	178.652	-10.902	-79.083	152.596	-115.053	63.367	-114.551	55.540	32.957	183.194	108.613	77.666	181.682	0.0016799	0.00040804	0.00014379	1433.6	3.7649e-06	3.6456e-06	1420.1	393.08	8.1978e-06	3.4675e-06	442.73	145.98	129.25	43.881	6.8015e-06	53.48	7.5883e-05	4.7861e-05	1.3168e-05	1428.8	5.3773e-07	5.0371e-07	1418.4	392.76	5.6725e-07	4.8637e-07	437.27	144.54	127.38	43.619	5.3395e-07	53.213	39.151	-116.612	-79.877	-161.022	-56.688	-58.776	-161.235	-156.424	-120.159	-5.035	-157.169	-153.030	-152.236	-147.659	-67.249	-148.399	-8191	255	
2030.620	1	1	0	0	0.20201	0.21785	0.13295	0.15827	0.1365	0.087288	0.37531	0.28366	0.11463	0.20788	0.1255	0.13524	0.22663	0.088549	0.23863	0.29556	0.15208	-1.1292	-0.325	-0.73125	-1.1292	-0.2	-1.3167	-1.1271	-0.0875	-1.1938	-0.45625	-0.46875	-1.2188	-0.21875	-0.99375	-0.69583	-43.648	79.748	168.378	158.757	-15.970	-90.982	114.702	141.931	-165.441	-3.898	116.362	-173.608	168.400	-25.924	-113.258	-81.274	0.0018036	0.00037028	0.00012465	1436.9	4.2982e-06	3.5191e-06	1428	393.91	8.182e-06	3.9073e-06	441.72	146.42	128.99	43.829	6.2767e-06	53.641	7.8061e-05	4.705e-05	1.3298e-05	1429	5.4944e-07	5.0946e-07	1420.3	392.83	5.7649e-07	5.2346e-07	437.29	144.6	127.36	43.562	5.5151e-07	53.265	35.451	-119.631	-77.782	-160.947	-58.047	-60.110	-161.373	-156.619	-112.875	-21.890	-157.170	-152.784	-152.293	-147.372	-55.099	-148.564	-8191	255	
2030.740	1	1	0	0	0.083686	0.34532	0.19326	0.24402	0.25295	0.032305	0.23012	0.27067	0.082939	0.38125	0.20891	0.17063	0.23361	0.38897	0.14835	0.15247	0.1	-1.0083	-0.44583	-0.60208	-1.1396	-0.10417	-1.0354	-1.0771	-0.085417	-1.0938	-0.52708	-0.63542	-1.3417	-0.34167	-0.625	-0.99792	49.538	-158.914	175.650	-132.158	-3.332	-99.191	125.584	142.163	180.254	-172.919	74.785	177.040	-133.412	-155.659	33.212	-105.356	0.0017576	0.00048327	0.00010692	1437	3.9809e-06	4.2625e-06	1415.9	393.98	1.0895e-05	3.4773e-06	442.71	146.04	129.42	43.913	7.177e-06	53.569	7.7245e-05	4.6655e-05	1.347e-05	1429.1	5.5553e-07	5.3402e-07	1416.6	392.54	5.7268e-07	4.9998e-07	437.7	144.33	127.33	43.512	5.4542e-07	53.132	39.378	-118.584	-60.498	-161.132	-68.356	-47.535	-161.107	-156.610	-127.528	-23.353	-157.044	-152.981	-152.108	-147.357	-75.846	-148.319	-8191	255	
2030.836	1	1	0	0	0.11382	0.2053	0.049324	0.23612	0.14163	0.20237	0.13549	0.21308	0.17642	0.081398	0.073668	0.40648	0.15235	0.11794	0.18735	0.20629	0.11667	-1.1146	-0.65208	-0.46042	-1.0833	-0.49375	-0.91042	-1.3146	-0.3375	-1.0146	-0.5625	-0.53958	-1.1792	-0.64167	-0.4625	-1.0375	-27.501	101.821	124.956	96.963	17.453	106.696	-106.257	160.701	-167.848	-102.850	-150.073	154.881	-105.171	147.503	-95.342	131.398	0.0017244	0.00043688	0.00012648	1431	5.6994e-06	3.4956e-06	1421.2	396.2	7.9439e-06	4.5524e-06	443.41	146.19	129.63	43.794	9.3546e-06	53.39	7.8103e-05	4.767e-05	1.3151e-05	1427.2	5.681e-07	5.1587e-07	1419.4	393.12	5.7261e-07	5.0455e-07	437.48	144.49	127.49	43.43	5.3759e-07	53.132	37.967	-102.442	-64.112	-160.916	-64.180	-24.408	-161.114	-156.523	-110.532	-18.736	-157.022	-152.625	-152.008	-147.390	-70.320	-148.344	-8191	255	
2030.932	1	1	0	0	0.16854	0.129	0.1415	0.15896	0.20638	0.22852	0.13067	0.26927	0.21097	0.20374	0.17466	0.089764	0.16029	0.25633	0.16592	0.13127	0.058333	-1.1458	-0.80625	-0.22083	-1.3167	-0.2875	-0.82708	-1.3583	-0.13333	-0.87083	-1.0604	-0.44583	-1.2833	-0.50833	-0.47292	-1.1625	94.136	-78.670	-64.892	-156.288	-74.143	98.803	-157.884	117.867	-16.990	-115.990	101.462	-53.486	-132.438	-135.181	134.170	118.081	0.0017149	0.00060285	6.1131e-05	1437.6	4.769e-06	3.8706e-06	1423.5	394.3	8.629e-06	5.6092e-06	443.13	146.13	129.31	43.735	7.1948e-06	53.605	7.7219e-05	4.7377e-05	1.2784e-05	1427.5	5.5272e-07	5.0498e-07	1417	392.54	5.6765e-07	5.1607e-07	437.35	144.27	127.36	43.517	5.3392e-07	53.218	35.054	-121.154	-92.860	-160.843	-40.252	-30.070	-161.173	-156.398	-114.796	-24.063	-157.102	-152.578	-151.950	-147.531	-61.904	-148.385	-8191	255	
2031.029	1	1	0	0	0.12528	0.1038	0.062146	0.21371	0.086577	0.036857	0.11787	0.40903	0.20638	0.23099	0.26762	0.13579	0.2988	0.25924	0.13836	0.055028	0.22292	-0.7125	-0.91458	-0.19167	-1.2146	-0.67083	-0.42083	-1.2521	-0.19583	-0.78333	-1.1479	-0.23125	-1.2042	-0.75417	-0.46667	-1.3438	-79.810	-41.923	-40.249	-161.069	176.296	-144.244	98.119	142.248	20.747	-120.611	-173.269	-135.839	-114.712	19.732	161.803	144.352	0.0018007	0.00037458	0.0001177	1428.2	4.5137e-06	3.5071e-06	1419.8	393.92	1.1551e-05	4.8453e-06	443.53	146.46	129.86	43.795	7.0662e-06	53.476	7.6954e-05	4.7647e-05	1.2811e-05	1426.3	5.4706e-07	5.1521e-07	1418.8	392.72	5.8412e-07	5.0824e-07	437.26	144.44	127.45	43.594	5.297e-07	53.144	36.353	-122.785	-85.940	-160.649	-54.862	-58.841	-160.949	-156.509	-108.462	-6.312	-157.026	-152.653	-152.037	-147.545	-72.314	-148.412	-8191	255	
2031.149	1	1	0	0	0.24687	0.23241	0.14626	0.30181	0.25025	0.26405	0.1788	0.19818	0.27322	0.12437	0.38552	0.15577	0.32315	0.19476	0.15594	0.24896	0.10833	-0.6625	-1.0208	-0.475	-1.0542	-0.79375	-0.425	-1.3604	-0.41042	-0.44375	-1.25	-0.22292	-1.2625	-0.84792	-0.035417	-1.2625	-158.997	39.651	95.626	159.730	-99.362	13.362	119.137	153.120	-156.696	165.355	129.661	11.253	-119.972	179.631	159.088	102.233	0.0017155	0.00039115	0.00010003	1429	6.3112e-06	4.1106e-06	1423.2	395.36	6.7933e-06	4.126e-06	440.52	146.19	129.05	43.662	5.6661e-06	53.348	7.7643e-05	4.5788e-05	1.3273e-05	1427.2	5.5971e-07	5.0614e-07	1419.6	393.16	5.6456e-07	5.0571e-07	436.83	144.58	127.25	43.584	5.4776e-07	53.185	37.714	-129.990	-86.678	-161.007	-67.947	-57.737	-161.222	-156.553	-117.274	-22.211	-157.198	-152.874	-152.099	-147.463	-69.478	-148.437	-8191	255	
2031.221	1	1	0	0	0.071371	0.042694	0.12702	0.21403	0.06867	0.13472	0.19555	0.089526	0.090443	0.27584	0.31402	0.22516	0.13587	0.12596	0.18928	0.029389	-0.19375	-0.38125	-1.1458	-0.47917	-0.88958	-0.68958	-0.44375	-1.2437	-0.58333	-0.45625	-1.3458	-0.34792	-0.79583	-0.93333	-0.175	-1.0562	-145.552	-2.730	-46.679	135.308	80.324	17.329	164.020	-30.087	108.613	-84.771	133.468	123.008	164.460	172.169	5.638	-7.096	0.0016998	0.00037417	0.0001006	1425.6	4.5903e-06	2.9662e-06	1421.2	395.82	7.3792e-06	4.6822e-06	443.03	145.79	129.18	43.825	5.7814e-06	53.672	7.6572e-05	4.8115e-05	1.3132e-05	1426.7	5.5618e-07	5.0368e-07	1416.5	393.17	5.7948e-07	5.2907e-07	437.24	144.13	127.26	43.551	5.5328e-07	53.123	35.364	-115.177	-65.135	-160.993	-36.859	-68.628	-161.282	-156.524	-135.079	-11.220	-157.163	-152.901	-152.085	-147.392	-70.369	-148.195	-8191	255	
2031.317	1	1	0	0	0.12819	0.12463	0.26094	0.13352	0.048228	0.025249	0.31575	0.17423	0.11091	0.11793	0.16234	0.18074	0.068804	0.21237	0.15596	0.28241	-0.33333	-0.325	-1.2104	-0.5625	-0.81042	-1.0542	-0.36875	-1.075	-0.57083	-0.46875	-0.99375	-0.51458	-0.85208	-1.1229	-0.23125	-0.87292	-3.482	24.602	-94.745	110.617	-48.060	-25.837	120.573	-97.678	51.281	58.241	166.693	-172.242	-97.464	115.339	139.307	168.754	0.00182	0.00036179	0.00010638	1431.9	4.8039e-06	4.2243e-06	1422.4	392.65	9.3481e-06	4.0325e-06	444.19	145.66	129.1	43.674	8.2107e-06	53.716	7.8871e-05	4.9519e-05	1.3095e-05	1426.8	5.5229e-07	5.1898e-07	1417.3	391.82	5.7581e-07	5.1795e-07	437.58	144.16	127.18	43.534	5.7124e-07	53.203	38.240	-130.293	-71.117	-160.915	-42.694	-52.487	-161.076	-156.275	-125.923	-28.011	-156.852	-152.924	-151.973	-147.152	-62.926	-148.374	-8191	255	
2031.413	1	1	0	0	0.085262	0.14207	0.37488	0.1308	0.2479	0.078246	0.26723	0.16619	0.22406	0.18707	0.063152	0.1064	0.14037	0.21485	0.27342	0.20831	-0.29375	-0.14375	-1.1042	-0.47083	-0.51875	-1.1271	-0.61875	-1.1562	-0.84583	-0.21042	-1.2167	-0.61042	-0.63333	-1.1792	-0.32917	-1	79.601	170.605	14.025	57.289	-44.754	58.182	143.635	-100.728	-106.423	74.238	153.951	-115.715	-113.476	152.444	61.260	-149.111	0.0016902	0.00048287	0.00011218	1429.8	5.6948e-06	4.239e-06	1418.5	394.26	9.8421e-06	4.0103e-06	442.25	145.71	129.14	43.733	7.2133e-06	53.548	7.7669e-05	4.8089e-05	1.3433e-05	1425.7	5.8398e-07	5.0802e-07	1415.8	392.47	5.7408e-07	5.2407e-07	437.04	144.21	127.34	43.44	5.5425e-07	53.216	38.822	-117.623	-73.908	-161.009	-54.282	-57.242	-161.105	-156.201	-129.932	-13.914	-157.034	-153.133	-152.012	-147.250	-87.213	-148.290	-8191	255	
2031.532	1	1	0	0	0.055072	0.076015	0.27337	0.31537	0.20404	0.25378	0.21254	0.28538	0.28841	0.11327	0.11882	0.18643	0.30137	0.45014	0.20726	0.2998	-0.52708	-0.0125	-1.0875	-0.59167	-0.37083	-1.1938	-0.45	-0.72917	-0.98542	-0.13333	-1.2354	-0.84583	-0.36458	-1.1146	-0.375	-0.81042	7.249	-85.410	174.762	142.336	-91.656	-132.712	166.335	90.415	109.088	108.200	114.721	183.753	-166.253	175.903	-95.112	173.928	0.0018835	0.00053143	9.5303e-05	1428.5	3.6857e-06	3.9742e-06	1424.1	393.26	1.0529e-05	5.2367e-06	442.25	145.73	128.96	43.731	5.5884e-06	53.319	7.8348e-05	4.9974e-05	1.3016e-05	1425.9	5.5538e-07	4.8498e-07	1417.6	392.68	5.6873e-07	5.1962e-07	437.03	144.3	127.21	43.442	5.6381e-07	53.119	38.629	-120.666	-81.230	-160.674	-68.074	-53.476	-161.075	-156.150	-110.344	-18.398	-156.752	-152.879	-151.663	-147.092	-71.369	-148.422	-8191	255	
2031.628	1	1	0	0	0.23322	0.34096	0.15399	0.19875	0.22003	0.19893	0.33814	0.31276	0.056108	0.21663	0.23318	0.45294	0.23813	0.23667	0.14215	0.23646	-0.51458	-0.17708	-0.79792	-0.92292	-0.35	-1.1083	-0.75417	-0.77917	-0.91875	-0.27292	-1.0812	-0.95625	-0.28125	-1.2021	-0.45208	-0.52083	99.510	-86.013	77.052	95.856	35.378	-21.890	129.141	-160.771	47.591	-128.691	-60.555	142.391	151.772	138.134	23.385	79.358	0.0017938	0.00033691	0.00011311	1438.5	5.9412e-06	4.0312e-06	1422.6	393.82	8.2291e-06	4.8397e-06	442.95	145.13	129.2	43.907	7.4336e-06	53.624	7.8591e-05	4.8765e-05	1.3225e-05	1428.3	5.9209e-07	5.0415e-07	1418.2	392.61	5.6599e-07	5.4446e-07	437.41	143.96	127.12	43.525	5.6262e-07	53.233	36.222	-109.397	-66.471	-160.805	-47.387	-31.104	-161.239	-156.323	-114.501	-20.169	-156.875	-152.841	-151.864	-147.307	-92.453	-148.347	-8191	255	
2031.724	1	1	0	0	0.15908	0.18378	0.20586	0.056059	0.074575	0.134	0.10801	0.052289	0.15629	0.2171	0.37902	0.16196	0.1564	0.11986	0.0029012	0.17316	-0.88125	-0.15208	-1	-1.1083	-0.033333	-1.2646	-0.63542	-0.36667	-1.0438	-0.39792	-1	-0.89583	-0.34583	-1.2021	-0.71458	-0.59792	-70.578	167.573	-3.316	185.559	21.924	-46.488	54.633	-149.631	62.736	98.307	-148.339	125.568	150.159	-146.560	137.306	107.816	0.0016813	0.00031497	0.00010375	1431.5	4.2458e-06	4.07e-06	1422.9	394.04	1.0076e-05	4.7207e-06	444.63	145.6	129.17	43.667	5.663e-06	53.528	7.7481e-05	4.862e-05	1.3139e-05	1425.1	5.7444e-07	5.1637e-07	1417.4	392.47	5.7275e-07	5.3907e-07	437.15	144.11	127.29	43.473	5.6197e-07	53.088	37.865	-119.906	-63.031	-160.878	-53.561	-42.845	-160.931	-156.246	-129.127	-20.125	-156.884	-152.714	-151.961	-147.085	-62.235	-148.374	-8191	255	
#DATA ENDS
